BOXY.EXE: ISS Imagent and Oximeter Data Acquisition Program Version 0.80
Ascii Record File

#ACQ INFORMATION
2  Detector Channels 
16  External MUX Channels 
1  Auxiliary Channels 
5000  Waveform (CCF) Frequency (Hz)
1  Waveforms Skipped 
30  Waveforms Averaged 
1  Cycles Averaged 
16  Acquisitions per Waveform 
10.0806  Updata Rate (Hz) 

#FILE INFORMATION
TRUE -- External MUX Channel results are PARSED.
FALSE -- AC DC and Phase are NOT grouped.
TRUE -- Companion Program Settings File CREATED.
FALSE -- AC data not excluded
FALSE -- DC data not excluded
FALSE -- Phase data not excluded
FALSE -- Auxillary Chn. data not excluded
Tab delimiters

#CALIBRATION STATE
TRUE -- Waveform Calibration Values APPLIED.


#AUX CALIBRATION VALUES
Val Type	aux-1	

Term	1.0000e+00	
Factor	0.0000e+00	


#WF CALIBRATION VALUES
A = Detector Channel
Val Type	A-AC1	A-AC2	A-AC3	A-AC4	A-AC5	A-AC6	A-AC7	A-AC8	A-AC9	A-AC10	A-AC11	A-AC12	A-AC13	A-AC14	A-AC15	A-AC16	A-DC1	A-DC2	A-DC3	A-DC4	A-DC5	A-DC6	A-DC7	A-DC8	A-DC9	A-DC10	A-DC11	A-DC12	A-DC13	A-DC14	A-DC15	A-DC16	A-Ph1	A-Ph2	A-Ph3	A-Ph4	A-Ph5	A-Ph6	A-Ph7	A-Ph8	A-Ph9	A-Ph10	A-Ph11	A-Ph12	A-Ph13	A-Ph14	A-Ph15	A-Ph16	

Term	0.00000e+00	0.00000e+00	0.00000e+00	0.00000e+00	0.00000e+00	0.00000e+00	0.00000e+00	0.00000e+00	0.00000e+00	0.00000e+00	0.00000e+00	0.00000e+00	0.00000e+00	0.00000e+00	0.00000e+00	0.00000e+00	0.00000e+00	0.00000e+00	0.00000e+00	0.00000e+00	0.00000e+00	0.00000e+00	0.00000e+00	0.00000e+00	0.00000e+00	0.00000e+00	0.00000e+00	0.00000e+00	0.00000e+00	0.00000e+00	0.00000e+00	0.00000e+00	0.00000e+00	0.00000e+00	0.00000e+00	0.00000e+00	0.00000e+00	0.00000e+00	0.00000e+00	0.00000e+00	0.00000e+00	0.00000e+00	0.00000e+00	0.00000e+00	0.00000e+00	0.00000e+00	0.00000e+00	0.00000e+00	
Factor	1.00000e+00	1.00000e+00	1.00000e+00	1.00000e+00	1.00000e+00	1.00000e+00	1.00000e+00	1.00000e+00	1.00000e+00	1.00000e+00	1.00000e+00	1.00000e+00	1.00000e+00	1.00000e+00	1.00000e+00	1.00000e+00	1.00000e+00	1.00000e+00	1.00000e+00	1.00000e+00	1.00000e+00	1.00000e+00	1.00000e+00	1.00000e+00	1.00000e+00	1.00000e+00	1.00000e+00	1.00000e+00	1.00000e+00	1.00000e+00	1.00000e+00	1.00000e+00	X	X	X	X	X	X	X	X	X	X	X	X	X	X	X	X	

B = Detector Channel
Val Type	B-AC1	B-AC2	B-AC3	B-AC4	B-AC5	B-AC6	B-AC7	B-AC8	B-AC9	B-AC10	B-AC11	B-AC12	B-AC13	B-AC14	B-AC15	B-AC16	B-DC1	B-DC2	B-DC3	B-DC4	B-DC5	B-DC6	B-DC7	B-DC8	B-DC9	B-DC10	B-DC11	B-DC12	B-DC13	B-DC14	B-DC15	B-DC16	B-Ph1	B-Ph2	B-Ph3	B-Ph4	B-Ph5	B-Ph6	B-Ph7	B-Ph8	B-Ph9	B-Ph10	B-Ph11	B-Ph12	B-Ph13	B-Ph14	B-Ph15	B-Ph16	

Term	0.00000e+00	0.00000e+00	0.00000e+00	0.00000e+00	0.00000e+00	0.00000e+00	0.00000e+00	0.00000e+00	0.00000e+00	0.00000e+00	0.00000e+00	0.00000e+00	0.00000e+00	0.00000e+00	0.00000e+00	0.00000e+00	0.00000e+00	0.00000e+00	0.00000e+00	0.00000e+00	0.00000e+00	0.00000e+00	0.00000e+00	0.00000e+00	0.00000e+00	0.00000e+00	0.00000e+00	0.00000e+00	0.00000e+00	0.00000e+00	0.00000e+00	0.00000e+00	-3.43671e-01	-1.28886e+02	-1.25619e+02	-1.82862e+02	-5.71745e+01	-6.81809e+01	-1.60871e+02	-1.62015e+02	-3.19388e+01	-6.41406e+01	-1.72576e+02	-1.72478e+02	-1.82445e+02	-1.78185e+02	-5.29652e+01	-1.51172e+02	
Factor	3.74574e-05	1.65184e-04	5.15718e-05	1.65372e-01	2.41300e-06	1.69649e-06	1.91291e-01	5.90050e-02	2.23131e-06	1.72544e-06	9.08189e-02	3.18365e-02	2.88288e-02	9.23025e-03	2.06985e-06	1.33595e-02	8.31791e-06	1.05830e-05	2.94811e-06	8.55080e-02	1.10851e-07	1.17203e-07	9.29119e-02	3.05842e-02	1.10972e-07	1.16886e-07	4.57212e-02	1.59736e-02	1.50964e-02	4.83111e-03	1.13233e-07	6.77596e-03	X	X	X	X	X	X	X	X	X	X	X	X	X	X	X	X	



#DISTANCE SETTINGS
A = Detector Channel
A-1	A-2	A-3	A-4	A-5	A-6	A-7	A-8	A-9	A-10	A-11	A-12	A-13	A-14	A-15	A-16	

2.5000e+00	3.0000e+00	2.5000e+00	3.0000e+00	2.0000e+00	3.0000e+00	1.5000e+00	3.0000e+00	3.0000e+00	3.0000e+00	3.0000e+00	3.0000e+00	3.0000e+00	3.0000e+00	1.5000e+00	3.0000e+00	

B = Detector Channel
B-1	B-2	B-3	B-4	B-5	B-6	B-7	B-8	B-9	B-10	B-11	B-12	B-13	B-14	B-15	B-16	

1.0000e+01	1.0000e+01	1.0000e+01	1.4400e+00	1.0000e+01	1.0000e+01	1.5100e+00	1.9400e+00	1.0000e+01	1.0000e+01	1.9900e+00	2.4900e+00	2.4100e+00	2.9000e+00	1.0000e+01	2.9800e+00	




#DATA BEGINS
time	group	step	mark	flag	A-AC1	A-AC2	A-AC3	A-AC4	A-AC5	A-AC6	A-AC7	A-AC8	A-AC9	A-AC10	A-AC11	A-AC12	A-AC13	A-AC14	A-AC15	A-AC16	A-DC1	A-DC2	A-DC3	A-DC4	A-DC5	A-DC6	A-DC7	A-DC8	A-DC9	A-DC10	A-DC11	A-DC12	A-DC13	A-DC14	A-DC15	A-DC16	A-Ph1	A-Ph2	A-Ph3	A-Ph4	A-Ph5	A-Ph6	A-Ph7	A-Ph8	A-Ph9	A-Ph10	A-Ph11	A-Ph12	A-Ph13	A-Ph14	A-Ph15	A-Ph16	B-AC1	B-AC2	B-AC3	B-AC4	B-AC5	B-AC6	B-AC7	B-AC8	B-AC9	B-AC10	B-AC11	B-AC12	B-AC13	B-AC14	B-AC15	B-AC16	B-DC1	B-DC2	B-DC3	B-DC4	B-DC5	B-DC6	B-DC7	B-DC8	B-DC9	B-DC10	B-DC11	B-DC12	B-DC13	B-DC14	B-DC15	B-DC16	B-Ph1	B-Ph2	B-Ph3	B-Ph4	B-Ph5	B-Ph6	B-Ph7	B-Ph8	B-Ph9	B-Ph10	B-Ph11	B-Ph12	B-Ph13	B-Ph14	B-Ph15	B-Ph16	aux-1	digaux	

7660.775	1	1	0	768	0.13212	0.20102	0.042609	0.30818	0.19565	0.34379	0.21641	0.12833	0.19482	0.36258	0.18708	0.2934	0.27804	0.41236	0.080606	0.059868	-2.5438	-2.9167	-2.5229	-2.9938	-2.8521	-2.5458	-3.1167	-2.8104	-2.6292	-3.2125	-2.625	-2.9417	-2.8812	-2.8479	-3.0021	-2.9042	401.516	417.256	336.845	426.584	178.308	443.470	492.376	177.710	268.477	356.105	212.665	217.519	480.625	499.146	180.184	339.943	0.00099395	0.00049599	0.00021878	951.88	1.2027e-05	1.3316e-05	1094.5	255.71	8.3389e-06	6.4308e-06	327.49	114.71	85.274	31.361	1.5487e-05	47.118	0.0025172	0.0031094	0.000863	888	3.3434e-05	3.52e-05	1018.9	241.9	3.4986e-05	3.602e-05	312.84	109.77	82.274	30.261	3.6002e-05	45.225	322.579	292.167	279.990	188.026	356.765	355.929	187.589	193.752	391.214	323.629	192.269	197.034	198.348	202.304	333.027	199.750	-8191	255	
7660.871	1	1	0	0	0.18975	0.20467	0.18984	0.20617	0.051717	0.30637	0.17683	0.38664	0.29039	0.17922	0.17632	0.21841	0.12255	0.35797	0.074337	0.22037	-2.1521	-2.9104	-2.4375	-3.0187	-3.0458	-2.5604	-3.0708	-2.9	-2.5979	-2.975	-2.5687	-2.8375	-2.8271	-2.6521	-2.7396	-2.8542	323.325	264.771	235.112	212.405	179.011	252.124	491.610	499.507	327.953	414.327	442.384	460.282	282.744	527.402	332.627	203.145	0.00077447	0.00057782	0.0004602	959.98	1.2614e-05	4.3877e-06	1092.3	255.17	9.0009e-06	1.5082e-05	326.05	115.65	84.127	31.166	1.4012e-05	46.868	0.0027279	0.0032469	0.00092241	892.95	3.4197e-05	3.6375e-05	1017.7	239.91	3.3951e-05	3.5181e-05	310.9	108.97	81.204	30.107	3.341e-05	44.882	336.976	312.993	271.198	187.995	344.817	370.812	187.452	193.425	343.347	379.031	192.571	197.257	198.249	202.649	360.767	200.163	-8191	255	
7660.967	1	1	0	0	0.21587	0.08943	0.22024	0.17387	0.056086	0.21376	0.040161	0.18505	0.11803	0.23013	0.1319	0.09783	0.10137	0.22131	0.30057	0.25178	-1.9792	-3.0833	-2.4354	-3.0229	-3.0229	-2.5438	-2.9	-2.775	-2.6292	-3.0521	-2.5479	-2.7167	-3.0854	-2.4062	-2.7271	-2.9479	410.128	227.459	455.059	463.081	362.128	525.445	208.336	522.137	502.235	213.191	529.683	204.905	394.313	311.418	310.387	446.277	0.0013521	0.00032113	0.00031075	958.13	1.6778e-05	4.4454e-06	1094	259.24	2.1495e-05	9.9768e-06	327.68	116.99	86.083	31.81	7.6434e-06	47.431	0.0025991	0.0030198	0.00085978	892.27	3.0758e-05	3.3054e-05	1016.5	242.58	3.0113e-05	3.176e-05	311.68	110.41	82.335	30.329	3.0417e-05	45.2	326.071	345.225	487.207	188.453	371.167	357.284	187.785	193.853	361.426	376.741	192.260	197.330	197.952	202.287	497.497	199.534	-8191	255	
7661.064	1	1	0	0	0.26312	0.15552	0.040297	0.37908	0.14272	0.22859	0.055203	0.097457	0.22517	0.2064	0.24914	0.23788	0.17591	0.15837	0.11707	0.020045	-2.1833	-3.0417	-2.5021	-2.6729	-2.9667	-2.6479	-2.9313	-2.9417	-2.4229	-2.9792	-2.825	-2.7458	-3.1667	-2.5917	-2.8	-2.9583	515.686	225.480	506.296	176.651	367.999	360.657	402.336	372.097	211.070	441.795	470.229	450.663	447.431	499.895	237.654	368.718	0.00076127	0.000621	0.00017957	959.56	2.3513e-05	4.0722e-06	1094.6	260.78	7.7339e-06	1.7989e-06	331.25	119.14	87.606	32.388	4.277e-06	47.785	0.0022969	0.0027277	0.0007579	893.29	2.8323e-05	3.0155e-05	1016.7	243.92	2.7807e-05	2.8937e-05	312.52	111.63	83.419	30.741	2.8017e-05	45.709	325.078	529.693	335.531	188.006	394.327	321.377	187.610	193.509	322.839	227.581	192.293	197.312	198.501	202.551	390.048	200.095	-8191	255	
7661.160	1	1	0	0	0.30737	0.14408	0.092063	0.10648	0.082774	0.19563	0.093638	0.15701	0.22279	0.18256	0.021176	0.33015	0.18064	0.055918	0.07505	0.15653	-2.0292	-3.0479	-2.6292	-2.7208	-2.9333	-2.5021	-2.8854	-2.9	-2.4437	-2.8604	-2.7417	-2.5187	-2.925	-2.7021	-2.5875	-3.0187	442.282	476.806	442.493	176.286	267.800	462.775	484.344	361.923	225.874	486.894	324.677	487.632	414.965	343.029	369.801	379.064	0.00081334	0.00051503	0.00022787	969.55	1.8154e-05	2.2469e-06	1098.1	263.17	2.872e-06	1.057e-05	333.82	120.19	88.921	32.54	1.2391e-05	48.647	0.0021718	0.0025733	0.00072634	896.29	2.6561e-05	2.8579e-05	1017.2	244.63	2.6036e-05	2.7938e-05	314.03	112.8	84.116	30.985	2.743e-05	46.086	318.908	284.856	240.456	188.362	327.618	221.183	187.846	193.578	297.865	340.085	192.489	197.032	198.185	202.663	329.023	199.741	-8191	255	
7661.256	1	1	0	0	0.092841	0.076307	0.25604	0.034638	0.15586	0.16202	0.46539	0.26608	0.088148	0.046715	0.089143	0.11894	0.21258	0.14563	0.015485	0.068805	-2.0771	-2.9292	-2.8563	-2.5417	-2.8771	-2.6979	-2.7771	-2.9	-2.4354	-2.6979	-2.9167	-2.5271	-2.9979	-2.7542	-2.7229	-2.9458	260.078	213.793	196.567	339.888	471.732	225.662	227.578	393.574	287.785	512.709	466.061	412.155	467.879	189.888	472.662	423.952	0.00079211	0.00046521	0.00023573	972.1	6.402e-06	8.6857e-06	1103.6	261.18	1.0761e-05	1.1787e-05	332.83	119.75	89.096	32.37	5.1778e-06	48.099	0.002151	0.0025397	0.00071389	899.87	2.651e-05	2.8206e-05	1020.4	244.85	2.6435e-05	2.786e-05	312.63	112.34	84.015	30.745	2.6731e-05	45.539	322.412	412.112	276.290	188.394	233.525	327.813	187.878	193.217	342.265	412.233	192.533	197.576	198.078	202.586	380.027	200.013	-8191	255	
7661.377	1	1	0	0	0.22595	0.16899	0.17151	0.19332	0.15056	0.05117	0.29627	0.40188	0.044972	0.042054	0.32061	0.17765	0.20714	0.2297	0.12773	0.25142	-2.0771	-2.775	-2.8354	-2.6271	-2.8688	-2.6437	-2.8563	-3.1958	-2.5146	-2.9604	-3.1167	-2.45	-2.9313	-2.7542	-2.625	-3.0083	349.206	193.697	453.832	501.565	438.514	454.636	188.407	500.665	223.884	284.303	511.768	425.218	512.419	206.925	247.148	406.129	0.00089893	0.0005418	4.7185e-05	969.44	7.1973e-06	8.0199e-06	1098.3	263.06	5.2059e-06	1.6915e-06	329.52	120.75	89.111	32.294	4.081e-06	47.725	0.0020748	0.0024627	0.00067402	896.56	2.5299e-05	2.6361e-05	1014.4	244.39	2.5087e-05	2.5705e-05	311.62	112.88	83.765	30.774	2.4981e-05	45.49	341.116	294.371	504.646	188.406	266.788	263.134	187.742	193.530	309.987	420.260	192.666	196.866	198.375	202.304	334.516	199.837	-8191	255	
7661.473	1	1	0	0	0.043132	0.057709	0.07797	0.51051	0.041796	0.13295	0.13167	0.14701	0.29724	0.23731	0.16716	0.08186	0.10011	0.1226	0.15079	0.22741	-2.2292	-2.5521	-3.1583	-2.625	-2.7	-2.7875	-2.6458	-2.9958	-2.7	-2.6104	-2.9667	-2.5292	-2.8521	-2.8937	-2.3563	-3.0771	258.396	308.742	199.171	516.507	209.711	468.608	357.072	457.298	277.619	498.404	218.250	447.041	420.355	407.198	485.256	445.019	0.0010246	0.00071525	0.00017426	962.98	7.1214e-06	1.021e-05	1099.2	261.87	1.0118e-05	3.6959e-06	330.91	120.26	88.113	32.309	4.6527e-06	47.794	0.0020442	0.0023693	0.00066701	890.21	2.5055e-05	2.6387e-05	1016.7	243.85	2.5429e-05	2.687e-05	311.11	112.67	83.639	30.729	2.5783e-05	45.492	327.332	324.006	238.801	188.413	476.311	362.810	187.847	193.347	359.199	299.104	192.512	196.811	198.503	202.651	397.974	200.229	-8191	255	
7661.567	1	1	0	0	0.16813	0.22951	0.11461	0.18468	0.22416	0.14896	0.2309	0.24347	0.24013	0.21848	0.21813	0.24496	0.30599	0.1231	0.064176	0.06292	-2.1042	-2.6354	-3.0458	-2.5583	-2.8417	-2.8833	-2.6146	-2.9688	-2.5438	-2.7104	-3.1958	-2.6604	-2.9375	-2.9167	-2.4167	-3.0083	357.017	376.524	396.929	197.538	341.170	472.472	494.830	408.268	287.068	245.869	449.610	438.196	203.278	497.609	253.858	187.882	0.0010597	0.00059113	0.00046808	970.68	2.0448e-05	2.2366e-06	1105.5	261.9	7.6779e-06	4.1749e-06	333.58	119.99	87.937	32.378	1.0047e-05	47.945	0.0021177	0.0024739	0.00068696	899.59	2.6275e-05	2.7806e-05	1023.7	244.53	2.6985e-05	2.8134e-05	313	112.61	83.682	30.779	2.7157e-05	45.653	325.718	334.204	253.908	188.223	328.916	313.378	187.478	193.641	352.621	314.812	192.436	196.828	198.008	202.387	328.427	200.413	-8191	255	
7661.665	1	1	0	0	0.15963	0.073973	0.18057	0.067018	0.25427	0.15704	0.29398	0.17422	0.17737	0.11479	0.12712	0.20394	0.17674	0.27957	0.094279	0.13006	-2.3854	-2.4708	-2.925	-2.6	-2.7271	-2.7917	-2.5646	-2.8187	-2.7917	-2.7938	-3.0583	-2.5729	-2.9	-2.9854	-2.4229	-3.0042	219.174	473.653	429.599	192.329	418.754	366.684	441.313	493.711	435.193	452.730	253.274	178.052	290.354	212.127	414.018	370.470	0.00071005	0.00078173	0.00037587	976.61	1.0122e-05	4.6357e-06	1103.6	261.19	1.1549e-05	5.3441e-06	330.46	118.82	87.586	32.067	6.5886e-06	47.117	0.0021457	0.0025846	0.00069978	904.43	2.7043e-05	2.8191e-05	1022.5	244.47	2.6813e-05	2.7998e-05	310.83	111.71	83.138	30.519	2.6734e-05	44.928	324.892	281.684	338.365	188.304	268.042	279.027	187.737	193.708	373.095	315.659	192.540	196.891	198.699	202.384	339.833	200.133	-8191	255	
7661.759	1	1	0	0	0.19833	0.17677	0.18431	0.12833	0.085633	0.23107	0.40556	0.45299	0.45906	0.053303	0.036348	0.092845	0.317	0.12551	0.064917	0.22072	-2.2375	-2.5396	-2.85	-2.7146	-2.4604	-2.9792	-2.5625	-3.0125	-2.8917	-2.7083	-3.0625	-2.6562	-2.7375	-2.9354	-2.4688	-2.8354	396.734	223.526	366.442	340.709	375.128	235.725	492.087	444.706	221.297	187.687	531.534	213.472	508.418	195.689	285.128	479.050	0.00072431	0.00042267	0.00021536	968.12	1.151e-05	3.3482e-06	1099.5	260.86	3.77e-06	4.017e-06	328.51	119.21	88.118	31.975	1.2752e-05	47.179	0.0020921	0.0024737	0.00067765	896.39	2.5969e-05	2.722e-05	1016.7	243.98	2.5992e-05	2.7035e-05	310.62	112.16	83.474	30.455	2.6674e-05	44.807	327.891	201.746	319.410	188.441	291.790	310.045	187.639	193.426	228.942	402.775	192.235	196.934	198.139	202.494	355.877	200.014	-8191	255	
7661.856	1	1	0	0	0.021002	0.13134	0.43917	0.068878	0.036591	0.17437	0.28207	0.21035	0.20453	0.4247	0.022096	0.13493	0.071927	0.14808	0.21259	0.092807	-2.4042	-2.3937	-2.9833	-2.7521	-2.5375	-3.1042	-2.8208	-2.9062	-2.7917	-2.6125	-3.1417	-2.8688	-2.6208	-3.0792	-2.425	-2.7875	380.391	492.955	395.991	288.539	533.678	347.438	504.446	528.060	435.006	289.486	366.050	210.364	208.415	516.266	190.221	208.648	0.0010194	0.00070179	0.00017093	965.13	8.5562e-06	7.8462e-06	1101.6	262.69	6.6735e-06	6.6001e-06	330.56	119.68	87.974	32.02	4.5546e-06	47.299	0.0020667	0.002407	0.00069198	895.99	2.5951e-05	2.6748e-05	1017.7	244.77	2.6577e-05	2.7676e-05	311.16	112.01	83.397	30.611	2.6703e-05	45.099	329.797	246.239	292.936	188.414	366.359	288.695	187.800	193.653	273.458	323.386	192.314	197.096	198.374	202.637	205.581	199.963	-8191	255	
7661.976	1	1	0	0	0.10884	0.12752	0.15291	0.21601	0.15301	0.10612	0.22135	0.20927	0.096653	0.21276	0.046364	0.024528	0.25307	0.33835	0.083765	0.16429	-2.5292	-2.4958	-2.9042	-2.8979	-2.6188	-2.8167	-2.5812	-2.6521	-2.8646	-2.2833	-3.0187	-2.7917	-2.5875	-3.0708	-2.5458	-2.8708	222.416	431.042	389.715	463.539	335.713	478.511	480.664	440.054	516.253	252.183	376.859	358.972	280.778	503.221	339.511	485.539	0.00083563	0.00021535	0.00041049	978.64	1.6002e-05	1.0967e-05	1105	262.06	1.5236e-05	8.9299e-06	334.24	119.92	88.531	32.189	7.3857e-06	47.505	0.0021001	0.0024947	0.0006908	901.34	2.5995e-05	2.7474e-05	1020.6	245.56	2.5904e-05	2.7413e-05	313.08	112.42	83.774	30.706	2.6216e-05	45.102	329.459	221.075	231.697	188.455	304.677	303.779	187.780	193.554	329.121	299.100	192.895	197.039	198.102	202.846	298.752	199.986	-8191	255	
7662.072	1	1	0	0	0.025832	0.1284	0.025961	0.07211	0.1853	0.099092	0.06512	0.15047	0.075043	0.16775	0.10364	0.2788	0.20735	0.15629	0.21614	0.12808	-2.5938	-2.4708	-2.8958	-2.8896	-2.4625	-2.9729	-2.7896	-2.7229	-3.075	-2.55	-2.8333	-3.1792	-2.4833	-3.0396	-2.7479	-2.6958	449.799	309.172	455.805	212.190	250.851	307.209	521.381	495.153	357.117	475.358	246.920	219.701	345.869	181.496	291.618	217.781	0.00075929	0.00053799	0.00025768	978.32	1.4135e-05	6.568e-06	1113.3	263.51	1.0065e-05	6.5927e-06	331.96	119.23	88.764	32.431	1.4861e-05	47.662	0.002014	0.0023653	0.00066302	900.58	2.5277e-05	2.6112e-05	1021.9	245.75	2.4796e-05	2.6052e-05	312.29	111.87	83.907	30.704	2.5657e-05	45.105	333.911	253.931	282.426	188.348	359.381	298.662	187.555	193.813	345.164	427.262	192.632	196.941	198.741	202.321	374.568	200.197	-8191	255	
7662.169	1	1	0	0	0.12959	0.30455	0.097623	0.048232	0.18828	0.1207	0.209	0.15981	0.19413	0.14285	0.11111	0.090578	0.14895	0.060255	0.28906	0.32691	-2.5917	-2.5938	-2.525	-2.9729	-2.5625	-2.9229	-2.9396	-2.4562	-3.0146	-2.6542	-2.6937	-2.9354	-2.3771	-2.8792	-2.5479	-2.7958	498.136	206.568	407.036	350.739	359.702	379.896	444.723	518.077	308.318	338.183	489.503	198.043	503.192	364.033	454.046	504.669	0.00092337	0.00046857	0.00030624	967.57	1.1688e-05	3.2024e-06	1105.2	263.77	3.6282e-06	9.1584e-06	329.43	119.17	88.714	32.123	1.0992e-05	47.3	0.0019738	0.0023521	0.00064495	896.68	2.4564e-05	2.5907e-05	1017.3	245.38	2.4473e-05	2.5942e-05	310.29	111.46	83.559	30.529	2.5034e-05	44.846	326.674	457.416	272.991	188.634	334.726	327.734	188.135	193.306	292.132	353.133	192.051	196.839	197.929	202.985	387.473	199.744	-8191	255	
7662.265	1	1	0	0	0.24626	0.28817	0.27019	0.11419	0.092343	0.23636	0.096319	0.19711	0.088592	0.15312	0.23323	0.062479	0.080628	0.27098	0.40542	0.2218	-2.6208	-2.4562	-2.5458	-3.0021	-2.4437	-2.9667	-3.0229	-2.5062	-2.9104	-2.675	-2.7146	-2.9604	-2.5875	-2.7687	-2.7313	-2.4792	386.941	405.855	271.938	193.689	394.510	225.690	404.993	471.595	309.543	177.275	374.099	391.938	393.192	209.174	404.093	340.102	0.00082638	0.00026397	0.00032442	968.14	1.4306e-05	7.8995e-06	1099.6	261.92	1.3611e-05	1.42e-05	329.87	119.24	88.97	32.21	2.8572e-06	47.655	0.0019522	0.0023532	0.00064855	894.56	2.4762e-05	2.6275e-05	1016	245.18	2.4585e-05	2.6887e-05	311.42	111.78	84.053	30.663	2.5373e-05	44.975	320.163	263.435	246.651	188.518	295.958	382.116	187.705	193.752	363.026	378.895	192.523	197.271	198.333	202.292	455.914	199.594	-8191	255	
7662.336	1	1	0	0	0.10739	0.18216	0.14345	0.22752	0.25262	0.052005	0.14163	0.17755	0.061392	0.075628	0.20244	0.14039	0.19789	0.14017	0.16429	0.13771	-2.5979	-2.4917	-2.6875	-3.0875	-2.3729	-2.7521	-2.8917	-2.575	-2.8729	-2.5333	-2.65	-3.0125	-2.4667	-2.7854	-2.7625	-2.5563	362.592	322.334	279.236	184.721	502.158	385.117	470.203	442.990	243.327	485.348	226.422	219.577	247.403	241.069	417.185	518.215	0.0010041	0.00039325	0.00039848	973.62	1.982e-05	8.4197e-06	1104.4	261.67	8.9103e-06	5.5159e-06	332.43	121.46	88.448	32.369	3.1312e-06	47.481	0.0020206	0.002416	0.00066678	901.34	2.5133e-05	2.6655e-05	1021.9	245.78	2.5498e-05	2.7188e-05	313.62	113.11	84.168	30.838	2.6479e-05	45.231	335.031	263.950	258.582	188.365	267.359	303.477	187.631	193.510	414.061	299.255	192.376	197.027	198.377	202.277	449.597	200.108	-8191	255	
7662.457	1	1	0	0	0.23803	0.044074	0.15201	0.085272	0.18241	0.091932	0.28153	0.32267	0.10697	0.13334	0.14407	0.26983	0.16908	0.17926	0.11633	0.042466	-2.4729	-2.6708	-2.5104	-2.9479	-2.4625	-2.6542	-2.8417	-2.6437	-2.9458	-2.7271	-2.7042	-3.0396	-2.6646	-2.9437	-2.8792	-2.5938	404.961	273.150	231.134	180.391	269.396	427.761	487.138	462.708	445.890	392.716	436.173	417.892	191.533	227.476	232.854	307.069	0.00091517	0.00076136	0.00026978	982.13	8.0603e-06	4.7138e-07	1110.5	263.88	1.0523e-05	2.0058e-06	332.52	118.9	88.514	32.13	6.2003e-06	46.571	0.0020973	0.0025407	0.00070506	908.81	2.6729e-05	2.7705e-05	1024.6	246.77	2.6145e-05	2.7732e-05	311.68	111.66	83.928	30.611	2.6531e-05	44.416	328.237	333.093	286.847	188.211	308.043	202.197	187.533	193.695	362.824	430.314	192.593	196.756	198.701	202.644	384.381	199.946	-8191	255	
7662.553	1	1	0	0	0.051793	0.31444	0.023743	0.13369	0.11591	0.19483	0.26787	0.25701	0.084211	0.20056	0.094485	0.033467	0.34114	0.12614	0.25171	0.36053	-2.3417	-2.7667	-2.4875	-3.1229	-2.5604	-2.7417	-2.9729	-2.5854	-2.7521	-2.7792	-2.5646	-2.8646	-2.725	-2.6854	-3.0438	-2.5958	188.590	532.583	369.893	384.564	399.270	343.443	494.841	403.999	512.688	357.627	192.512	450.841	512.492	489.918	482.248	463.138	0.00084458	0.00028433	0.00016651	974.47	3.996e-06	4.919e-06	1097.6	261.21	1.0373e-05	1.1029e-05	329	118.85	88.375	32.223	1.0294e-05	47.114	0.0020801	0.0024689	0.00067931	900.01	2.5732e-05	2.7027e-05	1011.5	243.71	2.5447e-05	2.6341e-05	308.68	111.17	83.636	30.493	2.5445e-05	44.568	322.171	236.946	216.420	188.400	366.906	322.367	187.846	193.691	335.955	277.068	192.165	197.263	198.503	202.645	262.705	200.275	-8191	255	
7662.648	1	1	0	0	0.27611	0.07116	0.14626	0.092817	0.27776	0.027054	0.26394	0.27902	0.09101	0.19692	0.10744	0.035903	0.2691	0.28197	0.075456	0.1688	-2.2896	-2.8646	-2.5229	-3.0312	-2.6417	-2.6167	-2.9	-2.7083	-2.7812	-2.7729	-2.6917	-2.9188	-2.7125	-2.5438	-2.9479	-2.6896	282.186	438.398	370.933	358.811	485.016	360.260	472.990	185.794	366.281	284.515	504.253	518.968	321.992	190.033	306.491	213.800	0.00084388	0.00098165	0.00025901	973.35	1.6542e-05	1.2981e-05	1101.4	263.14	1.3426e-05	2.2679e-06	332.08	119.67	89.123	32.13	5.24e-06	47.065	0.0020132	0.0023141	0.00066107	896.94	2.5352e-05	2.5935e-05	1018.2	246.15	2.5101e-05	2.5922e-05	311.03	112.44	84.043	30.702	2.5528e-05	44.856	339.763	293.255	257.033	188.589	347.680	349.677	187.958	193.388	357.317	346.168	192.591	197.433	198.388	202.894	363.890	200.250	-8191	255	
7662.745	1	1	0	0	0.14476	0.035143	0.1445	0.29477	0.32098	0.23639	0.19009	0.18035	0.17215	0.18392	0.18613	0.13028	0.13256	0.05983	0.15968	0.23971	-2.1813	-2.875	-2.4583	-3.0208	-2.6417	-2.4646	-3.0708	-2.8167	-2.5604	-2.95	-2.6708	-2.8312	-2.7625	-2.4688	-2.8063	-2.7896	407.338	252.353	527.622	448.572	360.703	351.750	509.263	197.093	497.740	532.129	466.828	466.638	474.982	367.291	358.284	432.811	0.0010046	0.00078063	0.00024738	968.71	1.3335e-06	1.4397e-05	1102.2	263.46	2.7828e-06	3.4413e-06	332.35	119.81	89.468	32.493	5.9963e-06	47.531	0.0020224	0.0023579	0.00065285	900.73	2.5351e-05	2.6306e-05	1021.1	246.35	2.5284e-05	2.5878e-05	313.13	112.58	84.301	30.811	2.5242e-05	45.077	324.323	257.625	271.769	188.453	295.335	314.237	187.719	193.661	389.264	411.796	192.334	197.073	198.525	203.032	278.521	199.993	-8191	255	
7662.864	1	1	0	0	0.031941	0.21079	0.10379	0.09301	0.078138	0.10537	0.092542	0.35536	0.1755	0.17993	0.16748	0.10461	0.07269	0.18013	0.17611	0.33168	-2.2833	-2.8396	-2.3937	-2.9167	-2.9354	-2.4521	-2.9229	-2.7188	-2.5354	-3.0042	-2.6542	-2.7604	-2.6104	-2.55	-2.9813	-2.7854	234.669	375.658	424.853	500.040	263.421	281.362	398.901	204.752	393.459	218.327	363.317	218.661	419.602	243.822	515.897	497.578	0.00092941	0.00088638	0.00019036	973.21	6.6596e-06	7.8813e-06	1104.9	264.82	1.6388e-05	3.9726e-06	329.82	119.37	87.973	32.306	8.4527e-06	46.923	0.0020007	0.0023531	0.00067201	901.4	2.4626e-05	2.5913e-05	1019.2	246.05	2.4913e-05	2.5245e-05	310.55	111.82	83.812	30.594	2.4397e-05	44.508	332.426	361.023	248.172	188.199	229.031	388.431	187.916	193.658	381.299	301.275	192.715	196.852	198.709	202.442	352.566	199.559	-8191	255	
7662.936	1	1	0	0	0.1602	0.15008	0.053398	0.097458	0.26622	0.32184	0.39857	0.22044	0.11048	0.31738	0.23776	0.10619	0.22115	0.29191	0.26597	0.24475	-2.1437	-2.9062	-2.5167	-2.8625	-2.8667	-2.5292	-2.85	-2.925	-2.4417	-2.9125	-2.6042	-2.9333	-2.8479	-2.5646	-2.7875	-2.6792	207.900	259.464	334.773	450.250	285.857	308.159	412.946	457.299	355.643	532.923	497.986	214.585	409.046	469.526	309.603	282.179	0.0010129	0.00068799	6.9839e-05	965.79	9.6131e-06	9.4338e-06	1096.5	263.15	1.9365e-06	1.0504e-06	330.81	119.85	89.159	32.457	6.5579e-06	47.399	0.001915	0.002254	0.000637	895.59	2.3802e-05	2.484e-05	1012.9	245.91	2.419e-05	2.479e-05	310.82	112.19	83.978	30.717	2.433e-05	44.829	336.351	333.512	203.757	188.483	313.823	322.477	187.770	193.666	200.619	204.294	192.598	196.711	198.214	202.719	275.576	200.213	-8191	255	
7663.057	1	1	0	0	0.081628	0.1827	0.098089	0.28896	0.19715	0.25598	0.18188	0.4131	0.27957	0.0066393	0.24279	0.28715	0.3785	0.24391	0.11439	0.097662	-1.8563	-2.8771	-2.8167	-2.9083	-2.9229	-2.5729	-2.7583	-2.8812	-2.5542	-2.8812	-2.7021	-2.6583	-2.9625	-2.6229	-2.9292	-3.0187	271.542	182.846	521.371	257.202	468.204	346.789	197.702	504.654	379.322	363.572	483.171	242.244	467.231	512.520	223.466	480.912	0.00089273	0.00049884	0.0001168	973	6.9482e-06	5.0096e-06	1111.1	265.91	7.1973e-06	5.5104e-06	335.79	121.62	90.976	32.736	6.1243e-06	47.739	0.001951	0.0023658	0.00064844	903.36	2.4282e-05	2.5652e-05	1023.9	248.1	2.4808e-05	2.5324e-05	314.56	114.06	85.571	31.111	2.4958e-05	45.134	323.588	467.241	266.000	188.410	292.015	464.635	187.551	193.770	382.963	201.832	192.883	196.878	198.033	202.539	335.531	199.728	-8191	255	
7663.153	1	1	0	0	0.17479	0.099921	0.048379	0.1954	0.16386	0.27101	0.17679	0.11381	0.1434	0.11571	0.070201	0.23272	0.1614	0.033293	0.21587	0.035365	-2.1813	-2.8063	-2.7313	-2.5396	-3.0667	-2.6333	-2.9979	-2.7833	-2.5167	-2.8042	-2.9	-2.7062	-2.9083	-2.6	-2.8979	-2.7604	401.392	446.256	460.295	202.330	311.470	436.488	411.420	426.792	493.114	187.219	518.693	502.208	450.591	390.242	266.537	328.213	0.00096038	0.0002525	8.158e-05	977.9	5.818e-06	7.8267e-06	1108.8	267.95	2.6314e-06	9.5064e-06	336.58	122.44	90.894	32.612	4.8878e-06	47.927	0.0019676	0.0023292	0.00065438	905.49	2.406e-05	2.5466e-05	1023.2	248.98	2.3889e-05	2.4964e-05	314.95	114.18	85.328	31.069	2.4835e-05	45.328	332.564	208.445	380.655	188.192	232.362	377.471	187.617	193.756	201.145	295.340	192.610	197.341	197.963	202.638	190.450	199.808	-8191	255	
7663.249	1	1	0	0	0.010511	0.13986	0.20144	0.10894	0.073756	0.16745	0.051622	0.22293	0.23963	0.10084	0.062604	0.21594	0.11587	0.16263	0.17864	0.11738	-2.0312	-3.0187	-2.6583	-2.6688	-3	-2.8083	-2.8208	-3.0104	-2.3812	-2.8792	-3.0417	-2.5687	-3.0875	-2.5812	-2.4875	-2.925	280.234	453.322	218.260	522.623	274.327	281.663	436.962	513.167	339.876	291.874	442.494	282.040	522.683	428.256	240.107	522.863	0.00088552	0.00044441	0.00040339	983.62	2.0638e-05	6.041e-06	1108.3	265.42	1.1279e-05	3.3552e-06	335.49	120.57	90.209	32.566	1.6193e-06	47.323	0.0019294	0.0023383	0.00065334	906.67	2.4243e-05	2.5891e-05	1023.4	247.87	2.4088e-05	2.5511e-05	313.64	112.97	84.902	30.959	2.521e-05	44.797	335.522	232.894	241.405	187.928	315.015	428.713	187.380	193.499	456.062	256.833	192.302	197.114	198.241	202.709	409.224	199.926	-8191	255	
7663.345	1	1	0	0	0.15016	0.12892	0.27301	0.053222	0.1164	0.12485	0.12511	0.23429	0.27657	0.22571	0.04492	0.12981	0.17321	0.070653	0.06753	0.15946	-2.0146	-2.7438	-2.7229	-2.5563	-2.8542	-2.8063	-2.6125	-2.8375	-2.4708	-2.7354	-3.0062	-2.575	-3.0417	-2.5375	-2.725	-2.9708	498.110	238.836	471.105	511.471	515.934	478.093	438.988	456.446	195.266	417.381	324.172	512.565	437.638	432.264	450.025	460.391	0.00080248	0.0013751	0.0002951	977.78	1.5743e-05	9.8423e-06	1099.4	264.01	7.3307e-06	1.2858e-06	333.01	120.27	89.671	32.624	1.025e-05	47.243	0.0019516	0.0023338	0.00064923	902.5	2.4428e-05	2.6042e-05	1018.3	246.69	2.472e-05	2.563e-05	312.58	112.44	84.576	30.851	2.5497e-05	44.638	326.929	283.469	328.050	188.249	324.662	384.136	187.516	193.726	242.392	476.005	192.500	196.963	198.140	202.497	371.419	200.440	-8191	255	
7663.466	1	1	0	0	0.19898	0.32091	0.066849	0.26197	0.05078	0.12799	0.095096	0.17391	0.030342	0.19418	0.17229	0.27026	0.062462	0.42995	0.069293	0.17834	-1.8917	-2.5438	-2.8104	-2.6	-2.9646	-2.5896	-2.6188	-3.0833	-2.4646	-2.7208	-2.8708	-2.3875	-3.0354	-2.8479	-2.4792	-3.1104	410.909	272.431	232.479	518.817	508.785	436.940	369.841	473.973	478.922	377.409	197.925	185.460	509.361	505.591	449.329	478.678	0.00083025	0.0016845	0.00038663	980	1.9666e-05	6.9344e-06	1101.4	264.85	1.0746e-05	5.1961e-06	334.78	120.49	90.158	32.491	8.4422e-06	46.918	0.0019949	0.002382	0.00065097	905.4	2.4763e-05	2.5973e-05	1021.2	247.89	2.4808e-05	2.5461e-05	312.9	113.09	84.725	30.874	2.4555e-05	44.693	325.919	286.427	269.959	188.300	339.124	255.967	187.659	193.777	313.095	509.886	192.509	196.941	198.572	202.517	364.458	199.781	-8191	255	
7663.560	1	1	0	0	0.16586	0.18085	0.36536	0.1694	0.045691	0.046828	0.18592	0.19068	0.13754	0.13051	0.28891	0.20379	0.067592	0.088171	0.17723	0.23817	-2.2896	-2.6875	-2.9938	-2.5812	-2.775	-2.8583	-2.7812	-2.8771	-2.5125	-2.8479	-3.0125	-2.6771	-2.8458	-2.8021	-2.5646	-2.9625	396.419	334.713	381.402	436.816	310.392	486.302	292.566	262.509	412.943	178.160	507.412	510.907	382.917	197.644	338.193	205.017	0.00085924	0.00031622	7.211e-05	977.58	1.93e-05	7.5828e-06	1098.8	266.39	8.4658e-06	1.1637e-05	331.19	120.28	89.255	32.551	3.7189e-06	47.167	0.0019597	0.0023364	0.00064038	902.49	2.4195e-05	2.5633e-05	1017.2	246.33	2.4348e-05	2.5557e-05	311.46	112.7	84.253	30.833	2.5127e-05	44.844	331.007	302.826	464.446	188.246	299.261	265.260	187.808	193.454	406.983	363.629	192.501	196.656	198.428	202.639	241.831	199.711	-8191	255	
7663.656	1	1	0	0	0.10864	0.14492	0.25276	0.26436	0.16682	0.14159	0.061498	0.07712	0.16671	0.12905	0.13253	0.21136	0.19708	0.22469	0.231	0.10122	-2.1	-2.5438	-2.7917	-2.4542	-2.8542	-2.8917	-2.8312	-2.9125	-2.7271	-2.6958	-2.9562	-2.6021	-2.7562	-2.8812	-2.4583	-2.7771	481.905	202.235	340.863	485.730	393.222	444.881	307.993	527.226	178.307	312.140	460.266	325.904	198.846	452.690	228.389	395.282	0.00082937	0.00097063	0.00047874	980.32	1.5724e-05	2.7696e-06	1107.3	264.47	6.7028e-06	1.0344e-05	331.58	119.68	89.074	32.542	5.375e-06	46.847	0.0019684	0.0023506	0.00063784	905.46	2.5189e-05	2.6103e-05	1023.4	246.73	2.508e-05	2.6274e-05	312.25	112.42	84.456	30.764	2.5231e-05	44.558	321.838	289.622	240.559	188.313	346.602	241.511	187.685	193.317	324.242	291.240	192.485	196.698	198.054	202.660	275.372	199.753	-8191	255	
7663.752	1	1	0	0	0.16993	0.1413	0.17192	0.33298	0.30801	0.084966	0.10509	0.16552	0.050123	0.24799	0.17102	0.22196	0.23543	0.42012	0.24798	0.14913	-2.4083	-2.3521	-2.8021	-2.5104	-2.6729	-2.9021	-2.6167	-2.8229	-2.6562	-2.4521	-3.0729	-2.6542	-2.6208	-2.9833	-2.4313	-2.775	467.803	508.462	529.092	449.444	317.918	408.591	414.334	481.468	247.406	290.441	180.145	446.500	464.022	503.814	329.706	474.081	0.0010029	0.00048778	0.0003456	981.06	1.407e-05	5.2153e-06	1111.5	264.5	7.2439e-06	4.5088e-06	333.48	120.04	88.989	32.171	2.7665e-06	46.988	0.0020014	0.0023824	0.00066064	907.21	2.5425e-05	2.6615e-05	1023.5	246.97	2.5915e-05	2.7025e-05	313.08	112.61	84.264	30.725	2.7237e-05	44.538	325.128	330.577	279.253	188.158	394.846	317.037	187.773	193.581	313.139	343.101	192.271	196.877	198.519	201.989	338.604	200.134	-8191	255	
7663.849	1	1	0	0	0.32363	0.18981	0.25961	0.18283	0.1235	0.17488	0.21802	0.22733	0.34063	0.063538	0.067664	0.089896	0.24113	0.10768	0.38093	0.14806	-2.2896	-2.4771	-2.7708	-2.5979	-2.7479	-2.8458	-2.6708	-2.9354	-2.825	-2.4625	-3.1875	-2.8021	-2.5854	-2.9875	-2.5062	-2.9208	310.294	285.529	250.577	463.696	335.282	288.554	454.051	428.338	444.141	292.367	416.668	378.981	292.243	284.647	501.323	497.973	0.00087861	0.00078136	3.3784e-05	984.2	7.2156e-06	1.0526e-05	1104.8	264.44	1.2744e-05	9.4093e-06	331.28	119.49	88.031	32.309	2.2894e-06	47.002	0.0021493	0.0025467	0.00071281	911.38	2.714e-05	2.8245e-05	1025.5	247.65	2.7074e-05	2.824e-05	312.27	112.3	83.778	30.783	2.7877e-05	44.498	336.276	258.576	239.066	188.125	353.681	341.418	187.571	193.651	399.757	349.207	192.126	197.216	198.303	202.230	451.938	200.033	-8191	255	
7663.945	1	1	0	0	0.10852	0.16449	0.24629	0.023629	0.042014	0.06691	0.27798	0.19489	0.1632	0.13266	0.17036	0.090935	0.1165	0.16056	0.1612	0.26349	-2.4708	-2.5896	-2.7083	-2.6917	-2.7271	-3.0479	-2.6063	-2.9	-2.9083	-2.5542	-2.9667	-2.8521	-2.5771	-3.025	-2.6063	-2.875	199.652	228.318	204.265	355.438	420.614	373.722	331.488	486.791	472.956	257.293	181.856	437.197	330.594	441.071	513.752	373.319	0.00082792	0.00053259	0.00021993	988.41	9.8581e-06	6.2989e-06	1111.4	265.62	8.1846e-06	5.227e-06	331.96	119.42	88.576	32.254	1.6579e-05	46.853	0.0022201	0.0026167	0.00073631	915.55	2.7485e-05	2.9069e-05	1030.5	247.85	2.8085e-05	2.9433e-05	313.3	112.52	84.544	30.811	2.9366e-05	44.769	330.970	209.718	239.413	188.526	324.698	357.711	187.666	192.999	329.677	322.778	192.512	196.905	198.140	202.231	308.134	199.833	-8191	255	
7664.041	1	1	0	0	0.14716	0.13306	0.35659	0.2747	0.12869	0.097059	0.21198	0.023455	0.12086	0.29097	0.19963	0.1869	0.1178	0.056009	0.30166	0.24525	-2.5625	-2.4396	-2.8771	-2.8854	-2.5542	-2.8542	-2.7292	-2.6458	-2.7479	-2.5458	-2.8354	-2.8125	-2.4979	-2.9146	-2.7229	-2.7708	526.929	331.776	325.755	471.472	233.873	421.389	419.035	533.169	513.472	226.367	187.008	516.063	299.192	254.483	345.486	481.934	0.00078821	4.944e-05	0.00042502	992.25	7.2172e-06	7.911e-06	1113.1	265.34	1.3529e-05	8.5883e-06	331.23	119.78	88.57	32.355	6.217e-06	46.291	0.0022504	0.0027233	0.00075467	919.58	2.8271e-05	2.9396e-05	1034.8	248.76	2.8334e-05	2.9482e-05	312.62	112.58	84.178	30.774	2.8789e-05	44.347	331.363	438.957	329.498	188.266	269.186	369.045	187.791	193.500	359.970	365.341	191.974	197.022	198.608	202.340	283.014	199.893	-8191	255	
7664.161	1	1	0	0	0.049573	0.1877	0.23854	0.10578	0.12993	0.217	0.37375	0.10253	0.222	0.1397	0.090452	0.077614	0.28363	0.13325	0.091953	0.23041	-2.4188	-2.4313	-2.6375	-2.8792	-2.4646	-2.575	-2.7021	-2.7208	-2.9583	-2.4521	-2.8083	-2.7896	-2.45	-3.1125	-2.7979	-2.5229	457.196	206.947	246.450	491.676	270.862	522.232	435.186	426.217	373.037	344.681	288.650	459.972	259.378	455.273	381.584	484.361	0.00072313	0.00048317	0.00011417	985.35	4.0603e-06	1.0168e-05	1113.8	264.63	1.0778e-05	2.5368e-06	329.34	118.3	87.507	32.292	9.6037e-06	46.317	0.0021755	0.0026537	0.0007336	913.36	2.8027e-05	2.9297e-05	1026.5	247.34	2.72e-05	2.8511e-05	310.49	111.53	83.528	30.628	2.6744e-05	44.06	331.872	328.961	310.186	188.428	517.094	329.113	187.763	193.812	311.412	396.949	192.664	197.028	198.390	202.591	426.281	200.155	-8191	255	
7664.233	1	1	0	0	0.18981	0.15783	0.22251	0.47757	0.038241	0.11894	0.058896	0.10108	0.30828	0.25783	0.15403	0.12469	0.33327	0.093584	0.22406	0.11765	-2.6354	-2.5896	-2.7479	-2.9604	-2.1646	-2.9562	-2.7229	-2.5854	-2.9896	-2.7188	-2.6104	-3.1063	-2.4062	-2.7229	-2.7542	-2.5812	389.967	255.200	177.446	191.962	525.184	482.914	355.680	527.996	283.138	257.590	447.672	240.047	490.494	195.941	466.204	463.607	0.00087732	0.0007534	7.3528e-05	979.1	1.2918e-05	5.5767e-06	1103	263.49	1.183e-05	3.5352e-08	328	117.89	87.852	32.005	1.1516e-05	46.598	0.0020637	0.0024817	0.00068878	907.97	2.6327e-05	2.7281e-05	1020.4	245.9	2.6036e-05	2.7516e-05	309.62	110.87	83.539	30.545	2.7516e-05	44.183	328.753	276.139	280.645	188.386	289.788	231.133	187.578	193.729	380.804	502.173	192.544	196.911	198.489	202.554	337.049	199.650	-8191	255	
7664.329	1	1	0	0	0.28781	0.051156	0.17813	0.08088	0.1356	0.073305	0.20381	0.33353	0.069126	0.12614	0.016478	0.20868	0.18327	0.37395	0.2491	0.15525	-2.6125	-2.4875	-2.4146	-2.8479	-2.5708	-2.9146	-2.8896	-2.45	-2.8271	-2.7396	-2.6917	-2.7667	-2.4437	-2.7271	-2.7479	-2.4813	224.673	497.700	497.147	507.643	429.141	500.830	454.405	486.233	532.174	530.027	251.620	497.458	200.227	533.233	431.338	488.235	0.00083137	6.6638e-05	0.00015094	986.22	1.1134e-05	1.0229e-05	1108.6	263.2	1.4309e-05	5.6653e-06	329.63	118.94	89.064	32.207	1.2348e-05	46.596	0.0020888	0.0025043	0.0007131	912.83	2.6703e-05	2.8237e-05	1024.4	246.47	2.7019e-05	2.813e-05	310.99	111.57	84.158	30.712	2.7489e-05	44.341	339.898	320.223	233.833	187.779	304.758	429.389	187.709	193.350	362.338	236.038	192.345	197.109	198.081	202.333	341.058	200.104	-8191	255	
7664.425	1	1	0	0	0.089899	0.098338	0.13153	0.30192	0.13826	0.21997	0.17704	0.34681	0.21139	0.11517	0.193	0.030739	0.22438	0.11658	0.31114	0.17515	-2.6208	-2.6063	-2.4771	-3.0146	-2.4688	-2.7375	-2.9729	-2.5521	-2.8417	-2.6937	-2.6375	-3.0938	-2.6167	-2.9583	-2.9375	-2.4021	301.980	288.587	433.096	488.218	227.584	296.449	510.331	374.895	204.771	390.360	200.065	445.478	505.821	398.266	376.073	480.512	0.0011102	0.00036126	0.00018944	986.54	1.0903e-05	7.908e-06	1114	264.15	9.5889e-06	3.9742e-06	329.69	118.18	88.057	31.994	6.3997e-07	46.238	0.0021837	0.0025959	0.00073844	916.91	2.7368e-05	2.8985e-05	1030	247.95	2.7094e-05	2.826e-05	310.88	111.19	83.519	30.568	2.6761e-05	43.971	334.640	246.304	257.615	187.966	212.506	278.681	187.689	193.795	330.387	194.835	192.565	196.722	198.404	202.768	407.601	199.959	-8191	255	
7664.544	1	1	0	0	0.1437	0.10081	0.27067	0.18019	0.061786	0.17185	0.41144	0.02231	0.086778	0.17625	0.21168	0.24029	0.099938	0.10474	0.24892	0.05165	-2.4729	-2.6271	-2.3604	-3.1146	-2.6396	-2.6437	-3.1063	-2.5	-2.9562	-2.7646	-2.6583	-2.9	-2.5417	-2.8167	-2.8917	-2.4146	436.880	286.198	272.642	450.525	186.214	225.391	464.089	526.107	516.918	533.980	425.055	444.959	467.401	217.206	207.442	268.519	0.0010595	0.0012202	0.00030337	980.89	5.4552e-06	4.9755e-06	1104.9	263.1	2.0847e-05	3.0908e-06	325.06	118.45	87.374	32.088	1.1311e-05	46.136	0.0021003	0.002496	0.00068593	908.16	2.6106e-05	2.7284e-05	1019.7	244.71	2.6344e-05	2.7182e-05	306.73	110.28	82.965	30.466	2.6009e-05	43.723	336.049	308.825	270.790	188.263	445.519	326.773	187.695	193.764	393.397	346.165	191.978	197.257	197.937	202.511	392.059	200.071	-8191	255	
7664.640	1	1	0	0	0.11175	0.35983	0.19302	0.083826	0.15916	0.23703	0.16343	0.11132	0.22502	0.14873	0.30778	0.18051	0.24093	0.1296	0.070264	0.119	-2.3229	-2.7208	-2.475	-3.0563	-2.6146	-2.6771	-3.2188	-2.6	-2.6625	-2.9521	-2.6104	-2.9938	-2.6667	-2.4896	-2.9	-2.8167	499.922	251.236	369.072	279.075	385.684	510.050	471.765	361.880	242.582	530.452	188.896	183.404	214.262	421.146	306.286	397.322	0.00086965	0.00065451	0.00026042	979.1	6.9726e-06	1.1032e-06	1093.9	260.21	2.9423e-06	9.989e-06	328.56	116.82	87.919	32.187	1.1639e-05	46.001	0.0020796	0.0024135	0.00067666	905.95	2.5321e-05	2.6602e-05	1015.7	244.21	2.5465e-05	2.7047e-05	307.59	110.27	83.057	30.475	2.5625e-05	43.9	327.579	289.954	253.098	188.258	274.595	311.693	187.222	193.857	319.100	273.246	192.496	196.914	198.172	202.374	336.083	199.906	-8191	255	
7664.738	1	1	0	0	0.032815	0.041586	0.23201	0.071134	0.048397	0.10485	0.3022	0.34388	0.34213	0.18629	0.14734	0.099969	0.19621	0.2586	0.17934	0.18129	-2.3646	-2.8312	-2.4625	-2.9542	-2.7354	-2.5438	-3.1229	-2.6083	-2.5521	-2.8292	-2.5417	-2.8542	-2.9125	-2.5292	-2.9833	-2.7646	485.470	295.152	383.761	190.651	474.715	416.079	484.152	495.624	293.777	426.704	395.432	427.403	485.983	516.904	439.396	233.978	0.00080129	0.00092114	0.00021982	980.75	1.4058e-05	4.0178e-06	1090.4	262.13	1.3053e-05	4.8575e-06	326.5	117.85	87.52	32.091	8.5981e-06	46.073	0.0020149	0.0023939	0.00066211	905.24	2.5186e-05	2.6029e-05	1013.5	244.4	2.4456e-05	2.5427e-05	306.57	110.56	83.019	30.458	2.5405e-05	43.792	320.069	217.484	235.006	188.338	324.336	206.694	187.775	193.802	385.578	455.445	192.878	197.063	198.404	202.684	285.530	200.312	-8191	255	
7664.833	1	1	0	0	0.046263	0.22517	0.20264	0.26006	0.13725	0.18854	0.21161	0.14812	0.14195	0.26994	0.11799	0.19492	0.12081	0.016373	0.13849	0.34548	-2.3708	-2.8708	-2.525	-2.9979	-2.8063	-2.6396	-3.0208	-2.7667	-2.875	-2.8458	-2.5667	-2.9437	-2.9437	-2.7833	-3.0208	-2.8354	182.064	316.753	275.479	505.162	407.192	236.788	473.417	524.935	227.854	179.222	505.490	494.012	291.531	242.589	299.309	482.236	0.00096874	0.00075883	0.00025257	978.96	1.2807e-05	4.3613e-06	1096.8	263.83	6.2323e-06	3.4607e-06	329.16	118.07	87.816	32.226	1.174e-05	46.068	0.0019425	0.0023082	0.00065126	904.38	2.467e-05	2.5138e-05	1015.5	244.93	2.4084e-05	2.4793e-05	308.49	110.57	83.264	30.516	2.4007e-05	43.661	327.467	238.352	259.652	188.059	286.060	373.574	187.503	193.326	354.440	421.449	192.451	196.659	198.300	202.338	330.882	199.669	-8191	255	
7664.929	1	1	0	0	0.060011	0.16464	0.13031	0.25955	0.091866	0.22593	0.32248	0.08768	0.20834	0.21223	0.15535	0.1575	0.12842	0.46945	0.30366	0.12038	-2.1625	-3.1063	-2.4625	-2.95	-2.7833	-2.5521	-2.9938	-2.7667	-2.675	-3.0917	-2.625	-2.8708	-2.9125	-2.4396	-2.8542	-2.8104	449.498	516.544	492.485	489.826	225.792	268.090	428.904	386.819	378.634	304.953	473.464	233.546	495.047	197.432	306.136	532.911	0.0007667	0.00080682	6.3208e-05	976.21	1.6261e-05	1.0064e-05	1087.9	262.52	6.053e-06	6.1781e-06	325.19	118.12	88.758	32.097	5.6753e-06	45.828	0.0018976	0.0022623	0.00062368	899.2	2.3134e-05	2.4761e-05	1007.4	243.8	2.3426e-05	2.4558e-05	305.16	110.14	83.395	30.384	2.3639e-05	43.58	317.905	287.218	186.765	187.975	327.886	318.637	187.485	193.709	288.049	381.626	192.325	196.931	198.745	202.525	269.313	200.015	-8191	255	
7665.025	1	1	0	0	0.17768	0.26491	0.070112	0.22526	0.30813	0.16567	0.24196	0.18067	0.22038	0.15514	0.13222	0.26213	0.10676	0.1276	0.294	0.16329	-2.1104	-2.8458	-2.5271	-2.7396	-2.8688	-2.4396	-2.8792	-2.925	-2.5875	-2.8417	-2.7958	-2.7583	-2.9062	-2.4771	-2.6417	-2.85	363.109	410.245	516.371	531.720	335.255	181.819	461.375	485.854	250.511	338.982	452.435	206.202	348.572	249.076	337.048	421.260	0.00091045	0.0010042	0.00010789	972	5.7306e-06	7.8366e-06	1093.7	261.85	1.1608e-05	1.6285e-06	328.08	117.6	87.837	32.067	1.0034e-05	46.33	0.0018841	0.002183	0.00062101	899.75	2.4007e-05	2.463e-05	1009.4	244.09	2.3792e-05	2.4618e-05	307.9	110.56	83.309	30.474	2.489e-05	43.789	326.399	298.492	311.294	188.136	380.092	210.849	188.060	193.588	206.672	370.349	192.618	197.021	198.564	202.443	393.472	199.675	-8191	255	
7665.146	1	1	0	0	0.17903	0.12937	0.16164	0.31541	0.054995	0.18876	0.056336	0.1905	0.18703	0.10324	0.066876	0.18271	0.18442	0.33669	0.35192	0.24525	-2.0271	-2.8708	-2.6021	-2.7687	-2.8667	-2.5938	-2.7646	-2.7479	-2.5354	-2.9875	-2.6083	-2.7646	-2.75	-2.5812	-2.7083	-2.8604	403.758	324.155	343.641	468.052	327.629	503.116	370.079	399.002	318.341	422.978	197.741	511.753	362.017	525.989	310.208	192.092	0.00092673	0.0011027	0.0002224	985.56	8.2245e-06	8.9907e-06	1103.5	262.9	4.1414e-06	1.1278e-05	327.36	118.67	87.541	32.391	6.2448e-06	46.257	0.0019159	0.002273	0.00064317	904.76	2.4348e-05	2.5503e-05	1013.8	244.57	2.4289e-05	2.4956e-05	307.52	110.94	83.221	30.631	2.4705e-05	43.915	325.925	267.538	274.655	188.288	407.447	316.012	187.422	193.544	237.336	353.465	192.616	197.124	198.345	202.694	245.222	199.699	-8191	255	
7665.242	1	1	0	0	0.034712	0.14184	0.1553	0.13453	0.19334	0.17686	0.32309	0.19291	0.063234	0.085238	0.073209	0.16445	0.13384	0.12712	0.27565	0.18435	-1.9021	-2.6583	-2.6729	-2.5146	-2.8792	-2.6583	-2.8854	-2.8625	-2.4208	-2.9125	-2.7417	-2.675	-3.05	-2.5208	-2.6354	-2.9354	368.035	477.525	218.475	528.180	291.626	252.472	488.336	477.840	410.834	407.748	427.744	508.214	357.877	235.121	355.460	430.920	0.00092244	0.00069741	0.00020468	982.87	4.4395e-06	3.1903e-06	1105.2	263.93	9.4492e-06	6.0627e-06	330.95	119.06	89.053	32.215	6.2123e-06	46.215	0.0018977	0.0023096	0.00065221	907	2.3946e-05	2.5705e-05	1020.1	246.5	2.4194e-05	2.5779e-05	310.14	111.5	83.825	30.655	2.4272e-05	43.913	320.120	290.378	276.179	188.230	271.109	506.366	187.533	193.453	353.244	341.565	192.335	197.059	198.521	202.555	414.657	199.753	-8191	255	
7665.338	1	1	0	0	0.13262	0.24102	0.10992	0.14846	0.044403	0.16863	0.20534	0.28612	0.05378	0.11145	0.15414	0.12941	0.13079	0.19756	0.12188	0.45843	-2.0333	-2.7771	-2.8354	-2.7271	-2.9188	-2.5208	-2.8021	-2.8958	-2.5167	-2.9	-2.8833	-2.6167	-2.8563	-2.7375	-2.5854	-3.0521	260.747	306.319	208.833	226.844	483.503	408.159	477.470	494.404	309.717	257.882	242.649	452.204	437.549	492.087	347.904	473.389	0.0009973	0.0013721	0.00035784	979.69	5.5733e-06	3.2888e-06	1100.5	264.98	6.1708e-06	8.263e-06	329.91	118.81	88.53	32.363	1.7817e-05	46.068	0.0019269	0.0022689	0.00062539	904.02	2.3411e-05	2.4835e-05	1016.9	246.2	2.3145e-05	2.5256e-05	308.61	111.38	83.972	30.694	2.4363e-05	43.837	327.002	378.005	258.658	188.476	379.286	199.252	187.515	193.527	308.270	309.249	192.178	196.843	197.981	202.438	285.929	199.631	-8191	255	
7665.459	1	1	0	0	0.31606	0.10221	0.033826	0.079831	0.27557	0.30297	0.13396	0.13217	0.25999	0.15701	0.099301	0.12146	0.24867	0.10258	0.19019	0.16427	-2.0667	-2.7021	-2.7979	-2.5396	-2.875	-2.7083	-2.6312	-3.0812	-2.4354	-2.8229	-3.1083	-2.3729	-2.8229	-2.8979	-2.4708	-3.1	192.253	186.724	396.889	442.546	269.137	191.673	498.413	526.022	245.633	321.251	499.716	189.495	451.038	337.156	244.236	467.430	0.0010543	0.0014757	0.00030565	976.41	5.7493e-06	4.1061e-06	1104.5	266.49	2.0622e-05	9.1792e-07	330.62	119.43	88.886	32.637	8.8993e-06	46.377	0.0019207	0.0022647	0.00063274	904.84	2.3993e-05	2.5075e-05	1017.3	247.42	2.4333e-05	2.5416e-05	310.45	111.38	84.241	30.872	2.4642e-05	44.175	334.006	281.339	272.859	188.464	472.937	295.746	187.661	193.401	354.935	526.368	192.626	197.002	198.260	202.411	368.219	199.633	-8191	255	
7665.530	1	1	0	0	0.062103	0.15546	0.10281	0.19519	0.15884	0.15928	0.11044	0.3043	0.20264	0.25576	0.12822	0.19336	0.2026	0.47379	0.13043	0.07805	-2.0646	-2.7271	-2.8646	-2.4979	-3.0354	-2.6958	-2.4646	-2.9646	-2.6042	-2.6167	-3.0521	-2.5312	-2.875	-2.8	-2.5125	-3.0896	227.272	383.223	301.033	470.923	436.752	260.638	239.358	501.662	310.457	389.950	474.301	344.053	281.438	463.842	331.035	521.420	0.00092843	0.00070433	3.4857e-05	988.06	4.7748e-06	5.2241e-06	1106.3	266.94	9.9019e-06	1.2836e-05	334.45	121.52	90.214	32.95	6.0984e-06	47.24	0.0019704	0.0023124	0.00063828	911.51	2.374e-05	2.5887e-05	1024.4	248.32	2.4379e-05	2.5354e-05	313.55	113.01	85.162	31.113	2.4225e-05	44.584	326.522	235.064	431.415	187.994	226.456	245.062	187.680	193.574	368.154	298.273	192.257	196.758	197.992	202.095	445.220	200.024	-8191	255	
7665.625	1	1	0	0	0.055095	0.23147	0.26313	0.08906	0.078766	0.12018	0.2219	0.25092	0.20004	0.20508	0.16246	0.15841	0.2084	0.24738	0.17618	0.2379	-2.1917	-2.6125	-2.8292	-2.525	-2.9	-2.8312	-2.5542	-2.9813	-2.6229	-2.675	-3.0312	-2.5646	-2.8312	-2.9229	-2.5292	-3.0854	531.377	289.039	415.813	436.345	233.750	251.575	494.549	224.263	523.341	310.166	369.357	432.089	203.252	530.678	396.191	462.958	0.0009652	0.00036264	0.00029893	989.78	1.5736e-05	7.2392e-06	1112.8	267.55	1.4288e-05	6.7731e-06	334.05	120.99	91.005	33.025	1.0614e-05	46.805	0.0019249	0.0022906	0.00062675	913.83	2.3387e-05	2.4992e-05	1029	249.52	2.3888e-05	2.4943e-05	314.08	113.22	85.583	31.222	2.4089e-05	44.443	330.604	245.955	311.693	188.440	292.293	348.362	187.972	193.508	245.031	408.781	192.285	196.559	198.153	202.253	288.484	200.076	-8191	255	
7665.721	1	1	0	0	0.18376	0.28578	0.113	0.17258	0.040461	0.090197	0.30861	0.25434	0.16983	0.15685	0.082463	0.078416	0.21724	0.087907	0.094955	0.042501	-2.225	-2.4688	-2.9729	-2.625	-2.7271	-3.0167	-2.4854	-2.8688	-2.6667	-2.55	-3.1312	-2.6937	-2.8271	-3.1125	-2.5667	-2.9042	256.439	373.108	192.378	513.183	469.808	320.415	495.063	430.716	310.156	250.396	216.166	523.096	505.986	195.949	291.770	500.217	0.00077839	0.00014096	0.00029971	986.76	3.3547e-06	3.9884e-06	1110.3	268.27	7.9023e-06	1.2238e-05	332.72	119.55	89.66	32.8	5.1498e-06	46.872	0.0019059	0.0022898	0.00061934	914.28	2.4509e-05	2.5335e-05	1024.6	249.53	2.4808e-05	2.5435e-05	312.59	112.29	85.078	31.048	2.5097e-05	44.445	340.599	285.582	286.193	188.101	363.317	284.115	187.889	193.445	535.042	331.782	192.387	196.876	198.443	202.285	283.931	199.518	-8191	255	
7665.841	1	1	0	0	0.057798	0.15781	0.1755	0.29663	0.025134	0.055361	0.17151	0.28871	0.33834	0.049615	0.266	0.071926	0.18453	0.16932	0.14215	0.13244	-2.3271	-2.6229	-2.8125	-2.6083	-2.7729	-2.9	-2.8708	-2.8021	-2.7292	-2.4542	-3.0708	-2.6396	-2.7479	-2.9417	-2.6208	-3.0375	178.450	279.005	418.841	361.088	212.252	308.069	247.524	500.414	407.517	501.686	489.702	504.112	499.760	444.263	184.762	437.881	0.0009706	3.3778e-05	6.3169e-05	987.13	1.1391e-05	2.7142e-06	1108.6	266.93	1.4177e-05	7.492e-06	332.85	119.6	90.372	32.75	2.9015e-06	46.909	0.0020026	0.0023277	0.00065151	915.44	2.4415e-05	2.5847e-05	1027.2	248.8	2.4594e-05	2.5313e-05	312.4	112.64	85.022	31.093	2.4633e-05	44.382	328.965	190.361	479.069	188.148	347.402	301.148	187.438	193.116	350.587	286.980	191.953	197.170	198.125	202.448	341.229	199.575	-8191	255	
7665.938	1	1	0	0	0.066771	0.1219	0.18642	0.4602	0.053001	0.053113	0.16742	0.20689	0.2362	0.087321	0.19462	0.16838	0.1854	0.061057	0.088906	0.27537	-2.3812	-2.4729	-2.9896	-2.8792	-2.65	-3.0396	-2.6021	-2.8271	-2.9562	-2.7562	-2.9646	-2.6979	-2.5312	-3.075	-2.6167	-2.8146	434.922	466.715	408.336	488.238	233.609	534.455	493.583	451.100	253.439	318.909	431.118	498.823	499.933	422.298	424.744	201.374	0.00091016	0.00096497	0.00013765	994.37	6.6373e-06	7.9835e-06	1111.9	268.99	5.6556e-06	1.0519e-05	335.45	121.29	91.728	33.083	4.4137e-06	47.589	0.0019673	0.0022637	0.00064643	917.2	2.4293e-05	2.5316e-05	1029.9	250.95	2.4655e-05	2.5807e-05	314.42	113.63	85.689	31.355	2.4874e-05	44.86	333.523	253.656	186.491	188.161	355.062	372.233	187.514	193.046	343.012	264.608	192.533	196.765	198.193	202.528	201.749	199.867	-8191	255	
7666.034	1	1	0	0	0.18664	0.10677	0.073477	0.30859	0.27117	0.064211	0.10675	0.2626	0.15026	0.28493	0.15641	0.076543	0.13856	0.25433	0.2089	0.24784	-2.4146	-2.3625	-2.95	-2.9167	-2.5771	-2.9667	-2.7604	-2.9604	-2.8625	-2.4854	-3.0667	-2.8771	-2.65	-3.0521	-2.7562	-2.7979	414.865	333.591	442.668	493.833	390.326	324.113	527.126	433.788	284.009	263.540	429.946	434.652	264.652	297.850	394.148	465.224	0.00085703	9.74e-05	0.00025981	998.38	9.4339e-06	8.9083e-06	1122.1	267.8	1.3659e-05	4.0175e-06	337.02	121.25	90.504	33.005	7.9366e-06	47.096	0.0020044	0.0023425	0.00064906	921.86	2.4006e-05	2.5717e-05	1036.5	250.12	2.4468e-05	2.5801e-05	316.04	113.62	85.693	31.3	2.5759e-05	44.745	325.117	179.631	241.492	188.280	317.676	326.590	187.709	193.166	375.247	334.152	192.358	197.104	198.336	202.553	226.559	199.858	-8191	255	
7666.105	1	1	0	0	0.096976	0.19496	0.18257	0.11985	0.14083	0.42011	0.022936	0.077575	0.31873	0.087576	0.27556	0.13358	0.38651	0.1247	0.18768	0.07494	-2.575	-2.525	-2.8458	-2.9938	-2.4625	-2.9313	-2.7396	-2.8812	-3.0146	-2.6521	-2.7917	-2.8917	-2.5667	-3	-2.6833	-2.8896	411.043	390.636	290.260	527.742	201.228	328.381	244.771	520.592	469.183	180.462	432.087	483.856	480.994	461.212	525.542	494.421	0.00093961	0.00098093	0.00032277	997.36	9.206e-06	1.0743e-05	1120.2	269.74	7.4174e-06	1.1009e-05	332.19	120.75	89.459	32.869	5.4545e-06	46.651	0.0020275	0.0023782	0.00067245	919.33	2.509e-05	2.6497e-05	1033.7	250.67	2.5082e-05	2.6056e-05	313.52	112.71	84.983	31.154	2.5516e-05	44.35	333.411	306.983	285.265	188.119	372.189	257.068	187.563	193.799	497.407	333.088	192.337	197.041	197.892	202.590	318.081	199.620	-8191	255	
7666.226	1	1	0	0	0.040059	0.068909	0.21765	0.084139	0.12976	0.08187	0.17135	0.25523	0.28681	0.098982	0.098815	0.10158	0.040106	0.059983	0.11036	0.073915	-2.4208	-2.4729	-2.9188	-2.9833	-2.3021	-2.7667	-2.7875	-2.6833	-2.8896	-2.5312	-2.8146	-2.7979	-2.4688	-3.0229	-2.5521	-2.6604	500.197	272.780	216.365	514.422	237.373	401.136	416.032	401.900	363.573	243.466	416.270	457.863	480.012	406.240	330.895	308.507	0.000806	0.00091522	8.5482e-05	990.47	1.0737e-05	6.6194e-06	1110.1	266.92	1.03e-05	1.0365e-05	334.86	120.18	90.342	32.849	9.4243e-06	47.174	0.0019698	0.0023811	0.00065446	915.56	2.4959e-05	2.5899e-05	1027.4	249.08	2.4392e-05	2.5627e-05	313.17	112.71	85.197	31.244	2.5175e-05	44.492	331.041	247.034	396.723	188.438	390.194	348.724	187.553	193.404	274.522	337.930	192.459	197.003	198.097	202.572	183.986	199.731	-8191	255	
7666.322	1	1	0	0	0.25053	0.20702	0.1247	0.12571	0.12721	0.14069	0.0934	0.11547	0.10353	0.2006	0.15306	0.20078	0.25736	0.16452	0.13503	0.22431	-2.5229	-2.575	-2.7708	-3.0042	-2.5042	-2.9604	-2.8187	-2.4958	-2.9417	-2.5438	-2.6229	-3.1813	-2.6917	-2.8583	-2.7604	-2.4979	252.075	390.640	499.363	427.106	349.921	445.455	523.217	453.002	470.080	444.174	479.129	490.269	177.056	498.643	242.220	428.341	0.00073812	0.00084311	0.00034468	985.52	1.1589e-05	6.858e-06	1112	268.39	8.2794e-06	5.4049e-06	336.45	120.54	90.142	33.159	5.798e-06	47.211	0.0019414	0.002287	0.00064013	914.27	2.4327e-05	2.5786e-05	1029.4	249.61	2.3758e-05	2.5629e-05	314.68	112.9	85.543	31.382	2.5091e-05	44.717	326.047	251.203	286.354	188.223	345.279	327.218	187.778	193.466	332.184	356.863	192.169	196.657	198.062	202.839	322.210	199.656	-8191	255	
7666.418	1	1	0	0	0.16061	0.092656	0.13443	0.090825	0.029797	0.20419	0.19563	0.18697	0.14329	0.15315	0.11234	0.14518	0.24848	0.30218	0.075339	0.2984	-2.6417	-2.6375	-2.5958	-3.0042	-2.2729	-2.9625	-2.9146	-2.5208	-3.0625	-2.5354	-2.6771	-2.8292	-2.5792	-2.675	-2.9125	-2.5229	377.054	442.604	350.427	227.606	235.678	511.541	407.328	519.443	247.109	438.840	203.340	478.548	361.224	491.838	524.757	495.496	0.00081335	0.00037451	0.00033165	994.78	3.9319e-06	1.2595e-05	1119.1	269.72	1.2195e-05	1.1227e-05	334.52	121.81	90.814	33.279	1.4945e-05	47.185	0.0019601	0.0023335	0.00066015	918.85	2.5088e-05	2.5721e-05	1036.9	250.91	2.4956e-05	2.5975e-05	313.92	113.91	85.566	31.394	2.5556e-05	44.725	340.492	220.036	345.786	188.224	337.053	349.960	187.774	193.699	331.630	386.678	192.409	196.925	198.086	202.467	344.307	199.804	-8191	255	
7666.539	1	1	0	0	0.10414	0.14275	0.12794	0.06721	0.11852	0.055343	0.2405	0.1339	0.019638	0.15493	0.10132	0.082555	0.1253	0.044663	0.14595	0.15284	-2.5333	-2.5854	-2.5583	-3.125	-2.6208	-2.7792	-2.9875	-2.5938	-2.9979	-2.8375	-2.6417	-2.9562	-2.5708	-2.8042	-2.7958	-2.5583	479.339	215.483	495.634	181.573	283.572	416.450	209.780	487.492	470.700	375.989	519.966	505.567	470.833	523.396	429.964	327.386	0.0010181	0.00046467	0.00014829	993.67	3.8841e-06	8.6233e-06	1110.9	267.71	1.2646e-05	2.87e-06	331.31	120.02	89.982	32.934	1.2252e-05	46.755	0.0019536	0.0023567	0.00065888	917.51	2.4382e-05	2.58e-05	1026.8	249.04	2.4111e-05	2.5555e-05	311.55	112.78	84.808	31.24	2.3688e-05	44.312	322.645	265.012	332.236	188.310	286.438	438.689	187.599	193.470	422.486	280.293	192.540	196.820	198.379	202.704	257.087	200.175	-8191	255	
7666.633	1	1	0	0	0.1043	0.20508	0.31633	0.33495	0.21282	0.20837	0.099591	0.25775	0.24253	0.22214	0.33201	0.21241	0.14132	0.15102	0.090865	0.2512	-2.5979	-2.7687	-2.5938	-3.0667	-2.6146	-2.7625	-3.1063	-2.575	-2.8333	-2.9229	-2.6208	-3.0604	-2.7375	-2.6562	-2.8604	-2.5854	242.488	441.057	401.376	439.032	422.289	181.561	221.834	477.954	461.607	466.401	187.361	267.133	460.267	500.638	233.986	191.981	0.0010586	0.0013544	0.00035693	988.38	5.3381e-06	2.7757e-06	1105.8	266.02	1.3059e-05	4.9887e-06	332.38	121.44	90.132	32.883	1.021e-05	46.574	0.0019186	0.0022971	0.00062785	912.29	2.4352e-05	2.5291e-05	1023.8	248.34	2.4067e-05	2.5521e-05	311.57	113.15	85.027	31.187	2.4455e-05	44.4	339.101	242.015	271.590	188.195	363.403	403.555	187.392	193.696	343.148	351.540	192.184	196.734	198.129	202.371	270.549	199.579	-8191	255	
7666.730	1	1	0	0	0.26297	0.22128	0.16661	0.12269	0.11472	0.19895	0.081506	0.15784	0.2356	0.34634	0.10396	0.093944	0.22988	0.10006	0.02917	0.34431	-2.3292	-2.8958	-2.6813	-2.9625	-2.6979	-2.6708	-2.9813	-2.5396	-2.8312	-2.9625	-2.3854	-2.9458	-2.7354	-2.6229	-2.8271	-2.6937	233.903	212.001	417.465	490.783	212.888	494.508	429.307	384.182	330.823	289.219	452.412	372.438	486.506	510.506	373.741	509.985	0.0007113	0.0011492	0.00015543	989.17	6.2073e-06	4.7239e-06	1112.8	269.01	1.7387e-06	8.0047e-06	332	120.75	90.414	32.989	6.6615e-06	46.523	0.001971	0.0023527	0.00063154	914.62	2.5003e-05	2.5789e-05	1028.2	249.17	2.4362e-05	2.5393e-05	313.03	112.58	84.989	31.246	2.5052e-05	44.458	325.533	296.677	248.644	188.123	340.499	300.951	187.501	193.687	300.243	379.409	192.189	197.029	198.086	202.476	392.091	200.001	-8191	255	
7666.826	1	1	0	0	0.25677	0.17429	0.065939	0.19758	0.18967	0.081059	0.1579	0.20791	0.12709	0.089687	0.12672	0.11927	0.22208	0.087555	0.080046	0.26399	-2.2479	-2.6312	-2.3438	-3.0167	-2.7521	-2.65	-3.0958	-2.7521	-2.8438	-2.9792	-2.6375	-2.8458	-2.8	-2.4625	-2.8771	-2.6729	524.379	195.119	424.293	501.066	473.521	181.999	421.784	488.035	235.789	309.538	444.756	302.573	204.783	442.970	220.909	456.988	0.00097225	0.00032278	7.0618e-05	993.85	7.6576e-06	4.0901e-07	1122.4	267.75	1.0894e-05	5.9625e-06	330.88	120.07	90.415	32.701	2.2256e-05	46.954	0.0019831	0.0023404	0.00065527	917.47	2.4938e-05	2.5592e-05	1036.5	249.14	2.4752e-05	2.6159e-05	312.59	113.1	85.228	31.221	2.566e-05	44.496	321.114	320.729	400.244	188.163	359.466	368.955	187.685	193.669	371.373	367.442	192.228	196.770	198.509	202.756	354.570	199.894	-8191	255	
7666.922	1	1	0	0	0.13279	0.2591	0.2585	0.057857	0.22825	0.12786	0.17422	0.13766	0.28848	0.21729	0.12801	0.21725	0.095722	0.15098	0.30441	0.26831	-2.3167	-2.75	-2.55	-3	-2.8417	-2.7229	-3.0792	-2.7271	-2.6125	-3.0042	-2.5167	-2.7604	-3.0167	-2.5458	-2.8583	-2.8229	400.325	462.347	361.027	422.367	384.748	470.691	486.777	274.232	271.666	300.794	422.183	227.749	465.243	528.432	421.881	384.771	0.00090354	0.00091889	0.00019058	993.55	5.2734e-06	5.1538e-06	1118.2	265.39	1.7956e-05	4.5896e-06	331.73	120.34	89.692	33.004	4.0195e-06	46.536	0.0020302	0.0023854	0.00066666	920.14	2.5148e-05	2.7079e-05	1034.9	249.45	2.5932e-05	2.6468e-05	312.55	112.72	85.052	31.366	2.6472e-05	44.458	327.586	396.291	226.967	188.226	383.819	392.880	187.690	193.798	316.545	379.013	192.310	196.489	198.193	202.679	214.807	199.878	-8191	255	
7667.018	1	1	0	0	0.25026	0.27637	0.084552	0.28737	0.18274	0.37475	0.12491	0.164	0.098643	0.10009	0.14364	0.16001	0.12837	0.22595	0.033531	0.33897	-1.9583	-2.9833	-2.4979	-2.8917	-2.8354	-2.4833	-2.9813	-2.9813	-2.6063	-3.0521	-2.5021	-2.95	-2.8417	-2.6437	-2.8563	-2.6667	294.964	298.685	522.114	467.056	246.330	264.125	503.042	493.379	252.754	501.619	489.846	409.742	217.886	520.198	292.342	480.635	0.00088417	0.00051421	0.00030831	998.27	1.3132e-05	3.2962e-06	1126.1	267.95	8.4487e-06	7.7691e-06	334.45	120.75	90.081	33.063	1.1123e-05	47.073	0.0020884	0.0024729	0.00069495	927	2.6305e-05	2.7048e-05	1039.3	250.22	2.6165e-05	2.7275e-05	314.16	113.38	85.22	31.361	2.6808e-05	44.625	319.293	333.652	271.916	188.263	362.985	391.838	187.456	193.301	357.169	388.056	192.343	197.055	198.022	202.221	189.072	199.677	-8191	255	
7667.139	1	1	0	0	0.1809	0.085394	0.26165	0.26457	0.07158	0.18797	0.027554	0.31199	0.071853	0.16491	0.24866	0.17291	0.11501	0.16673	0.069853	0.15909	-2.1271	-2.8688	-2.65	-2.8229	-2.85	-2.4708	-2.9771	-2.9292	-2.4875	-3.0542	-2.7271	-2.7979	-2.9604	-2.5271	-2.9104	-2.9958	246.127	180.199	451.651	492.938	404.583	368.742	525.615	409.418	251.244	451.925	455.945	511.350	416.081	366.398	318.268	523.774	0.00086703	0.00063335	0.00012492	1003	3.3234e-06	6.7873e-06	1128.8	268.19	4.7082e-06	7.638e-06	335.27	121.19	90.712	33.091	2.8691e-06	47.406	0.0020708	0.0024615	0.00069156	926.09	2.6011e-05	2.7713e-05	1040.3	251.29	2.6026e-05	2.694e-05	314.43	113.79	86.043	31.512	2.6544e-05	44.884	326.532	218.315	343.364	188.497	343.989	333.894	187.307	193.924	310.445	257.230	192.114	196.996	197.658	202.661	375.115	199.851	-8191	255	
7667.235	1	1	0	0	0.093408	0.10589	0.066354	0.17045	0.052934	0.18528	0.34042	0.30601	0.22114	0.16925	0.19326	0.25495	0.12186	0.21067	0.13433	0.22193	-2.0396	-2.8458	-2.7958	-2.6708	-2.875	-2.5042	-3.1083	-2.8167	-2.4229	-2.9646	-2.5208	-2.5979	-2.9979	-2.5333	-2.6083	-2.7125	359.644	409.173	281.086	430.352	392.070	465.886	521.789	378.789	512.105	359.524	404.354	199.780	281.752	528.396	506.797	203.806	0.00078183	0.00055691	9.5435e-05	996.52	1.2415e-05	2.2158e-06	1132.6	270.69	1.2064e-05	1.0721e-05	335.65	121.97	89.799	33.485	1.4642e-06	47.412	0.0020622	0.002515	0.00069442	924.89	2.613e-05	2.762e-05	1042.7	251.67	2.5488e-05	2.7115e-05	316.62	113.85	85.598	31.627	2.6238e-05	44.833	315.840	218.643	381.437	188.079	298.876	291.409	187.710	193.596	317.294	480.898	192.063	197.030	197.981	202.219	328.385	199.852	-8191	255	
7667.331	1	1	0	0	0.11231	0.042965	0.11865	0.079063	0.13796	0.3294	0.24477	0.036099	0.17718	0.12861	0.23255	0.21637	0.011268	0.10018	0.1293	0.093816	-1.9229	-2.8479	-2.5958	-2.5312	-2.9354	-2.6125	-2.7542	-2.8292	-2.5146	-2.7729	-2.7	-2.7479	-2.85	-2.7354	-2.5625	-2.9521	284.306	390.203	307.750	223.081	517.852	366.856	447.581	245.132	228.418	447.188	469.218	192.709	466.063	203.224	336.381	214.402	0.00077384	0.00065222	0.00027328	1003.5	8.9975e-06	3.5576e-06	1121.7	269.28	2.0393e-05	5.7537e-06	330.1	119.78	90.45	33.226	7.8728e-06	46.95	0.002078	0.0024177	0.00067992	927.06	2.54e-05	2.6817e-05	1036.6	251.54	2.5848e-05	2.6648e-05	314.2	112.78	85.571	31.451	2.6559e-05	44.494	318.374	243.075	307.630	188.374	252.811	370.289	187.582	193.488	324.734	355.160	192.178	197.105	198.370	202.427	332.796	199.875	-8191	255	
7667.403	1	1	0	0	0.061097	0.03512	0.19829	0.26478	0.068347	0.22628	0.25452	0.085845	0.16002	0.080733	0.14678	0.17448	0.34687	0.10661	0.18675	0.10653	-2.1854	-2.5625	-2.7458	-2.5375	-3	-2.7104	-2.8667	-3.0438	-2.525	-2.7188	-2.825	-2.4813	-3.0938	-2.5125	-2.8187	-3.0875	389.453	497.349	246.122	490.277	303.621	193.740	267.713	303.828	533.654	428.933	479.055	240.395	500.289	407.303	297.786	425.663	0.00089943	0.0001996	0.00031526	1000.8	6.0942e-06	4.1101e-06	1121.7	268.73	1.7023e-05	1.4418e-05	333.31	120.63	89.771	32.651	8.5933e-06	47.204	0.0021373	0.0025036	0.00069379	925.99	2.62e-05	2.791e-05	1036.2	251.02	2.6504e-05	2.7972e-05	313.51	112.81	85.133	31.23	2.674e-05	44.583	328.463	220.676	236.458	188.375	266.640	333.646	187.580	193.459	384.627	272.306	192.658	197.155	198.348	201.937	355.799	199.449	-8191	255	
7667.523	1	1	0	0	0.14304	0.19972	0.11554	0.19271	0.14044	0.15358	0.078688	0.065766	0.2042	0.2518	0.24325	0.10094	0.10089	0.10803	0.09961	0.12686	-2.0625	-2.7458	-2.7188	-2.6083	-2.875	-2.5833	-2.6063	-3.2271	-2.7146	-2.8312	-3.0333	-2.575	-2.8167	-2.8354	-2.4854	-3.0583	363.177	396.862	426.177	475.082	178.807	469.622	207.264	444.232	424.564	419.149	415.887	435.573	482.953	490.033	405.393	485.944	0.001004	0.00094485	0.00013817	1001.7	6.085e-06	3.4425e-06	1122.4	268.9	1.5487e-05	7.7114e-06	335.67	120.22	89.77	33.043	7.1376e-06	47.056	0.002095	0.0025033	0.0007038	925.9	2.5909e-05	2.7435e-05	1036.7	250.89	2.6343e-05	2.708e-05	314.92	112.94	85.224	31.48	2.6732e-05	44.71	324.459	251.042	300.942	188.189	402.609	271.184	187.522	193.444	388.130	426.691	192.134	196.910	198.602	202.772	342.743	199.729	-8191	255	
7667.618	1	1	0	0	0.082627	0.40073	0.38068	0.37698	0.14557	0.16047	0.23858	0.3328	0.20005	0.14642	0.28089	0.051615	0.10106	0.17886	0.044418	0.17449	-2.1458	-2.9042	-2.9042	-2.5208	-2.7458	-2.6521	-2.5833	-3.0104	-2.5229	-2.6646	-3.0917	-2.6604	-3.1583	-2.9271	-2.5062	-3.1188	376.921	397.920	328.366	183.695	501.379	467.827	490.650	436.144	458.143	281.335	447.420	320.734	199.864	511.662	489.746	484.405	0.0008853	0.0013377	0.00013454	998.65	1.6032e-05	1.0958e-05	1120.4	269.06	7.1307e-06	4.12e-06	335.77	121.12	90.709	33.074	5.3136e-06	47.152	0.0020743	0.0024299	0.00068972	924.23	2.5862e-05	2.732e-05	1038.9	252.12	2.6278e-05	2.7261e-05	315.73	113.47	85.781	31.588	2.656e-05	44.76	321.215	258.086	344.616	188.223	380.616	290.563	187.641	193.624	449.059	217.009	192.496	197.061	198.214	202.537	380.163	200.036	-8191	255	
7667.714	1	1	0	0	0.25669	0.22229	0.31663	0.030744	0.19328	0.15154	0.17278	0.2571	0.094692	0.19755	0.099352	0.23505	0.12428	0.13212	0.15411	0.26817	-2.3125	-2.4354	-3.0333	-2.6333	-2.7646	-2.9938	-2.675	-3.1208	-2.6167	-2.6271	-3.0104	-2.5375	-2.7812	-2.8771	-2.3708	-2.9188	340.901	524.090	285.949	330.042	274.966	270.878	198.588	482.704	340.091	501.581	184.533	518.960	503.110	447.059	343.804	482.178	0.0008188	0.00070734	0.00027985	995.94	1.2755e-05	8.0353e-06	1119.5	268.95	1.2559e-05	1.0896e-06	331.09	120.5	89.764	33.126	7.2305e-06	46.939	0.0021193	0.0025605	0.0007047	926.14	2.6755e-05	2.7606e-05	1036.3	251.88	2.6723e-05	2.7553e-05	313.71	112.99	85.332	31.507	2.6737e-05	44.669	316.781	317.776	275.104	188.209	297.788	390.486	187.504	193.589	291.184	348.949	192.248	196.919	198.482	202.464	307.906	199.782	-8191	255	
7667.810	1	1	0	0	0.27158	0.33159	0.035883	0.10826	0.22185	0.063301	0.077253	0.18614	0.11453	0.13801	0.15961	0.12195	0.21367	0.14262	0.030998	0.31864	-2.1792	-2.55	-2.9708	-2.5896	-2.7042	-2.7354	-2.5083	-2.9375	-2.6417	-2.4667	-3.1437	-2.5771	-2.8458	-2.8375	-2.4688	-2.8479	422.442	295.288	509.116	433.684	438.226	199.571	264.858	523.464	247.576	271.784	473.123	514.981	312.892	313.959	409.688	422.473	0.00096567	0.00045277	0.00028757	994.63	7.8572e-06	8.8604e-06	1120.9	270.32	8.0268e-06	6.1934e-06	335.25	120.56	90.479	33.176	6.7039e-06	47.147	0.0021148	0.0024594	0.0006938	922.69	2.5904e-05	2.7764e-05	1037.3	252.01	2.6822e-05	2.7486e-05	315.96	113.21	85.749	31.64	2.6463e-05	44.937	315.989	314.490	255.699	188.420	321.132	380.762	187.568	193.622	339.240	411.681	192.563	196.489	198.433	202.661	443.093	199.777	-8191	255	
7667.906	1	1	0	0	0.15548	0.15549	0.18937	0.2301	0.036543	0.24441	0.049514	0.074865	0.28024	0.17046	0.15129	0.052304	0.22997	0.032952	0.14705	0.14474	-2.3542	-2.2938	-2.8854	-2.625	-2.6417	-3.0229	-2.6167	-2.95	-2.7708	-2.3042	-3.0375	-2.8521	-2.4979	-2.8729	-2.6021	-2.7958	531.834	360.787	387.295	472.644	378.880	420.900	358.724	207.062	210.067	505.833	454.184	450.657	532.600	215.239	523.087	458.919	0.00089595	0.0011161	0.00034575	1001.8	1.6621e-05	6.0706e-06	1124.1	273.36	1.5952e-05	8.2531e-06	336.34	121.45	91.222	33.604	3.4225e-06	47.208	0.0020888	0.0024763	0.00070938	927.14	2.658e-05	2.7842e-05	1040.6	254.13	2.6752e-05	2.8144e-05	316.62	113.98	86.166	31.795	2.6821e-05	44.995	330.595	258.398	198.796	188.284	340.152	348.562	187.748	193.533	314.353	297.827	191.793	196.792	198.704	202.979	268.757	200.035	-8191	255	
7668.002	1	1	0	0	0.20258	0.18138	0.1587	0.14425	0.14102	0.12558	0.20132	0.13382	0.18213	0.16751	0.13741	0.34509	0.24912	0.10508	0.18093	0.14827	-2.4354	-2.4792	-2.9083	-2.5729	-2.5625	-2.9792	-2.6125	-2.8854	-2.8312	-2.6229	-2.8333	-2.9062	-2.8312	-3.0854	-2.5521	-2.8875	327.274	209.136	411.760	473.650	261.133	322.882	505.475	458.155	463.588	395.496	341.258	420.258	531.823	387.571	475.019	442.676	0.0010383	0.00027863	0.00013537	1001.7	9.1831e-06	4.5855e-06	1127.8	271.17	6.107e-06	9.2979e-06	337.87	122.36	92.444	33.379	9.2725e-06	47.646	0.0021119	0.0025247	0.00071181	928.8	2.6836e-05	2.7463e-05	1045.7	253.28	2.6139e-05	2.7496e-05	318.2	114.54	86.983	31.786	2.648e-05	45.137	333.242	332.398	310.467	188.380	403.051	348.802	187.877	193.835	351.089	385.959	192.312	196.880	198.413	202.600	286.900	199.957	-8191	255	
7668.098	1	1	0	0	0.127	0.088635	0.017577	0.12643	0.32856	0.15871	0.22982	0.23694	0.1414	0.21371	0.21984	0.14166	0.28055	0.21802	0.18836	0.22905	-2.4021	-2.2188	-2.925	-2.8708	-2.4542	-3.0396	-2.6792	-2.7438	-3.0271	-2.725	-2.9583	-2.8667	-2.6646	-3.1417	-2.8083	-2.7417	400.476	262.765	310.927	490.270	525.851	332.851	255.127	441.922	396.363	381.362	513.410	419.943	181.957	420.528	436.332	388.216	0.00080218	0.00057061	0.0003016	1001	2.8704e-06	2.206e-06	1123.8	271.64	1.1969e-05	8.9458e-06	336.09	120.66	89.993	33.373	1.184e-05	47.176	0.0020805	0.0024412	0.00067908	926.83	2.6322e-05	2.7146e-05	1038.1	252.97	2.6093e-05	2.696e-05	316.86	113.43	85.864	31.666	2.6576e-05	44.863	337.142	388.744	215.090	188.253	358.286	435.924	187.645	193.397	328.192	288.607	192.282	196.630	198.623	202.306	335.119	199.712	-8191	255	
7668.219	1	1	0	0	0.24653	0.084434	0.2452	0.3571	0.37724	0.17204	0.10097	0.19695	0.20806	0.21274	0.26592	0.1643	0.21928	0.19364	0.1333	0.19456	-2.5542	-2.4813	-3	-2.9667	-2.6458	-3.0854	-2.8875	-2.8042	-3.0083	-2.4396	-2.8563	-3.0229	-2.5354	-2.875	-2.7125	-2.5771	184.097	184.431	517.255	459.649	399.888	205.388	364.812	260.320	447.747	375.407	485.240	228.423	359.077	436.053	408.197	359.295	0.000762	0.00075331	0.00035229	995.07	3.539e-06	3.6905e-06	1114.1	271.3	1.5097e-05	9.7197e-06	336.81	121.34	90.484	33.19	9.6956e-06	47.054	0.0020409	0.0024806	0.00069554	923.26	2.6104e-05	2.7125e-05	1035.1	253.49	2.625e-05	2.7295e-05	316.99	113.89	86.128	31.686	2.6273e-05	44.938	325.396	224.859	253.874	188.388	302.307	269.137	187.405	193.523	364.891	333.413	192.361	196.840	198.422	202.461	365.853	199.643	-8191	255	
7668.315	1	1	0	0	0.089673	0.29872	0.23144	0.13333	0.24915	0.23644	0.14625	0.41379	0.05692	0.29661	0.30192	0.17268	0.055054	0.042077	0.12023	0.052575	-2.5729	-2.5021	-2.7958	-2.9542	-2.45	-3.05	-2.8271	-2.6896	-3.0208	-2.3854	-2.7188	-2.825	-2.5958	-2.8438	-2.8646	-2.5583	203.969	407.657	514.484	530.792	470.486	340.089	189.632	532.541	215.375	379.077	202.149	433.345	490.387	282.833	212.842	208.271	0.0009567	0.00066713	0.00023337	1002.2	6.1155e-06	2.1952e-06	1126.2	271.23	1.9923e-05	7.2691e-06	339.72	122.21	91.707	33.648	9.7484e-06	47.38	0.0020691	0.0024728	0.00069886	925.53	2.607e-05	2.6976e-05	1041.5	253.82	2.5725e-05	2.7371e-05	319.1	114.7	87.02	31.924	2.6938e-05	45.221	315.940	251.684	362.486	188.063	377.562	290.480	187.297	193.373	340.567	273.628	192.488	196.874	198.227	202.283	317.621	200.065	-8191	255	
7668.411	1	1	0	0	0.335	0.30121	0.16805	0.17437	0.15344	0.30498	0.23602	0.030469	0.16971	0.068957	0.017729	0.21977	0.038731	0.23393	0.22499	0.17321	-2.4562	-2.5375	-2.7333	-3.0771	-2.3354	-2.7271	-2.8979	-2.575	-2.9667	-2.6125	-2.6958	-3.0229	-2.425	-2.7958	-2.625	-2.5833	359.429	378.597	289.374	511.184	319.649	380.574	266.249	521.124	470.554	456.120	534.590	465.463	178.273	289.162	231.335	340.680	0.00088332	0.00090319	0.000238	1007.1	5.717e-06	1.0688e-05	1134.6	273.09	3.4248e-06	8.8961e-06	340.64	123.4	92.26	33.693	3.6787e-06	47.855	0.0020801	0.0025477	0.00071785	932.55	2.7015e-05	2.8355e-05	1050.6	255.28	2.7537e-05	2.8562e-05	322.17	115.59	87.477	32.099	2.8338e-05	45.524	326.312	215.551	290.907	188.382	389.682	299.214	187.653	193.681	370.714	278.846	192.613	197.259	198.199	202.690	314.142	199.917	-8191	255	
7668.507	1	1	0	0	0.22381	0.33201	0.18219	0.20699	0.19685	0.18707	0.34144	0.068474	0.14722	0.22645	0.15621	0.15818	0.14084	0.11627	0.073091	0.086939	-2.45	-2.6188	-2.55	-2.8688	-2.6937	-2.8771	-2.8917	-2.5292	-2.9313	-2.5792	-2.7	-3.0583	-2.6896	-2.6917	-2.8604	-2.4521	404.267	268.545	262.445	525.824	511.786	288.784	460.966	177.084	413.212	277.421	435.383	271.122	517.950	414.804	364.159	504.847	0.00090619	0.00011002	5.2136e-05	1016	3.2475e-06	1.4328e-06	1131.6	273.98	4.8198e-06	4.8655e-06	339.77	121.74	92.317	33.593	1.063e-05	47.82	0.0021854	0.0026152	0.00073256	938.37	2.8261e-05	2.8924e-05	1047.6	256.26	2.7797e-05	2.8886e-05	318.9	114.85	87.188	31.87	2.8195e-05	45.277	329.315	530.276	185.295	188.141	292.410	471.162	187.445	193.732	388.339	372.337	192.363	197.009	198.313	202.566	317.977	199.597	-8191	255	
7668.626	1	1	0	0	0.051184	0.30069	0.3959	0.046531	0.1691	0.2177	0.1613	0.090533	0.11692	0.3008	0.33026	0.035875	0.19977	0.29741	0.2807	0.29058	-2.4854	-2.6604	-2.6188	-2.9604	-2.4729	-2.7646	-3.1125	-2.4646	-2.6583	-2.6542	-2.5187	-3.15	-2.7062	-2.65	-2.8521	-2.5521	212.210	215.907	323.069	530.807	322.143	407.727	465.234	231.938	328.962	245.003	292.222	250.086	334.757	179.375	474.715	328.633	0.0010397	0.00078353	0.0003624	1001.5	9.5878e-06	8.3009e-06	1130.8	271.02	1.1295e-05	4.5358e-06	340.34	121.22	90.858	33.26	1.2133e-05	47.281	0.0022083	0.0026568	0.00073246	933.43	2.8132e-05	2.9645e-05	1048	254.96	2.7847e-05	2.96e-05	319.74	114.65	86.659	31.716	2.9042e-05	44.918	332.940	304.135	293.350	188.205	428.534	401.478	188.059	193.561	361.823	358.514	192.437	197.262	198.268	202.521	358.233	200.075	-8191	255	
7668.698	1	1	0	0	0.23259	0.29767	0.17153	0.24865	0.071962	0.29126	0.16607	0.091123	0.18849	0.13183	0.14832	0.15022	0.22512	0.21831	0.13202	0.047179	-2.2167	-2.6937	-2.575	-3.0958	-2.625	-2.7083	-2.9792	-2.5583	-2.7125	-2.8646	-2.4646	-2.9917	-2.575	-2.7375	-2.7854	-2.5812	250.101	462.400	367.737	504.157	312.675	458.750	463.839	191.280	183.668	242.233	340.007	509.249	336.557	332.951	298.098	417.456	0.0005968	0.001899	0.00022265	1006.3	7.6582e-06	7.5763e-06	1123.6	271.23	8.9503e-06	2.8641e-06	337.21	121.27	90.349	33.377	7.535e-06	47.712	0.0022741	0.0026933	0.0007425	934.39	2.7997e-05	2.9658e-05	1045.8	254.43	2.7698e-05	2.9751e-05	318.45	114.18	86.238	31.798	2.8471e-05	45.107	314.895	375.883	274.147	188.496	316.824	198.202	187.802	193.335	325.615	469.208	192.715	196.845	198.223	202.549	370.375	199.379	-8191	255	
7668.819	1	1	0	0	0.10721	0.17456	0.15613	0.056653	0.27013	0.12079	0.16973	0.069922	0.16151	0.22119	0.21658	0.15278	0.099374	0.18757	0.19724	0.18827	-2.3187	-2.6208	-2.5	-3.0187	-2.5708	-2.6312	-2.9667	-2.6	-2.5958	-3	-2.5271	-3.0229	-2.9646	-2.4396	-2.8104	-2.7313	444.357	497.797	481.049	245.028	201.926	329.942	425.221	528.490	403.497	323.999	500.654	179.945	486.721	508.197	535.080	451.751	0.00083985	0.00058066	0.0002366	1010	1.3371e-05	4.1412e-06	1134.6	270.15	1.0059e-05	8.6687e-06	339.26	121.22	90.937	33.295	3.5169e-06	47.303	0.0022134	0.0026527	0.00073777	935.26	2.8354e-05	2.9581e-05	1046	253.83	2.8123e-05	2.9208e-05	320.13	114.69	86.278	31.778	2.8631e-05	45.297	318.906	266.143	238.262	188.303	307.867	317.939	187.229	193.347	381.116	372.905	192.064	196.604	198.449	202.884	336.320	199.789	-8191	255	
7668.915	1	1	0	0	0.17932	0.28764	0.14677	0.41418	0.07	0.30807	0.34043	0.1918	0.048834	0.22249	0.095815	0.25547	0.11622	0.23699	0.3087	0.072922	-2.3396	-2.9375	-2.5125	-2.7562	-2.7729	-2.6167	-3.15	-2.8125	-2.7188	-2.8812	-2.4521	-3.1729	-2.9396	-2.4813	-3.2292	-2.7167	498.038	520.838	312.352	192.285	498.567	514.566	433.552	183.459	358.922	442.509	318.987	532.764	244.905	476.582	336.063	262.658	0.00072723	0.00095925	0.00036099	1014.2	6.483e-06	8.3524e-06	1132.4	272.45	1.1954e-05	6.5006e-06	333.94	120.58	91.005	33.199	3.2589e-06	46.994	0.0022602	0.0026512	0.00075193	938.11	2.8627e-05	2.9418e-05	1048.8	254.8	2.8707e-05	2.9383e-05	317.54	113.8	86.521	31.696	2.8254e-05	44.929	331.571	253.777	242.090	188.161	370.815	418.295	187.618	193.557	347.518	213.388	192.192	196.819	198.440	202.562	203.868	199.768	-8191	255	
7669.011	1	1	0	0	0.10404	0.057037	0.18455	0.18676	0.28969	0.081154	0.13924	0.10829	0.052389	0.27718	0.28166	0.3148	0.1353	0.11502	0.1649	0.1106	-2.1646	-2.925	-2.5021	-2.9854	-2.6333	-2.6104	-3.1063	-2.9167	-2.6896	-2.9813	-2.6104	-2.8375	-2.9062	-2.4833	-2.8937	-2.7104	272.242	280.986	235.611	506.199	509.673	227.547	528.516	449.801	299.229	336.795	469.188	203.167	436.584	422.996	406.591	510.662	0.001003	0.00037046	0.00014438	1009.9	1.7404e-05	7.6983e-06	1127.7	271.1	8.1773e-06	5.8343e-06	335.95	121.52	90.282	32.825	4.5038e-06	47.283	0.002236	0.002651	0.00073762	932.81	2.7494e-05	2.8913e-05	1043.1	253.16	2.7694e-05	2.8306e-05	316.59	113.34	85.857	31.4	2.7814e-05	44.951	330.977	354.424	345.499	187.867	387.305	349.285	187.808	193.857	272.165	410.222	192.256	196.769	198.523	202.375	396.033	199.963	-8191	255	
7669.107	1	1	0	0	0.23801	0.23489	0.20718	0.11929	0.13107	0.20267	0.25971	0.22531	0.1502	0.18635	0.10748	0.096911	0.18691	0.35	0.067575	0.15176	-2.0979	-3.0354	-2.5583	-2.9375	-2.7646	-2.35	-2.9792	-2.7854	-2.5812	-2.9979	-2.5187	-2.5771	-2.8312	-2.55	-2.7917	-2.8458	296.945	219.648	204.231	447.631	358.801	341.129	414.168	459.352	354.195	374.376	246.440	335.851	523.809	185.354	245.175	391.467	0.00083176	0.00040772	0.00039101	1001	5.0566e-06	1.6752e-05	1130.6	269.04	1.0059e-05	1.821e-06	333.6	121.47	90.276	33.167	1.0747e-05	47.182	0.00217	0.0026289	0.00072069	929.37	2.7917e-05	2.8468e-05	1042.8	252.16	2.7901e-05	2.9595e-05	317.38	113.77	85.873	31.578	2.9221e-05	44.988	328.889	399.819	527.550	188.215	326.212	225.959	187.823	193.477	249.206	500.872	192.347	197.086	198.341	202.672	366.006	199.695	-8191	255	
7669.203	1	1	0	0	0.18979	0.14388	0.17985	0.32309	0.15459	0.18282	0.1774	0.095233	0.021632	0.29197	0.2793	0.023753	0.18809	0.2481	0.13109	0.13749	-2.1542	-2.9729	-2.5	-2.7667	-2.9229	-2.6104	-3.1104	-2.7458	-2.5271	-2.8875	-2.7792	-2.7188	-2.8542	-2.5125	-2.8292	-2.9104	458.958	455.550	500.556	200.767	332.467	479.119	514.841	406.410	333.993	446.850	421.326	295.932	197.793	438.641	240.675	476.727	0.00094361	0.0011017	0.0004193	1006.6	2.1488e-05	3.7844e-06	1135.6	272.45	7.3481e-06	7.7071e-06	335.35	121.34	90.663	33.232	5.5983e-06	47.703	0.0022607	0.0026996	0.00077383	934.26	2.8931e-05	3.0368e-05	1051.2	253.79	2.9151e-05	3.0553e-05	317.91	114.28	86.223	31.707	2.9302e-05	45.109	331.285	314.450	304.957	187.819	355.204	218.733	187.706	193.708	332.493	291.255	192.348	197.295	198.384	202.391	340.715	199.977	-8191	255	
7669.299	1	1	0	0	0.1537	0.14522	0.19359	0.28726	0.37348	0.21938	0.099339	0.099114	0.10131	0.11537	0.11259	0.44763	0.20831	0.173	0.17715	0.2625	-1.9521	-2.8563	-2.6104	-2.6188	-2.9667	-2.5208	-3.125	-2.8792	-2.5021	-3.0292	-2.6146	-2.5687	-2.9833	-2.4938	-2.7917	-2.9646	354.247	345.826	487.296	515.942	495.872	452.622	389.202	520.232	269.560	442.813	517.333	268.867	524.444	442.899	286.778	283.034	0.00079722	0.00088634	0.00013357	1009.5	7.2507e-06	1.6938e-05	1120.2	270.1	4.9459e-06	5.5259e-06	333.72	118.77	89.233	32.609	4.1122e-06	46.902	0.0022797	0.0027358	0.00076825	935.74	2.8288e-05	3.0172e-05	1043.7	252.67	2.9133e-05	3.0856e-05	315.35	112.34	85.341	31.229	2.9776e-05	44.556	332.738	457.811	222.561	188.208	370.523	407.796	187.739	193.658	378.665	302.076	192.316	196.637	198.507	202.409	386.195	199.906	-8191	255	
7669.396	1	1	0	0	0.24208	0.26209	0.19204	0.25862	0.10741	0.18827	0.014497	0.25549	0.12061	0.22012	0.11155	0.23365	0.16141	0.17455	0.19367	0.25887	-2.0354	-2.9062	-2.7208	-2.6417	-3	-2.6271	-2.6312	-2.8438	-2.5167	-2.75	-2.8354	-2.6375	-2.9083	-2.7021	-2.6417	-2.9542	216.668	266.231	226.908	435.938	225.770	242.261	473.188	345.692	343.422	211.810	194.005	477.563	502.837	467.362	328.553	242.098	0.00097679	0.00062019	0.00013789	1005.1	1.4562e-05	8.2343e-06	1126	268.64	3.3009e-06	7.018e-06	333.67	119.53	89.485	32.84	1.3001e-05	46.471	0.0023215	0.002771	0.00077738	931.68	2.8884e-05	3.0751e-05	1044.9	251.76	2.9281e-05	3.0776e-05	315.72	112.73	85.488	31.36	3.0082e-05	44.497	343.226	312.832	467.881	188.075	302.233	360.198	187.192	193.529	320.457	278.851	192.630	197.045	198.339	202.643	325.966	200.337	-8191	255	
7669.492	1	1	0	0	0.060017	0.20597	0.11187	0.093907	0.23455	0.14574	0.20771	0.037927	0.30341	0.081233	0.21007	0.021702	0.10465	0.16043	0.21479	0.15108	-1.9917	-2.8	-2.8271	-2.6417	-2.8896	-2.7021	-2.5979	-2.9167	-2.4437	-2.7938	-2.8604	-2.5687	-2.9479	-2.8667	-2.5854	-3.1458	331.783	511.396	393.556	470.015	185.868	501.546	418.670	351.705	376.681	207.116	426.803	420.330	465.409	201.181	381.257	399.802	0.00069012	0.00077359	0.00029107	1006	1.202e-05	3.1911e-06	1130.4	269.47	2.4503e-06	1.1322e-05	336.19	118.79	90.003	33.14	1.7156e-06	46.872	0.0022926	0.0027816	0.00077546	935.06	2.8847e-05	3.075e-05	1042.8	252.48	2.7986e-05	2.9634e-05	315.69	111.99	85.155	31.415	2.7958e-05	44.599	321.687	225.326	377.992	188.080	443.650	312.305	187.653	193.850	283.568	255.849	192.076	197.049	198.497	202.705	462.781	200.088	-8191	255	
7669.588	1	1	0	0	0.16987	0.20264	0.20642	0.17103	0.096918	0.19621	0.06365	0.33015	0.37678	0.25252	0.32517	0.17605	0.30583	0.15967	0.083258	0.14154	-2	-2.7542	-2.8625	-2.5687	-2.7167	-2.95	-2.6333	-3.0167	-2.5687	-2.7833	-3.0104	-2.6625	-2.8917	-2.7979	-2.3812	-2.8333	429.516	328.990	277.911	488.410	527.474	416.770	415.923	487.756	374.066	250.609	531.851	463.543	505.363	308.517	279.579	357.721	0.00084462	0.00049823	3.4857e-05	998.2	1.2136e-05	5.5238e-06	1119.7	268.01	9.2461e-06	6.7729e-06	333.48	119.56	89.362	32.601	2.5278e-06	47.393	0.0021564	0.0026267	0.0007207	926.49	2.664e-05	2.8576e-05	1036.1	250.18	2.7513e-05	2.9005e-05	313.49	112.33	84.94	31.141	2.7836e-05	44.744	321.306	248.307	406.741	187.845	307.644	265.562	187.648	192.948	387.887	361.948	192.202	196.725	198.321	202.468	332.875	200.122	-8191	255	
7669.707	1	1	0	0	0.15567	0.065313	0.3239	0.1021	0.044676	0.11095	0.13858	0.10467	0.10415	0.21153	0.048692	0.13945	0.10736	0.071707	0.22597	0.29785	-2.0229	-2.6167	-2.8937	-2.4396	-2.7521	-2.8375	-2.7	-2.9292	-2.5458	-2.6333	-2.8208	-2.5958	-2.6104	-2.8708	-2.5062	-3.0104	259.951	204.892	465.926	528.749	421.112	433.587	184.681	454.612	188.772	329.835	430.920	409.014	241.562	223.799	439.437	476.495	0.00089568	0.00071695	0.00016292	1001.8	2.8701e-05	1.5732e-06	1122.1	267.36	1.9381e-05	3.8759e-06	333.61	118.76	88.958	32.634	1.209e-05	45.782	0.0021575	0.0026504	0.0007345	928.61	2.8003e-05	2.9274e-05	1040.2	250.92	2.8739e-05	3.0102e-05	313.1	111.6	84.616	31.094	2.8881e-05	44.04	335.784	334.630	274.261	188.301	357.912	363.381	187.308	193.532	306.282	295.664	192.375	196.875	198.498	202.750	361.832	199.933	-8191	255	
7669.803	1	1	0	0	0.2959	0.074377	0.11893	0.3114	0.1652	0.012958	0.11835	0.24022	0.14546	0.14526	0.010738	0.38171	0.12331	0.17993	0.1339	0.15224	-2.2125	-2.4437	-2.9917	-2.5354	-2.7583	-2.7062	-2.6	-2.8542	-2.6396	-2.6146	-3.0542	-2.8208	-2.7208	-2.8229	-2.2792	-3	295.019	193.898	255.472	496.022	189.930	460.383	507.916	458.023	191.799	499.438	350.258	492.436	262.318	347.366	250.009	405.234	0.0010502	0.0006416	0.00025564	997.59	1.1795e-06	9.6588e-06	1113	265.43	7.3409e-06	3.792e-06	328.36	116.89	88.516	32.15	4.5384e-06	46.165	0.0023146	0.0027362	0.00074852	926.35	2.8168e-05	2.938e-05	1032.7	249.36	2.8988e-05	2.9868e-05	311.5	110.39	84.034	30.848	2.9414e-05	44.034	330.145	301.065	293.127	188.379	324.467	329.495	187.862	193.737	393.653	432.890	192.324	196.675	198.352	202.599	347.727	199.698	-8191	255	
7669.899	1	1	0	0	0.11239	0.27472	0.10272	0.42576	0.29751	0.22566	0.35872	0.16945	0.035284	0.094557	0.19857	0.070237	0.24116	0.34235	0.099771	0.46125	-2.3563	-2.5083	-3.125	-2.675	-2.7729	-2.9375	-2.6208	-2.8646	-2.7917	-2.5896	-3.0229	-2.6	-2.7833	-2.8583	-2.4708	-2.8979	389.082	386.885	346.974	479.911	345.459	428.025	469.394	494.359	487.921	246.844	486.511	261.820	494.987	235.767	359.925	177.973	0.00081879	0.00089255	0.00018804	998.37	8.9677e-06	3.6344e-06	1104.9	266.97	1.4087e-05	1.1876e-05	331.57	117.02	88.148	31.948	3.4453e-06	46.215	0.0022958	0.0027576	0.0007684	926.47	2.9642e-05	3.1448e-05	1030.3	249.69	2.9941e-05	3.1817e-05	312.49	110.43	84.11	30.803	3.1769e-05	44.197	331.448	320.689	333.729	188.181	361.574	273.909	187.749	193.863	398.003	298.829	192.167	197.010	198.412	202.584	447.053	200.066	-8191	255	
7669.995	1	1	0	0	0.21282	0.19483	0.16382	0.26229	0.17709	0.18204	0.25312	0.12505	0.067798	0.20789	0.11356	0.28111	0.13508	0.10733	0.21226	0.26918	-2.3354	-2.4083	-2.8708	-2.8063	-2.7354	-2.95	-2.6042	-2.7479	-2.7792	-2.3875	-2.9479	-2.8	-2.5687	-3.0271	-2.4688	-2.9021	395.628	303.216	301.508	478.102	314.952	462.867	423.107	409.868	413.929	207.044	507.082	504.312	420.840	507.862	418.598	450.056	0.00083952	0.00081447	0.00022562	1005.3	4.4674e-06	4.0071e-06	1124.9	266.78	9.1427e-06	8.3401e-06	332.17	117.16	88.177	32.349	9.58e-06	46.439	0.0024899	0.002976	0.00082895	932.09	3.1495e-05	3.3517e-05	1042.7	251.55	3.2255e-05	3.4231e-05	315.04	111.37	84.657	30.985	3.3848e-05	44.517	324.218	287.731	236.129	188.135	290.299	281.222	187.517	193.250	480.650	342.869	192.538	196.937	198.453	202.409	354.854	200.018	-8191	255	
7670.091	1	1	0	0	0.13201	0.15442	0.12394	0.24565	0.028251	0.13293	0.097623	0.12949	0.16513	0.13472	0.18535	0.07126	0.20063	0.066745	0.15515	0.26555	-2.425	-2.3792	-2.9083	-2.8312	-2.4562	-3.0583	-2.5854	-3.0146	-2.9604	-2.5125	-2.9562	-2.7313	-2.4146	-2.8583	-2.4542	-2.7958	435.417	210.446	443.905	204.869	464.334	400.107	440.250	478.557	364.530	308.686	245.452	220.835	507.620	521.374	361.292	182.830	0.00076106	0.0012902	0.00013593	1009.5	1.8847e-05	6.9428e-06	1132	268.92	2.208e-05	1.0092e-06	332.26	118.15	88.82	32.085	5.3245e-06	45.977	0.0027221	0.0032837	0.00091575	942.64	3.503e-05	3.6485e-05	1053.8	253.53	3.5436e-05	3.6846e-05	315.58	111.76	84.914	30.871	3.5679e-05	44.181	334.105	285.027	429.539	188.297	350.799	463.482	187.613	193.161	366.350	349.412	192.197	196.752	198.307	202.357	423.719	199.732	-8191	255	
7670.187	1	1	0	0	0.099382	0.10688	0.30618	0.22166	0.13515	0.17301	0.073497	0.12602	0.062683	0.15958	0.32502	0.24051	0.27377	0.21529	0.25237	0.10551	-2.4562	-2.3438	-2.8083	-2.6979	-2.5375	-3.125	-2.7021	-2.7208	-2.8563	-2.5438	-3.0354	-2.9521	-2.6521	-2.9292	-2.5958	-2.5854	516.614	218.653	385.716	217.632	258.237	351.257	498.412	473.088	418.661	252.700	413.714	182.489	443.610	184.814	175.556	450.081	0.00067147	0.00033183	0.00012906	1000.6	4.8347e-06	5.7746e-06	1121.1	268.11	6.4584e-06	6.1092e-06	331.71	116.63	87.783	32.001	4.3156e-06	45.719	0.0027452	0.0032653	0.00091784	937.19	3.5052e-05	3.7003e-05	1045.8	252.31	3.5935e-05	3.7442e-05	316.56	111.57	84.95	30.981	3.827e-05	44.353	349.568	395.310	262.491	188.291	259.402	348.374	187.576	193.286	327.453	247.515	192.555	196.804	198.671	202.915	226.885	199.678	-8191	255	
7670.308	1	1	0	0	0.12923	0.052504	0.1488	0.081011	0.18267	0.17707	0.20005	0.21034	0.33985	0.11665	0.15656	0.06662	0.28899	0.21395	0.12276	0.21927	-2.4229	-2.4375	-2.8917	-2.9417	-2.575	-2.9042	-2.8625	-2.8396	-3.1125	-2.5	-2.8604	-3	-2.6271	-3.1125	-2.7	-2.7562	285.488	499.644	446.630	511.681	190.494	214.406	498.165	470.184	482.381	421.397	468.522	514.531	181.192	498.508	466.382	416.563	0.00072429	0.00093768	0.00025054	1015.9	4.5102e-06	4.1343e-06	1134	268.97	1.7208e-05	5.5534e-06	335	117.78	89.47	31.869	1.4728e-05	45.826	0.0029637	0.0036138	0.0010176	948.08	3.8974e-05	4.0858e-05	1060.6	256.24	3.9226e-05	4.2275e-05	320.59	113.39	86.736	31.164	4.2355e-05	44.685	316.824	322.221	273.931	188.057	473.537	316.100	187.449	193.387	272.114	334.951	192.042	197.126	198.454	202.732	361.780	200.210	-8191	255	
7670.404	1	1	0	0	0.092712	0.042553	0.28224	0.20691	0.11184	0.035338	0.39864	0.13399	0.18788	0.3573	0.45325	0.27237	0.21295	0.078852	0.17854	0.21665	-2.4938	-2.6229	-2.725	-3.0583	-2.575	-2.7625	-2.9021	-2.5062	-2.8521	-2.8229	-2.9208	-2.9813	-2.5	-2.8896	-2.7062	-2.7146	443.480	220.142	299.124	268.206	259.981	283.674	465.348	386.673	446.051	398.226	428.473	390.535	458.225	526.327	428.956	443.393	0.00073255	0.0010503	0.00018469	1023.7	9.2223e-06	5.747e-07	1146.3	272.09	1.7873e-05	4.6708e-06	336	119.59	89.927	32.18	2.4881e-05	46.073	0.0032184	0.0039921	0.0011287	957.56	4.236e-05	4.4974e-05	1073.4	258.84	4.2989e-05	4.5484e-05	324.05	114.31	87.222	31.414	4.4387e-05	45.079	332.761	267.373	281.446	188.066	396.226	386.966	187.835	193.458	314.330	428.987	192.361	196.362	198.494	202.559	340.439	200.136	-8191	255	
7670.500	1	1	0	0	0.18887	0.28839	0.15047	0.18785	0.32867	0.08383	0.38117	0.27002	0.075878	0.057241	0.23249	0.082471	0.2384	0.13355	0.15079	0.12648	-2.4146	-2.6167	-2.6458	-3.0208	-2.575	-2.7542	-2.9583	-2.4562	-2.9521	-2.7292	-2.8625	-3.1979	-2.6229	-2.7812	-3.0062	-2.6042	487.729	255.351	350.051	228.007	262.281	434.345	504.965	510.974	477.506	384.557	467.298	366.343	517.573	271.259	448.707	528.649	0.00076403	0.0011686	0.00048383	1025	7.1451e-06	1.0919e-05	1144.7	274.49	1.4349e-05	1.3751e-05	334.63	118.72	90.013	32.131	1.6225e-05	46.082	0.0033614	0.0041847	0.001174	964.21	4.4494e-05	4.6488e-05	1073	260.24	4.5004e-05	4.8138e-05	324.49	114.42	87.872	31.457	4.5826e-05	44.986	321.188	298.489	268.472	188.024	408.761	358.354	187.479	193.205	293.991	303.164	192.068	196.772	197.952	202.601	376.611	199.812	-8191	255	
7670.597	1	1	0	0	0.19028	0.17501	0.072021	0.24065	0.098855	0.083029	0.26643	0.088332	0.14945	0.31215	0.16132	0.13546	0.16115	0.36817	0.35103	0.32867	-2.4833	-2.5625	-2.5667	-3.0812	-2.5375	-2.8021	-3.0229	-2.4792	-2.8729	-2.825	-2.5417	-3.0667	-2.65	-2.9833	-2.8875	-2.5958	344.580	513.731	476.476	450.858	449.377	284.424	455.207	526.857	223.580	213.703	503.144	276.892	454.967	490.383	183.259	496.015	0.0010851	0.0017106	0.00015543	1024.9	1.8152e-05	6.1145e-06	1146.7	273.64	1.6232e-05	9.4603e-06	338.42	118.85	90.042	32.072	6.2002e-06	46.077	0.0034746	0.0043025	0.0011928	963.96	4.5129e-05	4.7637e-05	1073	259.94	4.494e-05	4.746e-05	325.79	114.59	87.994	31.461	4.5945e-05	44.98	317.874	226.670	300.265	188.151	399.385	332.253	187.641	192.985	426.777	268.774	192.079	196.661	198.324	202.074	370.582	199.789	-8191	255	
#DATA ENDS
