BOXY.EXE: ISS Imagent and Oximeter Data Acquisition Program Version 0.80
Ascii Record File

#ACQ INFORMATION
2  Detector Channels 
16  External MUX Channels 
1  Auxiliary Channels 
5000  Waveform (CCF) Frequency (Hz)
1  Waveforms Skipped 
30  Waveforms Averaged 
1  Cycles Averaged 
16  Acquisitions per Waveform 
10.0806  Updata Rate (Hz) 

#FILE INFORMATION
TRUE -- External MUX Channel results are PARSED.
FALSE -- AC DC and Phase are NOT grouped.
TRUE -- Companion Program Settings File CREATED.
FALSE -- AC data not excluded
FALSE -- DC data not excluded
FALSE -- Phase data not excluded
FALSE -- Auxillary Chn. data not excluded
Tab delimiters

#CALIBRATION STATE
TRUE -- Waveform Calibration Values APPLIED.


#AUX CALIBRATION VALUES
Val Type	aux-1	

Term	1.0000e+00	
Factor	0.0000e+00	


#WF CALIBRATION VALUES
A = Detector Channel
Val Type	A-AC1	A-AC2	A-AC3	A-AC4	A-AC5	A-AC6	A-AC7	A-AC8	A-AC9	A-AC10	A-AC11	A-AC12	A-AC13	A-AC14	A-AC15	A-AC16	A-DC1	A-DC2	A-DC3	A-DC4	A-DC5	A-DC6	A-DC7	A-DC8	A-DC9	A-DC10	A-DC11	A-DC12	A-DC13	A-DC14	A-DC15	A-DC16	A-Ph1	A-Ph2	A-Ph3	A-Ph4	A-Ph5	A-Ph6	A-Ph7	A-Ph8	A-Ph9	A-Ph10	A-Ph11	A-Ph12	A-Ph13	A-Ph14	A-Ph15	A-Ph16	

Term	0.00000e+00	0.00000e+00	0.00000e+00	0.00000e+00	0.00000e+00	0.00000e+00	0.00000e+00	0.00000e+00	0.00000e+00	0.00000e+00	0.00000e+00	0.00000e+00	0.00000e+00	0.00000e+00	0.00000e+00	0.00000e+00	0.00000e+00	0.00000e+00	0.00000e+00	0.00000e+00	0.00000e+00	0.00000e+00	0.00000e+00	0.00000e+00	0.00000e+00	0.00000e+00	0.00000e+00	0.00000e+00	0.00000e+00	0.00000e+00	0.00000e+00	0.00000e+00	0.00000e+00	0.00000e+00	0.00000e+00	0.00000e+00	0.00000e+00	0.00000e+00	0.00000e+00	0.00000e+00	0.00000e+00	0.00000e+00	0.00000e+00	0.00000e+00	0.00000e+00	0.00000e+00	0.00000e+00	0.00000e+00	
Factor	1.00000e+00	1.00000e+00	1.00000e+00	1.00000e+00	1.00000e+00	1.00000e+00	1.00000e+00	1.00000e+00	1.00000e+00	1.00000e+00	1.00000e+00	1.00000e+00	1.00000e+00	1.00000e+00	1.00000e+00	1.00000e+00	1.00000e+00	1.00000e+00	1.00000e+00	1.00000e+00	1.00000e+00	1.00000e+00	1.00000e+00	1.00000e+00	1.00000e+00	1.00000e+00	1.00000e+00	1.00000e+00	1.00000e+00	1.00000e+00	1.00000e+00	1.00000e+00	X	X	X	X	X	X	X	X	X	X	X	X	X	X	X	X	

B = Detector Channel
Val Type	B-AC1	B-AC2	B-AC3	B-AC4	B-AC5	B-AC6	B-AC7	B-AC8	B-AC9	B-AC10	B-AC11	B-AC12	B-AC13	B-AC14	B-AC15	B-AC16	B-DC1	B-DC2	B-DC3	B-DC4	B-DC5	B-DC6	B-DC7	B-DC8	B-DC9	B-DC10	B-DC11	B-DC12	B-DC13	B-DC14	B-DC15	B-DC16	B-Ph1	B-Ph2	B-Ph3	B-Ph4	B-Ph5	B-Ph6	B-Ph7	B-Ph8	B-Ph9	B-Ph10	B-Ph11	B-Ph12	B-Ph13	B-Ph14	B-Ph15	B-Ph16	

Term	0.00000e+00	0.00000e+00	0.00000e+00	0.00000e+00	0.00000e+00	0.00000e+00	0.00000e+00	0.00000e+00	0.00000e+00	0.00000e+00	0.00000e+00	0.00000e+00	0.00000e+00	0.00000e+00	0.00000e+00	0.00000e+00	0.00000e+00	0.00000e+00	0.00000e+00	0.00000e+00	0.00000e+00	0.00000e+00	0.00000e+00	0.00000e+00	0.00000e+00	0.00000e+00	0.00000e+00	0.00000e+00	0.00000e+00	0.00000e+00	0.00000e+00	0.00000e+00	1.18084e+01	-1.38873e+02	-1.24998e+02	-1.83146e+02	-7.27340e+01	-6.37033e+01	-1.60638e+02	-1.62015e+02	-3.12208e+01	-6.27560e+01	-1.72582e+02	-1.72483e+02	-1.83079e+02	-1.78092e+02	-9.56933e+01	-1.50919e+02	
Factor	4.44032e-05	1.51227e-04	4.59897e-05	1.52212e-01	1.40126e-06	1.22182e-06	1.72356e-01	5.67285e-02	1.37058e-06	1.58077e-06	8.83220e-02	2.95593e-02	2.80079e-02	9.00119e-03	1.53101e-06	1.30876e-02	1.36817e-06	1.41543e-06	3.92752e-07	7.76740e-02	1.54102e-08	1.54915e-08	8.23777e-02	2.87967e-02	1.53811e-08	1.54814e-08	4.31705e-02	1.44196e-02	1.41529e-02	4.56543e-03	1.54541e-08	6.40635e-03	X	X	X	X	X	X	X	X	X	X	X	X	X	X	X	X	



#DISTANCE SETTINGS
A = Detector Channel
A-1	A-2	A-3	A-4	A-5	A-6	A-7	A-8	A-9	A-10	A-11	A-12	A-13	A-14	A-15	A-16	

2.5000e+00	3.0000e+00	2.5000e+00	3.0000e+00	2.0000e+00	3.0000e+00	1.5000e+00	3.0000e+00	3.0000e+00	3.0000e+00	3.0000e+00	3.0000e+00	3.0000e+00	3.0000e+00	1.5000e+00	3.0000e+00	

B = Detector Channel
B-1	B-2	B-3	B-4	B-5	B-6	B-7	B-8	B-9	B-10	B-11	B-12	B-13	B-14	B-15	B-16	

1.0000e+01	1.0000e+01	1.0000e+01	1.4400e+00	1.0000e+01	1.0000e+01	1.5100e+00	1.9400e+00	1.0000e+01	1.0000e+01	1.9900e+00	2.4900e+00	2.4100e+00	2.9000e+00	1.0000e+01	2.9800e+00	




#DATA BEGINS
time	group	step	mark	flag	A-AC1	A-AC2	A-AC3	A-AC4	A-AC5	A-AC6	A-AC7	A-AC8	A-AC9	A-AC10	A-AC11	A-AC12	A-AC13	A-AC14	A-AC15	A-AC16	A-DC1	A-DC2	A-DC3	A-DC4	A-DC5	A-DC6	A-DC7	A-DC8	A-DC9	A-DC10	A-DC11	A-DC12	A-DC13	A-DC14	A-DC15	A-DC16	A-Ph1	A-Ph2	A-Ph3	A-Ph4	A-Ph5	A-Ph6	A-Ph7	A-Ph8	A-Ph9	A-Ph10	A-Ph11	A-Ph12	A-Ph13	A-Ph14	A-Ph15	A-Ph16	B-AC1	B-AC2	B-AC3	B-AC4	B-AC5	B-AC6	B-AC7	B-AC8	B-AC9	B-AC10	B-AC11	B-AC12	B-AC13	B-AC14	B-AC15	B-AC16	B-DC1	B-DC2	B-DC3	B-DC4	B-DC5	B-DC6	B-DC7	B-DC8	B-DC9	B-DC10	B-DC11	B-DC12	B-DC13	B-DC14	B-DC15	B-DC16	B-Ph1	B-Ph2	B-Ph3	B-Ph4	B-Ph5	B-Ph6	B-Ph7	B-Ph8	B-Ph9	B-Ph10	B-Ph11	B-Ph12	B-Ph13	B-Ph14	B-Ph15	B-Ph16	aux-1	digaux	

20956.977	1	1	0	256	0.15894	0.39916	0.097253	0.3866	0.15655	0.18942	0.20659	0.27612	0.18485	0.26034	0.075459	0.21838	0.27251	0.15981	0.21075	0.14506	-1.9854	-2.7125	-2.4542	-2.6708	-3.0146	-2.4958	-2.8729	-2.8688	-2.3604	-2.8667	-2.7354	-2.5542	-2.8104	-2.3458	-2.8042	-2.8458	183.481	204.007	216.632	370.210	314.426	246.376	359.601	410.320	372.643	315.740	430.438	365.043	358.738	391.967	393.024	349.335	0.00063131	0.0002553	0.00014613	1118.6	5.4783e-06	2.797e-06	1218.4	237.81	2.8283e-06	2.2708e-06	295.26	83.267	66.256	19.123	6.4914e-06	26.499	0.00025568	0.00024917	6.8463e-05	1101.4	2.7314e-06	2.7489e-06	1195.4	235.34	2.8099e-06	2.8382e-06	292.18	83.286	65.815	19.616	2.8767e-06	27.105	312.872	143.692	154.591	89.287	222.069	240.889	89.388	96.886	208.001	207.542	96.168	103.263	103.578	110.642	190.733	109.687	-8191	255	
20957.072	1	1	0	0	0.235	0.12924	0.19921	0.33855	0.057012	0.11853	0.17822	0.1011	0.23133	0.11364	0.36244	0.26345	0.087389	0.11182	0.25647	0.15038	-1.9167	-2.6354	-2.6354	-2.5104	-2.8833	-2.4313	-2.7854	-2.65	-2.4062	-2.8042	-2.4521	-2.4271	-2.7521	-2.4708	-2.6	-2.7354	90.258	329.165	175.154	364.783	144.698	323.421	334.386	417.232	382.155	404.277	376.152	384.772	345.934	419.256	251.082	257.365	0.00050244	5.105e-05	0.00017376	1125.9	9.7926e-06	1.7028e-06	1221.9	237.02	7.0583e-06	1.2847e-06	296.66	83.798	65.968	19.061	7.5121e-06	26.528	0.00027077	0.00026744	7.4015e-05	1105.8	2.9702e-06	2.9358e-06	1199	235.45	2.9371e-06	2.8833e-06	293.65	83.55	65.919	19.617	2.8516e-06	27.108	286.534	403.696	175.271	89.364	233.522	272.746	89.227	96.847	232.481	141.727	96.598	103.458	103.968	110.651	272.866	110.184	-8191	255	
20957.193	1	1	0	0	0.105	0.057794	0.27097	0.13643	0.17539	0.17561	0.061869	0.19936	0.10991	0.12239	0.1075	0.14633	0.083876	0.20795	0.19122	0.14961	-1.8646	-2.5896	-2.4854	-2.5125	-2.7708	-2.3979	-2.9229	-2.9188	-2.3896	-2.8688	-2.6146	-2.3875	-2.8	-2.5417	-2.6271	-2.7875	88.847	250.734	249.957	425.746	268.223	269.481	379.956	220.610	250.643	202.351	409.243	336.896	171.548	412.466	279.198	92.392	0.00060663	0.00053084	0.00011726	1122.9	7.6763e-06	4.7723e-06	1224.2	236.75	7.4052e-06	1.5258e-06	295.97	83.36	65.973	19.213	2.8799e-06	26.629	0.00026518	0.00025919	7.2374e-05	1106.5	2.8298e-06	2.9069e-06	1200	235.14	2.8875e-06	2.9136e-06	293.41	83.261	65.929	19.641	2.9042e-06	27.115	304.366	171.149	203.833	89.388	234.443	263.419	89.419	96.765	253.939	197.174	96.242	103.368	103.885	110.198	409.004	109.795	-8191	255	
20957.289	1	1	0	0	0.060238	0.071014	0.13167	0.32861	0.17196	0.18728	0.25827	0.19956	0.099119	0.11653	0.079568	0.162	0.11271	0.25576	0.091915	0.057134	-1.9667	-2.6646	-2.725	-2.4688	-2.7667	-2.6292	-2.7479	-3.0167	-2.4938	-2.7604	-2.7917	-2.4771	-2.8229	-2.6688	-2.5062	-2.7042	230.974	381.596	391.252	409.909	128.470	402.022	365.327	344.233	279.241	421.400	141.725	231.403	397.280	93.679	429.581	432.171	0.0007288	0.00051013	8.3617e-05	1127.2	3.6264e-06	1.0322e-06	1221	236.81	5.5981e-06	1.5614e-06	297.27	83.875	66.2	19.175	3.5701e-06	26.561	0.00026748	0.00026055	7.2094e-05	1105.1	2.8338e-06	2.8363e-06	1197.6	235.3	2.8007e-06	2.8261e-06	293.46	83.266	65.898	19.687	2.8046e-06	27.099	305.335	172.876	273.827	89.501	255.291	324.791	89.500	96.986	281.977	145.103	96.739	103.573	103.839	110.841	209.684	109.686	-8191	255	
20957.387	1	1	0	0	0.159	0.24916	0.21981	0.2624	0.22423	0.24576	0.4272	0.25164	0.25732	0.24013	0.11133	0.089304	0.14577	0.085975	0.21376	0.1935	-1.8875	-2.6458	-2.7604	-2.5229	-2.9167	-2.5687	-2.6021	-2.8917	-2.4375	-2.6271	-2.7146	-2.4646	-2.7188	-2.6396	-2.3667	-2.9188	408.743	231.010	414.919	371.581	153.957	92.152	363.596	419.376	130.727	434.927	388.367	126.671	346.215	385.299	266.332	113.554	0.00069322	0.000349	7.7637e-05	1125.1	2.1402e-06	5.8458e-06	1227.8	237.72	7.6067e-06	2.9222e-06	296.51	83.826	66.163	19.419	5.2045e-06	26.631	0.00026625	0.00026264	7.3408e-05	1106.3	2.9115e-06	2.8711e-06	1201	235.62	2.8963e-06	2.957e-06	294.16	83.725	66.089	19.77	3.066e-06	27.255	321.420	433.471	200.318	89.583	267.474	272.892	89.362	97.006	258.397	183.546	96.472	103.440	104.090	110.401	220.447	109.837	-8191	255	
20957.482	1	1	0	0	0.3251	0.24485	0.056089	0.30493	0.14962	0.29808	0.31462	0.13579	0.33132	0.19535	0.24482	0.28138	0.24595	0.15382	0.22204	0.58574	-1.8604	-2.5875	-2.9021	-2.4979	-2.7396	-2.7979	-2.5667	-3	-2.5521	-2.5708	-2.9646	-2.5521	-2.8	-2.7208	-2.4021	-2.8688	388.859	298.019	154.593	370.684	203.241	299.950	396.408	348.764	314.718	317.751	355.600	395.632	356.777	332.431	223.538	313.056	0.00079082	0.00054115	0.00019582	1123.7	6.8039e-06	6.7255e-06	1227	237.82	5.8006e-06	5.6662e-06	295.16	83.949	66.233	19.483	3.3697e-06	26.77	0.00028498	0.00028047	7.7317e-05	1108.1	3.1557e-06	3.1117e-06	1202.2	236.39	3.1026e-06	3.1176e-06	293.97	83.807	66.085	19.847	3.1148e-06	27.221	307.938	182.310	219.814	89.386	277.992	271.593	89.510	97.108	286.761	292.119	96.662	103.456	103.609	110.087	160.487	109.896	-8191	255	
20957.578	1	1	0	0	0.072691	0.12389	0.23231	0.37919	0.12045	0.1326	0.31656	0.11415	0.087995	0.059217	0.18283	0.23254	0.22857	0.095882	0.1784	0.38039	-2.0021	-2.4979	-2.7833	-2.3958	-2.7271	-2.7104	-2.55	-2.8958	-2.475	-2.5042	-2.9625	-2.3667	-2.7354	-2.7167	-2.2875	-2.8208	305.861	245.969	82.601	395.851	424.296	175.678	413.733	176.934	93.854	345.781	429.639	404.141	402.855	417.466	300.002	97.739	0.00068379	0.00015661	2.1528e-05	1125	4.7215e-06	2.7317e-06	1225.5	239.25	2.5026e-06	6.8947e-06	296.48	83.895	66.175	19.322	5.8055e-06	26.643	0.0002876	0.00028555	7.8655e-05	1108.4	3.1945e-06	3.1469e-06	1202.3	236.99	3.1485e-06	3.1754e-06	294.68	83.956	66.403	19.814	3.2355e-06	27.331	325.837	150.254	418.181	89.203	214.871	129.281	89.424	96.969	340.659	269.919	96.505	103.682	103.703	110.548	224.068	109.497	-8191	255	
20957.674	1	1	0	0	0.12745	0.18985	0.34602	0.18252	0.17292	0.054705	0.07399	0.063914	0.24741	0.20928	0.12522	0.30304	0.068835	0.32243	0.18716	0.087713	-2.0125	-2.5083	-2.7125	-2.4813	-2.7104	-2.6271	-2.4562	-2.7812	-2.5229	-2.3229	-2.8542	-2.4729	-2.6458	-2.6958	-2.3375	-2.7062	370.248	378.886	288.354	406.623	243.933	144.933	220.134	333.983	99.034	175.976	272.545	402.372	328.027	349.089	121.986	385.075	0.00079064	0.00052621	0.00016697	1128	3.467e-06	6.2595e-06	1233.8	239.4	3.0206e-06	6.4998e-06	298.52	84.329	66.231	19.432	5.9772e-06	26.761	0.00030148	0.00030034	8.294e-05	1112.5	3.3264e-06	3.381e-06	1206.8	237.97	3.3842e-06	3.3959e-06	296.34	84.465	66.776	20.022	3.5035e-06	27.575	319.585	146.299	132.558	89.181	163.304	229.026	89.356	97.056	129.319	252.270	96.298	103.536	103.630	110.282	201.825	109.793	-8191	255	
20957.795	1	1	0	0	0.17289	0.21523	0.30605	0.2627	0.046973	0.21192	0.30716	0.15641	0.21033	0.23982	0.21248	0.084647	0.23585	0.20678	0.3299	0.10245	-2.1646	-2.3917	-2.9771	-2.6813	-2.4437	-2.8812	-2.5083	-2.8042	-2.6896	-2.3979	-2.85	-2.4958	-2.625	-2.7958	-2.2396	-2.8146	86.683	312.195	342.085	412.836	327.320	316.207	373.218	404.618	85.440	355.075	82.483	84.121	397.237	81.713	180.670	366.721	0.00064298	0.00016471	0.00010681	1126.6	3.4466e-06	2.9751e-06	1223.4	239.6	4.8718e-06	7.2824e-06	298.47	83.954	66.27	19.527	6.6298e-06	26.871	0.00032525	0.0003223	9.0229e-05	1113	3.6122e-06	3.6053e-06	1206.9	238.82	3.6265e-06	3.5793e-06	297.36	84.516	66.935	20.091	3.598e-06	27.583	318.089	151.748	228.332	89.448	166.477	218.266	89.272	96.766	368.426	324.337	96.326	103.273	103.863	110.649	193.647	109.716	-8191	255	
20957.889	1	1	0	0	0.1463	0.12637	0.11507	0.31422	0.1466	0.12163	0.22587	0.27487	0.13143	0.044113	0.15183	0.25224	0.25011	0.24166	0.21806	0.11944	-2.3604	-2.3542	-2.675	-2.6958	-2.4875	-2.9354	-2.4271	-2.6104	-2.8104	-2.2896	-2.7375	-2.6125	-2.4146	-2.8792	-2.4	-2.6854	178.626	265.929	164.025	353.574	361.404	340.664	339.983	312.981	427.273	408.934	362.402	100.002	293.663	346.676	269.216	337.556	0.00068185	0.00045131	0.00024193	1128.8	6.8266e-06	6.4221e-06	1225.5	239.42	6.5382e-06	4.9608e-06	297.39	84.258	66.322	19.487	4.5335e-06	26.837	0.00033276	0.00032326	8.9951e-05	1113.1	3.5923e-06	3.5615e-06	1206.1	238.51	3.5882e-06	3.5618e-06	297.32	84.43	67.007	20.009	3.4974e-06	27.529	306.901	141.981	166.443	89.380	189.377	386.595	89.386	97.117	223.194	423.112	96.301	103.633	103.716	110.853	186.306	109.490	-8191	255	
20957.986	1	1	0	0	0.18131	0.034546	0.026992	0.3923	0.32017	0.094447	0.055042	0.25656	0.10753	0.33973	0.1183	0.063761	0.18606	0.13241	0.15069	0.057911	-2.325	-2.2708	-2.5938	-2.7333	-2.2812	-2.9458	-2.6958	-2.5708	-2.9375	-2.3333	-2.875	-2.8187	-2.5583	-2.8812	-2.6188	-2.6958	434.060	400.688	100.776	390.412	207.074	264.963	239.159	393.022	302.098	280.190	251.697	342.793	178.870	298.973	212.489	182.293	0.00065813	0.00053654	9.8713e-05	1123.6	5.7081e-06	3.2995e-06	1228.1	240.71	8.237e-06	5.3376e-06	298.01	84.261	66.651	19.359	3.9777e-06	26.819	0.00032457	0.00031898	9.014e-05	1111	3.5171e-06	3.5307e-06	1207	238.85	3.4521e-06	3.411e-06	297.4	84.448	66.685	19.929	3.2428e-06	27.435	317.844	97.422	117.522	89.270	252.949	341.129	89.404	96.977	271.755	236.284	96.428	103.461	103.468	110.810	194.051	109.722	-8191	255	
20958.105	1	1	0	0	0.11609	0.22626	0.18433	0.35383	0.25637	0.25618	0.15207	0.12155	0.1859	0.1161	0.21471	0.23979	0.083297	0.20526	0.23941	0.43466	-2.3979	-2.325	-2.6562	-2.9896	-2.3604	-2.9542	-2.6167	-2.4688	-2.7687	-2.5854	-2.8063	-2.8458	-2.4333	-2.875	-2.8333	-2.5125	273.432	398.553	408.260	424.121	288.044	311.767	373.975	431.573	119.917	217.392	424.765	408.604	291.034	372.816	249.538	118.335	0.0005853	0.00047056	0.00019832	1127.5	5.4426e-06	2.8542e-06	1224.3	239.39	5.4504e-06	8.9384e-06	296.88	84.142	66.523	19.555	8.8613e-06	26.803	0.00029178	0.00028928	7.9986e-05	1111.1	3.1584e-06	3.121e-06	1204.4	237.98	3.1285e-06	3.1481e-06	295.24	83.997	66.547	19.892	3.1273e-06	27.374	315.540	130.689	430.703	89.081	111.430	165.893	89.357	96.648	277.822	247.162	96.139	103.697	104.043	110.431	240.416	109.687	-8191	255	
20958.178	1	1	0	0	0.18111	0.28333	0.14834	0.17885	0.25574	0.10865	0.18132	0.14681	0.199	0.28683	0.049233	0.23707	0.22741	0.15286	0.040127	0.058519	-2.4979	-2.2917	-2.6854	-2.7479	-2.1771	-2.6208	-2.7458	-2.5167	-2.6063	-2.5354	-2.6979	-2.7896	-2.2771	-2.75	-2.5208	-2.175	253.903	378.516	239.879	80.287	147.305	251.403	436.228	85.743	243.858	387.493	104.522	395.563	398.769	380.790	240.992	341.535	0.00058658	8.7066e-05	6.7428e-05	1125.4	6.2583e-06	1.5982e-06	1225.4	240.45	3.4672e-06	8.4021e-06	297.5	84.619	66.336	19.561	3.012e-06	26.518	0.00029414	0.00029009	8.1526e-05	1111	3.2449e-06	3.2496e-06	1204.7	238.39	3.2908e-06	3.3161e-06	296.44	84.445	66.888	20.022	3.4046e-06	27.497	315.584	121.829	190.043	89.169	235.874	209.912	89.388	97.065	152.761	161.805	96.146	103.427	103.565	110.269	120.981	110.101	-8191	255	
20958.271	1	1	0	0	0.22309	0.14086	0.24885	0.1814	0.0223	0.29167	0.13079	0.10813	0.090363	0.055683	0.18669	0.26609	0.046337	0.087018	0.10405	0.079593	-2.2354	-2.3792	-2.4917	-2.75	-2.1875	-2.5271	-2.8271	-2.5958	-2.7229	-2.3583	-2.6333	-2.8688	-2.3771	-2.5312	-2.6	-2.2917	319.228	301.045	173.900	400.409	337.856	362.323	347.283	385.726	201.513	124.691	292.484	342.198	96.688	385.309	310.903	428.837	0.00056287	0.00068228	0.00018117	1123.1	7.969e-06	5.7176e-06	1234.7	238.85	1.8771e-06	2.521e-06	298.48	84.969	66.658	19.263	2.518e-06	26.752	0.00032149	0.00031656	8.6393e-05	1110.3	3.4604e-06	3.4489e-06	1210	238.81	3.4255e-06	3.4223e-06	297.41	84.762	66.984	19.997	3.4734e-06	27.574	298.757	168.874	179.719	89.454	230.601	193.432	89.368	96.761	317.240	371.298	96.540	103.606	104.117	110.220	250.244	109.884	-8191	255	
20958.367	1	1	0	0	0.056664	0.054688	0.12056	0.30239	0.12212	0.076962	0.28985	0.14047	0.14385	0.37589	0.10555	0.14362	0.1591	0.10651	0.16025	0.21732	-2.1729	-2.5104	-2.4062	-2.7833	-2.3271	-2.5667	-2.7708	-2.3563	-2.6083	-2.5	-2.5146	-2.7896	-2.3563	-2.6333	-2.7417	-2.3937	282.329	311.189	119.820	327.738	325.154	206.747	348.210	86.920	183.792	200.898	97.161	304.777	224.587	421.536	242.384	203.683	0.0006441	0.00029648	0.00014868	1128.3	3.2486e-06	4.122e-06	1229.5	240.63	4.1425e-06	3.2016e-06	298.77	84.997	66.675	19.383	1.9786e-06	26.844	0.00031927	0.00031264	8.6723e-05	1113.3	3.3563e-06	3.3389e-06	1207.5	238.51	3.2689e-06	3.3242e-06	296.87	84.314	66.732	19.973	3.0825e-06	27.46	310.377	141.095	197.045	89.427	369.498	323.593	89.344	96.979	225.284	172.546	96.603	103.539	103.576	110.795	197.868	109.846	-8191	255	
20958.488	1	1	0	0	0.10991	0.097269	0.047163	0.33126	0.066361	0.22698	0.062999	0.069007	0.11232	0.27924	0.1469	0.032062	0.10671	0.11228	0.13211	0.18442	-2.2021	-2.6667	-2.3021	-2.9625	-2.2896	-2.7167	-2.7604	-2.3896	-2.6667	-2.525	-2.3688	-2.7604	-2.2104	-2.525	-2.6146	-2.3083	209.837	236.557	415.177	410.755	330.629	416.622	283.083	419.796	337.797	254.658	394.885	235.420	152.251	111.234	145.136	318.943	0.00061046	0.0002478	0.00016149	1127.9	7.3494e-06	2.8004e-06	1233	238.66	3.3086e-06	5.5647e-06	297.89	84.725	66.629	19.477	5.7163e-06	26.846	0.00029149	0.00028521	7.9565e-05	1111.4	3.1192e-06	3.0541e-06	1206	237.47	3.0597e-06	3.0921e-06	296.73	84.258	66.676	19.885	3.0819e-06	27.325	311.269	174.715	141.069	89.391	263.642	179.752	89.340	96.888	345.304	183.150	96.848	103.564	103.855	110.345	197.939	109.780	-8191	255	
20958.586	1	1	0	0	0.2289	0.078972	0.12884	0.078523	0.22322	0.15643	0.097388	0.34514	0.1797	0.12706	0.15871	0.10604	0.15229	0.16895	0.2233	0.12277	-2.1271	-2.5062	-2.2938	-2.8333	-2.4792	-2.4354	-3.0312	-2.45	-2.6917	-2.6292	-2.2062	-3.0208	-2.4146	-2.5125	-2.7687	-2.4396	317.845	275.616	158.694	396.410	108.893	364.049	95.766	349.246	329.435	192.121	391.130	83.507	116.574	392.455	139.932	127.132	0.00071375	0.00063862	5.8865e-05	1128.6	2.7981e-06	3.1235e-06	1229.5	239.75	5.1494e-06	6.0504e-06	297.65	84.651	66.656	19.407	3.2236e-06	26.664	0.00028272	0.00027468	7.7218e-05	1110.2	2.9865e-06	2.9914e-06	1203.9	237.34	2.9202e-06	2.9678e-06	295.72	83.988	66.359	19.845	2.9012e-06	27.265	324.485	146.989	276.591	89.300	177.450	150.573	89.390	96.886	255.388	275.709	96.465	103.536	103.945	110.586	213.939	109.814	-8191	255	
20958.682	1	1	0	0	0.08481	0.15537	0.18977	0.25851	0.16455	0.071596	0.16549	0.2868	0.32485	0.23438	0.33152	0.21835	0.32085	0.1666	0.18317	0.28759	-2.1396	-2.6833	-2.4062	-2.8458	-2.7188	-2.4375	-2.9521	-2.3792	-2.4417	-2.6271	-2.4208	-2.5792	-2.6583	-2.4104	-2.8187	-2.4479	303.187	396.423	396.211	361.988	318.245	288.678	393.684	394.924	409.981	177.504	427.377	163.137	111.122	216.968	257.738	134.672	0.00065625	8.5247e-05	6.1396e-05	1128.3	1.2661e-06	1.654e-06	1228.9	240.25	4.5257e-06	3.721e-06	298	84.328	66.443	19.387	5.1529e-06	26.824	0.00027054	0.00026727	7.4481e-05	1109	2.9559e-06	2.8868e-06	1204.3	237.9	2.9664e-06	2.9459e-06	295.78	84.076	66.306	19.879	2.9856e-06	27.289	320.549	183.108	147.252	89.125	249.130	320.967	89.200	96.989	289.203	283.581	96.652	103.545	103.666	110.334	177.418	109.724	-8191	255	
20958.754	1	1	0	0	0.07799	0.10219	0.2326	0.2504	0.065846	0.11942	0.13553	0.44064	0.16518	0.19378	0.24849	0.056892	0.17957	0.067248	0.0084017	0.27422	-2.0563	-2.7271	-2.2208	-2.8187	-2.6167	-2.4333	-2.9104	-2.6188	-2.3979	-2.5312	-2.3042	-2.7042	-2.5438	-2.3417	-2.8104	-2.4708	196.120	170.424	295.538	396.024	236.628	278.168	386.752	377.103	275.457	374.717	391.039	166.775	231.556	339.874	293.806	347.801	0.00059138	0.00070488	7.6013e-05	1126.6	1.4807e-06	1.8958e-06	1229.3	239.71	1.2596e-06	1.5757e-06	297.37	84.288	66.713	19.511	3.8701e-06	26.912	0.00028201	0.00027467	7.6224e-05	1108.8	3.0591e-06	3.1132e-06	1204.4	237.8	3.0811e-06	3.1054e-06	295.88	84.289	66.81	19.946	3.1329e-06	27.463	298.981	160.641	217.973	89.300	103.245	218.777	89.316	96.754	298.213	237.177	96.281	102.954	103.676	110.248	290.384	109.575	-8191	255	
20958.873	1	1	0	0	0.32418	0.088217	0.053926	0.31466	0.033865	0.12334	0.098383	0.27156	0.094992	0.16183	0.05604	0.3145	0.14725	0.12969	0.096397	0.25392	-2.0104	-2.8208	-2.3583	-2.7729	-2.4938	-2.1229	-2.975	-2.5042	-2.5083	-2.7604	-2.3937	-2.4813	-2.7687	-2.2229	-2.7854	-2.6375	299.145	391.338	383.858	389.598	301.113	127.976	360.252	432.600	345.303	277.959	250.015	376.785	378.004	359.452	116.991	314.471	0.00071664	0.00069324	0.00022459	1130.4	6.1421e-06	4.1525e-06	1231.2	239.43	5.3636e-06	3.7938e-06	297.29	84.777	66.188	19.488	8.0378e-06	26.853	0.0002973	0.00029179	8.1026e-05	1113.1	3.2604e-06	3.3179e-06	1208.1	238.57	3.4013e-06	3.3396e-06	297.21	84.551	66.901	20.041	3.375e-06	27.506	300.327	152.428	187.718	89.436	258.829	186.652	89.494	96.799	321.458	280.138	96.691	103.269	103.630	110.200	221.355	109.747	-8191	255	
20958.971	1	1	0	0	0.075005	0.28798	0.06768	0.33186	0.073404	0.19873	0.096493	0.17786	0.092243	0.019829	0.23121	0.15695	0.10816	0.056484	0.019032	0.24303	-1.9542	-2.8937	-2.4125	-2.7417	-2.575	-2.3458	-2.7313	-2.6979	-2.3812	-2.7062	-2.5417	-2.5354	-2.8771	-2.3021	-2.5833	-2.75	275.906	364.623	286.510	389.162	210.811	432.454	410.672	148.130	247.710	242.371	365.696	369.979	270.516	425.990	101.314	401.672	0.00064368	0.00028857	0.00021017	1127.7	7.4835e-06	3.248e-06	1219.9	240.25	4.8963e-06	3.455e-06	299.18	85.093	66.885	19.449	2.5375e-06	26.599	0.00031226	0.00030463	8.537e-05	1111.9	3.3169e-06	3.293e-06	1204.8	239.16	3.2897e-06	3.293e-06	296.51	84.602	66.869	19.974	3.2971e-06	27.34	291.329	410.729	189.218	89.415	283.482	287.439	89.394	96.798	324.216	226.163	96.332	103.253	103.711	110.289	258.867	109.997	-8191	255	
20959.066	1	1	0	0	0.045729	0.19122	0.25369	0.13072	0.009115	0.11251	0.13124	0.07603	0.12934	0.091844	0.27654	0.13657	0.11384	0.10813	0.29411	0.03081	-1.9792	-2.6979	-2.4146	-2.7	-2.75	-2.3625	-2.7708	-2.7375	-2.2687	-2.8812	-2.6354	-2.3667	-2.8479	-2.3792	-2.6937	-2.7583	266.176	80.879	153.861	295.144	272.884	320.878	383.320	350.291	126.523	196.072	115.646	280.731	88.086	129.197	243.585	359.650	0.00075726	0.00038364	9.6468e-05	1125.2	2.4837e-06	3.254e-06	1230.3	239.72	5.5607e-06	5.1691e-06	297.15	84.024	66.479	19.41	7.483e-06	26.842	0.00030344	0.00029835	8.2693e-05	1111.2	3.2412e-06	3.2396e-06	1205.6	238.23	3.2481e-06	3.234e-06	295.86	84.309	66.747	19.968	3.2556e-06	27.508	308.376	129.107	185.254	89.557	134.568	240.540	89.456	96.900	282.135	254.803	96.673	103.507	103.986	110.016	210.258	109.550	-8191	255	
20959.188	1	1	0	0	0.081591	0.19887	0.31952	0.21558	0.12905	0.15802	0.24409	0.24911	0.1899	0.15853	0.245	0.15234	0.19167	0.093855	0.16587	0.19274	-2.0646	-2.6104	-2.5375	-2.6208	-2.7938	-2.4333	-2.7542	-2.725	-2.3229	-2.6521	-2.5458	-2.5833	-2.5958	-2.3354	-2.45	-2.6708	91.211	393.931	361.787	434.750	218.796	81.559	376.092	340.384	279.843	273.182	321.187	324.443	295.348	181.648	101.587	94.018	0.00069747	0.0008375	0.00026337	1127.9	6.7597e-06	3.7701e-06	1226.5	240.29	4.8365e-06	4.3376e-06	299.44	84.185	66.603	19.371	9.4804e-06	26.904	0.00030391	0.00029937	8.4054e-05	1112.4	3.3215e-06	3.2988e-06	1205.2	238.68	3.3074e-06	3.3331e-06	297.17	84.382	66.88	20.012	3.4284e-06	27.508	332.883	195.865	201.256	89.153	273.181	238.597	89.270	96.844	219.888	282.205	96.090	103.591	103.641	110.329	156.140	109.595	-8191	255	
20959.281	1	1	0	0	0.062024	0.14667	0.079092	0.25929	0.10124	0.15969	0.22536	0.23882	0.1021	0.3181	0.33878	0.11555	0.10815	0.28195	0.40813	0.21967	-1.8083	-2.5021	-2.5604	-2.5312	-2.9458	-2.4562	-2.6	-2.6562	-2.4729	-2.5667	-2.6146	-2.2583	-2.7313	-2.4813	-2.4646	-2.6417	190.408	309.357	379.740	384.787	195.979	155.413	357.472	395.055	385.188	182.194	99.613	264.906	386.794	384.314	189.405	284.558	0.00063381	0.00058057	0.00010241	1124	9.5964e-06	4.9399e-06	1232.7	240.18	5.2507e-06	4.5775e-06	298.66	84.047	66.705	19.451	5.5574e-06	26.829	0.00030727	0.00030706	8.493e-05	1110.8	3.3322e-06	3.3793e-06	1207.6	238.67	3.3522e-06	3.3727e-06	297.12	84.366	67.191	20.029	3.4299e-06	27.502	311.737	176.284	188.198	89.291	247.779	159.771	89.410	96.675	245.589	279.116	96.131	103.587	103.895	110.114	286.623	109.984	-8191	255	
20959.354	1	1	0	0	0.057734	0.13915	0.22242	0.22867	0.17699	0.055245	0.18193	0.11638	0.16386	0.057905	0.03795	0.11015	0.1156	0.11353	0.044033	0.10563	-1.8208	-2.5333	-2.7292	-2.5438	-2.6937	-2.4604	-2.7125	-2.8333	-2.4979	-2.5938	-2.8104	-2.2	-2.6125	-2.4146	-2.2687	-2.7042	197.215	284.411	295.222	116.266	277.177	438.396	132.202	382.556	338.702	403.738	412.312	288.762	418.714	412.128	127.077	380.503	0.00063684	0.00036916	0.00018538	1131.4	3.2127e-06	4.5452e-06	1232.5	239.58	3.2648e-06	2.3265e-06	299.88	84.313	66.604	19.51	6.7158e-07	26.557	0.00031601	0.00031039	8.6172e-05	1115.3	3.3686e-06	3.4026e-06	1207.8	238.6	3.3581e-06	3.3715e-06	297.58	84.498	66.91	20.028	3.4296e-06	27.407	314.208	234.817	140.680	89.408	380.667	185.862	89.239	97.216	161.316	221.683	96.257	103.315	103.774	110.346	178.553	110.263	-8191	255	
20959.473	1	1	0	0	0.30809	0.21308	0.07731	0.2424	0.25143	0.16411	0.13287	0.2964	0.049773	0.0503	0.14674	0.22071	0.24373	0.15757	0.058127	0.13227	-1.6646	-2.5771	-2.6	-2.3688	-2.5896	-2.3667	-2.5042	-2.9854	-2.3667	-2.4708	-2.7875	-2.3625	-2.6396	-2.6021	-2.4813	-2.75	184.131	254.555	176.516	361.636	149.498	188.572	406.299	289.289	187.586	134.449	91.157	386.674	421.541	349.241	247.852	249.564	0.00066513	0.0008923	0.00011496	1131.5	1.5593e-06	5.8582e-06	1228.8	239.25	2.3993e-06	3.6071e-06	297.67	84.187	66.772	19.312	5.5535e-06	26.552	0.00031688	0.00031569	8.7763e-05	1113.5	3.4016e-06	3.3983e-06	1206.4	238.1	3.4711e-06	3.4281e-06	296.78	84.39	66.989	19.959	3.563e-06	27.529	321.862	146.539	96.264	89.466	438.000	238.825	89.570	96.971	354.407	223.982	96.171	103.495	104.032	110.775	175.129	110.181	-8191	255	
20959.568	1	1	0	0	0.45598	0.051095	0.11146	0.14956	0.093295	0.23636	0.26086	0.13357	0.17772	0.20698	0.27523	0.1086	0.12414	0.08567	0.2356	0.38833	-1.925	-2.4333	-2.6417	-2.5083	-2.5	-2.6979	-2.4896	-2.7542	-2.3229	-2.5375	-2.7188	-2.1625	-2.4771	-2.8083	-2.3896	-2.85	296.364	336.230	134.137	437.538	139.534	148.367	415.597	157.111	190.913	340.506	398.977	142.933	111.715	407.642	322.030	350.985	0.00071534	0.0005877	0.00011528	1125.4	1.0272e-05	4.1441e-06	1235.2	239.33	8.9565e-06	3.4557e-06	298.97	84.592	66.888	19.458	5.2113e-06	26.797	0.00033535	0.00033674	9.3325e-05	1113.1	3.8018e-06	3.8e-06	1212.4	239.81	3.9436e-06	4.0371e-06	299.55	85.032	67.642	20.221	4.0578e-06	27.749	322.943	220.778	124.324	89.524	225.409	240.821	89.297	96.882	263.240	212.634	96.225	103.435	103.860	110.641	187.673	109.881	-8191	255	
20959.666	1	1	0	0	0.19294	0.066128	0.17613	0.16251	0.23003	0.16364	0.1369	0.14204	0.10952	0.080258	0.11288	0.26076	0.2245	0.1916	0.16126	0.17049	-2.0167	-2.4313	-2.7938	-2.4479	-2.5583	-2.7438	-2.4958	-2.8312	-2.4417	-2.3583	-2.9917	-2.3937	-2.7146	-2.8104	-2.2188	-2.6292	151.634	329.793	253.242	352.834	396.551	104.302	309.108	401.332	149.683	321.472	257.450	394.481	419.432	131.181	390.933	86.004	0.00073862	0.00051473	0.00010524	1131.5	2.3558e-06	3.5265e-06	1228.5	241.52	7.1477e-06	5.6451e-07	300.34	84.579	67.442	19.34	6.4334e-06	26.8	0.00037677	0.00037786	0.00010309	1119	4.069e-06	4.0699e-06	1213.2	240.94	4.0283e-06	4.0804e-06	300.2	85.14	67.857	20.126	4.1252e-06	27.819	314.741	203.620	178.998	89.112	252.012	178.722	89.486	97.001	281.798	97.984	96.485	103.491	103.781	110.815	197.343	109.882	-8191	255	
20959.785	1	1	0	0	0.16085	0.21444	0.23277	0.26358	0.14578	0.19273	0.18958	0.13439	0.19503	0.041779	0.19675	0.23691	0.10472	0.31556	0.24599	0.19772	-2.1667	-2.3771	-2.7938	-2.4458	-2.4396	-2.8	-2.4479	-2.9292	-2.5771	-2.375	-2.8625	-2.4104	-2.4542	-2.85	-2.3729	-2.6125	121.092	367.697	365.482	409.131	373.216	302.956	119.422	372.656	233.433	401.982	377.383	336.184	364.680	242.904	197.822	304.207	0.00066585	0.0005529	0.00015591	1129.2	2.5234e-06	1.883e-06	1232.1	240.49	3.8367e-06	8.5674e-06	299.25	84.325	66.468	19.413	5.382e-06	26.618	0.00038454	0.00038541	0.00010729	1119.3	4.3551e-06	4.2995e-06	1214.4	241.44	4.3722e-06	4.3501e-06	300.82	85.505	67.948	20.261	4.3037e-06	27.898	290.010	119.619	348.311	89.334	235.967	316.756	89.488	97.036	279.362	245.544	96.426	103.423	103.697	110.080	143.415	109.602	-8191	255	
20959.883	1	1	0	0	0.29963	0.15525	0.14641	0.32605	0.26604	0.13171	0.31599	0.036218	0.14463	0.088877	0.069603	0.14411	0.26425	0.1827	0.078672	0.032707	-1.9958	-2.1771	-2.6437	-2.6083	-2.3937	-2.7479	-2.4292	-2.7604	-2.675	-2.1708	-2.8917	-2.4188	-2.4167	-2.7188	-2.4896	-2.7021	262.765	158.255	193.764	112.206	132.861	272.729	386.281	265.091	283.759	431.633	244.206	373.137	401.306	125.469	351.037	312.285	0.00075501	0.00048025	0.00018647	1131	1.2036e-05	3.7926e-06	1230	240.79	5.4202e-06	7.1063e-06	298.42	84.153	66.06	19.431	4.7656e-07	26.755	0.00040514	0.00040163	0.00011257	1119.5	4.4549e-06	4.3977e-06	1213.8	241.45	4.3654e-06	4.3185e-06	300.18	85.194	67.621	20.258	4.3404e-06	27.832	300.352	175.692	98.752	89.380	237.893	248.926	89.285	97.059	315.200	318.151	96.436	103.255	103.731	110.405	112.347	110.184	-8191	255	
20959.979	1	1	0	0	0.10834	0.22651	0.15611	0.11963	0.14557	0.068621	0.1436	0.063452	0.12527	0.3392	0.042319	0.093203	0.012831	0.11392	0.26347	0.10542	-2.0812	-2.3125	-2.7333	-2.5417	-2.4333	-3.0083	-2.5625	-2.5292	-2.725	-2.4437	-2.8521	-2.5521	-2.3021	-2.6729	-2.2875	-2.7229	418.638	174.576	248.543	110.917	257.308	301.189	312.994	368.130	332.383	389.770	120.340	283.560	308.866	370.678	384.924	120.782	0.00054835	0.0002312	0.0003114	1129.4	3.5943e-06	6.9565e-06	1231	241.42	8.123e-06	1.1224e-05	298.89	83.758	66.632	19.323	7.2847e-06	26.927	0.00040234	0.00039908	0.00010973	1117.4	4.3784e-06	4.3257e-06	1212.6	241.02	4.2725e-06	4.2634e-06	299.97	85.065	67.571	20.119	4.2313e-06	27.779	307.071	163.927	250.473	89.161	235.550	313.516	89.467	97.009	300.601	232.956	96.346	103.369	103.943	110.608	258.339	109.738	-8191	255	
20960.051	1	1	0	0	0.1166	0.14406	0.077555	0.1364	0.16745	0.055105	0.090562	0.20426	0.1377	0.043086	0.14611	0.11745	0.055145	0.084733	0.07113	0.081848	-2.3104	-2.3333	-2.65	-2.8646	-2.3625	-2.9458	-2.5396	-2.4354	-2.8521	-2.2396	-2.8812	-2.725	-2.3146	-2.8187	-2.5292	-2.3625	279.069	431.392	135.817	111.854	305.573	320.561	89.695	389.028	109.684	246.575	384.248	103.023	120.929	373.113	296.477	170.155	0.00061426	0.00014022	9.2947e-05	1130.3	3.7626e-06	4.9768e-07	1233.6	240.22	7.9089e-07	2.2191e-06	300.84	84.375	66.401	19.42	2.967e-06	26.676	0.0003862	0.00038204	0.00010861	1121.1	4.2865e-06	4.3029e-06	1215.8	240.79	4.3029e-06	4.342e-06	301.47	85.396	67.655	20.239	4.3723e-06	27.882	310.646	86.769	88.462	89.366	199.146	194.161	89.363	96.995	168.418	233.070	96.506	103.153	104.093	110.374	203.589	109.809	-8191	255	
20960.170	1	1	0	0	0.055984	0.17395	0.14706	0.07558	0.17454	0.20398	0.27035	0.17864	0.18744	0.20294	0.30937	0.11798	0.16169	0.19419	0.12046	0.26861	-2.3042	-2.2292	-2.7792	-2.8292	-2.2083	-2.7958	-2.7771	-2.5479	-2.6333	-2.5021	-2.6063	-2.6625	-2.15	-2.7125	-2.2333	-2.3812	119.443	159.937	251.560	225.815	268.023	116.592	334.455	327.863	148.276	228.296	347.833	365.772	418.063	435.484	196.478	110.289	0.00069998	0.000424	6.3757e-05	1131.8	9.1336e-06	1.1761e-06	1233.2	241.91	5.8329e-06	7.4898e-06	300.9	84.74	67.356	19.367	7.9019e-06	26.754	0.00039791	0.00039476	0.0001114	1121.7	4.3351e-06	4.3373e-06	1216.1	241.97	4.3466e-06	4.2809e-06	301.25	85.474	68.286	20.21	4.3882e-06	27.908	318.195	119.528	162.807	89.118	241.848	169.722	89.652	96.990	289.440	200.534	96.401	103.368	104.176	110.555	211.901	110.014	-8191	255	
20960.266	1	1	0	0	0.20513	0.13848	0.33216	0.24604	0.14009	0.25991	0.18017	0.34434	0.086347	0.13535	0.088053	0.14065	0.16734	0.24382	0.1228	0.27425	-2.3063	-2.2687	-2.6979	-2.8375	-2.3208	-2.9021	-2.7313	-2.4646	-2.6896	-2.3667	-2.6604	-2.8521	-2.4833	-2.7438	-2.6417	-2.3375	223.703	412.052	230.505	368.004	284.757	156.308	142.062	384.024	131.347	331.574	281.398	95.200	415.178	315.061	345.844	403.149	0.00066488	0.00081759	0.00015281	1133	4.1101e-06	1.5465e-07	1235.5	241.1	6.4089e-06	3.5701e-06	298.81	84.133	66.866	19.366	5.9925e-06	26.786	0.00039778	0.00040126	0.00011242	1122.3	4.4355e-06	4.3864e-06	1215	241.49	4.3941e-06	4.4487e-06	300.63	85.324	67.754	20.217	4.3994e-06	27.842	296.767	168.648	134.093	89.224	293.160	424.849	89.500	97.037	307.834	181.464	96.442	103.334	103.840	110.478	252.400	109.970	-8191	255	
20960.361	1	1	0	0	0.044629	0.1481	0.17603	0.45262	0.053867	0.41729	0.15149	0.10701	0.16042	0.11233	0.1121	0.24159	0.14988	0.087875	0.17678	0.10573	-2.4062	-2.4521	-2.5417	-2.9313	-2.2687	-2.7125	-2.7167	-2.4458	-2.6562	-2.4875	-2.5771	-2.7854	-2.3229	-2.8625	-2.4375	-2.4875	369.121	178.661	329.272	373.216	399.359	347.410	296.112	430.269	288.624	296.130	307.591	402.695	289.245	116.235	251.885	256.966	0.0006109	0.0011008	7.3528e-05	1132.6	5.1147e-06	6.2785e-06	1232.2	240.99	9.6258e-06	4.0976e-06	299.98	84.635	66.941	19.488	5.6967e-06	26.903	0.000399	0.00040563	0.00011168	1120.8	4.3938e-06	4.3785e-06	1216.7	240.92	4.3635e-06	4.3048e-06	300.86	85.23	67.721	20.214	4.2507e-06	27.783	301.032	103.893	142.267	89.498	213.685	171.202	89.321	97.050	313.763	168.580	96.595	103.390	104.058	110.435	216.035	109.737	-8191	255	
20960.457	1	1	0	0	0.12819	0.078531	0.028698	0.18968	0.21763	0.062325	0.26748	0.08303	0.10256	0.15255	0.089637	0.17953	0.26575	0.18582	0.095969	0.17081	-2.2771	-2.6479	-2.2854	-2.9542	-2.2917	-2.5979	-2.7604	-2.3187	-2.9729	-2.5292	-2.4542	-2.875	-2.3583	-2.7792	-2.7812	-2.3688	367.964	182.358	316.203	86.416	163.730	288.898	415.279	363.286	159.677	161.524	409.161	142.864	145.213	271.899	192.921	196.719	0.00077648	0.00088862	0.0001193	1128.6	4.5672e-06	6.9597e-07	1228.6	239.78	3.024e-06	5.162e-06	298.3	84.032	66.396	19.235	1.314e-07	26.648	0.00038122	0.00037748	0.00010331	1117.4	3.9807e-06	3.9664e-06	1211	239.62	3.8617e-06	3.9275e-06	298.57	84.426	67.134	19.957	3.8028e-06	27.506	313.765	174.319	134.641	89.417	263.983	163.457	89.287	97.270	423.434	272.714	96.518	103.562	104.088	110.268	400.472	110.072	-8191	255	
20960.578	1	1	0	0	0.25254	0.17337	0.085972	0.14364	0.22212	0.060548	0.057323	0.13175	0.23185	0.1998	0.042935	0.096589	0.21621	0.20229	0.10354	0.2199	-2.1583	-2.4437	-2.3	-2.8521	-2.2938	-2.55	-2.8083	-2.4104	-2.6354	-2.55	-2.3521	-2.7562	-2.425	-2.4083	-2.7854	-2.5458	135.531	255.231	205.759	397.968	80.558	189.001	103.083	295.981	427.451	330.803	149.340	318.077	313.366	307.078	111.225	186.955	0.00075819	0.00012809	0.00013913	1126.2	6.42e-06	1.5111e-06	1227.5	240.22	4.3114e-06	5.679e-06	299.39	83.926	66.355	19.27	2.7288e-06	26.683	0.00035419	0.00035111	9.6735e-05	1113.9	3.8947e-06	3.8804e-06	1210	239.16	3.8048e-06	3.7669e-06	297.83	84.209	66.799	19.883	3.5376e-06	27.289	318.772	161.087	95.098	89.363	133.768	344.438	89.270	96.874	281.163	155.340	96.170	103.394	103.717	110.571	196.549	109.628	-8191	255	
20960.650	1	1	0	0	0.20187	0.26157	0.19337	0.024882	0.14694	0.27812	0.21532	0.10915	0.11431	0.22742	0.08163	0.18169	0.22019	0.16489	0.26522	0.40466	-2.0792	-2.6896	-2.3979	-2.8521	-2.5333	-2.4229	-2.9292	-2.3896	-2.6125	-2.5563	-2.3542	-2.8187	-2.3667	-2.5125	-2.7021	-2.5979	320.268	384.440	84.341	347.783	263.812	381.767	376.995	203.832	379.720	107.341	340.170	408.098	129.252	410.283	339.551	397.123	0.0006742	0.0008973	0.00019208	1121.9	5.8291e-06	5.6968e-07	1221.4	237.56	4.864e-06	2.5363e-06	297.26	83.728	65.768	19.096	3.6634e-06	26.589	0.00032201	0.00031692	8.8332e-05	1109.4	3.4615e-06	3.3932e-06	1202.9	237.08	3.3433e-06	3.289e-06	295.42	83.598	66.095	19.639	3.2046e-06	27.123	325.479	158.347	242.246	89.453	432.913	339.457	89.452	96.936	297.862	84.255	96.696	103.837	103.791	110.240	130.119	110.285	-8191	255	
20960.746	1	1	0	0	0.13312	0.021353	0.31472	0.40627	0.07059	0.13188	0.35616	0.20151	0.072952	0.080797	0.17606	0.35831	0.031277	0.088083	0.14322	0.20254	-2.1396	-2.5771	-2.125	-2.9458	-2.5438	-2.375	-2.9458	-2.4667	-2.4646	-2.65	-2.2375	-2.6813	-2.4167	-2.4375	-2.7812	-2.5104	279.546	305.846	183.626	106.603	164.915	233.692	412.435	168.033	104.131	431.819	333.597	402.674	319.218	407.726	298.783	393.474	0.00068275	0.00026534	8.4654e-05	1121.7	2.4723e-06	4.2443e-06	1216.6	237.35	4.0218e-06	5.1518e-06	297.63	82.519	65.797	18.933	6.9682e-06	26.306	0.00029507	0.00028604	7.8271e-05	1105.2	3.0745e-06	3.0149e-06	1196.3	235.3	2.9712e-06	2.914e-06	293.21	82.916	65.625	19.438	2.8975e-06	26.849	317.238	174.585	102.649	89.528	208.069	146.399	89.212	97.034	266.412	308.810	96.343	103.620	103.696	110.511	180.883	110.141	-8191	255	
20960.867	1	1	0	0	0.18991	0.0294	0.080099	0.11499	0.15063	0.14714	0.10379	0.19914	0.13986	0.14136	0.23002	0.070327	0.17195	0.19239	0.077937	0.19817	-1.9729	-2.65	-2.2271	-2.8542	-2.5583	-2.4042	-2.8729	-2.6	-2.5229	-2.8208	-2.5062	-2.6229	-2.5979	-2.1729	-2.7542	-2.5896	285.885	396.865	93.144	338.819	98.155	347.692	135.276	334.826	330.541	351.995	227.576	436.786	326.239	150.066	324.569	348.784	0.00066953	0.00048616	0.00014051	1115.8	5.2192e-06	2.02e-06	1212.8	236.42	4.3954e-06	4.9817e-06	295.54	82.964	65.27	19.091	1.9025e-06	26.169	0.00026555	0.00025852	7.0186e-05	1099.9	2.7863e-06	2.6712e-06	1189.8	233.81	2.6133e-06	2.5657e-06	290.81	82.036	64.845	19.298	2.563e-06	26.541	296.755	168.844	168.699	89.400	199.190	224.926	89.478	97.093	243.605	244.715	96.615	103.628	103.804	110.885	110.731	110.234	-8191	255	
20960.963	1	1	0	0	0.17607	0.15318	0.22268	0.13859	0.12938	0.49387	0.447	0.085212	0.014122	0.086896	0.023582	0.27275	0.4205	0.10204	0.05305	0.27006	-1.9708	-2.8333	-2.3646	-2.6688	-2.5625	-2.3667	-3.0229	-2.5438	-2.2771	-2.8583	-2.3229	-2.4896	-2.7917	-2.2313	-2.6458	-2.7562	271.549	357.557	303.299	421.797	411.010	392.077	397.680	388.816	319.293	208.805	423.090	342.996	343.764	402.402	214.256	163.037	0.00058292	0.00015078	9.2194e-05	1117.8	3.5093e-06	4.2326e-06	1208.8	235.87	3.999e-06	3.4106e-06	294.5	83.096	65.785	18.939	5.5328e-06	26.325	0.00023518	0.00022847	6.3797e-05	1095.9	2.5124e-06	2.5256e-06	1187.9	232.78	2.55e-06	2.5362e-06	290.17	82.175	65.033	19.267	2.5958e-06	26.615	313.721	425.487	185.988	89.304	229.755	225.205	89.279	96.968	277.029	195.830	96.515	103.326	104.528	110.820	137.398	109.836	-8191	255	
20961.059	1	1	0	0	0.19587	0.17337	0.10664	0.21731	0.095885	0.078696	0.23905	0.23917	0.27581	0.20292	0.20462	0.23739	0.12395	0.28198	0.13288	0.10815	-1.8937	-2.6292	-2.4979	-2.7917	-2.8375	-2.4188	-2.6437	-2.6854	-2.2938	-2.7292	-2.3458	-2.6354	-2.7146	-2.3271	-2.7271	-2.6229	418.868	146.035	397.842	405.041	104.057	268.034	83.424	112.961	435.160	241.633	162.313	361.565	108.809	403.046	271.952	94.908	0.00067244	0.00041751	6.8306e-05	1116	6.5024e-07	2.8087e-06	1215.6	235.97	2.9396e-06	2.9039e-06	293.55	82.787	65.305	19.039	3.2846e-06	26.311	0.00024212	0.00023352	6.5487e-05	1098.3	2.6302e-06	2.5768e-06	1191.6	233.15	2.5908e-06	2.6556e-06	290.83	82.415	65.039	19.372	2.6739e-06	26.716	300.032	413.017	416.545	89.329	115.498	137.799	89.260	96.903	297.562	244.863	96.396	103.509	104.189	110.676	236.257	109.586	-8191	255	
20961.154	1	1	0	0	0.24376	0.2434	0.33327	0.074116	0.082462	0.24781	0.3504	0.22566	0.17942	0.16703	0.31041	0.43925	0.056249	0.21539	0.1465	0.27593	-2.0021	-2.7917	-2.6104	-2.7083	-2.95	-2.3854	-2.7229	-2.7771	-2.5125	-2.7958	-2.6146	-2.4562	-2.7458	-2.2313	-2.5521	-2.7146	232.167	192.939	346.075	265.685	96.558	346.094	355.605	308.562	250.254	423.987	100.622	362.954	213.663	95.143	119.594	84.001	0.00055051	0.0002951	0.00015601	1119.7	6.515e-06	2.9506e-06	1216.6	236.03	2.5155e-06	3.9903e-06	293.9	82.644	65.154	19.06	2.7356e-06	26.306	0.00024249	0.00023476	6.4988e-05	1097.4	2.4675e-06	2.4294e-06	1188.1	232.52	2.381e-06	2.4028e-06	289.35	81.781	64.314	19.21	2.3e-06	26.407	318.578	205.414	202.693	89.599	256.587	263.484	89.111	97.080	221.787	259.295	96.402	103.542	103.997	110.500	212.169	110.257	-8191	255	
20961.273	1	1	0	0	0.18746	0.16013	0.050687	0.071263	0.20277	0.13169	0.097784	0.083878	0.12037	0.13516	0.022534	0.15167	0.054962	0.021654	0.075358	0.24284	-1.7021	-2.8833	-2.525	-2.3625	-2.7062	-2.4083	-2.7917	-2.6813	-2.2458	-2.7833	-2.6854	-2.4354	-2.8	-2.4479	-2.4313	-2.9875	337.578	324.469	191.871	426.951	98.585	83.037	82.991	303.448	192.930	425.243	319.502	282.117	84.614	267.114	220.545	317.589	0.00065269	0.00062282	0.00011207	1112.1	5.4781e-06	8.5202e-07	1209.2	233.99	4.4315e-06	3.9395e-06	291.73	82.365	65.173	18.946	1.4267e-06	26.35	0.00021077	0.00020064	5.6224e-05	1089.7	2.2168e-06	2.1655e-06	1181	230.95	2.2428e-06	2.244e-06	287.9	81.635	64.391	19.143	2.4115e-06	26.495	317.171	155.136	219.187	89.435	229.830	102.336	89.394	97.036	211.820	258.308	96.180	103.926	103.917	110.639	398.751	109.691	-8191	255	
20961.346	1	1	0	0	0.13291	0.040162	0.21944	0.18863	0.14698	0.049097	0.24369	0.39059	0.081036	0.21544	0.093063	0.17374	0.12412	0.12827	0.24216	0.031526	-2.0208	-2.7687	-2.6021	-2.4313	-2.8688	-2.5312	-2.5958	-2.8146	-2.3187	-2.5229	-2.6396	-2.4021	-2.7521	-2.5583	-2.4604	-2.7188	229.570	111.701	382.654	81.231	408.752	141.388	338.855	390.137	102.014	433.314	342.942	294.108	103.301	188.676	275.629	218.307	0.00064636	0.00017973	0.00021131	1113.1	3.2529e-06	1.7826e-06	1215.4	234.97	5.1133e-06	2.9618e-06	292.93	82.67	65.835	18.831	7.0295e-06	26.01	0.00022507	0.00022434	6.2044e-05	1093.2	2.5289e-06	2.5653e-06	1188.2	232.52	2.6495e-06	2.701e-06	289.99	82.141	65.178	19.287	2.7234e-06	26.507	310.313	86.445	174.003	89.329	255.501	342.656	89.125	96.988	284.413	198.872	96.533	103.616	104.132	110.577	187.158	109.550	-8191	255	
20961.467	1	1	0	0	0.2012	0.02132	0.15466	0.13312	0.018969	0.20197	0.29501	0.17426	0.24454	0.15739	0.27288	0.14528	0.31437	0.19073	0.30508	0.27619	-2.0854	-2.5646	-2.4708	-2.6167	-2.8792	-2.5375	-2.5729	-2.9938	-2.4646	-2.6833	-2.725	-2.3375	-2.7229	-2.6479	-2.3833	-2.8625	327.205	311.792	244.705	95.812	270.516	317.382	342.202	383.609	338.071	400.348	326.151	339.289	309.045	360.989	326.275	280.095	0.00072638	0.00063803	5.9874e-05	1113.8	2.8842e-06	4.7749e-06	1211.5	235.32	3.548e-06	2.4971e-06	292.71	82.5	65.303	18.9	6.2928e-06	26.036	0.00025082	0.00024943	6.7443e-05	1096.2	2.6881e-06	2.6577e-06	1189	232.73	2.6301e-06	2.6509e-06	289.32	82.145	64.808	19.272	2.6099e-06	26.538	318.723	123.404	426.617	89.100	214.477	264.641	89.419	96.768	248.271	349.390	96.567	103.743	103.946	110.839	164.523	109.826	-8191	255	
20961.562	1	1	0	0	0.11663	0.15247	0.18368	0.27952	0.39229	0.090121	0.11894	0.11275	0.057949	0.17789	0.18289	0.25392	0.38683	0.30553	0.1564	0.20647	-1.8729	-2.6125	-2.5563	-2.5167	-2.6521	-2.4604	-2.4792	-2.9229	-2.5167	-2.4896	-2.7625	-2.2354	-2.75	-2.9146	-2.3146	-2.5958	206.594	113.977	101.361	409.602	350.043	264.696	348.537	409.149	295.974	176.806	413.623	422.671	377.797	113.565	141.390	358.117	0.00062961	0.00097296	0.00013625	1113.1	4.6282e-06	7.4787e-06	1210.3	233.84	4.5661e-06	3.1918e-06	295.08	81.985	65.023	18.999	1.871e-06	26.039	0.00024813	0.00024164	6.7428e-05	1095.8	2.7164e-06	2.7292e-06	1188.8	232.38	2.7677e-06	2.7726e-06	290.4	82.197	65.106	19.382	2.8832e-06	26.645	312.666	117.353	204.420	89.432	244.121	185.303	89.394	96.937	254.609	274.070	96.474	103.259	103.897	110.469	248.222	109.604	-8191	255	
20961.658	1	1	0	0	0.059518	0.1066	0.069811	0.066646	0.13652	0.037288	0.13979	0.29413	0.15072	0.07473	0.20279	0.29879	0.13362	0.12097	0.17656	0.096272	-1.9208	-2.4854	-2.75	-2.4125	-2.6375	-2.7396	-2.4042	-2.7625	-2.5271	-2.6042	-2.8729	-2.2521	-2.6396	-2.6875	-2.2917	-2.6917	318.072	391.518	330.108	94.526	433.099	159.215	373.526	321.824	160.520	174.741	356.422	361.730	419.239	346.402	335.968	311.903	0.00066584	0.0010449	0.00020489	1114.2	2.5359e-06	2.3838e-06	1210	234.67	5.241e-06	6.6513e-07	293.27	82.669	65.715	19.022	5.1038e-06	26.178	0.00027082	0.00026939	7.5468e-05	1098.4	2.9669e-06	2.9609e-06	1191.1	233.22	3.0093e-06	3.0192e-06	290.81	82.414	65.361	19.391	3.0312e-06	26.727	305.390	197.306	233.539	89.659	145.273	201.408	89.321	97.135	373.828	90.627	96.169	103.396	103.702	110.650	230.661	110.495	-8191	255	
20961.756	1	1	0	0	0.19219	0.10665	0.25026	0.1559	0.036128	0.25354	0.096685	0.31865	0.35589	0.065831	0.19504	0.14056	0.18813	0.34282	0.22117	0.13884	-2.1521	-2.2375	-2.6271	-2.3729	-2.5042	-2.8792	-2.5187	-2.8187	-2.625	-2.4	-3.075	-2.4813	-2.6229	-2.8646	-2.45	-2.8396	200.150	279.123	260.046	333.765	338.897	129.302	408.663	303.674	425.359	167.291	184.667	156.493	229.857	437.937	299.815	414.334	0.00061934	0.00059587	9.5424e-05	1117.3	4.2565e-06	4.7698e-06	1212.4	236.22	4.5169e-06	4.7949e-06	291.85	82.764	65.191	18.934	1.0806e-06	26.172	0.00028034	0.00027542	7.5179e-05	1101	2.9512e-06	2.9214e-06	1190.9	234.01	2.884e-06	2.9259e-06	290.02	82.242	64.988	19.309	2.7678e-06	26.626	297.971	133.823	399.538	89.330	335.357	215.045	89.325	96.941	242.912	234.077	96.818	103.381	103.724	110.436	382.130	110.064	-8191	255	
20961.875	1	1	0	0	0.40327	0.022707	0.13021	0.35289	0.2866	0.081894	0.16324	0.24977	0.18537	0.3227	0.11565	0.1241	0.18008	0.21476	0.062215	0.070287	-2.1625	-2.4417	-2.6875	-2.6083	-2.5917	-2.7229	-2.4562	-2.9313	-2.7083	-2.3958	-2.8229	-2.5146	-2.5646	-2.8521	-2.4521	-2.8167	395.914	424.425	250.771	111.027	222.159	243.321	431.903	116.977	250.641	405.929	368.573	354.650	185.009	289.249	90.621	112.541	0.00064545	0.00039191	0.00013127	1118.1	8.5743e-06	3.0306e-06	1214.8	235.38	2.1768e-06	3.6279e-06	293.12	82.275	65.242	18.726	5.6618e-06	26.014	0.00025706	0.00024945	6.9577e-05	1099	2.7244e-06	2.6905e-06	1189.9	232.99	2.6701e-06	2.644e-06	289.41	81.788	64.701	19.206	2.6775e-06	26.443	307.940	210.138	151.337	89.259	263.293	359.064	89.426	96.632	193.249	340.269	96.891	103.578	103.963	110.704	217.246	109.780	-8191	255	
20961.947	1	1	0	0	0.098283	0.20256	0.035102	0.52906	0.35337	0.22128	0.19556	0.13791	0.25165	0.17969	0.058008	0.21461	0.22325	0.10761	0.19315	0.088978	-2.3542	-2.325	-2.7021	-2.8208	-2.4083	-2.7104	-2.5542	-2.6583	-2.8271	-2.2438	-2.9125	-2.4896	-2.5708	-2.7542	-2.6104	-2.6792	230.079	105.814	295.112	386.081	413.720	200.376	368.994	359.033	259.802	184.920	424.772	82.686	122.336	433.899	411.715	251.095	0.00076477	0.000114	0.00018284	1113.3	5.9886e-07	2.6719e-06	1213.4	235.08	4.9245e-06	9.2019e-06	293.06	82.626	65.104	18.886	1.6588e-06	26.024	0.00025001	0.00024351	6.7376e-05	1096.6	2.7475e-06	2.6709e-06	1190	232.95	2.7396e-06	2.7163e-06	289.55	82.146	64.836	19.293	2.7689e-06	26.573	317.639	351.105	208.344	89.527	343.894	179.441	89.282	96.896	297.486	194.131	96.429	103.478	103.375	110.739	164.146	110.123	-8191	255	
20962.043	1	1	0	0	0.11591	0.194	0.073717	0.1693	0.17164	0.10479	0.29021	0.3026	0.052914	0.1318	0.075964	0.15579	0.020764	0.055372	0.15587	0.18963	-2.1854	-2.2458	-2.8375	-2.8375	-2.4688	-2.8646	-2.6167	-2.5229	-2.7604	-2.3083	-2.7625	-2.8812	-2.525	-2.8333	-2.4	-2.4437	336.562	122.737	424.377	281.986	361.811	244.880	379.105	367.159	387.749	342.454	336.524	96.467	342.026	386.502	336.822	304.414	0.0005268	0.00040476	0.00011676	1116.7	7.4942e-06	4.0903e-06	1217.8	234.63	1.5534e-06	2.2535e-06	293.48	82.917	65.082	18.886	5.4712e-06	26.32	0.00026121	0.0002562	7.0985e-05	1098.6	2.8443e-06	2.7858e-06	1189.7	233.08	2.8155e-06	2.8064e-06	289.91	82.118	64.946	19.249	2.7646e-06	26.643	309.341	232.415	136.338	89.326	181.104	190.273	89.344	97.134	264.883	318.460	96.482	103.646	104.114	110.312	232.267	109.719	-8191	255	
20962.139	1	1	0	0	0.14907	0.046351	0.051	0.27201	0.25137	0.16015	0.2913	0.081991	0.28886	0.24723	0.030083	0.20526	0.04401	0.034971	0.16033	0.059499	-2.2417	-2.2438	-2.6979	-2.7854	-2.5812	-2.8292	-2.5333	-2.4146	-2.7375	-2.2208	-2.6771	-2.8083	-2.3625	-2.7104	-2.4792	-2.3417	153.206	89.226	122.363	423.364	278.006	187.661	82.764	379.316	80.056	187.422	187.613	361.112	208.124	438.820	91.964	263.979	0.00065086	0.00045181	0.00015636	1115.7	2.829e-06	1.9949e-06	1213.3	235.03	4.7235e-06	4.1301e-07	292.76	82.716	65.444	18.813	7.0721e-06	26.028	0.00025939	0.00025182	7.0215e-05	1097.1	2.7649e-06	2.738e-06	1189.1	232.81	2.7016e-06	2.7074e-06	289.48	81.948	64.777	19.204	2.6835e-06	26.461	303.197	171.391	170.442	89.413	206.006	284.381	89.508	96.987	335.333	346.879	96.275	103.270	104.156	110.327	242.360	109.895	-8191	255	
20962.234	1	1	0	0	0.36282	0.16981	0.24058	0.17132	0.25891	0.15799	0.29654	0.12586	0.16214	0.42447	0.20468	0.17572	0.23386	0.12682	0.10302	0.028099	-2.325	-2.2104	-2.5896	-2.9458	-2.3354	-2.7854	-2.8354	-2.5417	-2.9688	-2.5542	-2.6167	-2.7167	-2.4792	-2.6146	-2.4354	-2.3688	429.635	293.593	421.309	379.076	97.130	351.064	392.610	365.369	417.784	186.153	88.300	376.143	104.478	363.443	95.284	183.569	0.00071275	0.0003627	4.4159e-05	1115.1	2.4592e-06	8.9238e-07	1212.3	235.39	3.9686e-06	4.688e-06	293.42	82.101	64.019	18.836	3.8086e-06	25.936	0.00024777	0.00024163	6.715e-05	1094.7	2.6616e-06	2.6531e-06	1187.4	232.65	2.6502e-06	2.6684e-06	290.13	81.777	64.547	19.24	2.8127e-06	26.517	312.230	237.749	196.804	89.336	123.313	223.482	89.664	96.896	251.570	166.571	96.514	103.476	103.573	110.714	358.933	109.605	-8191	255	
20962.354	1	1	0	0	0.22796	0.2046	0.15735	0.12306	0.14571	0.1121	0.12925	0.3162	0.12494	0.30999	0.22419	0.10722	0.24985	0.15436	0.27075	0.14408	-2.5375	-2.5	-2.5917	-2.9562	-2.2771	-2.7188	-2.7583	-2.4667	-2.9125	-2.5563	-2.6063	-2.8125	-2.3354	-2.7271	-2.6521	-2.425	179.562	379.122	112.090	394.029	286.157	249.564	344.004	324.831	344.971	112.364	79.688	383.085	292.404	332.274	352.043	429.114	0.00048954	0.00045334	0.00017344	1119.6	3.6897e-06	1.3028e-06	1215.6	234.96	1.9196e-06	1.0723e-06	292.09	82.6	65.118	18.909	3.2571e-06	26.036	0.00026582	0.00025602	7.1681e-05	1100	2.827e-06	2.798e-06	1189.8	232.74	2.6884e-06	2.652e-06	289.05	81.806	64.669	19.154	2.6419e-06	26.46	317.189	162.183	194.303	89.358	271.788	196.906	89.417	97.033	182.691	366.587	96.275	103.806	103.798	111.012	188.919	109.942	-8191	255	
20962.449	1	1	0	0	0.15099	0.21128	0.13913	0.12316	0.19931	0.22294	0.053858	0.32254	0.24093	0.22311	0.17946	0.18814	0.075335	0.22608	0.25779	0.2164	-2.2646	-2.5438	-2.5062	-2.7854	-2.2604	-2.5458	-2.7271	-2.3312	-2.9	-2.2396	-2.5917	-2.8104	-2.4521	-2.7083	-2.5854	-2.4646	410.090	295.175	408.813	328.442	180.763	230.847	331.070	96.417	208.508	236.910	180.704	273.053	95.327	88.169	334.233	385.158	0.00050354	0.00032311	2.7753e-05	1122.7	4.9661e-06	2.1354e-06	1217.9	235.58	3.7291e-06	3.8062e-06	293.21	82.379	65.348	18.843	4.6512e-06	25.912	0.00024677	0.0002438	6.9002e-05	1100	2.6918e-06	2.6897e-06	1190.6	232.4	2.7199e-06	2.7197e-06	289.7	81.748	64.948	19.243	2.7873e-06	26.393	312.778	168.191	194.068	89.163	181.670	358.340	89.336	97.099	201.245	289.221	96.485	103.569	104.372	110.391	180.856	109.846	-8191	255	
20962.547	1	1	0	0	0.18381	0.27745	0.2249	0.20965	0.18649	0.14951	0.27546	0.20701	0.1551	0.31887	0.25085	0.080177	0.12147	0.25375	0.14037	0.1835	-2.4521	-2.5312	-2.6667	-3.0563	-2.5167	-2.6708	-2.8083	-2.4875	-2.8021	-2.5646	-2.275	-2.8833	-2.5542	-2.6813	-2.7167	-2.6042	348.733	201.616	305.042	400.239	354.933	258.543	368.361	331.836	154.029	243.403	406.589	93.846	263.249	408.921	320.453	407.708	0.00044638	0.00032536	3.6611e-05	1116.4	7.7639e-06	3.7242e-06	1213	235.47	3.5751e-06	2.4824e-06	292.57	82.112	64.955	18.783	1.0173e-06	26.212	0.0002549	0.00024871	6.6722e-05	1097.7	2.6537e-06	2.6191e-06	1186.5	232.12	2.6804e-06	2.6468e-06	289.14	81.692	64.798	19.216	2.7394e-06	26.518	322.094	312.256	366.274	89.469	250.996	188.803	89.459	96.826	359.985	237.727	96.774	103.671	103.809	110.747	175.666	110.064	-8191	255	
20962.643	1	1	0	0	0.15076	0.15334	0.20052	0.35142	0.094358	0.11912	0.24772	0.24739	0.17106	0.17038	0.2146	0.19003	0.18813	0.31146	0.19521	0.1404	-2.3667	-2.7271	-2.2792	-2.9667	-2.4833	-2.5479	-2.9479	-2.5021	-2.6083	-2.75	-2.5417	-2.9042	-2.5312	-2.3542	-2.9167	-2.4875	239.155	337.292	262.429	347.936	107.378	206.273	310.426	370.211	401.837	188.252	288.796	234.666	277.675	366.649	151.834	183.804	0.00061085	0.00025682	5.1704e-05	1115.2	3.2593e-06	3.967e-06	1213.2	233.77	7.0152e-06	9.959e-07	291.69	81.797	64.955	18.865	3.4445e-06	26.021	0.00026143	0.00025963	7.2563e-05	1098.4	2.9447e-06	2.9523e-06	1189.6	232.79	3.0136e-06	3.038e-06	290.21	81.991	65.028	19.331	3.147e-06	26.684	306.545	295.835	213.206	89.378	217.611	261.787	89.442	96.941	325.214	360.773	96.377	103.562	104.255	110.731	153.089	109.877	-8191	255	
20962.738	1	1	0	0	0.40851	0.077624	0.15555	0.078906	0.13421	0.12256	0.34682	0.22765	0.13203	0.12368	0.17978	0.02914	0.27258	0.13086	0.079301	0.31262	-2.2667	-2.6896	-2.4938	-2.9479	-2.6583	-2.6042	-2.95	-2.4792	-2.5354	-2.8146	-2.4396	-2.8167	-2.6167	-2.35	-2.8146	-2.4792	220.940	408.708	334.323	389.300	252.125	160.831	434.903	422.537	286.821	333.479	91.720	173.764	100.161	122.127	114.430	410.175	0.00060642	0.00025188	0.00016993	1118.7	2.2004e-06	1.1475e-06	1217.3	234.96	5.4342e-06	4.2423e-06	292.64	81.998	65.797	18.963	4.8585e-07	26.11	0.00029039	0.00028846	8.0869e-05	1101.7	3.1956e-06	3.1481e-06	1194.1	233.79	3.2388e-06	3.1682e-06	290.9	82.277	65.307	19.426	3.1399e-06	26.656	309.366	178.317	149.994	89.483	329.531	391.673	89.352	96.880	307.072	183.870	96.686	103.725	103.818	110.634	100.415	109.945	-8191	255	
20962.836	1	1	0	0	0.11811	0.17653	0.10481	0.29223	0.015353	0.26748	0.094449	0.21519	0.14268	0.11607	0.090994	0.21001	0.11235	0.034979	0.16223	0.084543	-1.9625	-2.8083	-2.2396	-2.9583	-2.3917	-2.4146	-2.8438	-2.5042	-2.5708	-2.6708	-2.4437	-2.6396	-2.5875	-2.3229	-2.6833	-2.35	102.052	248.119	93.910	426.174	223.324	151.784	379.315	297.144	335.298	376.298	108.353	370.632	319.941	214.607	350.179	283.790	0.00065034	0.00048426	0.00017307	1115.1	4.7991e-06	2.9323e-06	1214.9	235.5	3.8932e-06	3.571e-06	292.94	82.315	65.352	18.823	4.2887e-06	26.149	0.00029308	0.00028693	7.9388e-05	1099.9	3.1603e-06	3.1495e-06	1191.5	233.69	3.1592e-06	3.122e-06	290.96	82.24	65.078	19.313	3.0545e-06	26.685	303.404	187.590	428.064	89.270	297.943	164.765	89.332	96.651	266.871	301.188	96.314	103.762	103.811	110.631	241.919	109.801	-8191	255	
20962.955	1	1	0	0	0.152	0.14789	0.12003	0.33722	0.079441	0.070563	0.24659	0.21604	0.1442	0.055017	0.1377	0.19555	0.36606	0.30907	0.16882	0.23107	-1.8583	-2.7687	-2.3604	-2.7396	-2.6854	-2.3208	-2.7708	-2.5917	-2.3083	-2.8	-2.5104	-2.5958	-2.8854	-2.1437	-2.85	-2.6229	277.035	135.890	369.196	378.798	368.128	408.402	420.744	424.501	427.762	144.003	282.521	297.454	81.309	411.817	123.553	389.295	0.0005169	0.00075229	0.00018709	1114.6	7.2172e-06	4.7477e-06	1216.4	233.94	5.0891e-06	4.5923e-06	292.58	82.359	64.914	18.717	4.1561e-06	26.018	0.00028975	0.00028023	7.8172e-05	1097.8	3.0781e-06	3.022e-06	1190.3	232.82	3.0113e-06	2.9775e-06	290.06	82.112	64.743	19.227	2.8254e-06	26.451	307.156	148.278	115.194	89.293	193.316	218.712	89.315	97.102	234.367	269.208	96.390	103.477	103.920	110.612	230.742	109.732	-8191	255	
20963.053	1	1	0	0	0.1283	0.043011	0.27171	0.37854	0.14552	0.098357	0.076601	0.27127	0.33886	0.26128	0.27799	0.14457	0.25661	0.22265	0.045577	0.035616	-1.9875	-2.6937	-2.2979	-2.7292	-2.6625	-2.3083	-2.7729	-2.675	-2.3646	-2.7708	-2.575	-2.675	-2.7708	-2.3521	-2.6771	-2.5708	230.969	426.890	193.092	419.675	145.824	278.397	115.229	357.550	380.690	180.621	81.382	325.536	96.527	281.505	326.827	209.452	0.00071758	7.9401e-05	0.00024955	1112.4	4.3866e-06	8.7282e-07	1200.6	235.05	3.8966e-06	4.8996e-06	292.21	82.08	64.949	18.745	3.884e-06	25.877	0.00025857	0.00025126	6.8257e-05	1095.8	2.6648e-06	2.6011e-06	1184.1	232.33	2.5726e-06	2.5587e-06	287.93	81.539	64.424	19.095	2.4855e-06	26.305	311.769	305.875	181.702	89.580	205.832	422.603	89.280	96.897	228.565	236.326	96.547	103.684	103.711	110.569	227.407	110.291	-8191	255	
20963.146	1	1	0	0	0.10931	0.16997	0.183	0.10325	0.12447	0.16013	0.2858	0.19672	0.26299	0.24585	0.13682	0.05519	0.13939	0.28318	0.045192	0.1038	-1.9292	-2.7542	-2.5917	-2.7562	-2.7792	-2.3167	-2.8083	-2.6583	-2.2375	-2.8271	-2.4604	-2.5625	-2.6521	-2.3125	-2.6937	-2.7229	230.841	148.667	248.853	332.433	318.149	266.014	356.753	353.632	239.163	268.900	361.186	189.250	404.569	85.572	101.690	168.989	0.00056739	0.00045462	7.8611e-05	1111.3	6.4235e-06	7.8381e-07	1213.8	233.63	8.6161e-06	4.7028e-06	290.03	81.767	65.23	18.74	3.1861e-06	26.214	0.00023544	0.00022712	6.325e-05	1091.6	2.4567e-06	2.4369e-06	1183.6	230.96	2.4377e-06	2.4289e-06	287.42	81.244	64.239	19.063	2.4764e-06	26.36	313.280	189.943	207.087	89.483	245.176	149.077	89.404	96.976	281.576	235.225	96.417	103.388	103.832	110.792	188.353	110.107	-8191	255	
20963.242	1	1	0	0	0.11088	0.014604	0.13109	0.35082	0.34815	0.13072	0.19371	0.089238	0.051623	0.21912	0.21559	0.14557	0.035838	0.22552	0.097975	0.16544	-1.9604	-2.6271	-2.3104	-2.6896	-2.6354	-2.5542	-2.8312	-2.7583	-2.2167	-2.7833	-2.7958	-2.5646	-2.7604	-2.3438	-2.4667	-2.8521	412.528	93.017	141.559	400.741	377.216	289.717	336.959	387.751	354.149	348.304	340.228	216.678	290.465	261.472	202.775	104.239	0.00052358	0.00012352	0.00010442	1112.9	4.7013e-06	4.3797e-06	1205.3	232.96	3.3116e-06	4.6889e-06	289.53	81.89	64.897	18.8	5.0856e-06	25.817	0.00023436	0.00022807	6.3227e-05	1093.8	2.5324e-06	2.5368e-06	1183.5	230.76	2.5369e-06	2.5069e-06	287.4	81.481	64.503	19.084	2.578e-06	26.295	312.187	430.694	204.107	89.637	339.088	206.718	89.681	97.084	266.959	202.494	96.617	103.362	104.081	110.882	175.424	110.008	-8191	255	
20963.338	1	1	0	0	0.055293	0.067056	0.12495	0.1167	0.076732	0.13905	0.20745	0.075949	0.21649	0.087992	0.024517	0.19699	0.16311	0.1206	0.11338	0.16913	-1.7854	-2.8604	-2.5458	-2.5333	-2.7729	-2.4208	-2.7604	-2.6708	-2.4042	-2.8458	-2.6667	-2.4542	-2.9521	-2.5083	-2.4833	-2.8229	414.750	162.855	348.125	419.396	435.444	138.254	306.365	415.087	333.386	394.049	212.843	93.263	389.004	185.940	367.620	82.264	0.00075541	1.6832e-05	4.7503e-05	1114.6	6.5563e-06	4.5717e-06	1210.3	234.26	2.4819e-06	6.5283e-06	291.34	82.158	64.861	18.891	2.6304e-06	25.918	0.00024368	0.00023641	6.4361e-05	1094.2	2.5892e-06	2.5337e-06	1186.3	231.45	2.5556e-06	2.4996e-06	287.9	81.482	64.523	19.094	2.5107e-06	26.182	311.653	216.353	128.108	89.420	207.840	221.553	89.375	96.818	227.240	259.725	96.374	103.365	103.806	110.364	273.979	110.118	-8191	255	
20963.436	1	1	0	0	0.11926	0.13373	0.14023	0.22194	0.053405	0.032935	0.21039	0.085185	0.25663	0.19482	0.15085	0.088883	0.055319	0.28721	0.23684	0.28362	-1.9104	-2.6708	-2.6021	-2.7208	-2.6417	-2.6312	-2.6688	-2.8604	-2.2708	-2.6	-2.6188	-2.2896	-2.8229	-2.4688	-2.4542	-2.8354	358.087	424.167	275.969	401.702	251.298	169.818	364.634	95.220	229.180	188.862	187.976	273.246	268.734	127.091	205.749	362.916	0.00064221	0.00042159	8.3923e-05	1112.4	4.4141e-06	2.3558e-06	1209.1	233.3	5.4018e-06	6.098e-06	291.56	81.804	64.906	18.786	1.697e-06	25.863	0.00023399	0.00022861	6.3521e-05	1091.9	2.4899e-06	2.4762e-06	1182	230.96	2.5194e-06	2.5154e-06	288.04	81.318	64.421	19.057	2.5443e-06	26.248	311.518	159.232	100.858	89.407	268.710	125.926	89.338	97.184	266.137	206.079	96.351	103.725	103.645	110.631	191.285	110.073	-8191	255	
20963.531	1	1	0	0	0.19827	0.16804	0.078482	0.19096	0.046644	0.029593	0.24962	0.19919	0.13101	0.16366	0.18177	0.23648	0.20182	0.33724	0.17656	0.17662	-1.8854	-2.6	-2.6292	-2.4104	-2.7083	-2.5938	-2.5833	-2.7896	-2.3542	-2.575	-2.8167	-2.3792	-2.8063	-2.6354	-2.2625	-2.7792	354.276	150.353	371.215	380.906	242.156	141.439	83.747	97.973	425.023	107.594	372.844	416.023	370.658	160.899	323.182	127.506	0.00061889	0.00062637	0.00024411	1109.3	1.3418e-06	4.2524e-06	1209.2	233.06	1.9509e-06	3.732e-06	291.29	81.942	65.128	18.804	1.2534e-06	25.822	0.00023636	0.00023621	6.5034e-05	1092.6	2.5612e-06	2.589e-06	1184.1	230.78	2.5454e-06	2.5912e-06	287.84	81.402	64.456	19.058	2.5353e-06	26.224	316.225	195.899	217.085	89.364	244.827	152.042	89.226	96.783	304.707	189.387	96.611	103.221	104.304	111.038	343.998	109.615	-8191	255	
20963.650	1	1	0	0	0.31741	0.31257	0.038386	0.16879	0.030147	0.13959	0.076079	0.14193	0.12488	0.36233	0.2175	0.21757	0.21899	0.20649	0.083973	0.091092	-2.0708	-2.6583	-2.8146	-2.5542	-2.6958	-2.6813	-2.5292	-2.9729	-2.5333	-2.5354	-2.9042	-2.3	-2.7354	-2.8104	-2.5229	-2.9667	212.546	213.366	372.810	409.555	242.995	379.755	349.695	429.692	241.154	85.259	414.843	114.096	388.950	414.719	247.661	173.920	0.00064704	0.00022674	0.000128	1112.1	5.2203e-06	1.8206e-06	1210	232.96	5.4724e-06	3.0014e-06	290	81.799	64.426	18.781	3.345e-06	25.879	0.0002362	0.0002283	6.3151e-05	1091.6	2.5335e-06	2.4894e-06	1183.6	230.55	2.4964e-06	2.497e-06	287.17	81.246	64.232	19.068	2.4623e-06	26.309	317.407	193.200	108.990	89.438	216.567	309.985	89.423	97.230	289.309	111.263	96.587	103.483	103.763	110.559	188.649	110.010	-8191	255	
20963.748	1	1	0	0	0.15176	0.20464	0.23389	0.27173	0.18122	0.09234	0.26167	0.13412	0.1487	0.10272	0.079114	0.079141	0.3383	0.048596	0.21797	0.050039	-1.9271	-2.4479	-2.6583	-2.3667	-2.7333	-2.6875	-2.3708	-2.8063	-2.65	-2.4417	-2.9062	-2.3292	-2.6562	-2.8271	-2.3271	-2.8646	405.318	114.728	427.500	336.986	294.780	99.699	393.017	124.763	349.166	242.579	392.174	436.662	96.923	166.264	125.336	162.960	0.00056885	0.00032057	0.0001034	1113.4	2.5379e-06	3.448e-06	1213.8	233.14	3.7914e-06	4.3114e-06	291	82.051	64.694	18.659	1.3085e-06	25.888	0.00023802	0.00022923	6.4057e-05	1091.7	2.4965e-06	2.4984e-06	1183.1	230.78	2.4968e-06	2.4705e-06	287.07	81.229	64.182	19.057	2.431e-06	26.143	309.414	230.659	176.749	89.472	172.731	197.925	89.366	96.993	294.812	272.635	96.599	103.453	104.161	110.738	219.671	109.939	-8191	255	
20963.818	1	1	0	0	0.10478	0.15649	0.12103	0.33921	0.31168	0.22928	0.14026	0.25341	0.24381	0.21553	0.1297	0.2175	0.14602	0.043801	0.043934	0.11413	-2.1729	-2.4833	-2.9771	-2.6146	-2.8583	-2.8208	-2.5375	-2.8833	-2.5146	-2.3792	-2.8896	-2.4792	-2.625	-2.6833	-2.4417	-2.7833	422.712	82.359	386.968	105.217	272.357	188.128	101.691	107.135	83.491	207.576	359.172	312.597	168.200	320.695	158.339	333.709	0.00074613	0.00055652	0.00015233	1113.8	2.6183e-06	4.5152e-06	1207.2	233.09	9.3878e-07	5.863e-06	290.04	81.358	64.519	18.83	3.4567e-06	25.789	0.00022842	0.00022044	6.13e-05	1091	2.4503e-06	2.4236e-06	1182	230.43	2.3895e-06	2.3858e-06	286.76	80.984	63.987	18.973	2.4368e-06	26.186	316.008	220.271	270.991	89.424	271.527	295.967	89.609	96.867	201.456	285.090	96.384	103.817	103.870	110.798	236.772	110.015	-8191	255	
20963.914	1	1	0	0	0.055149	0.20355	0.23415	0.22111	0.19715	0.1365	0.15143	0.16446	0.085702	0.20437	0.26062	0.24849	0.19302	0.28853	0.13286	0.11694	-2.2083	-2.2917	-2.9167	-2.5479	-2.5083	-2.6729	-2.4875	-2.7188	-2.7812	-2.4396	-2.9583	-2.2958	-2.4917	-2.8187	-2.4313	-2.9021	262.125	391.865	230.681	399.434	346.106	404.976	430.089	202.597	297.420	98.309	99.517	408.391	423.540	108.989	311.969	152.385	0.00063181	0.00011529	3.0003e-05	1109.1	3.9519e-06	4.3769e-06	1206.4	232.27	7.1619e-06	3.6369e-06	290.08	81.737	64.506	18.705	2.1265e-06	25.846	0.00022665	0.00021996	6.0495e-05	1088.3	2.4228e-06	2.4013e-06	1178.4	230.39	2.4928e-06	2.4519e-06	287.03	81.245	63.99	18.994	2.422e-06	26.123	312.611	207.151	136.099	89.527	247.679	187.803	89.336	97.012	291.747	149.934	96.326	103.601	104.048	110.745	255.432	110.044	-8191	255	
20964.035	1	1	0	0	0.15801	0.21037	0.0035486	0.16618	0.19236	0.093662	0.15672	0.15967	0.16106	0.30922	0.27494	0.19126	0.3144	0.21294	0.073287	0.21761	-2.1333	-2.475	-2.925	-2.6604	-2.5333	-2.9333	-2.5167	-2.7917	-2.7729	-2.2271	-2.7354	-2.5604	-2.3937	-2.8042	-2.3354	-2.5292	153.220	154.598	134.156	382.311	418.260	389.428	234.379	110.922	264.535	115.034	414.178	373.543	307.773	224.304	431.924	396.113	0.00058395	0.0006446	0.00014357	1104.5	6.6465e-06	8.8492e-07	1202.8	233.1	3.3732e-06	2.8592e-06	290.02	81.131	64.386	18.61	1.5455e-06	25.81	0.00022793	0.00021649	6.0614e-05	1087.5	2.3662e-06	2.3795e-06	1178.5	230.12	2.415e-06	2.3611e-06	286.16	80.94	63.885	18.955	2.3803e-06	26.172	312.578	97.746	146.380	89.396	210.156	156.779	89.365	97.245	271.288	222.034	96.511	103.745	104.024	110.869	306.766	110.075	-8191	255	
20964.133	1	1	0	0	0.21463	0.14717	0.22496	0.16467	0.18168	0.11206	0.070314	0.21809	0.18603	0.077881	0.12953	0.076568	0.11201	0.13077	0.095908	0.093326	-2.2583	-2.3104	-2.9896	-2.6771	-2.3396	-2.7833	-2.6521	-2.6646	-2.7687	-2.2979	-2.7229	-2.5979	-2.3646	-2.575	-2.3479	-2.5125	321.987	395.691	315.726	341.270	344.163	197.243	390.265	374.829	260.963	427.623	111.928	95.917	235.953	391.223	249.033	147.740	0.00069466	0.0002363	8.457e-05	1105.3	4.0433e-06	2.1678e-06	1204.5	232.66	4.6992e-06	2.1262e-06	292.27	81.265	64.37	18.897	1.0771e-06	25.903	0.00022242	0.0002214	6.1108e-05	1087	2.4421e-06	2.4026e-06	1178.8	230.09	2.4398e-06	2.4832e-06	287.06	80.971	64.166	19.049	2.5051e-06	26.224	315.753	104.832	157.763	89.393	236.621	270.886	89.300	96.995	323.269	297.679	96.737	103.647	103.819	110.281	192.884	110.042	-8191	255	
20964.229	1	1	0	0	0.13263	0.086921	0.1731	0.12814	0.11389	0.18103	0.31876	0.13947	0.27037	0.11705	0.22445	0.21846	0.16175	0.099305	0.19759	0.19484	-2.3792	-2.2667	-2.5021	-2.6667	-2.3354	-2.7729	-2.6792	-2.5062	-2.8312	-2.3063	-2.6042	-2.7854	-2.4854	-2.775	-2.7146	-2.575	245.215	191.989	89.537	436.260	378.806	385.477	409.082	396.691	259.269	264.146	411.714	324.508	430.876	411.162	436.668	110.542	0.00061166	0.00064536	0.00011805	1110.9	2.2868e-06	1.9546e-06	1209	232.64	1.7333e-06	3.594e-06	290.58	81.488	64.515	18.658	5.4027e-06	25.939	0.00023823	0.0002319	6.3903e-05	1090.8	2.577e-06	2.5808e-06	1182.5	230.04	2.5415e-06	2.5283e-06	287.48	81.163	64.138	18.997	2.5402e-06	26.197	313.087	176.159	105.964	89.268	290.918	205.788	89.380	96.881	256.585	151.763	96.209	103.638	103.383	110.539	207.746	109.787	-8191	255	
20964.348	1	1	0	0	0.13867	0.072344	0.38176	0.055373	0.13349	0.1232	0.20234	0.46363	0.18422	0.040325	0.19609	0.25212	0.32769	0.18056	0.12844	0.24292	-2.3729	-2.5229	-2.525	-2.8229	-2.3021	-2.7125	-2.7917	-2.3896	-2.75	-2.3271	-2.5229	-2.8854	-2.2542	-2.7438	-2.6917	-2.3354	318.997	408.245	183.781	93.359	291.900	367.947	336.581	327.173	130.733	413.353	323.729	79.888	373.883	313.259	409.851	185.643	0.00063451	8.2826e-05	4.1345e-05	1106.9	2.629e-06	2.3751e-06	1205.3	232.31	3.3572e-06	2.6987e-06	289.34	81.934	64.534	18.626	5.0377e-06	25.831	0.00023452	0.0002321	6.38e-05	1089.6	2.5471e-06	2.5039e-06	1180.3	229.64	2.5186e-06	2.5155e-06	286.88	81.201	64.098	19.049	2.5666e-06	26.175	320.769	155.369	149.084	89.428	282.682	417.241	89.250	97.186	286.116	308.665	96.318	103.422	104.036	110.608	257.276	109.782	-8191	255	
20964.443	1	1	0	0	0.063233	0.10245	0.13874	0.21965	0.20185	0.077492	0.17542	0.091493	0.10732	0.050411	0.17144	0.088751	0.057138	0.098265	0.048165	0.25389	-2.3229	-2.2417	-2.3354	-2.8812	-2.2521	-2.6375	-2.8104	-2.4437	-2.7438	-2.5333	-2.6542	-2.8458	-2.4271	-2.7146	-2.6417	-2.3563	189.363	299.645	113.095	396.105	421.814	377.688	311.617	284.153	103.872	436.740	180.622	339.508	361.318	200.198	386.250	375.814	0.00062075	0.00069532	8.9593e-05	1106.4	5.1658e-06	2.9579e-06	1203.3	233.25	1.4074e-06	4.3328e-06	290.66	81.639	64.235	18.895	1.0528e-06	25.928	0.00024082	0.00023348	6.5962e-05	1088.5	2.6057e-06	2.5626e-06	1180.6	230.48	2.5308e-06	2.5293e-06	286.73	81.199	63.92	19.081	2.5561e-06	26.188	315.703	150.221	191.241	89.518	256.216	264.117	89.454	97.182	359.630	218.228	96.675	103.118	103.845	110.437	239.329	110.076	-8191	255	
20964.516	1	1	0	0	0.22234	0.20856	0.091479	0.152	0.072147	0.15475	0.25644	0.21221	0.13472	0.11644	0.12552	0.086519	0.13944	0.20905	0.14586	0.084658	-2.4938	-2.5021	-2.4521	-2.9333	-2.3354	-2.7062	-2.8104	-2.3792	-2.8625	-2.4604	-2.6771	-2.9021	-2.4354	-2.725	-2.6042	-2.5167	203.366	277.143	140.553	106.803	135.056	151.620	401.749	264.268	93.427	236.776	109.483	102.692	105.909	100.765	418.464	288.799	0.00061024	0.00058529	0.00013393	1112.6	2.7829e-06	2.5562e-06	1206.6	232.22	4.3733e-06	3.9214e-06	290.15	81.873	64.723	18.592	7.2624e-06	25.856	0.00024031	0.00023379	6.5748e-05	1091.2	2.5215e-06	2.5351e-06	1179.7	229.9	2.5175e-06	2.5278e-06	286.85	81.359	64.031	18.95	2.5179e-06	26.183	308.000	161.606	231.858	89.355	299.491	417.081	89.320	97.181	243.326	323.982	96.585	103.606	103.722	110.661	206.754	109.608	-8191	255	
20964.637	1	1	0	0	0.25907	0.29554	0.2122	0.17797	0.14295	0.1405	0.12269	0.025688	0.1434	0.12668	0.12113	0.25652	0.25979	0.2127	0.32836	0.22094	-2.4792	-2.4688	-2.35	-2.9479	-2.3375	-2.5042	-2.9271	-2.4021	-2.7313	-2.5875	-2.3021	-2.9292	-2.5229	-2.5083	-3.0042	-2.15	132.345	421.428	90.085	357.401	371.468	87.456	301.162	216.724	261.322	154.194	213.060	389.783	420.365	438.218	111.656	196.152	0.00070388	0.0008596	0.0001186	1103.6	4.0413e-06	1.5603e-06	1206.4	233.01	6.5956e-06	2.9555e-06	290.93	81.385	64.722	18.712	3.4898e-06	25.757	0.00023388	0.00023092	6.3479e-05	1087.6	2.4856e-06	2.471e-06	1180.2	230.16	2.4484e-06	2.4388e-06	286.37	80.764	64.01	18.991	2.4695e-06	26.103	316.898	186.021	97.914	89.385	170.749	193.268	89.339	96.942	259.416	258.792	96.489	103.722	103.957	111.257	203.028	110.019	-8191	255	
20964.732	1	1	0	0	0.076513	0.20502	0.26555	0.22206	0.18642	0.35453	0.12807	0.33412	0.13955	0.18767	0.19345	0.3772	0.042269	0.11637	0.23985	0.20139	-2.1896	-2.5083	-2.325	-2.9917	-2.5375	-2.45	-2.9958	-2.4375	-2.7333	-2.6417	-2.2583	-2.7333	-2.5542	-2.4458	-2.875	-2.4813	276.451	96.524	301.224	421.848	252.977	204.098	429.353	421.242	373.841	124.907	345.907	410.825	115.673	83.808	255.599	368.846	0.00065158	4.4982e-05	0.00017291	1105.5	4.4385e-06	3.786e-06	1204.9	233.57	2.6103e-06	9.9204e-06	290.65	81.458	63.979	18.597	1.8401e-06	25.843	0.00022731	0.00022579	6.1323e-05	1087.2	2.4572e-06	2.4535e-06	1179	230.08	2.4698e-06	2.4577e-06	286.63	80.853	63.932	18.916	2.412e-06	26.072	315.083	301.396	125.904	89.409	245.287	307.286	89.322	97.080	334.666	273.938	96.630	103.568	103.895	110.764	224.598	110.293	-8191	255	
20964.828	1	1	0	0	0.039068	0.017639	0.25262	0.30711	0.32323	0.13696	0.12156	0.14496	0.23337	0.28074	0.062346	0.079727	0.085912	0.20129	0.088621	0.13056	-2.2021	-2.5438	-2.2208	-2.8792	-2.5979	-2.475	-2.9583	-2.3063	-2.5583	-2.6083	-2.2687	-2.6333	-2.4875	-2.3958	-2.6833	-2.3729	317.529	396.303	366.084	96.179	265.848	335.899	320.643	361.776	368.392	381.580	252.175	388.747	384.069	311.132	208.161	231.234	0.00057471	0.00049533	0.00011328	1104.6	3.5445e-06	3.8828e-06	1205.7	232.77	6.5585e-06	2.3697e-06	289.19	81.621	64.508	18.528	4.8055e-06	25.788	0.0002261	0.00022015	6.0634e-05	1085.6	2.4274e-06	2.4207e-06	1178.3	229.77	2.3446e-06	2.3503e-06	285.87	80.73	63.832	18.883	2.3049e-06	26.09	312.339	235.161	142.923	89.583	201.379	94.742	89.819	97.096	233.661	280.855	96.464	103.930	104.246	110.839	243.245	109.996	-8191	255	
20964.949	1	1	0	0	0.10132	0.098736	0.082625	0.17145	0.3128	0.02881	0.13232	0.22554	0.22609	0.091651	0.03094	0.32273	0.065107	0.27414	0.12954	0.085965	-2.1271	-2.6292	-2.1854	-2.8479	-2.2458	-2.3917	-2.8312	-2.3271	-2.5958	-2.7729	-2.3208	-2.5646	-2.6396	-2.2917	-2.7313	-2.4188	373.275	155.184	287.021	423.256	276.746	384.924	350.272	421.302	204.942	198.497	153.290	435.349	283.913	386.397	278.213	166.763	0.00047079	0.00042342	0.00016371	1103.9	3.4268e-06	3.9952e-06	1207.7	232.15	4.9755e-06	5.4947e-06	291.94	81.129	64.084	18.716	4.1121e-06	25.783	0.00021804	0.00021042	5.886e-05	1083.9	2.3033e-06	2.2609e-06	1177	229.14	2.2611e-06	2.2004e-06	285.64	80.554	63.423	18.821	2.1447e-06	25.981	317.728	171.714	203.916	89.621	238.179	218.047	89.215	97.029	322.975	236.277	96.559	103.615	104.285	110.343	273.875	109.792	-8191	255	
20965.043	1	1	0	0	0.18078	0.097711	0.15353	0.15802	0.075254	0.027992	0.26349	0.32222	0.17028	0.0033902	0.20339	0.18884	0.11123	0.10249	0.10074	0.17798	-1.9875	-2.6833	-2.3604	-2.8146	-2.6771	-2.1667	-2.9833	-2.5208	-2.3729	-2.7083	-2.3688	-2.6708	-2.7188	-2.125	-2.7438	-2.4708	192.239	427.505	89.895	93.678	386.086	347.758	395.335	377.941	290.309	362.695	380.171	410.859	203.776	139.677	438.790	436.487	0.00053448	0.00055044	0.00012612	1100.8	5.0255e-06	3.6058e-06	1195.1	232.79	3.8481e-06	6.997e-06	291.2	81.311	63.934	18.521	5.4168e-06	25.703	0.00020433	0.00019571	5.4212e-05	1079.5	2.1334e-06	2.1553e-06	1171.8	228.62	2.151e-06	2.1456e-06	284.62	80.316	63.28	18.783	2.171e-06	25.943	301.413	169.547	247.515	89.355	209.464	301.598	89.247	97.109	273.172	160.937	96.240	103.714	103.802	110.583	200.688	110.137	-8191	255	
20965.115	1	1	0	0	0.2428	0.15942	0.066301	0.13607	0.18241	0.32491	0.19739	0.17877	0.052414	0.063732	0.15551	0.033202	0.052696	0.090166	0.13652	0.15205	-1.7146	-2.6833	-2.4917	-2.5104	-2.6354	-2.25	-2.9167	-2.6125	-2.4688	-2.7396	-2.4375	-2.6937	-3.0229	-2.3875	-2.6688	-2.5333	104.896	252.068	139.289	237.881	417.563	371.584	377.289	317.801	313.980	126.227	272.223	99.651	348.649	339.341	418.655	207.942	0.0007438	5.2874e-05	0.00010123	1100.6	3.4814e-06	1.2577e-06	1202.1	232.02	3.6127e-06	1.0647e-06	289.09	81.097	63.758	18.644	3.1013e-06	25.753	0.00020693	0.00020041	5.5732e-05	1081.9	2.2254e-06	2.2097e-06	1172.7	228.66	2.207e-06	2.1984e-06	284.66	80.461	63.254	18.82	2.1873e-06	25.994	302.990	305.732	205.700	89.558	220.989	303.066	89.437	97.033	233.849	244.244	96.677	103.434	104.098	110.348	377.042	109.492	-8191	255	
20965.213	1	1	0	0	0.13234	0.051928	0.099626	0.097267	0.14926	0.053386	0.21272	0.0811	0.065519	0.032581	0.24817	0.26103	0.033834	0.14562	0.041732	0.024615	-2.0812	-2.6583	-2.3	-2.5979	-2.8438	-2.2521	-2.8354	-2.7208	-2.2333	-2.7062	-2.5083	-2.3396	-2.6958	-2.4896	-2.5542	-2.8	306.405	223.973	201.995	192.877	388.973	142.535	423.491	95.352	435.365	145.236	283.495	92.345	205.732	194.916	303.508	154.449	0.00069872	0.00011906	0.00031546	1099.5	2.9263e-06	2.1091e-06	1201.7	231.42	6.1014e-06	4.0015e-06	288.37	81.62	64.173	18.635	1.005e-06	25.651	0.00020972	0.00020193	5.6623e-05	1081.2	2.2374e-06	2.1931e-06	1172.8	228.01	2.2271e-06	2.1984e-06	284.46	80.47	63.529	18.872	2.2868e-06	25.918	298.690	186.697	210.849	89.300	221.609	218.700	89.435	96.995	297.663	319.544	96.566	103.741	103.727	110.930	118.341	110.170	-8191	255	
20965.330	1	1	0	0	0.24647	0.2315	0.14533	0.052098	0.085698	0.082345	0.26743	0.084638	0.056212	0.082066	0.30252	0.17779	0.076203	0.20494	0.16752	0.080034	-1.8563	-2.6188	-2.4583	-2.6792	-2.7833	-2.4813	-2.8208	-2.7521	-2.425	-2.7792	-2.6979	-2.3854	-2.7875	-2.4813	-2.6437	-2.6792	275.889	416.834	156.432	127.993	95.473	225.632	356.228	103.446	336.923	261.836	308.503	343.126	135.821	370.339	165.567	379.388	0.00049761	0.00041755	0.00013985	1102.3	3.8516e-06	3.1688e-06	1199.2	231.52	6.863e-06	1.49e-06	290.04	80.886	64.02	18.667	6.3317e-06	25.611	0.00021143	0.00020469	5.6915e-05	1081.6	2.2894e-06	2.2334e-06	1172.8	228.55	2.2746e-06	2.2569e-06	284.43	80.364	63.567	18.844	2.2153e-06	25.937	303.712	186.104	137.452	89.433	242.916	226.184	89.560	96.883	254.296	240.421	96.358	103.801	103.751	110.678	198.687	110.100	-8191	255	
20965.428	1	1	0	0	0.23451	0.07923	0.16063	0.26615	0.27799	0.014182	0.075384	0.043723	0.093719	0.19732	0.12369	0.078909	0.26866	0.22402	0.27983	0.12508	-2.0729	-2.5854	-2.6437	-2.5854	-2.7146	-2.475	-2.7021	-2.7396	-2.3688	-2.6375	-2.5917	-2.1792	-2.8354	-2.4917	-2.4646	-2.6458	294.743	310.272	138.197	413.519	422.837	108.052	265.056	309.345	224.193	270.295	384.664	344.679	114.629	373.664	236.997	406.011	0.00061669	0.00050575	0.00015233	1104.9	3.1037e-06	8.7175e-07	1197.9	229.99	1.7085e-06	1.7629e-06	287.87	81.464	64.383	18.532	7.3992e-06	25.437	0.0002094	0.00020104	5.5804e-05	1082	2.2535e-06	2.2262e-06	1172.6	227.75	2.2389e-06	2.1721e-06	283.93	80.452	63.635	18.794	2.2571e-06	25.86	310.785	149.898	200.744	89.501	185.371	233.684	89.309	97.326	290.889	256.803	96.281	103.934	103.906	110.964	210.230	109.897	-8191	255	
20965.523	1	1	0	0	0.07618	0.24291	0.19097	0.29636	0.19729	0.12724	0.17889	0.21232	0.20285	0.096822	0.20506	0.21882	0.10167	0.17828	0.076195	0.08965	-1.9917	-2.5417	-2.6813	-2.3312	-2.7542	-2.5396	-2.775	-2.7646	-2.2979	-2.6542	-2.6375	-2.3063	-2.7354	-2.45	-2.4542	-2.7625	191.271	309.899	206.311	393.756	207.430	261.282	405.675	416.357	398.970	390.421	421.198	359.385	85.366	425.415	416.475	165.269	0.00069486	0.00058567	4.7193e-05	1099.7	4.7718e-06	2.8588e-06	1199.7	231.08	5.5762e-06	3.5556e-06	290.57	81.56	63.948	18.574	1.0625e-06	25.671	0.00021038	0.00020291	5.6106e-05	1081.6	2.2045e-06	2.1709e-06	1170.9	227.65	2.1299e-06	2.1829e-06	284.69	80.427	63.405	18.78	2.1849e-06	25.837	310.012	162.839	410.721	89.673	221.548	267.872	89.168	96.892	266.975	100.602	96.878	103.363	103.945	110.573	224.601	110.151	-8191	255	
20965.619	1	1	0	0	0.26649	0.42792	0.040238	0.26505	0.26633	0.33138	0.17625	0.27258	0.15967	0.073524	0.068583	0.039613	0.08603	0.2594	0.12058	0.30427	-1.8708	-2.5062	-2.6729	-2.3854	-2.5812	-2.5458	-2.4583	-2.8292	-2.2438	-2.475	-2.5938	-2.2542	-2.7042	-2.5667	-2.2438	-2.6083	426.861	345.304	99.045	335.489	172.969	245.555	368.537	79.646	270.602	97.103	87.350	232.327	375.413	95.047	91.899	285.498	0.0005944	0.00044374	0.00010309	1101.8	4.6023e-06	2.0533e-06	1198.8	230.56	6.5427e-06	2.7093e-06	288.23	81.346	64.744	18.517	2.4468e-06	25.733	0.00020548	0.00020027	5.5068e-05	1081.7	2.1799e-06	2.1504e-06	1169.9	227.64	2.1602e-06	2.1971e-06	283.46	80.475	63.585	18.754	2.1813e-06	25.935	301.679	180.796	142.834	89.216	245.852	291.728	89.185	96.988	274.447	435.677	95.964	103.685	104.530	110.685	254.331	110.246	-8191	255	
20965.717	1	1	0	0	0.17262	0.072197	0.16053	0.12175	0.26212	0.072663	0.35554	0.32983	0.029065	0.38975	0.16221	0.1238	0.22633	0.15096	0.17936	0.06905	-1.9417	-2.3667	-2.6521	-2.5021	-2.5083	-2.6354	-2.6125	-2.8854	-2.3417	-2.475	-2.8854	-2.3333	-2.7292	-2.5229	-2.4188	-2.7438	168.818	252.623	298.981	437.934	189.062	195.225	414.381	408.265	380.015	289.343	395.158	438.329	278.139	189.428	431.274	401.725	0.00070802	0.00050615	2.2104e-05	1096.8	7.3412e-06	2.9076e-06	1202.2	231.72	4.8827e-06	3.1902e-06	287.07	81.393	64.097	18.627	3.645e-06	25.584	0.00020557	0.00020249	5.4869e-05	1079.4	2.1977e-06	2.1682e-06	1170.6	228.14	2.1707e-06	2.2231e-06	284.37	80.467	63.453	18.802	2.1467e-06	25.896	307.958	90.586	193.885	89.237	217.638	216.805	89.346	97.070	330.468	120.305	96.477	103.782	104.101	110.568	163.901	110.220	-8191	255	
20965.812	1	1	0	0	0.059546	0.18586	0.30888	0.22255	0.16486	0.082784	0.17846	0.16023	0.081794	0.028539	0.092568	0.090768	0.054486	0.16098	0.20314	0.16444	-1.9375	-2.4104	-2.8104	-2.5604	-2.5042	-2.6042	-2.5917	-2.9396	-2.4771	-2.5438	-2.8375	-2.3708	-2.6583	-2.725	-2.3479	-2.85	369.364	412.152	86.058	394.164	400.071	165.663	408.759	369.477	156.579	310.345	436.288	221.243	333.537	257.211	408.322	350.445	0.00066814	0.00032523	9.9471e-05	1099.8	2.9697e-06	2.3932e-06	1197	231.05	7.0171e-06	6.5206e-06	289.52	81.118	64.361	18.631	1.9058e-06	26.036	0.00020274	0.00019604	5.3159e-05	1079.5	2.1997e-06	2.1452e-06	1171	227.83	2.1908e-06	2.1675e-06	284.48	80.132	63.452	18.816	2.1494e-06	25.988	314.443	190.671	179.994	89.561	222.286	200.098	89.519	96.874	263.374	183.027	96.567	103.599	104.384	110.699	418.783	110.333	-8191	255	
20965.908	1	1	0	0	0.12502	0.20965	0.18929	0.51912	0.19889	0.13875	0.20969	0.19187	0.070977	0.087784	0.16251	0.033574	0.030562	0.081629	0.51621	0.17205	-2.1188	-2.3208	-2.7812	-2.4896	-2.4625	-2.7125	-2.4396	-2.5854	-2.6333	-2.3438	-2.8375	-2.1875	-2.4375	-2.5875	-2.4417	-2.6875	146.529	333.086	417.908	395.235	197.342	221.837	397.618	253.271	124.023	294.561	402.423	352.563	215.180	144.461	405.686	235.135	0.00058959	0.00057434	0.00010252	1095.3	3.922e-06	2.6744e-06	1193.4	231.77	5.2542e-06	4.1324e-06	286.46	80.932	63.975	18.564	3.8025e-06	25.64	0.00020602	0.0001974	5.4402e-05	1077.6	2.1921e-06	2.1436e-06	1168.2	227.94	2.1388e-06	2.134e-06	283.54	80.24	63.241	18.748	2.1349e-06	25.87	313.508	211.167	278.731	89.508	195.310	244.295	89.251	97.052	258.279	284.586	96.504	103.467	103.932	110.363	174.925	109.978	-8191	255	
20966.029	1	1	0	0	0.11576	0.17058	0.11512	0.26356	0.19704	0.19976	0.21648	0.087761	0.16355	0.25068	0.1783	0.20237	0.21266	0.14386	0.037924	0.069312	-2.1562	-2.2021	-2.7062	-2.6271	-2.4208	-2.6937	-2.4917	-2.7687	-2.5938	-2.3542	-2.7562	-2.4521	-2.5208	-2.7396	-2.3396	-2.4479	295.766	117.209	382.318	381.790	363.660	122.597	355.281	364.164	131.680	300.094	344.122	417.994	98.929	396.697	345.825	95.421	0.00054297	0.00028909	0.00017401	1101.8	5.0085e-06	4.2124e-06	1190.5	230.85	6.6504e-06	6.2895e-06	287.84	81.335	63.955	18.497	2.7769e-06	25.475	0.00020501	0.00019738	5.3764e-05	1079	2.1825e-06	2.1152e-06	1165.7	227.67	2.1288e-06	2.1331e-06	283.95	80.242	63.195	18.698	2.1539e-06	25.842	318.451	182.793	165.468	89.541	243.455	244.154	89.430	96.945	316.957	221.918	96.349	103.599	104.472	110.804	245.683	110.114	-8191	255	
20966.125	1	1	0	0	0.12961	0.070998	0.095963	0.13689	0.12747	0.064686	0.13437	0.19943	0.044823	0.17603	0.26966	0.096188	0.21742	0.055038	0.24469	0.13117	-2.1979	-2.1417	-2.6479	-2.575	-2.3146	-2.9354	-2.4792	-2.5563	-2.6208	-2.1708	-2.7417	-2.7833	-2.4604	-2.8021	-2.4	-2.5604	204.747	333.538	337.747	417.854	286.797	236.991	86.530	355.676	420.671	89.988	361.327	95.482	374.114	172.446	275.732	313.891	0.00059697	0.00026955	0.00016118	1097.4	1.4923e-06	5.0368e-06	1196.9	229.18	2.45e-06	2.4057e-06	288.97	81.38	63.72	18.537	2.3047e-06	25.537	0.0002037	0.00019341	5.397e-05	1078.4	2.1157e-06	2.0893e-06	1168.8	226.75	2.1375e-06	2.0607e-06	283.8	80.279	63.173	18.755	2.0927e-06	25.785	304.472	149.317	182.987	89.480	123.670	219.650	89.409	96.830	285.281	268.013	96.474	103.795	104.391	110.861	189.792	110.057	-8191	255	
20966.219	1	1	0	0	0.07235	0.27337	0.10127	0.16125	0.095133	0.21996	0.21449	0.095893	0.12457	0.22041	0.2268	0.12451	0.15271	0.10921	0.060652	0.28202	-2.175	-2.3729	-2.8875	-2.6958	-2.2854	-2.7875	-2.6312	-2.5625	-2.6688	-2.1208	-2.9062	-2.5875	-2.5104	-2.8167	-2.4979	-2.6354	290.033	406.559	363.811	417.284	184.441	400.414	378.368	149.815	422.883	434.238	420.845	126.304	279.235	86.651	369.848	434.046	0.00071351	0.00039567	0.00013437	1097.4	3.5322e-06	2.0663e-06	1194.9	231.28	5.3701e-06	4.8288e-06	288.03	81.05	63.855	18.635	3.1167e-06	25.744	0.00019482	0.00019104	5.2343e-05	1078	2.1132e-06	2.0967e-06	1167.4	227.5	2.1347e-06	2.1493e-06	283.59	80.235	63.185	18.789	2.1163e-06	25.886	311.954	164.009	197.049	89.461	248.122	268.555	89.311	97.100	287.170	293.680	96.487	103.778	104.071	111.079	178.254	110.183	-8191	255	
20966.316	1	1	0	0	0.16373	0.097871	0.084315	0.28428	0.17779	0.17997	0.24104	0.14292	0.23852	0.18539	0.014783	0.26059	0.13995	0.09803	0.25854	0.13917	-2.0417	-2.1896	-2.6125	-2.7292	-2.4042	-2.6896	-2.7313	-2.4729	-2.8375	-2.3937	-2.9	-2.7542	-2.2292	-2.7021	-2.5625	-2.4583	430.857	376.026	359.598	387.424	257.895	291.558	410.499	405.185	142.984	401.079	345.363	357.004	166.722	319.460	339.290	339.333	0.00055531	0.00067238	4.5259e-05	1097.1	6.4145e-06	2.9934e-06	1193.9	230.64	1.2119e-06	3.8386e-06	287.68	81.154	64.173	18.48	5.2369e-06	25.694	0.00020103	0.00019137	5.3597e-05	1077.3	2.1231e-06	2.0664e-06	1166.8	227.38	2.0495e-06	2.0658e-06	283.44	79.962	63.046	18.667	2.0733e-06	25.816	311.649	164.722	264.851	89.451	237.042	267.849	89.633	97.193	256.869	295.880	96.684	103.758	104.193	110.867	232.082	109.980	-8191	255	
20966.412	1	1	0	0	0.022577	0.13446	0.068469	0.22343	0.10568	0.25532	0.21693	0.1531	0.28965	0.19031	0.1503	0.098806	0.15428	0.074844	0.081244	0.23544	-2.275	-2.2	-2.5062	-3.0021	-2.0958	-2.6583	-2.725	-2.3604	-3.0146	-2.3937	-2.5062	-2.7146	-2.2958	-2.7188	-2.5792	-2.5062	358.308	326.885	378.556	360.341	353.051	110.832	409.912	368.503	346.205	244.463	102.895	432.478	130.225	381.983	224.723	389.028	0.00055134	3.0967e-05	0.00017584	1092.7	2.7208e-06	1.3601e-06	1195.7	230.1	3.7259e-06	4.6507e-08	288.67	80.717	63.679	18.512	1.0291e-06	25.658	0.00019699	0.00019013	5.2752e-05	1075.3	2.0707e-06	2.1018e-06	1167.9	227.14	2.0385e-06	2.1004e-06	283.33	79.904	62.999	18.694	2.0961e-06	25.799	313.087	245.903	157.927	89.402	292.430	406.770	89.330	97.277	262.520	194.177	96.408	103.521	104.133	110.597	310.051	110.470	-8191	255	
20966.508	1	1	0	0	0.20528	0.10276	0.18276	0.30533	0.074616	0.17927	0.12917	0.21368	0.18406	0.11479	0.10437	0.26965	0.1892	0.15762	0.16936	0.12614	-2.4417	-2.45	-2.475	-2.9938	-2.2604	-2.6271	-2.7646	-2.4562	-2.6417	-2.5396	-2.9271	-2.8563	-2.3292	-2.4771	-2.5083	-2.2562	149.052	356.903	381.354	406.145	172.041	342.452	328.878	304.101	211.987	410.157	252.441	389.602	82.817	80.534	272.943	317.915	0.00061807	0.00078017	0.0002269	1098.6	8.4278e-06	2.2994e-06	1197.2	230.01	3.4162e-06	2.596e-06	288.78	81.488	63.862	18.547	6.6987e-06	25.619	0.00020148	0.00019544	5.4356e-05	1078.1	2.1375e-06	2.11e-06	1166.9	226.53	2.1062e-06	2.0785e-06	283.81	80.167	63.216	18.759	2.1599e-06	25.892	309.580	139.807	237.859	89.451	239.072	221.664	89.544	97.086	304.011	236.509	96.483	103.847	104.154	111.082	176.024	109.810	-8191	255	
20966.629	1	1	0	0	0.12441	0.22465	0.05441	0.17263	0.13709	0.19597	0.08299	0.13862	0.16037	0.14563	0.21386	0.070096	0.048862	0.088597	0.16318	0.23673	-2.2979	-2.3729	-2.4667	-2.9792	-2.2896	-2.55	-2.9833	-2.325	-2.7271	-2.4292	-2.4938	-2.9021	-2.4292	-2.5812	-2.5583	-2.3104	251.544	126.329	185.374	393.482	190.491	158.475	322.645	273.176	325.098	302.669	116.828	204.864	235.446	277.159	379.609	100.876	0.00056137	0.00036506	0.00015374	1098.2	1.9146e-06	2.3458e-06	1189.1	230.87	5.8335e-06	1.7066e-06	286.56	81.523	63.638	18.582	5.3193e-06	25.548	0.00020458	0.00019391	5.4241e-05	1076.5	2.1242e-06	2.1015e-06	1167.2	227.07	2.1199e-06	2.1293e-06	282.47	80.279	63.102	18.735	2.1361e-06	25.865	321.545	223.512	107.719	89.464	270.273	238.633	89.317	97.117	240.122	342.113	96.611	103.698	104.275	110.955	194.345	110.475	-8191	255	
20966.725	1	1	0	0	0.074825	0.055529	0.13371	0.28449	0.17512	0.35298	0.20704	0.040114	0.16831	0.12	0.091837	0.21903	0.077005	0.082499	0.20565	0.26826	-2.2687	-2.6167	-2.4188	-2.9333	-2.3	-2.5417	-2.9458	-2.4583	-2.5833	-2.6979	-2.3312	-2.8854	-2.4042	-2.55	-2.8187	-2.2854	258.348	323.037	398.837	354.836	274.262	227.702	394.467	143.127	294.107	231.142	238.281	415.510	374.057	264.131	349.905	386.048	0.0005988	0.00023481	7.8863e-05	1101	6.8593e-06	4.1944e-06	1195.6	229.67	3.8556e-06	6.0667e-06	288.43	80.734	64.39	18.501	4.7508e-06	25.653	0.00020173	0.00019031	5.2842e-05	1077.9	2.0877e-06	2.0956e-06	1168.1	226.9	2.0951e-06	2.154e-06	283.2	80.076	63.389	18.696	2.1441e-06	25.789	310.169	287.774	163.145	89.447	245.813	189.081	89.365	96.711	239.030	222.177	96.179	103.513	104.432	110.837	189.340	109.920	-8191	255	
20966.820	1	1	0	0	0.091827	0.12967	0.13509	0.27984	0.12522	0.096183	0.13368	0.19141	0.33381	0.11771	0.25308	0.19729	0.25115	0.14923	0.21212	0.12248	-2.2104	-2.6875	-2.4208	-2.7604	-2.4854	-2.4146	-3.0146	-2.4083	-2.7146	-2.5542	-2.3146	-2.8854	-2.5563	-2.3417	-2.9167	-2.3479	390.902	128.822	394.252	105.660	355.108	211.911	409.103	299.066	130.200	126.471	90.088	101.573	304.813	380.962	418.279	201.925	0.00060485	0.00057547	0.00017566	1097.8	3.7312e-06	1.2465e-06	1196.9	231.53	3.5695e-06	2.8659e-06	288.04	80.992	63.983	18.615	1.83e-06	25.535	0.00020466	0.00019661	5.4318e-05	1078.1	2.1353e-06	2.1504e-06	1168.3	227.49	2.149e-06	2.1409e-06	283.58	80.162	63.279	18.766	2.1483e-06	25.749	315.500	154.037	187.076	89.353	226.026	251.206	89.389	97.091	431.291	283.097	96.648	103.620	103.628	110.712	263.947	109.820	-8191	255	
#DATA ENDS
