BOXY.EXE: ISS Imagent and Oximeter Data Acquisition Program Version 0.80
Ascii Record File

#ACQ INFORMATION
2  Detector Channels 
16  External MUX Channels 
1  Auxiliary Channels 
5000  Waveform (CCF) Frequency (Hz)
1  Waveforms Skipped 
30  Waveforms Averaged 
1  Cycles Averaged 
16  Acquisitions per Waveform 
10.0806  Updata Rate (Hz) 

#FILE INFORMATION
TRUE -- External MUX Channel results are PARSED.
FALSE -- AC DC and Phase are NOT grouped.
TRUE -- Companion Program Settings File CREATED.
FALSE -- AC data not excluded
FALSE -- DC data not excluded
FALSE -- Phase data not excluded
FALSE -- Auxillary Chn. data not excluded
Tab delimiters

#CALIBRATION STATE
TRUE -- Waveform Calibration Values APPLIED.


#AUX CALIBRATION VALUES
Val Type	aux-1	

Term	1.0000e+00	
Factor	0.0000e+00	


#WF CALIBRATION VALUES
A = Detector Channel
Val Type	A-AC1	A-AC2	A-AC3	A-AC4	A-AC5	A-AC6	A-AC7	A-AC8	A-AC9	A-AC10	A-AC11	A-AC12	A-AC13	A-AC14	A-AC15	A-AC16	A-DC1	A-DC2	A-DC3	A-DC4	A-DC5	A-DC6	A-DC7	A-DC8	A-DC9	A-DC10	A-DC11	A-DC12	A-DC13	A-DC14	A-DC15	A-DC16	A-Ph1	A-Ph2	A-Ph3	A-Ph4	A-Ph5	A-Ph6	A-Ph7	A-Ph8	A-Ph9	A-Ph10	A-Ph11	A-Ph12	A-Ph13	A-Ph14	A-Ph15	A-Ph16	

Term	0.00000e+00	0.00000e+00	0.00000e+00	0.00000e+00	0.00000e+00	0.00000e+00	0.00000e+00	0.00000e+00	0.00000e+00	0.00000e+00	0.00000e+00	0.00000e+00	0.00000e+00	0.00000e+00	0.00000e+00	0.00000e+00	0.00000e+00	0.00000e+00	0.00000e+00	0.00000e+00	0.00000e+00	0.00000e+00	0.00000e+00	0.00000e+00	0.00000e+00	0.00000e+00	0.00000e+00	0.00000e+00	0.00000e+00	0.00000e+00	0.00000e+00	0.00000e+00	0.00000e+00	0.00000e+00	0.00000e+00	0.00000e+00	0.00000e+00	0.00000e+00	0.00000e+00	0.00000e+00	0.00000e+00	0.00000e+00	0.00000e+00	0.00000e+00	0.00000e+00	0.00000e+00	0.00000e+00	0.00000e+00	
Factor	1.00000e+00	1.00000e+00	1.00000e+00	1.00000e+00	1.00000e+00	1.00000e+00	1.00000e+00	1.00000e+00	1.00000e+00	1.00000e+00	1.00000e+00	1.00000e+00	1.00000e+00	1.00000e+00	1.00000e+00	1.00000e+00	1.00000e+00	1.00000e+00	1.00000e+00	1.00000e+00	1.00000e+00	1.00000e+00	1.00000e+00	1.00000e+00	1.00000e+00	1.00000e+00	1.00000e+00	1.00000e+00	1.00000e+00	1.00000e+00	1.00000e+00	1.00000e+00	X	X	X	X	X	X	X	X	X	X	X	X	X	X	X	X	

B = Detector Channel
Val Type	B-AC1	B-AC2	B-AC3	B-AC4	B-AC5	B-AC6	B-AC7	B-AC8	B-AC9	B-AC10	B-AC11	B-AC12	B-AC13	B-AC14	B-AC15	B-AC16	B-DC1	B-DC2	B-DC3	B-DC4	B-DC5	B-DC6	B-DC7	B-DC8	B-DC9	B-DC10	B-DC11	B-DC12	B-DC13	B-DC14	B-DC15	B-DC16	B-Ph1	B-Ph2	B-Ph3	B-Ph4	B-Ph5	B-Ph6	B-Ph7	B-Ph8	B-Ph9	B-Ph10	B-Ph11	B-Ph12	B-Ph13	B-Ph14	B-Ph15	B-Ph16	

Term	0.00000e+00	0.00000e+00	0.00000e+00	0.00000e+00	0.00000e+00	0.00000e+00	0.00000e+00	0.00000e+00	0.00000e+00	0.00000e+00	0.00000e+00	0.00000e+00	0.00000e+00	0.00000e+00	0.00000e+00	0.00000e+00	0.00000e+00	0.00000e+00	0.00000e+00	0.00000e+00	0.00000e+00	0.00000e+00	0.00000e+00	0.00000e+00	0.00000e+00	0.00000e+00	0.00000e+00	0.00000e+00	0.00000e+00	0.00000e+00	0.00000e+00	0.00000e+00	-2.03927e+02	-1.31831e+02	-1.25538e+02	-1.83254e+02	-8.09175e+01	-7.08768e+01	-1.60701e+02	-1.62015e+02	-9.04271e+01	-7.32347e+01	-1.72480e+02	-1.72818e+02	-1.83168e+02	-1.78087e+02	-6.61985e+01	-1.50828e+02	
Factor	3.89286e-05	1.23717e-04	3.30348e-05	1.37229e-01	1.13119e-06	1.25685e-06	1.52528e-01	4.65841e-02	1.24710e-06	1.41356e-06	7.24308e-02	2.45414e-02	2.28361e-02	7.36464e-03	1.53149e-06	1.05710e-02	3.04281e-06	3.29901e-06	9.19863e-07	7.35445e-02	3.56907e-08	3.63287e-08	7.68056e-02	2.49985e-02	3.56985e-08	3.62099e-08	3.76454e-02	1.27287e-02	1.23343e-02	3.98035e-03	3.59260e-08	5.53306e-03	X	X	X	X	X	X	X	X	X	X	X	X	X	X	X	X	



#DISTANCE SETTINGS
A = Detector Channel
A-1	A-2	A-3	A-4	A-5	A-6	A-7	A-8	A-9	A-10	A-11	A-12	A-13	A-14	A-15	A-16	

2.5000e+00	3.0000e+00	2.5000e+00	3.0000e+00	2.0000e+00	3.0000e+00	1.5000e+00	3.0000e+00	3.0000e+00	3.0000e+00	3.0000e+00	3.0000e+00	3.0000e+00	3.0000e+00	1.5000e+00	3.0000e+00	

B = Detector Channel
B-1	B-2	B-3	B-4	B-5	B-6	B-7	B-8	B-9	B-10	B-11	B-12	B-13	B-14	B-15	B-16	

1.0000e+01	1.0000e+01	1.0000e+01	1.4400e+00	1.0000e+01	1.0000e+01	1.5100e+00	1.9400e+00	1.0000e+01	1.0000e+01	1.9900e+00	2.4900e+00	2.4100e+00	2.9000e+00	1.0000e+01	2.9800e+00	




#DATA BEGINS
time	group	step	mark	flag	A-AC1	A-AC2	A-AC3	A-AC4	A-AC5	A-AC6	A-AC7	A-AC8	A-AC9	A-AC10	A-AC11	A-AC12	A-AC13	A-AC14	A-AC15	A-AC16	A-DC1	A-DC2	A-DC3	A-DC4	A-DC5	A-DC6	A-DC7	A-DC8	A-DC9	A-DC10	A-DC11	A-DC12	A-DC13	A-DC14	A-DC15	A-DC16	A-Ph1	A-Ph2	A-Ph3	A-Ph4	A-Ph5	A-Ph6	A-Ph7	A-Ph8	A-Ph9	A-Ph10	A-Ph11	A-Ph12	A-Ph13	A-Ph14	A-Ph15	A-Ph16	B-AC1	B-AC2	B-AC3	B-AC4	B-AC5	B-AC6	B-AC7	B-AC8	B-AC9	B-AC10	B-AC11	B-AC12	B-AC13	B-AC14	B-AC15	B-AC16	B-DC1	B-DC2	B-DC3	B-DC4	B-DC5	B-DC6	B-DC7	B-DC8	B-DC9	B-DC10	B-DC11	B-DC12	B-DC13	B-DC14	B-DC15	B-DC16	B-Ph1	B-Ph2	B-Ph3	B-Ph4	B-Ph5	B-Ph6	B-Ph7	B-Ph8	B-Ph9	B-Ph10	B-Ph11	B-Ph12	B-Ph13	B-Ph14	B-Ph15	B-Ph16	aux-1	digaux	

14290.302	1	1	0	256	0.14821	0.2443	0.31567	0.079616	0.10945	0.1233	0.41234	0.35457	0.11042	0.14996	0.1523	0.028429	0.08087	0.24245	0.31612	0.13404	-2.0521	-2.4771	-2.5687	-2.3396	-2.6271	-2.6083	-2.5583	-2.6583	-2.4188	-2.2917	-2.7771	-2.3521	-2.4792	-2.4042	-2.3208	-2.8083	167.265	76.017	156.296	127.648	-90.646	107.590	186.848	161.894	45.854	60.234	-93.572	145.102	138.343	205.069	-125.750	140.953	0.00031128	0.00021901	7.7827e-05	1141.5	1.1907e-06	3.2862e-06	1251.7	232.82	5.5937e-06	6.5985e-06	296.16	84.612	65.76	19.457	6.0468e-07	26.683	0.00027819	0.00027327	7.5691e-05	1123.4	3.006e-06	3.0645e-06	1234	231.6	3.0599e-06	3.0292e-06	293.61	84.996	65.827	19.641	3.0988e-06	27.164	144.749	-64.881	-47.478	-118.266	26.587	49.552	-118.027	-110.828	-3.452	6.329	-111.082	-104.680	-104.351	-96.928	97.022	-97.905	-8191	255	
14290.399	1	1	0	0	0.10437	0.35066	0.02465	0.1755	0.34094	0.1259	0.48266	0.19639	0.17038	0.10921	0.27541	0.30504	0.19489	0.39003	0.1091	0.2517	-1.8021	-2.3146	-2.5271	-2.4292	-2.5875	-2.6875	-2.4437	-2.8625	-2.3396	-2.3937	-2.7542	-2.35	-2.6792	-2.5521	-2.3542	-2.7708	68.385	148.614	91.068	204.879	153.682	127.253	187.583	231.148	-59.361	-63.572	-113.009	205.482	221.878	-84.753	-22.822	175.955	0.00039812	0.00020016	5.9473e-05	1138.8	3.1348e-06	5.4951e-06	1250.8	233.04	7.4873e-06	6.23e-06	296.6	84.141	66.001	19.263	3.284e-06	26.759	0.00028801	0.00028231	7.7765e-05	1121	3.057e-06	3.0112e-06	1229.9	231.44	3.0677e-06	3.0714e-06	293.78	84.824	65.982	19.597	2.9782e-06	27.264	139.576	-76.671	-4.695	-117.965	-32.218	27.720	-117.870	-110.765	-39.340	9.348	-111.124	-104.756	-103.870	-97.407	-11.316	-97.082	-8191	255	
14290.519	1	1	0	0	0.28239	0.43821	0.1494	0.28144	0.074899	0.086348	0.3305	0.12161	0.10095	0.24495	0.15554	0.22247	0.10055	0.33305	0.16774	0.05628	-1.9854	-2.4417	-2.7812	-2.5333	-2.4792	-2.4542	-2.5042	-2.9313	-2.325	-2.2438	-2.8021	-2.2417	-2.4104	-2.5854	-2.1188	-2.7917	65.257	210.565	9.598	176.078	203.223	24.239	213.726	210.814	213.840	204.928	85.448	-66.469	179.132	210.391	184.308	-63.718	0.00038163	0.00027197	0.00010412	1138.3	3.9717e-06	3.9464e-06	1244.7	233.31	2.139e-06	6.0726e-06	296.18	84.557	66.206	19.353	1.5186e-06	26.762	0.000285	0.00027497	7.6918e-05	1119.8	3.0946e-06	3.0866e-06	1229.2	231.1	3.0343e-06	3.0883e-06	293.46	84.858	65.947	19.611	3.045e-06	27.157	126.869	-27.498	-35.686	-117.814	19.949	25.968	-118.142	-110.866	-42.925	26.477	-111.076	-104.549	-103.931	-97.022	96.662	-97.369	-8191	255	
14290.615	1	1	0	0	0.092001	0.17729	0.1527	0.16256	0.11286	0.082071	0.23312	0.17269	0.21597	0.048275	0.2833	0.2593	0.07992	0.12982	0.12328	0.14541	-1.9062	-2.3896	-2.7146	-2.6125	-2.6208	-2.6417	-2.4458	-2.5667	-2.5812	-2.2333	-2.7583	-2.4208	-2.4938	-2.7521	-1.9833	-2.65	177.832	22.637	-61.939	189.742	-66.584	-15.602	152.686	-81.843	-125.087	-33.544	-17.121	213.974	175.849	-87.393	80.747	166.303	0.00038028	0.00054769	8.4049e-05	1141.2	3.5258e-06	1.6829e-06	1250.9	232.24	4.9953e-06	4.3894e-06	294.93	84.079	65.374	19.297	5.0604e-06	26.726	0.00028619	0.00027798	7.6132e-05	1118.9	3.0467e-06	3.021e-06	1231.2	230.9	3.0252e-06	3.0116e-06	293.41	84.486	65.787	19.607	3.0631e-06	27.12	133.641	-64.729	-16.718	-118.045	-37.586	48.532	-118.031	-110.645	-11.027	29.236	-111.194	-104.982	-104.360	-97.158	57.449	-97.514	-8191	255	
14290.687	1	1	0	0	0.1371	0.14631	0.18443	0.1889	0.27271	0.075154	0.1642	0.45459	0.052499	0.15087	0.1005	0.048033	0.064203	0.18111	0.11386	0.18339	-2.2792	-2.4417	-2.5875	-2.3333	-2.4083	-2.5979	-2.5062	-2.7479	-2.5167	-2.2917	-2.7167	-2.6625	-2.3854	-2.85	-2.2604	-2.6625	-105.048	-52.791	-46.906	151.183	109.360	212.235	-86.948	84.026	-54.192	171.053	-31.809	106.654	112.871	-110.844	-84.430	119.179	0.00033505	0.00023398	2.7636e-05	1140.1	3.3703e-07	7.1851e-07	1248.4	232.32	3.0843e-07	4.2743e-06	295.57	84.379	65.662	19.397	3.496e-06	26.67	0.00028574	0.00027647	7.7679e-05	1120.1	3.0913e-06	3.0074e-06	1231.1	231.87	3.1012e-06	3.0783e-06	293.17	84.725	66.016	19.615	3.0627e-06	27.2	117.308	-42.154	6.926	-118.082	164.796	-102.069	-118.040	-110.929	58.307	-24.391	-110.821	-104.444	-103.962	-96.936	71.043	-97.505	-8191	255	
14290.808	1	1	0	0	0.24935	0.1014	0.1281	0.29067	0.22084	0.1596	0.22382	0.15962	0.089686	0.25041	0.13778	0.22452	0.24967	0.022864	0.13888	0.090171	-2.1292	-2.3187	-2.4729	-2.6083	-2.4104	-2.8	-2.5104	-2.5708	-2.825	-2.3292	-2.7333	-2.6375	-2.2792	-2.8312	-2.375	-2.5792	73.544	229.805	95.528	184.556	191.452	75.356	99.884	159.603	72.387	-104.742	-46.972	-0.253	-122.911	-39.648	-66.073	92.994	0.00036906	0.00051214	4.0596e-05	1141.8	1.8781e-06	1.0862e-06	1250.7	232.11	3.4481e-06	1.5164e-06	296.56	85.079	65.635	19.297	1.37e-06	26.651	0.00028442	0.00028004	7.6736e-05	1120.9	3.0499e-06	3.0931e-06	1230.3	230.95	2.9969e-06	3.029e-06	293.52	84.919	65.822	19.618	3.0558e-06	27.187	130.555	-51.708	-91.946	-118.171	-1.491	46.186	-117.985	-110.929	-30.970	-74.010	-110.812	-104.676	-103.794	-97.573	125.783	-97.641	-8191	255	
14290.902	1	1	0	0	0.066965	0.22537	0.077143	0.23926	0.12873	0.080693	0.28964	0.16454	0.19059	0.093352	0.13733	0.042882	0.028758	0.25994	0.079481	0.19322	-2.15	-2.2812	-2.7833	-2.8167	-2.2604	-2.7229	-2.4667	-2.6042	-2.6583	-2.1688	-2.7208	-2.6333	-2.3187	-2.5854	-2.4771	-2.65	68.914	-13.075	207.279	220.293	-10.990	215.481	178.436	190.274	93.496	2.807	48.403	-72.173	98.684	153.137	187.305	86.547	0.00025488	0.00025696	0.00015457	1139.3	2.6314e-06	3.5671e-06	1246.6	233.5	3.1428e-06	1.3504e-06	294.91	84.48	65.602	19.272	6.6044e-06	26.774	0.00028439	0.00028096	7.8903e-05	1122	3.1708e-06	3.0951e-06	1230.9	231.81	3.0312e-06	3.1208e-06	293.58	84.932	66.018	19.629	3.1056e-06	27.19	119.079	-32.723	-5.694	-118.126	-24.901	73.571	-118.314	-110.835	-33.452	56.860	-110.781	-104.606	-104.340	-97.347	80.933	-97.537	-8191	255	
14290.998	1	1	0	0	0.1325	0.098477	0.14995	0.36539	0.22759	0.05962	0.19906	0.15896	0.16817	0.24438	0.060351	0.10798	0.38227	0.079417	0.20496	0.1164	-2.1479	-2.4125	-2.5208	-2.7646	-2.2521	-2.725	-2.6125	-2.7396	-2.675	-2.2917	-2.6979	-2.5542	-2.3187	-2.6125	-2.4292	-2.45	-113.572	228.099	-69.988	182.905	114.326	222.988	165.556	205.580	109.014	63.410	228.784	-29.648	182.687	165.378	162.095	175.254	0.00035637	0.00042398	5.5547e-05	1141	4.2071e-06	3.7323e-06	1251.2	232.71	6.8004e-06	4.1187e-06	294.87	84.63	65.61	19.396	1.5588e-06	26.611	0.00028448	0.00027499	7.755e-05	1121.3	3.0851e-06	3.0583e-06	1230.8	231.18	3.1372e-06	3.0275e-06	293.56	84.819	65.851	19.603	3.082e-06	27.106	135.140	-43.595	-0.926	-117.781	-3.994	-7.048	-117.922	-110.741	-27.861	-47.764	-110.769	-104.602	-103.992	-96.959	209.906	-96.822	-8191	255	
14291.094	1	1	0	0	0.03014	0.078078	0.070078	0.16085	0.23574	0.17183	0.22472	0.12154	0.04658	0.29487	0.19038	0.10605	0.093842	0.13454	0.2371	0.13324	-2.2729	-2.0812	-2.6021	-2.7125	-1.9854	-2.5312	-2.6708	-2.2833	-2.7562	-2.4771	-2.5104	-2.7458	-2.2938	-2.4958	-2.4229	-2.2771	117.013	210.643	-75.411	105.893	7.407	133.892	160.173	-103.897	108.169	85.133	143.019	16.897	167.421	-74.034	112.858	208.220	0.00036165	0.00047275	0.00019611	1137.8	4.8775e-06	3.1999e-06	1246.5	232.89	2.6404e-06	6.3281e-06	294.11	84.153	65.632	19.099	2.5102e-06	26.65	0.00028708	0.00028204	7.7857e-05	1118.8	3.0855e-06	3.028e-06	1231.1	230.78	3.0466e-06	3.0381e-06	292.57	84.491	65.739	19.462	3.053e-06	27.058	137.618	-24.853	-44.907	-117.972	4.181	-42.153	-117.927	-110.886	2.759	30.848	-111.254	-104.693	-104.147	-97.145	125.678	-97.267	-8191	255	
14291.215	1	1	0	0	0.17605	0.27002	0.13863	0.30344	0.01889	0.10251	0.15528	0.16528	0.21974	0.30093	0.21134	0.11305	0.078987	0.18917	0.38891	0.045842	-2.2313	-2.325	-2.525	-2.8208	-2.4792	-2.5812	-2.7042	-2.4562	-2.9396	-2.3812	-2.4958	-2.7354	-2.4021	-2.5438	-2.475	-2.4	-73.421	17.662	218.291	182.025	108.065	206.368	197.247	149.090	-23.394	182.200	215.345	-65.029	77.930	202.795	-120.072	176.215	0.00033483	0.00036629	0.00010157	1136.5	2.7725e-07	2.8275e-06	1249.1	233.2	3.9052e-07	3.2821e-06	293.47	83.52	65.458	19.167	6.9484e-06	26.325	0.00028973	0.00027448	7.7983e-05	1118.1	3.1437e-06	3.0418e-06	1231.1	230.89	3.1092e-06	3.0661e-06	291.94	84.167	65.636	19.44	3.1483e-06	26.848	130.561	-52.553	-31.900	-117.980	41.261	-28.607	-118.084	-111.078	14.739	29.474	-110.854	-104.676	-103.892	-97.103	7.061	-97.107	-8191	255	
14291.311	1	1	0	0	0.13337	0.25575	0.16202	0.11642	0.063082	0.097979	0.37958	0.090814	0.19563	0.085536	0.24602	0.073144	0.28995	0.48103	0.084437	0.1076	-2.3229	-2.4729	-2.3417	-2.8125	-2.4083	-2.6583	-2.9167	-2.3187	-2.8042	-2.5438	-2.4021	-2.9479	-2.3292	-2.5208	-2.7812	-2.3667	25.594	-16.092	126.316	189.869	-66.391	-123.633	180.214	78.688	-11.278	168.225	171.032	184.867	24.984	188.522	-12.975	182.143	0.0003637	0.00047965	8.6335e-05	1143.5	3.6344e-06	3.9174e-06	1244.5	232.6	1.9437e-06	1.9752e-06	293.83	83.548	65.454	19.098	2.871e-06	26.493	0.00028503	0.00028425	7.7997e-05	1119.7	3.0918e-06	3.0807e-06	1227.6	230.41	3.0482e-06	3.0455e-06	292.28	84.017	65.421	19.374	3.0873e-06	26.923	138.645	-53.646	-83.768	-118.128	38.969	29.878	-118.120	-110.722	-79.970	44.549	-111.047	-104.728	-103.908	-96.824	-50.407	-97.238	-8191	255	
14291.383	1	1	0	0	0.45519	0.12304	0.25444	0.14773	0.15258	0.18624	0.17637	0.13018	0.052502	0.26242	0.25443	0.1142	0.215	0.084476	0.15956	0.13188	-2.4125	-2.4917	-2.3271	-2.8646	-2.3104	-2.3667	-2.95	-2.3917	-2.6917	-2.65	-2.3917	-2.8646	-2.5	-2.5667	-2.55	-2.3375	42.887	25.673	165.341	224.558	-33.419	-23.617	148.502	-59.097	210.303	-25.990	-109.633	-117.797	221.210	181.506	144.584	177.727	0.00028455	0.000426	0.00010257	1135.2	2.7813e-06	2.2903e-06	1241.5	232.54	2.9923e-06	4.5974e-06	294.67	83.758	64.965	19.092	4.2115e-06	26.352	0.00027397	0.00027471	7.7184e-05	1116.6	3.0971e-06	3.0107e-06	1226.4	230.11	3.0489e-06	3.0566e-06	291.27	84.074	65.314	19.325	3.0509e-06	26.799	130.982	-14.598	5.944	-118.206	27.776	1.185	-118.098	-110.854	-33.947	24.812	-110.631	-104.545	-104.370	-97.023	50.285	-97.285	-8191	255	
14291.479	1	1	0	0	0.058622	0.094599	0.10125	0.11886	0.18335	0.17917	0.22887	0.25332	0.28489	0.090419	0.17265	0.11833	0.23192	0.12497	0.21278	0.15243	-2.1771	-2.4583	-2.375	-2.8771	-2.5271	-2.45	-2.7646	-2.3729	-2.7708	-2.6937	-2.3438	-2.8583	-2.5	-2.2333	-2.6708	-2.3208	21.544	156.856	157.728	-83.060	183.205	20.753	90.313	215.243	-7.586	198.596	178.816	-105.232	162.914	-128.647	-114.208	214.104	0.0003726	0.00037299	7.0316e-05	1138.8	3.5034e-06	3.2315e-07	1242.6	231.62	3.5117e-06	3.3098e-06	293.42	83.515	64.914	18.994	4.2083e-06	26.468	0.00028252	0.00027881	7.6065e-05	1117.6	3.09e-06	3.0814e-06	1225	229.62	3.0683e-06	3.0387e-06	291.63	84.036	65.175	19.319	3.151e-06	26.899	123.239	-46.232	-20.890	-118.026	-5.319	69.477	-118.154	-110.874	-39.032	74.183	-110.546	-104.773	-103.572	-96.440	58.876	-97.108	-8191	255	
14291.600	1	1	0	0	0.22642	0.33823	0.10359	0.15929	0.10236	0.13251	0.15317	0.21005	0.29813	0.23546	0.15403	0.31508	0.18505	0.3752	0.1965	0.19535	-2.0458	-2.5312	-2.225	-2.8604	-2.3896	-2.5396	-2.9437	-2.4396	-2.7125	-2.6646	-2.2687	-2.7646	-2.4479	-2.3271	-2.6688	-2.3292	-38.838	225.766	-14.615	216.293	130.431	-118.710	162.850	-117.756	90.899	46.965	96.588	199.452	121.492	214.253	52.247	42.200	0.00033359	0.00036352	6.4901e-05	1130.7	1.0649e-06	1.2713e-06	1243	231.46	1.8717e-06	2.8344e-06	292.56	83.883	65.302	18.91	7.2912e-06	26.407	0.00029113	0.00028356	8.0043e-05	1116.5	3.2023e-06	3.1132e-06	1224.2	229.65	3.1733e-06	3.1213e-06	290.45	84.071	65.192	19.246	3.1232e-06	26.763	140.170	0.914	-45.397	-117.963	58.407	83.274	-118.188	-110.715	-71.867	46.959	-110.974	-104.432	-104.375	-96.768	-6.242	-97.207	-8191	255	
14291.696	1	1	0	0	0.2214	0.12459	0.20128	0.22259	0.31472	0.16214	0.22974	0.063492	0.19702	0.12632	0.13154	0.21008	0.011174	0.31082	0.11706	0.28719	-2.1104	-2.5021	-2.4042	-2.875	-2.3958	-2.2625	-2.7438	-2.4167	-2.6312	-2.6771	-2.3542	-2.7896	-2.6354	-2.4833	-2.775	-2.3792	100.873	86.220	138.153	177.759	226.248	-126.226	106.168	-14.570	147.199	185.218	-121.183	-4.424	63.691	200.097	172.973	-10.455	0.00035998	0.0001942	0.00011002	1135.2	2.5884e-06	2.5572e-06	1239.5	230.52	2.0796e-06	1.5456e-06	291.31	83.054	64.745	18.86	3.556e-06	26.275	0.00029784	0.00028549	7.9574e-05	1114.2	3.1245e-06	3.0771e-06	1223.2	228.91	3.1899e-06	3.1875e-06	289.91	83.541	64.862	19.161	3.128e-06	26.603	118.933	33.498	-18.590	-118.202	12.165	75.857	-118.149	-110.886	8.012	128.301	-110.984	-104.439	-104.316	-96.690	-5.467	-97.306	-8191	255	
14291.792	1	1	0	0	0.46587	0.16096	0.21515	0.21613	0.076101	0.14652	0.29851	0.31847	0.21398	0.19705	0.21752	0.31114	0.16437	0.30441	0.12986	0.14816	-2.0167	-2.6417	-2.1542	-2.7562	-2.4271	-2.2979	-2.9458	-2.4396	-2.1604	-2.6125	-2.2792	-2.5396	-2.5312	-2.2292	-2.7625	-2.5708	-127.899	24.877	-4.456	171.099	28.122	212.098	157.360	214.885	226.346	-57.614	-95.035	-102.606	-79.155	126.351	-53.600	151.518	0.00043557	0.00039573	9.5928e-05	1137.6	3.828e-06	2.6553e-06	1239	229.48	1.6684e-06	6.4958e-06	291.74	83.531	64.736	18.907	7.243e-06	26.185	0.00029212	0.00029283	8.137e-05	1114.7	3.2157e-06	3.1199e-06	1221.2	228.21	3.1659e-06	3.1747e-06	289.6	83.293	65	19.148	3.2601e-06	26.675	147.833	62.284	0.276	-118.183	-35.219	91.273	-117.955	-110.820	-61.576	-14.178	-110.977	-104.221	-103.990	-96.533	-29.843	-96.987	-8191	255	
14291.888	1	1	0	0	0.36377	0.18825	0.28804	0.027691	0.080659	0.084089	0.35382	0.10798	0.31855	0.24201	0.10042	0.15668	0.086287	0.23202	0.16249	0.27454	-1.9021	-2.6396	-2.3063	-2.6688	-2.6396	-2.1146	-2.75	-2.4292	-2.2917	-2.8	-2.4604	-2.4437	-2.8167	-2.3292	-2.8667	-2.5667	39.859	-1.606	-100.986	-68.306	143.824	168.936	187.413	-26.510	33.397	161.555	122.528	-15.463	42.746	181.758	156.832	-91.382	0.00044409	0.00034593	9.2897e-05	1133	3.777e-06	4.497e-06	1239.3	229.35	3.8484e-06	2.8872e-06	290.96	83.265	64.783	18.745	2.7177e-06	26.362	0.00029848	0.00029492	8.2113e-05	1112.9	3.3149e-06	3.3101e-06	1220.6	227.62	3.2327e-06	3.2624e-06	289.08	83.485	64.901	19.11	3.2952e-06	26.71	126.530	-14.618	-91.738	-117.881	55.379	-20.141	-118.123	-110.875	-26.583	86.331	-110.911	-104.751	-103.907	-96.624	15.319	-97.420	-8191	255	
14291.984	1	1	0	0	0.1652	0.28565	0.24318	0.22587	0.14963	0.14776	0.17407	0.034367	0.11122	0.25782	0.1236	0.34505	0.16536	0.068251	0.096682	0.090766	-1.9354	-2.6396	-2.2583	-2.7271	-2.7354	-2.4458	-2.725	-2.7125	-2.3458	-2.7896	-2.5292	-2.4229	-2.7562	-2.2438	-2.475	-2.5646	130.252	-64.185	-120.972	-112.131	186.429	78.997	184.555	-106.269	13.051	208.979	151.923	137.375	88.305	206.470	-95.502	-126.895	0.00042459	0.00018908	6.0875e-05	1130.1	1.3512e-06	3.8209e-06	1237.4	229.45	7.7027e-07	2.6212e-06	290.81	83.071	64.596	18.825	8.6771e-06	26.241	0.00030536	0.00029706	8.2529e-05	1112.8	3.3024e-06	3.3243e-06	1220.7	227.72	3.3383e-06	3.171e-06	288.63	83.558	64.837	19.144	3.3242e-06	26.689	150.022	5.287	-18.217	-117.974	-56.419	-23.152	-118.229	-110.785	13.462	28.477	-110.620	-104.376	-104.015	-96.681	33.290	-97.078	-8191	255	
14292.080	1	1	0	0	0.18022	0.12699	0.09497	0.096364	0.2059	0.076091	0.06396	0.12424	0.17769	0.15009	0.13792	0.18636	0.25371	0.2445	0.19289	0.30184	-1.7125	-2.675	-2.3292	-2.6729	-2.6	-2.1813	-2.6875	-2.5396	-2.3396	-2.775	-2.45	-2.3792	-2.6021	-2.3104	-2.5062	-2.825	211.624	-9.766	17.230	211.075	-95.539	184.494	-0.622	-85.539	-116.085	7.950	-79.850	174.043	-91.872	-80.164	9.512	167.160	0.00032425	0.00033113	2.3477e-05	1131.3	3.5419e-06	5.3536e-06	1239.9	228.49	2.768e-06	1.9417e-06	291.03	82.584	64.252	18.904	2.0413e-06	26.081	0.00029826	0.00029384	8.3727e-05	1113.4	3.2635e-06	3.2544e-06	1221.8	227.3	3.2046e-06	3.1395e-06	288.85	83.312	64.654	19.19	3.2047e-06	26.663	116.137	17.568	217.932	-118.069	52.041	10.570	-118.017	-110.814	26.395	27.995	-110.906	-104.176	-104.066	-96.662	82.459	-96.900	-8191	255	
14292.199	1	1	0	0	0.1361	0.073746	0.10861	0.17488	0.10947	0.2691	0.13983	0.029156	0.1615	0.24485	0.044365	0.14181	0.10554	0.10344	0.30342	0.10397	-1.8125	-2.675	-2.4917	-2.3417	-2.7583	-2.3063	-2.7583	-2.7542	-2.1708	-2.6396	-2.525	-2.4479	-2.9042	-2.2625	-2.4917	-2.8042	72.290	2.367	89.096	226.547	134.169	-6.595	142.519	-25.417	39.799	32.136	101.706	187.508	207.536	4.688	34.677	140.667	0.00041503	0.00023175	0.00014494	1130.3	4.3579e-06	3.0429e-06	1241.9	228.94	1.2208e-06	5.3899e-06	290.88	82.963	64.481	18.909	2.7187e-06	26.155	0.00030207	0.00029609	8.3548e-05	1112.4	3.2241e-06	3.2489e-06	1223.7	227.7	3.278e-06	3.2235e-06	289.14	83.244	64.804	19.203	3.3767e-06	26.639	125.512	2.677	-36.347	-117.991	39.891	30.039	-118.015	-110.926	-85.915	7.987	-110.901	-104.804	-103.996	-96.915	-38.356	-96.988	-8191	255	
14292.295	1	1	0	0	0.2648	0.08626	0.097561	0.46788	0.13578	0.20181	0.30452	0.20283	0.34786	0.068364	0.090391	0.22622	0.19448	0.043164	0.038573	0.23334	-2.0042	-2.8187	-2.5563	-2.4521	-2.6729	-2.4021	-2.6771	-3.0354	-2.2271	-2.5271	-2.7062	-2.4	-2.7208	-2.4458	-2.2208	-2.6875	211.991	198.283	-26.667	225.240	-30.811	-88.183	173.835	59.559	116.229	109.557	105.293	170.102	196.347	-112.772	-90.276	125.900	0.00031775	0.00032187	8.0011e-05	1135.7	2.7818e-06	3.597e-06	1243.2	228.21	2.1032e-06	2.3551e-06	289.54	82.142	64.525	18.828	5.274e-06	26.012	0.00030293	0.00029837	8.5195e-05	1117.6	3.4152e-06	3.4894e-06	1221.5	227.09	3.4248e-06	3.4028e-06	288.03	82.915	64.672	19.16	3.3032e-06	26.597	143.666	-65.408	-109.425	-117.955	125.963	72.868	-117.954	-110.753	-74.979	29.724	-110.734	-104.642	-103.874	-96.782	-5.652	-97.090	-8191	255	
14292.391	1	1	0	0	0.17916	0.21316	0.12147	0.12831	0.17234	0.33587	0.081487	0.16	0.069022	0.11171	0.11598	0.12652	0.18707	0.16281	0.30466	0.16323	-1.8542	-2.4583	-2.55	-2.4729	-2.7438	-2.5354	-2.4042	-2.8604	-2.225	-2.6562	-2.7833	-2.3271	-2.6271	-2.5896	-2.35	-2.8667	93.833	-125.184	-89.809	-90.421	135.948	141.268	215.018	107.141	112.451	80.915	65.247	165.407	179.280	140.258	205.228	-95.101	0.00036574	0.00059117	0.00010284	1130.7	1.5259e-06	2.8869e-06	1236.2	229.09	1.4338e-06	2.591e-06	289.56	82.733	64.541	18.75	2.5329e-06	26.375	0.00030158	0.00029332	8.0821e-05	1111.2	3.299e-06	3.1851e-06	1218.1	226.61	3.1471e-06	3.1252e-06	288.16	83.282	64.778	19.101	3.2565e-06	26.678	157.951	-57.890	-82.345	-117.913	-54.231	69.248	-118.155	-110.710	-64.428	-26.540	-110.713	-104.578	-104.020	-96.205	39.137	-97.229	-8191	255	
14292.488	1	1	0	0	0.0388	0.22864	0.19095	0.18778	0.24272	0.12149	0.36378	0.21968	0.28319	0.11641	0.10749	0.091239	0.15174	0.028001	0.34923	0.14893	-1.8729	-2.4521	-2.7271	-2.4021	-2.7062	-2.575	-2.4854	-2.8312	-2.1458	-2.4813	-2.775	-2.0708	-2.625	-2.7292	-2.1875	-2.7042	-29.792	148.246	120.653	217.979	127.381	89.907	144.593	145.174	8.988	-38.797	148.356	148.600	-86.325	198.052	-18.908	-70.663	0.00043487	0.00025545	6.7652e-05	1131.3	2.3358e-06	3.1047e-06	1235.3	228.69	3.4614e-06	1.9018e-06	290.47	83.099	64.605	18.865	5.5352e-06	26.082	0.0002979	0.00030319	8.4848e-05	1112.3	3.3708e-06	3.4707e-06	1219.5	227.05	3.4968e-06	3.4337e-06	288.78	83.424	64.908	19.137	3.2883e-06	26.61	132.740	-93.587	8.274	-117.882	-0.680	-50.378	-118.141	-110.794	-56.424	-25.431	-110.817	-104.705	-103.934	-96.593	55.606	-97.156	-8191	255	
14292.608	1	1	0	0	0.14252	0.20214	0.37682	0.11238	0.19871	0.32069	0.15949	0.24061	0.027997	0.24633	0.21166	0.04443	0.063736	0.15686	0.26885	0.52957	-2.1521	-2.475	-2.4417	-2.3375	-2.4792	-2.5187	-2.3083	-2.7188	-2.4104	-2.6021	-2.7562	-2.3208	-2.6708	-2.6417	-2.2021	-2.8021	181.660	2.808	124.394	-16.456	110.556	166.631	204.550	126.971	-64.396	195.630	206.679	175.376	126.608	124.741	-72.519	169.736	0.00034204	0.00020285	8.6861e-05	1131.5	4.0792e-06	3.8384e-06	1241.9	228.48	9.4243e-07	1.7067e-06	289.03	82.938	64.194	18.764	5.8187e-06	26.241	0.0002956	0.00029748	8.3274e-05	1112.3	3.2346e-06	3.1503e-06	1222.5	227.28	3.217e-06	3.2318e-06	287.91	83.106	64.386	19.047	3.2545e-06	26.573	136.973	-106.169	16.812	-117.964	8.873	1.941	-118.259	-110.932	107.360	76.698	-110.602	-104.370	-104.139	-96.952	38.450	-97.494	-8191	255	
14292.680	1	1	0	0	0.32317	0.019104	0.098845	0.041154	0.12318	0.037215	0.10449	0.27878	0.26818	0.068992	0.13158	0.11417	0.1651	0.10704	0.077611	0.25728	-1.7979	-2.4479	-2.6792	-2.5833	-2.5958	-2.6271	-2.5396	-2.7104	-2.4813	-2.2667	-2.8417	-2.4062	-2.5542	-2.8083	-2.2708	-2.7854	67.068	150.101	134.223	-74.654	153.443	8.777	130.964	-122.630	-64.422	158.972	117.865	196.151	23.953	43.915	82.007	133.835	0.00030368	0.00036783	8.4127e-05	1133.7	3.9345e-06	3.8156e-06	1230.5	227.03	3.0903e-06	5.9146e-06	287.9	82.693	64.302	18.732	2.5957e-06	25.826	0.00030542	0.0003156	8.4804e-05	1111.5	3.4607e-06	3.4418e-06	1217.3	226.54	3.4497e-06	3.4232e-06	287.65	83.112	64.502	19.097	3.5042e-06	26.559	126.009	4.977	-29.623	-118.172	-23.389	37.799	-117.955	-110.630	-68.498	44.519	-110.785	-104.244	-104.322	-96.524	-80.507	-97.139	-8191	255	
14292.776	1	1	0	0	0.32813	0.11506	0.21429	0.30547	0.14851	0.15035	0.43349	0.1143	0.11255	0.14032	0.16278	0.31876	0.2741	0.12314	0.2476	0.028437	-1.9458	-2.3521	-2.5542	-2.6437	-2.525	-2.7812	-2.45	-2.6521	-2.5938	-2.3208	-2.9083	-2.425	-2.4896	-2.7562	-2.1896	-2.475	26.406	83.987	-125.811	200.422	2.439	211.679	181.852	211.204	96.281	-96.851	192.635	122.274	-115.129	109.239	99.996	14.696	0.00028408	0.00044535	5.4736e-05	1130	5.1337e-06	3.1178e-06	1239.1	227.73	2.0538e-06	3.6221e-06	289.61	82.078	64.478	18.834	6.8031e-06	25.935	0.00032157	0.00032244	8.8391e-05	1114	3.604e-06	3.5936e-06	1219.1	226.74	3.5878e-06	3.5138e-06	287.63	82.793	64.591	19.112	3.5975e-06	26.567	124.484	-59.712	-24.358	-118.054	48.190	-21.014	-118.203	-110.679	19.984	-64.261	-110.833	-104.702	-104.161	-96.713	9.530	-97.016	-8191	255	
14292.897	1	1	0	0	0.20123	0.030099	0.12335	0.22651	0.1685	0.060906	0.28286	0.25293	0.24056	0.11937	0.30125	0.1908	0.13221	0.22458	0.15828	0.20901	-2.0583	-2.1312	-2.7083	-2.5542	-2.3667	-2.7708	-2.4437	-2.525	-2.4625	-2.2271	-2.7438	-2.5312	-2.2771	-2.6292	-2.1271	-2.7062	-88.474	54.509	161.966	184.849	-115.253	-70.240	175.741	-94.594	17.634	226.753	149.775	149.148	191.370	59.904	132.151	4.630	0.0003093	0.00041441	8.8729e-05	1132.7	4.0824e-06	4.3853e-06	1234.5	228.27	3.5078e-06	3.7933e-06	290.45	82.252	64.295	18.951	6.659e-06	26.314	0.00033142	0.00032537	9.0804e-05	1114.1	3.6544e-06	3.543e-06	1220	226.89	3.5844e-06	3.5019e-06	288.56	83.136	64.763	19.166	3.4353e-06	26.675	137.994	-32.545	-43.985	-118.203	68.206	31.017	-117.989	-110.828	-15.808	-18.621	-110.986	-104.508	-104.165	-96.857	23.286	-97.324	-8191	255	
14292.991	1	1	0	0	0.17092	0.10233	0.12553	0.20223	0.25339	0.24569	0.2528	0.39297	0.25115	0.13285	0.25986	0.15004	0.13377	0.080711	0.12491	0.16481	-2.2562	-2.0354	-2.6917	-2.4792	-2.0646	-2.6875	-2.4625	-2.6375	-2.8042	-2.3375	-2.6854	-2.5708	-2.3354	-2.7687	-2.4125	-2.5729	49.826	119.938	108.841	206.990	202.624	-97.265	82.303	138.838	-118.011	140.403	203.755	115.996	109.797	-25.531	-78.634	-16.359	0.00035244	0.00038742	0.00019847	1130.6	2.5248e-07	4.7278e-06	1238	228.57	3.7574e-06	4.6863e-06	289.07	83.007	64.575	18.836	7.5813e-06	26.159	0.00031234	0.00031636	8.5375e-05	1113.9	3.4394e-06	3.3388e-06	1222	227.75	3.3929e-06	3.3782e-06	288.26	83.306	64.829	19.136	3.3851e-06	26.622	137.303	-62.611	-34.538	-118.158	-124.153	74.643	-118.119	-110.770	-45.767	-5.108	-110.724	-104.507	-104.216	-96.882	30.083	-97.159	-8191	255	
14293.087	1	1	0	0	0.24925	0.2407	0.26709	0.10688	0.097224	0.32941	0.25982	0.043033	0.13241	0.27291	0.13518	0.045277	0.038546	0.084745	0.21914	0.080444	-2.3125	-2.4083	-2.7	-2.5854	-2.3208	-2.8521	-2.5833	-2.5229	-2.7542	-2.2979	-2.8125	-2.5333	-2.4562	-2.7125	-2.3021	-2.4104	113.435	154.438	6.992	139.881	210.495	197.231	186.033	-63.565	141.899	169.720	200.561	-100.709	19.659	79.488	208.575	-6.223	0.00023116	0.00030716	0.00010345	1132	4.6289e-06	1.6175e-06	1243.5	227.62	1.7349e-06	4.0302e-06	289.79	82.362	64.603	18.802	2.3422e-06	26.229	0.0003095	0.00031066	8.8025e-05	1113.5	3.4369e-06	3.379e-06	1221.6	226.97	3.2791e-06	3.2465e-06	288.26	83.108	64.801	19.165	3.3238e-06	26.753	123.989	-111.739	-14.874	-118.045	3.413	149.348	-118.021	-110.609	-4.209	54.183	-110.824	-104.561	-103.979	-96.553	40.922	-97.349	-8191	255	
14293.183	1	1	0	0	0.067894	0.099878	0.11095	0.21596	0.16914	0.33683	0.16739	0.16051	0.14104	0.2507	0.15986	0.25819	0.31947	0.17133	0.15227	0.21852	-2.0938	-2.3208	-2.5979	-2.6458	-2.2458	-2.85	-2.6667	-2.4688	-2.5958	-2.2812	-2.5854	-2.6292	-2.2479	-2.7958	-2.3729	-2.3542	200.865	229.472	78.527	178.162	20.806	-55.470	218.399	133.328	212.876	158.975	113.493	188.391	-77.071	111.753	187.285	-73.016	0.0004285	0.00051065	4.6114e-05	1132.6	4.9302e-06	3.8251e-06	1241.3	227.64	4.7255e-06	2.7253e-06	288.69	82.526	64.814	18.862	2.681e-06	25.868	0.00030939	0.0003016	8.4957e-05	1113.7	3.3423e-06	3.364e-06	1220.6	226.99	3.3769e-06	3.3252e-06	288.08	83.222	64.842	19.162	3.3354e-06	26.558	138.521	-39.670	31.378	-118.005	-7.149	64.196	-118.155	-110.939	-19.820	133.922	-110.777	-104.551	-104.189	-97.058	-10.964	-96.899	-8191	255	
14293.280	1	1	0	0	0.31835	0.22065	0.1013	0.2105	0.10122	0.42837	0.17948	0.35219	0.1451	0.14998	0.10717	0.48501	0.078176	0.10671	0.36172	0.14604	-2.3875	-2.2604	-2.5229	-2.7125	-2.2542	-2.4938	-2.5521	-2.2875	-2.6667	-2.5104	-2.6688	-2.5958	-2.2583	-2.6833	-2.3875	-2.1813	-78.237	-81.483	-71.805	-122.722	86.322	64.048	149.877	154.717	12.429	36.362	-87.279	212.547	-76.192	149.945	171.697	186.567	0.00037484	0.00035153	0.0001045	1132.7	3.2656e-06	3.8742e-06	1234.3	230.25	3.4718e-06	3.9379e-06	288.7	82.581	64.771	18.866	5.9473e-06	26.106	0.00031198	0.00031662	8.8253e-05	1113.6	3.5094e-06	3.4862e-06	1219.1	227.94	3.5708e-06	3.5763e-06	288.1	83.097	64.963	19.178	3.6391e-06	26.626	140.237	-92.822	-38.443	-118.094	-30.564	49.279	-118.222	-110.758	-25.168	39.978	-110.718	-104.582	-104.013	-96.740	7.829	-97.242	-8191	255	
14293.376	1	1	0	0	0.15952	0.11973	0.067922	0.18563	0.063415	0.14922	0.12468	0.29407	0.21853	0.067377	0.23119	0.21366	0.16484	0.2907	0.078262	0.13928	-2.225	-2.2542	-2.2021	-2.9167	-2.2792	-2.7292	-2.7	-2.35	-2.8167	-2.5583	-2.4521	-2.6958	-2.4521	-2.6896	-2.6	-2.2396	64.806	209.004	33.280	229.507	201.599	71.530	89.108	178.309	83.111	-119.179	213.482	-124.503	131.944	-73.894	16.302	114.283	0.00035226	0.00035232	0.00013445	1134.7	6.7243e-07	1.1599e-06	1234.2	227.85	2.9399e-06	3.2246e-06	289.85	82.727	64.096	18.771	2.7121e-06	26.134	0.00033693	0.00033406	9.0449e-05	1113.9	3.5952e-06	3.5748e-06	1220.3	227.12	3.6264e-06	3.579e-06	288.61	83.076	64.795	19.131	3.5331e-06	26.645	141.589	-41.789	-48.245	-117.989	110.218	-32.698	-117.867	-110.842	-25.293	54.545	-110.766	-104.565	-103.957	-96.444	202.702	-96.691	-8191	255	
14293.472	1	1	0	0	0.13071	0.15117	0.2202	0.084183	0.24021	0.21845	0.25042	0.18252	0.13189	0.19199	0.28001	0.27748	0.16281	0.32547	0.17057	0.28849	-2.3979	-2.4229	-2.3375	-2.8312	-2.3792	-2.4083	-2.7854	-2.3542	-2.7958	-2.5396	-2.4979	-2.7354	-2.3	-2.6375	-2.6792	-2.3521	172.596	227.336	31.471	-127.786	-83.433	-58.686	131.246	130.716	141.914	88.393	176.384	196.901	176.219	-91.388	6.581	146.740	0.00039782	0.00032971	0.00015525	1130.5	5.385e-06	2.7726e-06	1237.9	228.48	2.3836e-06	3.0199e-06	289.61	82.381	64.498	18.8	7.8557e-06	26.155	0.00031928	0.00032867	9.0037e-05	1113.8	3.4818e-06	3.5264e-06	1222	227.35	3.5228e-06	3.5473e-06	288.61	83.014	64.904	19.133	3.5659e-06	26.688	148.378	-85.596	-64.849	-117.983	31.429	13.319	-118.291	-110.957	-110.509	96.982	-110.965	-104.594	-104.264	-96.736	41.803	-97.431	-8191	255	
14293.568	1	1	0	0	0.26332	0.19309	0.27694	0.33685	0.18717	0.15368	0.29934	0.14349	0.22871	0.24101	0.039363	0.22627	0.33007	0.06983	0.30974	0.10665	-2	-2.575	-2.3583	-2.8521	-2.4354	-2.6021	-3.0583	-2.6042	-2.4229	-2.6083	-2.5604	-2.7687	-2.3521	-2.5958	-2.6458	-2.3542	42.207	80.991	4.315	178.220	28.836	102.343	194.112	90.428	58.019	224.961	-124.682	-107.741	202.346	175.868	66.452	135.710	0.0003638	0.00031373	0.00010876	1132.1	3.676e-06	4.7055e-06	1238.1	227.99	2.6332e-06	5.2182e-06	289.3	82.653	64.573	18.892	3.2812e-06	26.171	0.00032492	0.00031397	8.8468e-05	1114.7	3.4807e-06	3.4658e-06	1222.5	227.39	3.4703e-06	3.4626e-06	288.86	83.183	64.818	19.208	3.3271e-06	26.667	138.456	-19.967	-1.459	-118.243	-25.767	78.815	-118.098	-110.749	-91.685	-32.906	-110.607	-104.971	-103.929	-96.619	-12.259	-97.066	-8191	255	
14293.689	1	1	0	0	0.13445	0.25126	0.11294	0.42204	0.34245	0.2089	0.3405	0.30453	0.056348	0.2111	0.11085	0.31542	0.17035	0.32364	0.059647	0.12211	-2.2229	-2.5625	-2.1271	-2.7917	-2.5917	-2.3187	-2.9208	-2.4104	-2.6167	-2.65	-2.375	-2.8187	-2.5583	-2.3979	-2.7583	-2.4875	-50.396	-112.004	68.299	194.598	25.855	82.841	166.007	-59.042	39.211	-58.549	77.564	177.876	185.568	190.136	-88.048	157.095	0.00040805	0.00058075	2.1294e-05	1134.1	3.263e-06	5.1104e-06	1242.6	229.2	3.632e-06	3.576e-06	289.8	82.599	64.394	18.83	3.4026e-06	26.315	0.00030966	0.00030679	8.6344e-05	1115.1	3.374e-06	3.3783e-06	1222	227.41	3.3565e-06	3.3515e-06	288.76	83.297	64.873	19.234	3.3076e-06	26.743	124.334	-24.408	-16.985	-117.720	-112.330	58.748	-117.870	-110.813	24.123	34.437	-110.729	-104.394	-103.932	-96.469	-15.847	-96.836	-8191	255	
14293.785	1	1	0	0	0.026323	0.45484	0.12937	0.16542	0.067644	0.044318	0.29029	0.23453	0.21515	0.29836	0.10716	0.034761	0.25409	0.24709	0.16517	0.2027	-2.0333	-2.3688	-2.225	-2.9188	-2.4167	-2.5187	-2.9562	-2.3354	-2.4292	-2.4771	-2.35	-2.8271	-2.6	-2.4562	-2.7667	-2.4188	96.564	-39.017	131.887	-128.384	169.040	-69.863	141.622	-117.565	-39.285	-45.694	197.574	200.275	198.646	121.442	20.808	-15.094	0.00046797	0.00048168	6.1424e-05	1132.8	2.0145e-06	2.2649e-06	1239.9	229.41	3.1373e-07	4.1797e-06	292.63	83.228	64.518	18.837	4.3378e-06	26.149	0.00030729	0.00030168	8.397e-05	1114.4	3.2317e-06	3.2615e-06	1220.9	227.95	3.268e-06	3.1422e-06	289.64	83.472	64.73	19.159	3.1289e-06	26.691	130.715	13.944	-36.545	-118.127	-38.472	-32.315	-118.166	-110.688	88.109	67.222	-111.070	-104.459	-103.988	-96.688	57.060	-96.882	-8191	255	
14293.881	1	1	0	0	0.16326	0.055143	0.26452	0.17702	0.25621	0.34352	0.13451	0.18067	0.029533	0.23645	0.072055	0.14428	0.10656	0.097547	0.066788	0.26353	-1.9458	-2.6646	-2.4125	-2.8146	-2.4792	-2.5812	-2.85	-2.5167	-2.5833	-2.6917	-2.4188	-3.0062	-2.6292	-2.2396	-2.7125	-2.3667	-74.904	74.066	-58.486	223.710	-103.019	96.236	146.570	168.172	175.385	-61.937	90.257	-66.395	83.357	99.701	83.315	136.794	0.00032952	0.00059001	0.00013334	1133.7	1.5463e-06	2.4273e-06	1237.7	229.79	2.9195e-06	1.1433e-06	291.53	82.363	64.698	18.937	4.9561e-06	26.421	0.00029386	0.00028729	8.0218e-05	1113.4	3.207e-06	3.195e-06	1220.2	227.89	3.1449e-06	3.0961e-06	289.26	83.084	65.058	19.206	3.1113e-06	26.735	122.338	-40.081	-94.718	-117.893	-2.708	11.846	-118.050	-110.925	-0.573	-50.339	-110.952	-104.316	-103.951	-96.382	-16.234	-97.121	-8191	255	
14293.977	1	1	0	0	0.12497	0.21861	0.30598	0.059321	0.30135	0.35887	0.20936	0.25653	0.34775	0.26269	0.19294	0.11551	0.25139	0.16459	0.21711	0.35527	-1.975	-2.5938	-2.4167	-2.6958	-2.6333	-2.3812	-2.8042	-2.7271	-2.35	-2.6958	-2.3187	-2.7917	-2.5458	-2.4208	-2.6188	-2.5146	125.742	92.830	199.976	138.769	-12.897	-115.731	216.648	128.418	159.644	230.363	156.475	-104.788	112.148	77.285	-14.141	29.160	0.00035362	0.00041121	0.00013725	1134.6	5.7768e-07	2.6066e-06	1246.2	229.09	2.1919e-06	1.4164e-06	290.09	83.823	64.793	19.162	2.2453e-06	26.418	0.00028345	0.00027169	7.7903e-05	1114.6	3.1044e-06	3.0923e-06	1223.1	227.67	3.1236e-06	3.0479e-06	288.8	83.64	64.845	19.29	3.009e-06	26.738	134.198	-56.898	25.596	-118.057	30.377	43.381	-117.799	-111.000	-51.153	103.273	-110.885	-104.608	-104.082	-96.843	14.989	-97.477	-8191	255	
14294.072	1	1	0	0	0.19299	0.22569	0.11226	0.19884	0.13874	0.083703	0.15423	0.15613	0.084895	0.14587	0.064238	0.10045	0.13168	0.17167	0.081272	0.20336	-1.8146	-2.7854	-2.45	-2.7125	-2.5708	-2.3063	-3.0042	-2.5938	-2.5458	-2.7687	-2.5083	-2.5229	-2.7521	-2.3604	-2.6979	-2.7313	182.244	25.414	28.656	114.800	78.579	-107.301	156.301	159.745	-22.855	0.789	-107.546	217.584	188.405	144.016	1.586	147.653	0.0002708	0.0004098	8.2447e-05	1130.7	2.0151e-06	2.0027e-06	1234	229.2	9.1093e-07	1.8676e-06	292.36	83.528	64.394	18.917	4.3824e-06	26.32	0.00027401	0.000263	7.2936e-05	1111.5	2.9072e-06	2.9116e-06	1219.1	227.58	2.8793e-06	2.8154e-06	289.37	83.571	64.774	19.178	2.9146e-06	26.764	130.549	-43.531	-10.219	-118.089	16.801	-98.118	-117.960	-110.493	9.753	28.408	-110.808	-104.599	-104.215	-96.828	9.378	-97.114	-8191	255	
14294.168	1	1	0	0	0.15828	0.048659	0.17617	0.35898	0.10159	0.28204	0.20126	0.22732	0.25014	0.18219	0.12779	0.11786	0.2635	0.19237	0.11025	0.17378	-1.7229	-2.5333	-2.3021	-2.6521	-2.7146	-2.4333	-2.7354	-2.6479	-2.3375	-2.6729	-2.4188	-2.6958	-2.725	-2.1688	-2.7208	-2.6646	-112.898	81.709	74.474	207.207	143.660	-19.729	220.738	172.970	170.228	-52.001	-53.379	59.230	122.867	141.284	-82.967	174.349	0.00020814	0.00042756	9.0777e-05	1132.4	4.1494e-06	2.7711e-06	1239.3	230.21	5.9688e-06	1.6598e-06	290.03	83.146	64.615	18.851	4.4627e-06	26.247	0.00026624	0.00026477	7.4152e-05	1111.1	2.9897e-06	2.9102e-06	1219.3	228.03	2.9481e-06	2.9762e-06	288.67	83.485	64.775	19.179	2.8999e-06	26.73	135.627	-56.025	-74.443	-118.160	19.685	-9.132	-117.912	-110.888	141.543	-52.361	-110.747	-104.571	-104.264	-96.946	23.326	-97.416	-8191	255	
14294.288	1	1	0	0	0.088551	0.17904	0.3587	0.29102	0.2089	0.10156	0.12647	0.29678	0.17312	0.20008	0.081494	0.31825	0.054468	0.1209	0.22064	0.23318	-1.7292	-2.7833	-2.3812	-2.5062	-2.7188	-2.4188	-2.7542	-2.7396	-2.3937	-2.7542	-2.6063	-2.475	-2.6875	-2.3896	-2.5687	-2.7708	-96.581	-126.057	126.788	151.508	-29.288	77.081	175.611	185.519	114.297	-113.478	-92.891	202.133	-3.952	83.142	-115.777	-30.263	0.00035238	0.00029826	0.00011085	1127.4	1.7176e-06	1.1422e-06	1234.7	229.23	3.613e-06	2.6548e-06	291.29	83.202	64.876	18.898	3.7796e-06	26.321	0.00026862	0.00026918	7.2315e-05	1110.9	2.9669e-06	2.9717e-06	1217.8	227.69	2.9839e-06	2.9641e-06	288.28	83.448	64.778	19.206	2.9638e-06	26.703	132.153	-104.570	-39.153	-117.816	-11.831	58.355	-118.111	-110.837	-9.472	57.492	-110.894	-104.739	-103.924	-96.776	115.617	-97.212	-8191	255	
14294.384	1	1	0	0	0.15082	0.25396	0.16824	0.26671	0.04443	0.080389	0.36527	0.094929	0.026348	0.058119	0.023809	0.13167	0.048299	0.10137	0.14133	0.1781	-1.8583	-2.6771	-2.3479	-2.5563	-2.7229	-2.5396	-2.8042	-2.7729	-2.0979	-2.8083	-2.5438	-2.4917	-2.7896	-2.4604	-2.5062	-2.7083	117.682	-92.339	102.247	202.029	-99.989	60.833	124.814	196.318	188.509	-117.697	-119.330	136.062	-61.469	217.969	46.029	149.104	0.00038661	6.9451e-05	9.0257e-05	1129.3	3.5859e-06	3.5536e-06	1237.1	229.72	1.9133e-06	4.2462e-06	289.49	83.115	64.538	18.965	1.5446e-06	26.603	0.00027439	0.0002738	7.5942e-05	1111.4	3.0508e-06	3.054e-06	1219.5	227.87	3.044e-06	2.9344e-06	288.2	83.457	64.913	19.225	2.9101e-06	26.808	130.387	14.452	5.919	-117.914	-19.363	32.923	-118.054	-111.027	-11.196	-1.035	-110.652	-104.325	-103.998	-97.033	145.557	-97.048	-8191	255	
14294.481	1	1	0	0	0.10055	0.09074	0.07469	0.11765	0.21916	0.14431	0.13718	0.22691	0.2001	0.24424	0.18619	0.11307	0.25974	0.21488	0.17426	0.12881	-1.875	-2.5375	-2.4562	-2.4938	-2.7167	-2.3729	-2.6229	-2.7083	-2.275	-2.8812	-2.8604	-2.3688	-2.8417	-2.4667	-2.2958	-2.8688	189.298	124.606	190.093	201.831	142.973	222.882	78.980	190.178	161.703	-105.373	227.180	175.306	229.295	-92.534	21.200	136.952	0.00040091	0.00034258	7.3266e-05	1130	3.0244e-06	4.4067e-06	1235	228.95	1.0247e-06	5.9541e-06	290.64	83.398	65.012	18.903	3.9682e-06	26.383	0.00027667	0.00026887	7.5672e-05	1112.2	2.9466e-06	2.9097e-06	1219.7	227.84	2.9081e-06	2.9077e-06	289.13	83.549	64.948	19.244	2.9059e-06	26.784	137.481	-33.666	-87.853	-118.164	-3.593	-1.380	-118.275	-110.573	131.063	-10.184	-111.134	-104.450	-104.173	-96.735	-12.380	-97.162	-8191	255	
14294.552	1	1	0	0	0.14605	0.23496	0.1139	0.25699	0.17397	0.089949	0.29457	0.15094	0.24634	0.099275	0.13477	0.17197	0.16076	0.31628	0.062761	0.084255	-1.7188	-2.5458	-2.6854	-2.4167	-2.7792	-2.4167	-2.6917	-2.6896	-2.3125	-2.4833	-2.7917	-2.0833	-2.8708	-2.6042	-2.175	-2.8646	-30.447	147.706	196.493	177.490	223.014	216.534	135.974	62.115	-91.279	122.474	193.343	8.921	180.513	170.277	-9.419	-110.002	0.00031511	0.00010852	8.0304e-05	1131.6	3.2392e-06	2.7206e-06	1238.4	229.72	2.7335e-06	4.8962e-06	290.69	83.518	64.833	18.898	6.6138e-06	26.317	0.00026877	0.00026205	7.379e-05	1112.1	2.9496e-06	2.9005e-06	1220.2	227.77	2.947e-06	2.9838e-06	289.34	83.543	64.904	19.228	2.9195e-06	26.698	120.403	178.610	-50.567	-117.928	12.269	13.547	-117.960	-110.708	5.475	51.924	-110.560	-104.391	-104.477	-96.458	14.622	-97.225	-8191	255	
14294.673	1	1	0	0	0.11721	0.13545	0.23485	0.49822	0.17284	0.11673	0.31988	0.13691	0.25652	0.11831	0.15655	0.28452	0.095394	0.0282	0.24707	0.1095	-1.8833	-2.3354	-2.5917	-2.2979	-2.5812	-2.4125	-2.3917	-2.7625	-2.4333	-2.5542	-2.825	-2.4188	-2.6833	-2.6354	-2.3292	-2.675	90.498	-7.766	96.056	209.155	114.029	194.179	179.314	108.783	-4.122	205.376	63.380	137.437	184.550	72.228	25.006	151.351	0.00027161	0.00012651	0.00013452	1130.8	2.7756e-06	3.1675e-06	1238.8	228.57	5.0427e-06	5.1232e-06	289.59	83.65	64.439	18.884	2.1666e-06	26.245	0.00027104	0.00026967	7.3748e-05	1112.9	2.9287e-06	2.9587e-06	1220	227.54	2.958e-06	2.9351e-06	288.46	83.622	64.816	19.164	2.951e-06	26.661	123.499	-32.349	-13.041	-117.938	-5.959	-2.348	-118.119	-110.693	-39.198	-23.466	-110.751	-104.731	-103.983	-96.693	-30.547	-97.336	-8191	255	
14294.769	1	1	0	0	0.094746	0.13388	0.10265	0.25249	0.12553	0.15527	0.24381	0.36008	0.22307	0.30471	0.22034	0.11955	0.088653	0.1267	0.12724	0.083619	-1.9479	-2.4562	-2.7188	-2.4104	-2.5812	-2.5312	-2.4333	-2.6604	-2.5146	-2.4625	-2.8604	-2.2646	-2.6979	-2.8063	-2.3125	-2.7417	-34.636	28.298	222.555	194.390	183.387	-38.891	162.954	170.124	-25.394	-33.108	228.675	-48.367	134.379	151.493	204.000	136.081	0.00034011	0.00037895	4.3477e-05	1130.8	2.9874e-06	3.6157e-06	1234.6	228.91	1.2769e-06	4.7391e-06	291.34	83.661	64.702	18.897	1.6952e-06	26.213	0.0002815	0.0002808	7.6251e-05	1110.2	3.071e-06	3.0171e-06	1217.3	227.37	2.9768e-06	2.9929e-06	289.78	83.626	64.908	19.181	2.941e-06	26.687	152.056	-57.471	-9.825	-118.036	29.015	36.177	-118.238	-110.885	-80.492	8.526	-110.983	-104.405	-104.117	-96.688	-68.407	-97.039	-8191	255	
14294.865	1	1	0	0	0.029883	0.12084	0.33319	0.26134	0.24735	0.11129	0.22839	0.36529	0.14174	0.23188	0.18715	0.015995	0.36933	0.33878	0.19135	0.057003	-2.0563	-2.3542	-2.7333	-2.5792	-2.5979	-2.6667	-2.4958	-2.6729	-2.5729	-2.3229	-2.8708	-2.6354	-2.4958	-2.7646	-2.4646	-2.8458	78.385	144.188	109.418	158.546	-88.464	169.641	187.127	149.290	10.422	-39.450	163.575	129.180	215.546	188.162	11.967	20.982	0.00045669	0.00040493	5.1292e-05	1135.1	2.9717e-06	5.5797e-06	1228.7	229.23	2.6461e-06	3.2069e-06	291.37	82.731	64.731	18.911	3.8581e-06	26.301	0.00027993	0.00027389	7.5475e-05	1111.9	3.0497e-06	3.0148e-06	1216.7	227.55	3.0296e-06	2.933e-06	289.3	83.246	64.849	19.212	3.0346e-06	26.7	113.141	-50.313	12.409	-117.917	-18.853	35.727	-118.163	-110.687	18.099	10.089	-110.884	-104.431	-103.550	-96.883	-36.843	-96.798	-8191	255	
14294.961	1	1	0	0	0.20837	0.071782	0.055004	0.26748	0.28606	0.23865	0.26268	0.21905	0.1079	0.16192	0.10286	0.082926	0.09304	0.030821	0.13816	0.26502	-2.0583	-2.5875	-2.8833	-2.5938	-2.5938	-2.6729	-2.5812	-2.8229	-2.6521	-2.4333	-2.8354	-2.4938	-2.7292	-2.7979	-2.4208	-2.6292	45.458	-114.546	7.067	174.240	-78.130	174.280	210.987	148.940	109.699	-8.995	-24.873	165.823	68.190	31.819	-51.429	147.298	0.0003254	0.00024317	5.1473e-05	1132	3.2094e-06	4.0447e-06	1238.3	229.59	4.9007e-07	3.4839e-06	289.59	83.176	64.004	18.976	4.9764e-06	26.327	0.00027613	0.00028134	7.4883e-05	1112.9	3.0374e-06	2.988e-06	1221.5	227.6	3.0232e-06	3.0681e-06	288.43	83.407	64.7	19.198	3.137e-06	26.647	144.891	155.214	-45.850	-117.994	-1.214	21.162	-118.096	-110.700	201.355	38.847	-111.066	-104.325	-104.105	-97.161	5.631	-96.754	-8191	255	
14295.080	1	1	0	0	0.36362	0.15431	0.20512	0.41082	0.073566	0.14611	0.2556	0.029105	0.21076	0.35711	0.21048	0.17014	0.1984	0.20405	0.12722	0.15779	-1.975	-2.2646	-2.6458	-2.5604	-2.4271	-2.9104	-2.4875	-2.8063	-2.4854	-2.4313	-2.8312	-2.6667	-2.2896	-2.9188	-2.375	-2.6542	139.889	96.694	177.789	171.122	104.845	-119.168	202.597	5.763	120.503	28.209	-104.097	-81.324	-122.377	184.705	100.897	217.045	0.00033049	0.0002422	0.0001299	1133.5	6.8427e-07	3.9064e-06	1240.8	229.93	5.8867e-06	2.9625e-06	291.21	83.061	64.019	18.903	3.6492e-06	26.184	0.00029111	0.00027745	7.847e-05	1111.2	3.156e-06	3.0961e-06	1219	228.23	3.1505e-06	3.0895e-06	288.95	83.511	64.703	19.15	3.1015e-06	26.715	138.181	-74.938	-43.751	-118.007	128.357	-4.680	-118.167	-110.637	46.528	-83.554	-111.106	-104.448	-104.255	-96.755	-1.764	-97.244	-8191	255	
14295.152	1	1	0	0	0.22847	0.2472	0.11996	0.2855	0.11654	0.078158	0.29344	0.28488	0.047538	0.085746	0.15384	0.16733	0.22739	0.10637	0.1682	0.33458	-2.3563	-2.2354	-2.7	-2.7042	-2.5354	-2.7313	-2.7021	-2.6	-2.5729	-2.3021	-2.825	-2.6667	-2.2875	-2.8417	-2.225	-2.5396	172.331	18.583	145.859	-123.312	-90.725	-70.394	179.151	199.993	16.257	23.434	148.424	-89.627	229.497	152.600	217.498	-16.316	0.00027534	0.00013014	9.5919e-05	1130.6	1.4324e-06	4.0153e-06	1238.4	228.62	4.1485e-06	2.4993e-06	289.82	82.315	64.58	18.79	3.798e-06	26.248	0.00028244	0.00027802	7.6939e-05	1111.1	3.047e-06	3.0289e-06	1219.6	227.76	3.0763e-06	3.1151e-06	288.56	83.216	64.827	19.119	3.0828e-06	26.677	127.544	-96.424	-11.490	-118.029	-45.377	16.457	-118.099	-110.804	-12.031	30.224	-110.692	-104.730	-104.173	-96.856	84.388	-97.406	-8191	255	
14295.250	1	1	0	0	0.18661	0.10956	0.13242	0.14026	0.12476	0.17554	0.45563	0.2611	0.076253	0.13785	0.08786	0.15101	0.29565	0.1139	0.15656	0.10597	-2.1125	-2.4333	-2.6229	-2.7438	-2.1104	-2.825	-2.5958	-2.3688	-2.8896	-2.4146	-2.7417	-2.6104	-2.3521	-2.6875	-2.3812	-2.2854	-80.656	213.510	45.301	227.399	-29.759	171.506	164.716	141.609	-31.066	-52.292	95.971	227.748	186.895	2.846	9.472	210.143	0.0003741	0.0003999	6.1726e-05	1130.8	4.3154e-06	2.5168e-06	1228.6	229.22	3.1783e-06	2.732e-06	290.16	83.044	64.358	18.878	3.0241e-06	26.142	0.00028211	0.00028245	7.7726e-05	1110	3.129e-06	3.0726e-06	1216.2	227.23	3.02e-06	3.0273e-06	288.27	83.244	64.576	19.117	3.0113e-06	26.633	121.674	-68.789	8.920	-117.955	28.985	-9.650	-118.031	-110.890	-48.849	18.899	-110.622	-104.669	-104.046	-96.958	33.244	-97.467	-8191	255	
14295.369	1	1	0	0	0.22824	0.46023	0.064631	0.24724	0.15193	0.19691	0.34656	0.23299	0.047886	0.18088	0.061192	0.13774	0.2729	0.29251	0.10365	0.0728	-2.2896	-2.1625	-2.5187	-2.7021	-2.2313	-2.6958	-2.7833	-2.4938	-2.8708	-2.3792	-2.5	-2.6979	-2.3688	-2.7271	-2.5021	-2.4958	-109.379	174.529	-18.049	179.094	-89.314	111.708	183.351	148.967	79.764	60.244	57.703	164.791	225.888	-65.613	98.225	148.129	0.00033304	0.00055522	0.00014262	1126.5	1.1467e-06	5.3432e-06	1229.5	230.47	3.2257e-06	1.3888e-06	289.61	83.353	64.94	18.792	6.5934e-06	26.221	0.00028026	0.00028081	7.9773e-05	1109.5	3.1398e-06	3.103e-06	1215.3	227.98	3.1754e-06	3.0853e-06	287.79	83.145	64.777	19.13	3.1881e-06	26.603	125.326	-42.798	-53.199	-118.289	10.619	47.053	-118.034	-110.815	-6.332	-20.762	-110.879	-104.526	-103.598	-96.860	125.682	-97.068	-8191	255	
14295.465	1	1	0	0	0.1938	0.21605	0.0056407	0.37234	0.063586	0.1063	0.40168	0.19494	0.25237	0.096728	0.27568	0.22219	0.14004	0.064129	0.10422	0.14983	-2.2125	-2.2083	-2.4354	-2.7792	-2.4083	-3.0021	-2.8229	-2.3896	-2.6813	-2.4854	-2.4625	-2.7604	-2.3646	-2.6063	-2.7292	-2.4833	-109.801	-75.885	5.453	210.604	167.478	116.122	172.411	196.946	134.161	48.354	227.386	-61.209	-77.213	182.528	-122.082	164.973	0.00032135	0.00027509	0.00010639	1131.6	3.9771e-06	3.3318e-06	1227.6	229.37	3.7264e-06	2.015e-06	289.54	82.661	64.233	18.843	8.688e-06	26.301	0.00029757	0.00028433	8.1521e-05	1110.7	3.1906e-06	3.0467e-06	1215	227.86	3.0926e-06	3.1178e-06	288.04	83.217	64.725	19.13	3.1309e-06	26.613	128.279	-21.206	-20.703	-118.084	-96.527	77.864	-118.149	-110.610	-14.993	-37.216	-111.009	-104.602	-104.003	-96.779	55.884	-96.958	-8191	255	
14295.561	1	1	0	0	0.14184	0.077281	0.059819	0.2296	0.13066	0.18617	0.15675	0.38042	0.066306	0.19635	0.19094	0.12694	0.19907	0.36616	0.2371	0.058822	-2.2729	-2.1854	-2.4208	-2.975	-2.2875	-2.3875	-2.8417	-2.4354	-2.6896	-2.4521	-2.6312	-2.7833	-2.4437	-2.5917	-2.6813	-2.3521	48.546	-0.100	-121.312	181.702	159.458	-120.979	84.693	184.316	90.252	-105.977	188.580	24.260	-11.978	152.148	-23.952	210.462	0.00031499	0.00040232	0.00011698	1132.7	4.8868e-06	1.4527e-06	1236.3	228.77	3.5775e-06	3.2229e-06	291.27	83.211	64.69	18.782	3.8056e-06	26.089	0.00028496	0.00028187	7.8664e-05	1110.9	3.1412e-06	3.0925e-06	1218.5	227.61	3.1213e-06	3.1377e-06	288.7	83.302	64.856	19.124	3.1585e-06	26.651	128.421	-25.875	-48.789	-117.924	32.543	2.026	-118.091	-110.838	-33.043	54.851	-110.839	-104.080	-103.990	-97.004	-5.688	-97.032	-8191	255	
14295.682	1	1	0	0	0.21755	0.1461	0.19756	0.21796	0.05327	0.17305	0.20477	0.064938	0.16223	0.027644	0.097914	0.18701	0.1751	0.25324	0.20032	0.15715	-2.2583	-2.6292	-2.2562	-2.8542	-2.3979	-2.7042	-2.7958	-2.3708	-2.6792	-2.5479	-2.5021	-2.8479	-2.3937	-2.45	-2.5854	-2.2083	178.868	10.481	-53.724	185.505	-125.800	114.241	141.353	134.849	85.291	1.623	222.056	145.158	-56.373	159.674	91.542	47.729	0.00036093	0.00027202	5.5826e-05	1126.3	1.1619e-06	1.56e-06	1235	229.2	5.0907e-06	6.8841e-06	291.61	83.007	64.27	18.79	2.3946e-06	26.289	0.00029695	0.00028288	8.0321e-05	1109	3.1702e-06	3.0979e-06	1217.9	227.77	3.1935e-06	3.1242e-06	289.19	83.176	64.564	19.074	3.1516e-06	26.629	112.910	-108.952	-58.747	-117.891	107.138	-50.855	-118.319	-110.489	9.129	51.735	-111.015	-104.318	-104.059	-96.767	-30.151	-97.537	-8191	255	
14295.778	1	1	0	0	0.12272	0.14088	0.35002	0.13737	0.17384	0.34742	0.14445	0.33195	0.12878	0.19697	0.12031	0.08281	0.01847	0.15816	0.14744	0.087755	-2.1646	-2.5646	-2.4938	-3.0271	-2.5667	-2.4542	-2.8	-2.5125	-2.6292	-2.5458	-2.3042	-2.9146	-2.3729	-2.5958	-2.7167	-2.3312	40.260	-120.466	68.288	-14.414	98.521	-82.063	-86.995	136.109	-80.696	86.955	-126.593	172.191	-35.576	-106.511	194.970	98.464	0.00043673	0.00025708	6.7263e-05	1128.7	2.6142e-06	2.7988e-06	1238.4	230.59	3.2638e-06	8.7304e-07	290.15	83.423	64.509	18.776	4.1241e-06	26.293	0.00028486	0.00029246	8.1693e-05	1111	3.221e-06	3.1293e-06	1218.8	228.05	3.1067e-06	3.1704e-06	288.7	83.312	64.824	19.157	3.0985e-06	26.645	131.334	-33.487	10.958	-118.209	31.785	35.077	-117.991	-110.803	-59.164	-39.068	-110.961	-104.576	-103.728	-96.664	92.615	-97.220	-8191	255	
14295.849	1	1	0	0	0.17418	0.21215	0.12865	0.47536	0.21381	0.032519	0.14859	0.15422	0.11868	0.2025	0.39769	0.18687	0.18865	0.15115	0.3011	0.21647	-2.2583	-2.4813	-2.1771	-2.825	-2.4375	-2.4188	-3.0771	-2.4792	-2.4437	-2.6688	-2.2438	-2.5458	-2.3021	-2.4729	-2.7479	-2.2396	163.894	163.082	118.367	197.685	184.891	-124.956	200.362	-79.328	-41.632	144.948	177.322	-111.669	-115.836	230.070	97.351	-92.869	0.00038419	0.00061273	7.8172e-05	1127.8	3.4749e-06	5.5722e-06	1229.8	228.52	1.7266e-06	1.7775e-06	290.74	83.305	64.08	18.799	1.6618e-06	26.346	0.00028838	0.00028758	8.0662e-05	1109.1	3.1846e-06	3.1423e-06	1214.8	227.03	3.179e-06	3.0818e-06	288.95	83.344	64.673	19.155	3.186e-06	26.612	136.278	-56.249	-59.920	-117.915	-37.965	25.936	-117.965	-110.656	-14.173	113.553	-110.942	-104.087	-104.014	-96.648	-128.584	-96.960	-8191	255	
14295.970	1	1	0	0	0.31515	0.13648	0.043251	0.21883	0.15821	0.088034	0.3963	0.34437	0.40357	0.066759	0.17048	0.10076	0.14996	0.10337	0.046439	0.19623	-2.0979	-2.6896	-2.1771	-2.7104	-2.6396	-2.1813	-2.9208	-2.4458	-2.3875	-2.8625	-2.4125	-2.5917	-2.3792	-2.4062	-3.0125	-2.4479	-91.698	-4.312	111.742	176.274	112.813	31.223	182.548	206.505	-43.327	160.303	89.573	-112.856	137.150	99.178	-128.387	192.732	0.00034269	0.00045489	9.6943e-05	1127.4	3.7438e-06	2.146e-06	1232.1	229.06	2.48e-06	1.1647e-06	290.63	83.072	64.661	18.71	4.6871e-06	26.06	0.00028823	0.00028368	7.8788e-05	1110.2	3.1647e-06	3.1519e-06	1217.2	227.43	3.1452e-06	3.07e-06	288.86	83.232	64.751	19.134	3.1353e-06	26.605	151.860	-15.260	-9.039	-117.906	-1.649	4.297	-118.036	-110.811	-32.154	-70.913	-111.221	-104.430	-103.822	-96.824	58.631	-97.032	-8191	255	
14296.064	1	1	0	0	0.049454	0.11728	0.11044	0.14963	0.256	0.035844	0.40329	0.25374	0.17301	0.20433	0.19054	0.046879	0.14069	0.15435	0.10369	0.30115	-2.2083	-2.6771	-2.2979	-2.9458	-2.5021	-2.3146	-2.9875	-2.4979	-2.6063	-2.7771	-2.4146	-2.5458	-2.6771	-2.1542	-2.7938	-2.4104	77.038	-33.007	19.099	-128.337	-107.903	151.500	170.270	140.924	225.627	-110.751	144.987	12.286	-5.374	129.385	200.028	216.193	0.00029239	0.0003904	0.00011216	1125.7	3.3401e-06	3.401e-06	1232.3	231.1	2.2002e-06	4.2571e-06	291.88	82.666	64.789	18.989	1.7989e-06	26.214	0.00028839	0.00028416	7.9478e-05	1110.1	3.1598e-06	3.1193e-06	1216.6	228.07	3.101e-06	3.0773e-06	289.24	83.185	64.83	19.182	2.9679e-06	26.719	128.098	-44.550	-30.283	-118.155	-43.406	-6.605	-118.094	-110.960	-42.242	34.743	-110.700	-104.487	-103.805	-96.707	118.869	-96.971	-8191	255	
14296.161	1	1	0	0	0.080082	0.19559	0.21531	0.091307	0.26659	0.1896	0.47363	0.10404	0.12147	0.12947	0.050679	0.27334	0.36674	0.27855	0.19774	0.24201	-2.15	-2.7042	-2.125	-2.7042	-2.7354	-2.2812	-2.9125	-2.5604	-2.3521	-2.7375	-2.3979	-2.5417	-2.6729	-2.2854	-2.7833	-2.5312	45.198	204.781	70.576	-1.447	-35.129	3.054	174.379	175.760	151.789	19.016	-28.055	-72.543	-126.309	104.253	-104.141	58.377	0.00031014	0.0002144	7.4008e-05	1132.3	2.0934e-06	1.7802e-06	1238.3	228.81	2.7976e-06	5.3364e-06	291.11	83.087	64.896	18.883	3.7525e-06	26.36	0.00027761	0.00027655	7.6069e-05	1112	3.0969e-06	2.99e-06	1219.5	227.62	3.0455e-06	3.0469e-06	288.42	83.434	64.83	19.17	3.041e-06	26.635	132.616	-32.980	-1.683	-118.032	-51.552	-6.063	-118.023	-110.766	31.827	6.073	-110.976	-104.669	-103.991	-96.776	-3.034	-97.339	-8191	255	
14296.257	1	1	0	0	0.0049694	0.2589	0.090437	0.16546	0.093595	0.21902	0.2688	0.29366	0.14613	0.12335	0.25805	0.26469	0.22937	0.18803	0.34286	0.19424	-1.9833	-2.7167	-2.5521	-2.8542	-2.6833	-2.2521	-2.7396	-2.65	-2.3229	-2.6958	-2.3792	-2.4188	-2.7062	-2.2208	-2.5542	-2.5771	180.232	214.720	21.646	179.718	14.897	221.818	153.628	193.213	-113.010	163.071	167.640	182.133	215.510	219.424	219.536	105.340	0.00034906	0.00039558	7.2634e-05	1130.5	7.3282e-07	4.3256e-06	1230	229.33	8.2607e-07	1.493e-06	290.07	83.121	64.19	18.917	3.4268e-06	26.244	0.00027808	0.00028112	7.7771e-05	1109.7	3.0715e-06	3.0183e-06	1216.4	227.06	3.0163e-06	2.959e-06	288.42	83.289	64.544	19.156	3.1129e-06	26.673	129.068	-74.055	-40.842	-118.120	48.549	30.549	-117.818	-110.788	-57.975	-11.214	-110.510	-104.844	-104.202	-96.547	-69.472	-97.112	-8191	255	
14296.377	1	1	0	0	0.11276	0.14022	0.12417	0.19156	0.32443	0.067394	0.14989	0.31333	0.18855	0.1256	0.40016	0.21713	0.027193	0.071596	0.18577	0.099354	-1.9104	-2.5521	-2.2938	-2.5771	-2.7042	-2.2729	-2.9917	-2.5687	-2.2375	-2.75	-2.6562	-2.4521	-2.7104	-2.2875	-2.7646	-2.6875	164.846	117.124	151.212	206.038	35.788	32.007	151.564	184.956	123.354	-56.822	204.701	169.996	26.560	31.816	28.816	29.124	0.00037545	0.00046362	0.0001577	1129	3.3359e-06	4.1407e-06	1237.1	228.91	3.8729e-06	3.935e-06	289.04	82.888	64.679	18.983	3.2316e-06	26.317	0.00028505	0.00027923	7.8342e-05	1109.4	3.1288e-06	3.0888e-06	1218.3	227.06	3.0753e-06	3.0397e-06	288.19	83.237	64.667	19.135	3.061e-06	26.68	144.774	1.499	-29.740	-118.145	42.375	-17.885	-118.178	-110.858	-66.829	24.309	-110.837	-104.594	-103.945	-96.553	-24.593	-97.220	-8191	255	
14296.449	1	1	0	0	0.27208	0.094655	0.066435	0.24424	0.13393	0.10546	0.3158	0.062532	0.095858	0.29402	0.22939	0.32655	0.25117	0.12055	0.22296	0.31463	-2.0083	-2.6979	-2.4396	-2.5563	-2.8	-2.3604	-2.9229	-2.7958	-2.3958	-2.7646	-2.5417	-2.5479	-2.9125	-2.5563	-2.5604	-2.7979	-110.077	-116.905	164.031	189.012	149.899	188.072	144.843	76.083	137.443	197.850	185.751	147.224	208.271	-56.382	-7.776	-88.763	0.00038068	0.00014404	0.00010287	1131.1	6.3354e-06	2.7611e-06	1231.7	228.63	4.2118e-06	5.2796e-06	289.99	83.507	64.73	18.882	2.9742e-06	26.108	0.00028344	0.00028152	7.7416e-05	1110.5	3.0733e-06	3.0185e-06	1216.1	227.53	3.231e-06	3.0933e-06	288.49	83.577	64.625	19.167	3.1363e-06	26.574	133.620	96.903	-79.027	-118.049	-14.672	-22.143	-118.100	-110.704	-29.754	13.147	-110.623	-104.603	-104.184	-96.552	19.775	-97.111	-8191	255	
14296.545	1	1	0	0	0.076857	0.05702	0.29615	0.11337	0.077353	0.049798	0.14458	0.21823	0.1799	0.17933	0.16143	0.10957	0.17469	0.098404	0.022977	0.22838	-1.7708	-2.4125	-2.5417	-2.6625	-2.9042	-2.4104	-2.7667	-2.7604	-2.2146	-2.7313	-2.6354	-2.5187	-2.7667	-2.4771	-2.4917	-2.6917	-29.840	46.358	175.657	24.683	-75.658	76.351	-105.701	200.970	45.159	-71.419	222.003	-35.150	88.022	88.337	206.767	-128.565	0.00038144	0.00028967	0.00011655	1125	1.838e-06	2.1343e-06	1234.9	228.58	2.6533e-06	3.713e-06	290.93	82.983	65.029	18.894	4.4555e-06	26.317	0.0002891	0.00028575	7.7495e-05	1110.7	3.0948e-06	3.0694e-06	1218.3	227.51	3.0376e-06	3.0579e-06	288.6	83.378	64.804	19.184	3.0224e-06	26.702	125.335	-30.918	-59.675	-118.054	-47.616	55.962	-117.990	-110.616	-49.021	28.928	-111.078	-104.077	-104.392	-96.534	33.710	-96.851	-8191	255	
14296.641	1	1	0	0	0.29056	0.17055	0.11432	0.13268	0.12406	0.033656	0.18588	0.10642	0.23657	0.26506	0.10763	0.12853	0.14217	0.1316	0.32171	0.20794	-1.7208	-2.4333	-2.5979	-2.4062	-2.7313	-2.4479	-2.6396	-2.6979	-2.0583	-2.5854	-2.7375	-2.3021	-2.9104	-2.4562	-2.3542	-2.8729	58.895	-65.599	-0.126	120.899	178.656	-71.009	174.414	203.393	154.653	165.952	221.049	-16.744	183.029	-104.114	189.151	218.871	0.0002691	0.0003948	0.00012081	1132.4	3.0839e-06	1.4381e-06	1238.3	230.21	6.1503e-06	5.1318e-06	290.79	83.155	64.069	18.768	5.6351e-06	26.251	0.00028039	0.00028314	7.838e-05	1110	3.1597e-06	3.0972e-06	1219.3	227.77	3.1124e-06	3.0648e-06	288.54	83.227	64.535	19.12	3.1753e-06	26.647	150.123	-73.018	6.264	-118.121	-3.301	0.672	-117.803	-110.669	6.916	-7.727	-110.771	-104.475	-104.398	-96.881	9.594	-96.882	-8191	255	
14296.762	1	1	0	0	0.3166	0.3017	0.18358	0.19861	0.25045	0.13152	0.27238	0.20284	0.15217	0.18156	0.10636	0.36869	0.20933	0.1734	0.29247	0.15976	-2.0479	-2.6833	-2.6437	-2.5021	-2.7	-2.6146	-2.6604	-2.875	-2.3854	-2.5896	-2.9313	-2.1479	-2.7458	-2.8333	-2.4354	-2.9188	-106.011	53.807	43.222	177.368	108.283	202.773	117.779	-54.031	116.100	108.615	-69.018	-126.602	197.839	-87.101	-22.568	188.830	0.00039066	0.00041811	0.00015423	1124	1.1419e-06	2.8334e-06	1235.8	227.12	3.6756e-06	2.1231e-06	288.74	82.663	64.694	18.906	6.4297e-06	26.193	0.00028581	0.00029237	7.9032e-05	1109.4	3.1809e-06	3.1177e-06	1218.7	226.85	3.1476e-06	3.115e-06	287.85	83.041	64.844	19.148	3.1395e-06	26.598	129.080	-55.326	-40.489	-118.142	-19.922	54.612	-117.983	-110.770	-47.436	-58.567	-110.809	-104.916	-103.984	-96.599	9.796	-97.320	-8191	255	
14296.858	1	1	0	0	0.11182	0.25891	0.23946	0.24629	0.1602	0.17534	0.13617	0.26083	0.13987	0.19213	0.20396	0.1353	0.12711	0.19994	0.049974	0.11074	-1.9083	-2.5083	-2.65	-2.525	-2.8021	-2.6271	-2.6667	-2.6	-2.375	-2.5229	-2.8625	-2.4125	-2.7083	-2.5542	-2.3021	-2.8021	200.214	105.957	-64.170	142.178	60.792	217.707	54.338	114.334	80.188	133.543	203.664	-115.371	208.719	-64.590	148.655	145.349	0.00028368	0.00029969	0.00011528	1129.7	3.0526e-06	2.1222e-06	1239.9	229.42	2.6539e-06	2.3176e-06	291.95	83.281	64.616	18.896	4.5214e-06	26.336	0.00029139	0.00028075	8.0641e-05	1110.5	3.2015e-06	3.127e-06	1221	227.43	3.1791e-06	3.1253e-06	289.03	83.383	64.743	19.151	3.2042e-06	26.677	129.207	23.073	-23.104	-118.050	0.992	-87.050	-118.081	-110.834	-84.542	26.734	-110.773	-104.503	-104.345	-96.559	25.281	-97.241	-8191	255	
14296.954	1	1	0	0	0.083335	0.0099611	0.074323	0.39222	0.093549	0.10964	0.32978	0.17868	0.18962	0.063831	0.1652	0.0095825	0.27339	0.074318	0.16713	0.10067	-1.9896	-2.5958	-2.8646	-2.55	-2.7208	-2.675	-2.5146	-2.9229	-2.7042	-2.3792	-2.95	-2.5375	-2.7292	-2.8083	-2.3563	-2.7667	-25.611	57.911	77.604	129.359	71.984	-9.509	173.617	-62.023	41.781	105.730	28.726	-15.996	90.730	-9.218	200.175	-27.820	0.00036253	0.00029932	0.00010746	1128.8	3.2793e-06	2.9142e-06	1234.9	228.68	4.607e-06	4.2601e-06	290.38	82.673	64.664	18.876	3.2095e-06	26.305	0.00028352	0.00028374	7.9497e-05	1110.8	3.1658e-06	3.1828e-06	1219.5	227.31	3.1572e-06	3.1209e-06	288.74	83.119	64.783	19.116	3.1131e-06	26.696	116.155	-38.543	10.947	-118.095	26.789	17.689	-118.117	-110.770	-21.646	28.775	-110.802	-104.586	-104.402	-96.374	142.581	-97.379	-8191	255	
14297.050	1	1	0	0	0.093555	0.099954	0.30284	0.43268	0.24747	0.12912	0.24361	0.20794	0.064265	0.10012	0.25115	0.14267	0.22583	0.1845	0.022581	0.15592	-1.8917	-2.4104	-2.5917	-2.4708	-2.7042	-2.7021	-2.4562	-2.9125	-2.5125	-2.5042	-2.9292	-2.5042	-2.4188	-2.7521	-2.2771	-2.6437	-40.961	-124.795	128.412	205.131	-95.627	151.999	162.220	161.412	172.302	34.519	-111.935	99.179	-37.213	-99.639	24.301	194.657	0.00036383	0.00029016	3.6283e-05	1130.9	2.5015e-06	2.6899e-06	1239.7	230.34	2.7028e-06	2.93e-06	291.58	83.071	64.432	18.757	6.0005e-06	26.197	0.00029257	0.00028086	7.9461e-05	1112.6	3.098e-06	3.0621e-06	1219.6	227.87	3.0801e-06	3.0086e-06	288.89	83.396	64.667	19.092	3.1479e-06	26.694	128.537	-32.055	64.759	-117.918	74.751	-36.491	-117.904	-110.960	-44.730	11.221	-110.382	-104.755	-104.032	-96.849	-6.116	-97.279	-8191	255	
14297.145	1	1	0	0	0.33999	0.30108	0.1179	0.14351	0.164	0.21582	0.11737	0.12364	0.14867	0.19449	0.29542	0.19009	0.22151	0.11181	0.24998	0.10223	-2.0875	-2.3833	-2.7875	-2.6521	-2.6021	-2.8458	-2.3979	-2.8417	-2.6583	-2.5146	-2.8979	-2.4437	-2.4729	-2.7938	-2.4271	-2.8229	210.588	168.014	93.670	148.059	23.210	-92.008	5.514	156.853	95.800	98.425	211.194	-103.929	-46.571	112.306	-75.136	-12.429	0.00026424	0.00024488	9.3227e-05	1131.6	4.1464e-07	1.8949e-06	1233.2	229.41	2.7941e-06	3.3783e-06	290.16	82.9	64.487	18.91	5.0555e-06	26.11	0.00027991	0.00027617	7.7002e-05	1112.9	3.1316e-06	3.1085e-06	1216.6	227.32	3.0409e-06	3.1052e-06	288.06	83.31	64.685	19.185	3.0295e-06	26.559	134.244	-80.959	-35.948	-117.982	67.041	-6.748	-118.006	-110.863	221.468	71.488	-110.835	-104.248	-103.872	-97.107	16.144	-97.136	-8191	255	
14297.241	1	1	0	0	0.1779	0.20853	0.12214	0.17716	0.13183	0.1676	0.34403	0.039969	0.2691	0.05565	0.56279	0.13248	0.11384	0.055838	0.15134	0.2147	-2.0833	-2.3854	-2.8125	-2.5375	-2.4729	-2.8479	-2.475	-2.6917	-2.7042	-2.3208	-2.6958	-2.7542	-2.5104	-2.9479	-2.3937	-2.625	50.085	96.627	-6.936	180.244	26.548	171.976	178.168	-36.723	144.057	203.156	195.291	97.660	-33.679	105.016	109.467	220.884	0.00042548	0.00029413	3.3443e-05	1128.7	9.4004e-07	3.2077e-06	1240.2	228.91	3.966e-06	2.396e-06	290.95	83.074	64.85	19.083	1.5583e-06	26.454	0.00028612	0.00027376	7.8957e-05	1110.3	3.0857e-06	3.0023e-06	1220.5	227.66	3.0774e-06	2.9908e-06	288.48	83.378	65.027	19.253	3.1112e-06	26.755	128.511	37.352	-113.784	-118.060	84.770	8.739	-117.816	-110.852	-28.583	20.073	-110.929	-104.033	-104.127	-96.456	211.593	-97.505	-8191	255	
14297.362	1	1	0	0	0.23781	0.383	0.3681	0.13434	0.16085	0.22772	0.30041	0.067075	0.067909	0.19595	0.10263	0.18362	0.1245	0.11563	0.1438	0.21232	-2.0104	-2.2417	-2.7	-2.5667	-2.25	-2.7729	-2.7646	-2.6583	-2.7833	-2.275	-2.8021	-2.6167	-2.3271	-2.8063	-2.5708	-2.6688	197.492	-41.478	-39.614	189.314	56.262	156.986	143.040	212.148	133.230	127.843	223.934	186.722	211.758	136.519	72.701	149.846	0.00037099	0.00056839	7.7093e-05	1131.9	1.3302e-06	2.1548e-06	1233.7	229.65	3.368e-06	4.8978e-06	290.35	83.517	64.539	18.895	2.1657e-06	26.279	0.00028266	0.00028176	7.949e-05	1111.5	3.0953e-06	3.1138e-06	1218.6	227.77	3.1059e-06	3.0605e-06	288.16	83.524	64.772	19.178	3.0277e-06	26.719	132.912	-19.925	-128.466	-118.080	170.648	-2.858	-118.039	-110.801	-5.931	17.521	-111.072	-104.430	-103.762	-96.986	51.685	-96.967	-8191	255	
14297.458	1	1	0	0	0.34758	0.054302	0.26376	0.16279	0.25307	0.20935	0.11248	0.13256	0.38067	0.20197	0.47724	0.21025	0.15154	0.048832	0.14731	0.059789	-2.2042	-2.3667	-2.6604	-2.825	-2.3833	-2.8479	-2.6208	-2.6146	-2.7208	-2.2125	-2.6792	-2.6167	-2.4125	-2.7125	-2.6208	-2.475	-44.542	163.651	79.103	181.508	56.372	107.578	52.477	73.221	4.998	155.500	171.085	223.902	147.608	-62.877	-122.184	-112.783	0.00041022	0.00034509	0.00012995	1128.5	2.1319e-06	1.8499e-06	1230.6	228.75	1.4352e-06	3.8506e-06	290.76	83.006	64.398	18.94	6.0656e-06	26.265	0.00029146	0.00028872	8.0235e-05	1111.1	3.1523e-06	3.0784e-06	1218.1	227.33	3.1087e-06	3.0708e-06	289.21	83.546	64.835	19.204	2.9932e-06	26.748	136.879	-95.752	-32.520	-117.908	38.087	-57.397	-118.223	-110.857	27.169	-2.196	-110.865	-104.301	-103.675	-96.910	79.265	-97.269	-8191	255	
14297.554	1	1	0	0	0.24317	0.009883	0.21868	0.042395	0.26861	0.22662	0.25148	0.22906	0.030505	0.13401	0.13903	0.1975	0.11874	0.19731	0.14001	0.12511	-2.2979	-2.2729	-2.7708	-2.8292	-2.2354	-2.7542	-2.7833	-2.4062	-2.7125	-2.2292	-2.65	-2.7333	-2.2896	-2.7854	-2.4271	-2.3812	28.548	201.974	184.889	120.499	179.468	217.057	144.104	214.198	129.061	-108.572	181.674	158.937	-85.619	-9.987	-105.742	206.555	0.00033198	0.00041952	6.6802e-05	1131.2	4.0363e-06	5.5278e-06	1239.8	229.4	1.7535e-06	1.912e-06	291.73	83.254	64.588	18.915	5.3601e-07	26.117	0.00027428	0.00027911	7.5559e-05	1111.6	2.9695e-06	3.0429e-06	1222	227.48	2.9538e-06	2.963e-06	289.24	83.535	65.022	19.217	3.1109e-06	26.748	139.659	-86.194	-28.087	-117.956	-29.059	3.627	-117.871	-110.648	-41.553	14.597	-110.844	-104.489	-103.922	-96.786	10.082	-97.251	-8191	255	
14297.650	1	1	0	0	0.091214	0.35954	0.070982	0.22683	0.28773	0.029338	0.27712	0.18855	0.1372	0.11915	0.22243	0.14038	0.089063	0.1313	0.16386	0.32036	-2.3021	-2.3646	-2.7104	-2.9062	-2.3083	-2.7313	-2.7979	-2.5104	-2.7917	-2.5104	-2.5146	-2.8104	-2.3688	-2.675	-2.4667	-2.5896	35.234	-71.110	44.267	-97.419	-24.892	77.181	186.635	192.584	125.733	-125.281	152.601	-48.325	81.421	192.643	72.826	140.752	0.00030223	0.00035572	6.5713e-05	1129.6	3.3295e-06	5.7607e-06	1236.4	228.65	3.3224e-06	4.9715e-06	291.2	83.165	64.543	19.042	5.1007e-06	26.108	0.00028268	0.00028983	8.1446e-05	1111.5	3.1785e-06	3.2339e-06	1218.5	227.43	3.1315e-06	3.0599e-06	288.73	83.496	64.853	19.257	3.0181e-06	26.695	129.840	-2.061	-28.629	-118.171	13.941	27.634	-117.783	-110.796	-20.316	17.852	-110.641	-104.596	-104.389	-96.904	-29.335	-96.940	-8191	255	
14297.746	1	1	0	0	0.18228	0.12521	0.1532	0.16634	0.2418	0.19772	0.12083	0.14151	0.035186	0.13696	0.13339	0.086063	0.19315	0.1276	0.20685	0.30072	-2.3063	-2.3146	-2.5833	-2.9042	-2.2854	-2.5958	-2.7708	-2.3354	-2.9354	-2.4021	-2.5958	-2.9938	-2.2812	-2.6813	-2.7583	-2.2479	17.341	-31.354	160.962	198.518	-31.195	131.896	75.647	17.377	72.548	174.671	-100.029	180.605	140.039	-128.114	198.051	-35.183	0.00032631	0.00018718	0.00019393	1127.1	2.5805e-06	6.735e-06	1237.2	229.4	3.0315e-06	4.7133e-06	289.78	83.811	65.301	19.008	1.4145e-06	26.278	0.00028094	0.00027822	7.6584e-05	1110	2.9807e-06	3.0367e-06	1220.5	227.93	3.037e-06	3.0121e-06	288.12	83.718	64.984	19.261	2.9121e-06	26.755	138.870	-25.822	-44.020	-117.990	13.239	-1.314	-117.896	-110.609	-44.684	3.553	-110.618	-104.322	-103.525	-96.837	84.611	-97.516	-8191	255	
14297.842	1	1	0	0	0.24393	0.4012	0.14154	0.4599	0.13068	0.15908	0.18911	0.24823	0.23282	0.17863	0.28754	0.080685	0.092641	0.34733	0.19261	0.14196	-2.3583	-2.6333	-2.3917	-2.85	-2.2313	-2.7708	-2.9583	-2.4875	-2.7271	-2.7146	-2.4875	-2.6146	-2.4042	-2.5729	-2.7188	-2.3667	-25.475	84.261	188.124	205.806	122.172	214.167	-112.776	215.572	53.660	48.015	-108.083	-13.246	151.751	167.180	-42.671	130.364	0.00030826	5.771e-05	8.3908e-05	1129.5	3.601e-06	2.9081e-06	1235.9	230.03	2.9719e-06	1.0701e-06	291.7	83.621	64.683	19.013	3.1437e-06	26.429	0.00027555	0.00026512	7.5613e-05	1109.8	2.9851e-06	2.9451e-06	1218.2	228.16	2.9965e-06	2.9599e-06	289.44	83.79	64.834	19.313	2.898e-06	26.76	127.592	91.859	-42.108	-118.154	-63.768	1.271	-118.151	-111.096	-34.079	43.074	-111.009	-105.050	-104.004	-96.588	87.554	-97.019	-8191	255	
14297.938	1	1	0	0	0.070312	0.31171	0.1896	0.22404	0.15502	0.222	0.30059	0.064315	0.13262	0.2517	0.17606	0.054927	0.045771	0.43289	0.16204	0.14522	-2.2167	-2.4979	-2.3312	-2.8312	-2.3875	-2.4792	-2.8917	-2.4583	-2.7083	-2.5812	-2.3375	-2.6854	-2.4208	-2.5042	-2.7667	-2.2833	-78.960	125.687	-101.473	-85.976	111.431	127.906	170.532	-1.660	28.989	127.552	212.634	189.680	68.121	117.195	-99.289	-100.877	0.00042866	0.0002663	7.6113e-05	1135.1	4.602e-06	2.4398e-06	1236.6	230.27	3.9721e-06	3.1169e-07	291.46	83.329	64.798	19.099	2.4355e-06	26.313	0.00027145	0.00026506	7.7132e-05	1113.3	3.0365e-06	3.0063e-06	1221.8	228.69	2.9633e-06	2.9525e-06	289.11	83.718	65.005	19.29	2.9159e-06	26.845	131.894	50.969	-10.441	-117.979	-9.224	43.030	-117.776	-110.711	36.453	23.431	-110.949	-104.740	-104.211	-96.960	-53.545	-97.267	-8191	255	
14298.057	1	1	0	0	0.32678	0.15663	0.15079	0.15573	0.050259	0.13014	0.17704	0.018652	0.25493	0.29264	0.22703	0.069078	0.20402	0.11152	0.20742	0.069969	-2.1792	-2.5083	-2.0792	-2.8979	-2.3729	-2.4417	-3.0417	-2.2167	-2.6	-2.5896	-2.2333	-2.8438	-2.5208	-2.4604	-2.5292	-2.4313	104.034	149.434	30.477	-81.808	145.738	-20.760	177.909	100.445	129.679	-2.485	-127.721	-120.601	-93.242	75.608	56.780	-59.056	0.00041187	0.00029905	5.0305e-05	1132.9	3.0844e-06	1.2203e-06	1234.1	229.2	3.1149e-06	3.969e-07	292.48	83.075	64.738	18.981	1.3649e-06	26.278	0.00027271	0.0002683	7.3261e-05	1110.9	2.9698e-06	2.8736e-06	1219.4	228.08	2.9275e-06	2.8573e-06	289.62	83.529	65.016	19.314	2.8864e-06	26.805	126.540	-35.641	2.576	-118.070	39.734	75.671	-118.208	-111.136	-35.758	-97.437	-111.056	-104.732	-104.309	-96.969	-56.792	-97.284	-8191	255	
14298.154	1	1	0	0	0.096572	0.29901	0.10532	0.28845	0.27577	0.11002	0.17524	0.19422	0.25506	0.14574	0.18511	0.013519	0.1496	0.20386	0.2234	0.058172	-2.2458	-2.5479	-2.35	-2.8271	-2.7896	-2.2854	-2.85	-2.5479	-2.4146	-2.5104	-2.3521	-2.7271	-2.5938	-2.525	-2.8333	-2.5271	56.858	-25.788	-91.365	201.112	64.534	88.108	143.885	225.770	117.269	61.218	223.653	30.498	163.102	171.425	191.606	169.250	0.00032237	0.00028397	5.4437e-05	1130.6	3.8424e-06	2.357e-06	1244.1	230.2	6.0327e-07	4.134e-06	292.3	83.471	64.4	19.107	2.8447e-06	26.435	0.00026771	0.00026138	7.1054e-05	1110.5	2.9498e-06	2.8411e-06	1220.3	228.5	2.9209e-06	2.8668e-06	290.12	83.847	64.837	19.313	2.8474e-06	26.821	127.617	-50.460	-42.111	-117.953	49.051	10.966	-118.038	-110.781	111.903	34.534	-110.739	-104.823	-104.303	-97.012	111.435	-97.182	-8191	255	
14298.250	1	1	0	0	0.067229	0.19263	0.058184	0.38836	0.17285	0.15729	0.44753	0.24334	0.17919	0.12697	0.21188	0.32053	0.040254	0.2466	0.09103	0.15233	-1.8687	-2.6354	-2.2396	-2.7729	-2.7812	-2.3104	-3.025	-2.5542	-2.4667	-2.6208	-2.3542	-2.6604	-2.5896	-2.2583	-2.7229	-2.6292	23.387	65.540	163.443	210.180	43.745	-13.426	180.802	165.629	137.591	157.491	206.405	-113.932	207.723	41.711	31.106	5.663	0.00033951	0.00039964	0.00010218	1128.6	4.4667e-06	2.9713e-06	1239.5	229.82	1.719e-06	5.8856e-06	289.16	83.814	64.408	19.023	3.142e-06	26.365	0.00027129	0.00026088	7.3691e-05	1109.8	2.9247e-06	2.9557e-06	1221.8	228.62	2.9337e-06	2.8134e-06	288.3	83.796	64.849	19.322	2.9792e-06	26.793	140.123	-19.965	-22.933	-118.076	23.112	-6.515	-118.009	-110.735	-8.107	3.190	-110.850	-104.587	-103.722	-97.086	-14.613	-97.451	-8191	255	
14298.323	1	1	0	0	0.15931	0.13677	0.13128	0.27195	0.14367	0.13053	0.26277	0.081412	0.067858	0.38188	0.18349	0.13318	0.26587	0.21936	0.17417	0.15866	-1.9021	-2.6375	-2.1667	-2.6937	-2.6583	-2.3604	-2.7833	-2.4958	-2.5083	-2.8396	-2.3125	-2.675	-2.4188	-2.3063	-2.6771	-2.5667	-23.523	-57.204	124.232	160.215	65.908	-109.713	139.647	-44.799	-14.437	67.986	146.925	211.001	-107.928	27.069	5.412	-126.289	0.0003286	0.0006299	6.8221e-05	1134.5	2.1531e-06	1.0687e-06	1241.7	229.64	2.5632e-06	4.3734e-06	291.27	83.198	64.84	19.055	3.5216e-06	26.411	0.00027798	0.00027004	7.4551e-05	1112.7	3.0024e-06	2.9467e-06	1220.7	228.12	2.9636e-06	2.8461e-06	289.17	83.526	65.123	19.254	2.8631e-06	26.77	132.810	-45.111	-64.285	-117.971	122.310	3.554	-118.178	-110.678	-67.789	10.065	-110.856	-104.369	-103.983	-96.728	12.891	-97.150	-8191	255	
14298.442	1	1	0	0	0.12684	0.27441	0.25325	0.13778	0.21628	0.2738	0.34349	0.18987	0.29743	0.063618	0.43832	0.23091	0.17584	0.12687	0.25097	0.13063	-1.8417	-2.7438	-2.3229	-2.7146	-2.7167	-2.1167	-2.7875	-2.6021	-2.4292	-2.8063	-2.5479	-2.4625	-2.8667	-2.1562	-2.7479	-2.5667	-55.690	-69.379	133.586	-114.598	140.975	187.216	190.719	127.137	39.881	40.641	-121.611	-107.582	181.647	-120.824	-30.089	-18.674	0.00029745	0.00029672	5.7905e-05	1132.1	2.7564e-06	2.2723e-06	1241.6	230.02	2.013e-06	1.6284e-06	291.33	83.819	64.711	19.172	5.2913e-06	26.211	0.00027812	0.00026169	7.2499e-05	1111.5	2.9823e-06	2.9073e-06	1221.7	228.04	2.9419e-06	2.9046e-06	289.61	83.685	64.838	19.297	2.9122e-06	26.666	120.197	-69.018	7.078	-118.005	11.312	21.821	-117.895	-110.519	-2.476	15.369	-110.889	-104.842	-104.207	-96.822	46.277	-97.271	-8191	255	
14298.538	1	1	0	0	0.19403	0.042749	0.20699	0.13203	0.20061	0.20673	0.42461	0.12611	0.042717	0.21762	0.18151	0.42197	0.12547	0.1644	0.056445	0.022931	-2.0042	-2.6771	-2.4062	-2.5667	-2.625	-2.4062	-2.7104	-2.5771	-2.375	-2.7729	-2.4854	-2.4979	-2.7583	-2.4979	-2.5396	-2.7229	37.808	-9.802	224.302	-75.545	4.812	164.153	184.516	123.353	42.297	194.080	-113.548	187.723	123.218	-41.503	86.975	150.109	0.00030315	0.00065741	0.00015738	1131	2.2563e-06	4.268e-06	1235	228.77	2.2029e-06	4.9167e-06	291.2	83.557	64.848	19.138	3.5172e-06	26.588	0.00027259	0.00026426	7.4394e-05	1110	2.9737e-06	2.9908e-06	1217.6	227.84	2.9737e-06	2.9407e-06	289.66	83.523	64.992	19.266	2.9605e-06	26.875	122.462	-34.322	-8.916	-117.935	-32.463	-23.963	-118.103	-111.039	-60.369	66.821	-111.044	-104.605	-104.425	-96.843	67.094	-97.241	-8191	255	
14298.634	1	1	0	0	0.24649	0.16648	0.16238	0.11689	0.2611	0.26893	0.39092	0.17339	0.054535	0.083874	0.19749	0.24493	0.01923	0.18263	0.17858	0.041011	-1.8229	-2.7167	-2.4583	-2.6646	-2.7687	-2.4354	-2.7062	-2.7438	-2.2562	-2.9167	-2.7458	-2.5271	-2.8667	-2.5812	-2.625	-2.7375	-67.692	64.483	-23.339	91.094	163.782	-69.418	187.502	198.143	-15.592	-19.086	-88.123	173.145	228.937	126.981	9.427	-111.011	0.0004086	0.0002474	0.00017418	1130.1	2.5573e-06	4.1532e-06	1234.1	229.34	4.2994e-06	4.0238e-06	291.58	83.822	65.278	18.983	2.8954e-06	26.181	0.00027301	0.00026756	7.4128e-05	1109.4	2.9346e-06	2.9077e-06	1217.6	228.15	2.8922e-06	2.8742e-06	289.41	83.745	65.086	19.303	2.8885e-06	26.676	130.416	-54.632	-35.988	-118.132	-13.608	34.039	-117.939	-110.614	-30.772	-2.294	-110.859	-104.551	-104.243	-96.752	127.731	-97.250	-8191	255	
14298.730	1	1	0	0	0.15749	0.12523	0.27875	0.32931	0.3215	0.034164	0.41138	0.090689	0.11203	0.21942	0.045133	0.28172	0.36434	0.16798	0.28545	0.20098	-1.7771	-2.5438	-2.5667	-2.6083	-2.8563	-2.4771	-2.7292	-2.7104	-2.2125	-2.7521	-2.3812	-2.3979	-2.8042	-2.5	-2.4625	-2.7729	-43.125	37.676	58.737	-115.520	128.141	45.495	158.229	223.808	129.315	-123.223	194.187	183.138	191.406	-77.380	229.247	216.609	0.00032828	0.00029701	0.00015338	1135.6	1.2111e-06	2.8382e-06	1236.4	230.33	3.2308e-06	3.4547e-06	290.5	83.542	64.448	19.087	1.3415e-06	26.515	0.00026917	0.00026563	7.3587e-05	1112.2	2.9721e-06	2.937e-06	1220.5	228.37	3.0004e-06	2.8896e-06	289.05	83.675	64.98	19.263	2.9261e-06	26.766	129.293	-31.756	-48.533	-118.076	25.448	17.479	-118.055	-110.978	-43.701	40.521	-110.813	-104.564	-104.397	-96.849	114.779	-97.152	-8191	255	
14298.851	1	1	0	0	0.073752	0.17022	0.1204	0.14469	0.33646	0.10088	0.39442	0.21519	0.20295	0.062054	0.11933	0.32614	0.11181	0.075528	0.084418	0.30728	-1.8	-2.6979	-2.4875	-2.4979	-2.7062	-2.6354	-2.3833	-2.8292	-2.1813	-2.5833	-2.8063	-2.1354	-2.6229	-2.4688	-2.3521	-2.8708	-34.233	0.523	1.990	204.950	-9.327	216.442	190.050	210.773	195.446	-120.129	-67.605	183.934	124.807	-116.445	-91.606	155.142	0.00033408	0.00040495	9.6171e-05	1126.8	5.5553e-07	2.0834e-06	1237.6	230.06	2.2656e-06	3.9587e-06	291.77	83.393	64.971	19.233	3.9388e-06	26.371	0.00027378	0.00026119	7.2999e-05	1110	2.9544e-06	2.8985e-06	1221.6	228.21	2.9829e-06	2.8865e-06	289.83	83.747	64.998	19.357	2.9449e-06	26.79	135.759	-37.554	-50.716	-117.946	-79.989	-7.886	-118.203	-110.649	-56.998	-3.356	-110.823	-104.718	-104.070	-96.801	39.215	-97.463	-8191	255	
14298.945	1	1	0	0	0.14133	0.33155	0.065654	0.26306	0.23517	0.22401	0.039666	0.18957	0.0677	0.34282	0.060162	0.20074	0.033262	0.17079	0.13892	0.16051	-1.8687	-2.4625	-2.725	-2.4437	-2.6896	-2.5208	-2.5812	-2.6896	-2.2812	-2.4625	-2.6917	-2.3375	-2.5917	-2.5	-2.4146	-2.6625	222.325	36.839	-112.058	173.843	-106.294	144.617	189.816	-106.970	150.906	184.476	110.258	-102.126	8.998	-61.894	199.796	124.960	0.00026973	0.00010588	0.00014126	1132.5	1.6488e-06	2.4076e-06	1234.1	230.68	3.2905e-06	2.9328e-06	290.74	83.332	64.919	19.033	3.7193e-06	26.478	0.00026843	0.00026867	7.4099e-05	1113.5	2.9115e-06	2.9151e-06	1218.7	228.43	2.9051e-06	2.9204e-06	288.93	83.807	64.925	19.283	2.9338e-06	26.8	127.502	-49.691	-46.900	-117.808	-31.319	96.262	-117.853	-111.139	93.569	20.630	-110.672	-104.210	-104.017	-96.811	17.931	-97.014	-8191	255	
14299.043	1	1	0	0	0.42827	0.1995	0.070302	0.32359	0.2215	0.19244	0.05341	0.080099	0.1606	0.14562	0.2007	0.17917	0.15059	0.22347	0.22498	0.35559	-1.9062	-2.4104	-2.5833	-2.4708	-2.7583	-2.5229	-2.4229	-2.7687	-2.2062	-2.4521	-2.7438	-2.1729	-2.45	-2.4771	-2.1542	-2.6604	150.004	-51.063	-19.890	188.606	183.835	1.269	228.019	63.152	128.909	-76.171	222.357	-15.241	-0.849	147.842	-97.410	147.403	0.0003307	0.00029907	8.7232e-05	1130.6	2.498e-06	3.6692e-06	1236.7	229.15	1.9975e-06	1.1279e-06	292.72	83.548	64.882	19.038	3.6566e-06	26.357	0.00027235	0.00026539	7.4417e-05	1110.6	2.9793e-06	2.9531e-06	1219	227.79	2.868e-06	2.9104e-06	289.76	83.82	65.001	19.269	2.9173e-06	26.776	125.579	-30.073	-34.442	-118.072	72.708	31.429	-117.792	-110.715	-78.927	14.715	-110.767	-104.517	-104.190	-96.931	-48.715	-97.150	-8191	255	
14299.139	1	1	0	0	0.29083	0.18121	0.1334	0.10515	0.085304	0.050898	0.37336	0.19045	0.030893	0.070459	0.11744	0.08284	0.10084	0.11733	0.31725	0.051358	-1.7708	-2.3563	-2.5854	-2.4375	-2.5687	-2.7146	-2.5479	-2.7104	-2.4479	-2.4708	-2.9167	-2.4271	-2.7833	-2.5854	-2.3271	-2.7438	-1.618	-15.260	-47.450	184.919	28.064	-43.326	171.745	168.599	141.760	146.172	16.955	84.372	-13.675	137.273	193.122	-48.140	0.00040497	0.00042345	5.8714e-05	1133.8	2.0376e-06	3.8718e-06	1234.5	231.05	2.8159e-06	3.4837e-06	290.71	83.429	64.647	19.102	2.9414e-06	26.308	0.00027039	0.00026589	7.2564e-05	1111.5	2.9705e-06	2.8746e-06	1219.4	228.37	2.95e-06	2.8816e-06	288.69	83.725	64.956	19.346	2.9334e-06	26.709	120.734	-18.531	-77.061	-117.938	-40.643	87.284	-117.802	-110.730	-22.319	60.341	-110.574	-104.607	-103.892	-96.672	-0.463	-97.163	-8191	255	
14299.234	1	1	0	0	0.14575	0.15876	0.2458	0.17791	0.23974	0.16759	0.024365	0.27708	0.234	0.17892	0.24812	0.26042	0.28506	0.1988	0.22898	0.10232	-1.9021	-2.1896	-2.7375	-2.5542	-2.4417	-2.7208	-2.4604	-2.9104	-2.5167	-2.5104	-2.8312	-2.5271	-2.6417	-2.7458	-2.2062	-2.6708	76.722	42.146	227.807	150.049	-84.372	50.903	194.764	131.193	226.637	115.463	143.194	-69.099	112.919	228.891	26.382	216.081	0.00037711	0.00036438	0.00011928	1130.8	8.9755e-07	1.4066e-06	1240.4	230.42	3.2038e-06	3.0815e-06	292.93	83.544	65.33	19.022	4.0785e-06	26.267	0.0002738	0.00026271	7.3767e-05	1110.5	2.9671e-06	2.8295e-06	1218.9	228.64	2.9297e-06	2.9556e-06	289.86	83.771	65.279	19.288	2.9336e-06	26.775	112.524	-54.477	8.283	-118.138	29.227	65.165	-118.216	-110.656	-18.352	-28.665	-111.065	-104.702	-104.160	-96.995	-5.422	-97.265	-8191	255	
14299.330	1	1	0	0	0.16922	0.17364	0.1218	0.26263	0.21169	0.32756	0.26205	0.14823	0.25832	0.21881	0.11773	0.17873	0.1019	0.14089	0.18976	0.050742	-1.9875	-2.2188	-2.7062	-2.6021	-2.2667	-2.575	-2.2958	-2.7125	-2.6813	-2.2438	-2.8667	-2.4917	-2.3	-2.7521	-2.2521	-2.6208	230.598	-70.728	189.473	168.171	-84.994	-20.313	-99.320	163.234	72.574	44.528	-34.653	144.970	189.042	-15.263	103.577	-87.615	0.00039037	0.000349	7.8094e-05	1127.8	1.7226e-06	1.964e-06	1236	230.6	5.4211e-06	6.1358e-07	292.72	83.535	64.891	19.075	3.3718e-06	26.465	0.0002651	0.0002609	7.4221e-05	1111.3	2.9513e-06	2.926e-06	1219.9	228.4	2.9549e-06	2.8991e-06	289.74	83.746	65.058	19.329	2.8923e-06	26.831	121.670	-99.842	-75.435	-118.010	109.644	4.774	-117.995	-110.951	-7.644	170.461	-111.024	-104.507	-103.930	-96.557	-26.912	-97.179	-8191	255	
14299.451	1	1	0	0	0.15222	0.10387	0.11991	0.27882	0.14386	0.12168	0.23514	0.087012	0.24619	0.047813	0.1823	0.26446	0.093993	0.11467	0.14351	0.10975	-2.3333	-2.2083	-2.5438	-2.4542	-2.1667	-2.9083	-2.4938	-2.7396	-2.6354	-2.3438	-2.6688	-2.625	-2.3688	-2.7292	-2.4917	-2.6188	227.990	133.134	12.022	208.085	-42.270	225.155	218.975	144.765	-61.946	-19.466	189.931	211.345	220.385	-73.682	72.357	106.082	0.00027538	0.00039233	0.00014361	1132.7	3.5657e-06	2.3396e-06	1234.9	229.76	4.2258e-06	4.7214e-06	289.41	84.158	64.548	19.08	4.1927e-06	26.339	0.0002697	0.00026571	7.1322e-05	1111.6	2.9249e-06	2.9099e-06	1219.7	228.04	2.8453e-06	2.8918e-06	289.31	83.797	64.925	19.324	2.934e-06	26.78	131.459	-1.208	-30.806	-117.871	9.923	10.852	-118.113	-110.723	8.728	20.706	-111.181	-104.583	-103.884	-97.015	19.348	-97.340	-8191	255	
14299.547	1	1	0	0	0.30333	0.080852	0.1965	0.25127	0.11327	0.080454	0.086206	0.1128	0.34547	0.21216	0.11121	0.052982	0.15459	0.13365	0.20645	0.26404	-2.3104	-2.1083	-2.5312	-2.4979	-2.2833	-2.6729	-2.6771	-2.5896	-2.6917	-2.2771	-2.5792	-2.6667	-2.4771	-2.7521	-2.425	-2.4313	28.694	-89.077	175.334	147.256	92.816	191.761	142.055	84.891	42.394	-53.617	-21.939	170.071	187.842	172.483	-97.090	206.233	0.00030684	0.00032796	0.00010343	1127.8	4.1545e-06	8.29e-07	1237.6	230.56	6.4812e-06	4.9907e-06	292.83	83.823	64.762	18.941	3.6424e-06	26.351	0.00027988	0.0002714	7.4289e-05	1108.5	3.0153e-06	2.8986e-06	1222.2	227.93	2.8702e-06	2.803e-06	289.26	83.76	64.884	19.264	2.9471e-06	26.78	133.944	-67.912	-36.616	-117.998	6.040	80.243	-117.965	-110.751	-36.716	2.324	-110.834	-104.496	-104.076	-97.074	-62.719	-96.594	-8191	255	
14299.618	1	1	0	0	0.22319	0.30077	0.11343	0.15316	0.23637	0.20329	0.27299	0.17036	0.14087	0.19445	0.19025	0.1885	0.12582	0.21617	0.20924	0.23668	-2.2125	-2.1458	-2.5792	-2.8083	-2.2542	-2.5917	-2.7333	-2.4875	-2.75	-2.1063	-2.7104	-2.7562	-2.4062	-2.7917	-2.5104	-2.4729	60.294	222.732	89.081	-116.832	-2.885	94.316	136.111	194.311	200.854	-7.715	148.479	160.049	50.732	11.663	195.531	-27.768	0.00029386	0.00013174	5.8628e-05	1126.5	2.6259e-06	2.5342e-06	1236.5	230.33	2.2126e-06	5.6793e-06	290.95	83.61	64.978	18.935	4.6024e-06	26.299	0.0002711	0.00027	7.402e-05	1110	2.9909e-06	2.9264e-06	1217.8	228.28	2.9045e-06	2.8404e-06	289.13	83.631	64.951	19.253	2.9924e-06	26.788	128.346	-91.607	-45.636	-118.068	-55.791	-120.768	-117.795	-110.974	-3.560	-15.974	-110.858	-104.461	-104.508	-96.804	-8.401	-97.513	-8191	255	
14299.715	1	1	0	0	0.20096	0.057398	0.15573	0.58036	0.18117	0.2735	0.29167	0.19498	0.022943	0.3758	0.22972	0.18533	0.28064	0.3139	0.051144	0.028175	-2.3479	-2.2646	-2.4875	-2.7271	-2.2979	-2.725	-2.65	-2.3625	-2.8563	-2.5167	-2.7375	-2.6042	-2.0938	-2.7938	-2.6021	-2.325	-125.902	109.010	-29.654	222.162	162.441	-128.279	199.334	-68.224	25.600	18.629	-100.715	-39.917	119.895	-22.251	209.362	-44.353	0.00033457	0.0004708	9.9006e-05	1127.8	1.1278e-06	2.9478e-06	1239.6	230.37	3.4461e-06	3.4802e-06	291.2	83.976	65.174	18.894	2.4949e-06	26.492	0.0002667	0.00026822	7.3457e-05	1110.4	2.9818e-06	3.0154e-06	1220.3	228.61	2.9175e-06	2.9397e-06	289.33	83.631	65.183	19.236	2.9894e-06	26.848	134.917	-35.228	1.435	-118.094	-38.505	47.975	-117.933	-110.650	10.784	27.133	-110.425	-104.643	-104.109	-96.672	53.648	-97.347	-8191	255	
14299.835	1	1	0	0	0.057117	0.23467	0.033767	0.027754	0.30364	0.13328	0.14174	0.32239	0.099622	0.063561	0.44839	0.1866	0.1565	0.31254	0.27774	0.16765	-2.3146	-2.4062	-2.4729	-2.7896	-2.4562	-2.6063	-2.6583	-2.3958	-2.7271	-2.3167	-2.7042	-2.8187	-2.2687	-2.4833	-2.6542	-2.4896	-115.058	216.033	-123.182	10.623	-99.158	-49.958	69.835	205.495	186.673	180.205	161.077	159.823	-3.904	198.192	-21.573	-23.509	0.00036352	0.00030385	7.2395e-05	1126.2	1.054e-06	5.516e-06	1238.2	230.5	6.8957e-06	5.6714e-06	291.79	83.214	64.802	19.175	4.3635e-06	26.285	0.00026864	0.00026817	7.2654e-05	1109.3	2.9536e-06	2.96e-06	1219.9	228.62	2.976e-06	2.9481e-06	289.79	83.491	64.964	19.334	2.9718e-06	26.755	126.763	-41.610	-63.203	-118.136	32.323	51.446	-118.129	-110.730	-33.001	8.086	-111.037	-104.455	-103.618	-96.763	108.115	-97.096	-8191	255	
14299.931	1	1	0	0	0.20744	0.072088	0.15612	0.2747	0.18081	0.18284	0.12604	0.18742	0.038466	0.13774	0.098741	0.12169	0.16601	0.20265	0.11256	0.093121	-2.3438	-2.3229	-2.5187	-2.7542	-2.2875	-2.5	-2.775	-2.2708	-2.8167	-2.3729	-2.5229	-2.7542	-2.3667	-2.625	-2.6604	-2.2542	-97.429	59.831	60.684	170.750	150.868	14.421	153.385	-127.734	168.885	99.042	180.809	212.818	214.265	203.013	8.495	-72.208	0.00033654	0.00023752	0.00014849	1130.9	9.6195e-07	3.669e-06	1240.2	229.57	2.4752e-06	3.0483e-06	290.5	83.635	64.704	18.886	3.6284e-06	26.295	0.00027293	0.00026686	7.4118e-05	1110.6	2.9338e-06	2.8894e-06	1220.1	228.09	2.8715e-06	2.8756e-06	289.34	83.596	64.891	19.232	2.9417e-06	26.735	141.561	10.685	-35.462	-117.958	-52.853	7.123	-117.874	-110.914	-5.015	36.259	-110.752	-104.459	-104.002	-97.042	41.865	-97.239	-8191	255	
14300.026	1	1	0	0	0.19863	0.12499	0.055682	0.098487	0.24006	0.10642	0.27258	0.16928	0.16352	0.29728	0.1064	0.20208	0.14824	0.18605	0.20245	0.096884	-2.3167	-2.2333	-2.3958	-2.8271	-2.3354	-2.4062	-2.9146	-2.3688	-2.5187	-2.6417	-2.5833	-2.7646	-2.5729	-2.4688	-2.5771	-2.3729	-18.597	223.685	-57.820	103.223	-11.445	220.478	220.177	-35.872	166.000	-27.726	69.101	201.777	-58.012	-3.157	111.433	-66.164	0.00034781	0.00041068	5.8719e-05	1128	1.2631e-06	4.3963e-06	1241.1	229.57	2.5531e-06	5.8353e-06	290.22	82.702	64.94	18.973	3.6956e-06	26.195	0.00026491	0.00026275	7.2581e-05	1109.2	2.9259e-06	2.8719e-06	1219.5	228.57	2.8952e-06	2.8508e-06	289.03	83.564	64.95	19.313	2.8955e-06	26.664	128.667	-73.908	-13.852	-118.078	-48.262	56.788	-118.020	-110.844	-39.197	98.852	-110.422	-104.319	-104.029	-96.595	4.161	-97.724	-8191	255	
14300.124	1	1	0	0	0.079503	0.16494	0.19317	0.39245	0.080787	0.067892	0.34567	0.1827	0.25253	0.16521	0.13729	0.1975	0.069824	0.20889	0.14187	0.2309	-2.2438	-2.6521	-2.2333	-2.9458	-2.2917	-2.4938	-2.8375	-2.3167	-2.75	-2.5563	-2.3604	-2.8667	-2.4333	-2.4167	-2.575	-2.2896	-22.796	187.548	187.714	222.144	-117.286	211.146	121.554	109.999	170.530	151.036	-110.051	146.389	-69.778	-119.523	-80.589	180.333	0.00031209	0.00037153	5.485e-05	1124.8	1.5667e-06	2.4969e-06	1237.8	229.09	2.2709e-06	6.8745e-06	289.85	83.433	64.25	19.068	4.6383e-06	26.465	0.00027137	0.00026497	7.3861e-05	1107.4	2.9976e-06	2.9039e-06	1219.7	227.75	2.9642e-06	2.884e-06	288.91	83.702	64.823	19.271	2.9277e-06	26.754	131.615	-39.234	-92.659	-118.028	-5.855	-20.980	-118.097	-110.742	56.836	-0.837	-110.975	-104.444	-104.157	-96.497	56.998	-97.432	-8191	255	
#DATA ENDS
