BOXY.EXE: ISS Imagent and Oximeter Data Acquisition Program Version 0.80
Ascii Record File

#ACQ INFORMATION
2  Detector Channels 
16  External MUX Channels 
1  Auxiliary Channels 
5000  Waveform (CCF) Frequency (Hz)
1  Waveforms Skipped 
30  Waveforms Averaged 
1  Cycles Averaged 
16  Acquisitions per Waveform 
10.0806  Updata Rate (Hz) 

#FILE INFORMATION
TRUE -- External MUX Channel results are PARSED.
FALSE -- AC DC and Phase are NOT grouped.
TRUE -- Companion Program Settings File CREATED.
FALSE -- AC data not excluded
FALSE -- DC data not excluded
FALSE -- Phase data not excluded
FALSE -- Auxillary Chn. data not excluded
Tab delimiters

#CALIBRATION STATE
TRUE -- Waveform Calibration Values APPLIED.


#AUX CALIBRATION VALUES
Val Type	aux-1	

Term	1.0000e+00	
Factor	0.0000e+00	


#WF CALIBRATION VALUES
A = Detector Channel
Val Type	A-AC1	A-AC2	A-AC3	A-AC4	A-AC5	A-AC6	A-AC7	A-AC8	A-AC9	A-AC10	A-AC11	A-AC12	A-AC13	A-AC14	A-AC15	A-AC16	A-DC1	A-DC2	A-DC3	A-DC4	A-DC5	A-DC6	A-DC7	A-DC8	A-DC9	A-DC10	A-DC11	A-DC12	A-DC13	A-DC14	A-DC15	A-DC16	A-Ph1	A-Ph2	A-Ph3	A-Ph4	A-Ph5	A-Ph6	A-Ph7	A-Ph8	A-Ph9	A-Ph10	A-Ph11	A-Ph12	A-Ph13	A-Ph14	A-Ph15	A-Ph16	

Term	0.00000e+00	0.00000e+00	0.00000e+00	0.00000e+00	0.00000e+00	0.00000e+00	0.00000e+00	0.00000e+00	0.00000e+00	0.00000e+00	0.00000e+00	0.00000e+00	0.00000e+00	0.00000e+00	0.00000e+00	0.00000e+00	0.00000e+00	0.00000e+00	0.00000e+00	0.00000e+00	0.00000e+00	0.00000e+00	0.00000e+00	0.00000e+00	0.00000e+00	0.00000e+00	0.00000e+00	0.00000e+00	0.00000e+00	0.00000e+00	0.00000e+00	0.00000e+00	0.00000e+00	0.00000e+00	0.00000e+00	0.00000e+00	0.00000e+00	0.00000e+00	0.00000e+00	0.00000e+00	0.00000e+00	0.00000e+00	0.00000e+00	0.00000e+00	0.00000e+00	0.00000e+00	0.00000e+00	0.00000e+00	
Factor	1.00000e+00	1.00000e+00	1.00000e+00	1.00000e+00	1.00000e+00	1.00000e+00	1.00000e+00	1.00000e+00	1.00000e+00	1.00000e+00	1.00000e+00	1.00000e+00	1.00000e+00	1.00000e+00	1.00000e+00	1.00000e+00	1.00000e+00	1.00000e+00	1.00000e+00	1.00000e+00	1.00000e+00	1.00000e+00	1.00000e+00	1.00000e+00	1.00000e+00	1.00000e+00	1.00000e+00	1.00000e+00	1.00000e+00	1.00000e+00	1.00000e+00	1.00000e+00	X	X	X	X	X	X	X	X	X	X	X	X	X	X	X	X	

B = Detector Channel
Val Type	B-AC1	B-AC2	B-AC3	B-AC4	B-AC5	B-AC6	B-AC7	B-AC8	B-AC9	B-AC10	B-AC11	B-AC12	B-AC13	B-AC14	B-AC15	B-AC16	B-DC1	B-DC2	B-DC3	B-DC4	B-DC5	B-DC6	B-DC7	B-DC8	B-DC9	B-DC10	B-DC11	B-DC12	B-DC13	B-DC14	B-DC15	B-DC16	B-Ph1	B-Ph2	B-Ph3	B-Ph4	B-Ph5	B-Ph6	B-Ph7	B-Ph8	B-Ph9	B-Ph10	B-Ph11	B-Ph12	B-Ph13	B-Ph14	B-Ph15	B-Ph16	

Term	0.00000e+00	0.00000e+00	0.00000e+00	0.00000e+00	0.00000e+00	0.00000e+00	0.00000e+00	0.00000e+00	0.00000e+00	0.00000e+00	0.00000e+00	0.00000e+00	0.00000e+00	0.00000e+00	0.00000e+00	0.00000e+00	0.00000e+00	0.00000e+00	0.00000e+00	0.00000e+00	0.00000e+00	0.00000e+00	0.00000e+00	0.00000e+00	0.00000e+00	0.00000e+00	0.00000e+00	0.00000e+00	0.00000e+00	0.00000e+00	0.00000e+00	0.00000e+00	-1.23726e+02	-1.39918e+02	-1.78938e+02	-1.81413e+02	-3.50059e+01	-7.24347e+01	-1.57789e+02	-1.62015e+02	-7.41590e+01	-9.50557e+01	-1.80411e+02	-1.70917e+02	-1.81322e+02	-1.76271e+02	-8.71251e+01	-1.49364e+02	
Factor	1.81544e-05	1.23178e-04	2.51159e-05	1.85326e-01	8.05980e-07	9.73926e-07	1.72092e-01	5.34215e-02	8.30615e-07	1.09759e-06	1.07935e-01	3.07122e-02	2.47813e-02	9.40291e-03	9.68748e-07	1.38253e-02	5.41759e-07	5.53856e-07	1.53778e-07	8.86287e-02	6.03997e-09	6.06804e-09	7.82073e-02	2.56647e-02	6.05508e-09	6.07195e-09	4.76290e-02	1.39290e-02	1.17526e-02	4.39035e-03	6.05682e-09	6.14778e-03	X	X	X	X	X	X	X	X	X	X	X	X	X	X	X	X	



#DISTANCE SETTINGS
A = Detector Channel
A-1	A-2	A-3	A-4	A-5	A-6	A-7	A-8	A-9	A-10	A-11	A-12	A-13	A-14	A-15	A-16	

2.5000e+00	3.0000e+00	2.5000e+00	3.0000e+00	2.0000e+00	3.0000e+00	1.5000e+00	3.0000e+00	3.0000e+00	3.0000e+00	3.0000e+00	3.0000e+00	3.0000e+00	3.0000e+00	1.5000e+00	3.0000e+00	

B = Detector Channel
B-1	B-2	B-3	B-4	B-5	B-6	B-7	B-8	B-9	B-10	B-11	B-12	B-13	B-14	B-15	B-16	

1.0000e+01	1.0000e+01	1.0000e+01	1.4400e+00	1.0000e+01	1.0000e+01	1.5100e+00	1.9400e+00	1.0000e+01	1.0000e+01	1.9900e+00	2.4900e+00	2.4100e+00	2.9000e+00	1.0000e+01	2.9800e+00	




#DATA BEGINS
time	group	step	mark	flag	A-AC1	A-AC2	A-AC3	A-AC4	A-AC5	A-AC6	A-AC7	A-AC8	A-AC9	A-AC10	A-AC11	A-AC12	A-AC13	A-AC14	A-AC15	A-AC16	A-DC1	A-DC2	A-DC3	A-DC4	A-DC5	A-DC6	A-DC7	A-DC8	A-DC9	A-DC10	A-DC11	A-DC12	A-DC13	A-DC14	A-DC15	A-DC16	A-Ph1	A-Ph2	A-Ph3	A-Ph4	A-Ph5	A-Ph6	A-Ph7	A-Ph8	A-Ph9	A-Ph10	A-Ph11	A-Ph12	A-Ph13	A-Ph14	A-Ph15	A-Ph16	B-AC1	B-AC2	B-AC3	B-AC4	B-AC5	B-AC6	B-AC7	B-AC8	B-AC9	B-AC10	B-AC11	B-AC12	B-AC13	B-AC14	B-AC15	B-AC16	B-DC1	B-DC2	B-DC3	B-DC4	B-DC5	B-DC6	B-DC7	B-DC8	B-DC9	B-DC10	B-DC11	B-DC12	B-DC13	B-DC14	B-DC15	B-DC16	B-Ph1	B-Ph2	B-Ph3	B-Ph4	B-Ph5	B-Ph6	B-Ph7	B-Ph8	B-Ph9	B-Ph10	B-Ph11	B-Ph12	B-Ph13	B-Ph14	B-Ph15	B-Ph16	aux-1	digaux	

1711.158	1	1	0	512	0.15277	0.12537	0.19015	0.038487	0.10612	0.22542	0.12197	0.047377	0.17023	0.063396	0.18376	0.065384	0.25715	0.21567	0.016567	0.17523	-2.6396	-3.0021	-2.4833	-3.0896	-2.7042	-2.7958	-3.1188	-2.4979	-2.9062	-2.9667	-2.525	-3.1979	-2.6958	-2.5229	-3.0271	-2.5292	310.392	35.396	73.474	354.100	223.356	300.435	300.293	378.823	37.326	173.186	361.101	257.015	297.074	175.179	119.617	153.802	0.00016483	0.00052063	7.3218e-05	537.38	3.7549e-06	4.3702e-06	568.18	198.78	1.7041e-06	4.9215e-06	210.04	77.537	73.783	17.883	1.2112e-06	18.384	0.00018606	0.00018873	4.9658e-05	518.61	2.0781e-06	2.061e-06	546.67	189.72	2.0794e-06	2.0302e-06	197.08	73.447	70.176	17.363	1.8936e-06	17.929	146.468	306.181	385.458	38.957	212.373	115.553	37.417	43.908	144.318	116.559	40.639	44.535	47.931	51.869	370.876	47.684	-8191	255	
1711.254	1	1	0	0	0.1195	0.038534	0.22434	0.27717	0.20991	0.30359	0.039942	0.05504	0.19496	0.016193	0.22864	0.11069	0.1879	0.21463	0.24192	0.33409	-2.3875	-2.8063	-2.4708	-3.05	-2.8271	-2.5396	-3.3229	-2.5563	-2.8229	-3.1146	-2.5208	-2.9667	-2.8542	-2.2646	-3.1562	-2.6125	218.886	162.677	351.448	52.586	115.888	365.846	201.510	162.234	320.157	301.412	363.524	243.328	257.232	311.566	375.855	185.723	0.0001308	0.00030593	3.1827e-05	539.14	3.0189e-06	3.0566e-06	566.7	199.51	2.7183e-06	4.5414e-06	210.81	78.056	74.105	18.12	2.2019e-06	18.775	0.00019013	0.0001817	4.7824e-05	519.96	2.0789e-06	1.9706e-06	545.67	190.27	2.0821e-06	1.9774e-06	196.76	73.571	70.414	17.554	1.8793e-06	18.164	116.851	280.803	74.044	38.891	115.097	116.305	37.360	43.639	168.063	110.007	40.559	44.414	47.796	52.218	161.829	47.427	-8191	255	
1711.348	1	1	0	0	0.17257	0.082124	0.19588	0.2205	0.39605	0.10629	0.37512	0.18315	0.18447	0.19372	0.20755	0.31277	0.097559	0.070748	0.10047	0.10684	-2.0563	-3.2729	-2.3333	-2.9313	-2.8229	-2.2938	-3.1937	-2.725	-2.5312	-3.2125	-2.5917	-2.8146	-3.1042	-2.3917	-3.0646	-2.8875	226.821	118.831	27.255	357.430	252.361	166.366	331.678	332.072	250.453	133.287	324.891	306.969	221.180	40.474	184.126	273.202	0.00012647	0.0004444	4.9764e-05	539.89	1.2613e-06	2.9673e-06	567.28	200.63	2.9759e-06	2.9319e-06	211.13	77.827	74.089	18.302	6.2472e-06	18.653	0.0001902	0.0001794	4.7446e-05	519.36	2.0784e-06	1.9472e-06	543.96	192.15	2.0932e-06	1.9612e-06	197.89	73.72	70.307	17.752	1.9116e-06	18.392	135.106	85.885	73.438	39.046	265.748	109.960	37.494	43.589	172.986	81.878	40.545	44.481	47.847	51.681	118.151	47.627	-8191	255	
1711.444	1	1	0	0	0.087571	0.074747	0.060254	0.2649	0.10517	0.2769	0.067721	0.091257	0.10892	0.12854	0.19592	0.17885	0.35384	0.20626	0.054985	0.16377	-2.0938	-3.2729	-2.4271	-3.1229	-2.9292	-2.4125	-3.0729	-2.7396	-2.7125	-3.1667	-2.6562	-3.1104	-3.1333	-2.3833	-3.0625	-2.8688	307.497	200.311	56.216	303.377	145.390	335.895	348.747	159.856	353.122	43.643	325.347	366.753	305.733	82.521	32.962	228.313	0.00014632	0.00036775	3.4598e-05	537.44	1.777e-06	3.7812e-06	569.03	201.76	3.4823e-06	4.0288e-06	211.03	77.441	73.702	18.57	5.1613e-06	18.544	0.00018767	0.00017923	4.906e-05	521.83	2.0704e-06	1.9491e-06	549.24	193.89	2.0489e-06	1.9319e-06	199.25	73.81	70.065	17.841	2.0014e-06	18.361	154.615	362.328	262.683	38.973	273.362	239.898	37.278	43.626	370.301	54.882	40.719	44.701	47.537	51.869	177.877	47.925	-8191	255	
1711.565	1	1	0	0	0.20556	0.14456	0.29796	0.1558	0.0049526	0.2358	0.16917	0.05057	0.22118	0.197	0.2848	0.049195	0.17635	0.091835	0.10281	0.11425	-2.1667	-3.0792	-2.4688	-2.6917	-3.2625	-2.3896	-3.0833	-2.9854	-2.5875	-3.3333	-2.5729	-2.6917	-3.1813	-2.2979	-3.0375	-2.9042	276.805	238.997	139.600	275.259	216.299	371.604	383.616	341.833	267.399	312.921	358.184	248.345	339.635	366.562	36.329	86.686	0.00010158	0.00031392	8.2979e-05	538.96	2.6829e-06	3.319e-06	567.5	202.36	3.2143e-06	3.3609e-06	209.51	75.677	72.761	18.185	4.0416e-06	18.244	0.00018591	0.00017954	5.2343e-05	522.04	2.0918e-06	1.9938e-06	546.8	194.36	2.1244e-06	2.0115e-06	199.09	72.466	69.453	17.671	2.2459e-06	18.148	179.421	49.856	72.286	39.289	255.447	144.646	37.322	43.682	213.967	247.203	40.393	44.048	47.653	51.736	147.392	47.246	-8191	255	
1711.661	1	1	0	0	0.19869	0.1946	0.11152	0.1092	0.16357	0.16287	0.17814	0.22095	0.13259	0.13153	0.081	0.17269	0.26002	0.066629	0.30697	0.14746	-2.025	-3.1396	-2.6375	-2.7396	-3.0062	-2.6	-2.9646	-3.0271	-2.6125	-3.175	-2.8812	-2.8292	-3.1562	-2.4	-2.9979	-2.9813	56.459	101.329	28.134	49.736	67.781	89.034	28.515	322.518	270.692	272.513	76.551	87.205	350.775	180.255	157.649	372.647	0.00010108	0.00024683	0.00017802	543.02	3.1046e-06	1.4108e-06	569.43	204.06	2.323e-06	4.89e-06	212.5	75.227	72.766	18.142	4.038e-06	18.368	0.00019477	0.00018727	5.7187e-05	529.06	2.1339e-06	2.0533e-06	552.7	195.73	2.1317e-06	2.0695e-06	201.11	72.147	69.398	17.688	2.3025e-06	18.145	147.524	98.188	127.709	39.403	107.908	125.972	37.424	43.480	370.548	198.030	40.699	44.204	47.827	51.840	157.907	46.994	-8191	255	
1711.757	1	1	0	0	0.019702	0.1954	0.11519	0.085425	0.19362	0.11362	0.021785	0.17834	0.12498	0.087225	0.067836	0.10104	0.12038	0.13556	0.28023	0.16777	-2.0333	-3.2771	-2.5708	-2.5604	-2.9875	-2.5667	-2.8792	-3.0979	-2.6312	-2.8542	-3.0271	-2.6542	-3.2104	-2.5958	-2.7875	-3.1896	328.697	329.052	239.303	375.498	227.892	343.946	295.516	330.299	278.304	243.408	133.632	367.798	66.643	172.473	356.179	278.065	0.00019216	0.00050683	2.3309e-05	548.38	7.9119e-07	3.4646e-06	572.61	204.03	8.1612e-07	2.8843e-06	210.65	74.941	72.414	18.185	2.5601e-06	18.358	0.0001922	0.00019132	5.9159e-05	531.4	2.099e-06	2.1657e-06	555.84	196.46	2.1021e-06	2.1762e-06	202.02	71.579	69.053	17.771	2.3639e-06	18.187	168.675	129.593	43.205	39.149	70.155	264.690	37.613	43.402	132.100	192.287	40.292	44.083	47.443	51.551	134.002	47.685	-8191	255	
1711.829	1	1	0	0	0.18819	0.085568	0.087303	0.034407	0.16788	0.17143	0.24142	0.17199	0.19207	0.1397	0.14398	0.076218	0.13124	0.11507	0.18452	0.31014	-2.0146	-3.0042	-2.9375	-2.3396	-3.0417	-2.45	-2.6104	-3.0583	-2.2938	-3.0229	-2.9542	-2.5292	-3.1083	-2.6604	-2.4292	-3.1542	121.901	63.764	276.786	72.873	257.827	222.662	32.496	368.543	333.642	222.819	285.607	78.658	37.184	339.556	61.250	324.875	0.00012488	0.00047515	0.00013164	548.83	3.6216e-06	3.5602e-06	575.06	205.93	2.2108e-06	4.5276e-06	214.38	74.562	72.649	18.336	4.9045e-06	18.729	0.00019213	0.00020651	5.9758e-05	531.53	2.0872e-06	2.2791e-06	558.28	198.02	2.109e-06	2.3113e-06	203.39	71.301	68.93	17.993	2.3564e-06	18.379	154.237	190.291	84.100	38.838	127.039	189.900	37.350	43.619	207.199	111.940	40.358	44.639	47.516	51.540	134.034	47.681	-8191	255	
1711.925	1	1	0	0	0.021876	0.11658	0.13582	0.13322	0.17946	0.11086	0.09773	0.13818	0.13335	0.1785	0.26038	0.26612	0.22196	0.26831	0.25296	0.067495	-2.0667	-2.9271	-2.9708	-2.4708	-2.9792	-2.7958	-2.7146	-3.2687	-2.5771	-2.9604	-3.2021	-2.5521	-3.275	-2.6813	-2.575	-3.1063	173.608	325.172	383.782	195.128	248.584	292.014	344.427	308.062	180.131	86.994	291.690	178.829	342.812	237.658	121.374	199.246	0.0001436	0.00035781	9.3063e-05	545.73	4.5076e-06	6.9469e-06	562.99	206.07	1.1863e-06	8.4932e-06	212.52	74.426	72.564	18.368	1.9307e-06	18.365	0.00019477	0.00021678	5.9506e-05	528.06	2.1331e-06	2.4182e-06	550.89	198.23	2.1547e-06	2.3874e-06	202.13	70.769	68.793	18.079	2.2717e-06	18.051	139.671	306.469	335.916	38.739	216.008	161.813	37.654	43.466	214.265	134.581	40.515	44.671	47.689	51.646	75.136	47.534	-8191	255	
1712.046	1	1	0	0	0.13338	0.061115	0.056506	0.23149	0.17069	0.1875	0.24436	0.087154	0.10914	0.10977	0.14222	0.08271	0.19769	0.19937	0.1581	0.16034	-2.0312	-2.8708	-2.9229	-2.4938	-2.9479	-2.8563	-2.6729	-3.2021	-2.4729	-2.6958	-3.325	-2.4771	-3.1813	-2.8833	-2.5646	-3.2125	379.477	336.472	125.710	311.733	284.607	194.046	311.870	356.134	227.816	159.155	170.943	82.954	381.627	339.997	192.886	124.291	0.00019584	0.00037288	3.1842e-05	536.99	2.4801e-06	3.919e-06	563.58	204.53	7.8577e-07	1.1747e-06	212.75	73.53	71.986	18.252	3.4194e-06	18.083	0.00020024	0.00021733	5.7265e-05	522.02	2.1925e-06	2.4049e-06	546.02	196.27	2.2385e-06	2.3679e-06	201.07	70.147	68.839	17.944	2.2366e-06	17.902	148.402	128.933	319.964	38.851	205.649	135.188	37.574	43.468	145.362	291.843	40.340	44.339	47.891	51.839	170.139	47.768	-8191	255	
1712.142	1	1	0	0	0.35777	0.16666	0.42424	0.1719	0.11661	0.20642	0.064809	0.44474	0.092609	0.14785	0.22055	0.2927	0.054752	0.093238	0.10426	0.050394	-2.2188	-2.575	-3.1604	-2.2792	-3.0396	-2.8438	-2.5	-3.2667	-2.5646	-2.675	-3.1104	-2.525	-2.7229	-2.9062	-2.3312	-3.3208	372.372	176.288	75.998	300.024	130.355	125.914	240.271	378.437	233.975	180.441	248.541	232.600	96.944	329.206	48.479	253.807	0.0001878	0.00019566	9.9294e-05	539.81	2.6979e-06	3.3373e-06	566.7	205.21	5.6792e-07	6.1846e-06	211.45	73.981	72.139	18.339	3.9148e-06	18.397	0.000208	0.00021363	5.5826e-05	520.95	2.3015e-06	2.3314e-06	547.39	196.82	2.341e-06	2.3142e-06	200.68	70.68	69.261	18.05	2.183e-06	18.174	132.460	73.738	380.759	38.725	247.319	180.300	37.610	43.501	49.087	262.202	40.579	44.504	47.717	51.256	170.088	47.453	-8191	255	
1712.238	1	1	0	0	0.17331	0.17793	0.045867	0.08136	0.1269	0.037222	0.13253	0.10839	0.19892	0.093574	0.24051	0.06984	0.23	0.19236	0.24104	0.11113	-2.2479	-2.4771	-3.1125	-2.4792	-2.8021	-3.1854	-2.6146	-3.0271	-2.8729	-2.4271	-3.3333	-2.5542	-2.7729	-3	-2.4146	-3.0521	188.672	246.923	46.205	189.692	122.080	130.872	302.000	367.623	127.437	245.352	354.990	209.698	118.801	313.677	100.988	284.142	0.00013385	0.00046695	0.00011895	540.5	9.3629e-07	1.7077e-06	565.64	205.79	1.4982e-06	8.433e-06	213.36	74.119	72.869	18.424	3.2827e-06	18.84	0.00021899	0.00021166	5.5231e-05	523.64	2.419e-06	2.3027e-06	547.25	197.87	2.4444e-06	2.2938e-06	202.06	71.097	69.733	18.07	2.1566e-06	18.488	133.101	137.119	76.314	38.740	85.568	74.448	37.546	43.480	352.672	89.347	40.744	44.650	47.575	51.744	36.267	47.461	-8191	255	
1712.357	1	1	0	0	0.28347	0.10899	0.05078	0.070676	0.24244	0.16236	0.061567	0.42632	0.18539	0.090806	0.078789	0.057084	0.28328	0.27788	0.13972	0.13859	-2.3812	-2.5125	-3.1188	-2.6833	-2.6542	-2.9625	-2.5104	-2.9458	-2.9125	-2.5521	-3.2875	-2.7667	-2.6792	-3.1792	-2.3833	-2.9	366.879	231.756	196.408	291.623	381.072	326.239	127.411	375.515	260.964	338.054	64.765	349.277	263.996	363.926	347.097	266.736	0.00018698	0.00034708	6.0847e-05	542.2	3.1451e-06	2.162e-06	574.03	207.52	2.0487e-06	7.4011e-07	216.67	75.365	73.066	18.61	2.0208e-06	18.687	0.00022056	0.00020599	5.4676e-05	526.06	2.3897e-06	2.2517e-06	552.57	199.58	2.3765e-06	2.2168e-06	203.82	72.3	69.855	18.156	2.1226e-06	18.647	151.343	78.231	259.851	39.101	194.445	45.512	37.325	43.533	157.087	128.008	40.408	44.532	47.418	51.689	149.219	47.855	-8191	255	
1712.429	1	1	0	0	0.1856	0.22292	0.31574	0.11853	0.15106	0.10103	0.14266	0.11737	0.20546	0.12799	0.13984	0.16911	0.34509	0.13617	0.16576	0.30671	-2.4938	-2.4938	-2.9896	-2.8458	-2.7375	-3.1333	-2.6646	-3.075	-2.9729	-2.5625	-3.2438	-2.7875	-2.7667	-3.1479	-2.7875	-2.7833	82.667	220.638	348.461	274.451	101.344	156.936	189.260	98.320	329.035	46.176	196.985	334.138	38.326	52.687	252.307	348.749	3.7512e-05	0.00038804	0.00011246	542.15	2.2784e-06	1.8455e-06	573	206.92	2.4618e-06	1.4864e-06	213.61	74.358	72.521	18.582	3.977e-06	18.663	0.00021294	0.00019911	5.3035e-05	528.12	2.3121e-06	2.1567e-06	551.58	199.18	2.2844e-06	2.168e-06	202.15	71.712	69.362	18.082	2.1454e-06	18.54	156.290	82.124	160.726	38.844	161.982	223.952	37.241	43.341	225.682	314.847	40.345	44.619	47.724	51.869	168.547	47.641	-8191	255	
1712.527	1	1	0	0	0.19844	0.12628	0.20487	0.12305	0.10969	0.2005	0.1216	0.093801	0.15955	0.23519	0.022048	0.21327	0.13502	0.22836	0.046379	0.16421	-2.55	-2.4833	-3.2896	-2.8292	-2.5938	-3.2062	-2.5396	-2.9604	-3.0729	-2.6021	-3.1292	-2.9792	-2.5479	-3.0271	-2.7708	-2.8438	51.845	27.426	270.499	288.507	257.562	329.455	66.477	371.972	293.529	36.760	47.177	37.052	39.002	138.214	230.505	109.069	0.00014285	0.00071939	8.8409e-05	545.61	4.2323e-06	4.6216e-06	570.81	206.27	2.0004e-06	2.0306e-06	215.45	75.056	72.61	18.431	3.5001e-06	18.491	0.000202	0.00019271	5.4434e-05	528.98	2.2055e-06	2.0806e-06	552.68	198.8	2.1813e-06	2.0881e-06	203.1	71.817	69.182	17.979	2.2013e-06	18.435	152.261	83.038	279.793	38.987	180.065	123.678	37.443	43.702	44.407	82.457	40.367	44.508	48.048	51.615	258.784	48.041	-8191	255	
1712.645	1	1	0	0	0.10082	0.25015	0.41324	0.19851	0.048615	0.0038816	0.074589	0.069994	0.12338	0.1021	0.12741	0.12961	0.35379	0.30578	0.086721	0.132	-2.7479	-2.3438	-3.0729	-3.0583	-2.3542	-3.075	-2.7771	-2.9208	-3.1521	-2.4958	-3.0333	-3.0333	-2.4521	-3.2083	-2.7229	-2.5896	198.807	130.459	346.530	29.326	343.298	67.715	76.581	306.150	306.655	177.386	316.511	294.790	344.004	49.313	90.688	175.016	0.00017308	0.00035425	6.8212e-05	545.44	1.647e-06	3.8865e-06	578.45	204.94	2.286e-06	2.3035e-06	215.43	75.973	72.581	18.698	1.9049e-06	18.851	0.00019387	0.00018768	5.5365e-05	529.75	2.109e-06	2.0148e-06	558.5	197.58	2.0889e-06	1.9979e-06	204.48	72.482	69.291	18.013	2.1733e-06	18.479	135.149	324.671	62.501	38.806	291.407	230.811	37.360	43.669	144.954	136.765	40.508	44.962	47.755	51.745	172.558	47.331	-8191	255	
1712.742	1	1	0	0	0.31059	0.27783	0.12734	0.29061	0.0859	0.13258	0.094335	0.077509	0.1343	0.11908	0.17883	0.25304	0.19731	0.071267	0.017206	0.33155	-2.6375	-2.5521	-2.8208	-3.1229	-2.3729	-3.2229	-3.0563	-2.7333	-3.2667	-2.6625	-3.0187	-3.0833	-2.2771	-3.1042	-2.8479	-2.5375	52.024	345.660	323.797	375.771	338.843	284.286	201.442	83.950	209.766	313.079	27.101	223.169	222.081	262.795	247.689	302.007	0.00020867	0.00018985	0.00015251	544.44	2.8042e-06	3.3388e-06	580.76	203.95	2.535e-06	5.5466e-06	219.29	78.108	74.068	18.107	8.9501e-07	19.023	0.00018351	0.00018061	5.5177e-05	527.25	1.9916e-06	1.9532e-06	561.69	195.97	1.9532e-06	1.9772e-06	206.15	74.266	70.089	17.468	2.0869e-06	18.473	143.024	188.144	94.047	39.283	91.804	151.381	37.501	43.538	263.345	166.449	40.632	44.582	47.548	52.110	241.037	47.581	-8191	255	
1712.838	1	1	0	0	0.17964	0.19528	0.17208	0.079793	0.17029	0.16816	0.13979	0.14317	0.063687	0.10783	0.049656	0.078181	0.19962	0.20322	0.10141	0.16808	-2.9042	-2.3771	-2.6813	-3.0521	-2.4146	-3.0687	-2.9167	-2.4833	-2.9021	-2.6875	-2.8333	-3.0438	-2.3042	-3.1021	-2.9542	-2.45	220.272	74.453	155.329	199.020	203.907	263.214	88.152	207.122	167.879	99.292	226.842	53.794	318.189	35.902	197.803	321.474	7.7897e-05	0.00040228	2.125e-05	541.96	2.1815e-06	9.2227e-07	584.84	203.36	3.1907e-06	4.5373e-06	216.93	78.583	74.343	17.669	3.4039e-06	18.559	0.00016756	0.00017508	5.2436e-05	523.21	1.8249e-06	1.8965e-06	562.95	194.2	1.7982e-06	1.9481e-06	203.81	74.368	69.783	17.144	2.0318e-06	18.131	169.049	164.996	332.680	39.220	380.517	176.826	37.729	43.613	200.837	128.584	40.433	44.468	47.926	52.084	116.002	47.571	-8191	255	
1712.958	1	1	0	0	0.1266	0.068266	0.14834	0.065739	0.12334	0.069061	0.17876	0.056257	0.056668	0.099979	0.0836	0.022913	0.074826	0.14248	0.2586	0.17636	-2.6958	-2.5667	-2.5563	-3.05	-2.4083	-2.9146	-3.0958	-2.4521	-3.15	-2.625	-2.7833	-3.3104	-2.6167	-2.9708	-2.9708	-2.5354	376.491	76.840	61.912	63.270	278.831	239.982	372.875	266.454	38.625	259.909	305.472	339.812	305.659	231.143	131.610	330.591	7.6893e-05	0.00036186	6.1683e-05	538.19	2.9818e-06	1.3516e-06	573.24	202.87	5.7047e-06	5.6614e-06	213.62	77.669	73.806	17.809	1.2724e-06	18.501	0.00016434	0.00018232	5.085e-05	518.66	1.828e-06	2.0145e-06	552.69	193.33	1.8342e-06	2.0144e-06	201.47	73.339	69.565	17.313	1.9885e-06	17.946	139.306	48.349	226.186	39.188	199.067	243.520	37.139	43.545	182.817	140.453	40.892	44.377	48.023	52.292	119.844	47.608	-8191	255	
1713.055	1	1	0	0	0.10269	0.24133	0.14468	0.05103	0.2709	0.15611	0.093473	0.32394	0.12678	0.16617	0.16122	0.11685	0.16418	0.10476	0.11217	0.19548	-2.6083	-2.7917	-2.4625	-3.2104	-2.6896	-2.7854	-3.0438	-2.6167	-2.8292	-2.8646	-2.6188	-3.1271	-2.6354	-2.7333	-3.0271	-2.5042	256.448	103.534	227.506	196.416	122.920	140.480	343.647	82.904	313.246	347.414	160.977	104.916	283.591	382.572	67.743	362.822	0.00014171	0.0003497	4.9276e-05	539.49	4.2677e-06	2.6818e-06	575.25	203.44	1.332e-06	7.1515e-06	214.11	76.629	73.027	17.909	6.9686e-06	18.31	0.0001721	0.00019112	4.9925e-05	520.23	1.93e-06	2.1251e-06	553.95	193.71	1.9358e-06	2.1216e-06	201.23	72.445	69.327	17.478	2.0022e-06	17.85	148.622	313.753	211.128	38.842	237.041	210.558	37.658	43.451	237.007	328.020	40.353	44.417	47.628	52.515	154.238	47.633	-8191	255	
1713.126	1	1	0	0	0.15315	0.13725	0.079809	0.22095	0.087185	0.23234	0.43017	0.17819	0.27023	0.20287	0.086204	0.18671	0.072914	0.087372	0.17421	0.046539	-2.4521	-2.6646	-2.4354	-3.2375	-2.5563	-2.6	-3.1667	-2.6417	-2.9854	-2.7417	-2.5125	-3.15	-2.4417	-2.6875	-3.1417	-2.5729	190.610	81.362	255.700	309.180	169.940	375.901	374.517	299.110	384.050	214.841	293.481	335.670	115.142	303.686	191.893	287.446	0.00019973	0.0005096	2.788e-05	546.31	1.9967e-06	9.1146e-07	577.41	203.8	3.8539e-06	3.3982e-06	214.94	77.274	73.143	17.995	5.2518e-06	18.657	0.00018218	0.00019071	5.086e-05	522.91	2.0279e-06	2.1097e-06	556.59	193.92	2.048e-06	2.1007e-06	202.09	73.152	69.99	17.559	1.9476e-06	18.049	141.094	315.735	42.598	39.177	281.691	269.166	37.458	43.628	158.353	188.096	40.272	44.603	47.611	51.891	128.647	47.684	-8191	255	
1713.222	1	1	0	0	0.11763	0.10881	0.18649	0.092979	0.15782	0.2283	0.25958	0.074012	0.14435	0.046362	0.30757	0.23268	0.059283	0.036912	0.32621	0.28701	-2.5062	-2.9708	-2.4646	-3.0854	-2.7812	-2.7	-3.0917	-2.6167	-3.0083	-2.8854	-2.6208	-3.2021	-2.6396	-2.7271	-3.1917	-2.6729	111.572	196.532	156.035	104.551	321.414	315.018	327.448	205.312	138.570	50.547	265.889	317.150	113.782	309.840	47.985	77.111	0.00011458	0.00067622	4.0124e-05	544.14	3.8825e-06	2.2402e-06	583.53	202.61	3.9012e-06	2.9839e-06	215.87	78.692	74.436	17.89	1.8817e-06	18.693	0.00019115	0.00018974	5.0111e-05	525.12	2.112e-06	2.0371e-06	560.21	194.1	2.117e-06	2.0215e-06	202.68	73.855	70.759	17.381	1.8999e-06	18.173	170.684	381.830	382.074	39.395	159.998	143.757	37.295	43.488	230.554	147.576	40.740	44.307	47.785	52.131	110.093	47.889	-8191	255	
1713.341	1	1	0	0	0.065216	0.043848	0.16156	0.13639	0.097908	0.29418	0.16952	0.25953	0.26044	0.14227	0.2667	0.12902	0.074225	0.20059	0.1122	0.29975	-2.3083	-2.9354	-2.4771	-3.0438	-2.8979	-2.4792	-3.15	-2.6479	-2.8896	-3.0021	-2.6833	-3.0438	-2.9396	-2.4208	-3.0833	-2.7354	75.613	48.421	144.770	162.831	289.591	112.603	257.871	311.251	95.592	169.571	25.859	335.588	202.649	370.119	128.897	227.239	0.00013975	0.00046362	5.751e-05	539.87	1.2443e-06	2.1596e-06	575.92	203.45	4.0461e-06	2.9312e-06	214.81	78.064	74.108	17.891	1.6434e-06	18.631	0.00019112	0.0001807	4.7962e-05	522.47	2.0934e-06	1.9741e-06	554.79	194.4	2.0846e-06	1.9431e-06	200.92	73.683	70.169	17.218	1.8601e-06	18.107	131.055	54.839	234.418	38.918	307.251	361.857	37.329	43.769	232.434	126.002	40.593	44.519	47.742	52.361	163.056	47.796	-8191	255	
1713.437	1	1	0	0	0.11172	0.31301	0.16386	0.18981	0.16932	0.24107	0.11424	0.42869	0.10435	0.24033	0.40335	0.22516	0.18461	0.0046324	0.14169	0.23155	-2.1771	-3.15	-2.325	-2.9208	-2.7375	-2.5687	-3.0667	-2.6354	-2.6833	-3.1396	-2.5083	-2.9417	-2.9417	-2.6042	-2.975	-2.8125	356.579	194.125	332.964	52.081	256.592	228.739	313.982	348.422	169.392	61.760	251.844	344.040	76.836	248.343	221.245	288.768	0.00011125	0.00038812	7.1594e-05	546.47	4.1716e-07	1.6868e-06	581.47	203.81	1.1572e-06	3.3277e-06	215.11	78.194	74.13	17.803	4.8676e-06	18.434	0.00018529	0.00017664	4.6709e-05	525.45	2.0233e-06	1.9199e-06	556.74	194.65	2.0056e-06	1.892e-06	201.32	73.806	69.93	17.181	1.8496e-06	18.142	124.591	354.335	65.215	38.996	180.372	310.800	37.201	43.728	262.186	315.790	40.503	44.476	47.838	51.597	175.861	47.411	-8191	255	
1713.534	1	1	0	0	0.24559	0.15618	0.24388	0.26442	0.13275	0.34547	0.15913	0.12137	0.092366	0.40622	0.07249	0.26953	0.25042	0.16798	0.026292	0.097145	-2.15	-3.1292	-2.5375	-2.8604	-2.925	-2.7146	-3.0604	-3.0146	-2.6792	-2.9375	-2.6104	-2.8458	-2.9854	-2.3375	-3.0687	-2.7708	373.454	261.381	117.928	310.743	248.684	242.361	63.358	42.546	83.975	123.670	304.582	333.440	332.830	81.814	32.486	298.701	0.00013612	0.00030424	0.00013488	547.97	3.6766e-06	2.5971e-06	580.05	203.45	9.3998e-07	5.1203e-06	215.8	77.915	74.513	18.031	1.0121e-06	18.623	0.00018004	0.00017282	4.7464e-05	526.8	1.9766e-06	1.9016e-06	558.68	195.31	1.9723e-06	1.8718e-06	202.23	74.06	70.211	17.354	1.9433e-06	18.357	160.165	34.551	59.626	38.923	261.527	206.482	37.385	44.017	250.981	141.059	40.660	44.295	47.652	51.856	38.105	47.863	-8191	255	
1713.630	1	1	0	0	0.24247	0.36827	0.19826	0.13926	0.17329	0.48639	0.27095	0.12514	0.10344	0.047685	0.09691	0.1319	0.2012	0.13106	0.26005	0.13117	-2.0333	-3.2208	-2.5333	-2.9354	-2.9208	-2.4583	-3.1688	-2.9417	-2.5687	-3.1083	-2.6521	-2.825	-3.1083	-2.4042	-2.8104	-2.8542	379.596	338.090	380.593	251.281	127.341	243.909	323.572	263.255	52.621	272.386	191.727	172.874	29.291	286.369	364.042	229.386	0.00022388	0.00046101	6.2183e-05	546.11	8.4019e-07	4.6874e-06	581.95	202.7	4.2381e-06	1.9385e-07	216.56	78.391	74.674	17.844	2.3329e-06	18.715	0.00017902	0.00016939	4.9508e-05	527.63	1.9123e-06	1.8425e-06	560.32	194.87	1.9363e-06	1.8232e-06	204.24	74.51	70.443	17.24	1.975e-06	18.371	140.424	143.654	37.786	38.944	269.118	135.059	37.557	43.590	180.931	83.694	40.608	44.322	47.711	52.274	204.318	48.112	-8191	255	
1713.726	1	1	0	0	0.16449	0.071515	0.18336	0.29623	0.10754	0.04592	0.20084	0.16449	0.028093	0.038946	0.21486	0.044219	0.11397	0.26218	0.32073	0.11615	-2.0062	-2.9667	-2.6063	-2.7313	-3.1312	-2.5167	-2.8625	-2.9625	-2.6479	-3.05	-2.6729	-2.5687	-3.1521	-2.4146	-2.7021	-3.0104	148.830	269.312	282.331	299.442	74.300	143.796	284.346	61.961	279.742	286.871	340.072	125.710	60.129	92.070	294.032	323.065	0.00011564	0.00033931	0.00011537	545.71	1.705e-06	1.4806e-06	585.62	203.74	3.1303e-06	2.9795e-06	217.25	78.587	74.504	17.651	3.2953e-06	18.407	0.00017298	0.00016724	5.1113e-05	526.81	1.883e-06	1.8311e-06	563.14	194.84	1.8627e-06	1.8029e-06	203.22	74.567	70.022	16.925	1.9719e-06	17.96	151.601	118.297	73.978	38.864	268.893	220.424	37.286	43.967	118.284	186.388	40.741	44.534	47.887	52.043	231.524	48.008	-8191	255	
1713.822	1	1	0	0	0.27586	0.15088	0.082228	0.25288	0.021078	0.0415	0.05936	0.15623	0.064237	0.18658	0.079093	0.24677	0.36071	0.30706	0.1305	0.14475	-2.0438	-3.0167	-2.6604	-2.6667	-3.0542	-2.3958	-2.8042	-3.1792	-2.4313	-2.8917	-2.8396	-2.6333	-3.1542	-2.5396	-2.6583	-2.9833	151.062	40.013	227.715	311.946	379.700	217.635	372.173	328.893	154.724	262.951	379.142	57.832	50.797	203.259	166.074	358.816	0.00012016	0.00030633	5.966e-05	542.56	8.9524e-07	3.8454e-06	584.68	203	6.4604e-06	3.1119e-06	214.99	78.671	74.261	17.683	5.8491e-06	18.458	0.00016526	0.00016644	5.0625e-05	521.91	1.7868e-06	1.8522e-06	559.23	194.35	1.8036e-06	1.8554e-06	202.81	74.104	69.793	17.078	1.9906e-06	17.985	198.057	75.723	73.790	39.246	32.988	224.024	37.399	43.757	370.877	79.673	40.802	44.564	47.866	52.287	120.662	47.374	-8191	255	
1713.918	1	1	0	0	0.12647	0.26811	0.22517	0.20033	0.075417	0.13447	0.30037	0.11562	0.13932	0.13735	0.29918	0.38065	0.12581	0.14895	0.14958	0.084701	-1.8917	-2.9354	-2.8375	-2.3729	-3.3333	-2.5958	-2.6813	-3.1229	-2.5667	-2.7604	-2.9021	-2.4833	-3.0312	-2.7417	-2.4833	-3.0375	92.536	290.547	258.670	335.760	232.857	209.681	278.098	207.007	295.828	331.169	316.006	328.545	247.982	383.751	169.514	353.582	0.00016503	0.00050637	0.00011055	542.89	1.4635e-06	1.8723e-06	579.56	203.86	3.1974e-06	3.671e-06	215.98	78.666	73.846	17.616	1.1414e-06	18.496	0.00016015	0.00017155	4.9194e-05	521.72	1.7373e-06	1.8926e-06	557.57	193.83	1.7626e-06	1.9236e-06	202.63	73.726	69.567	17.018	1.9243e-06	17.958	166.286	222.496	90.723	39.233	379.891	206.172	37.457	43.670	192.775	101.035	41.479	44.370	48.038	52.520	193.540	47.989	-8191	255	
1714.039	1	1	0	0	0.13558	0.094772	0.35275	0.23758	0.028293	0.22304	0.21561	0.21014	0.055847	0.075633	0.10713	0.23496	0.030651	0.30218	0.21797	0.10021	-2.0104	-2.7875	-3.0021	-2.5667	-3.0542	-2.9188	-2.4083	-3.2667	-2.6667	-2.8875	-3.0229	-2.5187	-3.0042	-2.7917	-2.4625	-3.2062	187.122	323.286	195.185	382.275	274.096	262.332	71.773	82.213	323.618	252.779	278.683	39.018	64.382	377.934	295.106	91.778	0.00012555	0.00034226	0.00011105	539.5	2.3573e-06	4.2729e-06	577.55	204.36	2.5766e-06	3.8811e-06	218.46	79.242	74.51	17.542	3.2431e-06	18.781	0.00016257	0.00017795	4.8581e-05	518.62	1.7847e-06	1.958e-06	556.76	194.47	1.7985e-06	1.9294e-06	203.17	74.403	69.924	16.978	1.8413e-06	18.058	141.428	90.080	41.096	38.827	245.882	158.046	37.449	43.931	255.481	134.397	40.969	44.453	47.957	52.151	218.716	47.900	-8191	255	
1714.135	1	1	0	0	0.26642	0.0054057	0.11054	0.25627	0.21273	0.092307	0.083966	0.24015	0.14996	0.15996	0.082219	0.13151	0.042374	0.1522	0.030925	0.1069	-2.0958	-2.7417	-2.9458	-2.4854	-3.0021	-2.9208	-2.6229	-3.1729	-2.6104	-2.6917	-2.8208	-2.3458	-2.8563	-2.8375	-2.3688	-3.0729	38.711	187.360	105.493	352.931	374.154	286.492	173.063	322.016	383.281	54.989	262.064	73.237	141.125	47.421	175.137	124.670	6.1851e-05	0.00024192	0.00017279	538.81	5.9303e-07	4.2542e-07	578.59	206.76	3.3995e-06	3.2361e-06	216.51	79.932	75.291	18.02	4.1744e-06	18.763	0.00016419	0.00017582	4.6398e-05	515.61	1.8409e-06	1.9401e-06	556.05	195.68	1.8461e-06	1.9085e-06	202.67	75.247	70.568	17.341	1.7793e-06	18.101	149.510	82.889	152.089	39.053	220.728	318.702	37.446	43.631	197.727	176.066	40.640	44.798	48.120	52.253	364.376	48.101	-8191	255	
1714.229	1	1	0	0	0.28008	0.17023	0.15971	0.22376	0.14206	0.25258	0.2729	0.23624	0.13689	0.036611	0.14452	0.30448	0.056082	0.10997	0.10203	0.2339	-2.0687	-2.6958	-2.8792	-2.4771	-2.9667	-2.7687	-2.2979	-3.1479	-2.5479	-2.4833	-3.1937	-2.4458	-2.8542	-2.9	-2.2521	-3.1854	317.545	375.703	100.054	57.606	379.572	301.999	376.581	276.718	112.659	111.118	359.782	323.040	273.643	32.030	246.921	150.862	0.00011256	0.00046536	5.3168e-05	539.45	1.2223e-06	1.3049e-06	578.26	204.66	2.7433e-06	3.7519e-06	214.56	80.245	75.291	17.944	4.9877e-06	18.685	0.00016748	0.00017115	4.4756e-05	513.71	1.8472e-06	1.833e-06	552.4	193.66	1.8579e-06	1.8465e-06	201.53	75.403	70.707	17.253	1.7453e-06	18.044	124.344	92.272	263.969	39.136	151.639	350.590	37.334	43.667	244.459	239.448	40.878	44.861	48.046	52.256	179.033	47.798	-8191	255	
1714.327	1	1	0	0	0.095189	0.098462	0.20348	0.14562	0.070223	0.055743	0.010703	0.1128	0.14994	0.11096	0.18668	0.11755	0.11738	0.078807	0.12603	0.31029	-2.1667	-2.4437	-3.0625	-2.3875	-2.8312	-2.9729	-2.6229	-3.0583	-2.9042	-2.4729	-2.9646	-2.6458	-2.8063	-2.975	-2.2208	-2.8563	167.376	192.635	363.624	218.097	32.024	43.296	118.118	332.266	155.090	138.081	226.223	276.846	300.971	45.743	78.666	249.232	0.00015968	0.00050515	1.7277e-05	534.54	7.7225e-07	5.4866e-06	579.61	202.9	1.6729e-06	1.0065e-06	216.38	80.431	75.264	17.86	1.8614e-06	18.844	0.00016988	0.0001644	4.3551e-05	513.46	1.8624e-06	1.7803e-06	553.91	193.12	1.8526e-06	1.758e-06	202.03	75.413	70.792	17.098	1.6934e-06	18.13	119.496	43.631	289.767	39.172	279.083	198.481	37.680	43.876	201.491	277.724	40.721	44.602	47.651	52.082	164.139	48.187	-8191	255	
1714.422	1	1	0	0	0.093333	0.11591	0.16083	0.094641	0.27889	0.15384	0.13769	0.14941	0.09364	0.09832	0.067064	0.19688	0.14836	0.40407	0.10984	0.1368	-2.3396	-2.1792	-3.1063	-2.5896	-2.5583	-3.125	-2.3792	-2.9604	-2.9271	-2.3167	-3.0375	-2.5625	-2.7438	-3.1	-2.5271	-3.0708	205.091	276.011	176.981	105.683	120.905	43.048	360.506	377.753	191.940	338.844	269.778	376.731	313.879	36.665	174.329	328.664	0.00023595	0.00044602	0.00010306	538.69	1.6748e-06	3.3911e-06	582.1	202.36	1.6437e-06	2.8049e-06	215.29	81.719	75.404	18.067	1.2418e-06	19.106	0.00016967	0.0001626	4.2548e-05	516.29	1.8339e-06	1.7536e-06	554.18	193.31	1.833e-06	1.7498e-06	201.17	76.779	71.128	17.363	1.6771e-06	18.403	173.688	101.585	40.309	38.984	180.397	356.919	37.105	43.932	57.149	149.663	41.040	44.417	48.074	52.083	201.022	48.304	-8191	255	
1714.518	1	1	0	0	0.31081	0.11243	0.24742	0.14703	0.07645	0.19066	0.12091	0.27349	0.25503	0.13138	0.12683	0.13283	0.18376	0.18975	0.26927	0.15483	-2.4729	-2.2875	-2.9188	-2.6708	-2.6437	-2.925	-2.3875	-2.7479	-2.9437	-2.4021	-3.0167	-2.6604	-2.45	-3.0563	-2.5229	-2.6437	127.858	107.783	155.853	174.228	79.257	322.661	36.441	273.743	240.807	232.682	67.776	383.468	65.172	233.710	259.841	332.591	0.00010645	0.00027102	0.00013162	539.23	2.0598e-06	4.5912e-06	584.82	204.55	8.4147e-07	1.213e-06	220.13	82.957	75.757	18.303	1.4936e-06	19.169	0.00016334	0.00015736	4.2187e-05	517.14	1.7951e-06	1.7228e-06	557.96	194.61	1.8051e-06	1.7261e-06	203.58	77.834	71.463	17.494	1.7325e-06	18.578	140.860	110.168	57.939	39.421	275.492	97.971	37.516	43.760	120.123	112.783	40.790	44.877	47.925	52.085	214.520	47.999	-8191	255	
1714.638	1	1	0	0	0.12067	0.15235	0.17116	0.31125	0.29733	0.19094	0.17802	0.19699	0.026462	0.2165	0.10712	0.027973	0.38544	0.035463	0.12797	0.20581	-2.5687	-2.2479	-3.1208	-2.7562	-2.4354	-3.1521	-2.6271	-2.7729	-3.0896	-2.4479	-3.0583	-2.8438	-2.5333	-3.1562	-2.5604	-2.6792	51.921	374.411	264.578	380.619	324.086	299.829	34.940	206.227	152.119	340.640	301.227	320.260	317.649	382.743	26.990	155.740	0.00018476	9.9824e-05	3.4937e-05	545.11	1.6814e-06	3.02e-06	594.67	204.74	2.5044e-06	5.767e-06	218.82	82.409	76.331	18.12	5.198e-06	19.04	0.00016285	0.00015472	4.3067e-05	524.31	1.7547e-06	1.676e-06	565.42	194.81	1.7688e-06	1.6927e-06	203.59	77.704	71.675	17.373	1.7825e-06	18.333	159.494	114.921	76.888	38.940	103.620	181.955	37.443	43.726	130.141	139.373	41.019	44.750	47.979	51.872	166.064	47.787	-8191	255	
1714.735	1	1	0	0	0.10736	0.022479	0.16773	0.060087	0.18528	0.12249	0.18496	0.24422	0.18041	0.042554	0.12994	0.1544	0.18192	0.34977	0.1725	0.041658	-2.8583	-2.4104	-3.0854	-2.7979	-2.4375	-3.2208	-2.7854	-2.6667	-3.0979	-2.4813	-2.8021	-2.8208	-2.5271	-3.0458	-2.6292	-2.5667	154.320	190.304	253.277	285.172	93.866	275.253	204.298	317.546	257.724	107.529	295.684	319.297	41.859	377.700	47.031	295.697	0.00016232	0.00049194	7.6542e-05	548	1.2172e-06	3.6213e-06	586.12	203.97	1.2179e-06	2.1975e-06	216.71	82.152	75.633	18.007	1.6089e-06	18.825	0.00016057	0.00015598	4.4949e-05	523.65	1.7381e-06	1.6544e-06	562.38	194.15	1.7595e-06	1.6728e-06	203.11	77.114	70.986	17.27	1.8389e-06	18.288	151.288	118.995	376.378	39.383	54.109	144.436	37.412	43.862	208.541	138.470	41.360	44.282	47.839	52.566	278.781	48.536	-8191	255	
1714.831	1	1	0	0	0.15467	0.15715	0.14697	0.26152	0.033804	0.12054	0.13259	0.062898	0.2099	0.10067	0.11497	0.028061	0.18341	0.22532	0.1746	0.33512	-2.7021	-2.4979	-2.7958	-2.85	-2.6167	-3.0667	-2.5646	-2.4896	-3.2375	-2.5104	-2.8167	-2.8396	-2.5417	-3.1125	-2.5792	-2.3354	222.894	39.044	42.937	85.236	220.782	276.264	202.095	137.727	171.495	216.903	181.322	291.205	84.810	378.494	328.302	349.331	0.00014633	0.0001421	0.00011738	542.78	2.5734e-06	5.2114e-06	579.58	203.45	1.4834e-06	2.3655e-06	215.89	82.102	75.588	18.02	1.5726e-06	19.144	0.00016023	0.00015781	4.7568e-05	519.16	1.7735e-06	1.7352e-06	556.8	193.48	1.7537e-06	1.7652e-06	202.71	77.165	71.186	17.371	1.9298e-06	18.46	165.580	187.323	55.507	39.083	193.105	172.539	37.203	44.078	274.867	101.996	40.970	44.479	47.756	52.131	93.313	47.364	-8191	255	
1714.927	1	1	0	0	0.1689	0.17796	0.18597	0.12925	0.071458	0.11822	0.11913	0.14931	0.13708	0.18183	0.037049	0.28623	0.25459	0.22597	0.15526	0.12906	-2.7542	-2.4437	-2.7833	-2.9667	-2.4521	-2.9021	-2.8792	-2.4917	-3.1917	-2.5187	-2.6604	-3.0833	-2.275	-2.9854	-2.7812	-2.6083	154.387	345.579	164.742	38.265	56.381	169.868	28.362	60.495	88.042	268.221	81.335	227.054	328.471	251.662	82.095	49.572	0.00014214	0.00050231	5.8234e-05	533.55	1.8692e-06	6.1445e-06	574.29	202.51	1.2884e-06	1.808e-06	215.47	81.998	75.694	18.167	2.899e-06	19.363	0.0001602	0.00016727	4.8745e-05	511.66	1.7794e-06	1.8375e-06	550.55	193.02	1.802e-06	1.8928e-06	202.28	77.198	71.144	17.518	1.9464e-06	18.599	161.098	87.687	300.830	38.985	189.906	165.457	37.426	43.674	105.345	227.516	41.335	44.446	47.941	51.927	124.886	47.716	-8191	255	
1715.023	1	1	0	0	0.24851	0.2418	0.070258	0.24172	0.13999	0.10175	0.19357	0.22228	0.13119	0.28049	0.1043	0.06949	0.17125	0.20312	0.12862	0.28893	-2.5687	-2.5625	-2.5833	-3.2146	-2.4542	-2.95	-2.9188	-2.3937	-3.1208	-2.6167	-2.6396	-3.1021	-2.5104	-2.6958	-3.1583	-2.4062	159.587	320.197	124.295	220.233	113.989	355.256	220.941	96.302	291.440	82.255	258.638	150.187	360.560	25.984	347.190	52.175	7.8435e-05	0.00012309	9.0797e-06	527.87	1.6188e-06	1.5607e-06	566.15	200.38	4.1241e-06	4.2639e-06	212.39	82.097	75.577	18.438	2.4796e-06	19.626	0.00016312	0.00017789	4.9307e-05	507.66	1.7978e-06	1.9205e-06	544.48	191.51	1.7922e-06	1.971e-06	200.28	77.526	71.32	17.815	1.9292e-06	18.892	145.764	41.519	129.112	38.719	146.147	230.133	37.386	43.685	155.711	79.545	40.658	44.337	48.110	52.321	151.487	48.043	-8191	255	
1715.119	1	1	0	0	0.045354	0.090017	0.1039	0.14326	0.22082	0.17692	0.17248	0.17652	0.081517	0.1181	0.16118	0.35792	0.1405	0.075757	0.12071	0.11427	-2.7812	-2.3458	-2.5938	-3.2042	-2.4146	-2.6354	-3.1917	-2.4958	-2.8958	-2.7021	-2.4479	-3.1521	-2.5812	-2.7375	-3.0187	-2.275	30.887	187.480	221.634	279.924	30.597	288.125	326.677	353.776	85.351	374.152	97.786	320.376	78.570	191.535	346.717	250.796	9.6461e-05	0.00056357	1.9744e-05	525.28	4.5987e-06	7.0431e-06	573.02	200.23	3.837e-06	1.5309e-06	214.18	84.855	75.483	19.454	3.4215e-06	21.065	0.00016597	0.00017815	4.8499e-05	507.24	1.8217e-06	1.9349e-06	549.4	190.92	1.8421e-06	1.9281e-06	200.2	79.314	70.888	18.71	1.8636e-06	20.034	143.744	173.271	250.823	38.966	219.569	211.371	37.372	43.810	237.279	303.486	40.832	44.583	47.773	52.008	83.439	47.527	-8191	255	
1715.215	1	1	0	0	0.24772	0.14341	0.14265	0.19336	0.15094	0.26132	0.28062	0.14992	0.12002	0.14231	0.11655	0.035922	0.15126	0.16138	0.071747	0.04469	-2.6188	-2.5938	-2.3958	-2.9958	-2.6688	-2.7313	-3.3021	-2.5687	-3.2104	-2.9396	-2.3896	-3.2375	-2.6896	-2.6	-3.0208	-2.4833	113.544	269.180	201.438	314.365	213.043	232.974	70.097	303.426	147.606	350.605	214.180	214.334	97.901	41.967	279.235	69.135	8.2842e-05	0.00045913	0.00010562	528.11	1.97e-06	2.5676e-06	574.92	198.16	1.326e-06	3.6411e-06	216.25	85.717	74.849	20.052	4.4532e-06	21.725	0.00016535	0.00017215	4.6374e-05	506.4	1.8352e-06	1.856e-06	549.9	188.59	1.8453e-06	1.8816e-06	201.3	79.993	70.584	19.137	1.8203e-06	20.607	172.913	94.350	363.003	39.116	222.144	104.584	37.579	43.628	201.791	228.016	40.499	44.129	48.178	52.445	166.079	47.704	-8191	255	
1715.311	1	1	0	0	0.068756	0.1984	0.11641	0.14751	0.054029	0.13157	0.091538	0.27926	0.10255	0.071645	0.29781	0.21108	0.19639	0.19648	0.13455	0.10315	-2.3354	-2.8958	-2.3604	-2.9583	-2.7896	-2.5	-3.1542	-2.5896	-2.6292	-3.0167	-2.3187	-2.9792	-2.9375	-2.4646	-3.2021	-2.6375	246.597	176.843	252.172	68.249	137.458	270.216	315.960	341.215	273.111	243.224	382.089	56.255	197.611	331.328	134.087	118.021	0.00014502	0.00025929	7.8721e-05	531.78	2.7001e-06	4.6103e-06	579.49	197.91	1.7978e-06	1.5298e-06	216.87	85.994	75.103	20.024	1.3028e-06	21.61	0.00016956	0.00016991	4.5813e-05	509.22	1.8789e-06	1.8457e-06	553.27	188.71	1.8801e-06	1.8567e-06	201.84	80.415	70.838	19.148	1.7871e-06	20.682	150.286	121.764	235.595	38.880	204.990	168.665	37.681	43.760	343.279	227.351	41.075	44.386	48.145	52.327	133.923	47.956	-8191	255	
1715.430	1	1	0	0	0.25373	0.24414	0.36102	0.22901	0.30531	0.16618	0.11332	0.30075	0.11192	0.14603	0.35244	0.067587	0.16655	0.17215	0.11229	0.30111	-2.2333	-3.0792	-2.4208	-3.0146	-2.6937	-2.6271	-3.1417	-2.6521	-2.7167	-2.9083	-2.4396	-2.9042	-2.9146	-2.3937	-3.1375	-2.4813	160.574	170.835	365.927	356.982	72.862	27.310	211.943	322.153	331.188	165.597	338.168	63.987	363.025	328.701	181.552	329.909	0.00012839	0.00053151	9.7679e-05	528.75	3.408e-06	3.5402e-06	574.12	197.92	1.3005e-06	2.6093e-06	212.81	85.729	75.213	19.774	3.0427e-06	20.984	0.00017182	0.00017034	4.5454e-05	508.54	1.9024e-06	1.8836e-06	549.5	188.92	1.8912e-06	1.8632e-06	199.7	80.476	71.05	18.926	1.7528e-06	20.17	146.893	148.139	320.999	39.223	196.259	164.325	37.624	43.630	142.245	164.703	40.878	44.716	47.835	51.997	116.304	47.765	-8191	255	
1715.526	1	1	0	0	0.084799	0.10709	0.1017	0.12849	0.097015	0.098539	0.098089	0.19777	0.1652	0.18439	0.1785	0.1894	0.24702	0.19145	0.29316	0.22828	-2.2104	-3.0208	-2.3875	-2.8917	-2.9146	-2.3333	-3.0958	-2.6583	-2.4813	-3.1937	-2.5083	-2.9521	-3.0417	-2.1875	-3.0125	-2.7021	301.245	183.467	243.624	230.391	259.222	140.415	213.254	365.146	283.935	175.853	236.173	356.858	48.404	366.592	144.844	124.987	0.00013726	0.00019113	5.2699e-05	524.43	7.8391e-07	3.1926e-06	563.8	195.3	5.5453e-06	3.6913e-06	209.61	83.911	74.574	19.361	1.4362e-06	20.309	0.00017321	0.0001697	4.5009e-05	502.69	1.9148e-06	1.872e-06	540.69	186.25	1.9159e-06	1.8541e-06	195.86	79.004	70.604	18.54	1.7882e-06	19.572	151.153	311.589	292.421	39.348	172.111	89.008	37.567	43.679	223.225	110.835	40.714	44.380	48.057	52.536	29.910	48.064	-8191	255	
1715.600	1	1	0	0	0.26994	0.27402	0.32062	0.11311	0.20711	0.19854	0.26977	0.25807	0.078892	0.18658	0.17883	0.10346	0.045589	0.23898	0.19497	0.24446	-1.9271	-3.225	-2.475	-2.7708	-2.9979	-2.2438	-3.0646	-2.6646	-2.4625	-3.0521	-2.5667	-2.6625	-2.9292	-2.5417	-2.9042	-2.7229	134.624	162.317	66.777	231.552	193.268	255.695	103.370	366.428	72.102	246.432	109.604	123.215	186.639	302.965	371.888	331.300	0.00015356	0.0003116	5.6057e-05	518.75	2.7713e-06	3.9732e-06	561.95	194.67	3.4489e-06	2.7294e-06	211.55	83.555	75.374	19.033	2.3259e-06	19.91	0.00017187	0.00016757	4.6006e-05	502.07	1.8711e-06	1.8136e-06	539.91	186.04	1.8974e-06	1.7882e-06	197.72	78.762	71.409	18.246	1.8213e-06	19.249	155.507	75.526	41.487	38.683	185.483	86.436	37.262	43.485	143.641	223.422	41.095	44.378	47.796	52.150	68.419	48.092	-8191	255	
1715.719	1	1	0	0	0.19378	0.15045	0.15824	0.017022	0.40902	0.23059	0.2396	0.10623	0.16857	0.061695	0.15501	0.33089	0.21307	0.1416	0.1018	0.13565	-2.1021	-3.0187	-2.3833	-2.6562	-3.0438	-2.325	-3.0292	-3.0771	-2.4437	-2.9417	-2.6271	-2.6542	-3.0771	-2.3583	-3.0542	-3.0312	62.294	257.569	53.568	350.251	65.188	121.026	258.020	354.723	138.398	250.804	58.214	269.673	306.858	106.258	145.940	351.575	0.00010166	0.00018756	0.00016383	527.24	2.2245e-06	4.0586e-06	570.46	196.28	2.7257e-06	2.3295e-06	212.52	84.486	76.136	18.987	1.0701e-06	20.086	0.00017176	0.00016202	4.7096e-05	508.32	1.8895e-06	1.7795e-06	547.18	187.75	1.8578e-06	1.7699e-06	200.08	79.468	71.83	18.268	1.8895e-06	19.431	147.189	86.723	58.408	38.764	216.948	65.836	37.350	43.803	118.423	61.810	40.847	44.632	47.803	52.169	75.891	48.117	-8191	255	
1715.815	1	1	0	0	0.14612	0.17795	0.12787	0.13269	0.23526	0.17051	0.057307	0.27853	0.066136	0.12132	0.14024	0.044136	0.32088	0.25521	0.082488	0.13825	-1.9062	-3.1708	-2.5896	-2.2625	-3.1	-2.3792	-2.8104	-3.0667	-2.2333	-3.0396	-2.775	-2.3708	-3.15	-2.3625	-2.7208	-3.2438	263.555	306.586	216.940	30.117	349.593	134.683	282.140	204.167	337.211	89.414	361.240	220.229	251.931	44.654	340.684	138.565	9.4519e-05	0.00022469	0.0001046	532.53	2.328e-06	2.6925e-06	578.35	199.12	1.5211e-06	3.1809e-06	215.42	85.995	76.541	19.092	2.7589e-06	20.097	0.00016733	0.00016077	4.8399e-05	512.59	1.8311e-06	1.7811e-06	553.86	189.73	1.8417e-06	1.774e-06	202	80.459	72.297	18.301	1.9106e-06	19.435	130.200	70.146	373.577	38.985	217.702	204.979	37.239	43.723	94.041	152.594	40.757	44.649	48.010	51.950	167.522	47.906	-8191	255	
1715.911	1	1	0	0	0.12702	0.24213	0.15611	0.39574	0.29685	0.19784	0.16423	0.15693	0.086186	0.26848	0.069521	0.31556	0.096103	0.20545	0.1178	0.22028	-1.8875	-2.8583	-2.7917	-2.5167	-3.0354	-2.5354	-2.6562	-3.0187	-2.4083	-2.9104	-2.9792	-2.4625	-3.3625	-2.6167	-2.6292	-3.1458	130.599	80.382	145.527	28.949	57.356	36.119	31.606	356.805	257.858	125.212	189.112	26.330	260.061	137.395	91.518	193.429	0.00012267	0.00069814	0.00012632	533.2	1.7101e-06	1.0455e-06	579.49	198.11	2.0238e-06	3.8174e-07	213.58	85.22	76.842	19.294	1.0114e-06	20.285	0.00016598	0.0001637	4.8389e-05	514.13	1.7954e-06	1.826e-06	556.87	189.64	1.8014e-06	1.8198e-06	201.78	80.141	72.107	18.402	1.8948e-06	19.45	152.118	125.231	304.602	38.938	205.953	35.755	37.680	43.563	156.260	122.419	40.297	44.503	47.708	51.944	279.575	48.069	-8191	255	
1716.007	1	1	0	0	0.16314	0.18341	0.026876	0.17193	0.174	0.23345	0.11424	0.16842	0.13648	0.25495	0.041066	0.2865	0.17025	0.23554	0.1814	0.20837	-1.6792	-2.8625	-2.7646	-2.3604	-3.1896	-2.6188	-2.75	-3.1417	-2.475	-2.7708	-3.0771	-2.3937	-3.0542	-2.6667	-2.525	-3.1229	72.507	202.384	114.580	302.432	198.767	368.586	114.439	341.824	111.645	338.608	213.496	46.460	273.933	368.687	152.221	335.953	0.0001568	0.00022714	5.0541e-05	537.56	1.7758e-06	1.3068e-06	581.82	197.73	1.5873e-06	1.4058e-06	215.28	85.277	76.655	19.223	3.6684e-06	20.409	0.00016164	0.00016936	4.7659e-05	514.69	1.7438e-06	1.8919e-06	557.28	189.48	1.7767e-06	1.8857e-06	201.82	80.08	72.052	18.469	1.8836e-06	19.554	135.133	142.848	279.750	39.191	353.603	133.777	37.521	43.658	176.960	123.798	41.283	44.391	48.002	52.227	159.721	47.934	-8191	255	
1716.128	1	1	0	0	0.33472	0.038901	0.10674	0.28375	0.10403	0.17312	0.25036	0.096618	0.15655	0.058658	0.21911	0.1839	0.08011	0.19092	0.29726	0.2315	-1.8521	-2.8312	-2.925	-2.3375	-2.9604	-2.6	-2.5125	-3.1937	-2.5229	-2.8271	-2.9729	-2.4271	-3.0292	-2.8292	-2.5417	-3.1146	137.790	331.684	258.908	29.945	333.482	150.140	384.597	197.836	344.967	236.946	266.454	365.941	218.817	334.921	202.178	156.031	0.00014331	0.00018448	9.5493e-05	536.04	2.2993e-06	6.5217e-06	583.6	199.17	3.0804e-06	6.6904e-06	216.56	86.727	76.53	19.479	3.3339e-06	21.124	0.00016227	0.00017152	4.7586e-05	514.62	1.7581e-06	1.9023e-06	560.33	191.12	1.7774e-06	1.8712e-06	202.88	81.095	71.945	18.705	1.8006e-06	20.074	153.280	37.667	81.770	39.247	250.008	123.146	37.649	43.625	166.732	158.777	40.849	44.456	47.726	52.179	200.418	47.331	-8191	255	
1716.222	1	1	0	0	0.17625	0.015225	0.19291	0.14939	0.13698	0.14709	0.081483	0.059394	0.15615	0.098413	0.041557	0.26558	0.259	0.31477	0.075605	0.081733	-1.9917	-2.6937	-3.0729	-2.1979	-2.9667	-2.7208	-2.6437	-3.2375	-2.5208	-2.6063	-3.0729	-2.5271	-3.0292	-2.8146	-2.3292	-3.2458	332.141	64.334	218.265	273.978	285.017	68.598	322.559	271.072	217.403	229.522	256.255	187.115	381.581	29.079	81.753	77.572	0.00017892	0.00031526	8.5052e-05	545.1	1.5425e-06	1.6731e-06	592.95	200.87	3.4809e-06	8.0185e-06	220.16	87.583	76.043	19.821	4.7389e-06	22.145	0.00016102	0.00016915	4.5965e-05	520.43	1.7909e-06	1.8575e-06	567.69	191.71	1.7966e-06	1.8238e-06	205.96	81.922	71.955	18.962	1.7838e-06	20.954	179.607	152.734	384.760	39.276	173.800	199.826	37.539	43.791	315.483	196.348	40.595	44.292	48.059	52.483	228.971	47.919	-8191	255	
1716.320	1	1	0	0	0.17294	0.14561	0.10941	0.3359	0.15031	0.2892	0.11183	0.10891	0.16051	0.093965	0.11569	0.25203	0.12432	0.15073	0.14468	0.48851	-2.1854	-2.6417	-3.0563	-2.3354	-2.7583	-2.9333	-2.5312	-3.1292	-2.6833	-2.4104	-3.0312	-2.4562	-2.5833	-2.9667	-2.3	-2.9146	298.612	63.262	266.540	87.599	105.356	177.225	95.445	190.317	312.588	262.753	373.873	138.500	212.537	309.687	297.525	340.633	0.00013711	0.0007456	8.8343e-05	546.67	1.7579e-06	7.4241e-06	599.77	201.3	1.5881e-06	1.6348e-06	222.36	88.382	76.948	19.778	2.6817e-06	22.094	0.0001665	0.00016507	4.5284e-05	523.45	1.7765e-06	1.8132e-06	572.59	192.2	1.8182e-06	1.7994e-06	206.5	82.359	72.607	18.937	1.7524e-06	20.998	167.739	151.274	30.036	39.047	261.343	218.960	37.453	43.986	141.161	177.062	40.712	44.399	47.991	52.315	167.034	47.537	-8191	255	
1716.416	1	1	0	0	0.20765	0.15613	0.10934	0.22563	0.25289	0.25356	0.22982	0.30657	0.092325	0.35202	0.16517	0.06349	0.15278	0.14439	0.081136	0.23562	-2.2167	-2.4375	-3.0042	-2.575	-2.7396	-2.9417	-2.4062	-2.8604	-2.7292	-2.25	-3.1958	-2.5771	-2.6667	-2.9479	-2.1646	-2.9396	145.633	198.956	52.361	304.965	74.763	278.407	226.587	367.179	242.695	313.895	123.450	257.298	102.751	27.019	93.827	270.805	0.00013882	0.00039518	1.6912e-05	543.65	1.2213e-06	3.3538e-06	587.74	198.91	2.9165e-06	3.2865e-06	216.44	87.211	76.808	19.571	3.3164e-07	21.851	0.00016822	0.0001655	4.426e-05	519	1.8355e-06	1.833e-06	562.05	189.92	1.8601e-06	1.8178e-06	201.95	81.592	72.285	18.678	1.7226e-06	20.712	143.007	384.432	89.390	39.037	179.081	268.390	37.565	43.615	225.226	79.764	40.942	44.591	47.900	52.776	132.193	47.715	-8191	255	
1716.511	1	1	0	0	0.33248	0.17702	0.10575	0.31068	0.13505	0.059601	0.30629	0.084051	0.16214	0.079471	0.059833	0.14224	0.16414	0.088106	0.15752	0.34908	-2.3917	-2.2938	-3.0833	-2.5458	-2.5854	-3.0292	-2.4729	-2.9979	-2.8354	-2.35	-3.0375	-2.7604	-2.7167	-3.0062	-2.2167	-2.9813	117.236	218.509	345.087	59.361	331.364	238.347	297.780	28.904	238.753	330.912	373.240	297.019	46.468	224.505	134.217	345.653	0.00020003	0.00041971	6.8407e-05	540.53	9.4301e-07	2.1151e-06	586.75	197.72	7.7437e-07	1.5883e-06	215.14	85.903	76.387	18.536	4.1929e-06	20.775	0.00017025	0.0001673	4.3864e-05	516.78	1.8181e-06	1.8277e-06	560.11	189.31	1.8714e-06	1.8204e-06	201.02	80.995	72.411	17.873	1.7602e-06	19.942	138.946	101.606	166.893	39.036	140.383	214.818	37.606	43.821	88.566	314.951	40.649	44.271	47.814	52.104	70.850	47.595	-8191	255	
1716.607	1	1	0	0	0.15842	0.11165	0.27317	0.33251	0.14596	0.1967	0.3124	0.26069	0.10091	0.073901	0.050125	0.21545	0.14388	0.34377	0.16101	0.22832	-2.4583	-2.2646	-2.9604	-2.6146	-2.5438	-3.0896	-2.3438	-2.8187	-2.8625	-2.1229	-3.15	-2.6937	-2.2958	-3.2438	-2.1729	-2.5917	139.774	365.131	326.206	165.859	248.990	365.852	342.498	320.219	210.925	321.737	49.430	41.578	88.850	303.968	136.661	294.995	0.00011037	0.00010012	5.0415e-06	547.62	2.1057e-06	4.0737e-06	593.86	199.83	2.1627e-06	5.143e-06	216.17	82.539	75.302	17.716	1.0764e-06	19.386	0.00016921	0.0001675	4.4418e-05	525.16	1.8677e-06	1.8274e-06	568.65	190.66	1.8918e-06	1.8402e-06	200.58	77.748	70.876	17.004	1.8121e-06	18.672	164.373	276.497	184.140	39.111	206.000	119.687	37.436	43.693	221.315	90.974	40.907	44.327	47.937	52.369	264.493	48.162	-8191	255	
1716.727	1	1	0	0	0.13898	0.085309	0.22272	0.16444	0.13696	0.13621	0.1481	0.14175	0.14904	0.27038	0.29817	0.18132	0.22819	0.22044	0.058579	0.21448	-2.6	-2.35	-3.0583	-2.8625	-2.5042	-3.0396	-2.7333	-2.5583	-3.1188	-2.3229	-2.8646	-2.9833	-2.5021	-3.0771	-2.55	-2.5729	374.879	124.844	125.199	282.338	324.588	229.821	99.585	324.810	223.993	140.624	375.983	100.168	350.909	201.196	375.743	361.225	2.8806e-05	0.00029999	0.00010661	552.09	4.8385e-06	4.9651e-06	598.4	202.84	2.5483e-06	1.8348e-06	216.36	80.423	73.68	16.856	4.1488e-06	18.689	0.00017193	0.00016679	4.6355e-05	531.09	1.9154e-06	1.805e-06	573.87	193.02	1.9195e-06	1.8389e-06	203.46	75.809	69.839	16.349	1.9184e-06	18.153	178.709	111.528	358.664	39.400	268.571	211.094	37.567	43.564	179.802	100.299	40.698	44.489	47.935	52.574	172.797	47.440	-8191	255	
1716.824	1	1	0	0	0.14941	0.2255	0.30037	0.10376	0.18098	0.18625	0.14108	0.23719	0.12981	0.15628	0.17007	0.11018	0.058893	0.19575	0.11176	0.17461	-2.4333	-2.3729	-2.7479	-2.8833	-2.4688	-2.9833	-2.85	-2.5396	-2.9688	-2.4104	-2.8167	-2.9479	-2.5854	-3.0125	-2.6688	-2.4646	112.553	347.456	372.778	32.333	220.952	28.597	286.238	340.065	61.274	185.283	44.381	334.562	152.061	282.450	71.967	245.695	0.00013157	0.00011398	2.7563e-05	548.86	2.9369e-06	7.138e-06	596.22	200.97	3.2423e-06	1.5662e-06	217.83	77.299	72.108	16.54	1.4299e-06	18.106	0.00017554	0.00016877	4.8535e-05	529.56	1.9419e-06	1.8222e-06	571.79	192.1	1.9429e-06	1.8585e-06	203.69	73.525	68.362	16.016	1.9699e-06	17.728	123.240	225.631	85.675	39.209	375.544	132.585	37.379	43.553	204.798	219.493	41.011	44.606	47.659	52.545	201.141	48.111	-8191	255	
1716.895	1	1	0	0	0.22681	0.15796	0.20445	0.20328	0.13145	0.099248	0.20847	0.43356	0.1377	0.15065	0.23051	0.14511	0.015126	0.19684	0.072942	0.15169	-2.6167	-2.3521	-2.6667	-3.0354	-2.3542	-2.8792	-2.775	-2.4708	-3.1667	-2.6667	-2.7375	-2.8146	-2.3375	-3.0125	-2.825	-2.3104	204.191	317.235	254.641	280.045	280.465	304.931	100.766	237.614	230.979	332.595	314.775	342.350	76.141	334.640	261.569	205.137	0.0001092	0.00041257	8.7924e-05	552.37	1.3378e-06	3.1612e-06	594.58	199.75	2.3303e-06	7.9592e-06	214.3	76.531	72.106	16.768	4.4536e-06	17.964	0.0001742	0.00017105	4.9982e-05	531.21	1.9547e-06	1.8787e-06	570.29	190.79	1.9383e-06	1.9363e-06	202.69	72.751	67.873	16.252	2.0283e-06	17.724	165.332	95.142	359.183	38.752	353.935	204.541	37.335	43.814	118.928	176.503	40.518	44.386	48.187	52.452	162.651	48.654	-8191	255	
1716.991	1	1	0	0	0.11268	0.031414	0.05046	0.26217	0.22486	0.36013	0.059141	0.15854	0.13587	0.15417	0.10691	0.15825	0.12043	0.23469	0.23457	0.23502	-2.75	-2.4354	-2.55	-2.9313	-2.3958	-2.9792	-2.9604	-2.5167	-3.0771	-2.6583	-2.6562	-3.0563	-2.4	-2.8688	-2.925	-2.4625	55.973	266.252	58.579	351.204	98.197	183.777	60.389	288.788	155.910	42.463	218.665	295.495	305.042	383.609	382.206	293.501	0.00015529	0.0005707	8.1092e-05	550.87	3.0592e-07	9.721e-07	596.65	200.32	1.681e-06	2.479e-07	216.2	76.338	71.445	16.666	4.0054e-06	18.22	0.00017234	0.00017939	5.0589e-05	531.01	1.9021e-06	1.9482e-06	572.83	191.1	1.8983e-06	2.0275e-06	203.63	72.579	67.567	16.228	2.0501e-06	17.806	148.872	106.748	277.091	39.155	195.881	342.500	37.259	43.710	170.740	216.304	40.847	44.574	47.931	52.122	232.866	47.867	-8191	255	
1717.088	1	1	0	0	0.18567	0.078338	0.15963	0.15115	0.092996	0.11027	0.11873	0.24006	0.062802	0.17944	0.013107	0.117	0.18193	0.13731	0.29465	0.17846	-2.6188	-2.5458	-2.5521	-3.0812	-2.5333	-2.6521	-3.0604	-2.3854	-2.9271	-2.6833	-2.5646	-3.2188	-2.4979	-2.7833	-2.8583	-2.35	269.548	233.549	242.900	301.086	45.307	174.442	327.077	38.490	172.099	159.712	345.577	370.665	76.325	278.968	247.482	31.058	6.3896e-05	0.00042308	7.864e-05	550.4	3.1743e-06	4.7183e-06	596.19	200.7	2.5493e-06	4.2197e-06	219.26	76.787	70.959	16.537	1.4092e-06	17.886	0.00017452	0.00018781	5.1907e-05	530.48	1.9345e-06	2.0351e-06	573.28	191.95	1.9242e-06	2.0772e-06	205.85	72.624	67.227	16.181	2.0754e-06	17.67	149.293	73.808	53.445	38.804	285.303	196.070	37.505	43.878	33.607	286.074	41.266	44.308	47.928	52.521	176.161	48.452	-8191	255	
1717.208	1	1	0	0	0.20577	0.27441	0.12178	0.20566	0.090299	0.18056	0.22584	0.26307	0.16892	0.19543	0.48393	0.26797	0.08559	0.28987	0.18081	0.17539	-2.6042	-2.5354	-2.4521	-3.1229	-2.3812	-2.5958	-3.1104	-2.5312	-2.9292	-2.7167	-2.6688	-3.2042	-2.4667	-2.7188	-2.9729	-2.2188	143.755	217.087	290.813	300.587	123.421	45.412	325.104	282.761	134.725	105.574	362.206	248.314	56.251	68.928	343.500	70.055	0.00020717	0.00024269	3.6858e-05	551.67	2.5322e-06	1.1686e-06	603.22	199.63	3.1393e-06	4.5167e-06	217.23	74.557	70.37	16.715	3.2276e-06	18.004	0.00017923	0.00018977	5.2609e-05	532.09	2.0049e-06	2.0627e-06	579.64	191.85	1.9885e-06	2.0789e-06	205.39	70.639	66.602	16.373	2.0917e-06	17.623	121.928	158.240	127.968	39.118	356.701	257.302	37.415	43.905	131.617	161.359	40.350	44.625	47.811	52.647	158.788	48.145	-8191	255	
1717.303	1	1	0	0	0.28999	0.20102	0.17689	0.046943	0.14083	0.16991	0.16613	0.10133	0.24679	0.23511	0.19201	0.090259	0.17661	0.11741	0.1386	0.04907	-2.5104	-2.7354	-2.6229	-3.0979	-2.6667	-2.7438	-3.0625	-2.5417	-2.8625	-2.7708	-2.5167	-3.0854	-2.5417	-2.7729	-3.0938	-2.5771	103.691	66.427	273.993	151.806	307.910	36.690	256.975	29.907	193.374	368.397	167.816	146.293	330.556	147.825	206.081	155.979	0.0001496	0.00021879	0.00011847	559.36	2.0935e-06	2.9565e-06	607.12	199.69	2.2482e-06	3.0835e-06	216.04	71.378	68.211	16.81	3.3584e-06	17.948	0.00018455	0.00019045	5.2102e-05	536.09	2.0622e-06	2.0681e-06	581.73	191.38	2.0421e-06	2.1074e-06	203.61	68.056	64.955	16.478	2.0412e-06	17.534	145.743	152.048	109.874	39.137	130.890	80.696	37.601	43.753	131.752	127.756	40.601	44.559	48.397	53.234	69.168	48.557	-8191	255	
1717.401	1	1	0	0	0.024735	0.068672	0.35917	0.29451	0.24122	0.16638	0.067882	0.2445	0.1538	0.21561	0.17852	0.11711	0.064098	0.18064	0.16062	0.16022	-2.3292	-2.9667	-2.4125	-3.2125	-2.7833	-2.5542	-3.1562	-2.4958	-2.7521	-3.1354	-2.3396	-2.9813	-2.7604	-2.4521	-3.0979	-2.6167	183.676	226.479	330.419	335.767	297.087	35.971	209.030	375.452	158.940	112.587	274.085	278.162	149.533	39.796	179.905	344.713	0.00013896	0.00018417	0.00010166	562.81	1.1269e-06	2.9347e-06	611.89	201.44	2.8899e-06	3.4315e-06	214.87	69.091	65.8	16.423	2.9663e-06	17.575	0.00018726	0.00019145	5.2326e-05	539.89	2.0677e-06	2.0884e-06	586.84	192.06	2.0567e-06	2.0815e-06	202.46	65.879	63.006	16.25	2.0045e-06	17.259	175.309	155.204	46.687	39.134	165.284	119.402	37.432	43.729	308.728	129.062	40.623	44.850	48.227	53.101	80.108	48.232	-8191	255	
1717.519	1	1	0	0	0.18442	0.11365	0.10523	0.11611	0.038151	0.27667	0.1075	0.15396	0.089409	0.14559	0.13373	0.11105	0.058514	0.079451	0.19804	0.22264	-2.275	-2.8708	-2.45	-3.0312	-2.5687	-2.3812	-3.0979	-2.5958	-2.4917	-2.9417	-2.3354	-3.0812	-2.8021	-2.4375	-3.1333	-2.5917	285.410	138.341	353.000	133.358	96.330	346.236	371.306	38.279	198.654	49.474	51.473	142.100	69.577	218.714	40.006	96.450	8.5607e-05	0.00035705	0.0001345	564.87	2.1181e-06	7.4511e-06	615.52	198.44	1.9839e-06	2.4241e-06	216.33	69.489	65.178	15.8	3.8386e-06	17.334	0.00018881	0.00019215	5.0924e-05	543.56	2.1177e-06	2.1251e-06	589.36	190.76	2.098e-06	2.0981e-06	204.13	65.753	62.398	15.515	1.9756e-06	17.284	180.682	369.218	295.108	39.362	238.134	179.027	37.382	43.763	346.432	261.036	41.068	44.825	48.059	52.927	362.247	48.811	-8191	255	
1717.591	1	1	0	0	0.29574	0.073893	0.23951	0.16418	0.045572	0.17862	0.2586	0.19422	0.17608	0.22631	0.22487	0.22028	0.13433	0.22387	0.16818	0.074806	-2.1813	-3.0208	-2.3167	-2.9646	-2.9625	-2.5667	-2.9562	-2.5625	-2.5062	-3.1375	-2.3458	-2.9354	-3.0146	-2.5083	-3.0167	-2.8104	202.204	41.828	83.488	249.731	273.838	75.100	59.601	340.206	130.826	120.812	354.434	373.901	169.493	303.826	334.099	333.727	0.00019478	0.00081472	0.00011276	559.94	9.8214e-07	1.0813e-06	614.89	199.7	5.2892e-06	2.9437e-06	218.71	69.068	65.162	15.598	2.3051e-06	17.614	0.00019197	0.00019284	5.0508e-05	542.33	2.1299e-06	2.1068e-06	590.42	191.81	2.138e-06	2.0788e-06	206.07	66.317	62.146	15.398	2.0085e-06	17.481	123.097	64.277	94.212	39.109	220.709	310.489	37.560	43.987	207.962	209.427	40.735	44.841	48.167	52.688	385.909	48.027	-8191	255	
1717.687	1	1	0	0	0.21217	0.23469	0.12892	0.11162	0.12716	0.12571	0.14336	0.1362	0.063827	0.098211	0.29278	0.14	0.17532	0.29446	0.22459	0.18377	-2.0896	-2.975	-2.2521	-2.6417	-3.0604	-2.3625	-2.8333	-2.7333	-2.5312	-3.2042	-2.2667	-2.7188	-3.1813	-2.2604	-2.8375	-2.8979	275.506	201.860	287.877	208.579	327.635	224.313	283.699	82.574	86.673	367.436	383.875	262.761	30.242	57.243	109.871	197.810	0.00013575	0.00020985	4.6332e-05	561.71	2.1846e-06	5.6204e-06	613.86	197.44	2.9e-06	1.1889e-06	216.58	67.571	63.191	15.679	3.3734e-06	17.47	0.00019667	0.00019132	5.2423e-05	542.82	2.1683e-06	2.0786e-06	589.83	189.8	2.178e-06	2.0592e-06	204.69	64.914	60.725	15.428	2.1023e-06	17.333	112.023	344.647	64.999	39.578	196.105	85.378	37.371	43.713	226.437	94.346	41.003	44.873	48.476	53.019	141.788	48.033	-8191	255	
1717.808	1	1	0	0	0.142	0.078811	0.2737	0.050948	0.21159	0.11472	0.13636	0.26061	0.20367	0.22516	0.14912	0.41043	0.025943	0.1833	0.18587	0.20937	-1.9521	-2.9021	-2.4437	-2.4854	-2.9562	-2.35	-2.9771	-2.8792	-2.575	-3.25	-2.4917	-2.6333	-2.9688	-2.5667	-2.775	-2.9479	339.619	235.472	352.755	120.618	39.303	75.833	246.282	359.577	56.909	267.882	311.359	362.500	328.166	53.664	292.092	242.883	0.00010877	0.00017975	7.9779e-05	558.93	9.0498e-07	2.595e-06	611.29	194.06	1.2082e-06	2.2972e-06	211.84	64.786	61.03	15.597	1.7109e-06	17.104	0.00019586	0.0001875	5.4417e-05	540.41	2.1613e-06	2.0739e-06	586.71	187.05	2.1896e-06	2.0493e-06	200.79	62.636	58.83	15.308	2.1525e-06	17.148	146.224	101.083	34.821	39.190	168.675	176.382	37.507	44.014	80.663	233.098	40.999	45.283	48.564	52.750	181.500	48.699	-8191	255	
1717.904	1	1	0	0	0.17495	0.081512	0.13098	0.085344	0.013416	0.22983	0.093913	0.098321	0.25988	0.29238	0.11081	0.13516	0.16048	0.31106	0.056457	0.26818	-1.8292	-3.1146	-2.675	-2.4396	-3.1979	-2.4708	-2.7667	-2.95	-2.3	-3.0167	-2.7562	-2.6167	-3.1854	-2.5396	-2.6771	-3.0125	270.440	140.341	349.601	383.997	116.492	202.231	134.760	235.424	109.695	314.757	213.909	193.920	34.094	123.530	38.775	55.361	9.0371e-05	0.00053155	4.9301e-05	552.55	7.3514e-06	2.4936e-06	600.45	193.08	2.1188e-06	5.4817e-06	211.5	65.33	62.263	15.489	2.231e-06	17.256	0.00019966	0.00018768	5.7194e-05	536.37	2.1858e-06	2.0926e-06	579.2	186.32	2.1972e-06	2.0731e-06	200.89	63.31	59.843	15.38	2.2404e-06	17.306	103.778	366.818	125.556	39.154	158.091	131.141	37.623	44.213	147.133	216.137	40.692	44.665	48.605	52.666	27.977	47.814	-8191	255	
1718.000	1	1	0	0	0.14175	0.091745	0.19123	0.26098	0.20985	0.19141	0.20819	0.066859	0.21573	0.24523	0.21546	0.35271	0.07009	0.25216	0.12713	0.19039	-1.9167	-3.0312	-2.775	-2.525	-3.1604	-2.6458	-2.6229	-3.2333	-2.4104	-2.925	-2.8208	-2.5646	-2.9437	-2.7125	-2.7625	-2.8229	219.950	46.257	190.607	319.441	151.788	202.054	376.492	282.785	304.149	298.315	198.802	241.446	53.434	350.893	64.211	26.732	6.0855e-05	0.00036544	2.3174e-05	544.43	1.7678e-07	3.6284e-06	589.37	194.11	3.8244e-06	4.0778e-06	212.12	67.162	63.306	15.644	5.5713e-06	17.54	0.0001965	0.0001963	5.7457e-05	529.54	2.1704e-06	2.2221e-06	570.29	187.58	2.1748e-06	2.1883e-06	202.84	65.236	60.709	15.543	2.2864e-06	17.478	240.840	154.820	118.361	39.179	191.053	221.225	38.156	43.873	382.516	179.005	40.896	44.967	48.348	52.223	146.998	48.523	-8191	255	
1718.121	1	1	0	0	0.13312	0.32063	0.13115	0.34318	0.017826	0.18793	0.20176	0.20999	0.08868	0.2111	0.18215	0.21706	0.065552	0.16705	0.18378	0.25301	-2.1437	-2.875	-2.8167	-2.2667	-3.0979	-2.5	-2.825	-3.0583	-2.3708	-3.0563	-3.0521	-2.2958	-3.0354	-2.5646	-2.475	-2.925	345.003	96.582	296.046	348.327	307.849	198.629	265.072	369.786	336.703	175.697	62.216	304.911	383.029	315.233	127.018	228.177	9.353e-05	0.00022542	7.3889e-05	542.57	3.7168e-06	1.3093e-06	590.07	193.87	1.8203e-06	4.114e-06	209.51	65.88	62.028	15.711	5.5735e-07	17.319	0.00019707	0.00020624	5.9093e-05	528.48	2.1533e-06	2.2855e-06	571.55	186.03	2.1862e-06	2.2867e-06	201.26	64.01	59.627	15.609	2.3259e-06	17.363	155.571	205.139	147.718	39.346	178.315	77.242	37.782	43.753	267.162	47.027	41.077	44.965	48.512	52.750	235.165	48.104	-8191	255	
1718.192	1	1	0	0	0.14658	0.20348	0.1083	0.15484	0.24061	0.18293	0.12079	0.29962	0.13081	0.049617	0.26294	0.33546	0.26898	0.2274	0.18795	0.22382	-2.1125	-2.7562	-2.8729	-2.3646	-3.1333	-2.6813	-2.6312	-3.2292	-2.2313	-2.9667	-2.9083	-2.3604	-2.9437	-2.8667	-2.4458	-3.1833	305.812	374.596	270.604	316.329	264.542	70.524	361.268	41.923	343.480	34.834	284.175	220.788	122.122	367.504	213.341	59.196	0.00015833	0.00016367	1.5055e-05	540.9	2.4275e-06	3.9634e-06	585.4	188.78	3.9058e-06	4.8328e-06	203.64	63.743	60.388	15.596	1.3687e-06	16.982	0.00020183	0.00021222	6.0216e-05	525.35	2.22e-06	2.4009e-06	566.77	182.39	2.2855e-06	2.3637e-06	196.24	61.93	58.492	15.526	2.3535e-06	16.991	159.090	205.297	63.946	39.441	180.370	100.927	37.734	43.886	144.893	105.686	41.032	44.887	48.095	52.930	224.740	48.566	-8191	255	
1718.289	1	1	0	0	0.098307	0.23178	0.27873	0.13732	0.028073	0.18611	0.3277	0.099883	0.098855	0.22266	0.19126	0.11442	0.17301	0.17937	0.26293	0.071594	-1.9167	-2.6375	-2.9354	-2.1937	-2.8812	-2.8354	-2.5312	-3.1729	-2.4833	-2.5687	-3.0729	-2.2792	-2.7792	-2.8937	-2.2104	-2.8937	122.523	286.467	28.568	333.430	45.731	118.355	366.276	269.163	153.856	256.538	320.552	268.922	140.333	363.417	283.959	223.827	0.00012338	9.8933e-05	5.2517e-05	537.89	3.8942e-06	2.673e-06	582.01	186.1	2.3878e-06	5.6792e-06	200.29	62.452	59.067	15.363	2.4774e-06	17.028	0.0002103	0.0002167	6.0433e-05	524.91	2.285e-06	2.4037e-06	563.98	179.62	2.3186e-06	2.336e-06	193.63	60.56	57.369	15.367	2.315e-06	16.892	165.637	70.382	309.299	39.413	212.920	261.131	37.527	44.352	60.670	184.311	41.261	44.951	48.484	53.162	183.755	48.413	-8191	255	
1718.407	1	1	0	0	0.26925	0.07605	0.31536	0.25068	0.22497	0.24289	0.18111	0.36367	0.19696	0.2105	0.18974	0.33079	0.082765	0.11467	0.080371	0.058933	-2.1813	-2.45	-2.9354	-2.5875	-2.7354	-2.8667	-2.5271	-3.0792	-2.4854	-2.4479	-2.9813	-2.275	-2.6958	-3.1021	-2.3083	-2.7854	98.910	54.433	335.730	59.009	93.468	279.333	174.333	326.760	316.618	73.678	139.005	381.747	71.019	334.411	161.708	99.572	4.2155e-05	0.00053513	0.00010497	533.49	2.4034e-06	4.1798e-06	569.03	183.48	9.1306e-07	4.1328e-06	202.06	63.322	60.279	14.904	2.1435e-06	17.627	0.00021043	0.00021138	5.851e-05	517.35	2.2731e-06	2.3364e-06	553.2	176.64	2.3588e-06	2.3068e-06	192.74	61.406	58.256	14.883	2.2381e-06	17.501	144.310	246.586	26.749	39.476	212.063	177.980	37.366	44.369	126.258	169.935	41.041	44.942	48.848	52.668	208.350	48.265	-8191	255	
1718.504	1	1	0	0	0.04949	0.25312	0.088399	0.14533	0.28856	0.25395	0.27569	0.091536	0.070192	0.21529	0.22586	0.20389	0.2098	0.075155	0.085094	0.10895	-2.2104	-2.4854	-3.05	-2.2875	-2.5396	-3.0146	-2.2438	-3.1771	-2.6896	-2.4542	-3.05	-2.5125	-2.7833	-2.9958	-2.3104	-3.0021	108.521	68.205	349.978	369.429	80.365	135.735	307.850	189.902	327.452	273.949	316.191	51.979	348.569	98.968	144.349	184.511	0.00012891	0.00038905	7.2884e-05	523.7	2.9324e-06	4.5263e-06	558.29	184.55	1.7494e-06	5.0719e-06	205.67	65.685	61.812	14.962	2.0625e-06	17.886	0.00021213	0.00021219	5.5912e-05	508.08	2.3011e-06	2.2975e-06	541.75	178.68	2.3236e-06	2.2978e-06	194.92	63.35	59.733	15.026	2.1814e-06	17.798	116.928	140.630	26.927	39.225	94.410	135.748	37.680	44.262	265.859	105.188	41.123	44.919	48.156	53.188	114.703	47.625	-8191	255	
1718.600	1	1	0	0	0.28714	0.16487	0.048491	0.15976	0.10032	0.048449	0.21915	0.25977	0.21536	0.16101	0.1116	0.27896	0.13264	0.1908	0.24339	0.11342	-2.4854	-2.2729	-3.0938	-2.575	-2.5729	-3.1771	-2.3896	-2.8958	-2.8854	-2.3937	-2.9604	-2.6188	-2.65	-2.9688	-2.3417	-2.9104	61.376	378.301	338.438	88.564	181.508	40.758	248.801	371.983	366.947	59.533	67.809	375.394	95.175	344.088	96.917	193.106	9.6682e-05	0.00049381	3.9423e-05	517.46	2.1648e-06	5.4362e-06	551.16	185.92	1.7347e-06	2.7012e-06	205.71	66.1	62.449	15.071	2.7565e-06	17.655	0.00020829	0.00020731	5.379e-05	502.73	2.2542e-06	2.2602e-06	536.15	179.74	2.2344e-06	2.2289e-06	194.48	63.853	59.902	14.94	2.0984e-06	17.496	153.319	123.710	368.486	39.648	292.356	379.665	37.545	44.366	314.397	87.782	41.273	44.414	48.147	52.581	255.024	48.591	-8191	255	
1718.696	1	1	0	0	0.30891	0.16057	0.14463	0.23533	0.18908	0.061738	0.094747	0.10946	0.12353	0.097945	0.085504	0.084356	0.16958	0.075869	0.36428	0.13355	-2.4437	-2.3208	-3.0458	-2.5604	-2.4208	-3.1479	-2.4375	-2.85	-2.9375	-2.3708	-2.9146	-2.8125	-2.7021	-3.2125	-2.2042	-2.7792	203.676	69.967	217.814	111.985	208.826	283.283	179.674	101.413	288.096	154.501	342.833	88.632	327.426	302.633	355.459	305.564	0.00010642	0.00054885	2.3001e-05	514.04	3.8425e-06	3.9567e-06	554.66	184.88	2.5945e-06	3.2709e-06	204.86	67.272	62.464	15	1.7695e-06	16.992	0.00019953	0.00019625	5.1777e-05	500.69	2.164e-06	2.1193e-06	537.68	178.31	2.1483e-06	2.0563e-06	193.86	64.435	60.02	14.814	1.9749e-06	16.84	152.818	60.923	145.251	39.242	186.678	174.390	37.965	44.110	196.599	381.450	40.912	44.717	48.340	52.809	186.170	48.595	-8191	255	
1718.768	1	1	0	0	0.17641	0.15572	0.15075	0.019209	0.13467	0.27281	0.21546	0.14813	0.13483	0.10348	0.21082	0.079682	0.2458	0.17022	0.050728	0.019125	-2.5667	-2.25	-3.0167	-2.7104	-2.3646	-3.0917	-2.6792	-2.6958	-2.9833	-2.5354	-2.8333	-2.8604	-2.5958	-2.9333	-2.6458	-2.5792	355.750	63.542	275.589	177.777	260.100	121.612	77.374	313.114	147.304	36.002	207.263	285.790	360.648	369.090	120.219	314.173	7.0148e-05	0.00020434	6.7704e-05	522.14	3.2719e-07	2.5714e-06	561.22	186.86	1.8172e-06	1.4952e-06	206.59	73.211	68.497	16.054	2.0523e-06	18.303	0.00018597	0.00017682	4.8745e-05	503.26	2.0089e-06	1.8781e-06	540.85	179.35	1.9734e-06	1.879e-06	193.46	69.729	65.067	15.669	1.9034e-06	17.844	191.024	189.292	161.721	38.851	45.196	309.902	37.313	43.680	177.856	198.648	40.871	44.968	48.108	52.344	72.788	48.046	-8191	255	
1718.888	1	1	0	0	0.23944	0.10261	0.11346	0.12238	0.20331	0.16263	0.31877	0.069242	0.21225	0.3097	0.14862	0.19182	0.25906	0.092872	0.1492	0.11762	-2.55	-2.3083	-3.0438	-2.975	-2.3333	-2.9146	-2.8312	-2.6583	-2.8833	-2.4521	-2.9062	-3.0062	-2.275	-2.9896	-2.9042	-2.4458	79.146	373.779	225.449	76.183	124.292	347.007	259.956	105.075	201.111	78.334	359.566	373.174	373.140	26.648	116.977	222.831	9.1423e-05	0.00048262	0.00013175	511.16	2.6786e-06	1.8215e-06	552.14	183.88	2.8971e-06	2.4177e-06	198.99	77.438	70.618	16.802	1.1266e-06	19.974	0.00016987	0.00016383	4.6893e-05	492.15	1.8721e-06	1.7391e-06	531.61	175.64	1.828e-06	1.7571e-06	187.05	73.026	66.544	16.272	1.8203e-06	19.16	187.742	96.105	90.017	39.066	172.582	97.314	37.653	44.058	148.684	193.360	41.002	44.694	48.173	52.717	217.578	47.642	-8191	255	
1718.984	1	1	0	0	0.22707	0.25719	0.34643	0.26359	0.12118	0.38624	0.047572	0.091344	0.26262	0.4075	0.12446	0.26911	0.057741	0.21103	0.19655	0.13536	-2.5687	-2.6292	-2.6792	-3.0333	-2.4417	-3.125	-2.7188	-2.5563	-3.2479	-2.5	-2.8229	-3.0896	-2.2104	-2.9917	-2.7938	-2.4354	339.801	249.567	48.752	37.031	182.262	135.418	335.852	324.694	325.435	91.822	53.117	32.452	358.676	295.430	322.562	189.362	0.00018977	0.00054784	6.358e-05	500.96	2.552e-06	2.6323e-06	543.49	179.68	1.6802e-06	4.7814e-06	197.75	77.27	70.449	17.566	4.2551e-06	19.825	0.00016185	0.00016165	4.5526e-05	483.33	1.7443e-06	1.7267e-06	524.39	172.21	1.7283e-06	1.7616e-06	185.51	72.923	66.196	16.887	1.8095e-06	19.078	161.956	126.432	80.801	39.301	123.287	251.298	37.540	43.846	239.159	131.779	41.026	44.389	48.035	51.903	74.454	48.257	-8191	255	
1719.081	1	1	0	0	0.33704	0.24655	0.093309	0.18037	0.2691	0.050204	0.14394	0.25964	0.016827	0.24356	0.2663	0.12221	0.2689	0.018021	0.28164	0.21989	-2.7	-2.5625	-2.6396	-2.9396	-2.3438	-2.7938	-3.1167	-2.5042	-3.1312	-2.5125	-2.6479	-3.1333	-2.4417	-2.6562	-2.8625	-2.4125	324.024	357.124	349.786	178.713	182.148	173.444	30.594	275.539	356.151	299.162	331.969	114.504	383.564	286.873	73.138	327.596	0.00012402	0.00055008	9.9046e-05	501.39	2.1702e-06	4.6417e-06	552.21	179.1	1.2086e-07	5.6045e-06	196.5	77.311	69.836	17.518	3.3355e-06	19.673	0.00015453	0.00016099	4.5321e-05	485.87	1.7209e-06	1.7457e-06	528.65	171.37	1.6846e-06	1.7734e-06	184.56	72.684	65.861	16.997	1.8174e-06	18.905	125.696	119.509	288.017	39.027	214.894	174.130	37.564	43.730	160.447	129.247	41.374	44.970	48.253	52.876	119.638	48.050	-8191	255	
1719.201	1	1	0	0	0.172	0.25478	0.21655	0.20223	0.14312	0.086736	0.25202	0.10732	0.22193	0.20718	0.10796	0.14767	0.25708	0.018858	0.19555	0.19962	-2.5917	-2.7875	-2.4688	-2.9896	-2.35	-2.575	-3.0458	-2.4333	-2.8271	-2.7042	-2.4646	-3.0312	-2.4896	-2.7104	-3.0167	-2.2687	300.356	36.985	274.871	53.877	161.936	103.012	363.658	314.032	60.160	317.447	102.174	160.910	370.800	139.501	272.582	311.735	8.8426e-05	0.00034508	5.2128e-05	511.43	4.9972e-06	9.5738e-07	554.96	179.55	4.3438e-06	3.1627e-06	199.06	76.928	70.437	18.057	1.8889e-06	19.761	0.00015377	0.00016251	4.5235e-05	489.6	1.713e-06	1.7749e-06	533.22	172.61	1.7141e-06	1.8123e-06	187.49	72.789	66.629	17.252	1.8136e-06	18.986	127.927	91.804	61.182	38.823	198.155	67.458	37.446	43.930	193.659	157.552	40.797	44.716	47.954	52.532	371.245	47.903	-8191	255	
1719.296	1	1	0	0	0.094468	0.2184	0.2377	0.18472	0.20401	0.26225	0.15843	0.34013	0.23188	0.044919	0.17793	0.14959	0.067543	0.25391	0.19292	0.14541	-2.5292	-2.85	-2.5146	-3.2062	-2.5583	-2.6104	-3.1708	-2.3646	-2.8479	-2.9562	-2.5021	-3.2125	-2.5187	-2.5583	-2.9875	-2.2854	289.841	280.289	215.576	381.189	359.732	137.873	32.882	288.986	258.369	191.461	190.135	57.188	223.452	347.722	216.643	142.312	0.00013557	0.00045775	7.564e-05	514.39	4.7699e-06	3.7827e-06	559.41	182.23	2.4187e-06	3.0319e-06	202.02	77.766	71.244	17.975	1.6277e-06	20.269	0.00015645	0.000167	4.6218e-05	493.35	1.7669e-06	1.8155e-06	538.11	174.48	1.7613e-06	1.8314e-06	189.89	73.466	67.345	17.369	1.8289e-06	19.246	143.906	179.854	109.454	39.538	267.618	158.740	37.960	43.848	203.788	269.622	40.535	44.565	48.299	52.153	146.896	48.311	-8191	255	
1719.392	1	1	0	0	0.25666	0.14739	0.21898	0.143	0.20074	0.1459	0.21242	0.19518	0.11379	0.27182	0.36232	0.10092	0.10192	0.10086	0.18622	0.27281	-2.5646	-2.6479	-2.3812	-3.1813	-2.5438	-2.6146	-2.9667	-2.375	-2.8417	-2.9625	-2.4479	-2.9062	-2.6896	-2.7417	-3.075	-2.4792	79.391	133.550	330.465	92.512	75.295	193.396	335.059	332.379	81.490	375.216	363.991	341.700	176.042	104.331	350.284	238.499	9.4198e-05	0.00040771	0.00010773	518.15	1.7317e-06	9.6343e-07	566.24	185.68	1.5782e-06	1.4585e-06	205.25	79.803	72.014	18.106	1.1915e-06	20.248	0.00016358	0.00016834	4.6245e-05	495.54	1.8129e-06	1.8123e-06	542.51	176.68	1.8019e-06	1.8478e-06	192.7	74.645	68.014	17.439	1.8253e-06	19.416	143.429	127.414	272.031	38.967	234.610	185.436	37.578	43.934	254.784	182.592	40.924	44.588	48.038	52.455	72.934	48.037	-8191	255	
1719.488	1	1	0	0	0.053777	0.17268	0.13556	0.21419	0.052399	0.05692	0.043518	0.20708	0.32492	0.050741	0.28856	0.2678	0.14577	0.16789	0.22588	0.1571	-2.3417	-2.7354	-2.3375	-3.0208	-2.4938	-2.5625	-3.3146	-2.6146	-2.6625	-3.0187	-2.2583	-3.0396	-2.8021	-2.3979	-3.0229	-2.4833	252.342	299.819	134.985	193.177	69.873	53.496	41.989	265.014	260.426	61.824	348.468	305.534	336.948	376.073	156.844	147.714	0.00016692	0.00011546	8.4728e-05	518.7	2.354e-07	1.8369e-06	563.59	185.48	2.593e-06	1.3153e-06	205.58	79.17	71.841	18.046	2.9126e-06	19.771	0.00016728	0.00016927	4.5919e-05	498.46	1.8358e-06	1.8605e-06	542.68	177.36	1.8446e-06	1.8654e-06	191.73	74.122	67.864	17.433	1.758e-06	19.07	160.107	227.181	120.104	39.120	133.532	169.210	38.136	44.041	209.427	162.978	40.724	44.333	47.743	52.402	318.358	48.274	-8191	255	
1719.584	1	1	0	0	0.3935	0.068086	0.24556	0.095643	0.17743	0.17897	0.16396	0.20902	0.15996	0.055104	0.274	0.10586	0.21233	0.20149	0.079664	0.17167	-2.2729	-2.9729	-2.4313	-3.0187	-2.9625	-2.5208	-3.1417	-2.6625	-2.5958	-3.1688	-2.3833	-2.9229	-2.8896	-2.3521	-3.0354	-2.7521	336.855	146.071	361.346	171.160	106.430	118.917	241.186	333.385	46.656	125.374	93.041	197.572	287.722	317.988	277.251	136.405	0.00015057	0.00032558	3.3891e-05	519.95	1.2418e-06	2.2028e-06	570.29	186.48	1.2497e-06	6.6183e-06	205.37	79.012	71.666	17.999	4.5034e-07	19.781	0.00016782	0.00016737	4.4517e-05	500.55	1.84e-06	1.8518e-06	545.21	178.24	1.8514e-06	1.8396e-06	191.63	74.285	67.96	17.414	1.7152e-06	19.032	138.504	76.733	34.946	39.135	241.616	288.282	37.382	43.877	147.658	204.541	40.908	44.413	48.302	52.157	184.164	47.948	-8191	255	
1719.680	1	1	0	0	0.1098	0.13439	0.073035	0.17247	0.016852	0.055712	0.11154	0.11745	0.21201	0.066208	0.17752	0.1762	0.3498	0.21229	0.0055249	0.039363	-2.0021	-2.9958	-2.3875	-2.7062	-2.9167	-2.4313	-2.9917	-2.6437	-2.4813	-3.1854	-2.5229	-3.0396	-2.8521	-2.4521	-2.9375	-2.95	52.069	149.043	112.629	104.541	190.542	322.620	27.072	311.003	334.094	128.516	152.405	380.351	59.744	309.365	365.957	230.415	0.00014061	7.2214e-05	3.4936e-05	526	1.9477e-06	3.7877e-07	569.39	189.35	4.5048e-06	4.2947e-06	209.6	81.803	74.01	18.279	3.9966e-06	19.868	0.0001689	0.00016696	4.4351e-05	505.87	1.8605e-06	1.8247e-06	548.01	181	1.8641e-06	1.8257e-06	195.45	76.519	69.887	17.527	1.7715e-06	19.157	125.341	147.344	53.571	39.025	364.735	206.353	37.870	43.683	187.491	171.186	40.415	44.131	47.754	52.631	98.346	48.009	-8191	255	
1719.801	1	1	0	0	0.20058	0.086954	0.09021	0.19236	0.080614	0.12172	0.23884	0.13683	0.28009	0.09636	0.22032	0.24083	0.15666	0.04122	0.012602	0.2354	-2.0854	-3.0479	-2.4375	-2.9458	-3.0458	-2.3917	-2.9604	-2.9125	-2.3563	-3.1396	-2.7083	-2.7833	-3.2542	-2.3271	-2.8312	-2.8896	95.766	130.600	202.585	213.496	259.009	104.924	323.991	144.342	50.402	355.526	181.629	275.961	351.881	26.454	52.076	28.328	0.0001395	0.00027064	6.6993e-05	529.74	2.3052e-06	3.3991e-06	575.72	191.87	4.8507e-06	1.8222e-06	212.95	83.222	74.612	18.531	6.3711e-06	20.409	0.00017206	0.00016477	4.6325e-05	510.55	1.8737e-06	1.8339e-06	553.76	183.94	1.8981e-06	1.7903e-06	199.33	78.326	70.813	17.739	1.819e-06	19.575	149.221	81.813	144.886	38.927	236.277	144.895	37.895	43.599	177.408	374.904	40.971	44.446	47.654	52.364	240.076	47.660	-8191	255	
1719.897	1	1	0	0	0.21694	0.21216	0.2174	0.13192	0.22961	0.20442	0.095905	0.2598	0.10706	0.19808	0.045499	0.17257	0.089647	0.097833	0.15406	0.027443	-2.1729	-3.0333	-2.5146	-2.5979	-3.1188	-2.2708	-2.9208	-3.0521	-2.2438	-3.0167	-2.5708	-2.7	-3.0979	-2.2792	-2.8542	-2.7542	90.617	315.311	31.028	179.958	188.955	91.069	360.528	321.238	279.877	68.213	380.114	268.989	141.273	303.908	67.293	328.929	0.00014081	0.00012365	0.00015586	540.82	2.3e-06	4.586e-06	589.7	193.95	2.5615e-06	6.4196e-06	214.99	83.78	75.595	18.557	5.5456e-07	20.252	0.00017136	0.00016177	4.7485e-05	519.39	1.8949e-06	1.8003e-06	563.08	186.17	1.8992e-06	1.7642e-06	200.97	78.354	71.121	17.72	1.8824e-06	19.526	176.702	160.721	41.663	39.239	59.139	152.478	37.622	43.988	197.665	231.736	40.543	44.991	48.065	52.851	78.701	48.038	-8191	255	
1719.993	1	1	0	0	0.065072	0.30804	0.21596	0.22546	0.24038	0.23027	0.29189	0.15903	0.18748	0.16012	0.21628	0.045714	0.23879	0.28395	0.1392	0.10234	-1.7854	-3.05	-2.4854	-2.5875	-3.1229	-2.4688	-2.875	-2.8729	-2.4854	-3.1167	-2.7604	-2.5708	-3.1104	-2.4625	-2.5375	-3.0521	33.191	296.196	263.116	276.410	292.390	187.806	362.115	330.774	192.460	40.229	85.928	198.536	115.209	245.437	48.352	348.735	0.00018748	0.00046245	5.9585e-05	544.31	1.5935e-06	3.3904e-06	591.19	194.3	2.7944e-06	5.6016e-06	214.58	82.744	75.231	18.26	3.1025e-06	20.177	0.00017018	0.00016307	4.7723e-05	521.52	1.8235e-06	1.7948e-06	566.52	186.16	1.8173e-06	1.7848e-06	200.62	77.903	70.941	17.514	1.8971e-06	19.348	154.299	350.300	104.154	39.138	265.684	183.160	37.860	43.804	162.664	156.747	41.013	44.621	47.742	51.960	285.244	47.590	-8191	255	
1720.089	1	1	0	0	0.1327	0.22153	0.056087	0.38453	0.27369	0.15063	0.13049	0.26915	0.074551	0.19419	0.078919	0.1446	0.2103	0.042293	0.063976	0.15648	-1.7896	-2.8812	-2.6729	-2.4667	-2.9479	-2.4479	-2.7583	-3.0667	-2.3146	-2.9562	-2.9	-2.4167	-3.2417	-2.625	-2.6854	-3.1042	269.747	328.241	332.542	350.708	52.467	118.781	266.905	352.113	259.547	61.928	273.336	55.418	100.696	114.425	51.760	338.928	9.5244e-05	0.00045052	8.4439e-06	550.84	6.1508e-06	3.6083e-06	595.79	196.54	2.6349e-06	8.3405e-07	216.43	83.662	76.382	17.876	5.2828e-06	19.698	0.00016398	0.00016633	4.8545e-05	527.72	1.7687e-06	1.8615e-06	569.02	187.25	1.8025e-06	1.8373e-06	202.13	78.617	71.642	17.27	1.9146e-06	19.123	138.664	128.928	229.647	39.232	310.073	275.023	37.419	43.870	213.543	350.072	40.694	44.555	47.874	52.214	169.038	47.759	-8191	255	
1720.185	1	1	0	0	0.38568	0.20343	0.15061	0.21864	0.14873	0.27454	0.12389	0.26782	0.23478	0.19327	0.34869	0.44883	0.21653	0.28406	0.18821	0.19823	-2.0708	-2.7562	-2.8542	-2.5438	-3.0312	-2.7083	-2.6646	-3.1292	-2.4667	-2.9167	-2.775	-2.4833	-3.1958	-2.5792	-2.4938	-3.1917	117.428	108.011	260.420	229.816	157.084	231.051	217.434	36.885	28.980	45.672	381.733	323.637	295.197	67.643	308.935	241.873	0.00015794	0.00019655	6.6345e-05	556.74	2.7915e-06	4.4251e-06	593.07	197.48	1.5882e-06	4.3389e-06	217.2	84.45	76.84	17.666	3.5042e-06	19.677	0.00016422	0.00017332	4.8994e-05	532.82	1.786e-06	1.9446e-06	571.15	189.22	1.8198e-06	1.935e-06	204.17	79.265	72.074	17.102	1.9003e-06	18.977	146.048	95.076	35.968	38.878	307.338	106.970	37.486	43.668	107.727	185.492	41.383	44.018	47.850	52.123	202.441	47.821	-8191	255	
1720.282	1	1	0	0	0.13662	0.15247	0.18496	0.167	0.22873	0.15092	0.10785	0.20333	0.20005	0.10284	0.15919	0.26914	0.27053	0.015299	0.061382	0.15276	-2.1104	-2.9125	-2.9375	-2.3917	-2.9646	-2.8792	-2.5521	-3.2583	-2.5	-2.7854	-2.9813	-2.3771	-3.1188	-2.8333	-2.5375	-3.2313	195.642	82.098	205.907	284.300	110.786	385.620	271.704	71.838	328.816	377.070	336.995	368.582	317.540	165.082	338.985	365.373	0.00016161	0.00039867	9.1679e-05	556.34	1.2389e-06	4.1039e-06	596.8	198.71	2.4978e-06	2.5652e-06	219.95	84.241	76.559	17.542	1.2285e-06	19.642	0.00016962	0.00017629	4.8771e-05	532.99	1.8386e-06	1.9627e-06	573.91	189.58	1.8911e-06	1.9571e-06	206.77	79.105	72.311	17.081	1.9404e-06	18.894	164.948	191.595	78.700	39.015	371.240	160.166	37.584	43.697	289.678	151.805	40.859	44.201	48.072	52.387	176.513	47.772	-8191	255	
1720.376	1	1	0	0	0.11015	0.12554	0.12376	0.18256	0.14543	0.1755	0.12009	0.074877	0.20009	0.13505	0.18995	0.00028881	0.4111	0.17715	0.13673	0.20655	-2.0125	-2.7354	-3.0125	-2.35	-2.8708	-2.8312	-2.4292	-2.9354	-2.5333	-2.6417	-3.0646	-2.5646	-3.075	-2.9	-2.4104	-3.125	154.547	87.914	79.671	262.914	361.293	63.499	371.639	130.324	302.590	282.758	88.785	180.000	367.134	195.297	100.795	334.768	0.00013889	0.00066374	2.3316e-05	553.83	3.5536e-06	4.1323e-06	593.47	197.31	3.6081e-06	3.8745e-06	217.65	82.492	76.243	17.664	1.259e-06	19.158	0.00017385	0.00017805	4.8834e-05	531.14	1.9189e-06	1.978e-06	567.98	188.1	1.9826e-06	1.9871e-06	204.1	77.286	72.221	17.224	1.9708e-06	18.618	150.327	104.104	62.383	39.073	213.020	217.334	37.868	43.926	170.723	146.725	40.711	44.524	47.695	51.837	90.840	47.289	-8191	255	
1720.472	1	1	0	0	0.10384	0.15222	0.10495	0.1466	0.1363	0.10504	0.27722	0.18809	0.16891	0.24077	0.055044	0.25148	0.36172	0.03831	0.20242	0.071379	-2.0833	-2.4708	-3.1188	-2.525	-2.8896	-3.0021	-2.4958	-3.0146	-2.6375	-2.4854	-3.0396	-2.3625	-2.7958	-2.9979	-2.4562	-2.8271	236.591	248.426	26.675	83.726	166.644	206.315	345.592	364.177	252.650	230.298	161.992	42.541	348.712	150.724	334.860	111.306	0.00011198	0.00043791	1.9361e-05	542.27	3.6575e-06	9.8491e-07	571.42	199.4	1.8716e-06	8.5412e-07	215.34	81.347	76.181	18.226	1.0056e-06	19.449	0.00018783	0.00018715	5.0337e-05	523.25	2.1131e-06	2.11e-06	553.98	190.3	2.1993e-06	2.1683e-06	201.81	76.911	72.476	17.666	2.0604e-06	18.936	156.066	132.319	53.985	39.120	169.002	323.879	37.571	43.871	131.469	143.087	40.570	44.202	47.621	51.611	269.643	47.718	-8191	255	
1720.593	1	1	0	0	0.12476	0.058837	0.13143	0.10075	0.15836	0.1242	0.38355	0.014557	0.32055	0.061891	0.22077	0.059426	0.090545	0.10703	0.11127	0.13243	-2.3146	-2.3083	-2.8708	-2.4458	-2.8146	-2.9021	-2.55	-3.0146	-2.8	-2.45	-3.0208	-2.5854	-2.7729	-3.0792	-2.2229	-2.8812	364.960	186.379	96.916	226.742	373.553	301.711	343.614	139.166	384.028	30.646	135.788	240.343	361.281	299.336	307.230	305.420	0.00022531	0.00038491	7.7956e-05	542.53	7.1656e-07	2.436e-06	577.8	200.51	8.4743e-07	1.6406e-06	215.4	81.753	76.585	18.059	2.45e-07	19.686	0.00020061	0.00019396	5.1156e-05	524.49	2.1744e-06	2.1075e-06	556.02	191.82	2.181e-06	2.0898e-06	203.09	77.574	72.827	17.615	2.0052e-06	19.224	171.793	111.982	349.321	38.872	41.930	103.953	37.435	43.953	213.253	114.222	40.788	43.906	47.905	52.145	175.898	47.547	-8191	255	
1720.689	1	1	0	0	0.20842	0.054532	0.14366	0.11912	0.077838	0.27256	0.22426	0.45373	0.22108	0.11218	0.21685	0.23959	0.037306	0.38414	0.11625	0.12954	-2.4313	-2.1354	-2.9	-2.6021	-2.6271	-3.1708	-2.3958	-3.0604	-2.875	-2.425	-3.0938	-2.6042	-2.4208	-3.0229	-2.4854	-2.9	86.272	231.394	351.485	168.690	133.835	92.217	374.113	298.862	292.486	94.835	245.603	36.950	65.354	326.932	176.335	85.370	0.0001577	0.00015747	0.00017857	544.22	2.3279e-06	1.7541e-06	576.03	201.65	9.1928e-07	4.155e-06	217.34	81.965	76.736	18.54	2.2147e-06	19.711	0.00019767	0.00019311	5.0503e-05	525.16	2.1608e-06	2.1068e-06	554.17	193.05	2.187e-06	2.0918e-06	204.26	78.098	73.032	17.953	2.0386e-06	19.406	168.503	286.485	100.223	38.830	259.974	235.767	37.235	43.413	273.899	342.161	40.843	44.354	47.928	51.749	137.935	47.404	-8191	255	
1720.761	1	1	0	0	0.1002	0.081354	0.42554	0.33354	0.16567	0.24891	0.10377	0.19936	0.16239	0.22632	0.057678	0.22832	0.23838	0.37532	0.26345	0.080807	-2.4625	-2.3542	-2.8833	-2.8542	-2.5125	-2.9729	-2.5875	-2.7	-2.9188	-2.5646	-3.0354	-2.7875	-2.4104	-3.1542	-2.5687	-2.6813	199.379	83.241	219.414	43.050	280.890	338.647	229.425	375.684	42.230	48.393	76.013	207.828	89.290	301.372	356.293	317.363	0.00010694	0.00022813	9.1224e-05	539.27	1.7247e-06	4.3801e-06	573.58	201.34	3.1241e-06	2.7708e-06	216.21	81.707	76.183	18.265	5.5644e-06	19.747	0.00019731	0.00018963	5.1853e-05	523.63	2.1496e-06	2.0634e-06	552.55	193.17	2.1423e-06	2.0378e-06	203.64	77.837	72.829	17.666	2.0862e-06	19.233	127.797	82.744	103.725	39.122	40.691	105.006	37.593	43.921	300.357	39.452	40.395	44.190	47.644	51.888	287.520	47.092	-8191	255	
1720.881	1	1	0	0	0.21224	0.29842	0.040627	0.18281	0.16082	0.17389	0.18458	0.051325	0.1719	0.15452	0.20134	0.087277	0.1611	0.19329	0.1314	0.1836	-2.7521	-2.4146	-2.8667	-2.7917	-2.575	-3.125	-2.8521	-2.6208	-3.1958	-2.4562	-2.8125	-3.0229	-2.5458	-3.1917	-2.6437	-2.6167	93.477	200.543	353.412	377.078	198.560	263.532	263.883	116.478	145.247	362.038	181.915	141.734	289.426	333.703	251.873	307.292	0.00016571	0.00030652	5.1786e-05	533.98	2.6827e-06	2.1766e-06	567.67	198.49	6.4086e-07	2.7144e-06	213.36	82.528	77.478	18.411	3.9822e-06	19.891	0.00018921	0.00018131	5.2259e-05	518.04	2.0596e-06	1.953e-06	547.68	190.32	2.0303e-06	1.9306e-06	201.41	78.648	73.138	17.657	2.0696e-06	19.28	125.894	243.083	35.749	39.226	178.519	192.457	37.353	43.747	278.096	258.488	40.993	43.909	47.879	51.780	179.925	47.730	-8191	255	
1720.977	1	1	0	0	0.07139	0.10436	0.15181	0.13846	0.11801	0.18307	0.048868	0.068926	0.020185	0.26586	0.21047	0.25362	0.30511	0.12549	0.21094	0.28243	-2.6042	-2.3354	-2.8812	-2.8625	-2.5042	-3.0146	-2.6396	-2.7083	-3.1917	-2.3063	-2.8583	-3.1042	-2.3187	-3.1958	-2.7271	-2.5563	378.866	26.180	272.287	385.540	44.018	75.976	222.164	223.579	373.227	196.232	82.286	355.099	114.035	345.767	206.311	341.082	0.00016713	0.00090729	0.00014629	534.38	3.5629e-06	3.0885e-06	572.01	198.3	3.0274e-06	5.5574e-06	215.22	83.544	77.248	18.223	5.7303e-06	20.185	0.00018084	0.00017557	5.1711e-05	517.57	1.9772e-06	1.8752e-06	550.6	189.82	1.9323e-06	1.9149e-06	202.5	78.999	73.198	17.601	2.052e-06	19.397	139.666	156.411	91.096	38.880	196.097	129.741	37.672	43.825	177.140	266.862	40.690	44.218	47.378	52.314	257.081	47.417	-8191	255	
#DATA ENDS
