BOXY.EXE: ISS Imagent and Oximeter Data Acquisition Program Version 0.80
Ascii Record File

#ACQ INFORMATION
2  Detector Channels 
16  External MUX Channels 
1  Auxiliary Channels 
5000  Waveform (CCF) Frequency (Hz)
1  Waveforms Skipped 
30  Waveforms Averaged 
1  Cycles Averaged 
16  Acquisitions per Waveform 
10.0806  Updata Rate (Hz) 

#FILE INFORMATION
TRUE -- External MUX Channel results are PARSED.
FALSE -- AC DC and Phase are NOT grouped.
TRUE -- Companion Program Settings File CREATED.
FALSE -- AC data not excluded
FALSE -- DC data not excluded
FALSE -- Phase data not excluded
FALSE -- Auxillary Chn. data not excluded
Tab delimiters

#CALIBRATION STATE
TRUE -- Waveform Calibration Values APPLIED.


#AUX CALIBRATION VALUES
Val Type	aux-1	

Term	1.0000e+00	
Factor	0.0000e+00	


#WF CALIBRATION VALUES
A = Detector Channel
Val Type	A-AC1	A-AC2	A-AC3	A-AC4	A-AC5	A-AC6	A-AC7	A-AC8	A-AC9	A-AC10	A-AC11	A-AC12	A-AC13	A-AC14	A-AC15	A-AC16	A-DC1	A-DC2	A-DC3	A-DC4	A-DC5	A-DC6	A-DC7	A-DC8	A-DC9	A-DC10	A-DC11	A-DC12	A-DC13	A-DC14	A-DC15	A-DC16	A-Ph1	A-Ph2	A-Ph3	A-Ph4	A-Ph5	A-Ph6	A-Ph7	A-Ph8	A-Ph9	A-Ph10	A-Ph11	A-Ph12	A-Ph13	A-Ph14	A-Ph15	A-Ph16	

Term	0.00000e+00	0.00000e+00	0.00000e+00	0.00000e+00	0.00000e+00	0.00000e+00	0.00000e+00	0.00000e+00	0.00000e+00	0.00000e+00	0.00000e+00	0.00000e+00	0.00000e+00	0.00000e+00	0.00000e+00	0.00000e+00	0.00000e+00	0.00000e+00	0.00000e+00	0.00000e+00	0.00000e+00	0.00000e+00	0.00000e+00	0.00000e+00	0.00000e+00	0.00000e+00	0.00000e+00	0.00000e+00	0.00000e+00	0.00000e+00	0.00000e+00	0.00000e+00	0.00000e+00	0.00000e+00	0.00000e+00	0.00000e+00	0.00000e+00	0.00000e+00	0.00000e+00	0.00000e+00	0.00000e+00	0.00000e+00	0.00000e+00	0.00000e+00	0.00000e+00	0.00000e+00	0.00000e+00	0.00000e+00	
Factor	1.00000e+00	1.00000e+00	1.00000e+00	1.00000e+00	1.00000e+00	1.00000e+00	1.00000e+00	1.00000e+00	1.00000e+00	1.00000e+00	1.00000e+00	1.00000e+00	1.00000e+00	1.00000e+00	1.00000e+00	1.00000e+00	1.00000e+00	1.00000e+00	1.00000e+00	1.00000e+00	1.00000e+00	1.00000e+00	1.00000e+00	1.00000e+00	1.00000e+00	1.00000e+00	1.00000e+00	1.00000e+00	1.00000e+00	1.00000e+00	1.00000e+00	1.00000e+00	X	X	X	X	X	X	X	X	X	X	X	X	X	X	X	X	

B = Detector Channel
Val Type	B-AC1	B-AC2	B-AC3	B-AC4	B-AC5	B-AC6	B-AC7	B-AC8	B-AC9	B-AC10	B-AC11	B-AC12	B-AC13	B-AC14	B-AC15	B-AC16	B-DC1	B-DC2	B-DC3	B-DC4	B-DC5	B-DC6	B-DC7	B-DC8	B-DC9	B-DC10	B-DC11	B-DC12	B-DC13	B-DC14	B-DC15	B-DC16	B-Ph1	B-Ph2	B-Ph3	B-Ph4	B-Ph5	B-Ph6	B-Ph7	B-Ph8	B-Ph9	B-Ph10	B-Ph11	B-Ph12	B-Ph13	B-Ph14	B-Ph15	B-Ph16	

Term	0.00000e+00	0.00000e+00	0.00000e+00	0.00000e+00	0.00000e+00	0.00000e+00	0.00000e+00	0.00000e+00	0.00000e+00	0.00000e+00	0.00000e+00	0.00000e+00	0.00000e+00	0.00000e+00	0.00000e+00	0.00000e+00	0.00000e+00	0.00000e+00	0.00000e+00	0.00000e+00	0.00000e+00	0.00000e+00	0.00000e+00	0.00000e+00	0.00000e+00	0.00000e+00	0.00000e+00	0.00000e+00	0.00000e+00	0.00000e+00	0.00000e+00	0.00000e+00	-2.03927e+02	-1.31831e+02	-1.25538e+02	-1.83254e+02	-8.09175e+01	-7.08768e+01	-1.60701e+02	-1.62015e+02	-9.04271e+01	-7.32347e+01	-1.72480e+02	-1.72818e+02	-1.83168e+02	-1.78087e+02	-6.61985e+01	-1.50828e+02	
Factor	3.89286e-05	1.23717e-04	3.30348e-05	1.37229e-01	1.13119e-06	1.25685e-06	1.52528e-01	4.65841e-02	1.24710e-06	1.41356e-06	7.24308e-02	2.45414e-02	2.28361e-02	7.36464e-03	1.53149e-06	1.05710e-02	3.04281e-06	3.29901e-06	9.19863e-07	7.35445e-02	3.56907e-08	3.63287e-08	7.68056e-02	2.49985e-02	3.56985e-08	3.62099e-08	3.76454e-02	1.27287e-02	1.23343e-02	3.98035e-03	3.59260e-08	5.53306e-03	X	X	X	X	X	X	X	X	X	X	X	X	X	X	X	X	



#DISTANCE SETTINGS
A = Detector Channel
A-1	A-2	A-3	A-4	A-5	A-6	A-7	A-8	A-9	A-10	A-11	A-12	A-13	A-14	A-15	A-16	

2.5000e+00	3.0000e+00	2.5000e+00	3.0000e+00	2.0000e+00	3.0000e+00	1.5000e+00	3.0000e+00	3.0000e+00	3.0000e+00	3.0000e+00	3.0000e+00	3.0000e+00	3.0000e+00	1.5000e+00	3.0000e+00	

B = Detector Channel
B-1	B-2	B-3	B-4	B-5	B-6	B-7	B-8	B-9	B-10	B-11	B-12	B-13	B-14	B-15	B-16	

1.0000e+01	1.0000e+01	1.0000e+01	1.4400e+00	1.0000e+01	1.0000e+01	1.5100e+00	1.9400e+00	1.0000e+01	1.0000e+01	1.9900e+00	2.4900e+00	2.4100e+00	2.9000e+00	1.0000e+01	2.9800e+00	




#DATA BEGINS
time	group	step	mark	flag	A-AC1	A-AC2	A-AC3	A-AC4	A-AC5	A-AC6	A-AC7	A-AC8	A-AC9	A-AC10	A-AC11	A-AC12	A-AC13	A-AC14	A-AC15	A-AC16	A-DC1	A-DC2	A-DC3	A-DC4	A-DC5	A-DC6	A-DC7	A-DC8	A-DC9	A-DC10	A-DC11	A-DC12	A-DC13	A-DC14	A-DC15	A-DC16	A-Ph1	A-Ph2	A-Ph3	A-Ph4	A-Ph5	A-Ph6	A-Ph7	A-Ph8	A-Ph9	A-Ph10	A-Ph11	A-Ph12	A-Ph13	A-Ph14	A-Ph15	A-Ph16	B-AC1	B-AC2	B-AC3	B-AC4	B-AC5	B-AC6	B-AC7	B-AC8	B-AC9	B-AC10	B-AC11	B-AC12	B-AC13	B-AC14	B-AC15	B-AC16	B-DC1	B-DC2	B-DC3	B-DC4	B-DC5	B-DC6	B-DC7	B-DC8	B-DC9	B-DC10	B-DC11	B-DC12	B-DC13	B-DC14	B-DC15	B-DC16	B-Ph1	B-Ph2	B-Ph3	B-Ph4	B-Ph5	B-Ph6	B-Ph7	B-Ph8	B-Ph9	B-Ph10	B-Ph11	B-Ph12	B-Ph13	B-Ph14	B-Ph15	B-Ph16	aux-1	digaux	

14306.964	1	1	0	256	0.13776	0.20963	0.29086	0.37899	0.31699	0.18742	0.14569	0.20249	0.092314	0.1142	0.38774	0.21178	0.16922	0.16203	0.18857	0.2428	-1.9271	-2.6917	-2.3312	-2.7667	-2.5833	-2.3417	-2.9833	-2.6979	-2.5312	-3.0167	-2.4542	-2.65	-2.7438	-2.3771	-2.6729	-2.8312	-112.208	-66.660	-22.470	164.021	-48.217	210.767	142.349	149.657	190.487	-14.465	154.220	175.557	85.487	181.525	-112.040	-123.751	0.00077618	0.0004915	0.00014964	1450	4.6955e-06	4.3508e-06	1446.1	382.79	1.0598e-06	6.9789e-06	437.38	147.37	128.2	43.238	3.4157e-06	53.361	0.00067223	0.00067718	0.00018478	1469.7	7.2461e-06	7.1996e-06	1470.8	390.63	7.1293e-06	7.0542e-06	447.66	151.21	131.1	44.488	7.1477e-06	55.045	137.106	-67.098	-70.635	-120.133	-33.993	21.017	-120.297	-115.685	4.259	44.980	-115.913	-112.394	-111.545	-106.734	-7.407	-107.042	-8191	255	
14307.085	1	1	0	0	0.31734	0.11186	0.11306	0.081912	0.16324	0.29873	0.27015	0.19777	0.16102	0.18422	0.18164	0.17692	0.13263	0.20632	0.079086	0.30998	-1.8583	-2.7438	-2.1521	-2.6604	-2.4938	-2.2042	-2.8646	-2.6917	-2.3042	-2.7708	-2.4833	-2.8208	-2.8417	-2.3438	-2.6	-2.6146	81.694	-44.752	173.261	149.050	139.713	101.875	114.390	171.684	-17.746	52.734	103.289	-131.648	140.776	197.767	197.791	144.803	0.00082637	0.00027288	0.00020606	1444.3	2.9381e-06	2.9368e-06	1449.3	382.68	2.5352e-06	8.1332e-06	438.08	147.5	128.1	43.384	6.7408e-06	53.422	0.00065013	0.00064823	0.00018171	1467.3	7.1516e-06	7.0978e-06	1467.8	389.96	7.1929e-06	7.1183e-06	447.94	151.39	131.36	44.464	7.352e-06	55.059	126.694	-98.291	-6.817	-120.116	-38.849	-107.490	-119.851	-115.774	-38.774	69.852	-116.292	-112.177	-111.568	-106.611	-18.189	-107.119	-8191	255	
14307.181	1	1	0	0	0.13579	0.11965	0.065001	0.31376	0.24704	0.084175	0.12466	0.21969	0.18434	0.10505	0.25548	0.11543	0.056127	0.091782	0.25274	0.1589	-1.8417	-2.7188	-2.475	-2.8208	-2.6333	-2.2917	-2.9917	-2.6417	-2.3146	-2.8125	-2.6562	-2.6208	-2.7792	-2.4188	-2.6146	-2.6417	37.703	195.721	15.787	198.945	-18.374	19.357	136.774	218.495	-32.408	65.780	180.747	147.296	221.565	131.318	-105.841	-0.592	0.00085015	0.00080473	0.00020793	1446.2	3.6358e-06	3.0484e-06	1447.1	381.71	1.2396e-06	5.5741e-06	438.15	147.99	127.96	43.352	7.141e-06	53.683	0.00067139	0.00066139	0.00018296	1467.9	7.1667e-06	7.2125e-06	1468.1	389.52	7.1023e-06	7.0423e-06	447.46	151.34	130.96	44.516	7.1035e-06	55.158	122.879	-2.995	-58.048	-119.979	6.549	10.226	-120.257	-115.798	-15.379	-11.384	-115.974	-112.130	-111.151	-106.565	47.808	-107.322	-8191	255	
14307.253	1	1	0	0	0.22592	0.236	0.1502	0.14513	0.055818	0.30475	0.31452	0.26702	0.21338	0.11466	0.29355	0.1317	0.30548	0.075648	0.12249	0.20334	-1.7958	-2.8479	-2.4271	-2.725	-2.6437	-2.3458	-2.6667	-2.7083	-2.2979	-2.7333	-2.6417	-2.5187	-2.8583	-2.35	-2.6042	-2.7938	125.158	218.893	62.183	168.307	10.605	-95.662	202.897	179.177	-80.165	-51.293	-103.129	-99.888	134.848	112.153	-56.088	-109.709	0.00086935	0.00086203	0.00016819	1448.2	3.76e-06	4.7255e-06	1442.5	382.67	5.7418e-06	6.9615e-06	438.61	147.65	128.4	43.182	5.4603e-06	53.221	0.00064959	0.00063476	0.00017853	1468.1	6.9866e-06	6.999e-06	1468.2	389.42	7.0255e-06	7.0494e-06	447.84	151.1	131.25	44.449	6.9597e-06	54.957	134.181	-18.030	-53.681	-120.119	-38.148	58.840	-120.309	-115.581	-64.094	1.263	-115.976	-112.223	-111.342	-106.429	-7.455	-107.331	-8191	255	
14307.373	1	1	0	0	0.074013	0.079352	0.28113	0.33551	0.2535	0.081985	0.22431	0.21086	0.11574	0.16636	0.28539	0.16258	0.30096	0.37891	0.075728	0.2222	-1.9021	-2.6396	-2.4667	-2.5604	-2.6792	-2.1937	-2.6188	-2.7417	-2.2313	-2.6	-2.6771	-2.4188	-2.7833	-2.4458	-2.5833	-2.8292	4.562	-90.518	47.507	200.850	100.255	-54.861	118.228	202.109	99.438	155.189	141.936	218.461	84.685	223.660	-37.567	207.416	0.000849	0.00029226	0.00016955	1442.3	7.3572e-07	3.0528e-06	1438.7	381.95	2.9314e-06	6.0339e-06	438.26	147.61	128.01	43.202	3.2646e-06	53.314	0.0006412	0.00063208	0.00017669	1464.3	6.8242e-06	6.8244e-06	1464.2	389.93	6.8842e-06	6.8049e-06	447.14	150.88	130.9	44.425	6.8488e-06	54.91	127.134	-17.579	-92.101	-120.107	90.841	-32.461	-120.313	-115.604	13.925	-11.119	-116.212	-111.941	-111.679	-106.597	12.564	-107.109	-8191	255	
14307.468	1	1	0	0	0.15608	0.049863	0.30922	0.28831	0.2125	0.17717	0.3114	0.2165	0.22293	0.086596	0.078988	0.11375	0.040591	0.13844	0.083301	0.30236	-1.7521	-2.4458	-2.5729	-2.4979	-2.6333	-2.3104	-2.6208	-2.9479	-2.2125	-2.5708	-2.7479	-2.4667	-2.8458	-2.5917	-2.3354	-2.7854	-106.779	-42.861	33.397	184.458	-4.607	172.182	163.095	156.649	-76.791	196.192	-106.216	103.122	134.603	192.248	-74.806	105.164	0.00077681	0.00056069	0.00016035	1443	5.956e-06	1.8419e-06	1435.3	381.27	4.9149e-06	7.1442e-06	437.49	147.35	127.45	43.093	5.6101e-06	53.31	0.00062362	0.00060447	0.00017131	1463.6	6.6666e-06	6.6472e-06	1460.6	388.18	6.5556e-06	6.7067e-06	446.96	150.94	130.71	44.341	6.6158e-06	54.898	135.591	-58.372	-49.770	-120.248	-46.622	-4.037	-120.245	-115.692	-31.997	9.667	-116.009	-111.898	-111.610	-106.676	24.027	-107.211	-8191	255	
14307.566	1	1	0	0	0.069263	0.18516	0.12832	0.28292	0.15659	0.05154	0.34929	0.14255	0.17207	0.27684	0.24422	0.12065	0.53894	0.22672	0.10463	0.11053	-1.8229	-2.5396	-2.5	-2.4875	-2.7646	-2.5583	-2.5729	-3.0146	-2.3104	-2.5083	-2.8063	-2.3896	-2.7854	-2.5625	-2.2188	-2.775	-70.321	131.224	60.346	172.727	13.678	-112.795	164.036	152.773	64.662	-48.592	112.237	157.303	155.769	-112.725	205.872	127.806	0.00088535	0.00038226	0.00012975	1438.8	5.4519e-06	2.8472e-06	1440.1	381.64	5.3363e-06	8.4929e-06	439.22	148.16	127.36	43.162	3.7288e-06	53.421	0.00061844	0.00060733	0.00016885	1458.1	6.6391e-06	6.6421e-06	1459.8	388.65	6.5463e-06	6.5542e-06	447.33	151.12	130.48	44.396	6.6791e-06	54.842	136.522	-14.111	-92.516	-119.916	-18.270	-10.033	-120.457	-115.636	-8.908	13.107	-116.042	-112.294	-111.178	-106.454	3.091	-107.390	-8191	255	
14307.685	1	1	0	0	0.13895	0.1228	0.20142	0.24248	0.016329	0.17064	0.24952	0.2622	0.10337	0.13073	0.16867	0.22449	0.18437	0.1063	0.067773	0.32121	-1.9458	-2.5854	-2.5292	-2.5563	-2.7375	-2.3979	-2.4938	-2.9875	-2.4167	-2.4958	-2.8229	-2.3479	-2.6875	-2.5563	-2.3479	-2.95	-91.386	-100.656	192.428	223.589	-38.256	11.476	173.012	130.849	-5.341	115.582	121.874	199.753	148.538	-82.265	-101.525	-133.272	0.00090934	0.00075684	0.00018352	1440.8	4.1384e-06	4.3747e-06	1438.3	380.89	2.7386e-06	5.3709e-06	438.08	147.95	128.15	43.111	3.4491e-06	53.265	0.00060467	0.00060547	0.00016552	1457.3	6.5293e-06	6.5235e-06	1459.2	388.06	6.3694e-06	6.4003e-06	446.23	151	130.5	44.358	6.3909e-06	54.884	135.995	-42.273	-75.528	-120.043	45.193	39.255	-120.331	-115.680	-110.718	55.284	-115.972	-112.065	-111.431	-106.588	66.170	-107.040	-8191	255	
14307.781	1	1	0	0	0.26986	0.12296	0.084296	0.27423	0.095809	0.062679	0.35732	0.43508	0.041144	0.25463	0.04767	0.26295	0.2668	0.24295	0.24682	0.10562	-1.9854	-2.3167	-2.6396	-2.6104	-2.4646	-2.8083	-2.45	-2.825	-2.4042	-2.3042	-2.8667	-2.3333	-2.7188	-2.5854	-2.225	-2.9396	149.524	-35.300	-109.716	187.951	173.993	-39.875	134.848	149.330	-71.432	18.374	48.141	-98.417	-112.589	181.296	180.427	117.270	0.00084695	0.00074894	7.9868e-05	1439.4	4.084e-06	7.4083e-06	1440.1	380.84	8.3646e-07	5.524e-06	436.91	148.3	128.05	43.182	3.4398e-06	53.244	0.00059697	0.00059052	0.00016109	1456.9	6.4988e-06	6.5261e-06	1460.5	387.94	6.5179e-06	6.5192e-06	446.3	151.01	130.74	44.428	6.3757e-06	54.829	130.260	-42.827	-60.607	-120.098	0.299	27.798	-120.331	-115.537	198.867	-1.041	-115.995	-112.028	-111.499	-106.580	-59.327	-107.101	-8191	255	
14307.852	1	1	0	0	0.10183	0.070805	0.20435	0.34008	0.067164	0.12977	0.33337	0.13927	0.061521	0.19131	0.43727	0.25764	0.16415	0.19007	0.24937	0.086379	-1.9625	-2.3812	-2.5958	-2.5521	-2.3563	-2.5854	-2.4458	-2.8125	-2.4292	-2.2917	-2.9417	-2.4	-2.4313	-2.8771	-2.2021	-2.7229	181.621	-5.224	-9.040	219.862	67.283	89.575	126.483	190.338	3.455	54.312	208.717	181.470	107.706	-93.011	179.200	73.880	0.0007623	0.00066706	0.00016438	1441.2	1.4819e-06	7.0527e-06	1447.1	380.61	4.5294e-06	7.0054e-06	438.79	147.59	127.65	43.225	5.5715e-06	53.247	0.00060173	0.00058954	0.00016567	1458.1	6.553e-06	6.4536e-06	1463.4	388.18	6.5846e-06	6.6997e-06	446.74	150.8	130.64	44.376	6.8573e-06	54.912	125.201	-29.140	-61.273	-119.857	88.225	67.530	-120.308	-115.621	-31.787	-0.898	-115.882	-112.010	-111.450	-106.602	8.111	-107.386	-8191	255	
14307.973	1	1	0	0	0.19988	0.092547	0.023088	0.28345	0.23022	0.15149	0.4195	0.3247	0.2727	0.30596	0.25685	0.22755	0.18433	0.18293	0.119	0.30543	-2.0146	-2.0708	-2.7271	-2.6333	-2.3667	-2.6667	-2.5	-2.9479	-2.6271	-2.2646	-2.7438	-2.4583	-2.6083	-2.8625	-2.3354	-2.5312	-109.031	33.533	148.931	196.069	99.098	170.428	163.883	211.598	22.265	158.084	-113.448	-99.814	161.239	177.265	157.031	174.042	0.00086326	0.00070915	0.00024433	1440.3	6.9107e-06	3.6136e-06	1438	382.27	4.979e-06	3.6101e-06	439.9	147.89	128.24	43.143	8.8256e-06	53.281	0.0006361	0.00062192	0.00017255	1459.4	6.7709e-06	6.7259e-06	1461.7	389.23	6.7495e-06	6.6931e-06	447.87	150.84	130.73	44.306	6.9171e-06	54.851	129.592	-54.248	-53.169	-120.183	32.298	-3.002	-120.312	-115.639	-67.415	-30.404	-115.826	-112.019	-111.519	-106.512	23.575	-107.330	-8191	255	
14308.069	1	1	0	0	0.15564	0.14974	0.31915	0.4244	0.098114	0.16558	0.33194	0.16824	0.11798	0.25151	0.24411	0.28456	0.32914	0.1905	0.093183	0.13427	-2.1937	-2.175	-2.7271	-2.6333	-2.4938	-2.7583	-2.4104	-2.6396	-2.7229	-2.1875	-2.7854	-2.5917	-2.6021	-2.7667	-2.3333	-2.6229	149.889	-91.630	-64.652	166.839	153.336	-20.367	163.062	88.096	-31.405	48.928	219.299	158.332	192.981	-94.313	121.027	-112.861	0.00087208	0.00078665	6.2365e-05	1439.7	4.4904e-06	9.5148e-06	1442.3	381.48	1.6191e-06	3.1352e-06	438.03	148.34	127.54	43.3	1.721e-06	53.508	0.00063167	0.00062503	0.00017299	1460.3	6.839e-06	6.8949e-06	1464.6	388.82	6.7353e-06	6.6306e-06	446.95	151.36	130.73	44.416	6.6423e-06	55.05	133.146	-3.541	-48.068	-120.080	-4.963	25.280	-120.296	-115.612	-109.069	56.324	-115.913	-111.975	-111.609	-106.416	23.142	-107.192	-8191	255	
14308.165	1	1	0	0	0.14213	0.22654	0.12012	0.26386	0.10995	0.096664	0.10843	0.3079	0.21121	0.11176	0.10653	0.081812	0.26591	0.25846	0.11806	0.13399	-2.1104	-2.1146	-2.325	-2.5125	-2.3812	-2.5958	-2.4437	-2.5604	-2.6208	-2.1125	-2.6917	-2.5438	-2.4292	-2.8292	-2.2146	-2.5583	-45.675	208.931	-110.581	166.905	189.565	138.116	126.347	126.086	225.980	20.485	46.988	127.354	193.187	176.892	11.606	59.959	0.00077894	0.00070755	0.00013982	1443.5	2.1284e-06	3.4409e-06	1438.6	383.71	5.5701e-06	5.9746e-06	438.36	147.64	127.91	43.154	7.4029e-06	53.313	0.00060707	0.00059682	0.00016363	1461	6.5698e-06	6.669e-06	1461.9	389.98	6.6279e-06	6.5889e-06	447.34	151.28	130.98	44.458	6.6764e-06	54.972	130.018	-40.101	-52.041	-119.992	-57.357	28.901	-120.218	-115.819	9.452	-5.939	-116.110	-111.886	-111.494	-106.653	-13.587	-107.300	-8191	255	
14308.262	1	1	0	0	0.093025	0.10404	0.22046	0.33966	0.065308	0.13455	0.27702	0.29615	0.23617	0.20691	0.15993	0.36089	0.066764	0.18848	0.19356	0.43662	-2.25	-2.1813	-2.5958	-2.7604	-2.3646	-2.7896	-2.6958	-2.5812	-2.6375	-2.2375	-2.7333	-2.5917	-2.3667	-2.6688	-2.3083	-2.4292	197.516	-78.650	-80.782	-115.197	53.886	-122.174	165.407	138.180	5.084	-52.317	-50.900	222.888	-93.434	224.732	53.988	120.415	0.00077124	0.00049539	0.00012006	1445.8	5.1222e-06	6.2867e-06	1442.4	383.55	6.0161e-06	4.5033e-06	436.76	147.28	127.85	43.197	5.8909e-06	53.292	0.00061548	0.00062244	0.00017107	1462.2	6.8258e-06	6.6832e-06	1466.9	390.66	6.7528e-06	6.7128e-06	447.26	151	130.66	44.34	6.8057e-06	54.881	129.913	-46.443	-48.882	-120.051	-39.566	2.507	-120.247	-115.781	-38.359	43.856	-115.968	-112.168	-111.325	-106.584	-17.887	-107.083	-8191	255	
14308.380	1	1	0	0	0.13931	0.074961	0.074832	0.26586	0.18957	0.20487	0.25943	0.20322	0.086772	0.19403	0.21672	0.19059	0.2297	0.18431	0.24457	0.40659	-2.1312	-2.1	-2.5354	-2.8875	-2.2188	-2.5687	-2.6375	-2.3937	-2.5438	-2.0521	-2.6021	-2.6063	-2.2125	-2.6146	-2.2938	-2.4521	188.010	141.123	-9.811	-126.087	-33.556	52.039	153.941	202.015	160.706	-133.230	172.634	149.155	-88.528	126.011	131.016	176.571	0.00091521	0.00058902	0.00010752	1440.9	3.1207e-06	7.5786e-06	1448.8	383.13	2.5883e-06	5.0833e-06	439.82	148	128.01	43.344	5.9342e-06	53.563	0.00061915	0.00061788	0.00017346	1462.6	6.7499e-06	6.6994e-06	1467.9	390.08	6.6808e-06	6.622e-06	448.32	151.51	131.05	44.567	6.6465e-06	55.078	135.295	-65.935	-22.838	-120.105	-44.234	6.490	-120.272	-115.790	-45.354	-23.090	-116.281	-112.022	-111.410	-106.488	37.487	-107.436	-8191	255	
14308.477	1	1	0	0	0.25308	0.14868	0.18321	0.3441	0.15809	0.10981	0.26235	0.068744	0.34296	0.19584	0.18961	0.047559	0.19844	0.20943	0.098212	0.1096	-2.1292	-2.4583	-2.4729	-2.7292	-2.0979	-2.425	-2.6292	-2.2896	-2.6688	-2.3417	-2.5271	-2.7812	-2.3208	-2.625	-2.4854	-2.3354	-67.430	-121.545	146.975	224.042	52.168	42.390	184.295	153.242	79.718	-46.923	129.299	144.104	-73.583	-96.226	64.529	-131.171	0.00070555	0.00043976	7.3235e-05	1445.2	4.6155e-06	2.4457e-06	1447.8	383.5	7.6732e-06	4.9484e-06	441.04	147.46	128.02	43.215	6.3027e-06	53.341	0.00060342	0.00060346	0.00016866	1464.9	6.639e-06	6.5962e-06	1468.5	390.21	6.6682e-06	6.5674e-06	448.98	151.05	130.89	44.515	6.6673e-06	54.943	134.736	-26.437	-12.039	-120.257	-6.365	-23.552	-119.972	-115.975	-14.732	-12.656	-116.061	-112.123	-111.693	-106.624	19.101	-107.142	-8191	255	
14308.550	1	1	0	0	0.17002	0.18611	0.020103	0.065801	0.081892	0.14973	0.20702	0.25904	0.076711	0.13335	0.1531	0.09599	0.29528	0.41965	0.11393	0.23591	-2.1958	-2.275	-2.2687	-2.9229	-2.1958	-2.6479	-2.9021	-2.5312	-2.6875	-2.5208	-2.3417	-2.7375	-2.3083	-2.55	-2.5563	-2.3146	149.218	-65.106	-63.383	110.668	-125.572	-2.304	152.731	196.606	51.572	169.820	175.132	-96.397	208.773	203.643	11.742	208.318	0.00076357	0.00019672	6.493e-05	1446	5.771e-06	4.1015e-06	1448.3	384.95	3.6406e-06	8.0461e-06	439.43	147.48	127.91	43.414	5.6975e-06	53.202	0.00062423	0.00061693	0.00016996	1464.9	6.755e-06	6.814e-06	1470.5	390.84	6.9202e-06	6.7677e-06	448.84	151.07	130.9	44.533	6.9795e-06	54.887	130.977	-51.737	-16.014	-120.151	5.079	1.473	-120.330	-115.558	-48.346	12.411	-115.973	-112.235	-111.449	-106.627	-0.706	-107.395	-8191	255	
14308.646	1	1	0	0	0.097489	0.11412	0.22435	0.38574	0.20721	0.11235	0.38684	0.17779	0.29475	0.29417	0.30764	0.15942	0.30339	0.082685	0.048849	0.23687	-2.2188	-2.4083	-2.1562	-2.8063	-2.2646	-2.2958	-2.8187	-2.4833	-2.7562	-2.4	-2.3771	-2.7708	-2.2854	-2.6562	-2.6063	-2.5062	215.737	209.160	207.343	218.600	-16.915	41.710	90.465	161.471	212.731	-36.133	219.084	191.782	204.807	159.245	158.749	201.679	0.00085777	0.00067789	4.8119e-05	1442.9	5.3189e-06	7.3364e-06	1446.1	382.69	2.5916e-06	3.7942e-06	439.24	148.4	128.22	43.056	7.7324e-06	53.257	0.0006313	0.00062588	0.00017535	1465	6.9503e-06	6.9728e-06	1468	390.17	6.912e-06	6.9186e-06	448.3	151.41	130.71	44.374	6.885e-06	54.917	130.154	-57.574	-14.657	-120.105	-53.976	13.765	-120.342	-115.816	-83.177	39.695	-115.984	-112.136	-111.725	-106.392	-26.472	-107.406	-8191	255	
14308.765	1	1	0	0	0.18787	0.040292	0.20806	0.21504	0.1737	0.45153	0.23234	0.25909	0.082859	0.10431	0.19329	0.16585	0.074285	0.15153	0.050907	0.095487	-2.1188	-2.4375	-2.2667	-2.8333	-2.2729	-2.4083	-2.6437	-2.3583	-2.6083	-2.4146	-2.1708	-2.8521	-2.3021	-2.5333	-2.5375	-2.4854	121.597	121.168	-120.315	172.787	-50.925	20.038	147.458	201.953	148.198	-94.501	184.901	155.346	218.288	183.102	-10.159	151.021	0.00077562	0.00039244	0.00013074	1446	2.6438e-06	5.8229e-06	1442.2	383.74	2.8762e-06	1.0373e-05	440.79	148.17	127.73	43.191	2.2355e-06	53.381	0.00063396	0.00063173	0.00017374	1465.6	7.0238e-06	6.9432e-06	1468.2	390.24	6.9137e-06	6.9141e-06	448.92	151.39	130.85	44.42	6.9006e-06	54.924	134.300	-36.793	-90.022	-120.156	-132.829	40.258	-120.326	-115.744	-8.005	23.166	-116.010	-112.284	-111.191	-106.623	-59.816	-107.249	-8191	255	
14308.861	1	1	0	0	0.32807	0.2671	0.19161	0.45659	0.032722	0.21694	0.24918	0.13672	0.12585	0.12635	0.35002	0.30788	0.25413	0.27422	0.057038	0.095693	-2.1771	-2.3396	-2.1229	-2.8937	-2.4188	-2.3063	-2.8042	-2.2521	-2.4979	-2.4458	-2.2104	-2.7812	-2.5979	-2.3146	-2.7313	-2.3708	164.038	-120.947	58.502	180.541	102.867	182.169	123.060	162.404	-120.159	33.635	175.771	191.456	160.258	174.093	89.812	207.563	0.00086117	0.00057228	0.00018346	1448.1	5.3354e-06	3.7828e-06	1444.1	383.27	6.1016e-06	5.7207e-06	440.95	148.18	128.04	43.315	6.5147e-06	53.461	0.00062776	0.00061799	0.00017268	1467.5	6.8308e-06	6.9062e-06	1468.9	390.92	6.7778e-06	6.769e-06	448.68	151.34	130.75	44.481	6.9026e-06	55.073	130.240	-75.542	-50.408	-120.046	8.944	39.868	-120.556	-115.603	4.331	15.306	-115.883	-111.937	-111.524	-106.396	34.589	-107.161	-8191	255	
14308.957	1	1	0	0	0.224	0.27031	0.35718	0.21898	0.18277	0.18342	0.15519	0.30579	0.12852	0.12163	0.20411	0.17427	0.31419	0.095812	0.057012	0.24879	-1.9146	-2.4562	-2.1354	-2.8625	-2.5542	-2.1521	-2.85	-2.5438	-2.3812	-2.6792	-2.4833	-2.7271	-2.6125	-2.3208	-2.6604	-2.3146	39.218	123.166	222.356	146.716	59.931	182.203	187.478	206.125	-87.340	169.749	-79.596	-123.783	200.609	120.751	-52.680	196.346	0.00071636	0.00047162	0.00010405	1448.1	2.559e-06	6.0326e-06	1446.1	384.22	2.8051e-06	7.9994e-06	440.88	148.85	128.52	43.276	3.6983e-06	53.693	0.00064181	0.00062102	0.00017343	1467.5	6.7906e-06	6.895e-06	1469.2	390.41	6.8354e-06	6.8253e-06	449.35	151.47	131.09	44.522	6.7252e-06	55.082	135.033	-36.428	-90.189	-119.982	-17.826	38.057	-120.278	-115.659	-8.968	1.808	-115.990	-112.077	-111.541	-106.654	-67.851	-107.085	-8191	255	
14309.053	1	1	0	0	0.11091	0.18049	0.092014	0.24068	0.22034	0.10047	0.32876	0.30812	0.12485	0.055875	0.38694	0.19684	0.33152	0.069406	0.34764	0.26343	-1.9104	-2.6083	-2.1333	-2.7208	-2.6417	-2.2979	-2.8438	-2.5104	-2.2479	-2.5438	-2.5021	-2.7167	-2.6104	-2.2854	-2.7333	-2.4833	124.992	60.521	-64.710	183.311	-3.367	-22.369	206.697	196.358	32.870	129.376	214.435	156.930	-117.536	148.056	217.895	197.730	0.00079167	0.00063237	0.0001723	1450.4	9.0019e-07	1.6426e-06	1445.8	383.22	3.7208e-06	7.7101e-06	441.1	148.34	128.31	43.204	9.7606e-06	53.532	0.00062192	0.00062768	0.00017274	1467.1	6.7435e-06	6.7422e-06	1467	390.82	6.8091e-06	6.7082e-06	449.2	151.7	131.21	44.501	6.7678e-06	55.122	136.979	-51.240	-57.982	-120.150	3.354	20.437	-120.127	-115.697	-31.711	14.146	-116.156	-112.076	-111.193	-106.521	24.703	-107.317	-8191	255	
14309.150	1	1	0	0	0.29085	0.26862	0.086279	0.22148	0.12847	0.28644	0.41014	0.34155	0.28085	0.17288	0.21085	0.21173	0.099184	0.23837	0.2677	0.17515	-1.9229	-2.6292	-2.1479	-2.6813	-2.5083	-2.35	-2.8438	-2.4771	-2.2938	-2.4562	-2.4125	-2.5104	-2.8333	-2.275	-2.4896	-2.6625	159.016	-102.167	-125.730	-121.446	-96.212	50.043	200.720	171.151	209.456	60.282	148.964	-106.369	143.646	187.880	13.542	211.354	0.00074327	0.00080659	6.0556e-05	1449.3	5.3996e-06	8.7132e-06	1446.7	383.91	4.3504e-06	2.3985e-06	441.12	148.09	129.11	43.402	3.2982e-06	53.422	0.00062764	0.00063067	0.00017451	1466.9	6.7281e-06	6.7456e-06	1470.1	391.39	6.762e-06	6.7171e-06	449.42	151.59	131.53	44.618	6.6494e-06	55.194	122.144	-21.302	-14.631	-119.979	-42.120	14.032	-120.336	-115.663	-30.286	-56.954	-116.113	-112.060	-111.566	-106.559	67.174	-107.287	-8191	255	
14309.246	1	1	0	0	0.26654	0.12028	0.10357	0.24111	0.083909	0.21498	0.10122	0.27393	0.19481	0.066602	0.094243	0.34981	0.19889	0.15324	0.16769	0.22131	-1.8458	-2.8208	-2.1875	-2.6458	-2.5187	-2.025	-2.7792	-2.5958	-2.3312	-2.5479	-2.6333	-2.7021	-2.6292	-2.2229	-2.4979	-2.5333	-124.126	-25.064	107.376	190.317	98.199	70.748	89.502	174.097	-80.309	-132.273	-73.796	152.138	214.316	161.337	200.619	165.422	0.00073599	0.0004714	9.5065e-05	1454.1	3.7309e-06	5.2749e-06	1452.6	382.97	5.2464e-06	6.4697e-06	442.01	148.9	128	43.471	3.8367e-06	53.489	0.00062464	0.0006185	0.0001732	1470.7	6.9202e-06	6.8983e-06	1472.4	391.36	6.8528e-06	6.9762e-06	450.11	151.98	131.24	44.591	6.7983e-06	55.137	122.970	-78.650	-50.070	-120.098	-13.664	-52.630	-120.254	-115.651	-9.079	-4.490	-115.948	-112.307	-111.524	-106.529	-28.153	-107.257	-8191	255	
14309.366	1	1	0	0	0.086989	0.09178	0.046147	0.27154	0.18035	0.11765	0.20799	0.10893	0.13302	0.078169	0.34841	0.26109	0.090652	0.024538	0.26079	0.41855	-1.7396	-2.7146	-2.1875	-2.4292	-2.6083	-2.1229	-2.8521	-2.5438	-2.2479	-2.7938	-2.4396	-2.6125	-2.8146	-2.3937	-2.6292	-2.6417	23.243	-74.711	-19.579	167.507	127.713	6.745	119.961	196.384	87.493	201.826	179.266	165.619	-66.297	-56.840	70.333	114.068	0.00086759	0.00075739	0.00016552	1452.4	5.205e-06	7.5895e-06	1451.8	383.72	5.9126e-06	4.7347e-06	442.63	148.31	128.6	43.273	5.9214e-06	53.449	0.00063347	0.00061868	0.00017348	1470.4	6.7887e-06	6.9051e-06	1472.2	391.03	6.8792e-06	6.9057e-06	450.94	151.94	131.53	44.556	6.8842e-06	55.082	133.935	-66.560	-39.158	-119.814	-44.111	-9.689	-120.326	-115.422	-36.744	-1.611	-115.956	-112.027	-111.414	-106.499	-13.052	-107.068	-8191	255	
14309.463	1	1	0	0	0.068971	0.19242	0.18001	0.29118	0.027924	0.021568	0.26632	0.11396	0.21046	0.20077	0.46194	0.21004	0.12824	0.36043	0.027252	0.21953	-1.8729	-2.5583	-2.4667	-2.4729	-2.7812	-2.2979	-2.6146	-2.6458	-2.2583	-2.6771	-2.5771	-2.4813	-2.8937	-2.3896	-2.45	-2.7	116.079	54.608	13.868	166.695	178.901	119.766	140.020	113.231	-34.257	-13.322	164.848	193.994	90.581	171.601	18.942	178.975	0.00081299	0.0003064	0.00011377	1449.6	3.4812e-06	5.7838e-06	1453.4	383.85	1.0298e-05	6.0635e-06	440.64	148.83	128.72	43.33	1.0544e-06	53.432	0.00063098	0.00062832	0.00017706	1470.8	6.9957e-06	6.964e-06	1473.7	391.36	6.8607e-06	6.8016e-06	449.82	151.85	131.28	44.565	6.8723e-06	55.114	126.334	15.758	5.213	-119.959	-83.129	15.995	-120.411	-115.675	-27.696	-4.520	-115.944	-111.880	-111.340	-106.672	-6.575	-107.264	-8191	255	
14309.557	1	1	0	0	0.10403	0.12599	0.012454	0.36452	0.12377	0.16719	0.40289	0.14737	0.14721	0.26049	0.36719	0.10285	0.3947	0.17213	0.17222	0.18332	-1.6833	-2.5083	-2.1708	-2.425	-2.7417	-2.3292	-2.7958	-2.925	-2.2125	-2.6104	-2.6146	-2.3292	-2.7792	-2.3958	-2.2083	-2.8812	24.161	-123.926	177.254	159.666	177.893	176.108	184.446	104.272	-117.752	47.044	223.136	-30.804	214.746	175.522	124.027	151.110	0.00082235	0.00015095	0.00013683	1447.9	1.7985e-06	1.0183e-05	1450.1	383.21	6.0432e-06	8.9915e-06	440.76	147.95	127.55	43.066	4.2532e-06	53.324	0.00063846	0.00063915	0.00017855	1469.2	7.0428e-06	7.0611e-06	1471.9	390.35	7.1976e-06	7.1709e-06	449.37	151.4	130.72	44.401	7.1435e-06	54.941	137.227	-63.928	-56.489	-120.129	-105.032	25.876	-120.364	-115.419	-37.353	2.350	-115.871	-112.229	-111.221	-106.385	10.823	-107.385	-8191	255	
14309.653	1	1	0	0	0.23675	0.16949	0.053182	0.14956	0.28137	0.14819	0.30436	0.2023	0.23837	0.29325	0.26347	0.19972	0.2128	0.15941	0.085252	0.3129	-1.6542	-2.5	-2.5896	-2.3479	-2.7292	-2.3021	-2.5312	-2.9417	-2.3167	-2.3896	-2.6063	-2.3187	-2.7687	-2.4188	-2.4854	-2.8563	91.030	-130.620	10.500	-85.780	2.162	62.661	153.774	212.515	-103.929	178.438	170.726	139.558	-109.691	191.364	-52.872	177.520	0.00070595	0.00053787	4.1818e-05	1450.4	3.8756e-06	9.4259e-06	1449.1	384.2	7.4665e-06	3.66e-06	440.41	147.55	127.76	43.003	8.2611e-06	53.267	0.00066745	0.0006712	0.00018821	1472.7	7.2247e-06	7.3311e-06	1474	390.64	7.2281e-06	7.2399e-06	449.76	151.14	131	44.385	7.1982e-06	54.896	140.887	-51.791	-111.396	-120.169	23.672	13.924	-120.508	-115.834	-83.730	24.938	-116.051	-112.119	-111.411	-106.626	7.614	-107.169	-8191	255	
14309.749	1	1	0	0	0.15227	0.052805	0.22434	0.5497	0.21659	0.062885	0.21208	0.35666	0.087848	0.23064	0.11672	0.31974	0.24324	0.21463	0.10336	0.21403	-1.7333	-2.2812	-2.6292	-2.3229	-2.6813	-2.525	-2.2167	-2.8792	-2.2917	-2.6083	-2.8896	-2.3708	-2.6979	-2.4833	-2.2042	-2.825	179.002	109.345	146.490	151.760	59.802	-52.261	128.322	223.590	-130.600	-71.198	201.498	-127.275	189.636	173.401	-40.458	216.795	0.00084751	0.0008705	0.00015059	1451.6	2.351e-06	2.0969e-06	1447.4	385.08	3.3207e-06	6.7501e-06	439.83	148.22	128.05	43.312	3.7768e-06	53.63	0.00066355	0.00066408	0.00018359	1472.4	7.1758e-06	7.1608e-06	1471	391.5	6.9709e-06	6.9845e-06	449.55	151.5	131.26	44.488	6.8219e-06	55.029	135.530	-38.140	-43.085	-120.073	30.879	-48.944	-120.290	-115.641	-71.725	23.231	-115.910	-112.235	-111.636	-106.556	47.876	-107.262	-8191	255	
14309.845	1	1	0	0	0.27732	0.10142	0.11766	0.099994	0.1568	0.19067	0.1592	0.24025	0.22433	0.14029	0.38946	0.12441	0.054655	0.41843	0.24499	0.057594	-1.9062	-2.4354	-2.5292	-2.4604	-2.8063	-2.3771	-2.4583	-2.9042	-2.1979	-2.3292	-2.7771	-2.2667	-2.6375	-2.5104	-1.9271	-2.6688	171.761	116.617	146.951	143.359	-78.458	-80.176	54.808	170.982	67.180	-2.589	193.978	154.491	188.996	213.417	102.658	130.384	0.00085237	0.00074024	7.3297e-05	1452.3	2.0919e-06	3.9179e-06	1451.6	384.44	1.0027e-05	4.1824e-06	440.43	147.94	128.19	43.274	9.0118e-06	53.086	0.00062301	0.00062875	0.00017502	1470.3	6.9534e-06	7.0285e-06	1474.6	390.78	6.9108e-06	6.967e-06	449.39	151.45	130.91	44.459	7.1355e-06	54.814	127.669	-74.563	-81.850	-120.140	-26.570	-31.549	-120.260	-115.946	-62.269	55.577	-116.098	-112.178	-111.428	-106.395	-30.067	-107.515	-8191	255	
14309.942	1	1	0	0	0.13595	0.14777	0.20378	0.30503	0.11914	0.10923	0.35208	0.31889	0.041677	0.20699	0.29847	0.22824	0.1896	0.10432	0.18529	0.30549	-1.6896	-2.2562	-2.5917	-2.5062	-2.6208	-2.6188	-2.4771	-2.7021	-2.4479	-2.3729	-2.8667	-2.2625	-2.4771	-2.6437	-2.175	-2.7083	201.449	14.786	111.751	144.516	-11.269	-57.553	201.602	192.443	124.371	-83.324	182.082	-120.604	186.043	130.902	-73.640	139.865	0.00075006	0.00048616	0.0001029	1447.6	2.9841e-06	2.3124e-06	1454.2	382.79	7.0983e-06	3.9544e-06	439.09	147.63	127.83	43.013	7.7571e-06	53.319	0.00066026	0.00066562	0.00018552	1470.6	7.4356e-06	7.594e-06	1474	390.85	7.6361e-06	7.6757e-06	449.11	151.51	130.85	44.373	7.4473e-06	54.99	130.094	-85.107	-44.914	-120.117	-27.282	-52.855	-120.346	-115.837	-54.003	72.784	-115.921	-112.142	-111.734	-106.536	14.507	-107.261	-8191	255	
14310.062	1	1	0	0	0.23293	0.14679	0.075943	0.20111	0.15213	0.029034	0.51016	0.33019	0.12344	0.14048	0.10285	0.21911	0.27761	0.16182	0.071962	0.29166	-1.7771	-2.0896	-2.5229	-2.425	-2.4437	-2.6583	-2.4833	-2.5521	-2.5021	-2.1354	-2.7604	-2.4646	-2.3125	-2.6479	-2.1042	-2.6354	64.301	89.416	206.292	138.989	-99.372	167.601	166.709	215.561	89.427	103.603	164.046	-89.949	201.929	144.702	110.090	164.738	0.00088109	0.00062014	0.00013713	1449.6	2.1246e-06	5.9922e-06	1446.8	384.22	6.9498e-06	5.02e-06	441.51	148.38	127.69	43.329	8.7845e-06	53.49	0.00069619	0.00068485	0.00018785	1471.7	7.4095e-06	7.2674e-06	1473	391.11	7.1748e-06	7.0294e-06	450.4	151.55	130.93	44.54	7.1048e-06	55.03	134.055	-15.532	-58.898	-120.218	67.831	-13.577	-120.233	-115.555	-61.648	16.246	-116.116	-112.281	-111.385	-106.606	34.731	-107.440	-8191	255	
14310.158	1	1	0	0	0.38558	0.17541	0.35118	0.41987	0.19523	0.13956	0.3603	0.033479	0.13481	0.14549	0.22858	0.070295	0.37783	0.22732	0.26283	0.16633	-1.8542	-2.2354	-2.5521	-2.3729	-2.3479	-2.5771	-2.4021	-2.6875	-2.4875	-2.1167	-2.8521	-2.5812	-2.5042	-2.525	-2.1312	-2.6708	66.509	-76.410	0.823	194.256	214.789	122.203	190.938	43.332	101.506	-62.567	142.442	219.427	200.385	139.394	-3.203	-125.510	0.00089014	0.00063562	0.00014968	1448.8	5.397e-06	9.4751e-06	1448	383.18	1.0823e-06	6.8944e-06	440.96	147.64	127.71	43.263	6.0226e-06	53.456	0.00065626	0.0006525	0.00018071	1471.9	7.1994e-06	7.3111e-06	1473.8	391.19	7.381e-06	7.3861e-06	450.28	151.59	131	44.476	7.3889e-06	54.991	128.939	-40.589	-59.249	-119.941	21.454	14.783	-120.207	-115.775	76.296	16.007	-115.880	-111.957	-111.547	-106.570	15.176	-107.311	-8191	255	
14310.254	1	1	0	0	0.23916	0.2251	0.02233	0.16403	0.1032	0.04944	0.27724	0.14028	0.21647	0.1826	0.16777	0.10242	0.52848	0.025802	0.041076	0.11109	-2.025	-2.1333	-2.4688	-2.6771	-2.25	-2.6854	-2.4167	-2.5979	-2.4708	-2.075	-2.7271	-2.3875	-2.4125	-2.7812	-2.2521	-2.6	145.629	104.264	-72.575	196.506	80.208	203.709	192.521	186.817	78.287	206.142	181.163	-100.009	-132.425	130.859	-13.217	-106.766	0.00078889	0.00075856	0.00025387	1450.9	1.8315e-06	2.4964e-06	1453.1	383.6	3.6948e-06	5.9477e-06	440.81	148.26	127.19	43.311	4.7384e-06	53.419	0.00068561	0.00066769	0.00018889	1473.1	7.3956e-06	7.3781e-06	1475.6	391.5	7.4384e-06	7.4047e-06	449.52	151.66	130.97	44.525	7.4074e-06	55.02	130.833	-66.874	-43.587	-120.230	-90.435	-9.541	-120.263	-115.615	2.029	67.625	-116.298	-112.106	-111.520	-106.636	-66.561	-107.154	-8191	255	
14310.351	1	1	0	0	0.19966	0.090658	0.029361	0.18334	0.19375	0.191	0.46192	0.27077	0.060148	0.14544	0.43022	0.1441	0.26453	0.11485	0.16294	0.2044	-2.1562	-2.025	-2.4792	-2.6937	-2.1021	-2.525	-2.4562	-2.6688	-2.5812	-2.2854	-2.625	-2.7188	-2.2396	-2.9958	-2.4354	-2.4042	-106.302	-51.102	195.427	222.175	96.436	71.131	161.763	156.387	-132.695	167.509	165.749	-102.631	-130.016	104.292	171.852	163.300	0.00064735	0.00062939	9.5023e-05	1454	4.999e-06	7.5347e-06	1449.8	381.98	6.6494e-06	1.0707e-05	440.47	147.89	127.55	43.256	1.714e-06	53.342	0.00067619	0.00067456	0.00019002	1474.2	7.3774e-06	7.2763e-06	1477.3	390.71	7.4267e-06	7.3762e-06	450.42	151.49	130.87	44.542	7.5056e-06	54.981	134.523	-80.639	-24.999	-120.082	36.126	18.668	-120.204	-115.587	-50.808	0.829	-115.927	-111.927	-111.454	-106.425	-14.936	-107.202	-8191	255	
14310.447	1	1	0	0	0.23174	0.062195	0.21137	0.38613	0.26378	0.11432	0.11593	0.39366	0.16036	0.072802	0.25881	0.32852	0.45285	0.070911	0.14681	0.31878	-2.1771	-2.1146	-2.5104	-2.8312	-2.4396	-2.8229	-2.5771	-2.3812	-2.5729	-2.3146	-2.6708	-2.5062	-2.3312	-2.5146	-2.5062	-2.3646	20.697	-22.218	-65.352	187.863	1.362	12.067	-80.628	157.749	-61.280	-5.914	150.763	186.493	194.523	-20.212	74.438	157.183	0.00086538	0.00038133	0.00022834	1454	5.6737e-06	3.0321e-06	1450.4	385.1	5.7361e-06	6.2204e-06	437.9	147.95	128.79	43.446	5.6817e-06	53.326	0.00068011	0.00068793	0.00019165	1475.1	7.4646e-06	7.525e-06	1476.9	391.98	7.4692e-06	7.4605e-06	449.62	151.72	131.53	44.571	7.5495e-06	55.069	123.929	-101.224	-36.036	-120.245	-31.424	0.855	-120.384	-115.748	15.823	-48.244	-116.257	-112.174	-111.454	-106.496	22.666	-107.210	-8191	255	
14310.543	1	1	0	0	0.088648	0.090915	0.14714	0.095828	0.27832	0.061129	0.21019	0.29783	0.21115	0.1196	0.1665	0.2721	0.059641	0.042784	0.060068	0.21954	-2.2333	-2.2229	-2.4271	-2.5542	-2.2687	-2.5792	-2.5938	-2.5187	-2.5292	-2.275	-2.5729	-2.6562	-2.2146	-2.7458	-2.4854	-2.3521	3.107	116.528	-32.264	-128.362	-112.323	117.942	163.427	222.186	-38.588	-128.401	163.579	185.647	-131.296	145.683	119.339	157.529	0.0009116	0.0007553	0.00013653	1454.7	6.4782e-06	8.7701e-06	1457	384.59	5.2091e-06	7.7603e-06	441.63	147.78	128	43.301	5.8593e-06	53.134	0.00069103	0.00068921	0.00019417	1478.1	7.5878e-06	7.7036e-06	1480.5	391.76	7.6498e-06	7.6275e-06	451.34	151.71	131.16	44.508	7.6324e-06	54.979	123.293	-109.444	-64.276	-120.212	-46.366	14.096	-120.456	-115.731	-38.957	-19.543	-115.755	-112.397	-111.250	-106.560	31.325	-107.250	-8191	255	
14310.637	1	1	0	0	0.23677	0.16207	0.25647	0.24251	0.28579	0.14152	0.27092	0.26334	0.18135	0.095029	0.17311	0.16479	0.061886	0.32282	0.095194	0.33714	-2.2146	-2.1604	-2.2396	-2.6833	-2.1646	-2.5938	-2.6188	-2.4021	-2.5292	-2.2479	-2.3917	-2.6479	-2.2771	-2.5333	-2.4146	-2.2479	156.692	110.635	-72.854	156.626	23.515	202.282	113.967	206.697	-1.710	204.850	212.256	206.825	80.095	181.415	211.131	193.095	0.00071743	0.00088624	0.00015203	1459.3	6.186e-06	8.6416e-06	1452.6	383.53	8.857e-06	2.9408e-06	440.66	147.61	127.36	43.311	1.0902e-05	53.228	0.00068082	0.00068895	0.00019331	1478.7	7.3777e-06	7.5689e-06	1478.9	391.98	7.3985e-06	7.4061e-06	450.69	151.32	130.97	44.508	7.6055e-06	55.03	134.550	-55.309	-40.232	-120.166	-40.655	32.588	-120.327	-115.728	-15.259	14.539	-116.184	-112.131	-111.625	-106.850	1.224	-107.234	-8191	255	
14310.735	1	1	0	0	0.11484	0.043469	0.22764	0.20693	0.25868	0.10165	0.29649	0.20908	0.21846	0.072848	0.37108	0.13414	0.27426	0.29352	0.24195	0.23257	-2.1146	-2.1937	-2.1729	-2.6792	-2.1375	-2.3875	-2.7562	-2.2479	-2.55	-2.5812	-2.4271	-2.7729	-2.2375	-2.6604	-2.4208	-2.1271	9.130	142.375	72.038	191.895	-108.705	13.624	186.695	180.244	65.772	153.796	172.123	198.698	179.300	-85.764	188.659	195.743	0.00073933	0.00044695	0.00013022	1458.2	5.8709e-06	2.0315e-06	1452.7	383.63	4.1775e-06	5.2363e-06	441.22	147.65	127.89	43.38	5.5154e-06	53.632	0.00068411	0.00068989	0.00019377	1477	7.4972e-06	7.4926e-06	1476.4	391.33	7.3576e-06	7.4139e-06	450.46	151.5	131.13	44.526	7.2915e-06	55.146	124.121	-23.548	-30.527	-120.020	-19.382	-12.731	-120.380	-115.687	-54.422	29.421	-116.274	-112.192	-111.514	-106.651	-35.561	-107.348	-8191	255	
14310.854	1	1	0	0	0.094672	0.12994	0.20608	0.25051	0.21477	0.14553	0.27788	0.37206	0.1264	0.050259	0.025605	0.13078	0.25121	0.36489	0.33896	0.05318	-2.2417	-2.3354	-2.25	-3.0333	-2.1417	-2.4667	-2.7729	-2.3021	-2.5833	-2.5708	-2.3125	-2.9292	-2.4479	-2.5833	-2.5312	-2.3854	-130.929	-79.227	-0.570	215.869	166.052	-39.879	193.752	175.550	-61.258	174.290	-122.869	208.321	-110.956	185.319	-49.598	51.427	0.00077427	0.00062523	0.00024831	1454.9	7.4598e-06	5.3699e-06	1451.2	384.58	5.9713e-06	4.6019e-06	440.16	147.63	128.19	43.234	3.678e-06	53.438	0.00066625	0.00066765	0.00018479	1474	7.2983e-06	7.3605e-06	1475.5	391.76	7.2572e-06	7.2123e-06	449.52	151.49	131.25	44.445	7.1921e-06	55.097	124.788	-16.361	4.675	-120.155	-10.985	4.161	-120.437	-115.714	-29.591	-36.301	-115.913	-112.062	-111.627	-106.616	22.254	-107.138	-8191	255	
14310.950	1	1	0	0	0.14071	0.16813	0.15159	0.34734	0.11544	0.17444	0.28712	0.2048	0.2325	0.19261	0.203	0.04965	0.29905	0.25664	0.11961	0.39116	-2.2146	-2.4875	-2.1917	-2.9667	-2.2875	-2.3688	-2.6833	-2.3458	-2.5021	-2.5187	-2.4333	-2.6854	-2.6167	-2.4313	-2.6583	-2.3771	179.317	119.811	26.443	213.047	27.054	205.692	-97.375	113.744	-96.781	214.768	142.894	216.579	192.609	220.974	15.986	144.807	0.00071331	0.00039529	6.642e-05	1453.8	5.273e-06	6.7022e-06	1451.1	383.99	4.8663e-06	8.9877e-06	440.44	148.09	127.98	43.203	6.7999e-06	53.45	0.00066892	0.00067159	0.00018485	1474.7	7.3996e-06	7.5168e-06	1477.2	391.16	7.4086e-06	7.3892e-06	450.58	151.78	131.09	44.49	7.4242e-06	55.042	128.158	-54.811	-59.001	-120.033	45.842	22.649	-120.202	-115.515	-34.853	-6.713	-115.941	-112.230	-111.196	-106.397	6.400	-107.206	-8191	255	
14311.046	1	1	0	0	0.17492	0.21213	0.22001	0.08708	0.23591	0.32577	0.24519	0.44946	0.28541	0.13651	0.2184	0.13247	0.31262	0.40192	0.1152	0.18524	-2.1521	-2.5812	-2.2354	-2.8854	-2.3375	-2.4688	-2.9625	-2.4229	-2.6208	-2.6437	-2.2625	-2.7042	-2.4354	-2.3646	-2.6583	-2.3271	-26.543	92.402	31.649	-69.477	58.287	-8.879	204.744	137.132	112.684	212.191	174.886	-73.157	-92.190	135.512	-87.483	175.778	0.00067013	0.0004273	0.00016408	1459.3	5.2717e-06	9.3168e-06	1448.6	384.25	5.0012e-06	2.4664e-06	440.87	147.89	127.85	43.082	3.8546e-06	52.994	0.0006965	0.00069872	0.00019347	1478.2	7.7223e-06	7.7565e-06	1476.8	391.92	7.8019e-06	7.7848e-06	450.64	151.47	130.99	44.452	7.9086e-06	54.858	141.231	-18.879	-58.184	-120.142	14.139	52.739	-120.186	-115.740	-52.739	2.268	-116.098	-112.085	-111.410	-106.783	20.909	-107.347	-8191	255	
14311.143	1	1	0	0	0.13701	0.25649	0.0626	0.25107	0.084852	0.11743	0.39769	0.11893	0.2037	0.20149	0.096442	0.17471	0.13396	0.26192	0.2242	0.38069	-1.8646	-2.4375	-2.2042	-2.8542	-2.3542	-2.3521	-2.9604	-2.2354	-2.3063	-2.5708	-2.1708	-2.4792	-2.4938	-2.5187	-2.5479	-2.2979	75.362	-131.411	-111.847	142.036	35.546	72.133	205.694	179.969	3.978	72.268	-37.475	-110.781	137.858	201.258	13.833	162.837	0.00068536	0.00079055	4.1335e-05	1453.1	2.6314e-06	4.478e-06	1452.6	384.37	2.9422e-06	8.5392e-07	439.39	147.61	127.31	42.926	6.8602e-06	53.285	0.00074227	0.00074542	0.00020326	1478.1	8.1272e-06	8.2751e-06	1481.7	391.57	8.2012e-06	8.0946e-06	450.35	150.96	130.88	44.291	7.8453e-06	55.026	125.186	-57.701	1.804	-120.239	-16.342	-61.839	-120.514	-115.927	-31.746	-9.878	-115.893	-111.752	-111.633	-106.455	-15.012	-107.360	-8191	255	
14311.239	1	1	0	0	0.14353	0.12612	0.077932	0.26504	0.13652	0.37041	0.029397	0.49755	0.12577	0.11168	0.052124	0.070581	0.18191	0.037236	0.09848	0.1613	-2.0542	-2.5271	-2.2354	-2.7771	-2.5479	-2.1125	-2.9333	-2.5146	-2.2104	-2.6083	-2.4271	-2.6167	-2.5563	-2.3542	-2.6583	-2.5083	190.587	-19.366	182.583	163.682	211.903	148.385	-68.399	170.734	184.245	-111.032	-2.595	-114.015	173.223	-26.084	50.362	192.342	0.00078895	0.00054975	0.00023155	1459.5	5.4769e-06	4.385e-06	1456.5	384.12	5.3957e-06	4.6842e-06	441.43	147.09	127.41	43.2	4.1134e-06	53.171	0.00070603	0.00070875	0.00019604	1479.3	7.6186e-06	7.7057e-06	1480.2	391.65	7.7641e-06	7.6959e-06	450.5	151.05	130.67	44.372	7.8379e-06	54.863	142.526	-18.777	-47.772	-120.178	-75.854	-22.707	-120.167	-115.587	-36.690	-65.169	-115.799	-112.073	-111.633	-106.456	1.055	-107.120	-8191	255	
14311.335	1	1	0	0	0.24596	0.15092	0.25056	0.22346	0.28053	0.23106	0.30402	0.10517	0.23129	0.075735	0.41761	0.14711	0.39967	0.5564	0.21365	0.17786	-1.8271	-2.5396	-2.1896	-2.6937	-2.4521	-2.1958	-2.9375	-2.4813	-2.2271	-2.5729	-2.3396	-2.4562	-2.4958	-2.3208	-2.4458	-2.4708	158.042	-25.367	108.535	126.377	140.020	184.858	208.515	-120.331	-16.522	46.540	186.609	79.733	179.235	183.601	111.582	-108.649	0.00076809	0.00057225	0.00012975	1460.5	2.0075e-06	2.6156e-06	1455.1	384.81	3.6414e-06	7.3786e-06	442.97	147.67	127.6	42.981	1.1998e-05	52.991	0.00072218	0.00072131	0.0002017	1480.4	7.8272e-06	7.7404e-06	1479.3	391.96	7.6303e-06	7.6422e-06	451.51	151.31	130.87	44.311	7.6693e-06	54.749	129.795	-13.979	4.834	-120.215	-85.033	35.917	-120.155	-115.898	-10.465	30.955	-116.081	-112.246	-111.573	-106.796	18.861	-107.383	-8191	255	
14311.455	1	1	0	0	0.26855	0.15284	0.25983	0.22691	0.17032	0.10121	0.21923	0.09964	0.035354	0.21979	0.25915	0.36976	0.26431	0.12207	0.1795	0.23319	-1.7062	-2.65	-2.0396	-2.5521	-2.6896	-2.1896	-2.7438	-2.5979	-2.1625	-2.6167	-2.5	-2.3354	-2.8583	-2.1146	-2.5125	-2.7146	80.596	160.955	106.898	191.741	99.015	-105.883	181.151	95.840	-84.208	1.870	160.223	207.730	-124.846	206.004	128.338	182.635	0.00076155	0.00068136	0.00013674	1457.8	7.7296e-07	8.3966e-06	1453.5	383.86	8.0611e-06	8.2494e-06	440.23	148.27	127.97	43.151	6.091e-06	53.056	0.00070095	0.0006909	0.00019504	1478.4	7.5783e-06	7.5783e-06	1478	391.31	7.5624e-06	7.6383e-06	450.4	151.57	131.03	44.377	7.6018e-06	54.861	138.150	-37.308	-47.035	-120.162	49.600	-7.840	-120.222	-115.637	-14.118	-7.775	-116.028	-112.133	-111.426	-106.799	-2.233	-106.928	-8191	255	
14311.550	1	1	0	0	0.25326	0.069524	0.2345	0.31179	0.21281	0.085585	0.2389	0.26769	0.17942	0.25134	0.34781	0.15337	0.18786	0.41999	0.10625	0.20251	-1.7875	-2.6229	-2.15	-2.3896	-2.6958	-2.1979	-2.725	-2.7167	-2.4042	-2.4479	-2.5208	-2.475	-2.7958	-2.325	-2.3771	-2.6312	53.401	75.247	-98.393	206.764	71.096	21.682	113.361	182.327	99.898	-100.596	207.465	216.863	172.181	162.833	99.733	185.683	0.00085001	0.00039292	0.00013	1459.3	4.3346e-06	1.0942e-05	1454.2	383.09	5.1934e-06	8.4171e-06	442.48	148.5	127.38	43.192	3.6844e-06	53.233	0.00068019	0.00069657	0.00019463	1478.1	7.4359e-06	7.5477e-06	1478.7	391.58	7.4901e-06	7.5391e-06	451.54	151.66	131.11	44.463	7.5281e-06	55.036	135.694	-13.607	-37.609	-119.982	-47.176	11.044	-120.190	-115.785	-30.170	13.979	-115.909	-112.215	-111.154	-106.576	37.596	-107.242	-8191	255	
14311.646	1	1	0	0	0.0759	0.050179	0.15358	0.3707	0.13497	0.023609	0.32114	0.38887	0.11105	0.13554	0.29162	0.11637	0.15485	0.16885	0.29963	0.10549	-1.7917	-2.5938	-2.2708	-2.5062	-2.7729	-2.1437	-2.5271	-2.6521	-2.0646	-2.6771	-2.6396	-2.3958	-2.8688	-2.4396	-2.2562	-2.7667	66.773	159.091	-108.336	189.443	-70.036	-45.698	173.575	141.097	8.368	158.167	203.633	183.811	208.043	-45.586	62.548	84.309	0.00094541	0.00059216	0.00012303	1457.4	5.0576e-06	4.1037e-06	1453.2	385.66	7.3704e-06	5.1559e-06	441.6	148.76	128.03	43.443	5.4794e-06	53.125	0.00068945	0.00069382	0.00019307	1478.8	7.4196e-06	7.5887e-06	1480.3	392.7	7.569e-06	7.5581e-06	450.82	151.79	131.06	44.524	7.4503e-06	54.937	126.694	-58.033	-63.585	-120.110	-7.509	-52.698	-120.277	-115.833	-49.483	-18.382	-116.052	-112.426	-111.409	-106.381	-36.339	-107.455	-8191	255	
14311.719	1	1	0	0	0.14258	0.11733	0.26509	0.25475	0.22871	0.23015	0.34246	0.30413	0.26282	0.21575	0.20339	0.20645	0.27348	0.025135	0.013765	0.12429	-1.65	-2.3958	-2.2667	-2.4229	-2.5875	-2.2833	-2.5646	-2.7083	-2.2375	-2.4458	-2.4917	-2.1958	-2.675	-2.4104	-2.1375	-2.7771	-47.893	223.430	-64.979	147.240	73.958	76.079	174.016	199.106	25.329	218.053	220.108	158.137	178.971	55.584	-91.316	117.101	0.00088035	0.00029269	0.00012855	1453.5	4.0856e-06	5.8462e-06	1449.9	384.22	3.9881e-07	4.9682e-06	440.5	148.04	127.69	43.004	5.8791e-06	52.972	0.00068083	0.00068685	0.00019055	1478.2	7.5696e-06	7.581e-06	1477.6	392.31	7.5725e-06	7.6842e-06	450.97	151.64	131.03	44.446	7.6751e-06	54.865	130.284	12.712	-39.558	-120.253	-5.472	20.235	-120.348	-115.837	-30.639	18.562	-116.164	-111.921	-111.561	-106.644	5.009	-107.489	-8191	255	
14311.838	1	1	0	0	0.040427	0.045397	0.26455	0.26745	0.22804	0.22202	0.40685	0.075628	0.11858	0.30637	0.016614	0.31059	0.43832	0.11771	0.17911	0.19316	-1.5375	-2.3	-2.4646	-2.4188	-2.4792	-2.3958	-2.5979	-2.7354	-2.0479	-2.3583	-2.6354	-2.1146	-2.5021	-2.3458	-2.4854	-2.7271	-34.183	121.962	0.587	216.720	-26.943	138.395	183.461	181.520	-1.411	134.624	210.044	-115.769	171.628	68.431	199.734	128.765	0.00084877	0.00089839	0.00015641	1452.1	3.7946e-06	7.5887e-06	1462.4	385.72	5.8698e-06	6.8477e-06	443.71	147.85	128.23	43.491	3.5404e-06	53.357	0.00069796	0.00071023	0.00019336	1475.8	7.5104e-06	7.5145e-06	1482.4	392.27	7.3261e-06	7.3803e-06	452	151.86	131.33	44.597	7.3383e-06	55.056	132.743	-56.024	-98.794	-120.147	-15.466	6.744	-120.352	-115.856	-35.547	5.733	-116.180	-112.104	-111.377	-106.371	75.391	-107.364	-8191	255	
14311.934	1	1	0	0	0.045942	0.19465	0.26895	0.21838	0.15373	0.026834	0.37411	0.22554	0.05475	0.081199	0.1004	0.22586	0.21271	0.17135	0.093185	0.36484	-1.7646	-2.2812	-2.5604	-2.3875	-2.5833	-2.3583	-2.3875	-2.8187	-2.1667	-2.3771	-2.6937	-2.1458	-2.8521	-2.5458	-2.0542	-2.7271	81.782	122.419	208.935	-128.365	145.571	124.361	140.016	165.448	32.751	-65.134	165.232	155.402	155.707	183.695	30.942	184.957	0.00081775	0.00040497	0.00021876	1458.6	5.8272e-07	5.0499e-06	1463.5	385.68	6.691e-06	6.4364e-06	442.54	148.23	127.3	43.359	6.2436e-06	53.353	0.00067952	0.00069055	0.00019154	1480.3	7.5126e-06	7.4873e-06	1482.6	393.5	7.5126e-06	7.623e-06	451.13	151.53	130.95	44.551	7.4951e-06	55.07	117.244	-48.805	-59.054	-120.061	26.515	-50.639	-120.204	-115.681	-28.335	42.961	-116.068	-112.135	-111.428	-106.844	44.386	-107.399	-8191	255	
14312.031	1	1	0	0	0.11283	0.027694	0.060257	0.34034	0.39812	0.14978	0.42371	0.20242	0.19852	0.17608	0.16902	0.22864	0.30678	0.28042	0.074806	0.3626	-1.9479	-2.3125	-2.6458	-2.5458	-2.6479	-2.6417	-2.3854	-2.5938	-2.2542	-2.4333	-2.8021	-2.3333	-2.5604	-2.4875	-2.1229	-2.6792	-70.689	55.169	-73.113	153.859	-109.472	167.230	177.551	166.226	171.095	150.459	111.183	96.362	217.142	117.695	125.060	195.533	0.00073142	0.00029842	5.4511e-05	1462.9	5.3513e-06	4.1567e-06	1455.6	384.38	7.5637e-06	7.6767e-06	441.64	147.57	128.21	43.27	7.2769e-06	53.193	0.0006843	0.00068508	0.0001881	1482.8	7.4314e-06	7.3989e-06	1481.7	392.85	7.3479e-06	7.4341e-06	451.58	151.63	131.43	44.471	7.2728e-06	55.022	132.628	-65.804	-31.263	-120.120	-29.788	54.173	-120.216	-115.829	-6.708	3.385	-116.289	-112.264	-111.697	-106.691	-3.147	-107.363	-8191	255	
14312.127	1	1	0	0	0.2354	0.1152	0.29782	0.11598	0.29229	0.18555	0.099944	0.23424	0.081284	0.057787	0.4294	0.11686	0.048221	0.1969	0.07822	0.16264	-1.775	-2.0896	-2.6833	-2.4604	-2.3771	-2.4625	-2.3604	-2.8729	-2.65	-2.325	-2.875	-2.4062	-2.4479	-2.6729	-2.1312	-2.5312	93.152	11.336	-131.034	-117.602	88.242	47.252	159.672	43.840	-29.479	2.103	186.368	-117.219	-37.422	-90.185	-56.846	115.722	0.00077299	0.00055982	0.00020044	1458.5	9.1595e-06	7.2046e-06	1451.6	385.45	6.2501e-06	4.5051e-06	441.05	147.87	128.08	43.178	5.7356e-06	53.582	0.00066559	0.00067281	0.00018279	1479.8	7.2515e-06	7.1997e-06	1479.2	392.67	7.2948e-06	7.2986e-06	451.36	151.77	131.39	44.535	7.3721e-06	55.189	129.449	-49.173	-74.839	-120.109	-12.696	8.557	-120.359	-115.526	-58.896	19.665	-116.041	-112.001	-111.450	-106.612	29.817	-107.556	-8191	255	
14312.247	1	1	0	0	0.15449	0.040501	0.10975	0.5115	0.10223	0.21127	0.21969	0.31024	0.10263	0.12857	0.12444	0.32372	0.068166	0.18956	0.20281	0.038953	-2.0271	-2.0583	-2.7625	-2.5979	-2.3312	-2.6958	-2.4271	-2.7125	-2.3708	-2.4479	-2.7833	-2.4021	-2.2812	-2.6896	-1.9604	-2.6708	-15.488	97.686	-10.983	206.611	207.453	-34.435	101.544	206.450	172.060	38.042	114.789	186.296	-12.052	194.608	-64.556	181.568	0.00084663	0.00054544	9.2706e-05	1458.2	5.9878e-06	6.6298e-06	1456.8	385.71	4.8447e-06	8.4884e-06	443.02	148.02	128.3	43.346	7.3618e-06	53.439	0.0006714	0.00066295	0.00018479	1480.3	7.3308e-06	7.3245e-06	1482.2	393.23	7.3943e-06	7.2366e-06	452.38	151.78	131.28	44.571	7.3881e-06	55.084	127.312	-40.199	-24.099	-120.012	-51.752	7.905	-120.291	-115.776	-5.235	38.567	-115.847	-112.135	-111.351	-106.386	2.304	-107.235	-8191	255	
14312.319	1	1	0	0	0.093657	0.18663	0.26655	0.14883	0.10658	0.11844	0.039199	0.36858	0.15853	0.30044	0.31375	0.2696	0.26513	0.18619	0.065561	0.13477	-2.0167	-2.1021	-2.775	-2.65	-2.3187	-2.6125	-2.3708	-2.6083	-2.3958	-2.1542	-2.7333	-2.7375	-2.5208	-2.7917	-2.2083	-2.7229	149.196	51.902	163.217	159.724	10.009	132.186	-65.695	157.413	-87.336	-11.708	-98.731	200.447	211.620	-122.038	-1.591	179.539	0.00084227	0.00066009	0.00018326	1461.1	6.6359e-06	3.7578e-06	1457.7	384.05	8.883e-06	1.1694e-05	442.2	148.63	128.31	43.305	7.3172e-06	53.398	0.00067224	0.00066658	0.00018756	1480.2	7.2863e-06	7.2946e-06	1483.3	392.64	7.3163e-06	7.2814e-06	451.54	152	131.52	44.583	7.4204e-06	55.11	130.230	-55.614	-33.584	-120.179	-11.668	-16.537	-120.361	-115.691	-41.897	31.784	-115.608	-112.197	-111.447	-106.551	0.543	-107.229	-8191	255	
14312.415	1	1	0	0	0.086525	0.25545	0.14586	0.22356	0.085576	0.20904	0.24373	0.24003	0.18999	0.25003	0.39217	0.32022	0.29527	0.20432	0.040478	0.10298	-2.1229	-2.0458	-2.6417	-2.5604	-2.3	-2.6021	-2.5458	-2.5625	-2.3417	-2.1958	-2.7208	-2.3438	-2.275	-2.8875	-2.3	-2.45	-25.711	-30.461	-97.669	172.347	-63.749	149.863	120.703	181.802	147.672	104.623	185.669	182.642	187.986	148.339	-117.272	-88.091	0.00083007	0.00026993	9.8131e-05	1462.3	4.602e-06	6.774e-06	1460	384.96	7.0072e-07	1.2822e-05	443.44	148.6	128.84	43.246	3.9254e-06	53.639	0.00066718	0.00067179	0.00018568	1481.5	7.274e-06	7.297e-06	1482.1	393.39	7.2309e-06	7.2547e-06	451.99	151.99	131.56	44.533	7.3299e-06	55.183	135.212	-26.605	-78.825	-120.195	-40.643	-14.292	-120.272	-115.465	47.648	-4.065	-116.071	-112.000	-111.502	-106.425	-29.407	-107.211	-8191	255	
14312.536	1	1	0	0	0.16356	0.25353	0.19784	0.19706	0.25341	0.16053	0.24428	0.19087	0.032941	0.13625	0.083552	0.098654	0.03299	0.27121	0.13982	0.26194	-2.1021	-1.9208	-2.5438	-2.6917	-2.1792	-2.5833	-2.3958	-2.2583	-2.3708	-2.1479	-2.6125	-2.4229	-2.4208	-2.8667	-2.3312	-2.5396	144.647	22.638	40.331	147.574	-96.223	46.451	137.209	193.661	26.241	144.600	143.320	136.613	127.569	221.170	27.031	216.196	0.00084169	0.00082116	0.00024515	1457.7	2.6904e-06	5.4192e-06	1457.8	385.75	5.7661e-06	5.1093e-06	443.06	149.22	128.28	43.238	6.3097e-06	53.567	0.00067207	0.00066269	0.00018435	1480.7	7.2474e-06	7.3321e-06	1483.4	393.21	7.3813e-06	7.1909e-06	452.2	152.29	131.55	44.586	7.4223e-06	55.201	130.363	-29.467	-33.887	-120.257	23.488	39.717	-120.304	-115.833	-102.655	52.134	-116.292	-111.910	-111.266	-106.666	76.332	-107.172	-8191	255	
14312.630	1	1	0	0	0.22829	0.065545	0.14184	0.34727	0.17542	0.37485	0.5189	0.33559	0.22602	0.23579	0.20261	0.25101	0.25947	0.27166	0.080171	0.31283	-2.0312	-2.1521	-2.5854	-2.6396	-2.125	-2.7562	-2.5458	-2.5125	-2.5625	-2.1292	-2.6604	-2.7104	-2.3833	-2.65	-2.2958	-2.3375	185.654	-3.100	-85.444	144.663	-91.308	-20.438	158.408	204.588	20.562	126.568	-85.532	201.282	119.297	211.303	-88.764	112.974	0.00077861	0.0005323	0.00021052	1462.1	5.8948e-06	5.7389e-06	1468	386.32	8.2333e-06	4.7077e-06	443.14	148.81	128.32	43.48	6.0296e-06	53.774	0.000673	0.00068087	0.00019092	1484.3	7.4687e-06	7.479e-06	1487.4	393.94	7.3359e-06	7.3932e-06	452.59	152.24	131.65	44.694	7.2416e-06	55.33	135.217	-34.027	-62.154	-120.101	11.320	38.574	-120.362	-115.867	-17.551	35.901	-115.952	-112.065	-111.342	-106.620	7.553	-107.361	-8191	255	
14312.726	1	1	0	0	0.12382	0.18406	0.11792	0.20623	0.19832	0.28454	0.11898	0.19207	0.23615	0.19039	0.082746	0.038372	0.25931	0.36532	0.28037	0.14373	-2.1292	-2.1792	-2.3438	-2.7333	-2.1542	-2.5854	-2.5583	-2.4437	-2.7521	-2.2771	-2.6917	-2.5458	-2.1625	-2.6146	-2.3458	-2.45	60.406	-34.903	67.927	186.771	-101.343	-103.953	197.235	-128.243	92.495	20.156	8.201	121.677	203.168	193.715	148.626	93.318	0.00079974	0.00056846	0.00018662	1467.6	1.4989e-06	6.9147e-06	1462.6	387.1	4.801e-06	6.7778e-06	441.74	148.78	128.49	43.657	6.8468e-06	53.739	0.00065462	0.00066575	0.0001851	1484.5	7.1491e-06	7.1262e-06	1487	393.94	7.1655e-06	7.2867e-06	452.38	152.46	131.88	44.81	7.285e-06	55.36	136.232	-18.147	-82.398	-120.175	58.811	55.704	-120.647	-115.716	-55.068	9.105	-116.043	-112.269	-111.461	-106.493	-13.310	-107.300	-8191	255	
14312.847	1	1	0	0	0.070182	0.11861	0.11007	0.56431	0.26043	0.21844	0.092761	0.0058077	0.053014	0.22101	0.18544	0.06876	0.2903	0.19324	0.28173	0.15855	-2.1021	-2.3354	-2.3833	-2.7667	-2.2167	-2.6292	-2.5833	-2.175	-2.7104	-2.2583	-2.625	-2.6625	-2.4104	-2.8	-2.6542	-2.3604	167.985	-30.743	216.302	211.043	-132.461	199.829	182.162	140.404	54.203	-16.902	217.469	-92.541	208.907	186.906	86.595	145.977	0.00086064	0.00056881	0.00023652	1468.5	6.6157e-06	6.0008e-06	1462	386.8	7.0783e-06	9.0102e-06	441.95	149.42	127.94	43.491	6.1135e-06	53.711	0.00067196	0.00066649	0.00018462	1485.8	7.4157e-06	7.3597e-06	1486.4	394.03	7.1687e-06	7.274e-06	451.3	152.63	131.63	44.735	7.3705e-06	55.397	137.893	-27.051	-71.137	-120.178	13.596	55.604	-120.461	-115.706	-56.480	-2.973	-116.097	-112.006	-111.437	-106.787	30.255	-107.200	-8191	255	
14312.919	1	1	0	0	0.14626	0.037242	0.057984	0.20758	0.035202	0.19743	0.20186	0.26811	0.10531	0.16281	0.22684	0.16784	0.44849	0.1418	0.11427	0.16367	-2.1688	-2.4271	-2.4375	-2.8896	-2.3396	-2.4688	-2.6604	-2.5396	-2.7604	-2.5312	-2.5708	-2.8458	-2.4792	-2.6875	-2.5271	-2.5271	168.152	108.203	-28.305	224.517	133.615	5.226	195.658	154.603	-67.625	-131.696	125.243	187.418	203.421	14.939	-64.376	71.491	0.00074116	0.00067256	0.00012216	1459.6	6.3515e-06	1.9156e-06	1462.2	386.61	3.5083e-06	7.0101e-06	442.85	149.15	129.28	43.647	7.4774e-06	53.598	0.00066433	0.00066449	0.00018667	1483.8	7.1837e-06	7.3665e-06	1486	393.79	7.2182e-06	7.2869e-06	453.19	152.61	132.16	44.774	7.2188e-06	55.417	126.650	-61.230	-62.225	-120.164	18.024	-46.514	-120.351	-115.677	44.549	-5.205	-116.208	-112.146	-111.391	-106.626	45.870	-107.108	-8191	255	
14313.015	1	1	0	0	0.083109	0.072944	0.11877	0.30977	0.22119	0.13092	0.3733	0.34288	0.058568	0.22627	0.18695	0.31106	0.12264	0.24598	0.091285	0.24927	-2.1583	-2.4625	-2.2708	-2.8812	-2.3354	-2.5062	-2.9208	-2.4917	-2.6354	-2.525	-2.2625	-2.7875	-2.3958	-2.5854	-2.6292	-2.3667	-48.002	72.226	-121.659	-132.298	55.329	203.163	215.889	178.505	-31.547	166.111	-112.564	162.889	-118.923	122.759	223.924	111.871	0.00078869	0.00045311	0.00012418	1471.4	3.3439e-06	9.9012e-06	1464.5	387.36	4.1059e-06	4.723e-06	442.91	148.55	128.59	43.636	7.7628e-06	53.675	0.00066438	0.00066089	0.00018506	1487.8	7.3237e-06	7.3739e-06	1488.7	394.38	7.3057e-06	7.192e-06	452.99	152.33	131.93	44.804	7.3201e-06	55.356	126.063	-61.399	-75.541	-120.178	9.068	21.684	-120.103	-115.809	-74.028	52.565	-116.194	-112.157	-111.655	-106.551	-34.781	-107.388	-8191	255	
14313.135	1	1	0	0	0.18764	0.26072	0.19821	0.17233	0.10252	0.056999	0.28134	0.17722	0.054223	0.17541	0.20524	0.27514	0.11121	0.12381	0.22335	0.26814	-1.9833	-2.4729	-2.25	-2.8646	-2.2646	-2.3667	-2.8729	-2.3708	-2.4458	-2.3958	-2.3438	-2.8229	-2.4875	-2.4979	-2.8417	-2.4792	87.154	-114.765	3.799	214.522	193.389	108.660	-109.398	185.453	34.152	171.873	151.148	192.398	218.718	89.203	-124.932	167.384	0.00086372	0.0002161	0.00016574	1467.3	3.6899e-06	5.7781e-06	1462.3	386.54	5.8936e-06	5.8284e-06	444.92	149.52	129	43.704	2.6551e-06	53.849	0.0006741	0.00067048	0.00018589	1487	7.1689e-06	7.2196e-06	1487.4	394.21	7.0937e-06	7.0236e-06	453.18	152.83	132.2	44.875	7.0729e-06	55.498	123.925	-11.592	9.460	-120.047	-32.808	63.972	-120.203	-115.911	-52.749	21.271	-116.175	-112.175	-111.287	-106.841	12.616	-107.505	-8191	255	
14313.232	1	1	0	0	0.14586	0.11425	0.13733	0.14801	0.12685	0.40445	0.060968	0.30329	0.048365	0.13108	0.09371	0.29317	0.10674	0.088082	0.22686	0.027089	-2.0292	-2.425	-2.1583	-2.9562	-2.5062	-2.3646	-3.0938	-2.3521	-2.5375	-2.6958	-2.4333	-2.85	-2.5	-2.3583	-2.6458	-2.5021	-117.016	96.222	-120.608	205.968	-27.861	16.536	100.052	106.624	-34.291	131.793	206.266	-114.757	214.471	-121.474	120.073	193.838	0.00066776	0.00058263	4.7549e-05	1466.1	3.9031e-06	4.0694e-06	1469.8	386.84	2.3959e-06	5.134e-06	444.57	148.74	129.03	43.395	2.2016e-06	53.519	0.00065571	0.00064826	0.00017788	1484.7	7.1233e-06	7.0629e-06	1487	394.23	7.0183e-06	7.0004e-06	453.13	152.57	132.24	44.754	7.1251e-06	55.436	130.037	-44.758	55.092	-119.968	22.584	24.677	-120.383	-115.826	-48.568	37.098	-116.363	-112.256	-111.339	-106.818	-90.810	-107.043	-8191	255	
14313.328	1	1	0	0	0.16907	0.11825	0.29813	0.39785	0.22568	0.12019	0.28663	0.21048	0.17951	0.039305	0.075262	0.21371	0.25672	0.24375	0.12578	0.13465	-2.0917	-2.4125	-2.1229	-2.7417	-2.5417	-2.1813	-2.8438	-2.5604	-2.1708	-2.6208	-2.4917	-2.6042	-2.6562	-2.3458	-2.625	-2.4604	208.144	-69.327	219.590	180.774	220.432	119.973	158.101	187.262	67.787	60.019	-53.596	173.088	216.920	96.136	-33.205	99.343	0.00096628	0.0006436	0.00010416	1468	4.0269e-06	8.6744e-06	1467.8	387.64	6.0805e-06	5.5872e-06	444.18	149.51	129.46	43.594	5.4641e-06	53.94	0.00066289	0.00065591	0.00018397	1488.8	7.1915e-06	7.2828e-06	1488.9	394.59	7.0469e-06	7.093e-06	453.08	152.82	132.18	44.818	7.0569e-06	55.448	128.323	-16.874	-6.322	-120.226	-29.965	27.029	-120.380	-115.739	-36.020	6.011	-115.957	-112.176	-111.393	-106.449	-14.582	-107.243	-8191	255	
14313.424	1	1	0	0	0.19978	0.24973	0.16737	0.40104	0.19086	0.10937	0.24708	0.40501	0.19854	0.036595	0.19966	0.26928	0.10532	0.23866	0.032056	0.15119	-1.8687	-2.4583	-2.1958	-2.775	-2.5521	-2.325	-2.9437	-2.4354	-2.3604	-2.8208	-2.5312	-2.6542	-2.7458	-2.5083	-2.7229	-2.725	-97.936	32.684	-13.808	217.034	-17.055	-4.516	201.839	216.547	103.246	0.947	129.339	217.586	-113.725	179.816	-132.751	193.180	0.00089538	0.00031732	0.0001526	1473.1	1.2559e-06	4.4395e-06	1464.6	386.01	1.7489e-06	8.3521e-06	444.48	150.06	129.41	43.536	5.6681e-07	53.78	0.00064537	0.00064378	0.00017992	1488.1	7.0937e-06	7.0942e-06	1487.8	394.05	7.0939e-06	7.1002e-06	452.59	153.09	132.41	44.85	7.1181e-06	55.422	132.648	-61.388	-53.855	-120.309	-97.172	-52.329	-120.343	-115.807	-59.362	-6.705	-116.419	-112.279	-111.142	-106.621	192.689	-107.156	-8191	255	
14313.543	1	1	0	0	0.099046	0.036319	0.090887	0.26871	0.16928	0.37749	0.31618	0.20141	0.15283	0.23949	0.16917	0.19763	0.093339	0.18606	0.17785	0.077523	-1.8937	-2.5125	-2.2875	-2.7687	-2.6854	-2.2271	-2.75	-2.6625	-2.3229	-2.6063	-2.2604	-2.6458	-2.8604	-2.3667	-2.5	-2.5938	-22.939	-20.609	-20.262	185.911	50.965	-2.370	177.389	142.573	93.875	26.037	172.114	-132.843	175.517	166.116	57.476	89.145	0.00064254	0.00037378	0.00016612	1468.5	6.6731e-06	7.2408e-06	1465.9	387.72	3.6809e-07	5.049e-06	446.12	149.72	129.17	43.684	7.3403e-06	53.665	0.00066718	0.00065225	0.00018492	1487.4	7.2123e-06	7.1766e-06	1489.3	394.59	7.173e-06	7.1902e-06	454.19	152.95	132.24	44.892	7.2963e-06	55.367	136.576	-38.395	-53.008	-120.054	-25.507	23.216	-120.431	-115.885	-101.554	-46.419	-116.023	-112.389	-111.428	-106.511	-3.526	-107.339	-8191	255	
14313.614	1	1	0	0	0.25624	0.11939	0.27735	0.10938	0.1649	0.048685	0.2524	0.066925	0.086378	0.06427	0.11605	0.17398	0.099105	0.03357	0.37668	0.097053	-1.8229	-2.8021	-2.3563	-2.8688	-2.5312	-2.2604	-2.8833	-2.5896	-2.1958	-2.8167	-2.4146	-2.5333	-2.7313	-2.3625	-2.4521	-2.6688	-17.217	-47.065	75.941	136.674	18.629	135.228	189.157	54.106	169.640	5.846	-37.098	104.100	213.838	165.666	129.205	191.195	0.00080063	0.00070173	5.8187e-05	1468.4	4.6942e-06	7.8583e-06	1469.8	387.25	5.782e-06	2.6151e-06	445.04	149.95	128.8	43.684	7.4065e-06	53.704	0.00066501	0.000659	0.00018687	1489.2	7.3247e-06	7.2635e-06	1493.2	394.56	7.3203e-06	7.3531e-06	454.33	153.12	132.23	44.838	7.275e-06	55.462	127.399	-35.653	-68.915	-120.050	-30.158	11.432	-120.307	-115.717	-33.716	86.942	-115.935	-112.054	-111.545	-106.688	-1.864	-107.177	-8191	255	
14313.711	1	1	0	0	0.27848	0.1476	0.18513	0.22504	0.32467	0.052884	0.1977	0.2429	0.13159	0.14018	0.027118	0.22661	0.15204	0.22805	0.092293	0.23967	-1.8188	-2.7875	-2.325	-2.6188	-2.7938	-2.1979	-2.8458	-2.6833	-2.1146	-2.525	-2.6354	-2.4646	-2.7875	-2.3271	-2.6	-2.7333	-122.086	-54.705	-114.193	-122.966	-96.973	-129.446	128.676	162.365	-77.439	219.622	108.279	-100.384	171.977	190.523	187.410	182.586	0.00077011	5.8882e-05	0.00017082	1470.9	2.1197e-06	9.3031e-06	1468	387.75	4.7868e-06	6.2112e-06	444.11	149.33	129.75	43.621	7.7024e-06	53.831	0.00067574	0.00066083	0.00018535	1490.9	7.2194e-06	7.3048e-06	1492.6	394.94	7.1985e-06	7.3603e-06	454.13	153.21	132.42	44.865	7.1503e-06	55.411	132.939	-40.406	13.463	-120.400	-24.979	17.990	-120.206	-115.775	14.214	-29.277	-116.058	-111.973	-111.369	-106.674	34.613	-107.071	-8191	255	
14313.809	1	1	0	0	0.09725	0.283	0.19301	0.062069	0.086367	0.22881	0.46544	0.28493	0.13262	0.21654	0.22028	0.32285	0.11852	0.22636	0.28372	0.22047	-1.6771	-2.8646	-2.4667	-2.7271	-2.6854	-2.3729	-2.6813	-2.7229	-2.2771	-2.8563	-2.6188	-2.5458	-2.9188	-2.5021	-2.25	-2.7562	94.917	171.931	197.549	37.379	17.931	-33.235	186.325	159.542	136.599	145.083	-133.576	149.372	-16.004	189.514	197.034	173.201	0.00097655	0.00046341	0.00020284	1470.6	4.2626e-06	2.4781e-06	1470.8	387.7	4.2033e-06	3.4215e-06	446.37	149.31	129.21	43.269	5.2759e-06	53.522	0.00066324	0.00066582	0.00018435	1491	7.1673e-06	7.2287e-06	1492	395.6	7.2034e-06	7.2526e-06	454.47	153.02	132.48	44.755	7.319e-06	55.337	128.415	-32.568	-73.732	-120.003	-19.651	47.243	-120.274	-115.864	20.070	31.314	-115.984	-112.208	-111.465	-106.709	53.335	-107.354	-8191	255	
14313.927	1	1	0	0	0.38576	0.15826	0.25793	0.16711	0.19388	0.30682	0.42389	0.3245	0.031994	0.21277	0.12357	0.30571	0.28259	0.15642	0.18958	0.34015	-1.7042	-2.5417	-2.4146	-2.5042	-2.8229	-2.4833	-2.8521	-2.7667	-2.3833	-2.5146	-2.7375	-2.3271	-2.9292	-2.4708	-2.2875	-2.7188	110.616	-81.210	114.365	188.312	-104.566	118.024	160.752	113.234	51.828	135.372	53.235	-130.366	90.626	154.069	216.369	-122.365	0.00088963	0.00043627	0.00017525	1467	1.7842e-06	3.2782e-06	1472.3	388.83	8.1584e-06	3.5679e-06	445.96	149.96	130.04	43.883	4.6977e-06	53.99	0.0006702	0.00066856	0.00018857	1490.8	7.2214e-06	7.3348e-06	1494.4	395.31	7.309e-06	7.2384e-06	454.88	153.37	132.75	45.061	7.2902e-06	55.527	132.846	-34.252	-38.130	-120.098	63.100	-5.015	-120.247	-115.802	-56.803	-15.780	-116.003	-112.026	-111.541	-106.676	-19.683	-107.301	-8191	255	
14314.024	1	1	0	0	0.18453	0.49387	0.10638	0.26713	0.085357	0.1992	0.52315	0.35798	0.060655	0.24625	0.1462	0.084498	0.0644	0.2651	0.098892	0.046018	-1.6	-2.7	-2.3937	-2.3792	-2.6813	-2.2979	-2.7229	-2.8563	-2.3604	-2.6562	-2.6583	-2.4	-2.7771	-2.5125	-2.1125	-2.8438	-110.377	12.422	153.915	223.607	-76.277	-37.227	155.731	203.089	-18.169	32.816	115.203	-34.081	-129.378	152.647	-31.915	-120.885	0.00083963	0.00051992	0.00010683	1469.7	2.0143e-06	7.5046e-06	1474	388.18	3.4453e-06	2.8557e-06	445.84	149.32	129.8	43.793	6.7395e-06	53.874	0.00065951	0.00066719	0.00018316	1489.3	7.31e-06	7.3496e-06	1497.1	395.92	7.4779e-06	7.413e-06	454.66	153.31	132.82	45.079	7.5454e-06	55.588	134.060	-10.438	45.718	-120.085	-10.025	-17.079	-120.366	-115.634	-14.323	-19.673	-115.901	-112.101	-111.571	-106.760	-14.377	-107.259	-8191	255	
14314.120	1	1	0	0	0.074698	0.33657	0.11773	0.16945	0.1204	0.2792	0.45625	0.51007	0.20231	0.15407	0.15823	0.27244	0.22127	0.42421	0.17274	0.32427	-1.7271	-2.475	-2.5667	-2.425	-2.6417	-2.4542	-2.325	-2.9188	-2.3271	-2.4354	-2.6917	-2.3604	-2.5458	-2.625	-2.3688	-2.7604	-35.133	-102.963	109.518	-125.106	128.831	55.124	171.046	177.442	26.969	-56.234	25.387	-83.156	181.921	150.471	80.005	143.379	0.00067479	0.00087163	0.00020756	1471.5	3.3441e-06	5.4618e-06	1471.1	389.24	5.8637e-06	5.6665e-06	445.87	149.74	129.58	43.552	5.1483e-06	53.738	0.00069669	0.00068639	0.00019344	1493.8	7.5428e-06	7.6793e-06	1496.2	396.15	7.6236e-06	7.6441e-06	454.51	153.42	133.01	44.999	7.7944e-06	55.505	142.937	-29.038	-75.593	-120.235	-45.803	9.735	-120.313	-115.756	-76.356	68.975	-116.075	-112.107	-111.697	-106.463	51.623	-107.493	-8191	255	
14314.216	1	1	0	0	0.26158	0.15604	0.17238	0.53479	0.011719	0.085093	0.23672	0.1748	0.14637	0.065453	0.1904	0.0653	0.13676	0.26341	0.15774	0.17521	-1.8083	-2.4313	-2.6312	-2.4958	-2.5125	-2.4917	-2.4042	-2.8271	-2.1333	-2.4792	-2.9333	-2.3	-2.6688	-2.5812	-2.1729	-2.8333	196.681	224.655	-43.479	172.031	66.762	-69.921	175.176	218.666	109.180	-26.215	194.196	49.845	-80.815	164.222	44.353	-46.544	0.00075354	0.0005631	0.00022424	1472.1	2.9776e-06	8.2291e-06	1470.3	389.44	6.8835e-06	7.5837e-06	446.23	149.95	129.3	43.524	4.321e-06	53.779	0.00069974	0.00070258	0.00019736	1495.7	7.7383e-06	7.8459e-06	1497	396.2	7.8872e-06	7.9098e-06	455.74	153.41	132.58	44.919	7.7466e-06	55.614	135.816	-67.982	-20.402	-120.053	39.656	11.855	-120.260	-115.900	-19.350	44.859	-116.361	-112.202	-111.649	-106.645	22.650	-107.513	-8191	255	
14314.312	1	1	0	0	0.099531	0.17231	0.29167	0.40553	0.17271	0.16089	0.16603	0.31908	0.18935	0.27081	0.16938	0.27166	0.085329	0.14351	0.22775	0.20703	-1.875	-2.3542	-2.7417	-2.3187	-2.5979	-2.6479	-2.4896	-2.7917	-2.4	-2.4875	-2.9521	-2.2687	-2.5563	-2.6229	-1.9979	-2.5708	63.147	10.423	63.489	203.883	177.742	163.097	196.734	176.250	84.263	-119.640	177.845	190.273	-0.638	196.540	-43.612	-64.437	0.00070756	0.00060684	0.00022075	1477.2	2.789e-06	5.5059e-06	1474.6	388.17	3.1751e-06	8.8239e-06	445.89	149.77	129.74	43.631	9.1185e-06	53.973	0.00070803	0.00071297	0.0001971	1495.9	7.7117e-06	7.7239e-06	1498.9	396.07	7.8124e-06	7.7726e-06	454.98	153.31	132.81	44.994	7.7378e-06	55.764	132.950	-46.644	-75.981	-120.160	69.614	14.884	-120.252	-115.722	115.835	7.750	-116.228	-112.225	-111.628	-106.682	0.673	-107.217	-8191	255	
14314.408	1	1	0	0	0.015255	0.21701	0.26081	0.22722	0.036159	0.053486	0.33721	0.26629	0.17133	0.045499	0.11351	0.34613	0.26308	0.12706	0.11761	0.23424	-1.8708	-2.3208	-2.7021	-2.4771	-2.325	-2.5479	-2.2667	-2.8625	-2.4458	-2.1958	-2.8646	-2.4104	-2.4437	-2.5771	-2.1396	-2.6208	-90.204	34.001	-115.881	210.524	201.808	69.084	148.338	159.312	127.050	-30.205	115.115	148.979	216.883	208.323	-94.393	-117.708	0.00088771	0.00089928	0.00020859	1473.8	6.9607e-06	4.2139e-06	1474.6	388.64	4.542e-06	3.9772e-06	445.18	150.43	130.34	43.933	2.1869e-06	54.218	0.00069631	0.00070485	0.0001949	1495.8	7.5414e-06	7.5034e-06	1498.3	396.54	7.4795e-06	7.3549e-06	454.74	153.89	133.59	45.179	7.2302e-06	55.904	126.298	-38.509	-7.900	-120.185	-35.168	25.338	-120.305	-115.842	-28.724	9.849	-116.216	-112.332	-111.355	-106.581	59.486	-107.322	-8191	255	
14314.529	1	1	0	0	0.24082	0.12892	0.20815	0.28873	0.27507	0.099053	0.17258	0.31929	0.47002	0.111	0.1757	0.04403	0.076689	0.15065	0.099452	0.304	-2.2208	-2.1458	-2.6292	-2.3438	-2.3208	-2.6479	-2.5104	-2.6688	-2.4729	-2.1292	-2.5458	-2.3854	-2.3333	-2.7375	-2.0062	-2.625	172.299	214.269	117.732	186.542	-1.690	-121.661	132.940	143.341	187.329	-61.244	204.933	-92.550	-56.468	-106.292	164.348	150.167	0.00084704	0.00044382	0.00016465	1474	9.3878e-06	2.9762e-06	1471.8	389.23	3.4669e-06	3.005e-06	447.98	150.67	129.55	43.963	6.3706e-06	54.043	0.00067227	0.000663	0.00018475	1495.4	7.2247e-06	7.2277e-06	1497.4	397.12	7.28e-06	7.171e-06	456.49	154.15	133.09	45.241	7.1197e-06	55.917	131.639	-12.046	-60.927	-120.067	-1.542	58.654	-120.445	-115.682	-7.069	38.996	-116.160	-112.231	-111.625	-106.462	0.665	-107.268	-8191	255	
14314.623	1	1	0	0	0.20148	0.088002	0.024677	0.40436	0.14643	0.13253	0.18547	0.17833	0.059708	0.12876	0.09494	0.19046	0.47025	0.25033	0.29297	0.14862	-1.95	-2.0812	-2.6958	-2.5812	-2.1813	-2.7188	-2.4958	-2.6833	-2.5208	-2.325	-2.8937	-2.5208	-2.5042	-2.9125	-2.0438	-2.6354	-70.773	-120.994	68.997	147.726	56.159	94.853	177.461	145.683	1.991	-127.998	-8.418	196.847	225.580	-125.309	123.080	184.934	0.00081293	0.00052924	0.00019747	1477.1	5.2825e-06	4.5436e-06	1468.5	388.56	7.7701e-06	6.1862e-06	448.72	151.06	130.2	44.061	2.368e-06	54.228	0.00066227	0.00065225	0.00018339	1495.1	7.1371e-06	7.2079e-06	1495	396.81	7.2007e-06	7.095e-06	455.4	154.32	133.58	45.309	7.0648e-06	55.966	125.267	-54.312	14.835	-120.236	0.531	34.216	-120.382	-115.820	-54.888	-35.159	-116.003	-112.321	-111.385	-106.618	-24.593	-107.174	-8191	255	
14314.719	1	1	0	0	0.25477	0.154	0.084562	0.38762	0.01173	0.051249	0.24173	0.13908	0.19174	0.1602	0.21326	0.18842	0.11774	0.13243	0.061882	0.25632	-2.0958	-2.0917	-2.5979	-2.6896	-2.0438	-2.7208	-2.5667	-2.5646	-2.4958	-2.0563	-2.7104	-2.5833	-2.2229	-2.7396	-2.2562	-2.3063	-28.039	202.324	31.469	-123.620	2.316	143.783	146.297	182.294	55.396	178.231	101.684	147.689	-120.279	-23.627	-81.722	126.446	0.00095147	0.00074859	0.00019089	1470.1	7.3401e-06	4.311e-06	1467.2	388.45	5.4921e-06	8.3429e-06	445.17	151.53	130.14	44.243	4.5921e-06	53.996	0.00063986	0.00062808	0.00017583	1491.3	6.8419e-06	6.9307e-06	1492.6	396.41	6.8516e-06	6.8597e-06	454.42	154.54	133.22	45.29	6.9242e-06	55.863	138.105	-3.029	-44.506	-120.055	-72.787	73.027	-120.269	-115.806	-28.055	-22.780	-116.172	-112.243	-111.330	-106.445	38.846	-107.196	-8191	255	
14314.815	1	1	0	0	0.37509	0.18393	0.10385	0.42499	0.087195	0.14003	0.29465	0.064347	0.14167	0.195	0.16417	0.1323	0.25158	0.22984	0.15839	0.10185	-2.2979	-2.0292	-2.6021	-2.7667	-2.35	-2.4437	-2.5604	-2.5229	-2.7417	-2.2375	-2.5479	-2.575	-2.1271	-2.7917	-2.3771	-2.3042	-48.094	171.384	190.217	209.777	129.422	-91.630	169.907	-77.473	-11.576	182.610	156.931	142.805	-111.867	141.471	64.814	124.547	0.00081268	0.00038832	7.7467e-05	1474.9	5.8813e-06	4.061e-06	1465.1	389.67	7.1078e-06	1.3036e-06	446.95	150.8	130.51	44.076	8.2044e-06	54.42	0.00062743	0.00062743	0.0001709	1491	6.9214e-06	6.8078e-06	1493.1	396.5	6.8157e-06	6.83e-06	455.01	154.14	133.39	45.386	6.8054e-06	55.907	126.199	-47.536	-21.611	-120.109	16.815	9.315	-120.468	-115.766	-31.296	-52.905	-115.954	-112.166	-111.274	-106.577	-5.075	-107.022	-8191	255	
14314.912	1	1	0	0	0.24656	0.14451	0.10734	0.31821	0.22323	0.29265	0.11518	0.42661	0.12864	0.073668	0.11527	0.13433	0.053429	0.16919	0.18756	0.4459	-2.15	-2.0521	-2.3042	-2.5208	-2.1479	-2.6708	-2.5563	-2.3937	-2.7583	-2.1854	-2.6562	-2.5729	-2.2021	-2.6688	-2.5354	-2.375	-24.933	4.927	191.478	212.758	54.896	39.994	211.518	201.955	90.886	-75.648	173.699	210.978	123.453	130.438	-90.440	146.736	0.000816	0.00045665	9.6241e-05	1469.9	4.2283e-06	3.4754e-06	1467.9	388.78	6.9643e-06	9.4579e-06	446.3	151.3	130.55	44.043	3.5263e-06	54.033	0.00062849	0.00062245	0.00017309	1488.9	6.7709e-06	6.7502e-06	1489.2	395.26	6.7431e-06	6.7151e-06	454.13	154.41	133.22	45.335	6.7934e-06	55.767	135.903	-2.056	-34.547	-120.228	-27.440	58.820	-120.298	-115.655	-38.341	-15.843	-116.073	-112.134	-111.295	-106.411	37.599	-107.236	-8191	255	
14315.008	1	1	0	0	0.12443	0.2854	0.2811	0.37658	0.15524	0.31721	0.36745	0.2077	0.11976	0.15683	0.25712	0.24778	0.11963	0.15756	0.12274	0.19916	-2.3063	-2.1854	-2.2188	-2.6542	-2.0479	-2.5354	-2.5667	-2.3146	-2.6125	-2.3146	-2.625	-2.8146	-2.4333	-2.8	-2.575	-2.4208	-9.160	-28.445	-5.273	137.822	-86.502	-111.651	148.517	178.724	119.010	-59.695	71.861	164.358	203.016	72.836	-133.166	219.122	0.00088341	0.00035944	0.00014875	1467.1	3.6768e-06	4.8863e-06	1468.3	388.89	7.5322e-06	5.4331e-06	443.39	150.64	129.94	43.914	7.2552e-06	54.128	0.00061997	0.00060108	0.00016956	1487.8	6.6275e-06	6.6262e-06	1488.4	395.16	6.7283e-06	6.6331e-06	452.81	153.92	133.11	45.176	6.7616e-06	55.81	126.179	10.238	-17.356	-120.127	45.202	18.370	-120.241	-115.733	-17.935	59.704	-115.810	-112.230	-111.511	-106.731	-1.054	-107.315	-8191	255	
14315.104	1	1	0	0	0.088973	0.20429	0.087809	0.28286	0.28585	0.14313	0.12603	0.45316	0.23848	0.2495	0.18266	0.20139	0.2239	0.15675	0.18832	0.32233	-2.1917	-2.4917	-2.375	-2.8812	-2.2687	-2.5229	-2.875	-2.4562	-2.8125	-2.4417	-2.3875	-2.7479	-2.2812	-2.6354	-2.6792	-2.1667	-94.847	96.177	164.209	167.858	-117.984	87.404	136.222	178.979	24.645	58.632	171.502	167.281	-92.712	183.926	-18.162	146.426	0.00071186	0.00067197	0.00010216	1464.8	1.2097e-06	3.5316e-06	1465	386.08	1.9828e-06	7.2053e-06	444.85	150.48	129.41	43.915	5.317e-06	54.05	0.000626	0.00061663	0.00017124	1486.5	6.7697e-06	6.7994e-06	1489.4	394.94	6.7794e-06	6.8778e-06	453.51	153.73	132.76	45.194	6.7749e-06	55.763	128.567	-49.505	-46.314	-120.136	-73.881	28.968	-120.196	-115.928	6.993	-8.057	-115.891	-112.139	-111.526	-106.607	17.319	-107.360	-8191	255	
14315.225	1	1	0	0	0.18938	0.058726	0.11431	0.33823	0.066951	0.043295	0.36217	0.15307	0.17963	0.31341	0.038429	0.19534	0.27189	0.2914	0.059647	0.11876	-2.1146	-2.3729	-2.2708	-2.6458	-2.4646	-2.4979	-2.7771	-2.4458	-2.7125	-2.6042	-2.3208	-2.8375	-2.4417	-2.5292	-2.6104	-2.2896	83.546	-40.754	82.696	168.535	-103.019	70.772	164.226	180.016	156.627	-20.922	-122.217	-131.627	195.042	-126.119	191.970	-91.130	0.00088278	0.00028195	0.00015222	1468.5	5.1946e-06	4.5628e-06	1458.4	389.05	3.9845e-06	8.9187e-06	444.34	150.92	130.22	44.131	7.6743e-06	54.232	0.00062565	0.00062096	0.0001718	1486.9	6.7388e-06	6.763e-06	1486.3	394.87	6.7236e-06	6.7038e-06	453.37	153.86	133.19	45.244	6.5718e-06	55.718	128.753	-40.160	-23.033	-120.111	-52.606	30.894	-120.169	-115.827	-37.767	22.435	-116.168	-112.191	-111.636	-106.630	-30.132	-107.168	-8191	255	
14315.321	1	1	0	0	0.22326	0.12361	0.27322	0.37859	0.13767	0.24266	0.22559	0.2991	0.13237	0.17055	0.27543	0.30129	0.2393	0.23119	0.15462	0.048841	-2.0854	-2.5083	-2.2583	-2.8979	-2.4313	-2.5521	-2.7208	-2.4583	-2.5125	-2.5667	-2.3688	-2.8396	-2.3021	-2.425	-2.7771	-2.3104	100.780	5.086	-126.759	132.405	-74.593	164.530	187.509	135.358	165.211	87.038	197.086	210.615	-104.209	140.997	107.317	60.350	0.00082034	0.00064336	0.00011755	1463.6	4.7624e-06	3.5163e-06	1460.5	386.97	6.8811e-06	7.0479e-06	444.5	150.5	130.83	44.065	3.8058e-06	54.375	0.00061271	0.00060753	0.00016915	1486.5	6.6241e-06	6.604e-06	1485	394.41	6.6465e-06	6.6305e-06	452.46	153.62	133.11	45.208	6.5101e-06	55.72	139.225	-62.745	-40.209	-120.143	32.034	-13.189	-120.349	-115.831	-16.777	29.683	-115.925	-112.400	-111.429	-106.539	-25.794	-107.379	-8191	255	
14315.417	1	1	0	0	0.088988	0.14726	0.2465	0.46805	0.26702	0.05786	0.20793	0.2498	0.075222	0.053953	0.30539	0.31285	0.17561	0.2605	0.17219	0.14829	-2.0667	-2.6333	-2.1458	-2.8958	-2.3625	-2.2854	-2.8521	-2.3438	-2.4854	-2.4313	-2.2958	-2.7479	-2.4604	-2.4208	-2.75	-2.45	133.932	-126.436	54.246	210.626	-4.418	180.600	160.312	112.742	-66.516	140.265	206.345	154.760	174.361	195.852	-30.529	151.498	0.00077639	0.00015892	0.00015228	1470.6	7.0864e-06	5.4249e-06	1468.7	386.81	4.7005e-06	7.1104e-06	444.27	149.88	130.14	44.071	6.2642e-06	53.911	0.00060879	0.00060197	0.00016785	1486.4	6.6074e-06	6.5787e-06	1488.1	394.85	6.5214e-06	6.6239e-06	452.93	153.49	132.89	45.238	6.6723e-06	55.665	130.479	-49.130	-54.071	-120.196	-19.279	-6.277	-120.306	-115.801	-23.368	11.509	-116.083	-112.096	-111.550	-106.679	19.851	-107.524	-8191	255	
14315.489	1	1	0	0	0.27826	0.30121	0.16257	0.073981	0.2328	0.16355	0.25435	0.3367	0.085277	0.1977	0.18619	0.17665	0.3051	0.17807	0.47292	0.18021	-1.9792	-2.3708	-2.2146	-2.7375	-2.2417	-2.175	-2.9437	-2.325	-2.4667	-2.6208	-2.275	-2.5396	-2.6333	-2.2854	-2.8604	-2.5563	180.843	-52.110	-90.441	90.688	118.752	-114.614	171.186	161.566	144.946	-26.938	158.902	120.669	-108.496	-96.500	181.684	129.998	0.00082945	0.0004571	0.00010111	1464	8.0635e-07	5.3263e-06	1462.9	387.62	3.9005e-06	4.6602e-07	445.23	150.63	129.93	43.93	6.1479e-06	54.222	0.00060915	0.00060065	0.00016895	1483.5	6.59e-06	6.5735e-06	1484.4	394.51	6.54e-06	6.4665e-06	452.72	153.91	132.82	45.166	6.4977e-06	55.795	128.356	-28.029	-24.175	-120.127	-34.210	41.946	-120.362	-115.652	-42.681	169.853	-116.072	-112.236	-111.562	-106.633	-31.639	-107.688	-8191	255	
14315.607	1	1	0	0	0.17242	0.29858	0.029865	0.47528	0.10049	0.11304	0.29073	0.23077	0.12384	0.16782	0.50633	0.10396	0.31392	0.079956	0.13068	0.12583	-1.8604	-2.6604	-2.4167	-2.7083	-2.5083	-2.3396	-2.7375	-2.5792	-2.5271	-2.6896	-2.4188	-2.6208	-2.5646	-2.1188	-2.5229	-2.3875	-56.891	2.033	163.714	162.636	148.723	103.292	148.750	-100.951	163.002	72.294	214.713	-122.694	173.416	131.444	222.261	-28.962	0.00083981	0.00019853	0.00018531	1469.1	3.9197e-06	7.6642e-06	1465.1	387.47	3.6712e-06	7.8575e-06	443.78	150.23	130.05	44.024	3.8349e-06	53.952	0.00061544	0.00059785	0.00016581	1485.8	6.5908e-06	6.6477e-06	1485.6	394.41	6.5169e-06	6.6131e-06	452.27	153.65	132.72	45.142	6.6572e-06	55.652	134.103	-65.309	-41.427	-120.171	7.235	28.018	-120.369	-115.530	-42.773	3.638	-115.959	-112.145	-111.369	-106.764	38.758	-107.092	-8191	255	
14315.704	1	1	0	0	0.054859	0.14984	0.10444	0.21719	0.084917	0.10658	0.34322	0.35645	0.15068	0.16539	0.038766	0.22759	0.33902	0.19941	0.14005	0.22861	-1.6854	-2.5375	-2.2708	-2.65	-2.5104	-2.2646	-2.6917	-2.6125	-2.2146	-2.3875	-2.4021	-2.5167	-2.7396	-2.3792	-2.5271	-2.5104	-108.244	-42.409	177.747	205.568	87.964	42.247	164.477	149.605	-33.771	2.936	15.099	218.350	215.999	208.857	212.758	97.170	0.00084378	0.00047533	9.1403e-05	1468.5	3.3349e-06	4.6994e-06	1466.4	387.03	6.2575e-06	4.6213e-06	441.72	150.11	129.61	43.997	6.8314e-06	53.977	0.00061519	0.00059957	0.00017013	1485.4	6.5833e-06	6.6013e-06	1487.6	394.09	6.5837e-06	6.5886e-06	451.66	153.53	132.68	45.122	6.7043e-06	55.621	129.527	-41.523	-20.062	-120.210	-16.406	25.178	-120.260	-115.820	-35.966	-1.325	-116.070	-112.000	-111.445	-106.743	26.597	-107.415	-8191	255	
14315.800	1	1	0	0	0.42736	0.094037	0.13427	0.40362	0.16069	0.17471	0.38775	0.11699	0.17425	0.29111	0.23886	0.18504	0.32856	0.096209	0.084336	0.06487	-1.7771	-2.5896	-2.1354	-2.6813	-2.4833	-2.2521	-2.6979	-2.525	-2.2333	-2.7792	-2.6271	-2.6104	-2.7708	-2.4083	-2.7292	-2.5958	-133.570	87.013	200.304	218.535	47.035	184.289	155.581	40.195	101.389	95.441	163.785	-59.592	194.624	181.837	-84.982	209.658	0.00071756	0.00039404	0.00012809	1469.3	9.4365e-07	5.7607e-06	1463.6	386.84	7.9356e-06	4.9689e-06	445.3	149.76	129.4	43.725	7.6469e-06	54.204	0.00060513	0.00060645	0.00016931	1485.5	6.6136e-06	6.7179e-06	1486.4	393.89	6.7025e-06	6.7207e-06	452.47	153.46	132.65	45.06	6.6634e-06	55.694	131.931	-95.035	-32.726	-120.062	-73.341	13.029	-120.492	-115.686	-47.998	22.902	-116.103	-112.098	-111.549	-106.651	15.769	-107.552	-8191	255	
14315.896	1	1	0	0	0.11692	0.048943	0.17107	0.37195	0.33606	0.068424	0.24968	0.082114	0.085486	0.1873	0.070764	0.1777	0.25331	0.053045	0.07734	0.23688	-1.6375	-2.65	-2.3417	-2.5021	-2.6625	-2.2	-2.9208	-2.9271	-2.2542	-2.6125	-2.5458	-2.5563	-2.675	-2.4375	-2.5438	-2.6583	19.556	97.853	91.829	205.008	-71.563	29.959	184.746	44.665	-67.820	-63.387	145.478	-106.891	-111.971	2.845	-83.908	129.125	0.000809	0.00055665	0.00018593	1465.3	5.2263e-06	5.2111e-06	1465.2	386.87	4.947e-06	1.0682e-05	442.67	150.24	129.6	43.623	6.9606e-06	54.078	0.0006279	0.00061273	0.00016832	1483.2	6.6991e-06	6.765e-06	1485.8	393.71	6.7747e-06	6.696e-06	451.47	153.38	132.62	45.003	6.7875e-06	55.507	121.638	-38.954	-47.993	-120.061	2.743	-0.007	-120.333	-115.901	-47.314	12.577	-116.110	-112.232	-111.625	-106.572	-21.399	-107.160	-8191	255	
14316.016	1	1	0	0	0.1991	0.14116	0.11522	0.2184	0.18879	0.056537	0.11625	0.25432	0.016924	0.083749	0.35093	0.24603	0.05564	0.20965	0.35557	0.26651	-1.7333	-2.5875	-2.4708	-2.5042	-2.6625	-2.1625	-2.6083	-2.7021	-2.1625	-2.5042	-2.6167	-2.2313	-2.775	-2.4833	-2.4375	-2.7333	-18.972	161.632	35.346	-86.429	130.195	83.739	103.869	-123.157	179.794	36.794	184.865	152.745	152.808	189.990	-15.631	132.717	0.00082438	0.00077893	0.00014246	1460.6	8.134e-06	7.9811e-06	1459.7	385.86	6.4769e-06	2.5909e-06	441.84	150.09	129.33	43.685	7.1495e-06	53.85	0.00061788	0.00061786	0.0001706	1481.4	6.7928e-06	6.7563e-06	1485.9	393.41	6.7414e-06	6.745e-06	451.6	153.26	132.41	44.862	6.883e-06	55.43	131.439	-69.176	-45.662	-120.062	-10.914	4.833	-120.277	-115.368	-44.478	66.510	-115.951	-111.917	-111.385	-106.863	16.651	-107.242	-8191	255	
14316.088	1	1	0	0	0.084668	0.28492	0.11251	0.10737	0.13325	0.35157	0.21809	0.055755	0.12996	0.16322	0.31684	0.086875	0.48357	0.28571	0.19843	0.3171	-1.4813	-2.5917	-2.3771	-2.4938	-2.7583	-2.3021	-2.5708	-2.8583	-2.15	-2.6354	-2.5708	-2.3438	-2.9333	-2.4604	-2.2417	-2.7833	94.530	19.477	-112.519	221.952	-12.355	25.104	88.883	177.339	79.114	-133.221	101.520	60.180	-105.875	-26.738	43.932	171.916	0.00079773	0.00069827	0.00013442	1465.9	5.2016e-06	6.7893e-06	1468	386.19	8.655e-06	1.0191e-06	442.33	149.73	129.85	43.756	5.049e-06	53.856	0.00063185	0.00062161	0.00017499	1483.7	6.7498e-06	6.821e-06	1488.6	393.12	6.8227e-06	6.822e-06	451.22	153.23	132.62	44.955	6.8434e-06	55.529	132.304	-30.410	-36.954	-120.274	-36.458	26.891	-120.467	-115.755	-26.172	83.246	-116.012	-111.907	-111.318	-106.681	-45.011	-107.224	-8191	255	
14316.209	1	1	0	0	0.059933	0.16368	0.23907	0.33557	0.35352	0.15265	0.21432	0.12595	0.023398	0.09421	0.17055	0.14182	0.17687	0.14317	0.15677	0.24126	-1.7479	-2.375	-2.4854	-2.5083	-2.4979	-2.3896	-2.6125	-2.8896	-2.275	-2.5938	-2.6021	-2.3688	-2.5083	-2.3104	-2.35	-2.7604	-9.265	-128.957	15.554	-128.520	-67.474	35.961	132.865	157.529	-76.078	-26.477	-73.565	192.737	43.579	172.760	40.730	176.630	0.00079806	0.00057842	0.00016836	1464.4	4.2704e-06	4.5979e-06	1464.7	387.44	3.3133e-06	5.6196e-06	443.87	149.78	129.43	43.575	5.9121e-06	53.896	0.00062267	0.00061577	0.00017377	1483.9	6.7206e-06	6.791e-06	1487	393.68	6.805e-06	6.8264e-06	451.3	153.15	132.56	44.928	6.839e-06	55.594	125.394	-64.051	-18.695	-120.104	-37.287	70.793	-120.190	-115.674	-21.386	27.972	-115.865	-112.207	-111.537	-106.542	63.682	-107.366	-8191	255	
14316.305	1	1	0	0	0.021075	0.19921	0.031966	0.25169	0.036391	0.11378	0.13063	0.29797	0.15815	0.16747	0.35656	0.093131	0.17603	0.2402	0.29574	0.19475	-1.7167	-2.2438	-2.4333	-2.3021	-2.65	-2.5458	-2.4833	-2.7021	-2.3708	-2.4	-2.8583	-2.4813	-2.7458	-2.5896	-2.2229	-2.7604	177.038	42.029	43.777	164.973	-23.835	95.508	196.761	168.294	135.095	-6.833	-61.988	-64.340	-117.429	223.891	0.935	-122.559	0.00083962	0.00077083	0.00010962	1463.8	4.6355e-06	7.8636e-06	1465.5	385.53	3.6809e-06	3.005e-06	444.45	149.73	128.95	43.814	3.2958e-06	53.746	0.00062877	0.0006265	0.00017342	1484.5	6.7625e-06	6.8368e-06	1488.1	393.45	6.9112e-06	6.7851e-06	452.08	153.24	132.18	44.904	6.8396e-06	55.464	124.841	-61.545	-16.650	-119.992	38.712	17.712	-120.098	-115.743	-45.772	34.041	-116.018	-112.318	-111.370	-106.923	29.165	-107.169	-8191	255	
14316.401	1	1	0	0	0.1295	0.26322	0.22383	0.14174	0.25785	0.19982	0.29574	0.30634	0.24046	0.084745	0.095852	0.1442	0.1559	0.086033	0.18477	0.14384	-1.8729	-2.3396	-2.5354	-2.3792	-2.6021	-2.5792	-2.4646	-2.7833	-2.4437	-2.4	-2.7188	-2.3583	-2.6	-2.5208	-2.2313	-2.5958	224.928	170.558	22.026	207.204	28.533	153.276	207.865	219.073	199.144	222.979	-70.098	-89.785	-117.757	195.483	14.965	104.326	0.00093224	0.00059278	0.00019747	1464.2	2.2258e-06	2.3883e-06	1463.2	385.3	7.2631e-06	5.613e-06	442.19	149.87	129.15	43.612	9.1953e-06	53.944	0.00062916	0.0006328	0.00017534	1484.9	6.9264e-06	6.9073e-06	1486.9	392.58	6.9312e-06	6.9688e-06	451.56	152.94	132.1	44.834	6.9412e-06	55.521	130.343	-68.006	-12.281	-120.055	25.819	-20.849	-120.497	-115.584	-19.760	33.619	-115.905	-112.167	-111.533	-106.458	11.125	-107.313	-8191	255	
14316.497	1	1	0	0	0.14448	0.068669	0.12833	0.34306	0.30692	0.20538	0.08706	0.13475	0.15532	0.02801	0.24288	0.36502	0.12347	0.22796	0.051942	0.27686	-1.9125	-2.2854	-2.6542	-2.3479	-2.3396	-2.6042	-2.4292	-2.7146	-2.4604	-2.2625	-2.775	-2.4375	-2.65	-2.7042	-2.1562	-2.5687	113.589	76.210	-72.408	192.288	-43.832	210.874	169.200	-103.425	-65.418	26.098	150.506	214.499	59.699	-124.695	220.276	153.263	0.00082326	0.00045223	0.00018735	1464	4.4146e-06	4.6816e-06	1460.6	386.25	2.6669e-06	5.5243e-06	443.23	149.36	128.64	43.471	6.3166e-06	53.525	0.00063776	0.00063785	0.00017512	1484.8	6.9564e-06	6.9757e-06	1484.8	393.48	7.0186e-06	6.9474e-06	451.67	152.78	132.04	44.818	6.914e-06	55.338	126.224	-33.495	-54.447	-119.984	-17.251	9.250	-120.176	-115.669	-96.051	71.685	-116.207	-112.124	-111.595	-106.816	58.886	-107.238	-8191	255	
14316.616	1	1	0	0	0.29101	0.093948	0.15245	0.2761	0.12522	0.12479	0.14566	0.14683	0.1676	0.12222	0.11092	0.20149	0.18653	0.15678	0.37992	0.15887	-1.8542	-2.1813	-2.6583	-2.3104	-2.3604	-2.6646	-2.3563	-2.8229	-2.3312	-2.1792	-2.9417	-2.4354	-2.4062	-2.6792	-2.2812	-2.5958	173.045	-90.938	31.317	169.044	44.500	-129.286	-114.894	194.588	141.586	172.509	-96.678	189.569	-103.916	200.560	145.716	2.999	0.0007799	0.00039925	0.00019394	1464.8	6.4627e-06	4.9124e-06	1462.6	384.87	6.6817e-06	8.0261e-06	444.53	149.41	129.16	43.741	2.9127e-06	53.85	0.00063549	0.0006372	0.00017625	1483.5	7.0661e-06	6.9613e-06	1486.9	392.36	6.9825e-06	6.9351e-06	451.96	152.81	132.24	44.881	6.9214e-06	55.457	135.021	-45.633	-26.235	-120.229	-5.421	-1.423	-120.456	-115.594	-56.339	6.159	-116.079	-112.265	-111.373	-106.723	5.490	-107.330	-8191	255	
14316.712	1	1	0	0	0.11586	0.17281	0.060763	0.18762	0.21385	0.10476	0.32414	0.35494	0.16593	0.16147	0.18775	0.19355	0.30793	0.13308	0.069718	0.20933	-1.925	-2.275	-2.5729	-2.3646	-2.2479	-2.5083	-2.3667	-2.5646	-2.2667	-2.1167	-2.7771	-2.4333	-2.375	-2.825	-2.0771	-2.4083	181.436	1.363	56.327	209.816	222.086	-18.556	156.807	168.262	-57.108	211.548	159.156	-91.220	179.159	70.781	34.308	206.423	0.00086658	0.00049563	2.2766e-05	1464.6	4.0995e-06	5.2533e-06	1467.7	384.7	4.1288e-06	7.1696e-06	442.9	149.5	129.14	43.734	4.1012e-06	53.805	0.00064159	0.00063674	0.00017704	1483.6	7.0223e-06	6.8697e-06	1486.9	392.58	6.8108e-06	6.9426e-06	451.38	152.88	132.22	44.881	6.9166e-06	55.493	130.575	-60.923	-20.996	-120.217	7.389	-8.491	-120.360	-115.842	-99.357	11.280	-115.916	-112.203	-111.644	-106.394	-0.713	-107.485	-8191	255	
14316.784	1	1	0	0	0.076397	0.19035	0.37841	0.43636	0.24501	0.12911	0.26397	0.368	0.26522	0.13371	0.18724	0.082123	0.24186	0.25149	0.14011	0.46446	-2.0062	-2	-2.5042	-2.4083	-2.2646	-2.7396	-2.5	-2.7354	-2.6667	-2.3354	-2.75	-2.4479	-2.3187	-2.8229	-2.3021	-2.5687	141.508	-41.691	-90.801	183.103	193.949	168.270	196.402	174.719	-26.529	36.810	183.839	-39.447	-133.632	215.989	61.894	180.081	0.00076556	0.00069975	6.7186e-05	1465.7	5.3626e-06	4.6228e-06	1465	386.32	2.8965e-06	5.5527e-06	440.72	149.39	129.31	43.549	9.0964e-06	53.751	0.00063727	0.00063104	0.00017541	1484.3	6.9801e-06	6.9438e-06	1488.3	393.3	6.8888e-06	6.8869e-06	451.24	152.99	132.24	44.811	6.9797e-06	55.438	131.761	-31.625	-29.313	-120.168	-22.625	-28.063	-120.397	-115.861	-33.004	35.754	-115.861	-112.226	-111.539	-106.594	11.449	-107.204	-8191	255	
#DATA ENDS
