BOXY.EXE: ISS Imagent and Oximeter Data Acquisition Program Version 0.80
Ascii Record File

#ACQ INFORMATION
2  Detector Channels 
16  External MUX Channels 
1  Auxiliary Channels 
5000  Waveform (CCF) Frequency (Hz)
1  Waveforms Skipped 
30  Waveforms Averaged 
1  Cycles Averaged 
16  Acquisitions per Waveform 
10.0806  Updata Rate (Hz) 

#FILE INFORMATION
TRUE -- External MUX Channel results are PARSED.
FALSE -- AC DC and Phase are NOT grouped.
TRUE -- Companion Program Settings File CREATED.
FALSE -- AC data not excluded
FALSE -- DC data not excluded
FALSE -- Phase data not excluded
FALSE -- Auxillary Chn. data not excluded
Tab delimiters

#CALIBRATION STATE
TRUE -- Waveform Calibration Values APPLIED.


#AUX CALIBRATION VALUES
Val Type	aux-1	

Term	1.0000e+00	
Factor	0.0000e+00	


#WF CALIBRATION VALUES
A = Detector Channel
Val Type	A-AC1	A-AC2	A-AC3	A-AC4	A-AC5	A-AC6	A-AC7	A-AC8	A-AC9	A-AC10	A-AC11	A-AC12	A-AC13	A-AC14	A-AC15	A-AC16	A-DC1	A-DC2	A-DC3	A-DC4	A-DC5	A-DC6	A-DC7	A-DC8	A-DC9	A-DC10	A-DC11	A-DC12	A-DC13	A-DC14	A-DC15	A-DC16	A-Ph1	A-Ph2	A-Ph3	A-Ph4	A-Ph5	A-Ph6	A-Ph7	A-Ph8	A-Ph9	A-Ph10	A-Ph11	A-Ph12	A-Ph13	A-Ph14	A-Ph15	A-Ph16	

Term	0.00000e+00	0.00000e+00	0.00000e+00	0.00000e+00	0.00000e+00	0.00000e+00	0.00000e+00	0.00000e+00	0.00000e+00	0.00000e+00	0.00000e+00	0.00000e+00	0.00000e+00	0.00000e+00	0.00000e+00	0.00000e+00	0.00000e+00	0.00000e+00	0.00000e+00	0.00000e+00	0.00000e+00	0.00000e+00	0.00000e+00	0.00000e+00	0.00000e+00	0.00000e+00	0.00000e+00	0.00000e+00	0.00000e+00	0.00000e+00	0.00000e+00	0.00000e+00	0.00000e+00	0.00000e+00	0.00000e+00	0.00000e+00	0.00000e+00	0.00000e+00	0.00000e+00	0.00000e+00	0.00000e+00	0.00000e+00	0.00000e+00	0.00000e+00	0.00000e+00	0.00000e+00	0.00000e+00	0.00000e+00	
Factor	1.00000e+00	1.00000e+00	1.00000e+00	1.00000e+00	1.00000e+00	1.00000e+00	1.00000e+00	1.00000e+00	1.00000e+00	1.00000e+00	1.00000e+00	1.00000e+00	1.00000e+00	1.00000e+00	1.00000e+00	1.00000e+00	1.00000e+00	1.00000e+00	1.00000e+00	1.00000e+00	1.00000e+00	1.00000e+00	1.00000e+00	1.00000e+00	1.00000e+00	1.00000e+00	1.00000e+00	1.00000e+00	1.00000e+00	1.00000e+00	1.00000e+00	1.00000e+00	X	X	X	X	X	X	X	X	X	X	X	X	X	X	X	X	

B = Detector Channel
Val Type	B-AC1	B-AC2	B-AC3	B-AC4	B-AC5	B-AC6	B-AC7	B-AC8	B-AC9	B-AC10	B-AC11	B-AC12	B-AC13	B-AC14	B-AC15	B-AC16	B-DC1	B-DC2	B-DC3	B-DC4	B-DC5	B-DC6	B-DC7	B-DC8	B-DC9	B-DC10	B-DC11	B-DC12	B-DC13	B-DC14	B-DC15	B-DC16	B-Ph1	B-Ph2	B-Ph3	B-Ph4	B-Ph5	B-Ph6	B-Ph7	B-Ph8	B-Ph9	B-Ph10	B-Ph11	B-Ph12	B-Ph13	B-Ph14	B-Ph15	B-Ph16	

Term	0.00000e+00	0.00000e+00	0.00000e+00	0.00000e+00	0.00000e+00	0.00000e+00	0.00000e+00	0.00000e+00	0.00000e+00	0.00000e+00	0.00000e+00	0.00000e+00	0.00000e+00	0.00000e+00	0.00000e+00	0.00000e+00	0.00000e+00	0.00000e+00	0.00000e+00	0.00000e+00	0.00000e+00	0.00000e+00	0.00000e+00	0.00000e+00	0.00000e+00	0.00000e+00	0.00000e+00	0.00000e+00	0.00000e+00	0.00000e+00	0.00000e+00	0.00000e+00	-1.27282e+02	-1.30498e+02	-1.26606e+02	-1.82720e+02	-7.04405e+01	-6.88341e+01	-1.60843e+02	-1.62015e+02	-7.31909e+01	-6.92541e+01	-1.72572e+02	-1.72955e+02	-1.82795e+02	-1.78089e+02	-7.17232e+01	-1.50939e+02	
Factor	1.93131e-05	1.69621e-04	4.86892e-05	1.65898e-01	1.33105e-06	1.92021e-06	1.95781e-01	6.11879e-02	1.30919e-06	1.87107e-06	9.62612e-02	3.22527e-02	2.98245e-02	9.98308e-03	1.50668e-06	1.45378e-02	1.28716e-05	2.34187e-05	6.58817e-06	8.38859e-02	2.30464e-07	2.64030e-07	9.33801e-02	3.11235e-02	2.35691e-07	2.61591e-07	4.74826e-02	1.59974e-02	1.53938e-02	5.11434e-03	2.44169e-07	7.23425e-03	X	X	X	X	X	X	X	X	X	X	X	X	X	X	X	X	



#DISTANCE SETTINGS
A = Detector Channel
A-1	A-2	A-3	A-4	A-5	A-6	A-7	A-8	A-9	A-10	A-11	A-12	A-13	A-14	A-15	A-16	

2.5000e+00	3.0000e+00	2.5000e+00	3.0000e+00	2.0000e+00	3.0000e+00	1.5000e+00	3.0000e+00	3.0000e+00	3.0000e+00	3.0000e+00	3.0000e+00	3.0000e+00	3.0000e+00	1.5000e+00	3.0000e+00	

B = Detector Channel
B-1	B-2	B-3	B-4	B-5	B-6	B-7	B-8	B-9	B-10	B-11	B-12	B-13	B-14	B-15	B-16	

1.0000e+01	1.0000e+01	1.0000e+01	1.4400e+00	1.0000e+01	1.0000e+01	1.5100e+00	1.9400e+00	1.0000e+01	1.0000e+01	1.9900e+00	2.4900e+00	2.4100e+00	2.9000e+00	1.0000e+01	2.9800e+00	




#DATA BEGINS
time	group	step	mark	flag	A-AC1	A-AC2	A-AC3	A-AC4	A-AC5	A-AC6	A-AC7	A-AC8	A-AC9	A-AC10	A-AC11	A-AC12	A-AC13	A-AC14	A-AC15	A-AC16	A-DC1	A-DC2	A-DC3	A-DC4	A-DC5	A-DC6	A-DC7	A-DC8	A-DC9	A-DC10	A-DC11	A-DC12	A-DC13	A-DC14	A-DC15	A-DC16	A-Ph1	A-Ph2	A-Ph3	A-Ph4	A-Ph5	A-Ph6	A-Ph7	A-Ph8	A-Ph9	A-Ph10	A-Ph11	A-Ph12	A-Ph13	A-Ph14	A-Ph15	A-Ph16	B-AC1	B-AC2	B-AC3	B-AC4	B-AC5	B-AC6	B-AC7	B-AC8	B-AC9	B-AC10	B-AC11	B-AC12	B-AC13	B-AC14	B-AC15	B-AC16	B-DC1	B-DC2	B-DC3	B-DC4	B-DC5	B-DC6	B-DC7	B-DC8	B-DC9	B-DC10	B-DC11	B-DC12	B-DC13	B-DC14	B-DC15	B-DC16	B-Ph1	B-Ph2	B-Ph3	B-Ph4	B-Ph5	B-Ph6	B-Ph7	B-Ph8	B-Ph9	B-Ph10	B-Ph11	B-Ph12	B-Ph13	B-Ph14	B-Ph15	B-Ph16	aux-1	digaux	

15377.190	1	1	0	256	0.18174	0.10685	0.12723	0.12119	0.070313	0.14471	0.18969	0.12732	0.31021	0.088135	0.30855	0.16914	0.23041	0.23782	0.026554	0.022607	-2.1729	-3.1021	-2.5375	-2.95	-3.0146	-2.7271	-3.0646	-3.0354	-2.5104	-2.9292	-2.7833	-2.5375	-3.0687	-2.6229	-2.8917	-3.0062	31.474	-25.838	198.466	261.898	24.918	-48.819	1.784	170.227	-47.680	141.829	215.527	262.498	-6.240	181.182	0.327	235.516	0.00010471	0.0005533	6.4498e-05	735.01	5.3458e-06	1.1273e-05	729.87	216.2	5.4684e-06	4.0088e-06	267.19	100.65	78.393	33.316	7.4867e-07	46.236	0.0034517	0.0061843	0.0017408	738.13	6.0312e-05	6.9027e-05	735.62	221.16	6.1816e-05	6.839e-05	272.44	104.02	81.81	34.253	6.4553e-05	47.658	157.998	133.548	-30.256	-58.670	77.735	54.856	-59.948	-53.164	66.331	134.231	-54.271	-49.471	-47.941	-42.769	147.316	-45.639	-8191	255	
15377.311	1	1	0	0	0.4094	0.17293	0.10503	0.32631	0.1158	0.11853	0.059124	0.27848	0.22662	0.1919	0.17207	0.17752	0.20838	0.1543	0.23586	0.18298	-2.1375	-2.9958	-2.5708	-2.6458	-2.9104	-2.4938	-2.9729	-2.9729	-2.5104	-3.0542	-2.8646	-2.7229	-3.0854	-2.6896	-2.9729	-2.8896	86.730	185.350	-5.711	252.874	80.734	64.877	142.794	214.832	161.840	-47.271	174.247	272.179	176.341	225.279	35.611	184.872	0.00018149	0.0004514	0.00010599	736.41	4.1359e-06	8.6111e-06	731.28	218.32	2.6887e-06	2.9922e-06	263.4	99.802	77.964	32.827	9.6345e-06	45.634	0.0035056	0.0062026	0.0017415	738.61	6.0032e-05	6.9453e-05	735.55	222.58	6.1941e-05	6.8643e-05	270.39	103.12	81.578	33.99	6.5485e-05	47.067	196.788	21.402	-39.304	-58.483	187.450	40.134	-59.642	-52.964	173.916	248.603	-54.321	-49.808	-47.921	-42.598	71.200	-45.660	-8191	255	
15377.382	1	1	0	0	0.21615	0.07643	0.15952	0.38522	0.14084	0.035452	0.11593	0.14153	0.12461	0.071699	0.20889	0.17944	0.22073	0.10594	0.07399	0.1474	-2.0083	-3.0021	-2.7812	-2.6813	-2.9708	-2.6875	-2.8583	-3.2062	-2.5187	-2.9188	-2.8771	-2.7333	-3.2021	-2.7729	-2.8375	-3.0646	5.092	127.817	6.420	213.604	272.977	143.203	124.058	175.489	252.158	184.942	-55.306	218.820	222.802	-57.785	265.949	-24.148	0.0001356	0.00093391	0.00011936	734.4	4.0978e-06	3.6788e-06	726.81	218.02	4.175e-06	5.2522e-07	266.32	99.843	78.926	33.038	3.8056e-06	45.549	0.0035379	0.0062545	0.0017611	737.61	6.086e-05	7.0999e-05	733.24	222.41	6.192e-05	6.8539e-05	271.88	103.54	82.168	34.036	6.4818e-05	47.062	131.530	37.903	-9.344	-58.582	130.089	40.643	-59.648	-52.523	70.398	85.647	-54.402	-49.899	-47.905	-42.805	126.384	-45.568	-8191	255	
15377.503	1	1	0	0	0.13928	0.11591	0.22266	0.37499	0.15584	0.055149	0.18363	0.1385	0.12726	0.22727	0.42084	0.16056	0.21149	0.25362	0.18746	0.14871	-2.0583	-2.9917	-2.9354	-2.675	-2.9729	-2.55	-2.8229	-3.2333	-2.5438	-2.9167	-3.2604	-2.7271	-2.9833	-2.6333	-2.7583	-3.0625	250.221	137.041	-2.622	232.255	-5.908	107.303	288.020	48.557	129.185	89.526	-39.812	-51.538	-59.748	152.817	-21.194	288.400	0.00017709	0.00032849	4.4649e-05	736.52	6.3999e-06	7.4048e-06	734.11	218.84	3.4308e-06	1.3404e-05	266.81	101.38	79.009	33.047	2.5094e-06	46.119	0.0036053	0.0062964	0.0017664	738.53	6.0973e-05	7.159e-05	737.35	223.57	6.2975e-05	6.9206e-05	273.93	104.37	82.396	34.186	6.4388e-05	47.413	146.560	95.912	-41.385	-58.688	-27.411	17.813	-59.732	-52.603	-7.935	14.702	-54.645	-49.821	-48.199	-42.938	97.135	-45.403	-8191	255	
15377.599	1	1	0	0	0.17545	0.12513	0.053887	0.027259	0.21906	0.034453	0.15122	0.093048	0.081101	0.10108	0.098176	0.24285	0.21567	0.30729	0.040017	0.30375	-2.1937	-2.9146	-3.1875	-2.5625	-3.125	-2.5979	-2.7542	-3.2854	-2.7208	-2.9333	-3.1479	-2.6021	-3.1167	-2.9313	-2.6854	-3.2479	187.555	241.742	227.852	-34.916	5.702	22.897	206.703	92.959	27.590	61.270	199.557	223.496	222.450	-4.148	11.975	220.637	0.00013299	0.00051636	0.00011392	742.06	7.7006e-06	1.8018e-08	734.66	221.41	3.8081e-06	6.8969e-06	267.71	101.21	78.884	33.173	6.7265e-06	46.284	0.0035997	0.0061524	0.0017422	742.68	6.1047e-05	7.0952e-05	739.33	224.53	6.2549e-05	6.9868e-05	274.5	104.59	82.284	34.248	6.5593e-05	47.51	170.418	100.325	32.803	-58.717	87.769	143.731	-59.317	-53.097	-3.715	-63.448	-54.403	-50.006	-47.579	-42.979	120.566	-45.560	-8191	255	
15377.695	1	1	0	0	0.1691	0.076672	0.19226	0.13561	0.12272	0.15601	0.3841	0.12695	0.1173	0.12719	0.12147	0.17785	0.20415	0.12062	0.090799	0.06269	-2.2271	-2.7583	-3.0542	-2.5729	-3.1	-2.9604	-2.7062	-3.0979	-2.7604	-2.6688	-2.9396	-2.6896	-3.0583	-3.0646	-2.5312	-3.2292	142.863	-70.431	20.229	25.226	207.871	258.480	274.254	163.974	263.439	-58.856	146.229	-62.481	207.851	236.754	178.246	288.773	0.00015577	0.00017464	8.8442e-05	737.81	1.0433e-06	4.351e-06	732.79	219.98	1.3348e-06	1.4918e-05	268.19	101.08	78.59	33.082	5.3309e-06	45.797	0.0035686	0.0062235	0.001739	740.7	6.1269e-05	7.0538e-05	738.61	223.73	6.2379e-05	6.9096e-05	273.52	104.15	82.125	33.997	6.3651e-05	47.175	163.606	280.530	-0.031	-58.649	-0.947	62.061	-59.660	-52.785	53.545	77.202	-54.602	-50.154	-48.040	-42.865	89.503	-45.762	-8191	255	
15377.791	1	1	0	0	0.32791	0.45172	0.17505	0.06161	0.040184	0.080714	0.46055	0.3121	0.12902	0.015124	0.26448	0.22383	0.11685	0.16597	0.1749	0.29817	-2.1479	-2.5854	-2.7958	-2.5646	-2.8417	-3.1437	-2.4938	-3.0083	-2.8333	-2.7958	-3.1875	-2.5312	-2.9437	-2.9667	-2.4833	-3.1958	239.306	101.583	36.159	-65.373	242.155	73.484	212.036	-43.190	28.674	-52.969	168.328	245.098	205.923	255.413	205.685	169.427	0.0001379	0.00029664	0.00016934	738.27	7.7594e-07	5.9298e-06	730.68	220.71	4.016e-06	1.1764e-05	267.57	100.5	78.45	32.888	3.2685e-06	45.335	0.0034991	0.0060698	0.0017175	739.23	6.1444e-05	6.9865e-05	737.69	223.96	6.3107e-05	6.9449e-05	273.43	104.08	81.984	33.993	6.3953e-05	47.101	172.574	282.402	-35.537	-58.735	198.432	96.694	-59.693	-52.944	50.081	92.266	-54.495	-49.855	-47.687	-42.583	78.360	-45.660	-8191	255	
15377.912	1	1	0	0	0.38975	0.30666	0.1679	0.1581	0.10387	0.31576	0.30084	0.21398	0.19525	0.024066	0.053364	0.22181	0.1071	0.2704	0.23894	0.066351	-2.3375	-2.5938	-2.9208	-2.6021	-2.9396	-2.8625	-2.7875	-3.0438	-2.7042	-2.4458	-3.1875	-2.7938	-2.7958	-3.2438	-2.6417	-2.8958	32.820	31.326	-48.881	282.865	177.089	-7.587	91.118	-51.027	209.372	-31.423	206.234	-14.905	278.109	281.303	-5.816	212.498	0.00010237	0.00027488	0.00033553	736.63	1.7003e-06	9.1238e-07	730.46	220.77	3.068e-06	1.6159e-06	266.43	101.58	79.019	33.201	2.1478e-06	46.009	0.0035218	0.0060642	0.0017129	738.89	6.1451e-05	6.8437e-05	737.79	224.48	6.2001e-05	6.8514e-05	274.14	104.6	82.261	34.153	6.481e-05	47.387	164.779	73.405	-24.203	-58.631	50.669	244.018	-59.729	-52.599	95.940	113.409	-54.558	-50.036	-47.836	-42.715	226.852	-45.590	-8191	255	
15377.984	1	1	0	0	0.21376	0.24127	0.18967	0.28343	0.070207	0.19699	0.089832	0.32224	0.25952	0.015305	0.0034816	0.012269	0.15205	0.23552	0.1895	0.18065	-2.4625	-2.6229	-3.0042	-2.7167	-2.6875	-3.1646	-2.6	-3.1	-2.9396	-2.6	-3.2	-2.8312	-2.8667	-3.0083	-2.4813	-2.9729	111.066	165.818	194.998	137.609	256.349	218.427	-58.509	236.649	261.221	10.997	193.784	-10.143	-37.122	288.129	209.816	239.401	0.00011508	0.0005656	0.00010564	742.06	2.0555e-06	5.6262e-06	736.48	222.56	3.5543e-06	3.6579e-06	270.64	102.17	79.397	33.395	8.0623e-06	46.594	0.0035541	0.0061488	0.0017424	742	6.0488e-05	6.7901e-05	740.33	225.76	6.1058e-05	6.7863e-05	276.6	105.48	82.765	34.319	6.332e-05	47.822	175.156	-22.010	-9.312	-58.501	-5.302	82.049	-59.765	-52.456	63.249	-13.348	-54.369	-49.913	-47.778	-42.771	97.867	-45.339	-8191	255	
15378.080	1	1	0	0	0.1134	0.098613	0.09652	0.063804	0.117	0.13468	0.17395	0.049346	0.19176	0.065243	0.077269	0.037512	0.33415	0.088418	0.034024	0.27891	-2.3771	-2.4583	-2.9521	-2.7292	-2.6896	-3.075	-2.7375	-2.8563	-3.0625	-2.3771	-3.1021	-2.7271	-2.7271	-3.1146	-2.7125	-2.9417	-67.954	-9.963	102.402	88.241	265.550	73.190	14.229	-67.314	180.725	-16.773	60.158	271.259	178.575	242.068	-29.314	-46.344	9.0244e-05	0.00065144	9.3311e-05	739.84	1.2416e-06	4.6406e-06	730.91	221.69	7.2122e-06	6.1613e-06	267.95	101.17	78.739	33.093	4.1094e-06	46.162	0.0034805	0.0061019	0.0017186	741.68	6.0273e-05	6.732e-05	737.72	224.59	6.0374e-05	6.7075e-05	273.85	104.3	82.278	34.067	6.2634e-05	47.307	161.822	-42.325	13.164	-58.884	-54.992	120.129	-59.581	-53.008	80.404	86.380	-54.278	-49.562	-47.650	-42.588	26.319	-45.536	-8191	255	
15378.174	1	1	0	0	0.14844	0.18665	0.27223	0.21575	0.29675	0.16163	0.044754	0.12039	0.16153	0.15513	0.20221	0.27329	0.25907	0.17365	0.19161	0.11573	-2.5521	-2.4479	-2.9479	-2.8604	-2.5646	-2.9458	-2.6292	-2.8104	-3.0458	-2.6667	-2.9458	-2.9354	-2.5292	-3.0417	-2.7583	-2.7021	38.768	5.049	-68.605	235.463	193.322	41.819	-18.532	255.160	245.698	242.320	216.137	-21.688	70.585	242.003	142.786	249.365	0.00014885	0.00038289	0.00023842	741.11	1.8413e-06	7.3628e-06	735.73	221.8	2.9778e-06	7.0481e-06	270.51	101.58	79.889	33.171	1.726e-06	46.357	0.0033743	0.0059824	0.0017001	739.83	6.0118e-05	6.7485e-05	740.24	225.55	6.0894e-05	6.7516e-05	276.38	105.1	82.873	34.15	6.2429e-05	47.511	142.712	54.195	-8.994	-58.716	-18.782	76.484	-59.353	-52.741	218.108	62.253	-54.615	-49.991	-48.012	-42.829	209.759	-45.725	-8191	255	
15378.272	1	1	0	0	0.2179	0.083764	0.26811	0.112	0.052878	0.19882	0.24544	0.16934	0.23737	0.15851	0.22154	0.069172	0.11882	0.20414	0.24872	0.14318	-2.5354	-2.6146	-2.9958	-2.9	-2.5667	-3.0812	-2.9271	-2.7812	-3.0479	-2.7438	-2.8021	-2.9646	-2.5396	-3.1479	-2.7708	-2.8292	233.048	143.259	-61.537	288.712	75.154	93.942	212.631	228.318	197.855	0.117	-53.306	255.098	288.691	127.880	179.613	-20.217	0.00018144	0.00063999	0.0001856	743.43	3.9123e-06	7.622e-06	737.71	222.81	3.6826e-06	2.909e-06	271.12	103.09	79.638	33.209	3.2945e-06	46.338	0.0033728	0.0059957	0.0016987	742.6	5.861e-05	6.6381e-05	740.18	226.27	5.9723e-05	6.6649e-05	277.04	105.61	83.114	34.19	6.2566e-05	47.644	175.696	26.167	23.094	-58.334	94.989	14.671	-59.813	-52.689	196.657	84.465	-54.556	-49.849	-47.949	-42.854	239.453	-45.784	-8191	255	
15378.391	1	1	0	0	0.32981	0.17635	0.19247	0.16943	0.040351	0.039394	0.1068	0.042299	0.17317	0.066011	0.22148	0.17524	0.16183	0.02558	0.19927	0.069047	-2.7354	-2.4479	-2.8458	-3.1083	-2.5312	-2.9854	-3.0458	-2.7604	-2.9729	-2.7417	-2.95	-3.0833	-2.6333	-2.9437	-2.7917	-2.7625	221.010	192.413	287.047	101.615	52.145	78.025	203.088	29.887	-25.545	279.208	216.607	198.036	204.764	-16.157	167.947	113.393	0.00018351	0.00056838	0.00014515	739.48	3.5251e-06	3.2578e-06	740.24	222.26	4.2809e-06	6.419e-06	272.43	102.93	79.687	33.452	1.9266e-06	46.603	0.0033854	0.0061099	0.0016996	742.77	5.9401e-05	6.8438e-05	745.69	226.63	6.0548e-05	6.7174e-05	278.35	105.99	83.161	34.321	6.2241e-05	47.802	156.717	-22.444	24.577	-58.875	32.485	130.164	-59.432	-52.781	114.930	26.679	-54.319	-49.529	-48.283	-42.736	-34.722	-45.625	-8191	255	
15378.487	1	1	0	0	0.20433	0.21391	0.15497	0.10725	0.27075	0.18876	0.12536	0.045683	0.13544	0.18876	0.080613	0.10717	0.14331	0.25503	0.16414	0.064334	-2.6875	-2.6333	-2.7167	-3.3125	-2.5771	-3.0521	-2.9833	-2.7021	-3.0833	-2.625	-2.8458	-3.0604	-2.7958	-2.9792	-2.9771	-2.5354	73.435	106.643	281.546	222.041	27.415	-1.238	-5.262	111.230	178.508	238.819	243.619	228.720	216.187	216.895	3.219	219.342	0.00015611	0.00051164	6.7414e-05	747.05	3.4119e-06	1.3332e-05	736.2	223.09	7.5962e-07	1.2678e-05	269.71	101.48	79.495	33.269	5.0917e-06	45.886	0.0033903	0.006062	0.0016826	743.93	5.8197e-05	6.681e-05	742.19	226.5	5.9737e-05	6.639e-05	276.16	105.1	82.848	34.197	6.1681e-05	47.214	196.540	-14.538	85.138	-58.567	81.607	105.639	-59.618	-52.583	-5.257	97.679	-54.477	-49.863	-47.516	-42.995	268.963	-45.705	-8191	255	
15378.583	1	1	0	0	0.27369	0.071587	0.099897	0.32376	0.46502	0.10226	0.065487	0.026524	0.17703	0.18849	0.10103	0.29172	0.24034	0.18653	0.12324	0.040282	-2.6521	-2.6479	-2.8021	-3.0667	-2.6521	-2.9938	-2.9792	-2.5833	-3.0583	-2.8	-2.6396	-2.9896	-2.6208	-2.9021	-2.9104	-2.7292	188.877	206.326	248.672	-29.012	89.992	-63.954	192.124	-19.500	268.794	43.218	252.139	188.414	230.779	221.231	-5.736	-0.822	0.00013812	0.00033174	9.7984e-05	737.2	4.1392e-06	9.1551e-06	731.89	222.63	5.4284e-06	4.1117e-06	270.63	102.53	79.912	33.046	2.6069e-06	46.488	0.0033774	0.0059921	0.0016534	738.97	5.7697e-05	6.7073e-05	739.41	226.14	5.9645e-05	6.5041e-05	276.96	105.38	83.154	34.017	6.1387e-05	47.447	187.327	42.971	288.704	-58.684	82.584	104.464	-59.732	-52.792	111.391	84.306	-54.429	-49.753	-48.075	-42.796	27.844	-45.431	-8191	255	
15378.679	1	1	0	0	0.20594	0.1786	0.20367	0.12466	0.16306	0.13356	0.1265	0.16369	0.30657	0.13244	0.17692	0.13323	0.11066	0.27058	0.058389	0.080407	-2.5708	-2.8896	-2.5104	-3.0625	-2.5687	-2.7729	-3.1	-2.6813	-2.8604	-2.7583	-2.6042	-3	-2.7417	-2.8833	-3.125	-2.5896	223.164	13.830	40.194	226.049	114.770	-60.265	189.171	268.079	202.179	130.347	194.396	-61.198	107.961	278.828	184.759	100.524	0.0001735	0.00054138	0.00033815	740.57	1.46e-06	1.3259e-06	735.78	223.76	2.8101e-06	1.0506e-05	272.69	102.96	80.205	33.332	8.9442e-06	46.525	0.0033342	0.0059067	0.0016392	743.01	5.7458e-05	6.635e-05	743.31	227.25	6.025e-05	6.5904e-05	278.63	106.11	83.345	34.317	6.1833e-05	47.716	153.698	-63.462	21.421	-58.882	100.517	116.691	-59.786	-52.955	64.543	63.247	-54.442	-50.016	-47.634	-42.509	89.819	-45.594	-8191	255	
15378.776	1	1	0	0	0.082687	0.29595	0.20961	0.12783	0.2859	0.17063	0.050862	0.12498	0.14219	0.10129	0.18141	0.054076	0.24109	0.061354	0.17115	0.2968	-2.5521	-2.8438	-2.5875	-3.0521	-2.6146	-2.8625	-2.9688	-2.6021	-2.9813	-2.7313	-2.625	-3.0458	-2.7938	-2.6458	-3.0917	-2.7271	192.325	-34.328	-54.630	210.473	102.116	106.694	92.608	-57.508	-68.522	97.299	-39.631	246.827	242.168	79.415	95.220	160.128	0.00018531	0.00091304	0.00029416	745.65	1.9326e-06	3.6349e-06	737.93	223.18	2.18e-06	1.9828e-06	272.22	102.8	80.103	33.51	5.7149e-06	46.959	0.003392	0.005835	0.0016484	745.26	5.9185e-05	6.7245e-05	743.49	227.57	6.0071e-05	6.6595e-05	278.43	106.26	83.6	34.426	6.2806e-05	48.033	172.253	-14.190	65.829	-58.423	98.881	86.065	-59.627	-52.997	254.743	237.854	-54.372	-49.817	-48.065	-42.743	65.476	-45.417	-8191	255	
15378.872	1	1	0	0	0.23803	0.24254	0.13014	0.1686	0.14424	0.24561	0.21493	0.24505	0.10724	0.23796	0.16321	0.18136	0.26511	0.21679	0.15805	0.097164	-2.2562	-2.8875	-2.375	-3.0021	-2.6792	-2.6937	-3.2708	-2.7979	-2.7521	-2.9813	-2.5896	-2.9688	-2.8375	-2.5417	-3.0729	-2.7458	157.177	212.648	278.547	-1.948	29.887	111.711	67.167	270.571	137.913	89.481	158.861	-5.676	257.404	241.326	47.826	239.651	0.00014454	0.00058228	0.00019	741.88	1.1589e-06	4.288e-06	739.93	221.31	4.1288e-06	4.7182e-06	269.81	102.24	79.265	32.961	2.3605e-06	45.997	0.0034532	0.0060072	0.0017026	744	5.9068e-05	6.7971e-05	742.91	226.13	6.1334e-05	6.6888e-05	276.83	105.44	82.864	33.938	6.3982e-05	47.399	193.414	120.474	37.009	-58.713	-23.995	114.473	-59.658	-52.774	69.335	74.636	-54.393	-49.727	-48.112	-42.977	173.396	-45.703	-8191	255	
15378.992	1	1	0	0	0.089635	0.1498	0.18244	0.37576	0.23252	0.24654	0.050863	0.13969	0.15989	0.4033	0.31926	0.30209	0.19091	0.13707	0.3737	0.15783	-2.5167	-3.0708	-2.4854	-2.9771	-2.8438	-2.5938	-3.0333	-2.5062	-2.6396	-2.9688	-2.7021	-3.15	-2.7687	-2.5042	-3.1375	-2.725	223.119	288.845	276.046	232.193	107.054	146.969	-34.801	128.289	161.952	37.978	279.454	243.024	34.550	283.889	274.547	7.254	0.0001846	0.00036941	3.5499e-05	742.61	4.6759e-06	5.7066e-06	731.78	222.34	3.2995e-06	4.1728e-06	270.99	102.24	80.181	32.964	3.1877e-07	46.062	0.0035373	0.0060454	0.0017189	742.92	6.0213e-05	6.9123e-05	740.03	226.4	6.1446e-05	6.8473e-05	276.91	105.58	83.167	33.991	6.4531e-05	47.337	183.636	66.537	-11.967	-58.575	43.624	102.311	-59.759	-52.791	163.303	118.853	-54.582	-49.793	-47.693	-42.624	55.114	-45.447	-8191	255	
15379.087	1	1	0	0	0.15906	0.12024	0.17276	0.15341	0.26412	0.14764	0.35661	0.048871	0.14378	0.22437	0.10349	0.21042	0.22715	0.11428	0.19024	0.16045	-2.1937	-3.0771	-2.5167	-2.9688	-2.9167	-2.5583	-3.1208	-2.6771	-2.5625	-3.0042	-2.7104	-2.8646	-2.7917	-2.6229	-3.0896	-2.7896	43.424	49.947	230.417	1.814	107.075	120.302	196.437	222.195	-11.002	71.340	279.095	278.522	220.184	261.035	67.745	179.806	0.00011549	0.00083402	0.000102	741.97	2.4269e-06	6.1707e-06	735.14	222.28	4.3224e-06	4.6882e-06	273.19	103.23	79.955	33.214	4.6121e-06	46.452	0.0035613	0.0061479	0.0017556	742.68	6.0007e-05	6.7728e-05	740.57	227.07	5.9673e-05	6.5628e-05	278.56	106.46	83.303	34.089	6.3016e-05	47.589	166.250	25.600	105.577	-58.777	273.254	37.431	-59.488	-52.644	66.735	112.614	-54.358	-49.826	-48.043	-42.660	71.742	-45.497	-8191	255	
15379.183	1	1	0	0	0.16664	0.19192	0.18106	0.14288	0.14215	0.092978	0.1528	0.21993	0.12651	0.20465	0.20458	0.1815	0.13907	0.11628	0.19956	0.18451	-2.25	-2.9146	-2.6104	-2.8917	-3.0625	-2.6833	-3.0708	-2.6917	-2.3729	-3.125	-2.7042	-2.8021	-2.9625	-2.5958	-2.7979	-2.9604	17.175	285.607	23.192	236.510	285.361	206.008	269.522	205.088	73.051	-0.085	-29.279	-42.810	-59.231	42.997	279.674	278.606	0.00013738	0.00040262	7.1549e-05	743.73	6.311e-06	3.1782e-06	741.51	224.84	4.0061e-06	3.9273e-06	276.44	104.43	80.951	33.48	3.6458e-06	46.901	0.0034731	0.0060154	0.0016994	745.06	5.888e-05	6.6846e-05	745.31	228.55	5.8244e-05	6.4247e-05	281.32	107.49	84.092	34.274	6.0842e-05	47.979	191.875	42.135	16.915	-58.439	-48.001	25.501	-59.625	-52.800	49.617	66.863	-54.532	-50.040	-47.463	-42.912	103.988	-45.806	-8191	255	
15379.279	1	1	0	0	0.29829	0.08384	0.11453	0.16796	0.076888	0.14284	0.23032	0.089561	0.14869	0.2695	0.10615	0.18871	0.40214	0.12276	0.23241	0.11483	-2.1333	-3.0563	-2.5333	-2.7979	-2.9271	-2.6562	-2.8104	-2.9625	-2.4813	-3.1417	-2.7979	-2.825	-2.9854	-2.5354	-2.8125	-2.9229	71.045	165.258	184.854	-11.397	137.729	85.996	205.110	200.629	145.023	245.497	-18.076	139.052	-53.233	217.175	-32.746	272.483	4.6301e-05	0.00045352	7.0613e-05	746.99	3.7267e-06	5.1077e-06	744.23	225.18	4.7793e-06	3.7419e-06	274.98	104.17	80.2	33.029	4.4012e-06	46.048	0.0033339	0.0058474	0.0016826	746.37	5.8519e-05	6.6197e-05	746.75	228.73	5.9628e-05	6.6292e-05	279.94	107.04	83.59	34.066	6.1648e-05	47.383	167.316	2.475	132.568	-58.669	43.023	117.284	-59.608	-52.592	43.538	46.970	-54.643	-49.860	-47.787	-42.891	62.771	-45.361	-8191	255	
15379.375	1	1	0	0	0.14496	0.18233	0.045704	0.24522	0.18361	0.20677	0.089595	0.082993	0.10243	0.18351	0.27763	0.11969	0.052925	0.079136	0.1252	0.17054	-1.9292	-2.9021	-2.6021	-2.775	-3.0917	-2.55	-3.0229	-3.0812	-2.4375	-3.05	-2.8667	-2.7833	-3.0708	-2.7833	-2.8458	-3.2542	111.730	149.013	-37.225	244.921	196.565	190.589	230.942	107.712	56.649	63.319	-48.346	236.993	169.705	116.529	222.340	173.828	0.00014481	0.00092336	9.3482e-05	745.87	9.2128e-07	5.2379e-06	741.46	224.85	6.8628e-06	1.4845e-05	275.45	104.07	80.49	33.14	4.4552e-06	46.224	0.0034024	0.0060159	0.0016953	743.68	5.9235e-05	6.7428e-05	743.81	228.8	5.9199e-05	6.6242e-05	280.41	107.01	83.917	34.161	6.1169e-05	47.498	140.224	24.005	126.161	-58.573	106.228	87.235	-59.431	-53.091	119.212	74.329	-54.450	-50.102	-47.832	-42.846	42.444	-45.483	-8191	255	
15379.471	1	1	0	0	0.28976	0.16403	0.22655	0.081295	0.073656	0.34019	0.10412	0.24478	0.20058	0.14635	0.074702	0.097633	0.15576	0.30023	0.17689	0.13024	-2.2396	-2.8688	-2.9333	-2.5583	-3.0938	-2.7625	-2.7562	-2.9146	-2.5438	-2.9208	-3.0042	-2.8063	-3.1583	-2.8396	-2.9896	-3.2125	-66.279	132.457	165.946	285.048	-36.053	53.702	196.268	258.503	108.728	-4.597	221.866	89.802	-16.481	287.928	135.953	258.743	0.00013046	0.00040025	0.00023958	744.5	1.8544e-06	4.069e-06	744.04	225.42	3.9432e-06	2.7305e-06	276.87	104.52	81.564	33.469	5.1358e-06	46.315	0.0033069	0.00584	0.0016345	744.3	5.7673e-05	6.5612e-05	746.96	229.39	5.8932e-05	6.5068e-05	282.07	107.65	84.464	34.278	6.1645e-05	47.708	170.064	225.034	61.286	-58.562	269.599	121.803	-59.647	-52.807	-70.532	253.614	-54.589	-49.931	-48.151	-42.671	69.016	-45.397	-8191	255	
15379.567	1	1	0	0	0.14705	0.055572	0.22066	0.055904	0.13761	0.20201	0.28783	0.3123	0.14036	0.031641	0.1143	0.15234	0.31499	0.057579	0.22938	0.2199	-2.1437	-2.8208	-2.9667	-2.6833	-3.1375	-2.9083	-2.7479	-3.0021	-2.5146	-2.7875	-2.9313	-2.6625	-2.9833	-2.8479	-2.7938	-3.1292	-30.420	-36.260	-34.589	64.339	260.935	132.172	225.484	244.490	99.441	69.860	169.851	1.381	216.238	64.777	-65.920	261.366	0.0001095	0.00029037	0.00020609	745.47	6.379e-06	5.6144e-06	745.76	225.75	2.7273e-06	1.9316e-06	276.95	105.75	81.693	33.319	7.0673e-06	46.894	0.0033321	0.00588	0.0016335	745.94	5.7473e-05	6.4571e-05	749.16	229.41	5.7904e-05	6.3621e-05	282.76	108.36	84.547	34.311	5.9801e-05	47.957	176.338	65.341	58.154	-58.361	98.474	88.699	-59.574	-52.729	136.624	225.004	-54.461	-49.415	-47.636	-42.884	88.152	-45.328	-8191	255	
15379.688	1	1	0	0	0.32838	0.18577	0.16617	0.26056	0.31577	0.097363	0.21524	0.17365	0.089999	0.18134	0.1815	0.18584	0.14912	0.15084	0.095795	0.13768	-2.2438	-2.7583	-2.9562	-2.5396	-2.9958	-2.8167	-2.7792	-3.0083	-2.675	-2.7542	-3.0021	-2.7417	-3.0708	-3.0062	-2.6083	-3.0646	284.387	85.187	70.409	231.471	265.746	188.277	121.218	213.736	-52.948	-54.477	215.325	-63.887	162.226	76.897	150.200	229.615	0.00016456	0.00041493	0.00011584	747.16	2.2289e-06	4.1409e-06	740.88	226.54	3.4485e-06	5.2809e-06	278.24	104.82	81.877	33.274	5.2262e-06	46.742	0.0032956	0.0058842	0.0016029	747.02	5.6749e-05	6.5198e-05	746.99	230.01	5.7496e-05	6.2134e-05	282.66	108.1	84.571	34.254	5.842e-05	47.793	148.103	1.104	270.246	-58.805	119.519	165.742	-59.907	-52.887	9.300	72.530	-54.598	-49.655	-48.010	-42.881	197.050	-45.346	-8191	255	
15379.784	1	1	0	0	0.067669	0.086786	0.022924	0.071309	0.13891	0.19346	0.081265	0.15085	0.098937	0.2413	0.05934	0.12841	0.095926	0.1015	0.041812	0.12347	-2.1354	-2.8083	-2.925	-2.5187	-2.9521	-2.9333	-2.5521	-3.0604	-2.6375	-2.5812	-3.2083	-2.5021	-2.9167	-2.9896	-2.675	-3.2146	88.995	140.241	-53.098	204.500	197.638	158.073	253.378	249.270	61.873	6.237	198.362	267.728	265.610	-69.504	-21.132	-59.561	0.00021485	0.0005857	0.00015721	745.59	5.293e-06	7.4908e-06	741.78	225.96	4.9422e-06	5.9966e-06	276.73	104.95	81.555	33.354	5.5256e-06	46.776	0.0031978	0.0056128	0.0015631	745.02	5.5695e-05	6.3845e-05	745.34	229.93	5.7275e-05	6.3007e-05	282.19	108.03	84.802	34.311	5.7476e-05	47.873	163.548	12.059	1.847	-58.714	62.311	69.649	-59.808	-52.632	70.867	88.047	-54.617	-49.922	-47.903	-42.940	127.472	-45.763	-8191	255	
15379.880	1	1	0	0	0.098662	0.19274	0.142	0.38367	0.3068	0.33188	0.30437	0.098277	0.13071	0.26141	0.34769	0.25132	0.15099	0.19078	0.051325	0.16175	-2.3396	-2.5438	-3.0792	-2.6604	-2.85	-3.0625	-2.7167	-3.0792	-2.8042	-2.7771	-3.3583	-2.525	-3	-3.0042	-2.6417	-3.1312	93.549	214.460	30.703	262.261	112.658	228.506	198.513	-3.421	52.152	-21.198	257.024	-52.357	-60.455	215.266	77.029	286.820	0.00012146	0.0001356	0.00012445	746.32	2.0049e-06	2.4263e-06	743.19	227.12	2.4184e-06	5.9435e-06	278.56	105.21	81.89	33.623	4.6885e-06	46.859	0.0031442	0.0055189	0.0015271	745.19	5.4634e-05	6.243e-05	747.63	229.93	5.6963e-05	6.1155e-05	283.18	108.25	84.978	34.345	5.8379e-05	48.006	159.976	56.572	-18.264	-58.416	101.139	-25.634	-59.596	-52.655	242.535	99.318	-54.495	-49.932	-47.816	-42.928	90.242	-45.119	-8191	255	
15379.952	1	1	0	0	0.19232	0.25506	0.11163	0.11307	0.12183	0.22506	0.15493	0.17778	0.13581	0.16125	0.24851	0.13009	0.26257	0.029971	0.32078	0.11655	-2.1167	-2.6125	-3.1396	-2.7104	-2.8063	-2.9583	-2.7583	-3.1521	-2.7125	-2.5458	-3.0625	-2.7375	-2.7104	-2.9875	-2.5187	-2.9271	-42.133	2.460	277.426	58.303	151.820	111.529	167.061	248.829	153.158	20.977	155.338	281.711	217.660	234.569	7.155	84.430	0.00016172	0.00049473	0.00019022	747.54	3.7182e-06	4.7862e-06	747.56	228.15	4.7538e-06	6.5504e-06	279.44	106.14	82.378	33.662	4.3752e-06	46.827	0.0031645	0.0055447	0.0015258	746.77	5.4163e-05	6.1074e-05	749.74	230.57	5.5811e-05	6.006e-05	283.77	108.81	85.088	34.475	5.6886e-05	48.033	180.533	39.975	0.458	-58.550	70.488	61.637	-59.326	-52.822	40.506	39.231	-54.493	-49.672	-47.960	-42.606	55.462	-45.537	-8191	255	
15380.071	1	1	0	0	0.3278	0.067382	0.11393	0.12633	0.15546	0.21511	0.10685	0.039429	0.16	0.28562	0.19106	0.15597	0.17593	0.016707	0.18011	0.40064	-2.2958	-2.575	-2.9688	-2.7792	-2.5083	-2.9354	-2.45	-2.9188	-2.8125	-2.4417	-3.2	-2.85	-2.9167	-3.0167	-2.5875	-2.8896	68.160	-48.347	139.709	148.425	270.504	243.589	-63.791	-35.182	-6.818	205.337	196.405	-26.251	168.739	15.310	207.170	229.772	0.00019382	0.00019359	0.00015578	747.4	2.6201e-06	2.7491e-06	744.6	227.03	5.7303e-06	7.6081e-06	276.84	105.14	81.618	33.099	6.5783e-06	46.466	0.003144	0.0053716	0.0015083	747.63	5.3655e-05	6.0812e-05	747.41	229.36	5.3444e-05	5.8865e-05	281.47	107.74	84.468	34.072	5.5054e-05	47.354	161.194	250.312	-15.469	-58.539	57.636	65.383	-59.483	-52.857	87.264	99.150	-54.817	-49.873	-47.870	-42.792	117.650	-45.375	-8191	255	
15380.167	1	1	0	0	0.25859	0.16899	0.045318	0.10879	0.13978	0.12979	0.063823	0.17413	0.20622	0.15493	0.1674	0.22632	0.24609	0.16997	0.17351	0.088618	-2.3646	-2.5896	-2.9896	-2.9354	-2.5792	-2.9875	-2.5375	-2.8708	-3.0792	-2.5667	-3.0208	-2.9	-2.7521	-3.1125	-2.6979	-2.8458	-56.269	128.557	-9.414	247.925	175.521	159.228	284.219	213.797	233.911	117.094	140.673	-65.242	27.950	276.876	77.915	136.747	0.00014388	0.00042775	0.00016282	745.47	2.8149e-06	1.3048e-06	739.73	225.15	2.9961e-06	5.2315e-06	277.8	104.99	81.146	33.45	2.814e-06	46.311	0.0029958	0.0052451	0.0014608	743.43	5.0073e-05	5.694e-05	741.35	228.52	5.2266e-05	5.7086e-05	280.94	107.4	84.141	34.102	5.3494e-05	47.24	151.802	72.087	48.356	-58.709	91.259	226.728	-59.864	-52.607	15.331	123.007	-54.664	-49.914	-48.112	-42.983	55.802	-45.496	-8191	255	
15380.263	1	1	0	0	0.094771	0.21237	0.32991	0.4063	0.25776	0.08021	0.0646	0.29808	0.10082	0.16843	0.26543	0.19051	0.033339	0.17154	0.25628	0.27023	-2.6063	-2.5687	-2.9188	-2.7583	-2.5938	-3.0875	-2.7854	-2.5271	-2.9896	-2.6146	-3.0583	-2.6958	-2.3229	-2.9146	-2.8396	-2.775	53.626	137.855	-61.212	264.996	146.986	111.984	223.297	228.609	175.892	-53.488	229.778	185.200	-43.274	143.184	-5.764	253.258	0.00010383	8.8582e-05	4.4722e-05	746.1	1.0199e-06	4.2833e-06	743.49	226.56	1.4601e-06	5.5207e-06	275.86	105.18	81.608	33.254	3.8842e-06	46.412	0.0029137	0.0050335	0.0014395	742.28	4.957e-05	5.7064e-05	743.34	228.61	5.0287e-05	5.6631e-05	280.23	107.43	84.179	34.054	5.4298e-05	47.273	173.921	52.654	90.863	-58.750	116.414	-65.124	-59.554	-52.685	66.658	69.109	-54.539	-49.928	-48.144	-42.758	163.671	-45.419	-8191	255	
15380.384	1	1	0	0	0.26742	0.17953	0.077084	0.19987	0.11506	0.027392	0.16494	0.19772	0.13812	0.10671	0.1606	0.043205	0.054026	0.080477	0.068311	0.24222	-2.3542	-2.6271	-2.8375	-2.8958	-2.5208	-3.0458	-2.8979	-2.6542	-2.9062	-2.6875	-2.8875	-2.8292	-2.6479	-3.0021	-2.8354	-2.7021	131.712	237.230	221.313	-57.001	52.355	253.177	140.311	181.090	227.074	-13.194	-41.111	287.426	157.612	266.411	249.827	-11.205	0.00011788	0.0009298	0.0001538	746.92	2.288e-06	5.2518e-06	744.22	225.95	3.2455e-06	5.0028e-06	277.65	105.54	81.99	33.269	3.8127e-06	46.322	0.0029687	0.0051006	0.0014656	742.64	4.9714e-05	5.8199e-05	744.7	228.97	5.0138e-05	5.6706e-05	280.64	107.84	84.071	34.066	5.2679e-05	47.355	150.669	29.893	40.474	-58.722	114.420	18.178	-59.713	-52.935	88.163	64.818	-54.814	-49.981	-47.797	-42.830	70.434	-45.411	-8191	255	
15380.480	1	1	0	0	0.066677	0.14033	0.11175	0.175	0.038298	0.15875	0.17815	0.052052	0.067835	0.10086	0.28115	0.2622	0.11126	0.13573	0.22428	0.17003	-2.6958	-2.6583	-2.7729	-3.0438	-2.6958	-2.9833	-2.8229	-2.6562	-3.0771	-2.5854	-2.9292	-2.9	-2.4979	-2.9	-2.8833	-2.4646	180.380	228.407	9.404	152.346	69.788	177.133	118.720	150.520	169.306	59.963	-46.106	-59.789	167.812	221.318	157.595	35.836	0.00011481	0.00021548	0.00019392	745.65	3.0317e-06	4.577e-06	741.74	225.71	2.2126e-06	3.7337e-06	275.43	103.97	80.992	32.806	5.1898e-06	46.06	0.0029106	0.005142	0.0014462	742.99	5.0782e-05	5.6518e-05	742.32	227.68	5.0805e-05	5.7135e-05	279.5	106.71	83.763	33.745	5.3084e-05	46.892	167.770	252.808	34.112	-58.759	100.235	117.087	-60.007	-52.856	55.530	105.303	-54.640	-49.854	-47.839	-42.715	52.978	-45.418	-8191	255	
15380.552	1	1	0	0	0.11907	0.044691	0.056943	0.24367	0.17575	0.14318	0.19211	0.21977	0.075113	0.19247	0.14634	0.16869	0.08817	0.19334	0.16736	0.26032	-2.5125	-2.525	-2.8271	-2.9542	-2.525	-3.1542	-2.8854	-2.7938	-2.9313	-2.8187	-2.8	-2.95	-2.5375	-2.8187	-2.8021	-2.6896	-30.736	120.403	209.651	220.468	148.495	-48.488	214.388	234.248	-9.009	65.416	-8.671	233.522	115.079	155.924	231.163	218.376	9.746e-05	0.00048686	0.00012688	742.39	2.082e-06	1.0964e-06	735.31	224.88	4.2519e-06	2.1669e-06	275.72	104.12	81.745	32.967	5.6413e-06	45.877	0.0029065	0.0050414	0.0014159	740.2	5.0038e-05	5.6895e-05	739.29	227.51	5.105e-05	5.6831e-05	279.36	106.97	84.103	33.87	5.3383e-05	47.031	147.853	-14.752	1.595	-58.854	38.331	262.881	-59.793	-52.748	12.323	66.998	-54.756	-50.021	-48.103	-43.097	114.645	-45.526	-8191	255	
15380.672	1	1	0	0	0.18945	0.069274	0.20652	0.063774	0.10615	0.13216	0.054548	0.13624	0.14441	0.2298	0.12512	0.25947	0.081562	0.38777	0.15715	0.22494	-2.65	-2.7687	-2.7479	-3.2125	-2.5771	-2.9458	-2.9333	-2.5667	-3.1375	-2.8729	-2.6333	-3.2292	-2.7146	-2.8375	-2.8792	-2.725	68.368	106.320	-69.419	-50.246	279.169	-10.601	-22.901	118.172	231.862	-40.990	285.836	267.673	110.700	228.531	-34.203	213.848	0.00017188	0.00066443	0.000186	741.74	3.1798e-06	5.4256e-06	743.1	224.43	5.3687e-06	6.3794e-06	277.01	105.02	81.67	33.198	1.9807e-06	46.276	0.002987	0.0051517	0.0014416	739.4	5.104e-05	5.7936e-05	742.76	227.83	5.1558e-05	5.7649e-05	280.44	107.44	84.219	34.034	5.4181e-05	47.264	159.328	50.423	34.509	-58.715	-10.657	7.504	-59.569	-52.844	138.141	-26.755	-54.651	-50.099	-47.834	-42.830	81.632	-45.423	-8191	255	
15380.768	1	1	0	0	0.25499	0.10353	0.097218	0.2441	0.10802	0.22815	0.15036	0.11277	0.15672	0.16675	0.067865	0.097499	0.18827	0.29697	0.22457	0.061712	-2.475	-2.8479	-2.6125	-3.0917	-2.8333	-2.7104	-3.0729	-2.7521	-2.8771	-2.9042	-2.6292	-3.1813	-2.7062	-2.7604	-2.9792	-2.7687	269.078	-70.190	230.207	-55.460	192.389	83.260	130.714	217.737	54.195	235.552	161.174	232.128	131.743	258.330	131.670	148.813	0.00010829	0.00074216	8.5853e-05	743.71	8.2787e-07	9.0546e-06	739.02	226.53	1.1335e-06	3.4871e-06	279.15	106.3	81.327	33.324	4.0664e-06	46.489	0.0030365	0.0052688	0.0014612	743.02	5.2836e-05	5.8956e-05	746.24	229.87	5.387e-05	5.8147e-05	282.86	108.33	84.646	34.21	5.5019e-05	47.63	156.209	19.291	-13.377	-58.869	263.893	62.329	-59.883	-52.863	-50.124	-14.146	-54.362	-50.084	-48.091	-42.686	-5.212	-45.347	-8191	255	
15380.865	1	1	0	0	0.21242	0.081571	0.16145	0.12011	0.099356	0.2424	0.20533	0.17038	0.073638	0.062848	0.21777	0.18968	0.067051	0.16106	0.15202	0.21325	-2.2583	-2.9896	-2.6229	-2.8125	-2.7542	-2.7313	-3.1625	-2.8167	-2.8604	-2.9896	-2.6083	-3.0729	-2.7417	-2.6688	-3.0146	-2.6542	-31.871	56.657	78.008	282.985	250.399	110.497	136.242	221.410	273.821	268.110	211.944	14.252	231.497	242.796	132.856	232.949	0.00013031	0.00039303	0.00021899	748.51	7.9186e-06	7.976e-06	742.61	226.38	4.3963e-06	1.2801e-05	275.08	105.01	82.088	33.461	1.4579e-06	45.979	0.0030027	0.0053013	0.0015004	746.07	5.1849e-05	5.9195e-05	746.49	229.6	5.4e-05	5.8454e-05	280.79	107.58	84.471	34.234	5.4916e-05	47.26	156.636	216.036	90.336	-58.653	188.732	76.372	-59.607	-52.955	105.004	54.011	-54.736	-49.881	-47.687	-42.803	40.279	-45.440	-8191	255	
15380.985	1	1	0	0	0.16746	0.16543	0.201	0.24493	0.21653	0.26799	0.033792	0.059593	0.10233	0.11466	0.24286	0.27339	0.17299	0.19148	0.085182	0.24086	-2.2542	-2.8021	-2.3542	-3.0271	-2.9	-2.6125	-3.1333	-2.7396	-2.7917	-3.0958	-2.6125	-3.0625	-2.6312	-2.6104	-2.9792	-2.6271	221.378	174.592	136.255	-34.303	36.600	40.366	42.152	194.405	-56.117	33.129	186.449	219.009	152.856	22.317	243.569	267.957	0.00012279	0.00084637	0.00019431	745.83	1.1801e-06	6.2845e-06	737.27	225.72	1.7772e-06	4.7564e-06	275.99	104.27	81.585	33.21	5.6605e-06	46.074	0.0030708	0.0053514	0.0014884	743.13	5.3637e-05	5.9752e-05	741.43	228.37	5.5192e-05	5.927e-05	280.25	107.23	84.356	34.095	5.6281e-05	47.252	167.548	-29.397	-7.071	-58.393	219.593	177.943	-59.361	-52.649	164.099	157.307	-54.695	-49.910	-47.970	-42.634	168.160	-45.629	-8191	255	
15381.081	1	1	0	0	0.054267	0.17086	0.046818	0.29621	0.13393	0.18879	0.2419	0.2395	0.14894	0.21085	0.15682	0.10554	0.23978	0.27135	0.11379	0.12677	-2.1104	-2.9771	-2.5021	-2.9813	-2.7958	-2.6104	-3.1562	-2.6354	-2.7271	-2.9	-2.5812	-2.8583	-2.8979	-2.7583	-3.0333	-2.8604	280.724	-63.867	-15.925	258.582	36.626	-58.008	201.256	-69.332	71.200	81.039	189.585	206.549	278.108	257.800	66.077	-12.654	0.00015117	0.00056008	9.0316e-05	741.84	2.8569e-06	9.7681e-06	735.9	225.57	1.4076e-06	8.0664e-06	276.09	104.98	81.671	33.277	4.5505e-06	46.277	0.0031433	0.0054942	0.0015341	742.89	5.4022e-05	6.1347e-05	743.14	228.86	5.5607e-05	6.1054e-05	280.56	107.67	84.717	34.183	5.8488e-05	47.472	183.151	121.827	0.068	-58.870	51.318	78.713	-59.866	-52.892	111.502	26.271	-54.622	-49.835	-47.583	-43.051	170.172	-45.429	-8191	255	
15381.151	1	1	0	0	0.11343	0.14379	0.089046	0.2673	0.18128	0.18385	0.16715	0.27871	0.20113	0.1078	0.21601	0.25443	0.20841	0.20568	0.095455	0.27125	-2.15	-2.9	-2.6292	-2.7812	-2.9938	-2.6104	-3.1917	-2.6875	-2.5729	-3.2083	-2.7812	-2.8563	-3.0771	-2.5042	-2.9896	-3.0708	12.673	70.106	162.636	233.638	226.489	176.178	204.467	218.694	166.476	49.771	211.598	98.892	-28.847	247.864	-28.715	236.195	0.00012604	0.00079699	0.00030194	744.89	2.2856e-06	3.2914e-06	741.29	226.44	4.9935e-06	5.0442e-06	277.44	105.09	82.173	33.424	2.5961e-06	46.744	0.0031513	0.0055162	0.0015471	744.2	5.3921e-05	6.2734e-05	746.73	229.51	5.6473e-05	6.0732e-05	282.25	108.13	84.936	34.342	5.8376e-05	47.811	178.881	48.119	-11.896	-58.729	124.439	120.862	-59.661	-52.901	40.600	134.308	-54.757	-50.092	-47.716	-43.005	116.263	-45.293	-8191	255	
15381.247	1	1	0	0	0.068772	0.23529	0.40308	0.27386	0.13068	0.34651	0.24969	0.12015	0.15984	0.10741	0.32704	0.19417	0.13742	0.097574	0.098678	0.10839	-2.3375	-2.8521	-2.5938	-2.8333	-2.8708	-2.5938	-2.9875	-2.7646	-2.6375	-3.075	-2.6604	-2.7729	-2.9188	-2.6292	-2.8917	-2.8812	75.362	59.135	65.701	-26.974	119.936	31.519	226.376	-37.398	234.332	118.965	225.308	277.336	-47.849	-67.247	-21.576	-69.924	0.00023469	0.0011504	4.3432e-05	745.29	6.2639e-06	3.3349e-06	742.18	224.84	4.0596e-06	7.618e-06	275.88	104.28	81.44	33.143	3.1222e-06	46.041	0.0031971	0.0055684	0.0015796	745.41	5.4524e-05	6.4002e-05	746.39	228.9	5.5643e-05	6.1805e-05	281.34	107.43	84.391	34.055	5.9738e-05	47.281	164.777	24.303	183.149	-58.721	61.152	167.770	-59.804	-52.951	51.172	24.836	-54.301	-49.854	-48.072	-42.412	275.566	-45.476	-8191	255	
15381.368	1	1	0	0	0.14272	0.11878	0.10207	0.3424	0.099244	0.11011	0.32362	0.164	0.27913	0.256	0.15189	0.11057	0.29145	0.22731	0.21336	0.10094	-2.1583	-3.1292	-2.6688	-2.7687	-2.8917	-2.5687	-2.8417	-2.7542	-2.4708	-3.15	-2.6708	-2.9604	-2.9396	-2.5542	-2.7229	-2.8854	67.818	229.042	-68.605	-60.085	261.364	-55.789	278.178	161.995	-61.439	233.076	27.017	-3.421	220.729	74.300	46.564	229.558	9.5555e-05	0.00052254	0.00012506	739.86	4.414e-06	8.0816e-06	738.29	224.97	3.4203e-06	4.8489e-06	275.17	104.54	81.369	33.229	1.412e-06	46.171	0.0032417	0.0055588	0.0015622	741.57	5.4026e-05	6.3442e-05	742.64	228.18	5.5583e-05	6.2551e-05	279.7	107.14	84.372	34.127	5.9467e-05	47.269	167.096	-2.122	-30.067	-58.834	-33.965	87.673	-59.751	-52.622	53.972	112.777	-54.611	-49.951	-47.775	-42.687	65.636	-45.456	-8191	255	
15381.464	1	1	0	0	0.2523	0.19322	0.15692	0.1669	0.33913	0.19087	0.20563	0.087833	0.055765	0.30922	0.15444	0.14799	0.16531	0.17211	0.15189	0.060146	-2.0625	-2.9208	-2.75	-2.6937	-3.0854	-2.7229	-3.0125	-2.8708	-2.4813	-2.9729	-2.8917	-2.6458	-3.0312	-2.7646	-2.9062	-2.9667	143.506	210.507	129.385	281.318	211.295	-39.772	237.505	186.177	13.421	93.777	-59.973	176.184	50.474	278.817	118.037	-18.579	0.00016161	3.3235e-05	0.00018031	742.87	1.2987e-06	6.7565e-06	736.55	225.46	2.6106e-06	4.4813e-06	275.87	104.47	81.274	33.357	3.6854e-06	46.328	0.0032181	0.0056111	0.0015971	744.19	5.5802e-05	6.4576e-05	742.58	228.56	5.7186e-05	6.3199e-05	280.98	107.41	84.37	34.169	6.0368e-05	47.419	151.265	18.986	39.869	-58.588	76.645	60.921	-59.800	-52.963	136.214	17.568	-54.532	-49.638	-47.816	-42.693	-22.726	-45.558	-8191	255	
15381.560	1	1	0	0	0.24121	0.27411	0.16727	0.27958	0.13928	0.16131	0.23335	0.11657	0.082365	0.20068	0.14931	0.31424	0.11139	0.19696	0.22593	0.076061	-2.1104	-2.9042	-2.8396	-2.7104	-3.0979	-2.75	-2.9271	-3.0167	-2.4896	-2.8333	-2.9229	-2.5875	-2.975	-2.6333	-2.7146	-2.8979	198.631	270.041	160.987	-70.021	165.164	-16.584	-67.732	189.780	269.347	251.432	241.779	238.011	101.181	189.215	160.104	256.117	0.00011489	0.00028374	0.00016442	745.85	1.6356e-06	9.2198e-06	742.58	224.77	8.0683e-07	6.7691e-06	274.63	104.88	81.199	33.044	4.852e-06	46.089	0.0033145	0.0057626	0.0016266	743.72	5.7154e-05	6.6178e-05	745.47	228.26	5.7908e-05	6.5367e-05	280.11	107.26	84.409	34.067	5.9855e-05	47.091	146.236	197.039	58.980	-58.769	6.962	11.477	-59.555	-52.875	174.304	99.285	-54.707	-50.000	-47.892	-42.851	96.352	-45.440	-8191	255	
15381.657	1	1	0	0	0.06603	0.17033	0.16013	0.33364	0.18625	0.15506	0.11092	0.15817	0.25584	0.007949	0.24072	0.12335	0.037631	0.052554	0.13609	0.18831	-2.1125	-3.0812	-2.7417	-2.5646	-2.9229	-2.6875	-2.7687	-3.0521	-2.6208	-2.9896	-2.85	-2.725	-3.0625	-2.8625	-2.5229	-2.9917	-51.012	-17.793	9.062	272.810	67.441	245.717	-64.587	274.334	202.208	-55.777	142.593	22.947	71.973	154.246	83.791	129.471	8.5003e-05	0.00045205	0.00012386	742.98	6.7062e-06	1.1378e-05	739.1	225.4	3.0695e-06	6.0723e-06	276.55	104.46	80.781	33.247	1.9204e-06	46.089	0.0032586	0.005754	0.0016205	742.55	5.7165e-05	6.4594e-05	744.08	228.84	5.7924e-05	6.5088e-05	281.47	107.59	84.388	34.213	5.9709e-05	47.361	194.871	42.617	-19.405	-58.500	80.248	10.836	-59.487	-52.545	53.554	78.895	-54.633	-49.789	-47.801	-42.877	125.735	-45.450	-8191	255	
15381.777	1	1	0	0	0.11819	0.23185	0.044339	0.13461	0.16621	0.065652	0.070264	0.023531	0.15973	0.31147	0.03629	0.08993	0.15293	0.18866	0.10368	0.16327	-2.0625	-2.7042	-3.0042	-2.7271	-2.9333	-2.725	-2.7062	-3.2083	-2.7438	-2.8396	-2.9667	-2.6937	-2.9562	-2.6937	-2.5521	-3.2062	238.210	72.168	238.990	195.526	137.847	234.454	-35.534	145.457	-17.145	149.677	68.543	54.338	98.204	-55.159	-64.711	209.490	0.00012916	0.00038854	0.00014581	741.3	3.0364e-06	9.7638e-06	742.56	226.9	1.8431e-06	5.6952e-06	276.75	104.72	81.474	33.614	3.1895e-06	46.496	0.0032758	0.0056897	0.0015998	741.98	5.671e-05	6.4198e-05	745.57	229.51	5.7796e-05	6.4179e-05	281.4	107.76	84.538	34.436	5.8947e-05	47.754	141.715	-31.887	46.509	-58.593	-54.298	127.447	-59.801	-52.820	-23.158	37.588	-54.982	-49.755	-47.469	-42.901	13.516	-45.236	-8191	255	
15381.849	1	1	0	0	0.12587	0.21431	0.067797	0.23267	0.022489	0.1181	0.34253	0.036237	0.14062	0.20148	0.26438	0.20094	0.23042	0.090172	0.20112	0.20698	-2.0521	-2.675	-2.8917	-2.5229	-2.975	-2.7021	-2.7313	-3.1562	-2.4458	-2.9375	-3.0479	-2.7229	-3.1167	-2.85	-2.7229	-3.2	158.447	139.833	-11.517	89.187	-67.782	99.855	271.219	234.970	7.724	119.612	185.831	231.786	188.023	135.786	281.079	273.778	0.00012202	0.0009827	0.00023911	744.02	4.5813e-06	1.0112e-05	743.43	227.13	6.4572e-06	6.32e-06	280.28	105.41	81.886	33.921	3.2437e-06	47.027	0.0033527	0.005779	0.0016151	743.93	5.7281e-05	6.4936e-05	749.09	229.68	5.8798e-05	6.527e-05	283.59	108.69	85.067	34.66	5.9808e-05	48.146	149.211	-12.998	-31.439	-58.686	107.161	136.267	-59.644	-53.132	94.733	64.740	-54.677	-49.929	-47.950	-42.898	18.939	-45.416	-8191	255	
15381.945	1	1	0	0	0.13773	0.047841	0.073904	0.18163	0.13499	0.15644	0.11635	0.14486	0.11142	0.12066	0.21345	0.18549	0.19317	0.1682	0.070565	0.2299	-2.2354	-2.4333	-2.775	-2.7479	-3.0167	-2.8646	-2.7708	-3.1542	-2.8667	-2.6625	-3.1771	-2.7313	-2.7792	-2.8312	-2.6312	-3.1375	66.609	215.650	-19.055	277.563	178.705	103.609	87.334	221.965	120.291	247.282	37.938	257.496	281.146	180.145	150.573	267.266	0.00017173	0.00047546	3.2315e-05	745.77	3.8483e-06	7.8652e-06	746.4	226.56	2.8652e-06	1.1446e-05	280.05	105.63	81.907	33.755	6.2104e-06	47.096	0.0033307	0.0057476	0.0015985	745.63	5.768e-05	6.4645e-05	751.68	230.42	5.8548e-05	6.4538e-05	284.48	109.04	85.164	34.7	5.8761e-05	48.277	165.129	-14.298	47.476	-58.469	134.294	56.733	-59.905	-52.836	40.519	78.987	-54.727	-49.923	-47.632	-42.691	22.647	-45.944	-8191	255	
15382.066	1	1	0	0	0.19178	0.26703	0.14215	0.22653	0.11521	0.38134	0.10548	0.22613	0.064799	0.018767	0.060757	0.068441	0.075625	0.1576	0.21135	0.10231	-2.0875	-2.5167	-3.1458	-2.7667	-2.9646	-2.9667	-2.7458	-2.9792	-2.7125	-2.4125	-3.1875	-2.6188	-2.6271	-2.9062	-2.475	-3.1146	112.176	97.001	288.587	267.898	-37.371	11.229	98.658	127.598	177.109	-6.685	142.074	-49.046	200.825	282.102	6.581	82.658	0.00012935	0.00039614	0.0002474	746.3	9.2848e-07	5.679e-06	743.16	227.11	5.214e-06	6.9938e-06	279.44	105.81	81.948	33.697	4.0694e-06	46.863	0.0032927	0.0057261	0.0015936	746.39	5.685e-05	6.3168e-05	750.49	230.12	5.6866e-05	6.1202e-05	283.49	108.54	84.989	34.496	5.7587e-05	47.983	141.917	-40.224	23.454	-58.573	156.669	126.868	-59.453	-52.727	3.420	-64.155	-54.400	-50.173	-47.548	-42.920	267.674	-45.681	-8191	255	
15382.160	1	1	0	0	0.12859	0.17238	0.19458	0.34009	0.29767	0.082401	0.31196	0.11973	0.13641	0.11354	0.44185	0.23923	0.19328	0.10582	0.013994	0.16704	-2.3208	-2.5333	-3	-2.8396	-2.6625	-2.9625	-2.6146	-3.05	-2.8563	-2.4688	-3.1604	-2.8896	-2.8083	-3.0708	-2.5104	-3.0604	149.420	133.599	196.418	239.315	132.723	-44.206	224.195	5.265	241.570	16.970	214.734	38.084	-30.873	-39.611	54.873	276.157	0.00018092	0.0003575	0.00028877	744.1	3.8333e-06	5.9103e-06	746.09	227.06	2.7162e-06	1.142e-06	280.01	106.67	82.659	33.618	5.7559e-06	46.906	0.0031508	0.0054655	0.0015319	742.95	5.3947e-05	6.0228e-05	748.26	230.61	5.4944e-05	6.0345e-05	284.79	109.38	85.698	34.579	5.7184e-05	48.073	184.478	25.050	58.627	-58.706	113.545	263.048	-59.613	-52.409	-57.895	6.114	-54.659	-49.730	-48.009	-42.958	84.995	-45.504	-8191	255	
15382.256	1	1	0	0	0.10054	0.10136	0.19746	0.15539	0.19671	0.10807	0.35171	0.20499	0.060951	0.34674	0.37311	0.25637	0.19629	0.20088	0.080234	0.15291	-2.6312	-2.4313	-2.9208	-2.6979	-2.45	-2.9437	-2.6167	-2.8438	-3.0563	-2.65	-3.0979	-2.7062	-2.5667	-3.0854	-2.5917	-2.9917	70.224	118.979	28.024	215.940	54.955	103.151	261.699	181.354	-29.034	-37.862	187.066	287.874	179.500	239.909	139.519	93.182	0.00015219	0.00054899	7.8534e-05	745.5	3.7392e-06	4.926e-06	748.17	228.17	1.0224e-06	5.5817e-06	279.45	106.71	82.714	33.613	3.775e-06	47.202	0.0030918	0.0054457	0.0015349	746.15	5.4478e-05	6.1946e-05	751.6	231.48	5.6309e-05	6.1632e-05	285.21	109.73	85.901	34.662	5.9288e-05	48.294	162.429	14.835	4.274	-58.623	73.047	179.494	-59.678	-53.013	-25.366	74.452	-54.763	-49.817	-47.849	-42.771	132.783	-45.636	-8191	255	
15382.352	1	1	0	0	0.20812	0.31505	0.11702	0.20019	0.034506	0.23908	0.23974	0.10161	0.1828	0.17175	0.1683	0.20285	0.11676	0.13464	0.082924	0.36763	-2.3354	-2.5271	-2.8688	-2.8917	-2.7583	-3.1479	-2.8271	-3.0146	-2.8521	-2.5333	-2.9604	-3.0083	-2.5229	-3.0875	-2.4229	-2.7583	-52.849	49.703	58.754	268.772	246.183	178.029	182.285	103.015	-18.008	203.443	226.743	261.514	-25.966	-28.420	-53.214	225.779	9.4428e-05	0.00054557	0.00013663	744.81	4.5739e-06	5.0855e-06	750.08	228.73	4.7251e-06	3.968e-06	279.62	107.05	82.666	34.064	2.912e-06	47.14	0.0032357	0.0056828	0.0015858	746.25	5.5298e-05	6.2695e-05	753.79	231.1	5.5608e-05	6.1748e-05	285.47	109.73	85.783	34.832	5.7774e-05	48.429	152.423	240.326	0.666	-58.725	68.124	92.614	-59.629	-52.810	49.715	76.049	-54.812	-49.941	-47.576	-42.480	22.521	-45.682	-8191	255	
15382.448	1	1	0	0	0.14212	0.089673	0.11719	0.13031	0.22858	0.092923	0.12596	0.079971	0.12707	0.045612	0.17474	0.26978	0.20916	0.18098	0.12476	0.098104	-2.4479	-2.5542	-3.0354	-2.9354	-2.6354	-3.0771	-2.6083	-2.7021	-3.1	-2.6333	-2.9521	-3.0042	-2.6	-3.0667	-2.7812	-2.6958	129.676	109.441	209.635	136.318	268.040	125.454	94.784	100.177	69.867	209.033	160.190	51.659	-59.411	251.844	63.209	-55.094	0.00011784	0.00057272	0.00011787	744.29	7.1903e-07	5.1969e-06	748.22	227.11	4.1016e-06	2.8501e-06	279.03	105.6	82.398	33.599	1.0567e-06	46.817	0.0031433	0.0055754	0.0015545	746.6	5.4298e-05	6.2329e-05	752.2	230.64	5.5281e-05	6.1873e-05	283.8	108.67	85.29	34.604	5.8756e-05	47.963	168.090	12.372	-19.947	-58.636	87.369	33.935	-59.819	-52.777	104.427	92.365	-54.685	-49.823	-47.815	-42.872	131.763	-45.316	-8191	255	
15382.545	1	1	0	0	0.23702	0.066553	0.030147	0.33073	0.13432	0.159	0.039493	0.078083	0.19253	0.1149	0.066334	0.10129	0.079807	0.060244	0.13781	0.071376	-2.5958	-2.5583	-2.9562	-3.0792	-2.5062	-2.85	-2.7958	-2.7375	-3.0604	-2.45	-2.9625	-3.1021	-2.5771	-3.025	-2.8625	-2.6292	-70.050	286.944	156.804	-41.292	124.474	143.707	243.655	-26.285	122.890	198.490	-45.449	233.259	260.087	-18.659	50.667	242.238	0.00016007	0.001189	0.00018222	742.96	5.0907e-06	4.118e-06	740.78	225.79	2.9325e-06	2.2103e-06	277.5	105.47	81.867	33.689	8.5483e-07	47.163	0.0031502	0.0055908	0.0015564	742.8	5.4445e-05	6.2605e-05	745.77	229.24	5.5111e-05	6.0979e-05	282.2	108.16	84.971	34.515	5.749e-05	48.022	160.869	-1.707	33.847	-58.641	77.928	151.785	-59.859	-52.576	231.611	59.594	-54.689	-49.924	-47.585	-42.595	59.388	-45.394	-8191	255	
15382.665	1	1	0	0	0.322	0.19475	0.2196	0.093506	0.1528	0.18037	0.25994	0.17011	0.070172	0.053402	0.079805	0.084094	0.14716	0.057315	0.1218	0.14011	-2.6396	-2.6167	-2.8438	-3.0854	-2.5292	-3.1625	-2.8688	-2.7062	-2.9938	-2.6646	-2.875	-3.1229	-2.6229	-2.9792	-2.7646	-2.6312	-49.275	119.461	280.153	-28.282	135.780	-40.351	267.227	276.737	63.991	-58.765	7.429	-2.083	121.660	-59.066	52.751	-48.412	0.0001806	0.00090479	9.3942e-05	745.01	7.0263e-07	3.9199e-06	745.69	227.16	8.5697e-06	1.1093e-05	279.24	106.2	82.906	33.748	3.3379e-06	46.983	0.0030945	0.0054152	0.0015305	743.75	5.3241e-05	6.2253e-05	749.42	230.05	5.3881e-05	6.0699e-05	283.41	109.17	85.759	34.627	5.7021e-05	48.082	171.777	-13.487	36.883	-58.494	249.306	115.510	-59.484	-52.776	47.181	70.080	-54.407	-49.763	-48.194	-43.055	-47.769	-45.188	-8191	255	
15382.761	1	1	0	0	0.14836	0.16329	0.083724	0.12169	0.10155	0.14171	0.096765	0.17001	0.31684	0.12399	0.41248	0.18274	0.044572	0.37566	0.098723	0.14538	-2.7687	-2.65	-2.6521	-3.1646	-2.5708	-3.0125	-3.0792	-2.4979	-2.9646	-2.7521	-2.8042	-3.0771	-2.7938	-2.7958	-2.9146	-2.5917	171.718	260.234	190.699	169.249	263.173	16.432	236.008	259.792	178.386	89.030	217.141	240.528	115.220	228.976	5.758	235.329	0.00014663	0.00075254	0.00013607	745.24	6.4993e-06	6.947e-06	750.44	228.47	1.1671e-06	3.2084e-06	280.79	107.13	82.819	33.884	4.525e-06	47.226	0.0031349	0.0054721	0.0015284	745.17	5.4076e-05	6.1774e-05	752.13	231.33	5.435e-05	6.1363e-05	285.41	109.73	85.617	34.735	5.6852e-05	48.345	158.122	67.354	42.777	-58.566	73.325	20.417	-59.498	-52.794	288.255	142.367	-54.301	-50.003	-47.894	-42.809	85.246	-45.419	-8191	255	
15382.858	1	1	0	0	0.21129	0.023281	0.20875	0.24959	0.15004	0.19833	0.21579	0.18688	0.12478	0.25952	0.40231	0.029797	0.098099	0.10521	0.24177	0.13935	-2.4771	-2.8375	-2.5375	-3.0854	-2.5604	-2.7479	-3.075	-2.6562	-2.6479	-2.9437	-2.6083	-3.1333	-2.7188	-2.9292	-2.8625	-2.7313	-15.584	196.782	3.012	206.930	117.288	-70.015	243.096	268.876	127.292	206.773	-54.958	-68.502	62.434	135.260	111.001	195.829	0.00012586	0.00027355	0.0001527	751.49	3.9635e-06	1.4896e-06	749.03	227.17	2.1738e-06	3.9031e-06	277.97	106.56	82.226	33.669	2.125e-06	47.173	0.0031047	0.005355	0.0015102	747.12	5.334e-05	6.1961e-05	752.04	230.66	5.4708e-05	6.0256e-05	283.52	108.99	85.195	34.588	5.6381e-05	48.108	149.655	71.616	-29.889	-58.616	30.106	203.441	-59.747	-52.743	139.575	114.763	-54.591	-49.774	-47.824	-42.407	262.485	-45.833	-8191	255	
15382.954	1	1	0	0	0.24406	0.2971	0.12851	0.16825	0.2742	0.31788	0.23973	0.19705	0.30154	0.036829	0.080123	0.1068	0.22995	0.14287	0.20621	0.33862	-2.4021	-2.9021	-2.6292	-3.0687	-2.6396	-2.6625	-3.2667	-2.5729	-2.7729	-3.0125	-2.5146	-3.0958	-2.7667	-2.775	-3.1146	-2.7417	108.984	104.544	278.289	283.099	72.232	-10.898	206.513	237.844	142.160	15.905	276.188	93.084	287.319	254.187	18.088	277.384	0.00016812	3.9985e-05	0.00018311	743.54	5.1556e-06	5.5854e-06	745.54	226.43	1.2535e-06	4.2658e-06	279.17	105.63	82.351	33.695	1.6924e-06	46.937	0.0031334	0.0053871	0.0015268	742.81	5.3027e-05	5.9434e-05	746.98	229.71	5.2989e-05	5.8777e-05	283.22	108.64	85.085	34.547	5.5147e-05	47.862	162.811	208.924	20.295	-58.602	105.205	89.145	-59.455	-52.641	54.077	40.167	-54.495	-49.759	-47.820	-42.757	-15.537	-45.663	-8191	255	
15383.073	1	1	0	0	0.069235	0.12382	0.26313	0.058172	0.21459	0.16093	0.27339	0.23855	0.071423	0.24795	0.046273	0.1328	0.12238	0.033849	0.20811	0.3118	-2.3583	-2.9188	-2.6	-2.9792	-2.7229	-2.6312	-3.1208	-2.6083	-2.8688	-2.9833	-2.5958	-3.1604	-2.6604	-2.7042	-3.2729	-2.7	170.398	-52.159	36.350	100.872	10.325	-67.717	-70.638	207.723	242.608	124.016	171.985	234.164	171.600	272.806	5.000	230.554	5.6517e-05	0.00052987	0.0001573	746.47	5.9327e-06	3.4473e-06	748.08	226.62	5.4147e-06	7.034e-06	279.29	106.65	82.814	33.966	7.2662e-06	47.228	0.0030626	0.005232	0.001472	743.37	5.2211e-05	5.9046e-05	748.5	230.28	5.316e-05	5.8654e-05	283.55	109.11	85.498	34.648	5.4951e-05	48.224	169.418	63.393	59.297	-58.672	112.768	-14.180	-59.268	-52.768	104.310	136.494	-54.482	-50.016	-47.596	-42.805	99.819	-45.573	-8191	255	
15383.144	1	1	0	0	0.083703	0.11213	0.046311	0.18737	0.096471	0.21782	0.10379	0.12195	0.14549	0.027726	0.11016	0.19484	0.05957	0.25591	0.055365	0.24655	-2.3792	-2.8583	-2.5125	-2.9813	-2.8875	-2.5271	-3.1521	-2.8792	-2.7229	-2.9875	-2.6458	-3.0333	-2.8479	-2.4958	-3.0812	-2.6292	28.320	91.494	181.758	-12.961	51.831	262.355	69.469	97.948	282.949	244.838	191.577	259.522	14.811	228.522	-18.938	222.169	9.4047e-05	0.00056364	0.00017043	747.27	5.4707e-06	4.2787e-06	750.46	228.97	5.2616e-06	2.1776e-06	281.06	107.35	83.696	33.868	4.9813e-06	47.214	0.0030343	0.0052008	0.0014922	745.76	5.2568e-05	5.8853e-05	752.24	230.82	5.3375e-05	5.8816e-05	285.21	109.89	85.902	34.706	5.4697e-05	48.508	165.992	-27.660	69.437	-58.693	43.464	107.508	-59.585	-52.533	159.452	251.413	-54.635	-49.897	-47.721	-42.827	11.684	-45.344	-8191	255	
15383.240	1	1	0	0	0.12672	0.39781	0.16708	0.097479	0.12055	0.31474	0.083623	0.30326	0.21664	0.021433	0.17909	0.11425	0.058477	0.31175	0.069119	0.24103	-2.2583	-3	-2.6458	-3.0625	-2.9458	-2.5417	-3.0812	-2.8563	-2.6813	-3.1583	-2.6333	-2.8875	-2.9479	-2.5417	-3.1146	-2.9396	-51.633	219.128	99.607	185.724	84.988	-9.794	60.184	284.038	-33.536	221.903	-12.712	14.823	184.861	6.137	115.713	-67.662	0.00014051	0.00066728	8.1892e-05	748.88	2.1603e-06	2.6839e-06	752.47	228.26	4.7579e-06	3.5433e-06	280.52	107.2	83.257	33.812	5.5215e-06	46.978	0.003004	0.0052154	0.0014666	747.44	5.1222e-05	5.774e-05	753.2	231.05	5.1103e-05	5.6892e-05	284.61	109.78	85.649	34.665	5.3318e-05	48.097	128.115	18.338	17.287	-58.808	55.958	70.854	-59.726	-52.889	251.104	56.624	-54.624	-49.858	-47.842	-42.707	68.647	-45.534	-8191	255	
15383.337	1	1	0	0	0.19808	0.10548	0.016031	0.037693	0.36044	0.11693	0.10253	0.078999	0.031009	0.29397	0.31614	0.09915	0.067005	0.21285	0.2259	0.066509	-2.0062	-2.8708	-2.6083	-2.8521	-3.0438	-2.6375	-3.1	-2.8208	-2.5062	-2.8937	-2.8771	-3.0104	-3.1104	-2.3896	-2.9188	-2.7188	183.533	136.259	262.430	-69.469	-32.615	282.989	-46.999	254.340	154.107	242.366	189.858	35.356	122.438	237.484	43.282	270.889	6.4831e-05	0.00045549	0.00012864	750.61	2.3228e-06	4.5485e-06	742.78	227.61	2.0633e-06	7.824e-06	279.94	106.99	82.825	33.739	6.9683e-06	47.396	0.0029996	0.0052169	0.001463	744.7	5.0825e-05	5.728e-05	749.12	229.83	5.1862e-05	5.6669e-05	284.52	109.33	85.463	34.474	5.3657e-05	48.151	178.811	34.578	51.897	-58.673	-5.662	110.765	-59.788	-52.931	-57.219	61.231	-54.435	-49.964	-47.864	-42.854	81.487	-45.435	-8191	255	
15383.457	1	1	0	0	0.20839	0.22538	0.27421	0.099343	0.026203	0.0897	0.18911	0.11241	0.094759	0.10044	0.09372	0.16268	0.22967	0.15861	0.20595	0.15289	-2.1021	-3.1063	-2.6875	-2.6708	-3.0229	-2.6562	-2.7833	-2.7854	-2.5625	-2.9688	-2.7	-2.8229	-2.8917	-2.4417	-2.9375	-3.0417	212.594	-33.060	189.963	222.463	216.011	118.363	219.106	48.678	-13.737	-42.666	124.482	-34.434	25.258	172.973	29.129	231.078	0.00011759	0.00062392	0.0002152	745.7	4.074e-06	1.5241e-06	753.47	227.73	2.7811e-06	7.758e-06	281.35	107.44	83.165	33.763	2.8402e-06	47.298	0.0029236	0.0052329	0.0014747	745.32	5.1259e-05	5.8166e-05	752.26	230.42	5.2274e-05	5.654e-05	285.36	109.68	85.81	34.64	5.4346e-05	48.226	192.173	2.105	26.752	-58.627	13.645	126.506	-59.547	-52.640	-47.225	133.763	-54.600	-50.096	-48.206	-43.121	-47.524	-45.617	-8191	255	
15383.553	1	1	0	0	0.1881	0.19219	0.061338	0.17702	0.27473	0.14471	0.29809	0.27109	0.097403	0.17568	0.041285	0.28453	0.031512	0.20633	0.063197	0.21112	-2.3708	-3.0125	-2.8104	-2.7375	-3.0438	-2.5917	-2.9	-2.9875	-2.5042	-3.0417	-2.7625	-2.7042	-2.9854	-2.6271	-2.8125	-3.1729	33.789	-46.995	36.111	99.577	-40.602	-24.865	234.311	273.712	208.618	54.533	138.789	167.972	217.792	277.431	206.101	-54.298	7.6602e-05	0.00080414	0.00012139	749.39	6.5588e-06	6.6436e-06	750.53	227.95	3.077e-06	8.2096e-06	279.79	107.02	83.009	33.717	5.2966e-06	47.707	0.0029541	0.0052267	0.0014961	746.91	5.1173e-05	5.9696e-05	753.79	230.64	5.2521e-05	5.7454e-05	285.85	110.08	85.741	34.587	5.4053e-05	48.535	156.043	-12.629	57.087	-58.759	77.034	127.103	-59.407	-53.083	-2.853	-44.239	-54.377	-50.005	-47.944	-42.866	56.914	-45.508	-8191	255	
15383.649	1	1	0	0	0.062437	0.031794	0.14077	0.034744	0.078081	0.076965	0.15396	0.2171	0.12253	0.12938	0.20066	0.25044	0.095573	0.10818	0.12903	0.259	-2.2083	-2.9208	-2.7229	-2.7354	-2.9479	-2.7646	-2.9792	-3.0979	-2.5687	-3.0146	-2.7396	-2.7229	-2.9396	-2.6375	-2.8229	-2.9896	118.242	148.231	240.038	78.001	193.141	-26.299	192.876	268.057	67.060	226.828	8.027	289.356	146.502	-3.763	76.934	206.611	0.00013273	0.00011941	0.00016585	748.94	1.2116e-06	4.8127e-06	752.44	229.35	3.0056e-06	4.5769e-06	280.27	107.7	82.611	33.663	5.2366e-06	47.081	0.0029356	0.0052197	0.0014483	747.55	5.1368e-05	5.8772e-05	755.15	231.42	5.3011e-05	5.7058e-05	284.82	109.77	85.39	34.605	5.3969e-05	48.194	135.077	42.318	-4.988	-58.671	-47.114	89.625	-59.786	-52.538	222.020	139.225	-54.598	-49.849	-47.756	-42.947	99.891	-45.249	-8191	255	
15383.746	1	1	0	0	0.38516	0.081492	0.1243	0.27172	0.26818	0.31695	0.083964	0.17438	0.23179	0.2099	0.21304	0.029029	0.10376	0.23086	0.21826	0.090871	-2.2104	-2.9729	-2.8146	-2.7458	-2.9938	-2.7146	-2.7458	-3.0833	-2.5187	-2.8646	-2.8604	-2.7771	-3.1625	-2.7229	-2.6458	-2.9854	63.676	206.807	-26.152	201.209	286.011	98.361	139.184	238.554	-36.838	268.726	-16.410	176.300	249.954	223.006	215.980	-16.193	0.00014801	0.00020132	3.1026e-05	746.38	4.292e-06	1.3502e-06	747.02	228.43	4.0039e-06	3.7169e-06	281.71	107.3	82.314	33.718	3.7184e-06	46.965	0.0029775	0.005338	0.0014453	745.09	5.1075e-05	5.8625e-05	750.05	230.04	5.1816e-05	5.7238e-05	284.44	109.41	85.135	34.482	5.3576e-05	48.063	168.752	220.756	-27.195	-58.594	173.540	84.881	-59.543	-52.892	82.910	55.782	-54.406	-49.701	-47.803	-43.060	73.701	-45.757	-8191	255	
15383.842	1	1	0	0	0.27957	0.20341	0.29693	0.1595	0.16937	0.17945	0.11254	0.23083	0.095713	0.36259	0.12766	0.1885	0.15476	0.066641	0.14199	0.1027	-2.1396	-2.8396	-2.8312	-2.6083	-2.8604	-2.8063	-2.6646	-3.0021	-2.5604	-2.8417	-3.0375	-2.4313	-3.2812	-2.7625	-2.6437	-3.2	-16.531	-69.468	-5.057	242.247	-34.408	22.725	286.284	214.270	115.383	183.141	238.010	240.223	195.632	228.740	118.739	263.299	0.00010457	0.00038284	0.00012064	744.81	4.0591e-06	4.2789e-06	751.58	229.08	5.655e-06	4.6379e-06	280.93	106.89	83.56	33.81	5.7856e-06	48.017	0.0029476	0.0051344	0.0014203	742.63	5.0043e-05	5.789e-05	751.28	231.02	5.1121e-05	5.6991e-05	285.42	109.75	85.78	34.615	5.2698e-05	48.655	191.818	73.464	74.901	-58.596	144.222	62.276	-59.662	-52.874	4.902	271.976	-54.537	-50.087	-47.865	-42.636	88.726	-45.741	-8191	255	
15383.938	1	1	0	0	0.048997	0.19558	0.17404	0.15595	0.036795	0.26705	0.17078	0.31948	0.21513	0.20398	0.062537	0.21418	0.25344	0.1029	0.32069	0.11352	-2.0896	-2.6562	-2.9521	-2.8146	-2.8833	-2.6708	-2.675	-3.0771	-2.6646	-2.7958	-3.125	-2.7938	-3	-2.9854	-2.6458	-3.1917	232.489	-8.177	215.210	234.745	226.894	-64.092	65.582	-63.239	208.534	245.377	76.754	208.721	10.396	251.678	268.302	209.530	0.00013349	0.000878	0.00020684	745.69	4.1591e-06	3.373e-06	756.03	229.15	3.3657e-06	3.7878e-06	282.67	108.43	83.55	34.009	4.3652e-06	47.855	0.0029147	0.0050344	0.0014062	745.2	4.9837e-05	5.7826e-05	754.12	231.87	5.1655e-05	5.6788e-05	286.65	110.79	86.063	34.745	5.2815e-05	48.681	158.420	8.538	68.033	-58.449	20.779	42.412	-59.286	-52.522	17.945	72.926	-54.404	-49.861	-47.996	-42.784	53.643	-45.515	-8191	255	
15384.034	1	1	0	0	0.12387	0.17602	0.19826	0.16923	0.0662	0.17671	0.082727	0.17625	0.11063	0.22274	0.11386	0.072423	0.15572	0.12567	0.0073022	0.046925	-2.2417	-2.7771	-3.0417	-2.7167	-2.9229	-2.8646	-2.6937	-3.0521	-2.7583	-2.8167	-3.2062	-2.7188	-2.8104	-2.7708	-2.5625	-3.0208	130.889	189.396	62.372	236.355	188.873	-62.108	250.298	187.533	-56.802	-56.913	174.662	-48.675	7.424	206.351	44.600	279.270	7.8084e-05	0.00044842	0.00012818	749.67	3.4765e-06	2.1799e-06	760.22	228.64	2.2545e-06	6.7125e-06	282.81	108.2	83.056	33.752	4.898e-06	47.658	0.0029062	0.0050141	0.0014247	747.36	5.0196e-05	5.6992e-05	757.97	231.66	5.1156e-05	5.6588e-05	286.73	110.5	85.789	34.57	5.2895e-05	48.471	143.716	32.413	75.629	-58.603	123.786	225.671	-59.692	-52.515	134.925	78.325	-54.510	-49.778	-48.027	-43.093	100.549	-45.324	-8191	255	
15384.153	1	1	0	0	0.24117	0.034852	0.048388	0.19319	0.076283	0.093196	0.20783	0.34171	0.16237	0.34956	0.18092	0.12441	0.1783	0.13395	0.15781	0.15856	-2.2854	-2.6229	-2.9	-2.6188	-2.6542	-2.8563	-2.5833	-2.9396	-2.85	-2.6417	-3.1792	-2.6042	-3.0917	-2.8396	-2.6083	-3.0125	-15.069	158.615	-12.437	267.031	12.035	246.431	124.640	200.904	233.892	268.738	44.416	241.339	223.532	258.444	137.447	282.578	0.00015173	0.00062556	6.0765e-05	748.37	9.5467e-07	1.116e-05	751.13	227.71	8.2391e-06	7.8728e-06	281.32	107.79	83.002	33.896	1.4536e-06	47.392	0.0029275	0.0049712	0.0014044	744.59	4.951e-05	5.5668e-05	752.13	230.33	5.0165e-05	5.514e-05	285.29	109.92	85.714	34.59	5.2551e-05	48.31	198.948	11.244	102.038	-58.551	35.922	52.313	-59.704	-52.813	72.070	15.365	-54.274	-49.765	-47.741	-43.016	-67.206	-45.323	-8191	255	
15384.249	1	1	0	0	0.19244	0.1372	0.13603	0.16091	0.15926	0.24251	0.26261	0.20043	0.069687	0.35089	0.2166	0.20657	0.12307	0.033934	0.16533	0.077178	-2.3375	-2.5687	-3.0062	-2.7833	-2.8937	-3.0542	-2.6458	-2.9083	-3.0458	-2.4729	-3.0542	-2.7	-2.7396	-2.9708	-2.675	-3.0125	30.276	205.327	181.546	-26.410	6.705	66.383	233.958	-61.298	228.962	-50.236	228.853	219.601	52.030	203.851	113.819	10.743	0.00010542	0.00041792	0.00018545	748.89	6.5096e-06	5.9761e-06	758.45	231.18	2.2824e-06	4.1142e-06	284.1	108.38	83.797	34.014	4.786e-06	47.43	0.0028814	0.0049415	0.0014135	746.92	4.9622e-05	5.5871e-05	754.44	232.09	5.0237e-05	5.5989e-05	286.48	110.81	85.937	34.688	5.2432e-05	48.446	190.824	22.074	19.551	-58.609	77.118	49.046	-59.734	-52.638	64.417	85.431	-54.495	-49.964	-48.127	-43.025	81.865	-45.381	-8191	255	
15384.345	1	1	0	0	0.13147	0.10602	0.10828	0.19121	0.15368	0.3999	0.20101	0.1483	0.032496	0.11468	0.15583	0.28182	0.081138	0.1117	0.19893	0.20012	-2.3729	-2.5125	-3.0438	-2.8458	-2.6021	-2.9375	-2.6875	-2.9708	-2.95	-2.5604	-3.1417	-2.8104	-2.6667	-3.2271	-2.6375	-2.8542	53.012	118.326	156.684	235.056	-13.113	140.425	140.352	38.494	235.419	239.518	215.791	232.058	-65.155	264.967	236.057	157.999	0.00011088	0.00077787	0.0002181	749.17	1.8727e-06	5.7437e-06	758.27	229.45	2.3124e-06	7.004e-06	283.98	108.05	83.445	33.793	5.7858e-06	47.872	0.0028601	0.005015	0.0014212	746.61	5.0461e-05	5.604e-05	758.2	231.28	5.0348e-05	5.5365e-05	287.5	110.68	85.998	34.608	5.2074e-05	48.764	172.938	-22.348	-16.634	-58.592	213.011	60.049	-59.852	-52.715	39.183	82.609	-54.566	-49.820	-48.181	-42.983	93.459	-45.775	-8191	255	
15384.441	1	1	0	0	0.19036	0.15043	0.12806	0.14032	0.14885	0.18743	0.17508	0.12976	0.14266	0.15789	0.27433	0.049856	0.11344	0.25499	0.15152	0.19479	-2.6375	-2.6458	-2.9229	-2.9688	-2.7313	-3.0167	-2.7979	-3.025	-3.0792	-2.6667	-3.0854	-3.0042	-2.8083	-2.9562	-2.6708	-2.7208	279.160	-53.740	277.334	220.628	114.543	282.048	141.187	181.898	-53.934	230.357	137.793	171.393	65.057	233.457	196.928	259.329	9.5469e-05	0.00096045	0.00012429	750.36	6.1508e-06	7.6218e-06	755.99	229.52	2.9295e-06	9.9034e-06	284.56	107.84	83.251	33.899	2.0522e-06	47.463	0.0028271	0.004885	0.0013964	747.22	4.8718e-05	5.4942e-05	757.44	231.4	4.9049e-05	5.5108e-05	287.52	110.32	85.498	34.564	5.0994e-05	48.295	168.367	49.153	35.386	-58.519	66.101	63.240	-59.774	-53.050	120.013	80.504	-54.341	-50.038	-47.977	-42.840	259.122	-45.418	-8191	255	
15384.538	1	1	0	0	0.17311	0.34154	0.089745	0.050485	0.2794	0.039608	0.10076	0.029911	0.096681	0.093009	0.033571	0.15289	0.085038	0.13013	0.064625	0.15991	-2.5104	-2.6021	-2.7417	-2.8958	-2.5646	-2.9583	-2.6333	-2.8229	-3.1896	-2.6729	-2.7938	-2.8875	-2.6771	-3.0687	-2.7125	-2.8708	144.596	-68.007	67.566	-48.786	181.732	23.260	160.392	252.683	7.765	261.668	263.738	277.462	127.460	149.293	228.425	274.579	7.0988e-05	0.00069857	0.00012027	748.68	2.2444e-06	4.2699e-06	754.8	228.88	6.5915e-06	1.0852e-05	280.75	107.09	83.168	33.592	3.1392e-06	47.414	0.0028161	0.0049366	0.0014019	742.86	4.885e-05	5.4631e-05	753.65	230.55	4.9676e-05	5.5232e-05	284.47	109.44	85.396	34.454	5.1281e-05	48.389	169.812	283.971	-31.731	-58.531	123.115	80.331	-59.387	-52.816	115.369	38.076	-54.368	-50.249	-47.729	-42.719	33.606	-45.560	-8191	255	
15384.634	1	1	0	0	0.43927	0.41064	0.22899	0.18659	0.19515	0.17628	0.23435	0.054007	0.12403	0.0052551	0.17395	0.24886	0.060799	0.21448	0.30666	0.18231	-2.4375	-2.5729	-2.7687	-2.9083	-2.3812	-2.8937	-2.8729	-2.4667	-2.9958	-2.5708	-2.7812	-3.075	-2.45	-3.1375	-2.7729	-2.675	267.713	37.386	264.857	-63.936	58.817	39.386	-66.540	-46.548	194.197	47.416	249.044	-54.277	54.577	130.871	45.236	169.448	9.548e-05	0.00052535	0.00024031	745.79	7.1008e-07	5.4396e-06	755.2	228.69	2.3717e-06	3.8863e-06	283.71	108.04	82.951	33.688	2.9169e-06	47.613	0.0027591	0.0049063	0.0013748	743.66	4.8024e-05	5.3377e-05	754.05	230.87	4.8867e-05	5.3794e-05	286.94	110.51	85.949	34.551	5.1295e-05	48.677	112.169	38.137	27.448	-58.729	63.155	40.494	-59.854	-52.796	143.602	104.369	-54.579	-49.893	-48.054	-42.944	92.455	-45.312	-8191	255	
15384.754	1	1	0	0	0.069086	0.29037	0.19727	0.045319	0.080703	0.083632	0.08287	0.04868	0.31604	0.094153	0.16628	0.064681	0.12805	0.15891	0.281	0.0182	-2.7104	-2.675	-2.8458	-3.0312	-2.5271	-3.0833	-2.9542	-2.6125	-3.0917	-2.6437	-2.7896	-3.0167	-2.5646	-2.8312	-2.7604	-2.5625	210.132	226.947	90.400	252.795	-67.069	54.881	147.982	232.814	13.479	201.105	197.026	25.366	150.215	125.996	1.715	55.973	9.8926e-05	0.00035967	0.00012984	746.05	3.17e-06	7.8509e-06	757.36	229.82	3.8064e-06	5.9716e-06	283.64	108.37	83.763	33.99	4.2767e-06	47.716	0.0027965	0.0050204	0.0013938	746.12	4.9372e-05	5.5846e-05	757.09	231.46	5.0613e-05	5.6573e-05	287.99	110.86	86.142	34.736	5.2401e-05	48.856	175.070	58.234	12.376	-58.495	80.785	23.468	-59.789	-52.626	35.024	92.146	-54.436	-50.009	-47.644	-42.795	-3.717	-45.228	-8191	255	
15384.849	1	1	0	0	0.081254	0.1588	0.03012	0.26473	0.1852	0.15473	0.088002	0.14823	0.15902	0.19533	0.36286	0.20937	0.16779	0.017063	0.20382	0.10926	-2.525	-2.7458	-2.6271	-3.0917	-2.4854	-2.9042	-3.1792	-2.4708	-3.0062	-2.9917	-2.7708	-3.0604	-2.6667	-2.7667	-2.9333	-2.6896	30.214	-13.742	282.017	-17.609	234.784	196.182	216.439	218.179	53.117	262.903	252.240	168.945	202.081	214.039	24.677	-19.244	8.3005e-05	0.00071482	6.4327e-05	749.85	3.7892e-06	8.8047e-06	755.35	229.31	6.3534e-06	1.4529e-06	282.74	107.2	82.906	33.613	3.2425e-06	47.43	0.0029287	0.0051612	0.0014082	746.68	5.1251e-05	5.7776e-05	758.19	230.83	5.2111e-05	5.6962e-05	286.29	110.1	85.299	34.469	5.3452e-05	48.384	158.233	21.618	15.535	-58.590	29.471	64.404	-59.604	-52.906	103.237	-63.972	-54.731	-49.877	-47.806	-42.940	119.617	-45.615	-8191	255	
15384.945	1	1	0	0	0.095098	0.2309	0.194	0.23887	0.25651	0.26217	0.24589	0.18555	0.026093	0.24777	0.23546	0.1175	0.10358	0.058768	0.29993	0.098622	-2.6042	-2.6583	-2.4979	-3.1583	-2.6063	-2.8937	-3.1229	-2.5875	-2.9396	-2.7062	-2.6229	-3.0542	-2.75	-2.7438	-3.0021	-2.5708	252.514	152.909	267.784	37.507	52.011	213.102	166.433	251.907	20.071	169.056	76.293	-11.138	42.819	221.346	164.543	194.435	0.00020363	0.00032607	7.6023e-05	747.24	5.2486e-06	1.4627e-06	751.38	228.24	1.1724e-06	7.1258e-06	282.23	106.69	82.442	33.475	3.9847e-06	47.534	0.0029581	0.0052239	0.0014552	743.69	5.1479e-05	5.7823e-05	751.1	229.85	5.1732e-05	5.6805e-05	285.08	109.21	85.129	34.273	5.1789e-05	48.238	169.468	270.272	31.573	-58.628	111.467	217.237	-59.674	-52.895	85.657	44.247	-54.910	-49.878	-47.964	-42.973	120.997	-45.410	-8191	255	
15385.018	1	1	0	0	0.35805	0.11544	0.25679	0.39892	0.1809	0.16165	0.25676	0.285	0.37524	0.037746	0.30943	0.36689	0.17563	0.19982	0.21041	0.15035	-2.5375	-2.8271	-2.3875	-2.9479	-2.6958	-2.4729	-3.1208	-2.4396	-2.7708	-2.9313	-2.6167	-3.0229	-2.8583	-2.6708	-3.0521	-2.6417	264.164	-11.287	171.377	263.475	-33.450	50.705	24.995	210.753	254.005	51.439	257.157	189.541	288.509	-7.516	114.025	260.883	0.00012606	0.00082162	0.0001016	747.5	2.9665e-06	7.3808e-06	750.35	227.12	2.7117e-06	4.4901e-06	278.68	106.88	82.289	33.516	1.7519e-06	47.133	0.0028817	0.0050068	0.0013694	742.24	4.9215e-05	5.5845e-05	751.39	229.56	5.1323e-05	5.5441e-05	283.27	108.89	84.595	34.206	5.2007e-05	48.044	145.140	9.374	26.461	-58.404	54.192	46.389	-59.717	-53.132	286.530	5.962	-54.959	-49.347	-47.814	-42.945	82.533	-45.332	-8191	255	
15385.114	1	1	0	0	0.15279	0.047165	0.11788	0.26436	0.1888	0.1036	0.48048	0.051616	0.14566	0.10204	0.22308	0.057529	0.11637	0.12358	0.044053	0.30418	-2.3104	-2.8583	-2.4917	-3.1354	-2.7229	-2.5458	-3.1396	-2.7042	-2.8333	-2.925	-2.6729	-2.9646	-2.725	-2.4333	-3.0687	-2.8854	82.770	232.255	154.555	-15.879	47.389	60.062	253.979	194.466	-39.072	255.845	279.246	281.695	-10.059	-64.053	-56.145	-44.182	0.00012736	0.00013328	0.00015694	746.18	6.6667e-06	8.6643e-06	750.14	226.16	1.7546e-06	7.2611e-06	279.34	106.79	81.121	33.334	5.5542e-06	47.013	0.0028272	0.0049499	0.0013789	742.02	4.927e-05	5.6119e-05	750.53	228.46	4.983e-05	5.4322e-05	283.4	108.93	84.102	34.15	5.0692e-05	47.989	143.779	-22.030	-0.074	-58.883	43.936	124.928	-59.802	-52.748	-0.294	73.354	-54.660	-49.982	-48.063	-42.772	102.160	-45.473	-8191	255	
15385.233	1	1	0	0	0.24618	0.26414	0.19062	0.17448	0.15277	0.14633	0.039136	0.033022	0.069496	0.36861	0.1684	0.21811	0.17523	0.18793	0.1661	0.081655	-2.2729	-2.9792	-2.475	-3.1292	-2.9521	-2.6833	-2.9833	-2.7146	-2.725	-3.0062	-2.3146	-2.8771	-2.8312	-2.6417	-2.85	-2.7354	-16.779	58.687	121.168	206.288	202.851	137.979	134.029	265.680	17.309	30.367	84.731	250.757	274.188	29.319	167.211	238.750	0.00010516	0.00066258	1.1339e-05	745.87	1.5931e-06	2.59e-06	750.4	225.85	6.0933e-06	4.9086e-06	280.66	106.16	82.46	33.466	3.3583e-06	46.991	0.0027868	0.0048391	0.0013626	741.75	4.7489e-05	5.3309e-05	751.76	228.61	4.7941e-05	5.2394e-05	284	108.91	84.489	34.061	4.8893e-05	47.7	162.400	16.606	-2.247	-58.646	272.566	129.195	-59.656	-52.515	70.220	71.653	-54.088	-50.115	-48.025	-42.921	118.627	-45.951	-8191	255	
15385.329	1	1	0	0	0.043736	0.11627	0.20277	0.12334	0.12726	0.0437	0.095884	0.063165	0.29224	0.020247	0.38151	0.12096	0.16129	0.21075	0.068716	0.18845	-2.0896	-3.0792	-2.5104	-2.8521	-2.9417	-2.6104	-3.0875	-2.7333	-2.6125	-2.9375	-2.3917	-2.8625	-2.875	-2.6	-2.9437	-2.7917	177.769	-50.689	127.872	288.268	-38.348	254.472	232.990	255.968	276.703	157.069	116.192	120.695	110.531	190.501	130.750	201.701	6.1028e-05	0.00032985	0.00016332	740.66	1.9508e-06	2.3693e-06	742.54	224.57	1.4842e-06	6.7947e-06	276.3	105.49	81.35	32.953	2.1813e-06	46.504	0.0027491	0.0046917	0.0013506	739.18	4.6984e-05	5.3582e-05	744.8	226.5	4.7962e-05	5.1851e-05	279.7	107.76	83.584	33.697	5.0439e-05	47.418	157.542	-2.578	43.061	-58.555	175.971	-62.288	-59.827	-52.811	135.453	85.204	-54.455	-50.238	-47.970	-42.880	-1.585	-45.440	-8191	255	
15385.426	1	1	0	0	0.21097	0.11981	0.28436	0.35629	0.029265	0.12565	0.18724	0.060691	0.45474	0.11515	0.10018	0.10387	0.11624	0.14584	0.17013	0.12802	-2.1875	-2.95	-2.6271	-2.9146	-3	-2.4542	-2.825	-2.7125	-2.4521	-3.0292	-2.8021	-2.6854	-2.9521	-2.5042	-2.8063	-2.8917	141.627	212.686	103.364	273.720	124.102	235.488	233.562	-5.500	81.527	91.629	205.417	221.344	234.859	-3.515	105.450	288.049	5.9569e-05	0.00020006	0.00027109	738.04	2.4734e-06	8.9591e-06	743.28	223.25	2.4892e-06	9.3907e-06	276.85	104.91	81.076	33.067	5.6932e-06	46.73	0.0027971	0.0047051	0.0013459	736.2	4.7361e-05	5.3998e-05	743.86	225.62	4.7318e-05	5.2301e-05	279.92	107.5	83.356	33.734	4.97e-05	47.43	132.104	-13.540	29.850	-58.634	115.482	69.218	-59.655	-53.041	129.319	78.041	-54.881	-49.931	-48.099	-43.078	115.184	-45.588	-8191	255	
15385.546	1	1	0	0	0.13432	0.10824	0.11127	0.26652	0.27338	0.11668	0.11539	0.14319	0.25311	0.0083859	0.1442	0.14664	0.19451	0.13789	0.10754	0.17859	-2.2396	-3.0354	-2.7354	-2.9958	-3.0354	-2.5396	-2.9896	-2.8875	-2.5375	-3.1458	-2.5896	-2.6583	-2.9521	-2.6437	-2.7958	-2.8292	-36.862	114.000	134.760	218.539	264.562	110.575	250.489	143.043	276.702	83.105	192.107	122.762	220.241	152.937	187.554	145.976	0.00019278	0.00017239	0.00018331	740.02	2.5234e-06	3.8362e-06	745.92	225.65	2.2679e-06	3.2659e-06	277.46	105.44	81.144	33.214	1.0187e-06	46.727	0.0027429	0.0046837	0.0013555	737.83	4.7075e-05	5.4274e-05	745.77	227.2	4.8162e-05	5.4287e-05	281.49	108.08	83.714	33.838	5.1518e-05	47.687	180.356	128.010	42.796	-58.576	116.841	77.679	-59.742	-52.800	162.390	0.903	-54.428	-50.093	-47.821	-42.888	167.530	-45.756	-8191	255	
15385.618	1	1	0	0	0.096571	0.19382	0.029975	0.24786	0.20469	0.10566	0.29512	0.22695	0.045682	0.067178	0.1259	0.18283	0.055946	0.17454	0.43442	0.14569	-1.9854	-3.0042	-2.6188	-2.7188	-3.0187	-2.5854	-3.0375	-3.0479	-2.4313	-2.8521	-2.8979	-2.7708	-3.0042	-2.6167	-2.6875	-2.9292	75.897	239.713	161.548	283.290	190.208	224.898	239.649	-64.372	1.735	-38.821	-6.638	-28.556	236.042	287.664	-17.701	200.803	0.00017904	0.00055881	0.00015483	741.63	3.4223e-06	2.9693e-06	747.37	225.3	1.9565e-06	5.4281e-06	278.18	105.53	81.17	32.962	4.3379e-06	46.315	0.0028431	0.0048488	0.0014039	738.52	4.8786e-05	5.6081e-05	747.31	227.11	5.0503e-05	5.6563e-05	281.65	108.14	83.649	33.772	5.1967e-05	47.26	178.167	28.277	-8.816	-58.848	42.498	-21.599	-59.885	-52.925	98.857	254.386	-54.330	-50.189	-47.737	-42.509	54.937	-45.316	-8191	255	
15385.714	1	1	0	0	0.18477	0.11922	0.21013	0.028409	0.17357	0.17076	0.16371	0.32879	0.090431	0.16305	0.25776	0.15355	0.085005	0.022598	0.15206	0.16581	-2.0708	-2.9396	-2.5771	-2.7313	-2.7854	-2.5146	-2.8292	-2.8187	-2.45	-2.9833	-2.8667	-2.4667	-3.0396	-2.8229	-2.6104	-2.9708	-19.846	115.220	105.782	53.217	257.157	-18.664	203.546	273.430	107.224	234.227	-42.847	-40.539	208.026	224.966	11.353	208.272	0.00013854	0.0006464	5.5046e-05	739.02	4.3721e-06	5.4035e-06	743.05	225.59	1.3608e-06	1.9133e-06	275.53	105.16	80.904	33.029	1.6334e-06	46.671	0.0028933	0.0049526	0.0014239	736.72	4.8826e-05	5.6171e-05	744.43	226.95	5.0326e-05	5.5515e-05	280.2	107.52	83.528	33.734	5.2339e-05	47.439	169.291	-35.969	12.543	-58.313	71.807	128.096	-59.766	-52.904	174.003	174.405	-54.592	-49.901	-47.933	-42.770	100.276	-45.586	-8191	255	
15385.835	1	1	0	0	0.20555	0.10138	0.21838	0.17089	0.32351	0.085967	0.2589	0.19672	0.14094	0.21781	0.26649	0.28059	0.16747	0.056134	0.17402	0.15325	-1.9813	-2.8812	-2.6708	-2.7458	-2.8646	-2.7792	-2.7521	-3.1292	-2.4958	-2.8521	-2.9833	-2.6562	-3.1792	-2.9688	-2.6688	-3.125	208.717	207.755	-37.328	207.345	-42.442	44.600	-66.928	230.545	-52.607	274.086	233.203	150.100	-41.603	-7.720	99.192	24.592	0.00017094	0.00042885	0.00010278	739.16	2.6121e-06	4.8127e-06	743.18	224.09	1.0992e-06	7.249e-06	277.01	105.53	81.644	32.816	2.947e-06	46.554	0.0028548	0.0049702	0.001403	735.88	4.8765e-05	5.5437e-05	744.05	226.45	5.0853e-05	5.5946e-05	280.59	107.95	83.903	33.746	5.1604e-05	47.516	160.375	59.678	141.308	-58.531	139.243	95.986	-59.631	-52.865	162.947	105.610	-54.437	-49.965	-47.772	-42.881	16.004	-45.634	-8191	255	
15385.929	1	1	0	0	0.19093	0.035395	0.31115	0.17555	0.37324	0.11098	0.19092	0.091222	0.15476	0.20507	0.26902	0.31163	0.17504	0.158	0.15202	0.14265	-2.05	-2.7938	-2.8	-2.525	-2.7417	-2.8729	-2.6917	-3.1437	-2.4354	-2.7687	-2.9021	-2.7021	-2.825	-2.8729	-2.575	-3.0542	134.974	234.797	177.775	100.446	212.870	-24.715	146.207	172.047	127.015	67.853	-57.038	234.578	-69.814	-53.619	277.821	20.764	0.00012676	0.00019688	0.00015395	738.92	1.6535e-06	6.4652e-06	742.83	224.03	2.6077e-06	5.8318e-06	278.17	105.92	81.788	33.263	3.4582e-06	46.93	0.0028862	0.0049834	0.0014054	737.74	4.9359e-05	5.6997e-05	746.88	227.07	5.1003e-05	5.5783e-05	282.45	108.4	84.193	34.028	5.1721e-05	47.778	179.323	97.336	33.124	-58.635	225.391	90.576	-59.832	-52.846	5.004	31.672	-54.660	-49.885	-47.914	-43.000	-57.598	-45.419	-8191	255	
15386.027	1	1	0	0	0.10998	0.29116	0.21877	0.29401	0.16546	0.14161	0.048131	0.1918	0.12403	0.23915	0.20492	0.24308	0.25418	0.048024	0.18714	0.26051	-2.1042	-2.8708	-2.6625	-2.6188	-3.0667	-2.6604	-2.5354	-3.0812	-2.5625	-2.5354	-2.9146	-2.525	-2.8271	-2.8875	-2.4979	-3.0958	196.885	108.628	50.318	208.006	288.468	-30.117	-2.600	-57.019	175.705	-33.143	288.163	-10.879	78.917	277.128	118.929	221.142	0.00010376	0.00086804	8.2942e-05	742.57	5.414e-06	9.225e-06	748.18	225.93	3.0912e-06	7.5175e-07	279.21	106.12	81.897	33.219	1.6569e-06	46.798	0.0029031	0.00508	0.0013966	739.74	4.9584e-05	5.6369e-05	749.41	228.03	5.1711e-05	5.5928e-05	283.03	108.75	84.447	34.032	5.2189e-05	47.767	158.894	8.651	75.522	-58.647	143.940	105.214	-59.671	-53.063	73.735	69.348	-54.430	-49.819	-48.114	-42.866	31.392	-45.491	-8191	255	
15386.146	1	1	0	0	0.12839	0.34179	0.14814	0.45285	0.33467	0.013584	0.4354	0.10997	0.0575	0.047296	0.025388	0.10061	0.19027	0.33811	0.099125	0.17809	-2.2188	-2.4521	-2.875	-2.7208	-2.7333	-3.0729	-2.525	-3.1167	-2.7188	-2.6854	-3.1312	-2.7458	-2.9917	-2.8708	-2.6333	-2.9125	103.424	155.728	269.619	257.062	59.533	70.898	200.505	-62.356	220.470	162.775	89.015	285.384	140.984	239.979	223.740	42.380	0.00014888	0.0004941	0.00014285	740.4	5.9658e-06	6.1531e-06	740.4	223.82	5.5808e-06	8.9038e-06	275.78	104.67	81.139	32.985	5.8e-07	46.121	0.0029097	0.0051522	0.0014239	739.43	5.0562e-05	5.6848e-05	743.56	226.9	5.224e-05	5.6217e-05	280.25	107.37	83.896	33.763	5.323e-05	47.226	174.898	-16.076	-16.090	-58.606	59.378	134.638	-59.694	-52.759	276.999	54.497	-54.673	-49.941	-48.067	-42.747	265.336	-45.554	-8191	255	
15386.242	1	1	0	0	0.10214	0.1023	0.067305	0.25572	0.083262	0.24827	0.27977	0.19905	0.26316	0.14954	0.012983	0.1518	0.40205	0.12902	0.1157	0.17221	-2.2333	-2.4479	-2.7687	-2.4354	-2.7333	-2.8083	-2.5979	-3.0438	-2.6479	-2.4625	-3.1063	-2.6875	-2.6667	-3.1292	-2.4979	-3.0875	213.972	150.734	112.058	246.099	164.228	202.463	236.393	163.732	196.449	126.085	179.172	2.994	228.770	265.782	-15.992	43.757	0.0001621	0.00056332	0.00019129	739.99	3.8092e-06	5.3824e-06	745.23	223.42	5.293e-06	7.9236e-06	276.94	105.67	81.5	33.126	3.926e-06	46.478	0.0029393	0.0051548	0.0014058	736.71	5.046e-05	5.65e-05	745.97	226.99	5.1384e-05	5.6655e-05	280.92	107.78	84.001	33.864	5.2375e-05	47.531	175.657	49.931	76.693	-58.602	-55.908	-33.177	-59.416	-52.931	110.022	41.567	-54.698	-49.989	-48.130	-42.697	82.837	-45.485	-8191	255	
15386.314	1	1	0	0	0.18245	0.24467	0.066941	0.15008	0.10167	0.2745	0.079944	0.20262	0.097373	0.21029	0.21057	0.14568	0.12624	0.088286	0.28323	0.17943	-2.2833	-2.4354	-2.9104	-2.7854	-2.8646	-3.0625	-2.6167	-2.975	-2.8187	-2.6312	-3.0187	-2.6688	-2.6417	-3.0125	-2.4583	-2.8521	59.137	196.045	21.113	208.694	270.508	177.428	171.035	193.859	45.289	178.428	238.550	177.453	-57.639	6.032	25.998	224.952	0.00011837	0.00074152	4.2326e-05	740.53	5.1854e-06	8.0628e-07	750.04	224.8	5.8813e-06	3.8579e-06	278.73	105.56	80.95	33.092	2.7334e-06	46.569	0.0029071	0.0051022	0.0014199	738.4	4.9527e-05	5.6899e-05	747.67	227.05	5.1959e-05	5.6848e-05	282.43	108.14	83.863	33.876	5.3953e-05	47.541	144.814	-41.140	225.026	-58.460	-15.317	278.771	-59.646	-52.916	152.954	85.281	-54.618	-49.892	-47.897	-42.830	146.738	-45.293	-8191	255	
15386.434	1	1	0	0	0.16686	0.29445	0.045718	0.17058	0.0010105	0.19411	0.46291	0.20465	0.13281	0.15118	0.18921	0.12509	0.013679	0.2607	0.23219	0.17319	-2.4479	-2.5104	-2.8521	-2.7646	-2.4854	-3.0104	-2.6375	-2.7625	-2.8104	-2.6188	-2.9521	-2.8708	-2.75	-2.9083	-2.5125	-2.9104	95.047	277.588	12.840	220.429	180.000	258.547	208.122	-47.908	13.607	-7.041	100.997	-68.249	224.065	-61.600	270.034	123.823	0.00010438	0.00047703	0.00018021	739.97	4.7792e-06	5.2973e-06	740.14	222.63	3.3608e-06	6.1032e-06	275.7	105.12	80.378	32.957	3.4136e-06	46.346	0.0029334	0.0051431	0.0014296	735.84	5.0275e-05	5.7256e-05	743.13	226.09	5.0899e-05	5.5931e-05	279.89	107.34	83.544	33.688	5.4254e-05	47.259	172.833	123.616	87.846	-58.851	83.689	183.303	-59.697	-53.072	6.225	144.065	-54.623	-49.991	-48.189	-42.773	74.315	-45.370	-8191	255	
15386.530	1	1	0	0	0.10993	0.22314	0.07275	0.16537	0.30955	0.24613	0.10997	0.33398	0.12357	0.10963	0.21504	0.19365	0.17526	0.2418	0.18658	0.036627	-2.4833	-2.35	-2.8688	-2.7167	-2.5	-2.7417	-2.7	-2.8125	-3.0333	-2.6542	-2.8729	-2.8958	-2.6167	-3.1521	-2.7396	-2.6542	-33.619	-61.901	136.336	287.801	193.569	104.272	254.296	-52.497	5.789	74.319	-15.981	272.782	287.888	-41.194	155.952	279.753	9.3001e-05	0.0005046	0.00012058	740.72	1.4006e-06	2.6903e-06	745.77	224.5	2.0446e-06	8.4052e-06	276.81	105.66	80.775	32.902	2.7253e-06	46.67	0.0029397	0.0051267	0.0014497	736.45	5.0352e-05	5.8049e-05	745.05	226.5	5.0988e-05	5.6535e-05	280.92	107.93	83.633	33.847	5.4244e-05	47.681	150.682	-57.490	-8.988	-58.619	115.179	59.440	-59.780	-52.785	163.466	80.894	-54.642	-50.033	-47.832	-42.717	-13.976	-45.507	-8191	255	
15386.627	1	1	0	0	0.056414	0.16178	0.25372	0.32193	0.37763	0.32787	0.091123	0.23245	0.088343	0.26705	0.1321	0.24674	0.25092	0.18936	0.11592	0.1462	-2.55	-2.4	-2.8229	-2.8125	-2.4188	-2.9021	-2.6583	-2.7188	-2.8792	-2.4938	-2.9021	-2.9	-2.5896	-3.0021	-2.6146	-2.7062	148.373	99.249	-44.398	227.031	232.581	180.412	65.954	213.851	184.359	-43.201	199.517	-56.951	283.453	-32.024	-56.714	223.995	0.00012799	0.00034518	0.00013442	737.26	4.9952e-06	1.3817e-05	746.55	224.54	4.2032e-06	4.1623e-06	278	106.1	81.367	33.14	3.9416e-06	46.363	0.0029523	0.0050922	0.00145	736.65	5.0007e-05	5.7636e-05	748.75	227.04	5.1639e-05	5.8708e-05	282.87	108.35	83.992	33.883	5.4754e-05	47.731	131.517	4.213	16.005	-59.068	98.355	79.988	-59.629	-52.658	135.313	-23.989	-54.320	-49.533	-48.298	-42.869	147.968	-45.464	-8191	255	
15386.723	1	1	0	0	0.1028	0.1265	0.086651	0.09035	0.15811	0.1566	0.23272	0.19652	0.091301	0.19001	0.20817	0.22795	0.070942	0.14544	0.21136	0.20463	-2.5625	-2.4667	-2.6125	-2.8542	-2.5646	-2.9667	-2.7792	-2.5583	-2.9167	-2.5	-2.7687	-3.0146	-2.5604	-2.9354	-2.8063	-2.6458	163.989	252.244	-23.165	-46.518	-63.356	260.631	258.553	250.896	-65.877	107.562	17.904	-66.413	280.326	283.328	74.602	208.230	0.00014557	0.00047754	0.00016198	738.95	3.6685e-06	2.5534e-06	748.55	223.85	1.0036e-06	8.0305e-06	277.97	106.54	81.379	33.211	2.8824e-06	46.94	0.0029736	0.0052043	0.0014762	738.7	5.1642e-05	5.9138e-05	750.34	226.56	5.2468e-05	5.8866e-05	282.35	108.78	84.11	34.04	5.4705e-05	47.963	173.763	59.881	14.102	-58.712	39.000	97.078	-59.487	-52.786	91.806	52.301	-54.512	-49.835	-47.734	-42.324	87.090	-45.207	-8191	255	
15386.819	1	1	0	0	0.23336	0.10775	0.37589	0.1027	0.30099	0.031141	0.15588	0.27389	0.18687	0.2369	0.13743	0.15956	0.11557	0.095358	0.15564	0.17711	-2.5208	-2.6042	-2.7896	-3.0667	-2.6708	-3.0917	-2.9167	-2.7229	-3.0792	-2.7083	-2.95	-3.0979	-2.6104	-2.8979	-3.0125	-2.5104	34.200	139.907	43.150	242.314	135.733	28.741	277.467	186.478	4.569	212.772	135.693	170.230	254.246	38.002	117.266	149.634	0.00014968	0.00014441	5.846e-05	741.4	5.098e-06	3.9228e-06	748.23	224.98	7.15e-07	1.3323e-06	280.08	105.46	81.369	33.28	5.1247e-06	46.527	0.0030044	0.0052224	0.0014638	740.14	5.1166e-05	5.8973e-05	751.22	227.81	5.2597e-05	5.8356e-05	282.87	108.47	83.813	33.967	5.3536e-05	47.634	157.120	223.659	109.814	-58.875	75.102	104.749	-59.478	-52.752	-6.422	-33.188	-54.681	-50.095	-47.790	-42.701	15.453	-45.594	-8191	255	
15386.915	1	1	0	0	0.29412	0.29347	0.11852	0.28546	0.16533	0.035185	0.11628	0.089673	0.16685	0.17639	0.18452	0.099444	0.10982	0.12461	0.059434	0.19583	-2.5792	-2.6167	-2.5729	-3.0979	-2.5792	-2.8729	-2.9813	-2.4437	-2.8333	-2.7042	-2.5917	-2.9062	-2.6	-3.1021	-2.9354	-2.4333	64.113	88.989	190.795	243.650	103.474	-66.479	162.404	266.516	274.093	-8.342	221.963	-8.492	159.513	13.690	209.592	151.061	0.00010902	0.00049589	6.245e-05	737.27	7.1027e-07	6.754e-06	744.5	222.53	3.4117e-06	9.5236e-06	277.26	104.5	80.74	32.937	7.389e-06	46.404	0.0029609	0.0051414	0.001455	735.43	5.1253e-05	5.7896e-05	744.95	225.68	5.1759e-05	5.897e-05	280.05	107.43	83.309	33.867	5.3669e-05	47.489	165.204	-1.173	287.607	-58.642	153.983	51.994	-59.405	-52.996	46.054	84.670	-54.483	-49.419	-47.843	-42.429	45.657	-45.602	-8191	255	
15387.011	1	1	0	0	0.28079	0.12779	0.1176	0.15184	0.026989	0.18711	0.15527	0.21792	0.18414	0.10099	0.021539	0.096474	0.12517	0.38428	0.21973	0.36362	-2.5146	-2.9375	-2.6354	-3.2354	-2.5021	-2.7917	-3.0125	-2.4229	-2.7812	-2.8292	-2.7146	-3.1146	-2.6625	-2.7188	-3.0771	-2.4771	-24.907	235.867	-40.687	211.966	127.165	35.637	214.925	131.222	251.115	-29.024	205.732	86.884	87.835	266.858	122.435	196.788	0.00014922	0.00048075	0.00013904	739.55	2.9381e-07	1.3525e-06	739.79	222.9	1.0772e-06	2.864e-06	276.88	104.93	80.931	33.153	8.5528e-06	46.799	0.0029683	0.0051815	0.0014447	737.22	5.1709e-05	5.8252e-05	743.67	225.98	5.3434e-05	5.9446e-05	280.61	107.62	83.661	33.859	5.3447e-05	47.615	163.675	60.679	3.010	-58.379	137.883	249.821	-59.641	-53.207	182.807	36.506	-54.468	-49.964	-47.947	-43.062	89.305	-45.522	-8191	255	
#DATA ENDS
