BOXY.EXE: ISS Imagent and Oximeter Data Acquisition Program Version 0.80
Ascii Record File

#ACQ INFORMATION
2  Detector Channels 
16  External MUX Channels 
1  Auxiliary Channels 
5000  Waveform (CCF) Frequency (Hz)
1  Waveforms Skipped 
30  Waveforms Averaged 
1  Cycles Averaged 
16  Acquisitions per Waveform 
10.0806  Updata Rate (Hz) 

#FILE INFORMATION
TRUE -- External MUX Channel results are PARSED.
FALSE -- AC DC and Phase are NOT grouped.
TRUE -- Companion Program Settings File CREATED.
FALSE -- AC data not excluded
FALSE -- DC data not excluded
FALSE -- Phase data not excluded
FALSE -- Auxillary Chn. data not excluded
Tab delimiters

#CALIBRATION STATE
TRUE -- Waveform Calibration Values APPLIED.


#AUX CALIBRATION VALUES
Val Type	aux-1	

Term	1.0000e+00	
Factor	0.0000e+00	


#WF CALIBRATION VALUES
A = Detector Channel
Val Type	A-AC1	A-AC2	A-AC3	A-AC4	A-AC5	A-AC6	A-AC7	A-AC8	A-AC9	A-AC10	A-AC11	A-AC12	A-AC13	A-AC14	A-AC15	A-AC16	A-DC1	A-DC2	A-DC3	A-DC4	A-DC5	A-DC6	A-DC7	A-DC8	A-DC9	A-DC10	A-DC11	A-DC12	A-DC13	A-DC14	A-DC15	A-DC16	A-Ph1	A-Ph2	A-Ph3	A-Ph4	A-Ph5	A-Ph6	A-Ph7	A-Ph8	A-Ph9	A-Ph10	A-Ph11	A-Ph12	A-Ph13	A-Ph14	A-Ph15	A-Ph16	

Term	0.00000e+00	0.00000e+00	0.00000e+00	0.00000e+00	0.00000e+00	0.00000e+00	0.00000e+00	0.00000e+00	0.00000e+00	0.00000e+00	0.00000e+00	0.00000e+00	0.00000e+00	0.00000e+00	0.00000e+00	0.00000e+00	0.00000e+00	0.00000e+00	0.00000e+00	0.00000e+00	0.00000e+00	0.00000e+00	0.00000e+00	0.00000e+00	0.00000e+00	0.00000e+00	0.00000e+00	0.00000e+00	0.00000e+00	0.00000e+00	0.00000e+00	0.00000e+00	0.00000e+00	0.00000e+00	0.00000e+00	0.00000e+00	0.00000e+00	0.00000e+00	0.00000e+00	0.00000e+00	0.00000e+00	0.00000e+00	0.00000e+00	0.00000e+00	0.00000e+00	0.00000e+00	0.00000e+00	0.00000e+00	
Factor	1.00000e+00	1.00000e+00	1.00000e+00	1.00000e+00	1.00000e+00	1.00000e+00	1.00000e+00	1.00000e+00	1.00000e+00	1.00000e+00	1.00000e+00	1.00000e+00	1.00000e+00	1.00000e+00	1.00000e+00	1.00000e+00	1.00000e+00	1.00000e+00	1.00000e+00	1.00000e+00	1.00000e+00	1.00000e+00	1.00000e+00	1.00000e+00	1.00000e+00	1.00000e+00	1.00000e+00	1.00000e+00	1.00000e+00	1.00000e+00	1.00000e+00	1.00000e+00	X	X	X	X	X	X	X	X	X	X	X	X	X	X	X	X	

B = Detector Channel
Val Type	B-AC1	B-AC2	B-AC3	B-AC4	B-AC5	B-AC6	B-AC7	B-AC8	B-AC9	B-AC10	B-AC11	B-AC12	B-AC13	B-AC14	B-AC15	B-AC16	B-DC1	B-DC2	B-DC3	B-DC4	B-DC5	B-DC6	B-DC7	B-DC8	B-DC9	B-DC10	B-DC11	B-DC12	B-DC13	B-DC14	B-DC15	B-DC16	B-Ph1	B-Ph2	B-Ph3	B-Ph4	B-Ph5	B-Ph6	B-Ph7	B-Ph8	B-Ph9	B-Ph10	B-Ph11	B-Ph12	B-Ph13	B-Ph14	B-Ph15	B-Ph16	

Term	0.00000e+00	0.00000e+00	0.00000e+00	0.00000e+00	0.00000e+00	0.00000e+00	0.00000e+00	0.00000e+00	0.00000e+00	0.00000e+00	0.00000e+00	0.00000e+00	0.00000e+00	0.00000e+00	0.00000e+00	0.00000e+00	0.00000e+00	0.00000e+00	0.00000e+00	0.00000e+00	0.00000e+00	0.00000e+00	0.00000e+00	0.00000e+00	0.00000e+00	0.00000e+00	0.00000e+00	0.00000e+00	0.00000e+00	0.00000e+00	0.00000e+00	0.00000e+00	-2.03927e+02	-1.31831e+02	-1.25538e+02	-1.83254e+02	-8.09175e+01	-7.08768e+01	-1.60701e+02	-1.62015e+02	-9.04271e+01	-7.32347e+01	-1.72480e+02	-1.72818e+02	-1.83168e+02	-1.78087e+02	-6.61985e+01	-1.50828e+02	
Factor	3.89286e-05	1.23717e-04	3.30348e-05	1.37229e-01	1.13119e-06	1.25685e-06	1.52528e-01	4.65841e-02	1.24710e-06	1.41356e-06	7.24308e-02	2.45414e-02	2.28361e-02	7.36464e-03	1.53149e-06	1.05710e-02	3.04281e-06	3.29901e-06	9.19863e-07	7.35445e-02	3.56907e-08	3.63287e-08	7.68056e-02	2.49985e-02	3.56985e-08	3.62099e-08	3.76454e-02	1.27287e-02	1.23343e-02	3.98035e-03	3.59260e-08	5.53306e-03	X	X	X	X	X	X	X	X	X	X	X	X	X	X	X	X	



#DISTANCE SETTINGS
A = Detector Channel
A-1	A-2	A-3	A-4	A-5	A-6	A-7	A-8	A-9	A-10	A-11	A-12	A-13	A-14	A-15	A-16	

2.5000e+00	3.0000e+00	2.5000e+00	3.0000e+00	2.0000e+00	3.0000e+00	1.5000e+00	3.0000e+00	3.0000e+00	3.0000e+00	3.0000e+00	3.0000e+00	3.0000e+00	3.0000e+00	1.5000e+00	3.0000e+00	

B = Detector Channel
B-1	B-2	B-3	B-4	B-5	B-6	B-7	B-8	B-9	B-10	B-11	B-12	B-13	B-14	B-15	B-16	

1.0000e+01	1.0000e+01	1.0000e+01	1.4400e+00	1.0000e+01	1.0000e+01	1.5100e+00	1.9400e+00	1.0000e+01	1.0000e+01	1.9900e+00	2.4900e+00	2.4100e+00	2.9000e+00	1.0000e+01	2.9800e+00	




#DATA BEGINS
time	group	step	mark	flag	A-AC1	A-AC2	A-AC3	A-AC4	A-AC5	A-AC6	A-AC7	A-AC8	A-AC9	A-AC10	A-AC11	A-AC12	A-AC13	A-AC14	A-AC15	A-AC16	A-DC1	A-DC2	A-DC3	A-DC4	A-DC5	A-DC6	A-DC7	A-DC8	A-DC9	A-DC10	A-DC11	A-DC12	A-DC13	A-DC14	A-DC15	A-DC16	A-Ph1	A-Ph2	A-Ph3	A-Ph4	A-Ph5	A-Ph6	A-Ph7	A-Ph8	A-Ph9	A-Ph10	A-Ph11	A-Ph12	A-Ph13	A-Ph14	A-Ph15	A-Ph16	B-AC1	B-AC2	B-AC3	B-AC4	B-AC5	B-AC6	B-AC7	B-AC8	B-AC9	B-AC10	B-AC11	B-AC12	B-AC13	B-AC14	B-AC15	B-AC16	B-DC1	B-DC2	B-DC3	B-DC4	B-DC5	B-DC6	B-DC7	B-DC8	B-DC9	B-DC10	B-DC11	B-DC12	B-DC13	B-DC14	B-DC15	B-DC16	B-Ph1	B-Ph2	B-Ph3	B-Ph4	B-Ph5	B-Ph6	B-Ph7	B-Ph8	B-Ph9	B-Ph10	B-Ph11	B-Ph12	B-Ph13	B-Ph14	B-Ph15	B-Ph16	aux-1	digaux	

14325.256	1	1	0	768	0.20074	0.10581	0.22191	0.1485	0.26169	0.20442	0.22305	0.19782	0.084259	0.052348	0.14007	0.15401	0.20462	0.047623	0.14497	0.21119	-1.9188	-2.3688	-2.5854	-2.3583	-2.7521	-2.6479	-2.5083	-3.0563	-2.6188	-2.4625	-2.8875	-2.4396	-2.5479	-2.6312	-2.0438	-2.7646	391.884	406.073	455.481	462.643	499.368	341.344	477.281	197.751	363.353	175.945	418.901	426.786	524.542	195.619	325.732	437.629	0.00061459	0.00021091	0.00013926	1033.8	3.1903e-06	3.3963e-06	1125.4	210.74	3.2658e-06	5.5426e-06	264.88	75.902	59.579	17.181	2.159e-06	24.069	0.00022319	0.0002107	5.743e-05	1016.6	2.3548e-06	2.2749e-06	1112.6	209.18	2.2984e-06	2.2725e-06	264.3	76.298	59.624	17.437	2.2802e-06	24.494	487.453	262.025	284.148	181.117	269.620	333.948	181.287	188.298	288.580	352.151	188.531	194.674	195.200	202.817	337.267	201.805	-8191	255	
14325.352	1	1	0	0	0.17471	0.11241	0.15869	0.40128	0.14082	0.35908	0.29299	0.36863	0.090064	0.23378	0.11998	0.35379	0.24367	0.061219	0.045465	0.14735	-2.2958	-2.5271	-2.7917	-2.5354	-2.5563	-2.7313	-2.5625	-2.8625	-2.7333	-2.3333	-2.7292	-2.4604	-2.6208	-2.9458	-2.4604	-2.8333	478.430	401.428	206.701	499.236	405.469	416.538	473.668	497.818	256.227	503.204	415.155	513.240	234.174	488.230	379.996	404.780	0.00055697	0.00048119	5.226e-05	1025.6	2.6422e-06	3.4159e-06	1123.5	211.37	4.8329e-06	3.1249e-06	266.66	76.743	59.686	17.205	3.559e-06	24.033	0.00022918	0.00021261	5.7675e-05	1015.3	2.394e-06	2.2588e-06	1110.8	209.42	2.2632e-06	2.2896e-06	264.96	76.576	59.733	17.434	2.3407e-06	24.497	488.701	277.405	288.848	181.111	314.990	288.262	181.058	188.785	324.447	324.777	188.096	194.724	195.121	203.134	311.283	201.983	-8191	255	
14325.448	1	1	0	0	0.23073	0.088051	0.099078	0.21659	0.16276	0.079775	0.22876	0.17051	0.24592	0.26333	0.11147	0.18502	0.20893	0.071419	0.063027	0.18388	-2.05	-2.3646	-2.8375	-2.6479	-2.5917	-2.7729	-2.3646	-2.65	-2.6271	-2.3187	-2.8812	-2.4729	-2.5896	-2.8354	-2.4042	-2.7062	411.660	248.277	345.145	438.344	462.347	261.681	410.603	499.086	422.728	499.289	432.312	246.158	518.528	383.406	294.638	411.971	0.00057269	0.0004287	9.4579e-05	1030.2	2.8171e-06	1.533e-06	1123.4	211.73	1.5501e-06	2.5037e-06	265.45	76.477	59.589	17.157	3.9125e-06	24.079	0.00023355	0.00021651	5.9346e-05	1016.2	2.3633e-06	2.4115e-06	1108.9	209.42	2.4074e-06	2.3103e-06	263.78	76.444	59.508	17.478	2.3276e-06	24.504	487.476	265.511	259.856	181.223	257.022	341.228	180.924	188.291	311.608	317.621	188.132	194.363	194.714	203.230	340.713	202.490	-8191	255	
14325.544	1	1	0	0	0.096383	0.23898	0.083897	0.20749	0.22312	0.15643	0.21858	0.098807	0.15096	0.06969	0.25824	0.2364	0.13894	0.11267	0.32313	0.1675	-2.1562	-2.2771	-2.7188	-2.7104	-2.5042	-2.8542	-2.5312	-2.6063	-2.6396	-2.2208	-2.8208	-2.4333	-2.4833	-2.6229	-2.4958	-2.7042	320.921	354.880	478.736	176.565	312.918	273.581	527.008	202.519	375.616	445.654	505.201	501.663	464.993	252.725	359.995	430.632	0.00062433	0.00042619	8.7955e-05	1028.7	4.9344e-06	2.1827e-06	1121.6	210.85	1.9187e-06	2.573e-06	265.92	76.261	59.617	17.31	2.5106e-06	24.182	0.00022548	0.00021791	5.9345e-05	1015.2	2.3547e-06	2.3214e-06	1109.2	209.06	2.3657e-06	2.2632e-06	264.42	76.435	59.542	17.516	2.3469e-06	24.49	495.031	304.345	284.898	180.911	304.668	333.918	181.028	188.552	298.620	365.164	188.409	194.262	195.109	202.921	272.654	202.382	-8191	255	
14325.639	1	1	0	0	0.29577	0.17478	0.25631	0.3423	0.12453	0.34331	0.30199	0.22572	0.23015	0.34478	0.020584	0.1551	0.14718	0.074852	0.18036	0.14424	-2.1292	-2.2125	-2.7	-2.6229	-2.4229	-2.7604	-2.4646	-2.4208	-2.9125	-2.2708	-2.7062	-2.6667	-2.3542	-2.7042	-2.3917	-2.4917	529.010	529.020	336.563	515.024	258.876	393.011	454.927	528.368	405.772	209.405	309.283	449.158	249.052	486.173	175.709	176.269	0.00072508	0.00023516	8.7456e-05	1033.5	2.2788e-06	2.8231e-06	1120.1	210.93	1.7102e-06	1.5737e-06	266.22	76.701	59.525	17.192	1.6125e-06	24.057	0.00023643	0.00022378	6.0945e-05	1017.5	2.4531e-06	2.4395e-06	1109.3	209.94	2.3953e-06	2.3881e-06	264.54	76.527	59.733	17.497	2.2924e-06	24.472	487.802	188.533	298.113	181.028	343.756	360.072	181.047	188.188	197.447	273.857	188.011	194.583	194.911	202.540	275.474	202.259	-8191	255	
14325.736	1	1	0	0	0.24812	0.19295	0.042998	0.20486	0.20104	0.29553	0.10206	0.026579	0.097521	0.041929	0.076457	0.29695	0.37781	0.33653	0.17263	0.086146	-2.3438	-2.4292	-2.4938	-2.55	-2.2625	-2.7896	-2.625	-2.6458	-2.6354	-2.4646	-2.7604	-2.6688	-2.4875	-2.7125	-2.5438	-2.5521	336.448	509.552	488.158	490.784	197.275	422.092	442.760	416.267	491.200	174.296	463.786	333.579	458.149	520.966	390.877	260.484	0.00057676	0.00010423	8.0197e-05	1032.9	3.4276e-06	3.4771e-06	1121.3	210.67	3.8522e-06	3.1248e-06	265.78	76.548	59.133	17.238	5.6259e-06	24.27	0.00021721	0.00020117	5.5713e-05	1015	2.2557e-06	2.1947e-06	1109.7	209.28	2.2065e-06	2.2208e-06	264.11	76.365	59.443	17.469	2.2804e-06	24.532	486.962	249.426	339.001	181.172	324.599	388.395	180.889	188.140	306.096	360.350	188.342	194.493	195.223	202.631	326.376	202.346	-8191	255	
14325.855	1	1	0	0	0.23857	0.20303	0.052247	0.13732	0.037092	0.054409	0.30464	0.13001	0.10785	0.17375	0.20611	0.14565	0.075071	0.1601	0.24202	0.35487	-2.3292	-2.3958	-2.5938	-2.7271	-2.2229	-2.8958	-2.5479	-2.5125	-2.8792	-2.4229	-2.6854	-2.75	-2.2083	-2.8292	-2.5583	-2.5542	244.778	206.271	408.951	448.795	405.308	361.891	494.817	515.528	313.397	492.298	497.635	487.694	214.048	245.532	432.322	227.427	0.00065592	0.00013986	7.4094e-05	1030.9	2.0732e-06	3.8988e-06	1125.7	211.62	2.0157e-06	3.2986e-06	264.06	76.483	59.802	17.376	2.3819e-06	24.021	0.00022624	0.00019908	5.8132e-05	1017.7	2.2325e-06	2.2615e-06	1110.5	209.45	2.2143e-06	2.25e-06	263.72	76.392	59.712	17.493	2.2014e-06	24.486	489.589	296.937	277.571	181.025	270.097	333.653	181.103	188.806	243.315	291.196	188.373	194.528	195.169	202.685	291.088	202.238	-8191	255	
14325.951	1	1	0	0	0.10854	0.32904	0.12953	0.48872	0.03212	0.10739	0.37496	0.17422	0.072203	0.1237	0.24967	0.25048	0.06026	0.16069	0.18636	0.0050338	-2.4354	-2.2687	-2.625	-2.9562	-2.2313	-2.5771	-2.8042	-2.5604	-2.6771	-2.4792	-2.6521	-2.6771	-2.4208	-2.6521	-2.625	-2.4917	226.346	519.497	238.771	496.770	335.473	323.346	487.259	252.834	406.009	280.107	491.628	466.677	268.340	392.324	476.104	382.340	0.00055334	0.00018913	7.3192e-05	1027.6	4.2319e-06	4.6421e-06	1124.6	211.76	4.8344e-06	3.2112e-06	265.56	76.884	59.58	17.221	1.2018e-06	24.031	0.00021765	0.00020316	5.7026e-05	1016.9	2.2458e-06	2.2219e-06	1110.9	209.52	2.3293e-06	2.2829e-06	263.79	76.442	59.403	17.463	2.2961e-06	24.406	484.484	354.146	260.128	180.993	301.321	305.260	180.850	188.782	309.803	298.701	188.062	194.317	195.312	203.153	271.053	202.453	-8191	255	
14326.048	1	1	0	0	0.1715	0.31078	0.26406	0.065032	0.061094	0.31418	0.053017	0.27175	0.20591	0.18052	0.31753	0.11017	0.21142	0.40816	0.12335	0.14214	-2.2833	-2.4396	-2.2687	-2.8208	-2.2292	-2.5083	-2.8458	-2.1813	-2.8042	-2.6063	-2.4854	-2.7667	-2.275	-2.7687	-2.6104	-2.2375	194.995	258.665	347.659	474.454	258.171	206.293	188.779	491.584	346.684	466.386	192.409	352.774	490.331	484.473	240.145	494.460	0.00063589	0.00034323	6.1861e-05	1028.6	1.4988e-06	2.4197e-06	1115	210.35	3.3402e-06	1.973e-06	264.98	76.551	59.909	17.301	3.3535e-06	24.132	0.00022561	0.00021137	5.8304e-05	1015.9	2.3397e-06	2.2508e-06	1108.7	209.41	2.3066e-06	2.2214e-06	264.34	76.591	59.623	17.497	2.3233e-06	24.525	487.823	204.298	280.141	180.962	313.514	324.123	180.773	188.611	283.922	338.390	188.217	194.625	195.371	202.718	247.513	202.046	-8191	255	
14326.144	1	1	0	0	0.031708	0.14014	0.16225	0.15811	0.20822	0.066414	0.21547	0.17082	0.21259	0.24784	0.071943	0.27395	0.19487	0.041375	0.027495	0.16769	-2.2125	-2.4542	-2.3292	-2.9437	-2.2875	-2.5229	-2.75	-2.0812	-2.8042	-2.5354	-2.4896	-2.7208	-2.6188	-2.4021	-2.6354	-2.4021	175.523	405.851	208.238	469.225	400.539	374.753	175.740	488.968	258.546	267.525	475.311	192.992	450.507	261.582	414.186	501.274	0.00053164	0.00021169	9.9772e-05	1033.8	3.8419e-06	1.5945e-06	1118.1	210.34	4.2749e-06	8.3681e-07	264.77	76.432	59.55	17.137	4.4577e-06	24.049	0.00022751	0.00021083	5.8844e-05	1017.4	2.344e-06	2.281e-06	1107.9	209.08	2.3122e-06	2.2428e-06	263.63	76.606	59.622	17.47	2.329e-06	24.55	489.758	220.469	255.687	180.848	336.362	283.881	181.144	188.654	279.060	272.622	188.518	194.574	195.010	203.089	317.149	201.858	-8191	255	
14326.240	1	1	0	0	0.21397	0.28121	0.30815	0.077886	0.23038	0.3443	0.11446	0.48286	0.3649	0.075984	0.24021	0.13742	0.20629	0.3619	0.13382	0.20043	-2.2854	-2.4646	-2.1021	-2.8896	-2.2438	-2.4229	-2.9833	-2.4021	-2.4625	-2.8271	-2.4375	-2.9271	-2.4646	-2.4792	-2.8271	-2.2771	181.342	481.928	368.291	305.649	202.025	270.781	229.441	488.501	286.789	226.105	495.827	508.920	475.533	298.086	502.350	191.970	0.00049939	0.00020186	0.00011967	1032	2.9954e-06	3.3677e-06	1119.5	211.3	3.8166e-06	9.4091e-07	263.79	76.327	59.821	17.185	3.1479e-06	24.144	0.00022024	0.00021551	6.1064e-05	1016.9	2.423e-06	2.3079e-06	1109.6	209.7	2.3838e-06	2.3832e-06	263.53	76.363	59.577	17.479	2.3383e-06	24.498	493.121	233.697	259.256	181.094	296.010	262.767	180.711	188.247	336.965	522.902	188.120	194.223	194.906	202.651	339.281	201.991	-8191	255	
14326.336	1	1	0	0	0.22322	0.095526	0.12363	0.18263	0.1471	0.11774	0.16315	0.16319	0.14547	0.21587	0.29838	0.1559	0.22696	0.1629	0.12817	0.21734	-2.0812	-2.5729	-2.1	-2.8375	-2.4125	-2.5167	-2.8896	-2.4917	-2.6458	-2.6604	-2.4958	-2.8271	-2.4979	-2.1958	-2.6229	-2.475	398.113	397.701	476.320	450.017	340.298	443.993	372.406	443.847	362.120	371.038	174.201	525.787	493.343	422.073	366.180	222.667	0.00062438	0.00048745	6.6147e-05	1028.3	3.0085e-06	5.0723e-06	1128.8	211.71	2.478e-06	6.8446e-06	265.5	76.371	59.663	17.239	8.1721e-06	24.008	0.00022538	0.00021105	5.9394e-05	1017.3	2.3549e-06	2.2106e-06	1109.8	209.87	2.2718e-06	2.2413e-06	263.81	76.481	59.519	17.518	2.2639e-06	24.53	485.337	236.843	277.203	181.535	259.171	397.232	180.856	188.783	267.307	260.584	188.524	194.492	195.079	202.804	356.383	202.277	-8191	255	
14326.457	1	1	0	0	0.26379	0.11327	0.19829	0.1565	0.22274	0.28104	0.11851	0.21512	0.11254	0.12844	0.15393	0.27923	0.25491	0.3611	0.089362	0.06349	-2.2188	-2.5687	-2.3646	-2.6771	-2.4125	-2.2729	-2.7917	-2.2771	-2.3625	-2.6917	-2.325	-2.8042	-2.6437	-2.3521	-2.725	-2.2125	527.605	398.511	311.093	202.070	452.122	171.210	455.432	191.255	173.752	455.509	394.651	198.399	187.320	527.628	306.428	430.767	0.00059708	0.00044973	9.6949e-05	1026	3.1025e-06	3.7519e-06	1119.2	211.84	2.5439e-06	3.1724e-06	265.79	76.461	59.657	17.207	4.9574e-06	24.018	0.00022276	0.00019977	5.6953e-05	1015.3	2.3231e-06	2.2525e-06	1110	209.55	2.2399e-06	2.2004e-06	263.91	76.28	59.604	17.475	2.1357e-06	24.467	490.836	271.138	247.715	180.975	319.206	338.743	180.903	188.425	285.043	275.706	188.036	194.704	194.746	202.840	354.640	202.031	-8191	255	
14326.551	1	1	0	0	0.26231	0.064056	0.27006	0.071488	0.23078	0.11223	0.21278	0.1074	0.15462	0.25526	0.17192	0.26671	0.27214	0.105	0.23876	0.17632	-2.0375	-2.6792	-2.2146	-2.7458	-2.5	-2.3167	-2.9813	-2.4604	-2.3667	-2.6312	-2.425	-2.5	-2.4688	-2.5104	-2.6396	-2.3917	286.525	436.447	225.503	461.412	366.798	344.747	467.816	447.243	383.877	460.465	489.212	453.357	179.064	171.252	462.831	331.424	0.00059882	0.00028641	0.00013459	1031.6	3.0392e-06	6.4372e-06	1122.8	210.77	5.9823e-06	4.0291e-06	265.87	76.977	59.495	17.361	5.4326e-06	24.058	0.00022088	0.00019518	5.5634e-05	1017	2.2278e-06	2.1591e-06	1108.1	209.44	2.0981e-06	2.0423e-06	263.69	76.73	59.483	17.527	2.0827e-06	24.52	488.352	226.151	254.206	180.973	319.884	369.554	180.974	188.341	286.554	346.479	188.289	194.812	195.210	202.619	331.734	202.488	-8191	255	
14326.647	1	1	0	0	0.23431	0.048494	0.40778	0.11461	0.089584	0.29021	0.068663	0.17762	0.20586	0.15567	0.30577	0.1586	0.18653	0.019076	0.12007	0.12086	-1.8396	-2.7792	-2.3063	-2.7729	-2.5146	-2.2833	-2.8625	-2.2562	-2.4667	-2.4896	-2.2542	-2.65	-2.5229	-2.1396	-2.7167	-2.5208	276.985	455.363	285.884	211.432	377.506	434.237	454.811	191.755	388.507	351.156	494.197	469.227	177.938	255.215	455.468	487.634	0.00066714	0.00044104	7.597e-05	1030.6	3.7869e-06	2.2819e-06	1126	211.19	4.8331e-06	3.1791e-06	266.91	76.777	59.286	17.289	5.419e-06	24.164	0.00021198	0.00018624	5.1637e-05	1016.4	2.1202e-06	2.062e-06	1107.4	209.05	2.0745e-06	1.9853e-06	264.2	76.554	59.459	17.503	2.0155e-06	24.47	485.516	260.365	212.250	180.934	289.018	325.716	181.021	188.699	271.423	362.604	188.403	194.751	195.268	203.073	312.526	202.019	-8191	255	
14326.743	1	1	0	0	0.21051	0.14207	0.33867	0.33854	0.12951	0.22471	0.28585	0.1953	0.21719	0.079693	0.09655	0.13966	0.16961	0.19443	0.204	0.098477	-1.725	-2.6104	-2.2875	-2.4208	-2.5042	-2.2625	-2.8063	-2.6896	-2.2562	-2.7458	-2.4646	-2.5812	-2.6125	-2.3604	-2.3708	-2.6	394.130	387.307	204.352	507.281	299.597	196.199	491.997	184.647	432.431	468.416	512.472	509.676	470.048	487.231	203.092	427.937	0.00060292	0.00026449	7.7292e-05	1030.1	3.9193e-06	2.2292e-06	1116.8	210.9	3.0642e-06	1.898e-06	264.72	76.497	59.69	17.268	5.4584e-06	23.893	0.00020443	0.00019096	5.1374e-05	1014.1	2.0505e-06	2.0436e-06	1106	209.1	2.0103e-06	2.0034e-06	262.82	76.327	59.422	17.496	2.0711e-06	24.376	486.867	256.247	231.986	181.002	289.947	314.425	180.968	188.514	307.383	318.831	188.237	194.231	194.911	203.018	328.645	202.212	-8191	255	
14326.840	1	1	0	0	0.24027	0.25109	0.27675	0.081859	0.10891	0.07779	0.31378	0.32894	0.15119	0.029533	0.32166	0.074049	0.30947	0.12031	0.33867	0.14748	-1.9229	-2.6854	-2.1417	-2.6625	-2.7354	-2.2938	-2.7833	-2.4083	-2.4771	-2.6792	-2.4604	-2.5458	-2.6458	-2.2625	-2.3167	-2.6667	268.327	248.153	314.232	180.105	513.948	417.859	477.650	454.449	227.493	502.758	473.992	220.149	526.862	226.762	403.044	474.209	0.00059421	0.0002976	8.0036e-05	1028.4	3.0843e-06	5.064e-06	1121.2	210.86	5.699e-06	3.605e-06	264.52	75.912	59.548	17.185	2.2715e-06	24.197	0.00021077	0.00018997	5.2394e-05	1013.8	2.076e-06	2.0352e-06	1107.3	209.31	2.1764e-06	1.9857e-06	263.91	76.17	59.367	17.458	2.1521e-06	24.478	490.705	209.013	289.489	181.056	321.880	308.491	180.769	188.721	271.203	354.655	188.123	194.581	195.000	203.181	362.526	202.323	-8191	255	
14326.936	1	1	0	0	0.12825	0.21043	0.06841	0.22183	0.14066	0.19333	0.37588	0.096548	0.10936	0.14514	0.13322	0.022343	0.13561	0.14407	0.1424	0.19564	-1.7812	-2.4979	-2.4437	-2.4958	-2.6833	-2.3417	-2.75	-2.7938	-2.2896	-2.7458	-2.5604	-2.3229	-2.8312	-2.3375	-2.5062	-2.6417	278.971	384.231	357.289	445.077	413.264	325.977	496.515	218.727	455.215	447.916	521.055	282.772	413.737	465.433	187.931	528.734	0.00057291	5.9931e-05	0.00012455	1026.7	5.5288e-06	4.0805e-06	1120.7	211.21	2.642e-06	3.1603e-06	264.76	76.243	59.493	17.241	4.5332e-06	24.154	0.00020834	0.00018681	5.2045e-05	1011.8	2.19e-06	2.1021e-06	1105.1	209.23	2.0974e-06	2.0591e-06	263.75	76.371	59.417	17.477	2.1032e-06	24.47	483.653	412.472	281.106	181.104	277.195	256.386	180.805	188.797	258.921	305.605	188.426	194.403	195.368	202.611	333.367	201.825	-8191	255	
14327.032	1	1	0	0	0.08667	0.10255	0.18162	0.25541	0.10783	0.30259	0.33014	0.23247	0.19558	0.046052	0.15882	0.097421	0.11647	0.062098	0.10979	0.17541	-1.7771	-2.5563	-2.4542	-2.5438	-2.8604	-2.3833	-2.8708	-2.5458	-2.2646	-2.7125	-2.5021	-2.2521	-2.7458	-2.3104	-2.5271	-2.6833	520.123	290.061	202.841	477.135	313.299	504.318	473.597	407.127	222.775	363.974	506.575	186.952	501.271	291.889	387.392	354.154	0.00056765	0.00013752	6.8141e-05	1027.2	3.3912e-06	3.3042e-06	1123	211.26	2.2418e-06	2.9377e-06	265.38	76.781	59.076	17.243	3.721e-06	23.925	0.0002131	0.00019186	5.391e-05	1013.5	2.1687e-06	2.0968e-06	1107.7	209.1	2.131e-06	2.067e-06	263.44	76.479	59.269	17.422	2.1351e-06	24.435	487.803	272.007	251.273	181.273	323.053	386.393	181.063	188.101	246.258	348.584	188.107	194.656	195.468	202.971	306.491	201.653	-8191	255	
14327.128	1	1	0	0	0.20486	0.20193	0.1679	0.10472	0.073323	0.15587	0.4555	0.11249	0.20612	0.035908	0.30231	0.15871	0.12631	0.093302	0.09178	0.31314	-1.7104	-2.4979	-2.5354	-2.4062	-2.7604	-2.3937	-2.4208	-2.6583	-2.1375	-2.4146	-2.7333	-2.2958	-2.8125	-2.4688	-2.2542	-2.7313	283.046	239.169	339.011	492.315	200.354	504.257	479.893	438.104	321.764	348.783	450.943	481.899	221.395	373.237	202.529	188.025	0.00060409	0.00026303	7.564e-05	1031.1	2.124e-06	3.748e-06	1119.5	209.87	3.9066e-06	5.5123e-06	266.2	77.124	59.92	17.348	2.0874e-06	24.033	0.00021175	0.00019789	5.3674e-05	1015.2	2.2044e-06	2.1283e-06	1107	208.7	2.1931e-06	2.1762e-06	263.69	76.566	59.584	17.497	2.0855e-06	24.483	485.791	267.558	270.775	181.241	291.050	323.047	181.049	188.209	303.097	330.290	188.290	194.580	195.473	203.087	404.640	202.300	-8191	255	
14327.224	1	1	0	0	0.12316	0.13907	0.042468	0.34315	0.2129	0.11035	0.3301	0.43966	0.19916	0.30709	0.17921	0.19715	0.031023	0.038521	0.11502	0.35202	-1.8104	-2.4396	-2.6042	-2.3375	-2.5917	-2.6667	-2.4688	-2.6854	-2.1521	-2.4083	-2.6	-2.1229	-2.4917	-2.5625	-2.2479	-2.7313	294.227	310.565	309.264	524.426	204.777	412.948	357.497	449.447	310.379	252.007	451.851	420.254	176.591	293.186	379.633	450.721	0.00061892	0.00024176	9.2022e-05	1029.1	1.6958e-06	3.4221e-06	1124.5	211.19	4.5495e-06	3.5132e-06	264.8	76.865	59.408	17.208	2.6631e-06	24.248	0.00020794	0.00018778	5.2865e-05	1015.1	2.1295e-06	2.1232e-06	1108.7	208.92	2.1282e-06	2.1238e-06	263.75	76.591	59.374	17.455	2.0981e-06	24.476	484.276	309.126	251.553	181.309	291.509	307.576	180.925	188.376	246.292	284.242	188.450	194.287	195.023	202.791	337.524	202.674	-8191	255	
14327.345	1	1	0	0	0.14738	0.04326	0.10101	0.42677	0.06782	0.057145	0.11934	0.062401	0.29391	0.14144	0.11903	0.27095	0.10625	0.11648	0.19501	0.047398	-1.8896	-2.3937	-2.6229	-2.3563	-2.5667	-2.5104	-2.4604	-2.8333	-2.3812	-2.4792	-2.7604	-2.2625	-2.7104	-2.6167	-2.3646	-2.8729	488.693	212.041	506.255	508.778	510.261	299.337	506.335	423.457	380.292	264.780	463.007	495.992	356.839	525.633	327.469	317.116	0.00068842	0.00017429	4.6041e-05	1027.1	4.9154e-06	2.588e-06	1120.8	210.45	6.2435e-06	1.8017e-06	265.51	76.227	59.786	17.254	2.033e-06	24.153	0.00021038	0.00019092	5.3145e-05	1015.2	2.181e-06	2.128e-06	1106.8	209.36	2.1435e-06	2.1617e-06	263.32	76.435	59.421	17.491	2.1482e-06	24.494	488.381	204.303	271.533	181.067	297.127	340.462	180.842	188.454	310.478	240.979	188.673	194.346	195.116	202.864	281.966	202.184	-8191	255	
14327.416	1	1	0	0	0.20525	0.04831	0.093137	0.25069	0.21012	0.15291	0.15759	0.41153	0.2247	0.088099	0.11683	0.2893	0.18658	0.16118	0.23221	0.15783	-2.0521	-2.5979	-2.7625	-2.3187	-2.6521	-2.5542	-2.525	-2.7479	-2.4375	-2.4688	-2.7854	-2.3208	-2.4521	-2.6854	-2.2667	-2.8104	421.879	358.358	439.667	422.595	460.746	243.639	398.688	471.989	233.539	472.814	467.618	474.233	512.568	505.820	505.855	439.075	0.00058288	0.00027902	0.00011669	1025.2	3.1072e-06	1.8498e-06	1121.5	210.63	2.2314e-06	3.0706e-06	265.17	76.598	59.84	17.264	3.611e-06	24.105	0.00021474	0.00019948	5.5518e-05	1012.7	2.195e-06	2.1726e-06	1107.5	208.97	2.1856e-06	2.1203e-06	263.43	76.515	59.594	17.474	2.1835e-06	24.495	477.752	311.753	264.473	180.976	326.247	234.544	180.997	188.426	283.111	334.278	188.272	194.679	194.998	202.723	285.983	201.769	-8191	255	
14327.537	1	1	0	0	0.12084	0.2016	0.17084	0.13407	0.22672	0.28438	0.30298	0.16129	0.18787	0.15669	0.32437	0.21278	0.16798	0.18022	0.075546	0.29149	-1.9813	-2.4479	-2.8812	-2.5354	-2.6167	-2.6229	-2.3479	-2.6333	-2.3479	-2.2729	-2.8646	-2.2458	-2.4354	-2.6292	-2.2604	-2.6562	308.102	510.205	515.940	427.927	374.461	464.492	387.007	422.104	231.743	347.403	438.885	477.405	465.217	405.670	318.604	387.837	0.00056111	0.00016648	1.5662e-05	1026.1	2.1804e-06	6.7991e-06	1116.5	210.75	1.1494e-06	4.1344e-06	265.25	76.6	59.58	17.171	4.8353e-06	24.019	0.00021255	0.00019868	5.3266e-05	1015	2.1707e-06	2.1574e-06	1106.6	208.97	2.1679e-06	2.1787e-06	264.1	76.436	59.494	17.445	2.1556e-06	24.519	490.088	314.788	323.958	180.932	327.178	345.238	181.221	188.438	272.145	356.185	187.583	194.613	195.041	202.518	288.779	202.219	-8191	255	
14327.631	1	1	0	0	0.15379	0.26751	0.17232	0.20773	0.035117	0.2377	0.31426	0.24833	0.17668	0.1111	0.17605	0.23464	0.10154	0.06065	0.26147	0.22144	-1.9146	-2.1854	-2.6146	-2.5812	-2.4771	-2.5833	-2.3229	-2.7354	-2.5812	-2.3271	-2.8229	-2.5125	-2.5271	-2.6958	-2.2979	-2.6396	198.617	354.260	308.871	514.061	399.681	411.566	472.167	183.145	429.623	316.879	500.127	483.897	395.081	361.846	315.505	476.734	0.00070231	0.0001121	7.1526e-05	1031.4	4.6472e-06	1.7575e-06	1120	210.02	4.8955e-06	5.4812e-06	264.43	76.588	59.282	17.264	3.2706e-06	24.03	0.00021297	0.00019624	5.382e-05	1014.7	2.1431e-06	2.1694e-06	1107.9	209.22	2.0942e-06	2.1651e-06	263.23	76.401	59.431	17.478	2.1627e-06	24.5	490.189	302.855	286.065	181.520	294.947	353.010	180.852	188.579	293.416	306.366	188.452	194.439	195.212	202.614	331.617	202.212	-8191	255	
14327.728	1	1	0	0	0.16226	0.2246	0.11709	0.13224	0.10469	0.19349	0.14673	0.074466	0.01721	0.15051	0.26803	0.18177	0.24411	0.18147	0.028914	0.0095821	-2.0812	-2.3521	-2.6375	-2.4062	-2.3854	-2.7229	-2.4688	-2.5729	-2.5646	-2.2375	-2.5938	-2.7146	-2.3125	-2.7521	-2.1708	-2.575	501.522	448.183	308.925	498.676	515.023	255.749	477.794	352.066	483.776	306.446	516.370	175.106	508.138	231.384	526.032	527.052	0.00057658	9.6742e-05	5.3973e-05	1029.5	3.5278e-06	3.0002e-06	1123.3	209.94	2.3008e-06	4.2278e-06	265.02	76.482	59.979	17.034	2.2142e-06	24.023	0.00021335	0.00019756	5.3383e-05	1016.7	2.1741e-06	2.1653e-06	1105.9	209.22	2.1779e-06	2.1452e-06	263.9	76.429	59.609	17.393	2.1934e-06	24.483	484.138	213.671	201.905	181.013	277.487	339.110	181.102	188.391	287.292	337.927	188.382	194.914	195.299	203.424	299.198	201.844	-8191	255	
14327.824	1	1	0	0	0.15526	0.28948	0.13889	0.35771	0.33537	0.14724	0.12839	0.21517	0.15199	0.16165	0.31242	0.29549	0.048058	0.18104	0.25782	0.13516	-2.2167	-2.2313	-2.4917	-2.5625	-2.3563	-2.7438	-2.3833	-2.4646	-2.7125	-2.3396	-2.5729	-2.45	-2.2062	-2.8458	-2.2917	-2.3688	350.192	203.738	278.659	497.364	515.809	434.951	457.460	179.488	271.821	256.079	427.528	360.632	177.303	321.649	408.082	464.450	0.00064809	0.00027801	2.3803e-05	1026.1	4.7789e-06	3.5528e-06	1122.1	209.75	2.5091e-06	5.5553e-06	264.98	76.839	59.547	17.316	3.2654e-06	24.217	0.00021475	0.0001996	5.5669e-05	1013.8	2.232e-06	2.2113e-06	1107.2	209.16	2.1743e-06	2.1927e-06	264.12	76.647	59.406	17.517	2.2029e-06	24.532	485.841	267.945	513.976	181.030	331.661	361.382	181.048	188.467	316.913	309.195	188.078	194.471	194.732	202.846	404.498	202.308	-8191	255	
14327.944	1	1	0	0	0.18439	0.17757	0.20018	0.090773	0.17944	0.10417	0.40957	0.13312	0.041693	0.11082	0.14506	0.18683	0.25949	0.20307	0.097062	0.15507	-2.1771	-2.2146	-2.5104	-2.75	-2.2104	-2.6792	-2.4917	-2.5375	-2.525	-2.1729	-2.4458	-2.6396	-2.3021	-2.7958	-2.2938	-2.325	426.732	254.081	479.513	365.195	260.982	225.487	488.836	406.359	450.366	175.025	474.027	496.264	521.631	454.845	273.159	441.813	0.00053881	0.00042049	7.1725e-05	1025.5	7.0005e-07	1.0826e-06	1119.2	212.09	2.9494e-06	2.3468e-06	264	76.433	59.514	17.289	2.3205e-06	24.075	0.00021643	0.00020008	5.4172e-05	1014.5	2.246e-06	2.2241e-06	1106.4	209.71	2.2466e-06	2.2104e-06	263.63	76.287	59.327	17.502	2.2345e-06	24.478	486.209	330.371	241.466	181.251	485.953	489.756	180.882	188.353	246.535	286.007	187.973	194.575	195.392	202.684	319.816	201.768	-8191	255	
14328.041	1	1	0	0	0.069409	0.26829	0.078308	0.30641	0.29379	0.12915	0.14199	0.29105	0.049275	0.16717	0.21505	0.27767	0.13266	0.10169	0.087185	0.051256	-2.1875	-2.325	-2.5917	-2.7104	-2.2083	-2.6562	-2.5167	-2.3729	-2.825	-2.3479	-2.5958	-2.675	-2.1917	-2.8104	-2.5687	-2.3333	390.251	256.394	277.921	517.946	497.591	183.674	444.348	463.449	300.689	216.789	175.836	399.539	372.326	197.434	439.555	323.639	0.00059855	0.00046485	8.1652e-05	1027.3	2.2209e-06	6.2859e-07	1121.2	210.63	2.3987e-06	3.9784e-06	264.25	76.523	59.033	17.214	5.5016e-06	24.027	0.00022382	0.00020422	5.6963e-05	1014.3	2.2857e-06	2.2444e-06	1106.5	209.08	2.2127e-06	2.2359e-06	263.74	76.447	59.441	17.456	2.2762e-06	24.45	486.768	272.863	285.944	181.134	351.881	210.721	180.841	188.420	319.763	320.679	188.306	194.560	195.049	202.834	358.422	202.710	-8191	255	
14328.112	1	1	0	0	0.078758	0.12688	0.12063	0.25788	0.14779	0.08507	0.31414	0.11109	0.078997	0.13251	0.13814	0.082988	0.076817	0.3392	0.3207	0.10826	-2.3708	-2.3375	-2.3417	-2.5583	-2.1979	-2.5042	-2.7229	-2.3479	-2.7417	-2.3688	-2.5583	-2.6562	-2.3979	-2.6354	-2.5458	-2.2188	274.165	409.647	230.605	499.159	307.230	171.850	481.489	388.523	190.073	479.622	424.714	343.587	487.132	348.084	186.053	425.245	0.00065848	0.00025992	0.00013532	1030.5	2.1152e-06	4.1159e-06	1118.6	211.12	4.252e-06	3.255e-07	264.57	76.193	59.605	17.105	5.5075e-06	23.891	0.00021133	0.00019868	5.3996e-05	1014.3	2.1478e-06	2.1448e-06	1106.8	209.6	2.1252e-06	2.1738e-06	264.22	76.384	59.499	17.418	2.149e-06	24.488	490.582	213.078	312.161	181.046	304.857	288.789	180.988	188.606	301.166	296.242	188.233	194.555	195.427	202.765	293.009	202.257	-8191	255	
14328.233	1	1	0	0	0.25034	0.012289	0.14912	0.19298	0.14568	0.20713	0.23807	0.052937	0.089195	0.18093	0.3078	0.18837	0.046864	0.1123	0.32455	0.10163	-2.075	-2.0854	-2.3792	-2.6604	-2.2438	-2.4375	-2.7042	-2.3208	-2.7188	-2.375	-2.2708	-2.8292	-2.3396	-2.4583	-2.7313	-2.4396	263.291	222.347	418.836	440.417	373.227	239.574	493.339	383.421	244.036	466.116	450.786	362.070	187.651	503.281	284.630	225.937	0.00060675	0.00022772	2.9389e-05	1028.2	3.7695e-06	2.3468e-06	1119.3	211.32	4.5111e-06	5.9675e-06	266.75	76.511	59.676	17.274	2.5828e-06	24.273	0.0002123	0.00019367	5.3249e-05	1013.9	2.1605e-06	2.069e-06	1106.5	209.11	2.1124e-06	2.1702e-06	264.16	76.468	59.562	17.477	2.167e-06	24.55	487.892	269.243	279.371	181.015	330.413	368.457	181.146	188.517	260.010	313.911	188.130	194.782	195.198	202.701	254.908	202.335	-8191	255	
14328.329	1	1	0	0	0.21297	0.050981	0.19682	0.2238	0.1987	0.12846	0.17419	0.45609	0.053208	0.070599	0.30415	0.27806	0.36847	0.15605	0.25773	0.18509	-2.1604	-2.4271	-2.3458	-2.6979	-2.3875	-2.45	-2.5938	-2.1375	-2.5479	-2.4417	-2.3729	-2.5896	-2.3292	-2.7	-2.4521	-2.1354	525.020	183.467	421.375	450.628	233.360	453.512	466.909	508.321	254.480	510.384	507.615	465.924	461.430	198.198	396.710	326.252	0.00058727	0.00012707	5.9261e-05	1030.2	2.8047e-06	4.6877e-06	1122.7	211.92	2.2519e-06	2.284e-06	264.99	76.626	59.246	17.26	5.1238e-06	23.957	0.00021781	0.00020165	5.5997e-05	1015.4	2.2456e-06	2.1943e-06	1107.2	209.45	2.2e-06	2.1471e-06	264.1	76.372	59.327	17.466	2.1779e-06	24.431	483.538	331.293	275.593	181.194	275.316	289.891	180.770	188.214	277.788	329.162	188.339	194.885	195.574	202.988	306.661	202.729	-8191	255	
14328.425	1	1	0	0	0.15182	0.038489	0.1266	0.4122	0.29186	0.18241	0.23946	0.24076	0.092168	0.19972	0.17875	0.11098	0.093346	0.20538	0.13808	0.22887	-2.1437	-2.3854	-2.2938	-2.925	-2.3125	-2.5021	-2.8479	-2.3812	-2.5896	-2.675	-2.2812	-2.9083	-2.1729	-2.5417	-2.4229	-2.3292	184.179	377.200	225.467	482.027	354.602	218.054	498.062	458.953	440.053	479.602	276.014	497.845	467.080	500.438	352.492	189.703	0.00049223	0.00023924	9.6491e-05	1024.7	2.772e-06	4.3468e-06	1118.7	210.52	3.435e-06	3.5109e-06	265.3	76.608	59.414	17.145	6.1569e-06	24.037	0.00021411	0.00019441	5.5426e-05	1013.8	2.2388e-06	2.1702e-06	1105.6	208.98	2.2054e-06	2.1687e-06	263.72	76.483	59.402	17.438	2.1813e-06	24.461	483.151	258.501	290.038	181.069	302.763	347.586	180.872	188.336	289.145	271.089	188.147	195.126	195.398	203.015	298.481	202.194	-8191	255	
14328.544	1	1	0	0	0.086713	0.1379	0.11057	0.18562	0.12468	0.12502	0.28551	0.13162	0.28043	0.245	0.14639	0.20378	0.23306	0.27124	0.069467	0.078362	-2.1688	-2.6229	-2.2812	-2.8979	-2.4042	-2.4292	-2.8042	-2.45	-2.5667	-2.6646	-2.1208	-2.7438	-2.4479	-2.5125	-2.675	-2.2458	182.175	479.016	230.561	525.988	512.724	315.895	510.465	440.698	241.731	331.184	183.772	447.832	495.139	183.004	329.110	325.888	0.00055086	0.00037248	5.9877e-05	1031.3	3.1489e-06	2.057e-06	1121.1	210.84	3.1255e-06	4.9817e-06	265.47	77.088	59.73	17.23	4.276e-06	24.176	0.00020813	0.00019119	5.4667e-05	1015.5	2.1971e-06	2.1536e-06	1107.6	209.05	2.2103e-06	2.174e-06	263.55	76.529	59.404	17.414	2.2689e-06	24.463	480.210	218.536	226.572	181.032	274.392	259.702	181.017	188.179	292.014	345.176	188.258	194.491	195.113	203.415	371.519	202.058	-8191	255	
14328.640	1	1	0	0	0.037064	0.14341	0.14149	0.3075	0.068987	0.11752	0.28274	0.10557	0.2352	0.047093	0.30994	0.14354	0.27848	0.24515	0.37171	0.11401	-2.0312	-2.725	-2.1354	-2.825	-2.2833	-2.3271	-2.8729	-2.3771	-2.4875	-2.5062	-2.3625	-2.5896	-2.4021	-2.2979	-2.7646	-2.4917	466.339	517.119	206.391	171.756	487.629	185.688	482.131	459.247	504.212	340.492	466.665	401.149	242.641	498.657	298.529	194.075	0.00054178	0.0004712	0.00010058	1030.3	2.1078e-06	2.7897e-06	1123	210.55	2.9388e-06	2.5468e-06	264.69	76.344	59.163	17.273	5.0434e-06	23.866	0.00021417	0.00019622	5.5012e-05	1016.8	2.2585e-06	2.2163e-06	1107.2	208.78	2.2078e-06	2.2018e-06	264.46	76.215	59.477	17.507	2.1459e-06	24.451	478.240	290.419	246.596	181.232	267.443	347.975	180.744	188.440	264.119	262.400	188.044	194.260	194.844	202.906	294.294	202.091	-8191	255	
14328.712	1	1	0	0	0.12459	0.21507	0.22798	0.085922	0.042341	0.082206	0.47306	0.18022	0.20644	0.12719	0.11595	0.16784	0.16419	0.12577	0.12051	0.29743	-1.9771	-2.6937	-2.1167	-2.5958	-2.5479	-2.2125	-2.7625	-2.6979	-2.4729	-2.7542	-2.4625	-2.6667	-2.6208	-2.2062	-2.5771	-2.4458	472.510	376.389	315.567	334.810	386.317	477.878	446.315	191.671	328.376	352.218	218.799	436.359	401.650	354.383	467.244	463.078	0.00059218	0.00031928	0.00013069	1030.8	3.3139e-06	2.5568e-06	1117.4	211.06	3.9829e-06	3.1478e-06	265.22	76.502	59.048	17.162	3.3773e-06	24.119	0.00021137	0.00019459	5.4847e-05	1014.6	2.1652e-06	2.0312e-06	1105.2	209.05	2.0764e-06	2.0902e-06	263.83	76.426	59.32	17.463	2.1056e-06	24.484	483.672	233.083	249.538	181.256	292.895	379.238	181.046	188.560	272.144	316.375	188.227	194.737	195.645	202.797	365.728	202.238	-8191	255	
14328.808	1	1	0	0	0.09193	0.13503	0.26598	0.070764	0.11171	0.097039	0.072162	0.2561	0.072087	0.2103	0.13036	0.03501	0.068378	0.49724	0.046341	0.05289	-1.9354	-2.4917	-2.2979	-2.7521	-2.6646	-2.3563	-2.7542	-2.4938	-2.2833	-2.9062	-2.5104	-2.6312	-2.4792	-2.4333	-2.6937	-2.4333	179.907	505.870	446.337	416.996	258.767	276.228	393.857	177.117	328.831	397.709	186.656	502.718	426.358	491.241	390.360	420.859	0.00068516	0.00020715	0.00010387	1029	2.4896e-06	1.7835e-06	1121.9	210.01	3.3157e-06	3.8067e-06	262.42	76.546	59.592	17.292	3.601e-06	23.99	0.00021471	0.00018937	5.4922e-05	1013.9	2.2813e-06	2.1926e-06	1107.7	208.69	2.1687e-06	2.0872e-06	262.5	76.3	59.474	17.469	2.1163e-06	24.442	498.572	270.396	254.156	180.946	326.101	261.677	180.958	188.278	285.931	222.168	188.343	194.772	195.211	202.643	304.084	202.022	-8191	255	
14328.904	1	1	0	0	0.053905	0.24842	0.14031	0.085831	0.24087	0.21248	0.23558	0.16422	0.046452	0.092091	0.31905	0.043958	0.13153	0.26251	0.068954	0.17814	-1.875	-2.7646	-2.2375	-2.6354	-2.5812	-2.4271	-2.9479	-2.4708	-2.35	-2.8875	-2.4521	-2.4313	-2.6042	-2.1917	-2.5354	-2.525	194.127	455.626	475.737	490.765	390.789	257.265	176.761	470.438	318.400	301.069	496.885	175.003	438.164	179.754	454.093	527.074	0.00074613	0.00016196	5.9351e-05	1027.3	2.9903e-06	1.0602e-06	1115.3	212.05	5.8443e-06	1.9068e-06	264.69	76.513	59.848	17.345	5.427e-06	24.197	0.0002094	0.00018181	5.1842e-05	1014	2.0237e-06	2.0287e-06	1103.8	209.21	2.1235e-06	1.9748e-06	263.4	76.321	59.6	17.493	2.0283e-06	24.414	475.693	243.394	295.957	180.990	287.125	299.337	181.002	188.362	290.560	259.510	188.010	194.447	194.719	203.256	301.714	202.238	-8191	255	
14329.025	1	1	0	0	0.32581	0.25819	0.17761	0.24094	0.16699	0.27145	0.32273	0.15605	0.066027	0.059137	0.19459	0.10995	0.24054	0.1063	0.077985	0.17352	-1.6896	-2.8937	-2.3292	-2.5687	-2.6437	-2.3937	-2.7896	-2.6042	-2.2438	-2.7188	-2.45	-2.6229	-2.6625	-2.2896	-2.6042	-2.5979	380.049	319.986	413.553	509.505	433.047	343.283	493.629	437.400	381.522	487.371	264.836	264.507	289.760	205.700	392.018	380.607	0.00054476	0.00038559	0.00012009	1026.3	2.526e-06	4.8666e-06	1119.8	210.4	3.965e-06	2.5612e-06	264.14	76.219	59.808	17.133	1.6897e-06	23.949	0.00020614	0.0001879	5.0775e-05	1012.4	2.0444e-06	2.0289e-06	1106.1	208.83	2.0457e-06	1.9225e-06	263.41	76.394	59.562	17.475	2.0306e-06	24.406	482.311	231.905	256.294	181.016	258.407	300.443	180.875	188.579	260.764	339.337	188.116	194.450	195.314	202.971	303.919	202.153	-8191	255	
14329.121	1	1	0	0	0.07461	0.31834	0.26887	0.22669	0.12279	0.27291	0.24888	0.23481	0.044648	0.25667	0.11833	0.16729	0.080502	0.028213	0.19585	0.26495	-1.9292	-2.7562	-2.3042	-2.3625	-2.6937	-2.2687	-2.7042	-2.7	-2.1729	-2.8083	-2.5625	-2.4646	-2.7396	-2.3	-2.45	-2.7771	215.032	223.495	210.579	374.517	437.396	277.686	505.489	425.910	351.672	245.411	203.447	249.957	282.512	395.375	234.321	450.403	0.00061008	0.00044672	2.5089e-05	1024.7	1.3772e-06	6.7015e-07	1119	210.96	3.1725e-06	3.0769e-06	265.54	76.231	59.494	17.307	3.1535e-06	24.089	0.00020299	0.00018183	5.1593e-05	1012.1	2.0737e-06	2.0024e-06	1106.3	208.73	2.0656e-06	2.0425e-06	263.55	76.237	59.481	17.524	2.08e-06	24.498	486.300	193.800	289.850	181.016	254.111	290.850	180.726	188.218	275.231	292.037	188.321	194.953	195.398	202.796	333.208	201.912	-8191	255	
14329.217	1	1	0	0	0.1944	0.097825	0.29865	0.31735	0.16595	0.041052	0.23083	0.24442	0.13963	0.13548	0.26788	0.29944	0.18245	0.2131	0.080146	0.27722	-1.7875	-2.4375	-2.4167	-2.4396	-2.775	-2.5833	-2.6562	-2.6896	-2.2208	-2.5875	-2.5854	-2.3729	-2.6542	-2.2188	-2.4688	-2.8646	434.334	209.877	411.894	499.074	297.698	318.623	458.444	446.966	224.600	463.256	456.468	433.853	194.470	405.510	462.419	189.941	0.00061346	0.00016728	0.00013268	1028.9	3.5141e-06	2.7946e-06	1120.5	211.64	2.7764e-06	3.6785e-06	264.4	76.497	59.313	17.135	3.5776e-06	23.906	0.00020713	0.00018333	5.2145e-05	1015.1	2.0594e-06	2.0082e-06	1105.2	209.41	1.9928e-06	1.9288e-06	263.56	76.423	59.294	17.417	1.9155e-06	24.429	487.851	269.674	272.259	181.044	318.383	276.447	181.088	188.597	278.731	375.481	188.489	194.225	195.083	203.398	322.066	202.202	-8191	255	
14329.313	1	1	0	0	0.12041	0.21633	0.13776	0.14917	0.071585	0.19004	0.14368	0.26851	0.057088	0.13721	0.16279	0.041744	0.15698	0.31952	0.22528	0.10735	-1.6521	-2.3583	-2.5583	-2.4292	-2.8521	-2.4062	-2.6292	-2.6708	-2.3854	-2.5625	-2.6208	-2.1375	-2.8354	-2.3979	-2.3729	-2.7333	255.595	258.817	280.505	459.109	185.107	236.154	218.139	211.955	526.022	290.351	460.093	224.734	490.119	189.968	395.185	466.072	0.00055507	0.00021948	0.00010656	1025.7	3.9146e-06	3.9451e-06	1118.1	209.78	1.7058e-06	2.8031e-06	264.74	76.576	59.874	17.094	4.3298e-06	23.949	0.00019496	0.00017815	4.8841e-05	1012.2	1.9792e-06	1.9884e-06	1105.3	208.73	2.0066e-06	1.975e-06	262.77	76.34	59.518	17.384	2.0282e-06	24.378	482.879	308.230	211.114	181.265	319.886	336.872	181.077	188.100	309.692	342.108	188.094	194.698	195.550	203.077	247.815	202.279	-8191	255	
14329.409	1	1	0	0	0.22013	0.20508	0.08735	0.26959	0.07884	0.12195	0.28653	0.31241	0.023342	0.090165	0.20938	0.21531	0.23171	0.12524	0.035004	0.095425	-1.8625	-2.6896	-2.5208	-2.3646	-2.6562	-2.3146	-2.6167	-2.8104	-2.2833	-2.5167	-2.6937	-2.3083	-2.8167	-2.3958	-2.2062	-2.7417	526.975	207.636	498.836	482.373	248.662	284.373	406.084	521.824	301.974	462.157	300.953	185.885	453.101	286.687	259.108	357.752	0.00062038	0.00039608	4.5825e-05	1031.3	2.9632e-06	2.9017e-06	1120.9	210.38	5.1516e-06	5.3834e-06	264.59	76.768	59.734	17.22	2.4259e-06	23.889	0.00020851	0.0001846	5.2553e-05	1014.5	2.0623e-06	2.044e-06	1105	208.16	2.042e-06	2.025e-06	263.53	76.305	59.292	17.461	1.9928e-06	24.419	479.448	278.735	284.383	180.923	305.685	296.590	180.891	188.411	267.039	342.468	187.902	194.647	195.271	203.053	309.803	202.019	-8191	255	
14329.505	1	1	0	0	0.19682	0.072141	0.26177	0.25293	0.033925	0.056379	0.22503	0.19324	0.17917	0.13638	0.15108	0.23342	0.22432	0.30931	0.25376	0.3129	-1.7792	-2.5312	-2.8042	-2.3604	-2.7188	-2.4104	-2.4854	-2.8167	-2.3271	-2.4604	-2.65	-2.2354	-2.8479	-2.475	-2.1188	-2.8042	346.409	472.519	363.035	443.647	522.645	175.715	472.013	173.085	352.059	464.331	452.738	185.539	224.295	486.029	291.943	462.061	0.00054688	0.00024992	7.8734e-05	1027.2	3.7953e-06	4.3007e-06	1120	209.97	3.4269e-06	1.2085e-06	265.53	76.15	60.04	17.298	1.7372e-06	24.054	0.00020138	0.00018824	5.1554e-05	1010.8	2.0929e-06	2.0501e-06	1105	208.64	2.0089e-06	2.0411e-06	263.54	76.273	59.549	17.479	2.0153e-06	24.458	494.768	282.936	281.117	181.219	292.995	383.074	180.917	188.688	245.677	361.096	188.320	194.233	195.229	202.830	284.732	201.933	-8191	255	
14329.624	1	1	0	0	0.23059	0.20917	0.055735	0.067494	0.26394	0.029977	0.14367	0.059896	0.13621	0.2066	0.18123	0.20621	0.060997	0.24694	0.39518	0.067757	-1.8375	-2.5229	-2.6063	-2.4583	-2.6542	-2.7021	-2.3812	-2.925	-2.5604	-2.4521	-2.8583	-2.2604	-2.5667	-2.7021	-2.2167	-2.8104	257.727	228.405	170.239	242.799	484.005	287.643	447.798	411.696	209.780	408.119	500.870	215.905	444.592	424.634	248.468	449.764	0.00050355	0.00015506	6.4161e-05	1022.9	3.5177e-06	9.9631e-07	1118.1	210.44	3.4508e-06	3.9241e-06	263.88	76.611	59.478	17.257	1.3322e-06	24.147	0.00019712	0.00018573	5.1633e-05	1011.3	2.1288e-06	2.0844e-06	1104.8	208.53	2.0439e-06	2.0175e-06	263.25	76.288	59.457	17.458	2.0389e-06	24.418	485.298	248.507	286.341	181.163	288.780	265.926	180.975	188.197	294.261	297.915	188.269	194.395	195.309	203.178	200.021	202.006	-8191	255	
14329.721	1	1	0	0	0.22398	0.10862	0.1377	0.27508	0.15656	0.14277	0.26573	0.25857	0.29939	0.20202	0.32775	0.17399	0.21975	0.35351	0.1812	0.070312	-1.9104	-2.25	-2.8396	-2.25	-2.5646	-2.65	-2.2604	-2.7562	-2.4292	-2.3604	-2.6979	-2.3563	-2.3646	-2.5687	-2.1437	-2.6813	335.946	343.025	254.841	497.022	192.329	325.271	183.100	425.251	397.971	319.499	500.015	428.587	497.464	515.473	423.537	405.642	0.00061494	0.00019349	6.2361e-05	1025.7	2.7617e-06	3.4052e-06	1116.8	210.35	1.3101e-06	2.6886e-06	263.14	76.208	59.6	17.165	3.49e-06	24.033	0.00020179	0.00017471	4.8621e-05	1011.5	1.9941e-06	1.897e-06	1102.6	208.61	1.9915e-06	1.9682e-06	262.67	76.261	59.428	17.417	1.9861e-06	24.483	487.488	191.844	308.787	181.012	303.508	354.927	181.001	188.347	269.550	271.802	188.525	194.903	195.174	202.744	246.553	202.394	-8191	255	
14329.817	1	1	0	0	0.062589	0.087159	0.23762	0.16195	0.20727	0.08822	0.18112	0.10259	0.11928	0.28227	0.1478	0.34231	0.16216	0.13269	0.29965	0.25219	-2.0833	-2.3729	-2.6792	-2.3771	-2.4042	-2.7833	-2.2354	-2.6813	-2.5375	-2.2771	-2.9271	-2.4229	-2.4417	-2.7646	-2.3208	-2.6354	372.480	216.915	298.977	500.229	311.425	308.232	527.957	227.643	499.627	322.563	520.142	516.966	358.962	344.785	206.932	444.772	0.00059641	0.00036726	4.2586e-05	1025.4	1.593e-06	2.9905e-06	1115.7	210.39	2.3183e-06	5.5659e-06	264.88	76.687	59.367	17.13	3.3967e-06	24.214	0.00019736	0.00018222	5.0729e-05	1012.5	1.9999e-06	1.93e-06	1104.7	208.49	1.9866e-06	1.9818e-06	263.59	76.361	59.448	17.456	2.0393e-06	24.402	483.860	289.041	240.510	181.138	391.968	402.887	180.892	188.576	289.228	346.163	188.490	194.659	195.194	202.875	354.001	202.063	-8191	255	
14329.937	1	1	0	0	0.23459	0.063216	0.24373	0.18965	0.10243	0.21486	0.19215	0.26331	0.03848	0.10501	0.14476	0.041527	0.11965	0.31055	0.17852	0.18094	-2.0479	-2.0563	-2.5312	-2.65	-2.4667	-2.6917	-2.4542	-2.7125	-2.5896	-2.2146	-2.6875	-2.3479	-2.3125	-2.6	-2.2271	-2.4917	200.376	467.896	417.887	238.258	214.694	338.673	496.852	461.026	177.035	262.801	233.369	455.452	347.417	517.886	494.670	498.898	0.00049576	0.00030468	9.3241e-06	1023.5	2.0849e-06	3.1287e-06	1122.6	211.25	2.5106e-06	4.3152e-06	265.27	76.87	59.374	17.259	9.9374e-07	24.006	0.00020315	0.00018927	5.1622e-05	1011.3	2.1361e-06	2.0542e-06	1106.5	208.89	1.9961e-06	1.9201e-06	263.32	76.393	59.361	17.42	1.9722e-06	24.393	488.439	201.355	228.067	181.019	310.701	283.924	180.817	188.551	333.894	342.702	187.933	194.514	195.357	202.994	253.166	202.278	-8191	255	
14330.009	1	1	0	0	0.048659	0.080581	0.12929	0.49671	0.2616	0.15199	0.18306	0.11526	0.12055	0.35027	0.31147	0.24515	0.092767	0.17591	0.09405	0.18012	-2.0792	-2.2375	-2.525	-2.5396	-2.2833	-2.8854	-2.7167	-2.5729	-2.5479	-2.1979	-2.7333	-2.5062	-2.2438	-2.6688	-2.1604	-2.3271	276.369	454.195	443.446	453.250	308.873	348.586	412.323	489.573	340.459	260.272	463.916	406.309	191.094	361.685	240.947	221.683	0.00062242	0.00031949	5.9525e-05	1029.5	1.225e-06	5.4964e-06	1120.4	210.82	6.5153e-06	4.2232e-06	265.12	76.475	59.177	17.261	9.6518e-07	24.325	0.00019654	0.00018056	4.8354e-05	1013.2	1.957e-06	1.889e-06	1104.7	208.87	2.0058e-06	1.9708e-06	263.33	76.366	59.281	17.431	2.0139e-06	24.522	482.962	280.747	307.442	181.183	287.292	313.574	180.823	188.379	278.646	338.015	188.113	194.746	195.091	202.910	313.077	201.820	-8191	255	
14330.105	1	1	0	0	0.14675	0.33978	0.16784	0.43725	0.048257	0.19301	0.41594	0.21743	0.31413	0.24513	0.074293	0.16485	0.025324	0.15021	0.061554	0.10317	-2.2167	-2.2875	-2.5167	-2.7313	-2.2583	-2.675	-2.5229	-2.4792	-2.7729	-2.2875	-2.6792	-2.6458	-2.375	-2.9729	-2.3854	-2.4146	396.511	418.106	179.217	475.424	384.322	257.340	419.015	485.353	435.509	457.713	484.007	400.112	328.662	370.512	515.814	421.139	0.00061655	0.00017734	0.00010962	1022.8	3.4714e-06	1.2549e-06	1117.7	210.27	6.4733e-06	4.0853e-06	266.33	76.2	59.342	17.204	3.7709e-06	24.231	0.00019148	0.00017232	4.9868e-05	1010.9	2.0422e-06	1.9267e-06	1104.8	208.67	2.0136e-06	1.9281e-06	263.34	76.292	59.278	17.447	1.8925e-06	24.543	481.024	314.521	303.473	181.149	289.258	347.677	180.915	188.296	275.384	308.575	188.180	194.509	195.226	202.977	329.728	202.260	-8191	255	
14330.201	1	1	0	0	0.35751	0.13576	0.12054	0.14655	0.15151	0.30178	0.22659	0.30877	0.16454	0.2016	0.094213	0.083311	0.21033	0.15974	0.073074	0.33812	-2.1646	-2.1312	-2.4542	-2.6917	-1.9583	-2.6521	-2.5646	-2.3583	-2.5708	-2.3771	-2.4729	-2.75	-2.3229	-2.7896	-2.3354	-2.2562	436.491	419.474	342.678	442.796	228.682	309.947	446.045	527.511	248.646	409.776	521.124	188.562	385.486	331.765	200.610	423.052	0.00063145	0.00043753	4.2637e-05	1025	2.9917e-06	1.1948e-06	1118.4	210.17	1.8011e-06	1.7604e-06	264.98	76.346	59.632	17.244	3.3517e-06	24.025	0.00019366	0.00017236	4.6198e-05	1011.7	1.9318e-06	1.8513e-06	1105	208.75	1.8341e-06	1.8352e-06	263.36	76.235	59.53	17.432	1.9147e-06	24.438	483.643	294.451	278.247	180.959	286.747	257.464	180.888	188.459	234.956	387.988	188.126	194.609	195.527	202.941	320.490	202.401	-8191	255	
14330.322	1	1	0	0	0.27608	0.14401	0.17742	0.41569	0.083618	0.14031	0.20269	0.25659	0.058347	0.16989	0.10521	0.11823	0.17798	0.29814	0.35907	0.30379	-2.4271	-2.425	-2.5604	-2.7604	-2.3271	-2.6813	-2.625	-2.3937	-2.8563	-2.4021	-2.7146	-2.5646	-2.2667	-2.6146	-2.5187	-2.3187	500.592	286.236	379.042	473.423	277.216	448.312	495.999	497.318	272.292	280.536	505.009	519.347	220.773	450.346	451.662	493.228	0.00063647	0.00025199	1.1516e-05	1025	4.171e-06	5.0812e-06	1116.5	209.13	3.188e-06	1.1007e-06	265.55	76.563	60.096	17.289	4.3668e-06	23.828	0.00019053	0.00017454	4.9485e-05	1009.9	1.9446e-06	1.9294e-06	1103.4	208.51	1.8972e-06	1.8889e-06	263.55	76.263	59.597	17.459	1.9046e-06	24.419	486.094	269.916	447.953	181.274	260.682	301.509	180.916	188.565	288.448	265.057	188.390	194.599	194.861	202.608	295.283	201.751	-8191	255	
14330.418	1	1	0	0	0.086858	0.032528	0.045244	0.12127	0.21349	0.060797	0.26902	0.25811	0.13631	0.11648	0.036003	0.18727	0.14021	0.10599	0.051721	0.31564	-2.2646	-2.3438	-2.3333	-2.8375	-2.2438	-2.5771	-2.7729	-2.2583	-2.75	-2.4188	-2.4854	-2.6708	-2.2542	-2.6521	-2.2521	-2.4542	485.275	260.955	293.053	483.440	423.132	509.128	424.942	370.878	294.319	206.946	443.783	505.867	253.751	478.595	381.736	405.231	0.00053977	0.00017085	2.9503e-05	1026.3	2.1253e-06	2.3943e-06	1117	210.34	3.7982e-06	3.3961e-06	264.92	76.105	59.185	17.123	3.1101e-06	23.974	0.0001894	0.00017397	4.9402e-05	1010.4	1.9109e-06	1.8807e-06	1104.9	208.59	1.8858e-06	1.9009e-06	263.62	76.26	59.371	17.412	1.8911e-06	24.363	483.583	220.237	235.210	181.122	342.717	308.960	180.895	188.470	251.882	297.894	188.334	194.572	195.274	202.525	315.958	202.189	-8191	255	
14330.514	1	1	0	0	0.16698	0.11821	0.15773	0.45156	0.1506	0.15719	0.29301	0.13021	0.034594	0.15363	0.097428	0.15041	0.45972	0.22174	0.17141	0.043889	-2.1542	-2.3	-2.3438	-2.75	-2.3146	-2.4938	-2.9604	-2.1917	-2.5812	-2.3083	-2.3146	-2.7646	-2.2146	-2.6708	-2.5	-2.3125	378.554	270.211	504.674	521.055	505.964	233.222	412.876	197.004	359.564	381.730	335.956	257.278	507.516	347.001	237.995	226.505	0.00057652	0.00019909	7.63e-05	1027.2	2.7732e-06	4.8732e-06	1117	209.95	4.0201e-06	4.5897e-06	263.82	76.56	59.39	17.21	2.4371e-06	23.996	0.00019453	0.00017567	4.8663e-05	1011.4	2.0196e-06	1.9144e-06	1104.2	208.2	1.9856e-06	1.9402e-06	262.57	76.369	59.419	17.429	1.9793e-06	24.433	481.335	260.880	284.582	180.955	243.171	321.065	180.972	188.392	284.945	311.293	188.171	194.389	195.089	202.728	292.878	202.643	-8191	255	
14330.586	1	1	0	0	0.33246	0.075135	0.29365	0.37602	0.083311	0.042917	0.2308	0.19165	0.050501	0.26109	0.26404	0.3776	0.056766	0.1051	0.25292	0.071977	-2.125	-2.3771	-2.1813	-3	-2.2313	-2.3917	-2.7792	-2.3542	-2.525	-2.5958	-2.4271	-2.5938	-2.4104	-2.5208	-2.6125	-2.2875	451.256	302.211	395.315	437.217	519.796	410.795	485.439	479.305	202.484	501.683	423.414	525.744	306.866	271.916	285.782	233.200	0.00051569	8.6223e-05	6.384e-05	1023.3	1.9856e-06	4.1784e-06	1119.9	211.18	2.2317e-06	5.5226e-06	264.82	76.541	59.429	17.212	1.8226e-06	23.95	0.00019984	0.0001809	4.9425e-05	1011.3	2.0049e-06	1.9337e-06	1104	208.78	2.0063e-06	1.954e-06	263.22	76.384	59.381	17.468	1.9622e-06	24.424	492.015	492.256	247.292	181.090	320.883	321.224	180.923	188.144	260.898	316.917	188.345	194.590	195.725	202.316	342.505	202.530	-8191	255	
14330.705	1	1	0	0	0.10492	0.047368	0.070753	0.12325	0.24517	0.16047	0.093385	0.25544	0.15899	0.077116	0.19142	0.15648	0.34644	0.12388	0.12702	0.13813	-2.1021	-2.6604	-2.3354	-2.8312	-2.2938	-2.3854	-2.8042	-2.1562	-2.475	-2.6604	-2.3563	-2.6292	-2.3937	-2.3479	-2.5979	-2.3292	529.602	179.085	323.977	458.016	403.285	355.065	418.218	460.859	425.216	318.271	449.071	398.523	457.274	174.022	232.869	475.247	0.00062325	0.00030402	5.0054e-05	1023.8	1.0159e-06	2.946e-06	1118.3	208.9	3.3099e-06	3.5638e-06	264.26	76.546	59.592	17.124	5.169e-06	24.232	0.00019407	0.00018062	4.95e-05	1010.4	2.0435e-06	1.9827e-06	1104.4	208	2.0172e-06	1.8966e-06	263.57	76.322	59.402	17.427	1.9578e-06	24.461	483.782	279.773	258.178	180.922	235.245	304.586	181.113	188.321	285.762	300.308	187.991	194.550	195.155	202.541	336.482	201.978	-8191	255	
14330.801	1	1	0	0	0.099403	0.11592	0.11141	0.39967	0.085211	0.33399	0.42788	0.14738	0.16189	0.13132	0.30604	0.16512	0.25828	0.24385	0.052175	0.17144	-2.2479	-2.7917	-2.1979	-2.7562	-2.2104	-2.5542	-2.7687	-2.3646	-2.6521	-2.5854	-2.2833	-2.6667	-2.475	-2.3	-2.4042	-2.3667	487.992	321.483	500.278	518.702	386.880	515.904	470.415	230.808	398.066	274.148	508.388	249.060	176.218	488.916	477.757	505.862	0.00060926	0.00039009	0.00011902	1024.3	4.0233e-06	4.8267e-06	1116.4	210.54	4.6981e-06	2.7606e-06	264.83	76.314	60.176	17.081	2.8146e-06	24.012	0.00019862	0.00017835	4.9251e-05	1010.2	2.0259e-06	1.9723e-06	1103.2	208.65	1.9677e-06	1.9882e-06	263.52	76.313	59.545	17.415	1.96e-06	24.42	479.716	238.741	249.130	181.326	265.730	277.274	180.868	187.996	278.108	308.908	188.175	194.263	195.085	202.958	277.126	202.061	-8191	255	
14330.897	1	1	0	0	0.12641	0.062027	0.27528	0.091648	0.071857	0.1089	0.25068	0.21177	0.14482	0.12091	0.20535	0.23813	0.2231	0.060204	0.15139	0.26305	-1.9708	-2.5521	-2.1104	-2.6333	-2.3937	-2.1625	-2.9188	-2.4	-2.125	-2.4917	-2.3021	-2.6167	-2.6208	-2.1875	-2.7917	-2.2917	436.331	451.256	298.419	452.850	282.819	268.923	416.658	418.221	306.172	284.593	195.484	172.979	275.089	506.249	491.187	341.927	0.00062076	0.00031116	0.00010101	1024.5	1.9291e-06	3.4161e-06	1118.3	210.19	3.4675e-06	2.5549e-06	264.11	76.391	59.723	17.175	2.546e-06	23.944	0.00019398	0.00017688	4.896e-05	1011	1.9624e-06	1.9826e-06	1103.9	208.49	2.0798e-06	1.9711e-06	262.97	76.304	59.438	17.43	1.9946e-06	24.429	482.646	319.736	249.537	181.012	326.893	266.880	180.890	188.426	251.121	392.795	188.213	194.307	194.925	202.776	529.614	201.914	-8191	255	
14331.018	1	1	0	0	0.23396	0.24857	0.10402	0.1411	0.10841	0.29658	0.1821	0.1327	0.11581	0.21946	0.4338	0.2496	0.11038	0.092842	0.23099	0.073192	-1.825	-2.7375	-2.275	-2.55	-2.475	-2.225	-2.7604	-2.4458	-2.3104	-2.6063	-2.2854	-2.6146	-2.5375	-2.0396	-2.5896	-2.5875	430.470	177.732	334.287	420.668	364.547	257.694	396.147	419.467	471.491	493.810	507.609	312.751	246.248	413.316	179.635	390.609	0.00055159	0.00043395	0.00010288	1022.4	1.9558e-06	1.4192e-06	1119.2	210.29	2.3348e-06	1.0671e-06	264.05	76.869	59.835	17.243	2.7688e-06	24.238	0.00019785	0.00017542	5.0811e-05	1010.9	2.0553e-06	2.0203e-06	1103.5	208.4	1.9625e-06	1.9411e-06	263.01	76.366	59.667	17.471	1.9783e-06	24.522	481.698	247.161	254.188	181.110	285.791	335.184	181.127	188.593	264.171	439.728	188.241	194.750	195.177	202.664	360.792	201.640	-8191	255	
14331.114	1	1	0	0	0.17037	0.17516	0.13866	0.03484	0.084901	0.2139	0.38319	0.34755	0.18145	0.24862	0.27936	0.10225	0.057553	0.10663	0.20566	0.37554	-1.8604	-2.8125	-2.15	-2.6708	-2.5958	-2.2188	-2.7	-2.4167	-2.3563	-2.6	-2.4062	-2.3792	-2.7375	-2.2354	-2.5833	-2.7208	263.802	315.613	256.805	190.883	358.149	282.114	468.779	213.878	499.579	198.939	459.210	342.220	246.337	423.893	372.324	496.948	0.0005724	0.00028608	5.0453e-05	1027.9	1.4049e-06	4.3233e-06	1116.5	211.15	3.33e-06	5.5655e-06	263.72	76.785	59.71	17.272	4.4573e-06	23.93	0.00020113	0.00018046	5.088e-05	1013.5	2.0229e-06	1.9951e-06	1104	208.77	2.0164e-06	1.9629e-06	263.24	76.414	59.551	17.471	1.9375e-06	24.396	479.972	254.873	227.252	181.247	267.909	330.331	181.102	188.441	282.727	304.531	188.080	194.471	195.573	203.005	335.059	202.033	-8191	255	
14331.210	1	1	0	0	0.2132	0.099817	0.12749	0.1387	0.062898	0.22975	0.1424	0.25611	0.20889	0.27209	0.14323	0.24152	0.089294	0.1212	0.056341	0.19679	-1.8083	-2.6875	-2.3042	-2.5833	-2.6188	-2.1604	-2.7896	-2.5375	-2.3812	-2.575	-2.4125	-2.3792	-2.6583	-2.3187	-2.6104	-2.6875	332.946	414.969	237.408	427.065	459.000	391.442	429.413	246.287	526.616	361.890	294.074	460.192	217.086	484.355	379.621	337.977	0.00068231	0.00039931	5.8446e-05	1023.4	3.65e-06	2.9484e-06	1115	210.68	5.5013e-06	2.3789e-06	263.56	76.174	59.624	17.303	1.5485e-06	24.127	0.00020342	0.00017214	4.9377e-05	1012.4	1.947e-06	1.894e-06	1104.1	208.76	1.9781e-06	1.8899e-06	262.79	76.396	59.426	17.46	1.9475e-06	24.509	482.313	221.291	278.690	181.270	307.489	287.907	181.022	188.450	273.620	307.555	188.202	194.553	195.427	202.968	300.529	202.092	-8191	255	
14331.306	1	1	0	0	0.23691	0.12914	0.043154	0.30607	0.1473	0.08166	0.23658	0.41487	0.2014	0.2579	0.15315	0.2253	0.27552	0.080704	0.32246	0.32668	-1.7292	-2.525	-2.3792	-2.3187	-2.6146	-2.1375	-2.875	-2.65	-2.1562	-2.5354	-2.5979	-2.2875	-2.625	-2.1979	-2.4021	-2.6271	272.035	261.924	512.806	474.636	272.682	254.143	488.822	432.855	208.399	282.902	244.372	514.511	517.349	211.154	444.634	423.042	0.0005757	0.00035937	0.00012055	1025.9	3.6492e-06	1.6498e-06	1121.9	210.42	4.6712e-06	2.5181e-06	265.11	76.623	59.469	17.205	1.7598e-06	24.049	0.00019192	0.00017498	4.8078e-05	1011	1.897e-06	1.882e-06	1106.4	208.7	1.9382e-06	1.8211e-06	263.5	76.202	59.523	17.412	1.8873e-06	24.461	482.888	259.220	231.544	181.059	303.048	394.726	181.055	188.373	280.832	259.087	188.186	194.681	195.053	202.850	318.449	202.253	-8191	255	
14331.402	1	1	0	0	0.28058	0.36545	0.25041	0.081114	0.11872	0.25515	0.4288	0.28664	0.14589	0.14951	0.13478	0.23106	0.1368	0.22904	0.21007	0.39975	-1.7646	-2.4125	-2.4062	-2.2896	-2.4583	-2.3438	-2.5042	-2.6208	-2.0542	-2.625	-2.5938	-2.2646	-2.6646	-2.4271	-2.5062	-2.5854	174.107	248.466	354.896	258.259	227.889	348.975	433.974	457.335	335.779	303.331	475.720	273.425	483.408	219.647	325.174	483.034	0.00052868	0.00027355	9.2378e-05	1029.2	1.0403e-06	2.0426e-06	1119.6	210.28	2.9161e-06	4.0608e-06	264.8	76.909	59.714	17.355	5.8643e-06	24.45	0.00019573	0.00016861	4.7844e-05	1011.2	1.9579e-06	1.916e-06	1106	208.08	1.9143e-06	1.856e-06	263.62	76.529	59.626	17.513	1.8735e-06	24.562	484.086	239.808	269.352	181.150	289.063	298.601	181.108	188.557	194.909	324.008	188.118	194.431	195.134	202.999	346.030	202.680	-8191	255	
14331.498	1	1	0	0	0.17494	0.32736	0.14409	0.24216	0.21716	0.14719	0.4003	0.17199	0.12728	0.13014	0.16604	0.1174	0.16603	0.13173	0.11762	0.05422	-1.7021	-2.6292	-2.4271	-2.3583	-2.725	-2.4521	-2.4688	-2.7521	-2.2875	-2.4708	-2.5604	-2.2313	-2.7292	-2.3229	-2.15	-2.9104	489.768	513.778	314.687	500.898	342.091	516.787	507.407	525.267	300.732	271.014	173.343	348.223	311.502	257.849	227.280	467.930	0.00054867	0.00037121	0.0001124	1024.4	2.2598e-06	3.8125e-06	1119.5	209.25	5.3943e-06	1.0726e-06	264.99	76.945	59.558	17.213	3.5213e-07	24.179	0.00018587	0.00016881	4.7235e-05	1011	1.9768e-06	1.8776e-06	1104.9	207.99	1.9689e-06	1.8681e-06	263	76.38	59.512	17.471	1.923e-06	24.513	490.862	264.189	206.388	181.069	260.039	346.194	180.887	188.478	257.255	258.003	188.379	194.756	194.915	203.074	369.455	202.121	-8191	255	
14331.617	1	1	0	0	0.15045	0.073852	0.24885	0.35572	0.23654	0.10991	0.16867	0.16933	0.2114	0.18217	0.16503	0.1419	0.13304	0.38928	0.19671	0.29115	-1.675	-2.4208	-2.6688	-2.3563	-2.5417	-2.4125	-2.5167	-2.6854	-2.2333	-2.5687	-2.5938	-2.3667	-2.7188	-2.5125	-2.3646	-2.7354	451.724	248.200	204.243	492.535	487.517	323.735	434.452	497.304	417.452	417.344	312.806	499.016	288.617	175.876	298.922	498.399	0.0006634	0.00015974	6.6547e-05	1025.1	2.8163e-06	3.1204e-06	1120.2	210.35	3.4591e-06	3.251e-06	263.11	76.422	58.888	17.221	5.5524e-06	24.046	0.00019691	0.00017246	4.7693e-05	1010.7	1.9376e-06	1.8481e-06	1106.4	208.59	1.8658e-06	1.8721e-06	262.74	76.504	59.274	17.465	1.8768e-06	24.43	489.419	258.822	265.393	181.342	280.513	289.695	180.909	188.495	254.179	340.572	187.930	194.500	194.850	203.073	335.142	201.942	-8191	255	
14331.713	1	1	0	0	0.22627	0.18986	0.17414	0.13652	0.47499	0.25384	0.35079	0.22246	0.14342	0.081478	0.21576	0.072712	0.10348	0.052547	0.34099	0.15061	-1.9021	-2.3937	-2.4771	-2.5062	-2.625	-2.4042	-2.4167	-2.7833	-2.2604	-2.6042	-2.7	-2.25	-2.6646	-2.5687	-2.3625	-2.7583	277.488	227.698	314.079	511.459	308.389	407.027	420.813	502.638	378.100	486.840	491.769	418.204	454.953	360.104	465.733	419.663	0.00062386	0.0001466	9.4296e-05	1025.1	4.0283e-06	3.9977e-06	1122.8	210.48	3.1236e-06	3.8254e-06	265.73	76.862	59.412	17.352	1.66e-06	23.956	0.00018874	0.00016902	4.7268e-05	1010.1	1.9271e-06	1.814e-06	1105.9	208.34	1.8744e-06	1.8402e-06	263.33	76.382	59.342	17.489	1.9014e-06	24.426	477.608	214.665	274.396	181.086	286.587	355.102	180.782	188.616	263.413	348.774	188.038	194.915	195.640	202.870	270.580	201.702	-8191	255	
14331.810	1	1	0	0	0.15785	0.13296	0.26776	0.22144	0.037881	0.13459	0.44516	0.09548	0.2059	0.062688	0.078041	0.23373	0.028448	0.22452	0.10438	0.28178	-1.9854	-2.2979	-2.5792	-2.3271	-2.5146	-2.5917	-2.3729	-2.6875	-2.375	-2.4354	-2.6083	-2.2	-2.6292	-2.4708	-2.1792	-2.6937	336.977	493.672	234.395	462.244	243.945	183.380	398.222	511.004	432.816	374.569	530.181	231.707	335.942	321.969	376.274	455.640	0.0005374	0.00029605	3.2674e-05	1025.1	1.3649e-06	3.528e-06	1118.2	210.67	1.4675e-06	3.3319e-06	264.68	76.729	59.62	17.24	5.1651e-06	23.91	0.00018956	0.00017647	4.7072e-05	1010.5	1.9596e-06	1.872e-06	1103.5	208.38	1.8981e-06	1.8658e-06	262.71	76.552	59.596	17.466	1.8817e-06	24.485	484.667	267.146	250.561	180.886	298.357	334.550	180.778	188.304	277.306	271.047	188.427	194.284	195.498	202.775	303.225	202.112	-8191	255	
14331.881	1	1	0	0	0.088545	0.15126	0.15386	0.13666	0.26109	0.020208	0.15279	0.29419	0.054717	0.037216	0.097095	0.14602	0.13593	0.26155	0.13837	0.077753	-1.9646	-2.2375	-2.5479	-2.1937	-2.525	-2.5667	-2.3375	-2.6688	-2.4083	-2.1521	-2.75	-2.275	-2.6625	-2.6771	-2.425	-2.8146	299.629	352.277	364.266	515.102	521.909	297.523	434.525	528.558	285.112	495.829	343.360	499.533	217.127	500.304	180.686	252.681	0.00059139	0.00047435	9.8273e-05	1026.6	2.3299e-06	2.867e-06	1115	211.6	5.9981e-06	1.6441e-06	264.24	76.615	60.105	17.294	2.9304e-06	24.175	0.00019549	0.0001708	4.6909e-05	1010	1.8895e-06	1.8506e-06	1102.3	209.05	1.9532e-06	1.9009e-06	262.77	76.484	59.717	17.492	1.8922e-06	24.498	479.422	255.529	270.019	181.151	283.153	321.029	180.965	188.066	285.048	323.120	188.549	194.870	195.205	203.255	263.988	201.941	-8191	255	
14332.002	1	1	0	0	0.20532	0.10216	0.062302	0.11854	0.17708	0.18264	0.20562	0.29705	0.17846	0.36005	0.1952	0.15984	0.25031	0.17617	0.19447	0.12318	-1.9396	-2.2771	-2.6375	-2.2333	-2.5479	-2.7438	-2.3167	-2.6229	-2.5208	-2.1667	-2.7583	-2.4313	-2.4938	-2.7146	-2.3208	-2.65	364.459	322.211	461.467	457.059	374.675	181.184	423.997	197.703	380.903	286.702	481.984	485.190	523.766	494.126	425.055	362.264	0.00060346	0.00039143	7.1549e-05	1026.3	4.3622e-06	1.2208e-06	1117	210.39	2.61e-06	3.7307e-06	264.56	76.725	60.026	17.321	2.6921e-06	24.307	0.00018812	0.0001705	4.6721e-05	1011.4	1.9955e-06	1.822e-06	1103.7	208.15	1.8818e-06	1.8137e-06	262.95	76.437	59.545	17.501	1.8191e-06	24.56	489.650	254.600	278.028	181.098	282.243	403.916	180.528	188.479	280.170	304.010	188.342	194.204	195.184	203.464	332.447	202.475	-8191	255	
14332.098	1	1	0	0	0.33406	0.21623	0.20678	0.21915	0.15488	0.051187	0.13251	0.010421	0.17864	0.18349	0.20133	0.052806	0.10518	0.30187	0.19758	0.14889	-1.8833	-2.1792	-2.5542	-2.5542	-2.4521	-2.6646	-2.3542	-2.6562	-2.4562	-2.2333	-2.7	-2.5125	-2.5729	-2.6875	-2.3125	-2.5708	333.274	228.880	197.094	510.688	226.662	382.008	375.040	492.916	435.880	436.688	488.632	425.430	260.827	447.420	468.280	512.909	0.00057596	0.00027393	9.8627e-05	1029.5	2.5605e-06	5.7432e-06	1113.9	210.38	4.3908e-06	1.7619e-06	264.59	77.01	59.655	17.245	4.6617e-06	24.092	0.00018313	0.00016251	4.4816e-05	1012.9	1.8222e-06	1.764e-06	1103.5	208.59	1.793e-06	1.7542e-06	263.26	76.616	59.574	17.481	1.7791e-06	24.498	480.607	251.917	287.477	181.068	327.100	343.732	181.034	188.588	320.624	406.214	188.237	194.540	195.583	202.609	313.631	202.696	-8191	255	
14332.194	1	1	0	0	0.13583	0.12406	0.056609	0.39123	0.25576	0.24986	0.29037	0.19576	0.29485	0.28421	0.2043	0.052704	0.10404	0.1355	0.098623	0.1374	-2.1396	-2.2479	-2.4646	-2.3854	-2.2979	-2.6396	-2.3021	-2.6708	-2.55	-2.3458	-2.5042	-2.5729	-2.4958	-2.7521	-2.3875	-2.5062	525.521	196.951	487.192	493.392	318.087	414.960	447.709	499.134	231.624	293.121	217.242	268.216	412.355	484.105	172.289	373.054	0.00067443	0.00043438	0.0001524	1023.4	5.4989e-06	1.7434e-06	1117	211.17	4.2368e-06	1.1288e-06	265.92	76.835	60.155	17.324	4.8641e-06	24.287	0.00018557	0.00016295	4.6263e-05	1009.7	1.8599e-06	1.7977e-06	1104.2	208.51	1.8765e-06	1.8185e-06	263.4	76.503	59.724	17.47	1.9187e-06	24.54	487.276	242.209	279.264	181.330	263.908	312.862	181.136	188.384	304.847	244.566	188.345	194.683	195.181	202.818	334.223	202.204	-8191	255	
14332.290	1	1	0	0	0.17189	0.1086	0.14726	0.30765	0.095693	0.16716	0.36248	0.18614	0.22115	0.22897	0.040751	0.1978	0.4515	0.14387	0.15579	0.11063	-2.2667	-2.2979	-2.6604	-2.6208	-2.2583	-2.6792	-2.5792	-2.4437	-2.8563	-2.375	-2.7458	-2.7896	-2.2917	-2.8604	-2.3708	-2.6021	278.985	525.756	413.453	172.141	192.220	286.656	462.252	471.814	522.923	387.775	256.856	478.762	468.155	465.599	464.860	441.894	0.00052087	0.00028702	5.8418e-05	1025.5	3.7668e-06	2.2562e-06	1115.5	209.24	2.9926e-06	1.0628e-06	265.53	77.363	60.043	17.369	4.2417e-06	24.169	0.00018325	0.00016265	4.5813e-05	1010.9	1.855e-06	1.7736e-06	1102.7	208.11	1.7863e-06	1.8047e-06	263.54	76.974	59.789	17.525	1.8775e-06	24.511	487.769	206.968	291.527	181.343	298.358	248.382	180.942	188.433	252.689	297.015	188.310	194.230	194.941	202.965	281.075	202.015	-8191	255	
14332.386	1	1	0	0	0.068708	0.21408	0.18444	0.51808	0.15855	0.11748	0.11685	0.089403	0.14558	0.051403	0.052007	0.22142	0.26997	0.099403	0.093602	0.20475	-2.0958	-2.1479	-2.4646	-2.6688	-2.2021	-2.7313	-2.4396	-2.4625	-2.6521	-2.3042	-2.7458	-2.6667	-2.25	-2.7188	-2.3125	-2.5312	526.744	251.737	295.108	495.849	173.796	453.031	462.865	495.389	319.032	242.498	302.160	438.267	476.857	365.831	306.026	170.834	0.00062539	0.00031208	5.3511e-05	1028.4	3.1614e-06	1.7227e-06	1121.8	209.92	2.8711e-06	1.3629e-06	265.7	77.113	59.701	17.301	1.6688e-06	24.161	0.0001909	0.00016891	4.5554e-05	1011.4	1.8833e-06	1.8078e-06	1106.6	208.36	1.8731e-06	1.8782e-06	263.69	76.692	59.588	17.543	1.8666e-06	24.485	488.635	237.617	258.587	181.024	274.929	235.775	180.870	188.275	283.923	312.926	188.540	194.488	195.406	202.624	320.765	202.213	-8191	255	
14332.483	1	1	0	0	0.32152	0.27344	0.2024	0.21736	0.36311	0.097431	0.19211	0.25502	0.22525	0.083114	0.081815	0.066855	0.13112	0.25825	0.22154	0.19485	-2.2792	-2.1875	-2.5708	-2.7375	-2.3167	-2.6896	-2.6771	-2.55	-2.7458	-2.4313	-2.4208	-2.65	-2.3354	-2.6104	-2.5292	-2.3312	431.556	271.903	215.254	523.399	508.318	232.469	456.694	177.993	170.936	395.365	177.424	380.628	231.687	355.399	426.520	469.260	0.00055002	0.00022165	0.00012105	1026.6	4.4422e-06	2.2528e-06	1120.8	209.15	2.0168e-06	5.46e-06	264.57	76.858	59.868	17.275	3.9679e-06	24.09	0.00018223	0.00016401	4.6599e-05	1011.4	1.8699e-06	1.8394e-06	1105.8	208.45	1.8258e-06	1.7753e-06	263.38	76.701	59.604	17.541	1.7578e-06	24.629	483.777	286.071	247.594	181.139	272.547	306.747	180.962	188.336	292.092	338.297	188.275	194.620	195.501	203.264	314.737	202.441	-8191	255	
14332.579	1	1	0	0	0.18827	0.089026	0.13437	0.056313	0.075862	0.1956	0.31784	0.097389	0.2075	0.080408	0.08357	0.17191	0.15261	0.092356	0.074133	0.044134	-2.2979	-2.3333	-2.3354	-2.7604	-2.4271	-2.7958	-2.6479	-2.4	-2.7292	-2.4479	-2.5292	-2.7167	-2.2167	-2.65	-2.7625	-2.3354	292.961	259.429	174.014	459.965	395.996	228.432	464.187	423.047	318.959	356.033	188.568	497.313	382.083	373.647	351.828	265.333	0.00063705	0.00022532	0.00010988	1027.8	2.6846e-06	1.9439e-06	1117.8	209.64	3.6057e-06	1.8439e-06	264.64	77.308	59.999	17.258	2.2163e-06	24.198	0.00018216	0.0001612	4.4985e-05	1012.9	1.8241e-06	1.8005e-06	1106	208.63	1.787e-06	1.7219e-06	263.17	76.983	59.702	17.496	1.7718e-06	24.535	487.037	263.969	254.095	180.875	303.216	388.090	180.879	188.340	284.629	285.234	188.219	194.540	195.327	202.521	307.672	202.539	-8191	255	
14332.698	1	1	0	0	0.20632	0.24871	0.12618	0.043787	0.25808	0.092128	0.26627	0.16253	0.25715	0.095582	0.22751	0.052635	0.11597	0.036022	0.093737	0.35133	-2.1542	-2.375	-2.4396	-2.6188	-2.2812	-2.7104	-2.6979	-2.425	-2.575	-2.6167	-2.6937	-2.4917	-2.3312	-2.5438	-2.5979	-2.1958	506.768	428.627	267.077	409.230	246.407	209.132	487.461	506.698	408.667	305.146	181.543	454.528	442.870	407.528	427.181	215.899	0.0006463	0.00024561	7.1898e-05	1029.4	4.3155e-06	3.8517e-06	1114.8	210.56	1.1612e-06	3.9805e-06	265.14	76.712	60.103	17.3	4.6452e-06	24.345	0.00018649	0.0001669	4.7381e-05	1012.3	1.8828e-06	1.8491e-06	1103.8	208.23	1.8635e-06	1.8221e-06	263.58	76.488	59.872	17.538	1.8104e-06	24.617	481.325	239.834	304.520	181.116	306.459	261.227	181.139	188.761	253.994	350.308	188.044	194.250	194.973	203.075	330.920	201.965	-8191	255	
14332.794	1	1	0	0	0.17093	0.14846	0.24356	0.14964	0.39015	0.12865	0.1362	0.21788	0.18199	0.034402	0.10827	0.078414	0.1453	0.024223	0.15769	0.091813	-2.1771	-2.4167	-2.125	-3.025	-2.2896	-2.45	-2.7646	-2.3521	-2.6875	-2.5438	-2.1771	-2.8271	-2.4167	-2.4583	-2.6312	-2.3667	270.537	298.718	479.689	221.866	421.237	316.589	501.406	486.515	440.281	197.706	465.357	380.166	477.865	303.163	486.027	474.962	0.00057228	0.00027479	9.7867e-05	1026.9	3.1523e-06	3.6507e-06	1123	209.04	3.2824e-06	1.9547e-07	265.53	77.196	60.395	17.427	5.2763e-06	24.257	0.00018732	0.00016076	4.5416e-05	1012.3	1.8316e-06	1.7589e-06	1107	208.53	1.8057e-06	1.8125e-06	263.97	76.913	59.839	17.569	1.8176e-06	24.647	485.508	274.534	277.481	181.320	278.955	295.663	181.169	188.526	301.498	312.011	188.124	194.729	195.627	202.475	316.869	202.602	-8191	255	
14332.890	1	1	0	0	0.23787	0.068948	0.17685	0.021894	0.024565	0.21413	0.33755	0.24931	0.099424	0.1252	0.062963	0.24655	0.12681	0.19151	0.15589	0.060569	-2.0625	-2.5375	-2.3292	-2.8937	-2.2646	-2.3792	-2.7771	-2.2188	-2.5208	-2.6167	-2.3563	-2.5979	-2.5792	-2.3583	-2.7875	-2.35	347.951	302.629	203.997	180.885	494.542	457.632	475.503	466.953	303.524	270.076	402.858	405.812	370.072	174.330	196.494	280.126	0.00061736	0.00036616	0.00012113	1028.8	2.1521e-06	2.3542e-06	1119.5	210.9	2.4889e-06	1.7329e-06	265.85	76.9	59.888	17.43	5.1635e-06	24.188	0.00018921	0.00016673	4.6948e-05	1012.3	1.9291e-06	1.817e-06	1105.9	208.67	1.8665e-06	1.7557e-06	263.91	76.693	59.663	17.537	1.8375e-06	24.5	484.537	289.794	257.441	180.914	291.463	349.462	180.942	188.514	300.052	254.891	188.290	194.528	195.433	202.842	310.012	202.099	-8191	255	
14332.986	1	1	0	0	0.0075461	0.16527	0.054158	0.25409	0.18811	0.31955	0.40974	0.19989	0.16996	0.12018	0.20587	0.17414	0.22061	0.069233	0.35166	0.26503	-1.9542	-2.6771	-2.3063	-2.8792	-2.4792	-2.3021	-2.7646	-2.3312	-2.4375	-2.5312	-2.1667	-2.7521	-2.6167	-2.4729	-2.8167	-2.225	316.843	336.083	406.498	507.187	463.752	517.107	473.998	527.195	465.827	441.894	462.940	223.007	257.253	438.554	465.654	439.504	0.00063117	0.00030429	0.00011823	1023.5	3.0766e-06	4.6903e-06	1117.4	210.02	2.23e-06	4.4188e-06	265.04	76.606	60.032	17.299	1.4354e-06	24.054	0.00019144	0.00016726	4.5779e-05	1009.7	1.9227e-06	1.8503e-06	1106.6	208.13	1.8619e-06	1.8159e-06	263.64	76.64	59.606	17.503	1.8089e-06	24.463	487.420	250.603	252.567	181.158	289.129	311.331	180.737	188.384	284.609	362.046	188.350	194.766	195.122	203.464	264.135	201.946	-8191	255	
14333.107	1	1	0	0	0.064114	0.036853	0.085199	0.15456	0.14426	0.1063	0.029098	0.066224	0.13618	0.092843	0.072138	0.056291	0.038482	0.46121	0.022201	0.099415	-2.0146	-2.525	-2.0125	-2.7313	-2.5792	-2.2438	-2.8958	-2.2917	-2.4333	-2.6875	-2.3583	-2.7625	-2.6667	-2.3688	-2.6271	-2.5104	499.892	349.280	288.578	230.690	466.511	299.505	369.087	208.992	334.655	495.624	523.675	270.941	304.699	334.156	268.268	274.920	0.0005508	0.0001434	8.504e-05	1023.4	3.8452e-06	2.7002e-06	1119.3	210.94	1.6377e-06	3.8568e-06	264.81	76.646	60.2	17.227	2.9384e-06	24.236	0.00018294	0.00016649	4.6992e-05	1012.9	1.8185e-06	1.8119e-06	1107.1	208.58	1.8493e-06	1.7657e-06	263.83	76.634	59.799	17.486	1.8164e-06	24.58	484.813	208.591	262.216	180.964	280.457	364.124	181.125	188.460	238.012	337.743	188.392	195.001	195.283	203.097	309.202	202.252	-8191	255	
14333.178	1	1	0	0	0.23487	0.18283	0.292	0.29959	0.22951	0.084935	0.23168	0.21154	0.052021	0.38353	0.068722	0.098039	0.11089	0.15848	0.072055	0.1859	-1.9688	-2.5687	-2.1979	-2.8667	-2.6063	-2.2625	-2.8625	-2.4125	-2.5167	-2.5833	-2.3979	-2.5917	-2.5667	-2.2646	-2.5792	-2.2771	222.246	501.639	352.584	174.476	492.506	192.834	181.374	446.346	496.657	443.430	229.948	230.831	479.398	377.378	271.970	251.429	0.00061186	0.00037348	0.00010489	1027	1.6852e-06	3.7619e-06	1124.4	209.53	5.1898e-06	2.2883e-06	264.94	77.241	59.712	17.311	4.1908e-06	24.269	0.00018838	0.00016843	4.5489e-05	1013.2	1.8647e-06	1.7762e-06	1108.4	208.23	1.913e-06	1.7944e-06	263.64	76.925	59.644	17.551	1.8093e-06	24.588	484.704	262.450	268.017	181.146	319.650	306.316	181.013	188.409	240.160	391.818	188.288	194.560	194.886	202.815	333.259	202.556	-8191	255	
14333.299	1	1	0	0	0.047768	0.18299	0.22543	0.24586	0.12587	0.11873	0.26519	0.093913	0.19227	0.17756	0.33062	0.21894	0.18755	0.3762	0.14668	0.15746	-1.8271	-2.4771	-2.2979	-2.5479	-2.8208	-2.1854	-2.6104	-2.3937	-2.0979	-2.6583	-2.1375	-2.5417	-2.6167	-2.2354	-2.4417	-2.5563	221.459	242.099	361.877	442.467	475.701	258.271	487.529	451.300	305.449	407.530	406.778	502.855	178.842	501.690	513.411	197.693	0.00057948	0.00032486	5.5413e-05	1024.5	2.1473e-06	2.8125e-06	1116	209.77	3.649e-06	3.1038e-06	264.9	76.458	60.107	17.274	4.9364e-06	24.149	0.00018644	0.00015874	4.4686e-05	1013.1	1.8709e-06	1.7789e-06	1105.4	208.31	1.8928e-06	1.8223e-06	263.71	76.642	59.845	17.57	1.788e-06	24.505	494.643	270.697	250.807	180.890	248.028	303.433	180.858	188.461	229.641	333.956	188.308	194.715	194.926	202.825	340.469	202.337	-8191	255	
14333.395	1	1	0	0	0.11867	0.24842	0.11899	0.028061	0.12541	0.21325	0.14045	0.17571	0.10313	0.39481	0.17794	0.28762	0.11994	0.12266	0.051145	0.14553	-1.8958	-2.6229	-2.3458	-2.6562	-2.5312	-2.2396	-2.9062	-2.6479	-2.3896	-2.5417	-2.2833	-2.4146	-2.4167	-2.1542	-2.6542	-2.5396	428.970	307.864	269.229	434.516	446.572	260.071	431.723	495.508	356.596	480.698	304.126	505.298	310.323	402.766	234.445	495.899	0.00061848	0.00019219	7.972e-05	1027.8	1.353e-06	2.685e-06	1118.3	210.13	1.3713e-06	3.8511e-06	267.91	77.3	59.725	17.34	4.2101e-06	23.987	0.00018806	0.00016652	4.6102e-05	1013.3	1.8535e-06	1.8083e-06	1106.7	208.19	1.8771e-06	1.8119e-06	265	76.917	59.643	17.555	1.8413e-06	24.453	481.653	215.192	271.898	181.137	265.544	284.425	181.089	188.592	241.439	303.222	188.042	194.538	195.425	202.676	316.314	202.092	-8191	255	
14333.491	1	1	0	0	0.21071	0.27413	0.016103	0.048655	0.27158	0.087931	0.32757	0.19036	0.024982	0.22376	0.24211	0.1927	0.21651	0.17079	0.080362	0.24152	-1.6958	-2.7729	-2.5563	-2.5125	-2.7396	-2.3167	-2.6917	-2.6333	-2.325	-2.7687	-2.6562	-2.4188	-2.7354	-2.325	-2.4917	-2.5667	239.844	445.264	201.709	510.498	330.706	293.145	464.255	464.347	386.655	422.498	310.056	482.650	491.962	409.447	355.302	484.939	0.00067091	0.00015357	6.6749e-05	1028.8	1.1917e-06	2.448e-06	1120.6	210.04	3.4373e-06	5.3958e-06	264.9	77.094	60.251	17.369	2.9136e-06	23.969	0.00018913	0.00016793	4.6183e-05	1012.5	1.9026e-06	1.8411e-06	1105.8	208.51	1.8864e-06	1.7639e-06	263.62	76.747	59.947	17.591	1.8248e-06	24.456	486.942	305.930	289.365	181.136	286.420	333.801	181.277	188.447	234.034	294.866	188.357	194.566	194.809	203.109	350.918	201.872	-8191	255	
14333.586	1	1	0	0	0.17595	0.099078	0.038598	0.28406	0.16447	0.10364	0.12749	0.14401	0.092492	0.086918	0.12389	0.11729	0.13627	0.34193	0.20331	0.11486	-1.8604	-2.7167	-2.5792	-2.4458	-2.6167	-2.475	-2.7188	-2.5729	-2.3146	-2.7021	-2.5896	-2.3229	-2.8729	-2.3438	-2.6125	-2.75	432.755	509.175	377.694	473.944	307.135	524.218	452.833	205.164	474.681	379.621	466.351	412.537	397.619	447.106	422.082	253.826	0.00062273	0.00039315	7.978e-05	1028.6	1.8187e-06	1.648e-06	1121	210.54	2.8558e-06	1.4639e-06	263.21	77.292	60.158	17.303	1.8409e-06	24.207	0.00018715	0.00016706	4.6691e-05	1012.1	1.8487e-06	1.7737e-06	1106.7	208.77	1.8566e-06	1.7501e-06	263.21	76.873	59.798	17.515	1.8411e-06	24.539	487.908	247.740	284.252	181.045	290.389	316.291	180.649	188.402	256.290	397.547	188.363	194.458	195.209	202.921	300.282	202.236	-8191	255	
14333.706	1	1	0	0	0.19403	0.23909	0.041785	0.25506	0.13303	0.065488	0.27107	0.10615	0.27762	0.13848	0.2291	0.23957	0.22037	0.2202	0.23904	0.18124	-1.7687	-2.6562	-2.4417	-2.4646	-2.7667	-2.35	-2.5312	-2.5708	-2.1833	-2.5687	-2.6979	-2.3	-2.7167	-2.3292	-2.3542	-2.5979	296.265	346.700	318.989	467.229	358.581	306.313	458.849	528.437	355.547	489.654	441.200	481.455	453.463	199.531	528.497	501.273	0.00059656	0.00023604	6.5446e-05	1028.1	3.0985e-06	3.4492e-06	1120.5	210.16	4.1094e-06	3.3656e-06	265.95	76.911	59.644	17.39	3.1364e-06	24.293	0.00018488	0.00016514	4.6422e-05	1013.3	1.8509e-06	1.7899e-06	1107.9	208.41	1.8159e-06	1.7944e-06	264.2	76.724	59.619	17.575	1.8176e-06	24.593	492.274	257.440	220.901	181.207	245.790	320.088	180.937	188.260	297.024	302.179	188.288	194.706	195.122	202.896	274.366	201.953	-8191	255	
14333.778	1	1	0	0	0.17808	0.15878	0.19331	0.20419	0.19689	0.25053	0.054652	0.34819	0.12854	0.1637	0.19256	0.25901	0.345	0.1734	0.061592	0.17007	-1.7979	-2.4042	-2.5187	-2.3187	-2.5646	-2.4979	-2.5167	-2.7167	-2.275	-2.5708	-2.5792	-2.2146	-2.5583	-2.6167	-2.3875	-2.8812	320.233	264.730	419.072	495.955	321.787	193.949	464.910	434.704	400.405	230.495	248.545	422.901	517.399	441.710	388.542	515.369	0.00052836	0.00032535	2.046e-05	1025.2	4.7995e-06	4.8748e-06	1117	210.07	2.0581e-06	2.2267e-06	265.09	76.733	60.066	17.418	4.2716e-06	24.228	0.00018962	0.00016536	4.4592e-05	1011.2	1.835e-06	1.8205e-06	1107.2	208.49	1.8107e-06	1.8064e-06	263.96	76.731	59.845	17.57	1.8433e-06	24.544	486.780	274.982	233.567	181.077	311.104	326.268	180.994	188.339	276.496	230.647	188.277	194.389	194.909	202.917	327.809	202.525	-8191	255	
14333.874	1	1	0	0	0.14429	0.21434	0.13728	0.30719	0.18723	0.23915	0.31356	0.11515	0.19665	0.15905	0.18092	0.05223	0.10273	0.17148	0.15694	0.060339	-1.8104	-2.2292	-2.6417	-2.3708	-2.5021	-2.3312	-2.4938	-2.5521	-2.2687	-2.4958	-2.4396	-2.3958	-2.7146	-2.4813	-2.2042	-2.6813	319.911	229.715	313.777	499.048	220.109	314.798	481.776	185.233	417.737	181.096	394.043	496.740	511.497	458.770	471.125	337.733	0.00069745	0.00016207	0.00012806	1027.1	4.293e-06	1.6328e-06	1120.5	211.51	4.6458e-06	2.6902e-06	265.45	77.61	60.329	17.341	4.5949e-06	24.307	0.00018791	0.0001626	4.5846e-05	1011.6	1.8887e-06	1.7741e-06	1106.7	209.14	1.7695e-06	1.7809e-06	264.07	76.904	60.006	17.578	1.8052e-06	24.63	485.573	370.294	241.440	181.150	247.150	343.092	181.022	188.480	286.183	288.829	188.510	194.642	195.109	202.738	276.935	202.219	-8191	255	
14333.970	1	1	0	0	0.34718	0.12321	0.22968	0.09188	0.0823	0.076791	0.065023	0.12933	0.20553	0.23404	0.072342	0.29354	0.052392	0.22383	0.16301	0.11566	-1.7188	-2.3625	-2.4938	-2.4688	-2.525	-2.4417	-2.2042	-2.6917	-2.2479	-2.3354	-2.5542	-2.0896	-2.5583	-2.6646	-2.2812	-2.8208	455.713	443.482	228.215	319.555	377.217	492.983	399.706	524.128	379.722	251.275	305.756	470.937	254.105	467.275	372.688	401.751	0.00059979	0.0002181	1.0077e-06	1028.6	2.9712e-06	1.5781e-06	1119.5	210.08	2.8736e-06	3.2603e-06	265.3	77.162	59.476	17.2	4.724e-06	24.301	0.00018107	0.00016171	4.5627e-05	1013.5	1.8694e-06	1.8089e-06	1106.8	208.44	1.7864e-06	1.7621e-06	263.99	76.886	59.633	17.494	1.8039e-06	24.639	482.643	221.252	452.308	181.353	303.620	338.651	180.979	188.568	288.494	326.755	188.317	194.516	195.612	202.870	323.445	202.466	-8191	255	
14334.067	1	1	0	0	0.16155	0.1917	0.25589	0.23196	0.15935	0.14469	0.052953	0.039708	0.15905	0.12274	0.1356	0.17227	0.1952	0.13563	0.13882	0.2326	-1.8563	-2.3187	-2.6333	-2.2792	-2.5604	-2.6167	-2.5333	-2.7	-2.4833	-2.2313	-2.4354	-2.2521	-2.3792	-2.6146	-2.1792	-2.6437	385.774	427.134	456.565	479.513	260.272	420.009	527.813	413.961	257.867	390.022	222.358	328.289	488.870	189.565	393.854	218.344	0.00060891	0.0002412	6.2142e-05	1021.3	3.0227e-06	4.8313e-06	1118.8	210.59	3.1596e-06	2.5324e-06	265.05	77.091	60.169	17.314	3.136e-06	24.193	0.00018773	0.00016358	4.5861e-05	1011.5	1.8721e-06	1.7638e-06	1105.4	208.72	1.8704e-06	1.7574e-06	264.02	76.738	59.787	17.563	1.8483e-06	24.536	488.518	321.234	290.832	181.022	255.055	304.993	181.233	188.718	274.438	407.391	188.059	194.694	195.134	202.794	284.545	202.115	-8191	255	
14334.187	1	1	0	0	0.1508	0.09127	0.069301	0.24514	0.17212	0.025369	0.13334	0.09881	0.08951	0.18053	0.15962	0.13726	0.25677	0.26397	0.081714	0.045795	-2.0104	-2.2896	-2.625	-2.4542	-2.4688	-2.6417	-2.3354	-2.7125	-2.5458	-2.3167	-2.9167	-2.3125	-2.5375	-2.6063	-2.3937	-2.525	230.014	468.796	441.237	422.657	241.880	504.157	501.852	310.740	260.341	177.269	424.644	176.060	425.322	198.486	483.572	340.884	0.00044313	0.00039002	5.8737e-05	1030	2.2608e-06	3.0034e-06	1116	211.3	4.971e-06	1.4824e-06	264.27	76.625	59.615	17.452	3.1108e-06	24.218	0.0001863	0.00016924	4.5903e-05	1014.6	1.8868e-06	1.7669e-06	1108	208.96	1.8547e-06	1.7792e-06	263.72	76.682	59.531	17.604	1.7774e-06	24.574	488.723	258.607	276.211	180.943	258.480	345.987	181.080	188.357	316.726	269.008	187.978	195.083	194.948	202.641	297.489	202.218	-8191	255	
14334.283	1	1	0	0	0.14891	0.12533	0.1897	0.13648	0.26243	0.10364	0.17282	0.048955	0.17705	0.17336	0.058702	0.11549	0.29993	0.17136	0.074973	0.032833	-2.3063	-2.2042	-2.6542	-2.4917	-2.35	-2.7646	-2.4437	-2.6396	-2.6167	-2.3208	-2.7583	-2.3833	-2.4625	-2.7542	-2.2687	-2.3479	308.095	279.157	407.237	485.850	454.901	210.996	430.736	319.539	265.169	502.988	218.927	431.643	468.296	528.909	375.124	465.250	0.00053025	0.00015993	6.9814e-05	1027.4	3.7439e-06	3.6609e-06	1120.3	210.8	2.773e-06	2.6038e-06	265.28	77.571	60.357	17.436	4.7449e-06	24.36	0.00018325	0.00015928	4.5608e-05	1012.3	1.8567e-06	1.7296e-06	1106	208.66	1.8255e-06	1.7947e-06	264.43	77.093	59.992	17.628	1.7424e-06	24.669	483.665	246.811	191.255	181.024	244.793	315.870	180.948	188.472	286.852	301.860	188.275	194.432	195.292	202.747	336.341	202.042	-8191	255	
14334.379	1	1	0	0	0.20366	0.306	0.080875	0.52973	0.23284	0.089665	0.15597	0.082287	0.17216	0.18953	0.065024	0.067152	0.062797	0.31527	0.2475	0.19332	-2.0438	-2.2146	-2.5271	-2.4875	-2.3063	-2.7396	-2.3021	-2.4208	-2.6792	-2.2229	-2.7146	-2.5667	-2.1333	-2.8521	-2.3021	-2.5542	383.780	444.850	418.327	490.465	426.800	304.997	458.961	410.807	263.345	461.325	429.682	460.398	183.267	177.071	220.949	399.543	0.00064089	0.00025048	8.4586e-05	1027.2	4.1395e-06	2.806e-06	1125.2	209.94	6.0228e-06	1.2694e-06	265.99	76.982	60.253	17.264	4.3107e-06	24.165	0.00018837	0.00016239	4.5575e-05	1012.1	1.8779e-06	1.7518e-06	1108.1	208.45	1.824e-06	1.7057e-06	264.34	76.87	59.843	17.54	1.7771e-06	24.578	485.547	291.340	301.796	181.316	331.508	341.737	180.949	188.606	284.570	396.897	188.106	194.640	195.132	203.020	323.113	201.693	-8191	255	
14334.476	1	1	0	0	0.11987	0.16734	0.10624	0.24316	0.094067	0.36534	0.23591	0.1389	0.097197	0.16711	0.11321	0.23632	0.020782	0.26109	0.13792	0.20006	-2.1646	-2.2	-2.5729	-2.5292	-2.2375	-2.675	-2.4458	-2.4667	-2.5833	-2.1271	-2.5687	-2.4688	-2.1458	-2.775	-2.3833	-2.4042	332.538	484.414	253.921	459.801	414.458	365.807	423.444	382.879	250.314	204.642	423.676	501.166	382.457	207.171	198.563	351.974	0.00062329	2.1013e-05	9.8292e-05	1027.2	2.3841e-06	4.274e-07	1117.4	211.29	5.3366e-06	3.4078e-06	266.81	76.611	59.485	17.302	2.8897e-06	24.15	0.00017797	0.00016083	4.387e-05	1015.1	1.835e-06	1.747e-06	1105.3	208.77	1.8249e-06	1.7512e-06	264.61	76.863	59.679	17.57	1.8424e-06	24.59	478.526	462.129	170.818	180.964	283.840	219.253	180.880	188.706	315.217	307.558	188.427	194.736	194.961	202.955	314.375	202.258	-8191	255	
14334.572	1	1	0	0	0.17668	0.10437	0.023123	0.40719	0.10823	0.10545	0.18443	0.089504	0.11394	0.047473	0.29654	0.38439	0.25996	0.16713	0.15696	0.34267	-2.2792	-2.4271	-2.6562	-2.5854	-2.2	-2.7313	-2.5854	-2.4667	-2.4667	-2.3979	-2.4854	-2.6458	-2.0458	-2.6625	-2.4437	-2.2729	291.084	391.639	267.535	525.003	272.103	490.103	441.022	397.745	278.065	218.479	398.241	512.616	227.247	488.586	487.483	470.925	0.00061942	0.00042821	8.3639e-05	1027.1	9.6724e-07	4.7764e-06	1122.7	211.87	3.5933e-06	2.8867e-06	266.2	77.513	60.265	17.341	2.5217e-06	24.318	0.00018431	0.00016743	4.6378e-05	1013.6	1.8406e-06	1.7765e-06	1108.9	209.15	1.8223e-06	1.7976e-06	264.38	77.079	59.911	17.62	1.8098e-06	24.612	484.182	292.948	246.618	181.094	312.817	302.416	180.968	188.670	308.844	268.739	188.055	194.630	195.113	203.198	325.634	202.160	-8191	255	
14334.668	1	1	0	0	0.20914	0.052653	0.2477	0.25008	0.13474	0.094204	0.22013	0.31601	0.10972	0.23022	0.23672	0.42374	0.076152	0.14655	0.34259	0.24596	-2	-2.2521	-2.4437	-2.7812	-2.2021	-2.9	-2.5583	-2.3146	-2.5563	-2.1208	-2.6063	-2.6167	-2.2146	-2.6604	-2.3375	-2.375	358.663	397.062	186.457	515.722	174.893	286.372	193.761	500.252	475.642	330.892	439.356	511.904	424.367	180.676	197.573	412.694	0.0005964	0.00025882	5.738e-05	1029.7	8.8633e-07	1.1159e-06	1122.9	210.88	3.7589e-06	3.2119e-06	266.61	77.49	60.07	17.414	3.4228e-06	24.144	0.00017715	0.00016577	4.4629e-05	1013.6	1.8802e-06	1.7656e-06	1108.1	208.68	1.8124e-06	1.7759e-06	264.68	77.157	59.956	17.619	1.8104e-06	24.563	488.292	262.614	280.144	181.103	208.315	269.541	180.853	188.349	333.279	331.844	188.297	194.485	195.713	203.058	317.385	201.779	-8191	255	
14334.787	1	1	0	0	0.057865	0.1448	0.16405	0.283	0.17406	0.011849	0.11531	0.13286	0.18276	0.36662	0.059931	0.048232	0.10614	0.15995	0.23178	0.058226	-2.0917	-2.2542	-2.4104	-2.7792	-2.225	-2.6604	-2.6542	-2.3167	-2.55	-2.3479	-2.6729	-2.6208	-2.1937	-2.5396	-2.5	-2.3708	224.490	251.006	172.097	226.523	330.454	380.032	444.987	466.038	346.977	463.683	520.889	418.474	198.194	187.114	214.682	374.602	0.00059731	0.00019349	0.00013781	1025.9	1.795e-06	3.3074e-06	1122.6	210.42	3.2855e-06	5.4889e-06	264.78	77.023	59.689	17.268	2.9334e-06	24.164	0.00018374	0.00016319	4.4874e-05	1013.3	1.8907e-06	1.766e-06	1108.4	208.73	1.7868e-06	1.7863e-06	263.84	77.033	59.837	17.581	1.8442e-06	24.532	487.347	246.663	269.281	180.997	275.166	306.480	180.791	188.326	306.952	343.833	188.189	194.687	194.956	203.080	316.660	202.556	-8191	255	
14334.883	1	1	0	0	0.1085	0.15422	0.063734	0.15396	0.089167	0.18188	0.23855	0.079399	0.2483	0.098987	0.18659	0.34132	0.24694	0.091805	0.18435	0.25229	-2.2708	-2.3125	-2.3521	-2.7375	-2.2146	-2.4958	-2.6188	-2.2417	-2.5708	-2.4708	-2.1937	-2.6312	-2.3	-2.8083	-2.6167	-2.4813	404.543	266.278	276.604	494.538	306.688	310.072	198.076	453.701	355.667	428.775	517.660	403.757	275.116	518.213	422.420	468.329	0.0006089	0.00036084	0.00013999	1031.2	2.2866e-06	2.1136e-06	1121.5	211.31	1.6588e-06	2.8244e-06	265.71	76.926	60.024	17.336	4.8004e-06	24.137	0.00018413	0.00016334	4.5489e-05	1013.7	1.8112e-06	1.842e-06	1106.4	208.51	1.8031e-06	1.7348e-06	264.3	76.882	59.677	17.565	1.7442e-06	24.585	489.374	279.456	272.662	181.012	275.479	256.982	181.157	188.274	276.652	274.342	188.370	194.895	195.451	203.536	301.802	202.057	-8191	255	
14334.979	1	1	0	0	0.094783	0.082305	0.17781	0.32599	0.22696	0.17835	0.326	0.16063	0.10769	0.21875	0.22006	0.2474	0.22317	0.19628	0.15391	0.17239	-2.2125	-2.3583	-2.25	-2.8708	-2.3375	-2.5854	-2.6729	-2.5417	-2.5104	-2.5042	-2.4354	-2.7979	-2.2271	-2.6312	-2.7271	-2.2896	276.543	257.669	456.064	192.386	408.586	266.597	382.625	427.248	317.695	218.395	523.651	467.824	433.249	185.959	272.327	447.858	0.00058002	0.00045785	0.00010387	1028.5	3.1659e-06	1.9561e-06	1123.8	210.71	3.3644e-06	2.8209e-06	264.95	77.263	60.032	17.343	2.6899e-06	24.126	0.00017953	0.00016219	4.4587e-05	1012.6	1.836e-06	1.7264e-06	1108.7	208.98	1.8187e-06	1.8265e-06	264.64	77.059	59.951	17.568	1.8089e-06	24.533	484.203	309.731	225.452	180.917	282.034	246.393	180.839	188.671	262.171	304.346	188.335	194.399	195.264	203.058	301.173	202.194	-8191	255	
14335.075	1	1	0	0	0.067025	0.17887	0.055817	0.25358	0.051025	0.043348	0.021569	0.2336	0.09036	0.027675	0.12746	0.063804	0.18345	0.24169	0.22378	0.2815	-2.1458	-2.3646	-2.2562	-2.8896	-2.2854	-2.4437	-2.7188	-2.4042	-2.525	-2.5667	-2.2125	-2.6979	-2.1917	-2.4021	-2.5729	-2.3542	287.156	388.390	220.260	437.183	292.082	526.171	292.341	487.895	263.409	230.689	424.513	326.348	507.216	313.095	425.640	172.791	0.00071945	0.00027678	7.6578e-05	1028	2.3328e-06	4.179e-06	1122.6	210.37	3.4829e-06	2.5514e-06	266.28	77.226	60.031	17.511	4.0471e-06	24.186	0.00018186	0.00016189	4.589e-05	1012.7	1.7809e-06	1.7455e-06	1106.7	208.67	1.7879e-06	1.717e-06	264.63	77.085	59.978	17.572	1.7938e-06	24.608	485.076	202.899	273.296	181.143	527.407	325.563	180.910	188.353	259.871	320.862	188.654	194.531	195.231	203.355	320.404	201.603	-8191	255	
#DATA ENDS
