BOXY.EXE: ISS Imagent and Oximeter Data Acquisition Program Version 0.80
Ascii Record File

#ACQ INFORMATION
2  Detector Channels 
16  External MUX Channels 
1  Auxiliary Channels 
5000  Waveform (CCF) Frequency (Hz)
1  Waveforms Skipped 
30  Waveforms Averaged 
1  Cycles Averaged 
16  Acquisitions per Waveform 
10.0806  Updata Rate (Hz) 

#FILE INFORMATION
TRUE -- External MUX Channel results are PARSED.
FALSE -- AC DC and Phase are NOT grouped.
TRUE -- Companion Program Settings File CREATED.
FALSE -- AC data not excluded
FALSE -- DC data not excluded
FALSE -- Phase data not excluded
FALSE -- Auxillary Chn. data not excluded
Tab delimiters

#CALIBRATION STATE
TRUE -- Waveform Calibration Values APPLIED.


#AUX CALIBRATION VALUES
Val Type	aux-1	

Term	1.0000e+00	
Factor	0.0000e+00	


#WF CALIBRATION VALUES
A = Detector Channel
Val Type	A-AC1	A-AC2	A-AC3	A-AC4	A-AC5	A-AC6	A-AC7	A-AC8	A-AC9	A-AC10	A-AC11	A-AC12	A-AC13	A-AC14	A-AC15	A-AC16	A-DC1	A-DC2	A-DC3	A-DC4	A-DC5	A-DC6	A-DC7	A-DC8	A-DC9	A-DC10	A-DC11	A-DC12	A-DC13	A-DC14	A-DC15	A-DC16	A-Ph1	A-Ph2	A-Ph3	A-Ph4	A-Ph5	A-Ph6	A-Ph7	A-Ph8	A-Ph9	A-Ph10	A-Ph11	A-Ph12	A-Ph13	A-Ph14	A-Ph15	A-Ph16	

Term	0.00000e+00	0.00000e+00	0.00000e+00	0.00000e+00	0.00000e+00	0.00000e+00	0.00000e+00	0.00000e+00	0.00000e+00	0.00000e+00	0.00000e+00	0.00000e+00	0.00000e+00	0.00000e+00	0.00000e+00	0.00000e+00	0.00000e+00	0.00000e+00	0.00000e+00	0.00000e+00	0.00000e+00	0.00000e+00	0.00000e+00	0.00000e+00	0.00000e+00	0.00000e+00	0.00000e+00	0.00000e+00	0.00000e+00	0.00000e+00	0.00000e+00	0.00000e+00	0.00000e+00	0.00000e+00	0.00000e+00	0.00000e+00	0.00000e+00	0.00000e+00	0.00000e+00	0.00000e+00	0.00000e+00	0.00000e+00	0.00000e+00	0.00000e+00	0.00000e+00	0.00000e+00	0.00000e+00	0.00000e+00	
Factor	1.00000e+00	1.00000e+00	1.00000e+00	1.00000e+00	1.00000e+00	1.00000e+00	1.00000e+00	1.00000e+00	1.00000e+00	1.00000e+00	1.00000e+00	1.00000e+00	1.00000e+00	1.00000e+00	1.00000e+00	1.00000e+00	1.00000e+00	1.00000e+00	1.00000e+00	1.00000e+00	1.00000e+00	1.00000e+00	1.00000e+00	1.00000e+00	1.00000e+00	1.00000e+00	1.00000e+00	1.00000e+00	1.00000e+00	1.00000e+00	1.00000e+00	1.00000e+00	X	X	X	X	X	X	X	X	X	X	X	X	X	X	X	X	

B = Detector Channel
Val Type	B-AC1	B-AC2	B-AC3	B-AC4	B-AC5	B-AC6	B-AC7	B-AC8	B-AC9	B-AC10	B-AC11	B-AC12	B-AC13	B-AC14	B-AC15	B-AC16	B-DC1	B-DC2	B-DC3	B-DC4	B-DC5	B-DC6	B-DC7	B-DC8	B-DC9	B-DC10	B-DC11	B-DC12	B-DC13	B-DC14	B-DC15	B-DC16	B-Ph1	B-Ph2	B-Ph3	B-Ph4	B-Ph5	B-Ph6	B-Ph7	B-Ph8	B-Ph9	B-Ph10	B-Ph11	B-Ph12	B-Ph13	B-Ph14	B-Ph15	B-Ph16	

Term	0.00000e+00	0.00000e+00	0.00000e+00	0.00000e+00	0.00000e+00	0.00000e+00	0.00000e+00	0.00000e+00	0.00000e+00	0.00000e+00	0.00000e+00	0.00000e+00	0.00000e+00	0.00000e+00	0.00000e+00	0.00000e+00	0.00000e+00	0.00000e+00	0.00000e+00	0.00000e+00	0.00000e+00	0.00000e+00	0.00000e+00	0.00000e+00	0.00000e+00	0.00000e+00	0.00000e+00	0.00000e+00	0.00000e+00	0.00000e+00	0.00000e+00	0.00000e+00	-9.73976e+01	-1.30849e+02	-1.20817e+02	-1.83215e+02	-5.41678e+01	-7.09084e+01	-1.60645e+02	-1.62015e+02	-5.77483e+01	-6.73109e+01	-1.72614e+02	-1.72392e+02	-1.82625e+02	-1.77464e+02	-6.51920e+01	-1.50396e+02	
Factor	1.53672e-05	1.55372e-04	4.49486e-05	1.55281e-01	1.27500e-06	1.63856e-06	1.77095e-01	5.59097e-02	1.17167e-06	1.81651e-06	8.77361e-02	2.76348e-02	2.61606e-02	8.30710e-03	1.34094e-06	1.23201e-02	5.68249e-06	7.41094e-06	2.07059e-06	7.96841e-02	7.84201e-08	8.14664e-08	8.56640e-02	2.88410e-02	7.84201e-08	8.17892e-08	4.38204e-02	1.39077e-02	1.36851e-02	4.31291e-03	8.00245e-08	6.19896e-03	X	X	X	X	X	X	X	X	X	X	X	X	X	X	X	X	



#DISTANCE SETTINGS
A = Detector Channel
A-1	A-2	A-3	A-4	A-5	A-6	A-7	A-8	A-9	A-10	A-11	A-12	A-13	A-14	A-15	A-16	

2.5000e+00	3.0000e+00	2.5000e+00	3.0000e+00	2.0000e+00	3.0000e+00	1.5000e+00	3.0000e+00	3.0000e+00	3.0000e+00	3.0000e+00	3.0000e+00	3.0000e+00	3.0000e+00	1.5000e+00	3.0000e+00	

B = Detector Channel
B-1	B-2	B-3	B-4	B-5	B-6	B-7	B-8	B-9	B-10	B-11	B-12	B-13	B-14	B-15	B-16	

1.0000e+01	1.0000e+01	1.0000e+01	1.4400e+00	1.0000e+01	1.0000e+01	1.5100e+00	1.9400e+00	1.0000e+01	1.0000e+01	1.9900e+00	2.4900e+00	2.4100e+00	2.9000e+00	1.0000e+01	2.9800e+00	




#DATA BEGINS
time	group	step	mark	flag	A-AC1	A-AC2	A-AC3	A-AC4	A-AC5	A-AC6	A-AC7	A-AC8	A-AC9	A-AC10	A-AC11	A-AC12	A-AC13	A-AC14	A-AC15	A-AC16	A-DC1	A-DC2	A-DC3	A-DC4	A-DC5	A-DC6	A-DC7	A-DC8	A-DC9	A-DC10	A-DC11	A-DC12	A-DC13	A-DC14	A-DC15	A-DC16	A-Ph1	A-Ph2	A-Ph3	A-Ph4	A-Ph5	A-Ph6	A-Ph7	A-Ph8	A-Ph9	A-Ph10	A-Ph11	A-Ph12	A-Ph13	A-Ph14	A-Ph15	A-Ph16	B-AC1	B-AC2	B-AC3	B-AC4	B-AC5	B-AC6	B-AC7	B-AC8	B-AC9	B-AC10	B-AC11	B-AC12	B-AC13	B-AC14	B-AC15	B-AC16	B-DC1	B-DC2	B-DC3	B-DC4	B-DC5	B-DC6	B-DC7	B-DC8	B-DC9	B-DC10	B-DC11	B-DC12	B-DC13	B-DC14	B-DC15	B-DC16	B-Ph1	B-Ph2	B-Ph3	B-Ph4	B-Ph5	B-Ph6	B-Ph7	B-Ph8	B-Ph9	B-Ph10	B-Ph11	B-Ph12	B-Ph13	B-Ph14	B-Ph15	B-Ph16	aux-1	digaux	

996.087	1	1	0	768	0.10995	0.035167	0.08081	0.054506	0.10716	0.084328	0.11842	0.14121	0.2372	0.08893	0.29659	0.088848	0.12992	0.23736	0.03788	0.23566	-2.0312	-2.9979	-2.8063	-2.6479	-3.1271	-2.7333	-2.7792	-3.1437	-2.7229	-2.8729	-2.8354	-2.5854	-3.1146	-2.8438	-2.6646	-3.2104	353.640	448.163	366.970	390.635	456.105	469.473	451.251	489.875	376.734	214.032	441.046	405.204	411.871	428.190	422.375	442.672	0.00031084	0.00030867	0.00026693	558.24	8.6947e-06	6.5451e-06	585.92	169.54	2.7614e-06	3.5553e-06	190.88	73.811	65.894	34.774	4.5712e-06	41.842	0.0047334	0.0060456	0.0016895	613.63	6.2768e-05	6.6682e-05	649.72	190.24	6.3468e-05	6.6931e-05	223.66	84.947	76.707	38.278	6.9549e-05	47.121	210.993	400.849	249.478	181.896	265.611	405.446	181.245	185.728	260.266	426.296	184.355	186.223	187.505	186.714	448.583	185.640	-8191	255	
996.183	1	1	0	0	0.24687	0.1403	0.038768	0.11688	0.074057	0.21688	0.24652	0.12508	0.1358	0.071277	0.025189	0.16375	0.19337	0.41001	0.15494	0.16549	-2.1167	-2.8104	-2.9625	-2.7687	-2.9875	-2.7167	-2.8875	-2.9688	-2.6	-2.8979	-3.0958	-2.6646	-2.9771	-2.9583	-2.5979	-3.2562	192.656	402.740	481.637	512.899	388.044	396.417	492.320	468.365	325.309	440.336	381.752	407.755	213.695	429.568	283.220	454.608	0.00030712	0.00095474	0.00040487	582.02	6.577e-06	3.9915e-06	609.92	179.06	7.0979e-07	5.5498e-06	196.47	77.886	68.728	36.551	5.9444e-06	42.999	0.0051346	0.0066765	0.0018731	642.9	7.154e-05	7.4397e-05	679.49	203.14	7.1999e-05	7.5065e-05	233.72	89.684	80.024	40.125	6.8143e-05	48.199	215.809	276.906	261.313	182.031	307.415	190.474	181.582	185.387	349.850	324.817	184.190	185.717	186.883	186.345	485.955	185.523	-8191	255	
996.279	1	1	0	0	0.15937	0.099244	0.084524	0.24936	0.27098	0.22495	0.16976	0.23988	0.2663	0.24191	0.14002	0.37099	0.15806	0.099396	0.17832	0.1308	-2.4083	-2.6917	-2.825	-2.6	-2.9604	-2.6896	-2.7188	-3.1729	-2.7125	-2.7396	-3.1229	-2.5625	-3.0646	-2.9875	-2.5292	-3.0917	287.426	472.680	460.683	435.280	402.839	212.701	399.589	477.282	388.015	175.842	463.178	175.436	448.618	419.966	324.578	176.700	0.00045931	0.00082007	0.00013157	572.7	4.7625e-06	3.2289e-06	599.14	175.18	8.0993e-06	9.951e-06	195.84	77.022	68.078	36.322	2.979e-06	43.584	0.0048873	0.0062488	0.0017125	630.36	6.5234e-05	6.7749e-05	663.06	197.64	6.5571e-05	6.8461e-05	228.57	87.955	79.323	39.916	6.8472e-05	48.645	224.648	215.912	407.862	182.000	344.583	345.271	181.075	185.261	352.708	384.132	183.792	185.595	187.296	186.298	373.506	185.594	-8191	255	
996.375	1	1	0	0	0.039821	0.077501	0.15209	0.50268	0.13716	0.23657	0.23601	0.15304	0.11744	0.20295	0.080666	0.32897	0.059161	0.24646	0.14035	0.30092	-2.4042	-2.6833	-3.05	-2.6271	-3.0104	-3.0021	-2.6333	-3.0396	-2.75	-2.6312	-2.9938	-2.7667	-2.9167	-2.9688	-2.6792	-2.9979	525.593	337.703	256.911	521.032	347.273	301.205	495.005	415.501	198.050	523.493	167.713	383.891	232.779	516.368	296.702	399.318	0.00040309	0.001266	0.00020168	574.74	6.5264e-06	7.9093e-06	603.47	176.88	4.6879e-06	8.2002e-06	196.89	77.557	68.814	36.826	2.9959e-06	44.102	0.0050084	0.0064629	0.0017919	637.28	6.8224e-05	7.1143e-05	671.64	200.18	6.7798e-05	7.0008e-05	230.65	88.58	79.4	40.075	6.5596e-05	48.735	222.483	256.882	199.399	181.755	200.161	414.234	181.242	185.403	223.264	372.598	184.181	186.120	186.867	186.713	467.502	185.816	-8191	255	
996.471	1	1	0	0	0.27683	0.23002	0.11997	0.19161	0.18523	0.22603	0.035352	0.070848	0.1594	0.049171	0.25196	0.36775	0.40827	0.094834	0.28357	0.082792	-2.2438	-2.5292	-2.8688	-2.5979	-2.775	-2.9396	-2.5083	-3.1417	-2.8729	-2.5458	-3.0208	-2.75	-2.725	-3.0854	-2.5229	-2.9562	453.648	240.815	254.130	469.963	309.813	228.158	428.771	418.461	431.990	357.511	194.163	474.399	183.713	365.276	287.968	417.236	0.00032823	0.00070874	0.00027993	571.73	3.7288e-06	1.0821e-05	596.34	175.67	7.0626e-07	5.7238e-06	193.61	76.904	67.696	37.067	6.6027e-06	44.549	0.0046663	0.0058727	0.001611	623.15	6.0995e-05	6.2419e-05	652.23	195.13	5.8963e-05	6.0767e-05	223.43	86.643	77.306	39.895	5.7867e-05	48.794	215.005	316.614	275.571	181.845	258.283	299.637	180.993	185.393	380.195	439.811	183.897	185.895	187.636	186.185	471.152	185.791	-8191	255	
996.567	1	1	0	0	0.10534	0.19532	0.14866	0.28389	0.092628	0.10739	0.2373	0.15554	0.24125	0.12576	0.16876	0.2368	0.029698	0.36875	0.31249	0.11487	-2.5417	-2.5125	-3.0271	-2.8417	-2.6937	-3.125	-2.8625	-2.9146	-3.0312	-2.5354	-3.0062	-2.975	-2.5458	-3.1437	-2.6208	-2.8333	323.109	371.048	245.525	413.299	343.071	197.652	452.458	478.600	438.538	348.217	189.969	514.187	404.654	174.551	447.081	436.244	0.00035038	0.001082	0.00035696	564.52	2.0183e-06	4.4079e-06	590.01	175.76	8.7275e-06	4.7352e-06	198.22	79.448	71.656	39.461	3.2777e-06	48.277	0.0042299	0.0053327	0.0014855	612.67	5.6626e-05	5.9231e-05	646.69	194.73	6.0072e-05	6.3919e-05	230.18	90.681	82.881	43.22	7.4938e-05	54.134	237.615	311.988	233.178	181.924	298.629	266.001	181.156	185.790	277.444	457.363	183.881	186.149	187.252	186.038	421.514	185.695	-8191	255	
996.686	1	1	0	0	0.13279	0.15881	0.32222	0.053394	0.15342	0.041576	0.071114	0.047281	0.068681	0.19153	0.17281	0.12825	0.22419	0.085638	0.1166	0.17449	-2.5771	-2.4167	-2.8854	-2.8229	-2.5229	-2.9729	-2.7604	-2.9021	-2.9146	-2.4625	-2.9979	-2.8375	-2.7167	-3.1437	-2.6833	-2.8688	411.834	269.510	417.003	511.673	227.592	469.220	447.143	362.694	242.856	443.822	459.659	232.546	513.994	483.468	318.130	483.736	0.00038683	0.0008704	0.00019962	622.6	6.8074e-06	1.5131e-05	668.14	209.34	5.0425e-06	5.2519e-06	237.14	104.01	98.475	56	1.4892e-05	66.245	0.0059692	0.0079355	0.002309	704.23	9.4807e-05	0.00010208	768.75	246.42	0.00011275	0.00012382	305.88	126.94	122.37	64.042	0.00015738	78.605	220.851	290.932	514.748	182.322	170.892	393.461	181.673	185.237	225.797	453.736	183.461	185.478	186.451	185.490	293.273	184.255	-8191	255	
996.782	1	1	0	0	0.041215	0.30989	0.052622	0.14623	0.11123	0.043821	0.11255	0.16877	0.19022	0.043719	0.098413	0.22408	0.3663	0.39146	0.075333	0.10333	-2.3792	-2.5604	-2.9271	-2.9292	-2.8146	-3.1896	-2.725	-2.6813	-3.0521	-2.5125	-3.0646	-2.8667	-2.4333	-3.0375	-2.6063	-2.9521	337.138	488.356	325.135	510.114	287.179	279.537	419.160	419.930	375.549	460.825	175.202	434.302	444.258	523.428	390.698	172.476	0.00064159	0.00085132	0.00010762	739.78	1.5919e-05	1.5268e-05	786.46	262.65	7.1627e-06	1.19e-05	271.14	119.66	108.75	60.827	8.8622e-06	66.927	0.01192	0.015588	0.0044515	904.78	0.0001736	0.00018305	974.29	327.85	0.0001798	0.00018688	367.53	149.2	136.64	69.1	0.0001494	77.482	217.977	270.435	382.151	182.715	336.330	184.551	181.664	185.044	387.463	286.963	183.556	184.607	185.632	184.770	168.061	183.782	-8191	255	
996.879	1	1	0	0	0.081665	0.19845	0.19057	0.25148	0.21264	0.072455	0.12473	0.067639	0.050249	0.125	0.089251	0.088683	0.060872	0.27381	0.12502	0.27461	-2.4458	-2.5312	-2.8271	-2.9646	-2.4771	-2.9729	-2.8917	-2.7	-2.9521	-2.6833	-2.8292	-3.0792	-2.2583	-3.0729	-2.7417	-2.8104	449.313	176.194	481.567	423.408	378.024	365.667	377.723	214.238	411.311	373.570	194.248	300.108	368.574	464.558	434.455	503.847	0.00062674	0.00053387	0.00023939	640.64	7.0178e-06	4.1295e-06	632.08	188.67	1.0209e-05	4.8417e-06	197.46	80.169	69.693	37.973	7.5737e-06	44.515	0.0092877	0.01097	0.00284	728.6	8.8344e-05	8.221e-05	703.39	211.44	6.1219e-05	5.949e-05	224.53	88.7	77.289	40.413	4.5134e-05	47.688	236.683	272.792	314.576	181.925	238.517	259.214	180.783	185.069	345.673	289.580	183.468	184.724	186.379	185.584	198.376	185.094	-8191	255	
996.975	1	1	0	0	0.012862	0.11659	0.11999	0.12962	0.071419	0.19485	0.16734	0.26534	0.1146	0.31699	0.097431	0.30391	0.16808	0.19867	0.12789	0.23749	-2.5917	-2.5146	-2.775	-3.0458	-2.4979	-2.9958	-3.0604	-2.6937	-3.0604	-2.7833	-2.5396	-2.9375	-2.5792	-2.8875	-2.8229	-2.4188	449.325	195.327	423.141	387.497	281.596	323.117	218.726	490.167	178.294	417.023	220.597	516.838	206.737	263.932	262.314	463.738	0.00040249	0.00047392	9.5958e-05	533.25	6.1798e-06	6.9269e-06	552.28	156.89	5.9637e-06	5.8107e-06	166.17	62.685	51.389	24.187	1.0555e-05	29.57	0.0032298	0.0040796	0.0011434	566.6	4.2285e-05	4.3023e-05	587.6	168.97	3.692e-05	3.6465e-05	182.8	67.758	56.743	25.804	3.0669e-05	31.881	220.330	277.132	317.633	181.262	474.594	302.740	180.502	185.184	296.955	485.068	183.672	185.778	186.983	187.187	266.601	186.980	-8191	255	
997.071	1	1	0	0	0.16777	0.21811	0.071858	0.22465	0.13907	0.11407	0.18128	0.13265	0.27369	0.15628	0.089156	0.19877	0.23868	0.035697	0.20511	0.13057	-2.6125	-2.7062	-2.5625	-3.2208	-2.4208	-2.9896	-2.9146	-2.4062	-2.9146	-2.7917	-2.6208	-3.2083	-2.45	-2.825	-2.875	-2.5042	355.043	199.500	385.458	486.472	311.334	356.675	520.476	339.499	269.735	355.529	390.704	177.236	275.994	317.656	520.967	460.954	0.00026253	0.00082966	0.00018716	465.19	5.6982e-06	9.6743e-06	502.57	135.56	1.2586e-06	1.1899e-05	154.83	56.184	47.295	21.464	4.0933e-06	27.464	0.0022709	0.0028862	0.00081564	489.77	3.155e-05	3.2647e-05	529.29	145.77	3.1624e-05	3.27e-05	170.09	61.356	52.081	23.01	3.0432e-05	29.73	235.577	271.853	255.311	181.294	361.861	359.927	180.595	185.858	206.318	320.407	183.924	186.832	187.391	188.549	373.244	187.508	-8191	255	
997.167	1	1	0	0	0.19465	0.087054	0.28556	0.16323	0.044644	0.12873	0.16367	0.28144	0.1741	0.078902	0.19781	0.27892	0.24918	0.1161	0.15341	0.15953	-2.4479	-2.7833	-2.6437	-3.0375	-2.6625	-2.9771	-2.9625	-2.4562	-2.7854	-2.7542	-2.675	-2.9271	-2.6375	-2.7271	-3.0208	-2.5208	421.946	267.879	234.327	239.419	399.479	346.882	508.124	507.067	338.969	291.455	485.770	502.415	363.674	408.793	297.927	484.065	0.00026937	0.0004226	0.00014466	454.71	7.1795e-07	6.1619e-06	498.11	134.5	4.9518e-06	7.3715e-06	160.52	60.788	51.999	26.024	7.638e-07	34.612	0.0022257	0.0028536	0.00080307	477.54	3.1089e-05	3.2541e-05	524.54	144.93	3.2944e-05	3.5594e-05	177.53	66.36	57.942	27.999	4.0722e-05	37.765	238.516	257.000	333.798	181.901	398.934	461.068	180.550	185.873	340.834	247.279	184.230	186.777	187.632	187.622	181.648	186.765	-8191	255	
997.288	1	1	0	0	0.15274	0.067245	0.26645	0.25509	0.20356	0.26637	0.23154	0.14687	0.11343	0.029437	0.07926	0.028336	0.119	0.17316	0.14245	0.19865	-2.4792	-2.7083	-2.5438	-2.9958	-2.6	-2.7083	-3.0854	-2.5583	-2.8208	-2.8563	-2.6208	-3.1854	-2.6937	-2.6208	-3.0208	-2.5375	437.079	201.602	513.471	184.366	246.412	478.238	495.296	392.666	167.781	189.243	331.938	201.501	245.979	441.164	443.275	489.400	0.00034179	0.00031489	0.00028902	528.59	7.1802e-06	8.6681e-06	582.43	174.89	8.6082e-06	1.4844e-05	205.07	84.996	76.895	43.724	1.7414e-05	61.755	0.0033058	0.0045586	0.0013708	575.33	6.2137e-05	7.0873e-05	655.96	203.92	9.1434e-05	0.00010401	263.03	105.39	99.456	51.593	0.00015583	73.713	232.866	270.516	319.824	181.906	406.670	425.571	181.304	185.200	327.650	384.860	183.949	186.023	187.093	186.373	291.978	183.445	-8191	255	
997.382	1	1	0	0	0.24269	0.054141	0.093192	0.041414	0.08759	0.21155	0.02938	0.17834	0.12399	0.14317	0.31627	0.15941	0.096003	0.15864	0.16473	0.12742	-2.5896	-2.6958	-2.4979	-3.2021	-2.7438	-2.6333	-3.2833	-2.5854	-2.8479	-3.1292	-2.5083	-2.9146	-2.9125	-2.5042	-3.0917	-2.7396	458.121	494.202	406.395	477.070	490.471	493.389	429.896	381.978	478.973	437.378	398.962	221.527	211.958	519.765	321.129	417.129	0.00053172	0.00060466	1.343e-05	610.49	1.4834e-07	3.6376e-06	627.04	189.88	1.879e-06	1.3398e-05	205.3	81.522	70.933	42.422	1.6246e-05	57.002	0.01183	0.015362	0.0042783	768.43	0.00016559	0.00017164	795.33	246.4	0.00016243	0.0001708	297.08	111.56	100.68	51.758	0.00017132	69.719	220.398	312.671	212.812	182.306	388.862	255.974	181.849	185.311	518.527	217.235	183.879	186.246	187.484	186.143	322.805	182.628	-8191	255	
997.480	1	1	0	0	0.060903	0.10238	0.27137	0.033327	0.037432	0.083421	0.066649	0.26219	0.090895	0.049124	0.18174	0.23458	0.18653	0.09884	0.13553	0.12417	-2.2583	-2.9146	-2.6646	-2.9896	-2.8312	-2.5458	-3.0167	-2.8125	-2.8063	-3.0125	-2.45	-2.9875	-3.0062	-2.6771	-2.8979	-2.6479	234.840	366.415	457.778	482.424	300.566	335.826	414.112	444.060	269.273	419.331	405.844	173.940	513.819	508.890	361.286	494.381	0.00046835	0.00011641	0.00045042	557.85	8.5963e-06	1.9273e-05	563.02	159.79	4.4736e-06	1.0381e-05	178.15	66.72	56.607	33.331	2.545e-06	44.456	0.011849	0.014853	0.0039841	701.54	0.00014577	0.00014831	709.48	208.68	0.00013699	0.00014045	251.67	90.748	80.142	40.578	0.00013683	54.897	186.172	474.817	188.118	182.350	496.723	353.180	181.771	185.687	345.734	436.960	184.794	186.690	188.156	186.862	395.856	183.864	-8191	255	
997.574	1	1	0	0	0.16581	0.27397	0.058364	0.049927	0.12831	0.081192	0.1459	0.19688	0.068297	0.046635	0.19158	0.20103	0.022972	0.10257	0.38168	0.085825	-2.3792	-3.0396	-2.55	-2.9875	-2.8896	-2.4792	-3.0125	-2.7354	-2.8125	-3.075	-2.5667	-2.9313	-3.0271	-2.7958	-2.9437	-2.7708	178.167	386.143	473.436	247.659	440.260	308.356	309.841	497.745	205.428	342.283	488.511	256.460	169.603	485.151	350.851	420.439	0.00048038	0.0014439	0.00037751	536.2	6.0926e-06	1.0636e-05	534.22	143.17	1.2073e-05	1.5582e-05	155.98	55.317	45.062	23.609	1.5081e-05	31.483	0.0099358	0.013027	0.0036555	670.62	0.0001395	0.00013931	661.67	185.33	0.00010944	0.00010652	209.49	71.539	60.98	28.697	9.2284e-05	38.345	233.931	489.015	517.517	182.607	248.856	351.242	181.690	186.150	260.331	412.942	184.775	187.960	188.508	188.390	195.434	185.474	-8191	255	
997.648	1	1	0	0	0.1106	0.080466	0.18759	0.19456	0.030421	0.17538	0.27728	0.12394	0.089188	0.20785	0.20773	0.17802	0.18775	0.17258	0.06087	0.22521	-2.3333	-3.0771	-2.4583	-2.9417	-2.9979	-2.4917	-2.8729	-2.725	-2.6	-3.0167	-2.6021	-2.8604	-3.0708	-2.3646	-2.8625	-2.9104	394.739	381.372	483.901	486.098	474.686	390.653	198.241	353.658	221.129	512.834	434.674	302.190	268.951	276.424	525.926	327.752	0.00039641	0.00022902	0.00020969	456.69	1.3979e-05	5.2089e-06	461.17	123.33	4.4716e-06	7.8523e-06	143.15	48.081	38.133	18.647	3.7103e-06	25.092	0.0062499	0.0077054	0.0020753	527.01	7.4321e-05	7.558e-05	532.63	147.71	7.067e-05	7.229e-05	179.96	60.294	49.894	22.366	6.9698e-05	30.248	232.508	407.368	337.978	182.580	199.383	279.738	181.774	187.016	203.625	200.679	185.693	189.091	190.128	189.938	274.924	188.158	-8191	255	
997.767	1	1	0	0	0.19157	0.11656	0.17711	0.14058	0.10773	0.10067	0.20174	0.19926	0.13649	0.098592	0.15586	0.15903	0.29544	0.19202	0.16103	0.16649	-2.0438	-2.9667	-2.6479	-2.8354	-2.9292	-2.6417	-2.8646	-3.0583	-2.5458	-3.2354	-2.8229	-2.5833	-2.9708	-2.6312	-2.8521	-2.7875	399.402	213.831	298.845	521.359	346.174	422.838	501.888	333.093	509.178	347.049	466.373	192.031	462.254	257.836	431.981	281.682	0.00026609	0.00035264	0.0001392	437.35	8.7894e-06	8.9682e-06	434.39	115.75	5.1144e-06	8.1305e-06	131.31	42.762	31.943	12.425	2.1044e-06	17.45	0.0048643	0.0061786	0.0017026	492.39	5.9888e-05	5.9648e-05	489.14	132.92	4.7596e-05	4.606e-05	153.35	49.062	38.044	14.316	3.4325e-05	19.9	196.410	422.857	368.129	182.356	482.560	260.694	182.183	187.781	390.524	175.182	186.019	189.554	191.105	194.404	218.601	193.171	-8191	255	
997.863	1	1	0	0	0.06002	0.072652	0.20635	0.11737	0.17203	0.12813	0.15178	0.04917	0.1245	0.14549	0.22442	0.10229	0.29816	0.31297	0.16835	0.12803	-1.8667	-2.8958	-2.7125	-2.7375	-3.0417	-2.6167	-2.8708	-2.9437	-2.4979	-3.0458	-2.8187	-2.8312	-3.0771	-2.4896	-2.7188	-3.1375	229.445	349.661	361.217	244.066	243.405	238.969	319.846	304.953	334.216	488.805	463.895	473.302	338.403	225.770	170.795	523.160	0.00013254	0.00074047	8.4284e-05	391.62	7.123e-08	6.6543e-06	397.08	101.99	3.8283e-06	6.5023e-06	122.55	38.499	28.987	10.929	4.5239e-06	15.899	0.0023651	0.002987	0.00082873	415.8	3.0461e-05	3.0967e-05	423.32	110.72	2.3574e-05	2.2566e-05	130.62	41.477	31.448	11.712	1.3587e-05	16.898	235.059	177.114	268.129	182.528	263.179	202.393	182.227	187.560	233.006	280.030	186.394	190.306	192.432	196.390	276.570	195.055	-8191	255	
997.959	1	1	0	0	0.064258	0.21946	0.17956	0.10989	0.025849	0.17709	0.028379	0.015884	0.10818	0.034272	0.13158	0.28094	0.11422	0.22001	0.24028	0.32556	-2.1042	-2.8354	-2.8688	-2.6312	-3.1542	-2.7042	-2.8021	-3.1688	-2.4229	-2.8479	-2.9583	-2.7167	-3.0833	-2.8917	-2.5542	-3.0396	396.940	527.271	313.913	379.484	417.692	401.024	208.017	192.837	176.182	240.546	244.484	427.393	483.336	183.058	292.492	282.761	0.00017985	0.0001317	9.836e-05	387.15	1.9548e-06	5.8042e-07	410.72	103.56	4.6813e-07	3.2257e-06	129.9	41.204	30.892	12.066	2.3935e-06	17.906	0.0008195	0.00095016	0.00024667	388.81	8.1722e-06	8.1522e-06	411.71	105.6	7.4337e-06	7.6851e-06	132.2	42.439	31.836	12.313	5.9118e-06	18.315	215.277	311.231	523.852	182.487	287.212	263.119	182.144	188.514	357.881	205.661	187.143	191.206	192.401	196.699	367.177	195.117	-8191	255	
998.055	1	1	0	0	0.11766	0.15244	0.065246	0.22402	0.12314	0.31034	0.21657	0.12601	0.053078	0.1389	0.20335	0.26529	0.13235	0.12482	0.13678	0.3162	-2.0438	-2.9021	-2.775	-2.5771	-3.0396	-2.8354	-2.6625	-3.2083	-2.5396	-2.8333	-2.9479	-2.5479	-3.1292	-2.7562	-2.65	-3.3167	409.252	411.946	271.993	424.568	454.149	429.904	176.329	411.962	284.258	352.388	436.926	369.148	298.652	448.454	279.532	448.183	0.00016715	0.00026267	6.9952e-05	415.82	1.6838e-06	2.9081e-06	440.06	110.06	5.5391e-07	4.9052e-06	138.71	43.738	32.566	13.105	2.1507e-06	19.701	0.00038861	0.00040779	0.00011741	413.88	4.7503e-06	5.1039e-06	438.34	110.73	5.3032e-06	5.2592e-06	138.67	44.394	33.033	13.198	3.9759e-06	19.807	232.175	248.602	246.847	182.605	249.892	248.534	182.204	188.560	416.941	301.405	186.340	191.076	192.017	196.845	267.459	194.947	-8191	255	
998.176	1	1	0	0	0.10901	0.099694	0.087512	0.10823	0.13176	0.16054	0.24463	0.18561	0.13732	0.097868	0.28703	0.24423	0.13564	0.10793	0.13805	0.086847	-2.125	-2.7083	-3.1604	-2.55	-2.9917	-2.8208	-2.6729	-3.1063	-2.5083	-3.0021	-2.9479	-2.5771	-3.1333	-3.0167	-2.6875	-3.2833	511.813	192.712	335.250	213.798	419.610	460.784	448.099	373.857	435.691	191.722	181.286	295.364	415.782	361.494	512.989	400.177	0.00019701	0.00026661	0.00010873	440.26	2.8235e-06	2.1181e-06	500.96	123.68	2.0429e-06	2.5705e-06	170.17	55.484	39.856	16.503	2.0443e-06	24.883	0.00029635	0.00030176	7.6974e-05	434.53	2.2467e-06	1.9294e-06	494.7	122.51	1.0487e-06	9.1825e-07	167.77	55.204	39.458	16.346	7.534e-07	24.811	228.118	228.710	222.903	182.637	322.389	343.605	181.695	188.025	324.510	317.111	186.680	190.713	192.398	196.159	314.582	194.448	-8191	255	
998.247	1	1	0	0	0.14049	0.14707	0.28998	0.093762	0.19889	0.31071	0.13768	0.22624	0.17441	0.066866	0.06939	0.010837	0.080318	0.12469	0.31663	0.10227	-2.3792	-2.7625	-3.0438	-2.6646	-2.8417	-2.7917	-2.5771	-2.9562	-2.5979	-2.7812	-3.0708	-2.4833	-2.9417	-3.0708	-2.675	-3.1146	434.218	252.606	391.367	488.940	408.253	467.692	326.802	517.416	525.541	181.615	464.406	472.076	216.866	401.229	417.590	423.776	0.00023199	0.0001769	7.8849e-05	497.12	2.0022e-06	2.8855e-06	564.29	136.86	2.151e-06	2.1951e-06	183.79	61.99	43.73	16.747	1.7626e-06	25.618	0.00011039	6.7532e-05	1.8579e-05	489.67	7.7734e-07	6.7923e-07	557.14	135.02	7.9351e-07	7.5314e-07	180.94	61.658	43.59	16.693	8.3709e-07	25.517	227.303	275.027	275.670	182.308	317.849	294.813	181.573	187.646	313.243	298.786	186.586	190.666	192.077	196.193	313.189	194.595	-8191	255	
998.368	1	1	0	0	0.19082	0.14383	0.30709	0.10922	0.11822	0.077673	0.19338	0.014871	0.083528	0.21634	0.21871	0.19604	0.14295	0.30902	0.31148	0.14722	-2.3729	-2.5375	-2.9437	-2.7479	-2.9188	-2.9479	-2.5229	-3.1562	-2.8292	-2.7396	-3.1167	-2.6875	-2.8042	-3.0542	-2.5563	-2.9708	418.871	434.942	510.220	401.227	434.488	492.723	426.089	394.114	435.504	432.236	463.804	351.931	221.696	384.923	260.767	422.532	0.0002416	0.00021578	5.5654e-05	510.23	2.8699e-06	2.9425e-06	575.57	138	1.6805e-06	2.8249e-06	183.16	60.414	42.64	16.057	1.4061e-06	24.062	0.00011644	6.9972e-05	1.908e-05	503.09	7.6574e-07	7.943e-07	568.83	136.66	8.4367e-07	8.2743e-07	179.46	60.137	42.402	15.988	9.873e-07	23.932	230.256	254.307	260.556	182.148	340.051	322.348	181.632	187.802	328.390	321.164	186.615	190.635	192.665	196.129	302.778	193.924	-8191	255	
998.464	1	1	0	0	0.080502	0.15535	0.027313	0.22656	0.1892	0.2413	0.14519	0.13124	0.06673	0.13479	0.096071	0.08561	0.044887	0.13294	0.035512	0.052492	-2.5333	-2.75	-3.0458	-2.7	-2.7854	-3.1521	-2.6042	-3.0667	-2.9479	-2.6437	-3.0875	-2.8771	-2.6354	-2.9271	-2.6729	-2.8208	379.777	381.109	427.946	476.974	280.332	442.791	173.132	187.612	235.282	261.893	498.812	422.914	266.813	350.394	271.067	277.757	0.00021111	0.00031746	4.6533e-05	490.19	3.3133e-06	1.6102e-06	545.27	126.84	1.8364e-06	3.892e-06	168.65	55.64	39.975	15.18	2.6993e-06	23.615	0.00013002	0.00010117	3.0157e-05	482.74	1.2696e-06	1.177e-06	536.65	125.13	1.1613e-06	1.1691e-06	165.59	55.457	39.827	15.209	1.0148e-06	23.372	227.866	290.491	280.614	181.918	356.293	250.443	181.691	188.119	340.864	316.249	186.128	190.564	192.585	196.307	319.556	194.523	-8191	255	
998.560	1	1	0	0	0.071538	0.22882	0.068421	0.031118	0.094214	0.22077	0.081813	0.23894	0.085838	0.27307	0.18284	0.08728	0.090528	0.17643	0.14244	0.23716	-2.4688	-2.5417	-2.8667	-2.8333	-2.6667	-2.8729	-2.4583	-2.8458	-2.9042	-2.6708	-2.9854	-2.7	-2.6354	-2.9896	-2.5646	-2.8729	447.045	429.236	391.436	270.267	353.334	406.890	240.465	484.494	225.989	394.079	514.801	498.444	495.124	427.424	502.140	203.096	0.00021142	0.00021237	4.8428e-05	488.4	2.1098e-06	3.027e-06	549.09	127.5	1.8502e-06	1.7226e-06	167.8	56.111	40.11	15.324	1.1599e-06	23.776	0.00011887	9.2065e-05	2.4235e-05	479.08	1.052e-06	9.9406e-07	539.89	126.04	1.0833e-06	1.0002e-06	166.31	55.628	39.674	15.283	9.0061e-07	23.685	228.143	246.004	300.066	182.211	292.934	301.031	181.921	187.941	308.941	346.924	186.408	190.902	192.212	196.316	325.462	194.197	-8191	255	
998.657	1	1	0	0	0.11301	0.088813	0.18142	0.19277	0.040474	0.15042	0.19503	0.092825	0.029096	0.11977	0.17173	0.056598	0.22574	0.18935	0.054048	0.15184	-2.4521	-2.6813	-2.8542	-2.8208	-2.5896	-3.0958	-2.7438	-2.8104	-3.0771	-2.5438	-3.0375	-2.8104	-2.5271	-2.9542	-2.5958	-2.7542	198.831	325.569	371.820	179.716	210.850	464.153	424.651	518.245	407.073	190.930	514.944	518.590	494.421	170.076	216.955	527.863	0.00021114	0.00039687	9.561e-05	493.63	1.8786e-06	1.9601e-06	562.42	128.51	1.2202e-06	1.045e-06	165.85	52.073	36.765	13.647	2.438e-06	21.076	0.00011457	7.4511e-05	1.9778e-05	487.51	8.8223e-07	7.8734e-07	553.66	126.91	9.002e-07	8.748e-07	163.81	52.14	36.538	13.632	1.2789e-06	21.055	227.267	261.322	262.717	182.075	321.098	272.308	181.844	187.577	326.688	380.089	186.349	190.771	192.342	196.667	315.646	194.361	-8191	255	
998.775	1	1	0	0	0.18786	0.40018	0.10564	0.3118	0.088574	0.19528	0.2099	0.053704	0.30313	0.07956	0.26655	0.25592	0.18189	0.049267	0.098024	0.24236	-2.575	-2.1937	-2.7979	-2.775	-2.4875	-3.0646	-2.7583	-2.5146	-3.1292	-2.5354	-2.9375	-2.9604	-2.6542	-2.9833	-2.7125	-2.7104	451.504	317.163	431.767	469.924	328.151	234.346	491.898	278.680	475.798	235.464	410.353	169.776	206.721	476.434	502.233	499.535	0.00017185	0.00038669	3.895e-05	466.85	4.2252e-07	2.3615e-06	528.3	116.82	1.4113e-06	2.6704e-06	153.28	47.374	33.153	12.536	2.2255e-06	19.852	0.00014025	0.00012078	3.0753e-05	458.26	1.1286e-06	1.0022e-06	521.71	115.18	9.8172e-07	9.5983e-07	151.83	47.253	33.082	12.554	1.1407e-06	19.927	228.778	264.777	350.540	181.904	192.999	293.111	181.852	187.509	308.885	310.848	185.930	190.926	192.147	196.650	291.802	195.152	-8191	255	
998.872	1	1	0	0	0.083781	0.15965	0.25252	0.18504	0.071609	0.15207	0.13002	0.13633	0.14463	0.056924	0.19015	0.049158	0.099818	0.10478	0.10928	0.18638	-2.5438	-2.5729	-2.7854	-2.9958	-2.5125	-3.1188	-2.8125	-2.5042	-3.0729	-2.6396	-2.6854	-3.0833	-2.5687	-3.0667	-2.8979	-2.5875	288.418	198.348	198.499	525.898	415.787	246.452	236.928	376.654	513.570	524.310	228.184	248.090	529.822	428.831	483.388	328.282	0.00018886	0.00019083	1.7602e-05	448.69	1.1805e-06	2.8974e-06	485.21	103.23	2.3656e-06	3.9304e-06	131.01	38.951	27.545	10.616	2.8776e-06	17.123	0.00013845	0.00013418	3.7102e-05	441.36	1.8154e-06	1.7193e-06	484.34	102.74	2.0972e-06	2.3443e-06	131.04	39.264	27.643	10.772	3.0278e-06	17.347	229.605	236.795	357.130	182.344	296.702	351.141	181.933	188.008	317.009	318.498	186.981	191.750	193.222	197.781	314.556	195.127	-8191	255	
998.943	1	1	0	0	0.25955	0.18222	0.2416	0.26879	0.13736	0.18018	0.23673	0.23762	0.092232	0.067801	0.14045	0.071583	0.15985	0.070084	0.31475	0.0080027	-2.5417	-2.7729	-2.7417	-3.1354	-2.6021	-2.9833	-2.7083	-2.575	-3.1729	-2.6271	-2.5646	-2.9854	-2.5625	-2.8563	-2.7208	-2.6354	443.533	283.751	255.411	469.286	342.604	280.058	411.501	219.511	426.301	194.981	283.074	511.557	521.469	428.799	361.900	414.398	0.00014416	0.00011081	9.6735e-05	414.76	1.4238e-06	1.3046e-06	458.4	95.486	6.0137e-07	3.0368e-06	121.06	35.652	24.417	9.6463	8.6888e-07	15.833	0.00025357	0.00028775	7.9713e-05	408.05	2.9318e-06	2.8344e-06	452.88	95.202	2.7352e-06	2.9628e-06	121.53	35.763	24.935	9.765	4.2131e-06	16.048	223.448	262.319	266.259	182.137	329.207	176.554	181.802	188.403	300.035	302.032	186.753	191.497	193.007	197.267	513.219	194.841	-8191	255	
999.064	1	1	0	0	0.074738	0.057721	0.25345	0.079167	0.15272	0.03167	0.15206	0.10562	0.25192	0.18631	0.27454	0.16221	0.203	0.068564	0.15769	0.15116	-2.4437	-2.6083	-2.5167	-3.025	-2.4875	-2.7708	-2.8958	-2.4313	-3.125	-2.9021	-2.7687	-3.1312	-2.3375	-2.8208	-2.9542	-2.4229	302.455	244.930	399.016	308.086	221.558	516.392	441.758	525.779	363.223	403.405	345.421	411.507	505.406	364.192	374.407	207.274	0.00012211	6.938e-05	2.7856e-05	383.28	8.9683e-07	3.0607e-06	419.86	84.014	1.6999e-06	4.8428e-06	109.3	30.195	20.4	8.1786	1.8481e-06	13.984	0.00037644	0.0004747	0.000137	382.15	5.3563e-06	5.5694e-06	420.59	84.747	5.6943e-06	6.0584e-06	109.99	30.955	21.273	8.4247	5.9442e-06	14.305	222.429	275.873	342.257	182.111	280.795	262.438	181.657	188.570	298.875	246.832	186.931	191.599	193.421	198.337	499.169	195.338	-8191	255	
999.160	1	1	0	0	0.038465	0.28986	0.069444	0.088789	0.13117	0.085042	0.209	0.29331	0.13169	0.16381	0.24742	0.18225	0.17904	0.22753	0.30376	0.29205	-2.5479	-2.875	-2.5083	-3.1979	-2.4167	-2.8479	-2.9021	-2.5812	-2.8667	-2.8542	-2.6125	-3.1333	-2.6042	-2.7542	-2.8438	-2.4437	327.866	481.929	204.419	179.754	238.872	432.199	391.715	407.580	275.793	251.401	218.797	455.920	237.692	330.788	293.899	255.263	9.7798e-05	0.00015359	9.094e-05	357.97	2.4511e-06	3.4576e-06	404.13	77.965	6.3014e-07	3.9658e-06	103.57	28.898	19.692	7.7455	4.392e-06	13.479	0.0004253	0.00049392	0.00013697	357.39	5.3845e-06	5.6397e-06	405.48	79.161	5.4607e-06	5.6869e-06	105.46	29.498	20.383	8.0055	5.2709e-06	13.823	227.332	227.470	190.538	181.887	285.969	266.644	181.493	188.705	246.381	379.955	187.357	192.444	193.366	199.242	287.209	195.680	-8191	255	
999.256	1	1	0	0	0.043176	0.2176	0.29615	0.23032	0.37783	0.045055	0.15205	0.016198	0.30221	0.3262	0.10144	0.1569	0.32403	0.25963	0.28155	0.16579	-2.5062	-2.9229	-2.5	-3.0146	-2.8979	-2.8021	-2.9021	-2.35	-2.9813	-2.8354	-2.6542	-3.0312	-2.7604	-2.7375	-2.9417	-2.6	248.909	381.852	416.794	416.214	374.571	520.261	522.710	446.025	481.804	513.970	470.043	250.390	312.311	519.139	212.895	467.824	0.00012624	0.00025493	2.9105e-05	354.41	1.5962e-06	6.2107e-07	405.13	77.453	1.942e-06	2.8699e-06	104.08	28.651	19.332	7.7215	3.5641e-06	13.482	0.00038692	0.00046167	0.00012688	353.27	4.8714e-06	4.9605e-06	404.01	77.713	4.8936e-06	5.014e-06	104.53	29.181	20.082	7.9067	4.6269e-06	13.639	225.553	268.931	493.880	182.019	327.945	439.821	181.602	188.567	192.904	267.147	186.728	192.350	193.197	198.033	260.727	195.435	-8191	255	
999.352	1	1	0	0	0.25667	0.1137	0.29854	0.22625	0.075114	0.070077	0.14352	0.22286	0.19728	0.17201	0.29327	0.069882	0.16225	0.10784	0.18124	0.17719	-2.4813	-2.8542	-2.6146	-3.0687	-2.8937	-2.5604	-3.0542	-2.5667	-2.7604	-2.925	-2.5604	-2.6937	-2.7583	-2.2979	-2.8917	-2.6292	352.438	274.246	205.822	227.668	409.441	318.139	460.546	513.227	339.242	340.574	393.463	313.414	306.665	477.499	453.775	263.739	0.00013259	2.4458e-05	3.5795e-05	353.9	9.9338e-07	1.5311e-06	404.61	76.579	1.7171e-06	4.1293e-07	102.92	28.259	19.161	7.7807	2.7982e-06	13.535	0.0003493	0.00042551	0.00011276	351.26	4.3499e-06	4.3537e-06	402.04	77.04	4.011e-06	4.0711e-06	103.46	28.718	19.739	7.8665	3.6916e-06	13.659	218.604	295.785	342.254	182.069	243.058	440.307	182.025	187.827	290.517	512.515	186.752	192.255	194.322	198.119	295.054	195.769	-8191	255	
999.471	1	1	0	0	0.13577	0.14395	0.083825	0.10484	0.10085	0.052741	0.061551	0.253	0.15156	0.34237	0.072161	0.026762	0.14758	0.21892	0.052856	0.45275	-2.2875	-2.8771	-2.4396	-3.0833	-2.8187	-2.5417	-3.1937	-2.7104	-2.7229	-2.9104	-2.5062	-2.8688	-2.9062	-2.3125	-2.8479	-2.8771	421.789	333.994	323.724	418.905	180.354	175.425	259.449	497.707	443.935	524.163	291.278	365.226	446.715	459.510	226.573	408.169	0.00014911	0.0002	1.3262e-05	355.05	3.3283e-06	6.8586e-07	409.34	76.748	8.852e-07	2.9945e-06	103.62	28.505	19.371	7.6898	7.6683e-07	13.717	0.00028559	0.00031066	8.8017e-05	352.14	3.1896e-06	3.2123e-06	404.93	77.023	3.1232e-06	3.1151e-06	103.6	28.723	19.721	7.8036	2.9347e-06	13.811	228.779	262.907	171.956	182.286	309.799	230.411	181.564	188.474	512.361	336.610	186.756	191.757	193.649	197.640	380.811	195.200	-8191	255	
999.545	1	1	0	0	0.22866	0.23562	0.25811	0.24768	0.16908	0.092091	0.23138	0.097162	0.44916	0.35108	0.092883	0.12924	0.27941	0.29041	0.22308	0.086753	-2.3	-3.0417	-2.6958	-2.8625	-3.0167	-2.6208	-3.0229	-2.7375	-2.5896	-2.9104	-2.5708	-2.7396	-2.8417	-2.5229	-2.9833	-2.7208	361.669	465.830	256.446	237.116	195.737	297.448	249.370	343.414	468.510	310.622	462.012	398.115	227.589	407.887	299.067	503.004	0.0001083	0.00010645	3.5306e-05	359.81	3.2832e-06	1.7728e-06	415.7	78.57	2.5929e-06	2.654e-07	108.21	29.72	20.166	8.0922	1.9868e-06	14.261	0.00022911	0.00023786	6.8981e-05	354.17	2.4822e-06	2.4233e-06	412.53	78.274	2.1724e-06	2.1255e-06	107.37	29.698	20.333	8.1257	1.9093e-06	14.281	220.617	177.635	404.646	182.020	335.102	285.128	182.080	188.289	291.795	466.492	186.798	192.387	193.331	197.786	287.417	195.611	-8191	255	
999.641	1	1	0	0	0.14447	0.15943	0.052571	0.13022	0.14899	0.081474	0.18602	0.23571	0.059535	0.14785	0.20233	0.086785	0.28211	0.067366	0.020508	0.010891	-2.1646	-3.1354	-2.4875	-2.75	-3.0875	-2.6042	-2.7854	-2.6375	-2.6604	-3.0583	-2.6937	-2.5979	-2.9313	-2.6146	-2.625	-2.8937	391.964	227.657	216.107	173.343	387.985	449.918	520.572	530.055	478.894	468.503	447.256	436.036	491.089	447.263	509.926	369.560	0.00013342	0.00023821	6.4758e-05	363.58	7.9387e-07	2.28e-06	423.9	80.065	9.1143e-07	7.24e-07	109.61	30.143	20.694	8.4833	1.0374e-06	15.128	0.00016714	0.0001713	5.0078e-05	360.91	1.9053e-06	1.8552e-06	419.57	79.992	1.909e-06	1.7361e-06	109.2	30.158	20.813	8.4892	1.3337e-06	15.062	225.573	238.835	214.375	181.895	307.420	262.034	181.405	188.556	236.610	178.769	187.353	192.245	194.056	198.128	322.466	194.839	-8191	255	
999.737	1	1	0	0	0.27739	0.068547	0.12535	0.24121	0.12442	0.065389	0.20077	0.2285	0.076372	0.28383	0.14081	0.32261	0.14777	0.088005	0.45869	0.27764	-2.0979	-2.8292	-2.6479	-2.6125	-3.0229	-2.4437	-2.7708	-2.9396	-2.4104	-2.9188	-2.8271	-2.5458	-2.9521	-2.5563	-2.8042	-2.8479	402.858	366.860	309.923	206.528	381.839	344.400	466.834	503.400	244.135	237.951	481.215	460.744	468.322	395.727	387.037	484.200	0.00013579	0.000208	3.8888e-05	388.89	1.8234e-06	1.2101e-06	451.05	87.235	4.5761e-07	2.7446e-06	119.25	33.422	22.96	9.2268	1.1238e-06	16.121	0.00012886	0.00010585	2.9584e-05	382.94	1.1188e-06	1.0956e-06	446.3	85.893	1.124e-06	1.0202e-06	117.38	33.155	22.785	9.1947	1.0001e-06	16.002	217.302	282.539	244.499	181.733	361.532	388.166	181.523	188.046	263.353	320.014	186.729	191.149	193.180	197.485	319.866	195.153	-8191	255	
999.856	1	1	0	0	0.13491	0.27551	0.10218	0.2065	0.073102	0.23411	0.15118	0.29725	0.30886	0.14193	0.1387	0.19683	0.064384	0.23148	0.11035	0.15382	-2.1	-2.9417	-2.6146	-2.7396	-3.0563	-2.6646	-2.7313	-2.975	-2.4646	-3.0563	-2.7083	-2.5542	-3.0333	-2.4771	-2.7229	-3.0479	391.454	250.660	381.279	218.735	216.000	425.788	421.145	463.115	468.099	361.066	327.496	503.975	271.734	467.575	397.579	483.956	0.00015243	0.00018809	6.2222e-05	399.62	2.2449e-06	7.968e-07	458.67	89.304	7.9471e-07	1.1826e-06	119.32	33.824	23.192	9.3291	1.5505e-06	16.225	0.00011102	8.6677e-05	2.4826e-05	393.22	9.8581e-07	9.165e-07	453.7	88.336	9.9087e-07	9.3921e-07	118.58	33.691	23.171	9.312	1.0722e-06	16.167	232.640	246.673	258.822	182.068	308.741	269.177	181.587	188.077	293.620	303.880	186.573	192.069	192.462	197.349	312.446	195.383	-8191	255	
999.952	1	1	0	0	0.13251	0.29165	0.15925	0.085154	0.31436	0.26125	0.17949	0.17277	0.14047	0.23514	0.1763	0.11112	0.1178	0.2889	0.088266	0.19174	-2.0021	-2.6896	-2.9167	-2.6833	-2.9875	-2.6312	-3.0875	-2.8063	-2.4521	-2.8958	-2.7604	-2.5563	-2.9646	-2.7313	-2.4958	-3.075	186.800	340.566	203.655	229.365	254.315	272.118	385.001	516.857	277.638	183.622	235.786	395.515	398.614	458.467	420.645	448.730	0.00015485	0.00013914	5.9397e-05	392.15	1.5863e-06	2.1074e-06	451.61	87.393	1.3101e-06	2.5739e-06	117.27	32.326	22.382	8.9823	9.8269e-07	15.939	0.00011468	9.4829e-05	2.7612e-05	386	1.131e-06	1.0979e-06	444.76	86.335	1.1905e-06	1.1261e-06	115.97	32.26	22.137	9.0458	1.2609e-06	15.816	231.291	267.544	305.855	181.583	329.213	333.103	181.299	188.462	278.116	334.995	186.667	191.573	193.325	197.997	350.698	195.027	-8191	255	
1000.048	1	1	0	0	0.19188	0.084331	0.063599	0.16039	0.20024	0.35116	0.12274	0.087019	0.21922	0.16626	0.12304	0.41787	0.21313	0.067331	0.15192	0.13772	-2	-2.8312	-2.9292	-2.6208	-2.9417	-2.7146	-2.6229	-3.0021	-2.6792	-2.8167	-3.0958	-2.4479	-3.2521	-2.7917	-2.5021	-3.15	345.610	174.585	191.349	376.677	366.073	340.011	516.567	368.731	388.421	393.144	393.493	345.434	525.682	338.282	485.002	438.117	0.0001387	0.00024606	4.0817e-05	384.86	8.7386e-07	1.1992e-06	441.35	84.669	1.2779e-06	2.8427e-06	115.6	31.481	21.569	8.8257	2.1924e-06	15.493	0.00012655	0.0001153	3.2452e-05	379.19	1.2265e-06	1.2668e-06	436.65	84.157	1.3599e-06	1.3013e-06	113.75	31.523	21.64	8.8287	1.3604e-06	15.399	230.046	246.377	289.989	182.126	311.974	270.952	181.752	188.057	348.410	344.168	186.702	192.228	193.597	197.600	296.542	195.672	-8191	255	
1000.144	1	1	0	0	0.055656	0.031333	0.1073	0.30027	0.15705	0.019331	0.1909	0.14749	0.19837	0.28213	0.28702	0.24558	0.049765	0.072905	0.086588	0.21772	-2.1188	-2.7417	-2.7771	-2.45	-2.7854	-2.7687	-2.4562	-3.0458	-2.6146	-2.775	-3.0396	-2.5438	-2.8125	-2.85	-2.3167	-2.9146	291.830	204.062	290.179	433.552	210.612	462.289	444.654	438.867	239.569	319.963	484.070	467.660	192.937	213.946	332.423	207.719	0.00013513	0.00021381	5.3027e-05	382.54	7.6588e-07	3.5461e-07	439.06	83.309	1.7653e-06	1.5807e-06	115.97	31.884	21.977	8.8708	1.6418e-06	15.391	0.0001277	0.0001199	3.2746e-05	376.28	1.3041e-06	1.2928e-06	435.26	83.343	1.2771e-06	1.1721e-06	114.42	31.94	21.944	8.8028	1.2679e-06	15.337	231.295	219.878	329.664	181.883	354.332	247.127	181.860	187.960	316.074	274.751	186.858	191.592	193.070	198.037	319.698	195.369	-8191	255	
1000.240	1	1	0	0	0.11936	0.029843	0.19595	0.037725	0.14961	0.22141	0.073053	0.25757	0.18353	0.1067	0.20662	0.030178	0.21917	0.30746	0.066579	0.23422	-2.2062	-2.5354	-2.9583	-2.4437	-2.8479	-2.8187	-2.5979	-2.875	-2.5958	-2.6292	-3.1188	-2.6604	-2.7729	-3.0208	-2.5979	-3.0333	466.537	188.153	337.328	334.802	188.970	490.392	421.082	468.313	489.523	210.007	489.180	308.397	466.077	477.630	470.329	300.976	0.00014555	0.00010174	7.9658e-05	378.26	7.1646e-07	1.3468e-06	433.22	81.785	6.803e-07	7.9921e-07	110.99	30.612	20.835	8.3436	4.1845e-07	14.265	0.000131	0.00012778	3.3349e-05	372.35	1.6354e-06	1.6667e-06	428.52	81.67	1.969e-06	1.9803e-06	110.34	30.578	20.972	8.3748	2.3312e-06	14.502	224.870	273.828	300.732	181.936	282.466	496.650	181.730	188.064	313.901	315.578	186.823	192.522	193.458	198.251	358.664	195.694	-8191	255	
1000.337	1	1	0	0	0.21546	0.12613	0.21822	0.35765	0.25728	0.23302	0.14033	0.058896	0.17591	0.099897	0.12034	0.12745	0.33629	0.19636	0.037598	0.23848	-2.2521	-2.5417	-3.0333	-2.7583	-2.7521	-3.1688	-2.5438	-2.8896	-2.7583	-2.7208	-2.9458	-2.7979	-2.7938	-2.9708	-2.4625	-3.0104	510.587	321.638	499.253	458.285	321.904	354.776	456.687	407.828	350.120	335.898	488.922	465.186	486.124	235.384	292.120	405.071	0.0001221	0.00028634	8.6138e-05	364.52	1.4983e-06	2.3468e-06	420.12	79.763	2.3736e-06	2.2503e-06	108.9	30.145	20.486	8.1242	3.7116e-06	14.198	0.00021455	0.00022477	6.7946e-05	361.75	2.7106e-06	2.8971e-06	416.42	79.985	2.9595e-06	2.962e-06	108.58	30.171	20.737	8.2875	3.0779e-06	14.339	230.250	282.908	264.217	182.237	333.420	233.180	181.476	187.813	356.250	298.748	187.063	191.949	193.504	198.044	338.915	195.621	-8191	255	
1000.457	1	1	0	0	0.15334	0.19028	0.14449	0.31642	0.066151	0.26434	0.22239	0.12937	0.23437	0.19673	0.17761	0.13102	0.11192	0.19201	0.10367	0.22141	-2.5854	-2.4	-2.7812	-2.5771	-2.6562	-3.1604	-2.4667	-2.8479	-2.8417	-2.4062	-2.8396	-2.6917	-2.5625	-3.0312	-2.3563	-2.8688	263.716	318.643	497.308	413.005	335.759	420.850	434.529	522.978	509.896	193.853	503.970	494.383	416.504	429.752	278.760	225.773	0.00012621	0.00030363	6.0461e-05	361.27	2.389e-06	3.3041e-06	411.93	79.368	1.0161e-06	6.7029e-07	106.15	29.201	20.057	8.0815	2.9937e-07	13.852	0.00026408	0.00029857	8.2267e-05	356.75	3.3188e-06	3.3771e-06	409.5	79.132	3.5356e-06	3.7608e-06	106.63	29.636	20.616	8.2113	3.5723e-06	14.074	225.988	241.510	240.589	181.794	310.855	310.953	181.706	188.378	354.781	243.655	187.280	192.699	193.419	198.432	226.859	195.316	-8191	255	
1000.552	1	1	0	0	0.088332	0.089488	0.18858	0.14091	0.036538	0.13396	0.29496	0.15797	0.12454	0.064277	0.3157	0.26509	0.20312	0.12707	0.15137	0.072082	-2.3937	-2.5833	-2.9542	-2.7979	-2.7083	-3.1667	-2.6792	-2.8063	-2.9604	-2.7021	-3.0146	-2.8563	-2.4854	-3.1104	-2.6167	-2.8354	202.570	409.953	432.526	478.288	310.582	411.608	477.465	485.739	390.807	475.032	213.929	334.113	320.324	447.141	199.814	325.288	0.00014826	0.00014687	5.5272e-05	359.39	1.4764e-06	1.9001e-06	417.62	80.414	2.5112e-06	5.2643e-07	110.92	31.277	21.591	8.5639	9.8213e-07	14.979	0.00028223	0.00031296	8.1327e-05	356.75	2.9728e-06	2.9099e-06	414.8	80.162	2.4166e-06	2.3104e-06	110.45	31.322	21.749	8.6016	1.7174e-06	14.973	218.833	298.510	205.086	182.057	509.789	238.445	181.602	188.168	294.176	352.335	187.302	191.686	193.615	197.816	310.345	195.525	-8191	255	
1000.648	1	1	0	0	0.12288	0.28493	0.10247	0.083084	0.1048	0.061018	0.16078	0.18843	0.27946	0.29062	0.12635	0.049759	0.078592	0.030508	0.21071	0.22471	-2.6104	-2.4896	-3.0208	-2.7229	-2.5167	-3.1646	-2.8417	-2.6417	-2.8729	-2.55	-2.9875	-2.8521	-2.5292	-2.9938	-2.7354	-2.6896	362.358	180.917	432.784	482.161	335.251	366.173	361.824	285.734	500.031	283.919	278.379	207.307	487.281	201.923	405.143	491.344	0.00013111	0.00016805	1.9985e-05	383.32	1.3429e-06	6.8613e-07	451.38	86.156	1.3617e-06	4.8843e-07	119.89	34.49	23.633	9.2034	1.8053e-06	16.031	0.00014367	0.0001382	3.6589e-05	376.89	1.3541e-06	1.2505e-06	443.73	85.639	1.1389e-06	1.1677e-06	118.38	34.204	23.448	9.2279	1.1497e-06	15.989	230.985	249.055	502.745	182.152	271.490	300.704	181.875	187.994	313.075	292.741	187.047	191.503	193.688	197.830	313.671	195.317	-8191	255	
1000.768	1	1	0	0	0.43388	0.16416	0.15609	0.13896	0.15957	0.29711	0.13536	0.11213	0.12936	0.36631	0.045406	0.14305	0.18536	0.17486	0.17003	0.28029	-2.4208	-2.5021	-2.7438	-2.7708	-2.3792	-3.0521	-2.6167	-2.6583	-2.9542	-2.5208	-2.7875	-2.7583	-2.5187	-2.925	-2.6688	-2.625	393.705	447.219	415.756	219.092	523.236	309.996	516.010	205.039	486.649	482.850	364.381	364.090	500.899	366.010	248.128	407.096	0.00013809	0.00019968	7.0554e-05	395.76	5.7036e-07	2.0618e-06	462.84	89.073	5.2617e-07	1.7816e-06	124.39	35.17	24.302	9.6245	2.4151e-06	16.902	0.00011274	0.00010414	2.7854e-05	389.29	1.0791e-06	9.9966e-07	456.08	88.586	1.041e-06	1.0145e-06	122.59	35.316	24.224	9.5749	1.0078e-06	16.779	227.586	253.961	270.326	181.554	212.314	282.236	181.796	187.979	364.240	339.675	187.024	191.443	193.016	198.097	321.239	195.386	-8191	255	
1000.840	1	1	0	0	0.11148	0.24324	0.13883	0.23061	0.10501	0.18969	0.15206	0.13011	0.2022	0.22568	0.065528	0.28373	0.18724	0.18439	0.16987	0.13324	-2.4146	-2.6208	-2.8417	-2.8854	-2.3812	-2.7562	-2.7375	-2.6125	-2.9813	-2.6146	-2.7854	-3.1	-2.4562	-2.7875	-2.8792	-2.7271	316.369	370.375	195.712	230.571	428.899	353.097	233.815	392.375	453.132	195.195	479.996	448.424	387.508	349.007	394.499	514.036	0.00015036	0.00013916	8.0056e-05	401.88	1.5304e-06	1.0135e-06	468.24	90.907	1.7933e-06	2.2451e-06	124.39	35.501	24.238	9.6719	1.8326e-06	16.8	0.00011035	9.3378e-05	2.5684e-05	394.73	1.0472e-06	9.9525e-07	460.19	89.612	1.0451e-06	1.0145e-06	122.81	35.147	24.217	9.6669	1.1113e-06	16.753	230.790	184.699	250.329	181.719	279.980	314.874	181.660	188.419	299.179	330.730	186.801	191.340	193.341	197.892	312.951	195.039	-8191	255	
1000.936	1	1	0	0	0.16121	0.17621	0.12765	0.12114	0.060246	0.14206	0.073455	0.12447	0.038842	0.047317	0.1143	0.15602	0.27176	0.19927	0.11783	0.24211	-2.5979	-2.4979	-2.7125	-2.9313	-2.4813	-2.7958	-2.9188	-2.3458	-2.9625	-2.7062	-2.4021	-3.0292	-2.5896	-2.9042	-2.8292	-2.4771	523.765	463.607	458.841	187.984	366.757	227.958	461.478	411.934	265.096	338.427	205.771	227.093	300.820	464.500	363.619	337.428	0.00014997	0.00015034	8.8026e-05	402.01	2.0536e-06	1.4622e-06	464.73	91.063	1.3937e-06	1.1802e-06	123.91	35.534	24.548	9.8825	1.0354e-06	17.336	0.00011527	9.4922e-05	2.8259e-05	395.86	1.0894e-06	1.0436e-06	458.88	89.717	1.0387e-06	1.0692e-06	122.59	35.52	24.538	9.8288	1.0111e-06	17.204	224.666	234.066	256.015	181.853	359.356	275.916	181.488	187.594	341.761	322.670	186.634	191.786	193.733	197.796	328.012	195.073	-8191	255	
1001.032	1	1	0	0	0.14906	0.18529	0.16533	0.062121	0.080393	0.16739	0.16196	0.13928	0.0078127	0.29276	0.080292	0.089614	0.20954	0.35022	0.19968	0.25021	-2.5771	-2.7	-2.4833	-3.0458	-2.4875	-2.8146	-2.8	-2.4667	-2.9646	-2.6	-2.7521	-3.1417	-2.5604	-2.8063	-3.0229	-2.6604	338.572	438.850	453.671	487.263	462.620	262.449	442.163	441.250	277.227	318.192	285.062	353.542	275.527	262.332	235.277	346.677	0.00016604	5.407e-05	6.7332e-05	409.33	8.0369e-07	4.6827e-07	473.51	93.157	1.3035e-06	6.0424e-07	128.94	37.354	25.995	10.299	1.7768e-06	17.842	0.00010449	8.5427e-05	2.3014e-05	402.17	9.5068e-07	9.075e-07	467.8	92.613	9.0183e-07	8.5129e-07	126.88	37.174	25.724	10.269	8.9077e-07	17.892	227.613	221.190	256.666	181.771	367.153	246.518	181.623	188.305	285.322	232.275	186.714	191.409	192.498	197.704	326.621	194.897	-8191	255	
1001.153	1	1	0	0	0.09383	0.2161	0.29015	0.1934	0.30596	0.13128	0.13088	0.086239	0.077657	0.12009	0.16214	0.15402	0.32806	0.36314	0.3326	0.27748	-2.5312	-2.7854	-2.4062	-3.0708	-2.5646	-2.825	-2.8292	-2.4938	-2.8583	-2.8063	-2.6146	-3.0833	-2.7708	-2.6604	-2.9292	-2.5042	202.681	368.684	260.985	525.886	305.576	382.590	474.253	313.538	521.596	309.323	419.893	522.325	249.163	501.349	527.489	403.307	0.00017004	0.000151	6.3213e-05	414.24	1.8249e-06	5.1677e-07	478.65	94.801	8.6376e-07	5.1642e-07	130.89	37.748	26.297	10.584	1.4141e-06	18.74	0.00010553	8.0084e-05	2.398e-05	408.74	9.8009e-07	9.0445e-07	472.9	94.379	9.4153e-07	9.3546e-07	128.79	37.486	26.146	10.592	8.796e-07	18.522	226.458	270.466	265.724	181.679	291.345	299.668	181.581	187.805	325.368	312.722	186.790	191.446	192.884	197.721	337.676	194.462	-8191	255	
1001.249	1	1	0	0	0.046704	0.14282	0.25086	0.35589	0.058847	0.042397	0.18495	0.15299	0.067034	0.1139	0.29442	0.068846	0.18151	0.29165	0.073096	0.03362	-2.4313	-2.6312	-2.6292	-2.9146	-2.6146	-2.5021	-3.0729	-2.4521	-2.8146	-2.8521	-2.35	-3.0667	-2.8625	-2.5667	-3.1521	-2.5604	189.379	330.288	187.690	421.086	458.059	255.437	440.983	384.298	314.662	421.582	251.924	415.145	520.090	502.021	319.689	362.345	0.00016933	0.00015267	4.4522e-05	419.2	1.3683e-06	1.8753e-06	484.85	97.314	1.9992e-06	2.6594e-06	132.75	38.004	26.596	10.952	3.8718e-07	19.049	0.00011257	7.9189e-05	2.2513e-05	412.73	8.7863e-07	8.7933e-07	477.57	95.517	8.3109e-07	8.3715e-07	130.3	38.009	26.412	10.907	7.5523e-07	19.029	223.849	226.850	230.389	181.905	306.021	315.963	181.523	188.155	313.117	313.070	186.345	191.542	192.638	197.494	460.805	194.731	-8191	255	
1001.345	1	1	0	0	0.16461	0.10937	0.22325	0.11508	0.11357	0.2131	0.046387	0.254	0.28222	0.066754	0.17342	0.090186	0.25307	0.021102	0.012352	0.18843	-2.2958	-2.7917	-2.4854	-2.9229	-2.7521	-2.4646	-3.0687	-2.7146	-2.8271	-3	-2.6813	-2.8667	-2.8542	-2.6729	-3.0646	-2.6708	514.139	376.342	364.377	309.853	311.671	303.239	298.821	295.319	318.033	379.896	368.003	289.045	450.298	246.248	332.721	297.850	0.00017834	0.00017364	7.425e-05	424.63	2.44e-06	9.4182e-07	487.45	98.616	1.2125e-06	8.0879e-07	134.23	39.089	26.968	11.121	1.2025e-06	19.295	0.00010425	7.3415e-05	2.0727e-05	415.61	8.105e-07	7.9837e-07	480.86	96.576	7.8567e-07	7.1821e-07	132.32	38.821	26.812	11.067	8.0958e-07	19.396	221.681	252.582	266.998	181.719	346.840	305.408	181.345	188.184	291.759	291.365	186.657	191.627	192.819	196.977	346.378	194.340	-8191	255	
1001.417	1	1	0	0	0.11973	0.24256	0.063938	0.13867	0.21202	0.11071	0.10207	0.25278	0.16519	0.10863	0.12789	0.014023	0.1294	0.20254	0.07571	0.19933	-2.0667	-3.0417	-2.5042	-2.8187	-2.8563	-2.5646	-3.1958	-2.5187	-2.7667	-2.9875	-2.4875	-2.9125	-2.9646	-2.4437	-2.9125	-2.7687	478.540	329.204	480.978	212.796	398.198	492.365	322.045	244.168	358.824	335.326	182.341	473.301	528.156	523.503	254.236	507.205	0.00016611	0.0001167	3.8345e-05	424.59	1.0125e-06	1.2653e-06	495.56	97.354	1.7593e-06	2.3857e-06	135.24	39.316	27.028	11.045	7.8394e-07	19.475	0.00010207	6.5525e-05	1.9696e-05	417.81	7.4107e-07	7.1606e-07	486.01	96.684	7.6558e-07	7.0049e-07	133.51	39.019	26.791	11.032	7.2389e-07	19.334	223.861	257.537	298.159	181.707	328.964	339.668	181.695	187.735	331.750	284.704	186.245	191.168	192.694	197.260	315.981	194.685	-8191	255	
1001.538	1	1	0	0	0.084196	0.13282	0.20309	0.2337	0.065234	0.20526	0.29383	0.16302	0.13626	0.17794	0.17341	0.25295	0.14458	0.078498	0.03328	0.031124	-1.9771	-2.75	-2.5167	-2.7979	-2.9208	-2.5312	-2.9	-2.8	-2.5229	-3.0187	-2.7104	-2.6875	-2.8146	-2.3438	-2.7604	-2.6354	204.446	334.246	307.551	511.773	486.158	500.140	471.202	325.381	199.316	317.347	275.384	399.708	178.008	404.811	263.650	300.801	0.00015489	0.00012012	7.6474e-05	429.75	2.7883e-07	1.2155e-07	499.58	99.091	1.2503e-06	1.4107e-06	137.98	39.974	27.928	11.183	1.2086e-06	19.707	9.7502e-05	5.8701e-05	1.8187e-05	424.01	7.8289e-07	7.3252e-07	493.04	98.081	7.8469e-07	7.2878e-07	135.43	39.743	27.417	11.189	7.2172e-07	19.593	227.484	296.084	264.075	181.746	277.225	404.328	181.311	187.507	340.967	314.393	186.302	191.291	192.658	197.497	315.943	194.609	-8191	255	
1001.632	1	1	0	0	0.13979	0.10507	0.1438	0.078342	0.11963	0.052163	0.11615	0.21008	0.11568	0.1164	0.15026	0.28226	0.04629	0.069815	0.14971	0.024794	-1.9771	-3.0396	-2.5938	-2.8	-2.8083	-2.4979	-2.7521	-2.6417	-2.4021	-3.0062	-2.8792	-2.6083	-3.0563	-2.5062	-2.8896	-2.8146	373.677	345.151	494.505	467.792	350.053	321.543	488.812	520.294	287.156	295.691	316.199	443.866	190.770	248.763	463.853	527.482	0.0001725	0.00019514	4.9613e-05	434.62	2.2414e-06	2.1305e-06	505.7	101.15	1.5193e-06	1.2555e-06	139.66	41.41	28.532	11.389	1.226e-06	20.075	0.00010043	6.2962e-05	1.8752e-05	428.1	7.1085e-07	6.8211e-07	498.51	100.1	7.5234e-07	6.6778e-07	138.2	41.003	28.179	11.371	6.9171e-07	19.908	233.031	219.560	294.528	181.618	291.670	316.765	181.688	187.565	327.187	325.305	186.965	191.087	192.690	196.957	333.823	195.051	-8191	255	
1001.730	1	1	0	0	0.067805	0.1382	0.18018	0.29032	0.038956	0.2749	0.11321	0.21826	0.084963	0.10404	0.25844	0.15948	0.085204	0.28257	0.081978	0.16909	-1.9271	-2.9813	-2.7812	-2.6146	-2.975	-2.4542	-2.8063	-2.7854	-2.4604	-2.9729	-2.6354	-2.7208	-2.8208	-2.5812	-2.6167	-2.925	326.725	470.384	390.400	508.562	366.022	258.770	268.034	218.381	485.112	494.789	460.184	458.740	375.702	527.451	505.196	421.685	0.00017628	0.00013159	6.1087e-05	439.02	1.0435e-06	1.8904e-06	512.9	102.74	9.4632e-07	2.0287e-06	142.76	42.039	28.825	11.785	9.2043e-07	20.463	9.9645e-05	6.1171e-05	1.8126e-05	432.47	7.1297e-07	7.1368e-07	504.13	101.77	7.3274e-07	6.7033e-07	141.04	41.986	28.836	11.705	7.1939e-07	20.431	229.938	261.055	278.110	181.555	334.386	325.107	181.282	187.620	304.569	269.837	186.568	191.627	192.696	197.102	346.140	194.550	-8191	255	
1001.849	1	1	0	0	0.18285	0.14947	0.24079	0.23074	0.17497	0.1257	0.10389	0.12349	0.13551	0.27515	0.12839	0.067383	0.17858	0.19786	0.16507	0.11241	-1.9604	-2.9354	-2.6729	-2.3542	-2.7958	-2.6729	-2.8542	-2.9292	-2.3812	-2.9	-2.9354	-2.6354	-3.0812	-2.3917	-2.8646	-2.9583	440.426	277.037	465.536	450.607	506.862	498.396	529.182	323.214	360.515	361.105	512.116	415.659	339.126	313.172	512.610	310.650	0.00018014	0.00013093	6.0772e-05	444.81	1.5124e-06	1.9549e-06	517.08	104.28	2.0771e-06	7.9535e-07	143.49	41.646	29.172	11.568	1.2827e-06	20.025	9.9716e-05	6.0646e-05	1.7682e-05	436.57	7.6754e-07	6.8194e-07	507.54	103.33	7.6688e-07	6.7289e-07	141.33	41.479	28.743	11.463	7.6107e-07	19.897	232.038	271.390	244.430	181.801	320.040	317.203	181.579	187.624	332.027	332.373	186.006	191.040	193.091	196.522	308.218	194.752	-8191	255	
1001.945	1	1	0	0	0.16645	0.05862	0.07289	0.032893	0.16462	0.20415	0.18921	0.14228	0.21511	0.082367	0.35016	0.26274	0.22969	0.18209	0.13184	0.18391	-1.9917	-2.7938	-2.8167	-2.2812	-2.8896	-2.6354	-2.7271	-2.8771	-2.4333	-2.8146	-2.9813	-2.4042	-2.9813	-2.7958	-2.6833	-3.0167	429.736	317.524	480.135	438.956	370.722	478.357	478.852	510.096	242.536	320.916	174.274	407.451	420.229	242.259	448.099	296.544	0.00016931	0.00018695	5.3724e-05	447.17	1.8716e-06	2.3803e-06	516.56	103.87	1.5643e-06	2.1334e-06	142.92	40.859	28.108	11.29	1.6431e-06	19.716	0.00010194	6.7084e-05	1.8277e-05	438.58	7.4499e-07	6.8686e-07	508.45	102.32	7.8992e-07	7.2332e-07	139.84	40.876	28.152	11.283	8.3376e-07	19.656	230.498	262.172	301.581	181.748	343.183	337.619	181.584	187.577	319.473	330.148	186.047	191.382	192.335	197.446	304.046	194.290	-8191	255	
1002.041	1	1	0	0	0.086394	0.30364	0.085273	0.12118	0.11625	0.119	0.13115	0.11826	0.097894	0.13499	0.17405	0.13742	0.19144	0.15955	0.049783	0.12114	-2.1542	-2.6937	-2.9875	-2.5125	-2.8604	-2.6417	-2.65	-2.9667	-2.7625	-2.6417	-2.8792	-2.4437	-3	-2.6354	-2.4792	-3.0125	245.792	214.951	401.821	486.463	185.053	461.817	430.763	481.713	390.620	486.054	172.345	236.262	326.619	194.863	445.554	180.574	0.00017189	0.00017829	4.1945e-05	443.43	1.9534e-06	2.3954e-06	510.03	101.86	2.3002e-06	8.0797e-07	138.39	39.734	27.403	11.104	1.8621e-06	19.483	0.0001034	6.8721e-05	1.8079e-05	435.53	8.0479e-07	7.3405e-07	503.39	100.68	8.0854e-07	7.4087e-07	136.57	39.413	27.067	11.004	7.6757e-07	19.356	225.830	283.052	218.771	181.388	313.276	292.801	181.281	187.649	331.705	329.390	186.774	191.417	192.855	196.908	311.905	194.327	-8191	255	
1002.137	1	1	0	0	0.157	0.044166	0.18119	0.16749	0.20262	0.032995	0.0094286	0.28753	0.12142	0.12047	0.17168	0.15648	0.24327	0.23105	0.080252	0.1033	-2.2146	-2.6833	-3.0292	-2.7208	-2.9875	-2.9583	-2.6688	-3.0958	-2.4688	-2.4979	-2.9021	-2.7812	-2.8417	-2.7708	-2.6583	-3.0125	264.869	510.716	304.392	491.924	497.934	275.790	412.908	290.834	218.428	406.157	477.748	514.112	404.679	242.549	209.520	294.182	0.00018527	0.00028976	2.3251e-05	441.59	2.6071e-06	2.4476e-06	510.4	101.07	1.6818e-06	2.3303e-06	136.47	39.362	26.922	11.087	1.1731e-06	19.286	0.00010127	6.7671e-05	1.8079e-05	433.1	7.9482e-07	7.13e-07	501.36	99.132	8.3828e-07	7.5025e-07	134.8	39.024	26.781	11.005	7.4423e-07	19.215	227.444	263.001	301.825	181.743	345.930	329.269	181.587	187.807	296.291	307.373	186.753	191.212	193.061	197.735	329.735	194.527	-8191	255	
1002.233	1	1	0	0	0.017739	0.048405	0.24355	0.42392	0.064541	0.19984	0.20234	0.053356	0.12573	0.19251	0.17472	0.04698	0.064439	0.13452	0.084422	0.10775	-2.2875	-2.725	-2.9625	-2.4167	-2.7625	-2.8312	-2.5042	-2.8521	-2.7729	-2.6688	-2.9042	-2.6833	-2.75	-2.8104	-2.35	-2.9854	428.961	306.738	196.229	414.141	520.838	286.183	473.064	383.075	381.032	506.907	418.654	346.693	438.444	486.203	383.272	365.106	0.0001887	9.6804e-05	6.2681e-05	437.28	1.9529e-06	2.243e-06	504.83	99.094	1.1387e-06	1.7236e-06	135.84	38.541	26.139	11.101	2.3193e-06	19.303	0.00010079	6.9184e-05	1.8415e-05	430.02	8.2897e-07	8.1449e-07	496.28	97.724	8.0707e-07	7.8535e-07	134.02	38.302	26.182	10.992	8.5076e-07	19.229	228.981	273.358	263.784	181.587	376.639	339.012	181.162	187.897	355.548	279.403	186.250	191.179	192.794	196.847	331.953	195.119	-8191	255	
1002.329	1	1	0	0	0.11491	0.26263	0.19673	0.11831	0.050216	0.15499	0.21075	0.11035	0.10197	0.12564	0.09185	0.24605	0.24564	0.13684	0.11386	0.24707	-2.0812	-2.575	-2.8312	-2.3771	-2.5458	-2.8833	-2.4375	-2.8479	-2.7812	-2.5208	-3.0687	-2.6021	-2.6479	-2.8896	-2.5396	-2.9583	309.671	361.522	294.833	454.128	266.541	328.646	444.692	463.038	443.473	217.614	230.320	390.720	432.775	492.690	457.478	236.952	0.00017895	0.00018007	5.343e-05	436.49	1.5211e-06	4.8188e-07	499.27	98.39	1.2279e-06	1.9289e-06	135.11	38.42	26.071	10.942	8.7244e-07	19.125	0.00010193	7.1516e-05	2.0149e-05	429.75	8.6491e-07	7.3371e-07	496.06	97.397	8.5641e-07	8.5811e-07	132.84	37.825	25.972	10.942	8.9461e-07	19.065	227.653	252.052	236.222	181.637	329.420	289.252	181.320	187.828	326.128	350.867	186.600	191.491	192.756	197.199	293.959	195.071	-8191	255	
1002.450	1	1	0	0	0.061204	0.22239	0.064252	0.34028	0.29826	0.064696	0.14551	0.044283	0.13342	0.16786	0.025361	0.16138	0.21258	0.13347	0.25898	0.029434	-2.4271	-2.5417	-2.9167	-2.6042	-2.6729	-2.9667	-2.55	-2.9104	-2.9708	-2.4938	-3.0875	-2.6208	-2.6458	-2.8854	-2.5542	-2.8312	437.785	227.896	329.092	285.749	459.314	270.451	404.547	349.581	326.221	465.917	512.997	388.586	173.435	409.129	198.329	473.817	0.00017763	0.000117	6.1935e-05	435.79	1.5582e-06	7.0402e-07	495.91	97.042	7.696e-07	1.4653e-06	132.06	37.199	25.67	10.952	1.5564e-06	18.819	0.00010476	7.7722e-05	2.0102e-05	425.95	8.7112e-07	7.9752e-07	489.71	96.031	8.6426e-07	8.2079e-07	130.36	36.974	25.446	10.889	8.3175e-07	18.824	222.618	228.822	247.509	181.743	253.767	303.141	181.746	187.858	306.629	356.595	186.459	191.472	193.257	197.269	303.419	194.635	-8191	255	
1002.545	1	1	0	0	0.025892	0.27657	0.097135	0.16141	0.21024	0.13077	0.17715	0.052127	0.37415	0.25008	0.14338	0.17886	0.21456	0.19916	0.28078	0.10282	-2.4083	-2.4083	-2.8187	-2.775	-2.7333	-2.8354	-2.7604	-2.7854	-2.9458	-2.4229	-2.95	-2.6792	-2.5	-2.9042	-2.7917	-2.7229	452.199	452.930	334.720	349.588	423.723	281.883	405.416	397.414	514.600	477.126	228.672	246.224	453.383	209.873	422.357	303.996	0.00016655	0.00017254	3.47e-05	431.47	1.6441e-06	8.2474e-07	497.05	96.529	1.1647e-06	2.7579e-06	130.74	36.888	25.503	10.847	1.0519e-06	18.742	0.00010165	7.9668e-05	2.1219e-05	423.72	8.3452e-07	8.4403e-07	487.44	95.486	8.6001e-07	8.3919e-07	129.45	36.812	25.505	10.757	8.6777e-07	18.691	224.346	268.003	219.888	181.511	310.276	286.638	181.466	187.657	289.702	371.566	186.899	191.436	192.588	197.338	265.761	194.624	-8191	255	
1002.641	1	1	0	0	0.12293	0.057919	0.27306	0.29915	0.096188	0.23098	0.0388	0.22389	0.1994	0.21158	0.14261	0.26129	0.062761	0.097808	0.25045	0.18574	-2.6229	-2.5083	-2.6583	-2.8625	-2.6063	-3.0354	-2.7708	-2.3875	-2.9625	-2.3979	-2.7521	-2.7812	-2.4813	-2.9833	-2.6104	-2.6646	311.940	449.987	180.921	193.963	411.051	218.796	294.509	463.982	343.360	434.354	192.379	348.503	412.462	224.869	194.364	189.246	0.00015571	0.00010416	8.0215e-05	428.9	4.7934e-07	2.7178e-06	494.06	97.079	1.5585e-06	2.8657e-06	131.34	37.596	25.987	10.994	2.4369e-06	18.99	9.9834e-05	7.8679e-05	2.0693e-05	422.44	8.6426e-07	7.7699e-07	486.4	95.864	7.7995e-07	8.2846e-07	130.26	37.235	25.746	10.893	8.2275e-07	18.981	226.675	251.106	218.889	181.356	460.305	332.396	181.082	187.649	301.968	250.315	186.501	191.576	193.081	196.932	312.122	194.161	-8191	255	
1002.714	1	1	0	0	0.21203	0.19922	0.15439	0.2756	0.1883	0.35973	0.2144	0.13249	0.081873	0.053834	0.22703	0.20411	0.37479	0.20948	0.079243	0.056469	-2.4104	-2.5062	-2.8521	-2.8583	-2.4771	-3.0042	-2.7021	-2.4792	-2.925	-2.8521	-2.8708	-2.9792	-2.5021	-2.9042	-2.7667	-2.6083	308.130	325.151	497.041	494.822	501.608	220.690	409.588	412.902	310.023	270.885	526.600	517.689	242.220	248.016	253.016	299.320	0.00017522	0.00016987	6.0998e-05	430.18	1.3673e-06	2.389e-06	493.05	97.338	1.3491e-06	4.8213e-07	132.76	37.158	25.785	10.894	8.672e-07	19.25	9.6614e-05	6.7517e-05	2.0136e-05	422.54	7.6966e-07	6.7583e-07	486.44	95.909	7.4483e-07	7.7512e-07	130.8	37.129	25.531	10.921	7.4873e-07	19.107	230.611	238.300	278.828	181.581	341.296	347.791	181.397	187.444	295.838	204.646	186.123	191.444	192.997	197.327	363.783	195.118	-8191	255	
1002.810	1	1	0	0	0.099894	0.15099	0.061984	0.11787	0.19623	0.37735	0.085449	0.094155	0.1193	0.15013	0.068476	0.27796	0.19774	0.10831	0.34039	0.13983	-2.65	-2.5521	-2.7667	-2.8896	-2.575	-2.9021	-2.7313	-2.7729	-2.9938	-2.7042	-2.7438	-3.0229	-2.5	-2.9292	-2.9562	-2.5167	213.332	455.999	175.011	476.222	188.689	199.344	501.755	389.940	417.703	482.484	263.134	387.956	347.343	326.372	302.860	316.562	0.00016951	0.00013125	6.2814e-05	428.74	1.7408e-06	3.8749e-07	486.07	95.901	1.151e-06	1.6743e-06	132.02	37.266	25.67	11.098	1.9618e-06	19.259	9.8354e-05	7.6394e-05	2.0136e-05	420.01	8.5674e-07	7.186e-07	482.47	95.112	7.8633e-07	7.4275e-07	129.78	37.208	25.707	11.052	7.654e-07	19.22	231.823	244.940	303.810	181.752	300.708	354.778	181.275	187.754	317.290	305.674	186.457	191.311	193.451	197.330	319.181	194.942	-8191	255	
1002.929	1	1	0	0	0.23072	0.25349	0.11085	0.061478	0.16649	0.20233	0.2078	0.078403	0.16789	0.20566	0.068847	0.31551	0.11176	0.15043	0.21004	0.1044	-2.65	-2.6437	-2.6479	-3.1292	-2.3812	-2.9083	-2.9062	-2.5979	-3.0542	-2.6708	-2.5375	-3.0354	-2.3312	-2.8229	-2.9208	-2.5083	389.864	340.960	398.047	398.098	307.638	390.840	171.232	235.364	333.287	454.333	503.130	447.610	447.782	511.222	314.740	429.875	0.00016695	0.00024741	2.0694e-05	427	1.8171e-06	1.6236e-06	490.31	96.775	2.4036e-06	2.2627e-06	133.53	39.036	26.758	11.421	1.1619e-06	20.096	0.00010304	7.133e-05	1.8967e-05	418.56	8.391e-07	7.2794e-07	483.15	96.048	7.7963e-07	7.2196e-07	132.48	38.65	26.583	11.4	7.4606e-07	19.8	223.854	221.105	245.167	181.312	294.594	283.147	181.474	187.594	296.924	295.208	186.414	191.148	193.014	197.438	286.306	194.794	-8191	255	
1003.025	1	1	0	0	0.2289	0.13821	0.15753	0.21898	0.15608	0.20158	0.22574	0.13312	0.12991	0.2299	0.24787	0.29381	0.21	0.14508	0.1881	0.24865	-2.6125	-2.8833	-2.4646	-3.0521	-2.6708	-2.6708	-3.0542	-2.5062	-2.8063	-2.9396	-2.6083	-3.0458	-2.7167	-2.6729	-2.9458	-2.4729	314.327	474.199	307.668	368.570	425.560	454.466	173.467	325.861	324.730	434.125	231.622	303.979	506.295	409.947	462.857	524.851	0.00018505	0.00025656	5.7024e-05	423.3	1.9511e-06	1.8753e-06	489.68	99.291	2.0992e-06	2.7075e-06	135.55	39.432	27.174	11.498	5.2074e-07	20.065	0.0001034	7.3754e-05	1.9662e-05	416.83	8.1132e-07	7.651e-07	483.35	97.407	7.7554e-07	7.0765e-07	134.07	39.146	26.967	11.492	7.0055e-07	20.047	230.405	245.157	277.549	181.929	312.948	366.167	181.294	187.694	278.653	332.324	186.640	190.852	192.878	197.264	307.727	194.756	-8191	255	
1003.121	1	1	0	0	0.12349	0.066081	0.1906	0.17162	0.14757	0.064536	0.17206	0.14765	0.098999	0.088371	0.27291	0.14369	0.10712	0.033483	0.097685	0.1272	-2.3875	-2.8208	-2.3063	-3.0354	-2.6937	-2.6375	-3.0354	-2.5708	-2.7729	-2.9854	-2.5917	-2.925	-2.7229	-2.6521	-3.0396	-2.7083	494.111	224.651	481.079	195.233	210.404	257.821	192.192	400.390	323.507	462.572	231.593	203.468	345.087	365.562	225.698	278.699	0.00018552	0.00012758	4.8149e-05	425.83	7.844e-07	1.0729e-06	494.37	98.016	2.128e-06	1.6462e-06	136.62	39.218	26.67	11.324	1.5534e-06	19.822	0.00010058	6.8011e-05	1.7811e-05	418.53	8.1361e-07	6.6107e-07	487.19	97.265	7.5626e-07	7.0254e-07	134.63	39.057	26.626	11.351	7.3523e-07	19.652	228.575	233.388	306.950	181.266	285.087	262.000	181.417	188.329	319.572	305.903	186.432	191.581	193.379	197.275	300.041	194.948	-8191	255	
1003.242	1	1	0	0	0.22947	0.41691	0.23351	0.16635	0.15006	0.19088	0.1941	0.13664	0.32896	0.29797	0.15107	0.32382	0.33362	0.1071	0.28591	0.26167	-2.3833	-2.9417	-2.3479	-3.0521	-2.7313	-2.6458	-3.0917	-2.6604	-2.7687	-2.9958	-2.4229	-3.0396	-2.8792	-2.5438	-3.0771	-2.7667	399.942	180.675	404.504	457.493	450.870	271.525	172.265	425.718	395.243	375.797	512.147	426.687	431.259	179.823	195.106	439.670	0.00017555	0.00016144	6.7003e-05	424.6	9.7812e-07	2.5894e-06	490.36	97.353	1.7157e-06	2.4512e-06	135.7	38.97	26.744	11.31	1.2813e-06	19.726	9.9562e-05	6.4923e-05	1.9912e-05	417.59	7.6754e-07	7.2335e-07	484.46	96.62	7.4352e-07	6.734e-07	133.43	38.561	26.513	11.26	7.0005e-07	19.726	230.028	269.586	273.119	181.835	333.510	310.277	181.429	187.452	315.249	294.946	186.258	191.378	193.160	197.264	367.488	194.691	-8191	255	
1003.314	1	1	0	0	0.24826	0.060179	0.25278	0.078739	0.2841	0.05768	0.12693	0.014217	0.1511	0.24949	0.064619	0.18584	0.15481	0.28094	0.10855	0.14272	-2.4771	-3.0083	-2.5958	-2.9667	-2.675	-2.6437	-3.0417	-2.7771	-2.7292	-2.9271	-2.6542	-2.8021	-2.9771	-2.5875	-3.0938	-2.8229	388.169	356.764	391.247	324.288	217.284	517.799	411.660	354.105	422.714	190.059	504.909	212.964	401.379	345.260	186.130	172.059	0.00017856	0.00026563	5.9754e-05	425.05	2.007e-06	1.8434e-06	494.1	97.804	9.7809e-07	1.8692e-06	137.42	39.088	26.839	11.49	1.8857e-06	20.087	9.5004e-05	6.3379e-05	1.8126e-05	418.63	7.3192e-07	7.0519e-07	487.82	97.324	7.3715e-07	6.7221e-07	135.3	39.18	26.74	11.494	7.0205e-07	20.002	225.124	271.415	264.032	182.014	304.705	322.060	181.836	187.791	308.445	354.456	186.690	191.587	193.460	197.532	322.637	194.857	-8191	255	
1003.410	1	1	0	0	0.17572	0.13881	0.2192	0.16298	0.14404	0.11878	0.075439	0.27194	0.15411	0.11119	0.19583	0.10815	0.045308	0.17725	0.094433	0.34673	-2.2	-3.0396	-2.3958	-2.8542	-2.9354	-2.6771	-3.0646	-2.7854	-2.5792	-2.9688	-2.5646	-2.7167	-3.0021	-2.6833	-2.8917	-2.7583	290.389	416.488	506.935	234.048	201.694	371.969	299.229	469.983	413.342	419.665	450.232	477.980	431.439	231.993	364.256	393.454	0.00020323	0.00030697	8.7117e-05	426.46	1.3498e-06	1.6015e-06	492.55	98.193	2.3581e-06	2.5276e-06	137.32	39.556	26.749	11.538	1.7131e-06	20.337	0.00010397	6.3935e-05	1.8135e-05	419.91	7.1493e-07	7.2437e-07	487.67	97.63	7.6247e-07	6.383e-07	135.36	39.424	26.685	11.5	7.2005e-07	20.201	227.204	256.979	262.913	181.907	310.698	351.507	181.566	188.147	298.878	310.849	186.571	191.329	193.299	197.626	327.089	194.584	-8191	255	
1003.530	1	1	0	0	0.22985	0.21586	0.029535	0.12858	0.053485	0.17318	0.21624	0.26692	0.11369	0.24103	0.046825	0.14469	0.085957	0.23149	0.15427	0.19063	-2.2062	-3.025	-2.5521	-2.7562	-2.8688	-2.4688	-2.9062	-2.8646	-2.5229	-2.9792	-2.6458	-2.8542	-3.0917	-2.5021	-2.9729	-2.8625	394.738	296.449	525.612	300.387	522.688	356.148	256.337	433.093	226.780	367.346	372.843	472.862	192.562	520.794	243.330	412.973	0.00019111	0.0002266	6.4772e-05	427.69	1.0831e-06	2.3802e-06	498.21	98.603	1.391e-06	2.0626e-06	135.99	39.675	26.932	11.559	1.5431e-06	19.878	0.00010107	6.5818e-05	1.8364e-05	421.47	8.0217e-07	7.483e-07	491.37	97.557	7.6688e-07	6.918e-07	134.94	39.446	26.777	11.517	7.8507e-07	19.949	225.525	215.607	294.731	181.499	300.395	316.519	181.409	187.701	278.588	290.037	186.803	191.147	193.082	197.160	295.614	194.762	-8191	255	
1003.627	1	1	0	0	0.079881	0.10721	0.11435	0.15553	0.14214	0.19124	0.14164	0.2414	0.11399	0.080305	0.25505	0.13242	0.01991	0.039583	0.2089	0.11187	-2.1521	-2.9708	-2.7812	-2.6333	-2.9083	-2.4354	-2.9375	-2.8875	-2.6229	-2.8646	-2.7562	-2.7167	-3.0875	-2.6937	-2.8458	-2.8875	417.830	505.583	461.148	239.221	312.859	248.932	367.869	218.776	508.826	459.627	475.366	524.715	488.636	363.053	250.038	399.647	0.00017549	0.00022964	9.3985e-05	426.97	1.5011e-06	1.9251e-06	493.3	98.53	2.2395e-06	1.7635e-06	135.65	38.82	26.56	11.256	1.6008e-06	19.722	0.00010066	7.2689e-05	2.1349e-05	418.98	8.1263e-07	7.7155e-07	487.76	97.398	8.6867e-07	7.7035e-07	133.82	38.777	26.506	11.361	8.2342e-07	19.612	226.797	268.593	266.676	181.953	272.226	272.472	181.044	188.005	336.270	295.878	186.271	191.114	193.698	196.865	283.660	194.458	-8191	255	
1003.721	1	1	0	0	0.27972	0.09514	0.12604	0.22359	0.18709	0.11177	0.087453	0.36491	0.21667	0.08274	0.095562	0.1124	0.08726	0.16039	0.27452	0.038338	-1.9333	-2.9792	-2.7729	-2.7562	-3.0021	-2.5312	-2.8146	-3.0042	-2.6604	-2.9083	-2.7333	-2.6542	-2.8375	-2.6437	-2.8937	-2.9271	514.084	513.053	204.786	454.899	251.899	253.071	508.017	434.787	342.319	398.137	183.958	188.995	513.405	514.730	397.846	515.859	0.00017032	5.4362e-05	4.9139e-05	423.87	6.5151e-07	2.1036e-06	489.67	97.782	2.637e-06	2.9057e-06	135.71	39.533	26.885	11.531	6.9551e-07	19.964	0.00010677	7.5283e-05	2.1383e-05	417.36	8.0054e-07	7.9854e-07	484.08	96.725	8.5119e-07	8.5811e-07	134.01	39.135	26.672	11.491	8.4909e-07	19.873	228.903	332.401	279.685	181.637	296.411	321.001	182.075	188.078	303.226	337.575	186.364	191.273	193.605	197.596	274.123	194.906	-8191	255	
1003.819	1	1	0	0	0.15509	0.073932	0.17266	0.12629	0.07817	0.12587	0.13258	0.082592	0.18442	0.099438	0.027412	0.079631	0.22934	0.24201	0.16047	0.1199	-2.0438	-2.8729	-2.8271	-2.4146	-3.0604	-2.725	-2.7083	-3	-2.5	-2.8625	-2.9604	-2.5042	-3.0021	-2.6625	-2.8125	-3.0354	326.350	351.237	410.996	231.619	395.649	388.635	413.984	431.688	470.108	249.740	452.505	512.811	418.637	439.834	238.606	467.334	0.00018516	7.8165e-05	3.2907e-05	426.27	2.4159e-06	2.6028e-06	492.38	98.402	1.2627e-06	1.9175e-06	135.95	39.688	27.344	11.597	1.1039e-06	20.057	0.00011159	7.5283e-05	1.9951e-05	420.04	7.9678e-07	8.3893e-07	487.26	97.432	8.6376e-07	8.1551e-07	134.97	39.554	27.102	11.617	8.1692e-07	20.121	227.630	258.334	278.478	181.578	329.766	276.064	181.621	187.703	285.620	335.362	186.395	191.551	192.892	197.284	293.102	195.015	-8191	255	
1003.938	1	1	0	0	0.18658	0.064387	0.088874	0.17119	0.21509	0.12588	0.11962	0.18366	0.27296	0.14615	0.17014	0.23909	0.3555	0.037079	0.10819	0.067029	-2.1729	-2.7938	-2.7146	-2.6771	-2.7188	-2.8354	-2.5125	-3.0583	-2.4708	-2.8292	-2.9437	-2.3875	-2.7479	-2.6562	-2.6	-3.05	273.779	402.765	294.403	229.753	456.436	295.340	364.687	170.429	359.670	412.170	390.703	453.921	415.008	286.336	419.915	173.609	0.00018723	0.000117	5.8742e-05	429.69	1.5905e-06	1.9966e-06	495.09	98.459	3.9093e-07	5.6524e-07	136.07	39.152	26.874	11.495	1.2461e-06	19.795	0.00010644	7.9174e-05	2.1487e-05	421.78	8.6327e-07	8.6134e-07	488.57	97.554	9.5411e-07	8.8707e-07	133.98	39.043	26.874	11.494	9.6896e-07	19.734	228.137	235.787	289.857	181.848	296.242	307.381	181.336	187.810	281.658	299.256	186.565	191.875	193.303	197.394	304.113	195.014	-8191	255	
1004.009	1	1	0	0	0.095762	0.34202	0.19648	0.093948	0.073803	0.052573	0.23369	0.10179	0.1036	0.078671	0.098792	0.22998	0.10001	0.28265	0.11262	0.047556	-2.2292	-2.9292	-2.7354	-2.5542	-2.9437	-2.7562	-2.6229	-3.1125	-2.7583	-2.8187	-2.9833	-2.7396	-2.9375	-2.7729	-2.6292	-3.0583	428.917	361.788	224.571	447.028	392.019	421.173	388.720	410.383	231.940	315.761	458.923	390.663	463.972	508.065	354.955	449.403	0.00019315	0.00025827	5.0264e-05	423.74	7.4361e-08	2.8628e-07	492.47	96.55	9.4598e-07	1.8473e-06	131.23	38.223	26.176	11.13	1.8582e-06	19.189	0.00012182	8.5828e-05	2.2716e-05	418.01	9.5836e-07	9.6436e-07	482.82	95.948	9.8809e-07	9.6358e-07	130.32	38.016	26.219	11.18	1.0101e-06	19.154	226.203	250.842	259.183	181.935	197.996	259.595	181.647	187.834	275.323	324.000	186.543	191.790	192.878	197.443	278.023	194.854	-8191	255	
1004.130	1	1	0	0	0.28436	0.065336	0.22178	0.13348	0.33305	0.26016	0.23172	0.12803	0.34838	0.17577	0.25965	0.20233	0.22685	0.10379	0.042758	0.23387	-2.1958	-2.6271	-2.9271	-2.5812	-3.0563	-2.9938	-2.6625	-3.0875	-2.7833	-2.7562	-3.1813	-2.5792	-2.8729	-2.8771	-2.3958	-3.1021	329.017	266.293	295.545	448.007	202.310	383.124	441.979	184.721	381.879	484.385	230.901	276.505	393.180	332.327	356.469	249.098	0.00016179	0.00015874	7.5232e-05	420.32	2.0222e-06	1.7199e-06	482.8	95.882	2.1103e-06	2.0404e-06	129.95	38.005	26.248	11.144	1.1944e-06	19.214	0.00012127	9.6805e-05	2.756e-05	414.63	1.0998e-06	9.8065e-07	475.66	95.12	1.0691e-06	1.0094e-06	129.43	37.923	26.199	11.164	1.028e-06	19.202	225.183	268.810	269.458	181.801	301.269	334.861	181.800	188.267	308.187	318.643	186.947	191.739	193.022	197.287	344.895	195.014	-8191	255	
1004.226	1	1	0	0	0.081175	0.14219	0.098476	0.13406	0.070462	0.016122	0.35166	0.17511	0.093313	0.21137	0.18876	0.014498	0.036656	0.078397	0.21194	0.18786	-2.4646	-2.5917	-2.9167	-2.6375	-2.8125	-3.0146	-2.7562	-3.0187	-2.6125	-2.4188	-2.9167	-2.6354	-2.6937	-2.8854	-2.4104	-3.0396	429.495	372.188	379.652	488.069	392.890	232.631	178.755	188.472	366.265	495.469	438.136	415.717	208.280	177.536	437.033	256.668	0.00017172	0.00032734	1.4965e-05	419.66	2.8555e-07	1.0226e-06	479.32	95.948	1.4489e-06	1.6379e-06	130.57	37.623	26.142	11.179	3.1493e-06	19.255	0.00011932	9.6682e-05	2.6836e-05	411.98	1.0116e-06	1.0582e-06	472.9	95.119	1.1005e-06	1.1105e-06	128.9	37.576	26.102	11.146	1.1495e-06	19.097	225.450	237.751	250.087	181.711	459.998	382.259	181.607	187.500	276.929	270.889	186.354	190.934	192.915	197.211	321.494	194.437	-8191	255	
1004.322	1	1	0	0	0.14562	0.16559	0.17006	0.14644	0.29196	0.081692	0.1576	0.16329	0.072727	0.15009	0.26303	0.16892	0.057635	0.15145	0.1165	0.34049	-2.4583	-2.6667	-2.8812	-2.85	-2.8292	-2.9188	-2.5333	-2.8312	-2.6354	-2.6125	-2.9833	-2.6896	-2.8271	-3.0708	-2.5708	-2.8729	493.548	486.864	300.124	496.332	192.074	224.192	464.155	183.621	484.250	185.505	369.608	307.206	459.120	444.773	355.174	374.467	0.00018429	0.00021281	7.1102e-06	416.09	1.3765e-06	2.0778e-06	473.22	95.12	1.1695e-06	1.2877e-06	130.2	37.565	26.101	11.237	1.3696e-06	19.31	0.00012816	0.00010567	2.8587e-05	409.81	1.1556e-06	1.0457e-06	468.84	94.496	1.1761e-06	1.1236e-06	128.12	37.558	25.968	11.164	1.1135e-06	19.243	226.201	295.148	285.508	181.715	313.528	331.456	181.423	188.102	285.799	410.706	186.618	191.133	193.701	197.335	351.755	194.776	-8191	255	
1004.419	1	1	0	0	0.068554	0.10339	0.11127	0.078469	0.24323	0.29644	0.12238	0.091676	0.18918	0.11648	0.16109	0.081462	0.1979	0.022719	0.069605	0.11583	-2.3917	-2.5646	-2.8292	-2.8125	-2.7208	-3.1292	-2.4979	-2.7958	-2.9667	-2.675	-2.9458	-2.9062	-2.4604	-3.1458	-2.4729	-2.8812	521.055	279.846	526.344	195.299	319.264	232.541	457.568	244.251	396.254	520.969	490.954	376.792	478.386	278.090	245.780	174.100	0.0001837	0.0001738	2.6675e-05	417.78	1.6968e-06	1.9577e-07	471.66	96.226	1.679e-06	9.4616e-07	130.26	37.789	26.121	11.191	1.776e-06	19.108	0.00012436	9.4212e-05	2.7513e-05	409.79	1.158e-06	1.0468e-06	467.81	94.48	1.0811e-06	1.1464e-06	128.11	37.587	26.015	11.139	1.2372e-06	19.048	229.390	248.974	294.513	181.787	299.482	291.636	181.724	188.046	266.491	248.896	187.061	191.916	192.696	197.230	302.770	194.800	-8191	255	
1004.539	1	1	0	0	0.22162	0.19012	0.024531	0.13932	0.21328	0.20373	0.080234	0.049059	0.079761	0.072264	0.22038	0.074369	0.16863	0.11096	0.089903	0.051066	-2.5021	-2.4729	-2.975	-2.8417	-2.5458	-2.975	-2.5521	-2.8708	-2.975	-2.6271	-2.9604	-2.8583	-2.4437	-2.9667	-2.7042	-2.6937	499.320	274.136	275.142	498.915	388.651	187.553	337.185	326.851	481.947	495.602	508.135	208.438	329.346	388.443	524.618	346.013	0.00018122	0.00014015	3.4853e-05	410.59	1.4788e-06	3.0813e-06	473.62	94.706	1.1627e-06	2.4842e-06	129.32	37.994	25.962	11.26	1.8557e-06	19.373	0.00012886	0.00010363	2.9989e-05	406.37	1.1162e-06	1.0681e-06	466.48	94.165	1.1382e-06	1.112e-06	128.3	37.729	26.019	11.211	1.0995e-06	19.347	225.250	277.368	264.277	181.905	308.045	324.346	181.493	188.055	367.600	283.698	186.349	191.555	192.863	197.307	325.743	194.715	-8191	255	
1004.611	1	1	0	0	0.34705	0.22376	0.22157	0.14095	0.21524	0.31232	0.11205	0.16946	0.18497	0.13422	0.09023	0.10947	0.032172	0.18031	0.064864	0.15164	-2.5375	-2.5125	-2.9125	-2.9333	-2.425	-3.0292	-2.925	-2.7146	-2.9396	-2.6937	-2.8146	-3.0958	-2.4021	-2.9729	-2.725	-2.625	512.032	365.299	428.870	360.555	262.058	330.230	385.769	355.684	499.826	450.373	270.487	463.154	208.728	338.115	503.449	192.136	0.00018673	0.00010068	6.2227e-05	415.98	1.3709e-06	2.0607e-06	471.56	95.845	1.5217e-06	1.9792e-06	131.05	38.135	26.245	11.335	1.1594e-06	19.28	0.00011822	0.00010155	2.6564e-05	408.51	1.1208e-06	9.7895e-07	467.69	94.648	1.0247e-06	1.0709e-06	129.3	37.885	26.219	11.313	1.1484e-06	19.313	230.329	259.593	292.686	182.034	309.813	311.635	181.655	187.674	298.513	337.719	186.482	191.741	192.767	197.787	341.600	194.409	-8191	255	
1004.707	1	1	0	0	0.060638	0.10437	0.27951	0.13109	0.23365	0.062961	0.038726	0.10848	0.14603	0.099005	0.077123	0.36141	0.33498	0.09135	0.058943	0.30339	-2.6229	-2.4542	-2.6625	-2.9479	-2.5854	-2.875	-2.7104	-2.6396	-2.9646	-2.5583	-2.7667	-3.0687	-2.5458	-2.9062	-2.8021	-2.7667	215.807	416.103	241.688	486.211	438.208	172.156	249.373	405.187	473.268	481.053	339.356	210.491	278.372	389.003	340.064	209.521	0.00017275	0.00014023	6.0987e-05	414.35	1.752e-06	1.55e-06	469.67	94.309	1.1201e-06	1.6738e-06	127.66	36.843	25.876	11.025	1.8209e-06	18.98	0.00012586	0.00011334	2.9312e-05	407.99	1.2895e-06	1.1578e-06	463.49	93.657	1.2029e-06	1.2451e-06	126.88	37.134	25.84	11.044	1.2716e-06	18.902	232.250	283.167	256.311	182.169	336.139	359.424	181.654	187.896	292.173	286.660	186.488	191.646	193.683	197.484	289.767	195.119	-8191	255	
1004.801	1	1	0	0	0.10008	0.2246	0.056177	0.070879	0.12737	0.3459	0.066123	0.19873	0.10257	0.11758	0.17767	0.16428	0.15848	0.15204	0.22436	0.09143	-2.5938	-2.575	-2.8667	-3.0458	-2.5396	-2.9542	-2.8937	-2.4708	-3.1375	-2.6271	-2.6521	-3.0062	-2.4938	-2.9062	-2.9792	-2.5812	266.705	226.070	278.777	395.570	364.683	225.779	508.186	436.950	415.493	309.751	365.039	234.138	518.938	289.478	395.951	383.111	0.00016492	0.00025602	2.7078e-05	409.1	5.6218e-07	1.3002e-06	465.48	94.021	1.6353e-06	1.9871e-06	126.53	36.881	25.652	11.092	1.0597e-06	18.983	0.00013344	0.00011498	3.2094e-05	403.39	1.3333e-06	1.1858e-06	460.13	93.028	1.1688e-06	1.2078e-06	125.83	36.923	25.683	11.064	1.2205e-06	18.904	229.120	239.999	335.025	181.780	237.477	237.334	181.706	187.587	335.891	370.543	186.415	191.843	193.581	197.788	352.682	194.945	-8191	255	
1004.899	1	1	0	0	0.18388	0.07366	0.090973	0.1893	0.20411	0.16164	0.053173	0.22072	0.14361	0.11245	0.027487	0.15136	0.17946	0.2112	0.26781	0.26956	-2.8167	-2.7438	-2.7125	-3.0583	-2.7833	-2.7438	-2.875	-2.5521	-2.95	-2.8688	-2.675	-3.0146	-2.575	-2.8521	-2.8542	-2.725	402.127	411.862	313.440	236.108	264.725	408.269	196.152	371.751	510.574	272.446	340.234	209.108	449.159	271.169	278.589	183.027	0.00017238	0.00015467	4.7653e-05	407.97	2.2126e-06	1.9494e-06	461.15	93.884	1.7097e-06	1.6356e-06	125.83	36.918	25.638	11.037	6.0414e-07	18.911	0.00012832	0.00011223	3.1262e-05	401.64	1.3077e-06	1.2829e-06	458.07	93.005	1.232e-06	1.3236e-06	125.31	36.978	25.78	11.025	1.4003e-06	18.824	230.135	240.764	259.939	181.555	310.189	340.821	181.638	187.904	339.455	331.269	187.039	192.120	192.986	197.526	354.375	194.510	-8191	255	
1005.018	1	1	0	0	0.10865	0.1476	0.20815	0.017485	0.23539	0.17601	0.11698	0.14401	0.20209	0.10266	0.17261	0.091082	0.12432	0.069448	0.063399	0.175	-2.5604	-2.7687	-2.7	-3.1458	-2.6688	-2.8229	-2.9229	-2.5667	-2.9521	-2.9042	-2.4708	-2.8792	-2.7104	-2.8167	-2.9771	-2.5292	449.804	437.506	218.773	459.845	385.536	401.116	465.459	504.214	317.120	287.225	241.738	305.866	231.718	359.898	455.315	377.597	0.00017164	0.00024199	5.0688e-05	403.59	1.3816e-06	1.3695e-06	457.46	92.657	9.4223e-07	3.4444e-06	125.48	36.727	25.669	11.024	1.0992e-06	18.872	0.00014585	0.00013213	3.6809e-05	398.73	1.4317e-06	1.4073e-06	451.43	92.09	1.3882e-06	1.4306e-06	124.43	36.795	25.676	11.038	1.3079e-06	18.83	227.409	254.617	299.110	181.832	265.060	359.887	181.170	188.253	236.661	280.387	186.082	191.779	192.227	197.446	329.364	195.033	-8191	255	
1005.114	1	1	0	0	0.15936	0.16075	0.16108	0.1276	0.30211	0.034049	0.27869	0.10265	0.19196	0.081324	0.076265	0.070996	0.033483	0.33821	0.089726	0.19425	-2.3958	-2.8542	-2.4375	-3.0896	-2.5417	-2.8208	-3.1521	-2.3708	-2.8937	-2.8937	-2.8333	-2.9792	-2.725	-2.6813	-3.0729	-2.7229	460.801	187.166	386.671	499.809	425.145	331.720	436.705	334.586	248.101	388.147	462.148	276.087	187.033	417.358	430.383	525.017	0.00015251	8.7746e-05	3.943e-05	405.98	7.1326e-07	2.37e-06	459.27	93.644	7.0461e-07	2.5966e-06	128.28	37.044	25.867	11.147	1.3793e-06	18.912	0.00014187	0.0001254	3.4091e-05	398.87	1.3973e-06	1.2894e-06	454.24	92.833	1.3658e-06	1.3018e-06	126.55	37.208	25.997	11.144	1.2982e-06	19.031	227.157	230.562	301.755	181.829	350.000	328.659	181.503	187.706	304.710	348.116	186.749	191.574	193.298	197.358	310.422	194.756	-8191	255	
1005.210	1	1	0	0	0.41425	0.15163	0.090602	0.13228	0.081936	0.30805	0.26533	0.11473	0.19744	0.22323	0.043511	0.13739	0.1118	0.14862	0.13355	0.32376	-2.2792	-2.9083	-2.3667	-3.0438	-2.8333	-2.7229	-3.1167	-2.6042	-2.7792	-2.9896	-2.5208	-2.7521	-2.8042	-2.5792	-3.0771	-2.6896	254.626	325.254	401.656	488.167	260.991	201.814	263.158	525.675	234.704	490.762	234.632	386.663	479.225	362.981	223.403	177.539	0.00017943	0.00038817	3.6331e-05	408.8	2.0474e-06	1.1581e-06	461.08	94.605	1.2866e-06	1.4426e-06	129.04	37.818	26.295	11.28	1.7302e-06	19.306	0.00013801	0.00011851	3.457e-05	400.62	1.3266e-06	1.2602e-06	455.77	93.543	1.2885e-06	1.2348e-06	127.24	37.723	26.245	11.325	1.229e-06	19.27	231.512	246.614	289.402	182.027	359.393	313.845	181.760	188.234	273.234	430.278	186.285	191.794	192.860	197.437	319.728	195.136	-8191	255	
1005.307	1	1	0	0	0.17101	0.1829	0.13523	0.24339	0.11097	0.12888	0.1293	0.0076953	0.32778	0.16396	0.18157	0.11057	0.11515	0.2385	0.12547	0.13442	-2.2	-3.1083	-2.5521	-3.1458	-2.825	-2.5687	-3.2167	-2.8417	-2.6729	-3.0125	-2.7292	-3.0062	-2.9208	-2.4833	-2.9813	-2.7229	468.445	247.270	400.454	454.234	387.489	413.988	388.309	210.548	380.322	369.414	187.146	338.356	386.852	230.894	301.270	474.926	0.00017976	0.0001731	3.2279e-05	404.32	1.0361e-06	1.1025e-06	464.22	93.907	8.4698e-07	2.8869e-06	127.16	37.673	26.274	11.306	3.3586e-06	19.58	0.0001332	0.00011073	3.2582e-05	400.29	1.2663e-06	1.2581e-06	457.6	93.362	1.2015e-06	1.2425e-06	126.76	37.846	26.298	11.304	1.3144e-06	19.393	229.469	247.624	234.262	181.913	308.595	431.845	181.521	188.094	300.998	261.521	186.244	191.884	192.607	197.263	323.386	194.630	-8191	255	
1005.403	1	1	0	0	0.14582	0.10271	0.1524	0.11461	0.37053	0.23923	0.17239	0.13367	0.078215	0.1143	0.4483	0.17161	0.23336	0.073011	0.1061	0.073062	-2.1937	-2.8979	-2.6271	-2.8625	-2.8583	-2.6063	-3.1	-2.9062	-2.5792	-3.1104	-2.8167	-2.7771	-2.8875	-2.575	-2.9604	-2.9437	190.493	465.119	337.707	421.160	275.442	378.910	402.872	508.608	387.466	457.315	438.469	378.118	308.279	263.516	359.468	200.950	0.00015274	0.00010542	7.1889e-05	408.29	6.1704e-07	4.9059e-07	466.23	94.361	1.2081e-06	3.4783e-06	130.67	38.566	26.764	11.477	2.6153e-06	19.814	0.00013615	0.00010857	3.1667e-05	401.4	1.2421e-06	1.2376e-06	458.86	94.158	1.2457e-06	1.1036e-06	128.79	38.497	26.64	11.476	1.1989e-06	19.862	230.528	236.024	216.169	181.835	435.978	281.728	181.650	187.834	327.323	314.417	186.875	191.492	193.352	197.457	282.005	195.104	-8191	255	
1005.499	1	1	0	0	0.050642	0.20632	0.2736	0.21471	0.069156	0.079725	0.33048	0.11562	0.31321	0.16001	0.24337	0.13564	0.047992	0.030247	0.032852	0.090929	-2.1312	-3.1354	-2.5417	-2.8229	-3.05	-2.5042	-2.9896	-2.7	-2.4583	-2.8875	-2.7479	-2.5583	-3.0979	-2.3812	-2.8125	-2.8375	332.930	211.928	225.837	396.478	420.478	456.137	459.969	260.358	398.100	181.329	185.749	528.755	484.430	480.274	470.925	446.076	0.0001927	0.0001007	8.3005e-05	411.29	1.92e-06	1.2934e-06	469.37	96.571	1.1807e-06	1.7095e-06	133.02	39.642	27.031	11.814	2.8129e-06	20.485	0.00012922	0.00010496	2.8121e-05	405.02	1.1141e-06	1.0353e-06	465.19	96.11	1.1065e-06	1.0432e-06	132.07	39.7	27.131	11.823	1.1083e-06	20.406	223.170	266.431	249.440	181.610	308.200	342.425	181.383	188.010	253.602	334.136	186.570	191.341	193.169	197.230	301.727	194.548	-8191	255	
1005.620	1	1	0	0	0.30335	0.15422	0.19956	0.23463	0.049728	0.16251	0.048236	0.19243	0.30264	0.10988	0.025905	0.13685	0.0048558	0.14525	0.090053	0.14327	-2.2229	-3.0438	-2.7396	-2.6208	-2.8375	-2.575	-2.7958	-2.9021	-2.45	-2.8083	-2.775	-2.6771	-3.0708	-2.7083	-2.8229	-2.9958	416.184	501.017	293.302	278.110	389.822	335.396	442.515	432.690	210.619	328.379	257.371	420.054	528.601	246.268	409.386	317.130	0.00018372	0.00020527	3.7443e-05	410.98	1.2167e-06	1.0755e-06	467.82	96.101	5.1575e-07	1.7556e-06	131.64	39.094	26.824	11.568	1.9731e-06	19.828	0.00012525	9.801e-05	2.863e-05	405.29	1.1959e-06	1.1174e-06	463.4	95.157	1.2106e-06	1.1967e-06	130.11	38.877	26.746	11.63	1.204e-06	19.858	229.359	226.598	234.530	182.010	327.919	281.647	181.698	187.865	288.278	288.488	186.923	191.715	193.152	197.359	340.989	194.664	-8191	255	
1005.714	1	1	0	0	0.14006	0.058164	0.062101	0.154	0.12787	0.024264	0.17447	0.27421	0.019204	0.089811	0.22102	0.04927	0.14337	0.10984	0.19105	0.15659	-2.275	-2.8563	-2.7313	-2.6542	-3.1188	-2.5021	-2.8	-2.8688	-2.4125	-2.9771	-2.6896	-2.5729	-3.0625	-2.7208	-2.7708	-3.0083	490.080	345.929	279.905	488.867	413.859	229.044	208.179	522.119	372.226	384.534	488.689	459.139	338.038	175.756	401.448	211.885	0.00018797	0.00015346	4.7969e-05	408.75	1.6168e-06	2.7379e-06	465.79	95.214	1.743e-06	2.148e-06	127.17	37.84	26.03	11.266	1.6994e-06	19.274	0.00012831	0.00011552	2.9808e-05	403.56	1.2853e-06	1.3111e-06	459.82	94.355	1.3358e-06	1.2812e-06	126.89	37.764	26.097	11.285	1.3354e-06	19.198	228.636	290.229	276.444	182.176	354.288	326.926	181.508	188.111	342.727	291.144	186.509	191.609	192.827	197.467	329.127	194.946	-8191	255	
1005.810	1	1	0	0	0.1248	0.29851	0.080525	0.11093	0.15884	0.23724	0.42071	0.077844	0.25141	0.11367	0.29876	0.036763	0.10339	0.2488	0.17466	0.15241	-2.0708	-2.7917	-2.7521	-2.4188	-2.9521	-2.6604	-2.5625	-3.0292	-2.4583	-2.9667	-2.9083	-2.5917	-2.9958	-2.6688	-2.5604	-3.1167	210.932	180.665	316.870	201.583	355.263	334.829	512.019	304.355	484.187	290.053	485.635	436.689	230.122	453.856	185.300	351.332	0.00016345	0.00029519	6.4601e-05	398.35	4.5334e-07	1.4567e-06	458.49	92.946	1.7148e-06	2.3026e-06	126.26	36.886	25.533	10.973	1.7513e-06	18.698	0.00014091	0.00012901	3.4191e-05	397.13	1.4173e-06	1.4564e-06	451.21	92.261	1.4954e-06	1.5076e-06	125.11	36.945	25.673	11.022	1.5235e-06	18.81	223.971	244.854	314.742	181.905	440.967	287.754	181.478	187.727	299.793	254.445	186.653	191.780	193.522	197.540	274.240	194.881	-8191	255	
1005.906	1	1	0	0	0.16923	0.28185	0.21263	0.19741	0.042228	0.11098	0.18613	0.048612	0.23465	0.078393	0.18566	0.16887	0.11729	0.12566	0.13041	0.22698	-2.2104	-2.8521	-2.8792	-2.6208	-2.9938	-2.6396	-2.5	-3.0625	-2.5729	-2.8875	-2.975	-2.4542	-2.9792	-2.6521	-2.7812	-3.0875	504.633	502.103	294.721	417.999	410.915	218.770	408.714	479.400	424.483	453.554	177.606	189.927	260.284	348.481	272.033	508.290	0.00018096	0.00024097	2.0267e-05	401	5.8072e-07	1.8236e-06	452.48	92.483	2.3576e-06	1.3184e-06	124.98	36.587	25.452	10.757	1.9878e-06	18.558	0.0001539	0.00014413	4.1869e-05	395.23	1.578e-06	1.6157e-06	447.45	91.52	1.6689e-06	1.6325e-06	123.36	36.522	25.342	10.802	1.5977e-06	18.582	231.564	232.951	313.611	181.881	429.218	252.740	181.984	188.151	320.509	323.411	187.130	191.449	193.273	197.783	322.618	195.021	-8191	255	
#DATA ENDS
