BOXY.EXE: ISS Imagent and Oximeter Data Acquisition Program Version 0.80
Ascii Record File

#ACQ INFORMATION
2  Detector Channels 
16  External MUX Channels 
1  Auxiliary Channels 
5000  Waveform (CCF) Frequency (Hz)
1  Waveforms Skipped 
30  Waveforms Averaged 
1  Cycles Averaged 
16  Acquisitions per Waveform 
10.0806  Updata Rate (Hz) 

#FILE INFORMATION
TRUE -- External MUX Channel results are PARSED.
FALSE -- AC DC and Phase are NOT grouped.
TRUE -- Companion Program Settings File CREATED.
FALSE -- AC data not excluded
FALSE -- DC data not excluded
FALSE -- Phase data not excluded
FALSE -- Auxillary Chn. data not excluded
Tab delimiters

#CALIBRATION STATE
TRUE -- Waveform Calibration Values APPLIED.


#AUX CALIBRATION VALUES
Val Type	aux-1	

Term	1.0000e+00	
Factor	0.0000e+00	


#WF CALIBRATION VALUES
A = Detector Channel
Val Type	A-AC1	A-AC2	A-AC3	A-AC4	A-AC5	A-AC6	A-AC7	A-AC8	A-AC9	A-AC10	A-AC11	A-AC12	A-AC13	A-AC14	A-AC15	A-AC16	A-DC1	A-DC2	A-DC3	A-DC4	A-DC5	A-DC6	A-DC7	A-DC8	A-DC9	A-DC10	A-DC11	A-DC12	A-DC13	A-DC14	A-DC15	A-DC16	A-Ph1	A-Ph2	A-Ph3	A-Ph4	A-Ph5	A-Ph6	A-Ph7	A-Ph8	A-Ph9	A-Ph10	A-Ph11	A-Ph12	A-Ph13	A-Ph14	A-Ph15	A-Ph16	

Term	0.00000e+00	0.00000e+00	0.00000e+00	0.00000e+00	0.00000e+00	0.00000e+00	0.00000e+00	0.00000e+00	0.00000e+00	0.00000e+00	0.00000e+00	0.00000e+00	0.00000e+00	0.00000e+00	0.00000e+00	0.00000e+00	0.00000e+00	0.00000e+00	0.00000e+00	0.00000e+00	0.00000e+00	0.00000e+00	0.00000e+00	0.00000e+00	0.00000e+00	0.00000e+00	0.00000e+00	0.00000e+00	0.00000e+00	0.00000e+00	0.00000e+00	0.00000e+00	0.00000e+00	0.00000e+00	0.00000e+00	0.00000e+00	0.00000e+00	0.00000e+00	0.00000e+00	0.00000e+00	0.00000e+00	0.00000e+00	0.00000e+00	0.00000e+00	0.00000e+00	0.00000e+00	0.00000e+00	0.00000e+00	
Factor	1.00000e+00	1.00000e+00	1.00000e+00	1.00000e+00	1.00000e+00	1.00000e+00	1.00000e+00	1.00000e+00	1.00000e+00	1.00000e+00	1.00000e+00	1.00000e+00	1.00000e+00	1.00000e+00	1.00000e+00	1.00000e+00	1.00000e+00	1.00000e+00	1.00000e+00	1.00000e+00	1.00000e+00	1.00000e+00	1.00000e+00	1.00000e+00	1.00000e+00	1.00000e+00	1.00000e+00	1.00000e+00	1.00000e+00	1.00000e+00	1.00000e+00	1.00000e+00	X	X	X	X	X	X	X	X	X	X	X	X	X	X	X	X	

B = Detector Channel
Val Type	B-AC1	B-AC2	B-AC3	B-AC4	B-AC5	B-AC6	B-AC7	B-AC8	B-AC9	B-AC10	B-AC11	B-AC12	B-AC13	B-AC14	B-AC15	B-AC16	B-DC1	B-DC2	B-DC3	B-DC4	B-DC5	B-DC6	B-DC7	B-DC8	B-DC9	B-DC10	B-DC11	B-DC12	B-DC13	B-DC14	B-DC15	B-DC16	B-Ph1	B-Ph2	B-Ph3	B-Ph4	B-Ph5	B-Ph6	B-Ph7	B-Ph8	B-Ph9	B-Ph10	B-Ph11	B-Ph12	B-Ph13	B-Ph14	B-Ph15	B-Ph16	

Term	0.00000e+00	0.00000e+00	0.00000e+00	0.00000e+00	0.00000e+00	0.00000e+00	0.00000e+00	0.00000e+00	0.00000e+00	0.00000e+00	0.00000e+00	0.00000e+00	0.00000e+00	0.00000e+00	0.00000e+00	0.00000e+00	0.00000e+00	0.00000e+00	0.00000e+00	0.00000e+00	0.00000e+00	0.00000e+00	0.00000e+00	0.00000e+00	0.00000e+00	0.00000e+00	0.00000e+00	0.00000e+00	0.00000e+00	0.00000e+00	0.00000e+00	0.00000e+00	-3.43671e-01	-1.28886e+02	-1.25619e+02	-1.82862e+02	-5.71745e+01	-6.81809e+01	-1.60871e+02	-1.62015e+02	-3.19388e+01	-6.41406e+01	-1.72576e+02	-1.72478e+02	-1.82445e+02	-1.78185e+02	-5.29652e+01	-1.51172e+02	
Factor	3.74574e-05	1.65184e-04	5.15718e-05	1.65372e-01	2.41300e-06	1.69649e-06	1.91291e-01	5.90050e-02	2.23131e-06	1.72544e-06	9.08189e-02	3.18365e-02	2.88288e-02	9.23025e-03	2.06985e-06	1.33595e-02	8.31791e-06	1.05830e-05	2.94811e-06	8.55080e-02	1.10851e-07	1.17203e-07	9.29119e-02	3.05842e-02	1.10972e-07	1.16886e-07	4.57212e-02	1.59736e-02	1.50964e-02	4.83111e-03	1.13233e-07	6.77596e-03	X	X	X	X	X	X	X	X	X	X	X	X	X	X	X	X	



#DISTANCE SETTINGS
A = Detector Channel
A-1	A-2	A-3	A-4	A-5	A-6	A-7	A-8	A-9	A-10	A-11	A-12	A-13	A-14	A-15	A-16	

2.5000e+00	3.0000e+00	2.5000e+00	3.0000e+00	2.0000e+00	3.0000e+00	1.5000e+00	3.0000e+00	3.0000e+00	3.0000e+00	3.0000e+00	3.0000e+00	3.0000e+00	3.0000e+00	1.5000e+00	3.0000e+00	

B = Detector Channel
B-1	B-2	B-3	B-4	B-5	B-6	B-7	B-8	B-9	B-10	B-11	B-12	B-13	B-14	B-15	B-16	

1.0000e+01	1.0000e+01	1.0000e+01	1.4400e+00	1.0000e+01	1.0000e+01	1.5100e+00	1.9400e+00	1.0000e+01	1.0000e+01	1.9900e+00	2.4900e+00	2.4100e+00	2.9000e+00	1.0000e+01	2.9800e+00	




#DATA BEGINS
time	group	step	mark	flag	A-AC1	A-AC2	A-AC3	A-AC4	A-AC5	A-AC6	A-AC7	A-AC8	A-AC9	A-AC10	A-AC11	A-AC12	A-AC13	A-AC14	A-AC15	A-AC16	A-DC1	A-DC2	A-DC3	A-DC4	A-DC5	A-DC6	A-DC7	A-DC8	A-DC9	A-DC10	A-DC11	A-DC12	A-DC13	A-DC14	A-DC15	A-DC16	A-Ph1	A-Ph2	A-Ph3	A-Ph4	A-Ph5	A-Ph6	A-Ph7	A-Ph8	A-Ph9	A-Ph10	A-Ph11	A-Ph12	A-Ph13	A-Ph14	A-Ph15	A-Ph16	B-AC1	B-AC2	B-AC3	B-AC4	B-AC5	B-AC6	B-AC7	B-AC8	B-AC9	B-AC10	B-AC11	B-AC12	B-AC13	B-AC14	B-AC15	B-AC16	B-DC1	B-DC2	B-DC3	B-DC4	B-DC5	B-DC6	B-DC7	B-DC8	B-DC9	B-DC10	B-DC11	B-DC12	B-DC13	B-DC14	B-DC15	B-DC16	B-Ph1	B-Ph2	B-Ph3	B-Ph4	B-Ph5	B-Ph6	B-Ph7	B-Ph8	B-Ph9	B-Ph10	B-Ph11	B-Ph12	B-Ph13	B-Ph14	B-Ph15	B-Ph16	aux-1	digaux	

7949.462	1	1	0	768	0.27838	0.15836	0.056651	0.34022	0.14806	0.044477	0.22941	0.11251	0.29493	0.11123	0.37816	0.17146	0.09233	0.23071	0.097365	0.031083	-2.125	-2.9458	-2.6333	-2.8875	-2.9125	-2.4771	-3.0563	-2.7667	-2.4	-2.9875	-2.6396	-2.7167	-2.925	-2.7292	-2.9437	-2.8312	147.067	302.962	93.933	314.584	369.336	46.415	329.518	382.029	260.424	267.443	374.579	30.885	191.390	348.764	373.381	308.186	0.00080853	0.00088518	0.00015932	1088.7	1.3605e-05	2.9635e-06	1205	298.05	6.3828e-06	5.5994e-06	407.42	176.44	111.48	48.85	8.516e-06	69.571	0.0013861	0.0015654	0.00044144	1016.3	1.6245e-05	1.7365e-05	1118.2	280.08	1.6625e-05	1.6956e-05	383.02	165.46	105.14	46.34	1.6813e-05	65.403	278.598	132.847	64.588	41.314	273.500	262.424	41.111	47.333	140.064	189.357	45.426	50.510	51.491	55.965	162.218	53.636	-8191	255	
7949.558	1	1	0	0	0.022662	0.14547	0.10744	0.043393	0.028148	0.21011	0.15271	0.31395	0.34405	0.25847	0.046362	0.14878	0.24431	0.24163	0.094216	0.22467	-1.8917	-2.8542	-2.5646	-2.7062	-2.9042	-2.4813	-3.1	-2.8187	-2.4396	-2.9146	-2.6125	-2.8958	-3	-2.7938	-2.9396	-2.8229	367.354	241.129	118.079	144.051	301.075	384.963	339.283	320.196	158.886	359.694	42.591	357.469	316.542	42.725	161.854	375.947	0.00097295	0.00036442	0.00025274	1092.5	1.5198e-05	4.5917e-06	1194.6	299.71	1.0264e-05	9.9974e-06	408.36	176.35	111.27	49.01	1.4063e-05	69.777	0.0014008	0.0015438	0.00043504	1019	1.6521e-05	1.7011e-05	1116.6	280.61	1.6151e-05	1.7073e-05	383.11	165.76	105.07	46.548	1.6703e-05	65.765	275.586	125.221	112.141	41.544	183.475	110.772	41.329	47.436	205.817	176.622	45.017	50.579	51.536	55.945	196.103	53.765	-8191	255	
7949.654	1	1	0	0	0.15977	0.24328	0.14712	0.11124	0.14764	0.087266	0.29871	0.26589	0.26435	0.052583	0.094267	0.31248	0.18024	0.16025	0.23881	0.23374	-1.8833	-2.9938	-2.5542	-2.4979	-2.9771	-2.4896	-3.0438	-3.1146	-2.5062	-2.9521	-2.7458	-2.7292	-3.0792	-2.5521	-3.0021	-3.1604	329.443	253.923	374.297	262.621	307.383	327.542	334.726	335.217	179.854	369.894	78.384	364.300	324.461	382.027	281.226	31.966	0.00093027	0.00081443	0.00019704	1094.5	4.4307e-06	9.539e-06	1205.2	297.86	1.1406e-05	3.2519e-06	411.41	177.82	111.64	49.227	7.6569e-06	70.089	0.0013818	0.0014813	0.00042213	1018.6	1.6152e-05	1.7045e-05	1119.4	280.78	1.6066e-05	1.6434e-05	384.57	166.49	105.57	46.729	1.6393e-05	66.042	271.294	115.641	126.034	41.569	246.459	183.809	40.812	47.363	263.852	138.210	45.106	50.614	51.478	55.992	151.070	53.754	-8191	255	
7949.750	1	1	0	0	0.16348	0.24438	0.096977	0.2461	0.15138	0.12067	0.16487	0.34275	0.043546	0.19887	0.3357	0.3334	0.2316	0.23428	0.15484	0.29683	-2.0354	-2.9333	-2.8896	-2.9125	-3.1417	-2.7083	-2.7979	-2.9771	-2.5146	-2.9667	-2.8	-2.6708	-3.0542	-2.7438	-2.6104	-3.2354	231.217	170.914	328.954	357.876	39.269	230.310	46.447	323.441	40.330	108.746	44.107	335.416	312.941	350.779	386.638	328.464	0.00066241	0.00045458	0.00025107	1090.6	9.3654e-06	8.1285e-06	1193.2	299.55	1.1914e-05	6.5225e-06	405.51	177.38	111.52	48.577	1.097e-05	69.057	0.0013408	0.0015263	0.00041349	1015.2	1.5363e-05	1.6714e-05	1111	280.15	1.5713e-05	1.6278e-05	380.5	165.45	105.13	46.284	1.5778e-05	65.382	279.940	118.369	156.445	41.328	154.245	157.422	41.057	47.185	182.904	177.529	45.125	50.502	51.334	56.027	204.498	53.785	-8191	255	
7949.847	1	1	0	0	0.24109	0.15904	0.13412	0.15956	0.2041	0.157	0.21495	0.17654	0.15615	0.30366	0.099262	0.33127	0.18634	0.21628	0.062102	0.40234	-2.1813	-2.9313	-2.6896	-2.6271	-2.9542	-2.5917	-2.8646	-3.0687	-2.6063	-2.825	-2.9604	-2.3292	-2.9437	-2.8417	-2.5687	-3.1	70.849	150.365	248.201	373.473	168.161	108.267	384.428	350.240	263.570	248.482	72.351	31.368	347.545	36.128	170.278	332.857	0.00096989	0.0010233	0.00011858	1085.7	1.2237e-05	6.8235e-06	1189.9	298.64	1.6705e-05	9.828e-06	405.87	177.21	112.08	48.964	1.1858e-05	69.562	0.0012844	0.0014631	0.00039777	1009	1.4956e-05	1.5704e-05	1108	278.98	1.4753e-05	1.5222e-05	381.74	165.69	105.33	46.513	1.4876e-05	65.666	270.304	73.315	116.597	41.495	153.838	186.054	41.005	47.416	249.884	180.190	45.257	50.758	51.482	55.941	208.085	53.612	-8191	255	
7949.943	1	1	0	0	0.15516	0.17069	0.06193	0.1075	0.052499	0.11238	0.036127	0.039244	0.16476	0.30798	0.0398	0.31012	0.40408	0.1786	0.096615	0.20852	-2.1792	-2.6833	-2.8542	-2.6479	-2.9729	-2.8271	-2.6604	-3.0667	-2.6292	-2.7521	-2.9417	-2.6813	-3.025	-2.8792	-2.4729	-3.1875	162.302	130.384	300.945	369.492	117.138	79.811	302.139	386.119	228.379	96.995	276.713	388.339	41.885	355.548	374.038	294.925	0.00094193	0.00036769	0.0001793	1086.8	8.0452e-06	6.5171e-06	1189.6	297.84	8.8164e-06	3.5646e-06	405.18	176.22	112.07	48.883	3.5685e-06	69.268	0.0012649	0.0013931	0.0003932	1008.4	1.4555e-05	1.5601e-05	1107.7	279.59	1.4739e-05	1.5684e-05	380.29	165.16	105.29	46.414	1.5181e-05	65.521	271.536	120.766	129.238	41.491	183.963	191.443	40.891	47.552	158.482	169.361	44.977	50.301	51.762	56.160	305.669	53.769	-8191	255	
7950.063	1	1	0	0	0.042324	0.11816	0.05394	0.33303	0.12149	0.049119	0.18164	0.36127	0.22606	0.17925	0.13086	0.22672	0.28241	0.16223	0.19168	0.086421	-2.1167	-2.6562	-2.8375	-2.5687	-2.9104	-2.7521	-2.5146	-3.1583	-2.6667	-2.7208	-3.1	-2.5875	-2.8646	-2.7958	-2.6458	-3.0396	134.920	115.242	271.011	344.895	254.280	364.952	386.141	313.390	49.807	385.525	341.214	383.080	348.667	299.976	254.933	127.193	0.0010255	0.00034563	0.00013839	1085	8.1225e-06	4.9745e-06	1185.8	298.31	7.079e-06	8.6361e-06	406.07	177.2	111.15	48.808	9.0889e-06	69.061	0.0012969	0.0013919	0.00038385	1005.9	1.4604e-05	1.5375e-05	1102.6	279.45	1.456e-05	1.5152e-05	380.98	165.57	104.83	46.282	1.4421e-05	65.263	267.341	108.074	72.255	41.249	242.242	167.179	40.878	47.302	224.495	172.980	45.206	51.002	51.397	56.288	191.960	54.051	-8191	255	
7950.159	1	1	0	0	0.13757	0.14447	0.052174	0.1674	0.087288	0.12619	0.21669	0.065702	0.060541	0.10821	0.14229	0.36807	0.20177	0.21634	0.074735	0.23254	-2.0896	-2.6562	-3.0021	-2.7625	-2.9375	-2.9	-2.5646	-3.0417	-2.7917	-2.4375	-3.2354	-2.6708	-2.6958	-2.95	-2.5979	-2.9083	141.386	208.525	237.596	328.941	162.637	86.940	314.215	144.129	276.871	241.587	295.913	314.017	374.266	385.443	345.679	334.829	0.00087895	0.00054671	0.00020195	1075.7	1.1943e-05	7.7909e-06	1182.2	296.24	1.1455e-05	4.4095e-06	403.13	174.99	110.22	48.142	7.1566e-06	68.457	0.0012671	0.0013636	0.00037588	1002.4	1.4751e-05	1.4644e-05	1097.8	278.46	1.4255e-05	1.5068e-05	379.47	163.98	104.35	45.75	1.4631e-05	64.436	284.269	111.548	122.442	41.396	203.081	199.785	40.955	47.260	227.143	254.373	45.219	50.286	51.619	55.839	232.459	53.819	-8191	255	
7950.256	1	1	0	0	0.20067	0.074739	0.24021	0.31021	0.21226	0.18908	0.44748	0.14777	0.1029	0.12306	0.086971	0.18794	0.19979	0.046773	0.16433	0.16028	-2.2104	-2.575	-3.0042	-2.8042	-2.5979	-3.075	-2.6396	-3.0458	-2.6479	-2.3792	-3.0438	-2.6813	-2.8167	-2.8937	-2.6458	-2.9042	65.418	90.063	90.885	360.360	42.050	140.110	316.019	269.274	33.382	384.946	386.545	348.457	379.896	273.402	344.138	294.843	0.00087166	0.00077397	0.00010043	1069.1	7.6206e-06	5.7774e-06	1176.1	298.97	1.2022e-05	5.2851e-06	406.05	175.78	110	48.307	1.087e-05	68.448	0.001249	0.0013553	0.00037942	1001.2	1.4653e-05	1.4983e-05	1098.2	279.18	1.4598e-05	1.5272e-05	380.3	163.8	104.02	45.75	1.5088e-05	64.49	271.818	112.289	376.705	41.402	199.736	188.667	41.017	47.119	257.665	184.587	45.385	50.674	51.417	56.140	200.926	54.017	-8191	255	
7950.352	1	1	0	0	0.13425	0.21024	0.10151	0.38381	0.15399	0.33297	0.23092	0.13055	0.25708	0.30696	0.18863	0.089861	0.17639	0.26912	0.093648	0.087185	-2.4208	-2.5458	-2.8375	-2.6354	-2.7125	-3.0312	-2.7313	-2.9458	-2.7271	-2.5458	-3.1	-2.7167	-2.4708	-3.0354	-2.45	-2.8792	374.238	314.580	373.611	307.615	86.260	79.000	289.408	334.290	358.340	311.565	363.787	319.441	56.637	43.549	160.042	244.293	0.00083458	0.00075948	8.2592e-05	1075.8	7.6263e-06	6.1456e-06	1193.1	298.13	8.1303e-06	4.9909e-06	407.76	174.93	111.38	48.334	5.0548e-06	69.147	0.0012676	0.0013749	0.00038653	1004.7	1.4878e-05	1.521e-05	1103	280	1.4771e-05	1.5472e-05	381.74	164.04	104.77	46.006	1.5135e-05	65.103	273.412	158.157	169.205	41.261	155.243	186.898	40.900	47.553	245.715	199.341	45.419	50.528	51.635	55.837	189.577	54.006	-8191	255	
7950.448	1	1	0	0	0.15057	0.0097487	0.16313	0.34496	0.12492	0.19081	0.278	0.19548	0.17472	0.24621	0.28706	0.148	0.036676	0.1489	0.075505	0.21821	-2.2	-2.2479	-2.8854	-2.8083	-2.5417	-2.9146	-2.6562	-2.9	-2.8937	-2.3979	-3.0208	-2.5062	-2.5854	-3.0021	-2.5792	-2.7938	61.283	136.867	43.705	343.612	273.909	252.185	370.146	105.940	277.606	92.671	357.128	355.383	290.375	338.584	286.264	294.078	0.00081127	0.0006228	0.00017018	1084.8	6.3811e-06	2.4779e-06	1198.7	300.93	5.449e-06	5.0303e-06	411.08	176.72	111.78	48.718	3.2804e-06	69.669	0.0012657	0.0014137	0.00039388	1012.1	1.4867e-05	1.5248e-05	1109.5	281.56	1.4777e-05	1.5409e-05	384.66	166.01	105.42	46.304	1.5319e-05	65.529	277.629	108.742	148.559	41.351	164.892	177.865	40.828	47.542	206.359	134.335	45.429	50.838	51.526	55.941	170.420	53.976	-8191	255	
7950.542	1	1	0	0	0.11382	0.34074	0.19988	0.2612	0.1967	0.054986	0.091386	0.20679	0.059876	0.19813	0.024018	0.25652	0.22235	0.22445	0.17557	0.23895	-2.4146	-2.3354	-2.8354	-2.5375	-2.5458	-2.9167	-2.6396	-2.8021	-2.7979	-2.4833	-2.7354	-2.7396	-2.5125	-3.1229	-2.4792	-2.6771	315.171	174.933	251.305	84.181	46.229	388.337	353.937	203.907	219.393	280.401	370.211	372.144	71.995	33.599	195.556	336.182	0.00094425	0.00066625	0.00022186	1092.2	9.3045e-06	2.2857e-06	1203.7	302.77	6.8573e-06	6.8783e-06	411.78	176.84	112.28	48.986	6.8387e-06	68.945	0.0012468	0.001394	0.0004018	1016.1	1.5024e-05	1.5747e-05	1115.7	282.78	1.4548e-05	1.5528e-05	385.5	165.67	105.89	46.386	1.5599e-05	65.14	273.790	71.899	74.769	41.473	255.975	237.435	40.972	47.580	174.586	207.519	45.258	50.515	51.455	56.119	198.783	53.695	-8191	255	
7950.663	1	1	0	0	0.16777	0.026461	0.13346	0.12697	0.06651	0.18271	0.12965	0.25605	0.05691	0.18817	0.14714	0.25897	0.27217	0.15193	0.22612	0.21191	-2.6354	-2.5271	-2.8063	-2.8271	-2.4979	-3.0271	-2.8021	-2.6521	-3.0375	-2.4896	-2.9313	-2.9542	-2.4688	-3.0563	-2.6875	-2.5896	339.369	342.574	353.762	287.125	286.299	60.586	307.429	357.941	178.112	164.706	32.639	342.023	347.005	348.062	138.529	377.173	0.00086137	0.0002856	0.00031872	1095.6	3.3217e-06	6.2071e-06	1203.2	301.24	6.6765e-06	6.0722e-06	409.04	177.51	112.36	48.855	9.0311e-06	68.653	0.0012711	0.0014699	0.0003975	1019.9	1.518e-05	1.5844e-05	1117.6	283.38	1.5192e-05	1.5973e-05	383.74	166.24	105.99	46.347	1.6064e-05	65.164	277.264	131.817	105.181	41.574	180.788	388.739	41.166	47.649	211.786	179.745	45.199	50.346	51.653	56.045	222.010	53.577	-8191	255	
7950.759	1	1	0	0	0.13884	0.15575	0.22867	0.1932	0.23017	0.082692	0.30358	0.3402	0.12458	0.074934	0.17439	0.04351	0.19057	0.27976	0.065687	0.32074	-2.525	-2.4333	-2.7979	-2.7771	-2.5396	-2.8917	-2.6354	-2.5396	-2.9417	-2.5896	-2.7042	-2.9979	-2.4479	-2.9583	-2.7542	-2.5792	305.339	163.206	140.887	350.649	193.345	181.353	381.025	342.427	296.359	169.597	317.731	269.036	385.891	287.541	86.069	375.454	0.00087849	0.00091964	2.1037e-05	1092.1	1.2851e-05	8.155e-06	1202.3	302.44	4.8429e-06	2.2874e-06	408.61	176.28	111.51	48.556	1.3748e-05	68.555	0.001332	0.0014999	0.00041374	1017.3	1.5595e-05	1.6872e-05	1116.5	282.53	1.5535e-05	1.6455e-05	384.06	165.5	105.58	46.198	1.6356e-05	64.965	267.478	127.082	177.068	41.515	188.476	169.470	40.837	47.216	186.146	156.763	45.387	50.485	51.380	56.208	199.190	53.770	-8191	255	
7950.855	1	1	0	0	0.13598	0.10669	0.053496	0.21093	0.13524	0.23954	0.15539	0.13334	0.079513	0.14738	0.095571	0.12594	0.049402	0.17735	0.30109	0.33166	-2.5	-2.3354	-2.7062	-3.1188	-2.3896	-2.8	-3.0417	-2.5729	-2.9521	-2.6375	-2.6813	-2.9458	-2.4021	-2.9583	-2.7083	-2.5417	294.443	140.127	160.397	323.961	364.398	356.623	308.059	326.113	196.705	238.847	169.785	220.782	169.530	298.322	300.686	308.146	0.0008988	0.00073814	0.0002246	1092.1	2.5653e-06	6.795e-06	1203.9	300.88	1.3372e-05	3.6963e-06	408.7	177.85	112.25	48.636	1.0985e-05	69.027	0.0013296	0.0014947	0.00041681	1018.5	1.5488e-05	1.6587e-05	1118	282.66	1.5398e-05	1.6178e-05	384.1	165.98	105.81	46.323	1.6341e-05	65.188	272.045	122.683	72.945	41.626	126.306	183.360	40.926	47.345	181.030	145.983	45.490	50.876	51.661	55.952	213.338	53.927	-8191	255	
7950.951	1	1	0	0	0.18495	0.14169	0.083705	0.17947	0.18459	0.13691	0.024806	0.33459	0.27264	0.16342	0.2107	0.28238	0.13108	0.19418	0.28072	0.23741	-2.5604	-2.7208	-2.5729	-3.0875	-2.55	-2.7104	-2.8875	-2.6688	-2.9729	-2.525	-2.5438	-3.0354	-2.6875	-3.0312	-2.7771	-2.5208	191.957	374.835	147.617	76.649	101.921	272.339	87.793	273.368	373.856	175.203	145.865	357.344	281.995	334.394	367.794	382.978	0.0010091	0.00065103	0.00010028	1089.1	1.5846e-05	3.3799e-06	1197.9	299.38	2.7593e-06	2.0937e-06	409.82	175.83	110.1	48.418	7.701e-06	68.094	0.0013491	0.001473	0.00041993	1014.8	1.5839e-05	1.6141e-05	1113.4	282.08	1.5747e-05	1.6595e-05	383.27	164.32	104.72	45.954	1.5937e-05	64.416	282.184	135.844	58.767	41.549	178.099	245.516	40.852	47.530	144.693	184.208	44.955	50.461	51.667	56.157	223.537	53.885	-8191	255	
7951.023	1	1	0	0	0.13739	0.21644	0.1329	0.22611	0.31797	0.055525	0.24336	0.11149	0.23314	0.20214	0.17044	0.26097	0.22303	0.52822	0.11665	0.21845	-2.4771	-2.8854	-2.4688	-3.1542	-2.5458	-2.8167	-2.8875	-2.4458	-2.8312	-2.575	-2.5062	-2.9583	-2.5812	-2.6271	-2.875	-2.5479	300.969	31.950	39.231	325.694	154.552	189.021	353.942	328.680	153.788	241.713	333.689	45.789	306.048	388.975	244.655	324.148	0.00085373	0.00060857	0.00023247	1088.7	9.5927e-06	7.5778e-06	1191.5	297.78	1.1058e-05	3.1733e-06	406.53	174.6	110.77	48.197	5.869e-06	68.426	0.0013355	0.0014871	0.0004205	1014	1.5706e-05	1.6375e-05	1109.2	282.16	1.5871e-05	1.6091e-05	382.35	163.94	104.8	45.923	1.5541e-05	64.635	275.706	106.390	124.232	41.348	230.894	212.250	40.652	47.568	217.335	102.397	45.129	50.499	51.515	56.163	213.424	53.761	-8191	255	
7951.144	1	1	0	0	0.14268	0.048962	0.08143	0.18202	0.30274	0.26564	0.23039	0.17141	0.32045	0.18152	0.10053	0.16518	0.20211	0.15737	0.19595	0.32635	-2.4292	-2.9375	-2.4313	-3.125	-2.5563	-2.7667	-3.0292	-2.575	-2.9104	-2.8688	-2.6479	-3.0812	-2.675	-2.7104	-2.9479	-2.5229	39.164	224.502	42.570	302.565	269.019	289.510	318.756	238.072	380.189	354.653	328.744	317.908	386.681	61.223	104.735	340.800	0.00080413	0.00094307	0.0002356	1085.6	9.9587e-06	4.2131e-06	1190.8	299.2	8.3784e-06	4.3857e-06	408.7	173.48	110.83	48.799	5.0076e-06	68.542	0.001306	0.0014311	0.00040282	1013.3	1.5763e-05	1.5877e-05	1108.8	281.55	1.5481e-05	1.6399e-05	383.58	163.53	104.65	46.153	1.576e-05	64.911	271.745	178.129	89.902	41.453	174.944	132.156	40.856	47.449	268.526	112.198	44.925	50.298	51.429	55.994	245.841	53.783	-8191	255	
7951.240	1	1	0	0	0.32324	0.087057	0.26185	0.18118	0.30557	0.29439	0.30217	0.15059	0.13642	0.012925	0.23401	0.22939	0.23721	0.26482	0.15652	0.10058	-2.3792	-2.8542	-2.3063	-3.025	-2.775	-2.3333	-3.1292	-2.6896	-2.5958	-2.8917	-2.5958	-2.8104	-2.7896	-2.5354	-2.8312	-2.6958	145.921	333.111	248.453	355.388	41.705	235.074	342.405	301.645	45.746	69.237	328.285	285.149	336.323	117.117	166.809	338.411	0.00082617	0.00082763	7.8089e-05	1078.6	6.8667e-06	7.5933e-06	1194.3	300.24	6.514e-06	7.6739e-06	411.7	174.59	110.68	48.903	7.2052e-06	68.933	0.0012791	0.0014335	0.00040268	1012.6	1.5536e-05	1.6143e-05	1113	282.5	1.5553e-05	1.5446e-05	385.26	164.36	105.08	46.381	1.5128e-05	65.322	275.993	150.683	345.524	41.377	249.056	176.226	40.946	47.539	283.065	207.973	45.158	50.079	51.592	55.845	206.582	53.783	-8191	255	
7951.336	1	1	0	0	0.1049	0.11779	0.030068	0.22402	0.10714	0.19467	0.29953	0.22369	0.22568	0.20463	0.067867	0.14682	0.058757	0.24861	0.2451	0.22308	-2.1896	-2.9833	-2.425	-3.2125	-2.7583	-2.6375	-2.9313	-2.6833	-2.7042	-3.1688	-2.3646	-2.9458	-2.8917	-2.6792	-2.9229	-2.8167	70.036	319.866	145.445	354.702	383.329	301.049	273.669	312.639	284.725	114.954	389.049	358.285	356.839	347.977	344.552	337.115	0.00082004	0.0011785	0.00035755	1090.3	8.6125e-06	5.6264e-06	1198.7	302.38	3.975e-06	5.0605e-06	407.79	174.88	111.55	48.567	9.0438e-07	68.913	0.0013109	0.0013988	0.00039204	1013.6	1.5026e-05	1.5588e-05	1114.5	282.48	1.4612e-05	1.5682e-05	384.31	163.97	104.93	46.119	1.5554e-05	65.074	283.958	149.914	95.847	41.495	216.537	183.801	41.150	47.371	209.013	143.643	45.143	50.676	51.496	56.249	221.227	54.009	-8191	255	
7951.432	1	1	0	0	0.09885	0.14107	0.16534	0.23949	0.13703	0.0095913	0.34921	0.27002	0.1216	0.14444	0.20516	0.14106	0.18524	0.15895	0.20966	0.19926	-2.2062	-2.9833	-2.6188	-2.8396	-2.7083	-2.5187	-2.9562	-2.5792	-2.4208	-3.0083	-2.6958	-2.8479	-2.7021	-2.5458	-2.8896	-2.7146	81.768	152.112	175.019	321.274	343.761	222.716	332.019	304.266	299.876	261.628	376.341	53.296	321.098	298.707	173.391	29.523	0.0009472	0.00068669	0.00018577	1085.2	4.6304e-06	5.2421e-06	1195.5	301	3.7962e-06	3.9448e-06	406.79	173.23	109.78	48.321	9.5879e-06	68.544	0.001276	0.0014337	0.00041046	1011.4	1.5328e-05	1.5838e-05	1112.2	282.15	1.5314e-05	1.592e-05	382.44	162.66	103.6	45.916	1.62e-05	64.797	282.202	129.061	153.434	41.591	379.546	217.932	41.193	47.448	267.613	196.425	45.241	50.582	51.648	56.145	197.598	54.028	-8191	255	
7951.551	1	1	0	0	0.40709	0.1175	0.13858	0.2954	0.2291	0.044089	0.46195	0.37195	0.10983	0.084118	0.20317	0.21777	0.15646	0.15253	0.13191	0.099757	-2.0875	-2.9708	-2.6833	-2.8167	-2.5729	-2.4896	-2.9646	-2.8937	-2.5167	-2.8979	-2.525	-2.9354	-2.9396	-2.5708	-2.7292	-2.875	255.612	238.176	211.785	89.583	147.076	61.452	386.596	330.432	304.084	261.012	264.657	335.568	342.991	354.847	211.359	309.469	0.00099152	0.00098911	0.00026533	1093.7	1.0256e-05	6.1609e-06	1198.1	300.85	1.0825e-05	6.8089e-06	406.17	175.03	110.3	48.175	1.269e-05	69.163	0.0013482	0.0014614	0.0004142	1016.4	1.5757e-05	1.6616e-05	1111.7	281.52	1.5771e-05	1.6276e-05	381.82	163.14	104.1	45.906	1.5815e-05	65.118	270.931	114.240	134.461	41.421	253.893	154.718	41.244	47.474	201.676	172.048	45.376	50.354	51.384	56.015	223.199	53.941	-8191	255	
7951.624	1	1	0	0	0.1215	0.14997	0.10186	0.22549	0.13068	0.13006	0.1953	0.065595	0.19691	0.10636	0.13244	0.22309	0.039142	0.2105	0.077838	0.23994	-2.0375	-2.8187	-2.5542	-2.75	-3.1042	-2.4125	-3.0187	-2.6917	-2.4646	-2.9042	-2.525	-2.8312	-2.9188	-2.5187	-2.6833	-2.8125	171.707	326.993	357.064	371.514	64.495	250.097	359.041	351.125	300.271	319.140	152.146	289.621	361.300	35.549	283.680	382.481	0.00088016	0.00072884	0.00029265	1090.3	1.3798e-05	3.3559e-06	1190.9	299.79	9.3832e-06	6.5922e-06	406.19	173.8	109.46	48.961	6.4216e-06	69.234	0.0013046	0.0014515	0.0004035	1016.7	1.5241e-05	1.5808e-05	1111.7	281.94	1.5166e-05	1.5877e-05	383.08	163.46	104.25	46.392	1.5526e-05	65.314	277.231	120.526	144.458	41.580	187.645	195.500	41.021	47.564	231.953	229.851	45.062	50.382	51.370	56.080	181.931	53.865	-8191	255	
7951.743	1	1	0	0	0.1341	0.10602	0.11427	0.096451	0.20043	0.041101	0.25512	0.17483	0.35036	0.26075	0.31262	0.099775	0.23919	0.13042	0.10933	0.25339	-2.0438	-2.7875	-2.4833	-2.6396	-2.8521	-2.4813	-2.8146	-2.8417	-2.4292	-2.8396	-2.6479	-2.6354	-3.0812	-2.6208	-2.5312	-2.9583	160.146	57.981	339.325	37.441	110.056	269.006	284.885	131.550	237.853	48.868	299.553	234.315	384.870	42.304	313.689	374.919	0.00080276	0.00029302	0.00022592	1091.6	7.2049e-06	5.4242e-06	1200	299.57	9.4966e-06	1.8722e-06	408.32	174.54	110.53	48.594	1.1528e-05	68.962	0.0013009	0.0014199	0.00040791	1017	1.5077e-05	1.586e-05	1116.2	281.35	1.5024e-05	1.6108e-05	383.03	163.28	104.15	46.146	1.5139e-05	64.94	272.718	92.186	138.352	41.500	160.858	142.719	41.082	47.682	220.495	61.943	45.105	50.425	51.558	56.146	174.254	53.889	-8191	255	
7951.839	1	1	0	0	0.12817	0.18233	0.070122	0.43748	0.31291	0.20959	0.22289	0.16845	0.21136	0.074181	0.21879	0.11759	0.19363	0.2034	0.17144	0.20305	-1.9771	-2.65	-2.6271	-2.4104	-2.9104	-2.5208	-2.7958	-2.9146	-2.4417	-2.7896	-2.7396	-2.7229	-3.0833	-2.8208	-2.6312	-3	343.465	218.375	152.274	369.194	321.860	152.964	344.745	314.314	368.331	315.264	356.436	385.087	125.091	53.913	144.588	29.916	0.0008923	0.00030903	0.00024985	1092.3	1.7769e-05	9.1065e-06	1194	300.94	4.423e-06	6.0423e-06	407.9	175.43	110.52	48.785	1.13e-05	69.434	0.0013064	0.0014374	0.00039045	1015.8	1.5042e-05	1.5467e-05	1111.5	281.6	1.5062e-05	1.5774e-05	382.43	163.78	104.22	46.232	1.5304e-05	65.302	273.546	77.066	129.990	41.446	207.545	234.120	40.787	46.997	162.632	186.269	45.464	50.819	51.538	55.974	160.990	53.817	-8191	255	
7951.936	1	1	0	0	0.077323	0.11298	0.041288	0.11444	0.048715	0.25445	0.14119	0.12286	0.21169	0.17904	0.28418	0.2128	0.2575	0.14179	0.24705	0.16718	-2.0979	-2.4875	-2.7021	-2.45	-2.8333	-2.675	-2.7771	-2.9979	-2.525	-2.8708	-3.0667	-2.55	-2.9938	-2.5979	-2.5333	-3.0563	35.572	286.475	36.807	361.055	135.942	202.656	382.959	342.136	339.435	98.547	338.738	368.414	327.678	318.016	355.260	367.357	0.00095076	0.00050767	0.00021361	1089.2	1.1277e-05	2.6369e-06	1197.1	301.07	1.0707e-05	4.7233e-06	407.08	175.77	110.44	48.679	8.9394e-06	69.802	0.0012606	0.0013985	0.00039635	1014.7	1.4737e-05	1.5493e-05	1111	282.18	1.4697e-05	1.532e-05	384.32	163.98	104.26	46.405	1.4923e-05	65.745	276.072	168.882	210.789	41.403	192.315	281.144	40.889	47.556	165.166	189.786	45.312	50.530	51.458	55.703	203.979	53.861	-8191	255	
7952.032	1	1	0	0	0.14823	0.099723	0.19513	0.18725	0.17934	0.26243	0.099251	0.35709	0.12102	0.078033	0.084384	0.27929	0.11704	0.17264	0.14547	0.2316	-1.9167	-2.7542	-2.7313	-2.4813	-2.8375	-2.6604	-2.6583	-3.0229	-2.4333	-2.7792	-3.0271	-2.5563	-3.1458	-2.8354	-2.5354	-3.1917	150.357	195.822	339.179	364.208	73.729	196.616	158.765	320.353	275.742	88.824	264.389	63.729	53.201	56.954	65.470	328.189	0.00093175	0.00033909	0.00027169	1088.7	9.9154e-06	9.2332e-06	1204.3	301.47	7.3162e-06	8.3826e-06	412.96	176.36	111.42	49.222	3.8701e-06	70.327	0.0012713	0.0014057	0.00038392	1015	1.4626e-05	1.5263e-05	1117.5	282.83	1.4523e-05	1.4906e-05	386.14	164.65	104.73	46.762	1.4761e-05	66.179	268.157	141.731	141.537	41.607	254.608	149.606	41.132	47.569	180.917	172.984	45.156	50.498	51.728	56.255	161.423	53.635	-8191	255	
7952.152	1	1	0	0	0.051835	0.10048	0.096886	0.18897	0.22732	0.24773	0.36184	0.31128	0.1131	0.21812	0.086952	0.17579	0.18135	0.23617	0.26764	0.10588	-2.1417	-2.7271	-2.8583	-2.5521	-2.5167	-2.7562	-2.55	-3.2458	-2.475	-2.5792	-2.9229	-2.5625	-2.8167	-2.7562	-2.4729	-3.0583	364.032	212.213	286.433	326.531	83.217	204.795	324.673	385.024	248.538	63.413	50.586	304.926	341.001	55.537	296.521	345.360	0.00095468	0.00092707	0.00032566	1089.8	8.1604e-06	4.3591e-06	1203.9	300.91	8.4959e-06	3.8698e-06	410.34	175.82	111.11	49.178	1.3352e-05	69.329	0.0012398	0.0013853	0.00036712	1019	1.4051e-05	1.4714e-05	1117.4	282.98	1.4444e-05	1.4763e-05	385.15	165.05	104.91	46.72	1.4235e-05	65.752	270.973	136.261	107.686	41.339	178.925	209.554	41.195	47.723	224.872	226.527	45.340	50.608	51.578	56.282	221.386	54.029	-8191	255	
7952.249	1	1	0	0	0.19448	0.19475	0.12477	0.20651	0.27111	0.12427	0.27786	0.037837	0.11518	0.15531	0.12809	0.30802	0.16277	0.20092	0.039628	0.12694	-2.0875	-2.6125	-3.0062	-2.5583	-2.7271	-2.8333	-2.475	-2.9062	-2.5375	-2.5625	-3.2313	-2.6521	-2.7104	-2.8417	-2.6042	-3.0625	279.041	212.721	149.757	296.481	164.169	89.344	248.724	381.483	80.811	70.021	387.240	332.092	388.501	140.809	56.926	248.395	0.00093321	0.00070536	0.00017689	1094.3	1.2439e-05	6.8825e-06	1198.5	302.09	8.1506e-06	6.0051e-06	409.62	176.29	110.8	48.911	2.7911e-06	69.231	0.001233	0.0013593	0.00036725	1019	1.447e-05	1.4879e-05	1116.5	282.97	1.4559e-05	1.5053e-05	384.07	164.14	103.99	46.413	1.5083e-05	65.467	273.403	121.586	136.631	41.675	175.892	181.468	40.987	47.334	231.095	194.593	45.092	50.663	51.630	56.248	93.492	53.782	-8191	255	
7952.345	1	1	0	0	0.32595	0.21203	0.20262	0.13857	0.16934	0.14164	0.34717	0.12837	0.093258	0.042787	0.11997	0.046108	0.073177	0.2913	0.036828	0.18011	-2.1833	-2.4854	-2.8354	-2.5271	-2.6875	-2.9104	-2.475	-2.95	-2.7542	-2.5187	-3.0625	-2.6479	-2.6771	-3.0375	-2.6292	-2.925	48.603	71.425	354.347	65.420	382.025	362.260	300.062	86.616	343.072	87.669	259.904	374.064	126.333	364.683	164.943	304.822	0.00091929	0.00031718	0.00010552	1093.1	9.9273e-06	1.1654e-05	1194.7	300.25	2.0666e-06	4.9592e-06	405.8	173.21	109.01	48.592	5.1182e-06	68.924	0.0012627	0.0014362	0.00039173	1018.9	1.513e-05	1.5771e-05	1113.8	281.68	1.5155e-05	1.5343e-05	380.29	162.06	103.01	46.086	1.5672e-05	65.184	282.523	60.138	139.737	41.368	176.238	142.948	40.977	47.514	152.888	173.611	45.288	50.454	51.242	56.010	126.874	53.899	-8191	255	
7952.439	1	1	0	0	0.27562	0.35465	0.065388	0.20977	0.15556	0.068735	0.17492	0.31429	0.086675	0.1508	0.22437	0.073651	0.19409	0.068511	0.11304	0.065497	-2.3187	-2.4229	-2.8958	-2.625	-2.8146	-2.8333	-2.6375	-2.7625	-2.6833	-2.4188	-3.0896	-2.7854	-2.5708	-3.0604	-2.5875	-2.8917	333.563	300.557	198.527	304.522	182.369	73.729	315.581	325.166	199.393	54.601	69.744	220.869	305.894	46.852	243.522	133.235	0.00097737	0.00065081	0.00023022	1093.5	1.3019e-05	1.5673e-05	1196	299.32	4.9389e-06	5.0992e-06	406.47	173.79	109.38	48.606	4.0673e-06	69.223	0.0013104	0.0014324	0.00038846	1019.8	1.4855e-05	1.5474e-05	1114	281.46	1.4886e-05	1.5702e-05	380.67	162.67	103.38	46.252	1.5365e-05	65.411	283.978	136.945	145.074	41.309	212.693	171.653	40.867	47.569	225.918	180.841	45.024	50.767	51.546	56.336	179.951	53.948	-8191	255	
7952.535	1	1	0	0	0.18175	0.13313	0.099745	0.1596	0.25282	0.096083	0.1858	0.31866	0.10105	0.11759	0.16318	0.16338	0.17881	0.15017	0.043847	0.2805	-2.5708	-2.2896	-2.8771	-2.7208	-2.6417	-2.9958	-2.5896	-2.7687	-2.9	-2.4375	-3.0125	-2.8604	-2.6104	-2.8583	-2.425	-2.7958	139.434	204.061	146.560	42.025	100.209	117.604	263.199	349.693	41.336	35.138	257.886	352.014	155.154	51.176	242.570	331.660	0.001057	0.00077764	0.00013121	1090.2	7.1597e-06	1.1892e-05	1201.2	297.94	9.1018e-06	5.4827e-06	406.84	174.8	110.66	48.624	1.2394e-05	68.854	0.0012798	0.001405	0.00039101	1018.9	1.4747e-05	1.5246e-05	1117.4	281.08	1.4826e-05	1.5557e-05	380.61	163.34	103.92	46.179	1.5863e-05	65.253	277.596	109.379	97.868	41.289	149.567	182.750	41.120	47.477	262.456	241.378	44.859	50.609	51.361	56.326	197.271	54.280	-8191	255	
7952.631	1	1	0	0	0.045618	0.2755	0.10175	0.17381	0.063289	0.20527	0.1386	0.35252	0.14518	0.40036	0.15927	0.25619	0.25865	0.25519	0.15355	0.15158	-2.3792	-2.325	-2.8729	-2.8792	-2.4396	-3.0229	-2.6125	-2.7292	-2.9708	-2.4396	-3.0604	-2.6167	-2.55	-3.0625	-2.7687	-2.7438	185.150	349.586	172.965	314.230	152.443	115.839	337.600	334.245	214.546	94.065	354.969	354.183	110.826	358.787	185.403	365.934	0.0008654	0.00018447	0.00016518	1104	2.2474e-05	4.012e-06	1211.2	301.77	1.0816e-05	3.4384e-06	406.04	177.52	111.71	49.41	7.9657e-06	70.109	0.0013064	0.0014837	0.00041077	1025.2	1.5568e-05	1.6312e-05	1126.2	283.2	1.5372e-05	1.6402e-05	380.98	166.4	105.86	46.944	1.6054e-05	66.232	281.791	142.900	159.974	41.578	209.245	382.280	41.096	47.482	276.000	171.565	45.321	50.273	51.370	55.924	224.903	53.804	-8191	255	
7952.728	1	1	0	0	0.37209	0.08364	0.23871	0.24727	0.26346	0.038485	0.21665	0.14152	0.1187	0.15797	0.1783	0.17168	0.16555	0.21031	0.090986	0.15777	-2.5062	-2.4667	-2.6917	-2.9437	-2.4396	-2.9042	-2.7021	-2.7083	-2.7896	-2.3917	-3.0125	-3.1167	-2.5542	-2.9896	-2.6417	-2.625	379.031	304.991	67.642	320.592	140.048	308.715	116.097	373.621	380.933	382.521	386.922	92.716	347.611	339.520	178.627	292.217	0.00085586	0.00080025	0.00029764	1110.1	1.432e-05	4.886e-06	1212	302.35	2.7568e-06	5.9491e-06	407.7	178.86	112.2	49.598	3.3036e-06	70.168	0.0013419	0.0014845	0.00041023	1033.6	1.5257e-05	1.6075e-05	1126.9	283.82	1.5201e-05	1.6308e-05	382.31	167.25	106.14	47.143	1.596e-05	66.529	268.317	95.237	131.707	41.360	183.744	135.333	40.955	47.283	210.257	118.287	45.528	50.185	51.490	55.948	219.381	53.269	-8191	255	
7952.848	1	1	0	0	0.15212	0.14944	0.092303	0.15186	0.12148	0.16325	0.30528	0.025308	0.069669	0.23778	0.16882	0.16528	0.18043	0.33377	0.07742	0.085086	-2.6208	-2.3854	-2.7042	-3.0042	-2.2896	-2.8229	-2.7042	-2.6271	-2.7729	-2.5542	-2.6521	-2.9875	-2.4229	-2.9021	-2.6125	-2.5271	203.214	146.545	319.311	344.243	95.677	276.744	336.154	318.779	270.640	251.123	280.654	261.166	79.350	363.654	237.200	197.890	0.00076597	0.00023283	0.00029912	1101.1	1.2879e-05	3.3191e-06	1201.8	300.35	9.9357e-06	4.5577e-06	408.61	177.68	111.57	49.606	8.386e-06	70.185	0.0013087	0.0014541	0.00040699	1026.1	1.5126e-05	1.5899e-05	1117.8	283.37	1.4801e-05	1.5346e-05	382.76	166.3	105.28	47.062	1.5063e-05	66.324	277.442	182.253	98.067	41.302	254.230	195.053	41.164	47.587	231.191	155.792	45.230	50.259	51.378	55.733	223.017	53.827	-8191	255	
7952.920	1	1	0	0	0.18086	0.033213	0.15978	0.34801	0.23094	0.23293	0.30018	0.52117	0.12691	0.19024	0.29992	0.19385	0.18416	0.099586	0.26257	0.26678	-2.4396	-2.4896	-2.5042	-3.1104	-2.3229	-2.7604	-2.6896	-2.4729	-2.9458	-2.7646	-2.5875	-2.8521	-2.4625	-2.7896	-2.725	-2.3979	118.350	387.349	233.245	346.609	219.977	275.137	226.693	387.613	71.295	332.873	367.292	340.023	355.712	133.188	189.431	363.318	0.000889	0.0006234	0.00024851	1094.2	4.3599e-06	4.9577e-06	1195.5	302.6	4.0987e-06	2.0994e-06	407.44	176.05	111.09	49.038	1.2623e-05	69.078	0.001274	0.0014089	0.00039565	1020	1.4626e-05	1.5293e-05	1113.7	282.51	1.5129e-05	1.5373e-05	381.46	164.21	104.55	46.509	1.5274e-05	65.435	278.506	120.769	112.355	41.553	175.296	46.414	41.118	47.456	224.093	211.306	45.304	50.368	51.462	55.992	211.352	53.882	-8191	255	
7953.016	1	1	0	0	0.31555	0.13336	0.030767	0.2288	0.071348	0.31328	0.32771	0.099024	0.087233	0.38471	0.06677	0.26446	0.1162	0.27267	0.023815	0.43141	-2.3625	-2.6354	-2.4375	-2.9917	-2.4792	-2.6833	-2.9	-2.3417	-2.9229	-2.6604	-2.6771	-2.9646	-2.5062	-2.8479	-2.8146	-2.6458	148.153	105.095	277.503	299.043	331.121	379.792	88.405	337.817	103.836	152.291	293.168	373.327	233.294	362.142	267.331	306.592	0.00091789	0.00012451	5.7734e-05	1097.7	9.7778e-06	7.6764e-06	1203.9	301.95	1.2836e-05	8.2703e-06	409.26	178.43	112.72	49.413	1.096e-05	70.508	0.001275	0.0014391	0.00039728	1019.8	1.5152e-05	1.5196e-05	1116.6	283.19	1.4573e-05	1.5016e-05	383.26	166.24	106.07	47.019	1.4851e-05	66.438	276.859	341.451	194.847	41.393	166.464	187.469	40.716	47.367	269.647	165.515	45.228	50.168	51.531	55.998	230.062	53.609	-8191	255	
7953.112	1	1	0	0	0.21028	0.11723	0.26287	0.27278	0.31335	0.063698	0.31828	0.11095	0.1592	0.26504	0.12689	0.57591	0.16796	0.2955	0.11054	0.47933	-2.3729	-2.65	-2.3021	-3.0625	-2.4875	-2.4521	-3.0083	-2.2021	-2.6146	-2.5896	-2.6146	-2.8042	-2.6042	-2.85	-2.7938	-2.5958	195.364	349.511	211.380	355.761	315.353	310.675	339.910	82.786	388.153	377.228	260.770	350.288	362.096	373.976	54.569	329.465	0.00085526	0.00065655	0.0001823	1101.8	8.498e-06	3.4852e-06	1205.2	302.53	8.023e-06	3.7265e-06	409.6	177.34	111.32	49.553	5.1713e-06	70.287	0.0012414	0.0013866	0.0003796	1025	1.471e-05	1.5345e-05	1120	284.38	1.4801e-05	1.5554e-05	383.52	165.77	105.37	46.932	1.5392e-05	66.176	268.332	117.143	108.919	41.211	232.697	172.009	41.107	47.330	220.324	182.115	45.618	50.485	51.260	56.159	219.507	53.681	-8191	255	
7953.233	1	1	0	0	0.02655	0.27668	0.25985	0.25914	0.27885	0.2189	0.3318	0.44805	0.36299	0.19435	0.21281	0.029539	0.091605	0.082732	0.16938	0.18217	-2.1646	-2.6896	-2.2375	-2.9062	-2.5646	-2.6312	-2.9229	-2.4958	-2.7542	-2.6688	-2.475	-2.9042	-2.6979	-2.6396	-2.9708	-2.675	192.739	119.637	157.193	376.063	241.514	248.486	279.601	292.939	354.675	218.243	379.469	55.700	99.852	309.023	155.407	318.579	0.0010313	0.00023087	0.00026108	1110.6	1.2901e-05	1.4297e-06	1207.2	301.15	1.0501e-05	8.937e-06	406.68	176.89	110.82	49.317	1.5615e-05	69.974	0.001339	0.0014655	0.0004063	1028.2	1.5476e-05	1.646e-05	1121.9	284.2	1.5637e-05	1.5905e-05	382.84	165.83	105.01	46.762	1.5653e-05	66.089	278.398	324.630	114.255	41.405	180.631	144.992	40.897	47.432	199.712	183.228	45.186	50.284	51.303	55.991	187.509	53.958	-8191	255	
7953.329	1	1	0	0	0.12873	0.17535	0.16558	0.27097	0.15427	0.1606	0.1283	0.15336	0.14761	0.16244	0.18243	0.20533	0.19905	0.22771	0.055873	0.151	-2.1688	-2.8271	-2.2729	-2.9188	-2.6417	-2.4292	-3.1417	-2.6437	-2.4938	-2.9875	-2.4479	-2.8396	-2.7313	-2.5854	-2.9104	-2.6063	253.879	229.408	329.589	347.670	318.059	286.058	313.123	334.674	208.142	69.586	343.389	260.802	354.555	360.648	58.393	280.195	0.0010333	0.00048453	0.0002198	1099.6	8.3542e-06	7.193e-06	1205.9	302.36	5.1592e-07	6.6208e-06	406.5	176.04	110.76	48.68	6.1052e-06	69.231	0.0013027	0.0014459	0.00040705	1025.3	1.5481e-05	1.5606e-05	1121.2	282.99	1.5337e-05	1.5952e-05	381.77	164.68	104.65	46.378	1.5678e-05	65.242	264.992	94.610	122.378	41.584	194.497	186.119	40.944	47.281	374.972	181.197	45.304	50.367	51.307	56.157	179.256	53.644	-8191	255	
7953.425	1	1	0	0	0.17449	0.25594	0.13977	0.3021	0.23658	0.12409	0.25747	0.10801	0.052543	0.093359	0.16903	0.21497	0.19219	0.1048	0.044792	0.099315	-2.15	-2.9833	-2.4083	-2.7958	-2.6188	-2.5167	-2.9688	-2.6604	-2.5646	-2.9646	-2.3937	-2.8438	-2.7375	-2.4875	-2.6688	-2.7479	333.086	113.399	200.008	318.289	257.403	265.689	270.758	385.506	375.342	100.435	375.040	330.738	316.352	318.715	183.436	72.005	0.0009235	0.00093879	0.0002294	1096.3	1.4294e-05	7.1374e-06	1199.1	299.42	2.6024e-06	7.1401e-06	404.38	175.15	110.49	48.527	7.1205e-06	68.843	0.0013407	0.0014719	0.00040976	1021.9	1.5651e-05	1.6445e-05	1115.3	282.43	1.5742e-05	1.5985e-05	381.43	163.97	104.21	46.157	1.5967e-05	64.823	280.573	131.703	92.660	41.392	199.833	170.124	41.155	47.841	108.957	236.093	44.971	50.375	51.638	55.940	181.221	53.522	-8191	255	
7953.521	1	1	0	0	0.094452	0.086888	0.23567	0.18261	0.41366	0.13708	0.11906	0.09783	0.15222	0.20947	0.31905	0.13229	0.080237	0.25565	0.056741	0.039468	-2.1688	-2.8875	-2.3896	-2.7771	-2.9313	-2.3563	-2.8688	-2.7604	-2.3833	-2.8688	-2.3063	-2.775	-2.7854	-2.2917	-2.825	-2.7062	258.315	242.020	163.548	175.286	183.605	199.765	354.317	115.733	210.841	232.269	295.714	345.342	169.959	342.384	129.302	162.184	0.00085316	0.00089164	6.1505e-05	1092.5	1.3289e-05	8.7194e-06	1191.8	299.28	2.8076e-06	7.2197e-06	402.61	171.89	108.42	48.23	1.3069e-05	67.867	0.0013518	0.001486	0.00042923	1020.2	1.6092e-05	1.6682e-05	1111.3	281.02	1.6324e-05	1.7471e-05	377.53	161.11	102.7	45.687	1.7416e-05	64.353	279.810	128.207	145.979	41.572	198.795	173.553	41.095	47.531	200.643	171.627	45.320	50.454	51.509	56.121	193.021	53.603	-8191	255	
7953.616	1	1	0	0	0.049196	0.2599	0.085443	0.40629	0.31161	0.12218	0.1416	0.41892	0.34306	0.1785	0.10655	0.29217	0.17628	0.16001	0.14453	0.1667	-2.1146	-2.9021	-2.3208	-2.7708	-3.0583	-2.4896	-2.9313	-2.9292	-2.5104	-2.9625	-2.7438	-2.6229	-2.9896	-2.5438	-2.8229	-2.7854	45.293	165.008	127.794	322.529	144.948	45.566	296.189	349.805	288.822	222.263	52.231	301.360	58.853	371.255	96.290	303.578	0.00071497	0.000455	8.8302e-05	1097.1	1.1744e-05	3.6782e-06	1199.3	297.43	9.9941e-06	5.2738e-06	399.09	169.29	107.41	47.326	4.2915e-06	67.729	0.0014474	0.001645	0.00045089	1022.9	1.7466e-05	1.8238e-05	1112.8	280.44	1.7528e-05	1.8568e-05	376.4	159.46	102.09	45.12	1.8473e-05	63.783	280.514	75.700	196.864	41.443	219.897	176.403	41.084	47.732	215.096	194.855	45.114	50.308	51.414	55.740	152.792	53.985	-8191	255	
7953.713	1	1	0	0	0.18725	0.32725	0.12973	0.1939	0.018137	0.12821	0.2373	0.098714	0.13046	0.21238	0.052573	0.28708	0.085725	0.21476	0.32796	0.040578	-2.0792	-2.8958	-2.4042	-2.8875	-2.8271	-2.4771	-2.7958	-2.8167	-2.4917	-3.0229	-2.5375	-2.4833	-3.2125	-2.5729	-2.7938	-2.875	249.650	369.512	134.513	370.666	127.753	59.801	371.958	354.735	379.736	271.975	132.207	330.375	98.732	388.620	138.867	340.046	0.00088505	0.00011681	0.00030382	1093.6	1.0836e-05	1.0261e-05	1189.5	296.9	2.4107e-06	1.5343e-06	398.36	168.17	107.64	46.922	4.5783e-06	66.445	0.0014754	0.0016735	0.00046936	1018.4	1.7473e-05	1.8839e-05	1107.5	279.16	1.8344e-05	1.8887e-05	373.85	158.41	101.75	44.818	1.8472e-05	62.942	269.802	277.172	100.923	41.246	166.938	174.780	40.916	47.225	198.400	211.712	45.085	50.547	51.409	55.864	173.351	53.766	-8191	255	
7953.832	1	1	0	0	0.28653	0.21069	0.15049	0.2549	0.073773	0.19269	0.31104	0.18463	0.15805	0.12334	0.098434	0.24398	0.25357	0.29523	0.087506	0.17827	-1.9729	-2.8646	-2.6146	-2.6292	-2.9479	-2.3333	-2.725	-2.8146	-2.3563	-2.7729	-2.9271	-2.6958	-3.0771	-2.6042	-2.5521	-3.0458	181.582	68.902	370.328	29.458	64.692	235.780	241.193	334.072	343.528	167.114	139.483	44.854	43.737	303.373	245.838	298.735	0.0009377	0.00053481	0.00019481	1091.6	5.816e-06	7.9385e-06	1183.1	294.82	1.3453e-05	3.3842e-06	396.2	168.65	107.14	47.199	5.6335e-06	66.463	0.0014908	0.0016335	0.00046425	1013.2	1.7489e-05	1.8547e-05	1101.8	278.36	1.748e-05	1.8531e-05	373.34	158.04	101.74	44.883	1.7972e-05	62.847	283.696	151.110	78.466	41.584	157.448	209.574	40.802	47.105	163.854	72.037	45.163	50.128	51.801	56.301	163.457	53.636	-8191	255	
7953.929	1	1	0	0	0.24313	0.055098	0.16121	0.38561	0.26646	0.1474	0.40723	0.17416	0.17556	0.15669	0.13591	0.19497	0.21659	0.075979	0.1729	0.33071	-2.0938	-2.9458	-2.7667	-2.4354	-3.0312	-2.5187	-2.7458	-2.8396	-2.6125	-2.5708	-2.8479	-2.6396	-2.9458	-2.5917	-2.4396	-3.0042	97.801	345.548	240.452	296.702	304.271	307.445	306.176	64.523	60.119	56.388	282.896	344.943	378.264	68.080	247.704	334.894	0.00091633	0.0001764	0.00014269	1085.2	1.6165e-05	3.5468e-06	1180.8	294.22	3.6523e-06	1.158e-05	399.09	169.06	107.06	47.251	6.8018e-06	66.626	0.0014339	0.0016466	0.00045922	1011.8	1.6806e-05	1.7974e-05	1100.5	278.35	1.6814e-05	1.7635e-05	374.83	158.53	101.43	44.951	1.7268e-05	63.191	281.151	331.711	84.253	41.359	184.528	227.629	40.890	47.420	223.784	181.260	45.015	50.539	51.207	56.503	165.726	53.733	-8191	255	
7954.025	1	1	0	0	0.017798	0.16053	0.14222	0.14262	0.1046	0.076311	0.049802	0.1354	0.16457	0.17674	0.20875	0.3322	0.29925	0.2445	0.11889	0.28889	-1.9	-2.5667	-2.7917	-2.5667	-2.9021	-2.7208	-2.675	-3.0292	-2.4104	-2.7188	-3.0208	-2.5458	-2.7208	-2.7542	-2.6917	-2.9938	134.366	257.110	150.442	122.919	89.410	370.689	252.221	290.828	200.448	151.972	326.199	279.436	258.876	373.172	243.153	355.682	0.0008287	0.0010809	0.00026821	1082.7	1.6771e-05	2.5163e-06	1181.5	298.51	1.2879e-05	5.6988e-06	402.47	170.19	107.94	47.717	8.5529e-06	67.595	0.0014048	0.0015659	0.00043426	1010	1.6585e-05	1.6279e-05	1100.8	278.83	1.6012e-05	1.6606e-05	376.71	159.56	102.19	45.353	1.6315e-05	63.708	284.499	137.581	108.348	41.336	165.145	350.128	41.151	47.466	223.345	177.871	45.064	50.381	51.397	56.238	219.950	53.726	-8191	255	
7954.145	1	1	0	0	0.17043	0.10995	0.049485	0.29146	0.10895	0.13611	0.057309	0.032026	0.097134	0.23452	0.019991	0.082067	0.084433	0.038727	0.25176	0.22675	-2.0104	-2.4938	-2.8063	-2.5979	-2.8	-2.5042	-2.5271	-3.1604	-2.5021	-2.7458	-2.8792	-2.5625	-2.7979	-2.7771	-2.6417	-3.0479	133.034	289.568	65.753	315.877	288.117	308.455	57.863	298.138	149.930	82.416	198.847	309.346	159.497	368.054	255.148	386.526	0.00098879	0.00045076	0.00016257	1082.2	5.9756e-06	5.7352e-06	1187.4	295.96	3.6904e-06	5.2773e-06	400.25	170.02	107.79	47.185	9.2002e-06	66.83	0.0013725	0.0015216	0.00042881	1010.7	1.6286e-05	1.6876e-05	1105	278.91	1.6446e-05	1.7133e-05	376.2	158.98	101.83	44.972	1.6275e-05	63.237	276.185	186.649	164.507	41.676	249.885	144.063	40.941	47.146	149.533	81.164	45.269	50.417	51.357	56.094	213.064	53.705	-8191	255	
7954.217	1	1	0	0	0.027072	0.11229	0.11934	0.40236	0.074488	0.17699	0.24104	0.14545	0.2359	0.10952	0.11655	0.42603	0.19172	0.20523	0.20343	0.12704	-1.9562	-2.4458	-2.8479	-2.6562	-2.7625	-2.6854	-2.5667	-2.9917	-2.6708	-2.5438	-3.0333	-2.5792	-2.6083	-2.9292	-2.4479	-2.9729	373.007	134.014	385.902	311.734	263.945	332.194	290.147	271.921	365.138	355.991	364.539	351.103	298.768	301.232	106.928	351.756	0.00089467	0.00057744	0.00010992	1087.1	1.8982e-06	4.1834e-06	1189.2	294.9	4.0873e-06	7.325e-06	399.11	170.15	108.97	47.374	4.1845e-06	66.665	0.0013852	0.0015858	0.0004291	1012	1.6168e-05	1.6716e-05	1107.9	278.46	1.6194e-05	1.707e-05	374.76	159.64	102.39	45.098	1.6127e-05	63.206	277.665	109.307	107.124	41.346	247.481	197.050	40.759	47.387	233.007	296.271	45.316	50.475	51.291	55.845	113.593	53.584	-8191	255	
7954.313	1	1	0	0	0.38456	0.14717	0.12054	0.17828	0.040774	0.12386	0.15741	0.16491	0.33073	0.16648	0.15856	0.18994	0.26017	0.080183	0.30579	0.080229	-2.1542	-2.5604	-2.8792	-2.7208	-2.7833	-2.8458	-2.6479	-2.9542	-2.5104	-2.5458	-2.9938	-2.6292	-2.7104	-2.875	-2.2729	-2.8833	324.128	338.443	196.125	366.161	312.081	226.974	326.222	316.265	388.822	354.010	305.525	167.182	372.848	374.074	364.742	131.247	0.00093449	0.00011529	0.00022485	1080.6	5.2104e-06	8.4521e-06	1184.2	297.56	4.3156e-06	5.204e-06	403.05	169.92	108.59	47.875	6.8671e-06	67.361	0.0013883	0.0015012	0.00042288	1009.8	1.5948e-05	1.6452e-05	1102.6	278.98	1.6e-05	1.6483e-05	376.61	160.07	102.59	45.316	1.5952e-05	63.739	263.294	111.688	127.984	41.437	281.246	197.708	41.101	47.339	157.330	146.656	45.409	50.492	51.582	56.245	236.735	53.540	-8191	255	
7954.409	1	1	0	0	0.060414	0.093297	0.25976	0.24209	0.12442	0.13548	0.072555	0.068793	0.19866	0.24987	0.042789	0.223	0.14343	0.10562	0.2121	0.12811	-2.2625	-2.3292	-2.7812	-2.4917	-2.6083	-2.7479	-2.5563	-2.7833	-2.6479	-2.4583	-3.1562	-2.7333	-2.4896	-2.9979	-2.3792	-2.85	80.148	135.813	68.258	206.312	284.178	197.768	302.138	354.562	92.896	43.482	147.492	324.016	338.336	344.538	354.997	264.605	0.0010003	0.0013402	8.5713e-05	1085.1	5.5151e-06	3.8319e-06	1183.6	296.97	4.7792e-06	9.8686e-06	401.99	171.38	108.99	47.987	8.4835e-06	67.635	0.0013637	0.001486	0.00041066	1013.3	1.6366e-05	1.6706e-05	1106.9	279.85	1.5972e-05	1.653e-05	378.38	160.38	102.86	45.328	1.6443e-05	63.851	273.727	108.665	163.034	41.597	213.308	170.601	41.118	47.184	215.510	199.046	45.146	50.557	51.619	56.164	168.022	53.695	-8191	255	
7954.528	1	1	0	0	0.32132	0.19441	0.038787	0.35798	0.073962	0.090408	0.054222	0.075691	0.038397	0.21974	0.27523	0.14883	0.048199	0.18554	0.042843	0.22654	-2.4	-2.3354	-2.8854	-2.8646	-2.4813	-2.9229	-2.4437	-2.8438	-2.8542	-2.4979	-2.825	-2.8396	-2.6125	-2.9437	-2.5479	-2.8292	39.372	41.906	286.653	329.996	359.949	138.968	386.704	77.350	140.588	297.790	374.289	281.400	354.884	327.211	332.899	341.677	0.00094809	0.00085554	0.00013325	1085.3	1.9415e-05	8.5779e-06	1193	296.49	1.0113e-05	1.4297e-06	403.39	170.88	108.06	47.52	1.3349e-06	67.186	0.0013556	0.0015632	0.00042327	1012.3	1.615e-05	1.6594e-05	1109.6	278.86	1.5991e-05	1.6118e-05	377.78	159.86	102.41	45.225	1.635e-05	63.429	279.043	120.893	163.134	41.356	228.201	149.961	41.094	47.582	271.255	373.612	45.576	50.509	51.586	56.332	107.129	53.900	-8191	255	
7954.624	1	1	0	0	0.095759	0.10584	0.22832	0.24956	0.38861	0.082805	0.12562	0.16586	0.36225	0.11452	0.25919	0.33831	0.13606	0.25573	0.12951	0.30739	-2.4083	-2.3	-2.6854	-2.7708	-2.6625	-3.0938	-2.6771	-2.6875	-2.9167	-2.5042	-2.6875	-2.5917	-2.4083	-3.0438	-2.6208	-2.7313	297.533	110.380	146.340	282.438	386.100	147.811	236.870	80.193	333.030	334.412	294.855	377.037	46.625	363.788	204.025	353.430	0.00088394	0.00045779	0.00016142	1081.1	9.8615e-06	2.3043e-06	1182.8	296.59	8.8301e-06	4.917e-06	400.16	168.53	107.83	47.451	5.946e-06	66.305	0.0013541	0.0014991	0.00042359	1009.9	1.6307e-05	1.6541e-05	1103.2	278.88	1.5626e-05	1.6478e-05	375.25	158.87	102.1	44.983	1.696e-05	62.945	271.060	120.321	137.330	41.597	223.242	91.632	41.344	47.488	222.288	78.533	45.376	50.712	51.819	56.091	173.489	53.787	-8191	255	
7954.720	1	1	0	0	0.20977	0.25062	0.026922	0.2805	0.17589	0.077633	0.24499	0.34329	0.18483	0.022617	0.047539	0.18769	0.24872	0.26822	0.13631	0.050548	-2.4854	-2.4729	-2.7083	-2.7833	-2.5438	-2.9167	-2.6	-2.4625	-3.0563	-2.6958	-2.7354	-2.7542	-2.5042	-2.8854	-2.3979	-2.6521	175.094	357.841	164.160	357.229	210.686	332.261	349.670	375.863	82.321	37.394	299.178	351.722	292.817	376.301	269.441	304.464	0.00083908	0.00056873	0.00019775	1084.4	4.9711e-06	4.4925e-06	1175.2	295.5	9.5407e-06	7.2215e-06	395.44	166.71	106.29	46.51	1.2447e-05	65.261	0.0013882	0.0016091	0.0004444	1009.5	1.6895e-05	1.798e-05	1098.7	278.05	1.7806e-05	1.8669e-05	371.51	156.85	100.84	44.265	1.9117e-05	61.831	269.374	158.717	145.374	41.496	269.954	195.197	41.091	47.515	216.173	226.001	44.875	50.639	51.153	56.008	187.404	53.638	-8191	255	
7954.794	1	1	0	0	0.03871	0.047962	0.22931	0.141	0.31316	0.21271	0.2982	0.25333	0.25836	0.099472	0.41408	0.14922	0.13918	0.34262	0.22505	0.0093428	-2.4229	-2.525	-2.5333	-2.9583	-2.2854	-2.8667	-2.7583	-2.6458	-2.8792	-2.2979	-2.7896	-2.7625	-2.3875	-2.9333	-2.8104	-2.5729	38.552	342.505	139.413	336.905	254.391	48.079	322.126	324.391	132.567	252.871	319.742	241.036	51.930	382.906	284.515	243.462	0.00095507	0.0012288	0.0002489	1075.4	1.8325e-05	1.097e-05	1173.3	294.05	7.5464e-06	8.916e-06	385.62	164.27	104.5	45.839	3.5806e-06	64.923	0.0015357	0.0017753	0.00050934	1007.1	1.8928e-05	2.0403e-05	1094.6	276.49	1.9201e-05	2.0685e-05	365.74	154.55	99.615	43.862	2.0131e-05	61.671	279.787	138.509	147.761	41.683	175.450	183.174	41.041	47.089	204.147	167.432	45.019	50.694	51.352	56.022	236.401	53.878	-8191	255	
7954.913	1	1	0	0	0.23523	0.27827	0.24722	0.25223	0.022142	0.061386	0.10568	0.20353	0.26758	0.15798	0.10792	0.23022	0.18315	0.0767	0.19121	0.28342	-2.5292	-2.4437	-2.7604	-2.8833	-2.3125	-2.9313	-2.8479	-2.6604	-2.8167	-2.5792	-2.7146	-3.1083	-2.3479	-2.7875	-2.7792	-2.6292	109.023	363.845	297.880	357.577	347.965	70.065	177.611	330.967	174.854	357.388	33.773	369.310	261.691	355.010	213.051	269.260	0.0007847	0.00077218	0.00032033	1072.5	4.132e-06	1.9243e-06	1162.4	292.05	2.0035e-05	7.9076e-06	383.98	163.71	104.5	45.936	7.4482e-06	64.066	0.0015957	0.0018624	0.00052204	1001.1	1.9087e-05	1.9757e-05	1082.8	274.58	1.9087e-05	1.9892e-05	362.87	153.76	98.879	43.604	1.9881e-05	60.701	276.753	318.685	117.284	41.369	290.111	214.755	40.920	47.368	202.582	177.699	45.017	50.597	51.529	56.015	214.821	53.381	-8191	255	
7955.009	1	1	0	0	0.16591	0.2593	0.012438	0.20531	0.0044437	0.105	0.26971	0.21406	0.14403	0.26115	0.18221	0.17646	0.22634	0.099988	0.16683	0.28832	-2.4417	-2.55	-2.5021	-3.1229	-2.4646	-2.6417	-3.0375	-2.5125	-2.8292	-2.4062	-2.7021	-2.8688	-2.4667	-2.5958	-2.8125	-2.4646	370.055	167.960	52.634	311.894	290.700	63.345	302.425	328.707	97.492	49.470	323.830	371.215	259.468	58.928	323.750	301.580	0.00092742	0.000781	0.00029438	1062.2	8.3439e-06	9.3241e-06	1153.5	288.46	1.0761e-05	3.4289e-06	383.73	164.95	105.3	45.75	6.0621e-06	64.647	0.0015446	0.0018139	0.00049155	992.97	1.8342e-05	1.9053e-05	1074.5	271.09	1.8011e-05	1.8781e-05	361.8	154.68	99.539	43.744	1.7847e-05	61.071	271.967	154.778	102.566	41.459	184.423	208.197	41.136	47.145	303.948	165.735	44.976	50.221	51.376	56.041	236.368	53.604	-8191	255	
7955.105	1	1	0	0	0.13867	0.19101	0.20765	0.16398	0.40088	0.023392	0.099908	0.35087	0.14744	0.065894	0.11582	0.080159	0.33245	0.1116	0.11542	0.23241	-2.4229	-2.7292	-2.5687	-3.1583	-2.4208	-2.7458	-3.0521	-2.4333	-2.8979	-2.5583	-2.6396	-3.1188	-2.3271	-2.6958	-3.1021	-2.5208	363.341	217.317	323.533	96.281	152.535	251.810	275.166	59.682	373.909	32.270	365.686	295.421	60.512	88.137	96.503	282.406	0.00091553	1.175e-05	0.0001414	1066.5	1.1452e-05	8.7479e-06	1158.5	290.74	1.1042e-05	6.6084e-06	387.44	167.32	107.05	46.289	1.2193e-05	65.172	0.0014676	0.0016669	0.0004607	994.43	1.7095e-05	1.8405e-05	1077.5	273.23	1.7065e-05	1.7742e-05	365.73	157.1	101.25	44.096	1.744e-05	61.562	283.096	121.644	160.418	41.224	154.362	162.357	40.814	47.248	209.954	165.094	44.915	50.442	51.564	56.332	171.818	54.020	-8191	255	
7955.226	1	1	0	0	0.21678	0.1528	0.14054	0.33894	0.19421	0.19042	0.25565	0.082074	0.2438	0.12025	0.045125	0.40175	0.07726	0.32335	0.10353	0.35622	-2.2687	-2.7667	-2.2125	-2.9667	-2.65	-2.625	-3.1437	-2.575	-2.7458	-2.7521	-2.5646	-2.9562	-2.8667	-2.8167	-2.9542	-2.6188	89.854	345.664	88.947	374.588	379.302	197.094	277.917	211.020	39.179	287.028	69.760	47.430	372.123	304.907	210.422	326.207	0.00086662	0.00048373	0.00015403	1065.7	4.9227e-06	1.2759e-05	1159.2	291.56	1.1741e-05	1.2644e-05	389.69	168.72	107.12	46.443	5.4505e-06	65.16	0.0014714	0.0016511	0.00045674	996.9	1.7593e-05	1.878e-05	1082.9	275.04	1.7559e-05	1.8984e-05	367.3	157.89	101.45	44.213	1.7884e-05	61.607	276.498	93.675	149.926	41.611	250.429	205.455	40.810	47.283	277.034	200.718	45.442	50.287	51.070	56.198	250.724	53.769	-8191	255	
7955.322	1	1	0	0	0.24169	0.12757	0.17998	0.14425	0.20787	0.12986	0.12617	0.12771	0.18421	0.12488	0.056614	0.08982	0.10828	0.35605	0.015898	0.26983	-2.0896	-2.8333	-2.4375	-3.1833	-2.6125	-2.5146	-3.15	-2.6167	-2.8583	-2.8542	-2.5438	-2.9333	-2.8	-2.5771	-3.0083	-2.5167	373.717	212.630	183.362	357.555	56.151	310.744	103.607	191.787	356.950	349.839	299.587	287.824	364.043	345.085	89.864	326.366	0.00088172	0.00084712	0.00024772	1068.2	1.397e-05	7.6905e-06	1163.3	290.71	1.4961e-05	1.5308e-06	391.69	168.35	108.04	46.842	3.9807e-06	64.828	0.0014716	0.0016518	0.00046957	997.54	1.8022e-05	1.8773e-05	1086.1	274.72	1.7754e-05	1.8392e-05	368.19	158.65	102.29	44.327	1.7622e-05	61.381	276.116	164.402	155.853	41.066	191.224	168.970	40.784	47.194	278.354	244.182	45.150	50.207	51.065	55.865	270.041	53.212	-8191	255	
7955.416	1	1	0	0	0.11843	0.11299	0.064794	0.050615	0.089956	0.27501	0.089509	0.19963	0.13944	0.15298	0.16669	0.13998	0.19273	0.15069	0.068168	0.25042	-2.0667	-2.7271	-2.4125	-2.8417	-2.725	-2.2938	-3.1021	-2.6813	-2.7	-2.9417	-2.4646	-2.9833	-2.7354	-2.6104	-2.7667	-2.8292	39.348	298.053	72.321	302.845	304.187	158.928	297.045	340.204	56.884	74.011	370.031	49.803	381.635	65.588	84.938	385.040	0.00099892	0.00071119	0.00024114	1071.3	8.6293e-06	5.3611e-06	1161.4	294.1	6.9658e-06	4.3875e-06	392.14	170.52	109.15	46.601	1.6418e-06	65.221	0.0014884	0.0016583	0.00045854	996.37	1.751e-05	1.8302e-05	1087	275.68	1.733e-05	1.8121e-05	369.92	160.07	103.06	44.485	1.7805e-05	61.655	279.904	81.901	122.490	41.237	204.421	137.893	40.995	47.514	227.118	181.461	44.952	50.126	51.408	56.160	136.640	53.410	-8191	255	
7955.514	1	1	0	0	0.1241	0.13148	0.17543	0.2049	0.030773	0.129	0.26345	0.13738	0.23282	0.2435	0.40152	0.22004	0.22699	0.3093	0.096457	0.20284	-2.0833	-2.9479	-2.5479	-2.7938	-2.8208	-2.3625	-3.0917	-2.8292	-2.7271	-2.8563	-2.5771	-3.0042	-2.6937	-2.4354	-2.8021	-2.675	270.698	187.698	383.199	40.341	94.604	229.295	291.542	320.864	249.912	305.928	360.284	37.548	32.196	361.717	372.525	37.332	0.00088892	0.00091616	0.00018861	1073.4	7.9092e-06	9.4337e-06	1171.2	293.5	5.4005e-06	6.7912e-06	391.57	167.57	106.77	46.194	1.4102e-05	63.773	0.0014754	0.0016722	0.00048068	1001.9	1.8668e-05	1.9346e-05	1092.6	276.61	2.0194e-05	2.103e-05	369.38	158.08	102.14	44.102	2.1736e-05	60.737	275.329	129.045	121.180	41.420	250.160	196.134	40.828	47.150	249.153	105.253	45.229	50.673	51.679	56.166	227.550	53.420	-8191	255	
7955.609	1	1	0	0	0.1883	0.22204	0.058052	0.32251	0.089709	0.11456	0.20622	0.077094	0.060236	0.17253	0.039537	0.28515	0.075838	0.39684	0.17713	0.094002	-2.1479	-2.9333	-2.5	-2.7104	-2.9333	-2.3833	-2.8854	-2.8312	-2.6958	-2.8333	-2.4542	-2.6833	-2.9521	-2.5854	-2.7417	-2.9229	175.590	114.825	225.728	343.828	242.636	44.259	38.423	349.597	33.048	248.146	306.758	325.126	365.477	344.895	64.839	69.662	0.00068754	0.00071162	8.3998e-05	1073.2	4.5238e-06	6.9137e-06	1163.2	291.17	1.5507e-05	7.4027e-06	386.74	166.22	105.99	45.894	8.6495e-06	64.038	0.0017566	0.0020347	0.00056539	1003.5	2.1784e-05	2.2865e-05	1089.2	275.51	2.1906e-05	2.2534e-05	366.14	156.53	101.17	43.941	2.1716e-05	60.857	269.417	122.017	99.927	41.451	61.050	266.506	41.182	47.086	220.321	179.824	45.194	50.618	51.656	56.149	231.783	53.607	-8191	255	
7955.705	1	1	0	0	0.18857	0.036188	0.22576	0.22564	0.10001	0.39111	0.17775	0.14421	0.10698	0.17489	0.10132	0.18491	0.12136	0.29793	0.029294	0.17548	-1.8417	-3.0104	-2.3625	-2.8458	-3.0021	-2.4792	-3.0146	-2.875	-2.3875	-2.8833	-2.5833	-2.7771	-2.9562	-2.6833	-2.8146	-2.7833	317.110	251.657	336.492	248.248	335.922	270.739	321.128	206.296	288.880	195.921	30.000	382.759	170.674	342.863	324.625	185.661	0.00090025	0.00066598	0.0001093	1072.6	4.0343e-06	1.1124e-05	1163.2	290.29	1.8515e-05	5.3889e-06	386.4	165.06	105.61	45.949	9.1698e-06	64.095	0.0017324	0.0019704	0.00055168	1000.2	2.0197e-05	2.0871e-05	1085	273.95	2.0127e-05	2.0869e-05	365.39	155.59	100.55	43.969	2.0514e-05	60.769	279.100	124.695	115.575	41.384	277.000	141.776	40.918	47.181	221.667	229.269	45.013	50.554	51.722	56.175	211.486	53.592	-8191	255	
7955.825	1	1	0	0	0.25474	0.17824	0.23151	0.42249	0.076375	0.19021	0.22401	0.25925	0.13774	0.20063	0.32276	0.20088	0.3403	0.36327	0.12944	0.13755	-2.0917	-2.9292	-2.6729	-2.6146	-2.9417	-2.5271	-2.9167	-2.7021	-2.3833	-2.6646	-2.8667	-2.5958	-3.1583	-2.5687	-2.7979	-3.05	77.722	314.318	30.314	315.258	101.892	330.928	323.467	372.080	264.597	47.821	378.194	318.263	339.597	120.369	76.465	254.799	0.00092365	0.00071422	0.00027759	1065.4	3.5884e-06	6.5655e-06	1155.8	290.57	1.117e-06	9.6741e-06	387.17	165.14	104.72	46.049	6.7806e-06	64.261	0.0016068	0.0018791	0.00052289	998.99	2.0141e-05	2.078e-05	1081.6	274.19	1.992e-05	2.0692e-05	365.75	154.94	100.3	43.932	1.999e-05	60.842	274.096	105.070	134.236	41.401	139.867	207.923	40.831	47.092	242.898	215.829	45.019	50.268	51.634	55.986	219.472	53.786	-8191	255	
7955.921	1	1	0	0	0.031535	0.13656	0.16157	0.010912	0.099466	0.25213	0.21228	0.16093	0.10825	0.26906	0.1803	0.11275	0.23831	0.29838	0.1519	0.032261	-2.1188	-2.7229	-2.5125	-2.5229	-3.0687	-2.4271	-2.825	-2.8896	-2.3937	-2.6771	-2.7458	-2.5812	-3.0062	-2.7271	-2.7021	-3.0417	146.103	115.357	363.917	331.203	142.924	34.712	318.392	312.411	223.772	49.508	328.829	291.779	362.923	357.999	349.815	264.752	0.00087523	0.00032195	0.00021137	1064.2	9.5719e-06	3.2566e-06	1160.3	291.35	1.0122e-05	5.2876e-06	388.75	165.76	105.03	45.97	5.4833e-06	64.435	0.0016237	0.0018487	0.00052527	997.52	1.9434e-05	2.0847e-05	1081.8	274.23	1.9164e-05	2.0175e-05	364.94	155.4	99.997	44.029	1.9301e-05	60.939	281.088	134.902	134.196	41.408	202.895	147.671	40.812	47.327	216.098	152.934	45.291	50.557	51.193	55.947	84.004	53.384	-8191	255	
7956.018	1	1	0	0	0.022667	0.22991	0.14836	0.19404	0.2593	0.19209	0.036962	0.3999	0.023381	0.20491	0.24638	0.31746	0.15183	0.18797	0.24494	0.16004	-1.9104	-2.8083	-2.7229	-2.5354	-2.7854	-2.6104	-2.7687	-3.1417	-2.4437	-2.8792	-2.7271	-2.425	-3.0271	-2.5062	-2.4604	-3.0729	188.231	40.081	312.358	54.385	51.235	263.522	74.868	341.129	186.441	145.000	128.350	340.792	318.566	47.484	322.385	306.506	0.00075594	0.00045873	0.00014917	1072.1	5.5736e-06	7.1369e-06	1166.6	290.84	7.7988e-06	6.9517e-06	386.38	165.79	106.38	46.642	8.0744e-06	64.831	0.0015412	0.0018168	0.00050029	1000.5	1.9045e-05	2.0118e-05	1087	274.47	1.8984e-05	1.9724e-05	366.92	156.07	100.91	44.349	1.9097e-05	61.469	279.479	126.977	44.422	41.272	134.689	179.837	41.136	47.260	192.584	154.070	45.187	50.132	51.661	55.983	221.536	53.708	-8191	255	
7956.089	1	1	0	0	0.14835	0.04751	0.20454	0.10038	0.10672	0.15959	0.15781	0.17517	0.032393	0.14016	0.30597	0.14379	0.1159	0.39244	0.25664	0.23999	-2.2167	-2.6958	-2.8167	-2.4958	-2.7083	-2.7458	-2.5938	-2.9667	-2.475	-2.6917	-2.9333	-2.5812	-2.8021	-2.8104	-2.3396	-3.0208	326.886	135.663	104.429	342.732	95.511	300.930	70.556	369.621	336.793	116.930	341.082	77.815	318.520	318.622	237.512	316.174	0.0008594	0.0010833	5.5174e-05	1073.4	1.9965e-05	6.5271e-06	1168.8	291.45	5.6543e-06	1.0465e-05	388.15	165.12	105.85	46.418	5.6578e-06	64.143	0.0015464	0.0017856	0.00048085	1001.6	1.9098e-05	2.0222e-05	1088.9	275.51	1.921e-05	2.0069e-05	366.76	155.73	100.24	44.12	1.9288e-05	60.99	274.907	163.209	64.289	41.564	200.415	173.668	40.829	47.314	287.806	145.691	45.067	50.844	51.528	56.484	185.748	53.921	-8191	255	
7956.210	1	1	0	0	0.17426	0.12009	0.16528	0.20237	0.13224	0.16001	0.21575	0.079002	0.16355	0.10009	0.21922	0.17351	0.20714	0.19339	0.10398	0.33648	-1.9833	-2.5729	-2.7125	-2.5979	-2.825	-2.6312	-2.5687	-3.1125	-2.7125	-2.6229	-3.0125	-2.4813	-2.9271	-2.8563	-2.4271	-3.0771	294.282	160.363	246.870	308.714	148.068	370.588	292.186	325.576	359.085	104.172	367.959	58.297	354.046	67.019	189.485	326.845	0.00085768	0.00049728	0.00037801	1069.9	1.7621e-05	7.9044e-06	1165.9	289.69	1.5528e-05	4.4506e-06	386.47	163.96	105.13	46.011	7.084e-06	63.866	0.0016071	0.0018253	0.00051355	1000.9	1.9297e-05	2.0239e-05	1084.2	273.29	1.9478e-05	2.0452e-05	362.66	154.58	99.927	43.938	1.9859e-05	60.876	274.612	152.592	147.112	41.473	197.806	128.867	40.996	47.607	209.470	226.693	45.211	50.643	51.565	55.859	249.674	53.959	-8191	255	
7956.306	1	1	0	0	0.25805	0.089042	0.10706	0.28015	0.048692	0.010787	0.12776	0.035012	0.13975	0.14249	0.21133	0.47152	0.043321	0.22534	0.12873	0.33619	-2.2021	-2.8	-2.8833	-2.6063	-2.6813	-2.7938	-2.775	-2.9875	-2.7	-2.7833	-2.95	-2.6667	-2.8625	-2.7979	-2.5771	-2.9917	86.353	304.854	344.310	381.682	31.282	306.923	384.234	255.122	323.488	373.040	55.744	318.399	241.384	372.195	109.855	307.459	0.00086543	0.00061939	0.00018502	1066.9	1.3734e-05	8.7115e-06	1159.9	290.14	1.1113e-05	5.6136e-06	383.26	164.02	105.26	46.43	1.0606e-05	64.536	0.001615	0.0018445	0.0005033	999.08	1.8869e-05	1.9958e-05	1083.7	273.96	1.9017e-05	1.9614e-05	363.65	154.08	99.747	44.194	1.9119e-05	61.352	270.093	178.297	227.282	41.437	179.938	193.301	40.802	47.172	183.905	186.089	45.352	50.203	51.510	56.396	160.718	53.529	-8191	255	
7956.402	1	1	0	0	0.17549	0.29139	0.29443	0.17628	0.079362	0.088237	0.14168	0.26549	0.34778	0.44454	0.21644	0.14446	0.34435	0.35925	0.054339	0.2206	-2.1188	-2.7875	-2.9167	-2.6667	-2.7708	-2.9875	-2.5583	-3.0479	-2.6375	-2.4667	-3.2021	-2.4958	-2.7042	-2.7708	-2.4146	-2.875	260.141	269.579	179.381	173.931	81.209	357.458	322.615	331.588	51.289	242.540	349.553	116.543	338.979	51.216	309.177	373.725	0.00096534	0.00026331	0.00014469	1076.8	8.159e-06	2.7264e-06	1168.7	290.87	1.4078e-05	1.076e-05	386.09	164.22	104.57	46.731	7.2808e-06	64.794	0.0015532	0.0017591	0.00049376	1002.6	1.9119e-05	1.9271e-05	1087.8	274.65	1.8766e-05	1.9817e-05	364.79	154.63	99.504	44.486	1.8838e-05	61.643	275.658	206.857	206.397	41.375	167.824	161.339	41.035	47.280	232.323	196.821	45.104	50.615	51.867	56.360	236.548	53.899	-8191	255	
7956.498	1	1	0	0	0.1841	0.2667	0.26015	0.10652	0.035718	0.18711	0.32784	0.16497	0.12553	0.14385	0.14637	0.11037	0.12348	0.27638	0.15273	0.20114	-2.125	-2.4396	-2.8292	-2.5896	-2.5583	-2.8646	-2.4292	-2.8708	-2.8646	-2.4	-3.0646	-2.7	-2.5604	-2.9542	-2.3021	-2.7625	160.224	313.798	371.651	342.260	325.604	208.593	350.335	224.219	93.978	188.563	287.246	68.042	356.858	116.057	199.246	296.500	0.00091782	0.0011498	0.00031864	1074.2	9.2164e-06	6.1705e-06	1165.7	292.86	1.1276e-05	8.0215e-06	387.55	165.17	105.28	46.573	9.4481e-06	64.666	0.0015311	0.001764	0.00048209	1002.1	1.8441e-05	1.9078e-05	1087.8	275.32	1.8394e-05	1.8959e-05	365.6	155	100.01	44.323	1.8641e-05	61.261	270.994	75.769	84.577	41.400	197.212	191.298	40.836	47.312	270.249	228.169	45.237	50.466	51.526	56.328	123.107	54.071	-8191	255	
7956.617	1	1	0	0	0.014537	0.15	0.21402	0.25529	0.054915	0.14402	0.35492	0.11232	0.13347	0.34076	0.089	0.021415	0.50504	0.13597	0.16407	0.1032	-2.3333	-2.3208	-2.775	-2.6042	-2.5208	-2.9042	-2.5854	-2.6937	-2.8042	-2.4729	-2.8542	-2.6958	-2.4688	-2.8542	-2.575	-2.8333	210.227	157.200	371.223	82.456	113.941	331.132	287.259	35.361	126.940	90.437	287.528	91.849	364.084	90.103	317.236	133.230	0.00084867	0.0010462	0.0001584	1070.6	2.1181e-05	6.6919e-06	1166	293.11	1.3964e-05	7.6101e-06	386.85	162.95	105.34	46.548	7.4715e-06	64.591	0.0015064	0.0016997	0.00048486	1000.8	1.8239e-05	1.9267e-05	1087	275.61	1.8287e-05	1.9024e-05	364.92	154.04	99.775	44.343	1.8662e-05	61.364	267.287	124.316	384.418	41.276	211.393	173.503	40.907	47.393	225.491	137.473	45.280	50.112	51.332	56.189	263.867	53.544	-8191	255	
7956.689	1	1	0	0	0.022034	0.20623	0.29179	0.32259	0.19849	0.10294	0.064851	0.38814	0.10506	0.28268	0.080721	0.12107	0.059218	0.12366	0.097068	0.24429	-2.3812	-2.4562	-2.8167	-2.7417	-2.65	-3.0458	-2.5708	-2.7125	-2.8271	-2.3271	-2.9021	-2.7458	-2.4625	-3.0917	-2.6688	-2.775	193.758	194.606	364.390	342.865	354.363	195.104	213.461	261.291	251.898	129.084	65.199	255.299	89.216	343.715	227.420	327.194	0.00091868	0.00038553	0.0004706	1070.5	6.7108e-06	6.2462e-06	1163.7	291.96	9.1116e-06	7.9227e-06	389.78	164.47	104.85	46.7	7.2539e-06	64.727	0.0015162	0.0017208	0.00049384	1000.7	1.8334e-05	1.9102e-05	1084.8	274.93	1.7857e-05	1.8763e-05	366.13	154.43	99.864	44.446	1.8407e-05	61.47	278.526	148.857	71.451	41.321	145.757	141.530	41.048	47.626	269.369	118.671	45.206	50.360	52.038	56.075	202.496	53.662	-8191	255	
7956.785	1	1	0	0	0.16484	0.083464	0.21333	0.24635	0.064507	0.13421	0.09644	0.17311	0.33963	0.079926	0.16991	0.17893	0.39435	0.23201	0.29251	0.2646	-2.4521	-2.2375	-2.8208	-3.0021	-2.425	-2.8729	-2.7646	-2.4958	-2.8833	-2.3	-2.7667	-2.7667	-2.3583	-3.0563	-2.475	-2.6	354.569	257.581	245.837	253.838	332.907	79.128	66.746	364.308	128.251	88.680	64.515	370.455	287.399	337.086	347.867	343.205	0.00098942	0.00078361	0.00015185	1076.7	1.2062e-05	5.9066e-06	1167.2	292.89	1.2845e-05	9.7613e-06	390.26	165.2	105.61	46.995	5.2816e-06	65.442	0.0014819	0.0016627	0.00048665	1004.1	1.8105e-05	1.8931e-05	1087.8	276.28	1.7705e-05	1.8809e-05	366.3	155.03	100.09	44.619	1.8364e-05	61.865	276.651	125.259	242.085	41.397	194.790	197.880	40.698	47.499	151.650	168.965	45.496	50.587	51.179	55.930	198.352	53.828	-8191	255	
7956.906	1	1	0	0	0.19159	0.15403	0.15967	0.083386	0.18349	0.18055	0.33888	0.089262	0.070117	0.14316	0.21859	0.25332	0.086894	0.11195	0.2104	0.22893	-2.4729	-2.3833	-2.4917	-2.8438	-2.2646	-2.9042	-2.9521	-2.375	-2.8438	-2.4437	-2.7625	-2.8667	-2.4083	-2.8396	-2.6479	-2.6	138.588	140.129	200.637	165.407	195.188	357.845	381.553	207.239	195.436	169.389	330.981	36.293	260.037	137.528	320.011	35.700	0.00066856	0.00059238	0.00013341	1073.2	8.4437e-06	1.0469e-05	1173.3	294.29	1.3984e-05	5.053e-06	387.83	163.78	105.17	46.583	5.3802e-06	64.356	0.0014576	0.0017173	0.00047472	1001	1.8078e-05	1.8773e-05	1091	276.63	1.81e-05	1.9187e-05	365.84	154.61	99.96	44.544	1.8466e-05	61.499	275.640	118.964	183.352	41.291	155.428	185.862	40.979	47.659	198.865	108.415	45.223	50.304	51.839	56.318	316.750	53.870	-8191	255	
7957.002	1	1	0	0	0.15647	0.17932	0.063356	0.16862	0.086797	0.25592	0.020674	0.28581	0.26839	0.17922	0.39799	0.18656	0.35982	0.11591	0.0564	0.12143	-2.2729	-2.3104	-2.4354	-2.8646	-2.3812	-2.7062	-2.8292	-2.6	-3.0271	-2.6813	-2.6333	-2.7687	-2.5896	-2.8937	-2.7229	-2.5708	381.591	292.964	338.651	353.601	109.647	276.199	333.234	347.495	341.955	272.822	31.349	39.049	372.937	32.789	336.887	119.857	0.00081184	0.00084134	0.00024027	1072.8	1.1769e-05	4.3236e-06	1164.1	292.6	6.64e-06	7.8987e-06	385.98	163.54	105.27	46.392	7.3038e-06	65.35	0.0015022	0.0017364	0.00048124	1002.2	1.8422e-05	1.8846e-05	1085	275.23	1.7724e-05	1.8853e-05	365.74	154.25	99.918	44.476	1.8015e-05	61.414	269.303	106.024	125.063	41.121	215.017	208.709	41.078	47.410	226.715	202.083	44.862	50.536	51.678	56.340	216.091	53.654	-8191	255	
7957.098	1	1	0	0	0.17049	0.19621	0.14427	0.10372	0.11186	0.19557	0.17821	0.028887	0.048114	0.17809	0.14265	0.30631	0.16822	0.47261	0.077043	0.21555	-2.5354	-2.475	-2.4875	-2.925	-2.4771	-2.6917	-2.9875	-2.35	-3.0396	-2.6708	-2.6271	-3.0062	-2.4354	-2.7854	-2.7438	-2.3937	53.804	175.445	214.655	319.096	203.124	325.789	261.510	171.287	158.079	180.934	354.108	346.774	295.432	381.703	64.935	327.989	0.0009605	0.00060259	8.6398e-05	1072.3	1.4455e-05	6.8278e-06	1169.3	295.13	5.9416e-06	6.6702e-06	388.72	164.91	106.5	47.284	4.5895e-06	65.153	0.0014819	0.0016948	0.00046528	1002	1.7957e-05	1.8802e-05	1089.5	277.04	1.7872e-05	1.8036e-05	366.52	155.37	100.79	44.883	1.7484e-05	61.778	275.684	107.277	351.636	41.421	207.595	161.004	40.943	47.401	236.185	154.374	45.445	50.572	51.546	56.210	152.090	53.771	-8191	255	
7957.194	1	1	0	0	0.029265	0.058496	0.1625	0.31899	0.1077	0.10288	0.34191	0.0767	0.24057	0.086446	0.14627	0.097364	0.30025	0.23932	0.10356	0.061264	-2.4125	-2.5354	-2.5333	-3.15	-2.6396	-2.7146	-2.9437	-2.3792	-3.0167	-2.5563	-2.6312	-3.0083	-2.6333	-2.7167	-2.8229	-2.5729	173.593	156.852	55.127	388.186	295.501	274.247	331.597	308.462	196.991	291.852	294.872	66.233	320.140	332.884	185.695	163.043	0.00095647	0.00074284	0.00012107	1075	5.322e-06	3.0218e-06	1171.6	295.48	1.102e-05	8.2477e-06	391.04	166.04	106.12	46.809	4.9182e-06	65.288	0.001466	0.001708	0.00046511	1005.4	1.7772e-05	1.8754e-05	1093.8	277.75	1.8366e-05	1.9344e-05	368.17	156	100.85	44.763	1.8296e-05	61.723	278.398	66.732	65.410	41.650	188.865	204.750	41.118	47.475	240.265	335.986	45.557	50.283	51.429	56.379	182.168	53.775	-8191	255	
7957.315	1	1	0	0	0.2565	0.22018	0.12216	0.27712	0.11838	0.16853	0.23885	0.13389	0.11869	0.08838	0.17918	0.084124	0.21356	0.054047	0.20329	0.19117	-2.5	-2.8021	-2.2625	-3.05	-2.3833	-2.6208	-3.0292	-2.3979	-2.6375	-2.8479	-2.3937	-2.9917	-2.7333	-2.5479	-2.7542	-2.4854	184.029	369.788	233.746	333.888	41.663	372.443	360.977	312.168	377.686	200.178	322.855	161.175	120.052	370.577	280.370	312.039	0.0008404	0.00047555	0.00045842	1078.2	7.0071e-06	7.9347e-06	1173.3	295.04	4.9581e-06	4.0652e-06	392.7	166.41	107.72	46.822	9.438e-06	64.443	0.0015334	0.0017637	0.00047808	1006.7	1.8614e-05	1.916e-05	1094.6	277.43	1.8521e-05	1.9036e-05	368.55	156.66	101.59	44.682	1.8454e-05	61.241	274.358	160.485	126.446	41.593	175.581	210.196	41.222	47.350	217.193	214.889	45.599	50.317	51.523	56.206	255.499	53.904	-8191	255	
7957.386	1	1	0	0	0.21083	0.16957	0.031262	0.1174	0.15078	0.14164	0.1634	0.26275	0.091184	0.30037	0.029263	0.16953	0.11652	0.19794	0.20691	0.31339	-2.1604	-2.7458	-2.4062	-3.0042	-2.7125	-2.6771	-3.0104	-2.6021	-2.6667	-2.65	-2.4646	-2.8521	-2.8021	-2.4188	-2.9375	-2.5208	114.058	278.525	226.562	358.998	331.648	158.850	382.745	379.850	168.719	350.713	329.573	317.131	253.763	381.298	114.218	353.241	0.0010628	0.00042852	0.00019545	1079.8	1.1229e-05	6.6322e-06	1169.1	292.01	1.1274e-05	4.3543e-07	392	167.44	107.35	47.033	4.3822e-06	64.602	0.0015283	0.0017061	0.0004686	1007.4	1.8138e-05	1.8578e-05	1092.2	276.59	1.8497e-05	1.8681e-05	368.46	156.45	101.69	44.75	1.9035e-05	61.271	274.228	142.895	82.567	41.389	153.789	153.903	41.137	47.024	227.242	106.881	45.301	50.204	51.889	56.121	249.978	54.179	-8191	255	
7957.507	1	1	0	0	0.25917	0.13559	0.17566	0.28045	0.16697	0.45542	0.2593	0.11953	0.078124	0.23114	0.24422	0.01424	0.044724	0.25072	0.041091	0.188	-2.1125	-2.7562	-2.4083	-2.9375	-2.6562	-2.4854	-2.8854	-2.7396	-2.475	-2.7938	-2.4396	-3.1125	-2.6729	-2.6146	-2.8812	-2.6229	183.904	131.271	210.858	303.706	86.015	172.648	366.068	322.930	253.424	50.169	335.780	260.671	351.849	367.043	362.706	385.410	0.00083756	0.00096868	0.00012564	1082.3	1.2124e-05	5.7742e-06	1172.2	293.91	9.4625e-06	1.0593e-05	388.24	165.33	106.14	46.415	8.3978e-06	64.283	0.001555	0.0018139	0.00049913	1009.8	1.913e-05	2.036e-05	1093.4	277.64	1.9348e-05	2.0314e-05	366.92	155.27	101.02	44.383	1.9685e-05	60.993	279.596	131.535	87.851	41.555	162.157	227.431	40.936	47.356	268.997	175.501	45.381	50.670	51.723	56.314	189.616	53.408	-8191	255	
7957.601	1	1	0	0	0.14023	0.10982	0.23037	0.1648	0.11076	0.25475	0.11397	0.34945	0.083321	0.20427	0.22917	0.22601	0.17181	0.082789	0.13775	0.26557	-2.1125	-2.925	-2.4437	-2.8396	-2.7667	-2.3812	-2.9604	-2.675	-2.4271	-2.8688	-2.7021	-2.7375	-2.8042	-2.3792	-2.8292	-2.6417	108.389	303.802	356.574	332.881	260.286	118.774	262.402	298.681	163.081	74.480	164.997	346.741	352.086	39.832	253.453	318.209	0.00094158	0.00039459	0.00016631	1078.5	7.5422e-06	4.6457e-06	1177.5	297.21	3.011e-06	5.241e-07	389.55	164.63	106.35	46.933	1.0306e-05	65.133	0.0016316	0.0018294	0.0005064	1010	1.9409e-05	2.0336e-05	1094.2	277.68	1.9051e-05	1.9831e-05	366.76	155.75	101.4	44.743	1.9679e-05	61.662	270.018	170.321	86.647	41.555	208.761	131.311	41.006	47.409	199.566	62.479	45.127	50.564	51.312	56.404	230.788	53.566	-8191	255	
7957.698	1	1	0	0	0.17121	0.1907	0.070123	0.34127	0.21578	0.014583	0.24268	0.21704	0.12985	0.26082	0.15035	0.20458	0.11219	0.17898	0.046916	0.051016	-2.0833	-2.725	-2.5438	-2.6396	-2.8021	-2.4	-2.8812	-2.6917	-2.4188	-2.8667	-2.7458	-2.5146	-2.9062	-2.4146	-2.85	-2.8729	329.351	277.889	122.427	270.414	161.066	86.823	35.253	304.150	217.895	387.741	36.523	103.961	352.304	381.861	333.068	94.916	0.00084862	0.0008789	0.0001519	1081	1.1546e-05	4.6065e-06	1170.3	293.93	1.2356e-05	3.7214e-06	390.41	165.43	106.83	46.613	4.7621e-06	64.432	0.0015833	0.0018107	0.00050317	1010.3	1.8654e-05	2.0155e-05	1095.2	277.6	1.9585e-05	2.0335e-05	366.94	155.83	101.18	44.522	2.0452e-05	61.237	280.178	112.946	148.697	41.639	241.259	144.742	41.021	47.149	233.685	255.930	45.022	50.272	51.591	56.185	220.107	53.565	-8191	255	
7957.794	1	1	0	0	0.07945	0.13066	0.12665	0.18555	0.28818	0.19772	0.3725	0.12145	0.1684	0.075676	0.080157	0.15174	0.16975	0.080083	0.44439	0.10064	-1.9479	-2.8542	-2.5458	-2.7729	-2.9146	-2.3354	-2.9729	-2.8271	-2.4625	-2.8146	-2.6042	-2.7167	-2.8792	-2.5625	-2.6792	-2.8917	274.760	185.874	265.863	48.914	319.979	166.926	374.823	310.955	328.712	300.748	310.487	307.068	257.828	231.823	49.914	117.535	0.00092882	0.00092442	0.00017438	1079.4	7.9207e-06	4.207e-06	1169.7	291.44	1.1235e-05	7.5706e-06	385.08	163.58	105.12	46.38	4.1299e-06	63.506	0.0016802	0.0018943	0.0005367	1009.5	1.9747e-05	2.0918e-05	1089	276.08	2.0312e-05	2.1016e-05	364.44	154.34	100.54	44.262	2.1107e-05	60.423	274.647	126.592	145.253	41.430	291.149	118.505	40.666	47.201	202.455	207.898	45.310	49.901	51.515	55.962	247.897	54.024	-8191	255	
7957.914	1	1	0	0	0.037297	0.30048	0.049594	0.091832	0.068245	0.13079	0.33777	0.21753	0.15155	0.27102	0.054888	0.11049	0.1903	0.097584	0.2538	0.34302	-2.0271	-2.85	-2.4667	-2.7167	-2.925	-2.5167	-2.9292	-2.9458	-2.4625	-2.9917	-2.6292	-2.7125	-2.8417	-2.5896	-2.6813	-3.0229	83.737	217.853	300.679	179.284	170.619	356.576	36.213	162.613	285.208	354.121	310.203	50.826	142.935	291.405	327.508	326.461	0.00089688	0.00071771	0.00027568	1075.5	5.7023e-06	7.3989e-06	1165.1	292.82	1.0818e-05	2.0508e-06	385.07	163.86	106.9	46.55	8.9995e-06	64.117	0.0016847	0.0019389	0.00055235	1008.4	2.0943e-05	2.1475e-05	1088	276.37	2.0292e-05	2.1819e-05	363.39	154.61	101.1	44.434	2.0492e-05	60.995	266.336	96.543	70.071	41.387	177.724	211.903	40.663	47.448	180.494	136.442	45.245	50.323	51.780	56.435	172.041	53.328	-8191	255	
7957.986	1	1	0	0	0.098082	0.31308	0.071577	0.12231	0.11101	0.078456	0.23112	0.22416	0.093248	0.12448	0.11012	0.20098	0.023685	0.36084	0.18031	0.21178	-1.8542	-2.7229	-2.5563	-2.7021	-2.9146	-2.5708	-2.5021	-2.9729	-2.3604	-2.7375	-2.7625	-2.5854	-2.9979	-2.6708	-2.7375	-3.0396	336.438	146.973	145.611	184.441	129.320	324.630	240.288	256.077	153.681	60.834	267.002	360.315	355.718	339.075	292.329	325.288	0.00075035	0.00078735	0.00016401	1080.2	1.981e-06	6.4098e-06	1162.5	293.6	6.373e-06	8.5193e-06	383.49	164.38	106.54	46.579	4.8265e-06	64.696	0.0016748	0.0019325	0.00054595	1008	2.0246e-05	2.1742e-05	1088.9	277.26	2.0626e-05	2.1906e-05	363.99	155.02	101.25	44.554	2.0981e-05	61.265	272.756	161.340	128.823	41.384	182.593	199.466	40.930	47.286	192.561	215.304	45.094	50.760	51.407	56.073	351.196	54.003	-8191	255	
7958.082	1	1	0	0	0.17382	0.077477	0.16094	0.28287	0.078402	0.23223	0.14601	0.13629	0.20844	0.015099	0.09589	0.18097	0.1906	0.21863	0.11816	0.12096	-2.1854	-2.7354	-2.6083	-2.4958	-2.9333	-2.7354	-2.5583	-2.9833	-2.5396	-2.9271	-2.9625	-2.6	-2.9521	-2.6	-2.625	-3.0438	285.839	36.060	174.092	387.273	176.773	347.134	244.617	260.692	80.595	127.564	365.041	383.466	351.252	43.209	267.969	59.118	0.0008816	0.0002649	0.00031488	1081.1	1.6745e-05	3.1182e-06	1163	292.87	1.1641e-05	8.9115e-06	385.24	164.6	106.4	46.513	5.0426e-06	63.696	0.0016985	0.0019721	0.000561	1010.8	2.1104e-05	2.2972e-05	1093.7	277.75	2.1931e-05	2.3118e-05	363.88	154.78	101.1	44.309	2.2107e-05	60.699	271.468	183.695	97.064	41.442	204.731	131.645	40.968	47.665	243.159	122.763	45.137	50.311	51.286	56.123	161.607	53.703	-8191	255	
7958.178	1	1	0	0	0.29769	0.20342	0.20187	0.069282	0.36499	0.11248	0.2605	0.28256	0.13513	0.060674	0.096307	0.13822	0.16341	0.30107	0.11568	0.13531	-2.0729	-2.6229	-2.8312	-2.475	-2.8708	-2.6958	-2.6437	-3.0375	-2.3646	-2.8125	-2.95	-2.5125	-3.0792	-2.8125	-2.425	-2.8833	195.411	61.911	106.477	275.022	90.833	60.482	327.931	346.882	82.749	219.683	145.768	353.715	343.260	371.057	225.113	198.559	0.00085089	0.0012442	0.00023728	1077.6	9.4192e-07	3.1239e-06	1165.9	291.31	1.6871e-05	7.0577e-06	383.32	164.53	106.38	46.446	1.3973e-05	64.247	0.001792	0.0020747	0.00057249	1009.4	2.1776e-05	2.2304e-05	1087.8	275.83	2.066e-05	2.2119e-05	362.71	154.97	101.73	44.401	2.1392e-05	60.98	275.093	135.361	162.378	41.416	272.871	95.726	41.006	47.458	212.513	218.879	45.269	50.198	51.527	56.159	215.415	53.648	-8191	255	
7958.275	1	1	0	0	0.10213	0.12873	0.039443	0.27955	0.15473	0.07636	0.20998	0.24599	0.060427	0.19743	0.23294	0.17455	0.40527	0.25742	0.3264	0.34059	-1.9792	-2.5979	-2.9354	-2.4813	-2.8021	-2.7958	-2.7167	-2.9833	-2.4875	-2.5875	-3.0187	-2.5104	-2.9042	-2.9437	-2.4167	-2.8854	353.463	237.443	85.675	335.341	377.399	160.174	365.299	326.921	316.616	349.974	35.812	276.028	76.217	94.033	350.958	331.009	0.00082974	0.00081827	0.00010096	1081.5	5.612e-06	3.4348e-06	1166.8	294.47	6.8301e-06	7.8745e-06	385.22	165.27	106.41	46.622	1.3218e-05	64.014	0.0016864	0.001974	0.0005474	1011.2	2.1104e-05	2.1979e-05	1087.2	277.85	2.1506e-05	2.2373e-05	364.01	155.54	101.41	44.421	2.1449e-05	60.823	271.983	105.289	164.191	41.340	124.621	210.319	41.031	47.553	213.649	194.881	45.125	50.437	51.409	56.000	201.493	53.745	-8191	255	
7958.395	1	1	0	0	0.16363	0.17029	0.16089	0.30217	0.098498	0.30884	0.2649	0.20071	0.35319	0.079268	0.047303	0.22967	0.13581	0.079646	0.014075	0.02736	-1.9854	-2.5271	-2.8563	-2.5479	-2.7042	-2.8146	-2.625	-3.0458	-2.55	-2.3521	-3.1479	-2.4771	-2.7917	-2.825	-2.5604	-2.9375	362.953	51.636	166.975	352.518	252.666	51.635	30.156	364.375	293.698	301.583	238.127	345.949	159.356	103.071	42.077	100.733	0.0009287	0.00013005	0.00020061	1080	4.2085e-06	3.4596e-06	1162.3	292.11	2.7403e-06	1.1629e-05	383.09	163.26	105.65	46.282	8.1037e-06	64.099	0.0017396	0.0020081	0.00054989	1006	2.0897e-05	2.188e-05	1085.9	276.31	2.1404e-05	2.2532e-05	363.56	154.38	100.71	44.407	2.1707e-05	61.046	275.979	314.017	114.644	41.187	245.452	68.209	40.853	47.373	142.873	182.280	45.267	50.160	51.212	55.967	135.719	53.683	-8191	255	
7958.490	1	1	0	0	0.13459	0.023189	0.12945	0.30048	0.13643	0.075307	0.16634	0.19987	0.23302	0.041484	0.16736	0.34711	0.25883	0.10496	0.3251	0.1239	-2.0917	-2.6167	-2.8875	-2.5354	-2.875	-2.8042	-2.475	-2.7771	-2.7812	-2.4875	-3.0771	-2.6125	-2.5625	-2.8729	-2.2771	-2.9458	210.087	307.394	163.683	341.423	213.742	328.696	249.986	314.887	147.407	148.763	361.799	314.054	321.275	370.632	130.635	287.635	0.00087868	0.00065891	0.00016666	1072.8	1.4979e-05	8.0807e-06	1159.6	295.26	1.3307e-05	3.4843e-06	384.85	164.14	106	46.384	9.4602e-06	64.145	0.0017438	0.002032	0.00055122	1003	2.0735e-05	2.1198e-05	1082.8	276.81	2.041e-05	2.1326e-05	364.34	154.48	101.01	44.366	2.0434e-05	60.793	284.093	210.075	150.919	41.554	207.677	222.093	41.200	47.248	182.269	229.562	45.392	50.567	51.429	56.403	200.809	53.820	-8191	255	
7958.587	1	1	0	0	0.11803	0.058813	0.012736	0.14316	0.32918	0.11727	0.41744	0.14727	0.15785	0.13684	0.23302	0.15118	0.24736	0.17784	0.2078	0.27384	-2.1646	-2.3937	-2.8833	-2.5958	-2.4333	-2.8958	-2.5938	-2.7479	-2.7104	-2.1875	-3.0854	-2.5458	-2.6021	-2.9354	-2.3854	-2.7833	386.614	61.912	58.460	284.193	379.327	325.777	358.450	279.422	202.823	197.253	297.728	41.653	322.624	357.365	215.150	364.198	0.00090356	0.00069563	0.00012976	1076.6	1.637e-05	5.6417e-06	1152.4	291.99	1.557e-05	7.8416e-06	383.88	162.82	106.23	46.337	3.054e-06	63.783	0.0016429	0.0018945	0.00052922	1004.1	2.0277e-05	2.0723e-05	1081.6	276.2	1.99e-05	2.0296e-05	363.23	153.96	100.51	44.252	1.9855e-05	60.795	274.543	111.321	237.795	41.418	247.899	196.286	40.798	47.364	229.611	206.465	45.369	50.259	51.949	55.900	210.904	54.007	-8191	255	
7958.682	1	1	0	0	0.13218	0.34436	0.15733	0.31386	0.18915	0.069275	0.33772	0.33843	0.11616	0.064555	0.1816	0.29271	0.28323	0.10423	0.26469	0.16548	-2.5083	-2.4437	-2.7167	-2.8229	-2.4688	-2.7917	-2.7	-2.6667	-2.8729	-2.35	-2.8208	-2.75	-2.6729	-3.0333	-2.5104	-2.65	387.563	223.601	164.000	350.905	305.026	246.540	342.240	373.366	315.453	210.471	47.677	359.337	281.898	56.740	43.618	68.302	0.00078983	0.00054555	4.8387e-05	1076.5	2.1296e-05	8.3539e-06	1155.1	292.66	9.0271e-06	3.4609e-06	382.84	163.74	105.48	46.502	8.9641e-06	63.893	0.0016245	0.0018792	0.00052068	1002.6	1.9899e-05	2.0785e-05	1080.5	276.31	2.0128e-05	2.0662e-05	362.88	153.95	100.76	44.355	2.0667e-05	60.811	283.522	119.225	40.200	41.502	219.170	188.605	40.936	47.289	243.649	118.444	45.301	50.585	51.585	56.192	214.664	53.935	-8191	255	
7958.778	1	1	0	0	0.20664	0.17374	0.152	0.18037	0.17191	0.18775	0.203	0.25782	0.15888	0.16697	0.073756	0.26936	0.16058	0.28681	0.23004	0.35329	-2.4813	-2.4062	-2.7917	-2.7687	-2.5354	-2.9229	-2.5583	-2.7062	-2.8104	-2.4479	-2.6875	-2.9833	-2.3604	-2.9229	-2.5812	-2.6021	386.386	41.442	167.659	388.668	320.562	125.165	342.292	245.694	106.248	73.040	377.780	330.129	371.663	49.195	45.828	38.365	0.00090672	0.0014081	0.00016436	1066.9	1.9289e-05	6.8547e-06	1160.9	292.26	5.1862e-06	9.1862e-06	384.27	163.83	105	46.556	3.0109e-06	64.137	0.0016489	0.0019009	0.00052167	1002.1	1.9966e-05	2.0573e-05	1079.9	276.2	1.9679e-05	2.0835e-05	362.96	153.84	100.17	44.373	2.0278e-05	61.024	281.528	118.863	130.756	41.290	169.169	175.178	41.022	47.390	232.935	183.269	45.242	50.632	51.754	56.064	199.744	53.628	-8191	255	
7958.874	1	1	0	0	0.1902	0.36871	0.16641	0.14902	0.55687	0.052441	0.18419	0.14662	0.032298	0.055446	0.26054	0.077349	0.12722	0.20601	0.18416	0.011908	-2.45	-2.4646	-2.7083	-2.7542	-2.3667	-3.0396	-2.7104	-2.7271	-2.8063	-2.4854	-2.8	-2.8792	-2.1979	-2.8854	-2.6958	-2.6917	257.798	157.322	284.990	274.505	37.888	363.939	66.503	389.424	248.622	106.271	29.874	350.213	65.007	317.241	297.992	274.340	0.00089577	0.00040874	0.00012388	1067	1.5124e-05	1.9618e-06	1156.1	294.19	1.2028e-05	1.0182e-05	383.95	162.6	105.49	46.36	9.2984e-06	64.583	0.0015639	0.0018317	0.000513	999.4	1.8869e-05	2.0011e-05	1081.4	276.38	1.9213e-05	2.0075e-05	364.59	153.53	100.18	44.442	1.9786e-05	61.211	276.332	92.779	136.151	41.463	186.607	254.613	40.886	47.470	227.875	207.588	45.079	50.234	51.469	56.057	271.908	53.397	-8191	255	
7958.995	1	1	0	0	0.07727	0.10189	0.23879	0.31303	0.10003	0.19588	0.052862	0.34731	0.07928	0.35826	0.12866	0.053523	0.067782	0.14252	0.21685	0.20985	-2.3771	-2.5646	-2.7042	-2.9313	-2.3396	-2.925	-2.6979	-2.4208	-2.7667	-2.5708	-2.5625	-2.8563	-2.3979	-2.8396	-2.8229	-2.5687	263.321	173.492	385.454	36.241	342.033	42.191	178.358	372.130	280.218	215.053	301.320	224.454	62.512	345.219	305.323	371.074	0.00091641	0.00089215	0.00025169	1073.4	1.2402e-05	6.8942e-06	1149	292.93	1.3886e-05	9.2828e-06	383.73	162.56	105.47	46.692	3.7584e-06	64.407	0.0015727	0.0018222	0.00051498	1000.8	1.9116e-05	2.011e-05	1076.6	276.12	1.9023e-05	2.0033e-05	362.85	152.99	99.929	44.453	2.0406e-05	61.126	268.877	102.449	142.677	41.636	191.963	118.146	40.731	47.405	156.363	168.647	45.504	50.548	51.593	55.851	177.904	53.652	-8191	255	
7959.091	1	1	0	0	0.042334	0.26065	0.33731	0.12695	0.18852	0.15998	0.39247	0.245	0.21619	0.25183	0.3023	0.071988	0.22541	0.29957	0.069801	0.199	-2.5062	-2.55	-2.6437	-2.9375	-2.4667	-2.6917	-2.8854	-2.5438	-2.7271	-2.525	-2.6292	-2.7438	-2.4521	-2.9167	-2.6958	-2.5417	191.158	307.069	64.438	278.411	137.836	98.208	365.239	287.348	314.722	134.269	56.839	298.434	384.126	37.165	319.518	299.662	0.0007817	0.00085524	0.00043437	1066.8	1.1247e-06	9.9447e-06	1152	292.51	8.7606e-06	6.7211e-06	385.75	160.77	104.07	46.678	4.7318e-06	64.296	0.0015937	0.0018608	0.00051548	999.72	1.9627e-05	2.0826e-05	1079.1	276	1.9496e-05	2.1039e-05	362.41	152.42	99.427	44.475	2.0177e-05	60.921	274.318	123.150	138.564	41.451	312.756	150.449	41.032	47.277	209.362	143.306	45.266	50.260	51.543	56.086	230.745	53.781	-8191	255	
7959.187	1	1	0	0	0.053645	0.14268	0.29199	0.2904	0.12836	0.26293	0.34509	0.11486	0.027022	0.16374	0.084078	0.11143	0.25572	0.20279	0.27754	0.12343	-2.2625	-2.6896	-2.4771	-2.9688	-2.6	-2.7188	-2.9708	-2.4521	-2.8833	-2.7271	-2.6937	-3.0375	-2.5896	-2.8063	-2.6437	-2.5833	364.221	91.065	83.674	283.314	236.438	284.723	274.656	97.593	384.518	97.951	227.227	377.919	350.970	354.012	179.890	72.926	0.00082522	0.001053	0.00018862	1072.3	7.4587e-06	4.4462e-06	1159.1	292.18	3.6302e-06	4.7525e-06	385.38	162.45	103.87	46.483	2.7455e-06	64.669	0.0016452	0.0018404	0.00053032	1003.2	1.9473e-05	2.0801e-05	1081.4	276.25	1.9635e-05	2.0443e-05	362.81	153.06	99.657	44.409	2.059e-05	61.191	264.243	151.249	105.218	41.155	221.339	222.860	40.733	47.461	233.254	145.497	45.290	50.182	51.613	55.946	197.758	53.666	-8191	255	
7959.283	1	1	0	0	0.11941	0.013179	0.16635	0.16078	0.34998	0.1122	0.13318	0.18301	0.063558	0.10081	0.18346	0.22295	0.1232	0.261	0.33817	0.23691	-2.4104	-2.5167	-2.3312	-3.15	-2.5271	-2.6104	-2.9062	-2.5292	-2.5833	-2.7896	-2.6354	-2.8542	-2.6917	-2.5104	-2.9146	-2.55	86.774	257.078	292.758	74.542	290.662	310.876	335.815	355.702	78.971	182.204	82.047	330.559	111.276	372.037	158.446	349.433	0.00092278	0.00018546	0.00019883	1074.9	1.6158e-05	4.9954e-06	1163.8	291.16	9.4755e-06	1.1219e-05	383.61	162.94	105.36	46.408	7.3637e-06	64.277	0.0016496	0.0018865	0.00053374	1003.1	1.9963e-05	2.134e-05	1083.5	276.12	2.0316e-05	2.0718e-05	361.68	152.75	99.654	44.288	2.0075e-05	60.916	276.772	127.762	122.541	41.594	217.700	172.960	40.867	47.647	241.682	198.393	45.421	50.706	51.750	56.103	223.305	53.656	-8191	255	
#DATA ENDS
