BOXY.EXE: ISS Imagent and Oximeter Data Acquisition Program Version 0.80
Ascii Record File

#ACQ INFORMATION
2  Detector Channels 
16  External MUX Channels 
1  Auxiliary Channels 
5000  Waveform (CCF) Frequency (Hz)
1  Waveforms Skipped 
30  Waveforms Averaged 
1  Cycles Averaged 
16  Acquisitions per Waveform 
10.0806  Updata Rate (Hz) 

#FILE INFORMATION
TRUE -- External MUX Channel results are PARSED.
FALSE -- AC DC and Phase are NOT grouped.
TRUE -- Companion Program Settings File CREATED.
FALSE -- AC data not excluded
FALSE -- DC data not excluded
FALSE -- Phase data not excluded
FALSE -- Auxillary Chn. data not excluded
Tab delimiters

#CALIBRATION STATE
TRUE -- Waveform Calibration Values APPLIED.


#AUX CALIBRATION VALUES
Val Type	aux-1	

Term	1.0000e+00	
Factor	0.0000e+00	


#WF CALIBRATION VALUES
A = Detector Channel
Val Type	A-AC1	A-AC2	A-AC3	A-AC4	A-AC5	A-AC6	A-AC7	A-AC8	A-AC9	A-AC10	A-AC11	A-AC12	A-AC13	A-AC14	A-AC15	A-AC16	A-DC1	A-DC2	A-DC3	A-DC4	A-DC5	A-DC6	A-DC7	A-DC8	A-DC9	A-DC10	A-DC11	A-DC12	A-DC13	A-DC14	A-DC15	A-DC16	A-Ph1	A-Ph2	A-Ph3	A-Ph4	A-Ph5	A-Ph6	A-Ph7	A-Ph8	A-Ph9	A-Ph10	A-Ph11	A-Ph12	A-Ph13	A-Ph14	A-Ph15	A-Ph16	

Term	0.00000e+00	0.00000e+00	0.00000e+00	0.00000e+00	0.00000e+00	0.00000e+00	0.00000e+00	0.00000e+00	0.00000e+00	0.00000e+00	0.00000e+00	0.00000e+00	0.00000e+00	0.00000e+00	0.00000e+00	0.00000e+00	0.00000e+00	0.00000e+00	0.00000e+00	0.00000e+00	0.00000e+00	0.00000e+00	0.00000e+00	0.00000e+00	0.00000e+00	0.00000e+00	0.00000e+00	0.00000e+00	0.00000e+00	0.00000e+00	0.00000e+00	0.00000e+00	0.00000e+00	0.00000e+00	0.00000e+00	0.00000e+00	0.00000e+00	0.00000e+00	0.00000e+00	0.00000e+00	0.00000e+00	0.00000e+00	0.00000e+00	0.00000e+00	0.00000e+00	0.00000e+00	0.00000e+00	0.00000e+00	
Factor	1.00000e+00	1.00000e+00	1.00000e+00	1.00000e+00	1.00000e+00	1.00000e+00	1.00000e+00	1.00000e+00	1.00000e+00	1.00000e+00	1.00000e+00	1.00000e+00	1.00000e+00	1.00000e+00	1.00000e+00	1.00000e+00	1.00000e+00	1.00000e+00	1.00000e+00	1.00000e+00	1.00000e+00	1.00000e+00	1.00000e+00	1.00000e+00	1.00000e+00	1.00000e+00	1.00000e+00	1.00000e+00	1.00000e+00	1.00000e+00	1.00000e+00	1.00000e+00	X	X	X	X	X	X	X	X	X	X	X	X	X	X	X	X	

B = Detector Channel
Val Type	B-AC1	B-AC2	B-AC3	B-AC4	B-AC5	B-AC6	B-AC7	B-AC8	B-AC9	B-AC10	B-AC11	B-AC12	B-AC13	B-AC14	B-AC15	B-AC16	B-DC1	B-DC2	B-DC3	B-DC4	B-DC5	B-DC6	B-DC7	B-DC8	B-DC9	B-DC10	B-DC11	B-DC12	B-DC13	B-DC14	B-DC15	B-DC16	B-Ph1	B-Ph2	B-Ph3	B-Ph4	B-Ph5	B-Ph6	B-Ph7	B-Ph8	B-Ph9	B-Ph10	B-Ph11	B-Ph12	B-Ph13	B-Ph14	B-Ph15	B-Ph16	

Term	0.00000e+00	0.00000e+00	0.00000e+00	0.00000e+00	0.00000e+00	0.00000e+00	0.00000e+00	0.00000e+00	0.00000e+00	0.00000e+00	0.00000e+00	0.00000e+00	0.00000e+00	0.00000e+00	0.00000e+00	0.00000e+00	0.00000e+00	0.00000e+00	0.00000e+00	0.00000e+00	0.00000e+00	0.00000e+00	0.00000e+00	0.00000e+00	0.00000e+00	0.00000e+00	0.00000e+00	0.00000e+00	0.00000e+00	0.00000e+00	0.00000e+00	0.00000e+00	6.26660e+01	-1.60708e+02	-1.38034e+02	-1.81640e+02	-8.09839e+01	-1.13405e+02	-1.57973e+02	-1.62015e+02	-1.03025e+02	-8.37485e+01	-1.80409e+02	-1.70637e+02	-1.81506e+02	-1.76090e+02	-1.06331e+02	-1.49360e+02	
Factor	4.46417e-05	7.40306e-05	1.66068e-05	1.80300e-01	6.95920e-07	6.52801e-07	1.65304e-01	5.16653e-02	1.08927e-06	6.59530e-07	1.02996e-01	2.98071e-02	2.44284e-02	9.16901e-03	8.66652e-07	1.32262e-02	3.52392e-07	3.56068e-07	9.93150e-08	8.43590e-02	3.89487e-09	3.90538e-09	7.38614e-02	2.41382e-02	3.89876e-09	3.90770e-09	4.36374e-02	1.29438e-02	1.10597e-02	4.10157e-03	3.91558e-09	5.63340e-03	X	X	X	X	X	X	X	X	X	X	X	X	X	X	X	X	



#DISTANCE SETTINGS
A = Detector Channel
A-1	A-2	A-3	A-4	A-5	A-6	A-7	A-8	A-9	A-10	A-11	A-12	A-13	A-14	A-15	A-16	

2.5000e+00	3.0000e+00	2.5000e+00	3.0000e+00	2.0000e+00	3.0000e+00	1.5000e+00	3.0000e+00	3.0000e+00	3.0000e+00	3.0000e+00	3.0000e+00	3.0000e+00	3.0000e+00	1.5000e+00	3.0000e+00	

B = Detector Channel
B-1	B-2	B-3	B-4	B-5	B-6	B-7	B-8	B-9	B-10	B-11	B-12	B-13	B-14	B-15	B-16	

1.0000e+01	1.0000e+01	1.0000e+01	1.4400e+00	1.0000e+01	1.0000e+01	1.5100e+00	1.9400e+00	1.0000e+01	1.0000e+01	1.9900e+00	2.4900e+00	2.4100e+00	2.9000e+00	1.0000e+01	2.9800e+00	




#DATA BEGINS
time	group	step	mark	flag	A-AC1	A-AC2	A-AC3	A-AC4	A-AC5	A-AC6	A-AC7	A-AC8	A-AC9	A-AC10	A-AC11	A-AC12	A-AC13	A-AC14	A-AC15	A-AC16	A-DC1	A-DC2	A-DC3	A-DC4	A-DC5	A-DC6	A-DC7	A-DC8	A-DC9	A-DC10	A-DC11	A-DC12	A-DC13	A-DC14	A-DC15	A-DC16	A-Ph1	A-Ph2	A-Ph3	A-Ph4	A-Ph5	A-Ph6	A-Ph7	A-Ph8	A-Ph9	A-Ph10	A-Ph11	A-Ph12	A-Ph13	A-Ph14	A-Ph15	A-Ph16	B-AC1	B-AC2	B-AC3	B-AC4	B-AC5	B-AC6	B-AC7	B-AC8	B-AC9	B-AC10	B-AC11	B-AC12	B-AC13	B-AC14	B-AC15	B-AC16	B-DC1	B-DC2	B-DC3	B-DC4	B-DC5	B-DC6	B-DC7	B-DC8	B-DC9	B-DC10	B-DC11	B-DC12	B-DC13	B-DC14	B-DC15	B-DC16	B-Ph1	B-Ph2	B-Ph3	B-Ph4	B-Ph5	B-Ph6	B-Ph7	B-Ph8	B-Ph9	B-Ph10	B-Ph11	B-Ph12	B-Ph13	B-Ph14	B-Ph15	B-Ph16	aux-1	digaux	

8399.611	1	1	0	256	0.23523	0.14781	0.12497	0.21961	0.20765	0.17636	0.28064	0.19419	0.18338	0.10357	0.25707	0.059544	0.19051	0.17016	0.20818	0.29383	-2.1833	-2.6083	-2.9479	-2.4792	-2.9083	-2.6771	-2.5667	-3.1333	-2.5812	-2.7104	-2.9625	-2.4292	-2.6688	-2.8146	-2.5771	-2.8875	221.594	32.090	-98.553	91.728	97.771	142.733	139.662	61.333	223.836	-50.642	38.583	219.301	231.087	6.116	179.727	49.176	0.0017813	0.0010301	0.00047758	329.48	3.2611e-05	1.3886e-05	402.36	122.69	1.0864e-05	1.5786e-05	181.85	71.444	45.296	20.734	6.8007e-06	33.573	0.0021877	0.0023284	0.00060355	767.89	2.4427e-05	2.5843e-05	814.09	248.25	2.5565e-05	2.6034e-05	425.71	137.17	113.38	45.294	2.4603e-05	61.898	0.739	-13.391	-46.127	-108.751	205.158	-27.075	-109.394	-103.637	125.300	45.561	-104.938	-101.035	-99.226	-94.316	-35.374	-97.249	-8191	255	
8399.707	1	1	0	0	0.15985	0.079112	0.090688	0.21273	0.10625	0.14534	0.22785	0.079751	0.12425	0.14763	0.20186	0.065456	0.32828	0.13054	0.24833	0.19227	-2.1354	-2.6417	-2.9208	-2.4542	-2.8438	-2.8208	-2.4854	-2.8396	-2.7604	-2.5625	-3.0563	-2.4792	-2.8646	-3.0375	-2.4583	-3.0083	234.849	57.172	-96.031	217.513	-15.248	195.596	156.816	-65.631	156.768	136.392	-84.907	36.953	-59.492	151.215	-94.802	75.679	0.0022116	0.00014782	0.00038061	326.33	7.3746e-06	7.4403e-06	395.47	119.56	3.3493e-05	1.2263e-05	184.28	71.901	44.821	20.425	1.7743e-05	33.241	0.0024552	0.0024101	0.0006292	801.99	2.7001e-05	2.6129e-05	815.69	254.61	2.7185e-05	2.5676e-05	420.77	140.97	115.69	44.457	2.4059e-05	63.116	0.167	51.236	-48.433	-108.828	-120.407	-58.630	-109.390	-103.743	216.192	28.293	-104.822	-102.002	-98.670	-94.389	-6.410	-97.763	-8191	255	
8399.828	1	1	0	0	0.089755	0.10768	0.156	0.10338	0.15654	0.062603	0.048208	0.12158	0.057062	0.20417	0.22512	0.15589	0.10674	0.13396	0.12559	0.14495	-2.5104	-2.7042	-3.0542	-2.7	-2.8354	-2.7771	-2.5271	-3.0167	-2.7667	-2.5771	-3.0187	-2.6375	-2.7083	-3.0333	-2.2604	-2.9	212.474	14.701	-63.640	-80.059	196.687	106.443	11.829	185.670	-96.677	1.802	225.438	193.854	164.674	-81.907	36.782	230.011	0.00024988	0.0025161	0.00034756	319.11	2.2653e-05	9.8075e-06	395.26	120.64	2.6097e-05	1.1505e-05	183.11	70.757	45.869	20.402	1.4392e-05	33.316	0.0025341	0.0023697	0.00061347	843.97	2.7949e-05	2.63e-05	824.45	270.01	2.8713e-05	2.6553e-05	427.26	151.35	120.05	45.436	2.5146e-05	68.222	114.918	-62.129	-7.902	-109.138	232.439	-5.704	-108.709	-103.438	28.767	-23.911	-105.562	-101.707	-98.382	-94.293	-52.007	-97.924	-8191	255	
8399.900	1	1	0	0	0.22228	0.045763	0.036325	0.10415	0.18324	0.076056	0.095848	0.27239	0.043154	0.21743	0.32692	0.18417	0.062907	0.11386	0.14007	0.20615	-2.4625	-2.4292	-2.9375	-2.575	-2.7188	-2.9021	-2.3292	-2.9	-2.9333	-2.5021	-2.9292	-2.6417	-2.6188	-2.9521	-2.6937	-2.8167	102.838	83.421	-11.002	168.959	-26.712	146.370	150.852	136.248	227.250	92.923	158.606	135.260	-84.146	181.086	20.861	-47.123	0.00081368	0.00055607	0.00024224	323.36	1.5327e-05	1.637e-05	396.25	123.01	3.6842e-05	1.3261e-05	183.2	71.327	45.483	20.528	1.3319e-05	33.698	0.002691	0.0025321	0.00065915	941.42	3.0311e-05	2.8746e-05	877.41	301.64	3.1404e-05	2.9394e-05	464.13	168.59	127.79	48.032	2.8326e-05	74.27	199.493	-43.240	-74.415	-109.104	-50.216	-30.081	-109.148	-104.686	15.352	-8.472	-106.019	-101.726	-99.440	-94.469	168.709	-98.020	-8191	255	
8399.996	1	1	0	0	0.14276	0.035174	0.12354	0.17709	0.056359	0.15128	0.2862	0.13047	0.15787	0.21283	0.12602	0.22975	0.24547	0.077832	0.14079	0.21909	-2.375	-2.5396	-2.9208	-2.8438	-2.8375	-2.9062	-2.5042	-2.8083	-2.8854	-2.2188	-3.0604	-2.8479	-2.4646	-2.9	-2.7188	-2.7771	158.219	94.114	-84.069	224.987	44.357	-96.807	46.667	230.974	-30.479	-76.894	-95.132	106.587	195.735	185.235	-2.236	141.325	0.0019883	0.0032325	0.00026564	331.15	1.5049e-05	1.0751e-05	394.72	124.24	2.241e-05	7.3171e-06	184.04	71.777	46.19	20.384	3.6416e-05	33.41	0.0028032	0.0026092	0.00069673	987.47	2.9919e-05	2.7901e-05	893.68	304.73	2.9618e-05	2.7504e-05	462.15	165.86	120.92	45.385	2.7947e-05	72.112	129.944	-20.610	70.655	-109.325	72.280	80.548	-109.200	-103.652	-39.048	5.960	-105.811	-100.662	-98.721	-94.132	191.817	-97.210	-8191	255	
8400.092	1	1	0	0	0.080614	0.098636	0.061379	0.033057	0.07809	0.23434	0.18172	0.069357	0.062263	0.15471	0.24663	0.10612	0.22577	0.12609	0.25089	0.31797	-2.4562	-2.4396	-2.8854	-2.8292	-2.45	-3.0208	-2.525	-2.8729	-2.8271	-2.3396	-2.8438	-2.9604	-2.2438	-2.975	-2.6437	-2.6917	218.182	57.015	188.940	201.094	169.675	45.060	231.392	24.077	83.105	77.474	211.044	205.797	-113.751	228.093	33.277	184.934	0.00082943	0.0020463	0.0002501	333.41	1.6175e-05	2.3414e-05	393.97	123.67	7.0867e-06	4.3857e-06	185.63	72.338	45.585	20.036	2.6475e-05	33.553	0.0025592	0.0023979	0.00069778	950.56	2.7844e-05	2.5722e-05	898.79	294.7	2.7591e-05	2.5683e-05	467.59	159.66	116.24	43.765	2.8854e-05	69.801	30.569	-71.451	87.788	-109.251	-58.737	-0.352	-110.310	-102.411	-46.745	-102.247	-105.740	-101.265	-98.131	-94.302	137.274	-96.543	-8191	255	
8400.188	1	1	0	0	0.17413	0.25058	0.19482	0.11927	0.3807	0.12927	0.21255	0.080877	0.095542	0.2759	0.15901	0.14729	0.16805	0.15573	0.25092	0.18557	-2.3208	-2.5125	-3.0333	-2.9688	-2.5146	-3.1917	-2.7479	-2.75	-2.8854	-2.5375	-3.0917	-2.9375	-2.4396	-2.9729	-2.6979	-2.7667	38.817	215.581	139.436	116.646	67.556	148.476	162.933	-13.659	152.486	61.369	49.235	224.904	-41.767	-36.935	38.813	238.322	0.00068728	0.00073623	0.00060502	330.97	1.5771e-05	3.5057e-06	390	123.07	3.6661e-06	1.116e-05	184.79	71.831	45.503	19.874	1.0315e-05	33.94	0.0024373	0.0023133	0.00072089	914.57	2.6506e-05	2.4792e-05	906.96	283.49	2.597e-05	2.4994e-05	470.93	152.51	110.7	42.739	2.8327e-05	66.42	171.232	11.820	109.346	-108.242	24.963	111.536	-109.949	-103.475	1.404	211.153	-105.959	-100.375	-98.878	-94.718	131.681	-97.503	-8191	255	
8400.309	1	1	0	0	0.23646	0.22934	0.18991	0.079789	0.18747	0.1032	0.35196	0.16803	0.085243	0.17498	0.09968	0.1283	0.17602	0.068671	0.16172	0.23452	-2.5771	-2.4583	-3.0042	-2.7542	-2.4979	-2.8833	-2.8625	-2.6042	-3.0938	-2.4813	-2.9021	-2.9229	-2.5812	-2.9229	-2.9	-2.4313	70.158	59.986	-87.585	231.513	119.191	169.220	230.192	86.122	-51.124	-4.059	97.247	10.395	-77.318	176.896	82.214	13.056	0.00046427	0.0033221	0.00040313	331.2	2.4016e-05	2.2791e-05	396.96	124.27	2.7509e-05	2.1115e-05	186.19	72.058	45.393	19.895	3.3895e-05	33.853	0.0022245	0.002267	0.00071266	872.94	2.5183e-05	2.536e-05	915.68	279.22	2.5229e-05	2.6457e-05	476.13	149.81	108.72	44.453	2.8729e-05	66.433	144.489	109.907	162.963	-108.572	10.754	156.131	-109.198	-103.454	3.556	165.576	-104.408	-101.164	-98.718	-94.801	7.400	-97.523	-8191	255	
8400.405	1	1	0	0	0.33644	0.095211	0.26373	0.077037	0.093811	0.12464	0.14532	0.18506	0.10686	0.15116	0.25094	0.14776	0.19846	0.16689	0.14383	0.12893	-2.6771	-2.55	-2.7583	-2.9938	-2.4083	-3.1375	-2.8417	-2.55	-3.0854	-2.5354	-2.8292	-3.0708	-2.5687	-2.9125	-2.725	-2.6688	69.867	42.938	-25.277	-96.461	9.387	-120.552	150.640	194.838	-83.744	-39.676	-94.769	118.361	199.928	104.225	54.877	238.783	0.00049678	0.0018774	0.00025877	328.24	9.8301e-06	1.6343e-05	395.61	124.38	4.5592e-06	2.6667e-05	185.32	72.13	46.049	20.058	1.8009e-05	34.203	0.0022136	0.0024631	0.00072267	868.62	2.4838e-05	2.7206e-05	908.83	276.43	2.4631e-05	2.8393e-05	474.37	149.88	110.14	46.717	2.8212e-05	65.819	151.073	155.080	210.172	-108.522	50.141	148.225	-109.055	-103.136	198.308	196.500	-105.684	-100.442	-98.914	-95.220	32.730	-97.163	-8191	255	
8400.476	1	1	0	0	0.090919	0.17287	0.16099	0.013784	0.10917	0.23567	0.078917	0.16578	0.16992	0.30942	0.25821	0.11724	0.079857	0.17783	0.22315	0.32187	-2.675	-2.8375	-2.7104	-2.8271	-2.5417	-2.9333	-2.7562	-2.4167	-3.0875	-2.6437	-2.5208	-2.9688	-2.5021	-2.7896	-2.6979	-2.5521	-108.975	207.325	-4.542	197.148	170.911	-65.914	-14.275	209.017	95.161	-9.549	153.558	-99.038	-4.185	152.854	71.560	193.429	0.00019496	0.0018715	9.3309e-05	330.57	9.6745e-06	1.9173e-05	402.44	124.86	2.6798e-05	1.672e-05	185.88	73.064	44.733	20.188	2.8763e-05	34.01	0.0021801	0.002558	0.00069242	841.88	2.4409e-05	2.7784e-05	880.15	268.66	2.4599e-05	2.8919e-05	460.06	145.9	110.94	47.335	2.7048e-05	64.305	48.029	181.782	46.948	-108.514	-112.333	165.760	-108.727	-102.939	172.959	192.589	-105.184	-100.766	-99.736	-94.754	25.375	-97.159	-8191	255	
8400.597	1	1	0	0	0.087462	0.1225	0.098372	0.18738	0.14025	0.104	0.061123	0.054119	0.16699	0.12881	0.08249	0.26495	0.12304	0.17727	0.09734	0.068143	-2.5375	-2.5438	-2.5271	-3.0354	-2.3792	-2.8292	-3.0292	-2.3646	-2.9979	-2.9062	-2.6146	-3.025	-2.5021	-2.8208	-2.8187	-2.5208	221.119	166.889	-108.720	176.588	136.984	107.004	6.116	-20.881	28.521	228.708	-64.505	224.718	2.391	115.800	101.929	151.054	0.0027923	0.0013429	0.00037181	332.29	1.0618e-05	7.0284e-06	397.57	124.88	4.4394e-05	1.5039e-05	186.98	72.164	44.768	20.402	1.7703e-05	33.516	0.0022402	0.002588	0.00066668	812.81	2.5179e-05	2.7502e-05	844.18	257.13	2.4654e-05	2.734e-05	432.84	136.76	108.64	44.359	2.3732e-05	59.642	-1.023	38.891	-13.717	-108.749	-92.890	-86.653	-109.029	-102.813	155.019	-65.174	-104.850	-100.013	-99.104	-94.287	-9.065	-97.122	-8191	255	
8400.691	1	1	0	0	0.11383	0.094923	0.15889	0.18684	0.22902	0.035492	0.14006	0.20012	0.083084	0.26905	0.11845	0.0355	0.21161	0.13759	0.2166	0.042043	-2.4146	-2.6146	-2.4437	-3.0521	-2.4521	-2.8688	-2.8625	-2.4583	-2.9146	-2.6396	-2.4188	-3.0187	-2.4729	-2.6021	-2.8646	-2.5125	13.429	-27.767	-34.449	25.803	91.840	-14.822	8.282	-15.800	114.945	218.529	126.667	7.510	191.508	-24.873	36.158	198.639	0.0014578	0.0016709	0.00039067	322.4	2.2194e-05	1.5818e-05	395.94	121.99	5.9104e-05	9.8438e-06	186.97	71.249	44.286	20.41	2.9319e-05	33.274	0.0021555	0.0023057	0.00058843	752.88	2.4445e-05	2.4658e-05	790.19	242.92	2.4222e-05	2.471e-05	409.32	132.42	109.99	43.005	2.2722e-05	59.527	-4.943	-59.244	-21.321	-108.747	236.766	-11.176	-108.771	-103.732	216.825	-25.054	-105.234	-100.999	-99.432	-94.195	9.744	-97.349	-8191	255	
8400.789	1	1	0	0	0.27602	0.15024	0.10688	0.06215	0.19898	0.22471	0.10855	0.0368	0.051327	0.18697	0.10396	0.22112	0.16863	0.3442	0.24875	0.15484	-2.2854	-2.8396	-2.3354	-2.9854	-2.7938	-2.4729	-3.0979	-2.4375	-2.6937	-2.8646	-2.4354	-2.7396	-2.5396	-2.5729	-2.9667	-2.4729	180.975	232.136	-73.718	186.920	35.675	-108.482	-111.278	-11.416	214.733	132.323	-73.598	237.806	23.287	185.700	-59.690	124.615	0.0012944	0.00067516	0.00046644	321.68	5.0977e-06	5.8034e-06	397.8	123.03	1.7517e-06	2.2973e-05	185.19	71.445	45.441	20.52	7.272e-06	33.417	0.0022338	0.0022112	0.00056813	754.18	2.5149e-05	2.3885e-05	779.7	247.78	2.5118e-05	2.3852e-05	401.72	134.9	110.9	41.891	2.1696e-05	60.952	-24.138	-97.918	-55.463	-108.894	-44.055	25.177	-108.703	-103.765	140.472	10.813	-104.488	-101.718	-99.364	-94.320	-95.664	-97.394	-8191	255	
8400.908	1	1	0	0	0.17949	0.14392	0.099883	0.079539	0.04853	0.10319	0.11541	0.14914	0.20722	0.2289	0.25315	0.26523	0.058189	0.13888	0.070941	0.29361	-2.2042	-2.8563	-2.2271	-2.8958	-2.825	-2.5208	-3.0104	-2.7	-2.7083	-2.8854	-2.5938	-2.9771	-2.7625	-2.3812	-3.0146	-2.5979	-66.917	180.671	61.181	-82.990	62.377	56.584	148.764	-116.701	194.391	160.793	210.765	171.890	-76.868	183.862	76.317	-114.492	0.00013626	0.0010611	0.00027034	318.85	8.1712e-06	1.1315e-05	402.93	122.97	5.249e-06	7.0499e-06	185.81	71.54	46.325	20.765	1.8753e-06	33.739	0.0022426	0.0021102	0.00054601	776.61	2.4758e-05	2.2652e-05	759.3	253.78	2.4414e-05	2.2845e-05	394.35	139.21	109.26	41.317	2.1007e-05	63.307	1.555	-86.175	-98.702	-109.311	-23.453	-5.342	-109.361	-104.359	-19.073	9.220	-105.006	-101.306	-99.095	-94.274	107.915	-97.863	-8191	255	
8401.004	1	1	0	0	0.14664	0.31781	0.2464	0.11627	0.086253	0.044974	0.087216	0.12268	0.066097	0.05441	0.12026	0.21422	0.27826	0.12282	0.21718	0.19902	-1.9896	-2.7875	-2.5271	-3.0187	-2.7875	-2.4229	-2.7708	-2.7188	-2.4917	-2.8187	-2.6354	-2.725	-2.85	-2.2854	-2.9188	-2.8312	-102.375	181.097	177.466	3.158	30.923	-65.467	192.588	177.242	0.442	162.209	62.780	-110.260	111.730	116.497	-19.812	181.003	0.00016141	0.00093316	6.8891e-05	326.53	9.3993e-06	1.3094e-05	396.51	124.51	3.5163e-05	1.429e-05	184.82	72.231	46.501	20.712	8.924e-06	34.029	0.0022048	0.0020715	0.00054137	814.33	2.4466e-05	2.2593e-05	761.4	264.19	2.392e-05	2.2343e-05	395.48	143.52	107.15	40.585	2.126e-05	64.373	-27.475	-67.758	-66.250	-109.551	24.473	11.125	-109.689	-103.602	-7.895	35.276	-105.283	-101.260	-98.457	-94.447	115.784	-97.239	-8191	255	
8401.101	1	1	0	0	0.038849	0.46421	0.093617	0.0092218	0.074276	0.26899	0.26859	0.2597	0.11691	0.039988	0.22396	0.16446	0.18962	0.21589	0.24068	0.15143	-2.0687	-2.9896	-2.5292	-2.7604	-2.9208	-2.4708	-2.8479	-2.8479	-2.3021	-2.825	-2.6104	-2.7188	-2.9333	-2.4479	-2.8167	-2.7854	-2.301	128.169	140.280	-80.292	122.302	149.933	228.124	204.298	197.337	-104.884	67.899	-53.333	148.810	-21.368	-14.306	-10.190	0.0011851	0.00077322	0.0004919	325.8	1.3563e-05	1.5964e-05	393.8	125.22	8.0618e-06	8.6398e-06	181.44	72.679	46.225	20.496	3.2286e-05	33.966	0.0021171	0.0019881	0.0005533	826.32	2.3322e-05	2.1784e-05	773.68	266.91	2.3241e-05	2.1598e-05	409.77	145.23	105.77	40.312	2.3043e-05	65.108	107.220	-35.934	139.159	-108.746	38.281	-53.296	-110.113	-103.422	-30.737	30.190	-105.661	-100.356	-98.875	-94.443	173.943	-97.000	-8191	255	
8401.197	1	1	0	0	0.11227	0.17215	0.17723	0.17684	0.2252	0.15426	0.2837	0.23766	0.2256	0.11626	0.10119	0.15143	0.098699	0.21062	0.15049	0.13636	-2.0812	-3.0187	-2.3708	-2.5646	-3	-2.1562	-2.9229	-2.6958	-2.5167	-2.7917	-2.7042	-2.5625	-2.9896	-2.3875	-2.7625	-2.8771	-18.750	-96.432	115.003	-47.306	159.750	37.554	137.356	202.311	18.688	31.375	39.476	171.189	-75.726	175.383	-120.531	4.670	0.00047476	0.0021076	0.00031102	330.02	1.6539e-05	3.406e-07	393.35	124.65	2.2454e-05	1.1948e-05	183	73.182	46.625	20.422	2.6654e-05	34.235	0.0021051	0.0019587	0.00060076	833.97	2.3118e-05	2.1551e-05	808.7	266.71	2.2938e-05	2.1329e-05	428.78	144.75	104.77	40.167	2.4541e-05	64.54	62.522	-87.203	140.969	-108.695	-26.213	143.179	-109.811	-103.354	-32.952	-95.012	-105.702	-100.694	-99.372	-94.676	225.519	-97.202	-8191	255	
8401.293	1	1	0	0	0.30459	0.16014	0.19459	0.2049	0.096401	0.14314	0.077733	0.11467	0.15082	0.029928	0.25514	0.35752	0.13621	0.14422	0.11331	0.24392	-2.1063	-2.8417	-2.3833	-2.5521	-2.9229	-2.5479	-2.7729	-2.8708	-2.4854	-3	-2.7583	-2.6354	-2.7021	-2.5354	-2.6542	-2.7417	99.312	220.098	-79.267	-78.308	183.633	-42.599	232.634	5.501	12.202	120.998	-23.859	200.325	190.563	15.334	-102.765	216.235	0.00056197	0.0021156	0.00026162	332.82	1.3065e-05	1.9473e-05	398.89	125.68	1.9605e-05	1.9019e-05	184.5	73.841	46.331	20.248	1.9086e-05	34.193	0.0020851	0.0019726	0.00064456	831.76	2.3105e-05	2.2249e-05	847.77	266.82	2.3044e-05	2.2209e-05	449.13	144.36	104.65	41.618	2.6155e-05	64.422	14.070	75.238	138.480	-108.854	6.332	206.840	-109.920	-103.810	-11.335	217.728	-105.578	-100.420	-98.903	-94.936	165.155	-96.638	-8191	255	
8401.389	1	1	0	0	0.082249	0.11258	0.13102	0.20188	0.15937	0.055243	0.12306	0.21608	0.2269	0.12247	0.39735	0.29693	0.15808	0.064654	0.15906	0.063679	-2.0104	-2.9792	-2.7208	-2.5792	-2.8146	-2.4188	-2.8083	-3.0583	-2.2875	-2.7896	-2.8229	-2.6	-2.8896	-2.6813	-2.6583	-2.5812	117.132	-118.214	-18.610	45.174	-8.622	47.953	-101.720	-35.623	237.306	-83.531	-119.957	150.755	128.416	184.800	43.977	-14.607	0.00070021	0.0032356	0.00032019	333.3	1.6694e-05	2.0436e-05	406.25	127.48	7.9516e-06	2.9333e-05	187.79	73.687	46.925	20.335	2.4768e-05	34.138	0.0020925	0.0021208	0.00068111	830.59	2.2876e-05	2.3927e-05	866.59	265.43	2.2913e-05	2.4054e-05	457.43	143.98	103.98	43.695	2.6389e-05	63.914	157.652	101.805	121.839	-108.713	-9.957	183.985	-109.368	-103.111	-42.773	198.904	-104.709	-101.215	-98.298	-94.362	-73.424	-96.885	-8191	255	
8401.510	1	1	0	0	0.33462	0.1092	0.28232	0.11511	0.48188	0.27503	0.13885	0.17606	0.042716	0.072437	0.20775	0.13194	0.24726	0.11808	0.27875	0.112	-2.2083	-2.8312	-2.7042	-2.3792	-3.0417	-2.4479	-2.6333	-3.1083	-2.5042	-2.8688	-2.8875	-2.3646	-3.0542	-2.55	-2.6833	-3.1125	128.271	51.180	-106.716	-85.281	49.784	165.348	-27.091	175.191	-11.936	-2.996	-39.220	-68.363	-73.232	-47.790	153.355	-109.901	0.0007742	0.0020879	0.00034213	327.73	5.599e-06	1.9749e-05	406.32	126.55	3.1893e-06	1.6322e-05	190.3	73.293	45.801	20.441	1.6724e-05	33.908	0.0020654	0.0022643	0.00067651	823.22	2.244e-05	2.569e-05	862.85	262.56	2.2775e-05	2.5681e-05	451.41	143.18	104.14	45.48	2.6103e-05	63.574	97.036	115.721	-36.833	-108.691	2.576	156.822	-109.093	-103.574	-29.542	208.691	-104.361	-100.848	-99.699	-95.199	-33.861	-97.147	-8191	255	
8401.604	1	1	0	0	0.24948	0.11606	0.13682	0.10622	0.088694	0.27271	0.057002	0.27293	0.077828	0.15952	0.2259	0.14312	0.22456	0.10668	0.065667	0.2232	-1.8771	-2.7708	-2.5563	-2.6167	-2.9167	-2.6354	-2.5792	-2.9625	-2.5292	-2.8354	-2.7521	-2.6646	-3.0271	-2.5938	-2.6729	-2.8438	222.563	-87.762	216.274	54.008	0.334	185.702	187.769	233.513	137.562	180.056	186.193	57.684	-22.967	144.411	28.856	-15.271	0.000649	0.0016159	7.2948e-05	330.6	3.0511e-06	6.5037e-06	402.36	125.15	3.1888e-05	3.6686e-06	188.46	73.162	45.387	20.347	1.0998e-05	33.406	0.0021157	0.0024406	0.00067079	826.09	2.3597e-05	2.7595e-05	860.28	263.16	2.4277e-05	2.7732e-05	449.81	142.95	108.92	46.757	2.5864e-05	62.819	-28.623	153.390	178.521	-108.265	150.401	207.829	-108.475	-103.096	176.659	-73.914	-105.288	-101.365	-99.578	-94.661	5.525	-97.309	-8191	255	
8401.700	1	1	0	0	0.14054	0.076347	0.17659	0.047658	0.19834	0.084243	0.13059	0.15301	0.31898	0.16613	0.091729	0.080759	0.08032	0.16889	0.10581	0.16499	-2.1167	-2.6729	-2.8958	-2.4521	-2.675	-2.8396	-2.575	-2.9229	-2.4646	-2.8063	-2.8	-2.4667	-3.0062	-2.7583	-2.6083	-3.05	209.091	134.206	-56.622	174.601	-50.627	193.175	70.317	-114.127	-27.677	35.461	70.457	101.584	-60.417	69.951	66.659	174.493	0.0014363	0.0010075	0.0005234	333.38	2.8607e-05	5.9964e-06	402.44	124.98	2.848e-05	1.3242e-05	190.79	72.373	45.217	20.723	9.4135e-06	33.978	0.0022456	0.0025195	0.00065341	810.12	2.4866e-05	2.7653e-05	844.59	256.6	2.534e-05	2.733e-05	439.93	139.89	112.47	46.253	2.5215e-05	61.795	-15.932	-28.978	-29.050	-108.386	209.987	-21.692	-109.553	-102.770	172.708	-69.852	-105.349	-100.595	-98.510	-94.003	33.612	-97.113	-8191	255	
8401.772	1	1	0	0	0.12562	0.22192	0.32975	0.24532	0.14077	0.078942	0.075119	0.25941	0.20356	0.12728	0.16142	0.12445	0.10388	0.18798	0.11971	0.136	-1.9937	-2.6417	-2.8667	-2.3063	-2.85	-2.7854	-2.7438	-2.8167	-2.7792	-2.6083	-2.9625	-2.475	-2.6583	-2.8979	-2.5146	-3.0438	169.006	-83.495	14.087	-100.016	173.568	202.151	21.820	181.230	20.788	72.470	95.338	-37.456	147.928	3.365	-109.454	-16.653	0.0019082	0.001779	0.00060318	330.88	2.3474e-05	1.8756e-05	401.68	124.6	3.2357e-05	1.2277e-05	189.5	73.011	45.806	20.76	2.6849e-05	33.793	0.0023749	0.002469	0.00063905	802.86	2.6393e-05	2.696e-05	836.25	255.8	2.6776e-05	2.6373e-05	432.04	140.29	116.31	45.327	2.4603e-05	62.572	-23.974	-111.950	-34.366	-108.838	190.323	5.411	-108.852	-103.859	218.058	-43.827	-104.232	-101.339	-99.662	-94.405	-57.042	-97.046	-8191	255	
8401.870	1	1	0	0	0.11716	0.36434	0.054976	0.22182	0.13324	0.094032	0.16236	0.26195	0.11892	0.060309	0.056353	0.078043	0.24785	0.092313	0.45376	0.086605	-2.1312	-2.3187	-3.0417	-2.4	-2.7896	-2.9396	-2.5104	-2.8792	-2.6	-2.4604	-2.9083	-2.4271	-2.8646	-3.0292	-2.3646	-2.8312	185.181	-64.983	215.823	-109.907	58.203	231.704	-67.474	121.912	237.192	-101.681	151.471	103.928	-95.773	6.670	210.375	90.743	0.0016379	0.001981	0.00051593	325.27	1.6898e-05	2.0191e-05	403.89	125.29	2.6548e-05	9.925e-06	190.16	72.336	46.575	20.728	1.9634e-05	33.588	0.0024714	0.0023809	0.00061709	819.35	2.7319e-05	2.6045e-05	827.14	262.42	2.7652e-05	2.5777e-05	424.7	145	118.26	44.626	2.4161e-05	64.63	-47.364	-109.561	-38.872	-109.469	160.425	20.862	-108.843	-104.280	19.151	-38.085	-104.620	-101.336	-98.415	-94.253	4.536	-97.757	-8191	255	
8401.989	1	1	0	0	0.24952	0.04918	0.1582	0.26334	0.080453	0.16961	0.16911	0.035233	0.16568	0.30318	0.015447	0.13181	0.21364	0.11168	0.11387	0.065526	-2.45	-2.55	-2.8229	-2.5896	-2.9417	-2.8625	-2.4646	-3.0396	-2.6437	-2.5979	-3.1042	-2.5312	-2.725	-2.8792	-2.6604	-2.8438	168.471	-88.616	229.883	173.956	100.273	161.550	133.821	2.583	50.198	147.799	-79.748	209.880	228.825	136.352	82.011	150.745	0.0010492	0.001265	0.00026743	324.03	4.0184e-06	1.4212e-05	403.22	123.98	2.4432e-05	1.3385e-05	187.2	71.673	47.081	20.669	4.4298e-06	33.443	0.0025099	0.0023402	0.00060208	849.69	2.7585e-05	2.5513e-05	815.24	272.29	2.756e-05	2.5544e-05	420.57	149.89	116.67	43.833	2.3627e-05	66.346	39.783	-101.200	12.340	-108.872	-22.338	-88.678	-108.956	-103.603	-10.503	37.190	-104.934	-101.489	-98.565	-94.133	43.498	-98.080	-8191	255	
8402.085	1	1	0	0	0.38171	0.03182	0.051507	0.22466	0.11776	0.20793	0.035368	0.049746	0.052294	0.28007	0.18277	0.21881	0.037677	0.093347	0.13547	0.02072	-2.3479	-2.4021	-2.8312	-2.525	-2.5938	-2.8875	-2.7687	-2.9292	-2.8042	-2.4875	-2.9375	-2.4917	-2.4375	-2.9583	-2.6104	-2.7479	147.826	-113.635	61.015	189.363	19.495	-14.772	-46.757	-77.691	-81.972	72.917	-84.532	126.247	143.397	100.872	180.123	189.516	0.00074075	0.001508	0.00020123	326.98	1.2418e-05	1.3098e-05	395.25	123.97	1.8822e-05	1.7231e-05	182.95	72.114	46.888	20.448	2.3944e-05	33.508	0.0024356	0.0022917	0.00059401	878.6	2.6653e-05	2.4658e-05	808.63	278.86	2.6512e-05	2.4707e-05	419.15	153.66	114.4	42.995	2.4141e-05	67.918	100.471	-27.108	-108.598	-109.282	-49.175	6.413	-109.518	-104.392	-33.037	18.967	-106.152	-101.268	-98.487	-94.425	217.293	-97.181	-8191	255	
8402.181	1	1	0	0	0.13877	0.20896	0.16858	0.13709	0.24894	0.14962	0.14984	0.15925	0.17195	0.13834	0.22334	0.068389	0.24571	0.25509	0.26647	0.18738	-2.2167	-2.4458	-2.7938	-2.7167	-2.6167	-3.1312	-2.5125	-2.8479	-2.8854	-2.3875	-3.0563	-2.7583	-2.4062	-3.0187	-2.6229	-2.825	63.569	145.059	-24.336	157.099	217.209	-32.690	-63.885	189.414	-7.995	208.347	174.164	-109.075	-28.074	203.049	209.406	-24.265	0.00025269	0.00064375	0.00061145	329.24	1.5795e-05	1.64e-05	398.91	124.24	1.2288e-05	1.0042e-05	185.09	72.146	46.498	20.139	4.5292e-05	33.461	0.0023588	0.0022122	0.00061422	894.16	2.5629e-05	2.3706e-05	828.54	281.77	2.5522e-05	2.3868e-05	433.28	154.04	111.78	42.067	2.5557e-05	68.088	141.988	-31.918	126.573	-108.977	26.894	-26.567	-109.619	-103.522	25.379	206.151	-105.498	-99.967	-99.596	-94.228	181.858	-96.820	-8191	255	
8402.277	1	1	0	0	0.46256	0.23916	0.3108	0.071525	0.22905	0.038275	0.23836	0.15713	0.14318	0.16236	0.13095	0.19352	0.19949	0.22511	0.18461	0.13982	-2.5167	-2.5417	-2.7438	-3.0792	-2.4854	-2.9646	-2.6625	-2.5896	-2.725	-2.3771	-2.8354	-2.8604	-2.1479	-2.9792	-2.55	-2.8042	80.814	83.118	164.208	176.842	223.860	227.077	86.256	-59.102	-7.910	-97.988	208.126	-51.414	-46.589	-5.590	-74.928	-19.752	0.0010736	0.0015719	0.00036051	334.05	6.7454e-06	1.7518e-05	395	126.56	2.2814e-05	1.1391e-05	185.83	73.647	46.423	20.495	2.6668e-05	34.272	0.0023039	0.0021769	0.0006595	898.88	2.5722e-05	2.3954e-05	876.24	285.2	2.5864e-05	2.4287e-05	462.52	155.01	112.44	42.476	2.7604e-05	67.917	117.617	-41.771	152.104	-108.624	-56.010	26.286	-109.054	-102.768	13.866	231.052	-105.780	-100.445	-98.544	-94.893	180.368	-96.884	-8191	255	
8402.398	1	1	0	0	0.21226	0.12348	0.15244	0.061211	0.049156	0.15649	0.16359	0.10752	0.3924	0.096301	0.10684	0.13082	0.037575	0.11151	0.14734	0.14528	-2.5438	-2.5458	-2.85	-2.6458	-2.2938	-2.9875	-2.7271	-2.6312	-2.9354	-2.575	-2.8271	-2.8208	-2.5083	-2.9625	-2.6042	-2.4917	111.484	138.404	99.988	-100.364	-6.453	221.811	94.343	-98.231	158.716	139.704	223.211	44.544	-40.087	221.062	-80.483	-105.064	0.0012466	0.00094188	8.5034e-05	335.08	1.5381e-05	1.8473e-05	399.2	126.42	3.7539e-05	1.7519e-05	186.69	74.104	46.892	20.499	9.3947e-06	33.918	0.0022671	0.0021854	0.00070226	884.75	2.514e-05	2.424e-05	902.45	280.81	2.5235e-05	2.5076e-05	478.75	153.8	112.55	44.2	2.9161e-05	67.701	160.110	223.641	118.471	-107.584	-2.745	186.576	-109.662	-103.395	30.841	194.362	-105.507	-100.132	-98.497	-94.893	104.197	-96.720	-8191	255	
8402.469	1	1	0	0	0.072608	0.10234	0.20635	0.1183	0.12691	0.14864	0.14765	0.262	0.33447	0.14193	0.25818	0.36435	0.20679	0.071593	0.082037	0.19366	-2.7021	-2.1792	-2.7479	-2.8563	-2.4667	-3.0125	-2.7354	-2.6354	-2.7625	-2.4562	-2.8896	-3.0187	-2.4771	-2.9708	-2.7146	-2.7292	208.197	-27.270	17.899	235.192	40.390	93.748	187.016	-43.941	46.997	130.284	82.177	155.892	-114.498	31.304	-117.145	84.250	0.00049639	0.002447	6.2586e-05	334.39	9.5783e-06	2.2992e-05	400.04	124.79	1.7005e-05	1.6439e-05	186.86	73.063	46.69	19.881	2.5008e-05	33.416	0.0022656	0.0023545	0.0007358	879.25	2.492e-05	2.5964e-05	913.82	276.8	2.4749e-05	2.681e-05	481.29	151.78	111.14	46.308	2.9644e-05	67.42	107.181	116.787	-34.434	-108.441	-34.442	164.248	-109.181	-103.181	39.880	164.414	-105.190	-101.276	-99.066	-94.784	-33.573	-97.663	-8191	255	
8402.590	1	1	0	0	0.099853	0.092689	0.12667	0.26353	0.26818	0.27331	0.11053	0.14017	0.23736	0.20862	0.23871	0.045848	0.25598	0.14412	0.27909	0.26576	-2.5021	-2.5417	-2.5854	-2.8021	-2.4604	-2.8937	-2.8292	-2.5062	-3.0917	-2.6354	-2.5083	-3.0604	-2.3146	-2.7917	-2.75	-2.5167	234.056	74.726	-113.385	63.871	122.148	143.741	140.300	-44.964	-73.291	-83.956	199.337	109.541	125.071	193.141	-7.677	234.185	0.00022069	0.0026166	0.00056217	333.83	7.283e-06	1.9967e-05	397.43	125.41	1.0195e-05	8.7668e-06	187.74	72.509	44.99	19.888	2.1882e-05	33.536	0.0022723	0.002585	0.00074364	879.38	2.5122e-05	2.8455e-05	912.36	276.14	2.4896e-05	2.873e-05	472.4	149.09	110.45	47.773	2.8557e-05	66.131	20.470	139.615	-29.974	-108.533	60.906	166.301	-108.857	-103.035	194.072	-114.722	-104.985	-100.708	-98.846	-95.424	-22.315	-97.080	-8191	255	
8402.684	1	1	0	0	0.2352	0.20707	0.080014	0.13363	0.26075	0.13283	0.091457	0.1034	0.17079	0.23767	0.040015	0.15033	0.39898	0.18926	0.19002	0.17271	-2.5646	-2.7354	-2.5438	-2.9917	-2.5354	-2.8208	-2.8021	-2.3438	-3.0021	-2.5979	-2.6688	-2.8354	-2.6688	-2.8125	-2.8771	-2.6292	166.792	-11.596	211.102	180.811	175.817	209.902	-112.041	-80.017	-80.395	176.694	104.704	-111.797	-83.861	182.289	-101.583	187.160	0.0020126	0.0015254	0.00044539	331.11	1.5997e-05	3.0022e-06	400.28	124.48	3.4168e-05	1.2171e-05	189.01	72.942	45.467	20.467	3.0399e-06	33.764	0.0022829	0.0026904	0.00071912	859.47	2.5595e-05	2.9503e-05	893.04	271.54	2.5752e-05	2.9779e-05	464.06	146.55	114	48.404	2.7414e-05	64.978	6.151	142.140	-23.761	-108.367	216.334	225.106	-109.184	-103.297	193.040	-88.173	-104.964	-100.835	-99.474	-94.592	25.587	-96.956	-8191	255	
8402.781	1	1	0	0	0.094164	0.34328	0.25658	0.16085	0.14633	0.19684	0.12975	0.021187	0.11023	0.14989	0.21489	0.34881	0.38672	0.29906	0.061976	0.17173	-2.5104	-2.8104	-2.5583	-2.85	-2.5542	-2.7792	-3.1229	-2.5042	-2.9188	-2.8792	-2.5563	-3.0354	-2.8646	-2.6354	-3.1	-2.5646	-17.922	-104.494	-36.146	152.634	-81.512	-103.267	91.288	31.157	225.829	-54.487	85.479	156.757	-85.428	158.991	-14.978	-33.354	0.0017539	0.0032134	0.00025732	333.14	2.5791e-05	1.3902e-05	401.08	125.49	5.2634e-05	1.3349e-05	188.49	72.566	45.969	20.582	2.1005e-05	33.864	0.002393	0.0027062	0.00069169	838.32	2.6945e-05	2.909e-05	868.34	264.72	2.6955e-05	2.902e-05	453.64	144.07	118.28	47.495	2.6284e-05	63.763	15.573	-51.085	-17.749	-108.378	194.911	-63.161	-109.127	-103.417	176.511	-8.518	-104.830	-101.595	-99.193	-93.937	-8.079	-96.983	-8191	255	
8402.877	1	1	0	0	0.18157	0.21345	0.27205	0.23045	0.16757	0.079633	0.21207	0.3396	0.28283	0.24886	0.13938	0.27198	0.09179	0.13342	0.26574	0.10338	-2.3646	-2.8729	-2.3208	-3.0667	-2.6063	-2.6854	-3.0604	-2.5417	-3.0771	-2.7958	-2.7417	-2.975	-2.8187	-2.5792	-2.9229	-2.3125	53.217	-93.269	222.260	-121.271	-78.705	-61.976	170.520	183.628	205.993	155.272	200.408	191.682	-36.069	-115.400	105.654	207.219	0.0019268	0.0025505	9.0328e-05	334.31	1.3827e-05	1.2086e-05	404.16	125.3	4.3499e-05	1.7645e-05	188.29	73.149	46.271	20.646	1.0135e-05	33.689	0.0024955	0.0025826	0.00066214	822.11	2.7989e-05	2.7901e-05	851.47	263.37	2.7791e-05	2.7288e-05	438.32	142.62	119.4	45.693	2.4922e-05	63.627	-46.589	-86.218	64.478	-108.865	196.414	-3.498	-108.622	-103.878	152.505	29.197	-105.125	-101.549	-99.485	-93.543	18.171	-98.170	-8191	255	
8402.997	1	1	0	0	0.1467	0.24203	0.066105	0.16834	0.066632	0.28499	0.17944	0.22661	0.27884	0.064642	0.30463	0.16905	0.17692	0.10405	0.1478	0.10122	-2.3479	-2.7896	-2.4437	-2.9667	-2.8875	-2.5958	-3.0229	-2.5563	-2.5458	-2.9188	-2.2625	-2.7771	-2.7458	-2.4792	-3.0625	-2.4833	-86.540	102.869	41.624	-86.628	30.168	148.658	115.741	153.687	-45.405	107.114	-52.203	109.469	145.157	150.458	-107.341	-95.169	0.0014976	0.0029053	0.00031145	328.26	1.3655e-06	6.9196e-06	402.45	124.09	1.7011e-05	2.2413e-05	186.79	71.948	46.852	20.592	2.4529e-05	33.459	0.0025474	0.0024468	0.00063267	828.33	2.8423e-05	2.6579e-05	830.33	268.6	2.8484e-05	2.6631e-05	431.93	147.47	121.75	45.239	2.4633e-05	66.407	2.795	-47.505	-29.435	-109.553	-65.678	55.087	-109.464	-103.564	172.066	27.814	-105.311	-100.866	-98.533	-93.976	28.485	-97.888	-8191	255	
8403.069	1	1	0	0	0.203	0.20614	0.10738	0.23342	0.074807	0.095784	0.036732	0.3079	0.13853	0.1989	0.32203	0.16984	0.17685	0.28112	0.10637	0.068223	-2.35	-2.8417	-2.4625	-2.7875	-2.7354	-2.4167	-3.0417	-2.6	-2.8563	-2.8667	-2.5396	-2.9604	-2.8146	-2.6771	-2.9833	-2.5896	-118.647	138.730	193.481	7.536	193.286	228.864	-19.534	-114.543	230.604	-107.768	193.500	-15.716	120.238	116.399	170.865	-71.025	0.0013359	0.0016872	0.00051265	329.14	8.1774e-06	9.2886e-06	399.17	123.85	1.3166e-05	8.9808e-06	185.72	72.836	46.955	20.502	8.0217e-06	33.242	0.0025804	0.0024115	0.00062577	879.57	2.8839e-05	2.6525e-05	826.94	282.69	2.8537e-05	2.643e-05	431.74	154.76	120.91	45.186	2.4658e-05	69.473	233.495	-44.403	-66.668	-108.951	0.262	-15.679	-109.539	-104.380	-54.286	38.431	-105.212	-101.078	-98.658	-94.076	114.215	-97.494	-8191	255	
8403.165	1	1	0	0	0.058927	0.17644	0.087061	0.1368	0.16146	0.11557	0.17102	0.019227	0.097268	0.041869	0.11142	0.24364	0.15885	0.20093	0.29092	0.28263	-2.2313	-2.8667	-2.6021	-2.8271	-2.6771	-2.4854	-3.0687	-2.5542	-2.625	-2.9833	-2.4917	-2.9167	-2.7938	-2.6417	-2.9729	-2.9208	101.379	95.295	200.463	105.929	74.351	-120.039	148.900	-86.758	-52.790	225.235	-68.112	54.088	-40.087	150.291	114.202	-107.471	0.0011214	0.00084816	0.00011468	330	1.3119e-06	1.1974e-05	402.4	125.91	2.0567e-05	9.7602e-06	185.65	72.1	46.726	20.778	4.2527e-05	34.03	0.0025607	0.0023854	0.00063318	915.99	2.8058e-05	2.6038e-05	838.04	292.88	2.766e-05	2.5743e-05	438.36	158.53	117.66	44.134	2.5253e-05	70.528	111.056	-72.469	170.329	-109.342	65.409	-31.625	-109.303	-103.409	-99.543	5.133	-105.327	-101.123	-98.877	-94.506	181.446	-97.646	-8191	255	
8403.286	1	1	0	0	0.06192	0.078947	0.056605	0.14542	0.16209	0.19548	0.15128	0.24525	0.082403	0.14526	0.17562	0.15028	0.088419	0.045872	0.31707	0.17128	-1.9792	-2.9625	-2.425	-2.8104	-2.9604	-2.5354	-2.9604	-2.7771	-2.4062	-3.0187	-2.4167	-2.7542	-3.0021	-2.5375	-2.9938	-2.6437	64.925	-63.655	11.742	80.980	238.069	-116.895	222.693	-14.242	-4.738	91.245	31.557	-48.396	153.580	238.579	117.822	3.058	0.0003427	0.001907	0.00077958	333.57	1.9831e-05	1.6821e-05	398.84	126.96	9.7875e-06	1.2824e-05	186.72	73.344	46.809	20.781	2.8127e-05	34.211	0.0024406	0.0022849	0.00065214	923.84	2.6714e-05	2.4704e-05	855.59	291.63	2.622e-05	2.436e-05	450.23	157.21	114.08	42.883	2.6372e-05	69.581	-118.543	-65.990	146.243	-109.271	32.034	-28.549	-109.887	-103.421	22.177	49.612	-105.922	-100.645	-98.529	-94.159	165.478	-96.982	-8191	255	
8403.382	1	1	0	0	0.24301	0.16209	0.15241	0.11599	0.16872	0.20609	0.19643	0.062643	0.076604	0.25297	0.030458	0.28611	0.17026	0.069202	0.10866	0.14104	-2.2083	-2.9146	-2.5958	-2.675	-3.025	-2.5375	-3.0479	-2.7604	-2.2854	-2.8958	-2.6417	-2.6437	-2.7396	-2.5708	-2.9458	-2.9333	168.150	173.059	232.460	-58.145	98.267	25.274	159.577	127.343	162.528	36.591	51.796	-114.448	125.602	156.707	-89.737	45.697	0.0008274	0.00057334	0.00039739	341.68	1.0374e-05	1.0278e-05	401.16	128.12	2.104e-05	3.3316e-06	187.97	74.858	47.187	20.555	2.4951e-05	34.586	0.0023264	0.002179	0.0006839	903.58	2.5664e-05	2.388e-05	881.96	285.49	2.531e-05	2.3823e-05	467.62	154.02	111.68	42.625	2.7349e-05	67.776	38.556	16.584	171.412	-108.893	27.161	-87.070	-110.098	-103.168	-8.624	-119.067	-105.672	-100.104	-98.928	-95.118	164.400	-96.718	-8191	255	
8403.478	1	1	0	0	0.23391	0.22251	0.039258	0.052881	0.33124	0.12564	0.20282	0.030818	0.25239	0.066261	0.12763	0.31982	0.17227	0.18295	0.161	0.26303	-2.1042	-2.9958	-2.6813	-2.6375	-2.775	-2.4458	-2.6771	-3.0375	-2.3	-2.9583	-2.5521	-2.3229	-2.9083	-2.4875	-2.5938	-2.825	84.552	81.762	194.370	82.605	213.906	83.663	-46.820	-24.548	-7.164	80.197	-14.119	192.019	143.588	-52.144	40.947	17.814	0.00059555	0.0018341	0.00057395	339.97	1.4751e-05	2.1482e-05	404.52	128.95	3.4555e-05	9.1688e-06	190.07	74.116	47.843	20.355	2.2606e-05	34.018	0.0022396	0.002168	0.00070684	873.96	2.4449e-05	2.3869e-05	888.95	275.02	2.39e-05	2.3837e-05	467.36	147.36	106.76	42.811	2.7114e-05	64.813	140.923	132.327	175.846	-108.995	-19.113	167.638	-109.382	-103.599	-0.118	186.338	-105.107	-101.044	-98.581	-94.780	-59.822	-97.118	-8191	255	
8403.572	1	1	0	0	0.0060372	0.081731	0.091623	0.23081	0.078292	0.10564	0.10457	0.20034	0.21045	0.071986	0.20792	0.33853	0.063402	0.095924	0.11486	0.22264	-2.0958	-2.6958	-2.5458	-2.4979	-2.9979	-2.3812	-2.7646	-2.8229	-2.3792	-2.8937	-2.9333	-2.5354	-3.0417	-2.625	-2.5292	-2.9583	194.892	-43.045	58.204	-117.598	118.884	-80.573	49.162	-64.700	220.396	90.086	191.043	230.850	140.564	226.542	-65.795	179.064	0.0010038	0.0034711	0.00027187	338.05	1.4138e-05	3.0915e-05	407.33	128.8	1.0132e-05	3.0608e-05	193.02	73.642	46.667	20.209	5.0891e-06	33.765	0.0020952	0.0022044	0.00069007	834.3	2.2942e-05	2.4712e-05	875.12	266.84	2.285e-05	2.4737e-05	461.01	144.28	104.35	44.519	2.6432e-05	63.494	99.059	150.823	-113.503	-108.463	27.061	178.703	-108.907	-103.012	12.409	182.736	-104.626	-100.114	-98.645	-94.689	73.730	-97.241	-8191	255	
8403.669	1	1	0	0	0.31775	0.16231	0.2114	0.059818	0.11878	0.11131	0.16904	0.31412	0.28115	0.027283	0.16765	0.15412	0.038787	0.17395	0.24892	0.1298	-1.9854	-2.9708	-2.7625	-2.6	-3.0104	-2.5479	-2.7021	-2.9562	-2.4729	-3.0021	-2.8521	-2.4542	-3.0604	-2.7792	-2.5875	-2.9208	212.601	-43.408	18.116	-67.458	8.285	-18.432	94.070	211.978	124.079	204.342	196.773	18.385	-57.924	54.727	-40.949	-75.246	0.00084828	0.0025686	0.00038547	335.36	9.9412e-06	2.2169e-05	409.17	127	1.1757e-05	1.9554e-05	194.01	73.369	45.854	20.31	2.0205e-05	34.366	0.0020423	0.0023077	0.00066656	816.43	2.2447e-05	2.6119e-05	858.17	261.81	2.2704e-05	2.5907e-05	447.83	141.36	103.65	45.285	2.5121e-05	62.098	-58.862	144.461	-43.937	-108.571	-21.242	161.572	-108.501	-103.247	-80.122	202.413	-104.956	-101.174	-99.460	-94.581	-15.595	-97.248	-8191	255	
8403.765	1	1	0	0	0.2586	0.17962	0.18865	0.18937	0.17072	0.20215	0.005967	0.13816	0.063679	0.094924	0.20911	0.10654	0.087005	0.24238	0.20588	0.090562	-2.0958	-2.6125	-2.8479	-2.2708	-2.9521	-2.6167	-2.6167	-3.0667	-2.5187	-2.8563	-3.0042	-2.4896	-3.0312	-2.8854	-2.4583	-3.0354	146.045	43.847	14.367	130.746	-44.252	42.307	-28.896	174.544	-78.261	-3.106	150.021	206.014	-68.410	-90.111	103.122	83.168	0.00089465	0.0017483	0.00041681	335.82	1.1285e-05	7.0152e-06	406.61	126.21	2.7514e-05	2.5078e-06	190.06	73.948	45.895	20.705	2.5268e-05	34.082	0.0020599	0.0023861	0.00063719	797.4	2.2896e-05	2.6604e-05	837.25	255.38	2.341e-05	2.6286e-05	433.86	138.79	106.76	45.631	2.4374e-05	61.27	-11.319	62.493	-50.377	-108.262	201.885	16.125	-108.771	-103.200	184.074	134.699	-105.320	-101.084	-99.149	-93.817	65.968	-96.902	-8191	255	
8403.861	1	1	0	0	0.049327	0.081801	0.18549	0.23619	0.095875	0.15822	0.11504	0.17949	0.19635	0.3019	0.30759	0.13953	0.2835	0.21462	0.046013	0.12944	-1.9896	-2.7313	-3	-2.35	-3.0396	-2.7188	-2.5125	-3.0187	-2.5479	-2.6396	-2.9125	-2.6396	-2.8229	-2.8	-2.4375	-3.1021	211.942	51.993	75.384	-115.918	61.650	59.909	-21.028	163.134	-110.156	-85.101	119.959	149.429	225.503	-118.073	62.811	232.438	0.0022312	0.0028488	0.00019316	337.72	2.7743e-05	2.2831e-05	405.53	127	5.1998e-05	8.6976e-06	193.5	73.334	46.444	20.889	7.9386e-06	33.859	0.0022042	0.0024052	0.00062549	791.52	2.4403e-05	2.6593e-05	826.21	251.52	2.512e-05	2.6089e-05	429.68	137.64	111.7	45.074	2.3924e-05	60.474	-11.071	-47.351	-91.723	-108.682	214.434	-1.415	-108.746	-103.580	163.247	-46.703	-105.687	-100.311	-99.152	-94.145	226.819	-97.451	-8191	255	
8403.957	1	1	0	0	0.12386	0.070861	0.10015	0.066751	0.093423	0.15164	0.3211	0.14932	0.2796	0.053818	0.049561	0.108	0.14694	0.16084	0.16074	0.26418	-1.9354	-2.5917	-2.8625	-2.3521	-2.925	-2.9375	-2.4708	-3.0042	-2.5396	-2.6437	-2.9104	-2.5146	-2.7938	-2.7417	-2.3438	-2.8708	-75.465	149.368	205.898	118.366	-98.215	198.738	-66.318	145.278	-87.713	-65.989	179.289	220.207	206.345	-0.975	-32.089	190.523	0.0010699	0.001071	0.00034971	331.2	6.2058e-06	2.5884e-05	407.84	127.03	2.3298e-05	1.8816e-05	191.3	73.311	46.692	20.827	1.2738e-05	33.561	0.0023204	0.002309	0.00059942	779.04	2.5334e-05	2.533e-05	808.9	251.4	2.6071e-05	2.492e-05	418.7	138.88	114.57	44.032	2.3321e-05	61.662	-9.443	-65.951	-94.483	-108.629	149.823	-31.030	-109.413	-103.733	182.597	40.796	-105.003	-101.545	-98.901	-94.535	15.291	-98.041	-8191	255	
8404.078	1	1	0	0	0.14106	0.072139	0.11349	0.22988	0.036971	0.15865	0.30039	0.074078	0.040329	0.09259	0.29406	0.14363	0.11343	0.11323	0.047031	0.18299	-2.3125	-2.3833	-3.0479	-2.2667	-2.8167	-2.8583	-2.3771	-2.9542	-2.6813	-2.6021	-3.0646	-2.4271	-2.7	-3.0854	-2.3625	-3.0875	58.080	162.415	-105.366	-50.919	149.877	204.522	221.658	179.246	-11.293	1.727	-86.103	211.769	-101.588	-81.011	-105.958	230.941	0.00052153	0.00042125	0.00011492	332.26	1.1622e-05	9.1962e-06	409.83	126.52	2.0591e-05	8.003e-06	192	73.035	47.355	20.615	5.1245e-06	33.94	0.002423	0.0022558	0.00058362	806.7	2.6161e-05	2.4534e-05	796.4	258.36	2.6361e-05	2.4003e-05	407.61	142.86	113.58	42.699	2.2157e-05	63.194	54.872	-66.106	-104.618	-109.908	152.490	-50.305	-108.732	-104.323	12.369	-41.031	-105.644	-101.833	-98.827	-93.950	-17.045	-97.254	-8191	255	
8404.172	1	1	0	0	0.19629	0.19957	0.11736	0.22275	0.19012	0.28576	0.18656	0.18137	0.20257	0.19416	0.33774	0.1171	0.14659	0.060951	0.26701	0.096356	-2.3438	-2.2687	-2.9458	-2.3438	-2.6729	-2.8542	-2.4646	-2.8479	-2.7292	-2.6375	-2.9938	-2.7167	-2.7917	-2.65	-2.6271	-2.8688	144.471	-18.803	100.449	-78.036	-2.557	64.225	185.348	-4.007	12.949	-40.902	-42.600	-119.512	125.983	143.218	52.949	-105.360	0.00014932	0.00047695	0.0003565	332.78	1.8818e-05	8.1059e-06	413.85	126.24	8.8801e-06	8.3937e-06	193.06	73.994	47.505	20.734	1.2124e-05	34.147	0.0023383	0.002155	0.00055796	832.28	2.5501e-05	2.3719e-05	785.17	268.25	2.5478e-05	2.3319e-05	405.09	147	110.98	41.916	2.1825e-05	65.121	-41.153	48.224	-119.648	-109.782	45.933	-6.212	-109.447	-103.305	-36.279	29.066	-104.559	-101.212	-99.014	-94.493	112.275	-97.243	-8191	255	
8404.268	1	1	0	0	0.17248	0.027471	0.259	0.097108	0.10657	0.13362	0.29639	0.16936	0.12579	0.19291	0.20226	0.07873	0.17575	0.044999	0.058853	0.26873	-2.525	-2.4104	-3.0417	-2.7729	-2.6229	-3.0042	-2.6896	-2.825	-2.9604	-2.3792	-2.9021	-2.5104	-2.5125	-2.9479	-2.6417	-2.8146	-82.853	220.274	160.777	219.464	3.757	169.108	124.603	195.603	212.194	210.066	149.253	-69.124	20.518	139.673	-4.076	211.526	0.0015463	0.00088009	0.00025547	334.62	2.263e-05	1.5406e-05	408.86	127.26	1.276e-05	2.3162e-05	191.52	75.287	47.531	20.941	2.1532e-05	34.687	0.0022471	0.0020792	0.00055638	854.41	2.4295e-05	2.2673e-05	789.73	272.36	2.4244e-05	2.2257e-05	410.56	149.91	108.22	41.147	2.2661e-05	66.163	129.435	-24.497	140.606	-109.032	57.230	-56.876	-109.805	-103.381	-75.492	35.508	-105.309	-100.774	-98.691	-94.283	164.405	-96.634	-8191	255	
8404.364	1	1	0	0	0.052683	0.2465	0.22248	0.01503	0.20557	0.15006	0.12946	0.1537	0.10543	0.066097	0.11172	0.11259	0.22012	0.076522	0.086489	0.28393	-2.5146	-2.3458	-3.0271	-2.6333	-2.3167	-3.0667	-2.6292	-2.9437	-2.9104	-2.5771	-2.9354	-2.7646	-2.4271	-3.2146	-2.4354	-2.8708	227.466	-90.934	115.773	72.408	128.663	-30.152	-45.798	-41.815	118.816	28.856	70.562	230.191	-4.431	187.715	-58.320	233.227	0.00075395	0.0010865	0.00048942	341.18	4.4797e-06	3.3194e-06	412.66	129.67	3.6798e-05	2.2495e-06	189.68	75.15	47.709	20.631	2.5423e-05	34.709	0.0021601	0.0020096	0.00058596	864.31	2.3554e-05	2.2049e-05	815.6	272.73	2.3573e-05	2.1631e-05	425.36	148.81	106.19	40.396	2.4202e-05	65.042	94.351	-25.923	155.287	-108.531	-18.025	119.052	-110.199	-103.024	-22.566	66.914	-106.000	-100.890	-99.377	-94.060	207.896	-96.951	-8191	255	
8404.461	1	1	0	0	0.11293	0.13639	0.10238	0.070396	0.021261	0.27212	0.077663	0.29906	0.086144	0.18604	0.18136	0.040337	0.48746	0.09782	0.18651	0.40295	-2.6042	-2.525	-2.7792	-2.7271	-2.4625	-2.9458	-2.5917	-2.6708	-2.8896	-2.4229	-2.8604	-2.8	-2.6229	-2.9083	-2.7417	-2.6646	16.247	-29.119	-21.098	33.482	-63.925	130.482	132.370	202.029	-118.795	26.816	-110.046	26.737	201.602	169.578	-13.367	115.423	0.00077674	0.00094754	0.00043966	337.28	5.699e-06	9.9219e-06	404.5	128.47	3.2912e-05	2.63e-06	190.46	74.164	47.039	20.405	6.1803e-06	34.066	0.0021077	0.0019637	0.00062155	849.07	2.2976e-05	2.1693e-05	843.71	268.94	2.3142e-05	2.1705e-05	441.86	146.69	105.2	40.649	2.5829e-05	63.962	104.495	165.675	92.815	-108.176	34.696	164.991	-110.045	-102.721	-12.418	-41.374	-105.634	-100.579	-98.773	-94.986	201.802	-97.250	-8191	255	
8404.581	1	1	0	0	0.25384	0.16152	0.037883	0.075563	0.13219	0.35139	0.33274	0.054154	0.35475	0.23364	0.20325	0.079771	0.26791	0.15137	0.095668	0.11627	-2.4417	-2.4625	-2.7271	-2.8729	-2.525	-2.9437	-2.8625	-2.5542	-3.1	-2.5083	-2.95	-2.8333	-2.4437	-2.9354	-2.7979	-2.5083	-115.584	-7.367	47.462	129.797	76.882	106.025	227.804	10.803	32.371	185.825	216.331	189.548	170.515	158.736	233.697	-111.214	0.00076258	0.00097149	0.00026156	339.18	1.0078e-05	2.5938e-05	405.05	129.25	8.3702e-06	2.1591e-05	191.15	75.088	47.071	20.241	1.6049e-05	34.183	0.0020655	0.0020131	0.00065119	829.08	2.2353e-05	2.232e-05	861.04	262.31	2.2352e-05	2.2604e-05	447.02	143.3	102.86	41.844	2.6098e-05	62.864	144.077	112.400	165.524	-108.289	17.794	215.268	-109.015	-103.438	-40.377	211.952	-104.863	-100.651	-98.333	-94.084	159.177	-96.881	-8191	255	
8404.677	1	1	0	0	0.20673	0.21972	0.32595	0.14374	0.24911	0.15518	0.11093	0.10556	0.060118	0.0989	0.047836	0.26926	0.22944	0.17792	0.083615	0.10397	-2.5563	-2.4958	-2.5062	-2.9542	-2.575	-2.9437	-2.7208	-2.5292	-3.0958	-2.6979	-2.6375	-3.0438	-2.3688	-3.0604	-2.6042	-2.4813	88.211	-50.333	57.826	-67.022	124.178	123.466	-35.699	205.377	-77.466	148.717	-95.129	5.294	218.224	23.155	-50.642	104.116	0.0013049	0.0033034	0.00027312	335.63	7.1087e-06	2.2781e-05	406.87	127.38	6.6957e-06	2.3142e-05	192.83	74.594	47.022	20.341	2.5229e-05	34.562	0.0020088	0.0021506	0.00065777	820.06	2.1981e-05	2.4165e-05	866.31	260.85	2.2181e-05	2.4675e-05	447.34	142.44	102.16	43.612	2.5577e-05	62.331	167.647	124.425	-27.955	-108.372	27.547	154.941	-109.316	-103.453	-41.332	201.316	-105.111	-100.968	-98.402	-94.400	36.381	-97.022	-8191	255	
8404.773	1	1	0	0	0.057968	0.21091	0.13069	0.25212	0.24259	0.094488	0.17424	0.1681	0.50944	0.14798	0.20879	0.29625	0.14723	0.10568	0.20495	0.0742	-2.5167	-2.6958	-2.6083	-2.9062	-2.4292	-2.7062	-3.0958	-2.4062	-2.9417	-2.7729	-2.4375	-3.0208	-2.6188	-2.7708	-2.9208	-2.3646	190.095	159.722	107.684	-76.795	64.994	-74.612	-13.000	185.980	60.608	-9.611	-48.253	123.660	-120.893	228.747	47.496	151.009	0.0010871	0.00263	0.00069512	340.59	1.0489e-05	2.5765e-05	411.15	129.06	2.0584e-05	1.3315e-05	190.98	75.004	46.386	20.617	1.5111e-05	34.747	0.0019778	0.0022948	0.00063751	805.67	2.1752e-05	2.5336e-05	848.85	256.31	2.2055e-05	2.5735e-05	437.01	140.3	103.54	44.711	2.465e-05	61.445	12.320	104.098	-38.656	-108.708	224.849	145.765	-109.018	-103.446	142.647	218.210	-105.708	-100.769	-99.478	-94.561	0.965	-97.291	-8191	255	
8404.870	1	1	0	0	0.30385	0.026903	0.16953	0.26675	0.28896	0.24701	0.066175	0.20823	0.17014	0.096742	0.20069	0.11053	0.25976	0.22465	0.22491	0.14534	-2.6604	-2.6104	-2.5187	-2.975	-2.475	-2.4708	-2.8771	-2.3729	-3.1083	-2.6229	-2.6333	-2.8333	-2.6292	-2.5062	-3.0125	-2.2271	-23.160	-46.917	-24.932	127.941	174.012	-2.978	-24.624	203.656	29.130	156.455	-61.927	-96.169	120.959	129.115	-5.956	178.965	0.0012097	0.00093293	0.0004977	338.45	2.129e-05	1.0359e-05	412.18	128.3	3.7837e-05	7.8412e-06	194.09	74.557	46.243	20.612	8.876e-06	34.264	0.00203	0.0023619	0.00061083	787.07	2.2613e-05	2.5744e-05	829.47	250.96	2.2961e-05	2.5999e-05	426.11	137.33	107.31	44.825	2.4015e-05	60.468	11.241	121.819	-45.204	-107.907	-100.317	84.289	-108.951	-103.506	184.751	-43.194	-105.434	-100.589	-99.501	-94.235	22.348	-96.489	-8191	255	
8404.964	1	1	0	0	0.19357	0.10275	0.19988	0.36471	0.17488	0.12582	0.046431	0.13916	0.21462	0.22124	0.16184	0.087375	0.33852	0.20503	0.2163	0.1403	-2.425	-2.7167	-2.4542	-3.1042	-2.5125	-2.6583	-2.7604	-2.3063	-2.9437	-2.8708	-2.5521	-2.9708	-2.7479	-2.6625	-2.8563	-2.4521	77.390	-113.096	166.581	210.723	139.648	-95.678	17.058	50.742	29.510	207.696	-47.304	-108.972	181.585	205.718	215.738	170.132	0.0015122	8.9548e-05	0.00010284	339.11	2.56e-05	7.0322e-06	412.05	129.56	5.2718e-05	1.0411e-05	189.95	74.291	46.536	20.599	2.3497e-05	33.689	0.0021723	0.0023759	0.00060124	775.81	2.4417e-05	2.5579e-05	818.52	249.07	2.4622e-05	2.5653e-05	419.85	136.03	111.57	44.013	2.3472e-05	60.202	-16.457	167.919	1.321	-108.436	201.383	-46.182	-108.913	-103.234	155.828	49.223	-104.995	-100.948	-99.710	-94.095	37.161	-98.009	-8191	255	
8405.060	1	1	0	0	0.16737	0.021874	0.10629	0.066617	0.26168	0.098091	0.038921	0.067696	0.11578	0.19757	0.10431	0.21559	0.13469	0.25855	0.11838	0.060099	-2.3792	-2.6854	-2.3667	-2.9292	-2.7271	-2.5062	-3.1083	-2.475	-2.8125	-2.7458	-2.3833	-3.0687	-2.5625	-2.65	-2.8667	-2.3438	-25.195	234.504	215.940	159.830	115.834	-112.216	-67.904	222.099	108.956	220.648	-20.935	237.740	221.924	158.580	3.404	175.349	0.0020656	0.001221	0.00013139	335.91	1.2333e-05	7.1523e-06	408.75	126.48	6.706e-06	1.5002e-05	195.13	73.655	46.712	20.73	2.8964e-05	33.446	0.0023116	0.0023214	0.0005915	783.59	2.5965e-05	2.4907e-05	809.88	252.68	2.5891e-05	2.5002e-05	415.91	139.08	115.23	43.301	2.2772e-05	61.713	25.543	-74.925	-78.402	-108.694	203.962	76.946	-109.041	-103.719	41.397	-13.533	-105.237	-100.849	-98.674	-93.930	1.021	-97.943	-8191	255	
8405.156	1	1	0	0	0.2166	0.13169	0.22454	0.20782	0.19288	0.31653	0.09201	0.11837	0.077281	0.047661	0.34043	0.17303	0.11527	0.052433	0.089582	0.12545	-2.3854	-2.5146	-2.3625	-2.8729	-2.5083	-2.5396	-2.7833	-2.6792	-2.6917	-2.9521	-2.3854	-2.8229	-2.7229	-2.3854	-2.9625	-2.6479	211.875	114.176	136.603	213.104	166.278	237.329	202.280	131.509	109.435	173.819	199.814	46.588	-113.077	189.732	-64.852	153.559	0.0003636	0.0027115	0.00040534	330.22	1.8344e-05	1.067e-05	408.89	126.74	1.2359e-05	1.3827e-05	192.78	73.765	47.427	20.753	9.6871e-07	34.143	0.0023645	0.0022282	0.00057154	806.79	2.6374e-05	2.4221e-05	798.08	261.97	2.6109e-05	2.4275e-05	409.13	144.3	114.83	42.67	2.2284e-05	64.756	35.935	-57.198	-39.091	-109.536	-58.940	8.671	-109.512	-103.686	175.025	109.484	-105.165	-101.384	-99.307	-94.218	102.563	-97.458	-8191	255	
8405.252	1	1	0	0	0.13427	0.12216	0.30472	0.21094	0.20333	0.038861	0.11103	0.12951	0.087416	0.043624	0.15941	0.056307	0.14687	0.16542	0.071163	0.22833	-2.4083	-2.8083	-2.4188	-2.7146	-2.75	-2.5854	-3.0187	-2.7062	-2.575	-2.6396	-2.4833	-2.7667	-2.8521	-2.5417	-2.8208	-2.6771	42.886	-66.485	178.282	-112.815	142.741	220.592	139.760	164.605	141.916	215.842	51.171	-33.118	226.649	-101.918	99.324	126.789	0.00017479	0.0011479	0.00011336	330.44	1.3025e-05	1.8654e-05	408.72	127.76	2.6101e-05	8.0069e-06	191.43	73.933	47.646	20.545	1.891e-05	33.919	0.0023546	0.0021934	0.00056485	845.73	2.6022e-05	2.3761e-05	794.75	273.13	2.5657e-05	2.3929e-05	412.16	150.71	114.26	42.595	2.2817e-05	67.291	115.952	-19.693	-30.167	-109.428	41.998	3.174	-109.355	-103.399	39.209	-10.776	-105.690	-101.530	-98.276	-94.049	-116.665	-97.640	-8191	255	
8405.349	1	1	0	0	0.12121	0.17528	0.095064	0.2866	0.24519	0.17097	0.080011	0.13674	0.13154	0.081536	0.16005	0.09453	0.15296	0.16921	0.31438	0.19425	-2.0542	-2.8146	-2.4396	-2.8042	-2.6771	-2.6292	-2.8875	-2.7271	-2.5229	-2.9271	-2.5583	-2.6729	-2.8563	-2.6583	-3.0458	-2.8167	204.237	-11.946	229.567	194.601	-114.444	87.115	-72.424	209.782	0.916	149.915	194.093	202.412	-91.754	235.886	177.751	153.046	0.00088596	0.0014114	0.00042968	336.68	1.9289e-05	1.5421e-05	407.33	128.22	1.7356e-05	1.8307e-05	187.78	73.814	48.017	20.464	3.4353e-05	34.137	0.002318	0.0021703	0.00059085	881.86	2.5492e-05	2.3499e-05	810.04	281.69	2.4918e-05	2.3175e-05	421.8	152.17	110.74	41.541	2.37e-05	67.413	198.530	-77.417	149.822	-109.397	38.839	-17.267	-109.457	-103.457	14.433	43.005	-106.196	-101.213	-99.243	-94.077	188.156	-96.932	-8191	255	
8405.469	1	1	0	0	0.2453	0.13529	0.21991	0.36929	0.0064996	0.23666	0.14585	0.090884	0.10993	0.17155	0.14694	0.1268	0.17577	0.1259	0.17997	0.25188	-1.8646	-2.9292	-2.2562	-2.9188	-2.9521	-2.4146	-3.0604	-2.65	-2.4542	-2.8375	-2.4667	-2.8729	-2.8021	-2.5583	-2.6875	-2.8979	-37.536	189.047	-21.503	220.998	-62.631	146.360	-83.452	166.232	-67.727	233.674	-20.389	114.510	-86.628	138.565	-85.525	-2.553	0.00035735	0.00085863	0.0007229	336.7	7.1536e-06	7.5525e-06	403.42	127.93	7.6446e-06	8.5287e-06	187.92	74.668	46.761	20.424	2.494e-05	34.458	0.0022242	0.0020893	0.00061995	880.4	2.4677e-05	2.2816e-05	839.48	280.49	2.4298e-05	2.2647e-05	441.42	150.82	109.02	40.989	2.5267e-05	66.574	17.461	-35.058	128.412	-108.703	16.201	-54.323	-109.895	-103.139	176.275	2.344	-105.621	-101.241	-98.157	-94.407	214.324	-96.829	-8191	255	
8405.565	1	1	0	0	0.2855	0.21883	0.079559	0.24783	0.15286	0.11744	0.094971	0.10262	0.28322	0.17749	0.29366	0.10557	0.10867	0.18959	0.1808	0.099969	-2.0583	-2.8375	-2.5687	-2.6021	-2.975	-2.4583	-2.8563	-2.9271	-2.4646	-2.8667	-2.7417	-2.55	-2.9396	-2.5687	-2.8417	-2.7958	74.546	144.503	0.471	135.248	132.076	121.166	-88.346	95.040	169.990	72.700	212.478	-44.046	-66.072	83.554	-115.192	100.788	0.000983	0.00080499	0.00068274	338.4	6.1662e-06	1.0427e-05	406.22	128.55	3.5144e-05	6.0351e-06	190.05	75.535	47.395	20.088	2.0849e-05	34.022	0.0021876	0.0020545	0.000662	864.02	2.4133e-05	2.2704e-05	867.64	275.81	2.3646e-05	2.2686e-05	456.93	148.26	107.24	41.635	2.659e-05	65.299	82.055	185.824	139.211	-108.353	43.300	175.683	-109.551	-103.128	-28.782	131.736	-105.346	-100.185	-98.695	-94.665	165.259	-96.923	-8191	255	
8405.662	1	1	0	0	0.24365	0.12328	0.070932	0.10719	0.13719	0.13797	0.12083	0.11175	0.33763	0.13797	0.063254	0.2428	0.11328	0.21978	0.24084	0.10384	-2.1167	-2.8396	-2.5125	-2.7417	-3.0771	-2.4333	-2.8292	-2.8458	-2.3417	-3.125	-2.6479	-2.7146	-2.9792	-2.5708	-2.7292	-3.0229	147.841	-13.294	178.992	181.299	73.423	167.199	-102.469	91.767	220.675	-90.063	49.752	128.704	-92.989	-60.988	-112.473	170.487	0.0014633	0.0021845	0.00017508	342.31	7.1241e-06	3.018e-05	408.82	130.69	1.8334e-05	1.5764e-05	193.16	75.524	47.029	20.267	5.9635e-06	34.307	0.0021223	0.0021193	0.00068846	847.82	2.3492e-05	2.3851e-05	885.42	270.88	2.3061e-05	2.3963e-05	462.9	146.35	105.55	43.202	2.6885e-05	64.715	99.283	107.550	116.358	-108.739	31.164	165.420	-109.186	-103.517	-83.416	197.517	-105.416	-100.578	-99.106	-94.337	224.286	-97.337	-8191	255	
8405.758	1	1	0	0	0.2568	0.24761	0.32138	0.30781	0.075445	0.054736	0.14166	0.10435	0.28929	0.095093	0.29154	0.018582	0.13119	0.1463	0.042348	0.14565	-1.9333	-2.9271	-2.9042	-2.3187	-3.0438	-2.6729	-2.7604	-2.9062	-2.5521	-2.9313	-2.7812	-2.5021	-2.8396	-2.6854	-2.5104	-3.0146	100.600	-87.508	-46.399	-43.973	4.258	165.381	223.437	-71.967	216.863	27.599	67.014	48.122	-1.701	-112.197	197.387	150.746	0.00060161	0.0029327	0.00015908	341.33	7.7297e-06	2.647e-05	413.83	129.73	4.0914e-06	2.5186e-05	193.88	75.549	46.734	20.078	2.6494e-05	34.211	0.0020692	0.0022763	0.00069287	839.06	2.3141e-05	2.5704e-05	886.08	269.91	2.3033e-05	2.6153e-05	465.18	146.62	106.6	45.744	2.6969e-05	65.117	-6.935	108.547	62.649	-108.531	36.449	188.280	-108.973	-103.042	117.635	190.637	-104.553	-100.697	-98.728	-94.594	-19.666	-97.707	-8191	255	
8405.854	1	1	0	0	0.089057	0.13336	0.22826	0.18258	0.029804	0.24584	0.14714	0.13059	0.24619	0.086359	0.18645	0.023269	0.17591	0.14587	0.11665	0.27821	-1.9875	-2.6604	-2.8167	-2.3896	-2.9583	-2.7188	-2.4313	-2.95	-2.3625	-2.8271	-2.8104	-2.4	-2.8812	-2.7083	-2.7292	-3.0542	100.221	-80.770	15.849	-59.939	123.643	57.251	128.567	-39.089	-31.535	-118.067	140.531	-46.027	188.263	225.004	-68.567	212.491	0.0009504	0.0019431	0.00039044	338.9	3.4181e-06	2.2043e-05	410.11	128.44	3.8824e-05	1.73e-05	193.28	74.456	46.334	20.235	1.5821e-06	34.226	0.0021314	0.002491	0.00069258	842.12	2.3931e-05	2.7861e-05	878.21	269.37	2.4063e-05	2.798e-05	461.4	146.16	110.17	47.456	2.6694e-05	64.221	17.718	96.203	-44.607	-108.684	-92.558	186.249	-109.239	-103.369	131.924	212.562	-104.665	-101.051	-99.679	-94.284	-37.358	-96.527	-8191	255	
8405.950	1	1	0	0	0.24759	0.19799	0.06184	0.28886	0.23734	0.077152	0.2089	0.25105	0.09242	0.21962	0.093382	0.24327	0.21435	0.36533	0.075967	0.20979	-1.8958	-2.7438	-3.0875	-2.5271	-2.875	-2.7438	-2.7021	-3.0583	-2.3917	-2.9688	-2.8917	-2.55	-2.9375	-2.7729	-2.5396	-2.8958	198.540	108.888	199.239	99.419	45.741	-21.711	166.692	238.580	-67.154	140.539	-4.756	229.397	-73.966	-72.760	-63.534	34.754	0.0023975	0.0003264	0.00042295	336.92	1.7018e-05	1.5529e-05	405.89	126.18	2.8377e-05	2.7507e-05	195.2	74.206	45.781	20.631	1.103e-05	34.114	0.0022512	0.0025908	0.00067883	831.61	2.5374e-05	2.8637e-05	866.72	265.02	2.5713e-05	2.8297e-05	453.55	143.72	114.2	47.332	2.5946e-05	62.95	7.419	66.581	-86.298	-109.490	201.609	170.247	-109.249	-102.806	159.915	-44.987	-104.650	-100.398	-99.706	-93.810	-1.598	-97.107	-8191	255	
8406.069	1	1	0	0	0.096232	0.19853	0.046612	0.20931	0.1433	0.099964	0.2213	0.35687	0.22446	0.044356	0.089586	0.19905	0.17558	0.21166	0.16964	0.17302	-2.1146	-2.7583	-3.0687	-2.5896	-2.9188	-2.975	-2.5958	-3.0312	-2.6813	-2.5396	-3.2146	-2.3292	-2.6437	-2.8479	-2.2875	-2.9313	76.260	-100.162	-55.758	-120.698	141.528	-37.740	-106.553	-107.915	39.481	-56.326	117.902	158.230	229.070	147.183	-99.808	-119.594	0.0024877	0.0016398	0.00036158	333.61	1.2966e-05	1.3088e-05	407.48	127.39	3.59e-05	2.0837e-05	193.52	74.011	46.223	20.48	6.3311e-06	34.158	0.0023885	0.0025313	0.00065742	814.57	2.6589e-05	2.7817e-05	853.16	261.99	2.7187e-05	2.7448e-05	445.17	142.92	118.63	46.437	2.5421e-05	63.434	0.717	9.402	-40.328	-108.455	227.087	-27.273	-108.625	-103.251	172.123	-7.966	-105.475	-101.033	-99.685	-93.836	-61.224	-97.462	-8191	255	
8406.165	1	1	0	0	0.12109	0.19066	0.069685	0.33298	0.070928	0.16803	0.090037	0.19819	0.19306	0.12443	0.1013	0.24898	0.26345	0.1704	0.088942	0.26186	-2.1479	-2.6771	-2.8	-2.4542	-2.8396	-2.6458	-2.5333	-3.0229	-2.6188	-2.6208	-3.1375	-2.4625	-2.7979	-2.825	-2.3458	-2.9625	193.307	-46.030	-95.424	222.310	-16.195	195.382	113.975	-116.841	-116.272	224.400	92.696	233.627	214.636	-32.522	12.796	174.526	0.0014408	0.0011169	0.00035751	330.93	1.3341e-05	1.4825e-05	406.13	126.67	3.6092e-05	5.2377e-06	193.7	74.167	47.137	20.568	2.7065e-05	33.831	0.0025366	0.002485	0.00064529	827.77	2.8046e-05	2.7092e-05	844.89	266.49	2.8347e-05	2.6665e-05	438.28	146.59	120.77	45.511	2.4617e-05	65.224	-2.444	-67.901	-27.639	-109.083	74.252	2.295	-109.076	-104.430	156.918	30.403	-105.605	-101.097	-99.187	-93.859	48.325	-97.274	-8191	255	
8406.261	1	1	0	0	0.01304	0.2218	0.16956	0.28539	0.22487	0.0803	0.1668	0.18261	0.24502	0.09184	0.27808	0.25291	0.057079	0.037192	0.13246	0.187	-2.2604	-2.3333	-3.0812	-2.4708	-2.7188	-3.0438	-2.4354	-2.8167	-2.7208	-2.5146	-3.2354	-2.5354	-2.7667	-2.9083	-2.3125	-2.8479	-9.799	49.717	173.169	52.020	-44.157	217.341	176.774	-5.165	218.543	4.079	-114.129	173.241	221.549	19.191	113.349	198.133	0.0010291	0.0024505	0.00079318	328.5	2.5205e-05	6.6414e-06	407.81	127.3	1.2442e-05	2.954e-05	192.7	73.48	47.571	20.69	9.5248e-06	34.127	0.0025732	0.0024036	0.00062436	859.58	2.8291e-05	2.6414e-05	834.06	276.86	2.8478e-05	2.6226e-05	431.81	152.48	120.02	44.731	2.3944e-05	67.131	-42.890	-60.509	-32.699	-109.146	57.135	21.214	-108.724	-104.107	26.801	13.472	-105.616	-101.761	-99.404	-94.420	66.430	-97.921	-8191	255	
8406.357	1	1	0	0	0.10444	0.31943	0.049446	0.18273	0.041872	0.10668	0.17935	0.21218	0.26454	0.067917	0.15329	0.26582	0.27058	0.13697	0.15175	0.04476	-2.5229	-2.5812	-3.0396	-2.575	-2.3583	-3.0417	-2.3708	-2.9125	-2.8917	-2.4437	-3.0229	-2.7125	-2.4229	-3.0583	-2.5333	-2.9542	197.360	-40.126	205.671	-100.251	224.786	38.684	167.544	-11.802	-100.328	73.678	-35.724	-40.339	-104.007	75.857	126.460	26.242	0.0010449	0.00076581	0.00025492	328.51	8.3823e-06	1.9269e-05	407.44	126.85	1.3371e-05	1.8141e-05	192.31	73.786	47.425	20.579	2.2991e-05	33.973	0.0024948	0.0023182	0.00060111	882.59	2.7091e-05	2.5434e-05	820.83	283.97	2.7336e-05	2.5385e-05	430.06	156.69	117.47	44.169	2.4442e-05	69.229	102.882	237.002	96.412	-108.681	30.465	42.989	-108.993	-103.435	-0.366	47.791	-105.506	-100.665	-98.567	-94.312	192.919	-97.512	-8191	255	
8406.453	1	1	0	0	0.4213	0.1077	0.18885	0.045251	0.10157	0.1312	0.16173	0.32082	0.12013	0.17359	0.16487	0.1671	0.093845	0.15295	0.043137	0.044823	-2.3312	-2.3333	-2.9479	-2.6104	-2.6125	-2.9313	-2.4375	-2.9417	-2.8688	-2.4479	-2.8354	-2.5854	-2.6958	-3.0438	-2.5917	-2.8708	-94.219	76.460	120.098	-105.187	16.809	228.015	7.816	226.045	5.419	145.492	166.223	168.557	-67.825	-96.658	31.036	-65.398	0.0011679	0.0011837	0.00019835	341.06	1.2354e-05	6.5705e-06	406.57	128.93	1.6794e-05	1.2938e-05	188.89	74.512	47.875	20.632	1.9178e-05	34.375	0.0024626	0.002304	0.00062936	920.96	2.6921e-05	2.5125e-05	844.87	290.41	2.6781e-05	2.4874e-05	444.9	158.8	115.35	43.202	2.56e-05	69.155	203.128	-1.782	134.037	-109.292	17.298	-8.712	-109.869	-103.346	-22.579	64.748	-105.764	-100.525	-99.073	-94.308	152.212	-97.302	-8191	255	
8406.550	1	1	0	0	0.1054	0.032793	0.03649	0.13501	0.20978	0.23055	0.10479	0.23379	0.26627	0.28212	0.010545	0.2691	0.042651	0.18256	0.1037	0.13315	-2.3521	-2.3208	-2.825	-2.7979	-2.5479	-3.1021	-2.6708	-2.6792	-2.9958	-2.7417	-2.9396	-3.0208	-2.3521	-3.0438	-2.5667	-2.7458	22.167	230.769	94.032	-89.036	141.668	236.438	138.148	134.217	-115.742	164.096	-88.609	228.342	-25.859	168.630	-79.538	108.923	0.0005852	0.00068539	0.00055804	336.77	1.9604e-05	6.7435e-06	406.13	130.72	1.6703e-05	1.0305e-05	189.08	76.012	48.254	20.569	1.5424e-05	34.765	0.0023507	0.0022083	0.00065629	910.55	2.5826e-05	2.4095e-05	872.53	287.25	2.5725e-05	2.3925e-05	458.94	156.64	113.08	42.616	2.6923e-05	67.909	150.935	-9.941	154.167	-108.300	36.715	116.248	-109.857	-103.039	96.016	8.209	-105.618	-100.524	-99.279	-94.795	126.640	-97.072	-8191	255	
8406.670	1	1	0	0	0.28104	0.16094	0.3157	0.30339	0.125	0.18468	0.22323	0.074412	0.10639	0.0060447	0.21973	0.19121	0.20924	0.049488	0.13994	0.092108	-2.3875	-2.3375	-3.1042	-2.9021	-2.4083	-2.8271	-2.6688	-2.6813	-2.8063	-2.5375	-2.7396	-2.825	-2.3521	-2.9271	-2.7917	-2.5542	232.179	-69.164	124.090	198.488	-27.026	-16.741	178.029	222.399	223.716	119.812	-95.693	182.714	237.000	153.411	236.975	-27.603	0.00024752	0.0013202	0.00019221	339.9	8.1519e-06	4.8681e-06	413.26	129.72	1.9561e-05	1.3076e-05	193.21	75.684	48.346	20.435	1.7796e-05	34.934	0.0022546	0.0021307	0.0006771	875.76	2.4364e-05	2.3244e-05	885.31	277.73	2.4365e-05	2.3431e-05	465.39	151.53	109.73	42.683	2.7556e-05	66.472	54.569	33.557	227.099	-108.915	0.503	194.055	-109.994	-102.876	-0.985	230.288	-105.482	-99.839	-98.091	-94.737	181.060	-96.891	-8191	255	
8406.766	1	1	0	0	0.16406	0.15703	0.11502	0.051721	0.2599	0.20073	0.14734	0.33156	0.33712	0.22447	0.1611	0.20977	0.1919	0.065012	0.15303	0.1142	-2.6833	-2.4521	-2.7021	-2.8854	-2.5708	-3.0312	-2.7062	-2.8354	-2.8292	-2.6646	-2.7125	-2.9771	-2.6208	-2.8312	-2.7812	-2.6208	-71.728	-10.539	26.686	62.543	-82.041	-35.307	-62.439	-116.489	53.598	177.319	108.766	16.020	-52.209	217.383	212.746	183.646	0.0015643	0.0025975	0.00026742	341.07	1.9138e-05	2.3505e-05	410.86	130.52	2.3698e-05	1.4624e-05	193.64	75.289	47.596	20.19	1.3608e-05	34.069	0.0021808	0.0021989	0.00069781	860.76	2.3839e-05	2.4495e-05	897.45	272.59	2.3704e-05	2.479e-05	466.83	148.59	107.18	44.004	2.7509e-05	65.258	145.407	105.617	147.822	-108.750	41.894	192.423	-109.437	-102.809	-51.984	238.737	-104.891	-100.704	-99.147	-94.633	-50.894	-97.456	-8191	255	
8406.838	1	1	0	0	0.04584	0.26551	0.089603	0.11655	0.16151	0.011707	0.1726	0.12538	0.36748	0.15491	0.14291	0.17024	0.084716	0.14838	0.098196	0.067	-2.45	-2.5438	-2.6604	-2.8187	-2.3333	-2.7375	-2.85	-2.6312	-2.8	-2.6146	-2.6562	-2.9792	-2.525	-2.5563	-2.8021	-2.5646	162.374	236.825	49.849	49.446	34.123	162.396	180.255	-43.929	228.590	181.362	-16.678	127.073	69.030	138.429	44.578	-99.616	0.0010036	0.0022087	0.00041476	337.89	7.4913e-06	6.6843e-06	408.19	127.31	3.159e-05	2.2883e-05	195.37	74.055	46.258	20.366	1.3191e-05	34.063	0.0021259	0.002355	0.00069376	848.6	2.3387e-05	2.627e-05	890.94	270.41	2.3538e-05	2.6796e-05	462.75	146.93	106.95	45.685	2.697e-05	64.441	123.577	122.121	-46.645	-108.498	43.073	199.309	-108.718	-103.470	-32.597	179.526	-104.645	-100.564	-98.905	-94.355	-44.783	-96.873	-8191	255	
8406.934	1	1	0	0	0.29623	0.14803	0.1954	0.22639	0.10763	0.10783	0.30572	0.17357	0.19291	0.14528	0.17347	0.11846	0.20145	0.069615	0.039327	0.10981	-2.4646	-2.6646	-2.5375	-3.1292	-2.5208	-2.7646	-2.7833	-2.5125	-2.8104	-2.7938	-2.6813	-2.8917	-2.7792	-2.7708	-2.7313	-2.5021	115.499	-64.075	174.311	193.877	207.341	90.283	67.604	105.158	144.532	-91.443	204.188	206.832	230.227	92.408	181.239	236.262	0.0010283	0.0021124	0.00017838	340.54	1.5996e-06	9.4381e-06	410.84	127.72	3.6429e-05	8.585e-06	190.97	75.103	45.801	20.261	2.0932e-05	34.295	0.0021314	0.0024802	0.00067359	832.57	2.351e-05	2.7074e-05	864.35	263.34	2.3617e-05	2.7387e-05	449.43	143.35	107.88	46.06	2.5605e-05	62.755	37.112	122.119	-3.550	-109.044	135.455	140.221	-109.356	-103.088	172.638	199.210	-105.058	-100.628	-99.613	-94.876	15.937	-96.705	-8191	255	
8407.030	1	1	0	0	0.37079	0.23097	0.22377	0.21264	0.20846	0.18328	0.2378	0.42007	0.16117	0.17031	0.11757	0.12431	0.079819	0.22991	0.39669	0.14728	-2.2896	-2.6729	-2.2708	-3.0229	-2.5271	-2.7417	-3.0062	-2.4354	-2.7604	-2.8292	-2.4458	-3.0417	-2.6021	-2.7104	-2.9167	-2.4583	-39.232	172.790	-7.660	-115.398	194.951	144.516	229.032	145.008	70.370	40.228	-79.177	189.562	176.083	-99.884	-89.179	-10.835	0.0019429	0.00055941	0.00011388	338.42	2.5093e-05	7.7293e-06	412.64	127.9	4.4218e-05	8.4957e-06	194.06	74.465	46.374	20.684	9.4232e-06	34.346	0.0021758	0.002476	0.00063714	802.61	2.4261e-05	2.6759e-05	841.69	255.09	2.4395e-05	2.6642e-05	435.01	139.23	110.9	45.216	2.4252e-05	61.081	0.820	97.681	25.919	-108.652	185.699	60.767	-108.891	-103.190	179.230	23.155	-104.510	-100.305	-99.083	-94.310	-13.615	-97.339	-8191	255	
8407.149	1	1	0	0	0.31619	0.23375	0.2041	0.22016	0.086887	0.17739	0.20291	0.20277	0.15883	0.11609	0.15516	0.21061	0.23516	0.040647	0.24137	0.17556	-2.2458	-2.6437	-2.4	-2.9875	-2.45	-2.4854	-2.8146	-2.4521	-2.725	-2.7875	-2.2687	-2.8333	-2.8125	-2.4542	-2.9042	-2.7146	173.205	167.946	0.875	-28.701	6.372	-34.618	169.432	90.229	145.893	-10.917	159.164	185.075	98.792	107.125	66.699	185.190	0.0024002	0.0013159	0.00033678	336.13	1.9371e-05	2.5006e-05	410	127.48	2.7044e-05	1.9085e-05	193.12	74.206	46.221	20.648	1.1893e-05	34.006	0.0022568	0.0023815	0.00061169	782.79	2.5391e-05	2.5805e-05	825.6	251.9	2.5582e-05	2.5704e-05	424.82	138.5	114.41	44.124	2.3468e-05	61.147	-4.169	-8.344	-110.216	-108.858	207.616	-21.271	-109.259	-103.727	180.198	-23.299	-104.642	-101.561	-99.563	-94.550	6.030	-96.750	-8191	255	
8407.245	1	1	0	0	0.29866	0.093108	0.085426	0.13151	0.25932	0.15988	0.21545	0.10112	0.03511	0.27345	0.031108	0.14014	0.2376	0.10889	0.030459	0.13007	-2.2729	-2.6063	-2.3042	-2.8208	-2.4583	-2.6792	-3.1083	-2.1917	-2.8167	-2.7458	-2.3937	-2.9688	-2.7687	-2.525	-2.9729	-2.6479	192.963	77.024	190.587	113.808	161.726	-73.035	101.959	128.567	66.873	16.993	69.732	81.598	161.110	140.733	-85.557	148.649	0.00166	0.00071103	0.00020995	327.74	2.8851e-06	2.4494e-05	410.19	127.12	4.128e-06	1.8237e-05	193.26	73.453	46.613	20.531	6.7172e-06	33.803	0.0023292	0.0022713	0.00058475	784.98	2.6131e-05	2.4533e-05	801.93	255.58	2.5951e-05	2.4495e-05	412.29	139.89	114.62	42.692	2.2279e-05	62.4	29.967	-60.313	-43.428	-109.189	214.459	-11.495	-109.230	-103.789	232.944	29.778	-104.893	-101.275	-99.219	-94.462	-84.286	-98.230	-8191	255	
8407.342	1	1	0	0	0.099306	0.19834	0.21714	0.056399	0.10384	0.1746	0.15148	0.19448	0.1615	0.25127	0.22062	0.26393	0.23432	0.24493	0.02509	0.090683	-2.225	-2.7354	-2.4792	-3.0146	-2.7417	-2.7062	-3.0083	-2.4417	-2.75	-2.8271	-2.4417	-3.125	-2.6271	-2.3937	-3.1667	-2.5479	139.351	233.317	96.129	-47.353	75.450	199.013	202.697	106.637	-41.665	-98.958	-109.879	-39.517	153.469	195.356	19.362	-103.994	0.00042811	0.0018449	0.00021726	330.31	1.0401e-05	1.1914e-05	405.99	126.16	1.3325e-05	1.1408e-05	190.55	73.168	47.311	20.405	1.3902e-05	33.746	0.0023314	0.0021772	0.00055965	807.46	2.586e-05	2.355e-05	781.17	262.92	2.551e-05	2.3595e-05	403.93	144.68	113.38	42.141	2.2031e-05	64.847	-119.753	-48.791	-47.862	-109.323	-40.209	-21.555	-108.859	-103.695	-11.193	63.789	-105.651	-101.262	-98.866	-94.121	-44.745	-98.237	-8191	255	
8407.462	1	1	0	0	0.19887	0.063488	0.21043	0.091289	0.16139	0.1324	0.25567	0.12135	0.33419	0.085032	0.2046	0.28463	0.12161	0.034231	0.15269	0.081662	-2.1167	-2.8333	-2.2646	-2.9729	-2.8458	-2.3896	-3.1729	-2.6833	-2.4146	-2.8375	-2.5521	-2.7188	-2.8875	-2.4917	-2.9437	-2.7104	53.470	89.744	28.026	-96.104	236.734	230.209	-116.325	130.181	105.571	-89.403	208.608	-106.684	-14.624	71.769	144.072	153.023	0.001038	0.0016874	9.1469e-05	330.74	1.6631e-05	8.8501e-06	407.25	127.03	3.3296e-05	9.5472e-06	188.87	73.32	46.928	20.547	1.5201e-05	33.609	0.0022955	0.0021486	0.00056248	844.44	2.5362e-05	2.3281e-05	784.13	273.09	2.4833e-05	2.3123e-05	408.04	149.04	110.72	41.423	2.2509e-05	66.374	75.663	-21.694	-104.184	-108.761	31.847	14.143	-109.741	-104.068	28.674	29.635	-105.446	-101.019	-99.008	-94.348	172.832	-97.529	-8191	255	
8407.534	1	1	0	0	0.26135	0.28491	0.11295	0.11532	0.13604	0.12451	0.062113	0.18883	0.059068	0.12808	0.24501	0.15126	0.34847	0.40707	0.10124	0.21181	-2.1208	-2.6104	-2.4437	-2.9021	-2.7146	-2.75	-2.9562	-2.8021	-2.65	-3.075	-2.65	-2.8958	-2.8125	-2.4667	-2.8708	-2.7125	140.651	143.327	-108.635	175.702	6.881	55.121	86.554	198.100	134.516	-51.307	-77.572	71.678	222.160	-109.281	163.316	155.644	0.00039093	0.00060093	0.00068231	333.26	7.8077e-06	1.9874e-05	403.22	126.8	3.398e-05	1.0936e-05	186.46	74.88	46.906	20.441	3.189e-05	34.149	0.0022173	0.0020889	0.00058386	867.14	2.4619e-05	2.289e-05	809.39	279.37	2.448e-05	2.2889e-05	428.94	152.28	110.1	41.279	2.4295e-05	67.339	-79.628	-69.596	154.876	-108.831	43.737	-31.831	-109.886	-103.298	45.158	32.085	-105.130	-100.754	-98.876	-93.877	171.197	-96.897	-8191	255	
8407.630	1	1	0	0	0.15043	0.12796	0.21138	0.18445	0.14699	0.024812	0.25383	0.30922	0.09672	0.094459	0.12743	0.12843	0.0637	0.024004	0.13286	0.21637	-1.9188	-2.8396	-2.5479	-2.8021	-2.8333	-2.3417	-2.8563	-2.5042	-2.4167	-2.7083	-2.5958	-2.6813	-2.8937	-2.5062	-2.8021	-2.9542	74.530	-74.522	2.098	51.822	52.017	94.449	191.305	113.252	-42.160	100.310	-32.427	201.409	38.136	32.780	-39.871	-112.620	0.00068896	0.0003078	0.0006437	334.3	4.708e-06	5.2286e-06	399.29	126.87	1.1783e-05	5.9332e-06	186.82	75.057	46.732	20.208	2.226e-05	34.1	0.0021944	0.0020597	0.00063481	868.42	2.4391e-05	2.2719e-05	848.3	279.13	2.4476e-05	2.2877e-05	453.14	151.63	110.08	41.628	2.6362e-05	67.019	83.540	227.912	141.864	-108.316	46.479	-3.619	-109.721	-103.269	-69.305	32.478	-105.238	-101.517	-98.583	-94.879	185.576	-97.264	-8191	255	
8407.751	1	1	0	0	0.066337	0.12583	0.12638	0.096046	0.12139	0.24856	0.473	0.053868	0.1573	0.1812	0.20482	0.1686	0.14504	0.055244	0.15897	0.15747	-2.0146	-2.8563	-2.6937	-2.7667	-2.7438	-2.5458	-2.7479	-2.8854	-2.6417	-2.8167	-2.8146	-2.5938	-2.8667	-2.5125	-2.7021	-2.9229	64.398	85.437	183.818	142.024	61.935	-115.774	237.994	-116.056	5.881	43.127	27.172	-90.950	142.420	152.458	113.146	9.782	0.0012745	0.0005247	0.00056195	333.93	2.4271e-05	1.6351e-06	406.61	127.5	4.3673e-05	1.3869e-05	192.16	74.3	47.216	19.939	1.6125e-05	34.182	0.0022154	0.002105	0.00068657	863.72	2.4434e-05	2.3446e-05	876.87	274.72	2.4095e-05	2.347e-05	466.58	148.88	107.83	42.613	2.7202e-05	65.684	70.417	-31.128	151.912	-108.625	-18.722	146.303	-109.191	-103.212	-50.229	230.892	-106.188	-100.139	-98.969	-94.154	215.552	-97.062	-8191	255	
8407.847	1	1	0	0	0.16604	0.13655	0.17465	0.20674	0.11856	0.015688	0.15941	0.084866	0.067491	0.18063	0.24295	0.11944	0.18179	0.0689	0.36962	0.087519	-1.8875	-2.8292	-2.6042	-2.4313	-3.0479	-2.6125	-2.6958	-3.1312	-2.4188	-3.1042	-2.7167	-2.4083	-3.0417	-2.4437	-2.5625	-3.0854	-72.296	-59.346	191.491	-26.474	11.166	-99.431	-15.758	203.333	-79.502	121.354	142.257	178.627	-116.039	-57.974	-37.863	64.800	0.0010178	0.001803	0.00035021	331.7	2.5702e-05	1.8851e-05	401.67	127.17	2.1693e-05	1.306e-05	194.64	74.357	46.583	20.06	1.4882e-05	34.036	0.0021484	0.0021943	0.00070301	845.17	2.3511e-05	2.4718e-05	880.7	269.78	2.3387e-05	2.4834e-05	466.4	146.47	105.69	44.139	2.6784e-05	64.171	142.554	130.135	-0.228	-108.546	-9.152	178.354	-108.910	-103.190	-14.542	172.078	-105.449	-101.094	-98.879	-94.529	-41.587	-96.468	-8191	255	
8407.943	1	1	0	0	0.17699	0.078445	0.26562	0.2432	0.093334	0.062378	0.11404	0.042459	0.14725	0.07146	0.016074	0.15414	0.065966	0.11762	0.15469	0.30498	-1.7229	-2.675	-2.7229	-2.5604	-2.8146	-2.6542	-2.6875	-3.1646	-2.3729	-2.9313	-2.8729	-2.4208	-2.9729	-2.6771	-2.4604	-3.1312	44.056	183.759	199.426	16.418	122.660	-94.998	114.115	145.190	86.317	53.524	228.659	228.094	91.700	228.501	125.829	49.542	0.00070673	0.0011692	0.00056341	336.17	7.9623e-06	1.4428e-05	406.68	127.1	1.0313e-05	1.2822e-05	192.13	75.132	46.694	20.286	2.5968e-05	33.982	0.0020726	0.0022913	0.00067447	822.54	2.2422e-05	2.5674e-05	858.14	262.78	2.253e-05	2.5682e-05	450.93	142.88	104.32	45.134	2.561e-05	63.016	31.414	121.902	39.665	-109.348	-80.272	150.877	-108.977	-103.387	201.034	151.600	-105.064	-100.291	-98.861	-94.589	9.303	-97.292	-8191	255	
8408.062	1	1	0	0	0.048735	0.12892	0.19308	0.25403	0.066021	0.13533	0.040201	0.041081	0.27876	0.17891	0.18083	0.22673	0.22608	0.11813	0.041343	0.20957	-1.9438	-2.6479	-2.8312	-2.4625	-2.9896	-2.6188	-2.7062	-2.9938	-2.325	-2.9479	-2.95	-2.2833	-3.0042	-2.8729	-2.5083	-3.0229	149.209	67.121	-13.925	-105.902	103.075	193.538	65.587	32.860	21.666	-26.070	186.517	-73.852	201.844	-22.526	163.046	-65.828	0.00096716	0.0013549	0.00031954	332.45	1.1965e-05	8.7231e-06	408.4	127.9	3.0312e-05	1.2434e-05	194.6	75.206	46.486	20.408	8.9287e-06	34.369	0.0020762	0.0024027	0.00065468	812.2	2.2913e-05	2.686e-05	844.52	258.09	2.3422e-05	2.657e-05	441.53	140.94	106.94	45.865	2.4893e-05	62.097	2.664	170.584	18.993	-108.712	-115.018	111.175	-108.981	-102.890	168.251	185.654	-104.863	-100.803	-98.838	-94.588	-1.216	-97.178	-8191	255	
8408.133	1	1	0	0	0.031231	0.27285	0.058905	0.13363	0.075115	0.25091	0.21246	0.19576	0.12867	0.096456	0.079118	0.044264	0.19926	0.10739	0.28124	0.063644	-2.1625	-2.6771	-2.8312	-2.3333	-3.0542	-2.5333	-2.575	-3.0438	-2.3688	-2.8187	-2.9604	-2.5604	-2.9146	-2.6896	-2.5375	-2.8	188.496	206.295	99.552	67.106	-74.825	-119.821	210.225	-67.235	159.412	236.722	35.269	-37.325	192.009	180.063	-27.694	15.128	0.0018998	0.00080939	0.00017828	335.41	1.8151e-05	1.5945e-05	407.72	126.42	3.3871e-05	1.256e-05	192.25	74.371	45.944	20.678	8.1827e-06	34.151	0.0021878	0.0024273	0.00063246	793.9	2.4205e-05	2.6833e-05	831.04	253.3	2.4842e-05	2.6369e-05	434.26	138.97	111.32	45.387	2.4283e-05	61.015	-10.921	-4.290	-8.971	-108.532	184.025	3.660	-109.085	-103.258	174.712	31.112	-105.027	-100.200	-99.458	-94.297	-7.270	-97.260	-8191	255	
8408.230	1	1	0	0	0.1445	0.10402	0.16157	0.043711	0.023341	0.1389	0.15038	0.21006	0.33382	0.18594	0.16026	0.14364	0.29177	0.1093	0.15638	0.27086	-2.175	-2.5917	-2.5938	-2.4562	-2.7771	-2.7521	-2.4375	-2.9833	-2.6125	-2.6188	-2.9917	-2.6229	-2.6667	-2.9229	-2.6521	-2.9313	-60.991	212.501	-115.389	79.159	238.093	145.977	32.014	207.618	-103.254	-115.843	229.939	235.851	-88.706	121.973	-93.443	-26.684	0.0019692	0.0016466	0.00024085	332.2	2.2861e-05	6.6941e-06	403.69	125.57	2.3751e-05	1.2547e-05	191.33	73.82	46.207	20.599	6.3406e-06	33.679	0.0023217	0.0023713	0.00061427	784.25	2.5664e-05	2.6043e-05	818.92	252.31	2.6334e-05	2.5663e-05	425.9	139.43	115.1	44.369	2.379e-05	61.594	-37.034	-88.621	-6.463	-109.181	197.137	49.766	-109.044	-103.706	233.647	11.411	-105.018	-100.565	-98.625	-94.477	-31.773	-97.698	-8191	255	
8408.326	1	1	0	0	0.27188	0.12103	0.11857	0.22126	0.25952	0.17994	0.084724	0.13721	0.17905	0.34037	0.018103	0.10663	0.073294	0.27094	0.28799	0.2824	-2.4375	-2.7438	-2.95	-2.6375	-2.7562	-2.8854	-2.55	-2.9	-2.6375	-2.5396	-2.8083	-2.625	-2.7646	-2.8917	-2.4417	-2.8417	14.296	221.697	118.836	-100.064	37.513	102.885	-24.788	235.675	163.158	64.475	136.286	172.384	187.893	210.941	-45.488	-9.714	0.0011585	0.001603	0.0003053	328.39	2.1914e-06	1.6042e-05	402.54	124.14	2.572e-05	7.5959e-06	192.08	73.261	46.457	20.216	4.9658e-06	33.523	0.002435	0.0023174	0.00060124	804.52	2.6753e-05	2.529e-05	806.7	258.13	2.7106e-05	2.4974e-05	418.39	144.06	116.47	43.745	2.3311e-05	63.977	6.954	-82.350	23.689	-109.724	-65.106	-7.111	-109.169	-104.091	46.348	17.203	-105.320	-101.476	-97.977	-94.050	38.305	-98.186	-8191	255	
8408.446	1	1	0	0	0.11849	0.30867	0.033784	0.081964	0.22598	0.18721	0.086458	0.28774	0.19773	0.10418	0.13646	0.028015	0.080392	0.25415	0.19238	0.14016	-2.3417	-2.2938	-3.0062	-2.7562	-2.7229	-3.0396	-2.5146	-2.9313	-2.8792	-2.5687	-3.025	-2.7375	-2.6437	-2.9229	-2.4688	-3.0042	103.686	69.282	131.684	168.152	30.458	-96.482	76.555	175.500	-47.488	110.879	-78.635	113.306	108.311	19.563	48.812	201.369	0.00061764	0.00045134	0.00016247	328.68	8.3186e-06	1.4929e-05	403.16	124.25	7.3926e-06	1.2694e-05	189.45	73.423	47.341	20.477	1.1536e-05	34.26	0.0024762	0.0022785	0.00058976	846.61	2.6827e-05	2.5006e-05	801.18	271.3	2.7103e-05	2.4888e-05	417.45	150.96	116.12	43.7	2.3501e-05	67.176	164.067	55.266	-104.353	-110.223	40.094	-32.717	-108.786	-104.276	3.550	16.023	-104.510	-101.118	-98.700	-94.298	-98.130	-97.501	-8191	255	
8408.543	1	1	0	0	0.13889	0.11628	0.10098	0.17258	0.16596	0.09613	0.039567	0.08362	0.21856	0.2244	0.15019	0.18614	0.21352	0.098818	0.1131	0.082708	-2.4125	-2.3542	-3.0583	-2.6292	-2.4	-3.0958	-2.425	-2.6833	-2.9604	-2.475	-2.8042	-2.8625	-2.5563	-2.8375	-2.5396	-2.9958	234.422	-22.051	-33.484	-113.561	11.500	-87.660	96.082	89.785	223.027	61.917	-40.635	215.305	227.767	170.569	-119.862	-17.355	0.00028107	0.0024016	0.00038431	331.04	1.755e-05	2.0959e-05	401.38	126.21	3.7095e-05	1.9651e-05	187.72	74.213	47.294	20.547	3.6828e-05	34.047	0.0024511	0.0022737	0.00059936	891.35	2.6609e-05	2.4891e-05	817.06	281.72	2.6546e-05	2.4449e-05	424.43	156.01	114.28	43.178	2.4416e-05	68.813	211.701	-76.192	117.566	-108.723	-3.018	2.650	-109.866	-103.184	-16.410	71.204	-106.022	-101.209	-99.139	-93.917	163.891	-96.733	-8191	255	
8408.639	1	1	0	0	0.21613	0.2628	0.24123	0.15353	0.35185	0.14412	0.017093	0.1047	0.094054	0.2556	0.14097	0.20242	0.25856	0.25339	0.046836	0.35208	-2.3479	-2.2313	-2.95	-2.7125	-2.5021	-3.0646	-2.4896	-2.6479	-3.1104	-2.2917	-2.6917	-2.6437	-2.5312	-3.025	-2.5917	-2.6271	101.128	133.018	230.236	132.022	-27.601	0.533	-48.205	142.060	83.777	168.932	-50.418	-37.846	-108.900	135.755	-100.160	-56.818	0.00089153	0.0014002	0.00035932	331.98	6.06e-06	8.8392e-06	401.98	126.94	3.3906e-05	2.1384e-05	186.81	74.463	47.073	20.323	3.2177e-05	34.029	0.0023775	0.00222	0.00062511	909.21	2.5836e-05	2.4134e-05	843.72	285.09	2.5845e-05	2.395e-05	441.95	156.83	112.51	42.23	2.606e-05	68.248	181.188	-75.276	168.005	-109.034	21.360	46.005	-110.372	-103.309	-3.228	35.226	-105.657	-100.653	-98.705	-94.810	186.004	-97.025	-8191	255	
8408.735	1	1	0	0	0.023319	0.13354	0.21519	0.11797	0.27685	0.14561	0.2008	0.060861	0.08034	0.073574	0.22655	0.1825	0.14658	0.19221	0.1833	0.10926	-2.4521	-2.4833	-2.9313	-2.6958	-2.6479	-2.9583	-2.3979	-2.6625	-2.9896	-2.4583	-2.725	-2.8854	-2.6188	-2.675	-2.6292	-2.7479	154.503	134.904	201.528	-115.175	1.576	-2.056	57.550	44.034	-39.958	55.428	41.207	-7.827	196.059	212.800	-2.309	117.037	0.00089682	0.0012706	0.00065189	338.88	1.7775e-05	9.8298e-06	395.43	126.44	4.2513e-05	1.1689e-05	185.37	74.06	46.567	19.962	4.0516e-05	34.259	0.0023078	0.0021479	0.00066241	894.66	2.5152e-05	2.3514e-05	873.93	281.05	2.5315e-05	2.371e-05	459.64	154.24	110.97	42.091	2.7633e-05	67.222	109.014	92.236	159.775	-108.226	66.059	-20.698	-110.381	-103.554	-17.108	169.282	-105.007	-101.088	-99.275	-94.981	202.013	-97.020	-8191	255	
8408.831	1	1	0	0	0.16268	0.12489	0.053861	0.061584	0.11412	0.21609	0.057256	0.15961	0.13457	0.10195	0.38712	0.11844	0.18845	0.42136	0.19039	0.27709	-2.4313	-2.4896	-2.8583	-2.95	-2.4	-3	-2.575	-2.6146	-2.9542	-2.7479	-2.7646	-2.8104	-2.4562	-2.9646	-2.7667	-2.4104	224.495	-85.528	45.437	183.185	-66.406	189.583	-117.309	89.329	-101.572	98.977	33.735	100.799	-16.468	205.255	159.974	64.848	0.00034409	0.0019027	0.00042305	332.93	1.9225e-05	1.319e-05	405.01	126.25	2.5552e-05	1.8606e-05	187.34	73.543	46.61	19.893	1.7065e-05	33.979	0.0022656	0.0021859	0.00070138	876.71	2.469e-05	2.3994e-05	897.46	275.2	2.4486e-05	2.456e-05	470.9	150.96	109.32	43.203	2.8416e-05	66.141	94.218	138.839	118.774	-108.527	-6.345	169.213	-109.718	-103.531	-19.025	202.814	-105.535	-100.115	-98.766	-94.544	122.889	-97.238	-8191	255	
8408.927	1	1	0	0	0.1717	0.12284	0.14731	0.11036	0.19375	0.21983	0.27699	0.099975	0.028348	0.10174	0.073483	0.17572	0.079281	0.086717	0.18331	0.12648	-2.6292	-2.575	-2.6063	-2.9979	-2.325	-2.8312	-2.7	-2.6979	-3.0187	-2.5854	-2.7042	-3.0146	-2.5792	-3.0208	-2.7479	-2.4583	11.792	203.857	-116.460	101.217	63.499	-51.668	230.802	169.784	-45.810	196.150	207.474	158.161	201.154	151.880	81.033	137.501	0.0011785	0.0014041	6.0681e-05	333.33	1.035e-05	2.3867e-05	404.08	124.26	1.0656e-05	2.5857e-05	191.6	74.347	46.308	20.181	2.2317e-05	33.908	0.0021964	0.0023086	0.0007121	859.29	2.4074e-05	2.5523e-05	904.1	272.01	2.4001e-05	2.6333e-05	471.4	149.83	108.23	45.248	2.8297e-05	65.917	198.411	86.203	-37.511	-108.350	-33.697	178.582	-108.951	-102.878	23.139	217.958	-104.315	-100.722	-99.337	-94.529	1.787	-96.804	-8191	255	
8409.023	1	1	0	0	0.054423	0.27557	0.21114	0.19636	0.28086	0.21432	0.24826	0.10854	0.18171	0.087435	0.12907	0.20995	0.10004	0.078108	0.05614	0.20551	-2.5917	-2.6	-2.675	-2.8167	-2.4188	-2.7938	-2.9104	-2.3937	-3.075	-2.4875	-2.7021	-3.2	-2.375	-2.7833	-2.9375	-2.6396	-8.187	180.387	27.439	162.940	120.283	3.515	179.732	-64.061	7.268	219.798	52.959	192.276	95.492	208.265	142.053	164.166	0.00066026	0.0018787	0.00017695	332.24	1.5352e-05	1.3789e-05	404	126.99	2.2877e-05	1.07e-05	193.95	74.473	46.306	20.273	1.8076e-05	34.623	0.0021653	0.0024926	0.00070951	859.47	2.4238e-05	2.7495e-05	900.19	272.51	2.4201e-05	2.8328e-05	469.19	149.17	109.78	46.966	2.7554e-05	65.256	74.094	127.847	-44.558	-108.416	-32.014	181.504	-109.008	-103.152	174.946	-77.302	-105.267	-100.386	-99.160	-94.379	31.749	-96.911	-8191	255	
8409.142	1	1	0	0	0.12004	0.053662	0.061748	0.12609	0.14466	0.31682	0.034448	0.067098	0.050125	0.10018	0.29402	0.084152	0.19154	0.22661	0.16237	0.12575	-2.4208	-2.6875	-2.6292	-3.1125	-2.65	-2.7687	-2.7729	-2.6125	-3.0208	-2.6708	-2.3937	-3.0583	-2.5396	-2.6354	-2.7979	-2.5583	-9.563	-113.178	-108.239	-115.993	68.603	-109.386	217.135	167.187	74.981	195.371	232.673	226.610	-78.009	203.664	41.866	75.788	0.0019917	0.00047001	0.00069004	338.09	1.7458e-05	8.8772e-06	402.98	126.72	2.8299e-05	6.0801e-06	191.84	74.063	46.005	20.416	2.6317e-05	34.101	0.0022199	0.0026128	0.00068717	844	2.5023e-05	2.849e-05	880.85	267.58	2.5171e-05	2.9006e-05	457.94	145.92	113.68	47.482	2.691e-05	64.3	-40.581	-49.778	-35.409	-108.911	185.464	171.101	-109.047	-103.461	161.695	138.790	-104.568	-99.676	-99.237	-94.505	-18.218	-97.386	-8191	255	
8409.238	1	1	0	0	0.058659	0.075682	0.17133	0.15373	0.090096	0.10966	0.15984	0.12659	0.10328	0.067981	0.088515	0.14143	0.098394	0.19642	0.2352	0.047486	-2.5667	-2.7396	-2.5646	-2.9917	-2.5604	-2.8563	-3.05	-2.3542	-2.8625	-2.7708	-2.7438	-2.9875	-2.5875	-2.9521	-2.9813	-2.4396	73.291	-69.995	232.031	189.067	86.123	62.828	96.374	167.918	185.554	125.735	208.859	209.133	88.897	220.217	-78.796	151.786	0.0014819	0.0019198	0.00015001	334.08	2.163e-05	1.196e-05	407.18	127.01	2.727e-05	1.3193e-05	190.13	74.34	45.882	20.363	2.3532e-05	33.871	0.0023543	0.002654	0.00067586	828.98	2.6913e-05	2.8625e-05	874.69	266.44	2.7181e-05	2.9059e-05	458.6	145.71	120	47.487	2.7038e-05	64.744	4.950	-46.063	175.395	-108.512	208.313	-0.395	-108.969	-103.109	194.796	19.057	-104.740	-101.219	-98.677	-94.335	-14.120	-97.641	-8191	255	
8409.334	1	1	0	0	0.17447	0.13201	0.22183	0.1147	0.14743	0.10584	0.15204	0.12384	0.29208	0.16598	0.066759	0.067531	0.11748	0.069768	0.16896	0.12686	-2.3667	-2.8667	-2.4583	-2.9896	-2.775	-2.7729	-3.2104	-2.4938	-2.8583	-2.8854	-2.4271	-3.2896	-2.8771	-2.5	-3.1292	-2.7125	-46.186	-16.904	96.573	193.621	163.111	11.293	53.825	117.086	-84.409	11.825	218.682	12.862	145.855	-85.926	198.618	132.106	0.0022872	0.0022593	0.0002788	327.15	2.4139e-05	1.613e-05	404.43	126.93	3.4913e-05	1.5214e-05	191.14	74.316	46.539	20.539	1.7975e-05	33.742	0.0025668	0.0026456	0.00068248	842.05	2.9007e-05	2.856e-05	876.63	270.73	2.9207e-05	2.8734e-05	457.94	149.28	124.47	47.02	2.6501e-05	66.428	-28.765	-53.449	-11.659	-108.930	204.686	0.451	-108.978	-103.672	205.367	-25.874	-104.952	-100.696	-99.358	-94.208	1.341	-97.304	-8191	255	
8409.431	1	1	0	0	0.14085	0.23851	0.17086	0.081053	0.04856	0.14655	0.09149	0.16043	0.18859	0.097135	0.25047	0.03777	0.23676	0.10037	0.053058	0.02277	-2.3854	-3.0812	-2.6667	-3.3375	-2.8333	-2.6833	-3.0458	-2.4562	-2.9583	-2.9167	-2.3979	-3.0958	-2.7917	-2.7542	-3.2333	-2.5667	57.016	139.502	53.969	193.327	-92.141	34.547	45.726	-108.390	9.344	26.856	8.890	-96.004	164.700	83.009	-34.616	46.597	0.001435	0.001277	0.00026342	323.03	1.6751e-05	1.0184e-05	404.81	126.47	2.0152e-05	9.8741e-06	193.51	73.878	46.93	20.592	1.9196e-05	33.998	0.0026767	0.0025913	0.00067083	870.77	3.0152e-05	2.8149e-05	868.94	281.13	3.0104e-05	2.8338e-05	453.1	155.68	126.33	46.865	2.6185e-05	69.52	-25.468	-7.768	-62.737	-108.611	-9.246	-87.334	-108.593	-104.055	204.446	47.504	-105.424	-101.406	-99.876	-94.414	28.075	-97.789	-8191	255	
#DATA ENDS
