BOXY.EXE: ISS Imagent and Oximeter Data Acquisition Program Version 0.80
Ascii Record File

#ACQ INFORMATION
2  Detector Channels 
16  External MUX Channels 
1  Auxiliary Channels 
5000  Waveform (CCF) Frequency (Hz)
1  Waveforms Skipped 
30  Waveforms Averaged 
1  Cycles Averaged 
16  Acquisitions per Waveform 
10.0806  Updata Rate (Hz) 

#FILE INFORMATION
TRUE -- External MUX Channel results are PARSED.
FALSE -- AC DC and Phase are NOT grouped.
TRUE -- Companion Program Settings File CREATED.
FALSE -- AC data not excluded
FALSE -- DC data not excluded
FALSE -- Phase data not excluded
FALSE -- Auxillary Chn. data not excluded
Tab delimiters

#CALIBRATION STATE
TRUE -- Waveform Calibration Values APPLIED.


#AUX CALIBRATION VALUES
Val Type	aux-1	

Term	1.0000e+00	
Factor	0.0000e+00	


#WF CALIBRATION VALUES
A = Detector Channel
Val Type	A-AC1	A-AC2	A-AC3	A-AC4	A-AC5	A-AC6	A-AC7	A-AC8	A-AC9	A-AC10	A-AC11	A-AC12	A-AC13	A-AC14	A-AC15	A-AC16	A-DC1	A-DC2	A-DC3	A-DC4	A-DC5	A-DC6	A-DC7	A-DC8	A-DC9	A-DC10	A-DC11	A-DC12	A-DC13	A-DC14	A-DC15	A-DC16	A-Ph1	A-Ph2	A-Ph3	A-Ph4	A-Ph5	A-Ph6	A-Ph7	A-Ph8	A-Ph9	A-Ph10	A-Ph11	A-Ph12	A-Ph13	A-Ph14	A-Ph15	A-Ph16	

Term	0.00000e+00	0.00000e+00	0.00000e+00	0.00000e+00	0.00000e+00	0.00000e+00	0.00000e+00	0.00000e+00	0.00000e+00	0.00000e+00	0.00000e+00	0.00000e+00	0.00000e+00	0.00000e+00	0.00000e+00	0.00000e+00	0.00000e+00	0.00000e+00	0.00000e+00	0.00000e+00	0.00000e+00	0.00000e+00	0.00000e+00	0.00000e+00	0.00000e+00	0.00000e+00	0.00000e+00	0.00000e+00	0.00000e+00	0.00000e+00	0.00000e+00	0.00000e+00	0.00000e+00	0.00000e+00	0.00000e+00	0.00000e+00	0.00000e+00	0.00000e+00	0.00000e+00	0.00000e+00	0.00000e+00	0.00000e+00	0.00000e+00	0.00000e+00	0.00000e+00	0.00000e+00	0.00000e+00	0.00000e+00	
Factor	1.00000e+00	1.00000e+00	1.00000e+00	1.00000e+00	1.00000e+00	1.00000e+00	1.00000e+00	1.00000e+00	1.00000e+00	1.00000e+00	1.00000e+00	1.00000e+00	1.00000e+00	1.00000e+00	1.00000e+00	1.00000e+00	1.00000e+00	1.00000e+00	1.00000e+00	1.00000e+00	1.00000e+00	1.00000e+00	1.00000e+00	1.00000e+00	1.00000e+00	1.00000e+00	1.00000e+00	1.00000e+00	1.00000e+00	1.00000e+00	1.00000e+00	1.00000e+00	X	X	X	X	X	X	X	X	X	X	X	X	X	X	X	X	

B = Detector Channel
Val Type	B-AC1	B-AC2	B-AC3	B-AC4	B-AC5	B-AC6	B-AC7	B-AC8	B-AC9	B-AC10	B-AC11	B-AC12	B-AC13	B-AC14	B-AC15	B-AC16	B-DC1	B-DC2	B-DC3	B-DC4	B-DC5	B-DC6	B-DC7	B-DC8	B-DC9	B-DC10	B-DC11	B-DC12	B-DC13	B-DC14	B-DC15	B-DC16	B-Ph1	B-Ph2	B-Ph3	B-Ph4	B-Ph5	B-Ph6	B-Ph7	B-Ph8	B-Ph9	B-Ph10	B-Ph11	B-Ph12	B-Ph13	B-Ph14	B-Ph15	B-Ph16	

Term	0.00000e+00	0.00000e+00	0.00000e+00	0.00000e+00	0.00000e+00	0.00000e+00	0.00000e+00	0.00000e+00	0.00000e+00	0.00000e+00	0.00000e+00	0.00000e+00	0.00000e+00	0.00000e+00	0.00000e+00	0.00000e+00	0.00000e+00	0.00000e+00	0.00000e+00	0.00000e+00	0.00000e+00	0.00000e+00	0.00000e+00	0.00000e+00	0.00000e+00	0.00000e+00	0.00000e+00	0.00000e+00	0.00000e+00	0.00000e+00	0.00000e+00	0.00000e+00	-6.21754e+01	-1.29907e+02	-1.24308e+02	-1.80762e+02	-5.26411e+01	-6.17388e+01	-1.54848e+02	-1.62015e+02	-4.22166e+01	-7.04166e+01	-1.70366e+02	-1.69164e+02	-1.78724e+02	-1.75805e+02	-5.78430e+01	-1.48156e+02	
Factor	1.71954e-05	1.67617e-04	4.33893e-05	1.54313e-01	1.43465e-06	1.59009e-06	1.64624e-01	6.03797e-02	1.16268e-06	1.56915e-06	8.76266e-02	2.82588e-02	2.37562e-02	8.66378e-03	1.59200e-06	1.25101e-02	5.98073e-06	7.73180e-06	2.16888e-06	7.96205e-02	8.16941e-08	8.55453e-08	7.98241e-02	3.12165e-02	8.23015e-08	8.55736e-08	4.39271e-02	1.42219e-02	1.24740e-02	4.52282e-03	8.38410e-08	6.30525e-03	X	X	X	X	X	X	X	X	X	X	X	X	X	X	X	X	



#DISTANCE SETTINGS
A = Detector Channel
A-1	A-2	A-3	A-4	A-5	A-6	A-7	A-8	A-9	A-10	A-11	A-12	A-13	A-14	A-15	A-16	

2.5000e+00	3.0000e+00	2.5000e+00	3.0000e+00	2.0000e+00	3.0000e+00	1.5000e+00	3.0000e+00	3.0000e+00	3.0000e+00	3.0000e+00	3.0000e+00	3.0000e+00	3.0000e+00	1.5000e+00	3.0000e+00	

B = Detector Channel
B-1	B-2	B-3	B-4	B-5	B-6	B-7	B-8	B-9	B-10	B-11	B-12	B-13	B-14	B-15	B-16	

1.0000e+01	1.0000e+01	1.0000e+01	1.4400e+00	1.0000e+01	1.0000e+01	1.5100e+00	1.9400e+00	1.0000e+01	1.0000e+01	1.9900e+00	2.4900e+00	2.4100e+00	2.9000e+00	1.0000e+01	2.9800e+00	




#DATA BEGINS
time	group	step	mark	flag	A-AC1	A-AC2	A-AC3	A-AC4	A-AC5	A-AC6	A-AC7	A-AC8	A-AC9	A-AC10	A-AC11	A-AC12	A-AC13	A-AC14	A-AC15	A-AC16	A-DC1	A-DC2	A-DC3	A-DC4	A-DC5	A-DC6	A-DC7	A-DC8	A-DC9	A-DC10	A-DC11	A-DC12	A-DC13	A-DC14	A-DC15	A-DC16	A-Ph1	A-Ph2	A-Ph3	A-Ph4	A-Ph5	A-Ph6	A-Ph7	A-Ph8	A-Ph9	A-Ph10	A-Ph11	A-Ph12	A-Ph13	A-Ph14	A-Ph15	A-Ph16	B-AC1	B-AC2	B-AC3	B-AC4	B-AC5	B-AC6	B-AC7	B-AC8	B-AC9	B-AC10	B-AC11	B-AC12	B-AC13	B-AC14	B-AC15	B-AC16	B-DC1	B-DC2	B-DC3	B-DC4	B-DC5	B-DC6	B-DC7	B-DC8	B-DC9	B-DC10	B-DC11	B-DC12	B-DC13	B-DC14	B-DC15	B-DC16	B-Ph1	B-Ph2	B-Ph3	B-Ph4	B-Ph5	B-Ph6	B-Ph7	B-Ph8	B-Ph9	B-Ph10	B-Ph11	B-Ph12	B-Ph13	B-Ph14	B-Ph15	B-Ph16	aux-1	digaux	

809.160	1	1	0	768	0.20556	0.069102	0.273	0.29272	0.2467	0.16845	0.46334	0.42896	0.10683	0.053934	0.18608	0.14229	0.10569	0.30048	0.13347	0.31728	-1.8354	-2.0521	-2.5104	-2.3792	-2.2729	-2.5292	-2.2708	-2.4979	-2.3583	-2.1354	-2.6042	-2.4521	-2.4292	-2.6292	-2.0667	-2.525	30.154	15.986	246.061	173.155	202.153	129.855	193.937	223.059	109.768	197.120	257.131	173.523	151.035	246.485	155.708	184.947	0.00039719	0.00080035	0.00023647	975.98	1.048e-05	1.2716e-05	1281.2	362.12	6.4353e-06	1.1194e-05	554.83	245.37	161.01	79.528	9.2306e-07	130.97	0.00067385	0.00064556	0.00019019	878.49	7.3644e-06	7.3745e-06	1154.9	329.7	7.1902e-06	7.6875e-06	502.21	224.13	148.01	72.811	7.4449e-06	119.68	253.024	-13.040	-10.098	-76.057	72.428	67.969	-76.373	-70.681	97.361	103.730	-71.580	-67.130	-65.737	-61.160	31.322	-63.183	-8191	255	
809.256	1	1	0	0	0.17313	0.09653	0.2644	0.12776	0.18063	0.24198	0.33218	0.42337	0.075837	0.098058	0.16544	0.15742	0.30337	0.39951	0.11256	0.38268	-1.7708	-1.8854	-2.3667	-2.2938	-2.1521	-2.5167	-2.3063	-2.2979	-2.3521	-1.9813	-2.5687	-2.5708	-2.4292	-2.6333	-2.1312	-2.4333	119.042	-59.891	-38.916	211.663	-80.773	54.516	251.233	222.673	187.897	55.079	218.845	195.185	210.250	196.785	143.538	238.138	0.00039944	0.00059275	0.0001666	974.32	7.8794e-06	6.4481e-06	1274.7	361.38	5.6311e-06	6.3453e-06	552.92	245.57	161.69	79.808	5.987e-06	131.89	0.00065139	0.00067685	0.00018514	878.91	7.3523e-06	7.0751e-06	1153.4	329.1	6.9116e-06	7.4078e-06	503.51	224.23	148.37	73.193	7.2117e-06	120.2	252.092	-4.264	9.102	-75.754	93.894	86.764	-76.653	-70.248	47.545	79.971	-71.999	-67.499	-65.436	-60.932	87.612	-63.497	-8191	255	
809.352	1	1	0	0	0.10382	0.15685	0.27034	0.13781	0.20988	0.16021	0.14843	0.32496	0.17507	0.096757	0.37212	0.1146	0.39882	0.33421	0.18884	0.38412	-1.8792	-1.9312	-2.3542	-2.4833	-2.0521	-2.3708	-2.2333	-2.4271	-2.4792	-2.1104	-2.4896	-2.5917	-2.1	-2.7354	-2.0958	-2.4396	128.057	-62.486	-17.951	171.572	79.812	-78.087	243.906	249.983	180.478	-84.802	250.889	220.166	262.793	258.811	12.485	197.630	0.00035963	0.00077444	0.00025548	974.57	6.2532e-06	9.8806e-06	1280.6	361.52	5.6411e-06	4.9719e-06	553.65	246.08	160.83	79.862	8.489e-06	131.38	0.00066377	0.00064401	0.00018158	879.08	7.1527e-06	7.1316e-06	1152.7	329.44	6.8447e-06	7.3178e-06	503.56	224.69	148.46	73.164	7.3438e-06	120.14	250.278	-7.650	19.776	-76.426	37.826	62.394	-76.315	-70.817	81.779	101.524	-71.934	-67.498	-65.759	-61.210	108.867	-63.245	-8191	255	
809.449	1	1	0	0	0.21176	0.25308	0.2256	0.36423	0.088165	0.15716	0.21796	0.15015	0.17916	0.13144	0.28227	0.23461	0.23208	0.22299	0.13255	0.22137	-1.9729	-2.1437	-2.3542	-2.3979	-1.9646	-2.3771	-2.3187	-2.3771	-2.55	-2.1	-2.4333	-2.6	-2.1667	-2.5292	-2.2875	-2.3542	142.232	148.487	45.703	232.231	65.391	233.991	233.501	179.824	30.745	-71.518	241.963	230.200	258.326	252.976	133.409	242.814	0.00038042	0.0011891	0.00029868	974.28	6.6205e-06	7.3842e-06	1278	359.56	5.426e-06	9.9231e-06	553.31	243.81	160.08	79.398	7.3277e-06	130.41	0.00066559	0.00066075	0.0001874	879.72	7.1654e-06	7.0646e-06	1154.1	328.65	6.9613e-06	7.203e-06	502.78	223.44	147.47	72.777	7.0971e-06	119.45	247.326	25.737	5.189	-76.520	64.335	62.559	-76.653	-70.537	93.709	70.701	-71.661	-67.595	-65.497	-61.109	100.383	-63.334	-8191	255	
809.545	1	1	0	0	0.19581	0.13801	0.065569	0.1135	0.063665	0.19016	0.13381	0.16266	0.037642	0.078963	0.25012	0.12425	0.262	0.10451	0.04581	0.20134	-1.9229	-2.0104	-2.1646	-2.525	-1.9688	-2.225	-2.3875	-2.4104	-2.5438	-2.0208	-2.3625	-2.7083	-2.1417	-2.4521	-2.2458	-2.3479	-67.398	-49.078	130.903	-12.432	-61.965	-38.192	54.833	241.342	62.158	226.801	247.617	-33.792	265.404	-67.796	99.456	238.573	0.00039882	0.0010578	0.00026982	972.01	3.8103e-06	6.0347e-06	1278.7	361.66	4.317e-06	1.4863e-05	556.35	245.31	161.65	79.854	8.553e-06	131.83	0.00067331	0.00065901	0.00018337	879.81	6.9813e-06	7.0778e-06	1155	329.18	6.8031e-06	6.9946e-06	504.17	224.62	148.5	73.206	6.9693e-06	120.25	252.246	27.948	5.795	-76.354	111.758	72.096	-76.460	-70.629	72.181	54.557	-71.713	-67.640	-65.762	-61.175	74.405	-63.212	-8191	255	
809.641	1	1	0	0	0.16526	0.19805	0.031992	0.2051	0.33195	0.033703	0.24092	0.060626	0.086729	0.32985	0.084653	0.11981	0.14145	0.33712	0.4618	0.16028	-1.9979	-2.0396	-2.2479	-2.5938	-2.0896	-2.3625	-2.6604	-2.1271	-2.5521	-2.2313	-2.4208	-2.6188	-2.2062	-2.625	-2.3479	-2.3521	42.370	39.240	162.944	93.751	75.185	-37.649	243.186	-26.659	157.925	108.019	68.450	123.484	269.243	219.985	60.582	191.691	0.0003773	0.00065068	0.00010433	978.47	7.3354e-06	4.138e-06	1281	361.84	5.6769e-06	7.7427e-06	557.53	246.3	161	79.819	2.0046e-06	132.09	0.00066238	0.0006329	0.00018051	881.62	7.0493e-06	7.0603e-06	1159.4	330.77	6.8818e-06	6.8992e-06	506.78	225.09	148.3	73.242	7.0502e-06	120.62	256.200	9.213	26.072	-76.493	69.315	61.199	-76.448	-70.621	68.438	28.823	-71.419	-67.582	-65.720	-60.982	95.129	-63.265	-8191	255	
809.762	1	1	0	0	0.12587	0.198	0.35973	0.30138	0.31732	0.36624	0.21656	0.2654	0.11599	0.14339	0.31582	0.28001	0.034778	0.18622	0.14034	0.012844	-2.0458	-2.2333	-2.0646	-2.4021	-2.025	-2.4688	-2.7125	-2.125	-2.3312	-2.1562	-2.2375	-2.6146	-2.1813	-2.5958	-2.5104	-2.2521	-75.606	216.823	236.056	181.330	165.668	-12.157	198.203	201.415	180.783	238.747	209.028	242.865	-46.220	245.850	190.207	209.027	0.00036691	0.0009768	0.00035638	977.66	6.5134e-06	7.9293e-06	1284.4	360.83	2.883e-06	3.7718e-06	554.72	244.65	161.15	79.25	5.7766e-06	130.96	0.00067017	0.00064693	0.00018353	884.18	7.0156e-06	7.305e-06	1161.7	330.73	7.2499e-06	6.7641e-06	503.95	224	148.06	72.684	6.8792e-06	119.48	258.539	-2.621	-1.833	-76.410	101.578	101.846	-76.814	-70.440	73.353	3.188	-71.725	-67.377	-65.313	-61.192	45.989	-63.410	-8191	255	
809.856	1	1	0	0	0.2277	0.038876	0.13898	0.21058	0.13298	0.07447	0.32058	0.23307	0.27705	0.20261	0.1337	0.17197	0.22076	0.082253	0.17603	0.25735	-1.9146	-2.2854	-2.0042	-2.4042	-2.1271	-2.1208	-2.6021	-2	-2.2438	-2.2625	-2.1854	-2.575	-2.3854	-2.3979	-2.4646	-2.2979	153.285	156.715	271.428	259.133	161.515	72.888	210.008	205.372	169.576	-87.352	4.307	-78.980	245.529	83.267	77.979	187.557	0.00038193	0.0010104	0.00024218	974.73	1.1721e-05	1.0486e-05	1275.7	357.31	3.9838e-06	1.0195e-05	549.96	242.29	159.63	78.988	8.8692e-06	130.15	0.00065808	0.00061924	0.00017915	879.28	6.8856e-06	7.2387e-06	1151.8	326.61	7.057e-06	6.8388e-06	499.78	222.69	147.04	72.588	6.8655e-06	118.88	250.760	-7.780	-25.217	-76.511	60.482	74.058	-76.559	-70.550	90.686	55.795	-71.710	-67.471	-65.460	-61.102	96.238	-63.593	-8191	255	
809.952	1	1	0	0	0.14726	0.2574	0.24096	0.14077	0.20727	0.091787	0.16436	0.42783	0.1374	0.069712	0.07372	0.10572	0.12972	0.23015	0.046643	0.19691	-1.6938	-2.2208	-2.1833	-2.5604	-2.0875	-2.1	-2.5208	-2.15	-2.0438	-2.3125	-2.2104	-2.5938	-2.2958	-2.275	-2.5708	-2.1958	-27.296	100.729	256.442	150.207	39.912	86.418	172.899	152.908	70.577	57.329	12.503	-78.860	-78.039	214.248	59.764	246.605	0.00037026	0.00081803	0.0001408	975.21	6.6635e-06	9.2197e-06	1277	358.91	2.6061e-06	5.7026e-06	552.16	243.58	159.75	79.127	7.0079e-06	130.49	0.00065241	0.00061034	0.00018005	877.73	6.7872e-06	7.1004e-06	1151.4	327.05	7.1259e-06	6.9183e-06	499.75	222.93	146.96	72.576	7.0584e-06	118.9	251.248	20.739	4.079	-76.204	37.548	82.383	-76.427	-70.580	127.032	77.956	-71.756	-67.426	-65.487	-61.342	48.905	-63.379	-8191	255	
810.048	1	1	0	0	0.25109	0.3062	0.26195	0.023516	0.15397	0.2432	0.28192	0.22348	0.13847	0.096554	0.12631	0.37654	0.31477	0.15026	0.12972	0.21967	-1.8167	-2.2021	-1.9896	-2.4	-2.0875	-2.0625	-2.6854	-2.3208	-2.3792	-2.5438	-2.2313	-2.5146	-2.3104	-2.1833	-2.3979	-2.3083	14.189	48.449	246.536	-10.678	-83.384	-41.364	253.754	235.975	85.889	210.732	215.879	239.756	202.143	-80.720	169.102	237.317	0.00035472	0.00056542	0.00026334	975.08	8.4259e-06	5.6334e-06	1273	360.48	7.2003e-06	2.7233e-06	550.19	242.94	160.37	79.101	1.0982e-05	130.59	0.00066573	0.00061331	0.00018773	877.54	6.7202e-06	7.0251e-06	1149.1	327.92	6.9037e-06	6.5523e-06	500.23	222.59	146.94	72.425	6.9805e-06	119	259.200	11.700	16.842	-76.265	49.978	62.916	-76.716	-70.884	82.289	106.449	-72.042	-67.501	-65.543	-60.975	71.378	-63.363	-8191	255	
810.144	1	1	0	0	0.11904	0.31834	0.096759	0.26769	0.12922	0.16176	0.51914	0.058241	0.10185	0.13167	0.44032	0.24991	0.18251	0.29715	0.073423	0.10546	-1.7896	-2.3583	-1.9833	-2.3833	-2.0292	-2.1312	-2.5062	-2.1854	-1.9771	-2.4562	-2.1833	-2.4729	-2.5271	-2.05	-2.5479	-2.5083	165.637	232.778	-29.133	195.282	-41.985	-41.169	214.442	-58.325	132.652	145.052	211.514	260.750	260.622	250.808	25.082	155.596	0.00043665	0.00086626	0.00020669	965.03	7.8088e-06	5.6589e-06	1277.2	362.16	5.4091e-06	9.199e-06	552.63	245.23	160.32	79.139	6.0997e-06	130.82	0.0006788	0.0006164	0.0001798	875.2	6.5791e-06	7.0345e-06	1152.9	328.79	6.9792e-06	6.8143e-06	501.92	223.62	147.41	72.723	7.188e-06	119.42	253.203	-0.562	26.660	-76.513	145.061	72.766	-76.549	-70.908	31.842	78.661	-71.637	-67.464	-65.597	-61.127	97.460	-63.223	-8191	255	
810.241	1	1	0	0	0.24237	0.082162	0.08368	0.22368	0.14315	0.11891	0.11537	0.18591	0.19094	0.27638	0.13507	0.077543	0.2085	0.37761	0.071957	0.29779	-1.3813	-2.3792	-1.775	-2.35	-2.3375	-2.0646	-2.5729	-2.5208	-2.0458	-2.4437	-2.2396	-2.4979	-2.4042	-2.2062	-2.4146	-2.4	-25.316	232.113	-38.287	263.364	90.970	-81.589	170.169	244.049	40.496	202.169	-2.668	-86.443	254.200	222.023	86.075	233.406	0.00041716	0.0007673	0.00018255	974.47	5.9691e-06	6.9385e-06	1276.9	359.11	8.5465e-06	1.1924e-05	546.37	242.26	158.35	78.845	8.7381e-06	130.1	0.00065028	0.00062297	0.0001775	879.83	6.6091e-06	6.9967e-06	1151.5	326.24	6.7981e-06	6.9206e-06	498.4	221.82	145.99	72.206	7.1558e-06	118.61	254.601	5.252	-2.267	-76.580	89.867	76.027	-76.556	-70.675	86.930	77.098	-72.007	-67.203	-65.435	-61.218	44.550	-63.373	-8191	255	
810.361	1	1	0	0	0.23693	0.15558	0.1981	0.19505	0.13906	0.07866	0.21026	0.41611	0.19116	0.2294	0.075117	0.30496	0.24173	0.27203	0.12439	0.10666	-1.6583	-2.5125	-1.9333	-2.4437	-2.3646	-1.8813	-2.3896	-2.2792	-1.8563	-2.4729	-2.3187	-2.4333	-2.5229	-1.9854	-2.2625	-2.6937	-50.047	-15.601	30.208	133.349	258.258	244.980	177.558	167.933	-5.263	98.520	169.964	216.214	180.315	221.318	60.224	152.044	0.0003501	0.00053949	0.00026106	968.7	6.4896e-06	8.9031e-06	1271	357.83	5.8563e-06	5.9278e-06	552.85	243.63	159.68	78.619	3.7069e-06	130.39	0.00064013	0.0006144	0.00017647	874.4	6.5655e-06	6.765e-06	1144.5	326.58	6.6537e-06	6.7161e-06	500.25	222.41	146.56	72.33	6.9307e-06	118.9	254.850	12.561	-19.633	-76.224	36.546	46.116	-76.456	-70.642	52.990	77.974	-71.759	-67.499	-65.959	-61.307	79.615	-63.483	-8191	255	
810.457	1	1	0	0	0.2445	0.2143	0.17649	0.1961	0.27969	0.2133	0.17048	0.014637	0.15565	0.057387	0.19776	0.36911	0.1658	0.35298	0.11652	0.32401	-1.7396	-2.4208	-2.3063	-2.15	-2.5354	-2.0062	-2.5458	-2.6292	-2.1146	-2.5083	-2.3667	-2.0771	-2.6521	-2.3896	-2.2125	-2.5958	-30.356	238.595	-70.862	263.295	138.922	-67.601	270.957	149.917	142.678	6.049	142.402	234.675	251.637	251.475	165.347	225.562	0.00038181	0.0013641	0.00023973	971.15	5.3317e-06	5.261e-06	1277	355.8	2.9524e-06	6.6186e-06	548.84	242.14	158.88	78.369	6.8488e-06	129.48	0.00065655	0.00061482	0.00017873	875.64	6.6572e-06	6.8051e-06	1149.1	325.04	6.9298e-06	6.9343e-06	498.29	221.49	145.76	71.976	7.0702e-06	118.19	251.089	7.836	-9.225	-76.350	73.249	59.861	-76.524	-70.195	87.737	31.002	-72.021	-67.443	-65.599	-60.916	76.341	-63.418	-8191	255	
810.553	1	1	0	0	0.066113	0.16075	0.17738	0.29183	0.10256	0.10765	0.23793	0.30432	0.19596	0.14094	0.36337	0.13176	0.28181	0.33362	0.28338	0.15719	-1.5833	-2.5062	-2.2042	-2.2042	-2.5729	-2.2438	-2.4188	-2.4437	-2.0687	-2.2979	-2.3042	-2.225	-2.525	-2.4604	-2.2125	-2.5667	49.702	253.948	135.958	259.570	221.271	265.095	241.383	248.217	49.841	256.522	211.122	245.609	161.350	255.733	140.923	188.432	0.00039537	0.0012462	0.00017329	963.19	1.3015e-05	8.5498e-06	1265.8	356.95	8.4476e-06	6.7296e-06	550.38	243	159.95	78.643	6.3543e-06	131	0.00065514	0.00065363	0.00017301	871.61	6.8022e-06	7.1001e-06	1145.2	325.08	6.954e-06	6.9564e-06	500.39	222.74	146.84	72.325	7.163e-06	119.44	250.912	-15.682	-35.286	-76.416	54.861	61.012	-76.615	-70.670	85.479	-4.746	-71.732	-67.641	-65.533	-61.049	34.891	-63.463	-8191	255	
810.650	1	1	0	0	0.043873	0.08763	0.20933	0.33106	0.2105	0.28784	0.26322	0.25278	0.25075	0.11235	0.108	0.32579	0.28383	0.14377	0.1106	0.24346	-1.5396	-2.4292	-2.2042	-2.2042	-2.5917	-2.3312	-2.4854	-2.7	-2.0687	-2.3458	-2.5646	-2.0146	-2.5333	-2.3458	-2.0854	-2.6813	116.789	36.369	-5.521	227.777	145.876	-57.257	212.152	245.910	164.899	170.442	242.503	239.906	257.923	268.679	-85.025	195.201	0.00042331	0.0012313	0.00025854	967.37	6.2924e-06	4.8097e-06	1272.5	363.75	6.2639e-06	5.5522e-06	554.15	243.97	161.54	79.356	4.9484e-06	131.18	0.00066006	0.0006284	0.00017404	876.84	6.752e-06	7.1546e-06	1152.7	329.24	7.1251e-06	7.0541e-06	504.05	224.28	147.92	72.777	6.9674e-06	119.7	260.358	-9.476	-7.208	-76.282	57.808	66.916	-76.281	-70.494	107.450	33.835	-72.009	-67.408	-65.483	-61.042	54.202	-63.451	-8191	255	
810.721	1	1	0	0	0.23861	0.25603	0.11349	0.18737	0.15872	0.021043	0.31074	0.1657	0.19914	0.16186	0.22629	0.3126	0.23713	0.36941	0.22285	0.31183	-1.5208	-2.1833	-2.2646	-2.2292	-2.3271	-2.2875	-2.375	-2.5792	-2.0312	-2.1896	-2.4583	-2.3604	-2.4792	-2.4625	-1.9333	-2.7271	-84.955	211.999	241.716	238.540	261.727	240.836	-73.299	207.622	-53.440	1.079	263.726	160.274	191.108	-48.521	259.133	199.574	0.00034091	0.0012994	0.0001267	970.57	9.4929e-06	8.4146e-06	1270.1	360.78	6.702e-06	6.563e-06	552.8	245.67	161.26	79.365	2.4068e-06	131.63	0.00065596	0.0006286	0.00017324	877.41	6.701e-06	6.8973e-06	1150.3	328.16	6.9365e-06	7.2265e-06	502.51	224.32	147.82	72.724	7.1939e-06	119.87	249.581	-8.046	2.182	-76.348	74.605	82.545	-76.548	-70.655	48.315	75.281	-71.840	-67.487	-65.721	-61.173	62.541	-63.260	-8191	255	
810.840	1	1	0	0	0.08908	0.18804	0.33014	0.073083	0.29144	0.12778	0.26052	0.17213	0.086053	0.16998	0.27293	0.47591	0.25923	0.11512	0.087715	0.29733	-1.6667	-2.1458	-2.4979	-2.275	-2.2083	-2.3792	-2.3458	-2.4458	-2.1271	-2.2833	-2.6896	-2.2521	-2.3563	-2.6063	-2.0708	-2.7812	-1.186	176.310	-16.921	-82.908	208.585	21.334	216.225	192.461	15.145	102.057	188.048	186.091	209.099	222.904	39.884	207.840	0.00036867	0.0016075	0.00032683	975.01	7.8226e-06	6.5215e-06	1278.7	363.1	6.0975e-06	7.3855e-06	554.85	245.09	160.89	78.971	7.4197e-06	131.37	0.00066422	0.00068043	0.00017741	878.7	6.9886e-06	7.1245e-06	1154.8	329.91	7.1052e-06	7.1317e-06	503.2	224.15	148.03	72.64	7.2316e-06	119.76	262.576	1.738	35.324	-76.300	71.766	76.557	-76.542	-70.730	94.088	79.793	-71.802	-67.489	-65.717	-60.937	59.675	-63.353	-8191	255	
810.936	1	1	0	0	0.27028	0.090403	0.33924	0.080829	0.056613	0.25503	0.2535	0.41596	0.20178	0.071369	0.23766	0.36071	0.24195	0.29272	0.22418	0.22285	-1.775	-2.1125	-2.4417	-2.1688	-2.3521	-2.3187	-2.2854	-2.4979	-2.1583	-2.0708	-2.5396	-2.1167	-2.2812	-2.4583	-1.9188	-2.625	-49.407	8.975	201.420	218.246	44.420	-28.461	206.373	218.768	-44.669	245.670	236.858	229.552	238.986	215.380	65.304	171.079	0.00037872	0.00096177	0.00027811	966.14	9.6497e-06	9.4352e-06	1277.2	359.69	1.105e-06	6.3804e-06	553.21	242.89	160.35	78.806	8.4961e-06	131.07	0.00066934	0.00066936	0.00018107	875.66	7.1156e-06	7.1432e-06	1152	326.82	6.926e-06	7.2529e-06	501.88	223.2	147.45	72.338	7.3198e-06	119.39	257.973	-5.236	34.300	-76.337	57.743	56.734	-76.248	-71.007	99.787	73.664	-71.881	-67.234	-65.676	-61.156	85.348	-63.313	-8191	255	
811.032	1	1	0	0	0.30746	0.2948	0.029747	0.33954	0.2025	0.11337	0.29029	0.18713	0.076585	0.24677	0.34414	0.31313	0.19245	0.21223	0.12255	0.40174	-1.625	-2.0833	-2.6188	-2.2771	-1.9917	-2.4167	-2.0771	-2.5083	-2.3104	-2.15	-2.3688	-2.2604	-2.3667	-2.5854	-2.0604	-2.4646	213.342	265.560	0.146	213.745	-40.576	21.488	207.259	201.049	82.027	195.342	187.671	226.007	229.875	270.808	245.673	210.592	0.00037776	0.0013472	0.00026952	968.39	8.1555e-06	6.0523e-06	1278.5	361.48	5.6603e-06	9.3758e-06	555.47	244.3	160.12	78.966	8.1772e-06	131.38	0.00066871	0.00066817	0.00017963	874.8	7.0951e-06	6.9281e-06	1151.7	327.62	7.0155e-06	7.0545e-06	502.84	223.52	147.44	72.453	7.4563e-06	119.88	247.958	-8.957	-6.770	-76.163	120.387	64.889	-76.664	-70.728	44.976	71.310	-72.070	-67.685	-65.743	-61.078	73.364	-63.271	-8191	255	
811.129	1	1	0	0	0.18337	0.18553	0.083087	0.11522	0.20601	0.23161	0.21285	0.18582	0.10799	0.29514	0.048169	0.21096	0.27236	0.1634	0.2352	0.38255	-1.825	-1.9188	-2.475	-2.2479	-2.0417	-2.2375	-2.4062	-2.3	-2.2354	-2.0812	-2.6396	-2.4271	-2.2458	-2.5333	-2.0812	-2.4875	-2.354	69.275	-61.508	209.698	-64.377	16.823	190.347	112.147	25.374	166.669	83.824	256.422	188.459	266.112	119.051	206.078	0.0003975	0.00077538	0.00032483	969.81	5.6122e-06	8.6831e-06	1270.8	359.2	2.2098e-06	1.1039e-05	548.89	242.19	159.9	78.779	6.0889e-06	130.47	0.00067784	0.0006812	0.00018686	874.72	7.1319e-06	7.0817e-06	1149.3	327.63	6.8675e-06	7.291e-06	499.91	222.45	146.85	72.214	7.2959e-06	118.97	262.057	3.316	3.138	-76.378	78.590	97.863	-76.589	-70.522	84.324	44.218	-71.928	-67.309	-65.628	-61.249	41.116	-63.177	-8191	255	
811.249	1	1	0	0	0.11131	0.10777	0.1132	0.1014	0.12808	0.15777	0.29637	0.066687	0.14723	0.17672	0.40056	0.36276	0.25127	0.34274	0.19849	0.27241	-1.8979	-2.0021	-2.375	-2.4167	-2.0479	-2.5167	-2.2479	-2.2375	-2.3479	-1.9688	-2.6583	-2.3854	-2.15	-2.7167	-2.0625	-2.425	249.001	-67.824	-19.795	226.126	269.160	-40.684	259.194	173.628	175.311	-68.503	198.848	217.602	-38.023	-85.695	152.209	250.384	0.0003873	0.001241	0.00024522	965.4	7.9417e-06	5.333e-06	1264.5	358.64	4.2041e-06	6.3711e-06	550.58	242.55	160.06	78.408	1.3653e-05	129.39	0.00068266	0.00067073	0.00018512	874.1	6.918e-06	7.1963e-06	1143.1	326.45	7.0176e-06	7.1655e-06	499.36	221.65	146.76	72.134	7.2126e-06	118.49	257.805	5.421	7.687	-76.011	71.529	33.777	-76.304	-70.609	147.447	69.009	-71.732	-67.477	-65.415	-61.060	54.910	-63.349	-8191	255	
811.321	1	1	0	0	0.20379	0.019405	0.039532	0.22223	0.033343	0.23627	0.18954	0.056997	0.10397	0.21046	0.26914	0.12836	0.16305	0.41417	0.037843	0.16166	-1.9292	-1.8833	-2.275	-2.2021	-2.1083	-2.4833	-2.3854	-2.3438	-2.3958	-1.8813	-2.2812	-2.4771	-2.2771	-2.4375	-2.2271	-2.3292	177.779	1.027	63.766	241.529	205.118	83.303	-80.976	-61.782	10.839	-68.915	246.893	193.302	-43.777	231.005	269.775	246.484	0.0003287	0.0008675	0.00025388	961.04	6.4559e-06	7.1626e-06	1264.5	357.03	4.5744e-06	9.2406e-06	548.17	240.62	158.67	78.303	6.5679e-06	129.64	0.00065966	0.00065976	0.00018927	868.77	7.1758e-06	7.387e-06	1141.7	325.42	7.3039e-06	7.4902e-06	498.68	221.2	146.24	71.805	7.6991e-06	118.12	245.858	7.096	8.141	-76.350	67.652	98.627	-76.560	-70.712	83.079	42.256	-71.696	-67.419	-65.487	-61.173	69.607	-63.283	-8191	255	
811.442	1	1	0	0	0.1102	0.025225	0.15964	0.10468	0.1542	0.34531	0.3045	0.11972	0.1818	0.12786	0.2277	0.14566	0.082887	0.24174	0.13649	0.25356	-2.0917	-1.9396	-2.175	-2.3604	-2.0167	-2.3646	-2.4625	-2.0875	-2.4208	-2.2562	-2.3833	-2.6021	-2.0479	-2.4583	-2.1729	-2.3063	235.350	114.877	84.960	-32.665	50.726	166.274	218.287	-85.794	258.939	-74.587	-87.891	237.409	238.899	242.436	222.127	203.152	0.00034519	0.0011298	0.00020701	967.28	8.3484e-06	8.9337e-06	1265.9	356.23	3.6186e-06	4.016e-07	546.54	242.2	158.88	78.373	8.2807e-06	129.45	0.00069479	0.00067956	0.00019167	872.18	7.355e-06	7.423e-06	1142	326	7.3644e-06	7.3887e-06	498.21	221.8	146.25	71.922	7.4152e-06	118.31	255.170	5.262	-1.294	-76.214	85.031	85.606	-76.441	-70.679	82.243	54.546	-71.695	-67.342	-65.507	-61.194	55.883	-63.312	-8191	255	
811.538	1	1	0	0	0.17739	0.042495	0.13226	0.52401	0.12992	0.2425	0.14105	0.17474	0.2219	0.077074	0.25714	0.036866	0.24792	0.3215	0.071627	0.52169	-2.0062	-2.0979	-2.0312	-2.3896	-1.8708	-2.4625	-2.5125	-2.0583	-2.3604	-2.1458	-2.4229	-2.425	-2.0062	-2.6917	-2.1396	-2.1771	148.905	260.902	-65.580	244.508	-51.179	126.590	267.431	131.439	-14.432	29.040	246.675	-63.853	249.015	247.823	217.793	154.087	0.00036299	0.00086696	0.00019209	966.52	6.0045e-06	8.4806e-06	1269.1	358.25	8.0768e-06	1.1005e-05	546.16	241.84	160.4	78.507	9.1882e-06	129.52	0.00067716	0.00066134	0.00019283	870.62	7.3206e-06	7.2945e-06	1147.3	326.63	7.2345e-06	7.5023e-06	499.54	222.31	146.74	72.182	7.4047e-06	118.55	239.643	-7.573	7.168	-76.292	81.308	59.485	-76.541	-70.522	64.190	19.824	-71.678	-67.433	-65.639	-61.123	92.223	-63.447	-8191	255	
811.634	1	1	0	0	0.15649	0.26817	0.11246	0.44417	0.15634	0.3438	0.33759	0.11538	0.23622	0.1051	0.23039	0.1394	0.36282	0.21239	0.046371	0.17483	-2.0958	-2.1396	-2.1083	-2.5687	-1.9896	-2.2562	-2.3312	-2.15	-2.3792	-2.3958	-2.1833	-2.6042	-2.2417	-2.4125	-2.1646	-2.1312	186.120	20.569	69.037	233.769	246.146	3.710	245.423	266.777	86.236	268.251	-62.375	-63.060	-86.627	217.738	-21.164	203.147	0.00040621	0.00082758	0.00033829	959.91	6.758e-06	1.0134e-05	1255.4	355.37	4.1681e-06	8.688e-06	546.18	241.57	158.91	77.92	6.0064e-06	128.93	0.0007024	0.00065722	0.00019341	868.31	7.1595e-06	7.3749e-06	1137.5	323.58	7.2643e-06	7.1868e-06	496.87	220.76	145.93	71.625	7.2096e-06	117.71	258.984	-26.117	26.332	-76.439	66.291	94.412	-76.357	-70.886	81.464	52.440	-71.548	-67.584	-65.496	-61.297	67.726	-63.433	-8191	255	
811.730	1	1	0	0	0.072583	0.18505	0.092049	0.2558	0.17292	0.19175	0.40965	0.28867	0.2818	0.10067	0.14282	0.30788	0.18088	0.1585	0.32753	0.46666	-1.9458	-2.1	-2.025	-2.5	-2.0604	-2.2646	-2.5	-2.1854	-2.3979	-2.2792	-2.0583	-2.6083	-2.0438	-2.3146	-2.3333	-2.2354	-76.794	51.056	98.634	219.697	218.446	222.892	162.885	-62.349	-31.485	265.821	225.682	217.652	-57.547	165.653	-5.669	244.623	0.00039126	0.00096763	0.00028401	957.47	7.4803e-06	9.2307e-06	1261.2	357.99	7.1412e-06	1.2465e-05	547.65	242.75	159.29	78.236	4.4889e-06	129.39	0.00068089	0.00064055	0.00018596	866.18	7.0841e-06	7.0787e-06	1137.4	325.71	7.0956e-06	7.0074e-06	497.7	221.45	145.97	71.835	7.0585e-06	118.21	253.401	-20.353	0.028	-75.771	51.447	57.657	-76.452	-70.556	75.973	72.170	-72.003	-67.347	-65.730	-61.170	4.283	-63.332	-8191	255	
811.849	1	1	0	0	0.16162	0.10438	0.064166	0.20483	0.07907	0.062949	0.16951	0.41592	0.081843	0.058622	0.13592	0.22216	0.37353	0.2028	0.32003	0.18114	-1.6812	-2.2667	-1.9271	-2.3771	-2.0271	-2.2646	-2.5375	-2.1312	-2.3458	-2.2979	-2.2062	-2.4833	-2.1458	-2.2938	-2.3667	-2.3833	-72.240	-36.740	146.847	224.035	268.187	191.150	258.845	179.781	71.809	-29.673	-86.925	235.252	233.775	-66.008	58.473	187.451	0.00040558	0.0010924	0.00032618	966.33	7.7302e-06	7.2453e-06	1265.1	359.73	4.2584e-06	1.3289e-05	549.4	242.38	159.44	78.69	5.7554e-06	130.05	0.00066527	0.00063249	0.00018124	870.2	6.9911e-06	7.3102e-06	1141.9	326.99	7.1326e-06	7.0969e-06	499.44	222.43	146.44	72.125	7.1916e-06	118.95	251.331	11.359	16.120	-75.970	81.483	37.498	-76.536	-70.470	72.139	57.601	-71.680	-67.442	-65.361	-61.180	127.392	-63.061	-8191	255	
811.945	1	1	0	0	0.038093	0.26453	0.11692	0.39803	0.024552	0.22531	0.42617	0.018104	0.12815	0.13193	0.32682	0.22408	0.20602	0.36267	0.074487	0.34002	-1.8104	-2.3292	-1.9146	-2.4417	-2.3042	-2.1312	-2.7104	-2.3104	-2.2042	-2.425	-2.1083	-2.7062	-2.5396	-2.1479	-2.5687	-2.3396	-31.213	215.295	-28.138	217.970	35.412	184.466	193.677	-23.826	239.970	84.376	213.807	256.151	-73.142	-76.260	222.290	230.544	0.00037051	0.0010051	0.00024032	971.85	7.1121e-06	6.616e-06	1268.6	358.13	3.4077e-06	1.3729e-05	553.24	245.26	160.76	78.891	1.0143e-05	131.92	0.0006746	0.00065514	0.00018424	871.78	6.8487e-06	7.335e-06	1146	327.13	7.2888e-06	7.18e-06	503.12	224.07	147.64	72.582	7.3866e-06	119.9	253.273	-4.437	13.971	-76.185	102.020	103.279	-76.673	-70.761	115.768	76.235	-71.679	-67.318	-65.725	-61.258	59.302	-63.286	-8191	255	
812.017	1	1	0	0	0.24366	0.086866	0.3558	0.34953	0.099799	0.27239	0.23201	0.11238	0.11913	0.13674	0.40098	0.33532	0.20812	0.33423	0.19579	0.18016	-1.8104	-2.2687	-1.875	-2.5958	-2.0521	-1.9604	-2.7833	-2.4313	-2.1333	-2.2854	-1.9771	-2.4021	-2.2917	-2.1792	-2.4271	-2.5979	85.804	249.652	176.881	267.078	75.032	89.194	198.730	-48.622	40.041	267.793	257.700	173.690	194.137	267.427	94.017	256.746	0.00038308	0.001239	0.0003704	963.28	6.3318e-06	8.4465e-06	1269.3	359.62	4.0019e-06	5.0554e-06	551.14	241.9	159.22	78.094	8.4184e-06	129.94	0.00070694	0.00065118	0.00019014	874.26	7.0919e-06	7.299e-06	1147.4	327.21	7.3353e-06	7.1258e-06	500.35	222.16	146.03	71.789	6.9501e-06	118.54	250.619	-19.246	8.432	-76.082	79.371	55.496	-76.184	-70.480	111.026	51.352	-71.713	-67.427	-65.709	-61.158	120.828	-63.405	-8191	255	
812.137	1	1	0	0	0.08595	0.14881	0.13026	0.33828	0.15087	0.20654	0.33742	0.11647	0.10456	0.2913	0.050787	0.33807	0.13716	0.19826	0.14111	0.18553	-1.5187	-2.3875	-1.9375	-2.425	-2.3104	-2.1688	-2.8104	-2.0667	-2.2	-2.6083	-2.0958	-2.5	-2.5292	-2.1417	-2.3292	-2.5792	4.360	142.634	111.701	239.358	225.235	128.905	245.565	-85.342	50.190	215.539	2.746	244.689	-82.982	194.350	248.242	232.339	0.00037299	0.00093886	0.00031148	962.61	1.2034e-05	8.8711e-06	1258.5	352.96	6.084e-06	9.903e-06	546.8	239.7	157.8	77.43	6.4118e-06	129.47	0.00067346	0.00064575	0.00018301	865.65	6.8235e-06	7.2393e-06	1138.4	322.45	7.0927e-06	6.7184e-06	497.29	220.39	144.88	71.128	7.1988e-06	118.18	255.505	-4.041	11.313	-76.324	64.673	76.503	-76.221	-70.702	82.211	44.748	-71.835	-67.196	-65.626	-61.080	53.370	-63.319	-8191	255	
812.233	1	1	0	0	0.25791	0.22397	0.063354	0.36802	0.16116	0.093703	0.2447	0.21067	0.26454	0.073819	0.20176	0.20916	0.24476	0.56106	0.20498	0.43217	-1.3563	-2.3	-1.8312	-2.2792	-2.4062	-1.9146	-2.5542	-2.3104	-2.2125	-2.6917	-2.2562	-2.3167	-2.4521	-1.9583	-2.3604	-2.4792	173.962	53.084	160.726	261.822	-31.105	-0.895	-9.051	210.819	-8.881	115.912	-67.652	249.853	180.681	266.848	-2.565	189.032	0.00037858	0.00083262	0.00024224	964.73	7.8112e-06	2.8419e-06	1258.3	355.02	4.1181e-06	8.447e-06	548.62	241.19	157.72	77.783	4.7799e-06	128.84	0.00068701	0.00062557	0.00017612	867.29	6.7343e-06	6.9871e-06	1140.2	323.69	6.9797e-06	7.0759e-06	496.4	220.07	144.55	71.322	7.49e-06	117.67	252.110	-21.415	22.830	-76.164	68.737	62.461	-76.593	-70.585	106.030	83.848	-71.634	-67.605	-65.848	-61.058	82.744	-63.192	-8191	255	
812.330	1	1	0	0	0.16666	0.16561	0.091938	0.20249	0.24239	0.26266	0.18909	0.21989	0.15499	0.24114	0.22283	0.24257	0.16172	0.21906	0.026585	0.14465	-1.3104	-2.5146	-2.0708	-2.2812	-2.4417	-1.8396	-2.4396	-2.2188	-2.0208	-2.2812	-2.1958	-2.1833	-2.4646	-2.0771	-2.1396	-2.3271	35.908	175.861	125.143	108.884	236.594	30.863	-40.885	-33.714	-30.205	-73.026	205.097	152.849	217.266	11.906	2.168	255.052	0.00033842	0.00059746	0.00032757	961.23	6.3022e-06	9.7184e-06	1254.6	351.81	4.8402e-06	6.9482e-06	542.92	239.87	155.72	76.869	9.0076e-06	128.36	0.00068199	0.00064147	0.00018836	865.08	7.1382e-06	7.2836e-06	1134.7	320.4	7.4683e-06	7.1941e-06	493.97	219.6	143.57	70.5	7.7071e-06	116.93	250.509	16.024	-2.854	-76.180	90.747	73.031	-76.577	-70.847	65.621	51.305	-71.804	-67.349	-65.585	-61.030	51.312	-63.184	-8191	255	
812.426	1	1	0	0	0.19588	0.083167	0.19952	0.37437	0.10418	0.16397	0.41923	0.096193	0.24032	0.2951	0.31703	0.1419	0.28574	0.38432	0.055672	0.22824	-1.4854	-2.3	-2.0083	-2.05	-2.4479	-2.0021	-2.4979	-2.3146	-1.8687	-2.3438	-2.2292	-2.2646	-2.3708	-2.1813	-2.1792	-2.6021	39.107	67.840	245.962	235.824	-50.733	147.279	220.401	-44.941	-65.018	86.728	210.699	226.217	-39.042	235.913	-38.769	206.796	0.00040606	0.0010351	0.00025798	951.24	8.4623e-06	4.607e-06	1258	352.67	3.9747e-06	1.1058e-05	545.04	241.44	156.86	77.309	1.3906e-06	129.03	0.00066963	0.0006823	0.0001942	859.72	7.2245e-06	7.3615e-06	1137.1	321.32	7.1755e-06	7.4595e-06	496.17	220.33	144.34	70.914	7.7167e-06	117.79	255.163	8.167	17.680	-76.205	96.601	91.346	-76.546	-70.671	51.364	46.458	-71.759	-67.505	-65.471	-61.097	80.008	-63.565	-8191	255	
812.546	1	1	0	0	0.23967	0.093701	0.10215	0.181	0.22429	0.1145	0.26837	0.29058	0.13664	0.14661	0.16442	0.25025	0.053808	0.5232	0.11461	0.39766	-1.4688	-2.3833	-2.0729	-2.0854	-2.4958	-2.0021	-2.3625	-2.2687	-2.0583	-2.4333	-2.2604	-2.2833	-2.4979	-2.3396	-2.1146	-2.5833	168.427	96.488	263.213	233.043	66.520	147.487	191.479	227.756	-62.024	107.545	220.630	209.700	237.826	239.788	91.839	196.655	0.00040103	0.00085069	0.00023281	958.65	4.8213e-06	1.0125e-05	1263.2	350.73	6.2032e-06	8.3109e-06	543.96	239.48	156.26	77.051	8.9611e-06	128.43	0.00067621	0.00067289	0.00017982	863.83	7.0075e-06	7.0874e-06	1138.2	319.72	6.9744e-06	7.339e-06	492.39	219.15	143.46	70.642	7.5523e-06	117.11	265.771	11.132	6.183	-76.448	117.404	52.058	-76.319	-70.600	65.704	64.076	-71.495	-67.337	-65.600	-61.269	47.392	-63.299	-8191	255	
812.618	1	1	0	0	0.34595	0.13721	0.09632	0.22869	0.035918	0.13164	0.16507	0.13027	0.15247	0.15127	0.35262	0.32037	0.38856	0.39878	0.12507	0.25753	-1.525	-2.3875	-2.2271	-2.0792	-2.4479	-2.2917	-2.3729	-2.4083	-2.0854	-2.3042	-2.4875	-2.1208	-2.4604	-2.2917	-2.1521	-2.7542	-4.462	84.435	256.032	186.465	47.119	106.475	53.861	-83.706	-87.551	22.624	231.799	206.955	242.961	-76.069	-63.774	210.842	0.00035301	0.0007283	0.00016127	953.21	4.7724e-06	1.0719e-05	1255.4	353.11	4.1254e-06	8.5165e-06	543.11	239.47	155.61	76.752	9.1204e-06	127.69	0.00066578	0.00068185	0.0001834	860.5	7.0463e-06	7.0783e-06	1133.6	321.09	6.9252e-06	7.4371e-06	492.72	219.04	143.37	70.45	7.3006e-06	116.69	249.811	-41.442	-54.219	-76.433	76.331	45.654	-76.560	-70.674	43.522	67.174	-71.958	-67.446	-65.543	-61.318	71.157	-63.520	-8191	255	
812.714	1	1	0	0	0.20113	0.16764	0.099227	0.093139	0.34595	0.089685	0.41758	0.11462	0.18171	0.19654	0.37243	0.096522	0.19989	0.097548	0.058676	0.2806	-1.7083	-2.2812	-2.2	-2.2438	-2.4562	-2.0854	-2.0542	-2.3896	-2.0979	-2.2604	-2.4667	-2.2042	-2.5958	-2.3104	-1.9937	-2.575	73.105	-5.036	168.141	250.378	167.425	207.012	187.152	190.659	217.944	-23.241	225.198	203.782	214.873	-79.947	45.434	235.850	0.0003465	0.00086485	0.00031842	956.54	2.5783e-06	1.0139e-05	1254.5	353.77	5.9866e-06	5.5129e-06	543.07	239.52	156.27	76.928	2.1838e-06	128.22	0.00066065	0.00067631	0.00018169	862.29	7.0796e-06	7.39e-06	1132.9	321.21	6.9768e-06	7.3048e-06	493.67	219.16	143.81	70.514	7.4577e-06	117.09	246.188	-0.916	-25.955	-76.315	128.122	78.880	-76.654	-70.422	81.167	77.928	-71.906	-67.248	-65.564	-61.250	8.581	-63.385	-8191	255	
812.810	1	1	0	0	0.15139	0.10312	0.18328	0.10951	0.049049	0.067089	0.028239	0.15244	0.11805	0.13154	0.26297	0.19911	0.49129	0.13818	0.11332	0.171	-1.5896	-2.1771	-2.4104	-1.9854	-2.3812	-2.3833	-2.0729	-2.5062	-2.1542	-2.0312	-2.5563	-2.4021	-2.5563	-2.5458	-2.0854	-2.5854	162.739	114.227	43.010	221.736	-20.073	-65.358	137.446	201.541	40.123	121.775	194.565	177.716	-77.199	167.958	262.642	257.543	0.00037057	0.0015821	0.00026321	957.64	9.0765e-06	6.2841e-06	1254.3	349.85	2.7763e-06	7.1924e-06	545.15	238.09	155.83	76.439	7.2973e-06	127.35	0.00067161	0.00068992	0.00018913	862.3	7.4665e-06	7.5822e-06	1135.1	319.97	7.2105e-06	7.5996e-06	494.32	218.56	143.19	70.2	7.6066e-06	116.29	252.489	13.566	2.636	-76.391	38.009	64.562	-76.650	-70.707	25.106	30.269	-71.849	-67.351	-65.815	-61.264	17.475	-63.366	-8191	255	
812.929	1	1	0	0	0.16737	0.033083	0.16769	0.22218	0.21613	0.021372	0.032144	0.1905	0.35205	0.23248	0.17325	0.25869	0.27951	0.36855	0.10381	0.22015	-1.6771	-2.0667	-2.4917	-2.0792	-2.2583	-2.6	-2.2083	-2.4854	-2.0583	-2.0625	-2.5667	-2.4333	-2.4313	-2.5708	-1.9833	-2.5083	170.496	-83.593	-30.378	184.619	-78.180	174.404	133.471	92.822	-41.380	41.025	-20.389	212.931	269.974	255.517	100.013	202.748	0.00039414	0.00086699	0.00025154	949.97	4.4088e-06	1.0359e-05	1256	352.7	2.9841e-06	1.022e-05	541.52	239.49	155.77	76.518	5.179e-06	127.38	0.00069556	0.00069256	0.00018266	860.44	7.2349e-06	7.4342e-06	1137	320.85	7.1167e-06	7.4905e-06	493.61	219.41	143.62	70.292	7.4655e-06	116.39	256.204	15.502	-5.206	-76.157	49.055	52.298	-76.610	-70.811	46.713	66.760	-71.935	-67.745	-65.639	-61.047	15.405	-63.391	-8191	255	
813.025	1	1	0	0	0.17168	0.11485	0.21501	0.30155	0.10597	0.2514	0.44716	0.24749	0.27648	0.11701	0.1522	0.28706	0.20467	0.33564	0.18194	0.37003	-1.775	-2.0708	-2.4625	-2.2333	-2.1896	-2.4083	-2.2417	-2.5167	-2.325	-2.0646	-2.5521	-2.1667	-2.4562	-2.6146	-1.9312	-2.5625	108.895	-4.727	86.980	186.500	175.101	-85.526	191.568	269.076	24.609	16.432	224.390	197.558	252.963	268.288	266.532	169.779	0.00044417	0.00091849	0.00018513	951.77	6.8823e-06	4.1685e-06	1255.4	351.59	4.9588e-06	8.0442e-06	548.23	241.07	156.65	76.644	6.475e-06	127.63	0.00068763	0.00065719	0.00018421	861.62	7.3307e-06	7.2261e-06	1135.4	321.49	7.07e-06	7.4039e-06	495.55	219.63	143.92	70.386	7.2582e-06	116.69	255.945	4.839	22.813	-76.607	50.022	41.392	-76.483	-70.736	48.508	76.798	-71.734	-67.407	-65.646	-61.213	100.336	-63.326	-8191	255	
813.122	1	1	0	0	0.012349	0.11	0.078449	0.14616	0.061041	0.20158	0.32101	0.36468	0.13213	0.1674	0.22062	0.30782	0.1228	0.38743	0.20632	0.36988	-1.9042	-2.0375	-2.3271	-2.2083	-2.1542	-2.5312	-2.1625	-2.3583	-2.4729	-2.1646	-2.5021	-2.4688	-2.1979	-2.6188	-2.0604	-2.4625	220.867	29.492	18.592	232.595	186.204	-41.304	257.852	-59.005	212.683	151.588	-40.062	253.796	145.426	199.339	-12.962	207.448	0.0003737	0.0012037	0.00031332	952.28	6.2418e-06	5.4878e-06	1261.4	352.56	6.6469e-06	1.1463e-05	545.3	239.51	156.83	76.746	8.0037e-06	127.78	0.0006766	0.00069193	0.00018673	862.94	7.0999e-06	7.2083e-06	1140.2	322.24	7.3235e-06	7.3627e-06	496.87	219.84	144.14	70.456	7.3102e-06	116.86	260.997	-15.205	22.679	-76.551	77.938	87.947	-76.380	-70.755	64.159	30.590	-72.018	-67.419	-65.346	-61.194	79.660	-63.536	-8191	255	
813.218	1	1	0	0	0.17907	0.14429	0.2766	0.24596	0.11366	0.14457	0.21047	0.3048	0.23006	0.12545	0.22207	0.015708	0.30622	0.34418	0.3244	0.35234	-2.0021	-1.9562	-2.3667	-2.1771	-2.0896	-2.4146	-2.2021	-2.325	-2.3917	-2.0917	-2.4625	-2.275	-2.2125	-2.7917	-2.1521	-2.4667	63.699	261.836	228.980	-72.645	170.831	-52.651	252.224	240.618	66.881	173.970	161.747	88.835	215.367	236.847	-44.304	175.877	0.0003966	0.0010223	0.0001465	963.59	7.6491e-06	1.1267e-05	1270.5	357.45	6.3407e-06	5.9803e-06	554.2	243.22	158.43	77.406	8.6987e-06	128.54	0.00069466	0.00066321	0.00018894	870.05	7.1132e-06	7.1806e-06	1147	325.53	7.3511e-06	7.3595e-06	501.55	221.56	145.74	71.094	7.4454e-06	117.71	258.446	-21.693	20.687	-76.307	81.301	74.507	-76.570	-70.657	79.906	75.288	-72.060	-67.315	-65.376	-61.032	101.652	-63.046	-8191	255	
813.314	1	1	0	0	0.2971	0.16433	0.12011	0.17906	0.13033	0.17568	0.19508	0.14384	0.15923	0.11921	0.079962	0.18924	0.16695	0.1871	0.13216	0.13883	-1.8667	-1.8979	-2.225	-2.4667	-1.9479	-2.3542	-2.3271	-2.2229	-2.5083	-2.1583	-2.4229	-2.5	-1.9875	-2.6042	-2.2146	-2.3	103.589	218.441	172.534	-31.651	3.727	122.232	215.984	-40.866	66.321	2.448	158.554	270.920	262.500	182.265	105.053	-37.483	0.00035846	0.0014587	0.00028913	967.35	6.7576e-06	6.0857e-06	1275.1	357.55	1.8056e-06	8.6699e-06	551.38	241.27	157.61	77.611	9.1593e-06	128.85	0.00067051	0.00065359	0.00018535	872.08	6.9838e-06	7.0406e-06	1151.3	325.54	6.9404e-06	6.9741e-06	500.87	221.52	145.17	71.036	7.4419e-06	117.86	255.486	10.876	20.982	-76.306	112.058	57.855	-76.456	-70.161	54.617	44.074	-71.846	-67.254	-65.382	-60.921	57.420	-63.487	-8191	255	
813.410	1	1	0	0	0.056493	0.081617	0.070312	0.19207	0.14155	0.1349	0.2571	0.1409	0.26866	0.25708	0.1717	0.26468	0.35193	0.28583	0.035452	0.37748	-1.8729	-1.8354	-2.2521	-2.4188	-1.9458	-2.3917	-2.3	-2.2583	-2.4896	-2.0938	-2.2625	-2.5417	-2.1354	-2.5292	-2.2521	-2.4292	84.377	206.889	-79.091	260.257	163.128	168.515	232.230	261.116	89.471	-85.258	-87.436	183.615	265.276	-54.469	115.513	197.205	0.00038742	0.0014134	0.00031876	962.97	8.2457e-06	5.2586e-06	1277.9	354.92	6.1772e-06	1.1974e-05	549.28	241.32	157.15	77.004	2.7468e-06	128.29	0.00065259	0.00064385	0.00018078	873.36	6.6341e-06	6.9937e-06	1151.3	325.18	6.8111e-06	6.9762e-06	498.48	220.88	144.2	70.599	6.7775e-06	117.25	254.564	6.781	-17.645	-76.143	54.558	48.795	-76.568	-70.418	85.895	79.399	-71.544	-67.398	-65.615	-60.984	54.493	-63.334	-8191	255	
813.531	1	1	0	0	0.18057	0.15779	0.21253	0.061604	0.29934	0.29629	0.20131	0.17747	0.15408	0.087332	0.13217	0.32699	0.22391	0.28477	0.13771	0.31054	-2.0729	-2.0125	-2.2562	-2.5687	-2.0125	-2.5146	-2.5479	-2.1375	-2.8187	-2.2417	-2.3375	-2.5604	-2.0771	-2.5146	-2.25	-2.4375	104.800	61.326	64.535	-47.928	191.459	22.412	209.953	210.144	18.665	161.694	174.430	216.628	-75.744	236.783	123.294	202.674	0.00039198	0.00096683	0.0003265	963.46	7.1034e-06	7.3207e-06	1273.1	357.65	4.7695e-06	6.6641e-06	549.18	242.19	156.76	77.068	6.5672e-06	128.8	0.00063696	0.0006313	0.0001791	870.71	6.5723e-06	6.9293e-06	1148.4	325.36	6.7372e-06	6.5993e-06	499.84	221.06	144.43	70.703	6.992e-06	117.72	245.666	-2.219	0.406	-76.500	66.570	84.604	-76.551	-70.538	77.768	53.973	-71.891	-67.398	-65.246	-61.203	61.169	-63.186	-8191	255	
813.627	1	1	0	0	0.0091902	0.045492	0.055207	0.36804	0.10311	0.19268	0.23665	0.052358	0.34249	0.099746	0.073657	0.11888	0.23078	0.23539	0.10174	0.34123	-2.0979	-2.0521	-2.0875	-2.45	-1.9875	-2.1854	-2.4958	-2.2271	-2.3917	-2.3479	-2.4417	-2.5396	-2.0375	-2.2604	-2.2146	-2.2604	-21.259	-27.837	45.230	247.046	238.208	-41.032	231.846	-57.455	-60.647	172.396	-61.437	248.240	-73.357	254.430	-80.083	207.665	0.00041718	0.00069768	0.00026034	963.42	1.0269e-05	1.1828e-05	1259.6	355.6	4.395e-06	9.6902e-06	550.78	241.42	157.28	76.46	8.7675e-06	128.44	0.00064396	0.0006289	0.00018052	869.74	6.5204e-06	6.9201e-06	1145.6	324.62	6.831e-06	7.099e-06	499.19	220.86	144.63	70.44	7.1474e-06	117.3	259.750	37.980	-6.177	-76.063	52.737	77.109	-76.340	-70.501	99.684	47.106	-71.666	-67.318	-65.523	-61.122	91.773	-63.363	-8191	255	
813.723	1	1	0	0	0.25378	0.15244	0.048277	0.31177	0.22566	0.2044	0.13319	0.083054	0.011641	0.1355	0.097513	0.18819	0.29755	0.16709	0.20801	0.027089	-1.6917	-2.1583	-1.9937	-2.6604	-2.2083	-2.2833	-2.5938	-2.1458	-2.3729	-2.3688	-2.1292	-2.5167	-2.1708	-2.3396	-2.3125	-2.3229	-21.579	97.145	207.914	174.752	129.361	108.348	219.091	116.872	3.212	-45.836	-8.446	238.740	-77.937	216.562	221.563	234.203	0.00039807	0.0010442	0.00016327	966.04	6.7986e-06	6.0596e-06	1275.3	354.7	8.6501e-06	1.1262e-05	550.14	241.87	156.82	77.004	2.0351e-06	129.48	0.00064647	0.00063359	0.00017532	871.66	6.6921e-06	7.0156e-06	1148.3	323.46	6.7772e-06	6.9865e-06	499.36	221.72	144.59	70.806	6.9333e-06	117.96	256.839	-19.225	67.748	-76.031	62.828	83.418	-76.514	-70.714	97.981	41.208	-71.682	-67.265	-65.806	-61.216	-17.225	-63.262	-8191	255	
813.842	1	1	0	0	0.35624	0.12905	0.19813	0.070668	0.15178	0.2547	0.058829	0.23848	0.1041	0.15832	0.24107	0.047035	0.33818	0.49824	0.11189	0.43866	-1.8667	-2.2313	-1.9833	-2.6229	-2.2167	-2.375	-2.55	-1.8667	-2.3958	-2.2792	-2.1771	-2.6833	-2.2771	-2.2292	-2.5104	-2.3396	122.303	186.688	-24.896	-34.273	180.649	-67.681	-20.920	129.399	75.612	113.329	231.219	202.003	229.050	194.861	230.618	184.951	0.00037758	0.00091002	0.00027241	961.01	1.0006e-05	8.5086e-06	1272.3	358.17	5.7645e-06	6.8997e-06	550.81	242.61	158.54	77.511	5.4546e-06	128.78	0.00066004	0.00061909	0.00017365	871.42	6.6407e-06	7.0095e-06	1152.2	325.08	6.9943e-06	6.9997e-06	500.74	222.1	145.06	71.011	6.8507e-06	117.66	253.022	8.198	-6.567	-76.096	76.001	52.473	-76.468	-70.577	51.704	66.943	-71.865	-67.390	-65.430	-61.276	68.532	-63.100	-8191	255	
813.913	1	1	0	0	0.11178	0.23125	0.15267	0.32798	0.17608	0.19469	0.29635	0.076035	0.097902	0.17982	0.053154	0.15974	0.22636	0.20517	0.073092	0.2236	-1.7146	-2.2479	-1.8833	-2.6063	-2.3229	-2.0292	-2.5792	-2.2687	-2.1083	-2.475	-2.0979	-2.4833	-2.4042	-2.1375	-2.5542	-2.2708	16.896	261.020	-83.498	248.650	-5.106	80.078	182.063	167.870	-21.428	8.263	181.744	196.643	207.492	226.561	255.359	226.058	0.00033998	0.0012889	0.00027536	968.36	3.2554e-06	1.1102e-05	1265.5	356.36	3.6243e-06	8.5932e-06	543.59	238.5	156.02	76.119	8.4593e-06	126.95	0.00066561	0.00061192	0.00017316	871.37	6.8278e-06	7.2872e-06	1143	322.47	7.1014e-06	6.9441e-06	494.85	218.67	143.39	69.938	7.2839e-06	115.95	252.485	20.943	19.851	-76.490	94.450	70.407	-76.516	-70.759	48.239	53.987	-71.711	-67.394	-65.566	-60.928	43.102	-63.534	-8191	255	
814.010	1	1	0	0	0.23296	0.20941	0.18681	0.38825	0.037982	0.14732	0.2976	0.20467	0.13332	0.035338	0.17872	0.41817	0.40108	0.25803	0.25984	0.059693	-1.6542	-2.3771	-1.825	-2.3063	-2.2125	-2.1396	-2.6604	-2.1146	-2.1292	-2.4062	-2.0312	-2.3438	-2.4083	-2.2292	-2.3458	-2.4208	51.687	-50.437	219.440	245.809	224.124	-67.605	185.020	247.589	-64.083	109.548	248.039	-70.353	235.600	270.104	84.476	110.649	0.00040877	0.0006605	0.0002133	953.99	3.9944e-06	1.3298e-05	1257.3	350.95	5.9064e-06	3.255e-06	543.28	236.79	153.95	75.14	1.0272e-05	126.19	0.00067716	0.00065733	0.00017406	862.03	6.9928e-06	7.1486e-06	1138.8	319.88	7.2106e-06	7.0167e-06	492.42	216.99	141.65	69.185	7.1717e-06	115.15	254.779	16.335	7.402	-76.313	74.658	51.993	-76.381	-70.726	82.604	60.785	-72.000	-67.128	-65.427	-61.004	80.771	-63.408	-8191	255	
814.106	1	1	0	0	0.1546	0.099515	0.23245	0.11436	0.15719	0.14244	0.024992	0.31094	0.028168	0.028577	0.18259	0.16853	0.32113	0.087076	0.22354	0.42624	-1.6521	-2.4792	-2.1354	-2.3604	-2.3083	-1.7729	-2.4458	-2.1146	-2.0021	-2.4646	-2.175	-2.4833	-2.4104	-2.2083	-2.4875	-2.3604	-16.084	-8.377	27.818	213.592	204.454	213.714	145.215	-40.584	85.180	244.198	186.856	256.366	260.856	160.847	-62.405	182.760	0.00034591	0.00077128	0.00025692	957.91	3.0407e-06	8.029e-06	1260.5	352.34	6.0642e-06	5.7645e-06	545.13	239.8	155.36	76.792	1.2815e-05	127.57	0.0006868	0.00066009	0.00017699	862.46	6.9699e-06	7.0748e-06	1140.8	320.87	7.2057e-06	6.9766e-06	495.34	219.43	143.31	70.257	7.0465e-06	116.46	256.206	-1.144	8.946	-76.101	111.028	68.767	-76.580	-70.685	77.410	53.197	-71.934	-67.155	-65.127	-61.004	76.819	-63.426	-8191	255	
814.226	1	1	0	0	0.21926	0.16582	0.36666	0.21426	0.092707	0.098305	0.25816	0.23605	0.30125	0.025954	0.41519	0.4883	0.25189	0.25068	0.10723	0.35423	-1.5333	-2.3937	-1.8917	-2.4313	-2.4417	-2.0938	-2.5938	-2.2458	-2.0833	-2.4938	-2.2917	-2.1896	-2.3333	-2.1354	-2.2833	-2.45	267.239	83.803	-81.557	216.207	-46.590	44.785	206.648	-39.210	172.440	-57.570	256.698	220.294	230.402	230.079	54.268	185.097	0.00039884	0.00088422	0.00021303	963.77	7.9672e-06	6.4832e-06	1271.1	356.27	3.3193e-06	1.1988e-05	544.76	239.97	156.24	76.342	6.7144e-06	127.58	0.00067161	0.00063551	0.00017799	869.17	6.8216e-06	7.2541e-06	1147.1	322.88	6.9733e-06	7.1433e-06	494.89	219.61	143.63	69.956	7.3563e-06	116.52	253.659	-32.017	-4.413	-76.278	77.430	38.154	-76.430	-70.703	78.676	59.193	-71.654	-67.157	-65.582	-61.177	44.620	-63.402	-8191	255	
814.323	1	1	0	0	0.15642	0.095153	0.15751	0.17153	0.3075	0.26331	0.12632	0.11295	0.31441	0.072517	0.10911	0.30095	0.22241	0.19918	0.13417	0.4061	-1.6	-2.3229	-2.175	-2.3812	-2.2979	-2.2542	-2.4292	-2.5146	-1.9937	-2.4917	-2.3625	-2.2208	-2.6292	-2.2333	-2.2812	-2.475	142.865	-30.443	227.376	15.866	103.468	-81.906	261.257	200.653	101.648	106.123	245.761	-86.750	173.705	-67.627	-4.465	227.287	0.0003817	0.00093611	0.00023182	957.38	5.5602e-06	8.4231e-06	1265.7	352.83	2.694e-06	2.9841e-06	543.62	238.19	154.87	75.949	9.9116e-06	126.87	0.00067988	0.00067357	0.00018256	863.85	7.2124e-06	6.8686e-06	1143.7	321.62	7.3216e-06	7.288e-06	493.86	218.35	142.81	69.72	7.6524e-06	115.91	251.392	5.529	-10.564	-76.337	126.772	35.202	-76.396	-70.623	18.506	72.077	-71.706	-67.365	-65.687	-61.317	103.701	-63.333	-8191	255	
814.419	1	1	0	0	0.12919	0.19448	0.095308	0.19803	0.13677	0.20218	0.22739	0.37074	0.10572	0.2996	0.18624	0.18696	0.30411	0.21226	0.1782	0.21498	-1.4646	-2.3708	-2.1979	-2.2375	-2.5896	-1.9625	-2.5479	-2.4938	-1.8208	-2.3229	-2.1979	-2.1833	-2.6875	-2.3021	-2.2729	-2.5667	235.246	184.010	253.908	-48.462	-20.615	-52.370	220.333	223.077	261.884	105.223	257.647	240.853	152.311	237.010	55.972	233.972	0.00032708	0.00067939	0.00030964	957.78	7.1771e-06	4.3836e-06	1264	355.51	4.5266e-06	1.2348e-05	550.48	242.12	157.83	76.761	4.6722e-06	129.38	0.00067498	0.00063992	0.00017887	866.39	6.9357e-06	6.9498e-06	1142.3	324.52	6.632e-06	6.8767e-06	499.22	221.29	145.14	70.662	7.0432e-06	117.92	257.171	22.649	-17.361	-76.440	64.278	58.000	-76.961	-70.706	81.007	52.283	-71.682	-67.445	-65.069	-60.992	66.177	-63.483	-8191	255	
814.490	1	1	0	0	0.2979	0.15548	0.20021	0.4878	0.32706	0.24924	0.067502	0.15801	0.3244	0.45368	0.3488	0.14239	0.23549	0.26322	0.29291	0.23022	-1.6063	-2.4146	-2.2271	-2.2917	-2.4833	-1.95	-2.3187	-2.5354	-1.8708	-2.3625	-2.375	-2.2062	-2.7333	-2.3354	-2.2542	-2.7188	121.547	18.106	31.548	258.120	26.892	239.655	177.405	-88.349	193.696	202.144	205.216	200.396	222.883	-68.079	188.699	172.372	0.00039052	0.00075634	0.00026144	965.48	4.3474e-06	9.7429e-06	1267.8	356.73	7.4995e-06	5.9076e-06	552.71	243.58	158.95	77.415	3.7409e-06	130.24	0.00064294	0.00064646	0.00017717	870.03	6.5825e-06	6.7306e-06	1147	325.2	6.7173e-06	6.9906e-06	501.22	222.89	146.04	71.152	7.0875e-06	118.5	260.788	-20.060	-11.563	-76.366	58.555	64.124	-76.789	-70.555	98.419	71.665	-71.582	-67.468	-65.461	-61.275	88.368	-63.257	-8191	255	
814.611	1	1	0	0	0.18438	0.15845	0.054275	0.14565	0.027685	0.1663	0.31637	0.15813	0.28039	0.053884	0.16726	0.40394	0.43202	0.28068	0.22717	0.39531	-1.4833	-2.2875	-2.1354	-2.1583	-2.4062	-2.2062	-2.2562	-2.4792	-1.9521	-2.3708	-2.4208	-2.1854	-2.4708	-2.375	-2.1562	-2.6979	-59.213	186.440	-16.371	203.076	144.203	237.456	266.626	227.931	10.221	117.117	207.376	205.326	-79.777	261.391	-29.882	210.138	0.00038962	0.0013831	0.00017031	961.42	5.5819e-06	9.0166e-06	1280	360.26	6.0385e-06	1.1864e-05	557.17	247.44	159.07	78.044	7.171e-06	130.53	0.00063671	0.00063969	0.00017508	871.86	6.6598e-06	6.5718e-06	1154.1	327.42	6.7338e-06	6.9518e-06	505.91	225.24	146.75	71.69	7.024e-06	119.26	253.872	-3.946	25.550	-76.654	69.983	80.317	-76.513	-70.610	76.688	60.893	-71.879	-67.302	-65.468	-61.198	80.047	-63.557	-8191	255	
814.707	1	1	0	0	0.24156	0.26451	0.1544	0.092073	0.10673	0.23123	0.0086398	0.27692	0.069566	0.21288	0.038349	0.43628	0.27862	0.27296	0.076718	0.26185	-1.7396	-2.1312	-2.4604	-1.9417	-2.3312	-2.2292	-2.275	-2.6271	-2.0167	-2.125	-2.5729	-2.225	-2.5958	-2.5125	-1.9271	-2.5167	56.473	261.213	62.255	249.393	132.691	116.958	19.606	220.771	-13.793	46.527	125.470	240.156	228.565	241.677	98.485	228.101	0.00037111	0.00096579	0.00024374	970.67	6.8347e-06	1.1073e-05	1290.4	362.02	6.1502e-06	9.406e-06	557.32	246.22	159.47	78.196	6.2072e-06	130.92	0.00064037	0.00064733	0.00017295	875.72	6.6254e-06	6.7916e-06	1160.1	328.93	6.7088e-06	6.8004e-06	507.04	225.25	147.14	71.942	6.9359e-06	119.47	266.440	1.023	2.061	-76.058	85.910	71.823	-76.742	-70.505	101.818	53.014	-71.506	-67.630	-65.548	-61.046	78.776	-63.305	-8191	255	
814.803	1	1	0	0	0.40954	0.24118	0.12727	0.1822	0.14726	0.24543	0.31994	0.058523	0.18106	0.24459	0.18787	0.027994	0.31125	0.25387	0.12362	0.35009	-1.5729	-2.1063	-2.4354	-2.1083	-2.3417	-2.3771	-2.1688	-2.5	-2.2354	-2.1958	-2.6063	-2.2396	-2.5271	-2.3979	-2.0563	-2.6562	-57.213	172.304	54.545	-77.847	105.633	168.454	243.579	252.901	-12.843	41.297	179.360	262.733	-65.494	251.414	-54.859	203.757	0.00039498	0.00063455	0.00027495	969.67	6.248e-06	6.968e-06	1273.8	356.28	4.7051e-06	9.4914e-06	553.39	243.56	158.53	77.548	5.0152e-06	129.61	0.00063184	0.0006334	0.00016794	873.21	6.6911e-06	6.4173e-06	1151	325.03	6.4711e-06	6.784e-06	500.72	222.46	145.62	70.953	6.792e-06	118.05	258.630	-16.495	-0.459	-76.283	56.796	71.656	-76.416	-70.460	92.762	23.074	-71.826	-67.366	-65.557	-61.128	55.147	-63.229	-8191	255	
814.922	1	1	0	0	0.30253	0.15762	0.094594	0.18255	0.16563	0.14078	0.17617	0.16988	0.33856	0.071951	0.12321	0.27306	0.142	0.25464	0.20039	0.069973	-1.8083	-2.0167	-2.2812	-2.1688	-2.4229	-2.2542	-2.1521	-2.55	-2.1771	-2.1896	-2.6104	-2.1042	-2.3792	-2.5667	-2.0812	-2.5375	108.938	208.905	226.469	224.404	221.861	214.939	216.877	257.454	140.363	218.142	192.511	-75.954	-67.053	258.918	-35.373	188.251	0.0003904	0.00053922	0.00030196	961.54	6.7484e-06	5.9753e-06	1272	357.53	3.8796e-06	8.8359e-06	552.6	244.02	159.2	77.736	5.4044e-06	129.7	0.00064416	0.00060453	0.00016895	870.4	6.5357e-06	6.6012e-06	1147.4	325.4	6.6116e-06	6.7965e-06	502.12	223.14	146.15	71.296	6.6813e-06	118.05	256.553	-13.765	-6.928	-76.153	83.165	40.997	-76.478	-70.598	78.321	26.112	-71.943	-67.496	-65.617	-61.455	20.989	-63.263	-8191	255	
815.018	1	1	0	0	0.13656	0.1804	0.13628	0.17303	0.29407	0.35789	0.27062	0.25085	0.13443	0.17539	0.091738	0.27351	0.35263	0.11166	0.14832	0.13759	-1.7729	-1.9771	-2.5146	-2.2458	-2.1229	-2.1562	-2.3083	-2.525	-1.9354	-1.9792	-2.55	-2.2646	-2.3875	-2.6167	-2.0771	-2.4104	140.955	193.384	61.335	239.082	96.125	39.829	229.244	116.763	150.612	53.553	263.732	178.428	264.489	262.742	131.099	211.342	0.00044139	0.00084443	0.00022894	961.92	9.6629e-06	8.6916e-06	1265.3	357.61	5.0701e-06	6.9926e-06	551.56	242.53	157.6	77.015	8.9861e-06	129.93	0.00063512	0.00062977	0.00017247	867.8	6.6572e-06	6.7556e-06	1146.7	325.66	6.6707e-06	6.8174e-06	501.09	221.64	144.85	70.771	6.8257e-06	118.11	253.996	-4.158	11.902	-76.441	71.759	77.944	-76.395	-70.679	46.304	63.080	-71.438	-67.154	-65.586	-61.265	76.225	-63.156	-8191	255	
815.114	1	1	0	0	0.045843	0.046936	0.10533	0.129	0.081431	0.129	0.26181	0.35117	0.021168	0.24311	0.054741	0.18443	0.44134	0.3176	0.17676	0.26573	-1.7	-2.0104	-2.3229	-2.25	-2.0854	-2.3854	-2.1792	-2.3167	-2.4938	-2.0771	-2.4792	-2.2542	-2.1063	-2.6813	-1.9979	-2.4625	242.307	-78.832	-46.666	213.694	68.346	58.395	268.111	257.610	130.591	38.828	172.404	141.052	254.175	254.016	-40.104	266.928	0.00042813	0.00091367	0.00033536	962.93	6.3443e-06	7.8066e-06	1273.3	353.33	6.9854e-06	4.4957e-06	550.7	242.59	158.56	77.233	1.4749e-06	129.58	0.00064709	0.00064414	0.0001753	869.99	6.7835e-06	6.6895e-06	1147.5	323.78	6.8312e-06	6.7765e-06	499.64	222.04	145.4	70.884	6.9155e-06	118.24	250.700	4.470	15.170	-76.229	130.549	125.529	-76.316	-70.695	98.432	17.188	-71.849	-67.298	-65.589	-61.203	54.306	-63.168	-8191	255	
815.211	1	1	0	0	0.085785	0.2178	0.20509	0.24571	0.18825	0.086628	0.10463	0.19413	0.16245	0.1378	0.18129	0.38199	0.20291	0.35496	0.11733	0.41701	-1.9062	-1.9146	-2.3937	-2.2958	-2.0083	-2.5187	-2.3812	-2.1208	-2.5417	-1.9813	-2.5667	-2.5021	-2.2729	-2.8563	-2.0083	-2.5229	182.449	94.842	-40.618	242.309	-57.763	-4.603	260.156	227.658	89.408	74.485	228.751	220.027	223.059	-84.292	74.144	222.503	0.00037687	0.00079922	0.00029742	962.65	4.9403e-06	6.7816e-06	1267.3	355.52	4.5685e-06	9.329e-06	552.1	241.7	156.73	76.691	3.6691e-06	128.16	0.00066041	0.00061125	0.00017983	870.02	6.6831e-06	6.6986e-06	1146.2	324.11	6.6174e-06	6.76e-06	499.55	221	144.33	70.327	6.5894e-06	116.86	257.442	3.954	20.811	-76.269	54.377	77.845	-76.580	-70.593	83.453	82.983	-71.996	-67.599	-65.496	-60.880	138.958	-63.281	-8191	255	
815.307	1	1	0	0	0.17705	0.077844	0.15539	0.2113	0.35006	0.21667	0.067592	0.25916	0.23766	0.079124	0.10871	0.15942	0.23919	0.35607	0.32739	0.37849	-1.925	-1.9792	-2.2604	-2.3688	-2.0417	-2.6583	-2.3729	-2.2167	-2.3917	-2.1479	-2.4562	-2.3417	-2.0521	-2.6417	-2.2	-2.3104	159.727	252.513	6.189	233.058	-87.943	66.380	119.839	161.125	78.128	197.740	-57.382	218.231	192.462	216.945	-64.171	213.248	0.00040847	0.00064481	0.00014491	954.86	1.1189e-05	8.6568e-06	1256.8	353.87	1.5933e-06	1.051e-05	545.52	240.66	157	76.337	5.1561e-06	127.9	0.0006555	0.00061853	0.00017982	865.34	6.4482e-06	6.8126e-06	1137.3	321.5	6.7264e-06	6.773e-06	495.97	219.66	143.77	70.231	6.7113e-06	116.42	262.467	-0.607	50.632	-76.364	75.385	82.033	-76.723	-70.976	151.391	40.777	-71.952	-67.679	-65.550	-60.864	81.827	-63.246	-8191	255	
815.403	1	1	0	0	0.41597	0.20422	0.18081	0.17308	0.20352	0.27887	0.18744	0.18554	0.16185	0.30715	0.12747	0.10173	0.12942	0.34938	0.16358	0.22621	-1.9229	-2.0062	-2.2458	-2.4042	-2.0271	-2.2833	-2.2458	-2.1396	-2.6542	-1.9667	-2.2938	-2.5708	-2.0312	-2.5125	-2.25	-2.3479	-70.587	208.170	240.283	263.792	253.318	69.467	164.419	206.666	133.622	146.998	167.158	247.867	264.505	249.367	-19.187	236.410	0.00033842	0.00038578	0.00018274	958.78	2.8114e-06	8.4775e-06	1260.5	352.83	7.6442e-06	4.8147e-06	547.4	240.52	156.25	76.685	9.2201e-06	127.75	0.00064556	0.00059619	0.00017597	864.13	6.4566e-06	6.7542e-06	1137.8	322.05	6.8538e-06	6.7066e-06	496.2	219.7	143.65	70.315	6.7452e-06	116.71	242.887	14.684	-33.922	-76.232	94.543	84.216	-76.324	-70.499	77.595	22.912	-71.622	-67.476	-65.372	-60.906	68.169	-63.389	-8191	255	
815.524	1	1	0	0	0.22259	0.079939	0.3022	0.21067	0.028883	0.0043049	0.18761	0.10797	0.1924	0.034028	0.16086	0.13496	0.38339	0.37911	0.092163	0.226	-2.1729	-2.2021	-2.1896	-2.3896	-2.1125	-2.2917	-2.4604	-1.9542	-2.35	-1.9438	-2.1729	-2.5458	-2.15	-2.4875	-2.2479	-2.2396	-7.846	162.315	-83.664	262.518	149.751	-37.801	258.055	-22.683	-3.746	86.158	236.382	-27.058	262.432	-63.431	140.363	199.644	0.00039212	0.00059348	0.00017913	955.64	6.7416e-06	8.5008e-06	1261.5	356.24	4.5074e-06	1.0779e-05	548.19	241.57	157.06	77.126	2.705e-06	129.22	0.0006387	0.00061233	0.00017319	864.5	6.3301e-06	6.8577e-06	1141.4	323.07	6.5166e-06	6.6426e-06	497.62	220.97	144.67	70.687	6.737e-06	117.69	252.170	-4.363	-30.181	-76.204	90.362	51.141	-76.707	-70.603	69.142	58.825	-71.882	-67.387	-65.421	-60.927	49.181	-63.149	-8191	255	
815.620	1	1	0	0	0.10734	0.11854	0.21787	0.10308	0.074681	0.1298	0.28667	0.17141	0.3681	0.10978	0.25816	0.13742	0.13574	0.17712	0.097288	0.31934	-2.0938	-2.0646	-2.1188	-2.4646	-2.1292	-2.3708	-2.4333	-1.9375	-2.2542	-2.1917	-2.2333	-2.7146	-2.0854	-2.4167	-2.3021	-2.2896	90.943	95.983	-12.265	-22.224	-85.866	13.063	195.694	250.376	198.741	91.706	-22.270	234.421	265.794	-73.772	-9.736	212.219	0.00034599	0.00068136	0.00025794	958.79	3.5766e-06	8.2897e-06	1269.6	356.98	8.4524e-06	1.0758e-05	549.59	243	158.46	77.429	7.3213e-06	129.48	0.00063437	0.00060086	0.00017579	866.39	6.1694e-06	6.5772e-06	1143.6	324.83	6.647e-06	6.469e-06	500.16	222.27	145.54	70.953	6.5974e-06	118.05	256.368	6.999	-22.292	-76.464	74.217	81.210	-76.598	-70.677	85.383	67.231	-71.809	-67.477	-65.401	-61.252	58.227	-63.389	-8191	255	
815.714	1	1	0	0	0.16817	0.073366	0.24174	0.30245	0.096249	0.081979	0.26402	0.22001	0.14677	0.19889	0.18134	0.11348	0.14697	0.19711	0.24823	0.19392	-2.0583	-2.2562	-2.0292	-2.6792	-2.1542	-2.1625	-2.5333	-1.9458	-2.2833	-2.3438	-2.2562	-2.6292	-2.2396	-2.175	-2.275	-2.2833	111.298	-59.161	-24.022	213.164	1.269	113.212	231.875	-84.425	136.259	-2.470	114.268	242.274	189.827	-25.341	88.189	196.564	0.00037295	0.00037113	0.00027379	963.57	6.8902e-06	1.0781e-05	1266.1	353.28	4.3324e-06	8.8319e-06	546.04	242.1	156.74	76.658	7.9398e-06	128.23	0.00064267	0.00059786	0.00016889	868.89	6.2382e-06	6.566e-06	1144.3	322.95	6.4641e-06	6.5482e-06	497.06	220.92	144.43	70.379	6.5993e-06	117.03	258.854	-22.640	12.645	-76.126	92.035	85.887	-76.790	-70.711	100.860	62.271	-72.059	-67.102	-65.681	-61.184	83.436	-63.398	-8191	255	
815.788	1	1	0	0	0.046937	0.1268	0.046196	0.33498	0.18084	0.30087	0.093278	0.12763	0.11801	0.16319	0.17378	0.49942	0.17982	0.4625	0.077653	0.47377	-1.9979	-2.1437	-1.9917	-2.6312	-2.1521	-2.2167	-2.5604	-2.0708	-2.4	-2.375	-2.2208	-2.5104	-2.3375	-2.2729	-2.3917	-2.225	145.992	222.886	44.107	211.132	-12.724	16.387	169.746	246.427	190.972	138.628	253.596	226.667	235.051	245.802	74.225	180.189	0.00034787	0.0011538	0.00027965	954.8	4.3021e-06	7.2688e-06	1270.5	355.53	3.6938e-07	9.836e-06	550.14	242.33	156.74	76.994	1.0182e-05	128.99	0.000629	0.00060791	0.00016343	863.03	6.3555e-06	6.4366e-06	1143.9	324.2	6.5984e-06	6.546e-06	499.46	221.71	144.84	70.824	6.6807e-06	117.88	246.130	4.701	-6.772	-76.218	28.973	65.917	-76.299	-70.496	50.226	36.615	-71.904	-67.272	-66.050	-61.119	65.059	-63.561	-8191	255	
815.884	1	1	0	0	0.27548	0.21156	0.031493	0.28396	0.15391	0.17858	0.20599	0.25184	0.16192	0.12096	0.12375	0.22813	0.28506	0.10875	0.10107	0.42553	-1.8458	-2.35	-2.0083	-2.5875	-2.1646	-2.1583	-2.5292	-2.275	-2.2354	-2.4708	-1.9771	-2.4375	-2.3125	-2.3083	-2.5333	-2.0438	164.919	26.241	107.826	251.480	9.974	187.251	226.223	167.966	-13.375	202.757	233.722	-80.310	-12.988	-75.567	14.132	218.057	0.00034194	0.00091695	0.0001902	961.38	6.1065e-06	9.3019e-06	1271.4	356.37	6.1077e-06	5.4042e-06	548.35	244.19	158.74	77.598	1.0146e-05	130.11	0.00063002	0.00060637	0.0001652	868.22	6.3868e-06	6.6175e-06	1148.2	325	6.8597e-06	6.6906e-06	500.01	222.82	145.69	71.054	6.7866e-06	118.46	260.055	-2.519	-7.549	-76.222	84.869	75.211	-76.542	-70.812	46.591	91.931	-72.031	-67.529	-65.556	-60.925	43.798	-63.439	-8191	255	
816.003	1	1	0	0	0.25611	0.31217	0.12372	0.38168	0.18136	0.037176	0.085335	0.46291	0.22707	0.18542	0.31163	0.33293	0.37457	0.30918	0.17954	0.18413	-1.6896	-2.3833	-2.0438	-2.4833	-2.3312	-2.0958	-2.7062	-2.1896	-2.2667	-2.5042	-2.2687	-2.6104	-2.4979	-2.2687	-2.4125	-2.3667	-81.287	267.082	-82.869	234.677	247.496	121.902	163.292	198.595	150.781	83.234	222.984	161.737	225.508	266.613	57.667	207.633	0.00041284	0.00069624	0.00022976	963.7	5.0121e-06	5.3985e-06	1267.5	357.11	4.6045e-06	9.2225e-06	552.97	244.69	159.8	77.661	8.4198e-06	130.14	0.00064386	0.0006309	0.00016659	870.53	6.6445e-06	6.8251e-06	1148.7	326.14	6.6853e-06	6.9343e-06	502.94	223.69	146.76	71.442	7.021e-06	118.98	254.447	4.291	-16.834	-76.002	97.312	71.450	-76.452	-70.702	89.989	57.494	-71.874	-67.701	-65.457	-61.221	57.170	-63.328	-8191	255	
816.099	1	1	0	0	0.15175	0.16807	0.09965	0.29379	0.27777	0.073139	0.23651	0.10653	0.11442	0.084025	0.22061	0.2825	0.1716	0.41552	0.26325	0.17575	-1.6167	-2.3604	-2.1396	-2.3604	-2.4417	-2.0604	-2.575	-2.2438	-2.125	-2.2458	-2.1708	-2.5	-2.4479	-2.1583	-2.3354	-2.5667	169.126	191.255	-38.849	230.974	150.319	-84.929	-82.636	195.347	247.070	-29.389	-54.271	-74.069	226.754	217.059	-49.188	221.938	0.00043131	0.00061481	0.00020714	964.49	1.1489e-05	7.648e-06	1275	360.43	6.4861e-06	9.1894e-06	559.04	245.55	159.31	77.534	7.8541e-06	130.43	0.00064091	0.00063918	0.00017069	873.11	6.8247e-06	6.6861e-06	1154	327.98	6.8319e-06	6.7018e-06	505.56	224.05	146.13	71.3	6.858e-06	118.65	250.285	1.742	23.438	-76.292	45.363	72.307	-76.510	-70.770	71.987	61.612	-71.999	-67.300	-65.974	-60.911	69.534	-63.508	-8191	255	
816.195	1	1	0	0	0.17234	0.28095	0.18201	0.30668	0.11825	0.091109	0.29374	0.26153	0.13838	0.095434	0.11825	0.3511	0.091103	0.23787	0.0051722	0.659	-1.6146	-2.475	-2.0458	-2.4083	-2.3146	-2.2354	-2.5083	-2.4792	-2.0021	-2.5292	-2.225	-2.3542	-2.5479	-2.0812	-2.2542	-2.5187	147.859	-61.980	251.307	249.610	207.557	157.116	240.613	153.209	65.739	194.020	91.183	252.560	92.083	-64.330	171.701	242.306	0.00044496	0.0010263	0.00013263	961.93	6.8189e-06	5.4214e-06	1277.9	359.26	3.4769e-06	5.3348e-06	552.16	243.55	159.57	77.785	5.6424e-06	130.01	0.00065335	0.00061436	0.00016796	868.23	6.6622e-06	6.747e-06	1150.2	326.62	6.7196e-06	6.8493e-06	502	222.86	146.31	71.269	6.7387e-06	118.54	257.177	-17.842	28.921	-76.342	59.855	71.610	-76.539	-70.627	30.451	58.319	-71.819	-67.483	-65.634	-61.233	89.980	-63.292	-8191	255	
816.291	1	1	0	0	0.099896	0.12686	0.22912	0.31938	0.055878	0.1538	0.11339	0.077552	0.06392	0.14931	0.36282	0.30189	0.22101	0.1337	0.035528	0.4838	-1.6292	-2.2583	-2.1875	-2.1229	-2.4062	-2.0417	-2.4917	-2.4917	-1.925	-2.4313	-2.2687	-2.2812	-2.6208	-2.3104	-2.2812	-2.4729	83.284	-25.465	235.239	252.982	-37.271	263.013	150.479	208.681	223.360	163.632	191.491	240.011	240.825	-53.484	108.983	207.135	0.00036234	0.00064413	0.0001303	965.55	6.1594e-06	8.3637e-06	1268.9	356.29	3.6378e-06	1.0178e-05	555.35	242.96	158.74	77.635	5.1525e-06	128.96	0.00063893	0.00059983	0.00017133	868.69	6.677e-06	6.3977e-06	1145.3	325.84	6.5546e-06	6.8284e-06	502.05	222.51	145.78	71.056	6.7019e-06	118.36	253.557	2.677	-7.854	-76.374	101.357	66.384	-76.444	-70.389	85.317	45.272	-71.959	-67.461	-65.780	-61.090	35.905	-63.364	-8191	255	
816.387	1	1	0	0	0.16009	0.29965	0.22559	0.1059	0.011142	0.14436	0.24114	0.21073	0.069245	0.10412	0.321	0.36884	0.1042	0.081226	0.12651	0.38873	-1.5938	-2.3563	-2.1729	-2.2479	-2.5354	-2.0812	-2.3396	-2.4708	-2.0083	-2.4437	-2.4375	-2.3292	-2.4604	-2.1979	-2.3438	-2.4562	-35.301	160.804	249.085	240.021	30.205	44.709	159.850	258.648	62.395	173.313	195.055	207.551	-72.910	173.573	99.860	213.615	0.00034482	0.0015559	0.00021078	958.28	1.7209e-06	1.0496e-05	1267.5	357.8	4.7307e-06	1.1058e-05	550.39	243.74	158.7	77.313	4.1693e-06	130.09	0.00062937	0.00061945	0.00017298	867.17	6.6293e-06	6.6419e-06	1148	325.37	6.5802e-06	6.756e-06	501.01	223.01	146.08	71.034	6.7541e-06	118.47	253.364	-16.434	-12.953	-76.596	81.549	60.207	-76.120	-70.773	85.886	66.508	-71.912	-67.298	-65.468	-61.012	77.290	-63.385	-8191	255	
816.483	1	1	0	0	0.15461	0.081445	0.13781	0.31375	0.26178	0.035923	0.15839	0.14868	0.016658	0.10786	0.15785	0.2003	0.037046	0.34865	0.19667	0.12449	-1.5562	-2.4021	-2.225	-2.1979	-2.3312	-2.1688	-2.2958	-2.4083	-1.8312	-2.2354	-2.2917	-2.2229	-2.5479	-2.3958	-2.1021	-2.6813	138.109	-44.150	-54.910	220.173	128.091	84.690	190.000	228.847	214.619	201.942	-47.159	262.008	-61.701	-85.667	-74.250	246.207	0.000384	0.00061104	0.00019683	962.07	5.9282e-06	8.1791e-06	1268.2	357.86	2.6516e-06	9.3541e-06	552.48	242.82	157.97	77.262	8.9378e-06	130.3	0.00064138	0.000624	0.00017392	868.67	6.6536e-06	6.8598e-06	1146.9	324.97	6.4188e-06	6.5934e-06	501.26	222.58	145.35	71.146	6.9426e-06	118.66	256.806	3.808	39.942	-76.122	105.520	88.038	-76.571	-70.643	43.782	36.915	-71.816	-67.426	-65.682	-61.054	84.182	-63.273	-8191	255	
816.604	1	1	0	0	0.18689	0.24271	0.25148	0.39148	0.056295	0.19945	0.28545	0.28338	0.1933	0.072314	0.13244	0.36477	0.20632	0.21342	0.16862	0.23374	-1.4896	-2.3063	-2.2604	-2.0938	-2.5667	-2.3021	-2.2479	-2.6104	-2.0917	-2.2146	-2.3792	-2.2417	-2.4479	-2.3208	-2.0062	-2.6104	-33.166	49.161	-24.172	196.449	-5.081	138.139	228.389	269.430	79.701	111.350	165.384	225.115	-76.419	196.911	79.755	177.748	0.00036299	0.0011175	0.00025571	961.61	6.5645e-06	6.4357e-06	1268.7	357.83	8.3776e-06	1.8796e-05	545.8	241.23	157.74	76.506	2.1375e-06	128.77	0.00062765	0.00062702	0.00017702	869.54	6.6337e-06	6.6226e-06	1144.4	323.96	6.4425e-06	6.8799e-06	498.02	220.76	144.57	70.403	6.7939e-06	117.38	254.961	-4.238	0.895	-76.014	69.003	76.669	-76.521	-70.907	118.091	56.178	-71.847	-67.668	-65.802	-61.306	54.563	-63.352	-8191	255	
816.700	1	1	0	0	0.16648	0.14248	0.18089	0.048578	0.13003	0.13866	0.11014	0.23336	0.22962	0.10426	0.15593	0.29372	0.30423	0.45499	0.31931	0.32129	-1.6583	-2.3021	-2.45	-2.0979	-2.2917	-2.3438	-2.2625	-2.5354	-2.225	-2.2479	-2.4667	-2.1667	-2.4042	-2.5417	-2.0938	-2.7479	-23.909	14.243	130.013	-71.446	270.706	172.894	-21.284	255.388	86.688	87.389	-82.012	-65.421	255.835	264.799	100.838	188.057	0.00035149	0.0011222	0.00018015	951.97	9.2681e-06	1.1419e-05	1267.4	350.11	6.4089e-06	8.469e-06	548.5	240.58	156.73	76.402	7.7611e-06	127.53	0.00063245	0.00062611	0.00017594	862.47	6.6734e-06	6.7975e-06	1141.2	320.96	6.7182e-06	6.8334e-06	496.42	219.93	143.87	69.971	6.908e-06	116.56	260.752	3.701	20.717	-76.281	84.829	52.117	-76.380	-70.595	85.853	70.630	-71.690	-67.378	-65.635	-60.976	87.255	-63.325	-8191	255	
816.796	1	1	0	0	0.25956	0.097659	0.12099	0.13923	0.076644	0.23027	0.04496	0.2237	0.14388	0.22318	0.2606	0.14957	0.35981	0.33593	0.026854	0.25048	-1.6771	-2.2562	-2.3875	-2.225	-2.3833	-2.3604	-2.2771	-2.6875	-2.1813	-2.1125	-2.7021	-2.3042	-2.3187	-2.3729	-2.0021	-2.6833	210.697	209.788	90.660	-84.699	-21.563	4.766	49.164	-64.017	-24.571	-58.675	220.959	234.147	254.187	258.203	-39.899	229.005	0.0003747	0.00082263	0.00018133	947.04	6.4257e-06	5.5271e-06	1261.7	352.87	5.4903e-06	1.0591e-05	545.4	241.45	157.65	76.477	9.9974e-06	128.21	0.00064702	0.00060608	0.00018055	859.31	6.6169e-06	6.9586e-06	1136.8	321.74	6.9089e-06	6.8792e-06	496.8	220.47	144.42	70.251	6.8e-06	116.9	254.670	-25.735	21.904	-76.309	59.884	61.274	-76.314	-70.746	77.798	78.925	-72.028	-67.420	-65.557	-61.059	78.328	-63.259	-8191	255	
816.892	1	1	0	0	0.2989	0.35645	0.22663	0.43347	0.14814	0.19732	0.20629	0.19818	0.13266	0.11462	0.037109	0.14643	0.054971	0.25302	0.096697	0.30114	-1.8271	-1.9292	-2.4896	-2.1167	-2.2792	-2.3667	-2.0187	-2.5521	-2.0271	-1.8625	-2.4625	-2.1958	-2.3604	-2.6375	-2.0771	-2.5271	263.520	-75.385	200.614	234.950	-43.211	164.926	240.803	164.215	270.289	260.906	169.090	211.164	228.540	-38.878	255.450	190.738	0.00039127	0.0011481	0.00025289	953.29	6.7388e-06	5.2613e-06	1261.2	354.2	6.0556e-06	9.4313e-06	548.98	241.24	156.08	76.249	3.5497e-06	127.93	0.00063385	0.00062824	0.00017545	860.99	6.6914e-06	7.1281e-06	1138.3	323.15	6.7873e-06	6.7551e-06	497.23	220.76	144.02	70.259	6.9967e-06	117.01	257.036	1.169	9.881	-76.326	53.745	41.528	-76.287	-70.692	132.209	65.029	-71.872	-67.352	-65.546	-61.154	149.267	-63.191	-8191	255	
817.011	1	1	0	0	0.017432	0.067977	0.08807	0.3168	0.22033	0.32234	0.23861	0.1013	0.10072	0.056957	0.20964	0.25866	0.11142	0.23404	0.14526	0.35193	-1.6542	-1.9229	-2.3187	-2.3312	-2.0187	-2.4604	-2.2521	-2.3563	-2.175	-1.9708	-2.6354	-2.1458	-2.2104	-2.6937	-2.1771	-2.5417	252.026	105.337	7.022	184.400	-37.914	21.309	204.416	232.349	133.893	101.305	176.025	202.861	262.839	240.656	-82.492	231.954	0.00036507	0.0008398	0.00025476	954.35	8.0802e-06	7.6111e-06	1257.2	353.1	5.3509e-06	7.4822e-06	545.82	241.48	155.47	76.194	7.5378e-06	128.02	0.00066715	0.00061423	0.0001768	860.2	6.7358e-06	7.1241e-06	1139.3	321.69	6.9504e-06	6.8311e-06	495.51	220.52	143.45	70.011	6.933e-06	116.94	253.756	-9.592	3.279	-76.283	57.263	49.382	-76.435	-70.778	73.634	70.221	-71.599	-67.491	-65.586	-61.284	77.258	-63.239	-8191	255	
817.083	1	1	0	0	0.24995	0.1327	0.093647	0.17835	0.1563	0.12001	0.22979	0.35965	0.20212	0.036176	0.36448	0.26715	0.14369	0.37125	0.18577	0.09802	-1.9354	-2.1021	-2.4396	-2.375	-2.2104	-2.5479	-2.3917	-2.4208	-2.2	-2.0604	-2.6458	-2.3396	-2.1021	-2.6792	-2.0917	-2.4875	1.877	-25.289	153.080	-66.854	70.722	155.125	159.304	210.121	90.177	19.703	-64.439	257.426	217.322	-67.673	-19.861	250.486	0.00036964	0.00065939	0.00020351	945.65	1.1044e-05	1.1247e-05	1255.2	350.99	5.0783e-06	6.012e-06	542.84	239.62	155.66	76.03	6.6176e-06	127.51	0.00066082	0.00063293	0.0001825	856.99	6.7992e-06	7.122e-06	1132	319.8	7.2972e-06	6.7671e-06	494.08	219.09	142.99	69.866	7.1191e-06	116.46	258.473	-15.110	-1.270	-76.261	96.267	53.752	-76.559	-70.542	70.187	83.184	-71.807	-67.391	-65.599	-61.235	92.812	-63.170	-8191	255	
817.179	1	1	0	0	0.069275	0.037129	0.11886	0.29915	0.20298	0.21127	0.28418	0.28055	0.25455	0.33913	0.33051	0.079382	0.20768	0.13636	0.1084	0.29827	-1.8125	-1.7708	-2.5292	-2.4938	-2.1229	-2.6146	-2.3229	-2.3667	-2.3646	-1.9083	-2.4938	-2.5292	-2.1937	-2.5625	-2.0854	-2.4521	256.156	265.707	-55.927	-24.276	257.840	45.377	252.581	156.929	99.856	245.097	230.596	133.219	213.860	242.161	157.256	240.137	0.00034582	0.0013454	0.0001982	951.06	1.15e-05	5.5878e-06	1253.2	352.09	3.2067e-06	4.3803e-06	545.95	239.32	157.31	76.342	7.59e-06	128.2	0.000665	0.00062603	0.00017918	860.12	6.7694e-06	7.0682e-06	1136.1	321.67	7.2442e-06	6.8899e-06	496.1	219.78	144.2	70.084	7.2456e-06	116.84	255.067	11.545	9.442	-76.094	56.074	83.428	-76.317	-70.750	120.612	68.777	-71.686	-67.387	-65.510	-61.493	81.322	-63.421	-8191	255	
817.300	1	1	0	0	0.31852	0.11848	0.18191	0.18262	0.1299	0.16027	0.19215	0.15535	0.094128	0.15357	0.036264	0.31065	0.067411	0.07334	0.16278	0.15492	-2.0646	-2.0667	-2.3292	-2.2792	-2.1021	-2.4562	-2.6188	-2.275	-2.3958	-1.9833	-2.3229	-2.4854	-2.2313	-2.5021	-2.2188	-2.1958	85.230	189.130	-81.268	185.852	-63.322	9.577	240.086	225.994	269.154	257.304	264.905	229.934	-88.391	30.241	-53.839	143.360	0.00039464	0.00071219	0.00022816	947.6	9.3475e-06	1.0559e-05	1256.2	352.94	4.8815e-06	1.2463e-05	550.77	239.01	156.35	76.481	6.4382e-06	128.41	0.0006956	0.00064026	0.00018332	858.95	6.9957e-06	7.3271e-06	1136.4	322.22	7.474e-06	6.9997e-06	498.01	219.46	143.8	70.162	7.37e-06	117.1	254.174	-45.343	7.447	-76.355	71.595	109.171	-76.563	-70.665	113.521	35.863	-71.596	-67.336	-65.315	-61.293	44.231	-63.343	-8191	255	
817.396	1	1	0	0	0.10295	0.51461	0.30069	0.26091	0.24739	0.22396	0.26049	0.3355	0.2452	0.13683	0.05642	0.20894	0.3275	0.13859	0.089444	0.28927	-2.05	-1.8021	-2.225	-2.6042	-1.9208	-2.2667	-2.3354	-2.2833	-2.5854	-2.1625	-2.5	-2.5292	-2.1229	-2.425	-2.1167	-2.2167	109.383	-2.558	16.350	240.568	245.554	-3.470	238.602	-87.760	160.478	-73.101	187.305	231.505	258.213	242.957	19.050	185.566	0.00039687	0.001105	0.00029234	960.65	3.3159e-06	5.5047e-06	1274.6	356.22	7.0128e-06	6.9353e-06	549.66	241.4	157.68	76.886	5.5416e-06	130.07	0.00070166	0.0006606	0.00018928	864.91	6.9724e-06	7.2207e-06	1145	324.6	7.2785e-06	7.1128e-06	500.1	221.87	145.44	70.682	7.3333e-06	118.43	252.972	-14.090	-14.644	-76.348	74.681	58.662	-76.472	-70.515	93.154	90.595	-71.578	-67.438	-65.484	-61.167	4.214	-63.232	-8191	255	
817.492	1	1	0	0	0.36273	0.25144	0.2699	0.21074	0.088431	0.14426	0.28256	0.22969	0.14611	0.037349	0.1329	0.37869	0.13374	0.11058	0.11079	0.3638	-1.9875	-2.0208	-2.1771	-2.4896	-1.8937	-2.2125	-2.5438	-2.1292	-2.4229	-2.0771	-2.3083	-2.4646	-2.1042	-2.4604	-2.3604	-2.3229	45.997	-60.687	134.308	264.712	215.588	210.624	254.366	169.302	256.705	192.122	-62.387	225.827	-56.067	199.824	75.276	199.607	0.00037653	0.00075449	0.00013575	960.99	7.5469e-06	5.9677e-06	1273.5	356.79	4.3764e-06	6.5235e-06	550.07	243.21	159.18	77.323	6.1913e-06	129.55	0.00068219	0.00065624	0.00017944	867.54	6.5844e-06	6.8529e-06	1148.7	325.5	6.9872e-06	6.8696e-06	500.8	222.34	145.54	70.938	7.1681e-06	118.05	250.979	-10.189	33.300	-76.140	68.310	71.243	-76.350	-70.530	77.842	62.936	-71.715	-67.157	-65.386	-61.332	53.323	-62.961	-8191	255	
817.613	1	1	0	0	0.16544	0.38208	0.24915	0.15883	0.22706	0.37802	0.11008	0.24673	0.24384	0.011301	0.29645	0.067521	0.068921	0.43625	0.20314	0.45969	-2.0354	-2.0854	-2.1896	-2.5354	-2.0958	-2.0708	-2.5021	-2.1104	-2.3021	-2.2146	-2.2458	-2.8625	-2.15	-2.4333	-2.3958	-2.2812	92.435	143.253	49.120	268.078	-83.883	-71.608	200.468	214.871	117.833	197.552	244.380	-48.070	173.649	-45.649	181.714	232.297	0.00040312	0.00094115	0.00026524	965.64	6.6596e-06	1.1214e-05	1257.9	357.17	3.7295e-06	6.6861e-06	550.2	242.83	157.73	77.103	9.249e-06	128.9	0.00067311	0.00064757	0.00017925	869.06	6.7798e-06	7.201e-06	1141	325.07	6.9013e-06	6.9906e-06	500.18	221.97	145.21	70.838	7.1506e-06	117.69	252.973	-3.779	24.358	-76.313	106.989	54.553	-76.568	-70.547	69.241	52.891	-71.714	-67.285	-65.685	-61.155	41.333	-63.361	-8191	255	
817.684	1	1	0	0	0.37158	0.13685	0.25457	0.40996	0.37229	0.33939	0.1621	0.27736	0.20682	0.29914	0.30331	0.13871	0.4776	0.51528	0.1356	0.24038	-1.8062	-2.3333	-2.1208	-2.6854	-2.0479	-2.3812	-2.5604	-2.1542	-2.2854	-2.3271	-2.2271	-2.5771	-2.3	-2.35	-2.6146	-2.1312	262.105	64.323	35.580	214.077	9.638	83.824	202.852	198.051	104.515	-64.597	263.249	244.164	188.246	260.071	-81.530	196.875	0.00035147	0.0010468	0.00010075	967.61	7.4747e-06	1.2155e-05	1264.4	357.48	7.9109e-06	7.904e-06	549.55	242.16	157.66	76.951	5.8314e-06	128.64	0.00065687	0.00064672	0.00017614	870.9	6.7168e-06	6.9919e-06	1141.9	325.08	6.9132e-06	6.847e-06	499.16	221.41	145.1	70.635	7.2786e-06	117.37	251.338	-20.418	16.743	-76.137	133.269	69.688	-76.542	-70.409	64.190	65.303	-71.594	-67.506	-65.670	-61.044	76.437	-63.143	-8191	255	
817.780	1	1	0	0	0.25355	0.11249	0.15139	0.15943	0.089148	0.24629	0.30986	0.08349	0.054527	0.097619	0.12153	0.39242	0.043193	0.26241	0.2216	0.28686	-1.8333	-2.2792	-1.8271	-2.675	-2.0938	-2.1646	-2.6042	-2.0146	-2.4188	-2.2167	-2.2479	-2.5521	-2.3396	-2.2479	-2.2729	-2.2125	82.090	102.915	4.131	-43.509	222.853	53.760	182.527	-76.260	-2.949	92.392	69.758	226.858	115.914	214.791	58.296	217.324	0.00034283	0.00062795	0.0001844	959.39	7.0247e-06	1.0736e-05	1266.7	356.22	1.1477e-05	7.7023e-06	550.18	242.81	157.94	76.893	6.1053e-06	129.01	0.00067531	0.00065923	0.00018309	866.17	6.8402e-06	7.2072e-06	1142.1	324.71	7.1553e-06	7.0247e-06	499.81	221.64	144.71	70.79	7.2054e-06	117.77	262.297	-11.956	5.694	-76.349	74.790	85.750	-76.398	-70.325	51.819	47.286	-71.874	-67.425	-65.589	-61.184	131.693	-63.165	-8191	255	
817.877	1	1	0	0	0.063572	0.10121	0.15373	0.1315	0.055571	0.23577	0.39089	0.14243	0.25844	0.2155	0.031621	0.23782	0.39463	0.25583	0.24731	0.40753	-1.7917	-2.4771	-1.9521	-2.4292	-2.1229	-2.0604	-2.5292	-2.2729	-2.1562	-2.3479	-2.1521	-2.5729	-2.3021	-2.1083	-2.4542	-2.4479	71.016	9.603	-6.597	-85.025	-31.031	193.801	187.089	271.347	76.579	119.367	106.264	-32.290	-81.636	261.540	77.737	192.058	0.00035484	0.00060745	0.00021223	964.96	7.4889e-06	1.0231e-05	1266.7	357.51	1.3967e-06	1.2296e-05	550.14	242.77	158.84	77.084	6.521e-06	129.39	0.00065285	0.00063691	0.00018092	867.57	6.7178e-06	7.0525e-06	1145.1	325.01	6.7808e-06	7.1311e-06	500.82	222.49	145.6	70.985	6.9586e-06	117.94	252.682	32.782	6.703	-76.142	72.545	66.501	-76.503	-70.587	9.696	47.148	-71.814	-67.459	-65.460	-61.135	51.613	-63.426	-8191	255	
817.973	1	1	0	0	0.035469	0.13449	0.14619	0.24432	0.22873	0.10423	0.1053	0.32363	0.11136	0.15593	0.36309	0.34125	0.13252	0.1753	0.067581	0.061713	-1.6979	-2.4583	-1.9083	-2.3458	-2.3458	-1.9604	-2.6542	-2.1729	-2.3125	-2.5354	-2.3104	-2.6125	-2.6354	-2.3375	-2.5854	-2.425	123.781	54.679	231.594	195.185	228.378	-68.356	136.261	161.582	125.226	50.022	215.986	221.673	131.727	-83.413	-37.425	195.668	0.00034698	0.001159	0.00025746	962.3	5.5664e-06	7.517e-06	1263.4	355.48	5.0966e-06	6.4886e-06	550.07	241.84	158.29	76.659	1.0029e-05	128.62	0.00065483	0.00063604	0.00017026	868.26	6.6943e-06	6.8169e-06	1142.6	324.79	6.8197e-06	6.7325e-06	499.61	221.47	145.17	70.616	7.1791e-06	117.34	241.228	-8.656	5.353	-76.221	85.699	76.452	-76.253	-70.576	85.799	78.939	-71.848	-67.353	-65.559	-61.296	60.726	-63.285	-8191	255	
818.092	1	1	0	0	0.25708	0.10226	0.16297	0.12797	0.067201	0.18632	0.24084	0.49673	0.2266	0.2371	0.19551	0.35444	0.21025	0.28642	0.13681	0.30545	-1.6125	-2.2604	-1.9021	-2.3271	-2.2292	-2.0354	-2.6583	-2.3167	-2.1208	-2.5896	-2.3625	-2.35	-2.6188	-2.0542	-2.4437	-2.4354	198.624	-65.396	85.857	-84.118	-80.219	14.442	116.227	230.831	248.374	235.158	7.477	255.091	194.652	249.534	197.086	270.224	0.00038442	0.0011256	0.00032771	960.23	4.1854e-06	1.2737e-05	1260.8	350.25	2.3478e-06	7.3985e-06	545.02	238.24	155.44	75.753	1.3384e-05	127.22	0.00066354	0.00065118	0.00017373	865.15	6.9386e-06	6.8073e-06	1138.9	321.19	6.8945e-06	7.0901e-06	493.98	218.52	142.94	69.53	7.1736e-06	115.98	253.041	-5.050	13.630	-76.173	70.571	81.660	-76.696	-70.817	93.651	62.304	-71.724	-67.226	-65.778	-61.349	56.366	-63.248	-8191	255	
818.188	1	1	0	0	0.18452	0.14015	0.093776	0.23523	0.21695	0.1593	0.22115	0.21772	0.18415	0.14646	0.095877	0.31953	0.14838	0.41249	0.071864	0.38449	-1.6437	-2.5687	-2.0958	-2.2438	-2.3104	-1.8979	-2.4854	-2.3396	-2.0542	-2.3604	-2.2812	-2.3312	-2.3812	-2.2583	-2.1562	-2.525	-75.192	-72.091	7.674	174.237	-24.042	200.730	151.498	107.674	-34.422	10.816	-60.905	248.351	-5.617	258.126	-88.315	237.402	0.00036759	0.00079313	0.00033386	952.05	6.7164e-06	1.1194e-05	1250.7	352.14	4.7956e-06	8.4494e-06	548.01	240.73	156.98	76.91	9.5697e-06	128.93	0.00067003	0.00065105	0.00018126	857.68	6.9423e-06	7.1268e-06	1132.6	320.88	6.9977e-06	7.3078e-06	498.06	220.5	144.4	70.696	6.7543e-06	117.48	251.421	-8.280	15.299	-76.077	82.402	70.965	-76.515	-70.907	51.568	55.519	-71.730	-67.583	-65.624	-61.162	23.593	-63.230	-8191	255	
818.284	1	1	0	0	0.19208	0.048169	0.033553	0.35385	0.21612	0.206	0.14955	0.19535	0.20756	0.17145	0.33	0.18618	0.27113	0.1702	0.15397	0.047296	-1.5063	-2.4458	-2.0854	-2.3063	-2.3667	-2.1688	-2.475	-2.475	-1.8958	-2.4688	-2.4333	-2.4229	-2.4896	-2.05	-2.325	-2.6271	-16.755	243.158	93.676	237.898	158.279	66.003	171.034	199.860	166.820	187.898	247.372	210.929	-86.255	215.630	128.145	40.541	0.00037137	0.00049879	0.00021953	960.1	8.7789e-06	5.1696e-06	1264.2	356.23	6.4107e-06	1.0067e-05	549.14	241.26	156.79	76.65	1.0086e-05	128.47	0.00064333	0.00062908	0.00017207	864.44	6.7895e-06	6.5799e-06	1140.6	324.05	6.7691e-06	6.9336e-06	499.31	221.25	144.44	70.481	7.0851e-06	117.19	246.592	22.245	6.035	-76.356	62.879	63.233	-76.263	-70.640	80.601	33.651	-71.783	-67.108	-65.292	-61.304	78.676	-63.236	-8191	255	
818.380	1	1	0	0	0.15052	0.17202	0.059456	0.36478	0.070878	0.033909	0.28055	0.21938	0.13494	0.20146	0.098876	0.15946	0.10876	0.31362	0.35086	0.17183	-1.3937	-2.3792	-2.1771	-2.0583	-2.4917	-2.1542	-2.3438	-2.4542	-1.9604	-2.3875	-2.3771	-2.1479	-2.6792	-2.1792	-2.2583	-2.6042	225.595	100.245	128.438	257.064	204.518	241.478	218.098	83.248	-21.168	-65.406	197.622	-28.165	264.073	262.908	-3.231	201.731	0.00037562	0.0012613	0.00018262	952.88	7.8423e-06	3.134e-06	1257.3	352.06	7.2476e-06	7.1435e-06	543.95	239.44	154.72	75.521	2.9602e-06	127.47	0.00066737	0.00066017	0.00018351	861.48	7.1016e-06	7.0006e-06	1136.5	320.89	7.015e-06	7.0047e-06	492.84	218.92	142.41	69.409	7.0923e-06	116.01	256.963	3.501	-3.124	-76.336	56.049	87.808	-76.287	-70.505	67.054	59.412	-71.989	-67.107	-65.652	-61.319	42.589	-63.524	-8191	255	
818.476	1	1	0	0	0.08117	0.15993	0.17419	0.11445	0.14431	0.17781	0.25676	0.16079	0.10917	0.24808	0.255	0.16402	0.20619	0.076006	0.29977	0.34933	-1.4	-2.2729	-2.2812	-2.1333	-2.3104	-2.2313	-2.2875	-2.5229	-1.9354	-2.3646	-2.4979	-2.0438	-2.4813	-2.3979	-1.9833	-2.6896	77.821	84.778	-49.562	-65.039	5.255	-16.577	193.439	-82.258	-11.190	35.541	195.291	218.779	254.706	-75.613	-17.307	210.223	0.0004409	0.0010631	0.00019469	950.71	9.3892e-06	5.8138e-06	1259.9	354.8	7.4744e-06	1.2181e-05	545.05	240.77	157	76.215	7.4414e-06	129.06	0.00064178	0.00065281	0.00017374	858.21	6.8849e-06	6.9764e-06	1133.9	321.28	7.0188e-06	6.8439e-06	494.95	220.04	143.78	70.124	6.9785e-06	117.53	255.829	-24.169	8.601	-76.123	80.598	77.279	-76.462	-70.644	60.023	45.928	-71.953	-67.505	-65.609	-61.092	76.627	-63.310	-8191	255	
818.572	1	1	0	0	0.22635	0.24265	0.099717	0.25103	0.13931	0.21376	0.12279	0.14256	0.17082	0.1266	0.17909	0.31143	0.24223	0.15728	0.19282	0.24321	-1.6146	-2.1375	-2.125	-1.9708	-2.3187	-2.1083	-2.3542	-2.5271	-1.775	-2.3542	-2.3854	-1.95	-2.45	-2.3583	-1.8875	-2.5333	80.159	68.143	-80.236	219.396	-11.898	-19.087	30.776	241.416	140.278	50.775	91.247	261.599	211.263	-85.191	-8.383	252.772	0.00041093	0.0013493	0.00030135	951.86	8.8671e-06	5.0834e-06	1263.3	352.61	4.8998e-06	1.0303e-05	547.52	242.1	157.73	77.129	4.9558e-06	129.01	0.00063021	0.0006065	0.00016977	860.55	6.4625e-06	6.5856e-06	1138.1	321.94	6.5984e-06	6.8441e-06	497.25	221.54	144.95	70.674	7.0255e-06	118.01	254.370	17.239	11.460	-76.070	98.834	42.269	-76.439	-70.567	85.837	67.819	-71.808	-67.442	-65.647	-61.125	100.368	-63.121	-8191	255	
818.693	1	1	0	0	0.17952	0.20638	0.22609	0.15856	0.14125	0.065104	0.24557	0.3271	0.15175	0.059481	0.11202	0.21406	0.30087	0.18684	0.30406	0.2098	-1.5208	-2.0229	-2.2875	-2.1208	-2.2083	-2.0875	-2.1521	-2.575	-2.0333	-2.0479	-2.7167	-2.0938	-2.4875	-2.4458	-1.9708	-2.6437	78.541	222.616	-80.689	-13.072	-45.049	95.359	165.109	221.270	122.360	82.131	209.815	222.762	252.851	192.067	236.787	232.973	0.00034189	0.0010347	0.00027884	953.7	7.466e-06	1.049e-05	1265.7	358.97	4.8919e-06	5.7538e-06	551.52	245.39	159.77	78.163	5.9252e-06	130.98	0.00064878	0.00062183	0.00017795	863.76	6.6043e-06	6.6069e-06	1143.3	325.3	6.298e-06	6.5671e-06	502.69	224.46	146.63	71.585	6.6156e-06	119.32	257.707	7.918	20.407	-76.321	70.205	76.533	-76.504	-70.722	84.862	65.027	-71.666	-67.553	-65.723	-61.144	49.835	-63.452	-8191	255	
818.787	1	1	0	0	0.052333	0.18178	0.25437	0.43967	0.16461	0.12426	0.14913	0.11083	0.31667	0.011831	0.34008	0.56293	0.19794	0.19388	0.23761	0.19699	-1.6938	-2.0917	-2.4021	-1.9208	-2.3083	-2.3146	-2.1979	-2.5	-2.0729	-1.9688	-2.4146	-2.2396	-2.5042	-2.4146	-1.925	-2.5667	26.986	237.508	53.444	263.728	141.880	-53.407	249.814	169.447	11.819	-72.311	249.245	239.137	254.932	268.434	4.443	-86.014	0.00042346	0.0015214	0.00015043	968.35	7.9705e-06	5.6664e-06	1277.5	360.88	5.8335e-06	9.4229e-06	561.85	246.31	160.73	78.743	8.1945e-06	131.58	0.0006182	0.0005868	0.00016701	872.98	6.3641e-06	6.3088e-06	1153.3	329.35	6.3406e-06	6.228e-06	508.61	226.16	147.82	72.128	6.4954e-06	120.11	256.537	-6.235	8.036	-76.255	76.968	83.576	-76.223	-70.810	55.187	24.718	-71.788	-67.321	-65.692	-61.205	62.522	-63.283	-8191	255	
818.884	1	1	0	0	0.18277	0.16508	0.16697	0.28122	0.32308	0.31184	0.37563	0.099542	0.14619	0.1662	0.23122	0.34443	0.2018	0.2451	0.18335	0.293	-1.5938	-2.1021	-2.3354	-2.1375	-2.2812	-2.2417	-2.0792	-2.475	-2.2729	-1.8687	-2.6646	-2.3542	-2.4042	-2.5521	-1.975	-2.5062	100.474	223.569	14.603	-88.451	151.280	226.533	233.609	-39.297	183.090	267.836	251.781	262.007	-77.907	254.662	56.699	215.299	0.00038022	0.0012448	0.00020912	967.39	9.3421e-06	7.2009e-06	1271.9	357.41	5.7832e-06	3.5671e-06	553.36	244.27	158.67	77.526	6.6058e-06	130.02	0.00061235	0.00059113	0.0001646	870.8	6.364e-06	6.4626e-06	1146	326.32	6.4175e-06	6.4312e-06	503.16	223.74	146.1	71.114	6.5733e-06	118.32	255.712	-16.141	-1.145	-76.398	70.032	37.541	-76.374	-70.766	77.189	86.834	-71.524	-67.396	-65.744	-61.222	34.549	-63.448	-8191	255	
818.980	1	1	0	0	0.2013	0.097512	0.38973	0.24118	0.1118	0.10858	0.12177	0.15776	0.16882	0.22993	0.089153	0.2127	0.23005	0.19654	0.15057	0.17078	-1.8542	-1.9271	-2.2021	-2.4083	-2.1208	-2.3979	-2.1354	-2.2917	-2.3875	-2.1833	-2.525	-2.375	-2.2729	-2.4042	-2.1437	-2.5625	-25.750	29.360	128.078	216.331	125.361	-76.686	-68.909	172.829	131.527	263.600	255.065	209.120	178.679	235.085	56.923	192.022	0.0003707	0.0012043	0.00020281	958.29	6.7925e-06	1.0602e-05	1263.2	358.2	9.4935e-07	1.0576e-05	554.02	243.36	158.46	77.122	4.9187e-06	129.74	0.00063533	0.00059272	0.00017075	866.14	6.3279e-06	6.7151e-06	1142.5	325.16	6.6263e-06	6.6517e-06	501.46	222.44	145.58	70.808	6.6732e-06	118.31	255.302	39.560	2.590	-76.187	53.488	58.467	-76.081	-70.460	89.222	31.630	-71.665	-67.302	-65.276	-61.218	64.529	-63.351	-8191	255	
#DATA ENDS
