BOXY.EXE: ISS Imagent and Oximeter Data Acquisition Program Version 0.80
Ascii Record File

#ACQ INFORMATION
2  Detector Channels 
16  External MUX Channels 
1  Auxiliary Channels 
5000  Waveform (CCF) Frequency (Hz)
1  Waveforms Skipped 
30  Waveforms Averaged 
1  Cycles Averaged 
16  Acquisitions per Waveform 
10.0806  Updata Rate (Hz) 

#FILE INFORMATION
TRUE -- External MUX Channel results are PARSED.
FALSE -- AC DC and Phase are NOT grouped.
TRUE -- Companion Program Settings File CREATED.
FALSE -- AC data not excluded
FALSE -- DC data not excluded
FALSE -- Phase data not excluded
FALSE -- Auxillary Chn. data not excluded
Tab delimiters

#CALIBRATION STATE
TRUE -- Waveform Calibration Values APPLIED.


#AUX CALIBRATION VALUES
Val Type	aux-1	

Term	1.0000e+00	
Factor	0.0000e+00	


#WF CALIBRATION VALUES
A = Detector Channel
Val Type	A-AC1	A-AC2	A-AC3	A-AC4	A-AC5	A-AC6	A-AC7	A-AC8	A-AC9	A-AC10	A-AC11	A-AC12	A-AC13	A-AC14	A-AC15	A-AC16	A-DC1	A-DC2	A-DC3	A-DC4	A-DC5	A-DC6	A-DC7	A-DC8	A-DC9	A-DC10	A-DC11	A-DC12	A-DC13	A-DC14	A-DC15	A-DC16	A-Ph1	A-Ph2	A-Ph3	A-Ph4	A-Ph5	A-Ph6	A-Ph7	A-Ph8	A-Ph9	A-Ph10	A-Ph11	A-Ph12	A-Ph13	A-Ph14	A-Ph15	A-Ph16	

Term	0.00000e+00	0.00000e+00	0.00000e+00	0.00000e+00	0.00000e+00	0.00000e+00	0.00000e+00	0.00000e+00	0.00000e+00	0.00000e+00	0.00000e+00	0.00000e+00	0.00000e+00	0.00000e+00	0.00000e+00	0.00000e+00	0.00000e+00	0.00000e+00	0.00000e+00	0.00000e+00	0.00000e+00	0.00000e+00	0.00000e+00	0.00000e+00	0.00000e+00	0.00000e+00	0.00000e+00	0.00000e+00	0.00000e+00	0.00000e+00	0.00000e+00	0.00000e+00	0.00000e+00	0.00000e+00	0.00000e+00	0.00000e+00	0.00000e+00	0.00000e+00	0.00000e+00	0.00000e+00	0.00000e+00	0.00000e+00	0.00000e+00	0.00000e+00	0.00000e+00	0.00000e+00	0.00000e+00	0.00000e+00	
Factor	1.00000e+00	1.00000e+00	1.00000e+00	1.00000e+00	1.00000e+00	1.00000e+00	1.00000e+00	1.00000e+00	1.00000e+00	1.00000e+00	1.00000e+00	1.00000e+00	1.00000e+00	1.00000e+00	1.00000e+00	1.00000e+00	1.00000e+00	1.00000e+00	1.00000e+00	1.00000e+00	1.00000e+00	1.00000e+00	1.00000e+00	1.00000e+00	1.00000e+00	1.00000e+00	1.00000e+00	1.00000e+00	1.00000e+00	1.00000e+00	1.00000e+00	1.00000e+00	X	X	X	X	X	X	X	X	X	X	X	X	X	X	X	X	

B = Detector Channel
Val Type	B-AC1	B-AC2	B-AC3	B-AC4	B-AC5	B-AC6	B-AC7	B-AC8	B-AC9	B-AC10	B-AC11	B-AC12	B-AC13	B-AC14	B-AC15	B-AC16	B-DC1	B-DC2	B-DC3	B-DC4	B-DC5	B-DC6	B-DC7	B-DC8	B-DC9	B-DC10	B-DC11	B-DC12	B-DC13	B-DC14	B-DC15	B-DC16	B-Ph1	B-Ph2	B-Ph3	B-Ph4	B-Ph5	B-Ph6	B-Ph7	B-Ph8	B-Ph9	B-Ph10	B-Ph11	B-Ph12	B-Ph13	B-Ph14	B-Ph15	B-Ph16	

Term	0.00000e+00	0.00000e+00	0.00000e+00	0.00000e+00	0.00000e+00	0.00000e+00	0.00000e+00	0.00000e+00	0.00000e+00	0.00000e+00	0.00000e+00	0.00000e+00	0.00000e+00	0.00000e+00	0.00000e+00	0.00000e+00	0.00000e+00	0.00000e+00	0.00000e+00	0.00000e+00	0.00000e+00	0.00000e+00	0.00000e+00	0.00000e+00	0.00000e+00	0.00000e+00	0.00000e+00	0.00000e+00	0.00000e+00	0.00000e+00	0.00000e+00	0.00000e+00	-1.23726e+02	-1.39918e+02	-1.78938e+02	-1.81413e+02	-3.50059e+01	-7.24347e+01	-1.57789e+02	-1.62015e+02	-7.41590e+01	-9.50557e+01	-1.80411e+02	-1.70917e+02	-1.81322e+02	-1.76271e+02	-8.71251e+01	-1.49364e+02	
Factor	1.81544e-05	1.23178e-04	2.51159e-05	1.85326e-01	8.05980e-07	9.73926e-07	1.72092e-01	5.34215e-02	8.30615e-07	1.09759e-06	1.07935e-01	3.07122e-02	2.47813e-02	9.40291e-03	9.68748e-07	1.38253e-02	5.41759e-07	5.53856e-07	1.53778e-07	8.86287e-02	6.03997e-09	6.06804e-09	7.82073e-02	2.56647e-02	6.05508e-09	6.07195e-09	4.76290e-02	1.39290e-02	1.17526e-02	4.39035e-03	6.05682e-09	6.14778e-03	X	X	X	X	X	X	X	X	X	X	X	X	X	X	X	X	



#DISTANCE SETTINGS
A = Detector Channel
A-1	A-2	A-3	A-4	A-5	A-6	A-7	A-8	A-9	A-10	A-11	A-12	A-13	A-14	A-15	A-16	

2.5000e+00	3.0000e+00	2.5000e+00	3.0000e+00	2.0000e+00	3.0000e+00	1.5000e+00	3.0000e+00	3.0000e+00	3.0000e+00	3.0000e+00	3.0000e+00	3.0000e+00	3.0000e+00	1.5000e+00	3.0000e+00	

B = Detector Channel
B-1	B-2	B-3	B-4	B-5	B-6	B-7	B-8	B-9	B-10	B-11	B-12	B-13	B-14	B-15	B-16	

1.0000e+01	1.0000e+01	1.0000e+01	1.4400e+00	1.0000e+01	1.0000e+01	1.5100e+00	1.9400e+00	1.0000e+01	1.0000e+01	1.9900e+00	2.4900e+00	2.4100e+00	2.9000e+00	1.0000e+01	2.9800e+00	




#DATA BEGINS
time	group	step	mark	flag	A-AC1	A-AC2	A-AC3	A-AC4	A-AC5	A-AC6	A-AC7	A-AC8	A-AC9	A-AC10	A-AC11	A-AC12	A-AC13	A-AC14	A-AC15	A-AC16	A-DC1	A-DC2	A-DC3	A-DC4	A-DC5	A-DC6	A-DC7	A-DC8	A-DC9	A-DC10	A-DC11	A-DC12	A-DC13	A-DC14	A-DC15	A-DC16	A-Ph1	A-Ph2	A-Ph3	A-Ph4	A-Ph5	A-Ph6	A-Ph7	A-Ph8	A-Ph9	A-Ph10	A-Ph11	A-Ph12	A-Ph13	A-Ph14	A-Ph15	A-Ph16	B-AC1	B-AC2	B-AC3	B-AC4	B-AC5	B-AC6	B-AC7	B-AC8	B-AC9	B-AC10	B-AC11	B-AC12	B-AC13	B-AC14	B-AC15	B-AC16	B-DC1	B-DC2	B-DC3	B-DC4	B-DC5	B-DC6	B-DC7	B-DC8	B-DC9	B-DC10	B-DC11	B-DC12	B-DC13	B-DC14	B-DC15	B-DC16	B-Ph1	B-Ph2	B-Ph3	B-Ph4	B-Ph5	B-Ph6	B-Ph7	B-Ph8	B-Ph9	B-Ph10	B-Ph11	B-Ph12	B-Ph13	B-Ph14	B-Ph15	B-Ph16	aux-1	digaux	

1647.356	1	1	0	256	0.067456	0.21369	0.076821	0.27029	0.053465	0.12405	0.26891	0.089993	0.1503	0.27136	0.12251	0.18133	0.074007	0.17036	0.15911	0.09237	-2.525	-2.3771	-3.2229	-2.7021	-2.7625	-3.2104	-2.5521	-3.1229	-3.0625	-2.4792	-3.1542	-2.9458	-2.725	-3.4146	-2.4771	-2.8667	242.712	264.474	198.570	239.979	229.737	196.118	205.270	-26.789	129.360	-19.715	171.231	-25.324	-78.917	-65.935	-27.800	-75.100	0.00028662	0.00072488	4.449e-05	481.44	1.3623e-05	1.6251e-05	526.27	182.27	9.1008e-06	1.3425e-05	224.47	84.725	68.098	27.717	5.8478e-06	33.03	0.0014559	0.0013504	0.00035957	683.28	1.6042e-05	1.4595e-05	668.99	237.41	1.5965e-05	1.4816e-05	310.08	115.42	92.242	35.145	1.4979e-05	46.357	-57.345	255.594	-79.828	-74.068	35.853	61.830	-75.391	-69.348	56.802	9.247	-72.145	-67.924	-65.212	-60.152	197.545	-63.704	-8191	255	
1647.452	1	1	0	0	0.1481	0.084972	0.1361	0.084004	0.21388	0.10128	0.27394	0.21906	0.03747	0.13223	0.16258	0.36023	0.067014	0.087818	0.07729	0.12332	-2.6562	-2.3833	-3.225	-2.9375	-2.7333	-3.1979	-2.7521	-2.8542	-2.9875	-2.4229	-3.0042	-3.0021	-2.5208	-3.4375	-2.6937	-2.6958	-69.709	125.475	-61.591	192.895	115.021	119.887	190.407	229.394	256.424	-0.337	16.341	240.024	128.909	-70.109	128.509	77.379	0.00027588	0.0027336	0.00037213	480.75	1.0943e-05	3.3361e-06	520.42	180.38	4.97e-06	3.9134e-06	220.74	83.943	67.921	27.339	1.2877e-05	32.781	0.0014242	0.0013514	0.00038529	690.64	1.5659e-05	1.4422e-05	678.11	237.62	1.542e-05	1.4485e-05	315.43	114.84	91.123	34.621	1.6082e-05	45.833	-45.982	-3.145	145.562	-73.863	93.272	235.063	-75.803	-69.146	173.399	87.983	-72.103	-68.319	-65.021	-60.541	200.115	-64.111	-8191	255	
1647.548	1	1	0	0	0.204	0.14736	0.13032	0.11143	0.23906	0.08414	0.063494	0.18867	0.093504	0.16387	0.17701	0.3491	0.25208	0.06233	0.079856	0.27279	-2.6229	-2.4083	-2.9792	-2.9125	-2.4292	-3.3063	-2.7083	-2.6562	-3.0458	-2.6208	-3.2479	-3.0104	-2.4979	-3.1708	-2.6708	-2.7687	103.511	139.115	-47.693	127.909	151.394	-28.573	-19.218	216.994	267.501	-58.774	115.283	131.650	184.204	-72.524	59.391	64.031	8.9177e-05	0.0015299	0.00031247	475.82	4.8337e-06	9.4353e-06	514.07	180.01	4.9715e-06	4.5494e-06	218.94	84.18	67.626	27.061	1.1399e-05	32.169	0.0013729	0.0013369	0.00041491	684.34	1.5363e-05	1.442e-05	690.42	235.64	1.5028e-05	1.4565e-05	323.66	112.71	90.269	34.675	1.7162e-05	45.012	-84.793	-22.963	84.719	-73.725	61.009	96.289	-75.434	-69.002	161.546	134.927	-71.488	-68.012	-65.443	-59.946	162.555	-63.796	-8191	255	
1647.644	1	1	0	0	0.24828	0.19515	0.047633	0.16051	0.17742	0.17592	0.19599	0.088518	0.20887	0.11685	0.20732	0.29253	0.15598	0.0258	0.3497	0.095012	-2.8542	-2.5938	-2.725	-3.2771	-2.5271	-3.15	-2.9354	-2.6458	-3.2479	-2.6188	-3.0687	-3.0938	-2.6875	-3.1583	-2.8729	-2.6312	133.827	110.362	-39.178	230.497	261.074	220.615	220.902	150.969	259.323	-82.578	242.228	132.081	199.675	-58.847	234.918	221.317	5.9471e-05	0.00097472	4.3409e-05	482.06	1.0967e-05	1.4369e-05	515.8	179.17	4.9738e-06	1.6764e-05	219.5	83.717	68.588	27.039	7.814e-06	32.83	0.0013555	0.0013745	0.00044887	679.05	1.5332e-05	1.537e-05	708.06	234.15	1.5324e-05	1.586e-05	334.69	112.73	90.988	35.856	1.8374e-05	45.116	45.915	193.607	208.235	-74.064	-57.298	260.246	-75.472	-69.063	-1.258	155.443	-71.783	-67.849	-65.400	-59.971	-36.947	-64.251	-8191	255	
1647.741	1	1	0	0	0.2429	0.3285	0.20409	0.21338	0.27971	0.14355	0.17298	0.17815	0.066541	0.24952	0.1184	0.107	0.15247	0.37152	0.09261	0.16706	-2.8521	-2.7354	-2.7021	-3.1854	-2.5042	-3.0979	-3.1437	-2.6125	-3.3229	-2.7562	-2.7729	-3.0875	-2.6896	-3.0062	-2.9417	-2.5854	-79.178	81.974	161.802	234.287	246.321	-3.998	173.474	90.005	71.688	65.379	187.082	208.136	74.123	-50.131	-37.073	-82.454	0.00023797	0.0021715	0.00027721	482.27	5.0112e-06	1.0614e-05	521.64	179.76	8.0948e-06	1.5802e-05	225.29	84.711	68.462	27.232	1.3207e-05	32.604	0.0013731	0.001518	0.00046701	677.84	1.5469e-05	1.7012e-05	717.24	234.98	1.5473e-05	1.778e-05	340.62	114.26	92.867	37.617	1.8766e-05	45.593	269.912	154.263	22.081	-73.607	79.640	178.101	-74.937	-69.144	174.661	225.468	-72.316	-68.245	-65.227	-60.635	54.779	-63.988	-8191	255	
1647.835	1	1	0	0	0.22369	0.12296	0.13956	0.11795	0.27072	0.2637	0.055934	0.21852	0.27777	0.10098	0.041819	0.2341	0.20252	0.052265	0.11543	0.061817	-2.7271	-2.8187	-2.6688	-3.325	-2.5771	-2.8375	-3	-2.5542	-3.2146	-2.8125	-2.7292	-3.3104	-2.3833	-2.9062	-3.0312	-2.4813	-19.313	18.355	256.807	193.410	36.823	225.242	243.569	-68.142	251.385	173.825	249.602	151.801	211.848	208.412	92.166	142.416	0.00015482	0.0020994	0.0003438	484.51	7.0978e-06	4.0731e-06	522.3	179.19	8.8982e-06	1.4178e-05	224.6	84.336	68.427	27.212	7.1606e-06	32.328	0.0014383	0.0017297	0.00048114	688.72	1.6573e-05	1.9458e-05	723.55	237.36	1.6833e-05	2.0075e-05	343.34	115.31	95.98	39.235	1.9038e-05	46.157	241.067	144.759	-41.385	-74.014	-84.156	172.082	-75.313	-69.024	191.415	229.755	-72.392	-68.042	-65.279	-59.999	58.477	-64.357	-8191	255	
1647.933	1	1	0	0	0.25144	0.072214	0.17496	0.034735	0.14423	0.017822	0.15185	0.29183	0.2786	0.02265	0.11247	0.19502	0.077672	0.11625	0.23929	0.1435	-2.6604	-2.6729	-2.5	-3.2125	-2.6375	-2.8854	-3.1896	-2.4313	-3.0292	-2.9188	-2.5687	-3.4271	-2.4854	-2.9625	-3.1188	-2.5854	259.604	78.150	-58.790	5.566	-79.801	204.691	116.430	270.562	40.437	146.411	105.635	-86.152	-27.454	191.683	107.619	215.236	0.00033321	0.0019472	0.00027031	479.23	6.4335e-06	6.231e-06	517.15	178.14	1.1662e-05	5.0537e-06	226.47	84.947	68.933	27.517	1.0625e-05	32.561	0.0016064	0.0019246	0.00048907	694.5	1.8452e-05	2.1266e-05	721.48	238.55	1.8786e-05	2.1291e-05	342.94	115.88	99.909	39.732	1.87e-05	46.268	166.497	91.361	-38.575	-73.620	217.607	115.564	-75.551	-69.216	203.949	14.052	-72.495	-68.001	-64.766	-60.526	-26.954	-64.026	-8191	255	
1648.052	1	1	0	0	0.071994	0.11761	0.083528	0.094745	0.21331	0.23437	0.1135	0.23005	0.36779	0.14857	0.22851	0.043462	0.065297	0.13137	0.28596	0.13705	-2.65	-3.0042	-2.4	-3.3	-2.5708	-2.8604	-3.225	-2.3563	-2.9333	-2.9	-2.6125	-3.2458	-2.8021	-2.7667	-3.2438	-2.6667	140.291	84.115	102.019	-51.088	-47.778	13.859	60.651	143.158	165.796	98.399	232.239	206.282	-73.864	-3.935	-9.280	250.876	0.00053354	0.0015633	0.00019401	486.06	1.8806e-05	8.9692e-06	530.55	180.6	1.3225e-05	1.2813e-05	231.2	84.702	69.357	27.757	1.4109e-05	33.018	0.0017617	0.0019247	0.00047785	699.54	2.0114e-05	2.0989e-05	727.05	240.48	2.0347e-05	2.0578e-05	343.61	115.86	102.32	39.043	1.7706e-05	46.344	188.478	-15.505	270.882	-74.107	221.675	-30.030	-75.527	-69.138	213.603	0.549	-71.435	-68.182	-65.316	-60.735	29.179	-63.873	-8191	255	
1648.148	1	1	0	0	0.22193	0.24736	0.26827	0.22385	0.11248	0.075151	0.11389	0.16531	0.13058	0.23194	0.21367	0.07287	0.12313	0.10167	0.14042	0.11224	-2.4604	-3.0667	-2.3979	-3.1208	-2.8688	-2.6958	-3.25	-2.6917	-2.8104	-3.1208	-2.4313	-3.2229	-2.8167	-2.5125	-3.3896	-2.6562	-28.072	16.669	-37.736	179.664	167.251	189.285	100.227	145.384	224.745	128.096	1.790	137.227	141.980	29.818	117.350	141.336	0.00028378	0.0011303	0.00031551	504.92	2.2311e-06	1.0392e-05	557.42	184.14	7.0776e-06	1.5842e-05	234.12	86.714	70.167	28.082	7.6929e-06	33.506	0.0017921	0.0017425	0.00044254	704.62	1.9772e-05	1.8569e-05	726.39	240.25	1.9396e-05	1.7863e-05	332.47	115.7	100.88	37.41	1.5873e-05	46.384	184.650	-52.800	256.517	-73.777	-52.782	99.250	-75.443	-68.885	226.839	59.139	-72.092	-68.046	-64.766	-60.707	-22.196	-64.525	-8191	255	
1648.244	1	1	0	0	0.11143	0.21951	0.26442	0.21842	0.084821	0.023217	0.16625	0.28822	0.088757	0.14095	0.059881	0.21408	0.21132	0.32768	0.12115	0.032639	-2.3875	-3.1229	-2.5354	-3.0604	-2.95	-2.4583	-3.2521	-2.6792	-2.8417	-3.1625	-2.475	-3.1521	-2.9375	-2.5729	-3.0771	-2.7771	47.309	49.666	159.053	82.869	-48.452	-6.788	226.404	127.847	154.885	-5.777	-4.658	100.234	260.354	254.309	261.719	52.168	0.00012007	0.0019228	6.9008e-05	504.74	5.1149e-06	1.3664e-05	566.75	184.5	1.2241e-05	1.5052e-05	233.84	86.618	70.661	27.632	1.4191e-05	32.866	0.0017072	0.0015568	0.00040221	714.77	1.8762e-05	1.668e-05	720.42	242.39	1.8301e-05	1.6352e-05	324.5	117.08	98.601	36.337	1.5048e-05	46.643	-83.831	-2.371	182.487	-73.882	113.143	-44.044	-75.353	-69.016	24.270	-11.336	-72.160	-68.052	-64.892	-60.532	-48.644	-64.354	-8191	255	
1648.365	1	1	0	0	0.11863	0.098616	0.047769	0.13436	0.063141	0.038848	0.23708	0.093502	0.12939	0.39052	0.099094	0.12188	0.12202	0.11377	0.15673	0.10532	-2.0896	-3.0208	-2.55	-2.9083	-3.1792	-2.3979	-3.1375	-2.9271	-2.6875	-3.4104	-2.4104	-3.0354	-3.1146	-2.5771	-3.1271	-2.8	-21.429	150.378	72.557	213.190	87.121	-0.358	-30.440	176.005	-84.450	25.435	234.787	-71.480	-44.457	-18.062	-52.918	-35.354	0.00013855	0.0013209	0.00017497	505.44	7.6939e-06	8.1705e-06	562.58	186.69	1.8742e-05	2.08e-05	236.41	87.002	71.292	27.707	1.7309e-05	33.272	0.0015963	0.0014492	0.00038453	718.75	1.7373e-05	1.5731e-05	711.51	245.19	1.7019e-05	1.5381e-05	324.05	118.29	95.942	35.783	1.4911e-05	47.201	17.129	17.921	89.066	-73.854	99.796	38.002	-75.272	-69.007	70.456	2.972	-71.825	-67.925	-65.435	-60.383	173.763	-63.914	-8191	255	
1648.436	1	1	0	0	0.20465	0.13444	0.23812	0.10186	0.14588	0.41523	0.2863	0.19103	0.12305	0.075603	0.32502	0.3351	0.1561	0.30196	0.28172	0.31225	-2.1	-3.1104	-2.5667	-2.9208	-3.1792	-2.5125	-3.275	-2.7917	-2.5438	-3.2812	-2.4333	-2.9188	-3.2146	-2.3937	-2.9271	-2.8812	-0.756	44.752	45.137	61.674	78.802	106.198	218.887	30.526	-36.158	-79.868	109.943	247.373	221.766	-24.124	238.256	-35.142	0.00011095	0.0017623	0.00025372	517.71	9.0196e-06	1.5946e-05	566.84	187.66	9.6056e-06	6.5458e-06	234.88	88.451	71.407	27.952	2.496e-05	33.865	0.0014795	0.0013591	0.00038773	727.76	1.5938e-05	1.4977e-05	723.07	246.59	1.5903e-05	1.4606e-05	329.99	119.48	94.608	35.537	1.5903e-05	47.225	191.113	-15.269	120.570	-73.664	84.351	33.668	-75.308	-68.743	34.591	-85.820	-72.058	-67.455	-65.375	-60.010	208.268	-64.097	-8191	255	
1648.532	1	1	0	0	0.22664	0.42888	0.14878	0.10491	0.16314	0.17739	0.070168	0.1667	0.26073	0.20732	0.0014995	0.15076	0.044858	0.10099	0.029924	0.21762	-2.2146	-3.1396	-2.7396	-2.8833	-3.2333	-2.5729	-3.1	-3.0083	-2.5854	-3.075	-2.7917	-2.8458	-3.3667	-2.5979	-2.8937	-3.1104	194.832	143.730	51.142	187.926	-35.906	198.687	-76.094	-75.374	-5.867	198.790	180.000	-10.734	138.784	-15.794	-77.676	220.958	6.1522e-05	0.00073312	0.00043255	519.75	1.0309e-05	3.5787e-06	571.57	188.11	7.8411e-06	1.1765e-05	237.12	89.331	71.951	27.931	1.586e-05	33.836	0.0014052	0.001332	0.00041023	719.69	1.5204e-05	1.4352e-05	738.08	243.17	1.4939e-05	1.4225e-05	336.93	117.67	93.162	35.254	1.6651e-05	46.299	-35.329	113.782	77.375	-74.193	65.783	234.505	-75.760	-68.956	65.429	122.435	-71.654	-67.960	-65.214	-60.323	228.133	-63.904	-8191	255	
1648.653	1	1	0	0	0.030806	0.12551	0.016145	0.09834	0.14197	0.16373	0.1075	0.32023	0.1214	0.13746	0.098341	0.082785	0.12923	0.13296	0.099089	0.079253	-2.1542	-3.0875	-2.6792	-2.5604	-3.2229	-2.4938	-2.9146	-3.2083	-2.4729	-3.1521	-2.9771	-2.6604	-3.3542	-2.5396	-2.8187	-3.0917	29.633	162.788	172.338	150.615	61.176	142.571	-21.443	242.666	67.242	173.190	38.025	-83.757	264.027	216.185	209.316	111.827	3.7173e-05	0.00072638	0.00038101	515.39	1.9557e-06	8.1502e-06	558.72	186.16	1.252e-05	1.0801e-05	231.79	87.883	70.418	27.264	3.6316e-06	33.05	0.0013447	0.0013223	0.00043658	707.12	1.5009e-05	1.4973e-05	742.07	240.15	1.5429e-05	1.5407e-05	346.44	117.16	93.59	36.232	1.8894e-05	46.031	115.954	166.569	156.821	-73.954	146.963	53.328	-75.237	-69.136	63.891	185.207	-71.650	-68.152	-65.142	-60.596	97.346	-63.820	-8191	255	
1648.748	1	1	0	0	0.15131	0.12932	0.11507	0.2232	0.046367	0.13761	0.18024	0.22276	0.26095	0.089495	0.1063	0.21152	0.1094	0.097078	0.073618	0.11291	-1.9104	-3.1646	-2.7542	-2.3229	-3.2333	-2.5312	-2.9104	-3.2083	-2.5	-3.0687	-2.9917	-2.7646	-3.2313	-2.6208	-2.6729	-3.1667	154.234	-16.041	125.661	-29.836	198.067	-4.252	33.099	228.282	61.965	146.590	-75.809	272.394	167.995	-40.955	246.632	-74.626	0.00016234	0.002849	0.00041966	482.22	1.2272e-05	2.1818e-05	521.51	179.16	5.0735e-06	1.8076e-05	225.22	85.5	69.626	27.013	1.2365e-05	32.353	0.0014422	0.0015395	0.00049279	696.32	1.6162e-05	1.7684e-05	735.69	238.23	1.6628e-05	1.8379e-05	354.47	117.56	95.359	38.077	2.0292e-05	46.525	-82.637	97.660	195.696	-74.263	53.956	216.824	-75.444	-69.427	33.143	191.016	-72.480	-68.069	-65.722	-59.897	25.683	-64.253	-8191	255	
1648.844	1	1	0	0	0.14964	0.17231	0.17162	0.076509	0.14934	0.077592	0.12286	0.11644	0.2704	0.19258	0.055598	0.30317	0.076981	0.057135	0.21797	0.19258	-1.9875	-2.9542	-2.8583	-2.6896	-3.1167	-2.7729	-2.6375	-3.1542	-2.4208	-2.8646	-3.2188	-2.4938	-3.3229	-2.5292	-2.6833	-3.1896	256.794	260.931	262.457	265.276	-43.482	-27.349	219.146	252.522	-0.487	-56.185	208.651	246.792	142.910	86.346	123.321	195.398	0.0002545	0.0031233	0.00035552	472.75	5.5014e-06	1.3918e-05	510.53	174.82	3.3809e-06	3.1588e-05	222.57	84.937	69.402	26.763	3.8914e-07	32.284	0.0015472	0.0018043	0.00051955	697.74	1.7434e-05	2.0437e-05	733.16	238.6	1.7671e-05	2.0994e-05	354.68	118.34	96.91	39.339	1.988e-05	46.141	162.852	153.878	-41.450	-74.365	68.285	247.061	-75.590	-69.023	120.567	200.716	-72.227	-68.206	-65.098	-60.288	113.103	-64.522	-8191	255	
1648.940	1	1	0	0	0.2439	0.12066	0.11324	0.19987	0.13939	0.40282	0.023046	0.10467	0.12653	0.13691	0.18491	0.046646	0.12016	0.12751	0.23226	0.090803	-2.0208	-2.8896	-2.9646	-2.4854	-3.0938	-2.8542	-2.6792	-3.2438	-2.7021	-2.9813	-3.0729	-2.5312	-2.9792	-3.0167	-2.5354	-3.3833	249.939	60.519	239.457	218.568	-56.899	9.758	22.011	120.995	160.239	130.405	95.918	193.892	-62.879	168.126	-4.514	51.090	0.00035465	0.0010192	0.0005033	475.87	1.7541e-05	1.2665e-05	525.45	179.45	1.7663e-05	7.8157e-06	227.61	86.063	69.555	27.48	1.43e-06	32.741	0.0015894	0.0018847	0.00048185	685.63	1.7158e-05	1.9996e-05	712.84	232.73	1.677e-05	1.9057e-05	329.4	112.87	94.38	37.483	1.6019e-05	43.378	162.611	166.021	-57.290	-73.532	268.486	270.345	-75.417	-69.396	202.319	45.340	-72.006	-67.904	-65.068	-60.600	30.697	-64.258	-8191	255	
1649.036	1	1	0	0	0.15077	0.19652	0.014392	0.14044	0.18259	0.14971	0.18263	0.31081	0.11509	0.087893	0.13932	0.30453	0.22377	0.12324	0.20171	0.2046	-2.2167	-2.7396	-3.0875	-2.4667	-3.0438	-2.7792	-2.3604	-3.2417	-2.8125	-2.6188	-3.3333	-2.4896	-3.1	-2.8917	-2.4167	-3.225	58.592	195.105	251.014	-32.469	40.997	91.736	71.072	253.855	175.874	159.660	59.716	190.690	230.067	37.349	268.654	212.412	0.00010874	0.0013697	0.00033774	495.47	1.3239e-05	1.0705e-05	537.93	183.38	1.1618e-05	1.332e-05	229.83	86.383	70.292	27.613	1.6055e-05	32.797	0.001431	0.0015891	0.00038961	660.41	1.5794e-05	1.699e-05	691.4	227.37	1.623e-05	1.6954e-05	318.1	110.42	95.991	36.902	1.5427e-05	43.36	171.232	-33.958	-75.628	-73.709	196.204	71.588	-75.453	-69.124	212.627	1.400	-72.455	-68.134	-64.913	-60.327	46.723	-64.081	-8191	255	
1649.132	1	1	0	0	0.1974	0.10274	0.10357	0.31075	0.23018	0.065874	0.057893	0.12762	0.15425	0.14967	0.21015	0.031862	0.19419	0.24476	0.053211	0.262	-2.3333	-2.7958	-3.0187	-2.6146	-3.0479	-3.0104	-2.5375	-3.2292	-2.7687	-2.7896	-3.35	-2.7021	-2.95	-3.0396	-2.5021	-2.9917	-51.192	159.761	-36.433	-71.109	131.288	178.617	218.530	191.198	208.491	187.565	143.162	34.204	184.145	135.558	108.627	-82.156	0.00013128	0.0021109	0.00022911	487.05	1.06e-05	1.1647e-05	530.14	180.09	9.8366e-06	9.6513e-06	227.39	85.529	70.301	27.543	7.8818e-06	32.179	0.0015566	0.0015804	0.00039699	666.06	1.7843e-05	1.7469e-05	690.61	231.53	1.847e-05	1.7618e-05	323.36	114.27	100.35	37.155	1.6459e-05	45.297	151.670	-86.315	-34.598	-74.014	252.780	20.670	-75.450	-69.241	-1.224	-20.219	-72.070	-68.398	-65.266	-60.718	-7.236	-64.120	-8191	255	
1649.228	1	1	0	0	0.097809	0.079888	0.15473	0.32686	0.12214	0.14033	0.12467	0.16336	0.24742	0.029722	0.01653	0.069215	0.080316	0.35357	0.061929	0.065664	-2.525	-2.5167	-3.3271	-2.8229	-2.7625	-3.2521	-2.3854	-3.1688	-2.8187	-2.6792	-3.0167	-2.6208	-2.8458	-3.0563	-2.5021	-3.1458	79.355	245.526	-15.495	-68.746	-51.356	268.990	-50.344	-82.430	228.538	88.048	267.608	251.506	246.830	234.053	25.028	-68.331	8.481e-05	0.0017325	0.00034444	474.09	3.4824e-06	6.2012e-06	524.97	177.84	4.6823e-06	9.2717e-06	226.06	85.084	69.564	27.347	1.3426e-05	32.237	0.0017559	0.001631	0.00041494	692.07	1.9623e-05	1.7603e-05	694.6	238.57	1.9506e-05	1.7475e-05	322.9	117.46	100.46	36.597	1.6068e-05	46.442	137.843	-44.032	-58.601	-73.541	73.862	-24.514	-75.330	-69.236	21.598	141.873	-72.428	-67.735	-65.346	-60.128	14.042	-64.357	-8191	255	
1649.324	1	1	0	0	0.12642	0.029641	0.20446	0.070309	0.19126	0.15966	0.13625	0.18442	0.088085	0.081454	0.12199	0.4289	0.080366	0.089207	0.1005	0.096585	-2.3542	-2.425	-3.15	-2.7812	-2.7417	-3.0792	-2.5167	-3.15	-2.8	-2.6479	-3.0979	-2.8208	-2.7167	-3.2958	-2.2812	-2.9062	12.597	226.402	258.123	208.645	-76.738	244.802	154.349	168.204	215.719	107.696	109.157	233.477	-83.851	81.861	22.101	160.061	0.00031016	0.00081518	3.3396e-05	488.51	3.641e-06	3.8348e-06	537.05	180.82	7.9161e-06	1.1598e-05	229.37	86.706	70.641	27.509	7.6507e-06	32.652	0.001682	0.00154	0.00039616	707.33	1.8284e-05	1.6224e-05	692.22	240.82	1.7586e-05	1.5771e-05	316.34	117.75	96.124	35.492	1.4774e-05	46.208	-87.438	33.694	207.870	-74.474	69.763	264.834	-75.515	-69.518	-43.472	-6.591	-71.426	-68.366	-65.407	-60.737	191.076	-64.209	-8191	255	
1649.445	1	1	0	0	0.052252	0.14043	0.080487	0.17613	0.20408	0.25678	0.15799	0.089478	0.16433	0.20739	0.21583	0.1509	0.15287	0.21262	0.048255	0.13632	-2.5187	-2.4833	-3.0833	-2.7771	-2.7292	-3.1896	-2.55	-2.9292	-3.0271	-2.4	-3.1833	-2.7958	-2.6333	-3.2583	-2.7208	-2.8125	24.228	-84.396	61.055	14.589	123.555	-25.891	112.029	40.726	126.644	-84.170	-11.117	239.039	-60.839	-45.008	44.698	92.396	0.00026566	0.00057387	0.0002175	489.85	1.5368e-05	5.009e-06	527.04	182.59	5.0038e-06	5.2168e-06	224.5	86.003	69.979	27.42	1.3444e-05	31.947	0.0014691	0.0013645	0.00037344	702.8	1.6148e-05	1.4935e-05	684.64	240.95	1.6103e-05	1.4962e-05	317.46	117.92	94.515	35.168	1.6134e-05	46.601	-67.083	-33.621	45.646	-73.823	81.242	55.128	-75.780	-68.948	144.009	70.767	-72.182	-67.837	-65.559	-60.313	186.957	-63.829	-8191	255	
1649.541	1	1	0	0	0.08602	0.12978	0.12875	0.10112	0.13812	0.12169	0.20646	0.12813	0.060366	0.14598	0.18188	0.094244	0.11126	0.083569	0.22558	0.1394	-2.75	-2.4604	-3.0292	-2.8229	-2.5271	-3.1021	-2.975	-2.8458	-3.2083	-2.5917	-3.0479	-3.0438	-2.6	-3.2271	-2.8542	-2.8208	270.391	105.969	40.520	24.138	-45.068	198.507	31.158	157.482	262.019	28.229	1.354	180.414	-30.046	252.150	98.410	270.679	0.00011755	0.00090644	0.00036023	477.22	5.3626e-06	1.4255e-05	509.63	178.56	5.3762e-06	8.7988e-06	221.97	85.383	69.468	27.162	1.5865e-05	31.94	0.001462	0.0014093	0.00042014	702.9	1.6366e-05	1.5117e-05	692.97	239.84	1.6056e-05	1.5308e-05	328.88	117.29	93.68	35.028	1.7403e-05	45.647	-84.327	-15.173	90.224	-74.141	90.274	29.073	-75.325	-69.070	-9.406	272.208	-71.671	-67.900	-65.097	-60.673	181.466	-63.953	-8191	255	
1649.637	1	1	0	0	0.13725	0.39331	0.19265	0.13385	0.15712	0.11403	0.039672	0.07423	0.15539	0.30536	0.042442	0.053749	0.19551	0.27311	0.15016	0.19767	-2.6813	-2.2938	-2.8167	-3.075	-2.5833	-3.175	-2.7375	-2.7396	-3.1646	-2.5042	-2.8625	-2.9958	-2.4417	-3.1188	-2.8937	-2.6417	104.040	213.629	266.102	-60.274	55.627	271.963	-46.457	159.861	40.868	210.768	-71.365	-49.112	-52.099	239.521	2.080	66.422	0.00028954	0.0013889	0.0001629	482.34	6.3133e-06	4.3285e-06	522.48	180.53	9.94e-06	8.5651e-06	224.14	85.928	69.964	27.366	8.7103e-06	32.779	0.0013989	0.0013703	0.00043997	688.58	1.5426e-05	1.4741e-05	708.01	235.82	1.5075e-05	1.4952e-05	332.87	114.01	91.737	35.12	1.7215e-05	44.404	105.960	-35.738	-0.505	-74.177	88.869	178.769	-75.848	-69.166	45.496	135.442	-71.835	-67.647	-65.268	-60.493	176.451	-64.115	-8191	255	
1649.733	1	1	0	0	0.1819	0.025981	0.24846	0.16173	0.20211	0.11027	0.13063	0.25452	0.12896	0.061616	0.28792	0.17662	0.13415	0.082557	0.29932	0.2172	-2.6917	-2.4562	-2.7229	-3.0896	-2.3438	-3.1042	-2.7958	-2.575	-3.3292	-2.7375	-2.7646	-3.1729	-2.4646	-2.9917	-2.9271	-2.4208	40.911	-51.573	-27.459	-83.357	-48.629	-2.042	130.334	-70.242	193.089	-14.187	1.751	-0.039	-57.630	259.627	-79.169	-4.973	0.00010414	0.0012597	0.00053601	494.52	7.3739e-06	6.7887e-06	545.59	182.93	5.4268e-06	1.4821e-05	231.47	87.6	70.132	27.918	3.6695e-06	33.345	0.0012936	0.001345	0.00042996	673.29	1.3952e-05	1.4523e-05	713.04	230.48	1.3461e-05	1.4411e-05	324.78	109.88	88.55	35.059	1.5248e-05	42.719	260.370	148.518	-38.232	-73.752	232.268	195.726	-75.412	-69.055	33.904	139.834	-72.030	-67.971	-65.061	-60.496	38.639	-63.761	-8191	255	
1649.828	1	1	0	0	0.13992	0.18026	0.16835	0.14025	0.056653	0.17666	0.15005	0.15351	0.13671	0.24507	0.32448	0.12761	0.11094	0.022271	0.11138	0.055489	-2.6208	-2.7687	-2.7833	-3.2625	-2.3833	-2.8042	-2.9375	-2.4646	-3.1521	-2.6667	-2.7667	-3.3292	-2.5812	-3.0062	-3.1042	-2.3375	260.244	185.456	256.795	-55.288	9.415	12.736	68.804	202.484	232.311	184.537	-4.343	-85.363	-28.347	150.561	84.479	221.524	0.00010019	0.0017173	0.00014505	511.78	2.4968e-06	1.4777e-05	564.07	186.82	7.1279e-06	8.0749e-06	233.47	87.737	70.455	27.733	7.9108e-06	33.027	0.0011182	0.0012809	0.0003765	653.97	1.2432e-05	1.4213e-05	703.18	226.47	1.2332e-05	1.4579e-05	316.92	108.13	88.452	35.682	1.4614e-05	42.377	233.215	158.266	-85.933	-73.859	179.478	189.196	-75.217	-69.212	-15.378	174.964	-72.260	-68.261	-64.910	-60.110	69.640	-64.061	-8191	255	
1649.926	1	1	0	0	0.13804	0.10853	0.26226	0.16465	0.29779	0.073244	0.24562	0.24154	0.1731	0.4034	0.1224	0.22983	0.22615	0.39152	0.22507	0.11594	-2.55	-2.7792	-2.6542	-3.0271	-2.5354	-2.7958	-3.1562	-2.5354	-3.1167	-2.7208	-2.5896	-3.1625	-2.5625	-2.8208	-2.9479	-2.4208	-73.157	-47.873	-38.618	-57.671	63.543	-0.441	208.911	157.295	44.747	14.218	-22.983	53.625	269.976	229.229	80.519	-37.537	0.00023981	0.0010865	0.00046535	500.04	5.0602e-06	1.6798e-05	540.17	184.51	2.6113e-05	6.9891e-06	227.73	86.272	70.035	27.78	1.4055e-05	32.714	0.0011632	0.0014139	0.00037629	650.06	1.3587e-05	1.5923e-05	689.13	226.43	1.3897e-05	1.6432e-05	316.42	108.54	91.094	36.567	1.4793e-05	42.546	158.608	201.659	-71.568	-73.461	242.274	143.437	-75.413	-69.437	208.861	-78.193	-72.148	-68.133	-64.929	-60.617	-14.250	-64.372	-8191	255	
1650.045	1	1	0	0	0.23457	0.2197	0.29478	0.056052	0.15954	0.070908	0.13511	0.049601	0.13427	0.14201	0.17358	0.25248	0.20942	0.015333	0.050637	0.072721	-2.5729	-2.6458	-2.425	-3.0958	-2.6979	-2.7854	-3.0229	-2.3333	-3.0208	-2.8521	-2.6063	-3.2458	-2.6437	-2.7271	-3.0229	-2.3063	46.743	104.122	-66.245	30.691	147.274	125.590	-53.585	186.080	162.117	81.251	198.296	-55.866	201.455	110.749	-75.585	245.092	0.00043169	0.00026865	0.00018199	492.44	1.4263e-05	3.4837e-06	537.43	182.83	2.235e-05	1.3426e-05	228.58	86.427	70.445	28.025	5.345e-06	32.902	0.0013014	0.0015026	0.00037215	647.71	1.4795e-05	1.6303e-05	679.69	224.24	1.4912e-05	1.6141e-05	311.37	108.12	93.12	36.304	1.4167e-05	42.289	179.797	-38.014	-42.289	-73.788	269.862	-83.649	-75.554	-69.372	233.496	4.598	-72.297	-68.153	-64.903	-60.588	140.604	-64.156	-8191	255	
1650.141	1	1	0	0	0.050579	0.092856	0.11014	0.33019	0.16195	0.32847	0.23055	0.33898	0.2283	0.20979	0.11819	0.068953	0.25328	0.14645	0.12021	0.050765	-2.4688	-3.0854	-2.2125	-3.25	-2.6896	-2.5917	-3.1979	-2.6937	-2.9313	-3.0438	-2.4708	-2.9375	-2.6833	-2.7896	-3.0833	-2.6542	-64.402	153.523	242.275	-58.553	67.037	-62.986	181.758	153.942	71.598	-63.955	205.521	196.691	184.383	250.520	184.181	153.792	0.00022914	0.0018159	0.0006329	498.55	8.5816e-06	7.494e-06	546.06	182.89	4.2498e-06	1.3863e-05	230.64	87.56	70.794	27.88	1.3881e-05	33.087	0.0013859	0.0014367	0.00035883	650	1.5625e-05	1.5471e-05	681.07	225.27	1.5637e-05	1.5153e-05	308.72	108.52	94.056	35.504	1.3273e-05	42.489	155.859	-53.041	270.853	-74.189	234.718	66.578	-75.276	-69.046	156.591	21.076	-71.828	-68.395	-65.338	-60.514	41.614	-64.170	-8191	255	
1650.237	1	1	0	0	0.043456	0.23819	0.27039	0.16309	0.14123	0.19644	0.10189	0.24219	0.20129	0.1033	0.31987	0.17828	0.21392	0.17826	0.079537	0.13789	-2.4542	-2.9896	-2.5792	-3.0771	-2.6479	-2.6854	-3.2313	-2.5604	-2.9479	-3.0875	-2.4292	-3.0958	-2.8521	-2.6375	-3.0458	-2.6229	63.249	-74.542	230.366	198.480	-61.494	224.675	-68.080	141.047	218.401	191.180	254.782	20.452	150.251	-52.902	-48.389	209.010	0.00019992	0.0016623	6.2686e-05	503.37	1.1057e-05	1.6505e-05	556.67	185.08	4.9876e-06	1.4802e-05	233.03	86.606	71.145	27.835	6.0269e-06	32.834	0.0013874	0.0012935	0.00033246	651.93	1.5077e-05	1.3759e-05	670.21	225.79	1.4985e-05	1.3393e-05	298.55	108.37	92.175	34.363	1.2328e-05	42.586	174.450	43.701	41.582	-73.754	130.261	51.017	-75.346	-69.134	126.047	7.924	-72.141	-67.872	-65.247	-60.248	-85.903	-64.286	-8191	255	
1650.333	1	1	0	0	0.23103	0.14541	0.095587	0.30045	0.25842	0.12526	0.16254	0.093921	0.28358	0.33416	0.25179	0.10907	0.26497	0.12758	0.038279	0.11038	-2.3104	-3.0604	-2.3646	-2.8979	-3.0021	-2.7042	-3.3667	-2.6188	-2.7625	-3.1792	-2.475	-2.9875	-3.0917	-2.3771	-3.1021	-2.7562	248.807	98.624	122.443	240.363	22.061	30.393	28.723	19.669	119.994	-20.194	-42.487	104.521	102.404	176.496	-87.212	-84.510	0.00018483	0.0027085	0.00027523	494.27	1.3946e-05	1.4932e-05	535.4	182.32	1.1165e-05	1.406e-05	226.17	86.264	70.689	27.581	1.6026e-05	32.479	0.0013305	0.0012117	0.00031652	657.45	1.4915e-05	1.3482e-05	656.16	229.48	1.5078e-05	1.3557e-05	298.86	111.38	92.347	34.446	1.2864e-05	43.867	165.450	-70.884	1.592	-73.666	85.631	42.842	-75.799	-69.536	1.729	54.682	-72.018	-68.094	-65.524	-60.241	167.558	-64.108	-8191	255	
1650.429	1	1	0	0	0.084771	0.21989	0.11205	0.099725	0.065696	0.16991	0.35919	0.015241	0.22752	0.23668	0.18419	0.14661	0.09265	0.1478	0.21771	0.11495	-2.2021	-3.1542	-2.5896	-3.0438	-2.9333	-2.4042	-3.1958	-2.9396	-2.5812	-3.1	-2.6854	-2.8417	-3.1	-2.2687	-2.9854	-2.8875	167.327	-20.515	255.361	267.986	241.000	61.173	161.519	73.969	-71.912	115.164	-43.208	243.975	115.337	56.526	139.973	231.140	0.00020985	0.00083253	0.00036648	494.68	6.724e-06	5.2442e-06	539.2	183	1.7526e-05	7.2494e-06	226.65	86.541	70.991	27.924	8.6488e-06	32.806	0.0013336	0.0012172	0.00033557	675.51	1.471e-05	1.3596e-05	666.88	234.66	1.4738e-05	1.3536e-05	306.06	114.11	91.651	34.606	1.3824e-05	44.865	-85.393	72.980	132.110	-73.557	124.662	64.865	-75.536	-69.046	37.720	63.781	-71.960	-68.261	-65.641	-60.530	223.615	-64.292	-8191	255	
1650.525	1	1	0	0	0.21482	0.11632	0.16877	0.076872	0.08048	0.061969	0.12181	0.1532	0.045279	0.14843	0.057502	0.12887	0.3839	0.13848	0.20924	0.1254	-2.125	-3.0667	-2.6312	-2.6604	-3.1417	-2.475	-2.9292	-2.9542	-2.3042	-3.1188	-2.7354	-2.6583	-3.1771	-2.4958	-3.0208	-2.9771	236.143	131.427	206.747	-73.347	-28.727	42.125	123.639	189.224	69.141	226.904	163.124	14.484	-79.443	-51.751	124.264	-68.098	8.1397e-05	0.0012864	0.00025801	507.36	3.1474e-06	1.7937e-06	555.28	185.4	2.7659e-06	5.7685e-06	231.81	88.325	70.827	28.017	1.376e-05	33.391	0.0012907	0.0012026	0.00035528	687.71	1.379e-05	1.3025e-05	690.25	234.24	1.3579e-05	1.265e-05	312.86	112.98	89.486	34.148	1.4088e-05	44.124	-43.030	69.759	71.833	-73.773	88.258	112.035	-75.580	-69.205	107.263	136.014	-72.055	-67.646	-65.435	-60.380	215.944	-64.121	-8191	255	
1650.622	1	1	0	0	0.16129	0.27391	0.079476	0.20069	0.13421	0.018032	0.16859	0.20338	0.088556	0.14072	0.18271	0.15367	0.094557	0.16499	0.28644	0.10387	-2.025	-3.2229	-2.7562	-2.8208	-3.2208	-2.6646	-2.9896	-2.9271	-2.475	-3.1396	-2.7729	-2.7104	-3.0792	-2.3833	-2.8167	-3.0333	102.903	89.513	199.685	165.042	63.786	-9.681	260.849	175.105	124.344	200.860	-56.194	239.159	177.426	38.422	-86.044	121.726	0.00012379	0.00024955	0.00033344	517.1	6.2518e-06	9.6782e-06	564.46	187.44	5.9305e-06	9.1516e-06	230.9	88.031	70.855	27.715	6.2769e-06	33.481	0.0011863	0.0011315	0.00036439	678.09	1.2993e-05	1.2471e-05	705.08	231.75	1.2853e-05	1.2329e-05	316.81	110.34	88.405	33.886	1.4412e-05	42.865	126.299	20.530	140.578	-74.070	41.608	238.295	-75.212	-69.307	2.866	204.743	-72.153	-68.640	-64.931	-60.507	147.933	-64.033	-8191	255	
1650.742	1	1	0	0	0.34254	0.12513	0.18935	0.10569	0.10285	0.18242	0.069286	0.14032	0.076955	0.063293	0.10279	0.19061	0.20861	0.24128	0.19278	0.14817	-1.9	-3.0938	-2.6271	-2.9271	-3.1396	-2.5208	-2.8875	-3.3292	-2.5062	-2.9375	-2.6833	-2.5125	-3.2021	-2.6333	-2.7875	-3.1396	77.037	-3.774	-24.941	49.188	-1.975	80.187	143.932	251.470	51.348	58.310	-15.225	257.556	171.428	262.095	19.339	-29.773	0.00010033	0.001704	0.00010851	504.71	8.2429e-06	1.3939e-05	539.45	184.59	1.06e-05	1.629e-05	228.88	85.797	70.452	27.68	8.9923e-06	32.636	0.001125	0.0011376	0.00037308	656.55	1.2483e-05	1.3028e-05	690.94	227.28	1.2888e-05	1.3392e-05	319.34	109.2	88.2	34.923	1.5712e-05	42.65	198.347	143.318	145.510	-73.779	-81.538	250.965	-75.447	-69.134	126.826	195.508	-72.696	-68.274	-65.345	-60.261	38.296	-64.117	-8191	255	
1650.837	1	1	0	0	0.080803	0.057377	0.086516	0.32764	0.11422	0.04795	0.25917	0.10088	0.022681	0.18132	0.16639	0.032293	0.092537	0.13215	0.083638	0.022694	-1.9104	-3.1354	-2.7938	-2.6562	-3.2354	-2.6167	-2.8396	-3.1583	-2.5687	-2.9792	-3.0083	-2.6021	-3.2271	-2.5896	-2.7375	-3.1333	83.530	-82.771	172.926	208.964	-45.114	103.496	-41.658	160.811	65.025	2.124	227.664	202.751	-26.021	257.647	156.850	110.896	7.3297e-05	0.0013376	0.00031891	489.59	1.0211e-05	1.2424e-05	527.57	179.93	7.4281e-06	3.0767e-05	224.54	85.626	69.731	27.287	1.6929e-05	32.338	0.0012036	0.0013372	0.00040952	655.81	1.3548e-05	1.5424e-05	694.81	226.32	1.3896e-05	1.5873e-05	323.77	110.55	89.645	36.202	1.6259e-05	43.088	212.296	97.011	269.049	-74.171	29.606	196.699	-75.699	-69.320	121.831	182.773	-72.325	-68.679	-65.523	-60.788	62.687	-63.981	-8191	255	
1650.908	1	1	0	0	0.33313	0.10391	0.22572	0.17169	0.1721	0.095095	0.1692	0.11802	0.25715	0.078965	0.24334	0.38903	0.13245	0.205	0.14105	0.11842	-1.975	-2.9542	-2.6896	-2.3688	-3.175	-2.7792	-2.7333	-3.2375	-2.5083	-2.7958	-3.0125	-2.4875	-3.2479	-3.0292	-2.5625	-3.1458	86.728	39.082	66.578	259.831	235.438	132.636	114.525	73.623	115.652	-6.332	272.034	233.320	-82.696	-56.987	123.958	32.588	9.1189e-05	0.0014052	0.00026724	485.59	8.962e-06	2.5177e-06	530.49	181.22	4.7604e-06	8.8094e-06	227.12	86.119	69.665	27.576	5.6259e-06	32.758	0.001257	0.0014937	0.00040608	654.1	1.3964e-05	1.653e-05	689.21	225.28	1.4108e-05	1.6511e-05	315.99	109.23	90.359	36.506	1.4924e-05	42.427	170.379	131.626	-27.597	-74.199	-76.693	-59.084	-75.389	-69.237	37.339	214.657	-72.519	-68.016	-65.133	-60.402	217.981	-64.212	-8191	255	
1651.006	1	1	0	0	0.1562	0.073512	0.1984	0.11178	0.15688	0.10021	0.25172	0.15382	0.09446	0.17804	0.24182	0.12654	0.23247	0.35105	0.099552	0.24029	-2.2208	-2.8229	-2.9417	-2.4792	-3.3021	-2.8187	-2.4958	-3.1229	-2.6604	-2.9229	-3.2687	-2.3396	-2.9958	-2.9521	-2.5812	-3.2	100.016	199.792	-82.147	163.254	-28.132	120.971	197.674	219.004	252.430	62.192	246.280	214.440	51.643	228.685	32.191	217.963	0.00033969	0.0016084	0.00033594	494.92	1.1682e-05	3.667e-06	539.98	181.87	1.1854e-05	1.016e-05	227.35	86.592	69.963	27.969	1.8144e-05	32.701	0.0012684	0.0014839	0.00037073	648.09	1.4181e-05	1.6132e-05	681.95	222.99	1.4657e-05	1.6289e-05	310.26	108.45	92.182	36.411	1.4451e-05	42.175	196.542	17.970	191.053	-74.021	229.185	-42.952	-75.233	-69.064	203.750	15.236	-72.112	-68.069	-65.111	-60.368	31.256	-64.162	-8191	255	
1651.125	1	1	0	0	0.084039	0.15662	0.19128	0.27616	0.1724	0.13165	0.19242	0.060859	0.083952	0.21556	0.14407	0.11414	0.093181	0.13131	0.15067	0.25041	-2.0271	-2.6958	-3.0542	-2.3979	-2.95	-3.0104	-2.4188	-3.1688	-2.6688	-2.6292	-3.3125	-2.6	-2.7958	-3.2417	-2.4896	-2.925	103.932	75.998	15.257	197.963	193.829	-9.300	112.262	246.236	-30.425	180.888	159.049	155.492	226.364	78.417	29.002	-69.272	0.00031584	0.0020558	0.0002239	490.02	8.449e-06	1.624e-05	525.85	180.99	9.1093e-06	1.7544e-05	225.87	85.947	69.302	27.54	1.7644e-06	32.335	0.0013767	0.0014705	0.00036233	641.21	1.5537e-05	1.5897e-05	667.96	223.39	1.5804e-05	1.5677e-05	306.89	108.28	93.993	35.788	1.42e-05	42.368	183.488	3.316	-37.417	-74.142	252.066	27.510	-75.377	-69.173	200.175	-2.448	-71.991	-68.046	-65.678	-60.255	-1.549	-64.103	-8191	255	
1651.221	1	1	0	0	0.28957	0.19968	0.17888	0.13453	0.16478	0.14946	0.28385	0.14578	0.076572	0.086388	0.25267	0.2381	0.055807	0.12352	0.24579	0.089449	-2.3271	-2.7687	-3.15	-2.5812	-2.8833	-3.0125	-2.375	-3.1688	-2.8333	-2.6896	-3.2687	-2.6083	-2.8771	-3.2146	-2.3563	-3.1271	76.653	20.867	107.617	153.770	-48.712	196.043	189.775	232.679	138.992	170.296	-41.162	35.601	154.839	204.051	152.810	76.025	0.00021514	0.0013064	0.00058831	485.57	7.0464e-06	1.9032e-05	527.09	180.3	3.7424e-06	1.8287e-05	227.2	85.617	70.214	27.716	7.1746e-06	32.461	0.0014764	0.0014179	0.0003602	650.42	1.6555e-05	1.5286e-05	664.99	226.52	1.6547e-05	1.5124e-05	304.73	110.27	95.022	35.358	1.3854e-05	43.235	199.605	-55.419	254.504	-73.726	195.676	13.874	-75.681	-69.465	254.565	-9.077	-72.266	-68.116	-65.225	-60.427	-50.073	-64.287	-8191	255	
1651.317	1	1	0	0	0.21324	0.13384	0.25914	0.18586	0.11282	0.13496	0.094813	0.16523	0.24974	0.2269	0.19162	0.18532	0.25024	0.2618	0.086024	0.19903	-2.5271	-2.4542	-3.1208	-2.6125	-2.7146	-3.1958	-2.5604	-3.0229	-2.9979	-2.45	-3.2687	-2.7625	-2.775	-3.425	-2.5146	-2.7958	7.336	195.030	186.824	138.532	238.054	31.199	160.999	173.589	65.828	184.868	-46.911	93.245	236.544	-71.883	145.447	-79.503	0.00018715	0.00081971	0.00018199	487.99	6.037e-06	1.323e-05	534.93	181.46	9.3327e-06	2.9451e-06	227.94	86.283	70.144	27.653	4.5322e-06	32.529	0.0014784	0.0013527	0.00034438	665.81	1.6303e-05	1.4481e-05	668.91	231.36	1.6197e-05	1.456e-05	303.19	113.39	94.411	35.02	1.3682e-05	44.642	249.764	65.338	209.290	-73.786	105.464	-3.865	-75.654	-69.344	44.420	251.583	-72.005	-68.195	-65.096	-60.258	232.937	-64.312	-8191	255	
1651.413	1	1	0	0	0.26772	0.070169	0.044374	0.14385	0.17853	0.22483	0.20575	0.15661	0.13565	0.31207	0.10582	0.055098	0.034723	0.14988	0.24449	0.25988	-2.4708	-2.4917	-3.1625	-2.8563	-2.6458	-3.2896	-2.6083	-2.9021	-2.8604	-2.7313	-3.1792	-2.7896	-2.8479	-3.3187	-2.6583	-2.925	107.496	220.974	88.685	247.258	126.971	49.213	131.761	73.230	242.874	25.282	-58.222	111.370	238.922	119.062	43.190	221.798	5.9094e-05	0.0012713	0.00012158	494.96	1.2174e-05	6.36e-06	544.85	181.4	1.5419e-05	6.7059e-06	225.71	86.992	70.709	27.597	1.8597e-05	32.546	0.0014303	0.001317	0.00034781	689.03	1.5808e-05	1.4306e-05	681.49	236.31	1.5761e-05	1.4564e-05	311.08	117.05	94.478	35.21	1.4948e-05	46.2	247.018	268.341	252.440	-73.807	94.139	61.465	-75.798	-69.311	21.340	152.563	-72.453	-68.491	-65.627	-60.569	190.292	-64.281	-8191	255	
1651.534	1	1	0	0	0.13141	0.091541	0.16073	0.044314	0.13753	0.16779	0.22269	0.099182	0.1347	0.11513	0.19595	0.1495	0.15925	0.082238	0.1128	0.19258	-2.6708	-2.3417	-3.0729	-2.9521	-2.5187	-3.2479	-2.6958	-3.0229	-3.25	-2.4479	-3.2604	-2.8896	-2.5833	-3.2646	-2.7354	-2.8167	-36.778	54.469	35.084	108.621	160.006	137.517	132.562	206.836	-5.962	20.651	229.819	177.648	95.772	-60.574	132.763	191.996	0.00035036	0.00049513	0.00036071	492.04	1.0712e-05	1.1483e-05	532.04	179.19	6.6147e-06	1.8194e-05	224.89	85.306	69.987	27.286	2.2162e-05	32.219	0.0014394	0.0013559	0.00038835	707.64	1.5954e-05	1.4847e-05	691.77	239.77	1.5926e-05	1.4897e-05	320.74	117.64	93.711	34.986	1.6328e-05	46.045	-38.112	194.942	93.610	-74.189	131.714	-35.437	-76.011	-69.439	22.167	39.501	-72.090	-68.075	-65.601	-60.451	155.938	-63.607	-8191	255	
1651.606	1	1	0	0	0.1116	0.11527	0.05731	0.1493	0.15341	0.067459	0.47657	0.28619	0.10977	0.10858	0.052283	0.091527	0.23839	0.14711	0.16695	0.1273	-2.8563	-2.3604	-3.0458	-2.8604	-2.4771	-3.1562	-2.7604	-2.8229	-3.2021	-2.4854	-3.0812	-3.0083	-2.6542	-3.2646	-2.8292	-2.6146	243.097	47.255	258.737	77.907	104.572	234.030	206.385	-77.512	226.856	63.280	62.731	152.155	213.364	-71.602	51.060	-76.906	0.00027044	0.00088279	0.00036279	485.21	9.3395e-06	2.3941e-06	527.29	179.11	7.593e-06	7.769e-06	221.11	86.414	70.296	27.072	1.036e-05	32.314	0.0014033	0.0013618	0.00042451	697.87	1.5578e-05	1.4667e-05	707.37	237.56	1.5496e-05	1.5076e-05	332.76	116.56	93.683	35.158	1.8011e-05	45.866	257.777	66.847	79.869	-73.949	132.617	-20.222	-75.658	-69.325	63.504	182.205	-72.288	-68.089	-65.251	-60.473	228.834	-64.355	-8191	255	
1651.726	1	1	0	0	0.068442	0.015879	0.16164	0.15497	0.21636	0.13608	0.096892	0.18869	0.35016	0.12173	0.33133	0.028177	0.1227	0.2669	0.11338	0.27695	-2.6833	-2.5667	-3.1833	-3.0458	-2.6396	-3.3417	-2.8792	-2.6729	-3.2667	-2.75	-2.9292	-3.1396	-2.5667	-3.1396	-2.925	-2.7167	41.734	144.818	46.784	-7.506	-6.397	206.498	-56.880	8.638	236.165	146.029	-59.280	76.250	201.998	196.311	129.631	-85.421	0.00011811	0.0021333	0.0002345	489.93	3.1274e-06	1.334e-05	532.78	178.89	7.9515e-06	1.7784e-05	225.14	87.016	70.246	27.31	1.0004e-05	32.863	0.0014063	0.0014199	0.00046261	697.5	1.5732e-05	1.5695e-05	731.28	235.72	1.5532e-05	1.5928e-05	341.89	115.71	93.163	36.024	1.8453e-05	45.365	-29.996	68.286	74.378	-74.155	169.232	177.389	-75.687	-69.426	93.286	177.685	-72.356	-68.351	-65.218	-60.753	57.974	-64.734	-8191	255	
1651.823	1	1	0	0	0.14212	0.22224	0.20167	0.080644	0.057537	0.077667	0.065213	0.053552	0.1441	0.10945	0.26046	0.097711	0.22807	0.13915	0.17476	0.08231	-2.8292	-2.7625	-3.0604	-3.3375	-2.4854	-3.125	-2.9771	-2.6312	-3.2438	-2.7771	-2.9104	-3.1667	-2.5812	-3.2646	-2.8521	-2.4771	4.048	11.221	76.932	204.818	-22.854	32.229	160.896	159.424	76.439	-1.603	204.906	267.228	148.266	161.852	151.141	-12.118	0.00012999	0.0017721	3.2902e-05	497.06	1.1859e-05	1.0373e-05	547.88	180.64	3.0365e-06	2.07e-05	231.74	87.693	70.748	27.426	2.3904e-05	32.843	0.0013738	0.0015078	0.00046837	689.43	1.5291e-05	1.6765e-05	737.69	234.28	1.5222e-05	1.7167e-05	343.05	115.21	93.249	37.241	1.7883e-05	44.865	204.122	124.337	121.351	-74.372	87.215	196.942	-75.635	-69.251	-64.290	175.899	-72.262	-67.937	-66.044	-60.007	28.126	-63.954	-8191	255	
1651.917	1	1	0	0	0.2875	0.18833	0.091595	0.066604	0.03853	0.13889	0.21712	0.18066	0.078059	0.14514	0.22322	0.28851	0.10434	0.36935	0.17137	0.24921	-3.1167	-2.5438	-2.6167	-3.3167	-2.4479	-3.1813	-3.0438	-2.525	-3.2083	-2.6917	-2.7458	-3.0687	-2.6	-3.0083	-2.9375	-2.4979	-54.641	-12.661	-21.618	152.672	39.467	206.113	46.269	213.489	99.566	159.105	-81.914	-71.110	131.361	188.763	222.938	169.541	0.00015266	0.0019297	0.00026523	495	1.9593e-06	1.1471e-05	542.83	182.16	1.142e-05	9.7687e-06	230.38	86.917	70.624	27.594	5.3584e-06	32.591	0.0013506	0.0015892	0.00044108	677.2	1.4849e-05	1.7246e-05	716.68	230.48	1.4496e-05	1.7147e-05	326.71	110.91	91.479	36.736	1.5605e-05	42.935	164.006	140.540	-73.600	-73.871	225.715	217.741	-75.570	-69.247	231.191	157.583	-72.134	-68.540	-65.053	-60.466	39.447	-64.095	-8191	255	
1652.013	1	1	0	0	0.10617	0.22582	0.14851	0.49368	0.1674	0.064617	0.17236	0.28864	0.26652	0.048217	0.12516	0.076514	0.10656	0.069777	0.11372	0.11239	-2.625	-2.8646	-2.6625	-3.2479	-2.6437	-2.8958	-3.1688	-2.4708	-3.1167	-2.775	-2.6125	-3.5083	-2.5604	-2.6854	-3.0875	-2.4313	112.612	23.160	-22.602	177.598	118.341	54.238	223.952	219.419	91.683	172.471	53.539	209.686	-44.845	84.431	-44.866	205.475	0.000303	0.00033043	0.00046826	499.29	1.6014e-05	1.3088e-05	550.84	182.62	1.9299e-05	1.3142e-05	231.3	87.157	69.912	27.558	6.4148e-06	32.805	0.0012729	0.0015226	0.00038678	656.03	1.4399e-05	1.6658e-05	697.53	226.44	1.4676e-05	1.6902e-05	318.11	109.96	93.015	36.869	1.5141e-05	42.992	199.660	39.512	-60.353	-74.346	222.034	163.185	-75.498	-69.160	219.033	17.279	-72.037	-68.027	-65.395	-60.654	85.926	-64.557	-8191	255	
1652.134	1	1	0	0	0.15046	0.077243	0.064605	0.27108	0.12018	0.095805	0.1145	0.16246	0.048419	0.05721	0.2718	0.08998	0.13773	0.08685	0.26401	0.03667	-2.5875	-2.9208	-2.6896	-3.2792	-2.6375	-2.6479	-3.3271	-2.5938	-3.0167	-3.0083	-2.6375	-3.2188	-2.7938	-2.7104	-3.1229	-2.6625	-77.225	78.279	248.324	-37.284	74.053	143.388	117.294	-76.350	233.191	-29.573	177.432	-80.601	197.390	-74.015	138.127	231.784	0.00048164	0.00094013	0.00010904	498.63	9.2254e-06	1.4313e-05	548.79	181.62	8.9226e-06	1.1086e-05	231	87.799	70.778	27.597	5.0442e-06	32.822	0.001417	0.0015685	0.0003866	663.84	1.6278e-05	1.7243e-05	702.59	227.69	1.6759e-05	1.7218e-05	321.56	112.01	97.264	37.027	1.5338e-05	43.936	162.079	-1.895	168.826	-73.992	191.646	78.888	-75.820	-69.398	229.556	12.171	-72.068	-68.063	-65.565	-60.462	176.940	-64.341	-8191	255	
1652.205	1	1	0	0	0.16577	0.073118	0.071024	0.33257	0.063875	0.14701	0.030206	0.30503	0.16191	0.22691	0.1031	0.26127	0.13734	0.12762	0.15072	0.21366	-2.5854	-3.1167	-2.5625	-3.2792	-2.7	-2.6437	-3.2583	-2.4813	-2.9146	-3.1104	-2.5604	-3.3688	-2.9583	-2.6562	-3.2479	-2.6562	81.667	-14.571	45.662	244.027	-12.708	5.955	77.534	176.498	221.761	41.810	-70.560	-54.184	233.479	-80.881	91.916	-45.139	0.00035187	0.0018721	0.00013516	497.41	6.0134e-06	8.6806e-06	554.29	180.93	6.9836e-06	1.6673e-05	231.97	87.641	71.126	28.03	5.6675e-06	33.117	0.0015669	0.0015516	0.00039177	672.64	1.7769e-05	1.6878e-05	702.2	231.34	1.7875e-05	1.6595e-05	321.72	114.24	99.298	36.651	1.5186e-05	45.059	218.407	-78.336	246.095	-74.144	208.404	45.455	-75.022	-69.037	121.002	6.756	-71.792	-68.388	-65.482	-60.337	193.866	-64.244	-8191	255	
1652.302	1	1	0	0	0.26894	0.17737	0.15561	0.17535	0.1898	0.05312	0.18429	0.13864	0.13125	0.17129	0.085228	0.11703	0.17621	0.072182	0.095628	0.074431	-2.3688	-3.2333	-2.3479	-3.0917	-2.9292	-2.6083	-3.3083	-2.825	-2.7521	-3.0958	-2.6167	-2.9375	-3.0917	-2.7125	-3.1354	-2.9146	249.297	-55.036	30.642	120.673	11.213	228.670	209.981	247.028	-54.593	146.511	167.053	123.913	226.554	142.636	-20.839	263.053	0.00012659	0.00067105	7.025e-05	492.72	6.4852e-06	7.2796e-06	541.79	179.4	9.3168e-06	1.8541e-05	227.32	86.797	70.387	27.313	1.2982e-05	32.247	0.0016352	0.0014913	0.00038754	687.7	1.8207e-05	1.6336e-05	694.09	235.64	1.8288e-05	1.637e-05	317.6	117.15	98.838	36.061	1.5431e-05	46.211	-80.789	-24.601	56.221	-74.906	74.350	55.407	-75.686	-69.378	44.343	6.009	-72.323	-67.888	-65.634	-60.396	-60.425	-64.250	-8191	255	
1652.422	1	1	0	0	0.13207	0.33961	0.13185	0.13037	0.23084	0.034521	0.1737	0.12136	0.16417	0.26787	0.072856	0.12948	0.061538	0.057015	0.1992	0.072517	-2.3292	-3.1271	-2.4667	-3.0458	-2.9938	-2.5896	-3.3771	-2.8083	-2.8146	-3.1042	-2.4458	-2.9771	-3.0417	-2.525	-3.1021	-2.8646	-63.093	170.889	250.572	197.549	272.339	154.382	241.843	107.486	150.229	144.265	6.590	-39.867	260.222	-58.432	102.745	251.532	0.00032381	0.0017682	0.00024533	480.53	6.605e-06	1.0235e-05	525.8	176.61	1.2676e-05	1.3628e-05	226.79	85.022	70.411	27.146	2.0108e-05	32.19	0.0016457	0.0014954	0.00039466	702.68	1.821e-05	1.6309e-05	684.65	239.95	1.7913e-05	1.6224e-05	319.35	119.2	97.285	35.819	1.5905e-05	47.252	-87.131	235.894	214.058	-74.215	21.383	-2.145	-75.600	-69.213	-13.667	-7.183	-72.453	-67.769	-65.706	-60.513	141.145	-63.970	-8191	255	
1652.518	1	1	0	0	0.13496	0.094632	0.17404	0.070442	0.087464	0.23029	0.072045	0.24811	0.11746	0.09491	0.16785	0.14008	0.17155	0.20352	0.21817	0.31337	-1.9271	-3.1354	-2.35	-2.8563	-3.1708	-2.4979	-2.9542	-2.8396	-2.6479	-3.25	-2.6604	-2.975	-3.2875	-2.5417	-2.975	-2.8708	89.422	178.000	171.097	161.031	168.218	193.875	196.578	-41.737	220.955	252.345	183.930	203.586	-13.697	265.371	-83.714	6.408	0.0001421	0.0014672	0.00023055	481.82	2.678e-05	1.6651e-05	531.15	177.06	1.101e-05	6.8627e-06	226.19	86.285	70.487	27.343	1.9489e-05	32.769	0.0015784	0.0014649	0.00040961	714.06	1.7175e-05	1.5925e-05	696.8	241.81	1.6802e-05	1.5389e-05	324.85	119.24	94.489	35.3	1.6111e-05	46.529	17.141	-27.045	105.892	-73.923	54.951	74.886	-75.903	-69.489	49.165	162.222	-72.749	-68.002	-65.633	-60.586	205.263	-64.333	-8191	255	
1652.615	1	1	0	0	0.12888	0.061361	0.31364	0.12959	0.15375	0.17013	0.039437	0.17824	0.19137	0.27333	0.1473	0.3717	0.22284	0.16033	0.060905	0.10437	-2.1688	-3.2875	-2.5187	-2.8083	-3.2021	-2.6042	-3.2208	-3.0104	-2.6125	-3.3479	-2.8354	-2.8729	-3.3458	-2.6833	-2.925	-3.125	-15.477	42.011	221.716	20.455	106.862	213.227	-33.131	240.461	101.058	38.948	170.930	229.209	127.589	-63.344	88.867	35.137	0.00020378	0.0004964	0.00027241	490.88	1.3208e-05	1.7749e-05	539.4	183.76	3.3071e-06	1.4202e-05	229.83	87.434	70.92	27.626	9.0573e-06	33.089	0.0014196	0.0013306	0.00041062	703.93	1.5242e-05	1.4395e-05	709	238.98	1.5183e-05	1.42e-05	328.85	116.63	92.229	34.987	1.6704e-05	45.714	226.892	218.708	192.423	-74.455	51.811	222.452	-76.170	-69.269	4.390	8.874	-71.961	-68.115	-65.221	-60.433	214.326	-64.136	-8191	255	
1652.711	1	1	0	0	0.072203	0.14375	0.063834	0.186	0.21786	0.12966	0.17747	0.11062	0.069469	0.30459	0.070816	0.084085	0.074453	0.0999	0.17913	0.15865	-2.0604	-3.0625	-2.7167	-2.8083	-3.2625	-2.5646	-3.1104	-3.1	-2.6708	-2.9667	-2.9729	-2.6646	-3.2854	-2.6813	-2.9167	-3.0417	65.675	54.337	77.475	245.851	210.108	236.843	255.587	84.568	185.944	2.899	33.574	213.742	-57.402	61.074	257.778	203.409	0.0001488	0.00028751	0.00035718	492.22	9.5757e-06	1.137e-05	533.43	182.11	5.6476e-06	6.5735e-06	223.93	86.469	70.276	27.33	5.8091e-06	32.178	0.0013523	0.0013303	0.00043758	690.19	1.5121e-05	1.4873e-05	716.27	235.69	1.5066e-05	1.5064e-05	335.67	114.78	91.992	35.397	1.7613e-05	44.657	36.219	259.402	108.190	-73.866	41.620	217.144	-75.278	-69.236	36.899	30.238	-72.130	-67.851	-65.508	-60.535	271.985	-64.540	-8191	255	
1652.830	1	1	0	0	0.15198	0.147	0.14114	0.23166	0.15801	0.1276	0.20825	0.16305	0.193	0.14436	0.10752	0.086334	0.18425	0.064506	0.38191	0.20012	-2.0604	-3.1958	-2.8438	-2.7229	-3.1771	-2.6042	-2.7854	-3.2354	-2.4646	-3.1125	-3.1458	-2.3333	-3.3917	-2.6646	-2.6562	-3.1188	2.789	91.920	-51.010	258.867	71.300	165.470	99.496	195.454	257.186	102.531	-76.748	-73.705	-53.019	247.530	-39.416	134.677	0.00020978	0.002205	0.00029164	482.11	4.0002e-06	1.1084e-05	528.49	179.52	7.2579e-06	2.8487e-05	226.66	86.479	70.168	27.378	2.2679e-05	32.475	0.0013372	0.0014072	0.00045246	674.51	1.4754e-05	1.5908e-05	715.75	231.77	1.4824e-05	1.6054e-05	335.92	113.17	91.187	36.389	1.7553e-05	43.994	-57.836	115.725	-11.003	-73.961	128.354	243.122	-75.396	-69.236	120.075	173.444	-72.467	-68.031	-65.460	-60.456	50.030	-64.422	-8191	255	
1652.901	1	1	0	0	0.14468	0.027915	0.10601	0.048606	0.28176	0.061741	0.040128	0.19582	0.085276	0.048722	0.13803	0.17287	0.15496	0.05672	0.21719	0.10721	-2.1521	-2.9896	-2.8312	-2.4271	-3.1688	-2.8146	-2.6583	-3.2208	-2.4646	-3.1771	-3.0854	-2.4562	-3.4958	-2.8042	-2.6958	-3.1979	217.450	96.864	-19.509	-32.453	228.430	-23.822	-26.258	168.865	114.312	113.801	240.254	213.342	-30.215	210.511	69.875	37.989	0.00014589	0.0024825	0.00049256	494.05	7.5528e-06	6.199e-06	543.77	181.25	9.1392e-06	1.48e-05	231.4	86.811	70.329	27.454	7.5984e-06	33.164	0.0013207	0.0015163	0.00043931	674.14	1.4457e-05	1.6921e-05	717.3	230.68	1.4578e-05	1.7015e-05	331.07	112.45	91.604	37.06	1.6428e-05	43.804	262.879	111.921	251.843	-73.983	-40.668	146.757	-75.315	-69.452	49.666	216.179	-71.841	-68.183	-65.327	-60.385	9.961	-64.232	-8191	255	
1652.997	1	1	0	0	0.093683	0.15878	0.35358	0.29343	0.10171	0.29983	0.27797	0.21415	0.10098	0.1861	0.25152	0.13982	0.17986	0.078656	0.14378	0.1834	-2.1813	-2.8146	-3.1396	-2.6542	-3.1708	-2.7208	-2.7062	-3.2458	-2.5938	-2.8333	-3.2396	-2.5167	-3.1729	-2.9375	-2.6792	-3.2396	128.720	13.245	54.368	-73.843	79.075	249.008	228.052	-45.221	-78.047	249.513	-40.049	182.855	221.676	-59.953	133.739	163.928	0.00033938	0.0018164	0.00012513	502.73	5.9962e-06	1.309e-05	558.64	183.62	8.3211e-06	8.8796e-06	233.68	88.444	71.276	27.954	9.5362e-06	33.389	0.001317	0.0015766	0.00040968	674.42	1.4743e-05	1.7364e-05	717.54	229.57	1.5013e-05	1.7377e-05	326.13	112.22	93.97	37.548	1.5649e-05	43.772	138.805	197.733	-53.685	-74.101	154.023	88.608	-75.293	-69.358	225.584	50.448	-71.647	-68.117	-64.903	-60.417	53.789	-63.726	-8191	255	
1653.094	1	1	0	0	0.27165	0.16818	0.11427	0.21776	0.18383	0.071246	0.52058	0.28581	0.076814	0.17662	0.17295	0.32376	0.10748	0.034983	0.12232	0.31961	-2.4062	-2.7333	-3.0875	-2.6479	-3.0125	-3.0083	-2.5229	-3.2792	-2.75	-2.7896	-3.2354	-2.7125	-2.9938	-2.9229	-2.4917	-3.2229	102.969	211.172	172.857	270.261	-37.798	23.549	124.699	262.378	213.553	8.053	130.455	177.501	-43.583	42.992	215.585	-81.070	0.00040018	0.002211	0.00037638	499.54	9.2022e-06	9.6002e-06	551.71	183.43	2.0275e-05	2.393e-05	229.99	86.838	69.851	27.601	1.0493e-05	32.461	0.0014128	0.0016005	0.0003964	667.35	1.5957e-05	1.7369e-05	705.83	228.21	1.6332e-05	1.7191e-05	319.87	111.19	95.609	36.897	1.5348e-05	43.227	156.375	54.254	-3.544	-73.808	217.569	35.228	-75.725	-69.367	201.181	41.575	-71.648	-68.208	-65.367	-60.623	31.007	-63.818	-8191	255	
1653.214	1	1	0	0	0.082915	0.14498	0.11654	0.099771	0.13145	0.14231	0.34592	0.239	0.23991	0.14751	0.17227	0.16516	0.31291	0.43094	0.29082	0.22758	-2.2417	-2.6	-3.1188	-2.7042	-3.0833	-3.2729	-2.5104	-3.2729	-2.8271	-2.5938	-3.2417	-2.7229	-3.1083	-3.1875	-2.5604	-3.1125	-47.376	119.604	-36.478	74.861	183.837	59.824	204.997	236.191	111.701	58.170	-82.129	0.447	-53.570	172.542	-14.754	221.696	0.00038857	0.0020307	0.00025408	491.31	9.5351e-06	6.377e-06	541.4	181.09	9.5775e-06	9.1416e-06	229.03	86.106	70.434	27.676	1.5673e-05	32.722	0.0015201	0.0015452	0.00038227	660.77	1.6933e-05	1.6456e-05	689.03	227.04	1.6968e-05	1.6226e-05	313.9	110.93	96.405	35.859	1.4407e-05	43.212	152.907	-80.535	-15.834	-73.966	-55.585	97.669	-75.655	-69.472	243.902	-32.651	-72.480	-67.909	-64.712	-60.069	46.107	-64.207	-8191	255	
1653.309	1	1	0	0	0.11849	0.13272	0.35849	0.063278	0.080415	0.065348	0.52218	0.22414	0.30575	0.089877	0.048562	0.29146	0.54371	0.30581	0.091884	0.29096	-2.4583	-2.6333	-3.2812	-2.6896	-2.9708	-3.2042	-2.5958	-3.1688	-2.9646	-2.5354	-3.1896	-2.8167	-3.0042	-3.2438	-2.6	-3.0667	57.515	203.284	-35.136	91.443	185.231	-56.356	209.080	151.271	111.370	53.491	87.944	172.508	222.998	183.565	-53.364	-70.340	0.00026069	0.0015946	0.00016983	496.86	8.1561e-06	7.7604e-06	548.38	182.13	1.0485e-06	2.4033e-05	230.45	87.156	71.044	27.606	6.0883e-06	32.441	0.0015025	0.0013907	0.00035265	664.2	1.6325e-05	1.4623e-05	681.06	228	1.6112e-05	1.4386e-05	305.51	111.96	95.135	35.025	1.3669e-05	44.177	152.670	-59.558	-54.442	-73.952	118.256	13.143	-75.725	-69.153	-2.149	-13.745	-72.537	-67.971	-65.836	-60.515	5.982	-64.309	-8191	255	
1653.405	1	1	0	0	0.11591	0.079829	0.12084	0.16969	0.14449	0.17607	0.16845	0.22006	0.075505	0.28009	0.10498	0.091058	0.23114	0.19088	0.16707	0.11864	-2.6979	-2.4875	-3.2146	-2.8729	-2.8333	-3.225	-2.6292	-2.9667	-3.075	-2.6458	-3.0833	-2.9521	-2.675	-3.4062	-2.5104	-2.8771	119.127	-62.530	107.084	175.489	121.045	258.880	198.910	169.480	-38.851	107.914	-73.531	254.133	-2.392	188.348	-8.128	34.120	0.00010464	0.0014027	0.00036494	496.47	6.1795e-06	1.4465e-05	543.61	179.72	1.6935e-05	1.4812e-05	227.78	86.532	71.035	27.381	7.1734e-06	32.562	0.001482	0.0013514	0.00035339	684.93	1.6718e-05	1.4968e-05	684.23	235.29	1.6975e-05	1.5357e-05	312.75	117.49	96.572	35.554	1.5104e-05	46.611	207.995	-62.949	-20.087	-74.050	158.862	36.155	-75.351	-69.350	26.171	-50.988	-71.938	-67.990	-65.455	-60.683	232.507	-64.338	-8191	255	
1653.501	1	1	0	0	0.10315	0.20031	0.17155	0.19841	0.43357	0.23912	0.15208	0.21242	0.40868	0.26876	0.11099	0.1299	0.18004	0.16627	0.23995	0.2525	-2.6271	-2.5167	-3.0521	-2.8854	-2.7417	-3.1	-2.5896	-2.9229	-3.1917	-2.3833	-3.2958	-3.0146	-2.5792	-3.2687	-2.3729	-2.7938	229.318	74.278	151.642	139.380	38.860	18.817	-22.843	-79.126	195.347	32.741	236.786	-75.996	117.116	139.090	-67.298	67.540	0.00020754	0.00048199	0.00012959	478.23	6.1621e-06	1.6159e-05	515.51	175.76	8.9016e-06	4.3702e-06	219.33	84.956	69.312	26.73	1.2327e-05	31.888	0.0015407	0.0014515	0.00039345	705.99	1.7512e-05	1.6093e-05	686.14	242.44	1.7746e-05	1.6534e-05	325.37	121.12	97.027	35.86	1.7503e-05	48.128	-87.061	44.141	-7.153	-74.447	43.018	115.704	-75.555	-69.647	50.646	-18.161	-72.379	-68.357	-65.405	-60.563	183.815	-63.985	-8191	255	
1653.597	1	1	0	0	0.22613	0.035161	0.12843	0.2172	0.056831	0.091064	0.12837	0.072631	0.042497	0.077992	0.16062	0.033489	0.46557	0.16834	0.22	0.3058	-2.7229	-2.2396	-3.1479	-2.9458	-2.6312	-3.2167	-2.6958	-2.9562	-3.0771	-2.6146	-3.2479	-2.925	-2.7354	-3.1333	-2.8167	-2.8	219.224	187.351	194.602	240.194	17.644	-57.432	72.703	104.744	38.346	138.602	14.710	145.265	249.259	41.993	40.126	202.803	0.00041985	0.0010379	6.3169e-05	458.79	8.4295e-07	1.2989e-05	492.82	172.99	5.1322e-06	1.2093e-05	217	84.462	69.829	26.787	1.7373e-05	32.036	0.0016146	0.0015342	0.0004587	712.89	1.7878e-05	1.6776e-05	694.5	242.78	1.7666e-05	1.645e-05	336.15	120.02	95.72	35.621	1.8528e-05	47.075	-44.125	-56.083	59.196	-74.454	106.592	43.097	-75.950	-69.484	89.019	-64.031	-71.584	-68.457	-65.169	-60.046	139.867	-63.992	-8191	255	
1653.693	1	1	0	0	0.17726	0.14918	0.13234	0.080621	0.12925	0.071596	0.023786	0.10203	0.24347	0.2287	0.28437	0.27727	0.1349	0.1354	0.22984	0.11226	-2.6896	-2.5417	-2.7896	-2.9625	-2.5833	-3.3083	-2.7458	-2.8729	-3.1458	-2.575	-3.1146	-3.15	-2.4792	-3.2583	-2.8458	-2.5854	200.498	138.188	-57.940	114.083	-37.491	-35.579	-49.347	-70.698	264.462	26.774	135.079	124.155	95.530	148.743	240.821	-81.146	0.00011053	0.00098348	0.00064207	475.02	4.2777e-06	1.1067e-05	519.16	178.46	1.143e-05	4.1692e-06	224.21	86.167	70.259	27.189	8.7701e-06	32.578	0.0015166	0.0014705	0.00047341	701.02	1.6561e-05	1.5851e-05	719.08	238.84	1.6058e-05	1.5758e-05	341.23	116.36	93.967	35.503	1.8336e-05	45.389	-84.000	29.745	64.282	-74.508	-23.765	222.819	-75.504	-69.393	27.592	132.400	-71.913	-68.134	-65.137	-60.427	139.055	-64.279	-8191	255	
1653.814	1	1	0	0	0.11892	0.16128	0.179	0.13874	0.25384	0.18782	0.1395	0.1709	0.18471	0.12768	0.16377	0.2372	0.2583	0.04999	0.15423	0.42106	-2.9729	-2.5333	-2.9271	-2.9833	-2.5708	-3.1104	-2.9062	-2.7188	-3.1896	-2.6125	-2.9208	-3.3104	-2.7313	-3.0521	-3.1	-2.4875	50.488	70.774	256.256	-34.069	255.195	163.034	63.241	221.650	9.153	4.569	175.394	-83.968	-4.981	-57.856	114.352	-71.418	0.0002805	0.0017245	0.00013058	493.65	2.223e-06	1.4246e-05	544.21	182.69	6.4916e-06	1.4989e-05	232.38	87.688	71.857	27.803	1.526e-05	33.243	0.0013791	0.0014404	0.00046204	688.41	1.5228e-05	1.5655e-05	733.24	234.93	1.4702e-05	1.5747e-05	340.09	113.66	92.326	36.105	1.7239e-05	44.42	17.009	156.753	-23.613	-74.380	63.717	184.538	-75.658	-69.392	-24.698	162.884	-71.732	-68.501	-65.230	-60.486	51.894	-64.000	-8191	255	
1653.910	1	1	0	0	0.1792	0.025167	0.2093	0.099822	0.067174	0.20588	0.19035	0.11523	0.075759	0.28006	0.26116	0.061653	0.35925	0.09695	0.15401	0.3907	-2.9625	-2.5125	-2.4979	-3.2729	-2.5938	-3.0792	-3.0812	-2.6167	-3.0604	-2.7854	-2.7438	-3.2438	-2.7167	-3.1354	-2.9938	-2.5938	77.471	264.905	15.078	-3.235	168.312	229.642	34.625	109.334	180.802	-54.804	143.380	16.909	256.228	222.489	126.385	-20.994	6.3009e-05	0.0023124	0.00040367	507	6.7645e-06	1.6865e-05	559.62	185.35	2.6093e-06	5.2614e-06	236.41	88.418	71.035	28.005	6.2996e-06	33.207	0.0012735	0.0014453	0.00043001	676.12	1.4035e-05	1.5884e-05	727.95	231.56	1.3691e-05	1.5856e-05	329.19	110.86	90.208	36.225	1.5369e-05	42.825	159.767	108.812	-77.441	-73.958	76.837	185.083	-75.692	-69.380	-51.229	231.777	-72.284	-68.005	-64.819	-60.401	37.540	-64.348	-8191	255	
1654.006	1	1	0	0	0.10345	0.19271	0.1989	0.15542	0.17276	0.1343	0.1352	0.25705	0.12481	0.10807	0.084183	0.19965	0.1168	0.17146	0.27752	0.33708	-2.9479	-2.6688	-2.6333	-3.2562	-2.5	-3.0479	-3.0292	-2.7313	-3.1437	-2.8396	-2.7562	-3.1021	-2.8083	-2.9688	-2.8042	-2.6771	11.909	118.374	149.147	264.260	188.059	-55.515	186.621	198.152	107.886	-32.949	84.664	133.546	-81.426	30.990	229.559	9.551	0.00032519	0.00097367	0.00021009	507.06	1.0018e-05	9.3708e-06	555.41	184.33	9.2373e-06	7.614e-06	233.5	87.171	71.029	27.749	2.8688e-05	32.688	0.0011891	0.0014297	0.00038232	658.31	1.3454e-05	1.5922e-05	702.73	226.82	1.3739e-05	1.6385e-05	320.55	109.83	91.877	36.908	1.5451e-05	42.999	176.881	169.014	-77.897	-73.950	253.336	161.351	-75.619	-69.345	110.079	176.228	-72.057	-68.105	-65.303	-60.312	29.876	-64.050	-8191	255	
1654.102	1	1	0	0	0.10272	0.062291	0.078694	0.12356	0.025776	0.192	0.23588	0.24611	0.094418	0.098485	0.14627	0.10325	0.10219	0.18677	0.22498	0.28843	-2.4917	-3.0542	-2.5125	-3.1083	-2.6375	-2.9104	-3.0729	-2.7333	-3.1729	-2.7958	-2.7062	-3.1562	-2.7687	-2.9188	-3.2125	-2.5708	-80.409	-85.966	17.221	239.592	250.976	-68.564	245.747	251.395	213.533	98.106	152.352	-73.510	89.823	-73.427	47.786	147.506	0.0004415	0.00097308	0.00027142	492.21	2.4735e-06	1.8502e-05	540.79	181.61	1.8072e-05	1.4098e-05	232.68	86.928	70.228	27.762	1.6848e-05	32.633	0.0013496	0.0015832	0.00039415	655.34	1.5509e-05	1.7355e-05	693.46	227.1	1.5763e-05	1.73e-05	321.55	110.27	95.46	37.108	1.5248e-05	43.235	158.917	244.175	-8.597	-73.956	-53.925	53.880	-75.936	-69.377	231.242	-15.236	-72.064	-68.130	-65.361	-60.426	7.701	-64.446	-8191	255	
1654.197	1	1	0	0	0.24089	0.11792	0.056943	0.20894	0.062578	0.091565	0.030452	0.17738	0.13026	0.07907	0.22911	0.085514	0.1443	0.046824	0.069009	0.19714	-2.6271	-2.8271	-2.4813	-3.1271	-2.7083	-2.9417	-3.1792	-2.6688	-2.8187	-2.9437	-2.4875	-3.3021	-2.9396	-2.8854	-3.3083	-2.5708	172.998	9.451	17.519	-45.486	43.102	178.632	44.533	102.616	164.487	-36.139	263.348	-29.778	70.975	151.871	104.914	239.076	0.00035955	0.0029285	1.6989e-05	490.29	1.5071e-05	1.6843e-05	536.23	180.25	1.1196e-05	2.4132e-05	230.59	86.495	71.046	27.937	9.1518e-06	32.726	0.0014848	0.0015662	0.00038684	658	1.6825e-05	1.6977e-05	690.76	227.56	1.7177e-05	1.7014e-05	320.41	111.84	98.688	37.009	1.5557e-05	44.341	177.752	-23.323	138.574	-74.204	231.340	12.283	-75.677	-69.489	257.970	-4.881	-72.429	-68.062	-65.247	-60.713	-1.485	-64.136	-8191	255	
1654.293	1	1	0	0	0.1037	0.084029	0.16321	0.10064	0.20937	0.24216	0.29899	0.13144	0.077183	0.034487	0.20614	0.299	0.2144	0.035971	0.26464	0.15952	-2.425	-3.0896	-2.5896	-3.0271	-2.7292	-2.7562	-3.3	-2.5792	-2.8417	-3.25	-2.3333	-3.275	-2.8604	-2.7229	-3.2417	-2.7375	-7.047	110.828	266.844	-50.414	150.119	135.259	264.384	211.778	116.988	144.459	260.468	251.657	-65.755	-1.947	72.801	146.126	0.00037347	0.0028412	0.00015511	476.21	5.7279e-06	1.6939e-05	517.17	177.02	6.5944e-06	1.4059e-05	225.49	84.107	70.668	27.563	7.0694e-06	31.822	0.0016499	0.0015781	0.00040207	670.89	1.897e-05	1.7502e-05	684.44	234.09	1.9379e-05	1.7617e-05	324.48	115.86	101.88	37.312	1.6482e-05	46.436	180.183	-17.725	-73.181	-74.117	-52.175	35.356	-75.433	-69.745	179.248	68.190	-71.790	-68.327	-65.439	-60.247	61.942	-64.044	-8191	255	
1654.389	1	1	0	0	0.24331	0.35059	0.18839	0.069128	0.21163	0.19886	0.11177	0.20116	0.29236	0.25253	0.17545	0.24958	0.24124	0.1285	0.11427	0.013384	-2.4479	-3.1104	-2.3521	-3.1917	-2.9	-2.4729	-3.375	-2.8208	-2.6771	-3.2125	-2.6479	-2.9958	-3.1167	-2.4646	-3.3187	-2.7771	6.691	140.688	74.895	120.082	159.760	67.890	241.910	174.878	-51.722	-47.246	253.390	-21.995	225.071	-27.843	84.578	98.375	6.2285e-05	0.0014072	0.00018243	463.58	7.0002e-06	1.287e-05	505.7	176.7	9.1211e-06	2.0686e-05	221.31	83.428	70.383	27.436	1.6668e-05	31.867	0.0017992	0.0016267	0.00042533	697.15	2e-05	1.7863e-05	679.51	243.39	1.9843e-05	1.7605e-05	325.49	119.75	101.11	37.126	1.6505e-05	47.642	114.826	35.124	193.099	-74.004	-35.382	43.053	-75.632	-69.060	35.413	70.657	-72.036	-68.502	-66.014	-60.607	196.092	-64.201	-8191	255	
1654.485	1	1	0	0	0.1858	0.049825	0.10734	0.065744	0.10192	0.30048	0.24057	0.1052	0.22784	0.011856	0.1474	0.075838	0.21505	0.28398	0.17143	0.13251	-2.2104	-3.2458	-2.4062	-3.0938	-3.025	-2.4875	-3.15	-3.0687	-2.5687	-3.1625	-2.5812	-3.0604	-3.0146	-2.5583	-3.0729	-3.0146	193.238	180.166	-60.684	142.159	251.023	46.006	118.334	199.094	263.067	-71.479	180.641	244.691	-66.542	222.676	-28.627	-67.105	0.00025919	0.001157	0.0002393	466.98	1.771e-05	1.4274e-05	510.15	180.9	1.3505e-05	8.2268e-06	224.49	84.809	70.852	27.867	1.2948e-05	31.964	0.0017208	0.0015745	0.00042104	713.15	1.8406e-05	1.6625e-05	679.44	245.41	1.7625e-05	1.5979e-05	320.18	118.74	96.264	35.854	1.5658e-05	46.582	-2.876	239.646	128.298	-73.987	79.773	-13.866	-75.337	-69.047	-24.255	-9.180	-71.949	-67.856	-65.314	-60.515	207.509	-64.471	-8191	255	
1654.606	1	1	0	0	0.21527	0.29622	0.051664	0.11196	0.057073	0.045662	0.15334	0.18027	0.31353	0.19096	0.10396	0.2763	0.48865	0.29362	0.17915	0.12926	-2.1667	-3.3104	-2.7438	-2.7854	-3.3917	-2.3917	-3.0667	-2.9292	-2.5833	-3.4125	-2.7042	-3.0583	-3.1583	-2.5542	-3.1542	-2.8979	177.470	233.722	-43.465	-13.622	205.552	-56.486	268.370	241.438	159.474	39.676	76.369	175.320	254.486	246.362	263.615	-85.051	0.00031167	0.0010448	0.000604	488.72	1.5926e-05	6.7272e-06	537.14	185.97	1.0773e-05	1.0035e-05	229.22	87.05	71.587	28.012	1.8076e-05	33.341	0.0014536	0.0013693	0.00039366	703.91	1.5525e-05	1.4309e-05	689.85	241.33	1.4894e-05	1.3864e-05	320.7	115.52	92.463	35.004	1.5336e-05	45.538	245.070	-56.282	82.679	-74.078	42.482	15.831	-75.412	-69.180	25.433	99.992	-71.965	-68.419	-65.322	-60.403	191.600	-64.251	-8191	255	
1654.702	1	1	0	0	0.17842	0.16471	0.18383	0.097472	0.26081	0.2102	0.09742	0.33228	0.025674	0.30431	0.12565	0.37826	0.23849	0.030513	0.087726	0.17423	-2.0062	-3.0729	-2.7188	-2.925	-3.2062	-2.5354	-3.1813	-3.0312	-2.4479	-3.3146	-2.7562	-2.8292	-3.2771	-2.6979	-3.0396	-2.9813	56.593	74.668	218.518	225.114	-80.341	103.019	-11.131	192.714	-83.861	154.836	264.525	248.065	226.850	87.750	40.276	177.075	0.00013885	0.0019686	0.00027086	500.82	5.2657e-06	1.3187e-05	546.59	188.42	6.8265e-06	1.8047e-06	229.74	88.23	71.449	28.223	1.0729e-05	33.214	0.0013249	0.0012627	0.00040541	697.52	1.46e-05	1.4071e-05	711.55	239.94	1.4627e-05	1.3934e-05	330.59	114.93	92.257	35.403	1.6536e-05	44.792	165.407	5.982	116.422	-74.100	34.527	248.148	-75.348	-69.270	-8.008	169.020	-71.738	-67.970	-65.246	-60.528	138.030	-64.269	-8191	255	
1654.774	1	1	0	0	0.13607	0.15366	0.19598	0.1142	0.097347	0.34195	0.27006	0.19551	0.14937	0.04458	0.062991	0.20603	0.081645	0.04736	0.17799	0.05028	-1.9813	-2.9708	-2.8292	-2.6208	-3.2354	-2.5125	-2.8708	-3.0583	-2.5917	-3.0917	-2.8708	-2.6479	-3.2146	-2.6229	-2.7542	-3.0625	-21.985	10.562	2.101	10.241	116.638	-78.665	172.037	-58.096	58.670	-73.487	130.789	80.043	17.206	-14.954	68.963	234.828	0.00010921	0.0028277	8.6683e-05	496.36	9.044e-06	1.4004e-05	541.21	187.44	4.6116e-06	1.1495e-05	230.92	86.855	71.638	28.049	7.8074e-06	33.051	0.0012939	0.0012969	0.00042565	679.32	1.4175e-05	1.4372e-05	712.14	235.16	1.3976e-05	1.4364e-05	330.75	111.53	90.693	35.517	1.6289e-05	43.335	183.728	149.477	37.593	-74.004	124.318	229.420	-75.683	-69.219	-18.257	125.628	-71.925	-67.939	-65.028	-60.260	182.299	-63.732	-8191	255	
1654.894	1	1	0	0	0.16591	0.23371	0.20095	0.11308	0.060761	0.25341	0.12387	0.34823	0.030599	0.074524	0.070959	0.13298	0.06919	0.2014	0.11491	0.19709	-2.0062	-2.8438	-2.7979	-2.75	-3.1979	-2.7479	-2.6979	-3.1521	-2.3208	-3.1125	-3.0354	-2.475	-3.2292	-2.7438	-2.6833	-3.15	100.215	-61.489	56.342	-17.201	97.415	151.273	166.848	184.827	-22.485	-82.234	74.769	49.311	196.144	205.161	122.169	-34.048	0.0002739	0.0015338	0.00041944	503.12	4.5312e-06	1.8037e-05	550.93	188.46	9.8005e-06	1.8264e-05	233.33	87.408	71.244	28.248	2.1952e-05	33.082	0.00122	0.0013361	0.00041087	665.68	1.3334e-05	1.4839e-05	710.93	231.39	1.3263e-05	1.4966e-05	326.08	110.14	89.962	36.278	1.5534e-05	42.865	-86.017	119.769	-62.749	-73.502	114.505	193.220	-75.012	-69.221	-42.075	180.632	-72.330	-68.360	-65.076	-59.974	-20.398	-63.934	-8191	255	
1654.990	1	1	0	0	0.17236	0.21294	0.22912	0.12513	0.084986	0.22531	0.15636	0.099915	0.11009	0.30749	0.06175	0.051241	0.17193	0.024447	0.099378	0.32362	-2.15	-2.8917	-2.9896	-2.4813	-3.2188	-2.8438	-2.6375	-3.175	-2.4625	-2.7812	-3.0938	-2.4979	-3.2333	-2.8708	-2.6146	-3	181.128	-49.017	50.275	179.864	91.336	117.748	221.421	183.089	62.703	233.388	208.867	231.034	144.558	107.129	101.555	213.415	0.0002527	0.0013542	0.00032687	507.15	4.7394e-07	7.4644e-06	552.65	187.96	8.807e-06	1.1557e-05	236.19	88.291	71.46	28.521	1.0913e-05	33.587	0.0011948	0.0014145	0.00039088	664.54	1.3294e-05	1.5896e-05	706.46	230.1	1.3648e-05	1.5995e-05	321.71	110.28	90.907	36.964	1.4847e-05	42.91	188.223	152.554	-52.175	-73.966	-75.869	239.043	-74.977	-69.276	250.077	198.687	-71.562	-68.291	-64.885	-60.263	-32.120	-64.060	-8191	255	
1655.086	1	1	0	0	0.14525	0.18818	0.18813	0.12731	0.32811	0.11584	0.11005	0.070341	0.37137	0.15912	0.13432	0.087392	0.061003	0.18786	0.13623	0.10811	-2.1458	-2.8833	-3.1188	-2.4625	-3.15	-2.9437	-2.7167	-3.2583	-2.6771	-2.8771	-3.1583	-2.6542	-3.0208	-2.8542	-2.7646	-3.1562	-40.038	-38.059	-62.877	45.695	251.931	256.556	196.442	230.933	127.160	236.181	234.208	113.081	257.930	-85.967	245.231	142.433	0.00056299	0.0008892	0.00044218	505.91	1.2901e-05	1.0153e-05	553.98	189.08	1.1096e-05	5.7166e-06	235.57	87.238	71.212	28.35	1.2014e-05	33.337	0.0012512	0.0014643	0.00036806	657.67	1.3909e-05	1.613e-05	693.59	229.48	1.4331e-05	1.6087e-05	315.28	108.93	92.626	36.795	1.4098e-05	42.282	190.895	-72.386	-84.138	-73.839	258.326	60.213	-75.148	-68.964	163.491	-3.048	-71.949	-68.017	-65.042	-60.159	57.463	-64.164	-8191	255	
1655.205	1	1	0	0	0.29891	0.052647	0.19125	0.14049	0.23842	0.075535	0.29732	0.042343	0.025518	0.088374	0.035294	0.22695	0.22821	0.071474	0.25882	0.074727	-2.2333	-2.6021	-2.9333	-2.4604	-2.9729	-2.95	-2.6333	-3.0979	-2.6104	-2.7146	-3.1437	-2.5146	-2.9083	-3.125	-2.4375	-3.1854	226.717	4.644	-17.887	52.107	83.978	169.710	195.088	69.220	-1.312	34.428	180.440	27.696	246.548	150.801	139.702	-42.159	0.00021963	0.0022761	8.4356e-05	496.2	1.1914e-05	1.7504e-05	537.37	187.41	8.8558e-06	1.8172e-05	229.18	85.968	70.675	28.296	9.786e-06	32.249	0.0013237	0.001436	0.00035223	645.22	1.4844e-05	1.5476e-05	673.21	226.69	1.5209e-05	1.5372e-05	307.9	107.54	94.18	36.247	1.4008e-05	42.214	179.395	44.098	224.283	-73.721	192.740	-3.488	-75.457	-69.461	197.227	17.715	-72.404	-67.997	-65.251	-60.105	37.517	-63.837	-8191	255	
1655.301	1	1	0	0	0.016185	0.1663	0.26142	0.15688	0.19525	0.22341	0.27446	0.20839	0.074843	0.064009	0.08151	0.099421	0.028716	0.024201	0.17514	0.14016	-2.3167	-2.9042	-3.1271	-2.6542	-3.1292	-3.0521	-2.3229	-3.3854	-2.7042	-2.7667	-3.1937	-2.7271	-2.7729	-3.1354	-2.4354	-3.0229	232.910	158.917	237.379	122.027	166.909	221.106	-72.470	252.526	83.287	145.805	0.776	155.734	0.053	44.335	125.322	140.201	0.00035049	0.0028234	0.00018557	491.48	9.4454e-06	1.4528e-05	530.55	185.47	2.6313e-06	1.2679e-05	228.13	85.336	70.939	28.501	1.5154e-05	32.51	0.0014354	0.0013999	0.00035622	650.62	1.6263e-05	1.5233e-05	669.55	229.15	1.6472e-05	1.521e-05	307.31	109.69	95.98	36.034	1.4086e-05	43.348	141.304	-16.831	190.647	-73.888	221.127	25.504	-75.431	-69.154	259.677	-27.610	-72.110	-68.404	-65.092	-60.427	17.793	-64.119	-8191	255	
1655.373	1	1	0	0	0.15515	0.14575	0.10135	0.21074	0.12036	0.14753	0.13335	0.022065	0.091493	0.2173	0.16613	0.16788	0.30945	0.12125	0.2588	0.13703	-2.325	-2.6167	-3.2562	-2.5792	-2.6688	-3.2458	-2.6229	-3.175	-2.9042	-2.7292	-3.2896	-2.7875	-2.7438	-3.2896	-2.4104	-3.0458	217.773	74.817	-52.850	271.243	195.352	260.763	125.077	21.493	240.555	35.607	222.486	216.337	272.753	216.843	-41.503	73.046	0.00019624	0.00073451	0.00030034	486.49	1.8252e-06	7.1075e-06	529.39	184.29	1.4896e-05	3.0636e-06	227.14	85.022	71.538	28.371	4.5349e-06	32.545	0.0015066	0.0013758	0.00035607	668.87	1.6806e-05	1.5072e-05	671.69	235.75	1.6853e-05	1.5119e-05	307.34	113.47	96.541	36.024	1.4193e-05	45.04	23.525	85.282	-41.187	-73.624	-27.677	210.336	-75.268	-68.872	48.002	263.512	-71.958	-67.970	-65.331	-60.395	42.923	-63.910	-8191	255	
1655.494	1	1	0	0	0.065065	0.03581	0.30627	0.25	0.24404	0.15745	0.016679	0.10166	0.11212	0.40727	0.17753	0.11286	0.22631	0.2568	0.20457	0.078207	-2.5542	-2.4833	-3.1417	-2.7792	-2.6875	-3.1729	-2.5771	-2.8812	-3.1333	-2.5104	-3.4375	-2.7583	-2.8521	-3.3354	-2.4042	-3.0354	-16.015	234.136	-59.236	213.271	-7.882	-9.469	132.975	226.119	142.512	61.181	15.605	116.583	229.541	15.342	258.387	178.885	8.6998e-05	0.0016397	0.00021055	487.4	2.4051e-06	1.0709e-05	527.94	184.18	1.6185e-05	8.9219e-06	225.41	86.136	71.402	28.267	1.0413e-05	32.098	0.0014989	0.0013711	0.00036061	689.29	1.6471e-05	1.4977e-05	672.24	241.16	1.641e-05	1.5053e-05	310.87	116.74	95.512	35.853	1.4839e-05	46.055	197.986	0.653	60.332	-73.784	259.283	-7.481	-75.501	-68.835	29.235	109.487	-72.011	-67.911	-64.737	-59.999	162.997	-63.802	-8191	255	
1655.590	1	1	0	0	0.037786	0.16402	0.11161	0.27266	0.17217	0.21283	0.12033	0.033603	0.23434	0.2172	0.072769	0.26185	0.10302	0.33182	0.025306	0.2071	-2.5208	-2.4396	-3.0229	-2.7354	-2.6188	-2.9979	-2.6354	-2.85	-3.1167	-2.5187	-3.1354	-3.0083	-2.6562	-3.1604	-2.6271	-2.7583	252.128	-3.432	166.030	79.058	171.533	269.123	121.290	157.729	-5.307	50.532	49.651	200.443	-79.043	-41.137	-7.558	196.249	0.00015645	0.0021175	0.00025539	488.36	9.1651e-06	8.7348e-06	519.41	184.59	1.0759e-05	9.5779e-06	222.06	85.265	70.765	28.185	2.0317e-05	32.242	0.0014422	0.0013535	0.0003808	700.29	1.5936e-05	1.4721e-05	679.32	243.51	1.5819e-05	1.4817e-05	317.14	116.49	94.014	35.533	1.6173e-05	45.94	-24.547	-36.255	75.197	-74.123	90.554	4.530	-75.759	-68.858	13.220	-24.956	-72.439	-67.951	-65.037	-60.355	221.518	-64.209	-8191	255	
1655.686	1	1	0	0	0.30064	0.16173	0.07263	0.18963	0.15038	0.04161	0.31743	0.06615	0.19468	0.28572	0.1679	0.186	0.57046	0.31748	0.10311	0.18338	-2.6146	-2.6063	-2.8187	-2.875	-2.5125	-3.3021	-2.7792	-2.8375	-3.3042	-2.5583	-2.9896	-3.0292	-2.4917	-3.2938	-2.7396	-2.675	-68.197	226.164	-28.990	248.358	153.266	208.704	121.747	226.469	56.960	207.986	41.986	183.398	269.854	237.341	128.426	181.332	0.00023405	0.0007387	0.00049321	488.08	1.3443e-05	4.9289e-06	521.28	185.99	9.5104e-06	6.79e-06	224.43	84.913	71.031	28.21	1.0224e-05	32.936	0.0013878	0.0013327	0.00040734	692.87	1.5112e-05	1.4115e-05	689.34	239.5	1.4717e-05	1.3949e-05	321.73	112.78	91.595	35.02	1.5996e-05	44.226	-30.122	-77.274	51.222	-73.801	125.872	73.450	-75.179	-69.050	10.393	94.266	-71.311	-68.378	-65.177	-60.314	217.935	-63.610	-8191	255	
1655.782	1	1	0	0	0.24325	0.17906	0.15099	0.17117	0.17415	0.15262	0.047705	0.3952	0.15543	0.17308	0.11638	0.18933	0.19883	0.21318	0.17243	0.22639	-2.9562	-2.6063	-2.8896	-3.0854	-2.4188	-3.0458	-2.8021	-2.5479	-3.3812	-2.5146	-2.9437	-2.9792	-2.4375	-3.0875	-2.8104	-2.7604	140.686	-30.853	101.099	24.979	55.666	167.574	132.100	263.640	217.718	199.100	43.092	266.779	45.478	265.170	125.276	-84.118	0.00020378	0.00087164	0.0003999	495.45	5.43e-06	1.5114e-05	537.57	189.13	9.3812e-06	1.1608e-05	229.25	86.404	71.364	28.256	2.3615e-06	33.042	0.0012638	0.0012399	0.0004006	671.99	1.3542e-05	1.3379e-05	695.64	233.57	1.3091e-05	1.3165e-05	319.13	108.76	88.797	34.754	1.4987e-05	42.509	214.277	173.541	98.466	-73.478	250.857	179.605	-75.201	-69.034	145.125	202.503	-71.598	-67.960	-64.771	-59.838	130.812	-63.789	-8191	255	
1655.903	1	1	0	0	0.10312	0.12891	0.08265	0.27445	0.26476	0.056575	0.080475	0.31477	0.068675	0.2668	0.051871	0.022294	0.22229	0.27211	0.18738	0.1445	-2.7896	-2.6646	-2.8396	-3.2021	-2.4917	-3.2062	-3.0167	-2.5062	-3.4062	-2.5	-2.7625	-3.175	-2.4375	-3.0854	-3.0938	-2.5292	234.563	221.679	72.529	163.794	182.575	76.261	-36.259	223.116	170.002	260.427	24.327	254.080	-72.774	216.204	-18.303	227.203	0.00011321	0.00059203	5.4814e-05	508.5	1.7762e-06	1.0326e-05	553.57	190.67	6.5467e-06	9.4879e-06	234.11	87.272	71.671	28.528	1.3896e-05	33.064	0.0011225	0.0012062	0.0003747	652.95	1.2252e-05	1.3126e-05	696.03	229.25	1.198e-05	1.3309e-05	315.63	106.81	87.943	35.318	1.414e-05	41.901	194.421	75.731	255.816	-73.742	52.864	162.282	-75.048	-68.909	50.415	194.498	-71.697	-67.914	-64.461	-60.082	64.618	-64.318	-8191	255	
1655.999	1	1	0	0	0.19606	0.19326	0.081277	0.19382	0.095982	0.12142	0.11763	0.18976	0.092595	0.10717	0.13609	0.18326	0.14649	0.15395	0.18376	0.19264	-2.6437	-2.6833	-2.5979	-3.275	-2.4354	-2.8479	-3.0708	-2.4875	-3.0167	-2.8771	-2.8125	-3.2583	-2.4813	-2.9854	-3.0667	-2.5896	23.747	-39.712	205.359	161.817	91.129	112.151	59.386	209.605	250.473	-58.433	-48.361	4.142	-77.525	51.583	139.948	34.930	0.00017716	0.0010741	0.00012923	504.99	9.871e-06	1.004e-05	557.12	189.77	5.6875e-06	1.3989e-05	233.31	85.529	71.116	28.219	9.7117e-06	32.63	0.0010695	0.0012546	0.00035391	642.16	1.1789e-05	1.3616e-05	683.48	225.61	1.1565e-05	1.3739e-05	305.86	103.93	86.824	35.092	1.3067e-05	40.68	196.613	149.764	43.150	-73.371	214.820	221.063	-74.963	-68.709	-70.174	260.393	-71.549	-67.767	-64.491	-60.088	2.294	-63.924	-8191	255	
1656.071	1	1	0	0	0.20736	0.16294	0.17784	0.12663	0.25281	0.096234	0.13899	0.15587	0.20219	0.24849	0.37386	0.1085	0.22562	0.1825	0.19124	0.19543	-2.6458	-2.6021	-2.6854	-3.1063	-2.5292	-3.025	-3.1458	-2.3125	-3.0542	-2.8792	-2.5312	-3.2167	-2.675	-3.0083	-3.1625	-2.3583	149.228	112.651	-6.284	185.789	221.424	89.529	-52.536	237.122	95.653	-62.324	-73.748	-57.065	252.086	251.738	242.287	-1.955	0.00015971	0.00013301	0.00036112	510.8	6.722e-06	1.5561e-05	561.19	189.15	3.9692e-06	5.0275e-06	234.01	84.939	70.311	28.179	5.9982e-06	33.071	0.0010653	0.001267	0.00032643	635.21	1.1913e-05	1.3832e-05	674.78	222.91	1.2107e-05	1.3972e-05	301.51	102.4	87.958	35.143	1.2481e-05	40.551	163.449	0.578	-34.110	-73.144	134.512	163.526	-75.107	-68.914	209.363	55.553	-71.703	-67.890	-64.726	-60.350	-23.766	-63.789	-8191	255	
1656.167	1	1	0	0	0.19823	0.23743	0.21692	0.10626	0.046624	0.13618	0.31444	0.18546	0.10735	0.12772	0.082053	0.3081	0.11422	0.1437	0.16881	0.12847	-2.4313	-2.8729	-2.4792	-3.1937	-2.5146	-2.8458	-3.0354	-2.4458	-3.0667	-3.0771	-2.4958	-3.0333	-2.8063	-2.8333	-3.0479	-2.4688	258.799	9.091	207.874	-23.391	114.268	247.356	247.076	179.529	17.372	63.647	204.727	246.886	28.742	-29.420	241.513	-9.310	0.00049098	0.00048683	7.3141e-05	513.49	1.1946e-05	1.3033e-05	567.8	188.5	8.3238e-06	2.2829e-05	232.2	85.117	70.561	28.34	9.1003e-06	33.114	0.0011428	0.0012833	0.00031881	638.63	1.3172e-05	1.416e-05	681.89	223.32	1.3541e-05	1.4248e-05	304.36	103.56	91.164	35.441	1.2792e-05	41.37	171.703	3.106	239.070	-73.455	238.472	107.890	-74.845	-68.458	184.234	-23.862	-71.747	-67.368	-64.556	-60.342	38.486	-64.334	-8191	255	
1656.286	1	1	0	0	0.026545	0.095489	0.062361	0.13835	0.21032	0.13411	0.1419	0.12736	0.19052	0.034838	0.23143	0.17783	0.076386	0.24834	0.17387	0.10085	-2.5021	-2.9771	-2.3896	-2.9938	-2.7313	-2.7521	-3.2708	-2.5917	-2.8438	-3.0958	-2.3625	-3.2271	-2.7729	-2.6083	-3.1917	-2.6562	114.893	-52.989	112.201	262.995	-63.601	224.629	155.029	86.858	115.131	95.116	241.924	68.278	231.243	-83.434	131.931	253.673	0.0003569	0.00093261	0.00014358	514.92	1.4312e-05	1.0375e-05	573.09	188.59	1.0636e-05	2.05e-05	236.39	84.55	70.685	28.092	4.2093e-06	33.097	0.0012897	0.0013042	0.00032789	651.2	1.4754e-05	1.4248e-05	692.21	227.4	1.5085e-05	1.4223e-05	308.16	106.09	93.607	35.32	1.3147e-05	42.6	165.636	-38.152	-44.482	-73.588	202.973	50.991	-75.313	-68.633	38.120	8.549	-71.534	-67.734	-64.720	-59.808	13.174	-64.290	-8191	255	
1656.382	1	1	0	0	0.20555	0.19328	0.12669	0.06709	0.18168	0.25019	0.35121	0.17953	0.014864	0.25649	0.37351	0.089255	0.13347	0.28351	0.16196	0.15678	-2.4	-3.1937	-2.4896	-3.1979	-2.8438	-2.6375	-3.0563	-2.6083	-2.85	-3	-2.5458	-3.1562	-2.8063	-2.6208	-3.1229	-2.5396	182.320	-48.998	56.383	266.787	109.622	-43.563	227.340	94.494	-21.569	259.393	253.804	107.396	39.609	215.913	169.355	159.874	0.00023039	0.0013535	0.00020098	505.75	4.1553e-07	6.1126e-06	556.83	186.5	5.4409e-06	1.9647e-05	230	81.692	70.205	27.457	1.4227e-06	32.1	0.0014027	0.0013007	0.00033583	666.64	1.5772e-05	1.4265e-05	681.81	232.02	1.5991e-05	1.4298e-05	306.82	107.76	94.269	34.954	1.3543e-05	43.471	181.266	-18.185	-81.812	-73.749	-6.491	161.360	-75.428	-68.509	67.483	13.563	-71.918	-67.656	-64.657	-60.529	-41.423	-64.855	-8191	255	
1656.478	1	1	0	0	0.067727	0.23674	0.24643	0.17662	0.1143	0.12763	0.19623	0.10254	0.18068	0.11663	0.24275	0.19418	0.19007	0.14972	0.26864	0.21136	-2.2208	-2.9521	-2.6312	-3.0292	-2.8771	-2.7208	-3.1771	-2.6958	-2.8021	-3.2104	-2.6208	-3.0583	-3.1167	-2.6167	-3.0271	-2.8271	185.525	-72.655	104.790	-63.063	157.417	70.804	189.863	135.825	-80.598	211.546	-20.908	267.186	174.221	221.411	19.664	121.704	0.00014239	0.0014042	0.00021788	488.95	8.7978e-06	8.6951e-06	528.24	182.79	9.0725e-06	8.0211e-06	227.5	79.701	69.468	27.131	9.2345e-06	31.569	0.001444	0.0013088	0.00034647	676.24	1.5935e-05	1.4355e-05	663.12	235.35	1.5896e-05	1.4318e-05	306.48	109.13	92.853	34.516	1.3879e-05	44.259	-70.850	-34.906	75.912	-73.367	-29.869	-52.881	-75.425	-68.865	28.709	-31.222	-71.914	-67.580	-64.683	-60.095	190.167	-64.052	-8191	255	
1656.574	1	1	0	0	0.13606	0.083007	0.14944	0.045554	0.19226	0.21846	0.27637	0.32818	0.03365	0.093644	0.035589	0.15189	0.072904	0.20813	0.23739	0.046177	-2.1042	-2.9271	-2.3896	-2.9125	-3.0563	-2.4083	-3.0396	-2.7188	-2.6458	-3.1958	-2.5667	-2.8354	-3.2479	-2.5646	-3.2958	-2.9354	124.380	90.548	201.886	191.229	40.183	162.230	213.853	221.077	87.618	50.313	78.122	169.764	137.357	89.165	206.652	138.609	0.00018091	0.0017207	0.00029483	487.5	1.5317e-05	1.0719e-05	531.21	182.87	5.7108e-06	1.4806e-05	227.86	80.888	68.996	27.02	4.7644e-06	31.325	0.0014082	0.0013099	0.00036108	690.43	1.5566e-05	1.4313e-05	675.36	239.86	1.5388e-05	1.4156e-05	314.59	111.04	91.269	34.118	1.4846e-05	44.429	247.184	-32.253	88.482	-73.204	94.713	64.687	-74.960	-68.738	58.856	57.286	-71.494	-68.185	-64.654	-60.289	178.022	-63.601	-8191	255	
1656.670	1	1	0	0	0.27534	0.20445	0.30578	0.30368	0.12645	0.069877	0.13469	0.13674	0.051168	0.1906	0.2789	0.24667	0.30512	0.06093	0.13923	0.14815	-2.0812	-3.0896	-2.6729	-2.7583	-3.1167	-2.6104	-3.1937	-2.8021	-2.5312	-3.2625	-2.5521	-2.8646	-3.2333	-2.5333	-2.7687	-3.1	110.129	31.336	86.000	240.947	35.812	184.345	169.912	2.070	141.578	-60.727	42.347	202.295	258.816	-74.401	-36.538	242.039	3.979e-05	0.0012403	0.00039565	487.35	1.2629e-05	1.4993e-06	528.13	185.62	1.0185e-05	5.8122e-06	230.11	81.07	69.408	27.036	1.1493e-05	31.729	0.0013281	0.001263	0.0003819	685.5	1.4546e-05	1.3833e-05	687.8	239.39	1.4559e-05	1.3631e-05	323.3	109.66	90.041	34.005	1.568e-05	43.666	30.040	-39.404	75.521	-73.343	78.089	-64.250	-75.255	-68.541	168.060	255.388	-71.731	-67.574	-64.151	-59.964	173.366	-63.559	-8191	255	
1656.766	1	1	0	0	0.1891	0.18908	0.042195	0.089754	0.068926	0.063115	0.27748	0.12619	0.018566	0.30756	0.19289	0.22526	0.11662	0.11057	0.12905	0.12441	-2.0187	-2.9625	-2.8167	-2.7125	-3.2	-2.3312	-2.9292	-3.1813	-2.5312	-3.1896	-2.9938	-2.7625	-3.1437	-2.5458	-2.8896	-2.9	-47.657	20.816	194.808	40.496	-43.351	259.487	271.545	-41.400	263.513	127.922	187.804	263.096	201.875	-6.037	-46.543	76.839	0.0001711	0.00098634	0.00026185	486.7	6.5453e-06	6.3734e-06	521.48	185.72	1.8457e-05	1.6578e-05	227.39	79.843	68.422	26.757	1.3419e-05	30.965	0.0012772	0.0012355	0.0004027	667.82	1.3946e-05	1.3629e-05	690.35	233.62	1.3834e-05	1.3546e-05	323.59	105.46	87.787	33.721	1.6072e-05	42.034	179.132	210.111	25.465	-73.856	69.016	-22.678	-75.244	-68.599	33.529	128.643	-71.607	-67.722	-64.436	-59.934	238.423	-63.580	-8191	255	
1656.887	1	1	0	0	0.18104	0.18772	0.08742	0.2177	0.16964	0.10894	0.17548	0.11774	0.09342	0.20563	0.25235	0.11927	0.05232	0.11905	0.15833	0.40015	-1.9896	-3.0854	-2.6667	-2.6958	-3.2625	-2.5687	-3.0708	-3.0521	-2.4542	-2.9958	-2.8708	-2.4104	-3.1479	-2.7167	-2.7792	-3.1208	252.250	43.170	264.168	-69.799	-3.232	-53.988	151.554	-80.204	107.691	210.026	178.454	215.051	232.078	-77.820	238.515	173.639	8.3948e-05	0.0012222	0.00025339	477.15	8.4339e-06	7.8939e-06	513.28	182.56	4.1963e-06	1.7475e-05	227.28	78.552	67.834	26.708	5.2464e-06	31.062	0.0012226	0.0012799	0.00041437	646.87	1.3523e-05	1.4271e-05	681.97	228.8	1.3448e-05	1.4589e-05	324.55	103.29	87.161	34.649	1.6062e-05	41.45	-28.191	83.865	222.356	-73.438	121.816	246.910	-74.911	-68.443	29.189	197.018	-71.798	-67.425	-64.267	-59.857	6.378	-63.721	-8191	255	
1656.983	1	1	0	0	0.18101	0.070916	0.23737	0.056609	0.15215	0.071491	0.30536	0.31708	0.27186	0.14289	0.12394	0.14333	0.15633	0.20385	0.13905	0.2201	-1.8	-3.0792	-2.8375	-2.4938	-3.3167	-2.6833	-2.7229	-3.0896	-2.6271	-2.9437	-2.9896	-2.4583	-3.2542	-2.6896	-2.4667	-3.3375	235.760	149.046	-17.123	113.333	34.957	-44.877	227.917	255.062	43.566	-18.692	151.916	38.473	-32.469	186.133	225.213	109.921	0.0001895	0.0027477	0.00030373	473.82	6.1663e-06	7.9718e-06	517.44	184.86	1.0989e-06	9.1547e-06	230.42	79.749	68.349	27.007	1.2462e-05	31.707	0.001202	0.001379	0.00040728	636.97	1.3316e-05	1.5513e-05	677.87	228.7	1.3482e-05	1.5592e-05	321.23	103.22	87.766	35.565	1.5321e-05	41.385	251.955	101.246	-67.594	-73.181	-63.681	225.220	-75.246	-68.421	118.542	190.531	-72.184	-67.578	-64.405	-59.742	37.133	-63.495	-8191	255	
1657.079	1	1	0	0	0.15661	0.07546	0.17851	0.36025	0.041423	0.15372	0.092189	0.2741	0.16463	0.13182	0.092931	0.10774	0.12179	0.14946	0.21276	0.097232	-2.2729	-2.8104	-2.8917	-2.5187	-3.0687	-2.8875	-2.7646	-3.4208	-2.6479	-2.975	-3.0687	-2.3542	-3.1875	-2.8917	-2.7313	-3.1417	32.039	-51.353	-11.060	226.647	250.289	38.003	29.757	238.482	243.348	134.462	-81.866	120.453	262.013	76.307	-60.701	-83.913	0.0001672	0.00045791	0.00029248	484.37	4.3295e-06	1.5665e-05	528.13	186.16	3.8944e-06	1.2367e-05	233.3	81.227	69.604	27.352	4.5821e-06	32.296	0.0012128	0.0014437	0.00037982	633.9	1.3265e-05	1.5701e-05	671.59	226.08	1.3326e-05	1.5475e-05	312.27	102.2	88.506	35.492	1.3643e-05	40.644	165.649	124.488	265.812	-73.753	135.194	183.844	-75.068	-68.466	160.905	162.039	-71.553	-67.416	-64.222	-59.894	28.590	-63.584	-8191	255	
1657.176	1	1	0	0	0.28077	0.20234	0.18352	0.13013	0.13722	0.13061	0.099063	0.27269	0.034458	0.2355	0.10167	0.11551	0.078539	0.24759	0.21102	0.1682	-2.1333	-2.8021	-2.9917	-2.3708	-3.0417	-3.0542	-2.6937	-3.2375	-2.8042	-2.7271	-3.3417	-2.5854	-3.125	-2.9958	-2.4979	-3.2292	138.979	10.892	-78.883	205.333	127.045	-42.871	23.406	225.735	209.418	-49.944	-47.174	64.392	146.981	260.449	201.447	263.040	0.0001856	0.0011381	0.00023428	487.75	9.5756e-06	6.2506e-06	542.51	188.63	1.1902e-05	1.1696e-05	235.25	81.542	69.493	27.589	4.6455e-06	31.987	0.0011916	0.0013698	0.00033807	626.06	1.3331e-05	1.4757e-05	662.96	223.45	1.3519e-05	1.4497e-05	303.04	100.57	89.356	34.787	1.2713e-05	40.087	192.976	0.183	20.013	-73.677	255.019	88.824	-74.971	-68.367	231.179	71.155	-71.228	-67.409	-63.994	-60.252	32.706	-63.309	-8191	255	
#DATA ENDS
