BOXY.EXE: ISS Imagent and Oximeter Data Acquisition Program Version 0.80
Ascii Record File

#ACQ INFORMATION
2  Detector Channels 
16  External MUX Channels 
1  Auxiliary Channels 
5000  Waveform (CCF) Frequency (Hz)
1  Waveforms Skipped 
30  Waveforms Averaged 
1  Cycles Averaged 
16  Acquisitions per Waveform 
10.0806  Updata Rate (Hz) 

#FILE INFORMATION
TRUE -- External MUX Channel results are PARSED.
FALSE -- AC DC and Phase are NOT grouped.
TRUE -- Companion Program Settings File CREATED.
FALSE -- AC data not excluded
FALSE -- DC data not excluded
FALSE -- Phase data not excluded
FALSE -- Auxillary Chn. data not excluded
Tab delimiters

#CALIBRATION STATE
TRUE -- Waveform Calibration Values APPLIED.


#AUX CALIBRATION VALUES
Val Type	aux-1	

Term	1.0000e+00	
Factor	0.0000e+00	


#WF CALIBRATION VALUES
A = Detector Channel
Val Type	A-AC1	A-AC2	A-AC3	A-AC4	A-AC5	A-AC6	A-AC7	A-AC8	A-AC9	A-AC10	A-AC11	A-AC12	A-AC13	A-AC14	A-AC15	A-AC16	A-DC1	A-DC2	A-DC3	A-DC4	A-DC5	A-DC6	A-DC7	A-DC8	A-DC9	A-DC10	A-DC11	A-DC12	A-DC13	A-DC14	A-DC15	A-DC16	A-Ph1	A-Ph2	A-Ph3	A-Ph4	A-Ph5	A-Ph6	A-Ph7	A-Ph8	A-Ph9	A-Ph10	A-Ph11	A-Ph12	A-Ph13	A-Ph14	A-Ph15	A-Ph16	

Term	0.00000e+00	0.00000e+00	0.00000e+00	0.00000e+00	0.00000e+00	0.00000e+00	0.00000e+00	0.00000e+00	0.00000e+00	0.00000e+00	0.00000e+00	0.00000e+00	0.00000e+00	0.00000e+00	0.00000e+00	0.00000e+00	0.00000e+00	0.00000e+00	0.00000e+00	0.00000e+00	0.00000e+00	0.00000e+00	0.00000e+00	0.00000e+00	0.00000e+00	0.00000e+00	0.00000e+00	0.00000e+00	0.00000e+00	0.00000e+00	0.00000e+00	0.00000e+00	0.00000e+00	0.00000e+00	0.00000e+00	0.00000e+00	0.00000e+00	0.00000e+00	0.00000e+00	0.00000e+00	0.00000e+00	0.00000e+00	0.00000e+00	0.00000e+00	0.00000e+00	0.00000e+00	0.00000e+00	0.00000e+00	
Factor	1.00000e+00	1.00000e+00	1.00000e+00	1.00000e+00	1.00000e+00	1.00000e+00	1.00000e+00	1.00000e+00	1.00000e+00	1.00000e+00	1.00000e+00	1.00000e+00	1.00000e+00	1.00000e+00	1.00000e+00	1.00000e+00	1.00000e+00	1.00000e+00	1.00000e+00	1.00000e+00	1.00000e+00	1.00000e+00	1.00000e+00	1.00000e+00	1.00000e+00	1.00000e+00	1.00000e+00	1.00000e+00	1.00000e+00	1.00000e+00	1.00000e+00	1.00000e+00	X	X	X	X	X	X	X	X	X	X	X	X	X	X	X	X	

B = Detector Channel
Val Type	B-AC1	B-AC2	B-AC3	B-AC4	B-AC5	B-AC6	B-AC7	B-AC8	B-AC9	B-AC10	B-AC11	B-AC12	B-AC13	B-AC14	B-AC15	B-AC16	B-DC1	B-DC2	B-DC3	B-DC4	B-DC5	B-DC6	B-DC7	B-DC8	B-DC9	B-DC10	B-DC11	B-DC12	B-DC13	B-DC14	B-DC15	B-DC16	B-Ph1	B-Ph2	B-Ph3	B-Ph4	B-Ph5	B-Ph6	B-Ph7	B-Ph8	B-Ph9	B-Ph10	B-Ph11	B-Ph12	B-Ph13	B-Ph14	B-Ph15	B-Ph16	

Term	0.00000e+00	0.00000e+00	0.00000e+00	0.00000e+00	0.00000e+00	0.00000e+00	0.00000e+00	0.00000e+00	0.00000e+00	0.00000e+00	0.00000e+00	0.00000e+00	0.00000e+00	0.00000e+00	0.00000e+00	0.00000e+00	0.00000e+00	0.00000e+00	0.00000e+00	0.00000e+00	0.00000e+00	0.00000e+00	0.00000e+00	0.00000e+00	0.00000e+00	0.00000e+00	0.00000e+00	0.00000e+00	0.00000e+00	0.00000e+00	0.00000e+00	0.00000e+00	-1.23726e+02	-1.39918e+02	-1.78938e+02	-1.81413e+02	-3.50059e+01	-7.24347e+01	-1.57789e+02	-1.62015e+02	-7.41590e+01	-9.50557e+01	-1.80411e+02	-1.70917e+02	-1.81322e+02	-1.76271e+02	-8.71251e+01	-1.49364e+02	
Factor	1.81544e-05	1.23178e-04	2.51159e-05	1.85326e-01	8.05980e-07	9.73926e-07	1.72092e-01	5.34215e-02	8.30615e-07	1.09759e-06	1.07935e-01	3.07122e-02	2.47813e-02	9.40291e-03	9.68748e-07	1.38253e-02	5.41759e-07	5.53856e-07	1.53778e-07	8.86287e-02	6.03997e-09	6.06804e-09	7.82073e-02	2.56647e-02	6.05508e-09	6.07195e-09	4.76290e-02	1.39290e-02	1.17526e-02	4.39035e-03	6.05682e-09	6.14778e-03	X	X	X	X	X	X	X	X	X	X	X	X	X	X	X	X	



#DISTANCE SETTINGS
A = Detector Channel
A-1	A-2	A-3	A-4	A-5	A-6	A-7	A-8	A-9	A-10	A-11	A-12	A-13	A-14	A-15	A-16	

2.5000e+00	3.0000e+00	2.5000e+00	3.0000e+00	2.0000e+00	3.0000e+00	1.5000e+00	3.0000e+00	3.0000e+00	3.0000e+00	3.0000e+00	3.0000e+00	3.0000e+00	3.0000e+00	1.5000e+00	3.0000e+00	

B = Detector Channel
B-1	B-2	B-3	B-4	B-5	B-6	B-7	B-8	B-9	B-10	B-11	B-12	B-13	B-14	B-15	B-16	

1.0000e+01	1.0000e+01	1.0000e+01	1.4400e+00	1.0000e+01	1.0000e+01	1.5100e+00	1.9400e+00	1.0000e+01	1.0000e+01	1.9900e+00	2.4900e+00	2.4100e+00	2.9000e+00	1.0000e+01	2.9800e+00	




#DATA BEGINS
time	group	step	mark	flag	A-AC1	A-AC2	A-AC3	A-AC4	A-AC5	A-AC6	A-AC7	A-AC8	A-AC9	A-AC10	A-AC11	A-AC12	A-AC13	A-AC14	A-AC15	A-AC16	A-DC1	A-DC2	A-DC3	A-DC4	A-DC5	A-DC6	A-DC7	A-DC8	A-DC9	A-DC10	A-DC11	A-DC12	A-DC13	A-DC14	A-DC15	A-DC16	A-Ph1	A-Ph2	A-Ph3	A-Ph4	A-Ph5	A-Ph6	A-Ph7	A-Ph8	A-Ph9	A-Ph10	A-Ph11	A-Ph12	A-Ph13	A-Ph14	A-Ph15	A-Ph16	B-AC1	B-AC2	B-AC3	B-AC4	B-AC5	B-AC6	B-AC7	B-AC8	B-AC9	B-AC10	B-AC11	B-AC12	B-AC13	B-AC14	B-AC15	B-AC16	B-DC1	B-DC2	B-DC3	B-DC4	B-DC5	B-DC6	B-DC7	B-DC8	B-DC9	B-DC10	B-DC11	B-DC12	B-DC13	B-DC14	B-DC15	B-DC16	B-Ph1	B-Ph2	B-Ph3	B-Ph4	B-Ph5	B-Ph6	B-Ph7	B-Ph8	B-Ph9	B-Ph10	B-Ph11	B-Ph12	B-Ph13	B-Ph14	B-Ph15	B-Ph16	aux-1	digaux	

1084.242	1	1	0	256	0.15224	0.15207	0.14623	0.20542	0.23257	0.20296	0.1302	0.08521	0.35096	0.32571	0.087662	0.070898	0.088014	0.057427	0.1086	0.14993	-2.6521	-3.0438	-2.3833	-3.2167	-2.8896	-2.4313	-3.4917	-2.5833	-2.8542	-3.0896	-2.4771	-2.9896	-2.8937	-2.4083	-3.1583	-2.6896	236.680	502.055	422.232	233.018	491.657	411.139	263.444	345.688	287.916	271.239	442.070	428.641	498.148	247.032	515.285	477.995	0.00022388	0.00037235	0.00017437	991.45	4.2324e-06	2.199e-06	1080.7	208.55	2.1751e-06	2.9445e-06	266.64	74.406	57.866	17.179	2.452e-06	24.308	0.00032601	0.00031464	8.51e-05	958.94	3.5957e-06	3.4475e-06	1048.1	207.03	3.6003e-06	3.431e-06	260.56	75.348	59.413	18.04	3.2779e-06	25.261	230.352	280.202	217.919	175.866	352.718	177.781	175.847	183.491	170.933	258.999	183.061	189.323	190.560	196.766	518.437	196.816	-8191	255	
1084.339	1	1	0	0	0.052542	0.082346	0.048397	0.088992	0.092656	0.12662	0.084494	0.25399	0.084645	0.081892	0.047936	0.21065	0.31255	0.30078	0.18297	0.13878	-2.3125	-3.2583	-2.4417	-3.1	-2.85	-2.6125	-3.4021	-2.8688	-2.6083	-3.1708	-2.5479	-3.0396	-3.0167	-2.4146	-3.1375	-2.8312	481.273	522.486	263.358	211.717	479.138	352.167	168.156	404.598	509.023	330.770	431.282	469.595	521.222	461.081	191.169	474.531	0.00027901	0.00040074	7.8826e-05	990.76	5.9186e-06	3.7022e-06	1078.5	207.46	4.4941e-06	2.8171e-06	266.34	74.422	57.566	17.173	1.3978e-06	24.176	0.00032221	0.00030833	8.469e-05	960.89	3.5021e-06	3.3734e-06	1047.6	207.25	3.5513e-06	3.3682e-06	260.71	75.536	59.01	17.992	3.2861e-06	25.279	219.408	252.793	339.680	176.078	283.513	310.816	175.768	182.960	281.300	341.399	183.150	189.604	190.441	197.443	195.022	196.741	-8191	255	
1084.435	1	1	0	0	0.059883	0.10544	0.23496	0.22643	0.11697	0.073239	0.22291	0.20727	0.073342	0.28192	0.22194	0.22669	0.27377	0.12061	0.27015	0.22343	-2.1396	-3.0396	-2.4542	-2.8917	-2.9458	-2.3521	-3.2521	-2.9125	-2.5604	-3.1667	-2.6417	-2.9604	-3.1646	-2.2604	-3.0104	-2.975	216.505	418.341	519.365	482.577	176.548	324.292	484.348	421.859	194.051	467.888	182.656	431.996	481.593	366.270	342.791	515.977	0.00026296	0.00095215	5.9104e-05	984.3	2.4688e-06	3.9566e-06	1075.9	207.04	3.3542e-06	5.4396e-06	266.3	74.025	57.393	17.128	2.7695e-06	24.3	0.00031219	0.00030098	8.2735e-05	958.34	3.3639e-06	3.2626e-06	1041.6	206.19	3.3233e-06	3.192e-06	259.03	74.877	58.439	17.812	3.2e-06	25.084	233.414	249.853	233.396	176.232	361.559	235.462	175.944	183.004	509.452	282.382	182.946	189.489	190.537	197.573	307.337	197.002	-8191	255	
1084.506	1	1	0	0	0.14475	0.072712	0.081649	0.34118	0.19709	0.24872	0.15376	0.15553	0.11507	0.20824	0.24484	0.17762	0.19923	0.19505	0.094251	0.099551	-2.0604	-3.1125	-2.4354	-2.925	-3.0125	-2.3688	-3.0021	-2.9167	-2.4229	-3.3021	-2.6542	-2.7562	-2.9708	-2.6437	-2.9917	-3.1396	401.011	408.055	231.546	493.312	496.326	178.890	212.632	241.187	370.144	472.018	443.251	175.111	166.975	366.977	253.512	224.282	0.00012958	0.00011621	2.3213e-05	981.53	5.3938e-06	3.4658e-06	1067.8	207.08	8.7138e-06	2.531e-06	262.79	73.868	57.174	16.965	9.8727e-06	23.942	0.0002966	0.00028852	8.2133e-05	949.97	3.1916e-06	3.1417e-06	1034.6	205.08	3.1932e-06	3.1105e-06	257.75	74.553	57.96	17.669	3.2389e-06	24.931	213.685	345.667	408.274	175.882	299.523	271.795	175.963	183.111	371.915	304.318	182.721	189.946	190.148	197.762	255.566	197.105	-8191	255	
1084.627	1	1	0	0	0.1565	0.30986	0.098875	0.21284	0.13776	0.090526	0.06856	0.24677	0.19292	0.066992	0.12787	0.16296	0.18941	0.25143	0.078633	0.13024	-1.9521	-3.1854	-2.6083	-2.6417	-3.0125	-2.425	-2.9062	-3.0271	-2.5271	-3.1167	-2.85	-2.6979	-3.2167	-2.4813	-2.8271	-3.1792	427.760	489.195	352.245	490.839	177.323	376.244	204.251	415.861	170.173	464.924	482.008	437.079	511.054	482.833	369.486	437.799	0.00022762	0.00057321	0.00016312	971.67	4.2319e-06	4.5399e-06	1060.5	206.12	1.5204e-06	7.8062e-06	262.9	73.404	57.136	16.974	1.7656e-06	24.013	0.00028763	0.00028234	8.4015e-05	943.18	3.1334e-06	3.1149e-06	1031.1	203.76	3.1775e-06	3.1129e-06	258.29	74.157	57.962	17.636	3.3262e-06	24.802	187.465	294.135	224.021	176.222	355.910	291.838	176.090	183.243	296.107	233.411	182.834	189.182	189.999	197.464	280.198	196.818	-8191	255	
1084.723	1	1	0	0	0.12778	0.19767	0.10758	0.27059	0.086738	0.08597	0.13322	0.23512	0.19898	0.19801	0.1905	0.06092	0.22369	0.17493	0.12817	0.21417	-2.0479	-3.1708	-2.8917	-2.4125	-3.0729	-2.5062	-2.775	-3.1042	-2.3979	-3.0708	-2.8667	-2.4062	-3.2479	-2.6063	-2.725	-3.0292	237.687	480.504	220.259	461.132	368.988	188.990	468.934	373.926	376.433	239.170	520.116	394.972	492.193	474.785	518.654	408.777	0.00018448	0.00077595	0.00012464	969.55	6.8029e-07	1.0736e-06	1057.9	206.28	2.2266e-06	5.2832e-06	261.38	73.513	57.392	16.882	5.158e-06	24.018	0.00028636	0.00028786	8.4853e-05	940.32	3.1128e-06	3.1685e-06	1031.1	203.94	3.1348e-06	3.1866e-06	258.03	74.064	57.777	17.701	3.37e-06	24.819	181.923	250.028	510.449	176.132	333.322	174.423	176.111	183.341	290.950	310.271	183.172	189.503	190.003	197.723	358.314	196.853	-8191	255	
1084.818	1	1	0	0	0.15668	0.21195	0.13996	0.055387	0.21607	0.18081	0.16668	0.05406	0.040981	0.03584	0.020739	0.13619	0.094458	0.23718	0.22788	0.18958	-2.1	-2.8625	-2.9062	-2.6312	-3.1312	-2.6667	-2.8542	-3.2542	-2.3875	-3.1333	-3.1937	-2.5417	-3.3292	-2.8583	-2.7375	-3.3167	292.869	353.561	229.481	495.390	176.229	434.470	460.433	460.660	417.086	199.582	433.879	424.059	501.066	170.318	382.719	481.104	0.00029744	0.00068481	4.9157e-05	969.61	2.9961e-06	6.893e-06	1058.8	204.36	1.6403e-06	2.2621e-06	264.5	73.983	57.161	17.029	4.8045e-06	24.108	0.00028325	0.00029791	8.4495e-05	940.91	3.0936e-06	3.2867e-06	1032.3	203.27	3.1483e-06	3.3233e-06	257.69	74.17	57.754	17.754	3.3535e-06	24.788	218.404	213.332	314.555	175.999	439.954	233.610	175.833	183.383	335.593	297.052	183.305	189.323	189.934	197.042	346.038	196.944	-8191	255	
1084.916	1	1	0	0	0.35273	0.0424	0.2195	0.080812	0.29707	0.16232	0.17487	0.30555	0.21205	0.11297	0.2183	0.19685	0.23379	0.096234	0.15669	0.10912	-2.0875	-2.775	-3.0312	-2.4208	-3.15	-2.8438	-2.6312	-3.2792	-2.7021	-3.0125	-3.1271	-2.4646	-3.0604	-2.8875	-2.5208	-3.2188	340.435	273.053	283.406	418.800	489.772	414.241	488.515	489.844	485.941	507.756	410.156	247.737	499.422	256.086	425.744	420.535	0.00022227	0.00066205	0.00027405	972.6	3.0902e-06	4.0619e-06	1066.2	205.55	5.2993e-06	1.7977e-06	261.79	73.813	56.892	17	2.682e-06	23.976	0.00028956	0.00030928	8.3806e-05	940.98	3.1836e-06	3.4233e-06	1032.6	203.56	3.1876e-06	3.4011e-06	257.54	74.081	57.947	17.826	3.2463e-06	24.691	220.888	510.621	191.318	175.949	253.435	340.181	175.984	183.190	291.445	427.583	183.261	189.428	189.996	197.393	520.809	196.899	-8191	255	
1085.034	1	1	0	0	0.14152	0.066594	0.08247	0.22189	0.14839	0.1735	0.13115	0.25239	0.11646	0.19709	0.29566	0.17182	0.26832	0.25837	0.044647	0.22145	-2.2979	-2.8167	-3.0625	-2.6083	-2.9562	-2.9583	-2.6333	-3.1292	-2.6542	-2.6854	-3.2313	-2.3312	-3.1479	-2.925	-2.3958	-3.0854	193.733	460.824	519.733	487.618	259.983	283.094	332.372	435.993	266.078	439.903	518.023	194.588	200.055	325.662	239.487	342.131	0.00017825	0.00030054	0.00019382	970.03	2.846e-06	3.123e-06	1065.5	204.5	4.5311e-06	2.3247e-06	262.72	73.122	57.06	16.966	2.2758e-06	24.166	0.00029407	0.0003099	8.1586e-05	939.9	3.2368e-06	3.3824e-06	1029.4	202.84	3.2789e-06	3.3914e-06	256.68	73.836	58.203	17.799	3.2139e-06	24.66	200.243	242.710	190.845	176.099	490.698	498.562	176.076	183.351	225.088	404.924	183.214	189.247	189.738	197.836	307.728	197.183	-8191	255	
1085.106	1	1	0	0	0.15294	0.1382	0.093894	0.072298	0.10005	0.24064	0.14276	0.19527	0.25389	0.23	0.10189	0.06378	0.018837	0.13382	0.10036	0.084824	-2.1104	-2.6021	-3.1396	-2.5687	-3.0292	-3.0521	-2.6542	-3.1396	-2.8604	-2.6917	-3.2354	-2.5396	-2.7771	-3.2208	-2.4417	-3.1083	408.261	481.373	397.936	361.554	168.268	220.965	174.352	310.285	199.078	264.060	412.376	263.908	211.124	512.005	424.994	233.064	0.00027656	0.00028928	8.705e-06	975.51	2.7794e-06	1.3921e-06	1057.2	205.07	2.0672e-06	7.3474e-06	262.96	73.547	57.154	16.923	2.0772e-06	24.039	0.00030556	0.00030684	8.0876e-05	939.63	3.3406e-06	3.3497e-06	1027.6	203.33	3.3923e-06	3.3475e-06	256.8	73.89	58.498	17.784	3.2066e-06	24.663	197.338	207.299	501.418	175.802	327.297	279.985	175.876	183.269	452.124	395.541	183.277	189.402	190.038	197.618	238.558	196.903	-8191	255	
1085.202	1	1	0	0	0.1987	0.12453	0.18631	0.42664	0.16519	0.21179	0.40533	0.051247	0.096396	0.12868	0.092468	0.2133	0.13633	0.093417	0.098609	0.27663	-2.3917	-2.5146	-3.1813	-2.5708	-2.8417	-3	-2.6229	-2.9688	-2.7479	-2.4979	-3.3	-2.5042	-2.8479	-3.2583	-2.3833	-3.0312	481.450	452.056	353.931	184.471	369.254	400.600	498.498	345.323	194.978	240.098	519.235	434.287	196.857	488.745	485.999	442.057	0.00022253	0.00033055	6.6974e-05	972.24	1.6238e-06	3.3609e-06	1061	205.43	4.3955e-06	2.0762e-06	261.91	73.516	56.952	16.928	2.5655e-06	23.957	0.00030728	0.00030175	8.0123e-05	941.54	3.3908e-06	3.2465e-06	1029	203.55	3.3921e-06	3.2605e-06	256.84	73.97	58.297	17.691	3.1748e-06	24.838	204.307	318.415	310.739	176.234	472.434	406.911	176.088	183.443	280.820	385.689	183.091	189.428	189.767	197.742	469.399	197.339	-8191	255	
1085.323	1	1	0	0	0.14174	0.39629	0.090743	0.0919	0.049322	0.11358	0.1012	0.22753	0.17037	0.088193	0.1174	0.21968	0.027172	0.12283	0.068111	0.21467	-2.4042	-2.3042	-3.0938	-2.6417	-2.6125	-3.2938	-2.5958	-2.7729	-2.8958	-2.5083	-3.3583	-2.6167	-2.5229	-3.2146	-2.6146	-2.9729	390.495	182.347	243.429	482.850	513.608	336.268	356.681	203.392	384.150	258.716	296.568	395.153	280.105	182.957	213.431	480.191	0.00019056	0.0005198	4.5399e-05	973.11	1.9086e-06	2.9067e-06	1062.2	205.34	4.848e-06	6.4345e-06	261.43	73.212	57.006	17.009	2.8019e-06	23.93	0.00030988	0.00029584	7.9734e-05	943.28	3.4001e-06	3.2044e-06	1029.2	203.95	3.366e-06	3.2354e-06	256.42	74.411	58.208	17.696	3.2016e-06	24.944	183.110	209.952	186.054	176.021	364.125	344.715	175.833	183.259	347.754	309.267	183.206	189.535	190.186	197.311	485.564	197.152	-8191	255	
1085.419	1	1	0	0	0.21361	0.28407	0.072016	0.29053	0.1269	0.23546	0.31484	0.03916	0.15101	0.11117	0.20959	0.12944	0.11488	0.1225	0.15023	0.24336	-2.7021	-2.1813	-3.1104	-2.7604	-2.5542	-3.2438	-2.6292	-2.9458	-3.1625	-2.4938	-3.1729	-2.875	-2.5396	-3.2562	-2.7896	-2.8688	342.025	390.717	168.741	502.534	250.972	178.600	386.926	275.693	214.853	442.451	221.807	269.963	417.296	275.458	244.635	351.987	0.0002735	0.00074423	0.00016571	973.23	7.6207e-07	6.0708e-07	1062	205.46	5.1636e-06	3.3005e-06	261.45	73.609	57.426	17.017	1.3873e-06	24.259	0.00030484	0.00029571	8.0666e-05	945.19	3.3209e-06	3.2165e-06	1031.3	204.4	3.3074e-06	3.1673e-06	256.79	74.487	58.239	17.659	3.2232e-06	25.022	217.440	194.122	207.638	175.919	483.235	290.516	176.085	183.577	181.309	369.169	182.941	189.643	190.403	197.700	392.974	197.163	-8191	255	
1085.515	1	1	0	0	0.22844	0.35338	0.21998	0.29519	0.28846	0.18396	0.25167	0.059836	0.15531	0.19396	0.24153	0.15262	0.051643	0.29227	0.21731	0.25243	-2.7292	-2.2188	-3.0438	-3.0021	-2.5979	-3.0729	-2.6542	-2.7542	-2.975	-2.3625	-3.0812	-2.9333	-2.65	-3.1063	-2.5667	-2.8688	293.978	375.667	504.109	497.739	326.301	354.978	407.928	405.945	495.571	270.353	493.738	193.260	227.572	452.053	324.221	484.876	0.0001175	0.00017541	0.00012402	968.44	2.8309e-06	1.1102e-06	1060.6	204.87	5.7926e-06	5.4894e-06	262.48	73.428	57.301	16.889	3.4332e-06	23.87	0.00029529	0.00028725	8.1868e-05	943.15	3.2384e-06	3.1266e-06	1030	204.5	3.1763e-06	3.1389e-06	257.45	74.394	57.971	17.62	3.2735e-06	24.899	195.812	250.076	254.234	175.918	342.503	234.778	175.956	182.943	196.837	313.266	183.266	189.787	190.200	197.586	236.898	197.008	-8191	255	
1085.636	1	1	0	0	0.088729	0.13569	0.20371	0.15635	0.074901	0.23446	0.17072	0.090515	0.022372	0.099732	0.19362	0.24394	0.26687	0.040539	0.071536	0.30416	-2.7917	-2.375	-3.0708	-3.1833	-2.5625	-3.125	-2.8021	-2.7625	-3.0354	-2.4562	-2.9208	-3.075	-2.3604	-3.1458	-2.8375	-2.6292	473.213	486.027	228.519	413.795	264.569	271.863	456.110	354.980	515.565	511.137	370.386	416.176	227.761	517.598	194.781	478.790	0.00020426	0.00084201	0.00010985	972.75	2.5884e-06	6.5975e-07	1060.4	204.9	6.363e-07	2.5646e-06	261.3	73.839	57.013	17.023	4.7295e-06	24.015	0.00028624	0.00028395	8.3063e-05	941.33	3.1415e-06	3.0949e-06	1029.5	203.65	3.1549e-06	3.1299e-06	257.42	74.08	57.857	17.652	3.351e-06	24.802	205.791	376.373	297.535	175.776	448.999	417.438	175.821	183.379	262.470	490.099	182.908	189.433	190.565	197.417	386.739	197.085	-8191	255	
1085.732	1	1	0	0	0.27366	0.051062	0.10519	0.17573	0.05974	0.072704	0.19274	0.13832	0.097986	0.21905	0.23986	0.083225	0.21882	0.11074	0.14897	0.36291	-2.7458	-2.6458	-2.95	-3.1458	-2.3646	-3.0104	-2.8438	-2.8271	-3.0396	-2.5271	-2.6896	-3.2104	-2.4896	-3.0083	-2.8937	-2.6396	478.731	504.345	294.515	499.244	300.520	226.535	490.444	472.713	232.121	523.232	433.036	211.381	241.166	276.344	326.151	233.279	0.00020706	0.00046621	3.4316e-05	972.54	6.9019e-06	2.3063e-06	1056.1	204.58	4.7878e-06	2.8409e-06	262.34	73.336	56.943	16.87	3.3311e-06	23.873	0.00028482	0.00028823	8.4664e-05	941.35	3.1098e-06	3.1538e-06	1030.1	203.15	3.0897e-06	3.1926e-06	257.45	73.669	57.814	17.667	3.3162e-06	24.698	182.041	464.117	332.286	175.895	302.339	515.008	175.973	183.536	311.479	210.272	183.053	189.657	190.386	197.378	432.534	197.030	-8191	255	
1085.804	1	1	0	0	0.32382	0.16723	0.18044	0.2007	0.22699	0.05193	0.31802	0.1202	0.10158	0.32524	0.16558	0.13859	0.22567	0.11058	0.087025	0.21105	-2.8604	-2.4875	-2.7771	-3.0208	-2.4021	-3.0042	-3.2208	-2.5625	-3.0646	-2.5667	-2.8979	-3.1667	-2.5646	-2.9333	-2.9375	-2.4625	296.376	515.575	166.732	476.927	209.630	292.610	477.127	448.393	258.689	300.549	355.661	388.255	471.126	203.240	261.493	168.784	0.00029357	0.00040936	0.00019339	967.25	3.782e-06	4.913e-06	1060.4	205.45	4.658e-06	6.7089e-06	262.43	73.343	57.117	16.991	6.6278e-06	24.048	0.00027999	0.00029404	8.3513e-05	938.13	3.1064e-06	3.2247e-06	1027.9	203.14	3.05e-06	3.2458e-06	256.84	73.665	57.672	17.727	3.2505e-06	24.641	191.785	219.429	311.724	176.056	335.598	293.275	175.874	183.466	302.096	270.808	183.122	189.541	189.950	197.455	270.901	197.262	-8191	255	
1085.922	1	1	0	0	0.14872	0.16021	0.37486	0.23997	0.33499	0.14091	0.15803	0.23933	0.19118	0.13091	0.24291	0.12535	0.34236	0.28249	0.19529	0.093404	-2.6979	-2.4417	-2.4167	-3.2854	-2.5208	-2.8812	-3.1833	-2.5333	-3.1188	-2.8312	-2.6125	-3.2354	-2.6542	-2.7188	-3.0667	-2.4062	256.020	308.618	180.040	430.576	272.439	450.739	428.105	461.928	455.717	403.082	475.551	508.705	308.294	506.431	274.540	371.815	0.00023582	0.00076163	3.8728e-05	973.26	6.366e-07	3.8018e-06	1060	205.28	3.8921e-06	6.0913e-07	263.16	73.261	56.772	17.035	4.6044e-06	23.832	0.00027738	0.00030054	8.1982e-05	937.34	3.09e-06	3.2734e-06	1027.2	203.02	3.1e-06	3.3014e-06	256.83	73.633	57.664	17.736	3.2016e-06	24.601	189.002	407.555	174.420	176.013	486.502	269.100	175.916	183.247	192.837	265.229	183.238	189.779	189.664	197.367	303.077	196.997	-8191	255	
1086.019	1	1	0	0	0.067849	0.18978	0.12019	0.18671	0.32096	0.23958	0.25091	0.24926	0.13006	0.15517	0.17693	0.2719	0.31296	0.1168	0.032597	0.067619	-2.6542	-2.8312	-2.4521	-3.2958	-2.5604	-2.8146	-3.1354	-2.3854	-2.9146	-2.9146	-2.5833	-3.0542	-2.675	-2.7313	-3.0062	-2.3167	325.615	316.255	456.929	523.366	491.860	448.856	471.186	194.631	189.047	344.446	183.595	451.522	477.481	256.027	209.389	440.878	0.00018354	0.00018105	9.8614e-05	968.73	1.9329e-06	3.2202e-06	1054.3	205.34	1.0367e-06	6.8771e-06	260.62	73.23	56.969	16.982	2.4471e-06	23.843	0.00028821	0.00030411	8.1042e-05	936.65	3.1628e-06	3.3184e-06	1024.8	202.83	3.1843e-06	3.3285e-06	255.7	73.663	58.027	17.77	3.1477e-06	24.508	191.896	184.764	188.733	175.861	464.321	315.697	176.129	183.740	339.702	304.350	183.485	189.367	190.357	197.549	342.753	197.223	-8191	255	
1086.115	1	1	0	0	0.1539	0.05519	0.12459	0.12169	0.039019	0.1853	0.16357	0.18148	0.087067	0.0096713	0.39299	0.036701	0.25699	0.1492	0.36696	0.1623	-2.5104	-2.8771	-2.3042	-3.25	-2.6	-2.6771	-3.2792	-2.4646	-2.7875	-2.9417	-2.6125	-3.1625	-2.8042	-2.5812	-3.2	-2.6583	227.157	191.926	447.021	399.606	451.808	246.153	486.547	422.827	328.203	429.798	494.679	504.307	414.417	452.500	351.467	468.353	0.00027575	7.8753e-05	7.329e-05	963.77	3.4345e-06	4.3304e-06	1058.1	205.67	2.1037e-06	3.0335e-06	261.79	73.467	56.678	16.982	2.5208e-06	23.791	0.00029412	0.00029897	8.0019e-05	936.26	3.2778e-06	3.2935e-06	1024.5	202.78	3.2606e-06	3.2727e-06	255.47	73.488	57.992	17.676	3.1197e-06	24.596	196.243	320.776	223.173	175.983	351.138	355.342	175.863	183.371	372.268	477.303	183.611	189.544	189.817	197.925	168.330	197.203	-8191	255	
1086.211	1	1	0	0	0.22991	0.18893	0.18137	0.11173	0.14187	0.29831	0.36617	0.42005	0.047291	0.14222	0.29649	0.35031	0.047572	0.018173	0.1662	0.066072	-2.4542	-3.0042	-2.4896	-3.1021	-2.6875	-2.5333	-3.2562	-2.8417	-2.875	-3	-2.4458	-3.0062	-2.8937	-2.4771	-3.2792	-2.5854	490.063	467.654	209.919	416.338	334.757	339.292	166.976	516.223	430.613	224.551	450.546	368.600	343.135	229.820	269.908	483.610	0.00025796	0.00068859	7.4638e-05	966.6	3.575e-06	3.568e-06	1054.4	204.75	3.5034e-06	5.1374e-06	261.97	73.423	56.601	16.951	3.1375e-06	23.873	0.00030068	0.00029474	7.9411e-05	935.22	3.3589e-06	3.2474e-06	1021.9	202.85	3.3465e-06	3.2209e-06	255.15	73.693	57.949	17.606	3.1322e-06	24.655	215.194	261.966	195.841	175.957	321.790	362.826	176.159	183.440	366.804	222.711	183.155	189.902	189.831	197.448	518.041	196.888	-8191	255	
1086.332	1	1	0	0	0.21061	0.11157	0.082805	0.12677	0.071127	0.12248	0.046703	0.11373	0.13388	0.069446	0.29972	0.40597	0.087248	0.23342	0.1343	0.14935	-2.3042	-3.0542	-2.5042	-3.0958	-2.6542	-2.6667	-3.2458	-2.9562	-2.7188	-3.1	-2.5875	-2.8021	-2.8958	-2.3854	-3.0979	-2.6354	329.684	381.266	321.217	505.699	201.653	219.919	349.704	390.343	231.269	191.906	516.199	176.291	502.408	198.468	373.513	392.889	0.0002937	0.0001763	2.702e-05	960.64	2.3706e-06	2.0207e-06	1052.7	205.73	2.8889e-06	6.1755e-06	261.07	73.607	56.7	16.926	3.6047e-06	24.008	0.00030852	0.00029302	8.0698e-05	937.25	3.4065e-06	3.2742e-06	1023.8	203.82	3.4585e-06	3.2619e-06	256.29	74.2	58.102	17.659	3.2223e-06	24.911	195.174	296.421	466.264	176.037	311.521	169.235	176.095	183.411	252.561	380.486	183.124	189.451	189.607	197.492	219.091	197.028	-8191	255	
1086.403	1	1	0	0	0.32962	0.11549	0.17547	0.055916	0.064614	0.10031	0.088283	0.29293	0.10764	0.091375	0.14556	0.099405	0.10497	0.2426	0.15724	0.035706	-2.3354	-3.0458	-2.5396	-3.0333	-3.0833	-2.4562	-3.1458	-2.7354	-2.6312	-3.2604	-2.6875	-3.2	-3.075	-2.3542	-3.15	-2.65	295.989	420.247	487.043	460.617	465.258	452.767	506.572	467.423	276.398	258.474	430.590	377.234	394.341	463.162	487.737	411.581	0.00020689	0.00031152	6.6563e-05	971.15	2.9791e-06	3.6438e-06	1061.5	204.95	6.5864e-06	4.1453e-06	260.6	73.063	56.674	16.894	2.1871e-06	23.794	0.00030992	0.00029758	8.2143e-05	943.85	3.3771e-06	3.2873e-06	1029.7	204.24	3.3706e-06	3.2051e-06	256.79	74.379	57.931	17.644	3.2163e-06	24.798	191.604	246.336	321.444	175.884	503.880	306.559	176.017	183.356	257.421	323.398	182.794	189.560	190.107	197.895	197.604	196.726	-8191	255	
1086.499	1	1	0	0	0.13704	0.11199	0.14607	0.041901	0.064233	0.138	0.28994	0.13453	0.27983	0.15884	0.15727	0.18441	0.21774	0.11436	0.079313	0.20599	-2.2729	-3.2229	-2.4458	-2.8688	-3.0187	-2.4813	-3.3063	-2.9417	-2.5563	-3.2313	-2.6375	-2.7229	-2.9417	-2.3875	-3.0708	-2.9167	418.418	400.861	433.305	221.610	230.995	187.294	403.566	352.789	242.400	464.421	497.701	354.072	173.089	222.282	516.976	475.985	0.00030005	0.00087893	5.1672e-05	967.87	3.3746e-06	5.1128e-06	1057	205.61	2.855e-06	7.0569e-07	263.3	73.594	57.06	16.969	2.6335e-06	24.02	0.00029594	0.00028973	8.2063e-05	942.51	3.2556e-06	3.1573e-06	1027.6	204.37	3.2205e-06	3.1412e-06	257.22	74.159	57.982	17.61	3.2603e-06	24.839	214.051	232.880	219.219	176.124	491.839	323.150	176.091	183.172	308.290	381.988	182.869	189.883	190.060	197.909	343.620	197.022	-8191	255	
1086.596	1	1	0	0	0.32703	0.050252	0.19313	0.04971	0.089588	0.05324	0.10132	0.085748	0.17702	0.24171	0.21821	0.027962	0.15464	0.057216	0.22103	0.19389	-2.0917	-3.2292	-2.5875	-2.75	-3.1729	-2.4979	-3.0271	-2.9792	-2.6583	-3.2438	-2.9021	-2.7417	-3.2188	-2.5875	-2.975	-3.0938	450.509	345.431	224.680	190.372	380.802	513.129	394.262	215.331	507.621	249.407	371.774	449.848	315.077	496.373	429.284	421.614	0.00026862	0.00027956	7.4921e-05	971.39	2.9871e-06	1.3998e-06	1060.8	206.35	3.1556e-06	3.139e-06	262.09	73.35	56.442	16.845	1.7245e-07	23.884	0.00028795	0.00028269	8.3183e-05	940.87	3.1357e-06	3.0812e-06	1027.8	203.39	3.1349e-06	3.0877e-06	257.67	73.976	57.601	17.555	3.3201e-06	24.676	207.125	327.131	451.040	176.268	477.553	195.034	176.068	183.333	490.671	509.724	183.380	189.698	189.692	197.471	445.771	196.913	-8191	255	
1086.716	1	1	0	0	0.21696	0.066609	0.2203	0.25046	0.26377	0.30439	0.25033	0.37353	0.27281	0.056115	0.18069	0.12061	0.059427	0.19135	0.35174	0.22641	-2.0062	-3.1917	-2.8542	-2.8625	-3.2979	-2.7292	-3.0646	-3.1396	-2.3792	-2.9833	-2.9542	-2.5583	-3.1542	-2.4958	-2.7604	-3.1646	422.821	475.571	495.617	485.627	492.177	401.721	189.139	358.002	339.866	440.956	486.456	200.446	365.317	467.047	262.060	506.708	0.00015812	0.0005365	0.00013677	969.83	1.3577e-06	2.1425e-06	1059.3	204.33	3.6641e-06	7.2106e-06	261.97	73.439	56.597	16.888	3.0201e-06	23.941	0.00028671	0.00028551	8.5644e-05	939.34	3.125e-06	3.1926e-06	1028.7	202.91	3.1629e-06	3.2124e-06	257.85	73.88	57.526	17.656	3.3811e-06	24.716	224.322	498.954	172.323	176.246	257.596	258.437	175.870	183.322	467.200	274.759	183.517	189.586	189.947	197.581	350.949	197.471	-8191	255	
1086.811	1	1	0	0	0.085387	0.16401	0.21489	0.15641	0.081376	0.1153	0.18741	0.25665	0.27932	0.19862	0.12905	0.17429	0.40478	0.16998	0.09069	0.29728	-1.9667	-3.0625	-2.9146	-2.575	-3.2708	-2.5646	-2.8458	-3.2521	-2.4333	-2.8792	-3.0667	-2.5333	-3.2292	-2.8125	-2.7417	-3.1042	435.048	174.308	386.996	477.582	482.533	334.354	428.661	459.934	222.811	180.023	390.841	426.263	511.204	505.723	496.595	516.970	0.00021388	0.0011857	2.7467e-05	969.6	6.5623e-06	4.7301e-06	1057.4	204.59	5.166e-06	7.6323e-06	261.3	72.906	56.252	16.873	3.7527e-06	23.889	0.00028644	0.00029807	8.4574e-05	938.69	3.1237e-06	3.309e-06	1029.3	203.32	3.1618e-06	3.3584e-06	257.94	73.706	57.624	17.729	3.3613e-06	24.712	198.064	210.728	229.195	176.148	525.486	342.804	175.902	183.636	271.408	198.876	183.101	189.957	189.576	197.723	299.484	196.774	-8191	255	
1086.907	1	1	0	0	0.21835	0.077059	0.046337	0.24335	0.093828	0.1616	0.13518	0.15719	0.16459	0.18889	0.11039	0.29246	0.28577	0.07729	0.16798	0.16614	-1.9771	-3.0146	-3.2021	-2.4938	-3.0333	-2.7875	-2.7833	-3.3146	-2.4104	-2.7938	-2.9042	-2.6208	-3.15	-2.8896	-2.6104	-3.1104	186.419	378.993	339.417	184.499	392.782	314.008	501.183	441.075	280.973	429.174	277.110	405.837	231.281	515.654	221.828	234.827	0.00018995	0.00048239	0.00014549	968.64	3.2289e-06	2.3057e-06	1058.9	204.87	2.4904e-06	4.8796e-06	261.31	73.529	56.618	16.852	4.3526e-06	23.905	0.00028976	0.00031003	8.522e-05	939.98	3.1773e-06	3.3913e-06	1030.3	203.3	3.2293e-06	3.4303e-06	256.8	73.815	57.795	17.817	3.3363e-06	24.692	209.521	329.112	311.460	176.125	325.674	168.418	176.230	183.312	320.913	334.796	183.190	189.603	190.183	197.544	264.923	197.006	-8191	255	
1087.003	1	1	0	0	0.10015	0.17271	0.1873	0.20818	0.079349	0.079303	0.18915	0.24142	0.12752	0.062715	0.094798	0.27324	0.1519	0.26023	0.078152	0.30307	-2.275	-2.7354	-3.0229	-2.6229	-3.025	-2.8146	-2.575	-3.1542	-2.8104	-2.6521	-3.2125	-2.5083	-3.1813	-2.8438	-2.4188	-3.1937	166.683	503.023	338.090	489.058	466.516	189.283	505.788	358.316	322.170	261.512	435.762	434.176	467.332	190.897	452.480	508.945	0.00032225	0.00043739	5.0481e-05	972.68	5.4806e-06	6.2772e-06	1061.4	205.14	3.6408e-06	2.7842e-06	263.35	73.3	56.958	16.892	4.4711e-06	23.76	0.00029746	0.00031589	8.3733e-05	941.67	3.2742e-06	3.4551e-06	1030	203.54	3.2965e-06	3.4662e-06	257.84	73.725	57.895	17.8	3.2889e-06	24.558	213.267	321.929	224.334	175.927	177.355	322.629	176.240	183.543	166.738	256.568	183.465	189.518	190.225	197.540	294.701	197.188	-8191	255	
1087.099	1	1	0	0	0.11246	0.19988	0.17778	0.17145	0.017646	0.17322	0.2036	0.19955	0.19011	0.19841	0.083794	0.10009	0.14874	0.17472	0.23391	0.05879	-2.3333	-2.6583	-3.1312	-2.8292	-3.0375	-2.9417	-2.6292	-3.1708	-2.7	-2.6833	-3.2271	-2.4667	-3.0167	-3.025	-2.6583	-3.3208	450.402	352.001	222.969	318.880	408.046	512.800	518.588	371.781	349.799	306.830	475.075	446.366	285.592	401.333	252.759	392.571	0.00024989	0.0006333	2.6797e-05	972.23	4.517e-06	8.913e-07	1062.7	204.7	4.6759e-06	5.385e-06	262.56	73.07	56.903	16.713	3.0261e-06	23.913	0.00030487	0.00031348	8.3251e-05	940.24	3.3908e-06	3.4177e-06	1030	203.47	3.4595e-06	3.3896e-06	256.48	73.616	58.118	17.679	3.2665e-06	24.645	200.340	260.682	209.877	176.053	468.563	328.939	176.043	183.440	254.641	286.089	183.211	189.789	189.907	197.930	253.306	197.149	-8191	255	
1087.195	1	1	0	0	0.13109	0.16012	0.09864	0.34026	0.12956	0.075725	0.17435	0.14979	0.1358	0.052415	0.24448	0.18993	0.16945	0.12028	0.044049	0.070757	-2.5125	-2.6437	-3.2417	-2.6583	-2.8625	-3.1625	-2.4771	-3.0563	-2.9437	-2.7271	-3.1771	-2.4542	-2.7	-3.1708	-2.6375	-3.0542	425.128	385.231	510.091	471.593	343.381	390.033	418.576	511.217	188.197	348.152	418.974	480.123	509.185	375.435	512.007	339.756	0.00023985	0.00059629	0.00015524	972.55	6.6086e-06	1.7072e-06	1059.4	206.08	3.7832e-06	3.1488e-06	263	73.133	57.039	16.777	3.8799e-06	23.809	0.00031109	0.00030691	8.143e-05	940.59	3.4053e-06	3.323e-06	1028	203.47	3.4363e-06	3.3183e-06	256.62	73.886	58.306	17.615	3.2149e-06	24.755	218.207	378.269	505.974	175.921	382.042	335.360	175.853	183.303	399.561	484.561	183.056	189.325	190.354	197.338	378.846	196.902	-8191	255	
1087.314	1	1	0	0	0.08144	0.025876	0.19988	0.36687	0.051454	0.14614	0.24863	0.26855	0.10045	0.20842	0.17041	0.21519	0.159	0.15837	0.27824	0.36134	-2.4125	-2.5187	-3.2854	-2.7396	-2.6896	-3.1125	-2.6229	-2.9771	-2.9021	-2.575	-3.1875	-2.7854	-2.8125	-3.1292	-2.4292	-2.8958	400.539	168.087	465.357	493.286	432.426	424.765	476.965	403.204	476.011	408.462	504.801	453.983	198.826	515.903	313.048	384.745	0.00023405	0.00021184	9.4988e-05	972.89	3.0542e-06	1.2524e-06	1061.4	205.13	3.3659e-06	5.5665e-06	261.28	73.337	56.824	16.878	2.3566e-06	23.734	0.00031578	0.00030061	8.1125e-05	943.28	3.438e-06	3.2848e-06	1029.3	204.04	3.4409e-06	3.2821e-06	256.24	74.283	58.252	17.625	3.2203e-06	24.815	200.882	219.702	488.148	176.084	308.581	212.112	175.903	183.216	493.236	243.892	183.471	189.605	189.857	197.471	282.262	197.090	-8191	255	
1087.410	1	1	0	0	0.089322	0.2177	0.052413	0.14922	0.11671	0.30491	0.1606	0.38256	0.066715	0.14034	0.071471	0.11329	0.1408	0.029318	0.35304	0.19712	-2.5833	-2.4792	-3.0646	-2.9146	-2.6958	-3.2271	-2.6458	-3.0083	-2.9083	-2.375	-3.0896	-2.8583	-2.5396	-3.0917	-2.4896	-2.8271	420.159	374.452	337.685	390.008	181.207	221.068	443.658	493.073	306.867	428.642	336.008	206.545	465.874	371.138	385.821	494.857	0.00020824	0.0003355	2.0033e-05	969.7	3.9113e-06	2.8098e-06	1055.5	206.51	4.2772e-06	4.9866e-06	260.29	72.78	56.849	16.693	6.7088e-06	23.845	0.00031115	0.00029948	8.2496e-05	943.55	3.4096e-06	3.2814e-06	1027.6	204.53	3.3723e-06	3.2749e-06	256.89	74.374	58.021	17.609	3.2813e-06	24.963	210.364	177.663	278.318	176.143	332.837	319.968	176.013	183.561	390.094	259.757	183.639	189.449	190.023	197.445	281.826	197.316	-8191	255	
1087.506	1	1	0	0	0.15598	0.064024	0.09778	0.30907	0.18005	0.13365	0.14272	0.15224	0.19412	0.066811	0.15112	0.0058318	0.082406	0.17256	0.12375	0.25191	-2.6042	-2.475	-2.9958	-2.7917	-2.5667	-3.1854	-2.6208	-2.8542	-3.1667	-2.4958	-3.0854	-3.0271	-2.5563	-3.1333	-2.7125	-2.7333	340.104	256.175	384.584	168.977	248.789	402.087	168.458	375.182	349.029	197.057	409.910	390.546	308.538	476.641	491.284	289.614	0.00017703	0.00057074	7.051e-05	969.02	4.3959e-06	1.9388e-06	1057.7	206.2	3.4335e-06	5.6605e-06	263.1	73.732	57.058	16.863	2.7117e-06	23.823	0.00030114	0.00029841	8.3743e-05	944.71	3.3323e-06	3.2455e-06	1030.7	204.56	3.2909e-06	3.2612e-06	258.53	74.496	57.954	17.627	3.3629e-06	24.906	195.471	289.201	496.885	175.899	358.839	367.431	175.823	183.356	408.987	287.380	183.218	189.763	190.199	197.424	320.065	196.845	-8191	255	
1087.603	1	1	0	0	0.28524	0.15747	0.26691	0.26846	0.054336	0.24874	0.15807	0.11583	0.14757	0.091977	0.15567	0.16999	0.20531	0.12966	0.0033024	0.19883	-2.85	-2.4813	-2.8937	-3.0729	-2.175	-3.1479	-2.8333	-2.725	-3.1813	-2.575	-2.9396	-3.1021	-2.5667	-3.1917	-2.625	-2.6833	455.582	229.005	455.280	495.835	490.410	402.578	403.519	462.711	436.810	407.864	375.334	188.667	388.609	497.116	496.852	308.580	0.00018904	0.00012946	0.00010986	975.02	1.577e-06	6.8277e-06	1058.9	205.28	1.031e-06	4.7935e-06	263.97	73.235	56.728	16.869	3.8952e-06	24.041	0.00029828	0.00029419	8.6457e-05	945.31	3.2808e-06	3.1846e-06	1032.7	204.35	3.2489e-06	3.2275e-06	258.89	74.146	57.771	17.62	3.4093e-06	24.813	183.507	348.034	180.580	176.051	298.453	322.924	176.017	183.516	237.603	313.480	182.828	189.718	189.802	197.437	505.574	197.223	-8191	255	
1087.699	1	1	0	0	0.20599	0.2756	0.25346	0.17792	0.14568	0.18965	0.40971	0.098771	0.029029	0.34851	0.31781	0.083174	0.22573	0.18561	0.087845	0.24869	-2.5687	-2.4896	-2.7354	-3.1813	-2.3542	-3.1958	-2.9333	-2.5521	-3.1937	-2.5125	-2.8083	-3.2188	-2.3312	-3.1083	-2.9292	-2.5979	408.998	518.714	263.058	335.586	316.136	478.786	487.844	180.846	222.150	417.094	442.256	291.738	523.868	254.405	521.147	493.684	0.00019988	0.00031157	7.3998e-05	971.48	1.1777e-06	2.6662e-06	1059.9	206.2	1.1543e-06	4.4062e-06	263.09	72.914	57.079	16.81	3.0834e-06	23.903	0.0002924	0.00029501	8.7211e-05	941.24	3.2419e-06	3.2074e-06	1032.9	204.29	3.1756e-06	3.2685e-06	258.91	73.856	57.92	17.648	3.4092e-06	24.774	204.566	495.284	451.975	176.031	336.951	250.511	175.994	183.025	270.610	338.717	183.321	189.332	190.077	197.736	263.901	197.471	-8191	255	
1087.795	1	1	0	0	0.023503	0.34341	0.34213	0.10488	0.16033	0.058445	0.3167	0.18403	0.051081	0.052369	0.32949	0.058817	0.31327	0.051803	0.19974	0.076484	-2.7396	-2.2854	-2.6312	-3.025	-2.6188	-3.0229	-3.1	-2.4354	-3.125	-2.7562	-2.7833	-3.1063	-2.5667	-2.8812	-3.0542	-2.4771	257.025	515.011	270.916	435.112	293.935	406.049	477.913	285.962	275.939	354.485	419.570	465.117	454.037	215.313	338.215	173.770	0.00030875	0.00023669	0.00011158	971.11	2.4506e-06	1.5054e-06	1061.9	204.92	3.7396e-06	5.2939e-06	260.82	73.473	57.151	16.799	1.1836e-06	23.867	0.00028612	0.00030042	8.5779e-05	940.93	3.2105e-06	3.3129e-06	1032.3	203.84	3.1727e-06	3.3484e-06	258.34	73.944	57.75	17.729	3.3874e-06	24.749	220.546	217.372	235.911	176.028	294.130	385.061	175.912	183.484	341.491	282.516	182.955	189.503	190.108	197.700	512.984	197.288	-8191	255	
1087.891	1	1	0	0	0.18027	0.17338	0.25232	0.17743	0.1785	0.29146	0.17511	0.098436	0.17178	0.21925	0.27898	0.12069	0.053308	0.14399	0.1841	0.18245	-2.7562	-2.6958	-2.6583	-3.2167	-2.6521	-2.9333	-2.9208	-2.3354	-2.85	-2.7938	-2.7792	-3.0729	-2.5354	-2.7646	-3.0646	-2.3729	331.173	463.358	409.149	512.773	261.413	255.145	488.710	166.522	482.496	488.996	203.274	517.049	336.444	282.555	223.397	441.750	0.00025424	0.00056352	0.00011155	972.78	3.4323e-06	3.5501e-06	1060.9	204.78	2.7371e-06	9.9048e-08	263.27	73.345	56.721	16.805	4.3262e-06	23.82	0.00028949	0.00030928	8.564e-05	940.59	3.2021e-06	3.4103e-06	1030.1	203.48	3.2029e-06	3.4453e-06	258.05	73.786	57.856	17.778	3.3058e-06	24.664	212.897	227.876	242.758	176.138	325.388	228.462	175.820	183.674	232.834	247.519	183.468	189.664	190.208	197.845	260.968	197.428	-8191	255	
1087.987	1	1	0	0	0.033369	0.1375	0.1154	0.15341	0.21112	0.15477	0.18997	0.16583	0.097923	0.13553	0.22465	0.16593	0.09566	0.33211	0.28758	0.26553	-2.6375	-2.8604	-2.4562	-3.1375	-2.3271	-2.8021	-3.0417	-2.5125	-3.0208	-2.8625	-2.575	-3.1979	-2.7417	-2.7562	-3.1937	-2.4271	346.944	387.216	314.293	411.989	165.741	359.988	479.507	446.610	202.271	219.975	489.858	185.665	441.157	462.864	300.763	173.872	0.0002901	0.00051556	0.00014788	969.76	9.6936e-06	3.3076e-06	1061.2	206.74	8.8713e-07	1.0733e-06	263.37	73.472	56.852	16.874	1.738e-06	23.856	0.00029449	0.00031455	8.3483e-05	940.15	3.2806e-06	3.4648e-06	1029.7	203.89	3.3421e-06	3.4699e-06	258.09	73.875	58.241	17.841	3.2761e-06	24.688	195.308	209.772	294.888	176.174	314.749	333.892	176.037	183.419	360.551	206.472	183.425	189.193	190.389	197.787	277.837	196.675	-8191	255	
1088.106	1	1	0	0	0.043066	0.18031	0.26639	0.28889	0.2303	0.20099	0.21804	0.40452	0.089278	0.046714	0.042834	0.10928	0.24447	0.05771	0.13024	0.049114	-2.5875	-2.8438	-2.5583	-3.1958	-2.8083	-2.9021	-3.2521	-2.625	-3.1271	-3.0812	-2.5792	-2.9854	-2.775	-2.7938	-3.1375	-2.5708	295.257	255.768	196.415	216.341	305.679	499.525	490.679	180.008	319.745	183.450	239.372	165.637	271.322	215.873	213.724	432.613	0.00023663	0.00090307	0.00013095	976.79	2.4019e-06	2.8211e-06	1065.7	206.21	5.5693e-06	9.4225e-06	261.96	73.424	57.009	17.09	4.9969e-06	23.921	0.00030529	0.00031181	8.2209e-05	944.05	3.3778e-06	3.3939e-06	1032.9	204.03	3.3717e-06	3.3336e-06	257.56	73.868	58.34	17.765	3.1961e-06	24.695	208.185	378.401	192.020	175.993	521.097	260.709	175.644	183.352	261.284	257.033	183.508	189.475	190.256	198.065	345.068	197.048	-8191	255	
1088.202	1	1	0	0	0.24296	0.14152	0.15002	0.011123	0.21527	0.24137	0.15016	0.17681	0.17855	0.26166	0.22094	0.070098	0.067526	0.033428	0.27588	0.38745	-2.3667	-2.8521	-2.4479	-3.1083	-2.7875	-2.8187	-3.4396	-2.45	-2.7979	-3.1292	-2.525	-2.9833	-2.8125	-2.6063	-3.2417	-2.7396	482.927	412.332	345.702	454.998	286.070	321.987	399.351	499.021	420.072	331.065	431.632	513.299	438.651	435.533	344.573	269.976	0.00020498	0.00055747	3.8712e-05	977.21	2.2957e-06	2.4918e-06	1060.2	206.14	2.6208e-06	1.4566e-05	263.03	73.091	56.899	17.013	9.8733e-07	23.943	0.00031114	0.00030232	8.1553e-05	943.11	3.4292e-06	3.3234e-06	1030.7	204.01	3.44e-06	3.2618e-06	256.84	73.86	58.264	17.706	3.1591e-06	24.725	199.475	380.696	443.898	175.911	518.635	349.375	176.122	183.294	317.472	311.492	183.343	189.325	189.806	197.230	352.936	196.997	-8191	255	
1088.276	1	1	0	0	0.25479	0.065571	0.32916	0.049175	0.024948	0.15688	0.090875	0.23646	0.29436	0.10163	0.24822	0.15716	0.13604	0.19387	0.19156	0.33436	-2.3896	-3.2	-2.4979	-3.2333	-2.6729	-2.6542	-3.2438	-2.8521	-2.7375	-3.0563	-2.4437	-3.0312	-2.9333	-2.5042	-3.1021	-2.6312	297.365	364.716	493.822	464.607	437.262	511.055	512.096	458.153	468.689	249.557	369.437	289.245	417.074	516.064	347.985	461.276	0.0001982	0.00080785	5.7348e-05	977.39	3.924e-06	6.3518e-06	1063.9	205.8	1.8376e-06	6.3201e-06	261.97	73.184	56.921	16.882	2.3674e-06	23.784	0.00031305	0.00029583	8.0969e-05	945.46	3.4076e-06	3.2954e-06	1032	204.52	3.464e-06	3.2953e-06	256.86	74.357	58.387	17.686	3.2361e-06	24.901	208.846	364.306	274.866	176.076	217.360	317.841	176.045	183.322	225.886	325.647	183.195	189.820	190.134	198.229	292.603	196.378	-8191	255	
1088.394	1	1	0	0	0.30604	0.09256	0.1657	0.2753	0.076892	0.23245	0.11541	0.089933	0.21063	0.14423	0.27425	0.13145	0.098038	0.16934	0.047963	0.25113	-2.225	-3.2208	-2.675	-3.1937	-3.0312	-2.6479	-3.2458	-2.8271	-2.6063	-3.0958	-2.6979	-3.0479	-3.2229	-2.4417	-3.0771	-2.7542	486.653	360.840	294.389	181.905	456.788	444.629	482.922	462.591	462.287	201.022	411.041	434.980	457.180	414.608	183.233	176.137	0.00028721	0.00087014	0.00010198	973.27	9.575e-07	5.747e-06	1065.7	205.43	3.713e-06	3.733e-06	261.98	73.049	56.923	16.905	2.0795e-06	24.038	0.0003156	0.00029938	8.3205e-05	946.64	3.3986e-06	3.2881e-06	1034	204.65	3.406e-06	3.2557e-06	257.77	74.453	58.155	17.705	3.2743e-06	25.023	184.224	224.689	493.954	175.987	519.909	332.140	176.051	183.489	250.287	168.701	183.166	189.740	190.057	197.810	216.248	196.985	-8191	255	
1088.491	1	1	0	0	0.3336	0.14552	0.16889	0.2247	0.34796	0.24504	0.09493	0.1913	0.20333	0.23021	0.1081	0.16743	0.18214	0.15437	0.2202	0.18302	-2.1833	-3.1042	-2.6271	-2.9292	-3.0646	-2.4625	-3.3208	-2.8083	-2.5792	-3.3208	-2.7125	-2.8312	-3.1604	-2.4146	-2.9854	-3.0646	385.944	375.874	441.654	519.322	182.678	382.427	434.787	319.538	200.678	422.568	502.619	312.244	467.409	480.480	385.135	195.422	0.00017825	0.00041269	3.3109e-05	974.5	3.4399e-06	6.2992e-06	1061.8	204.95	8.5008e-06	1.4096e-06	261.53	73.204	57.145	16.806	3.168e-06	23.795	0.00030555	0.0002975	8.4196e-05	947.32	3.3268e-06	3.2503e-06	1031.9	204.84	3.3513e-06	3.2271e-06	258.29	74.381	58.028	17.629	3.3601e-06	24.861	223.335	180.724	290.054	176.250	310.385	235.794	176.228	183.107	307.435	426.362	183.194	189.580	189.849	197.612	382.471	197.151	-8191	255	
1088.587	1	1	0	0	0.25437	0.2202	0.30967	0.23172	0.30507	0.08836	0.35405	0.16958	0.14872	0.16657	0.10556	0.12648	0.19344	0.068513	0.17373	0.21636	-1.9521	-3.1271	-2.6521	-2.7229	-3.1521	-2.4917	-3.1625	-3.2104	-2.5625	-3.2854	-2.9938	-2.6667	-3.1042	-2.675	-3.0187	-3.175	464.495	513.604	385.489	487.078	434.519	479.921	447.998	494.353	313.251	520.384	282.866	234.177	503.265	485.545	252.175	516.665	0.00023277	0.00029761	6.6733e-05	972.62	5.1508e-06	4.933e-06	1063.6	205.7	1.5948e-06	1.1046e-06	263.27	73.123	56.966	16.878	4.8028e-06	23.793	0.00030141	0.00029198	8.6448e-05	946.09	3.273e-06	3.2444e-06	1034.3	204.66	3.3158e-06	3.1968e-06	259.05	74.033	57.823	17.639	3.4594e-06	24.833	195.051	223.899	173.030	175.944	392.011	332.947	176.082	183.245	172.062	494.978	182.879	189.732	190.212	197.766	250.339	196.990	-8191	255	
1088.683	1	1	0	0	0.28026	0.29356	0.08901	0.18219	0.1641	0.23542	0.25306	0.22262	0.05864	0.20503	0.13061	0.096901	0.23789	0.13422	0.3193	0.1252	-2.0104	-3.0604	-2.6708	-2.7979	-3.2167	-2.7542	-3.0062	-3.1917	-2.4958	-3.1375	-2.9854	-2.4854	-3.1146	-2.6125	-2.6188	-3.1896	415.665	402.737	361.328	190.615	353.284	226.346	518.210	514.535	388.405	238.609	363.075	502.564	173.124	203.533	453.264	293.504	0.00022488	0.00070141	0.00016942	969.99	2.0337e-06	1.9399e-06	1062.4	205.92	3.1971e-06	2.1091e-06	263.56	72.666	56.757	16.891	3.7165e-06	23.565	0.00029737	0.00029816	8.856e-05	943.4	3.2573e-06	3.3077e-06	1033.1	204.37	3.2648e-06	3.2528e-06	259.7	73.882	57.687	17.678	3.4488e-06	24.653	190.332	509.675	269.636	176.260	318.808	387.058	176.061	183.552	333.746	218.260	183.344	190.069	190.062	197.970	235.716	196.986	-8191	255	
1088.804	1	1	0	0	0.076884	0.17537	0.25076	0.19242	0.093178	0.075517	0.41872	0.16461	0.065676	0.19496	0.17512	0.088055	0.21804	0.11628	0.17695	0.16058	-1.9917	-2.9313	-2.7562	-2.5917	-3.1479	-2.6063	-2.8771	-3.2917	-2.4458	-3.0729	-2.8833	-2.5083	-3.3917	-2.6937	-2.7313	-3.1729	478.690	433.965	267.712	511.429	315.891	446.553	439.804	195.731	489.051	254.345	238.111	196.011	169.492	198.456	494.084	465.644	0.00023139	0.00081936	0.00018597	973.95	1.0548e-06	1.8694e-06	1063.1	204.95	3.0752e-06	2.9634e-06	262.27	73.364	56.839	16.874	8.8208e-06	23.858	0.0002942	0.00030226	8.7563e-05	943.95	3.1724e-06	3.3506e-06	1032.2	203.81	3.2008e-06	3.3526e-06	258.35	73.865	57.719	17.741	3.4105e-06	24.727	212.533	184.844	279.061	175.945	453.130	521.956	175.908	183.362	311.922	441.429	183.253	189.809	189.986	198.100	251.936	197.034	-8191	255	
1088.900	1	1	0	0	0.14953	0.15915	0.11828	0.17706	0.1545	0.24273	0.49844	0.10616	0.026129	0.25181	0.13672	0.12777	0.19389	0.10303	0.17413	0.35026	-2.0604	-3.0917	-2.9458	-2.5104	-3.1083	-2.7687	-2.7562	-3.2167	-2.5354	-2.8	-3.1813	-2.4479	-3.0458	-2.8479	-2.6083	-3.1208	442.350	443.825	479.598	471.667	264.263	201.971	461.085	168.100	378.215	418.639	514.854	489.270	475.548	479.143	457.894	458.452	0.00018357	0.00016485	8.9601e-05	975.58	2.2386e-06	2.9044e-06	1056.6	205.71	1.9275e-06	1.8562e-06	261.47	73.123	56.872	16.814	3.112e-06	23.786	0.0002905	0.0003119	8.6239e-05	943.32	3.214e-06	3.4464e-06	1031.2	203.57	3.2333e-06	3.4334e-06	258.03	73.901	57.75	17.785	3.3623e-06	24.651	194.765	450.007	271.538	176.366	260.616	375.741	175.933	183.510	314.633	418.479	183.561	189.321	189.887	197.541	408.836	197.041	-8191	255	
1088.996	1	1	0	0	0.14159	0.10516	0.047897	0.25546	0.07558	0.098629	0.58194	0.21904	0.18014	0.21613	0.24217	0.15395	0.3429	0.16801	0.24972	0.11883	-2.15	-2.8875	-2.9333	-2.5292	-3.0062	-2.7583	-2.6729	-3.3104	-2.7438	-2.8521	-3.0542	-2.3625	-2.9979	-2.7292	-2.4562	-3.3604	267.543	381.050	417.226	436.796	392.085	266.656	473.853	315.975	215.526	321.450	445.939	194.262	198.791	430.951	355.566	442.059	0.00025094	0.00024393	0.00012821	971.34	4.1856e-06	9.9944e-06	1058.9	205.61	3.2647e-06	4.6597e-06	261.6	73.169	56.805	16.727	3.3794e-06	23.786	0.00030073	0.00031773	8.4736e-05	940.52	3.2699e-06	3.4974e-06	1030.1	203.74	3.3296e-06	3.4812e-06	257.21	73.693	57.95	17.745	3.2852e-06	24.551	194.610	165.728	319.482	175.952	270.357	262.217	176.131	183.574	219.160	286.316	183.065	189.374	189.766	197.747	331.957	197.246	-8191	255	
1089.092	1	1	0	0	0.24395	0.13455	0.18478	0.45484	0.1121	0.27649	0.15002	0.24857	0.067203	0.11494	0.13168	0.24217	0.11732	0.086064	0.36346	0.084025	-2.075	-2.6958	-3.1458	-2.3688	-2.9688	-2.8479	-2.5083	-3.2021	-2.7917	-2.8146	-3.3312	-2.5146	-2.9854	-3.0062	-2.3854	-3.2083	325.655	420.690	230.888	497.338	200.822	319.150	405.260	472.837	383.349	463.253	495.477	504.113	407.045	482.751	467.455	265.516	0.00030507	0.00047296	6.0077e-05	972.74	2.7348e-06	4.4867e-06	1058.7	204.97	4.9951e-06	2.3617e-06	262.56	72.852	56.772	16.771	1.2431e-06	23.545	0.0003052	0.00031572	8.3209e-05	941.11	3.4019e-06	3.3984e-06	1028.2	203.54	3.3908e-06	3.415e-06	257.05	73.607	58.185	17.654	3.2653e-06	24.554	187.784	292.754	240.177	176.128	219.372	276.668	175.902	183.467	221.819	417.120	183.034	189.534	190.330	197.949	441.599	196.933	-8191	255	
1089.188	1	1	0	0	0.2553	0.12628	0.055406	0.071273	0.06616	0.05789	0.18362	0.35741	0.12835	0.288	0.10479	0.15131	0.15355	0.28097	0.21647	0.11498	-2.2854	-2.4562	-3.1063	-2.6604	-2.9896	-3.1375	-2.5896	-3.0687	-2.8646	-2.4562	-3.3292	-2.5771	-2.9625	-3.0792	-2.5438	-3.1562	248.298	451.569	313.509	523.329	389.469	291.489	497.795	454.038	357.590	172.719	234.736	250.897	444.375	165.486	303.713	446.835	0.00027858	0.00025454	1.2546e-05	970.4	1.2653e-06	1.7807e-06	1055.4	204.36	2.3045e-06	2.0625e-06	261.36	73.163	56.61	16.829	2.0404e-06	23.712	0.00031577	0.00031227	8.2583e-05	939.78	3.4843e-06	3.3654e-06	1027.7	203.54	3.5055e-06	3.3599e-06	256.45	73.815	58.138	17.62	3.2325e-06	24.677	197.466	188.380	364.284	175.993	267.986	183.363	176.168	183.241	326.912	335.381	183.394	189.095	189.912	197.707	311.144	196.846	-8191	255	
1089.283	1	1	0	0	0.30117	0.054632	0.087569	0.26433	0.080469	0.11174	0.17064	0.11705	0.12352	0.3349	0.013016	0.075325	0.19695	0.46276	0.080496	0.17326	-2.3979	-2.5708	-3.1646	-2.725	-2.7792	-3.1437	-2.5042	-3.0958	-2.9167	-2.4458	-3.2542	-2.7167	-2.5854	-3.2625	-2.4479	-3.0938	510.202	297.794	270.118	515.425	252.525	523.689	506.118	484.254	496.651	360.476	461.243	248.706	419.033	522.309	281.219	178.808	0.00026618	0.0005934	0.00010791	972.93	1.1881e-06	3.3195e-06	1060.4	205.12	5.7081e-06	3.4953e-06	261.64	72.532	56.505	16.732	3.5117e-06	23.818	0.00031744	0.00030209	8.1289e-05	942.06	3.4367e-06	3.2949e-06	1028.7	203.8	3.4358e-06	3.3131e-06	256.05	73.878	58.12	17.591	3.2136e-06	24.749	208.202	350.518	198.157	176.012	247.033	181.317	175.918	183.368	282.330	339.815	183.110	189.706	190.067	197.493	209.862	197.081	-8191	255	
1089.403	1	1	0	0	0.12565	0.05997	0.17287	0.20246	0.25492	0.096908	0.31436	0.19046	0.23209	0.2107	0.15456	0.1378	0.35	0.13827	0.04902	0.052084	-2.5125	-2.5875	-3.1542	-2.9938	-2.7104	-3.0687	-2.7354	-3.0875	-2.9292	-2.5958	-3.0125	-2.8542	-2.7417	-3.0687	-2.7417	-2.8458	297.865	262.123	261.925	459.187	377.824	492.990	393.739	404.883	244.740	283.773	466.438	452.748	412.085	194.591	508.223	438.152	0.00022296	0.00027702	0.00012015	970.26	4.0966e-06	8.6428e-07	1055.4	206.06	2.9059e-06	4.3676e-07	263.1	73.358	56.382	16.846	2.9655e-06	23.708	0.00030936	0.00029968	8.143e-05	943.51	3.3907e-06	3.2384e-06	1026.6	204.55	3.3955e-06	3.2559e-06	256.74	74.059	57.891	17.569	3.2649e-06	24.816	211.046	263.013	308.521	176.226	364.701	481.510	175.895	183.126	240.161	182.307	182.960	189.519	189.950	197.804	288.768	197.567	-8191	255	
1089.499	1	1	0	0	0.16003	0.31724	0.11738	0.2442	0.067957	0.10206	0.20426	0.17744	0.079608	0.33939	0.13713	0.2119	0.056142	0.11883	0.2	0.24289	-2.6354	-2.3729	-2.9708	-2.8542	-2.6813	-3.1417	-2.7313	-2.9042	-2.95	-2.6167	-3.0563	-2.8125	-2.575	-3.0708	-2.6437	-2.8063	499.846	454.881	220.620	418.575	206.077	470.727	478.390	460.473	246.455	361.110	391.171	475.641	410.908	498.110	325.273	513.962	0.00017624	0.0004755	5.7329e-05	968.82	8.7968e-07	5.0241e-06	1059.6	205.28	3.239e-06	3.3747e-06	262.01	73.517	56.533	16.685	3.2705e-06	23.804	0.00030255	0.00029786	8.2995e-05	945.61	3.32e-06	3.2362e-06	1029	204.32	3.2887e-06	3.2181e-06	257.3	74.308	57.819	17.53	3.3665e-06	24.853	213.494	258.943	252.574	175.912	256.413	198.528	175.805	183.321	318.931	354.493	183.547	189.742	190.208	197.643	293.936	197.027	-8191	255	
1089.571	1	1	0	0	0.058671	0.094848	0.083663	0.45215	0.27639	0.16885	0.41048	0.32673	0.12682	0.089177	0.11171	0.0784	0.061115	0.28989	0.14536	0.15424	-2.7083	-2.3292	-3.1437	-3	-2.4333	-3.1208	-2.725	-2.8708	-3.125	-2.3042	-3.1083	-3.1562	-2.4583	-3.2458	-2.7521	-2.6063	215.283	315.483	505.696	483.107	517.206	224.712	413.489	476.647	176.668	289.844	473.544	267.103	476.347	226.668	223.109	447.066	0.00018809	0.00062058	5.2584e-05	973.11	3.014e-06	4.2628e-07	1062.7	206.62	1.9717e-06	5.4011e-06	262.69	72.959	56.453	16.757	2.2099e-06	23.794	0.00029803	0.00029627	8.5493e-05	943.25	3.2932e-06	3.2015e-06	1031	204.02	3.253e-06	3.2521e-06	258.42	73.963	57.848	17.543	3.4571e-06	24.769	198.808	511.523	186.824	176.131	413.262	312.956	176.170	183.603	194.605	465.777	183.071	189.606	190.494	197.586	350.896	197.010	-8191	255	
1089.667	1	1	0	0	0.074396	0.10693	0.19589	0.11125	0.19065	0.17142	0.29487	0.060765	0.094724	0.20013	0.069168	0.12492	0.19197	0.053068	0.22985	0.24192	-2.6521	-2.5563	-2.9875	-3.2313	-2.3021	-3.1292	-2.7562	-2.5479	-3.2646	-2.8792	-2.8875	-2.8729	-2.5062	-2.9021	-2.8563	-2.5125	348.268	261.049	347.595	214.587	410.766	310.177	174.131	195.832	221.928	402.457	494.094	258.266	468.006	441.553	421.177	514.686	0.00026345	0.00044161	9.0093e-05	966.61	2.3366e-06	4.7937e-06	1059.5	205.02	6.7992e-06	2.9135e-06	260.96	73.115	56.793	16.828	1.8021e-06	23.8	0.00029609	0.00030135	8.8463e-05	940.45	3.2503e-06	3.2351e-06	1032.5	203.97	3.2407e-06	3.3025e-06	259.03	73.835	57.869	17.601	3.448e-06	24.659	211.590	258.314	491.762	176.123	178.384	288.937	176.084	183.246	357.284	303.751	183.184	189.715	190.010	197.247	231.192	197.134	-8191	255	
1089.788	1	1	0	0	0.076594	0.21518	0.17705	0.058674	0.18778	0.087766	0.17245	0.26678	0.14244	0.19664	0.21302	0.31363	0.17479	0.13832	0.12038	0.059677	-2.7313	-2.475	-2.6354	-3.2875	-2.4354	-3.1667	-3.075	-2.5646	-3.2583	-2.6208	-2.7604	-3.0479	-2.4813	-3.1167	-2.8271	-2.4688	171.248	192.692	255.285	190.130	192.262	337.351	516.757	358.861	494.207	258.174	418.608	520.060	505.751	517.028	484.688	427.307	0.00023692	0.00049757	0.00011762	968.43	5.8004e-06	2.136e-06	1058.7	206.01	2.7923e-06	5.676e-06	261.91	72.665	57.15	16.858	3.4988e-06	23.662	0.00029302	0.00030371	8.8546e-05	940.23	3.2553e-06	3.3493e-06	1031	203.79	3.2021e-06	3.3968e-06	258.59	73.625	57.844	17.706	3.4107e-06	24.638	211.030	450.293	338.869	175.937	378.449	471.774	176.041	183.177	287.001	181.576	183.193	189.755	190.103	197.744	398.585	196.739	-8191	255	
1089.884	1	1	0	0	0.38805	0.17698	0.15201	0.37553	0.02182	0.30823	0.44279	0.091665	0.099991	0.16849	0.18821	0.14566	0.074414	0.030461	0.087059	0.22118	-2.7375	-2.6771	-2.6312	-3.2562	-2.6063	-2.8521	-3.2	-2.6271	-3.0625	-2.7896	-2.7729	-3.2062	-2.6063	-2.8208	-3.0542	-2.3646	389.935	176.096	423.575	521.301	413.310	471.342	487.413	201.557	420.356	391.815	210.064	452.675	398.144	397.247	220.925	178.255	0.00025785	0.00048072	4.6056e-05	969.6	2.4002e-06	1.0047e-06	1058	206.2	2.0153e-06	4.8529e-06	263.37	72.925	56.255	16.703	2.1168e-06	23.665	0.00029085	0.00031511	8.6662e-05	938.9	3.2191e-06	3.4455e-06	1029.9	203.8	3.2476e-06	3.4738e-06	258.22	73.379	57.567	17.736	3.3967e-06	24.576	197.829	363.007	476.675	176.148	303.145	218.186	175.813	183.360	473.311	293.912	183.119	189.492	190.075	197.421	168.762	196.913	-8191	255	
1089.980	1	1	0	0	0.041518	0.3869	0.19983	0.18259	0.17764	0.099043	0.2059	0.096343	0.19254	0.1203	0.25157	0.045019	0.043801	0.079859	0.20889	0.015497	-2.625	-2.8458	-2.6604	-3.1667	-2.3896	-2.8646	-3.0208	-2.4396	-3.0417	-2.9125	-2.675	-3.2104	-2.625	-2.8333	-3.1083	-2.5146	278.691	186.297	394.766	435.334	432.275	378.781	447.435	185.154	308.391	254.428	498.284	469.234	428.394	222.799	426.089	492.178	0.00030458	0.00018146	7.1281e-05	970.55	3.4624e-06	1.6989e-06	1053	205.25	4.0744e-06	1.6536e-06	261.77	72.735	56.639	16.893	2.8965e-06	23.878	0.000298	0.00032171	8.5912e-05	939.85	3.3102e-06	3.4819e-06	1028.7	203.4	3.3463e-06	3.5153e-06	257.6	73.403	58.02	17.775	3.3085e-06	24.61	206.734	206.573	355.503	176.219	339.286	313.252	175.998	183.316	175.531	518.978	183.026	189.383	190.140	197.625	231.354	196.861	-8191	255	
1090.076	1	1	0	0	0.18835	0.21301	0.2032	0.12171	0.29288	0.14419	0.36604	0.24767	0.18035	0.10985	0.24071	0.28999	0.3406	0.11625	0.12529	0.1572	-2.5917	-2.95	-2.3937	-3.1437	-2.5687	-2.6854	-3.2479	-2.4958	-2.9917	-2.9792	-2.3688	-3.0938	-2.7375	-2.6042	-3.1396	-2.5208	498.075	274.105	442.197	432.892	167.495	497.136	468.437	169.427	356.469	499.091	356.340	299.184	194.667	329.185	431.177	175.460	0.00024338	0.00069161	1.7938e-05	969.39	3.4859e-06	3.5832e-06	1056.5	205.84	5.218e-06	3.7994e-06	264.28	72.766	56.72	16.77	5.3096e-07	23.821	0.0003052	0.0003158	8.342e-05	938.32	3.367e-06	3.4067e-06	1026.4	203.51	3.3818e-06	3.4273e-06	257.42	73.47	57.983	17.673	3.275e-06	24.542	201.338	281.295	471.497	176.081	429.951	320.832	176.025	183.380	280.158	301.556	182.996	189.650	190.052	197.970	345.718	196.884	-8191	255	
1090.195	1	1	0	0	0.13849	0.14157	0.23162	0.10571	0.12723	0.28964	0.1351	0.1082	0.036394	0.20862	0.29331	0.062398	0.15914	0.063423	0.17177	0.3649	-2.4354	-2.9	-2.3292	-3.1042	-2.7812	-2.6104	-3.3917	-2.45	-2.95	-3.0208	-2.45	-3.1875	-2.8042	-2.4396	-3.2313	-2.5229	461.702	169.859	473.513	434.320	435.999	466.566	380.233	331.507	298.157	190.876	483.857	496.467	266.373	382.333	522.678	522.039	0.00027345	0.00015584	4.377e-05	970.61	4.4224e-06	2.7047e-06	1053.8	205.77	5.2867e-06	5.3429e-06	260.01	72.958	56.545	16.795	4.0309e-06	23.629	0.00031565	0.00031252	8.3683e-05	939.09	3.4962e-06	3.4115e-06	1025.5	203.36	3.5242e-06	3.4032e-06	256.77	73.778	58.308	17.65	3.2993e-06	24.686	191.624	458.530	185.965	176.116	378.387	470.203	175.953	183.422	260.716	343.478	183.341	189.352	190.248	197.457	268.670	197.161	-8191	255	
1090.268	1	1	0	0	0.21373	0.24959	0.29653	0.15329	0.096397	0.14155	0.11243	0.23389	0.23256	0.33759	0.19377	0.10189	0.16686	0.24176	0.079074	0.25133	-2.2708	-3.1729	-2.5	-3	-2.8271	-2.5917	-3.2958	-2.8104	-2.775	-3.1583	-2.2167	-3.0771	-3.0604	-2.4958	-3.1646	-2.6063	245.967	177.045	348.832	177.043	331.209	450.093	483.978	453.162	462.996	437.893	496.420	376.733	473.318	498.060	294.849	193.068	0.00017779	0.00023004	0.00015842	967.83	3.7981e-06	2.9616e-06	1057.2	204.74	4.4844e-06	9.1738e-06	261.81	73.869	56.417	16.594	2.3392e-06	23.809	0.00032475	0.00031111	8.4315e-05	941.89	3.563e-06	3.4142e-06	1029.4	203.92	3.5583e-06	3.3948e-06	257.24	74.251	58.224	17.66	3.2693e-06	24.787	244.971	318.000	202.253	176.128	344.182	330.727	175.588	183.236	281.931	261.928	183.322	189.305	190.476	197.376	183.269	197.111	-8191	255	
1090.365	1	1	0	0	0.055911	0.21062	0.065847	0.10453	0.24056	0.21773	0.32098	0.13758	0.27932	0.060848	0.27614	0.086493	0.13449	0.038245	0.34276	0.045711	-2.3146	-3.2417	-2.4042	-2.9479	-2.9313	-2.6146	-3.2875	-2.7604	-2.5958	-3.2542	-2.5438	-3.0062	-3.15	-2.4625	-3.0687	-2.8271	246.157	421.530	292.571	462.034	295.670	170.132	472.501	303.798	342.468	419.831	515.781	423.505	458.797	280.339	490.634	364.101	0.00027898	0.00011174	0.0001447	972.04	2.6896e-06	2.0528e-06	1060	206.03	3.6795e-06	1.3537e-06	261.55	72.793	56.837	16.698	2.0601e-06	23.596	0.00032127	0.00030533	8.3387e-05	944.85	3.4583e-06	3.3413e-06	1030	204.8	3.4309e-06	3.2543e-06	257.23	73.974	57.977	17.57	3.2055e-06	24.831	219.481	371.327	223.655	175.903	423.516	454.560	175.697	183.336	170.026	453.264	183.331	189.468	190.435	197.712	349.372	196.451	-8191	255	
1090.484	1	1	0	0	0.087542	0.27728	0.052296	0.21223	0.17409	0.20933	0.19888	0.21481	0.31827	0.11803	0.22157	0.16468	0.10028	0.39059	0.11838	0.070323	-2.1229	-3.1729	-2.5708	-2.8375	-3.1479	-2.475	-3.1667	-3.0083	-2.4417	-3.3083	-2.5917	-2.7812	-3.1188	-2.6146	-3.1667	-3.0333	219.168	191.827	423.346	192.757	380.103	416.163	433.331	525.154	215.772	288.815	499.206	445.276	234.534	424.528	388.480	345.135	0.00022004	0.00037303	0.00011573	971.56	2.5482e-06	2.2084e-06	1054.6	204.37	6.1314e-06	4.3499e-06	261.93	73.394	56.709	16.782	1.9607e-06	23.548	0.00030563	0.00029583	8.3101e-05	942.37	3.298e-06	3.2372e-06	1025.6	204.19	3.2938e-06	3.1982e-06	257.22	74.064	57.855	17.539	3.2892e-06	24.714	201.301	384.247	226.028	176.010	339.512	428.727	175.973	183.754	302.484	297.013	183.203	189.629	190.103	197.617	274.285	197.057	-8191	255	
1090.580	1	1	0	0	0.12115	0.14662	0.077014	0.20404	0.089109	0.28016	0.26569	0.26805	0.165	0.22086	0.2596	0.16566	0.042986	0.032377	0.19995	0.092625	-2.0167	-3.25	-2.5396	-2.8479	-3.2062	-2.3333	-3.0354	-2.9104	-2.4417	-3.1896	-2.6146	-2.6292	-3.2333	-2.5146	-2.8917	-3.1292	181.040	267.238	310.707	474.350	377.031	475.928	492.007	391.787	185.532	525.318	491.364	496.410	467.677	176.356	467.407	519.582	0.0001907	0.00028413	1.19e-05	962.94	1.8637e-06	3.7558e-06	1052.1	205.58	6.8233e-06	4.6895e-06	260.99	72.872	56.368	16.71	2.3185e-06	23.764	0.00030013	0.00029162	8.5327e-05	938.22	3.249e-06	3.2323e-06	1023.6	204.01	3.2737e-06	3.2103e-06	257.44	73.877	57.615	17.554	3.4192e-06	24.673	227.371	195.843	522.381	175.927	509.139	300.269	176.084	183.701	347.392	230.184	182.884	189.818	189.904	197.724	227.137	197.308	-8191	255	
1090.676	1	1	0	0	0.43079	0.12356	0.12958	0.12415	0.090834	0.20022	0.224	0.086533	0.33015	0.063059	0.27158	0.21841	0.15027	0.07774	0.36518	0.17718	-2.0042	-3.0771	-2.6063	-2.6104	-3.0583	-2.5042	-3.0479	-3.1896	-2.2646	-3.0875	-2.7854	-2.5771	-3.1854	-2.6542	-2.8958	-3.1583	278.350	358.635	359.813	220.834	166.951	191.551	475.938	525.295	496.087	433.672	210.524	418.933	392.463	519.757	499.667	368.854	0.00031731	0.00036597	6.8176e-05	964.62	4.3723e-06	2.0676e-06	1050.2	203.64	4.0114e-06	3.1809e-07	261.48	72.874	56.832	16.808	2.8337e-06	23.813	0.0002951	0.00029353	8.7583e-05	938.18	3.2023e-06	3.2393e-06	1026.2	203.54	3.2163e-06	3.2488e-06	258.54	73.601	57.672	17.612	3.459e-06	24.595	207.991	182.805	224.201	176.184	289.550	206.031	176.088	183.625	266.749	457.086	183.210	189.468	190.321	197.424	481.090	197.017	-8191	255	
1090.796	1	1	0	0	0.18532	0.1453	0.030004	0.15312	0.28135	0.12433	0.30156	0.11505	0.18618	0.2816	0.11659	0.2887	0.12115	0.080708	0.1406	0.078428	-1.7833	-2.9938	-2.8083	-2.5729	-3.0458	-2.5229	-2.7938	-3.2417	-2.4625	-2.9667	-2.8396	-2.5167	-2.9562	-2.5833	-2.7708	-3.1542	212.831	271.792	284.335	468.289	363.468	333.080	463.769	182.974	404.752	492.173	269.796	171.055	507.824	171.640	426.365	375.358	0.00023579	0.00064109	0.00013891	969.88	7.0874e-06	1.8418e-06	1053.9	205.83	3.1013e-07	7.9721e-06	258.97	72.701	56.633	16.721	4.9616e-06	23.681	0.0002946	0.00030265	8.7907e-05	936.79	3.213e-06	3.3613e-06	1026.8	203.67	3.2353e-06	3.377e-06	257.5	73.581	57.672	17.685	3.4437e-06	24.574	198.759	512.760	523.435	176.078	357.696	239.992	176.232	183.338	521.856	260.152	183.077	189.426	190.412	197.720	330.836	197.011	-8191	255	
1090.868	1	1	0	0	0.21642	0.30268	0.0070888	0.18667	0.04548	0.16012	0.33817	0.28655	0.075575	0.12585	0.060953	0.068245	0.072662	0.25923	0.15897	0.075182	-2.05	-2.9771	-2.9125	-2.5687	-3.0792	-2.9813	-2.7479	-3.3146	-2.5125	-2.8667	-3.1292	-2.4333	-3.1042	-2.8812	-2.6125	-3.275	207.410	261.768	486.169	515.887	504.829	261.367	520.683	226.869	209.243	410.638	243.703	297.686	351.658	407.542	221.797	306.850	0.00017538	0.00095984	0.0001523	965.15	4.0976e-06	3.1945e-06	1056.9	205.35	4.7556e-06	4.2506e-06	263.14	73.355	56.885	16.762	2.0315e-06	23.693	0.00029706	0.00031322	8.6789e-05	938.32	3.2268e-06	3.4755e-06	1029.9	203.59	3.2538e-06	3.4691e-06	258.13	73.628	57.743	17.748	3.3561e-06	24.569	195.995	491.850	306.987	176.183	313.775	318.773	175.934	183.422	211.949	342.136	183.201	189.771	190.484	197.539	444.426	197.371	-8191	255	
1090.964	1	1	0	0	0.10634	0.17557	0.15383	0.31303	0.14118	0.13557	0.24746	0.25007	0.10073	0.079079	0.14564	0.23125	0.29116	0.10555	0.28264	0.13376	-2.2104	-2.6396	-2.8625	-2.4313	-2.8917	-2.8833	-2.6083	-3.1146	-2.3625	-2.6875	-3.0792	-2.4792	-2.9562	-2.8979	-2.5729	-3.3063	254.170	228.934	379.738	173.505	232.302	307.417	440.606	450.292	360.815	212.222	500.845	430.162	479.169	328.161	401.873	478.831	0.00021637	0.0003673	5.914e-05	970.11	2.6078e-06	4.1787e-06	1050.3	205.4	6.1656e-06	5.0944e-06	260.22	72.596	56.835	16.844	6.0249e-06	23.719	0.00029717	0.00031291	8.3663e-05	937.36	3.2134e-06	3.408e-06	1024.7	202.91	3.2329e-06	3.3649e-06	255.55	72.982	57.652	17.62	3.187e-06	24.341	193.319	205.232	418.687	176.137	261.850	402.899	176.045	183.457	198.313	365.047	182.995	189.685	189.738	197.621	331.874	197.000	-8191	255	
1091.085	1	1	0	0	0.28309	0.048632	0.12058	0.10413	0.27921	0.094812	0.34903	0.24975	0.12175	0.15081	0.18243	0.093525	0.40862	0.20703	0.19618	0.11957	-2.0833	-2.8333	-3.0625	-2.4437	-2.8812	-2.9625	-2.4229	-3.0896	-2.6854	-2.6458	-3.1312	-2.4729	-2.8833	-2.9542	-2.4646	-3.2729	407.767	173.115	441.570	491.454	179.731	359.640	470.870	486.859	390.906	366.648	241.699	205.522	516.996	478.571	353.055	482.689	0.00029678	0.00042034	0.0001303	963.81	4.1888e-06	2.2163e-06	1046.5	203.55	6.1954e-06	4.4709e-06	259.34	72.425	56.457	16.771	1.5502e-06	23.472	0.00029461	0.00030257	8.0095e-05	929.09	3.2268e-06	3.2877e-06	1017	201.63	3.2977e-06	3.3079e-06	254.37	72.884	57.508	17.591	3.224e-06	24.36	216.933	379.525	286.992	176.264	343.148	273.559	176.258	183.447	322.922	436.852	183.333	189.662	190.224	197.546	309.515	196.933	-8191	255	
1091.179	1	1	0	0	0.26705	0.15144	0.14108	0.2032	0.10523	0.25255	0.38301	0.22822	0.27677	0.018549	0.12252	0.14282	0.13457	0.22559	0.13802	0.22346	-2.3042	-2.3854	-3.1042	-2.6188	-2.8396	-3.0062	-2.6667	-3.1354	-2.7833	-2.6104	-3.2958	-2.5854	-2.8	-3.0021	-2.4313	-3.1667	461.078	166.006	314.057	288.906	211.115	452.642	459.834	312.733	186.917	241.727	514.210	437.452	331.923	315.787	327.118	227.532	0.00022961	0.00022831	8.663e-05	961.79	1.3935e-06	6.6653e-06	1049.5	204.11	4.1359e-06	5.8605e-06	262.98	72.675	56.349	16.924	1.7068e-06	23.621	0.00030595	0.00030554	8.1887e-05	932.95	3.4564e-06	3.3691e-06	1022.3	202.47	3.4945e-06	3.3748e-06	256.6	73.44	57.946	17.643	3.2745e-06	24.637	216.601	267.691	310.592	176.127	391.179	447.596	175.947	183.375	225.544	297.710	183.418	189.578	190.716	197.750	517.041	197.566	-8191	255	
1091.275	1	1	0	0	0.057206	0.14275	0.05885	0.22056	0.22308	0.17385	0.15516	0.47745	0.17893	0.14198	0.19644	0.27679	0.25404	0.21515	0.094524	0.20108	-2.4833	-2.4625	-3.1542	-2.675	-2.6708	-3.1708	-2.6708	-3.0333	-2.9604	-2.4479	-3.3833	-2.725	-2.6312	-3.1146	-2.5792	-2.975	373.064	248.687	406.159	470.850	517.467	286.151	219.344	458.911	418.273	367.780	360.915	439.819	495.973	265.988	329.269	459.185	0.00019207	0.000111	3.4212e-05	964.89	1.8742e-06	2.2251e-06	1054.2	204.34	3.9538e-06	5.1178e-06	262.34	73.179	56.58	16.899	3.5607e-06	23.641	0.00031997	0.00030648	8.1562e-05	938.56	3.4464e-06	3.3316e-06	1024.9	203.63	3.4939e-06	3.3413e-06	256.49	73.812	58.054	17.613	3.2652e-06	24.661	212.871	500.069	352.805	176.021	346.826	334.270	176.058	183.456	285.480	352.657	183.223	189.602	189.780	197.880	471.234	197.039	-8191	255	
1091.372	1	1	0	0	0.10988	0.23344	0.075	0.2112	0.26784	0.26563	0.24639	0.16201	0.2679	0.26929	0.079114	0.15626	0.089692	0.16966	0.092346	0.1869	-2.6042	-2.5854	-2.9771	-2.6604	-2.6083	-3.1625	-2.6333	-2.9125	-3.0542	-2.4896	-3.2188	-2.6688	-2.5896	-3.1458	-2.4667	-2.8167	501.672	196.154	170.831	168.462	432.287	451.753	483.107	514.033	443.186	508.825	473.711	523.226	508.878	413.921	491.215	281.257	0.00032394	0.00049716	1.8803e-05	969.48	3.5644e-06	2.9014e-06	1056.1	204.65	8.5719e-06	6.6652e-06	261.24	72.794	56.6	16.871	2.7105e-06	23.62	0.00031445	0.00030275	8.1475e-05	939.89	3.435e-06	3.2837e-06	1025.1	203.72	3.4138e-06	3.2969e-06	256.25	73.898	58.007	17.501	3.2848e-06	24.754	221.563	484.565	507.067	175.993	372.029	301.820	175.989	183.571	318.499	478.276	183.516	189.446	190.468	197.698	233.333	197.126	-8191	255	
1091.445	1	1	0	0	0.17027	0.10211	0.20144	0.20608	0.12439	0.19263	0.034899	0.14229	0.14066	0.1787	0.12284	0.17014	0.091177	0.12191	0.12311	0.12893	-2.475	-2.4146	-3.0083	-2.9	-2.5958	-3.0521	-2.6104	-2.7167	-3.1979	-2.45	-3.125	-2.9479	-2.4938	-3.1542	-2.6583	-2.8229	203.588	400.884	387.449	166.303	335.625	356.924	488.155	383.802	387.173	266.440	440.677	508.004	417.183	520.701	340.137	176.843	0.00023751	0.000204	4.2987e-05	964.84	4.0173e-06	2.5109e-06	1053.6	203.62	1.7482e-06	5.7138e-06	258.31	72.323	56.724	16.863	1.9896e-06	23.642	0.00030662	0.00029806	8.2998e-05	939.43	3.3494e-06	3.2437e-06	1022.9	203.85	3.3258e-06	3.2662e-06	255.89	74.006	57.677	17.486	3.3392e-06	24.684	197.309	385.522	456.142	176.276	384.439	196.527	175.963	183.372	409.807	261.134	183.315	189.856	189.921	197.410	251.910	197.441	-8191	255	
1091.564	1	1	0	0	0.025987	0.34025	0.155	0.096141	0.26384	0.10445	0.28216	0.059197	0.17334	0.060824	0.36756	0.21375	0.12999	0.087716	0.16809	0.23353	-2.7708	-2.2896	-2.7979	-2.9688	-2.4708	-3.2375	-2.7729	-2.7646	-3.1042	-2.3688	-3.0125	-2.9729	-2.3417	-3.0208	-2.6396	-2.6479	173.103	236.611	291.258	316.633	230.265	424.329	393.539	231.402	452.710	451.554	450.861	207.636	282.912	201.044	254.352	488.136	0.00023775	0.00085994	0.00018253	963.13	2.5513e-06	1.549e-06	1050	205.17	3.1698e-06	1.2485e-06	260.85	72.458	57.009	16.804	3.4353e-06	23.571	0.00029776	0.00029553	8.488e-05	937.83	3.2753e-06	3.2017e-06	1023.3	203.92	3.2603e-06	3.2136e-06	257.37	73.756	57.715	17.459	3.3776e-06	24.648	206.699	515.365	373.291	175.995	234.965	300.746	175.965	183.187	441.948	171.646	183.237	189.562	190.411	197.491	207.581	197.365	-8191	255	
1091.660	1	1	0	0	0.031512	0.078744	0.21928	0.27858	0.12707	0.10393	0.15053	0.17322	0.15246	0.068467	0.2155	0.26553	0.14193	0.16094	0.1683	0.16103	-2.6896	-2.6792	-2.8896	-2.8625	-2.4417	-3.0271	-2.9167	-2.5687	-3.2229	-2.4396	-2.8812	-2.9479	-2.3771	-3.0583	-2.7188	-2.6125	420.113	254.787	199.687	522.581	482.860	518.174	179.930	488.882	202.382	414.511	496.758	386.919	483.332	429.524	490.949	244.062	0.00034404	0.00010113	7.0847e-05	961.22	2.8215e-06	2.2369e-06	1054.7	204.82	4.6483e-06	1.9913e-06	263.45	72.943	56.42	16.731	3.0335e-06	23.7	0.00029195	0.00029439	8.678e-05	934.91	3.2388e-06	3.1881e-06	1026	203.63	3.2004e-06	3.2566e-06	258.46	73.593	57.538	17.49	3.4302e-06	24.546	196.265	463.379	497.086	176.017	269.383	441.746	175.929	183.319	302.139	390.656	183.488	189.591	190.170	197.393	203.219	196.937	-8191	255	
1091.756	1	1	0	0	0.081769	0.27761	0.173	0.25453	0.091507	0.2388	0.21808	0.062452	0.23393	0.060238	0.29006	0.13342	0.13141	0.1528	0.14292	0.15225	-2.6063	-2.5792	-2.9188	-3.2687	-2.2896	-3.0167	-2.9854	-2.6042	-3.025	-2.6542	-2.8458	-2.9479	-2.4958	-3.15	-3.0021	-2.4479	213.819	394.054	179.791	206.869	183.132	225.269	488.160	423.904	390.815	168.961	375.989	172.295	488.329	243.069	345.495	440.588	0.00022604	0.00042087	6.187e-05	963.81	1.1614e-06	3.7002e-06	1052.7	203.7	8.5101e-07	4.5019e-06	260.85	72.571	56.42	16.76	6.7672e-06	23.802	0.00028912	0.0003003	8.7286e-05	934.94	3.2069e-06	3.2737e-06	1024.9	202.63	3.1739e-06	3.3257e-06	257.48	73.462	57.371	17.582	3.418e-06	24.56	206.045	197.644	245.124	176.164	191.158	452.821	176.135	183.334	359.230	241.849	183.092	189.952	190.559	197.282	311.975	197.151	-8191	255	
1091.877	1	1	0	0	0.21408	0.18808	0.17975	0.12797	0.37043	0.14135	0.23734	0.29578	0.18776	0.20193	0.11944	0.059897	0.33718	0.39415	0.29001	0.24188	-2.6417	-2.7875	-2.7521	-3.1917	-2.525	-2.9854	-3.0062	-2.3771	-3.05	-2.8229	-2.7313	-3.1042	-2.5583	-2.7646	-3.1562	-2.4354	347.094	500.774	246.549	468.868	175.250	217.838	431.172	480.735	179.459	308.262	172.906	231.492	478.940	337.785	171.360	201.157	0.00018895	0.00023805	0.00016604	968.28	2.9692e-07	2.6232e-06	1057.1	205.03	3.0753e-06	6.9345e-06	262.25	72.646	56.774	16.814	3.9271e-06	23.739	0.00028801	0.0003109	8.6497e-05	936.75	3.2055e-06	3.3708e-06	1025.2	203.04	3.2062e-06	3.4187e-06	257.98	73.293	57.64	17.668	3.3297e-06	24.506	211.271	299.331	214.790	175.945	295.870	269.401	176.172	183.444	264.596	263.024	182.854	189.576	189.841	197.609	172.136	196.758	-8191	255	
1091.973	1	1	0	0	0.20388	0.18682	0.16148	0.33432	0.35197	0.025532	0.14554	0.099046	0.33984	0.36602	0.097527	0.15803	0.074434	0.25854	0.19795	0.12698	-2.6104	-2.8063	-2.5083	-3.3417	-2.4771	-2.6813	-3.1375	-2.1604	-3.0396	-2.6146	-2.5854	-3.1813	-2.6312	-2.8646	-3.1271	-2.5563	282.083	311.881	188.330	170.053	183.310	424.944	199.623	231.677	189.859	411.194	467.170	203.310	203.387	408.867	235.305	250.164	0.00024987	0.00046071	6.2043e-05	967.5	4.3694e-06	2.4776e-06	1050.1	204.34	1.1446e-06	9.4671e-06	260.69	72.083	56.4	16.735	2.888e-06	23.83	0.00029458	0.00031438	8.4378e-05	934.29	3.2517e-06	3.4417e-06	1022.7	202.69	3.2702e-06	3.4606e-06	256.51	73.206	57.539	17.689	3.275e-06	24.476	185.724	440.249	314.273	175.858	223.217	302.689	176.077	183.246	192.034	260.748	182.872	189.252	190.420	197.561	320.177	196.753	-8191	255	
1092.069	1	1	0	0	0.10783	0.032753	0.26897	0.182	0.14532	0.259	0.36219	0.077699	0.21005	0.18197	0.23249	0.096673	0.20525	0.1057	0.062203	0.060881	-2.5854	-2.8417	-2.5833	-3.3125	-2.6833	-2.7104	-3.2542	-2.4979	-2.8729	-2.9167	-2.5062	-3.275	-2.6875	-2.5563	-3.0333	-2.6333	308.514	321.755	508.449	178.797	168.661	509.721	466.095	324.027	518.337	493.343	235.235	318.289	318.207	511.813	499.754	509.918	0.00031437	0.00058769	0.00021672	964.34	4.8955e-06	2.7763e-06	1051.7	204.28	3.8808e-06	4.2492e-06	260.65	72.879	56.314	16.78	3.5775e-06	23.699	0.00030316	0.00031458	8.3695e-05	932.29	3.3309e-06	3.405e-06	1022	202.74	3.3718e-06	3.3927e-06	256.55	73.166	57.709	17.654	3.2156e-06	24.467	186.054	284.383	201.138	175.966	320.393	400.977	175.863	183.169	212.094	276.642	183.613	189.365	189.933	197.836	435.997	197.699	-8191	255	
1092.165	1	1	0	0	0.16243	0.12673	0.075452	0.40048	0.21235	0.068597	0.16566	0.16138	0.14485	0.096777	0.074367	0.13768	0.16919	0.11876	0.3563	0.22282	-2.5042	-2.9417	-2.4292	-3.1792	-2.6125	-2.7188	-3.2667	-2.7812	-2.8604	-3.1583	-2.3542	-3.1729	-2.7375	-2.7062	-3.1167	-2.6146	478.450	232.452	431.358	217.668	474.351	240.187	486.731	514.317	189.754	367.380	437.654	463.064	502.253	507.089	279.894	384.795	0.00024227	0.00053215	0.00012562	965.66	8.0621e-07	5.0157e-06	1047.2	204.56	4.1311e-06	3.4865e-06	261.27	73.015	56.373	16.65	2.2336e-06	23.894	0.00031028	0.00030648	8.1978e-05	932.85	3.4392e-06	3.3597e-06	1019.8	202.73	3.4179e-06	3.3116e-06	255.69	73.289	57.903	17.568	3.158e-06	24.57	213.869	351.066	201.796	175.953	318.432	443.738	175.809	183.440	231.190	483.398	183.282	189.136	190.283	198.065	338.319	197.033	-8191	255	
1092.260	1	1	0	0	0.16879	0.12951	0.20456	0.23484	0.19608	0.14866	0.29399	0.11451	0.10598	0.2421	0.27521	0.17144	0.16804	0.20638	0.35605	0.38285	-2.1979	-2.8521	-2.2896	-3.0792	-2.85	-2.5187	-3.3271	-2.6917	-2.7875	-3.1083	-2.425	-3.0667	-2.9854	-2.5104	-3.0729	-2.5417	428.253	355.064	201.466	524.097	262.553	402.321	466.324	483.333	351.662	517.107	496.342	206.036	433.285	195.723	381.969	525.253	0.00023713	0.00074829	0.00016048	958.46	4.3018e-06	3.4311e-06	1051.3	204.87	5.7275e-06	2.8941e-06	262.59	72.622	56.629	16.732	2.9965e-06	23.869	0.00030957	0.00029895	8.1309e-05	933.76	3.4606e-06	3.2909e-06	1020.4	203.25	3.4405e-06	3.258e-06	255.55	73.415	57.854	17.55	3.1676e-06	24.678	214.702	282.724	169.619	176.116	369.190	250.390	175.941	183.453	317.826	334.884	183.371	190.163	190.129	198.059	251.176	196.829	-8191	255	
1092.358	1	1	0	0	0.10611	0.096833	0.096772	0.2089	0.028079	0.10008	0.22234	0.09113	0.30656	0.13887	0.16396	0.10662	0.075379	0.062739	0.049367	0.32489	-2.2729	-2.9917	-2.3812	-3.1188	-2.7646	-2.4375	-3.2667	-2.7687	-2.7167	-3.0771	-2.2771	-2.9646	-3.1583	-2.4	-3.0979	-2.7313	437.093	502.415	411.848	504.285	307.642	194.242	436.868	295.495	169.281	197.385	441.999	169.984	176.660	363.583	354.719	524.904	0.00022019	0.00065509	2.2259e-05	961.97	4.0335e-06	3.1209e-06	1054.6	204.48	5.1084e-06	7.6291e-06	260.7	72.906	56.331	16.725	2.1223e-06	23.509	0.00030986	0.00029439	8.1502e-05	934.16	3.3602e-06	3.2491e-06	1019.9	203.31	3.3655e-06	3.2027e-06	255.96	73.797	57.765	17.504	3.2365e-06	24.665	196.056	296.944	447.729	176.066	311.980	339.940	176.009	183.359	267.419	281.212	182.834	189.842	190.090	197.664	379.698	196.788	-8191	255	
1092.476	1	1	0	0	0.13361	0.14112	0.26591	0.27215	0.097263	0.15054	0.067078	0.1713	0.048457	0.1095	0.14727	0.21141	0.072178	0.18675	0.14096	0.11418	-2.1063	-3.1625	-2.5542	-2.9458	-3.0729	-2.4896	-3.1937	-2.9562	-2.5187	-3.0708	-2.5917	-2.7083	-3.075	-2.3104	-3.0979	-2.9208	263.397	340.339	202.955	460.580	443.616	394.803	261.172	457.117	307.782	422.891	301.477	206.553	324.460	375.372	217.494	347.060	0.00028182	0.00016603	6.72e-05	964.65	4.6259e-06	2.8929e-06	1048.7	204.91	2.3291e-06	7.4281e-06	261.55	72.862	56.763	16.689	2.7907e-06	23.694	0.00030351	0.00029268	8.2698e-05	935.4	3.2852e-06	3.2161e-06	1019.9	203.65	3.3037e-06	3.2016e-06	256.57	73.696	57.6	17.468	3.3104e-06	24.725	212.023	471.331	510.755	176.353	312.483	398.876	175.953	183.531	425.093	363.037	182.836	189.469	190.296	197.553	298.503	197.124	-8191	255	
1092.573	1	1	0	0	0.059311	0.047178	0.1442	0.30232	0.084459	0.06801	0.11144	0.27765	0.051308	0.13233	0.26198	0.10539	0.1925	0.20801	0.035172	0.23738	-1.9896	-3.15	-2.6521	-2.6	-3.1292	-2.3021	-3.2417	-3.0646	-2.4792	-3.1958	-2.8208	-2.5292	-3.1854	-2.5229	-2.8917	-2.9521	259.262	332.524	283.338	455.027	274.727	269.816	373.429	419.488	171.401	306.936	362.311	269.712	249.048	478.325	410.293	459.102	0.0002415	0.0008383	0.00010519	963.64	2.4434e-06	4.4678e-06	1050.7	203.14	4.0112e-06	8.4938e-06	261.85	72.519	56.363	16.769	3.5767e-06	23.598	0.00029718	0.00029027	8.5086e-05	934.83	3.238e-06	3.1975e-06	1024.1	202.99	3.2311e-06	3.1679e-06	257.32	73.658	57.482	17.493	3.4012e-06	24.632	202.283	247.187	424.262	176.005	215.382	356.575	176.088	183.108	242.581	330.310	183.132	190.008	190.009	197.740	304.522	197.134	-8191	255	
1092.669	1	1	0	0	0.094373	0.079256	0.1046	0.075878	0.22133	0.33615	0.22364	0.29845	0.24272	0.25231	0.065441	0.24496	0.33435	0.38486	0.1786	0.13963	-2.125	-3.2375	-2.6979	-2.6	-3.0833	-2.5187	-3.0479	-2.8354	-2.3438	-3.2083	-3.0083	-2.5542	-3.2667	-2.4604	-2.8542	-3.0646	347.010	241.147	341.415	283.151	410.385	466.515	452.146	499.849	345.645	401.393	349.758	403.697	500.816	463.782	234.794	364.301	0.00026483	0.00041973	0.00017199	960	1.4043e-07	3.6783e-06	1047.7	204.9	7.077e-07	9.6773e-06	261.9	72.791	56.659	16.784	1.6638e-06	23.751	0.00029544	0.00029052	8.6914e-05	933.69	3.2029e-06	3.2221e-06	1022.5	202.71	3.236e-06	3.2037e-06	257.57	73.514	57.387	17.54	3.4441e-06	24.555	193.657	218.955	340.495	176.227	345.693	297.879	176.049	183.442	312.856	216.570	183.175	190.161	190.070	197.415	166.543	196.594	-8191	255	
1092.740	1	1	0	0	0.15222	0.15882	0.18213	0.33842	0.10539	0.26435	0.254	0.22306	0.14519	0.092872	0.12993	0.1997	0.19144	0.16425	0.161	0.21174	-1.8667	-2.8812	-2.75	-2.5604	-3.2667	-2.5062	-2.9458	-3.1229	-2.4104	-3.1333	-3.0583	-2.3917	-3.1375	-2.4708	-2.5938	-3.1479	202.287	500.441	393.883	472.964	380.724	524.405	393.422	418.564	227.601	186.356	390.127	512.369	168.389	433.914	273.020	401.234	0.00025513	0.00092719	0.00018664	963.47	3.3328e-06	6.3786e-06	1054.2	204.46	3.2953e-06	8.4224e-06	260.58	72.652	56.476	16.692	1.5535e-06	23.666	0.00029345	0.00030092	8.7642e-05	934.43	3.1618e-06	3.3036e-06	1025.3	202.91	3.2137e-06	3.3072e-06	257.38	73.277	57.322	17.572	3.4142e-06	24.495	188.696	185.804	229.414	176.363	255.266	370.610	176.269	183.641	472.035	224.409	183.110	189.873	190.048	197.430	430.490	197.077	-8191	255	
1092.861	1	1	0	0	0.07143	0.1771	0.17479	0.30209	0.29787	0.21063	0.14627	0.2199	0.15587	0.22752	0.35883	0.11335	0.09033	0.0519	0.096263	0.07084	-2.0187	-2.9875	-2.9938	-2.5875	-3.025	-2.6917	-2.9104	-3.3292	-2.675	-2.7062	-2.8688	-2.3771	-3.2583	-2.8563	-2.5021	-3.1729	369.561	522.618	333.443	445.796	464.492	345.631	373.021	422.321	207.138	192.763	187.232	263.224	506.209	505.784	286.911	345.604	0.00025304	0.00048567	0.0001138	960.69	3.3941e-06	7.1755e-07	1050.8	205.16	4.1464e-06	8.0422e-06	259.2	73.449	56.013	16.863	6.4967e-07	23.5	0.00028896	0.00030468	8.6204e-05	931.34	3.147e-06	3.355e-06	1021	202.7	3.1713e-06	3.3811e-06	255.93	73.387	57.306	17.613	3.3282e-06	24.387	198.286	246.874	414.784	175.990	395.181	413.675	176.008	183.624	201.900	232.096	183.539	189.344	190.497	197.770	368.671	196.796	-8191	255	
1092.957	1	1	0	0	0.074374	0.17614	0.14682	0.15618	0.29561	0.099657	0.041601	0.037403	0.025793	0.12637	0.19381	0.059003	0.15276	0.11582	0.14	0.12477	-2.0896	-2.8271	-3.0312	-2.6104	-3.0458	-2.7854	-2.7313	-3.2417	-2.7021	-2.7479	-3.1063	-2.4667	-3.0021	-2.8646	-2.3875	-3.1583	441.074	340.393	302.048	176.833	384.963	193.610	429.375	266.740	181.774	420.031	173.279	334.873	240.361	230.050	233.385	500.442	0.00022586	0.00031535	0.00013735	958.77	3.955e-06	4.0756e-06	1050.3	205.14	2.4236e-06	3.2094e-06	261.3	72.147	56.179	16.756	4.1868e-06	23.618	0.00029201	0.00030795	8.3489e-05	928.92	3.1832e-06	3.3912e-06	1020.9	202.35	3.2636e-06	3.4463e-06	255.68	72.986	57.411	17.666	3.2742e-06	24.438	195.441	435.225	288.868	176.060	353.524	394.226	175.821	183.485	235.206	359.718	183.167	189.616	190.143	197.712	311.812	196.868	-8191	255	
1093.053	1	1	0	0	0.20287	0.20359	0.20694	0.22548	0.09251	0.073165	0.14343	0.14638	0.26234	0.02573	0.2413	0.2121	0.11541	0.11985	0.3384	0.11317	-2.1479	-2.6021	-3.0187	-2.5833	-3.0812	-2.975	-2.625	-3.1312	-2.6458	-2.8	-3.2354	-2.5375	-2.9271	-2.9521	-2.5583	-3.0583	354.143	185.086	423.578	500.717	322.106	285.679	300.027	519.872	388.440	231.669	407.341	176.386	293.581	422.885	288.003	199.366	0.00016993	6.0622e-05	0.00010873	961.82	2.2737e-06	3.291e-06	1049.2	204.32	4.7955e-06	7.3702e-06	259.8	72.461	56.304	16.664	2.4002e-06	23.799	0.00029923	0.00031207	8.2819e-05	931.44	3.3231e-06	3.4348e-06	1019.9	202.62	3.3751e-06	3.4064e-06	256.04	73.045	57.686	17.586	3.2744e-06	24.432	199.968	447.508	241.400	176.220	430.818	342.284	175.954	183.530	314.337	311.128	183.188	189.768	190.090	197.001	525.405	197.224	-8191	255	
1093.149	1	1	0	0	0.072091	0.096319	0.29641	0.29521	0.034829	0.19551	0.20509	0.29318	0.15517	0.33526	0.0051871	0.096428	0.25445	0.1912	0.072447	0.30043	-2.2	-2.6208	-3.0875	-2.6292	-3.0542	-2.9917	-2.3229	-3.1021	-2.8042	-2.5708	-3.0604	-2.7	-2.9729	-2.9583	-2.3563	-3.0125	419.529	495.679	344.492	461.582	510.019	254.978	477.878	507.144	421.666	394.068	362.508	441.259	455.130	448.786	441.866	458.810	0.00029221	0.00069354	7.9076e-05	959.21	4.0171e-06	6.1561e-06	1048.7	204.65	4.7857e-06	6.1186e-06	260.93	72.212	56.193	16.735	9.1496e-06	23.706	0.00031186	0.00030964	8.21e-05	931.67	3.4016e-06	3.346e-06	1019.1	202.39	3.4173e-06	3.313e-06	255.24	73.009	57.744	17.519	3.173e-06	24.513	199.360	252.291	195.011	176.265	291.290	384.113	175.985	183.374	310.363	341.878	183.303	189.470	190.051	198.118	361.627	197.003	-8191	255	
1093.268	1	1	0	0	0.15391	0.21095	0.18898	0.21095	0.12325	0.25252	0.094987	0.1732	0.12593	0.10694	0.14281	0.14333	0.31163	0.32823	0.19137	0.12794	-2.3979	-2.5062	-3.1125	-2.6729	-2.5812	-3.0042	-2.5979	-3.0896	-2.7354	-2.6708	-3.2521	-2.6688	-2.8583	-3.1583	-2.4813	-2.8458	261.211	354.037	402.394	470.057	383.972	344.026	493.621	395.290	360.839	353.469	397.848	348.026	520.253	377.864	375.206	419.233	0.00019715	0.00051634	0.00010253	959.95	9.5697e-07	5.3032e-06	1053.4	204.34	4.7192e-06	1.2474e-06	261.13	72.384	56.251	16.812	5.0449e-06	23.733	0.00030833	0.00029797	7.9838e-05	930.42	3.3703e-06	3.242e-06	1019.2	202.7	3.3698e-06	3.2354e-06	255.41	73.362	57.666	17.512	3.1294e-06	24.595	182.987	366.824	296.259	175.879	510.168	368.215	176.029	183.505	300.034	240.441	183.376	189.503	190.134	197.846	324.325	197.231	-8191	255	
1093.365	1	1	0	0	0.21494	0.16135	0.34862	0.33914	0.12838	0.18051	0.074453	0.19242	0.19356	0.21777	0.11222	0.24592	0.081628	0.18453	0.31096	0.050428	-2.4479	-2.5438	-3.0771	-2.8812	-2.7667	-3.125	-2.6229	-2.9229	-2.9125	-2.6125	-3.2354	-2.7083	-2.7771	-3.2604	-2.4188	-3.025	287.698	212.223	500.745	452.488	456.233	404.994	306.132	507.909	340.470	479.546	286.256	165.776	503.207	178.991	417.265	379.197	0.00021381	0.0012164	0.00015599	961.48	9.0687e-07	2.481e-06	1053	205.88	5.3648e-06	3.3827e-06	257.93	72.456	56.514	16.889	2.9359e-06	23.681	0.00030348	0.00029417	7.9935e-05	934.31	3.3551e-06	3.203e-06	1020.4	203.33	3.3188e-06	3.2105e-06	254.04	73.637	57.733	17.553	3.1964e-06	24.641	218.506	361.611	300.121	176.185	384.150	286.229	176.089	183.759	276.698	272.257	183.415	189.643	190.524	198.210	237.958	196.940	-8191	255	
1093.438	1	1	0	0	0.019222	0.048497	0.14596	0.26196	0.20935	0.19203	0.26857	0.08427	0.28574	0.054844	0.045007	0.11196	0.18803	0.10371	0.1553	0.22335	-2.4729	-2.5521	-3.0938	-2.8854	-2.5042	-3.2313	-2.6167	-2.8187	-3.175	-2.5708	-3.1854	-2.7917	-2.6312	-3.325	-2.55	-2.6396	244.687	493.110	346.588	476.823	167.947	379.768	458.236	224.886	462.679	449.235	460.327	372.974	455.943	457.863	165.212	262.972	0.00026473	0.00036875	8.9566e-05	956.49	1.7306e-06	5.047e-06	1046.4	204.05	2.5746e-06	1.8583e-06	259.77	72.696	56.661	16.739	1.2955e-08	23.692	0.00029897	0.00029216	8.0631e-05	933.67	3.2575e-06	3.164e-06	1017.2	203.15	3.2555e-06	3.1747e-06	255.42	73.648	57.626	17.454	3.2464e-06	24.676	205.927	383.888	458.499	175.989	415.436	477.070	176.217	183.176	314.309	476.408	183.232	189.421	190.480	198.125	199.909	197.360	-8191	255	
1093.557	1	1	0	0	0.049084	0.11925	0.14669	0.10309	0.1514	0.28179	0.34779	0.085621	0.36029	0.080975	0.13176	0.1731	0.17185	0.20123	0.1356	0.17315	-2.6417	-2.3125	-3.0271	-2.7417	-2.3354	-3.0563	-2.8625	-2.8021	-3.1271	-2.6	-3.0208	-2.8042	-2.4188	-3.2542	-2.7125	-2.7625	284.461	314.003	264.952	208.992	247.204	523.587	443.565	187.178	404.975	396.980	517.243	516.048	191.310	182.657	319.634	328.993	0.00028828	0.00056555	0.0001144	956.3	3.7161e-06	2.1948e-06	1049.2	203.88	1.1998e-06	3.2308e-06	259.67	72.407	56.688	16.774	3.0631e-06	23.706	0.00028851	0.00028948	8.268e-05	931.16	3.2046e-06	3.1403e-06	1020.5	203.32	3.199e-06	3.1444e-06	255.46	73.417	57.54	17.471	3.355e-06	24.603	208.698	246.050	496.345	175.915	355.668	366.682	175.947	183.406	459.269	307.546	183.097	189.628	190.047	197.850	254.688	197.181	-8191	255	
1093.653	1	1	0	0	0.13632	0.036012	0.064012	0.21998	0.19601	0.33442	0.11352	0.11636	0.21299	0.10735	0.2825	0.034559	0.20669	0.2038	0.11886	0.14146	-2.7313	-2.5021	-2.8312	-3.2146	-2.2917	-2.8417	-2.9021	-2.7313	-3.0812	-2.5	-2.8458	-3.1833	-2.6	-3.1146	-2.7854	-2.6875	177.354	503.823	471.718	481.540	363.536	379.508	231.380	414.995	324.479	353.355	496.196	167.828	487.031	485.787	375.840	430.119	0.00019766	0.00078235	0.00019553	958.79	2.5807e-06	1.9143e-06	1045.2	203.46	2.4606e-06	5.3146e-06	260.38	72.56	56.336	16.807	3.9269e-06	23.428	0.00028942	0.00028883	8.465e-05	930.6	3.1759e-06	3.1534e-06	1019.2	202.69	3.1362e-06	3.1662e-06	256.71	73.363	57.212	17.495	3.3905e-06	24.467	238.449	479.127	507.572	176.101	336.382	488.394	176.018	183.385	442.401	270.602	183.340	190.098	190.491	197.924	252.516	197.281	-8191	255	
1093.749	1	1	0	0	0.19181	0.085436	0.046567	0.10285	0.23411	0.068884	0.16583	0.10784	0.062491	0.1376	0.060162	0.26418	0.18754	0.17898	0.13994	0.13764	-2.6208	-2.4646	-2.7729	-3.2208	-2.4229	-3.0812	-2.8563	-2.5833	-3.3458	-2.8063	-2.8292	-3.1021	-2.4167	-2.8917	-2.625	-2.5042	434.884	525.355	220.092	459.944	458.631	241.959	422.171	444.125	324.229	415.800	210.101	185.421	172.369	304.272	500.403	499.779	0.00018563	0.00039374	8.5717e-05	957.81	3.4373e-06	3.4782e-06	1047.1	204.31	8.9151e-07	7.0861e-06	260.64	72.659	56.907	16.689	4.4978e-06	23.656	0.00028435	0.00029642	8.5686e-05	929.94	3.133e-06	3.2236e-06	1019.4	202.48	3.0984e-06	3.2539e-06	256.49	73.07	57.364	17.527	3.3271e-06	24.471	203.969	454.253	258.698	176.012	237.752	284.366	176.120	183.553	306.066	198.331	182.758	189.952	189.872	197.382	521.521	197.474	-8191	255	
1093.845	1	1	0	0	0.21197	0.095466	0.1577	0.10287	0.079252	0.10847	0.14219	0.22658	0.13718	0.2076	0.019476	0.29351	0.17102	0.15664	0.095117	0.088166	-2.6937	-2.6937	-2.6083	-3.2625	-2.3396	-2.775	-3.0833	-2.4771	-3.2083	-2.8583	-2.6521	-3.0646	-2.4562	-2.8083	-3.05	-2.5396	450.787	266.441	432.593	237.236	408.343	219.595	412.625	443.615	205.789	337.298	176.820	188.463	204.868	277.310	211.967	260.943	0.00016393	0.00023416	7.8039e-05	957.8	6.5239e-06	1.1107e-06	1047.5	204.26	4.6685e-06	2.7496e-06	261.24	72.999	56.537	16.77	7.0703e-06	23.642	0.0002841	0.0003015	8.5139e-05	927.64	3.1475e-06	3.2934e-06	1020.4	202.18	3.0997e-06	3.3135e-06	256.28	73.143	57.369	17.603	3.2674e-06	24.386	189.854	251.068	209.535	175.843	344.910	288.214	176.093	183.806	234.540	204.908	182.891	190.037	189.961	197.781	194.695	197.101	-8191	255	
1093.966	1	1	0	0	0.17656	0.048389	0.14282	0.43277	0.25962	0.10718	0.088643	0.29692	0.15728	0.13246	0.023043	0.25441	0.14864	0.11709	0.087153	0.07086	-2.7042	-2.9188	-2.5521	-3.225	-2.6104	-2.9542	-3.0542	-2.6229	-3.0125	-2.8583	-2.6833	-3.3208	-2.5021	-2.8125	-3.0583	-2.4667	339.213	359.636	254.538	501.336	488.856	514.660	417.739	314.418	204.050	462.830	316.770	244.113	435.614	390.748	290.758	349.287	0.00024209	0.00060005	4.1909e-06	956.66	3.63e-06	3.2104e-06	1050	203.99	4.9712e-06	3.079e-06	260.73	72.681	56.34	16.739	9.328e-07	23.679	0.00028633	0.00031049	8.2716e-05	926.74	3.165e-06	3.3619e-06	1017.6	202.02	3.1944e-06	3.3549e-06	255.59	73	57.439	17.612	3.2044e-06	24.398	204.644	476.660	228.145	176.026	256.385	340.151	175.914	183.614	233.847	308.595	183.354	189.972	189.926	197.702	352.906	197.215	-8191	255	
1094.038	1	1	0	0	0.20726	0.021407	0.091314	0.16009	0.10838	0.15886	0.057675	0.23061	0.19714	0.11235	0.25302	0.052844	0.18999	0.15008	0.098065	0.038651	-2.4583	-2.7146	-2.3563	-3.2521	-2.7542	-2.6667	-3.1729	-2.4833	-3.0812	-3.0062	-2.5938	-3.2438	-2.8229	-2.6083	-3.1229	-2.3896	467.182	209.470	297.869	444.443	240.732	293.383	319.826	445.986	458.080	376.673	167.414	481.003	191.631	221.484	495.040	414.318	0.00022098	0.00036504	0.00013599	955.08	1.775e-06	1.9889e-06	1046.5	203.16	2.0362e-06	5.1053e-06	260.21	71.944	56.291	16.687	2.65e-06	23.599	0.00029248	0.00030503	8.0896e-05	925.76	3.2218e-06	3.3386e-06	1016.6	201.43	3.2631e-06	3.3374e-06	254.75	73.016	57.599	17.572	3.1562e-06	24.363	193.422	268.986	230.668	176.402	333.881	224.049	176.093	183.682	309.875	278.878	183.104	189.715	190.297	197.026	519.741	196.902	-8191	255	
#DATA ENDS
