BOXY.EXE: ISS Imagent and Oximeter Data Acquisition Program Version 0.80
Ascii Record File

#ACQ INFORMATION
2  Detector Channels 
16  External MUX Channels 
1  Auxiliary Channels 
5000  Waveform (CCF) Frequency (Hz)
1  Waveforms Skipped 
30  Waveforms Averaged 
1  Cycles Averaged 
16  Acquisitions per Waveform 
10.0806  Updata Rate (Hz) 

#FILE INFORMATION
TRUE -- External MUX Channel results are PARSED.
FALSE -- AC DC and Phase are NOT grouped.
TRUE -- Companion Program Settings File CREATED.
FALSE -- AC data not excluded
FALSE -- DC data not excluded
FALSE -- Phase data not excluded
FALSE -- Auxillary Chn. data not excluded
Tab delimiters

#CALIBRATION STATE
TRUE -- Waveform Calibration Values APPLIED.


#AUX CALIBRATION VALUES
Val Type	aux-1	

Term	1.0000e+00	
Factor	0.0000e+00	


#WF CALIBRATION VALUES
A = Detector Channel
Val Type	A-AC1	A-AC2	A-AC3	A-AC4	A-AC5	A-AC6	A-AC7	A-AC8	A-AC9	A-AC10	A-AC11	A-AC12	A-AC13	A-AC14	A-AC15	A-AC16	A-DC1	A-DC2	A-DC3	A-DC4	A-DC5	A-DC6	A-DC7	A-DC8	A-DC9	A-DC10	A-DC11	A-DC12	A-DC13	A-DC14	A-DC15	A-DC16	A-Ph1	A-Ph2	A-Ph3	A-Ph4	A-Ph5	A-Ph6	A-Ph7	A-Ph8	A-Ph9	A-Ph10	A-Ph11	A-Ph12	A-Ph13	A-Ph14	A-Ph15	A-Ph16	

Term	0.00000e+00	0.00000e+00	0.00000e+00	0.00000e+00	0.00000e+00	0.00000e+00	0.00000e+00	0.00000e+00	0.00000e+00	0.00000e+00	0.00000e+00	0.00000e+00	0.00000e+00	0.00000e+00	0.00000e+00	0.00000e+00	0.00000e+00	0.00000e+00	0.00000e+00	0.00000e+00	0.00000e+00	0.00000e+00	0.00000e+00	0.00000e+00	0.00000e+00	0.00000e+00	0.00000e+00	0.00000e+00	0.00000e+00	0.00000e+00	0.00000e+00	0.00000e+00	0.00000e+00	0.00000e+00	0.00000e+00	0.00000e+00	0.00000e+00	0.00000e+00	0.00000e+00	0.00000e+00	0.00000e+00	0.00000e+00	0.00000e+00	0.00000e+00	0.00000e+00	0.00000e+00	0.00000e+00	0.00000e+00	
Factor	1.00000e+00	1.00000e+00	1.00000e+00	1.00000e+00	1.00000e+00	1.00000e+00	1.00000e+00	1.00000e+00	1.00000e+00	1.00000e+00	1.00000e+00	1.00000e+00	1.00000e+00	1.00000e+00	1.00000e+00	1.00000e+00	1.00000e+00	1.00000e+00	1.00000e+00	1.00000e+00	1.00000e+00	1.00000e+00	1.00000e+00	1.00000e+00	1.00000e+00	1.00000e+00	1.00000e+00	1.00000e+00	1.00000e+00	1.00000e+00	1.00000e+00	1.00000e+00	X	X	X	X	X	X	X	X	X	X	X	X	X	X	X	X	

B = Detector Channel
Val Type	B-AC1	B-AC2	B-AC3	B-AC4	B-AC5	B-AC6	B-AC7	B-AC8	B-AC9	B-AC10	B-AC11	B-AC12	B-AC13	B-AC14	B-AC15	B-AC16	B-DC1	B-DC2	B-DC3	B-DC4	B-DC5	B-DC6	B-DC7	B-DC8	B-DC9	B-DC10	B-DC11	B-DC12	B-DC13	B-DC14	B-DC15	B-DC16	B-Ph1	B-Ph2	B-Ph3	B-Ph4	B-Ph5	B-Ph6	B-Ph7	B-Ph8	B-Ph9	B-Ph10	B-Ph11	B-Ph12	B-Ph13	B-Ph14	B-Ph15	B-Ph16	

Term	0.00000e+00	0.00000e+00	0.00000e+00	0.00000e+00	0.00000e+00	0.00000e+00	0.00000e+00	0.00000e+00	0.00000e+00	0.00000e+00	0.00000e+00	0.00000e+00	0.00000e+00	0.00000e+00	0.00000e+00	0.00000e+00	0.00000e+00	0.00000e+00	0.00000e+00	0.00000e+00	0.00000e+00	0.00000e+00	0.00000e+00	0.00000e+00	0.00000e+00	0.00000e+00	0.00000e+00	0.00000e+00	0.00000e+00	0.00000e+00	0.00000e+00	0.00000e+00	6.26660e+01	-1.60708e+02	-1.38034e+02	-1.81640e+02	-8.09839e+01	-1.13405e+02	-1.57973e+02	-1.62015e+02	-1.03025e+02	-8.37485e+01	-1.80409e+02	-1.70637e+02	-1.81506e+02	-1.76090e+02	-1.06331e+02	-1.49360e+02	
Factor	4.46417e-05	7.40306e-05	1.66068e-05	1.80300e-01	6.95920e-07	6.52801e-07	1.65304e-01	5.16653e-02	1.08927e-06	6.59530e-07	1.02996e-01	2.98071e-02	2.44284e-02	9.16901e-03	8.66652e-07	1.32262e-02	3.52392e-07	3.56068e-07	9.93150e-08	8.43590e-02	3.89487e-09	3.90538e-09	7.38614e-02	2.41382e-02	3.89876e-09	3.90770e-09	4.36374e-02	1.29438e-02	1.10597e-02	4.10157e-03	3.91558e-09	5.63340e-03	X	X	X	X	X	X	X	X	X	X	X	X	X	X	X	X	



#DISTANCE SETTINGS
A = Detector Channel
A-1	A-2	A-3	A-4	A-5	A-6	A-7	A-8	A-9	A-10	A-11	A-12	A-13	A-14	A-15	A-16	

2.5000e+00	3.0000e+00	2.5000e+00	3.0000e+00	2.0000e+00	3.0000e+00	1.5000e+00	3.0000e+00	3.0000e+00	3.0000e+00	3.0000e+00	3.0000e+00	3.0000e+00	3.0000e+00	1.5000e+00	3.0000e+00	

B = Detector Channel
B-1	B-2	B-3	B-4	B-5	B-6	B-7	B-8	B-9	B-10	B-11	B-12	B-13	B-14	B-15	B-16	

1.0000e+01	1.0000e+01	1.0000e+01	1.4400e+00	1.0000e+01	1.0000e+01	1.5100e+00	1.9400e+00	1.0000e+01	1.0000e+01	1.9900e+00	2.4900e+00	2.4100e+00	2.9000e+00	1.0000e+01	2.9800e+00	




#DATA BEGINS
time	group	step	mark	flag	A-AC1	A-AC2	A-AC3	A-AC4	A-AC5	A-AC6	A-AC7	A-AC8	A-AC9	A-AC10	A-AC11	A-AC12	A-AC13	A-AC14	A-AC15	A-AC16	A-DC1	A-DC2	A-DC3	A-DC4	A-DC5	A-DC6	A-DC7	A-DC8	A-DC9	A-DC10	A-DC11	A-DC12	A-DC13	A-DC14	A-DC15	A-DC16	A-Ph1	A-Ph2	A-Ph3	A-Ph4	A-Ph5	A-Ph6	A-Ph7	A-Ph8	A-Ph9	A-Ph10	A-Ph11	A-Ph12	A-Ph13	A-Ph14	A-Ph15	A-Ph16	B-AC1	B-AC2	B-AC3	B-AC4	B-AC5	B-AC6	B-AC7	B-AC8	B-AC9	B-AC10	B-AC11	B-AC12	B-AC13	B-AC14	B-AC15	B-AC16	B-DC1	B-DC2	B-DC3	B-DC4	B-DC5	B-DC6	B-DC7	B-DC8	B-DC9	B-DC10	B-DC11	B-DC12	B-DC13	B-DC14	B-DC15	B-DC16	B-Ph1	B-Ph2	B-Ph3	B-Ph4	B-Ph5	B-Ph6	B-Ph7	B-Ph8	B-Ph9	B-Ph10	B-Ph11	B-Ph12	B-Ph13	B-Ph14	B-Ph15	B-Ph16	aux-1	digaux	

8513.168	1	1	0	768	0.20523	0.25695	0.13574	0.094465	0.1823	0.18097	0.11306	0.19112	0.23698	0.11281	0.22677	0.20567	0.17976	0.15214	0.076043	0.27234	-2.1792	-2.6688	-3.0833	-2.5021	-3.0542	-2.7771	-2.4271	-3.1604	-2.5854	-2.8688	-2.8604	-2.4437	-3.1333	-2.7521	-2.5	-3.2333	92.193	267.904	201.141	311.925	16.460	63.205	256.572	123.565	-11.212	256.853	43.448	178.167	20.189	81.108	101.258	301.877	0.00027487	7.4569e-05	2.2661e-05	213.49	5.2483e-07	8.4036e-07	256.35	67.229	5.3204e-07	5.466e-07	103.66	41.522	25.664	12.063	1.2042e-06	22.538	8.1006e-06	6.5887e-06	1.7144e-06	199.34	6.67e-08	7.5683e-08	243.03	63.097	7.1753e-08	7.0852e-08	90.86	37.146	23.184	10.864	7.0187e-08	19.713	334.906	50.325	38.006	-10.156	38.004	110.703	-11.183	-5.423	140.228	25.848	-7.424	-2.585	-1.553	2.382	76.957	0.343	-8191	255	
8513.264	1	1	0	0	0.14549	0.11788	0.077925	0.15864	0.090633	0.28767	0.28333	0.1744	0.13687	0.111	0.22403	0.097716	0.37659	0.22366	0.15046	0.076502	-2.1042	-2.8375	-3.1979	-2.4479	-2.925	-2.9542	-2.475	-3.1333	-2.5979	-2.8688	-2.925	-2.7042	-2.8812	-2.8979	-2.6063	-3.0479	179.333	92.179	232.974	242.261	102.783	94.109	335.680	292.418	215.606	227.261	16.665	125.076	232.138	265.808	150.530	268.214	0.0002471	9.5295e-05	1.2043e-05	211.66	7.9616e-07	6.3211e-08	254.77	66.952	9.4242e-07	8.3787e-07	102.92	41.252	25.452	12.098	3.0703e-07	22.217	8.4002e-06	6.2075e-06	1.671e-06	198.28	6.8436e-08	6.8246e-08	240.94	62.686	7.1039e-08	6.9639e-08	90.192	36.837	23.079	10.792	7.0154e-08	19.451	326.399	13.733	83.176	-10.130	98.284	271.581	-11.342	-5.052	102.335	114.927	-7.419	-2.981	-1.062	2.254	125.618	0.475	-8191	255	
8513.360	1	1	0	0	0.096025	0.22017	0.16488	0.049552	0.066253	0.103	0.095797	0.076754	0.22993	0.12193	0.04471	0.18142	0.16475	0.12658	0.20373	0.1098	-2.1708	-2.7208	-3.0333	-2.6083	-2.9646	-3.0667	-2.6042	-3.0354	-2.7354	-2.7833	-3.05	-2.5604	-2.85	-2.9354	-2.4292	-3.0062	238.276	157.915	260.539	4.642	241.062	173.262	176.856	287.772	104.407	195.947	139.607	284.730	197.124	278.716	248.673	258.665	0.00026746	9.2223e-05	2.4241e-05	210.56	5.9116e-07	2.4522e-07	252.98	67.566	7.3176e-07	1.0523e-06	101.99	41.225	25.783	12.103	8.4258e-07	22.348	8.5352e-06	6.3491e-06	1.66e-06	197.69	7.2834e-08	6.7693e-08	240.34	63.085	7.2444e-08	6.6089e-08	90.141	36.9	23.187	10.859	6.5765e-08	19.555	325.265	24.100	63.261	-10.212	123.699	333.598	-10.958	-5.215	70.763	70.036	-7.418	-2.776	-1.182	2.612	100.132	0.088	-8191	255	
8513.456	1	1	0	0	0.2523	0.14412	0.24044	0.15755	0.033052	0.11201	0.024459	0.092433	0.14729	0.25824	0.082125	0.20285	0.1493	0.15177	0.13841	0.058058	-2.3583	-2.5292	-3.1792	-2.6979	-2.9458	-3.1396	-2.5979	-2.9646	-3.0208	-2.6208	-3.1312	-2.6833	-2.7292	-3.1813	-2.6354	-2.9917	227.533	137.452	91.291	29.158	147.514	162.900	247.165	143.749	156.333	187.002	301.694	150.820	20.862	139.902	223.146	-19.991	0.00023359	7.5765e-05	1.5621e-05	210.73	8.92e-07	5.8457e-07	253.81	67.264	1.0082e-06	8.0936e-07	103.11	41.372	25.935	12.191	5.1141e-07	22.432	8.6145e-06	6.479e-06	1.6315e-06	198.74	7.4733e-08	6.5439e-08	240.97	63.219	7.5181e-08	6.556e-08	90.646	37.08	23.368	10.9	6.4738e-08	19.668	327.624	20.197	-1.761	-10.326	100.225	76.386	-10.881	-4.928	164.729	77.649	-7.827	-2.614	-1.393	2.550	112.559	0.522	-8191	255	
8513.553	1	1	0	0	0.10091	0.0095637	0.11702	0.1864	0.091145	0.062038	0.19302	0.096872	0.16218	0.23615	0.25342	0.16571	0.089006	0.10924	0.19258	0.22731	-2.4625	-2.4396	-3.0729	-2.6417	-2.7083	-3.0521	-2.4792	-2.9271	-2.8604	-2.4896	-3.0583	-2.7146	-2.5458	-3.05	-2.4896	-2.8875	22.105	293.203	202.131	69.083	242.819	78.573	315.958	186.948	176.010	125.636	259.664	324.342	40.679	-19.774	27.927	315.010	0.00025033	8.15e-05	1.235e-05	211.97	7.142e-07	1.1539e-06	253.64	67.392	1.3755e-06	1.0376e-06	104.59	41.677	25.775	12.289	7.8235e-07	22.643	8.7518e-06	5.9204e-06	1.5435e-06	198.45	7.2445e-08	6.5586e-08	240.94	63.2	7.3816e-08	6.7066e-08	91.362	37.262	23.38	10.962	6.6801e-08	19.838	325.226	75.835	38.088	-10.329	118.823	86.718	-11.055	-5.338	59.942	124.767	-7.631	-2.901	-0.842	2.331	143.762	0.137	-8191	255	
8513.649	1	1	0	0	0.15453	0.25459	0.057974	0.094445	0.15305	0.1815	0.14787	0.2454	0.11192	0.092871	0.085609	0.13658	0.1666	0.14875	0.18868	0.15965	-2.4875	-2.4333	-3.1333	-2.7	-2.6333	-3.2771	-2.5458	-2.825	-2.9188	-2.6083	-2.9375	-2.85	-2.6146	-2.9833	-2.8083	-2.9375	22.194	48.383	237.938	61.597	232.951	60.993	26.317	260.397	91.097	255.915	39.670	236.800	252.226	300.049	293.831	-12.168	0.00023036	0.00010857	7.3766e-06	212.97	5.7954e-07	5.8491e-07	254.62	67.716	7.82e-07	9.0654e-07	103.16	41.341	25.728	12.045	3.0757e-07	22.137	8.6277e-06	6.2097e-06	1.5886e-06	199.83	7.1252e-08	6.2104e-08	242.22	63.531	7.0494e-08	6.4721e-08	90.719	36.993	23.149	10.79	6.8914e-08	19.477	323.086	32.356	121.413	-10.457	100.359	79.612	-11.012	-5.319	175.055	114.269	-6.887	-2.792	-1.129	2.719	117.416	0.253	-8191	255	
8513.769	1	1	0	0	0.38059	0.23686	0.17023	0.11399	0.062626	0.16965	0.20241	0.1977	0.08664	0.14031	0.053322	0.20363	0.1539	0.26058	0.24618	0.12706	-2.4625	-2.4042	-2.9313	-2.8958	-2.55	-2.85	-2.7458	-2.7833	-3.0604	-2.5396	-2.8333	-2.875	-2.5792	-3.1229	-2.8396	-2.8333	186.830	333.707	135.630	61.148	186.886	253.895	284.057	307.161	43.140	206.177	266.611	2.609	58.806	278.814	41.982	234.447	0.00020309	7.7395e-05	1.2191e-05	213.11	5.7501e-07	4.8466e-07	252.75	66.68	1.4931e-06	4.3976e-07	100.68	39.783	24.895	11.61	5.902e-07	21.377	8.3752e-06	6.0094e-06	1.6476e-06	199.35	6.7414e-08	6.1062e-08	238.83	62.083	6.58e-08	6.4762e-08	88.01	35.676	22.416	10.366	6.9338e-08	18.669	328.996	11.363	106.839	-10.087	112.062	57.272	-11.098	-4.998	65.123	147.577	-6.700	-2.753	-1.243	2.711	80.764	0.608	-8191	255	
8513.866	1	1	0	0	0.21022	0.17247	0.30476	0.13595	0.14283	0.13482	0.16087	0.084601	0.23071	0.077044	0.27635	0.15885	0.21761	0.22822	0.14843	0.16724	-2.3229	-2.525	-3.0271	-2.7146	-2.5896	-3.2979	-2.7042	-2.5542	-3.175	-2.5292	-2.9062	-2.775	-2.4583	-3.0146	-2.6604	-2.6854	85.333	47.688	232.634	69.757	261.807	167.896	92.062	294.691	157.740	332.147	-3.401	282.570	-5.283	165.107	290.027	241.675	0.00019106	3.5004e-05	9.5936e-06	206.66	7.3022e-07	5.2328e-07	246.55	64.669	1.6787e-06	5.4624e-07	97.305	38.987	24.248	11.416	6.0862e-07	21.025	7.7798e-06	5.7898e-06	1.7248e-06	194.42	6.5572e-08	6.2161e-08	233.6	60.266	6.6125e-08	5.8795e-08	86.027	35.083	21.892	10.176	6.9542e-08	18.407	326.656	53.702	155.253	-10.303	108.765	62.387	-11.110	-5.474	124.611	129.702	-7.085	-2.727	-1.121	2.242	44.506	0.588	-8191	255	
8513.962	1	1	0	0	0.18426	0.22689	0.14113	0.11123	0.14626	0.16705	0.22261	0.1824	0.2457	0.28151	0.42247	0.12532	0.19917	0.29548	0.097478	0.19193	-2.7292	-2.5396	-2.7771	-2.8229	-2.6646	-3.0187	-2.6063	-2.7104	-2.9771	-2.6708	-2.8937	-2.9896	-2.6229	-2.8854	-2.9167	-2.6021	101.588	114.282	302.754	219.320	80.478	103.158	273.318	249.501	67.690	226.982	34.615	301.207	307.657	272.968	212.350	90.541	0.00019395	4.9389e-05	1.2649e-05	207.31	3.645e-07	4.4635e-07	246.92	64.092	1.2321e-06	3.492e-07	98.055	39.012	24.105	11.305	1.032e-06	21.141	7.5801e-06	5.6504e-06	1.775e-06	193.69	6.2983e-08	5.9964e-08	233.32	59.858	5.9724e-08	6.2189e-08	85.859	35.033	21.81	10.137	7.2422e-08	18.399	328.128	78.578	68.121	-9.926	90.869	59.565	-10.743	-4.875	101.711	120.114	-7.287	-3.067	-0.982	2.487	123.000	0.130	-8191	255	
8514.058	1	1	0	0	0.14719	0.30883	0.25205	0.11133	0.26093	0.05053	0.01134	0.10324	0.13786	0.013254	0.070192	0.08666	0.176	0.10061	0.17129	0.16003	-2.5896	-2.5625	-2.6167	-2.8438	-2.3958	-2.9667	-2.8896	-2.5438	-3.0104	-2.7438	-2.7188	-2.9583	-2.3563	-3.0542	-2.7854	-2.575	19.105	128.096	-13.931	206.344	38.895	275.439	21.731	216.962	307.986	116.121	46.915	244.674	169.467	71.892	206.965	146.696	0.00020669	5.9479e-05	1.4205e-05	204.32	4.6971e-07	6.2192e-07	245.4	64.539	5.4321e-07	3.8853e-07	98.881	39.144	24.4	11.372	4.3019e-07	21.046	7.2652e-06	5.933e-06	1.733e-06	192.41	6.3592e-08	6.5057e-08	232.7	60.03	5.7523e-08	6.8792e-08	86.332	35.206	21.895	10.149	6.9077e-08	18.408	333.369	-14.080	3.517	-10.054	162.901	6.206	-10.811	-5.100	124.165	143.336	-7.480	-2.585	-1.602	2.537	115.401	0.171	-8191	255	
8514.152	1	1	0	0	0.092974	0.20255	0.10778	0.2214	0.20465	0.12164	0.03159	0.087238	0.12655	0.11654	0.18047	0.21516	0.20744	0.12003	0.055742	0.048742	-2.6021	-2.4896	-2.4729	-3.0521	-2.4354	-3.0479	-2.9792	-2.3354	-2.9333	-2.7792	-2.5729	-3.1625	-2.5146	-2.8688	-2.9479	-2.7271	200.235	62.923	-22.687	12.243	25.706	249.403	26.420	35.463	88.791	235.468	316.801	-13.912	323.298	135.538	231.973	310.887	0.00021616	8.4545e-05	2.2267e-05	206.49	5.5101e-07	1.0353e-06	245.08	64.334	9.152e-07	8.1143e-07	98.961	39.012	24.249	11.301	5.5917e-07	21.045	7.2747e-06	6.269e-06	1.7424e-06	193.14	6.2935e-08	6.7945e-08	232.82	60.089	6.0829e-08	6.7807e-08	86.424	35.187	21.833	10.125	6.809e-08	18.367	332.069	31.887	28.106	-10.452	162.208	78.921	-10.607	-5.004	89.155	126.150	-7.080	-2.692	-0.937	2.422	24.959	0.425	-8191	255	
8514.248	1	1	0	0	0.033449	0.17421	0.25	0.24456	0.12237	0.16339	0.24167	0.15527	0.15151	0.2001	0.25759	0.19089	0.061799	0.07737	0.10492	0.18176	-2.6792	-2.7521	-2.7417	-3.025	-2.4667	-2.9917	-2.9833	-2.5458	-2.925	-2.7562	-2.5917	-3.2917	-2.525	-2.7396	-2.8896	-2.5229	252.209	53.836	178.362	66.531	297.191	66.886	231.052	5.507	165.215	296.963	119.688	290.863	125.739	84.375	327.553	153.698	0.00024521	2.0502e-05	1.4122e-05	204.29	3.0226e-07	7.2332e-07	244.36	63.64	1.5949e-06	6.7984e-08	97.31	38.65	24.122	11.227	9.2936e-07	20.776	7.7167e-06	6.4574e-06	1.661e-06	191.56	6.5482e-08	6.8897e-08	231.38	59.503	6.5808e-08	6.6341e-08	85.602	34.758	21.743	10.018	6.4607e-08	18.118	331.039	1.374	20.893	-10.252	135.689	61.739	-10.805	-4.857	131.725	218.243	-7.159	-2.549	-1.308	2.759	63.965	0.220	-8191	255	
8514.369	1	1	0	0	0.067034	0.095331	0.22038	0.19004	0.074293	0.27074	0.27127	0.29451	0.11259	0.17036	0.24004	0.1936	0.24677	0.16623	0.15232	0.16136	-2.4146	-2.8917	-2.3854	-3.0333	-2.625	-2.6437	-2.95	-2.5875	-2.6604	-3.0542	-2.3917	-2.7979	-2.6625	-2.7896	-2.9313	-2.575	296.309	166.188	254.872	331.030	269.536	328.406	318.728	38.523	265.963	140.267	260.416	75.775	327.806	301.854	210.500	100.809	0.00021467	8.4328e-05	2.2113e-05	203.78	6.3434e-07	5.3137e-07	246.18	63.91	1.3449e-06	2.7934e-07	98.142	38.954	24.332	11.251	1.2385e-06	20.832	7.931e-06	6.3447e-06	1.6286e-06	191.46	6.8469e-08	6.8491e-08	232.07	59.849	6.995e-08	6.8417e-08	86.031	34.941	22.003	10.044	6.2845e-08	18.157	328.911	53.268	73.697	-10.829	100.956	73.680	-11.059	-5.172	89.948	174.807	-7.044	-2.666	-0.551	2.719	94.180	0.338	-8191	255	
8514.465	1	1	0	0	0.1865	0.19109	0.20778	0.19445	0.19897	0.14785	0.16459	0.13921	0.24266	0.11836	0.14099	0.18137	0.17162	0.17478	0.10665	0.2746	-2.4813	-2.7292	-2.4	-3.2208	-2.7125	-2.6083	-2.9417	-2.6854	-2.825	-2.9667	-2.6417	-3.0833	-2.6896	-2.5021	-3.0125	-2.3958	293.482	-0.017	248.231	74.104	321.885	248.795	65.869	223.305	1.050	21.643	127.612	304.177	21.030	231.098	193.682	13.915	0.00020093	8.162e-05	1.4568e-05	206.07	6.0299e-07	9.1506e-07	248.53	64.984	1.3965e-06	3.8066e-07	99.846	39.749	24.682	11.413	5.6984e-07	20.924	8.4523e-06	6.3936e-06	1.7107e-06	193.28	7.3232e-08	7.0874e-08	234.77	60.994	7.54e-08	7.0184e-08	87.583	35.671	22.35	10.213	6.6393e-08	18.337	330.754	-14.818	46.759	-10.280	225.491	54.687	-11.131	-4.834	124.107	103.094	-7.077	-2.884	-0.765	2.739	90.946	0.283	-8191	255	
8514.561	1	1	0	0	0.074201	0.07958	0.10353	0.007525	0.27304	0.1245	0.21166	0.26151	0.037836	0.18116	0.057399	0.1339	0.1949	0.14393	0.11926	0.25385	-2.3521	-2.9458	-2.2708	-3.0333	-2.9208	-2.5021	-2.9437	-2.5917	-2.7854	-2.9958	-2.4833	-2.8937	-2.7354	-2.4625	-3.0438	-2.6771	152.774	117.028	288.004	208.076	143.340	254.523	21.637	-2.394	263.241	35.850	281.745	18.506	53.879	155.700	218.235	238.896	0.00020464	8.1699e-05	2.9186e-05	206.48	8.8374e-07	5.712e-07	250.88	65.467	1.4651e-06	9.3876e-07	101.53	40.217	24.96	11.441	7.299e-07	21.42	8.7702e-06	6.0539e-06	1.6968e-06	193.97	7.909e-08	6.7107e-08	236.27	61.588	7.4921e-08	6.67e-08	88.827	36.138	22.597	10.314	6.4428e-08	18.731	323.687	-22.881	-0.648	-9.872	135.602	8.638	-10.879	-5.180	47.253	101.128	-6.901	-2.764	-1.040	2.755	125.556	0.484	-8191	255	
8514.657	1	1	0	0	0.11001	0.39487	0.13184	0.19904	0.14887	0.13186	0.22953	0.17898	0.14788	0.0931	0.17245	0.19553	0.062887	0.19897	0.062366	0.069934	-2.1229	-2.925	-2.5312	-2.7708	-2.6354	-2.5958	-3.1792	-2.6542	-2.5792	-3.1417	-2.8104	-2.8521	-2.8146	-2.6188	-2.9938	-2.8083	235.785	80.538	159.211	332.160	333.697	72.218	229.008	201.040	238.548	166.805	313.613	286.092	267.447	10.838	52.100	329.817	0.00026042	0.0001093	1.2077e-05	208.59	1.3319e-06	7.7482e-07	249.82	65.966	9.4117e-07	8.9316e-07	102.16	40.36	25.252	11.609	6.1452e-07	21.57	8.7885e-06	6.1882e-06	1.6356e-06	195.44	7.3061e-08	6.6652e-08	236.75	61.78	7.5181e-08	6.3769e-08	89.372	36.35	22.781	10.415	6.7095e-08	18.826	334.835	21.899	39.291	-9.967	108.855	33.669	-10.565	-5.288	136.542	149.525	-6.581	-2.362	-1.607	2.538	148.242	0.270	-8191	255	
8514.729	1	1	0	0	0.0030331	0.27648	0.13065	0.047021	0.27657	0.15724	0.16228	0.18796	0.16953	0.32067	0.092358	0.20848	0.069503	0.37102	0.15854	0.1897	-2.1229	-3.0417	-2.4479	-2.7562	-3.0229	-2.5	-3.2479	-2.5083	-2.575	-3.075	-2.4562	-2.9833	-3.0312	-2.4188	-3.0312	-2.7375	103.385	11.649	307.381	104.300	81.854	277.556	211.453	158.851	265.181	116.486	224.827	62.360	188.674	-0.618	175.725	245.082	0.00020348	0.00010222	2.152e-05	207.97	6.5002e-07	8.2195e-07	248.67	66.506	7.6087e-07	4.7074e-07	101.72	40.424	25.263	11.662	4.1482e-07	21.593	8.8194e-06	6.0131e-06	1.684e-06	194.73	6.9637e-08	6.7587e-08	236.09	62.041	7.3946e-08	6.455e-08	89.054	36.321	22.856	10.385	6.9656e-08	18.777	331.934	18.730	30.553	-10.364	106.465	83.475	-10.682	-5.132	131.514	32.665	-7.159	-2.752	-0.831	2.924	160.605	0.320	-8191	255	
8514.850	1	1	0	0	0.19419	0.23001	0.22985	0.068541	0.19421	0.20458	0.19786	0.18654	0.0984	0.093384	0.11087	0.18912	0.29419	0.028466	0.16264	0.23853	-2.1708	-3.1312	-2.4333	-2.7396	-2.9437	-2.5083	-3.0938	-2.9604	-2.4604	-2.9188	-2.65	-2.575	-2.9604	-2.3083	-2.9417	-2.9479	128.095	-3.142	208.950	233.539	173.990	119.216	150.930	-12.043	-10.649	-14.229	121.906	252.981	315.817	270.334	18.120	27.846	0.00017846	1.706e-05	6.6143e-06	207.87	4.4674e-07	6.2197e-07	250.84	67.335	3.38e-08	8.3969e-07	102.99	40.628	25.668	11.785	1.406e-06	21.493	8.4427e-06	5.8269e-06	1.8744e-06	195.05	6.984e-08	6.535e-08	238.23	62.938	7.2517e-08	6.7782e-08	90.528	36.532	23.165	10.523	7.6533e-08	18.834	327.266	80.438	102.543	-9.995	135.618	37.943	-10.753	-5.050	292.062	98.647	-6.928	-2.515	-0.739	2.776	76.075	0.117	-8191	255	
8514.946	1	1	0	0	0.21078	0.20363	0.064335	0.17184	0.28113	0.051662	0.12575	0.13893	0.11364	0.14193	0.1328	0.067454	0.23147	0.12648	0.37517	0.097112	-2.0917	-2.9813	-2.7208	-2.7604	-3.1917	-2.6208	-2.7208	-2.7521	-2.3688	-3.1271	-2.7146	-2.9729	-3.0292	-2.6063	-2.9646	-2.9958	76.524	219.453	158.655	315.044	184.322	227.932	61.830	180.685	330.024	278.344	206.359	-1.486	71.888	-15.983	250.849	307.690	0.00025046	6.7645e-05	9.7732e-06	210.6	4.3815e-07	4.3708e-07	255.28	67.844	9.9295e-07	2.7096e-07	103.8	41.034	25.812	11.757	3.2439e-07	21.734	8.7981e-06	6.1162e-06	1.9536e-06	196.97	7.1146e-08	6.784e-08	240.65	63.408	7.3126e-08	6.8255e-08	90.895	36.805	23.237	10.57	8.0294e-08	19.003	328.969	84.170	9.768	-9.982	27.864	95.954	-11.137	-5.255	161.029	144.657	-6.919	-2.585	-1.000	2.820	47.911	0.737	-8191	255	
8515.042	1	1	0	0	0.14771	0.14353	0.036794	0.16485	0.16485	0.016693	0.21326	0.11927	0.032219	0.094946	0.1615	0.2218	0.15184	0.35283	0.11429	0.14155	-2.2042	-3.2	-2.7438	-2.7229	-2.9396	-2.6354	-2.9521	-2.8792	-2.2604	-3.0771	-2.8688	-2.7667	-3.2208	-2.5	-2.8792	-3.0542	211.491	71.761	238.617	70.259	39.685	103.849	75.955	204.479	243.316	333.745	-6.379	102.372	254.550	-12.797	125.934	283.641	0.00023687	8.5219e-05	6.402e-07	210.38	7.0459e-07	9.5204e-07	254.49	67.432	1.1037e-06	7.8481e-07	102.68	40.97	25.366	11.695	4.3266e-07	21.587	8.6835e-06	6.4767e-06	1.9925e-06	197.36	6.8071e-08	7.1778e-08	241.04	63.294	6.9804e-08	6.7815e-08	90.482	36.674	22.941	10.478	7.9551e-08	18.908	330.243	96.153	8.815	-10.173	149.203	92.000	-10.663	-5.108	146.964	77.969	-6.883	-2.565	-0.907	2.773	88.220	0.618	-8191	255	
8515.138	1	1	0	0	0.062621	0.15363	0.057041	0.2542	0.19641	0.019997	0.17426	0.12105	0.2206	0.1998	0.06733	0.34955	0.18173	0.1258	0.25816	0.14746	-2.1063	-2.7313	-2.7146	-2.6292	-3.2938	-2.5167	-2.7646	-3.0771	-2.4396	-2.9229	-2.8021	-2.4479	-3.0875	-2.6125	-2.6917	-2.925	-1.688	87.003	221.425	53.772	87.032	227.604	208.882	185.479	-21.210	116.552	-15.620	32.167	70.950	265.532	322.970	-8.801	0.00025165	4.8593e-05	1.7386e-05	209.72	6.738e-07	4.2054e-07	252.82	67.223	1.1636e-06	8.9735e-07	103.06	41.247	25.491	11.732	9.3849e-07	21.693	8.3128e-06	6.5702e-06	1.9435e-06	196.11	6.5986e-08	7.2827e-08	240.18	62.731	6.8301e-08	7.0738e-08	90.529	36.862	22.991	10.53	7.6998e-08	19.044	333.403	83.988	83.465	-10.120	140.697	86.700	-10.618	-5.356	66.418	124.808	-6.988	-2.821	-1.236	2.617	96.627	0.669	-8191	255	
8515.257	1	1	0	0	0.14696	0.13897	0.10532	0.064164	0.13323	0.14517	0.22781	0.1098	0.25205	0.12366	0.1232	0.086996	0.1575	0.12004	0.19695	0.14706	-1.9542	-2.9083	-2.7167	-2.5708	-3.1646	-2.5333	-2.525	-2.9771	-2.4917	-2.8146	-2.7687	-2.2896	-2.9208	-2.7792	-2.5812	-2.9333	12.603	161.830	131.752	261.858	219.629	267.822	237.317	288.233	277.004	56.807	140.212	10.396	82.374	-13.360	-14.417	232.937	0.00024027	6.4056e-05	1.8256e-05	206.41	7.8294e-07	8.4985e-07	250.51	65.519	1.043e-06	5.3474e-07	102.21	40.748	24.983	11.493	3.7315e-07	21.45	8.174e-06	6.6266e-06	1.8117e-06	194.15	6.5693e-08	7.3267e-08	237.76	61.755	6.7684e-08	7.1641e-08	89.424	36.321	22.596	10.366	6.8376e-08	18.764	331.210	30.981	-11.184	-10.062	121.189	90.788	-10.642	-4.852	149.865	53.257	-6.831	-2.775	-1.538	2.467	162.392	0.361	-8191	255	
8515.331	1	1	0	0	0.34499	0.1348	0.16024	0.079043	0.13737	0.20027	0.16614	0.018717	0.052014	0.19129	0.3208	0.17738	0.12749	0.22007	0.078398	0.029679	-2.1104	-2.7729	-2.9479	-2.4604	-2.8833	-2.8146	-2.7417	-3.2104	-2.4604	-2.5583	-2.8021	-2.4875	-3.0083	-2.9813	-2.4042	-2.8958	24.243	154.389	212.691	12.851	129.385	262.729	175.111	85.805	24.621	111.808	2.722	315.403	298.920	42.224	133.627	281.674	0.00021589	5.9507e-05	4.9495e-06	204.95	6.5163e-07	4.7258e-07	246.43	65.105	6.3548e-07	2.9384e-07	100.84	40.262	25.039	11.506	1.0033e-06	21.373	8.1469e-06	6.6718e-06	1.6875e-06	191.9	6.6164e-08	7.0492e-08	234.02	61.098	6.9349e-08	7.086e-08	88.565	36.002	22.415	10.314	6.765e-08	18.673	-20.113	19.008	59.305	-10.542	107.086	88.546	-11.141	-4.757	109.240	102.411	-7.105	-2.850	-1.610	2.309	96.563	0.509	-8191	255	
8515.449	1	1	0	0	0.23906	0.082076	0.09457	0.17384	0.038633	0.1296	0.14707	0.10736	0.09601	0.2682	0.37999	0.16061	0.13731	0.22995	0.0726	0.09456	-2.0708	-2.925	-2.8521	-2.2708	-2.8542	-3.0854	-2.5729	-3.0604	-2.6729	-2.6562	-3.1271	-2.6542	-2.9646	-2.9562	-2.4479	-3.025	39.979	62.377	93.630	162.373	224.321	29.568	-11.609	108.869	-0.855	27.853	50.724	220.130	185.935	70.327	94.763	327.514	0.0002064	5.4408e-05	1.5566e-05	204.03	2.2716e-07	6.7226e-07	245.39	64.435	7.6703e-07	5.0516e-07	99.99	39.76	24.378	11.439	3.9123e-07	21.377	8.362e-06	6.3736e-06	1.6118e-06	191.11	6.9207e-08	6.5236e-08	233.14	60.427	7.0446e-08	6.661e-08	87.606	35.658	22.039	10.186	6.6312e-08	18.607	327.739	62.810	104.260	-10.257	90.831	24.000	-10.895	-5.201	69.275	90.676	-6.806	-2.583	-1.003	2.217	75.193	0.320	-8191	255	
8515.546	1	1	0	0	0.11839	0.085494	0.1278	0.23678	0.1551	0.075466	0.10665	0.16368	0.1333	0.10325	0.050652	0.12846	0.20759	0.15185	0.20728	0.13225	-2.3271	-2.65	-3.0187	-2.4375	-2.7521	-2.975	-2.4854	-2.8812	-2.65	-2.6583	-3.0896	-2.4396	-2.725	-3.1104	-2.3271	-2.9333	120.177	287.267	104.745	236.273	305.878	218.311	21.514	179.236	179.414	24.022	308.412	195.546	232.594	5.441	309.996	214.453	0.00022267	9.2268e-05	2.2553e-05	203.83	8.1263e-07	9.6965e-07	246.19	64.976	7.2743e-07	5.7844e-07	101.52	40.576	24.867	11.49	3.9708e-07	21.465	8.3099e-06	6.1956e-06	1.5669e-06	190.95	6.9775e-08	6.5618e-08	233.08	60.831	7.5254e-08	6.6203e-08	88.823	36.252	22.435	10.315	6.5782e-08	18.86	322.733	49.005	27.221	-10.227	113.547	71.387	-10.851	-5.339	97.071	118.211	-7.201	-2.692	-1.026	2.432	156.920	0.680	-8191	255	
8515.642	1	1	0	0	0.071603	0.079262	0.051873	0.19418	0.23282	0.25361	0.13401	0.028742	0.22611	0.14191	0.19983	0.16821	0.050353	0.25366	0.10796	0.14844	-2.4125	-2.6396	-2.9604	-2.4729	-2.6625	-2.875	-2.5563	-3.0062	-2.9417	-2.4792	-3.1208	-2.7167	-2.7375	-2.9021	-2.4396	-2.8563	152.157	295.456	134.282	31.612	84.143	236.664	-19.811	182.413	137.537	289.311	23.685	240.475	187.605	52.241	222.912	67.383	0.00022909	7.9403e-05	1.5353e-05	205.38	7.1859e-07	5.7173e-07	246.41	65.229	1.3449e-06	8.5524e-07	101.8	40.122	24.721	11.566	6.9357e-07	21.433	8.721e-06	6.0717e-06	1.5518e-06	192.02	7.229e-08	6.6953e-08	234.51	61.025	7.2899e-08	6.7286e-08	88.723	36.028	22.331	10.279	6.406e-08	18.696	327.025	32.450	-19.188	-9.910	148.412	35.861	-10.421	-5.142	84.769	141.265	-7.212	-2.750	-1.104	2.519	55.556	0.746	-8191	255	
8515.738	1	1	0	0	0.31315	0.19602	0.047643	0.19427	0.32925	0.22893	0.32266	0.20353	0.12744	0.10135	0.19699	0.24181	0.27998	0.17413	0.17097	0.17364	-2.3396	-2.8021	-2.8854	-2.6312	-2.725	-3.0271	-2.5667	-2.6917	-3.0333	-2.5896	-2.8896	-2.8812	-2.6479	-3.0312	-2.8646	-2.9604	242.919	62.638	111.565	257.203	251.797	165.546	147.126	38.962	55.860	278.362	296.754	38.133	328.822	23.144	191.913	333.296	0.00020624	4.4941e-05	1.6118e-05	205.07	6.2089e-07	3.2968e-07	246.65	64.396	9.8155e-07	6.6949e-07	100.32	39.486	24.234	11.349	7.4724e-07	21.038	8.6556e-06	5.9322e-06	1.5497e-06	191.75	6.9791e-08	6.1266e-08	233.15	60.39	7.0243e-08	6.4151e-08	87.582	35.445	21.974	10.1	6.6973e-08	18.411	332.048	0.368	58.815	-10.191	124.167	98.223	-10.429	-5.236	34.622	101.246	-7.196	-2.459	-0.649	3.011	95.642	-0.037	-8191	255	
8515.858	1	1	0	0	0.034931	0.35308	0.060516	0.15044	0.19665	0.17888	0.26806	0.319	0.13651	0.14	0.11908	0.19475	0.097615	0.16925	0.1639	0.12468	-2.5208	-2.4646	-3.0354	-2.775	-2.7917	-3.0042	-2.4646	-2.9604	-2.8896	-2.5646	-2.8917	-2.5917	-2.6646	-3.0396	-2.4646	-2.9125	270.580	166.289	193.680	317.369	317.417	84.976	210.390	214.089	175.673	213.185	270.755	155.739	-21.805	321.611	0.596	149.548	0.00020194	5.7533e-05	1.5819e-05	203.69	1.2064e-06	3.7195e-07	246.43	64.682	1.3157e-06	4.2748e-07	99.925	39.622	24.444	11.364	9.7079e-07	21.017	8.3994e-06	5.7846e-06	1.5853e-06	190.83	6.6537e-08	5.8727e-08	232.23	60.25	6.7124e-08	6.2816e-08	87.445	35.583	22.07	10.13	6.9942e-08	18.492	-22.781	49.880	-9.592	-10.205	119.832	118.178	-10.861	-4.952	74.159	117.729	-6.865	-3.070	-1.082	2.751	135.036	0.647	-8191	255	
8515.955	1	1	0	0	0.30292	0.056114	0.17272	0.1011	0.2345	0.34567	0.045136	0.11218	0.16293	0.26825	0.054526	0.1068	0.10419	0.12049	0.1081	0.37228	-2.5583	-2.3958	-3.1354	-2.6167	-2.4396	-3.0604	-2.5896	-2.7875	-3.0625	-2.4625	-2.9562	-2.9688	-2.5958	-3.2521	-2.6146	-2.7771	38.816	184.803	37.424	72.904	202.613	309.559	235.521	191.482	119.005	144.287	279.946	9.364	254.783	208.941	91.078	-21.830	0.00025357	8.433e-05	1.7651e-05	203.06	5.2588e-07	2.6972e-07	245.22	64.18	2.0745e-07	7.8781e-07	100.79	39.984	24.592	11.311	7.7256e-07	21.257	8.0573e-06	5.8202e-06	1.637e-06	190.54	6.5207e-08	5.8874e-08	231.9	60.257	6.5329e-08	6.2491e-08	87.776	35.782	22.175	10.162	7.3335e-08	18.629	327.160	26.145	84.026	-10.520	115.172	90.022	-11.012	-4.957	75.917	103.781	-7.193	-3.403	-1.403	2.434	117.900	0.355	-8191	255	
8516.026	1	1	0	0	0.19342	0.27952	0.13966	0.1413	0.22064	0.044242	0.20603	0.15729	0.18693	0.15811	0.25394	0.17174	0.11546	0.19002	0.23556	0.21159	-2.4458	-2.5833	-2.775	-2.8958	-2.6333	-3.1625	-2.6896	-2.4604	-3.1625	-2.5083	-2.9958	-3.1583	-2.5062	-2.7792	-2.9708	-2.6708	180.864	112.605	313.025	308.185	165.444	113.394	285.192	249.318	42.739	-6.895	140.195	273.917	188.949	215.013	205.537	205.770	0.00024149	0.00011119	1.183e-05	205.27	6.1104e-07	2.0825e-07	246.37	64.503	6.9826e-07	5.0871e-07	100.96	39.943	24.323	11.456	2.9821e-07	21.374	7.9332e-06	5.5131e-06	1.7233e-06	191.82	6.4939e-08	5.9028e-08	232.98	60.39	6.6945e-08	6.35e-08	88.056	35.899	22.128	10.225	7.2544e-08	18.778	328.922	24.056	1.757	-10.109	116.387	166.577	-10.988	-4.859	27.461	133.517	-7.311	-3.038	-0.995	2.598	101.329	0.720	-8191	255	
8516.145	1	1	0	0	0.16785	0.22751	0.15896	0.098966	0.20509	0.064878	0.15312	0.20768	0.048089	0.1988	0.064803	0.10746	0.23732	0.024179	0.17448	0.18103	-2.6146	-2.6146	-2.7188	-2.8438	-2.4104	-3.15	-2.8896	-2.5208	-3.2646	-2.3146	-2.6875	-3.0208	-2.3896	-2.8563	-2.9229	-2.5896	168.297	19.218	214.362	215.991	108.215	105.243	162.472	65.225	33.932	134.251	-4.154	162.978	27.394	132.944	8.107	283.388	0.00021133	6.4135e-05	1.2779e-05	203.73	4.1827e-07	5.2134e-07	245.69	64.083	1.1572e-06	7.8692e-07	99.468	39.743	24.061	11.255	7.415e-07	21.109	7.6814e-06	6.002e-06	1.7895e-06	191.57	6.5693e-08	6.5244e-08	233.16	60.095	6.1487e-08	6.5999e-08	87.463	35.504	21.826	10.095	7.1157e-08	18.479	335.646	102.481	82.696	-10.062	194.023	145.828	-10.912	-5.052	104.579	160.751	-7.448	-2.522	-1.172	2.427	31.519	0.512	-8191	255	
8516.241	1	1	0	0	0.14969	0.095345	0.10036	0.19572	0.19549	0.19472	0.14115	0.17211	0.14523	0.13411	0.068171	0.2275	0.41273	0.089766	0.35311	0.078896	-2.6875	-2.6375	-2.6833	-2.9667	-2.4188	-3.0229	-2.8917	-2.3229	-3.0896	-2.6604	-2.6146	-3.1063	-2.3604	-2.8229	-3.0917	-2.4875	175.561	94.342	333.018	27.110	216.011	324.903	37.533	297.690	110.025	274.755	10.381	113.081	77.181	309.346	317.426	123.883	0.00021448	7.8895e-05	2.6402e-05	203.02	9.8568e-07	2.4964e-07	242.7	63.851	5.1748e-07	9.3511e-07	98.971	39.184	24.016	11.191	5.6512e-07	20.728	7.4333e-06	6.3106e-06	1.7769e-06	190.64	6.0622e-08	7.0866e-08	230.64	59.77	6.1698e-08	7.099e-08	86.705	35.146	21.765	10.041	6.9363e-08	18.226	336.027	41.079	41.780	-10.122	143.589	76.673	-10.749	-5.068	80.139	143.181	-7.304	-2.424	-1.232	2.459	60.999	0.421	-8191	255	
8516.337	1	1	0	0	0.13716	0.16215	0.34451	0.12889	0.19372	0.01355	0.04297	0.15988	0.18317	0.036629	0.10992	0.087155	0.089239	0.12439	0.10895	0.23794	-2.6458	-2.8021	-2.6396	-2.9	-2.45	-2.9208	-3.1375	-2.35	-2.7646	-2.7229	-2.5917	-3.1729	-2.5333	-2.7354	-2.9521	-2.4125	93.216	159.355	104.423	250.288	161.135	15.751	291.666	65.433	170.950	60.887	206.063	11.255	263.205	260.688	95.314	81.914	0.00023464	8.4585e-05	2.2295e-05	202.95	6.0472e-07	3.8161e-07	243.66	64.525	3.0905e-07	7.3924e-07	99.151	39.222	24.385	11.254	8.6825e-07	20.802	7.597e-06	6.4011e-06	1.731e-06	189.95	6.5791e-08	6.8401e-08	230.63	59.978	6.2997e-08	7.2846e-08	86.754	35.252	21.9	10.062	6.5317e-08	18.253	331.119	58.408	52.042	-10.265	114.828	111.249	-11.012	-5.002	212.119	40.383	-7.236	-2.441	-1.146	2.947	79.950	0.713	-8191	255	
8516.434	1	1	0	0	0.14513	0.14063	0.036959	0.10707	0.020178	0.2286	0.17079	0.089384	0.15448	0.12333	0.10959	0.34619	0.29414	0.034755	0.37117	0.12323	-2.4437	-2.7771	-2.4729	-3.0292	-2.6188	-2.65	-2.9333	-2.3854	-3.0542	-2.7521	-2.4708	-3.2229	-2.4771	-2.5896	-3.125	-2.3792	332.309	0.138	255.728	-9.117	163.494	145.792	-11.765	1.438	151.393	251.286	202.981	169.362	193.832	239.155	75.071	224.810	0.00021752	5.7318e-05	1.8102e-05	201.51	3.3422e-07	4.1784e-07	242.69	63.209	7.5137e-07	6.155e-07	97.646	38.864	23.949	11.171	5.578e-07	21.074	7.8708e-06	6.2134e-06	1.6168e-06	189.28	6.7738e-08	6.8295e-08	229.54	59.264	6.6921e-08	6.985e-08	85.707	34.876	21.602	9.9946	6.5855e-08	18.381	-20.759	15.920	32.384	-10.047	118.003	92.169	-10.737	-5.088	67.823	155.652	-6.944	-2.822	-0.812	2.626	49.134	0.296	-8191	255	
8516.554	1	1	0	0	0.16427	0.23028	0.24042	0.084326	0.17834	0.084206	0.17073	0.32593	0.24105	0.25778	0.10584	0.20735	0.10041	0.074875	0.26983	0.22516	-2.4625	-2.9938	-2.3167	-2.8688	-2.8292	-2.5854	-2.8979	-2.5896	-2.7771	-2.9	-2.5062	-2.9813	-2.6688	-2.5125	-3.0542	-2.6708	98.024	190.239	175.859	330.300	238.796	267.525	7.115	316.816	277.737	181.568	13.327	258.034	107.460	225.155	-16.379	-3.833	0.0002508	6.3071e-05	9.1641e-06	201.5	9.4662e-07	7.5356e-07	241.67	62.464	4.1047e-07	6.9464e-07	97.836	38.537	23.634	11.02	1.2589e-06	20.89	8.0859e-06	5.9367e-06	1.6217e-06	188.99	6.476e-08	6.4187e-08	228.35	58.537	6.8188e-08	6.3028e-08	85.26	34.754	21.334	9.936	6.1483e-08	18.305	335.697	11.652	125.805	-10.372	140.454	68.894	-10.996	-5.400	32.178	57.972	-6.673	-2.678	-0.731	2.377	120.837	0.358	-8191	255	
8516.626	1	1	0	0	0.18427	0.14093	0.12681	0.21737	0.23267	0.17089	0.19979	0.23453	0.078879	0.28551	0.1655	0.24484	0.14922	0.34989	0.041532	0.19544	-2.275	-2.9	-2.4146	-2.7958	-2.8583	-2.7646	-3.0833	-2.5521	-2.7062	-3.0542	-2.3729	-2.9083	-2.9417	-2.4688	-3.1042	-2.6667	147.397	309.144	-10.306	110.487	245.477	45.686	265.070	51.176	61.411	175.348	333.666	267.226	304.848	319.458	282.341	309.696	0.00024793	6.4126e-05	9.6199e-06	200.24	3.0345e-07	2.7064e-07	241.29	62.384	9.2731e-07	3.2935e-07	97.394	38.605	23.671	11.101	7.9206e-07	20.879	7.992e-06	5.841e-06	1.5369e-06	187.76	6.911e-08	6.2999e-08	227.86	58.277	6.917e-08	6.1872e-08	84.72	34.607	21.308	9.932	5.8823e-08	18.22	328.890	329.574	126.314	-9.935	101.037	92.554	-10.723	-4.791	115.233	-11.873	-6.993	-2.311	-1.307	2.265	68.735	0.132	-8191	255	
8516.722	1	1	0	0	0.091891	0.22334	0.22493	0.095943	0.27298	0.21923	0.084964	0.0958	0.13647	0.089696	0.17618	0.16574	0.17982	0.25397	0.3053	0.017233	-2.0563	-2.8812	-2.4146	-2.7042	-2.6104	-2.4833	-3.0146	-2.5479	-2.7979	-3.0187	-2.5438	-3.0167	-2.8	-2.6292	-3.0021	-2.6063	311.497	83.727	112.485	30.582	195.611	190.139	306.495	287.256	195.768	153.238	230.214	151.944	91.653	0.935	270.794	88.054	0.00019941	1.3444e-05	8.1743e-06	200.92	3.9279e-07	4.5541e-07	237.83	61.793	5.2295e-07	4.6812e-07	96.06	38.443	23.683	11.048	2.3858e-07	20.72	7.9927e-06	5.6719e-06	1.4908e-06	187.98	6.8988e-08	6.4479e-08	225.85	58.12	6.5938e-08	6.0284e-08	84.467	34.552	21.393	9.9053	5.9109e-08	18.143	330.612	94.665	83.753	-10.086	81.903	113.903	-10.525	-5.236	97.269	107.272	-6.911	-3.165	-1.533	2.818	280.441	-0.050	-8191	255	
8516.818	1	1	0	0	0.14257	0.064566	0.15247	0.13658	0.14487	0.078919	0.12553	0.11629	0.26366	0.041953	0.11041	0.21694	0.016833	0.22593	0.26267	0.18626	-2.2083	-3.0854	-2.4688	-2.7875	-2.7229	-2.3729	-2.8271	-2.6	-2.6896	-2.9562	-2.5271	-2.7375	-2.7271	-2.7083	-3.0729	-2.6688	149.666	16.740	79.350	330.474	109.934	276.102	7.309	-6.033	109.234	205.164	272.516	22.011	237.606	235.205	211.178	130.619	0.00023231	5.2159e-05	1.7261e-05	201.64	8.4503e-07	6.1446e-07	240.44	63.1	7.0089e-07	5.9622e-07	97.18	38.99	23.749	11.182	6.0754e-07	20.951	8.1586e-06	5.5331e-06	1.4819e-06	188.87	6.6383e-08	6.0208e-08	227.89	58.819	6.5938e-08	5.6686e-08	85.291	34.901	21.551	10.012	6.2021e-08	18.399	336.080	88.528	122.497	-9.995	84.331	68.149	-11.064	-5.180	141.114	127.019	-6.992	-2.682	-1.107	3.087	151.317	0.164	-8191	255	
8516.939	1	1	0	0	0.18942	0.05409	0.24328	0.21147	0.066535	0.22538	0.12432	0.1583	0.23165	0.16466	0.17306	0.29022	0.24776	0.20176	0.14696	0.13117	-2.2104	-2.8979	-2.5042	-2.7646	-2.8896	-2.6188	-2.9396	-2.6188	-2.4396	-2.8812	-2.6375	-2.5896	-2.95	-2.4562	-2.8063	-2.8708	125.736	150.782	87.564	138.840	228.257	51.489	284.815	-17.972	87.525	17.009	185.816	300.458	48.575	309.569	77.401	113.001	0.0002045	5.0764e-05	2.965e-05	202.47	6.8621e-07	2.0774e-07	243.36	64.398	6.4077e-07	4.9435e-07	98.991	39.714	24.397	11.327	1.2373e-06	21.327	7.6954e-06	5.4286e-06	1.6027e-06	189.59	6.5328e-08	5.9874e-08	229.82	60.007	6.6807e-08	5.807e-08	86.905	35.543	21.996	10.183	6.7576e-08	18.657	318.267	50.115	51.046	-10.594	147.914	333.234	-10.523	-5.182	106.079	75.364	-7.311	-2.857	-1.027	2.345	82.978	0.489	-8191	255	
8517.033	1	1	0	0	0.047485	0.17337	0.29418	0.12518	0.094529	0.20222	0.10613	0.18455	0.17311	0.092708	0.11508	0.1398	0.15748	0.086195	0.10075	0.12087	-2.2104	-2.8896	-2.5104	-2.6958	-3.0938	-2.3875	-2.9	-2.6937	-2.5021	-3.0271	-2.7833	-2.5125	-2.925	-2.3958	-2.975	-2.7625	90.783	125.315	299.528	258.208	126.961	88.832	297.430	282.166	174.975	138.862	262.350	86.846	241.936	334.828	154.831	88.475	0.00023619	4.2988e-05	4.3881e-06	202.87	9.3888e-07	3.944e-07	245.16	63.705	1.7252e-06	3.4961e-07	98.785	39.342	24.217	11.375	8.3545e-07	21.386	7.992e-06	5.4219e-06	1.6385e-06	190.21	6.2845e-08	6.1534e-08	230.7	59.765	6.5792e-08	5.7394e-08	86.811	35.386	21.833	10.151	7.0358e-08	18.664	329.624	-10.196	87.679	-9.904	112.271	107.279	-10.984	-4.897	83.578	108.895	-7.353	-2.495	-1.260	2.654	57.302	0.538	-8191	255	
8517.131	1	1	0	0	0.04005	0.13217	0.10198	0.087943	0.20859	0.2498	0.16113	0.34371	0.15686	0.31841	0.12804	0.1111	0.11786	0.27734	0.036309	0.10235	-1.7604	-2.8896	-2.5	-2.8042	-3.1479	-2.725	-2.7479	-2.7687	-2.4354	-2.9833	-2.5125	-2.4104	-3.1271	-2.5917	-2.8354	-2.8604	173.843	-19.470	3.764	55.504	39.662	253.922	280.515	275.426	-6.252	19.717	-17.928	265.308	13.274	142.560	208.449	25.369	0.00018671	9.0882e-05	2.1953e-05	204	6.0376e-07	1.0865e-06	243.78	63.949	1.2458e-06	5.7574e-07	98.75	39.454	24.265	11.368	8.5084e-07	21.128	7.9406e-06	5.4961e-06	1.7297e-06	190.96	5.9616e-08	6.0143e-08	230.93	60.204	6.4703e-08	5.9185e-08	86.822	35.379	21.923	10.11	6.8873e-08	18.507	324.521	34.164	56.519	-9.871	151.291	103.808	-10.866	-5.003	90.333	126.345	-7.235	-2.877	-1.256	2.513	80.708	0.219	-8191	255	
8517.226	1	1	0	0	0.21728	0.10833	0.16702	0.028038	0.15962	0.12726	0.15202	0.20781	0.11034	0.31973	0.21736	0.23168	0.092335	0.040964	0.10071	0.12584	-1.9979	-2.95	-2.7125	-2.525	-3.0354	-2.7208	-2.8021	-3.0396	-2.3771	-2.85	-2.8375	-2.3708	-2.9958	-2.6375	-2.775	-3.0771	15.034	119.810	-17.981	289.486	107.594	186.958	65.852	222.255	270.163	-18.342	35.352	173.912	208.354	311.569	258.497	127.963	0.00020785	6.3799e-05	7.1969e-06	201.95	6.8231e-07	8.0267e-07	244.39	64.201	8.5774e-07	2.8042e-07	98.405	39.484	24.384	11.285	2.9835e-07	21.209	7.4311e-06	5.8514e-06	1.7873e-06	189.34	6.2642e-08	6.6001e-08	230.21	59.972	6.2071e-08	6.5511e-08	86.739	35.361	21.893	10.141	7.1051e-08	18.587	-20.458	63.833	81.004	-10.428	149.325	89.281	-10.822	-5.238	97.663	73.775	-7.184	-2.904	-1.171	2.732	97.806	0.575	-8191	255	
8517.322	1	1	0	0	0.25923	0.31966	0.045306	0.099652	0.1945	0.11548	0.042676	0.067031	0.22243	0.044082	0.1724	0.23841	0.18546	0.069573	0.051116	0.12495	-1.9354	-2.9646	-2.8042	-2.425	-2.9667	-2.6458	-2.8208	-3.0896	-2.5458	-2.8042	-2.8187	-2.6479	-2.8312	-2.7208	-2.6583	-3.1854	209.514	309.982	257.975	-18.137	193.174	65.726	207.768	199.008	62.244	165.342	63.489	243.164	19.125	40.185	144.972	334.479	0.00020313	9.4194e-05	7.8418e-06	202.56	6.9933e-07	7.9533e-07	241.67	65.064	2.8167e-07	7.6673e-07	100.92	39.775	24.391	11.437	9.8697e-08	21.454	7.5728e-06	6.2156e-06	1.7413e-06	190.62	6.0233e-08	6.7669e-08	230.5	60.634	6.5215e-08	6.6757e-08	87.985	35.644	22.132	10.271	6.7984e-08	18.704	319.020	7.312	164.754	-9.820	123.433	107.743	-11.074	-5.710	139.280	124.645	-7.250	-2.989	-1.488	2.958	3.288	0.116	-8191	255	
8517.418	1	1	0	0	0.24252	0.30231	0.13298	0.16303	0.23136	0.061899	0.14523	0.19565	0.048416	0.10697	0.20705	0.23652	0.17129	0.23254	0.31613	0.16441	-2.2042	-2.7979	-2.5458	-2.55	-2.9688	-2.8604	-2.3417	-3.2104	-2.5792	-2.7958	-2.8667	-2.6604	-2.8833	-2.45	-2.4917	-2.9583	206.988	120.424	45.327	130.085	326.177	272.600	119.302	274.108	113.461	95.129	288.796	111.501	121.064	42.553	254.579	208.762	0.00019557	6.9519e-05	1.6248e-05	202.69	7.4381e-07	8.219e-07	245.51	64.758	1.2231e-06	7.3285e-07	100.55	40.232	24.674	11.549	1.3279e-06	21.565	7.7578e-06	6.5071e-06	1.7068e-06	190.2	6.2204e-08	6.6432e-08	232.36	60.599	6.411e-08	6.8002e-08	88.061	35.843	22.168	10.322	6.5464e-08	18.878	332.962	69.665	81.256	-9.994	130.566	92.761	-10.898	-4.973	108.328	58.909	-7.147	-2.657	-0.849	2.452	92.966	0.105	-8191	255	
8517.538	1	1	0	0	0.29144	0.22595	0.23155	0.14624	0.070004	0.070956	0.070112	0.19148	0.18593	0.13839	0.24147	0.10167	0.024198	0.19002	0.29331	0.040922	-2.0125	-2.5521	-2.8146	-2.3063	-2.6833	-2.975	-2.6937	-2.8667	-2.5687	-2.7792	-2.8167	-2.4042	-2.9729	-2.8229	-2.4646	-3.0271	11.295	141.912	239.305	-19.023	23.195	132.322	142.785	66.120	125.833	12.365	168.763	158.474	23.483	69.384	288.338	277.892	0.00024322	3.3786e-05	1.9649e-05	202.52	8.349e-07	9.3463e-07	244.73	63.832	1.9692e-07	7.571e-07	99.46	39.675	24.265	11.317	6.1379e-07	21.427	7.9017e-06	6.2245e-06	1.5537e-06	190.1	6.5288e-08	6.8124e-08	231.16	59.94	6.7197e-08	6.3883e-08	86.791	35.507	21.827	10.17	6.4395e-08	18.819	-23.121	85.113	72.175	-10.210	102.107	79.423	-10.778	-5.231	13.772	110.871	-7.038	-2.740	-0.715	2.539	123.319	0.531	-8191	255	
8517.635	1	1	0	0	0.23678	0.19807	0.088279	0.037825	0.22868	0.1957	0.075571	0.19113	0.20927	0.20751	0.087861	0.19317	0.20854	0.22065	0.16822	0.029828	-2.35	-2.5208	-2.9083	-2.3646	-2.8396	-3.1125	-2.6104	-2.9667	-2.4479	-2.7604	-3.2083	-2.5187	-2.775	-2.7729	-2.3187	-3.2562	302.389	265.183	265.609	44.270	134.949	11.406	245.763	17.206	249.261	313.344	66.136	81.981	106.973	312.433	-6.862	272.560	0.00025062	0.00010489	1.9088e-05	202.95	4.2102e-07	4.6581e-07	243.16	62.852	5.2317e-07	7.8778e-07	98.011	38.965	23.882	11.174	5.537e-07	21.257	7.8811e-06	5.8276e-06	1.5323e-06	189.64	6.2724e-08	6.2152e-08	229.55	59.11	6.9089e-08	6.4363e-08	85.826	35.045	21.536	10.047	6.07e-08	18.523	336.582	33.417	22.749	-10.632	126.882	77.892	-10.810	-5.209	161.509	132.090	-7.265	-3.214	-1.095	2.187	35.291	0.175	-8191	255	
8517.731	1	1	0	0	0.27937	0.04008	0.37939	0.10123	0.12121	0.22454	0.34283	0.23525	0.19839	0.1488	0.060806	0.21563	0.091667	0.17553	0.38201	0.15937	-2.3875	-2.5125	-2.9062	-2.7604	-2.8667	-2.8875	-2.3042	-2.8271	-2.6	-2.6292	-3.1188	-2.725	-2.6521	-2.8917	-2.3625	-2.9604	117.451	-8.862	39.865	196.014	256.881	208.770	282.209	180.107	259.942	257.278	251.301	127.683	210.040	176.699	52.687	225.912	0.00022345	3.7965e-05	1.0326e-05	199.78	9.5591e-07	7.9523e-07	239.29	62.749	7.8372e-07	7.2522e-07	97.403	38.915	23.869	11.159	8.3492e-07	21.005	8.1564e-06	5.7535e-06	1.4769e-06	187.07	6.5702e-08	5.9289e-08	226.74	58.689	6.7448e-08	5.9234e-08	84.949	34.737	21.48	9.9817	6.1075e-08	18.383	336.572	36.940	73.653	-10.159	133.931	82.649	-10.720	-5.021	81.601	105.897	-7.150	-2.672	-1.194	2.323	70.751	0.058	-8191	255	
8517.851	1	1	0	0	0.264	0.18164	0.13463	0.14931	0.1549	0.1157	0.45345	0.054429	0.0277	0.25068	0.17837	0.16681	0.084297	0.18607	0.093764	0.26171	-2.3688	-2.5708	-2.9562	-2.5312	-2.6292	-2.8563	-2.3583	-2.9604	-2.7521	-2.5396	-2.9625	-2.6271	-2.6937	-2.9042	-2.6354	-3.0042	29.303	314.547	250.051	58.389	61.024	56.775	297.167	232.896	231.427	288.433	-8.071	327.230	58.524	45.250	92.368	180.173	0.00022631	1.4808e-05	1.6792e-05	199.04	3.3738e-07	5.0782e-07	239.6	62.705	6.2613e-07	6.5865e-07	96.514	38.862	23.574	11.09	6.0186e-07	20.894	7.9692e-06	5.5346e-06	1.4392e-06	186.91	7.1974e-08	6.0273e-08	226.89	58.626	6.7286e-08	5.8876e-08	84.927	34.765	21.37	9.9688	5.8668e-08	18.343	324.395	2.409	17.163	-10.298	228.355	178.458	-10.781	-5.735	148.654	129.671	-7.419	-2.891	-1.047	2.765	31.859	0.364	-8191	255	
8517.923	1	1	0	0	0.11634	0.14233	0.09877	0.054936	0.089921	0.20026	0.24839	0.1398	0.042504	0.14651	0.10874	0.082819	0.11277	0.23544	0.17756	0.14701	-2.5625	-2.3292	-2.8646	-2.375	-2.675	-3.1625	-2.7292	-2.8979	-3.0854	-2.3375	-3.15	-3.0083	-2.6729	-2.9958	-2.7146	-3.0167	84.710	72.361	313.822	260.032	324.417	256.471	334.822	276.054	231.805	219.104	254.527	162.560	45.395	8.539	145.488	83.873	0.00021636	8.458e-05	2.1054e-05	198.78	3.6382e-07	3.341e-07	240.06	62.204	8.3403e-07	4.9852e-07	96.079	38.719	23.53	11.114	9.6227e-07	21.007	7.7159e-06	5.301e-06	1.455e-06	186.14	6.373e-08	5.6351e-08	227.09	58.335	6.2063e-08	5.8103e-08	84.466	34.655	21.229	9.9563	6.0129e-08	18.364	335.280	15.201	73.114	-10.411	173.248	126.853	-10.472	-5.025	103.329	88.950	-7.444	-2.910	-0.854	2.439	78.283	0.194	-8191	255	
8518.019	1	1	0	0	0.20007	0.21223	0.27341	0.17411	0.1815	0.18414	0.10228	0.13437	0.32381	0.10457	0.24447	0.063559	0.18227	0.14326	0.12139	0.19102	-2.4562	-2.3896	-2.8812	-2.8583	-2.7646	-3.2229	-2.6125	-2.5917	-2.9646	-2.4562	-3.0208	-2.8896	-2.4229	-2.9104	-2.7354	-2.7812	30.006	126.209	304.336	198.120	-17.329	247.072	47.037	305.541	-9.714	267.133	148.949	73.329	81.709	-0.999	242.006	48.449	0.00021437	8.1845e-05	2.238e-05	199.95	5.6207e-07	8.1839e-08	240.42	61.96	5.3856e-07	8.8519e-07	95.78	38.597	23.272	11.076	6.564e-07	21.114	7.5353e-06	5.1459e-06	1.4982e-06	186.92	6.2147e-08	5.4545e-08	226.97	57.787	5.918e-08	5.6873e-08	84.229	34.553	21.092	9.9055	6.4835e-08	18.454	-22.390	3.653	79.168	-10.550	134.345	41.126	-10.579	-4.791	85.861	108.636	-6.931	-2.894	-1.127	2.475	128.774	0.347	-8191	255	
8518.115	1	1	0	0	0.26441	0.038144	0.14598	0.06191	0.047004	0.12778	0.3389	0.11575	0.24889	0.047876	0.17479	0.023052	0.27455	0.21183	0.08858	0.19181	-2.6333	-2.2958	-2.9688	-2.575	-2.6312	-3.125	-2.7313	-2.6292	-3.0375	-2.5542	-2.9646	-2.9917	-2.4979	-3.1375	-2.8479	-2.7708	21.245	275.280	139.002	175.396	149.441	323.404	64.573	273.319	-19.865	152.331	35.597	151.774	271.750	98.821	326.536	81.844	0.00021342	5.9691e-05	1.7112e-05	199.31	6.5595e-07	3.5806e-07	238.28	61.264	2.5499e-07	1.0562e-06	94.299	38.23	22.995	10.94	8.7065e-07	20.568	7.4076e-06	5.2869e-06	1.5994e-06	186.45	6.1352e-08	5.3032e-08	225.85	57.239	5.7287e-08	5.575e-08	83.1	34.179	20.861	9.7773	6.5129e-08	18.047	333.830	-1.585	60.350	-9.984	141.989	59.633	-11.153	-5.341	158.346	77.442	-7.295	-2.558	-1.120	2.871	89.064	0.314	-8191	255	
8518.234	1	1	0	0	0.069075	0.24957	0.063075	0.37765	0.11841	0.087277	0.25885	0.12691	0.13334	0.15445	0.29361	0.29038	0.12743	0.1596	0.14577	0.11128	-2.6188	-2.5792	-2.7771	-2.9917	-2.5	-2.8208	-2.8	-2.7604	-2.9	-2.7083	-2.8333	-3.0354	-2.5854	-3.0708	-2.7521	-2.6188	197.036	13.982	-11.907	314.532	224.580	215.505	24.948	232.909	192.364	300.854	16.452	-18.106	61.229	212.791	150.358	155.511	0.00024274	3.6066e-05	1.214e-05	196.61	6.4698e-08	8.0871e-07	235.33	60.42	4.2782e-07	3.9737e-07	92.376	37.208	22.731	10.669	5.8283e-07	20.222	7.147e-06	5.1415e-06	1.6195e-06	184.72	5.5964e-08	5.4692e-08	223.05	56.357	5.7255e-08	5.6507e-08	81.417	33.361	20.376	9.571	6.3114e-08	17.734	332.760	43.256	1.582	-10.568	73.768	108.969	-10.965	-4.762	326.735	100.953	-6.935	-2.881	-1.514	2.380	83.658	0.349	-8191	255	
8518.330	1	1	0	0	0.070813	0.20294	0.13255	0.19729	0.10342	0.14825	0.18652	0.28337	0.13294	0.080189	0.22062	0.10365	0.14518	0.25878	0.42263	0.39152	-2.8333	-2.6792	-2.5458	-3.0396	-2.6833	-2.975	-3.0208	-2.5312	-3.1792	-2.7479	-2.7188	-2.9583	-2.5917	-2.8771	-3.0521	-2.5292	299.479	306.907	183.733	292.095	172.674	90.779	260.324	272.932	273.712	141.642	186.833	180.432	6.967	306.273	284.046	331.033	0.00022115	5.6863e-05	2.0917e-05	197.52	6.6334e-07	5.4644e-07	234.91	59.79	8.3105e-07	5.0563e-07	92.978	37.412	22.984	10.85	4.3313e-07	20.441	6.8137e-06	5.5717e-06	1.6389e-06	184.12	5.581e-08	6.0078e-08	222.62	56.236	5.2349e-08	6.0716e-08	82.133	33.593	20.608	9.6493	6.3286e-08	17.798	336.481	34.742	44.213	-9.911	171.132	85.525	-11.009	-5.193	85.428	151.440	-6.944	-2.836	-1.041	1.997	125.158	0.418	-8191	255	
8518.427	1	1	0	0	0.16108	0.36033	0.22988	0.090574	0.058154	0.16944	0.24044	0.16512	0.38502	0.14589	0.076314	0.21576	0.20971	0.18877	0.2431	0.25345	-2.6479	-2.7687	-2.6937	-2.9521	-2.5771	-3.1854	-2.9062	-2.45	-3.0896	-2.7896	-2.8354	-3.0479	-2.4375	-2.9646	-3.2542	-2.4729	191.445	-9.209	75.872	172.659	235.669	-2.603	66.942	16.293	205.613	302.065	65.196	332.207	160.461	88.140	90.421	48.383	0.00019681	5.6371e-05	1.1969e-05	197.8	6.5184e-07	1.2723e-07	235.56	60.182	1.521e-06	6.372e-07	92.856	37.39	22.65	10.641	7.4565e-07	20.306	6.7711e-06	5.7995e-06	1.6159e-06	184.76	5.6565e-08	6.2584e-08	223.07	56.137	5.6069e-08	6.223e-08	81.594	33.391	20.409	9.5548	6.2894e-08	17.725	-19.025	37.576	61.395	-10.306	147.446	60.447	-11.132	-5.301	123.040	133.459	-7.605	-2.538	-1.231	2.688	24.326	0.028	-8191	255	
8518.498	1	1	0	0	0.13806	0.25716	0.2427	0.038722	0.19053	0.12592	0.12168	0.11489	0.28732	0.29759	0.30328	0.1675	0.17807	0.021874	0.10592	0.091928	-2.4625	-2.8604	-2.6229	-3.0646	-2.45	-2.8625	-3.0646	-2.4792	-3.0104	-2.8417	-2.6292	-3.0458	-2.7042	-2.7833	-2.9354	-2.6625	162.097	108.413	241.542	162.309	322.778	30.335	283.715	168.156	249.765	311.451	28.801	304.900	78.195	130.465	49.615	4.670	0.00019081	6.6962e-05	1.1259e-05	195.43	3.5558e-07	4.6281e-07	233.11	58.963	3.8659e-07	1.1763e-06	90.937	36.733	22.035	10.486	1.5463e-06	20.215	7.1301e-06	5.775e-06	1.527e-06	183.54	5.8934e-08	6.3015e-08	221.48	55.009	5.7117e-08	6.0651e-08	79.954	32.811	19.945	9.4076	5.9272e-08	17.573	325.088	16.827	83.705	-10.607	99.116	79.240	-11.102	-5.363	93.434	126.841	-7.345	-2.451	-1.450	2.290	117.222	0.426	-8191	255	
8518.619	1	1	0	0	0.30479	0.052678	0.26907	0.21717	0.26032	0.034371	0.17601	0.037256	0.093371	0.24225	0.13074	0.19532	0.081077	0.097997	0.30683	0.036251	-2.5125	-2.9625	-2.4958	-2.9646	-2.7875	-2.8875	-3.0125	-2.5375	-3.05	-2.8583	-2.4042	-3.0583	-2.5833	-2.425	-3.1396	-2.6729	181.671	205.404	328.133	88.726	329.220	319.494	-11.574	114.517	231.150	137.819	69.233	93.590	23.409	140.363	143.075	336.682	0.00017621	1.6688e-05	2.0769e-05	195.06	3.2238e-07	1.8015e-07	231.88	57.57	7.9382e-07	4.9863e-07	88.734	35.609	21.726	10.276	7.5246e-07	19.577	7.1638e-06	5.8455e-06	1.4434e-06	182.9	6.0395e-08	6.2209e-08	220.12	54.086	6.147e-08	6.1709e-08	77.89	32.066	19.492	9.2325	5.5601e-08	17.136	-21.312	-4.374	56.933	-10.323	53.890	-22.019	-10.590	-4.882	90.483	58.911	-6.957	-2.899	-1.323	2.477	80.264	0.404	-8191	255	
8518.715	1	1	0	0	0.092275	0.22022	0.14705	0.1388	0.012717	0.25611	0.087336	0.066948	0.12714	0.27301	0.40854	0.036753	0.093938	0.095491	0.2407	0.15214	-2.4562	-2.7854	-2.6417	-2.9583	-2.6583	-2.6646	-2.9437	-2.5542	-3.0229	-2.9792	-2.3979	-2.8937	-2.8229	-2.5792	-2.825	-2.5146	270.136	9.907	-2.794	147.824	240.411	51.468	21.750	-11.587	95.216	328.132	15.577	192.759	280.647	322.082	313.087	291.674	0.00023325	1.3148e-05	1.2927e-05	192.62	4.81e-07	7.1644e-07	226.07	56.983	7.0127e-07	1.24e-06	88.068	35.65	21.327	10.226	1.2245e-06	19.345	7.4641e-06	5.2372e-06	1.3612e-06	180.06	6.485e-08	5.6441e-08	215.67	53.247	6.2705e-08	5.356e-08	77.215	31.705	19.311	9.138	5.4647e-08	17.016	332.668	299.928	48.065	-10.048	86.844	99.377	-10.964	-5.112	111.545	115.668	-7.730	-2.848	-0.485	2.237	82.692	0.420	-8191	255	
8518.811	1	1	0	0	0.016512	0.13018	0.029778	0.27556	0.12213	0.2505	0.091423	0.12782	0.041617	0.17953	0.15005	0.1234	0.14057	0.19868	0.16138	0.22635	-2.4562	-2.6417	-2.4417	-3.1125	-2.6792	-2.5417	-3.1521	-2.625	-2.7438	-3.0146	-2.5646	-2.9958	-2.9229	-2.4729	-2.9833	-2.8937	313.134	125.185	137.625	285.807	315.818	64.946	148.909	88.513	257.996	285.274	93.605	37.919	41.676	106.309	121.771	130.167	0.00021917	7.9636e-05	2.682e-05	191.13	6.2712e-07	4.0146e-07	226.74	56.613	6.1335e-07	3.871e-07	87.226	35.433	21.167	10.277	3.3938e-07	19.507	7.3444e-06	4.9924e-06	1.3333e-06	179.39	5.9924e-08	5.7051e-08	214.73	53.166	6.0723e-08	5.3422e-08	76.885	31.771	19.224	9.1264	5.2159e-08	17.087	325.845	28.378	81.892	-10.229	120.647	128.419	-10.776	-5.438	93.587	143.161	-7.259	-2.621	-1.162	2.222	117.703	0.036	-8191	255	
8518.932	1	1	0	0	0.059016	0.22325	0.066523	0.016891	0.10915	0.12255	0.051139	0.046083	0.21472	0.035447	0.11547	0.056354	0.095168	0.32429	0.13011	0.13541	-2.2625	-2.8917	-2.6562	-2.9375	-2.7438	-2.5708	-3.1354	-2.6271	-2.6479	-3.0333	-2.5479	-2.9313	-2.9625	-2.3521	-3.0187	-2.7542	72.772	217.675	144.134	255.749	7.029	44.941	308.117	36.371	312.721	225.005	145.558	208.529	188.503	88.100	144.841	24.864	0.00019823	7.2745e-05	2.1364e-05	190.84	7.084e-07	1.6474e-07	225.98	56.254	1.45e-06	6.4591e-07	87.64	35.47	21.207	10.204	6.9613e-07	19.53	7.2417e-06	5.1281e-06	1.3136e-06	178.88	5.9656e-08	5.5668e-08	214.51	52.838	6.251e-08	5.3536e-08	77.11	31.674	19.179	9.1258	5.2355e-08	17.188	328.827	58.336	76.893	-10.730	144.842	138.294	-10.644	-5.365	33.842	124.723	-7.212	-2.934	-1.721	2.234	126.265	0.172	-8191	255	
8519.028	1	1	0	0	0.046051	0.067924	0.052267	0.11044	0.18334	0.064253	0.21999	0.050132	0.21534	0.12602	0.14873	0.15144	0.11654	0.16643	0.057834	0.18001	-1.9688	-3.0021	-2.7583	-2.8125	-3.05	-2.6146	-3.0042	-2.7438	-2.6479	-3.1146	-2.5646	-2.7479	-3.1667	-2.5854	-3.0396	-2.9833	162.612	55.385	7.816	93.031	-10.353	180.117	247.560	67.544	159.642	-19.992	263.205	233.542	126.638	207.977	10.364	228.038	0.00021825	8.1771e-05	1.9876e-05	190.34	1.1807e-06	9.2023e-08	227.68	56.851	8.6077e-07	1.7498e-07	88.157	35.902	21.504	10.181	1.1026e-06	19.998	7.2013e-06	4.8514e-06	1.3165e-06	178.97	5.6816e-08	5.0778e-08	215.37	53.111	5.6532e-08	5.0287e-08	77.44	32	19.287	9.1623	5.5234e-08	17.38	335.400	45.330	68.815	-10.353	131.904	103.875	-10.901	-5.150	128.007	111.813	-7.148	-2.548	-1.510	2.444	40.156	0.598	-8191	255	
8519.122	1	1	0	0	0.044804	0.13551	0.027366	0.12256	0.18511	0.11092	0.034751	0.22926	0.13145	0.14621	0.22615	0.15732	0.24642	0.14467	0.13414	0.14001	-2.1625	-2.8333	-2.6562	-2.7667	-2.9771	-2.4792	-3.2438	-2.9792	-2.5833	-2.9771	-2.5333	-2.7188	-2.9542	-2.5312	-3.0479	-2.9875	235.088	239.550	209.167	295.037	16.899	292.589	289.073	0.772	214.954	-9.912	41.298	59.587	170.972	291.902	98.056	213.597	0.00025005	7.3395e-05	1.8362e-05	190.67	1.3137e-06	2.7137e-07	225.38	56.331	8.4642e-07	3.2969e-07	88.307	35.413	21.344	10.223	1.4715e-06	19.512	7.0097e-06	4.6222e-06	1.4206e-06	178.3	5.3887e-08	5.007e-08	213.65	52.674	5.4761e-08	5.0548e-08	77.118	31.752	19.103	9.1269	5.9248e-08	17.175	-21.094	38.210	110.825	-10.375	96.334	105.519	-10.302	-5.587	105.789	174.977	-7.504	-2.967	-1.771	2.189	71.611	0.532	-8191	255	
8519.220	1	1	0	0	0.1158	0.26126	0.24025	0.15227	0.085379	0.13718	0.072993	0.11035	0.059928	0.14766	0.18159	0.19099	0.12695	0.33447	0.1796	0.12454	-2.1458	-3.0417	-2.7375	-2.7792	-3.0646	-2.3854	-3.05	-3	-2.5062	-3.1	-2.6208	-2.825	-3.2271	-2.4562	-2.8917	-3.075	15.005	318.407	128.996	71.468	146.975	-10.004	284.219	-20.736	-8.049	337.175	188.811	233.321	311.445	210.070	259.319	28.197	0.00019482	1.5626e-05	1.8313e-05	190.2	5.7662e-07	1.5655e-07	225.83	57.033	9.3554e-07	3.6514e-07	88.53	35.782	21.6	10.295	7.1261e-07	19.825	6.9296e-06	4.6408e-06	1.5021e-06	178.13	5.1599e-08	5.1453e-08	213.03	53.277	5.5744e-08	5.1565e-08	77.894	31.972	19.403	9.226	6.0724e-08	17.276	333.502	37.352	31.532	-10.098	108.228	114.993	-10.967	-4.837	71.310	95.362	-7.238	-2.728	-1.412	2.146	128.435	0.012	-8191	255	
8519.315	1	1	0	0	0.088812	0.11202	0.066095	0.13752	0.094689	0.092452	0.039101	0.090019	0.094553	0.088384	0.45424	0.058348	0.10264	0.12109	0.231	0.051203	-1.9354	-2.8187	-2.8042	-2.6792	-3.1583	-2.6688	-2.8667	-2.875	-2.3229	-3.0062	-2.825	-2.4896	-3.0271	-2.5583	-2.8833	-2.9958	89.900	206.660	38.455	6.637	87.024	278.376	316.956	135.035	-14.454	242.183	-9.770	196.208	32.984	95.767	-13.045	159.821	0.00020332	3.6113e-05	2.0612e-05	191.84	5.2943e-07	5.5965e-07	228.5	58.654	6.6072e-07	3.3925e-07	91.097	36.761	22.162	10.593	6.6847e-07	20.032	6.9399e-06	4.8351e-06	1.5359e-06	179.57	5.0439e-08	5.3569e-08	216.52	54.555	5.5907e-08	5.4317e-08	80.06	32.84	19.99	9.4516	6.6149e-08	17.614	330.393	72.248	58.859	-10.418	150.461	126.305	-10.777	-5.010	80.751	85.104	-7.450	-2.738	-1.153	2.615	94.531	0.276	-8191	255	
8519.411	1	1	0	0	0.064902	0.17274	0.11168	0.0039935	0.14374	0.22163	0.066031	0.094403	0.27555	0.25382	0.10604	0.07573	0.2977	0.093793	0.074964	0.043485	-2.1208	-2.9521	-2.6813	-2.6063	-3.2771	-2.6021	-2.8333	-3.1125	-2.5333	-2.9625	-2.9875	-2.5708	-3.0604	-2.6896	-2.7188	-2.9875	17.949	187.572	-22.283	234.361	147.526	79.079	125.445	234.136	-2.902	30.241	22.235	303.741	329.140	305.888	286.316	69.179	0.00018267	3.7507e-05	5.8903e-06	196.61	8.0916e-07	1.2541e-07	234.74	60.101	1.0052e-06	1.0208e-06	92.838	37.409	22.701	10.707	6.2923e-07	20.447	7.0934e-06	5.2171e-06	1.6139e-06	183.74	5.3343e-08	5.9939e-08	221.16	56.246	5.7019e-08	6.2955e-08	81.769	33.459	20.435	9.5996	6.2666e-08	17.87	327.044	72.864	-4.827	-10.528	96.307	42.116	-10.998	-5.348	104.810	132.209	-6.995	-2.659	-1.622	2.333	44.354	0.439	-8191	255	
8519.531	1	1	0	0	0.13392	0.070411	0.17007	0.15879	0.085988	0.19723	0.074611	0.048705	0.12555	0.27991	0.28938	0.26102	0.02114	0.28312	0.2413	0.23504	-1.9625	-2.9354	-2.9146	-2.325	-2.975	-2.7292	-2.7375	-3.0417	-2.5729	-3.0542	-2.8208	-2.35	-3.1	-2.6792	-2.5979	-3.0896	67.449	162.358	34.776	156.389	18.400	162.412	171.733	173.314	280.605	35.981	293.852	185.208	25.323	187.500	99.490	12.329	0.00024195	6.9068e-05	1.2743e-05	196.27	4.1498e-07	4.7058e-07	234.94	60.934	1.3125e-06	8.8792e-07	95.079	37.985	23.089	10.876	3.9734e-07	20.762	7.0545e-06	5.5079e-06	1.5127e-06	184.39	5.6833e-08	6.4943e-08	223.1	56.908	5.7434e-08	6.4192e-08	82.891	33.957	20.714	9.7128	5.9974e-08	18.13	334.701	37.543	35.702	-10.240	126.813	70.941	-11.082	-5.335	51.440	89.919	-7.276	-2.819	-1.650	2.492	120.651	0.218	-8191	255	
8519.628	1	1	0	0	0.16843	0.187	0.037098	0.18078	0.036436	0.055393	0.31651	0.19358	0.26588	0.10156	0.056758	0.21899	0.15093	0.11981	0.06653	0.21956	-2.1	-2.9021	-2.9354	-2.55	-2.9562	-2.9583	-2.7125	-3.125	-2.6667	-2.6271	-2.9792	-2.6083	-2.8708	-2.8833	-2.4833	-3.1854	145.501	82.897	201.523	246.982	309.921	294.240	-10.314	268.088	165.266	312.456	195.904	248.085	245.577	268.010	187.397	276.709	0.00020337	4.5546e-05	2.2862e-05	196.24	8.8869e-07	7.2877e-07	235.93	60.807	1.0193e-06	5.1062e-07	94.257	38.247	22.86	10.907	9.4772e-07	20.693	7.4369e-06	5.5984e-06	1.5239e-06	184.36	5.8877e-08	5.8752e-08	222.89	56.858	6.1755e-08	6.105e-08	82.67	33.99	20.611	9.7835	5.9411e-08	18.135	336.216	-23.422	41.353	-9.900	111.455	46.748	-10.718	-5.774	95.127	109.906	-6.984	-2.875	-1.530	2.358	158.722	0.418	-8191	255	
8519.724	1	1	0	0	0.065354	0.15044	0.17184	0.23754	0.29963	0.26023	0.08018	0.22103	0.17186	0.18419	0.060851	0.12713	0.41425	0.12477	0.163	0.12106	-2.1875	-2.6688	-3.1292	-2.3187	-3.0479	-2.7354	-2.7042	-2.9854	-2.575	-2.6604	-3.0938	-2.6271	-2.8333	-2.9146	-2.4333	-3.0896	157.338	172.979	263.555	241.703	191.154	88.524	192.891	18.598	25.491	182.007	299.654	84.977	287.385	147.226	177.887	294.294	0.000246	5.8068e-05	7.3242e-06	195.34	1.8896e-07	7.6169e-07	233.41	60.184	1.0661e-06	1.8575e-07	93.82	38.096	22.863	11.006	3.7887e-07	20.884	7.699e-06	5.9538e-06	1.4262e-06	182.52	6.3008e-08	6.164e-08	220.44	56.284	6.4557e-08	5.9951e-08	82.188	33.887	20.686	9.8634	5.9827e-08	18.244	-21.304	17.892	53.904	-10.413	154.031	59.579	-10.931	-5.277	102.776	126.256	-7.058	-2.892	-1.422	2.355	128.373	0.090	-8191	255	
8519.795	1	1	0	0	0.18395	0.19273	0.17589	0.14357	0.080529	0.23166	0.052809	0.33115	0.18261	0.2705	0.16744	0.098096	0.26429	0.08793	0.11682	0.19604	-2.1792	-2.6729	-2.9938	-2.5875	-2.7729	-3.1125	-2.5479	-3.0625	-2.7792	-2.5667	-2.9521	-2.6979	-2.6646	-2.9771	-2.275	-3.0292	252.402	268.145	125.318	116.455	54.618	178.583	277.724	262.019	105.669	-14.081	90.632	330.850	134.629	162.416	44.234	29.957	0.00023282	6.6431e-05	1.5465e-05	196.37	1.1465e-06	4.3156e-07	236.3	61.562	3.2477e-07	3.9687e-07	94.734	38.286	23.254	11.064	1.2466e-07	20.969	7.6954e-06	5.6207e-06	1.4368e-06	184.37	6.5304e-08	6.0826e-08	222.93	57.43	6.4565e-08	6.1823e-08	83.193	34.226	20.974	9.9221	5.853e-08	18.33	-18.750	64.436	56.503	-10.416	122.305	28.680	-10.684	-4.981	158.094	78.983	-6.955	-3.097	-1.568	2.410	99.681	0.359	-8191	255	
8519.916	1	1	0	0	0.14573	0.12433	0.065449	0.034764	0.11192	0.25395	0.14565	0.083485	0.095917	0.039961	0.081734	0.11881	0.1885	0.14434	0.12844	0.1091	-2.5729	-2.6063	-2.9875	-2.5708	-2.9	-2.9292	-2.4688	-2.9708	-2.8271	-2.5271	-3.1833	-2.7667	-2.7938	-2.7083	-2.5208	-2.8854	158.186	173.823	310.024	274.223	133.623	308.138	152.966	184.276	52.285	235.918	250.782	84.668	262.427	280.088	60.479	325.793	0.0002167	8.1615e-05	2.0635e-05	198.8	6.0292e-07	3.4084e-07	237.03	61.313	7.0748e-07	4.8805e-07	95.317	38.355	23.124	11.151	7.9935e-07	20.937	7.9765e-06	5.6229e-06	1.3888e-06	186.08	6.5913e-08	5.9752e-08	224.3	57.489	6.7643e-08	6.1595e-08	83.107	34.225	20.888	9.9435	5.7632e-08	18.336	330.780	51.979	20.604	-10.120	136.794	86.725	-11.178	-5.145	80.963	130.058	-6.993	-2.917	-1.384	2.216	54.443	0.260	-8191	255	
8520.012	1	1	0	0	0.21742	0.24643	0.26147	0.1787	0.31001	0.17653	0.26825	0.086499	0.2372	0.06421	0.095037	0.089589	0.026097	0.17439	0.056787	0.22685	-2.4104	-2.6104	-3.2583	-2.6354	-2.825	-3.0812	-2.7417	-2.8396	-3.0604	-2.4917	-2.9729	-2.7979	-2.6792	-3.1667	-2.625	-2.6667	65.697	146.745	297.753	255.737	86.990	0.733	306.154	-12.889	48.375	192.619	59.519	278.323	144.178	320.965	-15.468	152.283	0.00023367	5.3427e-05	1.2654e-05	199.71	7.4418e-07	5.6953e-07	238	61.661	4.7869e-07	6.1248e-07	95.083	38.323	23.028	11.108	6.43e-07	20.889	8.2159e-06	5.6912e-06	1.4121e-06	187.08	6.5409e-08	5.8353e-08	225.51	57.699	6.398e-08	5.8013e-08	83.542	34.408	20.872	9.9555	5.9558e-08	18.358	328.736	5.346	18.707	-10.417	118.457	63.227	-11.042	-5.271	82.263	103.635	-7.302	-2.803	-1.423	2.321	142.771	-0.220	-8191	255	
8520.108	1	1	0	0	0.13135	0.21766	0.12055	0.055845	0.15951	0.063034	0.15001	0.17736	0.14876	0.091369	0.14594	0.17567	0.19372	0.14265	0.10585	0.086469	-2.3417	-2.5229	-2.8146	-2.6708	-2.7042	-3.3958	-2.5708	-2.7875	-2.7875	-2.5667	-3.225	-2.7708	-2.5583	-3.1479	-2.4771	-2.6437	265.310	92.595	-9.803	325.719	244.248	225.791	130.346	-11.530	44.854	212.386	224.400	250.624	225.117	277.168	159.911	101.270	0.00022574	7.7626e-05	1.6157e-05	201.9	6.3821e-07	3.442e-07	237.03	61.622	1.5618e-07	4.1934e-07	95.473	38.106	23.412	11.109	8.4064e-07	20.783	7.5001e-06	5.3329e-06	1.4496e-06	186.78	6.2472e-08	5.4301e-08	225.01	57.759	6.2494e-08	5.7362e-08	83.563	34.199	20.999	9.9071	6.2111e-08	18.208	321.458	31.142	55.445	-10.172	44.948	29.902	-11.213	-5.401	58.435	112.500	-6.939	-3.133	-0.968	2.464	84.122	0.122	-8191	255	
8520.203	1	1	0	0	0.20755	0.075091	0.25166	0.065499	0.14946	0.32929	0.192	0.10575	0.032885	0.23198	0.22623	0.24305	0.096273	0.10655	0.069906	0.14125	-2.4	-2.575	-2.7542	-2.5021	-2.5812	-3.0417	-2.7979	-2.6896	-2.8667	-2.4854	-2.8708	-2.8833	-2.5812	-3.0521	-2.5375	-2.7083	185.402	196.569	125.217	50.980	271.875	195.206	-7.708	56.739	298.594	-16.223	-2.112	249.192	5.033	24.352	29.916	9.961	0.00024605	0.00010607	2.1275e-05	199.54	7.0369e-07	6.7871e-07	236.62	62.247	6.548e-07	3.2841e-07	95.182	38.306	23.568	11.136	4.128e-07	20.903	7.4971e-06	5.0577e-06	1.5208e-06	186.22	6.1369e-08	5.5009e-08	223.96	58.031	6.0276e-08	5.7647e-08	83.689	34.21	21.118	9.9641	6.7405e-08	18.215	331.748	47.783	48.485	-10.588	127.197	87.060	-10.576	-5.266	128.881	120.332	-7.351	-2.977	-1.412	2.848	129.491	0.414	-8191	255	
8520.301	1	1	0	0	0.19691	0.15208	0.21318	0.20511	0.28928	0.14559	0.097102	0.12082	0.13422	0.25784	0.12467	0.16741	0.32581	0.21161	0.18217	0.15747	-2.5521	-2.4771	-2.7771	-2.7979	-2.4542	-3.1	-2.8458	-2.6458	-3.1104	-2.6729	-2.7625	-2.7313	-2.6021	-3.0563	-2.7062	-2.6188	145.956	-17.253	119.100	132.490	168.759	80.006	320.571	267.109	89.285	168.664	88.810	202.398	248.673	234.636	313.835	300.803	0.00017731	0.00013889	8.63e-06	199.42	1.041e-06	5.735e-07	237.67	62.541	4.4188e-07	6.9906e-07	96.548	38.506	23.672	11.196	4.3574e-07	21.107	7.6697e-06	5.3662e-06	1.7237e-06	186.91	6.2237e-08	5.7531e-08	226.22	58.552	6.2502e-08	5.7956e-08	84.996	34.708	21.419	10.074	7.0513e-08	18.489	323.310	54.675	29.808	-10.013	116.337	94.208	-10.888	-5.041	209.100	158.461	-7.397	-3.006	-1.211	2.884	48.407	0.166	-8191	255	
8520.395	1	1	0	0	0.15646	0.18879	0.15383	0.2613	0.10258	0.14228	0.13033	0.031965	0.12408	0.14217	0.093882	0.091489	0.052291	0.20194	0.059168	0.051994	-2.6354	-2.6208	-2.625	-2.8875	-2.3625	-3.1083	-2.8563	-2.4354	-2.8625	-2.4729	-2.7375	-3.0687	-2.4854	-2.9396	-2.7021	-2.7479	290.873	14.551	186.901	-10.614	-15.159	133.317	260.417	239.453	120.044	161.744	212.365	21.019	256.677	57.796	278.500	233.085	0.00017968	6.7972e-05	1.6105e-05	201.73	3.8742e-07	1.939e-07	240	63.769	1.5243e-06	5.4106e-08	97.351	38.984	23.829	11.351	4.7373e-07	21.272	7.5963e-06	5.818e-06	1.7657e-06	188.42	6.515e-08	6.199e-08	227.63	59.119	6.2876e-08	6.2507e-08	85.38	34.896	21.612	10.173	7.1255e-08	18.662	-21.462	50.763	63.659	-9.821	111.813	303.478	-10.889	-5.088	107.841	79.925	-7.492	-2.809	-1.713	2.534	106.108	-0.030	-8191	255	
8520.491	1	1	0	0	0.27528	0.03291	0.035685	0.056055	0.17004	0.19592	0.15714	0.19964	0.10556	0.22995	0.2666	0.29288	0.17491	0.21802	0.16308	0.29316	-2.5854	-2.3667	-2.7333	-3.0167	-2.4875	-3.0792	-2.7833	-2.4771	-3.0542	-2.8542	-2.6917	-3.0458	-2.5979	-2.8979	-2.9062	-2.4813	252.612	269.861	143.716	137.451	228.582	44.547	229.767	310.466	332.273	223.552	259.061	-8.135	265.238	292.290	160.304	320.454	0.00020157	5.9759e-05	7.9216e-06	201.17	6.9244e-07	4.8359e-07	240.77	63.311	1.2086e-06	2.553e-07	97.321	38.704	23.711	11.26	6.2326e-07	21.154	7.4399e-06	6.1518e-06	1.7093e-06	188.8	6.1961e-08	6.4203e-08	228.89	59.143	5.9529e-08	6.4778e-08	85.575	34.829	21.446	10.086	6.6663e-08	18.52	333.770	48.259	39.057	-10.147	157.911	82.082	-11.205	-5.246	99.657	120.172	-7.231	-2.670	-1.547	2.390	92.391	-0.019	-8191	255	
8520.612	1	1	0	0	0.26545	0.16759	0.23495	0.18927	0.16189	0.22666	0.11439	0.31259	0.22914	0.1117	0.23051	0.093802	0.15581	0.11512	0.069863	0.20702	-2.5687	-2.8667	-2.6771	-3.1375	-2.4875	-2.9146	-3.0042	-2.4771	-3.0563	-2.9625	-2.5958	-3.0125	-2.5208	-2.7958	-2.9104	-2.5396	122.966	52.151	262.144	0.026	49.685	267.140	27.316	228.202	190.213	135.119	297.255	211.253	76.793	312.888	328.473	227.571	0.00022556	4.6392e-05	1.0216e-05	200.67	1.9571e-07	6.4818e-07	241.81	63.31	1.2875e-06	6.8034e-07	97.088	38.871	24.019	11.293	6.0804e-07	21.062	7.2703e-06	6.1533e-06	1.6393e-06	188.32	6.0849e-08	6.7978e-08	229.28	59.219	5.866e-08	6.937e-08	85.321	34.825	21.549	10.09	6.3277e-08	18.397	323.195	46.765	29.684	-10.377	38.707	58.666	-10.863	-5.059	98.951	127.794	-7.648	-3.073	-1.300	2.376	138.304	0.186	-8191	255	
8520.708	1	1	0	0	0.11262	0.16837	0.085106	0.20769	0.0889	0.20992	0.1404	0.2815	0.037764	0.1274	0.13562	0.12274	0.28956	0.10917	0.14537	0.15925	-2.5667	-2.8625	-2.6792	-2.8521	-2.6208	-2.6896	-2.9958	-2.2417	-2.9833	-2.9896	-2.3958	-3.2562	-2.6688	-2.675	-2.7042	-2.4708	247.740	296.588	306.620	126.532	280.516	286.628	13.939	290.933	302.526	181.161	286.317	331.397	325.865	37.271	235.409	302.977	0.00022014	5.6065e-05	1.3268e-05	201.52	7.7234e-07	8.1886e-07	240.93	62.975	1.2874e-06	3.7264e-07	96.024	38.76	23.588	11.23	7.3891e-07	20.926	7.9604e-06	6.1511e-06	1.6207e-06	188.58	6.5929e-08	6.762e-08	227.95	59.033	6.4719e-08	6.7579e-08	84.758	34.602	21.447	10.053	6.2143e-08	18.294	331.114	86.338	69.166	-10.292	126.825	60.679	-10.703	-4.883	107.672	106.971	-7.282	-2.977	-1.277	2.326	161.876	0.266	-8191	255	
8520.804	1	1	0	0	0.074149	0.22199	0.214	0.28606	0.36168	0.31021	0.21652	0.095589	0.24421	0.077448	0.13644	0.22838	0.038544	0.13697	0.23903	0.082938	-2.5563	-2.8333	-2.5812	-3.1437	-2.5542	-2.7021	-3.0708	-2.6208	-2.8917	-2.9167	-2.4625	-2.8896	-2.7417	-2.5833	-2.8	-2.5333	284.307	123.642	43.054	257.619	242.379	288.976	238.124	25.765	164.126	106.847	43.081	315.216	226.845	30.103	208.645	279.151	0.00021793	6.0805e-05	2.1527e-05	203.47	7.6164e-07	2.6959e-07	241.82	62.545	1.2447e-06	1.6217e-07	97.298	38.551	24.107	11.244	8.0248e-07	21.001	7.7871e-06	6.2816e-06	1.5419e-06	189.83	6.8777e-08	6.666e-08	229.2	58.704	6.9162e-08	6.6407e-08	84.683	34.642	21.609	10.046	6.5276e-08	18.348	335.991	60.229	43.573	-10.022	130.967	92.169	-10.741	-4.940	223.718	107.987	-6.890	-2.817	-1.202	2.233	73.161	0.155	-8191	255	
8520.900	1	1	0	0	0.086531	0.15997	0.12515	0.053287	0.37041	0.21323	0.23559	0.23077	0.037636	0.3145	0.34935	0.2713	0.24962	0.12691	0.23681	0.10012	-2.3937	-2.9479	-2.4729	-3.0021	-2.7667	-2.6937	-3.1833	-2.5271	-2.775	-2.8438	-2.4979	-3.0667	-3.0292	-2.2833	-2.95	-2.6229	68.450	330.869	58.054	132.751	47.605	22.150	304.974	278.441	292.086	41.217	68.496	134.995	28.316	71.439	304.393	312.894	0.0002051	5.0352e-05	2.5949e-05	206.3	7.3894e-07	4.5127e-07	243.75	63.172	1.4186e-06	5.6688e-07	98.509	38.981	24.118	11.262	5.8911e-07	21.088	8.3304e-06	5.7067e-06	1.5797e-06	192.26	6.9783e-08	6.2885e-08	231.5	59.133	7.2289e-08	6.3647e-08	85.476	34.89	21.627	10.063	6.1654e-08	18.377	326.842	10.568	64.812	-10.257	93.586	68.410	-10.918	-4.881	40.224	216.864	-7.159	-2.940	-1.197	2.398	137.177	0.385	-8191	255	
8521.021	1	1	0	0	0.24722	0.12334	0.13679	0.15842	0.19335	0.18983	0.20699	0.33653	0.039278	0.17521	0.15886	0.13864	0.27617	0.10715	0.19944	0.19161	-2.3396	-3.0708	-2.3667	-2.9062	-2.6479	-2.5208	-3.1479	-2.8146	-2.9104	-2.9354	-2.4667	-2.9521	-2.6958	-2.4333	-3.0438	-2.7479	250.823	284.334	71.305	201.343	189.160	160.676	32.363	-2.864	231.524	233.251	269.524	-9.113	141.472	118.213	60.971	300.325	0.00020886	6.5953e-05	2.4332e-05	204.73	1.167e-06	6.687e-07	246.9	64.662	1.2426e-06	5.8511e-07	99.116	39.591	24.585	11.543	1.8736e-07	21.26	8.3458e-06	5.9122e-06	1.5189e-06	192.57	7.1398e-08	6.3251e-08	233.9	60.12	7.4158e-08	6.1978e-08	87.067	35.575	22.145	10.268	6.1597e-08	18.684	334.185	75.831	44.049	-10.278	124.588	95.661	-10.703	-5.336	95.486	125.494	-7.241	-2.657	-1.354	2.288	112.413	-0.048	-8191	255	
8521.093	1	1	0	0	0.35792	0.043673	0.11278	0.26304	0.10851	0.32506	0.15982	0.27014	0.13839	0.19983	0.17883	0.13473	0.29535	0.15331	0.15759	0.12608	-2.2542	-2.7917	-2.4062	-2.8021	-2.8937	-2.4792	-2.7833	-2.8208	-2.6208	-3.0229	-2.4771	-2.8125	-2.8312	-2.4708	-2.9688	-2.8417	282.534	273.941	132.222	40.832	-18.544	106.469	122.246	19.138	165.168	17.917	-17.149	39.416	230.527	309.885	308.169	57.364	0.00024639	7.2925e-05	1.9809e-05	207.59	5.0974e-07	5.2073e-07	250.47	65.635	1.2541e-06	5.6682e-07	99.599	39.838	24.684	11.55	9.4762e-07	21.092	8.3774e-06	5.9263e-06	1.5973e-06	195.29	6.9085e-08	6.6074e-08	236.98	61.134	6.8488e-08	6.4827e-08	87.287	35.693	22.323	10.268	6.5145e-08	18.564	329.403	4.336	48.039	-10.392	139.333	25.075	-10.475	-5.175	141.800	113.096	-6.827	-2.870	-1.581	2.474	43.748	0.143	-8191	255	
8521.211	1	1	0	0	0.30454	0.096109	0.18545	0.05243	0.081153	0.14574	0.22177	0.22511	0.023299	0.077912	0.054203	0.18512	0.040425	0.27378	0.089686	0.11159	-2.1063	-2.8854	-2.5708	-2.8146	-2.725	-2.2958	-3.0229	-2.7438	-2.6521	-3.1063	-2.7062	-2.7646	-2.8875	-2.5	-2.975	-2.7646	81.184	106.177	281.705	105.285	289.637	148.478	-17.547	-21.974	266.698	211.593	219.357	93.680	111.497	26.677	232.392	201.519	0.00020737	6.0666e-05	2.6199e-05	207.38	5.7175e-07	1.1473e-06	249.14	64.963	6.1849e-07	4.9949e-07	98.652	39.45	24.591	11.383	1.3329e-06	20.875	8.232e-06	5.772e-06	1.6834e-06	194.96	6.6846e-08	6.1957e-08	235.63	60.728	6.9975e-08	6.2116e-08	87.128	35.322	22.193	10.195	6.942e-08	18.35	327.518	13.919	68.095	-10.240	138.254	104.702	-11.011	-4.871	109.440	102.282	-7.343	-3.153	-1.132	2.626	117.061	0.448	-8191	255	
8521.308	1	1	0	0	0.10873	0.17954	0.28491	0.25509	0.034954	0.15162	0.21004	0.21294	0.22489	0.14615	0.11899	0.051955	0.22191	0.18124	0.10824	0.34941	-2.1312	-2.9604	-2.5792	-2.8104	-3.1646	-2.5875	-2.9708	-2.8396	-2.4688	-2.9708	-2.7854	-2.6771	-3.0042	-2.4104	-3.075	-2.7479	210.198	180.790	6.388	329.254	72.210	103.244	230.710	286.952	144.421	303.838	94.529	14.147	268.317	107.042	24.132	67.972	0.00018712	9.8112e-05	3.1086e-05	208.69	6.8742e-07	3.4005e-07	249.31	65.682	5.8574e-07	9.9277e-07	99.407	39.769	25.023	11.406	4.0306e-07	21.015	8.3231e-06	5.8811e-06	1.8228e-06	195.78	6.9199e-08	6.6806e-08	237.11	61.471	7.1266e-08	6.2727e-08	87.293	35.688	22.506	10.225	7.6452e-08	18.439	329.782	37.556	52.473	-10.113	55.310	18.165	-10.492	-5.121	104.936	131.835	-7.053	-2.673	-1.199	2.713	70.030	0.217	-8191	255	
8521.404	1	1	0	0	0.083587	0.19488	0.073022	0.14172	0.22281	0.1794	0.14338	0.19977	0.17798	0.1123	0.12589	0.1029	0.083385	0.17169	0.2044	0.081517	-1.9396	-3.0417	-2.5833	-2.625	-3.1417	-2.5625	-2.7313	-3.0542	-2.6312	-2.975	-2.9042	-2.7979	-2.9292	-2.6771	-2.8042	-2.8604	95.562	-12.838	155.696	224.934	100.965	174.830	290.474	307.370	29.344	307.270	281.609	279.438	136.411	289.217	51.598	302.262	0.00022389	8.8582e-05	1.2227e-05	209.63	1.1998e-06	7.7123e-07	250.78	65.862	7.567e-07	6.2517e-07	99.267	40.059	24.923	11.471	1.2413e-06	21.058	8.1704e-06	5.8877e-06	1.8965e-06	196.16	6.5872e-08	6.5838e-08	237.02	61.558	6.9585e-08	6.6618e-08	87.751	35.751	22.516	10.269	7.7292e-08	18.535	328.874	47.375	92.496	-10.224	170.854	73.306	-11.132	-5.208	94.237	126.680	-6.700	-2.388	-1.341	2.750	103.401	0.198	-8191	255	
8521.500	1	1	0	0	0.042517	0.15241	0.094745	0.042633	0.35211	0.089398	0.18801	0.14378	0.14049	0.045761	0.045481	0.16925	0.15156	0.04071	0.14641	0.16769	-2.1208	-3.0792	-2.7521	-2.5854	-3.1312	-2.9229	-2.6354	-2.8333	-2.4167	-3.2104	-2.7708	-2.4604	-3.15	-2.8792	-2.7104	-3.0375	34.241	198.454	291.613	4.071	319.116	208.608	276.586	36.568	150.503	32.247	268.448	263.719	140.557	82.901	149.931	299.658	0.00020081	3.608e-05	1.5533e-05	210.5	7.6152e-07	6.157e-07	252.71	65.588	1.0179e-06	5.9711e-07	100.93	40.602	25.018	11.521	1.3362e-06	21.322	8.4721e-06	6.2653e-06	1.9433e-06	196.37	6.5061e-08	6.8507e-08	238.12	61.653	6.5296e-08	6.9533e-08	88.567	36.074	22.512	10.303	7.8148e-08	18.607	330.653	67.506	15.284	-10.234	132.899	89.684	-10.611	-5.119	87.714	80.643	-6.740	-3.017	-1.088	2.320	122.990	0.363	-8191	255	
8521.596	1	1	0	0	0.025159	0.16439	0.22797	0.15586	0.14752	0.20562	0.10003	0.23841	0.15288	0.20904	0.1947	0.27082	0.1507	0.12285	0.20099	0.074539	-2.1312	-2.9917	-2.9042	-2.7188	-3.2438	-2.5042	-2.8396	-3.1604	-2.4188	-3.0167	-3.1417	-2.4896	-2.7458	-2.7417	-2.6979	-3.075	-7.140	130.413	223.636	99.569	129.935	89.354	306.021	308.452	321.144	77.193	24.136	206.118	236.784	130.037	22.574	177.018	0.00021451	8.1504e-05	9.9852e-06	209.36	5.4456e-07	2.5538e-07	249.76	66.048	3.7259e-07	5.075e-07	101.45	40.175	25.218	11.543	6.04e-07	21.186	8.1483e-06	6.5264e-06	1.8615e-06	196.62	6.3251e-08	7.3462e-08	238.18	61.697	6.7221e-08	7.3611e-08	88.612	35.896	22.608	10.326	7.411e-08	18.499	329.687	34.145	77.238	-10.491	162.467	67.324	-10.859	-4.897	218.171	120.528	-7.429	-2.671	-1.028	2.618	55.311	0.305	-8191	255	
8521.692	1	1	0	0	0.21779	0.1873	0.10331	0.075363	0.065269	0.2552	0.31665	0.19894	0.27557	0.19214	0.22873	0.36539	0.12729	0.099048	0.089932	0.1912	-2.1396	-2.8625	-2.8375	-2.3	-3.05	-2.7854	-2.7083	-2.9667	-2.8438	-3.0708	-2.9021	-2.4208	-2.9896	-2.6458	-2.5	-3.1833	20.790	30.633	9.977	246.785	-0.306	221.444	-19.022	204.358	68.859	134.333	119.353	19.609	14.828	316.544	102.732	294.554	0.0002319	8.9738e-05	1.2299e-05	209.14	7.0286e-07	6.825e-07	248.57	65.636	1.7832e-06	7.6675e-07	99.17	39.765	24.786	11.436	8.6456e-07	20.944	8.3781e-06	6.6963e-06	1.7101e-06	195.7	6.6505e-08	7.513e-08	236.54	61.297	6.6376e-08	7.6656e-08	87.235	35.526	22.413	10.261	6.9722e-08	18.378	330.932	35.692	17.649	-10.181	108.038	125.315	-10.957	-4.968	131.009	139.595	-7.356	-2.681	-1.265	2.592	67.842	0.156	-8191	255	
8521.788	1	1	0	0	0.18688	0.16678	0.21355	0.16427	0.14244	0.089889	0.17247	0.13638	0.11534	0.10616	0.26023	0.035502	0.058336	0.23146	0.19674	0.19737	-2.2438	-2.5896	-2.9521	-2.5583	-2.9229	-2.7417	-2.6771	-2.925	-2.725	-2.7958	-2.9792	-2.4708	-3.0604	-2.8021	-2.4521	-3.0271	125.204	296.865	243.907	315.337	282.164	302.376	325.288	236.635	328.474	286.079	-0.295	42.185	117.180	116.416	197.346	310.797	0.00023133	6.0676e-05	1.2896e-05	207.85	8.7347e-07	3.9355e-07	248	64.712	1.3658e-06	3.1969e-07	99.474	39.438	24.527	11.247	7.1351e-07	20.88	8.3348e-06	6.8654e-06	1.7357e-06	194.85	6.9004e-08	7.3559e-08	235.14	60.606	7.2598e-08	7.0501e-08	86.835	35.257	22.098	10.104	6.7201e-08	18.236	325.965	82.802	64.868	-10.257	137.319	79.033	-10.965	-5.153	127.852	110.205	-6.936	-3.059	-1.243	2.317	170.302	0.476	-8191	255	
8521.884	1	1	0	0	0.31852	0.060853	0.24429	0.21312	0.26987	0.097148	0.14996	0.178	0.1968	0.12636	0.20977	0.30653	0.064226	0.18507	0.23927	0.29752	-2.2375	-2.6063	-2.8937	-2.5229	-2.8396	-2.8417	-2.6521	-2.9688	-2.6896	-2.8312	-2.8708	-2.6104	-2.8563	-2.9292	-2.6813	-2.9896	0.557	278.561	147.239	198.849	283.089	266.326	322.876	208.724	97.987	257.927	171.248	263.101	1.261	42.422	100.614	240.330	0.0002191	4.0719e-05	1.4186e-05	208.02	8.4591e-07	2.6511e-07	248.24	64.791	6.3739e-07	4.8821e-07	99.895	39.967	25.007	11.434	1.0548e-06	21.112	8.5639e-06	6.4745e-06	1.6455e-06	194.32	7.5293e-08	7.4983e-08	235.02	60.539	7.5043e-08	6.9614e-08	87.24	35.626	22.373	10.237	6.9501e-08	18.487	335.273	24.826	-20.716	-10.317	124.042	16.792	-10.799	-5.055	101.483	135.899	-7.334	-2.499	-1.325	2.696	97.027	0.566	-8191	255	
8521.981	1	1	0	0	0.20321	0.17271	0.14519	0.22361	0.047839	0.25401	0.19268	0.21248	0.16805	0.077253	0.28904	0.10962	0.11705	0.13627	0.26492	0.1549	-2.2354	-2.6208	-2.9437	-2.5896	-2.8521	-3.0542	-2.4875	-3.0354	-2.8021	-2.875	-3.1479	-2.5958	-2.9396	-2.95	-2.575	-2.9604	308.449	313.166	269.527	247.242	-2.613	267.659	202.564	280.138	249.817	115.867	49.284	163.194	212.403	170.184	124.667	-1.740	0.00020739	3.745e-05	2.8099e-05	208.43	8.4253e-07	5.8867e-07	252.77	66.501	6.5826e-07	5.0279e-07	103.32	40.405	25.224	11.671	3.3192e-07	21.265	9.3289e-06	6.3773e-06	1.6799e-06	196.54	7.8806e-08	7.1599e-08	239.11	62.236	7.8836e-08	7.5435e-08	89.544	36.395	22.887	10.454	6.8653e-08	18.766	331.795	9.544	42.784	-10.266	112.245	75.189	-10.649	-4.971	224.843	64.644	-7.265	-2.527	-0.663	2.823	48.776	0.172	-8191	255	
8522.099	1	1	0	0	0.17267	0.41205	0.095189	0.12216	0.19145	0.23695	0.1679	0.18163	0.19011	0.089239	0.16134	0.03905	0.1158	0.18664	0.18118	0.22543	-2.6229	-2.5271	-3.0687	-2.7042	-2.9833	-3.1229	-2.3917	-2.8542	-2.9875	-2.6375	-3.0208	-2.6646	-2.7667	-3.1354	-2.6208	-2.8167	86.283	48.851	49.103	322.144	191.540	106.128	5.173	170.278	87.914	148.152	200.587	-4.711	285.794	88.654	73.502	259.504	0.00022646	7.1755e-05	2.9326e-05	211.24	3.9315e-07	9.523e-07	251.91	66.467	9.8558e-07	4.5805e-07	100.84	40.029	24.952	11.431	1.4167e-06	21.059	9.0146e-06	6.358e-06	1.6826e-06	197.88	7.8425e-08	6.7596e-08	239.43	62.152	7.7139e-08	6.9362e-08	88.698	36.031	22.555	10.296	7.0358e-08	18.385	328.023	27.429	39.006	-9.964	177.590	82.612	-10.941	-5.164	154.997	297.404	-7.136	-2.491	-1.003	2.772	61.315	0.309	-8191	255	
8522.196	1	1	0	0	0.23397	0.36681	0.092096	0.17895	0.15632	0.11391	0.2151	0.11452	0.15488	0.079521	0.18205	0.33939	0.18398	0.33451	0.12713	0.037192	-2.5083	-2.5708	-3.0792	-2.7313	-2.9062	-3.2354	-2.6042	-2.8583	-3.0958	-2.5458	-3.1375	-2.8854	-2.675	-2.9333	-2.6354	-2.8	82.926	303.921	27.574	-15.935	168.949	14.239	296.484	48.150	312.161	182.681	265.215	185.735	42.549	97.255	111.447	191.036	0.00022213	9.7164e-05	1.246e-05	208.97	1.126e-06	8.3065e-07	250.3	65.332	8.1517e-07	1.7687e-07	98.952	39.331	24.569	11.363	1.1914e-06	20.81	8.9897e-06	6.2735e-06	1.643e-06	196.18	7.1025e-08	6.225e-08	236.73	61.288	7.2387e-08	6.6765e-08	87.095	35.361	22.199	10.178	6.9249e-08	18.217	328.324	18.306	17.086	-10.420	119.318	107.469	-10.766	-5.067	118.220	53.306	-7.368	-2.897	-1.280	2.635	93.521	0.074	-8191	255	
8522.294	1	1	0	0	0.24414	0.20115	0.083445	0.35104	0.23105	0.11646	0.16448	0.10687	0.032168	0.17697	0.13028	0.13585	0.19675	0.23853	0.18216	0.20252	-2.5208	-2.7417	-3.0042	-2.9083	-2.7	-3.1021	-2.5146	-2.8875	-3.0917	-2.4729	-3.0729	-2.9271	-2.7271	-3.1271	-2.6646	-2.85	105.596	59.154	35.906	110.680	26.858	283.297	136.510	198.730	322.672	161.890	40.828	139.573	189.990	304.650	123.187	309.995	0.00022211	5.6579e-05	1.9684e-05	208.32	4.2107e-07	5.7285e-07	248.96	65.456	2.7534e-07	9.1057e-07	99.816	39.631	24.777	11.46	5.91e-07	21.092	8.3488e-06	5.9953e-06	1.696e-06	196.19	7.087e-08	6.3796e-08	236.5	61.435	7.116e-08	6.3419e-08	87.755	35.571	22.393	10.223	7.3531e-08	18.44	329.324	31.372	61.739	-10.143	148.033	25.505	-10.903	-5.151	58.508	116.544	-7.710	-2.576	-1.143	2.554	51.253	0.274	-8191	255	
8522.388	1	1	0	0	0.2922	0.20691	0.040143	0.14318	0.13037	0.21743	0.19746	0.31137	0.032947	0.20547	0.083913	0.1327	0.29949	0.26718	0.055265	0.074936	-2.5375	-2.6063	-2.9646	-2.8958	-2.4146	-3.1083	-2.7208	-2.6917	-3.2375	-2.6104	-2.9021	-2.9583	-2.3708	-3.0833	-2.7333	-2.6833	156.770	314.583	287.606	83.396	131.554	66.850	148.846	169.418	138.336	-13.222	170.269	148.032	265.907	168.942	82.874	268.406	0.00018995	5.8811e-05	1.859e-05	209.79	9.3308e-07	3.3373e-07	248.56	65.952	8.7823e-07	6.6943e-07	100.39	39.928	24.734	11.529	6.297e-07	21.286	8.1917e-06	5.9018e-06	1.8394e-06	196.65	6.9321e-08	6.1095e-08	236.84	61.736	6.9203e-08	6.6309e-08	88.315	35.835	22.415	10.312	7.5921e-08	18.658	331.462	-1.000	67.152	-10.317	90.386	58.504	-10.899	-4.922	122.689	160.944	-7.261	-2.976	-1.035	2.801	93.788	0.273	-8191	255	
8522.484	1	1	0	0	0.027219	0.22395	0.10442	0.092686	0.22576	0.21367	0.27524	0.3099	0.1896	0.085998	0.17428	0.091563	0.25532	0.27572	0.12278	0.025717	-2.7896	-2.5354	-2.8583	-2.8979	-2.5125	-2.9146	-2.8187	-2.5542	-3.1875	-2.6688	-2.9792	-3.0104	-2.3979	-3.1271	-2.925	-2.7083	-3.830	230.624	289.530	282.484	-14.695	121.715	184.353	282.010	51.046	133.452	89.173	215.699	58.407	21.300	38.115	321.276	0.00021001	9.9628e-05	9.515e-06	208.43	6.6842e-07	4.9762e-07	251.08	67.223	8.5437e-07	7.7395e-07	102.54	40.5	25.406	11.761	7.7681e-07	21.623	8.0272e-06	6.019e-06	1.8288e-06	196.51	6.8331e-08	6.7376e-08	239.21	62.624	6.6287e-08	7.0729e-08	89.906	36.503	22.957	10.518	7.7365e-08	18.998	330.379	41.752	51.454	-10.115	118.696	120.648	-10.921	-5.202	110.064	146.527	-7.155	-3.103	-0.838	2.837	107.676	0.378	-8191	255	
8522.580	1	1	0	0	0.23633	0.078357	0.22346	0.097626	0.13933	0.13577	0.2201	0.045008	0.15725	0.11085	0.22903	0.11466	0.072622	0.10908	0.26636	0.18395	-2.5521	-2.7417	-2.9104	-2.9958	-2.4688	-3.1354	-2.7375	-2.7625	-3.2062	-2.425	-2.6583	-3.0479	-2.4813	-2.9958	-2.8812	-2.5062	219.707	-16.382	-16.101	82.857	221.341	331.882	257.750	319.652	62.239	304.293	190.974	116.560	275.737	309.049	60.552	288.360	0.00018914	6.6094e-05	2.0235e-05	210.18	3.5731e-07	7.2807e-07	252.92	66.295	4.6568e-07	4.9649e-07	102.97	40.394	25.299	11.728	8.2801e-07	21.635	7.8231e-06	6.3603e-06	1.9776e-06	198.27	7.1593e-08	6.8116e-08	239.33	62.467	6.8724e-08	7.2537e-08	89.795	36.273	22.827	10.475	7.2618e-08	18.832	324.975	37.188	72.727	-10.155	134.291	87.018	-11.111	-5.174	179.295	101.519	-7.211	-2.743	-1.299	2.876	42.891	0.164	-8191	255	
8522.701	1	1	0	0	0.19833	0.31213	0.21789	0.1708	0.28597	0.088269	0.066249	0.074066	0.25778	0.19145	0.29091	0.12501	0.14986	0.25692	0.13306	0.050075	-2.4562	-2.5396	-2.6333	-3.1	-2.5479	-2.9208	-2.8458	-2.6104	-2.9875	-2.9437	-2.8146	-3.0854	-2.6875	-2.9354	-2.9042	-2.3875	199.479	137.014	223.312	52.855	165.027	242.229	241.045	303.843	4.295	64.096	315.407	-8.889	253.240	246.081	81.856	95.534	0.00025295	7.0036e-05	7.9867e-06	209.6	4.4795e-07	1.539e-06	251	66.663	8.6275e-07	7.0189e-07	101.32	40.586	25.309	11.815	9.4254e-07	21.274	7.8628e-06	7.1525e-06	1.9097e-06	197.17	6.614e-08	7.5707e-08	238.31	62.821	6.9788e-08	7.7617e-08	89.324	36.306	22.911	10.504	7.5489e-08	18.71	332.766	37.334	126.634	-10.407	116.159	77.174	-11.195	-5.129	135.139	102.956	-7.176	-2.969	-1.130	2.467	32.451	0.638	-8191	255	
8522.797	1	1	0	0	0.10791	0.065989	0.16712	0.15424	0.13575	0.12736	0.27149	0.161	0.33595	0.16314	0.24786	0.11488	0.072433	0.1131	0.17072	0.2422	-2.5479	-2.7729	-2.5479	-3.0708	-2.7771	-2.7417	-3.0417	-2.5854	-2.9813	-2.9125	-2.6333	-3.1354	-2.7146	-2.7146	-2.8771	-2.5167	81.101	30.243	214.666	299.613	28.873	296.011	330.154	305.606	44.124	16.026	230.060	91.626	199.770	38.290	75.719	241.303	0.00025216	3.0076e-05	2.7225e-05	212.1	4.7382e-07	6.1837e-07	251.44	67.823	8.3556e-07	3.3674e-08	104.02	40.537	25.593	11.848	1.5821e-06	21.62	8.3568e-06	7.0791e-06	1.8634e-06	198.49	6.9523e-08	7.8856e-08	239.27	63.464	7.0746e-08	7.8936e-08	90.708	36.403	23.164	10.631	7.274e-08	18.906	328.632	-9.071	88.141	-9.776	60.721	52.736	-10.838	-5.431	142.348	16.010	-7.231	-2.905	-1.390	2.772	75.658	0.196	-8191	255	
8522.893	1	1	0	0	0.13658	0.30137	0.10752	0.093837	0.057588	0.21383	0.13047	0.15072	0.067685	0.234	0.096718	0.15238	0.1499	0.062784	0.16851	0.079312	-2.5167	-2.8208	-2.5146	-3.0042	-2.5958	-2.7021	-3.2188	-2.4375	-2.8875	-2.9208	-2.7479	-2.8583	-2.7	-2.6979	-3.1104	-2.4688	131.577	88.760	299.023	193.840	67.635	79.557	31.401	168.293	171.454	250.263	304.641	48.022	47.628	11.285	132.066	253.435	0.00021257	8.2215e-05	1.5108e-05	212.49	5.3594e-07	8.3099e-07	253.12	68.427	3.1696e-07	9.7024e-07	103.26	40.829	25.693	11.894	9.5933e-07	21.909	8.6953e-06	7.4107e-06	1.8456e-06	198.84	7.4376e-08	7.683e-08	240.01	63.762	7.7309e-08	7.5223e-08	90.955	36.666	23.268	10.715	7.2895e-08	19.132	330.524	26.061	31.898	-10.222	109.306	79.988	-10.659	-5.143	60.311	85.278	-7.433	-2.805	-1.407	2.544	97.649	0.473	-8191	255	
8522.989	1	1	0	0	0.14935	0.14889	0.26812	0.14054	0.22888	0.017884	0.23165	0.096232	0.091842	0.31499	0.23511	0.28011	0.075902	0.09691	0.099787	0.075139	-2.4583	-2.9958	-2.5104	-3.0583	-2.7812	-2.6708	-3.0438	-2.4917	-2.8688	-2.7521	-2.5542	-2.9708	-2.8604	-2.5812	-3.225	-2.6729	202.428	165.006	2.337	10.419	155.818	251.160	31.701	173.109	316.913	25.983	213.293	156.803	142.875	8.800	82.419	76.579	0.0002337	5.1583e-05	1.5424e-05	214.29	4.2221e-07	1.8797e-07	255.2	68.877	5.0387e-07	4.0008e-07	104.33	41.477	25.887	12.091	1.275e-06	22.146	9.1145e-06	6.9923e-06	1.8582e-06	200.14	8.0332e-08	7.5838e-08	241.95	64.585	8.2516e-08	7.458e-08	91.869	37.151	23.486	10.801	6.8653e-08	19.428	327.997	73.403	57.399	-10.023	106.118	144.512	-10.864	-5.192	84.958	77.310	-7.419	-2.858	-0.933	2.430	81.888	-0.066	-8191	255	
#DATA ENDS
