BOXY.EXE: ISS Imagent and Oximeter Data Acquisition Program Version 0.80
Ascii Record File

#ACQ INFORMATION
2  Detector Channels 
16  External MUX Channels 
1  Auxiliary Channels 
5000  Waveform (CCF) Frequency (Hz)
1  Waveforms Skipped 
30  Waveforms Averaged 
1  Cycles Averaged 
16  Acquisitions per Waveform 
10.0806  Updata Rate (Hz) 

#FILE INFORMATION
TRUE -- External MUX Channel results are PARSED.
FALSE -- AC DC and Phase are NOT grouped.
TRUE -- Companion Program Settings File CREATED.
FALSE -- AC data not excluded
FALSE -- DC data not excluded
FALSE -- Phase data not excluded
FALSE -- Auxillary Chn. data not excluded
Tab delimiters

#CALIBRATION STATE
TRUE -- Waveform Calibration Values APPLIED.


#AUX CALIBRATION VALUES
Val Type	aux-1	

Term	1.0000e+00	
Factor	0.0000e+00	


#WF CALIBRATION VALUES
A = Detector Channel
Val Type	A-AC1	A-AC2	A-AC3	A-AC4	A-AC5	A-AC6	A-AC7	A-AC8	A-AC9	A-AC10	A-AC11	A-AC12	A-AC13	A-AC14	A-AC15	A-AC16	A-DC1	A-DC2	A-DC3	A-DC4	A-DC5	A-DC6	A-DC7	A-DC8	A-DC9	A-DC10	A-DC11	A-DC12	A-DC13	A-DC14	A-DC15	A-DC16	A-Ph1	A-Ph2	A-Ph3	A-Ph4	A-Ph5	A-Ph6	A-Ph7	A-Ph8	A-Ph9	A-Ph10	A-Ph11	A-Ph12	A-Ph13	A-Ph14	A-Ph15	A-Ph16	

Term	0.00000e+00	0.00000e+00	0.00000e+00	0.00000e+00	0.00000e+00	0.00000e+00	0.00000e+00	0.00000e+00	0.00000e+00	0.00000e+00	0.00000e+00	0.00000e+00	0.00000e+00	0.00000e+00	0.00000e+00	0.00000e+00	0.00000e+00	0.00000e+00	0.00000e+00	0.00000e+00	0.00000e+00	0.00000e+00	0.00000e+00	0.00000e+00	0.00000e+00	0.00000e+00	0.00000e+00	0.00000e+00	0.00000e+00	0.00000e+00	0.00000e+00	0.00000e+00	0.00000e+00	0.00000e+00	0.00000e+00	0.00000e+00	0.00000e+00	0.00000e+00	0.00000e+00	0.00000e+00	0.00000e+00	0.00000e+00	0.00000e+00	0.00000e+00	0.00000e+00	0.00000e+00	0.00000e+00	0.00000e+00	
Factor	1.00000e+00	1.00000e+00	1.00000e+00	1.00000e+00	1.00000e+00	1.00000e+00	1.00000e+00	1.00000e+00	1.00000e+00	1.00000e+00	1.00000e+00	1.00000e+00	1.00000e+00	1.00000e+00	1.00000e+00	1.00000e+00	1.00000e+00	1.00000e+00	1.00000e+00	1.00000e+00	1.00000e+00	1.00000e+00	1.00000e+00	1.00000e+00	1.00000e+00	1.00000e+00	1.00000e+00	1.00000e+00	1.00000e+00	1.00000e+00	1.00000e+00	1.00000e+00	X	X	X	X	X	X	X	X	X	X	X	X	X	X	X	X	

B = Detector Channel
Val Type	B-AC1	B-AC2	B-AC3	B-AC4	B-AC5	B-AC6	B-AC7	B-AC8	B-AC9	B-AC10	B-AC11	B-AC12	B-AC13	B-AC14	B-AC15	B-AC16	B-DC1	B-DC2	B-DC3	B-DC4	B-DC5	B-DC6	B-DC7	B-DC8	B-DC9	B-DC10	B-DC11	B-DC12	B-DC13	B-DC14	B-DC15	B-DC16	B-Ph1	B-Ph2	B-Ph3	B-Ph4	B-Ph5	B-Ph6	B-Ph7	B-Ph8	B-Ph9	B-Ph10	B-Ph11	B-Ph12	B-Ph13	B-Ph14	B-Ph15	B-Ph16	

Term	0.00000e+00	0.00000e+00	0.00000e+00	0.00000e+00	0.00000e+00	0.00000e+00	0.00000e+00	0.00000e+00	0.00000e+00	0.00000e+00	0.00000e+00	0.00000e+00	0.00000e+00	0.00000e+00	0.00000e+00	0.00000e+00	0.00000e+00	0.00000e+00	0.00000e+00	0.00000e+00	0.00000e+00	0.00000e+00	0.00000e+00	0.00000e+00	0.00000e+00	0.00000e+00	0.00000e+00	0.00000e+00	0.00000e+00	0.00000e+00	0.00000e+00	0.00000e+00	-2.01755e+02	-1.34409e+02	-1.35399e+02	-1.83083e+02	-7.80460e+01	-8.12555e+01	-1.60467e+02	-1.62015e+02	-8.85724e+01	-1.01881e+02	-1.72403e+02	-1.72793e+02	-1.83201e+02	-1.78124e+02	-8.67152e+01	-1.50843e+02	
Factor	3.95846e-05	9.73124e-05	3.25810e-05	1.60056e-01	1.18439e-06	1.23687e-06	1.74041e-01	5.40722e-02	1.55454e-06	1.21527e-06	8.19567e-02	2.70238e-02	2.54596e-02	8.25599e-03	1.22934e-06	1.17843e-02	1.81825e-06	1.89526e-06	5.27697e-07	8.49425e-02	2.06298e-08	2.08177e-08	8.67731e-02	2.86734e-02	2.06830e-08	2.08248e-08	4.19639e-02	1.38319e-02	1.35346e-02	4.39431e-03	2.08435e-08	6.06864e-03	X	X	X	X	X	X	X	X	X	X	X	X	X	X	X	X	



#DISTANCE SETTINGS
A = Detector Channel
A-1	A-2	A-3	A-4	A-5	A-6	A-7	A-8	A-9	A-10	A-11	A-12	A-13	A-14	A-15	A-16	

2.5000e+00	3.0000e+00	2.5000e+00	3.0000e+00	2.0000e+00	3.0000e+00	1.5000e+00	3.0000e+00	3.0000e+00	3.0000e+00	3.0000e+00	3.0000e+00	3.0000e+00	3.0000e+00	1.5000e+00	3.0000e+00	

B = Detector Channel
B-1	B-2	B-3	B-4	B-5	B-6	B-7	B-8	B-9	B-10	B-11	B-12	B-13	B-14	B-15	B-16	

1.0000e+01	1.0000e+01	1.0000e+01	1.4400e+00	1.0000e+01	1.0000e+01	1.5100e+00	1.9400e+00	1.0000e+01	1.0000e+01	1.9900e+00	2.4900e+00	2.4100e+00	2.9000e+00	1.0000e+01	2.9800e+00	




#DATA BEGINS
time	group	step	mark	flag	A-AC1	A-AC2	A-AC3	A-AC4	A-AC5	A-AC6	A-AC7	A-AC8	A-AC9	A-AC10	A-AC11	A-AC12	A-AC13	A-AC14	A-AC15	A-AC16	A-DC1	A-DC2	A-DC3	A-DC4	A-DC5	A-DC6	A-DC7	A-DC8	A-DC9	A-DC10	A-DC11	A-DC12	A-DC13	A-DC14	A-DC15	A-DC16	A-Ph1	A-Ph2	A-Ph3	A-Ph4	A-Ph5	A-Ph6	A-Ph7	A-Ph8	A-Ph9	A-Ph10	A-Ph11	A-Ph12	A-Ph13	A-Ph14	A-Ph15	A-Ph16	B-AC1	B-AC2	B-AC3	B-AC4	B-AC5	B-AC6	B-AC7	B-AC8	B-AC9	B-AC10	B-AC11	B-AC12	B-AC13	B-AC14	B-AC15	B-AC16	B-DC1	B-DC2	B-DC3	B-DC4	B-DC5	B-DC6	B-DC7	B-DC8	B-DC9	B-DC10	B-DC11	B-DC12	B-DC13	B-DC14	B-DC15	B-DC16	B-Ph1	B-Ph2	B-Ph3	B-Ph4	B-Ph5	B-Ph6	B-Ph7	B-Ph8	B-Ph9	B-Ph10	B-Ph11	B-Ph12	B-Ph13	B-Ph14	B-Ph15	B-Ph16	aux-1	digaux	

13911.708	1	1	0	768	0.17237	0.25351	0.24074	0.41177	0.088261	0.29866	0.31962	0.1066	0.16935	0.14484	0.14615	0.16427	0.19474	0.13001	0.0615	0.12651	-2.2687	-2.1208	-2.5042	-2.7521	-2.3521	-2.8354	-2.5312	-2.6958	-2.7979	-2.3271	-2.7896	-2.7417	-2.3479	-2.6417	-2.3625	-2.5062	190.710	-61.249	-104.041	143.018	-77.951	-91.060	156.793	-134.703	163.201	158.980	140.657	111.970	-149.382	-160.395	77.260	152.302	0.00085261	0.00072832	9.5316e-05	1294	3.2656e-06	3.7971e-06	1294.1	346.12	9.474e-06	2.9096e-06	393.09	129.13	111.46	37.932	3.0913e-06	47.879	0.0018009	0.001847	0.00051689	1374	2.015e-05	2.0297e-05	1377.1	374	2.0037e-05	2.0074e-05	431.33	142.05	123.71	42.117	2.0138e-05	53.579	124.271	-143.600	184.333	-155.461	-102.011	-75.051	-155.809	-150.996	44.331	-122.519	-151.365	-147.639	-146.869	-141.745	-152.266	-142.857	-8191	255	
13911.804	1	1	0	0	0.11923	0.15977	0.20885	0.014372	0.12241	0.32275	0.4388	0.20993	0.14767	0.23165	0.098115	0.10344	0.11833	0.11793	0.15827	0.13772	-2.2833	-2.1396	-2.6625	-2.7208	-2.2542	-2.8042	-2.7062	-2.5625	-2.7917	-2.3042	-2.6937	-2.7667	-2.3229	-2.7917	-2.5896	-2.5604	-83.040	-142.818	124.035	167.597	53.243	71.362	112.015	136.480	-40.012	-53.352	6.220	26.874	110.044	175.527	-127.863	-39.710	0.00095605	0.00055268	5.5623e-05	1294.7	4.1563e-06	1.3296e-05	1292.4	347.07	5.9972e-06	1.4597e-05	394.41	129.39	111.29	37.857	1.6808e-06	47.648	0.0017925	0.0018258	0.00051197	1374.2	1.9702e-05	1.9955e-05	1376.6	374.16	1.9792e-05	1.9888e-05	430.76	141.67	123.52	42.081	2.002e-05	53.47	126.985	-96.393	115.652	-155.539	-12.165	-64.706	-155.700	-151.016	-41.276	-17.847	-151.313	-147.309	-146.678	-141.745	-51.393	-142.655	-8191	255	
13911.901	1	1	0	0	0.16236	0.11308	0.28083	0.25022	0.25259	0.08728	0.34563	0.093978	0.24473	0.11144	0.2223	0.12731	0.1007	0.26897	0.10651	0.27587	-2.3583	-2.2562	-2.7208	-2.9167	-2.2042	-2.5667	-2.9125	-2.4938	-2.7479	-2.5229	-2.6146	-2.7958	-2.3167	-2.6104	-2.425	-2.4208	57.401	-46.791	-105.592	101.297	-30.636	173.765	176.335	142.310	144.194	26.524	50.027	139.505	52.907	148.346	-143.287	125.496	0.00092471	0.00071883	8.9008e-05	1291.6	4.0523e-06	2.657e-06	1288.4	347.47	3.9853e-06	6.0391e-06	392.49	129.41	111.96	37.893	5.1262e-06	47.777	0.0017615	0.0018072	0.00050031	1371	1.9633e-05	1.9821e-05	1376	373.49	1.9603e-05	1.9751e-05	430.42	141.54	123.54	42.081	2.0069e-05	53.55	117.451	-142.626	186.140	-155.470	147.601	-37.574	-155.770	-150.698	-144.894	-84.330	-151.374	-147.561	-146.884	-141.943	-22.025	-142.773	-8191	255	
13911.997	1	1	0	0	0.024189	0.14419	0.11748	0.32892	0.15657	0.16558	0.16767	0.12163	0.079732	0.19915	0.2059	0.33688	0.29182	0.11274	0.21037	0.19807	-2.1854	-2.3333	-2.4729	-2.9125	-2.2604	-2.5896	-2.6813	-2.4313	-2.675	-2.4583	-2.7417	-2.8479	-2.4896	-2.8563	-2.7833	-2.3771	63.921	-89.154	-64.939	127.864	9.323	189.383	103.432	-164.769	22.296	-71.664	143.255	179.077	190.652	-129.622	41.096	94.536	0.0010627	0.00057646	0.0001381	1296.8	8.8794e-06	4.3079e-06	1289.4	346.63	3.371e-06	2.8986e-06	395.23	128.59	112.01	37.743	6.3259e-06	47.744	0.0017787	0.0018152	0.00051051	1373.8	1.972e-05	1.9913e-05	1374.6	373.23	1.9834e-05	1.9865e-05	431.32	141.58	123.7	42.061	1.9831e-05	53.526	126.658	-95.626	-107.274	-155.465	23.485	71.724	-155.515	-150.715	-115.247	-11.932	-151.340	-147.473	-147.103	-141.965	36.915	-142.553	-8191	255	
13912.093	1	1	0	0	0.14532	0.071457	0.17831	0.29593	0.15565	0.093444	0.29613	0.22142	0.23525	0.40366	0.35037	0.23633	0.066268	0.26323	0.12667	0.21425	-2.2958	-2.2896	-2.3042	-3.0625	-2.2938	-2.6146	-2.9396	-2.4625	-2.7271	-2.7708	-2.3812	-2.7542	-2.5479	-2.7938	-2.7417	-2.3417	106.057	16.838	-23.199	171.589	95.971	137.604	128.030	152.965	67.734	153.191	152.634	83.022	81.117	126.598	-5.137	183.204	0.0011502	0.00037363	0.00016924	1289.2	1.0362e-05	9.3174e-06	1288.4	347.76	3.3999e-06	1.0385e-05	393.36	129.26	111.36	37.876	1.9223e-06	47.853	0.0017542	0.0018121	0.00050451	1371.4	1.968e-05	1.9941e-05	1376.1	373.64	1.973e-05	1.9915e-05	430.59	141.79	123.64	42.128	2.0041e-05	53.403	128.935	-5.844	53.741	-155.582	3.289	-80.146	-155.618	-151.130	167.953	-143.874	-151.410	-147.504	-146.541	-141.525	169.657	-142.610	-8191	255	
13912.189	1	1	0	0	0.11957	0.10889	0.14635	0.253	0.13418	0.20426	0.15663	0.17791	0.34011	0.095277	0.21838	0.20692	0.28064	0.23844	0.14013	0.30682	-2.0333	-2.4813	-2.45	-2.9583	-2.3021	-2.5771	-2.9708	-2.6063	-2.7646	-2.5375	-2.625	-2.9458	-2.6021	-2.5646	-2.8312	-2.4104	76.201	63.419	-154.826	-149.898	148.179	138.081	119.166	-129.281	81.097	83.523	117.955	-136.472	-131.107	186.159	185.029	100.061	0.00098614	0.0010703	0.00017083	1295.5	4.4895e-06	1.4165e-05	1293.7	346.66	3.2601e-06	9.793e-06	393.23	129.46	112.06	37.952	6.291e-06	47.673	0.0017785	0.0018376	0.00050849	1372	1.9826e-05	2.0098e-05	1376.7	373.4	2.0019e-05	2.0071e-05	431.16	141.68	123.74	42.112	2.0056e-05	53.499	128.965	-152.297	-79.868	-155.329	-2.360	31.311	-155.761	-150.787	64.061	-80.247	-151.097	-147.315	-146.432	-141.595	-20.706	-142.811	-8191	255	
13912.310	1	1	0	0	0.16034	0.15486	0.12786	0.20462	0.23306	0.19774	0.1336	0.3095	0.20816	0.13128	0.13233	0.15406	0.13772	0.056214	0.2782	0.065264	-2.2458	-2.7583	-2.3375	-3.0438	-2.6354	-2.5062	-3.1333	-2.5271	-2.6854	-2.6875	-2.5354	-3.1167	-2.7271	-2.4375	-2.8729	-2.2771	-78.633	46.430	141.800	141.108	-163.110	-10.900	-111.008	149.050	42.768	-124.871	162.915	188.684	66.369	151.529	-46.716	82.791	0.0010335	0.0012715	0.00029795	1292.7	9.4045e-06	9.7048e-06	1294.6	346.66	1.7137e-05	7.9569e-06	392.97	129.33	111.35	37.881	1.7617e-05	47.762	0.0017753	0.0018346	0.00051036	1373.1	1.9968e-05	2.0176e-05	1378.3	373.68	2.0049e-05	2.0149e-05	431.25	141.92	123.46	42.083	2.0169e-05	53.554	131.927	-105.130	-92.528	-155.241	-7.417	36.780	-155.857	-150.879	-106.624	-20.896	-151.408	-147.478	-146.708	-141.825	20.420	-142.576	-8191	255	
13912.404	1	1	0	0	0.14621	0.28533	0.13555	0.19634	0.052532	0.089196	0.091928	0.35289	0.10875	0.19117	0.27448	0.11544	0.25201	0.057363	0.26914	0.27023	-2.1688	-2.6667	-2.3375	-2.9188	-2.6354	-2.4167	-3.0917	-2.5021	-2.6521	-2.7062	-2.6396	-2.8396	-2.7708	-2.5167	-2.5646	-2.5438	151.059	-118.448	-145.807	-157.073	-90.897	-72.156	124.777	76.522	-151.194	99.868	88.116	-156.660	-122.535	-150.469	39.349	189.031	0.0012256	0.00053053	0.00031237	1293.6	5.8536e-06	1.878e-06	1289.9	348.17	6.2934e-06	9.4088e-06	393.61	128.62	111.19	38.099	4.9169e-06	47.771	0.0017867	0.0018427	0.00050694	1371.3	1.9939e-05	2.0209e-05	1376.5	373.88	1.9984e-05	2.0077e-05	430.81	141.55	123.64	42.113	2.004e-05	53.562	124.677	-107.908	-80.522	-155.565	-44.246	-24.244	-155.657	-150.974	6.004	-62.989	-151.362	-147.439	-146.535	-141.575	-106.920	-142.669	-8191	255	
13912.500	1	1	0	0	0.063556	0.11386	0.11559	0.39874	0.1407	0.15064	0.059353	0.14237	0.18774	0.11936	0.1793	0.31478	0.10551	0.15404	0.06801	0.14993	-2.1	-2.7417	-2.1708	-2.7354	-2.6917	-2.4479	-2.9354	-2.5958	-2.525	-2.8271	-2.5125	-2.6312	-2.8063	-2.5208	-2.6896	-2.7229	-163.564	-64.510	-66.168	-158.317	64.402	-10.772	130.870	57.571	92.197	187.476	183.008	81.039	10.690	-134.242	118.286	47.498	0.00091501	0.0005517	0.00022707	1293.8	4.036e-06	4.5916e-06	1292.8	346.56	8.3561e-06	1.2134e-05	393	129.08	111.22	38.003	1.2574e-05	47.242	0.0017802	0.0018309	0.00050503	1371.8	1.9834e-05	1.9964e-05	1376.5	372.97	1.9813e-05	2.0083e-05	430.45	141.81	123.28	42.064	2.0124e-05	53.491	112.630	23.928	-88.970	-155.596	-34.671	-52.767	-155.666	-150.977	-10.349	15.375	-151.282	-147.218	-146.848	-141.531	-72.633	-142.675	-8191	255	
13912.596	1	1	0	0	0.14496	0.085197	0.061899	0.19986	0.17915	0.10673	0.16369	0.27711	0.039267	0.026315	0.24959	0.21184	0.094631	0.089578	0.29834	0.052253	-1.8792	-2.7375	-2.5	-2.8292	-2.8187	-2.4188	-2.8479	-2.5958	-2.3333	-2.8021	-2.5875	-2.6729	-2.9125	-2.2667	-2.7542	-2.7708	-139.851	106.544	-149.642	183.614	-126.349	128.623	153.153	-168.599	-35.386	127.277	152.557	163.019	80.010	-78.578	-145.658	-122.434	0.00077845	0.00021932	8.0835e-05	1291.1	5.5033e-06	8.5542e-06	1287.5	346.53	9.3121e-06	3.2819e-06	392.12	128.36	111.07	37.997	1.1933e-05	47.663	0.0017828	0.0018256	0.00051005	1372.1	1.9933e-05	2.0065e-05	1373.9	373.34	2.0077e-05	2.0013e-05	430.68	141.65	123.54	42.089	2.0192e-05	53.561	132.318	-49.439	-167.932	-155.569	-138.124	-91.583	-155.627	-150.731	107.739	116.280	-151.499	-147.503	-146.594	-141.629	15.669	-142.747	-8191	255	
13912.692	1	1	0	0	0.082128	0.14728	0.22945	0.21997	0.235	0.15575	0.15246	0.22451	0.47547	0.044455	0.055507	0.20511	0.052115	0.15452	0.036312	0.4312	-2.0375	-2.7771	-2.3271	-2.825	-2.6875	-2.3292	-2.8167	-2.7021	-2.2	-2.8042	-2.5583	-2.4	-2.95	-2.3896	-2.4313	-2.8042	99.007	-115.863	137.966	-20.954	-76.936	-112.640	177.048	164.208	-154.613	-35.400	-90.133	169.788	-140.653	-159.059	44.278	128.211	0.0010893	0.00056766	0.00016905	1288.4	6.2362e-06	2.8236e-06	1291.9	346.41	1.6461e-05	6.3438e-06	392.11	128.87	111.82	37.872	4.0369e-06	47.879	0.0017777	0.001835	0.00050444	1370.7	1.9895e-05	1.9964e-05	1376.5	373.49	1.9838e-05	1.9957e-05	430.39	141.82	123.44	42.088	2.0118e-05	53.479	124.065	-143.167	3.418	-155.330	-4.800	-60.199	-155.532	-151.088	-53.784	104.667	-151.754	-147.535	-146.833	-141.942	-136.790	-142.554	-8191	255	
13912.789	1	1	0	0	0.13555	0.13502	0.053371	0.30864	0.21476	0.18431	0.27304	0.097395	0.14139	0.30974	0.12856	0.31024	0.33104	0.2117	0.2608	0.1164	-1.9771	-2.7417	-2.6063	-2.5083	-2.7771	-2.4813	-2.8083	-3.0083	-2.2979	-2.6667	-2.6167	-2.6396	-2.7771	-2.425	-2.7729	-2.6188	-154.733	-63.380	89.774	172.731	-9.358	-54.414	-156.365	182.013	88.520	-146.425	138.421	132.604	173.189	101.425	71.559	147.005	0.0011395	0.00052345	0.00015416	1294.5	1.3168e-06	1.5973e-06	1291.8	346.27	9.5947e-06	5.6369e-06	391.98	129.57	111.74	37.866	4.5369e-06	47.754	0.0017787	0.001824	0.00051058	1372.3	1.9837e-05	2.009e-05	1374.9	373.09	2.0034e-05	2.0276e-05	430.33	141.86	123.45	42.057	2.0194e-05	53.576	124.350	-137.731	4.408	-155.431	76.565	-55.312	-155.733	-150.762	-89.264	42.573	-151.225	-147.307	-147.105	-141.839	-94.199	-142.608	-8191	255	
13912.909	1	1	0	0	0.1593	0.35878	0.15073	0.29183	0.1848	0.36309	0.19097	0.27714	0.27176	0.16077	0.19836	0.10014	0.29975	0.087369	0.058981	0.15114	-1.8083	-2.7917	-2.5187	-2.5104	-2.7854	-2.3708	-2.7854	-2.8667	-2.4062	-2.5875	-2.7687	-2.4104	-2.8063	-2.5563	-2.5375	-2.7042	-20.328	-120.614	173.022	128.370	7.699	-104.933	150.378	173.553	5.925	-50.762	187.901	64.649	91.605	7.949	85.393	38.847	0.0010406	0.00049436	0.00020221	1289.3	3.718e-06	2.4399e-06	1294.7	345.3	7.3865e-06	1.5005e-06	395.17	129.3	111.36	38.056	8.8527e-06	47.612	0.0017874	0.0018292	0.00050934	1370.9	1.9995e-05	1.9951e-05	1376.2	372.69	1.9786e-05	2.0138e-05	431.04	141.65	123.41	42.104	2.0025e-05	53.539	130.058	-49.288	-0.799	-155.569	17.042	-89.476	-155.566	-150.874	-112.285	61.257	-151.390	-147.540	-146.875	-141.869	-84.807	-142.700	-8191	255	
13913.005	1	1	0	0	0.1555	0.096878	0.12974	0.17541	0.17811	0.075556	0.17364	0.072783	0.29234	0.041401	0.1947	0.20529	0.070144	0.2283	0.11964	0.13025	-1.8937	-2.7188	-2.5229	-2.5604	-2.7146	-2.5	-2.775	-2.7812	-2.2062	-2.5083	-2.85	-2.4396	-2.8875	-2.5646	-2.4938	-2.7792	-37.588	22.042	134.873	158.919	18.855	-143.493	141.386	171.578	176.465	12.106	157.062	-155.730	60.673	-118.923	76.672	189.882	0.00075751	0.0004541	0.00012819	1289.3	2.9698e-06	1.6646e-06	1294	345.72	4.0733e-06	6.1396e-06	393.03	129.27	111.74	37.684	1.0508e-05	47.522	0.0017838	0.0018278	0.00051266	1368.5	2.0028e-05	2.0246e-05	1377.4	373.34	2.0018e-05	2.0217e-05	430.65	141.8	123.69	42.051	2.0221e-05	53.479	125.486	-104.637	-104.274	-155.445	-137.195	-142.524	-155.626	-150.646	133.934	-63.187	-151.157	-147.398	-146.836	-142.054	31.191	-142.540	-8191	255	
13913.102	1	1	0	0	0.17315	0.056019	0.15206	0.20652	0.049132	0.11522	0.3621	0.24853	0.44008	0.18692	0.16161	0.17902	0.12871	0.19714	0.12892	0.13064	-1.9271	-2.6188	-2.6917	-2.4521	-2.8563	-2.4292	-2.4938	-2.95	-2.3729	-2.5438	-2.7646	-2.3917	-2.7417	-2.5187	-2.25	-2.9792	-121.764	128.082	1.173	92.252	11.749	-164.141	84.722	-164.463	-120.640	-123.797	66.089	103.472	114.661	185.980	-54.338	66.764	0.0011986	0.0006477	0.00031161	1292.8	6.4688e-06	9.5002e-06	1289.1	345.9	4.0097e-06	1.0502e-05	393.72	128.88	111.42	37.634	6.3777e-06	47.803	0.0017743	0.0018295	0.00050633	1369.3	1.9816e-05	1.9991e-05	1373.7	373.13	1.982e-05	2.0217e-05	431.17	141.48	123.4	41.983	2.0153e-05	53.575	137.794	-53.038	-72.916	-155.287	-16.613	-91.933	-155.374	-150.759	-161.882	-59.842	-151.259	-147.411	-146.698	-141.929	-11.954	-142.515	-8191	255	
13913.198	1	1	0	0	0.07883	0.075475	0.2091	0.25688	0.087584	0.0067077	0.37055	0.40507	0.24267	0.06937	0.12502	0.13193	0.051114	0.13392	0.15952	0.045495	-1.7792	-2.3979	-2.5687	-2.25	-2.4188	-2.6437	-2.5104	-2.8042	-2.3646	-2.4458	-2.7458	-2.4083	-2.725	-2.7854	-2.2875	-2.9688	-24.411	155.442	-15.027	70.026	-88.484	121.346	133.464	72.377	-114.323	-165.851	133.979	-17.372	19.178	190.200	173.633	-34.164	0.00078115	0.0004925	5.4965e-05	1291.6	1.0154e-05	2.8313e-06	1291.2	346.28	9.2546e-06	1.1538e-05	392.65	128.63	110.64	37.79	4.7713e-06	47.696	0.0017998	0.001848	0.00051088	1369.8	2e-05	2.0007e-05	1374.3	372.24	2.0073e-05	2.0259e-05	429.94	141.58	123.12	42.081	2.029e-05	53.487	151.754	71.927	44.210	-155.320	-111.146	-60.135	-155.731	-150.901	-132.710	-76.734	-151.279	-147.757	-146.817	-141.741	-53.060	-142.573	-8191	255	
13913.294	1	1	0	0	0.065744	0.094511	0.14271	0.2834	0.1476	0.14447	0.23234	0.18784	0.23242	0.041313	0.33379	0.2239	0.068295	0.26796	0.1381	0.12608	-1.7354	-2.5833	-2.7625	-2.3812	-2.5958	-2.6917	-2.5271	-2.7458	-2.5708	-2.4417	-2.8229	-2.5208	-2.6521	-2.725	-2.2479	-2.8271	-75.772	-135.073	98.435	163.543	156.540	31.461	38.478	117.972	-134.443	-117.726	172.131	129.686	87.731	-115.059	162.182	-24.529	0.0010205	0.0011454	0.00012098	1290.9	5.09e-06	1.0001e-05	1293.6	345.67	4.8776e-06	3.872e-06	390.5	128.69	111.27	37.854	8.1373e-07	47.827	0.0017975	0.0018517	0.00051398	1369.1	2.0292e-05	2.029e-05	1376.2	372.79	2.0247e-05	2.03e-05	429.62	141.72	123.35	42.026	2.0212e-05	53.511	128.784	-100.502	-72.650	-155.508	25.160	17.290	-155.946	-150.820	-1.361	-5.430	-151.601	-147.519	-146.707	-141.487	-64.327	-142.677	-8191	255	
13913.390	1	1	0	0	0.31413	0.11368	0.56306	0.12353	0.41112	0.10655	0.088106	0.32817	0.34643	0.20149	0.098385	0.098908	0.24535	0.064282	0.33816	0.24444	-1.9396	-2.4292	-2.6354	-2.5458	-2.4333	-2.7167	-2.45	-2.7354	-2.4437	-2.3021	-2.8021	-2.4542	-2.4396	-2.8167	-2.1437	-2.7375	81.614	-68.369	110.198	55.049	-77.981	82.852	-26.374	135.030	-101.625	-23.434	-117.240	-151.486	138.779	110.013	-168.654	88.257	0.00080939	0.0007734	0.00020653	1284.3	9.6271e-06	5.8597e-06	1287.8	346.17	5.907e-06	4.1891e-06	392.17	128.92	111.59	37.616	2.8471e-06	47.574	0.001808	0.0018536	0.00051463	1369.1	2.0179e-05	2.0249e-05	1374.1	372.68	1.9997e-05	2.0142e-05	429.87	141.51	123.4	41.936	1.9893e-05	53.467	134.516	-60.722	8.715	-155.190	-110.489	-80.489	-155.618	-150.803	-88.652	-36.412	-151.138	-147.260	-146.554	-141.828	-75.888	-142.688	-8191	255	
13913.486	1	1	0	0	0.14948	0.04619	0.058867	0.23536	0.16164	0.21105	0.48416	0.092938	0.21589	0.037586	0.16156	0.2741	0.42605	0.19162	0.10874	0.11705	-2.1896	-2.35	-2.7021	-2.525	-2.4313	-2.7313	-2.4708	-2.6854	-2.6708	-2.3208	-2.8208	-2.5292	-2.4146	-2.9146	-2.4042	-2.8146	-39.252	53.305	149.171	142.925	168.395	140.719	142.659	-18.679	126.236	2.647	139.643	-168.184	106.971	-152.127	-117.878	185.512	0.0010977	0.00016995	0.00014394	1293	2.7667e-06	1.0584e-06	1288.8	345.3	2.8569e-06	4.0006e-06	391.36	129.44	111.43	37.618	2.0978e-06	47.641	0.0017867	0.0018344	0.00050703	1370	1.9771e-05	1.9987e-05	1374.8	372.79	1.9839e-05	1.9919e-05	429.63	141.55	123.39	41.943	2.0213e-05	53.457	132.235	189.057	66.985	-155.402	-73.871	-43.759	-155.737	-150.830	170.582	-56.721	-151.077	-147.328	-146.713	-141.933	146.563	-142.547	-8191	255	
13913.581	1	1	0	0	0.10087	0.28962	0.14319	0.2669	0.1427	0.14713	0.22535	0.28508	0.25557	0.10297	0.17261	0.25306	0.34712	0.15743	0.20767	0.14648	-2.1083	-2.2875	-2.4938	-2.5729	-2.3937	-2.7313	-2.4688	-2.6688	-2.7	-2.1083	-2.9708	-2.65	-2.2729	-2.9958	-2.3875	-2.6958	141.312	-53.650	133.451	99.404	115.345	-57.390	33.077	148.003	-141.031	184.765	124.669	-149.805	169.562	146.428	-41.194	55.628	0.001284	0.00037312	0.00032715	1286.4	7.7568e-06	6.6188e-06	1296.6	344.5	6.6355e-06	2.9832e-06	391.39	128.49	110.98	37.542	1.4431e-05	47.323	0.0018011	0.0018445	0.00051253	1366.9	2.0367e-05	2.0536e-05	1376.3	372.74	2.0353e-05	2.0477e-05	429.99	141.83	123.49	41.945	2.0607e-05	53.424	130.534	-46.224	-25.952	-155.611	-45.461	103.235	-155.717	-150.964	-85.734	26.970	-151.362	-147.665	-146.586	-141.731	-24.892	-142.354	-8191	255	
13913.678	1	1	0	0	0.24927	0.053398	0.050955	0.26929	0.29267	0.16145	0.071339	0.31322	0.10142	0.16403	0.17461	0.1906	0.13327	0.21881	0.032902	0.37529	-2.1771	-2.1854	-2.6833	-2.8104	-2.3417	-2.8646	-2.5583	-2.6646	-2.6583	-2.1896	-2.7167	-2.6833	-2.2958	-2.9875	-2.5083	-2.6375	80.183	186.688	-121.174	152.290	85.166	-38.284	55.676	170.436	-83.814	165.927	132.359	179.366	180.269	-154.579	-13.216	150.517	0.00091755	0.0013553	0.00021851	1284.7	1.0197e-05	4.2767e-06	1287.2	344.51	9.8559e-06	1.2172e-05	391.71	128.8	111.26	37.632	1.1334e-05	47.354	0.0018345	0.0018717	0.00052337	1366.2	2.0547e-05	2.0678e-05	1374.1	373.11	2.0651e-05	2.0866e-05	430.97	141.64	123.29	41.961	2.0819e-05	53.425	110.874	-86.200	-154.364	-155.482	-39.968	57.496	-155.757	-150.867	-100.261	-60.827	-151.390	-147.398	-146.769	-141.904	-111.299	-142.408	-8191	255	
13913.797	1	1	0	0	0.16533	0.34922	0.25083	0.24464	0.21315	0.024601	0.31993	0.21994	0.066319	0.017357	0.33952	0.4062	0.15455	0.1817	0.16688	0.24661	-2.2562	-2.2021	-2.5938	-2.9354	-2.0854	-2.6625	-2.6333	-2.4562	-2.6646	-2.3729	-2.6125	-2.7958	-2.3083	-2.8187	-2.5583	-2.2833	167.090	69.053	75.885	140.469	-62.062	10.520	83.908	124.394	-19.505	-96.158	156.271	136.541	-144.425	177.544	90.410	106.762	0.0012571	0.00077733	0.00042172	1283	1.1805e-05	5.5903e-06	1285.3	343.53	1.0241e-05	3.2617e-06	390.03	128.31	110.27	37.535	1.6609e-05	47.552	0.0018506	0.0018798	0.00052784	1366.8	2.0371e-05	2.0611e-05	1370.4	372.08	2.0515e-05	2.0746e-05	430.17	141.26	123.07	41.93	2.0571e-05	53.315	103.359	-81.400	-108.980	-155.382	11.818	-103.353	-155.653	-150.908	-34.038	82.949	-151.535	-147.419	-146.766	-141.831	-72.677	-142.977	-8191	255	
13913.869	1	1	0	0	0.17553	0.16456	0.17571	0.22148	0.33903	0.067749	0.25598	0.1172	0.16591	0.11715	0.24343	0.27326	0.18745	0.14185	0.26334	0.082448	-2.3042	-2.3	-2.5333	-2.925	-2.3458	-2.7896	-2.5854	-2.3667	-2.8583	-2.3271	-2.4604	-2.7208	-2.4333	-2.7208	-2.6354	-2.275	70.581	-147.985	111.220	175.998	-0.925	7.412	89.226	121.936	141.057	154.680	130.907	126.901	106.600	-131.063	-14.205	-158.584	0.00086163	0.00092574	0.00012989	1287.6	6.2086e-06	9.4712e-06	1292.8	345.51	1.2223e-05	7.262e-06	392.17	127.92	111.28	37.583	6.4422e-06	47.76	0.0018147	0.001849	0.00051402	1367.6	1.9877e-05	2.0074e-05	1373	372.36	1.9646e-05	1.9674e-05	428.77	140.86	122.75	41.75	1.9441e-05	53.25	136.280	-78.882	-31.763	-155.454	-103.493	-61.558	-155.751	-150.913	-106.129	-53.789	-151.295	-147.567	-146.900	-142.040	-28.249	-142.652	-8191	255	
13913.990	1	1	0	0	0.30133	0.065583	0.28879	0.27293	0.15464	0.29914	0.28931	0.08894	0.034381	0.23001	0.31549	0.18424	0.20804	0.20981	0.27741	0.20928	-2.3667	-2.5021	-2.4625	-2.9104	-2.3438	-2.5521	-2.9104	-2.4646	-2.7417	-2.5	-2.4417	-2.8	-2.3146	-2.6354	-2.5833	-2.2729	-58.762	-48.408	80.803	143.860	-60.166	85.123	157.894	152.685	-14.683	-6.492	135.041	115.958	-161.172	99.782	-107.991	-63.110	0.0010818	0.00052564	0.00034042	1289.3	9.179e-06	4.6379e-06	1280.6	344.36	2.2839e-06	5.0086e-06	390.86	129.13	111.34	37.842	4.1278e-06	47.477	0.0017252	0.0017728	0.00049734	1363.9	1.9404e-05	1.9777e-05	1365.9	371.12	1.9377e-05	1.9318e-05	427.53	140.89	122.55	41.848	1.9182e-05	53.118	127.120	-162.071	-134.644	-155.383	-51.908	11.377	-155.711	-150.888	167.999	-35.342	-151.337	-147.370	-146.645	-141.560	-39.845	-142.493	-8191	255	
13914.086	1	1	0	0	0.2904	0.17559	0.13143	0.23711	0.11352	0.068719	0.26143	0.083034	0.067256	0.4588	0.21832	0.11916	0.32098	0.059874	0.10883	0.209	-2.1604	-2.3854	-2.3063	-2.8625	-2.3333	-2.3604	-2.9542	-2.4396	-2.4479	-2.4604	-2.4958	-2.9521	-2.4042	-2.3646	-2.7417	-2.3292	-153.170	185.256	30.699	136.474	172.415	15.367	132.821	-158.627	-48.181	88.199	93.076	177.456	130.081	154.884	-14.842	-60.777	0.0011261	9.613e-05	8.589e-05	1286.2	5.7823e-06	1.6448e-05	1279.4	345.78	1.5637e-05	1.3338e-05	391.72	129.57	111.12	37.777	1.0882e-05	47.724	0.0017131	0.0017561	0.00048752	1361.6	1.8892e-05	1.9019e-05	1364.2	370.04	1.8528e-05	1.8562e-05	426.14	140.62	122.33	41.674	1.8435e-05	53.056	115.866	108.900	92.534	-155.346	19.054	-50.828	-155.536	-150.877	-54.865	21.696	-151.430	-147.538	-146.870	-141.684	-11.056	-142.485	-8191	255	
13914.182	1	1	0	0	0.2058	0.16378	0.26913	0.24754	0.10104	0.10875	0.4064	0.14708	0.31467	0.11873	0.21474	0.25008	0.21511	0.0095967	0.15392	0.18555	-2.0187	-2.6396	-2.1667	-2.9229	-2.375	-2.4146	-2.8271	-2.4188	-2.8021	-2.6729	-2.4833	-2.8021	-2.4667	-2.45	-2.6896	-2.5438	163.093	154.954	40.932	-149.937	44.094	-48.229	108.333	160.175	22.355	182.407	186.768	146.534	-154.196	-164.538	111.737	97.328	0.00094208	0.00070343	0.00016333	1284.7	2.882e-06	1.068e-05	1290.1	346	1.0219e-05	7.0699e-07	392.12	128.79	111.39	37.737	3.9739e-06	47.818	0.0016419	0.0016652	0.00046197	1359.2	1.7847e-05	1.809e-05	1363.5	369.52	1.7773e-05	1.7891e-05	425.65	140.35	122.18	41.665	1.8523e-05	53.16	130.892	-131.199	-59.074	-155.319	-52.674	-83.101	-155.461	-150.823	-86.574	-60.595	-151.411	-147.537	-146.542	-141.762	17.077	-142.407	-8191	255	
13914.278	1	1	0	0	0.032934	0.15882	0.094343	0.20421	0.10102	0.084911	0.13794	0.24048	0.20627	0.41099	0.09245	0.13933	0.23009	0.15197	0.10114	0.080998	-2.1229	-2.6146	-2.1604	-2.9813	-2.4708	-2.4313	-3.0792	-2.2979	-2.5667	-2.8292	-2.5062	-2.8063	-2.5625	-2.3333	-2.6312	-2.2271	72.843	-166.030	-132.026	-168.499	140.158	-13.968	-168.575	74.981	137.376	-100.927	-146.115	132.807	133.507	38.416	104.461	105.723	0.00086915	0.00063394	0.00015466	1289.2	7.7846e-06	4.4242e-06	1291.7	343.92	6.9779e-06	1.0154e-05	391.64	128.56	110.9	37.712	4.7069e-06	47.12	0.0016821	0.0017217	0.00047945	1361.9	1.8846e-05	1.8981e-05	1367.4	370.33	1.885e-05	1.9022e-05	426.82	140.49	122.42	41.793	1.9481e-05	53.132	125.086	110.010	-104.767	-155.434	-40.154	154.342	-155.532	-150.953	-118.803	21.529	-151.330	-147.566	-146.517	-141.949	32.351	-142.360	-8191	255	
13914.399	1	1	0	0	0.24209	0.24455	0.20917	0.28014	0.11466	0.25708	0.28938	0.28758	0.11764	0.30007	0.33908	0.30485	0.13577	0.30421	0.089015	0.31105	-1.9917	-2.5542	-2.1396	-2.8937	-2.6312	-2.4583	-2.9396	-2.4	-2.6833	-2.7792	-2.4521	-2.8	-2.825	-2.3708	-2.7396	-2.3937	153.665	-166.372	-55.414	172.517	108.464	152.129	125.715	167.150	75.931	66.393	1.952	-86.369	-146.103	130.819	-122.814	156.463	0.00094622	0.00021618	0.00035714	1294.5	6.6124e-06	5.8214e-06	1282.3	345.85	8.2121e-06	2.774e-06	389.85	127.89	110.58	37.41	2.8229e-06	47.362	0.0017712	0.0018164	0.00050782	1368.6	2.0119e-05	2.0361e-05	1370.1	372.7	2.0551e-05	2.0704e-05	429.14	141.24	123.17	41.954	2.0946e-05	53.404	115.329	-20.349	-33.170	-155.485	-33.164	144.219	-155.815	-151.101	-77.851	20.552	-150.983	-147.417	-146.812	-141.774	-53.486	-142.375	-8191	255	
13914.493	1	1	0	0	0.23099	0.32977	0.14514	0.21883	0.29679	0.19654	0.32008	0.32689	0.050321	0.17367	0.27417	0.19212	0.12162	0.16498	0.16405	0.238	-1.8042	-2.7521	-2.2229	-2.5854	-2.6583	-2.3958	-3.0958	-2.6437	-2.4688	-2.8688	-2.4479	-2.7604	-2.6604	-2.3771	-2.8125	-2.5646	95.412	3.363	-105.239	189.330	-122.919	152.679	118.352	87.058	-26.305	35.519	108.534	40.921	-149.076	69.208	-22.649	-168.248	0.00072923	0.00087076	0.00019661	1288.9	2.5753e-06	6.4733e-06	1291.7	344.48	8.4868e-06	8.1673e-06	389.53	128.82	110.61	37.678	8.5098e-06	47.384	0.0018744	0.0019215	0.00053076	1373.2	2.064e-05	2.0766e-05	1376.1	372.69	2.0691e-05	2.0838e-05	430.06	141.67	123.37	41.994	2.0782e-05	53.364	144.779	-50.450	-71.754	-155.245	-26.908	42.399	-155.661	-150.778	-12.967	-131.835	-151.288	-147.567	-146.481	-141.868	-136.799	-142.632	-8191	255	
13914.567	1	1	0	0	0.13666	0.16629	0.16879	0.30214	0.20162	0.17181	0.24337	0.34583	0.11658	0.093418	0.031271	0.14842	0.10623	0.18902	0.028425	0.1252	-1.9271	-2.7583	-2.3396	-2.6146	-2.6188	-2.4708	-2.9667	-2.8146	-2.5604	-2.975	-2.5312	-2.6167	-2.9083	-2.4042	-2.6937	-2.9125	-54.121	96.271	84.926	152.993	161.281	117.840	156.744	157.304	-152.280	184.842	-6.155	163.158	189.154	-142.448	-116.343	96.009	0.00073322	0.0004276	0.0002344	1294.9	9.9829e-06	4.5556e-06	1290.4	346.88	6.6116e-06	1.3217e-05	391.24	128.35	110.8	37.424	1.7172e-06	46.955	0.0018583	0.0018972	0.00052986	1373.4	2.069e-05	2.085e-05	1378.2	373.42	2.1044e-05	2.1203e-05	431.42	141.88	123.58	41.952	2.1508e-05	53.362	115.940	1.129	-109.754	-155.381	-42.323	-78.016	-155.822	-151.002	-98.260	-82.873	-151.250	-147.362	-146.511	-141.962	57.761	-142.540	-8191	255	
13914.685	1	1	0	0	0.16167	0.19037	0.099856	0.14753	0.11661	0.052816	0.16553	0.23376	0.24174	0.11233	0.058701	0.18932	0.20232	0.046525	0.29222	0.10319	-2.0958	-2.7708	-2.6042	-2.6688	-2.7938	-2.4562	-2.9792	-2.8083	-2.375	-2.6604	-2.5021	-2.45	-2.7271	-2.4625	-2.6271	-2.7021	-74.755	65.101	41.997	-158.529	129.447	-120.038	130.092	-155.335	77.138	-140.591	163.524	186.751	172.165	-71.863	-53.586	73.873	0.00082706	0.00094006	0.00013339	1296.1	2.2044e-06	5.5913e-06	1294.6	345.6	1.1511e-05	2.8217e-06	391.45	127.76	110.77	37.297	4.6031e-06	47.12	0.0018986	0.0019416	0.00054109	1379.3	2.1198e-05	2.123e-05	1380.6	373.39	2.1209e-05	2.1377e-05	430.63	141.62	123.6	41.922	2.184e-05	53.424	146.452	-45.355	154.487	-155.379	-35.383	-154.067	-155.521	-150.813	152.426	15.546	-151.421	-147.385	-146.740	-141.867	-31.959	-142.671	-8191	255	
13914.782	1	1	0	0	0.18276	0.062187	0.21962	0.083034	0.2516	0.13115	0.056166	0.14999	0.22514	0.22098	0.28257	0.049891	0.15204	0.15258	0.1308	0.14941	-1.9271	-2.7188	-2.3667	-2.8292	-2.8729	-2.2292	-2.6625	-2.7	-2.3563	-2.7667	-2.6437	-2.5708	-2.7604	-2.5938	-2.5187	-2.7521	-109.796	158.702	-38.348	168.941	-138.735	-102.794	-102.679	-158.668	-105.851	-155.616	16.315	-116.178	106.283	101.481	-90.630	153.456	0.00069207	6.3596e-05	7.0206e-05	1290.7	7.3694e-06	1.3603e-05	1289	343.71	1.2423e-05	7.9823e-06	390.97	128.44	110.05	37.457	1.4806e-05	46.835	0.001935	0.0019805	0.00055329	1377.3	2.1647e-05	2.17e-05	1380	373.54	2.1627e-05	2.1879e-05	433.1	142.11	123.52	42.01	2.2096e-05	53.446	105.392	-162.875	86.053	-155.544	25.183	13.347	-155.833	-151.050	181.251	-34.242	-151.018	-147.323	-146.888	-141.642	-36.094	-142.516	-8191	255	
13914.878	1	1	0	0	0.03121	0.30461	0.20043	0.11552	0.18538	0.11196	0.18025	0.17168	0.06402	0.18799	0.17656	0.17532	0.29545	0.1139	0.1507	0.42463	-1.8604	-2.7458	-2.5292	-2.6063	-2.8312	-2.3542	-2.7271	-2.6917	-2.2042	-2.8479	-2.4958	-2.3396	-2.7812	-2.4604	-2.3021	-2.925	1.759	-105.835	-124.577	-160.340	171.666	177.640	29.799	95.302	-40.611	150.236	-164.114	136.716	132.935	-154.635	142.872	148.020	0.0012205	0.00023885	0.00022083	1291.4	7.2766e-06	2.1348e-05	1285.6	346.96	8.6523e-06	9.5329e-06	390.24	128.15	109.93	37.304	5.7418e-06	46.628	0.0019705	0.0020325	0.00056216	1380.7	2.212e-05	2.2439e-05	1382.4	374.63	2.2291e-05	2.2565e-05	432.82	142.35	123.48	42	2.237e-05	53.369	125.187	-155.067	166.922	-155.326	-92.916	-56.594	-155.750	-150.901	-51.986	-19.706	-151.268	-147.182	-146.692	-141.584	-30.326	-142.346	-8191	255	
13914.974	1	1	0	0	0.086456	0.2264	0.25094	0.07421	0.15923	0.11209	0.14141	0.11888	0.022514	0.12583	0.15392	0.088702	0.15416	0.10502	0.14613	0.081399	-1.9	-2.4958	-2.4	-2.3104	-2.7625	-2.3875	-2.7208	-2.8604	-2.4229	-2.6312	-2.7562	-2.3458	-2.9729	-2.5146	-2.3187	-2.6167	67.026	90.586	48.533	36.947	-166.337	136.332	-149.615	6.122	-53.390	-10.242	136.213	174.365	-79.147	-149.835	49.121	-119.676	0.00066209	0.0003395	0.00037728	1288.8	1.3559e-05	5.7623e-07	1289.9	345	6.7295e-06	5.5793e-06	391.1	127.45	109.91	37.27	3.67e-06	46.904	0.001977	0.0020382	0.00056376	1379.3	2.202e-05	2.2263e-05	1379.5	374.3	2.1967e-05	2.2409e-05	432.88	142.04	123.53	41.955	2.2851e-05	53.431	138.030	-76.232	-81.716	-155.435	-68.497	122.791	-155.555	-150.819	-45.925	28.993	-151.236	-147.360	-146.690	-141.805	-91.254	-142.183	-8191	255	
13915.094	1	1	0	0	0.17959	0.28519	0.10111	0.45236	0.20179	0.20195	0.32448	0.25452	0.23712	0.021345	0.11376	0.10732	0.17925	0.11196	0.15169	0.050377	-1.9896	-2.4354	-2.5479	-2.4854	-2.6667	-2.4979	-2.5271	-2.9292	-2.3458	-2.6375	-2.7625	-2.4313	-2.6937	-2.6125	-2.2542	-2.7417	90.111	24.197	183.579	-120.366	80.307	-118.480	131.001	140.246	107.806	141.870	113.779	30.757	-42.996	107.650	-30.167	141.940	0.0010163	0.001284	0.00037537	1292.1	1.6132e-05	8.3268e-06	1284.5	344.9	1.3729e-05	2.1939e-06	390.81	128.14	109.71	37.425	1.1372e-06	46.874	0.0020063	0.002072	0.00058071	1378.6	2.2543e-05	2.2773e-05	1379.4	375.47	2.2615e-05	2.2835e-05	433.39	142.44	123.66	42.141	2.2888e-05	53.483	140.337	-146.595	-45.896	-155.354	-99.669	-57.140	-155.784	-150.676	177.735	68.494	-151.453	-147.256	-146.811	-141.728	104.949	-142.707	-8191	255	
13915.166	1	1	0	0	0.29223	0.1925	0.27003	0.30443	0.21826	0.16149	0.33262	0.19039	0.20545	0.17664	0.27272	0.27595	0.20816	0.073008	0.20691	0.13607	-1.8146	-2.475	-2.5583	-2.5396	-2.7438	-2.3937	-2.4396	-2.8521	-2.3958	-2.625	-2.7604	-2.5	-2.6646	-2.6729	-2.3833	-2.7667	99.879	67.722	98.184	189.426	-53.781	3.060	190.146	84.287	173.763	-97.647	-165.291	127.889	129.646	-11.866	-13.988	-161.319	0.00097254	0.00061747	0.00024142	1296.4	2.6493e-06	1.1135e-05	1285.5	342.56	1.0426e-05	1.5354e-05	388.47	127.94	109.9	37.267	4.8863e-06	46.795	0.0020396	0.002101	0.0005833	1383.8	2.2761e-05	2.2816e-05	1381.9	374.43	2.2663e-05	2.3097e-05	433.4	142.5	123.53	42.139	2.2943e-05	53.454	131.952	31.639	-79.594	-155.578	-17.492	-2.717	-155.564	-150.820	150.442	-22.933	-151.451	-147.468	-146.496	-141.620	29.778	-142.437	-8191	255	
13915.262	1	1	0	0	0.17623	0.17608	0.36195	0.52255	0.275	0.067071	0.36684	0.10341	0.13459	0.16466	0.19821	0.06626	0.11845	0.30108	0.17496	0.1084	-1.85	-2.4396	-2.8792	-2.3063	-2.6583	-2.4792	-2.3875	-2.9333	-2.5771	-2.3979	-2.5833	-2.5521	-2.6083	-2.8021	-2.2458	-2.8458	-124.342	175.034	-164.526	136.129	19.201	-28.443	158.526	17.713	-48.217	-6.945	130.294	-102.669	150.240	111.405	-28.210	37.609	0.001024	0.00087368	6.2805e-05	1283.4	9.1839e-06	7.8066e-06	1283.7	345	2.1992e-06	8.9086e-06	389.66	128.27	109.92	37.265	1.0774e-05	47.073	0.002023	0.0020771	0.00057628	1379.4	2.2696e-05	2.2835e-05	1381.8	374.84	2.2884e-05	2.3003e-05	433.8	142.71	123.8	42.081	2.3045e-05	53.591	115.433	-108.528	-111.374	-155.576	-58.122	-18.305	-155.344	-150.622	8.280	-49.762	-151.340	-147.249	-146.664	-141.781	4.240	-142.527	-8191	255	
13915.358	1	1	0	0	0.40135	0.34005	0.13568	0.34466	0.096918	0.11168	0.35315	0.30203	0.072974	0.2153	0.24344	0.19185	0.019571	0.25395	0.24907	0.30211	-2.2646	-2.4062	-2.7458	-2.4313	-2.6562	-2.7771	-2.3208	-2.7979	-2.5458	-2.3083	-2.9354	-2.35	-2.5125	-2.8125	-2.4417	-2.8125	-153.945	29.493	-90.761	146.807	16.773	150.696	129.941	126.653	129.111	102.706	162.583	109.669	-14.847	180.280	-78.238	116.866	0.00065517	0.00013686	0.00030977	1288.1	4.5848e-06	5.7177e-06	1289.7	344.93	6.521e-06	4.4602e-06	392.33	127.99	109.91	37.222	2.3403e-06	47.046	0.0020456	0.0020875	0.00057529	1379.2	2.2501e-05	2.2497e-05	1381.6	374.61	2.2093e-05	2.237e-05	432.79	142.31	123.59	42.15	2.2761e-05	53.601	158.835	8.963	-100.930	-155.195	-41.667	118.139	-155.609	-150.768	-77.293	-20.326	-151.147	-147.513	-146.592	-141.635	42.351	-142.603	-8191	255	
13915.477	1	1	0	0	0.022867	0.049382	0.11744	0.11119	0.3756	0.28281	0.091403	0.19258	0.17574	0.27887	0.1472	0.10411	0.28859	0.17912	0.18817	0.21137	-2.1375	-2.3146	-2.8312	-2.7521	-2.4104	-2.6729	-2.55	-2.7604	-2.525	-2.3	-2.8083	-2.5812	-2.5646	-2.7583	-2.3542	-2.7375	-98.444	-41.461	41.730	-151.354	90.179	5.573	44.282	86.705	30.628	-114.773	-134.633	-130.532	169.137	124.762	127.614	105.461	0.00083803	0.00062595	0.00023078	1292	6.6722e-06	8.0756e-06	1288.8	343.76	1.9865e-05	9.417e-06	392.29	127.4	110.73	37.378	7.1115e-07	47.13	0.0020255	0.0020804	0.00057251	1380.7	2.2199e-05	2.2096e-05	1379.2	373.28	2.1535e-05	2.1595e-05	432.62	141.76	123.52	41.924	2.171e-05	53.479	133.214	50.008	-70.205	-155.360	17.389	-80.198	-155.882	-150.795	-104.566	-110.979	-151.345	-147.403	-146.652	-141.898	130.514	-142.530	-8191	255	
13915.573	1	1	0	0	0.19339	0.15491	0.11435	0.10887	0.1637	0.11927	0.25697	0.2564	0.099782	0.25707	0.34334	0.50278	0.075444	0.34472	0.27203	0.1228	-2.0812	-2.3417	-2.7646	-2.6833	-2.3854	-2.7979	-2.5104	-2.5812	-2.7292	-2.2479	-2.9583	-2.6583	-2.4104	-2.8292	-2.5438	-2.5958	-24.384	67.517	-7.048	-146.799	151.092	146.732	15.717	127.477	96.168	121.461	-155.847	150.498	77.831	136.128	-145.478	127.869	0.00097981	0.0010165	0.00027419	1288.7	4.9644e-06	8.3606e-06	1290.3	344.81	2.6723e-06	6.269e-06	391.52	127.99	110.57	37.136	2.1913e-06	47.302	0.0019522	0.0019968	0.0005605	1376.6	2.1973e-05	2.2051e-05	1379.1	374.33	2.2126e-05	2.2088e-05	433.21	142.09	123.84	42.016	2.2139e-05	53.635	122.700	-102.358	-23.216	-155.509	-89.239	-157.148	-155.557	-150.882	-104.316	81.644	-151.363	-147.795	-146.561	-141.844	-141.407	-142.374	-8191	255	
13915.670	1	1	0	0	0.1167	0.017784	0.21719	0.27663	0.1563	0.10738	0.2589	0.18328	0.16778	0.23622	0.23978	0.10192	0.35283	0.021718	0.075804	0.35287	-2.3063	-2.1021	-2.6917	-2.7896	-2.4875	-2.8521	-2.5687	-2.5458	-2.7292	-2.2646	-2.8271	-2.7833	-2.5146	-2.9021	-2.5458	-2.4875	-166.314	-68.219	-168.149	186.318	-32.579	112.789	84.498	43.435	-119.819	0.798	170.975	144.626	185.106	-136.732	-57.179	59.324	0.00077678	0.00034404	0.00017572	1287.8	1.2308e-05	3.9012e-06	1293	344.19	6.4953e-06	6.87e-06	391.86	128.34	109.97	37.452	1.001e-05	47.448	0.0019669	0.0020096	0.0005591	1377.6	2.2007e-05	2.2298e-05	1384.3	375.09	2.2464e-05	2.2471e-05	434.6	142.46	124.06	42.281	2.3127e-05	53.887	148.079	175.102	-32.974	-155.359	-4.908	26.342	-155.752	-150.867	-109.509	13.807	-151.141	-147.473	-146.573	-141.543	-26.290	-142.442	-8191	255	
13915.766	1	1	0	0	0.10549	0.13141	0.072919	0.07425	0.064037	0.13396	0.137	0.36919	0.05542	0.1936	0.18691	0.34203	0.13295	0.014777	0.041759	0.2755	-2.3146	-2.3896	-2.5854	-2.7167	-2.3667	-2.6354	-2.6417	-2.5	-2.7021	-2.4521	-2.8146	-2.75	-2.2375	-2.85	-2.4688	-2.5521	-142.715	-133.471	-17.785	121.374	-62.405	18.273	171.764	145.631	24.698	13.973	44.918	90.916	-88.920	-54.663	-51.432	125.946	0.00077664	0.00094337	0.00019357	1283.1	1.2993e-05	1.3326e-06	1287.4	345.57	1.0594e-05	7.5226e-06	393.36	128.14	110.25	37.555	1.4631e-06	47.143	0.0020339	0.0020868	0.00058074	1380.2	2.2585e-05	2.2913e-05	1385.9	376.15	2.2809e-05	2.3044e-05	435.89	142.92	124.43	42.361	2.2981e-05	53.829	105.013	-15.292	-157.426	-155.385	-21.453	-9.898	-155.854	-150.857	-52.658	-148.093	-151.507	-147.417	-146.741	-141.596	-53.235	-142.755	-8191	255	
13915.862	1	1	0	0	0.27458	0.25555	0.22207	0.19698	0.1429	0.14609	0.28172	0.21689	0.078633	0.084732	0.13418	0.17072	0.34606	0.46023	0.18264	0.3188	-2.0062	-2.2354	-2.3625	-2.8708	-2.4188	-2.6021	-2.7458	-2.3771	-2.7938	-2.3458	-2.5854	-2.775	-2.3271	-2.725	-2.7854	-2.4604	-147.760	-157.242	-139.213	142.320	-23.085	151.152	181.814	54.832	90.256	129.344	148.788	-157.621	185.432	153.970	-157.126	77.140	0.0010709	0.00029852	0.00020487	1290.9	4.35e-06	6.8129e-06	1291.9	345.84	1.7172e-05	4.264e-06	392.81	128.36	110.63	37.544	1.3217e-05	47.133	0.0020383	0.0020935	0.00058523	1384.6	2.2641e-05	2.3065e-05	1389.2	376.28	2.273e-05	2.2986e-05	435.62	142.82	124.41	42.351	2.301e-05	53.89	128.220	34.811	-71.807	-155.510	-90.897	37.225	-155.696	-150.837	-51.067	-136.512	-150.950	-147.722	-146.408	-141.676	-94.984	-142.610	-8191	255	
13915.958	1	1	0	0	0.03006	0.17236	0.25584	0.31808	0.22227	0.23012	0.26304	0.13334	0.13394	0.18267	0.19318	0.21313	0.21604	0.29574	0.11731	0.29249	-2.5146	-2.4833	-2.3438	-2.925	-2.3187	-2.6354	-2.825	-2.4646	-2.7229	-2.4771	-2.6292	-2.9062	-2.6479	-2.7729	-2.5271	-2.4979	-46.928	58.242	-39.719	143.405	6.875	71.774	186.773	40.051	-58.745	5.839	85.102	105.275	-146.697	-145.217	183.802	42.142	0.001039	0.00060919	0.00016586	1292.2	3.0565e-06	1.0397e-05	1290.8	344.73	1.502e-05	2.5455e-06	392.26	127.4	110.26	37.41	8.8869e-06	46.971	0.0020328	0.0020894	0.00057955	1384	2.2643e-05	2.2966e-05	1385.9	376.3	2.2989e-05	2.3174e-05	436.34	142.55	124.47	42.336	2.3453e-05	53.983	117.245	-83.214	-123.327	-155.465	26.304	-48.244	-155.782	-150.455	-39.319	37.191	-151.167	-147.463	-146.737	-141.883	-168.235	-142.598	-8191	255	
13916.079	1	1	0	0	0.056056	0.17424	0.14013	0.052319	0.05601	0.12953	0.090226	0.27512	0.057744	0.16225	0.32924	0.15795	0.24741	0.14675	0.36403	0.20813	-2.3729	-2.4917	-2.4062	-2.9354	-2.2771	-2.5521	-2.6458	-2.5312	-2.7417	-2.5646	-2.2979	-2.725	-2.5854	-2.55	-2.8521	-2.4104	155.318	143.372	88.586	170.535	-82.013	115.283	116.849	90.116	-140.803	8.945	-140.420	28.879	123.393	134.592	-19.705	-15.834	0.00076803	0.00053941	0.00040032	1299.2	7.1896e-06	6.3383e-06	1296.4	345.9	2.3442e-06	8.1845e-06	390.96	128.67	110.29	37.427	4.5114e-06	47.028	0.0020799	0.0021475	0.00060084	1388.5	2.3421e-05	2.3695e-05	1391.3	377.73	2.3643e-05	2.4005e-05	437.56	143.46	124.99	42.611	2.4065e-05	54.031	145.642	12.737	-143.990	-155.461	163.842	58.132	-155.680	-150.864	102.852	-84.616	-151.484	-147.308	-146.698	-141.634	80.418	-142.736	-8191	255	
13916.175	1	1	0	0	0.11007	0.037909	0.15339	0.23643	0.33554	0.20415	0.26114	0.074291	0.10141	0.25021	0.11227	0.08383	0.13639	0.13124	0.14276	0.17901	-2.1896	-2.4646	-2.2375	-3.0042	-2.2417	-2.4125	-2.8583	-2.4208	-2.4958	-2.5438	-2.5354	-2.875	-2.5271	-2.4792	-2.7333	-2.4458	-130.567	114.127	-29.935	136.134	117.762	135.179	156.204	9.731	134.816	97.495	134.388	58.616	136.669	-123.223	-162.284	186.651	0.0009172	0.0012286	6.3005e-05	1290.1	5.3161e-06	9.6776e-06	1294.9	345.74	9.0032e-06	5.4267e-06	391.36	128.32	110.89	37.708	3.4389e-06	47.28	0.0021104	0.0021711	0.00059937	1388	2.336e-05	2.3575e-05	1392.9	377.11	2.3444e-05	2.3607e-05	436.79	143.19	124.85	42.577	2.3436e-05	54.007	129.061	-84.713	-95.103	-155.447	122.695	19.207	-155.831	-150.837	-149.860	-43.837	-151.628	-147.646	-146.637	-141.515	-20.580	-142.388	-8191	255	
13916.271	1	1	0	0	0.096493	0.27873	0.16787	0.35058	0.17114	0.086932	0.44811	0.27575	0.083674	0.066567	0.36903	0.13988	0.36687	0.20956	0.1707	0.12862	-2.2625	-2.7104	-2.2687	-2.8708	-2.5146	-2.5125	-3.0271	-2.5312	-2.6188	-2.5771	-2.3229	-2.85	-2.5104	-2.4062	-2.8604	-2.3187	18.205	83.341	166.891	147.734	-124.373	-38.151	120.932	136.411	-147.167	-13.389	73.830	156.209	125.634	149.103	77.656	135.864	0.0008985	0.00064964	0.0002111	1290.5	1.1773e-05	1.0927e-05	1295.1	344.63	3.3922e-06	1.1186e-05	393.83	128.13	110.17	37.539	1.6077e-06	46.918	0.0020963	0.0021495	0.00060186	1388.8	2.3425e-05	2.3825e-05	1392.3	377.18	2.3693e-05	2.3835e-05	437.93	143.4	124.92	42.616	2.3901e-05	54.067	142.324	-98.460	-111.570	-155.495	-46.685	-19.890	-155.745	-150.865	-131.708	31.430	-151.437	-147.583	-146.865	-141.988	161.420	-142.512	-8191	255	
13916.390	1	1	0	0	0.19477	0.07905	0.17134	0.31793	0.18079	0.13154	0.062204	0.28013	0.086861	0.08176	0.35565	0.32497	0.29287	0.086175	0.27437	0.30815	-2.0104	-2.6437	-2.2271	-2.8896	-2.5938	-2.2687	-3.05	-2.3708	-2.2625	-2.7188	-2.275	-2.6312	-2.5125	-2.6354	-2.8875	-2.6354	171.148	84.152	9.455	120.734	-108.458	-98.785	-120.377	122.750	134.029	-116.738	173.156	130.984	-84.855	-134.890	-101.769	-140.083	0.00092982	0.00055741	0.0002401	1295.9	1.2589e-05	1.3496e-05	1296.7	345.72	7.4993e-06	6.9117e-06	389.93	128.28	110.83	37.757	7.2889e-06	47.127	0.002138	0.0021952	0.00061104	1393	2.374e-05	2.409e-05	1396.7	379.05	2.387e-05	2.4004e-05	438.18	143.76	125.45	42.639	2.4108e-05	54.277	129.314	-103.827	-131.563	-155.311	-26.734	37.383	-155.747	-150.859	-9.856	156.187	-151.200	-147.498	-146.526	-141.676	-81.082	-142.662	-8191	255	
13916.462	1	1	0	0	0.12441	0.075466	0.12625	0.13015	0.25599	0.27181	0.3526	0.18712	0.24386	0.081973	0.13223	0.27538	0.17008	0.33996	0.2177	0.24521	-1.9667	-2.7396	-2.3688	-2.6708	-2.4688	-2.2167	-2.9729	-2.3958	-2.45	-2.9021	-2.4208	-2.6833	-2.7854	-2.2667	-2.7292	-2.4562	-161.457	-104.851	-19.292	175.874	87.528	34.262	150.406	-135.080	144.237	-38.144	95.470	82.776	-103.173	112.499	99.975	142.427	0.00084215	0.00094312	6.1754e-05	1295.4	6.1718e-06	1.1162e-05	1299.2	346.62	1.0042e-05	4.6012e-06	391.89	128.75	110.59	37.293	1.6726e-06	47.499	0.0021351	0.0021879	0.00060926	1392.6	2.3897e-05	2.4153e-05	1395.4	378.85	2.3996e-05	2.4304e-05	438.41	144.37	125.66	42.637	2.4302e-05	54.409	134.735	-58.199	-135.570	-155.591	187.513	50.072	-155.582	-150.757	-49.498	-58.791	-151.010	-147.665	-146.951	-141.983	-61.000	-142.755	-8191	255	
13916.558	1	1	0	0	0.24126	0.12571	0.24214	0.090917	0.12931	0.11186	0.087177	0.21133	0.027268	0.098811	0.16445	0.059824	0.26583	0.038245	0.14376	0.21322	-1.6667	-2.55	-2.3396	-2.8312	-2.6708	-2.3583	-2.85	-2.6167	-2.3521	-2.8688	-2.3812	-2.5417	-2.6875	-2.2625	-2.7167	-2.5062	-154.653	-59.653	-76.503	116.009	10.829	-118.095	-129.163	112.363	-88.420	-59.146	78.593	-41.855	13.539	-36.986	111.519	113.423	0.0010734	0.001206	8.1629e-05	1303.2	1.2793e-05	9.6622e-06	1304.4	346.65	1.4169e-05	2.7425e-06	394.58	129.01	110.99	37.653	4.4507e-06	47.342	0.0021778	0.0022304	0.00061991	1399.2	2.4298e-05	2.4519e-05	1404	379.81	2.4505e-05	2.4438e-05	440.39	144.46	125.73	42.713	2.4119e-05	54.392	148.532	-87.968	-100.526	-155.523	-67.709	107.747	-155.687	-150.930	-66.132	-23.797	-151.369	-147.497	-147.009	-141.802	-47.902	-142.409	-8191	255	
13916.654	1	1	0	0	0.1907	0.11077	0.069169	0.38708	0.11256	0.089365	0.049273	0.070291	0.11363	0.25193	0.12471	0.16596	0.15802	0.31439	0.082149	0.10584	-1.9438	-2.7896	-2.4833	-2.7146	-2.7313	-2.2125	-2.8479	-2.6625	-2.3521	-2.7313	-2.5458	-2.4146	-2.8563	-2.3979	-2.6979	-2.8521	122.305	25.877	-29.252	156.982	88.939	124.781	-144.812	141.724	-145.893	-29.327	115.973	146.616	125.531	115.120	-37.641	11.201	0.00074884	0.00065677	0.00016019	1300	1.0007e-05	1.4967e-05	1302.6	347.8	9.676e-06	4.6784e-06	393.41	128.62	111.1	37.694	4.3273e-06	47.487	0.0021391	0.0021811	0.00060986	1397.9	2.3792e-05	2.4062e-05	1401.9	380.03	2.4041e-05	2.439e-05	440.56	144.46	125.8	42.761	2.4578e-05	54.567	144.694	-46.345	42.511	-155.350	91.042	-5.024	-155.726	-150.704	-10.509	31.623	-151.178	-147.374	-146.783	-141.547	158.717	-142.712	-8191	255	
13916.774	1	1	0	0	0.17395	0.10006	0.13723	0.29939	0.20156	0.22609	0.079712	0.25644	0.11199	0.12325	0.32925	0.28707	0.26842	0.12586	0.11406	0.042136	-1.775	-2.7917	-2.5375	-2.4042	-2.6562	-2.4854	-2.5854	-2.7188	-2.3688	-2.6125	-2.5563	-2.45	-2.7438	-2.4938	-2.4625	-2.8125	180.756	33.032	-159.390	189.420	-99.945	-18.992	-136.858	90.826	-72.338	55.478	148.805	-108.985	130.278	99.551	-81.251	62.519	0.00080166	0.00032882	0.00031038	1304.1	5.7338e-06	3.2844e-06	1300	346.16	1.1779e-05	9.9125e-06	394.79	129.24	111.07	37.57	1.2553e-05	47.36	0.0021784	0.0022486	0.0006243	1400.9	2.4428e-05	2.4696e-05	1402.7	380.52	2.4647e-05	2.4898e-05	441.64	144.66	126.03	42.894	2.4977e-05	54.566	134.565	-88.285	-94.297	-155.260	-99.991	44.725	-155.776	-150.876	-109.186	-129.956	-151.257	-147.476	-146.719	-141.843	-4.435	-142.596	-8191	255	
13916.871	1	1	0	0	0.20866	0.12948	0.05104	0.21199	0.085429	0.19721	0.16971	0.049382	0.20383	0.087985	0.11481	0.23101	0.098525	0.24397	0.11816	0.18009	-1.7083	-2.725	-2.5563	-2.4875	-2.7562	-2.325	-2.4771	-2.7417	-2.3187	-2.6604	-2.5563	-2.4333	-2.8333	-2.5062	-2.5125	-2.7438	-109.512	23.453	-76.088	26.238	165.012	-81.854	180.299	20.047	-122.609	-144.294	42.786	106.519	143.303	55.512	-54.372	99.131	0.0009871	0.00074908	0.00021726	1294.9	6.9675e-06	1.0459e-05	1299.5	345.7	8.6144e-06	7.6624e-06	391.77	128.97	110.83	37.709	4.586e-06	47.442	0.0021851	0.0022639	0.00063257	1399.1	2.4403e-05	2.4755e-05	1402	379.3	2.4297e-05	2.4452e-05	440.66	144.27	125.5	42.855	2.45e-05	54.442	127.859	68.962	-116.010	-155.417	-10.650	-51.555	-155.676	-151.039	-76.130	-107.157	-151.192	-147.624	-146.872	-141.528	117.123	-142.791	-8191	255	
13916.967	1	1	0	0	0.14183	0.29599	0.20274	0.30885	0.041254	0.45755	0.054491	0.13405	0.0364	0.2203	0.19325	0.16751	0.15913	0.25029	0.072646	0.18967	-1.9208	-2.7771	-2.5083	-2.5146	-2.7208	-2.5458	-2.675	-2.9792	-2.4875	-2.7854	-2.7854	-2.4625	-2.8729	-2.5125	-2.3792	-2.8521	83.765	-12.562	162.204	128.928	189.952	160.248	41.357	99.367	-99.317	189.679	-99.917	78.863	-156.443	140.464	-79.993	-136.274	0.00095623	0.00066376	8.8112e-05	1296.2	6.4007e-06	1.1144e-06	1294.9	348.49	7.6707e-06	5.9555e-06	396.35	128.37	110.65	37.47	1.0235e-05	47.376	0.0021696	0.0022243	0.00061978	1395.7	2.4216e-05	2.4368e-05	1399.3	380.11	2.4149e-05	2.4277e-05	440.73	144.17	125.6	42.738	2.4078e-05	54.356	131.984	184.973	-132.282	-155.281	-66.644	-104.731	-155.595	-150.830	-74.384	174.853	-151.405	-147.408	-146.794	-142.004	-100.637	-142.347	-8191	255	
13917.038	1	1	0	0	0.37015	0.19183	0.1072	0.054487	0.1786	0.22096	0.059687	0.053936	0.18625	0.075052	0.19813	0.14687	0.22646	0.21106	0.14062	0.083484	-1.8062	-2.5438	-2.6063	-2.5125	-2.7917	-2.4875	-2.4646	-2.95	-2.2167	-2.4896	-2.7604	-2.3812	-2.7479	-2.5521	-2.125	-2.9104	136.254	-164.965	38.935	160.503	-21.259	-19.692	62.525	-80.846	111.176	183.386	74.639	-28.526	-130.274	157.662	161.371	-62.248	0.00090115	0.00060911	0.00013526	1295.7	1.2608e-05	1.3448e-05	1299.1	347.01	5.7827e-06	4.2532e-06	393.61	128.76	111.05	37.49	1.09e-05	47.462	0.0021223	0.0021804	0.00060983	1394.1	2.3861e-05	2.3967e-05	1397.6	379.16	2.3859e-05	2.386e-05	438.35	143.86	125.39	42.581	2.4125e-05	54.224	126.111	-148.667	28.408	-155.593	-80.698	-17.527	-155.582	-150.899	-61.477	-101.462	-151.341	-147.583	-146.815	-141.716	-19.120	-142.849	-8191	255	
13917.159	1	1	0	0	0.27718	0.098527	0.23424	0.14974	0.089855	0.1736	0.19963	0.50141	0.040453	0.088801	0.3827	0.23217	0.34494	0.077008	0.24277	0.043625	-2.1667	-2.4896	-2.4521	-2.5542	-2.6479	-2.4292	-2.4854	-2.8979	-2.4271	-2.4	-2.7646	-2.2479	-2.7438	-2.6896	-2.4021	-2.7708	153.410	-10.404	52.806	-166.154	46.018	116.089	135.658	107.259	63.024	-29.077	114.331	96.344	138.436	-130.766	-2.241	-23.735	0.0010297	0.00067837	9.0989e-05	1298.2	8.7995e-06	2.6666e-06	1300.4	346.05	1.5176e-05	9.7265e-06	393.83	128.53	111.14	37.598	5.6498e-06	47.085	0.0021298	0.0021884	0.00060428	1392.7	2.3675e-05	2.3821e-05	1396.6	378.88	2.3703e-05	2.3889e-05	438.62	143.62	125.41	42.633	2.3791e-05	54.138	127.734	-167.266	190.043	-155.372	105.152	165.399	-155.584	-151.076	150.988	43.290	-151.388	-147.528	-147.083	-141.627	156.194	-142.573	-8191	255	
13917.255	1	1	0	0	0.16496	0.13519	0.19485	0.20318	0.021613	0.20267	0.22257	0.0088937	0.17608	0.12603	0.24558	0.13647	0.14415	0.29626	0.33665	0.067656	-1.9729	-2.3229	-2.6083	-2.3396	-2.4896	-2.4854	-2.5021	-2.7729	-2.4375	-2.4104	-2.85	-2.2979	-2.6042	-2.7917	-2.1292	-2.6667	-145.500	-28.474	-87.049	107.233	38.085	85.612	132.303	81.575	-52.295	-100.445	94.577	146.582	174.438	-150.641	135.532	60.345	0.00099913	0.00049311	0.00029868	1290.1	8.7978e-06	8.8134e-06	1295.8	348.03	1.0107e-05	1.3367e-05	391.94	128.49	110.35	37.723	6.6903e-06	47.317	0.0021101	0.002166	0.00060104	1391.6	2.3644e-05	2.3882e-05	1395.4	379.35	2.3679e-05	2.3987e-05	437.55	143.73	125.3	42.577	2.3877e-05	54.28	163.130	-81.331	-121.422	-155.431	-69.710	-6.768	-155.589	-150.922	-35.546	-113.740	-151.313	-147.573	-146.568	-141.861	-76.276	-142.710	-8191	255	
13917.351	1	1	0	0	0.093924	0.21798	0.0788	0.30673	0.23118	0.056517	0.21675	0.099603	0.05537	0.24105	0.29221	0.10455	0.16385	0.2058	0.051232	0.10439	-1.9375	-2.375	-2.6958	-2.4729	-2.3937	-2.6625	-2.4271	-2.6625	-2.4271	-2.1292	-2.6917	-2.4958	-2.5542	-2.7104	-2.3271	-2.775	120.070	33.018	82.335	164.695	88.061	-31.971	107.742	187.687	5.619	11.493	85.571	71.938	134.322	99.605	-37.108	70.310	0.0010385	0.0010865	0.00032214	1296.4	2.077e-06	2.1969e-06	1291	345.92	4.9196e-06	5.6697e-06	393.83	128.05	110.62	37.716	1.3737e-05	47.145	0.0021191	0.002181	0.00060313	1390.4	2.35e-05	2.3815e-05	1391.7	378	2.3513e-05	2.3745e-05	438.29	143.58	125.22	42.562	2.3809e-05	54.09	149.311	-116.503	-5.529	-155.589	70.070	28.772	-155.533	-150.961	-32.689	162.823	-151.087	-147.415	-146.613	-141.920	-65.499	-142.624	-8191	255	
13917.472	1	1	0	0	0.033268	0.21951	0.14338	0.32848	0.15073	0.17172	0.29569	0.34637	0.09331	0.17246	0.21837	0.059799	0.2662	0.07428	0.15584	0.19647	-2.1896	-2.3271	-2.7375	-2.4521	-2.6063	-2.6604	-2.4896	-2.7875	-2.6729	-2.5938	-2.9354	-2.4229	-2.5438	-2.7708	-2.25	-2.6542	122.241	111.394	-3.332	152.308	50.831	81.890	133.506	130.830	-37.818	-15.471	136.482	62.885	189.928	153.666	-152.867	95.764	0.00097974	0.00017701	0.00018635	1292	2.3972e-06	1.0375e-05	1292.4	346.95	1.1936e-05	6.9532e-06	393.62	128.57	110.7	37.537	4.4293e-06	47.62	0.0021091	0.0021445	0.00059973	1389.7	2.3466e-05	2.3862e-05	1395.4	378.54	2.3535e-05	2.3692e-05	438.27	143.57	125.1	42.531	2.3583e-05	54.286	128.374	87.899	-64.675	-155.218	29.954	-51.898	-155.532	-150.663	-100.487	5.447	-151.271	-147.369	-147.002	-141.949	-105.310	-142.234	-8191	255	
13917.566	1	1	0	0	0.14104	0.17661	0.10851	0.095807	0.13958	0.27389	0.27319	0.032602	0.051175	0.062378	0.14705	0.094119	0.27975	0.1949	0.15118	0.24687	-2.1437	-2.1208	-2.725	-2.6583	-2.3375	-2.9396	-2.35	-2.6542	-2.6813	-2.2812	-2.8333	-2.5146	-2.4313	-2.7417	-2.5146	-2.7	-161.188	106.297	86.617	-125.111	-116.171	52.072	156.136	-133.286	-13.979	-135.827	-135.218	-165.379	123.628	-166.014	148.108	83.264	0.0011556	0.00053028	0.0001486	1297	6.7505e-06	3.5449e-06	1291.7	345.38	8.2309e-06	6.6081e-06	392.23	127.99	110.46	37.477	1.2204e-05	47.31	0.0020838	0.0021627	0.00060383	1388.9	2.3452e-05	2.3605e-05	1392.4	378.19	2.3423e-05	2.3521e-05	437.2	143.37	124.9	42.472	2.3441e-05	54.068	141.680	-37.913	8.941	-155.357	27.404	-81.631	-155.776	-150.520	-65.885	-8.890	-151.474	-147.269	-146.522	-141.633	-49.451	-142.449	-8191	255	
13917.663	1	1	0	0	0.15949	0.061797	0.17705	0.18022	0.065149	0.09286	0.061871	0.29506	0.12863	0.33071	0.15125	0.16943	0.22197	0.09085	0.19629	0.25305	-2.2729	-2.4	-2.7208	-2.5646	-2.3396	-2.8604	-2.5604	-2.6625	-2.6937	-2.4521	-2.8875	-2.7396	-2.4167	-2.7792	-2.4625	-2.5146	49.236	-6.628	181.926	-100.803	-128.340	-90.472	26.492	166.081	88.753	39.977	134.514	171.928	136.224	-161.038	52.504	170.025	0.001009	0.00066761	0.00031068	1296.3	1.2884e-05	1.7268e-05	1297.4	346.26	4.8587e-06	7.4312e-06	393.33	128.42	111.3	37.762	9.525e-06	47.158	0.0020956	0.0021473	0.00059756	1390.4	2.3289e-05	2.3423e-05	1391.2	377.57	2.3366e-05	2.3354e-05	437.47	143.26	124.9	42.506	2.3478e-05	54.041	132.237	159.864	-96.530	-155.368	-38.359	-30.370	-155.519	-150.863	176.287	62.082	-151.336	-147.365	-146.745	-141.899	27.006	-142.805	-8191	255	
13917.759	1	1	0	0	0.19146	0.048919	0.21951	0.058724	0.38224	0.14965	0.2137	0.34287	0.17084	0.17475	0.33028	0.00522	0.10912	0.10622	0.064395	0.14456	-2.1104	-2.2771	-2.7167	-2.7396	-2.2333	-2.8208	-2.6771	-2.5083	-2.7625	-2.0833	-2.7583	-2.7438	-2.5583	-2.8917	-2.3229	-2.4542	128.926	-8.599	180.588	108.678	111.244	140.031	152.271	149.452	-168.588	-33.229	139.103	61.375	110.786	88.428	-87.927	102.151	0.00094114	0.00058668	0.00016618	1288.5	1.1879e-05	1.3655e-05	1290.5	345.58	7.6155e-06	8.2792e-06	393.5	128.1	110.16	37.581	9.1298e-06	47.185	0.0020699	0.0021176	0.00059113	1385.3	2.3083e-05	2.3313e-05	1388.5	377.36	2.3154e-05	2.3373e-05	437.21	142.92	124.38	42.438	2.3288e-05	53.991	128.094	-166.152	188.864	-155.364	-1.936	-81.077	-155.808	-150.895	-115.514	-96.629	-151.092	-147.459	-146.691	-141.557	-19.550	-142.722	-8191	255	
13917.855	1	1	0	0	0.2462	0.098607	0.20056	0.26529	0.2011	0.16147	0.32272	0.1098	0.1265	0.041732	0.078145	0.12609	0.063853	0.24724	0.098879	0.01222	-2.325	-2.4188	-2.6125	-3.0229	-2.4354	-2.7708	-2.7562	-2.4229	-2.5708	-2.2792	-2.6312	-2.8479	-2.2396	-2.75	-2.5333	-2.4375	60.071	-15.622	-54.123	155.838	37.831	54.799	139.031	67.885	82.020	-43.202	168.775	-168.470	186.499	134.516	64.416	47.782	0.0014204	0.00032515	6.1883e-05	1290.4	9.8156e-06	6.5982e-06	1287.4	345.19	1.6744e-05	3.8867e-06	392.75	128.23	110.26	37.558	6.03e-06	47.149	0.0020662	0.0021082	0.00059208	1386.2	2.2868e-05	2.3271e-05	1388	376.32	2.3032e-05	2.3213e-05	436.43	142.99	124.49	42.348	2.3237e-05	53.808	119.215	-109.957	-69.207	-155.436	152.138	-117.534	-155.733	-150.580	-53.219	-32.502	-151.253	-147.473	-146.866	-141.817	-72.185	-142.490	-8191	255	
13917.951	1	1	0	0	0.12648	0.1796	0.29086	0.42508	0.17456	0.20618	0.21648	0.05108	0.099974	0.089323	0.26859	0.068059	0.047893	0.11026	0.14447	0.062747	-2.3125	-2.3354	-2.2687	-2.9042	-2.3563	-2.6125	-2.5583	-2.3375	-2.7771	-2.475	-2.4792	-2.6917	-2.3937	-2.725	-2.6354	-2.3604	-23.400	63.482	-104.706	127.860	81.154	-112.734	108.661	-137.252	-70.317	-100.520	134.516	144.225	-43.883	-164.425	-70.972	-12.131	0.00084606	0.00079773	0.00016773	1292.4	9.8098e-06	2.2714e-06	1287.9	344.65	1.2506e-05	6.7018e-06	390.57	127.71	110.9	37.436	7.9232e-07	47.015	0.0020516	0.0021055	0.00058993	1383	2.3122e-05	2.3204e-05	1386.3	376.1	2.3074e-05	2.3208e-05	436.29	142.74	124.66	42.368	2.3502e-05	53.841	126.287	-62.517	-81.051	-155.278	1.103	128.614	-155.559	-150.933	-30.516	-43.786	-151.254	-147.301	-146.454	-141.659	-100.895	-142.566	-8191	255	
13918.072	1	1	0	0	0.042187	0.24042	0.044386	0.17446	0.11175	0.12013	0.30674	0.38106	0.38182	0.23838	0.20182	0.04262	0.25068	0.082995	0.21388	0.15151	-2.0667	-2.3458	-2.2354	-2.8208	-2.2917	-2.5292	-2.6875	-2.3958	-2.7917	-2.3854	-2.3292	-2.7896	-2.4042	-2.5583	-2.5896	-2.25	4.601	-33.940	14.690	157.020	-113.134	151.807	147.872	101.374	173.757	-38.069	163.399	31.353	185.589	43.641	87.578	164.605	0.00090946	0.0004098	0.00016281	1292.6	4.5256e-06	4.4126e-06	1289.2	345.17	1.0266e-05	1.1668e-05	394	128.3	110.93	37.499	7.8804e-06	47.28	0.0020605	0.0021107	0.00058905	1384.6	2.2801e-05	2.3317e-05	1387.4	376.66	2.3004e-05	2.3213e-05	436.42	143.02	124.66	42.37	2.3357e-05	53.85	128.617	180.485	-109.283	-155.429	-76.439	-97.066	-155.731	-150.942	-86.706	-98.028	-151.373	-147.278	-146.829	-141.799	-39.812	-142.701	-8191	255	
13918.168	1	1	0	0	0.034206	0.35616	0.10584	0.48911	0.10123	0.086899	0.34976	0.26543	0.03016	0.2794	0.096987	0.18382	0.25135	0.23697	0.38601	0.10367	-2.025	-2.4083	-2.1729	-2.7646	-2.3542	-2.4062	-2.8729	-2.375	-2.5292	-2.6583	-2.1958	-2.75	-2.4417	-2.5229	-2.7271	-2.4917	-43.644	146.809	189.727	137.847	-142.857	-54.912	107.744	160.793	186.753	-106.064	98.967	-153.397	80.490	169.298	98.179	111.861	0.0010312	0.00023658	8.2589e-05	1292.6	2.7042e-06	1.0246e-05	1292.4	345.53	7.0782e-06	1.0391e-06	392.01	127.92	110.51	37.558	2.3295e-06	47.363	0.0020535	0.0021066	0.00058694	1384.6	2.2971e-05	2.3325e-05	1388.4	376.56	2.2976e-05	2.3033e-05	435.61	142.75	124.55	42.314	2.311e-05	54.007	118.152	90.674	95.063	-155.381	-117.864	-18.584	-155.749	-150.882	42.636	189.327	-151.442	-147.518	-146.527	-141.894	-133.530	-142.976	-8191	255	
13918.264	1	1	0	0	0.14715	0.11591	0.1369	0.21405	0.14448	0.22485	0.14454	0.1689	0.18506	0.023967	0.17523	0.13486	0.026155	0.24282	0.0536	0.1518	-2.1604	-2.5687	-2.1583	-2.8042	-2.2979	-2.3583	-3.0938	-2.2375	-2.475	-2.5375	-2.325	-2.8396	-2.4583	-2.3312	-2.5854	-2.3333	74.893	-10.486	-26.171	-119.757	44.946	41.871	106.103	-162.847	106.299	181.247	-143.845	161.968	-140.156	161.183	9.330	-31.525	0.0010375	0.0011127	0.00029929	1298.3	4.9136e-06	6.278e-06	1290.3	345.75	1.1936e-05	5.5817e-06	391.62	128.5	110.84	37.365	6.2519e-06	47.159	0.0020619	0.0020926	0.00058818	1388	2.2954e-05	2.3244e-05	1386.4	376.96	2.298e-05	2.2973e-05	435.8	142.87	124.7	42.345	2.3127e-05	53.937	117.184	-102.713	-127.234	-155.389	40.981	-158.329	-155.676	-150.963	-48.460	-123.957	-151.403	-147.481	-146.569	-141.956	-72.453	-142.598	-8191	255	
13918.336	1	1	0	0	0.056748	0.13521	0.21432	0.4844	0.072756	0.39721	0.17016	0.52048	0.12817	0.025884	0.18632	0.20505	0.17717	0.18182	0.18746	0.29522	-1.9396	-2.6458	-2.0812	-2.6125	-2.2729	-2.3479	-2.8958	-2.4625	-2.3	-2.7146	-2.4375	-2.5042	-2.7375	-2.3521	-2.6854	-2.4479	10.630	-47.801	-16.643	97.644	158.154	-87.292	94.158	105.967	165.234	180.624	73.466	153.625	152.851	84.375	140.543	163.777	0.0012254	0.0012373	2.9233e-05	1290.9	4.1886e-06	3.9315e-06	1293.7	344.55	5.7114e-06	1.0425e-05	390.09	128.14	110.55	37.346	5.3943e-06	47.215	0.0020474	0.0021189	0.00058467	1384	2.302e-05	2.3076e-05	1389.6	376.46	2.3184e-05	2.3134e-05	436.19	142.89	124.55	42.255	2.3107e-05	53.973	130.538	-79.485	-167.523	-155.474	-5.234	-115.844	-155.571	-150.942	4.118	-154.412	-151.304	-147.308	-146.803	-141.842	24.800	-142.756	-8191	255	
13918.454	1	1	0	0	0.018342	0.26266	0.2004	0.096285	0.083728	0.16923	0.17188	0.50127	0.11415	0.18117	0.32526	0.18543	0.21104	0.18858	0.25962	0.015569	-1.9958	-2.6396	-2.3625	-2.8604	-2.5021	-2.2188	-2.7188	-2.6521	-2.3875	-2.5604	-2.3042	-2.5479	-2.5729	-2.5062	-2.5417	-2.5896	125.666	-40.488	-32.300	-84.249	28.498	-130.427	151.320	155.857	150.967	190.922	157.420	120.794	129.050	-41.961	-122.135	-25.258	0.0010188	0.0011991	0.00012243	1291.7	2.6923e-06	6.6518e-06	1290.8	344.73	1.8333e-05	1.0004e-05	391.28	127.88	110.1	37.648	6.6655e-06	47.056	0.0020435	0.0021065	0.00058664	1382.1	2.2986e-05	2.3255e-05	1387.2	376.13	2.287e-05	2.297e-05	435.48	142.71	124.48	42.329	2.2878e-05	53.798	144.742	-75.433	152.747	-155.382	22.713	-19.645	-155.745	-150.740	-42.914	98.582	-151.457	-147.680	-146.808	-141.713	-44.726	-142.334	-8191	255	
13918.551	1	1	0	0	0.22145	0.12083	0.1278	0.20541	0.17448	0.025871	0.17098	0.27	0.1354	0.13247	0.18486	0.26471	0.10832	0.21728	0.21389	0.025213	-1.8229	-2.6667	-2.1729	-2.5896	-2.5979	-2.1521	-2.7833	-2.5958	-2.2062	-2.6333	-2.4188	-2.6042	-2.7729	-2.3438	-2.6625	-2.4542	-53.169	-32.624	76.368	139.104	79.297	169.870	94.474	172.818	153.295	173.640	106.151	97.219	115.886	-39.940	-112.462	169.484	0.00086477	0.00015459	7.6856e-05	1292.4	8.754e-06	7.8452e-06	1294.4	345.48	8.1686e-06	1.2268e-05	392.18	127.85	110.71	37.492	6.6947e-06	47.098	0.0020368	0.0020809	0.00058138	1383.1	2.2434e-05	2.2838e-05	1384.8	376.03	2.27e-05	2.2761e-05	435.37	142.53	124.3	42.235	2.26e-05	53.703	128.507	-113.923	8.807	-155.351	-62.534	188.162	-155.663	-150.943	-165.198	-25.411	-151.397	-147.414	-146.806	-141.501	-110.956	-142.541	-8191	255	
13918.647	1	1	0	0	0.24386	0.036411	0.03792	0.019901	0.17626	0.18601	0.46651	0.079252	0.2769	0.19417	0.23155	0.26326	0.37741	0.10755	0.21358	0.22638	-1.7729	-2.7375	-2.4	-2.5271	-2.6854	-2.1937	-2.8771	-2.6521	-2.1667	-2.5687	-2.475	-2.5417	-2.6562	-2.5167	-2.6083	-2.5521	-58.161	-119.617	39.526	-129.539	-51.590	-122.540	124.705	-161.635	74.695	-1.385	106.399	-157.055	160.716	99.531	121.105	-143.767	0.0010294	0.00064608	0.00015579	1287.9	4.0939e-06	1.9569e-05	1288.4	345.54	8.5477e-06	4.8052e-06	390.48	128.04	110.84	37.655	1.6724e-06	47.283	0.0020098	0.0020712	0.00057683	1379.3	2.2472e-05	2.2635e-05	1383.2	375.79	2.2537e-05	2.2717e-05	433.86	142.55	124.17	42.327	2.2707e-05	53.823	121.169	43.387	-26.602	-155.418	-43.678	100.577	-155.666	-150.918	16.251	22.510	-151.356	-147.620	-146.581	-141.614	20.269	-142.592	-8191	255	
13918.743	1	1	0	0	0.15926	0.097894	0.072563	0.14454	0.28291	0.2064	0.3693	0.19927	0.083692	0.16727	0.20065	0.38759	0.058844	0.37143	0.14612	0.32672	-1.8	-2.6229	-2.3146	-2.7125	-2.5833	-2.3292	-2.7917	-2.5604	-2.2125	-2.6792	-2.2812	-2.3417	-2.85	-2.3667	-2.5542	-2.8958	95.914	-61.324	-158.178	68.943	-90.940	143.665	168.990	125.450	85.206	149.939	142.104	176.092	-115.097	149.414	183.234	-168.480	0.0010815	0.00014571	0.00012342	1295.5	3.2474e-06	7.9793e-06	1289.8	344.45	7.6879e-06	3.8547e-06	392.04	127.72	110.61	37.404	3.1294e-06	47.324	0.002019	0.0020611	0.00057486	1383	2.2423e-05	2.2521e-05	1386.6	375.3	2.2285e-05	2.252e-05	434.34	142.3	123.98	42.146	2.2488e-05	53.817	135.357	-29.111	165.358	-155.342	-71.610	3.450	-155.557	-150.922	-33.113	1.580	-151.521	-147.855	-146.623	-141.677	27.605	-142.580	-8191	255	
13918.839	1	1	0	0	0.12316	0.065251	0.16232	0.22868	0.19282	0.18909	0.29671	0.15843	0.10479	0.14002	0.050088	0.066961	0.23605	0.21707	0.11681	0.14072	-1.7833	-2.6271	-2.3937	-2.4542	-2.6583	-2.325	-2.5542	-2.8812	-2.3667	-2.7167	-2.7125	-2.2812	-2.6021	-2.3812	-2.5521	-2.8375	67.130	17.233	168.689	127.682	0.570	-123.328	142.278	88.683	-61.495	-31.460	40.471	19.095	124.305	96.585	-133.222	124.526	0.0007797	0.00017948	0.0002281	1290.9	1.2467e-05	1.1732e-05	1288.5	345.63	1.381e-05	8.4431e-06	391.65	128.65	110.25	37.395	9.8158e-06	47.302	0.0019882	0.0020523	0.00057234	1382.5	2.2438e-05	2.2585e-05	1385.5	376.31	2.2593e-05	2.2862e-05	435	142.85	124.21	42.275	2.2966e-05	53.891	122.657	-74.503	-59.740	-155.527	-123.539	-150.187	-155.702	-151.034	-113.135	-101.506	-151.187	-147.540	-146.777	-141.758	154.922	-142.353	-8191	255	
13918.935	1	1	0	0	0.21828	0.30852	0.11822	0.24214	0.09105	0.21023	0.32379	0.22745	0.35711	0.27067	0.2752	0.28139	0.22221	0.071454	0.15911	0.14292	-1.7604	-2.5938	-2.6458	-2.4333	-2.6396	-2.5438	-2.5604	-2.85	-2.1229	-2.7021	-2.5896	-2.3667	-2.8083	-2.45	-2.2646	-2.7438	-12.873	109.936	-69.422	161.837	178.379	91.422	142.645	122.618	-161.807	20.949	113.361	-138.596	98.178	-3.988	-137.805	58.297	0.0010491	0.00063296	0.000111	1289.6	1.706e-06	6.5917e-06	1288.9	345.97	6.0682e-06	2.8765e-06	392.3	128.44	110.76	37.588	8.2064e-06	47.117	0.0020225	0.0020915	0.00058446	1380.7	2.2581e-05	2.2883e-05	1386.6	376.26	2.2689e-05	2.2869e-05	435.51	142.83	124.49	42.322	2.2931e-05	53.743	119.650	-52.519	-98.421	-155.364	-35.390	7.416	-155.544	-150.742	-20.525	99.013	-151.229	-147.340	-146.684	-141.766	-67.023	-142.581	-8191	255	
13919.031	1	1	0	0	0.18965	0.21749	0.10972	0.33006	0.052785	0.18841	0.29543	0.22391	0.21921	0.25959	0.063341	0.28069	0.10283	0.36713	0.12687	0.13239	-1.8271	-2.4292	-2.5042	-2.325	-2.7313	-2.475	-2.5563	-2.7771	-2.15	-2.4813	-2.4542	-2.3979	-2.8042	-2.5542	-2.3583	-2.8375	-18.351	185.881	134.917	118.932	-114.000	72.170	100.647	131.966	-124.905	165.901	156.136	158.369	-125.794	155.366	12.911	40.631	0.00089176	0.00020194	8.6876e-05	1290.8	9.2777e-06	7.621e-06	1290.9	344.81	1.2361e-05	7.6056e-06	391.65	127.73	110.17	37.507	1.216e-05	47.215	0.0020149	0.0020754	0.00058146	1382.5	2.263e-05	2.2829e-05	1385.9	376.22	2.2635e-05	2.2794e-05	435.35	142.59	124.17	42.315	2.2755e-05	53.793	137.584	-74.730	-54.779	-155.398	-48.198	188.150	-155.810	-150.897	-68.216	-92.962	-151.210	-147.759	-146.901	-141.759	-152.720	-142.845	-8191	255	
13919.152	1	1	0	0	0.072002	0.11982	0.068502	0.2388	0.20214	0.11899	0.21326	0.30568	0.098717	0.20516	0.2746	0.40948	0.35156	0.0188	0.13682	0.31875	-1.775	-2.3979	-2.5833	-2.3292	-2.4729	-2.4167	-2.4833	-3.0604	-2.3854	-2.4292	-2.6813	-2.2792	-2.6333	-2.4917	-2.1833	-2.6625	-88.524	33.108	-24.629	154.713	13.684	115.929	99.328	138.353	-41.917	-114.551	140.231	81.182	176.397	61.745	-25.737	95.722	0.0012129	0.00080959	0.0002459	1291.8	5.393e-06	1.2017e-05	1287.6	344.66	1.5805e-05	4.0356e-06	392.48	128.3	110.67	37.377	8.2987e-06	47.225	0.0020086	0.0020789	0.00057443	1380.3	2.2463e-05	2.269e-05	1385.2	375.09	2.2292e-05	2.2621e-05	434.53	142.37	124.32	42.17	2.2744e-05	53.848	136.562	114.809	-18.219	-155.394	43.198	-9.793	-155.791	-150.813	-29.079	4.099	-151.351	-147.548	-146.712	-141.928	-27.945	-142.563	-8191	255	
13919.248	1	1	0	0	0.25817	0.17286	0.23656	0.31977	0.23377	0.28115	0.13075	0.48752	0.18079	0.32704	0.1467	0.23125	0.20174	0.061366	0.20074	0.40204	-1.9042	-2.4938	-2.7021	-2.2917	-2.4375	-2.4542	-2.4021	-2.8187	-2.3083	-2.4146	-2.6021	-2.4958	-2.4833	-2.7708	-2.2083	-2.8667	97.784	-95.107	-30.839	171.323	-157.883	58.443	55.361	122.525	113.905	-131.526	-167.984	39.749	-87.380	-156.666	108.839	54.187	0.0012007	0.00033498	0.00021118	1292.2	3.4283e-06	7.5861e-06	1291.9	344.33	8.2963e-06	9.2797e-06	391.56	128.43	111.09	37.48	8.7525e-07	46.976	0.0020264	0.0020698	0.00057289	1380	2.2576e-05	2.2791e-05	1383.9	376.21	2.2545e-05	2.2661e-05	434.7	142.65	124.57	42.276	2.28e-05	53.781	112.649	2.621	70.850	-155.406	44.176	-103.725	-155.687	-150.922	-36.490	-99.396	-151.461	-147.578	-146.621	-141.724	45.579	-142.509	-8191	255	
13919.344	1	1	0	0	0.24869	0.096322	0.15545	0.16893	0.080791	0.27056	0.14822	0.41184	0.090134	0.33929	0.1826	0.3103	0.14812	0.088197	0.10804	0.23507	-2.1542	-2.1292	-2.7687	-2.4458	-2.375	-2.6875	-2.3458	-2.7708	-2.3375	-2.2313	-2.7917	-2.4646	-2.4021	-2.5792	-2.2979	-2.5667	40.531	-5.058	-45.186	157.522	135.769	-139.065	127.502	126.495	129.679	-123.910	116.744	178.422	93.129	52.376	34.481	125.540	0.00080815	0.00044732	0.00010433	1285.3	8.6568e-06	5.5374e-06	1289.3	345.46	1.219e-05	4.8191e-06	394.13	127.73	110.51	37.697	5.6217e-06	47.195	0.0020166	0.0020677	0.00057407	1379	2.2481e-05	2.268e-05	1383.7	376.23	2.2594e-05	2.2785e-05	435.31	142.28	124.25	42.371	2.2671e-05	53.813	152.870	-42.654	9.252	-155.700	-88.402	126.017	-155.656	-150.889	-142.876	-135.315	-151.125	-147.569	-146.562	-141.686	-51.082	-142.643	-8191	255	
13919.440	1	1	0	0	0.35972	0.052881	0.067734	0.26139	0.25785	0.14656	0.19303	0.52936	0.036325	0.091658	0.16574	0.41382	0.14865	0.28989	0.22878	0.32983	-2.0125	-2.025	-2.6021	-2.4271	-2.4	-2.6437	-2.4938	-2.6354	-2.6167	-2.2	-2.6437	-2.6146	-2.2833	-2.7104	-2.2021	-2.6208	79.191	54.139	170.642	183.630	-99.799	141.248	115.155	163.475	182.059	109.768	174.681	-144.454	143.254	24.252	-133.732	138.729	0.00075479	0.00010795	0.00035852	1292.1	3.9848e-06	1.1387e-05	1291	346.2	2.3621e-06	3.9515e-06	391.74	127.98	110.25	37.456	1.1694e-05	47.325	0.0020189	0.0020714	0.00057592	1382.1	2.2427e-05	2.267e-05	1385.1	375.71	2.2576e-05	2.275e-05	434.83	142.66	124.24	42.234	2.2773e-05	53.906	112.729	-88.146	-92.330	-155.422	-95.756	-19.861	-155.755	-150.958	-166.026	-88.548	-151.292	-147.500	-146.851	-141.767	-128.359	-142.498	-8191	255	
13919.559	1	1	0	0	0.15859	0.24393	0.081499	0.27533	0.11496	0.14081	0.054055	0.16057	0.14635	0.15526	0.20385	0.05314	0.25977	0.35943	0.12137	0.050199	-1.9521	-2.1479	-2.7458	-2.5458	-2.2729	-2.5854	-2.3187	-2.5792	-2.5854	-2.1937	-2.8146	-2.5854	-2.5021	-2.9271	-2.2083	-2.5563	175.345	-41.225	-127.776	100.007	-31.290	85.795	-161.315	89.701	122.107	177.541	-4.193	-147.766	169.897	-140.136	-68.922	187.503	0.00091939	0.00080662	0.0001832	1287.2	4.6636e-06	1.3654e-06	1292.2	344.74	1.2658e-05	1.8707e-06	393.08	128.53	110.13	37.327	1.0687e-05	47.341	0.002023	0.0020785	0.00058148	1381.4	2.2633e-05	2.2757e-05	1388.6	376	2.2612e-05	2.2886e-05	435.73	142.94	124.08	42.254	2.2706e-05	53.941	137.461	-90.132	-28.527	-155.207	-108.559	-34.171	-155.578	-150.698	-17.551	-37.826	-151.079	-147.527	-146.517	-141.902	-78.422	-142.790	-8191	255	
13919.631	1	1	0	0	0.26124	0.15571	0.16083	0.38713	0.068219	0.062119	0.18745	0.33002	0.24768	0.084663	0.19071	0.21236	0.36585	0.13719	0.10698	0.19611	-2.2562	-2.1917	-2.5583	-2.6021	-2.4375	-2.7979	-2.4208	-2.6146	-2.7646	-2.3854	-2.5958	-2.6979	-2.1708	-2.8792	-2.45	-2.5812	114.666	-93.239	-166.522	-158.921	22.556	-22.401	180.841	-165.666	-28.587	46.492	135.405	160.789	148.283	132.123	30.339	125.898	0.0006192	0.00050091	0.0006014	1290.8	1.096e-05	6.9132e-06	1294	346.05	2.1256e-05	2.1298e-06	392.45	128.5	110.77	37.398	5.8151e-06	47.079	0.0020176	0.0020599	0.00057758	1381.2	2.2536e-05	2.2723e-05	1387.6	376.04	2.2643e-05	2.287e-05	435.42	142.88	124.48	42.257	2.305e-05	53.787	116.141	-78.489	-54.256	-155.236	6.043	-149.673	-155.466	-150.740	-23.063	30.897	-151.237	-147.506	-146.967	-142.028	-92.759	-142.410	-8191	255	
13919.752	1	1	0	0	0.13059	0.033742	0.1649	0.069619	0.11025	0.24033	0.10367	0.22912	0.10623	0.085489	0.30844	0.24529	0.26899	0.23732	0.20679	0.098171	-2.2458	-2.2625	-2.6333	-2.8354	-2.3771	-2.8417	-2.6937	-2.4583	-2.6125	-2.2458	-2.7562	-2.8063	-2.0979	-2.7938	-2.5208	-2.3646	-98.446	-151.899	187.114	147.595	22.582	119.742	188.189	-159.515	10.625	166.612	83.805	-142.478	-157.612	-163.874	-75.725	90.453	0.00061314	0.00049378	0.00015095	1295.1	6.2584e-06	5.339e-06	1288.3	345.99	6.5812e-06	1.3812e-05	393.18	128.16	110.44	37.383	4.9552e-06	47.297	0.0020225	0.0020756	0.00057785	1383.6	2.2612e-05	2.2716e-05	1385.8	376.42	2.259e-05	2.2721e-05	436.09	142.49	124.09	42.275	2.2709e-05	53.835	129.154	17.721	187.540	-155.584	-59.115	-130.925	-155.585	-150.922	-7.606	-92.830	-151.047	-147.747	-146.959	-141.694	-91.095	-142.556	-8191	255	
13919.848	1	1	0	0	0.21116	0.057521	0.15453	0.30324	0.084164	0.213	0.34199	0.21417	0.30711	0.047402	0.19815	0.1692	0.10319	0.4056	0.17032	0.13331	-2.2083	-2.4333	-2.5375	-2.8063	-2.2333	-2.5958	-2.6083	-2.4896	-2.8292	-2.2521	-2.6646	-2.6125	-2.2938	-2.5917	-2.5625	-2.3208	41.316	-104.787	19.210	109.987	-132.270	-117.236	160.465	185.865	-35.481	-105.904	175.707	25.528	63.167	77.884	0.702	36.550	0.00081577	0.00065665	0.00017698	1287.4	7.2468e-06	6.1122e-06	1291.6	343.63	1.8455e-05	1.002e-05	393.22	127.85	111.4	37.719	1.197e-05	47.254	0.0019952	0.0020464	0.00057487	1378.8	2.2231e-05	2.2612e-05	1384.4	375.55	2.2467e-05	2.2576e-05	435.69	142.4	124.23	42.337	2.2723e-05	53.803	139.452	-93.789	70.641	-155.630	73.433	-115.430	-155.654	-150.982	-102.358	35.081	-151.107	-147.390	-146.750	-141.911	-61.976	-142.523	-8191	255	
13919.944	1	1	0	0	0.3217	0.27798	0.043958	0.15847	0.33197	0.029026	0.1989	0.18806	0.33184	0.084959	0.083699	0.086358	0.088694	0.17258	0.13929	0.36225	-2.2917	-2.3354	-2.2979	-2.6771	-2.1646	-2.625	-2.8229	-2.3646	-2.8292	-2.4521	-2.4792	-2.6958	-2.1292	-2.6771	-2.5833	-2.3063	77.487	8.681	169.402	92.980	-144.606	-163.258	106.002	68.692	-15.741	-67.607	100.159	-80.137	147.937	112.507	100.828	174.194	0.00076996	0.00021007	0.00039413	1287.7	1.8316e-06	5.7768e-06	1288.2	345.84	4.1014e-06	1.828e-06	392.01	127.8	110.67	37.554	4.2605e-06	46.91	0.0020041	0.002069	0.00057687	1379.2	2.2399e-05	2.263e-05	1383.9	375.59	2.234e-05	2.2686e-05	434.51	142.21	124.02	42.241	2.2482e-05	53.586	133.349	-165.431	-119.607	-155.547	93.713	-5.289	-155.442	-150.782	-139.929	-27.701	-151.277	-147.498	-146.812	-141.586	-38.147	-142.387	-8191	255	
13920.040	1	1	0	0	0.2906	0.20546	0.17254	0.18242	0.23253	0.12159	0.33281	0.15781	0.11511	0.33992	0.32292	0.17667	0.15145	0.37826	0.091633	0.21615	-2.3125	-2.2729	-2.3396	-2.9833	-2.4208	-2.6937	-2.9542	-2.2792	-2.5542	-2.4917	-2.6021	-2.7396	-2.3604	-2.6958	-2.7042	-2.3333	119.041	-31.869	46.381	107.819	139.417	-43.801	82.071	108.926	-49.219	-147.564	-166.342	127.049	-96.601	106.126	-156.550	82.902	0.00091941	0.0006742	0.00018441	1290.2	5.3529e-06	4.3912e-06	1286.2	344.42	6.0851e-06	1.8082e-05	391.18	128.17	110.87	37.616	3.7248e-06	47.199	0.0019893	0.0020267	0.00056728	1377.4	2.2113e-05	2.2346e-05	1383.6	374.84	2.198e-05	2.2293e-05	433.41	142.17	124.02	42.197	2.2146e-05	53.507	121.179	-91.714	-125.536	-155.242	45.171	-107.269	-155.757	-150.643	-0.754	-89.549	-151.402	-147.505	-146.641	-141.835	81.138	-142.477	-8191	255	
13920.136	1	1	0	0	0.10202	0.10224	0.37614	0.17473	0.19999	0.11255	0.17341	0.095472	0.024485	0.2031	0.14507	0.2959	0.033288	0.087418	0.26363	0.07537	-2.1875	-2.3917	-2.2771	-2.7917	-2.4542	-2.475	-2.7938	-2.425	-2.675	-2.5604	-2.4417	-2.6792	-2.5771	-2.3854	-2.6479	-2.4437	85.468	162.561	-75.994	66.452	43.711	-54.292	-129.341	164.728	-82.706	-31.213	108.622	84.855	-4.279	176.961	156.387	60.792	0.0010499	0.00051809	0.00018263	1287.8	4.2201e-06	3.9455e-06	1288.7	345.77	4.5392e-06	8.2301e-06	390.74	128.08	110.12	37.359	1.7677e-05	47.086	0.0019499	0.0019986	0.00055397	1378.5	2.1627e-05	2.1882e-05	1381.3	374.69	2.1822e-05	2.1895e-05	432.94	142.17	123.72	42.097	2.2227e-05	53.598	129.924	-85.204	-59.509	-155.350	50.949	52.156	-155.494	-150.882	-153.426	9.879	-151.166	-147.146	-146.870	-142.102	-35.840	-142.540	-8191	255	
13920.232	1	1	0	0	0.031061	0.1095	0.055609	0.24178	0.074972	0.18949	0.41355	0.06711	0.11035	0.043704	0.19017	0.39002	0.13423	0.4413	0.044053	0.20115	-2.0604	-2.5667	-2	-2.8229	-2.4146	-2.4292	-2.9562	-2.4771	-2.4854	-2.5479	-2.2562	-2.7125	-2.375	-2.3438	-2.7438	-2.1688	82.683	35.750	-68.205	179.085	-61.369	-36.526	107.346	90.210	-137.248	-1.451	-52.645	158.310	177.183	138.195	-86.722	184.918	0.00068468	0.00016764	0.00017272	1289.5	5.5633e-06	1.0885e-05	1288.6	345.65	1.2616e-06	5.2463e-06	390.94	128.1	110.03	37.476	9.1488e-06	47.107	0.0019692	0.0020541	0.00056983	1378.9	2.2312e-05	2.2679e-05	1383.9	375.04	2.2436e-05	2.2631e-05	434.35	142.46	123.71	42.224	2.2412e-05	53.696	134.821	94.787	-92.888	-155.386	-136.820	-85.497	-155.658	-150.721	130.493	15.761	-151.357	-147.581	-146.619	-141.921	-2.325	-142.803	-8191	255	
13920.329	1	1	0	0	0.15353	0.1171	0.098857	0.081659	0.056936	0.024748	0.28785	0.36826	0.079472	0.1638	0.13777	0.099112	0.12505	0.1553	0.14013	0.28742	-2.0479	-2.5792	-2.1667	-2.6792	-2.5708	-2.4229	-2.7083	-2.3708	-2.5021	-2.6667	-2.4771	-2.6312	-2.5979	-2.25	-2.6146	-2.3333	9.604	-141.274	-65.896	124.795	-21.143	-103.540	78.185	147.908	72.570	62.530	-151.518	-148.391	-113.741	-99.946	77.421	50.138	0.0007783	0.00063119	0.00028959	1291.7	5.7127e-06	4.8551e-06	1290	345.5	2.204e-05	1.1109e-05	392.33	128.93	110.71	37.441	6.015e-06	47.147	0.0019891	0.0020447	0.00056734	1379.8	2.2142e-05	2.2275e-05	1385.6	374.83	2.2177e-05	2.2188e-05	433.57	142.63	123.75	42.222	2.2457e-05	53.747	137.569	-126.507	-113.680	-155.442	-54.327	-44.858	-155.599	-150.864	-81.012	17.561	-151.368	-147.589	-147.091	-141.640	-35.668	-142.719	-8191	255	
13920.425	1	1	0	0	0.10309	0.12448	0.13096	0.080505	0.15918	0.27128	0.2671	0.16638	0.15215	0.16624	0.045107	0.25266	0.30724	0.1873	0.1695	0.28267	-2.0104	-2.7	-2.2167	-2.6188	-2.5229	-2.3354	-2.9437	-2.5333	-2.4437	-2.7104	-2.2188	-2.5875	-2.6542	-2.4458	-2.7562	-2.5583	-133.286	-8.537	44.206	-159.035	130.719	5.296	140.553	112.107	-100.281	-87.682	103.917	142.813	-132.533	-28.694	-33.875	155.023	0.00083216	0.00029979	0.00027506	1291.6	6.1144e-06	6.5636e-06	1294.4	345.37	1.3545e-05	1.8594e-06	389.71	128.61	111.18	37.871	5.5929e-06	47.227	0.0020052	0.0020445	0.00057338	1382.3	2.2427e-05	2.2692e-05	1387.5	375.82	2.2462e-05	2.2605e-05	434.4	142.38	124.32	42.349	2.2492e-05	53.693	107.053	49.470	-78.289	-155.311	-108.865	13.020	-155.597	-150.931	-28.789	20.463	-151.138	-147.403	-146.936	-142.006	-147.000	-142.198	-8191	255	
13920.521	1	1	0	0	0.3082	0.32567	0.20032	0.26365	0.072517	0.13998	0.1274	0.16733	0.046249	0.1422	0.3276	0.19609	0.10574	0.20225	0.19332	0.10321	-1.6271	-2.7938	-2.2042	-2.5042	-2.5875	-2.2792	-2.7562	-2.6542	-2.3646	-2.8521	-2.3917	-2.4646	-2.8167	-2.4021	-2.6958	-2.675	131.476	1.529	98.483	126.703	72.658	42.684	141.005	126.731	-155.540	95.988	124.309	-152.154	114.128	158.053	-152.415	70.706	0.00071586	0.0002985	0.00031832	1290.2	2.0397e-06	1.2698e-05	1297	345.85	7.609e-06	1.3286e-06	392.6	128.49	110.47	37.458	6.2244e-06	47.136	0.0019984	0.0020424	0.00056954	1383.2	2.2186e-05	2.2469e-05	1388.5	376.24	2.213e-05	2.2264e-05	434.45	142.64	123.99	42.221	2.2203e-05	53.646	117.568	-72.193	-63.436	-155.531	158.979	-8.867	-155.686	-150.693	-91.289	153.351	-151.251	-147.277	-146.785	-142.087	102.613	-142.753	-8191	255	
13920.640	1	1	0	0	0.21431	0.13082	0.031348	0.19036	0.25963	0.12407	0.16301	0.19671	0.37606	0.18642	0.21783	0.057773	0.23334	0.10895	0.22355	0.33258	-1.9292	-2.6583	-2.2875	-2.5938	-2.6688	-2.2083	-2.9542	-2.7729	-2.5146	-2.7833	-2.4021	-2.5917	-2.8042	-2.2687	-2.4854	-2.6021	4.882	65.421	182.553	146.766	-75.789	-107.618	149.571	142.190	-49.472	70.842	182.167	127.979	137.755	128.743	-23.935	136.101	0.0011919	0.00052591	0.00012419	1293.2	2.7738e-06	1.0463e-05	1291.7	344.55	5.1048e-06	6.5122e-06	392.97	128.45	110.48	37.559	6.948e-06	47.24	0.0019878	0.0020171	0.00056498	1382.2	2.2088e-05	2.2341e-05	1385	375.36	2.2154e-05	2.2429e-05	434.45	142.75	123.66	42.17	2.221e-05	53.588	134.942	-116.904	-107.886	-155.549	45.782	-41.660	-155.719	-151.046	-84.294	100.555	-151.255	-147.714	-147.030	-141.395	-79.139	-142.453	-8191	255	
13920.736	1	1	0	0	0.083065	0.057928	0.2866	0.23424	0.18656	0.031483	0.10177	0.14834	0.25157	0.067357	0.21803	0.18678	0.074154	0.21058	0.019853	0.11181	-1.7354	-2.7667	-2.3	-2.475	-2.5542	-2.2438	-2.7333	-2.7062	-2.25	-2.8771	-2.6542	-2.3771	-2.9354	-2.3417	-2.2792	-2.6188	76.055	154.338	190.153	178.320	178.037	188.692	73.877	144.889	-106.210	41.951	-154.002	183.237	75.018	-72.516	-30.732	178.564	0.00087943	0.0001031	0.00011656	1290.7	3.8464e-06	1.0053e-05	1292.7	345.37	1.2955e-05	1.0469e-05	390.62	128.02	110.71	37.705	3.9736e-06	46.93	0.0019625	0.0019996	0.00056036	1381.2	2.1884e-05	2.2035e-05	1382.9	374.49	2.1791e-05	2.1948e-05	433.54	142.26	123.82	42.175	2.2096e-05	53.629	137.837	-80.951	-161.647	-155.381	-77.071	36.538	-155.472	-150.766	-19.003	-25.437	-151.204	-147.483	-146.717	-141.836	-82.671	-142.557	-8191	255	
13920.832	1	1	0	0	0.32455	0.11867	0.30526	0.27713	0.10183	0.1692	0.29686	0.10727	0.291	0.17498	0.10004	0.27428	0.41922	0.1086	0.13364	0.23657	-1.9042	-2.6771	-2.5312	-2.4896	-2.7708	-2.2562	-2.6583	-2.6688	-2.1771	-2.6979	-2.475	-2.4354	-2.7313	-2.5	-2.6063	-2.8125	-9.806	-86.601	62.913	-144.395	-114.314	106.994	93.777	34.926	120.047	16.430	104.859	-153.775	81.850	-138.477	-53.127	135.936	0.00098409	0.000593	4.7066e-05	1285.6	6.0402e-06	2.7535e-06	1290.8	345.92	8.3226e-06	2.2457e-06	390.84	128.58	110.19	37.363	5.8706e-06	47.1	0.0019537	0.0020212	0.00056145	1378.9	2.1724e-05	2.209e-05	1381.3	375.19	2.1774e-05	2.21e-05	432.47	142.17	123.68	42.092	2.2046e-05	53.471	130.999	-100.928	99.032	-155.336	-52.062	145.599	-155.769	-150.826	-48.071	30.937	-151.109	-147.459	-146.688	-141.535	32.093	-142.835	-8191	255	
13920.928	1	1	0	0	0.081572	0.095504	0.22862	0.16574	0.078209	0.18506	0.29772	0.38313	0.19717	0.19548	0.23589	0.14465	0.13346	0.24549	0.1409	0.12961	-1.9854	-2.5438	-2.6562	-2.6437	-2.8396	-2.3688	-2.7083	-2.8396	-2.2521	-2.5479	-2.5042	-2.425	-2.675	-2.5563	-2.4813	-2.8708	15.356	-146.626	-73.733	151.812	-55.016	140.778	120.651	134.758	-124.590	-27.235	57.338	157.759	-151.798	-97.356	12.017	101.533	0.0011278	0.00087979	0.00026741	1288.6	6.6232e-06	6.3492e-06	1291.7	344.92	1.1858e-05	8.2941e-06	391.88	128.29	110.41	37.399	1.1321e-05	47.236	0.0019425	0.0020048	0.000557	1374.8	2.1637e-05	2.1736e-05	1382.1	374.05	2.1594e-05	2.1802e-05	432.39	142.02	123.53	41.99	2.1767e-05	53.467	138.867	-98.821	-107.211	-155.539	177.996	-31.171	-155.469	-150.846	-39.791	-62.734	-151.259	-147.517	-146.463	-141.710	-69.699	-142.607	-8191	255	
13921.024	1	1	0	0	0.094659	0.35272	0.24315	0.32248	0.10086	0.16566	0.20471	0.12887	0.060502	0.25702	0.17547	0.23125	0.18007	0.17892	0.16686	0.13066	-1.8667	-2.5458	-2.5958	-2.4396	-2.6375	-2.4813	-2.5229	-2.7229	-2.3792	-2.4667	-2.7125	-2.4313	-2.8333	-2.5687	-2.3583	-3.0542	-74.566	-83.599	52.138	160.913	142.135	-128.950	127.253	38.198	-75.287	18.727	160.224	137.094	-148.689	187.686	170.034	-74.084	0.001044	0.00043807	4.6209e-05	1290.5	1.6209e-05	7.4187e-06	1286.6	344.16	7.8987e-06	3.4056e-06	391.21	128.45	110.46	37.612	7.0954e-06	47.18	0.0019442	0.0019938	0.0005538	1376.2	2.1488e-05	2.1744e-05	1380.2	373.45	2.1343e-05	2.1497e-05	431.77	141.61	123.25	42.028	2.1252e-05	53.178	119.007	-75.419	-102.136	-155.362	-28.121	-77.275	-155.924	-150.802	165.828	156.070	-151.394	-147.216	-146.908	-141.830	-96.026	-142.456	-8191	255	
13921.120	1	1	0	0	0.20761	0.02371	0.22567	0.055043	0.05763	0.11934	0.2397	0.1532	0.18334	0.037805	0.27027	0.16379	0.28621	0.10649	0.24179	0.15054	-1.8958	-2.4625	-2.6229	-2.3854	-2.6479	-2.7042	-2.6333	-2.8458	-2.3625	-2.5687	-2.5896	-2.3688	-2.7354	-2.6792	-2.2333	-2.8854	-31.775	-73.993	39.304	178.700	-61.919	-42.839	59.246	123.980	106.009	109.526	-108.046	182.015	66.772	116.938	-107.189	60.004	0.00070457	0.00051772	0.00014202	1290.4	8.8609e-06	1.4059e-05	1292.3	344.26	1.6772e-05	8.4108e-06	392.2	128.85	110.58	37.674	7.384e-06	47.187	0.0018676	0.0019307	0.00053756	1372.9	2.0892e-05	2.1084e-05	1377.5	372.67	2.0909e-05	2.1133e-05	430.89	141.68	123.06	41.936	2.1083e-05	53.292	136.903	-155.149	179.072	-155.416	8.920	-76.864	-155.760	-150.831	-101.633	2.044	-151.421	-147.248	-147.004	-141.942	-109.776	-142.811	-8191	255	
13921.241	1	1	0	0	0.13683	0.1684	0.18197	0.1973	0.11347	0.088792	0.032352	0.14207	0.052095	0.086345	0.33595	0.21005	0.24447	0.071363	0.32972	0.3102	-2.0021	-2.3292	-2.7979	-2.2667	-2.5271	-2.6521	-2.4917	-2.9125	-2.4646	-2.4646	-2.9208	-2.4458	-2.5812	-2.8563	-2.4562	-2.8	9.196	-77.632	148.739	189.919	-161.467	-150.361	116.731	186.025	174.921	-119.929	84.209	-146.917	190.949	112.566	-121.136	173.699	0.0013572	0.0008743	0.00034497	1282.6	4.3422e-06	6.0397e-06	1286.6	344.27	1.0189e-05	1.3871e-05	390.01	128.17	109.95	37.348	2.5072e-06	47.382	0.001859	0.0019178	0.00053387	1368.7	2.0926e-05	2.0914e-05	1374	372.48	2.0673e-05	2.0784e-05	429.95	141.16	122.96	41.843	2.0723e-05	53.27	141.667	43.050	-142.891	-155.324	102.339	-165.689	-155.671	-150.691	38.185	-82.810	-151.252	-147.575	-146.499	-141.692	-153.714	-142.509	-8191	255	
13921.337	1	1	0	0	0.36164	0.22459	0.23611	0.30142	0.14852	0.23636	0.14153	0.28905	0.091827	0.16919	0.26782	0.36015	0.13786	0.21122	0.10739	0.022469	-2.0062	-2.3187	-2.7708	-2.5875	-2.6333	-2.7938	-2.4854	-2.7458	-2.4646	-2.4896	-2.8937	-2.4792	-2.575	-2.7938	-2.3917	-2.8125	65.043	-119.565	-140.330	162.804	-92.757	-134.617	-157.257	79.836	79.645	-69.936	-108.870	78.707	134.267	128.270	127.921	99.542	0.00079557	0.00071409	5.9102e-05	1286.7	3.694e-06	4.1271e-06	1291.2	344.86	8.2295e-06	8.1094e-06	389.12	127.82	110.44	37.275	9.7005e-06	46.969	0.0018421	0.0018821	0.00052651	1371.2	2.0769e-05	2.1004e-05	1375.3	372.67	2.0868e-05	2.1089e-05	430.61	141.18	123	41.812	2.094e-05	53.176	119.805	-146.024	-140.124	-155.390	-139.510	-37.699	-155.537	-150.677	-2.917	117.769	-151.223	-147.290	-146.765	-141.662	-68.530	-142.423	-8191	255	
13921.432	1	1	0	0	0.057662	0.28734	0.25766	0.041845	0.12999	0.15612	0.30241	0.28342	0.29388	0.037269	0.17588	0.22957	0.1716	0.13993	0.28466	0.48674	-2.1063	-2.4104	-2.9125	-2.7021	-2.2521	-2.8208	-2.6708	-2.7562	-2.5667	-2.4125	-2.8771	-2.5979	-2.5563	-2.8438	-2.5604	-2.7021	50.195	168.838	74.906	165.627	116.809	-114.679	76.871	-166.501	0.374	39.116	157.444	83.652	-65.253	105.127	178.727	98.404	0.00088522	0.00024668	0.00025204	1284.9	1.5992e-05	9.1957e-06	1287.6	345.46	5.4014e-06	6.5271e-06	391.41	129.12	110.07	37.698	2.2746e-06	47.128	0.0018503	0.0019001	0.00052831	1368.6	2.069e-05	2.0605e-05	1373.9	372.68	2.061e-05	2.0773e-05	430.58	141.51	122.99	41.915	2.0926e-05	53.153	142.106	4.958	-57.830	-155.504	-71.451	-91.274	-155.647	-151.038	-43.980	-60.638	-151.305	-147.431	-146.988	-141.916	-9.586	-142.507	-8191	255	
13921.528	1	1	0	0	0.057955	0.11787	0.19581	0.29073	0.28343	0.12481	0.14064	0.26036	0.33585	0.21595	0.4622	0.21626	0.07699	0.074044	0.31024	0.11199	-2.2708	-2.2896	-2.8042	-2.5062	-2.4875	-2.8729	-2.5062	-2.7	-2.5	-2.375	-2.8563	-2.6417	-2.6229	-2.6667	-2.2313	-2.5854	-1.688	146.687	92.238	95.585	-101.603	-163.193	166.182	124.214	-23.128	108.684	162.622	111.295	91.637	-147.279	97.638	176.610	0.00086763	0.0012012	0.00025918	1287.2	1.4426e-05	3.2159e-06	1289.3	344	1.6318e-05	7.4885e-06	391.98	128.94	110.74	37.536	1.2828e-05	47.268	0.0018456	0.0018982	0.00053156	1370.4	2.067e-05	2.0776e-05	1374.7	372.94	2.0761e-05	2.084e-05	430.64	141.4	123.14	41.824	2.0731e-05	53.213	147.275	-90.884	-43.305	-155.366	-40.052	-122.697	-155.625	-150.610	57.190	-22.778	-151.083	-147.149	-146.717	-141.795	-38.256	-142.621	-8191	255	
#DATA ENDS
