BOXY.EXE: ISS Imagent and Oximeter Data Acquisition Program Version 0.80
Ascii Record File

#ACQ INFORMATION
2  Detector Channels 
16  External MUX Channels 
1  Auxiliary Channels 
5000  Waveform (CCF) Frequency (Hz)
1  Waveforms Skipped 
30  Waveforms Averaged 
1  Cycles Averaged 
16  Acquisitions per Waveform 
10.0806  Updata Rate (Hz) 

#FILE INFORMATION
TRUE -- External MUX Channel results are PARSED.
FALSE -- AC DC and Phase are NOT grouped.
TRUE -- Companion Program Settings File CREATED.
FALSE -- AC data not excluded
FALSE -- DC data not excluded
FALSE -- Phase data not excluded
FALSE -- Auxillary Chn. data not excluded
Tab delimiters

#CALIBRATION STATE
TRUE -- Waveform Calibration Values APPLIED.


#AUX CALIBRATION VALUES
Val Type	aux-1	

Term	1.0000e+00	
Factor	0.0000e+00	


#WF CALIBRATION VALUES
A = Detector Channel
Val Type	A-AC1	A-AC2	A-AC3	A-AC4	A-AC5	A-AC6	A-AC7	A-AC8	A-AC9	A-AC10	A-AC11	A-AC12	A-AC13	A-AC14	A-AC15	A-AC16	A-DC1	A-DC2	A-DC3	A-DC4	A-DC5	A-DC6	A-DC7	A-DC8	A-DC9	A-DC10	A-DC11	A-DC12	A-DC13	A-DC14	A-DC15	A-DC16	A-Ph1	A-Ph2	A-Ph3	A-Ph4	A-Ph5	A-Ph6	A-Ph7	A-Ph8	A-Ph9	A-Ph10	A-Ph11	A-Ph12	A-Ph13	A-Ph14	A-Ph15	A-Ph16	

Term	0.00000e+00	0.00000e+00	0.00000e+00	0.00000e+00	0.00000e+00	0.00000e+00	0.00000e+00	0.00000e+00	0.00000e+00	0.00000e+00	0.00000e+00	0.00000e+00	0.00000e+00	0.00000e+00	0.00000e+00	0.00000e+00	0.00000e+00	0.00000e+00	0.00000e+00	0.00000e+00	0.00000e+00	0.00000e+00	0.00000e+00	0.00000e+00	0.00000e+00	0.00000e+00	0.00000e+00	0.00000e+00	0.00000e+00	0.00000e+00	0.00000e+00	0.00000e+00	0.00000e+00	0.00000e+00	0.00000e+00	0.00000e+00	0.00000e+00	0.00000e+00	0.00000e+00	0.00000e+00	0.00000e+00	0.00000e+00	0.00000e+00	0.00000e+00	0.00000e+00	0.00000e+00	0.00000e+00	0.00000e+00	
Factor	1.00000e+00	1.00000e+00	1.00000e+00	1.00000e+00	1.00000e+00	1.00000e+00	1.00000e+00	1.00000e+00	1.00000e+00	1.00000e+00	1.00000e+00	1.00000e+00	1.00000e+00	1.00000e+00	1.00000e+00	1.00000e+00	1.00000e+00	1.00000e+00	1.00000e+00	1.00000e+00	1.00000e+00	1.00000e+00	1.00000e+00	1.00000e+00	1.00000e+00	1.00000e+00	1.00000e+00	1.00000e+00	1.00000e+00	1.00000e+00	1.00000e+00	1.00000e+00	X	X	X	X	X	X	X	X	X	X	X	X	X	X	X	X	

B = Detector Channel
Val Type	B-AC1	B-AC2	B-AC3	B-AC4	B-AC5	B-AC6	B-AC7	B-AC8	B-AC9	B-AC10	B-AC11	B-AC12	B-AC13	B-AC14	B-AC15	B-AC16	B-DC1	B-DC2	B-DC3	B-DC4	B-DC5	B-DC6	B-DC7	B-DC8	B-DC9	B-DC10	B-DC11	B-DC12	B-DC13	B-DC14	B-DC15	B-DC16	B-Ph1	B-Ph2	B-Ph3	B-Ph4	B-Ph5	B-Ph6	B-Ph7	B-Ph8	B-Ph9	B-Ph10	B-Ph11	B-Ph12	B-Ph13	B-Ph14	B-Ph15	B-Ph16	

Term	0.00000e+00	0.00000e+00	0.00000e+00	0.00000e+00	0.00000e+00	0.00000e+00	0.00000e+00	0.00000e+00	0.00000e+00	0.00000e+00	0.00000e+00	0.00000e+00	0.00000e+00	0.00000e+00	0.00000e+00	0.00000e+00	0.00000e+00	0.00000e+00	0.00000e+00	0.00000e+00	0.00000e+00	0.00000e+00	0.00000e+00	0.00000e+00	0.00000e+00	0.00000e+00	0.00000e+00	0.00000e+00	0.00000e+00	0.00000e+00	0.00000e+00	0.00000e+00	-1.23726e+02	-1.39918e+02	-1.78938e+02	-1.81413e+02	-3.50059e+01	-7.24347e+01	-1.57789e+02	-1.62015e+02	-7.41590e+01	-9.50557e+01	-1.80411e+02	-1.70917e+02	-1.81322e+02	-1.76271e+02	-8.71251e+01	-1.49364e+02	
Factor	1.81544e-05	1.23178e-04	2.51159e-05	1.85326e-01	8.05980e-07	9.73926e-07	1.72092e-01	5.34215e-02	8.30615e-07	1.09759e-06	1.07935e-01	3.07122e-02	2.47813e-02	9.40291e-03	9.68748e-07	1.38253e-02	5.41759e-07	5.53856e-07	1.53778e-07	8.86287e-02	6.03997e-09	6.06804e-09	7.82073e-02	2.56647e-02	6.05508e-09	6.07195e-09	4.76290e-02	1.39290e-02	1.17526e-02	4.39035e-03	6.05682e-09	6.14778e-03	X	X	X	X	X	X	X	X	X	X	X	X	X	X	X	X	



#DISTANCE SETTINGS
A = Detector Channel
A-1	A-2	A-3	A-4	A-5	A-6	A-7	A-8	A-9	A-10	A-11	A-12	A-13	A-14	A-15	A-16	

2.5000e+00	3.0000e+00	2.5000e+00	3.0000e+00	2.0000e+00	3.0000e+00	1.5000e+00	3.0000e+00	3.0000e+00	3.0000e+00	3.0000e+00	3.0000e+00	3.0000e+00	3.0000e+00	1.5000e+00	3.0000e+00	

B = Detector Channel
B-1	B-2	B-3	B-4	B-5	B-6	B-7	B-8	B-9	B-10	B-11	B-12	B-13	B-14	B-15	B-16	

1.0000e+01	1.0000e+01	1.0000e+01	1.4400e+00	1.0000e+01	1.0000e+01	1.5100e+00	1.9400e+00	1.0000e+01	1.0000e+01	1.9900e+00	2.4900e+00	2.4100e+00	2.9000e+00	1.0000e+01	2.9800e+00	




#DATA BEGINS
time	group	step	mark	flag	A-AC1	A-AC2	A-AC3	A-AC4	A-AC5	A-AC6	A-AC7	A-AC8	A-AC9	A-AC10	A-AC11	A-AC12	A-AC13	A-AC14	A-AC15	A-AC16	A-DC1	A-DC2	A-DC3	A-DC4	A-DC5	A-DC6	A-DC7	A-DC8	A-DC9	A-DC10	A-DC11	A-DC12	A-DC13	A-DC14	A-DC15	A-DC16	A-Ph1	A-Ph2	A-Ph3	A-Ph4	A-Ph5	A-Ph6	A-Ph7	A-Ph8	A-Ph9	A-Ph10	A-Ph11	A-Ph12	A-Ph13	A-Ph14	A-Ph15	A-Ph16	B-AC1	B-AC2	B-AC3	B-AC4	B-AC5	B-AC6	B-AC7	B-AC8	B-AC9	B-AC10	B-AC11	B-AC12	B-AC13	B-AC14	B-AC15	B-AC16	B-DC1	B-DC2	B-DC3	B-DC4	B-DC5	B-DC6	B-DC7	B-DC8	B-DC9	B-DC10	B-DC11	B-DC12	B-DC13	B-DC14	B-DC15	B-DC16	B-Ph1	B-Ph2	B-Ph3	B-Ph4	B-Ph5	B-Ph6	B-Ph7	B-Ph8	B-Ph9	B-Ph10	B-Ph11	B-Ph12	B-Ph13	B-Ph14	B-Ph15	B-Ph16	aux-1	digaux	

2749.439	1	1	0	768	0.16693	0.27542	0.05388	0.23112	0.097688	0.16121	0.23834	0.12143	0.078617	0.082119	0.10348	0.206	0.17257	0.18632	0.21808	0.11243	-2.3792	-2.4104	-2.9771	-2.5292	-2.7104	-2.9958	-2.7083	-2.9083	-2.9125	-2.3479	-3.1562	-2.6583	-2.5917	-3.1937	-2.5333	-3.1375	310.816	149.936	187.683	463.175	185.744	263.093	121.297	361.199	448.650	161.855	435.185	225.786	390.641	462.720	210.078	445.644	0.00067185	0.00046744	6.7852e-05	591.23	1.9585e-06	2.8525e-06	584.66	234.29	2.7906e-06	2.8191e-06	268.18	121.87	100.55	51.071	3.181e-06	65.566	2.3176e-05	9.0648e-06	2.2919e-06	539.83	1.0674e-07	8.9655e-08	538.02	214.33	1.0922e-07	8.9561e-08	233.83	108.64	89.405	45.645	1.0081e-07	57.141	184.654	200.046	168.430	125.793	289.309	253.372	124.480	130.719	240.187	244.807	128.141	131.664	133.716	138.177	235.850	134.539	-8191	255	
2749.535	1	1	0	0	0.26149	0.32412	0.21336	0.30267	0.21292	0.21702	0.24982	0.28489	0.15544	0.24808	0.32228	0.16027	0.12709	0.25032	0.20838	0.06586	-2.5354	-2.4229	-3.0417	-2.6896	-2.3667	-3.1083	-2.4375	-2.9562	-2.9354	-2.4729	-2.95	-2.7687	-2.4917	-3.1729	-2.3146	-2.875	182.078	183.942	217.345	181.655	233.895	198.946	411.448	431.079	262.894	187.704	245.289	456.142	223.836	405.361	115.887	450.130	0.00066635	0.00039334	4.7128e-05	593.71	1.792e-06	3.0631e-06	588.28	234.8	2.6538e-06	1.9445e-06	273.08	124.41	100.93	51.968	3.3963e-06	66.688	2.2711e-05	8.999e-06	2.1407e-06	538.88	1.0379e-07	8.7013e-08	541.78	215.02	1.0752e-07	9.0485e-08	237.47	110.54	90.508	46.329	1.0647e-07	58.303	183.114	179.458	163.860	125.590	291.188	276.766	124.458	130.478	252.576	245.086	128.113	131.771	134.086	137.813	243.448	134.482	-8191	255	
2749.631	1	1	0	0	0.046968	0.20388	0.067892	0.0061812	0.052572	0.217	0.062294	0.28759	0.23596	0.26879	0.028919	0.11255	0.15413	0.25857	0.11428	0.10245	-2.3521	-2.2833	-2.7875	-2.7583	-2.3667	-2.7625	-2.3937	-2.6979	-2.8646	-2.325	-2.8083	-2.8896	-2.5479	-3.2229	-2.3083	-2.7146	172.389	159.565	211.331	236.149	325.210	201.449	406.046	400.891	300.292	446.852	470.998	471.406	186.869	129.014	207.840	125.177	0.00064532	0.00046499	0.00010475	592.37	1.9659e-06	2.7254e-06	595.54	238.05	2.8342e-06	2.8637e-06	278.39	125.71	101.43	52.037	2.9318e-06	67.505	2.1974e-05	8.0321e-06	2.3038e-06	542.5	1.0308e-07	8.8947e-08	549.1	217.61	1.0208e-07	9.1712e-08	242.15	111.85	90.946	46.462	1.0329e-07	58.721	183.477	182.731	158.655	125.971	277.071	247.614	124.092	130.566	254.632	241.700	127.956	131.737	134.084	138.027	235.660	134.713	-8191	255	
2749.727	1	1	0	0	0.048144	0.19391	0.18207	0.23295	0.17816	0.071155	0.09017	0.17592	0.23567	0.053306	0.13476	0.18849	0.29144	0.32218	0.14849	0.38437	-2.5021	-2.3167	-2.8042	-2.7417	-2.2771	-2.9562	-2.3208	-2.5	-2.9167	-2.2917	-2.9437	-2.8292	-2.3312	-3.0208	-2.4167	-2.4458	232.795	275.708	195.036	403.935	289.040	235.982	333.790	415.489	268.850	121.275	174.823	458.462	127.476	392.108	421.343	416.281	0.00067448	0.00035707	7.5444e-05	597.47	3.2196e-06	2.7546e-06	601.47	239.07	3.0203e-06	3.3583e-06	278.66	125.56	102.13	52.04	3.4895e-06	66.797	2.2408e-05	8.3932e-06	2.3015e-06	544.46	9.82e-08	8.5825e-08	553.41	219.65	9.982e-08	8.8891e-08	242.08	111.99	90.908	46.407	1.0945e-07	58.348	184.887	185.104	142.290	125.497	286.610	247.051	124.392	130.667	230.864	225.967	127.898	131.781	133.793	138.116	250.680	134.719	-8191	255	
2749.823	1	1	0	0	0.19224	0.15965	0.099451	0.10252	0.10233	0.036242	0.058801	0.49379	0.12982	0.043288	0.23121	0.1416	0.15446	0.21601	0.03754	0.18739	-2.5354	-2.3	-2.7167	-2.9417	-2.5375	-3.0646	-2.7208	-2.4979	-2.8812	-2.275	-2.7979	-2.9771	-2.3708	-2.9083	-2.6604	-2.5125	143.324	325.221	451.344	236.913	229.364	434.715	205.670	327.280	232.073	203.189	116.274	205.704	467.760	140.368	150.188	385.069	0.00064429	0.00036699	4.2259e-05	592.16	2.5303e-06	1.65e-06	586.12	233.03	2.4201e-06	1.9212e-06	267.65	121.67	99.575	51.284	2.9668e-06	65.234	2.2283e-05	8.3448e-06	2.4576e-06	538.98	9.9748e-08	8.451e-08	537.5	214.15	9.6023e-08	8.3704e-08	233.22	108.24	89.346	45.768	1.1227e-07	57.034	184.434	196.551	153.813	126.001	280.174	274.640	124.314	130.471	266.228	228.300	128.214	131.843	134.208	138.247	226.148	134.771	-8191	255	
2749.919	1	1	0	0	0.27572	0.03317	0.18102	0.1639	0.15586	0.21862	0.22839	0.13208	0.249	0.21908	0.11328	0.17171	0.10866	0.1839	0.1635	0.38609	-2.6646	-2.5646	-2.4646	-2.9771	-2.2979	-2.8354	-2.8792	-2.4396	-3.2979	-2.55	-2.6896	-3.0854	-2.2875	-3.0208	-2.6771	-2.4938	238.474	246.678	296.028	330.351	456.966	371.620	294.176	393.982	221.126	227.330	164.201	332.896	382.673	281.897	471.383	380.167	0.00061428	0.00031797	7.5423e-05	587.14	2.6828e-06	3.0908e-06	591.01	234.74	2.1746e-06	2.7096e-06	275.77	124.57	101.09	51.612	2.9995e-06	66.3	2.0859e-05	8.7025e-06	2.5082e-06	538.15	9.4538e-08	8.9074e-08	541.11	215.14	8.9792e-08	9.1244e-08	238.64	110.66	90.425	46.103	1.0589e-07	58.101	184.530	194.054	179.077	125.921	287.585	251.433	123.890	130.316	249.538	236.405	127.908	131.879	134.044	137.835	228.760	134.436	-8191	255	
2750.040	1	1	0	0	0.31792	0.1726	0.24662	0.20033	0.20088	0.06975	0.19621	0.12146	0.11794	0.27826	0.21202	0.23105	0.0251	0.2103	0.30439	0.14043	-2.7125	-2.7083	-2.4479	-3.0625	-2.4375	-2.8667	-2.7583	-2.1979	-2.9604	-2.6333	-2.7271	-3.3458	-2.6708	-2.7292	-2.9417	-2.2479	339.412	412.247	177.484	327.031	337.444	441.694	382.763	386.138	189.505	245.458	440.160	410.295	406.335	133.231	298.545	408.752	0.00064437	0.00034717	6.9714e-05	598.05	2.1941e-06	2.1573e-06	604.9	239.86	3.2061e-06	3.0259e-06	280.95	127.38	102.24	52.042	3.2911e-06	67.895	2.1916e-05	8.5952e-06	2.3755e-06	545.9	9.4702e-08	9.6785e-08	554.11	219.56	9.8143e-08	9.4596e-08	245.3	112.99	91.406	46.512	1.0222e-07	59.126	184.360	190.460	163.808	125.850	286.885	253.390	124.637	130.362	255.904	214.653	128.045	131.832	133.799	138.268	228.866	134.482	-8191	255	
2750.136	1	1	0	0	0.25545	0.14818	0.12873	0.053432	0.10386	0.097629	0.15515	0.18543	0.052472	0.023927	0.058998	0.19258	0.136	0.11086	0.17984	0.05664	-2.5438	-2.4979	-2.2812	-3.1542	-2.3	-2.5542	-2.9479	-2.175	-2.8125	-2.7042	-2.4396	-2.9729	-2.4354	-2.7354	-3.0542	-2.35	366.400	362.415	230.054	140.148	272.757	215.732	364.467	435.100	164.679	290.428	420.331	139.155	153.463	228.176	446.044	401.816	0.00068354	0.00029668	8.0505e-05	600.06	2.1972e-06	2.6122e-06	606.1	239.07	1.9663e-06	2.5997e-06	278.17	126.15	101.17	51.871	4.0328e-06	66.518	2.308e-05	9.179e-06	2.4512e-06	550.19	9.971e-08	9.5647e-08	558.33	219.58	9.9909e-08	9.8644e-08	241.39	112.02	90.718	46.287	1.028e-07	58.014	184.943	188.067	154.660	126.101	281.301	273.699	124.282	130.594	248.173	228.368	127.921	131.836	133.858	138.324	234.834	134.579	-8191	255	
2750.232	1	1	0	0	0.086368	0.19676	0.16132	0.042041	0.085815	0.042169	0.17674	0.070187	0.20918	0.083209	0.29467	0.07099	0.21172	0.19233	0.18068	0.14678	-2.3292	-2.7396	-2.3771	-2.8979	-2.4792	-2.7146	-3.1729	-2.5458	-2.7562	-2.725	-2.2333	-2.8958	-2.4188	-2.575	-3.1479	-2.6292	319.309	328.563	450.798	354.666	153.538	147.467	406.029	439.141	227.368	138.497	344.125	359.401	393.477	293.694	222.002	463.718	0.00064409	0.00047254	7.3552e-05	591.71	2.507e-06	2.8504e-06	589.7	234.48	2.7371e-06	3.0906e-06	268.63	122.56	100.15	51.138	3.2169e-06	65.626	2.1998e-05	8.7279e-06	2.3919e-06	541.01	1.0219e-07	9.4282e-08	539.61	214.75	9.8281e-08	9.1699e-08	233.67	108.72	89.447	45.756	9.4285e-08	57.315	182.896	183.750	153.822	126.139	265.854	257.794	124.643	130.453	248.381	227.021	127.989	131.608	133.894	138.248	237.452	134.409	-8191	255	
2750.329	1	1	0	0	0.060218	0.17203	0.074224	0.28754	0.23031	0.16098	0.20682	0.038046	0.15752	0.035904	0.031983	0.28178	0.13913	0.12902	0.20982	0.34514	-2.1896	-2.8688	-2.1792	-2.75	-2.7292	-2.65	-3.1333	-2.3708	-2.5083	-2.9583	-2.4417	-3.025	-2.6646	-2.6542	-3.1229	-2.5604	418.444	258.588	365.242	195.125	212.687	297.775	431.070	364.502	255.315	222.847	398.870	269.940	245.616	436.183	381.235	431.832	0.00064591	0.00031584	5.7954e-05	599.01	1.9856e-06	2.8793e-06	596.79	238.73	3.194e-06	2.4599e-06	276.7	125.34	101.39	51.939	2.6796e-06	67.128	2.2482e-05	8.6528e-06	2.3031e-06	546.5	1.0269e-07	9.4459e-08	548.19	218.24	1.0614e-07	8.4375e-08	240.47	111.25	90.785	46.389	9.2354e-08	58.523	184.430	207.959	139.935	125.999	299.945	247.651	124.528	130.563	236.693	236.567	128.056	131.855	134.094	138.326	241.792	134.523	-8191	255	
2750.423	1	1	0	0	0.10933	0.055717	0.14318	0.062096	0.35266	0.037459	0.039144	0.11957	0.13621	0.13372	0.14672	0.18562	0.1039	0.12916	0.091016	0.07491	-2.1833	-2.8958	-2.4375	-2.9875	-2.8458	-2.5125	-3.1104	-2.7792	-2.4646	-3.0354	-2.1729	-3.0521	-2.8729	-2.5	-3.0062	-2.6167	200.983	270.255	169.371	177.259	142.014	163.895	366.401	353.378	220.804	271.451	160.272	434.668	168.519	301.483	359.621	344.923	0.00065186	0.0003446	6.8661e-05	605.02	2.5491e-06	2.8126e-06	612.88	242.2	3.3643e-06	2.5273e-06	283.44	127.82	102.88	52.461	3.1915e-06	67.78	2.2535e-05	7.8555e-06	2.4044e-06	552.36	1.0057e-07	8.8922e-08	559.04	221.85	1.0659e-07	8.2275e-08	246.1	113.41	91.753	46.724	9.4184e-08	59.202	184.755	206.923	131.797	125.909	297.778	261.124	124.404	130.359	270.014	248.231	128.252	131.961	133.619	138.085	242.743	134.561	-8191	255	
2750.519	1	1	0	0	0.25246	0.20679	0.087402	0.092144	0.043952	0.21453	0.17119	0.10659	0.33188	0.14642	0.16444	0.05588	0.31304	0.23924	0.2418	0.047219	-2.1333	-2.8292	-2.3	-2.8854	-2.7667	-2.2292	-3.1417	-2.5938	-2.5312	-2.9208	-2.3396	-2.7354	-2.9313	-2.5417	-3.1542	-3	357.258	390.590	353.286	426.706	112.890	423.849	303.253	468.836	186.648	237.957	224.829	464.530	432.059	137.940	290.407	442.722	0.00065409	0.00032657	7.0412e-05	603.29	2.3792e-06	2.4451e-06	598.6	239.76	3.4e-06	2.7069e-06	275.35	124.72	100.95	51.688	2.4722e-06	66.236	2.3113e-05	7.4436e-06	2.2955e-06	551.58	9.5746e-08	8.3309e-08	551.46	219.24	1.0215e-07	8.4653e-08	239.28	111.18	90.267	46.165	9.0562e-08	57.764	182.442	187.994	155.268	126.004	299.919	267.005	124.445	130.398	251.004	260.860	127.880	131.803	134.136	138.138	243.873	134.629	-8191	255	
2750.640	1	1	0	0	0.11375	0.38788	0.17248	0.11804	0.075161	0.079917	0.12764	0.090378	0.10802	0.29118	0.34259	0.21472	0.15464	0.18712	0.25645	0.18968	-2.1021	-3.0417	-2.4104	-2.5521	-2.8208	-2.1021	-2.7938	-2.6792	-2.3833	-2.9854	-2.5625	-2.7729	-3.1271	-2.3688	-2.7396	-2.5833	340.380	392.401	236.172	461.089	112.305	401.631	421.303	355.112	336.524	464.258	284.969	409.099	452.969	120.504	191.123	117.975	0.000639	0.00027296	5.9002e-05	591.74	2.1146e-06	1.9632e-06	582.72	235.01	1.6115e-06	2.9074e-06	268.14	122.31	100.26	51.551	2.6399e-06	65.976	2.2032e-05	7.6928e-06	2.2842e-06	540.72	9.4236e-08	8.5799e-08	534.39	214.59	1.0196e-07	7.8897e-08	232.25	108.66	89.697	45.932	1.011e-07	57.601	182.941	194.735	161.394	126.514	283.230	268.180	124.334	130.166	259.260	225.175	127.765	131.962	134.019	137.864	235.576	134.366	-8191	255	
2750.736	1	1	0	0	0.12313	0.21931	0.1423	0.16954	0.29121	0.17918	0.20159	0.2402	0.12372	0.123	0.13882	0.13843	0.23368	0.35811	0.25156	0.2444	-1.7667	-3.0021	-2.5625	-2.7021	-3.0687	-2.2771	-2.9104	-2.9313	-2.2938	-3.1167	-2.5292	-2.5938	-3.1854	-2.5542	-2.9979	-2.7875	340.238	115.810	115.787	349.004	402.973	309.806	340.918	424.146	404.052	284.073	340.828	389.568	439.255	431.747	337.709	382.383	0.00062107	0.00033161	8.4087e-05	598.87	1.9018e-06	2.6809e-06	597.36	239.1	2.6723e-06	2.9278e-06	274.12	125.48	102.16	51.937	3.4275e-06	67.108	2.2183e-05	8.2652e-06	2.4749e-06	547.75	9.8011e-08	8.7784e-08	546.78	218.25	1.0265e-07	8.8347e-08	238.87	111.58	91.154	46.473	1.0833e-07	58.599	182.620	181.727	145.457	126.018	295.324	249.656	124.225	130.445	251.404	249.322	128.138	131.641	134.225	138.121	232.614	134.624	-8191	255	
2750.832	1	1	0	0	0.19289	0.11294	0.29844	0.31664	0.30118	0.23709	0.25632	0.041842	0.20366	0.17866	0.12961	0.22506	0.31661	0.21028	0.36796	0.16919	-1.6542	-2.9667	-2.5687	-2.6104	-2.9708	-2.4562	-2.9896	-2.7229	-2.2625	-2.9646	-2.7188	-2.6333	-2.9771	-2.3958	-2.8333	-2.7708	464.607	145.114	399.155	378.930	360.780	445.523	327.435	213.193	238.592	211.519	222.620	413.171	155.418	441.312	198.566	275.437	0.00062856	0.00038157	6.8779e-05	603.64	1.8694e-06	2.5627e-06	600.24	241.49	2.8854e-06	2.662e-06	282.69	127.75	103.25	52.186	3.3951e-06	67.765	2.2252e-05	8.1567e-06	2.545e-06	549.92	9.3456e-08	8.92e-08	552.81	220.56	1.0474e-07	8.3629e-08	244.69	113.7	91.978	46.762	1.1417e-07	59.236	181.816	186.204	138.104	125.993	282.868	269.583	124.431	130.483	264.006	227.814	128.006	131.812	133.650	138.282	227.554	134.405	-8191	255	
2750.928	1	1	0	0	0.061308	0.10918	0.0080985	0.18859	0.082724	0.18335	0.18587	0.081443	0.12938	0.23965	0.30444	0.116	0.30917	0.10405	0.12291	0.25178	-1.7938	-2.8146	-2.7146	-2.3125	-3.0333	-2.5312	-2.7812	-3.0354	-2.2208	-2.9104	-2.6562	-2.4104	-2.9771	-2.4979	-2.6417	-3.0042	457.402	445.551	262.489	452.932	454.449	114.188	429.815	406.231	115.152	304.565	434.986	460.226	438.092	117.411	137.804	373.620	0.00068483	0.00040306	5.9588e-05	599.11	1.6936e-06	2.6648e-06	594.14	239.03	2.2945e-06	2.3792e-06	271.02	123.85	100.96	51.551	2.785e-06	65.715	2.2923e-05	8.5825e-06	2.4925e-06	547.95	9.1644e-08	9.3397e-08	547.45	218.52	9.8559e-08	8.9663e-08	236.36	110.13	90.233	46.059	1.0693e-07	57.421	184.581	189.077	139.558	125.958	296.078	275.736	124.247	130.457	261.026	248.180	128.044	131.829	133.964	138.128	228.497	134.621	-8191	255	
2751.000	1	1	0	0	0.25918	0.20479	0.10106	0.1092	0.10696	0.1732	0.063783	0.21685	0.12783	0.14058	0.159	0.25575	0.196	0.29715	0.10855	0.20415	-1.7854	-2.7917	-2.6042	-2.2771	-2.9542	-2.3187	-2.7229	-2.8937	-2.1646	-2.7042	-2.7479	-2.1458	-3.1729	-2.5938	-2.5625	-3.0854	256.209	297.902	280.051	356.185	283.134	341.438	370.976	408.949	325.735	255.906	448.768	431.688	148.756	129.337	252.033	385.525	0.00065701	0.00047152	8.2152e-05	592.4	2.7749e-06	2.3358e-06	580.28	235.3	2.5098e-06	2.493e-06	267.62	122.74	100.54	51.631	3.9654e-06	66.324	2.1983e-05	8.5905e-06	2.3832e-06	539.74	9.1002e-08	9.4788e-08	533.09	214.54	9.4951e-08	8.9536e-08	232.86	108.96	90.011	46.055	1.1127e-07	57.809	182.547	173.149	162.802	126.160	289.999	241.044	123.933	130.494	251.066	231.752	128.026	131.809	133.917	138.055	235.922	134.623	-8191	255	
2751.120	1	1	0	0	0.1284	0.11656	0.22697	0.17742	0.073812	0.21019	0.054249	0.058878	0.063819	0.17955	0.32116	0.10401	0.23695	0.12979	0.038322	0.14089	-1.9083	-2.7958	-2.9313	-2.325	-2.9854	-2.6292	-2.6167	-3.1125	-2.4938	-2.8063	-3.1271	-2.4417	-3	-2.7021	-2.3542	-3.2042	243.245	437.821	255.495	358.301	143.966	457.246	272.181	336.869	363.144	145.061	120.958	448.593	448.882	268.486	358.935	386.095	0.00067578	0.00039844	8.5176e-05	599.51	1.6169e-06	2.4699e-06	595.29	238.48	3.4414e-06	2.3713e-06	277.37	125.34	101.66	51.89	3.3557e-06	67.198	2.2482e-05	9.0198e-06	2.4681e-06	545.94	8.8372e-08	9.4927e-08	546.55	218.91	1.042e-07	9.2433e-08	241.36	111.8	90.967	46.299	1.0727e-07	58.649	180.910	196.766	138.511	126.024	292.672	245.320	124.445	130.485	246.228	234.893	128.046	131.950	133.829	138.217	230.555	134.712	-8191	255	
2751.217	1	1	0	0	0.18099	0.36122	0.044418	0.15986	0.068779	0.11735	0.19506	0.15238	0.092738	0.2339	0.16004	0.26374	0.24979	0.071479	0.06672	0.13135	-1.9479	-2.6167	-2.7333	-2.3312	-2.9125	-2.6	-2.4583	-3.0271	-2.4	-2.5792	-2.8146	-2.1708	-2.9	-2.6688	-2.0312	-3.2292	281.276	381.691	431.914	195.670	462.077	328.980	281.221	116.711	457.686	218.049	230.526	395.469	119.298	302.970	128.396	432.825	0.00067989	0.00034458	7.987e-05	601.16	2.1781e-06	2.2873e-06	603.46	242.91	2.9481e-06	4.0514e-06	281.99	128.18	102.65	52.224	3.2643e-06	67.857	2.3081e-05	9.3902e-06	2.2884e-06	547.56	9.4475e-08	9.9035e-08	553.38	222.01	1.0517e-07	9.9707e-08	245.82	113.8	91.84	46.662	1.0449e-07	59.028	183.342	180.662	150.884	126.301	281.027	258.100	124.493	130.212	254.904	236.943	128.129	132.026	134.299	137.938	233.186	134.587	-8191	255	
2751.313	1	1	0	0	0.19595	0.10346	0.27552	0.27751	0.10105	0.13295	0.24612	0.19239	0.034033	0.10917	0.13626	0.18238	0.13438	0.25774	0.14568	0.18099	-1.9917	-2.3625	-2.9646	-2.5125	-2.775	-2.9396	-2.25	-3.0729	-2.4917	-2.2604	-2.8396	-2.4583	-2.5625	-2.9896	-2.2292	-3.0042	245.094	125.693	309.871	121.381	460.546	175.566	407.389	394.307	418.097	269.640	410.518	348.244	437.421	121.798	220.165	434.333	0.00066916	0.00034765	7.0577e-05	595.89	2.3946e-06	2.188e-06	586.08	236.56	2.4844e-06	3.0681e-06	269.87	122.09	99.607	51.099	3.254e-06	65.011	2.3115e-05	9.299e-06	2.2247e-06	542.78	1.0389e-07	9.3498e-08	540.03	217.22	1.0825e-07	9.8695e-08	233.3	108.8	89.317	45.571	1.0271e-07	56.84	183.303	201.163	150.954	126.355	289.124	289.623	124.256	130.284	250.531	231.262	127.973	131.999	133.866	138.316	232.284	134.547	-8191	255	
2751.409	1	1	0	0	0.31313	0.085565	0.17517	0.21573	0.094351	0.19647	0.12736	0.18356	0.11515	0.08854	0.047643	0.17272	0.040633	0.27257	0.079079	0.31151	-2.2562	-2.3604	-2.8958	-2.3563	-2.5938	-2.9625	-2.2333	-3.0187	-2.7375	-2.4313	-3.0938	-2.3583	-2.4708	-2.9021	-2.2625	-2.8792	173.419	123.915	386.637	150.049	115.656	469.122	399.624	358.860	336.933	426.157	445.492	424.589	199.004	113.455	179.616	419.972	0.00064514	0.00032738	5.2242e-05	583.7	2.5866e-06	2.3376e-06	571.03	230.79	2.765e-06	1.6671e-06	264.3	122	99.607	50.971	3.5643e-06	65.266	2.2104e-05	8.759e-06	2.0289e-06	535.02	9.9358e-08	8.6495e-08	524.71	212.1	1.0875e-07	9.0105e-08	230.09	108.09	88.972	45.449	9.8928e-08	57.022	182.963	173.239	156.231	126.121	288.451	271.121	123.963	130.446	259.161	233.611	127.942	131.764	134.227	138.071	235.868	134.594	-8191	255	
2751.528	1	1	0	0	0.13876	0.13887	0.17425	0.21179	0.32834	0.29431	0.2584	0.14986	0.26404	0.19369	0.12176	0.04735	0.22878	0.29234	0.18707	0.14381	-2.2188	-2.0938	-2.7917	-2.4875	-2.6792	-3.0646	-2.5542	-2.8354	-2.8521	-2.4104	-3.0646	-2.7	-2.6083	-3.0542	-2.4646	-2.8854	181.768	127.750	419.948	340.223	218.467	424.692	436.371	290.761	184.153	308.380	336.067	286.289	251.604	428.402	194.798	113.654	0.00068327	0.00032522	5.5591e-05	588.96	2.0925e-06	1.9562e-06	583.18	237.31	2.0294e-06	3.0434e-06	274.7	124.06	100.31	51.299	3.2645e-06	66.08	2.3046e-05	8.3482e-06	2.1084e-06	539.01	9.9345e-08	8.7961e-08	536.39	216.89	1.0164e-07	9.223e-08	238.02	110.55	89.951	45.875	1.0236e-07	57.803	183.926	209.717	154.865	126.025	296.748	239.978	124.335	130.558	256.854	229.608	128.288	132.022	134.118	138.118	225.432	135.051	-8191	255	
2751.601	1	1	0	0	0.077703	0.16351	0.3198	0.15873	0.1934	0.20589	0.1061	0.10826	0.042433	0.25399	0.30467	0.34671	0.16016	0.20818	0.1192	0.12389	-2.1146	-2.0333	-2.8333	-2.5875	-2.4125	-2.9708	-2.3438	-2.7062	-2.7313	-2.2938	-2.825	-2.5896	-2.3125	-3.0729	-2.4542	-2.6312	219.925	147.397	190.181	380.416	449.752	188.875	154.563	430.678	463.736	338.985	454.442	412.743	221.964	414.716	340.591	380.217	0.0006461	0.00037676	9.0637e-05	590.63	2.0268e-06	2.8047e-06	588.73	239.37	2.8811e-06	2.6782e-06	280.81	126.89	101.87	51.81	3.3474e-06	66.421	2.1925e-05	8.4798e-06	2.1141e-06	540.01	9.966e-08	8.786e-08	542.82	219.36	1.0257e-07	9.0396e-08	243.83	112.66	90.926	46.159	9.9445e-08	58.127	183.733	204.964	163.762	125.876	279.490	261.720	124.397	130.295	247.656	224.477	127.877	131.708	134.114	137.865	233.885	134.673	-8191	255	
2751.720	1	1	0	0	0.15112	0.12843	0.069721	0.22569	0.1645	0.20439	0.089779	0.49821	0.14365	0.16665	0.31081	0.26221	0.16275	0.32536	0.12759	0.25095	-2.5542	-2.3271	-2.8104	-2.8167	-2.2583	-2.9354	-2.2625	-2.6813	-2.7958	-2.1979	-2.9854	-2.6917	-2.1937	-3.1729	-2.4313	-2.7854	290.953	157.247	294.170	449.738	319.030	392.235	321.506	374.541	442.898	199.994	401.221	172.348	431.092	454.485	292.466	362.212	0.000644	0.00025442	6.4827e-05	589.66	2.6867e-06	2.1312e-06	576.14	232.99	2.7383e-06	2.2872e-06	266.55	120.78	98.63	50.344	2.3239e-06	64.575	2.192e-05	8.6413e-06	2.2041e-06	538.32	9.4551e-08	8.4169e-08	530.75	214.05	9.9581e-08	8.7588e-08	231.32	107.38	88.533	45.113	1.0448e-07	56.372	183.212	177.036	153.500	125.937	296.548	235.705	124.301	130.258	249.476	248.728	127.990	131.816	133.857	138.167	213.495	134.635	-8191	255	
2751.816	1	1	0	0	0.053519	0.19803	0.16273	0.072458	0.048906	0.24857	0.129	0.10038	0.0856	0.29719	0.192	0.22155	0.13664	0.074214	0.16806	0.255	-2.5146	-2.1437	-2.6167	-2.7104	-2.0729	-2.7875	-2.3563	-2.2896	-2.7125	-2.2417	-2.7208	-2.8125	-2.4	-3.0104	-2.4917	-2.2875	283.532	260.631	161.504	113.780	126.897	361.675	121.135	427.650	429.069	148.133	133.373	161.233	369.004	272.772	123.556	466.627	0.00065413	0.00044699	7.0027e-05	585.74	1.6829e-06	2.7311e-06	567.95	233.09	2.1433e-06	2.4317e-06	265.32	122.4	99.003	50.766	3.0924e-06	65.208	2.2205e-05	8.4763e-06	2.4175e-06	534.07	9.7671e-08	8.7064e-08	523.71	213.03	9.9076e-08	8.8347e-08	232.09	108.47	88.851	45.336	1.1034e-07	56.902	183.789	184.262	158.495	126.034	289.470	258.633	124.458	130.593	246.123	232.901	127.884	131.824	133.906	137.932	220.099	134.358	-8191	255	
2751.912	1	1	0	0	0.22294	0.090879	0.084585	0.11317	0.19943	0.3286	0.33295	0.042995	0.027195	0.20595	0.24911	0.42234	0.025767	0.14516	0.29249	0.26652	-2.4458	-2.2375	-2.6063	-2.9417	-2.1479	-2.6562	-2.5729	-2.1458	-2.9083	-2.3021	-2.5833	-2.8625	-2.3375	-2.8937	-2.4917	-2.2521	332.278	260.286	135.937	153.863	399.277	378.872	162.311	153.391	337.368	250.842	387.570	391.606	183.585	175.334	453.464	141.770	0.00062376	0.00030471	5.8962e-05	585.99	2.4528e-06	3.09e-06	583.44	235.33	3.6637e-06	1.4846e-06	271.08	123.28	100.29	50.848	3.1291e-06	65.993	2.1738e-05	8.2386e-06	2.5383e-06	535.55	9.864e-08	8.7051e-08	534.28	216.06	9.4358e-08	8.9903e-08	237.15	110.01	89.659	45.589	1.092e-07	57.63	183.088	182.525	136.311	125.903	291.424	253.094	124.338	130.471	252.442	203.976	128.063	131.960	134.400	137.934	242.504	134.713	-8191	255	
2752.009	1	1	0	0	0.15335	0.17854	0.085018	0.29268	0.0079667	0.098597	0.17943	0.10065	0.2202	0.25626	0.081765	0.24587	0.10418	0.11906	0.063446	0.047906	-2.5458	-2.3812	-2.5979	-2.95	-2.1729	-2.8729	-2.8521	-2.1125	-2.8875	-2.2771	-2.3604	-3.1146	-2.4625	-3.0146	-2.8375	-2.5167	464.110	142.422	291.162	368.124	394.123	325.295	427.187	467.473	120.095	439.909	199.750	338.835	398.538	114.343	194.787	231.135	0.0006167	0.00030503	6.0962e-05	592.84	2.9396e-06	2.3246e-06	590.24	239.83	2.9549e-06	3.1097e-06	277.61	125.82	100.97	51.402	2.5477e-06	65.44	2.0862e-05	8.6367e-06	2.4825e-06	541.67	1.0175e-07	8.7658e-08	541.64	219	1.0007e-07	9.2825e-08	242.72	111.7	90.109	45.722	1.0845e-07	57.428	183.667	194.938	169.671	125.825	295.904	240.492	124.082	130.490	235.008	231.301	128.050	131.660	133.995	137.925	241.715	134.441	-8191	255	
2752.129	1	1	0	0	0.20827	0.15688	0.097578	0.070225	0.18943	0.095023	0.17941	0.21791	0.040854	0.15537	0.19864	0.041144	0.26201	0.19626	0.29823	0.13372	-2.4667	-2.4542	-2.5667	-2.9979	-2.0687	-2.6437	-2.6792	-2.2375	-2.9125	-2.7542	-2.4167	-3.2188	-2.5125	-2.7	-2.7104	-2.1229	280.831	158.813	333.239	404.304	158.530	321.773	433.665	452.170	387.372	270.828	149.156	420.217	128.325	152.864	444.712	331.969	0.00065651	0.00028755	6.6986e-05	584.77	2.3938e-06	2.4801e-06	571.41	233.22	3.0074e-06	2.8922e-06	260.98	119.95	98.218	50.324	2.9295e-06	63.931	2.2408e-05	8.8005e-06	2.5553e-06	534.5	9.3884e-08	9.8188e-08	525.04	212.63	9.7045e-08	9.3445e-08	228.12	106.65	87.814	44.923	9.9597e-08	56.015	183.426	177.781	136.406	126.203	285.263	264.379	124.089	130.532	255.228	231.563	128.313	131.950	134.113	138.160	240.038	134.492	-8191	255	
2752.225	1	1	0	0	0.077082	0.11892	0.16837	0.31367	0.19735	0.28553	0.091178	0.074234	0.35993	0.21729	0.082016	0.26851	0.36372	0.28079	0.062881	0.14948	-2.3896	-2.5292	-2.2604	-2.9188	-2.2792	-2.4354	-2.7667	-2.05	-2.9688	-2.6917	-2.5042	-3.0958	-2.4938	-2.8083	-2.9729	-2.2604	303.918	149.640	295.135	188.108	425.166	279.547	422.108	376.560	423.279	129.728	303.665	156.666	426.843	460.171	140.985	298.192	0.00063085	0.00030929	7.0109e-05	580.09	2.6128e-06	1.9928e-06	568.78	232.24	3.3813e-06	3.3213e-06	267.24	122.05	98.924	50.63	2.4024e-06	64.757	2.1474e-05	9.1282e-06	2.5361e-06	530.37	1.0313e-07	9.8011e-08	524.22	213.21	1.0234e-07	9.7227e-08	233.27	108.71	88.938	45.221	1.0413e-07	56.788	183.085	176.347	148.094	126.270	298.224	251.522	124.208	130.502	257.012	242.814	128.028	131.654	134.197	138.023	260.995	134.684	-8191	255	
2752.321	1	1	0	0	0.21454	0.11793	0.094322	0.1327	0.16827	0.16583	0.31528	0.12365	0.10103	0.13322	0.48383	0.20008	0.21401	0.1766	0.17397	0.24739	-2.2583	-2.4583	-2.1896	-2.9417	-2.3292	-2.5229	-2.9313	-2.4375	-2.8354	-2.8438	-2.3042	-3.2625	-2.4938	-2.7	-2.9354	-2.4333	367.158	390.808	184.644	468.200	341.667	403.950	469.453	429.947	280.584	401.083	134.508	427.824	470.228	361.001	317.124	454.932	0.00061794	0.0002616	6.312e-05	590.9	2.584e-06	1.8537e-06	584.99	238.37	2.4766e-06	2.4586e-06	276.74	124.02	100.11	51.444	3.1721e-06	66.317	2.2051e-05	9.3256e-06	2.5082e-06	540.28	1.0189e-07	9.7076e-08	538.88	218.4	1.0767e-07	9.2585e-08	240.47	110.69	89.753	45.783	1.0704e-07	57.971	183.551	203.755	147.725	125.909	294.826	260.486	124.230	130.314	250.102	235.894	127.709	131.890	133.893	138.125	246.205	134.701	-8191	255	
2752.416	1	1	0	0	0.071107	0.40384	0.063682	0.31335	0.18182	0.30529	0.06945	0.16512	0.21232	0.10258	0.40235	0.16281	0.1336	0.16042	0.12067	0.2079	-2.4604	-2.8208	-2.275	-3.1458	-2.475	-2.2917	-2.875	-2.375	-2.6729	-2.7417	-2.2521	-3.1146	-2.7479	-2.4458	-3.1104	-2.5854	113.387	206.853	279.160	428.349	295.312	391.669	124.833	364.463	362.978	381.543	134.259	353.093	199.291	122.227	161.038	361.444	0.00065923	0.00022716	4.8469e-05	603.29	2.0675e-06	3.2221e-06	602.61	244.24	2.0732e-06	1.7464e-06	283.95	125.77	101.76	51.306	3.3182e-06	66.082	2.3153e-05	8.7636e-06	2.423e-06	549.34	1.0409e-07	1.001e-07	554.57	223.74	1.1515e-07	9.7569e-08	245.87	112.15	90.801	45.863	9.99e-08	57.804	184.181	193.578	161.739	126.335	282.634	256.632	124.327	130.215	251.583	227.994	128.335	131.779	133.929	137.977	240.883	134.652	-8191	255	
2752.512	1	1	0	0	0.22434	0.25332	0.11392	0.14682	0.083563	0.089526	0.21505	0.26036	0.11037	0.067431	0.10947	0.053201	0.095182	0.31659	0.05121	0.10443	-2.1667	-2.7812	-2.2146	-2.7854	-2.7958	-2.3958	-3.0708	-2.7271	-2.6646	-2.8937	-2.3187	-2.8354	-2.6729	-2.4271	-2.9021	-2.6833	155.291	210.527	422.110	332.653	332.361	441.345	415.974	450.585	277.804	282.656	213.125	373.945	455.260	116.504	288.225	461.446	0.00064785	0.00035654	6.5874e-05	599.87	2.3556e-06	2.3923e-06	586.39	236	2.8565e-06	2.2874e-06	266.58	121.16	98.539	50.438	3.6793e-06	64.58	2.3434e-05	8.7844e-06	2.3957e-06	546.51	1.0638e-07	9.7443e-08	537.64	216.07	1.1054e-07	8.9827e-08	232.01	107.71	88.505	45.142	9.8915e-08	56.405	183.356	187.952	143.471	126.345	279.502	266.125	124.135	130.469	256.119	220.396	128.026	131.994	134.068	138.182	240.108	134.612	-8191	255	
2752.608	1	1	0	0	0.16485	0.17425	0.30127	0.18802	0.38828	0.11868	0.15806	0.15674	0.060276	0.095371	0.24603	0.21587	0.046461	0.24884	0.1413	0.055952	-2.2938	-3.0042	-2.2562	-3.0187	-2.6125	-2.2167	-3.1104	-2.6354	-2.4146	-3.0292	-2.5229	-2.6333	-2.7958	-2.2896	-2.9104	-2.5792	391.415	182.856	298.368	325.375	245.116	163.303	329.687	323.185	180.561	383.953	170.639	304.722	184.880	438.167	161.654	363.157	0.00063068	0.00041031	6.1684e-05	591.42	2.9207e-06	2.7322e-06	588.42	237.23	3.1254e-06	2.0251e-06	272.6	123.45	100.29	51.043	2.4764e-06	65.536	2.278e-05	8.0598e-06	2.4172e-06	541.29	1.0556e-07	9.6317e-08	538.16	216.94	1.1162e-07	9.0586e-08	236.31	109.54	89.694	45.417	9.9559e-08	57.196	184.867	191.050	149.383	126.137	288.387	263.056	124.118	130.253	260.159	223.495	127.898	131.769	133.972	138.274	228.022	134.640	-8191	255	
2752.704	1	1	0	0	0.17201	0.16619	0.2939	0.07126	0.11372	0.10809	0.16034	0.074021	0.34058	0.29983	0.081402	0.12611	0.081554	0.14755	0.084616	0.29172	-1.8062	-2.9792	-2.3083	-2.7833	-2.8333	-2.2021	-3.1125	-2.7958	-2.5167	-3.1875	-2.5062	-2.8083	-2.9833	-2.5062	-2.9771	-2.6167	309.406	273.374	161.891	192.588	255.004	222.179	331.905	158.285	346.202	205.190	177.716	165.727	414.995	160.641	313.819	463.972	0.0006492	0.00037405	7.5061e-05	600.69	2.1283e-06	2.8907e-06	596.35	240.47	3.0637e-06	2.5307e-06	278.49	125.09	100.88	51.412	2.9124e-06	65.896	2.3392e-05	8.6932e-06	2.487e-06	548.29	1.0309e-07	9.3157e-08	546.82	220.48	1.1278e-07	9.4039e-08	241.52	111.25	90.286	45.817	1.0562e-07	57.975	184.303	174.773	142.470	125.823	285.694	262.566	124.101	130.504	266.434	247.425	128.255	131.941	134.114	138.072	231.653	134.769	-8191	255	
2752.825	1	1	0	0	0.12288	0.23196	0.135	0.12363	0.13342	0.051386	0.10987	0.11796	0.10988	0.28781	0.20697	0.27138	0.07304	0.1651	0.028146	0.13253	-1.7583	-2.9813	-2.3167	-2.4979	-2.775	-2.1521	-2.9375	-2.9	-2.3812	-3.0563	-2.7	-2.4938	-2.9104	-2.2042	-2.6521	-2.7188	284.767	215.216	142.399	150.725	176.146	148.060	387.795	365.625	463.670	288.963	396.611	426.483	295.471	432.283	285.980	397.273	0.00063252	0.00038966	5.407e-05	603.48	2.0679e-06	2.4718e-06	600.16	242.42	3.2308e-06	2.3804e-06	276.01	124.22	100.89	51.276	4.0549e-06	65.988	2.2771e-05	8.4671e-06	2.5928e-06	552.97	9.9622e-08	9.5369e-08	552.69	221.56	1.0442e-07	8.5488e-08	241.31	110.59	90.216	45.726	1.1264e-07	57.582	183.035	201.393	150.047	126.042	297.805	242.782	124.193	130.460	249.255	219.776	127.968	131.882	133.987	138.039	237.501	134.499	-8191	255	
2752.897	1	1	0	0	0.10186	0.17439	0.29072	0.11697	0.29952	0.17751	0.17776	0.05187	0.17592	0.15015	0.25964	0.20565	0.14642	0.22452	0.085518	0.13024	-1.6625	-2.7812	-2.3875	-2.5	-3.1167	-2.4813	-2.9208	-2.8604	-2.1667	-2.6771	-2.5625	-2.3146	-3.075	-2.5771	-2.6646	-2.9521	366.974	398.934	410.586	450.199	118.950	456.894	381.903	370.057	177.668	143.766	432.858	456.408	136.179	326.119	353.311	293.506	0.0006516	0.00030074	5.4536e-05	600.41	2.517e-06	3.3518e-06	591.03	236.43	2.8012e-06	3.0631e-06	267.98	120.71	99.267	50.318	2.6628e-06	64.308	2.3039e-05	7.7574e-06	2.6069e-06	549.32	9.6539e-08	8.8214e-08	539.48	217.4	1.0063e-07	8.3034e-08	232.23	107.31	88.62	44.995	1.097e-07	56.147	185.390	209.526	138.912	125.998	285.403	276.877	124.715	130.635	253.269	233.349	128.031	132.130	134.149	138.117	254.194	134.569	-8191	255	
2752.993	1	1	0	0	0.11873	0.28082	0.33107	0.046043	0.19487	0.078476	0.12335	0.024815	0.16414	0.14927	0.20973	0.29244	0.049832	0.15797	0.21448	0.31745	-1.7958	-2.7771	-2.7604	-2.3563	-2.9729	-2.3604	-2.7042	-2.975	-2.1375	-2.9667	-2.8438	-2.6271	-3.0917	-2.5292	-2.4958	-3.0563	114.389	424.396	198.768	374.896	264.114	200.451	344.569	406.524	330.555	469.793	409.868	412.501	279.596	452.348	211.854	415.553	0.00062138	0.00039666	6.8937e-05	595.2	2.7662e-06	2.3828e-06	583.88	235.58	2.2188e-06	2.6938e-06	266.88	121.54	98.891	50.374	3.738e-06	64.691	2.2028e-05	7.9282e-06	2.5463e-06	543.65	9.5771e-08	9.0654e-08	535.84	216.3	9.7537e-08	8.7183e-08	233.58	108.06	88.656	45.172	1.116e-07	56.633	184.734	188.168	137.211	126.024	292.345	245.528	124.491	130.544	244.329	228.679	128.136	131.864	134.309	138.309	242.958	134.557	-8191	255	
2753.089	1	1	0	0	0.11336	0.12952	0.20948	0.067097	0.22022	0.065484	0.272	0.17367	0.060648	0.095026	0.1375	0.039974	0.18405	0.23175	0.13213	0.030562	-1.7396	-2.6813	-2.7896	-2.425	-2.9979	-2.6937	-2.5646	-3.0771	-2.1646	-2.7021	-2.6688	-2.3083	-2.8292	-2.5375	-2.3208	-2.9646	208.560	206.344	415.139	428.301	245.109	232.205	431.930	472.102	434.809	153.123	166.591	125.736	431.870	384.727	401.263	314.799	0.0006384	0.00032599	7.6734e-05	595.72	2.1662e-06	2.0926e-06	579.67	235.51	3.453e-06	3.5471e-06	270.91	123.06	99.456	50.599	4.2824e-06	65.354	2.2237e-05	8.3448e-06	2.4483e-06	545.22	8.5591e-08	9.365e-08	534.06	215.77	9.9581e-08	9.595e-08	235.8	109.06	89.027	45.224	1.1138e-07	57.066	183.351	207.907	143.473	126.063	283.866	261.079	124.341	130.243	260.940	238.927	128.181	131.620	133.932	138.264	251.945	134.865	-8191	255	
2753.210	1	1	0	0	0.22311	0.16798	0.15577	0.06619	0.26943	0.15087	0.22183	0.033256	0.1553	0.080143	0.19536	0.26356	0.20296	0.18433	0.15746	0.12737	-1.6771	-2.7208	-2.9229	-2.2854	-2.9021	-2.3187	-2.2313	-2.9125	-2.3354	-2.55	-2.8521	-2.25	-2.6562	-2.5438	-2.1271	-2.9667	293.821	444.671	264.063	365.621	448.994	239.588	409.522	301.521	399.500	145.966	436.711	435.486	157.319	180.057	456.890	412.335	0.0006503	0.00045558	6.5511e-05	597.76	3.083e-06	2.3208e-06	588.17	236.55	2.9379e-06	2.3522e-06	265.75	120.98	98.511	50.163	3.3006e-06	63.921	2.1844e-05	8.5513e-06	2.2839e-06	546.46	9.1468e-08	9.6912e-08	540.46	216.38	9.7197e-08	9.2521e-08	232.12	107.5	88.01	44.746	1.0414e-07	55.844	185.401	170.953	153.249	126.130	279.699	272.725	124.230	130.575	256.626	208.545	128.169	131.759	133.989	138.104	234.775	134.898	-8191	255	
2753.306	1	1	0	0	0.1491	0.17103	0.2098	0.21154	0.072229	0.2107	0.30172	0.2514	0.14805	0.10066	0.21062	0.14381	0.12714	0.40148	0.088126	0.054332	-1.9562	-2.9604	-3.0208	-2.2229	-2.9854	-2.7604	-2.4062	-3.1042	-2.2583	-2.5208	-2.8312	-2.2938	-2.7271	-2.6312	-2.1354	-2.9104	438.217	425.652	274.285	244.787	199.156	252.792	377.054	430.384	357.872	469.184	461.723	309.260	144.509	465.177	246.692	171.287	0.00063296	0.00027014	6.3939e-05	585.67	2.6269e-06	2.4456e-06	560.37	227.96	2.0993e-06	1.7218e-06	254.91	117.43	96.793	49.432	2.4357e-06	62.843	2.1939e-05	8.9782e-06	2.1862e-06	534.2	9.5331e-08	9.317e-08	517.18	208.86	9.8408e-08	9.1674e-08	222.43	103.99	86.268	44.177	1.0075e-07	54.833	184.241	213.098	159.933	126.167	287.684	266.199	124.325	130.550	260.672	238.867	127.916	132.041	133.837	138.090	229.919	134.442	-8191	255	
2753.402	1	1	0	0	0.07538	0.15757	0.034528	0.14151	0.23313	0.13724	0.23805	0.12187	0.084367	0.062534	0.32345	0.19758	0.46167	0.2806	0.18656	0.13057	-1.8625	-2.2167	-2.8833	-2.3563	-2.5938	-2.8542	-2.4458	-3.1354	-2.5229	-2.4958	-3.2667	-2.5208	-2.8625	-2.9313	-2.5083	-3.0896	316.918	253.183	366.790	411.554	265.143	191.939	343.947	227.276	468.946	460.843	419.655	165.824	434.309	398.774	299.479	356.064	0.00058848	0.00042843	5.7708e-05	582.77	1.7905e-06	2.8448e-06	565.56	228.94	3.1969e-06	2.4366e-06	258.89	118.77	96.702	49.807	2.5634e-06	63.767	2.1136e-05	8.4071e-06	2.223e-06	530.21	9.7634e-08	8.8012e-08	520.24	210.34	1.0059e-07	8.5615e-08	226.65	105.57	86.802	44.392	1.0153e-07	55.631	185.848	177.897	145.428	126.154	280.579	270.852	124.363	130.376	251.284	212.353	127.916	131.758	134.051	138.159	237.856	134.515	-8191	255	
2753.496	1	1	0	0	0.27496	0.092266	0.057575	0.21818	0.13632	0.028712	0.32989	0.2312	0.16104	0.15355	0.21035	0.23819	0.24585	0.081053	0.1538	0.13281	-2.3042	-2.4417	-2.8479	-2.5667	-2.7646	-2.9354	-2.4042	-2.9688	-2.7313	-2.3312	-2.9875	-2.5187	-2.675	-2.9958	-2.4021	-2.9292	253.170	122.210	463.733	429.838	142.602	120.403	419.962	406.493	340.798	116.578	301.579	128.998	426.056	370.409	159.746	237.662	0.00063038	0.00043509	6.8662e-05	584.67	1.8191e-06	3.0139e-06	571.72	231.91	2.6498e-06	2.7884e-06	268.46	121.14	98.461	50.057	3.4522e-06	64.831	2.2329e-05	8.4671e-06	2.1596e-06	533.1	9.8124e-08	8.8973e-08	525.77	212.66	1.0572e-07	9.1636e-08	233.41	107.88	88.206	44.859	9.7452e-08	56.665	183.186	191.602	152.734	126.179	297.300	254.708	124.392	130.363	253.048	230.185	128.145	131.943	134.164	138.499	251.382	134.512	-8191	255	
2753.592	1	1	0	0	0.10486	0.071163	0.1637	0.19059	0.18184	0.1529	0.15194	0.040218	0.13384	0.16021	0.12316	0.022057	0.20103	0.28904	0.16492	0.21777	-2.2562	-2.5042	-3.1875	-2.5708	-2.6375	-3.1437	-2.3208	-2.8521	-2.6688	-2.2229	-2.925	-2.5687	-2.6542	-3.0958	-2.2792	-2.8167	328.615	440.612	302.954	412.301	248.166	350.012	411.681	124.731	454.980	334.981	326.270	273.952	144.863	355.154	443.660	276.855	0.00063636	0.00034926	7.9019e-05	591.41	2.1908e-06	2.6741e-06	574.84	232.72	2.4035e-06	2.6224e-06	262.79	119.99	97.559	49.665	2.9994e-06	63.218	2.2019e-05	8.5075e-06	2.0385e-06	539.58	1.0135e-07	8.2551e-08	529.07	213.36	1.0612e-07	8.464e-08	229.37	106.52	87.381	44.532	9.5016e-08	55.3	184.175	205.845	167.815	125.773	279.258	248.318	124.377	130.383	239.011	254.741	127.934	131.879	133.802	138.160	233.423	134.488	-8191	255	
2753.689	1	1	0	0	0.29053	0.073623	0.25061	0.13291	0.32761	0.22607	0.12391	0.28019	0.26402	0.013307	0.19092	0.1297	0.13876	0.1299	0.017558	0.12402	-2.2687	-2.0062	-2.7812	-2.6542	-2.4396	-3.125	-2.4854	-2.75	-3.1167	-2.2729	-2.8833	-2.7271	-2.5312	-3.0771	-2.2875	-2.6813	159.310	147.044	204.471	443.000	345.524	120.041	350.630	460.053	256.131	192.555	453.477	437.907	348.910	190.364	142.287	404.821	0.00062169	0.00035832	6.592e-05	577.22	1.8879e-06	2.2556e-06	556.78	226.36	1.8286e-06	3.349e-06	254.37	116.08	96.044	49.25	3.2857e-06	62.5	2.1984e-05	8.1071e-06	2.0308e-06	528.38	9.5822e-08	8.1552e-08	511.58	207.5	9.5229e-08	8.7639e-08	221.17	103.26	85.969	43.941	9.8411e-08	54.652	182.917	173.145	144.688	126.068	308.997	258.356	124.545	130.375	270.156	240.573	127.725	131.870	134.194	138.210	232.036	134.543	-8191	255	
2753.809	1	1	0	0	0.19168	0.32069	0.2261	0.045124	0.12481	0.15497	0.21424	0.26108	0.17568	0.11296	0.20158	0.36511	0.16699	0.13803	0.11528	0.31784	-2.3937	-2.3146	-2.7062	-2.5917	-2.3521	-3.0292	-2.4292	-2.6208	-2.8604	-2.2979	-3.0292	-2.65	-2.3646	-3.0708	-2.5812	-2.9188	453.648	449.393	282.382	275.691	239.105	432.098	412.638	121.168	159.233	153.665	355.190	113.435	434.151	158.978	336.671	427.928	0.0006059	0.00030807	5.2806e-05	577.16	1.8951e-06	2.0772e-06	565.28	228.48	3.2172e-06	2.9782e-06	260.03	118.16	97.663	49.832	2.9384e-06	63.75	2.1317e-05	7.889e-06	2.0872e-06	527.02	9.6224e-08	8.0439e-08	516.89	209.21	9.5834e-08	8.5577e-08	226.34	105.32	86.969	44.403	9.8007e-08	55.73	181.855	176.453	149.092	126.103	298.778	237.918	124.258	130.494	248.397	235.796	128.236	131.854	134.015	138.029	227.131	134.459	-8191	255	
2753.905	1	1	0	0	0.25017	0.20433	0.099976	0.1703	0.15556	0.20018	0.072049	0.1625	0.11695	0.22122	0.034609	0.099066	0.19886	0.14708	0.084194	0.067609	-2.5708	-2.1104	-2.6979	-2.8583	-2.2917	-2.9792	-2.6271	-2.5208	-2.8708	-2.1562	-2.7292	-2.65	-2.2167	-3.0125	-2.525	-2.475	183.559	245.630	204.309	396.840	130.706	259.984	318.960	430.227	319.342	366.452	294.659	471.502	446.725	438.505	450.695	397.533	0.00060291	0.00039252	7.7824e-05	580.48	2.7091e-06	2.5562e-06	567.55	230.81	1.8719e-06	2.0484e-06	264.79	120.2	98.005	50.157	2.1943e-06	64.514	2.0874e-05	8.294e-06	2.2689e-06	529.65	9.3204e-08	8.3322e-08	521.66	211.24	9.533e-08	8.9916e-08	230.83	107.05	87.53	44.694	1.028e-07	56.341	183.554	185.542	148.707	125.909	286.311	264.066	124.417	130.752	250.252	229.133	128.354	131.844	133.851	138.371	229.841	134.449	-8191	255	
2754.001	1	1	0	0	0.17699	0.14269	0.14689	0.072657	0.16113	0.20318	0.2756	0.074272	0.28791	0.049078	0.21281	0.12441	0.42315	0.14631	0.14845	0.038377	-2.5438	-2.25	-2.5375	-2.8542	-2.3375	-3.0625	-2.7875	-2.4625	-3.1229	-2.5625	-2.8417	-2.7771	-2.2333	-3.0542	-2.9646	-2.5354	142.634	450.545	253.758	225.500	433.711	344.526	450.514	444.161	184.549	350.132	396.921	160.463	394.739	150.055	334.980	468.361	0.00064155	0.00026575	6.905e-05	583.11	1.8319e-06	2.3697e-06	562.28	228.19	2.7775e-06	2.3728e-06	259.29	117.62	96.107	49.161	3.5944e-06	62.345	2.1638e-05	7.9351e-06	2.4723e-06	534.04	9.0801e-08	7.9858e-08	516.67	209	8.93e-08	8.1858e-08	223.91	104.38	85.934	43.933	1.0034e-07	54.421	184.988	204.933	158.161	126.243	292.390	244.861	124.426	130.373	255.769	238.444	128.114	131.848	133.785	138.156	242.813	134.639	-8191	255	
2754.122	1	1	0	0	0.11329	0.050847	0.21717	0.21464	0.24861	0.063829	0.29752	0.22253	0.094429	0.016424	0.055218	0.18726	0.19315	0.083108	0.13172	0.18779	-2.625	-2.5687	-2.6396	-3.0042	-2.3312	-2.7812	-2.8937	-2.2958	-2.9562	-2.5	-2.4104	-3.0208	-2.1333	-2.8042	-2.7833	-2.4208	187.417	342.712	332.134	451.535	250.831	279.174	349.533	440.716	400.823	288.521	329.360	401.098	424.036	261.944	454.054	382.111	0.00061338	0.00037457	6.0612e-05	568.56	2.0375e-06	1.3628e-06	541.93	222.36	2.7723e-06	2.2943e-06	249.56	114.59	95.154	48.931	3.358e-06	62.559	2.0636e-05	8.2755e-06	2.3474e-06	518.96	8.6422e-08	8.6659e-08	498.17	203.56	8.5061e-08	9.0523e-08	217.32	101.88	84.97	43.723	9.6581e-08	54.545	184.766	177.578	168.140	125.874	286.797	257.388	124.275	130.664	244.664	243.340	128.046	131.886	133.882	138.164	241.690	134.576	-8191	255	
2754.194	1	1	0	0	0.17147	0.025803	0.18	0.33767	0.22475	0.12318	0.06075	0.23553	0.24425	0.15718	0.10755	0.18482	0.1092	0.19536	0.08803	0.11561	-2.55	-2.5062	-2.5104	-3.1104	-2.4979	-2.8417	-3.0604	-2.225	-2.7687	-2.5833	-2.2229	-3.0229	-2.4646	-2.8479	-2.6521	-2.0438	337.671	246.083	171.456	194.371	127.864	174.581	134.484	390.761	410.902	157.576	459.102	447.884	421.706	256.764	211.881	170.398	0.00061248	0.0003841	9.7085e-05	572.01	2.1646e-06	2.2081e-06	554.4	226.7	3.4263e-06	2.1408e-06	258.89	118.09	96.601	49.64	2.6077e-06	63.695	2.0623e-05	8.1048e-06	2.2298e-06	521.53	8.6661e-08	8.5837e-08	508.29	207.22	9.147e-08	8.564e-08	224.67	104.89	86.494	44.368	9.884e-08	55.72	182.458	194.368	155.419	126.092	293.545	247.916	124.159	130.445	249.128	220.973	128.223	131.921	134.221	137.896	237.939	134.608	-8191	255	
2754.290	1	1	0	0	0.050566	0.11294	0.35413	0.32337	0.042232	0.33081	0.10797	0.17128	0.1672	0.11258	0.16574	0.069756	0.23726	0.20868	0.072284	0.18203	-2.2271	-2.5563	-2.2521	-3.2021	-2.5083	-2.6583	-2.9979	-2.4688	-2.925	-2.6479	-2.2271	-2.95	-2.3646	-2.5021	-2.8958	-2.2875	309.054	282.493	309.153	401.366	173.058	267.243	368.420	197.501	347.935	408.235	145.714	422.147	451.150	112.714	216.421	128.901	0.00063666	0.00033451	5.6558e-05	581.05	2.7867e-06	3.269e-06	565.4	230.8	2.7347e-06	2.4466e-06	261.62	120.6	98.08	50.148	3.9269e-06	64.591	2.1139e-05	8.8305e-06	2.1311e-06	531.01	9.0813e-08	9.3094e-08	518.72	211.06	9.5103e-08	9.2028e-08	229.27	107.08	87.681	44.763	9.9092e-08	56.363	182.764	183.387	138.241	125.862	295.264	262.453	124.163	130.346	253.915	246.008	128.397	131.713	134.152	138.191	232.600	134.553	-8191	255	
2754.386	1	1	0	0	0.077968	0.02998	0.18053	0.096917	0.12355	0.28214	0.36048	0.065178	0.08454	0.16187	0.28399	0.30959	0.037216	0.15969	0.10888	0.25443	-2.3479	-2.5312	-2.1896	-2.9542	-2.3146	-2.4208	-2.9021	-2.3667	-2.8646	-2.8979	-2.4125	-3.0208	-2.5958	-2.5604	-2.9479	-2.4313	183.041	326.564	428.951	352.563	360.862	354.190	378.318	338.084	397.650	137.223	435.040	363.988	203.327	404.289	409.864	421.841	0.00062994	0.00038442	8.2908e-05	580.2	2.4402e-06	2.3467e-06	561.13	229.75	2.2747e-06	2.3353e-06	258.94	117.27	96.819	49.258	2.7011e-06	62.652	2.1993e-05	8.5132e-06	2.3438e-06	531.33	9.7747e-08	9.2184e-08	516.25	209.45	9.9631e-08	8.8726e-08	224.49	104.44	86.172	43.997	9.0486e-08	54.748	183.843	177.281	149.791	126.067	281.990	266.552	124.254	130.446	248.057	238.872	128.318	131.787	133.860	137.955	251.898	134.729	-8191	255	
2754.505	1	1	0	0	0.058477	0.14104	0.15834	0.1339	0.15749	0.20097	0.049818	0.2181	0.22639	0.15375	0.36294	0.16389	0.2347	0.15152	0.059686	0.047248	-2.0667	-2.7854	-2.4188	-2.925	-2.6188	-2.3542	-3.0104	-2.325	-2.7354	-2.9104	-2.2042	-2.9208	-2.7792	-2.4104	-2.8208	-2.5333	364.953	172.224	419.228	313.336	382.495	242.699	293.625	133.211	119.944	158.062	459.148	391.538	168.106	366.669	314.958	117.773	0.00060273	0.00037521	6.5009e-05	570.11	2.1368e-06	2.9212e-06	551.9	224.93	2.7116e-06	3.7672e-06	252.42	116.14	95.608	49.34	3.6269e-06	62.813	2.136e-05	7.9686e-06	2.3438e-06	520.49	1.0136e-07	9.0148e-08	506.21	206.03	1.0305e-07	8.6576e-08	220.07	103.07	85.579	43.946	9.2821e-08	54.956	184.729	190.309	158.670	125.965	304.737	235.640	124.174	130.446	241.926	233.216	128.222	131.768	133.709	138.033	231.549	134.482	-8191	255	
2754.601	1	1	0	0	0.24842	0.071022	0.22982	0.2313	0.086525	0.15796	0.18948	0.13371	0.05874	0.21472	0.10422	0.039525	0.083145	0.29263	0.06683	0.25012	-2.3167	-2.8667	-2.1854	-2.7292	-2.6875	-2.3	-3.2083	-2.6958	-2.6188	-3.025	-2.3542	-3.0792	-2.8979	-2.4479	-3.1042	-2.5083	415.858	282.471	400.748	417.878	191.031	139.716	221.750	238.933	301.343	445.624	136.733	298.209	122.077	440.944	320.041	403.511	0.00064487	0.00031505	7.1324e-05	577.63	1.9328e-06	2.3959e-06	560.78	227.85	2.5093e-06	2.4041e-06	261.81	118.98	97.001	49.674	3.6605e-06	63.964	2.2044e-05	7.8117e-06	2.1276e-06	527.53	9.7118e-08	8.9023e-08	514.04	208.68	1.0091e-07	8.3464e-08	227.34	105.5	86.721	44.371	8.8303e-08	55.754	186.988	191.898	141.184	125.996	273.588	237.152	124.190	130.653	248.535	219.841	127.714	131.558	134.069	138.265	241.432	134.759	-8191	255	
2754.697	1	1	0	0	0.049304	0.26829	0.068497	0.17742	0.18062	0.28878	0.14222	0.15964	0.25608	0.24033	0.26969	0.14231	0.2196	0.1389	0.14673	0.21488	-1.9833	-2.8375	-2.2458	-2.7667	-2.7542	-2.1354	-2.9771	-2.55	-2.4917	-3.0729	-2.2917	-2.8125	-2.7542	-2.3792	-2.9	-2.7958	291.801	308.549	406.594	405.557	378.217	375.181	313.848	456.352	148.431	217.118	443.236	421.398	112.755	114.402	165.337	452.834	0.00062734	0.00032041	7.0338e-05	582.54	2.1002e-06	2.4898e-06	567.93	230.87	2.0543e-06	3.3165e-06	266.81	120.85	98.105	49.922	3.3048e-06	64.39	2.2039e-05	7.949e-06	2.0869e-06	532.05	9.3846e-08	8.6166e-08	523.27	212.2	1.0411e-07	8.0403e-08	232.1	107.5	87.688	44.604	9.3515e-08	56.411	185.268	188.469	148.195	126.176	294.933	256.461	123.951	130.456	269.646	243.594	128.123	131.968	133.829	138.083	232.342	134.607	-8191	255	
2754.771	1	1	0	0	0.1152	0.27212	0.36233	0.23299	0.14901	0.037682	0.11624	0.073391	0.15475	0.08812	0.056533	0.11098	0.12744	0.11116	0.16666	0.32138	-1.9646	-2.8646	-2.3583	-2.8021	-3.0604	-2.2313	-3.1437	-2.7979	-2.4833	-2.9313	-2.6208	-2.8438	-3.2979	-2.3917	-3.0354	-2.8812	174.227	359.803	359.481	466.494	386.447	361.190	351.838	132.959	340.397	385.336	346.233	134.647	421.893	180.139	365.741	116.688	0.00065376	0.00026712	6.3921e-05	583.64	2.3012e-06	3.6944e-06	559.39	227.24	3.1126e-06	2.8323e-06	256.6	115.85	94.959	48.928	2.5262e-06	61.963	2.2056e-05	7.4771e-06	2.2442e-06	531	9.3519e-08	8.5724e-08	515.67	208.36	9.871e-08	8.3338e-08	222.94	103.17	85.181	43.664	9.0537e-08	54.243	182.745	183.223	163.133	126.157	286.138	265.841	124.301	130.336	241.317	214.036	128.297	131.837	134.277	137.902	241.521	134.478	-8191	255	
2754.890	1	1	0	0	0.10337	0.16749	0.15889	0.073438	0.056973	0.10436	0.096973	0.036247	0.11841	0.091675	0.12552	0.088946	0.1943	0.050618	0.13071	0.075586	-2.1271	-3.0146	-2.5708	-2.7562	-3.0563	-2.4125	-2.9417	-2.8	-2.4208	-3.0729	-2.5187	-2.6271	-3.2042	-2.4521	-2.8	-3.0083	205.382	151.123	362.716	265.878	314.919	117.744	339.208	458.213	278.110	247.102	453.879	195.682	470.790	342.880	199.232	161.842	0.00060903	0.00034932	4.118e-05	569.13	2.0827e-06	2.5414e-06	549.87	223.06	2.5675e-06	2.3538e-06	252.15	115.06	94.875	48.881	3.884e-06	62.401	2.1178e-05	7.214e-06	2.1574e-06	520.77	8.8964e-08	8.1021e-08	504.62	204.38	9.2945e-08	7.6836e-08	218.97	102.16	84.888	43.629	1.0453e-07	54.525	184.397	197.792	139.791	126.259	297.783	276.180	124.119	130.473	254.257	227.192	128.070	131.839	134.131	138.291	227.529	134.633	-8191	255	
2754.986	1	1	0	0	0.25856	0.18766	0.26048	0.36897	0.12566	0.13517	0.10762	0.20703	0.15532	0.0021722	0.089377	0.061825	0.35214	0.17502	0.1301	0.2919	-1.8937	-2.9667	-2.3479	-2.5604	-3.1458	-2.3875	-2.6833	-2.7104	-2.2021	-2.9562	-2.5375	-2.5646	-3.1271	-2.4854	-2.5312	-2.5792	324.182	362.545	260.563	398.972	394.611	192.242	429.955	396.384	146.318	372.341	114.618	197.331	442.453	357.669	309.845	395.960	0.00060529	0.00030419	6.4623e-05	573.01	2.1274e-06	2.2082e-06	559.5	225.5	2.2692e-06	2.7129e-06	255.93	117.05	95.686	49.309	2.0793e-06	63.051	2.1466e-05	7.7228e-06	2.3448e-06	525.3	9.0411e-08	8.0768e-08	513.02	207.15	9.35e-08	7.8391e-08	223.04	103.93	85.66	43.872	1.0257e-07	55.015	184.614	189.328	141.980	126.157	289.605	248.542	124.318	130.553	239.628	226.088	127.775	131.928	134.150	137.939	229.310	134.700	-8191	255	
2755.082	1	1	0	0	0.099529	0.087424	0.20488	0.24977	0.15213	0.27894	0.45427	0.21	0.19258	0.11345	0.028812	0.10194	0.22648	0.13749	0.050905	0.16826	-1.5146	-2.8688	-2.5708	-2.3333	-2.7167	-2.2	-2.5812	-2.8958	-2.0667	-2.7146	-2.725	-2.2354	-3.0479	-2.6792	-2.5792	-3.0354	151.321	230.540	133.104	334.506	227.499	341.917	382.861	381.469	469.915	446.043	319.960	325.566	239.466	466.191	333.904	429.241	0.00061327	0.00046551	7.4103e-05	580.91	1.1845e-06	2.0861e-06	568.34	230.55	2.8588e-06	1.8101e-06	263.99	118.83	97.42	49.441	3.5179e-06	63.743	2.075e-05	7.2521e-06	2.323e-06	531.3	8.695e-08	8.3764e-08	523.45	211.03	9.157e-08	8.3186e-08	229.87	105.97	86.837	44.167	1.024e-07	55.555	183.096	183.153	155.257	126.301	282.288	266.122	124.336	130.531	262.408	239.015	128.171	131.960	133.646	138.133	237.408	134.524	-8191	255	
2755.202	1	1	0	0	0.25171	0.072453	0.16003	0.16211	0.15289	0.19241	0.10672	0.13781	0.15971	0.24893	0.30679	0.3486	0.10128	0.053189	0.22258	0.13611	-1.7021	-2.7	-2.9208	-2.3833	-3.1063	-2.475	-2.4917	-2.8375	-2.1333	-2.8167	-2.7896	-2.3958	-3.125	-2.6042	-2.3417	-3.0771	309.218	402.025	322.286	384.842	402.804	302.085	465.052	464.229	178.750	279.389	438.447	117.529	429.603	471.060	182.332	435.918	0.00063009	0.00030583	5.3386e-05	579.69	1.889e-06	2.7264e-06	559.71	225.23	3.0232e-06	2.8554e-06	251.18	115.02	94.432	48.724	2.6489e-06	61.868	2.1115e-05	7.8059e-06	2.1622e-06	529.51	8.1087e-08	8.6293e-08	513.75	206.39	8.8127e-08	8.5943e-08	218.39	102.09	84.553	43.379	9.9206e-08	53.968	183.296	188.908	152.775	125.749	296.432	235.281	124.325	130.426	236.576	234.505	127.998	132.166	134.122	138.321	241.515	134.649	-8191	255	
2755.299	1	1	0	0	0.16446	0.22785	0.12359	0.10605	0.036208	0.15388	0.23321	0.26185	0.064529	0.20755	0.24067	0.11889	0.12715	0.077288	0.13118	0.22361	-1.8563	-2.5833	-2.8708	-2.3438	-2.8896	-2.4708	-2.2938	-2.9917	-2.4604	-2.6437	-2.9646	-2.375	-2.8417	-2.5563	-2.1625	-2.8688	378.096	323.939	323.919	397.429	218.091	384.124	325.617	139.048	338.565	228.429	300.146	119.534	379.540	394.856	227.096	121.970	0.00060601	0.00025918	6.1636e-05	569.89	2.2582e-06	1.8033e-06	548.95	221.96	2.3362e-06	3.2856e-06	248.94	113.43	94.167	48.581	3.3226e-06	61.963	2.0439e-05	8.4336e-06	2.1503e-06	520.98	8.305e-08	8.8758e-08	501.15	203.4	8.7824e-08	8.989e-08	216.03	100.92	84.263	43.341	9.537e-08	54.013	185.305	199.607	147.817	126.106	289.726	258.462	124.127	130.311	254.619	227.614	127.693	131.685	134.210	138.061	232.469	134.712	-8191	255	
2755.393	1	1	0	0	0.23829	0.1919	0.048891	0.18829	0.27426	0.20604	0.31108	0.17063	0.21192	0.28182	0.12334	0.34432	0.18076	0.13743	0.16317	0.099952	-1.6458	-2.6708	-3.0479	-2.2771	-2.8229	-2.7188	-2.4333	-2.8896	-2.3896	-2.5896	-3.0521	-2.575	-2.8479	-3.0187	-2.4313	-3.0854	391.252	153.447	226.107	423.149	324.085	227.273	345.584	350.002	274.498	308.476	422.942	373.023	456.398	447.719	275.986	130.372	0.00059782	0.00042222	7.047e-05	569.62	2.7357e-06	2.8153e-06	550.38	224.64	3.015e-06	2.7343e-06	253.94	115.82	95.259	48.895	3.3457e-06	62.827	2.0445e-05	8.4278e-06	2.11e-06	519.09	9.0612e-08	8.8151e-08	505.17	205.6	9.7626e-08	8.731e-08	221.92	103.28	85.343	43.572	9.2833e-08	54.793	184.109	180.882	171.372	126.069	287.461	268.038	124.155	130.515	250.754	253.116	128.043	131.887	134.020	137.860	240.754	134.433	-8191	255	
2755.491	1	1	0	0	0.13238	0.20725	0.10924	0.54408	0.10378	0.21882	0.244	0.36746	0.072274	0.092193	0.055806	0.018297	0.060012	0.18646	0.17126	0.13316	-2.0771	-2.5104	-2.9521	-2.2625	-2.5271	-2.675	-2.2979	-2.9083	-2.6167	-2.2958	-3.1125	-2.4375	-2.8042	-2.8854	-2.3708	-3.0396	360.109	224.797	253.903	440.294	392.007	369.815	273.261	414.778	256.341	378.741	378.318	335.058	468.811	367.519	210.733	220.626	0.00060882	0.00038746	5.9944e-05	574.9	2.0299e-06	2.5149e-06	557.63	227.42	3.5005e-06	3.0294e-06	258.82	117.34	96.161	49.231	3.3284e-06	63.085	2.1333e-05	8.1878e-06	2.0379e-06	524.91	9.0348e-08	8.6558e-08	512.69	208.23	1.0007e-07	8.607e-08	225.63	104.62	85.934	43.851	9.5079e-08	55.018	183.954	183.345	155.057	126.173	283.402	248.637	124.264	130.467	246.068	234.766	127.867	132.063	134.078	138.238	233.282	134.578	-8191	255	
2755.585	1	1	0	0	0.12438	0.028094	0.27566	0.23092	0.064158	0.25432	0.20273	0.15007	0.35616	0.33311	0.086592	0.38863	0.25292	0.20655	0.090746	0.16106	-2.3375	-2.4958	-2.9375	-2.1896	-2.4833	-2.8063	-2.2062	-2.8854	-2.4375	-2.2062	-2.8979	-2.3833	-2.3792	-3.0896	-2.325	-3.0083	441.640	145.977	159.203	428.467	428.366	431.670	441.232	438.409	394.408	117.414	254.879	191.218	257.266	374.506	467.535	135.657	0.0006204	0.00041378	5.7987e-05	573.29	3.3298e-06	2.7835e-06	548.1	222.73	2.3379e-06	3.1573e-06	246.33	113.09	93.622	48.061	3.4117e-06	61.104	2.1675e-05	8.0286e-06	2.0629e-06	521.64	9.6791e-08	8.2298e-08	503.65	203.88	9.5241e-08	8.4046e-08	215.66	100.44	83.675	42.836	8.9136e-08	53.275	183.945	197.304	143.688	126.193	301.151	253.782	124.415	130.438	257.242	249.772	127.971	132.106	133.950	138.399	244.081	134.564	-8191	255	
2755.681	1	1	0	0	0.22357	0.13143	0.042987	0.17056	0.14418	0.16404	0.132	0.2296	0.085239	0.1791	0.15635	0.18391	0.13727	0.0531	0.15917	0.33313	-2.3917	-2.4833	-2.9292	-2.5896	-2.5729	-3.0938	-2.5458	-2.9729	-2.9188	-2.525	-3.0667	-2.7417	-2.6688	-3.1771	-2.3854	-2.8312	454.592	226.097	344.628	424.145	152.901	422.102	431.614	407.570	424.569	382.413	385.489	461.419	125.310	183.812	205.989	419.525	0.00060723	0.00019953	5.7165e-05	560.05	2.7076e-06	2.7166e-06	535.94	219.73	1.9375e-06	1.8683e-06	245.81	112.62	93.306	48.048	2.676e-06	61.576	2.0837e-05	7.3432e-06	1.8998e-06	512.61	9.4979e-08	7.738e-08	493.36	201.75	9.3753e-08	8.1554e-08	214.72	100.21	83.738	42.971	8.843e-08	53.701	182.378	190.433	155.329	126.283	277.431	252.710	124.539	130.484	263.535	221.936	128.184	131.888	134.069	138.168	245.592	134.719	-8191	255	
2755.802	1	1	0	0	0.033026	0.18015	0.059312	0.016557	0.12273	0.080892	0.17567	0.081258	0.070365	0.13521	0.015955	0.1874	0.1867	0.099314	0.27108	0.168	-2.2271	-2.2021	-3.05	-2.6146	-2.2375	-2.9771	-2.3667	-2.4875	-2.8667	-2.4104	-3.0167	-2.7208	-2.6125	-3.175	-2.4729	-2.6708	464.185	201.851	241.205	145.669	331.513	246.115	393.001	237.366	459.657	438.635	181.346	334.747	368.179	126.744	427.769	335.580	0.00059762	0.00033889	6.1944e-05	566.44	1.9115e-06	2.8005e-06	545.57	223.73	3.1646e-06	2.5582e-06	254.1	115.14	94.6	48.255	3.0124e-06	62.24	2.0745e-05	7.5901e-06	2.018e-06	517.12	9.1002e-08	7.6065e-08	502.44	204.48	9.4926e-08	8.0377e-08	221.26	102.46	84.636	43.265	9.4802e-08	54.384	182.479	191.658	141.830	126.301	303.087	254.305	124.528	130.274	258.099	221.802	128.056	132.038	134.165	138.125	226.286	134.615	-8191	255	
2755.898	1	1	0	0	0.24879	0.26049	0.023303	0.21442	0.013664	0.11809	0.10882	0.1075	0.15461	0.27292	0.153	0.21672	0.082386	0.11756	0.26652	0.064468	-2.3479	-2.1417	-2.9104	-2.8104	-2.1813	-2.8958	-2.4979	-2.5792	-2.7417	-2.1604	-2.7583	-2.9688	-2.4292	-3.1875	-2.5396	-2.5687	330.214	362.993	223.457	410.078	157.970	350.635	418.574	456.751	329.586	325.404	133.662	410.021	436.422	432.577	156.167	354.778	0.00059879	0.00028982	5.3246e-05	570.93	1.8022e-06	2.3663e-06	555.92	226.54	2.2004e-06	3.035e-06	261.57	116.72	96.031	48.67	3.3533e-06	62.448	2.0433e-05	7.4551e-06	2.0987e-06	522.24	9.2147e-08	7.6596e-08	512.35	208.03	9.1659e-08	8.2591e-08	227	103.87	85.699	43.502	9.8057e-08	54.524	184.444	208.352	155.157	126.315	289.572	264.730	124.423	130.594	248.321	232.184	127.543	131.693	133.935	138.285	237.230	134.258	-8191	255	
2755.994	1	1	0	0	0.11731	0.079804	0.11548	0.34693	0.24024	0.15966	0.12386	0.23181	0.2302	0.19279	0.1264	0.31604	0.27025	0.041145	0.20966	0.1674	-2.4958	-2.1813	-2.7188	-2.7833	-2.3417	-2.9375	-2.4437	-2.4646	-2.7938	-2.3896	-2.9313	-3.0896	-2.3979	-3.1	-2.4375	-2.5021	203.484	444.023	267.439	392.583	112.991	367.425	363.302	322.101	380.100	249.608	305.907	311.110	168.363	136.135	384.977	376.716	0.0006219	0.00029777	5.03e-05	575.9	2.1155e-06	2.0074e-06	548.93	222.36	2.552e-06	2.6895e-06	248.37	112.39	93.559	47.827	3.3219e-06	61.156	2.0981e-05	7.7274e-06	2.233e-06	523.09	8.958e-08	7.1868e-08	503.97	203.73	9.0586e-08	7.2889e-08	216.05	100.27	83.651	42.83	9.8221e-08	53.342	183.438	217.215	158.917	125.933	285.228	241.981	124.318	130.477	246.864	218.260	127.354	132.030	134.080	137.962	241.630	134.724	-8191	255	
2756.066	1	1	0	0	0.32813	0.26419	0.20742	0.23122	0.29183	0.39859	0.091639	0.33408	0.22285	0.12152	0.042089	0.47349	0.15094	0.23217	0.14647	0.18024	-2.5187	-2.4562	-2.65	-3.2083	-2.1708	-2.8312	-2.7833	-2.2833	-3.1625	-2.5896	-2.6521	-2.7833	-2.2792	-2.9813	-2.7208	-2.3563	400.517	382.566	294.005	123.737	213.233	321.950	381.356	368.495	453.190	393.253	416.121	404.489	348.114	215.471	220.956	389.676	0.00058454	0.00034246	6.066e-05	564.84	1.1967e-06	2.7095e-06	543.54	221.22	2.1211e-06	3.407e-06	248.49	113.21	94.194	48.429	2.2675e-06	61.675	1.988e-05	7.4309e-06	2.3038e-06	515.04	8.2987e-08	7.9795e-08	499.02	202.64	8.7811e-08	7.8796e-08	216.78	100.93	84.027	43.175	9.9483e-08	53.985	184.133	211.370	132.923	125.863	296.119	270.923	123.879	130.626	252.378	250.727	127.967	131.823	134.197	138.227	238.857	134.623	-8191	255	
2756.187	1	1	0	0	0.30685	0.10895	0.24622	0.093441	0.077033	0.065945	0.20926	0.22725	0.17409	0.16397	0.022562	0.16948	0.1329	0.23566	0.26044	0.22276	-2.6542	-2.4313	-2.5354	-2.9583	-2.3438	-3	-2.7812	-2.5	-2.9833	-2.5771	-2.5812	-2.9521	-2.3417	-2.7917	-2.6854	-2.4104	184.655	140.855	419.064	386.761	420.636	161.285	395.011	439.264	426.173	450.929	294.434	165.108	134.308	428.924	271.874	456.309	0.00059495	0.00025793	6.2716e-05	566.97	2.1873e-06	2.7609e-06	550.09	224.28	3.329e-06	2.2704e-06	256.61	115.64	95.207	48.565	3.6293e-06	62.714	1.9897e-05	7.8809e-06	2.3877e-06	519.04	8.9744e-08	8.2879e-08	506.41	205.88	8.9464e-08	8.5324e-08	222.97	102.81	85.253	43.459	9.971e-08	54.737	182.975	183.642	140.095	126.136	281.397	273.438	123.945	130.422	261.574	226.450	127.961	131.747	134.076	138.247	246.344	134.517	-8191	255	
2756.283	1	1	0	0	0.19742	0.096923	0.21311	0.086713	0.10382	0.17063	0.10126	0.11414	0.16704	0.16777	0.17392	0.09158	0.18781	0.11003	0.18546	0.19442	-2.6312	-2.5229	-2.5729	-2.9729	-2.0833	-2.7479	-2.6729	-2.2875	-3.0563	-2.6167	-2.5958	-3.175	-2.4896	-2.6729	-2.8333	-2.2479	183.084	188.299	456.211	176.652	218.691	115.472	119.830	401.173	456.508	153.673	195.956	117.135	432.873	203.016	424.491	121.740	0.00062218	0.00034625	8.1633e-05	574.71	2.9559e-06	2.3772e-06	563	229.13	2.6294e-06	3.4178e-06	261.86	118.44	96.965	49.124	3.7272e-06	63.086	2.0683e-05	8.1532e-06	2.2525e-06	525.38	8.9907e-08	8.9908e-08	517.43	209.97	8.7483e-08	9.0548e-08	229.19	105.2	86.44	43.843	1.0179e-07	54.927	183.136	178.695	152.463	126.181	312.522	287.805	124.198	130.551	239.205	236.946	128.169	131.891	133.947	138.282	250.808	134.575	-8191	255	
2756.379	1	1	0	0	0.068603	0.076161	0.16682	0.092978	0.15188	0.2623	0.10704	0.12858	0.23068	0.33512	0.20439	0.38908	0.3031	0.096025	0.1116	0.23899	-2.2667	-2.475	-2.2646	-3.0542	-2.3021	-2.4896	-2.6917	-2.3354	-2.6396	-2.8458	-2.2458	-3.0292	-2.4208	-2.6021	-2.8229	-2.5667	423.020	179.885	296.964	322.625	189.461	215.983	180.753	414.451	435.026	192.523	187.959	411.317	399.390	463.424	381.750	461.201	0.00062354	0.00032857	6.3184e-05	573.7	2.4681e-06	1.2568e-06	550.05	224.91	2.3812e-06	3.0981e-06	251.73	113.72	93.516	48.258	2.5186e-06	61.239	2.1441e-05	8.6632e-06	2.3438e-06	522.52	9.2953e-08	9.0401e-08	507.29	206.28	9.2163e-08	8.8562e-08	218.97	101.07	84.204	43.13	9.1622e-08	53.703	181.105	182.340	152.339	126.184	292.039	244.036	124.213	130.543	261.560	237.521	128.492	131.887	134.083	138.339	235.132	134.622	-8191	255	
2756.473	1	1	0	0	0.13415	0.18072	0.15849	0.27492	0.040882	0.17772	0.40096	0.18102	0.20475	0.10984	0.1512	0.42604	0.12965	0.2259	0.11966	0.13386	-2.2396	-2.6437	-2.3292	-3.0292	-2.2479	-2.6229	-2.9729	-2.5	-2.9875	-2.95	-2.5854	-3.1312	-2.5729	-2.7833	-3.0646	-2.5271	147.343	169.431	180.271	364.427	442.467	362.617	455.522	299.631	129.164	149.844	428.583	361.208	354.394	433.126	426.295	355.346	0.00059854	0.00026799	6.4294e-05	567.54	2.0347e-06	2.4657e-06	544.69	224.15	2.4378e-06	2.2225e-06	251.93	114.55	94.865	48.703	3.0636e-06	62.133	2.0908e-05	7.7978e-06	2.2317e-06	518.49	9.4752e-08	8.9504e-08	503	205.24	9.7651e-08	8.3932e-08	219.74	101.92	84.84	43.417	9.0638e-08	54.302	184.931	201.897	148.757	126.366	283.585	265.891	124.360	130.531	252.082	247.469	128.152	131.749	134.078	138.168	240.643	134.601	-8191	255	
2756.594	1	1	0	0	0.067742	0.17377	0.13834	0.13028	0.3124	0.24373	0.14505	0.051386	0.34344	0.19491	0.13926	0.32651	0.22132	0.10546	0.17457	0.043303	-2.4417	-2.7833	-2.2854	-3.1271	-2.8646	-2.5521	-3.3875	-2.6333	-2.8146	-3.2792	-2.2792	-2.9521	-2.7104	-2.3292	-2.9479	-2.4646	462.103	324.377	173.852	302.695	428.524	308.512	334.569	288.653	238.708	341.375	374.479	406.138	433.542	328.858	306.868	461.491	0.00060301	0.00038677	6.6079e-05	576.69	2.5662e-06	2.5497e-06	558.63	227.26	1.5255e-06	3.1275e-06	256.63	117.27	96.248	49.238	3.1636e-06	62.937	2.1506e-05	8.0921e-06	2.2285e-06	525.2	9.6702e-08	8.6558e-08	514.67	208.83	1.0109e-07	8.5627e-08	225.11	104.16	86.073	43.862	9.0171e-08	55.153	183.976	186.727	172.363	125.805	291.271	251.945	124.324	130.625	252.353	228.033	127.797	131.736	133.967	138.097	209.928	134.870	-8191	255	
2756.666	1	1	0	0	0.2707	0.16245	0.12466	0.19436	0.063676	0.10171	0.078084	0.32336	0.13222	0.050066	0.23137	0.10723	0.062275	0.10716	0.024985	0.24188	-2.0583	-2.9292	-2.0729	-2.775	-2.4854	-2.0521	-2.9396	-2.3625	-2.4354	-2.9396	-2.2083	-2.925	-2.8667	-2.2625	-2.9	-2.5958	363.689	210.626	351.901	346.301	445.662	220.803	452.336	298.912	394.887	134.530	331.754	366.565	142.212	339.171	221.777	418.123	0.00060935	0.00027953	4.974e-05	581.58	2.2947e-06	2.3587e-06	572.45	231.8	2.7198e-06	1.8133e-06	266.5	118.65	97.143	49.443	3.1467e-06	63.105	2.1997e-05	7.8659e-06	2.2477e-06	533.43	9.8917e-08	8.5787e-08	525.54	211.97	1.0392e-07	8.2111e-08	230.91	105.86	86.819	44.003	9.2745e-08	55.218	182.489	190.664	154.750	126.185	275.865	246.960	124.120	130.539	248.189	227.013	127.870	131.784	134.106	138.287	234.550	134.502	-8191	255	
2756.762	1	1	0	0	0.05033	0.31112	0.086702	0.2093	0.29595	0.15492	0.043921	0.16502	0.15595	0.20673	0.082952	0.16626	0.20312	0.25417	0.12026	0.15096	-2.0396	-3.0396	-2.1312	-2.7812	-3.0083	-2.375	-3.2729	-2.7167	-2.4667	-3.1458	-2.5	-2.6854	-3.025	-2.2167	-3.0062	-2.5187	197.507	443.097	260.379	416.179	442.037	455.176	451.416	422.862	173.764	399.703	394.916	310.996	414.381	438.132	390.384	444.668	0.00062822	0.00030719	6.6843e-05	576.89	2.1126e-06	1.7305e-06	556.55	225.83	2.8604e-06	2.4534e-06	251.57	114.21	94.297	48.318	2.8815e-06	61.843	2.2127e-05	7.4736e-06	2.0161e-06	527.3	9.6199e-08	8.3056e-08	512.34	206.63	9.6629e-08	7.8366e-08	218.9	101.43	84.397	43.26	9.4095e-08	53.891	182.865	167.839	145.360	126.211	295.808	255.798	124.365	130.416	257.331	237.940	128.145	131.833	134.336	138.261	249.380	134.788	-8191	255	
2756.882	1	1	0	0	0.20421	0.083351	0.14656	0.11112	0.33642	0.029872	0.079755	0.14145	0.13818	0.084596	0.18539	0.2316	0.14722	0.26192	0.097162	0.025562	-2.0542	-2.8042	-2.2812	-2.65	-2.8438	-2.2208	-3.0042	-2.8229	-2.3	-3.0917	-2.6813	-2.9146	-3.1792	-2.4542	-3.0438	-2.7854	348.499	116.972	373.205	421.261	277.922	300.851	457.524	412.245	294.132	131.892	174.726	429.155	152.257	470.026	139.518	159.571	0.00061416	0.00030324	8.2312e-05	571.07	2.2349e-06	1.3103e-06	550.89	224.95	2.2041e-06	2.5283e-06	254.86	115.48	95.209	48.854	1.7987e-06	62.413	2.1578e-05	7.3063e-06	2.1128e-06	522.11	8.9681e-08	7.896e-08	505.75	205.63	9.4182e-08	7.9783e-08	220.9	102.39	85.173	43.545	9.2871e-08	54.47	181.612	181.286	155.134	126.091	288.908	237.819	124.151	130.389	258.785	252.454	127.771	131.942	133.888	138.332	233.560	134.556	-8191	255	
2756.979	1	1	0	0	0.12892	0.17439	0.041396	0.034425	0.035591	0.21416	0.23999	0.11434	0.12509	0.11163	0.18212	0.17308	0.076356	0.2085	0.20704	0.15186	-2.0604	-2.8979	-2.3708	-2.6875	-3.0896	-2.2042	-2.8458	-2.8229	-2.2146	-2.8667	-2.3979	-2.4938	-3.0083	-2.1583	-2.5896	-2.8417	211.434	301.648	175.770	276.509	303.735	114.083	449.990	400.799	274.501	191.903	172.042	154.136	381.500	184.317	367.802	347.918	0.00060954	0.00034061	8.1007e-05	578.76	2.5653e-06	1.3017e-06	559.24	227.2	2.4214e-06	2.9435e-06	261.07	116.87	96.346	49.139	3.5749e-06	63.247	2.1328e-05	7.2613e-06	2.2532e-06	527.1	8.9442e-08	8.1855e-08	515.04	208.63	9.3917e-08	7.8126e-08	225.74	104.04	86.13	43.94	9.9748e-08	55.146	183.471	195.872	151.152	126.177	301.206	253.604	124.615	130.648	249.375	228.624	128.069	131.784	133.991	138.298	230.616	134.553	-8191	255	
2757.075	1	1	0	0	0.17226	0.10927	0.26644	0.24677	0.12929	0.088105	0.1558	0.15566	0.070554	0.17031	0.19436	0.10499	0.12324	0.18887	0.092616	0.39021	-1.6458	-2.8333	-2.5958	-2.475	-2.9542	-2.3063	-2.7583	-3.0021	-2.1458	-2.8542	-2.525	-2.5021	-3.0187	-2.6021	-2.7708	-2.925	260.279	263.082	377.377	406.204	363.528	316.108	468.388	369.124	238.783	223.950	117.065	324.106	243.429	413.066	220.163	434.964	0.00061396	0.00042201	8.3508e-05	581.51	2.0944e-06	2.4568e-06	571.8	230.98	2.5144e-06	2.347e-06	263.89	119.06	96.255	49.097	3.4206e-06	63.125	2.123e-05	7.439e-06	2.3887e-06	531.58	8.8297e-08	8.4118e-08	523.78	212.04	9.2416e-08	8.0719e-08	231.06	105.79	86.448	43.939	1.0544e-07	55.212	181.074	164.843	143.629	125.979	283.267	244.022	124.039	130.478	253.279	243.493	127.973	131.821	134.023	138.519	225.901	134.558	-8191	255	
2757.171	1	1	0	0	0.05124	0.2698	0.10515	0.10995	0.14285	0.17253	0.086488	0.4366	0.31575	0.2571	0.31163	0.074083	0.2207	0.1248	0.31297	0.066205	-2.0854	-3.0625	-2.8917	-2.3792	-3.1562	-2.5375	-2.7583	-2.9062	-2.2167	-2.8458	-2.6771	-2.3854	-2.925	-2.7146	-2.5542	-3.1146	290.976	133.212	413.396	351.645	296.624	438.293	203.951	402.908	153.106	306.962	425.516	350.530	376.137	436.329	366.343	401.282	0.00060959	0.00039111	4.8887e-05	574.6	1.4052e-06	2.4823e-06	558.15	226.83	2.6246e-06	3.0226e-06	252.22	114.16	94.183	48.413	2.532e-06	61.701	2.0713e-05	7.8601e-06	2.4162e-06	526.07	8.5e-08	8.3435e-08	511.37	207.28	9.9127e-08	8.1807e-08	218.88	101.37	84.449	43.24	1.0207e-07	53.855	183.190	186.992	147.546	126.186	293.646	254.457	124.161	130.385	243.520	220.759	128.378	131.906	134.146	138.335	222.660	134.605	-8191	255	
2757.292	1	1	0	0	0.25424	0.23601	0.020815	0.2797	0.16955	0.12437	0.23783	0.18447	0.2109	0.050322	0.29497	0.17105	0.038996	0.08361	0.063131	0.18745	-2.0771	-2.7167	-2.7229	-2.2667	-2.8688	-2.6354	-2.5292	-2.9854	-2.1979	-2.9021	-2.9458	-2.3438	-3.1688	-2.7687	-2.4354	-2.9854	416.442	345.926	240.287	437.961	225.771	364.363	345.321	407.333	271.025	307.677	417.676	415.742	456.970	199.569	443.433	466.294	0.00059489	0.00027992	5.1262e-05	571.41	2.1267e-06	1.63e-06	551.04	224.17	2.6795e-06	3.73e-06	254.16	115	95.063	48.62	3.349e-06	62.647	2.059e-05	7.9328e-06	2.2618e-06	520.76	8.8095e-08	8.9289e-08	506.79	205.55	9.1961e-08	8.7145e-08	220.72	102.33	85.097	43.493	1.0323e-07	54.542	182.828	173.372	151.180	126.038	284.791	258.840	124.471	130.532	239.537	250.572	128.189	131.827	134.036	138.148	243.070	134.530	-8191	255	
2757.363	1	1	0	0	0.090241	0.090721	0.1791	0.30615	0.083323	0.14409	0.11105	0.2348	0.057207	0.34817	0.093835	0.32846	0.11948	0.15169	0.19546	0.086634	-1.9375	-2.625	-2.8833	-2.0667	-2.6604	-2.5292	-2.6542	-3.1854	-2.4708	-2.4875	-2.9375	-2.3438	-2.9833	-2.9583	-2.4875	-3.1417	192.753	335.143	337.808	379.105	204.140	153.865	162.769	417.064	446.859	336.585	396.859	416.233	136.178	462.503	376.049	161.272	0.00064004	0.00025233	7.8773e-05	574.17	1.7086e-06	2.7093e-06	554.37	227.9	2.8955e-06	2.6235e-06	256.43	116.55	96.094	48.971	4.3244e-06	62.851	2.1056e-05	8.4463e-06	2.2362e-06	524.1	8.841e-08	9.121e-08	511.7	208.19	9.2088e-08	8.6323e-08	223.66	103.54	85.696	43.664	9.7742e-08	54.921	185.956	197.048	141.108	126.074	306.143	244.957	124.429	130.496	253.526	228.305	127.878	131.965	134.082	138.074	250.065	134.618	-8191	255	
2757.484	1	1	0	0	0.26281	0.020372	0.094528	0.10956	0.039783	0.10998	0.19123	0.19814	0.11585	0.085772	0.43983	0.087535	0.31799	0.25355	0.18323	0.10701	-1.8854	-2.6167	-2.7521	-2.2854	-2.6	-2.7083	-2.3271	-3.1437	-2.7083	-2.6562	-2.9771	-2.3771	-2.9208	-2.8521	-2.1208	-2.9	410.471	445.850	357.746	129.842	304.235	141.519	368.231	434.719	272.801	257.151	394.830	403.085	393.328	445.313	335.256	346.887	0.00061695	0.00032101	5.6224e-05	570.56	1.9558e-06	2.2334e-06	560.84	226.68	2.8734e-06	2.8567e-06	258.16	116.93	95.831	48.95	4.1083e-06	62.425	2.1139e-05	8.3667e-06	2.1936e-06	523.99	9.1984e-08	8.7734e-08	512.58	208.33	9.9568e-08	9.0029e-08	225.01	104.2	85.627	43.545	9.701e-08	54.409	182.680	199.156	149.630	126.287	292.915	245.645	124.333	130.558	261.392	220.296	127.759	132.094	134.219	138.560	225.559	134.458	-8191	255	
2757.578	1	1	0	0	0.057425	0.14275	0.030407	0.28656	0.28376	0.12603	0.23059	0.302	0.18288	0.18301	0.17526	0.30175	0.11671	0.17738	0.089286	0.10136	-2.1833	-2.5312	-2.9354	-2.3104	-2.825	-2.7208	-2.2562	-2.9229	-2.6667	-2.4813	-2.9042	-2.3604	-2.7083	-3.0438	-2.2292	-3.2625	175.238	310.997	384.174	444.216	456.001	460.750	368.378	366.671	240.017	458.237	458.273	391.639	286.464	464.838	330.597	429.531	0.00059333	0.00031383	5.5089e-05	562.97	2.302e-06	2.4755e-06	544.18	222.35	2.9366e-06	2.8521e-06	244.73	111.89	93.752	47.823	2.5688e-06	60.583	2.0845e-05	8.2098e-06	2.108e-06	513.79	9.4123e-08	8.5458e-08	499.06	202.99	9.8874e-08	8.5741e-08	214.48	99.639	83.48	42.738	9.1143e-08	53.064	185.167	179.681	143.807	126.123	294.242	260.256	124.087	130.389	248.226	245.237	127.950	132.032	133.877	138.067	251.861	134.778	-8191	255	
2757.674	1	1	0	0	0.13932	0.057033	0.056266	0.29386	0.17908	0.06184	0.31212	0.087747	0.18544	0.033009	0.38223	0.14065	0.039464	0.21315	0.23024	0.33916	-2.3583	-2.4271	-3.1208	-2.4896	-2.5896	-2.8875	-2.1833	-2.8729	-2.8354	-2.5604	-3.1	-2.5896	-2.8229	-2.9604	-2.3	-2.9208	158.387	139.210	335.501	444.385	232.413	431.838	380.095	358.646	425.945	169.665	253.403	426.665	324.846	436.361	295.437	414.834	0.00058501	0.00042983	5.376e-05	552.94	1.4446e-06	2.5447e-06	531.67	219.28	2.5565e-06	2.7731e-06	245.47	111.49	92.392	47.69	3.7011e-06	61.048	2.1095e-05	8.1625e-06	1.9158e-06	507.75	9.2135e-08	8.499e-08	490.31	200.57	9.8294e-08	8.1149e-08	213.33	99.304	82.974	42.673	8.983e-08	53.129	184.085	189.266	137.230	125.782	287.562	263.539	124.078	130.480	273.951	225.320	127.770	132.156	134.041	138.480	236.273	134.478	-8191	255	
2757.771	1	1	0	0	0.17585	0.24835	0.40729	0.067952	0.34185	0.26484	0.073496	0.12895	0.16529	0.1689	0.1883	0.19968	0.096893	0.12166	0.21707	0.17408	-2.2479	-2.3708	-3.1542	-2.8146	-2.6271	-3.0438	-2.4979	-2.8792	-2.675	-2.2896	-2.9896	-2.5438	-2.6042	-3.0458	-2.35	-2.8958	330.964	462.191	197.454	126.290	386.049	146.781	370.525	461.215	379.469	429.515	450.927	404.256	404.055	369.974	261.032	409.944	0.00060489	0.00031473	7.9027e-05	561	2.5527e-06	3.0106e-06	537.96	221.02	3.1481e-06	2.44e-06	249.21	113.49	93.183	47.767	2.8791e-06	61.33	2.1214e-05	7.8544e-06	1.927e-06	510.74	9.4614e-08	8.0591e-08	494.15	201.82	1.0092e-07	8.2477e-08	216.59	100.62	83.603	42.739	8.7975e-08	53.615	182.426	189.641	149.688	126.139	293.288	254.981	124.009	130.672	254.005	216.632	127.954	132.064	134.157	138.089	233.170	134.806	-8191	255	
2757.891	1	1	0	0	0.17862	0.21987	0.15824	0.27196	0.2858	0.01614	0.37843	0.23899	0.074318	0.36896	0.10609	0.22632	0.27359	0.19225	0.15866	0.32618	-2.4458	-2.4208	-3.2271	-2.6354	-2.7687	-2.9854	-2.4896	-2.6854	-2.9917	-2.2542	-2.9146	-2.7292	-2.5021	-3.1104	-2.5375	-2.7646	461.478	281.214	427.564	434.346	130.567	372.873	428.121	142.357	450.563	328.234	366.574	140.176	447.639	403.436	413.600	460.293	0.0005761	0.00039743	5.5985e-05	558.97	2.4867e-06	2.4027e-06	541.6	222.33	2.3136e-06	2.214e-06	251.01	113.98	94.188	47.893	2.5646e-06	61.433	2.073e-05	8.2052e-06	1.9815e-06	510.37	8.8498e-08	7.9567e-08	499.06	203.25	9.7398e-08	8.0959e-08	219.21	101.33	83.937	42.845	9.672e-08	53.727	183.753	192.878	161.896	126.034	286.642	256.750	124.154	130.577	248.789	236.623	127.992	131.883	134.056	138.179	253.266	134.516	-8191	255	
2757.963	1	1	0	0	0.088557	0.19135	0.10646	0.28942	0.11516	0.19914	0.17792	0.19047	0.22013	0.17552	0.10499	0.12541	0.14302	0.088164	0.18647	0.29137	-2.4271	-2.4375	-2.9458	-3.0812	-2.4062	-3.1729	-2.6854	-2.7562	-3.1792	-2.6125	-2.9125	-2.8417	-2.5521	-3.2417	-2.5	-2.6375	149.675	150.487	346.561	427.928	317.371	214.976	436.017	393.530	410.451	365.286	171.844	308.935	208.004	285.999	257.533	398.048	0.00061186	0.00024896	6.1268e-05	551.56	1.7082e-06	2.938e-06	530.39	215.08	2.3169e-06	3.0676e-06	240.14	108.58	90.883	46.77	3.0983e-06	59.338	2.0306e-05	7.5486e-06	2.0549e-06	505.1	8.9656e-08	7.2437e-08	487.17	197.46	8.573e-08	7.7253e-08	208.9	96.712	81.29	41.753	9.5559e-08	51.708	184.091	192.728	137.845	125.955	309.207	266.560	124.124	130.485	256.581	227.529	127.946	131.852	134.151	138.350	234.746	134.442	-8191	255	
2758.059	1	1	0	0	0.046362	0.1591	0.11475	0.14303	0.054002	0.093542	0.16707	0.24603	0.18381	0.096718	0.32727	0.25929	0.14847	0.25302	0.17468	0.43911	-2.5208	-2.1354	-2.8417	-2.7271	-2.2729	-2.875	-2.6917	-2.5542	-2.8937	-2.3312	-3.0708	-3.0042	-2.5625	-3.0687	-2.7771	-2.6188	133.455	115.143	312.088	294.396	409.628	452.021	392.993	446.950	218.645	127.274	117.068	443.423	138.242	382.897	388.036	408.687	0.00058542	0.00031835	6.5276e-05	546.41	1.8679e-06	2.0912e-06	521.74	213.91	2.054e-06	2.7376e-06	238.4	108.52	90.751	46.643	2.906e-06	59.441	1.9411e-05	7.4667e-06	2.2304e-06	498.64	8.69e-08	7.4928e-08	479.19	196.11	8.9855e-08	7.934e-08	207.71	96.32	81.272	41.671	1.0131e-07	51.857	183.538	194.246	145.295	126.056	275.611	247.757	124.331	130.416	241.574	225.616	127.819	131.858	134.057	138.155	232.542	134.687	-8191	255	
2758.155	1	1	0	0	0.18482	0.046544	0.077686	0.02075	0.044772	0.2989	0.096428	0.26966	0.28025	0.14548	0.35424	0.051789	0.030903	0.058903	0.11506	0.26935	-2.6708	-2.4167	-2.4479	-3.0271	-2.2792	-3.2167	-2.7292	-2.5396	-3.1125	-2.4375	-2.4833	-2.775	-2.1667	-3.0042	-2.7271	-2.2917	251.236	442.817	434.214	253.926	374.275	382.438	446.318	386.071	431.303	429.690	340.818	453.523	261.164	400.454	255.144	340.388	0.00058795	0.00035002	6.8152e-05	547.89	1.9917e-06	1.8544e-06	532.28	215.67	3.5107e-06	2.6699e-06	243.5	110.04	91.498	46.956	3.4928e-06	59.957	1.9477e-05	7.3882e-06	2.3547e-06	502.05	8.9027e-08	7.3208e-08	487.66	197.6	8.771e-08	8.3591e-08	211.31	97.491	81.987	42.027	9.7654e-08	52.389	183.914	186.721	129.076	126.061	286.982	235.105	124.269	130.800	252.638	233.110	127.951	131.989	134.133	138.330	240.244	134.668	-8191	255	
2758.251	1	1	0	0	0.23165	0.11292	0.12567	0.15242	0.12057	0.057578	0.46627	0.17004	0.16255	0.10991	0.1327	0.14631	0.11226	0.12946	0.17224	0.16492	-2.6875	-2.475	-2.2771	-2.7979	-2.1875	-2.6188	-2.5104	-2.2458	-2.9604	-2.2562	-2.6208	-2.9396	-2.2188	-2.8396	-2.75	-2.3854	370.623	375.419	212.629	430.327	377.792	155.381	428.476	368.580	424.205	384.413	115.465	456.382	123.455	357.636	371.021	139.781	0.00059882	0.00024513	5.5057e-05	551.66	2.2281e-06	1.706e-06	536.91	218.01	2.5338e-06	2.2184e-06	246.31	111.77	92.158	47.514	2.827e-06	60.013	1.978e-05	7.8244e-06	2.2567e-06	503.67	8.734e-08	8.2588e-08	493.18	199.57	8.7181e-08	8.583e-08	215.1	99.21	82.597	42.288	1.0005e-07	52.556	183.376	177.142	155.017	126.001	294.176	243.330	124.202	130.439	262.142	227.539	127.957	132.060	134.210	138.167	241.551	134.705	-8191	255	
2758.372	1	1	0	0	0.26981	0.096982	0.29187	0.14457	0.12613	0.14155	0.081143	0.29106	0.1706	0.067887	0.10111	0.12461	0.11306	0.26514	0.21292	0.32079	-2.5729	-2.4729	-2.4188	-3.1917	-2.3	-2.725	-2.8854	-2.4688	-2.9021	-2.6979	-2.45	-2.975	-2.2562	-2.8375	-2.6854	-2.45	229.850	287.732	464.705	425.923	140.033	271.817	424.540	199.991	175.682	270.861	157.844	285.177	433.844	440.485	282.133	442.015	0.0005935	0.00037029	6.5255e-05	545.32	1.2602e-06	2.2117e-06	522.64	211.82	2.7752e-06	2.1016e-06	237.05	106.52	90.272	46.189	3.1562e-06	58.214	1.982e-05	8.2271e-06	2.2673e-06	499.79	8.7127e-08	9.1918e-08	481	194.91	8.5679e-08	8.6184e-08	205.97	95.055	80.446	41.325	9.3527e-08	51.084	184.062	202.385	169.937	126.113	309.408	259.227	124.083	130.561	246.186	231.661	127.937	131.901	134.192	138.505	236.678	134.727	-8191	255	
2758.466	1	1	0	0	0.32762	0.26948	0.02716	0.37344	0.18999	0.19234	0.047775	0.056919	0.23933	0.21597	0.18186	0.053175	0.25938	0.35035	0.19828	0.19634	-2.4542	-2.5729	-2.5396	-3.1167	-2.5458	-2.6958	-2.9208	-2.2604	-2.7292	-2.7188	-2.2062	-2.9729	-2.4958	-2.5146	-2.875	-2.2708	449.106	139.774	367.499	409.708	461.912	322.987	465.345	410.949	166.090	437.817	176.689	283.459	419.113	470.701	158.319	415.042	0.00056421	0.00021386	7.0394e-05	541.24	2.1759e-06	2.3367e-06	515.77	210.94	2.678e-06	2.296e-06	235.95	106.68	89.559	46.228	2.5232e-06	58.384	1.9376e-05	8.2305e-06	2.1817e-06	494.16	8.768e-08	8.8517e-08	474.57	193.34	9.0725e-08	8.4425e-08	204.96	94.969	80.247	41.272	9.1079e-08	51.135	182.619	176.498	164.848	126.057	269.484	260.062	123.845	130.459	254.973	254.118	127.901	131.882	134.203	138.175	228.508	134.456	-8191	255	
2758.564	1	1	0	0	0.15006	0.21271	0.2087	0.086594	0.13411	0.11379	0.2281	0.156	0.21196	0.1475	0.10918	0.070947	0.087033	0.28969	0.17407	0.26097	-2.15	-2.4188	-2.2458	-2.8771	-2.4271	-2.4125	-2.7792	-2.2917	-2.8583	-2.6625	-2.3729	-3.0062	-2.6646	-2.5104	-3.1021	-2.4708	436.123	343.966	354.208	189.357	134.096	119.945	166.937	462.929	365.980	149.075	336.766	191.924	355.839	429.895	265.671	375.971	0.00056882	0.00031278	7.3353e-05	539.35	1.7405e-06	2.5539e-06	519.49	212.85	2.6908e-06	2.9303e-06	238.43	108.41	90.698	46.729	2.0173e-06	59.674	2.0057e-05	8.0851e-06	2.1737e-06	493.88	9.3318e-08	8.8657e-08	477.49	194.82	9.5304e-08	8.3325e-08	207.9	96.395	81.127	41.614	8.7736e-08	51.942	182.091	195.116	148.189	126.132	295.221	260.781	124.081	130.516	244.853	235.220	128.230	131.896	134.316	138.352	252.869	134.409	-8191	255	
2758.659	1	1	0	0	0.3286	0.078915	0.12453	0.10774	0.080614	0.13581	0.3604	0.27902	0.37571	0.087085	0.13025	0.13029	0.063638	0.31308	0.26781	0.07176	-2.2042	-2.8208	-2.3875	-2.9083	-2.5979	-2.4292	-3.0833	-2.4125	-2.6854	-2.95	-2.3292	-2.9146	-2.5979	-2.3667	-3.1312	-2.5958	387.329	252.546	448.780	198.906	322.480	213.100	437.927	411.429	349.211	238.394	323.568	464.142	281.149	414.918	311.188	207.256	0.00056525	0.00033764	6.0301e-05	544.45	1.9347e-06	2.4708e-06	523.9	213.21	3.2685e-06	1.9921e-06	243.88	110.45	91.216	46.785	2.2096e-06	59.694	2.0462e-05	7.9213e-06	2.1442e-06	496.75	9.6702e-08	8.1729e-08	481.74	195.7	1.0122e-07	8.0188e-08	211.44	97.803	81.595	41.904	8.7067e-08	52.106	183.369	182.894	155.196	126.025	281.466	252.291	124.260	130.577	248.859	260.406	128.292	132.041	134.250	138.647	236.363	134.528	-8191	255	
2758.755	1	1	0	0	0.13843	0.24219	0.1045	0.18369	0.18058	0.14279	0.24722	0.11359	0.052954	0.090878	0.13975	0.20478	0.057062	0.23403	0.03984	0.028069	-2.3875	-3.1312	-2.3	-2.9688	-2.625	-2.1417	-3.0479	-2.6333	-2.5771	-3.0792	-2.4354	-2.6479	-2.75	-2.2313	-2.9042	-2.4854	241.670	457.953	288.096	340.706	246.681	306.078	384.657	122.504	225.180	297.522	359.528	470.693	375.787	413.753	417.269	202.302	0.00056696	0.00022635	5.3628e-05	543.27	2.2382e-06	1.6663e-06	522.28	211.52	2.9667e-06	3.5493e-06	234.23	105.92	89.137	46.068	2.331e-06	58.364	2.0395e-05	7.0594e-06	2.0353e-06	495.12	9.8414e-08	8.3853e-08	478.62	194.15	9.8155e-08	7.9011e-08	204.08	94.409	79.81	41.169	8.3382e-08	50.826	183.830	167.474	144.735	126.237	301.853	260.286	124.294	130.304	243.179	215.077	127.890	131.920	134.058	138.069	265.439	134.352	-8191	255	
2758.851	1	1	0	0	0.16069	0.15824	0.28581	0.16055	0.19578	0.079218	0.23909	0.1387	0.17369	0.19346	0.14114	0.16964	0.43928	0.23573	0.074105	0.29386	-1.9042	-2.9667	-2.2229	-2.7979	-2.9167	-2.4917	-3.1792	-2.8458	-2.7188	-3.2604	-2.2917	-2.8063	-2.6479	-2.2687	-2.775	-2.7417	426.603	163.225	344.180	244.567	338.715	266.355	136.055	319.822	319.407	463.808	307.928	251.939	425.360	125.690	441.507	406.826	0.00054293	0.0003132	4.4835e-05	542.79	2.5516e-06	1.9895e-06	512.28	209.27	2.0236e-06	1.8215e-06	231.72	105.6	89.447	46.188	2.5241e-06	58.635	2.0028e-05	7.1644e-06	2.0468e-06	493.36	8.8586e-08	8.2475e-08	470.87	192.05	9.5632e-08	7.6279e-08	202.12	94.118	79.818	41.3	8.9124e-08	51.15	183.968	181.000	148.375	126.023	288.604	265.733	124.664	130.660	248.702	228.944	128.389	131.980	133.796	138.273	237.161	134.599	-8191	255	
2758.972	1	1	0	0	0.19094	0.03882	0.19407	0.060684	0.19495	0.062271	0.07675	0.1815	0.015912	0.13459	0.18324	0.22615	0.21815	0.32961	0.016727	0.16081	-1.8229	-2.8729	-2.3021	-2.6354	-2.7958	-2.3063	-2.8792	-2.85	-2.3792	-3.1063	-2.4083	-2.4729	-3.0625	-2.4229	-2.8792	-2.8563	407.796	408.287	323.306	470.343	284.773	461.653	405.953	430.674	440.991	200.840	452.341	393.856	344.767	443.681	242.431	219.738	0.00058459	0.00026805	5.1658e-05	544.41	1.6601e-06	1.9629e-06	519.77	211.21	1.5694e-06	2.3632e-06	235.76	107.49	89.845	46.58	3.3294e-06	59.557	2.0062e-05	7.2786e-06	2.0366e-06	496.09	8.6145e-08	7.6394e-08	477.08	193.65	9.128e-08	7.6557e-08	206.08	95.767	80.593	41.55	9.1597e-08	51.927	184.604	180.849	160.336	125.845	318.814	255.516	124.159	130.377	246.733	229.350	128.008	131.771	134.049	138.386	237.155	134.567	-8191	255	
2759.068	1	1	0	0	0.32379	0.19136	0.054132	0.076517	0.19779	0.19385	0.13069	0.087347	0.013455	0.083598	0.2547	0.24143	0.16392	0.21338	0.13001	0.32363	-1.8396	-2.8292	-2.2979	-2.6396	-2.9708	-2.2667	-2.8688	-2.9375	-2.2729	-2.9896	-2.4104	-2.3208	-2.8229	-2.4437	-2.675	-3.0854	342.558	308.583	348.208	348.540	297.646	399.578	421.679	134.024	113.759	435.425	397.705	322.826	397.227	394.738	403.160	400.525	0.0005773	0.0002709	6.4275e-05	543.18	1.7069e-06	2.5196e-06	521.28	212.74	2.217e-06	3.281e-06	241.46	109.35	91.257	46.9	2.6157e-06	59.74	1.9938e-05	7.2867e-06	2.167e-06	497.47	8.7038e-08	8.0718e-08	480.7	194.75	9.2025e-08	7.6747e-08	209.82	97.297	81.335	41.875	9.9698e-08	52.042	185.459	197.131	152.461	126.291	307.485	263.017	124.734	130.528	250.621	245.223	128.206	131.925	134.007	138.234	239.860	134.647	-8191	255	
2759.164	1	1	0	0	0.26149	0.19871	0.21978	0.38052	0.094059	0.26952	0.20945	0.10401	0.24173	0.15787	0.24964	0.11941	0.19631	0.26485	0.11151	0.04055	-1.9354	-2.9708	-2.4604	-2.4208	-2.9	-2.2542	-2.8979	-3.0771	-2.1875	-2.8229	-2.6813	-2.575	-3.1958	-2.55	-2.6854	-3.0417	143.070	194.048	289.960	417.421	439.299	257.321	125.136	150.862	225.719	307.956	395.494	134.479	216.234	127.390	416.008	403.321	0.00061774	0.00024368	6.3176e-05	541.15	2.3833e-06	2.3865e-06	514.55	208.04	2.9362e-06	3.0896e-06	232.31	105.11	88.685	45.785	2.4788e-06	57.886	2.0776e-05	7.1667e-06	2.2673e-06	494	8.0923e-08	7.7469e-08	471.85	191.26	8.6928e-08	7.6418e-08	201.77	93.573	79.156	40.916	9.4789e-08	50.473	183.223	191.014	131.692	125.925	287.174	248.729	124.526	130.379	241.669	215.921	127.816	132.012	134.110	138.150	233.395	134.487	-8191	255	
2759.260	1	1	0	0	0.13617	0.27449	0.19415	0.22166	0.099232	0.24363	0.32956	0.10325	0.090989	0.14835	0.26762	0.080674	0.13696	0.22954	0.37697	0.16965	-1.7354	-2.7854	-2.7729	-2.4813	-2.9208	-2.3646	-2.5792	-2.6479	-2.2188	-2.7417	-2.6292	-2.3896	-3.0208	-2.3812	-2.4042	-3.0687	393.446	453.169	388.352	149.037	385.777	164.659	444.607	455.622	254.223	342.683	399.390	407.013	389.714	310.280	292.965	413.550	0.00054846	0.00027647	6.8933e-05	536.53	2.4722e-06	2.1561e-06	507.22	207.33	2.5204e-06	3.1495e-06	230.83	105.49	89.709	46.281	3.9311e-06	58.453	1.9186e-05	7.1863e-06	2.3185e-06	489.06	8.0395e-08	8.3398e-08	468.16	190.46	9.017e-08	8.4666e-08	201.42	94.051	79.933	41.367	9.831e-08	51.273	184.496	164.868	156.783	126.179	290.981	264.650	124.592	130.234	261.139	208.110	127.685	131.910	133.717	138.092	236.912	134.518	-8191	255	
#DATA ENDS
