BOXY.EXE: ISS Imagent and Oximeter Data Acquisition Program Version 0.80
Ascii Record File

#ACQ INFORMATION
2  Detector Channels 
16  External MUX Channels 
1  Auxiliary Channels 
5000  Waveform (CCF) Frequency (Hz)
1  Waveforms Skipped 
30  Waveforms Averaged 
1  Cycles Averaged 
16  Acquisitions per Waveform 
10.0806  Updata Rate (Hz) 

#FILE INFORMATION
TRUE -- External MUX Channel results are PARSED.
FALSE -- AC DC and Phase are NOT grouped.
TRUE -- Companion Program Settings File CREATED.
FALSE -- AC data not excluded
FALSE -- DC data not excluded
FALSE -- Phase data not excluded
FALSE -- Auxillary Chn. data not excluded
Tab delimiters

#CALIBRATION STATE
TRUE -- Waveform Calibration Values APPLIED.


#AUX CALIBRATION VALUES
Val Type	aux-1	

Term	1.0000e+00	
Factor	0.0000e+00	


#WF CALIBRATION VALUES
A = Detector Channel
Val Type	A-AC1	A-AC2	A-AC3	A-AC4	A-AC5	A-AC6	A-AC7	A-AC8	A-AC9	A-AC10	A-AC11	A-AC12	A-AC13	A-AC14	A-AC15	A-AC16	A-DC1	A-DC2	A-DC3	A-DC4	A-DC5	A-DC6	A-DC7	A-DC8	A-DC9	A-DC10	A-DC11	A-DC12	A-DC13	A-DC14	A-DC15	A-DC16	A-Ph1	A-Ph2	A-Ph3	A-Ph4	A-Ph5	A-Ph6	A-Ph7	A-Ph8	A-Ph9	A-Ph10	A-Ph11	A-Ph12	A-Ph13	A-Ph14	A-Ph15	A-Ph16	

Term	0.00000e+00	0.00000e+00	0.00000e+00	0.00000e+00	0.00000e+00	0.00000e+00	0.00000e+00	0.00000e+00	0.00000e+00	0.00000e+00	0.00000e+00	0.00000e+00	0.00000e+00	0.00000e+00	0.00000e+00	0.00000e+00	0.00000e+00	0.00000e+00	0.00000e+00	0.00000e+00	0.00000e+00	0.00000e+00	0.00000e+00	0.00000e+00	0.00000e+00	0.00000e+00	0.00000e+00	0.00000e+00	0.00000e+00	0.00000e+00	0.00000e+00	0.00000e+00	0.00000e+00	0.00000e+00	0.00000e+00	0.00000e+00	0.00000e+00	0.00000e+00	0.00000e+00	0.00000e+00	0.00000e+00	0.00000e+00	0.00000e+00	0.00000e+00	0.00000e+00	0.00000e+00	0.00000e+00	0.00000e+00	
Factor	1.00000e+00	1.00000e+00	1.00000e+00	1.00000e+00	1.00000e+00	1.00000e+00	1.00000e+00	1.00000e+00	1.00000e+00	1.00000e+00	1.00000e+00	1.00000e+00	1.00000e+00	1.00000e+00	1.00000e+00	1.00000e+00	1.00000e+00	1.00000e+00	1.00000e+00	1.00000e+00	1.00000e+00	1.00000e+00	1.00000e+00	1.00000e+00	1.00000e+00	1.00000e+00	1.00000e+00	1.00000e+00	1.00000e+00	1.00000e+00	1.00000e+00	1.00000e+00	X	X	X	X	X	X	X	X	X	X	X	X	X	X	X	X	

B = Detector Channel
Val Type	B-AC1	B-AC2	B-AC3	B-AC4	B-AC5	B-AC6	B-AC7	B-AC8	B-AC9	B-AC10	B-AC11	B-AC12	B-AC13	B-AC14	B-AC15	B-AC16	B-DC1	B-DC2	B-DC3	B-DC4	B-DC5	B-DC6	B-DC7	B-DC8	B-DC9	B-DC10	B-DC11	B-DC12	B-DC13	B-DC14	B-DC15	B-DC16	B-Ph1	B-Ph2	B-Ph3	B-Ph4	B-Ph5	B-Ph6	B-Ph7	B-Ph8	B-Ph9	B-Ph10	B-Ph11	B-Ph12	B-Ph13	B-Ph14	B-Ph15	B-Ph16	

Term	0.00000e+00	0.00000e+00	0.00000e+00	0.00000e+00	0.00000e+00	0.00000e+00	0.00000e+00	0.00000e+00	0.00000e+00	0.00000e+00	0.00000e+00	0.00000e+00	0.00000e+00	0.00000e+00	0.00000e+00	0.00000e+00	0.00000e+00	0.00000e+00	0.00000e+00	0.00000e+00	0.00000e+00	0.00000e+00	0.00000e+00	0.00000e+00	0.00000e+00	0.00000e+00	0.00000e+00	0.00000e+00	0.00000e+00	0.00000e+00	0.00000e+00	0.00000e+00	8.11284e+01	-1.20153e+02	-1.26350e+02	-1.81567e+02	-8.84902e+01	-8.40959e+01	-1.56561e+02	-1.62015e+02	-9.69263e+01	-8.38922e+01	-1.71055e+02	-1.71474e+02	-1.84436e+02	-1.76931e+02	-7.91405e+01	-1.49939e+02	
Factor	6.50912e-05	1.46992e-04	3.41674e-05	2.12455e-01	1.30598e-06	1.78741e-06	1.67938e-01	5.12696e-02	2.14687e-06	1.52923e-06	8.73862e-02	3.30830e-02	4.09064e-02	9.26272e-03	1.52222e-06	1.33558e-02	1.62652e-06	1.68806e-06	4.69002e-07	1.07451e-01	1.84094e-08	1.85136e-08	8.01808e-02	2.60849e-02	1.83594e-08	1.85120e-08	4.27707e-02	1.61030e-02	2.01847e-02	4.70032e-03	1.84195e-08	6.52597e-03	X	X	X	X	X	X	X	X	X	X	X	X	X	X	X	X	



#DISTANCE SETTINGS
A = Detector Channel
A-1	A-2	A-3	A-4	A-5	A-6	A-7	A-8	A-9	A-10	A-11	A-12	A-13	A-14	A-15	A-16	

2.5000e+00	3.0000e+00	2.5000e+00	3.0000e+00	2.0000e+00	3.0000e+00	1.5000e+00	3.0000e+00	3.0000e+00	3.0000e+00	3.0000e+00	3.0000e+00	3.0000e+00	3.0000e+00	1.5000e+00	3.0000e+00	

B = Detector Channel
B-1	B-2	B-3	B-4	B-5	B-6	B-7	B-8	B-9	B-10	B-11	B-12	B-13	B-14	B-15	B-16	

1.0000e+01	1.0000e+01	1.0000e+01	1.4400e+00	1.0000e+01	1.0000e+01	1.5100e+00	1.9400e+00	1.0000e+01	1.0000e+01	1.9900e+00	2.4900e+00	2.4100e+00	2.9000e+00	1.0000e+01	2.9800e+00	




#DATA BEGINS
time	group	step	mark	flag	A-AC1	A-AC2	A-AC3	A-AC4	A-AC5	A-AC6	A-AC7	A-AC8	A-AC9	A-AC10	A-AC11	A-AC12	A-AC13	A-AC14	A-AC15	A-AC16	A-DC1	A-DC2	A-DC3	A-DC4	A-DC5	A-DC6	A-DC7	A-DC8	A-DC9	A-DC10	A-DC11	A-DC12	A-DC13	A-DC14	A-DC15	A-DC16	A-Ph1	A-Ph2	A-Ph3	A-Ph4	A-Ph5	A-Ph6	A-Ph7	A-Ph8	A-Ph9	A-Ph10	A-Ph11	A-Ph12	A-Ph13	A-Ph14	A-Ph15	A-Ph16	B-AC1	B-AC2	B-AC3	B-AC4	B-AC5	B-AC6	B-AC7	B-AC8	B-AC9	B-AC10	B-AC11	B-AC12	B-AC13	B-AC14	B-AC15	B-AC16	B-DC1	B-DC2	B-DC3	B-DC4	B-DC5	B-DC6	B-DC7	B-DC8	B-DC9	B-DC10	B-DC11	B-DC12	B-DC13	B-DC14	B-DC15	B-DC16	B-Ph1	B-Ph2	B-Ph3	B-Ph4	B-Ph5	B-Ph6	B-Ph7	B-Ph8	B-Ph9	B-Ph10	B-Ph11	B-Ph12	B-Ph13	B-Ph14	B-Ph15	B-Ph16	aux-1	digaux	

1220.832	1	1	0	512	0.18347	0.089142	0.21071	0.22126	0.19845	0.33295	0.25722	0.30529	0.013158	0.038547	0.22566	0.26648	0.12557	0.23528	0.094082	0.23903	-2.1896	-2.9646	-2.5604	-2.8875	-2.5812	-2.6271	-2.8833	-2.4771	-2.9646	-2.95	-2.5458	-3.0312	-2.9188	-2.7708	-2.8417	-2.7146	86.736	-0.816	175.823	243.677	145.767	197.171	107.292	266.818	25.966	308.184	259.921	209.800	-44.586	289.419	109.326	-11.972	0.00073081	0.00042508	0.00013711	938.05	4.3337e-06	5.1435e-06	938.09	335.95	5.3869e-06	2.8849e-06	387.15	177.12	174.51	78.94	3.2828e-06	72.941	0.00010644	8.2687e-05	2.3125e-05	861.24	9.5323e-07	9.1091e-07	865.49	310.29	9.6387e-07	8.927e-07	352.8	161.8	156.99	72.754	9.3594e-07	66.569	-2.003	74.248	43.762	-31.878	129.780	62.523	-33.567	-26.627	74.319	102.059	-29.370	-25.265	-23.541	-20.134	95.857	-22.439	-8191	255	
1220.926	1	1	0	0	0.10213	0.18392	0.063392	0.055939	0.34707	0.10683	0.093384	0.082604	0.073337	0.24079	0.15863	0.19384	0.17998	0.25305	0.24066	0.16188	-2.4417	-3.1229	-2.5396	-2.9437	-2.9542	-2.6542	-2.9062	-2.5146	-2.8979	-3.0125	-2.6937	-2.95	-2.9333	-2.6833	-2.8563	-2.7938	281.044	36.991	188.234	-15.979	48.843	-21.781	5.558	176.953	249.244	84.577	299.909	148.336	310.463	282.025	275.945	254.893	0.00070298	0.00077112	0.00016282	935.39	3.9292e-06	5.4407e-06	934.01	333.51	7.7763e-06	5.8971e-06	383.5	177.31	173.16	78.188	5.4714e-06	71.609	0.00010622	8.0366e-05	2.2993e-05	857.19	9.3079e-07	9.2826e-07	861.57	308.05	9.1636e-07	9.0308e-07	350.56	161.16	155.99	72.331	9.4339e-07	65.797	-11.155	65.775	74.741	-32.037	73.012	93.874	-33.553	-26.650	75.876	92.988	-29.340	-25.325	-23.218	-20.338	117.646	-22.515	-8191	255	
1221.022	1	1	0	0	0.10891	0.081839	0.11022	0.23883	0.08213	0.070674	0.36658	0.17412	0.10916	0.16034	0.13952	0.14347	0.37458	0.13536	0.14342	0.17775	-2.275	-2.7479	-2.3458	-2.975	-2.5938	-2.4146	-3.1667	-2.7604	-2.6	-3.0083	-2.5646	-2.8292	-2.9542	-2.6458	-2.6917	-2.6813	-44.410	236.286	236.919	260.937	85.719	236.827	298.764	-38.992	38.719	102.934	259.962	266.110	247.562	295.249	27.770	223.406	0.00074943	0.00084369	0.00010875	934.81	4.6645e-06	5.457e-06	932.96	331.02	9.6459e-06	5.456e-06	383.85	174.97	172.53	77.988	4.5329e-06	72.058	0.00010836	8.5645e-05	2.3007e-05	856.82	9.0693e-07	9.1777e-07	857.91	306.34	9.3009e-07	9.1222e-07	349.68	159.55	154.73	71.993	9.5724e-07	65.744	-14.710	48.666	77.277	-32.389	65.852	147.556	-33.602	-26.603	68.190	136.503	-29.167	-25.201	-23.520	-20.357	147.443	-22.704	-8191	255	
1221.118	1	1	0	0	0.2157	0.10737	0.16602	0.15717	0.15513	0.12287	0.16747	0.3154	0.3216	0.12179	0.18227	0.22404	0.14724	0.38559	0.081161	0.30442	-2.0563	-2.9479	-2.5604	-2.7125	-2.6875	-2.6083	-3.0479	-2.4896	-2.3125	-2.9562	-2.5479	-2.8083	-2.8812	-2.6458	-2.7396	-2.775	247.159	90.768	101.575	280.279	290.914	246.497	204.404	275.287	312.237	256.660	157.214	282.161	292.272	309.907	167.032	261.812	0.0007346	0.00057636	9.174e-05	939.92	3.4505e-06	8.5605e-06	930.79	331.92	3.2464e-06	7.3667e-06	382.73	176.49	173.49	78.827	5.6871e-06	72.768	0.00010974	8.2585e-05	2.3802e-05	859.09	9.3485e-07	9.2487e-07	858.51	306.23	9.377e-07	9.261e-07	350.15	160.93	155.65	72.544	9.4296e-07	66.509	-12.764	55.250	17.690	-32.474	66.038	64.101	-33.827	-26.787	106.596	80.461	-29.344	-25.390	-23.244	-20.431	116.629	-22.454	-8191	255	
1221.215	1	1	0	0	0.11574	0.082538	0.081072	0.36997	0.19154	0.087888	0.086113	0.12715	0.2178	0.062399	0.26275	0.009089	0.057453	0.13629	0.12485	0.15529	-1.8146	-2.8417	-2.6042	-2.7792	-2.8208	-2.4708	-3.0146	-2.7438	-2.5021	-3.0542	-2.3875	-2.7521	-3.0479	-2.5708	-2.7229	-2.9062	147.743	110.681	4.088	-43.016	239.279	101.472	230.014	255.131	54.092	143.689	208.161	17.375	134.082	291.811	153.494	-41.754	0.00085256	0.00079054	6.1847e-05	940	4.7531e-06	5.5925e-06	936.09	333.29	3.6335e-06	5.3758e-06	383.01	175.53	172.79	78.047	3.6018e-06	71.96	0.00010477	8.6953e-05	2.3557e-05	858.64	9.2059e-07	9.0493e-07	863.95	307.91	9.4008e-07	8.9085e-07	350.05	159.96	154.62	71.981	9.6787e-07	65.756	-4.867	62.154	43.381	-32.144	65.252	100.182	-33.601	-26.744	56.778	78.966	-29.496	-25.375	-23.461	-20.288	84.962	-22.744	-8191	255	
1221.311	1	1	0	0	0.13738	0.067141	0.071602	0.18334	0.11192	0.048677	0.027265	0.42806	0.043511	0.14196	0.35277	0.32279	0.1667	0.3296	0.13023	0.36691	-2.0875	-2.7521	-2.6479	-2.6979	-2.9229	-2.5625	-2.9708	-3.0729	-2.2833	-3.0396	-2.8167	-2.7333	-2.925	-2.5917	-2.8187	-3.0271	307.175	213.609	273.631	-25.331	290.032	208.063	-9.359	296.622	213.166	17.338	35.922	228.654	313.243	290.641	-30.645	254.075	0.00087358	0.00077198	6.6226e-05	933.37	4.5807e-06	6.8444e-06	931.79	332.56	6.3439e-06	4.2085e-06	381.44	174	171.59	77.051	3.7755e-06	70.916	0.00010359	8.3911e-05	2.3158e-05	856.92	9.1794e-07	9.035e-07	857.5	306.14	9.6215e-07	9.4191e-07	348.21	158.3	154.03	71.143	9.8667e-07	64.915	-2.218	40.004	39.107	-32.503	94.902	123.985	-33.445	-26.620	60.469	115.990	-29.301	-25.187	-23.397	-20.174	147.499	-22.811	-8191	255	
1221.431	1	1	0	0	0.34098	0.18443	0.10139	0.35987	0.2494	0.23376	0.29954	0.1835	0.19993	0.14268	0.16913	0.39565	0.24875	0.19827	0.14686	0.3753	-2.1021	-2.7958	-2.5125	-2.475	-2.6833	-2.6771	-2.9333	-3.1	-2.7271	-3.0958	-2.7625	-2.6583	-2.9437	-2.7854	-2.6854	-3.0292	274.569	-24.331	-5.693	-32.834	185.785	62.617	241.484	302.973	306.388	-37.462	214.484	229.147	259.407	-13.130	63.345	297.658	0.00082302	0.00069765	0.00015094	936.21	1.7195e-06	7.3898e-06	925.28	326.79	4.8743e-06	4.8673e-06	377.15	171.01	169.38	76.636	6.2792e-06	70.099	0.00010937	8.8884e-05	2.3348e-05	855.9	9.2979e-07	9.5179e-07	854.37	302.93	9.4991e-07	9.2992e-07	345.08	156.32	151.92	70.42	9.7861e-07	64.114	-22.263	81.371	41.323	-31.934	51.460	111.403	-33.674	-26.442	137.344	51.255	-29.732	-25.438	-23.221	-20.364	97.815	-22.565	-8191	255	
1221.528	1	1	0	0	0.14126	0.033439	0.41241	0.28311	0.068911	0.17501	0.31634	0.10063	0.27081	0.38428	0.14609	0.23184	0.25065	0.20404	0.18626	0.24234	-2.1937	-3.0104	-2.6917	-2.625	-3.1646	-2.5854	-2.6896	-2.9792	-2.6146	-2.8667	-2.8375	-2.9042	-2.9979	-2.6333	-2.7438	-3.1104	250.809	95.454	-22.826	5.590	212.989	245.327	-18.082	-18.515	-25.697	234.253	282.737	157.423	293.085	222.946	296.949	213.861	0.00074138	0.00028218	6.4037e-05	932.93	4.7328e-06	5.6661e-06	929.54	330.51	6.2944e-06	6.858e-06	379.27	173.26	171.01	77.26	5.6128e-06	71.667	0.00010713	8.6594e-05	2.4377e-05	854.68	9.4651e-07	9.4064e-07	855.36	304.34	9.7534e-07	9.271e-07	345.89	157.83	153.44	71.172	9.4461e-07	65.327	-8.384	37.681	7.227	-32.196	83.505	120.869	-33.655	-26.785	140.141	84.238	-29.618	-25.096	-23.571	-20.398	148.382	-22.620	-8191	255	
1221.624	1	1	0	0	0.22568	0.29467	0.17058	0.041875	0.23407	0.07242	0.10491	0.15262	0.35444	0.16812	0.2968	0.28862	0.11979	0.23197	0.21574	0.21841	-2.1208	-2.7417	-2.8812	-2.6896	-3.0187	-2.5167	-2.8688	-3.125	-2.3729	-2.9125	-3.0354	-2.5146	-2.7604	-2.8458	-2.4729	-3.1875	94.315	281.642	201.520	224.458	-19.450	138.512	-38.869	269.931	127.483	251.643	271.456	258.045	-39.766	-20.920	57.360	15.602	0.00079126	0.00024202	0.00017085	933.12	3.9507e-06	7.923e-06	935.42	334.46	6.1225e-06	3.4348e-06	381.41	174.78	171.67	77.095	2.7364e-06	71.77	0.00010521	8.2613e-05	2.2561e-05	856.09	9.3163e-07	9.1226e-07	862.61	307.76	9.5457e-07	9.0381e-07	349.73	159.12	154.47	71.333	9.4868e-07	65.317	-7.140	-3.362	30.981	-32.260	79.246	67.946	-33.466	-26.422	61.499	85.594	-29.515	-25.163	-23.645	-20.003	144.877	-22.817	-8191	255	
1221.720	1	1	0	0	0.33527	0.15684	0.021064	0.17094	0.20096	0.013273	0.17809	0.10904	0.10251	0.26486	0.090849	0.13014	0.26985	0.17766	0.19598	0.18356	-2.1813	-2.5979	-2.7896	-2.6958	-3.0354	-2.7229	-2.6521	-3.1562	-2.575	-2.6458	-3.0542	-2.6083	-2.7875	-2.6896	-2.6688	-3.075	305.966	176.433	81.408	-40.657	197.191	100.502	221.272	-16.635	179.294	94.725	-23.631	138.586	-29.167	283.603	6.554	262.707	0.00066544	0.00050068	5.6599e-05	930.21	3.246e-06	5.4528e-06	924.3	331.48	5.5885e-06	5.3506e-06	377.98	173.36	171.66	76.957	5.1882e-06	71.008	0.00010423	8.4238e-05	2.2919e-05	853.94	9.3957e-07	9.0554e-07	853.63	305.41	9.3832e-07	9.0543e-07	346.4	158.14	153.9	71.052	9.5923e-07	64.758	-10.823	48.308	28.037	-32.064	79.611	99.992	-33.632	-26.757	113.428	86.377	-29.120	-25.432	-23.447	-20.396	76.448	-22.677	-8191	255	
1221.816	1	1	0	0	0.31225	0.21366	0.013541	0.29959	0.11173	0.17925	0.040303	0.24572	0.13324	0.23441	0.1582	0.31928	0.11049	0.11004	0.14732	0.047768	-2.1917	-2.7354	-3.0729	-2.6333	-2.825	-2.9146	-2.7521	-3.0917	-2.4646	-2.7479	-3.2104	-2.5208	-2.7812	-3.0396	-2.6354	-3.0729	130.268	-30.314	151.350	247.602	15.812	-14.044	0.959	304.050	206.449	280.801	210.397	-41.243	52.067	291.665	259.109	299.471	0.00077291	0.00041328	0.00013194	931.74	3.426e-06	6.7735e-06	932.82	330.91	5.9776e-06	6.5465e-06	377.91	172.25	170.15	76.806	5.6504e-06	70.374	0.00010644	8.735e-05	2.2913e-05	854.48	9.0206e-07	9.1885e-07	856.49	304.28	9.522e-07	9.062e-07	345.96	157.07	152.89	70.716	9.3916e-07	64.51	12.357	34.866	51.151	-32.463	65.293	117.959	-33.643	-26.499	44.892	92.698	-29.547	-25.477	-23.301	-20.574	117.055	-22.682	-8191	255	
1221.910	1	1	0	0	0.080165	0.089266	0.069341	0.16257	0.15688	0.21958	0.096099	0.16219	0.05795	0.11849	0.40673	0.25383	0.26818	0.12822	0.15036	0.37156	-2.1312	-2.4271	-3	-2.5292	-2.7438	-2.8854	-2.6417	-2.8917	-2.7667	-2.7708	-2.8771	-2.8375	-2.8604	-3.1396	-2.5333	-3.125	233.258	42.672	231.771	-40.934	209.177	73.392	212.703	164.638	251.238	250.163	261.727	-20.285	237.483	-31.072	-38.511	252.657	0.00073229	0.00051798	0.00012585	931.98	6.1431e-06	7.974e-06	934.93	330.84	5.617e-06	4.5169e-06	379.34	173.97	171.14	77.381	3.2398e-06	71.584	0.00010726	8.211e-05	2.2392e-05	854.94	9.408e-07	9.0088e-07	859.69	305.09	9.2994e-07	9.2255e-07	347.51	158.04	153.77	71.242	9.4814e-07	65.307	-15.439	56.720	24.935	-31.971	108.986	96.839	-33.585	-26.940	36.267	99.577	-29.499	-25.480	-23.448	-20.412	79.181	-22.273	-8191	255	
1222.007	1	1	0	0	0.26535	0.25183	0.085589	0.054205	0.13925	0.23557	0.27401	0.22549	0.17217	0.20724	0.2079	0.27392	0.11942	0.19584	0.1139	0.24712	-2.3458	-2.5312	-3.025	-2.4396	-2.7313	-3.0417	-2.5125	-2.9208	-2.9083	-2.6083	-3.2167	-2.6396	-2.85	-3.0438	-2.425	-3.1063	71.646	242.770	207.693	167.501	129.427	12.994	-42.928	249.105	112.152	262.480	262.879	262.575	18.187	296.498	232.073	309.971	0.00074125	0.00059611	0.00016407	931.56	2.4565e-06	5.0871e-06	927.2	332.59	2.7162e-06	6.2412e-06	381.86	173.63	171.97	77.189	4.9384e-06	71.085	0.00010561	8.4621e-05	2.2828e-05	855.04	9.1667e-07	8.853e-07	858.59	306.58	9.3969e-07	9.1966e-07	349.09	158.47	153.88	71.124	9.4542e-07	64.921	-16.867	62.111	68.704	-32.130	108.748	114.366	-33.366	-26.505	112.402	90.791	-29.594	-25.592	-23.234	-20.327	46.018	-22.920	-8191	255	
1222.104	1	1	0	0	0.14984	0.24306	0.11438	0.069341	0.043271	0.23955	0.42499	0.12594	0.1163	0.21281	0.085173	0.3315	0.12933	0.30032	0.18348	0.33023	-2.3	-2.6188	-3.0208	-2.7687	-2.7313	-3.0417	-2.7917	-3.0042	-2.6813	-2.7229	-3.0312	-2.8396	-2.6729	-3.1208	-2.75	-2.9021	2.150	17.636	134.440	7.004	219.992	-26.267	259.451	189.460	237.761	213.513	255.357	161.543	15.717	260.391	-15.001	244.828	0.00069187	0.00056579	0.00018002	930.48	8.0194e-06	3.6294e-06	936.64	328.13	5.3366e-06	6.3793e-06	378.72	172.8	168.74	76.663	5.8225e-06	70.861	0.00010795	8.2641e-05	2.2928e-05	852.63	9.4379e-07	8.8082e-07	855.42	303.21	8.9823e-07	8.9945e-07	345.26	157.28	152.34	70.764	9.6779e-07	64.84	-14.866	62.355	33.398	-32.378	75.650	100.793	-33.636	-26.645	94.129	94.830	-29.384	-25.399	-23.272	-20.298	93.015	-22.596	-8191	255	
1222.223	1	1	0	0	0.079202	0.2283	0.14712	0.27271	0.1652	0.073747	0.25694	0.064603	0.0356	0.22862	0.074719	0.12686	0.083984	0.1352	0.091855	0.1443	-2.6417	-2.5062	-2.825	-2.7604	-2.6042	-2.9792	-2.6771	-2.9875	-2.8479	-2.5708	-3.0667	-2.8792	-2.7521	-3.1083	-2.6333	-2.8333	172.496	308.320	24.255	124.932	-25.928	105.911	225.988	307.250	226.224	85.607	-31.020	306.747	214.906	293.620	309.219	175.512	0.0008468	0.0006323	0.00012393	931.27	4.7345e-06	4.8078e-06	927.98	329.48	8.4068e-06	2.8275e-06	379.21	171.18	169.38	76.296	5.9464e-06	70.519	0.00010416	8.4583e-05	2.3989e-05	851.71	9.2718e-07	8.9448e-07	854.27	303.87	9.1097e-07	9.0223e-07	345.74	156.86	152.43	70.508	9.6549e-07	64.565	-0.529	49.408	26.496	-32.163	48.584	84.463	-33.834	-26.603	70.873	88.329	-29.484	-25.881	-23.717	-20.328	129.692	-22.793	-8191	255	
1222.319	1	1	0	0	0.083665	0.22044	0.19145	0.10586	0.11006	0.15395	0.21707	0.20676	0.3361	0.28096	0.17763	0.087849	0.13426	0.13506	0.41503	0.096044	-2.5917	-2.3937	-2.6729	-2.7958	-2.5708	-2.975	-2.8479	-2.7271	-2.8354	-2.2562	-2.9958	-3.0354	-2.6813	-2.9813	-2.7583	-2.7021	138.823	269.139	-33.580	20.111	-24.026	165.471	280.845	255.901	42.317	30.604	157.275	124.518	162.955	280.325	6.734	283.766	0.00053522	0.00056169	0.00011294	925.07	5.8707e-06	7.518e-06	924.51	330.26	3.81e-06	6.2017e-06	376.02	170.49	167.51	76.425	7.2826e-06	70.469	0.00010331	8.2448e-05	2.3507e-05	847.76	9.4126e-07	9.0747e-07	855.13	303.48	8.9471e-07	9.2047e-07	343.66	156.06	151.55	70.332	9.6284e-07	64.42	-6.924	62.593	56.314	-32.222	74.443	95.452	-33.613	-26.670	111.047	63.788	-29.374	-25.391	-23.430	-20.441	117.724	-22.581	-8191	255	
1222.416	1	1	0	0	0.29302	0.078287	0.23671	0.20735	0.28623	0.25904	0.098203	0.3929	0.092039	0.26593	0.04346	0.23086	0.075099	0.12736	0.072854	0.10383	-2.4437	-2.4792	-2.6896	-2.6583	-2.4062	-3.0771	-2.9146	-2.8854	-2.9375	-2.5271	-3.0187	-3.1042	-2.7271	-3.0271	-2.85	-2.6771	13.636	269.080	40.818	-37.098	20.271	106.050	1.417	306.652	-44.220	-29.709	297.207	296.569	22.989	244.714	4.628	149.776	0.00066507	0.00059184	4.9903e-05	927.35	5.4319e-06	7.2281e-06	932.03	328.31	3.5695e-06	2.334e-06	379.58	172.39	169.07	76.467	5.0571e-06	71.166	0.0001053	8.5827e-05	2.2858e-05	846.37	9.3125e-07	8.9432e-07	853.94	302.78	8.9559e-07	9.0852e-07	345.96	157.16	152.14	70.562	9.1564e-07	64.819	-3.624	31.043	19.467	-32.016	106.280	101.734	-33.916	-26.600	92.616	78.371	-29.454	-25.245	-23.518	-20.327	99.471	-22.738	-8191	255	
1222.512	1	1	0	0	0.14297	0.20781	0.1997	0.12703	0.12723	0.053266	0.25089	0.29627	0.084827	0.042342	0.14957	0.036442	0.11328	0.21805	0.14811	0.4607	-2.35	-2.4417	-2.5979	-2.9833	-2.5104	-2.9188	-2.9833	-2.425	-2.9104	-2.6896	-2.8438	-3.0167	-2.5229	-3.0354	-2.9625	-2.5458	270.186	177.834	279.432	277.802	199.944	229.854	185.352	268.528	89.417	194.233	179.677	307.192	27.922	288.543	20.765	252.374	0.00078889	0.0006518	0.00012002	927.26	3.5726e-06	6.9907e-06	922.86	328.89	6.8412e-06	5.8564e-06	377.93	172.28	168.9	76.525	2.0175e-06	70.378	0.00010253	8.1358e-05	2.2929e-05	849.52	9.4007e-07	8.9853e-07	852.24	303.45	9.2478e-07	8.8692e-07	345.33	157.14	152.21	70.567	9.4128e-07	64.662	-13.273	56.117	14.180	-32.244	84.088	73.679	-33.695	-26.736	66.759	65.043	-29.525	-25.190	-23.378	-20.242	96.394	-22.511	-8191	255	
1222.608	1	1	0	0	0.24734	0.10624	0.18153	0.14263	0.1711	0.10341	0.21866	0.12429	0.10486	0.06743	0.15925	0.082193	0.28504	0.27877	0.059391	0.28234	-2.5083	-2.725	-2.6125	-2.8854	-2.4125	-2.5104	-2.9604	-2.6604	-2.8833	-2.7208	-2.7396	-3.1	-2.5542	-2.9042	-3.0187	-2.6208	207.623	131.672	188.508	230.940	-34.336	220.729	164.192	311.736	106.163	-14.263	268.027	170.109	241.371	276.685	13.676	287.507	0.00084963	0.00068464	0.00016761	922.45	4.6827e-06	7.1117e-06	928.32	325.97	6.0949e-06	7.3216e-06	378.41	171.97	168.88	76.25	3.8004e-06	70.512	0.0001045	8.192e-05	2.3526e-05	847.35	9.0927e-07	8.6636e-07	852.56	302.89	9.7205e-07	8.6817e-07	345.78	157.12	151.91	70.601	9.2995e-07	64.618	-7.921	47.519	36.588	-32.361	78.361	61.487	-33.359	-26.660	109.348	98.024	-29.790	-25.417	-22.788	-20.338	111.179	-22.565	-8191	255	
1222.704	1	1	0	0	0.27609	0.12876	0.19959	0.20464	0.21961	0.22028	0.17826	0.31642	0.29035	0.0452	0.12152	0.10468	0.21329	0.32573	0.15258	0.18787	-2.4708	-2.7958	-2.6312	-3.2021	-2.5146	-2.8	-2.8646	-2.8521	-3.0021	-2.6937	-2.8375	-3.0563	-2.6437	-3.0563	-2.8729	-2.6417	-2.275	238.496	254.370	309.707	-44.377	308.728	263.103	61.094	176.767	259.490	273.013	271.697	159.430	289.199	152.208	280.925	0.00054024	0.00034057	4.5204e-05	921.46	4.0052e-06	3.0219e-06	922.4	327.62	8.0396e-06	7.7733e-06	376.12	172.09	169.22	75.98	4.0581e-06	70.583	0.00010322	7.9712e-05	2.2296e-05	843.52	9.2231e-07	8.7523e-07	852.2	301.88	9.5889e-07	8.9691e-07	345.16	156.69	151.81	70.145	9.483e-07	64.54	-4.313	35.630	12.782	-32.198	99.358	94.303	-33.495	-26.668	117.148	73.898	-29.205	-25.284	-23.450	-20.112	75.162	-22.592	-8191	255	
1222.825	1	1	0	0	0.077004	0.39221	0.21776	0.11657	0.17074	0.10543	0.2086	0.035092	0.15027	0.12287	0.26313	0.19876	0.1908	0.19282	0.090857	0.20193	-2.5208	-2.7542	-2.3771	-3.0729	-2.8292	-2.6437	-3.05	-2.8542	-2.6542	-2.8354	-2.7792	-3.1771	-2.8146	-2.8458	-2.9	-2.8521	250.647	117.750	43.586	314.867	196.713	31.811	285.343	253.686	267.846	206.656	-43.850	294.203	242.868	252.096	220.805	153.118	0.00069277	0.00056059	3.5534e-05	921.03	5.3955e-06	6.1474e-06	927.94	326.17	5.2812e-06	4.346e-06	376.64	171.11	167.22	75.545	2.4497e-06	70.087	0.00010416	8.3707e-05	2.4236e-05	848.64	9.1898e-07	9.1388e-07	854.49	301.37	9.1923e-07	8.9779e-07	344.21	155.57	150.65	69.64	9.5359e-07	63.81	-12.894	23.999	58.409	-32.207	61.620	96.891	-33.377	-26.797	71.005	90.846	-29.382	-25.172	-23.481	-20.079	92.888	-22.788	-8191	255	
1222.919	1	1	0	0	0.085209	0.08264	0.25926	0.13437	0.027578	0.11988	0.015215	0.07741	0.14814	0.1527	0.13929	0.12082	0.25114	0.23557	0.10844	0.15488	-2.55	-2.6542	-2.5438	-2.8708	-2.5021	-2.7292	-3.0812	-2.5604	-2.8479	-2.7708	-2.7062	-3.0271	-2.6937	-2.8042	-2.9562	-2.6813	35.880	111.496	148.526	298.832	56.857	122.705	286.664	216.918	60.110	86.718	142.489	236.238	-30.041	96.289	213.401	246.203	0.00056295	0.00030345	7.503e-05	924.9	1.7169e-06	5.6356e-06	925.88	324.73	6.991e-06	5.4963e-06	373.22	168.19	166.26	74.855	2.4834e-06	69.244	0.00010567	8.1625e-05	2.4104e-05	847.74	9.3938e-07	9.2213e-07	851.94	299.47	9.6674e-07	9.0288e-07	339.89	153.72	149.61	69.006	9.1188e-07	63.248	-0.460	56.254	21.216	-32.107	85.560	64.489	-33.633	-26.641	60.427	91.064	-29.614	-25.124	-23.541	-20.076	149.150	-22.801	-8191	255	
1223.015	1	1	0	0	0.25767	0.14144	0.032883	0.099317	0.19072	0.13184	0.29893	0.13462	0.1495	0.075832	0.15072	0.10831	0.28928	0.22284	0.30249	0.18043	-2.4167	-2.7479	-2.5062	-3.0687	-2.6688	-2.5542	-3.175	-2.8521	-2.6292	-3.1229	-2.6833	-2.925	-3.0104	-2.85	-3.1521	-2.725	-0.855	28.864	204.528	307.706	116.665	146.005	156.249	178.947	43.583	3.163	20.457	14.164	-41.958	292.905	31.185	240.086	0.00074719	0.0004436	7.487e-05	925.23	5.3024e-06	8.5375e-06	923.18	323.17	5.448e-06	3.3616e-06	371.5	168.09	165.33	74.65	4.0566e-06	68.854	0.00010441	8.1294e-05	2.2234e-05	843.48	9.1656e-07	8.9019e-07	849.6	298.5	9.6134e-07	8.9668e-07	339.66	153.23	148.92	68.94	9.7401e-07	63.013	-10.821	45.405	38.344	-32.327	94.944	86.442	-33.376	-26.721	76.445	86.216	-29.322	-25.239	-23.304	-20.107	60.235	-22.189	-8191	255	
1223.111	1	1	0	0	0.10895	0.11077	0.0375	0.27565	0.19409	0.12915	0.096768	0.21147	0.35631	0.24396	0.19538	0.28203	0.2563	0.08891	0.14562	0.19272	-2.5042	-2.7979	-2.6688	-2.9437	-2.7396	-2.7562	-3.0917	-2.6583	-2.9062	-2.8917	-2.7188	-3.1583	-2.9813	-2.8042	-3.0104	-2.9104	215.538	-8.297	282.080	302.448	224.297	241.203	265.439	6.550	134.070	283.463	39.828	171.799	256.983	55.544	27.365	252.561	0.0007334	0.00054994	4.9065e-05	918.43	4.6049e-06	3.9814e-06	922.96	323.07	5.4768e-06	4.7365e-06	368.51	165.3	165.88	74.322	5.8533e-06	68.556	0.00010486	8.4892e-05	2.2911e-05	842.38	9.1019e-07	9.3675e-07	847.5	297.82	9.5897e-07	8.8298e-07	337.68	151.56	148.41	68.371	9.8786e-07	62.708	-11.126	100.067	34.520	-32.232	66.291	78.767	-33.727	-26.463	115.142	73.994	-29.321	-25.259	-23.548	-20.161	87.316	-22.729	-8191	255	
1223.208	1	1	0	0	0.1908	0.29793	0.22129	0.1426	0.20999	0.16868	0.11856	0.19435	0.17489	0.24858	0.13393	0.19569	0.27842	0.22588	0.089331	0.1388	-2.4792	-2.9625	-2.6688	-2.8979	-2.8167	-2.6875	-2.9729	-3.1104	-2.7854	-3.2646	-2.5896	-2.9208	-3.0583	-2.8167	-2.875	-2.9458	241.251	32.588	52.433	280.409	159.380	-25.507	280.790	-41.428	278.204	13.348	97.089	276.280	306.094	287.804	178.340	221.206	0.00074695	0.00038957	0.00011955	928.78	4.7172e-06	7.2338e-06	922.09	324.49	6.6505e-06	5.8376e-06	368.68	166.62	165.19	74.2	5.6354e-06	68.077	0.00010667	8.4438e-05	2.4295e-05	850.36	9.3409e-07	9.3686e-07	849.01	298.42	9.8919e-07	9.1935e-07	338.34	151.94	148.59	68.359	9.5509e-07	62.541	-3.224	72.554	51.759	-32.527	73.080	82.374	-33.561	-26.798	82.612	83.124	-29.410	-25.486	-23.466	-20.540	100.277	-22.650	-8191	255	
1223.304	1	1	0	0	0.31748	0.083468	0.078938	0.00477	0.20951	0.060546	0.12009	0.039792	0.27076	0.15578	0.15504	0.1117	0.24053	0.56768	0.18996	0.28585	-2.2521	-2.9729	-2.6104	-2.9125	-2.9708	-2.5104	-2.9417	-2.9813	-2.6167	-2.9729	-2.7042	-2.9125	-2.9521	-2.6937	-2.6813	-2.775	-34.016	86.385	4.427	177.891	-34.510	31.895	187.514	-17.704	44.861	173.857	314.535	260.287	224.176	-34.753	123.917	279.389	0.00064711	0.00065844	0.00021173	917	5.1854e-06	6.4651e-06	920.58	324.36	8.9356e-06	7.3009e-06	367.7	167.05	165.6	74.093	6.093e-06	68.225	0.00010629	8.3429e-05	2.3222e-05	843.38	9.1253e-07	9.0786e-07	847.54	298.37	9.3407e-07	9.1245e-07	337.46	151.99	148.69	68.378	9.6606e-07	62.34	-23.197	59.707	61.337	-32.309	73.876	69.219	-33.606	-26.619	89.559	61.221	-29.224	-25.390	-23.321	-20.490	98.023	-22.906	-8191	255	
1223.400	1	1	0	0	0.34814	0.28129	0.062595	0.42926	0.29657	0.20554	0.19483	0.14488	0.21337	0.18504	0.18108	0.14363	0.34291	0.39615	0.04809	0.16882	-1.9833	-3.0292	-2.7313	-2.9083	-2.9125	-2.5917	-3.0229	-3.1292	-2.4083	-2.8021	-2.7021	-2.9625	-3.1729	-2.8479	-2.8292	-3.0229	181.639	-21.065	242.453	-3.470	14.692	47.830	247.717	252.378	81.617	126.394	292.173	210.418	284.603	267.800	-30.524	-35.587	0.00073856	0.00035437	0.0001586	921.52	5.0525e-06	6.3262e-06	920.27	323.75	5.9005e-06	5.2481e-06	372.27	167.42	164.92	74.367	5.9657e-06	68.313	0.0001065	8.7428e-05	2.3514e-05	843.64	9.1019e-07	9.2815e-07	845.79	298.75	9.859e-07	8.956e-07	339.57	152.41	149.02	68.57	9.9638e-07	62.505	-12.537	45.270	35.235	-31.871	64.718	75.059	-33.830	-26.601	54.556	109.636	-29.930	-25.297	-23.702	-20.395	113.611	-22.797	-8191	255	
1223.520	1	1	0	0	0.2044	0.14213	0.33282	0.07706	0.16526	0.086531	0.37266	0.06434	0.36181	0.30242	0.096838	0.086592	0.059767	0.27894	0.16477	0.18042	-2.25	-3.05	-2.5375	-2.7292	-3.0083	-2.5708	-2.9229	-2.9042	-2.5583	-3.0583	-2.9375	-2.7417	-2.8208	-2.7771	-2.9542	-3.0833	174.869	94.785	285.905	247.522	165.347	310.255	238.762	280.903	244.504	208.823	289.068	306.977	-43.942	313.475	116.651	219.848	0.00077358	0.00063724	0.00012502	918.57	2.7548e-06	5.6541e-06	922.59	321.41	7.5662e-06	5.1304e-06	369.75	165.37	164.21	73.715	4.2976e-06	67.932	0.00010532	8.5247e-05	2.3765e-05	843.95	9.3121e-07	9.3933e-07	846.63	297.3	9.4864e-07	9.2074e-07	337.27	150.65	147.65	67.971	9.7539e-07	62.175	-13.235	75.905	56.738	-32.319	103.576	59.435	-33.673	-26.694	106.074	115.714	-29.621	-25.117	-23.485	-20.223	95.508	-22.581	-8191	255	
1223.617	1	1	0	0	0.27911	0.30813	0.12778	0.3793	0.17658	0.15371	0.13341	0.14842	0.17703	0.1041	0.091075	0.053429	0.15456	0.07193	0.19656	0.20763	-2.1437	-2.8979	-2.9417	-2.7958	-2.8729	-2.5563	-2.9479	-3.2521	-2.5979	-2.7979	-3.0729	-2.5708	-2.9396	-3.0896	-2.8146	-2.8979	140.046	34.847	62.543	252.786	62.822	266.112	289.852	281.587	191.834	81.321	246.078	-10.079	259.556	284.174	-11.352	240.201	0.00062131	0.00060176	0.00015709	926.51	3.6224e-07	6.1572e-06	926.58	324.1	8.5766e-06	5.112e-06	367.84	164.38	165.35	73.195	4.3986e-06	67.683	0.0001068	8.6232e-05	2.3546e-05	847.7	9.4272e-07	9.5345e-07	851.65	298.47	9.6394e-07	9.5456e-07	337.21	150.4	147.96	67.703	9.5797e-07	61.996	-7.691	64.477	46.885	-32.328	31.952	95.838	-33.761	-26.741	127.398	57.100	-29.390	-25.341	-23.257	-20.347	159.880	-22.606	-8191	255	
1223.688	1	1	0	0	0.18166	0.23264	0.18394	0.12621	0.28745	0.11142	0.215	0.33368	0.047674	0.088601	0.11023	0.091511	0.11918	0.11364	0.13743	0.15436	-2.1	-2.8083	-2.8354	-2.7021	-2.8312	-2.6437	-2.9729	-2.9938	-2.4604	-2.7833	-3.0438	-2.6333	-2.9021	-3.1146	-2.7333	-3.2375	119.118	-42.332	133.028	66.037	21.204	159.137	223.107	241.587	89.296	282.880	144.560	235.154	262.212	280.271	188.481	303.331	0.0006724	0.00056452	0.00011875	918.05	3.8439e-06	4.1872e-06	918.17	322.23	5.6748e-06	2.5306e-06	370.16	165.38	165.32	74.107	7.7384e-06	67.821	0.00010621	8.5789e-05	2.2553e-05	842.4	8.84e-07	9.1854e-07	844.51	296.97	9.5136e-07	9.1615e-07	337.69	150.8	148.44	68.174	9.757e-07	62.249	11.969	40.849	24.410	-32.262	125.379	86.131	-33.516	-26.711	51.297	48.305	-29.047	-25.442	-23.518	-20.282	123.225	-22.774	-8191	255	
1223.784	1	1	0	0	0.15344	0.15528	0.27591	0.091808	0.051062	0.19685	0.29811	0.24243	0.17449	0.17936	0.22074	0.068752	0.13915	0.26651	0.082493	0.39155	-2.2062	-2.6667	-2.8417	-2.8063	-2.9271	-2.6479	-2.8604	-3.3063	-2.7917	-2.6771	-2.9875	-2.7188	-3.1292	-2.825	-2.575	-3.1	-17.924	268.286	101.882	-32.956	83.134	28.988	217.048	213.791	52.340	53.112	228.364	315.226	303.414	249.767	147.660	187.693	0.00066742	0.00035246	0.00014901	927.04	5.9869e-06	6.0566e-06	923.54	323.32	3.5182e-06	5.0251e-06	371.06	166.1	165.84	73.754	2.644e-06	68.459	0.00010649	8.1885e-05	2.3749e-05	845.72	9.2945e-07	9.1715e-07	847.03	298.51	9.4256e-07	9.2919e-07	338.47	151.28	148.54	68.262	9.747e-07	62.35	-5.365	77.145	52.729	-32.335	84.310	61.924	-33.642	-26.634	127.146	94.556	-29.291	-25.523	-23.606	-20.351	126.555	-22.677	-8191	255	
1223.905	1	1	0	0	0.14865	0.20105	0.058904	0.17892	0.047617	0.1804	0.16583	0.16248	0.17906	0.15565	0.15875	0.21734	0.1303	0.18765	0.089549	0.035092	-2.3937	-2.6896	-2.8479	-2.6479	-3.0292	-2.9396	-2.7896	-2.8958	-2.8625	-2.7729	-3.2646	-2.7792	-3.0208	-3.1312	-2.6583	-3.1583	175.134	286.504	-27.221	-39.329	131.697	78.137	258.136	261.789	77.815	38.965	252.794	302.549	-36.015	291.116	-1.259	39.529	0.00056629	0.00043947	0.00011357	927.62	4.9738e-06	5.519e-06	914.5	323.95	7.8038e-06	4.0876e-06	370.56	165.17	165.58	73.681	3.6232e-06	68.267	0.0001045	8.6281e-05	2.3163e-05	847.6	9.0989e-07	8.8638e-07	844.88	298.41	9.3269e-07	9.013e-07	337.77	150.94	148.25	67.841	9.5118e-07	62.174	1.762	36.460	25.661	-32.381	100.835	70.455	-33.691	-26.775	76.201	78.129	-29.566	-25.132	-23.404	-20.439	73.987	-22.535	-8191	255	
1223.999	1	1	0	0	0.20113	0.14164	0.1401	0.22762	0.08931	0.18108	0.10681	0.29702	0.13614	0.1766	0.33309	0.52582	0.039192	0.20477	0.19443	0.086888	-2.1292	-2.6792	-3.2	-2.5	-2.8063	-3.0479	-2.8688	-3.0333	-2.9417	-2.4583	-2.9313	-2.7687	-2.9042	-3.0938	-2.7625	-3.1604	46.719	221.904	260.904	237.570	22.079	86.508	234.411	253.536	146.482	301.249	286.533	275.323	179.516	-43.634	304.486	166.566	0.00061358	0.00038639	0.00014498	928.05	3.4127e-06	4.345e-06	919.57	325.08	6.5569e-06	4.6986e-06	367.1	164.36	162.98	73.006	2.7304e-06	67.707	0.00010238	8.4839e-05	2.2473e-05	846.3	9.4655e-07	9.0836e-07	846.21	298.96	9.6318e-07	9.5395e-07	336.23	149.76	146.96	67.356	9.7048e-07	61.586	-14.256	0.516	58.110	-32.180	127.004	95.094	-33.764	-26.463	80.546	59.732	-29.357	-25.585	-23.768	-20.344	93.206	-22.622	-8191	255	
1224.096	1	1	0	0	0.2043	0.063258	0.15043	0.19747	0.02533	0.16231	0.068484	0.14064	0.16923	0.039023	0.14965	0.28863	0.28147	0.13629	0.14188	0.19703	-2.0479	-2.7542	-2.8937	-2.7104	-2.8646	-2.9062	-2.7208	-3.0875	-2.7833	-2.5792	-3.2229	-2.9146	-2.7521	-3.2646	-2.7208	-2.9083	123.137	128.987	160.326	194.801	-16.504	61.889	246.680	230.017	-16.221	81.308	-18.404	267.229	247.651	270.583	97.493	150.010	0.00089966	0.00059218	0.00014021	917.67	7.0064e-06	5.4349e-06	915.92	319.37	7.6537e-06	4.4555e-06	362.74	161.75	161.59	72.376	6.9624e-06	66.701	0.00010542	8.3679e-05	2.3131e-05	838.85	9.5836e-07	8.9363e-07	841.96	294.92	9.4998e-07	8.934e-07	331.89	147.47	145.03	66.694	9.4692e-07	60.83	-19.401	17.942	55.479	-32.305	69.886	80.220	-33.674	-26.970	77.171	98.626	-29.539	-25.048	-23.417	-20.483	135.062	-22.416	-8191	255	
1224.216	1	1	0	0	0.13132	0.22981	0.1374	0.067488	0.1393	0.19458	0.20009	0.20158	0.039144	0.23695	0.05672	0.18084	0.1173	0.19129	0.10193	0.15258	-2.4437	-2.7333	-2.9729	-2.6646	-2.8542	-3.1146	-2.4313	-3.0833	-3.0875	-2.5042	-3.0062	-2.8333	-2.6688	-3.1604	-2.8208	-2.9792	240.020	61.874	119.142	304.146	-44.102	138.114	237.178	304.195	17.184	159.025	175.645	278.219	-23.496	307.403	84.223	308.424	0.00075633	0.00064001	9.9358e-05	917.97	4.1038e-06	8.5676e-06	905.26	318.63	9.7844e-06	5.1175e-06	359.95	158.58	159.6	71.557	2.8115e-06	65.587	0.00010299	8.3246e-05	2.2709e-05	839.53	9.1226e-07	8.7963e-07	834.42	293.86	9.1732e-07	9.2371e-07	329.59	145.47	143.72	65.951	9.6403e-07	59.898	6.024	54.709	42.179	-32.169	109.460	76.488	-33.627	-26.895	115.859	72.219	-29.593	-25.510	-23.703	-20.271	93.931	-22.570	-8191	255	
1224.288	1	1	0	0	0.11239	0.18247	0.22254	0.18721	0.11576	0.1635	0.033723	0.13759	0.26455	0.03019	0.25176	0.026788	0.14647	0.35718	0.29974	0.15747	-2.1771	-2.3583	-2.9771	-2.7979	-2.7	-2.9667	-2.6792	-2.9437	-2.7833	-2.5	-3.0687	-2.9042	-2.5438	-3.2792	-2.5938	-2.95	161.324	250.868	237.127	-25.235	194.490	272.207	46.423	119.358	-25.210	110.548	246.776	274.368	256.031	241.452	206.777	176.459	0.00066986	0.00055917	0.00016144	917.63	5.0662e-06	5.9428e-06	904.11	315.64	5.9837e-06	6.1642e-06	358.01	156.47	158.4	70.793	8.2061e-07	64.997	0.00010438	8.3615e-05	2.3108e-05	836.73	9.4026e-07	8.8931e-07	832.81	291.33	9.3246e-07	8.8032e-07	327.39	142.93	141.72	65.037	9.4369e-07	59.554	-4.993	33.995	25.655	-32.258	107.320	72.587	-33.511	-26.578	74.996	95.941	-29.691	-25.299	-23.290	-20.313	77.265	-22.800	-8191	255	
1224.384	1	1	0	0	0.40745	0.10118	0.11216	0.16082	0.062557	0.14083	0.14424	0.17488	0.22411	0.16247	0.49175	0.19423	0.216	0.13862	0.063773	0.12703	-2.4458	-2.5896	-2.9	-2.9146	-2.5792	-3.0312	-2.7	-2.7917	-2.975	-2.5292	-2.8667	-2.9271	-2.5062	-3.0312	-2.8146	-2.8875	51.784	82.797	188.953	289.817	215.868	306.987	274.576	281.255	137.368	0.347	247.975	245.803	36.041	196.290	196.791	239.982	0.00069075	0.0003518	4.5429e-05	904.24	3.9104e-06	6.9808e-06	903.71	314.5	3.541e-06	2.5383e-06	353.85	154.84	155.98	69.86	2.9651e-06	64.531	0.00010376	8.2332e-05	2.2295e-05	831.03	9.2273e-07	9.1268e-07	830.25	290.02	9.3686e-07	9.1037e-07	323.82	141.6	140.6	64.491	9.6392e-07	59.21	-9.283	35.640	120.774	-32.324	127.147	64.842	-33.672	-26.983	77.538	66.264	-29.640	-25.818	-23.600	-20.166	97.825	-22.630	-8191	255	
1224.505	1	1	0	0	0.080346	0.19345	0.12966	0.2404	0.25339	0.19069	0.21132	0.13459	0.15096	0.23952	0.33353	0.21701	0.086845	0.31023	0.26815	0.14864	-2.4292	-2.3792	-2.9313	-2.8729	-2.5771	-3.0479	-2.8187	-2.4896	-2.8896	-2.6021	-3	-2.9375	-2.4271	-3.0417	-2.8812	-2.5896	-34.400	17.235	147.328	170.701	66.832	240.190	278.551	309.861	130.169	206.696	285.256	262.519	87.517	-35.585	13.338	264.490	0.00066507	0.00052286	0.0001321	902.74	4.4192e-06	7.8513e-06	898.64	310.51	4.8229e-06	6.89e-06	351.76	151.78	154.29	68.722	1.4633e-06	63.721	0.00010039	8.1291e-05	2.3377e-05	829.79	9.2101e-07	8.9305e-07	824.59	286.84	9.4088e-07	8.993e-07	320.58	138.73	138.64	63.516	9.3406e-07	58.093	-10.575	47.469	58.971	-32.296	123.773	53.162	-33.769	-26.690	135.686	94.720	-29.308	-25.433	-23.560	-20.294	155.384	-22.693	-8191	255	
1224.601	1	1	0	0	0.22334	0.092682	0.19191	0.2067	0.16421	0.18641	0.16472	0.36473	0.18412	0.081061	0.21202	0.12824	0.11614	0.34366	0.29424	0.086359	-2.65	-2.4688	-2.6813	-2.9417	-2.4604	-2.9396	-2.8104	-2.6437	-3.2167	-2.5021	-2.6813	-2.9979	-2.4896	-2.9562	-2.7292	-2.6625	64.083	-29.724	278.975	185.755	61.789	143.846	200.360	300.298	0.896	97.287	-29.259	-6.396	296.012	282.890	92.007	305.930	0.00068596	0.00049546	0.00013898	899.88	4.7609e-06	7.2264e-06	887.51	309.89	5.7399e-06	8.3449e-06	349.61	151.33	154.21	68.904	2.376e-06	63.787	0.00010219	8.486e-05	2.3223e-05	824.43	9.4973e-07	8.9181e-07	818.25	285.7	9.211e-07	8.9317e-07	319.62	137.97	138.3	63.639	9.1196e-07	58.284	-4.520	62.638	54.886	-32.360	105.532	93.845	-33.701	-26.768	57.288	71.895	-29.618	-25.380	-23.322	-19.970	34.049	-22.438	-8191	255	
1224.697	1	1	0	0	0.14936	0.067416	0.21117	0.283	0.31648	0.28088	0.24384	0.28492	0.14419	0.06672	0.14846	0.29501	0.041466	0.36679	0.27947	0.20633	-2.8333	-2.3854	-2.7479	-3.1542	-2.4646	-2.8292	-2.9604	-2.6417	-2.8083	-2.6979	-2.675	-2.8979	-2.8479	-2.9208	-2.8542	-2.7042	158.856	314.356	313.818	310.812	42.053	-33.925	-37.632	-43.053	90.861	174.659	274.655	230.861	205.598	294.379	-36.444	254.136	0.000723	0.00050092	0.00011722	898.7	1.8045e-06	4.574e-06	897.68	311.1	8.2995e-06	4.3264e-06	349.4	152.91	154.56	69.628	5.8157e-06	63.78	0.00010076	8.0612e-05	2.2811e-05	824.7	9.5978e-07	8.7237e-07	822.47	287.03	9.3101e-07	8.8511e-07	320.65	138.94	138.86	64.048	9.214e-07	58.487	-3.637	53.306	34.252	-32.468	87.354	90.084	-33.830	-26.818	64.320	122.324	-29.688	-25.311	-23.629	-20.394	112.587	-22.431	-8191	255	
1224.793	1	1	0	0	0.041431	0.19657	0.18231	0.34166	0.29135	0.13164	0.20523	0.11389	0.11337	0.12218	0.30645	0.096848	0.14304	0.1342	0.13999	0.29168	-2.5479	-2.7708	-2.575	-3.0604	-2.5938	-2.7188	-2.7604	-2.5979	-3.0187	-2.9833	-2.7708	-3.1146	-2.6833	-2.9688	-2.9604	-2.8021	154.717	312.606	-8.579	252.993	248.434	216.361	205.789	142.467	44.009	267.372	308.634	5.849	289.082	233.127	8.375	230.724	0.00076565	0.00045407	8.1919e-05	905.13	5.0555e-06	3.5794e-06	899.48	314.35	6.9939e-06	3.5343e-06	351.78	153.39	155.6	69.508	3.8983e-06	64.532	0.00010602	8.3433e-05	2.3462e-05	830.27	9.6005e-07	9.3717e-07	826.57	288.61	9.3946e-07	9.0026e-07	322.42	139.7	139.34	64.193	9.788e-07	59.004	-11.864	38.576	48.296	-32.181	79.870	47.455	-33.738	-26.832	67.340	68.067	-29.527	-25.321	-23.623	-20.227	78.301	-22.985	-8191	255	
1224.912	1	1	0	0	0.12681	0.0866	0.12222	0.1681	0.14211	0.078454	0.072742	0.21525	0.09187	0.16149	0.06584	0.14772	0.16421	0.048162	0.017689	0.20719	-2.4562	-2.5	-2.575	-3.1104	-2.4333	-2.6854	-3.0479	-2.6604	-2.5458	-2.7583	-2.8521	-3.0896	-2.4604	-2.7438	-3.0271	-2.2854	21.166	-39.411	126.321	307.762	115.800	150.853	183.715	45.695	225.633	256.516	10.767	272.326	278.327	271.332	55.909	2.969	0.00063558	0.00065076	4.6469e-05	899.75	8.5225e-07	2.4349e-06	893.15	312.83	8.2483e-06	4.3574e-06	353.77	153.42	155.66	69.639	5.3148e-06	64.302	0.00010252	8.3742e-05	2.3533e-05	830.23	9.2101e-07	9.4581e-07	824.83	288.89	9.2891e-07	9.2734e-07	323.16	140.22	139.72	64.336	9.4937e-07	58.972	-13.326	39.818	63.217	-32.470	58.079	100.863	-34.118	-26.466	92.410	108.094	-29.423	-25.706	-23.630	-20.136	81.112	-22.675	-8191	255	
1224.984	1	1	0	0	0.30863	0.11905	0.24015	0.09207	0.1164	0.095949	0.080259	0.19895	0.22219	0.075667	0.2326	0.089132	0.10527	0.16685	0.19463	0.34232	-2.375	-2.8688	-2.3958	-2.8438	-2.6708	-2.7333	-3.0875	-2.5521	-2.7875	-2.8833	-2.6146	-2.975	-2.8604	-2.7292	-2.875	-2.5938	226.678	20.452	117.880	199.174	101.088	249.503	283.344	270.196	208.400	311.159	169.845	189.389	303.282	-38.478	242.300	285.248	0.00056483	0.00056314	9.6074e-05	907.5	5.1858e-06	3.9563e-06	902.85	314.92	4.9406e-06	4.4687e-06	357.29	157.35	159.17	71.72	3.3066e-06	66.426	0.0001034	8.1382e-05	2.2974e-05	831.25	9.1257e-07	9.2552e-07	830.2	291.23	9.2474e-07	8.9961e-07	327.38	143.42	142.97	65.928	9.1771e-07	60.687	-23.739	85.160	69.454	-32.287	96.634	83.187	-33.969	-26.905	91.066	67.213	-29.061	-25.369	-23.694	-20.183	125.085	-22.837	-8191	255	
1225.080	1	1	0	0	0.28682	0.0091933	0.23201	0.19057	0.28888	0.15887	0.059122	0.10736	0.16279	0.087337	0.077644	0.06606	0.21577	0.26471	0.071874	0.20492	-2.3417	-2.9313	-2.475	-3.0625	-2.7104	-2.6396	-3.0062	-2.4667	-2.7812	-2.9396	-2.6104	-3.1688	-3.0375	-2.7979	-3.0333	-2.7896	298.801	152.951	307.871	276.128	-38.534	294.286	306.745	260.165	141.447	10.895	184.432	280.697	281.599	-20.724	38.102	227.398	0.00070006	0.00047965	0.00010817	917.18	5.0049e-06	5.1892e-06	908.91	318.66	7.5561e-06	6.083e-06	361.04	158.41	158.59	71.689	4.1744e-06	66.336	0.00010147	8.4192e-05	2.3358e-05	841.44	9.0037e-07	8.7816e-07	836.98	293.93	9.3614e-07	8.8314e-07	330.17	144.86	143.22	66.104	9.0551e-07	60.733	-0.376	21.084	30.317	-32.161	52.021	70.794	-33.737	-26.833	77.229	77.838	-29.267	-25.378	-23.430	-20.201	116.914	-22.662	-8191	255	
1225.176	1	1	0	0	0.27275	0.21944	0.073406	0.19318	0.19053	0.37493	0.30156	0.17416	0.17963	0.29891	0.21628	0.14655	0.42448	0.1702	0.094874	0.16711	-2.1437	-2.7792	-2.4542	-2.9521	-2.6729	-2.6312	-3.4208	-2.8208	-2.9396	-3.0312	-2.7417	-2.7896	-2.6333	-2.5958	-3.0146	-2.8937	267.535	182.362	310.904	279.826	-11.285	4.752	257.988	-38.500	184.801	-13.777	-23.889	227.733	287.177	302.654	142.281	184.697	0.00058103	0.00065552	0.00019573	914.35	3.305e-06	7.967e-06	912.29	317.69	5.6662e-06	6.0054e-06	358.54	157.29	158.24	71.478	4.7969e-06	66.123	0.00010379	8.1815e-05	2.2984e-05	842.74	9.2342e-07	9.0126e-07	842.09	293.3	9.7553e-07	9.2583e-07	329.2	143.44	142.35	65.563	9.5355e-07	60.245	-16.027	63.682	79.283	-32.141	72.625	88.787	-33.836	-26.797	21.410	95.290	-29.629	-25.524	-23.351	-20.318	131.243	-22.539	-8191	255	
1225.297	1	1	0	0	0.080354	0.059749	0.068794	0.079581	0.22225	0.14148	0.25157	0.16932	0.21198	0.20574	0.11372	0.18701	0.11768	0.26216	0.10392	0.11546	-2.2333	-2.8458	-2.3792	-3.0292	-2.6542	-2.4417	-2.8042	-2.5812	-2.55	-2.9646	-2.7792	-2.9208	-2.8479	-2.5	-2.9	-2.8292	218.431	229.833	229.533	2.481	75.233	53.391	260.686	241.285	251.130	140.450	39.912	295.184	27.740	278.221	193.966	224.069	0.00068146	0.00057915	0.0001908	917.86	4.2205e-06	6.1097e-06	915.13	313.63	2.5534e-06	4.9615e-06	354.63	154.68	156.27	69.7	3.4678e-06	64.651	0.00010651	8.1759e-05	2.3761e-05	839.99	9.4797e-07	9.0682e-07	839.46	290.36	9.3828e-07	9.1847e-07	324.28	141.3	140.61	64.29	9.595e-07	59.096	-18.942	40.580	58.269	-32.108	84.668	64.148	-33.787	-26.737	96.548	83.806	-29.586	-25.324	-23.374	-20.126	148.141	-22.630	-8191	255	
1225.393	1	1	0	0	0.1688	0.1139	0.11883	0.28808	0.13956	0.21894	0.27588	0.080967	0.085954	0.05036	0.22584	0.11091	0.20969	0.28442	0.26792	0.17387	-2.2	-2.9396	-2.5687	-2.95	-3.0833	-2.5687	-2.8	-2.5604	-2.775	-3.1729	-2.9396	-2.7875	-3.15	-2.6312	-2.4958	-2.8417	178.839	-43.820	14.740	-35.478	174.437	-31.980	217.935	127.310	28.304	-35.962	296.124	234.336	286.320	-5.013	231.112	197.081	0.00070815	0.00051286	0.00012745	916.61	6.4237e-06	5.3223e-06	899.59	311.66	4.2481e-06	4.889e-06	352.03	154.92	155.42	70.01	3.6977e-06	64.771	0.00010609	8.2479e-05	2.3697e-05	837.66	9.2937e-07	9.0767e-07	829.62	288.42	9.5916e-07	9.0096e-07	322.79	140.82	140.2	64.395	9.4001e-07	59.265	-4.269	36.988	60.304	-32.185	85.576	89.895	-33.594	-26.897	134.507	107.243	-29.991	-25.568	-23.112	-20.122	115.346	-22.168	-8191	255	
1225.489	1	1	0	0	0.063095	0.19895	0.20893	0.12508	0.19199	0.098208	0.39881	0.0927	0.085052	0.083364	0.16209	0.083087	0.20527	0.17512	0.05344	0.062087	-1.9458	-2.7396	-2.6	-2.8312	-2.95	-2.6229	-2.9	-2.9313	-2.3708	-2.8333	-2.625	-2.7667	-3.2	-2.8771	-2.8958	-3.0979	251.398	52.675	310.261	263.875	111.123	234.607	249.717	-23.008	137.520	-9.500	230.976	257.706	248.987	299.639	295.321	247.229	0.00059982	0.00047553	8.7601e-05	909.66	3.6719e-06	6.5013e-06	903.66	312.75	5.489e-06	4.4095e-06	353.25	153.29	154.47	69.501	4.2707e-06	64.617	0.00010014	8.2894e-05	2.361e-05	834.9	9.2331e-07	8.9332e-07	830.25	288.05	9.4597e-07	8.8688e-07	322.91	140.47	139.5	64.25	8.8989e-07	59.146	-1.568	70.551	78.596	-32.452	78.489	76.400	-33.644	-26.274	138.405	104.933	-29.646	-25.413	-23.710	-20.170	90.858	-22.715	-8191	255	
1225.585	1	1	0	0	0.22003	0.056409	0.18657	0.066414	0.27794	0.13844	0.23513	0.12593	0.11037	0.14647	0.18566	0.15274	0.15485	0.39663	0.2508	0.2708	-1.9167	-2.8917	-2.7458	-2.6729	-2.8812	-2.5521	-2.8375	-3.1542	-2.6312	-3.0438	-2.7812	-2.6521	-2.8063	-2.7333	-2.6375	-2.9333	71.394	244.734	52.439	294.866	162.351	297.984	264.798	240.939	169.254	286.608	297.354	109.858	82.844	280.899	194.438	253.507	0.00068681	0.00055752	0.00018931	909.57	9.7517e-07	4.397e-06	903.97	314.86	4.8091e-06	5.4074e-06	356.61	154.35	155.09	69.989	1.6199e-06	65.454	0.00010118	7.9705e-05	2.2576e-05	833.99	9.0862e-07	8.787e-07	831.57	289.36	9.2711e-07	8.9066e-07	324.42	140.93	139.81	64.534	9.0528e-07	59.67	-16.304	30.344	46.618	-32.514	116.220	70.259	-33.990	-26.610	130.676	100.245	-29.632	-25.521	-23.443	-20.185	148.088	-22.701	-8191	255	
1225.681	1	1	0	0	0.15408	0.12133	0.090402	0.22533	0.11158	0.10388	0.27194	0.14718	0.10792	0.16869	0.11432	0.21462	0.13563	0.099258	0.18789	0.048421	-2.0104	-2.7354	-2.5396	-2.5417	-3.0458	-2.9271	-2.6771	-2.9771	-2.5042	-2.75	-3.075	-2.5917	-3.2375	-2.6562	-2.6625	-2.95	107.986	188.939	269.841	263.606	217.598	294.311	224.366	231.889	204.008	267.116	231.422	160.645	46.509	277.268	127.661	278.786	0.00066461	0.00061312	0.00012848	910.34	4.3925e-06	4.7921e-06	902.97	314.35	6.5285e-06	6.1421e-06	355.18	154.58	155.83	69.434	2.5812e-06	64.434	0.00010024	8.1495e-05	2.2461e-05	834.29	8.7786e-07	8.782e-07	830.54	289.72	8.8909e-07	8.7408e-07	323.48	140.5	140	64.255	9.2842e-07	58.933	-14.234	55.582	37.509	-32.101	92.192	93.853	-33.846	-26.624	110.007	113.744	-29.629	-25.376	-23.459	-19.956	106.636	-22.574	-8191	255	
1225.777	1	1	0	0	0.19209	0.27121	0.24786	0.38682	0.22858	0.46361	0.23181	0.32304	0.1142	0.09903	0.29659	0.40853	0.10807	0.29885	0.10746	0.31146	-2.0583	-2.8167	-2.8583	-2.4646	-2.9917	-2.7667	-2.5958	-3.0875	-2.3688	-2.8688	-3.075	-2.4625	-2.8688	-2.8604	-2.6771	-3.0854	222.428	285.853	169.549	25.871	269.828	204.928	-29.392	260.335	61.948	60.934	239.744	270.079	308.183	292.660	167.543	110.969	0.00075447	0.00091797	7.4156e-05	911.79	3.7933e-06	3.771e-06	899.28	311.87	2.8468e-06	3.2445e-06	354.04	152.77	154.54	69.555	5.0993e-06	64.527	0.0001003	8.4164e-05	2.2865e-05	833.51	8.9255e-07	8.8761e-07	824.28	287.79	8.9762e-07	9.0238e-07	321.84	139.38	139.15	64.064	9.5133e-07	58.854	-7.398	53.211	17.264	-32.307	113.616	93.882	-33.659	-26.717	69.756	119.949	-29.460	-25.388	-23.142	-20.258	108.847	-22.601	-8191	255	
1225.896	1	1	0	0	0.1939	0.22428	0.075424	0.14606	0.15207	0.14887	0.22298	0.16424	0.019325	0.12012	0.17606	0.21983	0.096676	0.21531	0.2769	0.1332	-2.1271	-2.7646	-2.9354	-2.6437	-3.2729	-2.9333	-2.7021	-3.0396	-2.5687	-2.8708	-3.1854	-2.6396	-2.9125	-2.9375	-2.5312	-3.2062	-13.246	27.538	257.174	204.426	267.179	117.817	256.510	309.602	235.389	-34.985	294.780	270.217	205.216	-14.533	243.217	222.488	0.00082479	0.00080469	3.1348e-05	908.05	5.6043e-06	4.6953e-06	895.87	311.94	7.0263e-06	3.6398e-06	351.18	152.8	154.79	69.331	2.3066e-06	64.447	0.00010289	8.2564e-05	2.2239e-05	832.31	9.2484e-07	8.8495e-07	826.23	288.07	9.169e-07	9.0913e-07	321.22	139.46	138.95	64.115	9.3203e-07	58.952	-17.009	58.862	78.974	-32.657	87.121	78.721	-33.732	-26.805	87.414	84.383	-29.776	-25.494	-23.534	-20.421	95.741	-22.625	-8191	255	
1225.992	1	1	0	0	0.1637	0.12402	0.16656	0.35082	0.059144	0.30065	0.19287	0.34722	0.22205	0.19546	0.23319	0.16138	0.38556	0.32603	0.055311	0.34191	-2.3438	-2.6333	-2.8042	-2.3563	-2.6937	-2.7625	-2.6667	-3.0271	-2.5396	-2.5146	-2.9188	-2.7313	-3.1208	-3.0458	-2.325	-2.9271	71.505	-36.768	99.162	220.417	160.844	-27.808	100.412	250.452	174.498	279.900	265.756	85.319	260.132	272.775	-28.149	264.724	0.00069708	0.00039309	8.9581e-05	905.53	1.5916e-06	5.9756e-06	897.57	313.95	2.043e-06	3.4272e-06	356.27	155.41	157.15	70.565	2.5904e-06	65.24	0.00010187	8.2567e-05	2.212e-05	832.46	9.0544e-07	8.9297e-07	828.68	290.02	9.2221e-07	9.0339e-07	325.09	141.51	140.97	64.993	9.1959e-07	59.985	-17.030	109.464	50.083	-32.646	146.775	82.593	-33.680	-26.874	-31.342	111.357	-29.493	-25.284	-23.540	-20.122	95.207	-22.627	-8191	255	
1226.089	1	1	0	0	0.10684	0.24401	0.080515	0.10645	0.090105	0.10761	0.40842	0.19848	0.21349	0.17916	0.12274	0.27605	0.32174	0.23691	0.10714	0.16505	-2.3083	-2.7104	-2.8333	-2.6521	-2.8354	-2.9562	-2.75	-2.975	-2.7958	-2.6813	-2.9708	-2.7042	-2.8854	-3.0812	-2.7	-3.0312	64.245	1.959	65.883	205.664	273.461	-2.779	281.489	264.896	137.292	80.776	9.525	248.511	283.293	-38.790	269.998	20.050	0.00072892	0.0006079	7.293e-05	906.18	2.3438e-06	7.9182e-06	907.65	317.14	2.5916e-06	4.3647e-06	358.01	157	156.63	70.775	3.4188e-06	65.69	0.00010276	8.2427e-05	2.2735e-05	833.54	9.0828e-07	8.8071e-07	833.26	291.01	9.2252e-07	8.6305e-07	326.95	142.94	141.31	65.242	9.1357e-07	60.121	-17.982	34.582	21.516	-31.918	25.928	118.272	-33.384	-26.659	19.357	44.324	-29.841	-25.240	-23.227	-20.443	112.444	-22.527	-8191	255	
1226.185	1	1	0	0	0.13694	0.16787	0.12206	0.097105	0.16652	0.24602	0.033053	0.004987	0.13596	0.075117	0.19827	0.27406	0.38801	0.13604	0.079011	0.15919	-2.2229	-2.4042	-3.1271	-2.6667	-2.6583	-2.9854	-2.6521	-3.0771	-2.9292	-2.7	-3.0375	-2.6292	-2.8979	-3.2521	-2.6063	-3.0104	299.081	118.696	-25.004	192.090	68.840	277.544	235.559	215.843	-21.119	253.006	176.751	299.184	-16.223	287.187	147.227	168.435	0.00077082	0.00041064	0.00012849	904.82	7.6869e-06	6.0943e-06	903.39	314.24	5.742e-06	4.3152e-06	354.67	155.61	157.66	70.633	3.9216e-06	65.206	0.00010051	8.0858e-05	2.217e-05	833.31	9.2929e-07	8.7299e-07	830.63	290.33	9.0313e-07	8.9718e-07	324.82	142.14	141.76	64.94	9.5079e-07	59.748	-13.846	21.994	48.787	-32.219	89.063	79.661	-33.618	-26.871	71.477	92.738	-29.572	-25.273	-22.801	-20.196	120.001	-22.293	-8191	255	
1226.281	1	1	0	0	0.11214	0.18626	0.18586	0.1675	0.17722	0.33388	0.060098	0.43736	0.17916	0.12408	0.14372	0.24087	0.075724	0.21879	0.1729	0.14914	-2.3479	-2.4271	-2.7771	-2.925	-2.8896	-2.8792	-2.7083	-2.9167	-3.0292	-2.5083	-3.0271	-2.8438	-2.7521	-3.1208	-2.4313	-2.9417	128.798	314.850	155.747	60.549	13.194	104.658	181.029	245.610	265.238	286.709	272.454	270.274	77.121	218.003	131.522	308.753	0.00061213	0.00031152	0.0001979	911.79	2.1388e-06	6.7419e-06	908.19	315.7	6.6457e-06	3.3485e-06	355.44	155.45	158.42	70.391	8.1145e-06	65.646	0.00010199	8.2455e-05	2.2819e-05	836.08	9.2722e-07	8.9436e-07	834.22	290.54	9.2271e-07	8.8696e-07	325.15	142.29	141.88	64.884	9.5962e-07	59.86	-15.222	83.521	65.758	-32.434	94.646	120.226	-33.753	-26.852	70.445	89.315	-29.243	-25.778	-23.392	-20.134	134.574	-22.650	-8191	255	
1226.377	1	1	0	0	0.24469	0.11644	0.1272	0.076622	0.036807	0.21037	0.3339	0.1776	0.32286	0.21585	0.17865	0.33335	0.11409	0.24994	0.32745	0.36328	-2.6125	-2.6688	-2.9542	-2.8812	-2.6646	-2.9688	-2.5625	-2.6688	-2.7125	-2.475	-3	-2.6896	-2.7042	-3.0438	-2.5958	-2.7042	-4.864	228.955	79.871	225.448	-38.966	261.508	280.738	241.007	269.553	235.973	302.281	-44.117	-5.077	291.210	-9.746	257.688	0.00070168	0.00043179	0.00014631	903.16	4.1857e-06	5.846e-06	907.32	315.54	5.725e-06	4.3918e-06	359.69	156.99	158.25	71.246	4.6537e-06	66.225	0.00010391	8.3394e-05	2.2706e-05	835.24	9.118e-07	9.1395e-07	834.43	291.23	9.3572e-07	9.2691e-07	328.55	143.8	142.21	65.583	9.5352e-07	60.429	-12.188	25.837	73.632	-32.235	78.134	78.602	-34.112	-26.684	166.254	114.860	-29.575	-25.500	-23.377	-20.204	89.668	-22.590	-8191	255	
1226.473	1	1	0	0	0.18796	0.22586	0.085666	0.14256	0.046477	0.17803	0.13087	0.11882	0.03485	0.24952	0.30851	0.11273	0.11134	0.23121	0.20617	0.11469	-2.4042	-2.4604	-2.8563	-2.6792	-2.5125	-3.1333	-2.7125	-2.8063	-2.7458	-2.3396	-2.8187	-2.7875	-2.5458	-2.9688	-2.8021	-3.0687	127.806	206.536	249.909	274.673	250.590	283.029	206.415	269.525	298.086	285.720	271.440	201.554	291.761	218.303	-6.870	239.939	0.00077727	0.00047439	0.00013616	915.01	4.219e-06	4.9846e-06	908.95	317.53	4.8419e-06	2.6375e-06	358.5	158.11	158.76	70.786	6.0551e-06	66.116	0.00010308	8.3292e-05	2.3203e-05	839.69	9.4812e-07	8.6998e-07	837.67	293.33	9.2868e-07	8.6733e-07	328.09	144	142.83	65.52	9.2527e-07	60.376	-0.224	61.032	31.584	-32.393	75.496	69.773	-33.307	-26.853	101.106	114.429	-29.404	-25.618	-23.097	-20.240	123.193	-22.966	-8191	255	
1226.594	1	1	0	0	0.22119	0.12814	0.19924	0.22992	0.17095	0.11652	0.2763	0.12582	0.081048	0.1232	0.29489	0.09018	0.17231	0.1906	0.1468	0.10233	-2.5062	-2.2958	-2.6104	-2.8521	-2.3854	-2.6813	-2.8979	-2.8708	-2.8771	-2.575	-2.7562	-2.7875	-2.35	-3.0146	-2.825	-2.4437	139.068	167.621	277.918	208.683	175.699	-2.564	234.979	234.816	82.358	78.183	241.446	113.198	130.057	276.897	292.096	41.108	0.00064121	0.00056668	0.00016024	917.02	4.933e-06	9.4934e-06	908.45	316.51	5.0446e-06	8.6622e-06	357.35	157.42	159.46	71.554	7.0578e-06	66.543	0.00010404	8.4294e-05	2.3108e-05	840.68	9.3106e-07	8.9988e-07	835.17	292.07	9.2612e-07	9.2984e-07	327.27	143.94	143	65.883	9.2263e-07	60.948	-23.983	43.760	57.324	-32.405	73.007	99.464	-33.769	-26.841	108.195	70.606	-29.567	-25.341	-23.551	-20.387	100.987	-22.684	-8191	255	
1226.688	1	1	0	0	0.21155	0.33253	0.0093463	0.21245	0.014927	0.15393	0.046201	0.22259	0.016288	0.037665	0.10233	0.10944	0.17471	0.20413	0.19796	0.21053	-2.4542	-2.6458	-2.6375	-2.9417	-2.5333	-2.8063	-2.8792	-2.6604	-2.8708	-2.4354	-2.9875	-3.1042	-2.4708	-2.8125	-2.6042	-2.5375	279.645	63.285	98.209	-39.244	235.950	172.152	136.616	292.465	255.242	140.898	165.909	-22.819	10.558	228.874	292.953	284.556	0.0005978	0.00050722	0.00013876	923.66	1.9571e-06	3.1112e-06	912.56	319.71	3.3557e-06	3.5602e-06	362.59	161.26	160.78	72.437	6.0707e-06	67.659	0.00010277	8.0682e-05	2.2937e-05	844.14	9.1468e-07	9.0998e-07	842.3	295.89	9.3086e-07	8.8098e-07	332.26	146.81	144.96	66.707	9.4761e-07	61.818	-21.562	49.099	55.838	-32.232	102.515	126.505	-33.712	-26.676	60.851	134.575	-29.582	-25.041	-23.331	-20.321	98.416	-22.883	-8191	255	
1226.784	1	1	0	0	0.093153	0.035553	0.040672	0.30689	0.22539	0.17505	0.14718	0.30543	0.16134	0.16558	0.085176	0.075311	0.10463	0.095241	0.05474	0.34035	-2.5271	-2.6083	-2.5958	-2.7333	-2.3542	-2.8667	-3.05	-2.3958	-2.8833	-2.7896	-2.9333	-2.95	-2.4646	-2.9042	-2.875	-2.5646	243.811	-1.656	-22.931	-37.255	25.690	167.713	4.378	288.237	89.064	51.515	284.249	37.791	-14.635	217.662	24.161	205.384	0.0007171	0.00053551	9.7858e-05	924.83	2.3313e-06	9.7163e-06	914.07	321.44	8.0791e-06	2.2128e-06	363.13	161.85	162.16	72.419	5.7657e-06	67.526	0.00010255	8.0837e-05	2.2331e-05	842.91	9.1687e-07	8.9563e-07	841.6	296.88	9.3093e-07	8.7631e-07	333.38	148.13	145.73	66.993	9.3893e-07	62.104	-8.057	60.733	-4.883	-32.065	79.778	97.593	-33.604	-26.443	75.338	50.081	-29.421	-25.446	-23.293	-20.243	97.636	-22.452	-8191	255	
1226.858	1	1	0	0	0.14601	0.2786	0.18339	0.063877	0.22836	0.47986	0.10494	0.35748	0.098812	0.099523	0.29159	0.20403	0.060674	0.30142	0.33491	0.15539	-2.6792	-2.7875	-2.6375	-3.175	-2.7333	-2.7458	-2.9604	-2.7833	-3.0167	-2.6458	-2.8167	-2.9479	-2.6937	-2.9792	-2.9313	-2.6479	170.257	26.561	84.845	280.449	280.805	78.205	174.992	248.787	266.244	291.622	279.927	311.079	246.639	301.188	273.147	298.645	0.00081971	0.00057895	0.00014458	920.05	3.9348e-06	4.2773e-06	914.8	321.67	4.4745e-06	3.7912e-06	365.77	161.38	161.98	72	2.2162e-06	67.819	0.00010197	8.4881e-05	2.3159e-05	843.16	9.0528e-07	8.7099e-07	845.84	296.09	9.138e-07	8.8865e-07	334.33	147.54	145.22	66.645	9.1292e-07	61.88	-7.762	50.734	28.228	-32.189	82.687	61.928	-33.603	-26.328	79.775	94.652	-29.749	-25.103	-23.402	-20.292	77.711	-22.640	-8191	255	
1226.977	1	1	0	0	0.22163	0.22899	0.11589	0.22594	0.19941	0.096127	0.10723	0.21378	0.056823	0.15173	0.014524	0.2531	0.11597	0.26807	0.15296	0.21376	-2.4375	-2.7562	-2.5917	-2.9854	-2.4917	-2.8083	-3.0646	-2.6646	-2.9979	-2.7396	-2.4146	-2.9958	-2.5208	-2.7104	-2.9375	-2.7104	76.095	118.664	49.715	264.705	92.233	-26.109	198.837	211.653	83.945	-20.892	62.898	282.858	-19.878	241.087	299.175	266.338	0.00057009	0.00056325	0.00014356	917.75	2.7632e-06	6.9417e-06	911.57	320.91	6.4638e-07	3.0958e-06	362.69	161.55	161.27	72.252	2.3828e-06	67.762	0.00010089	7.9937e-05	2.1599e-05	842.05	8.8066e-07	8.4561e-07	840.14	295.72	9.2118e-07	8.7986e-07	332.08	147.08	144.86	66.753	9.1541e-07	61.899	-17.337	70.757	36.547	-32.093	31.004	83.384	-33.462	-26.654	125.256	83.686	-29.540	-25.169	-23.316	-20.320	119.539	-22.749	-8191	255	
1227.073	1	1	0	0	0.12855	0.12111	0.067039	0.056807	0.063152	0.07623	0.0082787	0.13583	0.097903	0.15943	0.12672	0.17293	0.15813	0.51519	0.057381	0.15074	-2.3958	-2.7146	-2.4896	-3.0563	-2.7125	-2.4417	-3.0333	-2.9167	-2.7625	-2.6521	-2.5604	-3.0812	-2.8479	-2.7104	-3.0292	-2.7958	169.469	282.277	156.806	177.042	145.213	17.026	71.983	184.169	242.769	110.769	11.055	228.114	-42.249	309.115	80.264	117.163	0.00074823	0.00042194	0.0001274	918.06	2.6476e-06	8.0263e-06	912.63	318.22	4.8889e-06	3.1089e-06	360.33	159.88	159.8	71.461	2.3321e-06	66.835	0.00010006	7.9286e-05	2.2578e-05	842.87	9.0114e-07	8.7627e-07	839.32	293.32	8.9969e-07	8.5603e-07	329.73	145.46	143.08	65.932	9.0612e-07	61.201	-3.358	75.717	54.125	-32.433	71.111	89.672	-33.825	-26.451	58.704	30.307	-29.457	-25.345	-23.288	-20.226	119.302	-22.732	-8191	255	
1227.169	1	1	0	0	0.26966	0.16498	0.20169	0.15448	0.058991	0.05059	0.25808	0.17556	0.13681	0.1498	0.37506	0.26545	0.16635	0.38721	0.20896	0.079759	-2.5104	-2.8	-2.3979	-3.1229	-2.8042	-2.6292	-3.0208	-2.6375	-2.7229	-2.8417	-2.5833	-3.0062	-2.8833	-2.5563	-2.9167	-2.7458	25.471	246.226	-28.938	258.361	280.074	-39.695	260.356	244.072	207.254	270.443	74.908	283.407	292.953	305.292	291.080	38.983	0.00065744	0.00058867	0.00016297	924.2	4.7004e-06	6.9768e-06	911.27	317.96	7.0418e-06	3.9744e-06	360.83	159	160.05	71.51	2.3389e-06	66.918	9.8994e-05	8.0092e-05	2.172e-05	840.48	8.9823e-07	8.5791e-07	839.41	293.27	8.9892e-07	8.6706e-07	328.54	144.84	143.4	65.805	9.0359e-07	61.273	-8.882	71.624	62.527	-32.226	86.364	44.643	-33.591	-26.625	98.783	90.419	-29.392	-25.333	-23.199	-20.185	152.386	-22.502	-8191	255	
1227.265	1	1	0	0	0.0094604	0.025836	0.18194	0.049357	0.15079	0.087246	0.14061	0.20212	0.03473	0.096177	0.11545	0.12929	0.13253	0.11155	0.37442	0.13224	-2.2479	-3.0021	-2.5771	-2.8917	-2.8312	-2.4854	-3.0062	-2.7938	-2.825	-3.0625	-2.6625	-2.8312	-2.6542	-2.4979	-2.8479	-2.7	144.875	-40.408	169.158	-26.506	163.011	-10.243	228.338	258.577	105.982	262.055	270.520	244.923	265.389	44.116	167.418	292.669	0.00071568	0.00063331	0.00018792	919.13	9.6913e-07	7.2053e-06	910.69	316.23	5.7332e-06	5.8962e-06	357.44	157.87	158.31	70.52	4.5017e-06	66.194	9.8794e-05	8.1154e-05	2.2224e-05	840.93	8.7357e-07	8.5772e-07	838.55	292.2	9.2455e-07	8.59e-07	327.25	143.74	141.71	65.136	8.7243e-07	60.522	-14.831	59.416	64.517	-32.090	52.962	86.415	-33.631	-26.787	108.744	63.522	-29.706	-25.428	-23.483	-20.150	99.814	-22.851	-8191	255	
1227.386	1	1	0	0	0.010994	0.21045	0.10875	0.14638	0.092397	0.063113	0.17052	0.39236	0.26893	0.29585	0.088504	0.13326	0.090478	0.12906	0.13068	0.13522	-2.1146	-2.9292	-2.4833	-2.7875	-2.9	-2.5938	-2.8542	-2.8479	-2.5396	-2.8854	-2.7625	-2.9938	-2.9333	-2.6604	-2.85	-2.5563	207.632	88.563	76.780	-17.385	72.334	15.246	252.135	249.491	51.128	-39.021	213.117	198.288	222.249	254.995	264.838	279.370	0.00064163	0.000362	0.0001121	913	6.0101e-06	7.0208e-06	902.87	315.18	8.4371e-06	7.4538e-06	356.04	155.44	156.16	70.358	4.9581e-06	65.101	9.9011e-05	7.5189e-05	2.205e-05	838.49	8.8308e-07	8.5112e-07	832.23	290.27	8.7348e-07	8.3412e-07	325.07	141.43	140.54	64.576	8.9565e-07	59.812	-14.662	14.566	-9.234	-32.339	50.374	72.273	-33.611	-26.474	91.848	48.630	-29.716	-25.556	-23.796	-20.214	139.830	-22.522	-8191	255	
1227.457	1	1	0	0	0.16216	0.12963	0.040537	0.16164	0.25176	0.22715	0.04038	0.27336	0.15344	0.3386	0.18168	0.11262	0.20361	0.055374	0.18362	0.42439	-2.0938	-2.8917	-2.7979	-2.8958	-2.9167	-2.5646	-3.0917	-2.6896	-2.5083	-2.9	-2.8125	-2.9354	-2.9833	-2.7313	-2.7917	-2.7833	139.564	254.556	175.349	5.291	270.483	280.835	-38.272	228.102	-6.284	300.815	170.566	301.579	306.468	121.012	248.825	240.941	0.00066406	0.00044354	0.00012277	912.68	1.4919e-06	6.3072e-06	905.88	313.44	1.5882e-06	4.5287e-06	355.72	154.27	154.79	69.364	5.0829e-06	65.149	0.00010096	7.6216e-05	2.1995e-05	836.84	9.0034e-07	8.5321e-07	834.15	289.69	9.0856e-07	8.2583e-07	323.97	140.65	139.68	64.141	9.4035e-07	59.708	-3.416	20.509	60.669	-32.182	94.017	89.597	-33.666	-26.784	81.801	53.184	-29.220	-25.189	-23.498	-20.188	88.894	-22.339	-8191	255	
1227.578	1	1	0	0	0.27185	0.13404	0.15116	0.15588	0.24924	0.10202	0.28311	0.27542	0.051097	0.21961	0.3526	0.13349	0.18255	0.37714	0.2357	0.065959	-1.9896	-3.0312	-2.7771	-2.9021	-3.0312	-2.5125	-2.9958	-2.8063	-2.3688	-2.8271	-2.6771	-2.7521	-2.8729	-2.5563	-2.7521	-3.0479	222.393	-9.832	40.505	264.438	75.604	273.993	249.503	-9.202	5.024	140.644	251.014	261.890	254.791	-43.247	-35.599	229.276	0.0006728	0.00066147	0.00014877	912.98	1.8661e-06	6.1334e-06	895.66	312.6	3.6771e-06	2.6218e-06	354.76	154.15	156.75	70.015	6.081e-06	66.161	9.8943e-05	7.9919e-05	2.2135e-05	838.48	8.634e-07	8.4329e-07	831.21	289.59	9.0072e-07	8.7789e-07	324.17	140.63	139.97	64.501	8.9573e-07	60.281	-8.051	57.355	21.761	-32.635	92.555	90.187	-33.445	-26.545	94.754	79.146	-29.402	-25.447	-23.425	-20.057	99.516	-22.486	-8191	255	
1227.674	1	1	0	0	0.13051	0.16001	0.16636	0.22015	0.29177	0.36227	0.12209	0.19677	0.20417	0.29019	0.27814	0.13885	0.05787	0.16773	0.28503	0.24447	-2.1375	-2.8979	-2.7604	-2.8833	-2.7604	-2.4854	-2.9625	-2.7583	-2.2625	-2.875	-2.7583	-2.9042	-3.1437	-2.7687	-2.8479	-3.0229	50.029	12.041	154.837	312.941	98.926	93.479	305.303	285.611	22.189	269.735	53.479	250.660	242.565	266.167	67.882	230.654	0.00066063	0.00053874	0.00012119	914.82	3.6396e-06	4.9574e-06	909.31	316.74	3.4772e-06	3.6475e-06	356.94	156.07	155.63	70.36	6.3137e-06	65.802	0.0001008	7.8294e-05	2.1098e-05	838.67	8.6171e-07	8.8047e-07	837.32	291.6	8.9705e-07	8.7863e-07	326.92	142.44	140.74	64.804	9.0551e-07	60.335	-15.892	57.251	32.281	-32.390	96.437	90.211	-33.673	-26.629	55.018	108.006	-29.678	-24.897	-23.290	-20.218	117.161	-22.591	-8191	255	
1227.770	1	1	0	0	0.065266	0.13848	0.03119	0.43253	0.098675	0.26714	0.27022	0.22892	0.04069	0.14689	0.26616	0.32357	0.041924	0.25131	0.2529	0.27956	-1.95	-3.0396	-2.5458	-2.5042	-2.9437	-2.4646	-2.8646	-2.7458	-2.5083	-2.9979	-3.1042	-2.5104	-3.0354	-2.7313	-2.6792	-2.8563	70.131	181.716	-34.915	56.105	102.789	132.762	265.629	10.557	180.383	253.941	61.252	225.508	251.547	288.291	131.125	233.460	0.00068704	0.0003101	0.00010891	913.48	3.4134e-06	7.0604e-06	909.59	315.25	2.0231e-06	5.0498e-06	357.06	155.22	157.11	69.832	2.8822e-06	66.24	9.7117e-05	7.7591e-05	2.2409e-05	838.77	8.9742e-07	8.6003e-07	834.95	290.64	9.1001e-07	8.7165e-07	325.59	141.89	140.87	64.429	8.8548e-07	60.203	-11.431	56.344	58.282	-32.183	87.026	80.974	-33.819	-26.633	106.464	108.824	-29.637	-25.115	-23.436	-19.913	67.635	-22.885	-8191	255	
1227.866	1	1	0	0	0.23079	0.082368	0.14689	0.19461	0.12896	0.25477	0.27122	0.054157	0.27117	0.14547	0.19954	0.29722	0.087362	0.36502	0.27428	0.17388	-2.0292	-2.9104	-2.9333	-2.5979	-2.85	-2.675	-2.7208	-3.0667	-2.5646	-2.9521	-2.75	-2.6354	-3.1479	-2.925	-2.4437	-3.1875	88.912	43.817	214.225	273.640	37.173	77.689	208.414	139.978	180.961	284.010	228.443	300.349	259.249	-35.555	303.362	177.257	0.00055903	0.000604	0.00017828	915.07	2.4356e-06	6.3668e-06	911.88	315.41	4.1717e-06	4.7539e-06	356.73	156.83	157.11	70.187	2.0719e-06	66.395	0.00010174	8.2293e-05	2.2074e-05	839.72	8.9804e-07	8.4877e-07	838.44	290.81	9.06e-07	8.5379e-07	326.15	142.56	141.46	64.927	9.2021e-07	60.687	-5.133	57.421	37.293	-32.659	53.855	78.377	-33.658	-26.940	31.335	104.598	-29.917	-25.517	-23.120	-20.293	122.309	-22.687	-8191	255	
1227.985	1	1	0	0	0.066779	0.017459	0.11036	0.024441	0.10362	0.23576	0.36676	0.17197	0.096685	0.22939	0.074876	0.080595	0.060129	0.28898	0.2453	0.11181	-2.1083	-2.8125	-2.9333	-2.3875	-2.8729	-2.7146	-3.0292	-3.1104	-2.6271	-2.7854	-3.0312	-2.45	-2.7292	-3.0167	-2.6	-2.8333	25.856	-31.133	63.726	303.013	-23.417	118.530	234.461	185.715	63.378	30.101	263.154	76.833	203.790	300.260	-30.938	236.935	0.00072906	0.00062766	0.00014506	914.89	4.8849e-06	5.4493e-06	912.15	315.71	5.8246e-06	7.5205e-06	357.19	156.94	156.53	70.449	1.2988e-06	66.631	0.00010045	8.2803e-05	2.2047e-05	839.77	8.9033e-07	8.5031e-07	840.25	291.19	9.356e-07	8.6069e-07	326.62	143	141.11	64.994	9.2098e-07	60.809	-15.995	58.162	35.498	-32.271	75.086	68.760	-33.739	-26.598	88.746	64.763	-29.609	-25.285	-23.239	-20.257	94.560	-22.716	-8191	255	
1228.081	1	1	0	0	0.11027	0.14248	0.17455	0.27356	0.13059	0.18459	0.16724	0.058692	0.42396	0.21976	0.090831	0.30624	0.13573	0.10044	0.29454	0.16034	-2.1771	-2.6188	-2.9125	-2.3979	-3.0042	-2.7	-2.7417	-3.1042	-2.7104	-2.5229	-2.9625	-2.6771	-2.9458	-2.8854	-2.4979	-3.0604	255.491	72.157	67.718	297.786	275.601	57.751	262.158	226.623	-4.879	261.889	46.694	260.992	289.899	246.955	71.019	281.286	0.00048947	0.00030758	0.00015044	919.55	5.2546e-06	4.9992e-06	914.41	316.41	7.7886e-06	5.1916e-06	360.94	157.48	156.63	70.417	2.8733e-06	66.777	0.00010288	7.8861e-05	2.2623e-05	841.78	9.1675e-07	8.8109e-07	843.15	292.19	9.4249e-07	8.8063e-07	328.86	143.64	141.11	64.926	8.7366e-07	60.846	-17.072	28.264	77.468	-32.142	73.471	100.771	-33.681	-26.780	108.325	80.711	-29.578	-25.008	-23.252	-20.019	114.040	-22.595	-8191	255	
1228.153	1	1	0	0	0.21785	0.19322	0.22329	0.19878	0.1023	0.22055	0.16038	0.16054	0.119	0.164	0.20925	0.20115	0.14048	0.14002	0.13878	0.21184	-2.0438	-2.5187	-2.8208	-2.6146	-2.8708	-2.9479	-2.4771	-3.0417	-2.7938	-2.5917	-2.8937	-2.5521	-2.8708	-3.2062	-2.5479	-2.9938	185.113	195.520	113.580	222.116	-29.570	104.215	-2.436	277.927	149.390	171.431	183.375	246.641	44.735	18.035	122.850	214.368	0.00062725	0.00044326	0.0001456	920.49	3.5233e-06	6.4478e-06	914.16	317.39	5.7484e-06	3.7254e-06	358.78	158.08	157.92	70.6	4.7943e-06	66.578	0.0001011	8.2128e-05	2.2284e-05	842.86	9.1173e-07	8.5621e-07	841.87	292.54	9.2546e-07	8.8067e-07	328.38	143.7	141.95	65.073	9.4895e-07	60.791	-8.568	47.587	47.620	-32.561	111.477	107.040	-33.699	-26.648	87.759	77.484	-29.365	-25.154	-23.418	-20.181	124.669	-22.402	-8191	255	
1228.274	1	1	0	0	0.28362	0.16625	0.046098	0.13827	0.12567	0.028988	0.20822	0.35593	0.28984	0.27598	0.17889	0.17944	0.15106	0.1595	0.17121	0.12056	-2.2417	-2.5604	-3.0604	-2.6896	-2.7396	-2.9208	-2.825	-3.1542	-2.825	-2.3833	-2.9229	-2.5604	-2.7625	-3.1479	-2.7125	-2.9833	131.424	132.252	258.688	235.896	178.394	248.551	255.353	233.069	295.015	-36.380	34.512	314.496	233.816	256.540	159.445	244.636	0.00078114	0.00046375	7.8049e-05	922.87	2.3925e-06	6.576e-06	917.6	317.66	5.289e-06	4.4425e-06	360.46	157.61	158.71	70.588	5.5514e-06	67.084	9.9896e-05	7.7626e-05	2.1606e-05	844.28	9.0782e-07	8.6886e-07	845.57	292.83	9.2581e-07	8.6752e-07	330.03	144.3	142.3	64.993	9.3936e-07	61.178	-7.769	48.876	42.188	-32.285	118.432	65.948	-33.508	-26.891	61.607	67.651	-29.218	-25.334	-23.270	-20.193	99.439	-22.493	-8191	255	
1228.370	1	1	0	0	0.19655	0.21322	0.073685	0.11858	0.2623	0.19403	0.082162	0.27311	0.040801	0.13421	0.051282	0.1149	0.10491	0.27157	0.16499	0.14366	-2.2062	-2.4958	-2.9667	-2.8083	-2.7104	-2.9125	-2.7125	-2.7833	-2.8667	-2.5396	-2.9958	-2.8646	-2.8187	-3.0854	-2.3917	-2.8646	189.902	102.631	1.875	-27.627	193.153	16.839	233.285	-36.887	-26.042	170.948	65.775	272.849	232.530	-20.845	15.346	240.826	0.0005506	0.00035945	9.7282e-05	925.99	4.8166e-06	3.3196e-06	920.99	317.88	4.7989e-06	7.1823e-06	361.13	158.42	159.07	70.647	4.4068e-06	67.073	0.00010389	8.0063e-05	2.305e-05	847.18	9.0114e-07	8.6944e-07	848.73	292.37	9.229e-07	8.73e-07	329.23	144.34	142.57	65.138	9.204e-07	61.187	-9.992	28.594	72.881	-32.104	70.968	103.338	-33.239	-26.400	85.688	111.268	-29.489	-25.366	-23.397	-20.220	112.232	-22.611	-8191	255	
1228.466	1	1	0	0	0.068423	0.157	0.12809	0.18291	0.074239	0.25911	0.23452	0.1672	0.13857	0.2251	0.36933	0.13886	0.25855	0.23242	0.15064	0.16159	-2.4458	-2.35	-2.9	-2.5333	-2.6375	-3.0833	-2.7938	-2.8812	-2.9375	-2.5917	-3.0583	-2.9083	-2.6333	-2.9188	-2.6521	-2.9708	-17.045	196.363	169.192	258.966	-21.424	-6.324	186.830	285.786	89.580	244.126	254.342	163.026	253.044	-36.207	151.458	282.228	0.00057206	0.00084092	0.0001151	921.45	5.1504e-06	4.2678e-06	920.18	319.18	3.9625e-06	7.5313e-06	364.47	158.76	158.25	70.208	5.7879e-06	66.626	0.00010044	8.1783e-05	2.1718e-05	844.6	9.2028e-07	8.6003e-07	849.13	293.9	9.0806e-07	8.8094e-07	331.62	144.93	142.16	64.906	9.0835e-07	60.903	-8.059	37.185	38.554	-32.368	117.848	103.775	-33.501	-26.583	106.503	81.555	-29.671	-25.353	-23.276	-20.069	126.614	-22.354	-8191	255	
1228.562	1	1	0	0	0.12075	0.16177	0.020215	0.22966	0.22275	0.078959	0.20449	0.17823	0.098445	0.22983	0.089132	0.26323	0.2022	0.16243	0.0852	0.26321	-2.2771	-2.4708	-2.9667	-2.7292	-2.6208	-3.1312	-2.8479	-2.8458	-2.8688	-2.7125	-2.9	-2.8688	-2.4208	-3.1104	-2.7667	-2.7313	19.520	42.826	305.080	282.812	147.096	291.957	291.830	-29.405	55.851	215.905	-14.434	239.835	-27.193	234.980	-1.283	228.391	0.00064277	0.00069626	9.6808e-05	917	5.4539e-06	2.1994e-06	915.34	316.34	6.2275e-06	5.0605e-06	358	156.91	156.67	69.981	4.9295e-06	66.182	0.00010046	8.0011e-05	2.1021e-05	840.2	8.6835e-07	8.7816e-07	843.45	291.87	8.9819e-07	8.6081e-07	328.41	142.95	140.98	64.416	9.1042e-07	60.469	-1.885	38.399	40.711	-32.298	110.579	84.126	-33.564	-26.462	113.100	70.506	-29.245	-25.353	-23.124	-19.927	99.774	-22.524	-8191	255	
1228.681	1	1	0	0	0.34586	0.092659	0.1008	0.11292	0.19459	0.13756	0.19657	0.15036	0.41626	0.052266	0.18964	0.20656	0.16492	0.039626	0.24272	0.17435	-2.4188	-2.6271	-2.5938	-2.8479	-2.6063	-2.9437	-2.675	-2.6604	-3.0187	-2.5812	-2.9625	-2.9917	-2.4979	-2.8792	-2.9062	-2.6333	51.314	216.496	203.483	-41.109	65.696	292.721	-28.435	280.567	270.552	306.868	282.054	304.686	55.342	299.261	-32.119	240.572	0.00070937	0.00048676	0.00015547	917.87	5.7448e-06	3.171e-06	914.12	313.07	4.5377e-06	5.6105e-06	355.33	154.15	153.76	68.439	6.1598e-06	65.21	0.00010046	8.4153e-05	2.2786e-05	839.5	8.9431e-07	8.8487e-07	839.82	288.59	8.8351e-07	8.8202e-07	324.65	140.58	138.47	63.204	9.0398e-07	59.499	-2.402	40.981	67.680	-32.399	108.858	77.059	-33.892	-26.639	131.371	74.655	-29.637	-25.413	-23.060	-19.980	100.286	-22.453	-8191	255	
1228.755	1	1	0	0	0.23146	0.15514	0.2143	0.039428	0.20785	0.14691	0.20798	0.15698	0.21269	0.18373	0.26881	0.058691	0.19012	0.23184	0.094812	0.10977	-2.3	-2.4604	-2.6771	-2.9333	-2.5479	-2.7896	-2.8271	-2.7229	-2.8708	-2.475	-2.7771	-2.975	-2.6042	-3.0833	-2.7	-2.6875	8.217	31.574	244.052	164.363	54.749	86.803	64.162	-40.913	32.242	164.185	239.563	163.971	302.481	283.176	144.762	268.326	0.00066424	0.00056798	0.00014685	910.77	2.5312e-06	2.5311e-06	910.68	313.08	5.6055e-06	2.5177e-06	354.66	152.4	154.33	68.372	5.2341e-06	64.841	9.8323e-05	8.013e-05	2.1874e-05	838.04	8.8745e-07	8.7446e-07	839.8	288.59	9.2145e-07	8.6887e-07	323.15	139.65	138.28	62.899	9.0739e-07	59.263	-12.909	64.357	36.733	-32.449	30.230	105.734	-33.438	-26.857	68.962	156.924	-29.562	-25.549	-22.942	-20.179	109.622	-22.255	-8191	255	
1228.851	1	1	0	0	0.11609	0.30669	0.23684	0.26498	0.12817	0.10157	0.046122	0.083838	0.16703	0.15187	0.063144	0.26139	0.16126	0.33268	0.17676	0.1518	-2.3354	-2.5125	-2.5333	-2.8937	-2.4354	-2.6917	-2.8021	-2.7042	-2.9188	-2.6312	-2.8104	-3.1292	-2.6292	-2.8104	-2.5354	-2.7313	304.538	128.222	20.322	84.673	-21.473	233.216	260.490	99.428	96.884	202.782	56.111	244.693	214.359	-4.620	2.594	159.759	0.00067482	0.00039812	0.00010366	916.85	5.1473e-06	6.042e-06	912.46	314.72	3.0855e-06	4.8554e-06	354.43	154.18	154.42	68.741	5.4032e-06	64.803	9.9946e-05	7.8168e-05	2.1918e-05	839.03	8.756e-07	8.6385e-07	838.15	289.42	8.7436e-07	8.6694e-07	324.18	140.1	138.65	63.345	8.9289e-07	59.387	-17.012	9.024	51.950	-32.577	95.767	38.831	-33.405	-26.588	71.518	95.899	-29.711	-25.283	-22.997	-20.135	117.770	-22.830	-8191	255	
1228.947	1	1	0	0	0.096387	0.24272	0.090651	0.32746	0.15619	0.066134	0.13513	0.28199	0.14512	0.27354	0.17946	0.2465	0.064293	0.25128	0.19344	0.18477	-2.6021	-2.5479	-2.6437	-2.8458	-2.5062	-2.8042	-2.9062	-2.6542	-2.8083	-2.6521	-2.6437	-2.9979	-2.4604	-2.8479	-2.9583	-2.7854	289.810	166.906	227.287	213.747	107.868	259.096	223.140	253.309	292.181	185.452	267.217	273.359	103.045	244.414	288.366	263.875	0.00056926	0.00076328	0.00015579	914.59	1.5553e-06	1.9001e-06	902.12	310.52	4.4944e-06	5.0064e-06	351.63	152.49	153.98	67.898	7.459e-06	64.311	0.00010011	8.082e-05	2.215e-05	835.5	8.6402e-07	8.5525e-07	832.27	287.31	8.9536e-07	8.4002e-07	321.76	138.77	137.93	62.699	8.7435e-07	58.88	-17.724	50.500	27.954	-32.273	99.093	71.502	-33.734	-26.832	117.308	110.758	-29.039	-25.155	-23.399	-20.146	98.246	-22.741	-8191	255	
1229.066	1	1	0	0	0.23153	0.11189	0.17294	0.23034	0.21897	0.080811	0.36515	0.32112	0.11104	0.11123	0.035273	0.46406	0.20548	0.29492	0.062956	0.11374	-2.4667	-2.7208	-2.6771	-2.9729	-2.4208	-2.7146	-3.0312	-2.5146	-2.7917	-2.7104	-2.8521	-2.8563	-2.5354	-2.8146	-2.7354	-2.3708	127.129	-2.222	245.316	216.543	-29.060	140.003	246.263	262.591	7.678	225.916	29.693	251.342	16.122	292.507	157.812	193.704	0.00072111	0.000661	0.00011575	917.95	6.074e-06	7.6884e-06	902.16	311.31	3.529e-06	1.9637e-06	351.01	152.75	152.42	68.211	3.7203e-06	65.007	0.00010155	7.7911e-05	2.1854e-05	834.78	8.6375e-07	8.4711e-07	831.03	286.9	9.2768e-07	8.5078e-07	321.69	138.99	137.51	62.975	8.8763e-07	59.253	-14.214	49.384	38.244	-32.544	67.952	92.805	-33.817	-26.595	75.356	73.419	-29.329	-25.316	-23.105	-19.999	164.731	-22.707	-8191	255	
1229.162	1	1	0	0	0.18952	0.18542	0.18942	0.26235	0.20307	0.19252	0.26501	0.29255	0.16541	0.16304	0.1702	0.096017	0.079028	0.11482	0.15918	0.1904	-2.275	-2.7979	-2.6	-2.95	-2.5333	-2.6271	-3.1354	-2.55	-2.6708	-2.8354	-2.5021	-3.0208	-2.5167	-2.6021	-2.8896	-2.7542	206.706	269.888	147.159	260.536	72.858	9.957	211.609	292.148	121.451	302.026	-23.254	-26.478	-21.868	238.535	208.080	247.756	0.00065701	0.00054178	0.00016983	909.85	4.0649e-06	6.0367e-06	909.08	313.05	1.0243e-05	7.246e-06	355.12	154.73	154.7	68.455	5.9293e-06	65.178	9.8533e-05	7.7644e-05	2.1204e-05	835.04	8.6317e-07	8.247e-07	835.06	288.91	8.6534e-07	8.6474e-07	324.8	140.25	138.83	63.278	9.1702e-07	59.625	-9.522	51.081	52.161	-32.039	107.482	87.189	-33.839	-26.714	67.846	76.037	-29.532	-25.064	-23.408	-20.140	124.168	-22.238	-8191	255	
1229.258	1	1	0	0	0.11196	0.25422	0.10855	0.29917	0.17976	0.20475	0.10217	0.27788	0.23808	0.17569	0.22771	0.095977	0.12539	0.19841	0.12769	0.11681	-2.3417	-2.7625	-2.3396	-3.1333	-2.5979	-2.575	-2.9875	-2.5854	-2.7292	-3.1104	-2.5271	-2.9708	-2.6979	-2.5229	-2.8271	-2.75	271.750	89.011	127.806	226.231	113.159	295.042	237.786	242.885	179.981	117.617	232.435	248.748	268.569	284.077	197.835	-39.335	0.00072567	0.00050787	0.00011257	914.6	2.4971e-06	3.7415e-06	908.05	312.11	4.5648e-06	2.7514e-06	354.59	153.8	155.52	68.961	5.6667e-06	65.767	9.8493e-05	7.8235e-05	2.1966e-05	838.03	8.7498e-07	8.6354e-07	838.48	288.77	8.9475e-07	8.3161e-07	325.75	140.89	139.52	63.823	8.9868e-07	59.966	-0.792	63.737	37.902	-32.476	73.554	96.741	-33.777	-26.616	57.827	76.422	-29.493	-25.173	-22.962	-19.818	146.761	-22.717	-8191	255	
1229.379	1	1	0	0	0.11859	0.13966	0.45222	0.25899	0.27743	0.037665	0.081586	0.44454	0.17996	0.27825	0.062867	0.18125	0.27167	0.22478	0.070885	0.061414	-2.2083	-2.9229	-2.7188	-2.8417	-2.8896	-2.9625	-3.2083	-2.5896	-2.7896	-2.9437	-2.5563	-3.0375	-2.9292	-2.7438	-2.8625	-2.9083	23.765	141.453	204.255	-32.744	-10.761	174.224	-35.697	274.741	57.469	45.408	297.589	303.136	-20.560	197.463	126.474	146.006	0.00081441	0.00055443	0.0001008	917.55	4.5815e-06	5.501e-06	915.24	314.11	5.0505e-06	3.4615e-06	355.32	153.74	155.25	68.721	4.5901e-06	65.314	9.8821e-05	8.0281e-05	2.3295e-05	839.94	8.8699e-07	8.581e-07	839.62	290	9.1919e-07	8.7519e-07	325.36	140.23	139.08	63.58	8.8817e-07	59.751	-18.100	82.915	39.296	-32.273	106.187	101.898	-33.813	-26.485	120.804	37.460	-29.740	-25.223	-23.139	-19.933	96.996	-22.619	-8191	255	
1229.450	1	1	0	0	0.086506	0.047436	0.13143	0.19845	0.10336	0.21356	0.24772	0.15967	0.25794	0.18145	0.067626	0.20673	0.43587	0.38848	0.26174	0.13609	-2.2812	-2.7396	-2.3563	-2.8521	-2.85	-2.6271	-2.9688	-2.9729	-2.7375	-2.8083	-2.7146	-3.025	-2.9062	-2.575	-2.7125	-2.5771	173.294	-24.101	249.559	284.374	93.644	307.779	204.981	240.707	223.427	259.236	-8.577	276.586	278.419	245.262	195.067	-20.387	0.00069052	0.00087354	3.921e-05	910.1	3.5121e-06	3.6024e-06	909.52	312.68	5.8557e-06	8.4119e-07	357.07	155.33	155.81	69.579	4.6114e-06	66.246	9.7585e-05	7.9395e-05	2.274e-05	835.08	9.0544e-07	8.2054e-07	835.15	289.54	8.9888e-07	8.8912e-07	325.74	141.68	140.21	64.191	9.0271e-07	60.446	-8.116	61.794	54.472	-32.202	92.153	82.843	-33.943	-26.691	114.383	35.422	-29.286	-25.355	-23.106	-20.100	74.967	-22.440	-8191	255	
1229.546	1	1	0	0	0.19199	0.077608	0.13281	0.18634	0.21179	0.28125	0.41938	0.24211	0.040099	0.12642	0.32038	0.080001	0.22326	0.36664	0.10471	0.27504	-2.2354	-2.8833	-2.3958	-2.9521	-2.9938	-2.6021	-3.0458	-2.6083	-2.4792	-3.0479	-2.7438	-2.7458	-2.7667	-2.5667	-3.0021	-2.6792	138.691	1.194	196.295	252.545	83.952	-37.638	284.217	237.619	98.153	-41.674	-22.592	-4.324	284.627	313.399	285.861	226.004	0.00065427	0.00049118	0.00011489	912.92	3.3446e-06	6.9136e-06	920.66	318.32	3.5684e-06	6.6694e-06	359.6	157.63	158.96	70.455	1.6625e-06	67.646	9.8184e-05	7.6195e-05	2.2271e-05	837.29	8.4411e-07	8.5918e-07	843.65	292.46	8.806e-07	8.4396e-07	329.36	143.87	142.34	65.001	8.9918e-07	61.458	-6.496	27.933	31.655	-32.126	90.728	99.919	-33.765	-26.693	39.735	108.227	-29.410	-25.318	-23.616	-19.966	117.535	-22.538	-8191	255	
1229.667	1	1	0	0	0.31497	0.055746	0.25834	0.14829	0.13844	0.14613	0.30609	0.23075	0.071907	0.21387	0.1754	0.065403	0.14168	0.25976	0.22417	0.19391	-2.0542	-2.9458	-2.5292	-2.6375	-2.7875	-2.4896	-2.8937	-2.9479	-2.4333	-2.8729	-2.575	-2.7625	-3.0896	-2.6792	-2.9062	-2.925	-32.933	97.075	135.301	27.465	209.674	232.740	235.865	280.639	241.902	276.783	314.108	196.175	288.711	-35.144	70.952	-23.701	0.0006634	0.00040766	9.2038e-05	923.44	3.3169e-06	4.7039e-06	926.65	320.06	7.8162e-06	4.0689e-06	364.04	160.97	159.47	71.281	1.4996e-06	67.468	9.9777e-05	7.6554e-05	2.1756e-05	843.91	8.7426e-07	8.669e-07	851.77	294.9	8.627e-07	8.4075e-07	334.09	146.69	143.12	65.769	8.8237e-07	61.916	-16.410	68.567	19.191	-32.091	88.752	95.178	-33.311	-26.718	97.936	103.917	-29.497	-25.066	-22.954	-20.214	160.509	-22.705	-8191	255	
1229.762	1	1	0	0	0.31035	0.16588	0.12149	0.12071	0.10094	0.14709	0.13608	0.16322	0.11546	0.10716	0.076093	0.11226	0.12659	0.17212	0.35614	0.15819	-2.1375	-3.0292	-2.6188	-2.5646	-2.8354	-2.5833	-3.0604	-2.8875	-2.275	-2.7729	-2.7833	-2.7667	-2.9688	-2.5521	-2.9271	-3.0021	311.862	83.218	285.220	207.606	302.826	44.871	220.910	-29.129	83.189	44.015	208.461	-27.241	-3.775	287.278	57.105	3.826	0.00077633	0.00039453	8.5948e-05	920.6	2.572e-06	7.0266e-06	924.41	317.5	8.663e-06	5.479e-06	361.07	158.36	158.51	70.212	3.9011e-06	66.666	9.7273e-05	7.7809e-05	2.1603e-05	845.61	8.6237e-07	8.7403e-07	850.13	293.36	8.8986e-07	8.5765e-07	330.36	144.9	141.9	64.772	8.755e-07	61.149	-4.992	40.656	47.285	-32.172	88.202	67.876	-33.749	-26.583	50.639	51.357	-29.400	-25.359	-23.294	-20.161	91.708	-22.423	-8191	255	
1229.858	1	1	0	0	0.10899	0.034134	0.16298	0.23953	0.17332	0.21375	0.077635	0.11478	0.14394	0.23336	0.14303	0.19966	0.069789	0.28317	0.020858	0.42515	-1.9396	-2.9521	-2.8833	-2.7313	-3.0229	-2.4437	-2.6229	-3	-2.5792	-2.95	-2.6979	-2.5104	-3.2333	-2.6792	-2.7104	-2.925	276.159	23.156	168.727	296.152	235.320	-13.599	237.445	195.121	96.089	37.782	312.871	19.818	31.360	305.347	176.143	282.994	0.00067171	0.00051265	0.00010571	924.51	4.508e-06	3.7503e-06	926.24	317.46	6.3624e-06	3.8085e-06	361.97	159.7	159.79	70.788	3.2634e-06	67.576	9.7039e-05	7.8994e-05	2.1972e-05	843.06	8.6168e-07	8.534e-07	848.87	293.07	8.5738e-07	8.5306e-07	331.58	145.44	143.24	65.191	9.0777e-07	61.792	-2.107	25.892	66.062	-32.037	94.941	133.199	-33.559	-26.686	53.746	69.857	-29.473	-25.358	-22.980	-20.188	108.849	-22.467	-8191	255	
1229.978	1	1	0	0	0.28011	0.17711	0.039638	0.30264	0.16968	0.20791	0.10562	0.17863	0.13767	0.17278	0.15811	0.30049	0.12003	0.13742	0.38054	0.29461	-2.1562	-2.8521	-2.7938	-2.6688	-3.1417	-2.5792	-3.0062	-2.9146	-2.8	-2.9667	-3.0104	-2.3438	-2.9083	-2.8479	-2.7313	-3.1688	295.626	-33.277	64.792	233.800	48.808	130.834	253.809	195.452	-36.963	188.432	-9.061	-9.460	308.763	282.806	295.105	247.049	0.00060884	0.00048577	0.00013472	927.49	1.2109e-06	6.9687e-06	924.33	319.61	4.4302e-06	6.8537e-07	365.01	160.48	158.17	70.822	5.1989e-06	67.582	0.00010153	7.6455e-05	2.1712e-05	849.39	8.766e-07	8.5926e-07	850.41	294.97	8.8695e-07	8.3107e-07	332.51	146.15	142.81	65.216	8.9377e-07	61.8	-13.335	27.505	62.195	-32.274	115.482	94.948	-33.408	-26.720	133.399	94.578	-29.354	-25.553	-23.601	-20.111	109.672	-22.361	-8191	255	
1230.050	1	1	0	0	0.14973	0.12637	0.27074	0.17981	0.19845	0.083567	0.33996	0.13316	0.05626	0.35915	0.071064	0.25744	0.1982	0.1244	0.24071	0.13099	-2.3187	-2.6937	-2.625	-2.6146	-3.125	-2.7104	-2.7687	-3.1521	-2.7979	-2.7104	-3.1458	-2.6437	-2.8937	-2.9396	-2.6958	-3.2938	247.636	281.053	-21.694	256.935	53.823	237.327	247.102	244.260	50.537	118.802	257.534	307.244	276.315	260.627	245.642	268.832	0.0007517	0.00041775	0.00012086	927.85	4.4553e-06	4.3781e-06	925.57	319.4	3.3603e-06	5.7996e-06	365.51	159.9	160.09	70.875	4.3054e-06	68.246	9.8381e-05	7.84e-05	2.2033e-05	848.26	8.6486e-07	8.6744e-07	853.4	294.65	9.1235e-07	8.7824e-07	334.15	146.29	143.54	65.342	8.9734e-07	62.126	-13.027	27.890	57.045	-31.809	104.997	79.329	-33.768	-26.701	87.316	66.715	-29.145	-25.414	-23.557	-20.235	87.113	-22.822	-8191	255	
1230.146	1	1	0	0	0.15521	0.19487	0.071548	0.32054	0.19268	0.17395	0.14897	0.16813	0.1459	0.18103	0.32067	0.16183	0.25298	0.22059	0.13862	0.23417	-2.0042	-2.675	-3.0563	-2.5729	-2.7625	-2.5979	-2.6792	-2.9437	-2.4417	-2.8688	-3.1771	-2.4833	-2.8812	-3.0187	-2.8458	-2.8667	125.793	25.328	246.680	-16.925	139.229	71.421	164.096	282.713	-9.962	264.614	-16.884	-28.811	297.078	280.352	-34.816	8.086	0.00072558	0.00058705	0.00015568	924.81	1.1925e-06	1.6194e-06	923.31	319.73	6.0262e-06	6.6338e-06	361.43	158.34	157.96	70.305	3.3688e-06	67.219	0.00010181	7.9961e-05	2.1251e-05	848.32	8.6965e-07	8.3847e-07	851.59	293.84	8.7796e-07	8.5819e-07	330.63	144.62	141.92	64.845	9.0927e-07	61.198	-10.539	72.287	51.746	-31.781	70.611	103.354	-33.442	-26.651	86.822	85.623	-29.253	-25.235	-23.306	-20.097	124.331	-22.502	-8191	255	
1230.242	1	1	0	0	0.36071	0.092853	0.18323	0.39308	0.028381	0.13384	0.11802	0.40935	0.18977	0.28605	0.15403	0.060147	0.24558	0.42341	0.06785	0.15197	-2.1292	-2.675	-2.9125	-2.7167	-2.9917	-2.75	-2.6604	-3.1167	-2.6354	-2.7687	-3.1667	-2.6667	-2.5917	-3.0938	-2.6437	-3.1937	94.899	-2.266	129.061	284.721	167.473	212.683	201.869	259.718	84.063	254.387	287.584	99.224	9.826	260.004	226.522	254.963	0.00088491	0.00032421	7.607e-05	918.6	4.2155e-06	9.5377e-06	927.4	318.71	4.8844e-06	5.0765e-06	356.43	157.63	156.49	69.587	5.0857e-06	66.644	0.00010189	7.916e-05	2.1472e-05	844.42	8.708e-07	8.8441e-07	849.76	292.74	9.3273e-07	8.6116e-07	328	143.8	141.14	64.325	8.9841e-07	60.731	-12.286	61.306	83.117	-32.345	87.534	116.843	-33.296	-26.527	95.833	72.639	-29.261	-25.037	-23.299	-20.013	95.019	-22.705	-8191	255	
1230.338	1	1	0	0	0.14295	0.081503	0.14288	0.2398	0.16649	0.1388	0.12179	0.12011	0.16284	0.2889	0.46184	0.31912	0.080406	0.1319	0.042758	0.23039	-2.3667	-2.6896	-2.75	-2.6042	-2.7854	-3.0542	-2.5563	-2.9292	-2.8375	-2.8604	-3.0146	-2.6396	-2.8854	-2.9	-2.525	-2.9646	-44.340	10.035	162.930	285.763	290.036	-26.848	9.068	-38.535	264.064	267.250	242.773	265.848	249.528	18.855	264.045	287.641	0.0005807	0.00054355	0.00010077	920.91	7.9214e-07	4.4853e-06	922.57	317.53	3.8072e-06	6.6745e-06	358.05	156.35	155.4	69.04	1.5732e-06	65.831	9.8981e-05	7.6262e-05	2.207e-05	845.16	8.6804e-07	8.6539e-07	847.44	291.7	9.0986e-07	8.7755e-07	327.76	142.57	140.05	63.777	9.1157e-07	60.203	-1.368	61.277	12.320	-32.040	150.300	108.206	-33.253	-26.407	69.373	68.058	-29.382	-25.033	-23.361	-20.005	53.598	-22.440	-8191	255	
1230.459	1	1	0	0	0.035086	0.15011	0.23081	0.22338	0.12616	0.16106	0.18235	0.099968	0.44466	0.18269	0.2295	0.34061	0.31461	0.31598	0.085374	0.18861	-2.4938	-2.6229	-2.9792	-2.6042	-3.0146	-2.8833	-2.5729	-2.9396	-2.625	-2.6188	-3.0208	-2.9104	-2.6146	-3.0271	-2.6208	-2.9813	-31.465	308.875	68.072	296.426	-18.936	271.631	221.003	23.130	-7.351	217.337	50.950	228.096	282.135	308.286	303.346	168.648	0.00065111	0.00026165	0.00010715	918.15	5.3553e-06	4.4418e-06	925.25	313.75	5.0818e-06	4.2295e-06	359.96	156.48	156.1	69.383	4.8794e-06	65.979	9.9811e-05	7.7257e-05	2.3068e-05	843.53	8.8799e-07	8.8931e-07	847.73	290.05	9.3464e-07	8.7454e-07	327.26	142.26	139.8	63.803	9.4078e-07	60.343	-7.537	22.754	7.716	-32.397	107.004	64.376	-33.560	-26.560	81.516	68.093	-29.288	-25.432	-23.105	-20.139	82.816	-22.495	-8191	255	
1230.555	1	1	0	0	0.36579	0.12423	0.076299	0.059955	0.13818	0.21543	0.054512	0.28837	0.16552	0.1849	0.25133	0.091544	0.056119	0.26997	0.16382	0.12409	-2.2979	-2.5792	-2.875	-2.6521	-2.6417	-2.9333	-2.6854	-2.7917	-3.0271	-2.5875	-2.7812	-2.6646	-2.5458	-2.9583	-2.4604	-2.875	69.122	-2.999	37.115	-17.499	198.100	256.516	270.229	177.865	171.525	110.316	314.870	303.552	47.338	305.108	147.663	227.840	0.00062877	0.00068804	0.00017432	923.39	4.5789e-06	3.9809e-06	918.27	312.43	6.7263e-06	3.5061e-06	354.5	153.82	154.51	68.237	3.0598e-06	65.046	0.00010094	8.4301e-05	2.1899e-05	843.93	8.9247e-07	8.9972e-07	842.92	288.86	9.1946e-07	8.5313e-07	324.21	140.57	138.72	63.019	9.1564e-07	59.67	1.986	60.942	30.295	-32.286	85.190	49.285	-33.397	-26.995	61.540	83.073	-29.679	-25.344	-23.419	-20.126	73.437	-22.422	-8191	255	
1230.627	1	1	0	0	0.15187	0.28623	0.15468	0.13896	0.28502	0.10322	0.17485	0.34081	0.046701	0.12945	0.02713	0.084709	0.11692	0.24161	0.086562	0.056631	-2.5417	-2.3187	-2.825	-2.8438	-2.8125	-2.9229	-2.6646	-3.0229	-3.0062	-2.5292	-2.875	-2.8208	-2.7604	-3.1521	-2.5812	-2.8146	48.532	128.607	55.347	272.287	-15.757	211.928	251.505	308.462	96.039	299.640	136.598	227.128	234.341	197.741	208.613	218.745	0.00058233	0.00038639	8.2973e-05	917.88	5.5496e-06	4.4977e-06	919.92	314.49	5.9641e-06	2.281e-06	356.32	154.5	154.43	68.325	5.5877e-06	65.124	9.7903e-05	8.0531e-05	2.1901e-05	841.67	8.682e-07	8.5556e-07	841.97	290.64	8.8787e-07	8.7647e-07	325.91	141.28	138.9	63.114	9.1107e-07	59.584	-16.065	48.130	28.718	-32.481	64.906	92.388	-33.717	-26.781	39.727	122.493	-29.493	-24.977	-23.044	-19.982	89.673	-22.228	-8191	255	
#DATA ENDS
