BOXY.EXE: ISS Imagent and Oximeter Data Acquisition Program Version 0.80
Ascii Record File

#ACQ INFORMATION
2  Detector Channels 
16  External MUX Channels 
1  Auxiliary Channels 
5000  Waveform (CCF) Frequency (Hz)
1  Waveforms Skipped 
30  Waveforms Averaged 
1  Cycles Averaged 
16  Acquisitions per Waveform 
10.0806  Updata Rate (Hz) 

#FILE INFORMATION
TRUE -- External MUX Channel results are PARSED.
FALSE -- AC DC and Phase are NOT grouped.
TRUE -- Companion Program Settings File CREATED.
FALSE -- AC data not excluded
FALSE -- DC data not excluded
FALSE -- Phase data not excluded
FALSE -- Auxillary Chn. data not excluded
Tab delimiters

#CALIBRATION STATE
TRUE -- Waveform Calibration Values APPLIED.


#AUX CALIBRATION VALUES
Val Type	aux-1	

Term	1.0000e+00	
Factor	0.0000e+00	


#WF CALIBRATION VALUES
A = Detector Channel
Val Type	A-AC1	A-AC2	A-AC3	A-AC4	A-AC5	A-AC6	A-AC7	A-AC8	A-AC9	A-AC10	A-AC11	A-AC12	A-AC13	A-AC14	A-AC15	A-AC16	A-DC1	A-DC2	A-DC3	A-DC4	A-DC5	A-DC6	A-DC7	A-DC8	A-DC9	A-DC10	A-DC11	A-DC12	A-DC13	A-DC14	A-DC15	A-DC16	A-Ph1	A-Ph2	A-Ph3	A-Ph4	A-Ph5	A-Ph6	A-Ph7	A-Ph8	A-Ph9	A-Ph10	A-Ph11	A-Ph12	A-Ph13	A-Ph14	A-Ph15	A-Ph16	

Term	0.00000e+00	0.00000e+00	0.00000e+00	0.00000e+00	0.00000e+00	0.00000e+00	0.00000e+00	0.00000e+00	0.00000e+00	0.00000e+00	0.00000e+00	0.00000e+00	0.00000e+00	0.00000e+00	0.00000e+00	0.00000e+00	0.00000e+00	0.00000e+00	0.00000e+00	0.00000e+00	0.00000e+00	0.00000e+00	0.00000e+00	0.00000e+00	0.00000e+00	0.00000e+00	0.00000e+00	0.00000e+00	0.00000e+00	0.00000e+00	0.00000e+00	0.00000e+00	0.00000e+00	0.00000e+00	0.00000e+00	0.00000e+00	0.00000e+00	0.00000e+00	0.00000e+00	0.00000e+00	0.00000e+00	0.00000e+00	0.00000e+00	0.00000e+00	0.00000e+00	0.00000e+00	0.00000e+00	0.00000e+00	
Factor	1.00000e+00	1.00000e+00	1.00000e+00	1.00000e+00	1.00000e+00	1.00000e+00	1.00000e+00	1.00000e+00	1.00000e+00	1.00000e+00	1.00000e+00	1.00000e+00	1.00000e+00	1.00000e+00	1.00000e+00	1.00000e+00	1.00000e+00	1.00000e+00	1.00000e+00	1.00000e+00	1.00000e+00	1.00000e+00	1.00000e+00	1.00000e+00	1.00000e+00	1.00000e+00	1.00000e+00	1.00000e+00	1.00000e+00	1.00000e+00	1.00000e+00	1.00000e+00	X	X	X	X	X	X	X	X	X	X	X	X	X	X	X	X	

B = Detector Channel
Val Type	B-AC1	B-AC2	B-AC3	B-AC4	B-AC5	B-AC6	B-AC7	B-AC8	B-AC9	B-AC10	B-AC11	B-AC12	B-AC13	B-AC14	B-AC15	B-AC16	B-DC1	B-DC2	B-DC3	B-DC4	B-DC5	B-DC6	B-DC7	B-DC8	B-DC9	B-DC10	B-DC11	B-DC12	B-DC13	B-DC14	B-DC15	B-DC16	B-Ph1	B-Ph2	B-Ph3	B-Ph4	B-Ph5	B-Ph6	B-Ph7	B-Ph8	B-Ph9	B-Ph10	B-Ph11	B-Ph12	B-Ph13	B-Ph14	B-Ph15	B-Ph16	

Term	0.00000e+00	0.00000e+00	0.00000e+00	0.00000e+00	0.00000e+00	0.00000e+00	0.00000e+00	0.00000e+00	0.00000e+00	0.00000e+00	0.00000e+00	0.00000e+00	0.00000e+00	0.00000e+00	0.00000e+00	0.00000e+00	0.00000e+00	0.00000e+00	0.00000e+00	0.00000e+00	0.00000e+00	0.00000e+00	0.00000e+00	0.00000e+00	0.00000e+00	0.00000e+00	0.00000e+00	0.00000e+00	0.00000e+00	0.00000e+00	0.00000e+00	0.00000e+00	-1.23726e+02	-1.39918e+02	-1.78938e+02	-1.81413e+02	-3.50059e+01	-7.24347e+01	-1.57789e+02	-1.62015e+02	-7.41590e+01	-9.50557e+01	-1.80411e+02	-1.70917e+02	-1.81322e+02	-1.76271e+02	-8.71251e+01	-1.49364e+02	
Factor	1.81544e-05	1.23178e-04	2.51159e-05	1.85326e-01	8.05980e-07	9.73926e-07	1.72092e-01	5.34215e-02	8.30615e-07	1.09759e-06	1.07935e-01	3.07122e-02	2.47813e-02	9.40291e-03	9.68748e-07	1.38253e-02	5.41759e-07	5.53856e-07	1.53778e-07	8.86287e-02	6.03997e-09	6.06804e-09	7.82073e-02	2.56647e-02	6.05508e-09	6.07195e-09	4.76290e-02	1.39290e-02	1.17526e-02	4.39035e-03	6.05682e-09	6.14778e-03	X	X	X	X	X	X	X	X	X	X	X	X	X	X	X	X	



#DISTANCE SETTINGS
A = Detector Channel
A-1	A-2	A-3	A-4	A-5	A-6	A-7	A-8	A-9	A-10	A-11	A-12	A-13	A-14	A-15	A-16	

2.5000e+00	3.0000e+00	2.5000e+00	3.0000e+00	2.0000e+00	3.0000e+00	1.5000e+00	3.0000e+00	3.0000e+00	3.0000e+00	3.0000e+00	3.0000e+00	3.0000e+00	3.0000e+00	1.5000e+00	3.0000e+00	

B = Detector Channel
B-1	B-2	B-3	B-4	B-5	B-6	B-7	B-8	B-9	B-10	B-11	B-12	B-13	B-14	B-15	B-16	

1.0000e+01	1.0000e+01	1.0000e+01	1.4400e+00	1.0000e+01	1.0000e+01	1.5100e+00	1.9400e+00	1.0000e+01	1.0000e+01	1.9900e+00	2.4900e+00	2.4100e+00	2.9000e+00	1.0000e+01	2.9800e+00	




#DATA BEGINS
time	group	step	mark	flag	A-AC1	A-AC2	A-AC3	A-AC4	A-AC5	A-AC6	A-AC7	A-AC8	A-AC9	A-AC10	A-AC11	A-AC12	A-AC13	A-AC14	A-AC15	A-AC16	A-DC1	A-DC2	A-DC3	A-DC4	A-DC5	A-DC6	A-DC7	A-DC8	A-DC9	A-DC10	A-DC11	A-DC12	A-DC13	A-DC14	A-DC15	A-DC16	A-Ph1	A-Ph2	A-Ph3	A-Ph4	A-Ph5	A-Ph6	A-Ph7	A-Ph8	A-Ph9	A-Ph10	A-Ph11	A-Ph12	A-Ph13	A-Ph14	A-Ph15	A-Ph16	B-AC1	B-AC2	B-AC3	B-AC4	B-AC5	B-AC6	B-AC7	B-AC8	B-AC9	B-AC10	B-AC11	B-AC12	B-AC13	B-AC14	B-AC15	B-AC16	B-DC1	B-DC2	B-DC3	B-DC4	B-DC5	B-DC6	B-DC7	B-DC8	B-DC9	B-DC10	B-DC11	B-DC12	B-DC13	B-DC14	B-DC15	B-DC16	B-Ph1	B-Ph2	B-Ph3	B-Ph4	B-Ph5	B-Ph6	B-Ph7	B-Ph8	B-Ph9	B-Ph10	B-Ph11	B-Ph12	B-Ph13	B-Ph14	B-Ph15	B-Ph16	aux-1	digaux	

1017.546	1	1	0	768	0.1793	0.10313	0.34306	0.070611	0.1757	0.038395	0.22327	0.025855	0.11436	0.096665	0.153	0.056398	0.13543	0.14034	0.23932	0.22614	-2.5833	-2.4708	-3.1937	-2.7854	-2.8417	-2.9917	-2.7188	-3.3688	-2.8708	-2.5062	-3.2333	-2.8979	-2.8604	-3.1354	-2.5667	-3.1625	487.018	473.886	394.685	162.759	294.128	472.563	508.513	194.429	299.671	377.779	465.773	163.167	165.203	277.291	378.413	415.768	0.00054495	0.00047638	0.00011789	1204	3.0757e-06	4.6713e-06	1213.9	333.8	5.5244e-07	5.886e-06	386.74	127.89	110.27	37.934	4.4426e-06	47.684	0.00036894	0.00034661	9.24e-05	1192.5	3.9809e-06	3.774e-06	1208.8	332.71	3.9729e-06	3.7968e-06	377.3	126.82	109.65	37.792	3.6341e-06	47.229	196.187	269.941	229.224	173.061	341.830	323.251	172.738	177.560	269.791	334.179	177.018	181.210	181.521	186.493	257.947	185.878	-8191	255	
1017.642	1	1	0	0	0.15024	0.15229	0.15533	0.24704	0.16091	0.14072	0.30179	0.079463	0.14941	0.2368	0.069967	0.11379	0.24116	0.063603	0.31942	0.1616	-2.5187	-2.675	-3.1042	-2.8729	-2.6771	-2.9771	-2.6146	-3.2521	-2.9437	-2.4479	-3.1708	-2.8417	-2.8	-3.3688	-2.5333	-3.0417	423.322	392.502	312.322	451.424	299.672	468.424	473.292	410.668	318.806	299.862	174.710	488.464	344.715	498.534	488.441	499.025	0.00040018	0.00030651	0.00013286	1197.2	6.0436e-06	6.5835e-06	1211.1	334.01	3.7782e-06	3.4845e-06	385.38	127.87	110.26	38.24	8.7319e-06	47.806	0.00036286	0.00034322	9.1374e-05	1191.5	3.8885e-06	3.7212e-06	1205.7	332.88	3.884e-06	3.7458e-06	376.54	127.27	109.48	37.786	3.6623e-06	47.333	192.301	356.626	163.163	172.898	383.850	380.570	172.675	177.283	366.348	298.267	176.886	180.749	181.832	186.311	228.587	185.779	-8191	255	
1017.738	1	1	0	0	0.1291	0.20944	0.17594	0.22323	0.33264	0.20175	0.21519	0.12784	0.22428	0.023808	0.11346	0.11849	0.27773	0.11002	0.1396	0.16717	-2.8458	-2.5958	-3.2188	-2.9729	-2.7604	-3.3104	-2.6229	-3.0792	-3.3229	-2.6708	-3.1312	-3.0229	-2.8021	-3.3479	-2.4333	-2.8708	413.443	309.096	512.314	487.820	434.402	510.768	438.806	217.421	443.180	252.758	466.018	208.945	451.553	485.206	173.458	460.274	0.00039891	0.00028946	5.8956e-05	1199.2	2.8029e-06	2.3472e-06	1210.3	333.36	6.3784e-06	5.8955e-06	385.59	127.63	109.44	37.916	3.7418e-06	47.519	0.00035375	0.00034114	9.4123e-05	1194.1	3.8822e-06	3.7178e-06	1205.9	333.25	3.8817e-06	3.7662e-06	377.79	127.27	108.98	37.661	3.8727e-06	47.319	195.274	368.726	188.858	173.014	370.502	430.489	172.718	177.316	316.831	378.745	177.112	181.144	181.699	186.406	277.691	185.413	-8191	255	
1017.834	1	1	0	0	0.18696	0.17794	0.080535	0.052752	0.069043	0.28335	0.3069	0.32313	0.2192	0.20636	0.2027	0.057436	0.35167	0.13329	0.013467	0.12743	-2.8042	-2.3771	-3.1271	-3.0646	-2.6167	-3.2292	-2.8458	-2.95	-3.2854	-2.4583	-3.1312	-3.1	-2.7333	-3.325	-2.5833	-2.6479	410.748	435.570	261.161	328.504	431.614	248.011	166.239	464.083	359.320	198.361	293.255	464.942	488.980	212.971	240.159	415.292	0.00043255	0.00045305	0.00023846	1200.8	5.5977e-06	1.5429e-06	1212.9	334.24	4.1954e-06	9.7472e-06	385.29	127.97	109.52	37.9	6.4945e-06	47.619	0.00035809	0.000343	9.8927e-05	1195.2	3.8357e-06	3.7087e-06	1210.8	333.31	3.8396e-06	3.7359e-06	379.12	127.18	109.06	37.655	4.0058e-06	47.292	201.047	298.714	496.959	173.107	335.313	304.670	172.541	177.540	319.771	231.714	177.106	181.122	181.734	186.355	214.693	185.669	-8191	255	
1017.930	1	1	0	0	0.065221	0.067923	0.23856	0.26309	0.19647	0.13623	0.28682	0.091764	0.16449	0.078893	0.22773	0.22205	0.058801	0.28261	0.14226	0.097169	-2.7854	-2.6125	-2.9917	-3.2208	-2.7562	-3.3021	-3.1229	-2.8375	-3.2604	-2.4875	-2.9167	-3.1937	-2.5729	-3.1937	-2.9562	-2.5625	508.149	402.599	194.489	417.492	187.753	467.405	457.765	462.048	199.347	377.051	227.176	221.866	334.043	443.502	487.886	499.789	0.00053048	0.00025445	7.6686e-05	1199.4	5.2027e-06	3.8837e-06	1212.6	334.39	8.1421e-06	6.1487e-06	385.65	127.28	110.12	37.977	7.0799e-06	47.557	0.00035143	0.00034083	0.00010238	1193.9	3.8281e-06	3.6843e-06	1211.8	333.02	3.7699e-06	3.7591e-06	379.48	126.78	109.18	37.718	4.0644e-06	47.192	203.843	480.059	212.085	172.962	360.518	282.142	172.764	177.473	271.247	350.881	176.975	181.140	181.680	186.265	222.251	185.581	-8191	255	
1018.026	1	1	0	0	0.13087	0.10561	0.061848	0.27191	0.083203	0.11752	0.1996	0.34888	0.19617	0.16842	0.047002	0.24466	0.29915	0.11309	0.12944	0.42195	-2.8646	-2.5792	-2.775	-3.3625	-2.6396	-3.1271	-3.0479	-2.65	-3.4688	-2.5896	-2.9104	-3.2	-2.5521	-3.1813	-2.8312	-2.6417	359.731	313.238	268.791	453.581	250.906	193.544	484.741	468.077	407.515	186.274	458.465	167.864	198.420	453.316	498.314	492.094	0.00050355	0.00037948	0.00014926	1199.7	3.2258e-06	5.122e-06	1213.4	334.79	2.843e-06	2.6823e-06	386.59	127.79	109.67	37.948	2.9307e-06	47.461	0.00034734	0.00034966	0.00010361	1193	3.7915e-06	3.8356e-06	1213	333.17	3.7503e-06	3.9225e-06	380.29	126.76	108.9	37.759	4.1201e-06	47.177	199.668	182.571	200.002	173.028	319.111	346.162	172.582	177.477	320.219	263.327	176.939	180.946	181.357	186.319	449.327	185.774	-8191	255	
1018.147	1	1	0	0	0.12163	0.074336	0.4355	0.37752	0.18538	0.056134	0.38238	0.16766	0.18746	0.293	0.34096	0.39721	0.078195	0.064455	0.31358	0.29503	-2.8458	-2.6604	-2.5979	-3.1979	-2.5792	-3.0292	-3.0042	-2.55	-3.2417	-2.7208	-2.7083	-3.2021	-2.5208	-2.9167	-2.9792	-2.4417	359.647	438.330	330.527	507.329	329.695	508.965	460.913	250.556	209.448	275.674	471.757	510.911	486.284	449.815	492.613	422.286	0.00047831	0.00054506	2.0678e-05	1203	2.9887e-06	3.7849e-06	1211.8	333.58	6.3914e-06	7.2666e-06	385.82	127.16	109.32	38.023	4.4491e-06	47.557	0.00034337	0.00036515	0.00010477	1194.1	3.7756e-06	4.0236e-06	1214.4	333.24	3.7762e-06	4.0722e-06	380.72	126.44	108.93	37.956	4.0482e-06	47.164	197.719	217.880	235.276	173.073	345.994	295.643	172.519	177.498	268.770	262.877	176.931	181.182	181.622	186.320	226.790	185.591	-8191	255	
1018.241	1	1	0	0	0.040125	0.28345	0.1479	0.16209	0.14434	0.035748	0.41805	0.22454	0.078078	0.038536	0.12429	0.24063	0.18711	0.26447	0.049347	0.039624	-2.7021	-2.7271	-2.5687	-3.2062	-2.4875	-2.8854	-3.2313	-2.6167	-3.2271	-2.9146	-2.6479	-3.25	-2.4667	-2.8917	-3.0875	-2.6979	491.707	306.096	192.415	495.419	417.664	207.364	465.800	447.698	401.810	332.218	261.039	490.322	404.394	445.290	210.224	493.849	0.00050877	0.00027645	5.7761e-05	1207.3	1.7204e-06	5.7915e-06	1210.8	334.63	3.6118e-06	1.742e-06	385.29	127.91	110	38.112	2.225e-06	47.556	0.00034962	0.00038101	0.00010224	1195.3	3.7903e-06	4.1307e-06	1212.4	333.1	3.8139e-06	4.1535e-06	379.62	126.77	109.12	38.021	3.9737e-06	47.161	205.137	227.095	212.315	173.125	326.041	268.001	172.710	177.275	345.224	272.687	177.233	181.059	181.761	186.477	280.890	185.645	-8191	255	
1018.338	1	1	0	0	0.15857	0.11479	0.37876	0.16328	0.092437	0.30502	0.24656	0.31237	0.20012	0.13136	0.41054	0.20454	0.15893	0.14078	0.070571	0.37774	-2.8042	-2.7521	-2.4688	-3.4792	-2.575	-2.925	-3.2583	-2.6396	-2.9875	-3.0229	-2.6229	-3.2458	-2.8292	-2.7708	-3.3438	-2.6521	494.787	317.256	353.973	471.095	450.509	189.071	486.025	161.915	170.030	233.599	470.448	510.988	202.881	419.435	307.996	299.660	0.00044341	0.00062128	9.5716e-05	1204.5	5.8215e-06	3.5501e-06	1213.5	335.07	6.3752e-06	6.5176e-06	384.86	127.68	109.52	38.04	3.3348e-06	47.539	0.00035608	0.0003796	0.00010036	1194.2	3.9504e-06	4.167e-06	1213.6	332.94	3.9569e-06	4.1556e-06	379.41	126.38	109.42	38.017	3.9292e-06	47.007	188.948	246.545	331.493	172.924	313.571	312.448	172.621	177.319	220.909	319.235	176.693	180.974	181.823	186.453	263.131	185.650	-8191	255	
1018.434	1	1	0	0	0.090123	0.10082	0.15347	0.14887	0.22876	0.21695	0.14352	0.10521	0.19441	0.21905	0.038144	0.15461	0.12174	0.12616	0.081288	0.29841	-2.5646	-3.0687	-2.4938	-3.2667	-2.5667	-2.7333	-3.4833	-2.7313	-2.9562	-2.9771	-2.7479	-3.3187	-3.0833	-2.8021	-3.3375	-2.7708	216.392	325.902	510.512	210.463	168.834	432.452	469.774	330.840	374.731	266.448	293.610	339.084	417.281	166.315	323.770	233.890	0.00051833	0.00056787	0.00011495	1208.3	7.6633e-06	3.8348e-06	1215.6	334.5	3.5606e-06	5.6509e-06	385.18	127.4	109.74	37.895	2.6974e-06	47.106	0.00037458	0.0003782	0.00010005	1194.2	4.1299e-06	4.1474e-06	1212.1	332.74	4.126e-06	4.0987e-06	379.18	126.53	109.6	37.845	3.931e-06	46.923	196.717	271.541	205.305	172.991	255.748	369.889	172.770	177.519	317.172	374.764	177.262	180.890	181.620	186.730	404.281	185.746	-8191	255	
1018.530	1	1	0	0	0.10513	0.27741	0.065729	0.09606	0.14851	0.17981	0.21777	0.17958	0.19979	0.15937	0.11329	0.18721	0.11465	0.23224	0.095445	0.2134	-2.3396	-3.0479	-2.6521	-3.1208	-2.8292	-2.6875	-3.3875	-2.7188	-2.9437	-3.2417	-2.7375	-3.1854	-3.1125	-2.6604	-3.2438	-2.8896	515.635	448.160	389.790	505.402	168.259	290.525	426.354	460.855	252.153	180.517	442.972	424.839	169.853	400.119	267.724	437.189	0.00049558	0.00047869	0.00011584	1201.9	4.394e-06	1.5396e-06	1217.3	334.69	4.5731e-06	1.6443e-06	386.52	128.05	109.25	37.888	3.0216e-06	47.435	0.00038775	0.00037239	9.9618e-05	1195.1	4.2504e-06	4.0939e-06	1212.7	333.39	4.2999e-06	4.0965e-06	378.86	126.87	109.63	37.82	3.96e-06	47.182	190.533	207.653	201.161	173.047	296.018	379.162	172.636	177.319	261.889	168.428	177.102	180.859	181.898	186.474	249.613	185.593	-8191	255	
1018.626	1	1	0	0	0.043392	0.1746	0.21609	0.11698	0.065553	0.19088	0.33685	0.10749	0.37879	0.082093	0.14412	0.23591	0.1071	0.16695	0.12371	0.15924	-2.4229	-3.15	-2.3042	-3.4083	-3.0604	-2.5687	-3.4604	-2.8417	-2.6104	-3.2708	-2.6667	-2.9583	-3.1292	-2.5667	-3.3542	-2.9146	360.219	420.452	426.017	505.997	495.137	491.400	470.986	516.002	454.363	201.717	276.396	517.645	473.696	482.874	256.430	164.289	0.00042755	0.00047403	9.3938e-05	1202.1	2.9538e-06	4.1786e-06	1208.3	333.98	3.5268e-06	3.9119e-06	384.88	126.98	109.01	38.032	4.0052e-06	47.269	0.00039693	0.00037696	0.00010105	1198.3	4.2845e-06	4.1056e-06	1209.8	334.13	4.2878e-06	4.066e-06	378.45	126.85	109.37	37.737	3.8975e-06	47.289	194.949	507.410	191.469	173.012	328.919	263.479	172.662	177.373	340.395	273.955	177.071	181.358	182.038	186.669	257.504	185.843	-8191	255	
1018.747	1	1	0	0	0.093431	0.050614	0.027826	0.29065	0.037777	0.13983	0.12691	0.17967	0.1943	0.04883	0.208	0.14284	0.048347	0.095551	0.13018	0.11966	-2.3042	-3.175	-2.4	-3	-2.9729	-2.4167	-3.3104	-3.0083	-2.6646	-3.225	-2.7667	-2.9813	-3.2125	-2.4854	-2.9562	-3.0062	390.921	436.486	302.085	180.225	462.794	314.318	413.090	459.678	408.491	362.135	208.962	358.623	176.477	341.977	275.961	375.647	0.00041605	0.00072455	1.175e-05	1200.9	1.5775e-06	5.2054e-06	1212.5	333.95	2.3154e-06	4.5873e-06	385.39	127.08	108.56	37.6	4.3199e-06	47.275	0.00038921	0.00036457	0.00010013	1198.9	4.1897e-06	4.0118e-06	1209.1	334.02	4.1546e-06	3.971e-06	378.16	126.81	108.84	37.547	3.9787e-06	47.225	192.439	268.905	493.352	172.964	380.314	181.262	172.626	177.404	376.580	255.665	177.376	180.947	181.635	186.436	297.074	185.789	-8191	255	
1018.843	1	1	0	0	0.096342	0.17211	0.3532	0.1483	0.06229	0.025393	0.23879	0.32742	0.11769	0.02983	0.29002	0.17034	0.28108	0.11894	0.18973	0.24624	-2.1688	-3.2771	-2.5604	-2.8604	-3.0708	-2.3583	-3.2875	-3.0479	-2.7167	-3.2417	-2.7896	-2.9292	-3.3792	-2.5167	-3.0125	-3.0687	430.155	366.179	183.455	171.704	480.051	175.724	493.256	504.931	438.062	414.108	432.870	192.339	489.833	506.932	390.594	504.890	0.0005153	0.00039624	5.3169e-05	1201.2	2.0966e-06	4.8563e-06	1214.8	333.99	4.0524e-06	6.7963e-06	383.88	127.08	108.99	37.705	2.1592e-06	47.314	0.00037955	0.00036383	0.00010203	1199.9	4.0956e-06	3.9744e-06	1211.3	334.52	4.101e-06	3.8912e-06	379.27	126.94	108.8	37.587	4.0598e-06	47.266	193.863	497.493	263.732	173.155	397.609	360.960	172.624	177.420	299.557	259.553	176.895	181.016	181.952	186.470	211.582	185.526	-8191	255	
1018.939	1	1	0	0	0.092925	0.12465	0.084465	0.19079	0.19323	0.10487	0.087186	0.15974	0.25782	0.091446	0.25021	0.14201	0.23921	0.027499	0.095586	0.23451	-2.2667	-3.3292	-2.6479	-2.9958	-3.1792	-2.5396	-3.1125	-2.9875	-2.4917	-3.1833	-2.7708	-2.8812	-3.1875	-2.5708	-3.0917	-3.1521	377.812	175.744	301.966	495.306	224.045	319.543	204.929	216.561	182.171	413.264	456.918	285.992	433.620	477.968	430.968	370.424	0.00046441	0.00048877	0.00018897	1201.3	3.4575e-06	1.3451e-06	1214.1	332.76	3.4557e-06	5.434e-06	386.71	126.59	109.19	37.556	5.757e-06	47.343	0.00037107	0.00035416	0.00010488	1196.4	4.0021e-06	3.8911e-06	1212.7	333.21	3.9957e-06	3.8605e-06	380.7	126.54	108.63	37.464	4.2059e-06	47.105	199.793	285.606	462.661	172.848	378.770	221.542	172.803	177.481	314.353	309.563	177.105	181.290	181.797	186.782	221.497	185.875	-8191	255	
1019.035	1	1	0	0	0.40138	0.23937	0.062342	0.34105	0.27219	0.09641	0.098171	0.20678	0.20175	0.095032	0.10632	0.32713	0.13501	0.17109	0.085688	0.12871	-2.1021	-3.1625	-2.7833	-2.8542	-3.0458	-2.6063	-3.1125	-3.1125	-2.3833	-3.2104	-3.0667	-2.6937	-3.2771	-2.4167	-2.7938	-3.15	346.288	215.753	232.157	420.831	446.959	370.523	444.376	311.408	394.286	209.194	216.647	172.159	478.230	465.861	246.200	298.655	0.00043367	0.00050221	7.6428e-05	1200.3	3.7701e-06	4.0089e-06	1208.6	333.59	5.4035e-06	5.3979e-06	387.73	127.03	109.32	37.89	3.2785e-06	47.266	0.00036512	0.00035342	0.00010802	1195.4	3.9332e-06	3.929e-06	1211.9	332.85	3.9657e-06	3.9369e-06	381.17	126.32	108.65	37.63	4.2884e-06	47.025	200.849	185.999	440.472	173.019	287.592	284.694	172.722	177.499	255.881	253.099	176.952	181.253	181.773	186.802	467.802	185.634	-8191	255	
1019.107	1	1	0	0	0.17154	0.18709	0.16627	0.17127	0.30231	0.029847	0.4117	0.079885	0.2811	0.22195	0.17136	0.23551	0.19881	0.17795	0.28305	0.16668	-2.0604	-3.1208	-2.85	-2.6896	-3.1	-2.7583	-2.8937	-3.1042	-2.4604	-3.1458	-3.0167	-2.7083	-3.3333	-2.6125	-2.8104	-3.1312	249.042	492.859	276.620	512.387	460.424	352.541	470.922	349.086	428.488	196.011	471.867	427.148	177.958	484.430	292.319	376.793	0.00046429	0.00042442	0.00014266	1199.6	1.2077e-06	2.7927e-06	1213.3	332.94	4.695e-06	8.4158e-06	384.55	127.18	109.56	37.713	6.6769e-06	47.22	0.00036214	0.00036479	0.00010845	1193.9	3.8898e-06	4.0706e-06	1214.3	332.58	3.8944e-06	4.094e-06	380.42	126.41	108.76	37.77	4.249e-06	46.951	202.934	482.657	268.033	173.202	406.592	499.306	172.747	177.446	277.987	215.980	176.854	181.136	181.701	186.426	313.034	185.592	-8191	255	
1019.226	1	1	0	0	0.34614	0.019623	0.15124	0.18418	0.17264	0.16876	0.25215	0.12766	0.093924	0.032876	0.14178	0.22593	0.23133	0.10917	0.12765	0.072776	-2.0021	-2.8854	-2.9938	-2.6479	-3.0542	-2.8771	-2.7125	-3.1979	-2.5021	-2.7562	-3.1521	-2.4896	-3.1125	-2.7958	-2.4729	-3.2833	413.781	249.041	271.266	501.788	480.274	178.098	476.004	400.868	378.431	229.574	498.539	216.031	490.748	455.084	457.905	471.276	0.00037167	0.00053739	5.6178e-05	1201.7	4.1452e-06	3.3925e-06	1207.4	333.43	5.7918e-06	5.351e-06	383.07	126.92	109.24	37.843	2.5982e-06	47.258	0.00035975	0.00038254	0.00010806	1195	3.8992e-06	4.2361e-06	1211.5	332.6	3.9115e-06	4.251e-06	379.85	126.09	108.66	37.87	4.1775e-06	47	193.753	196.721	212.244	172.932	277.861	244.546	172.618	177.345	251.086	262.876	177.183	180.969	181.885	186.541	346.342	185.551	-8191	255	
1019.322	1	1	0	0	0.047873	0.082461	0.24765	0.22318	0.11596	0.22433	0.38268	0.3888	0.084761	0.17605	0.1568	0.2518	0.15462	0.036466	0.31159	0.12108	-1.9333	-2.9396	-3.0646	-2.5396	-3.0854	-2.9396	-2.8625	-3.3271	-2.5729	-2.8042	-3.2208	-2.5333	-3.2167	-2.8	-2.5375	-3.3187	180.675	339.824	244.139	467.836	350.032	272.558	475.766	441.116	291.228	487.733	229.584	512.168	462.610	332.696	417.883	219.826	0.00049921	0.00091792	0.00016685	1199.5	6.5981e-06	7.5396e-06	1213.8	333.24	5.439e-06	7.1579e-06	384.16	126.89	109.33	37.813	2.4887e-06	47.255	0.00036756	0.0003918	0.00010554	1194.8	3.9617e-06	4.329e-06	1212.7	332.75	4.0587e-06	4.3274e-06	379.64	126.15	108.94	37.937	4.0884e-06	46.936	194.783	225.364	226.256	173.144	346.765	265.531	172.705	177.454	230.760	370.515	177.147	180.790	181.681	186.370	266.982	185.608	-8191	255	
1019.418	1	1	0	0	0.089198	0.080316	0.2183	0.29022	0.18047	0.15883	0.059273	0.1819	0.087979	0.18312	0.15262	0.1578	0.17253	0.18079	0.15056	0.12985	-2.1708	-2.6604	-3.2021	-2.6	-3.1312	-3.05	-2.5479	-3.4208	-2.6667	-2.6646	-3.0812	-2.7313	-3.1417	-3.1479	-2.7771	-3.2292	176.847	467.298	432.078	179.335	237.645	363.410	457.204	464.686	241.144	345.925	457.652	413.678	516.021	179.383	230.863	515.729	0.00051938	0.00053187	0.00015519	1203.5	3.6614e-06	4.7384e-06	1217.7	334.29	5.9795e-06	2.4553e-06	385.73	126.72	108.95	37.735	5.2053e-06	47.349	0.00037518	0.00039514	0.00010364	1194.6	4.129e-06	4.2956e-06	1214	332.75	4.2182e-06	4.3062e-06	380.28	126.16	109.18	37.861	4.1051e-06	46.998	199.322	288.832	199.868	173.010	286.507	305.072	172.795	177.457	257.234	355.353	176.815	181.038	181.513	186.650	304.413	185.555	-8191	255	
1019.514	1	1	0	0	0.16045	0.1154	0.11858	0.21733	0.081069	0.10473	0.13228	0.12726	0.27735	0.21342	0.11221	0.21734	0.12019	0.025759	0.050565	0.03256	-2.3229	-2.7125	-3.1104	-2.6417	-2.7417	-2.9313	-2.7375	-3.175	-2.9104	-2.6604	-3.2417	-2.75	-3.0875	-3.2188	-2.5187	-3.2938	347.061	262.025	382.294	512.580	216.448	518.634	408.145	196.302	305.468	307.518	512.803	480.590	385.083	182.435	238.962	271.185	0.00055059	0.00091723	0.00019003	1204.6	7.9601e-06	1.7954e-06	1216.5	333.29	4.5915e-06	1.0081e-06	383.81	126.95	109.5	37.679	2.0224e-06	46.899	0.00039276	0.00039076	0.00010264	1198	4.3345e-06	4.2647e-06	1214.7	332.91	4.3462e-06	4.2285e-06	379.55	126.39	109.63	37.78	4.0172e-06	47.038	192.641	337.106	263.851	172.996	286.676	279.726	172.680	177.324	275.732	220.552	176.779	181.099	181.596	186.494	310.318	185.648	-8191	255	
1019.635	1	1	0	0	0.16776	0.064273	0.14257	0.10061	0.16347	0.034831	0.30991	0.19315	0.10717	0.094354	0.12924	0.13405	0.11373	0.12443	0.13273	0.19257	-2.4917	-2.6958	-3.2458	-2.8833	-2.9021	-3.2271	-2.5625	-3.1708	-3.0354	-2.575	-3.5167	-2.8375	-2.9875	-3.3875	-2.5375	-3.0396	503.080	194.529	505.207	437.926	347.458	448.709	165.880	490.825	432.382	339.928	420.419	240.226	473.719	426.640	208.439	469.603	0.00042509	0.00039137	0.00014697	1206.3	2.9739e-06	5.0404e-06	1216.1	335.37	2.2836e-06	7.623e-06	385.78	126.63	109.25	37.728	2.2535e-06	47.351	0.00040051	0.00038228	0.00010119	1200.5	4.3357e-06	4.1441e-06	1214	334.06	4.3598e-06	4.1409e-06	379.32	126.56	109.64	37.729	3.9586e-06	47.243	212.983	185.245	256.843	172.751	300.715	404.840	172.574	177.286	325.145	302.790	176.866	180.918	181.820	186.790	259.842	185.656	-8191	255	
1019.706	1	1	0	0	0.074167	0.20869	0.40132	0.22662	0.094998	0.12189	0.19554	0.2057	0.18152	0.054181	0.096774	0.074033	0.12277	0.12265	0.068393	0.2027	-2.7583	-2.5646	-3.2771	-2.9979	-2.8375	-3.3167	-2.8167	-3.2708	-3.2375	-2.6562	-3.3229	-2.9042	-2.9271	-3.4083	-2.4604	-3.075	224.186	373.319	203.545	454.605	267.052	214.070	466.835	440.674	260.284	272.297	342.859	519.003	204.871	163.180	322.020	177.864	0.00043398	0.0012691	9.7851e-05	1204.2	3.9396e-06	2.8261e-06	1216.3	334.03	5.8619e-06	4.286e-06	385.66	126.82	109.35	37.924	5.2123e-06	47.294	0.00039767	0.00037859	0.00010009	1201.8	4.3157e-06	4.0858e-06	1214.1	334.55	4.318e-06	4.1265e-06	379.28	127.24	109.49	37.778	4.0054e-06	47.298	206.995	289.876	199.127	172.929	458.117	183.569	172.557	177.414	258.319	487.996	177.207	181.066	181.702	186.701	209.483	185.836	-8191	255	
1019.827	1	1	0	0	0.1234	0.26964	0.17954	0.14329	0.25761	0.19754	0.18241	0.20752	0.2841	0.074286	0.20724	0.033681	0.31944	0.15929	0.25881	0.15436	-2.6729	-2.575	-3.0667	-3.0146	-2.8125	-3.2188	-2.8542	-3.1625	-3.1417	-2.5563	-3.3271	-2.9917	-2.8521	-3.2	-2.6167	-2.9458	455.214	494.297	271.634	441.532	273.672	434.528	493.328	483.974	272.078	378.902	465.857	320.224	442.954	162.786	366.538	373.897	0.00049131	0.00012912	0.00022049	1207.1	1.6823e-06	2.1283e-06	1217.2	335.69	3.7018e-06	5.3054e-06	385.32	127.11	109.48	37.937	8.2677e-06	47.574	0.00039017	0.00037481	0.00010126	1205.9	4.2154e-06	4.0492e-06	1215	335.73	4.2133e-06	4.051e-06	380.24	127.36	109.4	37.726	4.1127e-06	47.557	204.427	200.055	235.697	173.190	356.801	349.081	172.817	177.468	302.101	367.065	177.182	181.126	181.737	186.430	196.601	185.546	-8191	255	
1019.923	1	1	0	0	0.13795	0.039254	0.13365	0.18604	0.060875	0.27436	0.23506	0.29061	0.25033	0.12902	0.048729	0.19168	0.22517	0.38349	0.095996	0.23902	-2.775	-2.4271	-3.0375	-3.0958	-2.6396	-3.25	-2.9896	-2.9646	-3.1167	-2.4854	-3.2313	-3.1792	-2.6875	-3.2229	-2.6854	-2.9333	289.113	360.262	252.028	487.763	363.391	225.948	518.082	438.046	318.739	192.672	252.260	436.874	446.455	348.644	319.743	397.697	0.00043065	0.001138	0.00012395	1204.4	3.9933e-06	3.0754e-06	1218.2	334.48	4.5708e-06	4.0814e-06	385.51	126.82	109.28	37.899	7.035e-06	47.409	0.00038412	0.0003668	0.00010487	1206.5	4.1548e-06	3.9876e-06	1219.8	335.78	4.1594e-06	4.0024e-06	381.78	127.16	109.38	37.727	4.3023e-06	47.435	203.198	173.464	187.729	172.913	317.785	349.002	172.539	177.569	259.146	215.249	177.072	181.139	181.592	186.465	222.050	185.610	-8191	255	
1020.019	1	1	0	0	0.23136	0.1732	0.13084	0.10009	0.084799	0.090855	0.1868	0.26986	0.067931	0.25318	0.16214	0.1257	0.062482	0.19557	0.24094	0.23435	-2.675	-2.6375	-3.1063	-3.3104	-2.5542	-3.3333	-3.0896	-2.8937	-3.1646	-2.6792	-3.0083	-3.1479	-2.4979	-3.2062	-2.9562	-2.8063	191.704	264.902	454.955	206.854	249.748	409.077	489.008	401.694	404.935	427.799	516.773	463.019	381.134	507.355	471.495	423.258	0.00044023	0.00038834	0.00015114	1206.9	2.1537e-06	4.2751e-06	1221.4	334.6	2.523e-06	4.4621e-06	387.11	127.38	109.4	37.889	1.9626e-06	47.493	0.00037785	0.00036902	0.00010966	1204.2	4.1284e-06	4.011e-06	1222.6	335.23	4.1095e-06	4.0219e-06	382.89	127.26	109.28	37.71	4.3747e-06	47.25	196.042	248.435	163.039	172.971	377.615	318.858	172.855	177.282	295.405	325.214	176.831	180.946	181.492	186.579	209.952	185.727	-8191	255	
1020.116	1	1	0	0	0.07266	0.11341	0.10627	0.24439	0.10943	0.073534	0.35064	0.19666	0.21104	0.14614	0.16004	0.1492	0.11309	0.18308	0.28259	0.10348	-2.9062	-2.7104	-2.8125	-3.2229	-2.7687	-3.1958	-2.9979	-2.7958	-3.1271	-2.5979	-2.9437	-3.1792	-2.7313	-3.1958	-3.0354	-2.6708	197.759	452.723	313.544	480.905	278.035	290.870	494.315	172.461	263.468	175.522	160.327	453.758	169.462	515.353	251.003	427.096	0.00052207	0.00074304	8.7455e-05	1202.5	1.1062e-06	5.3429e-06	1218.7	333.9	5.8517e-06	4.3167e-06	387.36	127.2	109.15	37.62	3.0489e-06	47.5	0.00037251	0.00036986	0.00011168	1201.5	4.0685e-06	4.0753e-06	1221.1	334.54	4.026e-06	4.1224e-06	383.19	126.95	109.04	37.777	4.3604e-06	47.264	195.085	195.440	475.693	172.907	383.169	284.877	172.706	177.476	293.059	474.284	176.996	181.192	181.828	186.564	302.261	185.528	-8191	255	
1020.234	1	1	0	0	0.11711	0.25122	0.23685	0.22328	0.07302	0.18485	0.25435	0.3295	0.076022	0.26712	0.054214	0.12185	0.18639	0.090626	0.21199	0.07116	-2.9167	-2.8042	-2.8771	-3.3958	-2.6729	-3.1188	-3.1292	-2.7083	-3.125	-2.7583	-2.8542	-3.3083	-2.7125	-3.1292	-2.9896	-2.5687	482.316	336.308	339.213	478.627	514.765	225.946	434.041	464.376	436.686	198.872	197.514	482.519	492.049	223.825	307.012	484.635	0.00052985	0.00029789	0.00022182	1206.6	2.9531e-06	4.2161e-06	1212.6	334.73	2.0111e-06	7.1686e-07	386.39	126.75	109.04	37.952	2.6696e-06	47.291	0.00036445	0.00038239	0.0001111	1200.9	4.0063e-06	4.2218e-06	1220.7	334.52	3.9645e-06	4.3103e-06	382.33	126.64	108.99	37.966	4.3223e-06	47.154	191.612	161.604	224.654	172.880	375.766	278.725	172.572	177.462	309.648	510.376	177.066	181.021	181.682	186.297	502.181	185.750	-8191	255	
1020.331	1	1	0	0	0.23421	0.12405	0.049435	0.054119	0.19305	0.27241	0.077862	0.22805	0.11589	0.24939	0.11917	0.31247	0.12917	0.086281	0.21471	0.081296	-2.8604	-2.8021	-2.6875	-3.3438	-2.575	-2.8937	-3.2458	-2.6896	-3.25	-2.7938	-2.9792	-3.4729	-2.8771	-2.9688	-3.3292	-2.6937	211.572	176.078	250.934	447.096	266.754	318.853	186.350	414.923	500.772	273.655	169.049	185.110	499.796	323.235	311.255	449.604	0.00050625	0.00055664	0.00018688	1204.2	4.5051e-06	1.4891e-06	1213.3	334.87	3.2987e-06	2.8853e-06	386.81	126.92	109.67	37.877	5.3719e-06	47.256	0.00036471	0.00039702	0.00010864	1200	4.0052e-06	4.3417e-06	1218.5	333.81	3.9788e-06	4.3909e-06	381.72	126.42	109.03	37.978	4.1824e-06	47.028	201.581	168.557	261.078	172.894	331.193	218.420	172.699	177.604	238.084	236.143	177.023	180.959	181.672	186.483	371.646	185.900	-8191	255	
1020.402	1	1	0	0	0.10091	0.083609	0.089508	0.26958	0.12875	0.17143	0.39792	0.1627	0.07835	0.21571	0.138	0.040176	0.15665	0.21838	0.13061	0.12801	-2.8167	-2.9771	-2.5417	-3.4396	-2.7313	-2.9313	-3.5167	-2.6667	-3.1583	-3.0021	-2.7354	-3.3917	-2.7917	-2.7792	-3.1542	-2.5875	250.557	206.025	330.895	489.253	418.111	411.120	450.565	449.211	259.165	209.993	491.808	473.777	233.273	192.232	448.355	334.540	0.00048616	0.00067821	9.7237e-05	1208.7	2.3749e-06	5.3843e-06	1216.5	334.58	2.0875e-06	2.9194e-06	386	126.5	109.07	37.8	7.0864e-06	47.182	0.00037215	0.000401	0.00010608	1198.9	4.0876e-06	4.4026e-06	1217.4	333.83	4.1361e-06	4.3714e-06	380.88	126.28	109.21	38.004	4.1558e-06	47.019	190.674	356.808	187.153	172.959	319.973	326.053	172.791	177.349	392.734	350.204	177.008	180.794	181.608	186.388	312.227	185.699	-8191	255	
1020.523	1	1	0	0	0.071243	0.24116	0.14887	0.20981	0.046834	0.18217	0.24725	0.20794	0.21479	0.056021	0.15882	0.18256	0.23653	0.15962	0.10283	0.23066	-2.5667	-2.7708	-2.5396	-3.2812	-2.5875	-2.8104	-3.5333	-2.7167	-3.0375	-3.05	-2.6604	-3.3521	-2.8875	-2.7958	-3.3708	-2.6063	459.062	394.166	283.232	479.184	485.241	265.172	458.289	159.722	406.298	495.774	280.344	356.373	491.925	292.557	488.709	467.752	0.00054251	0.00086823	7.6576e-05	1203.7	2.8373e-06	7.2562e-06	1216.1	334.16	6.6463e-06	6.31e-06	384.16	126.94	109.64	37.791	4.3691e-06	47.139	0.00038847	0.0003972	0.00010549	1198.1	4.2693e-06	4.3395e-06	1215.8	333.36	4.2857e-06	4.3129e-06	380.68	126.01	109.55	37.865	4.0571e-06	46.965	195.991	234.909	234.043	173.028	180.440	318.561	172.581	177.573	298.980	382.813	177.257	181.033	181.634	186.695	254.957	185.773	-8191	255	
1020.619	1	1	0	0	0.26893	0.074045	0.19259	0.23153	0.096103	0.11492	0.27934	0.30671	0.28246	0.046034	0.080865	0.057429	0.018374	0.24696	0.20243	0.11782	-2.6021	-2.9917	-2.6667	-3.3854	-2.8875	-2.6292	-3.3021	-2.8271	-3.0208	-3.1042	-2.6667	-3.2583	-3.0812	-2.7354	-3.3167	-2.6875	483.763	408.763	498.602	481.388	441.149	289.489	423.921	460.473	387.210	193.360	368.666	346.091	285.802	254.505	168.638	519.177	0.0005757	0.00073087	0.00014044	1204.6	1.8721e-06	2.9101e-06	1216.2	335.13	5.3033e-06	8.3318e-06	384.9	127.35	109.31	37.9	5.5251e-06	47.192	0.00039736	0.00038469	0.00010329	1198.2	4.316e-06	4.1916e-06	1213.6	334.08	4.3547e-06	4.1505e-06	379.56	126.44	109.71	37.821	3.9695e-06	47.129	186.514	235.697	205.188	172.930	224.056	339.659	172.461	177.311	291.415	242.313	177.014	180.839	181.900	186.624	328.792	185.801	-8191	255	
1020.715	1	1	0	0	0.10674	0.20419	0.47681	0.13152	0.15299	0.15161	0.27895	0.14046	0.041971	0.13847	0.22964	0.063409	0.32447	0.17154	0.17571	0.17376	-2.5521	-3.0667	-2.6146	-3.1771	-3.0458	-2.7854	-3.375	-2.8104	-2.7521	-3.2521	-2.55	-3.0521	-3.0604	-2.7667	-3.1937	-2.4833	438.401	346.846	179.851	215.424	188.205	443.512	461.931	430.057	197.651	385.286	465.822	194.914	468.958	464.195	443.289	167.023	0.00057183	0.00094291	0.00014968	1206	4.2428e-06	2.455e-06	1215.2	334.65	4.6059e-06	2.0476e-06	383.19	127.5	108.86	37.539	4.9196e-06	47.137	0.0003962	0.00037502	0.00010138	1199.6	4.3282e-06	4.1387e-06	1211.9	334.05	4.3241e-06	4.1185e-06	378.71	126.85	109.24	37.664	3.9255e-06	47.295	199.233	295.483	502.669	172.963	309.177	304.354	172.704	177.274	298.342	269.816	176.969	181.038	181.720	186.593	265.544	185.560	-8191	255	
1020.811	1	1	0	0	0.15055	0.11605	0.15556	0.15186	0.13847	0.14918	0.29414	0.18207	0.18223	0.04934	0.2206	0.1252	0.028118	0.1176	0.24343	0.31964	-2.1021	-3.0417	-2.5354	-2.8937	-2.8875	-2.6063	-3.4667	-3.1229	-2.9229	-3.3229	-2.6333	-3.05	-3.1271	-2.6625	-3.0042	-2.8458	423.778	434.074	456.814	478.084	457.264	355.574	451.463	450.962	269.995	221.220	240.484	170.740	183.848	479.167	496.515	182.169	0.00042181	0.00070814	0.00017432	1205.9	3.2921e-06	1.9637e-06	1219	333.68	4.9753e-06	6.7431e-06	386.63	127.1	108.97	37.859	4.4537e-06	47.335	0.00039713	0.00037269	0.00010079	1202.1	4.2821e-06	4.0864e-06	1213.6	334.39	4.2683e-06	4.0726e-06	379.97	127.08	109.19	37.718	4.0001e-06	47.367	198.225	258.620	481.795	172.947	325.303	246.365	172.763	177.338	273.542	284.603	177.030	181.199	181.683	186.573	228.999	185.604	-8191	255	
1020.932	1	1	0	0	0.063241	0.01474	0.34601	0.20764	0.094578	0.049417	0.32826	0.11423	0.27654	0.029488	0.3185	0.13029	0.081854	0.13581	0.21979	0.12558	-2.3479	-3.1646	-2.5667	-2.9854	-3.1667	-2.5771	-3.3833	-2.9729	-2.5729	-3.2458	-2.7396	-2.9625	-3.3104	-2.5458	-3.1979	-3.1354	292.765	284.722	492.055	494.978	492.772	235.518	473.169	176.987	480.336	500.638	213.059	478.038	409.753	429.086	349.486	483.970	0.00048809	0.00071963	0.00010129	1204.3	2.1945e-06	3.1434e-06	1213	334.21	1.9957e-06	6.4375e-07	385.75	126.73	108.85	37.689	4.0939e-06	47.423	0.0003886	0.0003667	0.00010231	1202	4.1642e-06	4.0172e-06	1212.9	335.11	4.1499e-06	3.9723e-06	380.1	127.01	108.97	37.604	4.073e-06	47.294	198.000	413.949	485.216	172.948	367.120	354.956	172.740	177.266	289.337	432.636	176.756	181.299	181.877	186.312	503.963	185.589	-8191	255	
1021.004	1	1	0	0	0.29707	0.11376	0.17796	0.32157	0.21173	0.17725	0.25857	0.22853	0.21033	0.17185	0.26469	0.19358	0.10369	0.44431	0.26675	0.18524	-2.2667	-3.2458	-2.6875	-3.0792	-3.0604	-2.5833	-3.175	-3.1021	-2.5583	-3.2625	-2.7875	-2.8229	-3.25	-2.7	-2.8479	-3.1708	489.874	216.225	208.142	486.170	192.645	199.892	495.006	493.643	261.028	516.849	474.800	403.155	415.360	450.980	488.929	388.929	0.00055999	0.0010082	0.0002608	1199.7	4.3762e-06	4.6292e-06	1212.3	334.07	2.1541e-06	2.0201e-06	385.68	127.26	109.19	37.747	4.9182e-06	47.193	0.00037571	0.00035807	0.00010518	1199	4.0635e-06	3.9161e-06	1212.8	334.54	4.0714e-06	3.9069e-06	381.55	127.08	108.88	37.661	4.2203e-06	47.28	194.392	217.433	188.056	173.003	322.024	355.465	172.693	177.371	224.715	206.146	176.610	181.137	181.622	186.702	280.229	185.705	-8191	255	
1021.100	1	1	0	0	0.074515	0.17259	0.21079	0.25811	0.13136	0.28772	0.31247	0.14093	0.15094	0.29212	0.23469	0.16428	0.20213	0.06919	0.066893	0.22504	-2.2917	-2.925	-2.7375	-2.8021	-3.2604	-2.4542	-3.175	-3.2771	-2.4375	-3.1729	-3.0062	-2.8021	-3.4938	-2.6333	-2.8812	-3.3479	504.544	270.472	391.529	499.372	494.607	331.444	414.337	470.390	201.201	496.687	459.600	504.350	468.576	506.523	346.319	160.390	0.00046619	0.00052349	0.00016184	1200.3	3.066e-06	2.0147e-06	1210	335.24	4.8031e-06	4.7719e-06	384.45	126.82	109.05	37.712	8.9389e-06	47.197	0.00037151	0.00035633	0.00010899	1199.1	3.9962e-06	3.9554e-06	1215.9	334.68	4.0041e-06	3.9606e-06	381.6	126.56	108.68	37.648	4.272e-06	47.083	195.396	244.952	190.985	172.901	386.661	343.536	172.751	177.371	313.080	254.143	177.096	181.121	181.659	186.551	294.981	185.709	-8191	255	
1021.196	1	1	0	0	0.084115	0.2629	0.1837	0.2386	0.24811	0.10269	0.13721	0.16973	0.27311	0.20011	0.11741	0.21334	0.2816	0.26485	0.13504	0.11062	-2.1708	-3.1729	-2.8604	-2.7667	-3.3167	-2.75	-3.0187	-3.3479	-2.4979	-3.1229	-3.1188	-2.8229	-3.3	-2.8563	-2.9604	-3.3542	361.715	317.433	305.147	441.915	298.116	310.263	417.841	444.931	215.108	369.057	485.287	463.408	475.159	454.645	477.256	490.026	0.00046743	0.00072001	1.2452e-05	1203.1	3.6343e-06	2.6379e-06	1218.4	334.12	1.222e-06	6.5505e-06	385.27	126.77	108.83	37.776	7.6273e-06	47.281	0.0003644	0.00036495	0.00011005	1198.7	3.9083e-06	4.0661e-06	1216.5	333.56	3.9481e-06	4.0867e-06	381.75	126.33	108.56	37.788	4.2799e-06	47.008	202.876	217.980	236.732	172.987	295.203	297.387	172.756	177.335	274.107	216.972	177.139	180.958	181.597	186.324	274.138	185.891	-8191	255	
1021.315	1	1	0	0	0.11699	0.24522	0.15199	0.20761	0.093465	0.10076	0.12365	0.19131	0.20531	0.32003	0.2615	0.41309	0.097341	0.23718	0.3257	0.099047	-2.0958	-3.2062	-3.0042	-2.5229	-3.1271	-2.8187	-2.7812	-3.3479	-2.3792	-3.0458	-3.1333	-2.7	-3.1771	-2.8563	-2.6521	-3.2188	262.953	192.495	475.194	187.591	302.709	191.600	465.042	484.010	457.814	421.764	177.215	165.456	514.912	485.756	486.183	459.927	0.00052608	0.00051757	8.5693e-05	1200.7	2.6178e-06	2.2042e-06	1207.1	333.5	4.706e-06	4.3986e-06	387	126.49	109.2	37.686	1.877e-06	47.133	0.00036097	0.00038052	0.00010875	1196.1	3.8926e-06	4.2504e-06	1214.1	333.35	3.917e-06	4.2688e-06	381.31	126.22	108.55	37.821	4.2338e-06	46.916	189.136	225.767	190.587	172.841	331.977	284.247	172.787	177.581	365.205	289.814	177.027	181.058	181.678	186.566	473.039	185.632	-8191	255	
1021.411	1	1	0	0	0.10983	0.076896	0.15748	0.031248	0.23159	0.24752	0.28717	0.2791	0.074806	0.038736	0.16447	0.30248	0.086355	0.3	0.14005	0.19522	-2.1354	-2.9729	-3.0542	-2.7708	-3.1729	-2.8688	-2.8646	-3.3063	-2.4583	-2.9125	-3.3854	-2.8021	-3.3083	-2.9083	-2.6458	-3.4021	515.360	449.288	425.218	222.346	459.500	308.296	181.856	476.977	164.775	279.102	188.051	166.674	437.303	428.234	254.715	443.483	0.00042668	0.00054048	6.3689e-05	1199.2	5.0994e-06	6.4066e-06	1211.9	334.15	3.9321e-06	5.6515e-06	386.34	126.44	109.26	37.745	2.18e-06	47.025	0.00036677	0.00039471	0.00010656	1194.5	3.9485e-06	4.3349e-06	1213.2	333.03	4.0463e-06	4.3569e-06	380.89	126.01	108.78	37.86	4.1344e-06	46.935	205.041	478.275	308.633	172.741	342.561	374.157	172.790	177.331	232.497	367.614	176.786	180.982	181.847	186.593	222.150	185.402	-8191	255	
1021.507	1	1	0	0	0.16888	0.079276	0.12071	0.28165	0.041282	0.14051	0.24214	0.24253	0.14346	0.19659	0.070573	0.17449	0.069475	0.10406	0.17064	0.026595	-2.0917	-2.7417	-3.0042	-2.6208	-2.9854	-2.8458	-2.7208	-3.3688	-2.7917	-2.9354	-3.4375	-2.7479	-3.0438	-2.8917	-2.6792	-3.1	437.270	297.987	495.575	489.459	359.918	482.721	459.111	470.211	248.019	285.676	454.243	417.639	225.104	506.513	419.114	234.841	0.00054001	0.00046595	0.00024875	1199.8	2.3717e-06	6.989e-06	1212.7	333.18	1.8467e-06	4.5782e-06	387.39	126.64	109.26	37.651	8.8012e-06	47.064	0.00037996	0.00039934	0.00010503	1194.7	4.1234e-06	4.3745e-06	1213.4	332.84	4.2e-06	4.3281e-06	380.72	125.88	109.12	37.798	4.0907e-06	46.838	201.077	238.677	242.910	173.052	291.926	260.869	172.650	177.624	241.846	331.040	176.891	180.988	181.694	186.637	323.118	185.698	-8191	255	
1021.603	1	1	0	0	0.17414	0.44416	0.18798	0.10788	0.11512	0.12154	0.30787	0.058964	0.13086	0.10725	0.14749	0.14412	0.1207	0.23344	0.20142	0.13471	-2.3063	-2.7146	-3.2708	-2.7792	-3.0521	-2.8604	-2.6646	-3.4375	-2.8063	-2.6	-3.2333	-2.6	-2.9354	-3.0833	-2.5062	-3.3187	200.429	429.047	492.743	170.463	323.722	245.928	381.899	484.635	400.547	383.655	346.714	477.961	240.528	504.490	473.642	300.267	0.00046203	0.00079619	0.00017155	1200.4	3.5495e-06	5.633e-06	1214.1	334.63	2.276e-06	1.3827e-06	386	126.6	108.49	37.66	3.918e-06	47.159	0.00039002	0.0003922	0.00010297	1194.8	4.2643e-06	4.2067e-06	1212.6	333.17	4.2945e-06	4.2105e-06	379.68	125.94	109.14	37.725	4.0226e-06	46.912	197.125	252.855	210.220	173.013	258.356	291.216	172.825	177.580	486.329	408.559	177.047	181.080	181.984	186.310	286.348	185.446	-8191	255	
1021.699	1	1	0	0	0.28505	0.16065	0.134	0.2009	0.1647	0.21809	0.19867	0.12578	0.29306	0.013563	0.38317	0.23453	0.176	0.24788	0.2257	0.16141	-2.4396	-2.625	-3.2229	-2.8229	-2.7188	-3.1917	-2.6937	-3.0917	-2.8833	-2.4896	-3.3021	-2.725	-2.8042	-3.1771	-2.5312	-3.1417	171.071	322.990	225.604	453.650	447.616	471.635	163.426	483.002	329.867	463.485	492.498	513.240	298.105	172.289	511.462	439.313	0.00054958	0.00034427	0.00011199	1204.9	1.8224e-06	2.6479e-06	1210.8	333.49	4.2157e-06	7.1934e-06	387.24	126.7	109.34	37.655	5.7759e-06	47.016	0.00039596	0.0003798	0.00010105	1195.7	4.3104e-06	4.1211e-06	1212.3	333.17	4.3363e-06	4.1414e-06	379.26	126.12	109.39	37.658	3.963e-06	46.973	197.922	334.711	267.978	173.070	406.976	240.779	172.752	177.244	302.221	320.421	176.956	180.947	181.863	186.552	285.737	185.815	-8191	255	
1021.796	1	1	0	0	0.05821	0.060795	0.19193	0.27014	0.031642	0.22989	0.25286	0.062816	0.12721	0.2733	0.24347	0.20893	0.37752	0.2173	0.043354	0.13329	-2.6063	-2.4417	-3.1813	-2.775	-2.8292	-3.2021	-2.6625	-3.1604	-3.1188	-2.4417	-3.2521	-2.8521	-2.925	-3.2562	-2.5938	-3.1292	397.809	243.772	225.904	479.528	183.903	323.124	482.937	396.179	506.772	361.113	514.119	454.284	167.442	467.443	237.971	515.790	0.00047135	0.0004446	0.00011634	1197.9	3.7431e-06	5.6324e-06	1216.2	335.27	4.8158e-06	4.306e-06	385.67	127.02	108.62	37.613	5.3653e-06	47.257	0.00039609	0.00037425	0.00010042	1196.9	4.3133e-06	4.102e-06	1211.3	334.62	4.2998e-06	4.1147e-06	378.48	126.79	109.22	37.634	3.9258e-06	47.189	197.259	177.853	197.273	172.903	274.214	259.619	172.760	177.517	325.093	265.458	176.783	180.769	181.598	186.558	249.509	185.672	-8191	255	
1021.916	1	1	0	0	0.10765	0.12225	0.12092	0.2554	0.059952	0.22281	0.13332	0.24246	0.13997	0.14697	0.096515	0.16839	0.20204	0.10119	0.10043	0.1719	-2.7667	-2.4333	-3.0938	-2.8146	-2.7354	-3.2104	-2.8208	-3.0375	-3.1542	-2.5875	-3.1937	-2.9667	-2.8458	-3.2687	-2.4938	-2.9125	408.646	516.075	358.526	246.080	345.468	163.385	468.973	464.102	186.835	425.882	511.697	448.948	409.828	276.222	368.428	353.041	0.00048684	0.00046043	0.00013324	1203.3	3.495e-06	1.162e-06	1214.1	333.12	4.39e-06	6.4964e-06	385.95	127.34	109.1	37.612	4.7124e-06	46.98	0.00038874	0.00037118	9.971e-05	1199.7	4.1922e-06	4.0082e-06	1212.1	334.94	4.1881e-06	4.0125e-06	379.41	127.06	109.04	37.595	4.031e-06	47.264	203.153	440.306	170.942	172.931	466.920	281.892	172.638	177.456	231.046	288.279	177.076	180.999	181.768	186.754	292.559	185.471	-8191	255	
1022.012	1	1	0	0	0.19627	0.1382	0.029755	0.16715	0.1112	0.018752	0.15856	0.12582	0.11863	0.25022	0.028032	0.12609	0.11564	0.21722	0.17094	0.19396	-2.6	-2.4042	-3.1	-3.075	-2.5	-3.2313	-2.8688	-2.8312	-3.1542	-2.4583	-3.15	-3.1021	-2.7438	-3.4062	-2.7313	-2.7271	227.271	416.224	357.823	500.050	373.432	375.380	478.610	179.720	320.162	222.347	204.306	462.369	408.768	194.314	393.749	409.182	0.00041984	0.00094132	7.1833e-05	1204.3	4.6681e-06	2.8361e-06	1218	334.3	1.8663e-06	3.6482e-06	385.17	126.89	109.41	37.754	2.6369e-06	47.052	0.00037866	0.00036239	0.00010254	1202	4.091e-06	3.9137e-06	1214.4	334.44	4.0981e-06	3.9599e-06	380.19	126.9	108.89	37.587	4.1682e-06	47.219	195.789	240.246	414.700	172.910	355.909	473.773	172.579	177.447	262.014	337.809	176.633	181.096	181.838	186.423	264.093	185.597	-8191	255	
1022.108	1	1	0	0	0.17872	0.28468	0.31515	0.075381	0.040289	0.17936	0.38812	0.065662	0.12446	0.09771	0.19985	0.21717	0.13563	0.1589	0.24301	0.10169	-2.6521	-2.5979	-3.1104	-3.2396	-2.4646	-3.3021	-2.9021	-2.8875	-3.2833	-2.7208	-3.2	-3.1375	-2.5354	-3.2229	-2.9396	-2.8312	415.854	352.338	278.091	492.982	233.897	396.323	460.285	353.494	371.023	413.850	354.412	502.196	482.345	474.526	426.422	444.120	0.0004331	0.00051509	6.3131e-05	1204.6	9.6594e-07	3.3454e-06	1212.9	334.6	2.0096e-06	4.9187e-06	386.64	127.12	109.14	37.707	2.9456e-06	47.202	0.0003729	0.00035973	0.00010651	1203.1	4.0341e-06	3.9088e-06	1216	334.82	4.0689e-06	3.9147e-06	382.1	126.95	108.89	37.61	4.2993e-06	47.173	192.180	272.758	367.127	172.832	238.509	244.084	172.450	177.513	330.673	289.350	177.092	181.013	181.666	186.456	475.431	185.430	-8191	255	
1022.227	1	1	0	0	0.19989	0.23123	0.1172	0.1725	0.18137	0.14059	0.24013	0.11734	0.14278	0.063888	0.21685	0.086153	0.17489	0.18717	0.19293	0.26909	-2.7667	-2.5396	-2.8604	-3.2938	-2.5687	-3.2313	-3.1542	-2.9938	-3.3104	-2.8187	-3.075	-3.3167	-2.6604	-3.3479	-2.9	-2.7146	356.027	358.474	282.610	444.255	332.177	446.720	486.135	442.026	255.118	385.005	176.164	431.604	329.553	492.504	337.894	168.210	0.00052435	0.0007217	6.9216e-05	1206.9	3.7546e-06	4.5908e-06	1218	335.31	5.334e-06	3.8815e-06	385.93	126.78	108.93	37.633	6.3094e-06	47.285	0.0003681	0.00036327	0.00010936	1202.5	4.0034e-06	3.9808e-06	1219.8	334.12	3.9461e-06	4.0651e-06	381.94	126.44	108.72	37.608	4.3293e-06	47.11	202.621	203.600	209.598	173.047	359.477	252.714	172.668	177.411	314.211	266.360	177.320	181.035	181.668	186.656	261.076	185.742	-8191	255	
1022.299	1	1	0	0	0.076086	0.088376	0.25969	0.21084	0.091431	0.057787	0.3535	0.11564	0.11615	0.05134	0.19489	0.17837	0.16866	0.11642	0.22107	0.21705	-2.8542	-2.6271	-2.6708	-3.2229	-2.6854	-3.1792	-3.2896	-2.7854	-3.2438	-2.8333	-2.9021	-3.375	-2.8479	-3.0729	-3.2042	-2.4396	198.342	331.783	189.825	185.028	358.937	400.190	500.008	431.874	268.899	428.205	480.230	175.495	219.924	489.108	197.875	245.754	0.00052126	0.0010203	0.00014268	1204.1	2.7678e-06	2.2163e-06	1214.5	334.76	3.2505e-06	6.6947e-06	385.28	126.89	109.23	37.875	1.002e-05	47.29	0.00035925	0.00037555	0.00010915	1200.4	3.9384e-06	4.1077e-06	1217.3	333.95	3.8987e-06	4.1728e-06	381.89	126.19	108.67	37.803	4.1905e-06	46.974	197.040	512.989	229.976	172.939	302.253	474.059	172.679	177.510	318.453	296.586	177.269	181.208	181.737	186.137	312.583	185.619	-8191	255	
1022.395	1	1	0	0	0.11197	0.10504	0.20085	0.22608	0.15152	0.18734	0.054409	0.037407	0.19973	0.091309	0.13815	0.12971	0.23342	0.029501	0.13167	0.010479	-2.7958	-2.7104	-2.6646	-3.4542	-2.4979	-2.9688	-3.1688	-2.675	-3.3792	-2.8208	-2.8354	-3.4167	-2.6375	-3.0312	-3.1104	-2.5875	518.276	212.205	451.742	508.394	170.516	480.895	486.913	445.943	223.798	368.485	191.662	413.424	460.759	274.189	483.836	258.397	0.00052086	0.0003639	7.6742e-05	1206.5	3.0818e-06	4.1917e-06	1214.9	334.13	1.2468e-06	7.8658e-06	388.03	127.16	109.62	37.816	4.9891e-06	47.171	0.00035642	0.00038567	0.00010593	1199.2	3.8848e-06	4.2049e-06	1215.8	333.55	3.8805e-06	4.2454e-06	380.96	125.89	108.81	37.886	4.0763e-06	46.832	203.785	223.481	236.399	173.009	282.415	215.562	172.656	177.612	491.963	218.520	177.063	181.204	181.667	186.508	263.161	185.856	-8191	255	
1022.491	1	1	0	0	0.12389	0.15709	0.17045	0.071984	0.13621	0.21512	0.19639	0.22326	0.27589	0.087337	0.21182	0.22013	0.29091	0.13375	0.11775	0.11687	-2.9021	-2.8979	-2.5729	-3.4229	-2.6063	-3.0583	-3.4021	-2.7125	-3.1271	-2.9292	-2.6604	-3.2708	-2.775	-2.8896	-3.0354	-2.6375	184.133	340.223	284.058	358.763	467.935	444.477	452.812	486.505	318.153	399.706	463.031	187.014	493.038	166.869	484.779	483.218	0.00049693	0.00080265	0.00011993	1205.7	2.6242e-06	3.037e-06	1213.5	334.01	3.7155e-06	4.6418e-06	387.62	126.67	108.94	37.72	1.8274e-06	47.059	0.00035949	0.00038946	0.00010342	1198.9	3.9335e-06	4.2368e-06	1214.8	333.4	3.9617e-06	4.2576e-06	380.33	125.89	108.85	37.815	4.0039e-06	46.809	192.017	194.609	287.066	172.829	302.479	250.865	172.739	177.381	292.187	427.690	177.274	181.030	181.691	186.406	299.132	185.253	-8191	255	
1022.612	1	1	0	0	0.13746	0.46294	0.1295	0.094223	0.37946	0.093959	0.36669	0.11667	0.13145	0.14773	0.10768	0.040994	0.22996	0.1859	0.27567	0.15562	-2.6542	-2.9188	-2.475	-3.4208	-2.6792	-2.8646	-3.4313	-2.6125	-3.0479	-3.0396	-2.7417	-3.2958	-3.0167	-2.9188	-3.2854	-2.8917	202.271	197.619	238.305	459.874	223.104	388.660	427.788	433.974	228.798	352.935	488.403	236.396	472.180	478.234	426.403	504.532	0.00057853	0.00069883	6.4972e-05	1202.6	3.6867e-06	4.2418e-06	1216.4	334.39	5.9443e-06	8.0746e-06	385.45	126.48	109.06	37.81	6.3962e-06	47.342	0.00037227	0.00038363	0.0001013	1195.6	4.0868e-06	4.1836e-06	1213.2	333.07	4.0583e-06	4.1494e-06	378.51	125.65	109.01	37.763	3.8609e-06	46.744	197.567	189.553	517.390	173.098	260.143	296.712	172.797	177.380	242.708	282.108	177.297	180.873	181.870	186.408	328.196	185.345	-8191	255	
1022.708	1	1	0	0	0.18012	0.21033	0.12366	0.16247	0.026575	0.22528	0.156	0.25146	0.070431	0.10132	0.098255	0.19107	0.34103	0.018188	0.059519	0.2775	-2.5479	-2.8583	-2.5083	-3.2875	-2.8688	-2.7604	-3.2042	-2.5521	-2.9958	-2.9896	-2.525	-3.0833	-2.8417	-2.5687	-3.1146	-2.5438	425.744	443.408	181.624	210.104	470.504	287.491	424.893	473.932	362.025	459.650	239.081	512.212	516.921	479.235	264.785	451.079	0.00048305	0.0011114	1.0577e-05	1205.4	7.1396e-07	7.4564e-07	1217.9	335.2	4.4907e-06	1.2217e-06	386.49	127.71	109.35	37.753	3.7126e-06	47.477	0.00037703	0.00037113	9.8215e-05	1194.3	4.1034e-06	4.0034e-06	1211.7	332.91	4.1166e-06	3.9717e-06	378.08	126.02	109.1	37.71	3.788e-06	46.878	199.058	224.923	467.900	173.003	273.359	415.175	172.747	177.441	213.935	309.831	177.150	181.061	181.624	186.588	310.894	185.581	-8191	255	
1022.804	1	1	0	0	0.21826	0.079448	0.30212	0.22375	0.076125	0.19243	0.10891	0.27275	0.12509	0.058028	0.016135	0.13328	0.1498	0.12848	0.06151	0.070486	-2.2146	-3.0187	-2.3083	-3.0979	-3.0229	-2.625	-3.425	-2.7292	-2.775	-3.0917	-2.4021	-3.2313	-2.8875	-2.6292	-3.2458	-2.6312	220.983	310.080	271.501	432.914	369.008	476.994	471.234	468.943	447.689	274.724	179.759	181.539	418.979	495.532	193.803	274.508	0.0004962	0.0001063	8.1094e-05	1207.3	1.9743e-06	3.6095e-06	1211.8	334.38	4.5455e-06	7.5882e-06	385.22	126.58	109.22	37.796	4.1904e-06	47.265	0.00037824	0.00035836	9.5907e-05	1196.1	4.1274e-06	3.9316e-06	1209.4	333.75	4.1185e-06	3.9038e-06	378.11	126.11	108.92	37.613	3.705e-06	47.045	200.425	224.372	237.098	172.949	364.516	314.385	172.772	177.388	317.651	369.459	177.066	181.031	181.657	186.267	281.614	185.575	-8191	255	
1022.876	1	1	0	0	0.15386	0.14458	0.27657	0.28643	0.16975	0.083434	0.091341	0.31279	0.087675	0.30858	0.16457	0.10894	0.052908	0.22387	0.12934	0.23784	-2.2271	-3.1771	-2.4062	-3.2271	-3.0417	-2.3896	-3.3771	-2.7979	-2.6292	-3.2417	-2.8125	-3.0125	-3.1646	-2.5271	-2.9167	-2.975	255.265	517.429	370.322	463.801	493.434	305.758	339.858	464.465	232.162	514.915	506.794	403.521	447.845	492.245	355.375	431.709	0.00052926	0.00017187	9.6326e-05	1203.4	2.1018e-06	6.8744e-06	1212.8	335.62	3.4117e-06	6.38e-06	385.85	127.09	109.03	37.781	3.1085e-06	47.36	0.00037561	0.00035089	9.5402e-05	1197.2	4.0325e-06	3.8713e-06	1209.6	334.54	4.029e-06	3.8542e-06	378.26	126.37	108.7	37.572	3.7528e-06	47.157	198.310	377.515	176.922	172.983	277.414	338.075	172.714	177.508	259.112	288.635	176.772	181.201	181.595	186.454	227.292	185.683	-8191	255	
1022.997	1	1	0	0	0.22909	0.092536	0.18396	0.20074	0.15736	0.16717	0.21287	0.25482	0.024583	0.26221	0.17799	0.30873	0.06567	0.032887	0.17214	0.073948	-2.1562	-3.2979	-2.3688	-3.0062	-3.0479	-2.2812	-3.2417	-2.9583	-2.675	-3.2562	-2.7167	-2.7208	-3.2062	-2.5292	-2.9646	-2.9229	386.499	221.215	446.734	359.400	464.112	193.477	478.405	498.979	290.225	312.105	470.031	497.551	498.753	345.669	251.561	390.784	0.00050999	0.00027982	7.9434e-05	1203.2	1.7643e-06	1.6144e-06	1217.3	334.19	4.8557e-06	4.6224e-06	384.68	126.51	109.21	37.69	3.3843e-06	47.198	0.00036703	0.0003479	9.6266e-05	1200.1	3.9547e-06	3.8178e-06	1211.4	334.19	3.9296e-06	3.785e-06	378.68	126.43	108.48	37.451	3.8481e-06	47.042	198.968	235.463	517.689	173.098	418.315	325.805	172.639	177.377	302.791	265.374	176.918	181.196	181.920	186.696	291.380	185.807	-8191	255	
1023.093	1	1	0	0	0.26325	0.24181	0.20292	0.046806	0.022257	0.048381	0.09895	0.28071	0.074726	0.12711	0.11689	0.20768	0.24835	0.025088	0.2096	0.17526	-1.9688	-3.0563	-2.4688	-3.0958	-3.2062	-2.6271	-3.2	-3.0083	-2.3208	-3.1875	-2.6333	-2.9896	-3.3604	-2.3625	-3.0375	-3.1021	163.514	304.933	443.943	406.635	447.284	416.726	205.100	479.223	479.833	390.197	413.514	437.858	463.201	454.305	256.435	400.061	0.00040252	0.00065155	5.0508e-05	1204.2	3.4209e-06	3.3894e-06	1213.3	335.11	1.9646e-06	5.5871e-06	386.01	126.96	109.26	37.733	3.0124e-06	47.128	0.00035626	0.00033979	9.9525e-05	1198	3.8335e-06	3.7253e-06	1210.8	334.09	3.8243e-06	3.691e-06	379.91	126.28	108.35	37.373	3.9447e-06	46.914	197.409	442.230	206.286	173.024	380.767	282.603	172.746	177.584	287.323	312.980	177.011	181.295	181.868	186.561	180.159	185.475	-8191	255	
1023.189	1	1	0	0	0.06199	0.13865	0.27165	0.0076231	0.12134	0.1538	0.063432	0.50388	0.18905	0.22496	0.15972	0.12159	0.098392	0.064235	0.2231	0.2214	-1.9667	-3.1583	-2.7021	-2.8667	-3.3312	-2.6521	-3.1667	-3.1167	-2.4813	-3.1333	-2.8333	-2.6958	-3.1646	-2.6479	-2.9229	-3.0667	186.055	448.311	516.129	401.297	313.337	458.252	472.854	506.443	389.843	332.820	377.453	418.681	484.592	412.934	378.837	427.352	0.00047834	0.00093219	0.00014499	1210.5	1.9206e-06	5.9152e-06	1213.4	334.4	4.8573e-06	3.9108e-06	386.47	126.72	109.2	37.769	4.6155e-06	47.212	0.00034797	0.00033408	0.00010104	1198.3	3.7425e-06	3.6692e-06	1213.3	333.15	3.743e-06	3.6671e-06	379.69	125.84	108.16	37.429	3.9895e-06	46.868	200.771	254.375	220.099	173.035	359.442	225.159	172.736	177.450	302.258	235.359	176.837	181.176	181.644	186.936	278.045	185.694	-8191	255	
1023.308	1	1	0	0	0.2215	0.17071	0.10618	0.08263	0.084454	0.16619	0.45055	0.3023	0.071576	0.054518	0.029721	0.18361	0.27912	0.14376	0.075795	0.099277	-1.9667	-2.9354	-2.7062	-2.7271	-3.1937	-2.5583	-2.8708	-3.2	-2.4104	-3.0708	-3.0083	-2.7	-3.3771	-2.7313	-2.7875	-3.2875	243.514	273.748	217.565	514.352	488.191	408.130	415.803	443.970	470.840	354.402	441.404	406.289	440.082	257.858	403.964	186.664	0.00046863	0.00063107	0.00011164	1202.4	4.9811e-06	3.9082e-06	1210.6	334.26	1.5922e-06	9.5268e-06	385.88	126.36	109.47	37.728	5.7124e-06	47.103	0.00034173	0.00033799	0.00010225	1194	3.6503e-06	3.7623e-06	1211.2	332.63	3.6622e-06	3.7602e-06	379.57	125.62	107.93	37.474	3.9452e-06	46.658	207.063	508.238	282.487	172.955	275.359	282.063	172.692	177.294	221.537	214.734	176.886	180.955	181.854	186.699	254.389	185.420	-8191	255	
1023.404	1	1	0	0	0.074706	0.27036	0.096585	0.38044	0.071214	0.25395	0.22979	0.13874	0.18028	0.13747	0.17528	0.21123	0.17507	0.14016	0.082181	0.14256	-1.9042	-2.9604	-2.8708	-2.5667	-3.1937	-2.7708	-2.8312	-3.2896	-2.5208	-2.8937	-2.8625	-2.5729	-3.25	-2.9104	-2.6729	-3.2542	419.962	185.326	160.045	487.601	333.187	195.676	486.586	501.439	490.559	256.977	238.355	178.511	224.085	482.178	231.856	187.453	0.00045706	0.00031511	9.4721e-05	1201	3.6877e-06	3.7262e-06	1211	333.88	4.8387e-06	3.6775e-06	386.78	126.94	109.07	37.845	2.37e-06	47.119	0.00033431	0.00034849	9.9705e-05	1191.7	3.569e-06	3.8704e-06	1208.9	332.27	3.6193e-06	3.8556e-06	378.93	125.52	108.08	37.599	3.8503e-06	46.588	200.052	190.108	293.638	172.969	328.015	248.491	172.992	177.270	273.123	241.495	176.830	180.955	181.758	186.348	254.438	185.871	-8191	255	
1023.500	1	1	0	0	0.21423	0.29578	0.26924	0.16824	0.070671	0.21917	0.11008	0.2102	0.11765	0.18822	0.1324	0.21515	0.073775	0.21364	0.17258	0.17859	-2.0083	-2.9083	-2.8563	-2.7354	-3.1458	-2.6458	-2.8917	-3.2646	-2.4354	-2.9062	-3.2021	-2.5438	-3.2438	-2.8688	-2.5354	-3.3104	464.772	227.188	512.123	453.558	386.933	219.052	180.987	393.940	214.722	174.807	309.010	465.221	182.503	451.137	393.521	428.651	0.00051845	0.00016217	0.00010645	1205.1	4.3337e-06	4.7326e-06	1209.2	334.57	1.4587e-06	4.3468e-06	385.35	126.61	109.43	37.686	2.8216e-06	47.514	0.00033466	0.0003595	9.6973e-05	1191.5	3.5897e-06	3.934e-06	1208.7	331.99	3.6581e-06	3.9442e-06	377.36	125.29	108.24	37.585	3.76e-06	46.642	193.095	271.648	289.396	173.142	272.922	332.134	172.596	177.576	281.270	337.083	177.337	181.075	181.572	186.441	235.451	185.582	-8191	255	
1023.596	1	1	0	0	0.095913	0.049559	0.12531	0.18179	0.19104	0.15131	0.24802	0.068433	0.13964	0.17415	0.35818	0.31259	0.23431	0.18159	0.25989	0.092026	-2.2292	-2.675	-2.9771	-2.4708	-2.9458	-2.9375	-2.7438	-3.2458	-2.6083	-2.7958	-3.1104	-2.5687	-3.0146	-2.9479	-2.4292	-3.2333	400.626	334.161	262.413	486.830	260.588	313.754	383.816	326.445	246.307	441.767	493.546	203.425	237.537	438.014	222.534	168.691	0.00044927	0.00044637	0.00010024	1202.4	7.8925e-07	4.1473e-06	1211.9	334.34	5.9807e-06	4.9508e-06	384.86	127.23	109.09	37.847	3.3053e-06	47.443	0.00034245	0.00036175	9.417e-05	1188.9	3.7025e-06	3.9026e-06	1208	331.8	3.7767e-06	3.8912e-06	377.28	125.29	108.26	37.627	3.693e-06	46.497	191.950	295.719	223.917	172.908	203.953	326.588	172.850	177.430	317.973	260.115	177.077	181.089	181.827	186.689	306.073	185.717	-8191	255	
1023.692	1	1	0	0	0.2914	0.11446	0.036077	0.22258	0.20365	0.0044002	0.28232	0.19794	0.059546	0.17779	0.19009	0.17188	0.30259	0.15465	0.1146	0.24354	-2.2438	-2.7792	-3.0271	-2.5083	-3.0083	-3.0062	-2.5	-3.0458	-2.9542	-2.5687	-3.3583	-2.6708	-3.0083	-3.1021	-2.3667	-3.1667	182.181	231.724	259.540	503.247	514.146	260.423	465.013	483.933	174.456	415.506	484.627	235.425	471.786	167.307	427.282	168.046	0.00043518	0.00028133	0.00012517	1208.5	3.6844e-06	5.6439e-06	1215.9	334.05	3.8815e-07	5.4963e-06	384.82	126.66	109.12	37.49	5.3092e-06	46.966	0.00035291	0.00035134	9.2565e-05	1190.8	3.8474e-06	3.8383e-06	1209.2	331.77	3.8905e-06	3.8414e-06	376.87	125.16	108.58	37.477	3.6319e-06	46.492	203.723	223.167	202.319	172.936	375.313	345.063	172.754	177.597	362.430	308.828	176.839	181.074	181.643	186.493	292.417	185.497	-8191	255	
1023.788	1	1	0	0	0.16392	0.17366	0.14351	0.23315	0.12692	0.15438	0.27351	0.15888	0.11562	0.1613	0.15812	0.19264	0.14384	0.17125	0.10181	0.15017	-2.3	-2.5563	-3.0625	-2.7375	-2.7667	-3.0396	-2.575	-3.2583	-2.6688	-2.5187	-3.3937	-2.6604	-2.9271	-3.1	-2.4146	-3.1625	366.817	189.230	274.886	466.660	254.128	375.054	409.053	414.748	176.585	179.673	503.171	510.131	191.368	410.756	203.949	167.896	0.00052284	0.00028806	0.00010533	1201.8	2.4088e-06	3.6127e-06	1206.8	335.58	2.1527e-06	4.1105e-06	387.02	127.25	109.16	37.681	1.5912e-06	47.277	0.00036197	0.00034356	9.1964e-05	1190.7	3.9114e-06	3.7701e-06	1204.5	332.31	3.9382e-06	3.7731e-06	376.39	125.58	108.74	37.411	3.6052e-06	46.624	197.080	283.475	336.958	173.097	333.222	285.499	172.887	177.685	235.288	331.553	176.983	180.993	181.772	186.552	436.641	185.441	-8191	255	
1023.909	1	1	0	0	0.062428	0.092535	0.18102	0.22509	0.050505	0.07947	0.1957	0.14238	0.24688	0.31317	0.26352	0.35877	0.15135	0.14619	0.11671	0.27066	-2.5021	-2.3958	-3.2854	-2.7021	-2.8604	-3.0896	-2.5854	-3.1188	-2.8208	-2.3917	-3.2417	-2.6542	-2.7667	-3.1917	-2.5271	-2.8187	432.085	364.342	174.718	464.964	240.762	468.519	420.353	499.079	254.820	323.925	435.125	194.440	242.792	417.439	421.595	451.477	0.0004842	0.00048204	6.262e-05	1203.8	2.7789e-06	4.8453e-06	1214.8	333.87	2.7151e-06	1.0202e-06	386.34	127.15	109.41	37.733	3.0914e-06	46.828	0.00035937	0.00033809	9.0549e-05	1193.3	3.9124e-06	3.6843e-06	1206.7	332.75	3.8683e-06	3.6964e-06	375.77	125.79	108.58	37.416	3.5768e-06	46.713	201.077	229.056	235.507	173.051	227.768	341.800	172.821	177.586	345.285	164.547	177.022	181.041	181.797	186.460	276.639	185.627	-8191	255	
1024.005	1	1	0	0	0.29883	0.10541	0.22006	0.15005	0.053818	0.05814	0.24657	0.22006	0.07551	0.076308	0.15402	0.17112	0.15053	0.16361	0.033319	0.17308	-2.4833	-2.4958	-3.0771	-2.8667	-2.6208	-3.1833	-2.5521	-3.1063	-3.225	-2.4667	-3.0563	-2.8083	-2.6042	-3.2042	-2.4917	-3.0229	201.981	265.761	194.052	451.774	195.246	378.032	449.980	492.921	438.694	455.184	171.474	504.942	409.405	415.313	341.622	384.366	0.00046613	0.00024447	7.4776e-05	1204.6	1.4936e-06	3.5319e-06	1210.1	334.48	2.7607e-06	7.8326e-06	384.89	126.82	108.97	37.77	1.2348e-06	47.256	0.00035288	0.00033532	9.0261e-05	1194.8	3.8123e-06	3.623e-06	1205.7	333.51	3.7791e-06	3.6497e-06	376.2	125.95	108.34	37.344	3.6354e-06	46.895	201.739	222.397	513.713	172.918	288.684	463.307	172.553	177.490	255.907	275.336	176.858	181.103	181.824	186.828	191.515	185.813	-8191	255	
1024.100	1	1	0	0	0.052683	0.23245	0.1203	0.26637	0.29094	0.24851	0.043433	0.12311	0.10275	0.11412	0.17683	0.31035	0.2543	0.18917	0.16696	0.34396	-2.6479	-2.3625	-3.0042	-2.9396	-2.6125	-3.1375	-2.875	-2.9667	-3.1854	-2.3292	-3.2417	-3.0062	-2.5854	-3.2104	-2.6542	-2.8042	231.313	486.089	237.908	458.395	353.631	453.410	411.993	412.794	160.628	479.426	436.310	458.675	469.518	517.972	441.872	459.308	0.00051555	0.00065442	0.00021338	1204.8	3.0852e-06	4.2705e-06	1211.3	333.25	1.3146e-06	4.9655e-06	386.17	126.75	109.57	37.688	7.7011e-06	47.198	0.00034319	0.00033075	9.1801e-05	1195.2	3.699e-06	3.5467e-06	1206.7	333.12	3.6636e-06	3.559e-06	377.77	125.74	108.25	37.268	3.7382e-06	46.847	194.409	509.168	518.934	172.894	337.938	309.854	172.838	177.142	200.704	245.605	177.193	181.099	181.784	186.329	251.360	185.779	-8191	255	
1024.173	1	1	0	0	0.23421	0.2103	0.18701	0.42361	0.15428	0.12731	0.1791	0.34815	0.11753	0.15785	0.28228	0.22935	0.074398	0.094234	0.12016	0.10104	-2.6333	-2.4938	-2.9542	-3.0708	-2.3375	-3.0375	-2.8458	-2.8042	-3.2646	-2.5708	-2.9979	-2.9979	-2.5792	-3.1521	-2.5708	-2.7396	293.699	225.484	216.650	468.392	470.495	455.436	436.355	470.937	329.800	283.060	441.345	470.140	508.115	181.347	349.467	263.521	0.00051716	0.00012347	8.9787e-05	1203.2	2.0278e-06	2.2819e-06	1216.1	335.69	4.6148e-06	9.0775e-06	384.47	126.37	109.29	37.814	1.5937e-06	47.449	0.0003353	0.00032489	9.523e-05	1192.8	3.6719e-06	3.5094e-06	1208.6	333.26	3.6122e-06	3.5554e-06	378.05	125.56	108.12	37.29	3.8751e-06	46.872	205.720	249.194	245.204	173.075	304.879	324.020	172.537	177.586	301.831	331.320	177.074	181.170	181.623	186.367	181.595	185.656	-8191	255	
1024.292	1	1	0	0	0.10498	0.05666	0.03022	0.21445	0.075491	0.22765	0.10463	0.1652	0.086526	0.18173	0.33744	0.2186	0.25066	0.26704	0.18061	0.19882	-2.775	-2.5104	-2.9896	-3.1292	-2.2354	-3.1021	-2.8583	-2.7	-3.125	-2.4833	-2.7375	-3.2313	-2.5938	-3.1771	-2.7583	-2.4813	183.734	401.826	200.937	496.252	178.945	413.854	449.619	509.026	323.439	442.852	484.477	190.940	387.662	480.683	202.478	457.825	0.00042056	0.00032019	0.00015951	1204.2	8.9834e-07	4.7995e-06	1216.1	335.21	3.9348e-06	1.7897e-06	385.35	126.91	109.3	37.653	1.2242e-06	46.981	0.00033037	0.00032919	9.8343e-05	1192.6	3.625e-06	3.5813e-06	1211.9	332.7	3.5911e-06	3.6512e-06	379.16	125.45	108.02	37.307	3.9118e-06	46.584	189.705	251.443	202.942	172.977	171.174	504.841	172.679	177.653	258.061	371.293	177.276	181.256	181.705	186.555	288.028	185.774	-8191	255	
1024.388	1	1	0	0	0.2109	0.037263	0.088404	0.13356	0.33672	0.13594	0.2716	0.11964	0.16068	0.18426	0.18067	0.0261	0.19796	0.17298	0.095263	0.20984	-2.85	-2.5625	-2.6458	-3.2896	-2.3979	-3.0771	-2.8979	-2.6896	-3.3146	-2.6667	-2.7792	-3.1208	-2.6333	-3.0771	-3.0021	-2.3958	336.959	333.321	491.640	453.702	215.925	412.762	471.055	446.386	467.447	491.239	356.870	373.283	501.059	370.035	319.064	504.777	0.00044732	0.00094997	0.00016027	1202.7	1.6595e-06	6.1428e-06	1211.3	334.93	3.45e-06	1.9905e-06	384.71	126.29	109.22	37.579	1.1099e-06	47.244	0.00032713	0.00033792	9.9431e-05	1191.6	3.5852e-06	3.728e-06	1209.6	332.66	3.5363e-06	3.7648e-06	378.3	125.3	107.95	37.488	3.8317e-06	46.552	191.550	173.595	197.626	173.030	376.362	349.788	172.665	177.420	235.987	287.117	177.050	181.161	181.728	186.525	342.223	185.658	-8191	255	
1024.484	1	1	0	0	0.011926	0.14064	0.15441	0.20715	0.17454	0.057075	0.37608	0.28906	0.16621	0.40256	0.20403	0.17496	0.074544	0.077635	0.14881	0.22031	-2.7062	-2.6354	-2.5938	-3.2208	-2.3625	-3.0604	-3.1562	-2.5083	-3.1271	-2.8771	-2.7042	-3.2562	-2.5792	-2.8604	-2.9375	-2.525	198.665	400.468	518.975	475.555	449.674	401.915	422.525	448.298	502.855	406.258	403.671	469.096	471.276	442.897	433.409	459.500	0.0004391	0.00027312	7.6954e-05	1207.3	5.2241e-06	3.183e-06	1211.1	334.37	1.0242e-06	4.9313e-06	385.55	126.68	109.32	37.76	7.4093e-06	47.333	0.0003232	0.00034722	9.6405e-05	1189.6	3.534e-06	3.8164e-06	1208.4	332.08	3.4965e-06	3.856e-06	377.34	125.34	107.97	37.578	3.724e-06	46.567	201.218	494.206	245.509	173.030	282.611	320.696	172.893	177.465	259.641	289.902	176.843	181.149	182.030	186.452	318.124	185.729	-8191	255	
1024.580	1	1	0	0	0.14333	0.094838	0.14251	0.28799	0.11814	0.2116	0.070138	0.29576	0.22508	0.19723	0.067152	0.18802	0.20953	0.14105	0.16553	0.14023	-2.6667	-2.6875	-2.7062	-3.2396	-2.5667	-2.8146	-3.1167	-2.6833	-2.8333	-2.8521	-2.5229	-3.35	-2.45	-2.7646	-3.2458	-2.475	517.191	486.020	296.453	482.026	390.024	244.500	486.038	411.964	344.436	316.521	221.749	462.887	355.772	470.303	443.851	487.822	0.00050031	0.00082906	0.00010879	1207.4	2.7998e-06	3.8237e-06	1213.2	332.66	3.8279e-06	1.2719e-06	387.27	127.29	109.19	37.731	4.8995e-06	47.287	0.00032704	0.0003519	9.3743e-05	1189.1	3.5936e-06	3.8513e-06	1206	331.55	3.6174e-06	3.8648e-06	377.28	125.12	108.36	37.615	3.6448e-06	46.598	197.805	338.185	250.725	173.014	268.145	307.110	172.676	177.287	241.639	264.243	177.143	181.046	181.824	186.490	266.339	185.636	-8191	255	
1024.677	1	1	0	0	0.060256	0.13915	0.097211	0.24588	0.097302	0.21725	0.26319	0.28203	0.22818	0.23902	0.1903	0.25326	0.28117	0.16509	0.1272	0.25794	-2.5833	-2.8312	-2.45	-3.55	-2.8	-2.7979	-3.2354	-2.6	-2.9208	-3.0625	-2.7792	-3.3458	-2.7271	-2.8833	-3.1646	-2.5708	324.980	389.985	202.417	195.006	387.706	323.217	502.667	474.936	234.424	497.563	163.153	496.347	416.601	485.683	164.288	480.561	0.00057565	0.0007438	0.00012376	1205.9	3.2542e-06	2.8858e-06	1211.2	334	4.0828e-06	4.5534e-06	386.96	127.42	109.38	37.923	3.6391e-06	47.35	0.00034082	0.00035143	9.2436e-05	1189.6	3.7116e-06	3.8138e-06	1207.4	332.02	3.7065e-06	3.7776e-06	376.98	125.35	108.64	37.594	3.5476e-06	46.609	197.214	278.450	238.486	173.186	307.597	248.935	172.739	177.424	260.743	260.613	177.006	180.942	181.639	186.721	375.122	185.796	-8191	255	
1024.773	1	1	0	0	0.14381	0.2171	0.022299	0.18531	0.19013	0.21325	0.081684	0.085043	0.10479	0.32111	0.30493	0.32472	0.11921	0.35759	0.01086	0.053854	-2.4062	-3.0542	-2.5417	-3.2438	-2.7479	-2.4917	-3.3771	-2.5438	-2.7771	-3.0771	-2.4917	-3.1729	-2.8708	-2.725	-3.1354	-2.6167	408.220	325.730	216.780	514.010	368.948	367.843	442.949	421.439	398.597	292.281	198.598	475.176	378.539	500.585	264.562	275.768	0.00050345	0.00038734	0.00011329	1210.5	3.5763e-07	5.3895e-06	1212.3	334.47	2.8578e-06	1.3537e-06	388.29	128.34	109.49	38.009	2.0683e-06	47.278	0.00034503	0.00033736	8.9514e-05	1190.2	3.7588e-06	3.6825e-06	1206.1	332.15	3.7823e-06	3.6357e-06	376.64	125.72	108.84	37.551	3.4872e-06	46.615	195.338	381.040	220.687	172.978	423.601	290.096	172.552	177.565	239.375	254.876	176.997	181.070	181.668	186.848	356.316	185.453	-8191	255	
1024.869	1	1	0	0	0.12783	0.22498	0.15517	0.29129	0.087868	0.14132	0.2547	0.16395	0.23053	0.09427	0.22244	0.18087	0.19926	0.046173	0.21912	0.069213	-2.4292	-3.1021	-2.2729	-3.1708	-2.8187	-2.6604	-3.3208	-2.625	-2.8187	-3.1271	-2.4021	-3.125	-2.9896	-2.6292	-3.1875	-2.6271	465.792	486.643	254.747	184.407	460.678	241.995	460.097	464.362	395.383	183.450	194.299	227.121	446.715	363.192	281.288	382.634	0.00041907	0.00063063	0.00013458	1203.8	2.9977e-06	3.1698e-06	1214.2	334.98	2.5453e-06	4.4109e-06	387.24	127.06	110	37.899	3.7329e-06	47.611	0.00034903	0.00033144	8.8482e-05	1189.5	3.7825e-06	3.6236e-06	1207	332.67	3.7988e-06	3.5684e-06	376.06	125.68	108.8	37.536	3.4592e-06	46.879	185.018	309.669	202.458	172.848	416.280	236.108	172.903	177.476	184.564	258.618	176.901	181.207	181.531	186.451	390.659	185.752	-8191	255	
1024.989	1	1	0	0	0.097353	0.10133	0.18709	0.28201	0.21453	0.15886	0.1308	0.17285	0.16587	0.069205	0.11143	0.19711	0.11413	0.12434	0.11534	0.33888	-2.1042	-3.0812	-2.4188	-3.2521	-3.0146	-2.4417	-3.1708	-2.7354	-2.6021	-3.0792	-2.6229	-3.1042	-3.0604	-2.4729	-3.0542	-2.7833	401.016	333.303	402.945	512.691	180.748	258.906	432.421	461.253	266.156	297.255	306.024	201.353	494.148	185.020	403.894	494.997	0.00058279	0.00077161	0.00012441	1206.6	2.7979e-06	1.327e-06	1213.5	334.98	4.3415e-06	5.2036e-06	386.6	127.53	109.33	37.931	5.0185e-06	47.421	0.00034817	0.00032616	8.8789e-05	1193.6	3.7358e-06	3.5884e-06	1205.7	333.06	3.7185e-06	3.5483e-06	375.79	126.11	108.49	37.474	3.442e-06	46.867	202.604	271.811	177.997	172.879	302.884	263.082	172.571	177.294	346.584	248.721	176.892	181.048	181.480	186.686	243.806	185.549	-8191	255	
1025.086	1	1	0	0	0.055898	0.13219	0.096421	0.18513	0.17122	0.2428	0.18209	0.3262	0.16485	0.20664	0.079076	0.16735	0.11936	0.17642	0.20481	0.13192	-2.0375	-3.0854	-2.5875	-2.9625	-3.1125	-2.4792	-3.1312	-2.9292	-2.5625	-3.2812	-2.4979	-2.8063	-3.1625	-2.4417	-2.8646	-2.9958	382.046	373.684	406.753	515.012	350.637	343.496	393.614	468.905	289.231	414.227	238.373	418.507	512.210	516.249	204.092	380.966	0.00045536	0.0003709	1.2765e-05	1204.5	3.113e-06	3.6177e-06	1214.4	336.15	2.6653e-06	1.1444e-06	384.44	127.18	109.96	37.906	4.6871e-06	47.33	0.00033678	0.00032071	8.8635e-05	1194.7	3.6372e-06	3.5288e-06	1205.6	333.88	3.6298e-06	3.4733e-06	375.91	126.2	108.62	37.389	3.5486e-06	46.946	205.345	263.814	333.213	172.988	387.193	365.959	172.787	177.534	304.504	407.513	176.844	181.284	181.597	186.652	221.192	185.946	-8191	255	
1025.180	1	1	0	0	0.10507	0.10341	0.14105	0.057576	0.14912	0.2285	0.12119	0.26815	0.1168	0.10214	0.039313	0.25572	0.27604	0.098095	0.12729	0.23214	-1.9312	-3.1417	-2.675	-2.8063	-3.0687	-2.5542	-3.1896	-3.075	-2.4313	-3.3958	-2.8375	-2.9104	-3.4208	-2.5271	-3.1917	-3.0229	302.047	319.812	341.464	169.722	166.386	229.281	418.911	242.761	234.366	250.849	505.082	374.811	485.278	284.763	387.128	515.170	0.0004493	0.00024056	0.00012074	1206.7	5.8758e-06	5.3183e-06	1215.6	335.39	3.058e-06	1.5889e-06	385.55	127.58	110.18	37.88	6.6548e-06	47.451	0.00033359	0.00031548	9.2149e-05	1194.6	3.5823e-06	3.4757e-06	1207.9	333.69	3.5946e-06	3.4512e-06	377.66	126.35	108.52	37.481	3.7192e-06	46.95	201.710	271.954	161.830	173.015	341.451	304.625	172.731	177.483	264.285	175.054	177.093	181.102	181.772	186.424	233.239	185.535	-8191	255	
1025.278	1	1	0	0	0.14368	0.09665	0.10763	0.2708	0.064378	0.13116	0.1789	0.17452	0.11963	0.11463	0.17164	0.16326	0.1444	0.18526	0.19978	0.42267	-1.9813	-3.0792	-2.7667	-2.8583	-3.1917	-2.4625	-3.0854	-3.15	-2.3479	-3.0458	-2.8688	-2.6521	-3.3	-2.7313	-2.8458	-3.2021	163.939	435.047	284.351	490.040	288.882	204.657	466.373	497.622	290.629	218.945	513.920	472.755	457.049	453.897	465.365	501.936	0.00051799	0.00031315	7.1567e-05	1208.4	2.7297e-06	3.7422e-06	1213.1	335.41	4.9071e-06	3.3223e-06	388.12	127.21	109.6	37.979	8.3538e-06	47.368	0.00033005	0.00031676	9.5648e-05	1195.4	3.5536e-06	3.5101e-06	1210.8	333.5	3.5677e-06	3.4806e-06	379.34	126.07	108.39	37.499	3.8167e-06	46.851	199.767	218.574	458.858	173.188	211.409	241.517	172.765	177.434	330.892	274.233	176.790	180.903	181.617	186.517	268.931	185.704	-8191	255	
1025.397	1	1	0	0	0.26871	0.20916	0.18265	0.31235	0.10671	0.15394	0.21426	0.16858	0.20776	0.11006	0.24998	0.20527	0.14522	0.14624	0.086355	0.2428	-2.0333	-2.9646	-2.7333	-2.7687	-3.0896	-2.6542	-2.9688	-3.1083	-2.2771	-3.0271	-2.9479	-2.5542	-3.2958	-2.5792	-2.75	-3.2646	422.272	510.289	187.477	442.060	261.023	453.165	205.780	462.833	433.906	289.872	474.441	461.524	171.829	469.121	446.717	486.008	0.00052539	0.00019977	0.00014403	1206.5	4.8822e-06	6.4414e-06	1213.7	335.19	8.2345e-06	7.0236e-06	384.68	127.31	110.14	37.83	4.7814e-06	47.584	0.00032896	0.0003252	9.7995e-05	1194.8	3.5024e-06	3.5874e-06	1211.5	332.95	3.5583e-06	3.6222e-06	378.4	125.89	108.35	37.534	3.8448e-06	46.786	194.964	390.896	403.799	172.869	337.495	263.761	172.647	177.539	277.457	486.855	177.115	181.118	181.575	186.581	392.966	185.621	-8191	255	
1025.468	1	1	0	0	0.015106	0.25364	0.21607	0.26385	0.10541	0.29486	0.26125	0.28667	0.005558	0.09752	0.32672	0.38301	0.10075	0.2765	0.10121	0.1445	-1.9646	-2.9333	-3.0187	-2.5125	-3.2292	-2.7458	-2.6458	-3.2292	-2.4646	-2.9771	-3.2042	-2.725	-3.0938	-2.8958	-2.7708	-3.3521	321.555	245.325	183.458	454.707	355.775	197.613	451.620	161.824	424.470	360.846	515.323	499.456	383.897	506.231	267.949	406.357	0.00050881	0.00055257	0.00011413	1204.9	2.1681e-06	3.8702e-06	1216.9	335.63	3.6964e-06	5.3152e-06	386.77	127.25	109.94	37.932	5.0769e-06	47.533	0.0003246	0.0003375	9.7194e-05	1193.5	3.4792e-06	3.7539e-06	1212.2	332.97	3.54e-06	3.762e-06	378.45	125.71	108.26	37.67	3.7954e-06	46.794	198.257	218.576	182.277	173.034	341.781	239.500	172.659	177.539	202.852	285.208	176.974	181.234	181.736	186.888	291.519	185.665	-8191	255	
1025.566	1	1	0	0	0.30835	0.12931	0.22946	0.12416	0.16495	0.38474	0.21855	0.27063	0.057498	0.23605	0.036796	0.25781	0.1595	0.25217	0.32945	0.25966	-2.0729	-2.8479	-3.0958	-2.475	-3.1708	-2.7167	-2.65	-3.3104	-2.6083	-2.8875	-3.125	-2.5333	-3.2313	-2.9625	-2.7167	-3.3604	160.057	230.012	208.545	229.959	276.387	470.314	460.994	368.071	300.940	241.453	454.633	242.258	201.452	463.509	362.676	442.478	0.00051088	0.00065646	9.6291e-05	1207.9	3.8049e-06	4.1856e-06	1220	335.79	2.5864e-06	5.5552e-06	388.16	127.33	109.94	37.968	5.3698e-06	47.582	0.00032808	0.00035042	9.5136e-05	1193.2	3.5299e-06	3.8728e-06	1211.9	333.12	3.6102e-06	3.878e-06	378.54	125.59	108.49	37.697	3.7575e-06	46.745	191.455	184.308	234.589	173.099	375.195	222.298	172.853	177.519	188.065	183.089	177.013	181.200	181.427	186.408	280.255	185.704	-8191	255	
1025.685	1	1	0	0	0.11615	0.14199	0.14821	0.29089	0.23246	0.14116	0.34178	0.23546	0.15034	0.094508	0.057406	0.11571	0.19172	0.12329	0.11921	0.26258	-2.2854	-2.7792	-3.0021	-2.6146	-3.0229	-3.0021	-2.6917	-3.3646	-2.7562	-2.8042	-3.2292	-2.4813	-3.0896	-3.0042	-2.3896	-3.1479	291.043	463.513	293.438	482.667	216.463	407.416	461.777	498.489	345.331	215.273	234.515	180.803	193.874	510.847	413.404	474.762	0.00053985	1.3496e-05	0.00010766	1203.2	2.0649e-06	3.1504e-06	1215.3	335.65	7.4795e-06	2.1069e-06	387	127.23	109.52	37.76	2.702e-06	47.433	0.00033734	0.00035777	9.3614e-05	1190.8	3.6862e-06	3.9084e-06	1209.9	332.12	3.7141e-06	3.859e-06	377.68	125.58	108.76	37.648	3.6226e-06	46.618	215.577	202.244	482.264	173.098	330.140	298.876	172.515	177.505	258.282	432.480	177.231	180.996	181.710	186.548	294.088	185.680	-8191	255	
1025.781	1	1	0	0	0.1182	0.09864	0.24895	0.2434	0.092279	0.20784	0.38481	0.1482	0.10307	0.098594	0.01465	0.16818	0.28015	0.27996	0.37586	0.10477	-2.2875	-2.8042	-3.1354	-2.5292	-3.0021	-3.0146	-2.7958	-3.2979	-2.6646	-2.8208	-3.2896	-2.6792	-2.9896	-2.9562	-2.475	-3.2687	473.477	279.578	292.807	483.074	352.332	375.154	507.559	161.509	222.261	223.811	448.193	504.174	496.668	490.510	411.719	297.838	0.00043402	9.6595e-05	5.579e-05	1206.9	8.3421e-06	3.2947e-06	1216.3	334.85	3.8056e-06	7.05e-06	387.66	127.18	109.82	37.865	4.696e-06	47.407	0.0003465	0.00034794	9.0966e-05	1190.8	3.7564e-06	3.7421e-06	1208.4	331.69	3.7842e-06	3.7505e-06	377.15	125.34	108.82	37.545	3.5484e-06	46.663	192.917	471.048	170.667	172.872	265.736	254.674	172.671	177.275	270.092	313.962	176.827	181.147	181.510	186.594	286.215	185.661	-8191	255	
1025.878	1	1	0	0	0.22165	0.1452	0.10301	0.0050615	0.22215	0.18947	0.16045	0.28561	0.042294	0.11944	0.10694	0.1868	0.17898	0.087928	0.10524	0.3558	-2.3729	-2.5792	-3.1625	-2.5938	-2.975	-2.975	-2.5833	-3.2833	-2.675	-2.6271	-3.2062	-2.7562	-2.8083	-3.2625	-2.4875	-3.1104	345.431	223.666	328.007	185.174	455.147	417.553	476.060	357.822	169.157	510.177	458.805	497.486	514.806	434.265	168.438	476.696	0.00052038	0.00022483	0.00011935	1207.2	4.8057e-06	1.7412e-06	1217.4	336.19	4.4157e-06	4.388e-06	388.07	126.99	110.12	37.949	3.0638e-06	47.63	0.00034939	0.00033482	8.8487e-05	1192.2	3.7814e-06	3.6215e-06	1206.1	332.67	3.7965e-06	3.6054e-06	376.1	125.7	108.94	37.488	3.5067e-06	46.795	193.924	485.657	302.960	172.962	309.182	286.903	172.726	177.286	282.016	326.477	176.877	181.073	181.689	186.561	273.037	185.353	-8191	255	
1025.998	1	1	0	0	0.091361	0.13497	0.21356	0.23023	0.09691	0.22425	0.26349	0.24581	0.051174	0.18545	0.16624	0.082244	0.13961	0.28185	0.20724	0.22673	-2.4292	-2.3521	-3.1813	-2.7979	-2.7396	-3.2104	-2.7708	-3.2771	-3.0333	-2.5229	-3.225	-2.7229	-2.8146	-3.3	-2.4	-2.9917	504.056	373.019	456.062	462.188	496.056	474.536	482.627	431.065	224.636	472.046	474.184	457.161	447.750	170.929	468.465	440.368	0.00056561	0.00015448	9.8161e-05	1207.5	2.87e-06	3.2332e-06	1215.6	335.32	2.5539e-06	2.3319e-06	386.36	127.09	109.97	37.865	2.5454e-06	47.354	0.00034878	0.00032597	8.6727e-05	1193.6	3.7452e-06	3.5433e-06	1206.1	333.19	3.7521e-06	3.5345e-06	375.54	125.88	108.83	37.436	3.4313e-06	46.792	193.593	319.579	276.991	172.647	413.056	311.824	172.585	177.634	391.639	483.399	177.210	181.032	181.875	186.550	291.527	185.637	-8191	255	
1026.070	1	1	0	0	0.070511	0.22376	0.047439	0.35884	0.13343	0.2484	0.4447	0.14774	0.31512	0.23248	0.44402	0.13387	0.23638	0.14981	0.35114	0.35255	-2.5229	-2.5146	-3.05	-2.9396	-2.7438	-3.3875	-2.5771	-2.9146	-3.0042	-2.6625	-3.0896	-2.9125	-2.7208	-3.2958	-2.7146	-3.075	215.026	254.890	180.120	502.165	367.430	438.480	512.909	496.241	507.312	374.387	457.242	173.101	174.643	469.160	162.093	422.393	0.00051667	0.00045632	7.8535e-05	1207.5	6.6716e-06	4.0362e-06	1215	336.36	1.4632e-06	3.4845e-06	385.82	127.36	109.6	38.012	1.6988e-06	47.375	0.00033834	0.00032115	8.7207e-05	1193.9	3.6614e-06	3.4777e-06	1205.9	333.55	3.6171e-06	3.4554e-06	375.39	126.01	108.65	37.429	3.4643e-06	46.897	198.912	274.075	240.147	172.946	380.656	269.561	172.509	177.550	335.917	240.197	177.148	181.171	181.731	186.649	293.650	185.341	-8191	255	
1026.166	1	1	0	0	0.16916	0.21758	0.26256	0.059262	0.15368	0.077981	0.10831	0.15023	0.30813	0.056995	0.18414	0.057802	0.19237	0.38355	0.076512	0.41502	-2.7188	-2.4708	-2.9667	-2.7521	-2.5583	-3.1604	-2.7271	-2.9792	-3.2958	-2.5312	-3.1083	-3.1104	-2.6354	-3.3708	-2.7938	-2.6792	433.557	460.342	494.075	201.567	299.703	267.754	511.504	482.932	218.687	190.893	412.805	250.081	350.643	499.245	469.738	489.036	0.0004145	0.00097708	0.00014938	1210.4	2.3982e-06	5.3432e-06	1213.3	334.99	4.4051e-06	7.7171e-06	385.6	127.88	109.55	38.179	3.9061e-06	47.421	0.00032633	0.000313	8.7383e-05	1196.9	3.5205e-06	3.3999e-06	1205.6	333.57	3.5273e-06	3.4091e-06	376.38	126.37	108.34	37.441	3.5973e-06	46.845	189.930	253.494	507.383	173.014	433.219	261.665	172.837	177.467	317.213	309.130	176.875	180.931	181.853	186.776	216.137	185.803	-8191	255	
1026.260	1	1	0	0	0.22882	0.031721	0.16438	0.17306	0.063574	0.10834	0.090298	0.388	0.11927	0.24774	0.063515	0.26339	0.11369	0.17142	0.052992	0.10443	-2.8875	-2.2875	-2.7833	-3.1458	-2.6458	-3.2875	-2.9125	-2.8688	-3.2208	-2.7021	-3.2438	-3.1	-2.6292	-3.2792	-2.8833	-2.9	427.015	489.465	344.324	498.857	218.146	444.035	427.874	495.175	335.970	496.503	269.882	497.451	197.750	376.803	364.955	255.634	0.00055862	0.00030932	5.2195e-05	1203	3.2815e-06	5.0382e-06	1216.8	334.58	4.0989e-06	1.386e-06	388.12	127.54	110.02	37.891	7.0472e-06	47.229	0.00032382	0.0003114	9.1397e-05	1193.7	3.5348e-06	3.4047e-06	1210	333.18	3.4875e-06	3.4332e-06	378.27	126.03	108.28	37.361	3.7474e-06	46.809	194.547	312.230	380.039	173.044	229.873	358.594	172.664	177.502	324.692	246.745	177.097	181.064	181.827	186.670	176.684	185.948	-8191	255	
1026.358	1	1	0	0	0.082983	0.1401	0.17051	0.14522	0.13555	0.069646	0.32645	0.19479	0.12038	0.022957	0.090125	0.1553	0.24257	0.065246	0.11774	0.40368	-2.6875	-2.7417	-2.95	-3.1125	-2.4708	-3.1458	-2.9875	-2.8229	-3.2562	-2.8354	-3.0438	-3.2917	-2.6146	-3.175	-2.9458	-2.7625	475.881	292.706	162.754	407.731	263.631	436.304	453.636	165.147	441.788	348.171	161.100	201.746	182.016	503.041	407.566	459.150	0.00048636	0.00041936	0.0001195	1201.8	4.2038e-06	4.0208e-06	1213.9	335.03	2.5857e-06	6.39e-06	385.5	127.76	109.71	37.886	6.9268e-06	47.412	0.00032103	0.00031611	9.4734e-05	1192.7	3.4802e-06	3.463e-06	1211.2	332.8	3.4922e-06	3.5154e-06	378.37	125.98	108.32	37.469	3.8261e-06	46.776	197.621	180.670	199.506	172.973	309.276	243.027	172.664	177.491	266.297	312.314	177.038	181.218	181.792	186.511	341.707	185.751	-8191	255	
1026.477	1	1	0	0	0.33136	0.083083	0.096956	0.3135	0.14179	0.19789	0.19101	0.30175	0.091317	0.15496	0.25117	0.14403	0.24438	0.078137	0.096295	0.11561	-2.925	-2.5042	-2.8187	-3.1667	-2.4562	-3.225	-3.0979	-2.6375	-3.1479	-2.7812	-2.8854	-3.2646	-2.6229	-3.3271	-3.1021	-2.6375	496.763	507.798	327.804	477.994	509.857	456.404	465.678	516.699	392.367	469.889	446.160	513.732	430.441	491.630	173.574	424.540	0.0004343	0.00069474	5.4067e-05	1206.1	4.9277e-06	4.3617e-06	1214.9	335.25	3.6483e-06	4.342e-06	385.68	126.94	109.42	37.937	4.6229e-06	47.31	0.0003211	0.00033097	9.8301e-05	1194.5	3.5459e-06	3.6772e-06	1212.1	332.95	3.5206e-06	3.7446e-06	379.07	125.71	108.37	37.608	3.8947e-06	46.781	208.076	208.057	289.001	172.858	311.744	366.220	172.736	177.448	240.790	250.170	176.937	181.098	181.770	186.557	352.849	185.578	-8191	255	
1026.573	1	1	0	0	0.11383	0.22907	0.15131	0.22945	0.16885	0.19015	0.27309	0.24294	0.17363	0.039274	0.21955	0.13663	0.33278	0.17068	0.088556	0.10045	-2.8042	-2.75	-2.7875	-3.1771	-2.4896	-3.0125	-3.2479	-2.6688	-3.1271	-2.9146	-2.8625	-3.4417	-2.5458	-2.9625	-3.025	-2.5521	188.227	421.087	403.677	487.382	517.963	230.023	463.381	474.613	418.961	390.894	505.023	495.739	160.329	505.671	210.915	404.127	0.00051712	0.00026157	0.0002241	1200.8	5.8961e-06	3.4844e-06	1215.2	334.49	3.0398e-06	3.7917e-06	386.72	126.58	109.51	37.871	5.7034e-06	47.286	0.00033015	0.00035649	9.874e-05	1192.7	3.6306e-06	3.9222e-06	1211.9	333.16	3.6432e-06	3.9824e-06	379.54	125.83	108.45	37.749	3.8764e-06	46.824	193.043	385.628	261.981	172.829	311.136	262.423	172.736	177.329	313.019	278.778	176.975	181.279	181.841	186.511	316.781	185.599	-8191	255	
1026.669	1	1	0	0	0.061724	0.26129	0.15374	0.024174	0.12114	0.17959	0.1742	0.21652	0.20063	0.16855	0.29542	0.071735	0.26433	0.13554	0.16828	0.077209	-2.6437	-2.8792	-2.6396	-3.2104	-2.7188	-2.9646	-3.1271	-2.5563	-3.0375	-2.8333	-2.6271	-3.3187	-2.9083	-2.9188	-3.2562	-2.5583	315.816	173.342	407.960	435.543	469.182	471.980	169.430	217.079	279.449	215.327	251.585	251.249	462.145	513.888	253.014	347.469	0.00051692	0.0003741	0.00015036	1206.6	3.7749e-06	3.2615e-06	1215.8	336.5	5.5139e-06	3.2036e-06	386.05	127.02	110.06	37.717	3.6515e-06	47.43	0.00034161	0.00036964	9.8262e-05	1194.3	3.7689e-06	4.0767e-06	1212	333.98	3.7811e-06	4.0611e-06	379.46	125.8	108.97	37.804	3.855e-06	46.897	197.000	186.944	264.977	172.908	368.183	314.565	172.810	177.627	262.693	394.720	177.033	181.060	181.840	186.544	254.296	185.926	-8191	255	
1026.766	1	1	0	0	0.082708	0.079493	0.15237	0.26588	0.19008	0.10985	0.13136	0.30091	0.3385	0.0091339	0.28278	0.14256	0.42657	0.20167	0.2375	0.16895	-2.525	-2.7979	-2.5958	-3.3792	-2.7687	-2.9562	-3.4104	-2.7271	-2.9208	-2.8521	-2.5979	-3.3146	-2.8604	-2.875	-3.0729	-2.6688	402.391	292.398	304.630	479.118	473.461	478.980	394.806	473.608	517.711	245.935	436.571	477.005	470.597	518.995	212.992	260.532	0.00050497	0.00068524	9.7528e-05	1204.1	2.2085e-06	2.8809e-06	1214.6	335.13	3.1616e-06	5.5387e-06	385.92	127.21	109.94	37.788	4.693e-06	47.228	0.00035703	0.00037334	9.8547e-05	1194.4	3.9475e-06	4.1058e-06	1213.1	333.74	4.0028e-06	4.0624e-06	379.03	125.98	109.36	37.787	3.8411e-06	46.859	198.704	195.299	163.345	173.071	272.079	394.868	172.529	177.199	232.665	277.126	177.158	181.012	181.627	186.468	237.842	185.782	-8191	255	
1026.862	1	1	0	0	0.11062	0.10444	0.3808	0.16863	0.10058	0.31604	0.15561	0.39447	0.44544	0.15339	0.3925	0.14853	0.11485	0.17737	0.22404	0.1845	-2.625	-3.1333	-2.4604	-3.2313	-2.7562	-2.7667	-3.4021	-2.725	-2.9333	-3.05	-2.5438	-3.3854	-2.9333	-2.7979	-3.2188	-2.7271	254.950	296.535	187.509	192.408	448.102	464.039	507.945	452.671	485.581	490.399	453.512	473.261	208.292	176.855	412.648	428.048	0.00051064	0.00016936	0.00013153	1201.6	2.8729e-06	3.6291e-06	1215.7	335.47	2.3291e-06	1.8944e-06	388.26	127.07	109.67	37.941	6.7512e-06	47.355	0.00037275	0.00036949	9.8169e-05	1193.9	4.0763e-06	3.9915e-06	1212.3	333.91	4.0906e-06	3.9662e-06	378.76	125.96	109.44	37.752	3.7653e-06	46.968	201.147	498.178	468.071	172.977	319.354	323.843	172.604	177.258	213.736	339.188	176.794	180.724	181.469	186.520	323.923	185.787	-8191	255	
1026.958	1	1	0	0	0.28276	0.060651	0.26414	0.11697	0.25379	0.32801	0.22818	0.091108	0.14569	0.16657	0.09971	0.38083	0.11672	0.14901	0.22752	0.14435	-2.3771	-3.2542	-2.5854	-3.2208	-2.9188	-2.6125	-3.2917	-2.6833	-2.8688	-3.1896	-2.4562	-3.1854	-3.1125	-2.3729	-3.2146	-2.7438	222.588	231.321	374.865	487.962	426.113	213.154	439.959	184.852	467.023	170.790	444.636	485.307	459.333	200.749	429.771	494.190	0.00048532	0.0006811	0.00013249	1204.4	1.5456e-06	2.905e-06	1216.1	335.14	1.7905e-06	6.6607e-06	386.3	126.88	109.68	37.778	3.3688e-06	47.483	0.00037966	0.00035543	9.5699e-05	1196.5	4.1248e-06	3.9249e-06	1210.9	334.1	4.0895e-06	3.8851e-06	378.65	126.4	109.59	37.641	3.7353e-06	47.163	193.437	289.444	203.239	173.057	391.738	386.710	172.494	177.426	279.264	306.292	177.200	180.953	181.618	186.499	278.379	185.797	-8191	255	
1027.079	1	1	0	0	0.073968	0.26425	0.21121	0.14191	0.089063	0.19862	0.27841	0.24581	0.19305	0.23027	0.10507	0.20665	0.071459	0.018045	0.063038	0.083413	-2.425	-3.1312	-2.4104	-3.1896	-2.9646	-2.3646	-3.4104	-2.9729	-2.6896	-3.2562	-2.5604	-2.9271	-3.0417	-2.5104	-3.2354	-2.8833	347.020	257.477	445.089	442.133	420.012	416.133	377.136	495.258	337.693	416.608	491.841	255.606	211.920	485.935	247.593	479.141	0.00048707	0.00041708	0.00012995	1199.9	1.5871e-06	3.5232e-06	1216	335.71	2.1659e-06	3.8741e-06	388.01	126.74	109.41	37.844	2.7427e-06	47.526	0.00037604	0.00035372	9.5521e-05	1196.3	4.0583e-06	3.8928e-06	1209.4	334.94	4.0403e-06	3.8462e-06	379.19	126.63	109.18	37.672	3.7493e-06	47.317	196.834	359.152	161.512	172.949	357.688	323.569	172.820	177.326	327.520	328.181	176.851	180.881	181.832	186.552	279.311	185.634	-8191	255	
1027.175	1	1	0	0	0.27238	0.09997	0.34131	0.14223	0.058369	0.2178	0.17347	0.34815	0.22715	0.17336	0.029488	0.22024	0.095651	0.22823	0.13772	0.14614	-2.2396	-3.1458	-2.4625	-2.9521	-3.2729	-2.5	-3.2354	-2.95	-2.6583	-3.25	-2.6896	-2.9479	-3.1813	-2.5625	-3.1292	-2.9938	215.952	312.241	218.124	476.526	236.615	302.807	395.168	450.366	234.108	416.959	163.573	174.424	504.091	492.466	194.192	378.591	0.00050124	0.00048593	6.8594e-05	1206.2	1.8283e-06	8.0446e-07	1216.1	335.56	2.1013e-06	4.9083e-06	386.75	127.16	109.69	38.051	5.8499e-06	47.419	0.00036798	0.00035051	9.719e-05	1200.7	3.9938e-06	3.8552e-06	1211.8	335.44	4.019e-06	3.8489e-06	379.72	126.9	109.15	37.677	3.9289e-06	47.34	203.137	161.051	196.971	173.138	323.188	266.427	172.570	177.560	255.527	317.138	176.869	181.119	181.694	186.429	200.100	185.896	-8191	255	
1027.269	1	1	0	0	0.12204	0.15405	0.13818	0.25633	0.06624	0.25606	0.34341	0.20432	0.1078	0.13268	0.10547	0.26843	0.12467	0.27038	0.13473	0.046368	-2.1521	-3.2417	-2.6146	-2.95	-3.125	-2.2083	-3.2083	-3.075	-2.6188	-3.2396	-2.6625	-2.8875	-3.2333	-2.6125	-3.1479	-3.0625	400.640	188.546	276.633	426.543	346.575	432.331	500.995	446.567	452.044	191.290	429.166	471.008	390.299	424.178	178.143	451.139	0.00047747	0.00072339	8.2138e-05	1204	3.6919e-06	3.9482e-06	1218.4	335.43	5.9013e-06	6.369e-06	386.04	127.39	109.67	37.801	4.647e-06	47.529	0.0003659	0.00034819	9.9998e-05	1200.7	3.9697e-06	3.8299e-06	1215.3	335.6	3.9727e-06	3.7881e-06	380.58	126.85	109.06	37.695	4.0676e-06	47.33	196.819	190.941	463.897	172.825	348.458	364.948	172.675	177.589	276.509	289.938	177.082	181.357	181.592	186.536	260.700	185.614	-8191	255	
1027.365	1	1	0	0	0.14278	0.15012	0.10106	0.26998	0.22091	0.32505	0.31278	0.19017	0.095159	0.16292	0.18533	0.30204	0.17781	0.20973	0.1568	0.069405	-2.0458	-3.1896	-2.8187	-2.7875	-3.2792	-2.4604	-3.1437	-3.0958	-2.4604	-3.2292	-2.9688	-2.9604	-3.3771	-2.8438	-2.7646	-3.0771	198.114	476.872	403.182	344.074	314.020	476.521	355.312	485.332	277.502	330.671	466.716	405.702	515.889	336.411	493.878	409.475	0.00047877	0.00068603	0.00012338	1209	2.4034e-06	5.6213e-06	1219.8	336.02	2.9666e-06	3.8636e-06	386.45	127.27	109.74	37.837	2.7266e-06	47.625	0.00036106	0.00034538	0.00010386	1202.6	3.8728e-06	3.8169e-06	1217.2	335.61	3.9042e-06	3.8009e-06	381.73	126.87	109.03	37.689	4.1746e-06	47.209	195.018	255.219	498.364	173.163	389.920	309.026	172.681	177.421	303.792	258.097	177.086	181.056	181.337	186.491	273.754	185.607	-8191	255	
#DATA ENDS
