BOXY.EXE: ISS Imagent and Oximeter Data Acquisition Program Version 0.80
Ascii Record File

#ACQ INFORMATION
2  Detector Channels 
16  External MUX Channels 
1  Auxiliary Channels 
5000  Waveform (CCF) Frequency (Hz)
1  Waveforms Skipped 
30  Waveforms Averaged 
1  Cycles Averaged 
16  Acquisitions per Waveform 
10.0806  Updata Rate (Hz) 

#FILE INFORMATION
TRUE -- External MUX Channel results are PARSED.
FALSE -- AC DC and Phase are NOT grouped.
TRUE -- Companion Program Settings File CREATED.
FALSE -- AC data not excluded
FALSE -- DC data not excluded
FALSE -- Phase data not excluded
FALSE -- Auxillary Chn. data not excluded
Tab delimiters

#CALIBRATION STATE
TRUE -- Waveform Calibration Values APPLIED.


#AUX CALIBRATION VALUES
Val Type	aux-1	

Term	1.0000e+00	
Factor	0.0000e+00	


#WF CALIBRATION VALUES
A = Detector Channel
Val Type	A-AC1	A-AC2	A-AC3	A-AC4	A-AC5	A-AC6	A-AC7	A-AC8	A-AC9	A-AC10	A-AC11	A-AC12	A-AC13	A-AC14	A-AC15	A-AC16	A-DC1	A-DC2	A-DC3	A-DC4	A-DC5	A-DC6	A-DC7	A-DC8	A-DC9	A-DC10	A-DC11	A-DC12	A-DC13	A-DC14	A-DC15	A-DC16	A-Ph1	A-Ph2	A-Ph3	A-Ph4	A-Ph5	A-Ph6	A-Ph7	A-Ph8	A-Ph9	A-Ph10	A-Ph11	A-Ph12	A-Ph13	A-Ph14	A-Ph15	A-Ph16	

Term	0.00000e+00	0.00000e+00	0.00000e+00	0.00000e+00	0.00000e+00	0.00000e+00	0.00000e+00	0.00000e+00	0.00000e+00	0.00000e+00	0.00000e+00	0.00000e+00	0.00000e+00	0.00000e+00	0.00000e+00	0.00000e+00	0.00000e+00	0.00000e+00	0.00000e+00	0.00000e+00	0.00000e+00	0.00000e+00	0.00000e+00	0.00000e+00	0.00000e+00	0.00000e+00	0.00000e+00	0.00000e+00	0.00000e+00	0.00000e+00	0.00000e+00	0.00000e+00	0.00000e+00	0.00000e+00	0.00000e+00	0.00000e+00	0.00000e+00	0.00000e+00	0.00000e+00	0.00000e+00	0.00000e+00	0.00000e+00	0.00000e+00	0.00000e+00	0.00000e+00	0.00000e+00	0.00000e+00	0.00000e+00	
Factor	1.00000e+00	1.00000e+00	1.00000e+00	1.00000e+00	1.00000e+00	1.00000e+00	1.00000e+00	1.00000e+00	1.00000e+00	1.00000e+00	1.00000e+00	1.00000e+00	1.00000e+00	1.00000e+00	1.00000e+00	1.00000e+00	1.00000e+00	1.00000e+00	1.00000e+00	1.00000e+00	1.00000e+00	1.00000e+00	1.00000e+00	1.00000e+00	1.00000e+00	1.00000e+00	1.00000e+00	1.00000e+00	1.00000e+00	1.00000e+00	1.00000e+00	1.00000e+00	X	X	X	X	X	X	X	X	X	X	X	X	X	X	X	X	

B = Detector Channel
Val Type	B-AC1	B-AC2	B-AC3	B-AC4	B-AC5	B-AC6	B-AC7	B-AC8	B-AC9	B-AC10	B-AC11	B-AC12	B-AC13	B-AC14	B-AC15	B-AC16	B-DC1	B-DC2	B-DC3	B-DC4	B-DC5	B-DC6	B-DC7	B-DC8	B-DC9	B-DC10	B-DC11	B-DC12	B-DC13	B-DC14	B-DC15	B-DC16	B-Ph1	B-Ph2	B-Ph3	B-Ph4	B-Ph5	B-Ph6	B-Ph7	B-Ph8	B-Ph9	B-Ph10	B-Ph11	B-Ph12	B-Ph13	B-Ph14	B-Ph15	B-Ph16	

Term	0.00000e+00	0.00000e+00	0.00000e+00	0.00000e+00	0.00000e+00	0.00000e+00	0.00000e+00	0.00000e+00	0.00000e+00	0.00000e+00	0.00000e+00	0.00000e+00	0.00000e+00	0.00000e+00	0.00000e+00	0.00000e+00	0.00000e+00	0.00000e+00	0.00000e+00	0.00000e+00	0.00000e+00	0.00000e+00	0.00000e+00	0.00000e+00	0.00000e+00	0.00000e+00	0.00000e+00	0.00000e+00	0.00000e+00	0.00000e+00	0.00000e+00	0.00000e+00	-1.98888e+02	-1.41666e+02	-1.28181e+02	-1.83212e+02	-8.92266e+01	-7.95993e+01	-1.60609e+02	-1.62015e+02	-7.67401e+01	-7.98675e+01	-1.72562e+02	-1.72621e+02	-1.82837e+02	-1.77955e+02	-8.59113e+01	-1.50807e+02	
Factor	3.77429e-05	1.24987e-04	3.22763e-05	1.53048e-01	1.12836e-06	1.18453e-06	1.66555e-01	5.17580e-02	1.34229e-06	1.30404e-06	7.96663e-02	2.59757e-02	2.43854e-02	7.97063e-03	1.19627e-06	1.14541e-02	1.84811e-06	1.93964e-06	5.39761e-07	8.01032e-02	2.10885e-08	2.12456e-08	8.19187e-02	2.70715e-02	2.11425e-08	2.13452e-08	4.02592e-02	1.31275e-02	1.28064e-02	4.18483e-03	2.12242e-08	5.82685e-03	X	X	X	X	X	X	X	X	X	X	X	X	X	X	X	X	



#DISTANCE SETTINGS
A = Detector Channel
A-1	A-2	A-3	A-4	A-5	A-6	A-7	A-8	A-9	A-10	A-11	A-12	A-13	A-14	A-15	A-16	

2.5000e+00	3.0000e+00	2.5000e+00	3.0000e+00	2.0000e+00	3.0000e+00	1.5000e+00	3.0000e+00	3.0000e+00	3.0000e+00	3.0000e+00	3.0000e+00	3.0000e+00	3.0000e+00	1.5000e+00	3.0000e+00	

B = Detector Channel
B-1	B-2	B-3	B-4	B-5	B-6	B-7	B-8	B-9	B-10	B-11	B-12	B-13	B-14	B-15	B-16	

1.0000e+01	1.0000e+01	1.0000e+01	1.4400e+00	1.0000e+01	1.0000e+01	1.5100e+00	1.9400e+00	1.0000e+01	1.0000e+01	1.9900e+00	2.4900e+00	2.4100e+00	2.9000e+00	1.0000e+01	2.9800e+00	




#DATA BEGINS
time	group	step	mark	flag	A-AC1	A-AC2	A-AC3	A-AC4	A-AC5	A-AC6	A-AC7	A-AC8	A-AC9	A-AC10	A-AC11	A-AC12	A-AC13	A-AC14	A-AC15	A-AC16	A-DC1	A-DC2	A-DC3	A-DC4	A-DC5	A-DC6	A-DC7	A-DC8	A-DC9	A-DC10	A-DC11	A-DC12	A-DC13	A-DC14	A-DC15	A-DC16	A-Ph1	A-Ph2	A-Ph3	A-Ph4	A-Ph5	A-Ph6	A-Ph7	A-Ph8	A-Ph9	A-Ph10	A-Ph11	A-Ph12	A-Ph13	A-Ph14	A-Ph15	A-Ph16	B-AC1	B-AC2	B-AC3	B-AC4	B-AC5	B-AC6	B-AC7	B-AC8	B-AC9	B-AC10	B-AC11	B-AC12	B-AC13	B-AC14	B-AC15	B-AC16	B-DC1	B-DC2	B-DC3	B-DC4	B-DC5	B-DC6	B-DC7	B-DC8	B-DC9	B-DC10	B-DC11	B-DC12	B-DC13	B-DC14	B-DC15	B-DC16	B-Ph1	B-Ph2	B-Ph3	B-Ph4	B-Ph5	B-Ph6	B-Ph7	B-Ph8	B-Ph9	B-Ph10	B-Ph11	B-Ph12	B-Ph13	B-Ph14	B-Ph15	B-Ph16	aux-1	digaux	

8735.869	1	1	0	256	0.22086	0.11608	0.30789	0.30196	0.1497	0.10561	0.044367	0.14451	0.030264	0.12567	0.095288	0.17199	0.11417	0.13463	0.23834	0.35431	-2.4521	-2.4208	-2.775	-2.7771	-2.4458	-2.7208	-2.7542	-2.4813	-2.7792	-2.4833	-2.6625	-2.9125	-2.4542	-2.7375	-2.5917	-2.4521	278.870	344.398	308.075	236.935	259.554	477.383	420.530	427.500	189.939	411.596	302.649	501.717	285.191	246.942	466.640	392.438	0.00094307	0.00085373	0.00029941	814.33	1.1744e-05	5.6168e-06	977.64	251.27	6.3315e-06	1.6418e-05	347.37	117.02	75.474	25.322	1.5948e-05	51.51	0.0042883	0.004509	0.0012765	990.85	4.9934e-05	5.1121e-05	1161.4	313.44	5.0918e-05	5.1611e-05	437.59	145.86	104.69	34.979	5.0355e-05	64.732	492.160	365.076	196.840	187.783	200.495	414.036	187.445	191.625	489.316	396.207	190.406	194.327	195.334	200.133	317.486	198.412	-8191	255	
8735.941	1	1	0	0	0.13883	0.20939	0.21655	0.25644	0.095495	0.12078	0.20177	0.087528	0.1447	0.19946	0.14399	0.085312	0.07744	0.37448	0.16752	0.27606	-2.275	-2.4625	-2.575	-3.0542	-2.5083	-2.6979	-2.9688	-2.6125	-2.9667	-2.5687	-2.5312	-2.8812	-2.5375	-2.7917	-2.8187	-2.6562	450.980	203.118	380.970	437.939	408.601	475.059	411.028	503.665	235.078	413.963	437.895	202.741	528.829	468.483	419.245	267.291	0.0014201	0.00080195	0.00025708	811.81	7.1069e-06	1.2604e-06	972.74	253.31	3.5726e-06	4.392e-06	347.7	116.62	76.376	25.518	1.2904e-05	51.796	0.0044005	0.0045642	0.0012618	989.95	4.8791e-05	4.9358e-05	1150.2	311.57	4.8465e-05	4.8419e-05	432.66	143.88	103.41	34.706	4.7555e-05	64.185	503.558	386.862	356.385	187.819	178.722	444.101	187.479	191.572	378.199	368.458	190.730	194.335	195.289	200.218	260.307	198.500	-8191	255	
8736.037	1	1	0	0	0.11675	0.077646	0.25192	0.16162	0.28177	0.059047	0.074579	0.21574	0.067335	0.34196	0.091096	0.24678	0.1231	0.14562	0.11317	0.28613	-2.1958	-2.6188	-2.3833	-2.9313	-2.4104	-2.7083	-2.9688	-2.5	-2.8271	-2.6	-2.5083	-3.0854	-2.3708	-2.6833	-2.6792	-2.2646	377.984	425.471	356.079	463.502	517.820	253.400	501.353	450.070	331.241	339.570	394.868	453.909	198.642	444.855	400.115	433.789	0.0012597	0.00068251	0.00022226	820.85	9.0392e-06	1.44e-05	975.6	252.51	3.7885e-06	6.1358e-06	345.43	116.53	75.66	25.162	1.0978e-05	51.765	0.0041555	0.0043026	0.001193	982.15	4.6006e-05	4.6173e-05	1138.5	305.22	4.4531e-05	4.4573e-05	423.42	141.43	100.3	33.686	4.3898e-05	63.246	489.706	392.692	363.628	188.283	356.247	263.070	187.358	191.639	226.533	457.849	191.136	194.278	195.017	200.247	393.187	198.572	-8191	255	
8736.133	1	1	0	0	0.25016	0.16838	0.15687	0.31166	0.18636	0.1469	0.26379	0.33895	0.14557	0.088822	0.11722	0.15187	0.077633	0.35828	0.18925	0.1815	-2.3271	-2.475	-2.3646	-2.8479	-2.3937	-2.6292	-2.9146	-2.3542	-2.8021	-2.8458	-2.5792	-2.9	-2.5729	-2.5083	-2.7583	-2.5542	520.235	357.796	357.591	459.409	346.905	190.417	441.780	444.039	388.474	516.950	355.922	520.030	281.043	495.562	270.220	471.237	0.0009759	0.0024001	2.8969e-05	811.07	2.9076e-06	2.0839e-06	973.78	253.15	1.5739e-05	3.241e-06	347.64	117.2	75.874	25.461	5.6012e-06	51.911	0.0038724	0.0040377	0.0011262	969.33	4.4238e-05	4.5151e-05	1136.6	305.71	4.5504e-05	4.6145e-05	428.41	143.53	102.29	34.378	4.7285e-05	64.401	507.483	418.681	465.042	187.979	385.385	420.033	187.647	191.889	433.491	529.007	190.816	194.161	195.049	200.622	364.430	198.409	-8191	255	
8736.252	1	1	0	0	0.13583	0.15868	0.14603	0.23152	0.22238	0.16116	0.079735	0.24261	0.11724	0.23201	0.17513	0.11955	0.079938	0.05765	0.18812	0.13341	-2.1979	-2.6875	-2.4437	-2.7354	-2.6125	-2.5438	-2.9875	-2.4292	-2.5312	-2.8521	-2.3667	-3.0333	-2.7	-2.5542	-2.8917	-2.6375	450.538	184.314	201.997	469.688	476.798	253.554	384.575	435.037	357.854	428.849	512.213	410.375	273.500	383.608	510.328	365.419	0.0016453	0.00040246	0.00012819	818.64	2.1392e-06	1.0149e-05	975.58	253.15	1.2662e-05	2.1338e-05	346.99	115.97	76.089	25.472	1.5312e-05	51.707	0.004222	0.0044033	0.0012295	987.3	4.8322e-05	4.8991e-05	1151.9	311.44	4.8952e-05	4.9056e-05	433.93	144.32	103.87	34.741	4.8416e-05	64.43	480.859	482.990	532.507	188.026	202.835	315.475	187.385	191.840	243.916	320.852	190.450	194.289	195.163	200.315	367.509	198.378	-8191	255	
8736.348	1	1	0	0	0.29946	0.10199	0.25761	0.027399	0.20141	0.20232	0.24993	0.19414	0.22263	0.10783	0.21001	0.14288	0.10755	0.15618	0.34092	0.20574	-2.1792	-2.8167	-2.4479	-2.9104	-2.6479	-2.4333	-2.925	-2.4313	-2.4771	-2.8792	-2.4354	-2.8229	-2.6688	-2.5542	-2.8187	-2.7438	516.613	445.174	494.185	222.198	383.907	438.493	472.241	470.253	509.955	385.663	514.964	436.659	476.227	490.427	521.317	185.517	0.00096849	0.00064346	0.00011997	818.64	9.2596e-06	6.5728e-06	973.61	254.33	7.8282e-06	2.428e-05	348.69	116.11	76.145	25.583	7.544e-06	52.127	0.0042516	0.0043817	0.0012153	985.29	4.7257e-05	4.7449e-05	1147.5	309.45	4.6953e-05	4.6971e-05	430.95	143.14	102.56	34.423	4.6168e-05	63.972	488.142	263.067	348.523	187.851	365.631	251.673	187.224	191.785	222.434	291.532	190.643	194.373	195.111	200.229	270.128	198.148	-8191	255	
8736.445	1	1	0	0	0.037392	0.26413	0.18207	0.23532	0.2861	0.24602	0.28642	0.26137	0.27354	0.1967	0.17756	0.12253	0.18497	0.11796	0.17438	0.30485	-2.1708	-3.025	-2.3583	-2.8729	-2.6958	-2.4375	-3.0792	-2.6688	-2.6146	-2.7438	-2.3729	-2.7188	-2.825	-2.3646	-2.7438	-2.8354	502.325	290.097	454.326	460.040	319.546	257.637	206.003	503.012	233.287	383.399	253.056	429.256	288.301	477.375	487.832	458.097	0.0015556	0.0015252	0.000232	814.07	1.3284e-06	2.2935e-06	977.19	255.1	1.3067e-05	1.708e-05	349.02	116.18	76.445	25.738	7.2151e-06	52.214	0.004058	0.0042045	0.001163	977.36	4.5799e-05	4.5998e-05	1145	309.76	4.6413e-05	4.6692e-05	431.69	143.51	102.88	34.501	4.6994e-05	64.368	477.276	517.273	302.492	188.017	227.725	338.389	187.489	191.712	443.259	331.425	190.619	194.363	194.865	200.374	486.621	198.397	-8191	255	
8736.541	1	1	0	0	0.10323	0.12376	0.26285	0.073593	0.1623	0.14899	0.14418	0.047342	0.27998	0.19625	0.061191	0.093412	0.043535	0.18461	0.25042	0.15218	-2.0542	-2.85	-2.5167	-2.7	-2.6688	-2.5583	-2.8292	-2.8	-2.2521	-2.8146	-2.5146	-2.7979	-2.8688	-2.45	-2.8937	-2.7917	211.741	222.170	288.597	499.706	314.758	524.437	282.061	319.907	319.423	416.507	289.111	362.686	213.781	182.963	302.518	513.475	0.0011411	0.0017454	0.00042875	819.57	6.2214e-06	4.8079e-06	979.99	256.11	1.1958e-05	9.6746e-06	350.56	116.47	76.51	25.6	7.8546e-06	51.915	0.0041333	0.0043039	0.0011972	985.72	4.6967e-05	4.7279e-05	1149.8	311.71	4.702e-05	4.7832e-05	434.2	143.74	103.5	34.598	4.7764e-05	64.567	493.899	292.796	271.341	187.860	225.214	356.022	187.145	192.031	201.165	349.344	190.746	194.097	195.029	200.123	231.856	198.313	-8191	255	
8736.637	1	1	0	0	0.10018	0.11037	0.061488	0.063469	0.017349	0.26489	0.30611	0.20042	0.29105	0.22848	0.091269	0.036655	0.046876	0.10299	0.1368	0.34902	-2.0792	-2.7938	-2.3979	-2.7562	-2.9854	-2.4083	-2.8625	-2.6896	-2.4104	-2.9375	-2.7062	-2.7729	-2.9646	-2.4896	-2.7917	-2.9646	325.346	520.171	498.102	505.093	389.544	430.291	490.361	402.322	416.237	412.526	505.304	249.770	230.897	186.361	517.396	450.102	0.0014245	0.00065204	0.00057025	822.52	6.6432e-06	1.4928e-05	973.43	255.7	7.9029e-06	1.0724e-05	351.57	115.28	76.637	25.456	1.8309e-05	52.225	0.0042151	0.0043842	0.0012191	990.08	4.7823e-05	4.8215e-05	1150.9	313.49	4.8357e-05	4.8741e-05	436.99	143.93	104.23	35.072	5.1464e-05	66.244	489.788	413.074	238.083	188.069	219.211	297.375	187.379	191.830	424.331	330.120	190.725	194.628	195.038	200.402	359.342	198.383	-8191	255	
8736.731	1	1	0	0	0.068172	0.16853	0.12752	0.21316	0.21763	0.11822	0.155	0.26217	0.10025	0.16828	0.10772	0.38631	0.13645	0.18308	0.13078	0.30652	-1.8958	-2.8583	-2.65	-2.7104	-2.7812	-2.5917	-2.7438	-2.7833	-2.4896	-2.7313	-2.7229	-2.6167	-2.9646	-2.4	-2.6854	-2.875	283.417	193.316	398.344	282.829	435.565	234.323	176.880	193.241	429.777	311.728	337.795	490.977	455.320	533.201	469.438	529.699	0.00079884	0.0014423	0.00013402	815.41	1.1553e-05	2.4061e-05	975.6	253.13	1.2854e-05	2.5597e-05	346.03	115.65	75.169	25.402	3.5147e-06	52.223	0.0047473	0.0051728	0.001522	1035.6	6.0624e-05	6.0902e-05	1202.9	328.3	6.2186e-05	6.2239e-05	456.45	151.71	110.83	37.157	6.1744e-05	68.769	480.934	302.195	219.188	187.950	377.677	362.110	187.441	191.813	270.604	304.639	190.671	194.248	195.258	200.067	267.282	198.544	-8191	255	
8736.829	1	1	0	0	0.1911	0.057538	0.062082	0.13795	0.25849	0.2832	0.24966	0.37964	0.09787	0.14824	0.21384	0.21246	0.012146	0.21444	0.25673	0.08726	-2.0708	-2.7938	-2.5021	-2.6708	-2.7479	-2.425	-2.7354	-2.8708	-2.2958	-2.8583	-2.7604	-2.4375	-3.025	-2.5479	-2.6021	-2.8729	346.465	313.997	466.053	523.484	193.183	491.575	485.723	439.975	216.365	213.049	467.036	527.230	175.190	176.659	182.717	348.008	0.00083817	0.00077707	0.00025385	804.81	6.0905e-06	1.714e-05	976.46	253.03	1.5709e-05	1.9353e-05	350.73	116.54	75.982	25.402	7.6867e-06	52.408	0.0054403	0.0057127	0.0015896	1033.9	6.2241e-05	6.3295e-05	1210.2	329.64	6.2937e-05	6.4223e-05	464.79	153.77	112.5	37.533	6.3221e-05	69.106	499.112	479.952	268.379	187.898	532.942	309.890	187.442	191.685	237.942	266.311	190.929	194.530	194.979	200.369	280.687	198.275	-8191	255	
8736.948	1	1	0	0	0.093008	0.25747	0.10731	0.054603	0.024031	0.15512	0.092495	0.088721	0.014739	0.12176	0.15218	0.12801	0.20762	0.12313	0.073804	0.43219	-1.9729	-2.6958	-2.45	-2.5875	-2.8417	-2.7167	-2.675	-2.7271	-2.5167	-2.8375	-2.6646	-2.4188	-2.9354	-2.5729	-2.6667	-3.0771	361.623	407.225	331.690	462.765	485.477	212.625	443.045	502.317	363.049	177.712	421.468	181.506	437.047	380.204	244.502	499.009	0.0012504	0.001114	0.00018742	812.37	1.003e-05	1.0555e-05	976.75	255.61	3.2177e-05	3.2545e-06	352.43	116.9	77.229	25.648	8.8487e-06	52.516	0.0054801	0.0057395	0.0015897	1035.7	6.1701e-05	6.1828e-05	1209.3	330.18	6.086e-05	6.1667e-05	462.55	152.34	111.68	37.093	6.0236e-05	68.403	490.362	354.003	223.058	188.036	217.593	385.683	187.325	191.669	312.390	279.493	190.929	194.322	194.808	200.417	245.470	198.525	-8191	255	
8737.044	1	1	0	0	0.25082	0.042222	0.094446	0.077061	0.19198	0.1768	0.11151	0.30572	0.096173	0.11695	0.30617	0.27644	0.23964	0.2604	0.19251	0.15362	-2.1542	-2.65	-2.5854	-2.3833	-2.8125	-2.4917	-2.7542	-3.0062	-2.5417	-2.6917	-2.7917	-2.4021	-2.8271	-2.5792	-2.3958	-2.7812	175.782	220.493	174.677	212.280	376.647	293.560	488.917	381.760	459.928	186.212	522.623	514.525	509.737	436.497	495.838	530.810	0.00094603	0.00091493	0.00037556	814.99	5.4247e-06	2.3323e-05	982.5	255.68	1.4666e-05	9.2349e-06	352.71	117.62	77.349	25.627	1.1711e-05	52.68	0.0052462	0.0054788	0.0015232	1029.2	5.8671e-05	5.8609e-05	1197.6	326.34	5.754e-05	5.8216e-05	456.42	150.3	110.19	36.536	5.6047e-05	67.318	496.674	278.891	217.863	188.119	514.252	351.233	187.505	191.920	324.999	294.981	190.583	194.236	194.824	200.375	365.517	198.300	-8191	255	
8737.140	1	1	0	0	0.33089	0.19835	0.081664	0.11648	0.11898	0.24486	0.36605	0.1195	0.17403	0.10722	0.27455	0.26307	0.18692	0.26837	0.26537	0.22223	-2.1167	-2.5792	-2.7146	-2.4458	-2.8438	-2.5917	-2.5104	-2.9771	-2.5729	-2.55	-2.7292	-2.4688	-2.8063	-2.7125	-2.4792	-2.8875	377.079	476.307	177.968	466.101	302.719	529.631	454.607	508.311	219.559	272.329	514.799	463.831	516.390	329.424	247.863	411.380	0.0010009	0.00081792	0.00033672	822.32	5.7481e-06	1.3136e-05	992.23	259.97	2.4973e-05	1.574e-05	361.34	117.96	79.721	26.182	1.1319e-05	52.749	0.0048608	0.0050659	0.0013952	1016.4	5.4122e-05	5.4197e-05	1186.9	324.84	5.3186e-05	5.3992e-05	454.63	148.75	109.83	36.288	5.3209e-05	66.731	479.425	268.848	322.754	188.002	317.958	301.577	187.432	191.740	327.638	331.756	190.897	193.947	194.900	200.250	235.725	198.272	-8191	255	
8737.237	1	1	0	0	0.21192	0.14529	0.20849	0.15719	0.23381	0.2177	0.35148	0.11573	0.16436	0.19189	0.34089	0.21712	0.43052	0.25203	0.3022	0.29627	-2.0812	-2.6021	-2.8021	-2.6292	-2.5875	-2.6833	-2.5333	-2.9854	-2.45	-2.6292	-2.8937	-2.7458	-2.925	-2.7396	-2.3896	-2.9437	367.446	528.286	253.382	469.866	365.412	396.980	481.168	512.308	257.288	447.689	451.985	279.062	443.683	446.962	478.573	459.792	0.0016634	0.00075432	0.00045413	832.57	5.0482e-06	1.6159e-05	1003.7	265.01	9.2341e-06	5.0454e-06	361.69	118.66	80.316	25.981	9.4428e-07	52.65	0.0046278	0.0048265	0.0013311	1016.7	5.2096e-05	5.2056e-05	1188.9	327.15	5.1629e-05	5.2401e-05	455.81	148.42	109.8	36.105	5.1889e-05	66.423	482.953	317.333	309.052	188.077	265.692	281.700	187.388	191.742	232.684	218.032	190.531	194.198	194.484	199.833	266.534	198.389	-8191	255	
8737.333	1	1	0	0	0.27786	0.24904	0.085757	0.13061	0.24619	0.14857	0.07537	0.2792	0.21881	0.43762	0.1322	0.25636	0.18411	0.47165	0.10223	0.30786	-2.3292	-2.3271	-2.9021	-2.5333	-2.7104	-2.6104	-2.6146	-2.9146	-2.5729	-2.6583	-3.0208	-2.5896	-2.6958	-2.9354	-2.4854	-2.9437	378.719	408.669	311.924	493.102	512.284	314.584	395.231	445.981	362.660	525.486	387.981	445.538	232.032	488.715	195.384	258.538	0.00068018	0.0010203	0.00012342	832.74	8.0664e-06	5.9202e-06	999.99	264.99	4.0813e-06	2.1848e-05	362.31	118.44	80.217	26.141	7.4374e-06	52.575	0.0045471	0.0047438	0.0013183	1016.1	5.1801e-05	5.205e-05	1188.7	328.18	5.1714e-05	5.2131e-05	454.4	148.08	109.55	36.076	5.1844e-05	66.263	494.676	281.602	297.830	187.714	219.060	339.676	187.407	192.026	283.329	312.749	190.386	194.293	194.748	200.127	425.746	198.488	-8191	255	
8737.429	1	1	0	0	0.14064	0.14619	0.18799	0.11513	0.19052	0.20556	0.11505	0.26322	0.16794	0.1748	0.12955	0.15691	0.076085	0.28697	0.32392	0.094165	-2.0187	-2.5187	-2.8354	-2.6542	-2.6125	-2.8229	-2.6417	-2.9938	-2.6771	-2.6354	-2.9771	-2.5896	-2.6042	-2.7125	-2.4188	-2.7229	499.261	443.653	193.965	231.710	382.345	306.571	514.400	362.346	529.155	328.578	496.573	464.209	481.026	230.643	483.505	502.606	0.0014842	0.0019947	0.00030056	832.71	1.5977e-06	1.4791e-05	998.81	266.23	3.2196e-06	1.2089e-05	361.68	117.75	80.032	26.14	6.808e-06	52.346	0.0045768	0.0047759	0.0013336	1020.2	5.2681e-05	5.3048e-05	1192.1	329.63	5.3209e-05	5.3958e-05	457.7	148.74	110.97	36.544	5.3955e-05	66.913	462.611	229.879	431.387	188.050	259.771	388.220	187.338	191.696	524.997	267.520	190.565	193.656	194.669	200.002	427.547	198.458	-8191	255	
8737.549	1	1	0	0	0.18081	0.16173	0.23132	0.15517	0.1014	0.060866	0.16527	0.095851	0.12882	0.080682	0.1002	0.25989	0.27651	0.30731	0.34778	0.14216	-2.1958	-2.5292	-2.8979	-2.75	-2.6375	-2.8479	-2.5979	-2.8229	-2.8812	-2.4479	-2.9729	-2.7729	-2.5833	-2.8771	-2.5833	-2.7521	456.790	459.448	419.256	485.042	428.855	462.037	527.062	345.700	213.434	532.812	512.208	486.360	248.833	181.713	518.773	403.754	0.0018375	0.0011628	0.00057557	833.39	1.743e-05	5.7844e-06	1000.1	266.01	2.7471e-06	8.9505e-06	363.82	117.5	80.811	25.972	1.3373e-06	52.444	0.0047652	0.004954	0.0013793	1029.1	5.3925e-05	5.4427e-05	1198.1	331.85	5.4028e-05	5.4474e-05	460.31	149.3	111.56	36.466	5.4452e-05	66.752	484.483	496.621	274.374	188.267	175.222	246.200	187.092	191.675	296.118	282.542	190.565	193.965	194.914	200.143	377.537	198.126	-8191	255	
8737.644	1	1	0	0	0.11006	0.31926	0.19775	0.21042	0.25011	0.097718	0.34159	0.24898	0.26009	0.098135	0.14909	0.1929	0.19482	0.075956	0.10859	0.22576	-2.3417	-2.3104	-2.7812	-2.8	-2.6667	-2.9729	-2.6104	-2.7729	-2.8458	-2.4625	-2.9625	-2.7396	-2.5125	-2.9396	-2.6396	-2.8604	264.303	464.461	525.730	479.217	201.604	321.501	497.248	455.153	342.087	437.105	188.138	528.200	216.923	484.772	275.119	478.467	0.00077844	0.00092566	9.16e-05	832.29	1.5423e-05	1.2928e-05	1001.7	267.64	6.4892e-06	9.1116e-06	364.26	118.46	80.802	25.887	5.3303e-06	51.754	0.004791	0.0049901	0.0013956	1030.6	5.469e-05	5.5227e-05	1202.3	333.28	5.488e-05	5.5151e-05	462.4	149.92	112.04	36.429	5.5102e-05	66.534	515.270	253.512	198.461	188.145	301.370	336.986	187.470	191.588	308.608	380.242	190.620	193.906	194.913	200.238	311.602	198.319	-8191	255	
8737.740	1	1	0	0	0.026903	0.040199	0.11138	0.25631	0.12198	0.36712	0.051433	0.010509	0.17909	0.12201	0.14748	0.093322	0.38124	0.22707	0.13296	0.16228	-2.3917	-2.4188	-2.7646	-2.7583	-2.575	-2.9938	-2.7313	-2.8583	-2.8125	-2.5687	-2.7229	-2.7687	-2.4313	-2.8937	-2.4271	-2.7562	461.939	458.791	309.540	471.937	471.158	401.718	418.574	395.042	383.529	438.203	326.796	483.000	191.363	192.639	444.354	457.201	0.0013811	0.00080903	0.00019506	836.06	7.323e-06	9.5695e-06	1003.2	265.59	1.7519e-05	9.6216e-06	362.67	116.37	79.623	25.773	1.2342e-05	51.454	0.0048617	0.005062	0.0014249	1035.1	5.5445e-05	5.5967e-05	1205.2	333.72	5.5525e-05	5.5777e-05	462.28	148.68	111.76	36.499	5.5957e-05	66.123	494.846	221.044	230.239	188.140	473.514	271.780	187.142	191.697	427.911	373.926	190.604	193.997	194.092	199.887	180.308	198.358	-8191	255	
8737.836	1	1	0	0	0.19945	0.091939	0.051582	0.11787	0.18816	0.13555	0.28886	0.21431	0.045661	0.082077	0.15947	0.11205	0.028609	0.17257	0.046486	0.19749	-2.4104	-2.3417	-2.6667	-3.0083	-2.4271	-2.8854	-2.8271	-2.7958	-2.8771	-2.4792	-2.825	-2.8896	-2.4938	-2.9417	-2.7188	-2.7167	220.041	525.079	303.796	322.561	232.875	214.019	498.604	493.345	424.900	215.708	448.404	517.520	531.738	178.863	460.790	490.069	0.0011662	0.001075	0.00039326	832.99	1.4072e-05	7.3785e-06	998.76	264.24	1.4593e-05	1.664e-06	362.36	115.19	79.37	25.602	1.0905e-05	51.196	0.0049192	0.0051123	0.0014348	1033.7	5.5383e-05	5.605e-05	1201.8	332.56	5.5405e-05	5.602e-05	461.71	148.2	111.57	36.428	5.6182e-05	66.025	500.757	314.808	230.627	188.048	283.901	343.211	187.070	191.657	255.624	427.312	190.808	194.051	194.641	199.639	530.164	198.340	-8191	255	
8737.932	1	1	0	0	0.02597	0.10692	0.1088	0.23814	0.15084	0.12811	0.094083	0.11582	0.1613	0.11288	0.12618	0.16165	0.15649	0.16387	0.16757	0.17824	-2.5146	-2.3312	-2.5312	-3.0062	-2.4875	-2.8896	-2.8146	-2.6188	-2.9188	-2.4813	-2.6	-3.1042	-2.3167	-2.7542	-2.6271	-2.7729	295.641	264.622	430.066	510.607	457.622	437.206	465.218	495.054	261.021	477.568	318.830	497.399	384.931	179.134	404.565	470.342	0.0013462	0.00056632	0.00036296	824.07	1.5224e-06	6.055e-06	995.18	263.99	2.0077e-05	5.6464e-06	361.29	114.64	78.702	25.335	1.7806e-05	50.767	0.0049255	0.0051259	0.0014304	1029	5.5436e-05	5.5967e-05	1198.7	331.26	5.5337e-05	5.5963e-05	459.38	147.14	110.22	36.083	5.5645e-05	65.705	469.733	224.873	512.276	187.775	298.936	214.896	187.373	191.721	512.192	310.256	190.517	194.265	194.418	199.901	289.161	198.136	-8191	255	
8738.028	1	1	0	0	0.039367	0.30534	0.058919	0.15276	0.087943	0.1127	0.12438	0.2565	0.065762	0.26711	0.16548	0.1839	0.31529	0.13115	0.1261	0.125	-2.3937	-2.6104	-2.5979	-2.9875	-2.4958	-2.7167	-2.8063	-2.4437	-2.9437	-2.6562	-2.6063	-2.9688	-2.6854	-2.9021	-2.8271	-2.4667	259.007	446.825	331.744	300.998	451.517	409.576	225.369	420.666	514.970	401.126	521.295	201.432	491.189	483.888	344.349	475.489	0.0011696	0.00090927	0.0001428	828.93	1.2475e-05	5.48e-06	988.09	263.15	1.0918e-05	5.8023e-06	354.07	113.82	77.739	25.203	8.7794e-06	50.54	0.0048763	0.005087	0.0014184	1026.3	5.49e-05	5.5672e-05	1193.5	328.54	5.5181e-05	5.5664e-05	455.92	146.35	109.25	35.907	5.5872e-05	65.384	499.594	317.432	186.048	187.851	262.822	176.728	187.247	191.808	453.104	483.476	190.626	193.723	195.004	200.239	359.964	198.320	-8191	255	
8738.125	1	1	0	0	0.080618	0.053571	0.27198	0.27661	0.10736	0.18257	0.13485	0.05251	0.24104	0.31171	0.099642	0.21894	0.063335	0.11812	0.097881	0.089632	-2.6083	-2.6333	-2.5896	-2.9479	-2.3042	-2.4729	-2.9208	-2.5875	-2.7792	-2.5875	-2.6813	-3.1063	-2.4583	-2.6792	-2.8521	-2.5187	227.699	464.613	525.210	183.330	468.616	308.247	390.490	330.843	178.726	290.331	459.311	205.999	252.745	238.492	318.113	386.141	0.00091987	0.001192	0.00037753	822.96	5.9317e-06	1.0111e-05	985.36	259	1.288e-05	6.0418e-06	353.78	113.64	77.308	25.225	1.0141e-05	50.523	0.004918	0.0051186	0.0014313	1024.7	5.5653e-05	5.6527e-05	1193.1	328	5.6167e-05	5.6716e-05	455.42	146.13	109.79	36.044	5.6481e-05	65.378	501.942	353.888	332.283	188.086	257.573	204.263	187.353	191.834	424.657	259.571	190.589	193.837	194.185	199.518	527.741	197.868	-8191	255	
8738.221	1	1	0	0	0.20024	0.26241	0.071245	0.24384	0.24487	0.059886	0.20903	0.37067	0.06323	0.20638	0.099401	0.31597	0.22525	0.2537	0.17231	0.11787	-2.4167	-2.6937	-2.5229	-2.8979	-2.6021	-2.8083	-3.0042	-2.5187	-2.9167	-2.7938	-2.575	-2.8917	-2.6604	-2.6146	-2.8771	-2.5812	445.318	428.460	485.166	509.687	412.605	387.139	205.737	512.879	214.420	188.644	451.247	500.046	437.461	416.975	396.354	473.806	0.00065113	0.0011159	0.00031134	823.62	1.6378e-06	2.8211e-06	985.38	262.25	1.7506e-05	1.4359e-05	355.96	113.65	78.151	25.274	1.8158e-05	50.678	0.0049899	0.0052389	0.0014584	1029.9	5.6848e-05	5.7786e-05	1199.1	331.38	5.7475e-05	5.8136e-05	459.18	147.34	111.15	36.465	5.7809e-05	66.038	471.642	469.332	187.664	188.102	519.277	333.721	187.064	191.766	499.778	300.121	190.444	193.981	194.374	200.182	319.548	198.381	-8191	255	
8738.341	1	1	0	0	0.18852	0.1977	0.15178	0.30158	0.15983	0.24346	0.30787	0.15145	0.047571	0.11798	0.16119	0.11993	0.19916	0.14395	0.19885	0.021414	-2.4396	-2.6854	-2.4708	-3.0583	-2.7188	-2.7479	-2.9562	-2.6396	-2.7104	-2.8229	-2.3875	-2.9167	-2.6063	-2.5417	-2.8146	-2.4792	452.236	196.655	311.009	476.766	464.374	279.718	390.434	385.176	483.387	489.337	474.650	504.114	277.419	194.864	518.251	194.314	0.0012118	0.00014189	0.00019655	824.2	1.3607e-05	1.1049e-05	992.66	261.15	5.7161e-06	7.287e-06	354.21	113.65	77.568	25.569	1.1716e-06	50.809	0.0050963	0.0053372	0.001478	1035.2	5.7806e-05	5.8691e-05	1204.1	332.04	5.8849e-05	5.9558e-05	461.55	148.45	111.93	36.917	5.9395e-05	66.511	488.514	303.724	312.889	187.907	308.034	254.194	187.312	191.921	522.923	353.649	190.495	193.946	194.272	199.739	334.700	198.256	-8191	255	
8738.438	1	1	0	0	0.12162	0.088424	0.036955	0.12844	0.2112	0.26137	0.23352	0.27029	0.35319	0.012644	0.22212	0.23088	0.21965	0.13892	0.1857	0.1406	-2.2229	-2.8458	-2.3833	-2.9979	-2.5687	-2.5646	-3.1333	-2.4917	-2.8479	-2.9125	-2.3958	-2.9313	-2.7958	-2.5583	-3.0354	-2.6146	220.821	480.503	263.821	500.378	184.330	474.903	479.802	462.887	323.308	304.456	443.819	447.075	491.320	190.866	251.160	506.488	0.0011104	0.0010932	0.00026519	831.04	1.2615e-05	1.1231e-05	986.36	261.48	7.1468e-06	1.0052e-05	357.96	114.56	77.675	25.751	6.4916e-06	51.16	0.0052488	0.0054302	0.0015054	1040.4	5.869e-05	5.9064e-05	1206.4	332.63	5.8364e-05	5.8585e-05	461.73	148.55	111.33	36.675	5.7588e-05	66.547	490.035	339.173	323.611	187.970	297.415	333.290	187.021	191.894	334.977	186.597	190.806	194.113	194.848	200.090	264.668	198.440	-8191	255	
8738.509	1	1	0	0	0.084565	0.090081	0.1281	0.19778	0.079109	0.096227	0.20204	0.24243	0.19902	0.13359	0.32503	0.20825	0.16672	0.26207	0.20244	0.054077	-2.1417	-2.8667	-2.3771	-2.6417	-2.7292	-2.5125	-3.1146	-2.5938	-2.6646	-2.8208	-2.6167	-2.8937	-2.8625	-2.6167	-2.975	-2.875	225.958	258.612	490.238	403.958	235.131	268.417	372.851	505.939	174.592	215.664	486.732	454.455	509.367	198.682	300.268	530.603	0.00087166	0.00015062	0.00021958	836.33	1.4925e-05	8.4986e-06	990.92	263.75	6.2766e-06	3.9634e-06	358.16	114.59	78.804	25.817	7.9808e-06	51.091	0.0050637	0.0052589	0.0014529	1036.8	5.6785e-05	5.7059e-05	1200.5	332.87	5.7294e-05	5.7861e-05	461.1	148.85	112.01	37.003	5.8596e-05	67.034	478.552	299.079	375.581	188.083	194.721	297.993	187.369	191.631	341.918	219.349	190.644	193.792	194.699	199.750	406.470	198.133	-8191	255	
8738.630	1	1	0	0	0.15066	0.089169	0.15338	0.31414	0.092008	0.43956	0.17668	0.15494	0.20805	0.156	0.42482	0.050173	0.26266	0.26062	0.017748	0.16271	-2.1458	-2.6937	-2.3083	-2.8354	-2.75	-2.4562	-3.0417	-2.775	-2.5333	-2.9229	-2.675	-2.6958	-2.7812	-2.6562	-2.7938	-2.7583	386.102	473.502	386.300	492.053	468.279	189.886	429.466	466.192	262.929	420.748	516.978	327.838	531.471	442.820	463.293	178.874	0.0016741	0.00087455	0.00014346	832.2	8.58e-06	6.5322e-07	995.27	263.17	1.3784e-05	8.6057e-06	359.62	115.66	78.858	25.942	1.5311e-05	51.685	0.0051994	0.0054358	0.0015143	1051	6.0079e-05	6.0465e-05	1217.3	337.36	6.0521e-05	6.087e-05	467.62	151.3	113.83	37.414	5.9369e-05	67.522	491.159	243.735	343.853	188.104	277.768	381.046	187.230	191.595	291.731	378.352	190.665	194.077	194.783	200.022	351.457	198.300	-8191	255	
8738.724	1	1	0	0	0.14465	0.09254	0.087385	0.25797	0.34018	0.17931	0.48488	0.42399	0.20676	0.1887	0.17749	0.392	0.1903	0.081596	0.29115	0.19821	-2.1167	-2.9021	-2.5125	-2.7583	-2.7021	-2.4354	-2.9229	-2.7438	-2.4271	-2.9083	-2.4271	-2.6063	-2.8396	-2.3292	-2.8396	-2.8708	446.273	471.390	292.600	174.948	308.019	206.382	506.301	484.211	501.894	264.016	475.435	497.827	454.380	479.079	185.833	425.477	0.0010461	0.0010367	0.00012973	834.97	1.5537e-05	1.424e-05	998.23	265.94	3.6798e-06	1.7816e-06	359.68	116.75	80.197	25.903	5.2314e-06	51.791	0.0051853	0.0053956	0.0014898	1044.9	5.7945e-05	5.8119e-05	1211.8	336.16	5.7476e-05	5.8037e-05	463.97	150	112.91	37.042	5.7536e-05	67.125	485.415	465.299	312.831	188.087	439.202	366.823	187.542	191.790	176.119	490.573	191.028	193.829	194.294	199.937	363.511	198.297	-8191	255	
8738.822	1	1	0	0	0.10715	0.20593	0.20734	0.23934	0.18621	0.090543	0.07532	0.32222	0.22763	0.17277	0.2082	0.1274	0.24804	0.23599	0.13344	0.2034	-1.9479	-2.7042	-2.6729	-2.5375	-2.7542	-2.3479	-2.7271	-2.7875	-2.6042	-2.8896	-2.6917	-2.5771	-2.9062	-2.4854	-2.725	-3.0333	404.223	411.599	431.534	499.989	216.432	241.632	450.138	342.931	174.485	192.932	361.694	265.194	450.808	480.918	474.077	465.445	0.0013899	0.00066188	0.00035224	837.55	7.3567e-06	6.1932e-06	1000.5	267.23	1.9726e-05	3.9082e-06	362.46	116.51	80.583	26.16	8.3272e-06	51.485	0.0050374	0.0052885	0.0014746	1043.3	5.7451e-05	5.8151e-05	1214.5	336.74	5.8263e-05	5.9509e-05	469.69	151.43	114.9	37.552	6.028e-05	67.522	471.587	192.432	266.367	187.960	329.849	212.431	187.227	191.836	306.270	271.744	190.387	193.767	194.233	199.893	239.692	198.340	-8191	255	
8738.941	1	1	0	0	0.24606	0.046112	0.12409	0.14354	0.37324	0.13646	0.22596	0.32739	0.26214	0.26032	0.087153	0.23839	0.1817	0.36267	0.062322	0.21575	-1.9062	-2.6979	-2.5604	-2.6979	-2.8646	-2.6437	-2.8396	-2.8937	-2.5042	-2.8271	-2.7104	-2.5375	-2.8708	-2.6208	-2.7854	-2.9708	242.359	176.124	349.561	429.744	209.742	340.588	368.990	437.629	496.986	193.709	403.398	176.462	450.146	507.066	277.862	244.897	0.0011178	0.00065218	0.00052891	838.26	7.2617e-06	4.2876e-06	998.76	268.29	1.6351e-05	1.4578e-05	366.07	116.66	81.007	26.11	8.1052e-06	51.707	0.0052476	0.0055026	0.0015285	1054	5.9381e-05	5.9557e-05	1221	340.24	5.9218e-05	6.0065e-05	471.12	151.23	114.81	37.421	5.9175e-05	67.209	488.366	389.635	209.165	188.229	190.619	259.978	187.537	191.712	523.227	438.812	190.853	194.055	194.321	199.713	512.430	198.278	-8191	255	
8739.037	1	1	0	0	0.13614	0.038312	0.20128	0.22635	0.30282	0.12684	0.23197	0.17535	0.31312	0.10497	0.26073	0.10894	0.17282	0.12444	0.12906	0.15892	-1.95	-2.7771	-2.6354	-2.5375	-2.7979	-2.6021	-2.8125	-2.9792	-2.5167	-2.7771	-2.7521	-2.4646	-3.0375	-2.7729	-2.5667	-2.925	408.993	186.463	474.692	419.601	316.883	268.798	217.564	414.645	311.230	324.419	517.431	413.279	515.289	366.300	281.258	524.189	0.0014365	0.0010813	0.00021176	843.35	6.3314e-06	5.7334e-06	1006.2	270.38	9.4099e-06	7.3507e-06	366.65	117.32	81.463	26.065	7.2841e-06	51.585	0.0050842	0.0053212	0.0014773	1047.6	5.7122e-05	5.7455e-05	1217	339.25	5.6969e-05	5.7763e-05	469.27	150.8	114.44	37.179	5.7495e-05	66.841	466.848	254.383	222.718	187.840	336.631	332.322	187.507	191.599	330.507	434.635	190.874	193.897	194.142	200.085	283.188	198.029	-8191	255	
8739.109	1	1	0	0	0.17842	0.10888	0.21923	0.38655	0.18439	0.0754	0.38647	0.15853	0.21463	0.16997	0.31634	0.15701	0.18002	0.14119	0.16505	0.18156	-1.9562	-2.7083	-2.7896	-2.2896	-2.9833	-2.6417	-2.6208	-2.9771	-2.3604	-2.8563	-2.8667	-2.6208	-2.9396	-2.8042	-2.5521	-2.8854	501.065	376.848	188.083	484.730	226.845	210.889	532.066	466.396	401.884	468.515	422.505	257.573	517.771	253.193	335.961	499.908	0.0013647	0.00086833	0.00023543	839.34	1.219e-05	1.6784e-05	1008	271.43	7.614e-06	1.0858e-05	371.3	117.81	81.902	26.136	1.384e-05	51.574	0.005046	0.0053065	0.0014818	1050	5.8017e-05	5.8724e-05	1225.6	342.58	5.8493e-05	5.9808e-05	475.72	152.23	116.35	37.563	5.9973e-05	67.516	487.114	223.918	344.314	187.862	504.471	340.642	187.258	191.536	357.354	313.038	190.522	194.067	194.383	199.942	344.078	198.082	-8191	255	
8739.229	1	1	0	0	0.1889	0.086246	0.14247	0.1843	0.088764	0.039693	0.35598	0.072156	0.097661	0.10552	0.19502	0.16449	0.26861	0.11799	0.069218	0.39283	-2.1562	-2.8146	-2.6854	-2.5021	-2.9417	-2.8979	-2.8146	-3.0208	-2.4583	-2.7479	-2.85	-2.4979	-2.8042	-2.6833	-2.5104	-2.9021	522.331	437.757	468.109	183.072	328.482	423.592	463.639	319.955	402.978	310.082	501.573	515.778	222.244	509.472	306.440	457.437	0.0014444	0.00065083	0.0002325	845.26	8.1798e-06	1.1589e-05	1009.7	272.78	3.1428e-06	1.2087e-05	373.23	118.26	82.935	26.085	7.719e-06	51.267	0.0052653	0.0055625	0.0015445	1059.9	5.997e-05	6.0571e-05	1234.3	345.39	5.9755e-05	6.0867e-05	479.97	153.59	117.27	37.558	5.9953e-05	66.974	492.400	377.727	287.890	188.158	248.659	345.667	187.357	191.587	327.582	380.561	190.599	193.905	194.298	200.313	204.027	198.205	-8191	255	
8739.326	1	1	0	0	0.13853	0.15995	0.046578	0.30703	0.28048	0.15125	0.21291	0.10126	0.10271	0.094584	0.15397	0.12296	0.089964	0.221	0.088032	0.12652	-1.875	-2.525	-2.675	-2.2021	-2.7333	-2.7042	-2.5062	-2.8604	-2.6125	-2.5792	-2.875	-2.6104	-2.6292	-2.8688	-2.4792	-2.8	303.418	464.074	275.494	500.885	403.297	452.087	485.128	201.096	290.761	245.743	502.083	359.614	304.786	182.481	175.519	379.918	0.001393	0.00050888	0.00022412	839.81	3.7434e-06	6.1736e-06	1005.9	270.72	1.1562e-05	1.0872e-05	367.84	117.42	81.73	25.736	1.8487e-05	50.859	0.0052333	0.005491	0.0015279	1056.7	5.9685e-05	6.0447e-05	1227.9	343.08	5.9963e-05	6.0824e-05	476.35	152.4	116.7	37.296	6.009e-05	66.873	485.335	281.874	418.385	188.011	182.931	418.871	187.319	191.809	355.423	197.468	190.519	193.687	194.329	200.223	385.074	197.993	-8191	255	
8739.422	1	1	0	0	0.15715	0.257	0.19493	0.19546	0.12248	0.22173	0.25794	0.10897	0.098344	0.28348	0.14297	0.12047	0.087548	0.16422	0.24344	0.25914	-2.2646	-2.475	-2.825	-2.6125	-2.5292	-2.7021	-2.7125	-2.9042	-2.4521	-2.3042	-2.9354	-2.4917	-2.6562	-2.8625	-2.2667	-2.8792	178.423	253.909	530.579	305.164	410.041	415.022	175.367	529.292	253.490	301.567	279.817	411.486	224.797	511.486	461.636	453.833	0.00096398	0.0013202	0.00016047	833.63	1.1094e-05	1.5347e-05	1008.1	270.19	5.5063e-06	2.7483e-06	368.98	117.65	81.755	26.043	8.2278e-06	51.268	0.0052849	0.0055391	0.0015378	1054.5	6.0531e-05	6.0824e-05	1229.1	343.81	6.029e-05	6.092e-05	477.53	153.05	117.3	37.791	6.0718e-05	67.706	490.988	465.477	497.046	188.123	521.642	239.583	187.297	191.431	402.769	241.083	190.395	193.569	194.390	199.701	525.510	198.330	-8191	255	
8739.518	1	1	0	0	0.11502	0.068519	0.22453	0.16787	0.11499	0.058694	0.32817	0.21669	0.22133	0.18645	0.17393	0.12772	0.19474	0.036121	0.15338	0.15327	-2.0417	-2.4437	-2.7104	-2.5708	-2.5479	-2.8604	-2.5938	-2.8604	-2.6125	-2.4813	-3.0208	-2.5917	-2.6875	-2.7854	-2.4229	-2.6562	525.352	420.957	228.272	174.167	230.373	230.739	445.715	438.808	228.578	300.151	463.736	246.277	487.110	316.793	327.361	185.439	0.0013724	0.0004221	0.00053577	843.13	1.7799e-05	2.3183e-05	1012.2	272.66	7.9817e-06	1.1662e-05	371.34	118.91	83.427	26.391	1.1218e-05	51.784	0.0053677	0.0056195	0.0015636	1062.8	6.1585e-05	6.1959e-05	1239.2	348.13	6.2177e-05	6.3147e-05	484.45	155.45	119.3	38.349	6.2373e-05	68.49	486.438	237.352	296.072	187.895	299.519	387.732	187.322	191.543	227.067	318.991	190.604	193.762	194.165	199.735	328.238	198.291	-8191	255	
8739.639	1	1	0	0	0.3191	0.24184	0.041593	0.21246	0.10202	0.30874	0.20425	0.17836	0.046078	0.048372	0.17468	0.11632	0.24292	0.19341	0.085891	0.23352	-2.2188	-2.375	-2.6917	-2.8979	-2.5187	-2.825	-2.5896	-2.8229	-2.6	-2.4708	-2.8312	-2.7438	-2.6063	-2.8229	-2.375	-2.6937	423.279	374.510	312.949	473.044	354.999	532.128	180.018	444.484	184.976	179.996	193.555	194.137	482.629	528.918	478.233	365.535	0.001461	0.0015995	0.00024371	849.58	5.8032e-06	1.1566e-05	1014	273.34	1.1526e-05	1.3063e-05	372.08	118.07	83.065	26.506	8.3337e-06	51.855	0.0054819	0.0057098	0.0015881	1071.4	6.2096e-05	6.2598e-05	1243.1	349.68	6.2362e-05	6.307e-05	483.75	155.41	119.01	38.52	6.2519e-05	68.455	486.865	371.528	381.480	188.195	342.917	304.465	187.444	191.784	237.410	356.744	190.674	193.797	194.349	200.104	325.420	197.975	-8191	255	
8739.733	1	1	0	0	0.13448	0.29164	0.29491	0.10868	0.075646	0.062161	0.34713	0.32255	0.039997	0.18616	0.50907	0.2643	0.060044	0.1901	0.069087	0.16974	-2.2438	-2.2396	-2.9021	-2.7042	-2.5792	-2.9125	-2.525	-2.9042	-2.9167	-2.3292	-2.8354	-2.6667	-2.4542	-2.9146	-2.6896	-2.7354	354.984	387.870	501.970	493.452	438.203	234.806	483.430	525.269	345.860	527.435	498.620	260.543	525.802	506.089	185.148	508.846	0.0015599	0.0012798	0.00029601	846.1	7.0423e-06	1.3764e-05	1012	271.67	1.4571e-05	1.8617e-05	368.77	118.93	83.29	26.202	5.6915e-06	51.522	0.0055032	0.0057369	0.0016025	1072.3	6.2939e-05	6.3256e-05	1244	349.47	6.3535e-05	6.3919e-05	484.97	155.76	119.88	38.596	6.3836e-05	68.774	502.375	296.219	336.347	187.958	411.534	345.517	187.371	191.716	257.340	349.806	190.384	193.697	194.498	200.247	202.559	198.176	-8191	255	
8739.805	1	1	0	0	0.21899	0.1676	0.092034	0.21917	0.284	0.10579	0.11802	0.16712	0.094431	0.14884	0.21341	0.29705	0.20867	0.087678	0.46502	0.33892	-2.3292	-2.4583	-2.5938	-2.725	-2.4417	-2.8854	-2.6854	-2.7417	-2.9875	-2.4521	-2.7771	-2.5729	-2.2812	-3.0875	-2.5687	-2.65	278.016	332.720	183.822	396.675	255.690	238.731	500.884	420.430	360.912	270.657	177.398	531.805	442.076	226.791	475.985	518.297	0.001008	0.00089779	0.0004157	840.93	9.3892e-06	1.4598e-05	1004.1	273.28	8.3718e-06	6.7638e-06	370.56	118.74	82.762	26.358	5.5873e-06	51.452	0.0056317	0.005866	0.0016355	1074.7	6.3941e-05	6.4143e-05	1247.9	350.18	6.3331e-05	6.3827e-05	485.41	156.01	119.15	38.558	6.3138e-05	68.442	498.004	453.960	464.431	188.195	318.300	344.275	187.398	191.688	489.688	419.670	190.806	194.070	194.423	200.018	179.769	198.418	-8191	255	
8739.902	1	1	0	0	0.30961	0.18723	0.061822	0.064017	0.12712	0.26908	0.32651	0.13385	0.083976	0.13632	0.13097	0.097778	0.15708	0.12288	0.10129	0.13966	-2.4229	-2.3042	-2.7729	-2.7458	-2.2646	-3.0229	-2.6042	-2.6521	-2.7438	-2.4688	-2.5563	-2.7875	-2.4708	-2.7604	-2.8104	-2.6125	193.396	186.347	488.571	495.581	528.531	424.298	456.023	300.548	532.343	353.531	184.718	356.037	195.500	498.233	501.213	440.040	0.0012383	0.0019332	6.9747e-05	847.67	1.6468e-06	4.4931e-06	1013.3	271.64	3.1446e-06	1.4877e-05	370.72	119.59	83.207	26.434	1.386e-06	51.605	0.005502	0.0057168	0.0016046	1071.3	6.1987e-05	6.2463e-05	1245.2	348.5	6.1697e-05	6.1951e-05	482.71	155.11	118.41	38.076	6.1439e-05	68.022	489.125	269.099	393.310	188.175	291.539	183.037	187.366	191.901	206.274	392.771	190.284	193.977	194.129	200.033	499.381	197.871	-8191	255	
8740.021	1	1	0	0	0.22557	0.13501	0.052879	0.15192	0.10876	0.18907	0.17101	0.086426	0.12147	0.14853	0.27358	0.39352	0.21189	0.21053	0.12528	0.17647	-2.5604	-2.3479	-2.4375	-2.8688	-2.3833	-2.6896	-2.9146	-2.5229	-2.8917	-2.5062	-2.6083	-2.8229	-2.4271	-2.7167	-2.7167	-2.6333	210.325	288.634	513.803	504.869	321.135	358.395	482.314	459.624	354.361	232.858	466.126	458.946	490.342	479.843	300.119	489.475	0.0012256	0.0017771	0.00037756	844.01	1.7064e-05	1.1204e-05	1014	271.87	2.8384e-05	3.931e-06	372.25	118.83	82.992	26.4	1.3678e-05	51.251	0.0053033	0.0055192	0.001548	1061.5	5.9853e-05	6.0366e-05	1235.4	345.46	5.9527e-05	5.9892e-05	479.24	153.21	116.86	37.845	6.0171e-05	67.335	490.415	301.190	230.555	187.997	493.570	316.044	187.303	191.644	405.775	311.397	190.450	193.640	194.643	200.052	193.628	198.453	-8191	255	
8740.118	1	1	0	0	0.13687	0.15377	0.095195	0.17318	0.24566	0.24142	0.19606	0.11333	0.166	0.12933	0.19382	0.012478	0.10397	0.21431	0.098551	0.30545	-2.4958	-2.2958	-2.4667	-2.8604	-2.4646	-2.7125	-2.7583	-2.4479	-2.7854	-2.5021	-2.7146	-2.875	-2.4437	-2.6771	-2.4729	-2.5771	268.651	348.932	309.357	440.868	249.673	256.449	450.613	499.787	473.811	352.469	307.755	186.727	479.490	454.163	444.134	501.287	0.0013443	0.00074399	0.00044401	838.45	1.9897e-05	8.7329e-06	1013.6	272.61	3.804e-06	8.8161e-06	371.43	118.73	82.963	26.362	5.9377e-06	51.802	0.0052493	0.0054834	0.0015311	1056.2	5.9096e-05	5.9781e-05	1231.7	344.56	5.9128e-05	6.001e-05	478.51	153.52	117.3	37.922	5.9809e-05	67.571	491.661	287.362	237.863	187.896	330.098	321.818	187.608	191.883	515.136	220.551	190.755	193.815	194.692	200.144	342.711	198.499	-8191	255	
8740.214	1	1	0	0	0.2012	0.21151	0.076697	0.10053	0.22621	0.21964	0.33024	0.16878	0.073695	0.10843	0.2179	0.11696	0.11222	0.12614	0.1651	0.15222	-2.2917	-2.375	-2.3563	-2.8896	-2.4146	-2.6458	-2.9417	-2.3688	-2.7938	-2.6167	-2.7812	-2.9917	-2.5083	-2.6562	-2.6937	-2.4979	326.371	200.403	206.100	459.370	427.087	205.880	471.888	255.650	383.304	456.578	440.067	460.856	421.259	348.114	480.888	427.738	0.0011929	0.0022735	0.00022641	845.03	1.735e-05	1.2211e-05	1011.7	274.33	8.0854e-06	5.6403e-06	372.14	119.17	83.682	26.64	1.3041e-05	51.809	0.0052366	0.0054721	0.0015287	1060.2	5.9324e-05	6.0547e-05	1234.2	346.47	5.9829e-05	6.0963e-05	481.64	154.55	117.97	38.222	6.041e-05	67.872	482.701	198.351	502.324	187.923	271.715	478.812	187.481	191.902	180.987	354.618	190.612	193.878	194.409	199.863	242.681	198.472	-8191	255	
8740.310	1	1	0	0	0.098148	0.37001	0.26743	0.093159	0.066003	0.40442	0.42596	0.11272	0.15246	0.39384	0.30788	0.14391	0.084192	0.1715	0.13658	0.062136	-2.35	-2.6146	-2.5208	-3.0042	-2.3167	-2.6354	-2.875	-2.625	-2.7521	-2.8354	-2.6688	-3.0167	-2.375	-2.5187	-2.9229	-2.5167	291.415	383.313	516.018	283.456	498.949	429.652	495.454	495.617	307.961	420.997	493.592	452.679	475.117	260.709	312.865	376.062	0.00116	0.0013303	4.8782e-05	841.7	8.5398e-06	8.1427e-06	1014.5	273.66	2.7113e-05	1.1742e-05	373.8	119.15	83.731	26.367	9.5145e-06	52.088	0.0053036	0.0055303	0.0015394	1060.7	5.9795e-05	6.0551e-05	1238	346.22	5.982e-05	6.0428e-05	480.35	153.94	117.76	37.968	5.9543e-05	67.843	497.366	498.195	191.504	187.999	231.776	262.514	187.416	191.709	278.261	267.357	190.536	193.538	194.119	199.955	188.472	198.373	-8191	255	
8740.406	1	1	0	0	0.12571	0.17095	0.12947	0.20773	0.1248	0.321	0.31597	0.12883	0.33386	0.18316	0.2502	0.094148	0.24028	0.41488	0.068234	0.14003	-2.2104	-2.6937	-2.3375	-2.8396	-2.2812	-2.425	-2.8438	-2.3812	-2.7646	-2.8604	-2.4646	-2.7646	-2.6167	-2.5167	-2.9646	-2.3958	314.003	259.504	465.189	279.089	386.041	413.679	448.078	177.694	208.131	326.118	506.727	464.754	463.955	503.943	221.603	524.548	0.0013639	0.00087946	0.00049593	843.98	9.8358e-06	1.743e-05	1015.4	274.01	3.688e-06	5.0616e-06	371.86	119.19	84.297	26.756	3.1286e-06	51.976	0.0052647	0.0054754	0.0015184	1061	5.9488e-05	6.0422e-05	1236.5	346.62	6.0064e-05	6.0579e-05	480.13	154.34	118.28	38.214	6.0218e-05	67.872	488.315	408.916	200.706	188.042	405.105	282.509	187.606	191.254	355.343	483.502	190.327	193.775	194.479	199.570	455.733	198.151	-8191	255	
8740.502	1	1	0	0	0.1009	0.14947	0.11181	0.25124	0.28955	0.10981	0.2506	0.44493	0.37263	0.34991	0.2589	0.14421	0.10636	0.16009	0.050671	0.38147	-2.1333	-2.5875	-2.4333	-2.8375	-2.7833	-2.4354	-2.9458	-2.3542	-2.6875	-2.6854	-2.4396	-2.9479	-2.7625	-2.4	-3.0229	-2.6375	506.150	174.630	267.190	414.326	293.667	306.441	454.996	527.350	231.955	519.628	479.480	471.816	497.157	528.044	372.702	518.944	0.0010195	0.0011338	0.00049931	850.4	1.2058e-05	1.1814e-05	1018.5	273.35	7.6376e-06	1.3051e-05	374.49	119.26	84.107	26.765	1.8164e-05	52.376	0.0053217	0.0055085	0.0015344	1065.6	6.0076e-05	6.083e-05	1239.2	347.52	6.0395e-05	6.0947e-05	482.31	155.02	118.84	38.423	6.0373e-05	68.212	489.955	331.748	238.980	188.009	260.073	269.460	187.521	191.597	238.680	391.025	190.316	193.803	194.358	200.052	421.252	198.192	-8191	255	
8740.623	1	1	0	0	0.042591	0.14259	0.11413	0.14989	0.073384	0.167	0.17901	0.17068	0.20515	0.29231	0.449	0.14283	0.11348	0.09634	0.12569	0.2885	-2.0563	-2.8708	-2.5125	-2.7812	-2.5708	-2.4792	-3.0563	-2.5979	-2.5958	-2.8958	-2.4458	-2.7458	-2.5563	-2.5271	-2.8771	-2.6437	250.459	469.293	180.073	506.766	523.222	511.102	462.501	444.975	340.677	527.369	480.835	185.791	527.739	289.732	288.279	497.745	0.0012965	0.0014465	0.00020575	851.64	8.6931e-06	7.8231e-06	1014.6	276.74	4.7933e-06	1.0562e-05	372.33	119.04	84.174	26.95	5.5983e-06	52.669	0.0052939	0.0055045	0.0015239	1066.4	5.9565e-05	6.0112e-05	1235.8	348.1	5.9826e-05	6.0306e-05	480.29	154.11	118.02	38.22	5.9131e-05	68.371	480.303	491.236	228.115	188.030	413.252	250.136	187.333	191.501	473.097	439.998	190.431	193.673	194.291	200.115	468.318	198.314	-8191	255	
8740.719	1	1	0	0	0.034761	0.10859	0.071107	0.13495	0.43211	0.23884	0.2295	0.23698	0.15207	0.22442	0.12321	0.021206	0.17359	0.17491	0.068096	0.16058	-2.1896	-2.8063	-2.4062	-2.575	-2.6771	-2.4292	-3.0417	-2.6896	-2.4167	-2.8167	-2.4521	-2.6667	-2.7333	-2.475	-2.8292	-2.6333	240.212	410.848	370.603	309.926	480.250	281.607	460.188	189.656	518.082	402.921	505.909	292.508	282.142	303.159	241.408	333.683	0.0013952	0.0020689	5.5664e-05	845.32	9.9606e-06	8.3951e-06	1020.3	275.43	8.4973e-06	2.0361e-05	375.29	119.31	83.215	27.038	5.3085e-06	52.513	0.0052375	0.0054266	0.0015035	1061.8	5.8865e-05	5.9168e-05	1237.7	347.33	5.9062e-05	5.9464e-05	479.72	154.22	117.64	38.158	5.8786e-05	68.113	479.728	517.837	386.403	187.931	450.433	322.514	187.241	191.438	271.342	415.265	190.747	193.757	194.410	200.072	446.868	198.042	-8191	255	
8740.813	1	1	0	0	0.082445	0.068291	0.21553	0.20035	0.094574	0.074152	0.33136	0.25375	0.19825	0.16966	0.16868	0.14076	0.23605	0.14836	0.23287	0.066735	-1.9375	-2.7104	-2.3854	-2.5604	-2.825	-2.3708	-2.8708	-2.8208	-2.6562	-2.9979	-2.6042	-2.7062	-2.8521	-2.5687	-2.7521	-2.8854	240.067	289.479	330.585	392.658	448.166	255.051	459.627	515.835	308.643	204.930	527.090	259.819	186.309	206.133	196.200	458.013	0.00098622	0.0020847	0.00022555	849.64	5.0576e-06	6.4495e-06	1015.4	273.64	7.133e-06	1.2212e-05	372.35	118.56	82.887	26.801	1.0214e-05	52.541	0.0051052	0.0052678	0.0014652	1053.2	5.6612e-05	5.6649e-05	1224.1	343.08	5.6459e-05	5.6785e-05	472.52	151.75	115.53	37.556	5.663e-05	67.333	500.869	385.823	412.018	187.951	460.409	411.926	187.307	191.763	323.233	314.645	190.783	193.884	194.291	200.123	231.589	198.167	-8191	255	
8740.909	1	1	0	0	0.31595	0.15568	0.22826	0.3712	0.079521	0.092607	0.12225	0.10286	0.20806	0.1585	0.18674	0.20765	0.17538	0.11738	0.26789	0.14311	-2.2333	-2.8542	-2.4333	-2.3479	-2.5812	-2.5875	-2.9646	-2.7771	-2.3417	-2.8146	-2.6625	-2.5292	-2.8792	-2.4188	-2.8	-2.7958	182.192	338.951	369.855	186.466	481.254	445.349	515.836	432.038	201.065	345.695	530.233	187.335	481.963	413.259	519.868	465.466	0.0012832	0.00091014	0.00068671	845.61	9.8423e-06	1.792e-05	1016.3	275.23	1.2632e-05	2.9456e-05	371.78	118.49	82.394	26.667	1.2314e-05	52.173	0.0049462	0.0051623	0.0014339	1050	5.6176e-05	5.6219e-05	1221.8	341.75	5.6407e-05	5.6834e-05	472.24	151.29	115.15	37.522	5.656e-05	67.148	480.034	183.380	248.031	188.148	231.356	447.031	187.466	191.549	193.291	337.167	190.629	194.013	194.322	200.283	256.582	198.249	-8191	255	
8741.030	1	1	0	0	0.015709	0.096078	0.1661	0.17744	0.44209	0.10707	0.058968	0.11261	0.099639	0.1994	0.16425	0.26663	0.23158	0.26984	0.17795	0.17873	-1.9021	-2.8417	-2.3542	-2.6521	-2.975	-2.4875	-2.8458	-2.9083	-2.3646	-2.8	-2.7354	-2.4062	-2.8271	-2.6646	-2.675	-2.975	262.631	190.386	240.640	468.922	409.440	518.622	473.821	521.316	187.948	440.903	461.004	273.060	495.942	507.122	350.874	429.481	0.0012262	0.00066552	0.0003096	843.88	1.8352e-05	1.423e-06	1010.1	271.34	3.2575e-06	1.3714e-05	369.76	117.58	82.156	26.403	4.9465e-06	51.962	0.0049193	0.0051363	0.0014317	1045.7	5.5546e-05	5.621e-05	1220	339.87	5.5426e-05	5.6334e-05	469.98	150.24	114.16	37.214	5.6325e-05	66.646	473.029	511.742	202.537	188.052	514.273	415.993	187.635	191.430	226.267	249.568	190.486	193.698	194.658	200.085	182.128	198.207	-8191	255	
8741.102	1	1	0	0	0.29273	0.22029	0.14836	0.34279	0.031621	0.15992	0.12235	0.31023	0.15206	0.19993	0.18489	0.044639	0.1389	0.22222	0.27869	0.35984	-2.0729	-2.9292	-2.5667	-2.4417	-2.9396	-2.4813	-2.7771	-2.9771	-2.4188	-2.9708	-2.8333	-2.5771	-2.9333	-2.5687	-2.7292	-2.8688	304.641	489.519	355.464	242.638	378.848	193.132	502.694	502.842	298.219	390.598	525.390	199.047	491.967	484.192	503.210	467.791	0.0012736	0.001643	0.0004676	842.67	1.324e-05	1.6744e-05	1009.9	271.23	1.4708e-05	8.5338e-06	367.98	117.04	81.704	26.37	7.8658e-06	51.289	0.0048993	0.0051411	0.0014322	1042.2	5.5647e-05	5.6047e-05	1217.2	338.91	5.5547e-05	5.6639e-05	469.1	149.35	113.82	36.979	5.6434e-05	66.283	495.103	266.375	230.957	187.769	216.385	288.386	187.430	191.533	230.798	300.652	190.648	194.075	194.322	200.051	268.258	198.536	-8191	255	
8741.198	1	1	0	0	0.27554	0.088151	0.10914	0.16888	0.18622	0.28815	0.18384	0.26058	0.10584	0.16651	0.073763	0.13899	0.33373	0.07548	0.083751	0.022688	-2.1833	-2.7812	-2.8125	-2.6021	-2.8604	-2.5417	-2.6521	-2.8396	-2.4562	-2.7104	-2.8396	-2.6104	-2.8875	-2.6604	-2.5625	-2.95	188.964	423.511	324.716	507.332	305.690	414.041	183.770	479.564	181.740	256.414	236.277	233.250	180.340	467.040	323.055	410.229	0.00080618	0.0009237	0.00038647	840.94	5.2953e-06	1.0509e-05	1006.4	270.77	5.041e-06	1.7968e-05	366.37	116.51	81.675	26.123	1.5029e-06	51.244	0.0048923	0.0051488	0.001423	1039.5	5.5586e-05	5.6365e-05	1213.1	338.37	5.5745e-05	5.7033e-05	467.69	148.99	113.73	37.009	5.6724e-05	66.269	500.567	254.015	299.994	187.867	271.105	184.099	187.297	191.583	533.423	349.210	190.554	193.836	194.324	199.630	399.512	198.283	-8191	255	
8741.294	1	1	0	0	0.091161	0.15771	0.16668	0.15706	0.251	0.10597	0.13486	0.21849	0.33215	0.095264	0.092276	0.026089	0.15214	0.20122	0.29208	0.21061	-2.0604	-2.5354	-2.8063	-2.4729	-2.7646	-2.7042	-2.7417	-2.95	-2.4396	-2.7083	-2.9688	-2.5021	-2.8187	-2.5917	-2.35	-3.0958	376.496	326.015	382.227	282.927	301.505	487.725	430.768	483.711	331.012	391.542	318.139	375.025	255.375	485.912	497.829	530.534	0.00093497	0.0013337	0.00017839	841.53	3.3989e-06	9.4484e-06	1007.8	271.4	2.3775e-05	7.0609e-06	368.9	117.16	82.267	26.335	9.6824e-06	51.522	0.0049691	0.0052245	0.0014545	1042.7	5.6635e-05	5.7383e-05	1218.4	340.29	5.6816e-05	5.7758e-05	471.33	150.05	115.02	37.353	5.7119e-05	66.776	488.325	297.162	358.028	187.997	175.262	188.494	187.361	191.478	279.616	329.741	190.781	193.890	194.493	199.773	368.870	198.003	-8191	255	
8741.415	1	1	0	0	0.28037	0.091856	0.16484	0.18373	0.069558	0.022816	0.49765	0.12663	0.13926	0.080689	0.12901	0.13692	0.077765	0.08906	0.24009	0.20992	-2.0417	-2.4938	-2.6667	-2.55	-2.8521	-2.6562	-2.5854	-3.0667	-2.4771	-2.6875	-2.9729	-2.2979	-2.6667	-2.6292	-2.5687	-2.9229	530.458	284.925	442.102	498.719	242.898	415.905	477.554	270.473	407.276	438.988	281.662	475.184	211.615	250.110	459.817	425.284	0.0010194	0.00025448	0.00044896	842.33	1.2716e-05	1.3628e-05	1012.3	273.6	9.3943e-06	3.8428e-06	371.18	117.52	82.762	26.386	2.0205e-05	51.993	0.0050241	0.0052792	0.0014655	1048.6	5.7393e-05	5.7924e-05	1224.3	342.53	5.7465e-05	5.8625e-05	474.33	151.13	116.07	37.63	5.7784e-05	67.197	494.133	518.292	191.623	188.222	323.320	296.764	187.393	191.882	473.684	225.573	190.282	193.687	194.494	200.130	343.728	198.185	-8191	255	
8741.511	1	1	0	0	0.11829	0.072623	0.08903	0.12208	0.20365	0.14531	0.43294	0.15646	0.27897	0.34574	0.33267	0.20954	0.11063	0.31808	0.18468	0.24159	-2.1312	-2.4917	-2.7646	-2.4271	-2.7812	-2.675	-2.5729	-2.9333	-2.6333	-2.4104	-2.8583	-2.5687	-2.8896	-2.8583	-2.5667	-3.0375	465.731	383.841	503.636	474.167	332.335	281.328	490.372	381.946	459.784	469.948	194.712	222.088	499.167	490.634	369.455	477.162	0.0013349	0.0012684	0.00021737	843.57	1.6706e-05	1.548e-05	1014.1	275.07	1.1241e-05	1.3781e-05	371.58	117.7	83.444	26.646	7.8631e-06	51.55	0.0051013	0.0052959	0.0014694	1050.2	5.7361e-05	5.7765e-05	1223.6	343.58	5.7349e-05	5.8384e-05	474.36	151.37	116.16	37.695	5.7652e-05	67.374	474.359	352.713	322.904	188.300	250.657	346.136	187.330	191.536	283.704	302.125	190.548	193.656	194.289	199.772	370.059	198.395	-8191	255	
8741.607	1	1	0	0	0.17163	0.32821	0.13964	0.21611	0.10055	0.12745	0.25122	0.2293	0.12115	0.25828	0.076193	0.059369	0.10774	0.052775	0.095921	0.28277	-2.2812	-2.4688	-2.8083	-2.5979	-2.7729	-2.7896	-2.4688	-2.9437	-2.7167	-2.5958	-2.7917	-2.6063	-2.5958	-2.7292	-2.2062	-2.8417	459.068	356.025	344.306	530.771	461.592	220.849	483.298	529.201	413.512	519.702	392.825	299.530	295.533	480.533	450.290	360.220	0.00095317	0.0012105	0.00023162	847.25	7.6199e-06	1.032e-06	1014.4	274.7	6.1255e-06	6.3865e-06	370.18	118.51	83.276	26.693	9.6855e-06	52.171	0.0050662	0.0052604	0.0014667	1053.9	5.7676e-05	5.8024e-05	1224.8	344.49	5.7479e-05	5.8176e-05	475.34	151.88	116.66	37.802	5.7483e-05	67.54	474.934	353.300	508.350	188.091	381.755	379.058	187.160	191.366	343.532	330.544	190.686	193.812	194.120	200.122	255.190	198.603	-8191	255	
8741.703	1	1	0	0	0.21108	0.057636	0.090171	0.10089	0.26377	0.072109	0.10261	0.049631	0.067658	0.16188	0.32993	0.26024	0.10358	0.045922	0.20898	0.11726	-2.0625	-2.4458	-2.7583	-2.6729	-2.4813	-2.8688	-2.3958	-2.7917	-2.7875	-2.3625	-2.9208	-2.6833	-2.5438	-2.9146	-2.4333	-2.8479	514.805	338.611	359.786	433.262	204.485	312.327	486.212	370.319	326.142	394.123	453.273	461.077	393.365	405.694	238.440	181.444	0.0011503	0.0011033	0.00023886	849.43	9.0817e-06	1.5085e-05	1014.2	275.27	9.6786e-06	1.4448e-05	374.89	118.8	83.825	26.955	1.4527e-05	52.552	0.005092	0.0053167	0.0014771	1056.9	5.8249e-05	5.8483e-05	1229.9	346.31	5.8359e-05	5.9044e-05	479.49	153.27	117.54	38.296	5.8862e-05	68.315	518.840	239.492	296.018	187.842	196.073	293.523	187.331	191.521	375.378	402.505	190.412	193.814	194.353	199.742	397.738	198.320	-8191	255	
8741.798	1	1	0	0	0.24548	0.14841	0.25474	0.068642	0.17015	0.063517	0.27023	0.12494	0.080909	0.074665	0.090359	0.25466	0.088045	0.23102	0.054675	0.23114	-2.1729	-2.4771	-2.7854	-2.6646	-2.4562	-2.8667	-2.5854	-2.8396	-2.6708	-2.5354	-3.0146	-2.7	-2.5167	-2.8375	-2.4813	-2.7208	464.525	486.395	483.156	185.833	352.157	353.078	495.162	265.701	330.581	485.960	505.047	412.713	495.233	530.224	485.639	511.073	0.0010641	0.0015205	0.00013424	849.84	5.8137e-06	7.9431e-06	1018.9	276.51	1.1671e-05	1.186e-05	372.64	118.79	84.53	26.999	1.8813e-05	52.618	0.0051954	0.0054095	0.0015111	1064.2	5.887e-05	5.9478e-05	1236.3	348.48	5.9124e-05	5.9606e-05	481.07	154.05	118.31	38.326	5.9333e-05	68.431	495.451	243.245	223.178	187.887	262.184	267.976	187.638	191.532	341.789	356.373	190.359	193.576	194.288	200.180	404.212	198.106	-8191	255	
8741.894	1	1	0	0	0.08115	0.091513	0.25911	0.059438	0.22251	0.16479	0.12336	0.32358	0.11361	0.11942	0.27437	0.11441	0.11104	0.18411	0.14403	0.089949	-2.2708	-2.2438	-2.6729	-2.6146	-2.3063	-2.9042	-2.8021	-2.6	-2.8583	-2.4167	-2.7646	-2.7542	-2.5104	-2.9542	-2.5312	-2.7833	495.033	474.768	440.953	449.330	178.849	424.859	484.664	441.933	186.822	238.100	334.779	499.836	204.325	219.546	471.523	427.543	0.0010575	0.0013002	0.00023979	847.94	2.0041e-05	1.0514e-05	1019	274.44	1.1052e-05	4.1839e-06	372.28	119.1	84.188	27.171	1.5403e-05	52.464	0.0051816	0.0053941	0.0015113	1061.6	5.8648e-05	5.9344e-05	1238.1	347.76	5.9043e-05	5.9586e-05	480.52	153.74	117.78	38.361	5.9212e-05	68.365	492.773	275.430	212.557	187.950	326.561	405.842	187.103	191.580	367.167	264.371	190.542	194.020	194.458	199.856	313.018	198.369	-8191	255	
8741.992	1	1	0	0	0.18885	0.13814	0.17894	0.27604	0.16499	0.16586	0.31966	0.17022	0.25642	0.14612	0.18908	0.13498	0.34093	0.19931	0.079215	0.10866	-2.2917	-2.4875	-2.8729	-2.7354	-2.3229	-2.8667	-2.7021	-2.5812	-2.9042	-2.6063	-2.75	-2.8167	-2.3729	-2.9021	-2.5812	-2.6146	195.840	191.023	487.148	512.612	270.198	364.990	441.699	482.056	341.835	533.550	492.680	510.327	494.943	345.667	359.413	479.943	0.00090965	0.0019741	0.00020711	851.19	1.9952e-05	1.4558e-05	1018.5	276.42	1.1718e-05	1.9756e-05	376.02	119.96	84.179	26.98	1.6853e-05	52.387	0.0051813	0.0054048	0.0015138	1064.9	5.8696e-05	5.9659e-05	1234.5	347.97	5.9135e-05	5.9709e-05	481.78	154.52	118.34	38.515	5.9817e-05	68.459	481.442	346.562	206.957	188.136	362.709	400.825	187.033	191.731	294.284	400.989	190.954	193.602	194.480	199.830	304.381	197.893	-8191	255	
8742.110	1	1	0	0	0.30696	0.11919	0.25096	0.21731	0.26986	0.3198	0.24831	0.17715	0.26412	0.19165	0.12508	0.1694	0.04942	0.19798	0.2156	0.24923	-2.6667	-2.3354	-2.7521	-2.7604	-2.2375	-2.6792	-2.8104	-2.6813	-2.9125	-2.5312	-3.0708	-2.6979	-2.4146	-2.8667	-2.5708	-2.5812	357.173	413.974	526.898	444.756	192.039	257.461	415.390	492.390	359.734	291.448	182.805	492.478	501.811	522.224	275.219	292.356	0.001033	0.0012859	0.00039098	849.26	1.2722e-05	8.6768e-06	1017.6	275.79	1.0716e-05	8.1394e-06	375.4	119.76	84.643	26.936	7.9414e-06	53.008	0.0052483	0.0054744	0.0015311	1065.4	5.9083e-05	5.9947e-05	1239.5	349.06	5.9702e-05	6.0262e-05	483.23	154.92	118.63	38.623	6.0056e-05	68.575	504.013	280.820	356.332	188.052	323.041	330.061	187.470	191.783	273.572	380.957	190.647	193.381	194.427	199.685	246.157	198.295	-8191	255	
8742.207	1	1	0	0	0.28497	0.09043	0.17835	0.40601	0.35587	0.14578	0.17521	0.16262	0.057473	0.16673	0.19557	0.11996	0.026612	0.17986	0.11313	0.063113	-2.5458	-2.775	-2.6208	-2.9083	-2.4104	-2.7438	-2.6521	-2.4417	-2.9146	-2.5438	-2.5812	-2.8688	-2.5271	-2.6208	-2.8896	-2.5292	491.925	426.969	293.136	492.430	395.690	469.771	440.093	501.934	523.175	531.713	519.267	463.156	392.433	326.488	210.818	366.744	0.0014298	0.0013647	0.00032557	851.77	4.2469e-06	2.0635e-06	1021	277.53	3.4097e-06	3.2474e-06	375.27	120.5	83.737	26.971	2.2697e-05	52.681	0.0052726	0.0054933	0.0015298	1065.5	5.9294e-05	6.0426e-05	1243.9	349.13	5.9909e-05	6.0609e-05	484.12	155.67	118.74	38.663	6.1118e-05	68.881	497.541	334.399	455.435	188.216	266.265	424.279	187.407	191.537	357.068	455.336	190.523	193.796	194.568	199.936	335.988	198.286	-8191	255	
8742.303	1	1	0	0	0.11368	0.13148	0.13507	0.11728	0.2209	0.3554	0.22208	0.23463	0.10989	0.29964	0.23267	0.14932	0.14419	0.21755	0.094977	0.15143	-2.3021	-2.4792	-2.4604	-2.8979	-2.3479	-2.8625	-2.6833	-2.3187	-2.8812	-2.7188	-2.6021	-2.925	-2.4854	-2.7958	-2.7021	-2.4375	452.891	341.350	446.058	371.185	532.079	480.400	432.359	203.743	244.237	184.996	434.461	408.249	234.311	389.959	288.965	515.412	0.0011914	0.00072059	0.00071218	852.17	7.7001e-06	2.0671e-05	1024	275.56	1.525e-05	3.4023e-06	374	119.42	84.79	27.016	9.4264e-06	52.312	0.0053753	0.0056129	0.001567	1071.2	6.1131e-05	6.2232e-05	1248.1	351.05	6.1742e-05	6.2177e-05	486.92	155.89	119.83	38.957	6.1828e-05	68.789	456.026	241.039	262.557	187.881	506.918	291.316	187.169	191.418	293.852	451.312	190.480	193.541	194.399	199.928	438.524	197.925	-8191	255	
8742.399	1	1	0	0	0.10817	0.30951	0.1994	0.061133	0.058662	0.20231	0.27139	0.23235	0.30993	0.11311	0.20525	0.16258	0.21041	0.23436	0.20185	0.16836	-2.325	-2.8438	-2.6229	-2.9583	-2.5812	-2.6792	-2.9271	-2.5167	-3.0167	-2.6875	-2.5771	-3.0687	-2.6479	-2.775	-2.9333	-2.5	480.753	398.122	268.536	499.541	492.136	284.226	448.697	513.086	484.950	189.834	191.031	227.815	499.374	278.505	396.909	475.860	0.0011802	0.0027548	0.0003518	845.43	2.2814e-05	2.6322e-06	1017.1	276.89	1.2989e-05	1.3e-05	377.19	119.88	84.671	27.146	2.6778e-06	52.317	0.0054014	0.0056377	0.0015682	1069.2	6.0846e-05	6.1589e-05	1245.5	350.33	6.0888e-05	6.1764e-05	485.58	155.77	119.39	38.753	6.0851e-05	68.665	508.692	225.043	319.830	187.919	294.642	361.756	187.294	191.748	240.209	210.699	190.352	193.735	194.309	200.153	240.111	198.369	-8191	255	
8742.495	1	1	0	0	0.43331	0.21759	0.15363	0.35942	0.20871	0.22825	0.33006	0.069246	0.14577	0.28746	0.057963	0.073997	0.097296	0.18046	0.13787	0.10939	-2.35	-2.8312	-2.5167	-2.9958	-2.4083	-2.5708	-2.9083	-2.4146	-2.7313	-2.6479	-2.525	-2.7771	-2.6771	-2.5438	-2.8	-2.5854	512.894	412.036	181.295	432.189	269.662	235.469	404.455	496.877	504.939	497.053	501.353	524.287	290.642	215.201	207.627	484.900	0.00093752	0.0012096	0.00027656	850.84	6.4159e-06	5.2536e-06	1015.4	276.55	2.536e-06	1.4321e-05	375.23	120.68	84.722	27.111	7.7253e-06	52.593	0.0053921	0.0055948	0.0015507	1070.9	6.083e-05	6.1436e-05	1245.8	350.59	6.1083e-05	6.1776e-05	486	156.17	120.18	39.051	6.1951e-05	69.144	477.610	495.227	198.265	188.105	425.631	240.342	187.060	191.654	290.947	365.782	190.600	193.692	194.529	199.592	327.274	198.045	-8191	255	
8742.591	1	1	0	0	0.013856	0.14482	0.19782	0.21529	0.15066	0.16479	0.30716	0.16077	0.13443	0.12627	0.25958	0.16807	0.10321	0.30622	0.12104	0.2067	-2.2646	-2.7167	-2.2708	-2.8625	-2.4292	-2.3937	-2.8792	-2.4667	-2.6063	-2.6292	-2.4437	-2.8646	-2.7083	-2.5062	-2.9188	-2.5687	531.530	198.883	275.286	486.008	448.589	384.995	456.095	324.811	424.423	199.148	503.012	452.115	178.906	419.084	460.242	530.780	0.0010176	0.0016076	0.0003479	849.06	7.8588e-06	2.0316e-06	1025.8	276.93	2.2374e-05	9.7486e-06	376.98	120.4	84.855	27.11	1.323e-05	52.238	0.0054513	0.005714	0.0015807	1075.1	6.203e-05	6.2795e-05	1255.2	353.03	6.2644e-05	6.2986e-05	488.79	156.95	120.68	39.003	6.2232e-05	69.137	491.794	229.207	319.951	187.694	225.214	487.890	187.328	191.517	321.605	178.809	190.742	194.017	194.334	200.117	377.414	198.452	-8191	255	
8742.712	1	1	0	0	0.14409	0.03136	0.12198	0.091404	0.14073	0.11097	0.11575	0.063702	0.17522	0.34492	0.21539	0.11555	0.22924	0.26609	0.14283	0.093415	-2.3542	-2.6542	-2.2938	-2.8958	-2.7521	-2.5896	-2.9188	-2.5729	-2.6042	-2.75	-2.3521	-2.7438	-2.7167	-2.4958	-2.9146	-2.4521	446.611	390.500	493.481	362.870	376.366	359.470	349.798	389.934	414.374	199.802	280.213	339.524	518.802	363.880	374.490	381.383	0.00029723	0.0019226	0.00028863	853.43	7.0032e-06	2.4057e-05	1020.8	276.85	3.6801e-06	1.8705e-05	376.73	120.19	84.3	27.153	1.3499e-05	52.328	0.0054805	0.0056979	0.0015767	1073.9	6.1502e-05	6.1617e-05	1248.3	350.92	6.1393e-05	6.1841e-05	485.55	156.2	119.82	38.883	6.1449e-05	68.804	504.476	305.709	311.222	188.099	487.391	530.813	187.651	191.807	331.933	375.828	190.316	193.405	194.467	199.976	333.872	198.445	-8191	255	
8742.806	1	1	0	0	0.23784	0.14788	0.14352	0.25476	0.24783	0.13401	0.16966	0.29685	0.10832	0.17039	0.21466	0.24511	0.020002	0.1285	0.1672	0.1948	-2.1875	-2.7333	-2.3479	-2.8104	-2.5917	-2.4062	-3.0958	-2.6354	-2.6437	-2.9854	-2.5104	-2.9958	-2.6333	-2.4313	-2.9938	-2.7958	497.607	318.148	200.899	430.386	382.080	178.192	390.946	446.584	203.648	509.017	475.831	477.772	305.819	418.152	501.446	383.760	0.0015111	0.0019551	0.00011509	854.19	4.189e-06	7.7779e-06	1022.3	276.59	1.1728e-05	2.6305e-05	373.97	119.95	84.461	27.076	1.1383e-05	52.522	0.0054243	0.005627	0.0015655	1074	6.125e-05	6.1708e-05	1248.3	352.01	6.1908e-05	6.2646e-05	487.11	156.94	120.44	39.026	6.2411e-05	69.179	483.367	388.902	200.591	187.900	489.381	479.345	187.543	191.724	365.036	248.282	190.446	193.560	194.502	200.179	293.072	197.813	-8191	255	
8742.902	1	1	0	0	0.23016	0.22986	0.26625	0.3597	0.20972	0.12399	0.20372	0.10953	0.14737	0.13144	0.30266	0.33145	0.11149	0.16481	0.10433	0.12452	-2.025	-2.9042	-2.2667	-2.6896	-2.7687	-2.3542	-2.8729	-2.7479	-2.4417	-2.8187	-2.5083	-2.6417	-3.0312	-2.5396	-2.6917	-2.8521	277.481	379.328	430.256	510.657	318.590	194.075	207.145	194.876	369.025	178.105	450.165	525.352	402.844	187.693	364.429	423.224	0.0012066	0.00062658	0.00017073	853.16	6.6953e-06	1.4393e-05	1027.8	276.97	1.3625e-06	1.5119e-05	377.26	120.14	84.579	27.043	8.807e-06	52.657	0.0054457	0.0056743	0.0015725	1077.3	6.1558e-05	6.1999e-05	1254.9	353	6.2165e-05	6.2758e-05	489.58	157.6	120.89	39.184	6.3402e-05	69.6	493.770	234.137	185.713	187.903	393.024	338.168	187.179	191.628	473.654	285.724	190.531	193.953	194.176	199.964	311.303	198.655	-8191	255	
8742.974	1	1	0	0	0.39	0.14261	0.08798	0.11893	0.22957	0.21652	0.38766	0.25267	0.10471	0.28839	0.29884	0.15718	0.24061	0.18693	0.2396	0.11721	-1.8937	-2.8875	-2.4625	-2.8458	-2.6604	-2.3833	-2.9396	-2.7771	-2.5917	-2.9646	-2.5479	-2.6542	-3.0146	-2.4792	-2.6771	-2.7583	218.740	330.368	324.900	490.386	463.083	377.006	494.022	481.878	224.775	333.696	447.620	491.673	221.577	298.035	218.329	370.903	0.0012988	0.0026775	0.00036882	849.74	8.7993e-06	4.2082e-06	1025.6	277.06	1.0097e-05	1.1901e-05	378.46	120.65	84.99	26.986	3.9315e-06	52.253	0.0055507	0.0057909	0.0016203	1081.9	6.335e-05	6.3848e-05	1262.1	354.8	6.3563e-05	6.4173e-05	492.28	158.28	121.29	39.223	6.3912e-05	69.465	482.689	271.370	309.431	187.867	373.598	313.910	187.553	191.730	316.560	363.465	190.597	193.885	194.680	199.802	328.781	198.117	-8191	255	
8743.095	1	1	0	0	0.26186	0.30824	0.13559	0.10086	0.13904	0.088795	0.33881	0.1692	0.064865	0.35798	0.092284	0.28832	0.066316	0.18978	0.21789	0.22849	-1.8542	-2.625	-2.5958	-2.5771	-2.875	-2.3542	-2.9562	-2.8667	-2.3208	-2.8125	-2.6583	-2.4313	-2.9167	-2.4125	-2.525	-2.6437	395.599	398.461	209.331	477.006	470.098	384.308	487.677	464.807	475.475	438.081	414.122	524.188	512.070	219.165	363.568	479.859	0.0012711	0.00047294	0.00066804	848.78	7.0265e-06	6.9563e-06	1020.1	276.03	2.1706e-05	5.5953e-06	374.47	120.62	84.773	26.961	7.27e-06	52.351	0.0055496	0.0058107	0.0016134	1078.7	6.2534e-05	6.2869e-05	1256.2	353.25	6.2654e-05	6.3269e-05	488.45	157.23	120.7	38.958	6.3128e-05	69.118	480.602	459.017	230.245	187.916	273.619	314.244	187.332	191.573	485.841	219.966	190.984	194.060	194.257	199.841	398.922	198.171	-8191	255	
8743.191	1	1	0	0	0.23137	0.047854	0.021746	0.066771	0.31799	0.039028	0.21007	0.45709	0.092342	0.29088	0.064439	0.15359	0.10577	0.099219	0.18587	0.16059	-1.9	-2.6146	-2.2979	-2.5854	-2.7542	-2.525	-2.7208	-2.8021	-2.2208	-2.7229	-2.6625	-2.425	-3.0438	-2.575	-2.6542	-2.95	382.164	376.159	185.968	195.712	473.309	334.911	480.498	181.858	251.786	388.218	527.089	438.354	426.176	531.077	464.724	178.788	0.0013103	0.00049556	0.00019521	852.14	5.6234e-06	6.5852e-06	1025.7	276.1	1.2253e-05	1.007e-05	375.51	120.41	84.516	26.901	9.7887e-06	52.477	0.0055068	0.0057909	0.0016052	1079	6.2565e-05	6.3117e-05	1257.7	353.71	6.2686e-05	6.409e-05	490.71	157.61	121.19	39.232	6.3443e-05	69.379	490.465	270.064	243.460	188.119	291.425	205.267	187.400	191.494	323.630	232.851	190.695	193.898	194.223	200.056	315.441	198.216	-8191	255	
8743.287	1	1	0	0	0.21129	0.35617	0.31975	0.12707	0.18475	0.11482	0.19012	0.17597	0.18771	0.22129	0.25685	0.098784	0.046196	0.12337	0.12523	0.029571	-1.8896	-2.825	-2.6437	-2.6833	-3.025	-2.4208	-2.7958	-2.75	-2.3917	-2.7812	-2.6771	-2.4854	-2.9979	-2.5542	-2.5729	-3.1292	374.318	226.038	318.691	218.811	506.272	181.420	303.824	485.850	442.266	338.913	178.106	516.898	203.182	430.640	192.122	467.407	0.001047	0.00074456	0.0004478	850.2	1.0875e-05	1.6028e-06	1024.1	277.78	1.4169e-05	9.2006e-06	375.55	120.93	85.17	27.178	1.1605e-05	52.54	0.0055365	0.0057861	0.001614	1078.6	6.2807e-05	6.3483e-05	1259.3	354.62	6.3197e-05	6.4338e-05	491.19	157.98	121.67	39.308	6.3543e-05	69.413	488.678	294.066	471.406	188.026	178.251	179.071	187.427	191.666	192.953	243.308	190.378	193.764	194.286	199.634	225.523	198.179	-8191	255	
8743.383	1	1	0	0	0.075726	0.10105	0.14708	0.031519	0.09857	0.32414	0.13956	0.33908	0.14762	0.06544	0.27323	0.13247	0.12573	0.091703	0.25374	0.32044	-1.9562	-2.6604	-2.5938	-2.3854	-2.7438	-2.6813	-2.5521	-3.0667	-2.5896	-2.6167	-2.95	-2.4792	-2.9792	-2.7313	-2.4979	-3.0667	173.604	186.447	245.456	409.510	301.114	351.325	465.822	428.121	346.977	463.488	436.221	510.070	210.771	430.248	320.154	504.947	0.00067422	0.00081246	0.00022592	852.17	7.8696e-06	9.6635e-06	1024.7	277.75	9.3057e-06	1.7505e-05	376.11	121.35	84.829	26.945	5.5502e-06	52.375	0.0055758	0.0058483	0.0016209	1079.7	6.3249e-05	6.3756e-05	1259.5	354.68	6.3095e-05	6.4119e-05	490.83	157.84	121.48	39.19	6.3393e-05	69.302	466.048	227.298	440.670	187.896	380.608	189.529	187.351	191.516	499.065	467.568	190.633	193.682	194.351	199.551	233.175	198.241	-8191	255	
8743.504	1	1	0	0	0.24732	0.088172	0.15044	0.13544	0.27458	0.14531	0.12773	0.17851	0.092647	0.23115	0.11474	0.16404	0.36302	0.091301	0.069922	0.13153	-1.9042	-2.5833	-2.7729	-2.6312	-2.7167	-2.8792	-2.5958	-2.8083	-2.4042	-2.7021	-2.8063	-2.4833	-2.9208	-2.7542	-2.4437	-3.025	286.761	365.796	333.485	245.802	377.811	187.715	224.528	183.494	225.254	256.194	451.037	366.977	474.856	395.073	325.413	209.745	0.0011556	0.00044585	5.859e-05	851.95	1.1728e-05	8.2923e-06	1024.2	276.6	4.2887e-06	2.1412e-05	378.05	120.13	84.289	27.011	1.354e-05	52.393	0.0055396	0.0058182	0.0016188	1079.8	6.3288e-05	6.3703e-05	1258.3	354.14	6.2917e-05	6.4097e-05	491.34	157.61	121.44	39.265	6.3599e-05	69.282	475.303	185.109	496.854	187.720	334.800	494.058	187.392	191.567	293.357	529.282	190.473	193.617	193.996	200.207	272.816	197.949	-8191	255	
8743.575	1	1	0	0	0.17208	0.23236	0.10269	0.22572	0.23859	0.20062	0.21554	0.045206	0.31678	0.18474	0.3446	0.28954	0.27903	0.52033	0.071253	0.31954	-2.0708	-2.6771	-3.0125	-2.5792	-2.7292	-2.7687	-2.5521	-2.9021	-2.6042	-2.5146	-3.0667	-2.3792	-2.9083	-2.5854	-2.3875	-2.7729	493.802	269.205	496.130	175.205	210.503	360.692	252.386	376.721	303.132	358.143	493.379	459.250	403.559	529.197	317.762	452.776	0.00048033	0.0011872	0.00064419	847.06	2.5564e-05	1.6728e-05	1021.3	277	2.6975e-06	1.5942e-05	375.65	121.1	84.969	27.191	1.3875e-05	52.52	0.0055356	0.0058043	0.0016051	1075.9	6.2561e-05	6.2964e-05	1255.3	353.95	6.261e-05	6.3379e-05	489.94	157.43	121.34	39.245	6.2758e-05	69.379	483.371	310.067	324.490	187.884	212.626	279.087	187.218	191.334	330.528	225.940	190.640	193.878	194.478	200.396	259.264	197.997	-8191	255	
8743.672	1	1	0	0	0.069033	0.17512	0.27221	0.38631	0.13992	0.2085	0.1176	0.32172	0.063298	0.16006	0.16019	0.35147	0.28409	0.1876	0.34668	0.24326	-2.0521	-2.5229	-2.8792	-2.6646	-2.6208	-2.9	-2.5625	-2.9875	-2.7229	-2.4458	-2.9708	-2.5542	-2.7417	-3.0854	-2.3708	-2.8729	307.034	399.885	330.911	175.042	382.388	304.276	190.940	435.914	364.318	483.042	419.032	182.430	512.107	512.203	245.508	429.794	0.0011377	0.0031744	0.00038175	854.97	5.0323e-06	1.2864e-05	1025.1	278.38	1.6522e-05	1.0665e-05	378.64	120.32	85.227	26.822	2.7047e-05	52.341	0.0055208	0.0058009	0.0016113	1082.1	6.3192e-05	6.3607e-05	1260.4	355.29	6.3541e-05	6.4622e-05	492.4	157.97	121.67	39.245	6.335e-05	69.243	485.507	225.832	351.847	188.302	337.391	308.645	187.530	191.399	216.909	505.698	190.777	193.639	194.208	199.673	378.154	197.854	-8191	255	
8743.792	1	1	0	0	0.10781	0.03751	0.16811	0.17953	0.21549	0.085305	0.48097	0.16594	0.065984	0.19304	0.188	0.30057	0.24476	0.2916	0.18253	0.29732	-2.1604	-2.2625	-2.875	-2.5208	-2.5521	-2.9333	-2.45	-2.825	-2.6188	-2.3917	-2.9083	-2.4437	-2.5938	-2.7458	-2.5167	-2.7354	463.759	300.855	281.980	474.730	312.838	270.417	452.498	443.009	364.178	263.799	441.982	329.142	487.452	434.776	205.589	449.059	0.0012155	0.0015653	0.00025639	845.33	2.2222e-05	1.0095e-05	1022.2	275.13	1.3476e-05	4.4958e-06	374.72	119.55	83.584	26.792	1.8879e-05	52.08	0.0055481	0.0057879	0.0016037	1073.9	6.2192e-05	6.2559e-05	1250.9	350.41	6.1368e-05	6.19e-05	485.37	155.57	119.03	38.583	6.0806e-05	68.315	496.705	297.187	484.132	187.930	357.377	337.440	187.339	191.389	345.191	179.730	190.528	193.732	194.155	200.062	282.414	198.388	-8191	255	
8743.887	1	1	0	0	0.28813	0.23212	0.31562	0.18812	0.28637	0.023125	0.27257	0.29482	0.24704	0.04881	0.08592	0.020708	0.17908	0.26049	0.084335	0.23326	-2.2167	-2.3792	-2.75	-2.5896	-2.4583	-2.9229	-2.4938	-2.8875	-2.7167	-2.2083	-2.9146	-2.4896	-2.4313	-2.7313	-2.2646	-2.7854	423.135	354.718	384.894	469.251	468.069	185.556	507.515	396.290	466.366	408.529	503.614	462.595	380.922	379.825	298.387	510.892	0.0012346	0.0023849	0.00012712	844.85	2.3687e-06	3.8252e-06	1015.2	273.48	2.2368e-05	6.1816e-06	370.99	119.1	82.99	26.64	1.049e-05	51.584	0.0053343	0.0055552	0.0015433	1064.4	6.007e-05	6.0356e-05	1238.3	346.52	5.9744e-05	6.045e-05	479.04	153.47	117.54	38.009	5.9641e-05	67.536	504.241	234.535	429.350	187.983	530.533	397.668	187.013	191.851	302.412	319.472	191.048	193.899	194.554	199.825	286.786	198.093	-8191	255	
8743.983	1	1	0	0	0.17485	0.26336	0.15801	0.12051	0.27475	0.059389	0.32742	0.093038	0.12305	0.20871	0.29432	0.23503	0.41942	0.30339	0.15351	0.098864	-2.3542	-2.5021	-2.9167	-2.7271	-2.4396	-2.9313	-2.6208	-2.8375	-2.9042	-2.4708	-2.9667	-2.7938	-2.5271	-2.8396	-2.5938	-2.8417	229.388	370.220	489.303	470.902	341.756	245.909	520.077	503.278	443.589	415.084	448.389	473.798	512.337	511.393	454.765	523.308	0.0012034	0.0011215	0.0004058	841.96	4.6984e-06	7.2623e-06	1015.9	273.27	2.319e-05	1.6246e-05	371.54	118.6	82.393	26.439	1.6621e-05	51.498	0.0052258	0.0054309	0.0015191	1055.9	5.9299e-05	5.9501e-05	1232.5	345.45	5.9083e-05	5.9407e-05	478.56	152.69	116.69	37.739	5.8953e-05	67.218	470.717	214.513	181.459	187.867	367.943	363.772	187.288	191.511	338.548	291.999	190.477	194.012	194.088	199.786	334.208	198.254	-8191	255	
8744.103	1	1	0	0	0.044731	0.11264	0.044996	0.25263	0.16312	0.18033	0.1524	0.11174	0.18413	0.1155	0.21425	0.16051	0.19957	0.11278	0.14952	0.13057	-2.3438	-2.5167	-2.7188	-2.575	-2.5667	-2.8	-2.7542	-2.7354	-2.8688	-2.3583	-2.7646	-2.6521	-2.4271	-2.8458	-2.475	-2.5125	436.116	520.666	407.500	192.264	349.285	504.754	443.932	458.643	343.897	468.470	441.837	208.827	458.396	461.333	349.960	200.466	0.0012824	0.001257	0.00020261	840.73	6.2301e-06	7.7427e-06	1020.1	272.17	9.4903e-06	1.1113e-05	370.99	117.8	81.895	26.224	1.1512e-05	51.162	0.0051729	0.0053659	0.0014994	1053	5.8186e-05	5.8667e-05	1227.9	341.68	5.7806e-05	5.8284e-05	474.47	151.26	115.03	37.218	5.7648e-05	66.462	456.730	489.535	469.961	187.920	456.190	227.876	187.296	191.651	374.503	336.444	190.337	193.821	194.644	199.739	275.196	198.119	-8191	255	
8744.200	1	1	0	0	0.28288	0.21859	0.07615	0.31	0.27394	0.20506	0.33551	0.1264	0.069543	0.15392	0.28909	0.2035	0.082007	0.33917	0.18837	0.38021	-2.3854	-2.2604	-2.7729	-2.7292	-2.2729	-2.9188	-2.625	-2.5875	-2.9979	-2.4688	-2.7979	-2.775	-2.4271	-2.8021	-2.6708	-2.3021	508.465	181.512	358.087	494.782	471.984	314.786	530.307	390.649	336.219	350.390	496.220	499.251	505.822	447.415	461.398	495.763	0.0011432	0.0011195	0.00031257	836.83	1.9564e-06	5.1797e-06	1012.3	270.62	6.3102e-06	8.188e-06	368.86	116.67	81.547	26.057	1.1732e-06	51.074	0.0050283	0.0052537	0.0014636	1042.7	5.6774e-05	5.7244e-05	1221.4	339.95	5.7135e-05	5.7776e-05	472.54	150.36	114.57	37.066	5.7535e-05	66.421	472.767	341.836	527.556	187.837	299.240	252.711	187.019	191.360	206.679	307.263	190.410	193.788	194.241	199.439	473.556	198.599	-8191	255	
8744.271	1	1	0	0	0.24827	0.16809	0.1803	0.048077	0.12137	0.15562	0.24699	0.54677	0.24085	0.19898	0.097457	0.14498	0.21317	0.24019	0.18864	0.28291	-2.4521	-2.3958	-2.5396	-2.8271	-2.3958	-2.6437	-2.7479	-2.6083	-2.9437	-2.4625	-2.5187	-2.8583	-2.4604	-2.7562	-2.6458	-2.5104	333.500	392.892	454.765	530.455	284.438	317.890	489.459	470.482	241.001	192.678	289.505	461.582	492.000	279.423	229.849	447.889	0.0013628	0.0024017	0.00038625	838.87	1.0403e-05	4.5661e-06	1008.4	270.71	8.0862e-07	1.1604e-05	369.15	117	82.421	26.021	7.8741e-06	51.343	0.0050488	0.0052583	0.0014653	1042.9	5.6438e-05	5.7154e-05	1218.5	338.86	5.6371e-05	5.6675e-05	470.2	149.81	114	37.024	5.6123e-05	66.209	501.946	274.248	240.922	187.861	289.991	262.394	187.192	191.974	425.430	378.462	190.475	193.798	194.560	199.897	469.383	198.122	-8191	255	
8744.392	1	1	0	0	0.090955	0.3201	0.052063	0.18417	0.32269	0.081209	0.24161	0.059532	0.18624	0.20174	0.094162	0.18179	0.43188	0.3422	0.16104	0.4137	-2.4729	-2.5062	-2.3854	-2.8125	-2.3625	-2.8875	-2.7875	-2.3833	-2.7375	-2.5375	-2.5917	-2.9021	-2.4208	-2.7875	-2.7583	-2.3854	189.544	197.317	453.102	498.460	453.818	364.899	495.291	494.048	512.111	362.991	191.108	487.487	494.117	197.361	423.840	348.978	0.00081136	0.0015551	0.00019255	837.89	1.0245e-05	4.2332e-06	1017	271.92	7.8425e-06	6.947e-06	371.42	117.71	82.635	26.625	5.5355e-06	51.828	0.0049261	0.0051323	0.0014346	1042	5.567e-05	5.6597e-05	1220.7	340.46	5.6022e-05	5.6696e-05	472.98	150.71	114.85	37.534	5.6619e-05	66.826	496.763	287.340	476.427	187.927	244.157	417.543	187.222	191.613	262.569	232.182	190.496	193.751	194.249	200.310	272.211	198.157	-8191	255	
8744.488	1	1	0	0	0.21036	0.26094	0.27871	0.073245	0.089215	0.12886	0.26359	0.36375	0.26596	0.087595	0.072447	0.22863	0.29593	0.061056	0.081062	0.36325	-2.2438	-2.4708	-2.4667	-2.9562	-2.4125	-2.6667	-2.9479	-2.4708	-2.8063	-2.7708	-2.5833	-2.8167	-2.3625	-2.6562	-2.6854	-2.2729	377.012	224.805	345.543	421.305	336.862	446.506	457.784	522.948	241.788	444.398	457.084	482.389	499.061	250.287	300.981	433.043	0.0014199	0.0011647	0.00030815	849.37	1.4333e-05	3.023e-06	1014.8	272.75	9.3536e-06	2.7621e-05	376.17	118.5	82.912	26.697	1.0558e-05	52.039	0.0049965	0.0052127	0.0014533	1051	5.6554e-05	5.7336e-05	1227.4	342.19	5.6525e-05	5.7553e-05	476.73	152.09	115.9	37.69	5.7394e-05	67.382	477.798	184.686	234.865	188.143	324.254	270.636	186.925	191.573	310.592	238.605	190.304	193.882	194.579	199.441	309.460	198.023	-8191	255	
8744.584	1	1	0	0	0.20787	0.17965	0.27932	0.13189	0.27251	0.092284	0.19688	0.26365	0.22909	0.054232	0.3106	0.28562	0.35829	0.27993	0.14117	0.15656	-2.3833	-2.4813	-2.4	-3.0187	-2.3292	-2.5854	-2.8896	-2.375	-2.8354	-2.7938	-2.4021	-2.8667	-2.65	-2.65	-2.8021	-2.4479	466.563	523.983	302.361	426.253	399.508	525.659	476.990	486.610	450.007	516.119	472.896	494.831	210.165	506.847	236.816	498.052	0.0012364	0.00080087	0.00037256	845.85	1.4084e-06	6.9699e-06	1014.7	273.73	3.6225e-06	6.0827e-06	373.54	118.61	83.57	26.92	1.511e-05	51.988	0.0050443	0.0052503	0.0014667	1051.7	5.7123e-05	5.81e-05	1230.9	344.24	5.758e-05	5.8098e-05	477.21	152.33	116.36	37.864	5.7664e-05	67.278	475.516	266.597	341.197	187.949	510.487	261.421	187.309	191.658	218.716	292.353	190.318	193.744	194.235	200.080	326.053	198.236	-8191	255	
8744.680	1	1	0	0	0.16892	0.10488	0.12401	0.22262	0.17405	0.18847	0.29184	0.36319	0.11397	0.11706	0.12559	0.091094	0.36645	0.1081	0.14063	0.13599	-2.2625	-2.7375	-2.4167	-2.9813	-2.5458	-2.6104	-3.0479	-2.5812	-2.7313	-2.8146	-2.475	-2.9396	-2.65	-2.5271	-2.8667	-2.4604	378.938	418.630	314.401	463.140	239.191	228.479	455.331	457.584	257.555	233.284	488.090	497.335	484.297	488.952	449.532	271.028	0.0011151	0.00090747	0.00032366	845.56	6.6619e-06	3.7605e-06	1016.6	274.93	2.4528e-05	3.012e-06	375.19	119.68	84.271	26.883	2.3687e-06	52.168	0.0050626	0.0052898	0.0014681	1054.7	5.7003e-05	5.7875e-05	1230.6	344.44	5.756e-05	5.8064e-05	478.54	153.31	117.06	38.1	5.7589e-05	67.66	481.812	319.017	239.422	188.056	193.264	262.324	187.480	191.571	275.378	348.340	190.623	193.978	194.090	199.661	308.500	198.063	-8191	255	
8744.799	1	1	0	0	0.1138	0.20962	0.20035	0.29878	0.070226	0.1799	0.081197	0.19841	0.10601	0.11287	0.30897	0.18518	0.17946	0.24216	0.11205	0.25787	-2.3292	-2.7792	-2.3125	-2.9042	-2.4292	-2.45	-3.0062	-2.7667	-2.6688	-2.8854	-2.5187	-2.9396	-2.5083	-2.3604	-2.7104	-2.5042	349.524	267.053	416.112	190.128	175.293	451.302	244.333	486.162	236.794	403.664	411.260	500.927	458.039	491.374	290.692	460.111	0.0013193	0.00022909	0.00019603	849.55	6.3295e-06	5.1317e-06	1023	275.67	1.4964e-05	1.2092e-05	376.33	120.08	84.06	26.973	7.0069e-06	52.238	0.0050945	0.005297	0.0014644	1057.2	5.7266e-05	5.7861e-05	1235.1	345.72	5.7622e-05	5.8175e-05	480	153.89	117.32	38.124	5.7812e-05	67.812	507.637	183.456	202.489	187.873	185.048	374.748	187.397	191.478	230.771	338.740	190.720	193.730	194.705	200.025	212.009	198.168	-8191	255	
8744.871	1	1	0	0	0.055543	0.079457	0.21971	0.15513	0.14997	0.43336	0.16271	0.13675	0.093411	0.38194	0.37376	0.22717	0.069731	0.21647	0.091587	0.26706	-2.275	-2.8563	-2.3542	-2.775	-2.7729	-2.5396	-2.9021	-2.7396	-2.5229	-2.7479	-2.6125	-2.7667	-2.8229	-2.4437	-2.8104	-2.8229	303.964	340.955	520.035	217.347	295.427	479.199	416.399	479.812	343.265	454.494	514.464	476.371	435.184	472.808	525.150	404.859	0.001107	0.00019227	0.00040475	847.5	6.2711e-06	1.3639e-05	1026.2	276.44	5.9788e-06	1.2211e-05	375.65	120.05	84.62	27.008	2.8515e-06	52.574	0.0051016	0.0053033	0.0014767	1059.4	5.7733e-05	5.8275e-05	1240.7	346.59	5.8381e-05	5.8704e-05	480.64	154.36	117.96	38.141	5.8633e-05	68.166	488.134	387.019	253.149	188.042	264.373	343.375	187.348	191.559	232.743	402.565	190.497	193.622	194.438	200.095	502.248	198.263	-8191	255	
8744.967	1	1	0	0	0.1742	0.11206	0.088561	0.21235	0.42852	0.047382	0.10993	0.37115	0.15099	0.047597	0.22321	0.35081	0.31811	0.26115	0.055638	0.12207	-2.1375	-2.9125	-2.3208	-2.7729	-2.5875	-2.2771	-2.9458	-2.6792	-2.3625	-2.925	-2.55	-2.7938	-2.7854	-2.3396	-2.8063	-2.7521	300.639	291.802	342.577	499.002	340.973	271.508	445.191	490.158	229.678	402.754	519.131	217.739	392.078	381.461	176.837	187.762	0.0011796	0.00098876	0.00011423	849.33	1.5623e-05	1.5857e-05	1027.6	276.51	1.1504e-05	2.0247e-05	375.46	120.49	84.297	27.082	1.3332e-05	52.738	0.0051758	0.0053655	0.0014971	1062	5.8718e-05	5.8737e-05	1240.6	346.8	5.8274e-05	5.8803e-05	480.69	154.36	117.78	38.211	5.8598e-05	68.129	475.141	339.296	463.983	187.877	513.502	347.715	187.261	191.614	430.899	276.932	190.781	193.649	194.304	200.242	334.074	198.583	-8191	255	
8745.063	1	1	0	0	0.041348	0.12386	0.26849	0.096005	0.093129	0.046279	0.045689	0.051737	0.25921	0.20836	0.31995	0.13556	0.11205	0.11793	0.3566	0.25201	-1.9417	-2.8396	-2.5042	-2.7354	-2.6896	-2.3917	-2.9688	-2.6354	-2.2708	-2.9833	-2.5917	-2.5687	-2.7104	-2.5438	-2.7458	-2.6813	414.521	218.776	251.747	468.815	490.773	241.475	184.109	201.054	280.686	317.335	454.939	482.798	466.378	435.995	446.767	211.989	0.00097823	0.0020969	9.6593e-05	845.71	1.1224e-05	4.3931e-06	1025	275.71	6.1344e-06	2.255e-05	377.49	120.54	85.045	26.96	1.7689e-05	52.32	0.0051714	0.0053777	0.001498	1061.4	5.8782e-05	5.9133e-05	1242.6	348.63	5.9568e-05	6.0021e-05	484.67	155.93	119.3	38.543	6.0744e-05	68.651	482.047	290.694	436.781	188.044	299.270	333.557	187.546	191.647	437.695	279.261	190.562	193.754	194.332	199.821	241.893	198.352	-8191	255	
8745.184	1	1	0	0	0.17824	0.18726	0.21876	0.17126	0.04663	0.34371	0.18133	0.03528	0.10066	0.13822	0.1812	0.26655	0.074609	0.15288	0.194	0.19991	-1.9167	-2.725	-2.3667	-2.5979	-2.7479	-2.2938	-2.5958	-2.6688	-2.4167	-2.7062	-2.6354	-2.6083	-2.85	-2.3625	-2.625	-2.8438	244.199	236.618	491.320	487.328	394.687	494.558	487.212	475.464	346.342	255.671	450.039	457.658	238.174	494.453	235.595	505.210	0.0013407	0.0004662	0.00035251	847.93	1.7597e-05	4.0727e-06	1024	276.76	1.4461e-05	2.5719e-05	376.42	120.77	84.579	27.07	1.9803e-05	52.596	0.0053329	0.0055403	0.0015422	1069.3	6.0496e-05	6.0623e-05	1250.8	350.97	6.083e-05	6.1293e-05	486.82	156.63	119.69	38.749	6.1288e-05	68.78	488.644	348.928	281.623	188.075	327.134	424.037	187.489	191.458	323.205	400.438	190.657	193.651	194.327	200.294	317.966	198.271	-8191	255	
8745.280	1	1	0	0	0.20453	0.3217	0.15836	0.24237	0.21039	0.22848	0.077092	0.14367	0.19159	0.098498	0.13314	0.10591	0.056488	0.051323	0.26465	0.0913	-1.9229	-2.7313	-2.6479	-2.4125	-2.8417	-2.2812	-2.8292	-2.8667	-2.3146	-2.8937	-2.9146	-2.6333	-2.7583	-2.775	-2.6854	-2.8375	425.239	509.245	404.386	514.185	198.233	285.735	512.152	467.006	426.867	226.634	433.760	407.349	186.467	529.540	343.826	521.284	0.0012475	0.00034899	0.0004209	851.35	9.1277e-06	1.8015e-06	1025	276.8	9.0557e-06	1.1138e-05	377.8	120.81	84.782	26.863	9.1047e-06	52.38	0.0053328	0.005572	0.001555	1070.4	6.0733e-05	6.1081e-05	1253.2	350.36	6.0938e-05	6.1746e-05	488.66	156.77	119.82	38.758	6.1567e-05	68.936	480.936	377.440	194.285	188.135	259.333	334.110	186.851	191.501	309.050	192.763	190.427	193.314	194.318	199.831	402.651	198.314	-8191	255	
8745.376	1	1	0	0	0.15189	0.10779	0.26221	0.18452	0.25964	0.25397	0.044864	0.033182	0.26509	0.11717	0.25705	0.063742	0.075406	0.12074	0.1961	0.21798	-2.0312	-2.8438	-2.5021	-2.4854	-2.8312	-2.6542	-2.6583	-2.9208	-2.2875	-2.7271	-2.8458	-2.4271	-2.7292	-2.4146	-2.65	-2.9313	434.583	304.608	236.062	511.896	532.561	248.826	318.577	186.996	485.339	437.982	452.393	329.176	492.507	521.048	383.057	210.723	0.0015612	0.00068416	0.00029341	848.25	6.7084e-06	1.1154e-05	1021.1	277.33	2.1324e-05	8.785e-06	377.23	120.88	84.933	26.903	3.2908e-06	52.321	0.0053821	0.0056467	0.0015735	1071.6	6.1044e-05	6.1747e-05	1251.8	351.02	6.1047e-05	6.217e-05	487.65	156.5	119.96	38.751	6.1771e-05	68.701	485.545	344.693	217.890	188.005	507.018	404.824	187.466	191.781	325.545	308.125	190.440	193.722	194.403	199.489	224.964	198.239	-8191	255	
8745.472	1	1	0	0	0.03684	0.13088	0.24068	0.12627	0.065769	0.22639	0.21131	0.034431	0.086448	0.16038	0.2291	0.068796	0.21242	0.2442	0.15497	0.11504	-2.0146	-2.5958	-2.7458	-2.3792	-2.6792	-2.8604	-2.5521	-2.9333	-2.4813	-2.6292	-2.6333	-2.5375	-2.7021	-2.6375	-2.2917	-2.9208	413.442	531.648	251.201	249.049	455.908	392.640	177.009	281.278	528.279	502.226	434.454	246.539	401.178	489.572	510.160	474.796	0.001771	0.0012371	0.0002708	847.84	8.0179e-06	1.0982e-05	1021	277.75	1.6602e-05	1.0534e-05	378.93	121.82	85.424	27.152	4.2761e-06	52.622	0.0053242	0.0056035	0.0015589	1070	6.0492e-05	6.1056e-05	1251	351.33	6.0561e-05	6.1829e-05	487.38	156.63	119.91	38.879	6.1023e-05	68.712	492.296	207.796	199.986	188.107	282.225	356.717	187.206	191.331	272.253	509.301	190.246	194.006	194.414	200.062	478.015	198.102	-8191	255	
8745.568	1	1	0	0	0.18263	0.020727	0.092963	0.20372	0.17896	0.22527	0.047396	0.13522	0.022892	0.17234	0.15225	0.0063892	0.23767	0.12072	0.19522	0.2446	-1.9104	-2.6437	-2.5479	-2.7396	-2.6292	-2.6708	-2.6875	-2.8292	-2.5312	-2.5708	-2.9729	-2.3229	-2.7	-2.7729	-2.4562	-3.0708	402.884	221.496	175.796	269.418	417.353	337.056	273.865	506.083	427.311	192.867	486.062	207.540	416.357	462.513	417.433	429.869	0.00072591	0.0023231	0.00056832	848.09	9.6006e-06	1.0939e-05	1022	277.53	1.0693e-05	2.0626e-06	377.86	121.09	84.605	27.098	1.3769e-05	52.848	0.0053203	0.0055884	0.0015497	1069.7	6.0611e-05	6.1221e-05	1252.4	351.26	6.0538e-05	6.1755e-05	487.63	156.35	119.77	38.759	6.0781e-05	68.782	517.987	241.017	435.269	187.922	309.573	476.505	187.365	191.483	333.851	447.927	190.721	193.642	194.653	200.341	264.246	198.277	-8191	255	
8745.665	1	1	0	0	0.17378	0.20425	0.083882	0.076906	0.16031	0.12911	0.22675	0.17185	0.16882	0.07351	0.14471	0.27093	0.033596	0.098022	0.10933	0.15704	-2.1542	-2.5458	-2.7062	-2.4583	-2.825	-2.675	-2.4979	-2.8208	-2.4896	-2.5375	-2.8625	-2.3542	-2.7625	-2.6917	-2.4896	-2.9	438.874	393.429	191.392	270.215	430.313	214.788	471.919	446.625	424.927	494.758	498.533	435.391	227.155	520.243	495.612	428.259	0.00086499	0.0013926	0.00010168	855.62	9.597e-06	1.6579e-05	1031.8	277.62	1.7841e-05	1.5388e-05	378.42	121.69	84.476	27.18	2.8049e-06	53.006	0.0053096	0.00558	0.00155	1067.2	6.0465e-05	6.1084e-05	1252.8	350.46	6.001e-05	6.0934e-05	486.62	156.11	119.51	38.765	6.0592e-05	68.935	491.965	196.515	204.686	188.079	300.786	411.251	187.258	191.620	375.077	399.811	190.480	193.760	194.833	199.993	429.886	198.178	-8191	255	
#DATA ENDS
