BOXY.EXE: ISS Imagent and Oximeter Data Acquisition Program Version 0.80
Ascii Record File

#ACQ INFORMATION
2  Detector Channels 
16  External MUX Channels 
1  Auxiliary Channels 
5000  Waveform (CCF) Frequency (Hz)
1  Waveforms Skipped 
30  Waveforms Averaged 
1  Cycles Averaged 
16  Acquisitions per Waveform 
10.0806  Updata Rate (Hz) 

#FILE INFORMATION
TRUE -- External MUX Channel results are PARSED.
FALSE -- AC DC and Phase are NOT grouped.
TRUE -- Companion Program Settings File CREATED.
FALSE -- AC data not excluded
FALSE -- DC data not excluded
FALSE -- Phase data not excluded
FALSE -- Auxillary Chn. data not excluded
Tab delimiters

#CALIBRATION STATE
TRUE -- Waveform Calibration Values APPLIED.


#AUX CALIBRATION VALUES
Val Type	aux-1	

Term	1.0000e+00	
Factor	0.0000e+00	


#WF CALIBRATION VALUES
A = Detector Channel
Val Type	A-AC1	A-AC2	A-AC3	A-AC4	A-AC5	A-AC6	A-AC7	A-AC8	A-AC9	A-AC10	A-AC11	A-AC12	A-AC13	A-AC14	A-AC15	A-AC16	A-DC1	A-DC2	A-DC3	A-DC4	A-DC5	A-DC6	A-DC7	A-DC8	A-DC9	A-DC10	A-DC11	A-DC12	A-DC13	A-DC14	A-DC15	A-DC16	A-Ph1	A-Ph2	A-Ph3	A-Ph4	A-Ph5	A-Ph6	A-Ph7	A-Ph8	A-Ph9	A-Ph10	A-Ph11	A-Ph12	A-Ph13	A-Ph14	A-Ph15	A-Ph16	

Term	0.00000e+00	0.00000e+00	0.00000e+00	0.00000e+00	0.00000e+00	0.00000e+00	0.00000e+00	0.00000e+00	0.00000e+00	0.00000e+00	0.00000e+00	0.00000e+00	0.00000e+00	0.00000e+00	0.00000e+00	0.00000e+00	0.00000e+00	0.00000e+00	0.00000e+00	0.00000e+00	0.00000e+00	0.00000e+00	0.00000e+00	0.00000e+00	0.00000e+00	0.00000e+00	0.00000e+00	0.00000e+00	0.00000e+00	0.00000e+00	0.00000e+00	0.00000e+00	0.00000e+00	0.00000e+00	0.00000e+00	0.00000e+00	0.00000e+00	0.00000e+00	0.00000e+00	0.00000e+00	0.00000e+00	0.00000e+00	0.00000e+00	0.00000e+00	0.00000e+00	0.00000e+00	0.00000e+00	0.00000e+00	
Factor	1.00000e+00	1.00000e+00	1.00000e+00	1.00000e+00	1.00000e+00	1.00000e+00	1.00000e+00	1.00000e+00	1.00000e+00	1.00000e+00	1.00000e+00	1.00000e+00	1.00000e+00	1.00000e+00	1.00000e+00	1.00000e+00	1.00000e+00	1.00000e+00	1.00000e+00	1.00000e+00	1.00000e+00	1.00000e+00	1.00000e+00	1.00000e+00	1.00000e+00	1.00000e+00	1.00000e+00	1.00000e+00	1.00000e+00	1.00000e+00	1.00000e+00	1.00000e+00	X	X	X	X	X	X	X	X	X	X	X	X	X	X	X	X	

B = Detector Channel
Val Type	B-AC1	B-AC2	B-AC3	B-AC4	B-AC5	B-AC6	B-AC7	B-AC8	B-AC9	B-AC10	B-AC11	B-AC12	B-AC13	B-AC14	B-AC15	B-AC16	B-DC1	B-DC2	B-DC3	B-DC4	B-DC5	B-DC6	B-DC7	B-DC8	B-DC9	B-DC10	B-DC11	B-DC12	B-DC13	B-DC14	B-DC15	B-DC16	B-Ph1	B-Ph2	B-Ph3	B-Ph4	B-Ph5	B-Ph6	B-Ph7	B-Ph8	B-Ph9	B-Ph10	B-Ph11	B-Ph12	B-Ph13	B-Ph14	B-Ph15	B-Ph16	

Term	0.00000e+00	0.00000e+00	0.00000e+00	0.00000e+00	0.00000e+00	0.00000e+00	0.00000e+00	0.00000e+00	0.00000e+00	0.00000e+00	0.00000e+00	0.00000e+00	0.00000e+00	0.00000e+00	0.00000e+00	0.00000e+00	0.00000e+00	0.00000e+00	0.00000e+00	0.00000e+00	0.00000e+00	0.00000e+00	0.00000e+00	0.00000e+00	0.00000e+00	0.00000e+00	0.00000e+00	0.00000e+00	0.00000e+00	0.00000e+00	0.00000e+00	0.00000e+00	-1.27282e+02	-1.30498e+02	-1.26606e+02	-1.82720e+02	-7.04405e+01	-6.88341e+01	-1.60843e+02	-1.62015e+02	-7.31909e+01	-6.92541e+01	-1.72572e+02	-1.72955e+02	-1.82795e+02	-1.78089e+02	-7.17232e+01	-1.50939e+02	
Factor	1.93131e-05	1.69621e-04	4.86892e-05	1.65898e-01	1.33105e-06	1.92021e-06	1.95781e-01	6.11879e-02	1.30919e-06	1.87107e-06	9.62612e-02	3.22527e-02	2.98245e-02	9.98308e-03	1.50668e-06	1.45378e-02	1.28716e-05	2.34187e-05	6.58817e-06	8.38859e-02	2.30464e-07	2.64030e-07	9.33801e-02	3.11235e-02	2.35691e-07	2.61591e-07	4.74826e-02	1.59974e-02	1.53938e-02	5.11434e-03	2.44169e-07	7.23425e-03	X	X	X	X	X	X	X	X	X	X	X	X	X	X	X	X	



#DISTANCE SETTINGS
A = Detector Channel
A-1	A-2	A-3	A-4	A-5	A-6	A-7	A-8	A-9	A-10	A-11	A-12	A-13	A-14	A-15	A-16	

2.5000e+00	3.0000e+00	2.5000e+00	3.0000e+00	2.0000e+00	3.0000e+00	1.5000e+00	3.0000e+00	3.0000e+00	3.0000e+00	3.0000e+00	3.0000e+00	3.0000e+00	3.0000e+00	1.5000e+00	3.0000e+00	

B = Detector Channel
B-1	B-2	B-3	B-4	B-5	B-6	B-7	B-8	B-9	B-10	B-11	B-12	B-13	B-14	B-15	B-16	

1.0000e+01	1.0000e+01	1.0000e+01	1.4400e+00	1.0000e+01	1.0000e+01	1.5100e+00	1.9400e+00	1.0000e+01	1.0000e+01	1.9900e+00	2.4900e+00	2.4100e+00	2.9000e+00	1.0000e+01	2.9800e+00	




#DATA BEGINS
time	group	step	mark	flag	A-AC1	A-AC2	A-AC3	A-AC4	A-AC5	A-AC6	A-AC7	A-AC8	A-AC9	A-AC10	A-AC11	A-AC12	A-AC13	A-AC14	A-AC15	A-AC16	A-DC1	A-DC2	A-DC3	A-DC4	A-DC5	A-DC6	A-DC7	A-DC8	A-DC9	A-DC10	A-DC11	A-DC12	A-DC13	A-DC14	A-DC15	A-DC16	A-Ph1	A-Ph2	A-Ph3	A-Ph4	A-Ph5	A-Ph6	A-Ph7	A-Ph8	A-Ph9	A-Ph10	A-Ph11	A-Ph12	A-Ph13	A-Ph14	A-Ph15	A-Ph16	B-AC1	B-AC2	B-AC3	B-AC4	B-AC5	B-AC6	B-AC7	B-AC8	B-AC9	B-AC10	B-AC11	B-AC12	B-AC13	B-AC14	B-AC15	B-AC16	B-DC1	B-DC2	B-DC3	B-DC4	B-DC5	B-DC6	B-DC7	B-DC8	B-DC9	B-DC10	B-DC11	B-DC12	B-DC13	B-DC14	B-DC15	B-DC16	B-Ph1	B-Ph2	B-Ph3	B-Ph4	B-Ph5	B-Ph6	B-Ph7	B-Ph8	B-Ph9	B-Ph10	B-Ph11	B-Ph12	B-Ph13	B-Ph14	B-Ph15	B-Ph16	aux-1	digaux	

15231.124	1	1	0	256	0.32492	0.11307	0.24962	0.41808	0.36556	0.20797	0.077786	0.017176	0.1182	0.18804	0.049672	0.13774	0.12576	0.33442	0.19707	0.14613	-2.5458	-2.475	-2.6333	-2.6583	-2.3417	-2.8458	-2.7687	-2.7188	-2.8042	-2.4646	-2.6271	-3.0229	-2.4083	-2.7542	-2.5187	-2.4604	249.185	6.208	213.726	252.218	-9.325	222.787	144.227	165.833	204.262	284.586	210.027	240.651	156.663	236.858	34.978	-37.373	0.00010385	0.0006202	0.00011212	501.94	2.166e-06	3.8446e-06	618.48	156.66	1.9973e-06	3.1075e-06	225.74	84.691	55.216	20.157	3.1957e-06	35.403	0.00063763	0.00099027	0.00027577	490.58	1.0064e-05	1.0952e-05	605.73	154.25	1.0036e-05	1.1039e-05	222.97	84.87	55.073	20.115	1.056e-05	35.133	162.776	30.932	37.825	-59.059	85.231	90.081	-59.807	-53.121	26.288	97.213	-54.462	-49.692	-48.152	-44.378	64.017	-46.105	-8191	255	
15231.220	1	1	0	0	0.18447	0.16194	0.024356	0.093265	0.10883	0.10162	0.16841	0.10284	0.046809	0.075144	0.23754	0.21211	0.095715	0.038481	0.097351	0.283	-2.3312	-2.2771	-2.75	-3.0062	-2.1979	-2.7146	-2.75	-2.3812	-2.9354	-2.4604	-2.6771	-2.6562	-2.3208	-2.8021	-2.5687	-2.4417	57.368	-29.646	256.792	37.707	254.722	176.108	209.776	230.926	277.578	199.408	-3.863	-46.920	29.053	67.020	114.358	-67.360	0.00011457	0.00015939	7.5328e-05	502.71	3.8085e-06	5.9134e-06	618.88	156.1	1.2366e-06	2.2212e-06	227.54	85.091	54.232	20.084	2.8192e-06	34.961	0.00065471	0.00098286	0.00027558	490.58	1.0143e-05	1.097e-05	608.15	154.45	1.0514e-05	1.1032e-05	223.06	84.885	54.883	20.022	1.0688e-05	34.886	165.604	-18.241	20.062	-59.124	58.378	44.612	-59.499	-52.879	140.544	97.736	-54.335	-49.930	-48.515	-44.573	84.626	-46.319	-8191	255	
15231.316	1	1	0	0	0.13983	0.26326	0.16718	0.43524	0.19916	0.12079	0.24966	0.2279	0.17724	0.11728	0.15475	0.22	0.12583	0.2175	0.080759	0.24003	-2.45	-2.4083	-2.4792	-2.6771	-2.1813	-2.7188	-2.6667	-2.4792	-2.8563	-2.5167	-2.4354	-2.7583	-2.5146	-2.8542	-2.5583	-2.4333	246.922	-62.777	100.055	-61.309	275.936	139.051	150.805	8.727	234.377	172.016	232.197	72.584	-49.350	-54.438	231.294	15.477	7.7681e-05	0.00023602	7.7175e-05	497.24	3.2439e-06	2.8195e-06	614.73	155.8	1.3766e-06	5.4623e-06	226.84	84.189	54.399	20.183	3.0562e-07	35.233	0.0006661	0.001005	0.0002848	488.01	1.0309e-05	1.094e-05	602.14	153.49	1.0308e-05	1.1151e-05	221.93	84.216	54.468	20.035	1.0585e-05	34.878	159.641	-1.080	89.378	-59.372	55.309	78.165	-59.618	-53.255	88.929	89.643	-54.283	-49.823	-48.510	-44.640	82.469	-46.341	-8191	255	
15231.410	1	1	0	0	0.093112	0.072345	0.097316	0.18321	0.26374	0.23034	0.22369	0.12825	0.14747	0.273	0.19606	0.13524	0.1048	0.093692	0.10251	0.2896	-2.4313	-2.4792	-2.6146	-2.9146	-2.5563	-2.8521	-2.8063	-2.4896	-2.7812	-2.5604	-2.5521	-3.0208	-2.2458	-2.8354	-2.5438	-2.3104	180.158	41.849	-58.005	116.971	264.341	1.085	-56.703	173.559	140.193	283.758	-13.332	212.107	93.436	8.125	196.824	-64.058	0.00010359	0.00043426	2.9786e-05	499.58	2.4091e-06	4.5597e-06	617.3	156.1	1.6621e-06	1.1363e-06	226.14	84.963	54.481	20.015	1.7639e-06	35.126	0.00064572	0.00096319	0.00028173	488.77	1.001e-05	1.1294e-05	604.58	154.09	1.0264e-05	1.107e-05	222.6	84.491	54.695	20.02	1.0514e-05	34.896	151.906	45.346	58.520	-58.900	116.268	82.372	-59.194	-53.221	85.768	148.674	-54.306	-49.890	-48.331	-44.499	62.513	-46.215	-8191	255	
15231.508	1	1	0	0	0.11408	0.21142	0.098951	0.12294	0.097154	0.22018	0.27993	0.14274	0.081682	0.083774	0.2566	0.12999	0.27895	0.053829	0.27331	0.13415	-2.5812	-2.4062	-2.4562	-2.775	-2.4708	-2.5583	-2.9688	-2.4104	-2.8729	-2.6083	-2.4646	-2.7604	-2.5229	-2.4625	-2.7021	-2.4167	108.491	64.294	202.234	124.802	144.797	169.936	194.470	133.937	102.978	-47.938	77.464	-23.109	21.316	-46.393	32.128	0.722	0.00012155	0.00034725	7.6882e-05	499.42	1.3704e-06	2.8435e-06	611.34	156.05	1.399e-06	3.8846e-06	225.86	84.986	55.042	20.153	2.6134e-06	35.427	0.00065187	0.001015	0.00028659	487.97	9.9119e-06	1.1199e-05	602.53	153.59	1.0355e-05	1.1479e-05	222.94	84.818	54.89	20.181	1.0402e-05	35.137	161.844	46.962	32.004	-59.247	4.095	184.929	-59.362	-53.109	49.545	88.800	-54.385	-50.166	-48.013	-44.312	87.461	-46.465	-8191	255	
15231.627	1	1	0	0	0.045411	0.12619	0.31502	0.21875	0.13293	0.25174	0.17296	0.062976	0.21795	0.25791	0.21747	0.17363	0.148	0.1877	0.21545	0.16637	-2.2833	-2.4833	-2.3	-2.8625	-2.5312	-2.7458	-2.8083	-2.5	-2.7	-2.6708	-2.4938	-2.8771	-2.5563	-2.3958	-2.9021	-2.3792	109.546	234.368	0.233	-2.559	180.994	-17.889	-35.571	208.994	151.091	244.468	128.745	185.193	247.476	215.236	82.834	43.926	7.9908e-05	0.00010156	9.1765e-05	503.35	2.2068e-06	4.1281e-06	614.06	155.76	2.9824e-06	6.0136e-06	226.48	84.803	54.406	20.114	1.0221e-06	35.004	0.00062918	0.00099525	0.00027577	490.26	1.0039e-05	1.1314e-05	604.67	154.01	1.0557e-05	1.1039e-05	221.99	84.653	54.521	20.073	1.0531e-05	34.934	145.714	52.813	43.078	-59.083	106.765	76.863	-59.403	-53.101	48.300	73.384	-54.196	-50.000	-48.127	-44.366	-43.295	-46.073	-8191	255	
15231.723	1	1	0	0	0.13062	0.024654	0.23868	0.10351	0.20168	0.31192	0.27029	0.13628	0.078525	0.072739	0.11691	0.18201	0.056823	0.17201	0.12497	0.24648	-2.1146	-2.7083	-2.3792	-3.0521	-2.5271	-2.3854	-2.8438	-2.3167	-2.6333	-2.8021	-2.25	-2.7708	-2.5812	-2.2104	-2.8896	-2.6771	-31.408	227.894	81.274	23.106	102.891	99.818	242.457	284.548	81.559	254.082	196.317	236.728	154.565	-51.145	107.682	233.924	8.1011e-05	0.00041237	7.2971e-05	499.86	1.6726e-06	2.605e-06	612.31	155.41	1.9888e-06	2.3939e-06	225.61	84.825	54.529	20.064	6.2305e-07	35.212	0.00064192	0.00098212	0.00028833	486.63	9.7304e-06	1.1326e-05	602.12	152.93	1.0167e-05	1.0988e-05	221.24	84.154	54.449	20.021	1.0232e-05	34.92	178.167	25.024	52.227	-59.162	71.035	82.786	-59.614	-53.147	58.007	-43.309	-54.472	-49.695	-48.450	-44.274	86.565	-46.388	-8191	255	
15231.819	1	1	0	0	0.065121	0.1851	0.024366	0.18474	0.20718	0.056122	0.051278	0.3183	0.13688	0.014502	0.14854	0.22614	0.10249	0.2863	0.23929	0.10048	-2.2625	-2.7375	-2.1813	-2.7521	-2.5583	-2.5125	-2.9583	-2.4896	-2.6	-2.9396	-2.3563	-2.5771	-2.5312	-2.5333	-2.9458	-2.5563	92.201	27.505	-12.543	-50.683	160.380	134.753	28.523	-39.208	104.999	198.894	123.522	-37.313	194.540	283.799	209.137	-65.219	0.00010009	0.0002001	6.9261e-05	497.89	1.5798e-06	2.7057e-06	614.77	154.73	1.5696e-06	3.9124e-06	223.89	84.108	54.337	20.109	3.8728e-06	35.22	0.00064749	0.00098329	0.00028406	487.61	1.0124e-05	1.1092e-05	601.37	153.09	1.0085e-05	1.0935e-05	221.35	84.324	54.541	20.073	1.042e-05	34.901	171.694	39.687	14.048	-58.980	76.667	73.796	-59.269	-52.948	101.930	108.242	-54.501	-50.001	-48.312	-44.554	100.926	-46.587	-8191	255	
15231.916	1	1	0	0	0.13212	0.1152	0.11047	0.29841	0.15567	0.16128	0.11663	0.10261	0.14941	0.30315	0.29371	0.31618	0.15276	0.1872	0.14532	0.19225	-2.1375	-2.7042	-2.3979	-2.6583	-2.6896	-2.4604	-2.9521	-2.675	-2.3417	-2.7667	-2.5021	-2.5458	-2.7292	-2.3458	-2.7375	-2.6792	138.665	199.329	186.640	193.107	89.661	-64.791	117.501	25.011	72.098	2.198	160.099	236.976	185.899	136.639	114.289	112.198	8.0279e-05	0.00025852	7.8771e-05	499.29	1.4862e-06	2.7026e-06	613.4	154.58	2.0426e-06	4.3712e-07	226.51	84.482	54.448	20.416	2.6043e-06	35.375	0.00064135	0.0010008	0.00027953	486.86	1.0383e-05	1.1553e-05	601.71	153.16	1.0586e-05	1.1158e-05	222.15	84.385	54.695	20.239	1.0551e-05	35.173	156.235	30.504	39.656	-59.072	66.038	75.248	-59.458	-53.094	77.400	13.826	-54.522	-49.862	-48.339	-44.607	69.873	-46.381	-8191	255	
15232.012	1	1	0	0	0.11466	0.07258	0.18708	0.17091	0.17334	0.14131	0.13061	0.29907	0.28759	0.088523	0.22191	0.12548	0.19309	0.17515	0.29066	0.14477	-2.2062	-2.7354	-2.2042	-2.6417	-2.7958	-2.3271	-2.7583	-2.6771	-2.4562	-2.8875	-2.3	-2.5833	-2.7708	-2.3375	-2.5542	-2.6292	174.261	-66.031	234.111	257.653	-38.141	-63.042	163.664	240.888	131.802	67.621	-19.102	-4.377	222.380	-5.262	83.443	272.885	9.4288e-05	0.00054843	9.4861e-05	500.3	3.2515e-06	1.7821e-06	618.41	156.14	1.9397e-06	4.1009e-06	223.65	84.732	54.796	20.259	2.1508e-06	35.404	0.00067125	0.0010026	0.00027883	488.91	1.015e-05	1.1788e-05	604.97	153.9	1.0531e-05	1.1337e-05	221.69	84.67	54.683	20.171	1.0396e-05	35.08	179.153	39.810	12.938	-58.919	74.041	44.980	-59.347	-52.977	88.480	25.295	-54.564	-49.981	-48.575	-44.674	25.091	-46.467	-8191	255	
15232.108	1	1	0	0	0.053137	0.11231	0.17466	0.11649	0.22409	0.14427	0.066452	0.062413	0.12059	0.066369	0.32696	0.052477	0.25647	0.19747	0.34244	0.37341	-2.1083	-2.7146	-2.3083	-2.7104	-2.7792	-2.3958	-3.0458	-2.65	-2.4833	-2.9583	-2.3625	-2.4562	-2.8167	-2.5479	-2.7042	-2.8167	224.841	104.460	92.800	-51.766	195.907	265.068	172.258	-42.968	241.065	-69.609	252.410	237.666	194.824	270.864	185.281	197.158	9.564e-05	0.00016555	5.513e-05	497.83	2.2326e-06	2.3127e-06	617.63	154.86	2.0443e-06	4.1254e-06	225.5	84.6	54.241	20.12	2.6359e-06	35.3	0.00064816	0.0010058	0.00027305	486.18	1.011e-05	1.124e-05	602.14	153.55	1.0631e-05	1.0964e-05	221.64	84.307	54.519	20.139	1.0437e-05	34.925	164.044	28.502	38.867	-58.998	56.232	124.239	-59.495	-53.001	86.016	63.986	-54.503	-49.907	-48.580	-44.800	27.192	-46.312	-8191	255	
15232.204	1	1	0	0	0.13037	0.35117	0.085105	0.10192	0.2083	0.11775	0.38538	0.11342	0.047121	0.020647	0.10722	0.097202	0.2407	0.06075	0.11257	0.085435	-1.9062	-2.7833	-2.4917	-2.4771	-3.0021	-2.3937	-2.8271	-2.7375	-2.3854	-2.8479	-2.7542	-2.5229	-2.8187	-2.3958	-2.7042	-2.8	9.815	167.424	170.551	-46.131	40.619	60.258	210.826	137.243	188.512	153.120	102.943	12.394	-51.448	220.196	160.986	23.594	0.00011095	0.0002792	5.404e-05	496.77	1.4383e-06	4.3711e-07	613.67	154.53	7.8025e-07	3.8282e-06	225.06	84.389	54.474	20.147	4.1597e-06	35.281	0.00067718	0.00098564	0.00027762	486.05	9.9042e-06	1.1238e-05	601.55	153.25	1.0518e-05	1.1109e-05	221.05	84.299	54.59	20.095	1.0682e-05	34.9	164.889	62.551	89.771	-58.798	57.927	135.779	-58.998	-52.953	64.313	68.259	-54.505	-49.792	-48.429	-44.356	81.613	-46.339	-8191	255	
15232.300	1	1	0	0	0.085923	0.14086	0.10813	0.054966	0.1018	0.051385	0.17753	0.11473	0.32291	0.27009	0.27538	0.12893	0.042254	0.22159	0.20237	0.13586	-1.6979	-2.9458	-2.7729	-2.3771	-2.8479	-2.4104	-2.6688	-2.8292	-2.3063	-2.7271	-2.5896	-2.4583	-3.0021	-2.4417	-2.3438	-2.8812	-19.443	-38.844	22.385	-67.436	22.475	-34.169	170.454	-56.610	219.616	109.162	161.098	198.076	246.863	196.190	-43.503	85.722	0.00010099	0.00047171	0.00011217	501.27	1.7857e-06	4.8908e-06	612.98	155.48	1.3733e-06	2.6884e-06	224.95	85.137	54.707	20.477	2.1884e-06	35.632	0.00065567	0.00097642	0.00027909	487.33	9.7438e-06	1.1101e-05	603.42	153.82	1.0176e-05	1.0745e-05	222.43	84.936	54.819	20.287	1.0673e-05	35.311	171.438	44.048	56.077	-59.044	48.593	67.788	-59.075	-52.918	76.322	42.682	-54.501	-50.023	-48.599	-44.493	75.848	-46.368	-8191	255	
15232.419	1	1	0	0	0.24873	0.34527	0.056704	0.10157	0.43795	0.13518	0.097849	0.034761	0.19524	0.14785	0.20163	0.077546	0.044237	0.12437	0.038219	0.25971	-1.9042	-2.6896	-2.6667	-2.2188	-2.6437	-2.5625	-2.5583	-2.9667	-2.375	-2.5333	-2.7479	-2.3771	-2.7125	-2.6312	-2.55	-2.8708	276.125	-65.796	102.800	211.318	132.050	35.529	52.538	58.340	202.780	270.320	204.346	-13.686	-47.750	281.558	110.925	124.825	7.8696e-05	0.00028125	7.2058e-05	498.89	2.5089e-06	2.9071e-06	614.61	156.07	8.6681e-07	4.7917e-06	225.23	85.211	54.343	20.475	1.4449e-06	35.147	0.00066297	0.00096734	0.00028093	488.75	1.0018e-05	1.0952e-05	603.69	154.08	1.0598e-05	1.102e-05	221.78	84.676	54.543	20.217	1.0971e-05	35.008	173.122	62.536	30.528	-59.036	91.895	120.263	-59.307	-53.159	110.332	85.663	-54.363	-49.923	-48.733	-44.711	41.953	-45.932	-8191	255	
15232.515	1	1	0	0	0.14737	0.20778	0.076434	0.16526	0.20895	0.19601	0.15319	0.32929	0.2689	0.10769	0.23238	0.10466	0.046091	0.1614	0.09424	0.2982	-2.0479	-2.8146	-2.8354	-2.2542	-2.8438	-2.6458	-2.4542	-2.8812	-2.4417	-2.7292	-2.7438	-2.4562	-2.6583	-2.7417	-2.5125	-2.7729	247.190	9.178	83.217	237.295	195.272	167.687	156.749	241.176	-35.528	-66.784	6.427	267.347	255.052	225.885	191.373	247.022	0.00011215	0.00036227	9.5459e-05	496.93	1.2329e-06	4.2713e-06	615.85	155.71	1.7469e-06	4.4714e-06	225.42	85.6	54.875	20.338	2.3852e-06	35.549	0.00065393	0.00098554	0.00028274	486.72	9.7429e-06	1.0889e-05	601.92	153.68	1.0231e-05	1.103e-05	222.38	85.019	54.972	20.239	1.0316e-05	35.277	159.667	3.172	44.755	-59.046	15.771	102.361	-59.472	-52.833	33.386	60.079	-54.153	-49.899	-48.462	-44.669	93.805	-46.622	-8191	255	
15232.611	1	1	0	0	0.13537	0.12713	0.1945	0.15841	0.019751	0.12702	0.14396	0.19434	0.10477	0.17184	0.081618	0.080738	0.18501	0.21764	0.29092	0.23735	-2.0625	-2.5854	-2.7458	-2.4021	-2.7083	-2.7458	-2.5146	-2.8854	-2.4542	-2.6437	-2.8	-2.5479	-2.6771	-2.7375	-2.3187	-2.8187	-49.814	37.509	74.252	173.147	264.032	211.870	-67.856	247.344	-46.354	138.476	262.845	201.561	-62.036	266.027	231.622	235.810	0.00010965	0.00023446	0.00010913	498.72	3.0837e-06	2.9547e-06	615.8	156.26	2.7261e-06	2.7428e-06	225.87	85.394	54.832	20.328	1.5068e-06	35.331	0.00064393	0.00098851	0.00027628	486.6	9.8111e-06	1.1211e-05	603.39	154.21	1.0145e-05	1.0885e-05	222.67	85.082	55.042	20.286	1.0681e-05	35.208	155.346	55.216	18.652	-59.101	37.927	139.811	-59.288	-52.680	45.416	44.500	-54.094	-50.118	-48.474	-44.709	56.207	-46.408	-8191	255	
15232.708	1	1	0	0	0.16607	0.16726	0.15575	0.25642	0.12002	0.1014	0.096633	0.17256	0.1469	0.14522	0.20226	0.20496	0.075769	0.29646	0.25755	0.027097	-2.075	-2.4062	-2.6792	-2.3688	-2.6854	-2.7271	-2.3625	-2.7479	-2.5708	-2.4396	-2.8042	-2.4646	-2.6833	-2.7938	-2.475	-2.7	107.456	78.471	28.671	235.047	148.479	-11.751	166.016	182.149	185.743	30.852	252.163	265.375	250.446	-47.812	107.375	164.548	8.9255e-05	0.00022103	6.6391e-05	502.08	2.1243e-06	2.1671e-06	614.59	156.3	1.2889e-06	5.2023e-06	227.25	85.952	55.617	20.554	2.4634e-06	35.683	0.00066669	0.0010079	0.00028138	488.27	9.993e-06	1.1192e-05	604.35	154.69	1.0108e-05	1.0939e-05	223.87	85.723	55.526	20.519	1.0629e-05	35.551	146.356	6.747	85.812	-58.852	87.834	64.583	-59.212	-52.794	33.900	85.744	-54.284	-49.905	-48.457	-44.310	101.577	-46.277	-8191	255	
15232.804	1	1	0	0	0.28633	0.15323	0.17406	0.11263	0.17643	0.18587	0.3709	0.1284	0.27723	0.41395	0.13428	0.096595	0.079075	0.053686	0.29623	0.28677	-2.1042	-2.4458	-2.6854	-2.4146	-2.5708	-2.6729	-2.1979	-2.8812	-2.4833	-2.5104	-2.8917	-2.6792	-2.6104	-2.6396	-2.4271	-2.7062	59.159	108.912	167.979	170.186	33.438	218.119	167.365	271.433	92.061	178.326	265.554	33.207	1.550	-10.947	260.138	-18.296	9.8095e-05	0.00030585	0.00011543	498.79	2.3157e-06	1.6578e-06	617.43	155.67	1.1447e-06	4.6712e-06	225.16	85.248	54.845	20.383	8.8305e-07	35.482	0.00064581	0.00098568	0.00027574	488.95	9.861e-06	1.1204e-05	605.7	154.51	1.0279e-05	1.1441e-05	222.78	85.344	55.101	20.344	1.0685e-05	35.275	163.218	-18.201	4.008	-58.960	133.671	117.679	-59.205	-52.913	56.087	84.264	-54.341	-49.771	-48.422	-44.750	13.260	-46.199	-8191	255	
15232.900	1	1	0	0	0.21936	0.10352	0.27719	0.1571	0.087325	0.015655	0.074779	0.22905	0.037091	0.27501	0.087517	0.2135	0.044929	0.22464	0.093329	0.02594	-2.3625	-2.2375	-2.9375	-2.5792	-2.6396	-2.7646	-2.4375	-2.7667	-2.7833	-2.5292	-2.8708	-2.5125	-2.7292	-2.8979	-2.4042	-2.7854	139.681	67.913	135.616	204.537	49.633	170.746	203.923	282.626	37.829	281.522	-59.538	110.235	135.694	47.803	117.485	-8.405	7.3425e-05	0.00034211	0.00017847	497.5	9.8441e-07	2.9142e-06	614.83	156.97	1.0514e-06	5.7258e-07	225.51	85.237	54.783	20.468	3.024e-06	35.666	0.00065036	0.0010133	0.00027825	486.29	9.9018e-06	1.1326e-05	601.52	154.22	1.0246e-05	1.1313e-05	222.04	85.036	55.173	20.391	1.0565e-05	35.3	176.276	47.593	55.765	-58.792	69.030	55.878	-59.158	-53.070	-65.656	167.457	-54.143	-49.418	-48.674	-44.933	59.455	-46.308	-8191	255	
15233.021	1	1	0	0	0.2016	0.20884	0.2819	0.083396	0.261	0.23973	0.13862	0.32113	0.15915	0.046362	0.24619	0.21386	0.23598	0.20551	0.17933	0.035043	-2.2938	-2.2313	-2.8271	-2.7125	-2.4854	-2.8438	-2.4042	-2.6625	-2.5583	-2.4583	-2.9167	-2.7021	-2.2479	-2.8292	-2.3042	-2.6917	27.089	-16.549	212.046	122.647	233.594	161.065	250.966	253.441	174.479	37.253	-48.329	-62.472	98.470	193.159	173.613	172.097	7.7962e-05	0.00046229	0.00010305	498.25	7.7403e-07	4.4455e-06	613.71	156.63	1.2835e-06	4.0113e-06	225.06	85.493	55.15	20.42	1.8961e-06	35.424	0.00064811	0.0010188	0.00028551	487.02	1.0107e-05	1.1168e-05	601.61	154.59	1.0241e-05	1.1213e-05	221.67	85.232	55.086	20.375	1.0305e-05	35.232	164.922	0.216	15.971	-58.812	103.076	75.976	-59.358	-52.848	102.254	82.943	-54.249	-49.910	-47.966	-44.889	98.676	-46.371	-8191	255	
15233.117	1	1	0	0	0.18906	0.06656	0.31585	0.032051	0.01771	0.18625	0.11261	0.23002	0.21224	0.09139	0.2468	0.23231	0.20632	0.091661	0.25075	0.2383	-2.3583	-2.4375	-2.7854	-2.5792	-2.6042	-2.6896	-2.6063	-2.5792	-2.7646	-2.4292	-2.7396	-2.6354	-2.3646	-2.8479	-2.3479	-2.3917	261.195	66.237	288.687	236.607	184.127	165.385	199.860	161.558	284.988	-56.916	225.618	202.480	82.381	81.614	259.814	271.639	0.00013067	0.00032692	9.749e-05	500.52	3.1981e-06	1.1849e-06	616.81	156.66	1.3998e-06	1.8897e-06	227.37	86.129	55.401	20.564	1.4201e-06	35.794	0.0006664	0.0010139	0.00027039	487.66	1.013e-05	1.1255e-05	604.96	154.34	1.0194e-05	1.1145e-05	224.22	85.815	55.47	20.519	1.0407e-05	35.598	170.221	19.584	-20.387	-58.870	68.312	70.334	-59.379	-52.986	34.852	79.814	-54.454	-49.858	-48.580	-44.582	110.608	-46.376	-8191	255	
15233.213	1	1	0	0	0.053371	0.28752	0.20311	0.12676	0.22499	0.083294	0.46207	0.42899	0.057197	0.042039	0.22889	0.12212	0.21339	0.1631	0.14562	0.28773	-2.4583	-2.25	-2.8229	-2.5563	-2.1979	-2.6229	-2.6229	-2.5083	-2.8583	-2.3708	-2.5958	-2.7896	-2.2479	-2.7604	-2.5542	-2.6417	233.655	142.337	241.550	284.461	227.293	61.891	-20.961	231.683	-36.274	249.062	166.214	133.188	47.183	38.545	220.592	248.635	9.9757e-05	0.00040098	9.608e-05	500.31	6.82e-07	3.6357e-06	617.77	156.38	8.7238e-07	1.1583e-06	224.8	85.488	55.4	20.453	2.2895e-06	35.299	0.00067125	0.0010184	0.00027175	487.35	1.0175e-05	1.0919e-05	603.16	154.53	1.0418e-05	1.0878e-05	222.88	85.429	55.504	20.442	1.0255e-05	35.194	167.586	42.121	-16.071	-59.220	63.476	103.558	-59.209	-52.805	52.111	-45.507	-54.362	-49.681	-48.516	-44.623	65.652	-46.242	-8191	255	
15233.309	1	1	0	0	0.31481	0.068843	0.11903	0.31057	0.17769	0.024373	0.017782	0.12621	0.12644	0.17019	0.28134	0.16657	0.10687	0.024447	0.20442	0.12055	-2.4396	-2.5667	-2.6688	-2.7125	-2.1896	-2.7083	-2.6917	-2.4104	-2.7562	-2.5271	-2.8083	-2.8354	-2.2938	-2.6667	-2.5021	-2.2833	-49.299	258.023	159.106	172.816	29.156	148.258	199.426	24.921	-7.023	282.065	102.824	273.524	109.497	-45.893	72.998	242.753	8.9751e-05	6.772e-05	4.8762e-05	497.98	2.0134e-06	1.397e-06	613.98	156.57	1.9019e-06	2.0031e-06	228.03	85.929	55.873	20.556	2.4984e-06	35.289	0.00064336	0.00098251	0.00027909	486.15	1.0079e-05	1.1097e-05	602.16	155.02	1.0344e-05	1.0672e-05	223.41	85.791	55.762	20.482	1.0719e-05	35.271	152.451	220.721	17.736	-58.874	79.302	56.394	-59.353	-53.303	47.460	39.225	-54.292	-49.700	-48.382	-44.544	71.885	-46.222	-8191	255	
15233.403	1	1	0	0	0.11803	0.11417	0.1314	0.13671	0.059518	0.27066	0.079875	0.22927	0.13761	0.09851	0.16762	0.10139	0.070615	0.27588	0.23036	0.064997	-2.2812	-2.3917	-2.6417	-2.725	-2.3542	-2.6125	-2.7271	-2.1583	-2.7354	-2.5208	-2.6667	-2.7667	-2.4146	-2.6542	-2.65	-2.3542	278.331	-25.757	103.453	190.095	22.839	89.509	188.601	250.204	195.990	257.458	208.373	-28.089	41.889	267.047	165.460	209.883	9.8332e-05	0.00043293	6.9516e-05	497.86	3.3838e-06	4.3433e-06	609.02	156.48	1.9246e-06	3.4017e-06	228.23	86.137	55.582	20.454	2.0947e-06	35.597	0.00065439	0.0010163	0.00027613	485.8	1.0161e-05	1.1146e-05	600.82	154.53	1.0348e-05	1.0963e-05	223.31	85.541	55.58	20.446	1.0764e-05	35.444	169.107	16.593	84.831	-58.801	53.271	89.150	-59.208	-52.872	3.704	37.850	-54.044	-50.009	-48.426	-44.461	52.759	-46.351	-8191	255	
15233.500	1	1	0	0	0.085434	0.43788	0.10596	0.23421	0.23284	0.13677	0.041666	0.09333	0.19771	0.055853	0.24836	0.13066	0.16857	0.20619	0.2608	0.055869	-2.3438	-2.45	-2.4333	-2.9562	-2.3167	-2.7188	-2.6229	-2.2146	-2.7438	-2.4583	-2.4	-2.8125	-2.3625	-2.5438	-2.8187	-2.2313	224.098	219.771	18.071	208.731	38.069	102.896	35.298	233.094	182.403	236.238	271.535	186.790	-27.391	-49.228	21.940	194.424	0.00011924	0.00034144	0.00010667	494.83	2.4687e-06	1.9168e-06	609.82	156.31	1.516e-06	4.6216e-06	225.98	86.316	55.388	20.539	1.1218e-06	35.617	0.00066691	0.00099759	0.00029011	484.27	1.0112e-05	1.1085e-05	598.86	154.53	1.0011e-05	1.1217e-05	222.44	85.601	55.411	20.47	1.0603e-05	35.379	167.945	19.250	60.038	-59.117	75.975	127.210	-59.401	-53.495	107.024	76.103	-54.327	-49.849	-48.132	-44.364	11.851	-46.317	-8191	255	
15233.596	1	1	0	0	0.2882	0.2052	0.27468	0.051704	0.24142	0.18064	0.14555	0.23231	0.15012	0.15538	0.14249	0.15514	0.18705	0.15859	0.13394	0.18012	-2.2167	-2.4104	-2.35	-2.95	-2.3	-2.5208	-2.875	-2.4146	-2.9188	-2.6896	-2.5417	-2.8521	-2.4813	-2.6104	-2.7229	-2.45	245.230	89.406	224.551	44.322	164.932	-0.267	275.618	288.477	-28.648	265.250	-60.330	-62.953	130.566	-17.083	123.319	267.883	0.00010275	0.00020107	5.2536e-05	493.64	1.4613e-06	4.9413e-06	608.69	156.42	3.0377e-06	4.7677e-06	227.3	86.538	55.553	20.731	1.2841e-06	35.881	0.00066498	0.0010004	0.00028454	482.66	9.9013e-06	1.1269e-05	597.58	154.58	1.0158e-05	1.1043e-05	223.44	86.001	55.685	20.619	1.0802e-05	35.701	156.109	-45.905	-31.518	-59.189	222.406	144.893	-59.321	-53.047	81.077	82.260	-54.251	-50.084	-48.214	-44.669	72.339	-46.321	-8191	255	
15233.716	1	1	0	0	0.31035	0.15118	0.17408	0.29628	0.15693	0.085406	0.14741	0.29099	0.33064	0.10121	0.068317	0.17759	0.29102	0.13096	0.12994	0.048428	-2.125	-2.7208	-2.2271	-2.8146	-2.5854	-2.5833	-2.9333	-2.3604	-2.6875	-2.6979	-2.2958	-3.0187	-2.4167	-2.4646	-2.9375	-2.5292	-15.147	-46.474	-70.181	-60.939	182.954	174.730	128.611	241.440	-49.239	42.945	212.425	178.615	-33.931	-67.042	78.907	124.363	9.4001e-05	0.00028829	0.00014072	494.55	2.0508e-06	3.6722e-06	611.19	156.67	2.03e-06	4.3744e-06	229.73	87.052	56.187	20.717	2.6086e-06	36.807	0.00066305	0.0010111	0.00027661	482.53	1.0363e-05	1.1384e-05	598.53	154.54	1.0244e-05	1.1497e-05	224.89	86.833	56.179	20.841	1.0895e-05	36.345	142.476	15.691	53.713	-59.254	30.023	53.503	-59.527	-53.000	140.893	107.537	-54.423	-50.056	-48.478	-44.625	102.712	-46.272	-8191	255	
15233.812	1	1	0	0	0.28836	0.02725	0.16702	0.36699	0.10394	0.24314	0.18314	0.14881	0.19326	0.12521	0.15717	0.18146	0.33269	0.26449	0.15561	0.27501	-2.0979	-2.6521	-2.3708	-2.7708	-2.6125	-2.3104	-2.9958	-2.5375	-2.5938	-2.9208	-2.4646	-2.875	-2.6354	-2.5396	-2.8083	-2.4688	-50.928	121.485	-16.813	237.418	241.854	142.230	268.670	232.629	90.930	-61.856	-17.811	236.248	-17.913	170.251	53.550	151.221	0.00010092	0.00047435	6.1393e-05	495.62	1.7819e-06	2.7226e-06	614.41	159.12	8.3219e-07	4.9814e-06	230.56	88.748	57.137	21.298	1.4799e-06	37.262	0.00066967	0.0010655	0.00029813	485.14	1.0318e-05	1.2011e-05	601.9	156.86	1.0833e-05	1.1674e-05	228.06	88.208	56.999	21.304	1.1483e-05	36.964	142.764	5.538	-5.669	-58.962	36.885	91.740	-59.461	-52.844	14.303	51.814	-54.320	-49.934	-48.142	-44.632	73.894	-46.516	-8191	255	
15233.884	1	1	0	0	0.078777	0.14719	0.12382	0.23333	0.094261	0.19268	0.10421	0.32689	0.23422	0.21832	0.21755	0.35805	0.19235	0.050141	0.1923	0.24426	-2.1354	-2.7646	-2.3292	-2.5583	-2.6083	-2.6	-2.8792	-2.4562	-2.3979	-2.75	-2.4354	-2.7188	-2.5958	-2.3812	-2.9604	-2.4708	140.027	72.796	46.658	-15.309	-15.407	84.019	157.323	161.531	80.783	169.124	137.337	-63.641	9.255	212.621	222.318	212.342	0.00012267	0.00048884	0.00011354	498.4	2.9841e-06	4.9808e-06	613.68	159.79	2.22e-06	6.2889e-06	234.8	90.137	57.902	21.737	2.4332e-06	37.955	0.00070896	0.0010782	0.00030013	486.6	1.0538e-05	1.1962e-05	603.28	158.33	1.1014e-05	1.1822e-05	230.94	89.749	57.856	21.653	1.1209e-05	37.606	159.312	58.130	26.592	-58.724	66.764	91.674	-59.132	-53.110	42.458	87.868	-54.474	-49.999	-48.672	-44.364	104.811	-46.502	-8191	255	
15233.980	1	1	0	0	0.088964	0.085397	0.074881	0.10792	0.088557	0.12237	0.17462	0.024757	0.14817	0.22072	0.2282	0.2189	0.13215	0.094216	0.19019	0.085344	-1.9833	-2.6292	-2.2521	-2.825	-2.7188	-2.2604	-2.7417	-2.475	-2.4979	-2.8563	-2.4542	-2.7167	-2.5646	-2.2979	-2.6562	-2.5438	-38.654	128.250	43.212	-13.951	176.919	212.312	229.913	233.130	40.050	177.909	266.413	217.822	33.940	123.282	11.693	-55.744	9.6755e-05	0.00022592	8.3135e-05	499.01	2.1994e-06	2.0714e-06	610.4	160.55	3.6287e-06	2.2596e-06	233.53	89.429	57.862	21.73	1.42e-06	37.799	0.00070097	0.0010856	0.00030366	486.65	1.0896e-05	1.2392e-05	600.79	158.84	1.1096e-05	1.1719e-05	230.51	89.278	57.72	21.647	1.1277e-05	37.55	163.134	-0.799	-8.150	-58.942	81.128	85.213	-59.012	-52.879	69.436	123.392	-54.492	-49.593	-48.653	-44.738	82.745	-46.339	-8191	255	
15234.101	1	1	0	0	0.24672	0.16061	0.21118	0.15944	0.0053351	0.043491	0.17211	0.22305	0.3282	0.08072	0.16203	0.45299	0.097096	0.26434	0.088252	0.1764	-1.9708	-2.8563	-2.2833	-2.7417	-2.7521	-2.3354	-2.5875	-2.5729	-2.4562	-2.8958	-2.5229	-2.6833	-2.8729	-2.3167	-2.7854	-2.7292	130.042	187.085	53.850	221.876	21.099	87.780	255.900	188.517	-42.613	54.490	-32.550	225.309	126.463	-12.331	273.281	182.201	8.2619e-05	0.00037899	6.2853e-05	496.97	2.5212e-06	4.354e-06	611.84	161.89	9.5501e-07	1.4069e-06	235.25	90.38	58.326	22.044	1.1871e-06	38.341	0.00068297	0.001094	0.00030491	486.62	1.0528e-05	1.2252e-05	601	159.82	1.1056e-05	1.1519e-05	233.12	90.489	58.469	22.016	1.1056e-05	38.071	166.227	2.518	-9.783	-58.733	110.543	87.045	-59.116	-52.764	-15.035	33.767	-54.540	-49.810	-48.381	-44.794	-30.651	-46.286	-8191	255	
15234.197	1	1	0	0	0.36034	0.147	0.036392	0.23884	0.1374	0.038842	0.34616	0.24306	0.26892	0.23587	0.096183	0.2399	0.050499	0.16682	0.19414	0.24216	-1.9021	-2.7687	-2.5812	-2.5854	-2.7646	-2.3354	-2.7896	-2.8063	-2.2458	-2.7083	-2.6167	-2.3896	-2.7083	-2.2833	-2.7083	-2.8875	164.782	15.097	212.733	163.244	-67.420	267.135	111.338	-54.543	-51.448	78.256	204.074	268.815	83.577	269.603	194.173	204.948	0.00011791	0.00011416	9.6916e-05	497.33	1.4216e-06	6.5563e-06	616.04	161.49	1.0639e-06	2.7093e-06	237.13	90.583	58.681	22.065	1.5382e-06	38.627	0.0006956	0.0010795	0.00029737	485.98	1.1056e-05	1.2301e-05	602.69	159.69	1.1454e-05	1.178e-05	233.59	90.746	58.637	22.067	1.1464e-05	38.536	162.800	95.129	14.707	-58.922	88.611	112.017	-59.182	-52.975	74.808	121.651	-54.297	-49.918	-48.768	-44.692	110.324	-46.568	-8191	255	
15234.293	1	1	0	0	0.062981	0.23225	0.15465	0.16565	0.12866	0.16495	0.10984	0.27736	0.056559	0.057838	0.25951	0.13212	0.26736	0.24364	0.042216	0.1854	-2.0521	-2.5708	-2.4125	-2.3583	-2.8625	-2.3771	-2.5917	-2.6562	-2.2938	-2.6625	-2.5812	-2.5563	-2.7104	-2.3229	-2.5812	-2.8167	113.551	-41.682	198.373	208.418	274.484	83.462	241.803	245.556	109.371	-22.000	-61.020	172.592	159.985	269.973	95.249	240.140	8.6694e-05	0.00028798	0.00013246	495.37	2.2916e-06	4.853e-06	616.35	162.96	9.9357e-07	3.5384e-06	240.24	92.459	59.147	22.586	2.4399e-06	39.509	0.00072982	0.001088	0.00030308	486.68	1.1147e-05	1.2286e-05	604.7	161.59	1.1537e-05	1.2076e-05	236.9	92.292	59.423	22.499	1.123e-05	39.224	152.513	44.692	5.256	-58.859	95.653	115.217	-59.279	-52.866	101.308	133.382	-54.557	-50.200	-48.625	-44.834	76.189	-46.460	-8191	255	
15234.412	1	1	0	0	0.23507	0.16918	0.22078	0.013259	0.15245	0.12094	0.17954	0.2131	0.33216	0.16999	0.27817	0.26805	0.091013	0.13442	0.12609	0.21047	-1.6083	-2.7687	-2.5396	-2.4771	-2.9062	-2.4729	-2.6542	-2.8458	-2.3187	-2.9229	-2.6562	-2.2542	-2.8708	-2.3958	-2.5	-2.7833	-4.876	97.504	168.744	257.741	276.388	39.237	247.648	189.694	95.082	221.681	6.768	201.438	69.248	259.296	-24.078	139.010	0.00011337	0.0001548	5.1683e-05	497.12	2.4304e-06	2.4875e-06	613.02	162.55	1.1596e-06	2.2303e-06	237.55	92.863	59.247	22.742	2.458e-06	39.485	0.00071397	0.0010899	0.00031369	487.44	1.0912e-05	1.256e-05	601.16	160.86	1.1507e-05	1.2039e-05	234.97	91.97	59.282	22.565	1.1572e-05	39.263	155.069	1.584	-48.229	-58.954	56.404	113.078	-59.049	-52.961	55.665	126.835	-54.175	-50.247	-48.486	-44.634	71.275	-46.359	-8191	255	
15234.484	1	1	0	0	0.22821	0.21261	0.12746	0.088947	0.27595	0.090858	0.28458	0.20217	0.034588	0.18408	0.16994	0.20577	0.23423	0.16936	0.12404	0.073757	-1.6292	-2.6771	-2.6917	-2.3771	-3	-2.4062	-2.7313	-2.8771	-2.3146	-2.7458	-2.6208	-2.3312	-2.8	-2.5583	-2.5896	-2.8875	64.404	-61.393	22.324	211.776	-70.312	49.385	169.052	207.447	76.917	63.377	74.281	-23.116	-56.501	-32.579	101.319	227.792	0.00011584	0.00026097	3.9901e-05	499.86	2.6413e-06	7.0184e-06	613.89	163.5	3.7171e-06	3.9516e-06	238.94	92.671	59.468	22.72	1.1755e-06	39.966	0.00071641	0.0011094	0.00030569	487.29	1.0823e-05	1.229e-05	601.78	161.21	1.151e-05	1.2292e-05	236.24	92.272	59.429	22.695	1.1868e-05	39.582	162.401	45.027	-0.436	-58.805	104.021	74.682	-59.320	-52.993	89.664	99.074	-54.187	-49.730	-48.236	-44.404	97.206	-46.341	-8191	255	
15234.582	1	1	0	0	0.37501	0.29721	0.24893	0.054729	0.11796	0.025876	0.29576	0.36522	0.16842	0.1473	0.14548	0.14345	0.12963	0.24575	0.14663	0.19906	-1.9042	-2.6854	-2.8833	-2.4125	-2.9479	-2.4646	-2.3563	-2.9104	-2.4437	-2.625	-2.7958	-2.4042	-2.7625	-2.7313	-2.475	-2.9417	94.141	256.243	200.257	-32.036	165.104	135.615	268.077	157.101	95.022	177.223	236.675	9.844	-43.435	152.967	284.403	59.918	0.00012191	0.00026448	0.00012037	496.53	2.2764e-06	7.8084e-07	611.77	163.73	7.8602e-07	5.8296e-06	239.55	93.095	59.56	23.092	2.5068e-06	40.06	0.00072102	0.0011293	0.00030789	485.91	1.0616e-05	1.2406e-05	600.95	161.67	1.1187e-05	1.2327e-05	236.9	92.766	59.769	22.934	1.1809e-05	39.913	183.823	5.755	49.170	-58.969	72.786	96.985	-59.012	-52.721	11.346	92.274	-54.165	-49.888	-48.645	-44.899	67.005	-46.176	-8191	255	
15234.701	1	1	0	0	0.25469	0.064601	0.17383	0.16927	0.083091	0.12776	0.090408	0.30598	0.20532	0.29081	0.082141	0.11208	0.15401	0.20772	0.054996	0.22886	-2.0104	-2.3625	-2.6771	-2.3375	-2.7188	-2.6813	-2.3271	-2.8812	-2.4396	-2.5	-2.9479	-2.1979	-2.6042	-2.7875	-2.3208	-2.8771	77.129	-7.360	-8.175	-58.670	-30.923	178.138	135.643	-43.533	99.372	158.234	-63.078	173.859	-66.106	258.391	252.664	196.295	0.00013274	0.00050339	0.00016889	499.45	2.7797e-06	2.7801e-06	611.42	163.89	1.7131e-06	2.8041e-06	241.18	93.448	59.661	23.118	3.609e-06	40.598	0.00072116	0.0010929	0.00031235	487.53	1.1137e-05	1.2195e-05	602.27	162.29	1.1404e-05	1.263e-05	238.15	93.345	59.981	23.092	1.1911e-05	40.261	163.851	32.767	9.698	-58.824	114.707	114.368	-59.290	-53.092	72.640	45.464	-54.224	-49.708	-48.709	-44.180	105.366	-46.511	-8191	255	
15234.797	1	1	0	0	0.14672	0.23255	0.087661	0.26416	0.2075	0.097981	0.19705	0.13215	0.23754	0.20074	0.13429	0.12293	0.17278	0.092571	0.24349	0.016626	-1.8771	-2.5146	-2.6375	-2.4938	-2.7708	-2.7375	-2.4479	-2.8667	-2.6583	-2.375	-2.7854	-2.6021	-2.7458	-3.0479	-2.3812	-2.7438	193.566	-67.623	-3.453	215.346	-5.866	7.897	203.690	176.751	161.212	122.711	189.449	-65.368	72.873	-10.349	2.429	-64.110	8.2852e-05	0.00030374	8.5029e-05	499.81	1.39e-06	5.3824e-06	613.76	164.31	2.9838e-06	3.8348e-06	242.02	93.273	59.778	23.074	2.3244e-06	40.436	0.00072312	0.0010979	0.0003138	486.74	1.0815e-05	1.2246e-05	600.21	161.84	1.1071e-05	1.2654e-05	236.83	92.853	59.734	23.043	1.1841e-05	40.277	180.930	48.292	1.360	-58.896	50.119	110.526	-58.879	-52.999	14.403	86.416	-54.239	-49.837	-48.547	-44.476	70.097	-46.386	-8191	255	
15234.893	1	1	0	0	0.25965	0.099488	0.27399	0.20142	0.11225	0.031606	0.12674	0.19579	0.15281	0.063998	0.25975	0.056436	0.16118	0.046248	0.16141	0.47839	-2.0646	-2.5146	-2.7125	-2.3354	-2.6083	-2.6333	-2.2583	-2.8333	-2.5354	-2.3292	-2.7812	-2.3021	-2.4958	-2.7854	-2.4437	-2.6417	139.046	126.032	148.085	203.693	-4.161	118.642	35.813	-61.887	237.172	196.747	110.641	107.681	-51.339	113.470	-47.775	185.771	0.00010383	0.00028755	0.00010487	496.98	1.9412e-06	3.7552e-06	610.95	163.75	2.0579e-06	3.0781e-06	242.28	93.547	59.85	23.135	3.7265e-06	40.751	0.00071022	0.0011396	0.00031017	485.24	1.0872e-05	1.239e-05	599.85	161.73	1.1084e-05	1.2398e-05	237.47	93.052	59.832	23.113	1.1982e-05	40.362	173.521	27.839	13.360	-58.708	94.772	45.751	-59.142	-52.716	64.524	130.297	-54.133	-49.969	-48.575	-44.690	80.945	-46.453	-8191	255	
15235.013	1	1	0	0	0.068488	0.21749	0.15187	0.1799	0.29903	0.16815	0.43902	0.1644	0.17128	0.36099	0.098134	0.16414	0.10267	0.24063	0.11691	0.032501	-2.1979	-2.2646	-2.7396	-2.5125	-2.4854	-2.7146	-2.4896	-2.7583	-2.6063	-2.3104	-2.7562	-2.5667	-2.4625	-2.8354	-2.5042	-2.6292	-23.680	270.242	76.975	-44.923	220.229	2.939	283.535	280.910	-41.708	237.288	-68.819	215.072	-58.679	266.819	170.399	130.433	0.00010167	0.00021046	5.2904e-05	494.67	1.9831e-06	2.0064e-06	609.43	164.26	3.0574e-06	4.1226e-06	240.7	92.559	59.803	23.3	3.3959e-06	40.347	0.00071818	0.0011149	0.00031085	484.21	1.0852e-05	1.2222e-05	598.03	161.57	1.1043e-05	1.229e-05	236.68	92.763	59.673	23.061	1.1942e-05	40.182	164.126	49.381	14.189	-58.794	73.474	36.248	-58.847	-52.798	102.032	26.495	-54.059	-49.867	-48.601	-44.723	59.348	-46.504	-8191	255	
15235.085	1	1	0	0	0.36264	0.13173	0.10542	0.16751	0.14365	0.1163	0.25257	0.22223	0.15843	0.17905	0.057187	0.2812	0.044693	0.13564	0.10247	0.092062	-2.1937	-2.3563	-2.7062	-2.55	-2.4083	-2.7938	-2.5792	-2.5521	-2.5417	-2.2938	-2.6979	-2.4979	-2.3896	-2.9958	-2.2083	-2.5833	282.647	-25.461	77.064	40.317	79.249	100.712	209.107	201.430	161.551	113.920	95.884	185.298	-41.553	116.088	243.034	-66.887	0.00010669	0.00036218	0.00012772	493.75	2.5447e-06	4.7194e-06	609.17	161.92	9.3677e-07	5.9165e-06	240.04	92.841	58.756	23.046	2.9033e-06	40.312	0.00072108	0.0011517	0.00029684	481.55	1.1041e-05	1.2657e-05	595.55	160.4	1.1317e-05	1.2481e-05	235.38	92.517	59.196	22.859	1.1287e-05	40.031	154.706	36.002	27.922	-58.667	87.795	89.762	-59.349	-53.189	29.912	95.927	-54.076	-50.148	-48.300	-44.646	84.211	-46.169	-8191	255	
15235.181	1	1	0	0	0.21832	0.036911	0.065088	0.24299	0.15692	0.13719	0.31144	0.15871	0.21232	0.068141	0.020061	0.14062	0.085559	0.021304	0.11328	0.31101	-2.2333	-2.2062	-2.8292	-2.8167	-2.4292	-2.9437	-2.5208	-2.5479	-2.7917	-2.2833	-2.8125	-2.6625	-2.4437	-3.0208	-2.3937	-2.5917	277.583	21.675	242.100	231.299	178.962	150.585	-39.932	257.610	88.044	69.249	81.890	209.620	52.639	274.645	24.982	127.995	0.00011946	0.00025796	0.00011093	488.45	1.3566e-06	5.2646e-06	603.36	160.64	1.2211e-06	3.7607e-06	236.41	91.712	58.724	23.009	4.0944e-06	40.175	0.00071638	0.0010913	0.00030144	479.11	1.1009e-05	1.2195e-05	591.1	158.96	1.0849e-05	1.1679e-05	233.62	91.706	58.903	22.85	1.1422e-05	39.921	167.715	6.674	73.117	-59.396	87.570	65.615	-59.212	-53.107	32.616	-14.588	-54.575	-49.868	-48.522	-44.715	39.351	-46.533	-8191	255	
15235.277	1	1	0	0	0.039745	0.2952	0.28418	0.16322	0.16686	0.10152	0.084734	0.22644	0.0075039	0.30287	0.045546	0.2507	0.015898	0.079745	0.31998	0.24638	-2.2917	-2.3917	-2.7792	-2.6375	-2.3167	-2.7917	-2.425	-2.5042	-2.8292	-2.4813	-2.8271	-2.6979	-2.4417	-2.8229	-2.5917	-2.4792	119.966	-17.808	100.278	-21.315	-45.035	114.963	-44.278	185.116	122.690	195.302	60.961	-30.271	18.671	-65.366	-55.004	180.916	0.00013584	0.0001411	0.00013012	485.39	3.6564e-06	2.9735e-06	602.31	161.22	2.4496e-06	3.3834e-06	237.16	91.195	58.712	22.792	1.9756e-06	40.22	0.0007081	0.0010821	0.00029925	475.83	1.101e-05	1.1981e-05	590.4	158.72	1.0883e-05	1.189e-05	233.04	91.214	58.62	22.774	1.1385e-05	39.845	182.427	-4.809	41.934	-59.191	56.299	32.649	-59.249	-52.978	63.915	111.160	-54.493	-49.737	-48.613	-44.153	39.392	-46.387	-8191	255	
15235.396	1	1	0	0	0.13448	0.19125	0.26095	0.30916	0.1727	0.10351	0.096491	0.23893	0.033067	0.10493	0.07188	0.28786	0.23436	0.21505	0.20468	0.2403	-2.2	-2.3417	-2.5438	-2.6021	-2.4167	-2.8646	-2.6312	-2.2521	-2.8292	-2.5354	-2.6	-2.7938	-2.2229	-2.65	-2.6396	-2.3125	166.783	-69.631	231.149	274.085	-26.947	-62.438	257.512	194.948	45.095	77.915	227.389	231.770	242.542	1.527	211.589	-48.991	0.00011491	0.00039333	0.00014812	482.65	2.1234e-06	4.4672e-06	598.55	158.98	1.7393e-06	5.0639e-06	236.31	91.381	58.627	22.833	3.1204e-06	40.125	0.00069676	0.0010876	0.00029759	473.91	1.0821e-05	1.1955e-05	587.2	157.78	1.0989e-05	1.1949e-05	232.31	91.105	58.592	22.755	1.1631e-05	39.956	165.544	7.621	-4.649	-59.142	57.068	118.769	-58.930	-53.070	117.457	54.776	-54.141	-49.693	-48.401	-44.376	114.168	-45.983	-8191	255	
15235.492	1	1	0	0	0.11704	0.37409	0.26635	0.090008	0.053598	0.075067	0.14615	0.10298	0.04597	0.26692	0.071457	0.13023	0.096328	0.18458	0.2157	0.50664	-2.4021	-2.6833	-2.3937	-2.725	-2.3042	-2.7062	-2.6229	-2.3125	-2.6542	-2.4458	-2.4646	-2.7104	-2.2271	-2.6292	-2.7708	-2.4833	40.088	115.861	131.534	-49.204	26.622	-27.167	120.442	86.943	-4.669	158.244	-41.531	237.694	152.226	10.140	160.780	229.274	0.00010572	0.00033301	0.00015089	483.79	2.2594e-06	4.6828e-06	599.01	159.54	2.6795e-06	3.5684e-06	234.57	91.394	58.162	23.06	2.7247e-06	40.433	0.0007103	0.0010874	0.00031161	474.38	1.1147e-05	1.2275e-05	586.84	158.02	1.1118e-05	1.1924e-05	232.03	91.307	58.437	22.9	1.118e-05	40.189	177.866	31.936	20.244	-58.924	99.287	84.285	-59.200	-52.962	130.060	109.403	-54.458	-49.746	-48.306	-44.481	68.522	-46.123	-8191	255	
15235.589	1	1	0	0	0.17941	0.13839	0.38961	0.015615	0.18513	0.21432	0.10566	0.1913	0.056663	0.23097	0.096158	0.20018	0.15204	0.1108	0.3037	0.055768	-2.2812	-2.6146	-2.5104	-2.9125	-2.1833	-2.6333	-2.7292	-2.25	-2.7313	-2.5917	-2.5167	-2.8646	-2.3875	-2.6396	-2.7979	-2.3	-64.022	97.512	192.631	218.278	214.883	146.169	255.992	74.073	225.261	101.076	-68.389	11.706	87.870	230.769	-56.939	244.800	0.00010725	0.00040941	8.1782e-05	484.59	2.0026e-06	5.0424e-06	594.16	159.56	2.3897e-06	4.2093e-06	235.58	91.467	58.791	23.054	3.8152e-06	40.433	0.00070764	0.0011063	0.00030938	473.54	1.0732e-05	1.175e-05	583.04	157.68	1.1016e-05	1.1888e-05	231.45	91.096	58.719	22.955	1.1439e-05	40.282	173.917	31.416	48.192	-58.786	111.130	23.132	-59.028	-52.817	128.325	115.444	-54.486	-49.876	-48.414	-44.469	48.094	-45.918	-8191	255	
15235.685	1	1	0	0	0.21281	0.23205	0.022401	0.07811	0.13158	0.15624	0.12378	0.14633	0.26294	0.018829	0.061873	0.029546	0.034027	0.041361	0.13321	0.16024	-2.2938	-2.7208	-2.5271	-2.9521	-2.4062	-2.5083	-2.9437	-2.6021	-2.725	-2.7021	-2.2417	-2.9208	-2.4625	-2.4771	-2.8875	-2.3563	-27.820	75.660	-16.703	202.045	19.185	197.734	241.325	255.123	212.327	84.898	-13.647	277.024	258.925	287.837	255.434	197.337	0.00012116	0.00053475	7.8871e-05	484.12	1.1023e-06	6.6886e-07	599.34	160.05	2.0578e-06	3.5883e-06	235.83	92.142	59.072	23.285	8.5044e-07	41.249	0.0007085	0.0011085	0.00030966	475.15	1.0901e-05	1.248e-05	585.78	158.37	1.0883e-05	1.227e-05	233.15	91.901	59.112	23.259	1.158e-05	40.92	154.361	2.191	52.829	-58.679	84.909	154.673	-58.910	-52.931	34.597	27.329	-54.460	-49.859	-48.740	-44.502	-6.785	-46.269	-8191	255	
15235.781	1	1	0	0	0.036055	0.094563	0.3255	0.068861	0.05688	0.047216	0.089753	0.11904	0.28038	0.12017	0.18146	0.097384	0.28995	0.18877	0.20957	0.077367	-2.3042	-2.7375	-2.1875	-2.9	-2.6104	-2.4833	-2.9958	-2.5354	-2.8708	-2.9042	-2.4938	-2.8521	-2.5521	-2.65	-2.925	-2.2917	31.241	215.447	254.802	211.949	-30.035	148.982	277.818	-68.561	2.515	26.348	235.566	109.863	265.460	-23.754	28.213	187.107	0.00013672	7.8441e-05	5.281e-05	487.15	1.7718e-06	4.5125e-06	599.34	161.97	2.2233e-06	5.2926e-06	238.57	93.961	59.809	23.765	1.9274e-06	41.671	0.00070652	0.0011139	0.00031172	477.52	1.0849e-05	1.2277e-05	590.56	159.67	1.1381e-05	1.2151e-05	235.78	93.363	59.811	23.571	1.1648e-05	41.477	158.192	-10.562	49.944	-58.979	81.472	55.923	-59.193	-52.899	41.103	87.206	-54.363	-49.967	-48.463	-44.705	101.572	-46.322	-8191	255	
15235.877	1	1	0	0	0.06024	0.066376	0.17129	0.071215	0.21608	0.35815	0.12395	0.23197	0.16214	0.077591	0.041376	0.15161	0.10115	0.28158	0.14898	0.269	-2.1083	-2.6979	-2.2792	-2.8312	-2.5333	-2.25	-2.8917	-2.5708	-2.4229	-2.8292	-2.3187	-2.875	-2.6208	-2.4229	-3.0021	-2.5771	217.908	37.142	-44.769	-7.392	-20.240	252.117	37.706	253.199	138.875	156.362	97.205	181.448	166.867	-51.233	-59.680	188.615	9.6387e-05	0.00028169	0.00017642	493.21	5.3282e-07	1.6485e-06	606.62	163.07	7.523e-07	5.1573e-06	240.56	94.245	59.822	23.734	9.242e-07	41.787	0.00072094	0.0011197	0.00031732	480.84	1.1188e-05	1.2506e-05	595.59	160.96	1.1634e-05	1.2061e-05	236.98	93.705	59.971	23.62	1.1904e-05	41.495	168.010	-21.041	-1.825	-58.668	38.174	-8.823	-59.304	-53.098	79.009	68.119	-54.077	-49.769	-48.630	-44.739	111.902	-46.184	-8191	255	
15235.973	1	1	0	0	0.035824	0.055749	0.036067	0.19309	0.17801	0.10374	0.25777	0.062745	0.12401	0.19728	0.19607	0.098468	0.047291	0.058301	0.16784	0.14072	-2.2938	-2.8208	-2.3021	-2.7896	-2.6542	-2.4958	-2.9667	-2.3292	-2.5958	-2.9646	-2.3312	-2.7562	-2.9542	-2.3104	-2.7438	-2.5354	228.280	-26.879	191.400	-37.544	261.757	10.307	2.216	129.014	268.445	103.181	-39.496	259.987	23.376	-24.848	178.623	-57.749	0.00011262	0.00040795	0.00010133	491.04	2.8156e-06	4.3167e-06	601.6	163.33	1.8802e-06	3.2131e-06	240.58	93.642	59.97	23.724	2.922e-06	41.941	0.00071542	0.001131	0.00030927	479.57	1.1485e-05	1.2763e-05	591.75	160.71	1.1265e-05	1.2602e-05	236.54	93.631	60.06	23.681	1.1906e-05	41.679	168.340	-33.996	44.285	-58.827	89.442	90.213	-59.260	-52.968	108.473	77.328	-54.316	-49.803	-48.310	-44.923	81.424	-46.322	-8191	255	
15236.092	1	1	0	0	0.1831	0.15735	0.19828	0.08847	0.23256	0.26297	0.21306	0.15796	0.12224	0.22246	0.1265	0.2426	0.10765	0.10635	0.092715	0.16442	-2.0125	-2.8167	-2.2167	-2.8667	-2.5812	-2.2958	-2.8667	-2.3729	-2.4875	-2.7083	-2.5187	-2.725	-2.6583	-2.4208	-2.7604	-2.7083	268.746	4.692	157.438	285.259	-40.389	99.172	255.525	199.680	194.326	149.507	153.706	49.932	161.196	-48.848	176.367	225.734	9.7788e-05	0.00025035	0.00012489	489.37	3.2903e-06	3.1384e-06	604.92	162.94	1.4034e-06	3.0785e-06	240.98	93.92	59.755	23.914	1.1389e-06	42.016	0.00073145	0.0011116	0.00031231	481.29	1.1206e-05	1.2522e-05	593.95	161.22	1.1305e-05	1.223e-05	236.92	93.829	60.198	23.849	1.1554e-05	41.882	168.564	28.775	14.635	-59.019	115.833	22.794	-58.887	-52.912	88.051	87.628	-54.256	-49.810	-48.619	-44.607	102.214	-46.311	-8191	255	
15236.188	1	1	0	0	0.035795	0.16232	0.1066	0.23315	0.22106	0.037455	0.22735	0.16495	0.20454	0.10463	0.17327	0.10862	0.2065	0.14416	0.24889	0.19579	-1.8896	-2.9104	-2.4625	-2.6521	-2.8271	-2.4646	-2.8479	-2.6396	-2.5125	-2.9146	-2.5458	-2.6937	-2.7062	-2.3042	-2.6479	-2.7313	78.311	276.038	-70.137	254.156	281.567	158.638	5.730	92.222	212.010	283.462	-70.646	200.323	177.056	180.850	-49.605	89.154	0.00014996	0.00024063	8.8289e-05	491.9	1.8648e-06	5.1189e-06	606.19	162.97	1.7169e-07	5.539e-06	241.97	95.014	60.042	24.181	1.9149e-06	42.326	0.00075181	0.0011172	0.00031933	480.66	1.1301e-05	1.2828e-05	595.08	161.61	1.1621e-05	1.2687e-05	238.31	94.654	60.498	24.019	1.1677e-05	42.129	157.745	-13.742	30.894	-59.088	74.761	73.404	-59.388	-53.109	-24.729	114.587	-54.219	-49.856	-48.534	-44.629	52.770	-45.987	-8191	255	
15236.284	1	1	0	0	0.038457	0.11467	0.1629	0.13737	0.26316	0.10449	0.26285	0.084415	0.12612	0.14366	0.29284	0.060419	0.10961	0.24051	0.15635	0.10164	-1.9667	-2.8083	-2.6021	-2.6292	-2.725	-2.3167	-2.5854	-2.6708	-2.5521	-2.8292	-2.5312	-2.4625	-2.925	-2.3396	-2.6729	-2.8458	142.801	130.296	236.964	284.058	-9.744	-45.724	218.325	104.506	173.586	-20.415	270.266	239.852	-53.501	225.922	27.552	81.991	0.00012098	0.00047952	7.2581e-05	494.22	1.9788e-06	6.5845e-07	603.71	163.93	1.1541e-06	5.4729e-06	240.39	94.356	60.237	23.894	2.7047e-06	42.139	0.00076519	0.0011052	0.00031754	482.34	1.1407e-05	1.2862e-05	595.54	161.64	1.1642e-05	1.246e-05	238.13	94.119	60.307	23.798	1.1701e-05	41.867	160.887	27.491	0.101	-58.801	73.039	62.626	-59.097	-52.944	104.705	97.608	-54.399	-49.741	-48.618	-44.310	111.932	-46.272	-8191	255	
15236.381	1	1	0	0	0.34479	0.069928	0.13949	0.12623	0.25043	0.23673	0.097192	0.47179	0.2618	0.12996	0.26831	0.17582	0.25438	0.17541	0.16943	0.041642	-1.8771	-2.7542	-2.5417	-2.4542	-2.7687	-2.5146	-2.825	-2.6208	-2.1417	-2.8937	-2.4958	-2.4646	-2.8375	-2.4313	-2.5979	-2.7271	185.163	188.169	264.935	193.808	56.999	46.534	168.093	237.326	239.378	-13.723	-2.693	234.925	244.964	203.878	-70.985	101.744	0.00013023	0.00028096	8.595e-05	491.89	7.9576e-07	2.0921e-06	604.1	163.14	1.6624e-06	5.4876e-06	241.46	94.63	60.353	24.011	3.5594e-06	42.153	0.00074636	0.0010866	0.0003082	481.9	1.1357e-05	1.2906e-05	594.8	161.23	1.1528e-05	1.2554e-05	237.82	94.12	60.489	23.961	1.2003e-05	41.938	177.092	42.299	3.906	-58.854	25.272	102.752	-59.288	-53.141	83.675	105.376	-54.363	-49.919	-48.492	-44.519	42.501	-46.105	-8191	255	
15236.477	1	1	0	0	0.18514	0.20438	0.12594	0.1894	0.083975	0.2148	0.18572	0.16581	0.38094	0.21026	0.075299	0.25204	0.14618	0.10174	0.062874	0.16827	-1.8771	-2.6625	-2.5375	-2.5042	-2.7979	-2.3979	-2.7021	-2.8167	-2.2896	-2.7438	-2.7062	-2.4708	-2.6813	-2.5271	-2.6604	-2.6646	63.407	118.751	163.677	166.548	56.802	273.519	248.781	-1.045	93.411	106.124	184.858	-12.751	283.193	5.132	84.475	265.479	0.00012277	0.00024028	9.7125e-05	492.58	3.5461e-06	4.8375e-06	607.9	164.12	1.7665e-06	2.93e-06	241.52	93.902	60.623	23.996	3.4928e-06	42.408	0.0007517	0.0011001	0.00031675	481.12	1.0917e-05	1.2681e-05	594.08	161.27	1.1675e-05	1.2235e-05	237.71	94.116	60.509	23.948	1.2187e-05	42.073	175.505	54.474	77.341	-58.603	55.608	91.944	-59.332	-52.999	-30.695	126.991	-54.118	-50.077	-48.243	-44.890	78.825	-46.120	-8191	255	
15236.573	1	1	0	0	0.10345	0.31604	0.072308	0.14811	0.19618	0.12031	0.056618	0.029705	0.25332	0.08733	0.13428	0.41023	0.14169	0.1803	0.11506	0.20971	-1.7792	-2.6042	-2.6521	-2.4708	-2.825	-2.5938	-2.5417	-2.9083	-2.4167	-2.5833	-2.8771	-2.4271	-2.8812	-2.6771	-2.5229	-2.8208	-56.422	263.584	1.113	-38.412	-61.138	211.283	234.501	179.942	74.424	120.638	197.840	269.079	61.059	249.730	-67.215	62.528	8.5914e-05	0.00036378	0.0001362	489.77	3.0336e-06	5.0912e-06	605.38	163.1	9.8304e-07	5.0529e-06	242.36	94.813	60.582	24.004	4.3253e-06	42.314	0.00074476	0.0011532	0.00032135	480.04	1.1362e-05	1.2774e-05	593.98	161.21	1.1865e-05	1.2633e-05	237.82	94.389	60.582	23.948	1.2047e-05	42.083	164.360	42.717	-10.455	-59.039	106.669	81.788	-58.906	-52.779	5.481	54.473	-54.367	-49.565	-48.839	-44.572	43.191	-46.174	-8191	255	
15236.693	1	1	0	0	0.15569	0.19219	0.24191	0.29343	0.17408	0.066017	0.16221	0.071959	0.054696	0.033643	0.078394	0.10494	0.055515	0.14496	0.11647	0.10714	-1.9646	-2.6813	-2.7979	-2.3042	-2.7667	-2.5062	-2.4813	-2.85	-2.2	-2.5479	-2.7958	-2.3896	-2.7521	-2.6917	-2.4313	-2.9958	153.268	19.544	165.514	-30.022	-12.143	19.725	274.786	126.093	233.579	219.220	224.481	163.783	104.703	265.568	-29.373	261.730	0.00014458	0.00026366	9.0116e-05	492.47	1.2641e-06	4.3495e-06	601.5	164.06	1.0237e-06	4.484e-06	241.48	94.376	59.904	23.989	3.4671e-06	42.117	0.00073033	0.0011302	0.00031146	482	1.1338e-05	1.2667e-05	594.1	161.29	1.1195e-05	1.312e-05	237.1	93.806	60.056	23.813	1.2039e-05	41.749	166.070	15.345	9.409	-58.628	102.137	57.152	-59.113	-52.920	105.249	68.252	-54.167	-50.036	-48.479	-44.754	18.778	-46.258	-8191	255	
15236.788	1	1	0	0	0.084339	0.11303	0.17079	0.25241	0.275	0.1374	0.22538	0.090096	0.19713	0.11977	0.1499	0.156	0.32739	0.11435	0.24705	0.31639	-1.9688	-2.5667	-2.7833	-2.4271	-2.6896	-2.7417	-2.5854	-3.0167	-2.5771	-2.4979	-2.7854	-2.2292	-2.7083	-2.6792	-2.5021	-2.9771	34.761	179.992	-60.015	208.465	-8.513	178.885	242.637	-52.454	-45.268	121.174	-14.158	24.365	219.892	236.076	261.382	246.309	0.00013033	0.00050055	3.9394e-05	489.13	3.0638e-06	3.6976e-06	601.18	162.16	1.9985e-06	1.8782e-06	237.7	93.881	59.921	23.746	1.3745e-06	42.004	0.00074811	0.0011176	0.00032049	479.68	1.107e-05	1.2906e-05	590	160.05	1.1753e-05	1.2858e-05	234.6	93.548	59.961	23.728	1.2339e-05	41.642	172.764	-1.209	69.729	-58.619	34.318	104.125	-59.149	-53.005	27.781	95.221	-54.196	-49.580	-48.561	-44.343	128.141	-46.288	-8191	255	
15236.884	1	1	0	0	0.12273	0.043594	0.17688	0.057731	0.23692	0.16209	0.11936	0.043855	0.17844	0.060127	0.10963	0.21881	0.45393	0.2295	0.15094	0.1106	-2.2167	-2.5604	-2.9688	-2.4479	-2.6188	-2.7458	-2.3563	-2.8021	-2.675	-2.3104	-2.8229	-2.7854	-2.5021	-2.9688	-2.3083	-2.8937	277.611	46.046	62.167	105.908	239.776	282.575	268.294	251.920	129.800	264.630	120.506	288.532	280.731	284.666	124.335	80.923	0.00012035	0.00042625	6.9861e-05	487.21	2.4868e-06	4.7469e-06	597.32	162.09	1.8323e-06	2.6696e-06	237.65	93.973	59.677	23.709	1.8188e-06	41.791	0.0007543	0.001134	0.00032648	478.15	1.1443e-05	1.2947e-05	588.78	159.96	1.1857e-05	1.3194e-05	235.05	93.304	59.879	23.697	1.2348e-05	41.588	162.879	-10.280	31.817	-59.121	20.816	97.196	-59.222	-52.973	59.233	84.261	-54.308	-49.826	-48.298	-44.377	68.197	-46.143	-8191	255	
15236.980	1	1	0	0	0.26625	0.26007	0.19927	0.036957	0.23436	0.13335	0.4238	0.34428	0.07286	0.27109	0.15466	0.12562	0.20389	0.26362	0.2325	0.30719	-2.2979	-2.3875	-2.9521	-2.5438	-2.6896	-2.8875	-2.3771	-2.8729	-2.5083	-2.4917	-2.9896	-2.3292	-2.5542	-2.8083	-2.4479	-2.5979	-25.664	-50.305	96.499	-26.094	285.962	1.703	254.545	-52.085	171.708	89.474	287.705	122.738	176.960	-53.061	135.544	284.268	0.00010319	0.00043753	0.00011197	489.49	3.6321e-06	2.5006e-06	600.16	162.15	3.2505e-06	1.6155e-06	239.34	94.447	59.909	23.964	1.5559e-06	42.261	0.00073566	0.0011621	0.00031679	477.31	1.1776e-05	1.2942e-05	589.49	160.53	1.1968e-05	1.289e-05	236.24	94.054	60.073	23.879	1.2538e-05	41.935	169.585	-26.440	51.820	-58.647	52.602	84.298	-58.996	-53.017	128.852	78.518	-54.021	-49.687	-48.520	-44.865	-49.586	-45.957	-8191	255	
15237.054	1	1	0	0	0.26614	0.2365	0.021171	0.31141	0.10244	0.21796	0.15535	0.10448	0.13075	0.23668	0.066123	0.22913	0.056448	0.11341	0.14316	0.27439	-2.2062	-2.4792	-2.8354	-2.4125	-2.5958	-3.1042	-2.5062	-2.6083	-2.4958	-2.3854	-2.7562	-2.6396	-2.4833	-2.9146	-2.4062	-2.7146	-47.257	279.437	-35.592	234.797	-65.698	-66.162	281.634	134.258	77.865	81.454	187.226	253.781	140.971	62.803	35.873	1.011	0.0001365	0.00014532	9.084e-05	488.04	3.5942e-06	3.4414e-06	604.12	162.12	2.7571e-06	5.8285e-06	237.94	93.711	60.508	23.932	3.5942e-06	42.154	0.00074792	0.0012057	0.00032403	478.41	1.1724e-05	1.2912e-05	592.23	160.33	1.1958e-05	1.3138e-05	235.56	93.41	60.106	23.783	1.224e-05	41.641	174.630	65.775	12.224	-58.863	77.465	95.434	-59.537	-52.784	69.901	52.726	-54.385	-49.983	-48.439	-44.632	62.071	-46.363	-8191	255	
15237.172	1	1	0	0	0.17636	0.09408	0.071743	0.18319	0.17955	0.10724	0.16258	0.040049	0.28252	0.10433	0.15243	0.20407	0.10087	0.060216	0.24078	0.36344	-2.3396	-2.3271	-2.5687	-2.625	-2.4354	-2.7438	-2.5312	-2.6396	-2.8271	-2.5146	-2.8417	-2.8771	-2.4625	-2.9646	-2.3396	-2.6729	129.150	31.010	265.145	198.339	219.528	77.448	170.678	42.160	253.572	104.616	25.261	20.747	120.866	68.494	-46.531	182.765	0.00013061	0.00035753	0.00010743	489.33	8.6837e-07	4.2897e-06	602.15	162.03	1.1995e-06	4.6333e-06	237.93	93.196	59.631	23.789	1.7733e-06	41.957	0.0007465	0.0011767	0.00032229	477.42	1.165e-05	1.3006e-05	589.39	159.88	1.1899e-05	1.2955e-05	235.76	93.383	59.875	23.728	1.2149e-05	41.671	152.618	-30.205	22.086	-58.670	101.172	68.253	-59.361	-53.069	161.278	100.585	-54.080	-49.953	-48.560	-44.740	55.785	-46.185	-8191	255	
15237.269	1	1	0	0	0.23774	0.019388	0.091759	0.096208	0.12012	0.13958	0.15956	0.20099	0.10796	0.18914	0.050397	0.10871	0.28754	0.080513	0.17099	0.27411	-2.2687	-2.3208	-2.6458	-2.6958	-2.3563	-2.8229	-2.4979	-2.6167	-2.9417	-2.2458	-2.8479	-2.7479	-2.4479	-2.9104	-2.5	-2.5875	10.088	73.734	150.524	275.712	269.877	147.516	281.037	196.893	271.136	240.224	22.326	199.173	-38.406	53.840	279.857	258.282	9.9094e-05	0.00026535	0.00012754	487.34	3.205e-06	4.6923e-06	601.13	162.18	2.4229e-06	2.2867e-06	238.45	93.547	59.507	23.886	3.0576e-06	41.965	0.0007579	0.0011841	0.00032307	476.91	1.1469e-05	1.2689e-05	588.99	160.1	1.2286e-05	1.2728e-05	234.99	93.156	59.9	23.793	1.1976e-05	41.669	161.085	27.113	-8.304	-58.631	8.168	106.478	-59.203	-52.976	64.571	47.719	-54.177	-49.858	-48.602	-44.440	59.455	-46.085	-8191	255	
15237.365	1	1	0	0	0.15086	0.062822	0.23956	0.19077	0.12902	0.033863	0.0016085	0.18901	0.14946	0.34054	0.29162	0.2619	0.18406	0.10853	0.03723	0.10778	-2.5563	-2.4354	-2.6042	-2.7021	-2.4875	-2.8792	-2.7083	-2.4625	-2.9146	-2.425	-2.7729	-2.6896	-2.575	-2.9333	-2.575	-2.5563	123.880	-44.065	91.923	246.764	10.280	236.261	180.000	67.937	283.979	-31.917	235.431	259.846	261.076	281.105	-5.058	55.777	0.00011883	0.00023733	2.9752e-05	489.83	4.2986e-06	3.998e-06	598.53	162.02	2.1687e-06	2.9775e-06	239.34	93.945	59.9	24.034	2.4587e-06	42.056	0.00074293	0.0011545	0.00032856	478.51	1.151e-05	1.2846e-05	590.4	160.43	1.2097e-05	1.3162e-05	236.3	93.797	60.32	23.89	1.1994e-05	41.884	177.855	-1.052	-1.378	-58.965	91.329	100.509	-59.224	-52.498	117.338	56.396	-54.168	-49.878	-48.247	-44.803	-2.422	-46.015	-8191	255	
15237.485	1	1	0	0	0.13788	0.10536	0.15242	0.14006	0.054626	0.17329	0.12779	0.09462	0.19416	0.097124	0.13193	0.13871	0.077747	0.10542	0.24058	0.11586	-2.4313	-2.4938	-2.6208	-2.8292	-2.4833	-2.8417	-2.6542	-2.6979	-2.925	-2.4229	-2.675	-2.7104	-2.2917	-3.0563	-2.7104	-2.4104	-47.210	265.460	245.408	160.016	-12.097	-14.533	-62.739	196.360	123.770	245.173	156.996	271.555	-39.988	267.784	174.194	193.754	0.00013323	0.0003645	0.00016126	485.3	3.8049e-06	2.0634e-06	599.57	161.79	1.8446e-06	1.8774e-06	238.41	93.359	59.788	23.792	1.3789e-06	41.691	0.00076087	0.0011126	0.00031968	477.43	1.1692e-05	1.2505e-05	589.73	160.25	1.1687e-05	1.2462e-05	235.4	93.223	59.921	23.737	1.2093e-05	41.534	176.573	-2.856	35.488	-58.897	88.426	142.367	-59.076	-52.899	31.718	155.367	-54.323	-49.758	-48.850	-44.476	-55.917	-46.322	-8191	255	
15237.582	1	1	0	0	0.2323	0.23092	0.23593	0.23559	0.073049	0.1851	0.22902	0.093114	0.12059	0.11248	0.22515	0.12054	0.16038	0.066818	0.072916	0.14546	-2.4604	-2.6104	-2.4625	-2.7687	-2.3688	-2.8333	-2.7271	-2.4104	-2.8771	-2.4583	-2.5333	-2.8646	-2.4313	-2.8125	-2.8104	-2.4125	123.549	182.403	-61.210	223.307	10.865	25.115	191.974	34.234	24.359	176.485	-58.116	282.493	13.494	-66.503	108.037	56.954	9.7998e-05	0.00012691	4.4409e-05	485.64	3.5763e-06	1.854e-06	599.83	160.84	2.0906e-06	4.0723e-06	237.84	93.674	59.828	23.736	1.724e-06	41.69	0.00075969	0.0011465	0.00032255	476.35	1.1735e-05	1.2664e-05	589.32	160.1	1.165e-05	1.2972e-05	235.21	93.366	59.926	23.827	1.2107e-05	41.651	183.624	-24.591	-36.273	-58.954	106.937	65.867	-59.186	-52.949	96.728	113.317	-54.319	-49.811	-48.341	-44.544	19.499	-46.006	-8191	255	
15237.653	1	1	0	0	0.22505	0.2486	0.17943	0.043143	0.15572	0.1103	0.28411	0.28805	0.24191	0.1572	0.36679	0.13243	0.1851	0.082889	0.39924	0.36009	-2.5021	-2.5208	-2.4562	-3.0083	-2.3167	-2.4542	-2.6542	-2.1333	-2.8208	-2.6917	-2.7062	-2.8563	-2.5583	-2.7292	-2.7313	-2.4354	70.021	-63.192	79.442	207.886	49.779	76.074	126.325	254.620	43.719	65.729	239.564	-21.074	242.956	197.561	9.016	220.605	0.00010767	0.00035756	4.3798e-05	488.81	2.3283e-06	2.9928e-06	599.18	162.64	6.3349e-07	4.7371e-06	238.39	93.747	59.574	24.033	4.5292e-06	41.787	0.00074489	0.0011479	0.00032725	477.24	1.1336e-05	1.276e-05	588.94	160.22	1.1549e-05	1.2908e-05	235.12	93.458	59.967	23.904	1.2306e-05	41.754	160.510	17.289	-26.401	-59.186	90.946	83.701	-59.240	-52.785	265.402	79.736	-54.442	-49.756	-48.191	-44.392	70.640	-45.941	-8191	255	
15237.774	1	1	0	0	0.13958	0.25428	0.087409	0.37972	0.089289	0.22681	0.02521	0.29835	0.20719	0.055363	0.017874	0.039004	0.033432	0.087567	0.082189	0.24944	-2.3917	-2.6854	-2.45	-3.0292	-2.5687	-2.7917	-2.7833	-2.3083	-2.925	-2.6	-2.6396	-2.9854	-2.3146	-2.5479	-2.8667	-2.5417	267.935	104.122	62.898	-69.901	217.811	191.497	47.751	-52.566	278.834	71.851	27.487	78.573	223.043	71.983	285.545	-28.910	0.00013521	0.00035035	0.00010698	491.46	2.1781e-07	2.9432e-06	599.94	162.36	1.7676e-06	3.2656e-06	240.16	93.89	59.816	24.07	2.4248e-07	42.072	0.00075068	0.0011433	0.00032051	479.29	1.1723e-05	1.3037e-05	590.8	160.5	1.1655e-05	1.27e-05	236.52	94.005	60.173	23.987	1.1837e-05	41.916	174.791	3.703	-2.231	-58.688	130.761	104.549	-59.503	-52.996	109.204	27.703	-53.794	-49.831	-48.363	-44.596	54.157	-46.307	-8191	255	
15237.868	1	1	0	0	0.14353	0.18715	0.1994	0.10575	0.13314	0.18185	0.16343	0.086638	0.33855	0.16988	0.22928	0.22683	0.15284	0.18718	0.13018	0.11592	-2.2271	-2.6375	-2.375	-2.7	-2.5625	-2.5771	-3.0479	-2.4188	-2.6042	-2.7062	-2.5687	-2.6729	-2.7146	-2.4583	-2.8875	-2.5667	139.727	-40.078	126.101	113.828	169.435	251.312	154.471	-9.603	182.890	206.901	113.266	-42.634	-47.608	-30.168	175.876	258.997	0.0001175	0.00032245	8.4498e-05	486.77	3.2083e-06	1.4913e-06	600.83	162.71	1.1999e-06	3.6669e-06	238.3	92.689	59.604	23.712	3.3179e-06	41.628	0.00075508	0.001118	0.000326	477.79	1.1279e-05	1.2515e-05	590.06	160.28	1.1561e-05	1.2626e-05	235.18	93.065	59.754	23.707	1.2198e-05	41.507	175.695	3.258	37.820	-58.807	69.417	60.709	-58.955	-52.846	171.973	49.440	-54.262	-49.846	-48.185	-44.568	63.967	-46.154	-8191	255	
15237.966	1	1	0	0	0.23333	0.11569	0.039651	0.046424	0.15015	0.008978	0.17529	0.20518	0.15293	0.094417	0.16661	0.20575	0.1037	0.2791	0.19412	0.19647	-2.0667	-2.775	-2.2396	-2.9	-2.6625	-2.6208	-3.0083	-2.4708	-2.7167	-2.5875	-2.4667	-2.9625	-2.5083	-2.3646	-2.7917	-2.4125	64.739	-7.768	-30.330	255.753	154.725	88.376	215.334	221.258	239.212	-70.549	212.734	124.900	123.074	-28.574	185.438	155.164	9.1931e-05	0.00042522	0.00012084	488.84	3.4562e-06	2.5426e-06	599.24	161.69	4.3788e-06	4.3293e-06	236.93	93.211	59.366	23.84	6.6806e-07	41.834	0.00075594	0.0011284	0.00032193	477.81	1.1245e-05	1.2806e-05	588.3	159.87	1.1597e-05	1.2598e-05	234.47	92.95	59.596	23.735	1.2116e-05	41.492	157.776	53.630	-2.058	-58.983	99.980	76.428	-59.386	-53.001	38.821	69.701	-54.215	-49.886	-48.719	-43.989	94.919	-46.242	-8191	255	
15238.085	1	1	0	0	0.2663	0.24862	0.29385	0.36985	0.017308	0.18108	0.11345	0.09261	0.12666	0.11985	0.2045	0.094379	0.14753	0.14096	0.075107	0.40245	-2.2417	-2.7542	-2.4208	-2.7542	-2.7771	-2.2125	-2.9417	-2.6667	-2.3958	-2.675	-2.4021	-2.6229	-2.7792	-2.6021	-2.9729	-2.7208	-63.478	14.065	111.025	-56.716	56.472	164.956	113.493	17.229	83.675	53.773	105.737	252.875	226.916	157.234	205.172	234.761	0.0001452	0.00072571	0.00020164	488.29	1.4535e-06	2.4711e-06	599.34	162.35	1.6782e-06	2.4831e-06	236.77	93.173	59.805	23.89	3.769e-06	42.053	0.00075457	0.0011621	0.00033259	476.35	1.1504e-05	1.2922e-05	587.64	159.7	1.1985e-05	1.2874e-05	234.37	92.974	59.769	23.752	1.2029e-05	41.587	168.405	34.390	25.718	-58.747	43.758	77.282	-59.486	-52.869	96.963	101.450	-54.158	-49.895	-48.518	-44.660	105.839	-46.256	-8191	255	
15238.181	1	1	0	0	0.13783	0.11469	0.071646	0.15782	0.30448	0.23627	0.0041803	0.21102	0.12038	0.20861	0.11324	0.076991	0.1819	0.089194	0.078334	0.046597	-2.1688	-2.7438	-2.2792	-2.6708	-2.6979	-2.4146	-3.0687	-2.4208	-2.5667	-2.7479	-2.5104	-2.7729	-2.675	-2.3083	-2.8729	-2.8375	236.020	-52.531	108.812	213.553	256.135	-56.321	185.589	-18.841	-69.802	251.378	233.131	79.343	216.044	-40.503	214.026	67.858	9.3754e-05	0.00029223	6.496e-05	486.86	1.5738e-06	3.8184e-06	599.52	161.86	3.0177e-06	9.9139e-07	239.04	93.555	60.193	23.825	3.7442e-06	41.926	0.00074813	0.0011484	0.00032577	476.5	1.1642e-05	1.2885e-05	590.35	159.94	1.2021e-05	1.2969e-05	235.61	93.515	60.119	23.855	1.1956e-05	41.642	155.499	29.288	-33.512	-58.770	98.612	109.728	-59.155	-53.061	100.522	153.862	-54.013	-49.870	-48.609	-44.896	53.143	-45.989	-8191	255	
15238.253	1	1	0	0	0.1505	0.1124	0.25836	0.2272	0.066226	0.31419	0.16236	0.17909	0.052895	0.13612	0.21246	0.099034	0.17633	0.0064329	0.10852	0.079273	-1.9875	-2.8271	-2.4875	-2.7938	-2.7604	-2.3958	-3.0667	-2.5708	-2.2875	-3.0812	-2.4917	-2.7417	-2.8167	-2.4396	-2.7292	-2.7417	245.522	5.162	69.195	-60.758	149.870	143.783	-44.287	193.218	204.257	-19.976	252.724	-68.459	216.861	-10.679	200.091	271.755	0.00014208	0.00030249	5.0125e-05	486.59	1.965e-06	1.1636e-06	596.83	161.9	2.8911e-06	1.9482e-06	236.51	93.351	59.097	23.77	2.2398e-06	41.94	0.00076138	0.001163	0.00032095	476.12	1.1601e-05	1.2942e-05	587.01	159.23	1.1723e-05	1.2559e-05	233.76	92.911	59.526	23.659	1.2087e-05	41.453	163.530	5.824	31.522	-58.685	53.742	93.079	-59.168	-53.013	72.234	72.060	-53.840	-49.526	-48.475	-44.609	77.380	-46.213	-8191	255	
15238.373	1	1	0	0	0.13606	0.24215	0.20565	0.29046	0.30073	0.050292	0.10752	0.2176	0.15908	0.11276	0.12359	0.15252	0.0046402	0.13655	0.094009	0.28339	-2.2104	-2.9771	-2.4729	-2.6937	-3.025	-2.3771	-2.7604	-2.7333	-2.4104	-2.7271	-2.6104	-2.7	-2.75	-2.3875	-2.7271	-2.7708	5.758	154.172	38.645	266.540	126.564	261.129	213.275	140.463	248.676	19.846	71.598	-34.967	91.693	235.575	60.671	165.588	0.0001107	0.0003112	3.9594e-05	484.01	1.974e-06	3.5912e-06	601.09	161.63	3.4514e-06	4.8893e-06	237.53	93.033	59.477	23.738	9.8551e-07	41.795	0.00076224	0.0011371	0.00031749	474.75	1.1302e-05	1.3059e-05	587.49	159.46	1.1718e-05	1.2829e-05	234.72	92.959	59.523	23.682	1.2121e-05	41.426	168.827	21.922	28.120	-58.657	17.826	127.263	-59.131	-52.763	83.031	76.811	-54.118	-49.900	-48.606	-44.521	193.468	-46.234	-8191	255	
15238.470	1	1	0	0	0.26841	0.090686	0.15714	0.35314	0.36806	0.21998	0.11055	0.32242	0.22838	0.18631	0.18271	0.11528	0.25405	0.17193	0.31081	0.24629	-1.8792	-2.675	-2.425	-2.4042	-2.7292	-2.4042	-2.6937	-2.5646	-2.4292	-2.7562	-2.4917	-2.4896	-2.9083	-2.4417	-2.7687	-2.95	67.575	180.805	154.201	289.492	33.436	5.549	271.678	249.053	183.033	51.859	-3.637	257.168	132.773	61.443	28.476	237.595	0.0001003	0.00040419	5.9991e-05	486.97	2.0136e-06	2.476e-06	593.34	162.11	7.2142e-07	2.0047e-06	237.51	93.297	58.995	23.724	1.3794e-06	41.767	0.00074076	0.0011425	0.00031489	474.81	1.1511e-05	1.2964e-05	585.62	159.48	1.2184e-05	1.2489e-05	234.27	93.133	59.677	23.69	1.1997e-05	41.564	161.367	28.621	-8.682	-59.058	-11.713	19.730	-59.223	-52.479	34.651	76.931	-53.853	-49.776	-48.443	-44.768	-3.944	-46.300	-8191	255	
15238.566	1	1	0	0	0.032136	0.094869	0.036779	0.16404	0.18167	0.1536	0.23314	0.25271	0.12146	0.19411	0.10806	0.23008	0.078849	0.23962	0.24062	0.12473	-1.9521	-2.8312	-2.4771	-2.4979	-2.9688	-2.575	-2.4875	-2.9646	-2.4062	-2.6854	-2.5958	-2.4583	-2.8375	-2.55	-2.6188	-2.7979	-24.471	-44.562	206.250	-55.059	78.495	-29.687	-13.941	234.502	-22.062	4.014	164.845	199.893	59.397	197.225	288.279	82.342	0.00010011	0.00031702	0.00011143	489.48	1.7355e-06	3.3448e-06	602.3	161.92	4.6931e-07	3.077e-06	239.26	94.438	60.128	23.955	4.9212e-06	42.228	0.00076165	0.0011293	0.00031854	478.32	1.1288e-05	1.297e-05	589.59	160.08	1.1916e-05	1.2751e-05	236.3	94.25	60.323	23.914	1.2004e-05	41.928	169.307	9.529	42.454	-58.505	98.929	86.000	-59.354	-53.090	-1.180	56.896	-54.246	-49.665	-48.608	-44.766	78.696	-45.660	-8191	255	
15238.662	1	1	0	0	0.19949	0.054904	0.13581	0.14384	0.20765	0.14836	0.19347	0.11854	0.32347	0.13872	0.14136	0.16376	0.13139	0.29387	0.20206	0.07595	-2.0021	-2.7021	-2.6562	-2.2646	-2.7313	-2.4917	-2.4292	-2.9604	-2.2667	-2.7792	-2.5708	-2.4958	-2.7229	-2.5187	-2.4792	-2.9458	200.387	106.476	-7.900	279.387	200.065	233.485	249.658	240.633	167.518	221.894	73.089	188.278	-68.206	201.901	51.586	143.542	0.00012929	0.00019735	4.2531e-05	486.42	3.315e-06	4.7749e-06	605.49	162.73	8.8226e-07	4.0396e-06	239.75	93.801	59.32	23.79	2.3382e-06	41.817	0.00074041	0.0011248	0.00030959	478.13	1.1227e-05	1.3007e-05	592.15	160.41	1.1817e-05	1.2413e-05	236.05	93.756	59.789	23.787	1.2366e-05	41.628	171.082	16.316	0.460	-59.167	62.857	31.615	-59.226	-53.423	268.723	94.712	-54.342	-49.972	-48.578	-44.476	99.968	-46.097	-8191	255	
15238.758	1	1	0	0	0.15335	0.11584	0.20943	0.091517	0.091733	0.063576	0.031731	0.10974	0.086398	0.11734	0.27853	0.038303	0.14546	0.13923	0.21266	0.058202	-1.8687	-2.6167	-2.7542	-2.3542	-2.6063	-2.5333	-2.5396	-2.8125	-2.5312	-2.5	-2.9458	-2.4771	-2.7792	-2.6354	-2.3333	-2.9021	282.098	-26.220	-2.450	183.724	187.647	192.587	201.013	205.669	10.224	121.106	73.115	-64.983	147.566	123.057	144.238	-5.498	0.0001089	0.00039465	0.00010757	490.38	8.2137e-07	4.3051e-06	605.42	162.88	1.5209e-06	4.8576e-06	238.56	94.102	60.04	23.891	3.334e-06	42.025	0.00075352	0.0011078	0.00031813	479.17	1.1228e-05	1.2477e-05	591.84	160.9	1.165e-05	1.275e-05	236.12	93.944	60.15	23.865	1.2013e-05	41.712	152.755	32.484	-33.069	-58.840	64.526	87.577	-59.227	-52.735	75.245	60.123	-54.248	-49.654	-48.410	-44.654	109.540	-46.200	-8191	255	
15238.877	1	1	0	0	0.52497	0.24291	0.12331	0.18416	0.14798	0.031113	0.29838	0.12475	0.47037	0.095022	0.1564	0.29591	0.23734	0.35083	0.079935	0.30427	-1.9333	-2.5875	-2.6771	-2.2333	-2.7771	-2.7062	-2.4083	-2.9333	-2.4375	-2.3333	-2.9167	-2.3958	-2.5583	-2.6417	-2.2938	-2.6083	154.153	216.983	77.031	162.123	287.661	202.897	215.482	-2.109	15.943	-54.771	-69.788	-43.027	-62.702	156.586	267.923	209.349	0.00011358	0.00048964	9.1581e-05	489.84	2.7371e-06	4.1021e-06	602.9	163.32	3.4683e-06	3.6415e-06	238.96	93.97	60.324	23.939	1.1883e-06	42.241	0.00072148	0.0011648	0.0003218	478.67	1.1131e-05	1.2576e-05	591.46	160.6	1.1441e-05	1.2642e-05	236.32	94.172	60.421	23.89	1.2104e-05	41.898	169.694	-1.057	-24.104	-58.744	52.478	93.607	-59.086	-52.916	100.334	76.076	-54.299	-49.557	-48.784	-44.654	146.438	-46.072	-8191	255	
15238.949	1	1	0	0	0.26879	0.31142	0.15123	0.1161	0.075762	0.099843	0.12694	0.15505	0.23146	0.082154	0.15497	0.096677	0.16473	0.31871	0.15749	0.13201	-2.1688	-2.2646	-2.6437	-2.3979	-2.6542	-2.8729	-2.2125	-2.8375	-2.7146	-2.475	-2.8875	-2.5687	-2.7646	-2.7396	-2.2104	-2.7667	184.501	51.361	182.968	82.928	225.899	116.887	-22.232	-65.447	93.600	145.698	-38.299	99.073	253.466	-46.614	245.547	217.029	0.00010736	0.00055401	9.0241e-05	491.82	2.6518e-06	5.0547e-06	605.36	163.53	1.4232e-06	3.4121e-06	240.05	94.207	60.205	23.869	2.3247e-06	42.303	0.00073507	0.0011614	0.00031597	480.72	1.1489e-05	1.2729e-05	594.68	161.31	1.165e-05	1.2724e-05	237.66	94.307	60.469	23.862	1.2407e-05	41.908	166.120	28.824	29.861	-58.930	116.970	124.934	-59.267	-52.979	61.189	103.656	-54.255	-50.105	-48.759	-44.356	37.686	-46.258	-8191	255	
15239.047	1	1	0	0	0.094672	0.040032	0.21449	0.24777	0.23257	0.042388	0.069476	0.20941	0.13707	0.15633	0.081662	0.35911	0.20572	0.23344	0.18178	0.18336	-2.175	-2.3187	-2.8667	-2.3812	-2.5271	-2.9021	-2.3708	-2.7354	-2.7146	-2.4667	-2.9562	-2.3604	-2.5021	-2.6937	-2.2854	-2.8958	56.948	202.450	233.523	253.778	-69.766	-19.050	139.205	173.661	170.949	97.730	223.553	229.867	197.862	154.715	18.436	230.076	0.00010154	0.00059063	0.00013618	490.28	2.2225e-06	2.0015e-06	601.11	161.74	1.8194e-06	1.1764e-06	238.09	93.371	60.15	23.754	2.3822e-06	41.916	0.00075395	0.0011922	0.00031501	478.23	1.1561e-05	1.2499e-05	589.56	160.05	1.1575e-05	1.266e-05	235.47	93.475	59.991	23.735	1.1932e-05	41.671	151.017	12.558	24.015	-58.801	56.936	-6.148	-59.188	-52.573	64.106	78.228	-53.930	-49.740	-48.372	-44.873	42.062	-46.075	-8191	255	
15239.165	1	1	0	0	0.11287	0.037273	0.062216	0.1657	0.14045	0.11286	0.43937	0.049974	0.12524	0.24749	0.10619	0.19136	0.095144	0.21144	0.18811	0.27081	-2.1729	-2.3979	-2.6937	-2.4625	-2.5438	-2.9562	-2.3375	-2.5938	-2.8063	-2.4979	-2.7396	-2.6854	-2.4313	-2.9729	-2.4562	-2.7875	288.159	-47.984	-58.043	-51.989	237.513	156.041	218.749	282.604	191.265	265.422	159.149	224.396	231.995	10.180	251.786	236.047	0.00015371	0.00045279	0.0001445	488.61	8.8524e-07	3.4282e-06	603.22	162.13	6.0794e-07	5.7118e-06	240.55	93.81	60.138	23.947	1.3203e-06	42.044	0.00075232	0.0011567	0.00032425	478.54	1.1471e-05	1.2994e-05	591.18	160.33	1.1493e-05	1.2833e-05	235.95	93.7	60.238	23.813	1.1994e-05	41.814	172.843	17.005	24.873	-58.913	106.201	83.389	-59.204	-52.949	108.988	82.450	-54.324	-50.060	-48.569	-44.437	53.166	-46.169	-8191	255	
15239.262	1	1	0	0	0.15172	0.23638	0.1233	0.17519	0.2364	0.051195	0.098036	0.12537	0.21105	0.079193	0.13015	0.17014	0.13133	0.14905	0.23738	0.17907	-2.3667	-2.2458	-2.7375	-2.5646	-2.5125	-2.8063	-2.5625	-2.6021	-2.7458	-2.1958	-2.8688	-2.5917	-2.5021	-2.9896	-2.2896	-2.4792	140.583	-27.228	177.490	258.966	103.637	51.635	254.697	39.484	213.183	200.028	-20.349	-56.700	-25.223	282.050	221.374	24.438	0.00010583	0.00025806	9.4771e-05	488.59	3.8726e-06	6.3117e-06	600.4	161.86	1.9555e-06	4.4615e-06	240.12	94.206	60.206	23.992	5.9468e-07	42.01	0.00073178	0.0011541	0.00032353	477.51	1.1681e-05	1.26e-05	589.39	160.31	1.1743e-05	1.3159e-05	236.37	93.875	60.174	23.82	1.1668e-05	41.841	179.540	71.802	51.336	-59.112	88.304	69.913	-59.193	-52.625	61.799	86.637	-54.131	-49.948	-48.434	-44.488	209.560	-46.020	-8191	255	
15239.358	1	1	0	0	0.31073	0.27915	0.15806	0.10391	0.1444	0.22282	0.30042	0.189	0.14613	0.082954	0.030674	0.1733	0.45038	0.010023	0.20298	0.23367	-2.3563	-2.3187	-2.6146	-2.8354	-2.4521	-2.8792	-2.5042	-2.5771	-2.7667	-2.3979	-2.9688	-2.6063	-2.5375	-3.05	-2.5187	-2.525	211.172	91.278	249.050	287.612	234.120	84.835	176.359	39.010	77.869	245.353	235.094	222.818	121.015	163.787	157.326	-24.827	0.00011356	0.00028801	0.00013383	490.78	4.6326e-06	4.0692e-06	603.63	162.01	1.5062e-06	2.1122e-06	239.48	94.834	60.324	23.902	4.0837e-06	42.239	0.0007413	0.0011578	0.00031192	480.1	1.1657e-05	1.2692e-05	593.64	161.04	1.1876e-05	1.276e-05	237.07	94.485	60.453	23.916	1.1886e-05	41.917	167.633	-12.926	17.029	-58.987	98.696	56.136	-58.744	-53.055	64.379	91.069	-54.323	-49.947	-48.491	-44.722	91.179	-46.282	-8191	255	
15239.454	1	1	0	0	0.069233	0.06046	0.099641	0.11336	0.29384	0.17465	0.23372	0.099357	0.21221	0.10463	0.088073	0.064456	0.12336	0.13436	0.05437	0.093904	-2.3833	-2.2958	-2.5979	-2.7542	-2.2833	-2.6667	-2.5875	-2.6188	-2.7458	-2.5542	-2.7687	-2.8229	-2.475	-2.8812	-2.5625	-2.4188	208.974	-46.018	269.527	262.763	14.112	285.084	211.990	150.234	49.555	167.342	60.818	251.942	19.609	8.580	136.762	167.400	0.00011367	0.00037634	0.00010505	488.21	2.1819e-06	2.3996e-06	599.07	162.74	1.322e-06	2.1998e-06	238.76	94.346	60.482	23.873	1.5731e-06	42.053	0.00073666	0.0011367	0.00031394	476.8	1.1589e-05	1.2399e-05	589.1	160.42	1.1583e-05	1.2831e-05	236.34	94.001	60.449	23.765	1.1678e-05	41.828	171.082	7.581	39.999	-58.771	85.766	113.015	-58.859	-53.001	44.941	84.990	-54.462	-49.803	-48.402	-44.181	38.715	-46.233	-8191	255	
15239.550	1	1	0	0	0.16518	0.14991	0.13669	0.2275	0.11536	0.18991	0.075117	0.1909	0.012776	0.13356	0.087523	0.20475	0.18626	0.09786	0.078603	0.39292	-2.475	-2.4292	-2.6083	-2.8583	-2.4437	-2.6708	-2.6625	-2.4604	-2.9938	-2.6583	-2.6646	-2.8854	-2.3604	-2.7562	-2.7542	-2.5396	145.662	23.032	-21.101	178.180	35.205	-4.203	86.619	-32.397	140.579	-15.315	86.404	241.055	237.692	253.656	2.613	189.792	0.00012886	0.00046593	0.00011981	490.25	2.3802e-06	2.2271e-06	600.98	162.82	2.3804e-06	4.2383e-06	240.18	94.286	60.196	23.931	2.5403e-06	42.11	0.00074213	0.0011005	0.00030992	479.67	1.159e-05	1.2541e-05	590.69	161.37	1.1819e-05	1.2571e-05	236.78	94.085	60.337	23.858	1.1853e-05	41.794	170.393	-7.247	44.700	-58.660	55.062	82.123	-59.203	-53.120	88.256	81.992	-54.353	-49.706	-48.583	-44.832	100.453	-46.089	-8191	255	
15239.646	1	1	0	0	0.31111	0.16615	0.086362	0.14829	0.076178	0.080917	0.045754	0.31084	0.10088	0.30794	0.19534	0.19976	0.37227	0.14272	0.16946	0.30623	-2.4333	-2.3021	-2.5104	-2.7375	-2.5083	-2.9354	-2.8021	-2.55	-2.7375	-2.6125	-2.3896	-2.8083	-2.3625	-2.6417	-2.4896	-2.5958	-22.782	162.056	103.159	278.904	126.275	125.636	31.551	251.957	-29.019	143.429	212.210	251.075	258.848	53.579	-66.679	250.976	0.00014053	0.00022019	2.728e-05	490.39	5.1591e-06	3.4009e-06	599.82	163.08	1.9698e-06	2.145e-06	237.76	93.357	60.151	23.818	2.7882e-06	41.953	0.00075419	0.0011227	0.00031718	478.96	1.1601e-05	1.258e-05	589.01	160.27	1.1488e-05	1.2743e-05	235.05	93.581	60.169	23.759	1.2142e-05	41.594	166.745	4.175	21.129	-58.677	54.938	105.628	-59.063	-52.782	42.466	99.542	-54.347	-49.911	-48.516	-44.577	64.857	-46.163	-8191	255	
15239.767	1	1	0	0	0.18446	0.30544	0.18068	0.1772	0.073696	0.11614	0.19488	0.25385	0.28881	0.26878	0.17331	0.25077	0.24562	0.1226	0.058143	0.086894	-2.4125	-2.3604	-2.5625	-2.8292	-2.5479	-2.4354	-2.8708	-2.3583	-2.5792	-2.6813	-2.4813	-2.9792	-2.3708	-2.7875	-2.7396	-2.4146	-25.925	221.987	46.827	237.525	261.156	75.224	212.112	167.355	-25.041	69.913	162.737	223.620	57.496	188.825	71.333	-46.861	0.00010876	0.00032103	5.4967e-05	488.12	2.3604e-06	5.4757e-06	599.51	162.12	1.5649e-06	3.2886e-06	239.08	93.671	59.534	23.88	1.5084e-06	41.516	0.0007388	0.0011121	0.00032589	477.01	1.1432e-05	1.2691e-05	589.9	159.8	1.157e-05	1.2685e-05	235.68	93.343	59.779	23.695	1.209e-05	41.436	163.261	-3.491	265.002	-58.931	69.162	116.096	-59.080	-52.617	32.141	69.326	-53.962	-49.707	-48.360	-44.731	53.037	-46.316	-8191	255	
15239.863	1	1	0	0	0.012738	0.3186	0.10997	0.44194	0.17036	0.13108	0.19285	0.054706	0.23469	0.29762	0.036903	0.32121	0.29474	0.0673	0.24463	0.11118	-2.2167	-2.6208	-2.2583	-2.7062	-2.5042	-2.5917	-2.6979	-2.475	-2.8771	-2.5312	-2.3708	-2.8083	-2.5187	-2.6208	-2.6833	-2.4708	145.666	217.063	31.642	-39.688	55.257	102.283	187.351	89.854	217.148	-1.502	219.866	-59.926	-0.758	281.124	36.775	151.704	0.0001365	0.00044682	3.438e-05	485.94	1.5215e-06	5.0667e-06	594	160.64	1.1398e-06	2.2252e-06	237.1	92.802	59.343	23.574	3.1247e-06	41.15	0.00075556	0.0011483	0.00031711	475.76	1.1131e-05	1.2689e-05	585.16	159.07	1.1569e-05	1.257e-05	233.69	92.457	59.401	23.432	1.1956e-05	41.041	166.837	26.659	32.176	-59.115	103.436	69.867	-59.023	-52.547	173.165	45.876	-54.085	-49.682	-48.402	-44.642	101.506	-46.278	-8191	255	
15239.957	1	1	0	0	0.052649	0.056152	0.12264	0.056723	0.21071	0.065459	0.15325	0.20436	0.11423	0.17034	0.093981	0.2738	0.22819	0.098341	0.25041	0.31078	-2.225	-2.6146	-2.2562	-2.8937	-2.5292	-2.4667	-2.8042	-2.3438	-2.8312	-2.7812	-2.5667	-2.75	-2.3875	-2.2729	-2.9188	-2.4688	-59.053	215.727	-3.757	246.353	-43.752	-15.411	219.070	228.651	249.317	163.931	288.197	41.549	87.551	-56.602	16.090	267.319	0.00010658	0.00025335	4.5752e-05	483.53	2.4663e-06	4.2113e-06	596.17	160.92	3.5802e-07	3.0596e-06	234.76	92.442	58.761	23.369	1.9748e-06	41.215	0.000734	0.0011126	0.00031597	474.46	1.1077e-05	1.2645e-05	583.62	158.62	1.1474e-05	1.2585e-05	232.42	92.189	59.076	23.36	1.1844e-05	41.011	174.594	28.216	80.210	-58.883	95.211	111.846	-58.871	-52.972	273.063	77.759	-54.591	-49.707	-47.918	-44.672	85.538	-45.908	-8191	255	
15240.053	1	1	0	0	0.14286	0.095984	0.050862	0.29244	0.28603	0.070662	0.12392	0.21472	0.082009	0.13117	0.11894	0.31465	0.19153	0.19055	0.20364	0.20545	-2.1229	-2.6063	-2.2958	-2.6396	-2.4729	-2.6083	-3.0604	-2.4771	-2.5771	-2.775	-2.4104	-2.6875	-2.6854	-2.4396	-2.9208	-2.4104	22.030	288.711	276.335	204.673	173.432	60.008	41.876	220.980	254.889	112.763	172.485	-36.212	-1.292	107.656	222.796	221.644	0.0001272	0.00013776	5.9637e-05	481	2.7136e-06	4.6234e-06	593.21	159.32	2.9254e-06	4.1861e-06	233.87	92.372	58.951	23.448	7.6045e-07	41.353	0.00073588	0.0010922	0.00030997	472.1	1.0804e-05	1.287e-05	582.68	158.08	1.1328e-05	1.2403e-05	231.35	91.889	58.879	23.266	1.1604e-05	40.871	169.357	58.827	121.700	-58.497	77.661	88.412	-58.810	-52.780	74.586	37.380	-53.969	-49.840	-48.632	-44.721	-36.270	-46.073	-8191	255	
15240.174	1	1	0	0	0.23375	0.24718	0.075872	0.39162	0.079364	0.13277	0.23544	0.28675	0.14115	0.078098	0.1699	0.26266	0.11378	0.27994	0.22723	0.086871	-2.1729	-2.7	-2.4042	-2.8729	-2.7229	-2.4771	-2.7771	-2.6729	-2.6729	-2.8521	-2.1958	-2.8688	-2.7667	-2.2292	-2.7333	-2.7667	-47.225	-47.893	47.492	244.722	98.634	216.599	8.580	210.638	33.756	226.100	269.013	188.166	132.940	275.488	173.315	95.506	0.00011852	0.0003641	0.00010011	485.62	3.0943e-06	4.3804e-06	594.37	159.36	2.7227e-06	6.5175e-07	233.89	92.034	58.897	23.208	4.0326e-06	40.98	0.00073365	0.0010934	0.00031395	473.03	1.1024e-05	1.2576e-05	583.4	157.87	1.1483e-05	1.2284e-05	231.3	92.083	58.993	23.208	1.1527e-05	40.75	173.425	-3.563	32.167	-58.565	53.894	100.154	-58.977	-52.731	125.529	29.891	-54.238	-49.723	-48.664	-44.555	70.509	-46.107	-8191	255	
15240.246	1	1	0	0	0.11864	0.12829	0.10316	0.096617	0.18337	0.31081	0.25952	0.077445	0.13387	0.15765	0.24013	0.39057	0.24159	0.1092	0.080478	0.25633	-2.0229	-2.7146	-2.1937	-2.7542	-2.7292	-2.3917	-2.7667	-2.5563	-2.525	-2.6667	-2.4667	-2.7188	-2.6708	-2.4104	-2.7708	-2.6333	152.847	192.161	-13.577	278.976	-50.122	-8.823	224.001	171.383	-45.871	68.710	118.704	-45.996	261.500	268.524	6.177	-41.314	0.00013915	0.00050478	0.00011416	481	1.0431e-06	3.5449e-06	593.7	158.31	3.0393e-06	4.5509e-06	234.08	90.887	57.957	23.155	3.306e-06	40.63	0.0007184	0.0011016	0.00030796	471.3	1.1048e-05	1.2467e-05	581.43	156.69	1.1424e-05	1.2349e-05	230.38	90.917	58.426	23.067	1.1706e-05	40.338	165.893	41.998	27.661	-58.984	138.429	81.388	-59.156	-52.965	139.133	98.869	-54.647	-49.681	-48.489	-44.507	70.872	-45.966	-8191	255	
15240.342	1	1	0	0	0.15026	0.081439	0.092042	0.13398	0.24997	0.11429	0.1085	0.051046	0.27918	0.13436	0.18711	0.2075	0.16944	0.25259	0.12301	0.2182	-2.0687	-2.8042	-2.4521	-2.6396	-2.7521	-2.2188	-2.8438	-2.5479	-2.4417	-2.9125	-2.3792	-2.7208	-2.95	-2.4479	-2.7708	-2.7333	146.364	137.275	-5.900	-69.106	217.889	-28.550	-2.327	169.200	255.663	91.035	169.445	150.268	-49.288	26.660	155.002	-48.287	0.0001114	0.00042446	0.00016184	479.24	2.3466e-06	2.5625e-06	588.3	157.53	1.8065e-06	3.1309e-06	232.19	91.518	58.319	23.029	1.0843e-06	40.843	0.00072778	0.0011013	0.00030528	470.07	1.1084e-05	1.2466e-05	577.57	156.33	1.1513e-05	1.2361e-05	229.62	91.023	58.472	22.95	1.1461e-05	40.356	166.570	8.943	39.032	-58.963	40.827	73.195	-59.260	-53.133	45.507	46.519	-54.176	-49.743	-48.528	-44.856	100.152	-46.391	-8191	255	
15240.438	1	1	0	0	0.029322	0.22754	0.13437	0.11782	0.11481	0.034985	0.22235	0.081474	0.15897	0.18465	0.16648	0.16272	0.13228	0.21245	0.20729	0.26593	-1.9438	-2.7208	-2.4417	-2.5521	-2.8146	-2.2396	-2.8833	-2.8438	-2.5625	-2.7375	-2.6	-2.5208	-2.6458	-2.3896	-2.8375	-2.6854	155.615	22.222	208.037	250.253	175.752	-36.918	200.166	-29.947	188.444	-65.752	215.215	264.192	175.573	153.564	172.923	186.568	0.00012829	0.00059246	0.0001128	480.95	1.3664e-06	1.8078e-06	588.82	159.13	9.0269e-07	3.6235e-06	232.72	91.243	58.253	22.972	3.7186e-06	40.428	0.00072228	0.0011114	0.00030886	470.06	1.0934e-05	1.2854e-05	578.2	156.84	1.1631e-05	1.2741e-05	229.48	91.163	58.402	22.953	1.185e-05	40.341	174.079	35.308	34.518	-59.136	139.811	57.290	-59.226	-52.912	140.581	83.459	-54.076	-50.226	-48.369	-44.211	54.054	-45.996	-8191	255	
15240.559	1	1	0	0	0.12662	0.04594	0.14977	0.086416	0.22355	0.050094	0.058275	0.12231	0.22476	0.24422	0.21342	0.094289	0.23113	0.0098556	0.061143	0.18117	-1.9333	-2.5646	-2.5083	-2.4979	-2.8479	-2.2729	-2.6854	-2.6937	-2.3354	-2.9167	-2.8667	-2.2604	-2.7625	-2.4521	-2.6917	-2.9313	-0.413	182.997	184.942	282.562	42.596	163.588	-47.850	-45.745	116.086	-37.882	271.288	237.996	180.674	55.665	49.800	-1.066	9.4213e-05	0.0004047	9.6892e-05	477.63	1.6226e-06	1.9001e-06	587.84	158.46	9.8004e-08	1.9231e-06	232.94	91.235	57.87	23.118	2.4929e-06	40.459	0.0007358	0.0010997	0.00030791	468.11	1.1264e-05	1.2748e-05	577.42	157.06	1.1673e-05	1.2153e-05	230.02	91.039	58.223	22.988	1.1728e-05	40.226	176.726	-21.957	113.088	-58.896	37.469	96.579	-59.065	-52.942	69.874	77.015	-54.515	-50.034	-48.276	-44.525	8.173	-46.434	-8191	255	
15240.655	1	1	0	0	0.20346	0.1237	0.077054	0.25785	0.17097	0.043883	0.13445	0.19239	0.094543	0.096991	0.30841	0.11221	0.26512	0.17143	0.09889	0.19851	-1.8625	-2.7271	-2.4958	-2.4125	-2.8521	-2.4688	-2.5917	-2.8521	-2.3688	-2.8	-2.6854	-2.5938	-2.9313	-2.6292	-2.5917	-2.9167	-54.180	129.353	208.538	247.371	177.263	12.074	255.968	239.408	227.057	143.522	-27.621	274.918	113.571	107.088	259.752	283.428	0.00012338	0.00019641	0.00013042	479.62	1.1601e-06	2.9445e-06	589.48	158.19	1.5494e-06	7.1114e-07	232.45	91.203	58.192	23.035	1.2188e-06	40.636	0.00073706	0.0011238	0.0003096	468.72	1.1297e-05	1.2484e-05	576.81	156.28	1.1877e-05	1.2297e-05	228.95	90.867	58.372	22.946	1.1929e-05	40.24	166.101	52.507	2.886	-58.854	88.194	55.246	-59.229	-52.648	80.305	33.724	-54.737	-49.711	-48.019	-44.582	171.495	-46.134	-8191	255	
15240.749	1	1	0	0	0.19609	0.23656	0.17662	0.16781	0.30511	0.035466	0.046359	0.11884	0.23375	0.090672	0.099774	0.16137	0.17633	0.040108	0.10478	0.153	-1.7604	-2.4167	-2.6375	-2.3896	-2.8208	-2.5083	-2.4	-2.9354	-2.2729	-2.5521	-2.6896	-2.4083	-2.8146	-2.6208	-2.6125	-2.8125	151.892	148.493	182.215	215.565	81.312	196.829	136.966	218.923	34.806	75.055	-18.645	225.048	33.879	13.929	243.620	-63.477	0.00012636	0.00050921	0.00012441	479.94	2.5564e-06	4.5305e-06	587.97	158.59	2.6134e-06	3.1644e-06	229.64	90.559	58.384	23.02	2.5673e-06	40.384	0.00074556	0.0010979	0.00032241	469.81	1.1261e-05	1.2216e-05	575.45	156.6	1.1354e-05	1.2515e-05	227.87	90.477	58.265	22.951	1.216e-05	40.175	160.936	24.973	24.088	-58.822	79.336	136.674	-59.083	-52.789	45.479	83.242	-54.347	-49.686	-48.687	-44.805	154.426	-46.328	-8191	255	
15240.847	1	1	0	0	0.11272	0.14058	0.13343	0.15644	0.19317	0.31488	0.18762	0.077947	0.28396	0.036949	0.15458	0.046435	0.31032	0.31294	0.098059	0.22798	-2.0604	-2.4729	-2.8417	-2.4896	-2.6688	-2.4729	-2.2771	-2.8896	-2.4333	-2.6333	-2.9813	-2.3292	-2.6688	-2.5896	-2.3187	-2.9313	117.971	-7.585	82.843	225.210	224.197	-19.357	0.534	246.557	181.045	175.837	-23.539	84.444	135.288	-31.641	48.992	272.617	0.00010745	0.00014268	0.0001103	477.84	1.5366e-06	3.6933e-06	583	158.7	9.9282e-07	3.6004e-06	231.72	91.301	58.499	23.017	2.8925e-06	40.994	0.00074907	0.001121	0.00031637	468.41	1.1282e-05	1.2818e-05	576.59	156.29	1.1618e-05	1.2482e-05	229.1	90.902	58.452	23.117	1.2193e-05	40.711	170.024	29.241	27.905	-58.786	76.535	61.192	-59.193	-52.903	81.767	69.659	-54.587	-49.904	-48.390	-44.537	104.372	-46.384	-8191	255	
15240.942	1	1	0	0	0.19798	0.44446	0.086752	0.13289	0.21791	0.23651	0.040391	0.29243	0.083029	0.17333	0.26195	0.27529	0.13621	0.064649	0.09822	0.21983	-1.8458	-2.4917	-2.7875	-2.2188	-2.6896	-2.7354	-2.3708	-2.8917	-2.5083	-2.5625	-2.7354	-2.5125	-2.75	-2.6625	-2.3812	-3.0312	67.187	130.636	61.029	-7.711	272.134	270.680	124.489	252.818	256.391	136.168	-48.841	-55.502	-40.652	42.553	206.558	208.752	0.00012452	0.00023872	0.00010411	481.15	1.8758e-06	3.6191e-06	594.05	158.25	9.7798e-07	3.7875e-06	234.12	91.548	58.66	23.29	2.1418e-06	40.959	0.0007403	0.001155	0.00031778	471.25	1.1156e-05	1.2871e-05	581.14	157	1.1769e-05	1.313e-05	230.6	91.121	58.702	23.167	1.222e-05	40.554	160.300	-15.056	-0.602	-58.791	63.429	91.676	-59.280	-52.965	34.616	102.372	-54.194	-49.959	-48.873	-44.734	35.510	-46.305	-8191	255	
#DATA ENDS
