BOXY.EXE: ISS Imagent and Oximeter Data Acquisition Program Version 0.80
Ascii Record File

#ACQ INFORMATION
2  Detector Channels 
16  External MUX Channels 
1  Auxiliary Channels 
5000  Waveform (CCF) Frequency (Hz)
1  Waveforms Skipped 
30  Waveforms Averaged 
1  Cycles Averaged 
16  Acquisitions per Waveform 
10.0806  Updata Rate (Hz) 

#FILE INFORMATION
TRUE -- External MUX Channel results are PARSED.
FALSE -- AC DC and Phase are NOT grouped.
TRUE -- Companion Program Settings File CREATED.
FALSE -- AC data not excluded
FALSE -- DC data not excluded
FALSE -- Phase data not excluded
FALSE -- Auxillary Chn. data not excluded
Tab delimiters

#CALIBRATION STATE
TRUE -- Waveform Calibration Values APPLIED.


#AUX CALIBRATION VALUES
Val Type	aux-1	

Term	1.0000e+00	
Factor	0.0000e+00	


#WF CALIBRATION VALUES
A = Detector Channel
Val Type	A-AC1	A-AC2	A-AC3	A-AC4	A-AC5	A-AC6	A-AC7	A-AC8	A-AC9	A-AC10	A-AC11	A-AC12	A-AC13	A-AC14	A-AC15	A-AC16	A-DC1	A-DC2	A-DC3	A-DC4	A-DC5	A-DC6	A-DC7	A-DC8	A-DC9	A-DC10	A-DC11	A-DC12	A-DC13	A-DC14	A-DC15	A-DC16	A-Ph1	A-Ph2	A-Ph3	A-Ph4	A-Ph5	A-Ph6	A-Ph7	A-Ph8	A-Ph9	A-Ph10	A-Ph11	A-Ph12	A-Ph13	A-Ph14	A-Ph15	A-Ph16	

Term	0.00000e+00	0.00000e+00	0.00000e+00	0.00000e+00	0.00000e+00	0.00000e+00	0.00000e+00	0.00000e+00	0.00000e+00	0.00000e+00	0.00000e+00	0.00000e+00	0.00000e+00	0.00000e+00	0.00000e+00	0.00000e+00	0.00000e+00	0.00000e+00	0.00000e+00	0.00000e+00	0.00000e+00	0.00000e+00	0.00000e+00	0.00000e+00	0.00000e+00	0.00000e+00	0.00000e+00	0.00000e+00	0.00000e+00	0.00000e+00	0.00000e+00	0.00000e+00	0.00000e+00	0.00000e+00	0.00000e+00	0.00000e+00	0.00000e+00	0.00000e+00	0.00000e+00	0.00000e+00	0.00000e+00	0.00000e+00	0.00000e+00	0.00000e+00	0.00000e+00	0.00000e+00	0.00000e+00	0.00000e+00	
Factor	1.00000e+00	1.00000e+00	1.00000e+00	1.00000e+00	1.00000e+00	1.00000e+00	1.00000e+00	1.00000e+00	1.00000e+00	1.00000e+00	1.00000e+00	1.00000e+00	1.00000e+00	1.00000e+00	1.00000e+00	1.00000e+00	1.00000e+00	1.00000e+00	1.00000e+00	1.00000e+00	1.00000e+00	1.00000e+00	1.00000e+00	1.00000e+00	1.00000e+00	1.00000e+00	1.00000e+00	1.00000e+00	1.00000e+00	1.00000e+00	1.00000e+00	1.00000e+00	X	X	X	X	X	X	X	X	X	X	X	X	X	X	X	X	

B = Detector Channel
Val Type	B-AC1	B-AC2	B-AC3	B-AC4	B-AC5	B-AC6	B-AC7	B-AC8	B-AC9	B-AC10	B-AC11	B-AC12	B-AC13	B-AC14	B-AC15	B-AC16	B-DC1	B-DC2	B-DC3	B-DC4	B-DC5	B-DC6	B-DC7	B-DC8	B-DC9	B-DC10	B-DC11	B-DC12	B-DC13	B-DC14	B-DC15	B-DC16	B-Ph1	B-Ph2	B-Ph3	B-Ph4	B-Ph5	B-Ph6	B-Ph7	B-Ph8	B-Ph9	B-Ph10	B-Ph11	B-Ph12	B-Ph13	B-Ph14	B-Ph15	B-Ph16	

Term	0.00000e+00	0.00000e+00	0.00000e+00	0.00000e+00	0.00000e+00	0.00000e+00	0.00000e+00	0.00000e+00	0.00000e+00	0.00000e+00	0.00000e+00	0.00000e+00	0.00000e+00	0.00000e+00	0.00000e+00	0.00000e+00	0.00000e+00	0.00000e+00	0.00000e+00	0.00000e+00	0.00000e+00	0.00000e+00	0.00000e+00	0.00000e+00	0.00000e+00	0.00000e+00	0.00000e+00	0.00000e+00	0.00000e+00	0.00000e+00	0.00000e+00	0.00000e+00	-3.43671e-01	-1.28886e+02	-1.25619e+02	-1.82862e+02	-5.71745e+01	-6.81809e+01	-1.60871e+02	-1.62015e+02	-3.19388e+01	-6.41406e+01	-1.72576e+02	-1.72478e+02	-1.82445e+02	-1.78185e+02	-5.29652e+01	-1.51172e+02	
Factor	3.74574e-05	1.65184e-04	5.15718e-05	1.65372e-01	2.41300e-06	1.69649e-06	1.91291e-01	5.90050e-02	2.23131e-06	1.72544e-06	9.08189e-02	3.18365e-02	2.88288e-02	9.23025e-03	2.06985e-06	1.33595e-02	8.31791e-06	1.05830e-05	2.94811e-06	8.55080e-02	1.10851e-07	1.17203e-07	9.29119e-02	3.05842e-02	1.10972e-07	1.16886e-07	4.57212e-02	1.59736e-02	1.50964e-02	4.83111e-03	1.13233e-07	6.77596e-03	X	X	X	X	X	X	X	X	X	X	X	X	X	X	X	X	



#DISTANCE SETTINGS
A = Detector Channel
A-1	A-2	A-3	A-4	A-5	A-6	A-7	A-8	A-9	A-10	A-11	A-12	A-13	A-14	A-15	A-16	

2.5000e+00	3.0000e+00	2.5000e+00	3.0000e+00	2.0000e+00	3.0000e+00	1.5000e+00	3.0000e+00	3.0000e+00	3.0000e+00	3.0000e+00	3.0000e+00	3.0000e+00	3.0000e+00	1.5000e+00	3.0000e+00	

B = Detector Channel
B-1	B-2	B-3	B-4	B-5	B-6	B-7	B-8	B-9	B-10	B-11	B-12	B-13	B-14	B-15	B-16	

1.0000e+01	1.0000e+01	1.0000e+01	1.4400e+00	1.0000e+01	1.0000e+01	1.5100e+00	1.9400e+00	1.0000e+01	1.0000e+01	1.9900e+00	2.4900e+00	2.4100e+00	2.9000e+00	1.0000e+01	2.9800e+00	




#DATA BEGINS
time	group	step	mark	flag	A-AC1	A-AC2	A-AC3	A-AC4	A-AC5	A-AC6	A-AC7	A-AC8	A-AC9	A-AC10	A-AC11	A-AC12	A-AC13	A-AC14	A-AC15	A-AC16	A-DC1	A-DC2	A-DC3	A-DC4	A-DC5	A-DC6	A-DC7	A-DC8	A-DC9	A-DC10	A-DC11	A-DC12	A-DC13	A-DC14	A-DC15	A-DC16	A-Ph1	A-Ph2	A-Ph3	A-Ph4	A-Ph5	A-Ph6	A-Ph7	A-Ph8	A-Ph9	A-Ph10	A-Ph11	A-Ph12	A-Ph13	A-Ph14	A-Ph15	A-Ph16	B-AC1	B-AC2	B-AC3	B-AC4	B-AC5	B-AC6	B-AC7	B-AC8	B-AC9	B-AC10	B-AC11	B-AC12	B-AC13	B-AC14	B-AC15	B-AC16	B-DC1	B-DC2	B-DC3	B-DC4	B-DC5	B-DC6	B-DC7	B-DC8	B-DC9	B-DC10	B-DC11	B-DC12	B-DC13	B-DC14	B-DC15	B-DC16	B-Ph1	B-Ph2	B-Ph3	B-Ph4	B-Ph5	B-Ph6	B-Ph7	B-Ph8	B-Ph9	B-Ph10	B-Ph11	B-Ph12	B-Ph13	B-Ph14	B-Ph15	B-Ph16	aux-1	digaux	

7677.727	1	1	0	256	0.11482	0.16766	0.10289	0.29634	0.032619	0.10105	0.11519	0.34475	0.049971	0.15562	0.079549	0.13349	0.1224	0.21696	0.069096	0.30842	-2.1604	-2.8708	-3.0187	-2.7021	-2.9542	-2.6021	-2.7604	-3.1104	-2.4896	-2.8187	-2.9188	-2.5583	-2.9979	-2.8646	-2.7042	-3.075	359.974	239.918	317.437	529.400	242.880	373.577	436.908	243.379	500.388	354.954	315.401	381.592	385.964	384.656	405.539	470.325	0.00075377	0.00068606	9.2207e-06	910.67	5.2653e-06	4.9501e-06	1015.1	229.26	1.0011e-06	4.5112e-06	285.2	104.75	77.623	27.384	5.548e-06	38.953	0.0011395	0.0013048	0.0003747	835.05	1.3919e-05	1.4653e-05	933.14	211.92	1.3831e-05	1.4547e-05	267.18	96.848	72.286	25.62	1.4132e-05	36.5	327.778	324.573	403.858	188.173	332.163	284.288	187.432	193.706	261.574	434.209	192.622	197.535	198.857	202.734	352.622	200.354	-8191	255	
7677.846	1	1	0	0	0.26728	0.16696	0.091115	0.043291	0.20953	0.24296	0.21638	0.18809	0.13112	0.03273	0.097631	0.12297	0.05187	0.11286	0.25054	0.2633	-2.0667	-2.8708	-3.0062	-2.6354	-3.0604	-2.8479	-2.625	-3.0521	-2.6854	-2.6792	-2.9188	-2.5104	-2.95	-2.8937	-2.6771	-2.8292	530.511	186.942	498.331	458.577	331.981	205.075	518.918	321.315	460.635	432.543	249.072	205.950	505.259	235.804	191.455	423.990	0.0008146	0.00048788	0.00015863	914.91	6.1658e-06	3.4116e-06	1021.9	228.17	4.0804e-06	4.7406e-06	287.53	103.94	76.773	27.353	9.3222e-07	38.836	0.0011701	0.0013495	0.00037338	837.85	1.429e-05	1.4794e-05	935.41	211.91	1.4226e-05	1.4787e-05	267.78	96.477	71.976	25.533	1.4303e-05	36.443	331.149	349.587	238.924	188.220	274.904	443.380	187.685	193.723	396.103	338.891	192.030	197.456	198.984	202.878	479.134	200.356	-8191	255	
7677.942	1	1	0	0	0.22935	0.14144	0.27248	0.22015	0.34425	0.05027	0.060119	0.3661	0.3491	0.13702	0.13987	0.061306	0.17637	0.1786	0.33797	0.10784	-2.1896	-2.5896	-2.8438	-2.5208	-2.8187	-3.0146	-2.5229	-3.05	-2.6375	-2.6688	-2.9729	-2.6833	-2.8021	-2.8688	-2.5083	-3.1146	472.006	366.820	198.350	181.416	249.137	420.022	423.189	434.616	227.589	351.304	192.307	524.806	281.618	504.666	258.506	440.493	0.00068728	0.00041732	0.00012328	917.49	6.2519e-06	6.4899e-06	1020	228.26	7.5912e-06	1.0746e-05	287.72	104.58	77.609	27.413	8.692e-06	39.264	0.0011764	0.0013276	0.00037491	839.36	1.418e-05	1.4747e-05	934.94	211.39	1.3832e-05	1.4671e-05	268.33	96.848	72.232	25.761	1.434e-05	36.7	329.238	195.180	283.568	188.450	390.045	307.172	187.488	194.192	351.556	333.852	193.074	197.899	198.540	202.932	342.170	200.488	-8191	255	
7678.037	1	1	0	0	0.13176	0.12361	0.15434	0.32587	0.086489	0.15968	0.064741	0.2007	0.036347	0.13281	0.34712	0.27756	0.052725	0.15255	0.015194	0.15245	-2.0271	-2.5958	-2.9771	-2.6917	-2.7854	-2.9375	-2.7521	-2.8979	-2.6354	-2.7458	-3.1667	-2.675	-2.7687	-2.9625	-2.6312	-2.9146	371.683	482.000	523.877	209.402	196.152	374.464	407.162	467.145	339.985	244.442	490.343	447.732	421.801	450.102	368.226	222.465	0.00075538	0.00036687	0.00013752	913.98	6.112e-06	1.7298e-06	1024.9	229.94	3.7794e-06	2.3169e-06	289.66	105.56	77.949	27.652	8.2253e-06	39.3	0.0011762	0.0013334	0.00037134	837.71	1.3932e-05	1.5044e-05	937.37	212.59	1.4422e-05	1.4731e-05	269.69	97.608	72.693	25.881	1.4303e-05	36.842	321.145	245.824	310.519	188.389	325.964	308.798	187.712	193.815	380.469	292.551	193.111	197.242	199.061	202.973	306.817	199.762	-8191	255	
7678.135	1	1	0	0	0.29164	0.14674	0.12257	0.43219	0.14343	0.15702	0.11937	0.30606	0.18535	0.043172	0.26001	0.15287	0.22982	0.15616	0.12157	0.26518	-2.3333	-2.6312	-3.0229	-2.6292	-2.6813	-2.9792	-2.4875	-3.025	-2.7167	-2.6937	-2.9417	-2.5687	-2.6917	-3.0771	-2.4958	-3.1917	353.931	192.680	268.067	189.126	434.907	315.182	469.588	425.749	531.497	206.762	496.852	492.259	472.445	503.491	242.470	200.940	0.00056712	0.00042646	0.00023191	917.96	6.4721e-06	7.9835e-06	1024.9	230.64	1.8106e-05	1.0314e-05	287.62	104.42	77.602	27.267	8.6731e-06	39.107	0.001186	0.0013338	0.00036508	841.32	1.4081e-05	1.4359e-05	938.57	212.21	1.4497e-05	1.4696e-05	267.48	96.766	72.142	25.601	1.4396e-05	36.531	331.383	237.478	342.560	188.180	314.617	334.420	187.088	193.586	329.729	351.133	192.695	197.253	199.166	202.782	411.293	199.918	-8191	255	
7678.229	1	1	0	0	0.02717	0.18272	0.21015	0.13359	0.10131	0.088076	0.14098	0.15378	0.17854	0.094288	0.12728	0.017927	0.025694	0.073991	0.091256	0.19115	-2.3625	-2.4292	-2.9646	-2.5917	-2.6146	-3.0458	-2.9062	-2.9167	-2.8333	-2.5938	-3.0604	-2.8792	-2.775	-3.0042	-2.6292	-2.8583	398.943	463.867	381.743	470.359	448.826	416.670	449.047	207.307	524.379	179.043	416.025	480.658	410.315	425.671	182.812	450.434	0.00077313	0.00039103	9.8375e-05	910.76	2.2914e-06	8.5971e-06	1023	228.05	1.2375e-06	4.764e-06	287.97	104.11	77.513	27.505	1.0003e-05	39.109	0.0011913	0.001308	0.00037153	836.34	1.4225e-05	1.456e-05	934.65	211.4	1.3749e-05	1.4594e-05	267.2	96.648	72.057	25.631	1.447e-05	36.635	326.764	328.448	259.092	188.068	307.000	355.016	187.672	193.809	222.654	317.117	192.734	197.740	198.931	202.493	318.749	200.322	-8191	255	
7678.325	1	1	0	0	0.14706	0.042007	0.19329	0.073657	0.12614	0.24653	0.29026	0.10992	0.065542	0.15596	0.15584	0.14155	0.26888	0.12261	0.18633	0.27725	-2.5458	-2.4396	-2.8604	-2.7854	-2.7917	-3.0938	-2.7313	-2.7146	-2.9521	-2.6188	-3.0542	-2.8312	-2.6125	-3.1375	-2.6312	-2.7458	248.235	255.884	235.816	506.103	421.897	500.318	507.891	450.056	412.190	189.702	392.974	363.557	332.332	491.135	341.033	180.165	0.0007261	0.00059073	8.4738e-05	916.3	1.1244e-05	6.8021e-06	1024.7	227.94	2.9027e-06	5.0725e-06	287.94	103.95	77.469	27.353	7.2627e-06	39.139	0.0011741	0.0013676	0.00037043	839.17	1.4325e-05	1.4802e-05	936.24	211.35	1.4117e-05	1.5023e-05	267.39	96.46	71.952	25.626	1.4617e-05	36.563	329.067	324.068	254.818	187.796	330.851	295.215	187.422	193.742	485.587	296.525	192.727	197.492	198.861	203.061	303.183	200.482	-8191	255	
7678.421	1	1	0	0	0.30702	0.18175	0.19434	0.044081	0.23203	0.1474	0.42893	0.2319	0.27093	0.22083	0.096581	0.19676	0.11846	0.20067	0.040178	0.014489	-2.4667	-2.4646	-2.8104	-2.8958	-2.5563	-3.15	-2.8312	-2.6625	-3.0167	-2.6271	-2.9292	-2.9896	-2.5729	-3.1188	-2.9521	-2.9	266.587	222.589	387.074	513.207	195.216	225.176	473.211	310.562	202.283	375.749	518.743	501.269	313.913	343.249	303.285	344.477	0.00072791	0.00054802	0.00014203	915.04	1.4583e-06	1.0339e-06	1022.5	227.03	8.1491e-06	3.1624e-06	290.34	105.29	77.925	27.59	6.9831e-06	39.329	0.0011737	0.0013495	0.00036884	839.79	1.4433e-05	1.4921e-05	935.53	211.54	1.397e-05	1.488e-05	269.59	97.363	72.424	25.791	1.4561e-05	36.929	326.122	209.106	334.863	188.304	468.785	310.603	187.656	193.956	427.986	267.360	192.578	197.248	199.028	202.752	350.331	200.149	-8191	255	
7678.542	1	1	0	0	0.15767	0.15345	0.1125	0.16174	0.20167	0.14434	0.27185	0.32308	0.096624	0.19155	0.2472	0.1196	0.26469	0.17203	0.14259	0.14757	-2.4688	-2.5896	-2.775	-2.9917	-2.7271	-3.0875	-2.9146	-2.6917	-2.9875	-2.6937	-2.9896	-2.9083	-2.4604	-2.8875	-2.6896	-2.7021	413.696	318.302	233.637	420.941	204.471	390.391	457.249	521.181	222.093	177.025	194.618	240.606	507.542	240.384	421.600	382.555	0.00069304	0.00023778	0.00013937	917.19	4.1607e-06	8.1333e-06	1025.2	230.65	9.5289e-06	6.8979e-06	287.19	103.32	77.264	27.249	8.4358e-06	38.722	0.0011572	0.0013042	0.00037018	840.27	1.4037e-05	1.446e-05	934.07	211.77	1.3971e-05	1.4628e-05	267.36	96.07	71.709	25.505	1.4085e-05	36.49	330.296	358.329	278.796	188.237	350.691	328.456	187.563	193.945	374.507	344.791	192.547	197.110	198.392	203.185	411.124	200.176	-8191	255	
7678.638	1	1	0	0	0.25758	0.22698	0.1035	0.16149	0.17099	0.060865	0.16054	0.12101	0.04505	0.28302	0.070829	0.059993	0.09722	0.014096	0.20424	0.17557	-2.6063	-2.5521	-2.7667	-2.9708	-2.4813	-3.0042	-2.9333	-2.6937	-3.0875	-2.7229	-2.7146	-2.8146	-2.5687	-3.0479	-2.8333	-2.5438	513.028	513.721	367.615	186.216	507.106	339.261	478.854	471.068	463.910	519.320	423.432	303.235	233.563	434.280	383.666	375.526	0.00083275	0.00066098	0.00014015	909.85	8.7457e-06	1.0125e-05	1007.6	226.82	6.8089e-06	7.0406e-06	286.22	103.11	76.607	27.292	7.2526e-06	38.781	0.0011316	0.0012892	0.00036461	834.27	1.3504e-05	1.4597e-05	925.7	209.62	1.3478e-05	1.3993e-05	265.34	95.481	71.347	25.478	1.4069e-05	36.369	318.355	225.221	276.310	188.082	270.954	365.296	187.739	193.712	426.123	351.722	193.076	197.526	198.782	202.789	350.318	200.392	-8191	255	
7678.734	1	1	0	0	0.29322	0.17243	0.043863	0.19626	0.21037	0.176	0.20489	0.17784	0.15749	0.1287	0.1549	0.087462	0.25947	0.22411	0.19176	0.15136	-2.5812	-2.7125	-2.6688	-3.0917	-2.6042	-2.8729	-2.9583	-2.6729	-2.9729	-2.6979	-2.85	-2.8063	-2.7104	-2.8208	-2.9146	-2.6146	224.359	368.989	463.637	459.271	278.967	405.373	496.434	458.387	289.122	387.746	184.088	189.861	510.273	391.222	175.816	473.885	0.00070414	0.00081513	0.00016281	908.93	8.397e-06	3.6184e-06	1011.3	227.69	4.3517e-06	8.2929e-06	285.55	102.55	76.262	27.181	1.095e-05	38.753	0.0011426	0.0013044	0.00035199	832.85	1.4022e-05	1.4265e-05	928.65	210.27	1.3804e-05	1.4133e-05	265.26	95.716	70.981	25.581	1.3943e-05	36.432	330.718	236.446	348.834	187.839	359.508	322.837	187.744	193.489	398.812	272.523	192.632	197.493	198.911	203.105	350.636	200.154	-8191	255	
7678.830	1	1	0	0	0.065444	0.15229	0.35396	0.16801	0.071886	0.13913	0.14042	0.17845	0.11947	0.039346	0.027027	0.14481	0.18248	0.34692	0.293	0.091805	-2.4771	-2.6854	-2.6896	-3.3396	-2.4729	-2.9375	-3.0479	-2.5333	-3.0021	-2.9083	-2.8438	-2.9104	-2.6104	-2.6875	-2.9083	-2.6646	440.297	414.441	296.053	480.902	489.928	328.766	488.973	506.652	523.382	484.680	529.173	428.517	292.078	522.881	385.209	396.515	0.00067183	0.00064247	0.00017311	915.8	1.0931e-05	6.1259e-06	1017.7	228.17	5.7628e-06	6.7562e-06	288.01	104.24	77.172	27.13	4.7151e-06	39.276	0.0011132	0.001294	0.00035797	836.75	1.3671e-05	1.4149e-05	935.1	211.03	1.3995e-05	1.4217e-05	267.47	96.581	71.665	25.763	1.4331e-05	36.954	334.742	271.057	244.961	188.186	404.351	342.671	187.340	193.751	437.270	264.280	192.701	197.626	198.967	203.031	319.772	200.244	-8191	255	
7678.927	1	1	0	0	0.068798	0.31417	0.13041	0.16173	0.15236	0.11299	0.33146	0.31915	0.25646	0.15847	0.26969	0.13415	0.13104	0.1302	0.15853	0.23743	-2.5187	-2.7125	-2.6042	-3.1917	-2.5583	-2.7458	-2.975	-2.4396	-2.8667	-2.9083	-2.5792	-2.8146	-2.5708	-2.6104	-2.85	-2.3771	306.808	400.124	346.214	276.822	290.172	354.330	439.330	514.272	357.077	360.064	519.494	247.978	292.494	248.704	477.378	512.010	0.00078552	0.00023001	0.00019817	916.17	2.2704e-06	1.0668e-05	1025.3	227.83	4.1564e-06	3.4088e-06	288.06	102.77	76.906	27.237	7.8958e-06	38.714	0.0011518	0.0013168	0.00037178	840	1.4113e-05	1.4696e-05	938.8	211.56	1.382e-05	1.4817e-05	267.62	95.99	71.589	25.632	1.4065e-05	36.536	328.838	241.282	249.939	188.211	224.482	358.193	187.651	193.869	432.068	270.394	192.887	197.568	198.693	203.110	483.016	199.925	-8191	255	
7679.023	1	1	0	0	0.2463	0.23572	0.084552	0.27573	0.068429	0.13861	0.30212	0.29527	0.12712	0.50617	0.24468	0.13875	0.16151	0.02754	0.092839	0.17046	-2.4375	-2.7708	-2.4125	-2.9396	-2.6688	-2.6	-2.9125	-2.6125	-2.6208	-2.7938	-2.4917	-3.0104	-2.7062	-2.6562	-2.9562	-2.7167	213.068	183.432	353.374	473.929	320.023	371.936	493.753	365.440	500.043	435.429	502.365	265.589	178.831	271.904	376.288	455.321	0.00072485	0.00060523	0.00011853	916.24	7.444e-06	5.575e-06	1016.8	227.06	7.0194e-06	6.4837e-06	288.46	103.25	76.076	27.424	1.1973e-05	39.165	0.0011812	0.0013166	0.0003701	839.8	1.3778e-05	1.4847e-05	933.27	209.23	1.4295e-05	1.43e-05	266.56	95.496	71.475	25.629	1.4261e-05	36.647	326.947	259.724	224.866	187.932	328.862	393.415	187.870	193.977	331.420	280.674	192.614	197.517	199.027	202.946	344.643	200.456	-8191	255	
7679.142	1	1	0	0	0.058986	0.042185	0.29244	0.58799	0.052125	0.049529	0.32223	0.10161	0.11452	0.024514	0.20392	0.23567	0.17326	0.046398	0.11274	0.1721	-2.35	-2.8937	-2.5167	-2.9125	-2.6958	-2.5375	-3.2354	-2.7104	-2.7104	-3.2292	-2.4375	-2.9562	-2.6646	-2.4583	-2.9625	-2.6688	349.999	399.222	422.674	472.093	379.203	405.197	516.642	375.270	319.749	364.261	466.729	479.280	468.202	374.039	188.419	475.042	0.00075781	0.00056595	0.00019752	916.86	8.2837e-07	5.8297e-06	1017.6	227.99	1.0092e-05	6.8225e-07	284.49	103.33	76.786	27.461	9.2304e-06	39.235	0.0011566	0.0013178	0.0003705	839.26	1.4294e-05	1.4722e-05	931.01	210.19	1.3748e-05	1.4673e-05	264.95	95.762	71.369	25.745	1.4616e-05	36.842	329.602	209.952	259.523	188.400	390.715	209.808	187.714	193.767	312.305	183.936	192.781	197.549	198.796	202.512	337.693	199.981	-8191	255	
7679.238	1	1	0	0	0.3538	0.22724	0.35188	0.18682	0.19697	0.10245	0.1225	0.061847	0.12935	0.29709	0.41556	0.037059	0.31925	0.2245	0.36771	0.07841	-2.1458	-2.7542	-2.3646	-3.0167	-2.7833	-2.4062	-3.1146	-2.7521	-2.6708	-3.0833	-2.6833	-2.9771	-2.9417	-2.5958	-3.1458	-2.8563	236.015	257.908	443.441	501.595	376.842	238.186	497.785	462.208	285.804	265.430	441.589	179.865	212.028	478.813	237.272	362.975	0.00092567	0.00037098	9.1082e-05	921.25	8.1995e-06	5.9477e-07	1024	229.24	1.3437e-05	1.1192e-05	290.78	103.65	75.8	27.399	9.4475e-06	39.63	0.0012018	0.0013434	0.00038282	844.06	1.4399e-05	1.4986e-05	938.04	210.56	1.4268e-05	1.4767e-05	267.79	95.987	71.357	25.738	1.4599e-05	37.017	336.028	225.964	273.631	188.318	279.007	426.939	187.341	193.790	332.455	338.668	192.313	197.696	198.571	202.960	335.574	200.259	-8191	255	
7679.334	1	1	0	0	0.1424	0.13358	0.25878	0.17301	0.0080157	0.2024	0.046352	0.11969	0.18309	0.22907	0.1956	0.21258	0.070042	0.074102	0.10836	0.1693	-2.2333	-2.9167	-2.3937	-2.9396	-2.9292	-2.5125	-3.1	-2.8438	-2.6271	-3.0062	-2.6458	-2.6875	-2.9021	-2.5583	-2.8771	-2.9292	341.956	262.356	345.921	252.931	194.288	316.679	259.066	417.529	501.480	367.197	233.064	400.746	399.592	482.860	515.279	466.843	0.00066648	0.00072406	8.1248e-05	911.37	1.3088e-05	1.6236e-06	1025.9	226.8	1.0329e-05	5.8241e-06	284.14	103.44	77.064	27.188	3.9858e-06	39.113	0.0011885	0.0013342	0.0003682	838.05	1.4116e-05	1.4701e-05	936.49	209.99	1.4029e-05	1.4439e-05	265.47	95.96	71.286	25.603	1.4238e-05	36.607	322.631	254.909	360.926	188.093	346.553	299.319	187.459	193.248	297.539	370.367	192.623	197.728	198.555	202.591	327.885	200.378	-8191	255	
7679.430	1	1	0	0	0.37167	0.18469	0.10663	0.11072	0.33541	0.22092	0.18502	0.195	0.33968	0.23057	0.20517	0.13676	0.20731	0.14633	0.09438	0.18912	-2.2271	-3.0625	-2.5396	-2.7229	-3.1979	-2.4938	-2.9688	-2.8167	-2.4833	-3.0083	-2.6333	-2.5021	-2.9562	-2.5833	-2.9396	-2.95	469.088	428.715	345.087	225.553	520.510	269.240	486.318	368.566	507.389	239.367	412.597	464.559	485.318	195.948	442.600	498.242	0.00056861	0.00042741	7.8755e-05	909.61	2.3704e-06	9.1977e-06	1015.2	227.58	5.9264e-06	8.1165e-06	285.32	103.02	76.089	27.146	5.8774e-06	39.094	0.0011322	0.0012898	0.00035978	834.09	1.3906e-05	1.4507e-05	928.14	209.97	1.3912e-05	1.429e-05	263.99	95.487	71.146	25.552	1.4164e-05	36.558	323.077	232.571	299.093	188.203	309.281	343.833	187.731	194.238	344.829	406.403	192.686	197.514	198.960	203.165	321.171	199.860	-8191	255	
7679.526	1	1	0	0	0.15743	0.16028	0.097796	0.29197	0.12969	0.12449	0.12176	0.11363	0.13675	0.033371	0.22116	0.20533	0.14962	0.25317	0.21509	0.23228	-2.2146	-2.9938	-2.5854	-2.7562	-2.9188	-2.6854	-3.05	-2.8563	-2.6792	-2.8729	-2.7729	-2.7167	-3.1354	-2.7854	-2.8438	-2.9896	503.595	335.082	368.456	509.142	514.214	281.866	512.937	496.237	520.992	367.695	481.463	506.107	524.710	186.904	423.501	199.049	0.00085978	0.00069345	0.00010668	912.45	5.629e-06	5.5852e-06	1015	226.4	3.1721e-06	6.0392e-06	285.1	102.46	75.82	27.089	1.3093e-05	38.984	0.0011676	0.0013264	0.00036216	833.36	1.4021e-05	1.4715e-05	927.62	208.9	1.4057e-05	1.4525e-05	263.97	95.277	70.808	25.507	1.4374e-05	36.441	322.121	272.238	435.815	188.304	392.304	369.838	187.640	194.169	317.851	375.588	192.277	197.398	198.707	202.971	216.771	200.337	-8191	255	
7679.622	1	1	0	0	0.088807	0.31303	0.12725	0.42117	0.17644	0.13449	0.25846	0.089314	0.049141	0.11406	0.17307	0.15026	0.08108	0.015156	0.048252	0.13596	-2.1188	-2.8042	-2.7792	-2.8104	-3.2104	-2.6042	-2.9208	-3.0792	-2.6458	-3.0167	-2.9521	-2.7146	-3.1542	-2.7125	-2.7104	-2.8542	278.733	398.874	224.343	483.883	457.807	199.735	445.804	387.195	486.663	237.356	534.387	479.136	490.386	513.382	345.965	252.027	0.00078328	0.00038306	0.00028958	904.45	8.2147e-06	1.7116e-06	1000.7	226.36	2.3413e-06	2.6112e-06	283.07	102.96	75.161	27.17	6.7033e-06	38.76	0.0011236	0.0013304	0.00037121	829.26	1.3941e-05	1.4894e-05	921.27	208.92	1.3916e-05	1.4383e-05	263.63	95.245	70.464	25.491	1.3992e-05	36.318	326.166	228.289	273.022	188.381	322.465	293.232	187.850	193.713	213.250	439.899	192.783	197.459	198.700	202.777	385.159	199.987	-8191	255	
7679.719	1	1	0	0	0.10322	0.11238	0.14798	0.16904	0.2159	0.11057	0.60215	0.23682	0.19733	0.23057	0.14754	0.13354	0.26383	0.19274	0.29237	0.19222	-2.2562	-2.9688	-2.9167	-2.6771	-2.9083	-2.5438	-2.7417	-2.8917	-2.2708	-2.9188	-2.8375	-2.3979	-2.9271	-2.8729	-2.7417	-3.2854	384.580	479.783	398.046	446.986	520.279	365.467	470.806	474.738	345.514	184.590	325.269	278.177	513.501	409.053	353.518	198.400	0.00071981	0.00084862	1.8337e-05	899.34	4.8734e-06	5.3374e-06	999.85	224.27	1.2744e-05	4.0834e-06	281.13	102.36	75.485	26.822	7.3278e-06	38.194	0.0011069	0.0012742	0.00036684	825.5	1.3492e-05	1.4213e-05	916.82	206.54	1.343e-05	1.3981e-05	261.71	94.458	70.193	25.262	1.3664e-05	35.963	328.129	271.761	221.251	188.262	239.508	378.502	187.552	193.855	386.247	400.490	192.764	197.095	198.564	202.682	316.673	200.612	-8191	255	
7679.815	1	1	0	0	0.14112	0.14817	0.13653	0.14022	0.27362	0.20172	0.18399	0.086994	0.15025	0.23565	0.13189	0.14169	0.1833	0.33983	0.18669	0.033158	-2.1937	-2.7333	-2.7667	-2.6021	-2.8708	-2.6021	-2.7917	-3.0333	-2.55	-2.6021	-2.9667	-2.3854	-2.9771	-2.8417	-2.6625	-2.9583	285.766	380.902	223.909	178.219	289.247	498.971	253.059	511.611	414.679	458.058	236.815	296.231	521.858	247.576	385.505	382.543	0.00078066	0.00065747	0.00032345	894.22	2.5747e-06	4.2072e-06	992.59	223.11	4.8402e-06	4.467e-06	279.16	100.6	74.837	26.502	4.431e-06	38.096	0.0011084	0.0012793	0.00035574	819.56	1.3509e-05	1.42e-05	911.03	205.94	1.3935e-05	1.411e-05	259.21	93.419	69.447	24.907	1.4427e-05	35.716	321.138	502.097	304.992	188.042	501.393	263.800	187.339	193.576	472.079	262.661	192.505	197.561	198.906	202.939	497.537	200.488	-8191	255	
7679.934	1	1	0	0	0.21151	0.11357	0.10973	0.19424	0.072914	0.22249	0.19817	0.23281	0.38171	0.11839	0.29504	0.20416	0.13843	0.13439	0.13914	0.27039	-2.2021	-2.8521	-2.5604	-2.6667	-2.8896	-2.7625	-2.5812	-3.0646	-2.5542	-2.5729	-2.9542	-2.3542	-2.8542	-2.8208	-2.4458	-2.9125	342.753	287.576	500.255	531.821	308.488	346.601	480.196	358.401	400.380	491.520	199.146	185.752	533.430	299.317	528.486	453.792	0.00074055	0.00015107	0.00015626	892.05	1.4901e-05	8.453e-06	990.13	222.55	3.2752e-06	3.8437e-06	276.04	101.33	73.589	26.451	8.2989e-06	37.887	0.0011302	0.001313	0.00035955	818.73	1.3332e-05	1.4204e-05	907.67	204.74	1.3627e-05	1.3651e-05	257.75	92.921	68.762	24.766	1.3093e-05	35.558	340.377	245.139	289.005	188.109	269.196	323.102	187.814	193.678	342.765	337.168	192.413	197.269	199.058	202.841	265.630	200.054	-8191	255	
7680.030	1	1	0	0	0.14792	0.16018	0.041607	0.054835	0.10855	0.17787	0.13985	0.28051	0.099179	0.14117	0.082551	0.18166	0.099677	0.067317	0.13247	0.1291	-2.2521	-2.4313	-2.9417	-2.5042	-2.675	-2.7729	-2.6604	-3.1458	-2.8396	-2.7854	-3.0146	-2.4271	-2.7583	-2.8854	-2.4833	-3.1354	497.904	209.050	182.876	190.412	454.468	454.129	411.132	182.452	241.169	497.470	338.275	445.906	423.109	466.551	494.123	363.148	0.00067296	0.00033521	7.3354e-05	891.7	8.2089e-06	2.4818e-06	996.14	221.65	8.1682e-06	6.9002e-06	280.47	101.47	74.011	26.601	6.7105e-07	38.292	0.0011009	0.0012246	0.00033912	815.39	1.2815e-05	1.3575e-05	910.94	205.2	1.2986e-05	1.3422e-05	260.15	93.417	69.063	24.97	1.2915e-05	35.757	331.581	424.158	322.319	188.289	380.845	270.152	187.708	193.756	383.874	354.094	192.002	197.535	198.691	203.039	216.333	200.686	-8191	255	
7680.103	1	1	0	0	0.059406	0.075684	0.08514	0.080804	0.10915	0.15014	0.07078	0.15796	0.18038	0.11986	0.15872	0.16833	0.23295	0.40161	0.14039	0.18578	-2.35	-2.4354	-2.9083	-2.5938	-2.7062	-2.8729	-2.4375	-2.9875	-2.6979	-2.6542	-3.125	-2.6396	-2.6333	-3.0604	-2.4667	-2.7375	225.149	442.953	473.812	332.101	390.109	422.722	250.191	425.704	528.256	438.867	437.474	187.329	184.379	470.224	287.207	244.212	0.00081417	0.00018926	9.2385e-05	895.39	1.3538e-05	8.1708e-06	1005.3	225.61	4.7286e-06	2.6314e-06	280.64	101.03	75.473	26.782	5.3103e-06	37.891	0.0010503	0.0011899	0.00033353	821.55	1.2578e-05	1.3128e-05	917.5	206.85	1.2424e-05	1.2905e-05	260.91	93.32	69.726	25.074	1.2584e-05	35.676	323.650	403.824	321.279	187.874	301.857	294.031	187.616	193.919	306.472	231.858	192.864	197.693	198.752	202.496	319.704	200.415	-8191	255	
7680.224	1	1	0	0	0.10297	0.16198	0.097297	0.39744	0.23613	0.14745	0.41344	0.22653	0.14707	0.21684	0.22299	0.1216	0.33231	0.22753	0.087902	0.15284	-2.3521	-2.5438	-3.0854	-2.5833	-2.7083	-2.9208	-2.6437	-2.8563	-2.6063	-2.4667	-2.9604	-2.6042	-2.5563	-2.9771	-2.475	-2.7708	261.607	302.817	274.459	518.562	406.121	431.262	462.313	482.701	291.557	327.086	240.981	202.205	503.707	491.546	195.308	483.457	0.00075033	0.00019164	6.3387e-05	899.04	7.5813e-06	2.6929e-06	1004.6	224.36	1.7554e-06	1.5423e-06	281.6	102.37	75.785	26.891	5.8899e-06	38.617	0.0010532	0.0011675	0.00031612	822.93	1.2127e-05	1.2683e-05	916.61	207.3	1.1993e-05	1.2237e-05	261.46	94.171	70.297	25.193	1.1954e-05	36.059	328.587	379.030	283.891	188.313	317.476	297.338	187.535	193.561	394.043	331.885	192.230	197.082	198.990	203.063	310.239	199.737	-8191	255	
7680.318	1	1	0	0	0.084574	0.23158	0.044451	0.28096	0.30366	0.12451	0.22022	0.19938	0.09684	0.2359	0.1558	0.37847	0.19196	0.20764	0.24461	0.1024	-2.4708	-2.3625	-2.975	-2.6917	-2.6229	-2.9604	-2.5563	-2.9354	-2.9104	-2.6792	-2.7229	-2.7	-2.6813	-2.9479	-2.5667	-2.7521	296.876	378.461	365.354	510.176	337.375	422.580	507.396	461.131	522.625	329.098	530.828	434.004	244.846	508.318	476.655	428.617	0.00079259	0.00027727	0.00015273	905.23	8.3973e-06	7.692e-06	1015.4	228.42	1.6334e-05	2.4797e-06	285.28	103.69	75.978	27.047	5.8022e-06	38.865	0.00098527	0.0010862	0.00029948	828.48	1.1493e-05	1.1599e-05	927.12	209.59	1.1446e-05	1.176e-05	265.05	95.654	70.897	25.411	1.1744e-05	36.451	324.412	265.113	221.923	188.235	353.593	302.178	187.631	193.617	325.248	393.682	192.932	197.444	199.259	202.605	245.101	200.613	-8191	255	
7680.414	1	1	0	0	0.24958	0.15761	0.0417	0.17987	0.12717	0.13451	0.12095	0.35598	0.31181	0.32166	0.23772	0.12769	0.09044	0.10125	0.17377	0.39545	-2.3958	-2.7625	-2.8479	-2.8875	-2.6833	-3.05	-2.65	-2.8396	-2.9437	-2.4604	-2.8229	-2.8917	-2.4771	-2.9938	-2.7833	-2.7542	325.407	240.880	435.023	489.266	488.003	460.206	498.244	485.132	316.979	511.979	457.248	400.096	327.842	212.819	329.128	505.516	0.00086525	0.00056553	0.00020383	908.4	5.5209e-06	9.3201e-06	1016.4	226.18	2.7288e-06	6.5122e-06	283.46	103.35	76.177	27.205	8.5813e-06	39.101	0.00099789	0.0011004	0.00031019	830.06	1.1723e-05	1.2512e-05	926.4	208.68	1.2037e-05	1.218e-05	264.84	95.319	70.798	25.432	1.185e-05	36.465	325.901	287.264	324.799	188.241	394.663	403.587	187.598	193.969	314.676	210.613	192.745	197.313	199.267	203.206	332.466	200.572	-8191	255	
7680.535	1	1	0	0	0.054202	0.19094	0.24982	0.20236	0.48721	0.17382	0.37011	0.21057	0.075204	0.062651	0.10474	0.21845	0.18294	0.059435	0.13326	0.084166	-2.4146	-2.3667	-2.8604	-2.8333	-2.5	-2.9542	-2.7729	-2.6729	-2.8917	-2.7625	-2.8979	-2.9	-2.4188	-2.8625	-2.6562	-2.6312	433.047	476.754	254.275	274.902	456.690	515.493	440.227	409.698	311.268	254.237	512.746	506.288	389.302	217.296	455.323	331.477	0.00066616	0.00029484	0.00012803	908.63	1.1344e-05	7.8104e-07	1017.3	227.71	1.033e-05	7.6921e-06	288.86	102.74	75.012	26.903	7.2436e-06	38.697	0.00099962	0.0011315	0.00032077	830.52	1.214e-05	1.2917e-05	928.83	209.74	1.2292e-05	1.2912e-05	265.6	95.003	70.481	25.356	1.2554e-05	36.33	336.397	331.909	316.903	188.170	383.542	329.256	187.908	193.786	368.217	379.638	192.523	198.055	198.886	202.561	354.148	200.027	-8191	255	
7680.631	1	1	0	0	0.1641	0.081347	0.19801	0.14911	0.096495	0.11269	0.11724	0.081989	0.25927	0.12683	0.26634	0.07516	0.19721	0.22686	0.045543	0.26327	-2.5542	-2.6021	-2.5604	-2.9	-2.4979	-2.9729	-2.8854	-2.5521	-3.0979	-2.625	-2.6188	-2.9458	-2.4562	-2.8417	-2.7562	-2.5229	483.611	212.701	311.447	185.798	414.914	295.637	497.939	519.652	275.275	304.413	358.486	471.111	209.909	447.004	531.360	519.354	0.00076209	0.00039043	0.00010234	904.66	6.4976e-06	1.3233e-06	1006.3	226.39	7.3979e-06	5.1936e-06	286.45	102.25	76.195	27.075	3.3077e-06	38.807	0.0010235	0.0011653	0.00032475	829.17	1.1819e-05	1.2472e-05	923.31	208.6	1.2345e-05	1.2723e-05	264.71	94.53	70.806	25.379	1.2549e-05	36.239	325.737	295.351	244.775	188.084	407.467	405.648	187.457	193.911	426.186	344.144	192.958	197.094	198.717	203.066	370.755	199.984	-8191	255	
7680.703	1	1	0	0	0.14489	0.18134	0.18894	0.072022	0.1507	0.19986	0.11872	0.19137	0.14644	0.081714	0.066677	0.16393	0.17452	0.20787	0.23	0.11168	-2.5979	-2.5708	-2.6854	-3.0021	-2.5938	-3.0271	-2.9125	-2.4771	-3.0708	-2.5875	-2.9375	-2.9208	-2.5417	-2.7562	-2.7896	-2.5333	247.717	316.254	461.592	524.435	270.523	489.593	480.915	188.122	398.059	487.081	485.700	277.357	450.418	493.946	263.575	390.460	0.000731	0.00074239	0.00023961	905.55	7.1217e-06	4.5335e-06	1008.5	228	4.7099e-06	7.1996e-06	288.61	102.58	76.305	27.281	6.5671e-06	39.235	0.0010133	0.0011774	0.00032594	827.99	1.2345e-05	1.2774e-05	923.17	209.22	1.2186e-05	1.3359e-05	266	95.139	70.911	25.575	1.3142e-05	36.542	327.622	253.838	267.554	188.007	302.943	273.047	187.448	194.032	258.598	336.080	192.517	197.510	198.793	203.257	357.730	200.159	-8191	255	
7680.823	1	1	0	0	0.2509	0.17477	0.28431	0.056512	0.078954	0.11466	0.077607	0.27771	0.334	0.16213	0.31536	0.063899	0.226	0.004621	0.11871	0.26222	-2.4813	-2.6562	-2.675	-3.1271	-2.5229	-2.7333	-3.0125	-2.4042	-3.0625	-2.6312	-2.7104	-3.1729	-2.3479	-2.725	-2.8292	-2.4646	334.548	406.718	297.604	211.082	425.035	454.834	522.724	504.143	253.122	410.985	530.644	324.297	251.729	257.109	408.061	435.991	0.0006507	0.00094082	5.625e-05	910.5	6.5343e-06	2.3049e-06	1015.5	227.03	2.2874e-06	5.336e-06	288.81	103.87	76.365	27.292	8.943e-06	39.186	0.0011062	0.0012407	0.00034562	835.16	1.3217e-05	1.38e-05	931.94	210.4	1.3452e-05	1.3847e-05	266.9	96.119	71.545	25.676	1.3884e-05	36.911	317.147	255.003	291.435	188.191	428.509	316.385	187.372	194.223	321.083	375.685	192.439	197.515	199.254	202.644	321.999	199.945	-8191	255	
7680.920	1	1	0	0	0.24522	0.020841	0.097262	0.13755	0.12302	0.41657	0.034783	0.17683	0.25336	0.11832	0.33133	0.21892	0.13708	0.052528	0.0063029	0.37391	-2.425	-2.8125	-2.2938	-3.0646	-2.4646	-2.7562	-3.1188	-2.4375	-2.8833	-2.8542	-2.6937	-3.1125	-2.5979	-2.5958	-2.825	-2.5854	231.933	305.714	467.784	243.831	404.567	484.485	270.731	486.287	489.806	186.130	185.097	184.695	511.813	387.818	446.233	371.484	0.00073981	0.00059393	8.6384e-05	930.95	7.4424e-06	5.8612e-06	1044.7	231.99	8.6054e-06	2.7191e-06	295.13	104.95	78.169	27.621	1.3817e-05	39.506	0.0011607	0.0013489	0.00037475	852.33	1.4899e-05	1.5954e-05	959.38	215.27	1.6466e-05	1.7831e-05	275.1	97.502	73.238	26.092	1.9782e-05	37.272	334.287	244.976	413.168	188.062	368.704	350.007	187.615	193.690	424.354	369.198	193.008	197.349	199.035	202.771	371.744	200.471	-8191	255	
7681.016	1	1	0	0	0.16241	0.2608	0.16887	0.31067	0.22204	0.092474	0.1257	0.14999	0.17725	0.18489	0.11557	0.052846	0.10452	0.037716	0.29643	0.15874	-2.3438	-2.7208	-2.4646	-3.025	-2.7	-2.7604	-2.9208	-2.6083	-2.825	-2.7708	-2.5833	-3.0312	-3.0042	-2.6104	-3.0687	-2.4958	226.433	522.801	221.029	451.694	431.076	241.297	439.217	510.227	392.849	338.938	442.419	472.740	491.940	515.839	489.874	487.510	0.00070379	0.00070081	0.00025277	980.06	1.459e-05	9.7601e-06	1090	239.85	4.7236e-07	3.7412e-06	296.99	104.54	78.13	27.571	3.4307e-06	39.057	0.0016453	0.0019909	0.00056618	902.29	2.238e-05	2.3713e-05	1006.4	223.2	2.3455e-05	2.4813e-05	280.44	98.149	74.158	26.261	2.5434e-05	37.37	340.200	285.438	253.150	188.134	343.800	349.206	187.910	193.509	430.665	364.176	192.456	197.601	198.379	202.810	305.104	200.123	-8191	255	
7681.110	1	1	0	0	0.18743	0.063788	0.22243	0.35599	0.017374	0.093753	0.33695	0.10656	0.05588	0.14412	0.1573	0.25236	0.21283	0.18588	0.16873	0.12671	-2.2375	-2.7792	-2.3896	-3.0542	-2.7875	-2.7021	-2.9583	-2.8229	-2.7979	-3	-2.5583	-2.9417	-2.9729	-2.6208	-2.9646	-2.6	273.753	215.101	473.745	475.012	231.646	357.146	455.688	377.130	175.317	312.363	488.644	486.735	217.469	486.477	524.255	436.989	0.00066047	0.00049294	0.00021849	1006.8	4.8047e-06	2.8686e-06	1129.1	246.75	2.1711e-05	4.6249e-06	308.27	106.84	80.44	27.701	8.0269e-06	39.149	0.0020752	0.002524	0.000724	933.56	2.9194e-05	3.1707e-05	1047.1	233.02	3.1358e-05	3.3588e-05	292.39	101.37	77.007	26.772	3.4148e-05	38.032	321.677	219.900	209.982	188.316	204.677	285.183	187.446	192.999	373.566	209.616	192.142	197.221	198.763	202.708	330.432	200.267	-8191	255	
7681.231	1	1	0	0	0.19129	0.11464	0.13118	0.25913	0.33937	0.15964	0.2192	0.1279	0.052634	0.17003	0.14731	0.084207	0.13547	0.15465	0.18576	0.047503	-2.25	-2.8688	-2.4792	-2.925	-2.8833	-2.5	-3.2042	-2.8354	-2.8833	-3	-2.6125	-3.1646	-2.9271	-2.5187	-3.0708	-2.7917	304.721	392.790	228.655	519.929	464.303	218.895	506.430	469.644	454.126	193.632	231.038	436.918	499.494	279.887	402.636	468.796	0.00079848	0.00086316	2.855e-05	1027.8	1.7104e-05	4.7353e-06	1146.2	254.39	1.7255e-05	5.7242e-06	310.96	108.31	81.667	27.84	6.1848e-06	39.415	0.0027872	0.0034552	0.001006	963.17	4.0541e-05	4.2987e-05	1075.1	242.24	4.1822e-05	4.4235e-05	300.97	104.57	79.916	27.304	4.2927e-05	38.677	327.865	271.057	190.937	188.061	363.835	229.193	187.333	193.119	440.239	392.160	192.523	196.888	198.555	202.723	406.180	200.222	-8191	255	
7681.327	1	1	0	0	0.18268	0.19536	0.20588	0.19516	0.14877	0.12726	0.22926	0.13218	0.11712	0.31736	0.11782	0.32942	0.14661	0.21938	0.30283	0.082996	-2.0438	-2.8375	-2.5146	-2.7583	-2.9125	-2.4604	-2.95	-2.825	-2.4688	-2.9667	-2.4688	-2.7833	-2.975	-2.5729	-2.8271	-2.7896	303.398	332.000	292.852	484.557	443.785	278.297	435.846	487.560	373.901	496.006	198.473	224.277	191.383	182.593	292.855	186.008	0.00064399	0.0011457	0.00032876	1038.5	1.6253e-05	9.4707e-06	1145.2	254.81	8.567e-06	1.4447e-05	309.08	108.19	80.565	27.622	6.797e-06	39.38	0.0032408	0.0040197	0.0011134	970.76	4.227e-05	4.5154e-05	1074.9	242.19	4.2514e-05	4.5222e-05	299.51	104.05	79.009	27.187	4.2905e-05	38.477	323.487	264.698	392.851	188.050	384.330	326.648	187.545	193.309	348.845	330.072	192.164	197.227	198.167	202.955	462.117	200.353	-8191	255	
7681.399	1	1	0	0	0.083902	0.21837	0.21341	0.3138	0.092491	0.19662	0.19018	0.25752	0.28766	0.14475	0.26093	0.099734	0.097782	0.16546	0.07705	0.085139	-2.2167	-2.9146	-2.5312	-2.8063	-3.0792	-2.4729	-3.0708	-2.8479	-2.4542	-3	-2.7771	-2.7521	-2.775	-2.6458	-2.8646	-2.8271	344.353	416.077	326.729	521.102	176.994	337.899	426.319	185.327	310.439	308.390	199.974	523.054	490.394	508.174	229.494	460.376	0.0010602	0.0011043	0.00021979	1026.2	9.4243e-06	3.2721e-06	1138.6	250.93	3.2244e-06	1.2183e-05	306.4	106.38	79.26	27.118	1.3269e-05	39.007	0.0032679	0.0039457	0.0010992	964.29	4.1091e-05	4.4083e-05	1063.1	239.47	4.2054e-05	4.3295e-05	296.17	102.4	78.235	26.854	4.375e-05	38.147	320.881	529.299	185.825	188.120	448.066	415.510	187.384	193.426	387.564	351.020	191.909	197.078	198.286	203.349	266.369	199.980	-8191	255	
7681.495	1	1	0	0	0.095188	0.24708	0.079528	0.24101	0.15401	0.29229	0.26346	0.19348	0.22121	0.13755	0.12098	0.042996	0.14844	0.10961	0.19438	0.31529	-2.1917	-2.8875	-2.6146	-2.9313	-2.8771	-2.5146	-2.9375	-2.8146	-2.4333	-3.0208	-2.6354	-2.65	-2.9292	-2.5417	-2.7938	-2.8812	283.751	346.648	447.186	528.497	526.476	403.467	516.527	232.373	187.845	304.889	337.661	310.555	498.131	230.137	300.045	399.926	0.00062568	0.0009466	0.00011883	1033.4	6.4297e-06	6.734e-06	1139.6	253.06	1.2239e-05	9.1437e-06	309.52	107.24	79.95	27.315	1.5829e-05	38.926	0.0033687	0.0041948	0.0011598	971.99	4.3852e-05	4.6478e-05	1071.5	241.37	4.4206e-05	4.6174e-05	299.39	103.65	79.248	27.181	4.7071e-05	38.575	324.789	281.349	258.711	188.095	477.650	392.787	187.415	193.491	342.217	487.302	192.038	197.231	198.640	202.657	341.646	200.240	-8191	255	
7681.615	1	1	0	0	0.19117	0.20543	0.30925	0.086866	0.025898	0.13245	0.15925	0.23158	0.19283	0.086958	0.25472	0.079256	0.10534	0.12582	0.17278	0.14773	-1.8896	-2.9229	-2.6542	-2.7583	-2.9208	-2.5229	-2.95	-2.8479	-2.4938	-3.0687	-2.7396	-2.7	-3.0542	-2.7292	-2.7167	-3.1333	484.989	505.192	447.038	477.332	275.309	356.832	199.903	208.757	457.644	417.167	249.140	330.756	202.777	186.480	422.846	479.350	0.0006514	0.00052932	0.0002786	1037.8	7.7498e-06	1.9294e-05	1149.4	255	1.8854e-05	1.5757e-05	313.61	108.42	82.18	27.869	9.8184e-06	39.222	0.0035798	0.0043945	0.0012539	978.83	4.715e-05	5.1075e-05	1086.2	246.16	5.0123e-05	5.3584e-05	306.36	105.9	81.317	27.815	5.3009e-05	39.133	328.043	375.099	305.340	187.954	369.540	335.784	187.255	193.081	399.407	326.911	192.203	196.768	197.998	202.602	265.556	199.888	-8191	255	
7681.711	1	1	0	0	0.059737	0.021437	0.048587	0.1874	0.21277	0.16432	0.1324	0.11329	0.11756	0.19496	0.1743	0.33643	0.24257	0.26015	0.12521	0.23215	-2.0021	-2.9771	-2.7313	-2.6312	-2.9146	-2.6333	-2.8646	-3.0917	-2.5708	-3.0333	-2.8479	-2.7	-3.0396	-2.6604	-2.875	-3.0104	217.627	197.700	197.136	504.250	247.942	178.894	183.556	205.930	354.357	290.171	489.205	339.051	421.364	193.484	343.240	483.425	0.00071142	0.00035647	0.00014417	1050.2	9.8248e-06	9.0082e-06	1160.6	256.15	5.8051e-06	6.9426e-06	313.72	107.54	81.385	27.652	1.5284e-05	38.872	0.0039449	0.0048709	0.0013722	991.39	5.0737e-05	5.4176e-05	1091.7	246.67	5.0122e-05	5.4386e-05	305.54	105.32	81.035	27.599	5.296e-05	38.828	327.844	188.339	216.767	188.049	254.088	312.500	187.518	192.888	250.232	354.164	192.129	196.965	198.259	202.469	228.413	200.133	-8191	255	
7681.808	1	1	0	0	0.20783	0.13335	0.25842	0.3368	0.32417	0.082986	0.21425	0.16881	0.22454	0.13281	0.33502	0.11802	0.11336	0.16773	0.11596	0.11213	-2.0167	-2.8688	-2.9229	-2.5458	-2.9813	-2.6979	-2.9167	-3.1688	-2.3958	-2.8292	-3.0333	-2.5458	-3.1708	-2.7333	-2.5979	-3.0438	478.892	479.127	378.742	201.186	215.498	188.834	422.717	346.416	230.176	247.500	525.927	436.142	409.165	449.528	228.108	445.735	0.00059537	0.00013466	0.00020757	1049	1.2805e-05	1.4501e-05	1152.7	254.25	1.2525e-05	7.7189e-06	307.01	106.5	80.287	27.148	9.6569e-06	38.887	0.0038779	0.00476	0.0013444	985.28	4.8919e-05	5.1945e-05	1082.8	243.58	4.8092e-05	5.082e-05	299.35	103.52	79.527	27.204	4.8701e-05	38.459	327.954	501.829	208.217	187.974	293.321	346.869	187.384	193.022	406.507	251.226	192.103	197.492	198.636	202.957	304.725	200.187	-8191	255	
7681.904	1	1	0	0	0.13103	0.2449	0.085652	0.030345	0.067642	0.18625	0.14551	0.13953	0.16629	0.18441	0.31108	0.14157	0.1524	0.11661	0.15042	0.10355	-2.1	-2.75	-2.7917	-2.5521	-2.9521	-2.75	-2.6333	-3.0042	-2.7542	-2.7938	-3.1312	-2.6167	-2.7458	-2.6917	-2.6958	-3.2083	525.458	361.471	468.641	202.253	508.673	409.188	473.875	474.946	441.815	177.948	492.019	499.170	316.382	188.097	241.169	454.614	0.0007141	0.00024432	0.00028297	1040.5	1.593e-05	6.5271e-06	1155.5	254.18	9.3631e-06	5.5024e-06	310.11	107.45	80.295	27.606	8.9079e-06	38.898	0.0036829	0.0045389	0.0012717	978.81	4.866e-05	5.0836e-05	1080.8	244.13	4.9643e-05	5.2354e-05	301.58	104.54	80.021	27.484	4.9966e-05	38.74	334.738	443.465	289.448	187.852	361.595	431.379	187.706	193.494	371.013	443.923	192.376	196.853	198.000	202.590	352.024	199.810	-8191	255	
7682.000	1	1	0	0	0.37563	0.085471	0.27875	0.47137	0.27864	0.14904	0.27802	0.17733	0.2096	0.10242	0.054261	0.10843	0.3184	0.26618	0.20169	0.061175	-2.0521	-2.7521	-2.6312	-2.5292	-2.9104	-2.8208	-2.7979	-3.0812	-2.6354	-2.8667	-3.1521	-2.6813	-2.8271	-2.9042	-2.5312	-3.1354	296.479	274.129	383.926	493.462	273.040	283.687	472.011	387.131	505.276	330.447	369.160	296.885	454.496	210.884	303.492	520.493	0.00059173	0.001928	0.00013583	1045.6	2.6969e-05	1.2126e-05	1161.2	257.53	2.5357e-06	2.7277e-06	311.82	108.12	81.763	28.044	1.0251e-05	39.526	0.0038187	0.0047474	0.0013333	984.85	5.1689e-05	5.5622e-05	1096.6	248.5	5.2921e-05	5.6445e-05	304.97	105.93	81.61	27.946	5.584e-05	39.47	318.264	252.881	310.447	187.947	298.047	316.366	187.522	193.014	358.724	361.125	192.266	196.728	198.542	202.507	451.628	199.786	-8191	255	
7682.096	1	1	0	0	0.12913	0.23794	0.21375	0.16117	0.048019	0.13806	0.057837	0.32006	0.085298	0.11876	0.11171	0.26272	0.34217	0.065964	0.16186	0.1538	-2.3021	-2.4583	-3.0708	-2.7604	-2.9354	-3.075	-2.5292	-2.9938	-2.8542	-2.8229	-2.9958	-2.6688	-2.7833	-2.95	-2.5187	-2.8854	457.790	394.956	453.665	447.716	378.548	303.256	248.095	430.101	379.621	509.380	474.331	456.993	501.972	420.589	306.502	512.454	0.0008617	0.00021105	0.00010478	1062.1	2.3096e-05	1.2566e-05	1174.4	259.53	2.1573e-05	2.001e-05	315.56	109.31	82.797	28.12	1.335e-05	39.382	0.0043027	0.0054081	0.0014945	1007.4	5.7878e-05	6.1373e-05	1109.5	251.9	5.7001e-05	5.9497e-05	309.99	107.22	82.887	28.223	5.758e-05	39.576	336.005	278.911	424.613	188.477	302.741	372.425	187.536	192.939	386.396	314.447	192.271	197.224	198.118	202.265	285.157	199.970	-8191	255	
7682.215	1	1	0	0	0.045799	0.14592	0.31092	0.21191	0.11379	0.07783	0.19183	0.25831	0.13642	0.096945	0.19816	0.040403	0.10236	0.16004	0.035677	0.11878	-2.3583	-2.7333	-3.0625	-2.6792	-2.7896	-3.0417	-2.6042	-3.0979	-2.7562	-2.4396	-3.1583	-2.8812	-2.6729	-2.8896	-2.5979	-2.8958	471.282	291.357	422.046	446.364	458.512	269.918	460.309	489.672	275.003	424.437	406.682	283.163	296.731	451.689	203.938	514.758	0.0006756	0.00069076	0.00020918	1059.7	1.1362e-05	1.1334e-05	1160.4	260.51	2.4739e-05	1.8346e-06	314.64	108.72	81.653	28.015	7.2776e-06	38.937	0.0043927	0.005414	0.0015021	1004.2	5.7122e-05	6.0466e-05	1104.5	252.28	5.7911e-05	6.0001e-05	309.38	106.44	82.056	27.867	5.3386e-05	38.948	321.279	457.777	240.014	188.022	525.962	290.636	187.461	192.965	322.169	230.555	192.182	196.888	198.607	202.787	297.759	200.187	-8191	255	
7682.311	1	1	0	0	0.12671	0.15368	0.34828	0.16726	0.1351	0.18724	0.073838	0.24828	0.13354	0.061694	0.11318	0.16292	0.058407	0.15609	0.12696	0.13276	-2.2938	-2.425	-2.9542	-2.9083	-2.8729	-3.0583	-2.4625	-2.9125	-2.9313	-2.6208	-3.1188	-2.7646	-2.5896	-3.0875	-2.4146	-2.9313	222.217	294.015	392.573	481.379	514.868	386.328	305.214	450.513	332.731	458.606	177.646	189.668	200.292	194.347	293.506	513.580	0.00074904	0.00087586	0.00019386	1046.1	4.442e-06	3.5467e-06	1156.2	256.33	1.1706e-05	4.6223e-06	314.74	108.66	82.748	27.977	1.7459e-05	39.799	0.0039286	0.004864	0.0013189	988.05	4.9812e-05	5.3306e-05	1088.9	247.29	5.2157e-05	5.4688e-05	307.16	106.39	82.473	27.953	5.4487e-05	39.524	348.287	313.730	265.204	188.376	418.079	411.714	187.718	192.980	345.806	284.897	192.282	196.929	197.765	202.743	284.850	200.123	-8191	255	
7682.407	1	1	0	0	0.1115	0.18382	0.39528	0.17847	0.24648	0.054456	0.24031	0.099064	0.10745	0.038266	0.25707	0.21079	0.026685	0.30579	0.073912	0.098443	-2.3979	-2.4938	-2.9417	-2.9167	-2.625	-3.0146	-2.8229	-2.7854	-2.9583	-2.5979	-3.2792	-2.7667	-2.7396	-3.1125	-2.5417	-2.7229	244.575	367.042	364.265	368.119	232.840	317.472	507.561	271.002	483.400	188.314	507.429	438.623	339.882	288.085	224.948	422.168	0.00063523	0.0016412	0.00049981	1059	1.2992e-05	1.3183e-05	1169.3	262.58	1.1071e-05	7.545e-06	322.52	111.23	84.884	28.578	9.0543e-06	39.9	0.0041575	0.0051027	0.0014306	1002.8	5.5229e-05	5.9698e-05	1108.4	255.19	6.1081e-05	6.6185e-05	319.17	110.67	86.899	29.308	7.3526e-05	41.067	341.983	296.300	181.660	188.444	292.506	290.839	187.309	193.112	406.132	297.810	192.314	196.946	197.449	202.516	316.849	200.077	-8191	255	
7682.503	1	1	0	0	0.14384	0.10324	0.03597	0.1453	0.082732	0.24124	0.18127	0.1549	0.15422	0.30875	0.12292	0.21502	0.29455	0.10331	0.10899	0.070728	-2.4354	-2.6083	-2.8042	-2.7604	-2.7354	-3.1188	-2.6854	-2.9292	-3.1083	-2.7375	-3.1021	-3.05	-2.475	-3.0563	-2.8083	-2.8208	476.901	521.665	354.886	479.375	259.706	518.188	471.305	267.984	356.696	266.418	534.039	436.402	175.208	502.163	484.343	497.238	0.00078239	0.0012201	0.00058029	1123.4	5.0897e-06	5.3896e-06	1237.7	275.55	9.8238e-06	7.518e-07	331.43	113.86	88.647	29.144	2.1442e-05	39.93	0.0056799	0.0072705	0.0020627	1076.7	7.9392e-05	8.3939e-05	1186.7	273.87	8.1881e-05	8.6826e-05	336.19	115.87	92.13	30.507	9.059e-05	42.057	325.589	400.764	341.704	188.088	249.052	424.481	187.585	192.757	379.676	203.229	191.967	196.530	197.447	202.403	220.538	199.949	-8191	255	
7682.624	1	1	0	0	0.16161	0.067198	0.13483	0.10579	0.25983	0.18254	0.2885	0.25809	0.090388	0.19479	0.084472	0.10249	0.12925	0.25385	0.11132	0.07135	-2.5729	-2.5521	-2.7083	-2.9729	-2.6875	-2.9896	-2.8021	-2.8812	-3.1354	-2.5625	-3.0896	-2.9562	-2.5812	-3.0792	-2.6937	-2.6813	406.159	382.801	300.192	517.339	445.389	315.378	469.823	487.565	320.062	278.813	484.349	454.457	340.492	385.972	292.984	205.516	0.00079517	0.0010429	0.00031238	1163.1	2.2289e-05	1.5897e-05	1271.9	294.74	2.8407e-05	7.0858e-06	349.96	122.38	96.684	31.109	1.8278e-05	42.013	0.0068959	0.0086798	0.0024905	1130	9.5789e-05	0.00010431	1243.8	295.52	0.0001075	0.00011658	366.1	127.3	104.4	34.043	0.00012962	46.495	328.339	222.831	502.188	188.310	317.242	309.747	187.667	192.545	280.845	401.310	191.499	196.088	197.227	201.208	329.373	199.602	-8191	255	
7682.696	1	1	0	0	0.095473	0.069872	0.12795	0.057825	0.14903	0.11052	0.077135	0.16819	0.086853	0.32891	0.10534	0.089678	0.14447	0.34754	0.16605	0.056384	-2.4542	-2.5083	-2.5708	-3.1667	-2.4625	-3.0896	-2.9479	-2.5625	-2.9333	-2.7396	-2.7979	-3.175	-2.5708	-2.9917	-2.6875	-2.8875	177.585	402.876	289.936	329.843	511.367	399.391	469.582	530.460	420.541	430.551	519.931	243.559	381.456	502.388	305.894	501.474	0.00043555	0.00066737	0.00035962	1277.2	1.7854e-05	1.4542e-05	1383.1	330.59	1.7505e-05	2.3604e-05	381.93	128.66	103.38	33.394	1.4656e-05	43.492	0.010103	0.013021	0.0037552	1270	0.00014629	0.00015877	1382.1	343.7	0.00015328	0.00016216	409.26	139.5	115.42	37.503	0.00016062	49.373	349.704	401.751	361.040	188.650	382.738	218.453	187.744	192.676	359.665	250.237	191.787	195.690	196.876	200.437	414.141	199.405	-8191	255	
7682.792	1	1	0	0	0.31787	0.28691	0.2794	0.17076	0.19606	0.061637	0.037213	0.26248	0.16801	0.29116	0.24143	0.025379	0.080116	0.11318	0.050292	0.0997	-2.6542	-2.7083	-2.4833	-3.1396	-2.5771	-2.9688	-3.0938	-2.625	-3.0771	-2.7833	-2.8542	-3.2438	-2.5854	-2.8104	-2.9792	-2.6375	444.176	220.381	436.345	528.828	522.802	497.866	340.618	451.594	212.615	355.152	526.878	375.392	256.978	198.211	258.773	345.346	0.0010295	0.00036635	0.00056636	1284.8	1.5546e-05	2.1357e-06	1371	323.97	2.0941e-05	1.7266e-05	363.02	122.92	96.824	30.2	1.4306e-05	40.451	0.011853	0.014942	0.0041535	1285.7	0.00015067	0.00015836	1365.2	332.61	0.00014058	0.00014695	384.9	129.48	104.14	32.782	0.00011293	43.485	339.824	348.433	398.546	188.241	259.222	288.320	187.720	192.144	310.675	438.388	191.204	195.911	197.480	201.383	374.267	200.257	-8191	255	
7682.912	1	1	0	0	0.14095	0.12955	0.071545	0.17669	0.21452	0.2042	0.16764	0.06398	0.15709	0.03878	0.14784	0.11577	0.53001	0.19769	0.13358	0.078233	-2.5479	-2.5979	-2.6458	-3.1271	-2.5333	-2.8688	-2.9313	-2.3875	-3.0104	-2.75	-2.825	-3.1854	-2.6646	-2.7875	-2.9604	-2.4854	184.418	234.287	497.888	384.393	507.148	438.662	459.664	482.966	209.301	519.056	482.658	409.169	465.478	273.412	422.498	429.109	0.00077539	0.0016274	8.05e-05	1172.3	1.4316e-05	5.0539e-06	1272.9	289.62	1.0073e-05	1.7548e-05	336.88	117.84	91.072	29.113	2.5442e-05	40.402	0.0076883	0.0094172	0.0025821	1135.8	9.5117e-05	0.00010163	1235.5	288.81	9.2935e-05	9.7851e-05	344.81	119.4	94.858	30.581	8.6442e-05	41.988	331.449	192.525	325.755	188.112	298.003	489.997	187.570	192.805	312.914	325.673	191.630	196.361	197.624	202.266	478.363	199.396	-8191	255	
7683.007	1	1	0	0	0.0066838	0.14278	0.23249	0.25871	0.034618	0.13993	0.22969	0.26749	0.22311	0.1227	0.20444	0.23327	0.1768	0.15562	0.18336	0.19479	-2.5938	-2.6437	-2.4562	-3.1229	-2.4354	-2.6167	-3.1583	-2.5583	-2.9833	-2.6625	-2.5938	-3.0771	-2.6875	-2.6042	-2.8937	-2.6667	451.909	419.343	349.183	503.830	300.253	518.179	425.208	461.704	459.437	227.845	216.269	423.504	231.399	377.364	276.503	224.262	0.00071211	0.0019022	0.00018118	1137.2	2.6011e-05	6.1543e-06	1223.3	276.36	7.2045e-06	1.3649e-05	328.28	114.45	89.3	28.975	2.6138e-05	40.249	0.0063202	0.0078636	0.002142	1090.8	7.8114e-05	8.1202e-05	1174.3	271.74	7.4851e-05	7.7923e-05	329.59	114.3	90.925	29.78	7.5524e-05	41.253	333.860	212.805	373.976	188.179	336.676	370.630	187.473	192.718	187.677	180.999	192.029	196.636	197.971	202.210	272.825	199.433	-8191	255	
7683.103	1	1	0	0	0.24885	0.31314	0.28891	0.16672	0.10407	0.20007	0.28561	0.14835	0.037044	0.18806	0.11257	0.061561	0.1874	0.18183	0.09191	0.25564	-2.3708	-2.7333	-2.3542	-2.9646	-2.6333	-2.7062	-3.1375	-2.5646	-2.9146	-2.8271	-2.5583	-2.8979	-2.6542	-2.5625	-2.8688	-2.5542	311.545	501.200	253.590	500.886	356.074	510.845	516.032	520.341	479.427	303.703	365.650	262.052	465.708	190.013	450.555	417.891	0.00068398	0.00017363	0.00041903	1120.6	2.775e-05	2.3162e-06	1217.2	274.23	1.3936e-05	6.8956e-06	324.53	111.6	84.929	28.252	8.8016e-06	39.536	0.0057031	0.0070676	0.0019349	1069.5	7.1955e-05	7.4955e-05	1162.2	267.66	6.7074e-05	6.8551e-05	321.41	110.56	85.953	28.45	5.7014e-05	39.552	324.876	186.806	349.811	188.070	297.825	190.286	187.524	193.070	462.348	484.907	192.117	196.953	198.108	202.369	266.303	199.660	-8191	255	
7683.199	1	1	0	0	0.15737	0.28704	0.16507	0.14632	0.12899	0.19212	0.056963	0.026088	0.17842	0.20115	0.1033	0.077214	0.14985	0.27235	0.09252	0.1894	-2.3375	-2.9708	-2.3042	-3.0187	-2.7375	-2.6458	-3.0958	-2.5917	-2.7521	-3.1292	-2.5062	-2.8396	-2.8646	-2.5542	-2.8167	-2.5458	319.881	308.802	429.267	525.361	190.975	459.136	206.063	298.904	298.390	286.463	180.054	333.405	473.505	210.080	403.766	377.881	0.00093017	0.00073276	0.00035618	1068.4	1.1487e-05	1.0647e-05	1167.3	259.17	2.018e-05	8.4755e-06	315.21	109.12	82.45	28.008	5.0873e-06	39.621	0.0040904	0.0049012	0.0013337	1004.6	4.8736e-05	5.0465e-05	1095.6	248.44	4.7849e-05	4.8273e-05	304.93	105.14	81.146	27.685	4.5154e-05	39.007	320.102	301.961	325.773	188.084	495.327	391.290	187.333	192.978	318.976	408.068	191.893	197.429	198.260	202.681	177.696	200.107	-8191	255	
7683.295	1	1	0	0	0.10068	0.039954	0.10648	0.27149	0.030227	0.12579	0.054625	0.11575	0.11978	0.33062	0.25273	0.28242	0.16463	0.24479	0.091217	0.24743	-2.2021	-2.8917	-2.2354	-2.9667	-2.7625	-2.5708	-3.0167	-2.6937	-2.7271	-3.1688	-2.3812	-2.9188	-2.8396	-2.4896	-2.8563	-2.6562	476.787	404.007	265.711	196.125	477.244	364.592	402.659	195.315	263.595	223.722	442.897	508.286	340.695	430.624	510.847	468.642	0.00071555	0.00010309	0.00013977	1042.4	1.4122e-05	6.0769e-06	1142.3	255.24	1.2026e-05	1.0247e-05	310.29	108.23	81.112	28.066	9.9164e-06	39.699	0.0033684	0.0040949	0.0011063	978.36	4.0985e-05	4.2768e-05	1071.2	241.66	3.837e-05	3.9427e-05	297.25	103.6	78.901	27.423	3.6533e-05	38.684	336.191	331.268	200.586	187.940	350.219	358.366	186.942	193.024	374.414	327.417	192.073	196.941	198.102	202.498	306.763	200.035	-8191	255	
7683.391	1	1	0	0	0.14415	0.1688	0.217	0.11911	0.29227	0.23536	0.23363	0.24114	0.15086	0.18232	0.068103	0.18781	0.16743	0.046403	0.0842	0.071411	-2.0792	-2.9708	-2.4583	-2.7417	-2.75	-2.5292	-2.8979	-2.7146	-2.5479	-2.8458	-2.6042	-2.6771	-3.0083	-2.4396	-2.8979	-2.7188	258.714	434.601	324.691	508.495	254.220	491.250	177.423	266.114	453.576	297.718	392.969	385.327	351.465	237.935	364.014	389.742	0.00076701	0.00045868	0.00030168	1022.2	8.5006e-06	1.1302e-05	1122.1	248.04	1.3955e-05	9.3934e-06	298.15	105.6	78.918	27.782	1.1835e-05	39.363	0.0028004	0.0033385	0.00090779	952.58	3.3235e-05	3.4067e-05	1038.2	232.49	3.0269e-05	3.0225e-05	283.71	99.673	75.253	26.549	2.5969e-05	37.578	326.340	303.537	329.886	188.072	280.798	293.557	187.241	193.628	328.993	311.652	192.422	197.564	198.686	203.042	351.318	200.493	-8191	255	
7683.488	1	1	0	0	0.33385	0.15069	0.12174	0.34309	0.18437	0.094764	0.12419	0.15366	0.097874	0.2775	0.079314	0.14548	0.073864	0.095074	0.14592	0.17537	-2.2375	-2.8646	-2.6146	-2.8	-2.9854	-2.45	-2.8563	-2.8688	-2.475	-2.8958	-2.7625	-2.6833	-3.1917	-2.6521	-2.8417	-2.9354	434.602	410.237	388.764	416.675	363.234	218.186	454.630	434.813	252.405	424.145	202.758	485.656	243.788	479.768	190.744	505.348	0.0007841	0.00052805	5.2214e-05	988.1	1.0982e-05	7.739e-06	1087.1	240.23	1.1517e-05	6.3313e-06	297.16	105.24	77.842	27.578	2.7863e-06	39.506	0.0019598	0.002304	0.00064068	912.78	2.3907e-05	2.4548e-05	1001.2	223.91	2.2998e-05	2.409e-05	278.09	98.405	74.112	26.359	2.3922e-05	37.676	316.124	324.479	231.202	188.072	326.099	318.944	187.295	193.694	343.788	498.390	192.253	196.967	198.613	202.426	352.711	199.856	-8191	255	
7683.584	1	1	0	0	0.11727	0.33334	0.23817	0.15772	0.10189	0.22354	0.39273	0.16606	0.20589	0.1508	0.26413	0.20217	0.22564	0.22168	0.2555	0.13201	-1.9979	-3.1	-2.6458	-2.8625	-2.8563	-2.6208	-2.9125	-2.8979	-2.6854	-2.8063	-2.6667	-2.5292	-2.9542	-2.4437	-2.7208	-2.8896	384.120	467.225	432.798	471.615	506.893	416.626	481.236	183.986	487.228	392.128	216.779	470.110	192.878	472.782	178.399	427.933	0.00079815	0.00066332	0.00018366	990.97	4.4455e-06	6.1009e-06	1083.8	238.2	1.0577e-05	4.7915e-06	297.02	104.72	78.309	27.727	1.2508e-06	39.801	0.0018947	0.0021952	0.00061136	911.95	2.2772e-05	2.3337e-05	997.67	221.93	2.185e-05	2.2489e-05	277.05	98.095	73.68	26.388	2.1408e-05	37.714	343.602	247.337	323.652	188.180	406.639	404.714	187.073	193.449	362.793	339.201	192.414	197.457	198.920	202.841	253.392	200.042	-8191	255	
7683.704	1	1	0	0	0.21933	0.19162	0.31717	0.11665	0.12336	0.13637	0.19594	0.024238	0.099294	0.30707	0.1515	0.29005	0.35627	0.12642	0.085747	0.24436	-2.1167	-2.9	-2.7167	-2.4854	-2.925	-2.3896	-3.0333	-2.9854	-2.6021	-2.8625	-2.65	-2.5958	-3.1917	-2.6042	-2.65	-2.9938	512.052	423.729	429.002	501.187	440.412	279.900	464.362	487.082	221.306	247.945	501.448	200.837	186.397	423.187	320.393	236.226	0.00080891	0.00017359	0.00016779	970.1	6.7605e-07	8.8065e-06	1065.3	235.49	6.4849e-06	3.9838e-06	293.48	105.41	78.168	27.798	8.5895e-06	39.958	0.0016564	0.0019612	0.00053557	892.32	1.9668e-05	2.0689e-05	982.17	218	1.8989e-05	1.906e-05	274.35	98.139	73.424	26.273	1.7958e-05	37.54	326.239	388.732	232.404	188.319	467.077	369.010	187.397	193.698	346.091	331.140	192.766	197.506	199.343	202.547	335.796	200.188	-8191	255	
7683.801	1	1	0	0	0.13773	0.092558	0.22673	0.13092	0.11335	0.13333	0.38079	0.27902	0.090728	0.1575	0.10928	0.096287	0.25139	0.26521	0.049451	0.24064	-1.9417	-2.9229	-2.6771	-2.7792	-3.0708	-2.5229	-2.7687	-3.1542	-2.3479	-2.8958	-2.6917	-2.6292	-2.9833	-2.7521	-2.7979	-3.0167	465.055	514.679	188.250	483.888	308.812	231.844	506.094	467.571	527.745	219.176	205.026	481.994	215.547	481.468	192.068	470.714	0.00058261	6.5134e-05	0.00012249	952.98	1.7873e-05	1.1075e-06	1053.1	233.1	7.2537e-06	4.3819e-06	290.14	104.17	77.92	27.927	7.117e-06	39.493	0.0013934	0.0016512	0.00045366	875.17	1.666e-05	1.7665e-05	968.28	216	1.6644e-05	1.6976e-05	270.9	97.124	72.731	26.191	1.6542e-05	37.194	335.102	212.015	264.887	188.079	326.434	522.209	187.726	194.034	290.281	258.714	193.010	197.731	198.675	202.995	308.885	200.132	-8191	255	
7683.897	1	1	0	0	0.37029	0.0551	0.083942	0.074392	0.043888	0.18484	0.017086	0.17193	0.2357	0.23581	0.23169	0.1441	0.18535	0.13317	0.13303	0.15126	-1.9062	-2.8542	-2.7792	-2.4562	-2.9958	-2.6188	-2.4708	-2.9375	-2.4833	-2.7479	-2.7354	-2.5542	-2.9688	-2.7313	-2.5417	-3.1458	198.578	470.747	483.760	352.756	339.775	238.167	532.985	227.367	425.592	361.169	220.380	304.345	178.643	495.025	338.723	366.893	0.0008394	0.00041734	0.00031156	942.17	6.0608e-06	3.2435e-06	1033.5	229.96	2.7716e-07	7.4132e-06	288.56	104.25	77.232	27.672	3.7841e-06	39.518	0.0012853	0.0014931	0.00041144	862.75	1.5395e-05	1.6386e-05	953.07	213.61	1.5262e-05	1.5991e-05	269.03	97.014	72.52	26.173	1.6182e-05	37.294	324.693	262.501	298.015	188.017	429.755	287.936	187.696	193.374	208.322	347.878	192.509	197.755	199.156	202.745	320.678	200.462	-8191	255	
7683.993	1	1	0	0	0.15263	0.12032	0.10116	0.33001	0.16753	0.048805	0.16295	0.34108	0.11904	0.049831	0.03582	0.1543	0.21159	0.21645	0.21407	0.10249	-1.8979	-2.6958	-2.8542	-2.5354	-2.8583	-2.7625	-2.5083	-2.9208	-2.775	-2.5979	-3.0292	-2.6271	-2.8125	-2.8792	-2.55	-3.0938	458.472	466.165	450.302	494.284	408.654	460.198	213.812	488.924	415.816	336.406	234.323	206.734	365.859	175.632	474.626	313.970	0.00056511	0.00061245	3.7647e-05	948.7	6.0269e-06	8.5129e-06	1047.4	231.69	1.0471e-05	2.1219e-06	291.37	105.41	76.739	27.977	1.2978e-05	39.993	0.001269	0.0014717	0.00040562	866.9	1.5272e-05	1.6299e-05	959.67	214.07	1.5582e-05	1.5891e-05	270.3	97.383	72.197	26.235	1.6045e-05	37.452	333.273	232.826	215.342	188.177	302.433	304.326	187.402	193.201	318.268	227.870	192.928	197.622	198.942	202.838	303.789	200.329	-8191	255	
7684.089	1	1	0	0	0.16766	0.1581	0.052583	0.17989	0.15844	0.03388	0.089287	0.1929	0.17385	0.17251	0.20409	0.17973	0.11111	0.05959	0.012791	0.11148	-2.1146	-2.7021	-2.8833	-2.4125	-2.7375	-3.0208	-2.4375	-3.0062	-2.5687	-2.6854	-3.0667	-2.5625	-2.8458	-2.9167	-2.5896	-2.9729	382.141	388.248	281.016	533.482	207.492	532.846	418.996	191.874	180.338	298.051	440.107	194.973	416.240	205.009	406.185	508.557	0.00076154	0.00038061	0.0001568	952.42	1.0859e-05	2.7551e-06	1056.7	234.61	1.3131e-05	2.995e-06	294.54	105.24	77.626	27.881	6.8644e-06	39.703	0.0013142	0.0014936	0.00041138	878.2	1.5906e-05	1.7109e-05	971.83	217.55	1.6095e-05	1.7116e-05	273.8	97.704	72.922	26.37	1.6388e-05	37.579	343.755	246.845	464.606	188.197	365.300	284.212	187.486	193.750	332.870	457.565	192.577	197.628	198.590	202.947	316.189	200.227	-8191	255	
7684.183	1	1	0	0	0.31354	0.23328	0.14972	0.041946	0.28855	0.21143	0.4569	0.21092	0.21261	0.097588	0.24203	0.09657	0.12951	0.18292	0.11484	0.037188	-2.2438	-2.4417	-2.775	-2.5458	-2.7	-2.8146	-2.5021	-2.8688	-2.6792	-2.5896	-3.0104	-2.5333	-2.8167	-2.8896	-2.5667	-3.0896	412.205	304.020	394.833	440.986	466.232	226.166	507.770	434.217	302.831	297.236	465.559	415.429	419.588	358.122	475.343	311.354	0.00073941	0.00068818	0.00030728	956.89	6.8215e-06	5.5308e-06	1062.7	233.56	1.3096e-06	8.7974e-06	291.59	105.08	78.04	27.732	1.6611e-05	39.823	0.0013438	0.0015533	0.00041998	879.79	1.66e-05	1.7027e-05	975.6	217.57	1.6822e-05	1.7277e-05	273.24	97.672	73.173	26.329	1.7495e-05	37.382	327.845	295.517	304.565	188.137	376.648	305.571	187.974	193.663	429.018	236.415	192.408	197.637	198.553	202.997	334.611	200.054	-8191	255	
7684.304	1	1	0	0	0.32272	0.25972	0.2542	0.06552	0.07601	0.12634	0.18609	0.31657	0.21014	0.18059	0.19697	0.186	0.16365	0.07401	0.17582	0.19636	-2.1771	-2.5125	-3.0396	-2.7542	-2.7667	-2.9354	-2.5333	-2.9479	-2.6813	-2.6208	-3.0479	-2.5438	-2.6958	-2.8521	-2.3771	-2.8917	274.693	264.204	366.622	422.274	528.937	513.418	501.804	490.229	465.033	473.687	338.942	216.101	192.936	262.123	237.499	210.474	0.00079277	0.00088896	0.00020773	961.61	4.0255e-06	1.7473e-06	1064.4	236.73	3.3055e-06	2.3585e-06	293.34	105.84	78.751	28.319	7.7521e-06	39.946	0.001369	0.0015924	0.00044096	882.59	1.7102e-05	1.7643e-05	976.29	218.45	1.6521e-05	1.7508e-05	273.81	98.18	73.643	26.603	1.7054e-05	37.626	332.882	242.424	280.590	188.232	337.563	284.517	187.472	193.049	396.141	442.703	192.481	197.347	199.024	203.087	391.016	200.264	-8191	255	
7684.400	1	1	0	0	0.24092	0.068953	0.074589	0.092301	0.24697	0.15102	0.2758	0.1834	0.23695	0.16308	0.12399	0.28992	0.053831	0.18149	0.15462	0.24346	-2.3187	-2.5771	-3.2	-2.7583	-2.65	-3.1562	-2.6063	-2.8667	-2.6229	-2.4917	-3.0792	-2.8229	-2.6875	-2.9688	-2.6292	-2.8354	282.676	211.468	459.364	414.466	306.395	274.803	530.291	486.881	348.102	333.527	519.502	193.736	346.583	400.993	216.295	531.970	0.00078165	0.00012187	0.00012118	963.96	6.9602e-06	7.2913e-06	1063.6	236.77	5.4009e-06	3.3281e-06	296.69	106.34	80.334	28.458	2.7185e-06	40.025	0.0013893	0.0015868	0.00043504	883.59	1.6913e-05	1.7756e-05	980.82	220.41	1.7353e-05	1.8124e-05	277.59	99.13	74.668	26.692	1.775e-05	37.894	318.138	477.237	277.514	188.079	342.210	246.485	187.507	193.438	351.696	355.977	192.701	197.101	198.929	203.268	351.384	200.070	-8191	255	
7684.496	1	1	0	0	0.14673	0.1184	0.14388	0.22011	0.21996	0.21659	0.16337	0.22267	0.14185	0.25179	0.29363	0.30266	0.12909	0.11258	0.27064	0.15676	-2.4188	-2.3979	-2.8021	-2.7833	-2.5083	-3.0292	-2.6271	-2.8458	-2.9271	-2.3937	-3.0333	-2.8	-2.5583	-3.1083	-2.5979	-2.7958	489.195	422.618	254.640	518.422	265.931	462.365	423.636	228.313	364.531	452.242	337.798	175.792	534.981	491.837	189.397	181.023	0.00087301	0.00063586	0.00020098	966.87	1.1404e-05	4.5444e-06	1075.8	237.11	1.0608e-05	1.202e-05	298.71	106.12	79.768	28.178	2.1298e-06	39.98	0.0014234	0.0016701	0.00047015	892.03	1.7701e-05	1.7836e-05	986.71	220.99	1.7388e-05	1.8466e-05	278.77	99.068	74.453	26.725	1.8097e-05	37.834	326.990	277.957	313.271	187.730	344.068	335.983	187.486	193.745	343.835	297.925	192.573	197.498	198.235	202.947	348.091	200.238	-8191	255	
7684.568	1	1	0	0	0.2106	0.19089	0.053113	0.32917	0.02367	0.19521	0.20752	0.20564	0.25721	0.076063	0.0546	0.14647	0.12402	0.26303	0.18378	0.16013	-2.4104	-2.3604	-2.9146	-2.9292	-2.5792	-3.1354	-2.7479	-2.9354	-2.9396	-2.4375	-3.075	-2.7667	-2.5187	-2.9771	-2.5729	-2.7438	517.346	507.272	486.296	175.706	247.316	381.779	438.847	497.744	422.293	358.842	202.937	194.076	534.923	231.886	359.189	339.212	0.0006704	0.00046792	0.00028513	976.99	9.3256e-06	3.5912e-06	1079.5	239.88	6.4145e-06	7.2932e-06	296.1	105.02	78.114	28.152	1.1497e-05	39.768	0.0014619	0.0016971	0.00048126	897.05	1.8521e-05	1.9171e-05	990.66	221.88	1.8071e-05	1.896e-05	277.37	98.152	73.809	26.503	1.8587e-05	37.476	335.331	237.329	237.649	187.911	267.624	479.888	187.266	193.648	336.867	332.095	192.221	197.276	198.862	202.462	300.071	200.214	-8191	255	
7684.689	1	1	0	0	0.16042	0.3022	0.12128	0.27594	0.10894	0.35509	0.14126	0.17105	0.041624	0.14369	0.24548	0.31219	0.068785	0.14437	0.053773	0.19739	-2.4292	-2.325	-2.8167	-2.8312	-2.5167	-2.9688	-2.8458	-2.7687	-3.1083	-2.5563	-2.7604	-3.0438	-2.5333	-3.0292	-2.7646	-2.6792	295.162	464.557	253.953	519.469	521.730	532.853	424.504	215.058	329.653	476.149	461.423	469.534	272.929	373.426	458.995	367.085	0.00078376	0.000468	0.00011041	967.74	8.2551e-06	7.7975e-06	1077.4	239.24	1.1734e-05	8.5943e-06	295.77	104.75	78.179	27.592	3.8633e-06	39.453	0.0015124	0.0017313	0.00049128	892.87	1.8109e-05	1.8828e-05	985.73	221.34	1.8351e-05	1.9157e-05	276.45	97.861	73.705	26.282	1.8429e-05	37.296	327.760	218.431	314.481	187.975	370.866	294.042	187.340	193.475	342.127	340.122	192.196	197.456	199.249	203.172	347.329	200.077	-8191	255	
7684.785	1	1	0	0	0.11051	0.18499	0.25421	0.19405	0.10087	0.04762	0.22882	0.33364	0.061949	0.063448	0.17776	0.20984	0.21844	0.082441	0.27182	0.21338	-2.5375	-2.4646	-2.6771	-2.9979	-2.4896	-2.9292	-2.8542	-2.5917	-3.0271	-2.4958	-2.9708	-2.9896	-2.4417	-2.85	-2.7979	-2.675	423.227	228.142	245.740	195.926	453.883	501.286	396.740	435.676	181.351	228.933	487.624	190.153	199.740	529.165	191.488	258.940	0.00081667	0.00027424	0.00012834	968.81	7.0784e-06	5.201e-06	1066.6	238.49	1.1473e-05	3.8554e-06	295.49	104.94	77.892	27.488	5.4914e-06	39.363	0.0014701	0.0017524	0.0004982	892.98	1.8789e-05	1.9378e-05	986.68	221.05	1.8299e-05	1.9484e-05	276.73	97.846	73.583	26.201	1.9329e-05	37.35	332.547	203.965	279.722	188.127	480.739	294.610	187.480	193.495	343.733	308.441	192.421	197.642	198.885	202.671	435.946	200.148	-8191	255	
7684.881	1	1	0	0	0.04403	0.054364	0.1836	0.34645	0.31912	0.14221	0.13723	0.060109	0.12794	0.16542	0.038029	0.19138	0.09234	0.21113	0.014663	0.11831	-2.6479	-2.5583	-2.8792	-3.0667	-2.4333	-2.8854	-2.9042	-2.7417	-2.9604	-2.65	-2.6917	-3.1917	-2.4188	-2.8833	-2.7979	-2.5604	437.705	283.680	281.567	506.688	311.889	287.525	507.964	514.331	274.843	516.866	490.336	278.876	194.208	210.604	396.153	251.700	0.00073371	0.00030112	0.00027459	975.38	2.531e-05	5.8713e-06	1078.5	240.11	2.0783e-06	6.7206e-06	296.59	105.64	78.354	27.645	1.1916e-05	39.619	0.0015137	0.0018294	0.00050037	895.87	1.9102e-05	1.9796e-05	992.17	222.5	1.9109e-05	2.0416e-05	278.06	98.537	73.892	26.393	1.9624e-05	37.6	333.032	182.466	221.460	187.813	310.264	462.842	187.778	193.342	261.831	452.385	191.831	197.364	198.400	202.799	327.144	200.190	-8191	255	
7684.977	1	1	0	0	0.11429	0.13022	0.29803	0.157	0.21435	0.30519	0.15723	0.19875	0.084409	0.084789	0.27271	0.19459	0.28825	0.14747	0.14242	0.25272	-2.4479	-2.5104	-2.5375	-3.0354	-2.5792	-2.875	-2.9021	-2.6354	-2.9125	-2.7667	-2.5875	-3.2917	-2.6562	-2.6896	-2.8354	-2.4708	505.922	353.269	366.521	534.137	421.474	229.813	495.665	481.549	463.649	188.384	526.099	396.114	360.927	255.164	297.008	523.110	0.00066212	0.0010047	0.00026765	972.41	9.7986e-06	2.0968e-06	1071.8	239.8	1.5013e-05	4.7158e-06	297.57	104.76	78.652	27.615	1.243e-05	39.057	0.0015667	0.0018632	0.00051482	895.97	1.944e-05	2.0927e-05	988.7	221.79	1.9676e-05	2.0349e-05	277.04	97.699	73.708	26.253	1.9571e-05	37.068	351.501	281.434	297.702	188.027	290.896	314.074	187.563	193.763	403.713	449.332	192.483	197.255	199.066	203.151	321.132	200.307	-8191	255	
7685.096	1	1	0	0	0.24162	0.22178	0.29292	0.20896	0.16214	0.20261	0.20346	0.062644	0.16369	0.21578	0.11054	0.14499	0.2154	0.14249	0.10531	0.078283	-2.5708	-2.7354	-2.4979	-2.9604	-2.5208	-2.7229	-3.0563	-2.4646	-2.8812	-2.8333	-2.4542	-3.1104	-2.6646	-2.7333	-2.975	-2.4208	268.303	336.916	455.563	527.690	223.057	321.107	430.639	414.532	270.503	393.901	287.277	357.481	481.095	178.252	187.735	412.361	0.00082291	0.00077527	0.0001318	967.2	6.3306e-06	1.5182e-06	1063.6	235.92	3.9595e-06	3.6417e-06	291.61	104.6	77.597	27.685	7.8478e-06	39.026	0.0015146	0.001788	0.00049596	885.65	1.897e-05	1.9479e-05	978.03	218.84	1.8801e-05	1.9299e-05	274.02	97.357	73.195	26.184	1.8244e-05	37.045	336.874	266.389	345.615	188.044	483.123	235.703	187.285	193.580	330.206	364.733	192.664	197.237	198.741	202.745	268.225	199.799	-8191	255	
7685.169	1	1	0	0	0.031324	0.1223	0.21991	0.24606	0.16978	0.22853	0.19602	0.18625	0.10785	0.13692	0.25118	0.15667	0.13134	0.24883	0.15371	0.13789	-2.4333	-2.8833	-2.6292	-3.0708	-2.6604	-2.5854	-3.1958	-2.5687	-2.8208	-2.9583	-2.5375	-3.0146	-2.7708	-2.7167	-2.9979	-2.4625	502.134	359.459	308.333	484.020	380.115	232.401	457.113	497.079	511.196	330.243	459.808	475.393	295.671	475.072	219.686	286.025	0.00077484	0.00091665	0.00026398	956.25	1.1578e-05	5.1113e-06	1059.9	234.91	9.3942e-06	2.5267e-06	294.4	104.67	77.863	27.638	5.5478e-06	39.447	0.0014264	0.0016876	0.00046856	879.12	1.8167e-05	1.8945e-05	974.35	217.49	1.81e-05	1.9265e-05	274.04	97.149	72.708	26.163	1.8146e-05	37.06	327.930	270.794	277.018	187.878	335.515	362.115	187.485	193.653	201.366	409.503	192.380	197.226	198.707	202.575	393.793	200.110	-8191	255	
7685.266	1	1	0	0	0.21721	0.041748	0.12198	0.3217	0.17009	0.078113	0.11142	0.1838	0.030097	0.14544	0.11533	0.20185	0.20716	0.17826	0.18232	0.28183	-2.2687	-2.95	-2.4354	-3.0146	-2.7771	-2.7188	-3.1604	-2.5812	-2.7396	-2.9062	-2.5958	-2.8479	-2.875	-2.4854	-3.0417	-2.6188	437.397	432.318	217.501	485.610	355.529	446.405	511.892	468.437	179.655	195.278	192.841	186.969	404.044	198.014	337.508	481.120	0.00085097	0.00046888	0.00016918	959.97	6.8884e-06	4.7126e-06	1067.6	237.25	5.5134e-06	5.8122e-06	295.02	104.57	77.925	27.925	1.8681e-06	39.435	0.0014595	0.0017028	0.00046824	884.26	1.822e-05	1.9201e-05	980.43	219.35	1.817e-05	1.9181e-05	274.18	97.271	72.883	26.271	1.8129e-05	37.261	327.835	233.359	274.747	188.056	360.791	401.290	187.544	193.513	376.565	234.255	192.798	197.061	199.138	203.087	377.552	200.036	-8191	255	
7685.384	1	1	0	0	0.10071	0.18551	0.17395	0.092754	0.07563	0.22424	0.13143	0.24789	0.1561	0.0087055	0.099762	0.1412	0.15501	0.31746	0.25857	0.1878	-2.1479	-2.875	-2.6208	-3.0312	-2.8604	-2.5375	-3.0146	-2.7438	-2.6208	-2.9271	-2.5792	-2.9667	-2.8646	-2.7417	-2.9729	-2.8458	334.093	257.720	325.605	502.391	343.269	425.930	460.071	469.355	532.183	434.329	335.837	336.276	459.683	508.634	281.606	521.922	0.00078975	0.00049081	0.00029466	966.55	4.2751e-06	8.6041e-06	1063.5	234.78	5.2685e-06	3.31e-06	290.34	104.08	77.621	27.677	1.1168e-05	38.943	0.0014649	0.0016984	0.00046463	884.7	1.7755e-05	1.8293e-05	973.83	217.23	1.7319e-05	1.8215e-05	271.26	96.718	72.647	26.063	1.7906e-05	36.771	324.910	257.706	192.070	187.895	296.679	303.100	187.742	193.587	373.282	277.137	192.756	197.331	199.030	202.804	321.760	199.895	-8191	255	
7685.481	1	1	0	0	0.17711	0.30622	0.1781	0.015179	0.2733	0.13304	0.066018	0.29311	0.20226	0.11752	0.15195	0.2004	0.035115	0.10766	0.081215	0.19623	-2.3354	-2.8354	-2.5396	-2.7708	-2.9021	-2.3646	-3.0187	-2.8417	-2.4208	-3.0375	-2.5187	-2.7667	-2.9625	-2.5375	-2.8812	-2.8896	229.031	315.511	214.149	495.982	257.730	390.999	478.496	431.597	320.300	193.427	236.379	200.494	334.396	210.922	340.008	372.251	0.00068606	0.00075747	0.00011637	952.26	5.7815e-06	4.138e-06	1051.6	231.14	5.0769e-06	8.8557e-06	289.98	103.13	77.378	27.703	5.0297e-06	39.022	0.0013954	0.0016481	0.00044229	875.99	1.6862e-05	1.7964e-05	961.84	215.17	1.678e-05	1.7337e-05	269.99	95.768	72.248	25.996	1.7215e-05	36.883	348.591	357.036	289.701	188.316	293.053	350.743	187.510	193.421	331.613	381.890	192.324	197.323	198.329	202.633	334.176	200.083	-8191	255	
7685.577	1	1	0	0	0.23226	0.10715	0.21823	0.10148	0.28358	0.14407	0.046313	0.19667	0.13477	0.28836	0.26969	0.18116	0.097897	0.064297	0.16396	0.13628	-2.1417	-2.8375	-2.4562	-2.8625	-2.7792	-2.3917	-3	-2.6875	-2.4688	-2.9979	-2.6542	-2.7354	-2.8563	-2.6708	-2.9354	-2.9	467.040	242.601	359.922	349.691	434.854	534.211	250.166	436.980	420.768	401.857	508.760	272.134	473.945	476.317	478.888	513.876	0.00063556	0.00037358	6.0398e-05	953.5	5.0085e-06	4.0374e-06	1053.5	235.19	1.4405e-05	1.0791e-05	291.43	104.12	77.088	27.406	9.8954e-06	39.55	0.0013788	0.0015901	0.00044062	872.78	1.7265e-05	1.7888e-05	968.54	217.59	1.7255e-05	1.786e-05	271.59	96.862	72.42	26.014	1.7433e-05	37.246	325.029	188.020	456.589	188.109	304.251	333.665	187.544	193.333	328.610	271.820	192.381	198.032	198.924	202.767	387.103	200.187	-8191	255	
7685.697	1	1	0	0	0.24254	0.065083	0.20443	0.24209	0.15576	0.061173	0.37689	0.10876	0.046627	0.11704	0.071673	0.22051	0.20988	0.14361	0.13466	0.25559	-2.0187	-2.9313	-2.6667	-2.9188	-2.8312	-2.5687	-2.8708	-2.7625	-2.5229	-2.8854	-2.7938	-2.7083	-2.9792	-2.475	-2.9021	-2.8438	409.528	181.267	227.585	424.254	442.210	414.506	453.079	179.722	268.087	450.791	301.980	241.978	488.427	292.821	395.813	493.190	0.00074191	0.00011305	7.8333e-05	955.42	8.7102e-06	3.9652e-06	1059.5	234.5	3.7883e-06	6.1047e-06	294.49	104.39	77.978	27.935	6.9408e-06	39.721	0.0014024	0.0016141	0.0004604	879	1.6617e-05	1.8138e-05	970.35	217.28	1.7089e-05	1.7394e-05	273.9	97.259	73.055	26.344	1.7364e-05	37.453	328.515	529.531	291.096	188.222	302.927	444.843	187.670	193.251	341.771	311.226	192.029	197.208	198.638	202.837	275.336	199.809	-8191	255	
7685.793	1	1	0	0	0.13812	0.36145	0.21267	0.077659	0.24286	0.2718	0.12388	0.20744	0.071012	0.24799	0.16019	0.1554	0.17647	0.1618	0.16374	0.049572	-1.9104	-2.8458	-2.6479	-2.6042	-2.9896	-2.4104	-3.0729	-2.8229	-2.5021	-2.9125	-2.7042	-2.5062	-3.1125	-2.6354	-2.5979	-3.2188	334.945	461.448	314.669	266.810	528.342	176.369	447.600	403.605	474.472	383.306	518.957	405.539	466.330	204.567	495.891	502.956	0.00075573	0.00068596	0.00021298	956.05	1.2086e-05	3.0441e-06	1052.4	235.53	6.6844e-07	1.6549e-06	290.73	104.32	78.029	27.731	6.24e-06	39.046	0.0013748	0.001581	0.00043911	880.07	1.6626e-05	1.757e-05	965.46	217.38	1.6587e-05	1.7189e-05	271.64	96.878	72.814	26.267	1.7193e-05	37.075	315.012	193.172	309.822	188.289	318.186	360.434	187.926	193.765	333.605	391.075	192.640	197.274	198.905	202.909	426.526	200.542	-8191	255	
7685.865	1	1	0	0	0.1069	0.25614	0.13469	0.19768	0.065066	0.23679	0.18298	0.30082	0.25602	0.24841	0.1412	0.15233	0.043348	0.063845	0.23491	0.14902	-2.0875	-2.8271	-2.7729	-2.6542	-3.075	-2.6688	-2.9729	-2.8146	-2.3771	-2.9083	-2.8896	-2.4458	-2.9062	-2.6354	-2.6813	-3.1021	387.930	366.662	307.977	484.079	337.998	182.005	480.702	240.868	365.775	374.951	189.103	499.637	514.405	204.299	460.990	420.211	0.00069786	0.00016427	0.00011558	958.79	1.1733e-05	2.2174e-06	1048.8	233.58	7.1282e-06	7.3018e-06	289.14	103.84	77.562	27.636	1.0266e-05	39.635	0.0013704	0.0016005	0.00044044	880.77	1.6734e-05	1.7676e-05	966.6	217.58	1.6768e-05	1.7409e-05	270.55	96.582	72.64	26.143	1.6877e-05	37.329	323.822	491.397	313.371	187.992	368.038	193.589	187.309	193.506	345.912	337.083	192.697	197.457	198.755	202.820	333.800	199.997	-8191	255	
7685.986	1	1	0	0	0.045218	0.13038	0.20412	0.19547	0.19106	0.11517	0.1048	0.064221	0.14931	0.24422	0.40795	0.10948	0.31782	0.32245	0.13968	0.10726	-2.0646	-2.8833	-2.8042	-2.7188	-3.0312	-2.8146	-2.7417	-2.9146	-2.5958	-2.9333	-2.7875	-2.5563	-3.0062	-2.8104	-2.6646	-2.9229	399.984	346.554	337.730	512.459	202.889	270.694	382.049	468.036	267.534	298.745	403.464	180.745	235.947	485.897	365.378	212.114	0.00065142	0.00035317	0.00012237	945.67	2.3273e-06	5.4555e-06	1042.6	234.58	7.0815e-06	4.1779e-06	290.67	104.03	77.306	27.661	1.1419e-05	39.497	0.0013544	0.0015771	0.00043676	872.01	1.6544e-05	1.7447e-05	961.07	216.45	1.6322e-05	1.7408e-05	271.58	96.438	72.565	26.227	1.7e-05	37.335	336.329	325.799	230.381	188.070	293.770	406.269	187.504	193.565	372.510	354.222	192.159	197.540	198.680	203.014	303.197	200.196	-8191	255	
7686.080	1	1	0	0	0.082504	0.20073	0.30835	0.24152	0.27198	0.27872	0.29673	0.11955	0.10114	0.31812	0.18631	0.19732	0.16448	0.14946	0.17704	0.24172	-2.1625	-2.625	-2.925	-2.5979	-2.9354	-2.7625	-2.7708	-3.05	-2.4896	-2.6146	-2.8729	-2.5708	-2.9854	-2.8333	-2.6562	-3.0417	316.282	180.518	275.055	228.983	287.203	465.295	468.820	309.275	257.976	284.924	414.862	409.021	197.726	370.210	465.760	473.708	0.00097543	0.00072341	0.00014063	955.61	5.6923e-06	8.8263e-06	1056.2	235.53	3.1713e-06	2.6115e-06	292.74	104.94	78.597	28.054	5.3612e-06	39.807	0.0013457	0.0016086	0.00044632	879.37	1.6934e-05	1.7695e-05	970.7	218.04	1.6979e-05	1.7758e-05	274.14	97.377	73.455	26.418	1.7149e-05	37.537	332.490	328.166	290.598	187.875	291.567	306.091	187.433	193.391	237.678	497.193	192.587	197.069	198.669	203.170	530.675	199.818	-8191	255	
7686.176	1	1	0	0	0.10139	0.21077	0.13264	0.36934	0.19424	0.055512	0.14765	0.24585	0.16161	0.13819	0.17274	0.30253	0.24488	0.22427	0.1163	0.28137	-2.2604	-2.7354	-3.0187	-2.7417	-2.9604	-2.9479	-2.6458	-3.2188	-2.6813	-2.675	-3.175	-2.8021	-2.7229	-2.8375	-2.4146	-3.175	254.637	297.688	224.596	487.943	421.762	251.171	463.826	514.078	471.309	419.400	534.772	418.966	515.986	529.859	430.281	424.564	0.00062674	0.00059574	0.00013881	960.57	1.5209e-05	4.1269e-06	1053.2	234.98	1.0162e-05	8.8359e-06	295.7	103.75	77.78	27.783	4.6718e-06	39.646	0.001365	0.0016371	0.00044858	881.86	1.7281e-05	1.8167e-05	972.38	219.15	1.7585e-05	1.8277e-05	273.5	96.975	73.088	26.308	1.7632e-05	37.372	320.273	261.716	297.935	187.852	300.954	356.560	187.381	193.506	467.350	270.169	192.652	197.709	198.805	202.865	382.543	200.075	-8191	255	
7686.272	1	1	0	0	0.14837	0.098145	0.14034	0.23048	0.076531	0.18042	0.025089	0.15099	0.13199	0.15481	0.15052	0.015357	0.053471	0.069691	0.052002	0.27027	-2.1604	-2.6458	-2.9604	-2.6312	-2.9729	-2.8833	-2.5771	-2.8479	-2.6312	-2.7562	-2.9542	-2.6875	-2.925	-3.1063	-2.5729	-2.8875	449.267	313.034	307.021	476.108	289.622	244.461	354.032	454.782	450.383	231.072	439.897	222.150	234.317	471.216	476.432	402.308	0.0007187	0.00016178	7.2968e-05	957.33	8.0824e-07	5.8301e-06	1057.5	234.92	2.2547e-06	9.7567e-06	294.01	103.45	77.905	27.975	4.5732e-06	39.635	0.001408	0.0016361	0.00046189	881.01	1.7516e-05	1.8141e-05	971.14	217.91	1.7632e-05	1.8242e-05	272.7	96.999	73.109	26.313	1.7718e-05	37.38	341.562	279.982	413.698	187.895	255.195	291.789	187.511	193.594	449.197	398.961	192.548	197.779	199.245	202.635	310.474	200.198	-8191	255	
7686.393	1	1	0	0	0.09423	0.039273	0.075241	0.089698	0.29618	0.20605	0.094547	0.13899	0.085532	0.10695	0.28052	0.15686	0.17968	0.15372	0.23051	0.10581	-2.3104	-2.6292	-3.0333	-2.8458	-2.9104	-3.0417	-2.8208	-2.9521	-2.9313	-2.5542	-3.2979	-2.7021	-2.7	-3.0021	-2.6229	-2.9458	211.622	211.771	267.923	485.314	389.654	310.511	416.380	180.489	357.580	299.238	459.211	507.474	223.310	241.242	264.748	520.972	0.00090499	0.00076746	0.00026667	962.67	7.1135e-06	7.9518e-06	1070.9	237.42	6.7049e-06	5.251e-06	294.94	105.1	78.673	28.061	3.2685e-06	39.792	0.0014259	0.0016496	0.00045803	883.2	1.7911e-05	1.8657e-05	980.51	220.34	1.8364e-05	1.9583e-05	275.25	98.223	74.114	26.507	1.8554e-05	37.567	326.514	266.147	252.794	188.314	286.349	278.923	187.311	193.233	282.901	385.614	192.509	197.054	198.911	202.942	448.691	200.150	-8191	255	
7686.465	1	1	0	0	0.12348	0.31281	0.046661	0.26266	0.061492	0.19818	0.1073	0.051828	0.027858	0.18274	0.07166	0.28495	0.08619	0.21646	0.047527	0.05738	-2.3688	-2.5333	-2.9083	-2.7417	-2.5333	-3.0833	-2.6771	-2.7938	-2.8354	-2.6083	-3.0375	-2.8167	-2.8458	-3.0062	-2.5271	-2.8875	219.093	284.715	431.828	521.660	304.347	314.228	344.623	403.708	353.922	269.797	464.037	180.572	264.659	458.916	285.102	210.317	0.00065789	0.00015592	0.00014248	959.46	1.0001e-05	6.9755e-06	1064.7	238.31	6.2895e-06	1.1682e-06	297.3	106.45	78.421	27.93	9.0293e-07	40.106	0.0014596	0.0017181	0.00047876	883.78	1.8617e-05	1.8469e-05	978.43	220.57	1.8168e-05	1.9033e-05	277	98.824	74.175	26.487	1.9219e-05	37.862	340.789	271.593	387.741	187.730	316.898	362.966	187.645	193.519	275.946	335.617	192.138	197.036	199.165	202.792	371.565	199.930	-8191	255	
7686.561	1	1	0	0	0.090542	0.14612	0.23721	0.035958	0.38891	0.064174	0.041842	0.031964	0.12786	0.34519	0.061672	0.094309	0.14594	0.3023	0.033597	0.22859	-2.5646	-2.4042	-2.8792	-2.6729	-2.4479	-3.075	-2.4292	-2.7521	-2.9396	-2.4708	-2.8604	-2.9479	-2.5729	-3.0917	-2.375	-2.8083	282.085	498.098	254.216	352.364	332.542	335.679	421.210	303.320	219.991	421.937	468.849	526.102	238.874	184.753	247.419	179.552	0.00071069	0.00042814	7.7783e-05	971.08	1.1138e-05	1.3476e-06	1081.5	241.65	1.4421e-05	3.429e-06	299.9	106.22	79.751	28.022	8.5207e-06	39.331	0.0015321	0.0018189	0.00051349	896.9	1.9887e-05	2.1436e-05	996.56	223.9	2.0758e-05	2.2394e-05	280.66	98.991	75.138	26.639	2.2467e-05	37.547	323.969	230.168	277.945	188.199	325.202	455.899	187.274	193.623	328.597	307.505	192.195	197.229	198.727	202.525	307.582	199.889	-8191	255	
7686.657	1	1	0	0	0.076495	0.098587	0.35325	0.015499	0.015831	0.13559	0.33658	0.34507	0.20781	0.06943	0.23084	0.3136	0.18099	0.28025	0.11125	0.091114	-2.6292	-2.5708	-3	-2.8333	-2.5729	-2.9813	-2.5896	-2.6813	-2.9354	-2.5042	-3.0125	-2.9708	-2.5354	-2.8979	-2.6021	-2.9146	397.602	227.832	310.151	203.197	305.197	470.472	488.882	505.534	446.769	344.946	191.936	529.082	410.865	526.261	377.117	358.408	0.00082768	0.00061615	0.00019329	981.19	4.8875e-06	2.4934e-06	1089.6	240.67	4.0952e-06	1.027e-05	296.28	105.6	79.212	27.848	4.9621e-06	39.584	0.0017596	0.0021192	0.00060554	909.64	2.2438e-05	2.3501e-05	1004.8	225.05	2.277e-05	2.3433e-05	280.12	98.995	74.945	26.516	2.3026e-05	37.588	326.705	317.630	385.556	188.094	278.636	259.259	187.576	193.766	323.597	394.738	192.161	197.709	199.078	202.822	318.080	200.009	-8191	255	
7686.778	1	1	0	0	0.08213	0.17757	0.099293	0.17174	0.16472	0.17469	0.23928	0.1578	0.064565	0.09024	0.15091	0.065303	0.15435	0.12198	0.080117	0.13728	-2.4771	-2.3979	-2.8688	-2.9188	-2.5563	-3.0062	-2.9125	-2.5375	-3.1021	-2.5875	-2.6708	-3.0021	-2.5563	-3.0229	-2.8187	-2.5396	355.008	411.586	323.473	212.873	414.579	347.163	512.428	206.158	276.077	255.676	190.536	434.829	233.608	200.427	355.066	262.895	0.00060044	0.00055623	0.00014195	977.22	5.3007e-06	1.778e-06	1086	240.64	7.9766e-06	6.8913e-06	293.49	105.83	79.237	27.975	6.1319e-06	39.742	0.0018044	0.0021206	0.00058839	901.62	2.2099e-05	2.3455e-05	997.65	223.5	2.1989e-05	2.3269e-05	278.98	98.542	74.738	26.554	2.3445e-05	37.552	327.233	274.570	205.120	188.206	326.095	394.462	187.541	193.092	279.281	336.729	192.322	197.507	198.761	202.960	370.420	199.750	-8191	255	
7686.874	1	1	0	0	0.089722	0.018105	0.041696	0.27168	0.26972	0.030541	0.21071	0.17066	0.078295	0.28701	0.15825	0.055143	0.23158	0.3178	0.10967	0.16188	-2.6875	-2.7146	-2.7229	-3.1271	-2.6083	-2.9354	-2.8979	-2.5875	-2.9562	-2.4667	-2.7604	-2.9729	-2.4667	-2.9021	-2.9542	-2.6479	337.037	179.963	190.689	527.265	300.704	442.165	373.030	482.152	211.093	321.301	253.962	461.077	274.531	507.682	288.248	403.811	0.0007344	0.00043088	0.00033201	990.64	5.1046e-06	4.3529e-06	1088.5	242.15	1.2624e-05	3.6497e-06	301.61	106.44	79.24	27.969	7.4402e-06	39.57	0.0018061	0.0022211	0.00062419	913.25	2.3285e-05	2.4655e-05	1009.1	226.6	2.3663e-05	2.499e-05	283.82	99.722	75.143	26.654	2.4363e-05	37.663	327.840	363.189	238.505	188.348	493.490	333.914	187.571	193.156	321.725	531.930	192.517	197.293	198.601	202.965	348.256	200.569	-8191	255	
7686.970	1	1	0	0	0.16543	0.39199	0.1239	0.11072	0.20319	0.3051	0.22775	0.011468	0.13547	0.10077	0.18686	0.082812	0.23741	0.24659	0.09138	0.18643	-2.5542	-2.6292	-2.6146	-3.0979	-2.3604	-2.8896	-2.8896	-2.4125	-3.0875	-2.8	-2.7313	-3.1792	-2.5896	-2.9083	-2.9188	-2.5875	405.394	508.751	365.842	425.514	177.505	470.832	181.928	199.366	504.168	186.631	176.570	252.129	511.228	448.507	470.891	516.164	0.00084247	0.00013923	0.00023067	987.83	3.7601e-06	7.7291e-06	1098.9	244.3	1.1567e-05	1.3267e-05	300.46	106.27	79.388	27.863	9.9932e-06	39.558	0.0018794	0.0022851	0.00063083	914.24	2.4285e-05	2.5352e-05	1014.7	226.98	2.4395e-05	2.5663e-05	283.75	99.779	75.583	26.686	2.5974e-05	37.627	321.010	390.718	350.058	188.215	486.125	377.525	187.481	193.260	330.130	404.445	192.590	197.473	198.479	202.990	334.440	199.882	-8191	255	
7687.066	1	1	0	0	0.21484	0.23082	0.20762	0.4048	0.082868	0.23268	0.14035	0.23686	0.13892	0.11277	0.19532	0.11397	0.1111	0.1113	0.15283	0.22118	-2.525	-2.6167	-2.675	-2.9917	-2.4938	-2.825	-2.9813	-2.4792	-2.775	-2.7042	-2.6312	-3.0458	-2.6458	-2.8083	-2.7667	-2.4417	258.067	419.618	410.893	489.072	443.630	188.723	505.599	484.539	206.181	212.977	478.783	431.223	430.463	427.132	419.094	202.478	0.00066045	0.00070394	3.5502e-05	1010.8	1.6386e-05	7.6026e-06	1113.4	246.35	3.7408e-06	3.1679e-06	303.06	107.1	81.351	28.162	3.1722e-06	39.697	0.0020206	0.0024916	0.00068171	933.71	2.6741e-05	2.7729e-05	1029.2	231.14	2.6404e-05	2.8129e-05	287.39	100.58	76.896	27.009	2.718e-05	38.015	321.373	278.789	359.956	187.951	332.395	364.012	187.319	193.452	341.124	268.575	192.212	197.070	198.561	202.824	294.693	199.715	-8191	255	
7687.162	1	1	0	0	0.073475	0.072107	0.20063	0.17685	0.20444	0.15253	0.12172	0.11633	0.16036	0.12449	0.18054	0.075977	0.044272	0.011375	0.079257	0.11293	-2.4625	-2.9354	-2.5667	-3.0417	-2.7146	-2.5208	-3.1167	-2.5854	-2.8875	-3.025	-2.8125	-2.9042	-2.8729	-2.6167	-2.8521	-2.5833	427.152	421.851	336.664	482.410	364.512	217.470	476.968	192.979	266.748	506.565	508.736	495.566	345.480	396.641	263.583	263.273	0.00069464	0.0003513	0.0002627	1002.9	7.139e-06	1.3969e-05	1116.3	246.91	1.275e-05	1.115e-05	305.69	106.43	80.731	28.058	9.5428e-06	39.7	0.0021394	0.0025283	0.00072268	932.13	2.7509e-05	2.8596e-05	1035.3	231.6	2.7542e-05	2.9299e-05	288.97	100.69	76.887	27.038	2.8337e-05	38.008	340.635	406.891	231.320	188.062	241.983	330.902	187.212	193.516	320.185	529.431	192.660	197.186	198.637	203.040	329.104	200.163	-8191	255	
7687.258	1	1	0	0	0.2444	0.030564	0.29791	0.14399	0.23152	0.26817	0.079334	0.2807	0.14795	0.086391	0.22664	0.15075	0.21357	0.11019	0.20713	0.33366	-2.2958	-2.975	-2.4479	-3.0708	-2.7042	-2.7396	-2.9583	-2.6875	-2.5917	-2.7833	-2.5479	-3.0229	-2.7708	-2.4979	-3.0854	-2.4958	425.293	282.256	257.503	528.974	405.520	362.405	502.916	482.118	456.050	413.091	513.675	212.216	450.356	205.541	335.056	469.592	0.00083404	0.00020419	0.00011179	1010.2	5.8839e-06	3.1869e-06	1121.6	248.55	3.1079e-06	4.7304e-06	305.34	107.04	80.587	28.53	6.1836e-06	40.109	0.0022069	0.002662	0.00074772	936.26	2.8735e-05	3.0116e-05	1036.8	232.67	2.8426e-05	2.9946e-05	289.33	101.75	77.158	27.381	3.0049e-05	38.565	322.411	388.578	301.587	188.236	315.738	235.616	187.308	193.281	368.550	429.356	191.977	197.314	198.472	202.955	355.045	200.081	-8191	255	
7687.377	1	1	0	0	0.025434	0.22615	0.16238	0.15677	0.099872	0.041316	0.21116	0.17864	0.062893	0.24652	0.094484	0.17085	0.037256	0.21303	0.16314	0.18466	-2.2083	-2.7292	-2.5187	-3.1583	-2.6792	-2.525	-3.1688	-2.6667	-2.5667	-2.8312	-2.6375	-2.9875	-2.9958	-2.5667	-3.0104	-2.6958	331.534	356.991	380.172	197.974	193.186	315.584	512.291	480.436	503.491	497.044	414.525	458.061	245.676	414.950	216.475	373.349	0.0008695	0.00095382	0.00016073	1016.7	1.8615e-06	3.0391e-06	1130.6	250.8	5.5073e-06	5.9717e-06	303.75	108.27	81.417	28.172	4.8892e-06	39.636	0.0024081	0.0028986	0.00080432	947.52	3.1021e-05	3.2397e-05	1049.8	235.77	3.1065e-05	3.2731e-05	291.37	102.39	78.139	27.34	3.2063e-05	38.389	327.780	242.570	290.054	188.112	276.820	333.261	187.659	193.290	254.305	361.340	192.182	197.016	198.550	203.199	300.729	200.101	-8191	255	
7687.473	1	1	0	0	0.49842	0.29115	0.11961	0.17649	0.11682	0.035354	0.1435	0.38348	0.11541	0.072959	0.20852	0.25672	0.23167	0.17178	0.064956	0.059163	-2.0896	-3.0125	-2.5125	-2.9042	-2.7458	-2.5292	-3.2167	-2.7333	-2.6917	-2.9417	-2.55	-2.825	-2.8458	-2.6646	-2.9646	-2.7396	458.633	210.811	267.431	444.988	241.604	436.913	441.687	470.875	254.529	283.384	507.606	461.865	294.719	512.874	392.707	347.851	0.00067185	0.00080989	0.00015166	1018.7	1.0004e-05	4.6298e-06	1113.2	248.26	2.4835e-06	7.8529e-06	305.39	106.47	80.143	28.178	6.6466e-06	39.87	0.0024265	0.002973	0.00081575	945.25	3.0526e-05	3.2573e-05	1039.6	233.62	3.0204e-05	3.1509e-05	288.74	100.98	77.08	27.074	2.9754e-05	38.266	326.064	181.110	216.735	187.767	353.086	220.127	187.342	193.395	274.836	471.365	192.197	197.237	198.617	202.678	309.236	199.765	-8191	255	
7687.570	1	1	0	0	0.31313	0.15027	0.047461	0.38429	0.1898	0.48087	0.31591	0.12683	0.14544	0.13429	0.15003	0.20504	0.24196	0.14179	0.070787	0.1528	-2.1333	-2.8688	-2.3646	-2.7792	-2.9146	-2.2771	-3.0958	-2.8625	-2.4333	-3.0042	-2.6229	-2.675	-2.8417	-2.5187	-2.7146	-2.7875	246.989	232.856	434.592	528.438	263.808	318.080	479.774	458.900	257.370	194.241	398.849	494.889	206.605	252.347	407.001	393.211	0.00085627	0.00046744	0.00016246	1002.9	1.167e-05	8.4179e-06	1116.5	248.94	1.7557e-05	4.4296e-06	303.26	106.92	80.346	28.321	2.6244e-06	39.965	0.0022922	0.002772	0.00077066	935.29	2.8957e-05	3.0234e-05	1033.7	233.38	2.9215e-05	3.0555e-05	288.18	101.34	77.103	27.149	2.9091e-05	38.329	321.137	248.692	209.137	188.034	262.056	326.434	187.431	193.229	342.064	311.413	192.496	197.711	198.577	202.604	204.935	200.268	-8191	255	
#DATA ENDS
