BOXY.EXE: ISS Imagent and Oximeter Data Acquisition Program Version 0.80
Ascii Record File

#ACQ INFORMATION
2  Detector Channels 
16  External MUX Channels 
1  Auxiliary Channels 
5000  Waveform (CCF) Frequency (Hz)
1  Waveforms Skipped 
30  Waveforms Averaged 
1  Cycles Averaged 
16  Acquisitions per Waveform 
10.0806  Updata Rate (Hz) 

#FILE INFORMATION
TRUE -- External MUX Channel results are PARSED.
FALSE -- AC DC and Phase are NOT grouped.
TRUE -- Companion Program Settings File CREATED.
FALSE -- AC data not excluded
FALSE -- DC data not excluded
FALSE -- Phase data not excluded
FALSE -- Auxillary Chn. data not excluded
Tab delimiters

#CALIBRATION STATE
TRUE -- Waveform Calibration Values APPLIED.


#AUX CALIBRATION VALUES
Val Type	aux-1	

Term	1.0000e+00	
Factor	0.0000e+00	


#WF CALIBRATION VALUES
A = Detector Channel
Val Type	A-AC1	A-AC2	A-AC3	A-AC4	A-AC5	A-AC6	A-AC7	A-AC8	A-AC9	A-AC10	A-AC11	A-AC12	A-AC13	A-AC14	A-AC15	A-AC16	A-DC1	A-DC2	A-DC3	A-DC4	A-DC5	A-DC6	A-DC7	A-DC8	A-DC9	A-DC10	A-DC11	A-DC12	A-DC13	A-DC14	A-DC15	A-DC16	A-Ph1	A-Ph2	A-Ph3	A-Ph4	A-Ph5	A-Ph6	A-Ph7	A-Ph8	A-Ph9	A-Ph10	A-Ph11	A-Ph12	A-Ph13	A-Ph14	A-Ph15	A-Ph16	

Term	0.00000e+00	0.00000e+00	0.00000e+00	0.00000e+00	0.00000e+00	0.00000e+00	0.00000e+00	0.00000e+00	0.00000e+00	0.00000e+00	0.00000e+00	0.00000e+00	0.00000e+00	0.00000e+00	0.00000e+00	0.00000e+00	0.00000e+00	0.00000e+00	0.00000e+00	0.00000e+00	0.00000e+00	0.00000e+00	0.00000e+00	0.00000e+00	0.00000e+00	0.00000e+00	0.00000e+00	0.00000e+00	0.00000e+00	0.00000e+00	0.00000e+00	0.00000e+00	0.00000e+00	0.00000e+00	0.00000e+00	0.00000e+00	0.00000e+00	0.00000e+00	0.00000e+00	0.00000e+00	0.00000e+00	0.00000e+00	0.00000e+00	0.00000e+00	0.00000e+00	0.00000e+00	0.00000e+00	0.00000e+00	
Factor	1.00000e+00	1.00000e+00	1.00000e+00	1.00000e+00	1.00000e+00	1.00000e+00	1.00000e+00	1.00000e+00	1.00000e+00	1.00000e+00	1.00000e+00	1.00000e+00	1.00000e+00	1.00000e+00	1.00000e+00	1.00000e+00	1.00000e+00	1.00000e+00	1.00000e+00	1.00000e+00	1.00000e+00	1.00000e+00	1.00000e+00	1.00000e+00	1.00000e+00	1.00000e+00	1.00000e+00	1.00000e+00	1.00000e+00	1.00000e+00	1.00000e+00	1.00000e+00	X	X	X	X	X	X	X	X	X	X	X	X	X	X	X	X	

B = Detector Channel
Val Type	B-AC1	B-AC2	B-AC3	B-AC4	B-AC5	B-AC6	B-AC7	B-AC8	B-AC9	B-AC10	B-AC11	B-AC12	B-AC13	B-AC14	B-AC15	B-AC16	B-DC1	B-DC2	B-DC3	B-DC4	B-DC5	B-DC6	B-DC7	B-DC8	B-DC9	B-DC10	B-DC11	B-DC12	B-DC13	B-DC14	B-DC15	B-DC16	B-Ph1	B-Ph2	B-Ph3	B-Ph4	B-Ph5	B-Ph6	B-Ph7	B-Ph8	B-Ph9	B-Ph10	B-Ph11	B-Ph12	B-Ph13	B-Ph14	B-Ph15	B-Ph16	

Term	0.00000e+00	0.00000e+00	0.00000e+00	0.00000e+00	0.00000e+00	0.00000e+00	0.00000e+00	0.00000e+00	0.00000e+00	0.00000e+00	0.00000e+00	0.00000e+00	0.00000e+00	0.00000e+00	0.00000e+00	0.00000e+00	0.00000e+00	0.00000e+00	0.00000e+00	0.00000e+00	0.00000e+00	0.00000e+00	0.00000e+00	0.00000e+00	0.00000e+00	0.00000e+00	0.00000e+00	0.00000e+00	0.00000e+00	0.00000e+00	0.00000e+00	0.00000e+00	-6.21754e+01	-1.29907e+02	-1.24308e+02	-1.80762e+02	-5.26411e+01	-6.17388e+01	-1.54848e+02	-1.62015e+02	-4.22166e+01	-7.04166e+01	-1.70366e+02	-1.69164e+02	-1.78724e+02	-1.75805e+02	-5.78430e+01	-1.48156e+02	
Factor	1.71954e-05	1.67617e-04	4.33893e-05	1.54313e-01	1.43465e-06	1.59009e-06	1.64624e-01	6.03797e-02	1.16268e-06	1.56915e-06	8.76266e-02	2.82588e-02	2.37562e-02	8.66378e-03	1.59200e-06	1.25101e-02	5.98073e-06	7.73180e-06	2.16888e-06	7.96205e-02	8.16941e-08	8.55453e-08	7.98241e-02	3.12165e-02	8.23015e-08	8.55736e-08	4.39271e-02	1.42219e-02	1.24740e-02	4.52282e-03	8.38410e-08	6.30525e-03	X	X	X	X	X	X	X	X	X	X	X	X	X	X	X	X	



#DISTANCE SETTINGS
A = Detector Channel
A-1	A-2	A-3	A-4	A-5	A-6	A-7	A-8	A-9	A-10	A-11	A-12	A-13	A-14	A-15	A-16	

2.5000e+00	3.0000e+00	2.5000e+00	3.0000e+00	2.0000e+00	3.0000e+00	1.5000e+00	3.0000e+00	3.0000e+00	3.0000e+00	3.0000e+00	3.0000e+00	3.0000e+00	3.0000e+00	1.5000e+00	3.0000e+00	

B = Detector Channel
B-1	B-2	B-3	B-4	B-5	B-6	B-7	B-8	B-9	B-10	B-11	B-12	B-13	B-14	B-15	B-16	

1.0000e+01	1.0000e+01	1.0000e+01	1.4400e+00	1.0000e+01	1.0000e+01	1.5100e+00	1.9400e+00	1.0000e+01	1.0000e+01	1.9900e+00	2.4900e+00	2.4100e+00	2.9000e+00	1.0000e+01	2.9800e+00	




#DATA BEGINS
time	group	step	mark	flag	A-AC1	A-AC2	A-AC3	A-AC4	A-AC5	A-AC6	A-AC7	A-AC8	A-AC9	A-AC10	A-AC11	A-AC12	A-AC13	A-AC14	A-AC15	A-AC16	A-DC1	A-DC2	A-DC3	A-DC4	A-DC5	A-DC6	A-DC7	A-DC8	A-DC9	A-DC10	A-DC11	A-DC12	A-DC13	A-DC14	A-DC15	A-DC16	A-Ph1	A-Ph2	A-Ph3	A-Ph4	A-Ph5	A-Ph6	A-Ph7	A-Ph8	A-Ph9	A-Ph10	A-Ph11	A-Ph12	A-Ph13	A-Ph14	A-Ph15	A-Ph16	B-AC1	B-AC2	B-AC3	B-AC4	B-AC5	B-AC6	B-AC7	B-AC8	B-AC9	B-AC10	B-AC11	B-AC12	B-AC13	B-AC14	B-AC15	B-AC16	B-DC1	B-DC2	B-DC3	B-DC4	B-DC5	B-DC6	B-DC7	B-DC8	B-DC9	B-DC10	B-DC11	B-DC12	B-DC13	B-DC14	B-DC15	B-DC16	B-Ph1	B-Ph2	B-Ph3	B-Ph4	B-Ph5	B-Ph6	B-Ph7	B-Ph8	B-Ph9	B-Ph10	B-Ph11	B-Ph12	B-Ph13	B-Ph14	B-Ph15	B-Ph16	aux-1	digaux	

420.470	1	1	0	256	0.24404	0.09448	0.09715	0.21541	0.13745	0.19507	0.23196	0.14703	0.016698	0.18055	0.16201	0.22184	0.24762	0.12162	0.043578	0.10763	-1.9937	-2.5229	-2.625	-2.5229	-2.8833	-2.5021	-2.5438	-2.9083	-2.45	-2.6208	-2.7021	-2.5958	-3.0146	-2.8229	-2.3896	-2.9875	464.008	191.125	193.344	472.547	270.299	446.590	258.031	299.587	419.445	420.131	447.485	503.632	155.777	225.871	376.625	391.607	0.00026428	0.00044842	6.8819e-05	1007	1.8969e-06	1.5273e-06	1095.7	209.91	4.2135e-06	2.5841e-06	264.32	74.682	58.942	17.048	2.8948e-06	23.849	0.00022114	0.00021531	5.776e-05	993.22	2.3756e-06	2.3097e-06	1078.5	208.5	2.437e-06	2.311e-06	263.05	74.94	58.724	17.247	2.3837e-06	24.147	260.645	255.227	237.686	156.839	310.621	374.755	157.060	164.606	328.419	358.583	164.090	170.914	171.056	178.453	281.002	177.984	-8191	255	
420.566	1	1	0	0	0.24244	0.17103	0.051465	0.31243	0.28854	0.099282	0.13999	0.096252	0.1306	0.056798	0.10752	0.2219	0.27921	0.18576	0.20569	0.28993	-1.9708	-2.525	-2.7396	-2.3312	-2.6604	-2.6813	-2.6625	-2.9458	-2.6042	-2.6729	-2.9125	-2.2562	-2.6604	-2.5938	-2.375	-3.0729	311.844	432.675	276.345	199.688	445.660	187.357	379.501	273.606	294.229	309.581	167.163	201.080	433.153	242.812	208.852	158.440	0.00026505	0.0005005	2.3569e-05	1008.7	2.8059e-06	3.6867e-06	1097.9	210.24	1.8404e-06	3.9959e-06	264.42	75.121	58.294	17.103	5.1472e-06	23.795	0.00023124	0.00020486	6.2021e-05	992.34	2.4244e-06	2.3545e-06	1080	208.47	2.3912e-06	2.3299e-06	263.72	74.861	58.641	17.271	2.3884e-06	24.189	255.845	238.960	208.659	156.778	282.328	333.238	156.952	164.204	277.524	280.140	163.536	170.619	171.264	178.218	289.336	177.840	-8191	255	
420.687	1	1	0	0	0.3194	0.09603	0.23355	0.45015	0.072677	0.15369	0.16399	0.16037	0.1294	0.16836	0.23445	0.38853	0.34862	0.14324	0.15124	0.19528	-2.2812	-2.8146	-2.8042	-2.6979	-2.8292	-2.7021	-2.4979	-2.9437	-2.4813	-2.6021	-2.8396	-2.4167	-2.65	-2.7917	-2.2958	-2.7021	312.824	254.532	481.597	454.067	443.573	151.710	505.455	495.825	435.439	230.400	339.696	304.789	468.608	230.099	399.731	216.402	0.00026489	0.00024747	8.139e-05	1006.7	2.7591e-06	2.8901e-06	1094.5	209.74	1.9875e-06	3.5936e-06	265.27	74.573	58.439	17.016	3.3925e-06	23.675	0.00022316	0.00020198	6.0268e-05	993.39	2.4066e-06	2.2563e-06	1078.5	208.47	2.324e-06	2.3987e-06	263.43	74.849	58.567	17.254	2.3462e-06	24.17	262.286	232.731	252.783	156.644	308.516	280.231	156.717	164.547	298.130	264.191	163.925	170.803	171.446	178.240	288.672	177.754	-8191	255	
420.783	1	1	0	0	0.16193	0.11774	0.15467	0.058199	0.066563	0.10154	0.20293	0.31851	0.14286	0.13948	0.22229	0.29737	0.14597	0.25694	0.086174	0.26205	-2.1479	-2.3271	-2.9167	-2.7104	-2.55	-2.9875	-2.6937	-2.9917	-2.8146	-2.7042	-3.05	-2.6333	-2.7604	-2.725	-2.4646	-2.85	396.144	421.176	385.868	423.733	501.380	329.068	445.637	474.199	215.941	225.993	394.371	413.724	322.767	207.237	194.728	154.627	0.00025214	0.00044669	3.0287e-05	1003.7	2.173e-06	1.9609e-06	1095.7	210.54	2.7983e-06	1.3758e-06	262.16	74.827	58.836	17.031	3.227e-06	23.993	0.00022717	0.00021348	5.6558e-05	991.22	2.4299e-06	2.2996e-06	1079.3	208.68	2.414e-06	2.3707e-06	262.63	74.83	58.59	17.248	2.2915e-06	24.188	261.813	228.244	242.663	156.694	297.225	262.843	156.873	164.539	326.771	260.836	163.980	171.051	171.244	178.306	298.130	177.593	-8191	255	
420.855	1	1	0	0	0.15391	0.12716	0.18033	0.27343	0.13175	0.13732	0.25419	0.40804	0.29232	0.17867	0.17992	0.1646	0.048036	0.13308	0.074765	0.24964	-2.3937	-2.6	-2.9083	-2.7417	-2.9375	-2.9979	-2.6813	-2.7604	-2.8021	-2.4958	-2.9062	-2.5292	-2.4042	-2.8438	-2.5146	-3.0062	179.347	456.944	494.073	459.750	149.307	408.194	439.311	400.199	463.842	340.040	188.003	472.876	493.353	478.096	501.919	259.511	0.00026264	0.00013632	7.8761e-05	1008.3	3.1507e-06	2.9094e-06	1097.5	209.88	2.7782e-06	3.9085e-06	265.91	74.647	58.248	17.157	3.017e-06	23.726	0.00023223	0.00021881	5.7755e-05	993.3	2.3736e-06	2.2741e-06	1080.2	208.54	2.4176e-06	2.3501e-06	262.72	74.807	58.541	17.289	2.4048e-06	24.206	257.162	237.297	224.680	156.877	310.761	310.215	156.658	164.483	313.498	256.123	164.160	170.777	171.560	178.692	305.846	177.520	-8191	255	
420.951	1	1	0	0	0.058362	0.10133	0.16063	0.048825	0.048674	0.10529	0.32091	0.13526	0.15092	0.13168	0.21027	0.24952	0.14306	0.1861	0.31921	0.15334	-2.5042	-2.4625	-2.7062	-2.6396	-2.3583	-2.8937	-2.7271	-2.6437	-2.5771	-2.2562	-2.8792	-2.4813	-2.4792	-2.7646	-2.3438	-2.7229	253.494	257.514	346.513	457.412	374.660	405.056	440.877	221.306	259.948	457.685	450.270	499.011	468.829	308.077	250.311	489.023	0.00026842	0.00036519	3.9164e-05	1007.9	4.9771e-06	2.2136e-06	1098.7	210.54	2.5193e-06	2.2036e-06	263.41	74.826	58.776	16.992	1.3151e-06	23.869	0.00022803	0.00021453	5.9436e-05	993.54	2.3882e-06	2.366e-06	1080.2	208.53	2.4173e-06	2.4506e-06	263.22	74.771	58.692	17.201	2.4337e-06	24.196	258.427	248.322	220.366	156.938	270.068	348.580	156.875	164.366	315.233	280.375	164.015	171.110	171.569	178.822	256.949	177.820	-8191	255	
421.072	1	1	0	0	0.061173	0.11335	0.1516	0.17264	0.07645	0.011484	0.14308	0.10328	0.10086	0.022784	0.13218	0.24584	0.052923	0.15497	0.057398	0.099879	-2.1437	-2.3812	-2.7625	-2.7333	-2.2542	-2.7583	-2.7958	-2.7583	-3.0062	-2.5083	-2.8208	-2.7708	-2.4625	-2.9688	-2.8208	-2.8229	440.138	460.407	291.163	488.583	465.025	474.105	457.798	418.041	393.656	206.883	501.294	502.975	291.898	429.491	192.730	229.590	0.00023632	0.00028233	6.1407e-05	1006.4	2.6523e-06	1.7174e-06	1091.9	208.24	2.2297e-06	2.7253e-06	264.49	74.35	58.475	16.957	3.146e-06	23.843	0.00023431	0.00021815	5.8456e-05	992.76	2.4144e-06	2.3594e-06	1079.9	208.23	2.4353e-06	2.4012e-06	262.52	74.772	58.626	17.26	2.3385e-06	24.232	261.171	221.999	239.755	156.869	268.225	346.099	157.102	164.534	359.495	316.630	164.277	170.877	171.474	178.627	322.335	177.858	-8191	255	
421.168	1	1	0	0	0.051056	0.26903	0.20333	0.29437	0.25845	0.064053	0.18187	0.1493	0.1148	0.17242	0.22019	0.21984	0.098124	0.18492	0.29421	0.30956	-2.6896	-2.3375	-2.8896	-2.8646	-2.5521	-2.9583	-3.0083	-2.5479	-2.7833	-2.7417	-2.8688	-2.9792	-2.6083	-2.9292	-2.8667	-2.5708	490.344	153.321	318.044	149.991	297.906	505.113	204.398	151.204	395.041	501.135	494.552	393.593	267.336	464.324	155.191	181.034	0.00023753	0.00026478	9.3247e-05	1009.5	2.7086e-06	1.6701e-06	1094	210.9	2.5247e-06	3.8261e-06	265.16	74.547	58.795	17.155	1.6872e-06	23.794	0.00022965	0.00021955	5.9355e-05	994.17	2.4498e-06	2.3354e-06	1079.7	209.09	2.359e-06	2.3527e-06	263.46	74.776	58.701	17.311	2.3301e-06	24.196	262.039	150.192	203.843	156.842	276.310	275.564	156.697	164.614	311.473	269.080	164.222	170.776	171.420	178.567	339.188	177.084	-8191	255	
421.264	1	1	0	0	0.040968	0.13066	0.21993	0.37847	0.15879	0.25285	0.27177	0.18306	0.24249	0.081212	0.080979	0.1099	0.11812	0.074876	0.18892	0.076952	-2.3937	-2.4896	-2.65	-2.9146	-2.3479	-2.9625	-2.9271	-2.6604	-3.0708	-2.7833	-2.7583	-2.7646	-2.4688	-2.8021	-2.6396	-2.3917	148.244	377.851	290.321	449.188	473.883	148.692	453.913	150.292	289.345	241.875	182.218	181.703	170.142	186.138	346.495	191.721	0.00024942	0.00039387	7.5812e-05	1004.9	4.3208e-06	4.0033e-06	1094	209.98	1.7634e-06	2.9463e-06	264.68	75.085	58.933	17.011	1.4345e-06	23.768	0.00022196	0.0002229	6.0796e-05	993.7	2.5472e-06	2.3837e-06	1080.9	209.07	2.4361e-06	2.5127e-06	263.32	74.953	58.793	17.308	2.3341e-06	24.183	259.135	224.775	255.863	156.864	285.349	330.611	156.768	164.344	297.116	302.368	164.258	170.976	171.864	178.294	240.486	177.383	-8191	255	
421.360	1	1	0	0	0.3489	0.15248	0.15016	0.16483	0.2182	0.072559	0.26882	0.25563	0.27211	0.048401	0.10833	0.19576	0.55049	0.3309	0.15435	0.17029	-2.4792	-2.6937	-2.6562	-2.9813	-2.3187	-2.9062	-3.0312	-2.5104	-2.7562	-2.5938	-2.5708	-2.8458	-2.3312	-2.7188	-2.8312	-2.5521	440.914	169.268	198.020	386.391	215.474	328.356	429.798	282.732	420.709	286.482	367.791	332.547	493.177	346.885	168.608	449.396	0.00024659	0.00040542	4.4621e-05	1004.8	1.9631e-06	2.4759e-06	1097.7	211.01	1.9856e-06	2.2558e-06	265.18	74.838	58.456	17.011	1.8875e-06	23.892	0.00022782	0.00022591	5.9798e-05	994.02	2.4758e-06	2.3566e-06	1079.8	209.04	2.3987e-06	2.4577e-06	263.56	74.954	58.6	17.262	2.3708e-06	24.216	259.472	263.199	263.783	156.825	299.895	318.403	156.871	164.467	289.662	325.019	163.850	171.006	171.374	178.394	280.735	177.833	-8191	255	
421.454	1	1	0	0	0.15366	0.13527	0.18494	0.024753	0.062401	0.081543	0.25699	0.18865	0.1437	0.035672	0.063868	0.31805	0.20636	0.29537	0.09089	0.18428	-2.2958	-2.425	-2.3438	-2.8792	-2.4	-2.7208	-2.8479	-2.4729	-2.9292	-2.6	-2.5104	-2.9604	-2.4229	-2.6958	-2.8167	-2.3187	201.878	373.295	348.154	405.696	341.834	161.728	421.549	444.626	463.254	359.534	442.791	153.970	454.406	188.316	489.400	296.333	0.00023644	0.00022287	2.7574e-05	1009.7	5.1873e-06	3.1636e-06	1096.9	210.36	1.7422e-06	3.9217e-06	264.77	74.827	58.394	17.099	2.83e-06	23.782	0.00023043	0.00022806	6.1095e-05	994.22	2.5225e-06	2.3529e-06	1080.1	208.99	2.4265e-06	2.4399e-06	263.52	74.856	58.601	17.3	2.4029e-06	24.163	262.062	199.860	267.046	156.732	269.226	347.655	156.829	164.390	272.891	260.409	164.124	170.905	171.326	178.726	288.148	177.687	-8191	255	
421.552	1	1	0	0	0.1855	0.015445	0.24548	0.090923	0.3009	0.22191	0.39097	0.1629	0.22344	0.16093	0.071538	0.048498	0.076116	0.063875	0.07591	0.12485	-2.1896	-2.7667	-2.5542	-3.1292	-2.5521	-2.8458	-3.05	-2.5958	-2.8896	-2.7792	-2.4313	-2.8375	-2.6104	-2.6729	-3.0542	-2.6896	176.955	214.225	356.816	479.072	152.952	252.073	487.868	156.265	459.828	233.004	247.261	289.922	474.691	208.331	175.556	429.366	0.00024012	0.00031466	0.00011731	1006.8	1.7649e-06	1.7847e-06	1095.2	211.06	1.7374e-06	3.3408e-06	264.64	74.773	58.388	17.043	3.3956e-06	23.774	0.00023319	0.00022691	6.1754e-05	995.54	2.4753e-06	2.3774e-06	1080.6	209.1	2.4531e-06	2.398e-06	263.03	74.828	58.662	17.256	2.3744e-06	24.212	256.355	248.051	240.789	156.878	307.060	252.092	156.939	164.474	266.946	291.188	163.838	170.990	171.361	178.302	280.921	178.033	-8191	255	
421.671	1	1	0	0	0.19001	0.13403	0.17022	0.31007	0.13506	0.068748	0.22282	0.14136	0.17399	0.1695	0.12468	0.074165	0.27991	0.20054	0.28448	0.36798	-2.5375	-2.7125	-2.6771	-2.8521	-2.5458	-2.6104	-3.0479	-2.55	-2.6583	-2.5896	-2.3042	-2.8271	-2.5479	-2.5438	-2.8458	-2.7062	220.368	311.512	266.042	431.412	359.516	381.697	190.667	405.983	291.254	443.456	181.178	465.099	196.240	156.275	268.409	180.687	0.00025757	0.00023463	7.9925e-05	1007.1	2.6062e-06	2.0316e-06	1095	209.59	3.3213e-06	1.0238e-06	265.08	74.349	58.791	17.076	3.9559e-06	23.866	0.00023482	0.00021839	6.283e-05	994.81	2.4757e-06	2.391e-06	1079.3	208.62	2.4265e-06	2.3674e-06	263.59	74.728	58.78	17.342	2.4389e-06	24.237	260.721	228.822	270.332	156.784	295.408	327.082	157.060	164.320	301.092	302.664	163.965	171.166	171.501	178.392	244.457	177.813	-8191	255	
421.767	1	1	0	0	0.1454	0.1325	0.25136	0.17469	0.20149	0.28933	0.38132	0.090283	0.29548	0.2204	0.20706	0.1053	0.20852	0.19241	0.23283	0.20354	-2.3833	-2.9104	-2.2896	-2.8375	-2.5417	-2.6042	-3.1937	-2.7104	-2.8	-2.8875	-2.5292	-3.0083	-2.8104	-2.5646	-2.9938	-2.6958	307.671	463.291	225.658	204.167	256.169	191.968	452.434	415.935	445.808	324.622	207.942	339.692	174.057	149.373	273.353	463.807	0.000272	0.00035806	5.4558e-05	1002.5	1.0065e-06	5.0003e-06	1098.9	211.23	2.5393e-06	1.7359e-06	264.64	74.737	58.579	17.045	1.3281e-06	23.889	0.00023216	0.00020882	6.2608e-05	992.28	2.4282e-06	2.3594e-06	1082.3	208.82	2.4639e-06	2.2599e-06	263.09	74.911	58.725	17.281	2.3131e-06	24.212	261.797	238.835	188.751	156.858	298.610	290.764	156.900	164.230	299.065	305.715	164.082	170.674	171.297	178.707	212.979	177.432	-8191	255	
421.864	1	1	0	0	0.22368	0.069681	0.13636	0.23569	0.13922	0.21616	0.1571	0.28477	0.17231	0.20507	0.23215	0.12265	0.018357	0.22186	0.26252	0.23065	-2.1333	-2.8521	-2.6375	-3.0792	-2.7979	-2.7021	-2.9604	-2.7188	-2.8354	-2.9354	-2.4521	-2.7896	-2.7313	-2.4667	-2.875	-2.5792	396.874	371.008	389.800	436.432	396.290	242.522	461.324	472.790	371.085	169.821	468.497	161.871	447.869	435.799	353.040	380.475	0.00024223	0.000275	3.0893e-05	1007.3	4.7466e-06	2.2109e-06	1096.8	210.87	2.1611e-06	4.3976e-06	263.26	75.035	58.969	17.072	6.6553e-07	23.964	0.00023269	0.00022179	6.2238e-05	995.58	2.4753e-06	2.3397e-06	1081.3	209.07	2.4548e-06	2.3932e-06	262.91	74.946	58.858	17.304	2.3799e-06	24.232	257.528	259.708	307.749	156.910	272.151	296.993	156.873	164.503	311.996	279.670	164.255	170.783	171.513	178.507	267.747	177.909	-8191	255	
421.960	1	1	0	0	0.18426	0.15905	0.027076	0.15266	0.19082	0.26487	0.19886	0.11593	0.1433	0.26634	0.30129	0.20597	0.24774	0.13763	0.17965	0.20841	-2.2021	-2.9146	-2.4458	-2.8083	-2.7833	-2.4979	-3.0042	-2.6688	-2.525	-2.9417	-2.8229	-2.8167	-3.125	-2.7438	-3.0729	-2.775	231.297	226.560	156.823	440.904	459.057	207.993	422.130	450.347	349.197	390.011	456.948	477.117	437.550	416.824	390.379	474.554	0.00024874	0.00025538	0.00014206	1007.5	3.9057e-06	1.6432e-06	1092.7	211.54	2.2327e-06	3.2537e-06	264.59	74.336	58.412	17.003	1.9897e-06	23.832	0.00022875	0.00021788	6.1668e-05	993.76	2.4702e-06	2.4354e-06	1079.2	209.19	2.4085e-06	2.3563e-06	262.88	74.707	58.629	17.264	2.332e-06	24.197	264.168	264.913	228.872	156.690	319.536	350.210	157.027	164.412	322.910	284.334	163.909	170.866	171.478	178.469	320.476	177.495	-8191	255	
422.080	1	1	0	0	0.20196	0.24338	0.21245	0.32978	0.13588	0.04861	0.22145	0.11655	0.16129	0.066352	0.2663	0.19024	0.053211	0.071848	0.10987	0.12765	-1.9271	-2.8292	-2.6146	-2.6813	-2.6896	-2.6437	-3.0042	-2.8146	-2.625	-3.1729	-2.7938	-2.6875	-2.9104	-2.5875	-2.9667	-2.5917	294.646	433.725	229.937	476.606	215.460	175.131	387.572	356.086	350.203	459.674	431.063	249.587	240.615	476.337	368.926	378.270	0.00024781	0.00039324	8.8941e-05	1015.1	4.3197e-06	2.7937e-07	1098	210.67	1.9699e-06	3.0366e-06	265.46	74.294	58.905	17.045	1.4356e-06	23.971	0.00023221	0.00021172	6.2193e-05	996.7	2.5075e-06	2.4453e-06	1080.4	208.97	2.3799e-06	2.316e-06	263.31	74.519	58.754	17.296	2.3778e-06	24.203	263.626	222.700	203.681	156.679	305.176	352.012	156.771	164.214	286.931	337.361	163.931	170.996	171.151	178.447	240.636	177.647	-8191	255	
422.152	1	1	0	0	0.031052	0.14202	0.079824	0.051273	0.14478	0.1526	0.21493	0.072627	0.22863	0.096434	0.17393	0.27794	0.27064	0.23124	0.091919	0.29996	-2.0354	-2.925	-2.7229	-2.7687	-2.9521	-2.4771	-2.7417	-2.7667	-2.3854	-2.7542	-2.6958	-2.4125	-2.875	-2.5062	-2.9375	-2.9396	380.225	196.929	290.734	323.049	277.337	237.341	371.880	203.235	196.681	281.450	416.377	479.993	173.865	149.741	162.085	466.045	0.00024212	0.00026128	8.2527e-05	1008.7	2.9683e-06	2.8454e-06	1096	211.47	2.7311e-06	3.2838e-06	263.42	74.683	58.766	17.065	2.566e-06	23.96	0.00022488	0.00021237	6.1235e-05	994.67	2.4345e-06	2.3372e-06	1079.9	209.17	2.4322e-06	2.3428e-06	262.9	74.767	58.734	17.309	2.3701e-06	24.202	260.801	289.470	239.650	156.690	275.678	315.392	156.967	164.554	346.846	300.412	164.348	170.904	171.529	178.936	270.854	177.341	-8191	255	
422.248	1	1	0	0	0.039967	0.22505	0.074088	0.23711	0.19207	0.10659	0.43061	0.039579	0.13255	0.14389	0.091183	0.10988	0.3523	0.25212	0.18216	0.0049931	-2.0583	-2.9354	-2.6979	-2.5354	-2.9667	-2.525	-2.9833	-2.9188	-2.3083	-2.7583	-2.9042	-2.5083	-3.0208	-2.7167	-2.6042	-2.975	398.292	280.518	303.662	497.250	464.491	424.034	474.883	263.713	169.155	292.398	215.280	406.398	265.582	418.004	258.865	212.336	0.00025339	0.00058585	5.9281e-05	1006.9	5.09e-06	1.7135e-06	1092.7	211.21	1.9024e-06	2.8185e-06	263.68	75.134	58.331	16.892	2.0577e-06	23.809	0.00022179	0.00021575	6.0801e-05	991.95	2.4792e-06	2.3022e-06	1078.8	208.76	2.3218e-06	2.3627e-06	262.51	74.794	58.618	17.233	2.3407e-06	24.2	253.249	247.012	254.968	157.087	308.067	362.350	156.938	164.564	306.633	267.787	163.819	170.715	171.483	178.523	293.353	177.952	-8191	255	
422.344	1	1	0	0	0.18723	0.20515	0.0089938	0.25521	0.14291	0.096123	0.15391	0.089651	0.33596	0.12492	0.1673	0.18234	0.11127	0.09475	0.025313	0.035743	-1.9271	-2.6833	-2.8625	-2.6479	-3	-2.7438	-2.9938	-3.025	-2.7438	-2.8417	-2.8875	-2.5833	-2.8937	-2.5312	-2.4833	-2.8979	301.503	466.148	431.194	447.552	311.214	300.317	217.276	381.964	313.090	359.908	192.350	206.618	220.754	283.961	441.377	426.403	0.00025857	0.00035114	9.0206e-05	1007.2	3.2534e-06	2.728e-06	1090.5	210.83	1.9502e-06	2.5185e-06	263.83	74.526	58.936	17.016	2.4721e-06	23.689	0.00022717	0.00021506	6.0421e-05	993	2.338e-06	2.3012e-06	1078.6	209.1	2.3096e-06	2.2417e-06	263.18	74.781	58.708	17.252	2.3951e-06	24.159	263.186	246.710	269.694	156.811	302.184	284.439	156.856	164.410	339.188	296.650	163.925	170.331	171.832	178.112	314.042	178.116	-8191	255	
422.463	1	1	0	0	0.26972	0.18281	0.039877	0.049716	0.039388	0.32127	0.2074	0.23556	0.36055	0.12287	0.19444	0.077428	0.15695	0.30382	0.06992	0.2582	-1.9062	-2.6021	-2.6875	-2.6583	-3.0083	-2.7708	-3.025	-2.9729	-2.6958	-2.675	-3.0104	-2.775	-3.1271	-2.7792	-2.7	-3.0375	335.309	451.878	445.656	505.713	333.972	155.981	438.182	429.908	369.532	376.534	361.755	361.078	426.729	416.474	253.248	157.170	0.00024101	0.00032164	7.5615e-05	1010.8	4.6087e-06	3.9245e-06	1093	210.94	3.3001e-06	2.2086e-06	264.79	74.76	58.251	17.049	1.216e-06	23.963	0.00022041	0.00020507	5.701e-05	993.8	2.3914e-06	2.348e-06	1079.6	208.61	2.3235e-06	2.3303e-06	262.93	74.692	58.46	17.281	2.2539e-06	24.207	256.113	234.529	262.287	156.842	325.750	329.280	156.972	164.353	301.627	310.418	163.764	171.000	171.576	178.237	280.817	177.978	-8191	255	
422.559	1	1	0	0	0.14998	0.26976	0.20477	0.30118	0.19276	0.25435	0.23236	0.1563	0.048895	0.1175	0.1861	0.06229	0.016022	0.14294	0.11479	0.095348	-2.0854	-2.675	-2.7292	-2.7687	-2.975	-2.8021	-2.7771	-2.9792	-2.7062	-2.8563	-2.8937	-2.55	-2.8187	-2.6979	-2.4375	-2.825	147.888	237.066	284.987	457.641	282.022	342.592	458.619	463.019	473.479	305.618	470.622	216.450	459.293	492.080	485.464	367.036	0.00026234	0.00027553	9.0172e-05	1007.2	3.0361e-06	2.2964e-06	1093.3	210.44	2.2029e-06	3.5876e-06	262.86	74.866	58.372	17.053	2.994e-06	23.759	0.00022905	0.00021267	5.7462e-05	993.54	2.3821e-06	2.3293e-06	1076.8	209.04	2.3243e-06	2.2474e-06	262.93	74.907	58.564	17.241	2.4539e-06	24.136	259.527	289.282	257.598	156.839	264.197	307.255	156.981	164.352	292.280	314.261	164.021	170.959	171.228	178.625	333.377	177.871	-8191	255	
422.655	1	1	0	0	0.094613	0.10396	0.23807	0.31448	0.39053	0.053871	0.26644	0.28568	0.097049	0.087254	0.10998	0.16119	0.16049	0.13317	0.16845	0.15738	-2.1354	-2.5854	-2.7042	-2.7104	-2.925	-3	-2.7833	-3.1	-2.6417	-2.5792	-2.8917	-2.6042	-2.7812	-2.8292	-2.3729	-2.9604	170.082	391.788	405.182	455.234	469.522	199.325	420.311	150.599	375.374	335.913	398.194	488.950	466.947	324.635	390.675	400.912	0.00025455	0.00037424	0.00011205	1008.8	2.8054e-06	4.1805e-06	1100.2	210.14	3.0729e-06	2.451e-06	264.68	75.177	58.691	17	3.3608e-06	23.834	0.00023032	0.00020562	5.8799e-05	994.59	2.421e-06	2.273e-06	1082	208.56	2.4354e-06	2.3959e-06	263.39	74.906	58.726	17.264	2.4136e-06	24.246	257.799	244.669	263.583	156.882	321.353	303.862	157.063	164.651	292.017	284.484	163.976	170.763	171.784	178.546	304.539	177.644	-8191	255	
422.752	1	1	0	0	0.23096	0.076724	0.35442	0.15593	0.10499	0.090559	0.2552	0.03783	0.084555	0.14859	0.16375	0.25911	0.10522	0.16564	0.21062	0.27864	-2.1958	-2.4042	-3.0167	-2.6104	-2.7938	-2.5938	-2.3937	-2.7083	-2.6146	-2.6125	-2.85	-2.5938	-2.5375	-2.8083	-2.3438	-2.8292	398.027	351.069	255.299	450.794	254.013	420.260	447.542	450.615	219.423	334.742	235.524	161.460	396.118	370.557	357.166	400.207	0.00023508	0.00037913	4.7447e-05	1006.1	3.9072e-06	3.173e-06	1092.1	210.29	1.8049e-06	4.8121e-06	264.66	74.624	58.479	16.986	2.73e-06	23.779	0.00022716	0.00021834	5.931e-05	994.58	2.4724e-06	2.3691e-06	1077.6	209.11	2.3915e-06	2.3798e-06	263.19	74.591	58.625	17.248	2.4892e-06	24.152	262.123	257.228	229.418	156.922	305.180	302.001	156.906	164.425	298.637	325.627	163.775	170.485	170.926	178.492	267.043	177.589	-8191	255	
422.848	1	1	0	0	0.086427	0.1364	0.11977	0.2191	0.1303	0.23669	0.069247	0.088987	0.055234	0.13437	0.093642	0.22419	0.19998	0.13501	0.094001	0.057808	-2.4313	-2.6667	-2.7979	-2.7375	-2.525	-2.8521	-2.4771	-2.8	-2.6813	-2.2771	-3.0125	-2.5708	-2.5292	-2.9896	-2.5854	-2.8438	243.220	310.605	293.972	152.789	254.206	146.760	424.244	201.628	500.911	386.918	451.331	458.932	224.630	174.254	502.088	497.744	0.00026926	0.00044848	7.9129e-05	1003.8	2.9643e-06	2.3704e-06	1094.1	210.13	2.9911e-06	2.4691e-06	265.76	75.394	58.354	17.102	2.0785e-06	24.002	0.00023193	0.00022385	5.8637e-05	993.58	2.4575e-06	2.3956e-06	1081.7	208.85	2.3775e-06	2.4239e-06	263.7	74.902	58.655	17.281	2.405e-06	24.227	259.806	258.169	254.334	156.773	304.775	275.076	157.113	164.470	307.021	305.735	163.769	170.830	171.509	178.546	335.794	177.740	-8191	255	
422.944	1	1	0	0	0.097013	0.090253	0.053337	0.11942	0.1213	0.13091	0.40532	0.15167	0.16984	0.12024	0.18335	0.064712	0.35262	0.0088808	0.18818	0.19724	-2.3208	-2.6271	-3.0708	-2.8583	-2.5604	-2.8729	-2.7271	-2.8854	-2.6417	-2.4938	-3.125	-2.8896	-2.4708	-3.0146	-2.5938	-2.9521	344.354	340.593	312.053	475.543	150.337	488.582	417.073	193.813	171.984	325.916	257.354	245.935	439.870	419.150	275.703	361.380	0.0002524	0.00030145	4.8788e-05	1010	3.4636e-06	1.568e-06	1098.1	211.34	2.1729e-06	2.6379e-06	265.49	74.95	58.438	16.994	1.3628e-06	23.718	0.0002323	0.0002204	5.729e-05	995.71	2.4558e-06	2.3561e-06	1080.2	209.26	2.4469e-06	2.3658e-06	263.9	74.896	58.585	17.275	2.4134e-06	24.174	261.806	222.208	265.886	156.832	302.683	254.903	156.843	164.562	327.280	312.492	163.983	171.116	171.409	178.639	307.509	177.717	-8191	255	
423.040	1	1	0	0	0.27392	0.18688	0.10567	0.14431	0.040979	0.19878	0.067412	0.28499	0.041865	0.15792	0.1603	0.25107	0.10997	0.12134	0.074108	0.18886	-2.4437	-2.4521	-2.8	-2.7125	-2.5896	-3.05	-2.8542	-2.75	-2.9604	-2.6229	-2.8771	-2.7188	-2.5521	-3.075	-2.5938	-2.7875	245.230	349.510	210.034	447.473	260.054	392.752	430.430	188.692	463.199	322.119	346.282	204.615	414.175	310.658	328.043	285.994	0.00022851	0.00028137	9.6272e-05	1006.8	4.6968e-06	6.1438e-07	1100.7	211.92	1.6944e-06	2.0228e-06	265.45	74.545	58.831	17.098	1.6103e-06	24.022	0.00023067	0.00022113	5.917e-05	995.35	2.5073e-06	2.3172e-06	1083.1	209.6	2.3713e-06	2.3781e-06	263.67	74.857	58.749	17.348	2.4434e-06	24.283	260.862	256.886	226.958	156.995	288.094	233.539	156.810	164.663	299.339	353.797	163.864	171.048	171.499	178.777	300.663	178.044	-8191	255	
423.161	1	1	0	0	0.14409	0.11846	0.14881	0.10219	0.19019	0.17551	0.23485	0.15619	0.14808	0.081098	0.15634	0.090227	0.198	0.049345	0.075688	0.12619	-2.3958	-2.4417	-2.7062	-2.8229	-2.2917	-2.8583	-2.5542	-2.625	-2.7583	-2.5146	-2.7167	-2.9521	-2.5438	-2.8458	-2.7021	-2.5958	351.657	227.862	315.958	294.059	189.481	267.931	475.339	440.754	218.863	298.991	382.771	184.994	233.915	275.196	350.514	344.625	0.00026572	0.00020932	9.3996e-05	1013.6	2.866e-06	1.6655e-06	1098	211.6	2.54e-06	2.0097e-06	264.24	74.739	58.974	17.002	2.7503e-06	23.764	0.00022917	0.00021979	6.1551e-05	997.84	2.5046e-06	2.3331e-06	1082.9	209.83	2.466e-06	2.4016e-06	263.38	74.825	58.86	17.273	2.3924e-06	24.144	257.101	236.998	260.564	156.882	275.983	354.350	156.902	164.663	324.605	303.587	164.064	170.937	171.382	178.690	321.417	177.896	-8191	255	
423.257	1	1	0	0	0.10362	0.1123	0.18408	0.23246	0.23981	0.17709	0.13333	0.036955	0.13714	0.048451	0.081634	0.1658	0.093418	0.056927	0.06287	0.18755	-2.6708	-2.4958	-2.75	-3.0604	-2.4479	-2.8187	-2.6146	-2.5687	-2.8563	-2.6833	-2.8125	-2.8375	-2.625	-2.7812	-2.7042	-2.45	273.385	396.209	212.181	460.790	329.437	341.795	158.939	225.953	241.187	157.909	291.322	210.567	338.267	437.468	440.547	458.744	0.00023322	0.00030013	0.00011339	1009.4	3.4039e-06	4.5387e-06	1097.9	211.61	3.2192e-06	2.1795e-06	266.38	74.551	58.846	17.182	2.3034e-06	24.034	0.00022927	0.00022485	6.0272e-05	996.86	2.4459e-06	2.3012e-06	1082.7	209.39	2.4452e-06	2.3399e-06	263.79	74.942	58.865	17.337	2.3952e-06	24.298	255.022	249.916	274.497	156.785	273.112	335.352	156.889	164.544	306.704	297.400	163.933	170.785	171.588	178.317	308.484	178.020	-8191	255	
423.353	1	1	0	0	0.15994	0.34883	0.15943	0.25727	0.17345	0.25068	0.22749	0.24495	0.12872	0.19552	0.19987	0.25063	0.15947	0.10242	0.14448	0.027473	-2.2458	-2.5333	-2.7146	-3.0583	-2.6542	-2.6646	-3.025	-2.5625	-2.8917	-2.5229	-2.7521	-2.9729	-2.4354	-2.75	-2.8208	-2.5667	477.851	166.430	202.796	489.711	333.271	482.881	328.564	445.523	436.317	428.431	440.838	494.847	363.813	244.927	399.176	468.483	0.00027277	0.00027565	5.266e-05	1014.3	3.9299e-06	1.7028e-06	1099.6	209.85	2.208e-06	4.9674e-07	264.14	74.79	59.011	16.974	4.4056e-06	23.782	0.00023357	0.00022081	6.0968e-05	998	2.4575e-06	2.4056e-06	1084.3	209.06	2.4584e-06	2.3912e-06	263.66	74.872	58.845	17.26	2.4422e-06	24.223	256.572	232.341	220.237	156.641	299.097	258.666	156.756	164.320	313.308	270.593	163.931	170.881	170.971	178.729	294.214	177.863	-8191	255	
423.447	1	1	0	0	0.24764	0.078237	0.22211	0.1157	0.084867	0.057229	0.16864	0.18257	0.11855	0.17207	0.047103	0.14431	0.025847	0.23266	0.16275	0.15057	-2.5375	-2.5208	-2.5521	-3.2792	-2.6646	-2.6479	-2.9104	-2.3896	-2.8417	-2.8708	-2.5646	-2.9208	-2.6208	-2.7188	-2.9333	-2.5333	396.086	304.571	347.512	486.987	394.519	302.685	403.512	478.850	486.619	490.830	246.173	506.519	416.697	467.978	444.809	442.736	0.00023774	0.00032854	5.4768e-05	1006.3	3.5078e-06	2.036e-06	1099.3	211.56	2.8133e-06	2.3848e-06	265.42	74.701	58.604	17.045	3.4538e-06	23.857	0.00022762	0.00022392	6.33e-05	997.47	2.4588e-06	2.3304e-06	1084.5	209.5	2.4834e-06	2.4281e-06	263.75	74.943	58.773	17.347	2.3961e-06	24.286	262.875	213.737	231.937	156.885	303.990	280.587	157.161	164.531	302.599	247.279	163.726	170.715	171.351	178.228	315.363	177.566	-8191	255	
423.544	1	1	0	0	0.058782	0.15377	0.26224	0.34139	0.13701	0.068465	0.14899	0.21662	0.18988	0.11892	0.095062	0.16342	0.032184	0.23957	0.21636	0.11239	-2.1729	-2.3083	-2.225	-2.9813	-2.45	-2.5938	-2.8521	-2.3563	-2.5938	-2.4708	-2.5125	-2.875	-2.425	-2.5542	-2.7875	-2.4604	238.980	178.623	317.693	501.773	413.640	177.291	450.163	382.391	151.881	152.787	494.960	440.465	164.162	495.927	229.226	297.159	0.00025778	0.00041516	7.6188e-05	1009.1	3.6753e-06	3.2521e-06	1099.5	210.85	5.5713e-06	1.7933e-06	264.7	74.864	59	17.095	1.6047e-06	23.842	0.00023831	0.00023501	6.3611e-05	997.63	2.4481e-06	2.4494e-06	1084.3	209.79	2.4852e-06	2.4745e-06	263.87	75.004	58.889	17.332	2.4005e-06	24.23	256.610	224.082	260.273	157.121	301.685	264.784	156.890	164.652	305.075	303.093	163.825	171.121	171.460	178.517	273.594	178.004	-8191	255	
423.640	1	1	0	0	0.073866	0.27072	0.068548	0.28186	0.114	0.045196	0.084565	0.081423	0.32082	0.12917	0.098868	0.29538	0.076594	0.22744	0.095392	0.16265	-2.3833	-2.8688	-2.6354	-3.0146	-2.5396	-2.6063	-3.2146	-2.6063	-2.7812	-2.8542	-2.3083	-2.8521	-2.5396	-2.3208	-3.1167	-2.7708	227.771	239.490	182.577	430.816	159.185	359.655	160.478	230.478	389.668	386.810	188.359	473.162	488.974	229.653	157.631	294.960	0.00027629	0.00026827	9.6933e-05	1011.4	4.278e-06	1.6854e-06	1097.7	212.03	1.8754e-06	2.2886e-06	265.4	74.95	58.857	17.058	1.4203e-06	23.927	0.00023912	0.00021475	6.1275e-05	997.07	2.4835e-06	2.478e-06	1085	210.31	2.4411e-06	2.4388e-06	263.81	74.988	58.837	17.355	2.3774e-06	24.281	257.780	254.192	232.664	156.966	303.933	303.885	156.964	164.492	326.970	297.770	163.567	170.770	171.299	178.420	327.069	177.876	-8191	255	
423.760	1	1	0	0	0.12846	0.25021	0.23704	0.40824	0.23635	0.15086	0.53335	0.34139	0.26153	0.26477	0.19904	0.1728	0.1856	0.08541	0.10785	0.21963	-2.2271	-2.7854	-2.3833	-2.8563	-2.7188	-2.5604	-3.0104	-2.4083	-2.5312	-2.8333	-2.5271	-2.9083	-2.8083	-2.7958	-2.9896	-2.6125	258.427	190.213	234.273	457.136	194.692	491.746	424.053	420.576	160.272	267.210	219.578	467.641	465.410	439.051	441.171	189.508	0.00028033	0.00044806	8.4985e-05	1014.7	2.327e-06	2.4345e-06	1103.7	210.32	4.2686e-06	3.9514e-06	266.53	74.458	58.289	17.109	2.9062e-06	24.006	0.00023555	0.00022356	6.3263e-05	1000.9	2.5938e-06	2.4639e-06	1085.9	209.19	2.5733e-06	2.4062e-06	264.51	74.886	58.783	17.311	2.4422e-06	24.277	256.668	216.602	216.169	156.807	269.761	301.904	157.233	164.639	315.539	300.216	164.101	170.875	171.309	178.528	316.466	177.593	-8191	255	
423.856	1	1	0	0	0.22926	0.22246	0.21767	0.22145	0.040044	0.1876	0.35598	0.10655	0.025748	0.042326	0.083095	0.074537	0.022762	0.21618	0.31561	0.013917	-2.1646	-2.6854	-2.4396	-2.7333	-2.5979	-2.4229	-3.025	-2.6688	-2.7792	-3.0458	-2.4458	-2.625	-2.6125	-2.4083	-2.7979	-2.6708	193.239	158.925	188.560	424.834	398.558	190.359	476.922	336.348	407.878	486.526	384.376	312.069	452.970	379.033	388.980	479.993	0.00025949	0.00017574	9.7495e-05	1010.7	2.3547e-06	3.3565e-06	1104.7	210.29	1.8116e-06	2.9077e-06	264.23	74.678	58.932	16.938	2.2812e-06	23.91	0.0002352	0.00022575	6.4e-05	998.72	2.5344e-06	2.4655e-06	1085.1	209.15	2.4353e-06	2.4522e-06	263.87	75.12	58.93	17.32	2.4338e-06	24.232	260.215	273.798	232.265	156.718	264.520	305.457	156.746	164.587	310.849	325.255	163.946	170.865	171.278	178.315	298.806	177.568	-8191	255	
423.953	1	1	0	0	0.35481	0.23869	0.11392	0.27938	0.3042	0.25152	0.064839	0.28705	0.041392	0.13705	0.03827	0.18205	0.13823	0.21172	0.071359	0.17896	-2.1208	-2.85	-2.3583	-2.7583	-2.6042	-2.3438	-3.1688	-2.8667	-2.5583	-2.9729	-2.6625	-2.8	-2.8937	-2.3833	-2.7917	-2.6521	420.703	443.625	165.564	484.785	371.717	236.834	317.170	379.417	224.657	316.395	211.539	413.663	479.574	495.110	320.896	197.911	0.00024765	0.00051673	9.7752e-05	1013.3	1.4321e-06	4.3313e-06	1095.4	210.28	3.1464e-06	1.5559e-06	264.15	74.513	58.436	17.129	5.0872e-06	23.892	0.00023974	0.00021699	6.3214e-05	1000.4	2.4316e-06	2.3862e-06	1083.7	209.57	2.5033e-06	2.3968e-06	263.64	75.028	58.732	17.387	2.5867e-06	24.291	260.026	300.169	268.863	156.958	309.717	315.957	156.996	164.286	316.332	281.943	163.824	170.880	171.320	178.680	330.477	177.762	-8191	255	
424.024	1	1	0	0	0.21867	0.28051	0.19699	0.29987	0.44088	0.19958	0.38361	0.025426	0.16145	0.11653	0.010185	0.19534	0.11705	0.26566	0.17696	0.15624	-2.0042	-2.9333	-2.5062	-2.9104	-2.6958	-2.5604	-2.9042	-2.7875	-2.6042	-3.0542	-2.6083	-2.7042	-2.9562	-2.6104	-2.6083	-2.8292	302.197	409.557	356.225	449.518	268.547	349.075	435.715	378.508	351.435	335.694	484.962	376.913	149.381	173.505	270.181	303.025	0.00026028	0.00027091	3.662e-05	1010.1	3.2114e-06	3.3248e-06	1102.6	210.8	2.8815e-06	1.198e-06	263.84	75.362	58.925	17.104	2.2843e-06	23.849	0.00023464	0.00022332	6.2771e-05	998.6	2.4798e-06	2.4061e-06	1086	209.46	2.5037e-06	2.4264e-06	263.69	75.177	58.796	17.331	2.4695e-06	24.242	258.692	260.928	244.788	156.824	293.251	288.243	156.931	164.474	328.462	399.520	163.987	170.489	171.794	178.839	328.584	177.431	-8191	255	
424.145	1	1	0	0	0.07986	0.34655	0.05714	0.057561	0.15203	0.22485	0.11277	0.1007	0.17391	0.1494	0.087519	0.054292	0.13094	0.1425	0.10774	0.096204	-2.1104	-2.9062	-2.6188	-2.6208	-2.9146	-2.4188	-2.7771	-2.8312	-2.4021	-2.8771	-2.7104	-2.7958	-3.1188	-2.6562	-2.9542	-3.0542	270.859	219.633	376.577	333.263	227.280	501.448	451.654	411.516	200.998	163.398	363.979	456.074	433.171	260.788	247.677	434.805	0.00024251	0.00024681	6.6367e-05	1013.1	2.5056e-06	3.729e-06	1097.5	211.31	1.5351e-06	3.4561e-06	265.99	74.877	59.005	17.089	2.4017e-06	23.946	0.00023233	0.00020916	6.1031e-05	998.68	2.4231e-06	2.3947e-06	1084.5	209.39	2.39e-06	2.2816e-06	263.8	74.944	58.859	17.27	2.3303e-06	24.278	263.909	208.091	259.042	156.711	291.916	348.597	156.805	164.428	325.567	278.243	163.761	170.572	171.353	178.241	301.784	178.009	-8191	255	
424.241	1	1	0	0	0.068408	0.2881	0.34445	0.040417	0.1679	0.082264	0.257	0.1762	0.1723	0.24708	0.066313	0.044793	0.16433	0.14312	0.13681	0.22262	-2.1375	-2.875	-2.6813	-2.5583	-2.7896	-2.475	-2.8	-2.9729	-2.4562	-2.9875	-2.8354	-2.6542	-2.9417	-2.4396	-2.7333	-2.8229	479.087	234.213	212.492	273.503	415.503	339.180	377.573	173.426	413.499	283.816	453.001	352.620	209.769	372.781	360.045	242.312	0.00024454	0.00032019	2.383e-05	1011.3	5.1039e-06	2.4624e-06	1096.9	210.43	3.6877e-06	3.3564e-06	264.34	75.023	58.9	16.958	9.0236e-07	23.835	0.00022073	0.00020314	5.8099e-05	997.03	2.3485e-06	2.2826e-06	1081.7	208.86	2.354e-06	2.3009e-06	263.03	74.817	58.844	17.284	2.3551e-06	24.213	261.156	158.348	188.287	156.820	299.257	304.526	157.048	164.463	311.832	280.731	164.035	170.829	171.704	178.813	424.830	177.742	-8191	255	
424.337	1	1	0	0	0.25259	0.1061	0.21703	0.33434	0.24316	0.29325	0.27738	0.18742	0.073637	0.25313	0.1387	0.16779	0.11204	0.095109	0.12046	0.018356	-2.1063	-2.8583	-2.8438	-2.6896	-3.0292	-2.6813	-2.9229	-2.8542	-2.3729	-3.0146	-2.9229	-2.7313	-3.1542	-2.7333	-2.7333	-3.1917	432.400	456.161	369.398	163.035	214.900	244.822	445.888	445.506	183.612	288.593	409.002	219.834	364.983	308.928	209.775	315.078	0.00029119	0.00045532	7.5506e-05	1008.5	3.7112e-06	3.2987e-06	1094.3	209.96	2.9656e-06	2.6137e-06	263.88	74.72	58.417	16.933	3.191e-06	23.911	0.00022662	0.00020666	5.7828e-05	993.42	2.3397e-06	2.2689e-06	1077.2	208.73	2.3403e-06	2.1638e-06	262.44	74.822	58.528	17.22	2.2214e-06	24.155	257.724	223.121	242.694	157.011	301.850	274.639	157.060	164.463	278.839	325.474	163.841	171.055	171.596	178.355	295.028	178.189	-8191	255	
424.433	1	1	0	0	0.27915	0.11556	0.15457	0.15331	0.12121	0.27532	0.058909	0.20407	0.027348	0.1305	0.10877	0.18218	0.40054	0.30863	0.1505	0.135	-2.0146	-2.6708	-2.5062	-2.4292	-2.6729	-2.5938	-2.7167	-3.1333	-2.4771	-2.7896	-2.8833	-2.5062	-2.825	-2.6229	-2.6771	-2.9104	203.150	217.928	219.961	442.001	448.211	178.109	284.897	484.464	480.127	312.111	421.950	422.268	463.575	198.344	504.910	196.380	0.00026081	0.00059719	9.7826e-05	1008.3	2.0416e-06	2.9758e-06	1091.4	209.29	3.3436e-06	2.1768e-06	263.83	74.799	58.62	17.014	3.0171e-06	23.697	0.00021275	0.00020286	5.7597e-05	993.85	2.3262e-06	2.1802e-06	1078.8	208.22	2.2626e-06	2.2796e-06	263	74.695	58.655	17.262	2.313e-06	24.162	257.567	249.283	256.288	157.045	270.542	345.458	156.970	164.592	329.915	293.821	163.722	170.705	171.172	178.570	353.961	177.588	-8191	255	
424.552	1	1	0	0	0.11522	0.028748	0.15402	0.28346	0.21437	0.13172	0.28763	0.22323	0.11347	0.27713	0.10101	0.060705	0.16319	0.35818	0.12931	0.073649	-1.975	-2.5083	-2.6958	-2.5833	-2.8917	-2.7479	-2.8979	-3.2354	-2.6667	-2.6771	-2.8187	-2.4229	-2.6083	-2.6979	-2.5625	-3.0208	199.487	406.382	332.420	486.732	320.819	411.786	449.795	495.081	391.980	170.151	264.653	458.548	480.993	431.809	220.990	321.073	0.00023433	0.00034182	0.00012613	1007.2	3.2699e-06	2.949e-06	1095.4	210.78	2.8173e-06	1.7321e-06	262.72	74.565	58.134	17.165	2.492e-06	23.72	0.00021455	0.00019995	5.4642e-05	992.4	2.1714e-06	2.0902e-06	1077.8	208.25	2.1642e-06	2.2251e-06	262.6	74.578	58.476	17.272	2.2363e-06	24.136	256.681	211.918	238.527	156.971	316.159	345.761	157.051	164.659	277.867	273.459	163.983	170.919	171.712	178.616	298.077	177.996	-8191	255	
424.624	1	1	0	0	0.31034	0.18302	0.15686	0.22877	0.17662	0.16751	0.13943	0.1503	0.10018	0.09999	0.018542	0.13452	0.24631	0.32299	0.36708	0.099274	-2.1292	-2.5208	-2.8771	-2.6104	-2.85	-2.7417	-2.6562	-2.8438	-2.6271	-2.4938	-2.8063	-2.4313	-2.8	-3.0042	-2.5938	-3.0083	222.400	305.188	405.465	449.770	488.997	203.880	383.926	155.320	245.871	498.385	301.263	476.032	499.810	460.038	159.002	497.510	0.00025233	0.00037385	4.0534e-05	1004.7	1.0089e-06	1.3199e-06	1090.5	210.28	2.7901e-06	2.5947e-06	262.84	74.512	58.192	16.869	4.3811e-06	23.746	0.00021696	0.00019152	5.4127e-05	988.34	2.2074e-06	2.1819e-06	1075.3	208.41	2.2377e-06	2.1761e-06	262.59	74.486	58.361	17.195	2.3659e-06	24.137	255.190	263.373	260.364	156.899	314.815	322.250	156.924	164.491	307.336	290.689	164.151	170.791	171.447	178.361	302.958	177.984	-8191	255	
424.722	1	1	0	0	0.20777	0.10108	0.17688	0.10193	0.041433	0.063633	0.15425	0.09078	0.044917	0.22921	0.15381	0.14232	0.16951	0.067095	0.18987	0.097013	-2.1167	-2.525	-3.0125	-2.5771	-2.8812	-2.8563	-2.6125	-3.025	-2.7229	-2.5604	-2.8958	-2.5	-2.6917	-2.975	-2.5771	-2.9896	183.363	474.411	292.611	431.382	219.307	197.169	444.084	492.093	239.945	311.489	147.505	417.751	359.416	172.261	228.787	465.309	0.00026532	0.00018603	6.3504e-05	1000.2	2.1178e-06	2.0445e-06	1087.1	210.36	2.3444e-06	4.3458e-06	263.55	74.361	58.513	16.927	2.1493e-06	23.883	0.0002138	0.00020046	5.6129e-05	988.97	2.281e-06	2.1044e-06	1072.9	208.44	2.129e-06	2.1989e-06	261.94	74.231	58.336	17.167	2.2139e-06	24.19	261.590	277.747	255.330	156.874	301.217	317.925	156.921	164.437	329.912	300.695	164.343	170.872	171.349	178.448	282.280	178.080	-8191	255	
424.841	1	1	0	0	0.12676	0.12108	0.24156	0.14652	0.060119	0.15594	0.17799	0.075966	0.055454	0.1316	0.29334	0.057997	0.052533	0.1103	0.28526	0.12756	-2.3354	-2.6625	-2.9583	-2.7812	-2.6688	-3.05	-2.7125	-2.8021	-2.6604	-2.6021	-3.0333	-2.6896	-2.5062	-2.7708	-2.1354	-2.6792	313.735	385.454	202.135	419.366	452.743	422.692	449.705	411.099	479.770	460.226	464.307	245.472	301.295	158.136	213.747	154.761	0.00022888	0.00013468	9.7776e-05	1004.3	3.2883e-06	4.3898e-06	1087.9	210.03	3.1688e-06	3.1195e-06	263.36	74.048	58.063	17.021	4.1232e-06	23.592	0.00020677	0.00019502	5.3761e-05	987.45	2.1826e-06	2.1023e-06	1072.3	207.78	2.1208e-06	2.0834e-06	261.53	74.253	58.182	17.207	2.1383e-06	24.041	257.228	212.288	257.502	156.776	327.289	307.412	156.971	164.315	281.761	273.806	164.091	170.866	171.420	178.498	293.435	177.764	-8191	255	
424.937	1	1	0	0	0.19719	0.11453	0.23139	0.18385	0.14974	0.31124	0.18874	0.16161	0.07088	0.03059	0.13112	0.26875	0.032374	0.096583	0.15787	0.22532	-2.2229	-2.5062	-2.925	-2.7167	-2.4479	-2.7417	-2.4833	-2.7479	-2.7292	-2.4583	-3.0125	-2.6937	-2.7458	-2.7938	-2.2917	-2.5729	341.703	299.175	222.527	458.107	393.305	429.583	273.215	146.423	300.454	247.710	268.884	371.137	365.028	470.456	326.215	248.988	0.00028588	0.00019675	0.0001084	999.04	1.8777e-06	2.8272e-06	1096.7	209.42	3.6707e-06	2.2935e-06	265.2	75.244	58.57	17.061	2.5226e-06	23.775	0.00021594	0.00019523	5.3919e-05	987.52	2.5504e-06	2.3614e-06	1079.8	208.31	2.5169e-06	2.5481e-06	263.36	75.251	58.758	17.329	2.7729e-06	24.32	255.822	283.994	235.831	156.946	321.277	298.087	156.771	164.365	313.779	242.994	163.859	170.624	171.417	178.161	321.955	177.758	-8191	255	
425.033	1	1	0	0	0.24332	0.095602	0.12537	0.10193	0.18923	0.033544	0.20101	0.14001	0.054131	0.24623	0.052309	0.058539	0.13897	0.059205	0.055347	0.081195	-2.3604	-2.6458	-2.7667	-2.7938	-2.45	-2.8625	-2.65	-2.825	-2.9	-2.5438	-2.5479	-2.8104	-2.6562	-2.9167	-2.6083	-2.6396	241.381	160.323	283.344	291.757	438.659	244.690	456.178	444.264	278.771	304.180	481.305	323.626	248.626	398.073	230.046	487.431	0.00024701	0.00020139	8.0153e-05	1017.1	1.31e-06	2.4816e-06	1108.8	211.58	9.3334e-07	2.1894e-06	267.93	75.068	59.139	17.377	3.1762e-06	24.166	0.00026145	0.00025579	6.8315e-05	1004.9	3.022e-06	2.7939e-06	1094.4	210.53	2.8619e-06	2.9189e-06	266.81	75.673	59.435	17.545	2.8895e-06	24.532	257.105	215.315	194.980	156.804	248.642	249.893	156.812	164.466	217.340	283.038	164.101	170.674	171.175	178.467	344.228	177.759	-8191	255	
425.154	1	1	0	0	0.1769	0.16006	0.3091	0.056041	0.068456	0.0788	0.18124	0.18059	0.10064	0.18207	0.22747	0.12896	0.14636	0.031885	0.20603	0.046295	-2.5062	-2.3729	-2.5917	-2.9604	-2.4833	-3.0833	-2.8896	-2.6271	-2.9313	-2.2771	-2.75	-2.9125	-2.5375	-2.925	-2.7	-2.5771	350.506	290.808	320.467	378.529	498.175	289.115	424.888	492.661	393.894	282.748	402.086	182.641	172.650	264.701	328.232	503.465	0.00028834	0.00043765	0.00011293	1025.2	2.5827e-06	2.6595e-06	1115.7	214.32	1.9467e-06	2.4944e-06	268.12	75.86	59.53	17.318	3.2665e-06	24.409	0.00026055	0.0002571	7.1835e-05	1013.8	2.8847e-06	2.6984e-06	1103	212.29	2.8271e-06	2.8505e-06	267.77	76.084	59.751	17.634	2.9301e-06	24.758	257.623	250.251	231.833	156.720	278.354	339.317	156.601	164.312	307.188	266.830	164.115	170.720	171.377	178.770	271.563	177.496	-8191	255	
425.248	1	1	0	0	0.051312	0.17355	0.033235	0.2348	0.11348	0.15523	0.34623	0.13137	0.13504	0.094668	0.039163	0.076698	0.20509	0.20071	0.14792	0.13692	-2.5042	-2.6937	-2.4417	-2.8021	-2.4938	-2.9479	-2.8958	-2.55	-3.0042	-2.4083	-2.7271	-2.8312	-2.5	-2.9021	-2.7271	-2.4813	278.611	448.871	464.884	468.141	459.394	256.253	448.666	414.866	151.937	356.080	500.546	193.389	248.089	192.875	475.756	440.849	0.00026076	0.00034101	2.9543e-05	1035.2	5.7533e-06	1.4683e-06	1129.5	214.43	4.2646e-06	1.8192e-06	270.5	76.241	60.041	17.428	2.7616e-06	24.299	0.00026831	0.00026813	7.535e-05	1023.3	3.1185e-06	2.877e-06	1112.5	213.26	3.0909e-06	3.0074e-06	269.56	76.524	60.136	17.729	3.0298e-06	24.774	258.268	246.751	407.728	156.744	315.387	286.831	156.796	164.343	330.078	273.188	164.043	170.738	171.284	178.787	275.596	177.626	-8191	255	
425.321	1	1	0	0	0.22597	0.097793	0.32632	0.32014	0.21225	0.17891	0.34868	0.17236	0.23576	0.10481	0.15099	0.33955	0.19526	0.12964	0.13963	0.1718	-2.6458	-2.5917	-2.5958	-3.0042	-2.4521	-3.0417	-2.8208	-2.45	-2.9854	-2.7833	-2.7396	-2.9521	-2.5646	-2.8917	-2.85	-2.6208	270.685	366.884	303.996	442.903	338.260	161.582	458.016	382.832	329.419	185.711	505.576	435.688	158.965	162.017	430.109	265.919	0.00027919	0.00036137	8.6013e-05	1040.5	3.4467e-06	3.4175e-06	1134.2	215.74	2.5588e-06	3.6787e-06	273.13	76.27	59.897	17.548	1.6817e-06	24.427	0.00027043	0.00026905	7.765e-05	1028.1	3.1459e-06	2.9355e-06	1116.9	214.31	2.897e-06	2.8339e-06	271.23	76.867	60.321	17.767	2.747e-06	24.839	261.243	220.336	233.444	156.784	285.662	320.222	156.783	164.495	276.525	304.433	163.756	171.012	171.428	178.430	321.418	177.521	-8191	255	
425.442	1	1	0	0	0.12074	0.39552	0.23461	0.21385	0.18945	0.22046	0.2899	0.13754	0.074219	0.046036	0.36657	0.14009	0.12464	0.093072	0.22796	0.063287	-2.2083	-2.7167	-2.7521	-2.8917	-2.5083	-2.7792	-3.1396	-2.3458	-2.9146	-2.6354	-2.4896	-3.0167	-2.4208	-2.7854	-2.7917	-2.4771	289.865	381.398	497.576	257.593	338.329	288.799	432.193	382.359	388.621	443.623	187.302	307.722	436.018	377.928	362.482	459.345	0.00026379	0.00034708	8.0136e-05	1044.3	5.1239e-06	2.1631e-06	1133.6	217.88	2.0346e-06	2.4694e-06	274.04	76.983	60.41	17.491	4.186e-06	24.462	0.00025893	0.00026359	7.1677e-05	1031.8	2.8841e-06	2.8298e-06	1119.1	214.76	2.7933e-06	2.7084e-06	272.02	77.149	60.426	17.814	2.7355e-06	24.948	256.180	260.136	221.499	156.917	281.895	287.873	156.684	164.165	314.105	305.168	164.007	170.695	170.968	178.503	286.897	177.520	-8191	255	
425.536	1	1	0	0	0.40175	0.042346	0.16675	0.23507	0.17191	0.21313	0.32439	0.082905	0.13306	0.12339	0.11952	0.056263	0.080631	0.1345	0.16857	0.46343	-2.2708	-2.8271	-2.6479	-2.9062	-2.4667	-2.6958	-3.0021	-2.5646	-2.8333	-2.5708	-2.5687	-2.9625	-2.8063	-2.6729	-2.775	-2.4062	202.316	177.230	311.233	165.515	414.127	319.233	422.821	368.396	448.866	187.140	295.332	448.620	316.280	502.473	374.276	253.495	0.00027523	0.00044285	4.3353e-05	1042.9	3.2351e-06	2.094e-06	1134.9	217.75	3.6435e-06	2.1336e-06	271	76.914	60.276	17.484	1.0716e-06	24.442	0.00025859	0.00025534	7.1835e-05	1030.8	2.782e-06	2.6893e-06	1120.5	215.32	2.8631e-06	2.817e-06	271.37	77.224	60.459	17.807	2.6419e-06	24.929	252.004	243.468	269.728	156.712	298.230	307.148	156.653	164.239	327.481	273.447	164.017	170.738	171.179	178.385	330.054	177.632	-8191	255	
425.633	1	1	0	0	0.057144	0.05051	0.10189	0.037263	0.20186	0.18095	0.36739	0.30816	0.2013	0.30303	0.27031	0.1332	0.19544	0.027974	0.17987	0.27652	-2.5187	-2.7542	-2.4813	-2.7771	-2.4354	-2.6229	-3.0271	-2.4479	-2.7062	-2.7021	-2.4792	-2.9208	-2.5542	-2.4854	-3.0292	-2.575	320.698	319.244	482.460	245.462	487.515	479.748	449.270	492.396	174.851	496.650	157.849	332.481	463.413	394.424	491.793	161.407	0.000276	0.0002879	4.9155e-05	1046.8	2.6246e-06	2.9354e-06	1133.5	216.98	2.0177e-06	2.5742e-06	273.5	77.248	60.295	17.685	2.3778e-06	24.559	0.00025135	0.00024333	6.8514e-05	1031.7	2.9114e-06	2.7068e-06	1121	215.22	2.7326e-06	2.7521e-06	272.41	77.281	60.621	17.849	2.6929e-06	24.994	260.404	215.246	234.142	156.824	283.575	332.049	156.876	164.321	270.810	308.351	163.953	171.013	171.214	178.228	257.268	177.986	-8191	255	
425.729	1	1	0	0	0.024537	0.20854	0.092108	0.14789	0.098541	0.16137	0.27038	0.072972	0.20738	0.079463	0.096468	0.085641	0.067908	0.23376	0.14471	0.047504	-2.3	-2.5167	-2.3667	-3.0438	-2.6125	-2.3771	-2.9042	-2.7104	-2.8542	-2.8479	-2.5479	-2.8771	-2.8187	-2.5083	-2.9167	-2.5	276.692	164.274	245.259	407.124	225.419	263.078	459.945	273.559	213.425	361.606	447.279	484.359	411.758	246.161	436.164	212.230	0.00024765	0.00027371	7.271e-05	1049.2	3.4601e-06	2.6661e-06	1137.8	218.13	3.859e-06	3.2952e-06	274.67	77.487	60.841	17.647	2.3486e-06	24.581	0.00024991	0.00023973	7.2102e-05	1034.2	2.6607e-06	2.7312e-06	1121.8	215.79	2.7662e-06	2.6218e-06	273.26	77.567	60.808	17.873	2.7257e-06	25.052	259.911	248.422	257.268	156.821	286.119	341.892	156.587	164.379	300.549	280.012	163.995	170.975	171.375	178.309	298.428	177.633	-8191	255	
425.849	1	1	0	0	0.24864	0.32025	0.032817	0.28839	0.22038	0.06555	0.17227	0.25573	0.20795	0.15079	0.16428	0.084667	0.12905	0.021898	0.21715	0.27586	-2.3083	-2.925	-2.3812	-2.8333	-2.5646	-2.6604	-2.9667	-2.4292	-2.7167	-3	-2.5583	-2.7729	-2.7792	-2.5646	-2.925	-2.7792	297.838	412.544	414.226	469.264	482.596	256.096	393.710	464.080	460.209	281.562	329.401	457.572	209.092	268.158	191.231	171.506	0.00022805	0.00034099	7.3935e-05	1052.6	4.3091e-06	2.061e-06	1146.9	217.45	2.3669e-06	3.0572e-06	276.24	77.598	60.681	17.573	3.5931e-06	24.613	0.00025589	0.00025074	6.9951e-05	1038.5	2.8098e-06	2.7485e-06	1128.6	216.36	2.8475e-06	2.7396e-06	274.27	77.497	60.843	17.875	2.8305e-06	25.065	255.687	264.450	225.479	156.799	305.189	270.275	156.889	164.114	294.897	302.028	163.737	171.152	171.291	178.465	312.617	177.397	-8191	255	
425.921	1	1	0	0	0.06015	0.47535	0.24109	0.23359	0.19342	0.19133	0.27449	0.20687	0.32427	0.096726	0.18388	0.13479	0.25528	0.15703	0.30951	0.10095	-2.0896	-2.9396	-2.2542	-2.9417	-2.5667	-2.3937	-3.125	-2.8667	-2.3958	-2.8771	-2.3979	-2.6646	-2.8063	-2.4792	-2.9292	-2.6042	454.847	379.481	398.571	504.243	287.175	279.616	464.656	472.958	327.258	414.045	475.953	471.841	340.297	502.809	220.564	276.292	0.0002465	0.00039738	7.0334e-05	1050.5	5.5222e-06	5.695e-07	1144.2	218.82	3.1533e-06	3.9446e-06	275.88	77.774	60.926	17.671	3.6736e-06	24.728	0.00026634	0.00026287	7.4664e-05	1038.3	2.9835e-06	2.9866e-06	1129.4	216.82	2.9485e-06	2.9546e-06	275.34	77.758	61.026	17.953	2.9807e-06	25.14	256.051	240.001	232.590	156.581	297.941	314.506	156.725	164.062	284.950	273.618	164.014	170.749	171.136	178.239	290.986	177.729	-8191	255	
426.017	1	1	0	0	0.2658	0.21161	0.033945	0.2247	0.1542	0.31397	0.097692	0.17538	0.21272	0.18536	0.16135	0.33041	0.094277	0.1673	0.11673	0.12115	-2.2438	-2.8333	-2.2875	-2.8083	-2.9854	-2.5708	-2.9854	-2.7125	-2.5875	-2.9521	-2.6229	-2.7229	-2.8021	-2.5812	-2.7104	-2.7792	408.618	403.507	495.189	464.765	477.144	238.846	468.040	151.357	367.266	463.954	309.503	387.241	173.049	461.926	486.187	415.696	0.00024949	0.00018837	0.00015069	1056	4.3646e-06	2.4139e-06	1148.4	219.1	1.6771e-06	3.4119e-06	276.59	77.482	61.056	17.578	2.8357e-06	24.754	0.0002759	0.00026865	7.353e-05	1044.1	2.973e-06	2.9987e-06	1132.8	216.87	2.8389e-06	2.8976e-06	275.76	77.787	61.191	17.927	2.9236e-06	25.158	259.965	208.987	236.284	156.731	268.722	318.619	156.851	164.295	285.439	307.520	163.597	170.777	171.167	178.581	295.679	177.016	-8191	255	
426.113	1	1	0	0	0.16096	0.23677	0.30779	0.11524	0.11843	0.17419	0.1695	0.13438	0.18748	0.072707	0.11813	0.041406	0.21687	0.24152	0.26838	0.27666	-2.1521	-2.8312	-2.3917	-2.7479	-2.8125	-2.5458	-2.9229	-2.7458	-2.3646	-2.875	-2.6771	-2.6396	-2.9646	-2.4146	-2.7396	-2.7146	351.114	417.928	477.785	391.205	218.325	205.805	466.287	467.386	196.605	382.286	188.183	298.485	368.661	452.809	245.662	148.378	0.0002725	0.00045093	8.5853e-05	1059.2	3.0551e-06	1.7202e-06	1152.6	218.24	2.8148e-06	5.1148e-06	276.28	77.972	60.824	17.844	8.5947e-07	24.725	0.000264	0.00026364	7.498e-05	1045.3	2.9418e-06	2.8111e-06	1135.4	217.54	2.8855e-06	2.973e-06	275.79	78.006	61.135	18.012	2.8986e-06	25.233	262.187	194.409	241.532	156.566	289.129	333.099	156.645	164.245	311.956	283.654	164.033	170.807	171.452	178.458	229.207	177.025	-8191	255	
426.234	1	1	0	0	0.328	0.16308	0.12584	0.26444	0.23601	0.17319	0.20272	0.27335	0.18079	0.25657	0.16297	0.085556	0.22151	0.059676	0.20633	0.23598	-1.9792	-3.025	-2.5833	-2.5521	-2.9167	-2.6292	-2.8167	-2.7854	-2.3021	-2.9417	-2.7604	-2.3937	-2.9083	-2.7708	-2.8146	-2.7812	409.828	349.075	353.671	480.914	246.291	152.917	461.306	406.431	289.173	323.149	383.587	277.115	156.573	490.621	185.779	240.516	0.00026899	0.00043993	8.3601e-05	1060.5	4.0253e-06	1.5892e-06	1153	220.38	2.3514e-06	1.4543e-06	276.04	78.237	61.095	17.779	3.3613e-06	24.615	0.00026811	0.00026823	7.4813e-05	1046	2.9669e-06	2.857e-06	1135.9	217.86	3.0412e-06	2.9817e-06	275.5	78.158	61.091	18.038	2.9489e-06	25.105	261.372	240.318	248.566	156.886	291.414	322.689	156.968	164.340	291.205	214.994	163.730	170.862	171.251	178.270	285.512	177.808	-8191	255	
426.330	1	1	0	0	0.086973	0.19375	0.28672	0.22034	0.18295	0.13726	0.16781	0.15317	0.11887	0.20569	0.19878	0.11797	0.21936	0.16555	0.25125	0.10056	-1.8521	-2.9354	-2.7667	-2.6625	-2.9208	-2.4542	-2.9208	-2.9833	-2.3375	-2.7438	-2.8021	-2.7021	-2.8146	-2.6208	-2.8438	-3.0625	444.896	385.960	187.051	454.363	386.681	501.702	472.078	389.568	231.011	249.662	400.147	476.063	456.886	297.207	302.344	380.034	0.00028177	0.00024211	7.7414e-05	1060.1	3.9192e-06	3.0045e-06	1152.8	220.6	2.5609e-06	4.245e-06	276.09	77.679	61.4	17.742	3.414e-06	24.684	0.00027131	0.00026594	7.7325e-05	1046.5	2.9224e-06	2.9723e-06	1136.7	217.72	2.9833e-06	2.9436e-06	275.83	77.871	61.198	18.027	3.0024e-06	25.156	256.737	248.556	202.893	156.804	286.602	333.602	157.043	164.301	291.059	272.961	163.691	170.726	171.166	178.623	284.746	177.430	-8191	255	
426.425	1	1	0	0	0.11697	0.21775	0.064097	0.12853	0.19699	0.014879	0.24546	0.050013	0.14294	0.099051	0.13209	0.10299	0.33485	0.22765	0.1552	0.13095	-1.9375	-2.6708	-2.8771	-2.4646	-3.0812	-2.6146	-2.9104	-2.8875	-2.5667	-2.8583	-3.0417	-2.5146	-2.6958	-2.6042	-2.6792	-3.0146	372.476	425.720	490.156	153.461	282.981	326.939	401.390	333.885	405.299	461.264	409.552	182.686	157.799	240.675	470.353	391.470	0.00027548	0.00036992	2.4373e-05	1062.6	3.388e-06	3.8367e-06	1152.5	219.79	1.9006e-06	3.729e-06	276.19	77.765	60.786	17.783	1.4499e-06	24.962	0.00028229	0.0002735	7.5093e-05	1048.2	3.0021e-06	2.9069e-06	1136.4	217.87	2.9142e-06	2.9931e-06	275.81	77.892	61.211	18.022	2.9825e-06	25.174	263.072	234.463	245.290	156.867	276.171	295.615	156.740	164.048	326.043	244.043	163.855	170.760	171.280	178.179	264.145	177.880	-8191	255	
426.522	1	1	0	0	0.23997	0.10602	0.12337	0.15045	0.28684	0.11021	0.22744	0.090022	0.13761	0.14495	0.31598	0.29019	0.22228	0.21534	0.049802	0.1798	-1.9729	-2.6875	-2.6625	-2.375	-2.9271	-2.6104	-2.9	-2.9333	-2.6771	-2.7625	-3.0854	-2.6	-2.8875	-2.6896	-2.4938	-2.7188	483.373	192.080	257.213	162.127	193.479	476.503	467.276	486.652	485.037	217.192	166.281	442.312	505.957	484.008	480.701	456.292	0.0002663	0.00024185	0.00013489	1061.8	5.095e-06	1.3776e-06	1150.7	218	2.9931e-06	2.6297e-06	275.02	77.736	61.056	17.668	4.2999e-06	24.775	0.00026478	0.00026333	7.315e-05	1045.7	2.9408e-06	2.8954e-06	1135.2	217.2	2.9802e-06	2.9346e-06	275.62	77.924	61.319	17.979	2.8649e-06	25.149	259.583	252.894	239.212	156.939	275.089	263.676	156.788	164.191	296.161	316.332	163.909	170.717	171.223	178.695	301.377	177.546	-8191	255	
426.617	1	1	0	0	0.19816	0.20016	0.19385	0.17619	0.042585	0.13269	0.19368	0.043683	0.1964	0.16332	0.12257	0.049937	0.048926	0.044509	0.077201	0.1132	-2.1729	-2.8229	-2.8875	-2.45	-2.6937	-2.7792	-2.8125	-3.0792	-2.5979	-2.7208	-2.9417	-2.6396	-2.7146	-2.65	-2.4292	-2.9167	198.301	385.339	432.604	359.990	344.775	437.547	464.197	429.839	485.969	317.453	168.066	393.390	238.258	351.653	309.680	153.677	0.00028364	0.00036588	8.7743e-05	1055.6	5.4566e-06	1.9188e-06	1147	219.73	2.8829e-06	3.7844e-06	275.54	77.399	61.002	17.735	2.0375e-06	24.821	0.00026866	0.00026322	7.3331e-05	1044.5	2.9051e-06	2.9308e-06	1133.2	217.79	2.8788e-06	2.9272e-06	275.22	77.797	61.124	17.974	2.9481e-06	25.139	257.677	226.059	270.647	156.768	278.486	284.573	156.825	164.192	308.621	300.061	163.758	170.865	171.267	178.186	328.888	177.833	-8191	255	
426.713	1	1	0	0	0.21731	0.38576	0.16303	0.33491	0.14073	0.20141	0.37297	0.22613	0.16832	0.19548	0.11188	0.23247	0.21075	0.20328	0.087614	0.12118	-2.1083	-2.6167	-3.0479	-2.7646	-2.7875	-2.8042	-2.6937	-2.8542	-2.6917	-2.6208	-2.9896	-2.6	-2.9313	-2.8167	-2.5833	-2.6792	300.130	188.568	247.701	456.598	173.087	326.175	437.848	499.357	286.456	201.667	333.116	491.203	356.987	465.237	500.326	155.974	0.00025133	0.00035635	5.1621e-05	1055.7	3.1002e-06	3.1756e-06	1152	218.17	2.6078e-06	4.3004e-07	274.67	77.528	61.164	17.687	2.4952e-06	24.879	0.00026627	0.00026952	7.329e-05	1043.1	2.9211e-06	2.8438e-06	1134.2	217.23	2.9229e-06	2.9687e-06	275.03	77.791	61.161	17.974	3.0322e-06	25.165	263.306	229.997	184.061	156.735	308.074	355.065	156.934	164.526	298.543	279.720	163.990	170.629	171.407	177.868	275.710	177.396	-8191	255	
426.834	1	1	0	0	0.13953	0.17995	0.048484	0.13181	0.18053	0.11424	0.15423	0.11196	0.13586	0.27251	0.090313	0.24137	0.18744	0.13539	0.090041	0.1312	-2.2667	-2.6562	-2.8625	-2.5125	-2.6833	-3.15	-2.625	-2.7583	-2.7792	-2.5312	-2.9417	-2.6813	-2.6312	-2.6958	-2.4188	-2.8	471.413	478.400	351.466	156.395	457.957	189.187	441.050	321.805	436.727	152.135	387.449	446.356	495.443	440.417	410.863	345.975	0.00022811	0.00039627	5.7394e-05	1058.8	2.8599e-06	1.6694e-06	1149.2	219.29	2.0266e-06	1.9363e-06	276.9	77.673	60.773	17.658	2.4493e-06	24.684	0.0002755	0.00027654	7.6046e-05	1045.3	3.1183e-06	2.9745e-06	1134.5	217.12	3.064e-06	2.9694e-06	275.72	77.771	61.096	17.983	3.1042e-06	25.102	261.093	204.944	232.776	156.821	327.520	268.176	156.717	164.414	310.151	206.553	163.774	170.569	171.444	178.594	304.251	177.480	-8191	255	
426.930	1	1	0	0	0.059448	0.16844	0.14363	0.11928	0.0985	0.24606	0.16613	0.21565	0.10418	0.19455	0.17831	0.21637	0.11637	0.12339	0.041283	0.16405	-2.1979	-2.4354	-2.9646	-2.7458	-2.4875	-2.8771	-2.6875	-2.8667	-2.7958	-2.5271	-2.5917	-2.8104	-2.6688	-2.9021	-2.5	-2.7958	397.720	443.082	295.295	440.816	288.815	274.155	161.612	402.600	357.825	421.229	155.033	422.265	370.686	492.739	165.623	358.902	0.00025401	0.00015333	5.5386e-05	1053.6	3.4456e-06	3.9267e-06	1151.9	219.48	1.838e-06	5.1805e-06	277.46	77.368	61.454	17.674	1.7408e-06	24.732	0.00027701	0.00027433	7.8238e-05	1043.2	3.1243e-06	3.0449e-06	1135.6	218	3.0851e-06	2.9865e-06	276.24	77.839	61.224	17.954	3.0062e-06	25.17	258.717	216.820	220.467	156.670	298.685	280.001	156.799	164.120	307.982	260.566	163.855	170.650	171.181	178.060	281.449	177.549	-8191	255	
427.026	1	1	0	0	0.24985	0.07687	0.12563	0.16786	0.13917	0.16796	0.32707	0.293	0.26347	0.07024	0.075789	0.34499	0.17079	0.14579	0.12369	0.16079	-2.4729	-2.5667	-2.6854	-2.7562	-2.5583	-2.8104	-2.7042	-2.7521	-2.9104	-2.3958	-2.6625	-2.7604	-2.5667	-2.9667	-2.6604	-2.9021	303.790	502.556	362.799	474.554	484.289	307.483	423.467	449.398	381.250	404.537	487.233	489.807	169.068	200.804	285.637	177.047	0.00025884	0.00036606	0.00014269	1060.6	5.9692e-06	3.2674e-06	1151.3	219.07	2.3795e-06	4.542e-06	276.06	77.508	60.983	17.632	3.734e-06	24.668	0.00028185	0.00027599	7.5057e-05	1045.9	3.0804e-06	3.0766e-06	1134.2	217.55	3.135e-06	2.937e-06	275.77	77.781	61.162	17.948	2.9774e-06	25.131	259.707	228.809	225.808	156.380	284.164	284.587	156.778	164.159	299.941	305.714	163.739	170.374	171.402	178.414	281.859	177.672	-8191	255	
427.122	1	1	0	0	0.21578	0.13885	0.27692	0.33998	0.027771	0.15122	0.25579	0.059319	0.0077146	0.31752	0.047957	0.078364	0.095366	0.26703	0.35055	0.23752	-2.3125	-2.4667	-3.0146	-2.8438	-2.4167	-2.8771	-2.8292	-2.5917	-2.8104	-2.6063	-2.9125	-2.6833	-2.4521	-2.7646	-2.6229	-2.7333	243.255	281.406	280.859	490.666	420.786	327.199	148.046	457.361	493.064	497.056	199.191	300.746	358.120	155.250	202.031	490.389	0.00025955	0.00020325	5.8718e-05	1055.9	5.8775e-06	1.9402e-06	1147.6	218.96	3.2867e-06	2.5373e-06	274.89	77.837	61.108	17.659	3.2662e-06	24.611	0.00027509	0.00028234	7.7443e-05	1044.1	3.1056e-06	3.0146e-06	1133.9	217.39	2.9982e-06	2.9903e-06	274.81	77.846	61.253	17.957	3.0363e-06	25.133	262.947	216.779	274.996	156.743	296.909	336.481	156.970	163.947	317.020	309.828	163.809	170.716	171.334	178.668	273.746	177.706	-8191	255	
427.218	1	1	0	0	0.25389	0.27082	0.27281	0.53395	0.13869	0.098945	0.13939	0.087832	0.061142	0.16328	0.082275	0.18846	0.051073	0.21169	0.14456	0.1143	-2.3521	-2.4688	-2.8333	-2.9146	-2.5333	-2.7854	-2.8021	-2.4104	-2.825	-2.3917	-2.7708	-2.7854	-2.3854	-2.8292	-2.525	-2.4562	384.644	295.733	476.641	505.295	466.963	342.769	438.987	327.133	496.636	487.643	476.955	473.194	161.612	475.288	216.962	392.683	0.00024697	0.00038831	9.9265e-05	1060.3	3.8087e-06	2.6472e-06	1149.8	218.43	2.6715e-06	1.6874e-06	277.44	77.784	61.092	17.847	1.7674e-06	24.685	0.00027733	0.00027764	7.7854e-05	1045.2	3.245e-06	3e-06	1134.1	217.12	3.0794e-06	3.0136e-06	276.01	77.791	61.168	18.043	3.0525e-06	25.172	254.855	200.778	244.888	156.811	293.986	328.271	156.652	164.222	301.149	292.842	164.029	171.205	171.078	178.589	313.094	177.431	-8191	255	
427.314	1	1	0	0	0.068429	0.2458	0.24296	0.21083	0.16877	0.082717	0.16153	0.079632	0.095864	0.051372	0.42625	0.10002	0.17635	0.14567	0.11709	0.33128	-2.3042	-2.4542	-2.6813	-2.975	-2.3333	-2.7542	-2.9146	-2.4396	-2.7208	-2.7812	-2.775	-2.8604	-2.4562	-2.6937	-2.8167	-2.8708	275.626	224.092	323.745	467.156	463.246	173.332	461.574	280.025	227.170	222.536	464.500	228.349	413.883	495.266	360.172	161.036	0.00026517	0.00050361	9.0331e-05	1056.4	2.7981e-06	3.5646e-06	1144.9	219.71	2.0314e-06	3.1115e-06	275.25	77.662	60.991	17.797	3.8624e-06	24.654	0.00028048	0.00028305	7.7492e-05	1044	3.1049e-06	2.96e-06	1134.9	217.53	2.9725e-06	2.9764e-06	275.68	77.959	61.178	18.004	2.9884e-06	25.11	257.092	230.022	253.738	156.686	323.161	279.899	156.950	164.407	288.758	310.656	163.873	170.879	171.554	178.489	296.928	177.785	-8191	255	
427.411	1	1	0	0	0.19638	0.47011	0.19262	0.027798	0.21346	0.12815	0.084791	0.16945	0.025021	0.15704	0.045509	0.12655	0.031136	0.31418	0.10764	0.27937	-2.3729	-2.5604	-2.5333	-3.05	-2.6042	-2.8208	-2.8104	-2.4479	-3.0458	-2.5208	-2.5875	-2.8896	-2.3688	-2.6875	-2.8937	-2.5333	490.295	505.168	302.620	180.607	210.932	481.930	206.419	438.098	175.688	348.717	176.851	492.233	423.859	372.527	371.834	469.901	0.00026614	0.00034733	0.00014555	1062.6	2.3237e-06	1.1192e-06	1152.2	219.66	3.3238e-06	2.5012e-06	275.91	78.05	61.048	17.777	3.6447e-06	24.579	0.00027082	0.00027736	7.6905e-05	1046.1	3.0931e-06	3.0208e-06	1137.2	218.14	2.9092e-06	2.9812e-06	275.2	77.948	61.248	18.004	2.9585e-06	25.139	252.416	219.267	258.521	156.567	280.456	286.038	156.746	164.474	290.628	355.470	164.088	170.923	171.800	178.253	309.145	177.707	-8191	255	
427.507	1	1	0	0	0.21711	0.19914	0.080054	0.023757	0.080439	0.30134	0.20375	0.021291	0.049676	0.12426	0.068962	0.14799	0.2106	0.17444	0.054038	0.14561	-2.4604	-2.7208	-2.6229	-3.0708	-2.7083	-2.7021	-2.9375	-2.4542	-2.7521	-2.8	-2.7	-3.0312	-2.5458	-2.4813	-2.8771	-2.5563	240.836	489.176	419.060	342.452	442.015	460.773	438.457	483.607	501.802	368.719	272.247	153.041	175.713	180.657	371.410	411.935	0.00026902	0.00031081	0.00010239	1063.2	3.436e-06	1.818e-06	1150.9	220.22	3.2442e-06	2.9799e-06	276.46	77.424	60.68	17.692	4.9355e-06	24.777	0.00027509	0.00027596	7.597e-05	1048	3.0363e-06	2.8936e-06	1136.1	218.28	2.9891e-06	2.976e-06	276.27	77.803	61.218	17.996	2.9931e-06	25.166	261.407	226.596	200.238	156.793	292.550	286.869	156.755	164.254	310.227	296.852	164.407	170.650	171.347	178.603	328.267	177.645	-8191	255	
427.626	1	1	0	0	0.13915	0.32906	0.16871	0.21109	0.059102	0.055525	0.27203	0.1535	0.14866	0.06851	0.094776	0.1116	0.267	0.047906	0.17013	0.14688	-2.3438	-2.7625	-2.3833	-3.0208	-2.6146	-2.7042	-3.0938	-2.6667	-2.8312	-2.75	-2.5583	-3.0021	-2.6479	-2.5292	-2.8208	-2.8729	419.428	339.908	173.485	459.088	175.997	410.539	419.254	433.023	476.073	176.416	366.084	160.729	179.056	218.354	355.220	424.762	0.00028048	0.00038884	7.9225e-05	1058.9	4.2792e-06	5.2396e-06	1150	218.47	2.097e-06	2.6854e-06	276.98	77.581	60.996	17.827	2.745e-06	24.868	0.00027768	0.00027859	7.6932e-05	1045.8	3.1098e-06	3.0871e-06	1137.1	217.34	2.9596e-06	2.9808e-06	275.73	77.947	61.139	18.007	3.0457e-06	25.222	259.857	290.654	231.865	156.706	312.710	284.851	157.049	164.489	290.610	215.236	163.690	171.024	171.137	178.459	253.927	177.093	-8191	255	
427.722	1	1	0	0	0.12951	0.19479	0.085275	0.23496	0.13899	0.22972	0.15178	0.2037	0.041676	0.08197	0.31253	0.22738	0.1915	0.3677	0.20344	0.18626	-2.4167	-2.8021	-2.5438	-2.9813	-2.7104	-2.7125	-3.2188	-2.6937	-2.7521	-2.925	-2.4729	-2.8167	-2.7083	-2.5396	-3.0854	-2.6646	463.703	461.993	474.034	443.655	297.622	177.883	385.292	457.326	225.407	472.294	488.459	189.171	477.310	402.298	161.313	438.384	0.0002497	0.00029588	5.3655e-05	1061.2	3.2614e-06	5.103e-07	1153.5	218.93	2.533e-06	3.0454e-06	277.35	78.104	61.017	17.708	2.1748e-06	24.725	0.00027048	0.0002749	7.756e-05	1048.1	3.0695e-06	3.0534e-06	1137.3	217.6	3.0695e-06	3.0282e-06	276.28	78.129	61.177	18.007	3.077e-06	25.238	260.170	215.038	215.718	156.830	280.562	175.671	156.858	164.330	333.554	335.232	163.803	170.854	171.108	178.556	327.231	177.956	-8191	255	
427.795	1	1	0	0	0.19617	0.22184	0.10053	0.014692	0.14134	0.23977	0.17257	0.15901	0.29885	0.036264	0.13716	0.14454	0.075185	0.16094	0.11801	0.22915	-2.1896	-2.8667	-2.775	-2.8354	-2.7604	-2.5062	-3.2938	-2.5812	-2.65	-2.6208	-2.3854	-2.8417	-2.9813	-2.5167	-2.6833	-2.6021	198.052	355.363	340.220	253.327	416.770	274.360	487.491	426.267	286.834	274.798	201.810	482.687	473.520	495.684	239.529	362.004	0.00026233	0.00033854	2.3836e-05	1059.8	5.359e-06	3.2147e-06	1151.8	219.49	1.5083e-06	2.0022e-06	275.77	77.944	61.246	17.897	4.3934e-06	24.882	0.00027256	0.00027403	7.8513e-05	1046.6	3.1134e-06	3.0431e-06	1135.8	217.98	3.0381e-06	2.9792e-06	275.06	78.066	61.176	18.052	3.0964e-06	25.194	259.609	277.573	225.634	156.941	294.083	265.758	156.815	164.294	314.827	279.508	164.108	170.772	171.025	178.402	295.203	177.651	-8191	255	
427.914	1	1	0	0	0.013034	0.13291	0.03008	0.2207	0.2408	0.31656	0.227	0.14869	0.1742	0.18015	0.26346	0.28243	0.23438	0.038449	0.2275	0.18268	-2.2146	-3.1271	-2.4292	-2.9729	-2.8229	-2.4688	-3.1542	-2.575	-2.3125	-2.8563	-2.4813	-2.8521	-2.7125	-2.4042	-2.6896	-2.5521	302.672	321.048	418.497	504.047	264.483	380.628	441.968	211.094	230.991	178.384	417.498	489.391	162.519	486.334	265.199	480.764	0.00028623	0.00042377	3.2261e-05	1062.6	2.1065e-06	2.9792e-06	1153.8	220.52	3.4823e-06	5.3263e-06	276.54	77.441	61.565	17.811	4.5431e-06	24.817	0.00027185	0.00027488	7.5938e-05	1048.7	2.9754e-06	2.9381e-06	1138.7	218.19	3.1227e-06	2.9583e-06	276.13	77.917	61.375	18.028	3.0185e-06	25.146	260.160	238.880	369.228	156.784	302.433	234.251	156.931	164.608	300.858	290.442	164.122	170.666	171.001	178.319	296.897	177.768	-8191	255	
428.010	1	1	0	0	0.22391	0.14376	0.15456	0.029875	0.17095	0.036317	0.061219	0.14855	0.012233	0.17763	0.24616	0.1312	0.27239	0.2027	0.26478	0.18886	-1.8979	-3.0625	-2.4333	-3.0312	-2.9083	-2.4688	-3.0917	-2.7271	-2.3604	-2.9271	-2.6917	-2.7125	-2.7938	-2.3479	-2.9583	-2.7938	436.638	269.794	286.809	151.053	225.230	235.476	305.990	504.436	438.211	477.843	494.024	222.219	439.064	436.247	375.032	466.996	0.00025751	0.00027142	6.7338e-05	1063.3	1.515e-06	2.5322e-06	1151.4	219.32	2.5251e-06	8.7712e-08	278.08	77.953	61.033	17.772	2.5098e-06	24.782	0.00027871	0.00027127	7.3593e-05	1048.9	2.9926e-06	2.9825e-06	1138.1	217.35	3.0836e-06	2.96e-06	276.74	78.022	61.335	18.06	2.9854e-06	25.242	261.284	246.200	211.135	156.850	274.620	247.357	156.889	164.436	307.596	163.883	163.610	170.684	171.644	178.659	279.903	177.775	-8191	255	
428.106	1	1	0	0	0.1093	0.15843	0.24641	0.16126	0.096211	0.015751	0.17747	0.065406	0.26277	0.17943	0.12408	0.043821	0.17878	0.0726	0.17487	0.18367	-1.9833	-2.7729	-2.4771	-2.6583	-2.8229	-2.5083	-2.925	-2.9479	-2.6042	-3.0938	-2.6604	-2.5521	-2.7479	-2.5104	-2.6437	-2.6479	341.454	388.536	176.038	454.463	201.567	161.356	370.553	237.319	506.257	482.645	404.117	415.399	444.288	438.339	345.921	501.343	0.0002624	0.00026275	7.4882e-05	1062	3.2202e-06	2.6707e-06	1153.2	220.21	4.0005e-06	3.3028e-06	275.47	78.38	60.712	17.743	3.9299e-06	24.837	0.00027881	0.00027449	7.545e-05	1048.9	2.9956e-06	3.1295e-06	1138.4	217.96	3.0179e-06	2.8689e-06	275.87	78.259	61.116	18.054	3.0763e-06	25.182	262.703	215.749	239.981	156.664	271.547	285.918	156.799	164.334	316.752	298.209	163.717	170.940	171.407	178.577	289.552	177.626	-8191	255	
428.202	1	1	0	0	0.21636	0.11808	0.18528	0.28509	0.23658	0.33158	0.039519	0.26694	0.079927	0.2481	0.17228	0.063381	0.21421	0.14568	0.18474	0.13421	-1.9604	-2.6979	-2.5771	-2.7875	-3.05	-2.6021	-3	-2.775	-2.4208	-2.9458	-2.9458	-2.6729	-3.0604	-2.6479	-2.6292	-3.0708	287.291	184.613	179.618	155.512	459.415	193.244	405.089	493.523	359.518	237.491	161.956	199.554	433.746	468.028	442.157	383.937	0.00025363	0.00028532	9.6284e-05	1059.3	1.5429e-06	3.939e-06	1152.5	219.14	2.6241e-06	3.5665e-06	276.76	77.503	60.889	17.628	5.4559e-07	24.791	0.00027767	0.00027499	7.5784e-05	1048.5	3.0484e-06	2.9934e-06	1138.8	217.74	3.1338e-06	3.142e-06	276.45	78.004	61.095	17.96	3.0422e-06	25.233	261.918	198.136	199.764	156.604	332.761	311.013	156.939	164.414	300.404	274.791	163.880	170.847	171.035	178.282	221.624	177.232	-8191	255	
428.323	1	1	0	0	0.12367	0.085341	0.20371	0.37395	0.010479	0.37255	0.2755	0.15769	0.084382	0.080755	0.19346	0.22337	0.12698	0.35395	0.12328	0.31187	-2.2146	-3.0187	-2.8292	-2.7542	-2.9979	-2.4333	-2.8458	-2.9958	-2.6	-2.9333	-3.05	-2.6104	-3.0083	-2.7292	-2.5	-3.125	185.616	382.025	473.006	456.259	437.180	334.985	432.724	168.862	450.346	191.277	486.380	319.255	452.455	219.962	364.511	226.243	0.0002632	0.00043511	3.4955e-05	1059.8	4.0208e-06	2.4729e-06	1153.4	219.34	1.6149e-06	2.7847e-06	277.64	78.256	61.055	17.686	2.9736e-06	24.762	0.00027604	0.00027131	7.6372e-05	1048.4	3.1154e-06	3.0843e-06	1139	217.2	3.117e-06	3.0068e-06	276.15	78.275	61.242	18.029	2.9968e-06	25.207	262.768	243.838	243.858	156.697	309.604	313.796	156.728	164.321	296.714	279.631	163.984	170.692	171.374	178.140	334.051	177.984	-8191	255	
428.417	1	1	0	0	0.14465	0.063113	0.054371	0.3782	0.18232	0.28096	0.43299	0.15264	0.12354	0.17322	0.058912	0.23356	0.058573	0.11753	0.11726	0.24402	-1.8833	-2.7083	-2.5271	-2.6271	-2.6937	-2.6021	-2.8875	-2.975	-2.3979	-2.7333	-2.8063	-2.5167	-2.975	-2.6875	-2.4208	-2.8729	215.792	368.903	482.053	435.472	150.915	238.343	447.910	384.063	294.017	151.688	197.691	326.444	175.146	396.157	260.979	338.940	0.00027223	0.00026969	7.3375e-05	1060.6	4.0699e-06	3.1675e-06	1156.4	219.02	4.5448e-06	2.5292e-06	277.6	77.65	61.184	17.779	4.1188e-06	24.864	0.00027285	0.00027735	7.667e-05	1047.3	3.1175e-06	3.0017e-06	1140.1	217.43	3.0915e-06	2.9721e-06	276.54	77.978	61.348	18.039	3.0415e-06	25.256	258.070	252.837	268.574	156.677	318.529	307.279	156.882	164.516	301.148	289.186	164.016	170.927	171.417	178.750	289.627	177.464	-8191	255	
428.515	1	1	0	0	0.13496	0.38658	0.11808	0.22767	0.21041	0.08798	0.23166	0.10779	0.23001	0.29644	0.29302	0.27173	0.12244	0.25815	0.072137	0.23307	-2.2875	-2.7125	-2.8521	-2.6479	-3.0083	-2.8479	-2.6583	-3.125	-2.525	-2.525	-2.925	-2.4688	-2.7042	-2.7062	-2.5354	-3.0312	182.623	200.697	237.549	497.082	306.849	454.899	459.267	463.040	378.482	387.417	192.286	382.290	386.103	184.578	194.636	191.120	0.00026549	0.00041124	4.6969e-05	1062.6	2.6466e-06	1.7134e-06	1150	220.23	4.2299e-06	2.8657e-06	276.47	77.84	60.943	17.781	4.0193e-06	24.753	0.0002791	0.00027071	7.6914e-05	1048.6	3.0006e-06	3.008e-06	1138.6	218.06	3.005e-06	3.0828e-06	275.69	78.052	61.246	17.987	3.0412e-06	25.205	262.084	220.770	259.777	156.480	328.387	338.369	156.884	164.312	301.097	244.279	163.828	170.898	171.399	177.991	306.560	177.803	-8191	255	
428.610	1	1	0	0	0.25378	0.20807	0.19691	0.30482	0.19379	0.12848	0.23127	0.28942	0.13964	0.29745	0.27966	0.19892	0.17998	0.11645	0.15004	0.059627	-2.0625	-2.4667	-2.8292	-2.6271	-2.8896	-2.9771	-2.6292	-2.8646	-2.6208	-2.5708	-2.8292	-2.3708	-3.0146	-2.9583	-2.5438	-3.1104	254.994	220.263	292.454	441.313	387.672	196.000	461.319	331.969	410.015	350.809	416.507	493.023	253.545	329.104	430.440	453.054	0.00024776	0.00031978	8.0108e-05	1063.2	3.6183e-06	3.1907e-06	1151.2	219.07	3.777e-06	6.4731e-07	277.45	77.709	61.024	17.722	4.8243e-07	24.67	0.00027516	0.00027765	7.4605e-05	1050.6	2.9795e-06	2.875e-06	1137.5	217.81	3.0796e-06	3.0099e-06	276.37	77.882	61.25	18.037	2.9624e-06	25.143	257.995	229.830	235.191	156.479	308.934	337.488	156.896	164.146	316.736	288.407	163.852	170.919	171.012	178.540	220.929	177.573	-8191	255	
428.706	1	1	0	0	0.11973	0.16512	0.29753	0.24446	0.43278	0.14538	0.18422	0.1734	0.14455	0.077143	0.21667	0.2385	0.10935	0.093755	0.2112	0.038057	-2.2292	-2.55	-3.0083	-2.6937	-2.7188	-2.7562	-2.6458	-2.9688	-2.6979	-2.7625	-3.0979	-2.5354	-2.6042	-2.6875	-2.4646	-2.9833	419.769	447.092	493.198	441.242	492.609	238.561	413.930	355.261	312.348	159.096	487.446	224.272	248.679	410.981	298.351	275.735	0.00026805	0.0004485	0.00010302	1066.9	2.7347e-06	1.4592e-06	1157.5	220.59	2.7203e-06	2.3979e-06	276.98	77.746	61.155	17.66	3.8595e-06	24.674	0.00027423	0.00026523	7.5491e-05	1049.5	3.0319e-06	2.8255e-06	1139.4	217.99	2.9574e-06	2.9794e-06	275.95	78.054	61.326	18.012	2.9121e-06	25.136	257.167	303.767	240.278	156.592	277.046	360.985	157.009	164.495	335.897	288.882	163.992	170.666	171.275	178.585	301.534	178.073	-8191	255	
428.802	1	1	0	0	0.32653	0.096311	0.18863	0.26894	0.2931	0.14756	0.24013	0.19334	0.1655	0.13347	0.098398	0.20562	0.28207	0.11162	0.21378	0.13757	-2.2083	-2.5042	-2.9833	-2.9042	-2.7146	-2.7708	-2.4792	-2.9271	-2.8438	-2.6375	-3.0271	-2.525	-2.7479	-2.9542	-2.4938	-2.9688	301.347	342.640	164.117	439.095	281.624	453.560	438.757	176.302	239.686	459.029	472.669	433.180	445.571	163.861	186.524	191.329	0.00026717	0.00026674	0.0001006	1063.9	2.3647e-06	3.3465e-06	1157.7	219.57	2.2005e-06	1.2606e-06	276.79	78.025	60.811	17.74	3.3688e-06	25.076	0.00027192	0.00027021	7.4153e-05	1050.6	3.0143e-06	2.9021e-06	1139.1	217.83	3.0448e-06	2.9428e-06	276.02	78.112	61.136	18.006	2.9547e-06	25.28	259.660	237.118	226.559	156.600	266.134	284.126	157.149	164.615	277.786	359.443	163.874	170.809	171.350	178.237	277.271	178.079	-8191	255	
428.923	1	1	0	0	0.088003	0.22994	0.2375	0.079211	0.25286	0.18021	0.13698	0.068387	0.18015	0.26023	0.027542	0.14215	0.13254	0.18075	0.3176	0.043023	-2.3479	-2.475	-2.6188	-2.6375	-2.7583	-2.9896	-2.7521	-2.5312	-3.0479	-2.7167	-2.85	-2.7625	-2.5771	-2.9542	-2.5104	-2.8708	264.117	437.546	271.166	378.748	358.075	373.010	392.686	304.773	324.842	350.976	249.993	175.459	163.402	408.240	357.545	406.117	0.00022637	0.00021281	0.00010688	1056.4	1.1469e-06	2.6724e-06	1151.5	219.83	1.0992e-06	1.5012e-06	276.92	77.86	61.349	17.614	2.8037e-06	24.874	0.00026487	0.00026823	7.6141e-05	1047.6	3.0058e-06	2.9506e-06	1138.3	217.95	3.0356e-06	3.0464e-06	275.97	78.05	61.251	17.981	2.9543e-06	25.232	256.382	215.446	228.485	156.881	270.920	315.161	156.816	164.607	342.323	330.226	163.830	170.959	170.822	178.329	303.267	177.258	-8191	255	
429.019	1	1	0	0	0.029224	0.27761	0.086652	0.17319	0.092659	0.23312	0.27394	0.17679	0.22773	0.17626	0.14074	0.13631	0.17087	0.31892	0.12178	0.36853	-2.4146	-2.625	-2.8042	-2.9271	-2.7188	-2.9458	-2.6375	-2.7542	-2.825	-2.6188	-3.1188	-2.7583	-2.6771	-3.0208	-2.5458	-2.2646	433.674	254.419	445.664	501.079	338.265	490.469	433.641	374.168	306.935	404.464	498.670	479.818	403.077	504.250	215.902	160.686	0.00025651	0.00016212	8.225e-05	1063.2	2.5533e-06	2.2482e-06	1156.9	218.5	1.8924e-06	2.3499e-06	278.7	77.642	61.397	17.743	3.5314e-06	25.009	0.00027048	0.00027545	7.6101e-05	1049.5	3.1359e-06	2.9606e-06	1139.7	217.61	3.0846e-06	3.0453e-06	276.15	77.878	61.306	18.05	3.0148e-06	25.26	259.392	266.392	217.051	156.795	303.866	303.773	156.783	164.704	316.098	289.908	163.652	171.019	170.865	178.110	283.262	177.850	-8191	255	
429.091	1	1	0	0	0.39187	0.11331	0.15738	0.20235	0.055097	0.066032	0.28988	0.084522	0.028168	0.19895	0.41195	0.23864	0.11779	0.17324	0.36089	0.13162	-2.1396	-2.2375	-2.5708	-2.7812	-2.3375	-2.7875	-2.5062	-2.3563	-2.5687	-2.2208	-2.4229	-2.6104	-2.2229	-2.6917	-2.4854	-2.5687	472.366	216.017	433.158	459.821	180.102	360.725	424.800	414.829	432.940	449.673	169.313	418.751	277.786	198.578	207.550	401.674	0.00027116	0.00033928	1.8145e-05	1065	4.5226e-06	2.4386e-06	1155.4	219.49	2.3597e-06	2.0132e-06	277.23	77.583	61.023	17.767	3.112e-06	24.714	0.00027714	0.00027554	7.7293e-05	1049	3.1578e-06	3.0201e-06	1139.3	218.18	2.9913e-06	3.099e-06	276.35	77.849	61.179	18.049	3.1557e-06	25.146	264.040	228.934	176.562	156.853	279.357	357.209	156.763	164.288	298.331	300.003	163.941	171.058	171.284	178.064	306.587	177.555	-8191	255	
429.187	1	1	0	0	0.033847	0.10922	0.18408	0.26054	0.044799	0.26149	0.24782	0.41259	0.19441	0.2646	0.068878	0.11153	0.058391	0.089323	0.089019	0.18157	-2.3646	-2.0854	-2.3396	-2.825	-2.4729	-2.875	-2.7375	-2.4021	-2.5187	-2.0375	-2.4333	-2.4813	-2.1021	-2.5708	-2.3375	-2.3063	254.098	392.794	226.359	148.195	161.015	416.238	467.057	484.466	194.376	408.660	222.047	301.096	331.292	226.348	295.179	173.317	0.00026471	0.00038119	9.9454e-05	1060	3.6438e-06	4.2425e-06	1154.2	218.83	2.2942e-06	2.9715e-06	277.04	77.383	60.876	17.834	1.6916e-06	24.854	0.00028056	0.00028339	7.8166e-05	1047.7	3.1709e-06	3.0976e-06	1138.1	217.82	3.1209e-06	3.1685e-06	276.43	77.978	61.157	18.034	3.1095e-06	25.228	258.057	236.670	189.555	156.700	295.151	296.561	156.840	164.314	301.139	307.513	163.981	170.719	171.260	178.518	277.619	177.689	-8191	255	
429.307	1	1	0	0	0.28986	0.22658	0.14153	0.079005	0.096556	0.14074	0.07253	0.053821	0.041684	0.17036	0.21054	0.10853	0.18453	0.15545	0.16044	0.26484	-2.2	-2.1271	-2.4875	-2.9104	-2.3708	-2.6458	-2.55	-2.1854	-2.6063	-2.575	-2.525	-2.8125	-2.4646	-2.4958	-2.5917	-2.2687	459.866	243.371	153.827	433.795	155.157	219.282	204.924	268.389	244.873	301.577	481.940	251.081	239.188	497.966	243.160	388.967	0.00024799	0.00027726	0.0001037	1063.2	3.0017e-06	4.019e-06	1152.7	219.42	2.7038e-06	5.4228e-06	276.28	77.897	60.99	17.797	2.8559e-06	24.757	0.00028149	0.00027462	7.9408e-05	1047.3	3.2007e-06	3.1306e-06	1137.6	217.67	3.0465e-06	3.0286e-06	275.35	78.111	61.224	17.994	2.9816e-06	25.205	258.598	288.589	279.817	156.500	281.959	300.963	157.000	164.486	285.255	298.433	163.740	170.554	171.132	178.224	306.439	177.751	-8191	255	
429.403	1	1	0	0	0.064588	0.10445	0.24293	0.029119	0.18333	0.17934	0.13735	0.20487	0.18062	0.19345	0.096285	0.052724	0.05722	0.10815	0.1681	0.048819	-2.1229	-2.4083	-2.5771	-2.7146	-2.2604	-2.7313	-2.7	-2.3375	-2.6396	-2.325	-2.4813	-2.6021	-2.3271	-2.5104	-2.4917	-2.35	339.876	488.101	156.754	157.751	473.690	427.468	160.277	451.916	439.496	185.012	174.637	500.934	450.628	422.196	284.464	309.359	0.0002648	0.00024568	4.7508e-05	1060.1	3.7091e-06	3.0276e-06	1156.7	219.62	3.1478e-06	4.8428e-06	277.98	77.499	61.307	17.688	3.0988e-06	24.806	0.00026759	0.00028664	7.7745e-05	1047.4	3.1197e-06	2.9666e-06	1137.5	217.94	3.0134e-06	2.9703e-06	276.03	77.862	61.345	17.939	2.9633e-06	25.156	262.569	227.389	254.326	156.703	291.708	293.671	156.893	164.394	285.325	275.977	163.774	170.930	171.076	178.636	312.766	177.704	-8191	255	
429.498	1	1	0	0	0.22338	0.13432	0.0097008	0.1254	0.077364	0.092629	0.12255	0.09718	0.22309	0.096639	0.10906	0.2007	0.20295	0.11088	0.1777	0.26385	-2.0062	-2.2562	-2.1729	-2.9125	-2.275	-2.5521	-2.6937	-2.2458	-2.4896	-2.5354	-2.4583	-2.7542	-2.3021	-2.6437	-2.6729	-2.3625	408.040	234.450	307.415	449.721	434.604	420.557	479.333	392.963	482.169	503.823	153.979	215.990	500.517	418.729	399.146	375.582	0.00027507	0.00035471	6.9055e-05	1056.1	3.7415e-06	3.1238e-06	1153.1	220.54	3.3911e-06	1.6711e-06	278.51	78.17	61.153	17.693	3.5581e-06	24.91	0.00027592	0.00026462	7.8337e-05	1046.1	3.0811e-06	3.111e-06	1136.6	218.06	3.1283e-06	3.0042e-06	276.2	77.929	61.32	18	3.0249e-06	25.172	258.400	276.341	229.393	156.697	294.259	296.100	156.806	164.738	291.271	336.719	163.667	170.822	171.251	178.866	281.453	177.720	-8191	255	
429.596	1	1	0	0	0.17131	0.12198	0.13238	0.27424	0.087345	0.071882	0.045494	0.27183	0.082506	0.20165	0.096378	0.099999	0.027539	0.24053	0.31841	0.42061	-2.3	-2.5271	-2.2	-2.8937	-2.5604	-2.45	-2.7667	-2.3937	-2.6958	-2.7292	-2.4688	-2.7125	-2.4083	-2.4854	-2.8708	-2.3292	492.611	498.558	222.824	435.164	468.877	429.053	338.077	426.928	456.983	329.092	473.646	505.843	223.498	168.308	495.444	244.829	0.00027246	0.00027939	7.0837e-05	1060	3.3069e-06	2.142e-06	1153.4	218.62	2.4138e-06	1.7474e-06	276.33	77.977	60.963	17.65	5.17e-06	24.737	0.00027108	0.0002694	7.8342e-05	1046.7	3.0468e-06	3.0598e-06	1136.7	217.42	3.0347e-06	2.9792e-06	275.35	77.855	61.102	17.99	3.0013e-06	25.186	255.268	211.534	182.945	156.915	292.823	304.038	156.975	164.389	317.851	293.017	163.564	170.924	171.236	178.379	294.927	178.196	-8191	255	
429.690	1	1	0	0	0.14847	0.14789	0.10062	0.27116	0.18195	0.10019	0.30592	0.10764	0.066162	0.22633	0.19095	0.092523	0.10742	0.054367	0.10983	0.23656	-1.9521	-2.3354	-2.1771	-2.9188	-2.2875	-2.4896	-2.7938	-2.3167	-2.2979	-2.7042	-2.0875	-2.7062	-2.3292	-2.3167	-2.6437	-2.4396	174.433	423.950	203.737	179.561	230.222	176.665	462.332	324.227	474.025	162.213	472.261	324.685	311.702	464.836	175.492	299.267	0.00024704	0.00041887	7.7182e-05	1063.3	3.6324e-06	1.4016e-06	1155.3	219.4	1.0061e-06	2.7632e-06	275.73	77.779	60.994	17.603	3.0752e-06	24.614	0.00026946	0.00027264	7.5346e-05	1048.3	3.088e-06	3.0377e-06	1137.5	217.93	3.0347e-06	3.0577e-06	275.79	78.003	61.257	17.955	2.9781e-06	25.148	254.387	244.704	242.568	156.803	293.311	267.464	156.888	164.302	298.189	277.875	163.749	170.684	171.375	178.261	270.534	177.644	-8191	255	
429.786	1	1	0	0	0.18359	0.33439	0.27771	0.17871	0.080627	0.047149	0.29385	0.14537	0.12376	0.16441	0.20926	0.11503	0.15649	0.18735	0.0088641	0.29426	-1.9396	-2.5958	-2.2146	-2.7521	-2.7396	-2.4562	-2.6833	-2.2417	-2.2979	-2.4188	-2.4833	-2.75	-2.6458	-2.4062	-2.7833	-2.4688	182.762	311.441	247.581	155.532	227.076	404.635	465.034	427.102	309.072	494.930	147.930	502.647	431.371	477.752	165.289	427.062	0.00025877	0.00027318	5.8519e-05	1065.6	3.5284e-06	1.5577e-06	1148	219.74	3.3993e-06	2.7186e-06	276.35	77.577	60.826	17.746	4.4836e-06	24.787	0.00028646	0.00026887	7.6286e-05	1048.9	3.0475e-06	2.8888e-06	1136.7	217.82	3.0465e-06	2.8309e-06	276.32	77.946	61.149	18.031	2.9201e-06	25.157	262.663	230.126	226.631	156.698	283.777	345.861	156.867	164.345	306.009	319.065	164.189	170.654	171.383	178.036	297.111	177.206	-8191	255	
429.882	1	1	0	0	0.12099	0.2194	0.022196	0.18847	0.17725	0.15747	0.37719	0.22722	0.041019	0.24484	0.28925	0.31407	0.16756	0.17271	0.35659	0.15636	-2.0354	-2.6333	-2.3	-2.7438	-2.6875	-2.2979	-2.8083	-2.3625	-2.4646	-2.6458	-2.125	-2.6417	-2.8167	-2.3896	-2.4792	-2.4146	175.931	273.342	358.455	414.735	336.853	263.460	434.276	463.518	242.153	312.454	459.987	415.264	170.426	391.679	343.905	422.156	0.00024123	0.00045718	8.6889e-05	1060.7	4.7205e-06	7.6492e-07	1156.7	218.97	4.6488e-07	3.8179e-06	277.29	77.997	60.857	17.796	4.6548e-06	24.631	0.00027265	0.00026667	7.4903e-05	1046.2	3.0569e-06	2.8975e-06	1136.2	217.96	3.0551e-06	3.0002e-06	275.88	77.978	61.124	17.993	2.9772e-06	25.149	258.250	230.398	219.920	156.601	281.423	279.360	156.911	164.653	243.584	314.379	163.903	170.655	171.271	178.179	320.275	177.793	-8191	255	
430.003	1	1	0	0	0.057957	0.075006	0.21045	0.29401	0.23014	0.10463	0.13898	0.17322	0.20061	0.11488	0.12503	0.2252	0.18955	0.13925	0.41249	0.094915	-1.7208	-2.6146	-2.25	-2.5771	-2.7458	-2.4562	-2.7	-2.6	-2.3042	-2.4813	-2.35	-2.4104	-2.6708	-2.2562	-2.5208	-2.5229	184.327	196.008	299.034	474.792	301.742	458.137	454.861	364.444	430.626	249.087	368.265	476.848	484.313	270.454	287.522	160.790	0.0002838	0.00015811	8.6491e-05	1061.9	2.2136e-06	3.2289e-06	1154.1	219.12	1.4951e-06	3.8711e-06	275.75	77.904	61.203	17.687	5.104e-06	24.619	0.0002832	0.00027251	7.6742e-05	1047.4	3.0395e-06	3.0347e-06	1138	217.73	2.9509e-06	2.9366e-06	276.03	77.888	61.279	18.008	2.9945e-06	25.135	263.806	277.342	231.095	156.673	325.597	307.470	156.963	164.485	325.143	267.185	163.684	170.568	171.408	178.310	275.336	177.933	-8191	255	
430.099	1	1	0	0	0.37846	0.18698	0.13685	0.19678	0.058746	0.19548	0.12899	0.02871	0.063392	0.24124	0.20997	0.073858	0.21168	0.18194	0.050571	0.13879	-1.9542	-2.7667	-2.4813	-2.4188	-2.6104	-2.3312	-2.7104	-2.5771	-2.1896	-2.5917	-2.4	-2.4646	-2.5146	-2.1458	-2.5958	-2.6625	412.521	424.793	464.505	368.620	386.665	251.763	397.396	335.954	190.677	344.389	480.129	281.559	492.970	437.965	175.175	226.182	0.00027169	0.00044819	7.3688e-05	1062.8	1.0761e-06	3.1872e-06	1155.4	220.77	2.7062e-06	2.8067e-06	277.82	77.797	61.315	17.669	3.1793e-06	24.784	0.00027397	0.0002699	7.5626e-05	1046.8	2.8675e-06	2.9948e-06	1138.7	218.04	2.9454e-06	3.0824e-06	276.66	78	61.341	17.955	3.0027e-06	25.195	257.228	250.998	263.057	156.942	313.718	327.888	156.913	164.467	322.848	305.574	163.915	170.756	171.537	178.557	298.575	177.710	-8191	255	
430.195	1	1	0	0	0.10649	0.26344	0.11099	0.079401	0.016395	0.12147	0.3686	0.044892	0.19935	0.13695	0.3025	0.41923	0.23245	0.15875	0.27004	0.15579	-1.7687	-2.8063	-2.4958	-2.5438	-2.8	-2.2979	-2.5542	-2.4646	-2.3563	-2.8354	-2.5375	-2.3521	-2.9938	-2.35	-2.2917	-2.6125	435.029	292.538	396.708	464.875	311.944	425.155	453.774	474.622	216.840	382.919	454.755	323.495	349.631	171.272	304.931	494.390	0.00029041	0.00037634	4.2069e-05	1065.8	2.8882e-06	1.3857e-06	1153.8	219.88	1.2988e-06	2.5863e-06	276.91	78.252	61.024	17.646	2.8808e-06	24.652	0.00027716	0.00026752	7.7867e-05	1049.7	3.0006e-06	2.9536e-06	1138.1	217.91	3.0103e-06	2.9573e-06	276.1	78.047	61.232	17.961	2.8918e-06	25.189	254.573	221.635	291.227	156.740	334.500	305.110	156.887	164.244	312.497	281.071	164.161	170.832	171.046	178.484	286.407	177.723	-8191	255	
430.316	1	1	0	0	0.17918	0.12695	0.14765	0.045111	0.042855	0.079237	0.067731	0.07438	0.11989	0.19395	0.11858	0.1498	0.14196	0.069233	0.29754	0.071962	-1.7958	-2.6604	-2.5458	-2.3667	-2.5312	-2.2313	-2.3958	-2.7042	-2.1104	-2.8271	-2.5812	-2.2292	-2.6875	-2.2792	-2.6396	-2.6688	320.951	307.948	469.795	329.510	305.109	459.442	457.479	217.535	482.431	259.480	347.147	413.474	355.919	282.575	186.414	237.281	0.00027077	0.0003238	5.7878e-05	1063.2	3.1515e-06	3.5516e-06	1156.9	219.17	1.7224e-06	3.9225e-06	275.28	78.12	61.038	17.721	3.1137e-06	24.697	0.00027534	0.00027522	7.4221e-05	1047.2	3.0596e-06	2.9641e-06	1138.3	217.9	3.0095e-06	3.0109e-06	275.4	78.114	61.161	17.988	3.0038e-06	25.119	263.020	216.277	255.628	156.823	302.005	318.968	157.004	164.490	324.811	279.021	163.920	170.784	171.712	178.874	293.612	177.758	-8191	255	
#DATA ENDS
