BOXY.EXE: ISS Imagent and Oximeter Data Acquisition Program Version 0.80
Ascii Record File

#ACQ INFORMATION
2  Detector Channels 
16  External MUX Channels 
1  Auxiliary Channels 
5000  Waveform (CCF) Frequency (Hz)
1  Waveforms Skipped 
30  Waveforms Averaged 
1  Cycles Averaged 
16  Acquisitions per Waveform 
10.0806  Updata Rate (Hz) 

#FILE INFORMATION
TRUE -- External MUX Channel results are PARSED.
FALSE -- AC DC and Phase are NOT grouped.
TRUE -- Companion Program Settings File CREATED.
FALSE -- AC data not excluded
FALSE -- DC data not excluded
FALSE -- Phase data not excluded
FALSE -- Auxillary Chn. data not excluded
Tab delimiters

#CALIBRATION STATE
TRUE -- Waveform Calibration Values APPLIED.


#AUX CALIBRATION VALUES
Val Type	aux-1	

Term	1.0000e+00	
Factor	0.0000e+00	


#WF CALIBRATION VALUES
A = Detector Channel
Val Type	A-AC1	A-AC2	A-AC3	A-AC4	A-AC5	A-AC6	A-AC7	A-AC8	A-AC9	A-AC10	A-AC11	A-AC12	A-AC13	A-AC14	A-AC15	A-AC16	A-DC1	A-DC2	A-DC3	A-DC4	A-DC5	A-DC6	A-DC7	A-DC8	A-DC9	A-DC10	A-DC11	A-DC12	A-DC13	A-DC14	A-DC15	A-DC16	A-Ph1	A-Ph2	A-Ph3	A-Ph4	A-Ph5	A-Ph6	A-Ph7	A-Ph8	A-Ph9	A-Ph10	A-Ph11	A-Ph12	A-Ph13	A-Ph14	A-Ph15	A-Ph16	

Term	0.00000e+00	0.00000e+00	0.00000e+00	0.00000e+00	0.00000e+00	0.00000e+00	0.00000e+00	0.00000e+00	0.00000e+00	0.00000e+00	0.00000e+00	0.00000e+00	0.00000e+00	0.00000e+00	0.00000e+00	0.00000e+00	0.00000e+00	0.00000e+00	0.00000e+00	0.00000e+00	0.00000e+00	0.00000e+00	0.00000e+00	0.00000e+00	0.00000e+00	0.00000e+00	0.00000e+00	0.00000e+00	0.00000e+00	0.00000e+00	0.00000e+00	0.00000e+00	0.00000e+00	0.00000e+00	0.00000e+00	0.00000e+00	0.00000e+00	0.00000e+00	0.00000e+00	0.00000e+00	0.00000e+00	0.00000e+00	0.00000e+00	0.00000e+00	0.00000e+00	0.00000e+00	0.00000e+00	0.00000e+00	
Factor	1.00000e+00	1.00000e+00	1.00000e+00	1.00000e+00	1.00000e+00	1.00000e+00	1.00000e+00	1.00000e+00	1.00000e+00	1.00000e+00	1.00000e+00	1.00000e+00	1.00000e+00	1.00000e+00	1.00000e+00	1.00000e+00	1.00000e+00	1.00000e+00	1.00000e+00	1.00000e+00	1.00000e+00	1.00000e+00	1.00000e+00	1.00000e+00	1.00000e+00	1.00000e+00	1.00000e+00	1.00000e+00	1.00000e+00	1.00000e+00	1.00000e+00	1.00000e+00	X	X	X	X	X	X	X	X	X	X	X	X	X	X	X	X	

B = Detector Channel
Val Type	B-AC1	B-AC2	B-AC3	B-AC4	B-AC5	B-AC6	B-AC7	B-AC8	B-AC9	B-AC10	B-AC11	B-AC12	B-AC13	B-AC14	B-AC15	B-AC16	B-DC1	B-DC2	B-DC3	B-DC4	B-DC5	B-DC6	B-DC7	B-DC8	B-DC9	B-DC10	B-DC11	B-DC12	B-DC13	B-DC14	B-DC15	B-DC16	B-Ph1	B-Ph2	B-Ph3	B-Ph4	B-Ph5	B-Ph6	B-Ph7	B-Ph8	B-Ph9	B-Ph10	B-Ph11	B-Ph12	B-Ph13	B-Ph14	B-Ph15	B-Ph16	

Term	0.00000e+00	0.00000e+00	0.00000e+00	0.00000e+00	0.00000e+00	0.00000e+00	0.00000e+00	0.00000e+00	0.00000e+00	0.00000e+00	0.00000e+00	0.00000e+00	0.00000e+00	0.00000e+00	0.00000e+00	0.00000e+00	0.00000e+00	0.00000e+00	0.00000e+00	0.00000e+00	0.00000e+00	0.00000e+00	0.00000e+00	0.00000e+00	0.00000e+00	0.00000e+00	0.00000e+00	0.00000e+00	0.00000e+00	0.00000e+00	0.00000e+00	0.00000e+00	-1.98888e+02	-1.41666e+02	-1.28181e+02	-1.83212e+02	-8.92266e+01	-7.95993e+01	-1.60609e+02	-1.62015e+02	-7.67401e+01	-7.98675e+01	-1.72562e+02	-1.72621e+02	-1.82837e+02	-1.77955e+02	-8.59113e+01	-1.50807e+02	
Factor	3.77429e-05	1.24987e-04	3.22763e-05	1.53048e-01	1.12836e-06	1.18453e-06	1.66555e-01	5.17580e-02	1.34229e-06	1.30404e-06	7.96663e-02	2.59757e-02	2.43854e-02	7.97063e-03	1.19627e-06	1.14541e-02	1.84811e-06	1.93964e-06	5.39761e-07	8.01032e-02	2.10885e-08	2.12456e-08	8.19187e-02	2.70715e-02	2.11425e-08	2.13452e-08	4.02592e-02	1.31275e-02	1.28064e-02	4.18483e-03	2.12242e-08	5.82685e-03	X	X	X	X	X	X	X	X	X	X	X	X	X	X	X	X	



#DISTANCE SETTINGS
A = Detector Channel
A-1	A-2	A-3	A-4	A-5	A-6	A-7	A-8	A-9	A-10	A-11	A-12	A-13	A-14	A-15	A-16	

2.5000e+00	3.0000e+00	2.5000e+00	3.0000e+00	2.0000e+00	3.0000e+00	1.5000e+00	3.0000e+00	3.0000e+00	3.0000e+00	3.0000e+00	3.0000e+00	3.0000e+00	3.0000e+00	1.5000e+00	3.0000e+00	

B = Detector Channel
B-1	B-2	B-3	B-4	B-5	B-6	B-7	B-8	B-9	B-10	B-11	B-12	B-13	B-14	B-15	B-16	

1.0000e+01	1.0000e+01	1.0000e+01	1.4400e+00	1.0000e+01	1.0000e+01	1.5100e+00	1.9400e+00	1.0000e+01	1.0000e+01	1.9900e+00	2.4900e+00	2.4100e+00	2.9000e+00	1.0000e+01	2.9800e+00	




#DATA BEGINS
time	group	step	mark	flag	A-AC1	A-AC2	A-AC3	A-AC4	A-AC5	A-AC6	A-AC7	A-AC8	A-AC9	A-AC10	A-AC11	A-AC12	A-AC13	A-AC14	A-AC15	A-AC16	A-DC1	A-DC2	A-DC3	A-DC4	A-DC5	A-DC6	A-DC7	A-DC8	A-DC9	A-DC10	A-DC11	A-DC12	A-DC13	A-DC14	A-DC15	A-DC16	A-Ph1	A-Ph2	A-Ph3	A-Ph4	A-Ph5	A-Ph6	A-Ph7	A-Ph8	A-Ph9	A-Ph10	A-Ph11	A-Ph12	A-Ph13	A-Ph14	A-Ph15	A-Ph16	B-AC1	B-AC2	B-AC3	B-AC4	B-AC5	B-AC6	B-AC7	B-AC8	B-AC9	B-AC10	B-AC11	B-AC12	B-AC13	B-AC14	B-AC15	B-AC16	B-DC1	B-DC2	B-DC3	B-DC4	B-DC5	B-DC6	B-DC7	B-DC8	B-DC9	B-DC10	B-DC11	B-DC12	B-DC13	B-DC14	B-DC15	B-DC16	B-Ph1	B-Ph2	B-Ph3	B-Ph4	B-Ph5	B-Ph6	B-Ph7	B-Ph8	B-Ph9	B-Ph10	B-Ph11	B-Ph12	B-Ph13	B-Ph14	B-Ph15	B-Ph16	aux-1	digaux	

8817.517	1	1	0	256	0.24529	0.14104	0.029008	0.38379	0.15387	0.11376	0.13427	0.09366	0.14135	0.11336	0.25206	0.12564	0.047073	0.21499	0.10625	0.11608	-1.9	-2.2938	-2.3729	-2.35	-2.5021	-2.3458	-2.3	-2.55	-2.4792	-2.3646	-2.5292	-2.1729	-2.4125	-2.4375	-2.125	-2.6312	461.037	140.795	376.950	206.643	432.359	375.974	144.888	496.038	171.104	272.448	380.039	336.668	425.944	416.249	140.296	372.037	0.00049829	0.00030937	9.3923e-05	752.44	2.4385e-06	2.2536e-06	790.31	204.31	2.863e-06	3.0634e-07	248.63	65.602	47.232	11.305	5.0707e-06	19.717	0.0001346	0.00012615	3.516e-05	742.7	1.4048e-06	1.3405e-06	782.03	202.69	1.3589e-06	1.3509e-06	245.17	65.012	46.611	11.398	1.3025e-06	19.756	484.652	246.115	223.231	152.527	266.488	285.859	151.754	156.753	295.131	261.148	155.450	160.516	161.271	166.939	261.704	164.846	-8191	255	
8817.613	1	1	0	0	0.24443	0.048044	0.15294	0.21059	0.14394	0.13144	0.21567	0.14388	0.25587	0.33868	0.097164	0.19474	0.28643	0.30482	0.2738	0.10476	-1.9896	-2.0604	-2.7229	-2.1458	-2.35	-2.6583	-2.1042	-2.6542	-2.4354	-2.2687	-2.5979	-2.3146	-2.3667	-2.5292	-2.1042	-2.5458	366.734	243.660	438.831	296.721	329.100	490.966	168.432	236.860	318.061	343.982	444.835	435.318	402.010	423.324	173.411	193.964	0.00052376	0.00022253	1.1928e-05	743.75	3.8346e-06	3.1094e-06	793.05	204.07	5.443e-06	2.8213e-06	248.24	66.175	46.644	11.113	8.8487e-07	19.676	0.00013006	0.00011822	3.3326e-05	737.57	1.323e-06	1.293e-06	781.19	201.12	1.373e-06	1.3378e-06	245.58	64.99	46.176	11.201	1.2947e-06	19.712	479.293	232.498	238.163	152.546	287.761	330.165	151.732	156.595	269.769	314.321	155.477	160.541	161.724	167.049	278.438	164.893	-8191	255	
8817.685	1	1	0	0	0.21274	0.14763	0.12506	0.2165	0.088106	0.11891	0.16189	0.17392	0.30852	0.20398	0.045721	0.13945	0.39723	0.12136	0.049207	0.32071	-1.9312	-2.3125	-2.525	-2.2812	-2.2146	-2.7	-2.4229	-2.6437	-2.4583	-2.2458	-2.7521	-2.2979	-2.3375	-2.7188	-2.2854	-2.4708	313.074	325.737	350.388	213.535	267.177	149.021	145.367	444.431	485.767	449.039	255.167	453.175	169.308	270.948	162.380	454.117	0.00046913	5.0564e-05	8.9855e-05	742.47	8.8442e-07	2.9506e-06	781.98	202.43	4.4107e-06	3.1108e-06	248.5	65.241	46.031	10.883	3.2046e-06	19.338	0.0001304	0.00011966	3.3446e-05	734.57	1.3259e-06	1.3151e-06	775.33	200.04	1.3173e-06	1.2957e-06	244.57	64.202	45.654	11.012	1.2354e-06	19.266	480.725	278.478	213.817	152.308	220.160	336.983	151.909	157.030	276.289	324.255	155.466	160.405	161.781	166.900	263.940	165.536	-8191	255	
8817.805	1	1	0	0	0.16357	0.14822	0.086671	0.30589	0.12955	0.23783	0.12111	0.14647	0.21628	0.21241	0.16026	0.21182	0.26062	0.079823	0.21757	0.1372	-2.0458	-2.1	-2.5208	-2.2854	-2.3083	-2.7146	-2.4125	-2.5687	-2.6604	-2.0938	-2.6208	-2.3333	-2.2917	-2.7104	-2.125	-2.5187	189.737	203.618	228.274	481.950	253.284	453.468	351.362	450.831	287.079	437.267	451.690	397.747	224.445	367.228	292.256	363.010	0.00050858	6.4507e-05	9.3508e-05	734.48	6.8099e-07	2.2354e-06	778.85	201.44	3.5964e-06	2.7186e-06	246.63	65.145	46.251	10.827	4.2523e-06	19.297	0.00012419	0.00011136	2.9595e-05	725.72	1.2502e-06	1.2038e-06	770.13	198.42	1.2407e-06	1.2237e-06	243.25	64.011	45.629	10.94	1.2245e-06	19.329	479.196	270.239	235.828	152.189	158.634	303.232	151.854	156.992	276.270	267.327	155.954	160.562	161.051	167.363	276.957	164.572	-8191	255	
8817.901	1	1	0	0	0.11958	0.088052	0.094579	0.26447	0.028941	0.1687	0.087267	0.38321	0.079363	0.17638	0.10327	0.22387	0.16446	0.052964	0.21359	0.20068	-2.1833	-2.0583	-2.6729	-2.6042	-2.1708	-2.6833	-2.3167	-2.3333	-2.6708	-2.2625	-2.4542	-2.4208	-2.2396	-2.8521	-2.2646	-2.3208	314.396	361.484	192.533	145.372	414.667	383.773	464.557	364.893	438.260	201.730	296.945	405.398	159.220	408.393	274.629	454.929	0.0004448	0.00025188	7.6691e-05	738.39	1.5827e-06	2.5922e-06	785.41	202.27	3.8389e-06	5.584e-07	246.34	65.565	46.449	10.95	2.1184e-06	19.557	0.00012124	0.00011301	3.1341e-05	728.6	1.2571e-06	1.2631e-06	776.63	199.81	1.3194e-06	1.2633e-06	243.95	64.745	46.077	11.123	1.4775e-06	19.614	483.059	191.289	244.666	152.265	241.050	277.103	151.732	156.699	263.329	316.779	155.785	160.521	161.215	167.170	229.900	164.615	-8191	255	
8817.997	1	1	0	0	0.10629	0.083945	0.3097	0.20095	0.086304	0.10965	0.25555	0.10941	0.15308	0.21423	0.10246	0.28023	0.15477	0.22111	0.018095	0.040237	-2.2667	-2.1708	-2.6333	-2.6292	-2.2042	-2.7792	-2.4729	-2.4625	-2.5938	-2.1833	-2.4854	-2.7667	-2.1771	-2.5854	-2.3125	-2.3	497.616	226.272	379.193	492.639	442.417	291.125	371.924	461.568	476.571	323.167	403.510	445.236	427.434	416.944	416.245	451.159	0.00043685	0.00017629	6.0616e-05	743.76	3.002e-06	2.2455e-06	786.32	202.68	3.0111e-06	2.7821e-06	248.41	65.551	46.709	10.952	2.4853e-06	19.66	0.00015149	0.00014139	4.0772e-05	734.5	1.679e-06	1.6944e-06	781.06	200.98	1.8393e-06	1.8421e-06	246.8	65.072	46.543	11.206	1.9794e-06	19.686	486.222	216.145	216.273	152.526	310.214	339.530	151.922	156.780	252.179	361.892	155.330	160.517	161.206	166.485	256.217	165.101	-8191	255	
8818.094	1	1	0	0	0.14468	0.47064	0.11706	0.11866	0.08034	0.088608	0.12873	0.15581	0.13805	0.19092	0.11497	0.024897	0.22795	0.26299	0.029909	0.22986	-2.2083	-2.1063	-2.3896	-2.6937	-2.2313	-2.6937	-2.3708	-2.4229	-2.5896	-2.2354	-2.4542	-2.5979	-2.2667	-2.7396	-2.5042	-2.2833	201.809	440.496	192.365	366.863	164.154	206.649	413.691	436.931	346.792	180.955	363.557	180.956	434.697	482.365	435.775	190.491	0.00043859	0.00015848	6.1593e-05	737.28	2.2316e-06	4.9886e-06	777.51	199.04	4.5182e-06	2.3045e-06	242.92	64.005	45.793	10.811	9.7902e-07	18.824	0.00020033	0.00019423	5.451e-05	733.87	2.1886e-06	2.1208e-06	771.49	199.06	2.0702e-06	2.0096e-06	241.86	63.546	45.498	10.936	1.7135e-06	18.992	483.782	230.783	338.876	152.393	228.910	234.850	151.752	156.779	274.242	188.367	155.746	160.563	161.559	167.204	297.544	165.038	-8191	255	
8818.212	1	1	0	0	0.26164	0.17501	0.31693	0.032063	0.27703	0.14583	0.046721	0.23773	0.14215	0.088711	0.15283	0.12899	0.17016	0.07442	0.18667	0.17604	-2.1375	-2.2188	-2.1583	-2.6583	-2.225	-2.5021	-2.5583	-2.1229	-2.8167	-2.5417	-2.3625	-2.5812	-2.2625	-2.6437	-2.6437	-2.225	229.357	496.640	306.492	373.271	147.874	266.014	404.039	470.412	334.696	170.494	186.198	372.712	365.861	412.032	259.978	432.283	0.00044338	0.00026781	8.3937e-05	731.3	1.1543e-06	1.6365e-06	775.74	199.21	8.0748e-07	2.9311e-06	244.27	64.475	46.14	10.751	2.7351e-06	19.007	0.00015838	0.00014313	3.9618e-05	723.97	1.4553e-06	1.4698e-06	767.48	197.2	1.466e-06	1.4412e-06	241.67	63.68	45.472	10.897	1.4216e-06	19.043	483.660	310.153	251.393	152.315	217.598	396.455	151.646	156.979	305.170	291.765	155.583	160.443	161.434	167.051	290.505	165.325	-8191	255	
8818.286	1	1	0	0	0.16415	0.074932	0.33824	0.087512	0.13203	0.041389	0.13498	0.14197	0.11177	0.28359	0.24731	0.30571	0.31164	0.10732	0.1651	0.22939	-2.1875	-2.2875	-2.2042	-2.6292	-2.2854	-2.6188	-2.7042	-2.3063	-2.7292	-2.5229	-2.3896	-2.8521	-2.1937	-2.55	-2.6063	-2.3187	172.826	323.978	309.044	166.906	477.297	464.761	442.453	159.315	262.806	254.357	140.240	338.223	465.949	227.321	212.581	371.058	0.00047333	0.00021565	9.2578e-05	729	2.2145e-06	3.234e-06	775.97	199.94	5.5675e-06	2.2182e-06	245.74	64.755	46.365	10.87	9.5885e-07	19.38	0.00013738	0.00012606	3.6858e-05	724.52	1.4103e-06	1.4384e-06	767.77	198.03	1.4027e-06	1.3749e-06	242.92	63.916	45.796	11	1.4001e-06	19.291	475.613	184.416	240.817	152.440	268.043	293.776	151.711	156.682	265.581	315.559	155.782	160.697	161.445	166.140	298.277	165.212	-8191	255	
8818.405	1	1	0	0	0.20773	0.32217	0.22861	0.22662	0.12415	0.18799	0.19997	0.19171	0.040511	0.074257	0.18771	0.092693	0.20507	0.082314	0.046039	0.085277	-2.2687	-2.3688	-2.1958	-2.75	-2.0396	-2.4	-2.7667	-2.3042	-2.4479	-2.6146	-2.3521	-2.75	-2.4354	-2.1875	-2.5708	-2.1854	429.251	432.232	473.067	435.366	172.556	431.623	456.719	304.700	454.979	179.620	144.874	375.893	402.855	284.526	450.956	172.063	0.00050594	0.00026768	0.00011198	743.14	8.8658e-07	3.4208e-06	783.57	203.08	4.6787e-06	1.2602e-06	247	65.385	47.005	11.056	1.3303e-06	19.127	0.00013549	0.00012816	3.6376e-05	734.2	1.4215e-06	1.4369e-06	774.61	201.16	1.4156e-06	1.3754e-06	244.66	64.474	46.34	11.145	1.3848e-06	19.247	488.359	167.842	192.328	152.680	461.076	230.273	151.691	156.681	300.404	324.583	155.960	160.493	161.317	166.651	228.305	164.890	-8191	255	
8818.501	1	1	0	0	0.041387	0.16118	0.21404	0.20232	0.37592	0.045276	0.2304	0.032814	0.15265	0.19443	0.21212	0.19531	0.13723	0.21867	0.21821	0.16636	-1.9	-2.3667	-2.0979	-2.7854	-2.4604	-2.2125	-2.7333	-2.4375	-2.3812	-2.5292	-2.1458	-2.7354	-2.3812	-2.4354	-2.6813	-2.3521	411.501	451.644	287.499	438.031	176.531	349.718	441.323	235.992	194.390	196.607	389.858	445.050	497.371	271.224	396.838	352.182	0.0005308	0.00022216	3.5319e-05	736.6	2.7378e-06	2.7103e-06	772.61	201.36	3.6573e-06	1.6324e-06	243.68	64.225	46.507	11.095	3.8101e-06	19.155	0.0001357	0.0001269	3.5364e-05	729.43	1.3922e-06	1.3707e-06	763.38	199.64	1.3995e-06	1.3679e-06	240.59	63.586	46.02	11.16	1.4118e-06	19.241	479.709	231.254	307.047	152.514	253.124	271.318	151.807	156.867	292.543	276.723	155.760	160.265	161.502	166.703	322.174	164.762	-8191	255	
8818.597	1	1	0	0	0.1076	0.16	0.22895	0.10741	0.19659	0.018881	0.036575	0.25183	0.18514	0.1696	0.1475	0.08182	0.056203	0.2001	0.056997	0.12398	-1.9333	-2.5667	-2.3479	-2.8917	-2.5167	-2.4271	-2.7333	-2.2979	-2.2708	-2.4792	-2.4104	-2.7354	-2.5687	-2.3042	-2.8	-2.4417	300.101	422.556	204.162	356.261	410.254	440.769	385.440	387.141	315.149	211.537	148.008	200.290	211.194	189.992	163.075	221.389	0.00052536	2.9588e-05	8.6802e-05	740.66	1.4489e-06	4.7295e-06	777.76	203.74	4.1086e-06	2.8314e-06	244.92	65.925	47.933	11.246	1.0558e-06	19.542	0.00014528	0.00013381	3.9233e-05	734.86	1.6156e-06	1.6048e-06	770.23	202.47	1.653e-06	1.6519e-06	243	65.105	47.282	11.401	1.4951e-06	19.587	478.099	224.611	260.601	152.680	233.173	265.250	151.672	156.635	232.803	289.295	155.322	160.306	161.440	166.608	234.668	164.933	-8191	255	
8818.693	1	1	0	0	0.17061	0.060551	0.096347	0.13669	0.23989	0.17249	0.036504	0.14179	0.28419	0.11236	0.22309	0.17985	0.1341	0.16583	0.1759	0.42684	-2.0104	-2.7229	-2.1646	-2.8354	-2.6646	-2.3458	-2.9208	-2.4396	-2.4396	-2.6292	-2.3458	-2.6354	-2.4708	-2.2583	-2.8729	-2.3937	305.950	485.828	192.008	488.901	486.042	226.935	497.520	489.831	410.850	213.975	468.801	456.837	329.805	333.312	470.164	452.710	0.00056716	0.00021503	1.6879e-05	736.75	1.7543e-06	1.7346e-06	776.36	202.83	2.557e-06	3.9048e-06	244.34	64.723	46.58	11.076	4.71e-06	19.324	0.00014783	0.00013193	3.6076e-05	732.41	1.4319e-06	1.399e-06	766.92	200.64	1.4263e-06	1.3549e-06	241.01	64.152	46.311	11.182	1.3113e-06	19.405	475.357	230.295	266.344	152.353	241.253	210.307	151.692	156.860	273.894	267.158	155.561	160.354	161.451	166.446	250.627	165.224	-8191	255	
8818.814	1	1	0	0	0.048674	0.20945	0.19963	0.065058	0.2935	0.19746	0.13255	0.16579	0.2399	0.16407	0.31536	0.35862	0.077997	0.21548	0.17895	0.19523	-2.0896	-2.6167	-2.3542	-2.55	-2.5229	-2.1979	-2.7	-2.5563	-2.3521	-2.5958	-2.2354	-2.4417	-2.5125	-2.2917	-2.6562	-2.4271	409.563	445.005	425.096	166.217	171.057	314.506	414.759	462.173	451.834	329.994	430.517	225.783	339.051	442.727	428.842	321.857	0.00048189	0.00017736	8.0328e-05	738.49	2.0744e-06	2.4816e-06	779.6	202.8	1.8023e-06	1.2652e-06	243.36	64.962	46.607	11.134	2.4776e-06	19.1	0.00013417	0.00012012	3.2952e-05	732.35	1.3296e-06	1.2752e-06	772.33	200.23	1.3384e-06	1.2681e-06	241.07	64.245	46.262	11.206	1.3193e-06	19.225	479.085	220.213	236.245	152.447	253.864	260.451	151.548	157.194	311.488	246.140	155.988	160.239	161.135	166.385	253.024	164.930	-8191	255	
8818.908	1	1	0	0	0.068062	0.30217	0.16298	0.20524	0.087608	0.2203	0.19674	0.071834	0.27559	0.17239	0.37277	0.26472	0.29172	0.12657	0.14848	0.15522	-1.8937	-2.7458	-2.1292	-2.5896	-2.575	-2.2438	-2.6208	-2.5042	-2.1979	-2.7125	-2.4292	-2.4521	-2.55	-2.2625	-2.6625	-2.5187	487.677	314.396	332.329	390.436	302.786	326.322	375.190	489.928	273.059	389.286	478.938	468.775	147.956	375.268	232.028	453.009	0.00052566	0.00024507	6.736e-05	737.55	3.0309e-06	3.8193e-06	772.38	203.1	4.2172e-06	2.4147e-06	243.74	64.283	47.176	11.154	2.3275e-06	19.246	0.00012625	0.00011391	3.1214e-05	730.02	1.3016e-06	1.2726e-06	764.03	199.9	1.3396e-06	1.2953e-06	239.48	63.834	46.576	11.217	1.3659e-06	19.311	477.381	233.668	256.022	152.335	264.608	276.484	151.756	156.968	266.725	249.110	155.651	160.112	161.446	166.609	288.260	165.082	-8191	255	
8818.982	1	1	0	0	0.21905	0.080415	0.054629	0.12681	0.39345	0.057307	0.21551	0.34286	0.18678	0.1091	0.086944	0.23841	0.17217	0.13923	0.10385	0.089418	-1.8104	-2.4833	-2.3187	-2.4583	-2.7125	-2.3604	-2.6125	-2.7146	-2.1646	-2.8083	-2.6979	-2.5521	-2.5958	-2.3417	-2.3958	-2.4917	474.828	445.077	479.388	477.366	345.035	253.445	486.074	424.030	489.983	149.497	371.979	439.403	201.268	210.865	212.855	235.206	0.00053672	0.00021225	9.0831e-06	741.59	2.4559e-06	2.0769e-06	773.09	201.45	5.1606e-06	1.3167e-06	243.52	64.852	46.941	11.179	4.1659e-06	19.202	0.00013187	0.00012386	3.3592e-05	733.54	1.3146e-06	1.2902e-06	766.04	200.34	1.344e-06	1.3251e-06	239.72	63.818	46.517	11.227	1.2934e-06	19.174	476.984	199.593	496.819	152.539	224.161	303.414	151.677	156.838	248.134	257.979	155.456	160.095	161.521	166.979	286.001	165.232	-8191	255	
8819.101	1	1	0	0	0.14659	0.22486	0.16228	0.13246	0.077421	0.083812	0.23657	0.093352	0.16057	0.12443	0.15345	0.24895	0.11605	0.13904	0.20748	0.2041	-1.7687	-2.8042	-2.3333	-2.4125	-2.65	-2.3833	-2.7604	-2.6667	-2.2104	-2.6917	-2.4354	-2.3083	-2.6229	-2.1896	-2.4271	-2.7792	408.842	467.452	412.325	161.545	459.291	355.941	204.121	334.433	301.511	373.507	407.378	167.162	393.161	387.208	396.511	175.460	0.00052483	0.00012049	4.13e-05	739.8	2.5109e-06	2.3039e-06	776.22	202.21	3.1738e-06	1.7997e-06	242.04	64.769	46.486	11.057	3.2919e-06	19.236	0.00012856	0.0001169	3.2202e-05	731.01	1.2896e-06	1.2375e-06	766.67	199.92	1.2661e-06	1.2696e-06	238.68	63.705	46.132	11.139	1.2637e-06	19.193	486.574	189.989	243.863	152.417	181.120	377.002	151.636	156.974	262.324	265.860	155.585	160.397	160.957	166.189	269.100	164.451	-8191	255	
8819.197	1	1	0	0	0.14212	0.089845	0.37929	0.126	0.11075	0.16321	0.17128	0.26178	0.12467	0.21299	0.30515	0.12988	0.14235	0.082982	0.15069	0.26465	-1.8604	-2.4729	-2.375	-2.1583	-2.525	-2.3375	-2.5563	-2.7854	-2.2104	-2.6958	-2.6479	-2.1708	-2.6042	-2.3771	-2.3833	-2.7083	423.933	216.338	222.863	490.168	488.830	241.222	397.350	363.346	258.311	301.687	368.215	190.776	445.747	392.883	142.436	346.610	0.000407	0.00017891	1.4993e-05	740.43	2.1908e-06	2.3808e-06	775.31	202.56	3.8455e-06	1.817e-06	242.08	64.918	47.447	11.161	2.7694e-06	19.312	0.00012314	0.0001129	3.1e-05	733.95	1.2158e-06	1.2227e-06	769.88	199.79	1.2169e-06	1.2041e-06	239.01	64.029	46.629	11.212	1.2403e-06	19.335	488.258	218.820	220.377	152.256	256.715	256.800	151.627	156.674	299.978	230.143	155.699	160.165	161.489	166.830	236.985	164.893	-8191	255	
8819.293	1	1	0	0	0.14256	0.19284	0.04593	0.14839	0.15679	0.18601	0.2394	0.12535	0.25571	0.07875	0.19814	0.11028	0.05097	0.17338	0.1728	0.17311	-1.8521	-2.3625	-2.55	-2.175	-2.7417	-2.4146	-2.375	-2.7354	-2.3417	-2.6417	-2.5667	-2.1896	-2.6208	-2.3312	-2.3104	-2.6729	260.240	460.538	262.655	482.283	262.191	387.756	237.144	156.306	199.353	147.104	315.383	461.057	321.302	310.389	490.878	308.071	0.00042878	0.00023021	4.8967e-05	737.07	3.2278e-06	3.1365e-06	774.9	202.23	3.2889e-06	4.1713e-06	241.09	64.796	47.037	11.153	1.0783e-06	19.389	0.00012074	0.00011077	3.0753e-05	730.52	1.2302e-06	1.1977e-06	765.26	199.46	1.2294e-06	1.256e-06	238.17	63.855	46.595	11.236	1.2674e-06	19.4	485.381	232.878	144.038	152.385	263.431	281.576	151.745	156.904	317.239	243.969	155.660	160.121	161.347	167.015	203.985	164.577	-8191	255	
8819.389	1	1	0	0	0.39039	0.062108	0.17926	0.11154	0.23974	0.33662	0.1814	0.23461	0.11996	0.088307	0.04972	0.20112	0.22207	0.20013	0.14078	0.091346	-1.9	-2.4188	-2.5354	-2.2208	-2.5229	-2.5292	-2.3479	-2.65	-2.2896	-2.5271	-2.6458	-2.225	-2.6813	-2.6271	-2.5563	-2.9188	393.061	283.025	342.893	498.546	238.248	160.529	416.733	492.116	236.997	493.362	448.631	404.368	481.973	189.644	170.000	475.755	0.00055162	0.00042503	7.2467e-05	740.47	2.8523e-06	2.2831e-06	772.73	202.11	1.7158e-06	3.1348e-06	242.14	65.466	47.658	11.237	3.2363e-06	19.516	0.00012654	0.00011482	3.1579e-05	733.35	1.298e-06	1.2526e-06	765.68	200.04	1.2696e-06	1.3069e-06	239.05	64.419	46.903	11.33	1.2725e-06	19.678	476.105	226.064	194.324	152.688	244.352	270.547	151.451	156.801	391.716	227.142	155.733	160.296	161.606	166.536	222.524	164.612	-8191	255	
8819.510	1	1	0	0	0.13529	0.2311	0.048126	0.33764	0.2698	0.068983	0.040345	0.077195	0.25307	0.37844	0.19727	0.19461	0.10965	0.1901	0.15613	0.14875	-1.8542	-2.3563	-2.6083	-2.1792	-2.7125	-2.6562	-2.4	-2.7271	-2.3354	-2.4167	-2.7896	-2.2687	-2.6937	-2.4958	-2.2875	-2.8292	460.276	474.233	483.220	450.956	472.375	496.084	203.430	472.842	417.277	364.094	385.334	145.561	473.060	316.196	173.045	181.098	0.00053705	0.00019648	2.4904e-05	740.41	7.8059e-07	3.1571e-06	780.72	204.08	4.5607e-06	2.1486e-06	244.89	66.327	47.98	11.516	2.2982e-06	20.109	0.00012787	0.00011602	3.2225e-05	735.67	1.3336e-06	1.2787e-06	770.78	200.75	1.3135e-06	1.3224e-06	241.96	65.559	47.588	11.628	1.3379e-06	20.145	480.626	241.659	267.297	152.606	204.168	280.237	151.465	156.865	248.993	319.609	155.603	160.153	161.119	166.147	270.612	165.022	-8191	255	
8819.581	1	1	0	0	0.058687	0.087217	0.14892	0.24213	0.21258	0.38413	0.09344	0.32942	0.13475	0.063426	0.32093	0.13833	0.12715	0.20516	0.14909	0.32379	-1.9667	-2.4896	-2.7292	-2.4062	-2.5417	-2.6104	-2.2917	-2.7708	-2.3563	-2.5917	-2.8875	-2.5312	-2.525	-2.65	-2.1354	-2.5083	361.078	397.384	455.083	440.008	319.690	381.034	442.022	385.899	166.740	192.301	367.451	359.073	245.954	275.671	203.270	288.349	0.00048344	0.0003348	9.2055e-05	749.46	3.3108e-06	2.6043e-06	777.95	204.42	1.6993e-06	3.9871e-06	244.88	66.664	48.022	11.601	2.6906e-06	19.941	0.00013257	0.00012323	3.3629e-05	739.41	1.3769e-06	1.3115e-06	770.44	201.84	1.3635e-06	1.3662e-06	241.14	65.45	47.611	11.604	1.3353e-06	20.009	485.895	197.581	217.000	152.410	285.715	266.358	151.705	156.418	293.143	286.890	155.786	160.378	161.364	166.314	222.228	164.888	-8191	255	
8819.677	1	1	0	0	0.22656	0.22339	0.059319	0.1991	0.31295	0.12199	0.067866	0.10964	0.15972	0.20259	0.11522	0.25275	0.029496	0.13092	0.12936	0.11464	-2.1312	-2.3042	-2.7417	-2.4833	-2.4479	-2.5042	-2.4188	-2.5375	-2.5646	-2.225	-2.8312	-2.3979	-2.5042	-2.5833	-2.25	-2.6271	379.949	425.574	432.855	462.673	318.010	302.585	450.163	437.822	259.073	187.176	483.407	446.561	292.299	387.278	312.746	397.963	0.00054321	0.00033631	8.8248e-05	741.95	3.4415e-06	1.8354e-06	773.97	203.19	3.2078e-06	3.1499e-06	242.98	65.274	48.257	11.489	1.1539e-06	19.937	0.00013314	0.00012654	3.4292e-05	734.76	1.3831e-06	1.3507e-06	767.65	201.24	1.3489e-06	1.3436e-06	239.61	64.893	47.548	11.563	1.3047e-06	19.871	491.707	245.428	169.689	152.284	250.928	263.989	151.689	156.790	243.600	264.257	155.785	160.208	161.143	166.272	241.612	165.063	-8191	255	
8819.774	1	1	0	0	0.16521	0.095794	0.24844	0.29078	0.2108	0.1289	0.14092	0.24709	0.18044	0.26955	0.10772	0.35502	0.21278	0.037879	0.17793	0.011138	-2.1063	-2.2146	-2.8083	-2.4167	-2.3021	-2.6937	-2.4396	-2.625	-2.4688	-2.2833	-2.5563	-2.3667	-2.4667	-2.625	-2.2521	-2.6542	452.820	424.456	314.009	432.501	295.790	416.606	192.817	184.833	337.591	467.156	337.779	481.124	447.278	468.648	198.363	469.664	0.00047566	0.00028188	5.886e-05	742.17	2.4047e-06	2.6868e-06	774.77	202.7	4.268e-06	1.3826e-06	243.45	65.865	48.014	11.51	3.6899e-06	19.852	0.00012963	0.00011906	3.3699e-05	734.08	1.3104e-06	1.2856e-06	767.31	200.86	1.3288e-06	1.2933e-06	240.07	65.103	47.43	11.559	1.3212e-06	19.918	472.380	197.790	212.474	152.305	246.238	202.247	151.820	156.770	268.610	277.885	155.813	160.144	161.581	166.621	281.434	164.726	-8191	255	
8819.894	1	1	0	0	0.080875	0.1492	0.20295	0.1878	0.18149	0.14025	0.27719	0.084482	0.31711	0.062139	0.28136	0.16981	0.069892	0.34092	0.083103	0.016853	-2.1937	-2.1562	-2.6646	-2.3646	-2.3083	-2.6813	-2.4208	-2.5833	-2.525	-1.9438	-2.5771	-2.4604	-2.2313	-2.7333	-2.3083	-2.3521	286.777	394.181	392.572	373.609	479.120	210.741	141.730	488.060	147.856	172.066	406.961	398.024	303.829	245.587	401.445	473.251	0.00049523	0.00017712	8.3621e-05	744.26	3.3007e-06	1.1256e-06	778.83	204.23	4.8966e-06	3.8787e-06	244.32	66.859	48.584	11.633	7.7022e-07	20.121	0.00012862	0.00011844	3.3229e-05	736.42	1.3429e-06	1.2851e-06	771.18	202	1.3496e-06	1.3138e-06	241.55	65.695	47.923	11.706	1.3739e-06	20.119	479.880	469.726	238.460	152.355	265.488	398.576	151.461	156.811	251.439	227.285	155.783	160.043	161.034	166.335	257.897	164.702	-8191	255	
8819.989	1	1	0	0	0.27124	0.18595	0.1532	0.10587	0.045854	0.22982	0.23034	0.25481	0.061474	0.094791	0.19284	0.075887	0.38594	0.10704	0.061894	0.035655	-2.1021	-2.15	-2.7229	-2.7104	-2.3063	-2.7354	-2.45	-2.5875	-2.7896	-2.2188	-2.5229	-2.4688	-2.2708	-2.5521	-2.3521	-2.4208	153.151	439.521	301.440	385.992	193.490	179.279	449.400	394.097	221.191	145.854	207.959	397.886	412.285	462.569	217.311	445.139	0.00064618	9.2117e-05	9.8618e-05	747.69	2.3516e-06	2.2793e-06	780.3	204.49	1.3641e-06	4.9083e-06	241.26	66.911	48.791	11.638	3.4139e-06	19.87	0.00013818	0.0001241	3.5833e-05	741.59	1.4181e-06	1.3928e-06	771.85	202.79	1.4328e-06	1.3931e-06	239.93	65.937	48.397	11.788	1.4204e-06	20.037	476.671	177.889	236.929	152.190	253.133	254.235	151.616	156.677	306.283	297.352	156.019	159.937	161.051	166.418	287.664	165.001	-8191	255	
8820.087	1	1	0	0	0.23494	0.18241	0.15465	0.22988	0.077192	0.086306	0.10752	0.13484	0.1396	0.18105	0.18067	0.09737	0.06811	0.1015	0.15212	0.16592	-2.2438	-2.3104	-2.4771	-2.7667	-2.0167	-2.8771	-2.5125	-2.4458	-2.6229	-2.3	-2.45	-2.7333	-2.1063	-2.6813	-2.5917	-2.3917	326.164	418.521	302.768	438.647	374.312	471.908	492.624	174.675	166.979	416.458	369.393	435.618	182.500	436.166	138.964	323.330	0.00057757	0.00015168	6.1384e-05	738.69	4.1445e-06	1.4556e-06	772.08	204.3	4.3626e-06	8.6315e-07	242.64	65.986	47.998	11.611	2.4907e-06	19.844	0.00014033	0.00012719	3.5669e-05	736.1	1.4128e-06	1.4095e-06	765.08	201.89	1.42e-06	1.3907e-06	239.66	65.345	47.813	11.739	1.387e-06	19.95	488.205	198.106	255.794	152.223	245.611	373.068	151.676	156.652	323.897	258.898	155.830	159.431	161.300	166.582	254.679	164.793	-8191	255	
8820.205	1	1	0	0	0.25322	0.17204	0.25258	0.14478	0.050956	0.2232	0.16323	0.24831	0.13504	0.091739	0.15881	0.14119	0.36262	0.14161	0.12178	0.071773	-2.3271	-2.2271	-2.4792	-2.7125	-2.1729	-2.6729	-2.5104	-2.2208	-2.6771	-2.3292	-2.3937	-2.7167	-2.3229	-2.5312	-2.6188	-2.3896	414.123	426.471	194.829	378.629	184.569	379.438	424.545	376.853	264.622	387.930	461.159	396.632	434.288	323.946	145.761	402.250	0.00051585	0.00026237	5.2243e-05	747.39	8.1803e-07	3.1122e-06	776.33	205.27	4.8128e-06	7.4755e-07	243.12	66.525	48.989	11.723	3.95e-06	19.949	0.00014254	0.00012862	3.608e-05	738.2	1.4517e-06	1.455e-06	768.83	202.6	1.4658e-06	1.4553e-06	240.46	65.765	48.569	11.835	1.5452e-06	20.065	477.603	196.721	256.229	152.427	267.533	328.030	151.559	156.814	243.424	367.633	155.740	160.173	161.196	166.991	283.919	164.990	-8191	255	
8820.277	1	1	0	0	0.048559	0.13564	0.25594	0.13033	0.23964	0.27526	0.14132	0.10774	0.13051	0.07437	0.13835	0.17416	0.26929	0.22679	0.080196	0.27741	-2.2521	-2.275	-2.2708	-2.5792	-2.2562	-2.6708	-2.5104	-2.3125	-2.5417	-2.3604	-2.4271	-2.6792	-2.275	-2.5542	-2.5583	-2.0458	189.051	338.621	215.497	185.448	231.322	369.311	408.955	419.362	401.495	167.886	434.718	332.335	425.006	482.668	255.376	443.799	0.00051566	0.00031149	5.275e-05	750.56	7.784e-07	9.8373e-07	779.97	206.53	4.1056e-06	3.6063e-06	243.25	67.388	49.485	11.758	2.4201e-06	19.982	0.00015036	0.00014038	3.9154e-05	742.93	1.5622e-06	1.5503e-06	771.39	204.28	1.561e-06	1.5202e-06	241.44	66.432	48.683	11.846	1.4801e-06	19.995	480.573	267.308	253.257	152.586	255.281	401.278	151.821	156.798	251.133	344.423	155.592	160.316	161.197	165.966	250.367	164.820	-8191	255	
8820.373	1	1	0	0	0.11144	0.17803	0.21214	0.44328	0.017021	0.099612	0.31939	0.26145	0.14069	0.10915	0.28413	0.16539	0.37801	0.28423	0.13885	0.17708	-2.2062	-2.4	-2.2458	-2.7792	-1.9896	-2.6479	-2.7333	-2.2458	-2.6937	-2.6479	-2.4562	-2.8167	-2.3104	-2.3667	-2.5875	-2.2604	324.284	220.623	223.709	434.506	217.026	471.858	463.175	357.567	393.522	458.900	481.782	200.744	399.026	416.632	347.872	367.300	0.00051955	0.000349	1.378e-05	746.37	1.7206e-06	1.1345e-06	773.99	203.47	1.0488e-06	3.4554e-06	240.43	65.675	48.779	11.451	2.8834e-06	19.637	0.00014493	0.00013386	3.5746e-05	737.73	1.473e-06	1.4558e-06	764.94	201.97	1.4893e-06	1.3986e-06	237.29	64.767	47.857	11.598	1.3777e-06	19.592	481.119	223.654	299.422	152.021	300.189	264.944	151.674	157.080	258.604	254.129	155.670	160.173	161.092	165.749	234.678	164.693	-8191	255	
8820.494	1	1	0	0	0.23273	0.13025	0.34988	0.26934	0.11658	0.095376	0.020073	0.16299	0.15751	0.19826	0.23933	0.11043	0.26869	0.059593	0.13209	0.15246	-2.0271	-2.425	-1.9458	-2.7042	-2.3438	-2.4125	-2.8146	-2.2625	-2.4	-2.5083	-2.1292	-2.7833	-2.3396	-2.1708	-2.6083	-2.275	372.005	213.118	386.864	461.937	225.531	273.293	271.211	469.392	411.818	429.130	352.296	353.317	416.441	348.633	243.893	159.007	0.00057348	0.00035237	3.5221e-05	736.79	1.9362e-06	3.0721e-06	765.91	202.78	4.2091e-06	2.1737e-06	240.91	65.104	48.027	11.456	2.3556e-06	19.494	0.00013637	0.00012579	3.3524e-05	731.45	1.3654e-06	1.3591e-06	757.71	200.76	1.3786e-06	1.3137e-06	236.8	64.218	47.436	11.491	1.3302e-06	19.453	481.945	203.684	274.678	152.426	308.567	230.018	151.712	156.647	272.895	252.049	155.733	160.270	161.563	166.803	308.233	164.758	-8191	255	
8820.590	1	1	0	0	0.21543	0.17417	0.24847	0.12679	0.29571	0.058191	0.037979	0.20508	0.15834	0.25538	0.21266	0.14766	0.039707	0.1846	0.16227	0.065853	-2.1229	-2.4917	-2.1813	-2.8604	-2.3896	-2.0458	-2.7188	-2.3417	-2.5	-2.4042	-2.1646	-2.6833	-2.4021	-2.1917	-2.7583	-2.2646	491.789	406.697	292.158	480.608	484.497	399.861	262.933	471.656	458.941	465.717	455.362	319.358	274.572	309.380	208.054	378.742	0.00049634	0.00030409	8.9662e-05	741.96	3.7329e-06	1.0977e-06	767.95	203.59	2.7954e-06	1.9506e-06	238.95	65.099	47.933	11.404	4.6699e-06	19.617	0.00013239	0.00011932	3.3096e-05	733.6	1.363e-06	1.3206e-06	764.08	200.87	1.3577e-06	1.313e-06	237.06	64.691	47.407	11.532	1.3462e-06	19.578	477.535	239.750	222.412	152.316	232.619	148.830	151.507	156.665	215.011	255.191	155.809	159.905	161.563	166.385	249.586	164.856	-8191	255	
8820.686	1	1	0	0	0.22228	0.22087	0.13266	0.11665	0.062304	0.30917	0.13421	0.1882	0.27687	0.2326	0.099097	0.16269	0.14169	0.21809	0.2141	0.19411	-1.9792	-2.5542	-2.1708	-2.6125	-2.6063	-2.1792	-2.6646	-2.3708	-2.4354	-2.5021	-2.2062	-2.6208	-2.3875	-2.2812	-2.8542	-2.4083	169.512	316.424	477.902	484.787	391.490	313.249	472.638	196.876	295.862	356.331	344.985	461.962	394.889	480.636	377.685	278.004	0.00046541	6.2401e-05	8.8894e-05	743.12	2.7753e-06	5.9135e-07	773.8	203.14	1.7988e-06	3.7876e-06	240.56	65.861	48.259	11.402	1.2523e-06	19.524	0.00013325	0.00012317	3.325e-05	734.06	1.3565e-06	1.3258e-06	766.7	201	1.3836e-06	1.3656e-06	238.4	64.701	47.657	11.579	1.3595e-06	19.574	475.502	383.691	213.771	152.590	295.612	284.385	151.727	156.671	247.707	261.926	155.662	159.954	161.288	166.262	315.795	164.578	-8191	255	
8820.782	1	1	0	0	0.16581	0.18399	0.21616	0.25615	0.31231	0.13789	0.088986	0.24799	0.20405	0.15139	0.18417	0.10323	0.17632	0.11033	0.1824	0.27585	-1.9438	-2.5479	-2.2833	-2.55	-2.3833	-2.3208	-2.9542	-2.6292	-2.3396	-2.725	-2.3417	-2.7479	-2.7125	-2.1271	-2.7792	-2.6333	157.879	218.466	229.264	349.307	497.944	206.039	397.049	145.466	365.039	345.570	163.526	147.188	396.833	390.876	393.335	479.599	0.00046862	0.00049722	4.9589e-05	739.73	1.9378e-06	2.1617e-06	770.13	203.31	3.2864e-06	2.7816e-06	238.67	64.933	48.073	11.411	4.1709e-06	19.238	0.00013297	0.00012129	3.3088e-05	734.28	1.3311e-06	1.3496e-06	761.87	200.81	1.4117e-06	1.3422e-06	236.38	64.201	47.434	11.519	1.3761e-06	19.362	478.614	183.116	265.081	152.492	336.725	282.618	151.699	156.981	262.219	235.142	155.299	160.013	161.705	166.476	240.338	164.673	-8191	255	
8820.878	1	1	0	0	0.1363	0.042015	0.24291	0.046346	0.18322	0.15797	0.29431	0.090681	0.16284	0.18075	0.10166	0.015163	0.13918	0.17596	0.2886	0.13723	-1.9	-2.6562	-2.1813	-2.4875	-2.6271	-2.1292	-2.7667	-2.5125	-2.2604	-2.6854	-2.2667	-2.5729	-2.6354	-2.1604	-2.4917	-2.5146	375.018	488.004	420.872	140.773	153.422	204.687	410.490	265.329	445.181	212.204	229.036	402.643	447.460	226.977	296.262	251.277	0.0004549	0.00026405	8.1897e-05	738.13	2.1116e-06	3.6359e-06	771.07	202.8	3.5068e-06	1.7747e-06	239.23	64.927	48.172	11.428	3.0498e-06	19.439	0.00013268	0.00012292	3.3897e-05	731.06	1.3689e-06	1.339e-06	762	200.7	1.4072e-06	1.3381e-06	236.49	64.248	47.452	11.539	1.3822e-06	19.477	487.610	178.674	239.118	152.545	261.128	295.216	151.666	156.615	233.695	281.524	155.859	159.799	160.937	167.066	225.206	165.030	-8191	255	
8820.975	1	1	0	0	0.19105	0.19966	0.2474	0.16108	0.12338	0.16199	0.20501	0.16292	0.074486	0.28333	0.21322	0.11066	0.13941	0.24904	0.1984	0.2268	-1.85	-2.5438	-2.1	-2.2812	-2.7417	-2.2479	-2.5792	-2.4792	-2.2229	-2.6042	-2.2979	-2.4125	-2.6875	-2.1729	-2.5833	-2.5812	371.460	342.730	350.749	483.895	151.766	356.370	411.214	450.425	364.806	277.645	210.204	142.545	378.864	479.443	372.916	445.041	0.00044404	0.00040938	7.8371e-05	738.79	3.1019e-06	3.4329e-06	772.45	202.75	2.9373e-06	2.8297e-06	238.42	65.124	47.812	11.354	2.1296e-06	19.359	0.00013514	0.00012332	3.408e-05	731.57	1.3809e-06	1.3684e-06	763.55	200.59	1.3716e-06	1.3425e-06	237.13	64.205	47.186	11.429	1.3664e-06	19.387	479.507	180.394	220.846	152.085	269.310	315.879	151.705	156.578	248.648	274.611	155.631	159.994	161.035	166.667	162.050	164.983	-8191	255	
8821.071	1	1	0	0	0.086932	0.12658	0.043669	0.11955	0.09491	0.24413	0.23892	0.12635	0.25419	0.080341	0.085685	0.12763	0.23991	0.11216	0.21731	0.063216	-1.5729	-2.5646	-2.3625	-2.4479	-2.6875	-2.3271	-2.5875	-2.6729	-2.1896	-2.5479	-2.5208	-2.5042	-2.7229	-2.2729	-2.5479	-2.7812	179.921	227.688	366.148	410.592	357.233	319.777	370.339	468.897	276.132	411.097	161.289	280.035	210.900	415.099	491.387	419.476	0.00048895	0.00012827	2.9199e-05	741.49	2.0105e-06	3.3074e-06	772.91	202.4	5.637e-06	3.5717e-06	238.9	64.708	47.732	11.363	3.0206e-06	19.275	0.00013425	0.00012553	3.3844e-05	732.98	1.3789e-06	1.3062e-06	765.41	200.95	1.3735e-06	1.3504e-06	236.79	64.07	47.215	11.416	1.3696e-06	19.316	474.660	365.097	213.601	152.243	286.758	283.165	151.664	156.861	265.424	270.304	155.304	160.022	161.722	166.528	285.811	164.669	-8191	255	
8821.167	1	1	0	0	0.27658	0.23088	0.25765	0.46192	0.13606	0.20397	0.12472	0.23141	0.045385	0.30948	0.17001	0.37473	0.26689	0.22725	0.33569	0.16282	-1.8646	-2.7188	-2.4188	-2.2771	-2.5062	-2.3792	-2.5708	-2.6271	-2.0083	-2.6188	-2.3708	-2.1354	-2.6813	-2.0354	-2.1917	-2.7479	460.958	468.484	474.044	386.847	336.133	443.526	405.850	460.004	494.615	406.703	154.052	473.313	438.780	431.968	380.955	388.543	0.00046626	0.00019836	5.8578e-05	740.61	3.7081e-06	2.0196e-06	766.12	202.73	4.5968e-06	3.5142e-06	238.75	64.603	47.608	11.358	2.1715e-06	19.053	0.00013554	0.00012346	3.4145e-05	733.04	1.3582e-06	1.2989e-06	758.15	199.99	1.3862e-06	1.3608e-06	235.87	63.779	47.179	11.45	1.3685e-06	19.262	480.431	207.972	236.639	152.510	242.175	257.381	151.524	156.822	272.602	280.016	155.725	159.860	161.072	165.981	294.704	165.004	-8191	255	
8821.286	1	1	0	0	0.26323	0.040977	0.064764	0.28616	0.15776	0.028751	0.08921	0.28808	0.23225	0.19535	0.093752	0.33485	0.18584	0.13323	0.13309	0.063236	-1.6521	-2.4458	-2.4354	-2.5438	-2.7604	-2.5708	-2.4479	-2.8438	-2.2708	-2.5271	-2.3917	-2.1021	-2.6229	-2.225	-2.4938	-2.8042	459.509	350.256	376.747	469.869	207.227	298.147	463.323	439.997	322.164	322.079	189.057	479.292	149.213	274.341	293.593	281.793	0.00046875	0.00020613	2.2201e-05	738.08	5.2927e-07	3.9785e-07	767.96	201.75	1.3445e-06	1.8693e-06	240.18	64.969	47.825	11.542	2.7838e-06	19.345	0.00013215	0.00012427	3.4288e-05	730.01	1.3736e-06	1.338e-06	760.33	200.37	1.3684e-06	1.3375e-06	236.82	64.199	47.42	11.516	1.3837e-06	19.406	470.432	175.766	206.560	152.389	260.052	486.529	151.731	156.644	293.302	331.613	155.642	160.240	161.005	166.156	311.094	165.260	-8191	255	
8821.382	1	1	0	0	0.10304	0.32747	0.40552	0.31917	0.23898	0.023829	0.28651	0.18679	0.14001	0.14276	0.10678	0.11771	0.19512	0.1112	0.12822	0.088561	-1.6375	-2.5687	-2.5583	-2.2917	-2.5312	-2.4208	-2.3021	-2.8021	-2.2542	-2.4313	-2.6562	-2.2125	-2.7021	-2.4917	-2.3125	-2.9125	424.572	335.443	185.022	448.029	170.522	437.963	426.793	392.497	271.452	491.525	335.120	174.125	141.329	360.936	194.872	388.926	0.00054137	0.00024826	0.00011552	740.52	1.5729e-06	2.9388e-06	771.24	203.55	3.0576e-06	2.0521e-06	241.85	65.464	47.934	11.481	1.4886e-06	19.389	0.00013624	0.00012588	3.3845e-05	733.4	1.3957e-06	1.3549e-06	763.86	201.04	1.3938e-06	1.3907e-06	238.96	64.69	47.479	11.523	1.3728e-06	19.455	482.013	177.989	215.915	152.230	306.457	313.248	151.507	156.670	229.390	223.194	155.925	160.432	161.144	166.288	313.329	164.697	-8191	255	
8821.454	1	1	0	0	0.055689	0.076666	0.10874	0.15889	0.26922	0.05443	0.10851	0.12685	0.060858	0.052239	0.28139	0.18389	0.19821	0.095755	0.32905	0.22869	-1.9417	-2.4313	-2.3854	-2.3375	-2.4875	-2.5312	-2.3375	-2.9208	-2.4562	-2.4833	-2.8708	-2.2292	-2.6083	-2.3979	-2.2021	-2.7958	202.946	277.019	487.813	484.425	415.787	141.906	180.549	497.452	220.103	419.080	454.331	486.441	423.061	458.049	345.944	390.866	0.00057832	8.2339e-05	9.7344e-05	739.14	2.3678e-06	3.0371e-06	772.29	203.33	3.9396e-06	2.1832e-06	239.21	64.732	48.247	11.5	2.4819e-06	19.401	0.0001354	0.00012731	3.3967e-05	733.53	1.3745e-06	1.3463e-06	764.46	200.89	1.3714e-06	1.3733e-06	236.86	63.973	47.499	11.456	1.3594e-06	19.263	487.235	260.312	256.843	152.437	273.521	279.521	151.784	156.940	264.317	248.563	155.599	160.296	161.177	165.906	273.641	164.900	-8191	255	
8821.574	1	1	0	0	0.32823	0.32466	0.13311	0.24744	0.046746	0.078335	0.35728	0.13006	0.071598	0.10597	0.080011	0.11798	0.10043	0.19367	0.18973	0.25609	-1.9229	-2.3375	-2.5875	-2.2833	-2.575	-2.55	-2.3146	-2.8396	-2.3896	-2.3042	-2.7333	-2.2896	-2.5062	-2.7667	-2.2104	-2.6896	183.319	211.501	170.020	234.530	427.586	193.958	394.933	471.877	452.831	230.969	225.399	144.948	408.147	428.607	432.215	397.345	0.00047978	9.7056e-05	8.2001e-05	737.43	2.6971e-06	2.9795e-06	766.78	201.81	3.8459e-06	3.5851e-06	237.87	64.396	47.459	11.278	1.2116e-06	19.181	0.00012785	0.00012434	3.3278e-05	729.44	1.3473e-06	1.309e-06	757.63	199.39	1.3538e-06	1.3325e-06	235.48	63.374	46.991	11.369	1.3044e-06	19.194	485.798	245.145	212.464	152.384	270.514	270.056	151.357	156.599	248.572	286.408	155.605	160.239	161.176	166.820	351.764	164.735	-8191	255	
8821.670	1	1	0	0	0.13493	0.059222	0.19311	0.3039	0.19402	0.10874	0.099783	0.18582	0.10704	0.079682	0.075534	0.16193	0.26093	0.1688	0.20195	0.27529	-1.9937	-2.1688	-2.6688	-2.3458	-2.5854	-2.7313	-2.2938	-2.5917	-2.5083	-2.3083	-2.7062	-2.3896	-2.2646	-2.6188	-2.0833	-2.6354	210.501	325.883	354.997	264.413	429.111	230.991	182.530	152.430	341.310	147.418	432.899	213.101	368.239	453.782	465.911	406.043	0.00050391	0.00046084	5.6545e-06	736.98	2.9356e-06	3.5375e-06	769.1	202.53	2.5751e-06	1.9594e-06	237.93	64.456	47.891	11.304	3.1255e-06	19.218	0.0001245	0.00011864	3.2027e-05	729.32	1.3212e-06	1.2883e-06	759.96	200.21	1.31e-06	1.3074e-06	236.03	63.709	47.192	11.356	1.2731e-06	19.193	481.289	206.072	279.596	152.442	226.856	260.584	151.582	156.980	289.636	244.640	155.260	160.349	160.868	166.178	259.142	164.968	-8191	255	
8821.767	1	1	0	0	0.39512	0.14051	0.16486	0.34759	0.20083	0.12595	0.21787	0.034189	0.22749	0.2042	0.064828	0.059216	0.1868	0.3743	0.10107	0.047713	-2.025	-2.1417	-2.7792	-2.4521	-2.3083	-2.7333	-2.2917	-2.7042	-2.475	-2.1271	-2.6875	-2.4333	-2.2604	-2.8208	-2.1542	-2.5042	349.083	198.534	227.388	445.054	176.800	161.347	307.152	211.773	258.930	152.756	331.288	194.005	466.064	433.449	357.170	420.275	0.00049068	0.00044505	3.5916e-05	735.39	2.6867e-06	2.5312e-06	770.9	201.74	4.2794e-06	3.7345e-06	238.65	63.774	47.295	11.166	1.8586e-06	19.128	0.00012926	0.00011619	3.2857e-05	729.58	1.3079e-06	1.2799e-06	761.69	200.26	1.3128e-06	1.2661e-06	236.7	63.309	46.689	11.229	1.2918e-06	19.015	483.938	238.760	255.423	152.136	271.019	317.633	151.707	156.694	276.339	280.081	155.489	160.182	160.981	166.237	287.223	165.067	-8191	255	
8821.887	1	1	0	0	0.11975	0.13688	0.072692	0.2806	0.24616	0.2587	0.080193	0.15463	0.11548	0.14153	0.19111	0.30709	0.090663	0.10381	0.15078	0.1338	-2.1	-2.1	-2.7958	-2.4313	-2.3042	-2.7	-2.4042	-2.4583	-2.3	-2.2229	-2.6937	-2.3812	-2.3312	-2.6979	-2.2188	-2.4292	365.477	485.286	375.600	440.933	290.669	428.962	494.073	438.756	308.368	372.795	446.212	143.555	171.822	461.443	142.375	462.707	0.00054841	0.0002556	8.1126e-05	730.58	3.5733e-06	2.9815e-06	769.07	201.7	1.8278e-06	1.1249e-06	237.96	63.481	46.725	11.065	1.8416e-06	18.702	0.00012646	0.00011335	3.2521e-05	726.38	1.294e-06	1.267e-06	761.19	199.11	1.2756e-06	1.2339e-06	235.2	62.53	46.124	11.09	1.2364e-06	18.683	477.806	241.613	283.506	152.497	284.811	272.100	151.807	156.990	281.874	289.616	155.684	159.984	160.854	166.307	246.899	165.101	-8191	255	
8821.982	1	1	0	0	0.24214	0.11489	0.35994	0.30877	0.043427	0.16928	0.20055	0.21925	0.20401	0.2247	0.28254	0.2605	0.30715	0.28051	0.30901	0.12769	-2.3771	-2.2375	-2.3458	-2.5125	-2.1271	-2.7229	-2.475	-2.3583	-2.6813	-2.3688	-2.5854	-2.6104	-2.2542	-2.6458	-2.4104	-2.4417	484.787	407.505	154.140	400.274	234.379	238.655	465.179	287.579	474.412	401.951	208.624	453.409	200.260	344.713	221.352	483.541	0.00054929	0.00044253	9.4612e-05	728.94	1.9537e-06	3.0646e-06	762.53	199.91	3.4907e-06	6.2922e-07	234.7	62.877	46.615	10.857	1.2841e-06	18.475	0.00012315	0.00011254	3.0949e-05	722.48	1.236e-06	1.2021e-06	752.66	197.99	1.2515e-06	1.1799e-06	233.42	62.085	45.914	10.917	1.1962e-06	18.501	479.531	191.157	204.381	152.211	213.783	303.582	151.858	156.712	278.907	313.396	155.595	160.730	161.022	166.219	313.942	164.683	-8191	255	
8822.078	1	1	0	0	0.11131	0.080541	0.23029	0.10019	0.35382	0.24789	0.39179	0.43152	0.37765	0.16087	0.086595	0.16476	0.087088	0.13558	0.084657	0.21179	-2.2667	-2.1729	-2.4729	-2.6	-2.1125	-2.7146	-2.4667	-2.2604	-2.7375	-2.2021	-2.5938	-2.7062	-2.1854	-2.7042	-2.4333	-2.3854	331.497	205.482	442.260	332.913	299.959	269.813	421.305	434.142	171.514	444.488	340.782	443.894	327.183	163.784	259.835	260.141	0.00053818	0.00030445	6.9022e-05	733.97	2.793e-06	5.9895e-07	760.6	201.1	4.3227e-06	3.8596e-06	235.83	62.671	46.32	10.873	1.3107e-06	18.173	0.00011967	0.0001098	3.1369e-05	723.98	1.2303e-06	1.2071e-06	752.56	198.44	1.195e-06	1.2408e-06	233.47	61.906	45.704	10.901	1.2499e-06	18.31	479.235	227.126	203.701	152.223	261.107	245.874	151.447	156.693	282.083	249.625	155.537	160.418	161.199	166.466	353.797	165.266	-8191	255	
8822.176	1	1	0	0	0.26635	0.39384	0.12216	0.10375	0.2763	0.19252	0.045347	0.32919	0.18851	0.018137	0.3559	0.20173	0.33974	0.17954	0.044894	0.18105	-2.2167	-2.1396	-2.4167	-2.6333	-2.0958	-2.5062	-2.5938	-2.3708	-2.7687	-2.3187	-2.5917	-2.5396	-2.1646	-2.6833	-2.2687	-2.2354	304.538	237.334	331.974	412.372	299.966	391.970	340.170	438.903	414.463	268.591	462.575	379.086	427.079	491.386	231.934	177.342	0.0004838	7.7803e-05	8.6664e-05	728.35	1.309e-06	1.8356e-06	761.86	200.19	3.9725e-06	2.1233e-06	236.24	62.646	46.566	10.765	3.9363e-06	18.057	0.00012378	0.00011374	3.3114e-05	723.44	1.2686e-06	1.2769e-06	753.84	198.28	1.2775e-06	1.2773e-06	233.49	61.582	45.71	10.802	1.2334e-06	18.172	484.619	397.043	187.858	152.325	201.461	274.750	151.736	157.208	270.268	476.032	155.364	160.328	161.395	166.211	278.027	164.856	-8191	255	
8822.270	1	1	0	0	0.13357	0.1215	0.21225	0.22269	0.027208	0.17546	0.12288	0.2943	0.12018	0.13878	0.038668	0.28674	0.21295	0.19506	0.096581	0.16162	-2.2562	-2.2812	-2.3479	-2.5583	-2.1667	-2.5729	-2.525	-2.3229	-2.5083	-2.3479	-2.425	-2.4792	-2.0729	-2.4875	-2.6813	-2.2938	441.053	278.200	415.468	206.954	243.166	358.455	345.221	149.477	350.923	251.731	392.963	467.244	219.198	351.431	249.596	165.213	0.00051102	0.00043756	5.3559e-05	731.63	2.326e-06	2.9694e-06	756.86	200.43	3.5957e-06	2.3226e-06	236.84	62.745	46.29	10.8	1.1831e-06	18.194	0.00012734	0.00011776	3.3235e-05	724.33	1.3219e-06	1.3488e-06	752	198.74	1.3612e-06	1.3076e-06	233.79	61.836	45.857	10.908	1.3023e-06	18.366	478.044	175.989	201.672	152.376	248.800	281.644	151.630	156.802	291.342	361.347	155.607	160.000	161.035	166.354	324.596	164.399	-8191	255	
8822.366	1	1	0	0	0.21229	0.14599	0.046464	0.21219	0.11907	0.13916	0.13161	0.11528	0.29327	0.20957	0.23791	0.15767	0.14746	0.18547	0.099023	0.1534	-2.1458	-2.4625	-2.2062	-2.8583	-2.2958	-2.4396	-2.7333	-2.2313	-2.6688	-2.4125	-2.3	-2.6875	-2.2146	-2.6813	-2.6312	-2.2062	466.587	293.373	194.561	437.690	426.052	455.190	402.477	258.464	264.127	459.826	352.323	414.880	429.518	202.221	435.950	217.609	0.00042544	0.00034152	4.6817e-05	729.61	2.3273e-06	2.0729e-06	753.32	201.24	1.8603e-06	3.6235e-06	236.01	62.935	46.257	10.987	7.728e-07	18.396	0.00012729	0.00012036	3.3277e-05	722.37	1.3372e-06	1.3343e-06	749.86	198.8	1.3508e-06	1.321e-06	233.22	62.116	46.101	11.013	1.3284e-06	18.529	482.173	161.632	183.450	152.425	240.592	292.887	151.486	156.436	267.954	217.912	155.532	160.179	161.432	166.315	242.303	164.528	-8191	255	
8822.487	1	1	0	0	0.17041	0.035015	0.069724	0.087158	0.02043	0.10698	0.061884	0.31757	0.28565	0.11324	0.29667	0.15622	0.12666	0.075771	0.031198	0.047118	-2.1708	-2.6167	-2.1292	-2.725	-2.3646	-2.4813	-2.7167	-2.2583	-2.5208	-2.6083	-2.1833	-2.5792	-2.2062	-2.2625	-2.5167	-2.1229	238.103	431.057	456.010	464.408	357.773	464.860	150.875	445.218	358.325	374.195	381.002	480.906	439.172	196.889	271.007	408.385	0.00046655	0.00025154	3.2815e-05	730.86	1.0231e-06	4.8357e-06	763.66	201.97	3.3334e-06	2.716e-06	236.66	63.188	47.323	11.026	1.6046e-06	18.668	0.00013135	0.00012043	3.3146e-05	723.96	1.3217e-06	1.3049e-06	753.5	199.22	1.3844e-06	1.3392e-06	234.45	62.434	46.401	11.106	1.3608e-06	18.698	479.316	203.796	190.655	152.391	302.970	246.023	151.636	156.734	267.504	233.374	155.650	160.207	161.245	166.471	336.296	165.014	-8191	255	
8822.583	1	1	0	0	0.070042	0.081807	0.090165	0.126	0.18083	0.10884	0.3164	0.22687	0.16155	0.11648	0.014172	0.13493	0.17228	0.27356	0.089721	0.30385	-2.0167	-2.4792	-2.1625	-2.6646	-2.3271	-2.2438	-2.8896	-2.25	-2.45	-2.4604	-2.1958	-2.7313	-2.4938	-2.4146	-2.625	-2.275	495.273	355.840	236.294	198.996	163.308	357.661	464.558	289.932	424.113	409.194	206.201	430.732	248.000	472.461	234.300	367.940	0.00048193	0.00018335	3.8054e-05	733.91	1.9402e-06	1.8955e-06	766.21	201.81	3.7448e-06	2.7189e-06	239.74	63.815	47.393	11.015	2.5997e-06	18.8	0.00013618	0.00012233	3.4731e-05	727.87	1.3642e-06	1.3514e-06	757.21	200.04	1.3773e-06	1.3783e-06	236	63.116	46.894	11.203	1.3465e-06	18.904	480.669	458.101	188.353	152.435	276.110	336.150	151.525	156.622	289.280	295.654	155.777	160.138	161.078	166.365	231.007	164.868	-8191	255	
8822.679	1	1	0	0	0.14843	0.17973	0.058469	0.16674	0.088165	0.065316	0.15861	0.29896	0.091299	0.11874	0.20855	0.23465	0.071506	0.085089	0.23911	0.13033	-1.9333	-2.5292	-1.9646	-2.5833	-2.4521	-2.4771	-2.6833	-2.3271	-2.4667	-2.425	-2.1063	-2.5146	-2.3104	-2.2062	-2.6104	-2.3271	322.627	307.739	225.661	378.415	376.821	456.911	400.992	445.044	189.044	357.166	460.303	380.785	435.120	238.588	264.661	465.838	0.00054159	0.0004258	4.0056e-05	735.79	2.0699e-06	2.4362e-06	759.98	201.79	4.2084e-06	2.4999e-06	235.38	63.213	46.663	11.052	1.3844e-06	18.605	0.00013595	0.00012402	3.4858e-05	727.72	1.3375e-06	1.3581e-06	752.15	199.27	1.3723e-06	1.3626e-06	233.01	62.549	46.47	11.141	1.3359e-06	18.641	476.275	235.546	218.530	152.525	279.711	337.395	151.610	156.808	281.594	346.003	155.653	160.287	161.452	166.242	342.467	164.888	-8191	255	
8822.751	1	1	0	0	0.21849	0.31592	0.16299	0.094004	0.2142	0.11302	0.35847	0.077874	0.15778	0.21988	0.32855	0.14083	0.14917	0.22924	0.20589	0.1289	-1.7104	-2.4875	-2.1354	-2.625	-2.4458	-2.2438	-2.7812	-2.4271	-2.325	-2.6854	-2.2	-2.6667	-2.7188	-2.2333	-2.7646	-2.5042	293.964	219.107	195.929	165.640	472.740	229.671	477.517	379.481	308.608	169.657	456.929	421.814	486.581	450.833	360.672	451.548	0.00047522	0.00011923	4.0082e-05	727.92	2.6356e-06	1.0647e-06	761.05	201.18	3.6176e-06	3.1716e-06	238.05	63.22	46.763	11.037	2.748e-06	18.598	0.00013149	0.0001193	3.3067e-05	723.09	1.3136e-06	1.3376e-06	751.18	199.04	1.3745e-06	1.3239e-06	234.68	62.494	46.339	11.115	1.3346e-06	18.714	489.291	193.018	199.546	152.490	252.543	155.515	151.387	156.698	271.449	264.388	155.360	159.750	160.968	166.115	267.683	164.951	-8191	255	
8822.847	1	1	0	0	0.19647	0.11234	0.23558	0.13033	0.23365	0.046114	0.099286	0.11567	0.017829	0.033563	0.28212	0.13382	0.13174	0.2576	0.10056	0.2554	-1.9792	-2.7667	-2.2854	-2.6312	-2.575	-2.3896	-2.7708	-2.2333	-2.3167	-2.7333	-2.2667	-2.6396	-2.6854	-2.1896	-2.7104	-2.4583	309.882	260.353	272.184	498.146	417.302	300.293	404.879	396.132	347.082	175.759	166.907	375.791	440.701	495.136	338.013	450.510	0.00050962	0.00028209	6.3739e-05	730.26	8.2196e-07	4.6028e-07	764.02	201.83	4.7803e-06	5.9524e-07	239.19	64.257	47.734	11.114	2.578e-06	18.86	0.00013411	0.00012246	3.3761e-05	724.82	1.3564e-06	1.3059e-06	754.37	199.51	1.3874e-06	1.312e-06	236.08	63.19	46.989	11.197	1.3828e-06	18.909	471.345	263.076	212.093	152.315	459.204	223.337	151.852	156.577	268.135	258.731	155.502	160.461	161.244	166.979	308.783	164.995	-8191	255	
8822.968	1	1	0	0	0.20446	0.16153	0.1893	0.30574	0.095302	0.22856	0.11048	0.29263	0.24972	0.2851	0.10451	0.37992	0.27636	0.23571	0.027897	0.27617	-2.0146	-2.7208	-2.1771	-2.85	-2.5938	-2.3875	-2.7	-2.6104	-2.2604	-2.8271	-2.3479	-2.5729	-2.6479	-2.1688	-2.4792	-2.5583	230.328	221.128	263.438	477.298	353.103	438.709	447.155	447.043	241.365	378.497	355.656	435.264	449.465	336.110	408.882	454.065	0.0004902	0.00015543	5.7956e-05	735.08	2.7419e-06	4.2465e-06	760.24	201.95	2.6701e-06	2.3652e-06	239.33	63.895	46.598	11.079	3.941e-06	18.734	0.00013255	0.00012233	3.4154e-05	728.64	1.3537e-06	1.3368e-06	757.05	199.89	1.3733e-06	1.3158e-06	237.05	63.18	46.6	11.204	1.3446e-06	18.849	477.417	175.133	243.496	152.383	240.643	258.165	151.469	156.947	261.047	198.992	155.605	159.985	160.877	166.388	267.608	164.559	-8191	255	
8823.064	1	1	0	0	0.15619	0.07273	0.10931	0.30945	0.025313	0.20336	0.2134	0.21176	0.19814	0.099078	0.060858	0.062361	0.20692	0.14352	0.1121	0.13166	-1.9979	-2.5542	-2.3042	-2.2458	-2.6458	-2.2562	-2.5458	-2.7354	-2.5021	-2.6646	-2.5375	-2.2917	-2.7479	-2.2104	-2.3688	-2.4958	207.230	337.387	195.798	448.962	498.476	366.942	155.029	489.691	364.649	452.026	412.617	380.861	470.499	400.880	166.018	140.562	0.00051841	4.6406e-05	7.7207e-05	734.63	7.701e-07	3.6605e-06	764.48	201.91	2.7387e-06	2.5581e-06	237.12	63.436	47.12	11.138	2.226e-06	18.768	0.00013309	0.00012265	3.3717e-05	726.38	1.3675e-06	1.3243e-06	755.37	199.69	1.3424e-06	1.3303e-06	234.59	62.847	46.65	11.208	1.3634e-06	18.864	484.020	255.472	235.988	152.202	200.173	301.272	151.542	156.711	220.999	233.927	155.972	160.419	160.878	166.502	247.399	164.681	-8191	255	
8823.158	1	1	0	0	0.059448	0.11166	0.22007	0.15925	0.16947	0.17485	0.06158	0.094645	0.23587	0.05281	0.055327	0.21446	0.077694	0.14925	0.15906	0.063564	-1.6146	-2.5958	-2.3958	-2.3708	-2.8688	-2.2167	-2.6125	-2.5833	-2.15	-2.5708	-2.4458	-2.2646	-2.6979	-2.2521	-2.3417	-2.6688	407.923	310.145	443.323	284.836	271.309	213.157	487.689	409.911	333.945	478.976	474.608	479.820	489.990	160.023	297.124	227.734	0.00046187	0.00028003	8.176e-05	735.96	1.2897e-06	1.9675e-06	760.72	202.68	3.6874e-06	3.0998e-06	238.49	64.426	47.513	11.259	1.3105e-06	19.165	0.00013065	0.00012373	3.3592e-05	727.38	1.3524e-06	1.3191e-06	753.28	199.96	1.3632e-06	1.3624e-06	235.55	63.553	47.094	11.335	1.3674e-06	19.152	491.895	206.996	259.486	152.258	284.546	233.036	151.729	156.753	255.383	282.727	155.532	159.955	160.989	166.249	246.046	164.716	-8191	255	
8823.256	1	1	0	0	0.094288	0.20701	0.21363	0.046111	0.1999	0.21487	0.14984	0.12474	0.079545	0.23643	0.28034	0.19755	0.20602	0.25399	0.14149	0.31898	-1.4646	-2.5729	-2.3896	-2.0938	-2.8542	-2.4146	-2.5021	-2.6292	-2.25	-2.5667	-2.45	-2.1271	-2.7062	-2.2229	-2.3521	-2.6625	443.559	495.318	463.412	363.931	385.521	466.069	444.250	475.031	229.225	262.532	456.269	455.978	195.767	319.744	330.164	318.411	0.00056028	9.3395e-05	0.0001092	738.08	3.1131e-06	3.5787e-06	769.34	202.38	4.078e-06	2.5535e-06	240.08	64.727	47.931	11.315	7.1221e-07	19.247	0.00013211	0.00012564	3.4127e-05	729.97	1.407e-06	1.3596e-06	759.98	200.72	1.4141e-06	1.4138e-06	237.78	64.225	47.356	11.399	1.3841e-06	19.275	475.731	476.736	274.918	152.276	260.943	243.375	151.799	156.689	254.403	271.830	155.506	160.266	161.199	166.745	337.298	165.360	-8191	255	
8823.375	1	1	0	0	0.08787	0.034247	0.24077	0.14952	0.10969	0.2783	0.23139	0.045985	0.1604	0.081366	0.041468	0.16361	0.26898	0.19672	0.11548	0.08249	-1.8146	-2.5104	-2.6979	-2.2062	-2.6583	-2.2062	-2.3958	-2.7271	-2.3542	-2.5958	-2.5833	-2.2833	-2.7125	-2.4646	-2.375	-2.8917	352.782	358.905	252.235	276.861	464.185	260.172	498.083	432.121	495.122	260.255	426.972	235.227	434.412	422.184	481.139	454.649	0.00043911	0.00050292	8.5376e-05	736.77	2.0185e-06	3.2318e-06	771.14	203.9	4.4666e-06	2.7042e-06	240.5	64.662	47.748	11.464	5.9513e-07	19.108	0.00013651	0.00012737	3.5508e-05	729.57	1.3824e-06	1.392e-06	763.21	201.17	1.3918e-06	1.3783e-06	237.94	63.905	47.304	11.429	1.3726e-06	19.126	481.895	215.133	221.767	152.524	255.566	290.045	151.790	156.939	274.346	240.049	155.903	160.276	161.447	166.035	230.661	164.411	-8191	255	
8823.447	1	1	0	0	0.013607	0.077075	0.059095	0.10539	0.11237	0.092239	0.20971	0.23307	0.12127	0.12531	0.10636	0.24753	0.48306	0.21188	0.016624	0.14649	-1.6125	-2.6625	-2.5896	-2.3229	-2.6188	-2.6958	-2.3771	-2.8229	-2.4688	-2.4854	-2.9	-2.2125	-2.4354	-2.5021	-2.0938	-2.5604	253.209	304.983	285.108	420.346	384.474	335.943	490.495	430.304	441.741	435.346	162.637	295.065	140.526	481.653	483.236	221.626	0.00055304	7.7595e-05	7.0339e-05	736.99	1.4955e-06	1.5021e-06	759.15	202.11	4.1245e-06	2.0252e-06	237.63	64.157	47.756	11.287	7.6812e-07	18.941	0.00013472	0.00012753	3.5485e-05	728.59	1.4292e-06	1.4141e-06	755.49	200.38	1.4113e-06	1.3889e-06	234.99	63.365	47.317	11.355	1.3772e-06	19.019	483.115	259.789	252.906	152.469	266.509	307.883	151.844	156.640	222.981	299.164	155.576	160.276	160.958	166.375	330.745	164.874	-8191	255	
8823.567	1	1	0	0	0.12894	0.053698	0.25002	0.24524	0.24463	0.12425	0.25103	0.33353	0.080841	0.18107	0.084901	0.18402	0.20566	0.17305	0.058962	0.1253	-2.0312	-2.1542	-2.4167	-2.2667	-2.6042	-2.5604	-2.3021	-2.6375	-2.375	-2.4479	-2.7083	-2.0917	-2.6896	-2.6437	-2.3042	-2.6813	460.598	283.287	405.462	479.140	310.613	173.298	400.862	141.463	424.679	226.513	493.938	194.833	168.385	239.721	317.208	204.415	0.00045291	0.00019486	5.7601e-05	730.92	2.5639e-06	3.8236e-06	762.27	202.93	2.6787e-06	2.751e-06	238.19	63.763	47.628	11.129	2.2538e-06	18.769	0.00013548	0.00013007	3.4882e-05	726.32	1.4121e-06	1.3896e-06	755.86	199.83	1.3943e-06	1.3653e-06	235.16	63.185	46.955	11.256	1.4053e-06	18.948	481.888	174.426	277.420	152.325	314.755	335.792	151.622	156.701	278.040	283.140	155.190	160.316	161.484	166.433	255.872	164.882	-8191	255	
8823.663	1	1	0	0	0.15062	0.088936	0.45653	0.18864	0.33167	0.067969	0.09634	0.059631	0.12703	0.11827	0.10067	0.17521	0.09964	0.091328	0.6435	0.11385	-2	-2.2333	-2.6667	-2.4458	-2.3333	-2.5542	-2.2896	-2.7521	-2.4854	-2.2313	-2.7667	-2.1708	-2.4896	-2.5	-2.3083	-2.6708	362.565	175.845	228.154	421.744	271.840	321.289	229.442	139.231	276.022	305.514	437.083	156.343	208.218	449.190	326.210	211.301	0.00050564	0.00026226	0.00012214	737.09	1.6339e-06	3.3046e-06	768.21	203.2	3.616e-06	1.2946e-06	239.94	64.716	47.674	11.299	2.4248e-06	19.252	0.00013582	0.00012609	3.5039e-05	728.61	1.3866e-06	1.3915e-06	759.77	200.52	1.3994e-06	1.4218e-06	236.56	64.005	47.467	11.386	1.3771e-06	19.23	481.287	167.343	258.638	152.497	279.770	222.512	151.718	156.332	230.540	274.515	155.850	160.159	161.035	166.699	239.650	164.728	-8191	255	
8823.759	1	1	0	0	0.10635	0.145	0.30512	0.19668	0.27233	0.21443	0.26001	0.46079	0.38895	0.11766	0.088011	0.093557	0.10599	0.11161	0.05156	0.22112	-2.0896	-2.2229	-2.6979	-2.5187	-2.4146	-2.6312	-2.4667	-2.5563	-2.4646	-2.3458	-2.8375	-2.2938	-2.2646	-2.5	-2.2438	-2.6917	399.451	349.163	154.267	161.718	368.888	377.718	403.557	441.845	332.402	169.959	375.719	447.555	281.143	444.272	443.072	442.497	0.00045778	0.00038728	6.9061e-05	731.72	1.9651e-06	1.748e-06	763.84	201.64	4.5028e-06	3.742e-06	236.61	62.467	46.627	10.842	1.3997e-06	17.875	0.0001357	0.0001241	3.4187e-05	726.8	1.3951e-06	1.3297e-06	757.17	199.4	1.3083e-06	1.313e-06	233.76	61.822	45.884	10.876	1.2353e-06	18.039	485.505	200.860	222.710	152.556	273.047	232.869	151.639	156.937	257.196	285.598	155.547	159.789	161.123	166.051	261.206	164.388	-8191	255	
8823.856	1	1	0	0	0.18293	0.049693	0.10645	0.39277	0.33342	0.2228	0.071577	0.081331	0.061945	0.33888	0.29952	0.15441	0.085009	0.14026	0.13123	0.27642	-2.1833	-2.1813	-2.5729	-2.475	-2.2271	-2.6104	-2.475	-2.5854	-2.5187	-2.1917	-2.9	-2.3937	-2.3479	-2.6958	-2.2812	-2.4625	378.181	183.186	185.130	471.854	205.609	186.203	373.527	383.666	146.011	452.362	144.291	491.788	459.670	320.809	353.090	469.786	0.00040336	0.00025806	7.8126e-05	725.04	1.4115e-06	1.6821e-06	754.6	199.94	2.0447e-06	2.1056e-06	237	63.861	47.694	11.19	2.3855e-06	18.649	0.00012176	0.00011325	3.1826e-05	717.78	1.2692e-06	1.2389e-06	746.16	198.33	1.3474e-06	1.3413e-06	234.49	62.8	47.07	11.26	1.4356e-06	18.834	482.197	234.468	222.000	152.424	299.391	307.141	151.773	156.762	310.470	329.658	155.622	159.894	161.258	166.247	258.260	164.859	-8191	255	
8823.976	1	1	0	0	0.18352	0.17122	0.1021	0.15799	0.061402	0.28714	0.34817	0.23528	0.11544	0.37924	0.23907	0.28302	0.19307	0.029618	0.12962	0.1313	-2.2229	-1.9896	-2.5021	-2.4729	-2.5083	-2.5125	-2.2542	-2.4896	-2.7396	-2.2521	-2.7792	-2.5979	-2.2333	-2.7188	-2.2354	-2.3479	422.697	139.184	149.487	409.464	385.697	317.966	154.871	424.904	410.643	413.528	187.195	385.204	314.256	385.428	492.305	182.122	0.00046725	0.00023397	4.2098e-05	736.94	2.6891e-06	2.5204e-06	761.56	204.04	4.3634e-06	5.8079e-06	239.08	64.754	48.338	11.251	1.5143e-06	18.878	0.00014354	0.00013428	3.7504e-05	730.16	1.4813e-06	1.4975e-06	758.26	201.57	1.4907e-06	1.4947e-06	236.85	64.11	47.792	11.354	1.4172e-06	18.876	488.348	168.207	163.465	152.424	272.584	281.663	151.563	156.712	262.505	297.701	155.332	159.856	161.010	166.037	255.249	164.800	-8191	255	
8824.048	1	1	0	0	0.11506	0.141	0.086513	0.149	0.13591	0.2114	0.18462	0.17502	0.043299	0.20241	0.098199	0.24754	0.17092	0.22095	0.19301	0.26929	-2.1375	-2.125	-2.5208	-2.7021	-2.1854	-2.7667	-2.4042	-2.4938	-2.6646	-2.3896	-2.6354	-2.5917	-2.2667	-2.6271	-2.5104	-2.3875	232.792	352.241	402.765	203.252	375.915	302.440	457.347	447.591	447.271	407.910	220.538	329.510	441.954	327.477	252.116	191.041	0.00048921	0.00026153	6.4984e-05	731.98	2.9649e-06	9.153e-07	760.07	203.47	3.1244e-06	2.2643e-06	238.63	64.11	47.99	11.342	1.1063e-06	18.781	0.00013915	0.00013044	3.647e-05	726.03	1.4329e-06	1.4372e-06	753.04	200.93	1.4501e-06	1.4218e-06	235.64	63.593	47.737	11.426	1.3903e-06	18.909	491.123	218.946	257.871	152.122	248.359	305.722	151.874	156.703	292.554	265.577	155.441	159.935	160.897	166.110	320.681	164.516	-8191	255	
8824.144	1	1	0	0	0.1548	0.18716	0.13273	0.13114	0.018148	0.079973	0.17012	0.31206	0.15313	0.29328	0.060556	0.18238	0.16789	0.16313	0.24082	0.17858	-2.1396	-2.3375	-2.375	-2.6583	-2.1562	-2.8063	-2.4	-2.1271	-2.6083	-2.2729	-2.4562	-2.7146	-2.2771	-2.5375	-2.3958	-2.3187	153.956	293.899	375.021	423.820	496.252	352.586	481.167	433.308	310.333	257.594	470.289	375.527	158.769	305.570	485.893	457.969	0.00042403	0.00016711	7.9753e-05	732.05	1.1849e-06	1.3338e-06	755.84	200.63	2.6822e-06	2.5529e-06	234.21	61.64	45.801	10.487	4.2133e-07	17.524	0.00013509	0.00012684	3.456e-05	725.62	1.311e-06	1.2673e-06	748.97	197.86	1.2225e-06	1.1491e-06	230.35	60.495	45.06	10.566	1.1464e-06	17.401	481.394	179.917	177.146	152.439	492.951	229.153	151.428	156.578	248.804	299.982	155.646	160.249	161.300	167.211	481.943	164.736	-8191	255	
8824.263	1	1	0	0	0.15239	0.030608	0.20639	0.16153	0.17403	0.10485	0.062305	0.070745	0.27593	0.31258	0.1911	0.15348	0.080947	0.18942	0.34412	0.30911	-2.3375	-2.4354	-2.5271	-2.7062	-2.1604	-2.7292	-2.7604	-2.4437	-2.7625	-2.3396	-2.4813	-2.6583	-2.3375	-2.4813	-2.4813	-2.4833	313.874	379.406	449.952	139.364	312.916	153.529	413.104	174.652	159.635	332.586	433.588	416.812	400.177	152.483	387.605	205.488	0.00041627	0.00021996	3.8231e-05	717.91	3.2666e-07	1.1528e-06	743.53	197.5	1.4637e-06	3.1529e-06	232.59	61.197	45.611	10.519	1.9664e-06	17.335	0.00011177	0.00010324	2.8574e-05	709.31	1.15e-06	1.131e-06	735.25	195.38	1.1801e-06	1.1526e-06	229.47	60.208	45.12	10.591	1.1909e-06	17.529	475.532	211.849	248.779	152.446	343.388	284.228	151.981	157.088	295.769	224.692	155.494	160.141	161.123	166.676	245.076	164.890	-8191	255	
8824.359	1	1	0	0	0.23365	0.038854	0.10877	0.26643	0.20848	0.21401	0.033185	0.11246	0.24951	0.18647	0.13488	0.091445	0.24659	0.14066	0.36376	0.21795	-2.1667	-2.45	-2.4708	-2.7625	-2.2313	-2.6292	-2.6562	-2.2979	-2.8292	-2.3583	-2.5396	-2.7125	-2.2875	-2.3187	-2.55	-2.3688	287.601	380.183	377.915	139.855	297.091	187.184	263.918	421.778	312.155	155.975	145.935	498.369	485.983	484.117	430.542	424.493	0.0003973	0.0003076	4.9502e-05	725.22	3.1206e-06	1.7512e-06	752.12	199.12	5.5561e-06	1.2936e-06	234.66	61.524	46.176	10.659	3.8177e-06	17.349	0.00012249	0.00011159	3.2333e-05	716.89	1.2306e-06	1.2336e-06	742.06	197.4	1.2695e-06	1.2198e-06	231.88	60.752	45.523	10.634	1.2437e-06	17.527	474.702	165.768	213.365	152.342	245.568	262.811	151.605	156.760	247.022	240.341	155.145	160.072	161.260	165.596	288.565	164.768	-8191	255	
8824.455	1	1	0	0	0.23805	0.11667	0.069938	0.25244	0.091901	0.19983	0.21368	0.30487	0.097291	0.16626	0.14719	0.10659	0.30859	0.18071	0.1565	0.14821	-2.0917	-2.3833	-2.25	-2.8688	-2.2083	-2.5896	-2.7042	-2.2646	-2.6667	-2.3667	-2.4271	-2.7354	-2.4562	-2.5625	-2.6271	-2.3208	262.699	439.733	369.223	460.391	285.792	495.441	459.321	450.723	366.353	486.518	485.840	350.288	438.515	171.509	210.823	301.155	0.00040513	0.00034472	2.8184e-05	719.66	1.7912e-06	2.5911e-06	753.39	199.7	6.8193e-07	1.8663e-06	237.17	61.54	46.65	10.676	2.8375e-06	17.852	0.0001267	0.00011087	3.1902e-05	715.03	1.2549e-06	1.2239e-06	742.79	197.16	1.251e-06	1.2378e-06	232.98	60.847	45.932	10.739	1.2842e-06	17.788	481.583	220.085	211.078	152.460	347.093	264.974	151.557	156.756	365.901	259.228	155.304	160.013	161.522	166.354	229.270	165.036	-8191	255	
8824.551	1	1	0	0	0.1498	0.33635	0.27704	0.26469	0.10262	0.13704	0.069199	0.12837	0.31835	0.26591	0.18903	0.20429	0.23976	0.19748	0.10339	0.16273	-2.2562	-2.3792	-2.1917	-2.8021	-2.2188	-2.4792	-2.7979	-2.225	-2.7625	-2.4271	-2.2104	-2.7146	-2.3104	-2.5458	-2.7375	-2.0479	194.272	175.837	471.981	452.251	415.086	431.418	465.703	444.969	410.828	413.269	460.438	412.969	219.659	350.930	354.226	373.841	0.00041921	0.00020662	9.6958e-05	728.35	1.5794e-06	2.4814e-06	753.71	199.99	2.1742e-06	2.3155e-06	237.05	63.748	47.801	11.089	8.7005e-07	18.315	0.00012723	0.00011868	3.258e-05	722.23	1.2941e-06	1.3171e-06	747.74	198.61	1.3595e-06	1.332e-06	233.41	62.674	47.034	11.142	1.3217e-06	18.308	480.567	188.845	274.229	152.380	197.728	243.222	151.767	156.744	304.264	239.622	155.395	160.283	161.316	166.511	276.557	165.018	-8191	255	
8824.648	1	1	0	0	0.12487	0.11375	0.18058	0.29421	0.31044	0.035162	0.20904	0.20382	0.076124	0.046326	0.13003	0.060388	0.21771	0.049564	0.085727	0.19863	-1.9771	-2.4104	-2.1292	-2.8104	-2.3	-2.3229	-2.7917	-2.2958	-2.4917	-2.575	-2.2833	-2.5479	-2.5292	-2.2062	-2.7292	-2.2125	407.173	485.600	347.433	141.155	155.470	482.262	472.254	172.743	303.942	175.521	380.640	424.920	410.481	497.266	373.505	231.861	0.00047379	0.00019552	5.0283e-05	732.34	1.3899e-06	2.7637e-06	757.21	201.29	3.3243e-06	2.1345e-06	233.53	62.974	47.21	11.074	3.9602e-06	18.05	0.00013174	0.00012274	3.329e-05	722.18	1.3694e-06	1.3255e-06	746.67	199.19	1.3848e-06	1.3535e-06	231.9	62.325	46.915	11.138	1.3638e-06	18.18	473.577	193.022	211.127	152.422	217.327	280.493	151.700	156.910	268.767	325.173	155.529	160.402	161.315	166.079	285.946	164.784	-8191	255	
8824.744	1	1	0	0	0.14349	0.23063	0.21186	0.043088	0.049387	0.20755	0.24386	0.24177	0.12738	0.026575	0.12461	0.29938	0.11754	0.25017	0.23091	0.15956	-1.8854	-2.6604	-2.0271	-2.5542	-2.3438	-2.4458	-2.8312	-2.3958	-2.4479	-2.6375	-2.1417	-2.4854	-2.6063	-2.3812	-2.6333	-2.4042	282.257	418.633	184.489	269.139	414.170	147.574	208.752	435.912	368.264	424.592	441.211	460.486	456.162	224.555	387.184	342.176	0.00046663	0.00022474	2.7697e-05	728.8	3.8486e-06	3.2569e-06	753.92	201.18	2.714e-06	1.8409e-06	235.11	62.908	47.546	11.053	2.6531e-06	18.347	0.0001373	0.00012239	3.4687e-05	723.42	1.4118e-06	1.38e-06	745.4	199.54	1.4236e-06	1.3654e-06	232.56	62.153	47.11	11.124	1.3815e-06	18.277	489.446	176.349	196.490	152.569	278.362	251.096	151.637	156.783	217.064	248.447	155.083	159.993	160.944	165.973	259.237	164.866	-8191	255	
8824.840	1	1	0	0	0.12683	0.17181	0.23525	0.053875	0.085666	0.14019	0.24896	0.19005	0.11769	0.076402	0.056337	0.056405	0.19286	0.22239	0.17643	0.068564	-1.9125	-2.475	-2.3688	-2.5125	-2.5896	-2.2812	-2.5958	-2.5812	-2.1937	-2.7333	-2.1042	-2.3792	-2.5875	-2.2292	-2.6729	-2.3125	244.193	239.306	150.465	158.456	306.372	341.520	437.571	382.471	289.214	495.099	449.553	435.676	488.721	148.113	337.251	442.944	0.00043488	0.00013008	9.4884e-05	732.97	2.4287e-06	1.1477e-06	758.85	203.03	4.3448e-06	3.6247e-06	238.13	64.947	49.137	11.438	3.423e-06	18.788	0.0001386	0.00012487	3.4653e-05	725.94	1.4117e-06	1.3923e-06	751.36	200.98	1.4633e-06	1.4194e-06	235.38	64.056	48.356	11.469	1.4703e-06	18.878	480.065	213.826	234.949	152.386	201.582	367.681	151.614	156.669	242.378	197.845	155.525	160.364	160.702	165.742	254.923	164.453	-8191	255	
8824.936	1	1	0	0	0.25013	0.065552	0.045143	0.30612	0.18427	0.20051	0.043957	0.32428	0.088267	0.1051	0.18088	0.13679	0.24278	0.17291	0.1687	0.3971	-1.7458	-2.6771	-2.275	-2.4375	-2.5521	-2.3167	-2.7792	-2.4188	-2.2542	-2.7646	-2.2792	-2.6042	-2.6396	-1.8813	-2.375	-2.4479	313.866	331.549	386.229	405.028	259.873	352.331	159.012	452.075	151.339	155.022	313.617	167.148	447.979	168.166	347.315	496.296	0.00056525	0.00041654	6.4623e-05	737.11	3.1899e-06	6.7579e-07	759.7	204.29	3.1246e-06	2.1835e-06	235.3	63.902	48.746	11.308	1.6951e-06	18.515	0.0001477	0.00013962	3.8149e-05	731.11	1.5327e-06	1.4859e-06	751.89	201.1	1.5172e-06	1.4668e-06	232.62	63.357	48.172	11.39	1.4722e-06	18.536	479.488	214.419	159.875	152.522	288.812	161.629	151.501	156.636	288.518	297.219	155.785	159.856	160.885	166.448	207.367	164.246	-8191	255	
8825.055	1	1	0	0	0.25762	0.11756	0.1146	0.09063	0.10859	0.18059	0.069977	0.35414	0.12684	0.14887	0.1285	0.12034	0.15146	0.28486	0.16792	0.068109	-1.9208	-2.7125	-2.2812	-2.5563	-2.7062	-2.2083	-2.7583	-2.5042	-2.3354	-2.7458	-2.5312	-2.3958	-2.7354	-2.225	-2.5417	-2.6333	317.740	366.539	217.775	367.705	240.363	365.276	229.799	489.349	441.464	226.888	247.049	249.771	444.647	229.132	283.225	467.550	0.00047619	0.00032155	7.2559e-06	729.05	2.7497e-06	2.4808e-06	752.73	201.7	3.6488e-06	1.8183e-06	234.34	64.246	48.582	11.31	2.1046e-06	18.639	0.00014429	0.00013257	3.6853e-05	723.89	1.5023e-06	1.4509e-06	743.89	200.28	1.4935e-06	1.5198e-06	232.91	63.605	48.354	11.434	1.5475e-06	18.725	486.824	207.794	462.804	152.436	248.135	242.935	151.510	157.090	281.395	308.752	155.487	159.992	161.060	166.347	290.603	164.604	-8191	255	
8825.151	1	1	0	0	0.14757	0.11472	0.080322	0.21179	0.24476	0.23104	0.18868	0.10544	0.096422	0.47803	0.1407	0.036538	0.18167	0.13079	0.11594	0.12162	-1.6854	-2.5375	-2.325	-2.5333	-2.7125	-2.1229	-2.375	-2.8063	-2.2042	-2.6167	-2.5125	-2.3312	-2.6583	-2.2021	-2.4813	-2.6771	370.067	334.416	400.884	424.557	189.653	311.052	406.261	479.274	449.823	166.352	470.068	406.063	375.915	218.370	487.246	254.469	0.00037517	0.00034002	9.237e-05	735.15	1.8575e-06	1.2048e-06	754.07	202.61	1.2513e-06	1.4912e-06	235.12	63.743	48.131	11.142	4.7261e-07	18.076	0.00014879	0.00014253	3.922e-05	727.14	1.5889e-06	1.5242e-06	746.86	200.83	1.5227e-06	1.5676e-06	232.21	62.976	47.755	11.194	1.5433e-06	18.21	474.565	178.850	210.654	152.402	264.614	349.137	151.672	156.542	265.069	282.052	155.676	159.994	161.123	166.368	264.327	164.633	-8191	255	
8825.247	1	1	0	0	0.22439	0.22785	0.10729	0.1304	0.29186	0.36647	0.14999	0.19777	0.10936	0.33239	0.13578	0.30316	0.096462	0.09313	0.065457	0.14566	-1.5792	-2.75	-2.4854	-2.3771	-2.6458	-2.2146	-2.6125	-2.7188	-2.1729	-2.6521	-2.675	-2.3	-2.6562	-2.2958	-2.3375	-2.6958	306.671	452.534	392.370	430.201	184.580	307.570	487.577	489.443	450.689	184.177	401.043	454.179	295.293	219.691	426.546	406.212	0.00039209	0.00031736	7.8444e-05	726.09	2.4758e-06	1.6295e-06	754.53	202.22	3.8073e-06	1.5194e-06	235.17	63.389	47.896	11.024	3.0612e-06	17.908	0.00014573	0.00013725	3.7186e-05	722.98	1.5282e-06	1.5166e-06	745.32	200.24	1.5311e-06	1.4836e-06	232.05	62.405	47.366	11.129	1.5419e-06	18.109	476.725	214.591	253.256	152.428	294.648	332.158	151.695	156.443	253.354	336.437	155.472	160.388	160.878	166.365	270.715	164.539	-8191	255	
8825.343	1	1	0	0	0.17328	0.07935	0.10406	0.075934	0.19023	0.11018	0.27026	0.10023	0.059785	0.21231	0.047524	0.21068	0.3002	0.32632	0.1167	0.12074	-1.7938	-2.3833	-2.6229	-2.2062	-2.5854	-2.4021	-2.2021	-2.575	-2.3812	-2.575	-2.5062	-2.1667	-2.6771	-2.4125	-2.2792	-2.7229	249.037	153.622	254.404	473.010	459.992	305.812	409.475	191.982	261.278	276.802	258.919	468.374	389.854	374.300	376.232	239.643	0.00045829	0.00031314	6.4477e-05	724.49	3.0761e-06	2.05e-06	745.34	200.31	3.4169e-06	1.6406e-06	232.5	62.327	47.592	10.947	8.7417e-07	17.946	0.00014374	0.00013779	3.8098e-05	720.87	1.5084e-06	1.5041e-06	739.39	199.09	1.4967e-06	1.4842e-06	229.41	61.693	47.074	11.076	1.4859e-06	18.117	480.232	198.268	212.566	152.264	262.558	291.402	151.625	156.480	246.261	298.808	155.651	159.893	161.220	165.989	274.448	164.598	-8191	255	
8825.439	1	1	0	0	0.31267	0.14532	0.047994	0.088319	0.12869	0.12638	0.095126	0.28738	0.053078	0.12254	0.11692	0.14015	0.094916	0.13974	0.091928	0.10952	-1.7583	-2.4958	-2.5479	-2.2396	-2.5646	-2.3521	-2.4021	-2.8021	-2.1937	-2.5687	-2.5854	-2.1792	-2.5146	-2.4521	-2.2396	-2.8375	492.909	487.200	448.513	173.995	394.492	202.647	411.902	471.739	462.986	253.312	158.295	206.638	497.325	181.156	350.529	293.354	0.00045486	0.00029762	9.9515e-05	726.87	2.4462e-06	3.434e-06	742.88	201.5	1.6326e-06	1.8084e-06	232.21	63.321	48.062	11.114	5.3517e-06	18.229	0.0001409	0.00013464	3.6808e-05	719.97	1.5242e-06	1.4894e-06	737.91	199.25	1.4959e-06	1.4846e-06	229.58	62.479	47.389	11.195	1.4815e-06	18.331	480.208	237.384	241.244	152.428	219.396	252.032	151.623	156.745	231.706	283.199	155.489	160.205	161.232	166.617	260.668	164.510	-8191	255	
8825.558	1	1	0	0	0.046817	0.029423	0.076502	0.3022	0.24176	0.14666	0.12112	0.15542	0.08757	0.14	0.13506	0.02056	0.20878	0.17982	0.30021	0.19433	-1.9125	-2.4167	-2.5333	-2.3146	-2.3937	-2.5167	-2.3521	-2.7583	-2.3646	-2.5271	-2.7438	-2.3021	-2.4313	-2.5354	-2.25	-2.7354	389.129	486.560	281.439	177.849	141.430	485.291	354.766	183.254	457.083	210.547	315.814	330.934	188.365	146.928	432.396	433.139	0.00037442	0.0003281	0.00016769	724.58	1.2118e-06	1.5256e-06	751.65	201.25	4.41e-06	1.3757e-06	234.27	63.613	47.938	11.124	2.1032e-06	18.242	0.00014083	0.00013636	3.7654e-05	719.27	1.4989e-06	1.4778e-06	743.77	199.12	1.5057e-06	1.5418e-06	231.79	62.861	47.498	11.251	1.5305e-06	18.343	476.566	189.747	251.234	152.465	254.660	333.416	151.699	156.790	292.950	360.631	155.230	159.913	161.169	166.102	264.016	164.506	-8191	255	
8825.655	1	1	0	0	0.12195	0.1901	0.035211	0.25244	0.10711	0.018101	0.28846	0.20156	0.092536	0.15459	0.20167	0.10822	0.27823	0.16216	0.19076	0.13333	-1.9875	-2.1833	-2.8021	-2.4021	-2.425	-2.6188	-2.0667	-2.6833	-2.4646	-2.175	-2.7313	-2.35	-2.4521	-2.6542	-2.3375	-2.6833	350.538	208.214	209.083	151.536	411.255	252.201	387.733	188.587	364.833	420.327	151.546	230.801	317.977	247.341	452.784	321.500	0.00049964	0.00017212	4.3929e-05	730.75	3.4192e-06	1.1107e-06	749.76	199.67	1.3172e-06	2.3342e-06	233.67	62.07	46.946	10.893	3.0168e-06	17.808	0.00014503	0.0001383	3.7457e-05	722.04	1.545e-06	1.4678e-06	742.39	198.46	1.488e-06	1.4864e-06	230.68	61.49	46.418	10.952	1.423e-06	17.829	477.763	201.466	188.950	152.361	240.943	279.109	151.775	156.710	363.218	229.273	155.881	159.827	161.491	166.162	293.027	164.281	-8191	255	
8825.751	1	1	0	0	0.25726	0.16974	0.28725	0.08819	0.086788	0.28067	0.18564	0.070989	0.19085	0.27456	0.19291	0.036335	0.14027	0.22065	0.17558	0.22558	-1.8563	-2.1646	-2.7083	-2.325	-2.4188	-2.6542	-2.2521	-2.7687	-2.5042	-2.1063	-2.8021	-2.1937	-2.2667	-2.7188	-2.0479	-2.6917	465.989	272.152	214.170	456.643	385.790	465.249	447.725	445.904	194.316	367.943	437.537	402.946	456.865	151.840	206.444	409.451	0.00048921	4.1867e-05	5.4454e-05	718.74	2.3869e-06	3.1041e-06	744.61	201.18	2.8987e-06	3.0368e-06	232.76	62.046	47.405	10.927	3.7745e-06	17.737	0.00014202	0.00012896	3.6011e-05	716.04	1.4208e-06	1.4331e-06	736.31	198.27	1.455e-06	1.4399e-06	229.19	61.407	46.838	11.033	1.4968e-06	17.893	478.487	377.405	223.313	152.260	204.240	262.796	151.714	157.027	287.958	248.716	155.695	160.008	160.972	166.007	278.961	164.489	-8191	255	
8825.847	1	1	0	0	0.22304	0.19499	0.18186	0.31862	0.14377	0.2379	0.32482	0.13321	0.086252	0.028186	0.24373	0.099753	0.17688	0.30942	0.13362	0.15006	-2.1437	-2.2146	-2.7	-2.3542	-2.3896	-2.8021	-2.4458	-2.5125	-2.5646	-2.1083	-2.5708	-2.3812	-2.3604	-2.7771	-2.2687	-2.5208	432.203	402.286	368.099	464.937	465.239	278.826	476.718	222.151	424.960	457.051	484.189	385.873	162.672	303.148	269.526	391.671	0.00046467	0.00025403	6.9353e-05	718.22	2.8318e-06	3.2667e-06	745.21	200.71	3.2358e-06	4.5092e-06	231.5	62.183	47.305	10.8	4.7189e-06	17.611	0.00014466	0.00013515	3.781e-05	716.71	1.5303e-06	1.5101e-06	737.46	199.22	1.5672e-06	1.5519e-06	230	61.344	46.888	10.996	1.5608e-06	17.828	481.482	206.071	288.483	152.485	227.303	219.680	151.812	156.824	325.217	327.643	155.488	160.105	160.842	166.489	286.461	164.187	-8191	255	
8825.943	1	1	0	0	0.1379	0.12216	0.074705	0.21964	0.2729	0.054794	0.32314	0.21365	0.15615	0.095621	0.22052	0.24979	0.02658	0.13805	0.12139	0.18803	-2.175	-2.2687	-2.6292	-2.7667	-2.3708	-2.6646	-2.325	-2.55	-2.7562	-2.2708	-2.8646	-2.4125	-2.2646	-2.7604	-2.2875	-2.5292	316.904	458.091	260.510	441.394	256.731	243.868	362.029	377.637	404.150	226.937	445.021	468.200	259.711	420.585	429.904	368.014	0.000522	0.00013706	0.00012041	728.91	1.0964e-06	2.7595e-06	743.96	201.38	3.0984e-06	1.7536e-06	232.38	62.41	47.259	10.923	2.1279e-06	17.892	0.00015523	0.00014237	4.0279e-05	720.71	1.5861e-06	1.5335e-06	736.22	199.26	1.5927e-06	1.5256e-06	230.24	61.63	47.02	11.058	1.5081e-06	17.972	484.926	273.349	270.834	152.343	290.779	205.877	151.424	156.686	274.451	364.788	155.912	160.338	161.598	166.274	278.662	164.391	-8191	255	
8826.039	1	1	0	0	0.29395	0.08854	0.24531	0.27686	0.018866	0.18626	0.078336	0.19565	0.16222	0.33489	0.22452	0.33149	0.41644	0.31573	0.32682	0.073598	-2.0563	-2.3667	-2.6354	-2.6625	-2.325	-2.7167	-2.4562	-2.3396	-2.575	-2.2583	-2.6917	-2.4521	-2.2125	-2.7833	-2.3646	-2.3271	420.674	369.262	222.096	155.200	161.877	495.933	345.718	460.368	251.808	435.858	377.494	441.485	197.701	481.649	213.077	172.433	0.00042296	0.00029999	0.00012327	727.07	3.6443e-06	2.6174e-06	747.47	201.4	2.2254e-06	3.3607e-06	231.67	61.773	47.032	11.097	2.8263e-06	17.837	0.00014513	0.00013629	3.715e-05	719.24	1.4924e-06	1.4764e-06	740.67	198.74	1.5032e-06	1.4513e-06	229.43	61.357	46.905	11.101	1.4564e-06	17.886	473.002	233.696	230.672	152.398	226.677	264.445	151.516	156.843	262.110	262.649	155.361	160.065	160.834	165.962	270.923	164.519	-8191	255	
8826.135	1	1	0	0	0.15806	0.19717	0.14792	0.1308	0.20107	0.15856	0.13132	0.096861	0.32602	0.17948	0.10221	0.10021	0.038633	0.25967	0.045039	0.12165	-2.2729	-2.1312	-2.5458	-2.7083	-2.3667	-2.6521	-2.4583	-2.3688	-2.6188	-2.3	-2.4521	-2.5604	-2.1146	-2.2792	-2.3875	-2.325	236.020	474.361	252.382	182.108	327.210	276.255	446.152	242.210	273.841	332.091	476.543	220.746	196.436	486.922	172.774	392.570	0.00041014	0.000254	4.9327e-05	724.2	1.7247e-06	2.5825e-06	744.67	200.12	6.7883e-06	2.9204e-06	231.66	62.248	47.253	11.016	2.4908e-06	17.923	0.00014441	0.00012964	3.7168e-05	716.37	1.4163e-06	1.4536e-06	734.52	198.02	1.4969e-06	1.4571e-06	228.78	61.468	47.002	11.087	1.4848e-06	17.972	476.695	198.740	213.566	152.246	295.676	237.134	151.737	156.925	288.972	318.227	155.357	160.239	161.099	166.611	222.507	164.647	-8191	255	
8826.231	1	1	0	0	0.085548	0.09249	0.16492	0.19333	0.25168	0.11147	0.14755	0.4055	0.14572	0.18512	0.022715	0.31498	0.090682	0.19796	0.17374	0.23684	-2.225	-2.2354	-2.3896	-2.7562	-2.1063	-2.6375	-2.5417	-2.2667	-2.8167	-2.3729	-2.5458	-2.6458	-2.1875	-2.5354	-2.3833	-2.3833	227.862	211.280	163.693	158.209	425.889	155.375	143.048	468.260	364.522	371.450	346.284	447.131	443.000	194.985	173.283	212.721	0.00045476	8.3504e-05	7.415e-05	722.71	1.7942e-06	1.9267e-06	740.14	201.66	2.1675e-06	2.1691e-06	231.67	62.469	47.333	10.987	3.4826e-06	17.936	0.00014655	0.00013645	3.9083e-05	718.16	1.5055e-06	1.4968e-06	737.31	199.03	1.5409e-06	1.5185e-06	229.72	61.67	47.034	11.095	1.5291e-06	17.969	479.112	202.668	229.082	152.335	230.442	246.259	151.617	156.840	310.074	246.260	155.626	160.149	161.038	166.251	294.384	164.729	-8191	255	
8826.350	1	1	0	0	0.10657	0.0077268	0.10003	0.23033	0.35552	0.034421	0.36667	0.13833	0.14887	0.29426	0.42983	0.15791	0.14802	0.12494	0.14572	0.057996	-2.1375	-2.3458	-2.2958	-2.6562	-2.1875	-2.7104	-2.5667	-2.2458	-2.6146	-2.3917	-2.4146	-2.6312	-2.2896	-2.5292	-2.5333	-2.1688	495.976	322.332	316.260	473.119	431.633	273.257	417.185	402.311	342.963	286.605	399.193	448.352	189.720	165.285	292.442	201.755	0.00041578	0.0003201	2.4817e-05	725.05	3.7171e-06	1.6302e-06	745.45	201.16	3.2895e-06	2.2483e-06	234.25	62.611	47.91	11.094	2.4133e-06	18.144	0.0001481	0.00013926	3.867e-05	719.9	1.5435e-06	1.5086e-06	739.34	198.95	1.5284e-06	1.5277e-06	231.57	62.22	47.515	11.205	1.5519e-06	18.283	482.119	241.272	289.327	152.295	267.923	226.162	151.653	156.648	271.531	299.935	155.475	160.302	161.002	165.855	269.436	164.915	-8191	255	
8826.446	1	1	0	0	0.20796	0.22596	0.17315	0.11004	0.26324	0.097105	0.32046	0.25761	0.14714	0.04555	0.098815	0.21983	0.0069905	0.25129	0.12574	0.12202	-2.0646	-2.3208	-2.025	-2.6479	-2.3771	-2.4146	-2.6688	-2.3	-2.825	-2.5771	-2.4062	-2.6813	-2.3	-2.3917	-2.6604	-2.2667	439.548	228.910	220.912	392.128	404.865	178.746	282.461	447.970	180.671	332.102	260.511	492.453	349.299	491.160	205.763	161.641	0.00051272	0.00017346	2.7714e-05	723.56	3.5186e-06	2.225e-06	752.62	201.86	3.735e-06	2.1438e-06	233.78	63.263	48.208	11.243	2.2483e-06	18.244	0.00014924	0.00013925	3.9254e-05	721.05	1.5632e-06	1.5022e-06	743.63	199.95	1.5666e-06	1.5144e-06	230.91	62.826	47.998	11.368	1.5247e-06	18.342	484.615	201.223	421.258	152.229	238.073	315.359	151.479	156.839	267.108	291.073	155.284	159.763	161.010	166.214	242.130	164.694	-8191	255	
8826.543	1	1	0	0	0.068339	0.1439	0.018765	0.076153	0.21818	0.11496	0.04735	0.095533	0.32128	0.0493	0.25696	0.13454	0.057466	0.26385	0.37137	0.25024	-2.2208	-2.2938	-2.1875	-2.725	-2.3354	-2.2958	-2.5604	-2.1708	-2.5708	-2.5375	-2.3083	-2.5896	-2.4729	-2.3646	-2.7125	-2.225	326.132	465.818	312.590	445.305	169.797	336.058	386.818	154.786	220.528	284.580	494.136	466.122	345.021	441.595	154.979	342.827	0.00045069	0.00025882	7.81e-05	726.11	1.5893e-06	2.1501e-06	744.69	201.06	4.2699e-06	1.6163e-06	232.29	63.45	48.123	11.217	2.8508e-06	18.025	0.00014962	0.00013538	3.9112e-05	719.97	1.5074e-06	1.4893e-06	738.3	199.24	1.5539e-06	1.4886e-06	229.54	62.318	47.629	11.265	1.5045e-06	18.091	486.246	261.985	257.589	152.437	262.146	299.215	151.881	156.616	253.260	341.295	155.716	160.241	161.209	166.510	236.700	164.574	-8191	255	
8826.639	1	1	0	0	0.15928	0.25009	0.20463	0.10287	0.17365	0.18972	0.3474	0.17286	0.077255	0.11539	0.16267	0.214	0.027296	0.20625	0.1479	0.16299	-2.0896	-2.4125	-2.1521	-2.7687	-2.3479	-2.3083	-2.8438	-2.2417	-2.5458	-2.6792	-2.4167	-2.7729	-2.4625	-2.2479	-2.7833	-2.225	166.449	146.810	367.210	407.927	497.684	144.120	408.897	449.709	436.877	167.246	241.013	216.053	183.991	162.224	472.936	317.348	0.00046806	0.00016821	7.4139e-05	725.58	2.3571e-06	8.7957e-07	746.27	200.48	2.4266e-06	1.4925e-06	234.12	63.051	48.16	11.295	2.5081e-06	18.152	0.00014627	0.00013885	3.8394e-05	719.89	1.5347e-06	1.5206e-06	740.55	199.49	1.5662e-06	1.5618e-06	232.26	62.559	47.776	11.33	1.5555e-06	18.364	475.506	350.620	229.887	152.246	230.961	345.561	151.497	156.805	342.213	373.911	155.325	159.910	160.969	166.244	250.980	164.973	-8191	255	
8826.735	1	1	0	0	0.17238	0.26923	0.34708	0.15591	0.095497	0.2589	0.13358	0.11209	0.087223	0.34491	0.12048	0.15506	0.1449	0.18464	0.22353	0.1331	-2.0521	-2.625	-2.2521	-2.7854	-2.5062	-2.3	-2.8167	-2.3708	-2.4708	-2.6312	-2.3333	-2.6583	-2.3958	-2.1896	-2.8833	-2.4104	435.021	412.978	350.102	472.255	182.302	221.769	402.191	417.465	208.246	230.692	409.751	142.179	438.459	362.975	405.236	347.915	0.00042137	0.00026363	8.0902e-05	732.22	2.5457e-06	7.8595e-07	753.79	202.4	4.9617e-06	4.9596e-07	235.43	64.034	48.989	11.34	1.7745e-06	18.433	0.00015622	0.00014701	4.0306e-05	724.74	1.6009e-06	1.5811e-06	746.33	201.48	1.661e-06	1.6225e-06	233.25	63.667	48.372	11.43	1.6101e-06	18.535	483.462	217.080	252.997	152.576	273.390	478.430	151.937	156.720	251.968	283.944	155.519	159.795	160.838	166.447	292.167	164.618	-8191	255	
8826.831	1	1	0	0	0.2894	0.30984	0.076033	0.1953	0.17682	0.31241	0.22538	0.19051	0.14166	0.090914	0.18742	0.24773	0.1432	0.041531	0.1421	0.13001	-1.8458	-2.6917	-2.1813	-2.6958	-2.5875	-2.2146	-2.8104	-2.5646	-2.2188	-2.6229	-2.3292	-2.4917	-2.6417	-2.1375	-2.6063	-2.4958	415.699	398.618	438.007	440.174	390.983	277.515	421.230	183.268	277.615	391.524	400.069	313.690	439.777	463.888	303.285	481.974	0.00048656	0.00016296	6.0484e-05	729.05	1.3774e-06	2.4985e-06	747.87	201.18	1.5096e-06	4.1268e-07	232.02	63.27	48.21	11.158	2.305e-06	17.971	0.00015513	0.00014571	4.0034e-05	723.49	1.5944e-06	1.5757e-06	741.39	199.5	1.6171e-06	1.5188e-06	230.32	62.54	47.762	11.254	1.5418e-06	18.203	473.781	256.654	200.184	152.402	210.684	311.708	151.621	156.772	275.825	265.136	155.238	160.336	160.846	166.436	325.779	164.836	-8191	255	
8826.927	1	1	0	0	0.313	0.17793	0.12775	0.28066	0.1687	0.052482	0.1574	0.22772	0.18366	0.15095	0.018387	0.23196	0.053898	0.33395	0.10989	0.13627	-2.0208	-2.8625	-2.3042	-2.6458	-2.4896	-2.1708	-2.6958	-2.5625	-2.2667	-2.7083	-2.4479	-2.5854	-2.6625	-2.2458	-2.675	-2.4917	433.849	240.138	260.999	485.684	367.084	225.803	169.044	488.734	199.577	392.849	273.495	481.803	333.660	175.902	168.745	170.533	0.00048206	0.00020056	4.5707e-05	726.26	3.4803e-06	7.31e-06	746.48	201.97	2.8856e-06	1.3174e-06	233.85	64.245	49.201	11.263	5.1842e-06	18.429	0.00014768	0.00013859	3.9292e-05	720.53	1.5594e-06	1.5132e-06	741.58	200.76	1.5858e-06	1.6157e-06	231.21	63.692	48.607	11.466	1.5921e-06	18.56	476.261	189.858	363.294	152.387	251.584	297.218	151.580	156.813	311.052	284.629	155.529	160.276	160.985	166.058	230.500	164.420	-8191	255	
8827.048	1	1	0	0	0.074486	0.14221	0.058322	0.21965	0.26287	0.17763	0.10587	0.30413	0.052843	0.060609	0.19719	0.092633	0.066448	0.39144	0.25289	0.28529	-2.0354	-2.7271	-2.3438	-2.4104	-2.8167	-2.3187	-2.8125	-2.5854	-2.2896	-2.5833	-2.4	-2.4667	-2.5708	-2.3187	-2.6458	-2.5229	468.914	411.110	437.507	460.986	171.884	259.979	186.227	140.369	184.903	401.777	473.918	473.248	203.254	148.690	369.932	138.985	0.00050788	6.5425e-05	1.8378e-05	728.65	3.6122e-06	9.5695e-07	748.67	202.54	3.9341e-06	8.2662e-07	231.87	64.237	48.825	11.418	9.2503e-07	18.426	0.00015195	0.00014007	3.988e-05	722.74	1.5441e-06	1.5512e-06	742.61	199.85	1.5591e-06	1.5406e-06	231.07	63.383	48.269	11.455	1.5719e-06	18.59	486.361	241.999	284.864	152.478	255.919	291.087	151.394	156.839	296.279	321.855	155.258	159.892	161.082	166.387	398.723	164.886	-8191	255	
8827.144	1	1	0	0	0.047642	0.1231	0.23011	0.114	0.10832	0.16478	0.24678	0.087718	0.10694	0.45198	0.19538	0.12557	0.068868	0.23706	0.12257	0.18854	-1.8062	-2.5708	-2.2146	-2.3708	-2.6208	-2.2146	-2.5187	-2.55	-2.1188	-2.6708	-2.5979	-2.5812	-2.8542	-2.1833	-2.4833	-2.6604	425.898	335.649	376.076	480.580	251.121	495.686	431.870	374.636	410.886	327.335	186.260	141.694	459.314	483.946	303.948	455.861	0.00044	0.00026306	1.4947e-05	728.44	2.9037e-06	2.4005e-06	753.76	202.04	4.5491e-06	4.1286e-06	235.24	65.487	49.719	11.513	1.3593e-06	18.802	0.00014788	0.0001388	3.9661e-05	723.73	1.6044e-06	1.5469e-06	748.22	200.9	1.5597e-06	1.5912e-06	234.05	64.756	48.883	11.605	1.6317e-06	18.874	474.127	206.688	480.870	152.349	233.319	294.956	151.775	156.560	282.391	310.829	155.362	160.051	161.023	166.040	226.356	164.784	-8191	255	
8827.240	1	1	0	0	0.18496	0.15803	0.11761	0.11975	0.10288	0.11898	0.30777	0.1739	0.21202	0.1433	0.18351	0.1339	0.11106	0.061089	0.22341	0.44034	-1.9125	-2.5938	-2.4479	-2.3187	-2.8563	-2.4229	-2.4271	-2.5542	-2.3417	-2.5062	-2.6083	-2.3083	-2.8771	-2.4208	-2.3896	-2.6208	178.467	269.844	169.461	225.097	208.486	183.450	456.400	398.668	316.450	296.839	440.642	433.932	314.591	281.137	375.391	386.809	0.00041454	0.00022266	4.8413e-05	730.32	3.4785e-06	1.5085e-06	749.54	202.22	5.9116e-06	4.0687e-06	232.25	63.205	48.371	11.14	1.846e-06	18.091	0.00015543	0.00014731	4.1887e-05	725.95	1.6533e-06	1.6031e-06	743.74	200.76	1.627e-06	1.6169e-06	230.52	62.666	47.94	11.267	1.6071e-06	18.126	478.064	267.958	163.222	152.275	236.550	257.240	151.726	156.794	271.968	280.684	155.431	159.880	160.792	166.164	333.849	164.279	-8191	255	
8827.336	1	1	0	0	0.28099	0.19136	0.11466	0.15788	0.075046	0.17677	0.16421	0.38146	0.22606	0.2359	0.21538	0.252	0.06051	0.15976	0.12748	0.17835	-2.0062	-2.5062	-2.4854	-2.4021	-2.6312	-2.4104	-2.7583	-2.6333	-2.4833	-2.6333	-2.5438	-2.2458	-2.6312	-2.5333	-2.3604	-2.5667	452.938	409.196	183.133	446.618	231.047	187.118	377.885	157.667	271.207	225.598	385.901	484.143	369.495	462.624	396.179	428.387	0.00045409	0.00018389	7.7713e-05	725.4	3.1721e-06	1.5251e-06	745.86	201.82	2.9825e-06	3.106e-06	232.78	64.026	48.832	11.293	2.9247e-06	18.383	0.00015437	0.00014414	4.0725e-05	719.28	1.5925e-06	1.5899e-06	739.35	199.71	1.6189e-06	1.592e-06	230.7	63.14	48.336	11.452	1.6524e-06	18.527	479.884	292.424	213.677	152.122	276.645	400.794	151.546	156.764	235.014	268.661	155.739	159.840	160.653	166.232	250.464	164.474	-8191	255	
#DATA ENDS
