BOXY.EXE: ISS Imagent and Oximeter Data Acquisition Program Version 0.80
Ascii Record File

#ACQ INFORMATION
2  Detector Channels 
16  External MUX Channels 
1  Auxiliary Channels 
5000  Waveform (CCF) Frequency (Hz)
1  Waveforms Skipped 
30  Waveforms Averaged 
1  Cycles Averaged 
16  Acquisitions per Waveform 
10.0806  Updata Rate (Hz) 

#FILE INFORMATION
TRUE -- External MUX Channel results are PARSED.
FALSE -- AC DC and Phase are NOT grouped.
TRUE -- Companion Program Settings File CREATED.
FALSE -- AC data not excluded
FALSE -- DC data not excluded
FALSE -- Phase data not excluded
FALSE -- Auxillary Chn. data not excluded
Tab delimiters

#CALIBRATION STATE
TRUE -- Waveform Calibration Values APPLIED.


#AUX CALIBRATION VALUES
Val Type	aux-1	

Term	1.0000e+00	
Factor	0.0000e+00	


#WF CALIBRATION VALUES
A = Detector Channel
Val Type	A-AC1	A-AC2	A-AC3	A-AC4	A-AC5	A-AC6	A-AC7	A-AC8	A-AC9	A-AC10	A-AC11	A-AC12	A-AC13	A-AC14	A-AC15	A-AC16	A-DC1	A-DC2	A-DC3	A-DC4	A-DC5	A-DC6	A-DC7	A-DC8	A-DC9	A-DC10	A-DC11	A-DC12	A-DC13	A-DC14	A-DC15	A-DC16	A-Ph1	A-Ph2	A-Ph3	A-Ph4	A-Ph5	A-Ph6	A-Ph7	A-Ph8	A-Ph9	A-Ph10	A-Ph11	A-Ph12	A-Ph13	A-Ph14	A-Ph15	A-Ph16	

Term	0.00000e+00	0.00000e+00	0.00000e+00	0.00000e+00	0.00000e+00	0.00000e+00	0.00000e+00	0.00000e+00	0.00000e+00	0.00000e+00	0.00000e+00	0.00000e+00	0.00000e+00	0.00000e+00	0.00000e+00	0.00000e+00	0.00000e+00	0.00000e+00	0.00000e+00	0.00000e+00	0.00000e+00	0.00000e+00	0.00000e+00	0.00000e+00	0.00000e+00	0.00000e+00	0.00000e+00	0.00000e+00	0.00000e+00	0.00000e+00	0.00000e+00	0.00000e+00	0.00000e+00	0.00000e+00	0.00000e+00	0.00000e+00	0.00000e+00	0.00000e+00	0.00000e+00	0.00000e+00	0.00000e+00	0.00000e+00	0.00000e+00	0.00000e+00	0.00000e+00	0.00000e+00	0.00000e+00	0.00000e+00	
Factor	1.00000e+00	1.00000e+00	1.00000e+00	1.00000e+00	1.00000e+00	1.00000e+00	1.00000e+00	1.00000e+00	1.00000e+00	1.00000e+00	1.00000e+00	1.00000e+00	1.00000e+00	1.00000e+00	1.00000e+00	1.00000e+00	1.00000e+00	1.00000e+00	1.00000e+00	1.00000e+00	1.00000e+00	1.00000e+00	1.00000e+00	1.00000e+00	1.00000e+00	1.00000e+00	1.00000e+00	1.00000e+00	1.00000e+00	1.00000e+00	1.00000e+00	1.00000e+00	X	X	X	X	X	X	X	X	X	X	X	X	X	X	X	X	

B = Detector Channel
Val Type	B-AC1	B-AC2	B-AC3	B-AC4	B-AC5	B-AC6	B-AC7	B-AC8	B-AC9	B-AC10	B-AC11	B-AC12	B-AC13	B-AC14	B-AC15	B-AC16	B-DC1	B-DC2	B-DC3	B-DC4	B-DC5	B-DC6	B-DC7	B-DC8	B-DC9	B-DC10	B-DC11	B-DC12	B-DC13	B-DC14	B-DC15	B-DC16	B-Ph1	B-Ph2	B-Ph3	B-Ph4	B-Ph5	B-Ph6	B-Ph7	B-Ph8	B-Ph9	B-Ph10	B-Ph11	B-Ph12	B-Ph13	B-Ph14	B-Ph15	B-Ph16	

Term	0.00000e+00	0.00000e+00	0.00000e+00	0.00000e+00	0.00000e+00	0.00000e+00	0.00000e+00	0.00000e+00	0.00000e+00	0.00000e+00	0.00000e+00	0.00000e+00	0.00000e+00	0.00000e+00	0.00000e+00	0.00000e+00	0.00000e+00	0.00000e+00	0.00000e+00	0.00000e+00	0.00000e+00	0.00000e+00	0.00000e+00	0.00000e+00	0.00000e+00	0.00000e+00	0.00000e+00	0.00000e+00	0.00000e+00	0.00000e+00	0.00000e+00	0.00000e+00	-1.23726e+02	-1.39918e+02	-1.78938e+02	-1.81413e+02	-3.50059e+01	-7.24347e+01	-1.57789e+02	-1.62015e+02	-7.41590e+01	-9.50557e+01	-1.80411e+02	-1.70917e+02	-1.81322e+02	-1.76271e+02	-8.71251e+01	-1.49364e+02	
Factor	1.81544e-05	1.23178e-04	2.51159e-05	1.85326e-01	8.05980e-07	9.73926e-07	1.72092e-01	5.34215e-02	8.30615e-07	1.09759e-06	1.07935e-01	3.07122e-02	2.47813e-02	9.40291e-03	9.68748e-07	1.38253e-02	5.41759e-07	5.53856e-07	1.53778e-07	8.86287e-02	6.03997e-09	6.06804e-09	7.82073e-02	2.56647e-02	6.05508e-09	6.07195e-09	4.76290e-02	1.39290e-02	1.17526e-02	4.39035e-03	6.05682e-09	6.14778e-03	X	X	X	X	X	X	X	X	X	X	X	X	X	X	X	X	



#DISTANCE SETTINGS
A = Detector Channel
A-1	A-2	A-3	A-4	A-5	A-6	A-7	A-8	A-9	A-10	A-11	A-12	A-13	A-14	A-15	A-16	

2.5000e+00	3.0000e+00	2.5000e+00	3.0000e+00	2.0000e+00	3.0000e+00	1.5000e+00	3.0000e+00	3.0000e+00	3.0000e+00	3.0000e+00	3.0000e+00	3.0000e+00	3.0000e+00	1.5000e+00	3.0000e+00	

B = Detector Channel
B-1	B-2	B-3	B-4	B-5	B-6	B-7	B-8	B-9	B-10	B-11	B-12	B-13	B-14	B-15	B-16	

1.0000e+01	1.0000e+01	1.0000e+01	1.4400e+00	1.0000e+01	1.0000e+01	1.5100e+00	1.9400e+00	1.0000e+01	1.0000e+01	1.9900e+00	2.4900e+00	2.4100e+00	2.9000e+00	1.0000e+01	2.9800e+00	




#DATA BEGINS
time	group	step	mark	flag	A-AC1	A-AC2	A-AC3	A-AC4	A-AC5	A-AC6	A-AC7	A-AC8	A-AC9	A-AC10	A-AC11	A-AC12	A-AC13	A-AC14	A-AC15	A-AC16	A-DC1	A-DC2	A-DC3	A-DC4	A-DC5	A-DC6	A-DC7	A-DC8	A-DC9	A-DC10	A-DC11	A-DC12	A-DC13	A-DC14	A-DC15	A-DC16	A-Ph1	A-Ph2	A-Ph3	A-Ph4	A-Ph5	A-Ph6	A-Ph7	A-Ph8	A-Ph9	A-Ph10	A-Ph11	A-Ph12	A-Ph13	A-Ph14	A-Ph15	A-Ph16	B-AC1	B-AC2	B-AC3	B-AC4	B-AC5	B-AC6	B-AC7	B-AC8	B-AC9	B-AC10	B-AC11	B-AC12	B-AC13	B-AC14	B-AC15	B-AC16	B-DC1	B-DC2	B-DC3	B-DC4	B-DC5	B-DC6	B-DC7	B-DC8	B-DC9	B-DC10	B-DC11	B-DC12	B-DC13	B-DC14	B-DC15	B-DC16	B-Ph1	B-Ph2	B-Ph3	B-Ph4	B-Ph5	B-Ph6	B-Ph7	B-Ph8	B-Ph9	B-Ph10	B-Ph11	B-Ph12	B-Ph13	B-Ph14	B-Ph15	B-Ph16	aux-1	digaux	

2918.422	1	1	0	256	0.1439	0.19095	0.12322	0.084838	0.075394	0.10645	0.084286	0.28327	0.11465	0.28321	0.12038	0.191	0.37158	0.099191	0.16756	0.071461	-1.9042	-2.425	-2.8854	-2.1667	-2.6083	-2.8604	-2.4271	-2.8646	-2.7417	-2.3563	-2.9938	-2.1937	-2.6333	-2.7646	-2.1167	-2.9813	177.984	-82.557	266.942	165.534	103.092	156.833	-48.607	-31.415	-66.737	-10.552	155.323	177.013	-39.628	-51.997	16.460	247.197	0.00031909	0.00066375	0.00027992	370.24	5.0723e-06	6.9443e-06	349.67	125.49	8.8629e-07	8.6637e-06	151.62	70.573	55.868	27.697	7.1282e-06	39.935	0.00089379	0.00091391	0.00023766	459.94	9.813e-06	9.8557e-06	434.98	148.69	9.8577e-06	9.5331e-06	197.64	81.947	67.896	30.851	8.7094e-06	42.895	212.160	20.221	-49.965	-70.169	253.620	-14.528	-70.527	-65.263	270.561	-23.157	-67.019	-63.293	-60.773	-56.339	98.410	-59.149	-8191	255	
2918.518	1	1	0	0	0.21963	0.067668	0.060174	0.20481	0.0843	0.16412	0.15908	0.33411	0.10773	0.076793	0.065219	0.054667	0.14907	0.34125	0.07388	0.13078	-2.0687	-2.5104	-2.8375	-2.4313	-2.475	-3.2375	-2.1063	-2.9458	-2.6188	-2.4083	-2.8917	-2.4625	-2.4229	-2.9854	-2.2521	-2.8333	-13.655	58.848	93.188	-15.936	101.813	54.796	140.357	190.349	-78.764	127.272	177.428	140.347	-33.610	257.806	-36.961	224.776	0.000164	0.00070203	0.00015415	374.73	1.7836e-06	9.3075e-06	357.33	127.9	5.6762e-06	5.2337e-06	153.6	71.664	56.679	27.828	6.6408e-06	40.524	0.00086787	0.00083407	0.00021842	458.66	9.5508e-06	9.1109e-06	429.07	150.61	9.4859e-06	8.8294e-06	194.6	82.691	67.33	30.486	8.0439e-06	43.354	148.676	-27.414	247.763	-70.049	194.514	86.051	-70.816	-65.133	238.698	-70.080	-66.997	-63.251	-61.505	-55.994	-35.665	-59.423	-8191	255	
2918.614	1	1	0	0	0.21198	0.04817	0.015268	0.25152	0.24658	0.12234	0.079312	0.1748	0.29415	0.21915	0.22855	0.32802	0.19649	0.25231	0.24526	0.28976	-2.2396	-2.1625	-3.1833	-2.4083	-2.3958	-3.0896	-2.3104	-2.6896	-2.875	-2.3312	-2.9646	-2.5792	-2.4354	-3.1167	-2.375	-2.8396	158.818	-19.038	-62.339	141.762	-74.384	149.341	97.412	50.731	96.260	148.016	28.314	231.093	125.307	155.376	196.663	216.966	0.00015204	0.00017963	0.00015665	375.27	5.7817e-06	6.7072e-06	362.84	129.85	2.3666e-06	5.9423e-06	157.66	73.722	57.376	28.353	2.6482e-06	41.359	0.00082377	0.00076942	0.00019937	461.36	8.9123e-06	8.2862e-06	428.74	152.9	8.7481e-06	8.1805e-06	194.29	84.289	67.039	30.395	7.5495e-06	43.876	177.972	76.718	-31.712	-70.541	93.957	25.715	-70.931	-65.103	136.677	105.962	-66.891	-63.090	-61.230	-56.402	264.795	-59.358	-8191	255	
2918.735	1	1	0	0	0.13256	0.085925	0.19114	0.080791	0.021677	0.27363	0.18906	0.2231	0.086217	0.023921	0.19714	0.0092373	0.13149	0.19845	0.19963	0.31965	-2.4688	-2.0396	-2.7396	-2.3667	-2.2438	-2.9625	-2.2729	-2.4562	-2.9458	-2.1708	-2.8854	-2.8104	-2.2792	-2.9313	-2.4813	-2.6063	226.288	172.785	144.089	173.263	112.171	133.139	122.101	176.016	-4.102	207.412	-45.522	13.681	246.210	225.116	264.542	133.959	0.00011479	0.00057685	0.00013924	382.88	1.1232e-05	9.6667e-06	365.15	134.02	6.05e-06	9.9466e-06	161.64	75.221	58.849	28.792	6.7314e-06	42.375	0.00074491	0.00070537	0.00018542	462.03	7.8599e-06	7.3864e-06	425.41	153.32	7.6035e-06	7.0733e-06	192.44	83.913	65.66	29.934	6.9474e-06	43.915	271.065	143.756	-28.006	-70.153	133.293	103.771	-70.994	-65.057	39.420	96.236	-67.209	-63.607	-61.179	-56.064	200.338	-59.242	-8191	255	
2918.806	1	1	0	0	0.056205	0.34221	0.17174	0.15509	0.35888	0.16022	0.14951	0.21251	0.3394	0.29108	0.16519	0.070228	0.041103	0.17832	0.10104	0.16813	-2.3812	-2.0958	-2.8625	-2.6896	-2.2062	-2.9604	-2.4833	-2.7708	-2.9333	-2.3271	-2.8312	-2.6771	-2.4813	-2.9313	-2.6354	-2.6125	57.547	-17.878	-22.049	238.695	45.254	233.695	133.400	123.503	91.011	138.071	-75.745	-80.445	211.900	116.881	-56.836	223.760	0.00010841	0.00088242	1.5224e-05	383.39	6.9603e-06	7.4546e-06	375.95	134.35	7.962e-06	1.5189e-05	163.24	76.259	58.822	28.742	8.3503e-06	42.476	0.00064043	0.00061057	0.00017393	453.71	7.0609e-06	6.6522e-06	429.58	152.93	7.0325e-06	6.5847e-06	194.46	83.339	65.145	29.584	6.9884e-06	43.499	199.989	-57.165	36.187	-70.528	120.718	63.531	-70.866	-65.036	33.146	18.113	-66.965	-63.313	-60.867	-56.206	181.955	-59.419	-8191	255	
2918.903	1	1	0	0	0.20473	0.31855	0.2032	0.092973	0.070959	0.20439	0.068594	0.22918	0.18276	0.22598	0.27218	0.19701	0.065673	0.22685	0.14704	0.10896	-2.5417	-2.3604	-2.7792	-2.8	-2.225	-2.9792	-2.6104	-2.4958	-3.0354	-2.5792	-2.6125	-2.8667	-2.3729	-3.0417	-2.5708	-2.7167	184.909	266.014	260.926	260.307	155.663	129.103	272.257	226.557	106.891	221.884	238.840	133.231	235.139	10.611	-74.089	255.543	3.0987e-05	0.000172	0.00022434	392.47	7.4958e-06	5.885e-06	380.6	137.16	6.3414e-06	2.7585e-06	165.74	76.542	59.788	28.814	5.7434e-06	42.741	0.00061101	0.00058083	0.00017927	452.23	6.5909e-06	6.2236e-06	432.62	151.83	6.5093e-06	6.2147e-06	195.9	82.531	64.709	29.502	6.9621e-06	43.207	-79.611	228.969	14.211	-69.722	66.030	73.808	-70.745	-65.393	-45.272	36.961	-67.583	-63.002	-61.291	-56.023	199.035	-59.082	-8191	255	
2918.999	1	1	0	0	0.056578	0.20124	0.23078	0.097181	0.10603	0.088167	0.12105	0.32021	0.08762	0.1272	0.15802	0.19215	0.26565	0.17384	0.088835	0.26331	-2.5917	-2.3563	-2.6667	-2.8979	-2.3146	-3.0042	-2.5375	-2.4104	-3.1396	-2.4896	-2.7958	-2.875	-2.2771	-2.7729	-2.8208	-2.4437	268.772	-36.792	205.291	165.222	41.058	11.204	-80.199	235.725	-30.481	112.046	245.295	-67.069	11.384	163.160	259.526	219.096	0.0001326	0.001181	0.0001171	394.61	4.5319e-06	1.0554e-05	384.12	138.53	2.0736e-06	9.4973e-06	167.81	76.65	59.747	28.609	5.2723e-06	42.62	0.00057455	0.00057261	0.00017914	448.2	6.2919e-06	6.3299e-06	436.01	151.07	6.1479e-06	6.4224e-06	197.44	82.15	64.463	29.786	7.224e-06	43.24	225.093	218.531	164.736	-70.280	194.480	190.705	-70.583	-64.889	150.246	148.985	-67.334	-62.976	-61.176	-56.149	-23.310	-59.150	-8191	255	
2919.118	1	1	0	0	0.14996	0.088255	0.25021	0.4033	0.18517	0.02074	0.064392	0.085474	0.05399	0.24066	0.17635	0.065023	0.27981	0.24398	0.17615	0.18894	-2.3854	-2.4854	-2.4604	-3.05	-2.4562	-2.7479	-2.7167	-2.0854	-2.8563	-2.6167	-2.5729	-3.0271	-2.4542	-2.6833	-2.7875	-2.1333	-45.367	1.614	-11.147	72.522	129.118	-80.430	-1.895	126.271	-20.035	96.666	251.449	188.407	-49.527	187.855	270.197	271.545	7.1278e-05	0.0009279	0.00034739	390.81	1.2295e-06	3.388e-06	380.94	136.95	3.9542e-06	1.1792e-05	167.21	77.022	59.308	28.986	8.0764e-06	42.847	0.00057523	0.00062921	0.00018655	448.56	6.4377e-06	7.0076e-06	438	152.12	6.3998e-06	7.1082e-06	198.19	82.7	64.475	30.19	7.1366e-06	43.19	177.239	28.250	-64.154	-70.293	-67.341	74.628	-70.700	-64.957	111.941	182.312	-66.876	-62.959	-60.898	-55.756	263.527	-59.290	-8191	255	
2919.214	1	1	0	0	0.19309	0.22666	0.098007	0.29768	0.21489	0.15279	0.20182	0.089123	0.083046	0.13358	0.10335	0.11854	0.12316	0.08176	0.15427	0.11615	-2.4917	-2.4729	-2.4021	-2.9625	-2.2396	-2.7208	-2.975	-2.1667	-3.0146	-2.5687	-2.5729	-3.1146	-2.2604	-2.7188	-2.85	-2.2875	126.018	-46.116	108.081	-52.452	276.640	47.359	144.884	250.244	-1.526	168.402	169.852	239.670	171.518	68.244	262.831	209.483	0.00028085	4.3335e-05	0.00024981	388.71	6.5212e-06	5.8891e-06	379.17	135.47	5.1441e-06	1.0172e-05	163.99	75.259	58.912	28.163	1.3456e-05	41.64	0.00057391	0.0006618	0.00018321	446.02	6.6894e-06	7.6894e-06	437.74	152.49	7.1607e-06	8.2701e-06	201.1	83.188	66.352	30.974	8.3158e-06	43.526	206.494	115.769	269.453	-70.395	139.516	170.415	-70.589	-65.283	-42.969	143.038	-67.557	-63.090	-61.357	-56.058	0.353	-59.239	-8191	255	
2919.310	1	1	0	0	0.23435	0.25291	0.1578	0.039474	0.28593	0.19618	0.031481	0.075033	0.26636	0.31273	0.17056	0.2165	0.22239	0.23783	0.13383	0.15412	-2.5458	-2.6688	-2.2792	-3.0667	-2.3896	-2.6292	-2.8042	-2.1917	-2.7438	-2.5438	-2.5062	-2.925	-2.475	-2.5563	-2.9979	-2.3271	132.717	133.477	219.042	257.827	-64.501	18.448	39.800	159.014	82.275	6.308	100.867	185.622	4.869	54.649	-5.930	155.496	0.00026641	0.00094009	0.00018692	384.7	6.5582e-06	5.4306e-06	368.85	131.37	2.9731e-06	7.6886e-06	157.79	73.44	57.173	28.087	6.5514e-06	40.913	0.00071203	0.00080696	0.00020953	453.97	8.0243e-06	8.9179e-06	439.55	151.63	8.3024e-06	9.1106e-06	201.19	82.634	67.181	31.098	8.6033e-06	43.278	166.651	19.953	254.310	-70.145	171.070	73.680	-71.489	-64.954	89.020	102.320	-67.687	-63.391	-60.848	-56.516	78.948	-59.347	-8191	255	
2919.406	1	1	0	0	0.071431	0.051367	0.081091	0.24351	0.20627	0.091829	0.16487	0.01869	0.16657	0.11484	0.10758	0.16231	0.21194	0.065884	0.059954	0.12164	-2.3875	-2.7396	-2.2208	-2.8333	-2.4271	-2.4792	-3.1042	-2.4458	-2.6604	-2.6667	-2.3688	-2.9188	-2.8229	-2.3854	-3.0667	-2.5687	241.436	263.769	-49.325	266.544	-49.589	-44.824	-8.057	72.326	139.939	127.357	187.938	273.857	232.829	-53.164	-6.253	156.052	0.00012525	0.0013646	0.00015982	379.26	9.1262e-06	1.2854e-05	363.85	130.16	9.2037e-06	4.4866e-06	158.76	73.216	57.452	28.07	4.9276e-06	40.671	0.00080014	0.00085372	0.00022074	455.93	9.0542e-06	9.2406e-06	438.75	151.69	9.1686e-06	9.1989e-06	201.04	82.886	68.243	31.03	8.6207e-06	43.51	179.386	-9.865	-31.278	-70.316	252.162	43.370	-70.833	-65.338	225.085	10.577	-66.854	-63.152	-60.979	-56.217	-53.462	-59.394	-8191	255	
2919.502	1	1	0	0	0.27824	0.037768	0.23052	0.14434	0.20047	0.070545	0.078301	0.11021	0.084141	0.085515	0.092169	0.17297	0.15902	0.04634	0.028054	0.098068	-2.2354	-2.9	-2.3229	-2.8896	-2.7646	-2.5021	-2.8479	-2.4062	-2.6521	-2.9958	-2.3292	-2.9125	-2.4979	-2.3937	-3.0479	-2.6521	99.785	204.385	39.097	163.679	133.879	57.577	141.028	-83.167	-71.842	268.202	238.985	110.138	236.430	-36.514	98.223	-42.404	0.0002294	0.0011571	0.00037864	374.97	4.4824e-06	6.2546e-06	359.38	129.65	1.1979e-05	7.6568e-06	154.24	73.162	56.895	27.881	7.9082e-06	40.947	0.00085799	0.0008461	0.00022141	457.4	9.7371e-06	9.271e-06	434.42	152.37	9.6086e-06	9.1121e-06	199.08	83.519	68.38	30.845	8.2319e-06	43.572	178.148	-25.526	227.217	-70.096	89.034	28.496	-70.842	-65.242	216.780	8.415	-67.233	-63.645	-60.895	-56.248	35.391	-59.149	-8191	255	
2919.598	1	1	0	0	0.25791	0.14291	0.36533	0.12549	0.074635	0.20309	0.10372	0.04499	0.2259	0.20561	0.13991	0.018195	0.16317	0.19433	0.1043	0.020608	-2.0708	-2.8521	-2.2896	-2.8937	-2.7062	-2.3146	-2.9542	-2.3771	-2.4604	-2.85	-2.2583	-2.6688	-2.6604	-2.4396	-2.7917	-2.5187	266.149	234.127	195.330	62.042	-41.570	-22.998	268.518	99.039	87.285	205.584	-69.805	221.492	269.249	212.517	42.210	21.572	0.0002393	0.0013158	0.00026356	371.23	3.4582e-06	8.3904e-06	357.73	128.04	5.6838e-06	3.1154e-06	154.6	71.693	56.192	27.574	8.5036e-06	40.01	0.00083628	0.00079839	0.00020863	459.27	9.3782e-06	8.8325e-06	426.51	152.8	9.5363e-06	9.0695e-06	197.8	84.666	68.266	30.712	8.6783e-06	44.22	106.370	-61.393	245.644	-70.180	56.164	59.226	-71.199	-65.458	38.942	37.873	-67.444	-63.553	-60.880	-56.385	180.376	-59.327	-8191	255	
2919.719	1	1	0	0	0.064907	0.13714	0.22897	0.092007	0.27443	0.16847	0.33987	0.080224	0.1648	0.19831	0.19854	0.17378	0.26995	0.080965	0.14689	0.082208	-2.2208	-2.8896	-2.3792	-2.9104	-2.8979	-2.3104	-3.0021	-2.4938	-2.3292	-3.0646	-2.1771	-2.7	-2.9313	-2.4479	-2.8875	-2.7479	-28.307	63.862	160.027	68.353	94.164	-12.679	171.284	33.048	12.125	224.262	252.595	157.559	207.579	59.404	141.112	156.427	0.00019035	0.0016682	0.0002304	371.32	5.8804e-07	3.426e-06	355.04	126.3	5.8253e-06	2.1815e-06	150.93	70.779	55.319	27.48	4.7457e-06	39.865	0.00087766	0.0008343	0.00021985	471.22	9.5636e-06	8.9216e-06	428.95	154.86	9.3692e-06	8.8594e-06	196.96	84.891	67.374	30.403	8.8581e-06	44.204	219.288	-58.866	134.562	-70.230	178.187	230.153	-70.937	-65.192	88.915	184.155	-66.197	-63.052	-61.185	-56.215	-21.499	-59.503	-8191	255	
2919.815	1	1	0	0	0.22791	0.18077	0.15935	0.068965	0.03662	0.16431	0.031958	0.25837	0.31258	0.29069	0.24898	0.20701	0.16091	0.079163	0.33467	0.27583	-2.0896	-2.975	-2.2917	-2.5896	-2.8	-2.1333	-2.9167	-2.5854	-2.4771	-2.9125	-2.3229	-2.5312	-2.7604	-2.4062	-2.9479	-2.6875	104.812	128.524	48.053	-48.041	241.055	10.701	150.867	-70.975	222.781	76.896	190.273	113.565	-64.691	71.313	-38.503	202.574	3.6149e-05	0.00066552	0.00029281	372.72	3.2491e-06	6.3269e-06	345.68	124.7	7.2209e-06	3.0663e-06	149.29	70.097	54.996	27.258	6.8585e-06	39.5	0.00085184	0.00081601	0.00022993	475.89	9.5912e-06	9.064e-06	433.07	155.52	9.6637e-06	9.0579e-06	201.14	84.709	66.611	30.151	9.2144e-06	43.735	53.608	30.337	115.297	-70.039	37.356	-16.035	-71.178	-64.931	41.689	-3.071	-67.118	-63.679	-61.024	-56.188	57.328	-59.672	-8191	255	
2919.911	1	1	0	0	0.19987	0.093901	0.090286	0.20583	0.27019	0.10633	0.051053	0.040487	0.27519	0.18031	0.14152	0.25557	0.21979	0.060067	0.13386	0.10289	-1.8563	-2.9479	-2.3625	-2.4042	-2.9021	-2.1833	-2.7521	-2.6021	-2.4042	-2.7229	-2.3208	-2.4021	-2.8771	-2.4313	-2.6375	-2.7562	271.993	201.012	-67.272	132.244	242.067	83.250	126.959	175.222	138.341	-80.236	259.767	113.025	273.141	156.936	-37.494	36.619	0.00010774	0.00094523	0.00030819	366.56	6.5199e-06	9.1826e-06	345.78	125.24	9.2934e-06	1.0597e-05	148.68	70.424	55.396	27.392	1.0382e-05	39.671	0.0008118	0.00076795	0.0002324	462.43	8.8636e-06	8.4053e-06	433.19	152.01	9.0282e-06	8.495e-06	201.76	83.6	65.985	30.262	9.8928e-06	43.914	177.098	154.991	104.069	-70.290	140.807	72.535	-71.097	-65.573	-11.717	89.710	-67.220	-63.392	-60.862	-56.261	243.140	-59.510	-8191	255	
2920.007	1	1	0	0	0.29783	0.17147	0.12939	0.17411	0.049338	0.19033	0.11819	0.10801	0.21359	0.079083	0.22556	0.22629	0.30142	0.13838	0.12289	0.16563	-1.8729	-2.7958	-2.3917	-2.4271	-2.9271	-2.2938	-2.8042	-2.8854	-2.1083	-2.7771	-2.6333	-2.5396	-3.1625	-2.1562	-2.6042	-2.8875	95.701	226.606	111.619	240.030	26.247	-40.220	-27.555	-53.825	58.896	-62.214	36.952	207.730	-58.736	-75.191	-30.278	74.674	0.00016639	0.0015229	4.4456e-05	367.04	3.9946e-06	1.1776e-05	347.25	123.97	6.8732e-06	1.1356e-05	148.38	70.182	54.907	27.418	7.486e-06	39.773	0.00083819	0.00081849	0.0002613	470.28	9.2932e-06	9.238e-06	445.3	152.61	9.2616e-06	9.1806e-06	205.88	83.588	65.576	30.452	9.9932e-06	43.171	234.076	116.527	135.034	-70.399	186.923	240.668	-70.983	-65.168	67.221	204.828	-66.948	-63.325	-61.079	-56.391	188.447	-59.411	-8191	255	
2920.102	1	1	0	0	0.080077	0.036504	0.14788	0.33221	0.28691	0.25768	0.056687	0.18747	0.1878	0.24633	0.18708	0.14002	0.39862	0.24524	0.24588	0.17852	-1.6208	-2.7062	-2.6562	-2.3771	-2.7792	-2.5396	-2.4271	-2.8625	-2.1896	-3.1042	-2.75	-2.5396	-2.9479	-2.4625	-2.5229	-3.025	27.081	249.361	117.386	154.655	128.521	223.549	-56.854	7.726	-59.519	46.469	128.710	-24.845	234.433	-39.315	270.806	32.694	0.00017306	0.00056509	0.00014022	360.7	2.1069e-06	5.8898e-06	344.86	122.13	7.3269e-06	9.0122e-06	147.1	70.247	55.38	27.201	5.804e-06	39.581	0.00078554	0.00083185	0.00025226	456.9	8.6612e-06	9.2567e-06	436.12	148.58	8.7151e-06	9.3716e-06	203.64	82.508	64.953	30.691	9.6559e-06	42.804	194.535	-12.790	256.415	-69.993	266.847	98.388	-71.211	-65.025	115.615	106.693	-67.129	-62.832	-61.376	-55.991	-36.330	-59.570	-8191	255	
2920.198	1	1	0	0	0.032487	0.21094	0.10873	0.10224	0.063136	0.22358	0.26367	0.12858	0.057898	0.28182	0.25717	0.20839	0.050535	0.15854	0.071422	0.11843	-2.0729	-2.8542	-2.8104	-2.3854	-2.8958	-2.6854	-2.4729	-3.0917	-2.2896	-2.7958	-2.9354	-2.2833	-2.9167	-2.7042	-2.475	-3.0521	194.849	259.916	-34.186	248.363	166.490	-21.513	261.161	62.499	-80.024	153.848	157.298	170.104	-29.477	247.219	31.261	192.250	7.6776e-05	0.0015527	0.00027819	363.45	2.7421e-06	6.6101e-06	345.89	124.43	5.1334e-06	2.4689e-05	150.08	70.982	54.647	27.143	9.0151e-06	39.282	0.00076359	0.00086527	0.00024369	456.84	8.5492e-06	9.7964e-06	437.32	149.67	8.7633e-06	9.9418e-06	203.79	82.757	65.686	31.257	9.7638e-06	42.748	103.312	92.765	-62.327	-70.598	165.773	135.375	-71.365	-64.837	184.124	159.523	-67.592	-63.233	-61.077	-56.475	-42.972	-59.219	-8191	255	
2920.294	1	1	0	0	0.048356	0.29225	0.19215	0.10078	0.024836	0.068483	0.28527	0.051455	0.17121	0.17033	0.14634	0.10323	0.15299	0.11844	0.20245	0.36459	-1.8896	-2.5687	-2.8042	-2.3021	-3.0521	-2.7708	-2.35	-3.0938	-2.2521	-2.65	-2.9271	-2.2667	-2.8896	-2.5667	-2.3083	-2.8354	-24.856	-27.393	96.268	-19.233	62.518	190.208	268.345	-26.451	14.259	101.433	186.054	194.241	135.189	223.565	128.830	209.375	4.5418e-05	0.00076335	7.0294e-05	365.29	6.9881e-06	5.3853e-06	343.28	122.62	7.4103e-06	1.204e-05	148.31	70.327	55.041	27.33	9.1204e-06	39.751	0.00080467	0.00092229	0.00024544	455.51	8.9002e-06	1.0083e-05	431.35	147.22	9.0125e-06	9.9966e-06	199.83	81.939	66.216	31.258	9.3969e-06	42.803	87.620	143.687	-80.961	-70.265	267.588	56.027	-71.185	-65.220	227.693	72.634	-66.665	-63.485	-60.558	-56.306	23.160	-59.627	-8191	255	
2920.415	1	1	0	0	0.062852	0.065301	0.12741	0.34492	0.25436	0.10754	0.071383	0.11449	0.081014	0.28127	0.076516	0.12508	0.12443	0.059181	0.17505	0.072141	-2.15	-2.5667	-3.0479	-2.1292	-2.6917	-2.7687	-2.25	-3.2125	-2.3833	-2.6021	-2.9146	-2.0771	-2.8375	-2.6604	-2.4646	-2.8021	221.678	30.227	225.000	199.316	116.356	255.837	126.344	114.968	38.329	204.522	-64.230	177.216	-40.015	77.698	154.254	62.451	0.00018194	0.0008934	0.00020406	369.8	7.2433e-06	5.2663e-06	345.46	123.22	9.1179e-06	6.527e-06	148.71	70.896	54.421	27.737	4.9215e-06	39.89	0.00085761	0.00092152	0.00023861	455.04	9.5563e-06	1.0157e-05	432.24	147.52	9.7952e-06	9.9615e-06	198.21	81.805	67.191	31.177	9.078e-06	42.63	208.005	3.887	253.016	-70.016	176.701	134.055	-71.152	-65.421	66.442	69.505	-67.777	-63.262	-61.381	-56.185	179.633	-59.728	-8191	255	
2920.511	1	1	0	0	0.10296	0.10968	0.10974	0.10917	0.11876	0.1396	0.067406	0.05482	0.07422	0.24772	0.17713	0.25201	0.091793	0.10816	0.048455	0.17844	-2.1708	-2.4938	-2.7479	-2.3833	-2.8438	-3.0187	-2.4917	-2.9333	-2.5854	-2.2604	-2.9625	-2.4521	-2.6375	-2.9896	-2.1167	-2.925	207.033	181.697	103.243	-5.821	-31.025	121.999	-52.738	269.710	192.190	98.256	128.273	74.146	-21.026	268.465	49.979	119.539	0.00026116	0.0013887	6.3479e-05	368.53	9.8528e-06	4.9545e-06	346.03	122.88	1.3406e-06	1.2917e-05	148.16	70.426	55.752	27.621	2.9549e-06	39.815	0.00087229	0.0008675	0.0002258	451.8	9.6988e-06	9.5525e-06	427.33	147.49	9.9357e-06	9.5464e-06	196.48	82.284	68.277	30.853	8.7429e-06	42.914	162.261	63.732	42.135	-70.444	222.663	30.307	-70.852	-65.209	145.657	-9.334	-66.972	-63.746	-61.152	-56.198	64.044	-59.442	-8191	255	
2920.607	1	1	0	0	0.17627	0.21801	0.1103	0.016771	0.21879	0.070196	0.17671	0.30388	0.18431	0.20415	0.043537	0.22742	0.016367	0.14437	0.23901	0.16643	-2.1292	-2.3937	-2.8667	-2.4458	-2.6063	-2.7062	-2.3333	-2.8417	-2.6271	-2.3375	-2.8937	-2.5938	-2.4562	-3.0396	-2.3417	-2.8354	70.235	-9.333	194.322	-2.089	120.926	-46.979	48.529	172.146	135.289	273.706	174.948	212.561	65.074	131.475	-13.014	162.686	0.00018939	0.00047669	0.00015308	366.26	5.2681e-06	8.1105e-06	353.82	124.64	9.2238e-06	8.493e-06	151.43	71.668	55.835	27.652	2.561e-06	40.151	0.00087594	0.00082825	0.00021422	455.63	9.4817e-06	8.8723e-06	422.73	149.29	9.5032e-06	8.851e-06	193.37	83.584	67.492	30.506	8.262e-06	43.546	76.029	4.282	-79.620	-70.800	-60.602	-47.803	-71.148	-65.314	59.953	225.804	-66.971	-63.208	-60.924	-56.311	261.750	-59.998	-8191	255	
2920.679	1	1	0	0	0.10512	0.34728	0.14748	0.13436	0.16376	0.098964	0.13486	0.1349	0.14121	0.25647	0.10871	0.015924	0.16774	0.17125	0.20419	0.12242	-2.4458	-2.0604	-2.9021	-2.1667	-2.5438	-3.025	-2.4708	-2.6521	-2.9521	-2.1396	-3.0417	-2.5062	-2.4938	-2.9917	-2.3542	-2.7729	184.496	-47.663	39.402	263.758	80.064	-8.122	66.472	114.961	101.254	-14.436	145.713	10.296	99.775	23.696	226.287	-28.999	0.00024943	0.00065842	0.00014531	368.06	2.0775e-06	9.3688e-06	354.77	126.42	6.272e-06	3.0716e-06	153.6	72.636	56.747	27.907	1.0724e-05	40.392	0.00085099	0.00079972	0.00020835	464.12	9.1676e-06	8.5662e-06	425.98	152.41	9.1763e-06	8.5227e-06	194.49	84.801	67.494	30.643	8.4135e-06	44.25	153.130	-28.840	150.717	-70.547	30.391	9.216	-71.599	-65.091	15.834	73.511	-67.042	-63.026	-60.933	-56.317	120.318	-59.715	-8191	255	
2920.799	1	1	0	0	0.13474	0.24929	0.19576	0.042805	0.27955	0.029676	0.19512	0.10264	0.128	0.32342	0.03324	0.15007	0.16981	0.12388	0.20528	0.10296	-2.35	-2.2271	-2.7708	-2.775	-2.3583	-3.1896	-2.3396	-2.6562	-3.0438	-2.1292	-2.7687	-2.9125	-2.35	-3.0021	-2.3354	-2.6646	-10.257	217.020	200.316	270.712	241.733	64.229	169.691	32.685	245.288	241.439	95.178	197.165	-35.363	-0.413	38.483	-56.533	0.00010606	0.00064037	0.00022573	372.12	5.7843e-06	8.7853e-06	355.18	128.79	4.923e-06	9.0238e-06	153.75	73.245	57.052	28.379	4.1472e-06	41.144	0.0008288	0.00079784	0.00021805	474.47	9.1581e-06	8.5731e-06	432.3	155.2	8.8761e-06	8.355e-06	197.81	85.604	66.891	30.458	8.4835e-06	44.324	-32.026	-15.612	89.094	-69.968	147.783	68.323	-70.948	-65.203	258.410	62.699	-67.176	-63.307	-61.181	-56.477	195.686	-58.966	-8191	255	
2920.896	1	1	0	0	0.17213	0.22455	0.24359	0.10207	0.17125	0.17769	0.19021	0.17515	0.06719	0.21128	0.11714	0.10566	0.24098	0.26905	0.22122	0.14277	-2.325	-2.0833	-2.6104	-2.7667	-2.3729	-3.1292	-2.5875	-2.7354	-3.0271	-2.2729	-2.925	-2.6333	-2.3021	-2.8604	-2.3688	-2.3563	251.846	128.191	50.050	213.145	-44.922	-19.308	271.538	243.090	86.134	148.393	262.402	161.574	57.735	250.133	73.079	-49.092	5.1466e-05	0.0010802	0.00015657	374.73	4.1911e-06	1.1939e-05	356.62	129.47	6.0067e-06	7.1708e-06	153.29	73.405	56.985	28.111	3.841e-06	40.551	0.00077474	0.00074094	0.0002185	470.08	8.6752e-06	8.2388e-06	439.52	155.41	8.8984e-06	8.4513e-06	205.27	86.46	67.658	30.697	9.598e-06	44.498	230.348	-39.155	90.033	-70.144	37.772	-9.087	-70.846	-65.076	62.646	123.339	-67.110	-62.967	-60.990	-55.850	249.168	-59.239	-8191	255	
2920.992	1	1	0	0	0.20088	0.12899	0.15582	0.10387	0.25901	0.11911	0.12387	0.18366	0.16237	0.17099	0.23625	0.37571	0.11304	0.1887	0.083451	0.14411	-2.3604	-2.2896	-2.5812	-2.8375	-2.2208	-3.0375	-2.7	-2.2771	-3.0625	-2.4292	-2.7521	-2.7938	-2.275	-2.8792	-2.5583	-2.5104	18.382	-68.986	77.386	147.456	149.624	178.725	162.484	183.906	207.665	96.222	147.333	175.403	110.587	27.393	225.389	30.853	0.00013926	0.00054335	0.00030044	372.7	8.5764e-06	4.5501e-06	354.87	127.3	5.328e-06	1.1643e-05	152.81	73.366	56.668	28.024	1.0306e-06	40.437	0.00082445	0.00079431	0.00024891	475.11	9.1536e-06	8.7882e-06	450.72	155.15	9.0718e-06	8.8847e-06	209.48	85.742	67.422	30.999	1.0102e-05	44.222	167.848	223.667	61.658	-70.193	68.233	155.734	-70.653	-65.044	0.403	177.950	-66.473	-63.366	-61.539	-56.330	214.315	-59.470	-8191	255	
2921.088	1	1	0	0	0.13134	0.12117	0.15452	0.25866	0.20354	0.072027	0.15827	0.42876	0.071904	0.31642	0.077941	0.1802	0.19132	0.2106	0.19483	0.10656	-2.4271	-2.4604	-2.4417	-3.0125	-2.3083	-2.7146	-2.7188	-2.4188	-3.1188	-2.3688	-2.4271	-3.0792	-2.3063	-2.8021	-2.6833	-2.3333	49.250	182.563	-82.761	140.960	267.895	15.243	18.080	36.467	87.253	236.271	174.992	-54.794	-8.915	208.784	-15.344	199.822	3.499e-05	0.0011904	0.00042969	373.6	4.5154e-06	5.5979e-06	356.12	128.19	2.2022e-06	1.5028e-05	153.79	73.425	56.783	27.979	9.8442e-06	40.72	0.00081235	0.00084694	0.00025868	473.05	9.1105e-06	9.4746e-06	456.57	156.17	9.1152e-06	9.7109e-06	213.45	86.178	67.48	31.424	1.0136e-05	44.428	183.636	58.392	275.537	-70.406	271.297	203.224	-70.823	-65.153	-8.018	79.032	-67.449	-63.054	-61.422	-56.263	44.888	-59.370	-8191	255	
2921.207	1	1	0	0	0.15438	0.053987	0.18022	0.14478	0.20544	0.1048	0.27062	0.3118	0.143	0.14145	0.13577	0.098357	0.02891	0.19214	0.25033	0.12493	-2.7042	-2.3167	-2.5917	-2.7896	-2.1917	-2.7708	-2.8083	-2.1833	-2.8083	-2.5354	-2.3458	-3.0104	-2.3104	-2.8187	-2.8146	-2.2354	156.626	155.462	269.372	180.215	-7.316	59.865	178.819	223.833	86.895	204.157	236.465	273.449	180.751	-67.691	181.339	202.372	0.00013442	0.00056787	0.00016804	374.52	5.2503e-06	1.167e-05	359.9	129.8	5.6079e-06	4.3914e-06	156.74	74.369	57.064	28.388	4.9225e-06	41.53	0.00078133	0.0008746	0.00024945	468.08	8.6427e-06	9.5862e-06	450.87	154.89	8.706e-06	9.9313e-06	210.51	86.014	67.699	31.894	9.7496e-06	44.43	174.036	106.153	276.119	-70.041	87.078	-54.879	-70.747	-65.260	257.127	169.737	-67.301	-63.463	-60.912	-56.176	11.360	-59.563	-8191	255	
2921.303	1	1	0	0	0.027071	0.084901	0.19484	0.20225	0.26285	0.24203	0.048713	0.17425	0.021723	0.028328	0.19977	0.067698	0.091796	0.05712	0.23528	0.16151	-2.4229	-2.7146	-2.3312	-2.9458	-2.3896	-2.5583	-2.9604	-2.3563	-2.8708	-2.8125	-2.5396	-3.175	-2.6333	-2.6729	-2.8021	-2.4313	89.196	20.103	53.980	-52.310	-54.929	116.229	100.450	150.612	13.092	119.376	141.305	152.061	-9.926	117.482	-23.482	-80.391	5.0588e-05	0.0010205	0.00016357	375.75	5.1772e-06	1.6239e-05	365.57	131.05	6.5679e-06	4.0807e-06	156.61	74.806	57.793	28.536	1.1361e-05	41.506	0.0007757	0.00089393	0.00023582	462.01	8.4878e-06	9.5041e-06	445.4	153.06	8.6466e-06	9.806e-06	206.61	85.198	68.085	31.95	9.0815e-06	44.057	207.642	-7.152	275.192	-70.426	239.733	39.940	-71.175	-65.388	194.767	122.742	-67.322	-63.295	-61.096	-56.175	76.115	-59.635	-8191	255	
2921.399	1	1	0	0	0.23363	0.24692	0.37285	0.20675	0.27064	0.026179	0.1386	0.178	0.13278	0.23787	0.23508	0.28422	0.20119	0.16211	0.17604	0.056318	-2.3125	-2.7271	-2.3583	-3.0854	-2.5042	-2.6	-3.1063	-2.3958	-2.85	-2.8354	-2.2729	-3.1042	-2.4229	-2.6292	-2.8625	-2.3271	197.824	225.440	166.830	-3.403	114.418	178.063	174.954	210.439	-28.460	250.638	20.961	217.845	-74.453	214.619	97.488	90.701	6.389e-05	0.0010963	0.00010643	380.72	2.9605e-06	8.5997e-06	366.84	132.38	1.5734e-06	3.3233e-06	160.78	75.544	57.979	28.376	1.1522e-05	41.586	0.00078727	0.0008717	0.00022293	456.6	8.6538e-06	9.2091e-06	440.85	152.15	8.6302e-06	9.1353e-06	202.73	83.701	68.329	31.387	8.3117e-06	43.489	153.842	-17.963	2.590	-70.463	123.151	264.773	-70.948	-65.624	228.641	79.483	-67.409	-63.509	-61.036	-56.274	-30.592	-59.753	-8191	255	
2921.495	1	1	0	0	0.11738	0.067254	0.17572	0.21599	0.11219	0.29	0.14492	0.10813	0.43135	0.11051	0.23404	0.18119	0.2847	0.12399	0.054531	0.13222	-2.225	-2.7104	-2.2083	-2.9792	-2.6208	-2.6437	-2.9021	-2.5917	-2.8896	-2.8083	-2.3646	-3.0542	-2.6063	-2.6146	-3.0875	-2.3542	124.983	104.350	32.633	228.202	144.017	246.893	201.263	149.556	-69.256	264.185	266.699	182.185	253.788	202.691	176.467	246.551	0.00022647	0.0013671	0.00030938	380.57	4.0314e-06	2.6308e-06	373.63	132.54	1.4587e-06	4.1634e-06	160.55	76.107	58.473	28.869	1.7314e-05	41.83	0.00078481	0.00080839	0.00020958	453.42	8.7615e-06	8.6265e-06	438.98	152.01	8.7297e-06	8.6271e-06	200.98	84.393	68.971	31.316	8.153e-06	44.042	199.279	51.212	-17.742	-70.119	264.372	7.814	-70.906	-65.390	47.488	60.615	-66.894	-63.245	-61.443	-56.392	33.620	-59.557	-8191	255	
2921.591	1	1	0	0	0.14907	0.1437	0.25627	0.2505	0.1205	0.038438	0.13873	0.11619	0.062918	0.12422	0.31525	0.19453	0.16372	0.059562	0.019804	0.15649	-2.2042	-2.9208	-2.0729	-2.9437	-2.7104	-2.4854	-2.9938	-2.5167	-2.6875	-2.7938	-2.2313	-3.0271	-2.725	-2.5521	-3.0417	-2.8417	268.037	34.422	140.260	182.125	220.361	210.995	100.975	-49.021	151.176	33.594	-82.742	273.372	183.995	63.481	247.783	183.252	0.00016387	0.0014596	0.00019528	383.95	7.5328e-06	4.6405e-06	373.67	132.24	5.1653e-06	6.7554e-06	162.87	75.545	58.823	28.98	6.9897e-06	41.946	0.00081195	0.00078985	0.00020451	458.55	9.033e-06	8.3807e-06	436.24	153.48	8.7679e-06	8.1561e-06	197.98	84.656	68.511	31.09	7.5452e-06	44.389	-70.941	-53.657	-61.474	-70.672	52.211	98.511	-71.235	-65.482	32.600	-76.661	-67.220	-63.276	-60.946	-55.985	12.531	-59.475	-8191	255	
2921.687	1	1	0	0	0.21977	0.045274	0.09167	0.12787	0.27463	0.123	0.23038	0.096964	0.38728	0.075387	0.16394	0.22482	0.089271	0.29161	0.1972	0.12245	-2.1479	-2.9437	-2.3771	-2.6	-2.8667	-2.2313	-3.1021	-2.3792	-2.3979	-3.0938	-2.3104	-2.8979	-3.0625	-2.3125	-3.0604	-2.6937	161.674	199.186	-10.773	210.392	218.571	14.765	-4.115	219.141	0.240	3.328	105.702	166.774	-45.122	202.559	-80.937	157.561	7.653e-05	0.00095571	8.098e-05	385.7	8.2271e-06	4.3993e-06	373.36	132.95	3.5668e-06	8.0743e-06	159.36	76.017	58.564	29.038	1.051e-05	41.903	0.00078983	0.0007553	0.00019842	467.46	8.9864e-06	8.4709e-06	436.8	156.75	9.026e-06	8.4808e-06	199.61	87.133	69.315	31.394	8.2285e-06	45.484	194.362	25.258	260.222	-70.480	5.419	-6.997	-70.592	-65.236	153.392	-17.237	-67.420	-63.285	-61.139	-55.906	208.087	-59.392	-8191	255	
2921.808	1	1	0	0	0.10639	0.28906	0.085096	0.24028	0.17689	0.12078	0.08856	0.094537	0.12969	0.32697	0.10703	0.25875	0.22564	0.11992	0.11302	0.041517	-1.9167	-3.0875	-2.2583	-2.6042	-2.7458	-2.2021	-3.0167	-2.5792	-2.3958	-2.9958	-2.4792	-2.7021	-2.8271	-2.2958	-3.0042	-2.8354	70.529	153.934	132.397	244.151	175.551	10.727	-79.721	70.121	201.451	264.366	17.109	244.287	261.298	267.007	239.492	194.992	0.00012052	0.00062849	0.00039061	382.52	6.0754e-06	3.6303e-06	370.06	131.57	6.9851e-06	8.5847e-06	159.61	75.644	59.713	28.834	6.2419e-06	41.7	0.00083692	0.00080324	0.0002189	482.97	9.4398e-06	8.8957e-06	445.65	160.47	9.3723e-06	8.8253e-06	206.27	88.956	69.96	31.547	9.0925e-06	46	60.392	171.552	-30.844	-69.950	-18.347	5.992	-70.967	-64.956	77.462	28.590	-67.960	-63.454	-60.907	-56.242	237.870	-59.382	-8191	255	
2921.904	1	1	0	0	0.24961	0.032149	0.06195	0.30823	0.18164	0.18541	0.35565	0.25119	0.26769	0.091256	0.29515	0.12195	0.21269	0.057278	0.073122	0.23868	-2.0604	-3.0292	-2.3292	-2.6417	-3.0125	-2.2583	-2.8521	-2.6625	-2.4458	-3.1521	-2.3792	-2.5542	-2.9188	-2.0625	-2.95	-2.9667	139.872	52.688	75.605	66.703	57.409	261.527	95.073	195.301	86.910	51.548	-53.406	15.545	242.559	241.628	-82.703	103.494	1.8135e-05	0.00075023	0.0001852	384.49	6.8936e-06	4.4878e-06	367.87	131.75	8.5451e-06	1.5158e-05	157.28	75.475	57.995	28.392	1.303e-06	41.264	0.00087272	0.00084287	0.00024769	496.27	1.0191e-05	9.7108e-06	461.81	164.37	1.0342e-05	9.8342e-06	218.13	91.078	71.265	32.041	1.0686e-05	46.492	-31.416	11.987	67.876	-70.419	112.669	-20.212	-70.521	-65.166	78.984	53.133	-66.746	-63.674	-61.105	-56.445	154.962	-59.784	-8191	255	
2921.976	1	1	0	0	0.18157	0.12488	0.19828	0.12345	0.25253	0.3467	0.093776	0.25887	0.14329	0.12416	0.20797	0.22805	0.12745	0.19172	0.27742	0.19002	-1.7625	-2.9792	-2.5687	-2.4688	-3.1417	-2.3708	-2.7188	-2.8792	-2.4021	-3.0438	-2.3729	-2.3792	-2.925	-2.6146	-2.7354	-2.9813	-27.498	87.338	36.702	155.098	198.272	47.453	183.597	242.180	111.038	226.067	245.527	227.463	259.838	105.742	227.145	247.113	0.00014927	4.8804e-05	9.552e-05	379.81	2.8982e-06	9.1271e-06	364.61	130.97	3.5875e-06	5.8125e-06	156.47	75.011	58.125	28.617	2.0394e-06	40.905	0.00094539	0.00090971	0.0002839	503.25	1.0644e-05	1.0312e-05	475.29	164.8	1.0731e-05	1.0352e-05	226.17	91.551	71.895	32.617	1.1722e-05	46.438	-42.149	265.223	133.004	-70.248	78.278	75.246	-70.980	-65.649	201.522	189.026	-67.182	-63.385	-61.304	-55.959	106.965	-59.465	-8191	255	
2922.072	1	1	0	0	0.17207	0.15993	0.081583	0.051332	0.2553	0.15647	0.23512	0.28592	0.061838	0.058781	0.12391	0.19943	0.10286	0.14503	0.31761	0.4352	-1.6542	-3.0625	-2.5333	-2.4917	-2.9333	-2.4271	-2.8	-2.875	-2.5312	-3.0604	-2.7021	-2.4854	-3.0438	-2.3937	-2.7542	-3.0354	81.650	261.214	28.016	145.862	108.674	53.961	219.029	136.907	229.380	177.958	88.371	-66.991	261.482	226.017	276.008	-76.940	8.6585e-05	0.0011088	0.00017823	379.23	8.6127e-06	9.3921e-06	354.44	125.64	8.0677e-06	1.1702e-05	153.09	73.454	57.631	28.203	1.4598e-06	40.271	0.00096524	0.00096568	0.00030605	504.67	1.0827e-05	1.106e-05	481.8	162.87	1.113e-05	1.1499e-05	231.14	92.229	72.716	33.643	1.3326e-05	47.059	241.308	128.400	149.992	-70.195	99.783	194.379	-71.810	-65.271	-23.373	150.355	-66.866	-63.915	-61.017	-56.450	177.763	-59.285	-8191	255	
2922.191	1	1	0	0	0.056174	0.15408	0.10198	0.28578	0.26263	0.097196	0.19289	0.27842	0.27274	0.18835	0.069335	0.1869	0.16533	0.18021	0.23274	0.14565	-1.825	-3.0187	-2.6937	-2.3667	-3.1521	-2.3979	-2.6312	-2.7458	-2.2354	-2.6875	-2.9313	-2.1333	-3.0917	-2.5104	-2.4667	-2.8875	163.979	-15.552	125.927	208.442	130.452	127.084	215.229	30.575	-14.185	-13.665	-76.235	-68.788	155.890	226.108	14.171	-12.572	0.00020839	0.00036044	0.00021169	373.16	6.3267e-06	1.1292e-05	356.48	125.25	1.071e-05	7.7976e-06	148.99	72.629	56.781	28.29	1.6443e-05	39.571	0.0010561	0.0011449	0.00033785	514.8	1.1513e-05	1.2471e-05	484.86	162.72	1.1157e-05	1.1982e-05	221.26	89.036	71.036	33.803	1.273e-05	45.793	241.750	102.556	-59.218	-70.628	31.877	216.298	-70.945	-65.398	251.664	212.474	-66.842	-63.093	-61.454	-56.450	17.655	-59.690	-8191	255	
2922.287	1	1	0	0	0.1073	0.15422	0.088025	0.10029	0.19503	0.15478	0.13141	0.13578	0.1322	0.12005	0.47299	0.10905	0.093191	0.1334	0.20538	0.23166	-1.8333	-2.5563	-2.7313	-2.2875	-2.9333	-2.5854	-2.4083	-2.9042	-2.3896	-2.5875	-2.7729	-2.2792	-2.7833	-2.7833	-2.5854	-3.1729	231.938	147.679	75.169	-10.978	67.023	197.632	176.387	242.963	2.197	114.076	159.826	108.060	175.757	-33.277	93.798	26.101	0.00027607	0.0016354	0.00031931	371.31	6.5853e-06	1.3183e-05	346.66	122.22	9.9013e-06	1.2614e-06	147.23	71.189	55.889	28.16	5.7003e-06	39.276	0.0010093	0.0011589	0.00032181	505.88	1.1517e-05	1.3258e-05	478.92	160.82	1.1878e-05	1.3534e-05	226.64	90.654	72.889	34.61	1.3147e-05	46.161	184.614	121.758	-65.211	-70.692	83.333	191.492	-70.938	-65.415	153.020	229.173	-67.069	-63.715	-61.146	-56.692	18.416	-59.340	-8191	255	
2922.383	1	1	0	0	0.27506	0.059673	0.057429	0.20038	0.19108	0.28521	0.051324	0.34571	0.20375	0.26336	0.11667	0.046781	0.13826	0.055852	0.24981	0.35029	-1.9146	-2.6125	-2.8917	-2.3583	-3.1792	-2.65	-2.3583	-2.9021	-2.5417	-2.6542	-2.7771	-2.4188	-2.9229	-2.7229	-2.25	-3.1604	22.198	183.568	25.134	-34.614	-32.751	-28.003	129.353	215.928	-28.171	-24.922	222.799	190.403	-20.114	28.756	-83.100	184.516	0.00011738	0.00043446	0.00020104	371.4	1.0528e-05	1.6507e-05	346.42	121.18	1.1029e-05	8.5281e-06	145.92	71.515	56.615	28.176	1.631e-06	39.125	0.0011448	0.001296	0.00033881	512.26	1.2813e-05	1.4123e-05	478.91	160.21	1.2832e-05	1.3775e-05	224.82	90.147	74.441	34.565	1.2925e-05	45.792	153.045	274.068	-39.039	-70.841	182.521	106.174	-70.493	-65.370	190.476	272.146	-67.302	-63.879	-61.180	-56.225	5.118	-59.832	-8191	255	
2922.479	1	1	0	0	0.12745	0.17388	0.13231	0.14552	0.11075	0.1332	0.35666	0.01951	0.33876	0.12427	0.021681	0.088422	0.15654	0.11335	0.19285	0.049355	-1.9708	-2.5917	-3.0938	-2.2375	-2.9104	-2.8958	-2.3333	-3.1208	-2.5708	-2.55	-3.0083	-2.4604	-2.8063	-3.0229	-2.2354	-3.2104	45.914	51.402	-6.832	241.687	126.452	50.805	185.310	176.585	180.680	179.390	52.647	185.618	176.430	257.537	111.549	130.471	0.00048585	0.00044939	0.00030428	369.84	1.3879e-05	5.0223e-06	345.27	120.6	5.5063e-06	9.7367e-06	146.1	71.236	55.773	28.053	8.4613e-06	39.543	0.001215	0.0012866	0.00033554	508.94	1.3679e-05	1.3976e-05	477.08	160.47	1.3924e-05	1.3887e-05	225.87	90.695	76.447	34.451	1.2746e-05	46.226	124.711	273.967	263.449	-70.723	-75.354	-61.283	-71.127	-64.853	177.054	239.380	-67.003	-63.968	-61.474	-56.605	51.179	-59.319	-8191	255	
2922.576	1	1	0	0	0.38852	0.097095	0.10914	0.14212	0.12564	0.18427	0.16388	0.33661	0.027245	0.1408	0.17195	0.10871	0.2429	0.045926	0.13528	0.18291	-2.1979	-2.4813	-2.9375	-2.3104	-2.5146	-3.0021	-2.4333	-2.825	-2.8771	-2.3104	-3.0125	-2.5896	-2.8312	-3.0187	-2.3708	-2.9667	134.299	157.373	41.565	-6.368	-82.583	230.203	195.006	227.727	125.862	212.396	-50.454	156.686	-72.536	11.446	203.989	73.590	0.00024092	0.00098686	0.00030231	364.26	3.8219e-06	1.048e-05	343.55	120.71	7.5479e-06	6.404e-06	145.48	71.322	55.99	28.152	5.0297e-06	39.014	0.0012674	0.0012451	0.00032713	511.44	1.4197e-05	1.3632e-05	472.75	161.47	1.4072e-05	1.3291e-05	221.87	91.331	75.814	33.785	1.1929e-05	45.964	187.953	139.656	200.113	-70.106	-44.567	66.139	-71.222	-65.224	157.209	70.426	-66.874	-63.498	-61.281	-56.723	120.738	-59.689	-8191	255	
2922.672	1	1	0	0	0.13716	0.15498	0.24935	0.27194	0.15025	0.059677	0.1917	0.17757	0.12749	0.12233	0.053855	0.2295	0.16013	0.20456	0.10481	0.048979	-2.1562	-2.3771	-2.8979	-2.4146	-2.5208	-3.0187	-2.3771	-2.8646	-2.8438	-2.4396	-3.0979	-2.5792	-2.5271	-3.0104	-2.3271	-2.8167	117.065	270.253	219.499	83.305	117.326	207.309	192.025	199.358	24.700	158.443	144.321	1.068	247.567	-12.647	222.471	-63.927	0.00024116	0.0014166	7.0924e-05	362.08	2.5894e-06	1.1532e-05	347.83	120.91	4.9945e-06	1.5729e-05	146.7	70.736	55.302	28.107	8.3897e-06	38.744	0.0011958	0.0011385	0.00029863	508.83	1.3333e-05	1.2645e-05	464.85	163.81	1.3538e-05	1.2647e-05	217.56	92.135	74.736	33.378	1.1803e-05	46.249	-16.438	-22.243	56.138	-70.903	128.945	-34.218	-70.681	-65.042	61.491	-1.833	-66.790	-63.288	-61.214	-57.176	69.178	-59.394	-8191	255	
2922.768	1	1	0	0	0.19363	0.27965	0.14203	0.12994	0.048494	0.1403	0.15452	0.040431	0.16347	0.17419	0.078987	0.1875	0.19308	0.028564	0.09195	0.19784	-2.2167	-2.2333	-2.9479	-2.5917	-2.5875	-3.0417	-2.15	-2.9167	-2.975	-2.1896	-3.1167	-2.8937	-2.3125	-3.0479	-2.4271	-2.6667	13.598	115.030	272.369	-22.385	178.158	-76.616	139.199	186.616	271.883	161.110	62.885	164.113	150.000	-53.361	143.988	109.419	0.00029479	0.00082222	0.00035036	363.99	1.0747e-05	1.1408e-05	338	120.35	4.109e-06	7.5726e-06	144.57	71.474	56.215	28.184	8.0513e-06	39.265	0.0011747	0.0011121	0.00029176	514.69	1.2612e-05	1.1779e-05	450.06	159.79	1.1872e-05	1.0934e-05	206.29	89.488	70.898	32.074	1.039e-05	45.399	149.952	228.921	132.232	-70.151	27.051	4.952	-71.182	-65.381	30.688	118.023	-67.239	-63.567	-60.888	-56.435	248.783	-59.488	-8191	255	
2922.888	1	1	0	0	0.27642	0.13928	0.030716	0.095155	0.21069	0.14187	0.15873	0.13649	0.14699	0.11794	0.13753	0.088014	0.057116	0.23887	0.14419	0.18672	-2.5604	-2.1896	-2.6354	-2.7667	-2.3625	-2.8958	-2.3583	-2.5271	-2.9729	-2.1896	-2.8729	-2.7375	-2.3479	-3.0896	-2.425	-2.6292	-8.625	-1.189	89.367	106.990	219.259	-80.469	181.007	-63.424	43.375	47.811	207.199	-81.208	121.091	136.536	157.428	157.451	9.9062e-05	0.0014856	0.0002856	366.97	6.9126e-06	6.0217e-06	345.1	120.43	3.8464e-06	3.8844e-06	143.26	71.536	56.115	28.125	1.707e-06	39.813	0.0010027	0.00096232	0.00027063	501.23	1.1335e-05	1.0713e-05	452.01	159.27	1.1343e-05	1.0741e-05	212.49	90.057	70.753	32.01	1.1099e-05	45.735	269.851	16.783	133.259	-69.975	117.885	42.121	-71.299	-65.824	54.738	162.631	-66.429	-63.306	-61.222	-56.138	255.983	-59.705	-8191	255	
2922.985	1	1	0	0	0.28842	0.094038	0.15451	0.18713	0.18886	0.2073	0.056419	0.33584	0.053158	0.13957	0.030315	0.17088	0.1733	0.18318	0.10714	0.033744	-2.5625	-2.3167	-2.7708	-2.725	-2.1479	-3.1167	-2.5333	-2.4771	-3.0354	-2.2708	-2.8	-2.7771	-2.2	-3.2042	-2.6083	-2.3833	176.427	242.550	228.763	138.543	-37.899	231.856	183.468	210.127	67.515	240.990	5.537	219.541	194.883	223.708	-24.159	210.483	0.00027599	0.00089102	0.00025045	366.67	8.949e-06	1.013e-05	347.11	121.94	1.2688e-05	5.392e-06	149.78	72.791	56.409	28.064	1.0455e-05	40.116	0.00097325	0.00092661	0.00027851	491.05	1.0424e-05	9.897e-06	453.14	156.28	1.0269e-05	9.729e-06	212.39	88.346	69.195	31.574	1.0939e-05	45.036	245.629	89.045	70.186	-70.623	95.141	-81.372	-70.799	-65.388	-65.953	134.393	-66.892	-63.441	-61.207	-56.191	167.097	-59.673	-8191	255	
2923.081	1	1	0	0	0.2237	0.18595	0.10634	0.18057	0.29314	0.13381	0.13372	0.021775	0.072855	0.1758	0.10793	0.047816	0.039928	0.17537	0.34286	0.23193	-2.4562	-2.25	-2.7583	-2.7667	-2.1542	-2.8896	-2.5708	-2.4917	-3.0958	-2.4396	-2.6771	-2.75	-2.3229	-2.8771	-2.7417	-2.3958	99.071	188.641	271.803	268.959	92.313	272.632	-25.544	15.759	-60.881	-25.167	-17.673	178.008	92.896	28.741	238.451	-38.510	0.00011522	0.00049951	0.00020526	363.04	4.7038e-06	4.6484e-06	344.42	123.13	1.8224e-06	1.0519e-05	148.27	72.015	56.295	27.944	8.1822e-06	39.831	0.00090696	0.0008965	0.00027985	482.37	9.9174e-06	9.6297e-06	452.78	153.77	9.7198e-06	9.7312e-06	211.99	86.612	68.111	31.521	1.0752e-05	44.254	140.031	71.056	40.531	-70.359	-50.341	145.566	-71.214	-65.470	32.636	216.497	-67.115	-63.585	-61.304	-56.289	247.194	-59.954	-8191	255	
2923.200	1	1	0	0	0.078672	0.14938	0.051411	0.096669	0.18813	0.044096	0.25785	0.14502	0.19851	0.0014899	0.19972	0.18486	0.21881	0.28855	0.24056	0.28323	-2.6188	-2.4833	-2.6354	-2.9896	-2.1271	-2.8312	-2.6688	-2.4354	-3.0208	-2.5812	-2.5812	-3.0167	-2.3792	-2.8479	-2.8354	-2.2521	-57.499	66.323	225.486	52.711	-71.972	238.453	177.209	78.625	15.097	180.000	172.956	-14.238	245.135	210.187	233.494	236.475	0.0002725	0.00084494	5.0465e-05	368.87	3.0992e-06	1.3785e-05	349.82	124.3	2.3212e-06	4.92e-06	151.59	72.872	56.92	28.276	1.3625e-05	40.682	0.00084417	0.00089198	0.00027111	472.44	9.2905e-06	9.8399e-06	451.4	152.47	9.2075e-06	9.9167e-06	209.95	85.955	67.425	31.839	1.0076e-05	44.066	150.900	193.849	196.483	-70.924	-30.954	235.407	-70.577	-65.372	-14.893	147.674	-67.139	-63.585	-61.108	-56.664	8.222	-59.904	-8191	255	
2923.271	1	1	0	0	0.2484	0.16141	0.15054	0.23404	0.072545	0.20577	0.14084	0.088385	0.29252	0.17844	0.15136	0.12449	0.20219	0.05596	0.10027	0.16609	-2.4646	-2.4958	-2.4688	-2.9875	-2.0104	-2.6688	-2.675	-2.4542	-2.9437	-2.5958	-2.4333	-2.8937	-2.5125	-2.6167	-3.0083	-2.3229	-39.399	116.221	66.387	190.578	134.676	269.970	152.390	276.004	270.031	72.480	59.477	141.213	170.440	93.450	34.731	-71.349	7.8959e-05	0.00077765	0.00038095	368.99	5.1011e-06	9.43e-06	356.05	125.68	1.5896e-05	7.2134e-06	152.85	73.231	57.58	28.505	5.923e-06	40.658	0.00078721	0.00089051	0.00025152	462.63	8.871e-06	1.0032e-05	447.93	152.22	9.1055e-06	1.0418e-05	210.53	86.321	68.563	32.593	1.0311e-05	44.685	253.485	92.468	-47.491	-70.444	16.765	227.255	-71.040	-65.114	251.669	204.962	-67.020	-63.461	-61.536	-56.667	259.723	-59.823	-8191	255	
2923.367	1	1	0	0	0.087908	0.21472	0.19274	0.10401	0.19265	0.13805	0.19805	0.20588	0.19012	0.27834	0.21876	0.14454	0.057675	0.10529	0.10316	0.30737	-2.5417	-2.5146	-2.1917	-3.0021	-2.275	-2.6937	-3.125	-2.4354	-3.0938	-2.5208	-2.2854	-3.0563	-2.2458	-2.6271	-2.8333	-2.4146	122.974	-31.053	226.396	-73.107	184.035	251.945	123.196	221.432	189.759	243.205	139.408	185.431	114.777	-18.036	97.230	33.556	0.0001809	0.001023	0.00037419	370.91	1.0287e-05	2.2424e-05	353.22	125.6	7.1541e-06	1.5179e-05	153.04	74.582	57.262	28.723	6.6078e-06	40.934	0.00085408	0.00097893	0.00025607	466.19	9.4309e-06	1.0454e-05	444.79	151.67	9.394e-06	1.036e-05	206.17	86.038	69.139	32.611	9.8233e-06	44.383	157.583	63.454	269.067	-70.820	242.119	173.849	-71.285	-65.226	150.139	-10.831	-67.456	-63.516	-61.102	-56.321	145.943	-59.549	-8191	255	
2923.488	1	1	0	0	0.13737	0.22701	0.15252	0.14889	0.074861	0.1215	0.036268	0.10849	0.13417	0.084185	0.19407	0.21619	0.016688	0.30096	0.12238	0.10215	-2.3875	-2.7771	-2.2042	-2.8208	-2.3896	-2.4562	-3.0125	-2.3542	-2.7833	-2.8521	-2.2479	-3.05	-2.3271	-2.5229	-2.9292	-2.4104	-35.680	-44.462	-82.278	-75.331	20.811	229.103	17.250	250.359	166.382	-21.479	22.695	-57.324	-45.415	216.715	122.392	195.784	0.00023695	0.00095913	0.00024568	374.72	7.4594e-06	1.4478e-05	352.87	126.68	7.5603e-06	9.9024e-06	152.82	73.416	56.976	28.38	2.0898e-06	40.612	0.00089196	0.0009781	0.00025317	467.19	1.0286e-05	1.0785e-05	446.9	153.28	1.0489e-05	1.0793e-05	208.85	86.23	71.032	32.5	1.0037e-05	44.4	195.225	151.442	4.653	-70.154	257.342	74.836	-71.139	-65.553	214.527	-69.812	-66.966	-63.227	-61.264	-56.165	-46.476	-59.948	-8191	255	
2923.584	1	1	0	0	0.14277	0.050119	0.096063	0.099067	0.13451	0.10064	0.3153	0.10444	0.088951	0.15748	0.13206	0.1558	0.22901	0.22244	0.26479	0.091687	-2.1833	-2.7271	-2.2042	-3.1312	-2.5479	-2.5	-2.8438	-2.4396	-2.85	-2.7792	-2.3833	-2.9146	-2.7833	-2.5625	-3.0938	-2.2479	1.065	172.386	244.238	184.241	-18.333	247.786	227.092	148.830	134.366	-72.184	129.841	223.551	-63.937	-61.556	0.726	191.010	0.00032222	0.0012372	0.00034098	372.04	5.4606e-06	3.8889e-06	352.64	126.57	4.5812e-06	1.5791e-05	154.8	73.549	57.483	28.586	1.4188e-05	40.972	0.00095994	0.00097252	0.00025031	466.23	1.0622e-05	1.0299e-05	441.99	152.65	1.0494e-05	1.0054e-05	205.22	86.061	71.132	32.138	9.2949e-06	44.594	198.029	3.809	274.638	-69.993	-69.796	199.133	-70.458	-65.390	-41.362	-36.877	-67.633	-63.048	-61.039	-56.125	23.630	-59.726	-8191	255	
2923.680	1	1	0	0	0.064818	0.26498	0.029539	0.11569	0.17099	0.43576	0.10557	0.21962	0.1348	0.16246	0.15137	0.16828	0.06702	0.17041	0.06621	0.031024	-1.8833	-2.7854	-2.0812	-2.8729	-2.75	-2.3937	-3.0771	-2.5042	-2.6792	-2.9313	-2.3229	-2.725	-2.625	-2.3271	-3.0042	-2.4646	18.313	-21.019	-62.475	-72.431	92.528	-78.224	6.531	-23.630	-74.107	39.284	203.647	268.399	45.301	-53.328	120.563	186.512	7.9209e-05	0.00075863	0.00040378	372.33	5.5096e-06	5.8082e-06	356.46	126.33	1.3614e-06	8.5628e-06	154.98	73.817	57.593	28.482	6.0498e-06	41.159	0.00094694	0.00090387	0.00023699	470.46	1.0646e-05	9.9729e-06	440.75	155.55	1.0775e-05	9.9939e-06	206.19	87.794	71.417	32.051	9.2062e-06	45.418	224.626	-81.093	-4.733	-70.736	88.322	22.731	-71.128	-65.025	-30.993	29.040	-66.947	-63.123	-61.237	-56.648	147.315	-59.640	-8191	255	
2923.777	1	1	0	0	0.31046	0.22361	0.066151	0.078198	0.14854	0.23252	0.084468	0.24377	0.099653	0.1406	0.19178	0.32418	0.30375	0.24288	0.18638	0.1063	-2.1562	-2.9313	-2.2104	-2.8958	-2.7687	-2.5021	-3.1146	-2.7625	-2.4521	-3.0271	-2.425	-2.8187	-2.8021	-2.2562	-3	-2.675	97.260	-22.338	197.921	-17.597	273.742	-72.113	193.852	16.606	263.604	254.489	-20.943	234.480	188.087	-71.362	210.861	-59.152	0.00013797	0.0013814	0.00014442	372.69	5.2239e-06	2.7511e-06	358.68	127.6	3.1351e-06	5.4392e-06	157.16	74.718	58.287	28.719	4.4922e-06	41.609	0.00093419	0.000877	0.00022976	477.88	1.0217e-05	9.5416e-06	438.26	157.32	1.0064e-05	9.3836e-06	204.45	89.154	70.592	31.858	9.0169e-06	46.058	223.091	-63.533	-61.860	-70.065	2.346	115.477	-70.850	-65.213	144.349	-68.880	-67.255	-63.246	-60.882	-56.345	164.119	-59.406	-8191	255	
2923.873	1	1	0	0	0.077094	0.11767	0.16406	0.21905	0.051831	0.1338	0.3386	0.090124	0.21157	0.039369	0.18526	0.079482	0.080105	0.02628	0.2741	0.24231	-2.0271	-3.1021	-2.3021	-2.5687	-2.8688	-2.2083	-3.0354	-2.5854	-2.5479	-3.2167	-2.2875	-2.8625	-2.9729	-2.3771	-2.9062	-2.8292	224.897	-81.433	-39.086	255.677	-11.653	270.409	-48.927	252.077	58.241	207.296	-37.871	144.879	83.934	241.414	-71.388	201.658	5.9448e-05	0.0019105	0.00023415	370.9	3.0579e-06	4.2036e-06	355.18	126.45	8.3075e-06	9.4003e-06	156.82	74.054	58.156	28.722	4.2968e-06	41.573	0.00089501	0.00084939	0.00023395	483.35	9.8516e-06	9.2557e-06	441.16	158.22	9.8053e-06	9.0871e-06	206.9	89.155	69.79	31.601	9.4141e-06	45.744	-24.121	-72.149	55.096	-70.191	92.420	17.433	-71.236	-65.413	70.697	76.165	-66.829	-63.533	-61.077	-56.463	126.590	-59.835	-8191	255	
2923.969	1	1	0	0	0.1127	0.19625	0.14696	0.19472	0.1299	0.26385	0.10866	0.2516	0.07119	0.1637	0.17981	0.25452	0.14597	0.18106	0.171	0.18251	-1.9271	-2.8667	-2.4333	-2.5396	-2.8438	-2.4625	-2.8167	-2.6875	-2.2917	-2.9771	-2.4875	-2.7812	-3.0208	-2.2687	-2.7729	-2.9333	21.668	100.314	219.899	-19.157	94.743	127.382	-75.047	226.195	-8.763	77.797	56.084	131.000	-21.807	87.391	3.466	152.849	3.1139e-05	0.0014149	0.00012002	372.99	4.7409e-06	1.6858e-06	362.61	128.74	1.4108e-06	9.342e-06	156.63	75.109	58.089	28.982	6.6767e-06	41.085	0.0008487	0.00079935	0.00023799	477.92	9.2082e-06	8.7449e-06	445.85	156.62	9.1468e-06	8.5839e-06	208.22	88.209	68.769	31.424	9.897e-06	45.499	185.289	-65.732	105.074	-70.025	-29.064	27.007	-70.834	-65.035	96.936	144.714	-67.154	-63.484	-61.058	-56.405	175.394	-59.815	-8191	255	
2924.065	1	1	0	0	0.17723	0.2965	0.14611	0.27071	0.093405	0.11763	0.12044	0.048355	0.15909	0.24024	0.17567	0.223	0.28724	0.22046	0.18631	0.40276	-1.9146	-2.925	-2.475	-2.4437	-2.9437	-2.4083	-2.8021	-2.8187	-2.3042	-2.9813	-2.5563	-2.4896	-2.8292	-2.4729	-2.7229	-2.9042	-48.305	-3.798	58.139	-82.129	-34.536	82.258	108.831	112.903	-78.135	-79.991	105.881	233.859	-52.159	248.820	41.970	64.524	0.00029185	0.0016098	9.2327e-05	375.37	1.9752e-06	7.6129e-06	360.7	128.04	4.3961e-06	1.0828e-05	156.14	75.386	58.19	28.605	9.7701e-06	41.724	0.00085011	0.0008197	0.00025929	479.39	9.3756e-06	9.0107e-06	455.11	156.05	9.0322e-06	8.6682e-06	211.51	87.331	67.903	31.449	9.9337e-06	45.161	247.134	119.601	212.472	-70.674	49.812	252.929	-71.663	-65.507	-2.637	130.439	-67.402	-63.679	-61.137	-56.311	169.766	-59.487	-8191	255	
2924.161	1	1	0	0	0.17331	0.075669	0.12152	0.33367	0.15918	0.12086	0.043284	0.082266	0.16018	0.10174	0.18509	0.11417	0.13243	0.16946	0.14414	0.10698	-1.7708	-2.8875	-2.5687	-2.2958	-2.9813	-2.5146	-2.4604	-2.9125	-2.1583	-2.7292	-2.6667	-2.3479	-3.0208	-2.4354	-2.5396	-3.0438	-40.715	88.687	161.289	266.921	96.370	138.108	-4.580	35.698	152.937	130.135	-56.502	-76.000	253.638	203.571	119.383	263.466	0.00016585	0.00050085	6.5664e-05	375.57	3.6542e-06	2.4649e-06	362.73	129.62	9.8447e-06	1.0516e-05	158.7	75.711	58.234	28.865	6.2171e-06	41.822	0.00080613	0.00082481	0.00026202	475.11	9.0644e-06	9.5156e-06	463.27	156.55	9.2229e-06	9.5667e-06	216.54	87.964	68.626	32.251	1.0289e-05	45.263	-78.217	141.770	239.091	-70.258	102.630	261.650	-71.009	-65.090	-31.008	124.330	-66.751	-62.677	-60.820	-56.626	31.512	-59.565	-8191	255	
2924.280	1	1	0	0	0.082295	0.10674	0.088774	0.14498	0.18069	0.21726	0.10996	0.25445	0.17481	0.20732	0.24617	0.16979	0.15152	0.30112	0.11256	0.12832	-1.8438	-2.6688	-2.7	-2.1958	-3.0187	-2.5271	-2.4292	-2.9771	-2.2729	-2.7667	-2.8625	-2.3271	-3.1667	-2.6	-2.4167	-3.1667	116.413	99.724	36.267	191.499	-0.721	92.579	11.620	235.787	210.118	-39.342	168.480	203.896	208.724	262.662	27.442	237.444	5.8772e-05	0.0014874	9.6419e-05	375.75	4.6632e-06	2.1657e-05	360.46	128.6	2.4794e-06	1.0555e-05	156.94	74.674	57.446	28.599	7.578e-06	41.691	0.00080791	0.00089382	0.00026151	474.53	8.9919e-06	1.0172e-05	461.58	155.94	9.3929e-06	1.0535e-05	217.44	88.257	68.988	32.679	1.0484e-05	45.272	-37.946	132.491	180.269	-70.667	-11.268	226.076	-71.264	-65.058	207.079	175.617	-67.311	-63.349	-61.235	-56.362	87.989	-59.987	-8191	255	
2924.376	1	1	0	0	0.10383	0.21088	0.15429	0.20018	0.1188	0.15231	0.18026	0.27069	0.21961	0.22397	0.21175	0.23219	0.065768	0.23504	0.083787	0.039927	-1.6833	-2.7042	-2.9667	-2.2083	-3.0458	-2.725	-2.4646	-2.9688	-2.4562	-2.8354	-2.8646	-2.25	-2.975	-2.5271	-2.2708	-2.9792	55.657	171.720	228.593	174.934	74.779	59.050	194.734	261.042	135.541	-81.871	-67.918	208.431	247.913	234.763	185.207	267.960	0.00018998	0.00048964	0.00021882	377.33	9.0988e-06	4.0478e-07	367.37	128.77	4.539e-06	1.8065e-06	156.81	75.206	57.674	28.598	4.9015e-06	41.388	0.00083865	0.00094719	0.00025566	472.65	9.1051e-06	1.0462e-05	455.39	154.37	9.3045e-06	1.0524e-05	211.16	87.105	69.435	32.888	9.9794e-06	45.04	184.713	57.622	-43.485	-69.980	246.442	-19.612	-71.110	-65.420	167.539	90.969	-67.058	-63.388	-61.056	-56.333	40.241	-59.356	-8191	255	
2924.472	1	1	0	0	0.059003	0.11568	0.11218	0.18625	0.26478	0.13136	0.22392	0.18162	0.18531	0.21626	0.20991	0.071335	0.15548	0.15133	0.24911	0.19279	-1.8958	-2.5604	-2.8125	-2.3208	-2.9646	-2.6813	-2.4104	-2.9458	-2.5271	-2.5563	-3.0208	-2.2812	-2.8854	-2.8125	-2.2938	-3.0021	-51.136	219.050	249.402	136.042	274.463	96.996	-49.425	124.200	48.190	47.450	187.564	133.629	-70.597	231.333	106.395	258.975	0.0002705	0.00015004	0.00022518	379.42	1.0239e-05	5.2238e-06	365.01	129.07	6.3271e-06	1.2522e-05	157.24	76.041	57.889	28.965	6.3694e-06	41.704	0.00087244	0.00097341	0.00025002	472.35	9.7316e-06	1.0687e-05	454.5	154.47	9.8602e-06	1.047e-05	210.26	87.344	70.829	32.863	9.6176e-06	44.706	140.210	226.093	262.518	-70.476	232.100	74.356	-71.451	-65.247	-71.308	1.874	-67.331	-63.447	-61.215	-56.465	-16.907	-59.454	-8191	255	
2924.568	1	1	0	0	0.10706	0.060459	0.21708	0.092676	0.21686	0.098988	0.28606	0.1543	0.24997	0.096124	0.08516	0.062027	0.1927	0.17703	0.20166	0.19383	-2.0396	-2.3625	-2.9313	-2.1896	-2.6917	-2.6729	-2.2188	-2.8771	-2.5542	-2.5438	-3.0479	-2.2771	-2.6521	-2.875	-2.1729	-2.9979	-63.136	95.891	231.508	-57.469	0.979	114.267	201.572	39.682	82.328	73.560	226.997	-8.464	172.281	-56.122	-15.260	218.440	0.00026628	0.0010916	0.00034044	377.08	6.7132e-06	9.3146e-06	366.18	128.63	1.0953e-05	9.2298e-06	158.46	76.367	58.767	29.615	8.1546e-06	42.021	0.00090399	0.00093114	0.00023795	466.76	9.8807e-06	9.9005e-06	447.97	152.41	9.8368e-06	9.5823e-06	204.56	86.664	70.811	32.482	8.9117e-06	44.91	165.451	-71.987	-59.695	-70.609	203.738	31.478	-71.152	-64.985	188.502	32.882	-67.679	-63.252	-61.261	-56.584	62.163	-59.600	-8191	255	
2924.665	1	1	0	0	0.22297	0.28828	0.12342	0.2092	0.094382	0.044289	0.14265	0.18262	0.2456	0.23222	0.20368	0.074659	0.12453	0.13277	0.19058	0.012759	-2.0812	-2.3146	-2.9979	-2.3104	-2.8021	-2.8438	-2.0333	-2.9458	-2.6625	-2.3021	-2.8625	-2.3021	-2.725	-3.1021	-2.1792	-2.8979	179.610	-77.097	106.863	93.419	-70.999	82.028	253.396	226.562	116.040	201.977	194.695	-35.201	121.542	11.827	245.378	224.664	0.00012988	0.00024332	0.00011615	381.89	9.4859e-06	8.506e-06	370.37	130.02	2.6208e-06	4.7316e-06	162.3	76.245	59.272	29.157	6.4489e-06	42.179	0.0009004	0.00087277	0.00022844	472.88	1.0155e-05	9.5998e-06	449.29	156.07	1.0284e-05	9.5869e-06	206.39	88.615	71.843	32.313	9.128e-06	45.862	199.841	-18.372	-10.340	-69.900	220.069	6.083	-70.846	-65.257	-8.681	165.207	-66.889	-63.219	-61.068	-56.872	43.529	-59.495	-8191	255	
2924.761	1	1	0	0	0.089808	0.051444	0.11737	0.092486	0.0794	0.26465	0.081322	0.10817	0.18725	0.14963	0.051088	0.20362	0.10122	0.20529	0.13171	0.11993	-2.2417	-2.2792	-3.0229	-2.2917	-2.6667	-2.9021	-2.2375	-2.5333	-2.8896	-2.2708	-2.8583	-2.4104	-2.4938	-3.1188	-2.1875	-2.8146	39.958	209.388	148.520	-16.050	8.759	169.704	22.732	173.111	110.868	198.031	264.283	251.749	204.321	-76.209	-45.057	170.264	0.00013581	0.00044629	0.00019003	382.23	2.2596e-06	9.0714e-06	370.2	130.49	9.575e-06	7.4357e-06	160.95	76.15	59.435	29.112	7.7883e-06	41.994	0.00094096	0.00088506	0.00023111	484.03	1.0368e-05	9.5862e-06	451.74	159.61	1.0335e-05	9.6414e-06	207.51	90.09	71.762	32.211	9.1619e-06	46.327	139.342	63.121	102.314	-70.648	121.041	241.883	-70.859	-65.170	-0.862	122.623	-67.528	-63.362	-61.282	-56.262	26.128	-59.609	-8191	255	
2924.881	1	1	0	0	0.063638	0.19539	0.092756	0.11185	0.20725	0.16298	0.03626	0.2872	0.086767	0.22346	0.099135	0.039053	0.034913	0.091472	0.11965	0.1089	-2.3646	-2.1937	-2.8271	-2.4188	-2.4479	-3.0062	-2.2771	-2.5792	-2.8063	-2.4146	-2.8521	-2.7375	-2.4604	-2.6854	-2.5271	-2.6833	50.395	-36.983	-77.567	15.042	153.519	212.677	44.387	232.340	-45.111	151.452	108.733	53.848	33.368	-75.953	161.321	77.632	5.9862e-05	0.0013363	0.00016527	378.59	6.6817e-06	7.1697e-06	367.24	129.43	1.4434e-05	9.3247e-06	158.34	75.747	59.625	29.14	7.8721e-06	42.26	0.0009292	0.00087908	0.00023512	494.34	1.0248e-05	9.6095e-06	454.34	161.92	1.031e-05	9.6187e-06	210.03	91.38	71.693	32.216	9.7097e-06	46.822	8.780	-68.800	36.433	-70.252	23.600	43.900	-71.140	-64.787	49.480	71.461	-67.044	-63.890	-61.128	-56.306	261.888	-59.982	-8191	255	
2924.978	1	1	0	0	0.26944	0.40234	0.083319	0.14419	0.30586	0.18392	0.13242	0.1824	0.25028	0.26632	0.1948	0.16075	0.090934	0.074442	0.13532	0.15977	-2.2979	-2.0833	-2.7396	-2.6417	-2.2708	-3.1792	-2.5042	-2.7021	-2.9521	-2.2896	-2.9042	-2.6979	-2.3708	-3.0729	-2.3354	-2.6604	227.696	93.884	-44.178	222.198	214.855	15.732	76.264	248.067	153.445	-12.524	274.183	192.555	218.530	193.730	237.233	232.811	3.5576e-05	0.0015464	0.00028235	379.31	2.6131e-06	8.1538e-06	365.8	131.38	3.8365e-06	4.7702e-06	159.7	76.747	59.237	29.301	2.2949e-06	42.809	0.00090774	0.00086887	0.00024752	497.28	9.9945e-06	9.4169e-06	459	162.49	9.9047e-06	9.4704e-06	216.45	92.137	71.502	32.303	1.0302e-05	47.038	60.049	44.953	75.847	-70.633	141.788	-45.146	-71.418	-65.321	267.328	170.904	-67.853	-63.544	-61.613	-56.461	53.952	-59.581	-8191	255	
2925.072	1	1	0	0	0.23944	0.12609	0.23109	0.12346	0.21803	0.21116	0.10496	0.15275	0.28029	0.087624	0.11365	0.064749	0.3352	0.16042	0.168	0.097723	-2.3021	-2.1583	-2.5958	-2.7479	-2.2687	-3.075	-2.4625	-2.5687	-2.925	-2.1083	-2.9188	-2.8625	-2.3396	-3.0458	-2.4104	-2.6104	55.248	-81.897	-58.448	96.296	101.807	-42.982	270.096	262.844	5.300	-81.355	198.630	267.744	130.998	160.003	-6.775	185.420	0.00019187	4.1275e-05	0.00041236	382.26	1.0965e-05	6.3023e-06	371.52	131.05	5.7154e-06	8.5465e-06	159.48	77.256	59.129	29.257	5.0984e-06	42.464	0.00088521	0.00085706	0.00026224	494.19	9.8324e-06	9.2905e-06	469.19	161.21	9.7015e-06	9.3953e-06	219.82	91.438	71.112	32.339	1.0677e-05	46.479	199.981	-43.215	107.638	-70.827	82.904	-43.020	-71.313	-65.206	64.294	12.551	-66.881	-63.543	-61.187	-56.634	222.977	-60.056	-8191	255	
2925.170	1	1	0	0	0.15842	0.069333	0.15873	0.09837	0.30975	0.092024	0.10026	0.14599	0.2562	0.17465	0.18577	0.077784	0.14633	0.21485	0.045939	0.093692	-2.4833	-2.1479	-2.5271	-2.7083	-2.25	-2.7646	-2.4542	-2.5	-2.9292	-2.5312	-2.6396	-2.65	-2.0938	-3.0729	-2.5062	-2.4437	37.223	-20.847	61.698	196.280	159.389	-70.354	153.827	262.557	57.323	274.434	246.838	67.738	232.289	223.678	99.545	219.047	6.5691e-05	0.0012842	0.00026335	383.45	1.094e-06	3.4992e-06	372.92	131.44	5.0045e-06	8.7319e-06	161.35	77.877	59.61	29.397	3.3219e-06	42.24	0.0008436	0.00084252	0.00026424	481.95	9.1048e-06	9.0567e-06	464.68	157.87	8.7856e-06	8.9412e-06	215.6	88.854	69.443	32.162	1.0088e-05	45.367	151.464	61.187	48.193	-70.802	38.426	197.574	-71.453	-64.822	44.091	159.299	-67.237	-63.339	-60.851	-56.405	5.156	-59.734	-8191	255	
2925.264	1	1	0	0	0.39838	0.24018	0.17379	0.10005	0.037864	0.24566	0.082344	0.23408	0.072169	0.25522	0.19041	0.12788	0.18308	0.073927	0.093707	0.24378	-2.4	-2.4167	-2.4083	-2.8625	-2.2479	-2.7542	-2.7062	-2.2979	-2.9229	-2.4542	-2.5687	-2.8229	-2.2333	-2.7771	-2.9125	-2.225	-22.765	142.569	250.087	-60.396	131.408	62.125	220.845	170.763	173.357	149.323	-71.789	-57.349	-50.434	215.669	53.188	-35.466	0.00017922	0.00014558	0.00011898	379.82	6.5605e-06	2.6524e-06	368.98	131.22	7.1145e-06	5.9596e-06	163.06	78.033	59.395	29.055	4.7743e-06	42.455	0.00078405	0.00085417	0.0002565	475.42	8.9075e-06	9.5511e-06	461.25	156.39	8.6149e-06	9.5376e-06	214.2	88.054	68.73	32.3	9.5933e-06	45.104	155.701	162.990	114.724	-70.480	117.883	273.851	-71.142	-65.171	174.222	196.071	-66.315	-63.929	-61.005	-56.414	81.844	-59.898	-8191	255	
2925.360	1	1	0	0	0.14678	0.11985	0.093671	0.066278	0.18902	0.029035	0.16796	0.24916	0.14764	0.15266	0.051691	0.071877	0.18603	0.18704	0.22489	0.22912	-2.3146	-2.5604	-2.4229	-3.0792	-2.2	-2.7354	-2.6083	-2.1875	-2.825	-2.8021	-2.3271	-3.1792	-2.3187	-2.5521	-2.6104	-2.1875	75.525	106.113	237.715	230.125	-65.295	-14.744	152.091	177.561	52.018	44.765	-40.708	36.222	179.723	220.383	171.323	174.250	0.00028421	0.00050986	0.00016532	377.89	2.3517e-06	5.3784e-06	368.2	132.08	3.2065e-06	1.0773e-05	162.87	77.728	59.833	29.585	7.3355e-06	42.784	0.00074565	0.00086172	0.00023619	462.44	8.1491e-06	9.2319e-06	449.11	153.04	7.9591e-06	9.0784e-06	206.25	85.938	67.792	32.202	8.3386e-06	44.482	156.624	259.896	216.297	-70.273	249.789	125.101	-71.409	-65.167	-82.226	173.126	-67.132	-63.272	-60.559	-56.356	17.358	-59.844	-8191	255	
2925.457	1	1	0	0	0.15651	0.14528	0.081916	0.16917	0.054581	0.2736	0.27403	0.12859	0.054415	0.1203	0.039502	0.32064	0.1202	0.10349	0.26995	0.2674	-2.4479	-2.4	-2.2708	-2.7729	-2.3812	-2.6	-2.9542	-2.3063	-2.8021	-2.7458	-2.1729	-3.0021	-2.35	-2.5292	-2.9167	-2.3292	202.932	-5.931	97.034	263.374	239.986	52.846	74.302	64.222	179.670	-70.635	65.891	156.303	181.753	216.464	-29.618	-40.854	0.00038739	0.00061212	3.7227e-05	380.69	1.0747e-06	1.1176e-05	371.76	131.86	3.7417e-06	8.9962e-06	162.25	77.608	59.825	29.382	7.4291e-06	42.764	0.00070708	0.00081576	0.00021159	452.04	7.9918e-06	8.905e-06	439.6	150.65	8.1231e-06	9.0171e-06	202.98	85.567	68.744	32.123	8.2612e-06	44.211	151.930	111.827	191.188	-70.254	122.917	65.334	-70.778	-65.107	177.777	125.115	-67.116	-63.331	-61.268	-56.303	26.078	-59.970	-8191	255	
2925.577	1	1	0	0	0.25171	0.041895	0.25352	0.36936	0.071499	0.1615	0.10366	0.10602	0.31879	0.22147	0.15238	0.10123	0.3076	0.044381	0.13859	0.022095	-2.4042	-2.8208	-2.3604	-2.8708	-2.4833	-2.6208	-2.9333	-2.2521	-2.6708	-2.7167	-2.2146	-2.9667	-2.5583	-2.4458	-2.9437	-2.2938	157.276	-51.302	215.731	-77.021	216.535	89.728	223.238	147.334	273.294	-41.008	269.625	-50.709	4.784	73.531	10.341	140.734	0.00010853	0.00030484	0.00019646	379.78	4.7532e-06	3.3422e-06	366.48	129.97	5.616e-06	9.7403e-06	158.7	77.045	59.479	29.247	8.9634e-06	42.261	0.00076143	0.0008239	0.00020849	448.89	8.6413e-06	8.9532e-06	434.64	149.41	8.6759e-06	8.8096e-06	199.69	84.701	69.245	31.772	7.9991e-06	43.907	150.465	44.669	177.898	-70.712	268.831	-82.734	-71.307	-64.885	189.192	112.207	-67.294	-63.390	-60.929	-56.683	244.330	-59.659	-8191	255	
2925.673	1	1	0	0	0.16713	0.24066	0.29943	0.059237	0.11081	0.14247	0.096269	0.076041	0.17827	0.27875	0.14522	0.065323	0.11827	0.25418	0.17089	0.13147	-2.2708	-2.7812	-2.3167	-2.9125	-2.6958	-2.4792	-3.0375	-2.4292	-2.7	-2.7479	-2.2792	-2.7646	-2.6125	-2.225	-3.0417	-2.3229	185.492	-11.071	34.620	245.886	174.444	50.012	253.777	44.739	199.112	108.514	61.397	273.004	258.917	268.174	271.287	177.040	8.0717e-05	0.00041308	0.00036303	374.72	5.3678e-06	5.9495e-06	364.22	129.76	6.7516e-06	6.269e-06	158.19	75.599	58.852	29.12	6.6898e-06	42.094	0.00078922	0.00078648	0.00020236	446.97	8.9341e-06	8.5477e-06	430.32	149.77	9.0731e-06	8.59e-06	197.78	85.16	69.734	31.504	8.0282e-06	44.279	219.063	-15.378	-80.574	-70.151	50.744	43.047	-70.960	-65.099	28.517	10.126	-67.200	-63.167	-61.149	-56.545	254.414	-59.558	-8191	255	
2925.745	1	1	0	0	0.099834	0.27788	0.082385	0.15893	0.20569	0.041513	0.077637	0.26721	0.041806	0.27384	0.073814	0.21583	0.13546	0.12573	0.21327	0.12126	-2.2562	-2.6667	-2.3125	-2.8937	-2.4938	-2.225	-3.0667	-2.4167	-2.6521	-3.0938	-2.2188	-2.8292	-2.7625	-2.4646	-2.9208	-2.5062	-36.252	242.101	15.828	86.325	234.331	205.740	29.604	227.055	246.060	-56.632	-20.453	116.404	97.391	224.836	193.755	45.399	0.00014615	0.00044053	1.2317e-05	371.04	3.379e-06	8.9157e-06	363.7	128.42	3.8485e-06	7.4558e-06	159.66	75.267	59.095	29.242	9.2559e-06	41.906	0.00082535	0.00077087	0.00019997	451.95	8.9231e-06	8.1713e-06	424.33	149.94	8.649e-06	7.93e-06	193.87	85.337	68.576	31.28	7.7186e-06	44.61	194.954	-73.460	166.204	-70.729	15.689	80.222	-71.363	-65.699	33.597	32.983	-66.816	-63.268	-61.492	-56.321	38.350	-59.649	-8191	255	
2925.841	1	1	0	0	0.054085	0.22241	0.1794	0.12598	0.22979	0.047456	0.10661	0.13273	0.11375	0.16922	0.32851	0.22486	0.19472	0.2102	0.13217	0.38574	-2.1042	-3.0083	-2.2542	-2.7417	-2.6771	-2.2833	-2.8	-2.5729	-2.4208	-3.0812	-2.25	-2.775	-2.6625	-2.3083	-2.8792	-2.4396	61.314	-8.787	98.346	222.992	191.579	62.853	156.018	18.882	-33.042	-63.853	124.867	-47.174	-40.676	216.091	-28.707	-82.414	0.00014997	0.00064567	5.9757e-05	369.4	8.0065e-06	2.4618e-06	355.92	126.54	1.0612e-05	1.5148e-05	154.93	74.645	58.296	29.018	4.4774e-06	41.441	0.0008098	0.00076456	0.00020254	463.39	9.1894e-06	8.4925e-06	426.2	152.96	9.0853e-06	8.3909e-06	195.44	86.897	68.287	31.235	8.1236e-06	45.102	161.990	20.781	163.151	-70.043	85.503	62.063	-71.167	-64.724	51.916	42.497	-67.119	-63.387	-61.271	-56.069	186.236	-59.587	-8191	255	
2925.962	1	1	0	0	0.16877	0.10718	0.055621	0.081639	0.1723	0.026183	0.15975	0.12775	0.15768	0.11509	0.13795	0.40726	0.069092	0.27416	0.12152	0.12077	-1.9146	-3.0792	-2.4125	-2.7625	-2.7521	-2.2646	-2.7062	-2.7354	-2.2646	-3.1063	-2.2792	-2.8125	-2.8729	-2.3458	-2.825	-2.8312	36.799	58.056	241.274	-45.534	-7.833	-36.995	-77.525	-30.252	-30.719	257.062	-9.100	237.621	178.385	-7.961	-78.290	188.238	0.00014397	0.0012905	0.00021951	370.09	4.0752e-06	6.6644e-06	354.79	125.55	4.8586e-06	1.3145e-05	152.63	74.568	57.345	28.714	9.1829e-06	40.997	0.00080095	0.00075826	0.00021083	467.54	8.867e-06	8.3737e-06	428.55	152.49	8.7516e-06	8.2304e-06	197.73	87.328	67.67	30.969	8.8716e-06	44.885	229.621	6.321	133.420	-70.322	123.694	-13.867	-71.276	-65.484	-3.411	15.230	-66.352	-63.118	-61.422	-57.021	159.013	-59.401	-8191	255	
2926.058	1	1	0	0	0.16661	0.08874	0.16693	0.27541	0.23801	0.13892	0.082407	0.046848	0.15979	0.12401	0.08236	0.33875	0.28896	0.14233	0.25009	0.25127	-1.7979	-2.8604	-2.3458	-2.5062	-2.8583	-2.1792	-2.8187	-2.6562	-2.0438	-2.8167	-2.3292	-2.4229	-2.9354	-2.2458	-2.5	-2.7021	273.599	245.026	60.711	107.583	138.553	68.739	115.440	119.073	216.127	267.906	231.855	246.804	-40.029	206.844	50.012	247.425	8.2728e-05	0.00023072	0.00012555	368.43	6.9664e-06	5.2256e-06	350.57	123.3	1.3996e-05	1.1435e-05	149.33	73.738	56.468	28.417	5.8706e-06	40.472	0.00080653	0.0007754	0.00023447	470.13	8.9973e-06	8.5499e-06	437.35	151.8	9.036e-06	8.5047e-06	203.43	86.515	67.325	30.972	9.7628e-06	44.411	39.106	101.940	-17.089	-70.147	132.055	107.958	-70.971	-65.517	22.820	81.078	-66.985	-63.335	-61.107	-56.536	236.229	-59.463	-8191	255	
2926.154	1	1	0	0	0.1124	0.27705	0.12824	0.24338	0.17989	0.11762	0.11842	0.066936	0.072153	0.23334	0.33473	0.25616	0.098357	0.10159	0.081996	0.15263	-1.6292	-2.8896	-2.5521	-2.3708	-2.9	-2.4458	-2.8417	-2.7188	-2.1125	-2.7958	-2.5812	-2.2854	-2.7625	-2.3146	-2.6104	-2.9396	248.643	234.034	251.529	244.255	-25.540	181.595	89.051	34.934	218.451	271.132	104.692	-50.908	4.032	-34.883	152.805	21.965	0.00016533	0.0011217	0.00010927	365.93	2.2231e-06	3.0386e-06	346.99	122.29	2.9194e-06	4.0468e-06	149.33	73.299	56.774	28.472	1.5614e-05	40.591	0.00081448	0.00079376	0.0002549	469.14	9.118e-06	8.9694e-06	447.39	152.01	9.2672e-06	9.2075e-06	209.65	86.507	67.613	31.483	1.0501e-05	44.385	194.136	73.284	194.334	-70.097	24.704	129.184	-70.921	-65.240	87.115	126.935	-66.459	-63.227	-61.279	-56.168	144.521	-59.590	-8191	255	
2926.250	1	1	0	0	0.18809	0.14636	0.011408	0.32219	0.17601	0.27928	0.07941	0.30734	0.26654	0.30137	0.14443	0.071341	0.12271	0.030601	0.19935	0.11912	-1.6792	-2.75	-2.6396	-2.1437	-3.1688	-2.3292	-2.7208	-2.9896	-2.1896	-2.8125	-2.5875	-2.1708	-2.9271	-2.4521	-2.4833	-2.9854	200.201	27.455	-33.330	231.959	-32.035	229.546	150.363	217.123	-8.693	-19.562	-65.845	52.107	241.618	201.558	108.545	123.413	6.7316e-05	0.0010137	0.00021141	361.56	3.7765e-06	9.2948e-06	346.74	122.14	6.3589e-06	1.3376e-05	149.77	72.691	56.862	28.221	2.5431e-06	40.506	0.00081923	0.00085741	0.00026843	466.39	9.1129e-06	9.7268e-06	451.41	151.04	9.3308e-06	1.0078e-05	213.37	86.837	68.099	32.289	1.0932e-05	44.554	187.510	53.701	-26.189	-70.866	88.254	182.793	-70.836	-65.017	133.594	192.944	-67.506	-63.330	-60.946	-56.732	104.950	-59.739	-8191	255	
2926.369	1	1	0	0	0.13943	0.15013	0.23941	0.11902	0.08992	0.12066	0.23014	0.16494	0.20342	0.21821	0.15173	0.23399	0.08762	0.1278	0.19019	0.23915	-1.3958	-2.9021	-2.6396	-2.3271	-2.9042	-2.475	-2.3937	-3.0167	-2.325	-2.6583	-2.7229	-2.3063	-3.0729	-2.4729	-2.5771	-3.1979	12.176	182.674	-15.254	195.435	5.459	202.793	162.752	0.447	210.298	72.612	174.726	196.300	275.117	266.446	46.735	248.531	0.00015976	0.00059711	0.00035286	363.45	3.4161e-07	3.1472e-06	348.79	121.88	1.1458e-05	1.2907e-05	148.11	73.801	56.748	28.408	1.4466e-05	39.934	0.00083109	0.00093747	0.00026685	462.62	8.9295e-06	1.005e-05	441.81	148.22	8.7143e-06	9.9556e-06	204.13	84.946	66.906	32.307	1.0039e-05	43.754	167.907	164.496	56.997	-70.919	-16.307	271.917	-70.736	-64.910	142.127	118.476	-67.663	-63.192	-61.525	-56.414	23.179	-59.815	-8191	255	
2926.443	1	1	0	0	0.24173	0.19972	0.33889	0.3341	0.30989	0.038955	0.22732	0.055678	0.063041	0.20878	0.0044693	0.073725	0.020576	0.22065	0.15659	0.21528	-1.8021	-2.7146	-2.675	-2.3646	-2.8104	-2.5271	-2.4646	-3.0958	-2.4354	-2.4729	-2.7313	-2.3646	-3.0042	-2.6729	-2.5583	-2.975	203.468	192.171	36.880	120.810	194.186	9.702	-75.621	217.879	26.793	23.025	18.175	-36.972	36.532	255.068	124.142	-41.780	6.8146e-05	0.00086525	0.00012922	364.39	1.0309e-05	5.4494e-06	346.16	120.27	8.9192e-06	4.3099e-06	149.8	72.4	56.293	28.275	7.9641e-06	39.694	0.00083226	0.00096955	0.00025669	460.29	9.347e-06	1.0731e-05	440.57	147.4	9.3057e-06	1.0531e-05	201.96	83.94	67.568	32.227	9.4981e-06	42.973	103.861	33.048	-5.146	-70.134	-67.116	63.327	-71.182	-65.510	218.993	171.664	-67.309	-63.308	-60.870	-56.825	-37.145	-59.505	-8191	255	
2926.561	1	1	0	0	0.09767	0.15967	0.099915	0.13683	0.17357	0.16734	0.17613	0.019086	0.31778	0.08139	0.27439	0.17209	0.17193	0.28612	0.21622	0.20216	-1.9083	-2.5729	-2.7521	-2.1104	-2.7583	-2.6813	-2.2375	-2.9667	-2.4021	-2.7521	-2.8521	-2.1875	-2.6958	-2.6146	-2.1708	-3.0583	-69.156	-59.138	46.289	177.075	262.921	-19.165	-56.452	-1.208	219.275	198.710	238.839	249.943	275.793	241.310	187.072	-30.362	0.00030643	0.00072152	0.00015266	361.32	1.4506e-05	4.8475e-06	346.36	121.26	1.0696e-05	1.1123e-05	148.44	71.844	56.002	28.08	3.9482e-06	39.752	0.00084449	0.00094104	0.00023746	450.92	9.4116e-06	1.0249e-05	431.84	145.48	9.7664e-06	1.022e-05	199.04	83.273	68.455	31.951	9.2931e-06	42.905	158.577	226.810	-33.397	-70.324	-50.340	172.824	-71.462	-65.445	100.320	16.442	-67.046	-63.297	-61.225	-56.472	19.397	-59.581	-8191	255	
2926.658	1	1	0	0	0.21306	0.27122	0.22403	0.24402	0.19778	0.11789	0.18175	0.31475	0.11583	0.24089	0.36872	0.14356	0.14366	0.032343	0.11891	0.03865	-1.8813	-2.4625	-2.9604	-2.0312	-2.7417	-2.7896	-2.3375	-2.9042	-2.7604	-2.4417	-3.0083	-2.4604	-2.8083	-2.7229	-2.3375	-2.85	237.718	27.926	131.076	117.924	171.935	130.605	175.396	169.181	225.566	161.548	258.832	110.312	-53.753	-15.617	40.211	161.873	0.00047253	0.00084502	0.00018112	364.01	5.115e-06	4.7315e-07	343.42	119.91	5.1577e-06	3.7251e-06	149.04	72.423	55.766	28.419	1.8218e-06	40.111	0.00088948	0.00090104	0.00022807	450.62	9.735e-06	9.5986e-06	425.66	144.29	9.8494e-06	9.5544e-06	194.42	83.678	68.664	31.696	8.9564e-06	43.497	191.373	-31.728	18.279	-70.895	49.870	233.189	-70.886	-65.289	145.597	251.180	-67.581	-63.479	-61.178	-56.532	-69.098	-60.107	-8191	255	
2926.754	1	1	0	0	0.094343	0.2253	0.085091	0.17586	0.1475	0.070887	0.24636	0.16085	0.14036	0.19929	0.11179	0.16587	0.094041	0.064657	0.09976	0.095271	-2.0354	-2.425	-2.8521	-2.4792	-2.6479	-2.8479	-2.3	-2.9813	-2.7354	-2.3583	-2.9396	-2.2792	-2.5917	-2.9667	-2.1104	-2.9625	-43.191	104.317	270.965	163.261	164.587	220.434	135.650	170.004	211.902	122.494	83.603	31.348	-28.015	210.796	177.949	238.857	0.00019647	0.0014989	0.00018413	362.41	1.3252e-05	5.8637e-06	347.57	119.81	9.065e-06	1.0948e-05	147.5	71.923	56.198	28.391	6.652e-06	39.731	0.00092768	0.00088679	0.00022987	460.23	1.0449e-05	9.6731e-06	429.78	148.05	1.0512e-05	9.6441e-06	196.11	85.443	69.655	31.652	8.8966e-06	43.929	206.448	-63.280	165.401	-70.446	233.926	-21.711	-71.517	-65.558	120.704	8.030	-67.400	-63.644	-61.255	-56.684	-52.140	-59.238	-8191	255	
2926.850	1	1	0	0	0.15264	0.25324	0.13306	0.15328	0.057255	0.090626	0.41131	0.070447	0.30018	0.19953	0.10562	0.22672	0.12828	0.12941	0.1944	0.026968	-2.0312	-2.1354	-2.7354	-2.3688	-2.4792	-2.9667	-2.6083	-2.7646	-2.925	-2.4479	-2.9979	-2.6479	-2.475	-2.875	-2.2729	-2.8146	131.507	152.452	101.468	131.375	87.717	168.571	-40.188	227.983	81.157	9.636	26.334	24.216	189.517	255.594	198.562	137.064	0.00022727	0.00040482	0.0001138	364	1.3704e-05	3.6061e-06	347.71	119.87	8.4604e-06	8.084e-06	147.27	71.625	56.036	27.956	1.3832e-05	39.227	0.0009289	0.00087788	0.0002298	474.29	1.0597e-05	9.771e-06	432.61	152.71	1.0869e-05	1.0162e-05	200.73	88.353	70.574	31.838	9.6311e-06	44.814	252.251	135.675	-66.887	-70.600	59.009	95.751	-71.191	-65.333	100.032	47.023	-67.059	-63.377	-61.303	-56.663	226.116	-59.337	-8191	255	
2926.970	1	1	0	0	0.13689	0.23314	0.13386	0.19239	0.23977	0.34961	0.23482	0.23059	0.14602	0.22188	0.12331	0.25733	0.15227	0.37506	0.083973	0.099797	-2.4646	-2.3312	-2.8688	-2.6167	-2.1979	-3.0375	-2.2188	-2.8917	-2.9188	-2.5333	-2.8	-2.8	-2.2271	-3	-2.4146	-2.7396	226.124	-62.360	127.223	-10.744	180.558	121.157	100.328	195.695	145.710	135.822	-57.107	10.653	47.750	195.120	35.076	79.477	4.6783e-05	0.00033765	0.00026278	363.23	7.6644e-06	9.7956e-06	348.95	121.18	1.2381e-05	6.1126e-06	147.68	73	56.588	28.411	4.2983e-06	39.964	0.00095042	0.00088599	0.00023819	482.38	1.0099e-05	9.3597e-06	432.88	152.67	9.9411e-06	9.3625e-06	200.19	88.576	69.269	31.683	9.7909e-06	45.528	138.330	7.568	88.426	-70.185	74.187	92.398	-70.746	-65.280	-14.384	17.950	-66.633	-63.941	-61.206	-56.089	200.495	-59.872	-8191	255	
2927.042	1	1	0	0	0.21179	0.40527	0.10957	0.20085	0.20301	0.19021	0.40153	0.06502	0.14941	0.04173	0.049936	0.044353	0.20477	0.20895	0.14873	0.14754	-2.3979	-2.2083	-2.9479	-2.55	-2.225	-2.975	-2.5	-2.3771	-2.8958	-2.2104	-2.9833	-2.6667	-2.3167	-2.9979	-2.2729	-2.4875	61.335	22.848	88.756	-53.164	-36.918	63.268	215.067	164.571	264.505	204.253	76.908	64.564	182.997	273.584	190.390	168.286	6.511e-05	0.00076788	4.9886e-05	370.66	5.1949e-06	4.3306e-06	348.7	122.31	4.4888e-06	1.0776e-05	150.82	73.637	57.215	28.763	8.0771e-06	41.002	0.00091736	0.00088001	0.00025399	489.57	1.0139e-05	9.515e-06	447.72	155.68	9.8993e-06	9.2899e-06	207.08	88.626	68.782	31.565	1.0181e-05	45.591	252.614	-40.000	41.696	-70.143	33.922	234.552	-71.228	-65.665	254.521	51.827	-66.454	-63.544	-61.329	-56.520	127.673	-59.538	-8191	255	
2927.138	1	1	0	0	0.098153	0.10058	0.22917	0.22389	0.22338	0.22081	0.23524	0.12215	0.23062	0.26061	0.12962	0.13491	0.038383	0.23209	0.19302	0.075891	-2.3063	-2.1708	-2.7833	-2.9542	-2.3875	-3.0979	-2.6729	-2.5208	-2.9708	-2.3375	-2.7979	-2.9521	-2.2833	-3.075	-2.5375	-2.45	63.438	0.251	-57.533	96.851	110.773	100.113	15.892	156.107	80.653	2.257	179.210	175.476	77.275	183.840	56.134	104.881	5.8489e-05	0.00099994	0.0001388	371.74	1.9028e-06	1.0668e-05	354.42	123.49	4.7316e-06	1.2355e-05	151.79	74.167	57.669	28.955	5.9138e-06	41.723	0.00086387	0.00084228	0.0002616	482.76	9.6326e-06	9.205e-06	454.6	154.42	9.3664e-06	9.0792e-06	209.92	87.636	68.077	31.529	9.9681e-06	45.124	199.936	-48.333	72.190	-70.701	66.074	58.390	-70.967	-65.446	51.354	163.191	-66.272	-63.639	-60.986	-56.594	-79.433	-59.495	-8191	255	
2927.234	1	1	0	0	0.14935	0.16913	0.35288	0.084218	0.26196	0.092165	0.085306	0.12457	0.13107	0.079393	0.23917	0.18587	0.11949	0.075718	0.17758	0.23971	-2.4354	-2.1875	-2.6708	-2.9146	-2.2354	-2.8667	-2.6542	-2.275	-3.1646	-2.3979	-2.7354	-2.7521	-2.2167	-2.8792	-2.6937	-2.2917	243.134	58.925	31.418	169.456	-25.350	-22.768	226.066	5.697	-57.717	269.868	144.202	-57.090	35.696	208.043	88.782	212.329	4.4816e-05	0.00040159	0.00018999	373.82	6.1093e-07	9.4632e-06	358.99	126.42	7.9638e-06	3.056e-06	154.05	74.814	57.82	28.713	3.6735e-06	42.003	0.00079096	0.0008021	0.00025125	468.53	8.7181e-06	8.809e-06	453.7	151.82	8.7094e-06	9.0195e-06	209.04	86.547	67.263	31.576	9.6421e-06	44.637	69.336	119.777	119.165	-70.397	121.941	212.191	-71.532	-65.176	50.222	39.988	-67.586	-63.544	-61.724	-56.589	37.733	-59.482	-8191	255	
2927.353	1	1	0	0	0.21286	0.17121	0.12218	0.24522	0.07743	0.075221	0.060464	0.15108	0.060813	0.32505	0.15103	0.060864	0.32987	0.10689	0.13367	0.041047	-2.6458	-2.3854	-2.5833	-3.05	-2.2229	-2.8521	-2.9229	-2.3229	-3.0354	-2.5396	-2.7062	-3.1333	-2.325	-2.8042	-2.9354	-2.3917	-5.046	49.796	271.467	40.646	-38.284	-62.833	275.514	150.978	250.814	66.842	176.830	263.208	178.610	224.716	270.882	142.124	0.00021953	0.00039821	0.00031088	374.82	2.1251e-06	1.001e-05	366.32	128.56	1.151e-05	1.6151e-05	158.49	76.08	58.634	29.067	1.2642e-05	42.066	0.00072975	0.0007986	0.00023441	456.34	7.8194e-06	8.5893e-06	444.59	149.12	7.7687e-06	8.7425e-06	204.51	85.227	66.219	31.645	8.7654e-06	44.074	188.758	189.634	114.819	-70.160	276.068	180.529	-71.662	-65.146	55.034	130.261	-66.468	-63.694	-61.506	-56.336	-2.313	-59.424	-8191	255	
2927.449	1	1	0	0	0.015586	0.032159	0.11146	0.20948	0.16307	0.061752	0.047541	0.17576	0.20071	0.35898	0.16345	0.21479	0.16204	0.16809	0.16702	0.056416	-2.6917	-2.5646	-2.4562	-2.9062	-2.3979	-2.775	-2.9354	-2.3208	-2.875	-2.5479	-2.4021	-3.0646	-2.5229	-2.7938	-3.1375	-2.3208	-36.120	118.942	49.373	155.456	-33.291	-20.737	-8.395	125.431	73.041	137.390	137.546	105.226	173.895	-2.809	156.334	53.537	6.5789e-06	0.00052712	9.0874e-05	374.2	1.1402e-05	4.4842e-06	369.17	128.69	5.4922e-06	1.8225e-05	158.99	76.627	58.681	29.433	1.5002e-05	42.789	0.00069856	0.00081699	0.00022169	453.09	7.874e-06	9.0575e-06	444.24	149.43	7.9187e-06	9.0929e-06	202.83	85.149	66.976	32.037	8.3819e-06	44.33	255.420	155.380	266.785	-70.626	245.398	254.466	-70.936	-65.634	199.449	81.967	-67.341	-63.503	-60.974	-56.723	47.352	-59.296	-8191	255	
2927.546	1	1	0	0	0.097205	0.22917	0.26724	0.12388	0.16291	0.05405	0.19595	0.02426	0.19419	0.12073	0.22112	0.086479	0.047788	0.11221	0.09092	0.07032	-2.6	-2.6042	-2.3979	-2.9875	-2.4646	-2.9083	-2.9271	-2.2896	-2.7417	-2.7521	-2.4062	-3.075	-2.475	-2.5667	-2.8479	-2.1354	-16.590	-6.575	228.827	134.598	105.290	206.316	194.761	-3.373	163.852	37.624	83.834	181.228	198.309	193.437	192.009	38.023	0.00029024	0.00015272	0.0001914	378.85	8.7206e-06	1.2657e-05	369.99	129.28	4.6335e-06	1.2583e-05	162.57	77.243	59.135	29.656	2.4455e-06	42.923	0.00070494	0.00080877	0.0002078	449.01	7.974e-06	8.8844e-06	438.61	148.35	8.0813e-06	8.8129e-06	199.82	84.835	67.942	32.089	8.0084e-06	44.465	143.320	56.562	-73.048	-70.521	129.842	166.131	-70.946	-65.064	97.514	26.071	-66.984	-63.326	-60.871	-56.306	-56.022	-59.787	-8191	255	
2927.665	1	1	0	0	0.22503	0.082441	0.19544	0.061911	0.058819	0.24787	0.12012	0.29732	0.26508	0.37523	0.24724	0.2285	0.26361	0.10328	0.051869	0.076078	-2.1646	-2.6229	-2.2375	-2.9625	-2.5812	-2.4167	-2.9375	-2.4083	-2.7854	-2.9188	-2.2021	-3.0604	-2.5208	-2.5312	-2.9646	-2.2979	215.251	-47.223	105.204	69.174	181.716	-10.537	269.773	-33.349	-64.489	-15.084	-52.460	36.641	212.537	-72.510	174.268	180.822	0.00015477	0.00071665	0.00016566	376.38	1.9504e-06	8.4724e-06	374.1	131.61	4.2343e-06	5.1996e-06	161.12	77.846	58.932	29.358	6.8385e-06	42.865	0.00074859	0.0007939	0.00020311	445.91	8.4374e-06	8.5849e-06	439.08	148.95	8.443e-06	8.4335e-06	198.01	84.729	68.526	31.534	7.4788e-06	44.155	226.803	-60.671	-43.258	-70.368	194.936	128.861	-71.226	-65.471	99.206	7.018	-67.036	-63.274	-60.801	-56.144	43.639	-59.502	-8191	255	
2927.736	1	1	0	0	0.030074	0.045643	0.1297	0.12052	0.26576	0.035224	0.10768	0.34953	0.27091	0.049292	0.48749	0.40816	0.060303	0.067945	0.19575	0.15551	-2.1229	-2.7938	-2.1521	-3.0083	-2.4729	-2.4188	-3.1417	-2.3333	-2.7188	-2.9	-2.2458	-3.1479	-2.6896	-2.5729	-2.9917	-2.5354	95.090	101.689	266.814	31.321	260.372	3.504	154.362	123.234	-27.205	72.174	-72.865	-38.682	23.410	118.678	144.501	74.918	0.00033324	0.0017086	0.00016419	381.1	3.2097e-06	4.1771e-06	376.11	131.63	1.1859e-05	1.075e-05	163.63	77.806	59.367	29.494	1.8276e-06	42.977	0.0007433	0.0007304	0.00018818	446.07	8.3424e-06	7.9346e-06	433.62	149.49	8.4265e-06	7.9829e-06	196.81	85.33	68.781	31.374	7.3559e-06	44.673	193.285	-14.869	74.692	-70.289	228.515	-15.206	-71.181	-64.992	204.304	103.838	-66.681	-63.678	-61.325	-56.429	118.254	-59.187	-8191	255	
2927.832	1	1	0	0	0.079329	0.1034	0.13096	0.1612	0.16038	0.035531	0.17097	0.030008	0.11188	0.20916	0.10501	0.15043	0.12343	0.080664	0.18497	0.04839	-1.975	-2.8875	-2.1833	-2.7042	-2.7083	-2.1792	-3.2021	-2.3	-2.5375	-2.9646	-2.2333	-2.9125	-2.7917	-2.1937	-2.9333	-2.6729	180.414	-45.604	115.314	-80.679	15.285	-31.840	223.351	-21.416	80.327	81.873	-56.220	233.191	190.989	229.032	243.216	231.653	3.709e-05	0.00058199	0.00012701	376.28	2.2906e-06	6.49e-06	375.84	130.81	2.4618e-06	7.2879e-06	161.76	78.294	59.532	29.468	5.7163e-06	43.339	0.00076233	0.00070977	0.00018634	452.2	8.4804e-06	7.7782e-06	432.1	151.55	8.4953e-06	7.806e-06	196.45	87.157	68.832	31.341	7.3925e-06	45.47	30.350	4.578	-43.649	-70.392	75.017	-74.438	-71.108	-65.037	165.341	89.419	-66.972	-63.655	-60.910	-56.167	148.590	-59.409	-8191	255	
2927.928	1	1	0	0	0.18767	0.14821	0.19051	0.10741	0.27537	0.1076	0.19168	0.18461	0.14225	0.15566	0.10441	0.28614	0.088438	0.16487	0.2645	0.19691	-1.9958	-2.9729	-2.3396	-2.7583	-2.7	-2.3312	-3.0312	-2.3688	-2.4604	-2.9417	-2.375	-2.8875	-2.9729	-2.2521	-3	-2.6937	97.647	182.917	149.844	-41.624	113.246	210.077	151.096	190.731	199.437	175.102	-35.145	215.415	-37.162	258.665	27.350	193.712	0.00030533	0.00098228	0.00015642	381.58	2.0022e-06	1.0537e-05	378.55	132.51	5.2173e-06	4.4439e-06	164.93	78.193	60.141	29.527	6.3574e-06	43.816	0.00075859	0.00070569	0.000189	461.38	8.2466e-06	7.6041e-06	433.39	153.64	8.0595e-06	7.535e-06	197.87	87.677	68.082	31.219	7.414e-06	45.845	244.912	-23.912	1.818	-70.229	123.747	-67.968	-70.938	-65.577	-5.193	28.270	-67.053	-63.620	-61.286	-56.231	160.987	-59.846	-8191	255	
2928.049	1	1	0	0	0.14283	0.10926	0.37712	0.19275	0.071027	0.1964	0.26583	0.065005	0.15703	0.11263	0.13463	0.10579	0.1062	0.15366	0.22916	0.15583	-1.8542	-2.9792	-2.1813	-2.5021	-2.7396	-2.1604	-2.9646	-2.8604	-2.3396	-3.1437	-2.7958	-2.7438	-2.9	-2.1771	-3.0062	-2.8792	-81.178	256.261	43.627	-77.129	261.596	0.342	193.013	226.264	33.296	271.191	213.158	118.757	260.177	123.955	143.171	-42.878	0.00013344	0.00092175	0.00028636	381.24	3.8286e-06	6.5974e-06	378.02	131.67	4.9261e-06	9.6539e-06	163.57	77.697	60.083	29.677	9.9589e-06	42.806	0.00071801	0.00068633	0.00019345	463.78	7.9388e-06	7.4707e-06	438.57	154.29	7.7879e-06	7.3649e-06	199.89	87.523	67.553	30.968	7.8127e-06	45.227	258.023	-35.160	56.787	-70.147	205.520	80.485	-71.521	-65.566	-0.817	4.456	-67.043	-63.047	-60.861	-56.290	270.892	-59.670	-8191	255	
2928.145	1	1	0	0	0.070494	0.059045	0.093254	0.13433	0.072526	0.028756	0.1056	0.15186	0.10094	0.068017	0.17937	0.12588	0.15903	0.14229	0.30315	0.14427	-1.7583	-3.1729	-2.0771	-2.4562	-2.7938	-2.1667	-3.0917	-2.775	-2.2833	-3.0771	-2.5333	-2.5896	-2.8688	-2.4938	-2.6146	-2.8042	-8.351	121.481	274.486	-19.366	70.037	268.259	259.291	80.472	79.328	165.535	198.364	246.502	109.950	151.731	123.007	209.693	0.00013977	0.001228	0.00021928	381.55	7.219e-06	2.5887e-06	372.65	131.6	3.078e-06	4.2883e-06	162.65	78.014	59.254	29.343	1.1661e-05	43.12	0.00068871	0.00066069	0.00020309	459.72	7.5951e-06	7.2136e-06	440.46	152.24	7.5034e-06	7.1522e-06	200.68	86.55	66.739	30.796	8.128e-06	44.798	188.919	35.368	142.544	-70.180	4.855	127.656	-70.986	-65.653	2.894	225.802	-67.117	-63.649	-61.260	-56.435	120.098	-59.510	-8191	255	
2928.241	1	1	0	0	0.084773	0.12118	0.058188	0.086705	0.20612	0.053394	0.16732	0.37621	0.11568	0.06893	0.08207	0.17652	0.14134	0.1747	0.28126	0.053061	-1.8854	-2.9437	-2.3688	-2.4	-3.0729	-2.3812	-2.9083	-2.8146	-2.4417	-2.9333	-2.7083	-2.3875	-2.9521	-2.4313	-2.5854	-2.9479	-55.165	4.326	180.828	222.418	236.430	154.065	136.619	-61.959	110.223	-10.534	-81.783	177.781	146.383	37.382	170.072	184.696	9.1567e-05	0.0021451	0.00013796	376.44	9.377e-06	8.3258e-06	371.71	131.23	7.9689e-06	1.3471e-05	162.68	78.066	59.707	29.383	6.7693e-06	43.357	0.0006718	0.00065637	0.00020783	452.66	7.3781e-06	7.3182e-06	443.81	150.92	7.3569e-06	7.3821e-06	204.19	85.896	66.571	31.033	8.1328e-06	44.658	48.660	118.992	97.867	-69.965	98.086	125.476	-71.330	-65.248	-28.501	192.351	-66.590	-63.585	-61.226	-56.071	124.329	-59.392	-8191	255	
#DATA ENDS
