BOXY.EXE: ISS Imagent and Oximeter Data Acquisition Program Version 0.80
Ascii Record File

#ACQ INFORMATION
2  Detector Channels 
16  External MUX Channels 
1  Auxiliary Channels 
5000  Waveform (CCF) Frequency (Hz)
1  Waveforms Skipped 
30  Waveforms Averaged 
1  Cycles Averaged 
16  Acquisitions per Waveform 
10.0806  Updata Rate (Hz) 

#FILE INFORMATION
TRUE -- External MUX Channel results are PARSED.
FALSE -- AC DC and Phase are NOT grouped.
TRUE -- Companion Program Settings File CREATED.
FALSE -- AC data not excluded
FALSE -- DC data not excluded
FALSE -- Phase data not excluded
FALSE -- Auxillary Chn. data not excluded
Tab delimiters

#CALIBRATION STATE
TRUE -- Waveform Calibration Values APPLIED.


#AUX CALIBRATION VALUES
Val Type	aux-1	

Term	1.0000e+00	
Factor	0.0000e+00	


#WF CALIBRATION VALUES
A = Detector Channel
Val Type	A-AC1	A-AC2	A-AC3	A-AC4	A-AC5	A-AC6	A-AC7	A-AC8	A-AC9	A-AC10	A-AC11	A-AC12	A-AC13	A-AC14	A-AC15	A-AC16	A-DC1	A-DC2	A-DC3	A-DC4	A-DC5	A-DC6	A-DC7	A-DC8	A-DC9	A-DC10	A-DC11	A-DC12	A-DC13	A-DC14	A-DC15	A-DC16	A-Ph1	A-Ph2	A-Ph3	A-Ph4	A-Ph5	A-Ph6	A-Ph7	A-Ph8	A-Ph9	A-Ph10	A-Ph11	A-Ph12	A-Ph13	A-Ph14	A-Ph15	A-Ph16	

Term	0.00000e+00	0.00000e+00	0.00000e+00	0.00000e+00	0.00000e+00	0.00000e+00	0.00000e+00	0.00000e+00	0.00000e+00	0.00000e+00	0.00000e+00	0.00000e+00	0.00000e+00	0.00000e+00	0.00000e+00	0.00000e+00	0.00000e+00	0.00000e+00	0.00000e+00	0.00000e+00	0.00000e+00	0.00000e+00	0.00000e+00	0.00000e+00	0.00000e+00	0.00000e+00	0.00000e+00	0.00000e+00	0.00000e+00	0.00000e+00	0.00000e+00	0.00000e+00	0.00000e+00	0.00000e+00	0.00000e+00	0.00000e+00	0.00000e+00	0.00000e+00	0.00000e+00	0.00000e+00	0.00000e+00	0.00000e+00	0.00000e+00	0.00000e+00	0.00000e+00	0.00000e+00	0.00000e+00	0.00000e+00	
Factor	1.00000e+00	1.00000e+00	1.00000e+00	1.00000e+00	1.00000e+00	1.00000e+00	1.00000e+00	1.00000e+00	1.00000e+00	1.00000e+00	1.00000e+00	1.00000e+00	1.00000e+00	1.00000e+00	1.00000e+00	1.00000e+00	1.00000e+00	1.00000e+00	1.00000e+00	1.00000e+00	1.00000e+00	1.00000e+00	1.00000e+00	1.00000e+00	1.00000e+00	1.00000e+00	1.00000e+00	1.00000e+00	1.00000e+00	1.00000e+00	1.00000e+00	1.00000e+00	X	X	X	X	X	X	X	X	X	X	X	X	X	X	X	X	

B = Detector Channel
Val Type	B-AC1	B-AC2	B-AC3	B-AC4	B-AC5	B-AC6	B-AC7	B-AC8	B-AC9	B-AC10	B-AC11	B-AC12	B-AC13	B-AC14	B-AC15	B-AC16	B-DC1	B-DC2	B-DC3	B-DC4	B-DC5	B-DC6	B-DC7	B-DC8	B-DC9	B-DC10	B-DC11	B-DC12	B-DC13	B-DC14	B-DC15	B-DC16	B-Ph1	B-Ph2	B-Ph3	B-Ph4	B-Ph5	B-Ph6	B-Ph7	B-Ph8	B-Ph9	B-Ph10	B-Ph11	B-Ph12	B-Ph13	B-Ph14	B-Ph15	B-Ph16	

Term	0.00000e+00	0.00000e+00	0.00000e+00	0.00000e+00	0.00000e+00	0.00000e+00	0.00000e+00	0.00000e+00	0.00000e+00	0.00000e+00	0.00000e+00	0.00000e+00	0.00000e+00	0.00000e+00	0.00000e+00	0.00000e+00	0.00000e+00	0.00000e+00	0.00000e+00	0.00000e+00	0.00000e+00	0.00000e+00	0.00000e+00	0.00000e+00	0.00000e+00	0.00000e+00	0.00000e+00	0.00000e+00	0.00000e+00	0.00000e+00	0.00000e+00	0.00000e+00	-2.01755e+02	-1.34409e+02	-1.35399e+02	-1.83083e+02	-7.80460e+01	-8.12555e+01	-1.60467e+02	-1.62015e+02	-8.85724e+01	-1.01881e+02	-1.72403e+02	-1.72793e+02	-1.83201e+02	-1.78124e+02	-8.67152e+01	-1.50843e+02	
Factor	3.95846e-05	9.73124e-05	3.25810e-05	1.60056e-01	1.18439e-06	1.23687e-06	1.74041e-01	5.40722e-02	1.55454e-06	1.21527e-06	8.19567e-02	2.70238e-02	2.54596e-02	8.25599e-03	1.22934e-06	1.17843e-02	1.81825e-06	1.89526e-06	5.27697e-07	8.49425e-02	2.06298e-08	2.08177e-08	8.67731e-02	2.86734e-02	2.06830e-08	2.08248e-08	4.19639e-02	1.38319e-02	1.35346e-02	4.39431e-03	2.08435e-08	6.06864e-03	X	X	X	X	X	X	X	X	X	X	X	X	X	X	X	X	



#DISTANCE SETTINGS
A = Detector Channel
A-1	A-2	A-3	A-4	A-5	A-6	A-7	A-8	A-9	A-10	A-11	A-12	A-13	A-14	A-15	A-16	

2.5000e+00	3.0000e+00	2.5000e+00	3.0000e+00	2.0000e+00	3.0000e+00	1.5000e+00	3.0000e+00	3.0000e+00	3.0000e+00	3.0000e+00	3.0000e+00	3.0000e+00	3.0000e+00	1.5000e+00	3.0000e+00	

B = Detector Channel
B-1	B-2	B-3	B-4	B-5	B-6	B-7	B-8	B-9	B-10	B-11	B-12	B-13	B-14	B-15	B-16	

1.0000e+01	1.0000e+01	1.0000e+01	1.4400e+00	1.0000e+01	1.0000e+01	1.5100e+00	1.9400e+00	1.0000e+01	1.0000e+01	1.9900e+00	2.4900e+00	2.4100e+00	2.9000e+00	1.0000e+01	2.9800e+00	




#DATA BEGINS
time	group	step	mark	flag	A-AC1	A-AC2	A-AC3	A-AC4	A-AC5	A-AC6	A-AC7	A-AC8	A-AC9	A-AC10	A-AC11	A-AC12	A-AC13	A-AC14	A-AC15	A-AC16	A-DC1	A-DC2	A-DC3	A-DC4	A-DC5	A-DC6	A-DC7	A-DC8	A-DC9	A-DC10	A-DC11	A-DC12	A-DC13	A-DC14	A-DC15	A-DC16	A-Ph1	A-Ph2	A-Ph3	A-Ph4	A-Ph5	A-Ph6	A-Ph7	A-Ph8	A-Ph9	A-Ph10	A-Ph11	A-Ph12	A-Ph13	A-Ph14	A-Ph15	A-Ph16	B-AC1	B-AC2	B-AC3	B-AC4	B-AC5	B-AC6	B-AC7	B-AC8	B-AC9	B-AC10	B-AC11	B-AC12	B-AC13	B-AC14	B-AC15	B-AC16	B-DC1	B-DC2	B-DC3	B-DC4	B-DC5	B-DC6	B-DC7	B-DC8	B-DC9	B-DC10	B-DC11	B-DC12	B-DC13	B-DC14	B-DC15	B-DC16	B-Ph1	B-Ph2	B-Ph3	B-Ph4	B-Ph5	B-Ph6	B-Ph7	B-Ph8	B-Ph9	B-Ph10	B-Ph11	B-Ph12	B-Ph13	B-Ph14	B-Ph15	B-Ph16	aux-1	digaux	

14045.427	1	1	0	768	0.17367	0.20297	0.20039	0.26068	0.19623	0.22711	0.16908	0.36615	0.20175	0.026643	0.23588	0.12971	0.23744	0.29003	0.13171	0.13348	-2.1125	-2.2875	-2.8125	-2.6292	-2.5167	-2.7167	-2.6083	-2.7542	-2.7167	-2.4167	-2.8771	-2.4542	-2.5021	-2.8063	-2.3146	-2.6917	255.457	129.522	241.681	278.372	238.431	292.377	297.420	282.771	131.348	292.559	273.819	10.600	316.562	204.514	332.866	35.129	0.00034879	0.00010743	9.5043e-05	1107.4	4.6143e-06	3.4044e-06	1183.1	225.65	1.425e-06	8.8548e-06	279.33	76.722	60.881	17.235	3.4506e-06	24.006	0.00092572	0.00093609	0.00026582	1115	1.0304e-05	1.0365e-05	1187	233.84	1.0168e-05	1.0159e-05	291.96	81.69	65.951	19.099	9.9097e-06	26.409	25.321	99.885	149.653	-10.274	148.800	83.507	-10.530	-3.021	337.855	126.239	-3.285	3.411	3.764	11.105	194.043	10.551	-8191	255	
14045.523	1	1	0	0	0.13321	0.1332	0.061663	0.18067	0.16889	0.094633	0.37213	0.14087	0.14102	0.17468	0.12509	0.27136	0.10321	0.18028	0.16021	0.20551	-2.3	-2.0896	-2.8042	-2.5917	-2.4208	-2.6688	-2.4896	-2.5896	-2.5417	-2.2562	-2.8479	-2.6292	-2.3812	-2.8729	-2.4479	-2.6854	262.800	271.547	118.905	-19.605	305.846	159.691	282.123	267.621	75.694	310.612	323.926	336.393	8.062	208.982	202.523	272.251	0.00026992	0.00061244	8.1789e-05	1106.6	9.3642e-06	5.3735e-06	1177	225.68	8.3207e-06	2.7893e-06	280.34	76.612	61.074	17.418	9.5835e-06	23.873	0.0008841	0.0009004	0.00025024	1112.4	9.8025e-06	9.9086e-06	1184.6	234.16	1.0064e-05	1.0096e-05	292.2	81.875	66.14	19.179	1.048e-05	26.646	66.111	83.495	299.155	-10.634	150.916	116.705	-10.347	-2.940	220.860	321.111	-3.412	2.931	4.028	11.335	178.228	10.437	-8191	255	
14045.619	1	1	0	0	0.34467	0.0579	0.046141	0.2531	0.25223	0.073596	0.0249	0.080004	0.13248	0.20132	0.29582	0.23681	0.10366	0.21866	0.093834	0.17735	-2.3333	-2.3521	-2.6583	-2.7458	-2.4521	-2.8042	-2.7792	-2.6021	-2.8208	-2.3958	-2.7625	-2.6937	-2.2938	-2.6583	-2.5542	-2.5521	239.069	244.307	157.980	323.067	92.580	321.985	164.141	32.858	310.479	215.437	328.488	104.236	122.014	239.937	287.843	321.849	0.00043559	0.00082443	0.00022363	1108.4	6.7866e-06	1.147e-05	1184.5	225.27	9.7132e-06	6.3514e-06	281.2	76.822	61.381	17.114	6.7031e-06	24.109	0.0009398	0.00098194	0.00027162	1117.9	1.0758e-05	1.0945e-05	1194.5	235.32	1.1073e-05	1.115e-05	295.18	82.465	66.869	19.336	1.1305e-05	26.969	57.881	-13.745	206.658	-10.680	37.342	131.809	-10.445	-3.085	125.395	221.800	-3.118	3.101	3.902	11.268	81.365	10.369	-8191	255	
14045.715	1	1	0	0	0.11531	0.11685	0.18884	0.072632	0.08386	0.15878	0.15707	0.18338	0.039314	0.26618	0.18692	0.24543	0.027597	0.12888	0.15181	0.071668	-2.2479	-2.3729	-2.6604	-2.8479	-2.3958	-2.6542	-2.7375	-2.5396	-2.7146	-2.2979	-2.8896	-2.7146	-2.1875	-2.8375	-2.6021	-2.4	256.954	-17.075	305.109	214.193	76.260	177.981	247.942	325.400	52.407	193.615	124.140	249.696	23.748	27.525	-2.363	281.341	0.00043071	0.00028667	0.00025579	1112.9	9.0801e-07	1.8377e-06	1193.2	227.2	6.9075e-06	3.1549e-06	283.21	77.287	61.037	17.249	6.247e-06	24.098	0.0010063	0.0010394	0.00029556	1127.1	1.1502e-05	1.1566e-05	1203.1	237.38	1.1584e-05	1.1512e-05	296.46	83.243	67.119	19.469	1.1403e-05	27.066	54.943	318.901	177.308	-10.615	80.105	69.147	-10.784	-2.989	170.821	88.888	-3.383	3.313	3.633	11.163	333.242	10.713	-8191	255	
14045.812	1	1	0	0	0.13842	0.14342	0.13055	0.34892	0.11388	0.13643	0.16391	0.12778	0.23083	0.30965	0.35642	0.27191	0.17388	0.21009	0.036371	0.14972	-2.2354	-2.375	-2.6542	-2.8083	-2.2854	-2.7479	-2.6104	-2.5917	-2.8521	-2.5375	-2.6417	-2.7833	-2.3979	-2.8187	-2.6021	-2.3875	160.858	76.753	173.009	-19.731	140.915	253.372	223.878	13.419	273.866	221.145	200.700	313.239	263.789	8.266	258.837	184.080	0.00026432	0.00033994	9.3745e-05	1119.2	1.7333e-06	3.441e-06	1197.4	227.92	2.188e-06	2.4405e-06	283.08	76.995	61.663	17.387	3.0797e-06	24.196	0.00099159	0.0010051	0.00028234	1131.5	1.1018e-05	1.1104e-05	1206.1	237.5	1.1244e-05	1.1278e-05	296.37	83.015	67.374	19.549	1.1813e-05	27.193	48.357	275.498	77.276	-10.546	149.463	104.737	-10.474	-3.127	-8.348	312.436	-3.527	3.385	4.321	11.507	116.057	10.359	-8191	255	
14045.908	1	1	0	0	0.26318	0.043694	0.097468	0.15582	0.19109	0.13314	0.2764	0.41746	0.087557	0.099881	0.24308	0.027648	0.40898	0.13325	0.1043	0.1524	-2.4271	-2.4646	-2.575	-2.9354	-2.3958	-2.85	-2.6917	-2.375	-2.7167	-2.4437	-2.6792	-2.8458	-2.2271	-2.6562	-2.5708	-2.2938	312.776	2.654	92.498	276.637	67.957	94.014	247.906	264.091	255.852	224.982	271.021	175.011	271.255	261.344	102.271	304.265	0.00034926	0.00026577	0.00013047	1120.5	5.3271e-06	2.7968e-06	1198.7	227.34	4.9846e-06	7.0693e-06	282.85	77.322	62.05	17.378	6.8961e-06	24.229	0.0010538	0.0010744	0.00030462	1138	1.1945e-05	1.21e-05	1212.2	239.23	1.2191e-05	1.2296e-05	298.3	84.013	68.003	19.744	1.2513e-05	27.418	49.782	36.124	76.356	-10.749	99.312	14.023	-10.877	-3.085	324.851	155.481	-3.364	3.220	4.097	11.148	117.460	10.290	-8191	255	
14046.027	1	1	0	0	0.18378	0.13994	0.19518	0.27722	0.33923	0.14783	0.23473	0.13077	0.15208	0.10242	0.27928	0.10831	0.20444	0.17065	0.17139	0.20037	-2.4771	-2.525	-2.5542	-2.9104	-2.3708	-2.6604	-2.7646	-2.3708	-2.7208	-2.6104	-2.5229	-2.8917	-2.2042	-2.7687	-2.6562	-2.4854	294.012	131.890	81.437	299.528	214.268	-3.053	291.365	175.002	-14.833	273.244	308.201	9.068	308.150	276.460	296.935	263.076	0.00013297	0.0012341	0.00014454	1124	3.2671e-06	5.1183e-06	1190.4	228.35	1.0045e-05	5.0375e-06	283.01	77.193	61.378	17.434	2.6425e-06	24.382	0.0011041	0.0011147	0.00031136	1141	1.2253e-05	1.2304e-05	1211.5	239.47	1.2163e-05	1.2373e-05	299.65	84.085	68.243	19.844	1.2747e-05	27.599	12.229	319.143	143.686	-10.612	21.311	208.266	-10.519	-3.088	279.315	298.799	-3.307	3.027	3.986	11.190	22.172	10.120	-8191	255	
14046.123	1	1	0	0	0.22503	0.07622	0.14501	0.36408	0.13234	0.26063	0.26136	0.1606	0.11793	0.16665	0.038647	0.10452	0.15684	0.084074	0.32845	0.095428	-2.2812	-2.5375	-2.3396	-3.025	-2.3771	-2.6021	-2.8271	-2.3667	-2.8	-2.6375	-2.5062	-2.7854	-2.5417	-2.5896	-2.7604	-2.2729	326.238	95.662	3.428	275.249	35.256	88.404	297.827	242.096	28.443	197.736	263.959	-14.785	13.740	88.942	259.350	264.331	0.0004012	0.00056503	0.00014932	1127.9	5.8106e-06	3.1317e-06	1201.8	228.62	1.9764e-06	1.2645e-05	285.31	76.943	62.452	17.452	7.8047e-06	23.994	0.001124	0.0011655	0.0003246	1145.4	1.2591e-05	1.2608e-05	1218.4	240.7	1.2432e-05	1.2595e-05	300.83	84.111	68.575	19.799	1.2312e-05	27.315	54.884	13.478	132.473	-10.661	189.739	158.725	-10.433	-3.229	327.315	135.766	-3.580	3.425	3.811	10.882	59.882	10.968	-8191	255	
14046.219	1	1	0	0	0.017568	0.083028	0.20337	0.22915	0.20545	0.034513	0.23327	0.22032	0.12723	0.29997	0.18964	0.34364	0.064377	0.38776	0.070381	0.25252	-2.1688	-2.6562	-2.3375	-3.0292	-2.4604	-2.5521	-2.9062	-2.6271	-2.6104	-2.6729	-2.4333	-2.9062	-2.5812	-2.2667	-2.8521	-2.3667	105.960	104.193	207.101	5.888	203.709	169.672	291.923	320.570	173.706	7.516	263.766	270.290	61.283	-8.582	7.838	92.356	0.00049292	0.00076125	5.7723e-05	1132.3	7.3807e-06	1.3997e-05	1198.2	229.48	5.9263e-06	4.8906e-06	282.75	77.697	61.831	17.494	2.0601e-06	24.347	0.0010691	0.0010813	0.00029847	1141.5	1.1498e-05	1.1627e-05	1212.9	239.06	1.1569e-05	1.1472e-05	297.63	83.708	67.728	19.658	1.159e-05	27.262	90.855	263.342	140.978	-10.571	267.844	97.997	-10.411	-3.187	201.427	125.621	-3.509	3.112	3.734	10.820	175.282	10.250	-8191	255	
14046.315	1	1	0	0	0.061805	0.18249	0.091417	0.52371	0.17021	0.16079	0.2598	0.20413	0.10391	0.16049	0.206	0.21785	0.3279	0.21389	0.083903	0.34047	-2.2042	-2.7438	-2.1937	-2.8833	-2.5438	-2.3708	-2.9813	-2.6354	-2.6813	-2.8646	-2.5229	-2.8979	-2.6	-2.3187	-2.6875	-2.5938	322.901	234.504	297.386	323.948	101.740	-16.152	291.287	-13.553	63.300	1.171	20.980	222.326	185.886	317.140	199.658	270.792	8.5706e-05	0.00070097	8.2241e-05	1128.6	3.0568e-06	6.1879e-06	1204.6	229.24	1.5347e-06	6.4493e-06	283.65	77.178	61.494	17.481	4.8286e-06	24.261	0.0010251	0.0010516	0.00029227	1140.3	1.147e-05	1.1514e-05	1215.1	239.4	1.1577e-05	1.1556e-05	298.57	83.583	67.787	19.634	1.167e-05	27.263	29.716	311.897	32.152	-10.390	66.858	120.765	-10.445	-3.057	324.166	184.769	-3.730	3.333	3.643	11.004	313.775	10.027	-8191	255	
14046.411	1	1	0	0	0.074034	0.15487	0.2175	0.28744	0.26974	0.18896	0.17187	0.064465	0.074594	0.15774	0.23633	0.19063	0.10628	0.20302	0.28226	0.080423	-2.0729	-2.5271	-2.2917	-2.8812	-2.5917	-2.2687	-2.7646	-2.5458	-2.5458	-2.8646	-2.4271	-2.6625	-2.4542	-2.3312	-2.8208	-2.5104	12.049	54.423	71.512	319.110	326.901	175.357	268.608	188.174	51.528	291.721	310.305	294.024	190.917	54.759	294.442	305.137	0.00039542	0.00069452	7.1961e-05	1129.1	6.0618e-06	9.0597e-06	1206.1	228.49	2.3923e-06	1.2205e-05	284.19	77.833	62.497	17.365	4.1706e-06	24.431	0.0010236	0.001047	0.00029034	1142.5	1.1458e-05	1.1438e-05	1216.2	239.02	1.1521e-05	1.1651e-05	298.4	83.858	68.08	19.646	1.1825e-05	27.366	83.888	111.117	268.966	-10.787	324.785	62.886	-10.815	-3.112	218.750	130.742	-3.634	3.220	3.929	11.137	94.625	10.893	-8191	255	
14046.507	1	1	0	0	0.3263	0.20714	0.036851	0.080089	0.22439	0.060706	0.27162	0.045888	0.16025	0.14363	0.16716	0.28079	0.26683	0.2011	0.1124	0.12869	-2.1271	-2.7146	-2.2833	-2.8854	-2.8646	-2.3417	-3.025	-2.5604	-2.4854	-2.8625	-2.5771	-2.6813	-2.6458	-2.1542	-2.7708	-2.5042	-0.516	183.931	214.102	310.605	243.606	219.912	248.881	328.750	83.798	272.826	8.135	295.234	47.940	305.329	295.983	310.260	0.00040495	0.0002447	0.00012522	1130.2	4.3057e-06	4.6126e-06	1207.4	229.45	1.0525e-05	6.6156e-06	283.36	77.655	62.168	17.4	1.3764e-05	24.536	0.0010488	0.0010784	0.00029835	1144.3	1.1599e-05	1.149e-05	1219.3	239.65	1.1438e-05	1.1385e-05	298.39	83.514	67.903	19.568	1.1666e-05	27.319	58.323	227.872	25.283	-10.757	286.071	96.321	-10.633	-3.123	88.287	170.380	-3.187	3.266	3.859	10.787	140.427	10.329	-8191	255	
14046.604	1	1	0	0	0.18192	0.23885	0.15806	0.21964	0.11182	0.30187	0.10631	0.20411	0.31519	0.12774	0.34693	0.17413	0.26333	0.13254	0.21885	0.2213	-1.8167	-2.7896	-2.45	-2.7479	-2.7583	-2.2625	-2.8646	-2.3229	-2.3854	-2.8729	-2.5604	-2.4646	-2.7104	-2.2313	-2.7479	-2.5646	316.864	137.357	271.840	-19.060	271.120	190.947	292.420	20.486	17.816	195.017	268.614	308.042	147.787	108.137	-14.371	217.121	0.00011637	0.00066391	0.0001506	1131.8	9.7955e-06	8.8169e-06	1204.5	230.4	7.658e-06	2.4172e-06	282.49	78.144	61.919	17.418	7.3491e-06	24.475	0.0010375	0.0010684	0.0002998	1146.7	1.1887e-05	1.1882e-05	1220.4	240.04	1.1695e-05	1.1717e-05	299.04	84.062	68.04	19.671	1.1787e-05	27.434	66.571	40.967	185.492	-10.965	231.647	137.561	-10.389	-3.247	120.415	283.047	-3.403	3.098	3.445	11.115	331.070	10.596	-8191	255	
14046.722	1	1	0	0	0.18095	0.21292	0.20943	0.31956	0.32574	0.23346	0.17862	0.26813	0.20044	0.37608	0.25783	0.2105	0.23623	0.21497	0.086902	0.11731	-1.9208	-2.7562	-2.4938	-2.6958	-2.6437	-2.2417	-2.8333	-2.5667	-2.4958	-2.6625	-2.6521	-2.4396	-2.7938	-2.3563	-2.6125	-2.6875	302.921	292.376	275.204	256.308	17.969	-6.676	208.874	320.703	292.303	143.830	-1.406	333.484	123.041	244.795	246.358	320.231	0.00028644	0.00039749	5.7239e-05	1134.8	6.5593e-06	4.01e-06	1211.8	229.94	7.6397e-06	5.7862e-06	284.9	77.686	61.933	17.338	3.6456e-06	24.401	0.001043	0.0010783	0.00030153	1148	1.1854e-05	1.2043e-05	1224.3	240.56	1.2025e-05	1.2059e-05	299.84	84.258	68.403	19.808	1.2701e-05	27.686	39.894	72.845	65.458	-10.565	91.428	97.938	-10.340	-2.930	149.442	16.577	-3.760	3.111	3.757	10.921	150.292	10.565	-8191	255	
14046.819	1	1	0	0	0.12197	0.1022	0.15677	0.41267	0.23267	0.19364	0.017517	0.28765	0.36952	0.13259	0.10469	0.3943	0.25604	0.15747	0.058701	0.097731	-1.7896	-2.7812	-2.4375	-2.6021	-2.7667	-2.2812	-2.7687	-2.7313	-2.2375	-2.7875	-2.7438	-2.5604	-2.8812	-2.4437	-2.6833	-2.7354	199.076	268.949	42.882	307.963	88.770	253.022	-15.684	-10.598	281.034	-20.577	191.727	310.095	269.137	294.268	157.820	9.278	0.00015289	8.8634e-05	0.00014477	1145.2	1.2433e-05	9.4923e-06	1222	230.21	8.7061e-06	8.2655e-06	287.91	78.394	62.001	17.69	1.8665e-06	24.799	0.0011398	0.0011886	0.00033784	1163.6	1.3505e-05	1.3711e-05	1242.1	243.43	1.3846e-05	1.4006e-05	306.73	86.142	70.19	20.346	1.429e-05	28.329	44.092	313.247	121.710	-10.764	137.745	76.773	-10.659	-3.173	24.926	30.289	-3.592	3.062	3.913	11.044	108.557	9.840	-8191	255	
14046.915	1	1	0	0	0.10942	0.11865	0.14625	0.34599	0.084791	0.06361	0.19928	0.11787	0.059453	0.082796	0.11005	0.26401	0.24526	0.10547	0.053488	0.13391	-1.7313	-2.7125	-2.5979	-2.5896	-2.7708	-2.3167	-2.5146	-2.7687	-2.225	-2.5646	-2.7062	-2.45	-2.7958	-2.5854	-2.3917	-2.9813	327.970	243.899	222.172	267.947	123.912	54.151	327.712	238.941	82.273	216.994	35.891	6.845	323.583	85.038	275.797	-13.450	0.00036098	0.0004806	0.00018939	1159.2	7.2048e-06	1.0886e-05	1233.7	232.75	1.1565e-05	5.353e-06	287.29	78.875	62.946	17.838	6.7105e-06	24.66	0.0012542	0.0013124	0.00036193	1178.8	1.4176e-05	1.4251e-05	1256.8	246.53	1.4203e-05	1.4271e-05	307.98	86.897	70.49	20.528	1.4381e-05	28.474	109.884	66.902	9.871	-10.750	172.062	108.010	-10.542	-3.368	145.156	226.762	-3.670	3.311	3.793	11.277	141.513	10.400	-8191	255	
14047.011	1	1	0	0	0.057825	0.18963	0.13693	0.10623	0.11308	0.15515	0.22537	0.32365	0.22457	0.11996	0.17894	0.11479	0.076446	0.33589	0.26141	0.23379	-1.8521	-2.6688	-2.5667	-2.6312	-2.6833	-2.4521	-2.6542	-2.9792	-2.2979	-2.7687	-2.4458	-2.3542	-2.7979	-2.2875	-2.3812	-2.9458	10.080	129.406	279.685	316.443	34.464	195.466	222.356	305.110	299.173	254.645	314.915	73.750	263.197	234.532	126.071	6.645	0.00042309	0.00055666	0.00020417	1162.5	3.3788e-06	6.8916e-06	1241.5	232.93	3.2288e-06	1.5586e-06	289.61	79.434	62.993	17.808	3.1201e-06	24.791	0.0012812	0.0013095	0.00036792	1185.3	1.4283e-05	1.4511e-05	1261.8	246.72	1.4348e-05	1.4459e-05	308.93	87.11	70.78	20.617	1.4496e-05	28.545	48.406	119.756	88.353	-10.860	282.371	329.737	-10.833	-3.352	177.173	190.725	-3.849	3.462	3.747	10.264	198.524	10.243	-8191	255	
14047.107	1	1	0	0	0.19496	0.23297	0.13412	0.20899	0.078721	0.26855	0.21922	0.33164	0.11495	0.32797	0.12329	0.20985	0.21706	0.1668	0.23963	0.087124	-1.8188	-2.6729	-2.6729	-2.4208	-2.8125	-2.5	-2.5979	-2.95	-2.6063	-2.6437	-2.8208	-2.2875	-2.6125	-2.6042	-2.2958	-2.9208	137.525	59.335	56.886	211.467	286.075	5.486	257.017	-10.798	48.401	215.479	255.867	255.081	255.096	272.206	293.333	310.041	0.00028112	0.0010668	0.00025734	1163.8	4.8091e-06	2.9872e-06	1240.3	232.27	7.145e-06	2.2082e-06	288.41	79.379	63.258	17.765	6.0216e-06	24.755	0.0012675	0.0013072	0.00036428	1187.2	1.4362e-05	1.4415e-05	1262.4	247.03	1.4184e-05	1.4277e-05	308.6	87.048	70.796	20.434	1.4188e-05	28.478	55.905	118.705	146.779	-10.593	125.854	177.312	-10.706	-3.308	45.244	130.445	-3.375	3.144	3.455	10.632	193.336	10.200	-8191	255	
14047.203	1	1	0	0	0.23534	0.23783	0.040726	0.13111	0.16232	0.12677	0.17185	0.3153	0.08612	0.0456	0.068149	0.16964	0.20767	0.30718	0.076285	0.037701	-1.8958	-2.6625	-2.7396	-2.5438	-2.8375	-2.5771	-2.6375	-2.8333	-2.4792	-2.7271	-2.7917	-2.3063	-2.7667	-2.6729	-2.3187	-2.9604	164.049	88.145	246.612	329.212	8.475	238.800	226.117	257.515	8.499	103.938	143.143	330.232	171.661	130.537	92.991	217.889	0.00019693	0.00094895	0.0001607	1162.5	1.4185e-05	4.4989e-06	1234.1	234.46	7.3439e-06	3.9165e-06	288.73	79.286	63.277	17.929	5.031e-06	24.677	0.0012403	0.0012862	0.00036079	1187.9	1.4131e-05	1.4368e-05	1260.8	248.21	1.4424e-05	1.4545e-05	309.64	87.327	71.283	20.67	1.4716e-05	28.68	99.106	100.268	41.712	-10.686	196.269	238.833	-10.936	-3.627	149.553	111.059	-3.616	3.074	3.602	10.630	144.915	10.135	-8191	255	
14047.299	1	1	0	0	0.18487	0.28003	0.19476	0.094212	0.12273	0.028883	0.19553	0.27423	0.18654	0.021285	0.019943	0.13124	0.20858	0.042394	0.19261	0.21151	-2.1354	-2.5479	-2.6188	-2.4583	-2.7458	-2.8042	-2.4729	-2.9625	-2.6667	-2.5792	-2.8667	-2.6583	-2.6104	-2.7687	-2.4792	-2.8187	-12.460	100.870	293.173	276.057	80.546	166.230	305.030	-17.417	53.678	294.963	324.472	240.080	-19.010	147.350	328.187	280.870	0.00030484	0.00084731	0.00028151	1167.9	4.6836e-06	8.9187e-06	1245.6	234.84	5.0824e-06	7.4245e-06	289.91	79.367	63.376	18.025	3.0793e-06	25.012	0.0012995	0.0013624	0.00037609	1194.3	1.4857e-05	1.5079e-05	1271.3	249.28	1.5151e-05	1.5149e-05	312.08	87.903	71.983	20.895	1.5476e-05	29.041	77.319	66.198	319.030	-10.842	163.482	156.704	-10.598	-3.375	270.031	120.579	-3.974	3.346	3.852	10.766	269.424	10.193	-8191	255	
14047.395	1	1	0	0	0.024978	0.16212	0.047191	0.21407	0.30044	0.053637	0.35051	0.094046	0.20618	0.15955	0.17962	0.2525	0.14591	0.16379	0.2515	0.3803	-2.1292	-2.4771	-2.8333	-2.3688	-2.6583	-2.6292	-2.4062	-2.7062	-2.4313	-2.3625	-2.7875	-2.4125	-2.5938	-2.6167	-2.2083	-2.75	83.135	161.806	138.735	276.560	201.507	243.173	265.211	124.867	15.919	183.934	264.717	-14.223	266.789	200.369	31.712	258.683	0.00050125	0.00039803	0.00017666	1173.7	2.8266e-06	4.7877e-06	1243.8	234.18	1.529e-05	1.0967e-05	289.55	79.402	63.979	17.805	9.6364e-06	24.832	0.0013753	0.0014267	0.00039723	1202.9	1.5722e-05	1.5904e-05	1276	251.06	1.6304e-05	1.6509e-05	314.94	88.96	73.123	21.115	1.6794e-05	29.474	51.160	-4.730	118.382	-11.044	278.024	156.041	-10.617	-3.352	124.384	149.711	-3.685	3.010	3.771	10.595	146.457	10.369	-8191	255	
14047.516	1	1	0	0	0.25316	0.20275	0.44708	0.21832	0.22673	0.16736	0.16921	0.1261	0.12729	0.31529	0.16293	0.18686	0.18926	0.096569	0.083028	0.070015	-2.1042	-2.4104	-2.7458	-2.4271	-2.4333	-2.5667	-2.5312	-2.7479	-2.5229	-2.2188	-2.8396	-2.4208	-2.5083	-2.8417	-2.3542	-2.7292	312.162	270.972	-18.787	289.726	257.480	24.887	203.390	-2.092	181.568	280.247	8.804	297.003	14.191	273.948	101.468	277.617	0.0001899	0.00021285	0.00013294	1177.1	8.0694e-06	6.0588e-06	1243.3	237.39	1.0414e-05	8.7781e-06	291.38	80.287	63.465	18.009	5.5697e-06	25.062	0.0014918	0.001542	0.00043453	1210.7	1.6888e-05	1.688e-05	1282.7	253.64	1.6649e-05	1.6686e-05	316.09	89.427	72.966	21.223	1.6885e-05	29.459	139.744	248.545	122.779	-10.879	182.017	167.701	-10.810	-3.467	177.043	104.565	-3.739	2.691	4.062	10.916	33.092	10.680	-8191	255	
14047.588	1	1	0	0	0.18925	0.26956	0.29795	0.47614	0.15411	0.26651	0.15489	0.17409	0.21143	0.093759	0.32666	0.068531	0.22686	0.034714	0.14681	0.30975	-2.2979	-2.3312	-2.6896	-2.5812	-2.5104	-2.7667	-2.6146	-2.6917	-2.5187	-2.3688	-2.8917	-2.6208	-2.4021	-2.8521	-2.2958	-2.7583	300.970	228.435	139.947	313.781	268.420	8.319	301.302	179.056	139.509	240.045	150.721	236.934	274.897	-2.042	135.661	-7.286	0.00048122	0.000506	0.00022201	1179.3	3.5837e-06	3.5228e-06	1257.8	236.2	1.7332e-05	1.9791e-06	292.27	80.111	64.019	18.137	5.1873e-06	25.124	0.0014963	0.001547	0.00042974	1215.5	1.681e-05	1.6928e-05	1289.8	253.09	1.6881e-05	1.6816e-05	316.91	89.648	73.123	21.287	1.6779e-05	29.647	76.842	103.815	19.540	-10.934	-5.983	206.973	-10.649	-3.548	204.617	254.969	-3.575	3.235	3.579	10.404	29.801	10.378	-8191	255	
14047.708	1	1	0	0	0.13927	0.32333	0.03517	0.14346	0.19226	0.1903	0.13643	0.21827	0.15263	0.16606	0.23889	0.11191	0.12351	0.15682	0.065165	0.15595	-2.5104	-2.1937	-2.7562	-2.6146	-2.4062	-2.8146	-2.5958	-2.5708	-2.8688	-2.2979	-2.675	-2.5771	-2.3812	-2.9042	-2.4146	-2.675	231.202	43.009	151.688	320.679	235.586	70.722	286.173	184.581	254.117	240.880	284.975	176.803	281.181	107.523	161.913	329.651	0.00036486	0.00064465	9.8619e-05	1181.6	3.8103e-06	8.0446e-06	1251.7	237.41	7.1373e-06	6.3973e-06	293.27	79.893	64.733	17.992	7.4926e-06	25.098	0.0014812	0.0015198	0.00042396	1214.9	1.6499e-05	1.6845e-05	1289.1	253.42	1.6781e-05	1.6982e-05	318.35	89.62	73.531	21.312	1.7171e-05	29.704	96.024	177.528	118.859	-10.863	276.702	146.943	-10.704	-3.699	47.052	91.480	-3.492	2.846	3.727	10.252	19.011	10.013	-8191	255	
14047.805	1	1	0	0	0.07844	0.090294	0.15829	0.016616	0.26263	0.022131	0.31173	0.2185	0.13796	0.17659	0.2462	0.21653	0.34498	0.16093	0.17617	0.16427	-2.3208	-2.3625	-2.5542	-2.6417	-2.3438	-2.8333	-2.4813	-2.5604	-2.7479	-2.3375	-2.6937	-2.3979	-2.3292	-2.8	-2.5	-2.5896	38.620	230.389	87.294	15.605	26.857	245.139	280.629	290.230	37.472	261.917	277.390	269.508	242.390	298.655	26.144	314.102	0.00044737	0.00084369	0.00022564	1181.2	6.8787e-07	4.9078e-06	1258.7	237.01	2.4795e-05	7.3931e-06	291.69	80.167	64.04	17.92	3.0002e-06	25.229	0.0014976	0.0015481	0.00043289	1218.4	1.6772e-05	1.6811e-05	1292.5	254.17	1.6647e-05	1.7049e-05	317.82	89.959	73.689	21.354	1.7472e-05	29.841	20.777	99.873	52.461	-10.674	116.696	82.322	-10.481	-3.446	54.336	113.635	-3.303	3.198	3.881	10.579	28.641	9.921	-8191	255	
14047.899	1	1	0	0	0.22061	0.16236	0.17179	0.35686	0.13502	0.089594	0.45379	0.091412	0.10359	0.091884	0.084977	0.28141	0.15929	0.20796	0.083232	0.15022	-2.25	-2.2729	-2.7625	-2.6458	-2.2646	-2.7104	-2.6729	-2.5062	-2.7708	-2.4375	-2.6771	-2.75	-2.2562	-2.7708	-2.5917	-2.5417	28.725	241.187	-20.213	302.062	241.528	142.525	288.252	178.173	194.751	2.268	246.417	299.950	292.173	287.250	272.094	79.307	0.00012561	0.0006392	0.00017314	1186.5	1.1667e-05	1.0494e-05	1262.1	236.02	4.6368e-06	7.9543e-06	294.15	80.611	64.261	18.208	5.6793e-06	25.324	0.0015312	0.0015888	0.00044352	1222.1	1.7228e-05	1.7359e-05	1297.1	254.79	1.7245e-05	1.7229e-05	319.62	90.033	73.746	21.468	1.7189e-05	29.794	66.203	119.234	180.709	-10.874	170.628	44.718	-10.682	-3.272	204.615	60.512	-3.358	2.939	3.549	10.687	116.586	9.811	-8191	255	
14047.997	1	1	0	0	0.2588	0.19338	0.27924	0.32358	0.2088	0.24026	0.25229	0.10828	0.20942	0.17582	0.12415	0.026423	0.02984	0.082931	0.30645	0.099838	-2.4062	-2.425	-2.5125	-2.825	-2.4813	-2.8583	-2.7313	-2.3187	-2.6792	-2.35	-2.7229	-2.7625	-2.3187	-2.575	-2.6479	-2.3187	31.206	37.371	-4.448	314.019	222.479	55.946	302.473	122.013	121.370	305.774	110.629	131.296	-0.840	169.469	37.258	306.276	0.00033568	0.00066869	0.00032763	1191.6	1.3143e-05	6.3572e-06	1260.1	237.26	1.5002e-05	7.7778e-06	294.78	80.611	64.427	18.151	5.7629e-06	25.541	0.0014946	0.0015474	0.00043052	1221.2	1.6772e-05	1.7111e-05	1292.9	254.6	1.7016e-05	1.7327e-05	319.53	90.141	73.82	21.43	1.7383e-05	29.892	61.800	69.695	-17.603	-10.708	193.527	121.673	-10.574	-3.244	29.141	118.475	-3.688	2.973	3.468	10.730	129.598	10.178	-8191	255	
14048.116	1	1	0	0	0.22381	0.098967	0.14796	0.098089	0.19041	0.075125	0.32422	0.17286	0.1645	0.12847	0.135	0.23858	0.11573	0.20323	0.23045	0.084849	-2.3333	-2.3083	-2.3792	-2.8563	-2.3875	-2.7083	-2.9292	-2.4062	-2.7625	-2.4333	-2.4354	-2.7562	-2.1562	-2.4188	-2.7	-2.2146	283.834	222.520	242.064	310.899	94.178	266.861	248.005	217.811	-0.568	133.568	234.950	12.075	-9.995	147.276	315.855	17.137	0.00052571	0.00051167	0.00013237	1190.3	1.2995e-05	7.3758e-06	1264.3	237.27	1.7188e-05	1.9871e-06	295.77	80.49	64.475	18.109	1.2269e-05	25.191	0.0015231	0.0015733	0.00043832	1223.7	1.7143e-05	1.7291e-05	1296.4	255.22	1.731e-05	1.7418e-05	320.81	90.529	74.048	21.59	1.7761e-05	29.962	52.078	178.728	326.379	-10.812	264.310	108.069	-10.884	-3.233	138.478	205.510	-3.928	3.192	3.495	11.162	204.472	10.025	-8191	255	
14048.212	1	1	0	0	0.085082	0.083274	0.068324	0.10884	0.15982	0.27533	0.043103	0.083862	0.18208	0.12964	0.16509	0.20598	0.10295	0.2084	0.31633	0.30929	-2.4042	-2.5854	-2.3375	-3.1229	-2.5458	-2.6208	-2.7917	-2.275	-2.65	-2.6229	-2.6583	-2.7667	-2.4979	-2.5521	-2.7042	-2.3187	19.526	328.677	254.801	160.014	103.226	231.506	27.180	259.548	39.171	309.640	222.636	147.007	211.215	325.454	134.968	125.103	0.00016589	0.00035063	0.0001352	1188	1.1767e-05	7.5651e-06	1265.3	238.07	1.3865e-06	4.8974e-06	294.43	80.723	64.106	17.972	7.1124e-06	25.4	0.001532	0.0016081	0.00044951	1226.2	1.7276e-05	1.7284e-05	1300.3	255.57	1.7243e-05	1.731e-05	320.71	90.488	73.838	21.473	1.7182e-05	29.843	206.769	156.504	306.816	-10.887	57.431	288.279	-10.519	-3.313	316.507	230.480	-3.675	3.369	3.531	10.743	94.120	9.905	-8191	255	
14048.308	1	1	0	0	0.054674	0.10358	0.059693	0.23561	0.1032	0.060717	0.30366	0.14627	0.040308	0.10752	0.043748	0.22773	0.018799	0.15208	0.24824	0.040032	-2.0854	-2.65	-2.3417	-2.8208	-2.4688	-2.5229	-2.9	-2.2687	-2.7479	-2.55	-2.3833	-2.7958	-2.3604	-2.6	-2.7896	-2.3542	63.725	235.028	292.815	276.387	210.881	79.691	259.137	204.791	101.858	233.504	140.448	300.939	143.977	149.813	-13.416	262.930	0.00045163	0.00018576	0.00014281	1193.5	6.5258e-06	6.0767e-06	1264.8	238.21	8.3633e-06	9.8385e-07	294.98	80.59	64.276	18.013	3.757e-06	25.226	0.0015129	0.0015527	0.00043214	1225.7	1.6959e-05	1.7181e-05	1298.6	255.55	1.7229e-05	1.7345e-05	320.54	90.511	73.926	21.52	1.7787e-05	29.956	75.651	334.119	13.834	-10.795	130.600	118.489	-10.831	-3.119	91.021	147.035	-3.781	3.022	3.359	10.376	287.340	10.223	-8191	255	
14048.404	1	1	0	0	0.15614	0.26272	0.064967	0.24924	0.060445	0.20293	0.36698	0.064897	0.090567	0.16496	0.24994	0.049122	0.1188	0.1467	0.20181	0.37703	-2.1875	-2.65	-2.2771	-2.9417	-2.3812	-2.4354	-3.0125	-2.45	-2.6625	-2.7979	-2.3937	-2.8896	-2.5208	-2.4313	-2.6833	-2.3958	8.766	148.447	235.983	247.753	283.966	308.693	288.779	143.491	199.850	68.157	203.465	19.391	245.786	217.401	123.727	314.508	0.00022503	0.00027762	0.00022591	1191.4	8.8601e-06	3.6166e-06	1262.8	237.41	1.0926e-05	9.9128e-06	294.14	80.977	64.734	18.018	8.9229e-06	25.5	0.001563	0.0016157	0.00044852	1228.6	1.7503e-05	1.7553e-05	1300.8	255.92	1.7247e-05	1.735e-05	320.29	90.572	74.052	21.451	1.7226e-05	29.937	18.127	237.034	98.123	-11.009	328.318	62.442	-10.958	-3.534	261.995	315.412	-3.520	3.394	3.427	10.651	318.027	9.844	-8191	255	
14048.500	1	1	0	0	0.16839	0.21522	0.15462	0.25522	0.089516	0.17563	0.23003	0.093208	0.20481	0.32686	0.052068	0.23493	0.24395	0.19256	0.21694	0.12649	-2.2104	-2.5896	-2.3354	-2.8667	-2.5646	-2.1625	-3.0625	-2.6333	-2.6542	-2.5521	-2.3563	-2.8937	-2.6208	-2.3875	-2.9062	-2.5417	155.504	58.154	37.251	313.167	12.436	-11.353	30.493	24.729	69.402	306.229	319.494	-15.717	26.722	287.986	80.143	254.781	0.00012876	0.00024224	0.00037018	1190.6	4.3755e-06	6.7436e-06	1262.6	236.33	5.5084e-06	3.6252e-06	294.73	80.48	64.671	18.234	3.3983e-06	25.347	0.0015385	0.0015852	0.00043577	1224.6	1.7234e-05	1.74e-05	1297.5	255.35	1.7152e-05	1.751e-05	320.66	90.549	74.449	21.562	1.763e-05	30.021	4.693	334.193	102.634	-10.759	194.280	87.774	-10.588	-3.659	-7.556	205.210	-3.578	3.128	3.222	10.410	15.041	9.848	-8191	255	
14048.596	1	1	0	0	0.20181	0.044377	0.095682	0.32056	0.27527	0.19881	0.20671	0.036449	0.23982	0.092523	0.23311	0.24915	0.17247	0.11642	0.021426	0.099853	-1.9813	-2.7708	-2.2562	-2.7917	-2.5875	-2.2812	-3.0542	-2.4667	-2.35	-2.8042	-2.3792	-2.8021	-2.4771	-2.3104	-2.675	-2.5417	203.385	230.705	138.759	264.023	129.833	28.629	274.120	2.700	308.014	272.498	333.303	9.859	19.543	203.062	29.857	250.085	0.00034495	0.00033447	0.00017816	1188.1	1.2415e-05	5.662e-06	1267.8	237.63	7.685e-06	3.2699e-06	294.12	81.906	65.053	18.055	6.5414e-06	25.294	0.0015464	0.0016055	0.00044663	1226.5	1.7663e-05	1.7696e-05	1303.1	256.26	1.7682e-05	1.7557e-05	321.71	91.155	74.38	21.513	1.7358e-05	29.993	66.583	123.578	216.922	-10.969	299.498	258.955	-10.676	-3.189	214.062	16.473	-3.903	3.013	3.305	10.567	149.889	10.295	-8191	255	
14048.693	1	1	0	0	0.29658	0.072007	0.19533	0.2651	0.060464	0.081065	0.20391	0.17694	0.10265	0.41892	0.052792	0.29612	0.20531	0.25045	0.302	0.092456	-1.95	-2.6833	-2.4542	-2.7687	-2.5833	-2.2042	-2.9583	-2.5896	-2.4167	-2.6896	-2.3354	-2.6729	-2.7271	-2.1354	-2.6125	-2.6854	163.014	182.879	304.855	294.569	80.592	244.339	307.494	179.869	229.671	280.563	281.505	235.233	-11.148	316.475	126.634	268.509	0.00035715	0.00096561	9.6746e-05	1188.1	1.009e-05	9.0702e-06	1262.4	239.13	3.3342e-06	1.5756e-05	293.85	80.804	64.427	18.123	2.7918e-06	25.196	0.0015243	0.0015848	0.0004412	1227.6	1.7253e-05	1.7372e-05	1302.4	256.05	1.7406e-05	1.7523e-05	321.01	90.656	74.267	21.55	1.7545e-05	29.95	82.719	78.403	189.401	-10.790	305.301	75.090	-10.947	-3.405	237.653	100.832	-3.740	3.107	3.819	10.960	146.283	10.020	-8191	255	
14048.811	1	1	0	0	0.12599	0.30807	0.38626	0.31412	0.068954	0.082369	0.56685	0.11529	0.13293	0.22739	0.052326	0.21863	0.18099	0.16319	0.092282	0.22482	-1.8646	-2.6937	-2.325	-2.7604	-2.7167	-2.3729	-2.8271	-2.5646	-2.4208	-2.8479	-2.4292	-2.3438	-2.7812	-2.4271	-2.6479	-2.5542	51.673	26.126	11.081	243.595	55.142	148.736	275.851	205.847	302.861	174.715	138.937	248.643	234.723	260.734	152.611	160.654	0.00025173	0.00065265	0.00031982	1193.6	1.4998e-05	3.6684e-06	1269.4	237.41	9.4972e-06	1.2405e-05	295.06	80.392	64.613	18.12	1.042e-05	25.355	0.0015511	0.0015964	0.00044807	1230.2	1.7476e-05	1.7693e-05	1306.1	256.94	1.7403e-05	1.7667e-05	321.87	90.5	74.084	21.55	1.7586e-05	30.006	6.268	290.865	29.886	-11.056	94.108	36.198	-10.925	-3.116	152.369	40.913	-3.885	3.463	3.564	10.794	182.568	9.832	-8191	255	
14048.885	1	1	0	0	0.055683	0.19853	0.055858	0.13825	0.29253	0.1839	0.11492	0.034821	0.058165	0.12777	0.49825	0.19032	0.25892	0.23135	0.051116	0.082794	-1.8542	-2.6437	-2.3479	-2.6333	-2.5542	-2.3521	-2.5229	-2.7625	-2.1854	-2.7625	-2.3792	-2.4354	-2.8146	-2.3854	-2.625	-2.7313	250.696	325.291	281.571	16.547	138.580	333.197	318.850	222.358	216.703	71.607	253.932	279.540	6.276	91.997	178.490	221.776	0.00015112	0.00050278	0.00025191	1191.4	7.6747e-06	9.5456e-06	1268.8	238.1	7.3249e-06	2.5189e-06	294.93	81.235	64.38	18.098	7.091e-06	25.302	0.0015365	0.001584	0.0004422	1228.1	1.7324e-05	1.7424e-05	1303.9	256.58	1.7325e-05	1.7366e-05	321.7	90.764	74.06	21.464	1.7231e-05	29.895	75.115	312.406	130.702	-10.857	116.155	105.294	-10.541	-3.445	301.625	-3.652	-3.537	2.764	4.129	10.985	314.536	10.113	-8191	255	
14048.979	1	1	0	0	0.28067	0.19745	0.14509	0.32796	0.19679	0.23483	0.27924	0.083717	0.1489	0.13377	0.27658	0.074326	0.11357	0.054436	0.06689	0.3263	-2.0354	-2.5312	-2.6354	-2.5208	-2.7125	-2.2125	-2.7167	-2.8688	-2.2271	-2.625	-2.5479	-2.4271	-2.7375	-2.4062	-2.5542	-2.8083	165.463	43.135	247.461	279.688	147.311	304.583	247.100	223.179	255.290	300.681	304.271	81.521	330.132	28.489	111.016	39.505	0.00027756	0.00021385	9.0111e-05	1190.8	7.5225e-06	3.7719e-06	1268.2	238.72	1.259e-05	1.282e-05	295.91	81.309	64.695	18.286	3.3006e-06	25.302	0.0015196	0.0015708	0.0004399	1228.8	1.711e-05	1.7371e-05	1305.7	256.55	1.7314e-05	1.7367e-05	322.64	90.79	74.203	21.512	1.7446e-05	30.025	47.240	0.918	271.676	-10.590	133.692	231.480	-10.544	-3.540	129.967	-17.484	-4.038	3.391	3.593	10.749	67.109	10.128	-8191	255	
14049.077	1	1	0	0	0.17805	0.18045	0.20865	0.34719	0.22547	0.15541	0.35317	0.22793	0.08921	0.26529	0.22011	0.16234	0.17147	0.19378	0.1663	0.19065	-1.7563	-2.6688	-2.4625	-2.475	-2.7562	-2.3708	-2.5917	-2.7792	-2.3083	-2.7083	-2.5938	-2.5062	-2.8417	-2.6354	-2.5396	-2.9646	25.644	293.997	222.002	317.714	13.069	232.601	261.959	333.127	283.872	315.349	-9.038	-12.353	-3.749	230.052	110.835	288.939	0.00015772	0.00039873	0.00011071	1197.3	5.2463e-06	3.6585e-06	1265.8	239.44	8.4366e-06	1.4079e-05	294.71	80.512	64.217	18.037	8.4456e-06	25.344	0.0015405	0.0015894	0.00043988	1230.1	1.7247e-05	1.7405e-05	1303.7	257.24	1.7357e-05	1.754e-05	322.75	90.796	74.02	21.516	1.7634e-05	30.104	86.693	48.682	291.057	-10.834	35.114	229.577	-10.688	-3.431	152.997	292.361	-3.534	3.417	3.466	11.065	-5.207	10.488	-8191	255	
14049.196	1	1	0	0	0.15203	0.062571	0.068243	0.41994	0.034033	0.032948	0.15159	0.10409	0.26689	0.24678	0.24401	0.20457	0.13201	0.22336	0.17373	0.046551	-1.9875	-2.6688	-2.6917	-2.4813	-2.7917	-2.6937	-2.6542	-2.7375	-2.3312	-2.525	-2.7083	-2.4854	-2.7125	-2.6729	-2.4958	-2.7333	233.618	86.643	268.053	302.127	337.069	-7.189	183.975	43.638	99.483	257.571	-7.350	53.632	234.779	69.995	276.439	221.250	0.00024014	0.00097295	0.00016302	1199	9.7384e-06	6.2317e-06	1270.5	238.29	1.5194e-05	8.9782e-06	297.24	80.995	64.68	18.14	8.427e-06	25.66	0.0015353	0.0016048	0.00044188	1231	1.7277e-05	1.7333e-05	1305.3	256.42	1.7121e-05	1.71e-05	321.89	90.499	73.921	21.376	1.6945e-05	29.883	92.908	85.314	34.515	-10.941	59.079	126.028	-10.580	-3.544	114.691	220.187	-3.632	2.959	3.520	10.616	94.052	9.961	-8191	255	
14049.292	1	1	0	0	0.021158	0.052138	0.20454	0.28799	0.12743	0.12999	0.17907	0.10088	0.23024	0.14515	0.067331	0.18845	0.08825	0.10655	0.25428	0.13837	-2.05	-2.4354	-2.65	-2.3292	-2.775	-2.6833	-2.3958	-2.8583	-2.4354	-2.5687	-2.7854	-2.4729	-2.6937	-2.6042	-2.4167	-2.675	253.133	87.679	43.863	322.199	91.021	156.719	0.406	102.948	278.633	239.440	331.702	327.025	209.805	67.067	52.513	-5.449	0.00027724	0.00042174	0.00034436	1196.4	5.4388e-06	1.6246e-06	1271.2	239.27	9.9715e-06	5.9144e-06	294.53	81.004	64.562	18.164	3.9094e-06	25.351	0.0014712	0.0015374	0.00042777	1229.3	1.6674e-05	1.6792e-05	1303.1	255.47	1.6533e-05	1.6646e-05	320.29	90.207	73.692	21.309	1.6434e-05	29.724	85.186	118.193	57.514	-10.786	147.158	223.678	-10.574	-3.579	147.057	287.131	-3.503	3.075	3.642	10.964	91.955	10.130	-8191	255	
14049.388	1	1	0	0	0.25379	0.12997	0.076683	0.14312	0.092923	0.104	0.35648	0.12601	0.19701	0.10458	0.23872	0.25167	0.34983	0.23411	0.28152	0.083993	-2.0646	-2.4333	-2.7125	-2.4896	-2.7646	-2.5792	-2.3042	-2.8042	-2.3229	-2.4833	-2.6979	-2.2896	-2.5417	-2.5875	-2.2604	-2.5958	152.278	172.054	59.458	263.796	257.788	285.010	253.293	121.208	285.605	297.036	290.364	217.759	-12.870	-0.396	224.818	266.521	0.00012853	0.00027544	0.00023076	1198.2	6.8079e-06	8.6951e-06	1270.1	239.66	1.2637e-05	1.0831e-05	297.07	80.191	64.925	18.125	1.4269e-05	25.34	0.0014313	0.001473	0.00041041	1225.5	1.595e-05	1.6151e-05	1301.6	255.23	1.6061e-05	1.6111e-05	320.47	89.796	73.594	21.297	1.6251e-05	29.718	52.381	59.568	63.378	-10.840	227.003	128.239	-10.750	-3.487	195.184	149.852	-3.868	3.290	3.773	10.630	200.790	10.628	-8191	255	
14049.485	1	1	0	0	0.17721	0.19569	0.25095	0.22576	0.24438	0.056562	0.22441	0.36966	0.14722	0.17032	0.11089	0.12512	0.1773	0.16911	0.3878	0.085575	-1.9562	-2.4562	-2.7604	-2.6104	-2.7229	-2.7917	-2.4583	-2.8896	-2.5563	-2.4083	-2.8771	-2.6188	-2.5896	-2.6729	-2.2208	-2.7625	116.108	47.662	85.434	310.861	327.172	30.022	11.165	279.846	12.754	23.922	290.433	196.967	188.855	159.833	3.563	337.223	0.00020049	0.00074041	0.00012845	1195.4	6.2028e-06	6.9216e-06	1266.5	238.78	7.8786e-06	1.3498e-05	295.22	81.274	65.08	18.27	5.4e-06	25.426	0.0014289	0.0014757	0.00040924	1226.5	1.5904e-05	1.5831e-05	1297.7	254.85	1.5557e-05	1.549e-05	319.18	89.824	73.084	21.209	1.5559e-05	29.461	41.474	327.689	79.228	-10.654	66.930	138.847	-10.724	-3.252	180.233	308.150	-3.690	3.125	3.344	10.658	209.234	9.938	-8191	255	
14049.581	1	1	0	0	0.12183	0.14733	0.021967	0.36608	0.30408	0.10643	0.12466	0.098389	0.21104	0.1828	0.12908	0.11205	0.19281	0.15965	0.11833	0.12603	-2.05	-2.2521	-2.8417	-2.5146	-2.5396	-2.5438	-2.5104	-2.6917	-2.5062	-2.2604	-2.7979	-2.6125	-2.5729	-2.9062	-2.3958	-2.5958	302.628	187.719	22.638	324.720	337.258	157.783	214.685	264.165	157.311	195.245	311.235	175.676	-5.504	54.777	182.980	331.513	3.7486e-05	0.00076916	0.00012048	1202	2.3378e-06	5.2464e-06	1268.4	240.06	1.0355e-05	7.849e-06	296.57	81.494	64.985	18.209	2.7282e-06	25.304	0.001373	0.001436	0.00040123	1227.6	1.5658e-05	1.5711e-05	1300.3	254.68	1.5541e-05	1.5667e-05	318.82	89.65	73.115	21.165	1.5564e-05	29.576	9.818	34.638	39.171	-10.769	73.200	90.081	-10.977	-3.414	166.268	216.927	-4.023	2.775	3.585	11.181	77.985	10.230	-8191	255	
14049.677	1	1	0	0	0.20988	0.098007	0.12078	0.33633	0.015396	0.2252	0.28125	0.30624	0.11861	0.1911	0.092806	0.20075	0.2267	0.2886	0.28248	0.15363	-2.1875	-2.225	-2.7354	-2.6958	-2.55	-2.7854	-2.5167	-2.6354	-2.7146	-2.4083	-2.825	-2.4458	-2.5208	-2.6708	-2.1604	-2.6167	20.107	132.717	-8.118	-21.549	86.952	-9.928	316.937	313.349	316.053	281.604	102.631	3.873	330.240	5.540	30.661	159.176	0.00028632	0.001548	9.3061e-05	1199.1	9.3903e-06	8.4441e-06	1271.6	238.95	8.2739e-06	5.9383e-06	294.65	81.5	64.509	18.146	2.3624e-06	25.649	0.0013813	0.0014246	0.00039243	1225.3	1.5526e-05	1.5554e-05	1299.2	254.7	1.583e-05	1.5965e-05	318.91	90.05	73.424	21.317	1.6066e-05	29.777	43.134	94.843	27.176	-11.137	100.648	60.123	-10.521	-3.627	101.415	54.189	-3.842	2.803	3.432	10.732	46.800	10.437	-8191	255	
14049.797	1	1	0	0	0.23302	0.13614	0.052589	0.28987	0.14842	0.33317	0.18193	0.29403	0.11569	0.2028	0.072253	0.087997	0.054199	0.11855	0.050723	0.053123	-2.1958	-2.3229	-2.7812	-2.5604	-2.3812	-2.8271	-2.5563	-2.6813	-2.5938	-2.2417	-2.6917	-2.55	-2.3937	-2.725	-2.4854	-2.6104	270.875	53.051	150.631	324.483	244.948	170.250	290.994	221.494	285.004	-16.874	-5.542	304.967	255.861	282.976	165.101	117.888	0.00020129	0.00035015	0.00033648	1195.8	6.2637e-06	7.0123e-06	1269.7	240.31	2.9259e-06	7.8202e-06	298.08	81.379	64.906	18.437	6.8129e-06	25.45	0.0014296	0.0014707	0.00041081	1226.1	1.6183e-05	1.627e-05	1300.8	256.2	1.6099e-05	1.6323e-05	322.08	90.301	73.94	21.49	1.6792e-05	29.857	54.288	115.284	74.962	-10.834	112.379	43.497	-10.671	-3.483	237.772	173.432	-3.700	3.182	3.704	10.979	29.298	10.408	-8191	255	
14049.892	1	1	0	0	0.055355	0.07466	0.13796	0.033596	0.22067	0.056243	0.12158	0.208	0.12231	0.15283	0.28978	0.10735	0.21973	0.08979	0.16399	0.22547	-2.325	-2.2167	-2.4542	-2.6354	-2.2562	-2.7687	-2.6958	-2.5167	-2.8542	-2.2146	-2.7646	-2.625	-2.5438	-2.7333	-2.5208	-2.5292	292.755	31.346	296.874	287.541	26.401	217.808	175.369	287.813	231.647	252.847	301.817	271.674	17.475	269.383	52.928	309.911	0.00065664	0.00066428	0.0002596	1195.5	1.1431e-05	2.4541e-06	1271.6	239.71	1.3845e-05	1.7337e-05	297.48	80.782	65.113	18.05	1.1993e-05	25.466	0.001487	0.0015266	0.00042727	1230.3	1.6785e-05	1.691e-05	1305.4	256.7	1.68e-05	1.6869e-05	322.53	90.53	74.041	21.411	1.6918e-05	29.877	39.146	95.250	91.182	-11.040	175.854	47.957	-10.618	-3.135	135.903	191.417	-3.578	3.125	3.600	10.951	38.515	10.523	-8191	255	
14049.988	1	1	0	0	0.22192	0.011767	0.23432	0.1222	0.06293	0.089447	0.24612	0.3081	0.13276	0.23343	0.10914	0.17772	0.091157	0.14688	0.11767	0.16345	-2.45	-2.3625	-2.5854	-2.6917	-2.1729	-2.5646	-2.4396	-2.4167	-2.7125	-2.475	-2.7	-2.7521	-2.5125	-2.7646	-2.4979	-2.5625	324.879	122.222	259.357	244.527	337.160	326.659	279.555	273.778	151.311	76.601	236.221	242.620	190.467	-10.377	325.656	285.086	0.00059716	0.00092032	0.00019718	1197.1	4.8864e-06	8.7937e-06	1272.2	238.99	1.2355e-05	1.0607e-05	297.39	81.399	64.57	18.249	1.2805e-06	25.437	0.0014844	0.0015395	0.00042895	1230	1.6786e-05	1.6899e-05	1305.6	256.54	1.6695e-05	1.6931e-05	322.2	90.556	74.052	21.465	1.6901e-05	29.873	55.148	332.097	37.628	-10.669	117.354	231.102	-10.443	-3.696	-5.636	-21.025	-3.384	2.972	3.841	10.633	177.594	10.096	-8191	255	
14050.109	1	1	0	0	0.10103	0.31681	0.18958	0.18793	0.18427	0.26466	0.11776	0.10738	0.14122	0.13871	0.27373	0.1025	0.13527	0.39379	0.081814	0.16988	-2.4125	-2.3521	-2.4417	-2.6583	-2.2333	-2.6375	-2.6833	-2.3979	-2.7687	-2.4458	-2.6063	-2.7083	-2.25	-2.6271	-2.4771	-2.4292	108.690	-17.158	308.853	-19.390	-14.294	281.147	330.381	5.022	122.035	20.297	274.539	96.173	85.245	335.129	280.621	274.501	9.7472e-05	0.00031027	7.2552e-05	1197.3	1.1306e-05	5.1849e-06	1269.6	240.22	7.5939e-06	9.5662e-06	296.42	81.353	64.531	18.124	9.1328e-07	25.248	0.0014909	0.0015365	0.00042637	1229.5	1.6674e-05	1.6943e-05	1304.9	256.57	1.685e-05	1.6894e-05	322.02	90.898	73.99	21.484	1.7227e-05	30.022	13.829	88.715	328.582	-10.770	113.147	261.507	-10.657	-3.423	68.050	90.215	-4.063	3.191	3.259	11.095	258.084	9.732	-8191	255	
14050.180	1	1	0	0	0.21615	0.053813	0.22688	0.25273	0.27852	0.2606	0.1372	0.27132	0.28004	0.1876	0.1988	0.35593	0.25799	0.11124	0.093169	0.085173	-2.45	-2.4479	-2.5458	-2.825	-2.3	-2.6146	-2.6958	-2.4542	-2.6896	-2.4667	-2.7708	-2.7292	-2.2146	-2.4958	-2.8125	-2.4062	249.020	188.241	279.889	148.991	22.396	209.593	224.793	317.842	311.560	68.937	48.444	249.676	164.282	262.067	233.544	253.677	0.00031753	8.9733e-05	7.1685e-05	1203.1	4.7353e-06	4.9433e-06	1269.2	239.14	1.2752e-05	1.0952e-05	297.56	81.411	64.702	18.204	3.7775e-06	25.507	0.0015148	0.0015675	0.00044063	1233.3	1.7134e-05	1.7315e-05	1305.9	257.18	1.7308e-05	1.741e-05	324.03	91.08	74.399	21.568	1.7644e-05	30.223	48.201	271.286	-0.704	-10.705	-0.208	76.121	-10.857	-3.181	147.585	173.408	-4.042	2.982	3.849	10.658	-5.937	9.896	-8191	255	
14050.276	1	1	0	0	0.19893	0.19624	0.19986	0.17787	0.038336	0.14717	0.11236	0.086559	0.13403	0.11807	0.12992	0.10913	0.28264	0.20524	0.1205	0.12022	-2.2333	-2.5938	-2.4813	-2.8917	-2.2417	-2.5125	-2.7146	-2.5042	-2.5479	-2.4938	-2.3979	-2.8542	-2.4604	-2.7208	-2.7687	-2.375	244.346	291.040	149.874	32.939	42.238	129.864	-6.332	177.357	-0.537	200.342	297.356	47.938	253.664	272.676	5.393	276.287	0.00016263	0.00049404	0.00020412	1197.4	7.377e-06	7.0449e-06	1262.6	240.33	6.5649e-06	1.0588e-05	298.54	81.116	64.669	18.066	5.2887e-06	25.404	0.0015627	0.0016283	0.00045017	1232.8	1.7799e-05	1.7739e-05	1307.6	257.81	1.7628e-05	1.788e-05	324.49	91.254	74.719	21.652	1.7888e-05	30.175	76.279	-7.110	212.669	-10.815	266.440	163.924	-10.483	-3.320	83.146	75.736	-3.485	3.396	3.669	10.623	101.655	10.019	-8191	255	
14050.373	1	1	0	0	0.11336	0.16868	0.057389	0.17775	0.40078	0.17748	0.11191	0.029408	0.23789	0.15599	0.19284	0.15161	0.24613	0.046974	0.12975	0.087619	-2.2583	-2.4313	-2.2417	-2.8333	-2.3396	-2.4146	-2.7042	-2.1917	-2.6625	-2.5375	-2.2938	-2.8917	-2.3563	-2.3979	-2.8458	-2.3271	120.041	8.883	108.244	275.007	231.599	151.467	241.308	36.652	310.131	164.108	302.020	126.100	78.582	314.607	19.199	338.094	0.00017836	0.00071057	0.00036771	1196.5	8.3225e-06	1.3235e-05	1273.9	240.24	1.462e-05	1.7664e-05	296.41	80.889	64.894	18.27	3.3891e-06	25.447	0.0015844	0.0016472	0.00045634	1236.9	1.7947e-05	1.818e-05	1311.7	258.39	1.7914e-05	1.8014e-05	323.84	90.794	74.47	21.588	1.7213e-05	29.91	89.085	43.920	9.414	-10.946	151.191	261.055	-10.523	-3.316	65.821	202.103	-3.625	3.129	3.311	10.762	149.761	10.403	-8191	255	
14050.493	1	1	0	0	0.081382	0.042241	0.20444	0.22294	0.12763	0.12666	0.15162	0.335	0.041809	0.23836	0.039487	0.12345	0.055085	0.060478	0.1895	0.20089	-2.1729	-2.4542	-2.2479	-2.6833	-2.4437	-2.3	-2.9	-2.3354	-2.5375	-2.6354	-2.3354	-2.7313	-2.2146	-2.4625	-2.6854	-2.4104	295.887	83.344	298.929	10.530	326.270	143.162	316.958	310.880	249.360	217.951	329.675	285.939	-15.105	-18.366	310.951	268.369	0.00025623	0.00034611	0.00016333	1194.4	3.4856e-06	6.0825e-06	1268.2	239.42	1.4677e-05	1.919e-06	298.56	81.861	64.653	18.129	1.2477e-05	25.489	0.0014871	0.0015357	0.00042439	1227.5	1.6639e-05	1.6848e-05	1303.8	256.95	1.7006e-05	1.722e-05	323.39	91.035	74.59	21.638	1.7962e-05	30.269	82.953	28.192	154.313	-10.820	-19.573	179.001	-10.631	-3.368	78.629	-10.499	-3.766	2.860	3.845	10.971	176.393	9.934	-8191	255	
14050.589	1	1	0	0	0.29835	0.041001	0.20805	0.18609	0.030451	0.33383	0.37631	0.1201	0.04632	0.12528	0.23326	0.31011	0.27982	0.16858	0.13319	0.19649	-1.9333	-2.4375	-2.2792	-2.8229	-2.5125	-2.3	-2.9229	-2.2833	-2.4646	-2.6854	-2.4062	-2.7062	-2.4229	-2.3354	-2.6417	-2.3729	122.862	30.128	166.694	50.251	269.502	187.029	277.597	105.199	120.552	150.982	109.590	226.775	321.124	-3.146	304.259	-21.310	0.00025172	0.00022512	0.00024277	1195.1	9.437e-06	2.8832e-06	1272.1	239.58	9.1377e-06	7.0103e-06	299.01	80.956	65.142	18.33	6.2961e-06	25.25	0.0015939	0.0016434	0.00046419	1236.1	1.809e-05	1.813e-05	1312.9	258.06	1.7918e-05	1.7937e-05	324.68	91.199	74.637	21.64	1.7586e-05	30.048	320.377	124.253	148.387	-10.870	133.512	240.444	-10.715	-3.369	327.496	226.132	-3.604	3.246	3.634	10.933	18.415	10.131	-8191	255	
14050.686	1	1	0	0	0.15646	0.1199	0.29212	0.28654	0.246	0.22245	0.29448	0.060868	0.12776	0.13179	0.15832	0.16521	0.27391	0.12158	0.19627	0.14956	-2.1854	-2.6688	-2.1	-2.6542	-2.3479	-2.1229	-2.8854	-2.7	-2.5396	-2.6708	-2.4271	-2.6	-2.5396	-2.3521	-2.7396	-2.2292	167.293	252.855	172.453	336.419	273.507	148.973	268.690	261.327	266.700	228.158	293.288	11.105	297.499	309.075	183.824	309.354	0.00055278	0.00053777	0.00010737	1196.9	2.9035e-06	6.3428e-06	1269.1	240.04	9.2957e-06	8.2813e-06	296.96	81.501	64.828	18.46	4.0519e-06	25.402	0.0015493	0.0015888	0.00043867	1232.9	1.7121e-05	1.7214e-05	1307	257.37	1.7311e-05	1.725e-05	323.55	90.968	74.394	21.645	1.7486e-05	30.16	44.005	55.462	281.910	-10.951	57.438	87.019	-10.706	-3.620	233.276	331.307	-3.361	3.309	3.365	10.689	326.387	9.947	-8191	255	
14050.757	1	1	0	0	0.046616	0.026652	0.26567	0.19866	0.12712	0.1617	0.2632	0.32925	0.2044	0.30504	0.26018	0.1293	0.3107	0.19807	0.1663	0.25375	-1.7958	-2.6021	-2.2958	-2.65	-2.6229	-2.4146	-2.8854	-2.6083	-2.4188	-2.7958	-2.4208	-2.6583	-2.5958	-2.3937	-2.6729	-2.6208	161.949	53.623	242.420	295.177	279.600	6.080	235.769	321.032	-14.318	148.776	282.728	129.832	155.008	268.178	126.436	-12.363	0.00036943	0.0005795	0.00030178	1201.6	6.8741e-06	3.6796e-06	1271.5	241.31	4.9692e-06	5.2695e-06	297.72	81.142	64.973	18.292	1.3006e-05	25.511	0.0015691	0.0016294	0.00045081	1236.5	1.7753e-05	1.7913e-05	1310	258.62	1.7916e-05	1.7963e-05	324.19	91.4	74.816	21.781	1.7983e-05	30.183	64.765	106.382	138.342	-10.803	121.485	92.138	-10.770	-3.435	112.162	104.691	-4.277	2.885	3.620	10.937	29.982	10.606	-8191	255	
14050.876	1	1	0	0	0.23994	0.27505	0.06286	0.091809	0.14384	0.18352	0.22592	0.063767	0.18894	0.0043274	0.099134	0.096863	0.10123	0.39843	0.20711	0.079012	-1.8083	-2.6292	-2.3917	-2.5292	-2.6042	-2.3646	-2.6646	-2.6021	-2.3312	-2.9042	-2.35	-2.6167	-2.7604	-2.025	-2.7521	-2.3604	266.102	68.016	277.081	287.861	221.204	29.406	273.167	331.861	39.479	272.457	24.593	77.025	51.777	246.129	99.306	176.862	0.00057734	0.0006329	0.00027797	1195.4	4.0786e-06	7.7992e-06	1271.4	239.09	9.9415e-06	3.9343e-06	296.31	80.949	65.253	18.211	1.0657e-05	25.432	0.0015622	0.0016048	0.00044825	1234.3	1.7436e-05	1.7513e-05	1307.2	257.12	1.7327e-05	1.7431e-05	323.44	90.906	74.505	21.621	1.7654e-05	30.138	59.773	33.187	312.497	-10.951	3.247	151.450	-10.894	-3.184	61.439	-9.140	-3.879	2.835	3.738	10.990	188.070	10.048	-8191	255	
14050.972	1	1	0	0	0.14725	0.071297	0.15229	0.33856	0.19368	0.080626	0.1611	0.21792	0.087247	0.093499	0.057492	0.049836	0.14848	0.18845	0.18829	0.1444	-1.8854	-2.8542	-2.3083	-2.4521	-2.7521	-2.1833	-2.9125	-2.6521	-2.2229	-2.9042	-2.4771	-2.575	-2.8854	-2.275	-2.6604	-2.7333	283.522	38.115	25.760	293.316	306.529	48.074	316.227	267.738	229.306	87.629	225.437	318.849	200.922	322.692	329.448	-18.315	0.0003174	0.00036848	0.00014138	1195.4	1.1273e-05	6.1189e-06	1270	240.16	4.4632e-06	9.218e-06	296.21	81.644	65.009	18.207	9.5456e-06	25.535	0.0015625	0.0016114	0.00044881	1235.2	1.7806e-05	1.7875e-05	1307.4	258.3	1.7701e-05	1.7926e-05	323.83	91.61	74.936	21.686	1.813e-05	30.23	19.951	220.914	6.113	-10.849	119.229	58.366	-10.697	-3.121	15.035	99.798	-4.027	2.939	2.975	10.453	61.997	10.582	-8191	255	
14051.070	1	1	0	0	0.25136	0.11716	0.10732	0.48201	0.24455	0.053969	0.17289	0.18217	0.12706	0.21345	0.16208	0.2372	0.030137	0.20608	0.10464	0.032871	-1.775	-2.7313	-2.5167	-2.4437	-2.7646	-2.3979	-2.8187	-2.6896	-2.2812	-2.7938	-2.6	-2.4813	-2.8083	-2.3604	-2.4646	-2.7729	177.025	65.271	330.428	329.986	186.914	-16.091	256.774	300.477	221.777	190.284	330.493	206.457	152.058	323.382	232.015	322.556	0.00041992	0.00086726	0.00010928	1200.2	9.5981e-06	2.6542e-06	1275.3	239.54	9.4898e-06	1.3739e-05	297.02	81.354	64.927	18.199	5.8669e-06	25.678	0.0015871	0.0016465	0.00045745	1235	1.7766e-05	1.7771e-05	1309.2	257.62	1.7531e-05	1.7678e-05	324.27	91.049	74.554	21.613	1.7563e-05	30.04	61.954	142.601	243.307	-10.755	131.396	94.737	-10.629	-3.398	63.142	88.406	-3.962	3.010	3.558	10.442	48.274	9.927	-8191	255	
14051.189	1	1	0	0	0.16952	0.1148	0.1615	0.071976	0.2607	0.3352	0.20041	0.12732	0.099555	0.39005	0.06166	0.29992	0.35057	0.11472	0.22674	0.12919	-1.9708	-2.8312	-2.4917	-2.5271	-2.7938	-2.4833	-2.6896	-2.6854	-2.2917	-2.6833	-2.6104	-2.3354	-2.8	-2.5583	-2.475	-2.7188	240.838	-11.186	124.193	139.214	135.686	62.955	-13.478	-17.719	249.498	252.119	220.211	323.984	321.545	24.074	312.175	247.925	0.00022805	0.00090626	8.8393e-05	1196.6	1.4465e-05	1.5183e-05	1267.3	241	1.0417e-05	7.5824e-06	296.51	80.846	65.094	18.191	3.4811e-06	25.492	0.0015277	0.0015726	0.00043965	1234.1	1.7262e-05	1.7365e-05	1308.1	258.5	1.7394e-05	1.7538e-05	323.89	91.055	74.641	21.697	1.7997e-05	30.244	82.064	146.232	27.987	-11.027	88.422	127.291	-10.916	-3.374	202.527	165.255	-3.515	3.271	3.886	11.129	242.235	10.190	-8191	255	
14051.285	1	1	0	0	0.11897	0.057862	0.31184	0.29683	0.21515	0.21316	0.36392	0.24343	0.19969	0.16554	0.14632	0.11869	0.091443	0.091837	0.10682	0.19273	-1.8854	-2.6417	-2.4667	-2.1854	-2.7479	-2.4792	-2.7375	-2.9146	-2.4792	-2.6208	-2.6937	-2.2917	-2.8167	-2.5729	-2.25	-2.8354	104.219	319.310	268.298	269.849	189.895	289.196	228.947	236.623	154.735	239.872	166.361	39.556	4.497	12.457	182.580	316.986	0.00039077	0.00073046	0.00029543	1199.1	4.8296e-06	1.5378e-07	1271.7	240	1.4553e-05	1.3544e-06	297.3	81.371	64.837	18.308	4.4604e-07	25.353	0.0015825	0.0016365	0.00045787	1236.8	1.7885e-05	1.7777e-05	1311.2	258.11	1.7859e-05	1.8056e-05	324.92	91.201	74.748	21.729	1.803e-05	30.229	35.094	29.119	156.999	-11.068	123.176	9.366	-10.671	-3.500	300.372	59.187	-3.694	3.256	3.524	10.542	292.616	10.174	-8191	255	
14051.381	1	1	0	0	0.13356	0.078296	0.045537	0.082161	0.14514	0.2136	0.23584	0.2724	0.20813	0.2635	0.12346	0.37117	0.2382	0.43326	0.16779	0.18138	-1.925	-2.3979	-2.6542	-2.4208	-2.8667	-2.5167	-2.575	-2.7979	-2.4458	-2.6375	-2.7542	-2.3771	-2.6542	-2.5812	-2.375	-2.7083	6.789	305.422	158.819	-5.600	284.211	133.479	335.245	277.815	33.794	43.130	163.236	-11.506	41.856	222.896	14.705	298.143	0.00035172	0.00064021	1.3138e-05	1198.9	3.5197e-06	9.2751e-06	1275.4	240.22	3.8659e-06	3.9665e-06	297.11	81.344	64.795	18.244	9.0258e-06	25.541	0.0015931	0.0016634	0.00046222	1239.5	1.8e-05	1.8179e-05	1313.1	258.75	1.8033e-05	1.8315e-05	324.94	91.624	75.121	21.746	1.8493e-05	30.382	56.645	-8.821	225.592	-10.952	205.509	151.810	-10.692	-3.519	185.155	277.540	-3.997	3.118	3.909	10.870	109.930	9.713	-8191	255	
14051.477	1	1	0	0	0.16347	0.16633	0.089243	0.25257	0.23236	0.19304	0.44056	0.33706	0.24538	0.069156	0.10785	0.25711	0.084309	0.19895	0.054637	0.29818	-1.9188	-2.4688	-2.7979	-2.3937	-2.5729	-2.5271	-2.4667	-2.7958	-2.4021	-2.5375	-2.7646	-2.2667	-2.6208	-2.5479	-2.3042	-2.7625	141.174	1.932	320.223	255.628	13.855	284.070	241.756	27.825	69.232	102.856	292.275	176.076	328.744	18.062	58.304	166.571	0.00034732	0.00051299	0.00022401	1202.2	3.1023e-06	6.6296e-06	1274.1	240.31	4.4044e-06	9.8654e-06	298.02	81.338	65.071	18.101	4.429e-06	25.302	0.0015967	0.0016551	0.00045865	1239	1.7888e-05	1.8089e-05	1311	258.66	1.7742e-05	1.786e-05	325.18	90.854	74.646	21.681	1.7479e-05	30.056	78.763	167.485	74.649	-10.799	336.147	50.528	-10.522	-3.256	157.505	183.489	-3.575	3.255	3.496	10.900	327.060	9.915	-8191	255	
14051.574	1	1	0	0	0.17021	0.35142	0.28899	0.17631	0.068088	0.17169	0.053303	0.28656	0.062136	0.2373	0.19031	0.029591	0.034144	0.14129	0.1569	0.1512	-2.1021	-2.3104	-2.6708	-2.3812	-2.6979	-2.7562	-2.3229	-2.8667	-2.35	-2.4542	-2.8125	-2.5062	-2.6958	-2.7667	-2.1979	-2.8	134.845	302.293	63.980	294.732	97.153	170.254	271.789	228.045	27.556	62.148	285.123	263.583	212.720	257.507	281.792	276.267	0.00041921	0.00061872	0.00023603	1198.6	7.6988e-06	4.0634e-06	1272.1	240.88	2.4484e-06	4.8451e-06	297.33	81.092	64.736	18.095	1.1275e-05	25.514	0.0015462	0.0015853	0.00044782	1236	1.7457e-05	1.769e-05	1312.4	258.59	1.7805e-05	1.7998e-05	324.68	91.354	74.913	21.661	1.7879e-05	30.201	57.435	14.632	105.293	-10.854	56.116	268.092	-10.581	-3.470	166.222	321.873	-3.613	3.214	3.978	10.804	115.838	9.929	-8191	255	
14051.670	1	1	0	0	0.155	0.091151	0.27476	0.27896	0.18215	0.12731	0.32192	0.026753	0.078182	0.2416	0.16419	0.25934	0.24392	0.24196	0.21053	0.32243	-1.9979	-2.4188	-2.85	-2.5792	-2.4333	-2.7917	-2.3375	-2.7104	-2.5292	-2.3833	-2.8167	-2.4229	-2.4875	-2.8042	-2.3396	-2.6458	78.375	319.251	-6.215	280.764	-16.189	278.415	239.173	124.281	286.392	40.172	104.928	96.226	216.432	149.753	247.347	296.753	0.00038129	0.00021302	0.00020964	1203.1	4.6799e-06	6.8445e-06	1279.1	239.58	1.6347e-05	1.0719e-05	297.8	80.869	64.887	18.269	8.3617e-06	25.421	0.0015697	0.0016222	0.00045021	1238.7	1.7592e-05	1.7617e-05	1312.6	258.47	1.7401e-05	1.7625e-05	324.27	91.269	74.617	21.645	1.7399e-05	30.067	68.983	111.146	43.220	-10.887	-5.077	243.924	-10.551	-3.140	173.189	113.991	-3.638	3.255	3.606	10.498	81.463	10.084	-8191	255	
14051.790	1	1	0	0	0.16	0.36055	0.19899	0.078369	0.21828	0.10056	0.36273	0.19772	0.09149	0.10692	0.10921	0.098674	0.10178	0.13392	0.13499	0.32604	-2.1417	-2.4	-2.8187	-2.45	-2.0646	-2.7646	-2.4104	-2.5396	-2.5167	-2.2208	-2.7521	-2.4542	-2.5104	-2.6312	-2.1354	-2.7729	321.032	235.862	237.435	242.368	126.160	10.572	232.665	261.421	131.573	134.726	82.555	292.483	1.117	234.060	-0.663	185.661	0.00030614	0.0006307	0.00025969	1200.1	6.4317e-06	1.3055e-05	1268.6	239.96	1.1355e-05	7.2457e-06	297.04	81.229	64.913	18.132	1.3199e-05	25.407	0.0015411	0.001594	0.00044273	1234.8	1.7428e-05	1.7432e-05	1311	257.44	1.7407e-05	1.7359e-05	322.89	91.115	74.644	21.581	1.7502e-05	30.141	109.373	268.060	122.637	-10.906	33.858	105.482	-10.386	-3.483	191.037	122.758	-3.515	3.327	3.937	10.742	96.154	10.029	-8191	255	
14051.885	1	1	0	0	0.1128	0.17	0.078376	0.15615	0.23129	0.072329	0.29114	0.33746	0.088404	0.13559	0.27822	0.22401	0.18328	0.10274	0.18219	0.16866	-2.1958	-2.1167	-2.6042	-2.5854	-2.2729	-2.6854	-2.4458	-2.6854	-2.8208	-2.3854	-2.9708	-2.5625	-2.2646	-2.6437	-2.1813	-2.3875	145.821	249.458	39.970	25.971	264.424	-20.117	294.428	313.558	149.406	242.254	291.222	269.517	338.065	308.350	267.666	266.804	0.00019354	0.00030268	0.00027553	1200.6	1.0301e-05	4.4398e-06	1273.7	239.52	1.0691e-05	5.3526e-06	297.34	81.226	64.881	18.142	4.0989e-06	25.264	0.0015435	0.0016031	0.00044645	1237.1	1.7449e-05	1.7468e-05	1310.4	257.99	1.7211e-05	1.7331e-05	322.94	90.97	74.156	21.436	1.6855e-05	29.905	110.443	259.006	96.587	-10.695	20.427	30.258	-10.685	-3.540	111.938	117.885	-3.748	2.873	3.691	11.035	144.460	10.370	-8191	255	
14051.981	1	1	0	0	0.24462	0.22705	0.07412	0.47345	0.095028	0.22776	0.22296	0.09621	0.055325	0.29964	0.096719	0.19119	0.36706	0.30012	0.21332	0.26271	-2.4188	-2.4042	-2.6729	-2.6542	-2.3271	-2.6937	-2.5521	-2.6458	-2.7271	-2.375	-2.7417	-2.5896	-2.3563	-2.8042	-2.2083	-2.6542	140.059	212.240	193.158	-15.954	99.005	251.893	186.762	26.890	269.526	23.592	274.285	54.356	306.968	296.474	303.578	281.105	0.00050609	0.0003613	0.00020161	1201.1	9.0853e-06	1.342e-06	1265.3	239.79	7.9513e-06	3.4941e-06	296.22	80.445	64.974	18.132	2.556e-06	25.45	0.0014532	0.0014973	0.00041328	1228.7	1.6042e-05	1.5906e-05	1298.3	255.92	1.5635e-05	1.5778e-05	319.12	89.648	73.282	21.213	1.6024e-05	29.686	6.428	9.472	56.305	-10.800	148.015	83.622	-10.780	-3.165	20.995	-20.940	-3.747	3.707	3.805	10.625	88.704	10.540	-8191	255	
14052.053	1	1	0	0	0.1109	0.18245	0.2954	0.095186	0.13744	0.1615	0.36299	0.20906	0.14766	0.10134	0.066003	0.083283	0.50262	0.28344	0.073634	0.16844	-2.3042	-2.4271	-2.6208	-2.6583	-2.2667	-2.7583	-2.6875	-2.5146	-2.8333	-2.3479	-2.5604	-2.7854	-2.2646	-2.7604	-2.3812	-2.3729	-4.955	295.954	229.107	284.960	307.414	251.952	170.627	296.336	-13.995	246.160	323.520	265.462	268.387	9.677	-12.904	303.339	0.00016609	0.00062564	0.00012154	1199.1	4.721e-06	2.2813e-06	1262.1	240.4	1.1355e-05	8.9692e-06	297.25	81.082	64.537	18.157	2.7844e-06	25.495	0.001446	0.0014981	0.00041642	1228.3	1.6446e-05	1.67e-05	1298.3	256.96	1.6599e-05	1.6856e-05	322.02	90.264	73.596	21.384	1.6734e-05	29.74	57.227	160.428	247.615	-10.662	108.300	275.955	-10.941	-3.387	115.947	46.211	-3.791	2.976	3.535	10.921	108.939	10.230	-8191	255	
14052.151	1	1	0	0	0.066155	0.25291	0.055915	0.28559	0.035315	0.36633	0.26615	0.49009	0.029036	0.14928	0.44114	0.31138	0.11581	0.12074	0.10603	0.13861	-2.3375	-2.325	-2.4875	-2.7771	-2.2458	-2.675	-2.6125	-2.4771	-2.8563	-2.4542	-2.6625	-2.7167	-2.3583	-2.7562	-2.6979	-2.3042	217.911	63.492	65.106	328.093	-20.465	331.705	232.886	303.996	21.810	-4.130	328.555	56.934	329.087	311.130	131.433	24.503	0.00032641	0.001266	0.00029134	1192.1	1.0232e-05	8.6122e-06	1263.2	238.78	1.0605e-05	8.9398e-06	297.15	81.252	64.283	18.047	8.1274e-07	25.384	0.001458	0.0015127	0.00042573	1223.7	1.6576e-05	1.6758e-05	1299.1	256.24	1.6662e-05	1.6871e-05	321.52	90.526	73.624	21.402	1.7303e-05	29.86	65.194	100.293	86.917	-10.988	94.616	164.286	-10.542	-3.506	78.018	91.460	-3.670	3.038	3.427	10.741	42.393	10.310	-8191	255	
14052.269	1	1	0	0	0.21245	0.084938	0.034067	0.26348	0.17604	0.17163	0.37402	0.072494	0.13335	0.255	0.074641	0.15921	0.13667	0.030137	0.16448	0.34675	-2.2542	-2.2354	-2.3896	-2.7583	-2.3354	-2.8667	-2.8375	-2.4167	-2.7875	-2.325	-2.6271	-2.8458	-2.3979	-2.6771	-2.5833	-2.3542	3.313	181.710	312.584	260.157	41.461	38.766	280.284	327.915	102.681	238.400	6.351	159.838	48.907	70.013	178.517	-3.907	0.00021208	0.00019268	0.00024274	1194	5.3483e-06	6.6681e-06	1264.3	238.19	3.9889e-06	4.772e-06	296.69	81.007	64.462	18.151	3.6019e-06	25.419	0.0015073	0.0015548	0.00043212	1228.1	1.6973e-05	1.7017e-05	1300.1	256.35	1.6951e-05	1.7119e-05	321.74	90.517	73.914	21.488	1.7336e-05	30.003	78.179	64.389	125.955	-10.792	148.515	181.666	-10.616	-3.417	186.239	79.167	-3.893	2.856	3.633	10.683	338.501	10.300	-8191	255	
14052.366	1	1	0	0	0.063813	0.16424	0.15233	0.24896	0.22105	0.12298	0.099463	0.19089	0.23291	0.16853	0.19779	0.067337	0.29393	0.26692	0.055424	0.21701	-2.2667	-2.4938	-2.5104	-2.8333	-2.3854	-2.6583	-2.7375	-2.4375	-2.6208	-2.4854	-2.4292	-2.8438	-2.3708	-2.7042	-2.5396	-2.5062	227.680	81.361	190.938	294.316	99.100	105.536	329.433	248.737	187.994	-3.381	296.961	298.993	121.939	1.773	64.570	18.890	0.00019051	0.00035682	0.00017403	1192.5	1.5123e-06	1.0439e-05	1267	239.51	1.5677e-05	6.6943e-06	297.86	80.251	64.249	18.161	4.7806e-06	25.599	0.0015331	0.0016076	0.00044572	1229	1.7675e-05	1.7718e-05	1304.6	257.72	1.7741e-05	1.7788e-05	323.45	90.781	74.373	21.66	1.7793e-05	30.077	59.356	67.405	9.163	-10.874	318.165	304.060	-10.886	-3.246	122.800	158.809	-3.707	3.042	3.807	10.931	72.262	9.826	-8191	255	
14052.462	1	1	0	0	0.19845	0.18737	0.17524	0.18032	0.047403	0.15227	0.17899	0.50415	0.16037	0.20121	0.11447	0.21261	0.28583	0.13669	0.10598	0.075147	-2.0042	-2.5229	-2.3708	-2.8083	-2.3375	-2.6729	-2.8563	-2.4229	-2.8396	-2.5979	-2.4313	-2.8333	-2.4042	-2.5521	-2.6375	-2.2958	157.397	212.947	161.465	278.316	246.725	205.245	240.992	246.319	247.285	190.908	314.896	161.626	308.675	229.904	251.658	234.057	0.00013577	0.00051944	0.00031139	1192.4	6.1911e-06	9.513e-06	1263.1	239.4	1.5349e-05	5.6779e-06	295.74	80.283	63.981	18.099	5.0318e-06	25.24	0.0015699	0.0016305	0.00045066	1229.7	1.7632e-05	1.781e-05	1302.9	257.93	1.7564e-05	1.7728e-05	322.93	90.814	74.25	21.602	1.8105e-05	30.17	54.703	42.244	-17.361	-10.788	160.428	225.857	-10.842	-3.323	215.348	188.402	-3.458	2.968	3.540	10.615	98.364	9.957	-8191	255	
14052.558	1	1	0	0	0.35443	0.19247	0.2159	0.33176	0.32814	0.24758	0.083086	0.29506	0.21111	0.19643	0.30077	0.024574	0.16415	0.2672	0.2156	0.21122	-2.2188	-2.5042	-2.1167	-2.95	-2.3063	-2.7188	-2.9354	-2.4604	-2.7854	-2.6521	-2.3479	-2.8646	-2.5625	-2.7062	-2.8167	-2.4667	222.734	8.388	314.451	289.749	52.892	24.444	202.198	277.606	305.890	58.848	258.819	22.696	0.477	-16.924	164.220	12.834	0.00026222	6.5445e-05	0.00019483	1193.6	2.9223e-06	3.0453e-06	1267.8	239.53	1.26e-05	4.3852e-06	296.49	80.32	64.437	18.084	9.4507e-06	25.248	0.0015944	0.0016554	0.00046217	1232	1.8149e-05	1.85e-05	1308.2	258.62	1.835e-05	1.8647e-05	325.41	91.375	74.861	21.765	1.8519e-05	30.222	40.564	187.946	113.684	-10.658	80.761	242.717	-10.759	-3.427	61.958	-10.081	-3.805	3.144	3.397	10.864	20.833	9.985	-8191	255	
14052.654	1	1	0	0	0.21237	0.095754	0.062962	0.158	0.043908	0.27323	0.19678	0.13826	0.1649	0.03894	0.14163	0.13341	0.33651	0.092004	0.29514	0.14758	-2.1771	-2.4958	-2.2542	-3.0875	-2.5563	-2.3958	-2.9	-2.5812	-2.5958	-2.6437	-2.4875	-2.8125	-2.625	-2.3229	-2.6833	-2.5292	125.169	21.742	320.885	326.752	129.052	93.748	258.020	239.743	316.990	336.187	231.031	-6.020	293.287	291.419	74.486	111.794	0.00013281	0.00077676	3.5271e-05	1191.1	1.4339e-06	1.0774e-05	1270.1	238.69	8.7857e-06	5.7954e-06	296.94	80.782	64.106	18.17	4.6267e-06	25.37	0.001616	0.0016801	0.00046572	1234.5	1.8125e-05	1.8184e-05	1307.8	258.05	1.7935e-05	1.8211e-05	324.17	91.066	74.409	21.691	1.794e-05	30.265	71.708	110.583	183.794	-10.945	114.763	161.540	-10.626	-3.201	97.338	46.035	-3.701	3.175	3.562	10.525	276.203	10.747	-8191	255	
14052.750	1	1	0	0	0.086447	0.1945	0.17459	0.048823	0.22581	0.062401	0.062073	0.07744	0.10914	0.21577	0.31352	0.15974	0.053003	0.052195	0.036708	0.28116	-2.0625	-2.7771	-2.3375	-2.775	-2.5312	-2.4688	-3.0771	-2.4354	-2.4417	-2.7208	-2.3875	-2.8438	-2.7687	-2.2583	-2.7708	-2.5625	-9.969	188.855	-4.520	313.176	118.413	274.089	246.788	259.961	34.309	21.441	278.877	152.005	29.104	171.802	75.995	-13.410	0.00014105	0.00060671	0.00041186	1192.9	1.1311e-05	1.2631e-05	1264.4	240.15	1.3671e-05	8.0569e-06	297.86	80.307	64.065	18.024	9.6987e-06	25.345	0.0015906	0.0016539	0.00045978	1232.8	1.8127e-05	1.8425e-05	1309.8	258.85	1.8491e-05	1.8544e-05	325.71	91.412	74.863	21.744	1.8614e-05	30.246	39.894	-6.982	107.802	-11.092	188.789	210.715	-10.789	-3.276	95.102	97.404	-3.902	3.432	3.502	10.661	34.180	10.593	-8191	255	
14052.871	1	1	0	0	0.055009	0.15875	0.097595	0.43902	0.067696	0.13995	0.13418	0.050821	0.32748	0.099243	0.13251	0.17178	0.082396	0.19683	0.04958	0.10919	-1.9625	-2.8146	-2.2938	-3.0021	-2.6354	-2.3812	-2.8104	-2.6625	-2.4375	-2.7604	-2.35	-2.6521	-2.7438	-2.3917	-2.9792	-2.4417	30.774	242.050	139.944	285.503	166.385	183.272	314.569	284.696	303.208	87.822	1.972	137.799	11.702	208.107	105.295	218.786	0.00013999	0.00053969	0.00038715	1191.6	4.8738e-06	9.11e-06	1265.2	239.78	1.1068e-05	1.1274e-05	297.02	80.917	64.545	18.133	1.112e-05	25.248	0.0016299	0.0016812	0.00046658	1232.5	1.82e-05	1.823e-05	1307.6	258.23	1.8256e-05	1.8402e-05	324.21	91.287	74.655	21.733	1.8203e-05	30.208	-9.851	245.226	58.581	-10.857	67.809	311.772	-10.499	-3.316	27.831	56.027	-3.997	3.214	3.749	11.234	-2.922	9.991	-8191	255	
14052.965	1	1	0	0	0.24335	0.10699	0.064148	0.17968	0.23187	0.21519	0.3641	0.13651	0.18018	0.1392	0.42714	0.045659	0.13189	0.20183	0.17512	0.27763	-2.0479	-2.9104	-2.2313	-2.8708	-2.5146	-2.2354	-2.8396	-2.675	-2.4479	-2.7917	-2.4208	-2.5438	-2.6979	-2.3312	-2.7042	-2.675	126.382	221.875	256.436	280.305	167.161	52.069	262.086	170.226	269.098	16.903	274.147	-19.729	40.253	99.995	256.674	-16.665	0.00011544	0.00033587	0.00017036	1193	6.3192e-06	1.2819e-06	1273.1	240.22	1.5578e-06	5.38e-06	299.13	81.267	64.828	17.975	7.466e-06	25.354	0.0016198	0.0016725	0.00046208	1232.9	1.792e-05	1.8152e-05	1307.6	258.72	1.801e-05	1.818e-05	325	91.22	74.829	21.677	1.8288e-05	30.194	95.112	235.878	-0.919	-10.884	132.716	177.661	-10.740	-3.399	-17.547	134.055	-3.838	3.234	3.216	10.432	152.906	10.254	-8191	255	
14053.061	1	1	0	0	0.021888	0.17394	0.28282	0.12856	0.09886	0.14526	0.096986	0.099092	0.092711	0.042943	0.068903	0.11111	0.30269	0.26157	0.046198	0.15976	-1.8958	-2.6667	-2.4417	-2.5792	-2.775	-2.2708	-2.9229	-2.7354	-2.35	-2.8063	-2.5521	-2.5396	-2.7917	-2.3208	-2.7104	-2.4375	27.148	275.970	79.592	319.156	36.747	88.632	286.958	240.719	315.816	65.843	148.061	193.800	288.639	305.471	256.949	78.477	0.00023965	0.00022107	0.00021014	1193.4	4.7726e-06	4.2439e-06	1272.2	239.57	9.6156e-06	4.1691e-06	297.85	81.081	64.806	18.118	1.4419e-05	25.245	0.0015987	0.0016475	0.00045478	1231.2	1.7706e-05	1.7612e-05	1304.4	257.34	1.7317e-05	1.7332e-05	322.64	90.638	74.165	21.481	1.74e-05	29.896	51.867	7.935	299.092	-10.900	294.758	159.739	-10.816	-3.249	61.912	197.421	-3.587	2.833	3.510	10.291	149.659	10.003	-8191	255	
14053.157	1	1	0	0	0.040633	0.078164	0.27153	0.14777	0.10129	0.29833	0.16204	0.24371	0.18532	0.04893	0.11025	0.23138	0.010085	0.22596	0.084594	0.033006	-1.7854	-2.7125	-2.3396	-2.5854	-2.8146	-2.4188	-2.7042	-2.7021	-2.3458	-2.8854	-2.5417	-2.2917	-2.9146	-2.4604	-2.3646	-2.8771	146.782	151.894	56.965	185.490	228.768	31.106	262.685	221.112	297.116	80.209	104.871	280.007	-6.001	61.668	129.788	85.056	6.0371e-05	0.00079298	6.0433e-05	1190.6	2.6442e-06	1.4708e-06	1268.4	239.02	8.4506e-06	3.5603e-06	296.6	81.005	64.437	18.036	6.9032e-06	25.537	0.0015343	0.0015854	0.00044158	1229.8	1.7351e-05	1.767e-05	1306.2	257.14	1.7537e-05	1.7697e-05	323.68	90.999	74.376	21.581	1.8044e-05	30.132	267.970	254.762	217.043	-10.796	177.037	165.199	-10.603	-3.369	27.020	136.455	-3.831	3.023	3.594	10.465	281.336	10.330	-8191	255	
14053.278	1	1	0	0	0.092177	0.36797	0.16202	0.18508	0.10402	0.22209	0.17632	0.36772	0.038234	0.042866	0.17131	0.11223	0.084483	0.028891	0.16196	0.086574	-1.8479	-2.7083	-2.4	-2.6292	-2.7771	-2.4167	-2.7667	-2.8979	-2.0563	-2.6458	-2.5312	-2.2562	-2.9667	-2.425	-2.6771	-2.8167	273.955	302.459	250.866	280.505	300.975	320.994	307.167	175.721	133.031	24.546	256.338	50.723	210.616	126.767	98.003	143.476	0.00033364	0.00062488	0.00011512	1195.4	4.936e-06	1.0534e-05	1264.6	238.19	8.1732e-06	5.6609e-06	296.69	81.438	64.127	18.097	1.3618e-05	25.389	0.0015694	0.0016282	0.0004568	1235.1	1.7724e-05	1.7835e-05	1307.5	258.08	1.7842e-05	1.7923e-05	324.33	91.187	74.15	21.627	1.7834e-05	30.067	94.032	33.028	27.035	-10.771	239.208	82.733	-10.698	-3.630	68.141	128.956	-3.808	3.149	3.433	10.988	110.963	10.409	-8191	255	
14053.350	1	1	0	0	0.17934	0.10578	0.26301	0.27661	0.26825	0.2766	0.069385	0.19687	0.26032	0.10207	0.15361	0.29256	0.21878	0.1316	0.10896	0.27786	-1.7083	-2.6562	-2.5083	-2.65	-2.7687	-2.4188	-2.6625	-2.775	-2.4667	-2.6167	-2.7042	-2.3021	-2.7958	-2.4729	-2.3896	-2.8708	297.376	302.727	16.745	290.035	101.643	83.598	123.236	302.165	25.855	139.583	261.343	11.654	316.348	163.402	113.891	-3.208	0.00023429	0.00026654	0.00020772	1200.9	1.0435e-05	1.0104e-05	1270.1	239.17	1.4652e-05	8.8642e-07	296.97	80.729	64.455	18.277	7.0588e-06	25.181	0.0015593	0.0016159	0.00045503	1233.4	1.7438e-05	1.7625e-05	1307.6	256.95	1.7374e-05	1.7648e-05	323.26	90.625	74.215	21.599	1.7575e-05	29.979	17.140	66.390	254.464	-10.856	96.292	182.901	-10.420	-3.240	231.143	166.417	-3.645	2.717	3.832	10.959	144.455	10.429	-8191	255	
14053.470	1	1	0	0	0.059946	0.1774	0.1107	0.20157	0.20025	0.14711	0.14645	0.17603	0.23686	0.03551	0.15513	0.097819	0.35269	0.063407	0.10264	0.30683	-1.9333	-2.5771	-2.6583	-2.4	-2.8042	-2.6562	-2.4583	-2.7583	-2.4979	-2.55	-2.7604	-2.1354	-2.5396	-2.5396	-2.5583	-2.9437	303.758	259.486	101.367	-17.179	132.092	45.405	274.065	232.673	152.440	84.802	143.127	10.398	317.355	2.323	100.308	16.255	0.00041787	0.0008766	9.8849e-05	1191.7	3.3263e-06	5.0759e-06	1276.7	239.05	1.3273e-05	6.7438e-06	296.82	81.473	64.628	18.056	2.7384e-06	25.531	0.0015561	0.0016207	0.00045343	1230.9	1.7778e-05	1.8103e-05	1309	257.87	1.8009e-05	1.83e-05	325.07	91.302	74.509	21.635	1.8055e-05	30.162	39.157	79.894	316.079	-10.838	196.853	192.681	-10.757	-3.234	151.647	185.986	-3.724	3.163	3.281	10.445	52.336	9.935	-8191	255	
14053.567	1	1	0	0	0.14688	0.15387	0.039926	0.028872	0.12814	0.16464	0.21001	0.076146	0.082257	0.289	0.053153	0.11507	0.16405	0.18426	0.1351	0.08954	-1.6854	-2.4354	-2.4792	-2.2958	-2.6375	-2.4792	-2.5062	-2.9083	-2.2542	-2.4271	-2.7604	-2.3792	-2.6125	-2.5938	-2.4313	-2.7208	23.815	299.634	239.808	198.425	73.786	73.153	285.225	169.617	254.475	321.250	272.981	219.476	11.038	93.657	250.661	174.011	0.0002858	0.00069853	0.00010778	1199.3	6.5639e-06	7.7275e-06	1271.9	241.09	8.4209e-06	7.494e-06	295.67	80.642	64.521	18.268	1.3244e-05	25.238	0.0015888	0.0016344	0.00045504	1234	1.7647e-05	1.7982e-05	1307.3	258.57	1.7687e-05	1.7814e-05	323.91	90.781	74.53	21.612	1.7878e-05	30.049	46.239	183.233	330.924	-10.828	65.598	49.586	-10.501	-3.436	327.102	59.664	-3.633	3.211	3.588	11.054	230.026	10.310	-8191	255	
14053.663	1	1	0	0	0.17819	0.18494	0.07405	0.26995	0.14741	0.14293	0.16841	0.30561	0.13026	0.18504	0.20502	0.45435	0.25361	0.15478	0.018527	0.35925	-1.9	-2.3312	-2.6104	-2.4792	-2.6396	-2.7042	-2.3521	-2.7375	-2.4062	-2.4729	-2.7771	-2.4	-2.5938	-2.6771	-2.2667	-2.6958	-7.290	63.661	135.846	300.179	318.849	301.232	193.149	282.943	311.459	269.149	212.295	-3.229	259.025	228.183	184.123	324.427	0.00017575	0.001087	0.00026094	1198	3.1497e-06	9.6878e-06	1270.9	238.42	1.3785e-05	2.9472e-06	296.57	81.154	65.054	18.276	7.0349e-06	25.242	0.0015607	0.0016327	0.00045111	1232.5	1.7716e-05	1.7735e-05	1307.6	257.39	1.7745e-05	1.7927e-05	324	91.159	74.75	21.69	1.8228e-05	30.259	132.059	21.303	80.492	-10.779	-4.223	144.280	-10.565	-3.386	185.372	227.449	-3.866	3.463	3.301	10.695	91.416	9.954	-8191	255	
14053.759	1	1	0	0	0.19531	0.12474	0.25706	0.34729	0.24273	0.19679	0.15154	0.20981	0.21385	0.17122	0.18936	0.019283	0.03079	0.24221	0.31886	0.27819	-2.0354	-2.3979	-2.825	-2.3937	-2.6	-2.7938	-2.5333	-2.6708	-2.4125	-2.6312	-2.8125	-2.3729	-2.5604	-2.7125	-2.2021	-2.7292	176.256	226.092	59.590	282.223	215.287	186.250	33.761	326.007	143.521	134.391	239.641	11.390	-18.533	242.351	16.734	333.860	0.00032464	0.00077847	0.00017781	1198.3	1.0729e-05	1.3869e-07	1263	240.21	5.8832e-06	5.5319e-06	296.35	80.767	64.625	18.12	3.4122e-06	25.39	0.001596	0.0016683	0.00046322	1234.8	1.8338e-05	1.8276e-05	1308.5	258.82	1.8028e-05	1.8096e-05	323.43	90.927	74.534	21.649	1.7939e-05	30.18	61.215	28.952	-21.233	-10.836	142.003	273.725	-10.837	-3.490	164.131	13.617	-4.001	3.355	2.945	10.900	226.988	10.031	-8191	255	
14053.853	1	1	0	0	0.15839	0.14523	0.18039	0.19327	0.17932	0.20298	0.48302	0.29502	0.11978	0.19876	0.24565	0.21031	0.19863	0.11143	0.16923	0.077863	-2.1729	-2.275	-2.8771	-2.5187	-2.3792	-2.7313	-2.5729	-2.6375	-2.7229	-2.3625	-2.8729	-2.4729	-2.5833	-2.7875	-2.2438	-2.5938	179.984	316.704	-7.004	334.540	226.590	74.946	300.353	313.379	-19.259	268.387	319.223	332.210	189.637	180.626	113.730	301.314	0.00056298	0.00036983	7.5329e-05	1195.8	1.0149e-05	8.0596e-06	1271.4	238.49	5.762e-06	9.7243e-06	296.74	80.745	64.428	18.098	8.5613e-06	25.351	0.0015944	0.0016362	0.00045904	1233.7	1.793e-05	1.8022e-05	1307.9	258.63	1.798e-05	1.7995e-05	324.15	91.112	74.655	21.661	1.831e-05	30.23	63.386	117.832	-11.466	-10.833	146.170	48.416	-10.472	-3.344	16.501	257.136	-3.741	2.959	3.827	10.853	159.492	10.258	-8191	255	
14053.949	1	1	0	0	0.090235	0.30178	0.077493	0.19221	0.047838	0.14209	0.14793	0.25448	0.048567	0.053512	0.10877	0.10412	0.080894	0.17925	0.039007	0.11112	-2.1375	-2.0417	-2.6792	-2.5312	-2.3021	-2.8063	-2.4042	-2.7021	-2.6937	-2.3375	-2.6979	-2.3625	-2.4146	-2.6042	-2.2792	-2.575	161.911	146.370	15.149	334.321	24.466	88.957	297.734	247.751	326.566	165.854	308.753	80.369	47.173	271.479	321.545	309.943	0.00050542	0.00025778	9.1237e-05	1199.4	6.6088e-06	1.3699e-05	1261.8	240.43	1.8395e-05	5.0749e-06	297.75	80.364	64.567	18.154	1.2856e-06	25.284	0.0016091	0.0016673	0.00046365	1234.5	1.8248e-05	1.8302e-05	1306.2	258.94	1.8286e-05	1.8371e-05	324.81	91.462	74.969	21.753	1.8524e-05	30.222	31.130	14.556	115.886	-10.907	254.319	20.369	-10.876	-3.109	129.919	119.060	-3.449	2.950	3.841	10.724	174.549	10.130	-8191	255	
14054.046	1	1	0	0	0.16205	0.21913	0.24199	0.25733	0.13897	0.18681	0.28223	0.40524	0.23529	0.16855	0.067312	0.23592	0.15338	0.12606	0.020746	0.15082	-2.3312	-2.1521	-2.575	-2.5542	-2.3854	-2.9979	-2.6208	-2.6188	-2.8208	-2.4521	-3.0375	-2.6104	-2.3104	-2.85	-2.3354	-2.5563	21.474	284.329	7.027	268.344	288.100	35.260	249.758	295.268	-9.297	179.296	244.351	14.201	60.115	258.450	10.400	278.549	0.00032928	0.00061749	0.00018093	1197	3.293e-06	6.3525e-06	1271.5	239.8	1.0823e-05	5.3482e-06	297.32	80.799	65.333	18.089	1.0347e-05	25.295	0.0016345	0.0016896	0.00046954	1237	1.8323e-05	1.8441e-05	1311.4	259.05	1.8258e-05	1.8455e-05	325.59	91.341	75.077	21.71	1.8374e-05	30.205	82.460	139.815	88.386	-10.658	116.234	86.758	-10.602	-3.281	204.885	77.775	-3.751	3.076	3.480	10.556	214.108	10.237	-8191	255	
14054.142	1	1	0	0	0.48239	0.021118	0.15917	0.16796	0.14414	0.23561	0.16745	0.24614	0.064435	0.2245	0.095511	0.29224	0.30652	0.23564	0.20624	0.069452	-2.2938	-2.1708	-2.6271	-2.9083	-2.3396	-2.8292	-2.5604	-2.5708	-2.7729	-2.3417	-2.6896	-2.9083	-2.1271	-2.8312	-2.5062	-2.4396	98.069	155.784	280.648	-3.077	331.702	-15.275	261.770	263.250	164.110	16.814	310.784	89.968	218.574	168.870	73.125	65.081	0.00013611	0.00017488	5.5402e-05	1189	7.6689e-06	4.9869e-06	1268.4	238.79	1.1058e-05	1.061e-05	295.83	80.883	64.385	18.034	1.1242e-05	25.395	0.0016227	0.0016614	0.00046615	1234.8	1.8068e-05	1.8273e-05	1308.2	258.25	1.8138e-05	1.8283e-05	325.19	91.472	74.73	21.708	1.8416e-05	30.298	115.635	40.198	135.380	-10.701	128.855	20.911	-10.892	-3.474	74.054	195.294	-3.702	3.046	3.454	10.494	120.795	10.041	-8191	255	
14054.238	1	1	0	0	0.26284	0.053752	0.035477	0.35888	0.13535	0.24663	0.1579	0.18516	0.23867	0.15715	0.3983	0.10389	0.061933	0.029011	0.2482	0.36216	-2.2333	-2.4167	-2.6875	-2.7479	-2.2896	-2.7167	-2.7604	-2.3438	-2.9188	-2.4604	-2.5938	-2.7125	-2.3312	-2.7438	-2.4688	-2.4188	23.316	16.918	214.191	321.940	-2.378	109.043	221.863	325.976	116.266	-0.511	333.885	189.100	218.432	8.227	62.335	281.162	0.00039219	0.00046165	0.0001943	1196.7	1.1025e-05	6.7889e-06	1275.2	239.39	7.1297e-06	3.2432e-06	296.3	80.616	64.714	18.107	1.1019e-05	25.246	0.0016157	0.0016792	0.00046657	1235.1	1.8227e-05	1.8385e-05	1312.6	258.86	1.8208e-05	1.8216e-05	324.69	91.494	74.69	21.676	1.8316e-05	30.142	111.038	89.732	57.172	-10.753	92.645	232.701	-10.351	-3.306	61.763	223.577	-3.379	3.149	3.212	10.578	237.225	9.970	-8191	255	
14054.358	1	1	0	0	0.37249	0.25042	0.068131	0.24359	0.25392	0.10173	0.28604	0.26832	0.096504	0.20633	0.16813	0.029072	0.22022	0.065627	0.040706	0.11584	-2.3604	-2.3875	-2.4292	-2.875	-2.1333	-2.8083	-2.6625	-2.3271	-2.7375	-2.5292	-2.425	-2.7771	-2.4146	-2.6354	-2.6229	-2.4208	10.090	45.685	280.490	313.948	337.988	177.434	335.632	260.916	59.176	-10.646	175.783	315.431	285.291	261.900	181.177	170.102	0.00026828	0.00018212	6.4617e-05	1200.3	7.9064e-06	9.9169e-06	1261.9	240.65	9.3225e-06	4.9475e-06	298.11	80.618	64.674	18.096	3.6323e-06	25.059	0.0016028	0.0016559	0.00046531	1236.2	1.8029e-05	1.8235e-05	1308.9	259.13	1.7989e-05	1.8148e-05	325.59	91.076	74.607	21.654	1.7976e-05	30.079	11.536	308.589	196.195	-10.892	53.368	331.748	-10.465	-3.339	322.138	46.170	-3.769	2.963	2.930	11.482	56.791	10.459	-8191	255	
14054.455	1	1	0	0	0.12104	0.10861	0.13697	0.34291	0.039562	0.13131	0.13305	0.27749	0.23628	0.1285	0.12745	0.067049	0.12947	0.063692	0.16796	0.17133	-2.3125	-2.4188	-2.3792	-2.9854	-2.3146	-2.5125	-2.5646	-2.4021	-2.7229	-2.6042	-2.65	-2.6729	-2.4313	-2.65	-2.5333	-2.5583	188.278	98.124	16.715	315.185	170.454	27.486	267.293	272.598	330.447	162.915	20.414	227.042	276.135	266.654	331.875	241.906	0.00011026	0.00034794	0.00013069	1197.4	5.9144e-06	6.8637e-06	1276.9	240.17	1.1426e-05	4.9917e-06	297.53	80.902	65.056	18.267	9.4959e-06	25.445	0.001588	0.0016265	0.00045603	1234.1	1.7867e-05	1.8198e-05	1312	258.31	1.8155e-05	1.8285e-05	324.52	91.222	74.79	21.72	1.8408e-05	30.255	71.275	206.029	147.517	-11.152	151.556	25.876	-11.006	-3.094	247.102	79.459	-3.820	3.048	3.320	10.967	224.135	9.783	-8191	255	
14054.551	1	1	0	0	0.26996	0.10222	0.25673	0.1451	0.065194	0.26099	0.16311	0.13464	0.037712	0.19094	0.19205	0.24223	0.086386	0.22861	0.16841	0.20798	-2.2917	-2.5083	-2.3875	-2.8375	-2.3875	-2.5187	-3.0354	-2.4688	-2.6521	-2.5167	-2.4479	-2.7896	-2.4125	-2.5083	-2.7583	-2.4458	273.209	-7.525	229.603	-10.969	8.927	184.292	234.999	303.862	172.447	195.408	0.323	300.319	141.488	318.003	124.031	198.058	0.0002614	0.00066808	0.00019715	1200	8.3937e-06	7.1951e-06	1268.8	240.43	8.9108e-06	1.2295e-06	296.19	81.38	65.214	18.146	1.7734e-05	25.346	0.0016257	0.001666	0.00046379	1238.3	1.8084e-05	1.8349e-05	1309.4	258.6	1.8002e-05	1.8196e-05	324.41	91.192	74.833	21.649	1.7863e-05	30.087	46.689	259.478	35.132	-10.513	213.754	78.684	-10.647	-3.449	299.430	327.442	-3.890	2.977	3.408	10.600	185.954	10.277	-8191	255	
14054.647	1	1	0	0	0.1041	0.09266	0.11057	0.14195	0.081506	0.20554	0.32894	0.38329	0.097302	0.1927	0.12596	0.086264	0.091777	0.13134	0.03226	0.2565	-2.2188	-2.5521	-2.2875	-2.7062	-2.2313	-2.5104	-2.7979	-2.3208	-2.6292	-2.4917	-2.3167	-2.6562	-2.4354	-2.5312	-2.7604	-2.2938	81.126	289.996	265.561	292.176	104.588	116.433	278.782	309.294	103.299	104.859	124.026	299.594	136.298	39.694	180.239	197.529	0.00021373	0.00065339	0.00028186	1194.9	9.0875e-06	2.1957e-06	1268.9	240.07	1.2756e-05	5.5963e-06	298.45	80.938	64.129	18.128	8.1436e-06	25.29	0.0015784	0.0016353	0.00045948	1233.8	1.7883e-05	1.8127e-05	1309.6	258.92	1.8223e-05	1.8198e-05	324.41	91.233	74.824	21.738	1.8473e-05	30.356	76.620	-14.740	75.900	-10.686	128.008	260.614	-10.842	-3.647	62.173	152.332	-3.825	3.209	3.607	11.086	40.515	10.246	-8191	255	
14054.743	1	1	0	0	0.24469	0.10394	0.17813	0.18987	0.085245	0.15138	0.12041	0.12523	0.14685	0.1065	0.080063	0.076875	0.26575	0.16838	0.093773	0.030963	-1.9604	-2.5687	-2.2979	-2.7333	-2.4229	-2.3604	-2.9021	-2.4104	-2.525	-2.7396	-2.45	-2.7125	-2.4979	-2.5083	-2.8479	-2.3771	-5.190	223.900	89.615	-14.855	256.020	329.434	66.893	-19.051	287.107	78.836	198.680	254.415	249.170	155.057	295.810	126.368	0.0001441	0.00021725	0.0001662	1197.1	6.0475e-06	3.3712e-06	1271.3	239.59	1.9827e-05	6.0889e-06	298.64	80.5	64.299	18.161	5.2581e-06	25.271	0.0016437	0.0016954	0.00047026	1239.1	1.8438e-05	1.8538e-05	1311.6	259.51	1.8452e-05	1.8699e-05	325.49	91.337	74.863	21.846	1.8446e-05	30.32	103.211	158.729	31.565	-10.921	232.592	72.696	-10.682	-3.483	138.089	6.656	-3.635	3.159	3.713	10.832	193.193	9.606	-8191	255	
14054.839	1	1	0	0	0.32379	0.15734	0.1054	0.49754	0.067295	0.18852	0.40289	0.25196	0.22893	0.17677	0.12733	0.20263	0.1088	0.23607	0.23392	0.17815	-2.1542	-2.6104	-2.2146	-2.8479	-2.5292	-2.5375	-2.9729	-2.25	-2.5812	-2.7479	-2.1875	-2.6896	-2.6792	-2.3688	-2.9458	-2.5021	37.193	174.010	163.302	312.389	24.908	106.470	295.080	259.074	245.442	250.369	318.037	254.991	65.697	318.205	152.525	156.376	0.00024123	0.00021817	0.00014579	1200.2	1.1285e-05	3.9345e-06	1271.9	238.53	3.8386e-06	5.8604e-06	294.89	80.527	64.496	18.209	7.3968e-06	25.427	0.0016267	0.0016859	0.00046618	1239.7	1.8128e-05	1.8418e-05	1310.2	258.16	1.8337e-05	1.8099e-05	324.16	91.142	74.6	21.72	1.7944e-05	30.144	62.619	152.284	4.011	-10.914	177.959	181.872	-10.441	-3.597	260.847	254.003	-3.385	3.029	3.429	10.647	262.124	10.090	-8191	255	
14054.958	1	1	0	0	0.10712	0.12769	0.15048	0.17183	0.14391	0.16302	0.22348	0.26341	0.15221	0.16046	0.21824	0.29184	0.12767	0.12919	0.23228	0.065265	-1.9521	-2.875	-2.3146	-2.8	-2.5062	-2.375	-2.9208	-2.4062	-2.3458	-2.8083	-2.4792	-2.6208	-2.6958	-2.45	-2.8187	-2.5417	58.775	213.028	50.340	-8.742	245.747	81.909	297.040	320.615	70.919	295.598	264.463	255.493	221.913	110.855	209.031	235.009	0.00045223	4.1351e-05	9.3698e-05	1196.9	5.9454e-06	2.7526e-06	1275.9	240.44	2.0035e-06	6.2949e-06	296.25	80.923	65.049	18.133	6.9625e-06	25.5	0.0015698	0.0016164	0.00044853	1234.7	1.7535e-05	1.7721e-05	1311.3	257.82	1.7712e-05	1.7952e-05	324.4	91.357	74.585	21.616	1.8253e-05	30.306	62.339	88.144	88.754	-10.580	117.421	297.551	-10.629	-3.353	186.090	217.401	-3.619	2.837	3.501	10.268	142.319	10.398	-8191	255	
14055.054	1	1	0	0	0.23992	0.062145	0.37321	0.36937	0.059755	0.071465	0.43684	0.034183	0.070908	0.15141	0.23243	0.067136	0.31702	0.12061	0.21245	0.22433	-2.0208	-2.7167	-2.1958	-2.7354	-2.6437	-2.3688	-2.9313	-2.4	-2.2625	-2.7104	-2.3812	-2.525	-2.7479	-2.4188	-2.7417	-2.5312	137.584	285.031	264.108	329.046	170.783	324.743	274.482	278.257	10.184	86.792	261.460	125.315	270.206	304.192	310.783	-6.057	0.00019918	0.00031701	0.00014393	1201.4	5.1112e-06	3.5685e-06	1272.3	239.06	9.0616e-06	6.8404e-06	296.52	80.801	64.636	18.231	3.8066e-06	25.396	0.0016019	0.0016578	0.00046219	1239.2	1.8091e-05	1.8296e-05	1312.4	258.33	1.8193e-05	1.8342e-05	325.29	91.281	74.763	21.66	1.8233e-05	30.207	100.564	9.141	168.495	-11.085	115.113	36.983	-10.833	-3.535	47.825	28.497	-3.666	3.414	3.627	11.038	219.123	10.461	-8191	255	
14055.150	1	1	0	0	0.12613	0.16956	0.044417	0.25467	0.17561	0.071974	0.43063	0.22743	0.20131	0.2794	0.12298	0.42029	0.16653	0.19	0.11628	0.2016	-1.9125	-2.8021	-2.3896	-2.7583	-2.6646	-2.2438	-2.8208	-2.6625	-2.3396	-2.8708	-2.3229	-2.5125	-2.7771	-2.3	-2.5667	-2.5625	151.705	48.909	-5.725	254.056	124.465	63.118	264.536	111.739	188.615	178.234	266.336	251.389	60.127	13.666	209.880	274.809	0.00041799	0.00032777	9.3377e-05	1202.7	3.4409e-06	7.4438e-06	1275.8	239.03	1.0365e-06	8.0978e-06	299.53	81.164	64.381	18.011	1.1693e-05	25.392	0.00159	0.0016379	0.00045894	1238.4	1.7905e-05	1.782e-05	1311.5	257.88	1.7714e-05	1.8014e-05	324.88	91.287	74.555	21.633	1.8063e-05	30.203	32.783	45.392	283.011	-11.023	168.478	176.255	-10.907	-3.300	122.161	172.488	-3.946	2.930	3.513	10.884	224.282	10.483	-8191	255	
14055.247	1	1	0	0	0.11927	0.1277	0.13911	0.055315	0.19191	0.09228	0.33143	0.22047	0.11316	0.34465	0.36229	0.12069	0.10573	0.15849	0.079076	0.1047	-1.7292	-2.6875	-2.3563	-2.625	-2.6167	-2.3875	-2.8729	-2.7938	-2.3833	-2.8667	-2.7042	-2.4479	-2.95	-2.3771	-2.6063	-2.6292	95.419	293.112	185.797	215.619	257.813	179.451	274.533	245.561	-16.539	183.790	6.062	320.489	136.344	-6.203	319.890	-16.149	0.0002669	0.00084135	0.00022926	1198.2	1.409e-05	5.5498e-06	1274	239.45	1.3001e-05	6.4688e-06	295.66	81.165	64.927	18.126	4.4647e-06	25.468	0.001592	0.0016555	0.00046007	1238.7	1.8011e-05	1.8211e-05	1312.1	258.72	1.8135e-05	1.8244e-05	324.5	91.456	74.815	21.707	1.8267e-05	30.257	83.086	294.455	71.675	-11.107	84.637	117.270	-10.583	-3.572	129.857	119.044	-3.541	2.717	3.401	10.527	331.078	9.837	-8191	255	
#DATA ENDS
