BOXY.EXE: ISS Imagent and Oximeter Data Acquisition Program Version 0.80
Ascii Record File

#ACQ INFORMATION
2  Detector Channels 
16  External MUX Channels 
1  Auxiliary Channels 
5000  Waveform (CCF) Frequency (Hz)
1  Waveforms Skipped 
30  Waveforms Averaged 
1  Cycles Averaged 
16  Acquisitions per Waveform 
10.0806  Updata Rate (Hz) 

#FILE INFORMATION
TRUE -- External MUX Channel results are PARSED.
FALSE -- AC DC and Phase are NOT grouped.
TRUE -- Companion Program Settings File CREATED.
FALSE -- AC data not excluded
FALSE -- DC data not excluded
FALSE -- Phase data not excluded
FALSE -- Auxillary Chn. data not excluded
Tab delimiters

#CALIBRATION STATE
TRUE -- Waveform Calibration Values APPLIED.


#AUX CALIBRATION VALUES
Val Type	aux-1	

Term	1.0000e+00	
Factor	0.0000e+00	


#WF CALIBRATION VALUES
A = Detector Channel
Val Type	A-AC1	A-AC2	A-AC3	A-AC4	A-AC5	A-AC6	A-AC7	A-AC8	A-AC9	A-AC10	A-AC11	A-AC12	A-AC13	A-AC14	A-AC15	A-AC16	A-DC1	A-DC2	A-DC3	A-DC4	A-DC5	A-DC6	A-DC7	A-DC8	A-DC9	A-DC10	A-DC11	A-DC12	A-DC13	A-DC14	A-DC15	A-DC16	A-Ph1	A-Ph2	A-Ph3	A-Ph4	A-Ph5	A-Ph6	A-Ph7	A-Ph8	A-Ph9	A-Ph10	A-Ph11	A-Ph12	A-Ph13	A-Ph14	A-Ph15	A-Ph16	

Term	0.00000e+00	0.00000e+00	0.00000e+00	0.00000e+00	0.00000e+00	0.00000e+00	0.00000e+00	0.00000e+00	0.00000e+00	0.00000e+00	0.00000e+00	0.00000e+00	0.00000e+00	0.00000e+00	0.00000e+00	0.00000e+00	0.00000e+00	0.00000e+00	0.00000e+00	0.00000e+00	0.00000e+00	0.00000e+00	0.00000e+00	0.00000e+00	0.00000e+00	0.00000e+00	0.00000e+00	0.00000e+00	0.00000e+00	0.00000e+00	0.00000e+00	0.00000e+00	0.00000e+00	0.00000e+00	0.00000e+00	0.00000e+00	0.00000e+00	0.00000e+00	0.00000e+00	0.00000e+00	0.00000e+00	0.00000e+00	0.00000e+00	0.00000e+00	0.00000e+00	0.00000e+00	0.00000e+00	0.00000e+00	
Factor	1.00000e+00	1.00000e+00	1.00000e+00	1.00000e+00	1.00000e+00	1.00000e+00	1.00000e+00	1.00000e+00	1.00000e+00	1.00000e+00	1.00000e+00	1.00000e+00	1.00000e+00	1.00000e+00	1.00000e+00	1.00000e+00	1.00000e+00	1.00000e+00	1.00000e+00	1.00000e+00	1.00000e+00	1.00000e+00	1.00000e+00	1.00000e+00	1.00000e+00	1.00000e+00	1.00000e+00	1.00000e+00	1.00000e+00	1.00000e+00	1.00000e+00	1.00000e+00	X	X	X	X	X	X	X	X	X	X	X	X	X	X	X	X	

B = Detector Channel
Val Type	B-AC1	B-AC2	B-AC3	B-AC4	B-AC5	B-AC6	B-AC7	B-AC8	B-AC9	B-AC10	B-AC11	B-AC12	B-AC13	B-AC14	B-AC15	B-AC16	B-DC1	B-DC2	B-DC3	B-DC4	B-DC5	B-DC6	B-DC7	B-DC8	B-DC9	B-DC10	B-DC11	B-DC12	B-DC13	B-DC14	B-DC15	B-DC16	B-Ph1	B-Ph2	B-Ph3	B-Ph4	B-Ph5	B-Ph6	B-Ph7	B-Ph8	B-Ph9	B-Ph10	B-Ph11	B-Ph12	B-Ph13	B-Ph14	B-Ph15	B-Ph16	

Term	0.00000e+00	0.00000e+00	0.00000e+00	0.00000e+00	0.00000e+00	0.00000e+00	0.00000e+00	0.00000e+00	0.00000e+00	0.00000e+00	0.00000e+00	0.00000e+00	0.00000e+00	0.00000e+00	0.00000e+00	0.00000e+00	0.00000e+00	0.00000e+00	0.00000e+00	0.00000e+00	0.00000e+00	0.00000e+00	0.00000e+00	0.00000e+00	0.00000e+00	0.00000e+00	0.00000e+00	0.00000e+00	0.00000e+00	0.00000e+00	0.00000e+00	0.00000e+00	8.11284e+01	-1.20153e+02	-1.26350e+02	-1.81567e+02	-8.84902e+01	-8.40959e+01	-1.56561e+02	-1.62015e+02	-9.69263e+01	-8.38922e+01	-1.71055e+02	-1.71474e+02	-1.84436e+02	-1.76931e+02	-7.91405e+01	-1.49939e+02	
Factor	6.50912e-05	1.46992e-04	3.41674e-05	2.12455e-01	1.30598e-06	1.78741e-06	1.67938e-01	5.12696e-02	2.14687e-06	1.52923e-06	8.73862e-02	3.30830e-02	4.09064e-02	9.26272e-03	1.52222e-06	1.33558e-02	1.62652e-06	1.68806e-06	4.69002e-07	1.07451e-01	1.84094e-08	1.85136e-08	8.01808e-02	2.60849e-02	1.83594e-08	1.85120e-08	4.27707e-02	1.61030e-02	2.01847e-02	4.70032e-03	1.84195e-08	6.52597e-03	X	X	X	X	X	X	X	X	X	X	X	X	X	X	X	X	



#DISTANCE SETTINGS
A = Detector Channel
A-1	A-2	A-3	A-4	A-5	A-6	A-7	A-8	A-9	A-10	A-11	A-12	A-13	A-14	A-15	A-16	

2.5000e+00	3.0000e+00	2.5000e+00	3.0000e+00	2.0000e+00	3.0000e+00	1.5000e+00	3.0000e+00	3.0000e+00	3.0000e+00	3.0000e+00	3.0000e+00	3.0000e+00	3.0000e+00	1.5000e+00	3.0000e+00	

B = Detector Channel
B-1	B-2	B-3	B-4	B-5	B-6	B-7	B-8	B-9	B-10	B-11	B-12	B-13	B-14	B-15	B-16	

1.0000e+01	1.0000e+01	1.0000e+01	1.4400e+00	1.0000e+01	1.0000e+01	1.5100e+00	1.9400e+00	1.0000e+01	1.0000e+01	1.9900e+00	2.4900e+00	2.4100e+00	2.9000e+00	1.0000e+01	2.9800e+00	




#DATA BEGINS
time	group	step	mark	flag	A-AC1	A-AC2	A-AC3	A-AC4	A-AC5	A-AC6	A-AC7	A-AC8	A-AC9	A-AC10	A-AC11	A-AC12	A-AC13	A-AC14	A-AC15	A-AC16	A-DC1	A-DC2	A-DC3	A-DC4	A-DC5	A-DC6	A-DC7	A-DC8	A-DC9	A-DC10	A-DC11	A-DC12	A-DC13	A-DC14	A-DC15	A-DC16	A-Ph1	A-Ph2	A-Ph3	A-Ph4	A-Ph5	A-Ph6	A-Ph7	A-Ph8	A-Ph9	A-Ph10	A-Ph11	A-Ph12	A-Ph13	A-Ph14	A-Ph15	A-Ph16	B-AC1	B-AC2	B-AC3	B-AC4	B-AC5	B-AC6	B-AC7	B-AC8	B-AC9	B-AC10	B-AC11	B-AC12	B-AC13	B-AC14	B-AC15	B-AC16	B-DC1	B-DC2	B-DC3	B-DC4	B-DC5	B-DC6	B-DC7	B-DC8	B-DC9	B-DC10	B-DC11	B-DC12	B-DC13	B-DC14	B-DC15	B-DC16	B-Ph1	B-Ph2	B-Ph3	B-Ph4	B-Ph5	B-Ph6	B-Ph7	B-Ph8	B-Ph9	B-Ph10	B-Ph11	B-Ph12	B-Ph13	B-Ph14	B-Ph15	B-Ph16	aux-1	digaux	

1077.634	1	1	0	512	0.3597	0.32607	0.11645	0.26865	0.11097	0.14327	0.10393	0.35359	0.21953	0.19338	0.19301	0.074369	0.28021	0.26277	0.14565	0.018081	-2.2229	-2.8333	-2.4146	-2.7396	-2.7625	-2.5604	-3.2229	-2.575	-2.7292	-2.8312	-2.3521	-2.8708	-2.8792	-2.6521	-3.1083	-2.5938	-133.601	-10.791	-100.723	-128.685	-58.830	-105.587	173.023	65.713	0.001	-87.038	-144.849	190.105	93.323	180.339	-140.607	-7.872	0.001757	0.00083245	3.8652e-05	868.7	3.1166e-06	1.2699e-05	854.33	306.93	1.3312e-05	1.1843e-05	343.74	128.34	117.93	41.113	1.0385e-06	55.358	0.00047114	0.00046134	0.00012873	810.88	5.0403e-06	5.0961e-06	795.62	285.08	5.1251e-06	5.0008e-06	319.69	119.17	109.32	38.619	4.9555e-06	51.46	47.837	-24.613	-48.057	-141.649	-21.669	0.844	-143.231	-135.476	-75.089	-7.574	-137.738	-134.292	-132.131	-127.845	180.009	-131.288	-8191	255	
1077.730	1	1	0	0	0.18887	0.23537	0.23799	0.15974	0.16371	0.14439	0.045373	0.19976	0.20102	0.26601	0.22021	0.17426	0.19017	0.13624	0.23341	0.17636	-2.3042	-2.8917	-2.5708	-2.7708	-2.8167	-2.6979	-2.9688	-2.7938	-2.6604	-2.8542	-2.6458	-2.7875	-2.7958	-2.5687	-2.9875	-2.8563	-150.090	-77.257	131.335	38.413	150.650	-99.847	184.851	165.446	94.255	102.528	-128.217	-133.459	5.236	110.660	-129.174	-111.098	0.0016213	0.00043872	8.0983e-05	869.26	7.0633e-07	1.611e-06	855.33	306.94	1.8817e-05	3.4462e-06	339.11	126.89	118.26	41.338	4.7935e-06	55.217	0.00046992	0.00044728	0.00012363	811.25	5.003e-06	4.9916e-06	797.11	284.83	5.0769e-06	5.0569e-06	318.8	118.92	109.17	38.618	5.1395e-06	51.457	38.677	-15.198	-96.548	-141.447	41.441	48.871	-142.945	-135.357	-71.033	193.051	-138.391	-134.435	-132.010	-127.566	-113.753	-130.919	-8191	255	
1077.825	1	1	0	0	0.011264	0.11816	0.15812	0.012169	0.12258	0.084714	0.37046	0.15551	0.25475	0.21688	0.28225	0.23249	0.20462	0.059493	0.12219	0.12768	-2.225	-2.95	-2.3979	-2.8875	-3.0208	-2.2562	-3.1125	-2.8771	-2.5854	-2.8708	-2.6042	-2.5187	-3.0542	-2.3937	-2.9917	-2.6396	-132.010	139.908	23.646	-153.652	-0.914	-45.087	155.274	109.773	116.808	-113.218	-147.751	6.206	91.451	54.710	91.437	145.819	0.001204	0.0011391	0.00017649	875.99	2.3324e-06	4.1136e-06	856.67	305.73	1.2002e-05	6.106e-06	344.56	128.41	117.74	41.39	7.1888e-06	55.487	0.00046875	0.00045438	0.00012672	813.06	4.9196e-06	4.9297e-06	799.52	284.73	4.9355e-06	4.9718e-06	320.47	118.97	109.37	38.675	5.0951e-06	51.628	58.657	-61.358	-117.378	-141.957	90.547	-64.735	-142.788	-135.735	-92.769	13.608	-138.297	-134.418	-132.426	-127.561	-90.845	-131.369	-8191	255	
1077.923	1	1	0	0	0.27271	0.10349	0.22975	0.30685	0.1461	0.34121	0.22115	0.24352	0.11123	0.11509	0.14596	0.082544	0.11729	0.22307	0.062863	0.16835	-2.1354	-3.0083	-2.4917	-2.8292	-2.7604	-2.5542	-2.9021	-2.8667	-2.4417	-3.0438	-2.7292	-2.8063	-2.8458	-2.4958	-2.8854	-2.6437	3.601	-128.770	188.765	-136.704	-105.673	-87.444	120.485	137.636	-54.802	161.001	204.283	134.940	128.390	-93.757	49.194	111.100	0.0015051	0.0007509	0.00013908	870.31	2.2138e-06	4.5156e-06	852.09	304.39	9.8121e-06	1.9079e-06	340.66	127.66	118.28	41.063	2.8841e-06	54.893	0.00047492	0.00046111	0.00012901	809.51	4.9302e-06	4.949e-06	794.9	283.23	4.8834e-06	4.9036e-06	317.83	118.44	109.12	38.487	5.0407e-06	51.203	58.867	-65.492	31.084	-141.760	188.076	-16.051	-143.274	-135.546	-137.412	68.647	-138.254	-134.000	-132.461	-127.518	149.394	-131.460	-8191	255	
1078.017	1	1	0	0	0.24343	0.062248	0.078575	0.1069	0.030038	0.32665	0.33356	0.14216	0.35738	0.31297	0.14262	0.24384	0.17385	0.23235	0.08118	0.1354	-1.9833	-2.9813	-2.8667	-2.6896	-3.1312	-2.4729	-2.8771	-2.9938	-2.6271	-2.7792	-2.9	-2.7562	-2.8396	-2.6167	-2.575	-3.0167	-97.662	26.840	13.853	-149.688	105.219	89.394	-151.089	142.095	-9.241	3.610	162.732	114.294	132.006	-52.350	-16.003	-144.469	0.0016218	0.00036774	0.00013777	865.37	5.1193e-06	9.4325e-06	852.64	305.63	6.476e-06	8.5866e-06	341.54	128.13	117.24	41.145	5.3103e-06	55.072	0.00046874	0.0004548	0.00012679	808.48	4.9472e-06	4.9884e-06	795.42	283.13	4.9239e-06	5.0624e-06	317.58	118.65	108.86	38.514	4.9558e-06	51.205	59.042	-139.177	-85.884	-141.604	-103.971	-47.505	-143.292	-135.746	-132.964	70.630	-138.217	-134.335	-132.469	-127.764	184.938	-130.989	-8191	255	
1078.113	1	1	0	0	0.15362	0.23362	0.17235	0.21989	0.30523	0.17146	0.17673	0.37799	0.13035	0.21415	0.14394	0.07832	0.094225	0.24804	0.11545	0.081624	-1.95	-2.8688	-2.8979	-2.6646	-3.0854	-2.4104	-2.8458	-3.0292	-2.4958	-2.8021	-2.8896	-2.7042	-2.7438	-2.8271	-2.5146	-2.9708	189.978	146.103	25.591	170.930	144.706	-144.766	4.295	194.686	120.882	190.178	170.751	178.814	68.476	166.059	35.684	182.874	0.0016566	0.00049152	0.00021803	866.69	1.5152e-06	9.7994e-06	857.44	302.81	3.4392e-06	1.3258e-05	340.05	127.13	117.31	41.001	8.044e-06	54.878	0.00046225	0.00044921	0.0001246	810.73	4.9371e-06	4.9182e-06	796.44	282.92	4.9789e-06	4.9131e-06	316.74	118.01	108.56	38.43	4.9263e-06	51.126	46.803	-26.972	-98.818	-141.955	-22.659	-83.788	-143.678	-135.691	-56.662	5.332	-138.116	-133.995	-132.300	-127.673	-79.979	-131.049	-8191	255	
1078.234	1	1	0	0	0.11121	0.1751	0.10221	0.016325	0.083137	0.17459	0.10629	0.14734	0.44962	0.18456	0.22671	0.38658	0.29238	0.1873	0.092261	0.31831	-2.0854	-2.8021	-2.9	-2.5438	-3.1042	-2.5729	-2.8729	-3.0604	-2.3729	-2.875	-2.8896	-2.3812	-2.9167	-2.75	-2.6875	-3.0125	110.423	136.069	121.734	-73.122	-80.840	-83.347	-56.884	172.372	-38.941	27.630	-104.429	160.082	162.744	-136.479	-152.493	185.755	0.0011098	0.0011489	9.1963e-05	871.96	4.0266e-06	9.3563e-06	855.54	305.95	8.4941e-06	3.2219e-06	341.93	127.89	117.38	41.308	9.7108e-07	55.056	0.00045413	0.00044161	0.00012321	813.75	4.8606e-06	4.8397e-06	798.83	284.1	4.9003e-06	5.0072e-06	317.94	118.58	108.79	38.625	4.9642e-06	51.454	41.326	-73.916	-21.499	-141.705	-25.902	15.074	-143.403	-135.750	-62.806	33.017	-138.247	-134.200	-132.179	-127.691	76.407	-131.421	-8191	255	
1078.330	1	1	0	0	0.13532	0.135	0.12226	0.084804	0.029144	0.14742	0.10953	0.28576	0.061929	0.071269	0.31981	0.061192	0.15341	0.10443	0.12839	0.38773	-2.0646	-2.8229	-2.7271	-2.5604	-2.8438	-2.5896	-2.6208	-2.9146	-2.5542	-2.7188	-3.0854	-2.5396	-2.9875	-2.6958	-2.4646	-2.9146	103.956	22.925	184.715	167.228	-114.374	201.596	112.233	113.062	-75.781	-101.300	177.136	114.084	123.555	160.001	18.732	129.581	0.0014373	0.00072725	0.00016092	865.39	9.9609e-07	3.0177e-06	849.18	305.22	1.5791e-05	4.4685e-06	339.97	126.16	116.87	41.035	9.054e-06	55.108	0.00045807	0.00044577	0.00012253	808.16	4.78e-06	4.8664e-06	792.35	282.97	4.8238e-06	4.9824e-06	315.57	117.36	107.91	38.28	4.8294e-06	50.94	50.888	-84.174	-19.940	-141.393	162.674	120.487	-143.066	-135.416	-118.201	-39.270	-137.733	-134.212	-132.140	-128.027	-11.621	-131.118	-8191	255	
1078.426	1	1	0	0	0.06444	0.078874	0.21054	0.1256	0.072667	0.13165	0.10877	0.25483	0.14832	0.14808	0.046921	0.31801	0.1712	0.050836	0.21667	0.13354	-2.3187	-2.4771	-2.9188	-2.3333	-2.8167	-2.8417	-2.6771	-2.9979	-2.6125	-2.7625	-2.8333	-2.6854	-2.9625	-2.8167	-2.4562	-3.0833	32.998	-98.970	165.057	-76.135	36.753	-78.036	63.397	150.257	-44.593	88.222	174.754	190.851	70.956	96.061	13.413	187.051	0.0014166	0.00062566	4.1894e-05	861.93	2.8411e-06	1.6085e-05	850.96	303.82	1.3944e-05	5.9657e-06	335.24	126.69	116.49	40.832	6.1333e-06	54.286	0.00045156	0.00045389	0.00012367	805.89	4.9212e-06	4.9264e-06	790.65	281.41	4.8161e-06	4.8987e-06	313.14	116.88	107.6	38.119	4.6806e-06	50.643	48.673	-85.621	-152.108	-141.584	-4.343	-32.987	-143.359	-135.826	-132.784	-87.193	-138.295	-134.088	-132.309	-128.003	125.612	-131.531	-8191	255	
1078.522	1	1	0	0	0.18085	0.067678	0.20291	0.029702	0.21518	0.068515	0.16745	0.028959	0.21034	0.29287	0.11257	0.12334	0.11902	0.29083	0.097717	0.10384	-2.2667	-2.4062	-2.8896	-2.6271	-2.6583	-2.8229	-2.6271	-3.0312	-2.7146	-2.4896	-3.0021	-2.6417	-2.8271	-2.9354	-2.6417	-2.8833	-111.989	58.386	-97.276	170.721	-136.449	148.017	12.687	-32.296	28.253	-124.306	20.413	-152.369	20.410	203.503	121.267	124.912	0.0015031	0.0011616	0.00014153	860.66	2.8895e-06	9.6606e-06	847.96	303.55	1.4115e-05	4.7678e-06	337.26	125.65	116.09	40.587	2.846e-06	54.465	0.00044094	0.00042284	0.00011878	804.91	4.7254e-06	4.715e-06	788.94	281.24	4.705e-06	4.7405e-06	313.42	116.91	107.18	37.957	4.6027e-06	50.794	44.563	-36.867	-103.204	-141.683	-119.860	-19.825	-143.515	-135.739	-103.867	-94.246	-138.040	-133.906	-132.039	-127.715	78.534	-131.312	-8191	255	
1078.619	1	1	0	0	0.095477	0.20942	0.26295	0.21849	0.067358	0.032448	0.14061	0.2351	0.27518	0.20606	0.096139	0.25668	0.074244	0.16905	0.14945	0.10349	-2.3917	-2.4458	-3.0708	-2.7021	-2.6292	-2.9146	-2.3771	-3.0625	-2.6854	-2.45	-3.0292	-2.5	-2.8771	-2.8417	-2.5	-2.9813	186.900	-84.119	40.117	133.298	-140.074	-37.142	132.228	84.769	129.846	41.835	-80.793	134.086	137.742	79.930	-4.875	48.851	0.0016029	0.00109	0.00017106	864.93	4.5937e-06	5.0652e-06	849.48	300.49	1.8281e-05	5.3977e-06	340.47	126.04	116.99	40.785	4.5315e-06	54.673	0.00043213	0.00042185	0.00011659	805.61	4.7314e-06	4.6265e-06	791.14	281.09	4.7981e-06	4.7833e-06	315.42	117.12	107.75	38.167	4.7982e-06	50.604	57.053	-7.476	53.208	-141.774	38.282	-32.281	-143.207	-135.608	-145.811	-13.743	-138.184	-133.994	-131.728	-127.985	153.297	-131.226	-8191	255	
1078.715	1	1	0	0	0.13805	0.14174	0.312	0.24717	0.21741	0.20431	0.28421	0.36252	0.17021	0.21268	0.11149	0.18516	0.12803	0.21368	0.27166	0.18473	-2.1604	-2.5604	-2.9083	-2.725	-2.5667	-2.9771	-2.6771	-2.7958	-2.8042	-2.6	-2.9708	-2.7833	-2.75	-2.9667	-2.65	-2.9396	6.641	-117.349	-151.886	193.792	86.450	165.299	71.709	-151.592	79.778	-56.840	110.088	-86.889	141.878	-126.747	64.233	114.662	0.0015226	0.00059075	0.00010979	859.84	3.5939e-06	1.059e-05	843.52	301.13	1.9343e-06	6.9404e-06	338.97	126.35	115.58	40.785	3.1085e-06	54.001	0.00044219	0.0004329	0.00012013	802.43	4.7224e-06	4.6645e-06	786.13	279.66	4.6968e-06	4.7823e-06	313.12	116.44	107.04	38.077	4.7601e-06	50.366	50.077	95.932	-140.673	-142.060	-40.327	73.801	-143.316	-135.857	-64.743	6.377	-138.140	-134.245	-132.607	-128.022	184.947	-131.277	-8191	255	
1078.834	1	1	0	0	0.11007	0.15927	0.24762	0.20502	0.13279	0.071652	0.4131	0.14129	0.12258	0.27387	0.19087	0.085384	0.10509	0.18169	0.15342	0.065506	-2.3375	-2.5208	-2.7021	-2.7896	-2.5479	-3.0708	-2.7646	-2.9875	-2.8833	-2.4104	-2.6437	-2.9479	-2.4896	-3.0563	-2.4354	-2.8563	27.916	24.566	-53.327	144.827	-20.943	14.550	141.948	124.439	-143.993	-66.248	105.542	-62.332	-85.875	148.101	198.665	62.126	0.0014355	0.00070023	0.00014875	862.66	6.1945e-06	1.7031e-06	840.09	302.17	1.3015e-05	2.28e-06	335.02	126.81	115.6	40.401	9.6946e-06	54.094	0.00045832	0.00043768	0.00012326	802.36	4.8123e-06	4.7897e-06	785.95	280.94	4.7369e-06	4.6583e-06	313.08	116.71	107.1	37.919	4.6651e-06	50.472	58.521	-27.642	-37.988	-141.664	-24.756	86.354	-143.251	-135.605	-97.171	178.061	-138.207	-134.105	-132.064	-127.805	-54.374	-131.460	-8191	255	
1078.930	1	1	0	0	0.30284	0.025769	0.16757	0.18066	0.22724	0.13977	0.24818	0.12926	0.23392	0.098154	0.076057	0.048835	0.2261	0.29599	0.085504	0.19264	-2.3833	-2.5729	-2.8	-2.9437	-2.5125	-2.9979	-2.7125	-2.9875	-2.75	-2.7396	-3.075	-2.9854	-2.6479	-2.9854	-2.5	-2.9	-4.501	88.954	-50.309	117.118	186.010	-145.098	172.677	169.713	-86.642	198.335	73.587	-46.722	87.560	179.400	196.100	119.746	0.0011677	0.00056799	0.00014544	860.97	1.3011e-06	6.3919e-06	846.65	302.54	2.2212e-05	6.6893e-06	338.53	126.65	116.24	40.947	4.6225e-06	54.319	0.00044061	0.00043341	0.00012189	804.03	4.7368e-06	4.7021e-06	789.91	282.01	4.7303e-06	4.7289e-06	314.64	117	107.68	38.212	4.6631e-06	50.783	48.537	-145.682	-100.500	-141.775	2.960	79.739	-143.028	-135.570	-60.561	-15.389	-137.893	-134.430	-132.143	-127.776	-89.141	-131.092	-8191	255	
1079.026	1	1	0	0	0.13193	0.16309	0.3693	0.1011	0.062929	0.0564	0.078682	0.18751	0.14566	0.081232	0.3426	0.17788	0.15341	0.097274	0.13187	0.13614	-2.6271	-2.4958	-2.8229	-3.0021	-2.55	-3.1167	-2.6833	-2.5938	-2.9833	-2.4729	-2.8458	-2.7667	-2.6813	-2.8583	-2.8125	-2.6792	-106.058	165.523	-132.122	141.396	91.002	170.070	103.383	123.504	169.983	177.866	177.106	145.980	-33.950	6.817	86.542	164.746	0.0015007	0.00080053	7.1576e-06	865.58	1.3211e-06	9.5827e-06	853.6	302.89	1.2249e-05	4.1561e-06	339.03	127.47	117.38	40.815	1.3146e-05	54.717	0.00044312	0.00043672	0.00012143	806.43	4.6936e-06	4.7353e-06	794.03	282.05	4.7378e-06	4.7935e-06	316.28	117.79	108.26	38.169	4.7308e-06	50.976	64.041	-48.333	75.883	-141.820	11.111	116.268	-143.218	-135.444	-100.831	15.181	-137.807	-134.405	-132.124	-127.440	-70.099	-131.124	-8191	255	
1079.122	1	1	0	0	0.11866	0.12246	0.20718	0.088503	0.3254	0.1556	0.11807	0.26254	0.15479	0.052467	0.096132	0.056791	0.071536	0.13832	0.082971	0.11141	-2.6708	-2.6562	-2.6021	-2.9062	-2.4604	-2.9167	-3.1854	-2.9042	-2.8563	-2.6396	-2.8125	-3.0854	-2.6729	-3.0104	-2.8521	-2.6396	98.598	-125.647	-72.650	171.838	165.526	-141.820	172.550	102.338	-132.048	-66.396	-135.980	-115.672	76.448	85.217	202.409	50.199	0.0013327	0.00039363	5.7624e-05	869.27	2.5632e-06	9.2666e-06	852.08	303.45	5.0494e-06	2.4066e-06	339.38	126.15	117.59	40.729	5.8982e-06	54.485	0.00044011	0.0004313	0.00012107	807.41	4.7219e-06	4.8007e-06	792.48	281.62	4.8004e-06	4.8201e-06	315.36	117.14	107.76	38.127	4.8479e-06	50.622	67.241	-87.522	-103.957	-141.670	-5.462	-71.503	-143.079	-135.550	-117.676	-10.332	-137.949	-134.295	-132.758	-127.670	22.529	-130.835	-8191	255	
1079.243	1	1	0	0	0.14532	0.098463	0.22197	0.08426	0.067288	0.2293	0.24146	0.097832	0.075858	0.11109	0.45156	0.25114	0.33868	0.074891	0.11823	0.2522	-2.3875	-2.7062	-2.7292	-3.1292	-2.6792	-2.6708	-2.9146	-2.7292	-2.8208	-2.7313	-2.7646	-2.9938	-2.6354	-2.9208	-2.8	-2.7958	-122.357	-143.059	-18.669	167.101	-4.586	123.961	178.324	112.996	206.057	164.906	185.834	168.662	-144.068	-104.678	-145.103	97.903	0.0012302	0.00089958	0.0001452	870.4	1.1374e-05	1.192e-05	850.64	305.22	1.4188e-05	6.0551e-06	340.15	127.97	117.17	41.167	2.6415e-06	54.522	0.00045034	0.0004438	0.00012372	809.25	4.7539e-06	4.8291e-06	793.26	283.19	4.8513e-06	4.741e-06	316.57	117.85	108.22	38.261	4.8349e-06	50.78	47.946	-67.622	-22.210	-141.548	-40.711	-65.513	-143.556	-135.744	-75.586	-36.430	-138.176	-134.226	-132.003	-127.495	-109.255	-130.901	-8191	255	
1079.314	1	1	0	0	0.19604	0.11631	0.1794	0.12064	0.14746	0.11219	0.28208	0.17943	0.04487	0.11598	0.25688	0.26502	0.26079	0.1749	0.1908	0.17546	-2.4521	-2.6979	-2.5062	-3.0583	-2.5958	-2.9313	-2.7875	-2.7687	-2.8271	-2.8333	-2.7146	-3.0187	-2.6771	-2.6521	-3.025	-2.5729	-65.813	181.359	-72.523	176.524	27.187	163.007	93.687	200.625	158.173	161.073	151.410	160.217	-120.653	200.396	-29.226	145.814	0.0017192	0.00043056	0.00013028	866.63	4.0669e-06	7.4349e-06	855.68	305.38	7.4116e-06	5.4551e-06	339.87	127.03	117.01	40.936	2.6809e-06	54.771	0.00045223	0.00044761	0.00012297	806.76	4.8643e-06	4.9754e-06	793.99	283.9	4.9386e-06	4.9011e-06	317.48	118.1	108.25	38.345	4.8374e-06	51.124	50.181	-40.062	-31.561	-141.639	-87.554	57.253	-143.575	-135.559	172.589	-80.956	-137.999	-133.998	-132.398	-127.298	-13.745	-131.043	-8191	255	
1079.411	1	1	0	0	0.03202	0.18473	0.30911	0.22717	0.00072061	0.060545	0.14208	0.084739	0.14479	0.0183	0.25082	0.11458	0.23399	0.40617	0.10027	0.17398	-2.6896	-2.9167	-2.5854	-3.2229	-2.7229	-3.0271	-3.0792	-2.5708	-2.9146	-2.4875	-2.75	-2.8771	-2.6375	-2.8812	-2.9375	-2.6396	149.875	193.716	-39.328	78.612	180.000	145.730	-147.316	20.072	93.376	-130.083	115.434	-101.138	40.477	-139.511	100.944	196.042	0.0013534	0.00071823	0.0002731	863.86	2.7373e-06	1.4695e-05	858.28	306.97	1.4469e-05	7.4689e-06	346.83	128.06	118.59	41.279	4.6733e-06	55.053	0.00045983	0.00044907	0.00012419	810.63	4.9629e-06	5.1427e-06	800.39	285.67	5.0442e-06	5.0845e-06	321.01	119.37	109.83	38.689	4.9854e-06	51.396	53.739	-79.827	-89.356	-141.369	-60.594	-32.208	-143.312	-135.712	-78.541	-33.726	-137.792	-134.095	-132.395	-127.741	103.791	-130.975	-8191	255	
1079.507	1	1	0	0	0.23801	0.15424	0.20891	0.35529	0.14665	0.11554	0.25212	0.42978	0.073774	0.040859	0.1	0.17013	0.24534	0.11812	0.20455	0.25317	-2.5458	-2.6146	-2.4875	-3.1083	-2.7042	-2.6312	-3.0833	-2.8312	-2.7167	-3.0354	-2.5229	-3.1583	-3.0167	-2.7208	-3.1625	-2.5604	-73.666	-8.255	-110.372	-125.761	-145.255	84.383	164.186	132.500	-104.818	180.156	196.576	-101.494	-112.639	174.475	50.291	93.475	0.0012668	0.00051355	0.00010677	866.31	5.0427e-06	4.0793e-06	852.37	305.42	8.3565e-06	1.3115e-05	340.43	127.63	118.84	41.051	4.291e-06	54.674	0.00046465	0.00044846	0.00012269	808.85	4.8172e-06	4.8956e-06	795.62	284.43	4.9325e-06	4.9209e-06	317.39	118.14	109.14	38.338	4.9053e-06	50.789	40.589	-65.991	6.435	-141.501	-77.797	-80.017	-143.140	-135.632	-101.715	33.467	-138.056	-133.954	-132.102	-127.562	30.665	-131.210	-8191	255	
1079.603	1	1	0	0	0.16514	0.27012	0.22762	0.12126	0.066034	0.14863	0.32983	0.094926	0.096802	0.39359	0.095821	0.2879	0.21678	0.39109	0.28571	0.19758	-2.5479	-2.8104	-2.3542	-3.0312	-2.6542	-2.5542	-3.2917	-2.7417	-2.7896	-2.9979	-2.6063	-2.7771	-2.8521	-2.6417	-3.0854	-2.5417	197.354	102.765	24.138	188.545	-11.134	114.595	177.868	122.212	135.332	106.479	-122.994	136.958	-117.812	-141.344	21.993	68.731	0.001401	0.00090347	7.2702e-05	869.91	4.6144e-06	6.4278e-06	855.02	304.06	9.313e-06	4.1617e-06	340.37	126.4	117.02	40.975	7.3127e-06	54.794	0.00045869	0.0004366	0.00012038	809.37	4.7235e-06	4.779e-06	795.54	283.49	4.8058e-06	4.753e-06	317.24	117.29	108.28	38.302	4.8095e-06	50.907	46.700	-8.118	77.353	-141.263	-95.280	-77.234	-143.558	-135.970	-128.287	-103.033	-138.061	-134.022	-132.311	-128.143	-7.634	-131.023	-8191	255	
1079.722	1	1	0	0	0.33469	0.26878	0.11399	0.072598	0.15703	0.13792	0.098813	0.20871	0.09404	0.090887	0.083505	0.29569	0.21554	0.19091	0.093319	0.27018	-2.25	-3.0021	-2.4437	-2.9771	-2.7771	-2.3792	-3.1979	-2.6458	-2.8146	-2.9083	-2.725	-2.9042	-2.7646	-2.5938	-3.0833	-2.8937	-26.030	110.340	120.716	193.761	146.096	-137.530	136.123	154.098	107.892	106.338	145.246	184.291	66.769	149.255	96.675	93.888	0.0015177	0.00032296	0.00010812	862.27	7.4326e-06	7.9173e-06	851.47	304.16	1.049e-05	1.0891e-05	338.69	126.08	117	40.816	6.5644e-06	54.882	0.00045198	0.00044707	0.00012297	806.18	4.9416e-06	4.8922e-06	792.58	283.29	4.8213e-06	4.7992e-06	316.52	117.59	108.1	38.183	4.7981e-06	50.834	37.770	-140.136	87.891	-141.350	-107.396	-40.107	-143.033	-135.352	2.102	-18.816	-138.230	-134.012	-132.269	-127.670	-105.936	-131.041	-8191	255	
1079.818	1	1	0	0	0.29129	0.19209	0.21208	0.21926	0.10231	0.30034	0.19585	0.24314	0.040028	0.057364	0.17627	0.1872	0.11108	0.32721	0.24078	0.033932	-2.2479	-2.8229	-2.525	-2.825	-2.8833	-2.5479	-3.0875	-3.0563	-2.6	-3.2521	-2.6021	-2.9604	-2.575	-2.6312	-2.7938	-2.8937	-117.195	3.159	202.271	191.284	-146.864	-7.139	175.937	164.650	-0.806	86.530	-96.037	196.273	11.179	-117.946	115.049	-76.092	0.0015618	0.00063386	0.00025486	866.06	8.5192e-06	1.1096e-05	852.05	305.59	1.849e-05	9.7227e-07	340.02	126.73	118.17	40.936	7.7226e-06	54.324	0.00045266	0.00043908	0.00012144	809.82	4.8164e-06	4.7429e-06	793.77	283.6	4.8112e-06	4.6965e-06	316.29	117.9	108.46	38.288	4.7603e-06	50.727	49.771	-19.401	-141.409	-141.274	-36.989	-27.207	-143.542	-135.518	-92.432	-18.889	-137.850	-134.155	-132.071	-127.790	-8.305	-131.368	-8191	255	
1079.916	1	1	0	0	0.19317	0.14802	0.27994	0.21992	0.063604	0.12462	0.1677	0.38319	0.1513	0.38017	0.19259	0.34136	0.20807	0.13976	0.040403	0.10475	-1.9688	-2.9542	-2.4604	-2.9542	-2.9708	-2.5042	-2.9292	-2.8563	-2.7021	-3.0042	-2.7958	-2.7188	-3.15	-2.5708	-2.8729	-2.9062	12.941	-126.535	-139.345	205.697	89.429	-76.345	151.688	193.616	23.674	62.865	-25.468	-124.029	-147.505	42.450	79.682	-87.338	0.0015305	0.00027396	5.6765e-05	863.55	3.1784e-06	5.8484e-06	854.29	302.23	1.2644e-05	8.8421e-06	339.57	126.22	117.11	40.671	3.6119e-06	54.053	0.00044618	0.0004317	0.00011803	806.51	4.7023e-06	4.751e-06	791.37	281.91	4.74e-06	4.8095e-06	315.12	117.09	108.26	38.024	4.8712e-06	50.349	42.593	-114.558	94.784	-141.371	-32.275	18.888	-143.314	-135.751	-19.130	-18.313	-137.849	-134.169	-132.101	-127.724	-74.436	-131.439	-8191	255	
1080.010	1	1	0	0	0.25207	0.16432	0.030938	0.10603	0.12917	0.11285	0.025734	0.18508	0.14997	0.058629	0.047775	0.067794	0.15013	0.06959	0.13099	0.17043	-2.3521	-3.0375	-2.5958	-2.7792	-2.9708	-2.6	-2.9083	-2.8521	-2.6542	-2.9688	-2.9625	-2.7167	-3.0271	-2.7271	-2.8688	-2.9979	22.915	122.263	139.022	102.923	41.123	-57.222	-97.304	71.263	-65.683	-89.809	-64.398	-2.723	-148.443	19.135	-106.444	-25.404	0.0014348	0.00037216	0.0001337	859.08	1.2223e-05	8.3646e-06	841.5	303.46	7.044e-06	5.796e-06	337.53	126.39	117.36	40.841	4.185e-06	53.887	0.00044656	0.0004446	0.00012072	805	4.8065e-06	4.7564e-06	786.27	282.38	4.7044e-06	4.6901e-06	313.61	117.22	108	38.012	4.8387e-06	50.284	58.118	-74.474	149.346	-141.599	-41.545	14.059	-143.433	-135.679	-92.220	150.223	-138.004	-134.412	-131.957	-128.138	189.578	-130.884	-8191	255	
1080.106	1	1	0	0	0.29083	0.11072	0.14917	0.055855	0.18715	0.030463	0.44292	0.012085	0.15908	0.08267	0.24106	0.23337	0.3011	0.18663	0.32994	0.13393	-2.1542	-2.9437	-2.7812	-2.8417	-2.9458	-2.5938	-2.9729	-3.0375	-2.5917	-2.9354	-2.6896	-2.6646	-3.0167	-2.7604	-2.8354	-3.0354	111.106	111.346	197.915	-140.263	-57.766	15.685	111.786	7.769	9.645	45.531	83.357	190.621	-121.504	18.036	68.722	163.092	0.0010305	0.00074111	0.0001977	859.23	1.3544e-05	1.0331e-05	843.19	303.39	1.0006e-05	2.4449e-06	337.23	127.24	116.95	40.712	2.8501e-06	54.277	0.0004569	0.00044539	0.00012294	803.54	4.9294e-06	4.9346e-06	786.97	282.09	4.8984e-06	4.9667e-06	314.05	117.25	108.07	38.042	5.0178e-06	50.622	53.134	-48.777	-127.677	-141.711	-11.622	-25.023	-143.435	-135.643	-92.148	-8.428	-138.133	-134.085	-131.867	-127.573	-122.741	-131.254	-8191	255	
1080.202	1	1	0	0	0.11742	0.22563	0.16445	0.11317	0.050015	0.19857	0.24963	0.28089	0.15915	0.20693	0.33466	0.045158	0.14337	0.087446	0.081416	0.21709	-2.2021	-2.8354	-2.7979	-2.5687	-3.1125	-2.7021	-2.8417	-3.0646	-2.5604	-2.8208	-2.8875	-2.6312	-3.0521	-2.6875	-2.825	-3.0979	97.631	-52.241	-63.348	-148.583	-124.341	51.537	154.604	201.214	205.712	-97.071	167.182	69.359	138.966	-126.004	-131.165	-6.463	0.0012506	0.0007133	0.00031097	861.91	6.1425e-06	2.8537e-06	845.98	304.23	5.2063e-06	1.0118e-05	341.06	128.49	118.68	40.999	6.5606e-06	54.392	0.00046336	0.00046065	0.00012721	804.3	5.2004e-06	5.189e-06	790.2	283.81	5.1936e-06	5.3092e-06	318.54	119.09	109.86	38.473	5.2078e-06	50.983	57.919	-83.454	-74.284	-141.747	36.257	-44.763	-143.450	-135.466	-31.794	-26.230	-137.894	-134.635	-132.543	-127.663	-34.502	-131.652	-8191	255	
1080.323	1	1	0	0	0.20243	0.1967	0.29914	0.10129	0.14226	0.14703	0.29907	0.12513	0.13635	0.0712	0.14	0.1448	0.11777	0.11655	0.21426	0.26249	-2.2062	-2.8458	-2.7458	-2.525	-2.9167	-2.925	-2.5458	-2.8646	-2.5396	-2.7333	-3.0479	-2.4688	-3.1396	-2.7833	-2.5521	-3.1167	66.399	22.381	77.558	85.638	156.138	-1.397	126.332	66.993	105.372	186.198	195.268	-153.403	-139.519	-63.123	143.003	124.030	0.0014422	0.00069215	0.00019262	863.84	1.0976e-05	7.8841e-06	843.61	304.59	8.2931e-06	1.3428e-06	338.9	127.72	117.72	41.144	6.6061e-06	54.662	0.00048332	0.00048502	0.00013496	804.79	5.4366e-06	5.349e-06	790.36	284.01	5.4901e-06	5.5415e-06	317.38	118.62	109.83	38.478	5.4952e-06	51.089	61.071	-52.135	-89.596	-141.353	-36.899	-56.602	-143.282	-135.909	-85.764	-78.453	-138.206	-133.999	-131.675	-127.901	18.385	-130.777	-8191	255	
1080.419	1	1	0	0	0.14929	0.34885	0.16202	0.24425	0.04722	0.35075	0.15534	0.11611	0.25484	0.209	0.034413	0.38214	0.21701	0.058115	0.10684	0.12914	-2.0667	-2.75	-2.9188	-2.6771	-2.8542	-2.8792	-2.6063	-3.0729	-2.6125	-2.8729	-3.0479	-2.7812	-2.8417	-3.0125	-2.3792	-2.975	-38.114	-104.136	75.788	-13.974	-59.835	-115.685	70.840	-54.657	54.223	97.028	72.480	89.078	149.714	-13.457	-79.966	95.582	0.0013957	0.00013168	0.00021405	856.82	8.6082e-06	9.8399e-06	846.72	306.47	1.5726e-05	5.293e-06	342.05	127.19	118.68	41.251	4.7494e-06	54.283	0.00050161	0.00049704	0.00013658	805.2	5.3849e-06	5.4502e-06	791.31	285.05	5.3983e-06	5.5467e-06	319.01	118.76	110.13	38.631	5.4575e-06	50.972	56.742	-3.436	-56.663	-141.453	-30.794	-110.941	-143.525	-135.388	-105.190	-93.205	-138.516	-133.689	-132.270	-127.869	-26.706	-131.012	-8191	255	
1080.515	1	1	0	0	0.14721	0.074797	0.15864	0.067169	0.2117	0.032545	0.17003	0.38735	0.2395	0.15859	0.11327	0.091345	0.07411	0.058014	0.3023	0.26916	-2.3167	-2.6625	-2.9917	-2.6104	-2.825	-2.7625	-2.5458	-2.8958	-2.6708	-2.7125	-3.0146	-2.5563	-2.7167	-2.9229	-2.3875	-2.9958	132.903	125.073	119.514	177.009	101.363	-74.639	153.096	119.789	34.107	63.604	-109.058	-146.083	-119.238	148.010	-3.601	-113.875	0.0014842	0.00125	8.8697e-05	864.16	6.451e-06	1.0705e-05	851.33	306.28	2.4607e-06	2.9849e-06	342.7	127.13	118.86	41.183	6.2755e-06	54.707	0.00050896	0.00050347	0.00013814	808.93	5.4722e-06	5.4012e-06	794.4	285.6	5.4213e-06	5.4289e-06	320.2	119.17	110.39	38.761	5.5195e-06	51.269	49.817	-96.443	-104.403	-141.955	-40.966	-10.514	-143.425	-135.578	2.435	-82.941	-138.521	-133.993	-132.371	-127.532	-87.809	-130.999	-8191	255	
1080.612	1	1	0	0	0.18712	0.13774	0.2417	0.14185	0.16494	0.14933	0.10788	0.18776	0.14795	0.17281	0.10822	0.36516	0.048828	0.10091	0.15998	0.069434	-2.4042	-2.4229	-3.0187	-2.5979	-2.7229	-2.7438	-2.6813	-3.0125	-2.5667	-2.7917	-2.9938	-2.7021	-2.7167	-2.9437	-2.4583	-3.0167	-81.985	-28.866	-107.121	-122.965	-123.042	77.492	116.183	133.335	62.370	-107.620	-138.016	61.666	43.935	-106.161	187.691	-8.772	0.0012882	0.0010591	0.00012265	860.26	3.6989e-06	8.3024e-06	854.08	306.41	1.8444e-05	4.7797e-06	343.28	128.04	118.77	41.487	2.6573e-06	54.669	0.00051632	0.00051354	0.00014162	808.71	5.621e-06	5.6644e-06	797.12	286.3	5.5838e-06	5.5849e-06	322.25	120.02	110.46	38.869	5.4363e-06	51.235	44.618	-44.068	147.654	-141.667	-95.558	-24.702	-143.057	-135.212	-89.871	-10.979	-138.314	-134.328	-131.922	-127.291	-60.579	-130.997	-8191	255	
1080.708	1	1	0	0	0.27574	0.14684	0.16369	0.09518	0.13966	0.087453	0.11013	0.0090441	0.17573	0.10009	0.35494	0.18413	0.16826	0.1815	0.074408	0.041402	-2.2208	-2.5583	-2.8542	-2.6104	-2.6646	-2.9458	-2.7396	-3.0708	-2.6875	-2.4542	-3.0354	-2.5771	-2.9042	-2.8292	-2.475	-2.8917	-20.875	73.272	92.092	135.692	190.545	-88.352	195.045	150.864	164.614	-78.254	201.807	-10.573	-31.632	-39.295	-100.510	-73.490	0.001639	0.00062477	0.00016757	860.7	3.9899e-06	6.8933e-06	845.43	306.1	9.7254e-06	4.9757e-06	342.89	127.58	118.78	41.33	8.0718e-06	54.644	0.00051674	0.00051032	0.00014403	807.26	5.6106e-06	5.6564e-06	791.68	285.33	5.6686e-06	5.7659e-06	320.9	119.18	110.42	38.768	5.7683e-06	51.183	65.888	-6.403	10.935	-141.509	29.754	124.221	-143.360	-135.799	-21.761	-30.608	-137.915	-134.556	-132.057	-127.721	-104.541	-131.317	-8191	255	
1080.802	1	1	0	0	0.071538	0.12564	0.12038	0.20313	0.1458	0.18051	0.39191	0.17741	0.13015	0.15819	0.12452	0.090268	0.21492	0.13665	0.21705	0.25842	-2.4021	-2.5458	-2.9646	-2.8187	-2.6188	-2.9958	-2.4125	-2.9042	-2.6792	-2.5646	-2.8708	-2.6792	-2.5729	-3.0104	-2.4604	-2.825	-51.290	83.747	60.860	180.336	15.003	16.546	80.042	-134.433	31.530	192.383	130.509	151.181	-139.112	-146.571	168.235	178.437	0.0019304	0.00036374	0.00015101	857.98	4.9366e-07	5.8383e-06	846.84	304.8	8.916e-06	7.4093e-06	341.26	128.02	119.36	41.418	3.9169e-06	54.728	0.0005424	0.00053295	0.00014779	808.38	5.879e-06	5.9347e-06	793.36	285.26	5.9133e-06	5.9748e-06	322.1	119.96	111.07	39.035	6.0283e-06	51.468	57.944	-74.615	190.517	-141.288	-99.894	190.246	-143.273	-135.488	-61.246	-8.259	-138.070	-134.138	-132.251	-127.890	-1.523	-130.840	-8191	255	
1080.923	1	1	0	0	0.18003	0.095207	0.16167	0.095984	0.12965	0.36111	0.19353	0.13539	0.24025	0.096934	0.077104	0.08939	0.21887	0.23356	0.091076	0.039878	-2.4875	-2.3854	-2.8312	-2.7271	-2.5229	-2.9979	-2.6583	-2.9333	-3.1188	-2.3187	-2.9313	-2.8563	-2.7375	-2.9875	-2.6521	-2.7708	-0.786	205.523	-22.933	148.711	-71.032	17.463	-93.010	190.017	-81.878	131.030	105.079	42.309	-64.170	185.076	93.330	121.644	0.00091131	0.00028434	0.00014108	862.22	6.1323e-06	8.2265e-06	853.23	308.04	1.4109e-05	3.4534e-06	343.98	127.53	118.92	41.613	4.4968e-06	54.722	0.00055208	0.00054502	0.00015302	809.5	5.8131e-06	5.8389e-06	797.33	287.64	5.9103e-06	5.9058e-06	323.64	119.81	111.36	39.078	6.0523e-06	51.611	59.839	-69.506	-132.899	-141.746	75.567	50.892	-143.277	-135.583	-142.915	-7.128	-137.801	-134.495	-131.721	-127.410	98.492	-130.960	-8191	255	
1081.019	1	1	0	0	0.20711	0.1403	0.15348	0.21815	0.37987	0.077397	0.066766	0.21497	0.072125	0.27886	0.099039	0.20764	0.14722	0.32545	0.16722	0.12341	-2.3896	-2.5125	-2.9042	-2.7167	-2.5604	-3.1188	-2.6771	-2.925	-2.7438	-2.5708	-2.8729	-2.8833	-2.7	-3.0521	-2.7604	-2.8042	117.569	131.443	-122.286	-134.858	100.969	154.065	-42.834	174.872	-116.438	8.282	-47.691	-115.966	3.638	179.615	93.044	-90.677	0.001861	0.00066152	4.0332e-05	860.55	7.4872e-06	1.7815e-06	850.7	307.75	1.6422e-05	3.0837e-06	344.22	128.43	118.53	41.665	7.4439e-06	55.453	0.00056232	0.00054508	0.00015234	811.96	5.9465e-06	5.8477e-06	799.81	287.63	5.876e-06	5.8609e-06	323.47	119.79	110.37	39.137	5.8774e-06	51.796	62.160	19.448	-49.699	-142.051	-12.396	-77.136	-143.269	-135.626	-76.936	-1.191	-137.958	-134.211	-132.295	-127.770	10.642	-131.003	-8191	255	
1081.115	1	1	0	0	0.2438	0.076812	0.12811	0.23638	0.15056	0.39754	0.038784	0.20734	0.22531	0.013095	0.13352	0.058187	0.071795	0.17703	0.11017	0.31286	-2.4979	-2.5646	-2.75	-2.9521	-2.6229	-2.9083	-2.9417	-2.5667	-2.9292	-2.8812	-2.6354	-3.0375	-2.5479	-3.0167	-2.7687	-2.9	118.067	-73.126	-85.605	182.210	69.669	2.909	59.866	154.269	-55.835	116.519	-111.338	-99.056	-109.902	175.150	-50.059	149.227	0.001661	0.0008788	0.00013748	864.44	3.4642e-06	9.4427e-06	848.98	305.72	3.5918e-06	4.1972e-06	341.74	125.75	117.35	41.249	7.1654e-06	54.844	0.00054919	0.00053405	0.0001521	810.78	5.8122e-06	5.87e-06	793.09	285.08	5.7909e-06	5.781e-06	319.69	118.11	109.38	38.769	5.6927e-06	51.107	52.124	-60.808	10.315	-141.593	-131.836	-15.597	-143.215	-135.329	110.340	177.951	-138.151	-133.802	-132.664	-127.841	-59.201	-130.970	-8191	255	
1081.187	1	1	0	0	0.066466	0.19529	0.25711	0.10741	0.29225	0.086584	0.18245	0.35439	0.12342	0.093619	0.22427	0.2246	0.14883	0.24437	0.26839	0.52921	-2.7729	-2.6771	-2.4625	-3.0792	-2.5229	-3.0312	-2.9813	-2.5271	-3.0375	-2.5583	-2.7042	-3.0375	-2.6729	-3.0396	-2.8708	-2.5375	-148.304	111.659	-79.136	-110.732	-63.001	-86.800	151.985	104.928	85.277	127.892	130.477	149.424	199.973	184.697	201.810	118.575	0.0013502	0.0014754	0.00027594	860.05	2.1877e-06	7.6188e-06	845.23	302.81	1.4511e-05	3.4722e-06	339.02	126.14	117.15	41.635	1.3963e-05	54.355	0.00053392	0.00051393	0.00014805	807.23	5.7752e-06	5.803e-06	791.85	283.71	5.7873e-06	5.754e-06	318.23	117.96	109.04	38.93	5.7505e-06	51.012	53.912	-31.075	-98.051	-142.310	74.848	1.995	-143.309	-135.512	-103.334	56.881	-137.888	-133.949	-132.045	-127.458	-80.034	-131.294	-8191	255	
1081.285	1	1	0	0	0.27075	0.014093	0.2536	0.070755	0.21494	0.069578	0.26381	0.17943	0.054094	0.1061	0.26592	0.13474	0.089249	0.2392	0.18594	0.29862	-2.475	-2.8354	-2.6063	-2.9896	-2.525	-2.7729	-3.1271	-2.6042	-2.8604	-2.6521	-2.7458	-3.0812	-2.5312	-2.9646	-2.7854	-2.6458	-79.960	35.216	-14.334	191.439	-29.672	21.734	186.756	-122.354	32.427	105.840	31.381	-147.700	196.097	-114.499	-147.904	141.590	0.0016232	0.00039507	0.00010124	858.15	4.7257e-06	2.1356e-06	842.58	303.29	9.4043e-06	2.8297e-06	339	126.12	117.55	41.367	1.2191e-05	54.605	0.00053402	0.00051977	0.00014601	808.23	5.6639e-06	5.7433e-06	790.07	283.25	5.6736e-06	5.6412e-06	317.74	117.82	109.31	38.834	5.7074e-06	51.303	60.520	58.440	-36.088	-141.672	125.715	140.549	-143.133	-135.332	-33.179	31.802	-138.310	-134.224	-132.199	-127.584	-126.585	-131.256	-8191	255	
1081.403	1	1	0	0	0.097555	0.35984	0.16891	0.15405	0.10573	0.08445	0.18061	0.24236	0.1135	0.25112	0.18333	0.16518	0.11358	0.18695	0.33523	0.026282	-2.2687	-2.7167	-2.5917	-2.925	-2.7646	-2.6979	-3.0062	-2.7229	-2.8125	-2.8812	-2.6708	-3.0542	-2.6104	-2.8354	-2.6688	-2.5021	54.811	-35.521	152.001	-26.369	9.854	98.637	162.399	-133.199	-63.028	55.742	-122.380	128.337	196.030	81.424	-145.480	-71.640	0.001373	0.00036514	0.00033169	861.69	5.5508e-06	6.6749e-06	849.4	302.04	1.5929e-05	6.1628e-06	335.83	125.39	115.55	41.243	6.049e-06	54.153	0.0005272	0.00052083	0.0001445	807.39	5.6125e-06	5.5851e-06	793.67	281.87	5.5129e-06	5.6005e-06	315.29	116.96	107.78	38.839	5.6797e-06	50.901	54.922	-44.413	-33.934	-141.446	50.669	-28.305	-143.159	-135.615	-74.648	-38.431	-137.862	-134.060	-132.338	-127.541	-132.653	-131.193	-8191	255	
1081.500	1	1	0	0	0.041612	0.23101	0.18721	0.23098	0.039748	0.022636	0.061651	0.24051	0.064277	0.21216	0.13641	0.43594	0.10475	0.16526	0.082828	0.079464	-2.3208	-2.7417	-2.675	-3.1229	-2.7438	-2.6688	-2.975	-2.5938	-2.8833	-2.7083	-2.6292	-3.0458	-2.55	-2.6917	-2.9708	-2.4354	-51.896	98.432	-28.000	176.840	-48.722	-122.665	-36.630	184.034	-146.285	43.713	-27.561	181.618	148.974	120.982	154.102	113.536	0.0016821	0.00088167	0.00025083	853.13	2.5105e-06	3.7442e-06	838.12	297.96	2.0649e-05	5.9999e-06	333.09	124.6	115.81	41.025	9.5854e-06	54.186	0.00053511	0.00053179	0.00014955	801.82	5.936e-06	5.811e-06	784.15	278.74	5.7315e-06	5.6945e-06	311.8	116.29	107.53	38.618	5.6765e-06	50.674	46.752	-32.429	-153.689	-141.632	-50.626	-100.923	-143.128	-135.729	-84.130	-14.346	-137.789	-133.939	-131.697	-127.868	20.472	-131.055	-8191	255	
1081.596	1	1	0	0	0.19607	0.072997	0.24672	0.20578	0.19441	0.25776	0.12528	0.10458	0.26891	0.085581	0.035317	0.23205	0.14715	0.16397	0.17293	0.04057	-2.3083	-2.6833	-2.4	-2.8583	-2.675	-2.5771	-3.2396	-2.5042	-2.7771	-2.9	-2.7042	-2.9833	-2.8417	-2.6333	-3.0042	-2.7396	22.359	48.764	-101.247	34.601	-17.830	-64.968	-46.168	-10.979	-72.417	-104.826	164.130	173.210	-34.105	-139.597	-99.706	29.601	0.0017168	0.0015724	0.0002244	854.53	4.9895e-06	7.1829e-06	835.16	300.18	1.6938e-05	6.023e-06	335.28	125.21	116.32	41.16	2.4895e-06	54.257	0.00053049	0.00053047	0.00014609	800.67	5.7062e-06	5.8243e-06	783.12	279.85	5.7381e-06	5.7057e-06	313.61	117.02	107.92	38.682	5.536e-06	50.755	53.265	13.235	-14.026	-141.615	196.606	-60.957	-143.416	-135.673	-49.101	1.533	-138.172	-134.149	-131.536	-127.687	-19.393	-130.801	-8191	255	
1081.716	1	1	0	0	0.22309	0.12919	0.17256	0.29132	0.13995	0.27874	0.23889	0.30535	0.09837	0.27903	0.091448	0.27136	0.15918	0.060786	0.10396	0.26152	-2.2625	-2.8542	-2.525	-3.0563	-2.6792	-2.4917	-3.1292	-2.5958	-2.7521	-2.8917	-2.4562	-2.7583	-2.9229	-2.525	-2.9708	-2.7917	-137.265	154.418	77.165	162.117	-21.329	104.329	-34.055	190.287	-14.488	114.008	33.428	-96.608	-129.980	145.648	-11.112	163.499	0.0015377	0.0010205	0.00013159	855.44	6.2371e-06	6.9577e-07	837.9	299.69	4.724e-06	1.1e-05	335.32	125.48	115.69	41.105	8.4881e-06	54.359	0.00051953	0.00051328	0.00014191	801.47	5.6299e-06	5.6884e-06	784.23	279.59	5.6478e-06	5.6885e-06	314.1	117.19	108.01	38.693	5.6498e-06	50.894	56.516	-40.876	-92.930	-141.672	-149.004	134.121	-143.297	-135.426	102.959	-9.243	-138.222	-133.988	-132.265	-127.747	45.438	-130.963	-8191	255	
1081.788	1	1	0	0	0.097045	0.10833	0.27172	0.11219	0.3308	0.054395	0.12963	0.074014	0.30405	0.19618	0.21323	0.15282	0.09082	0.37659	0.073777	0.16742	-2.2146	-2.925	-2.4083	-2.8563	-2.6417	-2.6542	-2.9875	-2.9021	-2.6063	-2.9375	-2.5646	-2.8187	-2.8917	-2.5604	-2.9375	-2.7417	72.030	-118.147	103.602	3.780	-78.660	59.603	-136.928	-139.660	166.910	-2.985	116.667	74.598	-2.883	-108.030	124.714	-19.321	0.0015041	0.00088549	0.00012831	856.86	9.1512e-06	2.1356e-06	843.8	299.85	1.3597e-05	8.1324e-06	335.99	126.16	117.11	41.38	6.4572e-06	54.364	0.00052674	0.00051162	0.00013985	802.77	5.7151e-06	5.7167e-06	787.91	280.59	5.7435e-06	5.6968e-06	316.5	118.25	109.4	38.981	5.7087e-06	51.06	51.076	-6.364	66.885	-141.587	1.079	93.037	-143.327	-135.724	-89.009	-36.462	-138.183	-133.854	-132.298	-127.795	195.074	-130.751	-8191	255	
1081.884	1	1	0	0	0.32007	0.26174	0.28964	0.13217	0.080418	0.13561	0.10574	0.19738	0.10719	0.19497	0.14187	0.23683	0.29623	0.24505	0.12592	0.20848	-2.0938	-3.0104	-2.6333	-2.8438	-3.0646	-2.5021	-3.0896	-2.8229	-2.6792	-3.0938	-2.5771	-2.8563	-2.7417	-2.6	-3.0417	-2.8021	80.253	172.556	102.985	-86.020	-93.713	-25.494	143.083	171.727	141.529	-9.457	39.144	191.024	-144.237	-118.185	-20.716	118.999	0.0014383	0.00065199	0.00027202	855.09	4.0292e-06	1.7137e-06	842.68	301.28	1.9019e-05	7.9522e-06	333.81	126.3	115.93	40.982	3.0627e-06	54.217	0.00053072	0.00051566	0.00014318	801.82	5.72e-06	5.6473e-06	788.15	281.41	5.6877e-06	5.7135e-06	313.79	117.5	108.59	38.684	5.7318e-06	50.818	51.379	-79.535	-29.357	-141.556	-112.275	18.178	-143.102	-135.603	-70.706	-82.080	-138.192	-134.163	-131.743	-127.705	156.729	-131.089	-8191	255	
1082.003	1	1	0	0	0.11249	0.073082	0.31435	0.21868	0.16962	0.0064108	0.064605	0.25434	0.12643	0.16398	0.25382	0.26514	0.20343	0.4207	0.098538	0.065753	-1.8937	-2.8583	-2.4729	-2.6479	-3.025	-2.3708	-2.9938	-2.9375	-2.5563	-2.9167	-2.6875	-2.6667	-3.0042	-2.4625	-3.0083	-2.9396	168.251	95.038	85.610	-122.763	90.105	-83.373	199.036	98.587	-80.343	-102.062	165.344	18.194	-90.043	166.469	165.926	130.337	0.0014023	0.0014452	6.9998e-05	848.49	3.7173e-06	2.2406e-06	838.87	299.71	1.4304e-06	7.4098e-06	334.52	125.39	116.58	41.316	1.247e-05	54.425	0.00052995	0.00051843	0.00014339	799.91	5.65e-06	5.6465e-06	783.7	279.65	5.6429e-06	5.6946e-06	314.26	117.06	108.64	38.774	5.6706e-06	50.812	49.525	-50.686	26.602	-141.559	-31.418	54.117	-143.214	-135.663	106.551	-57.692	-138.264	-134.185	-131.846	-127.976	-37.905	-131.194	-8191	255	
1082.099	1	1	0	0	0.33904	0.11872	0.010277	0.071649	0.056014	0.1468	0.062698	0.096059	0.30426	0.04437	0.086078	0.13658	0.11421	0.26845	0.20721	0.36869	-1.9833	-3.0542	-2.5563	-2.825	-2.9708	-2.6979	-2.9208	-2.9417	-2.5292	-2.95	-2.9042	-2.6229	-3.0375	-2.6521	-2.6792	-2.9562	25.311	-78.680	140.864	32.239	-86.740	-94.477	-135.381	174.295	-128.711	-70.547	-128.073	89.474	-27.934	-138.334	-75.842	105.452	0.0014282	0.00040911	0.0002475	858.09	1.7176e-06	1.2914e-06	835.07	299.67	2.954e-06	1.2591e-05	337.77	126.63	116.52	41.491	1.6443e-06	54.561	0.00052965	0.00052005	0.00014417	802.1	5.7809e-06	5.7745e-06	785.55	279.92	5.7791e-06	5.8911e-06	315.96	117.84	108.89	38.916	5.8488e-06	51.123	57.758	-92.316	-79.229	-141.909	-146.648	84.164	-143.179	-135.558	197.098	29.343	-138.041	-134.039	-131.828	-127.795	-18.059	-131.461	-8191	255	
1082.195	1	1	0	0	0.13404	0.19482	0.20507	0.15748	0.22475	0.2175	0.016719	0.1584	0.16672	0.12299	0.08532	0.033775	0.22573	0.18425	0.078463	0.25628	-2.0583	-2.7062	-2.7083	-2.4833	-2.9437	-2.4958	-2.9938	-2.9479	-2.4333	-2.8979	-2.6729	-2.7583	-3.1521	-2.7125	-2.5854	-2.9292	146.696	24.577	-10.729	-44.420	-112.620	45.478	138.554	171.894	-145.573	-16.965	-101.053	-77.516	153.888	-140.246	87.752	154.471	0.0018427	0.0007766	8.1191e-05	863.29	3.3275e-06	4.1046e-06	844.32	303.09	1.3547e-05	8.6406e-06	338.59	128.04	116.72	41.724	1.1912e-06	54.559	0.00053666	0.00053035	0.00014991	807.13	5.7125e-06	5.8063e-06	789.25	282.2	5.9538e-06	6.0478e-06	317.13	119	109.69	39.163	6.0123e-06	51.477	52.346	-101.218	-2.805	-141.706	59.886	-5.292	-143.122	-135.526	-3.509	36.793	-138.003	-134.302	-132.069	-127.824	203.317	-131.502	-8191	255	
1082.316	1	1	0	0	0.16193	0.13395	0.26181	0.092947	0.30991	0.18487	0.14734	0.14832	0.16936	0.21618	0.28173	0.15266	0.11295	0.021227	0.27235	0.11801	-2.1083	-2.9417	-2.7146	-2.5438	-2.7562	-2.7562	-2.6479	-3.0833	-2.6104	-2.8229	-2.8292	-2.6667	-3.05	-2.6625	-2.6	-3.0729	86.783	-130.191	-130.744	170.202	2.142	41.166	175.275	192.504	-70.783	-29.942	177.195	152.532	-113.160	-91.622	189.527	175.254	0.0016887	0.00051942	0.0002512	854.32	8.1411e-06	1.3638e-06	842.31	301.44	7.5993e-06	5.5715e-06	335.52	126.02	116.92	41.177	1.3449e-05	54.431	0.00056091	0.00055639	0.00015138	804.79	5.9138e-06	5.9576e-06	788.33	281.12	5.8398e-06	5.9271e-06	315.59	117.35	108.7	38.826	5.9515e-06	51.024	38.795	-49.956	27.449	-141.460	-66.757	39.344	-143.174	-135.470	-90.579	-141.240	-138.080	-134.061	-131.991	-127.563	-20.355	-130.756	-8191	255	
1082.412	1	1	0	0	0.1421	0.16644	0.20443	0.071943	0.19432	0.069125	0.083308	0.09303	0.213	0.23594	0.10542	0.24762	0.12823	0.092387	0.1178	0.19497	-2.1729	-2.8146	-2.8625	-2.6958	-3.0875	-2.7479	-2.675	-3.025	-2.5979	-2.75	-3	-2.4583	-2.7167	-2.9104	-2.5146	-3.2458	124.005	-81.696	-18.362	1.324	35.186	176.792	175.951	193.050	-64.233	12.509	-50.889	110.585	-147.005	-98.992	-87.687	135.185	0.0013757	0.00077915	0.00018936	855.88	1.0085e-05	1.01e-05	841.82	301.43	1.4542e-05	3.6647e-06	337.88	126.34	116.46	41.264	4.9287e-06	54.679	0.00054843	0.00055387	0.00015306	803.66	5.9353e-06	5.989e-06	787.68	281.32	5.9101e-06	6.0661e-06	316.05	117.62	108.75	38.952	5.9614e-06	51.121	55.164	54.150	-40.393	-141.722	-2.921	-60.304	-143.315	-135.736	-137.484	-19.463	-138.382	-133.946	-132.289	-127.636	-14.077	-130.970	-8191	255	
1082.484	1	1	0	0	0.1779	0.22735	0.19299	0.18189	0.10944	0.06291	0.20259	0.26818	0.036974	0.12588	0.30021	0.27896	0.23224	0.10491	0.12605	0.06892	-2.0792	-2.6479	-2.9208	-2.6958	-2.7208	-2.8646	-2.6854	-3.1021	-2.6521	-2.7396	-3.1792	-2.7417	-2.9646	-2.925	-2.7125	-2.8625	-9.199	-72.486	158.013	-141.617	166.752	150.086	65.005	154.217	-62.717	128.823	167.500	200.416	-128.752	-145.290	-36.015	118.637	0.0015934	0.0010649	9.3786e-05	855.53	1.9605e-06	5.4111e-06	840.38	299.74	1.1832e-05	5.7229e-06	335.77	125.24	115.83	41.417	7.1912e-06	54.73	0.00055626	0.00054821	0.00015707	803.53	5.9968e-06	6.0193e-06	788.73	280.96	5.9915e-06	5.9674e-06	314.83	117.17	108.38	38.978	5.8356e-06	51.142	53.014	-32.095	183.592	-141.945	150.472	-72.873	-143.283	-135.339	-63.613	98.471	-137.955	-134.189	-131.675	-127.920	-30.278	-130.534	-8191	255	
1082.580	1	1	0	0	0.19791	0.062098	0.061525	0.19464	0.16451	0.25588	0.25048	0.14406	0.053022	0.12077	0.26412	0.17927	0.12812	0.23811	0.16446	0.11304	-2.3354	-2.4542	-3.1292	-2.3479	-2.9854	-3.0083	-2.6479	-3.0687	-2.7229	-2.5333	-2.9229	-2.6875	-2.7042	-3.0625	-2.375	-2.9375	2.665	133.009	-45.991	-59.308	49.186	-2.758	-40.537	-145.154	41.673	-37.113	167.998	187.894	-64.861	-118.600	-61.557	48.783	0.0011267	0.00092055	5.04e-05	860.12	4.7962e-06	9.867e-06	847.68	300.84	2.034e-05	5.5957e-06	335.33	125.68	117.2	41.32	9.5547e-06	54.508	0.00054151	0.00053072	0.00014967	805.85	5.93e-06	6.0119e-06	791.13	281.44	5.9678e-06	5.8999e-06	315.37	117.42	108.89	39.014	5.8501e-06	51.244	49.146	-50.522	153.821	-141.625	-139.136	-39.976	-143.309	-135.589	-66.890	6.922	-138.238	-134.036	-132.194	-127.744	-25.683	-131.016	-8191	255	
1082.701	1	1	0	0	0.27001	0.041426	0.03321	0.11579	0.22495	0.080019	0.3534	0.12427	0.20994	0.10911	0.15454	0.26012	0.15956	0.13826	0.18886	0.15229	-2.0521	-2.5792	-3.0854	-2.7854	-2.7458	-2.9833	-2.5646	-2.9208	-2.85	-2.5	-3.0125	-2.5875	-2.7625	-2.8792	-2.6146	-2.7667	-56.085	87.704	-84.603	182.635	6.180	-4.593	166.114	158.558	200.527	194.611	-51.833	-70.398	94.022	173.795	203.010	95.866	0.0016228	0.00013772	0.00016365	854.8	6.9628e-06	5.0433e-06	837.12	300.56	3.5993e-06	6.1574e-06	332.62	123.7	115.29	41.178	4.6669e-06	54.066	0.00053662	0.00053186	0.0001472	802.23	5.7645e-06	5.7743e-06	784.65	279.68	5.7712e-06	5.8505e-06	312.58	115.69	107.54	38.763	5.8372e-06	50.752	57.522	-138.771	-72.624	-141.367	19.903	-9.112	-143.027	-135.647	-5.391	60.242	-137.494	-134.126	-131.898	-128.047	-29.611	-130.896	-8191	255	
1082.795	1	1	0	0	0.2498	0.11213	0.21598	0.24132	0.034852	0.048243	0.16776	0.081926	0.093809	0.28271	0.24076	0.10454	0.10258	0.1392	0.24764	0.13392	-2.3312	-2.4333	-2.9458	-2.8688	-2.5792	-2.9542	-2.6813	-2.8417	-2.7479	-2.5667	-2.7542	-2.7792	-2.75	-2.9458	-2.4917	-2.8708	15.543	-123.796	133.501	-101.516	-22.822	-98.043	126.286	-11.715	133.281	-64.071	-152.236	92.278	118.844	-82.723	-103.283	38.693	0.0012278	0.0010982	0.00027792	846.71	5.6551e-06	1.5649e-05	836.56	298.53	3.1862e-06	2.4924e-06	332.91	124.06	115.19	40.991	1.3869e-05	53.978	0.00054901	0.00053455	0.00015272	799.19	5.9505e-06	5.909e-06	784.67	279.05	5.8756e-06	5.7427e-06	312.59	115.6	107.69	38.572	5.7588e-06	50.578	60.235	31.448	-98.363	-141.417	-66.740	-81.337	-143.474	-135.516	30.810	60.443	-138.445	-133.908	-131.857	-127.835	-62.050	-131.358	-8191	255	
1082.891	1	1	0	0	0.033208	0.10745	0.20894	0.16702	0.1316	0.13369	0.13415	0.1583	0.25334	0.11272	0.10143	0.18105	0.10886	0.16785	0.15896	0.22977	-2.3729	-2.5375	-2.8563	-2.7625	-2.6958	-2.8958	-2.9188	-2.9083	-3.0896	-2.6729	-3.0083	-3.0458	-2.5583	-2.9	-2.5625	-2.8354	-78.653	-45.339	-93.185	-146.883	-40.119	-75.921	165.389	97.663	-63.351	-99.042	119.324	-88.006	80.251	-149.383	-103.820	203.991	0.0015535	0.00044746	0.00032813	855.11	7.9029e-06	4.7741e-06	837.33	300.49	1.5142e-05	8.5777e-06	332.02	123.57	115.21	41.303	7.7873e-06	54.479	0.00054304	0.00053475	0.00015126	801.54	5.9313e-06	5.951e-06	784.87	279.6	5.9945e-06	5.7995e-06	312.28	116.06	107.78	38.794	5.8085e-06	50.936	53.555	-54.684	-2.894	-141.697	192.745	-40.026	-143.008	-135.348	-97.883	1.024	-138.265	-134.124	-131.850	-127.834	-5.544	-131.087	-8191	255	
1082.987	1	1	0	0	0.19519	0.10519	0.29109	0.13107	0.19974	0.18571	0.451	0.076141	0.079071	0.34728	0.14862	0.13294	0.23567	0.11525	0.3501	0.073901	-2.3625	-2.4229	-2.7333	-2.7438	-2.4104	-2.8333	-2.5583	-2.7458	-2.7438	-2.5687	-2.6833	-2.9583	-2.4688	-3.175	-2.6042	-2.8208	160.802	-92.540	33.075	182.310	-73.877	-109.694	124.730	172.269	58.332	168.147	147.371	32.155	-106.646	203.455	88.410	184.261	0.0013306	0.00095003	0.00022923	851.43	3.6042e-06	5.2099e-06	830.89	299.07	6.0754e-06	1.1596e-05	333.7	123.77	114.68	41.209	1.7535e-06	54.499	0.00054234	0.00054834	0.00015139	800.35	6.0399e-06	6.1264e-06	783.75	279.68	5.9611e-06	5.8435e-06	312.68	116.31	107.36	38.678	5.8373e-06	50.853	63.426	-83.294	10.346	-141.434	-12.103	-37.813	-143.205	-135.808	-50.782	6.556	-137.807	-134.816	-132.075	-127.528	-18.515	-131.383	-8191	255	
1083.083	1	1	0	0	0.12059	0.096176	0.10044	0.12955	0.03772	0.07932	0.27205	0.33499	0.24628	0.27426	0.26893	0.12485	0.19013	0.36599	0.29876	0.058723	-2.1771	-2.5167	-2.5229	-2.8312	-2.5146	-2.8604	-2.675	-2.7979	-2.8479	-2.675	-2.7938	-3.0917	-2.5	-3.075	-2.5708	-2.7625	-64.741	-152.561	138.048	8.335	61.677	-24.886	70.332	149.020	115.384	20.366	198.393	-117.992	181.334	144.683	102.292	123.854	0.0015564	0.0012417	3.9034e-05	851.67	4.5541e-06	7.5216e-06	831.66	296.76	4.66e-06	5.4848e-06	330.66	122.61	114.61	40.677	7.4839e-06	53.588	0.00054168	0.00052874	0.00014535	800.67	5.7781e-06	5.8386e-06	778.55	277.32	5.8972e-06	5.9558e-06	310.29	114.98	107.2	38.415	6.03e-06	50.357	59.660	-69.308	-116.130	-141.506	24.940	165.398	-143.691	-135.428	-7.023	-35.973	-138.282	-134.234	-132.438	-127.747	-12.444	-131.028	-8191	255	
1083.180	1	1	0	0	0.020894	0.17796	0.076713	0.1678	0.016091	0.18232	0.097708	0.39368	0.27084	0.14268	0.32539	0.14973	0.1728	0.25844	0.1635	0.12502	-2.3604	-2.7396	-2.6417	-2.9896	-2.4229	-2.8125	-2.9479	-2.6437	-3.0104	-2.6167	-2.775	-2.8229	-2.5312	-2.7854	-2.8625	-2.6229	165.103	166.976	11.528	-107.828	-82.865	-80.601	54.134	174.994	-131.011	-3.832	-134.490	163.260	24.051	125.392	180.820	83.947	0.0012674	0.00086495	0.00027447	853.18	1.013e-05	4.214e-06	829.43	298.79	4.9268e-06	5.5807e-06	330.86	122.95	114.39	40.923	8.8338e-06	53.649	0.00055736	0.00054379	0.00015008	798.64	5.7952e-06	5.8456e-06	776.82	277.77	5.681e-06	5.7475e-06	310.82	114.97	107.16	38.577	5.9322e-06	50.403	54.669	-83.453	-103.416	-141.451	-47.530	-4.894	-143.292	-135.656	-98.022	-48.205	-137.945	-134.075	-132.034	-127.263	-63.750	-131.041	-8191	255	
1083.276	1	1	0	0	0.087525	0.23015	0.17198	0.18362	0.24222	0.20772	0.29692	0.24439	0.098087	0.10597	0.13896	0.26871	0.23126	0.15036	0.044549	0.09847	-2.3438	-2.5938	-2.7333	-2.8312	-2.4354	-2.65	-2.8563	-2.4979	-2.9833	-2.55	-2.7958	-2.8229	-2.6542	-3.0479	-2.675	-2.5854	93.822	-116.262	-23.637	-106.400	67.658	167.589	202.433	107.696	194.452	112.290	130.664	195.533	88.920	-115.124	137.000	-28.952	0.0011259	0.0011069	0.00020894	844.6	1.0653e-05	6.2789e-06	832.35	300.57	5.8056e-06	9.0647e-06	332.1	124.53	115.44	40.955	9.0174e-06	54.235	0.0005536	0.00054291	0.00014922	795.85	5.8671e-06	6.0182e-06	780.2	279.71	6.1435e-06	6.1609e-06	312.17	116.66	108.26	38.738	6.0324e-06	50.926	42.378	165.616	158.165	-141.441	-38.941	-3.073	-143.272	-135.928	-92.285	-20.058	-137.965	-134.403	-131.826	-127.862	7.765	-130.897	-8191	255	
1083.396	1	1	0	0	0.34295	0.14771	0.29057	0.096302	0.20995	0.34686	0.3751	0.20418	0.28594	0.25088	0.084297	0.14324	0.10028	0.37522	0.074287	0.10896	-2.3667	-2.575	-2.5938	-3.0729	-2.6854	-2.7667	-2.8812	-2.4667	-2.8229	-2.6229	-2.7854	-3.0521	-2.5917	-2.6125	-3.0625	-2.3646	-136.722	193.442	-45.902	106.091	-113.559	69.798	-132.403	197.282	65.734	-35.479	-118.391	141.486	97.648	-130.874	-153.117	140.166	0.0011611	0.00044438	1.9585e-05	854.68	1.7546e-06	2.2698e-06	832.66	299.32	1.1036e-05	7.8539e-06	334.93	124.74	116.28	41.556	5.8367e-06	54.202	0.00055954	0.00055431	0.00015376	802.51	6.0679e-06	6.2051e-06	784.75	281.39	6.1491e-06	6.1895e-06	316.46	117.55	108.73	39.052	6.1454e-06	51.231	56.093	-98.011	27.174	-141.355	-38.333	-142.954	-143.128	-135.557	-72.197	-113.773	-138.079	-134.117	-132.049	-127.714	-46.749	-131.140	-8191	255	
1083.493	1	1	0	0	0.24829	0.33339	0.10158	0.091706	0.079568	0.15493	0.1424	0.094724	0.15513	0.097458	0.17722	0.15897	0.27576	0.18317	0.074234	0.27837	-2.4292	-2.6188	-2.3125	-3.0979	-2.4271	-2.8208	-2.9396	-2.6833	-2.7583	-2.7917	-2.5479	-2.9333	-2.8187	-2.8312	-2.7917	-2.5979	148.371	-39.648	51.105	-129.087	174.149	-58.910	-22.319	175.159	184.745	29.720	2.993	174.823	190.180	123.500	-104.613	57.492	0.0014941	0.00083326	0.00013814	849.68	7.2268e-06	7.8345e-06	832.56	299.44	5.1515e-06	1.3183e-05	334.21	124.55	115.35	41.149	4.0557e-06	53.938	0.00056335	0.00056516	0.00015548	799.73	5.9354e-06	6.0706e-06	781.03	279.91	5.9876e-06	5.9844e-06	313.86	116.41	108.12	38.847	6.1273e-06	50.795	45.215	-51.230	94.214	-141.535	-63.356	-32.664	-143.246	-135.250	-28.822	-33.849	-137.831	-134.424	-132.243	-127.684	74.701	-131.180	-8191	255	
1083.589	1	1	0	0	0.16486	0.084278	0.12107	0.28369	0.14453	0.067488	0.21428	0.2446	0.13913	0.031154	0.34642	0.076957	0.16522	0.21881	0.043212	0.19167	-2.2354	-2.9792	-2.3646	-2.9021	-2.8229	-2.5708	-2.9479	-2.5563	-2.7938	-3.1021	-2.575	-3.0729	-2.6083	-2.7146	-2.9979	-2.5687	-0.704	88.767	85.215	145.258	129.097	9.025	96.252	160.159	59.916	-117.380	157.882	-140.568	-125.294	-148.780	-139.025	105.670	0.0015583	0.00012351	3.9997e-05	852.79	5.443e-06	1.4095e-05	829.84	302.07	8.6156e-06	9.4916e-06	334.75	125.12	115.49	41.514	5.5339e-06	54.567	0.00056338	0.00055244	0.00015363	802.01	6.1086e-06	6.1335e-06	783.31	281.67	6.143e-06	6.081e-06	314.44	117.17	108.83	39.065	6.0489e-06	51.205	57.108	206.331	127.306	-141.603	11.392	-10.907	-143.610	-135.522	-67.045	-38.724	-137.807	-133.991	-132.040	-127.422	86.235	-131.349	-8191	255	
1083.685	1	1	0	0	0.26006	0.23035	0.11367	0.29442	0.29674	0.10428	0.029777	0.19579	0.19955	0.12907	0.36581	0.091497	0.053627	0.23789	0.13132	0.16974	-2.1688	-2.8208	-2.4042	-2.8875	-2.7583	-2.6604	-3.0729	-2.5729	-2.8937	-2.8854	-2.7	-3.0229	-2.9125	-2.7125	-3.0958	-2.7562	27.547	129.267	183.815	-116.629	61.358	124.925	-7.392	181.902	46.466	24.348	205.211	107.728	-95.662	135.043	22.648	164.273	0.0012125	0.000795	9.8347e-05	854.03	1.9686e-06	1.6214e-05	837.49	301.73	8.1777e-06	2.0793e-06	337.01	125.37	116.59	41.6	3.9869e-06	55.108	0.00056634	0.00056009	0.00015368	803.48	6.2178e-06	6.1241e-06	784.92	283.05	6.203e-06	6.2357e-06	316.85	117.97	109.94	39.281	6.28e-06	51.717	57.971	-64.247	-77.233	-141.268	77.141	-149.177	-143.070	-135.539	27.856	-85.066	-138.045	-134.087	-132.054	-127.643	156.552	-131.056	-8191	255	
1083.779	1	1	0	0	0.20546	0.11575	0.29558	0.14298	0.18084	0.021519	0.14002	0.19392	0.086332	0.22806	0.4295	0.25131	0.088026	0.043581	0.07088	0.17601	-2.3104	-3.0563	-2.2292	-2.8625	-2.7708	-2.6979	-2.9938	-2.8438	-2.7208	-3.0687	-2.6375	-2.7333	-2.9042	-2.5062	-2.8479	-2.6771	119.834	-105.381	198.861	-89.718	18.635	-28.397	127.860	134.889	91.210	205.423	201.810	-125.374	-40.832	203.220	42.714	-104.752	0.0016849	0.0001488	0.00015056	852.15	5.6181e-06	3.8008e-06	842.68	304.43	1.1863e-05	1.6637e-06	340.88	126.21	117.58	41.762	7.6155e-06	55.526	0.00058703	0.00058045	0.00015939	807.24	6.3703e-06	6.2568e-06	790.56	285.14	6.291e-06	6.3888e-06	320.53	118.83	110.66	39.556	6.4699e-06	51.953	47.476	31.237	-72.275	-141.556	84.882	100.882	-143.280	-135.619	-54.865	10.444	-137.992	-134.061	-132.264	-127.930	-3.145	-130.905	-8191	255	
1083.875	1	1	0	0	0.28907	0.037904	0.27071	0.20215	0.12995	0.26966	0.34278	0.27572	0.23867	0.049034	0.13632	0.25944	0.14315	0.12884	0.23869	0.10042	-2.2833	-2.8458	-2.5125	-2.8604	-2.7833	-2.4521	-3.1292	-2.7292	-2.5958	-3.05	-2.575	-2.8187	-2.9375	-2.5896	-2.9292	-2.8438	125.415	147.599	128.515	181.785	-104.367	35.453	190.083	124.342	171.449	-20.309	-142.646	102.740	131.821	146.265	59.372	101.713	0.0012724	0.00091399	2.9818e-05	858.55	4.8684e-06	1.066e-05	836.8	300.33	1.2123e-05	7.4408e-06	336.86	124.84	116.62	41.731	9.1612e-06	54.481	0.00059157	0.00058857	0.00015867	810.74	6.3139e-06	6.2012e-06	787.7	282.72	6.2461e-06	6.221e-06	317.49	117.21	109.07	39.184	6.2857e-06	51.176	46.365	-104.030	184.586	-141.896	-69.551	-64.514	-143.564	-135.506	-49.625	24.068	-138.092	-133.782	-132.389	-127.403	6.555	-130.774	-8191	255	
1083.996	1	1	0	0	0.29343	0.0395	0.036592	0.13062	0.36827	0.20151	0.072206	0.16695	0.098664	0.16021	0.17198	0.13062	0.21765	0.063455	0.15428	0.04267	-2.1271	-2.8417	-2.5187	-2.7562	-2.7979	-2.5	-2.8229	-2.7958	-2.2979	-3.125	-2.6479	-2.8812	-2.8125	-2.4688	-2.8479	-2.95	-77.852	8.690	165.111	149.528	-20.563	-145.897	134.207	-149.528	-110.978	7.159	129.603	189.195	-0.953	185.929	-64.247	-64.748	0.0016132	2.8648e-05	0.00018398	852.7	7.033e-06	5.7663e-06	836.58	302.74	1.432e-05	1.0344e-05	339.31	125.67	116.47	41.443	8.525e-06	54.148	0.00056887	0.00056629	0.00015534	804.01	6.2571e-06	6.0699e-06	785.93	283.22	6.2075e-06	6.1334e-06	317.79	117.43	109.15	39.059	6.2021e-06	51.176	57.874	138.664	90.501	-141.496	-26.022	7.465	-142.870	-135.522	-96.954	7.999	-138.152	-134.142	-131.977	-127.305	-63.860	-130.765	-8191	255	
1084.092	1	1	0	0	0.085089	0.094584	0.2524	0.28113	0.2837	0.2902	0.37835	0.19094	0.13655	0.24658	0.20185	0.11958	0.095197	0.072911	0.048987	0.080118	-2.0521	-3.0083	-2.7188	-2.7792	-3.0167	-2.5167	-2.8729	-2.8854	-2.8646	-2.9	-2.8146	-2.6667	-3.0354	-2.7125	-2.7938	-3.025	132.004	11.715	-124.402	138.634	55.724	102.393	147.451	154.617	144.587	-85.846	66.001	-1.992	40.945	123.613	119.806	-131.290	0.0014936	0.00051161	3.5713e-05	854.84	2.4201e-06	1.0301e-05	846.05	302.33	3.9176e-06	1.2536e-05	339.8	124.79	117.41	41.585	9.1667e-06	54.962	0.00056852	0.00055753	0.000155	806.83	6.0324e-06	6.0201e-06	791.08	283.46	6.1794e-06	6.192e-06	318.49	117.33	109.66	39.179	6.1862e-06	51.49	43.998	-11.553	14.950	-141.410	-75.050	-83.063	-143.285	-135.428	26.669	97.861	-137.979	-134.047	-132.074	-127.717	-17.714	-130.842	-8191	255	
1084.188	1	1	0	0	0.060299	0.24123	0.1536	0.28789	0.21672	0.15162	0.23129	0.22655	0.13558	0.19761	0.14307	0.20344	0.1018	0.11093	0.30436	0.14632	-2.0563	-2.8042	-2.6479	-2.775	-3.0625	-2.4229	-2.8625	-3	-2.5375	-2.9313	-2.8396	-2.6167	-3.0187	-2.5729	-2.7167	-3.0812	134.878	-111.897	-65.024	-54.484	178.373	203.991	152.245	75.633	-55.253	28.308	57.749	179.317	129.950	-81.833	6.730	167.169	0.0014769	0.0010834	0.00011696	858.08	6.2363e-06	5.899e-06	836.66	303.77	7.7031e-06	6.9419e-06	339.45	126.75	116.72	42.004	7.0039e-06	55.252	0.00055923	0.00056301	0.00015539	806.79	6.1019e-06	6.134e-06	789.81	284.77	6.318e-06	6.4283e-06	320.61	118.96	110.22	39.514	6.4124e-06	51.894	56.729	-97.608	-89.069	-141.544	-84.955	68.738	-143.203	-135.670	46.691	-22.497	-138.092	-134.241	-132.023	-127.769	-84.650	-131.022	-8191	255	
1084.284	1	1	0	0	0.18514	0.13168	0.09981	0.091919	0.25095	0.073034	0.087661	0.20972	0.10131	0.069436	0.13122	0.17331	0.15476	0.33487	0.30532	0.076133	-2.125	-2.8354	-2.8854	-2.675	-3.1729	-2.5792	-2.7562	-2.9896	-2.6042	-2.9313	-2.875	-2.5479	-3.075	-2.6562	-2.6583	-3.0271	61.610	-112.069	-54.837	114.358	143.198	-0.438	-39.769	103.663	85.136	-72.438	-122.405	80.247	-95.159	161.935	-68.893	176.149	0.0015248	0.00044172	0.00022983	856.75	5.8738e-06	7.7813e-06	839.66	302.77	2.9711e-06	8.6062e-06	337.11	125.93	116.92	41.688	2.2464e-06	54.812	0.00057289	0.00057338	0.00015773	807.04	6.2124e-06	6.2104e-06	789.92	284.28	6.2181e-06	6.3396e-06	318.42	118.59	110.24	39.465	6.3767e-06	51.6	52.304	-87.504	-61.690	-141.452	-33.360	-145.317	-142.983	-135.581	-114.301	21.005	-138.142	-134.208	-131.621	-127.794	-137.587	-130.610	-8191	255	
1084.381	1	1	0	0	0.093368	0.043307	0.22208	0.20604	0.12382	0.43057	0.27704	0.10114	0.15443	0.1235	0.036331	0.099966	0.10074	0.28174	0.24197	0.14977	-2.15	-2.8958	-2.8583	-2.7583	-2.9292	-2.875	-2.6854	-3.025	-2.5312	-2.8542	-3.0125	-2.6083	-3.0125	-2.8854	-2.5271	-2.8854	165.652	61.342	3.606	-151.923	205.779	54.285	149.398	112.105	16.182	85.756	97.790	101.134	28.009	173.112	-31.280	-34.133	0.0013331	0.00022475	0.00021672	856.22	5.4398e-06	5.7774e-06	838.8	305.52	2.3488e-05	8.8631e-06	342.09	126.62	119.02	41.66	9.0784e-06	54.893	0.00059272	0.00059344	0.00016309	806.94	6.3853e-06	6.4962e-06	791.05	286.19	6.371e-06	6.4011e-06	321.52	118.82	111.18	39.528	6.4878e-06	51.748	54.301	-152.193	-58.033	-141.739	-22.468	-36.131	-143.228	-135.385	-80.773	17.282	-138.006	-134.265	-131.943	-127.776	-77.130	-131.152	-8191	255	
1084.477	1	1	0	0	0.078076	0.14272	0.066613	0.29404	0.30523	0.084517	0.20117	0.36422	0.08084	0.16891	0.4251	0.055929	0.085714	0.19581	0.10201	0.23356	-2.2208	-2.9542	-2.5812	-2.4917	-2.8833	-2.7417	-2.7875	-2.9292	-2.5479	-2.7146	-3.0479	-2.7146	-2.9417	-2.9062	-2.5875	-3.0042	178.391	39.967	-125.958	172.687	-80.413	99.440	78.269	196.177	60.414	24.939	-144.935	74.921	151.032	-124.821	-54.559	153.254	0.0017472	0.0011813	8.5263e-05	859.52	8.4775e-06	3.4406e-06	842.12	308.06	2.5883e-05	5.2272e-06	343.08	127.04	118.42	42.042	1.0679e-05	55.345	0.00059839	0.00060313	0.00016652	812.12	6.6291e-06	6.7539e-06	795.64	288.55	6.5067e-06	6.7153e-06	323.15	119.91	111.75	39.755	6.6067e-06	52.18	48.417	-102.392	178.349	-141.831	-38.501	-6.322	-142.982	-135.783	-58.189	72.886	-138.272	-134.091	-132.188	-127.904	10.193	-130.626	-8191	255	
1084.573	1	1	0	0	0.19153	0.052631	0.20325	0.30289	0.032781	0.12923	0.29448	0.2225	0.14349	0.25675	0.20397	0.093842	0.13799	0.13369	0.020385	0.22197	-2.3417	-2.4167	-2.8354	-2.7687	-3.0125	-2.6333	-2.7083	-3.1375	-2.6562	-2.7708	-2.8042	-2.6479	-2.7542	-2.875	-2.5604	-3.0833	-84.846	37.711	119.707	164.775	148.334	-83.269	113.909	174.600	137.919	-29.185	193.459	-106.926	80.865	-138.054	68.549	114.953	0.0014705	0.0012585	1.4407e-05	858.62	6.1777e-06	7.3934e-06	849.97	310.4	8.8505e-06	7.2603e-06	346.28	129.75	119.06	42.179	7.7158e-06	55.843	0.00061454	0.00063101	0.00017365	814.93	6.8661e-06	6.9591e-06	798.65	291.05	6.9517e-06	6.9914e-06	326.66	121.34	112.54	39.994	6.7789e-06	52.452	53.480	-39.599	-96.403	-141.666	-92.903	-14.934	-143.448	-135.465	-91.464	-70.558	-138.013	-134.398	-132.366	-127.854	76.885	-131.295	-8191	255	
1084.669	1	1	0	0	0.1025	0.24703	0.10389	0.15785	0.21852	0.085458	0.12706	0.14499	0.094568	0.049054	0.18662	0.28819	0.024103	0.29791	0.091535	0.18549	-2.4417	-2.6042	-2.9354	-2.6979	-2.6917	-2.9229	-2.4938	-3.0146	-2.6979	-2.7021	-3.1312	-2.7229	-2.5958	-2.8792	-2.5458	-2.9729	-140.180	-59.316	23.577	191.598	-138.233	-123.052	160.383	146.242	175.132	-55.646	186.612	158.468	75.674	153.401	97.559	-147.458	0.0015218	0.00058043	0.00037814	860.57	2.624e-06	1.2537e-05	841.1	308.07	9.6549e-06	4.9847e-06	343.17	127.61	118.91	41.799	8.265e-06	55.166	0.00063031	0.00062045	0.00017381	813.95	6.908e-06	6.8388e-06	793.54	288.69	6.7139e-06	6.6629e-06	323.56	119.89	111.54	39.556	6.4311e-06	51.83	52.727	4.404	-8.041	-141.658	-92.406	25.847	-143.238	-135.747	-46.393	-25.100	-138.121	-134.069	-131.871	-127.482	204.785	-130.912	-8191	255	
1084.788	1	1	0	0	0.068762	0.22498	0.17868	0.2475	0.10458	0.26983	0.18889	0.11406	0.043522	0.18438	0.04689	0.078486	0.13112	0.18551	0.163	0.056318	-2.3187	-2.625	-2.9792	-2.5979	-2.7708	-3.0604	-2.6125	-2.9313	-2.8708	-2.7354	-2.9958	-2.6271	-2.9604	-2.8854	-2.4688	-2.9604	125.561	46.911	-58.799	186.523	119.255	186.733	137.065	128.976	65.129	58.898	182.370	-62.340	2.204	198.738	-14.383	7.460	0.0014855	0.0007462	0.00017804	863.61	3.7715e-06	2.4432e-06	842.43	306.32	1.0713e-05	7.1214e-06	339.29	126.95	118.49	41.756	3.4958e-06	54.931	0.00060463	0.00059159	0.00016203	810.77	6.4825e-06	6.4653e-06	790.12	287.13	6.4476e-06	6.364e-06	320.72	119.11	110.9	39.552	6.4578e-06	51.833	47.858	-38.439	-112.504	-141.788	-89.580	-23.962	-143.148	-135.167	-88.691	-99.648	-138.178	-134.028	-131.846	-127.455	3.601	-131.290	-8191	255	
1084.884	1	1	0	0	0.066418	0.27928	0.22857	0.068964	0.10114	0.12907	0.13871	0.15523	0.080388	0.14575	0.17033	0.24785	0.20665	0.28924	0.083747	0.1052	-2.5458	-2.4167	-3.0354	-2.6104	-2.5646	-2.9792	-2.7208	-2.8708	-2.8146	-2.5687	-3.125	-2.55	-2.8271	-3.2083	-2.5833	-2.925	-78.633	-6.022	-112.921	148.753	17.762	-11.767	164.239	84.495	191.674	-19.456	184.873	-80.565	-54.312	186.287	113.011	-141.231	0.0013908	0.00051562	7.3075e-05	861.28	3.8903e-06	4.225e-06	843.43	305.55	1.1499e-05	5.0803e-06	339.74	126.98	118.79	41.988	8.5105e-06	55.302	0.00060785	0.00059311	0.00016653	812.12	6.4091e-06	6.438e-06	792.01	286.8	6.3087e-06	6.2994e-06	320.02	119.23	110.78	39.638	6.3354e-06	51.984	35.691	-15.101	10.195	-141.669	83.547	-95.377	-143.371	-135.651	-113.882	-111.597	-138.192	-134.227	-131.946	-128.009	13.442	-130.830	-8191	255	
1084.957	1	1	0	0	0.18299	0.090626	0.15729	0.12308	0.1292	0.19483	0.077397	0.2108	0.10156	0.15639	0.04572	0.24483	0.015543	0.09778	0.26466	0.010473	-2.5021	-2.4229	-2.8104	-2.8	-2.6521	-2.9688	-2.6583	-2.8917	-2.9562	-2.6896	-2.9792	-2.7375	-2.6521	-3.15	-2.5875	-2.8042	-96.409	-107.491	-86.050	-53.656	-131.959	-101.567	-7.361	-137.705	14.963	180.880	-98.523	-129.521	120.205	-67.304	-24.187	183.792	0.0014294	0.00084702	0.00013159	865.17	7.5129e-06	6.9004e-06	844.36	306.98	6.6266e-06	8.1169e-06	340.03	127.06	117.64	41.713	8.1978e-06	55.193	0.00059906	0.00057096	0.00016259	812.06	6.3358e-06	6.3846e-06	794.08	286.86	6.331e-06	6.2838e-06	321.07	119.22	110.5	39.616	6.3143e-06	52.062	44.416	-53.837	-61.475	-141.207	-78.882	-18.408	-143.184	-135.508	75.086	-110.798	-138.253	-134.114	-131.742	-127.785	41.172	-130.871	-8191	255	
1085.076	1	1	0	0	0.058103	0.095171	0.20524	0.29742	0.19803	0.13235	0.1223	0.1451	0.24507	0.37563	0.20848	0.1643	0.19199	0.14506	0.20484	0.16341	-2.6562	-2.5979	-2.7396	-2.9458	-2.6396	-3.0062	-2.7042	-2.9396	-3.0521	-2.5	-3.0563	-2.8854	-2.6583	-3.0167	-2.8521	-2.8521	-75.106	202.908	4.946	-144.982	-115.930	74.520	161.912	79.800	34.730	-113.771	-153.132	86.780	-96.304	-146.155	-24.852	-149.013	0.0016794	0.00069706	6.8318e-05	856.41	4.1906e-06	9.1391e-06	837.61	301.91	9.1198e-06	7.7874e-06	336.71	124.77	116.41	41.815	6.2197e-06	54.676	0.00058256	0.00056821	0.00015997	809.57	6.1461e-06	6.2525e-06	788.26	283.42	6.1812e-06	6.1245e-06	316.49	117.59	108.97	39.319	6.3742e-06	51.467	47.059	-79.513	7.428	-141.280	-108.976	28.253	-143.205	-135.400	188.947	-66.400	-138.171	-133.770	-132.270	-127.696	-39.834	-130.981	-8191	255	
1085.173	1	1	0	0	0.089317	0.021011	0.11162	0.19274	0.081502	0.11045	0.26451	0.10248	0.16122	0.048044	0.34486	0.18811	0.07154	0.26414	0.13841	0.13388	-2.4417	-2.6688	-2.7938	-2.8937	-2.5229	-2.9167	-2.9021	-2.6437	-2.9708	-2.7271	-2.8354	-2.9042	-2.6458	-2.9417	-2.6437	-2.725	-54.976	142.726	135.600	43.677	-2.066	69.294	203.107	170.867	40.116	59.180	159.749	-130.102	-66.973	194.427	-100.774	184.879	0.0016303	0.0010809	5.251e-05	854.04	2.847e-06	1.4959e-06	841.62	301.86	6.2603e-06	8.6146e-06	335.61	126.3	117.04	41.653	1.3527e-05	54.739	0.00057609	0.00056547	0.00016256	806.58	6.2398e-06	6.2537e-06	787.68	282.95	6.2757e-06	6.3232e-06	316.75	118.31	109.91	39.414	6.5037e-06	51.593	55.765	-151.214	167.412	-141.852	5.681	-116.685	-143.105	-135.516	-28.462	-15.802	-137.891	-134.085	-132.383	-127.775	-15.089	-131.208	-8191	255	
1085.269	1	1	0	0	0.037264	0.16731	0.26445	0.23866	0.2382	0.18956	0.24598	0.11955	0.11247	0.23494	0.11957	0.15864	0.082178	0.2231	0.055881	0.20106	-2.5021	-2.5563	-2.9	-2.8125	-2.3208	-2.8458	-2.8354	-2.5083	-3.1271	-2.6521	-2.7396	-3.2625	-2.6917	-3.0625	-2.6896	-2.6208	-148.019	69.976	127.894	-94.222	64.764	39.000	165.788	194.976	-92.126	-96.766	140.113	132.678	-89.784	173.532	118.972	137.826	0.0011024	0.00056435	0.00016523	853.06	1.9305e-06	7.71e-06	838.18	300.97	5.0322e-06	9.0276e-06	333.92	125.76	116.42	41.815	3.9473e-06	54.545	0.00060397	0.00059726	0.00016903	808.02	6.5226e-06	6.605e-06	786.29	282.43	6.5051e-06	6.5752e-06	315.83	118.24	109.91	39.501	6.6091e-06	51.581	38.519	20.557	-89.362	-141.944	-34.867	-139.387	-143.347	-135.181	-134.525	22.634	-138.372	-134.344	-132.163	-127.747	-47.663	-130.892	-8191	255	
1085.365	1	1	0	0	0.13075	0.19531	0.12674	0.077795	0.17706	0.20306	0.14645	0.16847	0.22886	0.20365	0.15087	0.24816	0.10329	0.21921	0.094175	0.31958	-2.4688	-2.5708	-2.5187	-3.0083	-2.5021	-2.9	-3.05	-2.7167	-3.0375	-2.7417	-2.7917	-3.0521	-2.7229	-2.8396	-2.7958	-2.5042	-104.129	165.186	46.572	-78.414	-150.204	0.706	95.720	196.812	-34.339	-31.462	-122.027	30.755	-123.553	118.845	-25.924	76.617	0.0017182	0.00035328	0.00014596	856.02	8.4872e-06	8.1709e-06	838.31	302.08	1.4507e-05	1.5062e-05	335.47	126.36	117.42	41.862	7.5996e-06	55.159	0.00060601	0.00060244	0.0001693	806.54	6.5631e-06	6.5935e-06	788.78	282.96	6.6144e-06	6.6713e-06	317.85	118.99	110.74	39.662	6.7804e-06	52.022	49.184	-140.947	-121.154	-141.674	-34.375	-88.152	-143.248	-135.747	-88.974	-38.471	-138.124	-133.984	-132.189	-127.739	-93.031	-130.930	-8191	255	
1085.485	1	1	0	0	0.071202	0.23487	0.16963	0.036699	0.30163	0.10401	0.23158	0.16213	0.11194	0.13661	0.17586	0.17401	0.18725	0.13345	0.016364	0.19289	-2.5687	-2.7083	-2.5917	-3.0458	-2.5146	-3.0333	-3.0896	-2.7021	-2.9396	-2.6667	-2.5833	-2.9792	-2.4062	-2.7958	-2.8042	-2.6521	-74.954	40.740	96.572	-53.614	-133.386	181.186	155.908	-151.663	103.022	202.113	135.492	95.031	-120.001	-53.854	4.621	72.663	0.0012628	0.00046185	0.00019922	850.55	4.5586e-06	1.2164e-05	836.98	300.26	6.2669e-06	9.1407e-06	336.8	125.85	116.68	41.565	9.3908e-06	54.714	0.00062605	0.00063778	0.00017419	806.61	6.9782e-06	7.0961e-06	787.64	282.9	7.0387e-06	6.9761e-06	317.21	118.84	110.38	39.568	6.9435e-06	51.757	34.476	194.864	-27.278	-141.606	-36.696	-36.087	-143.223	-135.709	-140.570	-42.015	-138.263	-134.091	-131.715	-127.421	8.868	-130.816	-8191	255	
1085.582	1	1	0	0	0.019993	0.13284	0.14288	0.10636	0.099902	0.1468	0.27125	0.13665	0.15172	0.32918	0.22083	0.21528	0.24817	0.14858	0.16041	0.12746	-2.3479	-2.7771	-2.5458	-3.0438	-2.6521	-2.6125	-3.0104	-2.6354	-2.8271	-2.6854	-2.6937	-3.1396	-2.6625	-2.5979	-2.8375	-2.6833	-124.853	-71.286	181.771	-138.109	203.376	-95.056	145.875	54.792	74.651	203.036	119.116	-49.432	-110.520	-80.772	205.914	-130.908	0.0015703	0.00037041	8.1349e-05	847.44	7.9989e-06	1.7273e-05	831.99	302.03	2.1555e-05	1.1082e-05	338.09	126.7	116.62	41.787	1.2858e-05	55.075	0.0006325	0.0006388	0.00017544	804.76	7.0388e-06	7.0796e-06	787.72	283.09	7.0894e-06	7.265e-06	318.26	119.49	111.04	39.746	7.2429e-06	52.016	57.754	-73.218	70.523	-141.425	-96.542	-77.714	-143.017	-135.661	-78.248	45.953	-137.774	-134.124	-132.108	-127.902	-124.505	-131.473	-8191	255	
1085.678	1	1	0	0	0.17849	0.11404	0.25217	0.082025	0.13062	0.15773	0.17719	0.3679	0.060755	0.10719	0.26337	0.22927	0.22138	0.030706	0.040487	0.13549	-2.2562	-2.9208	-2.3729	-2.8917	-2.7021	-2.8458	-3	-2.5396	-2.7687	-2.9938	-2.5354	-3	-2.8312	-2.6729	-2.8937	-2.7292	-38.729	205.649	-141.110	116.683	-55.340	-110.069	-92.070	177.070	-29.378	-99.355	-119.977	7.575	171.130	-2.742	-105.479	124.865	0.001273	0.00078021	8.7746e-05	853.02	5.4616e-06	3.9109e-06	831.79	302.14	1.105e-05	6.5399e-06	334.66	126.39	116.04	41.879	2.1202e-06	55.472	0.0006676	0.00067269	0.00018075	808.07	7.1703e-06	7.0534e-06	786.62	284.38	7.2236e-06	7.1745e-06	318.12	119.73	111	39.858	7.2285e-06	52.38	46.728	-107.376	192.663	-141.322	17.287	-57.005	-143.060	-135.609	-35.546	45.026	-137.911	-134.038	-132.203	-127.549	-9.550	-131.159	-8191	255	
1085.772	1	1	0	0	0.03865	0.18924	0.17984	0.1044	0.062511	0.35613	0.14057	0.19193	0.22273	0.18666	0.32978	0.089826	0.13304	0.18267	0.17705	0.048616	-2.2313	-2.7	-2.5458	-2.9167	-2.6688	-2.7417	-3.1104	-2.7354	-2.5062	-2.8833	-2.6562	-2.9813	-2.9333	-2.6833	-2.8729	-2.7667	98.806	-110.286	-1.043	-136.889	-118.956	-88.554	-34.726	61.002	-91.459	-144.538	-136.935	151.149	25.416	86.796	-78.260	72.577	0.0011974	0.00032314	6.7966e-05	850.38	1.4196e-05	1.1566e-05	837.71	301.88	6.937e-06	4.2508e-06	339.56	128.49	117.78	42.115	8.5883e-06	55.634	0.00066372	0.00067718	0.00018557	808.32	7.5434e-06	7.4282e-06	790.63	284.72	7.5232e-06	7.5638e-06	320.64	120.94	111.85	40.136	7.3778e-06	52.681	55.429	6.781	183.901	-141.685	-24.966	-38.916	-143.273	-135.496	-86.109	-80.282	-138.354	-134.297	-132.535	-127.749	-19.657	-131.399	-8191	255	
1085.868	1	1	0	0	0.25467	0.206	0.32746	0.21583	0.037321	0.19396	0.27995	0.048299	0.083776	0.22166	0.15877	0.15908	0.11305	0.079653	0.057173	0.074327	-2.1562	-2.9083	-2.2854	-2.8312	-2.8479	-2.3021	-3.0479	-2.8896	-2.5563	-2.9271	-2.5896	-2.875	-2.6271	-2.5167	-2.9375	-2.8146	-6.143	17.224	23.217	164.589	145.836	-30.011	185.143	142.428	142.977	-49.304	-141.781	-63.229	-95.306	48.835	16.444	129.653	0.0014055	0.00039705	0.00021984	847	5.3366e-06	6.9941e-06	829.15	301.02	1.2727e-05	6.2911e-06	335.04	125.62	117.19	41.873	3.6336e-06	55.073	0.00067351	0.00067095	0.00018513	807.58	7.4202e-06	7.3882e-06	784.58	283.99	7.3335e-06	7.4266e-06	317.55	119.41	111.42	39.766	7.3969e-06	52.259	44.675	-96.118	-71.595	-141.434	4.641	-127.886	-143.209	-135.605	-48.398	83.200	-138.309	-133.693	-132.282	-127.893	-95.713	-130.789	-8191	255	
1085.964	1	1	0	0	0.16319	0.23129	0.16476	0.13401	0.035407	0.20924	0.16	0.090521	0.13674	0.3454	0.22349	0.12743	0.18283	0.2407	0.13017	0.21533	-1.8979	-2.9542	-2.4813	-3.0229	-2.7333	-2.4146	-3.0917	-2.8583	-2.5521	-2.9313	-2.45	-2.9021	-2.8708	-2.4104	-2.8187	-2.8729	-82.971	71.062	136.440	190.058	75.987	-32.744	46.540	78.112	182.360	202.901	69.236	82.473	92.029	201.068	-96.108	62.440	0.0015877	0.00012428	0.0001566	848.54	1.8862e-06	3.3184e-06	829.22	302.62	1.8775e-05	9.8056e-06	332.57	127.13	117.72	42.008	7.7719e-06	54.875	0.00066802	0.00066969	0.00018389	807.46	7.4097e-06	7.3207e-06	785.15	283.92	7.3417e-06	7.3696e-06	317.08	119.8	111.48	39.817	7.3191e-06	52.057	40.730	-140.052	-56.325	-141.324	188.529	-48.831	-143.228	-135.740	-2.438	-52.752	-138.085	-134.124	-132.259	-127.688	184.618	-130.870	-8191	255	
1086.085	1	1	0	0	0.15309	0.12629	0.14416	0.3785	0.046969	0.078604	0.10896	0.40266	0.1676	0.074138	0.19651	0.22155	0.051509	0.18356	0.32468	0.20534	-1.9438	-2.75	-2.4958	-2.8063	-2.7875	-2.6458	-2.9583	-2.7167	-2.4188	-2.8896	-2.75	-2.7479	-2.8833	-2.6208	-2.7354	-2.8333	80.195	93.063	203.287	188.741	-91.978	74.511	132.059	138.837	57.311	122.205	137.119	172.108	136.423	131.734	-50.560	138.179	0.0014492	0.00039296	0.00014028	848.87	3.2971e-06	4.6998e-06	833.35	303.27	3.4162e-06	6.7734e-06	334.7	127.1	118.36	41.618	1.1413e-05	55.263	0.0006544	0.00065886	0.00018244	807.59	7.1392e-06	7.1488e-06	786.43	285.35	7.1148e-06	7.2427e-06	317.69	119.38	111.36	39.566	7.1122e-06	52.094	59.858	7.310	-27.287	-141.594	-57.481	20.703	-143.350	-135.725	-40.668	-34.041	-138.223	-134.293	-132.104	-127.721	-61.003	-130.987	-8191	255	
1086.181	1	1	0	0	0.15612	0.19356	0.098387	0.21897	0.10293	0.19003	0.069021	0.066128	0.19208	0.22809	0.19128	0.19067	0.19732	0.3118	0.11739	0.10901	-2.0438	-3.0083	-2.6229	-2.5771	-2.8458	-2.4604	-2.8479	-3.1146	-2.4646	-2.9208	-2.7771	-2.5167	-2.9542	-2.5687	-2.8729	-2.9271	-42.187	-24.725	-32.416	-90.700	136.708	24.607	-78.394	200.174	114.869	128.355	97.430	169.246	131.655	172.447	151.003	-11.239	0.0012079	6.6449e-05	0.00011463	846.35	4.1465e-06	4.9229e-06	827.59	301.44	2.1576e-05	1.0755e-05	333.18	125.26	116.9	41.544	3.4914e-06	54.968	0.00065579	0.00066186	0.00018661	804.31	7.4266e-06	7.4091e-06	782.96	283.72	7.1177e-06	7.2151e-06	315.69	118.9	110.4	39.413	6.9565e-06	51.724	50.953	145.558	-50.222	-141.526	-27.317	-30.640	-142.949	-135.755	-132.324	21.442	-138.324	-134.419	-132.116	-127.857	-108.428	-131.134	-8191	255	
1086.253	1	1	0	0	0.10817	0.092959	0.15366	0.47187	0.23793	0.29875	0.24343	0.21289	0.1732	0.11327	0.1377	0.36109	0.27312	0.14153	0.0027503	0.17525	-1.9104	-2.8396	-2.7167	-2.575	-2.7896	-2.7438	-2.7417	-2.8792	-2.4354	-2.8292	-2.6542	-2.6667	-2.9771	-2.6104	-2.6562	-3.1125	-143.793	132.886	-86.673	187.022	131.723	-98.897	35.176	124.919	23.383	5.690	176.354	172.975	182.330	163.104	144.433	178.619	0.0016208	0.0013582	9.9782e-05	844.33	2.8633e-06	1.0448e-05	829.35	299.43	8.4356e-06	7.0576e-06	328.88	122.93	114.79	40.911	3.6877e-06	53.967	0.00063173	0.00062775	0.00017738	799.36	6.8325e-06	6.866e-06	778.97	280.8	6.688e-06	6.7755e-06	310.43	115.76	108.16	38.866	6.6519e-06	50.771	54.202	-69.056	-94.959	-141.643	-57.955	45.203	-143.164	-135.687	-105.550	-122.857	-138.440	-134.409	-131.757	-127.707	-36.689	-130.993	-8191	255	
1086.349	1	1	0	0	0.12298	0.14423	0.21728	0.15393	0.13653	0.30401	0.25002	0.15933	0.093614	0.14763	0.12838	0.28455	0.11556	0.32458	0.29844	0.029667	-1.9167	-2.6688	-2.7396	-2.5917	-2.9062	-2.5792	-2.7646	-3.0417	-2.3542	-2.7604	-2.6562	-2.6562	-2.8771	-2.4688	-2.5125	-3.0062	132.587	28.772	-24.424	145.715	92.563	173.581	31.482	194.854	-64.638	-15.953	-54.867	188.813	-124.305	206.114	-63.910	96.413	0.00145	0.0010775	0.00013422	847.56	9.0787e-06	8.1772e-06	822.74	295.83	9.8535e-06	1.0283e-05	325.94	122.23	114.29	41.022	7.6375e-06	53.405	0.00060588	0.00059908	0.00016731	798.78	6.4557e-06	6.556e-06	774.17	278.32	6.5316e-06	6.5718e-06	308.99	115.27	107.42	38.779	6.66e-06	50.522	61.555	-21.549	166.168	-141.924	-68.718	49.748	-142.950	-135.564	-104.976	-36.681	-138.294	-134.215	-132.393	-127.830	170.040	-131.225	-8191	255	
1086.445	1	1	0	0	0.022516	0.064405	0.22631	0.15331	0.12024	0.089368	0.13089	0.02724	0.25598	0.17421	0.20365	0.18841	0.14318	0.1861	0.15989	0.10991	-1.925	-2.6875	-2.8042	-2.4208	-2.9188	-2.7917	-2.8208	-3.0521	-2.5021	-2.7896	-2.9333	-2.6125	-2.8708	-2.8167	-2.6208	-2.9437	-117.487	-109.973	-43.105	117.827	87.849	-51.891	-46.501	-119.084	111.569	-50.360	-138.706	88.999	-132.125	141.223	197.622	115.849	0.0016345	0.0011634	0.00016952	841.11	5.5444e-06	5.7901e-06	820	296.34	1.0214e-05	4.7503e-06	327.89	122.6	114.5	41.208	8.5681e-06	54.365	0.00061026	0.00060494	0.00016823	797.59	6.6205e-06	6.5869e-06	771.93	277.93	6.5424e-06	6.6508e-06	309.92	115.8	107.94	39.011	6.7204e-06	51.157	46.215	182.584	28.526	-141.857	-52.000	-21.682	-143.170	-135.817	19.578	-55.651	-137.919	-134.102	-132.157	-127.551	46.526	-131.101	-8191	255	
1086.566	1	1	0	0	0.081975	0.18353	0.070505	0.026354	0.11857	0.010374	0.10486	0.34581	0.24609	0.097574	0.46296	0.38652	0.033583	0.12291	0.15155	0.041469	-2.0917	-2.5896	-2.8125	-2.4667	-3.0396	-2.8375	-2.7375	-2.8792	-2.5479	-2.7167	-2.9083	-2.6125	-2.8396	-2.7979	-2.5104	-3.0187	160.520	-6.407	-109.405	157.733	63.476	-70.509	187.937	164.061	112.058	143.259	149.594	164.394	182.952	79.230	-112.922	78.955	0.0015163	0.0012403	5.6666e-05	836.18	1.1705e-05	1.7703e-05	828.56	297.17	1.7549e-05	3.8624e-06	330.85	125.81	116.03	41.778	8.6447e-06	54.937	0.00063353	0.00062087	0.00017482	795.9	6.9007e-06	6.9313e-06	777.55	280.13	6.9204e-06	6.9445e-06	313.33	118.24	109.8	39.613	7.1367e-06	51.954	39.024	-68.622	-48.123	-141.447	10.718	45.783	-143.228	-135.307	-78.158	-72.760	-138.065	-133.905	-132.611	-127.272	-4.490	-131.131	-8191	255	
1086.662	1	1	0	0	0.15777	0.27937	0.20817	0.15621	0.31108	0.1703	0.22986	0.15872	0.24756	0.099583	0.14139	0.34244	0.36922	0.24472	0.036798	0.21535	-2.1188	-2.6271	-2.8563	-2.6542	-2.7062	-2.8667	-2.6708	-2.9562	-2.5833	-2.6125	-3.1146	-2.8042	-2.8438	-2.825	-2.425	-3.0333	-129.229	-93.572	-12.885	116.362	130.060	-55.540	124.945	94.238	6.748	-30.825	155.914	95.105	136.008	202.413	72.686	-117.486	0.0017006	0.00067058	1.1681e-05	845.13	9.1043e-06	7.9074e-06	828.27	301.72	1.1316e-06	9.0444e-06	334.54	125.03	117	41.666	7.3314e-06	54.46	0.00066935	0.00066165	0.00018403	803.31	7.218e-06	7.1579e-06	780.37	283.28	7.1159e-06	6.978e-06	315.69	117.85	110.22	39.573	7.1836e-06	51.675	44.172	-50.544	-10.973	-141.457	-22.988	23.556	-143.007	-135.693	201.209	-12.043	-138.077	-134.080	-131.868	-127.687	-97.437	-130.707	-8191	255	
1086.758	1	1	0	0	0.089109	0.16898	0.029857	0.25646	0.21971	0.12825	0.11157	0.071272	0.08857	0.15229	0.17286	0.19257	0.20512	0.14582	0.14102	0.11086	-2.2854	-2.6792	-2.8729	-2.8083	-2.75	-2.775	-2.6896	-2.975	-2.8	-2.6188	-2.9062	-2.6771	-2.8312	-3.0812	-2.4917	-2.9062	102.400	205.127	-146.267	110.043	200.706	11.387	76.152	-34.051	-71.972	112.621	102.748	-116.372	-128.764	35.484	142.347	53.425	0.0012984	0.00022413	4.4796e-05	843.61	1.227e-05	9.8951e-06	824.92	299.04	6.8865e-06	3.9238e-06	332.56	125.52	115.81	41.644	2.8683e-06	54.777	0.00066623	0.00065025	0.00018231	802.12	7.1909e-06	7.1312e-06	779.12	282.67	7.0805e-06	7.0409e-06	313.94	118.08	109.73	39.617	6.9483e-06	51.782	74.596	31.011	-63.514	-141.791	13.001	-48.328	-143.187	-135.452	83.865	-82.996	-138.264	-134.130	-132.110	-127.576	-28.458	-130.990	-8191	255	
1086.877	1	1	0	0	0.41574	0.24749	0.092143	0.099623	0.22297	0.031628	0.26597	0.26959	0.35534	0.13413	0.10081	0.14766	0.31982	0.15055	0.14452	0.15479	-2.3458	-2.5312	-3.0521	-2.7687	-2.5042	-2.8792	-2.725	-3.0146	-2.8271	-2.65	-3.1063	-2.7354	-2.875	-3.0146	-2.4917	-2.9271	117.630	-53.677	-117.766	180.478	-50.942	125.954	192.233	120.829	54.403	-111.702	-127.591	23.526	-118.261	-148.563	-57.179	78.167	0.0015073	0.00093216	0.00013275	842.22	4.533e-06	3.8665e-06	828.42	302.02	1.4122e-05	6.5538e-07	329.28	125.41	116.64	41.783	3.878e-06	54.863	0.00065263	0.0006375	0.00018091	802.01	7.0662e-06	7.1486e-06	780.97	282.54	7.2807e-06	7.0484e-06	314.33	118.3	109.96	39.689	6.7949e-06	51.825	58.756	-151.638	196.555	-141.694	-35.231	27.249	-143.348	-135.867	6.379	-54.474	-137.958	-133.902	-131.973	-127.619	-84.776	-130.708	-8191	255	
1086.949	1	1	0	0	0.12992	0.12352	0.14095	0.13952	0.036121	0.23446	0.23607	0.25991	0.18302	0.17908	0.27412	0.079112	0.079844	0.18033	0.17915	0.098321	-2.5667	-2.5021	-2.925	-2.7896	-2.625	-3.0146	-2.6396	-2.9437	-2.8958	-2.4479	-3.2604	-2.8896	-2.6312	-2.9583	-2.7333	-2.8292	199.856	-127.074	74.806	-20.432	53.038	-21.146	57.047	130.709	-24.049	-113.136	-109.488	66.941	-107.878	-128.173	-77.269	145.492	0.0013032	0.00099193	0.00010994	847.14	8.9526e-06	2.3678e-06	830.98	299.74	1.3446e-05	2.3771e-06	335.52	125.6	116.47	42.083	1.3748e-06	55.251	0.00062583	0.00061847	0.00016966	802.7	6.7407e-06	6.8583e-06	782.86	281.87	7.0551e-06	7.0822e-06	315.51	118.82	110.11	39.948	7.2863e-06	52.469	42.618	-106.275	-109.430	-142.000	148.034	46.301	-143.066	-135.537	-132.823	197.717	-138.092	-133.658	-131.995	-127.893	53.437	-130.768	-8191	255	
1087.047	1	1	0	0	0.077846	0.1433	0.27184	0.084101	0.27551	0.18957	0.32209	0.18121	0.043267	0.13267	0.17807	0.16063	0.12746	0.071992	0.18865	0.1508	-2.3479	-2.5563	-2.9188	-2.8104	-2.7375	-2.8063	-2.7	-2.7375	-2.9479	-2.4521	-2.9875	-2.7792	-2.55	-2.9854	-2.6521	-2.7625	114.300	-81.917	20.755	-138.427	108.835	187.964	93.389	202.158	36.286	184.976	-147.076	201.054	160.171	181.922	-145.681	33.166	0.0014066	0.0003322	6.9497e-05	851.51	1.1861e-05	1.3092e-05	828.38	301.69	3.9251e-06	5.1866e-06	333.68	126.09	116.94	41.986	1.4301e-05	55.46	0.00067722	0.00065808	0.00018385	807.15	6.9761e-06	7.0635e-06	784.13	282.98	7.1777e-06	7.0737e-06	316.19	119.21	111.24	39.894	7.4459e-06	52.382	59.216	-67.820	-59.859	-141.633	-3.882	200.343	-143.078	-135.597	81.998	140.114	-138.339	-134.329	-132.428	-127.717	-67.583	-130.999	-8191	255	
1087.165	1	1	0	0	0.078163	0.20956	0.15766	0.2324	0.023386	0.069054	0.063007	0.19146	0.24305	0.16129	0.18846	0.12458	0.12343	0.28399	0.23982	0.20828	-2.3792	-2.3271	-2.7333	-2.8792	-2.4229	-2.9292	-2.7271	-2.7417	-3.1104	-2.5625	-2.7667	-2.9208	-2.4437	-3.0375	-2.8146	-2.6979	22.119	44.880	90.483	-130.151	45.969	180.549	59.475	110.075	-116.197	152.281	144.739	71.612	-150.180	-105.746	123.724	143.775	0.0010911	0.00034319	0.00035162	847.3	4.5736e-06	7.3794e-06	832.17	303.63	1.6021e-05	3.6319e-06	332.59	125.85	118.04	42.452	1.4066e-05	55.359	0.00068197	0.00067701	0.00019135	808.44	7.4099e-06	7.4445e-06	785.38	284.85	7.2741e-06	7.3453e-06	316.95	119.34	111.45	40.248	7.4924e-06	52.502	47.127	-5.550	-60.048	-141.956	-49.224	-13.354	-143.372	-135.678	-25.923	51.491	-137.827	-134.321	-132.164	-127.826	14.606	-130.856	-8191	255	
1087.262	1	1	0	0	0.15523	0.20041	0.1715	0.11476	0.1197	0.19996	0.11247	0.26402	0.15665	0.26234	0.073233	0.25107	0.20075	0.10192	0.12191	0.043852	-2.4188	-2.5333	-2.7229	-3.0729	-2.4583	-2.825	-2.9042	-2.75	-3	-2.4562	-2.7208	-2.8229	-2.4792	-2.9479	-2.7208	-2.5667	139.581	100.621	-153.129	96.805	104.674	195.845	111.308	153.403	-132.441	-16.363	42.718	168.027	-127.216	180.008	27.912	-119.648	0.0015408	0.001007	0.00018612	842.22	5.4257e-06	9.0977e-06	831.58	300.29	7.296e-06	1.3748e-05	333.67	124.91	117	42.099	3.0734e-06	55.581	0.00069205	0.00069898	0.0001927	808.02	7.6525e-06	7.6551e-06	786.49	284.15	7.4296e-06	7.5688e-06	316.95	118.75	110.94	39.986	7.3462e-06	52.368	72.802	36.922	-108.493	-141.701	-97.852	-122.633	-143.249	-135.812	86.760	-31.702	-137.983	-134.242	-131.819	-127.947	-110.818	-130.825	-8191	255	
1087.358	1	1	0	0	0.15489	0.29903	0.17095	0.088155	0.33804	0.16605	0.33941	0.18575	0.10636	0.19528	0.21706	0.13763	0.096267	0.047773	0.27862	0.072218	-2.4604	-2.6042	-2.8	-3.0396	-2.4583	-2.7375	-2.9979	-2.6437	-3.1188	-2.6813	-2.6479	-3.0917	-2.5938	-2.9396	-2.8854	-2.7167	61.180	4.372	-75.167	153.345	-141.588	167.731	68.898	125.148	-111.202	-70.375	-24.031	60.480	159.317	-69.514	-40.635	-63.607	0.0012775	0.00071438	0.00012782	850.35	6.3798e-06	4.1237e-06	832.55	300.59	2.0288e-05	1.087e-05	332.53	126.13	116.43	42.178	7.6058e-06	55.41	0.00066769	0.00066535	0.00018412	806.55	7.2481e-06	7.5102e-06	786.81	283.66	7.463e-06	7.4949e-06	316.17	119.14	110.4	40.029	7.4237e-06	52.476	58.984	-4.312	-50.646	-141.639	-91.125	-10.074	-143.203	-135.416	-25.471	-4.080	-138.224	-133.870	-131.856	-127.809	-71.250	-131.291	-8191	255	
1087.478	1	1	0	0	0.17659	0.29532	0.049891	0.25694	0.09618	0.19526	0.0501	0.1454	0.082487	0.094947	0.24646	0.092059	0.35689	0.14605	0.24424	0.14588	-2.3958	-2.5438	-2.5521	-2.8896	-2.575	-2.8083	-2.8896	-2.5062	-3.0938	-2.8354	-2.4896	-2.9667	-2.6271	-2.9125	-2.9021	-2.4104	179.263	34.098	-146.041	122.646	-134.648	108.240	6.820	-144.329	-109.639	120.063	100.826	-104.800	130.532	159.816	180.716	-120.958	0.00092662	0.00068956	0.00023996	849.33	5.571e-06	7.648e-06	832.8	301.79	9.8755e-06	1.5802e-06	332.77	125.59	116.25	42.165	1.9277e-06	54.905	0.0006812	0.0006855	0.00018724	808.16	7.324e-06	7.4472e-06	785.71	283.25	7.3192e-06	7.4733e-06	315.15	118.63	110.16	39.95	7.5812e-06	52.196	62.276	-76.804	-131.517	-141.637	-60.167	-90.663	-143.301	-135.828	-97.797	12.715	-137.681	-134.169	-132.200	-127.705	8.887	-130.691	-8191	255	
#DATA ENDS
