BOXY.EXE: ISS Imagent and Oximeter Data Acquisition Program Version 0.80
Ascii Record File

#ACQ INFORMATION
2  Detector Channels 
16  External MUX Channels 
1  Auxiliary Channels 
5000  Waveform (CCF) Frequency (Hz)
1  Waveforms Skipped 
30  Waveforms Averaged 
1  Cycles Averaged 
16  Acquisitions per Waveform 
10.0806  Updata Rate (Hz) 

#FILE INFORMATION
TRUE -- External MUX Channel results are PARSED.
FALSE -- AC DC and Phase are NOT grouped.
TRUE -- Companion Program Settings File CREATED.
FALSE -- AC data not excluded
FALSE -- DC data not excluded
FALSE -- Phase data not excluded
FALSE -- Auxillary Chn. data not excluded
Tab delimiters

#CALIBRATION STATE
TRUE -- Waveform Calibration Values APPLIED.


#AUX CALIBRATION VALUES
Val Type	aux-1	

Term	1.0000e+00	
Factor	0.0000e+00	


#WF CALIBRATION VALUES
A = Detector Channel
Val Type	A-AC1	A-AC2	A-AC3	A-AC4	A-AC5	A-AC6	A-AC7	A-AC8	A-AC9	A-AC10	A-AC11	A-AC12	A-AC13	A-AC14	A-AC15	A-AC16	A-DC1	A-DC2	A-DC3	A-DC4	A-DC5	A-DC6	A-DC7	A-DC8	A-DC9	A-DC10	A-DC11	A-DC12	A-DC13	A-DC14	A-DC15	A-DC16	A-Ph1	A-Ph2	A-Ph3	A-Ph4	A-Ph5	A-Ph6	A-Ph7	A-Ph8	A-Ph9	A-Ph10	A-Ph11	A-Ph12	A-Ph13	A-Ph14	A-Ph15	A-Ph16	

Term	0.00000e+00	0.00000e+00	0.00000e+00	0.00000e+00	0.00000e+00	0.00000e+00	0.00000e+00	0.00000e+00	0.00000e+00	0.00000e+00	0.00000e+00	0.00000e+00	0.00000e+00	0.00000e+00	0.00000e+00	0.00000e+00	0.00000e+00	0.00000e+00	0.00000e+00	0.00000e+00	0.00000e+00	0.00000e+00	0.00000e+00	0.00000e+00	0.00000e+00	0.00000e+00	0.00000e+00	0.00000e+00	0.00000e+00	0.00000e+00	0.00000e+00	0.00000e+00	0.00000e+00	0.00000e+00	0.00000e+00	0.00000e+00	0.00000e+00	0.00000e+00	0.00000e+00	0.00000e+00	0.00000e+00	0.00000e+00	0.00000e+00	0.00000e+00	0.00000e+00	0.00000e+00	0.00000e+00	0.00000e+00	
Factor	1.00000e+00	1.00000e+00	1.00000e+00	1.00000e+00	1.00000e+00	1.00000e+00	1.00000e+00	1.00000e+00	1.00000e+00	1.00000e+00	1.00000e+00	1.00000e+00	1.00000e+00	1.00000e+00	1.00000e+00	1.00000e+00	1.00000e+00	1.00000e+00	1.00000e+00	1.00000e+00	1.00000e+00	1.00000e+00	1.00000e+00	1.00000e+00	1.00000e+00	1.00000e+00	1.00000e+00	1.00000e+00	1.00000e+00	1.00000e+00	1.00000e+00	1.00000e+00	X	X	X	X	X	X	X	X	X	X	X	X	X	X	X	X	

B = Detector Channel
Val Type	B-AC1	B-AC2	B-AC3	B-AC4	B-AC5	B-AC6	B-AC7	B-AC8	B-AC9	B-AC10	B-AC11	B-AC12	B-AC13	B-AC14	B-AC15	B-AC16	B-DC1	B-DC2	B-DC3	B-DC4	B-DC5	B-DC6	B-DC7	B-DC8	B-DC9	B-DC10	B-DC11	B-DC12	B-DC13	B-DC14	B-DC15	B-DC16	B-Ph1	B-Ph2	B-Ph3	B-Ph4	B-Ph5	B-Ph6	B-Ph7	B-Ph8	B-Ph9	B-Ph10	B-Ph11	B-Ph12	B-Ph13	B-Ph14	B-Ph15	B-Ph16	

Term	0.00000e+00	0.00000e+00	0.00000e+00	0.00000e+00	0.00000e+00	0.00000e+00	0.00000e+00	0.00000e+00	0.00000e+00	0.00000e+00	0.00000e+00	0.00000e+00	0.00000e+00	0.00000e+00	0.00000e+00	0.00000e+00	0.00000e+00	0.00000e+00	0.00000e+00	0.00000e+00	0.00000e+00	0.00000e+00	0.00000e+00	0.00000e+00	0.00000e+00	0.00000e+00	0.00000e+00	0.00000e+00	0.00000e+00	0.00000e+00	0.00000e+00	0.00000e+00	-1.23726e+02	-1.39918e+02	-1.78938e+02	-1.81413e+02	-3.50059e+01	-7.24347e+01	-1.57789e+02	-1.62015e+02	-7.41590e+01	-9.50557e+01	-1.80411e+02	-1.70917e+02	-1.81322e+02	-1.76271e+02	-8.71251e+01	-1.49364e+02	
Factor	1.81544e-05	1.23178e-04	2.51159e-05	1.85326e-01	8.05980e-07	9.73926e-07	1.72092e-01	5.34215e-02	8.30615e-07	1.09759e-06	1.07935e-01	3.07122e-02	2.47813e-02	9.40291e-03	9.68748e-07	1.38253e-02	5.41759e-07	5.53856e-07	1.53778e-07	8.86287e-02	6.03997e-09	6.06804e-09	7.82073e-02	2.56647e-02	6.05508e-09	6.07195e-09	4.76290e-02	1.39290e-02	1.17526e-02	4.39035e-03	6.05682e-09	6.14778e-03	X	X	X	X	X	X	X	X	X	X	X	X	X	X	X	X	



#DISTANCE SETTINGS
A = Detector Channel
A-1	A-2	A-3	A-4	A-5	A-6	A-7	A-8	A-9	A-10	A-11	A-12	A-13	A-14	A-15	A-16	

2.5000e+00	3.0000e+00	2.5000e+00	3.0000e+00	2.0000e+00	3.0000e+00	1.5000e+00	3.0000e+00	3.0000e+00	3.0000e+00	3.0000e+00	3.0000e+00	3.0000e+00	3.0000e+00	1.5000e+00	3.0000e+00	

B = Detector Channel
B-1	B-2	B-3	B-4	B-5	B-6	B-7	B-8	B-9	B-10	B-11	B-12	B-13	B-14	B-15	B-16	

1.0000e+01	1.0000e+01	1.0000e+01	1.4400e+00	1.0000e+01	1.0000e+01	1.5100e+00	1.9400e+00	1.0000e+01	1.0000e+01	1.9900e+00	2.4900e+00	2.4100e+00	2.9000e+00	1.0000e+01	2.9800e+00	




#DATA BEGINS
time	group	step	mark	flag	A-AC1	A-AC2	A-AC3	A-AC4	A-AC5	A-AC6	A-AC7	A-AC8	A-AC9	A-AC10	A-AC11	A-AC12	A-AC13	A-AC14	A-AC15	A-AC16	A-DC1	A-DC2	A-DC3	A-DC4	A-DC5	A-DC6	A-DC7	A-DC8	A-DC9	A-DC10	A-DC11	A-DC12	A-DC13	A-DC14	A-DC15	A-DC16	A-Ph1	A-Ph2	A-Ph3	A-Ph4	A-Ph5	A-Ph6	A-Ph7	A-Ph8	A-Ph9	A-Ph10	A-Ph11	A-Ph12	A-Ph13	A-Ph14	A-Ph15	A-Ph16	B-AC1	B-AC2	B-AC3	B-AC4	B-AC5	B-AC6	B-AC7	B-AC8	B-AC9	B-AC10	B-AC11	B-AC12	B-AC13	B-AC14	B-AC15	B-AC16	B-DC1	B-DC2	B-DC3	B-DC4	B-DC5	B-DC6	B-DC7	B-DC8	B-DC9	B-DC10	B-DC11	B-DC12	B-DC13	B-DC14	B-DC15	B-DC16	B-Ph1	B-Ph2	B-Ph3	B-Ph4	B-Ph5	B-Ph6	B-Ph7	B-Ph8	B-Ph9	B-Ph10	B-Ph11	B-Ph12	B-Ph13	B-Ph14	B-Ph15	B-Ph16	aux-1	digaux	

1743.207	1	1	0	256	0.10782	0.023024	0.13997	0.21273	0.35805	0.092387	0.18564	0.13111	0.085389	0.28334	0.20959	0.224	0.1749	0.10995	0.27233	0.31789	-2.3729	-2.1146	-2.7583	-2.7083	-2.475	-3.2167	-2.3958	-2.8729	-3.025	-2.4417	-2.9729	-2.575	-2.3125	-3.0208	-2.6104	-2.3375	308.060	141.253	343.461	39.482	253.817	276.647	129.184	221.737	91.402	118.517	349.066	76.623	40.508	41.255	243.515	367.794	0.00014441	0.00060067	6.5463e-05	507.05	4.5574e-06	4.7944e-06	522.77	186.49	2.5859e-06	5.1669e-06	202.23	62.575	58.635	17.463	4.0325e-06	16.436	0.00021892	0.00021275	6.2957e-05	498.88	2.4816e-06	2.334e-06	513.36	182.8	2.4655e-06	2.3653e-06	194.42	61.602	57.422	17.1	2.6381e-06	16.957	133.647	162.689	49.943	39.008	169.640	283.479	37.375	43.896	141.300	128.747	40.780	44.975	48.238	51.979	221.352	48.097	-8191	255	
1743.303	1	1	0	0	0.083984	0.1488	0.10298	0.12844	0.1189	0.22832	0.14062	0.057844	0.20831	0.08719	0.12925	0.18289	0.15153	0.17177	0.2516	0.3471	-2.6437	-2.1937	-2.6625	-2.9792	-2.4521	-3.0312	-2.9042	-2.5458	-3.1125	-2.3542	-2.9479	-2.9313	-2.2375	-2.9417	-2.5938	-2.5625	181.266	100.288	108.951	265.711	224.025	247.366	377.501	211.490	349.312	177.897	377.653	63.690	301.764	369.563	235.187	188.282	0.00010333	0.00026769	2.6356e-05	504.4	2.3632e-06	2.6708e-06	510.29	180.61	1.8899e-06	6.8722e-06	193.09	61.341	58.171	17.129	3.1859e-06	16.041	0.00022769	0.00022302	6.9277e-05	498.28	2.5307e-06	2.4967e-06	505.72	176.7	2.6146e-06	2.649e-06	191.19	61.084	57.267	17.147	3.055e-06	16.932	180.242	121.327	318.428	38.847	342.772	205.548	37.591	44.189	206.686	155.553	40.559	44.696	48.379	51.870	195.938	47.864	-8191	255	
1743.401	1	1	0	0	0.22184	0.10981	0.13191	0.067151	0.24123	0.18274	0.20363	0.17958	0.2444	0.25201	0.049506	0.13512	0.12256	0.19136	0.25381	0.13657	-2.6396	-2.475	-2.6167	-3.0667	-2.275	-3.0229	-2.9083	-2.4208	-2.9896	-2.4958	-2.5833	-3.0896	-2.3292	-2.875	-2.9313	-2.675	83.291	383.755	128.205	233.267	357.874	202.202	123.043	352.081	162.952	201.043	283.829	368.154	314.497	193.404	86.941	217.972	1.9387e-05	0.00066898	1.7154e-05	513.21	1.4147e-06	1.7629e-06	519.07	180.17	3.9118e-06	8.0492e-06	197.8	64.346	59.946	17.658	1.5476e-06	17.236	0.00024242	0.00025664	7.7619e-05	507.62	2.7082e-06	2.8191e-06	517.48	177.41	2.647e-06	2.8711e-06	194.44	63.499	58.959	17.764	3.0046e-06	17.814	334.934	102.670	349.693	38.988	283.648	48.798	37.558	44.179	270.345	196.594	40.983	44.419	48.365	51.965	215.947	47.738	-8191	255	
1743.520	1	1	0	0	0.29793	0.14316	0.16426	0.13139	0.059191	0.11206	0.16229	0.2651	0.11585	0.024732	0.057926	0.21305	0.19333	0.14024	0.32441	0.084974	-2.6688	-2.6188	-2.4354	-3.0875	-2.3812	-2.8229	-2.9062	-2.4708	-3.0229	-2.7396	-2.5042	-3.2188	-2.3312	-2.6937	-2.9813	-2.3604	207.904	54.386	85.398	307.178	236.596	219.806	349.438	282.621	361.740	71.999	260.622	52.191	37.824	103.668	258.554	75.186	9.3382e-05	0.000513	6.4944e-05	518.61	2.3626e-06	3.8251e-06	533.26	184.6	6.9525e-06	1.2799e-06	200.13	67.198	63.258	18.122	2.9641e-06	18.041	0.00023394	0.00026671	7.5011e-05	512.12	2.6014e-06	2.9331e-06	526.35	179.92	2.5696e-06	2.9121e-06	195.77	66.016	61.404	18.171	2.7122e-06	18.199	187.529	148.111	380.036	38.846	195.050	289.843	37.793	44.005	207.670	78.353	40.991	44.431	48.153	51.734	288.525	47.335	-8191	255	
1743.592	1	1	0	0	0.097134	0.063907	0.15751	0.19986	0.077216	0.076755	0.12585	0.016815	0.089007	0.15037	0.25988	0.11895	0.1301	0.12762	0.18046	0.29263	-2.5646	-2.7292	-2.4771	-3.0896	-2.4583	-2.7812	-3.1729	-2.4062	-2.8438	-2.9542	-2.3479	-3.2042	-2.4104	-2.6583	-2.8438	-2.3458	109.751	59.947	335.809	375.083	197.464	50.824	367.410	340.844	276.523	296.387	98.578	169.924	29.067	52.481	208.188	156.305	8.3743e-05	0.00093948	9.3808e-05	528.53	6.6196e-06	2.6516e-06	540.63	187.74	2.51e-06	5.617e-06	203.7	69.909	64.422	18.055	4.7048e-06	18.397	0.00022639	0.00025909	6.799e-05	514.71	2.5074e-06	2.7952e-06	527.89	182.23	2.4771e-06	2.7066e-06	195.98	67.258	62.422	17.927	2.3773e-06	18.161	159.163	155.596	51.399	39.060	214.490	135.715	37.769	44.472	250.545	180.121	41.173	44.643	48.229	52.132	166.443	47.537	-8191	255	
1743.688	1	1	0	0	0.21016	0.21632	0.14964	0.18621	0.068166	0.01491	0.17374	0.05772	0.26115	0.15675	0.031459	0.16618	0.071119	0.29227	0.22218	0.16289	-2.1417	-2.8896	-2.1833	-3.2458	-2.2271	-2.7	-3.1021	-2.3729	-3.0667	-2.6792	-2.4396	-3.1479	-2.5271	-2.6979	-3.0375	-2.3729	134.055	136.855	377.578	46.047	204.650	334.257	72.085	146.181	53.703	213.828	149.536	152.661	161.588	48.743	73.736	299.982	8.0498e-05	0.00053832	0.00020893	531.03	6.6245e-07	1.2331e-06	538.45	187.03	2.7219e-06	2.4305e-06	201.45	67.577	62.503	17.558	1.7491e-06	17.629	0.00021438	0.00022765	5.8982e-05	516.68	2.3741e-06	2.4662e-06	526	180.59	2.3892e-06	2.4459e-06	192.57	64.682	60.716	17.376	2.2295e-06	17.513	142.340	385.335	377.945	38.847	271.645	45.274	37.702	44.139	237.603	174.316	40.808	44.420	48.454	52.115	177.685	47.631	-8191	255	
1743.809	1	1	0	0	0.19001	0.16668	0.19765	0.22923	0.2144	0.1871	0.13632	0.2483	0.2202	0.19823	0.076685	0.13226	0.028425	0.15233	0.24706	0.23506	-2.3583	-2.9833	-2.3875	-3.2	-2.4667	-2.5958	-3.1917	-2.4521	-2.8292	-2.8292	-2.325	-2.9021	-2.7833	-2.4	-2.9542	-2.4229	177.520	186.256	186.725	288.629	143.074	133.995	367.496	81.223	319.336	74.503	139.610	255.692	313.818	287.096	313.473	289.723	0.00015192	0.00031753	6.5732e-05	531.44	3.1665e-06	2.1822e-06	543.91	187.15	4.075e-06	3.5976e-06	200.61	64.853	60.216	17.288	1.9981e-06	16.988	0.00021508	0.00021319	5.616e-05	515.97	2.3695e-06	2.3072e-06	528.09	180.49	2.341e-06	2.2431e-06	190.93	62.484	58.59	16.971	2.0777e-06	17.004	143.982	249.080	82.471	39.239	260.644	290.048	37.561	44.246	158.081	182.327	40.898	44.509	48.746	52.244	285.861	47.925	-8191	255	
1743.905	1	1	0	0	0.20412	0.23119	0.10054	0.10136	0.21877	0.31075	0.15132	0.15998	0.13933	0.064106	0.095305	0.16337	0.12108	0.25435	0.27237	0.19867	-2.0208	-2.8958	-2.2583	-3.2021	-2.55	-2.4375	-3.2354	-2.5312	-2.5958	-3.0646	-2.2208	-3.0646	-2.7375	-2.2958	-3.0625	-2.5479	183.104	289.027	362.717	372.760	27.043	121.242	342.978	116.455	28.198	70.851	371.188	332.586	98.149	279.754	52.099	284.820	0.00014121	0.00022829	9.5138e-05	531.48	1.3973e-06	4.102e-06	544.67	188.66	3.8455e-06	3.8872e-06	202.26	64.126	60.135	17.103	1.5658e-06	16.969	0.0002098	0.00019966	5.2956e-05	516.48	2.3057e-06	2.1973e-06	526.88	181.38	2.3281e-06	2.2198e-06	191.16	62.062	58.526	16.928	2.0964e-06	17.149	145.119	305.280	357.999	39.702	60.589	103.044	37.442	44.154	73.870	343.144	41.011	44.846	48.306	52.301	142.734	47.844	-8191	255	
1744.001	1	1	0	0	0.089678	0.050373	0.35376	0.074467	0.027306	0.079936	0.098502	0.20441	0.082755	0.24603	0.25936	0.21641	0.041718	0.14998	0.13401	0.18823	-2.0583	-2.8563	-2.1	-2.8375	-2.8646	-2.3458	-3.275	-2.5667	-2.6646	-3.0146	-2.5	-2.7104	-2.9229	-2.4188	-2.9542	-2.7792	125.352	335.764	263.569	109.766	238.255	351.537	324.284	328.181	96.699	361.898	325.285	379.946	137.089	351.035	291.900	372.206	0.00014673	0.00073889	3.5357e-05	532.28	2.0084e-06	1.9762e-06	537.47	188.08	3.6796e-06	1.0266e-06	202.71	64.383	60.305	17.356	2.7579e-06	17.091	0.000213	0.00020222	5.4619e-05	517.97	2.3458e-06	2.2135e-06	522.13	182.15	2.312e-06	2.1839e-06	192.91	62.4	58.385	17.029	2.0875e-06	17.213	84.436	342.516	226.029	39.363	169.914	298.595	37.507	44.219	200.278	89.464	40.635	44.999	48.251	51.876	120.054	47.893	-8191	255	
1744.122	1	1	0	0	0.13148	0.21023	0.075867	0.14482	0.16386	0.13921	0.21248	0.10344	0.21655	0.09648	0.28474	0.18916	0.088177	0.1822	0.22016	0.41765	-2.0187	-3.0354	-2.4396	-2.8	-2.9437	-2.2604	-2.9938	-2.8375	-2.2854	-3.0917	-2.4042	-2.7292	-2.9313	-2.2854	-2.95	-2.6458	259.242	213.687	139.482	369.750	95.791	255.788	351.876	189.265	206.468	368.913	127.205	385.305	275.803	84.897	29.607	48.825	7.6983e-05	0.00042078	8.8887e-05	520.01	2.0277e-06	1.2406e-06	534.65	188.19	6.0265e-06	2.2241e-06	201.18	63.005	59.31	17.268	1.2386e-06	16.689	0.00020243	0.00019225	5.3477e-05	507.15	2.1952e-06	2.1049e-06	516.21	181.49	2.145e-06	2.0352e-06	191.79	61.327	57.245	16.849	1.9993e-06	16.682	164.524	80.366	76.785	39.133	221.113	307.228	37.812	44.205	170.120	304.134	40.827	44.771	48.379	52.181	273.212	47.902	-8191	255	
1744.193	1	1	0	0	0.37209	0.10201	0.065705	0.41733	0.088944	0.11838	0.31832	0.25984	0.12692	0.11652	0.13776	0.042241	0.18777	0.050283	0.041907	0.17232	-2.0604	-3.0854	-2.3896	-2.6521	-3.2083	-2.2375	-2.8021	-3.0604	-2.2792	-2.9771	-2.5854	-2.5417	-3.1333	-2.3292	-2.6708	-3.1458	334.486	323.781	243.486	317.166	348.535	62.142	169.058	58.170	215.155	365.062	269.379	301.988	342.563	352.632	161.380	257.026	0.00015507	0.00051392	6.6342e-05	513.23	4.6891e-06	1.2892e-06	528.5	189	1.7869e-06	1.0994e-06	202.74	63.094	59.274	17.39	2.6376e-06	16.414	0.00018947	0.00017663	5.2351e-05	500.76	2.0203e-06	1.9342e-06	511.89	181.83	2.0024e-06	1.8835e-06	192.17	60.476	56.795	16.861	2.0567e-06	16.439	145.070	148.146	143.333	38.924	207.027	177.545	37.349	44.018	83.302	114.060	40.768	44.529	48.544	52.097	324.052	48.270	-8191	255	
1744.289	1	1	0	0	0.24617	0.0911	0.26257	0.11643	0.15001	0.13646	0.12119	0.15573	0.27273	0.1982	0.12984	0.24375	0.13656	0.18467	0.064066	0.22059	-2.0292	-3.0062	-2.3979	-2.5833	-2.9125	-2.3583	-2.7354	-2.9875	-2.3937	-2.9354	-2.8729	-2.4917	-3.2208	-2.4708	-2.7583	-2.9042	121.591	89.763	135.861	329.744	50.873	280.484	328.117	192.928	359.949	31.729	214.509	33.435	98.123	62.547	219.577	267.253	0.00012009	0.00027275	4.4426e-05	522.64	2.5488e-06	3.6198e-06	536.06	189.8	4.0691e-06	2.2174e-06	203.6	61.902	58.961	17.312	4.1817e-06	16.639	0.00018291	0.00017401	5.2712e-05	505.34	1.9625e-06	1.9244e-06	518.74	182.86	1.9774e-06	1.9262e-06	193.38	59.892	56.491	16.816	2.0892e-06	16.473	144.923	60.620	140.501	39.451	270.743	215.453	37.353	44.034	340.417	234.031	40.778	45.130	48.306	52.633	82.671	47.636	-8191	255	
1744.384	1	1	0	0	0.29486	0.145	0.072664	0.14884	0.056688	0.17735	0.18124	0.032726	0.091514	0.049291	0.14389	0.24148	0.29283	0.18086	0.21084	0.36218	-1.8458	-2.8083	-2.8729	-2.4896	-3.25	-2.5167	-2.8812	-3.0438	-2.3479	-2.9437	-2.7979	-2.425	-3.1958	-2.475	-2.8021	-2.7687	118.365	288.370	305.855	309.188	271.477	185.526	104.913	308.431	266.654	198.637	369.446	382.982	351.890	26.478	327.733	83.768	0.00010462	0.00027894	1.8293e-05	528.78	1.3257e-06	4.5184e-06	542.74	191.96	4.2746e-06	5.6193e-07	205.65	62.023	58.927	17.371	3.8104e-06	16.686	0.00017824	0.00017917	5.3555e-05	510.54	1.9162e-06	1.9873e-06	522.94	183.93	1.9399e-06	2.0065e-06	194.58	60.114	56.356	16.964	2.1163e-06	16.654	145.936	94.871	231.107	39.131	361.795	255.068	37.731	44.280	354.305	137.863	40.708	44.939	48.179	52.381	103.489	47.908	-8191	255	
1744.504	1	1	0	0	0.23227	0.13747	0.10763	0.17228	0.086059	0.2598	0.30095	0.13965	0.2374	0.36824	0.17861	0.11294	0.12604	0.1023	0.029713	0.1268	-1.8625	-2.925	-2.9104	-2.2229	-2.8729	-2.7771	-2.5083	-3.1188	-2.3021	-3.0229	-3.0021	-2.3396	-3.1625	-2.6354	-2.5708	-3.1125	197.917	84.952	98.206	341.097	119.046	169.402	198.321	37.698	60.281	38.512	314.849	208.836	116.455	366.425	127.268	255.338	0.00012046	0.00024939	8.554e-05	530.23	1.0122e-06	2.7171e-06	544.29	192.93	2.0608e-06	1.8134e-06	206.55	62.698	59.208	17.514	3.1771e-06	17.052	0.00017403	0.00018621	5.3333e-05	510.35	1.9049e-06	2.0657e-06	526.17	184.6	1.9111e-06	2.0519e-06	195.78	60.287	56.626	17	2.0309e-06	16.648	163.351	102.383	337.755	39.327	191.648	249.405	37.647	44.132	210.210	376.726	40.771	44.632	48.316	52.092	146.437	47.640	-8191	255	
1744.601	1	1	0	0	0.15061	0.12471	0.33071	0.13925	0.22459	0.15529	0.29733	0.36323	0.16677	0.12971	0.1373	0.34722	0.066365	0.25833	0.35388	0.098305	-1.9062	-2.7896	-2.9708	-2.3771	-2.8271	-2.5958	-2.45	-3.0583	-2.5583	-2.7562	-2.8583	-2.4958	-3.0833	-2.7542	-2.5021	-3.0563	385.378	86.674	209.766	296.130	223.542	113.314	258.148	276.054	135.574	195.984	134.385	252.409	337.818	377.645	133.044	221.555	0.00013492	6.9213e-05	8.3348e-05	527.14	3.9508e-06	1.4256e-06	543.86	193.9	4.4571e-06	2.7189e-06	207.93	63.391	59.416	17.376	1.1048e-06	17.014	0.0001723	0.00018559	5.0476e-05	508.52	1.877e-06	2.043e-06	524.97	185.31	1.8921e-06	2.0097e-06	196	60.308	56.916	16.846	1.9359e-06	16.527	123.341	308.207	163.467	39.285	207.555	303.279	37.551	44.206	241.115	145.110	41.021	44.917	48.410	52.341	77.046	47.259	-8191	255	
1744.697	1	1	0	0	0.036638	0.15042	0.062708	0.22021	0.27994	0.046627	0.20944	0.18262	0.099823	0.092697	0.15472	0.060949	0.10936	0.07939	0.08689	0.13143	-2.0917	-2.5104	-2.9542	-2.2354	-3.0375	-2.8125	-2.5458	-2.9125	-2.5854	-2.6146	-3.2375	-2.3354	-2.8375	-2.8667	-2.3479	-3.15	375.662	342.995	327.218	330.893	32.903	350.943	286.457	291.804	305.264	126.226	67.605	278.372	322.281	338.135	189.408	159.560	0.00010057	0.00041388	4.1237e-05	530.11	3.4991e-06	2.5528e-06	555.26	196.33	1.9789e-06	2.5312e-06	211.07	63.987	60.052	17.291	2.9819e-07	17.155	0.00017291	0.00018052	4.8472e-05	509.93	1.8907e-06	1.9815e-06	532.34	187.37	1.9025e-06	1.9377e-06	197.31	60.705	57.37	16.763	1.8313e-06	16.713	131.488	63.740	379.286	39.154	197.385	116.552	37.567	44.065	243.205	59.570	40.846	44.962	48.170	52.793	84.358	47.580	-8191	255	
1744.793	1	1	0	0	0.21884	0.076813	0.087642	0.2933	0.17871	0.048386	0.13517	0.10702	0.21045	0.20704	0.17778	0.17563	0.25451	0.20381	0.011028	0.11356	-2.2875	-2.3854	-3.0354	-2.3521	-2.6896	-3.0021	-2.4979	-3.0542	-2.6542	-2.5646	-3.1521	-2.6125	-2.9333	-2.875	-2.3125	-2.8875	47.117	113.710	212.305	93.816	164.648	282.582	190.991	351.178	343.692	155.781	310.954	91.645	356.252	74.875	281.505	137.205	0.00012321	0.00025583	3.8163e-05	532.3	2.8868e-06	1.3923e-07	560.69	199.04	5.8968e-07	6.7554e-06	211.02	64.652	60.636	17.256	4.6196e-06	17.443	0.00017222	0.00017158	4.5553e-05	513.12	1.8668e-06	1.8706e-06	536.45	189.89	1.8874e-06	1.8453e-06	197.65	61.291	57.682	16.704	1.7768e-06	16.851	136.542	114.231	88.856	39.433	252.798	163.670	37.518	44.030	351.164	52.968	41.083	44.883	48.469	52.645	215.143	48.100	-8191	255	
1744.889	1	1	0	0	0.11946	0.11304	0.11705	0.040041	0.05055	0.27765	0.11475	0.0891	0.10726	0.17706	0.21927	0.044081	0.21268	0.072058	0.10526	0.18933	-2.2313	-2.5896	-3.1542	-2.4792	-2.6479	-3.0375	-2.2729	-3.0438	-2.9208	-2.5958	-3.125	-2.5167	-2.7708	-2.9458	-2.3542	-3.1667	162.838	31.940	360.822	163.087	117.661	83.308	49.531	333.790	204.941	189.920	299.235	171.781	381.095	357.793	365.113	231.663	5.4814e-05	0.00029806	9.3982e-05	533.08	9.4911e-07	3.6111e-06	558.33	201.34	3.4597e-06	2.4177e-06	211.24	64.008	60.05	17.4	2.6324e-06	17.337	0.00017199	0.00016588	4.4317e-05	511.6	1.8721e-06	1.8108e-06	535.86	191.39	1.8465e-06	1.79e-06	196.67	60.787	57.478	16.747	1.7123e-06	16.825	147.953	74.837	376.674	39.424	138.112	26.326	37.535	43.823	180.059	43.206	40.356	44.835	48.614	52.599	123.247	48.095	-8191	255	
1744.985	1	1	0	0	0.064181	0.17848	0.063074	0.051852	0.17889	0.1413	0.31323	0.15762	0.073036	0.2638	0.047837	0.19983	0.16324	0.1962	0.1059	0.32324	-2.3583	-2.6125	-3.2062	-2.8396	-2.6729	-2.9708	-2.3958	-3.1125	-2.9771	-2.3563	-3	-2.7583	-2.6833	-3.0792	-2.4104	-2.7979	112.559	229.776	314.166	378.134	252.723	384.888	321.741	273.393	43.248	335.961	270.311	155.792	292.724	101.610	42.848	114.841	9.5127e-05	0.00043747	3.9906e-05	529.83	1.3132e-06	3.5791e-06	546.78	197.86	2.7313e-06	4.0462e-06	208.74	62.602	59.693	17.254	1.9597e-06	16.938	0.00016918	0.00016373	4.3485e-05	509.18	1.8313e-06	1.8104e-06	526.66	188.61	1.8497e-06	1.8271e-06	193.8	59.867	56.923	16.693	1.7441e-06	16.565	196.946	131.692	340.034	39.143	33.823	108.295	37.383	43.966	245.091	149.389	40.613	44.843	48.731	52.405	64.393	47.728	-8191	255	
1745.081	1	1	0	0	0.3308	0.38812	0.23945	0.36606	0.20638	0.14867	0.30321	0.02172	0.14063	0.097382	0.0065898	0.33602	0.22256	0.28403	0.022154	0.39009	-2.4396	-2.1688	-2.8917	-2.5833	-2.4771	-2.95	-2.5438	-2.7958	-2.9792	-2.2104	-2.9854	-2.8042	-2.3792	-3.1937	-2.4417	-2.8146	222.656	170.156	177.438	345.906	181.283	34.842	347.080	297.284	240.662	32.478	87.526	236.655	73.563	62.303	87.828	315.352	0.00010058	0.00019627	7.0517e-05	523.36	6.9864e-06	1.3355e-06	546.53	196.13	2.0014e-06	2.6222e-06	206.76	62.139	58.881	17.503	3.3559e-06	17.069	0.00016892	0.00016476	4.4401e-05	506	1.8583e-06	1.7549e-06	523.34	187.36	1.8358e-06	1.7733e-06	193.89	59.627	56.442	16.802	1.8146e-06	16.586	165.437	113.970	357.531	39.464	219.193	186.768	37.449	44.033	169.414	74.158	41.119	44.666	48.045	52.321	138.805	47.951	-8191	255	
1745.202	1	1	0	0	0.28469	0.17996	0.16852	0.16569	0.24424	0.17326	0.10073	0.27451	0.2292	0.26264	0.1187	0.2075	0.10809	0.08789	0.15419	0.18721	-2.4896	-2.2938	-2.7354	-2.55	-2.3229	-2.9667	-2.75	-2.5146	-2.9667	-2.325	-2.9854	-2.8083	-2.4146	-3.1667	-2.7208	-2.5896	35.451	287.471	334.329	346.756	296.127	190.599	379.453	330.833	199.617	198.430	32.443	289.794	329.545	364.810	225.123	71.052	0.00014817	0.00025147	6.7976e-06	526.62	2.3194e-06	1.855e-06	545.18	196.65	1.5649e-06	2.9721e-06	209.5	61.962	58.671	17.71	2.9349e-06	16.928	0.00016619	0.00016159	4.5407e-05	506.99	1.8395e-06	1.7654e-06	524.14	187.03	1.8335e-06	1.7785e-06	195.95	59.495	56.277	16.962	1.8957e-06	16.639	139.439	52.967	364.124	39.046	211.685	116.392	37.658	44.123	167.752	239.452	40.692	44.284	48.222	52.145	111.045	48.283	-8191	255	
1745.298	1	1	0	0	0.075391	0.23112	0.11784	0.17872	0.31261	0.15658	0.25035	0.24745	0.13721	0.17885	0.13505	0.42223	0.31391	0.099745	0.20681	0.33889	-2.7708	-2.3187	-2.7812	-2.8125	-2.4604	-3.0563	-2.4688	-2.5042	-3.0812	-2.3625	-2.7333	-2.8833	-2.4729	-2.8229	-2.5875	-2.6063	234.523	48.137	157.386	341.834	219.104	112.293	257.362	343.147	188.306	371.295	250.445	347.045	313.632	335.035	324.780	322.584	7.8452e-05	0.0002288	7.8206e-05	524.01	3.9194e-06	2.1288e-06	547.8	195.71	2.2964e-06	2.077e-06	210.11	62.706	59.267	17.593	2.5934e-06	16.83	0.00016887	0.00016239	4.7445e-05	508.35	1.8316e-06	1.7848e-06	526.98	187.06	1.8357e-06	1.819e-06	197.61	59.873	56.395	16.899	1.9547e-06	16.619	126.849	55.556	116.446	39.241	223.759	100.392	37.770	43.899	381.054	367.674	40.876	44.948	47.955	52.669	272.345	48.089	-8191	255	
1745.392	1	1	0	0	0.26407	0.23719	0.29595	0.13053	0.37086	0.14168	0.12535	0.051456	0.19668	0.10607	0.10677	0.061419	0.1306	0.035825	0.28575	0.088363	-2.7708	-2.4104	-2.6542	-2.9813	-2.1625	-2.7958	-2.9062	-2.4646	-3.0604	-2.5125	-2.7375	-2.9958	-2.4479	-3.025	-2.8312	-2.3875	165.262	172.809	157.821	282.868	223.968	182.813	275.595	150.628	73.571	364.034	298.971	180.238	226.094	197.324	159.777	313.637	0.00010341	0.00032631	8.4412e-05	524.21	3.9698e-06	2.1906e-06	542.4	194.61	3.6932e-06	5.1412e-06	208.25	62.523	59.307	17.647	3.9476e-06	16.912	0.00016671	0.00016777	4.91e-05	505.71	1.816e-06	1.7988e-06	521.78	185.98	1.779e-06	1.8372e-06	195.99	59.557	56.3	16.949	1.9196e-06	16.545	132.173	99.003	300.580	39.187	148.596	161.273	37.489	44.176	157.582	163.860	40.726	44.916	48.317	52.603	85.219	48.083	-8191	255	
1745.489	1	1	0	0	0.1461	0.1724	0.17659	0.19495	0.22508	0.1144	0.30688	0.025639	0.13224	0.15355	0.10631	0.19336	0.10234	0.099425	0.24239	0.26572	-2.5854	-2.4604	-2.7583	-3.0875	-2.3333	-2.7833	-2.8896	-2.4604	-3.0083	-2.6146	-2.575	-3.0792	-2.4667	-2.7125	-2.6104	-2.4979	316.729	89.733	213.611	155.482	35.543	47.044	385.415	258.637	356.872	303.570	248.076	226.211	156.769	36.420	252.724	215.295	0.00014986	0.00048088	5.5051e-05	523.36	4.614e-06	1.1173e-06	546.55	197.82	2.7725e-06	1.559e-06	210.26	63.453	59.826	17.585	3.8421e-06	17.243	0.00015959	0.00016827	4.7371e-05	503.47	1.7581e-06	1.8562e-06	525.33	188.11	1.7526e-06	1.8582e-06	197.41	60.465	57.085	16.888	1.8719e-06	16.742	136.181	302.860	324.074	39.489	241.315	266.960	37.854	43.941	191.041	213.253	41.136	44.874	48.509	51.920	145.238	48.802	-8191	255	
1745.585	1	1	0	0	0.14876	0.092083	0.17176	0.086932	0.15164	0.057136	0.1443	0.085203	0.11512	0.05754	0.13833	0.14078	0.086371	0.16738	0.2118	0.17496	-2.5042	-2.6771	-2.4958	-3.1729	-2.3146	-2.6729	-2.85	-2.2313	-3.0271	-2.6146	-2.5271	-3.0083	-2.625	-2.8125	-3.0271	-2.3104	52.886	98.950	26.269	303.988	273.285	307.611	285.973	361.903	320.073	208.886	64.853	300.215	259.113	50.358	96.271	310.317	0.00014987	0.0002231	0.00010123	529.31	3.4458e-06	4.8831e-06	557.69	198.83	4.0638e-06	2.1227e-06	215.09	66.418	62.703	17.032	5.2656e-07	17.635	0.000157	0.0001714	4.6905e-05	507.91	1.7489e-06	1.8653e-06	536.38	189.93	1.7508e-06	1.8643e-06	201.06	63.132	59.485	16.433	1.7956e-06	17.133	158.316	36.144	65.255	39.121	264.292	333.792	37.447	43.674	112.071	105.759	40.603	44.914	48.222	52.735	62.627	48.259	-8191	255	
1745.681	1	1	0	0	0.19105	0.26059	0.053221	0.14948	0.10313	0.2206	0.112	0.1384	0.12151	0.20255	0.045209	0.16338	0.051392	0.30855	0.1665	0.12827	-2.5604	-2.6583	-2.325	-3.0979	-2.6167	-2.5979	-3.1458	-2.3937	-3.0438	-2.6417	-2.5208	-3.1188	-2.6917	-2.4938	-2.9729	-2.3646	46.330	317.646	90.571	72.529	33.383	263.049	293.920	99.484	119.142	51.133	283.891	150.168	148.031	361.665	317.991	153.947	0.0001437	0.00088358	7.8708e-05	531.11	3.5679e-06	9.6173e-07	570.15	201.12	1.7087e-06	2.7426e-06	214.23	66.221	62.408	16.89	1.7102e-06	17.859	0.00016033	0.00016851	4.6199e-05	510.14	1.7992e-06	1.8632e-06	545.95	191.85	1.7942e-06	1.8655e-06	201.45	63.129	59.198	16.365	1.803e-06	17.234	116.461	129.961	291.373	39.639	204.211	137.197	37.714	43.731	146.219	196.494	41.108	44.520	48.443	52.760	168.907	48.286	-8191	255	
1745.802	1	1	0	0	0.073514	0.22729	0.16448	0.046237	0.10945	0.0075792	0.15996	0.21397	0.10027	0.21388	0.1153	0.2221	0.077778	0.123	0.085007	0.054888	-2.4917	-2.7604	-2.2417	-3.1292	-2.6854	-2.6146	-3.0521	-2.5458	-2.7917	-3.025	-2.2938	-3.0292	-2.6396	-2.4833	-3.0687	-2.3771	197.612	126.141	248.143	314.744	251.782	238.104	325.882	305.773	202.521	350.706	374.345	97.920	245.519	255.158	339.783	377.834	0.00014006	0.000156	5.6667e-05	541.85	3.6187e-06	2.3141e-06	575.35	203.43	2.6459e-06	3.0024e-06	214	65.288	61.195	16.657	3.039e-06	17.683	0.00016485	0.00016913	4.5677e-05	517.25	1.8514e-06	1.8301e-06	552.67	193.13	1.8516e-06	1.8593e-06	198.88	61.795	58.348	16.2	1.7586e-06	17.092	136.192	302.666	52.464	39.036	212.214	238.065	37.845	43.881	204.884	71.559	40.428	44.826	48.321	53.131	154.754	47.939	-8191	255	
1745.898	1	1	0	0	0.03894	0.22684	0.097287	0.098879	0.051724	0.13022	0.12138	0.038566	0.20286	0.072767	0.20319	0.13745	0.20339	0.22226	0.12943	0.38416	-2.2604	-2.9583	-2.3979	-3.0896	-2.7562	-2.7042	-3.1271	-2.5958	-2.7979	-2.8958	-2.3021	-2.7333	-2.9042	-2.2979	-2.975	-2.4083	90.478	33.840	323.575	57.401	73.356	351.651	363.468	47.560	180.136	86.944	194.196	227.872	337.345	360.968	375.550	347.608	8.8138e-05	0.00027923	4.9288e-05	542.01	3.0444e-06	4.585e-07	574.56	202.53	1.9861e-06	5.5747e-06	211.03	64.041	60.721	16.556	2.1499e-06	17.385	0.00016963	0.00016655	4.5359e-05	519.54	1.8731e-06	1.8034e-06	551.73	192.67	1.8533e-06	1.8092e-06	196.53	61.013	58.007	16.054	1.7285e-06	17.071	140.711	48.354	169.479	38.996	168.876	359.995	37.546	43.841	183.494	190.151	40.493	44.814	48.190	52.971	348.447	47.529	-8191	255	
1745.994	1	1	0	0	0.23415	0.081053	0.081413	0.068505	0.29561	0.25062	0.24086	0.17561	0.24863	0.049635	0.18326	0.20542	0.10374	0.061917	0.28129	0.27658	-2.2208	-2.9062	-2.1708	-2.9417	-2.8646	-2.2583	-3.1271	-2.4646	-2.6021	-2.8688	-2.4271	-2.7604	-2.7833	-2.1	-3.0146	-2.8312	275.470	181.244	312.344	330.011	187.328	220.850	360.810	298.288	85.884	238.229	79.136	68.989	166.409	86.552	327.523	318.846	0.00013954	0.00067195	8.5153e-05	540.55	3.7993e-07	5.1876e-06	572.88	201.24	3.7591e-06	1.5447e-06	209.74	63.321	60.467	16.393	2.8509e-06	17.595	0.00016912	0.00016661	4.4083e-05	518	1.8813e-06	1.8261e-06	546.68	192.13	1.8603e-06	1.8227e-06	196.21	60.921	57.68	15.973	1.7115e-06	17.17	184.641	63.823	100.173	39.145	383.390	238.844	37.612	43.733	164.071	52.328	40.682	44.826	48.576	52.855	186.609	48.188	-8191	255	
1746.090	1	1	0	0	0.091342	0.10528	0.11857	0.28994	0.28441	0.34253	0.10827	0.062592	0.019158	0.093187	0.17356	0.1477	0.40785	0.12506	0.014528	0.12985	-2.05	-2.9958	-2.4521	-2.8854	-2.8979	-2.2938	-2.9333	-2.9125	-2.5083	-3.2562	-2.4417	-2.8417	-3.0333	-2.4479	-2.8625	-2.7083	321.931	131.520	259.179	237.779	349.789	310.526	217.705	295.509	372.963	48.555	338.806	119.835	27.131	62.346	41.735	368.501	0.00010292	0.00032105	9.6947e-05	530.89	2.326e-06	2.3307e-06	561.5	200.02	1.8188e-06	5.2664e-06	210.69	64.127	60.567	16.593	1.3831e-06	17.761	0.00016812	0.00016514	4.497e-05	510.9	1.8563e-06	1.8199e-06	536.34	191.25	1.8673e-06	1.7941e-06	196.31	61.265	57.758	16.063	1.8019e-06	17.206	159.750	97.827	46.512	39.256	155.167	181.045	37.518	43.621	160.922	175.682	40.512	45.119	48.466	52.861	84.429	48.404	-8191	255	
1746.162	1	1	0	0	0.22045	0.16354	0.23912	0.19473	0.28925	0.095937	0.17461	0.23159	0.24278	0.16415	0.19787	0.13952	0.16235	0.17249	0.018903	0.16879	-1.9417	-3.3333	-2.2562	-2.6625	-2.7271	-2.2854	-2.875	-2.95	-2.3187	-3.1229	-2.5792	-2.4354	-3.0229	-2.1479	-2.9333	-2.8396	129.820	347.902	273.806	280.906	137.367	161.572	242.850	374.748	287.326	215.615	383.020	276.955	26.478	67.641	107.336	273.451	7.481e-05	0.0002573	7.5581e-05	524.56	4.3745e-06	3.7541e-06	554.7	199.61	1.7848e-06	8.93e-07	208.04	64.186	60.466	16.346	2.1091e-06	17.384	0.00017095	0.00016389	4.6731e-05	504.37	1.8444e-06	1.7893e-06	532.16	190.69	1.8726e-06	1.7586e-06	195.62	61.423	57.831	15.887	1.8567e-06	17.052	175.871	63.186	62.055	39.431	235.668	65.931	37.772	43.864	252.077	289.216	40.610	45.195	48.382	52.698	257.666	47.891	-8191	255	
1746.281	1	1	0	0	0.19684	0.15892	0.28718	0.14202	0.26813	0.23774	0.027492	0.16359	0.30131	0.11692	0.089626	0.22348	0.19544	0.15416	0.29952	0.24057	-1.9667	-3.1667	-2.4021	-2.5833	-3.2271	-2.3979	-2.7833	-3.0458	-2.3542	-3.0062	-2.6521	-2.4792	-3.1354	-2.6354	-2.7146	-2.9729	156.806	165.448	125.378	299.983	316.206	125.803	253.680	378.770	374.432	317.813	244.809	259.587	293.767	377.191	352.002	222.614	0.00015957	0.00015097	3.0809e-05	515.77	1.1987e-06	4.7888e-06	548.4	197.11	4.0065e-06	4.9806e-06	204.96	64.515	60.7	16.355	4.5277e-06	17.279	0.00016715	0.00015921	4.7493e-05	498.45	1.8361e-06	1.772e-06	525.67	187.88	1.8274e-06	1.7694e-06	193.42	61.408	58.002	15.768	1.9086e-06	16.978	131.555	218.481	358.135	39.365	238.941	215.736	37.823	43.664	168.540	223.853	40.575	44.532	48.131	52.726	51.329	47.759	-8191	255	
1746.377	1	1	0	0	0.22264	0.20604	0.26681	0.10734	0.10197	0.32736	0.049692	0.090076	0.132	0.10276	0.11051	0.19293	0.2267	0.23667	0.066959	0.16885	-1.7354	-3.0042	-2.5333	-2.4625	-3.1729	-2.4562	-2.9729	-3.0187	-2.25	-2.8729	-2.7542	-2.3333	-3.125	-2.5187	-2.5771	-2.8812	199.483	273.612	286.941	190.663	179.372	202.481	258.107	108.236	232.259	245.163	365.128	221.830	94.623	315.204	175.009	92.179	0.00016129	0.00037566	0.00011441	513.34	1.3675e-06	1.3484e-06	545.88	196.91	1.9737e-06	5.0145e-06	209.13	64.484	61.378	16.547	3.807e-06	17.584	0.00016688	0.00016333	4.9112e-05	495.25	1.7996e-06	1.813e-06	525.01	187.81	1.8125e-06	1.8095e-06	195.88	61.707	58.063	15.998	1.9053e-06	17.186	159.093	202.689	162.636	39.344	276.437	348.080	37.633	43.933	171.212	87.363	40.917	44.859	48.303	52.955	209.200	47.768	-8191	255	
1746.473	1	1	0	0	0.27646	0.26293	0.065133	0.15862	0.39351	0.29827	0.13312	0.21046	0.1331	0.15464	0.10486	0.13998	0.15087	0.07722	0.18778	0.12022	-1.8687	-2.8208	-2.8833	-2.25	-3	-2.3854	-2.7667	-3.3042	-2.3563	-3.1813	-2.9292	-2.4271	-3.0333	-2.4396	-2.7875	-2.9958	261.723	190.068	108.440	109.511	251.667	282.704	53.837	41.111	42.830	199.110	178.847	310.311	293.491	271.864	106.115	266.132	0.00015832	0.00065997	1.0579e-05	514.38	1.546e-06	2.8523e-06	545.65	197.29	2.1657e-06	4.1715e-06	211.91	65.567	61.264	16.631	2.8708e-06	17.923	0.00016186	0.00016786	4.85e-05	496.57	1.7593e-06	1.8971e-06	527.03	188.85	1.7637e-06	1.845e-06	197.47	62.286	58.364	16.172	1.8801e-06	17.404	145.083	105.164	146.657	39.360	114.513	97.793	37.793	43.462	111.209	152.566	40.487	45.061	48.457	52.613	257.407	47.800	-8191	255	
1746.569	1	1	0	0	0.27	0.031052	0.034192	0.22029	0.10814	0.11606	0.063444	0.23454	0.070821	0.098517	0.13904	0.090833	0.052074	0.15022	0.37235	0.15524	-2.075	-2.7625	-2.875	-2.2396	-3.0167	-2.5438	-2.5958	-3.05	-2.4375	-2.7833	-2.85	-2.2979	-3.1396	-2.7458	-2.6083	-2.9688	40.644	335.682	31.277	344.242	101.457	299.795	140.301	288.430	220.363	237.137	367.452	38.684	345.724	228.521	296.349	118.267	0.00011336	0.00013023	6.9881e-05	521.03	2.955e-06	2.2376e-06	553.53	198.93	3.403e-06	4.2054e-06	209.68	65.955	62.057	16.487	5.9022e-06	17.738	0.0001614	0.00017037	4.7479e-05	500.88	1.7602e-06	1.8889e-06	532.68	189.74	1.827e-06	1.8687e-06	197.48	62.726	59.089	16.045	1.8473e-06	17.233	154.868	137.489	103.011	39.135	171.245	139.217	37.792	43.657	190.521	148.346	40.453	44.803	48.392	52.695	163.316	47.528	-8191	255	
1746.690	1	1	0	0	0.19133	0.18136	0.036489	0.12424	0.26618	0.31492	0.1881	0.30896	0.16108	0.058847	0.26655	0.15089	0.032272	0.095477	0.22082	0.18054	-2.1479	-2.6688	-3.0187	-2.2354	-2.7771	-2.8271	-2.3167	-3.375	-2.6583	-2.6771	-3.1688	-2.3333	-2.7771	-2.9062	-2.5438	-3.05	324.164	132.117	193.048	319.389	367.033	213.482	284.492	112.985	55.642	54.214	224.616	307.508	316.382	334.120	328.989	162.632	0.00011028	0.00023089	6.4687e-06	520.81	4.3959e-06	3.0482e-06	555.82	198.46	4.0064e-06	1.5425e-06	207.72	65.643	61.939	16.355	4.7027e-07	17.552	0.00016501	0.00017139	4.6991e-05	500.19	1.784e-06	1.8832e-06	530.17	188.55	1.8556e-06	1.8734e-06	194.77	62.11	58.848	15.825	1.8305e-06	17.058	155.945	220.000	107.791	39.213	215.696	56.458	37.768	43.707	64.918	188.590	40.588	44.452	48.628	52.808	341.747	47.669	-8191	255	
1746.761	1	1	0	0	0.19069	0.14076	0.13824	0.4559	0.18822	0.037676	0.28373	0.015659	0.064625	0.12541	0.086894	0.15087	0.080812	0.066679	0.15731	0.17594	-2.0708	-2.6333	-2.8854	-2.4729	-2.7083	-3.0646	-2.5333	-3.0125	-2.8229	-2.5958	-3.2062	-2.4979	-2.8604	-3.0333	-2.2458	-3.0312	373.520	313.844	315.892	378.784	28.429	258.826	135.338	345.846	29.029	316.127	344.867	338.344	188.753	165.165	194.545	274.874	0.00013669	0.00036941	9.0465e-05	520.58	1.8775e-06	2.1156e-06	552.79	199.92	1.3851e-06	4.9899e-06	210.73	64.992	61.959	16.553	3.557e-06	17.769	0.00016972	0.00016929	4.6099e-05	500.83	1.8088e-06	1.8576e-06	532.1	189.98	1.8535e-06	1.8443e-06	196.51	62.015	59.015	16.062	1.8013e-06	17.251	157.884	363.762	91.295	39.291	274.860	88.394	37.892	43.784	264.255	224.479	40.957	44.741	48.116	52.505	291.732	47.995	-8191	255	
1746.882	1	1	0	0	0.15161	0.18953	0.20036	0.096599	0.11936	0.062732	0.24375	0.21882	0.26335	0.35163	0.0094631	0.19631	0.20308	0.2657	0.15218	0.13129	-2.3021	-2.4792	-2.9792	-2.4688	-2.8125	-3.0187	-2.5062	-3.0208	-2.8083	-2.3583	-3.1396	-2.55	-2.7229	-3.1792	-2.3896	-2.9188	96.103	369.939	331.455	87.003	72.895	36.095	321.516	318.062	331.697	318.787	84.393	353.393	37.509	291.978	147.013	319.851	0.00015306	0.00046498	0.00013006	526.6	1.4883e-06	2.1278e-06	562.06	202.24	3.4846e-06	3.9545e-06	212.72	65.529	61.65	16.835	3.6678e-06	17.965	0.00017143	0.00016859	4.5118e-05	505.85	1.8567e-06	1.8267e-06	537.82	191.93	1.8691e-06	1.8369e-06	197.37	62.138	58.708	16.249	1.746e-06	17.472	144.401	108.404	50.755	39.339	367.356	310.739	37.614	43.779	187.239	220.709	40.390	44.986	48.503	52.819	255.710	47.992	-8191	255	
1746.978	1	1	0	0	0.058432	0.15353	0.22205	0.28956	0.10231	0.10886	0.16947	0.40827	0.15862	0.31274	0.2165	0.25521	0.30297	0.25392	0.14157	0.16096	-2.2979	-2.2271	-3.1583	-2.5646	-2.6625	-2.9188	-2.4542	-2.8625	-3.0042	-2.3708	-3.0958	-2.5708	-2.4271	-2.975	-2.3792	-2.7938	257.776	285.573	270.937	290.409	50.428	101.161	225.211	372.479	325.579	115.926	174.180	365.740	72.674	114.464	197.866	364.674	0.00012298	0.00021782	3.8005e-05	534.73	9.7902e-07	2.4173e-06	566.72	204.37	4.7496e-06	7.4875e-07	213.91	65.411	61.393	16.802	6.3542e-07	18.059	0.000169	0.00016648	4.3885e-05	510.98	1.826e-06	1.8132e-06	542.2	194.46	1.8507e-06	1.7984e-06	198.55	62.222	58.733	16.224	1.7342e-06	17.507	125.071	382.190	110.028	39.119	218.611	138.947	37.507	43.595	125.300	353.722	40.756	45.282	48.180	52.885	251.381	47.985	-8191	255	
1747.074	1	1	0	0	0.11475	0.16634	0.050698	0.064585	0.25837	0.24093	0.048019	0.093595	0.21889	0.12768	0.11973	0.42102	0.066944	0.091406	0.23761	0.19073	-2.4583	-2.2542	-3.0021	-2.4896	-2.5875	-2.9437	-2.4437	-2.9146	-2.6958	-2.4125	-2.875	-2.8688	-2.4042	-3.1396	-2.5792	-2.6917	81.892	64.542	342.378	139.083	79.511	42.680	205.324	289.681	88.291	58.903	374.471	63.570	185.296	130.212	292.195	228.363	0.00012278	0.00020733	7.0969e-05	531.88	4.698e-07	4.7691e-06	556.39	200.65	8.446e-07	2.5672e-06	211	64.471	61.278	16.705	4.8091e-07	17.833	0.00016682	0.00016253	4.3733e-05	508.58	1.8199e-06	1.7868e-06	532.81	192.21	1.8474e-06	1.79e-06	195.22	61.393	58.213	16.194	1.7853e-06	17.308	123.563	234.541	89.287	39.355	224.696	162.322	37.447	43.845	361.309	43.264	40.695	44.699	48.140	52.491	154.974	47.292	-8191	255	
1747.170	1	1	0	0	0.20595	0.15515	0.37056	0.17227	0.087029	0.1646	0.16765	0.32435	0.14145	0.11657	0.13457	0.078829	0.31415	0.093766	0.081037	0.088205	-2.6042	-2.2271	-2.775	-2.6229	-2.4917	-3.1792	-2.6458	-2.7479	-2.9729	-2.3979	-2.8917	-3.0354	-2.4521	-3.0938	-2.6396	-2.7396	59.016	177.211	65.350	34.365	378.501	379.581	258.444	260.406	293.268	30.046	211.209	256.706	313.724	54.858	370.621	42.154	9.465e-05	0.00032053	4.3798e-05	521.15	1.4052e-06	1.73e-06	548.47	200.16	6.8455e-07	1.8786e-06	208.47	64.697	61.09	17.039	5.3537e-06	17.723	0.00016812	0.00016423	4.4882e-05	502.52	1.8649e-06	1.7647e-06	525.94	192.14	1.8762e-06	1.7924e-06	195.63	61.498	58.269	16.455	1.8977e-06	17.285	156.076	94.635	77.347	39.327	149.635	197.654	37.600	43.825	131.846	334.316	40.639	44.875	48.110	52.249	144.956	47.994	-8191	255	
1747.291	1	1	0	0	0.35809	0.1177	0.16726	0.10166	0.091383	0.25867	0.28591	0.53954	0.30175	0.08229	0.18444	0.11007	0.18685	0.26139	0.099802	0.29529	-2.6771	-2.1229	-2.9729	-3.0062	-2.2625	-3.1958	-2.6083	-2.5	-3.0187	-2.2958	-2.8708	-3.0354	-2.2896	-3.1625	-2.7833	-2.3792	297.220	44.405	90.463	369.942	260.743	360.949	289.165	35.898	192.733	240.088	148.197	207.942	26.727	353.785	364.689	51.709	0.00014259	0.00023672	2.4323e-05	521.56	5.9648e-07	3.9278e-06	545.26	200.84	3.2748e-06	3.8155e-06	210.19	64.679	61.454	17.48	5.5978e-06	17.735	0.00016985	0.00016376	4.8104e-05	502.54	1.8691e-06	1.7851e-06	524.06	192.07	1.8762e-06	1.8069e-06	197.49	62.214	58.565	16.819	1.9537e-06	17.385	135.358	247.512	104.203	39.330	62.163	237.641	37.625	43.512	219.976	209.920	40.630	44.408	48.152	52.828	185.736	47.968	-8191	255	
1747.361	1	1	0	0	0.28065	0.063775	0.37692	0.060452	0.099164	0.10626	0.063971	0.21496	0.09619	0.27857	0.19429	0.091702	0.26865	0.1448	0.1542	0.17496	-2.5667	-2.3146	-2.5312	-3.0438	-2.2667	-3.1521	-2.8	-2.6479	-3.0042	-2.4833	-2.6896	-3.2167	-2.1437	-3.0146	-2.7729	-2.3708	109.114	65.427	104.400	163.286	149.407	312.811	341.669	323.544	277.735	41.923	372.393	53.018	247.862	37.112	73.862	85.516	0.00013322	0.00071249	3.5285e-05	520.15	1.886e-06	5.386e-06	541.8	199.69	3.4924e-06	2.7484e-06	211.84	66	62.4	17.65	6.2893e-06	17.814	0.00016873	0.00016968	4.9435e-05	502.51	1.8679e-06	1.8467e-06	523.5	191.36	1.8293e-06	1.8722e-06	198.74	63.203	59.433	17.087	1.9737e-06	17.422	174.256	55.316	203.849	38.962	149.932	175.758	37.798	43.635	228.403	157.586	40.425	45.041	48.403	52.156	110.505	47.724	-8191	255	
1747.482	1	1	0	0	0.2465	0.081248	0.23071	0.15928	0.19864	0.2023	0.14169	0.19358	0.18394	0.066704	0.1606	0.17326	0.20101	0.15211	0.076314	0.15302	-2.5917	-2.5833	-2.7	-2.9792	-2.3125	-2.9854	-2.875	-2.3667	-3.1063	-2.3417	-2.6167	-3.075	-2.4	-2.7208	-2.8521	-2.4	327.114	381.213	242.902	297.526	83.406	73.512	207.972	337.475	175.268	108.534	356.839	385.576	353.192	359.471	329.297	217.364	0.00011707	0.00050529	8.163e-05	519.53	3.852e-06	1.9938e-06	539.7	201.26	4.4636e-06	5.9538e-06	212.25	65.784	62.538	17.646	1.9421e-06	17.747	0.00016512	0.00017257	4.8814e-05	501.86	1.8148e-06	1.8721e-06	521.99	191.48	1.7799e-06	1.9058e-06	198.04	62.747	59.417	17.107	1.9187e-06	17.322	135.940	72.503	351.873	39.417	187.929	84.374	37.679	43.840	165.549	149.091	40.450	44.842	48.138	52.620	356.810	47.862	-8191	255	
1747.578	1	1	0	0	0.19775	0.41104	0.25887	0.34425	0.33718	0.25979	0.16311	0.22904	0.16582	0.16548	0.27075	0.12424	0.061949	0.22618	0.14435	0.13234	-2.5521	-2.6292	-2.5521	-3.1083	-2.4125	-2.6333	-2.9646	-2.4875	-2.8583	-2.7854	-2.5042	-3.0521	-2.3271	-2.6583	-2.8625	-2.2458	268.134	129.181	87.300	326.226	70.301	166.906	332.820	363.811	213.638	109.265	163.221	383.198	309.112	306.494	116.484	34.921	8.6235e-05	0.00015731	0.00010078	516.77	3.7627e-06	1.4408e-06	542.6	199.62	4.174e-06	5.9347e-06	211.92	66.748	62.925	17.635	5.1518e-06	17.941	0.00015903	0.00017318	4.7311e-05	497.58	1.7799e-06	1.8633e-06	520.46	190.2	1.7456e-06	1.8789e-06	197.74	63.324	59.669	17.068	1.838e-06	17.359	157.731	67.401	33.216	38.852	218.775	57.745	37.438	43.925	232.255	183.378	40.984	44.837	48.390	51.971	225.966	48.131	-8191	255	
1747.674	1	1	0	0	0.043038	0.091923	0.078965	0.095658	0.22355	0.19558	0.090062	0.13312	0.18527	0.1519	0.10606	0.19261	0.34072	0.18233	0.10733	0.17915	-2.3354	-2.5417	-2.2375	-3.1	-2.55	-2.6188	-3.1771	-2.4208	-3.0896	-2.9708	-2.3208	-3.0729	-2.5833	-2.4813	-3.0958	-2.3208	29.122	356.134	259.058	65.478	344.443	157.603	333.371	362.482	382.109	104.280	364.236	312.035	305.504	241.232	304.244	281.248	0.00012703	0.00025522	6.7254e-05	517.14	1.7668e-06	1.8498e-06	542.13	198.87	4.7968e-06	5.4621e-07	211.42	67.445	63.405	17.681	2.9148e-06	18.138	0.00015959	0.0001687	4.6509e-05	494.96	1.778e-06	1.8343e-06	519.49	189.78	1.7761e-06	1.8639e-06	197.93	63.997	60.1	16.961	1.79e-06	17.492	136.489	91.243	78.301	39.324	216.543	294.110	37.443	43.708	185.356	191.578	40.284	44.803	48.478	52.431	114.749	47.666	-8191	255	
1747.770	1	1	0	0	0.074133	0.12741	0.078573	0.0571	0.22182	0.12071	0.14718	0.18954	0.23831	0.097577	0.36926	0.19501	0.088726	0.16197	0.15167	0.045523	-2.3979	-2.7792	-2.2375	-3.1979	-2.5563	-2.6937	-3.2479	-2.275	-2.9271	-2.9333	-2.4104	-3.1188	-2.7438	-2.4958	-2.9521	-2.4	283.773	97.715	205.394	240.312	179.970	376.321	316.910	152.886	244.189	219.387	319.587	347.311	231.883	312.165	384.563	56.293	0.00010732	0.0004634	7.4497e-05	508.91	3.2208e-06	7.0065e-07	536.9	198.35	7.1095e-07	7.2001e-07	211.65	68.565	63.723	17.721	1.7943e-06	18.31	0.00016165	0.00016587	4.5253e-05	490.73	1.817e-06	1.8108e-06	518.42	188.92	1.7907e-06	1.8095e-06	197.86	64.921	60.574	17.027	1.7327e-06	17.658	133.173	60.792	124.898	39.267	245.305	210.843	37.591	43.820	340.402	207.058	40.675	44.869	48.233	52.533	159.428	47.875	-8191	255	
1747.866	1	1	0	0	0.23808	0.22133	0.19991	0.12825	0.18443	0.24915	0.14124	0.12698	0.13721	0.23903	0.30445	0.079239	0.29822	0.11451	0.039878	0.1668	-2.4771	-3.0479	-2.3063	-3.0292	-2.7375	-2.5208	-3.2583	-2.3438	-2.9208	-3.0167	-2.3979	-3.0438	-2.9646	-2.4729	-3.2	-2.7333	161.067	34.479	210.745	268.500	83.944	232.487	165.014	248.838	87.677	180.472	27.114	128.283	336.711	137.971	82.124	210.247	0.00012749	0.00051522	8.6618e-05	511.79	2.365e-06	6.083e-06	545.69	198.2	1.2078e-06	2.4819e-06	210.9	68.578	63.727	17.482	2.7734e-06	18.254	0.00016331	0.00016243	4.4163e-05	492.08	1.8119e-06	1.7576e-06	519.48	188.6	1.7874e-06	1.761e-06	195.38	64.663	60.607	16.703	1.6696e-06	17.543	167.968	369.477	133.187	39.056	111.592	272.213	37.450	43.620	125.516	61.776	40.730	44.765	48.125	52.468	155.542	47.843	-8191	255	
1747.987	1	1	0	0	0.17933	0.31433	0.1571	0.17293	0.11376	0.44253	0.16085	0.11901	0.14022	0.046454	0.16874	0.091056	0.18088	0.12118	0.22931	0.075348	-2.1896	-3.0229	-2.2125	-3	-2.7812	-2.3688	-3.1562	-2.4938	-2.6583	-2.9188	-2.3958	-2.8625	-2.9958	-2.3229	-3.2896	-2.7167	290.015	99.387	66.669	243.077	366.284	137.726	285.972	380.640	249.748	84.681	339.107	271.012	145.685	145.229	338.511	285.222	6.9269e-05	0.00031612	5.1876e-05	511.71	4.3608e-06	2.1275e-06	543.02	197.4	4.5286e-06	5.2085e-06	209.4	68.008	64.31	17.192	7.1305e-07	18.291	0.00016085	0.00015958	4.2389e-05	490.64	1.7746e-06	1.7104e-06	519.03	187.99	1.7728e-06	1.7246e-06	194.62	64.84	60.863	16.513	1.6257e-06	17.647	148.612	43.912	371.534	39.150	239.817	268.560	37.527	43.698	203.802	74.261	40.709	44.583	48.352	52.460	302.436	48.182	-8191	255	
1748.058	1	1	0	0	0.23209	0.10105	0.25814	0.10553	0.33187	0.186	0.19258	0.060252	0.17863	0.058416	0.13582	0.32433	0.11807	0.096878	0.22178	0.1197	-2.2	-2.9083	-2.35	-2.9021	-2.9354	-2.3979	-3.2271	-2.7062	-2.6229	-3.0292	-2.4062	-2.8146	-2.975	-2.3063	-2.9875	-2.7792	191.362	87.067	295.350	363.195	185.936	50.797	256.873	55.587	337.862	373.711	120.896	357.537	65.311	68.219	365.874	302.766	0.00012771	0.00011245	7.6174e-05	513.2	2.905e-06	2.9841e-06	541.8	196.49	3.188e-06	3.8743e-06	209.61	69.138	64.032	17.252	1.695e-06	18.114	0.00015815	0.00015636	4.1652e-05	491.9	1.7443e-06	1.6759e-06	519.65	187.81	1.7428e-06	1.6862e-06	195.01	65.121	60.595	16.627	1.6637e-06	17.67	138.620	366.556	385.642	39.227	210.381	266.892	37.636	43.628	259.232	217.028	40.914	44.587	48.450	52.478	86.259	47.671	-8191	255	
1748.155	1	1	0	0	0.18076	0.16684	0.1421	0.16031	0.040905	0.087011	0.13591	0.23809	0.28084	0.070507	0.3536	0.18926	0.17012	0.10085	0.14848	0.35107	-1.8917	-3.1375	-2.1875	-2.6125	-3.1	-2.3042	-3.2562	-2.7417	-2.5521	-3.1063	-2.6708	-2.7687	-3.1125	-2.1625	-2.8917	-2.7313	205.158	255.027	284.801	324.100	218.737	174.667	368.666	316.121	293.167	60.521	69.897	318.310	302.042	367.716	306.542	38.546	0.00015104	0.00026692	0.00013252	512.6	3.4017e-06	3.1007e-06	538.87	196.97	4.8905e-06	3.9456e-06	211.26	68.803	63.836	17.789	2.2353e-06	18.206	0.00016074	0.0001539	4.3957e-05	491.93	1.765e-06	1.6964e-06	516.52	187.99	1.7878e-06	1.7042e-06	196.74	65.437	60.685	17.011	1.7653e-06	17.724	152.350	68.965	60.550	39.241	219.693	135.338	37.472	43.707	162.349	284.372	40.903	44.685	48.415	52.556	224.495	47.020	-8191	255	
1748.251	1	1	0	0	0.10504	0.13137	0.17355	0.062997	0.12942	0.11806	0.047106	0.087984	0.2079	0.2044	0.16479	0.1866	0.20571	0.30371	0.32529	0.065699	-1.9688	-3.0375	-2.5708	-2.7167	-3.2062	-2.3646	-2.8063	-2.8792	-2.3333	-3.1479	-2.5583	-2.4625	-3.1292	-2.3187	-2.6667	-2.975	242.414	252.324	262.228	73.511	88.740	153.939	228.994	287.884	209.082	295.827	348.869	300.302	321.341	341.934	167.896	128.163	0.00014267	0.0005562	2.3672e-05	507.68	2.8763e-06	2.8533e-06	535.04	195	5.8585e-06	8.0291e-06	210.02	68.515	63.755	17.958	4.6133e-06	17.986	0.0001642	0.00015525	4.6082e-05	490.51	1.797e-06	1.7492e-06	512.93	186.58	1.8176e-06	1.7119e-06	196.02	64.993	60.51	17.223	1.8673e-06	17.487	157.417	138.132	63.726	39.209	208.049	190.860	37.627	43.633	137.707	182.489	41.402	44.787	48.155	52.306	183.646	47.766	-8191	255	
1748.370	1	1	0	0	0.12067	0.18436	0.10939	0.090642	0.21872	0.065648	0.0674	0.14017	0.14424	0.27582	0.13478	0.098187	0.19233	0.18694	0.099425	0.096767	-1.9937	-2.8729	-2.6854	-2.7042	-3.0771	-2.5208	-2.7667	-3.0708	-2.2354	-3.1292	-2.5146	-2.2729	-3.1292	-2.5062	-2.7375	-2.9771	262.300	239.004	378.045	55.619	124.136	121.368	262.023	269.812	250.805	27.865	319.316	326.785	133.296	47.555	168.327	44.855	0.00010378	0.00023206	8.8437e-05	507.97	4.1746e-06	1.6477e-06	527.71	194.3	3.2085e-06	2.7565e-06	207.16	67.269	63.267	18.045	2.06e-06	17.711	0.00016352	0.00015988	4.7605e-05	489.58	1.7609e-06	1.7655e-06	508.26	185.25	1.7933e-06	1.7606e-06	195.02	64.169	60.01	17.367	1.9029e-06	17.223	177.275	157.906	71.598	39.155	200.088	34.832	37.610	43.617	242.602	101.710	40.567	44.447	48.476	51.989	196.509	47.379	-8191	255	
1748.466	1	1	0	0	0.0483	0.19866	0.22742	0.081274	0.14682	0.18852	0.097125	0.13381	0.15049	0.18717	0.067971	0.1703	0.11252	0.14314	0.16681	0.012119	-1.9979	-3.1375	-2.6979	-2.6437	-3.1208	-2.5521	-2.9062	-2.9437	-2.6188	-2.8812	-2.8333	-2.4125	-3.1479	-2.4833	-2.6417	-3.1063	227.219	213.702	99.706	55.566	140.838	266.735	285.400	32.199	120.393	100.533	349.999	86.142	78.777	292.719	224.002	82.588	6.7405e-05	0.00054839	4.8767e-05	509.76	5.7311e-07	4.5005e-06	525.39	193.27	1.3438e-06	6.3266e-06	210.29	67.929	63.226	18.319	5.1157e-07	17.46	0.00016253	0.00016666	4.8457e-05	490.77	1.7728e-06	1.8634e-06	507.95	185.14	1.7925e-06	1.8746e-06	197.65	64.6	60.217	17.705	1.9338e-06	17.13	145.580	133.996	329.512	39.012	356.996	159.712	37.424	44.321	192.644	166.994	40.392	44.493	48.154	51.616	256.284	47.245	-8191	255	
1748.562	1	1	0	0	0.095303	0.067831	0.15032	0.32942	0.093385	0.12244	0.073172	0.17078	0.2212	0.3169	0.090872	0.45284	0.074714	0.14499	0.056312	0.21572	-2.0667	-2.6792	-2.6979	-2.3917	-3.0271	-2.6833	-2.6521	-3.1	-2.3	-2.8917	-2.825	-2.5646	-3.1125	-2.6875	-2.4583	-3.2667	230.623	41.342	239.773	304.654	356.727	385.167	360.556	318.596	271.511	341.625	377.569	28.430	378.529	364.532	309.974	284.064	0.00012011	0.00022344	0.00015049	515.7	1.1502e-06	4.5029e-06	530.77	196.54	1.6829e-06	3.1127e-06	212	68.004	63.594	18.407	2.5838e-06	17.982	0.00016603	0.00017725	4.911e-05	498.14	1.798e-06	1.9664e-06	513.64	187.75	1.8286e-06	1.9391e-06	200.05	64.713	60.44	17.862	1.8948e-06	17.421	187.456	340.997	58.400	39.038	207.290	170.020	37.614	44.031	327.596	172.476	40.820	44.808	48.533	52.083	167.976	47.409	-8191	255	
1748.658	1	1	0	0	0.11316	0.22609	0.071903	0.12277	0.059985	0.13585	0.30843	0.26812	0.081088	0.15661	0.19054	0.1135	0.10284	0.075023	0.104	0.17976	-2.1292	-2.5292	-2.8396	-2.4562	-3.0125	-2.5583	-2.5917	-3.2125	-2.75	-2.7604	-2.9958	-2.4458	-2.9292	-2.9333	-2.3792	-3.2438	266.994	201.361	81.487	36.058	366.254	203.840	288.404	356.761	321.154	183.627	155.919	280.622	39.690	197.521	248.181	317.320	0.00011965	0.00056349	5.0332e-05	519.93	2.2557e-06	3.6723e-06	540.56	197.62	9.301e-07	2.1739e-06	213.72	68.213	62.907	18.342	2.8199e-06	18	0.00016663	0.00017661	4.7679e-05	498.52	1.8095e-06	1.9183e-06	519.6	187.83	1.8287e-06	1.8891e-06	199.26	64.627	59.935	17.636	1.8051e-06	17.359	152.990	136.236	83.546	39.302	89.599	211.044	37.662	43.983	325.010	360.941	40.913	44.434	48.722	52.318	218.942	47.398	-8191	255	
1748.754	1	1	0	0	0.22301	0.1562	0.16819	0.17119	0.19208	0.38035	0.26478	0.097003	0.1445	0.25349	0.21049	0.24709	0.13402	0.091908	0.18482	0.22617	-2.1292	-2.8125	-2.8521	-2.4833	-2.8312	-2.8708	-2.3354	-3.0375	-2.6708	-2.8563	-3.0812	-2.3792	-2.7167	-2.9479	-2.2458	-3.0687	57.534	206.398	288.691	87.556	56.463	342.882	357.194	290.699	252.874	241.995	74.324	357.796	111.860	294.461	236.909	336.291	0.00012473	0.00032239	5.0972e-05	516.63	3.6384e-06	2.8687e-06	535.96	195.86	3.3329e-06	1.5159e-06	209.86	66.92	62.132	17.99	5.0108e-06	17.783	0.00016667	0.00017075	4.562e-05	495.56	1.8015e-06	1.8403e-06	518.33	186.99	1.8466e-06	1.8189e-06	196.15	63.295	59.228	17.292	1.7794e-06	17.16	168.263	357.651	126.145	39.410	290.576	104.685	37.693	43.969	203.882	218.749	41.007	44.456	48.681	52.852	167.409	47.903	-8191	255	
1748.850	1	1	0	0	0.10479	0.11072	0.11125	0.12511	0.051296	0.16443	0.14705	0.12528	0.061974	0.18732	0.024082	0.22238	0.157	0.18624	0.1402	0.076374	-2.0812	-2.4375	-2.9062	-2.6667	-2.6562	-3.0271	-2.2146	-3.1854	-2.6958	-2.3354	-3.1604	-2.2292	-2.7021	-3.0208	-2.4396	-2.9354	108.675	38.563	160.756	297.755	31.522	300.612	42.042	191.459	299.871	362.557	295.158	382.938	91.036	38.922	145.438	304.648	0.00010981	0.00033632	6.7487e-05	515.35	5.4958e-07	2.9905e-06	542.13	196.48	5.6232e-06	5.6494e-07	210.76	66.6	62.164	17.84	2.1527e-06	18.027	0.00016662	0.0001627	4.3982e-05	495.91	1.8212e-06	1.8135e-06	520.48	187.01	1.846e-06	1.7911e-06	196.04	63.308	59.235	17.211	1.7078e-06	17.261	125.260	275.768	368.740	39.005	275.526	304.026	37.748	44.026	201.591	285.458	40.444	44.900	48.172	52.181	44.577	47.670	-8191	255	
1748.971	1	1	0	0	0.053776	0.1218	0.24288	0.32052	0.099484	0.20047	0.05257	0.17698	0.22577	0.10068	0.14265	0.26473	0.24218	0.13367	0.1154	0.31675	-2.4729	-2.3146	-3.1125	-2.6667	-2.6208	-3.1021	-2.2854	-2.9667	-2.5771	-2.4188	-3.0958	-2.5062	-2.6479	-3.0521	-2.5042	-2.7979	366.011	133.191	68.059	357.534	135.477	133.661	318.738	351.489	114.530	201.835	354.355	88.605	99.860	79.082	102.278	234.917	0.00011691	0.00047717	0.00012921	518.59	1.4914e-06	4.909e-06	548.86	197.13	2.4872e-06	2.6084e-06	211.24	67.677	62.444	18.024	2.4889e-06	17.882	0.00016721	0.00016246	4.3242e-05	496.47	1.8092e-06	1.7679e-06	523.87	188.66	1.8217e-06	1.7866e-06	196.81	63.796	59.334	17.286	1.7038e-06	17.405	147.559	157.394	64.254	39.095	127.812	104.230	37.583	44.100	217.303	163.638	40.983	44.739	48.397	52.545	266.347	48.108	-8191	255	
1749.067	1	1	0	0	0.044105	0.10566	0.080856	0.26179	0.18028	0.25045	0.22559	0.2045	0.12148	0.25727	0.089718	0.091117	0.22307	0.24386	0.076786	0.16679	-2.3896	-2.1771	-3.0687	-2.4792	-2.6937	-2.9729	-2.2896	-2.9354	-3.0292	-2.0417	-3.1688	-2.6375	-2.6937	-3.1104	-2.3667	-2.8625	244.887	83.393	362.455	67.919	28.351	139.293	302.708	306.007	121.578	178.749	140.656	83.919	35.065	374.751	251.459	86.915	0.00014173	0.00017402	5.3137e-05	522.12	1.7368e-06	1.485e-06	542.54	197.83	3.5639e-06	4.0801e-06	212.67	66.536	61.768	17.913	3.3846e-06	17.701	0.00016757	0.00016162	4.2792e-05	500.61	1.7993e-06	1.7631e-06	521.5	188.9	1.8265e-06	1.7759e-06	197.42	63.529	59.016	17.354	1.7448e-06	17.2	139.263	118.999	165.027	39.165	249.563	136.768	37.838	43.974	109.792	271.350	41.166	44.694	48.582	52.452	252.433	48.216	-8191	255	
1749.163	1	1	0	0	0.34405	0.18116	0.055463	0.32958	0.25413	0.29736	0.14683	0.31034	0.21759	0.18869	0.22343	0.10572	0.22429	0.097688	0.12686	0.12792	-2.6021	-2.3354	-2.9813	-2.9479	-2.3229	-3.3208	-2.4958	-2.7792	-3.0792	-2.5187	-2.9646	-2.7042	-2.4792	-2.9604	-2.5354	-2.6688	204.275	315.104	303.131	60.261	129.215	174.481	57.575	338.946	208.531	364.416	364.768	112.491	368.952	260.571	246.956	288.310	0.00013024	0.00029781	6.2645e-05	515.09	5.0037e-06	1.9553e-06	533	195.24	1.6559e-06	3.7655e-06	209.91	65.519	61.451	18.153	2.5437e-06	17.168	0.00016762	0.00016279	4.4703e-05	496.31	1.8431e-06	1.7637e-06	512.65	186.67	1.848e-06	1.7856e-06	195.95	62.701	58.52	17.437	1.8103e-06	16.879	134.898	121.238	88.028	39.026	142.849	29.630	37.435	44.136	241.691	129.993	41.241	44.811	48.455	52.217	37.056	47.836	-8191	255	
1749.282	1	1	0	0	0.14053	0.17226	0.04536	0.13085	0.174	0.17222	0.12433	0.13979	0.18227	0.092797	0.1338	0.24237	0.13607	0.034578	0.2352	0.09222	-2.6583	-2.3771	-2.8083	-2.9521	-2.35	-3.1125	-2.6021	-2.7208	-2.9542	-2.1604	-2.7687	-2.9208	-2.35	-3.1875	-2.6771	-2.5292	139.487	315.786	270.927	361.848	169.569	29.512	288.353	349.258	87.869	133.312	315.529	330.553	309.887	133.108	112.083	44.482	0.00012588	0.00029675	0.00018777	515.42	9.1559e-07	3.8872e-06	530.91	195.44	1.3919e-06	1.835e-06	211.68	65.835	61.067	18.182	3.3211e-06	17.554	0.00016639	0.00016004	4.704e-05	496.73	1.8485e-06	1.7522e-06	512.05	186.61	1.8246e-06	1.7416e-06	197.04	62.82	58.532	17.497	1.9128e-06	17.02	137.118	74.715	383.617	38.911	104.257	186.277	37.410	43.885	156.097	151.019	40.484	44.801	47.972	52.470	240.543	48.245	-8191	255	
1749.354	1	1	0	0	0.22411	0.11356	0.18792	0.041056	0.15206	0.087718	0.044712	0.10692	0.1011	0.16353	0.19019	0.32349	0.25954	0.036164	0.061726	0.061827	-2.5667	-2.4417	-2.7583	-3.0521	-2.175	-3.0646	-2.6771	-2.6521	-2.9896	-2.5458	-2.7479	-3.025	-2.3542	-3.0604	-2.7354	-2.4292	347.607	142.268	144.065	80.231	328.988	187.221	193.194	72.490	380.875	366.810	58.722	127.318	71.536	299.988	261.400	121.689	0.00012856	0.00016476	0.00014468	514.77	3.5355e-06	3.8776e-06	535.68	195.4	3.3593e-06	2.6941e-06	213.69	66.571	61.7	18.407	2.1493e-06	17.553	0.00016591	0.00016372	4.8677e-05	497.37	1.8096e-06	1.7707e-06	516.36	186.97	1.7868e-06	1.7912e-06	199.99	63.214	58.749	17.631	1.9104e-06	17.108	132.336	63.972	109.343	39.036	189.043	207.586	37.607	44.352	372.952	168.910	41.310	44.813	48.172	52.084	214.606	47.895	-8191	255	
1749.450	1	1	0	0	0.15004	0.084159	0.28263	0.12652	0.079943	0.16466	0.11147	0.18587	0.20058	0.20223	0.091576	0.19982	0.19858	0.33949	0.1797	0.16658	-2.8396	-2.5458	-2.75	-3.0979	-2.3979	-3.0812	-2.9208	-2.5187	-3.1458	-2.6021	-2.6208	-3.0917	-2.2875	-2.8208	-2.9854	-2.4604	159.266	333.231	151.112	357.030	195.080	383.946	256.538	52.502	267.555	156.501	114.530	71.487	285.266	358.411	58.796	273.558	0.00014055	6.6042e-05	6.5929e-05	519.02	4.5328e-06	3.2947e-06	544.26	197.81	5.1717e-06	1.093e-06	214.04	67.157	62.181	18.28	4.9153e-06	17.456	0.00016135	0.00016887	4.8341e-05	498.96	1.7747e-06	1.8121e-06	522.48	188.36	1.7315e-06	1.8389e-06	199.93	63.712	58.958	17.679	1.8719e-06	17.179	148.132	321.719	53.391	39.199	249.357	242.422	37.750	43.927	165.842	215.553	40.903	44.778	48.205	52.029	131.796	47.667	-8191	255	
1749.546	1	1	0	0	0.17116	0.10812	0.16982	0.097773	0.12933	0.053702	0.23047	0.20096	0.063998	0.37598	0.28084	0.065149	0.12278	0.10383	0.061718	0.284	-2.6	-2.6167	-2.4729	-3.1562	-2.475	-3.0104	-2.9333	-2.4271	-2.9146	-2.6208	-2.7146	-3.0563	-2.5146	-2.65	-2.9354	-2.3438	231.502	229.021	275.980	342.942	87.389	208.953	28.748	174.000	275.910	168.097	46.163	74.857	313.678	156.722	293.776	133.471	0.00012709	4.4032e-05	8.7337e-05	517.89	1.8663e-06	1.047e-06	540.15	196.5	2.9308e-06	4.3892e-06	213.03	65.899	61.586	18.258	1.6438e-06	17.59	0.00015624	0.00016896	4.6614e-05	498.43	1.7285e-06	1.8668e-06	518.52	187.31	1.7276e-06	1.8659e-06	198.33	62.654	58.524	17.558	1.8186e-06	17.079	143.316	236.797	77.812	39.049	277.367	173.389	37.981	44.035	162.794	137.467	40.876	44.333	48.326	52.101	197.520	47.849	-8191	255	
1749.667	1	1	0	0	0.095548	0.1109	0.18611	0.10178	0.15503	0.20784	0.27993	0.23045	0.084561	0.17769	0.2737	0.18484	0.19174	0.13683	0.055954	0.24186	-2.4979	-2.7438	-2.4771	-3.0625	-2.4146	-2.6396	-3.1125	-2.2729	-2.8625	-2.8646	-2.3979	-3.2333	-2.6792	-2.8042	-2.9792	-2.3125	277.964	365.432	349.117	271.107	116.164	339.953	163.276	385.486	269.533	292.667	87.575	185.226	338.733	358.089	106.612	329.359	9.8355e-05	0.00031632	1.8625e-05	518.85	1.4588e-06	3.3161e-06	542.63	196.51	3.8905e-06	4.9934e-06	211.6	65.739	60.981	18.259	8.7741e-07	17.537	0.00015717	0.00017004	4.582e-05	496.75	1.738e-06	1.8413e-06	519.08	187.16	1.7473e-06	1.8334e-06	198.21	62.563	58.09	17.595	1.7904e-06	17.018	141.324	130.302	111.292	39.007	272.362	139.586	37.845	44.142	162.716	192.087	40.980	44.971	48.663	52.353	148.704	48.061	-8191	255	
1749.763	1	1	0	0	0.13104	0.027088	0.041082	0.082256	0.026135	0.14522	0.096574	0.31014	0.25328	0.10696	0.16741	0.10633	0.13842	0.19218	0.24308	0.053068	-2.4458	-2.8271	-2.3958	-3.1104	-2.5458	-2.7417	-3.1625	-2.3708	-2.9167	-2.7562	-2.3438	-3.0187	-2.6083	-2.7438	-3.1562	-2.4562	259.530	90.579	77.189	43.543	137.966	88.296	81.740	363.535	373.693	114.143	157.396	362.171	359.266	381.932	35.590	253.649	0.0001627	0.00028517	0.00010412	520.64	2.2986e-06	2.4684e-06	544.53	198.4	2.2895e-06	3.3807e-06	214.11	66.647	61.663	18.179	3.2455e-06	18.057	0.00016034	0.00016675	4.5414e-05	498.79	1.7598e-06	1.8108e-06	523.86	188.15	1.7766e-06	1.8146e-06	198.53	63.072	59.008	17.481	1.7482e-06	17.359	143.589	376.959	61.671	38.817	204.382	117.028	37.800	43.859	226.884	243.275	40.628	44.900	48.465	52.329	277.185	47.870	-8191	255	
1749.859	1	1	0	0	0.14246	0.15762	0.26514	0.23966	0.17577	0.17022	0.094146	0.31125	0.14761	0.16698	0.17518	0.11556	0.33249	0.20777	0.19958	0.13464	-2.4062	-2.8792	-2.4	-3.0104	-2.7729	-2.4688	-3.1312	-2.5938	-2.7479	-3.1063	-2.3792	-3.0563	-2.9333	-2.45	-3.2333	-2.5563	89.097	169.205	237.717	49.221	238.991	224.322	300.784	321.347	308.017	201.436	307.218	88.729	345.049	56.929	108.769	57.036	0.00021431	0.00019485	7.4733e-05	519.95	1.2609e-06	4.5625e-06	551.34	199.21	2.3678e-06	1.7979e-06	214.47	66.976	62.036	17.945	1.6141e-06	18.214	0.00016315	0.0001635	4.3951e-05	497.6	1.8018e-06	1.7698e-06	527.65	189.19	1.7907e-06	1.7637e-06	199.18	63.316	58.925	17.221	1.6788e-06	17.472	166.437	298.279	274.828	39.207	96.892	210.112	37.682	43.968	219.965	237.640	40.900	44.774	48.480	52.879	152.969	47.799	-8191	255	
1749.931	1	1	0	0	0.21693	0.30492	0.15026	0.16766	0.19079	0.2112	0.24715	0.19999	0.36964	0.054116	0.082779	0.4133	0.1327	0.13864	0.34699	0.27414	-2.0896	-2.9396	-2.3042	-2.8688	-2.5396	-2.3792	-3.3396	-2.4625	-2.6958	-3.0938	-2.2812	-3.0062	-2.8187	-2.3917	-3.0458	-2.6813	290.245	267.509	256.946	330.631	77.225	278.711	261.055	31.526	93.448	161.779	172.945	314.656	365.221	294.785	307.103	362.293	0.00016352	0.00027201	0.00010228	517.33	9.393e-07	2.0683e-06	543.93	197.79	2.4962e-06	4.0275e-06	212.25	66.072	61.581	18.058	1.2433e-06	17.814	0.00016511	0.00016179	4.325e-05	496.76	1.8051e-06	1.7805e-06	521.25	188.86	1.8058e-06	1.7628e-06	196.43	62.697	58.797	17.361	1.6653e-06	17.259	167.716	195.432	283.813	39.102	39.322	127.064	37.552	43.812	207.954	173.569	41.189	44.810	48.383	52.221	110.109	47.795	-8191	255	
1750.051	1	1	0	0	0.10883	0.21974	0.15194	0.0065324	0.19451	0.064629	0.22643	0.15682	0.043797	0.078026	0.21794	0.14868	0.15027	0.1592	0.33605	0.039703	-2.1333	-2.9667	-2.3604	-2.7938	-2.7708	-2.4083	-3.1771	-2.6229	-2.4958	-3.0563	-2.2792	-2.8229	-2.7896	-2.4896	-2.8563	-2.7708	269.282	291.160	339.763	86.645	143.867	278.122	207.475	293.838	303.133	353.497	52.015	344.553	261.772	347.451	37.437	247.685	0.00013868	0.00036381	6.7808e-05	515.8	2.2227e-06	6.0608e-07	539.21	198.07	1.9764e-06	2.6428e-06	209.13	65.551	61.223	18.215	1.1277e-06	17.49	0.00016212	0.00016022	4.294e-05	495.09	1.8074e-06	1.7554e-06	516.48	188.8	1.8002e-06	1.7737e-06	195.14	62.52	58.464	17.48	1.7072e-06	17.129	171.959	153.276	377.558	39.158	288.820	187.168	37.781	43.656	92.430	152.422	40.878	44.864	48.470	52.395	158.859	47.541	-8191	255	
1750.148	1	1	0	0	0.13937	0.10254	0.21196	0.35108	0.18538	0.25493	0.12045	0.045199	0.15473	0.09035	0.14126	0.064644	0.1725	0.055818	0.11888	0.27269	-1.8979	-3.0396	-2.1958	-2.8812	-2.8146	-2.4792	-2.95	-2.8083	-2.5229	-3.0458	-2.4042	-2.85	-2.875	-2.4021	-3.0271	-2.7062	83.015	138.189	324.705	30.885	120.928	272.796	321.265	319.957	48.627	370.572	100.051	91.842	78.807	99.989	267.997	116.841	0.00016905	0.00033266	3.2042e-05	513.21	8.1521e-07	3.0199e-06	537.49	196.45	2.998e-06	3.7515e-06	212.99	65.935	61.225	18.395	6.2792e-06	17.337	0.0001655	0.00016011	4.4764e-05	496.16	1.826e-06	1.7618e-06	516.01	188.39	1.8278e-06	1.7504e-06	198.09	62.942	58.6	17.61	1.796e-06	17.108	113.428	136.901	324.417	39.569	230.566	264.653	37.626	44.089	146.674	371.390	40.797	44.626	48.452	51.737	208.942	48.234	-8191	255	
1750.244	1	1	0	0	0.14754	0.092701	0.067806	0.17019	0.29252	0.079332	0.13318	0.22358	0.16532	0.10395	0.30104	0.19638	0.26745	0.28814	0.15992	0.21958	-1.9646	-3.0917	-2.6521	-2.4854	-3.0083	-2.3312	-2.9167	-2.8646	-2.3708	-3.0396	-2.6646	-2.7271	-2.9271	-2.3979	-2.7667	-3.0208	239.235	170.697	127.352	315.553	282.521	94.846	92.250	383.506	28.869	342.808	206.075	378.690	108.199	280.765	366.063	97.291	0.00020128	0.00021379	3.9528e-05	520.47	2.0926e-06	2.838e-06	540.82	196.3	1.4529e-06	2.6206e-06	213.75	66.636	61.812	18.539	1.6927e-06	17.541	0.00016894	0.0001596	4.6392e-05	498.86	1.8308e-06	1.752e-06	519.31	188.49	1.8273e-06	1.7445e-06	200.2	63.569	58.978	17.771	1.8595e-06	17.155	161.532	100.753	165.581	38.694	243.727	379.751	37.771	43.896	277.903	186.976	40.798	44.779	48.576	52.430	204.781	47.681	-8191	255	
1750.363	1	1	0	0	0.086072	0.113	0.066143	0.080256	0.074825	0.21833	0.082407	0.1015	0.19844	0.17503	0.089125	0.29201	0.10819	0.11511	0.17809	0.19877	-1.8875	-3.0167	-2.7687	-2.4813	-3.175	-2.2583	-2.7979	-3.1542	-2.3458	-3.0333	-2.7188	-2.625	-3.075	-2.5958	-2.5896	-2.9542	27.063	381.458	44.829	43.979	248.675	145.758	165.073	131.347	144.392	296.568	380.866	337.225	120.682	166.381	255.922	286.514	8.4829e-05	0.00020866	4.5172e-05	518.25	2.1162e-06	3.7248e-06	538.56	196.49	4.3489e-06	6.9959e-06	214.14	66.561	61.721	18.481	2.0987e-06	17.563	0.00016632	0.00015901	4.7792e-05	497.88	1.787e-06	1.7645e-06	517.9	187.86	1.7977e-06	1.75e-06	199.36	63.094	58.729	17.705	1.8532e-06	17.155	121.913	146.776	55.401	39.455	149.231	210.417	37.473	44.062	190.354	191.354	40.829	44.668	48.463	52.056	312.231	47.491	-8191	255	
1750.459	1	1	0	0	0.075115	0.096167	0.20211	0.20319	0.057825	0.25385	0.13071	0.12806	0.12923	0.092373	0.088932	0.20698	0.26268	0.19601	0.17456	0.10579	-1.9833	-2.7604	-2.7708	-2.3667	-3.0979	-2.3104	-2.8729	-3.0021	-2.3667	-3.0187	-2.6875	-2.5187	-3.075	-2.7	-2.5312	-3.0812	116.596	380.732	306.357	296.598	249.389	185.242	354.504	325.735	65.727	129.618	245.605	332.366	376.226	256.115	65.621	289.180	0.0001285	0.00014692	3.1535e-05	516.65	1.4016e-06	3.6523e-06	542.75	196.48	1.0293e-06	2.2581e-06	211.17	66.158	61.793	18.389	5.1241e-06	17.669	0.00015977	0.00015839	4.7256e-05	496.91	1.7102e-06	1.7749e-06	518.24	187.29	1.7138e-06	1.7647e-06	197.8	62.973	58.452	17.702	1.8223e-06	17.198	124.471	225.446	268.264	39.219	277.240	141.993	37.428	43.940	355.118	127.458	40.711	44.985	48.418	52.372	202.158	47.249	-8191	255	
1750.532	1	1	0	0	0.1477	0.12241	0.18208	0.090207	0.29921	0.12462	0.27629	0.28288	0.20957	0.1885	0.14091	0.20289	0.36228	0.25413	0.077399	0.19448	-1.8375	-2.8229	-2.8021	-2.3729	-2.9979	-2.4958	-2.7438	-3.1562	-2.5167	-2.7292	-2.8646	-2.1458	-2.9271	-2.7313	-2.7042	-3.0354	285.934	160.412	60.363	138.156	254.521	254.048	297.270	243.067	349.255	270.660	29.136	160.694	34.935	356.734	301.690	308.095	0.00011944	0.00075665	5.0451e-05	516.36	4.5793e-06	3.7e-06	541.24	198.26	3.4533e-06	2.598e-06	212.21	66.961	61.785	18.45	3.5594e-06	17.8	0.00015373	0.00016221	4.5949e-05	497.31	1.6788e-06	1.8237e-06	520.38	188.73	1.716e-06	1.7944e-06	198.06	63.538	58.68	17.767	1.7873e-06	17.313	178.574	105.534	170.977	39.474	200.355	175.942	37.715	43.692	177.402	380.409	40.596	44.837	48.717	52.714	178.990	47.671	-8191	255	
1750.651	1	1	0	0	0.23939	0.13965	0.041957	0.23699	0.1342	0.25089	0.13126	0.40349	0.20519	0.26195	0.11717	0.13878	0.13128	0.31671	0.42015	0.16422	-2.0646	-2.5417	-2.9333	-2.4771	-3.0646	-2.6292	-2.8312	-3.0792	-2.6375	-2.5771	-3.2875	-2.3729	-3.0354	-2.7042	-2.7146	-3.0583	288.983	327.863	375.680	260.980	165.615	324.521	315.633	358.544	172.251	372.811	103.742	40.889	225.789	337.369	261.927	181.833	0.00014284	5.7951e-05	0.00010112	514.46	3.9377e-06	1.2965e-06	546.32	198.25	2.4174e-06	4.4957e-06	215.16	66.895	62.402	18.562	4.0629e-06	17.97	0.00015468	0.00016356	4.5387e-05	495.58	1.701e-06	1.8129e-06	522.53	188.05	1.7375e-06	1.8194e-06	199.91	63.964	59.306	17.856	1.7803e-06	17.444	136.133	133.202	124.487	38.875	247.379	28.408	37.852	43.873	208.358	113.410	40.672	45.072	48.454	52.105	122.600	47.697	-8191	255	
1750.747	1	1	0	0	0.20397	0.16721	0.04643	0.11034	0.13389	0.23357	0.17023	0.19594	0.11409	0.14511	0.33217	0.11809	0.11322	0.097234	0.2603	0.069497	-2.2812	-2.65	-3.1208	-2.2042	-2.9562	-2.6979	-2.5021	-3.2417	-2.7604	-2.6458	-3.1417	-2.6646	-2.9521	-2.9062	-2.3583	-3.1813	206.013	186.690	353.524	102.760	28.873	217.721	304.205	214.879	61.080	167.692	340.953	168.570	331.746	313.585	203.371	189.118	0.00026732	0.00084821	3.5131e-05	517.75	2.2337e-06	4.1391e-06	547	197.94	3.0414e-06	3.3904e-06	213.42	67.127	62.68	18.46	1.8011e-06	18.013	0.00016049	0.00016608	4.5534e-05	497.8	1.7688e-06	1.8282e-06	523.44	188.34	1.7802e-06	1.7855e-06	198.05	63.645	59.398	17.715	1.7749e-06	17.315	137.263	110.548	150.923	39.202	167.043	87.442	37.701	44.136	197.771	160.740	40.808	44.848	48.525	52.124	201.173	47.864	-8191	255	
1750.843	1	1	0	0	0.095773	0.11788	0.32494	0.2411	0.10697	0.23381	0.12851	0.40914	0.10058	0.11936	0.093271	0.30761	0.078261	0.13373	0.27207	0.19271	-2.0438	-2.4688	-3.0125	-2.4271	-2.8917	-2.8187	-2.6208	-3.1292	-2.5958	-2.6729	-2.9333	-2.7292	-2.8583	-3.0625	-2.4542	-2.7708	362.085	291.639	173.670	297.115	163.447	152.911	344.214	336.495	37.108	181.293	34.926	243.054	265.162	342.433	40.704	161.179	8.9641e-05	0.00044198	5.1674e-05	513.58	5.529e-07	3.8763e-06	543.23	197.24	2.8148e-06	2.7463e-06	210.77	66.777	61.959	18.426	2.9169e-06	17.746	0.00016464	0.00016382	4.4604e-05	495.18	1.799e-06	1.7858e-06	519.37	187.59	1.8331e-06	1.8042e-06	196.81	63.205	59.14	17.757	1.7514e-06	17.256	116.605	135.372	281.097	39.005	173.111	289.889	37.767	43.972	275.772	218.297	40.833	44.955	48.650	52.177	84.542	47.549	-8191	255	
1750.964	1	1	0	0	0.41438	0.046495	0.22739	0.10584	0.16978	0.18675	0.1279	0.37001	0.17995	0.17314	0.13717	0.18273	0.26136	0.14017	0.21529	0.077276	-2.3417	-2.6583	-2.8792	-2.5354	-2.8771	-2.9437	-2.3688	-2.9208	-2.8479	-2.4458	-3.1229	-2.5521	-2.7771	-2.7938	-2.4917	-2.8542	53.136	373.338	95.411	283.843	103.124	345.675	360.152	201.279	222.200	75.270	83.481	355.285	74.091	277.699	269.846	38.378	0.00022922	0.00028497	3.0549e-05	519.62	1.2188e-06	2.0602e-06	544.18	197.59	2.9921e-06	3.1228e-06	213.4	67.016	62.008	18.583	1.1603e-06	18.072	0.00016882	0.00016531	4.3698e-05	498.83	1.8262e-06	1.8002e-06	519.51	188.7	1.8348e-06	1.8038e-06	198.45	63.393	59.159	17.905	1.728e-06	17.401	150.319	344.911	30.429	39.152	237.692	110.913	37.719	43.943	86.213	64.575	40.643	44.874	48.521	52.257	158.527	47.969	-8191	255	
1751.060	1	1	0	0	0.24847	0.115	0.35737	0.12566	0.16697	0.17604	0.053409	0.22246	0.10434	0.056872	0.16095	0.14025	0.11614	0.2499	0.091497	0.18061	-2.3063	-2.475	-2.9792	-2.6208	-2.6312	-3.0854	-2.25	-3.0271	-2.875	-2.4271	-3.3333	-2.5604	-2.7271	-3	-2.4375	-2.75	63.056	82.853	295.643	107.437	217.278	166.072	97.991	374.605	343.934	284.822	57.701	107.572	228.873	297.523	169.422	182.237	0.00011714	0.00028649	2.9378e-05	518.17	8.2574e-07	4.5938e-06	542.71	198.88	3.0495e-06	5.8885e-06	214.34	67.497	62.46	18.627	4.1345e-06	17.953	0.00016699	0.00016681	4.3612e-05	499.81	1.8311e-06	1.7867e-06	520.24	189.23	1.838e-06	1.7903e-06	199.26	64.203	59.594	17.915	1.7369e-06	17.488	144.577	380.008	114.393	39.264	71.607	267.673	37.658	43.932	172.476	125.946	40.731	44.502	48.124	52.140	197.335	47.805	-8191	255	
1751.155	1	1	0	0	0.10623	0.32519	0.094365	0.21547	0.18099	0.11537	0.19136	0.13617	0.015661	0.11356	0.21611	0.050845	0.076725	0.10152	0.21041	0.041387	-2.3979	-2.275	-3	-2.6667	-2.4771	-3.1792	-2.4562	-2.9479	-2.9917	-2.5187	-2.7812	-2.9208	-2.475	-3.1417	-2.6063	-2.8396	46.100	309.493	30.802	86.298	209.487	268.873	340.118	158.862	242.826	353.800	56.733	344.574	355.118	156.088	309.656	291.640	0.00014839	0.00090981	0.00011963	519.7	4.7405e-06	1.1145e-06	545.73	198.66	1.0682e-06	1.3321e-06	213.34	68.125	62.911	18.601	4.7541e-06	18.145	0.0001678	0.00016084	4.3331e-05	500.26	1.8023e-06	1.7439e-06	521.89	189.18	1.8177e-06	1.7567e-06	198.8	64.437	59.698	17.77	1.7609e-06	17.533	165.692	112.622	97.594	39.167	185.958	241.718	37.686	43.922	272.921	194.124	40.674	44.894	48.339	52.555	183.786	47.780	-8191	255	
1751.228	1	1	0	0	0.033136	0.050563	0.142	0.22813	0.1084	0.091579	0.22116	0.11858	0.16352	0.087468	0.040502	0.15691	0.073724	0.22284	0.11705	0.097181	-2.6729	-2.2979	-3.0312	-2.75	-2.5646	-3.1042	-2.4292	-2.7104	-3.1229	-2.6104	-2.8875	-2.9458	-2.4729	-3.1667	-2.4042	-2.7521	254.236	218.872	331.903	171.560	319.073	349.983	273.266	306.101	281.513	293.221	319.396	182.794	378.014	287.372	207.910	272.285	3.8851e-05	0.00043161	6.827e-05	514.98	1.4206e-06	1.9645e-06	537.63	196.65	2.1925e-06	2.0839e-06	213.09	67.484	62.621	18.561	5.9601e-07	17.971	0.00016377	0.00016078	4.4482e-05	496.35	1.7946e-06	1.7108e-06	517.07	187.37	1.7949e-06	1.7259e-06	197.89	63.981	59.493	17.756	1.823e-06	17.406	203.770	56.832	378.240	39.208	273.187	218.108	37.660	44.279	380.096	112.429	40.785	44.713	48.154	52.358	86.398	48.381	-8191	255	
1751.324	1	1	0	0	0.20634	0.23063	0.22818	0.02952	0.089514	0.26613	0.11676	0.17747	0.21264	0.14852	0.10611	0.13324	0.17603	0.17804	0.26469	0.27634	-2.5396	-2.3458	-2.8896	-2.8875	-2.3917	-2.9625	-2.8729	-2.55	-3.0979	-2.3021	-2.9062	-3.1042	-2.4167	-3.0917	-2.7396	-2.5687	381.947	49.272	68.960	212.352	121.020	161.804	371.629	301.011	308.452	154.676	86.986	101.441	36.520	328.933	67.195	37.768	7.961e-05	0.00024752	6.1456e-05	515.78	2.9736e-06	4.2319e-06	542.57	198.32	3.9533e-06	4.7281e-06	213.19	67.115	62.508	18.871	2.8003e-06	17.901	0.00016174	0.00015791	4.5963e-05	499.01	1.8035e-06	1.7297e-06	521.09	189.03	1.7826e-06	1.7443e-06	200.22	63.851	59.713	18.013	1.8741e-06	17.443	140.833	35.328	116.787	39.428	162.037	155.484	37.617	43.896	199.880	112.796	40.843	44.904	48.043	52.311	210.322	47.745	-8191	255	
1751.443	1	1	0	0	0.081799	0.20851	0.17416	0.092556	0.029311	0.14359	0.063495	0.10792	0.064344	0.04257	0.11618	0.065033	0.24999	0.13272	0.029949	0.19246	-2.5458	-2.4896	-2.7	-3.0396	-2.375	-3.0312	-2.8354	-2.6083	-3.1167	-2.7708	-2.5833	-3.0479	-2.2188	-2.9229	-2.85	-2.4875	72.877	301.113	118.374	334.402	308.717	339.108	290.385	65.514	381.335	69.383	293.167	382.960	319.313	345.282	129.940	278.844	0.00013697	0.00012628	7.922e-05	527.06	4.4818e-06	3.048e-06	554.44	200.95	3.2618e-06	2.0202e-06	216.88	68.543	63.466	18.963	2.5677e-06	18.042	0.0001599	0.00016305	4.7626e-05	507.35	1.7727e-06	1.7764e-06	531.24	191.48	1.7426e-06	1.8169e-06	202.76	64.77	60.309	18.187	1.8924e-06	17.629	156.067	163.588	140.818	38.842	215.005	259.039	37.716	44.163	180.033	197.153	40.982	44.208	48.403	52.516	70.458	47.962	-8191	255	
1751.539	1	1	0	0	0.18904	0.18595	0.1146	0.032032	0.26303	0.11548	0.017815	0.071899	0.34504	0.20354	0.10765	0.20782	0.37962	0.17501	0.18412	0.13594	-2.7333	-2.4125	-2.4958	-3.0479	-2.4333	-2.9896	-3.0271	-2.2708	-3.0271	-2.5667	-2.8271	-3.1688	-2.5479	-2.7021	-2.9188	-2.6188	279.676	209.348	182.104	316.879	225.487	277.192	140.390	188.036	112.789	243.300	73.097	267.061	353.042	375.113	95.125	83.260	0.0001156	0.0003441	5.4584e-05	528.55	4.5032e-06	9.298e-07	558.36	199.94	5.1663e-07	2.8472e-06	218.34	67.931	62.818	19.07	5.5547e-06	18.168	0.00015826	0.00016858	4.7071e-05	509.72	1.737e-06	1.8253e-06	534.16	192.05	1.705e-06	1.833e-06	203.17	64.333	59.685	18.226	1.8117e-06	17.661	163.664	51.278	303.002	39.559	209.338	78.297	37.644	44.051	377.941	198.192	40.784	44.487	48.434	52.200	140.727	47.458	-8191	255	
1751.635	1	1	0	0	0.28775	0.27014	0.16472	0.17984	0.05283	0.19189	0.11323	0.031351	0.062671	0.178	0.056143	0.099778	0.29095	0.33126	0.11341	0.17623	-2.5896	-2.6354	-2.4125	-3.3854	-2.5208	-2.9688	-2.9708	-2.5125	-3.0104	-2.8563	-2.5021	-3.1771	-2.3979	-2.6063	-2.8625	-2.5229	231.997	296.609	45.681	123.203	86.866	333.768	198.464	216.695	75.011	145.193	299.213	77.128	367.683	56.072	264.730	353.818	0.00015604	0.0004615	9.25e-05	530.94	2.9358e-06	4.5184e-06	554.04	200.81	1.551e-06	2.2744e-06	213.07	67.277	62.657	18.872	2.1879e-06	18.237	0.00015527	0.00016755	4.5459e-05	508.53	1.7266e-06	1.8067e-06	531.48	191.39	1.7235e-06	1.841e-06	199.12	63.516	59.598	18.019	1.7977e-06	17.446	136.714	178.840	43.062	39.317	225.853	228.919	37.446	44.035	293.141	111.064	40.586	44.855	48.728	52.311	59.291	47.834	-8191	255	
1751.756	1	1	0	0	0.1851	0.14341	0.068502	0.15795	0.19115	0.13833	0.17772	0.14571	0.2006	0.097652	0.37796	0.16896	0.055749	0.42913	0.055065	0.36565	-2.5812	-2.6271	-2.3042	-3.1854	-2.525	-2.7146	-3.1458	-2.475	-2.9062	-2.8354	-2.3229	-3.2146	-2.5375	-2.7354	-3.1771	-2.3229	48.576	362.358	277.151	317.805	223.098	129.348	248.051	78.556	351.435	62.593	307.761	372.672	169.328	65.804	334.824	136.056	0.00015983	0.0004019	4.9725e-05	526.21	2.9998e-06	1.0237e-06	549.17	200.02	1.0846e-06	3.8821e-06	213.08	67.538	62.843	18.637	2.3419e-06	18.124	0.00015708	0.00016809	4.5004e-05	503.58	1.7338e-06	1.7895e-06	528.6	190.1	1.7464e-06	1.8434e-06	199.41	63.783	59.868	17.894	1.7742e-06	17.566	165.879	30.986	135.725	39.058	268.804	364.480	37.512	44.055	244.301	375.437	41.011	44.693	48.201	52.292	200.751	47.973	-8191	255	
1751.828	1	1	0	0	0.23671	0.20874	0.10742	0.091013	0.14973	0.14214	0.099735	0.19151	0.08083	0.098958	0.14769	0.12632	0.088408	0.11355	0.12854	0.20272	-2.5563	-2.9521	-2.4146	-3.0542	-2.5646	-2.5771	-3.2167	-2.4896	-2.8542	-2.9125	-2.4354	-3.1229	-2.6688	-2.4646	-3.0125	-2.5979	161.992	240.976	224.773	317.765	76.377	222.010	377.883	247.632	97.265	359.290	336.450	78.405	304.028	296.559	44.435	306.639	0.00016405	0.00023624	6.2331e-05	522.34	4.5499e-06	3.1033e-06	549.55	198.69	2.4939e-06	4.945e-06	213.77	68.044	63.188	18.72	2.0208e-06	18.493	0.00016492	0.00016993	4.5431e-05	500.22	1.8338e-06	1.8407e-06	525.98	189.46	1.8319e-06	1.8465e-06	199.5	64.518	60.203	17.994	1.776e-06	17.735	137.405	85.729	358.710	39.596	172.877	129.295	37.632	44.325	146.316	153.509	41.047	44.577	48.449	52.231	26.898	47.534	-8191	255	
1751.924	1	1	0	0	0.091896	0.018671	0.11326	0.097428	0.11414	0.17573	0.09029	0.33474	0.095222	0.015393	0.040938	0.212	0.27629	0.05202	0.067182	0.13771	-2.3646	-2.9021	-2.2542	-3.0792	-2.7396	-2.3646	-3.2667	-2.6125	-2.5708	-3.1167	-2.2521	-2.9188	-2.6125	-2.3812	-3.1354	-2.4417	261.068	369.241	367.460	321.655	126.743	278.737	289.505	39.336	113.696	247.118	381.491	385.507	277.245	314.508	384.658	189.722	0.00013206	0.00056579	8.4444e-05	523.57	1.5258e-06	3.0431e-06	550.15	198.29	4.3721e-06	4.0723e-06	215.16	68.63	63.521	18.703	5.8955e-07	18.165	0.00017079	0.00016682	4.5181e-05	503.09	1.8805e-06	1.8654e-06	526.87	189.33	1.8826e-06	1.8546e-06	199.78	65.123	60.575	18.035	1.7627e-06	17.697	170.799	144.724	76.325	38.800	255.898	128.345	37.466	43.972	145.419	116.721	40.586	44.648	48.441	52.590	329.778	47.938	-8191	255	
1752.044	1	1	0	0	0.11218	0.14272	0.072715	0.082994	0.087497	0.19468	0.064537	0.1705	0.0097465	0.074394	0.028022	0.10446	0.066046	0.30698	0.10581	0.041002	-2.1583	-3.0625	-2.3104	-2.9542	-2.7375	-2.4437	-3.1125	-2.6021	-2.5708	-3.1667	-2.3979	-2.8375	-3.0396	-2.375	-3.1375	-2.7667	231.376	286.927	112.894	374.503	327.717	299.333	41.031	304.861	85.366	350.659	198.467	318.981	255.319	255.713	99.039	251.560	0.00016405	0.00039543	2.2485e-05	521.44	6.4226e-07	4.0299e-06	542.78	198.01	2.5895e-06	3.518e-06	214.19	67.072	62.607	18.714	3.4152e-06	18.127	0.00016984	0.00016683	4.4309e-05	501.73	1.8628e-06	1.8465e-06	520.26	188.85	1.8519e-06	1.788e-06	198	64.145	59.889	17.956	1.7234e-06	17.531	138.437	112.345	28.180	39.364	115.544	148.878	37.468	44.136	173.828	130.631	40.723	44.642	48.441	52.537	34.773	47.472	-8191	255	
1752.140	1	1	0	0	0.13617	0.20638	0.16842	0.023045	0.20382	0.35304	0.12583	0.21808	0.3657	0.052013	0.25551	0.12077	0.22849	0.15318	0.25	0.10629	-2.0917	-3.1021	-2.3875	-2.7896	-2.9146	-2.2188	-3.0708	-2.6646	-2.4375	-3.2938	-2.5521	-2.8875	-3.0667	-2.3896	-2.8187	-2.7438	108.943	100.229	65.940	293.488	256.154	278.801	360.788	379.223	214.134	152.492	266.184	102.406	266.086	365.536	369.901	37.289	0.00019702	0.00013361	0.00015467	518.06	2.6102e-06	4.5719e-06	543.26	195.99	2.4374e-06	6.0964e-06	212.15	67.835	62.855	18.697	3.8464e-06	18.263	0.00016804	0.00016256	4.4288e-05	498.72	1.8394e-06	1.7838e-06	520.24	187.27	1.8233e-06	1.7432e-06	197.71	64.481	59.831	17.844	1.735e-06	17.693	147.320	103.982	75.611	39.167	320.764	166.730	37.418	44.037	190.855	213.690	40.657	44.632	48.203	52.444	205.393	47.584	-8191	255	
1752.237	1	1	0	0	0.16559	0.13808	0.28578	0.13874	0.11825	0.26595	0.11737	0.1206	0.07108	0.010681	0.25157	0.056791	0.29564	0.43753	0.1587	0.14088	-2.1521	-2.8563	-2.3917	-2.7042	-3.1188	-2.3854	-2.9437	-2.8833	-2.4271	-3.0187	-2.6479	-2.6688	-3.2188	-2.4417	-2.7854	-2.9708	184.872	52.913	192.269	311.251	139.777	68.721	381.103	214.928	320.642	27.548	338.034	126.870	324.807	385.208	188.927	364.388	0.00019732	0.00066437	7.6994e-05	514.01	3.1584e-06	2.4259e-06	544.71	196.46	1.0428e-06	3.5585e-06	211.79	68.266	63.312	18.717	3.0184e-06	18.226	0.00016458	0.00015838	4.5528e-05	497.92	1.8031e-06	1.7363e-06	521.89	187.62	1.818e-06	1.7193e-06	198.85	65.083	60.102	17.888	1.8172e-06	17.737	151.613	185.928	63.435	39.271	196.579	181.237	37.804	44.108	308.587	385.228	40.793	44.632	48.466	51.896	188.091	47.903	-8191	255	
1752.333	1	1	0	0	0.18188	0.27345	0.11638	0.16754	0.11307	0.097482	0.27728	0.24709	0.084121	0.1343	0.36663	0.20458	0.11306	0.26078	0.26418	0.10371	-1.7583	-3.125	-2.5833	-2.575	-3.1458	-2.3292	-3.0146	-2.9229	-2.4021	-3.2271	-2.725	-2.7042	-3.1208	-2.3	-2.9396	-3.1521	58.263	259.614	90.214	353.197	245.592	126.166	304.045	383.870	265.836	88.780	139.234	244.314	281.137	62.785	201.492	53.895	9.3716e-05	0.00021807	6.3314e-05	517.68	3.481e-06	6.5985e-06	546.02	198.1	3.9307e-06	2.5786e-06	212.68	68.794	63.375	18.892	2.9992e-06	18.226	0.00016563	0.00015604	4.6951e-05	499.71	1.7901e-06	1.7353e-06	524.55	188.59	1.8096e-06	1.7332e-06	200.46	65.25	60.195	18.02	1.8727e-06	17.674	145.086	119.651	115.241	39.227	224.923	91.822	37.346	44.128	107.443	132.617	40.792	44.932	48.205	52.593	199.166	47.731	-8191	255	
1752.452	1	1	0	0	0.024635	0.18046	0.094703	0.072413	0.24312	0.056888	0.065715	0.09064	0.16615	0.14504	0.079703	0.08513	0.2253	0.059909	0.085535	0.20865	-1.9604	-2.9979	-2.6583	-2.5479	-3.1437	-2.45	-2.8833	-3.05	-2.1229	-2.8312	-2.8354	-2.4938	-3.0917	-2.5812	-2.5354	-3.1083	107.432	208.295	323.631	245.393	368.717	157.865	302.477	189.259	254.363	55.331	232.721	72.677	283.345	384.127	353.759	168.329	4.8342e-05	0.00024293	9.0436e-05	520.69	3.1002e-06	2.3844e-06	545.3	196.34	1.4986e-06	5.8858e-06	212.53	67.475	62.781	18.807	3.9382e-06	18.123	0.00016401	0.00015943	4.782e-05	499.09	1.766e-06	1.7827e-06	522.79	187.96	1.7587e-06	1.7557e-06	199.21	64.247	59.655	18.009	1.8227e-06	17.581	104.573	171.211	76.334	39.181	123.539	211.051	37.485	44.071	330.934	190.983	40.668	44.785	48.372	52.523	123.400	47.743	-8191	255	
1752.523	1	1	0	0	0.19933	0.15156	0.12556	0.19186	0.17585	0.064553	0.26399	0.27349	0.029968	0.053018	0.11441	0.2193	0.094767	0.38287	0.11089	0.081533	-1.7083	-2.975	-2.7229	-2.4792	-3.0021	-2.6854	-2.5187	-3.2792	-2.2792	-2.7687	-2.8396	-2.4917	-3.0312	-2.6104	-2.4396	-3.1604	127.506	281.534	145.463	343.050	271.291	121.131	281.116	182.112	333.020	224.833	281.131	360.864	40.836	358.030	96.334	41.301	0.0001162	0.00063927	1.7496e-05	523.56	2.1592e-07	1.3189e-06	552.54	198.42	3.7457e-06	2.6461e-06	215.71	67.723	63.287	18.686	6.9575e-07	18.234	0.00015754	0.00016076	4.6783e-05	502.28	1.6786e-06	1.8198e-06	527.08	189.2	1.7172e-06	1.7969e-06	200.16	64.128	59.54	17.983	1.8105e-06	17.63	148.947	117.063	75.205	39.285	142.827	338.466	37.871	43.953	83.466	217.034	40.764	44.930	48.620	52.551	297.210	47.711	-8191	255	
1752.621	1	1	0	0	0.1403	0.13299	0.10435	0.12183	0.14744	0.082404	0.16373	0.13786	0.15878	0.24933	0.18227	0.2629	0.078136	0.10445	0.19652	0.19705	-2.1229	-2.8604	-2.8021	-2.5438	-2.9521	-2.7271	-2.4813	-3.0625	-2.3417	-2.8854	-2.8438	-2.3333	-2.9625	-2.6625	-2.4896	-3.1792	385.497	223.790	86.455	89.605	338.517	223.920	171.035	66.084	309.396	367.825	157.502	94.850	269.972	47.170	227.815	245.133	0.00012534	0.00043148	2.4813e-05	524.32	2.4758e-06	4.8381e-06	550.9	199.72	3.5261e-06	4.7029e-06	215.26	68.287	62.589	18.873	1.7116e-06	18.491	0.00015528	0.00016541	4.5418e-05	501.89	1.6717e-06	1.817e-06	530.93	190.21	1.7098e-06	1.8033e-06	201.04	64.529	59.389	18.05	1.7782e-06	17.73	139.102	62.217	145.394	39.317	244.898	97.056	37.522	44.144	121.892	196.854	40.752	44.743	48.257	52.133	248.571	47.374	-8191	255	
1752.740	1	1	0	0	0.049245	0.28873	0.22657	0.16849	0.078442	0.067991	0.13817	0.058111	0.24087	0.17737	0.1782	0.10841	0.10532	0.17737	0.10135	0.22471	-1.9875	-2.7125	-3.0917	-2.4708	-3.0542	-2.7604	-2.35	-3.0479	-2.5625	-2.775	-3.025	-2.3958	-2.9729	-2.9417	-2.3875	-3.2042	120.010	251.851	61.993	362.971	142.506	259.212	165.638	345.485	248.473	91.821	25.882	365.943	262.788	332.657	231.002	264.976	0.00010435	0.00020494	1.3596e-05	523.99	2.9137e-06	1.5771e-07	552.56	200.57	2.9202e-06	3.2689e-06	217.12	68.136	62.997	18.785	1.3493e-06	18.26	0.00015898	0.00016581	4.5202e-05	503.56	1.7278e-06	1.8289e-06	531.51	190.72	1.7771e-06	1.8229e-06	202.57	64.535	59.696	18.131	1.7903e-06	17.584	136.110	107.040	151.777	39.573	218.902	260.629	37.681	43.782	319.901	79.812	40.705	44.802	48.556	52.393	219.654	47.470	-8191	255	
1752.836	1	1	0	0	0.2011	0.21524	0.043546	0.20768	0.15469	0.082004	0.30596	0.084021	0.1345	0.14936	0.10045	0.27456	0.13797	0.17985	0.28183	0.15269	-2.2104	-2.6167	-3.2062	-2.3625	-2.8375	-2.9437	-2.4396	-3.0604	-2.7458	-2.5604	-3.1521	-2.3958	-2.7167	-3.0625	-2.3917	-2.9792	161.051	221.222	266.366	95.743	228.585	179.883	385.497	91.474	261.912	322.306	51.436	86.830	309.950	47.779	230.095	103.430	0.00013849	0.00036182	3.0876e-05	525.37	1.9246e-06	1.4066e-06	552.43	199.75	3.5585e-06	3.6729e-06	215.64	67.793	62.747	18.862	1.0452e-06	18.245	0.00016379	0.00016425	4.507e-05	502.96	1.7972e-06	1.8243e-06	528.77	190.23	1.8285e-06	1.8157e-06	200.91	63.982	59.725	18.111	1.7509e-06	17.465	143.172	190.285	128.941	38.933	361.989	127.109	37.708	44.043	246.775	186.146	41.144	44.399	48.602	52.253	169.032	48.186	-8191	255	
1752.932	1	1	0	0	0.3583	0.15514	0.075583	0.16359	0.059885	0.21596	0.027739	0.10847	0.03951	0.30868	0.18381	0.098541	0.30091	0.21201	0.32594	0.16297	-2.3125	-2.3104	-3.0104	-2.5042	-2.6833	-2.9229	-2.2833	-3.0125	-2.6729	-2.55	-3.1604	-2.5104	-2.7354	-2.8854	-2.2833	-3.0333	321.803	49.528	263.028	375.200	152.332	92.246	241.129	260.868	258.814	249.513	263.189	152.509	157.085	99.600	301.019	184.496	0.00017512	0.00036168	0.00012175	522.7	1.1177e-06	4.672e-07	551.58	200.72	6.8788e-07	5.7612e-06	214.9	67.706	62.496	18.786	2.0048e-06	18.331	0.0001664	0.00016279	4.368e-05	503.08	1.8058e-06	1.7666e-06	528.28	190.51	1.8083e-06	1.7697e-06	200.23	64.137	59.496	17.985	1.6793e-06	17.64	149.601	161.425	27.164	39.469	70.337	261.240	37.715	44.120	349.029	98.666	40.972	45.315	48.409	52.568	172.695	47.411	-8191	255	
1753.053	1	1	0	0	0.36408	0.073002	0.084634	0.11903	0.10838	0.056263	0.1319	0.27845	0.21012	0.26609	0.1195	0.14543	0.022175	0.31601	0.26061	0.11735	-2.4667	-2.4646	-3.0083	-2.6583	-2.7417	-2.9625	-2.4104	-3.1104	-2.8354	-2.4688	-3.1333	-2.4875	-2.8187	-2.8854	-2.4333	-2.9146	384.224	50.908	131.591	183.374	369.253	181.191	248.147	45.276	263.251	302.771	314.629	385.415	277.717	266.768	349.709	246.153	0.0001164	0.00032756	3.3591e-05	526.78	2.9264e-06	2.9187e-06	558	202.05	7.683e-07	4.2808e-06	217.48	67.99	62.982	18.627	2.3495e-06	18.353	0.00016181	0.00015916	4.184e-05	504.71	1.7445e-06	1.7099e-06	533.2	192.09	1.7633e-06	1.7293e-06	201.14	64.385	59.702	17.851	1.6445e-06	17.857	126.930	60.429	35.694	39.368	276.269	167.632	37.478	43.957	49.880	105.178	41.229	44.737	48.572	52.321	127.942	48.061	-8191	255	
#DATA ENDS
