BOXY.EXE: ISS Imagent and Oximeter Data Acquisition Program Version 0.80
Ascii Record File

#ACQ INFORMATION
2  Detector Channels 
16  External MUX Channels 
1  Auxiliary Channels 
5000  Waveform (CCF) Frequency (Hz)
1  Waveforms Skipped 
30  Waveforms Averaged 
1  Cycles Averaged 
16  Acquisitions per Waveform 
10.0806  Updata Rate (Hz) 

#FILE INFORMATION
TRUE -- External MUX Channel results are PARSED.
FALSE -- AC DC and Phase are NOT grouped.
TRUE -- Companion Program Settings File CREATED.
FALSE -- AC data not excluded
FALSE -- DC data not excluded
FALSE -- Phase data not excluded
FALSE -- Auxillary Chn. data not excluded
Tab delimiters

#CALIBRATION STATE
TRUE -- Waveform Calibration Values APPLIED.


#AUX CALIBRATION VALUES
Val Type	aux-1	

Term	1.0000e+00	
Factor	0.0000e+00	


#WF CALIBRATION VALUES
A = Detector Channel
Val Type	A-AC1	A-AC2	A-AC3	A-AC4	A-AC5	A-AC6	A-AC7	A-AC8	A-AC9	A-AC10	A-AC11	A-AC12	A-AC13	A-AC14	A-AC15	A-AC16	A-DC1	A-DC2	A-DC3	A-DC4	A-DC5	A-DC6	A-DC7	A-DC8	A-DC9	A-DC10	A-DC11	A-DC12	A-DC13	A-DC14	A-DC15	A-DC16	A-Ph1	A-Ph2	A-Ph3	A-Ph4	A-Ph5	A-Ph6	A-Ph7	A-Ph8	A-Ph9	A-Ph10	A-Ph11	A-Ph12	A-Ph13	A-Ph14	A-Ph15	A-Ph16	

Term	0.00000e+00	0.00000e+00	0.00000e+00	0.00000e+00	0.00000e+00	0.00000e+00	0.00000e+00	0.00000e+00	0.00000e+00	0.00000e+00	0.00000e+00	0.00000e+00	0.00000e+00	0.00000e+00	0.00000e+00	0.00000e+00	0.00000e+00	0.00000e+00	0.00000e+00	0.00000e+00	0.00000e+00	0.00000e+00	0.00000e+00	0.00000e+00	0.00000e+00	0.00000e+00	0.00000e+00	0.00000e+00	0.00000e+00	0.00000e+00	0.00000e+00	0.00000e+00	0.00000e+00	0.00000e+00	0.00000e+00	0.00000e+00	0.00000e+00	0.00000e+00	0.00000e+00	0.00000e+00	0.00000e+00	0.00000e+00	0.00000e+00	0.00000e+00	0.00000e+00	0.00000e+00	0.00000e+00	0.00000e+00	
Factor	1.00000e+00	1.00000e+00	1.00000e+00	1.00000e+00	1.00000e+00	1.00000e+00	1.00000e+00	1.00000e+00	1.00000e+00	1.00000e+00	1.00000e+00	1.00000e+00	1.00000e+00	1.00000e+00	1.00000e+00	1.00000e+00	1.00000e+00	1.00000e+00	1.00000e+00	1.00000e+00	1.00000e+00	1.00000e+00	1.00000e+00	1.00000e+00	1.00000e+00	1.00000e+00	1.00000e+00	1.00000e+00	1.00000e+00	1.00000e+00	1.00000e+00	1.00000e+00	X	X	X	X	X	X	X	X	X	X	X	X	X	X	X	X	

B = Detector Channel
Val Type	B-AC1	B-AC2	B-AC3	B-AC4	B-AC5	B-AC6	B-AC7	B-AC8	B-AC9	B-AC10	B-AC11	B-AC12	B-AC13	B-AC14	B-AC15	B-AC16	B-DC1	B-DC2	B-DC3	B-DC4	B-DC5	B-DC6	B-DC7	B-DC8	B-DC9	B-DC10	B-DC11	B-DC12	B-DC13	B-DC14	B-DC15	B-DC16	B-Ph1	B-Ph2	B-Ph3	B-Ph4	B-Ph5	B-Ph6	B-Ph7	B-Ph8	B-Ph9	B-Ph10	B-Ph11	B-Ph12	B-Ph13	B-Ph14	B-Ph15	B-Ph16	

Term	0.00000e+00	0.00000e+00	0.00000e+00	0.00000e+00	0.00000e+00	0.00000e+00	0.00000e+00	0.00000e+00	0.00000e+00	0.00000e+00	0.00000e+00	0.00000e+00	0.00000e+00	0.00000e+00	0.00000e+00	0.00000e+00	0.00000e+00	0.00000e+00	0.00000e+00	0.00000e+00	0.00000e+00	0.00000e+00	0.00000e+00	0.00000e+00	0.00000e+00	0.00000e+00	0.00000e+00	0.00000e+00	0.00000e+00	0.00000e+00	0.00000e+00	0.00000e+00	-3.63263e+01	-1.44616e+02	-1.36455e+02	-1.83436e+02	-6.47196e+01	-8.14628e+01	-1.60695e+02	-1.62015e+02	-4.27404e+01	-5.87643e+01	-1.72707e+02	-1.72386e+02	-1.83401e+02	-1.78286e+02	-6.56670e+01	-1.51169e+02	
Factor	2.16242e-05	1.40199e-04	3.24853e-05	1.48686e-01	1.47159e-06	1.31807e-06	1.62454e-01	5.10240e-02	1.11014e-06	1.35182e-06	7.91605e-02	2.65441e-02	2.35584e-02	8.15133e-03	1.44641e-06	1.17866e-02	2.30442e-06	2.49268e-06	6.93736e-07	7.79555e-02	2.69482e-08	2.73278e-08	7.97935e-02	2.67642e-02	2.70149e-08	2.74240e-08	4.00788e-02	1.34491e-02	1.24290e-02	4.29815e-03	2.72636e-08	5.99323e-03	X	X	X	X	X	X	X	X	X	X	X	X	X	X	X	X	



#DISTANCE SETTINGS
A = Detector Channel
A-1	A-2	A-3	A-4	A-5	A-6	A-7	A-8	A-9	A-10	A-11	A-12	A-13	A-14	A-15	A-16	

2.5000e+00	3.0000e+00	2.5000e+00	3.0000e+00	2.0000e+00	3.0000e+00	1.5000e+00	3.0000e+00	3.0000e+00	3.0000e+00	3.0000e+00	3.0000e+00	3.0000e+00	3.0000e+00	1.5000e+00	3.0000e+00	

B = Detector Channel
B-1	B-2	B-3	B-4	B-5	B-6	B-7	B-8	B-9	B-10	B-11	B-12	B-13	B-14	B-15	B-16	

1.0000e+01	1.0000e+01	1.0000e+01	1.4400e+00	1.0000e+01	1.0000e+01	1.5100e+00	1.9400e+00	1.0000e+01	1.0000e+01	1.9900e+00	2.4900e+00	2.4100e+00	2.9000e+00	1.0000e+01	2.9800e+00	




#DATA BEGINS
time	group	step	mark	flag	A-AC1	A-AC2	A-AC3	A-AC4	A-AC5	A-AC6	A-AC7	A-AC8	A-AC9	A-AC10	A-AC11	A-AC12	A-AC13	A-AC14	A-AC15	A-AC16	A-DC1	A-DC2	A-DC3	A-DC4	A-DC5	A-DC6	A-DC7	A-DC8	A-DC9	A-DC10	A-DC11	A-DC12	A-DC13	A-DC14	A-DC15	A-DC16	A-Ph1	A-Ph2	A-Ph3	A-Ph4	A-Ph5	A-Ph6	A-Ph7	A-Ph8	A-Ph9	A-Ph10	A-Ph11	A-Ph12	A-Ph13	A-Ph14	A-Ph15	A-Ph16	B-AC1	B-AC2	B-AC3	B-AC4	B-AC5	B-AC6	B-AC7	B-AC8	B-AC9	B-AC10	B-AC11	B-AC12	B-AC13	B-AC14	B-AC15	B-AC16	B-DC1	B-DC2	B-DC3	B-DC4	B-DC5	B-DC6	B-DC7	B-DC8	B-DC9	B-DC10	B-DC11	B-DC12	B-DC13	B-DC14	B-DC15	B-DC16	B-Ph1	B-Ph2	B-Ph3	B-Ph4	B-Ph5	B-Ph6	B-Ph7	B-Ph8	B-Ph9	B-Ph10	B-Ph11	B-Ph12	B-Ph13	B-Ph14	B-Ph15	B-Ph16	aux-1	digaux	

2133.287	1	1	0	256	0.2036	0.24135	0.10246	0.19005	0.25975	0.047428	0.1456	0.082831	0.11751	0.028568	0.12822	0.25675	0.079179	0.25958	0.045793	0.31466	-2.2708	-2.4104	-2.8833	-2.8917	-2.4333	-3.0021	-2.775	-2.7021	-2.8354	-2.3875	-2.9271	-2.875	-2.3854	-2.9854	-2.6813	-2.7729	9.794	331.439	327.458	-16.086	18.998	129.048	137.144	34.515	323.809	-8.248	220.089	326.805	238.276	336.013	1.035	269.106	0.00037256	0.00055965	8.7098e-05	681.99	2.5876e-06	4.3785e-06	934.18	219.21	2.838e-06	5.3495e-06	437.23	163.9	60.099	23.852	6.0316e-06	87.973	9.8538e-05	5.6698e-05	1.5334e-05	607.51	6.1341e-07	5.8481e-07	830.77	195.13	6.1476e-07	6.3464e-07	385.48	145.78	53.261	21.301	6.395e-07	78.14	234.168	49.847	64.477	-9.992	145.739	85.659	-10.002	-5.622	161.481	125.908	-6.669	-2.342	-1.855	1.871	136.984	0.751	-8191	255	
2133.383	1	1	0	0	0.31848	0.18124	0.21077	0.040878	0.033892	0.068102	0.10575	0.10289	0.10421	0.13153	0.14896	0.21382	0.41572	0.22504	0.32351	0.28048	-2.4896	-2.5875	-2.7146	-2.8729	-2.4771	-2.6979	-2.7146	-2.725	-3.0062	-2.6042	-2.7771	-2.9125	-2.5083	-3.0167	-2.5229	-2.7458	191.942	165.270	250.377	160.894	140.138	-1.886	304.029	-20.317	35.761	236.872	322.426	264.568	257.590	40.667	260.876	287.920	0.00043328	0.0007159	0.0001405	684.7	4.871e-06	2.976e-06	940.16	222.07	4.0809e-06	6.5759e-06	437.54	165.46	59.851	24.089	5.4508e-06	87.819	0.00010059	5.9248e-05	1.6138e-05	610.15	6.3306e-07	6.2279e-07	836.9	196.92	6.5517e-07	5.8556e-07	387.64	146.84	53.282	21.521	6.1996e-07	78.246	230.023	52.804	67.406	-10.482	128.577	147.512	-10.093	-5.625	168.133	148.182	-6.273	-2.209	-1.758	2.410	100.750	0.730	-8191	255	
2133.455	1	1	0	0	0.17465	0.32709	0.13066	0.16866	0.12592	0.14059	0.23682	0.2525	0.30922	0.09015	0.31449	0.26683	0.077267	0.12418	0.066299	0.17779	-2.5104	-2.5	-2.6375	-2.8708	-2.5917	-2.6917	-2.8708	-2.55	-2.8396	-2.5687	-2.8292	-3.0604	-2.3937	-2.9021	-2.7042	-2.6292	104.203	213.911	232.726	-3.637	266.587	217.829	303.179	-15.796	58.268	156.973	331.428	324.004	260.372	333.064	267.409	242.157	0.00040292	0.00066409	0.00010413	696.37	5.0991e-06	3.9545e-06	949.22	221.7	4.0437e-06	5.0911e-06	438.09	164.64	60.442	24.179	3.9097e-06	88.557	9.9964e-05	5.5618e-05	1.6465e-05	614.61	6.3659e-07	6.1835e-07	844.53	197.75	6.5264e-07	5.9064e-07	388.84	147.18	53.702	21.605	5.7464e-07	78.866	232.764	36.649	70.880	-10.355	120.181	98.776	-9.623	-5.894	158.177	109.709	-6.486	-2.028	-2.103	2.104	144.338	0.678	-8191	255	
2133.551	1	1	0	0	0.16465	0.077508	0.035265	0.1675	0.096102	0.067392	0.22462	0.18803	0.26654	0.35923	0.073077	0.16543	0.22181	0.18749	0.31929	0.19268	-2.4	-2.5792	-2.7854	-3.0896	-2.4229	-2.7396	-3.0312	-2.45	-2.8625	-2.5208	-2.5875	-3.15	-2.525	-2.8042	-2.8021	-2.4396	133.632	168.236	154.823	262.768	31.385	73.262	278.684	311.706	29.601	178.051	308.118	23.020	-8.718	234.643	148.232	298.598	0.00040979	0.00054023	6.7357e-05	700.74	3.4813e-06	4.5668e-06	957.95	224.91	4.0947e-06	3.2342e-06	441.33	166.98	60.396	24.158	4.893e-06	88.816	0.00010052	5.607e-05	1.5848e-05	621.01	6.1133e-07	5.9876e-07	850.04	200.07	6.1397e-07	5.9784e-07	391.38	148.64	54.023	21.658	6.2712e-07	78.954	226.581	56.588	53.504	-10.083	160.608	109.863	-9.912	-5.605	149.303	136.096	-6.744	-2.232	-2.320	2.040	135.046	1.076	-8191	255	
2133.647	1	1	0	0	0.20249	0.26362	0.21007	0.14961	0.15069	0.058442	0.14375	0.16043	0.16891	0.16252	0.089679	0.32553	0.19832	0.1356	0.28263	0.076597	-2.3187	-2.475	-2.4542	-3.0042	-2.4896	-2.7229	-2.9938	-2.5187	-2.8104	-2.6833	-2.7104	-2.9042	-2.7104	-2.6958	-2.8896	-2.625	-21.127	134.593	103.262	29.289	302.143	126.069	290.857	-8.103	49.048	234.199	256.479	298.124	272.583	281.958	265.606	334.534	0.00040132	0.00043892	0.00016489	691.33	5.4016e-06	4.2036e-06	946.86	223.54	4.7488e-06	4.433e-06	441.16	166.04	60.024	24.29	2.5827e-06	88.838	9.8735e-05	5.4039e-05	1.6249e-05	613.23	6.2638e-07	5.7861e-07	842.9	197.88	6.7233e-07	5.8876e-07	389.86	147.99	53.753	21.703	5.9429e-07	79.101	230.049	35.788	73.003	-10.639	175.199	134.554	-9.960	-5.340	163.529	140.258	-6.638	-2.416	-1.879	2.093	131.970	0.925	-8191	255	
2133.766	1	1	0	0	0.16177	0.24819	0.21811	0.38341	0.097751	0.29113	0.28118	0.26367	0.1848	0.21161	0.18609	0.12527	0.075434	0.25818	0.17754	0.1011	-2.4375	-2.8771	-2.5812	-3.025	-2.6063	-2.65	-3	-2.5146	-2.825	-2.6833	-2.6583	-3.1104	-2.6688	-2.5625	-3.0104	-2.525	46.820	85.317	26.134	287.004	76.460	104.310	255.546	307.494	298.793	300.483	275.574	52.059	224.936	70.907	294.558	257.001	0.00039868	0.00042739	8.8502e-05	689.7	6.5754e-06	3.9626e-06	947	220.48	2.271e-06	6.4023e-06	437.07	163.82	60.263	24.039	8.153e-06	87.823	0.00010026	5.5436e-05	1.5631e-05	613.74	6.0628e-07	6.3065e-07	839.4	196.56	6.353e-07	6.063e-07	387.11	146.23	53.719	21.514	6.19e-07	78.228	226.971	30.466	62.858	-9.525	110.006	133.447	-10.258	-5.812	158.941	127.820	-6.428	-2.434	-1.336	2.088	159.218	0.788	-8191	255	
2133.862	1	1	0	0	0.233	0.12723	0.31339	0.066449	0.037279	0.13317	0.27069	0.25469	0.043926	0.059735	0.16751	0.30423	0.29078	0.15203	0.18336	0.093919	-2.3771	-2.8979	-2.2687	-3.075	-2.4479	-2.7229	-3.0042	-2.5479	-2.625	-2.7583	-2.5396	-3.1792	-2.6604	-2.5542	-2.9708	-2.6042	165.121	207.660	91.067	265.366	281.093	67.170	281.653	242.189	286.465	233.682	284.123	272.067	86.512	323.504	151.895	239.766	0.00041397	0.00044748	0.00017006	692.59	3.0952e-06	4.3318e-06	938	218.56	2.8924e-06	4.9225e-06	433.95	163.43	59.965	24.12	2.6628e-06	88.233	0.0001023	5.7119e-05	1.5476e-05	612.29	6.1363e-07	6.1106e-07	833.9	195.91	6.9361e-07	5.659e-07	384.95	145.83	53.424	21.493	6.6785e-07	78.499	227.038	53.596	64.179	-10.062	122.354	111.657	-10.008	-5.214	195.146	140.761	-6.388	-2.537	-1.746	1.861	119.498	0.917	-8191	255	
2133.958	1	1	0	0	0.10908	0.18669	0.076573	0.081889	0.04683	0.17064	0.17063	0.13122	0.22467	0.26561	0.12349	0.218	0.20462	0.26781	0.22925	0.11019	-2.2771	-2.675	-2.2979	-2.9375	-2.825	-2.5271	-3.1063	-2.5062	-2.7792	-2.7625	-2.6	-2.9437	-2.7708	-2.6646	-2.9146	-2.7875	153.621	158.701	175.463	112.347	164.173	-19.465	295.261	279.690	161.401	274.520	320.171	300.236	-1.908	211.957	144.198	221.804	0.00042281	0.0005041	0.00011537	681.95	3.5177e-06	4.0149e-06	944.12	221.06	3.0148e-06	3.9645e-06	439.81	164.49	60.604	24.105	2.8086e-06	88.343	9.9032e-05	5.6329e-05	1.5446e-05	607.6	6.0813e-07	6.3047e-07	836.51	196.82	6.8314e-07	6.3858e-07	387.96	146.6	53.649	21.626	6.3581e-07	78.627	229.594	44.557	70.939	-10.166	77.827	117.939	-9.902	-5.426	150.257	136.924	-6.802	-2.056	-1.750	1.866	131.571	0.745	-8191	255	
2134.054	1	1	0	0	0.1556	0.066028	0.23945	0.022256	0.099818	0.11188	0.22877	0.08591	0.12536	0.36046	0.13764	0.17537	0.030885	0.18098	0.14895	0.14934	-2.1396	-2.8771	-2.4625	-2.7854	-2.7708	-2.6562	-3.1292	-2.7729	-2.5354	-3.0146	-2.7542	-2.9417	-2.875	-2.575	-2.9542	-2.9062	160.056	167.101	195.050	21.547	49.126	3.519	-8.245	201.497	327.203	206.053	252.333	316.070	304.550	62.735	268.535	254.229	0.00038574	0.00032346	0.00017907	686.71	7.7106e-06	3.8559e-06	939.03	222.88	4.443e-06	2.9703e-06	435.14	164.02	59.829	24.095	4.2144e-06	88.405	9.7127e-05	5.756e-05	1.4856e-05	610.3	6.4647e-07	5.8612e-07	836.8	197.73	6.3935e-07	6.1755e-07	387.33	146.41	53.478	21.586	6.4461e-07	78.733	225.142	57.162	61.153	-10.110	140.777	118.127	-9.994	-5.380	134.650	151.243	-6.955	-2.365	-1.647	2.087	109.360	0.726	-8191	255	
2134.151	1	1	0	0	0.14186	0.1778	0.20322	0.034916	0.099832	0.17738	0.2017	0.22888	0.20354	0.2394	0.11812	0.19987	0.1451	0.18893	0.08444	0.2284	-1.9896	-2.9771	-2.6063	-2.8937	-2.7375	-2.4708	-2.9958	-2.6396	-2.5833	-3.0938	-2.7479	-2.775	-2.7646	-2.5208	-2.9771	-2.8917	55.153	333.488	97.388	305.164	197.576	5.860	296.655	259.284	262.283	44.306	297.999	282.264	239.956	72.182	276.788	266.318	0.00037882	0.00054567	0.00015095	686.84	6.3056e-06	3.2313e-06	936.95	221.31	4.4408e-06	4.7454e-06	437.6	163.92	60.529	24.372	6.0375e-06	88.204	0.00010026	5.5758e-05	1.5168e-05	607.9	6.2368e-07	6.0759e-07	832.98	196.36	6.5235e-07	6.0161e-07	386.87	146.04	53.644	21.663	6.4717e-07	78.512	233.834	56.974	48.636	-9.901	126.102	90.424	-9.940	-5.338	156.035	133.971	-6.762	-2.216	-1.802	1.999	95.894	0.580	-8191	255	
2134.247	1	1	0	0	0.095079	0.32525	0.19137	0.12396	0.1707	0.25065	0.11934	0.36473	0.1995	0.207	0.097905	0.10375	0.26772	0.13368	0.18498	0.21183	-2.1333	-2.9583	-2.7104	-2.7729	-3.0125	-2.5854	-2.9292	-2.975	-2.5417	-2.9229	-2.9271	-2.8354	-3.225	-2.4979	-2.7313	-2.875	316.858	-4.397	19.125	177.361	295.808	156.771	-18.333	256.881	181.625	184.249	257.450	242.749	294.591	245.486	226.066	-14.698	0.00040157	0.00060344	0.00011887	690.2	5e-06	3.7637e-06	933.97	220.3	4.2332e-06	5.388e-06	434.66	162.79	60.052	23.871	3.9104e-06	87.978	9.68e-05	5.6075e-05	1.4886e-05	608.52	6.2318e-07	5.8447e-07	827.99	195.26	6.4386e-07	5.7665e-07	384.18	145.52	53.275	21.296	6.165e-07	78.264	228.319	52.281	48.504	-9.889	135.808	83.675	-9.644	-5.362	107.930	122.171	-6.181	-2.290	-1.455	2.057	121.397	0.802	-8191	255	
2134.367	1	1	0	0	0.21452	0.27538	0.080709	0.18224	0.29612	0.30704	0.065106	0.2512	0.045151	0.034294	0.21011	0.22558	0.20595	0.32379	0.059688	0.30265	-2.15	-3.0187	-2.5271	-2.5229	-2.8833	-2.5396	-2.7417	-2.8854	-2.5042	-2.9396	-2.7708	-2.6396	-2.9125	-2.4521	-2.8042	-2.8812	279.228	54.217	237.026	279.483	262.712	183.675	261.426	80.457	168.536	10.263	259.066	331.814	-15.276	299.236	201.242	285.494	0.00035099	0.00060351	0.00010606	679.1	4.664e-06	6.2943e-06	932.74	218.49	4.9057e-06	3.7991e-06	431.69	162.49	59.664	23.889	4.375e-06	87.196	9.9849e-05	5.4844e-05	1.4249e-05	603.88	6.5231e-07	5.8692e-07	829.73	194.08	6.0868e-07	6.1767e-07	382.61	144.53	52.934	21.157	6.545e-07	77.583	233.300	39.785	67.146	-10.178	131.922	107.758	-10.008	-5.243	169.110	109.079	-6.414	-2.381	-1.829	1.780	133.161	0.744	-8191	255	
2134.464	1	1	0	0	0.14201	0.15228	0.20722	0.17204	0.29146	0.11601	0.20311	0.098729	0.046599	0.32981	0.035251	0.33402	0.23262	0.071011	0.1188	0.29816	-2.0938	-2.9521	-2.5458	-2.5333	-2.9292	-2.5792	-2.7583	-2.9729	-2.6125	-2.9271	-2.8937	-2.675	-2.9292	-2.5396	-2.5812	-3.05	139.005	246.738	5.379	16.443	116.741	320.744	201.491	5.859	11.483	151.393	320.751	277.867	308.603	278.349	167.197	258.131	0.00041596	0.00048378	0.00010313	675.35	5.3172e-06	3.4248e-06	919.7	216.53	2.5112e-06	1.9757e-06	427.24	161.38	59.063	23.569	4.0034e-06	86.397	0.00010093	5.6241e-05	1.5267e-05	599.38	6.12e-07	5.8533e-07	818.91	192.87	6.1054e-07	5.7425e-07	378.58	143.2	52.492	20.984	6.3678e-07	76.926	228.284	55.565	41.306	-10.247	139.686	112.526	-9.786	-5.769	151.487	127.514	-6.698	-2.654	-1.533	1.665	133.205	0.632	-8191	255	
2134.560	1	1	0	0	0.13288	0.25267	0.068973	0.2521	0.14726	0.20267	0.065973	0.048	0.26807	0.28593	0.22872	0.11421	0.17795	0.40241	0.31602	0.14664	-1.9438	-2.6937	-2.7667	-2.6417	-2.7833	-2.6479	-2.8042	-3.0271	-2.4229	-2.8396	-2.7292	-2.7229	-2.9271	-2.5625	-2.7354	-2.9562	250.674	307.574	168.051	67.935	76.146	24.316	96.784	311.819	8.357	192.428	1.273	286.070	131.090	22.998	105.769	271.816	0.00036978	0.00051203	0.00012409	665.42	5.1647e-06	5.3432e-06	912.47	216.83	4.1281e-06	2.8481e-06	425.75	158.97	58.314	23.383	3.6148e-06	86.48	9.8653e-05	5.595e-05	1.4521e-05	588.54	6.0291e-07	5.654e-07	811.07	191.49	6.1667e-07	6.2555e-07	376.9	142.17	51.939	20.89	6.1593e-07	76.914	226.143	73.302	53.413	-10.413	133.327	118.129	-9.987	-5.352	140.706	150.313	-6.931	-2.426	-1.706	1.712	141.276	0.785	-8191	255	
2134.656	1	1	0	0	0.12313	0.41994	0.19973	0.11548	0.065164	0.10172	0.16125	0.13809	0.1832	0.23138	0.35616	0.11024	0.031225	0.12751	0.10746	0.18334	-2.2062	-2.6292	-2.8812	-2.6167	-2.8604	-2.775	-2.6583	-2.9854	-2.4479	-2.8417	-2.9396	-2.6167	-2.9125	-2.8479	-2.6125	-3.0354	215.540	157.477	268.821	35.790	37.185	40.101	271.168	28.670	-12.068	118.921	312.374	165.996	-1.127	88.269	185.842	274.982	0.00038206	0.00077863	0.00015689	659.67	4.508e-06	4.6168e-06	902.42	214.1	2.9386e-06	3.7215e-06	423.71	158.83	58.027	23.193	4.9427e-06	85.63	9.4073e-05	5.6449e-05	1.5333e-05	584.44	6.2115e-07	5.5134e-07	803.97	189.12	6.254e-07	6.0767e-07	375.91	141.62	51.55	20.77	6.2939e-07	76.528	225.454	50.918	55.195	-10.198	129.697	112.705	-9.766	-5.688	189.411	127.927	-6.351	-2.512	-1.998	2.250	114.770	0.907	-8191	255	
2134.750	1	1	0	0	0.093947	0.11383	0.14768	0.051958	0.13103	0.18329	0.12864	0.20646	0.15746	0.22655	0.15589	0.19525	0.34376	0.13051	0.041088	0.41385	-1.8583	-2.6083	-2.6729	-2.5896	-2.8646	-2.7062	-2.4729	-2.9458	-2.6208	-2.7208	-2.8667	-2.625	-2.7	-2.7229	-2.4792	-3.0729	36.808	316.121	12.801	324.675	121.914	39.407	248.317	15.463	129.657	137.883	206.830	12.760	226.321	131.124	129.401	279.825	0.00035668	0.00033611	0.00011495	653.92	4.3859e-06	4.5463e-06	899.5	210.34	3.646e-06	5.4713e-06	420.78	158.2	57.186	22.815	5.3796e-06	84.949	9.536e-05	5.7228e-05	1.4368e-05	580.93	6.0762e-07	5.617e-07	799.33	188.08	6.1442e-07	6.2618e-07	372.06	140.92	51.113	20.473	6.0497e-07	75.892	230.829	63.305	34.290	-10.058	148.230	125.100	-10.115	-5.655	156.763	131.191	-6.491	-2.333	-1.572	1.944	106.515	0.836	-8191	255	
2134.846	1	1	0	0	0.039938	0.16181	0.14497	0.14459	0.21351	0.21849	0.1563	0.17022	0.1652	0.35033	0.15671	0.35676	0.060866	0.24221	0.13702	0.37046	-2.1875	-2.7542	-2.9562	-2.475	-2.8187	-2.6729	-2.6708	-3.0104	-2.6958	-2.5854	-2.8812	-2.6312	-2.9021	-2.8646	-2.6375	-3.0271	140.919	319.775	326.135	273.032	284.836	266.194	295.273	241.035	243.156	322.197	293.388	322.869	218.164	296.718	-10.973	306.022	0.0003537	0.00038414	0.00015328	652.5	6.0077e-06	4.6948e-06	895.43	210.85	5.0828e-06	3.6667e-06	420.1	157.52	57.296	23.31	4.1673e-06	86.141	9.6728e-05	5.3374e-05	1.5741e-05	577.24	6.1004e-07	6.0616e-07	796.59	187.48	6.3502e-07	5.9653e-07	372.85	140.66	51.045	20.711	5.9014e-07	76.626	225.873	60.226	60.778	-10.471	144.933	121.094	-9.666	-5.703	166.231	156.229	-6.489	-2.440	-1.713	2.055	140.902	0.792	-8191	255	
2134.943	1	1	0	0	0.21562	0.17806	0.10521	0.074854	0.10275	0.1017	0.22436	0.31885	0.11722	0.044767	0.11097	0.10998	0.25839	0.34738	0.2832	0.20814	-2.25	-2.5938	-2.9354	-2.6708	-2.775	-2.8	-2.4229	-3.0167	-2.6625	-2.5604	-3.0729	-2.8312	-2.7687	-2.875	-2.2875	-2.9708	150.584	78.457	142.576	11.730	239.110	87.245	318.032	291.153	222.845	-14.973	-15.189	5.628	244.249	310.883	283.196	262.689	0.00038637	0.00039294	0.00012646	658.67	3.2622e-06	2.8785e-06	905.77	211.6	2.4445e-06	4.6382e-06	423.27	158.89	57.706	23.184	6.172e-06	86.71	9.209e-05	5.6018e-05	1.4696e-05	582.98	6.4266e-07	5.9495e-07	802.22	188.45	6.3012e-07	5.9207e-07	374.86	141.66	51.671	20.785	5.7981e-07	77.18	233.072	38.310	57.200	-10.056	118.517	101.363	-9.772	-5.350	172.088	114.910	-6.594	-2.406	-1.632	1.922	138.023	0.939	-8191	255	
2135.063	1	1	0	0	0.11761	0.28543	0.095322	0.11778	0.072601	0.27973	0.1145	0.075393	0.13721	0.26353	0.12436	0.14393	0.054722	0.047091	0.2229	0.24288	-2.0896	-2.4792	-2.7917	-2.6917	-2.6542	-3.0458	-2.6771	-2.9313	-2.7979	-2.5354	-3.0687	-2.7458	-2.6125	-3.1667	-2.3979	-2.8292	206.007	328.562	23.767	4.152	34.913	17.850	15.761	312.484	-17.282	169.071	-6.957	260.783	-12.599	220.634	166.081	247.471	0.00038724	0.00060721	0.00018326	661.31	5.0045e-06	4.4783e-06	909.5	213.33	4.5041e-06	7.4353e-06	425.96	159.21	57.899	23.443	5.9074e-06	86.936	9.6493e-05	5.3785e-05	1.5618e-05	586.2	6.5389e-07	6.1607e-07	807.69	189.96	6.326e-07	6.1081e-07	376.88	141.95	51.384	20.94	6.1082e-07	77.303	228.087	47.204	59.792	-10.095	126.896	119.950	-10.108	-5.912	148.168	128.130	-6.801	-2.185	-1.673	2.162	135.959	0.619	-8191	255	
2135.159	1	1	0	0	0.22345	0.16702	0.15644	0.14365	0.1515	0.10448	0.17875	0.22032	0.12476	0.18776	0.27015	0.26735	0.15484	0.26151	0.23285	0.13033	-2.4021	-2.4896	-2.8458	-2.7667	-2.6437	-2.9167	-2.5479	-2.8917	-2.9208	-2.3104	-2.8333	-2.725	-2.4583	-2.8604	-2.4583	-2.8375	201.484	137.429	89.315	261.552	335.954	278.167	303.798	299.809	112.828	167.271	274.895	287.567	331.417	-11.309	59.588	331.442	0.00037638	0.00047478	0.00014075	660.78	5.0953e-06	4.9132e-06	911.56	213.48	2.6486e-06	4.0719e-06	422.54	158.18	58.208	23.212	5.1485e-06	86.196	9.4476e-05	5.7036e-05	1.5473e-05	586.74	6.2059e-07	5.888e-07	809.54	189.42	6.3091e-07	6.1413e-07	375.22	141.05	51.49	20.734	5.7055e-07	76.421	234.612	48.300	61.828	-10.282	136.617	110.996	-9.724	-5.717	160.822	144.251	-6.691	-2.239	-2.069	2.164	116.114	0.869	-8191	255	
2135.255	1	1	0	0	0.24229	0.12771	0.34729	0.2939	0.35216	0.068768	0.35967	0.15972	0.17047	0.080078	0.063484	0.24793	0.017094	0.1807	0.18681	0.36836	-2.3792	-2.4521	-2.7812	-2.7396	-2.375	-2.95	-2.475	-2.7354	-2.9042	-2.5792	-2.9125	-2.875	-2.5438	-2.825	-2.5104	-2.8688	73.764	2.510	269.884	295.923	130.193	194.669	241.372	234.582	290.399	44.489	245.256	-19.612	334.182	266.989	35.033	17.415	0.00037204	0.00047355	0.00010347	652.9	4.6984e-06	4.735e-06	904.45	211.36	3.1332e-06	4.1929e-06	423.63	158.41	57.649	23.155	3.5864e-06	86.146	9.5245e-05	5.4153e-05	1.4985e-05	581.65	6.5742e-07	6.1522e-07	802.48	188.4	6.1566e-07	5.6145e-07	375.19	140.99	51.457	20.733	6.1161e-07	76.704	233.312	24.319	58.103	-10.114	148.230	121.732	-10.009	-5.275	134.072	119.905	-6.618	-2.337	-1.586	1.636	146.218	0.756	-8191	255	
2135.327	1	1	0	0	0.019856	0.33989	0.13207	0.1836	0.37682	0.033865	0.13025	0.095009	0.12663	0.15594	0.12315	0.14663	0.24464	0.14714	0.045404	0.38003	-2.5146	-2.4792	-2.6813	-2.9042	-2.3583	-2.9271	-2.6667	-2.6437	-2.8458	-2.4896	-3.0438	-2.8083	-2.4208	-2.7	-2.3396	-2.4979	232.567	144.678	123.783	287.692	124.967	83.643	196.576	223.375	107.398	134.072	298.316	335.400	270.705	223.451	110.906	289.667	0.00041052	0.00037994	7.6113e-05	651.22	6.3015e-06	4.1982e-06	899.39	210.53	4.5794e-06	5.6232e-06	421.85	157.89	57.88	23.219	5.5275e-06	85.618	9.668e-05	5.3333e-05	1.5522e-05	579.73	6.5608e-07	5.9671e-07	799.77	188.04	6.304e-07	5.8807e-07	374.06	140.96	51.584	20.681	6.2803e-07	76.634	237.917	42.129	71.712	-10.398	140.539	122.040	-9.669	-5.270	158.972	143.120	-6.445	-2.540	-1.590	2.243	106.766	0.955	-8191	255	
2135.448	1	1	0	0	0.33295	0.16921	0.09191	0.1138	0.18969	0.10687	0.25892	0.21499	0.11323	0.2119	0.10074	0.11236	0.0078259	0.24274	0.31764	0.26268	-2.4396	-2.1771	-2.5917	-2.8104	-2.2062	-2.7125	-2.5583	-2.35	-2.7896	-2.3937	-2.5792	-2.6937	-2.3063	-2.4521	-2.7375	-2.425	274.439	165.393	7.183	328.135	247.714	118.860	264.432	324.759	257.793	188.132	253.256	287.248	318.240	323.535	131.416	222.170	0.00036875	0.00048896	0.0001771	654.5	5.5624e-06	4.5579e-06	904.78	212.28	6.2133e-06	4.7619e-06	423.06	158.29	58.305	23.129	2.8672e-06	86.74	9.235e-05	5.6719e-05	1.528e-05	579.64	6.4659e-07	5.6506e-07	803.37	188.87	6.205e-07	5.8619e-07	374.19	141.21	51.828	20.777	6.1122e-07	77.006	240.178	70.166	82.739	-10.144	145.215	108.304	-9.893	-5.348	159.429	120.747	-6.347	-2.268	-2.051	1.864	170.026	0.841	-8191	255	
2135.544	1	1	0	0	0.31706	0.20497	0.19042	0.14318	0.24718	0.067686	0.15737	0.13302	0.064206	0.19917	0.16905	0.17236	0.30576	0.19836	0.13422	0.23678	-2.2292	-2.4542	-2.3083	-2.8458	-2.2875	-2.7313	-2.5125	-2.2438	-2.8625	-2.5292	-2.6188	-2.65	-2.225	-2.6625	-2.5479	-2.3979	307.204	295.550	253.746	28.323	146.036	138.201	118.760	249.119	52.950	149.843	147.570	41.110	289.830	196.517	86.422	246.306	0.00039293	0.00054416	0.00011152	657.49	6.2495e-06	5.25e-06	902.61	212.29	3.8385e-06	3.0971e-06	423.86	157.76	57.83	23.335	4.167e-06	86.493	9.7664e-05	5.2497e-05	1.5911e-05	584.19	6.1004e-07	6.0269e-07	802.46	189.19	6.1639e-07	5.7596e-07	374.07	140.86	51.565	20.836	6.2843e-07	76.873	227.661	63.740	39.766	-10.317	131.242	116.548	-10.139	-5.700	163.340	116.691	-6.610	-2.478	-1.955	2.189	119.810	0.621	-8191	255	
2135.640	1	1	0	0	0.080856	0.12256	0.073749	0.041972	0.19601	0.26517	0.40172	0.18931	0.085837	0.19304	0.32148	0.05111	0.14224	0.050834	0.2139	0.30355	-2.0563	-2.3625	-2.3812	-2.7979	-2.3271	-2.3771	-2.6958	-2.3229	-2.6583	-2.3917	-2.2875	-2.5667	-2.3792	-2.6729	-2.6083	-2.2875	143.571	88.791	297.459	-18.031	187.946	96.118	266.921	306.834	150.886	153.557	294.210	197.791	142.351	3.501	204.905	306.139	0.00044291	0.00046271	0.00011243	659.17	5.209e-06	3.395e-06	906.61	212.51	2.3593e-06	3.6205e-06	426.11	158.97	58.009	23.406	4.3142e-06	85.943	9.922e-05	5.7316e-05	1.5499e-05	585.1	6.1711e-07	5.8681e-07	807.16	189.39	6.2292e-07	5.6933e-07	375.57	141.66	51.596	20.889	5.8128e-07	76.757	233.192	63.274	81.591	-10.358	117.946	93.906	-9.889	-5.302	161.771	138.615	-6.758	-2.222	-2.135	1.812	135.354	0.877	-8191	255	
2135.736	1	1	0	0	0.27165	0.11155	0.26624	0.14227	0.16751	0.078635	0.13143	0.18547	0.16876	0.22837	0.080541	0.35044	0.10364	0.21838	0.17441	0.17268	-2.0229	-2.3208	-2.2479	-2.8417	-2.5062	-2.4813	-2.7229	-2.2708	-2.6813	-2.6479	-2.3333	-2.7167	-2.4104	-2.6	-2.6271	-2.2896	155.290	179.856	241.334	253.416	130.572	333.869	106.544	287.242	143.147	169.393	-0.128	302.956	261.150	293.843	55.527	173.267	0.00041761	0.00054286	9.2967e-05	651.31	5.1384e-06	6.8239e-06	898.38	211.11	4.1524e-06	3.9479e-06	421.55	158.89	57.721	23.268	4.0959e-06	86.731	0.00010028	5.4595e-05	1.5015e-05	579.3	6.4866e-07	5.896e-07	797.55	187.92	6.5821e-07	5.707e-07	373.73	141.65	51.685	20.801	5.8509e-07	77.162	230.974	50.026	53.606	-10.159	126.924	115.623	-10.006	-5.524	164.154	160.347	-6.495	-2.577	-1.849	2.422	122.591	0.593	-8191	255	
2135.855	1	1	0	0	0.28561	0.033411	0.096055	0.28224	0.045861	0.30945	0.11442	0.28956	0.22532	0.062333	0.13861	0.23433	0.044792	0.23997	0.043771	0.25149	-2.1437	-2.5229	-2.1771	-2.8896	-2.2542	-2.4854	-2.875	-2.3708	-2.5917	-2.5375	-2.4396	-2.8	-2.4917	-2.4792	-2.8312	-2.4375	178.770	256.027	161.798	263.668	240.075	257.419	227.099	271.836	159.852	36.519	289.577	203.183	100.707	171.740	135.834	272.581	0.00038493	0.00036044	0.00016698	647.77	4.7321e-06	3.9274e-06	896.57	211.45	3.4225e-06	3.5757e-06	414.03	155.3	57.113	22.654	4.0841e-06	83.769	9.837e-05	5.3629e-05	1.5386e-05	578.01	6.2812e-07	6.0252e-07	794.92	187.27	6.1313e-07	6.0041e-07	367.79	139	50.792	20.265	6.186e-07	74.917	229.132	35.210	58.327	-10.289	135.793	86.974	-9.282	-5.308	152.486	150.876	-6.800	-2.704	-1.917	1.716	105.303	0.932	-8191	255	
2135.929	1	1	0	0	0.1062	0.14402	0.17467	0.36884	0.35161	0.057118	0.19738	0.3343	0.11412	0.12688	0.08071	0.008278	0.1346	0.095412	0.28078	0.16814	-2.05	-2.7771	-2.1958	-2.6104	-2.4708	-2.2917	-2.8625	-2.2875	-2.3375	-2.6042	-2.3375	-2.825	-2.4521	-2.2104	-2.7562	-2.4917	138.503	80.990	185.749	304.051	218.128	156.952	221.495	-11.403	146.762	195.368	57.251	179.602	271.240	-9.777	199.655	-23.226	0.00043041	0.00071979	0.00010786	635.72	4.8479e-06	2.7609e-06	874.07	203.5	5.3296e-06	4.3147e-06	405.2	154.95	56.164	21.771	7.987e-06	80.872	9.4755e-05	5.3406e-05	1.5793e-05	566.45	6.4322e-07	5.72e-07	776.91	181.29	6.5945e-07	6.2572e-07	359.46	137.42	49.917	19.524	6.5171e-07	72.199	231.803	33.318	51.973	-10.340	172.613	134.261	-9.711	-5.509	141.727	111.587	-6.293	-2.292	-1.786	1.972	143.063	1.154	-8191	255	
2136.047	1	1	0	0	0.079132	0.19942	0.45379	0.14873	0.13364	0.15357	0.1015	0.27017	0.23165	0.071682	0.18389	0.18996	0.23691	0.14469	0.10185	0.23007	-2.0312	-2.6521	-2.2146	-2.6104	-2.6063	-2.1583	-2.8917	-2.4542	-2.5729	-2.7313	-2.2292	-2.5458	-2.525	-2.2979	-2.7354	-2.4958	102.783	166.154	136.655	298.623	257.584	335.998	213.181	246.298	290.406	99.102	290.984	316.457	-0.657	28.145	222.901	276.628	0.00038691	0.00040312	0.00012556	609.2	2.895e-06	3.9816e-06	840.35	191.19	4.4075e-06	3.4641e-06	385.83	147.36	53.33	20.498	4.0828e-06	77.356	9.6118e-05	5.8713e-05	1.5598e-05	545.06	6.5136e-07	6.011e-07	744.44	169.36	6.7762e-07	6.2641e-07	342.51	130.76	47.299	18.295	6.6211e-07	69.026	226.873	62.895	52.380	-9.715	138.105	106.443	-9.630	-5.490	118.735	146.701	-6.182	-2.107	-1.847	2.122	133.751	0.946	-8191	255	
2136.144	1	1	0	0	0.22361	0.21195	0.17156	0.24128	0.073896	0.11479	0.22917	0.2655	0.193	0.12701	0.17366	0.4555	0.095951	0.32094	0.29745	0.059919	-2.0542	-2.7208	-2.1646	-2.4979	-2.6021	-2.2812	-2.7667	-2.5042	-2.4042	-2.8042	-2.4437	-2.7771	-2.6083	-2.1708	-2.6875	-2.5917	212.171	277.628	307.058	300.492	259.139	222.481	307.466	18.179	-13.565	256.748	-14.065	243.031	54.210	267.667	213.013	278.947	0.00034147	0.00049774	6.3376e-05	604.83	7.775e-06	4.3324e-06	829.79	184.65	2.7956e-06	4.4014e-06	375.76	140.64	51.625	19.909	7.0347e-06	76.254	0.00010033	6.0827e-05	1.7033e-05	538.5	6.6977e-07	6.7739e-07	738.07	164.77	7.1837e-07	6.6823e-07	332.41	126.5	46.198	17.932	6.8648e-07	67.812	222.485	56.985	83.814	-10.119	144.802	130.024	-9.915	-5.119	174.587	164.826	-6.457	-1.870	-1.514	2.247	131.115	1.011	-8191	255	
2136.240	1	1	0	0	0.31822	0.18711	0.10273	0.1046	0.16458	0.20481	0.21704	0.19458	0.23066	0.16468	0.2002	0.14293	0.32017	0.17762	0.044422	0.087249	-1.9	-2.8021	-2.2854	-2.3896	-2.6688	-2.3417	-2.6396	-2.4083	-2.4813	-2.6854	-2.2646	-2.575	-2.6646	-2.2875	-2.7208	-2.7667	64.208	286.112	104.703	193.841	263.055	255.418	204.963	270.867	298.235	76.439	272.466	271.169	83.058	66.450	300.763	12.684	0.00035694	0.00044535	5.7267e-05	596.91	3.3749e-06	4.0183e-06	829.91	186.51	3.7804e-06	4.2673e-06	370.63	139.5	51.156	19.788	4.374e-06	75.044	9.7871e-05	6.6092e-05	1.7539e-05	531.9	6.5737e-07	6.442e-07	737.49	165.99	7.0278e-07	7.0365e-07	329.19	124.02	45.736	17.77	7.5441e-07	66.929	230.394	20.028	51.724	-10.353	157.626	119.571	-10.105	-5.560	175.150	154.999	-6.181	-2.108	-1.425	2.304	133.037	0.718	-8191	255	
2136.336	1	1	0	0	0.044487	0.054227	0.2088	0.11508	0.16222	0.20053	0.24933	0.36587	0.19483	0.30107	0.069459	0.19892	0.059543	0.21286	0.14628	0.24914	-1.8667	-2.4958	-2.3312	-2.4104	-2.6875	-2.2062	-2.9062	-2.7083	-2.3292	-2.7271	-2.6917	-2.4938	-2.7042	-2.2479	-2.6521	-2.7854	219.659	303.031	46.727	285.987	135.742	18.281	260.069	268.960	223.773	230.397	4.394	1.290	109.813	77.140	193.281	203.880	0.00035165	0.00042262	8.6288e-05	587.96	5.6001e-06	3.8005e-06	821.93	181.54	4.5568e-06	2.5918e-06	361.33	134.9	50.438	19.467	4.6574e-06	72.78	9.8783e-05	6.8201e-05	1.876e-05	524.66	7.4326e-07	7.4092e-07	727.02	162.58	8.0859e-07	7.5279e-07	323.27	121.12	44.992	17.446	8.5909e-07	64.865	228.365	56.524	25.091	-10.194	146.095	108.935	-9.802	-5.557	148.380	143.312	-6.043	-2.106	-1.391	2.737	143.524	1.403	-8191	255	
2136.456	1	1	0	0	0.16724	0.15533	0.11751	0.23182	0.20773	0.19563	0.16846	0.049458	0.11806	0.32931	0.12059	0.032961	0.15232	0.11617	0.22237	0.28256	-1.675	-2.6063	-2.3208	-2.4437	-2.5646	-2.3979	-2.5208	-2.7062	-2.0167	-2.4625	-2.3333	-2.3979	-2.5375	-2.2687	-2.4708	-2.7271	0.259	138.236	66.902	251.493	73.046	210.689	-22.206	299.545	306.302	-19.201	285.559	126.201	312.956	-21.868	57.962	291.334	0.00036743	0.00049203	0.00013739	581.03	7.0975e-06	2.5815e-06	783	171.74	3.0774e-06	3.2082e-06	330.72	120.79	45.568	16.592	4.688e-06	60.758	0.00010898	8.0067e-05	2.2202e-05	517.46	9.7895e-07	9.2357e-07	697.78	152.88	1.0367e-06	1.1128e-06	292.98	107.84	41.042	14.971	1.2208e-06	54.412	238.394	49.725	21.622	-10.358	137.020	109.264	-9.736	-4.941	174.162	133.619	-5.939	-1.963	-1.408	2.506	119.471	0.966	-8191	255	
2136.553	1	1	0	0	0.20776	0.11443	0.21375	0.10718	0.1428	0.028316	0.18289	0.1606	0.09536	0.035391	0.26076	0.078589	0.243	0.10892	0.30404	0.10515	-1.8042	-2.5958	-2.525	-2.0708	-2.8042	-2.4292	-2.6354	-2.7875	-2.1271	-2.5375	-2.4104	-2.4208	-2.725	-2.3792	-2.3854	-2.5854	246.718	218.934	221.836	275.354	51.557	216.809	87.710	266.298	45.556	205.905	333.081	242.970	93.980	7.030	232.393	-22.608	0.00026869	0.00036453	7.4934e-05	553.17	5.5781e-06	2.1079e-06	714.26	151.61	7.1104e-07	2.7073e-07	283.77	102.23	40.277	13.496	2.3193e-06	48.864	0.00013651	0.0001158	3.1e-05	493.82	1.2946e-06	1.3066e-06	635.91	136.96	1.3897e-06	1.4787e-06	251.38	91.213	36.314	12.299	1.5468e-06	43.974	235.369	23.841	82.988	-10.076	113.534	100.027	-9.805	-4.660	116.286	34.515	-5.867	-1.334	-1.678	2.549	54.461	1.343	-8191	255	
2136.624	1	1	0	0	0.1031	0.030845	0.12816	0.22524	0.29033	0.17782	0.1978	0.037257	0.10373	0.15799	0.10521	0.17011	0.083192	0.10613	0.21194	0.24851	-1.8583	-2.5354	-2.5708	-2.2292	-2.5604	-2.2729	-2.4104	-2.725	-2.4042	-2.5167	-2.6125	-2.2542	-2.6958	-2.4938	-2.1917	-2.6792	274.988	129.333	309.860	300.581	306.830	256.694	334.860	219.103	168.323	258.610	-16.603	310.461	146.207	249.016	-4.103	290.114	0.00025816	0.00038729	7.9078e-05	521.08	4.9879e-06	1.7336e-06	686.9	146.46	1.8041e-06	2.4345e-06	284.41	104.52	40.329	14.126	4.0377e-06	53.825	0.0001535	0.00013927	3.8099e-05	465.17	1.3986e-06	1.2956e-06	612.71	131.6	1.2068e-06	1.1628e-06	253.1	93.178	36.319	12.74	1.0394e-06	47.864	224.659	13.541	73.028	-9.801	151.787	219.114	-9.950	-4.936	197.970	170.974	-5.786	-1.225	-0.600	2.589	133.541	1.488	-8191	255	
2136.743	1	1	0	0	0.054174	0.088196	0.037529	0.19362	0.18622	0.02712	0.19389	0.22318	0.13274	0.023427	0.19241	0.13973	0.11189	0.074093	0.074396	0.088311	-1.7604	-2.4479	-2.5458	-2.15	-2.4667	-2.5125	-2.3563	-2.9396	-2.2292	-2.3417	-2.6083	-2.2521	-2.5729	-2.5958	-2.1479	-2.6854	227.099	45.741	-4.092	57.017	37.922	8.833	252.847	313.166	265.315	144.284	275.243	206.773	1.072	252.089	81.661	115.627	0.0002368	0.00033127	0.0001227	518.91	4.7724e-06	3.1609e-06	709.87	150.46	3.2334e-06	6.0778e-06	286.87	105.22	38.583	13.143	3.0174e-06	49.567	0.00011477	9.0489e-05	2.5969e-05	465.1	9.9175e-07	9.3609e-07	630.32	133.61	9.4417e-07	9.7069e-07	257.37	93.92	34.98	11.874	1.1573e-06	44.35	231.048	24.327	31.472	-9.868	180.591	106.267	-9.735	-5.211	129.018	128.002	-5.639	-1.113	-0.587	2.706	141.404	1.620	-8191	255	
2136.839	1	1	0	0	0.19735	0.14861	0.27272	0.020952	0.064218	0.1111	0.043765	0.11675	0.21229	0.18499	0.16159	0.3078	0.24516	0.147	0.13366	0.21525	-1.9417	-2.3271	-2.5229	-2.1875	-2.5875	-2.6292	-2.1208	-2.7292	-2.3625	-2.3729	-2.7062	-2.3312	-2.3146	-2.5938	-2.0167	-2.5917	160.316	127.462	246.598	115.416	226.550	-11.972	203.434	192.502	201.010	242.855	301.589	315.860	323.418	272.153	229.447	208.066	0.0002567	0.00048612	0.00010714	518.37	3.2541e-06	4.0924e-06	693.85	142.64	2.9985e-06	2.4707e-06	284.41	100.72	37.246	12.46	3.5746e-06	49.951	0.00012824	0.00012409	3.2428e-05	463.5	1.3523e-06	1.3085e-06	619.62	127.82	1.0962e-06	1.152e-06	251.69	90.359	33.551	11.209	1.0556e-06	44.493	235.502	31.106	41.589	-10.261	130.780	177.964	-9.653	-4.669	160.663	118.933	-5.393	-1.514	-0.995	2.814	109.900	1.434	-8191	255	
2136.935	1	1	0	0	0.32301	0.24853	0.14113	0.11781	0.31547	0.22549	0.15178	0.26077	0.28871	0.19974	0.21842	0.18158	0.12686	0.13409	0.085743	0.11897	-1.8958	-2.2708	-2.7646	-2.0917	-2.4146	-2.5708	-2.4562	-2.4813	-2.4875	-2.3708	-2.6979	-2.3229	-2.4542	-2.4188	-2.1188	-2.5687	183.852	321.184	155.140	103.059	279.568	2.206	296.820	252.849	312.472	189.419	336.300	301.587	131.821	106.807	268.216	322.825	0.00021682	0.00021441	7.0869e-05	526.48	6.4658e-07	4.2321e-06	739.44	153.32	1.8252e-06	3.1241e-06	320.8	115.95	41.658	14.473	4.1693e-06	60.12	0.00011729	9.2946e-05	2.5045e-05	471.01	9.4897e-07	8.6447e-07	654.51	137.18	8.7635e-07	7.9855e-07	285.53	103.83	37.54	12.947	7.3089e-07	53.426	238.519	58.751	50.019	-10.146	120.177	111.473	-9.956	-4.517	107.637	109.362	-6.417	-1.758	-1.146	2.438	147.452	1.415	-8191	255	
2137.032	1	1	0	0	0.28512	0.08206	0.18286	0.19236	0.13985	0.14802	0.15354	0.27421	0.12986	0.14569	0.19845	0.062904	0.13873	0.082914	0.033321	0.22869	-2.0208	-2.1146	-2.6937	-2.3271	-2.2146	-2.1458	-1.6625	-1.95	-1.9354	-1.6208	-2.2479	-1.9396	-1.9625	-2.3271	-1.6125	-2.1792	272.306	365.380	158.480	294.711	181.115	130.196	78.343	34.413	363.163	224.123	320.820	289.728	130.374	233.388	331.323	113.651	0.00028117	0.00047914	8.6776e-05	589.62	4.7326e-06	8.9271e-07	10.493	0.29184	4.5254e-07	2.0591e-07	0.0063976	0.0025583	0.0036632	0.00072305	1.5115e-07	0.0017855	9.6205e-05	6.6383e-05	1.8962e-05	522.25	-1.1958e-07	-2.6442e-06	8.1923	-0.97243	-1.14e-06	-9.3293e-07	-1.1377	-0.31482	-0.24809	-0.077304	-4.185e-07	-0.083855	228.765	35.304	78.191	350.111	181.165	383.383	45.315	49.573	125.707	275.432	266.885	128.937	348.091	232.856	215.806	375.294	-8191	255	
2137.128	1	1	0	0	0.13933	0.24222	0.1361	0.3036	0.082318	0.21544	0.096959	0.14907	0.13078	0.03894	0.20589	0.069739	0.15534	0.034856	0.18184	0.28774	-1.6271	-1.6354	-2.3021	-1.9688	-1.9896	-2.2354	-1.6542	-2.1688	-2.1688	-1.9188	-2.2021	-1.8979	-2.0438	-2.1479	-1.8833	-2.2313	392.844	223.855	280.029	65.881	313.006	188.339	183.150	295.933	148.534	120.833	94.154	228.946	252.065	220.033	265.714	242.988	3.0626e-06	1.7881e-05	2.2928e-06	0.0013879	2.0168e-07	2.5033e-07	0.033343	0.0090229	1.0036e-07	3.0012e-07	0.011584	0.002585	0.0023087	0.0021347	5.9756e-08	0.00078966	-2.8848e-05	-2.8043e-05	-7.5473e-06	-0.76348	-2.4865e-07	-2.4515e-07	-0.63054	-0.20558	-2.0211e-07	-1.8883e-07	-0.28055	-0.087475	-0.074911	-0.027392	-1.5466e-07	-0.034361	87.379	107.044	373.157	246.575	183.491	215.250	295.026	71.514	402.986	413.027	374.375	249.229	241.136	277.617	192.819	66.239	-8191	255	
2137.224	1	1	0	0	0.1066	0.15274	0.082821	0.12123	0.14342	0.065771	0.15742	0.14517	0.18659	0.21375	0.37009	0.02781	0.27269	0.013766	0.040782	0.20893	-1.775	-1.7104	-2.1979	-1.9583	-1.9438	-2.45	-1.825	-2.0229	-2.1354	-1.6542	-2.3042	-2.275	-1.6521	-2.4167	-2.0167	-2.1208	100.501	-26.490	-23.803	127.309	161.040	175.709	192.706	172.173	97.781	185.317	146.721	122.087	-25.597	19.731	-0.121	225.562	3.4192e-06	1.2635e-05	4.4026e-06	0.017437	2.7696e-07	8.4421e-08	0.029988	0.0031971	1.7989e-07	2.0078e-07	0.023861	0.0066494	0.00053686	0.0009569	1.1011e-07	0.00095904	-1.1767e-05	-1.2308e-05	-3.5395e-06	-0.3724	-1.2351e-07	-1.3567e-07	-0.3471	-0.11609	-1.2523e-07	-1.1198e-07	-0.17259	-0.055954	-0.047049	-0.01841	-1.0525e-07	-0.023012	5.280	132.545	-32.021	168.337	-29.208	81.255	253.074	-73.089	90.648	76.655	96.387	98.965	99.293	178.088	166.861	220.021	-8191	255	
2137.320	1	1	0	0	0.11969	0.16372	0.17545	0.26958	0.29291	0.20329	0.26699	0.067505	0.14438	0.16887	0.15462	0.078801	0.22689	0.30648	0.17856	0.088648	-1.75	-1.8396	-2.2042	-1.825	-1.7229	-2.5208	-2.0458	-2.0125	-2.4396	-1.8792	-2.0708	-2.4771	-1.9188	-2.2938	-2.0854	-1.875	-59.383	49.361	197.131	-24.194	42.864	2.537	135.189	75.231	195.917	-88.139	156.755	-92.370	-81.370	-33.021	54.995	114.914	6.3634e-06	1.1161e-05	8.2714e-06	0.0062857	1.1613e-07	3.6341e-07	0.009504	0.010092	1.1827e-07	4.8604e-08	0.006617	0.006039	0.0023591	0.0018236	3.5638e-08	0.0018932	-8.1663e-06	-8.7555e-06	-2.5798e-06	-0.27593	-8.9827e-08	-1.0367e-07	-0.26947	-0.091946	-9.731e-08	-8.6957e-08	-0.13944	-0.046932	-0.036277	-0.014497	-8.7812e-08	-0.01733	87.542	19.883	132.960	140.607	187.509	83.922	-40.310	-127.115	-87.757	149.480	-133.149	-136.448	-14.034	-122.921	-130.559	180.249	-8191	255	
2137.416	1	1	0	0	0.25715	0.16031	0.038283	0.14943	0.088911	0.040088	0.21374	0.15112	0.23719	0.056075	0.14361	0.026553	0.22137	0.038393	0.15207	0.13775	-1.8729	-1.8542	-1.9979	-2.1188	-1.9542	-2.2583	-2.1688	-1.8292	-2.1521	-2.0208	-2.0792	-2.1667	-1.6333	-2.3729	-2.15	-1.725	-19.088	21.582	-13.228	156.353	22.943	141.033	29.701	104.745	62.150	-124.761	162.351	-44.697	-49.577	-148.247	-110.132	94.622	4.7495e-06	2.5279e-05	7.572e-06	0.022085	2.0845e-07	1.2407e-07	0.029492	0.0061732	1.2958e-07	3.1242e-07	0.010519	0.0068758	0.0016984	0.0014244	3.3024e-07	0.0029034	-7.3309e-06	-7.3897e-06	-2.1376e-06	-0.26359	-7.6578e-08	-9.3199e-08	-0.23988	-0.074996	-8.9712e-08	-8.1072e-08	-0.12082	-0.040235	-0.031202	-0.013853	-7.9178e-08	-0.01557	119.718	-151.962	135.757	-130.221	-75.550	61.845	109.078	-152.147	47.576	-133.508	149.405	101.950	-162.093	43.438	162.378	10.951	-8191	255	
2137.537	1	1	0	0	0.23608	0.14653	0.10705	0.070692	0.1797	0.31794	0.28043	0.082382	0.14649	0.15674	0.26394	0.11827	0.18027	0.26348	0.23105	0.17997	-1.9	-1.9042	-2.1271	-2.175	-1.7479	-2.3125	-2.2292	-1.8604	-2.2792	-1.9375	-2.0042	-2.3646	-1.8875	-2.0896	-2.3438	-1.6771	144.020	153.803	321.556	423.036	158.068	160.815	179.813	427.664	192.342	326.267	425.325	270.452	205.786	128.238	362.727	421.754	3.2004e-06	1.4337e-05	7.8177e-06	0.050819	1.8e-07	1.5298e-07	0.021718	0.020914	1.797e-07	1.8951e-07	0.024737	0.0051788	0.0067456	0.0016784	9.0777e-08	0.0027711	-6.5292e-06	-6.8549e-06	-1.9511e-06	-0.23549	-7.2704e-08	-8.5399e-08	-0.22126	-0.067468	-8.3915e-08	-7.3302e-08	-0.11097	-0.041832	-0.030581	-0.012608	-7.844e-08	-0.015021	293.238	147.739	385.937	177.520	195.914	95.604	87.430	86.373	215.407	171.086	117.023	169.833	360.219	69.500	223.637	223.451	-8191	255	
2137.633	1	1	0	0	0.12804	0.23337	0.13074	0.12031	0.15382	0.19005	0.17212	0.13834	0.22332	0.066718	0.39069	0.068326	0.23924	0.20492	0.048437	0.24964	-1.825	-1.9813	-1.9667	-2.4229	-1.9208	-2.125	-2.05	-1.6354	-2.2708	-2.0792	-1.9521	-2.2479	-1.8563	-1.95	-2.2542	-1.8396	369.790	267.149	303.023	43.459	318.496	366.077	164.313	368.403	346.907	256.228	78.200	45.581	161.813	131.492	239.479	242.074	1.633e-06	2.1284e-05	1.5202e-06	0.027182	5.0396e-07	2.7687e-07	0.019127	0.0092811	2.417e-07	1.2236e-07	0.013252	0.0021852	0.0032311	0.001307	4.8434e-07	0.0011159	-6.1451e-06	-6.8445e-06	-1.7806e-06	-0.24085	-6.81e-08	-7.9934e-08	-0.22425	-0.059718	-7.7555e-08	-7.1874e-08	-0.10521	-0.042225	-0.029001	-0.011542	-7.7361e-08	-0.014359	358.580	82.648	109.472	194.881	81.765	90.339	372.042	52.215	143.103	263.670	80.131	133.645	338.269	112.449	171.678	340.968	-8191	255	
2137.729	1	1	0	0	0.16085	0.013882	0.30403	0.086604	0.27329	0.17428	0.11234	0.31366	0.19437	0.26187	0.11964	0.26401	0.10223	0.25235	0.17056	0.14655	-1.8958	-1.9833	-1.8917	-2.4188	-1.8479	-2.1333	-2.1458	-1.6542	-2.0583	-1.8646	-1.9333	-2.1125	-1.7354	-1.9792	-2.3417	-1.8208	225.376	50.818	306.460	193.755	275.082	212.539	307.792	215.681	237.648	69.999	23.999	299.620	297.442	118.879	220.922	159.175	3.2337e-06	1.9789e-05	8.1509e-06	0.031967	2.5768e-07	3.8102e-07	0.041685	0.0052214	2.2089e-07	5.2498e-07	0.018432	0.0037309	0.0061641	0.0019116	8.2345e-08	0.0026537	-5.713e-06	-6.455e-06	-1.7329e-06	-0.22948	-6.5293e-08	-6.9173e-08	-0.21195	-0.057487	-7.4347e-08	-7.4959e-08	-0.09143	-0.039087	-0.029519	-0.0099484	-8.2018e-08	-0.012773	35.826	205.546	37.250	88.400	302.043	326.778	10.509	12.505	222.172	263.576	198.850	55.200	347.419	50.702	58.342	278.054	-8191	255	
2137.824	1	1	0	0	0.13829	0.16984	0.13216	0.2153	0.18542	0.050387	0.21985	0.10641	0.24077	0.13851	0.23482	0.17796	0.046872	0.090142	0.28394	0.11467	-1.7083	-2.2271	-1.9104	-2.0438	-2.0375	-2.0833	-2.2667	-1.6688	-2.2062	-2.2771	-1.8042	-2.1979	-2.0354	-1.9188	-2.3833	-1.8708	180.636	14.696	233.793	74.282	216.149	34.899	270.550	141.006	36.439	86.976	-26.226	83.379	-60.020	2.509	206.260	172.046	7.4809e-06	1.6004e-05	5.386e-06	0.036033	3.5924e-07	2.4827e-07	0.025422	0.008158	2.1054e-07	2.1031e-07	0.016701	0.0075128	0.0020656	0.0013026	1.1078e-07	0.00029525	-4.6136e-06	-6.32e-06	-1.6332e-06	-0.21925	-6.81e-08	-6.6099e-08	-0.23389	-0.058547	-7.1646e-08	-6.736e-08	-0.085168	-0.036649	-0.02737	-0.010513	-7.9065e-08	-0.013934	286.450	61.758	209.253	55.101	186.863	200.586	-45.353	-49.909	142.178	90.956	171.772	98.992	135.379	148.980	284.263	177.393	-8191	255	
2137.920	1	1	0	0	0.045098	0.2847	0.17788	0.19106	0.11144	0.16732	0.082848	0.18143	0.14126	0.10649	0.60366	0.033146	0.25286	0.084214	0.1872	0.32035	-1.5396	-2.0354	-1.7667	-2.2083	-2.1354	-1.8479	-2.2083	-1.8563	-2.0354	-2.3083	-1.8208	-2.3833	-2.8396	-2.6583	-2.55	-2.5604	-130.764	-68.064	202.396	48.561	168.234	-50.404	-61.076	-23.673	160.439	-8.232	178.600	-54.958	44.792	-24.308	37.583	-98.418	3.6364e-06	1.4585e-05	1.3696e-05	0.026571	8.7373e-08	6.8966e-08	0.024862	0.0038062	1.4083e-07	4.1927e-07	0.05768	0.081616	0.035771	0.03925	9.2911e-07	65.313	-4.8153e-06	-6.6056e-06	-1.558e-06	-0.20772	-6.7539e-08	-6.3366e-08	-0.22143	-0.061223	-6.6468e-08	-7.2902e-08	0.2869	1.3612	2.3733	0.66188	1.0506e-06	54.305	-101.759	-14.302	-38.295	-19.714	195.755	167.546	-20.698	-122.055	-65.132	205.728	-42.385	-51.115	108.130	-69.025	76.566	-16.795	-8191	255	
2138.018	1	1	0	0	0.090491	0.082967	0.16504	0.21295	0.042638	0.18087	0.39683	0.16486	0.33144	0.23073	0.22489	0.24279	0.36898	0.031787	0.091603	0.1396	-1.9771	-2.5729	-2.2729	-2.7042	-2.3458	-2.1833	-2.8729	-2.3438	-2.4146	-2.7104	-2.4437	-2.4646	-2.6354	-2.3333	-2.775	-2.475	328.916	204.719	108.287	234.248	234.469	236.761	284.022	280.019	190.822	84.739	229.478	154.668	52.888	276.192	326.479	132.443	0.00028833	0.00051347	0.00010601	638.14	3.2384e-06	9.775e-07	902.99	201.22	2.9758e-06	5.6435e-06	406.35	145.01	52.826	19.913	4.4901e-06	77.047	0.00010191	6.5983e-05	1.7778e-05	565.05	7.1081e-07	6.6896e-07	798.66	178.14	7.074e-07	6.8434e-07	360.69	129.71	46.94	17.706	6.7029e-07	68.82	223.279	42.898	50.266	-10.804	158.439	68.242	-10.631	-5.985	156.996	113.406	-6.973	-2.217	-2.045	2.046	115.113	0.827	-8191	255	
2138.136	1	1	0	0	0.19587	0.15927	0.10605	0.31565	0.078362	0.10164	0.12811	0.14698	0.095359	0.02812	0.043346	0.3042	0.12524	0.11423	0.14118	0.20948	-1.775	-2.6021	-2.1229	-2.6063	-2.475	-2.3083	-2.6542	-2.5667	-2.1646	-2.8	-2.4458	-2.5917	-2.4646	-2.2979	-2.6417	-2.6	178.437	108.901	10.184	-9.253	133.575	232.621	-1.232	260.453	220.002	336.348	298.156	-19.174	84.400	256.909	216.772	260.608	0.00031821	0.00051018	9.6835e-05	642.65	4.9881e-06	2.927e-06	897.4	200.81	2.5988e-06	4.9867e-06	403.57	145.2	52.85	19.532	3.8002e-06	76.523	9.8115e-05	6.0235e-05	1.567e-05	573.73	6.1341e-07	6.504e-07	795.83	178.07	6.4791e-07	6.572e-07	356.77	129.24	46.941	17.481	6.2417e-07	68.173	232.516	61.694	65.039	-10.421	129.349	127.592	-10.088	-5.646	160.223	137.075	-6.578	-2.205	-2.230	2.105	136.904	0.870	-8191	255	
2138.233	1	1	0	0	0.11359	0.15406	0.26716	0.2699	0.15256	0.065007	0.25391	0.12865	0.24464	0.19716	0.19256	0.16478	0.089245	0.12811	0.19399	0.095325	-1.6583	-2.6542	-2.1542	-2.5292	-2.7104	-2.0958	-2.5875	-2.5208	-2.2687	-2.8896	-2.2938	-2.6333	-2.6542	-2.0792	-2.5958	-2.6958	-10.372	255.408	180.547	311.444	148.585	192.005	126.785	223.153	132.863	-22.104	83.126	3.579	171.101	238.616	200.283	295.109	0.0003769	0.00053523	0.00010826	642.48	4.4798e-06	5.5087e-06	911.19	206.57	3.7346e-06	3.3441e-06	417.01	149.31	53.936	20.159	9.3562e-06	78.405	9.5691e-05	5.8111e-05	1.6456e-05	571.47	6.3906e-07	6.3771e-07	807.6	181.81	6.6642e-07	6.2875e-07	367.59	133.19	48.226	18.161	6.7841e-07	70.018	236.070	54.619	49.453	-10.014	128.204	106.274	-10.030	-5.680	125.425	131.760	-6.432	-2.452	-2.020	1.872	123.239	0.965	-8191	255	
2138.329	1	1	0	0	0.19295	0.25463	0.2244	0.15917	0.24108	0.095416	0.021279	0.14853	0.12964	0.13112	0.29376	0.18253	0.11969	0.13099	0.099166	0.22157	-1.8563	-2.5875	-2.2854	-2.3354	-2.6417	-2.2583	-2.5958	-2.5021	-2.1437	-2.6792	-2.4896	-2.4917	-2.5979	-2.0687	-2.4958	-2.6854	289.152	38.394	302.013	253.931	56.163	54.483	240.202	170.521	220.524	53.370	289.750	-16.612	316.475	265.843	193.706	334.892	0.00037379	0.00051006	6.507e-05	652.6	5.8942e-06	2.7278e-06	906.49	203.71	4.796e-06	4.8806e-06	406.72	146.54	53.051	19.846	3.1558e-06	76.752	9.4913e-05	5.7939e-05	1.5556e-05	580.56	6.5293e-07	5.9967e-07	807.44	181.01	6.8753e-07	6.0516e-07	359.37	130.59	47.363	17.618	6.7381e-07	68.232	228.609	93.895	51.613	-10.185	143.127	99.525	-10.149	-6.041	141.812	144.512	-6.493	-2.381	-1.944	2.232	112.888	0.722	-8191	255	
2138.449	1	1	0	0	0.069404	0.10715	0.20696	0.38091	0.12407	0.22971	0.081841	0.14428	0.068775	0.34402	0.16687	0.23804	0.089738	0.055352	0.14484	0.31833	-1.8625	-2.5958	-2.3688	-2.3854	-2.5854	-2.1188	-2.625	-2.4917	-2.0958	-2.4813	-2.3667	-2.3833	-2.7542	-2.4562	-2.5104	-2.6292	145.447	160.825	215.115	317.569	-17.047	20.262	-20.538	240.213	163.374	10.323	263.454	326.398	269.815	-23.574	274.592	-23.134	0.00032066	0.00029838	7.5997e-05	648.12	1.8107e-06	4.4111e-06	913.86	207.04	4.8282e-06	5.894e-06	416.32	150.78	55.492	20.813	6.2166e-06	79.937	9.4198e-05	5.8235e-05	1.702e-05	574.01	6.7078e-07	5.9523e-07	810.7	183.76	6.6384e-07	6.0853e-07	370.07	134.87	49.048	18.546	6.1445e-07	71.247	229.379	37.190	55.833	-10.157	182.174	104.326	-10.020	-6.004	160.149	145.701	-6.661	-2.208	-2.033	1.966	119.635	0.833	-8191	255	
2138.521	1	1	0	0	0.084877	0.18726	0.15402	0.2518	0.23887	0.24212	0.16936	0.15548	0.1222	0.24844	0.21208	0.092459	0.11712	0.053889	0.17637	0.13473	-1.925	-2.6417	-2.2896	-2.3542	-2.625	-2.3667	-2.5229	-2.5563	-2.1167	-2.5938	-2.3229	-2.1021	-2.55	-2.2562	-2.4354	-2.7854	26.061	37.294	244.643	279.881	278.429	78.637	247.198	229.528	149.006	257.983	65.945	55.078	116.959	9.401	280.783	309.560	0.00037315	0.00042081	0.00011654	658.51	5.0714e-06	2.164e-06	921.87	208.81	4.7985e-06	3.0361e-06	419.07	151.1	55.627	20.965	5.5292e-06	80.195	9.536e-05	5.5696e-05	1.5829e-05	586.82	6.2851e-07	6.0457e-07	818.55	185.45	6.5185e-07	6.3047e-07	371.15	135.15	49.399	18.588	6.157e-07	71.56	225.977	62.878	69.806	-10.164	99.986	139.384	-9.938	-5.303	160.114	158.496	-6.000	-2.024	-2.444	1.955	118.588	0.683	-8191	255	
2138.617	1	1	0	0	0.15483	0.069839	0.18921	0.44025	0.16879	0.045734	0.25896	0.14199	0.069806	0.078383	0.18682	0.35182	0.15458	0.17971	0.33332	0.1104	-1.4604	-2.525	-2.2708	-2.0667	-2.5792	-2.3833	-2.3604	-2.7833	-2.1042	-2.6104	-2.7542	-2.2021	-2.5312	-2.4146	-2.2708	-2.8417	308.930	313.341	7.189	283.682	119.054	180.378	254.866	159.713	236.838	208.031	318.330	307.557	331.011	226.764	107.645	285.988	0.0003699	0.00055214	0.00010302	665.34	2.924e-06	6.5939e-06	930.47	211.25	2.4306e-06	3.6779e-06	422.19	153.68	55.966	21.211	6.3793e-06	81.178	9.4817e-05	5.9658e-05	1.6022e-05	590.55	6.4939e-07	5.7309e-07	824.67	187.47	6.4796e-07	6.4184e-07	374.84	136.66	49.846	18.927	6.2962e-07	72.405	230.445	59.426	74.457	-10.348	157.241	112.395	-9.829	-5.736	143.074	168.876	-6.577	-2.230	-1.481	2.217	124.125	0.976	-8191	255	
2138.713	1	1	0	0	0.14168	0.25166	0.22151	0.26372	0.08798	0.084491	0.32168	0.080015	0.10155	0.14398	0.081452	0.17985	0.083138	0.082191	0.15142	0.10729	-1.6167	-2.5938	-2.5687	-2.0979	-2.6562	-2.4229	-2.3958	-2.9458	-2.2	-2.4583	-2.6521	-2.2979	-2.7771	-2.6396	-2.2646	-2.8354	139.566	325.403	315.380	263.578	220.434	253.418	234.430	243.112	312.398	4.803	213.431	133.012	66.806	265.592	330.889	311.599	0.00038102	0.00028133	0.00015937	664.47	1.3055e-06	2.5434e-06	926.59	209.42	2.4817e-06	3.7137e-06	421.37	152.76	55.534	21.038	5.4168e-06	80.5	9.4683e-05	5.7726e-05	1.5514e-05	592.78	6.3586e-07	6.0969e-07	821.17	186.21	6.2827e-07	6.0327e-07	371.94	135.79	49.627	18.73	6.0957e-07	71.659	229.778	70.222	59.923	-10.427	101.797	84.287	-9.885	-5.550	146.448	127.770	-6.644	-2.372	-1.705	2.348	116.065	0.813	-8191	255	
2138.810	1	1	0	0	0.25308	0.16334	0.24293	0.25907	0.13992	0.19019	0.070532	0.042336	0.28043	0.15087	0.29273	0.1306	0.15351	0.060699	0.17308	0.058133	-1.7583	-2.5042	-2.6146	-2.3604	-2.6729	-2.4708	-2.4542	-2.7583	-2.2854	-2.5812	-2.7208	-2.2354	-2.5896	-2.5938	-2.3438	-2.8625	263.448	170.317	62.385	330.332	27.159	285.455	334.594	34.945	24.310	72.904	287.892	187.445	-21.533	2.384	178.116	253.942	0.00038548	0.00046299	8.9887e-05	655.59	5.5024e-06	3.3241e-06	919.99	209.64	4.8141e-06	2.5758e-06	422.64	152.69	55.266	21.018	4.383e-06	80.397	9.4947e-05	5.6869e-05	1.5518e-05	584.92	6.4243e-07	5.8254e-07	816.28	186.36	6.0705e-07	6.047e-07	371.79	136.15	49.668	18.694	6.2155e-07	71.786	223.124	81.590	74.635	-10.267	128.027	127.563	-10.026	-5.360	164.753	114.255	-6.506	-2.310	-1.683	2.421	139.072	1.038	-8191	255	
2138.928	1	1	0	0	0.25799	0.20932	0.33738	0.25177	0.26723	0.087758	0.23455	0.15229	0.20541	0.21086	0.17641	0.16603	0.23803	0.073424	0.16535	0.25662	-1.8896	-2.1375	-2.6937	-2.2271	-2.4542	-2.6521	-2.4021	-2.6688	-2.5875	-2.3896	-2.8063	-2.4458	-2.5229	-2.6521	-2.075	-2.8833	19.245	180.921	56.589	324.497	252.845	68.247	253.686	241.852	111.064	263.070	237.885	23.936	42.560	291.043	159.647	311.539	0.00039245	0.00033388	0.00012168	651.68	6.918e-06	3.4905e-06	914.49	206.43	2.4358e-06	3.535e-06	415.31	152.35	55.702	20.763	5.817e-06	79.965	9.4107e-05	5.5182e-05	1.5277e-05	579.92	6.6349e-07	5.6734e-07	809.92	184.27	6.2883e-07	5.6728e-07	368.96	135.55	49.515	18.572	5.956e-07	71.221	229.572	24.399	83.365	-10.666	160.473	92.154	-10.000	-5.510	189.930	119.420	-6.128	-2.152	-1.940	2.010	150.537	0.878	-8191	255	
2139.025	1	1	0	0	0.22323	0.11912	0.16323	0.18205	0.19548	0.18185	0.13669	0.21358	0.32152	0.083247	0.14955	0.34768	0.075935	0.24932	0.27086	0.14258	-2.1688	-2.1896	-2.6583	-2.4604	-2.55	-2.7271	-2.3417	-2.5542	-2.4167	-2.3229	-2.7313	-2.2479	-2.5187	-2.8042	-2.1854	-2.6625	145.437	126.182	-1.508	327.485	297.346	298.790	110.830	259.122	215.108	151.443	32.656	268.039	331.661	-2.431	21.987	318.601	0.00030326	0.00069967	0.00013842	646.74	6.5327e-06	4.7012e-06	901.46	204.85	2.2595e-06	6.5411e-06	410.69	152.03	55.804	20.867	4.4819e-06	80.592	9.0621e-05	5.7415e-05	1.5006e-05	573.46	6.4586e-07	5.7041e-07	798.83	183.05	5.9647e-07	5.9042e-07	365.99	135.28	49.654	18.658	6.2053e-07	71.47	238.341	66.974	64.020	-10.516	141.263	92.664	-9.378	-5.757	165.669	128.216	-6.413	-2.349	-1.576	1.887	144.138	0.615	-8191	255	
2139.098	1	1	0	0	0.083165	0.2137	0.21566	0.35473	0.054559	0.093575	0.19136	0.11705	0.089427	0.21916	0.16506	0.26027	0.12504	0.14641	0.16885	0.050922	-1.9417	-2.3458	-2.6292	-2.4833	-2.3021	-2.6729	-2.5146	-2.6833	-2.4729	-2.2583	-2.8104	-2.5208	-2.4167	-2.6167	-2.1646	-2.6208	61.477	271.100	282.324	-21.260	184.086	145.824	253.831	12.710	262.798	121.773	320.342	260.542	41.161	-12.076	199.167	314.168	0.00038053	0.00069326	3.2964e-05	642.61	4.325e-06	2.5297e-06	892.99	205.18	3.8837e-06	3.6767e-06	409.13	150.46	55.057	20.622	4.5086e-06	79.341	9.1774e-05	5.769e-05	1.4881e-05	571.2	6.1431e-07	6.2694e-07	793.12	182.53	6.4915e-07	5.8682e-07	363.53	134.33	49.235	18.507	5.8566e-07	70.956	229.279	42.708	23.531	-10.341	121.876	109.356	-10.016	-5.534	159.633	120.290	-6.535	-2.056	-1.775	1.750	127.439	0.720	-8191	255	
2139.217	1	1	0	0	0.086973	0.15042	0.12505	0.017899	0.30779	0.28743	0.29601	0.1578	0.10232	0.22309	0.16806	0.19801	0.39078	0.23056	0.15714	0.37807	-2.0771	-2.0646	-2.7021	-2.6146	-2.3229	-2.5708	-2.4208	-2.5583	-2.7375	-2.3875	-2.9	-2.6729	-2.4021	-2.7271	-2.2375	-2.7854	90.972	245.270	12.553	295.347	-10.002	178.550	238.454	271.074	101.519	276.459	334.123	312.675	30.945	309.450	269.441	245.830	0.00042503	0.00045206	0.0001087	643.73	4.3343e-06	5.4919e-06	894.62	204.23	4.7651e-06	3.8018e-06	412.37	152.39	55.063	20.759	3.0843e-06	79.897	9.2868e-05	5.7087e-05	1.567e-05	571.69	6.4872e-07	5.9045e-07	799.88	182.6	6.0772e-07	5.7785e-07	365.79	135.21	49.241	18.561	6.3104e-07	70.958	231.327	52.699	82.424	-10.453	167.198	97.939	-9.989	-5.809	167.095	122.054	-6.288	-2.435	-2.294	1.889	135.356	0.839	-8191	255	
2139.313	1	1	0	0	0.031937	0.32189	0.15441	0.38996	0.058901	0.20379	0.1684	0.02296	0.31841	0.21882	0.36562	0.12951	0.16967	0.10332	0.19951	0.23101	-2.2521	-2.0771	-2.5479	-2.5396	-2.3708	-2.7208	-2.4646	-2.5042	-2.7	-2.2583	-2.7188	-2.6833	-2.3833	-2.6667	-2.1604	-2.5583	303.450	243.961	196.498	-21.701	257.497	152.964	278.951	274.286	235.859	282.831	298.915	254.392	116.089	4.736	198.633	264.653	0.00033801	0.0003699	8.995e-05	634.99	3.2237e-06	4.5955e-06	885.2	201.91	3.1419e-06	4.9374e-06	405.02	150.36	55.364	20.673	4.472e-06	79.185	8.9143e-05	5.3598e-05	1.6096e-05	564.86	6.1745e-07	5.8447e-07	784.37	179.93	6.3142e-07	5.7859e-07	361.36	134.06	49.362	18.446	6.069e-07	70.688	231.355	37.247	61.053	-10.359	132.273	132.615	-9.984	-5.697	148.789	116.781	-6.294	-2.457	-1.607	1.887	145.099	0.760	-8191	255	
2139.409	1	1	0	0	0.13938	0.15398	0.23563	0.21494	0.19449	0.034254	0.24847	0.13776	0.2433	0.27262	0.21992	0.37244	0.16139	0.20984	0.03538	0.55582	-2.3083	-2.1771	-2.6042	-2.5438	-2.3083	-2.5729	-2.5062	-2.5333	-2.6292	-2.4042	-2.7167	-2.7625	-2.1958	-2.5729	-2.4979	-2.4854	260.919	95.057	19.900	281.480	-5.271	82.892	34.680	162.353	333.348	94.347	304.694	306.339	66.799	63.466	255.656	267.069	0.00038906	0.00055828	0.00012334	632.08	5.6364e-06	2.0672e-06	888.53	202.9	3.3358e-06	4.1305e-06	405.85	150.79	55.519	20.582	4.8011e-06	79.191	9.3521e-05	5.2507e-05	1.5787e-05	565.03	6.2379e-07	5.6762e-07	786.44	179.64	6.5905e-07	5.8556e-07	360.04	134.17	49.469	18.36	6.1809e-07	70.599	227.007	52.581	84.722	-10.569	131.794	108.192	-9.961	-5.585	152.918	146.537	-6.490	-2.460	-2.252	2.193	166.041	0.657	-8191	255	
2139.530	1	1	0	0	0.10986	0.10957	0.3038	0.37673	0.26711	0.24949	0.2396	0.19594	0.15893	0.12246	0.16295	0.33092	0.24217	0.1518	0.21099	0.2182	-2.1625	-2.3417	-2.4708	-2.4333	-2.15	-2.7542	-2.4208	-2.2792	-2.6917	-2.2438	-2.4917	-2.8458	-2.3958	-2.5312	-2.4729	-2.4521	136.047	168.482	326.204	3.393	88.142	175.540	279.956	292.191	85.756	9.415	33.675	328.197	276.709	215.918	335.219	290.354	0.00033271	0.00033051	8.8011e-05	634.44	6.0629e-06	3.9506e-06	882.37	201.58	4.2483e-06	6.4151e-06	405.34	150.14	54.995	20.467	5.5873e-06	79.68	9.2522e-05	5.5301e-05	1.4969e-05	562.62	6.0106e-07	6.0263e-07	783.48	179.97	6.1577e-07	5.7008e-07	360.65	133.65	49.026	18.328	6.1071e-07	70.819	235.668	57.803	49.890	-10.407	130.833	139.902	-10.211	-5.348	156.063	116.097	-6.570	-2.226	-1.960	2.265	132.993	0.687	-8191	255	
2139.626	1	1	0	0	0.38803	0.097278	0.29742	0.14903	0.14631	0.10531	0.21543	0.22361	0.11108	0.13547	0.38327	0.20401	0.3006	0.24608	0.12724	0.3765	-2.2229	-2.3104	-2.45	-2.5979	-2.3354	-2.4917	-2.8417	-2.3104	-2.65	-2.4521	-2.4813	-2.7979	-2.2667	-2.6542	-2.7917	-2.3479	194.624	118.478	113.275	320.015	161.052	309.140	278.129	274.092	328.517	306.757	271.973	286.341	294.114	312.188	244.550	248.709	0.00035221	0.00044683	8.6388e-05	639.63	4.0306e-06	3.2285e-06	882.2	203.85	3.2353e-06	5.8205e-06	411.86	151.48	54.729	20.486	3.7548e-06	79.945	9.3036e-05	5.5836e-05	1.5527e-05	566.69	5.8781e-07	6.1766e-07	789.22	181.57	6.1622e-07	6.1927e-07	363.07	134.69	49.313	18.431	5.864e-07	71.198	234.510	39.422	52.663	-10.213	135.891	149.303	-10.232	-5.869	191.602	138.203	-6.509	-2.502	-2.088	2.265	137.308	1.179	-8191	255	
2139.720	1	1	0	0	0.056116	0.11925	0.042775	0.13513	0.043003	0.27422	0.13285	0.38089	0.21574	0.16426	0.17981	0.1584	0.19129	0.16162	0.13484	0.3	-2.2188	-2.4313	-2.4229	-2.6458	-2.2083	-2.5125	-2.65	-2.1417	-2.3521	-2.3125	-2.45	-2.6854	-2.1771	-2.5312	-2.6833	-2.4125	298.880	115.786	107.238	311.475	55.241	-12.192	251.607	157.771	78.516	309.534	299.841	216.680	9.634	5.477	302.388	276.865	0.00040423	0.00053802	8.4216e-05	636.61	3.5958e-06	2.3911e-06	890.94	205.56	4.3094e-06	4.5898e-06	411.87	151.94	55.924	21.023	6.292e-06	80.731	9.3247e-05	5.6184e-05	1.5472e-05	567.24	5.9544e-07	5.9666e-07	791.52	182.46	6.1465e-07	5.358e-07	364.38	135.4	50.004	18.773	6.1656e-07	71.565	227.582	48.166	48.125	-10.246	137.098	76.769	-10.361	-5.975	146.437	137.177	-6.401	-2.343	-1.853	1.800	134.545	0.775	-8191	255	
2139.818	1	1	0	0	0.33347	0.12371	0.078312	0.15812	0.15822	0.2024	0.18762	0.028466	0.025709	0.13543	0.24654	0.50707	0.2028	0.061846	0.28539	0.23717	-2.2438	-2.3354	-2.3417	-2.7562	-2.4542	-2.35	-2.725	-2.1542	-2.6479	-2.6021	-2.2896	-2.7583	-2.4333	-2.4708	-2.65	-2.4729	197.564	172.971	326.511	50.009	128.394	108.719	272.565	319.155	164.988	285.251	-16.145	258.919	316.624	285.563	269.818	299.342	0.00036601	0.00048918	0.0001167	644.06	2.7277e-06	3.7953e-06	897.98	206.39	3.0481e-06	5.2835e-06	412.58	151.17	56.749	20.95	3.4715e-06	80.462	9.6478e-05	5.6485e-05	1.4982e-05	572.4	6.2974e-07	5.7405e-07	795.96	183.09	6.4476e-07	5.8927e-07	365.62	135.69	50.266	18.825	5.9486e-07	71.425	225.202	36.130	50.162	-10.095	140.329	95.138	-10.193	-6.059	186.219	162.500	-6.599	-2.248	-1.893	2.156	134.802	0.859	-8191	255	
2139.913	1	1	0	0	0.13571	0.10971	0.1374	0.19849	0.10587	0.080378	0.22282	0.19748	0.077349	0.17693	0.18315	0.11357	0.14183	0.032136	0.14608	0.25462	-2.0896	-2.5	-2.225	-2.7604	-2.5438	-2.3187	-2.7896	-2.4	-2.6167	-2.5667	-2.325	-2.8333	-2.5104	-2.4208	-2.6083	-2.25	108.578	39.979	-21.537	298.353	213.183	39.733	-13.697	262.450	44.657	111.345	-10.265	267.151	169.980	75.650	290.857	264.809	0.0003503	0.00035901	0.00010794	641.09	3.5022e-06	3.6631e-06	891.31	204.95	3.1748e-06	7.2988e-06	411.29	152.16	56.209	20.831	6.8937e-06	80.818	9.2724e-05	5.4974e-05	1.4697e-05	568.25	6.4597e-07	5.8669e-07	792.71	182.08	6.7053e-07	5.8356e-07	366.03	135.95	49.962	18.797	5.9656e-07	72.049	231.261	61.523	44.981	-10.233	163.698	109.528	-9.959	-5.676	130.726	122.529	-6.611	-2.202	-2.099	1.908	142.747	0.605	-8191	255	
2140.009	1	1	0	0	0.09098	0.095384	0.13991	0.08337	0.062909	0.16004	0.071706	0.10134	0.023729	0.35229	0.21135	0.088733	0.19587	0.17323	0.34239	0.078201	-2.0958	-2.5187	-1.9958	-2.7333	-2.5042	-2.3333	-2.7979	-2.2812	-2.2313	-2.8042	-2.1042	-2.6625	-2.6792	-2.2062	-2.7417	-2.5104	281.544	59.423	199.930	199.232	165.326	76.668	-20.075	216.360	292.274	108.568	-17.676	221.805	336.103	293.758	95.478	288.396	0.00033171	0.00062574	0.00011392	640.4	3.3283e-06	4.6527e-06	900.99	205.28	4.2391e-06	4.3558e-06	410.73	152.49	56.451	21.075	4.5715e-06	80.715	9.2311e-05	5.4127e-05	1.4489e-05	569.89	5.6462e-07	5.9409e-07	796.08	183.2	6.2579e-07	6.0041e-07	364.66	135.64	50.126	18.862	6.1928e-07	71.652	236.330	31.199	46.263	-10.009	170.081	132.297	-10.136	-5.592	157.604	163.343	-6.761	-2.178	-1.753	2.355	107.411	0.584	-8191	255	
2140.105	1	1	0	0	0.072022	0.33111	0.1103	0.036442	0.2043	0.083565	0.14468	0.25458	0.10242	0.16004	0.50753	0.24196	0.35306	0.0823	0.11721	0.21319	-1.9146	-2.4479	-2.1042	-2.6042	-2.4792	-2.2917	-2.6896	-2.5021	-2.3333	-2.6458	-2.4208	-2.6917	-2.4667	-2.3167	-2.6083	-2.6646	292.650	208.521	54.365	17.445	92.195	166.187	175.227	305.839	156.280	194.662	-2.991	268.030	317.706	289.113	-1.144	229.647	0.00034214	0.00044206	9.8049e-05	646.21	4.394e-06	4.6876e-06	898.46	206.34	4.4965e-06	3.8149e-06	417.88	155.21	56.805	21.435	3.2136e-06	81.612	9.0218e-05	5.4112e-05	1.4756e-05	572.25	6.0347e-07	5.8328e-07	796.65	185.09	6.4521e-07	5.6156e-07	369.52	138.16	50.844	19.242	5.8628e-07	72.915	237.304	62.547	50.112	-10.320	141.969	109.939	-9.817	-5.753	152.191	142.762	-6.499	-2.657	-1.719	2.068	157.284	0.811	-8191	255	
2140.226	1	1	0	0	0.16514	0.12084	0.083865	0.26887	0.12627	0.1903	0.31301	0.01957	0.21828	0.091792	0.17019	0.2292	0.10767	0.2331	0.13701	0.17623	-1.8563	-2.7208	-2.1813	-2.4958	-2.5854	-2.0896	-2.8625	-2.5062	-2.1896	-2.7562	-2.3125	-2.6292	-2.4979	-2.2687	-2.6417	-2.6396	216.969	228.199	35.991	-11.078	110.035	18.326	6.894	76.939	144.449	156.071	303.458	286.221	132.141	71.619	211.209	205.529	0.00037785	0.00041922	9.642e-05	658.97	5.9135e-06	4.8878e-06	907.5	208.53	1.3678e-06	6.4517e-06	416.74	155.82	57.442	21.506	4.8187e-06	82.244	9.4577e-05	5.5898e-05	1.4449e-05	581.28	6.513e-07	5.6477e-07	805.33	185.54	6.1178e-07	6.0173e-07	370.44	138.59	51.166	19.314	5.7538e-07	73.223	226.132	64.633	56.046	-10.158	145.096	111.257	-10.319	-5.754	191.786	112.178	-6.710	-2.446	-1.813	2.157	133.962	0.618	-8191	255	
2140.322	1	1	0	0	0.25243	0.13882	0.20898	0.18022	0.14218	0.079088	0.28335	0.11875	0.091208	0.17843	0.09311	0.49628	0.27763	0.14682	0.29118	0.18576	-1.7146	-2.6958	-2.2229	-2.5667	-2.4521	-2.1562	-2.5917	-2.3917	-1.9438	-2.6333	-2.5354	-2.4167	-2.6854	-2.1083	-2.5542	-2.6875	138.641	228.574	292.452	191.229	333.032	71.671	304.144	6.968	264.018	126.740	70.998	283.717	80.779	20.793	269.046	238.632	0.00037177	0.00067935	0.00013675	654.44	5.6785e-06	4.286e-06	920.9	212.3	2.6391e-06	4.6858e-06	422.42	156.84	57.671	21.905	4.8854e-06	82.998	9.4188e-05	5.0949e-05	1.4558e-05	580.67	5.8859e-07	5.6546e-07	815.49	188.89	5.8549e-07	5.8516e-07	375.3	140.08	51.407	19.535	5.931e-07	73.753	227.910	44.526	92.310	-10.246	135.060	91.752	-9.853	-5.417	116.685	127.465	-6.560	-2.407	-2.131	2.175	111.897	0.537	-8191	255	
2140.393	1	1	0	0	0.11022	0.29209	0.088117	0.36946	0.1791	0.1139	0.21226	0.25323	0.056288	0.21228	0.21241	0.20566	0.042632	0.14796	0.090873	0.21067	-1.8604	-2.6167	-2.2729	-2.4833	-2.7313	-2.2271	-2.6333	-2.6312	-2.1292	-2.4958	-2.6063	-2.4667	-2.5958	-2.3375	-2.6	-2.7604	15.029	179.449	153.373	315.274	1.812	106.705	302.853	200.573	41.748	113.825	244.231	293.398	4.188	37.079	330.258	290.545	0.00038296	0.00074354	0.00010783	664.5	5.7397e-06	7.6034e-06	919.59	213.23	5.0041e-06	2.6167e-06	424.94	157.64	57.612	21.756	4.4326e-06	82.741	8.8735e-05	5.326e-05	1.504e-05	587.88	6.0111e-07	5.1775e-07	816.5	189.3	5.9973e-07	5.799e-07	376.12	139.8	51.268	19.438	6.2956e-07	73.697	226.970	41.392	62.280	-10.044	149.541	115.991	-9.880	-5.823	142.765	135.771	-6.397	-2.372	-2.206	2.375	131.360	0.935	-8191	255	
2140.490	1	1	0	0	0.42071	0.13606	0.10272	0.25073	0.21847	0.18838	0.22641	0.11083	0.13544	0.15906	0.10825	0.28584	0.052607	0.13817	0.14916	0.10082	-1.775	-2.6562	-2.2833	-2.3042	-2.7646	-2.3563	-2.4083	-2.7333	-2.1208	-2.625	-2.4646	-2.3583	-2.5833	-2.1792	-2.4708	-2.6146	87.682	-18.794	203.895	216.505	-13.957	100.787	-14.752	335.959	75.324	184.439	90.517	298.751	-6.409	329.535	9.360	-19.670	0.00039397	0.00054619	6.8741e-05	667.62	5.2919e-06	3.6267e-06	926	213.87	2.6087e-06	5.5208e-06	424.4	158.07	57.551	21.785	4.722e-06	83.121	9.3315e-05	5.6158e-05	1.3954e-05	594.15	5.9482e-07	5.6346e-07	824.41	190.16	6.1313e-07	5.7567e-07	376.65	140.73	51.398	19.513	5.994e-07	73.862	230.261	57.965	38.483	-10.644	139.406	122.764	-9.938	-5.711	157.044	124.595	-6.556	-2.398	-2.362	1.967	122.199	1.071	-8191	255	
2140.610	1	1	0	0	0.24073	0.29207	0.12774	0.12458	0.12132	0.23359	0.11464	0.18553	0.19892	0.048122	0.28536	0.24622	0.12296	0.22497	0.36241	0.20066	-1.6542	-2.5042	-2.5125	-2.1958	-2.575	-2.5229	-2.5021	-2.6646	-2.1833	-2.6979	-2.6875	-2.2896	-2.6792	-2.3771	-2.3833	-2.8896	65.565	138.118	321.324	293.745	170.126	74.426	259.901	328.388	23.452	156.619	326.896	266.886	289.247	214.610	189.677	242.156	0.00038005	0.00051333	8.6514e-05	669.34	6.8609e-06	3.3559e-06	923.52	213.57	3.9071e-06	3.4498e-06	427.54	157.62	57.528	21.86	5.0652e-06	83.511	9.0602e-05	5.4507e-05	1.4255e-05	593.59	6.1964e-07	5.4935e-07	822.5	189.73	5.8234e-07	5.6516e-07	377.77	140.87	51.553	19.551	5.8441e-07	74.197	223.224	43.248	41.778	-10.495	129.018	97.526	-10.068	-5.658	139.396	162.636	-6.450	-2.001	-2.143	2.135	122.262	0.775	-8191	255	
2140.706	1	1	0	0	0.19829	0.096313	0.18891	0.12598	0.25342	0.23046	0.071725	0.32244	0.16429	0.29882	0.21354	0.2587	0.054103	0.25407	0.31225	0.22561	-1.8729	-2.6104	-2.4042	-2.3854	-2.5896	-2.4896	-2.4313	-2.8688	-2.3646	-2.5854	-2.7479	-2.1875	-2.625	-2.3563	-2.2438	-2.9104	58.186	202.002	-16.593	76.664	146.381	255.305	180.665	296.738	82.723	211.295	301.627	286.493	118.061	-22.226	83.004	246.528	0.00034904	0.00043557	0.00016065	669.3	5.0384e-06	7.3248e-06	920.3	211.42	3.463e-06	4.7691e-06	419.59	156.33	57.174	21.644	5.0722e-06	82.39	9.1529e-05	5.6329e-05	1.5008e-05	592.77	6.0364e-07	5.8242e-07	820.22	187.94	5.6107e-07	5.6025e-07	372.9	139.16	50.986	19.287	6.2042e-07	73.224	230.416	52.472	46.659	-10.486	151.040	112.226	-10.419	-5.566	164.657	126.680	-6.589	-2.665	-2.203	2.314	130.476	0.641	-8191	255	
2140.801	1	1	0	0	0.10048	0.22672	0.09301	0.052681	0.17445	0.13479	0.20553	0.16152	0.10285	0.24255	0.29025	0.083863	0.018448	0.025096	0.13655	0.18211	-1.8625	-2.4354	-2.6	-2.3667	-2.6292	-2.4562	-2.2104	-2.6792	-2.3604	-2.4833	-2.6333	-2.1896	-2.6688	-2.4896	-2.3771	-2.8604	36.716	44.880	203.294	214.793	30.799	109.417	174.767	326.603	174.651	266.186	296.836	243.501	314.089	181.383	273.033	231.115	0.00037215	0.00042202	0.00010628	660.22	4.852e-06	3.4383e-06	916.58	209.46	4.41e-06	3.1679e-06	421.38	156.38	57.094	21.532	4.0147e-06	81.858	8.7875e-05	5.5285e-05	1.5119e-05	585.52	5.9488e-07	5.6073e-07	813.66	187.23	6.0311e-07	5.7202e-07	371.23	138.92	50.852	19.237	5.9412e-07	72.833	226.157	27.869	56.800	-10.082	126.453	109.788	-10.463	-5.773	163.852	144.451	-6.440	-2.332	-1.650	1.574	135.355	0.450	-8191	255	
2140.899	1	1	0	0	0.29028	0.17646	0.033258	0.021551	0.17579	0.079804	0.13871	0.17268	0.080687	0.21449	0.12991	0.15464	0.15565	0.21956	0.11002	0.31654	-1.9875	-2.5167	-2.6417	-2.325	-2.5604	-2.5479	-2.45	-2.7083	-2.3563	-2.4542	-2.8063	-2.3854	-2.4542	-2.4792	-2.175	-2.8333	203.428	187.391	256.099	260.369	63.990	98.398	242.785	289.557	19.629	-3.310	264.782	305.558	275.418	291.343	232.938	267.629	0.00036505	0.00069634	0.00013558	653.61	3.5584e-06	3.6383e-06	917.84	212.06	3.7407e-06	3.5572e-06	420.73	155.91	57.195	21.705	2.5443e-06	81.962	9.4592e-05	5.6662e-05	1.4279e-05	582.7	6.1661e-07	5.7018e-07	815.06	188.23	6.0632e-07	6.0247e-07	372.48	139.49	51.027	19.394	5.8753e-07	73.093	231.869	63.172	64.811	-10.549	134.699	118.432	-9.713	-5.421	171.288	127.728	-6.222	-2.467	-2.051	1.960	148.612	0.650	-8191	255	
2140.993	1	1	0	0	0.2985	0.094189	0.28714	0.13228	0.20053	0.04721	0.16631	0.54545	0.25457	0.15538	0.12769	0.38811	0.046421	0.16597	0.075724	0.23246	-1.9062	-2.2729	-2.6333	-2.2646	-2.475	-2.5979	-2.2604	-2.7854	-2.3417	-2.3854	-2.7438	-2.3708	-2.4542	-2.6271	-2.3	-2.8292	307.010	314.866	51.819	266.438	129.816	30.515	274.535	-19.174	267.513	11.286	15.675	-21.594	-21.195	329.811	175.498	314.548	0.00032886	0.00049177	0.00010082	655.95	5.666e-06	3.8931e-06	901.89	209.43	4.0794e-06	4.8366e-06	416.19	155.88	57.039	21.746	1.8652e-06	82.38	9.3099e-05	5.3478e-05	1.3794e-05	581.32	5.987e-07	5.3357e-07	808.45	186.17	6.1228e-07	5.7967e-07	369.76	139.06	50.805	19.39	5.7203e-07	73.283	227.789	31.310	63.131	-10.266	119.622	124.204	-9.972	-5.595	183.890	123.236	-6.819	-2.662	-1.897	2.314	148.062	0.606	-8191	255	
2141.089	1	1	0	0	0.17108	0.067888	0.26747	0.21604	0.22615	0.20405	0.19677	0.11263	0.18753	0.11015	0.22611	0.18984	0.2362	0.2025	0.20971	0.23791	-2.0312	-2.2042	-2.65	-2.1979	-2.325	-2.6813	-1.9688	-2.5875	-2.5771	-2.2125	-2.6771	-2.3833	-2.2542	-2.6958	-2.2083	-2.6646	265.657	26.859	90.376	33.145	308.752	257.940	246.162	310.991	-6.951	101.975	-16.314	245.019	212.005	310.601	289.977	265.136	0.00037653	0.00048522	0.00015613	654.39	5.8498e-06	4.1605e-06	911.46	209.65	2.5043e-06	4.7671e-06	418.99	155.14	57.472	21.7	4.1551e-06	82.176	9.3665e-05	5.1323e-05	1.4908e-05	582.15	6.1077e-07	5.453e-07	808.21	186.06	6.2585e-07	5.7476e-07	371.18	138.28	51.01	19.358	5.58e-07	73.265	225.607	45.819	62.439	-10.122	141.361	102.829	-9.956	-5.746	162.204	139.833	-6.724	-2.614	-1.935	2.028	128.020	0.443	-8191	255	
2141.210	1	1	0	0	0.26594	0.038051	0.16115	0.076403	0.060872	0.19318	0.30782	0.17346	0.17789	0.096159	0.26887	0.26979	0.25598	0.12752	0.10532	0.1435	-2.0792	-2.0229	-2.6792	-2.3729	-2.2458	-2.7042	-2.2604	-2.7021	-2.4354	-2.2625	-2.7125	-2.5938	-2.4042	-2.5271	-2.175	-2.5667	86.840	115.148	103.180	211.358	133.555	20.636	254.576	-15.820	146.221	5.831	325.262	265.039	267.881	269.995	335.423	278.620	0.00038289	0.0004237	0.00012012	658.66	6.5817e-06	2.5938e-06	922.22	210.98	2.8819e-06	4.6e-06	417.35	156.29	57.414	21.724	6.2501e-06	82.359	9.2955e-05	5.4938e-05	1.5155e-05	587.02	6.2312e-07	5.6603e-07	816.62	188.18	5.7497e-07	5.5459e-07	372.96	139.34	51.177	19.414	6.0304e-07	73.422	229.435	40.852	59.088	-10.162	137.144	120.678	-10.256	-5.641	161.398	124.150	-6.538	-2.280	-1.685	1.500	121.939	0.763	-8191	255	
2141.306	1	1	0	0	0.087649	0.085631	0.11539	0.14569	0.20412	0.16388	0.21352	0.39817	0.23612	0.12634	0.10242	0.48246	0.22851	0.13875	0.13281	0.21864	-2.175	-2.1771	-2.5229	-2.5333	-2.3958	-2.7146	-2.4292	-2.5792	-2.7792	-2.2771	-2.6604	-2.5896	-2.2313	-2.6479	-2.3167	-2.4021	100.155	77.172	112.260	320.412	214.044	151.882	315.750	314.829	165.156	240.980	254.319	-21.918	44.653	54.187	85.309	267.347	0.00037895	0.00034743	0.00012452	656.1	2.5318e-06	3.154e-06	911.01	212.72	3.5614e-06	4.202e-06	422.29	156.2	57.267	21.699	4.7562e-06	82.871	9.2028e-05	5.3208e-05	1.494e-05	581.61	6.0263e-07	5.5965e-07	811.13	188.09	6.0727e-07	5.6499e-07	374.13	139.75	51.361	19.466	6.161e-07	73.734	231.398	41.705	69.789	-10.123	113.593	120.700	-9.942	-5.632	152.143	128.922	-6.615	-2.386	-2.204	1.847	123.348	0.850	-8191	255	
2141.402	1	1	0	0	0.26178	0.12198	0.052327	0.41002	0.21779	0.27275	0.22346	0.28625	0.076828	0.20221	0.43502	0.20737	0.054121	0.078984	0.28244	0.20504	-2.2521	-2.3167	-2.5021	-2.5083	-2.2188	-2.7104	-2.6542	-2.2833	-2.6479	-2.2333	-2.6188	-2.6542	-2.2292	-2.7167	-2.3771	-2.5438	46.113	2.420	64.351	270.131	13.668	35.828	334.576	278.404	272.597	119.395	268.122	255.174	244.767	284.920	314.207	296.561	0.00037524	0.000438	0.00013414	650.09	5.0516e-06	4.9917e-06	903.97	209.64	3.2285e-06	4.8271e-06	419.08	155.26	58.185	21.758	6.2708e-06	82.852	9.4232e-05	5.4449e-05	1.5453e-05	577.4	5.9926e-07	5.7451e-07	803.15	186.04	6.0097e-07	5.9796e-07	370.64	138.5	51.524	19.48	6.0667e-07	73.625	229.461	56.233	49.557	-10.451	137.850	85.245	-9.871	-5.493	155.871	152.448	-6.444	-2.255	-1.969	2.035	121.825	0.977	-8191	255	
2141.498	1	1	0	0	0.17867	0.11669	0.17193	0.32341	0.090071	0.043689	0.27634	0.11133	0.15715	0.26341	0.24608	0.18512	0.20521	0.085716	0.19317	0.36143	-2.4375	-2.2167	-2.3521	-2.6354	-2.0687	-2.65	-2.5729	-2.2125	-2.5833	-2.1875	-2.5979	-2.7104	-2.1708	-2.5271	-2.4	-2.4521	83.208	303.117	112.202	303.334	108.956	193.487	-5.030	246.821	246.930	265.482	-10.618	282.302	85.203	231.920	112.920	220.702	0.00035395	0.00026192	0.00012784	655.92	4.3159e-06	2.8563e-06	910.63	211.14	5.7838e-06	4.1709e-06	420.91	156.43	57.969	21.837	3.3398e-06	82.631	9.3944e-05	5.3691e-05	1.5228e-05	583.22	5.7444e-07	5.9575e-07	808.54	187.45	6.1797e-07	5.33e-07	373.07	139.04	51.513	19.543	5.852e-07	73.694	229.686	49.862	54.326	-10.337	162.716	101.668	-9.915	-5.697	154.316	131.810	-6.426	-2.644	-2.069	1.890	147.326	0.929	-8191	255	
2141.619	1	1	0	0	0.31745	0.29702	0.2809	0.34138	0.17988	0.1021	0.18526	0.32654	0.096953	0.26468	0.19149	0.26306	0.26661	0.20503	0.13008	0.25886	-2.2375	-2.475	-2.4271	-2.7021	-2.0458	-2.5958	-2.5292	-2.3312	-2.8104	-2.3	-2.475	-2.8625	-2.1583	-2.3604	-2.4667	-2.4167	174.678	296.964	168.974	317.705	231.983	326.606	281.140	-17.236	14.563	294.603	164.963	299.256	82.294	-21.782	43.479	-19.412	0.00039397	0.00055924	0.00011454	661.88	4.4809e-06	4.2923e-06	915.33	212.72	4.117e-06	4.5881e-06	422.6	156.07	57.791	21.828	5.2493e-06	82.891	9.4308e-05	5.7747e-05	1.5423e-05	585.26	5.7383e-07	5.8054e-07	814.46	188.49	6.1189e-07	5.7876e-07	375.14	139.38	51.338	19.539	6.0383e-07	74.016	226.527	48.651	53.360	-10.487	151.571	108.172	-10.160	-5.623	155.497	135.027	-6.529	-2.407	-1.986	2.635	137.174	0.753	-8191	255	
2141.691	1	1	0	0	0.29872	0.087981	0.1715	0.051664	0.138	0.1075	0.11903	0.12174	0.094132	0.087491	0.36688	0.11916	0.34832	0.12709	0.24268	0.13682	-2.0833	-2.3979	-2.3333	-2.7	-2.1729	-2.5229	-2.5896	-2.1479	-2.5062	-2.4417	-2.4271	-2.55	-2.325	-2.6813	-2.5438	-2.0583	150.010	260.898	234.541	46.079	131.244	123.226	307.837	20.848	213.951	279.632	290.008	327.391	281.563	161.495	126.875	309.071	0.00038384	0.00043818	8.7643e-05	666.08	5.9905e-06	2.9475e-06	930.01	213.98	2.2959e-06	3.4843e-06	423.33	158.43	58.694	22.003	5.5094e-06	83.183	9.4697e-05	5.392e-05	1.407e-05	590.24	6.1268e-07	5.8726e-07	822.39	190.41	6.4042e-07	5.4562e-07	376.3	140.88	51.871	19.69	6.3201e-07	74.206	228.465	54.608	48.458	-10.481	139.617	116.403	-9.862	-5.382	136.311	135.102	-6.728	-2.583	-2.144	1.920	155.949	0.974	-8191	255	
2141.787	1	1	0	0	0.22605	0.18399	0.074235	0.033151	0.24951	0.12263	0.12504	0.12129	0.19414	0.2022	0.43229	0.21562	0.099871	0.19138	0.033222	0.20934	-2.2042	-2.4521	-2.2354	-2.6771	-2.3	-2.4583	-2.5729	-2.0771	-2.4646	-2.4042	-2.2812	-2.6792	-2.2562	-2.3875	-2.7854	-2.4021	217.086	101.844	194.390	204.386	247.240	227.681	240.148	273.230	323.156	274.096	317.381	296.013	-0.047	328.163	82.191	279.404	0.00038892	0.00065241	8.2295e-05	658.82	6.6e-06	7.1646e-06	914.64	211.18	1.8895e-06	5.7481e-06	423.45	156.59	57.815	21.838	3.9921e-06	83.45	9.6195e-05	5.2466e-05	1.4464e-05	586.58	6.2778e-07	6.1169e-07	812.3	188.21	6.1875e-07	5.6385e-07	374.11	139.81	51.526	19.56	6.1076e-07	74.222	229.533	46.206	51.071	-10.373	149.851	99.600	-9.827	-5.754	151.151	134.571	-6.418	-2.208	-2.233	1.844	153.766	0.782	-8191	255	
2141.906	1	1	0	0	0.30602	0.11377	0.20712	0.14386	0.079601	0.10197	0.20041	0.066956	0.14471	0.11235	0.23578	0.17676	0.14401	0.23743	0.13913	0.11031	-2.2938	-2.5146	-2.2292	-2.6333	-2.1708	-2.3458	-2.9375	-2.4229	-2.625	-2.6479	-2.3187	-2.6354	-2.35	-2.5354	-2.6813	-2.4396	206.272	83.399	-20.960	99.926	272.461	41.135	286.472	278.639	147.769	280.882	141.298	-21.764	2.110	325.395	66.127	4.191	0.00040313	0.00047242	8.1454e-05	659.66	5.1092e-06	5.0138e-06	917.55	212.07	2.6796e-06	3.9964e-06	423.55	157.53	57.935	21.882	3.4498e-06	83.248	9.4414e-05	5.1157e-05	1.4385e-05	587	6.1352e-07	5.8943e-07	814.57	188.68	6.4053e-07	5.6768e-07	375.58	140.24	51.671	19.596	5.7339e-07	74.053	226.567	44.161	84.552	-10.627	118.742	113.009	-10.247	-5.576	169.552	161.934	-6.441	-2.283	-1.724	1.825	105.264	0.774	-8191	255	
2142.002	1	1	0	0	0.2004	0.19456	0.023309	0.25215	0.24378	0.14961	0.16608	0.16208	0.059599	0.21157	0.12507	0.32214	0.053352	0.1693	0.27794	0.2262	-1.9937	-2.6708	-2.1625	-2.8	-2.6188	-2.1562	-2.7354	-2.4875	-2.4437	-2.6625	-2.4083	-2.6417	-2.5479	-2.1854	-2.7583	-2.4292	206.150	250.766	256.925	305.582	186.661	90.939	14.613	217.716	144.939	162.552	5.294	303.841	163.633	234.565	69.310	50.032	0.00039249	0.00045054	0.00013114	651.98	4.346e-06	3.3702e-06	914.75	211.29	2.3046e-06	4.1546e-06	421.35	156.9	57.594	22.017	2.1726e-06	83.912	9.5537e-05	5.2388e-05	1.4777e-05	581.69	5.695e-07	6.0912e-07	814.33	187.84	5.9461e-07	5.9636e-07	373.52	140.17	51.582	19.688	5.6742e-07	74.566	227.938	53.639	37.325	-10.031	133.432	106.212	-9.895	-5.183	163.737	138.640	-6.868	-2.029	-1.857	1.864	150.104	0.960	-8191	255	
2142.098	1	1	0	0	0.3121	0.089641	0.077589	0.20142	0.25757	0.085415	0.2924	0.13475	0.031128	0.19603	0.056938	0.1999	0.23384	0.080907	0.12297	0.20976	-2.1562	-2.4396	-2.1458	-2.6854	-2.35	-2.3937	-2.8563	-2.4521	-2.4042	-2.6813	-2.2833	-2.5812	-2.4229	-2.275	-2.7771	-2.6417	173.254	203.136	60.839	272.943	206.838	317.587	333.878	212.330	313.390	95.563	-17.260	30.105	305.995	98.109	-12.585	303.610	0.00039347	0.00037967	9.7115e-05	665.78	4.0178e-06	5.2595e-06	915.79	213.63	4.5875e-06	5.3386e-06	423.72	157.5	58.309	22.197	4.0522e-06	83.134	9.4246e-05	5.5971e-05	1.4847e-05	589.84	5.8786e-07	5.8977e-07	817.38	189.86	6.4234e-07	5.6928e-07	373.96	140.36	52.059	19.765	5.8287e-07	74.102	226.049	70.148	71.562	-10.310	99.147	108.732	-9.738	-5.673	133.938	134.902	-6.527	-2.618	-2.291	1.969	139.143	0.690	-8191	255	
2142.194	1	1	0	0	0.28547	0.35926	0.31685	0.13896	0.13193	0.063266	0.20759	0.2331	0.1201	0.12899	0.12808	0.052704	0.15979	0.18865	0.14426	0.27834	-1.9438	-2.7458	-2.2729	-2.525	-2.4792	-2.3312	-2.825	-2.6125	-2.4979	-2.675	-2.3125	-2.7333	-2.5042	-2.1271	-2.6042	-2.6958	316.275	307.339	6.893	0.665	322.758	304.377	194.649	292.840	11.339	257.415	292.145	138.049	-13.958	307.018	152.499	216.975	0.00035693	0.00023432	0.00013481	654.28	5.0366e-06	5.6222e-06	911.74	211.26	1.5605e-06	4.3122e-06	420.74	158.17	58.419	22.1	6.2142e-06	83.756	9.3641e-05	5.2777e-05	1.4946e-05	582.18	6.1661e-07	5.6181e-07	809.88	188.23	6.1566e-07	5.6145e-07	373.3	140.71	52.031	19.815	5.9423e-07	74.622	233.509	26.840	36.792	-10.177	163.458	100.941	-9.532	-5.461	207.393	129.974	-6.437	-2.212	-1.659	1.790	132.487	0.551	-8191	255	
2142.290	1	1	0	0	0.22883	0.022011	0.1543	0.21124	0.26969	0.080913	0.33969	0.22638	0.16309	0.23796	0.13591	0.31649	0.25269	0.02945	0.12746	0.18813	-1.8062	-2.5958	-2.2583	-2.4	-2.5667	-2.1437	-2.85	-2.625	-2.2833	-2.8146	-2.4208	-2.6708	-2.5229	-2.2	-2.5354	-2.7396	33.827	101.768	273.725	5.054	74.824	262.794	284.975	57.000	97.916	236.668	306.494	265.405	204.175	46.166	-3.385	161.867	0.00038341	0.00034653	0.0001151	658.46	2.1289e-06	3.3082e-06	908.86	211.91	4.5534e-06	4.6362e-06	421.05	157.56	57.945	22.022	5.4706e-06	83.889	9.3814e-05	5.4091e-05	1.4438e-05	585.12	5.7355e-07	5.5618e-07	810.57	188.37	6.2731e-07	5.4562e-07	373.25	140.71	51.867	19.717	6.0105e-07	74.696	228.504	76.051	76.659	-10.314	165.239	97.611	-10.468	-5.264	161.084	144.447	-6.325	-2.621	-2.471	2.185	153.771	0.723	-8191	255	
2142.386	1	1	0	0	0.084551	0.1216	0.24106	0.36385	0.066273	0.086319	0.075309	0.16738	0.13328	0.1294	0.065959	0.0962	0.12697	0.43479	0.19106	0.42485	-1.8458	-2.7188	-2.3646	-2.4604	-2.7875	-2.4667	-2.7042	-2.5687	-2.1667	-2.6729	-2.4708	-2.4958	-2.7021	-2.275	-2.5583	-2.7583	89.928	301.394	159.596	12.178	210.128	159.039	301.045	98.218	77.877	273.172	151.756	306.680	302.656	236.087	136.909	259.022	0.00040008	0.00022802	0.00011561	666.47	2.7429e-06	3.5994e-06	917.56	213.23	1.5491e-06	2.9769e-06	424.91	157.84	58.401	21.941	6.5629e-06	83.834	9.6656e-05	5.5176e-05	1.4791e-05	588.29	5.9516e-07	5.7844e-07	816.97	189.59	5.9135e-07	5.6859e-07	376.45	140.63	51.898	19.63	5.9332e-07	74.493	225.730	61.992	59.028	-10.155	141.440	99.975	-9.969	-5.582	132.421	130.733	-6.781	-2.719	-1.883	1.844	148.829	0.761	-8191	255	
2142.482	1	1	0	0	0.25762	0.13721	0.19032	0.12047	0.15346	0.11241	0.35962	0.25335	0.10213	0.098963	0.2857	0.15457	0.19952	0.092365	0.19093	0.13195	-1.7437	-2.85	-2.3708	-2.3479	-2.7021	-2.2583	-2.7812	-2.5333	-2.2729	-2.6896	-2.4479	-2.5042	-2.7854	-2.2625	-2.5583	-2.85	108.615	285.317	268.060	140.855	180.596	63.433	236.972	219.356	165.739	163.322	304.040	24.958	262.958	-3.732	282.618	269.435	0.00040002	0.00052246	8.1018e-05	660.17	6.2183e-06	2.9831e-06	919.05	212.89	2.1609e-06	2.7333e-06	422.11	157.44	57.643	22.078	6.5463e-06	83.277	9.475e-05	5.4756e-05	1.3914e-05	586.89	5.7686e-07	5.4781e-07	816.15	188.76	5.9185e-07	5.6099e-07	373.59	139.98	51.621	19.637	5.9469e-07	73.938	230.361	56.350	56.678	-10.190	137.367	125.986	-10.243	-5.647	156.421	142.667	-6.558	-2.808	-2.366	2.307	148.696	0.863	-8191	255	
2142.579	1	1	0	0	0.063633	0.20745	0.26175	0.24636	0.086597	0.14707	0.35395	0.12287	0.26264	0.37129	0.20422	0.15882	0.13737	0.2057	0.042071	0.11932	-1.8708	-2.7917	-2.3729	-2.3771	-2.8	-2.4042	-2.4604	-2.6688	-2.175	-2.6354	-2.6604	-2.3354	-2.7667	-2.3292	-2.5187	-2.8479	177.196	173.766	293.621	311.990	24.970	90.963	234.769	259.465	270.800	32.522	314.717	200.323	334.277	102.022	193.074	182.823	0.00040261	0.00037594	8.1806e-05	653.18	3.3127e-06	4.2791e-06	914.33	211.85	3.5608e-06	5.1095e-06	421.22	157.54	59.163	21.955	5.4113e-06	83.882	9.559e-05	5.2222e-05	1.473e-05	583.47	6.1307e-07	5.5333e-07	815.19	188.24	5.7215e-07	5.5865e-07	374.54	140.52	52.251	19.647	5.6214e-07	74.486	230.740	48.119	61.217	-10.118	152.777	96.961	-9.768	-5.877	150.364	121.345	-6.241	-2.518	-2.258	2.209	119.327	0.627	-8191	255	
2142.699	1	1	0	0	0.182	0.26726	0.18905	0.23924	0.023147	0.23832	0.13798	0.21198	0.23382	0.085156	0.20584	0.13454	0.064795	0.12234	0.029412	0.22545	-1.7396	-2.6833	-2.6271	-2.2833	-2.6688	-2.4771	-2.4396	-2.7542	-2.2229	-2.6354	-2.6937	-2.0729	-2.6771	-2.4354	-2.1083	-2.775	1.321	76.019	310.159	274.664	76.259	18.699	159.149	297.381	323.161	115.834	255.767	133.694	166.050	9.533	110.122	277.778	0.00035442	0.00069429	0.00010644	654.53	5.3398e-06	3.1228e-06	905.67	211.17	2.6485e-06	2.8448e-06	418.5	157.47	58.064	21.935	5.5852e-06	83.306	9.0424e-05	5.1188e-05	1.4113e-05	582.62	6.1009e-07	5.6916e-07	808.3	187.61	5.9405e-07	5.8887e-07	371.62	140.1	51.626	19.534	5.9724e-07	74.201	230.277	66.385	40.138	-10.675	136.031	101.153	-10.088	-5.768	179.445	126.513	-6.600	-2.211	-2.159	1.775	134.823	0.678	-8191	255	
2142.794	1	1	0	0	0.35169	0.12743	0.063204	0.095162	0.038508	0.39024	0.18158	0.11139	0.14035	0.25716	0.27176	0.10369	0.27067	0.073726	0.18947	0.2268	-1.6792	-2.4375	-2.4938	-2.4583	-2.6562	-2.4833	-2.475	-2.8771	-2.3042	-2.6542	-2.6875	-2.3542	-2.6354	-2.5771	-2.2354	-2.7562	315.130	292.005	313.637	206.582	-12.593	95.285	273.520	58.279	88.686	198.108	304.605	324.699	47.409	178.985	289.311	238.244	0.00038642	0.00048592	0.00012353	656.86	4.5599e-06	6.0302e-06	912.31	211.75	2.5688e-06	4.2459e-06	418.54	157.4	57.515	21.767	5.1143e-06	82.654	9.8106e-05	5.6921e-05	1.3941e-05	583.18	6.0448e-07	5.5299e-07	809.11	187.25	5.8938e-07	5.8682e-07	371.79	139.84	51.524	19.555	6.169e-07	73.791	228.676	54.727	54.527	-10.254	130.111	102.365	-10.517	-5.601	156.368	141.038	-6.714	-2.102	-2.388	1.861	153.689	0.901	-8191	255	
2142.892	1	1	0	0	0.10121	0.07901	0.21928	0.27989	0.13813	0.12825	0.25042	0.085888	0.2045	0.19956	0.12698	0.46576	0.21427	0.074941	0.19795	0.12783	-1.7958	-2.4542	-2.5979	-2.3917	-2.6208	-2.5	-2.2458	-2.8875	-2.4646	-2.3833	-2.8271	-2.2562	-2.5854	-2.4958	-2.1875	-2.9938	128.060	-19.226	257.437	29.139	50.476	50.588	309.282	6.691	4.365	181.392	277.495	282.390	239.129	179.785	23.355	-13.207	0.00035782	0.00052405	0.0001021	651.71	5.1057e-06	2.8446e-06	910.44	212.04	3.1777e-06	5.307e-06	420.82	157.24	58.494	21.833	4.0767e-06	82.757	8.8274e-05	5.1858e-05	1.4541e-05	581.59	6.3356e-07	5.1798e-07	809.69	188.31	5.9962e-07	5.6945e-07	373	140.31	51.893	19.546	5.9196e-07	73.932	228.694	63.016	49.804	-10.008	123.512	108.090	-9.714	-5.399	177.385	121.163	-6.545	-2.478	-2.017	2.167	145.873	0.905	-8191	255	
2142.986	1	1	0	0	0.20968	0.068057	0.22772	0.063463	0.10239	0.073309	0.099165	0.12383	0.12491	0.076535	0.16535	0.22812	0.11502	0.062001	0.40879	0.23027	-1.9646	-2.4292	-2.6458	-2.3125	-2.4437	-2.65	-2.2917	-2.6646	-2.4938	-2.4375	-2.8312	-2.3667	-2.4833	-2.6083	-2.1562	-2.9542	51.297	167.009	183.597	285.102	293.147	1.639	41.950	72.657	26.515	255.580	290.552	179.951	193.063	7.214	196.069	307.819	0.00036491	0.00036924	8.8979e-05	653.79	5.9528e-06	4.2648e-06	907.77	209.14	4.4767e-06	4.9354e-06	421.19	158.28	57.931	22.02	6.3234e-06	82.281	9.5854e-05	5.2705e-05	1.4258e-05	580.32	6.0195e-07	5.506e-07	808.92	186.95	5.9906e-07	5.9144e-07	373.58	140.41	51.744	19.564	6.0843e-07	73.146	222.618	80.990	76.669	-10.627	140.998	152.591	-10.151	-5.614	148.410	136.143	-6.585	-2.443	-2.315	1.492	126.836	1.049	-8191	255	
2143.082	1	1	0	0	0.11525	0.23445	0.048584	0.18593	0.18273	0.096658	0.13422	0.24893	0.060204	0.13344	0.3124	0.12034	0.070558	0.27704	0.25394	0.19694	-2.15	-2.2792	-2.6312	-2.4792	-2.4708	-2.5375	-2.5292	-2.8125	-2.4625	-2.4021	-2.7875	-2.5187	-2.4833	-2.6917	-2.325	-2.8708	112.054	169.663	278.150	260.146	8.195	-20.946	133.813	311.675	292.427	243.506	284.439	0.019	267.705	6.030	68.329	54.916	0.00035702	0.00054971	0.00016573	643.07	5.3117e-06	6.3208e-06	871.21	199.96	3.0209e-06	2.9708e-06	400.81	151.59	55.77	20.439	3.0254e-06	77.416	8.836e-05	5.5888e-05	1.4716e-05	570.99	6.3306e-07	5.8487e-07	777.07	177.71	6.3417e-07	5.4471e-07	353.16	134.96	49.597	18.139	5.9066e-07	68.859	232.395	39.572	72.244	-10.524	143.081	115.836	-9.679	-5.756	141.337	140.764	-6.487	-2.166	-1.579	1.931	123.162	0.922	-8191	255	
#DATA ENDS
