BOXY.EXE: ISS Imagent and Oximeter Data Acquisition Program Version 0.80
Ascii Record File

#ACQ INFORMATION
2  Detector Channels 
16  External MUX Channels 
1  Auxiliary Channels 
5000  Waveform (CCF) Frequency (Hz)
1  Waveforms Skipped 
30  Waveforms Averaged 
1  Cycles Averaged 
16  Acquisitions per Waveform 
10.0806  Updata Rate (Hz) 

#FILE INFORMATION
TRUE -- External MUX Channel results are PARSED.
FALSE -- AC DC and Phase are NOT grouped.
TRUE -- Companion Program Settings File CREATED.
FALSE -- AC data not excluded
FALSE -- DC data not excluded
FALSE -- Phase data not excluded
FALSE -- Auxillary Chn. data not excluded
Tab delimiters

#CALIBRATION STATE
TRUE -- Waveform Calibration Values APPLIED.


#AUX CALIBRATION VALUES
Val Type	aux-1	

Term	1.0000e+00	
Factor	0.0000e+00	


#WF CALIBRATION VALUES
A = Detector Channel
Val Type	A-AC1	A-AC2	A-AC3	A-AC4	A-AC5	A-AC6	A-AC7	A-AC8	A-AC9	A-AC10	A-AC11	A-AC12	A-AC13	A-AC14	A-AC15	A-AC16	A-DC1	A-DC2	A-DC3	A-DC4	A-DC5	A-DC6	A-DC7	A-DC8	A-DC9	A-DC10	A-DC11	A-DC12	A-DC13	A-DC14	A-DC15	A-DC16	A-Ph1	A-Ph2	A-Ph3	A-Ph4	A-Ph5	A-Ph6	A-Ph7	A-Ph8	A-Ph9	A-Ph10	A-Ph11	A-Ph12	A-Ph13	A-Ph14	A-Ph15	A-Ph16	

Term	0.00000e+00	0.00000e+00	0.00000e+00	0.00000e+00	0.00000e+00	0.00000e+00	0.00000e+00	0.00000e+00	0.00000e+00	0.00000e+00	0.00000e+00	0.00000e+00	0.00000e+00	0.00000e+00	0.00000e+00	0.00000e+00	0.00000e+00	0.00000e+00	0.00000e+00	0.00000e+00	0.00000e+00	0.00000e+00	0.00000e+00	0.00000e+00	0.00000e+00	0.00000e+00	0.00000e+00	0.00000e+00	0.00000e+00	0.00000e+00	0.00000e+00	0.00000e+00	0.00000e+00	0.00000e+00	0.00000e+00	0.00000e+00	0.00000e+00	0.00000e+00	0.00000e+00	0.00000e+00	0.00000e+00	0.00000e+00	0.00000e+00	0.00000e+00	0.00000e+00	0.00000e+00	0.00000e+00	0.00000e+00	
Factor	1.00000e+00	1.00000e+00	1.00000e+00	1.00000e+00	1.00000e+00	1.00000e+00	1.00000e+00	1.00000e+00	1.00000e+00	1.00000e+00	1.00000e+00	1.00000e+00	1.00000e+00	1.00000e+00	1.00000e+00	1.00000e+00	1.00000e+00	1.00000e+00	1.00000e+00	1.00000e+00	1.00000e+00	1.00000e+00	1.00000e+00	1.00000e+00	1.00000e+00	1.00000e+00	1.00000e+00	1.00000e+00	1.00000e+00	1.00000e+00	1.00000e+00	1.00000e+00	X	X	X	X	X	X	X	X	X	X	X	X	X	X	X	X	

B = Detector Channel
Val Type	B-AC1	B-AC2	B-AC3	B-AC4	B-AC5	B-AC6	B-AC7	B-AC8	B-AC9	B-AC10	B-AC11	B-AC12	B-AC13	B-AC14	B-AC15	B-AC16	B-DC1	B-DC2	B-DC3	B-DC4	B-DC5	B-DC6	B-DC7	B-DC8	B-DC9	B-DC10	B-DC11	B-DC12	B-DC13	B-DC14	B-DC15	B-DC16	B-Ph1	B-Ph2	B-Ph3	B-Ph4	B-Ph5	B-Ph6	B-Ph7	B-Ph8	B-Ph9	B-Ph10	B-Ph11	B-Ph12	B-Ph13	B-Ph14	B-Ph15	B-Ph16	

Term	0.00000e+00	0.00000e+00	0.00000e+00	0.00000e+00	0.00000e+00	0.00000e+00	0.00000e+00	0.00000e+00	0.00000e+00	0.00000e+00	0.00000e+00	0.00000e+00	0.00000e+00	0.00000e+00	0.00000e+00	0.00000e+00	0.00000e+00	0.00000e+00	0.00000e+00	0.00000e+00	0.00000e+00	0.00000e+00	0.00000e+00	0.00000e+00	0.00000e+00	0.00000e+00	0.00000e+00	0.00000e+00	0.00000e+00	0.00000e+00	0.00000e+00	0.00000e+00	-1.23726e+02	-1.39918e+02	-1.78938e+02	-1.81413e+02	-3.50059e+01	-7.24347e+01	-1.57789e+02	-1.62015e+02	-7.41590e+01	-9.50557e+01	-1.80411e+02	-1.70917e+02	-1.81322e+02	-1.76271e+02	-8.71251e+01	-1.49364e+02	
Factor	1.81544e-05	1.23178e-04	2.51159e-05	1.85326e-01	8.05980e-07	9.73926e-07	1.72092e-01	5.34215e-02	8.30615e-07	1.09759e-06	1.07935e-01	3.07122e-02	2.47813e-02	9.40291e-03	9.68748e-07	1.38253e-02	5.41759e-07	5.53856e-07	1.53778e-07	8.86287e-02	6.03997e-09	6.06804e-09	7.82073e-02	2.56647e-02	6.05508e-09	6.07195e-09	4.76290e-02	1.39290e-02	1.17526e-02	4.39035e-03	6.05682e-09	6.14778e-03	X	X	X	X	X	X	X	X	X	X	X	X	X	X	X	X	



#DISTANCE SETTINGS
A = Detector Channel
A-1	A-2	A-3	A-4	A-5	A-6	A-7	A-8	A-9	A-10	A-11	A-12	A-13	A-14	A-15	A-16	

2.5000e+00	3.0000e+00	2.5000e+00	3.0000e+00	2.0000e+00	3.0000e+00	1.5000e+00	3.0000e+00	3.0000e+00	3.0000e+00	3.0000e+00	3.0000e+00	3.0000e+00	3.0000e+00	1.5000e+00	3.0000e+00	

B = Detector Channel
B-1	B-2	B-3	B-4	B-5	B-6	B-7	B-8	B-9	B-10	B-11	B-12	B-13	B-14	B-15	B-16	

1.0000e+01	1.0000e+01	1.0000e+01	1.4400e+00	1.0000e+01	1.0000e+01	1.5100e+00	1.9400e+00	1.0000e+01	1.0000e+01	1.9900e+00	2.4900e+00	2.4100e+00	2.9000e+00	1.0000e+01	2.9800e+00	




#DATA BEGINS
time	group	step	mark	flag	A-AC1	A-AC2	A-AC3	A-AC4	A-AC5	A-AC6	A-AC7	A-AC8	A-AC9	A-AC10	A-AC11	A-AC12	A-AC13	A-AC14	A-AC15	A-AC16	A-DC1	A-DC2	A-DC3	A-DC4	A-DC5	A-DC6	A-DC7	A-DC8	A-DC9	A-DC10	A-DC11	A-DC12	A-DC13	A-DC14	A-DC15	A-DC16	A-Ph1	A-Ph2	A-Ph3	A-Ph4	A-Ph5	A-Ph6	A-Ph7	A-Ph8	A-Ph9	A-Ph10	A-Ph11	A-Ph12	A-Ph13	A-Ph14	A-Ph15	A-Ph16	B-AC1	B-AC2	B-AC3	B-AC4	B-AC5	B-AC6	B-AC7	B-AC8	B-AC9	B-AC10	B-AC11	B-AC12	B-AC13	B-AC14	B-AC15	B-AC16	B-DC1	B-DC2	B-DC3	B-DC4	B-DC5	B-DC6	B-DC7	B-DC8	B-DC9	B-DC10	B-DC11	B-DC12	B-DC13	B-DC14	B-DC15	B-DC16	B-Ph1	B-Ph2	B-Ph3	B-Ph4	B-Ph5	B-Ph6	B-Ph7	B-Ph8	B-Ph9	B-Ph10	B-Ph11	B-Ph12	B-Ph13	B-Ph14	B-Ph15	B-Ph16	aux-1	digaux	

1679.911	1	1	0	256	0.087257	0.1162	0.16275	0.25448	0.26742	0.1327	0.27147	0.16018	0.15014	0.11909	0.18353	0.15987	0.21658	0.034593	0.13518	0.23106	-2.1125	-2.5854	-3.1292	-2.5021	-2.75	-2.8271	-2.4625	-3.025	-2.7271	-2.5021	-3.125	-2.6	-2.6667	-2.9292	-2.2562	-3.0375	264.523	58.768	-3.918	-60.776	-45.556	0.711	225.323	180.074	272.013	68.308	-29.372	-68.412	25.929	64.963	161.218	210.560	0.00020235	0.0002945	0.00010486	578.58	5.5391e-06	1.5633e-05	601.52	221.51	7.582e-06	4.0915e-06	248.44	88.445	79.559	32.2	5.9495e-06	34.997	0.00078989	0.00078955	0.00020155	638.07	8.7128e-06	8.4468e-06	652.4	234.4	8.8883e-06	8.4828e-06	277.94	96.899	88.841	34.708	7.8961e-06	38.564	198.979	-4.883	188.122	-72.843	250.368	42.937	-74.917	-68.371	215.055	-43.057	-71.766	-67.435	-63.996	-59.742	151.314	-63.763	-8191	255	
1680.007	1	1	0	0	0.2514	0.3249	0.29741	0.29221	0.035571	0.10047	0.24621	0.17568	0.22913	0.072349	0.19128	0.13253	0.19768	0.19048	0.12335	0.11254	-2.45	-2.4333	-2.9708	-2.5354	-2.8875	-3.0833	-2.65	-3.1333	-2.8104	-2.2792	-3.2354	-2.4813	-2.6604	-3.1188	-2.3083	-2.9437	263.854	204.488	249.273	168.689	20.303	215.621	136.309	94.007	128.551	41.005	226.448	161.181	-58.440	-61.891	-60.844	241.549	0.00018768	0.0010259	8.6492e-05	577.42	4.2975e-06	6.6082e-06	601.24	221.39	1.2276e-06	9.0806e-06	251.79	89.124	79.812	32.233	1.2332e-05	34.979	0.00081149	0.00076947	0.00019809	645.6	9.0386e-06	8.3633e-06	653.67	237.74	9.0483e-06	8.376e-06	278.4	98.706	89.044	34.697	7.8079e-06	39.127	174.243	-53.114	188.967	-72.912	80.681	57.702	-74.926	-68.600	-69.141	-2.053	-71.115	-67.452	-64.478	-59.806	45.203	-63.450	-8191	255	
1680.103	1	1	0	0	0.18447	0.102	0.11869	0.081673	0.12773	0.14276	0.26469	0.14085	0.14803	0.14649	0.13216	0.094583	0.19994	0.24228	0.080645	0.19906	-2.6	-2.4375	-2.9813	-2.6396	-2.6437	-3.1104	-2.4938	-2.7667	-2.8917	-2.35	-3.0125	-2.7021	-2.5854	-3.25	-2.375	-2.9917	-67.463	-71.349	252.247	221.636	19.393	-55.900	68.748	-71.028	144.930	-85.382	244.397	-57.221	-81.770	-31.439	61.569	223.513	0.00015189	0.00092293	0.00018582	576.87	3.0999e-06	8.9338e-06	595.86	220.73	4.3859e-06	1.1261e-05	248.2	87.113	79.406	31.908	1.3927e-06	34.758	0.00079783	0.00074779	0.00019593	649.9	8.7373e-06	8.181e-06	648.16	238.68	8.7907e-06	8.2535e-06	276.44	98.614	88.156	34.399	7.9786e-06	39.507	-54.159	7.735	-3.102	-73.099	81.630	-57.879	-75.200	-68.403	1.864	88.493	-71.710	-67.689	-64.238	-59.899	-56.277	-63.699	-8191	255	
1680.175	1	1	0	0	0.15984	0.10544	0.23297	0.30754	0.06197	0.23521	0.1982	0.20218	0.12597	0.051344	0.11413	0.1669	0.13029	0.23883	0.12946	0.21525	-2.5146	-2.3292	-3.0062	-2.8438	-2.6021	-3.2771	-2.5083	-2.9125	-2.975	-2.225	-3.1542	-2.8083	-2.5604	-3.2958	-2.3187	-2.7458	85.561	194.931	122.688	191.970	43.832	107.186	149.888	247.793	-79.309	-80.802	10.856	21.023	-67.330	31.340	212.079	-81.288	0.00023636	0.00081584	3.8238e-05	573.94	6.453e-06	5.2207e-06	598.71	218.16	4.9365e-06	1.0158e-05	246.09	87.718	78.659	32.158	1.3461e-05	35.007	0.00079347	0.00075981	0.00020492	660.39	8.8385e-06	8.2607e-06	654.88	239.14	8.8367e-06	8.3395e-06	280.44	99.936	88.106	34.527	8.8323e-06	40.278	-73.715	-4.869	124.651	-73.055	95.400	21.650	-75.052	-68.559	227.222	128.507	-71.776	-67.568	-64.234	-59.430	237.653	-63.521	-8191	255	
1680.295	1	1	0	0	0.24053	0.26124	0.12968	0.15116	0.23131	0.034491	0.056435	0.10342	0.12675	0.26567	0.2043	0.16873	0.063924	0.13861	0.11573	0.13939	-2.5375	-2.1979	-3.0542	-2.7896	-2.45	-3.1042	-2.5312	-2.7167	-3.1854	-2.1958	-3.0521	-2.7646	-2.4292	-3.1229	-2.3542	-2.9146	121.349	203.398	131.485	-37.913	242.192	67.571	165.961	-70.717	137.109	102.160	-38.335	227.014	129.350	48.869	209.017	-21.575	8.5144e-05	0.0012554	0.00022222	578.05	7.7406e-06	1.0789e-05	597.22	215.22	1.2369e-05	1.1587e-05	246.49	88.203	79.633	32.145	3.1806e-06	35.523	0.00080093	0.00077215	0.00022738	666.89	8.9843e-06	8.38e-06	671.41	238.77	8.9509e-06	8.4646e-06	287.36	100.85	88.487	34.563	9.4986e-06	40.376	200.166	241.677	87.249	-73.047	129.648	-10.135	-74.937	-68.397	28.566	26.858	-71.607	-67.574	-64.107	-59.611	-78.899	-63.951	-8191	255	
1680.391	1	1	0	0	0.12566	0.12347	0.062753	0.20052	0.15309	0.11326	0.060371	0.25522	0.26529	0.029674	0.30484	0.11691	0.28482	0.18998	0.14905	0.33053	-2.6688	-2.425	-2.9375	-2.9021	-2.3271	-3.1417	-2.7917	-2.8229	-3.1	-2.4667	-2.9417	-2.9792	-2.4417	-3.1208	-2.7021	-2.5438	26.082	-16.496	35.910	198.356	245.261	166.990	123.293	255.454	200.557	-55.917	199.344	264.489	-61.783	-61.703	47.887	218.171	0.00013795	0.00043472	0.00020561	581.02	6.9767e-06	3.2351e-06	608.79	215.56	8.1103e-06	1.2827e-05	251.8	88.635	79.759	31.966	9.2713e-06	35.462	0.00079039	0.00077035	0.00024275	666.96	8.7802e-06	8.4223e-06	683.61	237.39	8.6781e-06	8.5306e-06	292.66	100.45	88.085	34.773	9.833e-06	40.27	200.898	129.714	39.703	-72.940	-4.808	224.152	-74.991	-68.692	38.699	206.839	-71.534	-67.653	-64.266	-59.709	51.654	-63.334	-8191	255	
1680.488	1	1	0	0	0.086691	0.10367	0.081152	0.062367	0.23048	0.064612	0.18524	0.096009	0.1142	0.12527	0.33874	0.12665	0.1232	0.12416	0.14794	0.19119	-2.675	-2.5583	-2.8688	-3.0833	-2.375	-3.1021	-2.9292	-2.5625	-3.1125	-2.7021	-2.6646	-3.1875	-2.475	-2.8042	-3.0312	-2.5458	95.128	-21.922	175.370	-40.061	129.253	252.058	-74.894	211.166	144.362	178.134	240.435	179.011	221.677	-9.945	213.499	-15.251	0.00019875	0.00032864	0.00016046	580.32	4.0291e-06	9.9232e-06	609.72	215.97	2.489e-06	3.8406e-06	249.31	89.016	79.111	31.979	8.1744e-06	35.082	0.00077426	0.0008046	0.00025215	662.26	8.5804e-06	8.8954e-06	685.57	235.93	8.4652e-06	9.0541e-06	292.59	99.568	87.449	35.009	9.6318e-06	39.56	254.082	-85.201	92.000	-72.720	47.113	167.005	-75.014	-68.648	161.327	194.345	-72.131	-67.426	-64.326	-59.804	-62.423	-63.383	-8191	255	
1680.608	1	1	0	0	0.18828	0.2088	0.19261	0.056991	0.18396	0.13331	0.13393	0.069275	0.13049	0.19266	0.034064	0.07631	0.20829	0.066951	0.049941	0.12964	-2.8083	-2.5667	-2.7313	-3.1125	-2.3604	-3.0187	-3.2021	-2.4458	-3.2	-2.6667	-2.775	-3.1833	-2.4646	-2.9938	-2.8604	-2.5563	-81.556	-39.790	246.858	42.581	-29.517	-82.759	257.653	-84.728	265.777	72.915	94.199	12.996	206.270	243.029	132.613	201.767	0.00017561	0.00089928	0.00020329	575.03	6.7191e-06	1.1517e-05	596.68	215.5	8.186e-06	9.7954e-07	249.08	88.305	79.048	31.976	8.3227e-06	35.255	0.00074118	0.0008368	0.00024203	649.67	8.2008e-06	9.1982e-06	670.4	233.97	8.1698e-06	9.4688e-06	288.73	98.747	87.859	35.573	9.5662e-06	39.534	184.784	103.606	-54.208	-72.806	64.854	195.264	-74.910	-68.525	147.456	-62.990	-72.029	-67.968	-64.457	-59.585	-30.877	-63.824	-8191	255	
1680.703	1	1	0	0	0.053329	0.15495	0.1548	0.19548	0.14628	0.14843	0.14966	0.24691	0.20546	0.1108	0.20091	0.08667	0.34329	0.090816	0.13687	0.073513	-2.7417	-2.7542	-2.525	-3.225	-2.525	-3	-3.0021	-2.5187	-3.1	-2.7375	-2.6271	-3.1479	-2.6208	-2.925	-3	-2.4354	198.883	-19.248	-16.709	230.545	-12.795	168.411	236.940	192.674	247.791	-48.425	171.160	153.893	200.703	256.805	206.498	271.988	0.00025351	0.00068022	0.00011444	573.53	7.5729e-06	3.134e-06	594.11	215.92	8.9107e-06	1.1261e-05	247.68	89.403	79.776	32.418	1.2951e-05	35.47	0.0007699	0.00091509	0.00024482	651.54	8.8819e-06	1.0277e-05	672.83	236	9.0899e-06	1.0685e-05	292.78	100.87	90.795	36.772	1.0126e-05	40.456	186.030	123.327	-81.486	-73.071	-73.369	168.337	-74.766	-68.289	247.527	114.938	-71.940	-67.755	-64.528	-59.867	97.715	-63.699	-8191	255	
1680.776	1	1	0	0	0.19753	0.037108	0.22154	0.35543	0.2105	0.25529	0.12928	0.07979	0.15781	0.097356	0.074746	0.17056	0.12922	0.11612	0.067662	0.18479	-2.2542	-2.8583	-2.3479	-2.9729	-2.5687	-2.8312	-3.2833	-2.4167	-2.8646	-2.9625	-2.4125	-3.2125	-2.4396	-2.7042	-2.9854	-2.4583	32.891	79.116	-5.191	243.839	45.689	-44.358	195.394	9.738	240.582	255.745	237.199	65.780	239.989	272.044	107.942	143.562	0.00021137	0.00038311	0.00024334	571.64	6.5932e-06	9.888e-06	593.84	214.69	6.3075e-06	1.1081e-05	247.48	90.081	80.19	32.431	1.3384e-05	35.655	0.0008897	0.0010221	0.00026147	659.14	1.0355e-05	1.1366e-05	679.36	238.11	1.0695e-05	1.1592e-05	298.67	102.84	94.491	37.493	1.0836e-05	41.558	173.057	5.531	218.561	-73.247	234.238	68.608	-75.394	-68.412	177.278	39.875	-71.863	-67.440	-64.473	-59.513	34.544	-63.966	-8191	255	
1680.895	1	1	0	0	0.082372	0.050491	0.21932	0.21371	0.091563	0.16524	0.18699	0.21011	0.11945	0.13184	0.10588	0.19063	0.15263	0.16031	0.10906	0.26998	-2.4396	-3.0646	-2.4188	-3.2562	-2.6083	-2.6646	-3.3333	-2.5729	-3.2042	-2.9083	-2.3812	-3.1271	-2.7	-2.7542	-2.875	-2.4292	231.661	213.695	182.590	235.338	64.680	214.585	173.988	215.905	187.880	58.896	-43.652	231.109	268.462	177.459	163.298	202.708	0.00022046	0.0017828	0.00023009	569.24	5.536e-06	6.461e-07	591.59	213.21	6.404e-06	1.3698e-05	243.9	90.14	80.88	32.606	2.2104e-06	35.134	0.0010543	0.0011052	0.00028175	670.01	1.227e-05	1.2246e-05	688.1	241.46	1.2572e-05	1.2344e-05	302.32	105.61	97.708	37.894	1.1339e-05	42.361	152.357	-25.052	182.258	-73.241	231.009	-2.261	-74.707	-68.700	153.359	-14.384	-71.890	-67.864	-64.440	-59.734	154.856	-63.970	-8191	255	
1680.991	1	1	0	0	0.081279	0.2866	0.31879	0.34689	0.07098	0.1509	0.095974	0.30825	0.26543	0.066915	0.17791	0.30288	0.076844	0.086919	0.19266	0.31492	-2.5271	-3.125	-2.4562	-3.1042	-2.8479	-2.5729	-3.1896	-2.5292	-2.8375	-2.9292	-2.3937	-3.0875	-2.8458	-2.5458	-2.9813	-2.5021	-26.283	229.097	70.808	245.032	-15.821	171.719	199.677	192.410	254.669	22.250	167.732	-71.450	169.291	229.893	83.153	-70.949	0.00023071	0.0010819	0.00012937	558.83	3.6806e-06	1.6409e-05	581.62	210.72	7.3193e-06	7.741e-06	243.93	88.586	80.243	32.432	2.7166e-06	34.926	0.001172	0.0011263	0.00029078	676.72	1.3226e-05	1.2315e-05	680.06	244.51	1.3452e-05	1.2328e-05	302.31	107.03	98.829	37.778	1.1474e-05	43.378	211.576	-31.985	-16.384	-73.416	174.925	-2.308	-75.165	-68.776	34.347	-6.630	-72.033	-67.805	-64.128	-59.658	129.481	-63.649	-8191	255	
1681.087	1	1	0	0	0.21427	0.062456	0.059858	0.18724	0.42315	0.26029	0.12425	0.24557	0.049345	0.36932	0.15305	0.23015	0.063914	0.21773	0.20648	0.11095	-2.2313	-3.1146	-2.3896	-2.8833	-2.8583	-2.4604	-3.1375	-2.5729	-2.5312	-3.1708	-2.4	-2.9521	-3.0458	-2.6104	-3.1792	-2.4854	117.957	149.407	-21.910	266.879	5.179	216.091	203.023	254.389	64.949	102.833	249.520	270.051	213.626	-38.557	-39.444	-64.219	3.151e-05	0.00031228	0.00018918	555.18	9.3251e-06	1.324e-06	581.31	210.77	5.6142e-06	1.5289e-05	243.11	88.964	80.801	32.586	4.8156e-06	35.228	0.0012218	0.001128	0.00029521	694.58	1.366e-05	1.2497e-05	680.67	249.92	1.3735e-05	1.2469e-05	305.16	110.75	99.125	38.077	1.1828e-05	44.896	-41.206	204.799	-73.982	-73.256	76.125	111.120	-75.105	-68.683	79.902	-22.304	-71.909	-67.726	-64.327	-59.769	32.972	-63.473	-8191	255	
1681.208	1	1	0	0	0.093634	0.090955	0.0462	0.17279	0.12138	0.033021	0.024824	0.092682	0.22099	0.27037	0.022604	0.16035	0.10091	0.19616	0.19105	0.11032	-2.1771	-3.1688	-2.2875	-3.0208	-2.8688	-2.4	-3.2229	-2.6833	-2.5062	-3.1604	-2.6792	-2.9854	-2.9167	-2.5146	-3.0167	-2.7667	107.815	138.472	79.924	-39.467	2.935	237.445	250.990	251.489	189.407	166.800	73.770	258.823	236.407	163.956	-66.911	117.691	0.00037237	0.00019913	0.00020474	555.92	2.3445e-05	4.3468e-06	578.46	211.33	1.0681e-05	7.8653e-06	242.84	89.39	81.485	32.524	1.1074e-05	35.304	0.001223	0.0011393	0.0003064	712.51	1.3418e-05	1.2397e-05	687.56	253.83	1.3154e-05	1.2101e-05	307.28	111.5	97.619	37.473	1.1909e-05	44.665	266.108	94.543	33.872	-72.988	50.137	121.180	-74.836	-68.958	59.282	20.741	-71.842	-67.552	-64.487	-59.975	150.047	-63.845	-8191	255	
1681.304	1	1	0	0	0.18835	0.18771	0.074797	0.092706	0.070501	0.018088	0.23386	0.36376	0.069829	0.14533	0.10402	0.18961	0.043722	0.14585	0.11866	0.089985	-2.2479	-3.0771	-2.4104	-2.9083	-3.0229	-2.45	-3.1125	-2.7292	-2.4854	-3.125	-2.5333	-2.8625	-3.0875	-2.3521	-2.875	-2.7521	-39.452	78.769	-79.873	-85.395	236.863	-15.870	222.177	266.585	196.040	251.353	92.694	24.626	221.083	252.141	200.613	249.815	0.00029698	0.00062786	0.00034063	559.18	8.3561e-06	1.3699e-05	583.88	213.04	1.1503e-05	4.4994e-06	243.99	89.339	80.48	32.354	1.4041e-05	35.377	0.0011176	0.00105	0.00030524	707.83	1.2122e-05	1.135e-05	693.48	251.75	1.1968e-05	1.1137e-05	308.5	109.68	95.032	36.747	1.2087e-05	43.637	258.472	22.326	84.316	-73.195	39.466	99.336	-75.230	-68.585	15.015	-34.894	-71.871	-67.827	-64.445	-59.645	229.954	-64.054	-8191	255	
1681.400	1	1	0	0	0.14942	0.33314	0.26876	0.027776	0.24766	0.1868	0.14303	0.044203	0.133	0.16277	0.022907	0.20396	0.19191	0.17081	0.13006	0.25857	-2.05	-2.9167	-2.4562	-2.6312	-3.0458	-2.425	-3.0625	-3.0354	-2.3937	-3.1292	-2.6979	-2.6813	-3.175	-2.2979	-2.9708	-2.9521	1.523	7.930	97.997	-86.208	16.268	124.811	214.996	155.460	-46.164	70.720	265.192	190.464	270.098	179.300	143.877	146.632	1.6584e-05	0.00081648	0.00011202	556.37	6.1175e-06	4.0765e-06	583.88	212.27	4.3274e-06	7.8747e-06	243.58	88.806	79.55	31.946	6.7386e-06	34.812	0.0010149	0.00096806	0.00030804	689.69	1.0931e-05	1.0579e-05	690.53	244.98	1.0849e-05	1.0297e-05	306.89	105.34	91.856	35.964	1.1886e-05	41.696	-62.678	187.740	260.002	-73.045	104.832	185.273	-75.010	-68.518	28.480	-2.166	-71.961	-67.530	-64.319	-59.278	253.259	-63.708	-8191	255	
1681.496	1	1	0	0	0.19758	0.19866	0.17019	0.11576	0.14723	0.33186	0.048876	0.060978	0.074619	0.19827	0.24075	0.14686	0.37299	0.2363	0.094157	0.083397	-2.0396	-2.9813	-2.5896	-2.6188	-3.0479	-2.6979	-2.7562	-3.1458	-2.4625	-2.9229	-2.7458	-2.7104	-3.1375	-2.675	-2.6312	-3.0604	160.981	-82.502	70.215	62.409	179.854	69.874	-74.355	55.704	-75.565	249.546	206.174	164.075	262.530	272.139	29.970	225.433	0.00010856	0.00089043	0.0001348	563.76	2.8049e-06	1.4223e-05	587.26	211.99	2.36e-06	1.1939e-05	244.45	87.987	79.648	31.772	9.3119e-06	34.615	0.00093199	0.00092753	0.00030205	672.19	1.0074e-05	1.0315e-05	690.18	240.29	9.9131e-06	1.0234e-05	302.33	102.43	90.233	35.828	1.1487e-05	40.634	232.862	107.378	36.516	-73.568	91.202	162.745	-75.168	-68.400	25.312	143.185	-71.736	-67.414	-64.004	-59.451	109.286	-63.595	-8191	255	
1681.592	1	1	0	0	0.17832	0.083875	0.1207	0.17177	0.13774	0.10509	0.16259	0.12147	0.22763	0.10036	0.068617	0.10793	0.10045	0.47803	0.14741	0.22255	-1.8438	-3.0229	-2.8042	-2.5083	-3.2875	-2.6229	-2.9708	-2.9292	-2.3375	-2.9417	-2.8917	-2.7625	-3.0167	-2.6729	-2.6146	-3.2229	207.505	-27.025	132.767	-49.040	268.161	10.880	273.561	244.232	215.487	206.184	139.883	237.541	189.151	258.602	-78.419	152.250	0.00018947	0.00075296	1.4366e-05	562.95	8.7557e-06	8.4003e-06	590.05	212.64	8.0595e-06	1.413e-05	246	87.203	78.984	31.907	1.0395e-05	34.834	0.00086716	0.00095233	0.00029104	663.08	9.5424e-06	1.0705e-05	686.86	237.6	9.586e-06	1.0705e-05	299.47	101.06	89.301	36.176	1.1018e-05	40.272	149.090	171.456	133.556	-73.231	64.717	125.102	-75.191	-68.380	64.202	163.274	-71.730	-67.501	-64.179	-59.643	27.170	-63.061	-8191	255	
1681.689	1	1	0	0	0.19205	0.27269	0.056887	0.27218	0.11169	0.22322	0.09859	0.18833	0.10677	0.25983	0.080889	0.21717	0.041841	0.28932	0.11053	0.24761	-1.8	-2.6708	-2.9771	-2.2167	-3.0292	-2.8292	-2.6896	-3.0333	-2.4125	-3.0271	-2.9479	-2.4417	-3.0438	-2.8167	-2.5083	-3.0187	150.245	95.827	-53.686	193.036	211.686	90.966	189.765	155.988	122.403	273.370	163.102	-61.881	95.340	-85.125	96.648	223.419	0.00021899	0.0002277	9.1096e-05	571.89	5.1282e-06	7.7479e-06	595.17	213.21	3.4297e-06	6.3682e-06	246.11	87.483	78.828	32.001	8.723e-06	35.047	0.00085405	0.0010001	0.00027529	660.54	9.3857e-06	1.1094e-05	683.45	236.28	9.4992e-06	1.1082e-05	295.61	100.57	89.688	36.556	1.0484e-05	40.321	193.532	94.333	-5.612	-73.041	193.536	85.420	-75.031	-68.578	262.739	187.790	-71.753	-67.146	-64.141	-59.639	43.745	-63.801	-8191	255	
1681.783	1	1	0	0	0.052092	0.12054	0.42968	0.26555	0.1933	0.21485	0.24198	0.023628	0.18093	0.12662	0.074493	0.078962	0.22473	0.08525	0.17742	0.30595	-2.1	-2.7854	-3.0083	-2.4792	-3.0479	-2.7438	-2.4917	-3.2792	-2.4375	-2.8	-3.1021	-2.3896	-2.9688	-2.9229	-2.3688	-3.1	248.055	42.449	222.747	193.065	200.837	136.580	218.891	253.854	237.816	212.625	85.824	264.816	272.639	251.057	-77.316	224.235	0.00026941	0.00070605	0.00020173	564.89	6.2979e-06	7.7856e-06	589.27	213.21	1.143e-05	5.7191e-06	243.01	87.495	78.258	32.033	1.1523e-05	34.738	0.00089134	0.0010365	0.00026398	656.14	9.9182e-06	1.1385e-05	676.22	236.11	1.0449e-05	1.1658e-05	294.66	100.83	92.003	36.997	1.072e-05	40.509	174.217	131.113	242.904	-72.944	259.310	-22.291	-74.765	-68.626	189.304	122.221	-71.974	-67.387	-64.270	-59.750	-35.295	-63.421	-8191	255	
1681.879	1	1	0	0	0.2324	0.26819	0.11048	0.20299	0.18422	0.18792	0.06394	0.096179	0.16461	0.074307	0.18636	0.073328	0.17367	0.079964	0.11051	0.14366	-2.1396	-2.6875	-3.0042	-2.5583	-2.875	-2.8625	-2.4708	-3.0708	-2.6458	-2.6146	-3.0042	-2.4688	-2.9021	-2.9813	-2.425	-3.1813	155.834	127.188	-7.875	-54.285	-73.644	3.871	253.481	206.784	219.391	243.162	-68.474	263.834	220.754	-41.953	-33.727	115.598	0.00035212	0.00083656	0.00037992	559.4	5.5312e-06	1.2306e-05	578.28	211.06	1.4215e-05	1.0992e-05	242.09	86.819	78.992	31.872	8.657e-06	34.579	0.001017	0.001103	0.00027695	660.92	1.1748e-05	1.2342e-05	678.11	238.17	1.2513e-05	1.2705e-05	299.97	103.33	96.125	37.592	1.1644e-05	41.565	150.620	34.138	-62.012	-73.092	-19.865	8.932	-75.027	-68.713	167.818	66.385	-71.693	-67.278	-64.095	-59.850	82.973	-63.633	-8191	255	
1682.000	1	1	0	0	0.15295	0.12542	0.14933	0.07878	0.20278	0.21931	0.096945	0.31263	0.21923	0.071079	0.13705	0.24747	0.20695	0.24818	0.18739	0.2313	-2.3312	-2.6479	-3.0563	-2.5479	-2.7583	-3.1042	-2.6188	-3.3667	-2.7708	-2.4625	-3.1375	-2.6083	-2.7604	-3.0083	-2.2604	-2.9667	153.386	67.496	210.555	108.324	205.368	42.048	56.773	181.927	153.843	31.611	78.384	-54.958	-58.963	-45.273	244.351	-81.981	0.00038526	0.0022216	0.00031134	554.76	2.753e-06	9.1967e-06	575.41	209.72	1.9908e-06	1.5584e-05	241.52	86.764	79.025	31.981	1.051e-05	34.731	0.0011934	0.0011667	0.00029464	674.11	1.3476e-05	1.2752e-05	680.04	242.24	1.3828e-05	1.2826e-05	301.29	105.89	98.192	37.614	1.1714e-05	42.817	166.215	-25.901	-71.996	-73.188	150.299	75.564	-74.699	-68.584	108.071	14.533	-71.790	-67.221	-64.117	-59.794	51.722	-64.158	-8191	255	
1682.071	1	1	0	0	0.19997	0.22963	0.16276	0.29534	0.26787	0.03053	0.20794	0.20607	0.20135	0.40124	0.24707	0.1766	0.15686	0.30584	0.018258	0.055236	-2.425	-2.3021	-3.0354	-2.7125	-2.675	-3.0208	-2.3312	-2.9896	-2.9521	-2.4208	-3.2938	-2.4813	-2.775	-3.1021	-2.3021	-3.0083	241.171	69.528	-54.686	203.845	154.293	183.290	68.272	186.382	37.538	-40.706	209.812	251.672	260.333	203.080	231.044	80.461	9.3737e-05	0.0008703	0.00027345	551.45	3.4403e-06	2.0008e-05	576.82	208.99	4.0907e-06	9.387e-06	241.6	87.522	79.465	31.914	2.2367e-06	34.971	0.0012457	0.0011413	0.00029569	686.67	1.3778e-05	1.242e-05	679.3	246.06	1.383e-05	1.2447e-05	301.4	108.63	98.117	37.47	1.1631e-05	44.014	216.850	-64.937	249.165	-73.222	96.847	15.264	-75.055	-68.594	31.534	-3.288	-71.722	-67.539	-64.423	-59.502	-27.657	-63.550	-8191	255	
1682.168	1	1	0	0	0.17117	0.097615	0.17678	0.096083	0.14716	0.15369	0.26353	0.014451	0.096213	0.22573	0.013331	0.086439	0.39409	0.19828	0.10635	0.15833	-2.3896	-2.5687	-3.0396	-2.8396	-2.7396	-3.1688	-2.5896	-2.8604	-2.9042	-2.325	-2.9667	-2.8708	-2.6	-3.2146	-2.4208	-2.775	148.190	216.975	98.869	-31.906	226.750	80.221	247.904	-83.385	15.422	137.225	-62.989	24.743	227.408	60.397	-1.186	189.414	7.3545e-05	0.00084097	0.00023187	552.66	1.2441e-05	4.8336e-06	572.93	209.69	1.6729e-05	6.4208e-06	240.81	87.346	80.068	31.943	1.3198e-05	34.654	0.0012287	0.001129	0.0002982	702.91	1.3613e-05	1.2447e-05	681.69	251.58	1.3635e-05	1.238e-05	303.83	110.76	97.369	37.203	1.1966e-05	44.443	19.890	116.985	86.143	-73.441	95.292	55.076	-74.788	-68.651	67.897	-27.058	-72.057	-67.838	-64.087	-59.724	-75.088	-63.763	-8191	255	
1682.288	1	1	0	0	0.11346	0.072084	0.071099	0.21713	0.22164	0.068124	0.13229	0.3762	0.12616	0.18101	0.043099	0.14509	0.16466	0.057026	0.11301	0.12714	-2.4771	-2.1646	-3.2313	-2.675	-2.5229	-3.0312	-2.4396	-2.725	-3.0542	-2.2625	-3.1688	-2.7208	-2.4479	-3.2271	-2.4667	-2.9271	-40.923	136.478	178.067	218.149	-28.490	-85.790	134.591	160.451	-22.285	89.323	85.935	210.709	204.861	94.469	104.391	196.478	7.398e-05	0.00084489	0.00054843	550.25	1.1454e-05	8.2932e-06	566.13	208.81	7.8236e-06	1.1652e-05	239.53	87.173	79.373	31.752	1.8687e-05	34.379	0.0011626	0.0010935	0.00030412	703.95	1.2792e-05	1.1852e-05	681.96	250.81	1.2559e-05	1.1784e-05	304.62	109.38	95.258	36.469	1.2431e-05	43.601	217.474	-5.787	87.237	-72.965	90.815	17.996	-75.356	-68.416	-18.079	10.595	-71.917	-67.547	-64.373	-59.728	215.338	-63.596	-8191	255	
1682.384	1	1	0	0	0.032704	0.21312	0.08848	0.04361	0.077649	0.22547	0.34409	0.1546	0.16356	0.042122	0.15317	0.083833	0.1865	0.12217	0.31048	0.17755	-2.575	-2.2104	-2.8417	-2.9333	-2.5896	-3.0979	-2.7167	-2.8375	-3.0187	-2.5625	-3.0687	-2.8958	-2.4313	-3.1437	-2.5604	-2.7167	110.136	-26.424	96.438	217.520	138.001	5.181	-64.332	119.259	197.474	4.767	169.534	182.024	34.021	-15.787	49.608	227.828	0.000187	0.00019002	0.00045809	552.57	1.3924e-05	4.5942e-06	569.56	211.79	4.1217e-06	2.202e-06	240.58	88.082	79.189	31.858	2.1522e-06	34.667	0.0010826	0.0010346	0.00031498	696.5	1.1898e-05	1.117e-05	689.42	248.42	1.1809e-05	1.1188e-05	309.53	107.71	94.025	36.331	1.2791e-05	42.865	-14.492	239.766	83.938	-73.128	51.241	-13.056	-74.997	-68.342	98.867	170.596	-71.833	-67.695	-64.037	-59.510	254.029	-63.717	-8191	255	
1682.481	1	1	0	0	0.12534	0.2099	0.11093	0.24251	0.12794	0.17856	0.10794	0.10284	0.18494	0.082747	0.10536	0.16346	0.21919	0.11273	0.3155	0.1596	-2.5833	-2.5771	-2.7125	-3.0417	-2.3375	-3.1312	-2.7313	-2.7938	-2.95	-2.3792	-2.7812	-2.9375	-2.4667	-3.0646	-2.7208	-2.6562	162.130	159.472	-36.996	27.259	59.544	-49.907	53.352	200.317	-19.695	257.705	190.599	60.123	-50.238	142.135	-26.422	259.890	0.00030025	0.0010848	0.0002515	555.8	5.2506e-06	1.7742e-05	574.52	212.25	6.7471e-06	7.476e-06	242.13	87.203	79.105	31.743	6.7448e-06	34.674	0.0010294	0.0010038	0.00032328	685.2	1.1079e-05	1.0766e-05	693.03	243.65	1.0731e-05	1.0633e-05	307.99	104.32	91.488	35.971	1.2296e-05	41.433	-79.583	-86.247	106.851	-73.160	89.181	203.511	-74.937	-68.533	39.354	248.284	-71.814	-67.581	-64.025	-59.488	181.355	-63.769	-8191	255	
1682.577	1	1	0	0	0.17143	0.1422	0.26518	0.099886	0.2519	0.08106	0.13764	0.19227	0.16414	0.19424	0.058348	0.1301	0.08836	0.10631	0.10568	0.028621	-2.6167	-2.3375	-2.8375	-3.0563	-2.5208	-2.8979	-2.7938	-2.3542	-3.3208	-2.5208	-2.8688	-2.8708	-2.5458	-2.9417	-2.7583	-2.425	223.273	114.905	-62.652	223.584	204.807	103.366	264.668	46.863	-52.756	53.485	234.821	187.790	-57.433	80.285	-86.011	167.497	6.4566e-05	0.0010202	0.00029362	562.04	4.8163e-06	1.5851e-05	587.79	212.57	6.719e-06	1.37e-05	245.43	87.636	78.998	31.489	4.4267e-06	34.705	0.00093587	0.00099265	0.00031014	672.19	1.0273e-05	1.0922e-05	695.28	240.69	1.0192e-05	1.1159e-05	306.87	103.14	91.136	36.553	1.2154e-05	41.392	192.352	169.867	141.932	-73.208	115.678	189.017	-74.769	-68.252	22.128	129.662	-71.683	-67.217	-64.182	-59.394	224.125	-63.355	-8191	255	
1682.673	1	1	0	0	0.28462	0.13207	0.15966	0.11269	0.078809	0.10943	0.12613	0.15324	0.022586	0.21992	0.14345	0.30797	0.083474	0.12319	0.083741	0.10325	-2.7604	-2.5042	-2.6792	-3.0375	-2.55	-2.8583	-2.9833	-2.1958	-3.1625	-2.5979	-2.65	-3.1354	-2.4646	-2.9042	-3.0146	-2.4542	121.934	197.741	230.250	197.502	183.486	264.491	144.360	261.473	21.997	-48.329	262.162	122.688	-52.975	212.218	220.818	143.864	0.00027946	0.0017542	0.0002874	561.04	9.0952e-06	1.2486e-05	585.73	212.45	4.0834e-06	7.1483e-06	242.54	86.994	78.648	31.644	9.765e-06	34.391	0.00092205	0.0010791	0.00030754	668.04	1.0359e-05	1.1685e-05	688.8	239.68	1.014e-05	1.193e-05	302.61	102.09	90.888	36.933	1.1612e-05	40.724	216.652	124.018	-82.077	-73.194	27.125	211.955	-75.181	-68.103	120.259	-25.746	-72.132	-67.928	-64.047	-59.725	-0.858	-63.406	-8191	255	
1682.769	1	1	0	0	0.28401	0.20879	0.24531	0.081018	0.12604	0.13832	0.22213	0.17795	0.18015	0.033336	0.015832	0.228	0.10237	0.15635	0.21373	0.23387	-2.5125	-2.8542	-2.3292	-3.2021	-2.5604	-2.7896	-3.2292	-2.1937	-3.0292	-2.6354	-2.4875	-3.3063	-2.4833	-2.8146	-2.9708	-2.2375	161.447	76.060	177.680	45.644	57.575	-21.815	190.809	159.422	176.433	161.711	8.493	203.360	25.946	9.251	88.447	196.086	0.00030033	0.00089028	0.00027441	562.42	5.6278e-06	8.5736e-06	582.42	210.45	1.0512e-05	9.4627e-06	241.67	85.757	78.453	31.379	1.1885e-05	34.486	0.00094221	0.0011275	0.00029361	665.6	1.0652e-05	1.2363e-05	682.95	237.98	1.0717e-05	1.2244e-05	297.68	100.37	91.349	36.652	1.0717e-05	39.968	161.520	149.821	-58.326	-73.323	220.321	59.180	-75.145	-68.607	213.982	26.365	-72.319	-67.545	-64.345	-59.420	-37.147	-63.548	-8191	255	
1682.888	1	1	0	0	0.061251	0.07773	0.068095	0.23129	0.29747	0.12795	0.069853	0.14885	0.46913	0.082672	0.1747	0.25145	0.30268	0.072348	0.28662	0.10344	-2.5021	-2.8438	-2.3688	-3.1188	-2.3937	-2.6979	-3.0625	-2.5104	-2.9146	-2.9125	-2.4208	-3.2188	-2.5958	-2.6333	-3.025	-2.4104	-30.423	114.911	71.332	-54.186	218.991	241.424	125.362	-42.807	-23.185	46.659	250.764	-63.306	-49.214	180.988	183.458	69.759	0.00032695	0.0006657	0.00037389	561.59	5.1294e-06	7.9871e-06	587.93	210.25	9.8403e-06	1.2416e-05	242.39	85.905	78.364	31.577	4.674e-06	34.322	0.00095445	0.0010753	0.00026763	654.76	1.0725e-05	1.1545e-05	672	233.91	1.0758e-05	1.1374e-05	291.21	99.138	91.752	36.102	1.0032e-05	39.638	127.913	31.378	-56.993	-72.695	228.766	37.652	-75.193	-68.659	158.232	-31.609	-71.536	-67.618	-64.112	-59.583	131.098	-63.986	-8191	255	
1682.984	1	1	0	0	0.099184	0.077349	0.15963	0.26611	0.11412	0.135	0.15726	0.17466	0.083893	0.033691	0.059321	0.11471	0.12245	0.22597	0.1877	0.12931	-2.3604	-2.8292	-2.35	-3.0625	-2.5021	-2.9167	-3.1208	-2.6667	-2.9208	-3.025	-2.5542	-3.0292	-2.6188	-2.3354	-3.0812	-2.4729	-50.738	62.486	242.362	203.840	230.045	-25.365	211.336	171.591	-83.122	11.202	239.528	249.414	223.088	67.511	49.536	135.635	0.00015454	0.0011802	0.00018071	568.12	7.429e-06	6.3899e-06	590.56	211.81	2.8773e-06	3.7327e-06	244.74	87.511	79.119	32.024	1.2375e-05	34.725	0.00097668	0.00099758	0.00025426	656.54	1.1251e-05	1.1095e-05	673.82	236.81	1.167e-05	1.1307e-05	294.8	101.99	95.012	36.596	1.0474e-05	41.248	164.472	-50.549	-19.366	-73.061	185.116	10.277	-74.941	-68.289	148.264	32.641	-71.598	-67.587	-64.018	-59.684	66.579	-64.101	-8191	255	
1683.080	1	1	0	0	0.17393	0.126	0.28752	0.047178	0.090675	0.23081	0.029736	0.19262	0.19808	0.21843	0.17763	0.21627	0.10942	0.18105	0.1443	0.12441	-2.5021	-2.8729	-2.3187	-2.8979	-2.8625	-2.5687	-2.9854	-2.5875	-2.4625	-2.9729	-2.4042	-3.0271	-2.7271	-2.3042	-3.2083	-2.6063	46.192	-84.795	219.309	219.757	95.766	120.383	5.481	139.053	235.677	-27.887	-84.910	261.505	201.354	-58.015	173.488	-29.464	0.00029222	0.0010957	0.0001747	565.59	3.5376e-06	1.011e-05	583.32	209.72	3.9072e-06	1.4473e-05	244.95	87.65	79.925	31.783	2.7968e-06	34.669	0.0011187	0.0010629	0.00027542	678.58	1.2869e-05	1.1877e-05	680.26	242.8	1.313e-05	1.193e-05	299.65	106	97.12	36.87	1.0928e-05	42.601	166.009	-37.409	245.974	-73.030	178.134	85.752	-74.922	-68.715	-47.848	78.763	-72.149	-67.632	-64.119	-59.518	259.082	-63.649	-8191	255	
1683.176	1	1	0	0	0.25436	0.2138	0.14844	0.028225	0.29132	0.087472	0.13081	0.17908	0.16801	0.18195	0.18673	0.23219	0.15916	0.10723	0.19449	0.27001	-2.2896	-3.0062	-2.4562	-3.0042	-2.8833	-2.4562	-3.25	-2.8958	-2.9021	-3.1042	-2.4083	-2.8312	-2.7958	-2.5417	-2.8479	-2.8396	123.424	159.270	86.522	-39.785	273.178	230.637	45.647	188.712	110.294	165.535	-59.596	171.923	152.786	-78.606	188.537	189.182	0.00021043	0.00023896	0.0003589	558.14	5.6543e-06	9.7091e-06	578.84	208.19	1.0893e-05	6.8236e-06	241.35	86.933	79.545	31.651	7.7531e-06	34.162	0.0011591	0.0010669	0.00027869	689.02	1.2741e-05	1.1606e-05	670.56	244.87	1.2539e-05	1.1342e-05	295.04	106.28	95.204	36.309	1.0621e-05	42.587	-43.061	-49.265	-41.271	-73.373	40.763	4.781	-75.135	-68.645	44.285	43.722	-71.779	-67.884	-64.443	-59.810	189.779	-63.959	-8191	255	
1683.297	1	1	0	0	0.28603	0.114	0.31015	0.22822	0.099679	0.24777	0.095881	0.046821	0.24871	0.056458	0.072536	0.098574	0.21113	0.12867	0.052118	0.17494	-2.0167	-3.0542	-2.5375	-2.8542	-2.8583	-2.2833	-3.225	-3.0292	-2.65	-3.0854	-2.725	-2.7667	-3.1417	-2.4021	-3.0125	-2.8625	259.369	221.042	-21.387	164.419	258.528	92.433	51.185	213.632	51.936	-29.349	-0.160	173.113	7.823	26.664	-52.679	188.257	0.00014243	0.0010798	0.00048358	558.94	5.9247e-06	1.2932e-05	578.5	209.71	7.4444e-06	5.9719e-06	240.95	87.269	80.038	32.013	1.3718e-05	34.781	0.0010856	0.0010129	0.00027822	695.5	1.211e-05	1.1278e-05	675.23	248.03	1.2198e-05	1.1345e-05	300.74	108.81	95.847	36.771	1.1998e-05	44.173	-37.078	15.206	98.800	-73.302	44.369	99.760	-75.193	-68.334	40.694	44.648	-71.684	-67.555	-64.413	-59.408	112.550	-63.558	-8191	255	
1683.369	1	1	0	0	0.10378	0.1608	0.077141	0.045808	0.15925	0.082833	0.022558	0.42051	0.048639	0.090319	0.097186	0.11415	0.14857	0.15792	0.05705	0.078575	-2.0229	-3.1354	-2.4396	-2.8812	-2.8729	-2.4167	-3.0229	-2.9104	-2.2604	-3.0542	-2.7021	-2.8042	-3.2417	-2.2646	-3.0125	-2.7438	158.325	265.737	85.444	-81.088	-66.875	199.465	71.283	220.382	133.125	-54.782	169.074	90.320	148.812	-64.858	196.502	257.030	0.00011808	0.00081622	0.00043897	557.79	6.7649e-06	6.8431e-06	574.12	209.49	5.1401e-06	9.1824e-06	244.52	89.276	80.601	32.253	1.2335e-05	35.351	0.0011338	0.0010846	0.00032405	716.22	1.3039e-05	1.2355e-05	700.28	254.43	1.326e-05	1.2445e-05	320.89	112.81	98.045	37.811	1.4217e-05	45.634	227.563	8.565	82.720	-73.205	139.596	77.077	-74.944	-68.215	73.617	-61.695	-71.824	-67.755	-64.216	-59.484	162.438	-63.880	-8191	255	
1683.465	1	1	0	0	0.15286	0.044619	0.23337	0.20383	0.11867	0.11524	0.094637	0.32808	0.25113	0.10433	0.14779	0.11747	0.025319	0.13011	0.081533	0.080463	-1.8667	-3.1271	-2.5792	-2.6562	-2.9958	-2.375	-3.1229	-3.0187	-2.4729	-3.15	-2.8875	-2.6208	-3.0625	-2.5271	-2.6792	-3.0708	5.089	267.231	24.042	38.479	196.270	-38.672	191.258	148.874	229.560	153.924	239.335	8.650	93.860	239.146	129.600	25.420	0.00035726	0.00028866	0.00025418	555.96	2.5033e-06	7.579e-06	574.21	211.16	2.0335e-06	1.752e-05	243.87	89.952	80.934	32.369	5.0555e-06	35.237	0.001214	0.0011701	0.00037923	726.69	1.3677e-05	1.3207e-05	726.69	257.04	1.3864e-05	1.3318e-05	335.36	114.26	99.5	38.639	1.5666e-05	45.668	-82.470	-66.927	99.903	-73.311	133.654	107.482	-75.151	-68.832	252.867	134.763	-71.236	-67.443	-64.330	-59.517	189.158	-63.886	-8191	255	
1683.561	1	1	0	0	0.29557	0.2268	0.026458	0.17424	0.3102	0.19409	0.12318	0.30165	0.16542	0.090598	0.15994	0.085856	0.21436	0.1395	0.20398	0.29476	-1.8	-3.0021	-2.8646	-2.5083	-3.1521	-2.3438	-2.8708	-3.1667	-2.2292	-2.9854	-2.7562	-2.6583	-3.3146	-2.6229	-2.8083	-3.1333	-71.696	77.573	208.579	91.386	27.144	214.852	244.744	237.529	106.868	33.107	195.241	-18.837	14.647	20.665	91.684	88.825	0.00029534	0.00051974	0.00011838	556.73	7.6215e-06	1.6584e-05	572.11	211.46	1.2397e-05	1.0508e-05	246.35	88.555	80.883	32.048	3.6192e-06	34.894	0.0012301	0.0012403	0.00040359	721.34	1.3456e-05	1.3917e-05	730.81	253.24	1.3438e-05	1.3947e-05	335.26	111.61	97.892	38.882	1.5478e-05	44.335	180.187	257.265	-27.496	-73.253	99.687	213.072	-75.177	-68.462	42.813	160.181	-71.774	-67.503	-64.606	-59.933	50.978	-64.153	-8191	255	
1683.680	1	1	0	0	0.065646	0.21601	0.19877	0.23543	0.20522	0.24467	0.072292	0.22809	0.22727	0.15827	0.11378	0.2086	0.10436	0.22851	0.17839	0.24428	-1.8229	-2.9375	-2.6958	-2.3792	-3.1479	-2.4813	-2.8937	-3.0812	-2.325	-2.9958	-2.8604	-2.5292	-3.2438	-2.6125	-2.5062	-3.1312	7.561	257.131	236.848	-50.755	-81.850	142.820	35.946	93.356	131.743	-37.405	43.997	191.242	187.018	-78.129	71.642	203.227	0.0002091	0.0025924	0.00025032	557.75	8.3585e-06	8.6753e-06	568.3	210.39	2.9515e-06	2.1417e-05	243.59	87.821	80.945	32.025	9.45e-06	34.553	0.0011719	0.0012874	0.00038777	703.6	1.2725e-05	1.4272e-05	716.79	249.23	1.2747e-05	1.4502e-05	327.69	109.76	97.34	39.356	1.5063e-05	44.098	230.403	130.057	6.246	-73.323	9.846	249.288	-75.474	-68.335	145.491	175.081	-71.900	-67.916	-64.156	-59.397	24.465	-63.608	-8191	255	
1683.776	1	1	0	0	0.43901	0.13443	0.075324	0.22762	0.1525	0.21322	0.33011	0.11291	0.030026	0.11474	0.19147	0.072928	0.22556	0.12541	0.13727	0.074143	-1.8896	-2.6771	-2.9167	-2.3917	-3.0771	-2.6042	-2.575	-3.1979	-2.5417	-2.8542	-3.2812	-2.3979	-3.0667	-2.8917	-2.4938	-3.1104	155.610	267.680	104.102	237.843	65.926	188.489	137.948	155.849	73.918	93.253	103.905	204.884	10.348	179.052	-75.197	239.283	0.0002347	0.0021094	0.00051596	550.8	6.9348e-06	1.1968e-05	569.49	209.99	6.6266e-06	8.9201e-06	243.1	88.935	80.565	32.069	1.2331e-05	34.977	0.0011961	0.001415	0.00038897	709.15	1.3604e-05	1.6053e-05	723.22	251.79	1.3982e-05	1.6274e-05	330.48	111.62	100.25	40.605	1.5244e-05	44.664	156.896	143.131	268.543	-73.399	229.328	268.266	-74.934	-68.435	114.410	54.780	-71.510	-67.425	-64.081	-59.436	0.480	-63.400	-8191	255	
1683.872	1	1	0	0	0.037494	0.26479	0.25806	0.14823	0.1384	0.028989	0.21385	0.13418	0.021204	0.033208	0.030924	0.22473	0.33438	0.11603	0.2331	0.13817	-2.0375	-2.8187	-2.9604	-2.3312	-2.8896	-2.8125	-2.4437	-3.1646	-2.6646	-2.6854	-3.0604	-2.5146	-3.1146	-2.7938	-2.3625	-3.0062	5.836	-14.269	-50.268	262.974	74.152	91.710	-38.164	261.813	143.806	257.333	-49.091	196.602	219.645	227.959	257.447	28.945	0.00048027	0.0018483	0.00033917	551.52	1.7293e-05	3.3294e-06	572.08	210.08	1.6932e-05	1.6391e-05	245.49	89.593	81.255	32.469	4.3897e-06	35.14	0.0013118	0.0015239	0.00038812	711.38	1.4847e-05	1.6777e-05	720	251.62	1.5151e-05	1.6546e-05	328.55	111.77	102.52	40.66	1.4826e-05	44.452	161.325	-83.582	-18.156	-73.335	262.598	241.891	-74.697	-68.621	208.795	39.617	-71.892	-67.551	-63.927	-59.622	267.663	-63.981	-8191	255	
1683.968	1	1	0	0	0.076006	0.066071	0.10128	0.034487	0.16582	0.1549	0.1778	0.022571	0.17201	0.14005	0.076704	0.13145	0.15923	0.16566	0.032345	0.089234	-2.3937	-2.6583	-3.0396	-2.2646	-2.9354	-2.9125	-2.5125	-3.0604	-2.5563	-2.6	-3.2333	-2.4729	-2.9479	-2.9479	-2.3917	-3.1646	-80.414	33.333	47.597	41.490	34.173	135.863	-8.163	244.987	62.185	255.140	134.133	-66.392	-69.133	-72.695	53.722	132.109	0.00053873	0.00060458	8.8929e-05	558.19	1.2747e-05	9.9802e-06	573.32	210.57	6.4943e-06	1.5864e-05	246.11	88.863	80.966	32.344	1.0688e-05	34.921	0.0013994	0.0014865	0.00037144	710.71	1.5814e-05	1.6283e-05	719.16	252.06	1.6458e-05	1.6437e-05	329.89	113.03	105.34	40.55	1.4761e-05	44.814	150.730	-49.385	129.490	-73.253	221.374	54.982	-75.109	-68.249	213.198	18.878	-72.014	-67.538	-64.151	-59.511	20.199	-64.032	-8191	255	
1684.064	1	1	0	0	0.17465	0.10234	0.10196	0.24045	0.13764	0.12837	0.031912	0.10705	0.073462	0.078014	0.31895	0.07137	0.23653	0.086081	0.2709	0.098284	-2.3271	-2.7104	-3.0083	-2.5438	-2.8771	-2.9917	-2.2812	-3.0979	-2.7708	-2.6229	-3.1562	-2.4146	-2.7083	-3.1125	-2.2292	-3.0438	63.581	-68.778	-9.753	245.842	250.014	235.299	-79.840	-41.390	-46.594	208.897	225.390	224.870	268.120	-39.158	14.044	96.565	0.00022935	0.0013997	0.00011879	551.63	3.3992e-06	8.3239e-06	568.06	210.28	2.0973e-06	1.363e-05	241.84	87.527	80.984	32.071	9.8844e-06	34.468	0.0014834	0.0014279	0.00036064	710.18	1.616e-05	1.5189e-05	703.45	251.89	1.6337e-05	1.5168e-05	318.48	112.48	104.72	39.37	1.4079e-05	45.111	148.659	11.403	-75.471	-73.385	44.678	22.862	-75.156	-68.707	-0.028	28.954	-71.802	-67.537	-63.943	-59.884	89.037	-63.981	-8191	255	
1684.161	1	1	0	0	0.054273	0.13182	0.14167	0.087101	0.10606	0.14704	0.21974	0.073148	0.14928	0.1763	0.2547	0.10413	0.2543	0.059297	0.29041	0.15184	-2.2875	-2.4396	-3.0271	-2.5354	-2.7104	-3.1021	-2.3458	-3.0563	-2.9708	-2.3917	-3.2104	-2.6292	-2.6625	-3.1667	-2.4437	-3.0083	253.655	-65.862	223.658	198.306	204.208	-8.741	156.130	270.871	13.500	241.821	205.109	213.194	-52.275	211.611	211.751	31.007	7.8034e-05	0.0009596	9.611e-05	545.89	1.1275e-05	2.5337e-06	564.12	207.77	1.1614e-05	1.1848e-05	240.98	87.286	80.579	32.134	3.3321e-06	34.592	0.0014928	0.0013852	0.00035435	728.22	1.6834e-05	1.5311e-05	705.71	258.7	1.7085e-05	1.5671e-05	323.34	117.39	106.17	39.875	1.4962e-05	47.435	103.084	29.617	100.410	-72.992	60.535	127.007	-74.976	-68.461	83.956	40.539	-71.696	-67.336	-64.332	-59.614	99.074	-63.502	-8191	255	
1684.257	1	1	0	0	0.14608	0.23844	0.12504	0.29525	0.34821	0.17447	0.23314	0.28897	0.14131	0.15342	0.055326	0.26744	0.28056	0.25804	0.24159	0.063271	-2.2875	-2.225	-3.1521	-2.7062	-2.5417	-3.05	-2.6188	-3.0333	-2.9313	-2.4875	-3.0896	-2.8333	-2.5125	-3.2	-2.5312	-2.8292	4.045	216.615	149.943	-64.274	-41.395	23.358	205.632	215.846	26.525	54.004	170.677	208.016	-68.937	245.890	199.067	-34.554	5.9384e-05	0.00094703	0.00014435	548.94	1.2708e-05	1.2496e-05	564.93	207.82	1.5993e-05	1.91e-05	240.26	88.283	81.069	32.234	1.6825e-05	34.683	0.0015541	0.001455	0.00038238	759.56	1.7417e-05	1.5974e-05	720.66	268.17	1.7577e-05	1.6216e-05	334.06	121.82	106.85	40.287	1.61e-05	49.271	263.529	-62.387	7.324	-73.434	51.457	51.318	-75.019	-68.506	86.738	-47.371	-71.952	-67.857	-64.440	-59.857	208.520	-63.679	-8191	255	
1684.377	1	1	0	0	0.29989	0.12312	0.15678	0.43784	0.18042	0.13038	0.17798	0.31478	0.12658	0.15459	0.2065	0.19033	0.21944	0.27864	0.1383	0.034629	-2.6208	-2.3688	-3.0875	-2.8146	-2.4229	-3.2354	-2.6479	-2.7542	-2.9875	-2.5229	-3.0604	-2.7896	-2.5021	-3.1104	-2.5938	-2.8042	223.431	255.202	247.149	186.083	219.285	65.094	193.369	212.320	7.670	15.620	243.961	124.784	223.640	-84.334	100.004	251.882	0.00018643	0.00091452	0.00023328	549.35	2.5601e-05	8.0641e-06	567.88	208.65	8.1671e-06	2.5391e-05	240.62	89.92	81.648	32.347	2.0883e-05	35.13	0.0015544	0.001469	0.0004143	776.84	1.7175e-05	1.5973e-05	738.99	270.61	1.6861e-05	1.5771e-05	342.46	122.53	105.58	39.948	1.694e-05	48.966	25.682	-13.849	96.455	-72.989	99.188	-32.154	-75.104	-68.213	43.356	54.845	-71.647	-67.572	-64.159	-59.409	177.247	-63.677	-8191	255	
1684.473	1	1	0	0	0.19925	0.099085	0.14456	0.29654	0.17031	0.057569	0.107	0.022262	0.18131	0.097349	0.037787	0.11181	0.18898	0.14215	0.18812	0.20718	-2.3417	-2.4479	-3.1042	-2.8604	-2.3667	-3.0812	-2.5896	-2.7625	-3.0729	-2.4042	-2.8021	-2.9104	-2.3583	-2.9667	-2.6437	-2.6	110.621	242.168	73.472	244.352	171.070	66.084	209.971	-77.189	156.626	-7.002	150.556	125.968	271.892	160.390	-1.847	-17.737	0.00016356	0.00032693	0.0004588	557.77	1.0452e-05	6.8295e-06	570.63	210.72	8.8834e-06	7.9212e-06	242.2	89.752	80.876	32.067	5.7544e-06	34.887	0.0014612	0.0014071	0.00042622	763.38	1.5942e-05	1.4733e-05	743.45	263.81	1.5063e-05	1.4263e-05	336.61	116.06	100.93	38.399	1.5949e-05	46.083	208.662	19.429	66.456	-73.273	154.921	-37.308	-75.213	-68.631	-55.464	23.166	-71.867	-67.301	-63.997	-59.736	164.087	-63.238	-8191	255	
1684.570	1	1	0	0	0.15329	0.11429	0.227	0.155	0.19048	0.054928	0.15685	0.037531	0.19971	0.20014	0.19994	0.13808	0.17748	0.33245	0.23394	0.23006	-2.6063	-2.4146	-2.8063	-2.8937	-2.4875	-2.9167	-2.625	-2.6875	-3.0729	-2.6104	-2.8583	-3.0187	-2.5646	-3.0625	-2.775	-2.4833	28.056	186.525	195.550	137.664	108.652	58.957	169.241	55.250	273.386	50.858	20.229	-47.647	-59.401	-8.595	90.170	101.590	5.114e-05	0.00041477	0.00063618	556.25	8.91e-06	3.3072e-06	576.6	210.55	7.0225e-06	4.8027e-06	242.41	89.811	80.513	31.774	4.2646e-06	35.078	0.0012798	0.0012827	0.00040981	735.83	1.4589e-05	1.4225e-05	743.29	258.78	1.4474e-05	1.4674e-05	343	115.36	100.87	39.208	1.6842e-05	46.051	-53.549	166.877	63.802	-73.251	62.656	200.089	-74.888	-68.427	24.480	210.907	-72.089	-67.612	-64.010	-59.714	219.269	-63.794	-8191	255	
1684.666	1	1	0	0	0.12417	0.23028	0.13472	0.053746	0.16514	0.20005	0.31049	0.23057	0.25127	0.1195	0.10564	0.3961	0.021824	0.22735	0.066246	0.2327	-2.7396	-2.6729	-2.7562	-3.025	-2.3958	-2.8375	-2.7708	-2.5104	-2.9979	-2.725	-2.7938	-3.0187	-2.3667	-2.9437	-2.95	-2.5	118.667	66.598	120.183	247.348	-55.828	140.374	-53.904	160.222	-61.506	11.133	153.699	219.935	-3.499	242.570	76.615	191.141	0.0001023	0.0015565	0.00011526	558.8	5.8426e-06	1.6234e-05	582.16	210.91	6.143e-06	1.8694e-05	248.12	89.574	80.641	31.973	1.1512e-05	35.118	0.0012899	0.0013884	0.00042637	733.28	1.4367e-05	1.5287e-05	750.64	257.27	1.4147e-05	1.5504e-05	341.63	113.94	99.381	39.787	1.6057e-05	45.417	221.013	45.471	267.453	-73.252	1.004	223.093	-74.996	-68.545	259.688	150.346	-71.738	-68.123	-64.419	-59.687	44.802	-63.913	-8191	255	
1684.760	1	1	0	0	0.19296	0.34308	0.036554	0.10631	0.36002	0.070138	0.18189	0.050061	0.071984	0.069936	0.045277	0.13469	0.16211	0.15675	0.13353	0.14811	-2.5833	-2.5396	-2.6042	-3.1854	-2.4313	-3.0896	-2.9333	-2.3771	-3.0479	-2.5542	-2.5812	-3.0875	-2.425	-2.8625	-2.8063	-2.3583	183.361	144.871	179.271	182.136	171.357	-7.934	-85.259	138.860	108.002	243.299	64.356	254.690	118.288	241.742	249.443	83.019	0.00026735	0.00070616	0.00021602	565.06	4.894e-06	1.0503e-05	593.61	211.51	7.7639e-06	7.5492e-06	248.25	90.31	80.751	32.231	1.0616e-05	35.367	0.0012307	0.0014351	0.00040168	728.43	1.3839e-05	1.566e-05	747.86	255.13	1.3572e-05	1.5782e-05	336.11	112.19	99.184	40.052	1.4926e-05	44.873	243.734	105.858	-48.110	-73.651	-81.858	193.930	-74.935	-68.498	183.844	132.657	-71.719	-67.802	-64.243	-59.524	18.897	-63.788	-8191	255	
1684.856	1	1	0	0	0.089417	0.20492	0.051108	0.19199	0.077479	0.039588	0.12754	0.060398	0.066874	0.34884	0.10836	0.1864	0.22152	0.14748	0.076113	0.26584	-2.55	-2.6896	-2.3854	-3.0938	-2.3688	-2.8292	-2.9313	-2.3771	-2.8917	-2.8521	-2.4688	-3.1667	-2.4604	-2.8271	-3.2333	-2.3875	80.449	43.179	170.024	-66.492	149.403	62.745	173.257	241.625	6.317	40.824	166.558	239.054	257.852	135.308	160.702	158.033	0.00029771	0.00092169	0.00019954	577.78	5.1316e-06	1.6633e-06	605.28	212.06	9.3345e-06	1.0282e-05	250.19	89.404	80.093	32.121	1.4101e-05	35.289	0.001212	0.0014294	0.00037184	718.75	1.3341e-05	1.4965e-05	734.46	248.68	1.2955e-05	1.4528e-05	320.49	107.67	96.955	38.789	1.2693e-05	42.731	173.554	175.206	-75.342	-73.360	222.123	22.448	-75.050	-68.448	185.694	42.576	-71.390	-67.489	-63.935	-59.600	4.045	-63.907	-8191	255	
1684.977	1	1	0	0	0.15823	0.0047428	0.25559	0.21683	0.13087	0.092286	0.05052	0.18136	0.11764	0.22637	0.045195	0.039588	0.15277	0.2509	0.16238	0.088798	-2.6771	-2.6688	-2.6167	-3.1	-2.6375	-2.7417	-3.1042	-2.4625	-2.7583	-2.8458	-2.5438	-3.0208	-2.675	-2.7708	-3.1708	-2.4833	95.973	-56.834	25.582	264.731	79.032	97.227	191.261	194.322	241.036	89.412	-77.608	200.835	151.903	-69.555	10.160	170.558	0.00034318	0.0016474	9.4768e-05	573.99	1.0377e-05	1.4892e-05	596.46	209.67	6.1989e-06	7.0188e-06	247.66	88.518	79.975	31.974	1.1427e-05	34.938	0.0011404	0.0012685	0.00032155	693.32	1.3102e-05	1.3944e-05	711.78	244.57	1.3433e-05	1.4032e-05	315.53	106.74	99.324	38.864	1.3055e-05	43.215	148.872	9.441	233.053	-73.269	255.286	41.777	-75.161	-68.585	157.661	38.965	-71.854	-67.448	-64.155	-59.165	55.049	-64.218	-8191	255	
1685.073	1	1	0	0	0.11296	0.039333	0.047403	0.25908	0.12221	0.19215	0.26911	0.13045	0.15553	0.13059	0.11541	0.15791	0.09356	0.19431	0.25859	0.06925	-2.2292	-2.7458	-2.3104	-3.1729	-2.7667	-2.4167	-3.2188	-2.2979	-2.625	-2.8833	-2.2917	-3.2625	-2.8604	-2.4958	-2.9417	-2.5187	226.818	79.166	-4.632	236.033	10.312	115.366	268.630	168.385	250.714	-52.882	-86.160	-45.721	248.871	-18.994	164.413	206.649	0.00039257	0.0029596	0.00030353	565.43	1.5036e-06	1.317e-05	587.6	210.42	5.0393e-06	1.3681e-05	246.18	87.89	79.851	32.017	1.0832e-05	35.008	0.0012921	0.0013152	0.00034116	703.28	1.4949e-05	1.4635e-05	712.93	249.03	1.5259e-05	1.4618e-05	320.78	109.95	102.56	39.091	1.3406e-05	44.519	177.970	-28.551	235.242	-73.285	62.418	-10.528	-75.000	-68.557	194.713	63.139	-71.604	-67.593	-64.225	-59.933	-4.119	-64.072	-8191	255	
1685.169	1	1	0	0	0.23746	0.24275	0.01628	0.13628	0.29083	0.31099	0.22739	0.37333	0.10374	0.22929	0.24104	0.15546	0.096307	0.39418	0.040625	0.26001	-2.3167	-2.9083	-2.1937	-3.0208	-2.6479	-2.5271	-3.15	-2.4646	-2.7229	-3.0292	-2.3458	-2.9375	-2.8208	-2.4437	-3.1333	-2.4896	247.964	-38.942	88.271	216.241	167.275	173.953	135.187	265.201	-44.018	57.594	251.750	-81.448	-32.069	-68.069	146.115	229.468	0.00031216	0.0023135	0.00036135	566.86	4.9184e-06	8.4055e-06	593.98	209.32	9.7583e-06	1.2477e-05	247.68	88.607	79.988	31.9	1.3326e-05	35.054	0.0013982	0.001309	0.00034071	718.3	1.5481e-05	1.4183e-05	712.96	251.77	1.5271e-05	1.3953e-05	316.47	111.66	101.49	38.437	1.2681e-05	45.136	122.530	23.219	-80.806	-73.474	90.198	117.984	-75.418	-68.630	107.883	28.819	-71.670	-67.527	-64.180	-59.853	-20.837	-63.600	-8191	255	
1685.241	1	1	0	0	0.012298	0.38191	0.1642	0.18586	0.21803	0.34537	0.045929	0.40041	0.1327	0.078269	0.14267	0.13063	0.094352	0.071328	0.038359	0.44182	-2.2167	-2.7708	-2.3083	-3.0729	-2.8875	-2.4604	-3.1708	-2.9771	-2.6729	-3.1729	-2.4917	-2.8688	-3.1688	-2.475	-3.025	-2.8792	-68.856	146.053	-7.366	83.182	45.241	120.136	-54.332	4.641	261.218	-37.882	199.452	226.539	180.508	-25.349	-27.438	217.947	7.3663e-05	0.0017699	0.00028543	574.27	1.4194e-05	1.1559e-05	599.2	210.47	1.0168e-05	7.5308e-06	248.24	89.371	80.62	31.838	5.109e-06	35.02	0.0013399	0.0012388	0.00032556	731.87	1.4715e-05	1.345e-05	712.87	254.31	1.4273e-05	1.2869e-05	312.3	112.54	99.036	37.518	1.2015e-05	45.069	196.634	-86.084	-46.856	-73.272	87.199	60.206	-75.256	-68.361	33.432	38.595	-72.305	-68.054	-64.371	-59.646	213.790	-63.591	-8191	255	
1685.362	1	1	0	0	0.13711	0.27942	0.090551	0.1523	0.10498	0.090937	0.0072169	0.01539	0.15153	0.24596	0.33658	0.15806	0.022169	0.20609	0.13821	0.17564	-2.2458	-3.1604	-2.5708	-2.675	-2.9479	-2.4396	-3.0292	-2.7604	-2.6125	-3.1188	-2.4417	-2.8667	-3.2896	-2.3667	-3.0833	-2.9896	33.534	183.931	69.795	-61.956	-54.683	-19.151	83.322	-48.958	173.800	198.370	5.253	31.095	222.727	207.355	184.434	161.838	0.00014551	0.001856	0.00020098	568.82	1.4344e-05	2.5089e-06	589.11	210.05	1.4688e-06	5.8408e-06	245.19	89.787	80.996	31.975	2.0518e-05	35.266	0.0012175	0.0011334	0.00031645	730.64	1.3532e-05	1.276e-05	708.71	255.62	1.3801e-05	1.2657e-05	318.08	114.38	99.009	37.802	1.3454e-05	45.999	-22.745	-80.264	142.185	-73.369	125.737	-36.246	-74.704	-68.826	34.812	-32.056	-71.377	-67.713	-64.364	-59.583	190.379	-63.881	-8191	255	
1685.458	1	1	0	0	0.29909	0.023884	0.25968	0.20882	0.125	0.27154	0.16858	0.065104	0.16478	0.076615	0.14945	0.094287	0.10632	0.36298	0.15757	0.20881	-2.0604	-3.1125	-2.6646	-2.875	-3.0042	-2.4958	-3.0604	-3.0687	-2.5396	-3.1646	-2.6396	-2.8167	-3.2021	-2.6458	-2.9688	-2.8854	-31.721	236.356	145.044	205.483	141.320	54.625	236.110	-37.174	265.048	-76.854	255.831	-62.492	259.520	205.034	195.999	211.088	9.0836e-05	0.0010408	0.00039763	561.46	8.6988e-06	6.0925e-06	579.36	210.13	8.7276e-06	1.1882e-05	245.08	88.319	80.645	31.778	1.099e-05	35.043	0.0012431	0.0011731	0.00035423	736.1	1.3667e-05	1.2908e-05	716.07	255.21	1.3557e-05	1.2652e-05	325.61	112.87	97.623	37.442	1.4095e-05	45.043	41.842	-8.395	86.098	-73.490	138.527	85.341	-75.211	-68.865	85.977	-69.480	-71.907	-67.274	-64.710	-59.560	200.254	-63.765	-8191	255	
1685.554	1	1	0	0	0.13572	0.22598	0.08451	0.13423	0.1309	0.098255	0.041826	0.076696	0.054396	0.17476	0.16077	0.3374	0.20125	0.084077	0.087049	0.19607	-2.1729	-3.0563	-2.4813	-2.6458	-2.9604	-2.5	-2.8771	-3.1625	-2.425	-3.0875	-2.6292	-2.525	-3.0521	-2.6521	-2.7708	-3.0354	227.388	36.515	-42.795	256.643	129.053	76.568	231.844	56.926	258.820	149.517	-41.475	224.442	-59.165	96.661	-79.988	140.899	0.00010786	0.0011106	0.00019038	564.54	5.7483e-06	6.7099e-06	585.23	209.25	6.5163e-06	8.0284e-06	243.09	89.104	80.419	31.663	4.7568e-06	35.059	0.00117	0.0011265	0.00036516	720.67	1.2797e-05	1.2409e-05	724.34	250.98	1.2796e-05	1.2427e-05	327.76	110.78	96.438	37.527	1.4582e-05	44.278	47.113	-30.741	79.780	-73.278	13.360	76.022	-75.063	-68.446	53.784	151.181	-71.982	-67.514	-64.478	-59.787	122.794	-63.941	-8191	255	
1685.650	1	1	0	0	0.23268	0.14493	0.24765	0.15103	0.029585	0.15606	0.20249	0.18273	0.18225	0.15887	0.21831	0.14961	0.15442	0.15107	0.06298	0.24468	-1.9104	-3.0958	-2.6583	-2.6312	-3.1333	-2.4417	-2.9437	-2.975	-2.3521	-3.0729	-2.8583	-2.5958	-3.2021	-2.425	-2.6354	-3.1125	-68.652	9.638	133.397	168.895	124.370	263.991	-67.082	217.876	-1.642	-53.933	101.706	55.508	232.723	-7.707	79.659	154.103	0.00014073	0.00071378	0.00011325	570.26	8.4978e-06	1.5054e-05	592.17	210.71	7.8787e-06	1.5324e-05	247.16	88.898	80.317	31.777	5.902e-06	35.356	0.001131	0.0011523	0.00037249	714	1.2306e-05	1.3026e-05	733.91	248.24	1.2396e-05	1.2954e-05	328.51	109.45	95.429	38.005	1.4153e-05	43.507	230.567	179.038	-50.167	-73.707	48.924	217.157	-74.997	-68.572	106.582	197.842	-72.145	-67.456	-64.453	-59.546	-3.572	-63.848	-8191	255	
1685.771	1	1	0	0	0.04055	0.15958	0.18031	0.10031	0.028978	0.052152	0.23044	0.1752	0.29702	0.21664	0.18483	0.23852	0.32328	0.14217	0.041921	0.14452	-1.8854	-2.8333	-2.9146	-2.5563	-3.2333	-2.6292	-2.8708	-3.0729	-2.625	-3.2	-3.1083	-2.4271	-3.1854	-2.65	-2.7604	-3.0292	223.053	-35.200	77.737	-72.619	106.018	52.488	269.913	78.245	43.919	-63.332	214.249	24.011	-30.107	216.664	49.240	204.113	0.00014437	0.0023113	0.000276	575.27	4.9995e-06	8.4074e-06	605.36	212.09	1.154e-05	1.7324e-05	249.44	89.796	80.321	31.885	1.6307e-05	35.215	0.001079	0.0012031	0.0003551	710.43	1.1725e-05	1.3447e-05	733.46	246.34	1.1918e-05	1.3584e-05	323.99	108.64	95.059	38.471	1.3582e-05	43.121	-76.027	111.182	237.841	-73.250	80.323	214.055	-75.169	-68.684	246.041	201.777	-71.990	-67.208	-64.573	-59.905	-3.403	-63.671	-8191	255	
1685.842	1	1	0	0	0.24751	0.028479	0.027805	0.1663	0.072017	0.066199	0.11093	0.22212	0.15256	0.27048	0.27548	0.16498	0.27006	0.20324	0.15926	0.16545	-2.0229	-2.8417	-3.0021	-2.3083	-3.175	-2.8063	-2.5104	-3.0167	-2.5271	-2.8021	-3.0312	-2.4813	-3.1146	-2.8458	-2.4729	-3.2354	154.623	131.855	-0.479	229.003	208.418	186.477	-29.430	176.027	-48.573	-49.844	228.401	7.132	-46.602	176.244	-26.005	191.415	0.00023062	0.0009941	0.00018993	567.47	4.8116e-06	1.5807e-05	594.6	208.82	3.8828e-06	6.0776e-06	247.38	88.528	79.815	31.742	2.0771e-05	34.852	0.0010803	0.0012644	0.00034026	697.94	1.2025e-05	1.4151e-05	716.02	244.31	1.2425e-05	1.4396e-05	319.38	107.59	96.454	39.053	1.3532e-05	43.086	140.440	163.355	-50.014	-73.353	196.987	179.886	-75.140	-68.426	-75.154	-75.382	-71.825	-67.708	-64.759	-59.650	45.683	-64.007	-8191	255	
1685.938	1	1	0	0	0.16007	0.26467	0.19217	0.13451	0.16561	0.09362	0.024488	0.16998	0.2443	0.21281	0.10953	0.18562	0.18009	0.044889	0.16735	0.15251	-1.9312	-2.8042	-2.9208	-2.6417	-3.1312	-2.8	-2.6583	-3.15	-2.7146	-2.9625	-2.9958	-2.6083	-2.95	-3.05	-2.5104	-3.2	111.596	1.939	151.756	122.361	-78.328	61.845	-5.003	195.819	115.594	-82.515	59.233	162.033	234.164	206.473	261.460	166.696	0.0004173	0.00012006	0.00036535	559.13	4.7389e-06	5.606e-06	583.62	209.9	8.2785e-06	7.1821e-06	245.28	88.53	79.573	31.923	7.7528e-06	35.245	0.0011918	0.0013746	0.00034514	696.32	1.3592e-05	1.5243e-05	713	245.07	1.415e-05	1.5313e-05	321.49	108.93	100.03	39.505	1.3993e-05	43.703	165.313	-41.204	225.080	-73.269	84.149	94.457	-74.955	-69.008	251.058	93.831	-71.867	-68.224	-64.140	-59.480	121.773	-63.798	-8191	255	
1686.057	1	1	0	0	0.08911	0.1323	0.13914	0.14165	0.2182	0.24476	0.070022	0.20502	0.27028	0.18918	0.17272	0.2196	0.14531	0.26201	0.28109	0.11895	-2.1333	-2.6375	-3.1771	-2.4354	-3.0062	-3.0521	-2.5125	-3.2458	-2.6688	-2.6042	-3.1729	-2.5938	-3.0146	-2.9729	-2.3521	-3.1125	113.776	115.701	203.242	270.093	-40.444	92.986	-26.729	229.797	59.938	-59.439	269.589	-54.349	-78.445	-54.930	187.905	178.410	0.00019822	0.00098264	0.00034097	553.6	9.6826e-06	2.6328e-05	580.46	209.9	2.1263e-06	3.2642e-06	248.5	88.466	79.92	32.279	1.4079e-05	34.984	0.0013552	0.0014225	0.00035569	702.91	1.5392e-05	1.5583e-05	716.83	247.83	1.5767e-05	1.5425e-05	324.05	110.75	103.05	39.492	1.4082e-05	44.601	219.282	-86.190	252.665	-73.397	237.906	19.361	-74.921	-68.556	59.116	-16.626	-71.877	-67.856	-64.242	-59.743	-31.667	-64.384	-8191	255	
1686.153	1	1	0	0	0.23216	0.2404	0.04366	0.24163	0.27064	0.2869	0.16487	0.14147	0.12942	0.034089	0.024723	0.22781	0.12303	0.25774	0.10927	0.11686	-2.3333	-2.5271	-3.1333	-2.6729	-2.9437	-3.1708	-2.3146	-2.8688	-2.9229	-2.6021	-3.2792	-2.5979	-2.8521	-3.1188	-2.325	-3.0354	-66.186	-72.323	44.127	-74.217	56.100	126.982	108.182	32.148	111.027	-11.418	270.744	141.710	-33.896	181.651	18.988	173.628	0.00038109	0.00085223	0.00022784	553.09	5.286e-06	1.6974e-05	582.57	208.29	8.9384e-06	7.3008e-06	251.42	89.102	81.057	32.049	5.5857e-06	35.195	0.0014586	0.0014039	0.00035766	717.43	1.658e-05	1.5387e-05	721.72	254.31	1.691e-05	1.5551e-05	329.42	115.26	105.83	39.705	1.4462e-05	46.553	158.392	242.098	-61.747	-73.326	77.265	25.280	-75.376	-68.474	111.691	14.051	-72.126	-67.888	-64.522	-59.930	-57.789	-64.220	-8191	255	
1686.250	1	1	0	0	0.1619	0.20093	0.073509	0.033439	0.071183	0.13574	0.058442	0.38545	0.1104	0.15254	0.104	0.22458	0.20459	0.17156	0.1377	0.12798	-2.3583	-2.4125	-3.1125	-2.6167	-2.8542	-3.1333	-2.4188	-3.1146	-2.9125	-2.4771	-3.1354	-2.625	-2.6312	-3.1375	-2.4021	-2.8042	262.705	236.003	130.943	-27.180	199.488	-16.375	210.738	174.147	209.460	86.680	208.506	171.405	-22.906	82.808	-86.085	268.068	0.00016241	0.0017524	0.0001725	553.52	8.5365e-06	1.0218e-05	581.06	207.47	8.3863e-06	9.1653e-06	248.39	88.779	80.369	31.884	7.5859e-06	34.923	0.0015348	0.0014196	0.00036546	741.68	1.7141e-05	1.5478e-05	720.01	259.94	1.6932e-05	1.5356e-05	326.47	117.09	104.36	39.054	1.4169e-05	46.924	201.719	-39.651	145.292	-73.537	120.593	61.371	-75.694	-68.326	13.697	67.124	-72.167	-67.883	-64.542	-59.959	57.716	-63.997	-8191	255	
1686.370	1	1	0	0	0.20679	0.15259	0.21563	0.11639	0.07484	0.14431	0.22871	0.2061	0.15335	0.25487	0.088745	0.11383	0.34899	0.20957	0.20504	0.29392	-2.5312	-2.425	-3.0208	-2.7521	-2.7521	-2.9646	-2.5083	-2.7771	-3.0104	-2.2292	-3.025	-2.7625	-2.5646	-3.025	-2.6604	-2.7333	-48.692	204.128	99.430	22.312	79.577	-20.623	229.891	-25.277	49.665	169.960	185.895	62.071	259.561	-28.812	153.403	-62.401	0.00022504	0.00068459	0.00026878	547	1.0546e-05	7.5328e-06	573.39	208.33	8.1422e-06	1.4296e-05	242.44	88.208	80.656	31.9	8.1235e-06	34.771	0.0014459	0.0013446	0.00035452	744.34	1.6082e-05	1.4617e-05	714.03	262.71	1.6053e-05	1.4992e-05	329.03	119.09	103.64	39.016	1.5132e-05	48.032	-53.326	34.375	146.800	-73.630	43.218	37.269	-75.295	-68.340	36.034	-13.334	-71.935	-67.476	-64.420	-59.816	163.759	-64.393	-8191	255	
1686.466	1	1	0	0	0.12156	0.048963	0.13201	0.29244	0.15594	0.098612	0.035651	0.24983	0.0964	0.19937	0.15801	0.18427	0.26675	0.03567	0.15447	0.054982	-2.6167	-2.4354	-2.9896	-2.7938	-2.6104	-3.3083	-2.5021	-2.875	-3.0625	-2.3083	-2.9083	-2.9188	-2.5021	-3.2917	-2.6167	-2.7583	-34.532	127.314	190.068	-27.009	64.540	262.586	182.527	232.515	235.780	164.318	-67.254	239.122	-36.790	-63.088	-66.639	239.418	0.00014227	0.0022841	0.00019015	551.79	7.6956e-06	1.5282e-05	570.27	208.9	8.4373e-06	1.0103e-05	245.61	89.212	80.799	31.971	8.9339e-06	35.41	0.0014245	0.0013567	0.0003851	756.96	1.5765e-05	1.4613e-05	728.63	264.75	1.5739e-05	1.4794e-05	340.48	120.01	103.17	39.095	1.6474e-05	48.256	-53.750	-77.564	171.463	-73.565	52.661	24.337	-75.460	-68.532	128.640	45.503	-72.028	-68.048	-64.613	-59.872	180.647	-64.031	-8191	255	
1686.538	1	1	0	0	0.29374	0.15063	0.23917	0.29972	0.098197	0.19384	0.15483	0.16032	0.22314	0.14159	0.39229	0.15806	0.18794	0.20555	0.044389	0.094995	-2.6646	-2.3271	-2.9646	-2.9583	-2.2562	-3.0604	-2.6854	-2.6375	-2.9396	-2.4188	-3.0229	-2.9417	-2.3729	-3.0604	-2.7896	-2.7583	148.134	83.383	8.096	250.866	182.131	90.228	185.962	-63.391	142.124	226.830	203.143	191.570	127.975	219.839	21.523	-41.924	0.00011307	0.001315	0.00055771	559.33	3.2041e-06	1.6876e-06	581.4	209.11	9.8081e-06	1.1644e-05	249.83	89.4	80.989	32.001	1.4003e-05	35.451	0.0013951	0.0013423	0.0004145	754.1	1.5233e-05	1.4146e-05	749.15	261.49	1.4779e-05	1.4335e-05	344.91	116.84	101.43	38.726	1.6681e-05	47.111	35.635	-78.685	66.705	-73.483	174.227	7.769	-74.935	-68.558	58.969	176.989	-71.979	-67.725	-64.643	-59.804	62.101	-63.904	-8191	255	
1686.659	1	1	0	0	0.23563	0.1944	0.20953	0.10634	0.12507	0.2664	0.2286	0.077413	0.062339	0.18851	0.094195	0.051474	0.17926	0.2341	0.19798	0.16569	-2.5354	-2.4604	-2.8125	-3.0563	-2.4625	-2.9583	-2.8292	-2.5438	-3.2875	-2.3937	-2.75	-3.025	-2.4042	-3.0438	-2.9292	-2.7313	155.193	153.996	193.955	157.371	52.186	14.781	192.156	132.780	255.365	65.046	-51.495	269.662	203.905	-22.195	92.197	202.056	0.0001076	4.4729e-05	0.00027745	566.69	1.5339e-05	5.3089e-06	591.7	210.44	8.6957e-06	2.1425e-05	247.32	89.431	80.301	31.683	3.0313e-06	35.472	0.0013038	0.001323	0.00042197	741.55	1.4564e-05	1.4339e-05	759.86	257.77	1.4013e-05	1.4446e-05	345.78	114.32	99.51	38.86	1.6339e-05	45.736	6.340	169.963	58.077	-73.732	115.684	-31.032	-75.412	-68.409	2.716	149.282	-72.197	-67.637	-64.511	-59.605	4.321	-63.894	-8191	255	
1686.753	1	1	0	0	0.1251	0.1623	0.18731	0.35353	0.064187	0.13356	0.12557	0.074568	0.18407	0.14547	0.12295	0.20364	0.28205	0.064172	0.15271	0.21904	-2.7167	-2.5687	-2.7583	-3.2104	-2.3167	-2.9	-2.8104	-2.6479	-3.25	-2.65	-2.8688	-3.175	-2.5625	-2.9625	-3.125	-2.4188	82.113	123.615	-68.981	204.751	-19.363	151.678	103.162	72.894	-0.692	216.591	-80.318	-71.951	-70.721	-84.318	107.716	240.700	0.00016478	0.0026851	4.8555e-05	561.83	6.0419e-06	1.1572e-05	586.83	208.3	5.1626e-06	2.6166e-05	246.34	88.765	79.532	31.442	1.6789e-05	34.691	0.0012232	0.0013469	0.00040958	721.6	1.3545e-05	1.4584e-05	740.61	251.02	1.2926e-05	1.4613e-05	334.28	110.69	96.853	38.691	1.4966e-05	44.063	-77.556	89.454	51.258	-73.279	-0.661	221.090	-74.989	-68.511	45.752	169.829	-71.784	-67.779	-64.207	-59.508	40.192	-64.007	-8191	255	
1686.849	1	1	0	0	0.14432	0.20431	0.07953	0.20316	0.27897	0.11136	0.29477	0.32591	0.33701	0.025288	0.23999	0.078524	0.1518	0.18307	0.087118	0.1614	-2.525	-2.4458	-2.625	-3.1604	-2.4042	-3.0354	-2.8521	-2.5708	-3.2229	-2.725	-2.7417	-3.1	-2.6	-2.8229	-2.9	-2.2979	-60.924	161.210	229.037	228.833	-42.929	-75.018	133.534	246.461	-59.255	189.168	-64.007	-61.224	-9.852	247.275	-15.750	103.887	0.00013565	0.0007287	0.0004554	565.92	5.4987e-06	6.3324e-06	588.58	209.35	1.4349e-05	8.2542e-06	247.8	89.349	80.12	31.606	1.6047e-05	34.827	0.0011487	0.0013639	0.00037938	712.82	1.3161e-05	1.5227e-05	732.13	250.13	1.327e-05	1.563e-05	332.65	110.71	98.538	39.59	1.4774e-05	44.224	238.808	104.695	-4.002	-73.345	-6.744	187.586	-75.386	-68.575	192.320	122.522	-71.670	-67.939	-64.130	-59.526	45.089	-64.158	-8191	255	
1686.945	1	1	0	0	0.081483	0.014976	0.073074	0.115	0.11518	0.11272	0.18531	0.18205	0.24868	0.11527	0.14518	0.36388	0.39886	0.10653	0.15281	0.23279	-2.5792	-2.8896	-2.4125	-3.2417	-2.5167	-2.9104	-3.2875	-2.6771	-3.1583	-2.8917	-2.75	-3.2042	-2.5021	-2.9146	-3.0833	-2.4833	134.586	-78.307	30.882	231.596	-34.753	18.332	200.719	264.624	-22.110	270.996	167.224	178.255	214.727	269.690	252.503	121.664	0.00016761	0.00057299	0.00033648	567.72	1.2548e-05	7.6454e-06	588.41	209.58	1.5007e-05	5.434e-06	248.15	89.42	79.931	31.997	1.3729e-05	35.122	0.0012259	0.0014616	0.0003772	712.45	1.4133e-05	1.6114e-05	727.3	250.11	1.4311e-05	1.6124e-05	330.61	110.63	100.98	40.02	1.438e-05	44.234	131.274	202.800	-49.743	-73.652	197.762	171.301	-75.343	-68.898	217.913	59.158	-72.119	-67.837	-64.465	-59.718	88.937	-64.114	-8191	255	
1687.042	1	1	0	0	0.058406	0.13951	0.13434	0.15691	0.11901	0.15112	0.40258	0.30182	0.1627	0.26419	0.11755	0.28618	0.18474	0.048413	0.094534	0.12645	-2.525	-2.8875	-2.525	-3.175	-2.5604	-2.8542	-2.975	-2.4083	-3.0083	-3.0396	-2.3667	-3.0979	-2.7458	-2.7667	-3.1667	-2.5792	43.639	-76.768	178.342	252.785	253.282	-36.198	246.045	125.440	215.260	187.289	-82.532	-58.293	133.839	34.331	156.012	227.162	0.00032316	0.0023227	0.00057924	566.34	1.5496e-05	9.1373e-06	595.12	210.81	9.7387e-06	2.1746e-05	248.86	89.758	80.517	32.121	1.1649e-05	35.201	0.0013229	0.0014476	0.00036588	711.35	1.5061e-05	1.5766e-05	727.97	249.62	1.5141e-05	1.5542e-05	327.71	111.12	103.12	39.772	1.4177e-05	44.517	147.398	-39.672	-28.122	-73.074	210.948	-26.421	-75.599	-68.875	190.133	-48.784	-71.821	-67.585	-64.392	-60.163	61.573	-63.550	-8191	255	
1687.138	1	1	0	0	0.17844	0.14435	0.1106	0.28287	0.18089	0.16373	0.13774	0.31629	0.28358	0.10824	0.11848	0.027558	0.12423	0.29261	0.15337	0.13944	-2.2208	-2.9542	-2.4375	-2.8979	-2.6479	-2.5625	-3.2604	-2.5062	-2.8833	-2.9083	-2.4521	-3.1437	-2.8438	-2.4562	-3.1354	-2.6354	234.574	237.420	-13.535	-50.962	149.244	65.568	221.184	181.257	-64.080	26.241	196.592	-64.764	-76.726	246.534	-72.941	-59.601	0.0003582	0.0023501	0.00016179	564.13	3.3404e-06	9.8183e-06	587	209.07	6.847e-06	1.6651e-05	246.82	88.745	80.389	31.863	3.544e-06	34.564	0.0014223	0.0014128	0.00036194	714.22	1.5994e-05	1.5299e-05	717.36	250.24	1.5851e-05	1.4775e-05	320.66	110.61	102.76	38.718	1.3084e-05	43.908	135.426	-50.886	67.909	-73.596	169.620	1.800	-75.229	-68.609	231.632	-12.905	-72.231	-67.839	-64.286	-59.711	-54.421	-63.814	-8191	255	
1687.234	1	1	0	0	0.13758	0.14747	0.11244	0.19516	0.28541	0.21664	0.11103	0.24482	0.21169	0.06884	0.026726	0.077918	0.26322	0.24722	0.084395	0.27027	-2.25	-2.9437	-2.4396	-2.8771	-2.8625	-2.7208	-3.0938	-2.6188	-2.6042	-3.1917	-2.525	-2.9521	-2.8333	-2.5354	-3.1688	-2.6	224.834	256.374	69.537	257.481	-6.326	-60.681	248.420	125.785	146.891	9.782	264.060	109.047	250.192	23.500	-79.038	266.321	0.00028473	0.0021852	0.00035154	558.76	4.7126e-06	7.4901e-06	584.32	208.8	1.0205e-05	2.6693e-06	247.42	87.798	80.253	31.78	2.9957e-06	34.437	0.0013706	0.0012642	0.00032917	710.75	1.4963e-05	1.3638e-05	697.55	250.18	1.462e-05	1.3112e-05	310.14	109.86	99.643	37.598	1.2002e-05	44.112	92.075	-4.708	-44.966	-73.397	257.404	11.867	-75.140	-68.686	44.129	39.799	-71.928	-67.673	-64.502	-59.699	154.568	-64.060	-8191	255	
1687.330	1	1	0	0	0.25764	0.10488	0.10579	0.24441	0.10551	0.20669	0.050175	0.099308	0.16954	0.17679	0.18518	0.076345	0.15228	0.26033	0.090624	0.22542	-2.3688	-3.1292	-2.3354	-2.8563	-3.0062	-2.3125	-3.1729	-2.7812	-2.7604	-3.1937	-2.7167	-3.0125	-3.1604	-2.5292	-3.0646	-2.7292	30.278	64.850	218.032	-55.914	128.439	127.803	120.669	271.897	66.894	48.330	-3.431	-60.476	270.475	253.332	224.979	256.540	0.00010469	0.00050341	0.0002777	566.11	8.3336e-06	5.6325e-06	584.61	209.67	1.2603e-05	7.9144e-06	246.14	89.016	79.894	32.003	5.0188e-06	34.621	0.0012744	0.0011714	0.00031326	723.72	1.4151e-05	1.3022e-05	698.76	254.7	1.4294e-05	1.2999e-05	312.14	112.87	99.315	37.669	1.2384e-05	45.108	-66.942	-15.391	47.511	-73.487	60.183	11.365	-74.908	-68.566	18.505	35.266	-71.374	-67.565	-64.432	-59.910	98.962	-64.023	-8191	255	
1687.451	1	1	0	0	0.17669	0.13358	0.12192	0.11178	0.14456	0.062476	0.24235	0.23912	0.10374	0.18333	0.062296	0.22986	0.10211	0.1399	0.20792	0.23521	-2.1312	-3.2375	-2.3708	-2.9521	-2.8812	-2.3646	-3.0062	-2.7313	-2.4125	-3.1437	-2.6208	-2.7958	-3.0604	-2.3146	-2.9792	-2.9521	186.314	41.873	118.904	183.076	131.133	-13.378	235.257	-67.021	140.544	-14.674	220.349	-79.203	171.125	158.977	166.693	64.364	0.00021788	0.00034906	0.00028565	568.6	1.0705e-05	4.4289e-06	584.35	212.19	9.5791e-06	3.0395e-06	245.92	89.488	80.557	32.289	1.2152e-05	35.342	0.0012247	0.0011454	0.00031994	731.91	1.341e-05	1.2596e-05	706.93	256.49	1.365e-05	1.2644e-05	319.82	114.64	98.921	38.039	1.3685e-05	46.178	-78.082	-28.161	95.363	-73.101	104.629	-73.152	-75.144	-68.329	-20.572	110.968	-72.001	-67.722	-64.118	-59.720	179.381	-63.653	-8191	255	
1687.547	1	1	0	0	0.012688	0.086056	0.17237	0.10945	0.18255	0.10068	0.1324	0.14029	0.11852	0.26174	0.14948	0.088851	0.12014	0.069952	0.16196	0.29089	-2.0333	-2.9854	-2.4708	-2.7708	-3.0458	-2.4833	-3.0604	-2.9792	-2.325	-3.1458	-2.725	-2.7646	-3.1729	-2.5563	-2.9271	-2.9083	157.713	205.122	188.569	268.133	88.420	28.231	160.223	189.716	-14.370	159.819	-28.790	-78.455	-48.480	-17.382	192.670	-28.651	0.00030666	0.00090852	0.00012647	573.81	1.4559e-05	7.3483e-06	589.97	210.61	4.8605e-06	3.8346e-06	244.54	89.978	80.312	31.898	1.7116e-05	35.054	0.001233	0.0011545	0.00035592	739.38	1.3415e-05	1.2792e-05	726.17	256.69	1.3471e-05	1.2483e-05	326.85	113.25	97.411	37.608	1.435e-05	45.045	-59.155	83.557	188.029	-73.306	97.905	39.556	-75.332	-68.558	10.508	-52.974	-71.570	-67.916	-64.395	-59.969	156.863	-63.686	-8191	255	
1687.643	1	1	0	0	0.13418	0.11033	0.13848	0.1993	0.070763	0.094692	0.13826	0.28926	0.09382	0.18806	0.028898	0.075511	0.089033	0.30578	0.17323	0.13692	-2.0271	-3.0521	-2.4938	-2.7042	-3.2771	-2.5271	-2.9562	-2.8625	-2.4667	-3.0604	-2.6104	-2.5667	-3.125	-2.5854	-2.9979	-3.1771	208.676	-44.505	45.437	176.204	186.427	108.381	114.319	250.205	-59.588	66.323	155.965	-28.660	178.029	252.958	-35.902	20.797	0.00018494	0.00091835	0.00052234	569.59	7.9564e-06	4.5703e-06	588.15	210.65	8.6758e-06	2.0924e-05	244.22	88.263	79.159	31.554	6.1733e-06	34.725	0.0011748	0.0011283	0.00036773	723.52	1.2683e-05	1.2446e-05	727.95	250.83	1.2438e-05	1.2182e-05	324.19	108.78	94.45	36.935	1.3746e-05	42.76	216.521	165.875	81.793	-73.595	49.424	185.040	-75.148	-68.548	-81.284	112.698	-71.709	-67.983	-64.393	-59.972	111.742	-63.756	-8191	255	
1687.739	1	1	0	0	0.17136	0.25497	0.065565	0.17221	0.20389	0.11139	0.11259	0.082878	0.047851	0.31743	0.22524	0.10257	0.03545	0.19991	0.16826	0.18052	-1.9917	-3.0542	-2.8812	-2.5	-3.0167	-2.5542	-2.8271	-3.1312	-2.3917	-2.9354	-2.8333	-2.4208	-3.1063	-2.6729	-2.7708	-2.8854	258.617	248.634	-19.220	235.732	116.854	63.845	254.011	-63.566	49.886	70.161	-61.276	18.152	221.466	147.524	166.899	247.042	0.00010211	0.0012827	0.00021845	574.51	5.6507e-06	7.9211e-06	591.49	212.09	1.3805e-06	1.3889e-05	246.2	87.188	79.009	31.488	6.2245e-06	34.969	0.0010429	0.0010874	0.0003456	700.22	1.1305e-05	1.1955e-05	718	244.91	1.126e-05	1.2108e-05	317.03	105.52	92.444	37.274	1.3463e-05	42.537	138.902	92.419	87.692	-73.248	20.000	224.708	-74.552	-68.598	16.100	153.383	-71.732	-67.654	-64.350	-59.601	256.474	-64.041	-8191	255	
1687.833	1	1	0	0	0.35619	0.16815	0.06595	0.047278	0.28464	0.031468	0.27066	0.13518	0.17986	0.31344	0.11538	0.39165	0.16372	0.086201	0.12109	0.2471	-1.7167	-2.8521	-2.8125	-2.3708	-3.1583	-2.6354	-2.775	-2.9958	-2.3625	-2.8333	-2.8104	-2.6271	-2.9229	-2.7	-2.7875	-3.2062	-20.206	136.202	86.649	-37.396	49.401	249.427	199.998	212.536	211.807	208.297	263.973	240.120	138.678	8.436	169.652	180.367	9.8101e-05	0.00053212	0.00031272	571.14	9.5258e-06	1.26e-05	592.76	212.56	5.3858e-06	1.4959e-05	245.76	88.998	79.291	32.033	1.1658e-05	35.418	0.001041	0.0011881	0.00034829	702.67	1.1663e-05	1.3729e-05	725.01	247.65	1.2298e-05	1.4213e-05	324.23	109.17	95.728	39.432	1.4339e-05	44.038	154.583	198.738	272.187	-73.068	10.678	184.825	-75.097	-68.347	15.696	168.419	-72.160	-67.870	-64.544	-59.815	270.296	-63.682	-8191	255	
1687.930	1	1	0	0	0.0068559	0.07812	0.096841	0.13606	0.30335	0.1989	0.089554	0.10662	0.18383	0.036161	0.18116	0.125	0.23499	0.19074	0.048644	0.31441	-1.9604	-2.8604	-2.9208	-2.35	-3.0771	-2.7208	-2.6562	-3.0687	-2.5083	-2.9146	-2.9833	-2.4562	-3.3167	-2.8	-2.6021	-3.3667	63.726	19.753	230.982	-72.428	66.338	31.891	17.185	270.609	0.243	258.197	258.777	86.640	51.774	150.505	-12.191	-62.215	0.00033986	0.0012091	0.00043363	568.8	4.3741e-06	1.4145e-05	592.99	211.49	4.8758e-06	1.3312e-05	248.68	89.2	79.964	32.247	1.6498e-05	35.316	0.0011714	0.0013815	0.00036581	713.6	1.302e-05	1.54e-05	727.16	249.02	1.3338e-05	1.5473e-05	324.65	109.83	98.544	40.3	1.4282e-05	44.335	174.426	145.132	-58.306	-73.438	185.309	170.437	-75.037	-68.656	-19.863	136.778	-71.705	-68.138	-64.371	-59.750	43.258	-63.731	-8191	255	
1688.050	1	1	0	0	0.21802	0.085019	0.16234	0.15156	0.32036	0.12836	0.103	0.14909	0.13775	0.064212	0.061313	0.25614	0.28758	0.12417	0.2436	0.03591	-2.075	-2.6521	-3.1854	-2.5104	-2.9958	-2.8896	-2.4396	-3.3187	-2.5312	-2.5938	-3.1354	-2.5042	-2.8729	-2.9688	-2.4042	-3.1625	205.875	82.914	72.037	204.197	236.424	24.271	-21.635	115.272	198.125	169.357	-52.221	130.032	271.221	268.463	-15.206	95.351	0.00022012	0.0014585	0.00028034	563.71	9.2572e-06	4.0574e-06	584.52	209.7	1.2139e-05	1.3779e-05	244.61	87.779	79.199	32.332	1.4751e-05	35.04	0.0012759	0.0014472	0.00036196	709.93	1.436e-05	1.5837e-05	719.44	248.52	1.4678e-05	1.5615e-05	320.49	109	100.3	39.891	1.3889e-05	43.618	150.814	264.595	257.162	-73.145	223.026	173.356	-74.737	-68.552	253.598	15.986	-72.167	-67.692	-64.118	-59.572	23.942	-64.028	-8191	255	
1688.145	1	1	0	0	0.42688	0.15859	0.12782	0.074483	0.10941	0.11404	0.084265	0.2353	0.086357	0.13018	0.104	0.067517	0.093776	0.24247	0.18419	0.16127	-2.0167	-2.3625	-3.0521	-2.3604	-2.8354	-2.8521	-2.5333	-3.0646	-2.7333	-2.3479	-3.1396	-2.4	-2.8021	-3.0687	-2.3146	-3.1375	172.109	55.218	239.018	97.686	-56.625	58.419	229.355	-49.270	-32.970	76.428	-24.651	193.688	-36.626	156.032	259.760	150.368	0.00045881	0.00050013	6.5628e-05	561.02	5.0178e-06	1.0629e-05	582.55	209.66	1.2865e-05	8.2924e-06	241.04	87.662	79.192	32.303	3.6894e-06	34.583	0.00135	0.0013827	0.00034514	703.22	1.5076e-05	1.4901e-05	708.57	247.39	1.5246e-05	1.477e-05	313.6	108.52	100.83	39.009	1.3155e-05	43.476	153.132	-80.002	221.265	-73.368	272.877	8.143	-75.017	-68.984	205.221	-16.350	-72.220	-67.590	-64.363	-59.901	129.982	-64.117	-8191	255	
1688.241	1	1	0	0	0.37183	0.19212	0.12991	0.089915	0.075264	0.080967	0.19483	0.29007	0.18235	0.18944	0.034014	0.20673	0.08415	0.33164	0.16277	0.074044	-2.3688	-2.5417	-3.1063	-2.5396	-2.7125	-3.1	-2.3187	-2.9042	-2.9188	-2.6458	-3.1479	-2.6063	-2.6104	-3.2542	-2.2188	-3.0042	122.321	-69.413	235.354	116.897	30.125	61.693	170.047	158.994	63.706	184.700	192.548	71.335	16.275	193.642	205.782	101.438	9.745e-05	0.0015017	0.00016476	558.88	4.7194e-06	1.722e-05	581.54	210.69	7.9779e-06	1.1594e-05	243.08	87.805	79.443	32.402	2.8951e-06	34.908	0.0013578	0.0012843	0.00032625	704.14	1.5026e-05	1.3771e-05	698.19	250.14	1.5278e-05	1.3978e-05	312.1	110.77	102	39.194	1.3538e-05	45.731	126.820	-64.860	-49.132	-73.254	94.384	45.817	-74.835	-68.873	21.585	42.336	-72.013	-67.756	-64.001	-59.980	90.488	-63.599	-8191	255	
1688.337	1	1	0	0	0.26911	0.15237	0.22644	0.20673	0.10408	0.19242	0.097392	0.064543	0.30763	0.11458	0.1169	0.15808	0.25291	0.24791	0.23647	0.088314	-2.3979	-2.3875	-3.1104	-2.4729	-2.6792	-3.1125	-2.4667	-3.0187	-2.8708	-2.4208	-3.0771	-2.6667	-2.7938	-3.0604	-2.3167	-2.9437	149.418	155.906	220.349	255.281	-29.535	242.215	165.804	217.356	76.931	218.212	174.502	46.501	-48.376	81.704	243.632	239.269	4.0817e-05	0.00073031	9.9766e-05	557.97	1.1667e-06	8.7912e-06	574.04	208.37	1.3466e-05	1.1693e-05	240.31	88.475	80.457	32.697	5.0877e-06	35.431	0.0014627	0.0013501	0.00035152	739.43	1.668e-05	1.5178e-05	715.94	261.64	1.7022e-05	1.5605e-05	324.1	118.61	105.61	40.373	1.5129e-05	48.846	66.174	186.922	-82.073	-73.191	-58.384	35.092	-74.946	-68.534	65.972	56.350	-72.674	-67.786	-64.461	-59.937	198.180	-64.259	-8191	255	
1688.433	1	1	0	0	0.092002	0.16287	0.27562	0.17245	0.057655	0.035068	0.2594	0.12655	0.28367	0.2053	0.091365	0.22663	0.24333	0.16073	0.25098	0.2356	-2.3625	-2.5479	-3.1104	-2.6854	-2.4542	-3.1708	-2.5854	-2.8167	-3.0875	-2.4042	-3.0146	-2.6958	-2.8292	-3.1542	-2.5021	-2.9854	44.061	19.299	235.048	220.537	-3.000	180.795	172.484	247.845	199.634	262.802	103.131	155.649	194.038	-11.570	123.156	269.015	0.00030978	0.00079761	0.00046689	555.49	1.8085e-05	1.4151e-05	570.64	209.88	6.8302e-06	1.6362e-05	239.66	88.613	80.077	32.554	9.5398e-06	35.31	0.0015329	0.001447	0.00038202	768.62	1.7036e-05	1.5385e-05	727.47	267.34	1.6445e-05	1.529e-05	327.54	119.41	103.56	39.736	1.5301e-05	48.46	266.651	207.321	90.947	-73.110	60.819	32.100	-75.341	-68.626	11.295	31.461	-71.762	-67.866	-64.540	-59.764	248.971	-63.604	-8191	255	
1688.529	1	1	0	0	0.18369	0.32622	0.082652	0.12299	0.24374	0.23031	0.15963	0.32299	0.21606	0.21007	0.13847	0.096139	0.20986	0.30091	0.15319	0.1181	-2.6146	-2.3875	-2.8021	-2.975	-2.5167	-3.1042	-2.6562	-2.8812	-2.9604	-2.5229	-2.8646	-2.9417	-2.4354	-3.3146	-2.4271	-2.6708	65.658	221.445	-57.606	-22.604	143.928	-50.509	184.987	272.004	-46.510	42.808	65.401	-48.656	-71.511	241.792	76.559	-33.752	6.6507e-05	0.00051212	0.00018672	557.74	9.6585e-06	6.0348e-06	573.03	209.75	5.5912e-06	3.8324e-06	238.41	87.785	79.247	32.318	2.3336e-05	35.529	0.0014082	0.0013391	0.00039018	758.68	1.5427e-05	1.4374e-05	726.07	263.65	1.5078e-05	1.4127e-05	330.26	116.44	100.26	38.861	1.5446e-05	46.922	28.192	-10.449	109.362	-73.450	45.614	-30.797	-75.637	-68.230	157.786	179.556	-71.512	-67.733	-64.495	-60.201	152.203	-63.828	-8191	255	
1688.625	1	1	0	0	0.28923	0.14885	0.15276	0.08888	0.15081	0.14446	0.18075	0.16913	0.2406	0.18349	0.015981	0.24957	0.060965	0.1587	0.18441	0.055729	-2.7333	-2.2417	-3.0062	-2.6625	-2.5312	-3.0958	-2.7479	-2.7042	-3.1688	-2.7479	-2.8771	-3.0729	-2.3792	-3.0687	-2.6396	-2.5542	249.927	18.855	-41.515	149.482	265.341	-79.471	255.600	250.526	257.520	-36.166	-71.563	147.557	190.267	-11.002	140.246	269.452	0.00012602	0.002072	0.00058782	562.29	4.1496e-06	1.258e-05	580.2	211.26	1.018e-05	1.2235e-05	241.84	88.07	79.133	32.319	1.6655e-05	35.361	0.0012755	0.001225	0.00038384	733.11	1.3774e-05	1.2923e-05	727.9	255.18	1.3352e-05	1.2979e-05	327.33	111.3	96.814	37.887	1.4731e-05	44.68	110.761	-20.467	100.009	-73.040	122.749	258.877	-75.384	-68.846	41.328	181.062	-71.784	-67.884	-64.387	-59.586	156.729	-63.875	-8191	255	
1688.722	1	1	0	0	0.088911	0.064015	0.14248	0.11699	0.073471	0.32934	0.18261	0.28995	0.1156	0.2017	0.20933	0.16149	0.35171	0.34051	0.014198	0.15296	-2.7562	-2.4229	-2.8271	-3.1542	-2.3458	-3.0312	-3.0812	-2.5583	-3.1437	-2.6813	-2.7771	-2.9958	-2.3708	-3.1562	-2.8375	-2.5708	74.845	195.433	258.972	118.299	254.199	167.296	144.144	186.684	233.135	85.551	163.267	168.687	96.504	218.064	96.952	121.602	1.9709e-05	0.0014504	0.00017942	571.37	2.2574e-06	1.2529e-05	585.39	211.84	3.4795e-06	9.0706e-06	244.16	88.074	80.228	32.595	7.9931e-06	35.698	0.0011249	0.0011551	0.00036583	710.95	1.2492e-05	1.2505e-05	726.46	249.26	1.2323e-05	1.2932e-05	327.07	109.51	96.195	38.528	1.4784e-05	44.612	-73.905	132.522	252.637	-73.173	75.303	245.261	-74.923	-68.622	19.669	-81.777	-71.613	-67.776	-64.356	-59.891	232.712	-63.657	-8191	255	
1688.842	1	1	0	0	0.2613	0.15301	0.18062	0.17238	0.042244	0.17236	0.13315	0.18025	0.11759	0.040869	0.17883	0.27875	0.18958	0.14852	0.10814	0.18125	-2.6604	-2.4604	-2.5167	-3.1437	-2.5938	-2.9625	-2.9396	-2.5083	-3.2188	-2.7812	-2.6708	-3.0604	-2.5292	-2.9938	-2.7542	-2.5812	-48.799	79.552	-72.833	-79.512	124.921	250.026	166.410	-68.152	23.525	215.646	-3.917	212.227	219.892	112.831	59.846	268.824	0.00017762	0.0021544	0.00036109	566.99	1.009e-05	1.3409e-05	593.88	210.79	3.4934e-06	2.0011e-05	247.64	89.417	80.608	32.684	1.4652e-05	35.852	0.001125	0.0012466	0.00037452	710.86	1.2565e-05	1.3899e-05	735.57	250.01	1.2667e-05	1.4532e-05	331.02	111.3	97.626	39.892	1.5091e-05	45.26	-83.761	92.536	-35.777	-73.078	122.063	-59.594	-75.050	-68.424	227.733	167.101	-71.603	-67.844	-64.354	-59.922	10.333	-63.936	-8191	255	
1688.938	1	1	0	0	0.19335	0.23199	0.061313	0.11434	0.31367	0.10577	0.2601	0.10895	0.14689	0.16028	0.23379	0.064415	0.20774	0.11052	0.23005	0.18822	-2.7938	-2.4688	-2.4583	-3.1604	-2.3875	-2.7958	-2.8604	-2.4313	-3.1	-2.7792	-2.6375	-3.2104	-2.4979	-2.8229	-2.8937	-2.3604	227.906	130.132	216.570	-39.643	40.460	-81.601	228.011	208.546	100.864	6.302	52.504	128.365	109.877	-17.403	23.862	263.544	8.0206e-05	0.0015573	0.00045235	561.11	8.9954e-06	8.2861e-06	583.03	209.98	1.6973e-06	4.9846e-06	245.51	89.598	79.829	32.519	8.4297e-06	35.675	0.0011716	0.0013994	0.00038175	712.16	1.3353e-05	1.5409e-05	726.65	250.05	1.3204e-05	1.5597e-05	328.28	110.33	98.548	40.248	1.4516e-05	44.589	6.135	151.587	255.035	-73.365	-85.060	171.771	-74.913	-68.577	265.332	53.902	-71.370	-67.810	-64.163	-59.585	16.722	-63.903	-8191	255	
1689.010	1	1	0	0	0.22889	0.070559	0.092956	0.1069	0.18824	0.45163	0.067986	0.091699	0.033444	0.20017	0.082878	0.057242	0.16913	0.16778	0.12102	0.25423	-2.7917	-2.7083	-2.4688	-3.2125	-2.4646	-2.5563	-3.1958	-2.4562	-2.9854	-2.9938	-2.5229	-3.3	-2.5167	-2.5979	-3.0812	-2.3417	-3.154	215.295	121.959	177.367	-21.786	113.975	-12.017	245.982	13.141	9.450	204.300	-67.434	217.921	233.253	102.250	57.484	0.00031759	0.0014451	0.00049077	556.87	9.5128e-06	4.3875e-06	576.3	209.83	2.0693e-05	1.3162e-05	243.55	88.782	79.905	32.544	3.7258e-06	35.417	0.001224	0.0014376	0.00036508	702.89	1.3836e-05	1.5472e-05	712.87	246.02	1.3777e-05	1.5243e-05	318.97	108.25	99.34	39.67	1.3437e-05	43.616	162.612	129.964	269.544	-73.067	232.929	70.796	-75.046	-68.661	192.484	74.595	-71.774	-67.978	-64.134	-59.517	45.927	-63.439	-8191	255	
1689.131	1	1	0	0	0.0036428	0.17802	0.038859	0.035978	0.21869	0.16195	0.050759	0.32389	0.077671	0.1036	0.23652	0.041283	0.15096	0.099364	0.059452	0.1927	-2.6667	-2.8083	-2.4042	-3.1625	-2.6979	-2.6729	-3.2583	-2.5062	-2.7229	-2.9437	-2.3917	-3.1083	-2.6875	-2.6437	-3.2083	-2.5187	147.488	-46.561	-31.928	-65.317	145.774	181.301	119.003	165.512	89.257	-61.300	180.192	56.522	90.462	-57.015	85.820	-50.715	0.00048319	0.0015755	0.00031628	561.68	1.3534e-05	1.6968e-05	583.51	209.38	4.1893e-06	7.2858e-06	243.46	88.413	80.103	32.607	1.2639e-05	35.229	0.0012559	0.001351	0.00033813	692.83	1.4138e-05	1.4457e-05	704.12	244.25	1.4086e-05	1.4209e-05	312.48	107.54	100.09	39.163	1.2926e-05	43.64	173.621	-43.581	14.891	-73.074	-18.547	26.133	-75.336	-68.724	-67.944	-20.217	-71.644	-67.792	-64.768	-59.649	16.752	-64.419	-8191	255	
1689.227	1	1	0	0	0.13444	0.17185	0.020544	0.12007	0.12888	0.17481	0.25955	0.061568	0.053509	0.18379	0.12523	0.19988	0.25559	0.13167	0.11171	0.15158	-2.4042	-2.8542	-2.3292	-3.1708	-2.7771	-2.6104	-3.125	-2.4521	-2.9083	-3.0625	-2.5104	-3.1458	-2.8896	-2.6167	-3.3292	-2.525	96.520	240.731	65.879	-43.345	-34.255	162.333	207.736	245.768	-68.082	177.545	178.082	256.687	269.051	234.377	74.100	13.908	0.0003609	0.0027895	0.00012632	559.07	3.6344e-06	1.1793e-05	587.08	208.11	1.3008e-05	8.2268e-06	248.22	88.973	80.329	32.636	8.1172e-06	35.669	0.0013172	0.0013009	0.00033402	700.53	1.5082e-05	1.4279e-05	707.4	248.45	1.5316e-05	1.4255e-05	318.38	111.09	102.97	39.426	1.3239e-05	45.53	162.242	-14.056	6.575	-72.830	-77.495	-76.841	-75.208	-68.499	189.120	36.216	-71.790	-67.812	-64.757	-59.957	55.498	-64.038	-8191	255	
1689.321	1	1	0	0	0.029549	0.33457	0.099428	0.17373	0.21895	0.14126	0.18022	0.11291	0.25678	0.13333	0.10112	0.17128	0.16482	0.12842	0.1132	0.18411	-2.1396	-3.1042	-2.2521	-3.0292	-2.8167	-2.5021	-3.1292	-2.6333	-2.7083	-3.0938	-2.3958	-3.0333	-2.9979	-2.5896	-3.1292	-2.6479	61.239	-8.527	172.612	140.787	83.571	-81.056	176.924	149.662	102.388	18.313	-40.516	183.434	96.978	204.195	97.500	204.974	0.00014361	0.0014593	0.00021399	558.38	1.4715e-06	1.4508e-05	581.92	208.13	1.3657e-05	1.0407e-05	245.64	89.37	81.076	32.764	2.0152e-06	35.581	0.0014115	0.001312	0.00034507	722.88	1.6022e-05	1.4696e-05	709.27	255.74	1.6054e-05	1.4635e-05	321.3	115.7	104.32	39.877	1.388e-05	47.142	261.430	-46.660	271.767	-73.645	167.572	70.087	-74.945	-68.743	31.252	26.450	-72.033	-67.784	-64.303	-59.788	59.258	-64.063	-8191	255	
1689.419	1	1	0	0	0.15965	0.22315	0.13125	0.17941	0.1533	0.20142	0.19925	0.32929	0.064143	0.12073	0.092548	0.20134	0.042255	0.18892	0.24037	0.069832	-2.1604	-2.9938	-2.4021	-2.8146	-2.8563	-2.4458	-3.2042	-2.6458	-2.5917	-3.0938	-2.475	-2.7625	-2.8937	-2.4979	-2.9896	-2.925	265.621	-12.696	158.116	204.284	144.501	215.155	185.228	258.819	-80.424	189.276	-40.998	180.814	235.044	203.532	-9.151	52.677	0.00032074	0.00082315	0.00011808	552.65	1.5275e-05	1.2726e-05	570.79	206.95	8.6886e-06	8.2781e-06	240.95	88.509	81.005	32.662	5.3297e-06	35.544	0.0014534	0.0013462	0.0003581	744.28	1.6135e-05	1.4915e-05	708.59	261.43	1.6191e-05	1.488e-05	324.55	118.12	103.81	39.669	1.4435e-05	47.871	-63.198	-9.630	11.379	-73.802	67.398	-58.129	-75.115	-68.294	3.179	18.405	-71.719	-67.834	-64.313	-59.732	252.745	-63.961	-8191	255	
1689.538	1	1	0	0	0.072658	0.21759	0.053499	0.076337	0.23864	0.10541	0.10344	0.11418	0.084555	0.31854	0.10714	0.11605	0.12989	0.24839	0.34071	0.10539	-2.1375	-3.0438	-2.6583	-2.7687	-3.0438	-2.3896	-2.95	-2.8	-2.5062	-3.1104	-2.3979	-2.6396	-3.1333	-2.2917	-2.9604	-2.9437	190.677	215.543	241.412	-72.849	154.885	50.447	130.628	-83.619	-3.053	74.899	219.082	-67.035	205.213	263.707	-17.067	233.829	0.00012737	0.00017392	6.6024e-05	550.26	1.1997e-05	5.0807e-06	571.33	208.97	1.4628e-05	1.4306e-05	243.04	89.073	81.171	32.605	7.7997e-06	35.473	0.0013933	0.0013038	0.00036555	746.4	1.4962e-05	1.3959e-05	710.66	259.1	1.4458e-05	1.3294e-05	321	114.7	99.043	38.191	1.3584e-05	45.891	-27.340	28.305	98.730	-73.179	99.129	3.495	-75.071	-68.584	80.170	27.166	-71.894	-67.574	-64.693	-60.038	106.103	-63.725	-8191	255	
1689.634	1	1	0	0	0.12952	0.045679	0.20129	0.023526	0.065742	0.16318	0.19916	0.13839	0.24689	0.1016	0.035401	0.15288	0.051953	0.32106	0.24992	0.063516	-2.0271	-3.0979	-2.3438	-2.7604	-3.2479	-2.3688	-2.8625	-2.9625	-2.3688	-3.1271	-2.7167	-2.7604	-3.0187	-2.4125	-2.9271	-2.9	269.237	-1.620	65.671	151.308	-39.224	4.003	216.697	127.654	259.675	67.967	-23.263	271.875	-24.355	194.065	244.234	126.325	9.4828e-05	0.00067271	0.00018381	563	9.9958e-07	8.6743e-06	586.02	211.15	8.8088e-06	8.2829e-06	243.59	89.423	80.272	32.577	1.051e-05	35.864	0.0011972	0.001115	0.00034856	723.61	1.2989e-05	1.2358e-05	713.61	253.59	1.3027e-05	1.2201e-05	323.62	112.55	97.743	38.186	1.4485e-05	45.8	97.572	-36.864	38.891	-73.634	167.876	-27.133	-75.153	-68.688	-14.852	271.800	-71.996	-67.599	-64.539	-59.930	157.208	-63.797	-8191	255	
1689.730	1	1	0	0	0.029426	0.24962	0.35331	0.25478	0.20985	0.14908	0.10364	0.30653	0.35721	0.18173	0.115	0.20041	0.18407	0.01735	0.13381	0.15806	-1.9688	-3.0625	-2.75	-2.6375	-3.0271	-2.5167	-2.9437	-2.9854	-2.3333	-2.9604	-2.875	-2.5667	-3.1437	-2.55	-2.7396	-3.0896	150.647	203.737	85.629	260.158	268.150	235.147	0.689	95.861	23.733	-13.966	62.393	234.098	15.822	249.901	145.492	-77.042	0.00010147	0.00089242	0.00024886	564.67	3.7333e-06	5.9549e-06	582.99	209.56	9.372e-06	1.3226e-05	244.95	89.804	80.379	32.693	1.9193e-06	36.192	0.001192	0.0011635	0.00038062	726.83	1.3219e-05	1.3183e-05	734.21	253.49	1.34e-05	1.3374e-05	335.59	113.46	98.35	39.194	1.5719e-05	46.074	-54.840	31.485	109.183	-73.323	40.116	217.001	-75.237	-68.639	87.439	203.902	-71.933	-67.968	-64.184	-59.388	199.897	-63.771	-8191	255	
#DATA ENDS
