BOXY.EXE: ISS Imagent and Oximeter Data Acquisition Program Version 0.80
Ascii Record File

#ACQ INFORMATION
2  Detector Channels 
16  External MUX Channels 
1  Auxiliary Channels 
5000  Waveform (CCF) Frequency (Hz)
1  Waveforms Skipped 
30  Waveforms Averaged 
1  Cycles Averaged 
16  Acquisitions per Waveform 
10.0806  Updata Rate (Hz) 

#FILE INFORMATION
TRUE -- External MUX Channel results are PARSED.
FALSE -- AC DC and Phase are NOT grouped.
TRUE -- Companion Program Settings File CREATED.
FALSE -- AC data not excluded
FALSE -- DC data not excluded
FALSE -- Phase data not excluded
FALSE -- Auxillary Chn. data not excluded
Tab delimiters

#CALIBRATION STATE
TRUE -- Waveform Calibration Values APPLIED.


#AUX CALIBRATION VALUES
Val Type	aux-1	

Term	1.0000e+00	
Factor	0.0000e+00	


#WF CALIBRATION VALUES
A = Detector Channel
Val Type	A-AC1	A-AC2	A-AC3	A-AC4	A-AC5	A-AC6	A-AC7	A-AC8	A-AC9	A-AC10	A-AC11	A-AC12	A-AC13	A-AC14	A-AC15	A-AC16	A-DC1	A-DC2	A-DC3	A-DC4	A-DC5	A-DC6	A-DC7	A-DC8	A-DC9	A-DC10	A-DC11	A-DC12	A-DC13	A-DC14	A-DC15	A-DC16	A-Ph1	A-Ph2	A-Ph3	A-Ph4	A-Ph5	A-Ph6	A-Ph7	A-Ph8	A-Ph9	A-Ph10	A-Ph11	A-Ph12	A-Ph13	A-Ph14	A-Ph15	A-Ph16	

Term	0.00000e+00	0.00000e+00	0.00000e+00	0.00000e+00	0.00000e+00	0.00000e+00	0.00000e+00	0.00000e+00	0.00000e+00	0.00000e+00	0.00000e+00	0.00000e+00	0.00000e+00	0.00000e+00	0.00000e+00	0.00000e+00	0.00000e+00	0.00000e+00	0.00000e+00	0.00000e+00	0.00000e+00	0.00000e+00	0.00000e+00	0.00000e+00	0.00000e+00	0.00000e+00	0.00000e+00	0.00000e+00	0.00000e+00	0.00000e+00	0.00000e+00	0.00000e+00	0.00000e+00	0.00000e+00	0.00000e+00	0.00000e+00	0.00000e+00	0.00000e+00	0.00000e+00	0.00000e+00	0.00000e+00	0.00000e+00	0.00000e+00	0.00000e+00	0.00000e+00	0.00000e+00	0.00000e+00	0.00000e+00	
Factor	1.00000e+00	1.00000e+00	1.00000e+00	1.00000e+00	1.00000e+00	1.00000e+00	1.00000e+00	1.00000e+00	1.00000e+00	1.00000e+00	1.00000e+00	1.00000e+00	1.00000e+00	1.00000e+00	1.00000e+00	1.00000e+00	1.00000e+00	1.00000e+00	1.00000e+00	1.00000e+00	1.00000e+00	1.00000e+00	1.00000e+00	1.00000e+00	1.00000e+00	1.00000e+00	1.00000e+00	1.00000e+00	1.00000e+00	1.00000e+00	1.00000e+00	1.00000e+00	X	X	X	X	X	X	X	X	X	X	X	X	X	X	X	X	

B = Detector Channel
Val Type	B-AC1	B-AC2	B-AC3	B-AC4	B-AC5	B-AC6	B-AC7	B-AC8	B-AC9	B-AC10	B-AC11	B-AC12	B-AC13	B-AC14	B-AC15	B-AC16	B-DC1	B-DC2	B-DC3	B-DC4	B-DC5	B-DC6	B-DC7	B-DC8	B-DC9	B-DC10	B-DC11	B-DC12	B-DC13	B-DC14	B-DC15	B-DC16	B-Ph1	B-Ph2	B-Ph3	B-Ph4	B-Ph5	B-Ph6	B-Ph7	B-Ph8	B-Ph9	B-Ph10	B-Ph11	B-Ph12	B-Ph13	B-Ph14	B-Ph15	B-Ph16	

Term	0.00000e+00	0.00000e+00	0.00000e+00	0.00000e+00	0.00000e+00	0.00000e+00	0.00000e+00	0.00000e+00	0.00000e+00	0.00000e+00	0.00000e+00	0.00000e+00	0.00000e+00	0.00000e+00	0.00000e+00	0.00000e+00	0.00000e+00	0.00000e+00	0.00000e+00	0.00000e+00	0.00000e+00	0.00000e+00	0.00000e+00	0.00000e+00	0.00000e+00	0.00000e+00	0.00000e+00	0.00000e+00	0.00000e+00	0.00000e+00	0.00000e+00	0.00000e+00	-1.23726e+02	-1.39918e+02	-1.78938e+02	-1.81413e+02	-3.50059e+01	-7.24347e+01	-1.57789e+02	-1.62015e+02	-7.41590e+01	-9.50557e+01	-1.80411e+02	-1.70917e+02	-1.81322e+02	-1.76271e+02	-8.71251e+01	-1.49364e+02	
Factor	1.81544e-05	1.23178e-04	2.51159e-05	1.85326e-01	8.05980e-07	9.73926e-07	1.72092e-01	5.34215e-02	8.30615e-07	1.09759e-06	1.07935e-01	3.07122e-02	2.47813e-02	9.40291e-03	9.68748e-07	1.38253e-02	5.41759e-07	5.53856e-07	1.53778e-07	8.86287e-02	6.03997e-09	6.06804e-09	7.82073e-02	2.56647e-02	6.05508e-09	6.07195e-09	4.76290e-02	1.39290e-02	1.17526e-02	4.39035e-03	6.05682e-09	6.14778e-03	X	X	X	X	X	X	X	X	X	X	X	X	X	X	X	X	



#DISTANCE SETTINGS
A = Detector Channel
A-1	A-2	A-3	A-4	A-5	A-6	A-7	A-8	A-9	A-10	A-11	A-12	A-13	A-14	A-15	A-16	

2.5000e+00	3.0000e+00	2.5000e+00	3.0000e+00	2.0000e+00	3.0000e+00	1.5000e+00	3.0000e+00	3.0000e+00	3.0000e+00	3.0000e+00	3.0000e+00	3.0000e+00	3.0000e+00	1.5000e+00	3.0000e+00	

B = Detector Channel
B-1	B-2	B-3	B-4	B-5	B-6	B-7	B-8	B-9	B-10	B-11	B-12	B-13	B-14	B-15	B-16	

1.0000e+01	1.0000e+01	1.0000e+01	1.4400e+00	1.0000e+01	1.0000e+01	1.5100e+00	1.9400e+00	1.0000e+01	1.0000e+01	1.9900e+00	2.4900e+00	2.4100e+00	2.9000e+00	1.0000e+01	2.9800e+00	




#DATA BEGINS
time	group	step	mark	flag	A-AC1	A-AC2	A-AC3	A-AC4	A-AC5	A-AC6	A-AC7	A-AC8	A-AC9	A-AC10	A-AC11	A-AC12	A-AC13	A-AC14	A-AC15	A-AC16	A-DC1	A-DC2	A-DC3	A-DC4	A-DC5	A-DC6	A-DC7	A-DC8	A-DC9	A-DC10	A-DC11	A-DC12	A-DC13	A-DC14	A-DC15	A-DC16	A-Ph1	A-Ph2	A-Ph3	A-Ph4	A-Ph5	A-Ph6	A-Ph7	A-Ph8	A-Ph9	A-Ph10	A-Ph11	A-Ph12	A-Ph13	A-Ph14	A-Ph15	A-Ph16	B-AC1	B-AC2	B-AC3	B-AC4	B-AC5	B-AC6	B-AC7	B-AC8	B-AC9	B-AC10	B-AC11	B-AC12	B-AC13	B-AC14	B-AC15	B-AC16	B-DC1	B-DC2	B-DC3	B-DC4	B-DC5	B-DC6	B-DC7	B-DC8	B-DC9	B-DC10	B-DC11	B-DC12	B-DC13	B-DC14	B-DC15	B-DC16	B-Ph1	B-Ph2	B-Ph3	B-Ph4	B-Ph5	B-Ph6	B-Ph7	B-Ph8	B-Ph9	B-Ph10	B-Ph11	B-Ph12	B-Ph13	B-Ph14	B-Ph15	B-Ph16	aux-1	digaux	

2780.604	1	1	0	256	0.091143	0.20171	0.3365	0.19242	0.21541	0.11526	0.030362	0.12152	0.26843	0.31081	0.18562	0.097476	0.2233	0.099949	0.12136	0.13852	-1.9604	-2.1896	-2.9062	-2.5104	-2.525	-2.8583	-2.2354	-2.7708	-2.7604	-2.1208	-2.8792	-2.4146	-2.5417	-2.9	-2.0896	-2.5792	247.178	425.013	162.053	380.489	349.192	207.544	427.551	416.955	272.096	345.408	317.864	225.652	438.907	118.407	190.094	325.700	0.00041793	0.00027652	6.6123e-05	599.59	1.3673e-06	9.9603e-07	643.4	206.61	2.2916e-06	2.0593e-06	253.54	102.38	85.499	33.58	2.2922e-06	42.315	1.9165e-05	9.9094e-06	2.5149e-06	522.5	1.2023e-07	1.0251e-07	563.17	180.96	1.1749e-07	1.0537e-07	210.45	86.831	73.27	28.534	1.0969e-07	35.415	183.239	198.233	142.151	122.667	272.360	270.381	120.591	127.237	232.604	222.749	124.908	128.728	131.443	135.854	218.206	132.146	-8191	255	
2780.700	1	1	0	0	0.14662	0.35288	0.2026	0.15904	0.18022	0.049894	0.23602	0.14545	0.14241	0.19502	0.091067	0.19334	0.024043	0.36834	0.29699	0.35918	-2.3771	-2.2917	-2.75	-2.5708	-2.3458	-2.9458	-2.2729	-2.7562	-2.7042	-1.9813	-2.9875	-2.7938	-2.2646	-3.1646	-1.9396	-2.4062	228.501	165.807	111.055	276.721	319.341	114.963	337.887	398.431	324.775	466.977	175.009	386.418	427.253	440.155	134.693	361.374	0.00043443	0.00019712	5.2726e-05	601.07	2.0846e-06	1.2601e-06	640.23	208.02	2.5895e-06	2.7394e-06	254.49	102.52	85.9	33.428	1.8357e-06	42.728	1.8374e-05	9.4952e-06	2.6129e-06	521.65	1.1953e-07	1.0216e-07	561.3	181.32	1.145e-07	1.0492e-07	210.78	86.759	73.333	28.53	1.1036e-07	35.499	182.233	192.050	128.414	122.303	277.710	242.570	120.113	127.475	279.755	244.061	124.587	128.867	131.547	136.209	232.620	131.802	-8191	255	
2780.796	1	1	0	0	0.031107	0.25238	0.22115	0.064621	0.18115	0.26342	0.20103	0.22795	0.22213	0.073614	0.13746	0.039776	0.20561	0.19664	0.27904	0.25861	-2.2188	-2.2812	-2.8333	-2.7646	-2.2188	-3.0021	-2.6958	-2.6104	-2.775	-2.2271	-2.7458	-2.7708	-2.425	-2.7333	-2.3229	-2.5375	347.025	303.050	257.038	399.523	321.882	443.439	333.414	375.555	159.819	115.907	392.515	323.108	147.167	112.574	376.151	296.033	0.0004299	0.00032118	6.5524e-05	599.6	2.0392e-06	8.0008e-07	646.57	205.27	3.2341e-06	2.8191e-06	252.68	102.73	85.841	33.528	3.4851e-06	42.992	1.8525e-05	9.1352e-06	2.5979e-06	521.72	1.1197e-07	9.2108e-08	562.48	180.04	1.1133e-07	1.0131e-07	210.77	86.593	73.337	28.58	1.2046e-07	35.717	184.411	167.071	139.482	122.500	274.997	268.673	120.353	127.337	244.565	195.957	124.775	128.579	131.686	135.927	230.157	132.369	-8191	255	
2780.892	1	1	0	0	0.23047	0.23328	0.34358	0.10905	0.13699	0.092921	0.35135	0.090173	0.073268	0.082414	0.16841	0.15418	0.23226	0.089562	0.30301	0.090052	-2.4396	-2.0667	-2.5896	-2.9188	-2.2208	-2.6917	-2.4708	-2.5312	-3.0479	-2.3479	-2.7708	-2.6208	-2.1896	-2.8542	-2.7083	-2.6854	457.565	263.553	397.444	247.593	167.778	251.395	427.245	405.176	308.904	306.645	449.472	174.692	388.145	359.014	450.755	352.295	0.00042065	0.00028391	6.1035e-05	599.29	1.854e-06	2.5354e-06	643.13	206.74	2.6335e-06	2.1943e-06	251.72	101.69	85.761	33.631	2.9117e-06	42.759	1.8469e-05	9.0994e-06	2.7741e-06	522.09	1.1365e-07	9.7797e-08	564.22	180.16	1.0808e-07	9.9441e-08	210.14	86.388	73.051	28.585	1.2014e-07	35.476	183.060	151.686	162.360	122.548	296.893	233.153	120.671	127.053	229.020	236.186	124.762	128.990	131.559	135.983	221.080	132.244	-8191	255	
2780.986	1	1	0	0	0.14012	0.18869	0.19835	0.14873	0.13484	0.12213	0.11583	0.20052	0.14446	0.16235	0.056873	0.17284	0.32735	0.21634	0.043104	0.094714	-2.4083	-2.1437	-2.7125	-3.0729	-2.15	-2.6937	-2.5375	-2.3646	-3.0458	-2.3729	-2.4958	-2.9062	-2.275	-2.7292	-2.5542	-2.2208	310.996	334.708	452.524	321.386	170.228	132.580	331.021	204.684	302.048	270.731	134.589	323.321	438.806	461.234	142.547	393.863	0.00040611	0.00027153	7.1253e-05	598.97	2.5727e-06	1.5196e-06	636.8	205.7	3.2108e-06	3.3642e-06	251.14	100.42	85.212	33.264	2.8389e-06	42.268	1.737e-05	9.104e-06	2.7392e-06	520.05	1.0508e-07	9.7278e-08	558.26	178.99	1.0596e-07	9.877e-08	208.48	85.599	72.67	28.337	1.168e-07	35.129	184.912	213.128	160.876	122.269	297.800	234.347	120.686	127.347	242.342	239.013	124.495	128.702	131.382	136.199	245.248	132.010	-8191	255	
2781.084	1	1	0	0	0.13628	0.16488	0.034123	0.080678	0.19145	0.23954	0.19206	0.082321	0.026601	0.092806	0.22679	0.048297	0.1601	0.084263	0.1823	0.05997	-2.4958	-2.3458	-2.4125	-2.7792	-2.0938	-2.8896	-2.9083	-2.2271	-3.0417	-2.275	-2.4542	-3.05	-2.4167	-2.9375	-2.8354	-2.2687	118.030	318.641	326.767	376.310	226.729	189.449	405.760	225.189	328.746	428.350	189.900	410.730	435.909	296.079	295.364	260.504	0.00036832	0.00029933	5.3025e-05	594.95	2.4177e-06	1.7805e-06	639.43	205.14	3.0851e-06	3.1254e-06	250.45	101.09	85.267	33.357	2.4026e-06	42.269	1.6176e-05	9.4029e-06	2.8042e-06	517.38	1.0674e-07	9.767e-08	559.51	178.8	9.7651e-08	1.1019e-07	208.85	85.563	72.606	28.42	1.1133e-07	35.19	184.898	185.539	153.571	122.292	276.288	257.451	120.293	127.570	228.051	204.427	124.820	128.597	131.695	136.264	228.106	131.660	-8191	255	
2781.203	1	1	0	0	0.032419	0.18425	0.079891	0.13655	0.36162	0.20736	0.25264	0.087092	0.27954	0.15291	0.43565	0.23254	0.1378	0.078309	0.10035	0.075904	-2.3896	-2.5896	-2.5521	-3.1646	-2.3521	-2.6188	-2.7313	-2.2	-2.9875	-2.5458	-2.5104	-2.9292	-2.3292	-2.7812	-2.9667	-2.4021	425.932	254.525	245.602	375.513	280.857	176.265	443.973	381.885	139.670	420.761	429.725	350.956	364.662	426.868	291.912	344.701	0.0004281	0.00027716	6.2911e-05	597.88	1.5518e-06	1.5238e-06	638.24	203.96	3.3264e-06	1.4169e-06	249.86	100.96	85.22	33.454	2.8735e-06	42.628	1.7117e-05	9.5563e-06	2.81e-06	519.26	1.0275e-07	1.0706e-07	559.71	178.51	1.0238e-07	1.1037e-07	208.38	85.821	72.565	28.491	1.0951e-07	35.465	184.446	171.715	147.822	122.008	305.739	251.872	120.629	127.235	263.434	227.713	124.686	129.085	131.301	135.899	235.657	131.722	-8191	255	
2781.299	1	1	0	0	0.15674	0.2868	0.25444	0.13319	0.17624	0.21908	0.31153	0.16981	0.23776	0.13867	0.2022	0.1164	0.051882	0.15753	0.17782	0.13851	-2.4188	-2.3854	-2.4958	-2.9625	-2.2729	-2.4938	-2.9458	-2.3479	-2.7104	-2.5917	-2.3792	-3.2396	-2.425	-2.5812	-2.8792	-2.4792	420.492	438.252	335.375	318.362	109.319	230.330	327.420	269.640	172.817	294.082	439.395	442.891	325.567	110.171	306.765	428.466	0.00039434	0.00026986	5.3804e-05	595.71	1.0807e-06	2.8914e-06	640.51	205.78	2.2637e-06	3.3434e-06	251.77	101.31	85.666	33.548	2.3563e-06	42.507	1.7346e-05	1.0004e-05	2.6517e-06	519.62	1.0296e-07	1.07e-07	561.34	179.33	1.1155e-07	1.0542e-07	209.72	85.996	72.869	28.574	1.0819e-07	35.346	180.258	174.404	125.694	122.207	278.593	257.671	120.484	127.178	255.814	218.238	124.487	128.795	131.637	135.890	223.138	132.086	-8191	255	
2781.396	1	1	0	0	0.1375	0.20559	0.20807	0.14693	0.022858	0.13323	0.32504	0.038447	0.20726	0.26103	0.28768	0.097848	0.11364	0.38479	0.084055	0.11028	-2.2417	-2.55	-2.0854	-2.8917	-2.3667	-2.5729	-3.0083	-2.1813	-2.5875	-2.7188	-2.3875	-3.0396	-2.4562	-2.3271	-2.8	-2.4062	424.488	316.799	359.609	114.160	145.349	325.414	449.009	140.179	187.181	463.000	165.817	431.150	452.232	433.642	159.352	394.237	0.00040535	0.00035642	5.1547e-05	596.24	1.656e-06	2.1297e-06	638.47	204.99	2.2966e-06	1.7084e-06	251.73	101.26	86.1	33.351	2.557e-06	41.963	1.8197e-05	9.6256e-06	2.6696e-06	518.2	1.1451e-07	1.0906e-07	558.56	178.84	1.1172e-07	1.021e-07	208.5	85.89	73.221	28.38	1.0736e-07	34.987	184.473	195.284	151.950	122.298	303.351	255.512	120.518	127.336	240.842	262.856	124.888	128.764	131.397	135.946	226.807	132.499	-8191	255	
2781.492	1	1	0	0	0.25232	0.08322	0.28893	0.14101	0.044791	0.081808	0.047377	0.041585	0.08375	0.20522	0.092874	0.30476	0.17809	0.16432	0.16325	0.098254	-2.2292	-2.5875	-2.0333	-2.8292	-2.6708	-2.4813	-2.9188	-2.3	-2.6917	-2.9417	-2.3125	-2.8958	-2.7083	-2.5979	-2.8646	-2.4229	401.335	280.025	251.652	171.272	192.575	319.581	287.376	324.457	385.178	161.019	268.634	453.380	152.828	411.525	304.484	348.442	0.00040886	0.0003778	4.8079e-05	594.72	2.2208e-06	1.102e-06	635.9	205.34	2.2647e-06	2.2037e-06	251.39	100.43	84.897	33.241	2.8069e-06	42.538	1.8406e-05	9.4906e-06	2.5104e-06	517.99	1.1833e-07	1.1294e-07	556.33	178.68	1.1618e-07	1.0467e-07	208.27	85.755	72.853	28.296	1.0013e-07	35.239	179.179	181.015	120.963	122.589	307.669	306.209	120.714	127.228	269.436	232.352	124.455	128.825	131.100	136.013	259.686	132.073	-8191	255	
2781.588	1	1	0	0	0.082301	0.10066	0.36302	0.14191	0.16772	0.31805	0.10832	0.1746	0.20824	0.16834	0.20606	0.16132	0.27474	0.31881	0.082288	0.23686	-1.9979	-3.0417	-2.1354	-2.7229	-2.95	-2.2313	-2.7812	-2.5375	-2.6354	-2.8896	-2.1979	-2.6688	-2.8438	-2.3104	-3.0417	-2.4188	163.258	314.206	283.653	109.661	347.709	152.024	319.670	450.501	231.459	311.826	379.067	352.360	429.416	429.194	140.046	113.938	0.00037764	0.00034079	4.3456e-05	597.76	1.9548e-06	2.1579e-06	643.12	206.11	2.7507e-06	2.5294e-06	252.74	102.41	86.24	33.505	2.3773e-06	42.232	1.8265e-05	9.7017e-06	2.4069e-06	520.67	1.1833e-07	1.0709e-07	561.28	179.86	1.2205e-07	9.6949e-08	209.17	86.552	73.423	28.517	1.0825e-07	35.334	179.361	179.542	127.454	122.479	284.436	247.255	120.587	127.177	271.013	255.266	125.161	128.798	131.376	136.197	224.792	132.289	-8191	255	
2781.684	1	1	0	0	0.028861	0.1938	0.15776	0.16063	0.17226	0.13043	0.20157	0.055671	0.091184	0.16777	0.33662	0.27314	0.045134	0.1384	0.38458	0.28522	-2.2021	-2.9	-2.2458	-2.6562	-2.8229	-2.2521	-3.1042	-2.4792	-2.5583	-3.2562	-2.3521	-2.6792	-2.8937	-2.3625	-2.8708	-2.7	341.320	328.173	249.711	407.766	179.026	164.171	140.949	393.112	205.520	448.512	435.957	369.848	433.574	153.595	448.822	450.671	0.00042346	0.00036665	5.4513e-05	595.17	2.0021e-06	2.5935e-06	642.88	206.6	2.3288e-06	2.8367e-06	254.32	103.02	86.202	33.635	3.3035e-06	42.359	1.9171e-05	9.3198e-06	2.5992e-06	521.4	1.1272e-07	1.0101e-07	563.55	180.77	1.2215e-07	9.5241e-08	210.75	86.974	73.486	28.504	1.0428e-07	35.335	183.103	166.612	186.990	122.494	302.559	237.591	120.477	127.669	259.657	210.546	124.510	128.598	131.614	136.127	232.145	132.321	-8191	255	
2781.780	1	1	0	0	0.11382	0.069574	0.05436	0.16281	0.075013	0.24424	0.17238	0.28603	0.074428	0.064116	0.32765	0.069696	0.29126	0.22139	0.071492	0.049598	-1.9062	-2.9875	-2.3937	-2.6896	-2.6437	-2.125	-2.9521	-2.5542	-2.1667	-3.0229	-2.3146	-2.5271	-3.0083	-2.3042	-2.5812	-2.8271	171.141	173.348	242.707	383.320	250.491	371.615	458.831	140.729	129.805	347.799	460.834	159.943	403.008	123.556	139.838	374.555	0.00039131	0.00034409	6.5057e-05	601.58	1.9644e-06	3.4857e-06	640.23	207.42	3.0451e-06	2.0352e-06	252.67	101.15	86.374	33.239	2.1344e-06	41.896	1.7785e-05	8.9298e-06	2.6043e-06	521.55	1.1305e-07	1.0029e-07	561.13	180.73	1.1384e-07	9.1775e-08	209.17	86.348	73.375	28.407	1.0849e-07	34.955	181.015	189.057	156.454	122.624	293.656	251.645	120.381	127.719	264.111	239.468	124.937	129.247	131.651	136.174	205.017	132.373	-8191	255	
2781.901	1	1	0	0	0.20881	0.23205	0.063781	0.12358	0.18934	0.28943	0.12771	0.26664	0.22733	0.098762	0.31196	0.14815	0.11211	0.20972	0.081769	0.11311	-1.6979	-2.8917	-2.3438	-2.7021	-2.7	-2.2792	-2.8229	-2.7792	-2.2396	-2.8333	-2.425	-2.5604	-3.0042	-2.3896	-2.6708	-2.7917	241.474	212.916	388.281	374.467	120.791	326.692	397.808	374.174	453.126	461.460	137.791	459.004	277.370	444.667	152.800	341.805	0.00039969	0.00034428	3.1963e-05	596.37	1.8993e-06	2.3821e-06	637.9	207.75	1.6224e-06	1.5314e-06	251.09	102.64	86.474	33.342	3.1267e-06	42.214	1.7266e-05	8.8398e-06	2.6789e-06	519.9	1.0684e-07	9.4396e-08	558.99	180.59	1.1148e-07	9.328e-08	208.8	86.74	73.6	28.4	1.1697e-07	35.057	182.502	178.755	156.899	122.216	307.236	220.080	120.640	127.356	254.497	202.681	124.521	128.952	131.409	136.061	248.271	131.753	-8191	255	
2781.995	1	1	0	0	0.043163	0.0079567	0.15256	0.27901	0.32378	0.22555	0.040399	0.37029	0.047659	0.069925	0.14616	0.13005	0.17655	0.076909	0.15265	0.15721	-1.5688	-2.7833	-2.6917	-2.2062	-3.0708	-2.3125	-2.5438	-2.8729	-2.075	-2.7771	-2.6688	-2.4146	-2.825	-2.2771	-2.5896	-3.0771	354.075	397.834	323.802	396.386	430.754	187.927	416.184	382.455	119.100	236.133	415.026	420.342	455.271	453.085	427.540	453.941	0.00039146	0.00024031	4.2923e-05	596.71	1.4883e-06	1.824e-06	640.63	206.29	2.6146e-06	3.499e-06	251.14	101.91	86.025	33.564	2.5775e-06	42.516	1.7771e-05	9.1086e-06	2.8846e-06	519.96	1.0399e-07	1.0249e-07	560.97	180.18	1.151e-07	9.9289e-08	209.62	86.661	73.486	28.545	1.238e-07	35.335	183.738	178.715	139.525	122.597	310.230	240.126	120.703	127.450	250.190	228.083	124.958	129.331	131.223	136.097	235.211	132.484	-8191	255	
2782.069	1	1	0	0	0.20659	0.07787	0.14182	0.16677	0.21503	0.3504	0.17802	0.17055	0.24921	0.053453	0.11834	0.14172	0.15366	0.2436	0.16002	0.2818	-1.7792	-2.6604	-2.5021	-2.2375	-3.0646	-2.3958	-2.475	-2.975	-2.3625	-2.8417	-2.4979	-2.25	-2.9188	-2.3083	-2.4875	-2.9688	303.933	418.417	232.963	381.055	444.713	214.727	327.299	405.384	446.258	289.933	460.585	419.203	133.065	132.436	291.602	378.932	0.00041252	0.00035606	4.4628e-05	601.43	8.9358e-07	1.1325e-06	644	206.82	2.8883e-06	2.1836e-06	254.4	103.01	85.986	33.507	1.934e-06	42.295	1.8225e-05	9.7998e-06	2.8859e-06	522.6	1.0343e-07	9.925e-08	565.07	180.71	1.0963e-07	1.0138e-07	210.35	87.152	73.516	28.512	1.1585e-07	35.271	183.190	185.845	139.875	122.516	340.879	249.291	120.835	127.303	255.011	234.536	124.666	128.694	131.225	136.052	223.673	132.262	-8191	255	
2782.165	1	1	0	0	0.089046	0.16601	0.12741	0.15661	0.075109	0.27067	0.20177	0.033622	0.11398	0.16339	0.34462	0.16901	0.071603	0.095407	0.079166	0.30942	-1.7375	-2.8125	-2.7	-2.2104	-2.8063	-2.55	-2.6063	-2.9708	-2.1604	-2.7354	-2.95	-2.2708	-2.925	-2.5292	-2.4667	-2.9188	341.557	181.227	304.566	202.156	300.936	224.860	384.748	220.291	429.023	298.657	448.838	327.836	171.519	171.317	363.554	438.431	0.00041972	0.00024563	8.171e-05	597.83	2.0669e-06	1.1871e-06	640.42	207.25	2.0663e-06	2.0495e-06	252.76	101.65	86.136	33.331	1.6858e-06	41.566	1.782e-05	9.8367e-06	2.9029e-06	520.68	1.0292e-07	1.0753e-07	561.44	180.39	1.0845e-07	1.1071e-07	209.79	86.357	73.296	28.31	1.1558e-07	34.754	184.933	189.886	178.545	121.985	281.440	231.285	120.425	127.407	251.877	183.550	124.628	128.934	131.549	135.853	250.105	131.818	-8191	255	
2782.284	1	1	0	0	0.12057	0.15746	0.16269	0.28605	0.16659	0.16942	0.41584	0.26074	0.080117	0.14641	0.38657	0.20588	0.12139	0.048553	0.11047	0.17471	-1.9979	-2.6229	-2.6188	-2.4333	-2.9458	-2.6729	-2.1896	-2.9729	-2.425	-2.7042	-2.7104	-2.3125	-3.0354	-2.6083	-2.2458	-2.9854	394.132	410.793	186.185	460.930	354.447	131.937	416.117	357.389	393.927	184.563	421.974	259.872	406.202	393.240	300.452	310.267	0.00038483	0.0002178	7.4786e-05	595.01	1.6885e-06	2.0123e-06	637.61	205.2	2.7403e-06	2.38e-06	251.06	101.32	85.206	33.239	2.3092e-06	41.547	1.7747e-05	1.0313e-05	2.6943e-06	518.91	1.0668e-07	1.1067e-07	559.51	179.5	1.1049e-07	1.0788e-07	208.18	86.028	72.845	28.242	1.1562e-07	34.748	179.487	177.661	171.250	122.285	292.417	272.764	120.847	127.548	239.937	236.832	124.814	128.762	131.612	135.949	235.427	132.141	-8191	255	
2782.380	1	1	0	0	0.051999	0.18409	0.10902	0.37796	0.12542	0.059329	0.26926	0.096236	0.2086	0.12734	0.21667	0.3103	0.37325	0.23249	0.060205	0.13004	-1.9792	-2.5	-2.8417	-2.3	-2.8479	-2.6583	-2.3667	-3.0208	-2.4896	-2.4458	-3.0229	-2.2542	-2.8396	-2.7667	-2.3354	-3.0812	138.452	152.503	255.837	435.658	466.295	449.706	386.877	352.685	195.461	247.160	344.465	417.479	361.585	371.287	444.913	154.695	0.00043038	0.00024202	6.5263e-05	596.74	2.0891e-06	2.3594e-06	643.16	206.94	2.03e-06	3.0082e-06	253.21	102.64	86.063	33.579	2.2977e-06	42.161	1.8898e-05	1.0551e-05	2.57e-06	520.34	1.089e-07	1.1453e-07	562.99	181.09	1.1872e-07	1.1476e-07	209.65	86.726	73.529	28.458	1.1413e-07	34.962	183.228	182.066	155.996	122.345	286.869	248.053	120.866	127.085	245.941	227.434	124.174	128.899	131.382	135.864	246.670	132.489	-8191	255	
2782.476	1	1	0	0	0.12324	0.12944	0.3456	0.082102	0.078761	0.12682	0.20026	0.079043	0.090512	0.22983	0.34079	0.10056	0.15045	0.23431	0.15231	0.1187	-1.925	-2.4417	-2.7083	-2.4083	-2.55	-2.9208	-2.1312	-2.9583	-2.6417	-2.3146	-2.9813	-2.4625	-2.5146	-2.7479	-2.1708	-3.0167	130.291	465.696	367.022	438.291	197.348	459.199	397.499	420.414	404.199	427.528	467.077	239.635	110.908	399.600	305.429	247.797	0.000403	0.00027277	6.4229e-05	598.47	1.3243e-06	2.0763e-06	643.72	207.64	3.2342e-06	3.0998e-06	255.81	103.84	86.762	33.659	1.7469e-06	42.502	1.8649e-05	1.0139e-05	2.5466e-06	522.03	1.1534e-07	1.0732e-07	565	182.08	1.2689e-07	1.1461e-07	212.21	87.857	74.021	28.632	1.1204e-07	35.4	183.584	164.863	172.705	122.496	277.894	257.747	120.629	127.224	243.010	234.901	125.089	128.884	131.398	136.008	217.665	131.991	-8191	255	
2782.572	1	1	0	0	0.10302	0.090073	0.075423	0.13723	0.12966	0.27673	0.19824	0.36149	0.10971	0.14524	0.046811	0.19701	0.052551	0.094814	0.064877	0.14299	-2.0542	-2.2354	-2.8979	-2.3979	-2.5521	-2.8417	-2.3063	-2.8333	-2.7188	-2.15	-2.8271	-2.1833	-2.55	-2.9958	-2.1771	-2.7646	198.277	403.058	359.823	428.440	312.329	151.808	416.597	399.493	413.071	313.721	348.096	118.551	456.288	374.406	386.143	215.828	0.00040778	0.00027124	0.00010075	600.08	2.3168e-06	1.6503e-06	645.66	209.23	1.9923e-06	2.483e-06	256.3	103.69	86.876	33.491	3.4034e-06	42.102	1.959e-05	1.0181e-05	2.5674e-06	521.54	1.1793e-07	1.0605e-07	564.41	182.21	1.2463e-07	1.0854e-07	211.44	87.948	74.147	28.575	1.1381e-07	35.128	179.371	185.603	119.849	122.538	267.885	244.790	120.713	127.484	236.422	235.706	124.182	128.759	131.627	135.815	250.172	131.836	-8191	255	
2782.693	1	1	0	0	0.035957	0.22963	0.19648	0.2781	0.36923	0.065807	0.14104	0.13115	0.05386	0.1043	0.059257	0.071179	0.27063	0.051409	0.24552	0.30883	-2.2542	-2.3312	-2.8312	-2.4375	-2.5812	-2.95	-2.1729	-2.8312	-2.6354	-2.1833	-3.1292	-2.4104	-2.5521	-2.9271	-2.5542	-2.5792	387.810	461.505	402.557	394.041	170.554	136.998	353.572	394.940	447.473	232.164	438.707	354.946	407.963	225.317	348.793	384.710	0.00042082	0.00014944	5.822e-05	601.08	1.6915e-06	1.4395e-06	641.55	208.44	2.7283e-06	2.4119e-06	254.34	103.02	86.361	33.624	2.4871e-06	41.896	1.9116e-05	1.0448e-05	2.4848e-06	522.73	1.1782e-07	1.0091e-07	563.44	181.91	1.2236e-07	1.0531e-07	210.72	87.529	73.794	28.591	1.1398e-07	35.05	183.079	181.871	164.284	122.593	301.360	276.589	120.675	127.680	278.040	239.101	124.765	128.728	131.505	135.839	231.056	131.910	-8191	255	
2782.764	1	1	0	0	0.27502	0.18588	0.18525	0.040296	0.053113	0.18367	0.22104	0.34433	0.18573	0.20211	0.12017	0.19714	0.31351	0.15636	0.13158	0.17215	-2.4729	-2.2229	-2.6937	-2.6542	-2.3271	-2.9729	-2.4896	-2.3625	-2.8063	-2.225	-2.9271	-2.6125	-2.3688	-3.0208	-2.2771	-2.5312	360.798	459.787	218.014	427.027	151.379	203.283	376.015	396.661	263.442	205.142	210.862	405.203	326.786	169.496	123.471	425.111	0.00039661	0.0002771	5.1331e-05	601.9	2.5302e-06	2.5096e-06	644.63	209.89	1.6119e-06	2.4957e-06	256.76	103.53	87.597	34.088	2.8203e-06	42.651	1.885e-05	9.7559e-06	2.5777e-06	523.2	1.2508e-07	9.9149e-08	565.19	183.5	1.1597e-07	1.0646e-07	213.11	88.264	74.556	28.968	1.2199e-07	35.41	185.487	203.714	142.260	122.505	294.819	263.839	120.647	127.327	241.340	227.604	124.462	129.074	131.475	135.583	242.129	132.195	-8191	255	
2782.885	1	1	0	0	0.14658	0.23792	0.11535	0.07594	0.1302	0.22661	0.21816	0.17761	0.14955	0.25537	0.19491	0.045778	0.14397	0.26141	0.21526	0.16655	-2.4062	-2.325	-2.7521	-2.4479	-2.4042	-3.0563	-2.4688	-2.7083	-2.8396	-2.3146	-2.8958	-2.7875	-2.2792	-3.0208	-2.4271	-2.4958	245.417	277.590	462.783	448.104	332.887	160.282	334.278	122.545	411.714	149.353	361.692	139.719	402.561	408.677	408.518	253.140	0.00040578	0.000373	8.0757e-05	602.63	1.9663e-06	1.1681e-06	649.17	211.82	3.3392e-06	2.3365e-06	256.98	104.71	88.035	34.188	2.0419e-06	42.865	1.8243e-05	9.3636e-06	2.8465e-06	525.38	1.2074e-07	9.676e-08	569.39	184.28	1.1443e-07	1.0993e-07	213.8	89.129	75.017	29.025	1.3045e-07	35.711	177.997	183.355	141.436	122.569	319.573	257.142	120.587	127.435	238.088	221.225	125.176	128.653	131.313	135.462	217.222	131.895	-8191	255	
2782.981	1	1	0	0	0.33915	0.20052	0.25742	0.18494	0.085761	0.18789	0.22067	0.08508	0.26681	0.059111	0.042123	0.27092	0.41712	0.066185	0.19491	0.2142	-2.4729	-2.3021	-2.5708	-2.7458	-2.2208	-2.9125	-2.6958	-2.5958	-2.9417	-2.1875	-2.7333	-2.8396	-2.3104	-2.9396	-2.5625	-2.3667	374.769	469.713	204.394	239.287	388.832	380.543	446.764	430.759	200.724	148.963	135.053	463.846	138.472	130.136	441.912	310.375	0.00042158	0.00025549	5.1068e-05	599.37	1.6027e-06	1.6543e-06	646.9	210.63	2.4737e-06	2.2812e-06	255.96	104.07	87.148	33.904	1.7322e-06	42.291	1.9342e-05	9.8298e-06	3.0269e-06	524.08	1.1443e-07	1.0072e-07	568.14	184.23	1.1221e-07	1.0513e-07	212.66	88.654	74.562	28.831	1.2639e-07	35.192	187.371	146.278	141.938	122.125	332.647	248.691	120.927	127.711	266.560	219.846	124.809	128.877	131.543	136.031	238.795	132.073	-8191	255	
2783.076	1	1	0	0	0.078334	0.37378	0.052773	0.24072	0.12141	0.046154	0.10316	0.073836	0.15392	0.087997	0.28757	0.066591	0.11507	0.16139	0.10918	0.19593	-2.7042	-2.3375	-2.5917	-3.0458	-2.1437	-2.6271	-2.5729	-2.4333	-3.0292	-2.3833	-2.6042	-2.7208	-2.2313	-2.8979	-2.6021	-2.2729	247.276	149.721	201.173	416.883	347.099	156.862	389.259	459.516	299.516	215.826	414.214	434.756	146.698	209.954	289.629	289.287	0.00042518	0.00029542	4.7624e-05	607.24	1.8525e-06	2.7263e-06	646.54	211.13	1.5222e-06	2.4023e-06	255.04	105.14	88.015	33.882	2.5782e-06	42.355	1.8261e-05	1.0281e-05	3.154e-06	525.94	1.1299e-07	1.0464e-07	567.03	184.5	1.156e-07	1.078e-07	212.55	88.632	74.851	28.862	1.2582e-07	35.323	180.774	193.699	154.825	122.299	308.557	255.836	120.781	127.450	244.278	262.258	124.571	128.675	131.562	135.713	227.243	132.050	-8191	255	
2783.173	1	1	0	0	0.26781	0.20802	0.28164	0.11459	0.42585	0.070464	0.11597	0.35469	0.1312	0.20943	0.057782	0.21271	0.29005	0.1659	0.12649	0.088181	-2.5979	-2.2604	-2.3167	-2.7292	-2.2687	-2.4833	-2.9	-2.3896	-3.0917	-2.3854	-2.5083	-2.9708	-2.4146	-2.5729	-2.5896	-2.5292	289.244	387.734	381.890	240.614	338.288	303.274	439.853	370.192	124.289	284.632	431.860	406.172	140.514	355.458	293.231	336.718	0.00040632	0.00028512	3.8937e-05	601.83	1.857e-06	1.5175e-06	646.08	212.11	2.4417e-06	1.0718e-06	256.73	105.1	87.717	34.177	9.1942e-07	42.591	1.8134e-05	1.0987e-05	2.9567e-06	523.83	1.1232e-07	1.1287e-07	566.45	184.93	1.0797e-07	1.1993e-07	213.78	89.085	75.09	29.004	1.1985e-07	35.573	183.344	174.024	140.889	122.100	284.629	189.661	120.796	127.419	260.039	202.410	124.715	128.628	131.139	136.094	247.549	132.244	-8191	255	
2783.292	1	1	0	0	0.11477	0.25633	0.15708	0.17877	0.16549	0.39619	0.26825	0.44351	0.12399	0.29874	0.22909	0.060233	0.2953	0.15183	0.019878	0.19916	-2.4104	-2.3958	-2.3854	-2.8792	-2.4	-2.6188	-2.6729	-2.4	-2.8646	-2.5208	-2.1562	-2.9375	-2.4604	-2.7979	-2.9583	-2.2062	200.756	412.336	368.186	401.499	180.673	466.686	389.921	411.546	314.798	271.510	156.294	420.324	385.515	163.313	226.681	122.134	0.00040259	0.00032058	6.8308e-05	602.87	2.3441e-06	3.456e-06	656.03	212.39	2.2231e-06	2.2547e-06	258.59	106.21	88.661	34.329	2.8041e-06	42.73	1.816e-05	1.1173e-05	3.1201e-06	526.86	1.147e-07	1.1817e-07	571.87	185.49	1.1443e-07	1.2163e-07	215.24	89.786	75.574	29.102	1.1876e-07	35.716	182.919	189.407	150.044	122.507	275.034	262.316	120.502	127.460	254.503	262.157	124.651	128.487	131.346	136.272	252.407	132.274	-8191	255	
2783.364	1	1	0	0	0.20653	0.26804	0.29994	0.16877	0.30975	0.2487	0.16058	0.18009	0.17028	0.27556	0.2229	0.24809	0.36431	0.35601	0.17811	0.17854	-2.2729	-2.7812	-2.1521	-2.7667	-2.4208	-2.3563	-2.6708	-2.0708	-2.7979	-2.6854	-2.1958	-3.1125	-2.3937	-2.4229	-3.0438	-2.2062	465.683	403.686	412.657	125.901	271.386	344.618	390.630	437.554	461.427	243.519	399.070	179.790	468.333	402.414	144.358	468.579	0.00044726	0.00046106	5.8345e-05	605.01	3.3217e-06	1.776e-06	648.94	211.86	2.205e-06	1.9592e-06	258.57	105.73	88.45	33.865	3.7187e-06	42.48	1.8921e-05	1.1152e-05	2.9173e-06	527.59	1.1738e-07	1.2372e-07	570.29	185.22	1.2251e-07	1.2024e-07	214.54	89.557	75.473	28.956	1.2037e-07	35.424	180.775	174.718	142.629	122.701	283.206	262.638	120.410	127.530	260.970	235.859	124.402	128.679	131.247	135.776	219.392	131.888	-8191	255	
2783.460	1	1	0	0	0.29277	0.22201	0.12056	0.21258	0.11258	0.098181	0.15717	0.028707	0.20061	0.082182	0.18277	0.18882	0.21845	0.31545	0.22548	0.095759	-1.8958	-2.7146	-2.2917	-2.8667	-2.4146	-2.5896	-2.9583	-2.2896	-2.6896	-3.0292	-2.2917	-2.8563	-2.6583	-2.4271	-2.9458	-2.5	120.667	442.747	211.798	440.976	345.794	446.775	129.151	418.846	359.716	350.077	160.451	188.251	378.472	124.780	412.907	247.681	0.00041478	0.00030723	5.8378e-05	602.36	2.1071e-06	4.2519e-07	651.01	213.17	2.8217e-06	2.6825e-06	257.54	104.7	87.678	34.169	1.3714e-06	42.421	1.9254e-05	1.0901e-05	2.7581e-06	524.62	1.2811e-07	1.1981e-07	567.95	185.4	1.2755e-07	1.1386e-07	213.64	89.226	75.136	28.993	1.1444e-07	35.347	180.183	195.410	142.875	122.482	266.266	285.141	120.639	127.495	260.449	222.165	124.733	128.696	131.033	136.007	265.910	132.433	-8191	255	
2783.581	1	1	0	0	0.15587	0.07292	0.10047	0.24884	0.074919	0.34273	0.14433	0.16916	0.20296	0.17893	0.12612	0.096085	0.39664	0.2621	0.1418	0.33603	-2.2687	-2.8333	-2.0417	-3.1542	-2.7354	-2.1188	-2.875	-2.5979	-2.5354	-2.8604	-2.2979	-2.9813	-2.7083	-2.3354	-3.1083	-2.3979	395.410	404.579	189.286	387.926	410.214	225.490	146.315	371.158	194.233	391.158	150.386	383.515	361.814	445.149	457.806	381.348	0.00042406	0.00019892	7.8974e-05	602.38	2.1054e-06	2.1389e-06	651.87	213.91	2.2189e-06	2.0792e-06	258.59	106.58	89.048	34.236	1.3561e-06	42.906	2.0298e-05	1.0283e-05	2.8756e-06	524.96	1.2966e-07	1.1298e-07	569.25	186.48	1.2984e-07	1.1405e-07	214.99	90.252	75.994	29.158	1.1382e-07	35.655	179.437	159.600	138.236	122.320	296.996	282.366	120.210	127.752	244.592	235.954	124.502	128.936	131.147	135.967	240.458	131.967	-8191	255	
2783.677	1	1	0	0	0.16304	0.23177	0.12579	0.13326	0.2502	0.28133	0.029773	0.15893	0.18801	0.18364	0.031908	0.14451	0.22485	0.15115	0.036572	0.16409	-2.0875	-3.0354	-2.1229	-2.7667	-2.8438	-2.1437	-3.0479	-2.5375	-2.3854	-3.0125	-2.3708	-2.6396	-2.5771	-2.3125	-2.7542	-2.45	287.371	248.476	259.966	318.286	270.515	339.738	268.830	143.985	132.158	411.678	286.285	368.440	455.414	438.550	296.826	258.743	0.00044708	0.00023322	5.4452e-05	604.4	1.9371e-06	2.3607e-06	653.53	212.85	3.5972e-06	2.9206e-06	260.86	106.56	88.972	34.134	2.9348e-06	42.921	2.0973e-05	1.0411e-05	2.8109e-06	526.75	1.2912e-07	1.1756e-07	571.26	186.16	1.3391e-07	1.0873e-07	216.04	90.534	76.051	29.103	1.1417e-07	35.865	187.878	189.205	161.101	122.308	294.374	290.387	120.460	127.292	248.235	223.615	124.733	128.666	131.304	135.699	230.675	131.808	-8191	255	
2783.773	1	1	0	0	0.095741	0.22201	0.14674	0.32425	0.32243	0.14721	0.15784	0.14041	0.14023	0.19318	0.17094	0.10348	0.097364	0.16243	0.27887	0.089782	-2.1437	-2.8667	-2.0479	-2.5958	-2.6854	-2.2021	-3.0146	-2.8875	-2.2875	-2.8937	-2.4	-2.7625	-2.9229	-2.3375	-3.0625	-2.7292	366.313	375.953	185.342	432.705	434.240	433.409	324.239	315.110	291.277	374.250	382.490	467.956	250.766	125.355	265.704	183.094	0.00040106	0.00028005	2.9811e-05	604.45	1.3967e-06	1.7992e-06	648.41	212.22	1.6237e-06	1.5237e-06	257.69	105.1	88.496	33.944	3.6355e-06	42.551	1.9887e-05	1.0524e-05	2.5944e-06	526.99	1.195e-07	1.1625e-07	570.41	185.38	1.275e-07	9.8328e-08	214.41	89.779	75.537	28.847	1.1285e-07	35.306	181.163	157.434	191.002	122.382	255.796	254.730	120.700	127.622	231.616	200.860	125.237	128.880	131.443	135.866	237.913	132.225	-8191	255	
2783.869	1	1	0	0	0.38542	0.052381	0.12946	0.068725	0.22991	0.091937	0.020557	0.076504	0.020498	0.19247	0.2723	0.13605	0.14355	0.25711	0.050034	0.21709	-1.6562	-3.0438	-2.3896	-2.3667	-2.8917	-2.2542	-2.7979	-2.6667	-2.3271	-3.225	-2.2146	-2.5333	-3.0354	-2.0875	-2.725	-2.8646	388.390	313.327	132.851	225.934	390.867	335.163	303.723	420.266	436.946	207.152	191.396	418.473	139.552	228.402	122.517	440.156	0.00039063	0.00023692	7.7884e-05	599.79	2.461e-06	2.4733e-06	644.24	210.42	2.1713e-06	2.5644e-06	256.37	105.51	87.876	33.574	3.5698e-06	41.767	1.8924e-05	9.7467e-06	2.8455e-06	522.98	1.1348e-07	1.1074e-07	565.44	183.97	1.2341e-07	9.8745e-08	212.63	88.804	74.853	28.572	1.203e-07	34.876	180.174	175.060	147.831	122.478	282.040	239.885	120.694	127.544	245.994	259.031	124.776	128.676	131.531	135.670	232.184	131.898	-8191	255	
2783.988	1	1	0	0	0.17967	0.21187	0.31215	0.18716	0.063383	0.10604	0.050148	0.1471	0.095449	0.139	0.13735	0.046497	0.05836	0.20669	0.16879	0.19778	-1.7104	-2.8479	-2.5521	-2.5458	-2.9208	-2.2542	-2.7917	-2.7583	-2.2375	-3.0146	-2.4396	-2.3646	-3.0521	-2.3792	-2.6875	-2.8396	138.712	388.950	109.511	168.466	299.047	387.105	364.985	353.238	287.075	189.986	139.906	389.712	321.038	365.798	271.968	336.942	0.00036297	0.00031414	8.1405e-05	602.24	1.9546e-06	1.9559e-06	648.29	209.58	2.4584e-06	2.2374e-06	257.46	105.51	87.669	32.874	2.944e-06	47.614	1.8176e-05	9.6071e-06	3.08e-06	523.31	1.0981e-07	1.0575e-07	568.53	183.22	1.1708e-07	9.729e-08	213.38	88.776	74.731	26.971	1.3553e-07	38.926	182.849	203.136	127.442	122.250	285.092	234.475	120.744	127.346	230.228	209.802	124.961	128.342	131.416	122.301	262.587	129.972	-8191	255	
2784.060	1	1	0	0	0.10448	0.29727	0.20466	0.22147	0.055911	0.2485	0.3425	0.23856	0.12645	0.27476	0.1668	0.10476	0.013201	0.32169	0.07464	0.12604	-1.9292	-2.8292	-2.4208	-2.4583	-3.0271	-2.0938	-2.8312	-2.8854	-2.2292	-3.0896	-2.6354	-2.3521	-3.1583	-2.1375	-2.5563	-2.8438	426.218	370.574	197.662	170.815	122.167	267.071	350.606	391.695	420.390	188.562	446.179	235.894	244.069	130.648	280.303	333.283	0.00048309	0.00036886	8.6257e-05	684.45	2.5964e-06	2.7913e-06	729.43	239.1	2.88e-06	2.6797e-06	292.42	119.14	99.506	37.928	3.5712e-06	47.966	2.1225e-05	1.0954e-05	3.402e-06	584.37	1.2434e-07	1.197e-07	631.8	205.03	1.3152e-07	1.2243e-07	238.71	99.18	83.399	31.862	1.4462e-07	39.333	178.680	182.689	134.912	121.182	311.349	235.635	119.198	125.702	248.616	215.506	123.181	127.273	130.161	134.343	245.174	130.542	-8191	255	
2784.156	1	1	0	0	0.1412	0.023723	0.063269	0.19455	0.027056	0.1197	0.16847	0.25204	0.32705	0.20095	0.12494	0.1121	0.17789	0.53704	0.084288	0.20757	-1.5854	-2.7854	-2.4333	-2.2854	-2.9688	-2.6125	-2.6625	-3.1312	-2.1854	-2.7542	-2.8812	-2.5771	-3.0271	-2.3812	-2.4854	-2.8125	344.680	331.140	457.882	390.399	205.298	368.406	368.301	443.986	309.440	172.800	406.956	257.660	412.329	420.379	283.677	208.812	0.00042613	0.00024484	5.9956e-05	684.49	2.1952e-06	8.4123e-07	825.48	267.58	3.5985e-06	3.7914e-06	327.78	133.14	111.79	42.731	2.4724e-06	53.563	2.0624e-05	1.0739e-05	3.4344e-06	584.85	1.5152e-07	1.4015e-07	698.5	226.13	1.4298e-07	1.3744e-07	263.62	109.81	92.439	35.203	1.5198e-07	43.242	180.379	182.024	133.139	121.001	292.794	271.444	116.701	124.207	260.065	246.638	121.520	126.107	128.263	132.806	221.112	129.452	-8191	255	
2784.252	1	1	0	0	0.13419	0.058619	0.11121	0.1262	0.29579	0.21955	0.074516	0.19464	0.14835	0.10825	0.1116	0.28249	0.24937	0.080297	0.19449	0.23341	-1.9229	-2.6	-2.7604	-2.3063	-2.8646	-2.5521	-2.4229	-3.1354	-2.4125	-2.7208	-2.8042	-2.3063	-2.9208	-2.6188	-2.4188	-3.2708	456.686	295.544	134.735	137.391	263.086	359.332	321.965	129.695	440.701	365.858	387.150	456.964	345.322	393.922	341.717	461.606	0.00046922	0.00042539	6.7216e-05	766.54	3.1105e-06	3.237e-06	825.38	267.26	4.4758e-06	5.071e-06	325.06	133	110.82	42.341	2.8962e-06	53	2.2101e-05	1.2994e-05	3.7304e-06	646.44	1.3323e-07	1.3846e-07	699.75	225.69	1.415e-07	1.361e-07	261.74	109	91.913	34.942	1.5295e-07	42.912	181.431	190.752	151.884	119.677	268.607	251.862	118.022	124.375	241.094	236.870	121.632	126.098	128.230	132.843	225.774	129.231	-8191	255	
2784.373	1	1	0	0	0.12323	0.1491	0.023587	0.23101	0.18483	0.30656	0.26972	0.29354	0.31731	0.25488	0.30396	0.26211	0.12344	0.19589	0.11954	0.20574	-1.875	-2.5646	-2.8312	-2.1417	-2.7125	-2.7604	-2.3563	-3.0146	-2.4333	-2.6771	-2.825	-2.3979	-2.875	-2.6979	-2.4521	-3.1896	318.724	288.538	459.891	407.076	168.147	116.110	368.769	458.831	197.373	249.058	385.602	419.138	338.849	427.560	137.045	309.409	0.00049008	0.00020382	5.5281e-05	839.81	1.727e-06	2.3897e-06	925.74	300.18	2.3603e-06	2.9527e-06	367.04	149.06	125.49	48.038	4.0558e-06	60.078	2.214e-05	1.3849e-05	4.0082e-06	695.79	1.4613e-07	1.6467e-07	773.78	249.79	1.6086e-07	1.6412e-07	289.66	120.78	102.04	38.856	1.6133e-07	47.729	181.852	152.218	126.428	114.744	277.264	246.417	116.279	122.949	237.207	223.541	120.351	124.669	126.771	131.592	243.136	127.979	-8191	255	
2784.467	1	1	0	0	0.20055	0.14564	0.12961	0.11733	0.17516	0.028301	0.38734	0.13062	0.16655	0.0071295	0.15488	0.11395	0.2408	0.25578	0.24236	0.19179	-1.8229	-2.5792	-2.8312	-2.1146	-2.7521	-2.7375	-2.2583	-3.0958	-2.7021	-2.3708	-2.8792	-2.5292	-2.9208	-2.7833	-2.2771	-3.2021	345.247	440.802	123.561	107.730	264.581	440.581	428.689	186.055	350.329	310.306	361.264	309.691	436.124	218.794	277.199	361.641	0.0005637	0.00032529	8.8645e-05	867.54	2.9887e-06	2.7711e-06	925.47	300.24	2.5525e-06	4.571e-06	364.93	149.52	125.89	47.765	3.299e-06	60.495	2.6384e-05	1.4434e-05	3.6958e-06	718.08	1.6251e-07	1.582e-07	774.99	249.69	1.7209e-07	1.5215e-07	290.13	121.29	102.05	38.963	1.5846e-07	47.908	181.579	204.680	119.240	117.950	279.323	264.041	116.632	123.178	251.782	245.161	120.554	124.358	126.996	131.263	224.721	127.837	-8191	255	
2784.565	1	1	0	0	0.17733	0.088668	0.04608	0.4053	0.22007	0.26056	0.16273	0.23066	0.05251	0.14116	0.053052	0.19792	0.065059	0.13348	0.14726	0.031298	-2.0542	-2.3167	-3.0354	-2.35	-2.6042	-2.9083	-2.4292	-2.9167	-2.375	-2.3396	-3.1542	-2.3021	-2.5958	-2.9542	-2.0458	-2.9583	430.530	383.039	192.811	400.283	218.220	443.074	405.766	403.807	447.755	257.512	107.514	362.404	128.308	399.559	389.959	121.749	0.00060606	0.00048644	8.8196e-05	870.51	1.893e-06	3.6398e-06	933.06	301.56	3.3728e-06	3.3233e-06	367.25	150.6	126.55	48.464	3.989e-06	59.983	2.658e-05	1.4351e-05	3.6952e-06	719.21	1.6615e-07	1.5356e-07	779.7	251.92	1.7601e-07	1.6222e-07	291.4	121.67	102.74	39.162	1.5683e-07	47.843	184.176	140.989	122.226	118.494	301.181	271.874	116.454	123.033	255.480	243.373	120.780	124.813	126.939	131.342	248.596	127.996	-8191	255	
2784.659	1	1	0	0	0.26732	0.086355	0.12663	0.45565	0.085903	0.20909	0.14283	0.19192	0.19347	0.20517	0.13405	0.084134	0.045599	0.33854	0.12734	0.13484	-2.0375	-2.1646	-2.7542	-2.4354	-2.4396	-2.8312	-2.2583	-2.7438	-2.6625	-2.1396	-3.0458	-2.2229	-2.5208	-3.0625	-2.15	-2.8896	404.423	301.831	111.685	415.372	270.677	235.486	215.305	402.568	332.022	224.166	429.560	370.325	260.590	117.493	154.026	386.482	0.00054807	0.00048487	3.1643e-05	860.23	2.6427e-06	3.6499e-06	927.15	303.07	2.6898e-06	3.3426e-06	364.83	149.43	126.01	47.883	2.7609e-06	60.11	2.6528e-05	1.4734e-05	3.4988e-06	714.43	1.7648e-07	1.4946e-07	775.7	251.23	1.8334e-07	1.5088e-07	289.95	120.76	102.07	38.823	1.5782e-07	47.575	183.278	179.603	149.384	118.058	290.174	256.549	116.090	122.535	241.313	209.449	120.991	124.201	126.901	131.574	232.089	127.860	-8191	255	
2784.756	1	1	0	0	0.18319	0.17534	0.29118	0.27105	0.15028	0.26335	0.43781	0.18594	0.19274	0.11257	0.28409	0.17221	0.15079	0.22875	0.01548	0.15493	-2.1188	-2.3937	-2.9062	-2.5333	-2.3583	-3.0542	-2.4604	-2.7625	-2.6521	-2.1562	-2.8979	-2.7417	-2.4396	-2.9208	-2.2875	-2.7125	205.612	197.075	341.222	441.077	204.109	419.665	394.319	403.994	186.425	293.787	383.474	423.981	231.422	164.767	226.541	406.332	0.00055151	0.00034072	3.9949e-05	857.13	1.8517e-06	2.6117e-06	925.32	301.78	3.6103e-06	3.4377e-06	367.31	149.51	126.31	48.039	2.8034e-06	60.492	2.5969e-05	1.4457e-05	3.7487e-06	713.39	1.714e-07	1.4553e-07	772.99	250.47	1.7557e-07	1.4575e-07	290.46	121.23	102.55	38.971	1.6451e-07	47.888	181.618	194.678	431.049	118.117	266.509	253.117	116.421	122.882	256.845	236.894	120.811	124.204	126.927	131.490	238.137	127.869	-8191	255	
2784.852	1	1	0	0	0.061464	0.15961	0.25856	0.379	0.28841	0.054093	0.097583	0.37745	0.10374	0.12845	0.2963	0.36386	0.28758	0.16408	0.11048	0.16189	-2.5812	-2.1479	-2.825	-2.4979	-2.25	-3.0125	-2.4333	-2.4896	-2.7354	-2.2854	-2.8063	-2.5979	-2.2729	-3.1625	-2.3042	-2.5646	378.484	199.890	253.031	380.308	297.341	176.407	373.620	420.150	356.831	136.807	426.511	441.928	438.246	338.379	367.323	421.237	0.00051563	0.00035903	7.2603e-05	860.78	2.0384e-06	1.6348e-06	928.82	300.19	2.4565e-06	3.2615e-06	367.33	150.21	125.8	48.609	2.8299e-06	61.099	2.4892e-05	1.3925e-05	3.6907e-06	714.16	1.6741e-07	1.4209e-07	777.04	250.5	1.6728e-07	1.5185e-07	290.95	122.09	102.26	39.317	1.6453e-07	48.358	177.516	191.320	141.099	118.015	282.429	252.827	116.500	122.976	221.053	202.872	120.953	124.597	126.756	131.451	242.395	127.685	-8191	255	
2784.972	1	1	0	0	0.16436	0.0955	0.10366	0.16187	0.3094	0.15373	0.2676	0.17774	0.12282	0.17473	0.18874	0.37502	0.17939	0.25657	0.21666	0.33967	-2.3604	-2.2833	-2.7229	-2.8125	-2.3729	-2.8542	-2.5375	-2.6583	-2.8417	-2.2313	-2.9167	-2.8708	-2.3563	-2.725	-2.6354	-2.6271	312.728	179.764	253.648	438.321	144.253	225.243	443.520	429.051	164.428	185.189	366.946	408.910	439.205	449.088	166.932	140.966	0.00055843	0.00044859	3.1405e-05	863.32	2.4502e-06	3.6654e-06	936.51	303.01	3.4748e-06	3.7758e-06	371.67	152.42	126.27	48.708	2.1254e-06	59.37	2.5543e-05	1.3876e-05	4.0107e-06	719.55	1.7282e-07	1.463e-07	780.51	252.6	1.7196e-07	1.5027e-07	293.22	122.87	103.01	39.527	1.7069e-07	46.461	181.685	205.091	461.424	118.186	277.533	243.028	116.300	123.192	233.601	230.672	120.554	124.433	126.757	131.469	222.773	121.201	-8191	255	
2785.068	1	1	0	0	0.1421	0.21875	0.096421	0.41066	0.096373	0.12686	0.20682	0.19277	0.15085	0.097425	0.34886	0.078558	0.034163	0.14437	0.29635	0.18752	-2.4521	-2.0375	-2.9042	-2.9083	-2.4396	-2.9896	-2.5771	-2.6729	-2.75	-2.325	-2.6562	-3.0271	-2.4208	-2.7896	-2.6708	-2.6792	404.956	316.573	274.138	453.341	330.773	116.019	411.990	338.783	421.497	408.970	448.422	196.633	314.186	174.721	311.453	396.903	0.00048113	0.00058342	6.9027e-05	965.33	3.1889e-06	4.3136e-06	1042.1	338.08	4.5833e-06	3.4076e-06	409.2	167.45	141.15	53.991	1.6218e-06	67.46	2.519e-05	1.5541e-05	4.8725e-06	788.6	1.7383e-07	1.624e-07	854.82	277.08	1.7712e-07	1.6953e-07	319.97	133.85	112.69	43.049	2.01e-07	52.701	172.345	174.964	153.399	116.752	258.387	235.106	115.318	121.405	257.131	204.469	118.991	122.704	125.351	129.758	236.553	126.335	-8191	255	
2785.165	1	1	0	0	0.068595	0.072456	0.17644	0.12617	0.097515	0.029193	0.21758	0.16893	0.18031	0.17029	0.16713	0.3004	0.27102	0.38653	0.10293	0.36516	-2.6417	-2.1708	-2.4958	-3.0604	-2.4375	-2.8667	-2.6042	-2.4646	-3.0729	-2.4542	-2.6167	-3.1562	-2.3667	-2.7646	-2.775	-2.3917	112.428	394.679	311.531	355.214	191.891	197.451	109.146	330.522	384.139	461.649	231.226	366.445	104.799	411.234	462.673	422.382	0.00062481	0.00048507	5.0057e-05	962.85	4.1971e-06	4.8526e-06	1034.1	335.7	5.0768e-06	4.0492e-06	409.17	168.25	140.38	53.92	4.9076e-06	67.173	2.7676e-05	1.609e-05	4.7956e-06	786.27	1.7077e-07	1.717e-07	852.71	275.79	1.771e-07	1.7538e-07	320.16	133.99	112.44	43.061	1.8708e-07	52.587	181.700	177.819	161.857	116.759	297.995	254.180	115.045	121.402	249.795	226.857	119.291	122.904	125.649	129.673	235.145	126.733	-8191	255	
2785.236	1	1	0	0	0.1735	0.22914	0.23919	0.1011	0.17583	0.098902	0.17892	0.27183	0.14301	0.10914	0.22173	0.16667	0.14747	0.17606	0.41747	0.11004	-2.375	-2.5792	-2.4188	-3.0438	-2.1375	-2.7854	-2.9021	-2.3417	-2.9854	-2.7	-2.5708	-3.0542	-2.6021	-2.8417	-2.8167	-2.4979	134.057	314.084	369.749	133.043	318.863	295.797	344.842	437.783	322.424	187.970	421.055	421.469	419.634	448.114	369.471	427.484	0.0006364	0.00062009	9.5047e-05	965.12	4.5148e-06	4.4428e-06	1038.8	339.04	3.7483e-06	3.643e-06	414.1	169.72	142.24	54.277	3.3766e-06	68.378	2.7612e-05	1.7105e-05	4.795e-06	788.73	1.7955e-07	1.784e-07	857.08	277.41	1.7548e-07	1.7757e-07	321.83	134.59	113.22	43.293	1.8326e-07	53.2	179.115	191.569	149.269	116.606	262.084	251.906	115.295	121.775	251.070	228.823	119.103	122.711	125.806	130.170	232.126	126.164	-8191	255	
2785.357	1	1	0	0	0.2817	0.11538	0.28851	0.1285	0.091552	0.1566	0.31502	0.068192	0.30061	0.078444	0.15196	0.20038	0.13142	0.26765	0.09384	0.10378	-2.5604	-2.2229	-2.3917	-3.0479	-2.3729	-2.5625	-3.2479	-2.4104	-2.8187	-2.6688	-2.3937	-3.1583	-2.4917	-2.8083	-2.9458	-2.5062	380.215	103.871	242.282	406.189	150.525	124.395	337.439	345.841	266.809	395.544	408.088	398.488	216.155	420.984	270.782	444.774	0.00061278	0.00057566	7.8142e-05	966.6	1.4051e-06	3.1993e-06	1048.1	339.02	3.6886e-06	3.9063e-06	417.05	169.96	141.97	54.455	5.724e-06	68.494	2.6418e-05	1.8179e-05	4.596e-06	790.95	1.7234e-07	1.9504e-07	861.57	278.19	1.8107e-07	1.7471e-07	323.83	135.35	113.78	43.637	1.802e-07	53.438	182.700	188.913	147.430	116.942	317.933	275.299	115.104	121.535	235.188	222.984	119.161	123.120	125.487	129.980	243.781	126.148	-8191	255	
2785.451	1	1	0	0	0.14823	0.23074	0.044956	0.16151	0.056587	0.098069	0.18246	0.28853	0.24083	0.14036	0.32779	0.2011	0.4378	0.38874	0.23595	0.088695	-2.4646	-2.5792	-2.2542	-3.1083	-2.2938	-2.3875	-2.9667	-2.2896	-2.8896	-2.5396	-2.4292	-3.2188	-2.6813	-2.5167	-2.8937	-2.4042	284.304	237.723	163.263	423.117	299.978	235.382	403.287	369.847	323.566	235.591	372.167	386.690	386.194	112.379	309.778	193.293	0.00061544	0.00035076	6.38e-05	963.69	3.4488e-06	3.633e-06	1046.8	340.1	3.9445e-06	4.3681e-06	411.49	169.46	142.86	54.777	3.4755e-06	68.062	2.8801e-05	1.7788e-05	4.629e-06	789.5	1.8802e-07	1.7698e-07	859.12	278.43	1.9593e-07	1.8053e-07	321.86	134.88	113.9	43.688	1.8794e-07	53.168	181.513	193.910	133.193	116.891	276.210	217.490	115.319	121.667	270.056	229.135	119.515	123.204	125.350	129.820	207.095	126.431	-8191	255	
2785.547	1	1	0	0	0.1618	0.15439	0.17688	0.038964	0.083979	0.12647	0.11903	0.16162	0.22139	0.01682	0.10999	0.17245	0.27237	0.099079	0.1158	0.099647	-2.4562	-2.6792	-2.1208	-3.0917	-2.725	-2.4458	-3.2021	-2.2812	-2.85	-2.9167	-2.1854	-2.9125	-2.7708	-2.625	-2.7854	-2.5062	366.590	120.650	168.081	207.983	267.397	430.300	402.590	431.354	120.273	127.039	178.474	105.158	129.365	333.218	381.727	430.790	0.00057216	0.00049441	0.00011359	966.44	2.9405e-06	1.8748e-06	1036.1	343.55	3.0565e-06	2.0339e-06	416.83	170.98	142.83	54.915	1.2457e-06	68.77	2.9292e-05	1.7001e-05	4.6271e-06	791.46	2.0341e-07	1.8987e-07	856.38	279.93	1.9391e-07	1.812e-07	324.09	136.13	114.38	43.914	1.72e-07	53.64	178.704	165.546	121.347	117.090	276.293	245.603	115.220	121.658	231.712	220.144	119.287	123.133	125.702	129.881	162.994	126.142	-8191	255	
2785.645	1	1	0	0	0.19245	0.21605	0.15383	0.25628	0.13832	0.14557	0.13662	0.065856	0.22322	0.26958	0.29925	0.2173	0.21403	0.23362	0.2717	0.17161	-2.1562	-2.85	-2.1104	-2.6646	-2.5167	-2.425	-3.0979	-2.6521	-2.5646	-2.8458	-2.2687	-3.125	-2.9	-2.3854	-2.9062	-2.7146	416.197	260.871	424.213	129.882	117.947	405.581	432.903	372.842	457.459	202.279	130.609	356.721	452.848	355.385	363.045	343.357	0.00065061	0.00044875	0.00011699	970.25	4.2487e-06	3.0844e-06	1049.8	341.04	3.0557e-06	4.0303e-06	418.76	172.56	143.8	55.535	1.8379e-06	68.86	3.1699e-05	1.6219e-05	4.5531e-06	792.95	2.0663e-07	1.818e-07	862.29	279.84	2.0334e-07	1.7616e-07	326.36	137.4	115.12	44.166	1.7942e-07	53.954	181.255	198.133	144.364	117.075	261.267	267.637	115.100	121.494	242.047	245.016	119.015	123.289	125.403	129.943	267.912	126.226	-8191	255	
2785.764	1	1	0	0	0.36751	0.22732	0.1032	0.23451	0.062732	0.11057	0.052066	0.076664	0.16114	0.11394	0.1517	0.26872	0.083022	0.2573	0.13649	0.19904	-2.0021	-2.8021	-2.0521	-2.8792	-2.825	-2.1813	-3.025	-2.6042	-2.4354	-2.9896	-2.3146	-2.8854	-2.8354	-2.0875	-2.875	-2.7188	369.533	447.717	172.905	140.741	134.351	277.113	319.538	394.670	128.691	384.880	396.984	382.572	439.006	459.386	162.649	458.970	0.0006062	0.00055764	0.00010445	975.77	2.8148e-06	2.4621e-06	1052.9	345.34	4.6104e-06	3.8809e-06	421.04	173.73	145	55.788	4.3688e-06	69.782	3.0721e-05	1.6425e-05	4.3551e-06	796.17	2.0752e-07	1.8318e-07	866.29	282.53	2.049e-07	1.6927e-07	328.74	138.45	115.78	44.486	1.8733e-07	54.484	182.565	173.285	157.925	116.915	306.002	241.246	115.237	121.824	232.645	182.338	119.066	123.255	126.003	130.103	265.477	126.366	-8191	255	
2785.860	1	1	0	0	0.071008	0.21027	0.027287	0.07183	0.13209	0.084421	0.17633	0.37845	0.21906	0.21532	0.15186	0.13662	0.044949	0.079128	0.1366	0.26595	-2.1271	-2.8563	-2.1354	-2.7021	-2.9958	-2.2521	-2.7938	-2.7458	-2.5042	-3.15	-2.4021	-2.8146	-3.0083	-2.4167	-2.7917	-2.8563	314.963	321.756	341.522	459.503	317.887	364.196	416.563	429.744	163.981	244.171	460.720	184.653	129.433	457.584	224.408	386.865	0.00061984	0.00021523	3.0569e-05	971.49	3.2966e-06	4.2791e-06	1046.7	344.27	4.1735e-06	4.3284e-06	418.51	172.89	144.08	55.49	2.5586e-06	69.329	3.0282e-05	1.6796e-05	4.3064e-06	793.29	2.0489e-07	1.8992e-07	860.37	281.45	1.8896e-07	1.6616e-07	326.36	137.55	115.5	44.524	1.8573e-07	54.046	181.130	214.653	140.559	116.751	289.190	266.526	115.027	121.732	249.389	206.833	119.361	123.201	125.957	129.935	231.566	126.347	-8191	255	
2785.932	1	1	0	0	0.22115	0.073842	0.11984	0.1915	0.33983	0.11574	0.1997	0.092169	0.10488	0.095707	0.15584	0.21178	0.14202	0.21038	0.11735	0.1451	-1.85	-3.0229	-2.4313	-2.6083	-2.975	-2.3396	-2.8625	-2.7208	-2.3688	-2.9979	-2.5083	-2.6	-2.9271	-2.3354	-2.7875	-2.9771	273.336	137.174	393.853	408.549	461.920	411.685	457.471	393.373	196.132	136.766	384.731	125.928	440.476	452.918	123.003	321.936	0.00064245	0.00066016	7.4612e-05	969.52	3.2125e-06	2.7312e-06	1051.3	346.08	3.5515e-06	4.4372e-06	418.81	174.38	145.8	56.083	2.7094e-06	69.611	2.955e-05	1.5676e-05	4.919e-06	794.01	1.9312e-07	1.7227e-07	864.28	283.15	1.9915e-07	1.7444e-07	327.32	138.93	116.36	44.921	2.0645e-07	54.499	178.332	191.983	128.896	116.588	290.047	252.103	115.085	121.854	234.801	211.056	119.219	122.973	125.509	130.123	243.896	126.082	-8191	255	
2786.053	1	1	0	0	0.26979	0.26935	0.10559	0.2061	0.18701	0.20937	0.25753	0.27417	0.088161	0.18072	0.10542	0.032209	0.12933	0.20472	0.25145	0.31265	-1.7354	-2.8604	-2.4167	-2.6813	-3.1208	-2.2896	-2.7146	-3.1312	-2.2687	-3.0354	-2.5979	-2.7708	-3.0687	-2.1292	-2.6542	-3.0229	360.177	414.724	359.205	287.475	389.409	461.837	380.042	405.520	312.923	445.798	192.128	311.928	377.707	427.685	346.098	417.826	0.00057387	0.00044992	0.00010128	977.67	3.7264e-06	4.0356e-06	1056.3	347.44	2.9368e-06	3.1976e-06	424.98	176.62	146.47	56.928	3.4816e-06	70.372	3.044e-05	1.6259e-05	4.8642e-06	799.43	1.9464e-07	1.8002e-07	871.64	284.88	2.0266e-07	1.6838e-07	330.08	140.2	117.21	45.352	2.1728e-07	55.138	178.947	192.335	152.041	116.699	274.465	244.014	115.319	121.652	240.430	245.856	119.342	122.944	125.352	129.924	224.105	126.042	-8191	255	
2786.149	1	1	0	0	0.3306	0.046608	0.030797	0.12563	0.15377	0.043721	0.25292	0.14844	0.28618	0.32517	0.12044	0.18831	0.19632	0.28993	0.067509	0.15704	-1.7646	-2.8937	-2.7083	-2.4458	-3.0354	-2.6063	-2.7146	-2.7792	-2.3854	-2.8187	-2.5958	-2.375	-3.0125	-2.3937	-2.5104	-3.0917	218.046	229.391	449.046	327.711	266.947	322.193	313.459	324.686	377.153	305.135	401.699	377.819	185.989	421.058	347.219	362.402	0.00060671	0.00058377	6.2278e-05	974.55	1.9995e-06	6.284e-06	1062.6	348.95	4.2298e-06	3.9733e-06	426.1	177.05	147.32	57.274	4.9674e-06	70.578	2.9999e-05	1.6713e-05	5.0071e-06	798.37	1.8603e-07	1.8979e-07	872.96	286.35	2.0271e-07	1.8469e-07	331.42	141.04	117.88	45.673	2.2343e-07	55.103	177.818	187.649	149.144	117.003	267.440	245.973	115.280	121.306	244.370	252.062	119.127	123.023	125.719	130.008	217.525	126.161	-8191	255	
2786.245	1	1	0	0	0.082397	0.1011	0.10178	0.11326	0.022169	0.25104	0.26604	0.19768	0.15439	0.049657	0.16146	0.085415	0.22356	0.30553	0.27199	0.060538	-1.6688	-2.5333	-2.6604	-2.3146	-2.9354	-2.6292	-2.8187	-3.025	-2.2771	-2.9146	-2.9146	-2.2542	-2.95	-2.6583	-2.2625	-3.0708	133.090	228.214	273.294	233.409	267.631	392.682	449.629	422.281	390.097	286.117	148.141	135.979	373.744	423.392	461.483	389.394	0.00056765	0.00057113	7.1931e-05	975.99	3.3495e-06	3.4215e-06	1053	348.01	3.6613e-06	3.1094e-06	421.61	176.25	147.01	56.128	2.8991e-06	69.716	3.0241e-05	1.8675e-05	5.0529e-06	799.6	1.7836e-07	2.0132e-07	869.68	285.3	1.9491e-07	1.8686e-07	330.04	139.79	117.51	45.093	2.0962e-07	54.489	178.619	160.332	133.047	116.640	305.005	254.680	115.380	121.497	249.567	232.616	118.973	122.805	125.098	129.846	209.087	126.378	-8191	255	
2786.366	1	1	0	0	0.051809	0.12691	0.23233	0.041299	0.22586	0.28698	0.3703	0.10919	0.15039	0.24481	0.24881	0.18423	0.21388	0.11335	0.22259	0.22052	-1.8479	-2.6667	-2.9583	-2.3667	-2.95	-2.5354	-2.5729	-3.1562	-2.3063	-2.6312	-2.9354	-2.4167	-3.1562	-2.6333	-2.4083	-3.1479	207.293	334.541	308.133	427.128	316.416	125.734	399.923	337.187	458.680	374.364	448.098	388.923	446.318	155.819	458.350	443.724	0.00066786	0.00069535	0.00010126	973.38	3.9202e-06	3.5776e-06	1057.4	346.91	3.1596e-06	4.8803e-06	424.77	175.19	145.29	56.259	2.9723e-06	69.869	3.0053e-05	1.8289e-05	4.9641e-06	796.06	1.9021e-07	2.0317e-07	866.28	283.96	1.9486e-07	1.9964e-07	329.71	139.19	116.51	44.96	2.0077e-07	54.478	181.772	222.881	144.881	116.860	299.780	247.537	115.281	121.645	236.619	229.930	119.084	122.947	125.520	129.787	246.719	126.360	-8191	255	
2786.460	1	1	0	0	0.28407	0.21536	0.037232	0.20906	0.050944	0.12348	0.31956	0.15413	0.15617	0.25108	0.21961	0.12445	0.38659	0.092932	0.039443	0.1538	-2.0271	-2.5687	-2.8875	-2.1729	-2.9125	-2.7	-2.6188	-3.1021	-2.3646	-2.5729	-2.8646	-2.4833	-2.9375	-2.7896	-2.3208	-3.1771	200.309	235.583	220.225	111.535	147.869	460.156	373.278	141.053	360.176	161.986	399.523	242.756	454.382	297.256	244.950	380.427	0.00068225	0.00051644	0.0001161	966.25	3.2351e-06	3.4089e-06	1056.9	346.23	3.4366e-06	3.5689e-06	422.51	175.39	146.29	56.755	4.42e-06	69.675	3.0454e-05	1.833e-05	4.7521e-06	794.01	1.979e-07	2.0564e-07	868.6	283.48	2.0915e-07	1.9827e-07	329.34	139.57	117.05	45.2	1.9898e-07	54.582	177.911	198.594	149.176	117.118	267.692	245.177	115.062	121.467	279.528	233.084	119.248	122.609	125.415	129.467	231.612	126.365	-8191	255	
2786.533	1	1	0	0	0.19706	0.13902	0.15212	0.11134	0.23829	0.091684	0.10327	0.11915	0.017242	0.2454	0.11232	0.18379	0.54796	0.081285	0.11771	0.22731	-1.8542	-2.5292	-2.9646	-2.2792	-2.6937	-2.6792	-2.4833	-2.9729	-2.2979	-2.4875	-3.0125	-2.4896	-2.6646	-2.8333	-2.1875	-3.0042	433.859	201.374	103.907	232.046	254.250	120.098	438.809	192.292	214.861	203.198	325.287	128.878	115.404	398.376	304.836	436.045	0.00062898	0.00059032	7.7054e-05	977.86	2.3038e-06	4.162e-06	1059	347.22	4.6131e-06	3.7383e-06	423.05	175.16	145.58	56.24	3.0748e-06	69.935	3.0857e-05	1.8296e-05	4.654e-06	797.17	2.0186e-07	1.8942e-07	870.11	284.18	2.1472e-07	1.9171e-07	330.8	139.53	116.74	44.952	1.9387e-07	54.664	177.508	171.569	132.936	117.046	287.737	220.801	115.067	121.789	239.215	212.816	119.567	123.077	125.626	129.896	214.428	126.159	-8191	255	
2786.652	1	1	0	0	0.1269	0.22197	0.051017	0.2356	0.14008	0.17292	0.017951	0.20856	0.38913	0.17107	0.12373	0.11058	0.16444	0.07294	0.10306	0.26586	-2.1021	-2.2188	-3.0563	-2.4771	-2.8354	-2.8604	-2.5208	-3.325	-2.5792	-2.2708	-3.1771	-2.4896	-2.7542	-2.9896	-2.2167	-2.9875	232.186	451.241	290.948	433.065	187.794	117.420	112.130	453.962	107.298	154.480	147.319	316.013	400.519	372.753	454.290	364.054	0.00063808	0.00062848	8.4114e-05	964.83	3.5145e-06	4.0121e-06	1053.5	343.9	3.6239e-06	3.3652e-06	418.43	173.5	144.63	55.418	4.441e-06	69.108	3.1361e-05	1.7781e-05	4.4849e-06	790.19	2.0625e-07	1.8797e-07	864.47	282.05	2.1046e-07	1.8813e-07	326.41	138.23	115.81	44.285	1.9205e-07	53.957	180.786	183.329	127.826	116.954	289.535	246.926	115.253	121.830	252.107	257.038	119.194	123.103	125.336	129.844	213.479	126.107	-8191	255	
2786.748	1	1	0	0	0.1891	0.22496	0.081863	0.041249	0.069373	0.090353	0.054094	0.0407	0.076167	0.13106	0.12273	0.10804	0.37007	0.086378	0.14596	0.37721	-2.2646	-2.1104	-2.9708	-2.5563	-2.6354	-2.85	-2.5021	-2.9958	-2.6937	-2.2542	-3.1458	-2.5958	-2.3458	-2.9313	-2.3646	-2.9062	447.459	217.845	329.254	453.615	260.844	158.495	418.453	161.242	322.274	194.716	320.255	161.486	396.781	242.077	174.709	409.313	0.00061973	0.00040204	7.8468e-05	970.24	2.6649e-06	5.5405e-06	1053.6	343.26	2.9091e-06	4.3245e-06	420.8	173.08	144.09	55.419	3.9773e-06	68.536	3.1039e-05	1.66e-05	4.3641e-06	793.17	2.0523e-07	1.7911e-07	862.58	281.52	2.1181e-07	1.8431e-07	326.25	137.92	115.29	44.158	1.7948e-07	53.774	181.956	180.597	143.253	116.485	271.067	259.825	115.436	121.201	249.507	225.362	119.076	123.197	125.395	129.705	254.154	126.753	-8191	255	
2786.845	1	1	0	0	0.25566	0.24891	0.12787	0.065924	0.15163	0.19841	0.19692	0.11531	0.11534	0.16579	0.19284	0.11856	0.29361	0.29044	0.24082	0.15293	-2.1896	-2.2125	-2.7729	-2.7479	-2.5062	-3.0125	-2.4229	-2.8833	-3.1292	-2.3979	-2.9604	-2.6021	-2.4229	-3.0146	-2.3	-2.7417	385.507	314.151	171.411	448.908	391.991	297.895	169.238	353.656	392.972	225.621	142.588	152.277	398.088	412.911	307.991	379.948	0.00067727	0.00029133	6.3992e-05	971.94	2.5661e-06	4.2948e-06	1048.7	344.06	2.5348e-06	4.8119e-06	422.48	172.71	145.3	55.453	2.5747e-06	69.261	3.0674e-05	1.686e-05	4.0863e-06	793.83	2.0046e-07	1.7142e-07	862.61	281.36	2.0196e-07	1.7726e-07	328.51	137.87	115.5	44.181	1.8502e-07	54.094	182.425	180.932	161.780	116.760	267.782	244.451	115.222	121.580	234.572	244.106	118.832	123.108	125.149	130.215	245.198	126.441	-8191	255	
2786.941	1	1	0	0	0.054856	0.18476	0.23712	0.15866	0.13842	0.13436	0.25993	0.075349	0.15027	0.17225	0.34807	0.11172	0.035503	0.15704	0.11259	0.30018	-2.2729	-2.2396	-3.05	-2.7875	-2.4437	-3.0542	-2.7125	-2.8042	-3.0438	-2.3167	-3.0542	-2.7729	-2.3271	-3.1604	-2.7938	-2.6458	336.727	284.788	304.779	114.357	344.392	218.194	428.514	407.421	128.690	278.776	458.136	136.606	435.458	462.330	415.287	108.083	0.00060484	0.000258	9.2122e-05	969.53	4.0034e-06	3.937e-06	1053.3	343.45	3.3813e-06	3.8792e-06	420.13	174.87	144.22	55.694	5.6527e-06	68.933	2.9652e-05	1.6271e-05	4.3285e-06	792.35	1.9323e-07	1.6658e-07	863.96	280.78	1.9519e-07	1.7547e-07	327.57	138.52	115.48	44.275	2.0056e-07	54.103	182.131	209.456	149.548	116.983	267.223	234.910	115.224	121.820	250.852	212.089	119.230	123.190	125.453	129.624	233.089	126.315	-8191	255	
2787.061	1	1	0	0	0.20481	0.11677	0.10882	0.14869	0.057089	0.076002	0.27412	0.24232	0.15391	0.14858	0.30835	0.049743	0.31656	0.16362	0.32414	0.13261	-2.4625	-2.1375	-2.8063	-2.7438	-2.1896	-2.9479	-2.7583	-2.4979	-3.0583	-2.0792	-2.7188	-2.9813	-2.1	-3.075	-2.6667	-2.4667	187.695	162.650	358.325	430.468	144.723	251.104	409.899	423.579	196.371	454.672	429.363	133.855	434.008	431.831	253.814	298.832	0.00062488	0.00038321	9.0266e-05	969	2.8437e-06	3.6181e-06	1054.7	342.84	2.2889e-06	3.6406e-06	419.76	172.8	144.62	55.102	4.3485e-06	68.731	2.9561e-05	1.5918e-05	4.6627e-06	792.6	1.8397e-07	1.7478e-07	864.93	281.06	1.9689e-07	1.6912e-07	327.03	137.51	115.29	44.072	2.0733e-07	53.652	181.674	168.280	151.761	116.621	265.305	262.360	115.402	121.402	226.148	214.153	119.511	123.276	125.601	130.204	233.899	126.717	-8191	255	
2787.158	1	1	0	0	0.16042	0.23145	0.046504	0.14279	0.06988	0.13789	0.13451	0.31512	0.1456	0.1436	0.19928	0.11692	0.28928	0.42573	0.076929	0.25149	-2.3542	-2.3125	-2.7667	-2.8896	-2.2479	-2.8958	-2.6292	-2.3583	-2.9271	-2.5125	-2.725	-3.2521	-2.4229	-2.8896	-2.7146	-2.4417	118.392	223.861	402.251	434.513	261.134	182.577	409.150	457.289	397.295	123.903	397.348	422.851	131.905	420.378	295.183	381.388	0.00065322	0.00064222	0.00010325	962.86	4.658e-06	3.8183e-06	1048.8	342.79	3.7835e-06	3.3612e-06	419.8	173.87	144.64	55.895	5.1807e-06	69.257	2.8208e-05	1.6241e-05	5.1218e-06	790.55	1.901e-07	1.6667e-07	861.02	281.59	1.8392e-07	1.8731e-07	326.26	137.85	115.68	44.444	2.0835e-07	54.05	181.650	179.655	150.852	116.906	270.658	232.529	114.888	121.680	224.475	223.135	119.302	122.807	125.553	129.893	240.311	126.763	-8191	255	
2787.229	1	1	0	0	0.067691	0.093812	0.1072	0.28674	0.26089	0.38141	0.18637	0.27817	0.074622	0.20005	0.18303	0.17732	0.18607	0.13733	0.20146	0.21179	-2.5896	-2.5042	-2.4479	-2.9396	-2.3146	-2.9396	-2.7417	-2.35	-3.0521	-2.4333	-2.6271	-2.9458	-2.4083	-2.9083	-2.8937	-2.2271	385.256	194.724	381.019	454.613	183.340	228.351	401.399	325.229	339.148	199.880	137.902	431.881	419.416	330.520	135.395	137.194	0.00059886	0.00065258	9.1793e-05	971.64	2.281e-06	4.7095e-06	1048	344.66	2.9058e-06	4.1577e-06	422.37	174.44	145.37	56.455	4.1294e-06	69.779	2.8048e-05	1.7255e-05	5.3044e-06	792.46	1.8131e-07	1.8787e-07	864.73	282.35	1.8908e-07	1.9275e-07	329.98	139.12	116.52	44.828	2.1188e-07	54.364	178.849	161.396	158.620	116.746	268.651	221.714	115.164	121.994	238.806	223.048	119.008	122.810	125.412	130.057	238.410	126.305	-8191	255	
2787.325	1	1	0	0	0.3189	0.19042	0.19679	0.16389	0.26434	0.11818	0.20991	0.1999	0.23672	0.1387	0.20204	0.072075	0.18467	0.039686	0.15573	0.059632	-2.55	-2.5146	-2.2687	-2.8479	-2.2958	-2.8583	-2.9792	-2.3479	-2.8542	-2.8021	-2.5375	-3.0438	-2.5854	-2.7125	-2.9417	-2.375	190.022	227.105	392.839	365.838	261.702	155.812	436.748	116.082	249.210	168.092	343.668	399.677	207.970	439.892	405.480	186.041	0.0006386	0.00050881	8.5116e-05	976.22	2.3374e-06	2.5693e-06	1051.9	345.61	4.7552e-06	3.786e-06	424.76	176.43	146.36	56.089	7.0848e-06	70.217	2.8326e-05	1.812e-05	4.8716e-06	796.38	1.8813e-07	1.9574e-07	868.29	283.65	1.9164e-07	1.8914e-07	330.98	140.1	117.08	44.891	2.0298e-07	54.749	180.221	183.326	130.725	116.847	266.500	275.285	115.369	121.587	254.164	236.259	119.272	123.149	125.236	129.866	225.309	126.185	-8191	255	
2787.444	1	1	0	0	0.17754	0.086275	0.19803	0.2277	0.11871	0.074237	0.27262	0.23145	0.1349	0.18786	0.33948	0.13511	0.32844	0.25529	0.28768	0.11329	-2.5042	-2.7771	-2.3187	-3.0938	-2.3771	-2.5521	-3.0146	-2.3167	-2.8604	-2.7313	-2.45	-3.0458	-2.5229	-2.7188	-2.7833	-2.3354	191.731	127.135	403.397	368.907	106.252	284.857	400.000	379.447	154.954	154.963	402.333	346.209	408.881	447.020	389.195	121.394	0.00065109	0.00036759	8.9594e-05	970.31	4.5592e-06	4.4165e-06	1059.6	347.86	4.4429e-06	3.6357e-06	423.38	174.6	146.12	56.147	3.6338e-06	68.998	3.0652e-05	1.8614e-05	4.787e-06	794.47	1.9128e-07	2.0342e-07	869.28	284.48	1.901e-07	1.9644e-07	329.64	139.37	117.01	44.823	1.9026e-07	54.174	182.176	164.104	152.801	116.905	281.212	226.484	115.213	121.771	256.503	208.777	119.132	123.144	125.598	129.708	224.262	126.284	-8191	255	
2787.540	1	1	0	0	0.034582	0.23339	0.24631	0.27785	0.10712	0.17922	0.31478	0.33481	0.12474	0.10486	0.17977	0.41889	0.14357	0.042892	0.16253	0.05569	-2.5396	-2.6771	-2.3417	-3.1271	-2.2938	-2.4104	-3.1125	-2.3396	-2.7375	-2.6958	-2.3125	-3.0833	-2.3542	-2.4313	-2.9437	-2.5583	331.894	380.789	302.948	389.507	236.894	387.556	388.455	380.061	214.699	167.982	300.592	392.184	110.689	408.094	371.764	388.445	0.00063673	0.00033239	5.7606e-05	971.31	2.7317e-06	2.2272e-06	1052.2	347.76	3.7959e-06	4.0114e-06	422.3	175.14	146.79	56.057	2.2314e-06	69.698	2.9359e-05	1.8344e-05	4.6886e-06	793.46	1.9889e-07	1.9691e-07	863.48	284.47	2.1648e-07	1.913e-07	328.88	139.65	117.46	44.952	2.0176e-07	54.468	179.699	184.666	440.645	116.833	302.935	252.733	115.260	121.548	258.439	222.377	118.973	122.829	125.584	129.906	223.634	126.277	-8191	255	
2787.637	1	1	0	0	0.045367	0.19947	0.065701	0.29139	0.094664	0.11272	0.31142	0.22239	0.084776	0.25015	0.11637	0.23115	0.45398	0.24478	0.31426	0.10069	-2.1458	-2.7583	-2.3187	-3.0187	-2.7958	-2.2854	-3.2396	-2.5042	-2.5833	-2.8688	-2.3521	-3.0167	-2.7167	-2.6542	-2.9729	-2.3542	449.816	461.886	198.000	414.128	411.649	313.889	421.013	400.130	272.437	213.460	134.653	140.106	402.607	441.066	114.304	367.524	0.00064653	0.00070204	8.0171e-05	978.81	2.4852e-06	4.9546e-06	1058	351.6	4.3138e-06	4.0429e-06	427.17	178.13	147.55	57.392	2.4542e-06	70.869	3.2686e-05	1.8607e-05	4.8885e-06	797.57	2.138e-07	2.0215e-07	869.91	287.51	2.2483e-07	1.9464e-07	332.52	141.29	118.33	45.734	1.9805e-07	55.309	181.327	162.648	160.554	116.744	281.222	233.225	115.206	121.737	236.423	236.591	119.297	123.027	125.451	129.896	215.141	126.170	-8191	255	
2787.733	1	1	0	0	0.14314	0.12262	0.031703	0.28751	0.17896	0.13406	0.06099	0.35769	0.054438	0.10058	0.26366	0.29869	0.11098	0.11658	0.3906	0.11177	-2.1437	-2.8125	-2.1208	-2.7979	-2.6937	-2.2396	-3.175	-2.2875	-2.3896	-3.075	-2.3375	-2.7687	-2.8979	-2.3833	-3.0729	-2.8729	376.140	454.395	429.612	430.247	427.797	210.061	121.838	394.015	330.547	381.190	456.043	429.315	443.412	149.701	170.181	408.974	0.00063881	0.00037365	4.6569e-05	980.61	2.4649e-06	4.0752e-06	1064.7	355.04	4.2854e-06	3.1459e-06	430.3	178.71	149.57	57.658	4.8723e-06	71.292	3.224e-05	1.7997e-05	5.0843e-06	802.59	2.192e-07	1.9641e-07	875.5	290.11	2.3014e-07	1.9744e-07	335.91	142.82	119.86	46.175	1.9668e-07	55.879	179.478	160.794	136.910	116.986	288.621	287.972	115.218	121.343	246.717	230.039	119.307	123.073	125.137	129.831	228.237	126.311	-8191	255	
2787.829	1	1	0	0	0.16872	0.14583	0.20976	0.41581	0.23911	0.013478	0.14555	0.42927	0.13438	0.14382	0.12573	0.27568	0.10724	0.19145	0.14303	0.077595	-2.0521	-3.1208	-2.2833	-2.7292	-3.2333	-2.2333	-3.125	-2.8104	-2.4	-3.1708	-2.5979	-2.875	-2.9021	-2.4167	-2.825	-2.7687	210.930	405.321	300.570	386.685	275.961	151.126	166.687	420.045	252.634	352.249	349.300	393.418	421.798	454.510	147.314	450.937	0.00063915	0.00066842	9.1757e-05	985.56	4.4009e-06	3.4513e-06	1064.2	353.89	4.3079e-06	3.8908e-06	429.7	180.77	149.85	58.227	4.5286e-06	71.547	3.1675e-05	1.7879e-05	4.7322e-06	804.31	2.1233e-07	1.9968e-07	876.18	291.49	2.2289e-07	1.9462e-07	336.73	143.47	120.2	46.394	2.0953e-07	55.998	181.190	179.147	138.552	116.817	296.777	254.114	115.121	121.567	265.994	256.337	119.233	122.699	125.194	129.617	207.580	126.093	-8191	255	
2787.925	1	1	0	0	0.077779	0.1682	0.079783	0.12401	0.16623	0.1583	0.015532	0.21175	0.039846	0.029068	0.18872	0.081896	0.18977	0.21134	0.23559	0.21058	-2.0646	-3.0812	-2.4375	-2.7271	-2.8208	-2.1937	-3.025	-2.8708	-2.3	-2.9542	-2.5812	-2.7333	-3.0458	-2.3167	-2.9188	-2.8333	219.132	252.723	351.626	429.112	118.867	197.846	150.142	456.814	271.499	265.385	444.696	450.789	404.963	463.283	447.991	375.740	0.00061288	0.00039847	0.00012098	985	1.7781e-06	2.9999e-06	1074.8	360.12	3.9242e-06	3.4902e-06	436.47	181.55	151.17	58.851	4.8747e-06	72.275	3.3063e-05	1.7806e-05	5.1403e-06	807.49	2.1282e-07	2.0227e-07	880.16	295.84	2.2437e-07	1.94e-07	339.87	144.66	121.29	46.918	2.1421e-07	56.636	175.441	170.555	149.191	116.791	302.070	236.099	114.938	121.429	243.520	225.501	119.021	122.939	125.538	129.651	229.843	126.428	-8191	255	
2788.046	1	1	0	0	0.18027	0.027179	0.069437	0.12875	0.047531	0.12092	0.11837	0.18711	0.16194	0.19752	0.36301	0.16167	0.19267	0.32801	0.16653	0.27412	-1.7417	-2.8812	-2.4271	-2.6604	-2.9521	-2.5875	-2.8917	-2.9333	-2.475	-3.0333	-2.5333	-2.6104	-3.1208	-2.3542	-2.775	-3.0521	441.831	421.189	282.030	146.480	444.088	162.160	116.923	449.920	369.582	440.587	455.980	352.281	390.110	380.147	223.436	390.346	0.0006487	0.00025973	9.2068e-05	992.02	4.3789e-06	3.3649e-07	1070.2	361.06	4.3122e-06	5.1228e-06	434.98	182.82	153.44	59.58	2.6378e-06	73.429	3.2533e-05	1.9178e-05	5.471e-06	812.36	2.1452e-07	2.0011e-07	881.5	296.53	2.4441e-07	2.007e-07	341.45	145.95	122.8	47.47	2.4389e-07	57.452	181.833	160.762	155.541	117.113	290.753	429.075	115.231	121.573	247.862	222.172	119.441	122.747	125.358	129.504	234.435	125.801	-8191	255	
2788.142	1	1	0	0	0.10738	0.17465	0.038274	0.11369	0.04956	0.12632	0.40821	0.29572	0.035755	0.095423	0.17708	0.28175	0.44331	0.23105	0.15079	0.35292	-1.7375	-2.9792	-2.4896	-2.5958	-2.8104	-2.4729	-2.8854	-2.9521	-2.4979	-3.0438	-2.5646	-2.4542	-2.9604	-2.4542	-2.5917	-2.9604	302.147	372.353	262.135	116.112	337.303	235.578	362.378	401.441	422.508	446.647	425.542	124.971	108.873	417.051	150.150	376.822	0.0006859	0.00048468	9.0904e-05	998.71	3.4122e-06	2.9657e-06	1076.4	365.49	5.065e-06	6.3459e-06	445.71	185.43	154.8	59.85	4.0128e-06	74.011	3.3468e-05	1.8845e-05	5.4976e-06	815.58	2.2376e-07	2.0526e-07	889.54	300.01	2.3234e-07	2.0256e-07	346.9	148.3	123.97	47.833	2.4883e-07	57.799	180.407	169.646	133.583	117.103	290.591	241.081	115.151	121.711	269.216	219.748	118.928	122.761	125.254	129.909	229.156	126.074	-8191	255	
2788.238	1	1	0	0	0.14871	0.051594	0.17253	0.17934	0.29592	0.076552	0.081247	0.37159	0.31023	0.25674	0.16952	0.3779	0.081271	0.13956	0.14007	0.051192	-1.8771	-2.8917	-2.6521	-2.4979	-2.9667	-2.5771	-2.7542	-2.9313	-2.2083	-2.9771	-2.8187	-2.5333	-3.2583	-2.5292	-2.4604	-3.1146	242.683	362.325	259.286	408.864	284.115	336.142	417.345	412.521	121.763	383.346	459.263	446.548	176.600	421.801	313.526	288.575	0.00071267	0.00057164	7.1748e-05	998.43	2.319e-06	4.9855e-06	1076.1	365.32	4.6496e-06	3.9628e-06	440.49	183.67	153.22	59.159	5.2296e-06	73.295	3.3187e-05	1.9082e-05	5.9522e-06	814.87	2.2065e-07	2.1553e-07	887.08	298.25	2.3011e-07	2.1647e-07	344.01	146.52	122.82	47.367	2.5092e-07	57.122	178.468	182.228	111.121	116.840	299.168	275.617	115.457	121.259	247.019	221.287	119.230	122.904	125.339	129.863	245.427	126.147	-8191	255	
2788.334	1	1	0	0	0.18001	0.23285	0.29388	0.22566	0.12721	0.2079	0.047846	0.096363	0.13002	0.16751	0.11834	0.26928	0.21137	0.26703	0.26422	0.1613	-1.8563	-2.9479	-2.65	-2.3354	-3.0417	-2.4542	-2.6667	-3.1854	-2.4458	-2.9667	-2.9	-2.3646	-3.2167	-2.5896	-2.5208	-3.275	452.897	328.998	319.684	369.529	369.270	418.069	306.688	430.070	381.773	404.827	116.135	411.249	450.065	456.524	318.775	404.445	0.00070446	0.00040744	0.00010199	985.02	3.5058e-06	3.7427e-06	1071.2	362.62	4.3634e-06	4.928e-06	434.31	182.94	152.42	58.887	6.3403e-06	72.756	3.3735e-05	2.006e-05	5.7084e-06	809.2	2.0643e-07	2.2499e-07	882.26	296.55	2.1474e-07	2.2765e-07	340.67	146.03	122.19	47.192	2.38e-07	56.89	179.311	190.146	161.047	116.929	264.777	264.711	115.305	121.743	229.152	259.115	119.469	122.961	125.582	129.797	214.683	126.115	-8191	255	
2788.430	1	1	0	0	0.24254	0.1964	0.043846	0.19777	0.2305	0.17601	0.13202	0.27595	0.067527	0.34033	0.095295	0.067276	0.24149	0.27555	0.27143	0.26082	-2.1063	-2.6292	-3.1042	-2.4833	-2.9062	-2.7729	-2.2812	-3.3083	-2.3896	-2.65	-3.0875	-2.2542	-2.9917	-2.8187	-2.3333	-3.2646	448.435	142.105	166.166	334.383	385.700	359.453	169.208	425.596	399.995	254.971	165.340	404.664	116.819	459.821	402.683	448.957	0.0006437	0.00052858	6.0459e-05	991.29	1.9184e-06	3.2126e-06	1079.6	361.97	4.5537e-06	5.2837e-06	437.94	185.27	154.3	59.914	4.3436e-06	73.448	3.2772e-05	2.0875e-05	5.6167e-06	809.7	2.2052e-07	2.3371e-07	885.13	296.26	2.3347e-07	2.3668e-07	343.25	147.22	123.08	47.747	2.3402e-07	57.552	180.738	148.641	143.271	117.065	306.423	233.380	115.185	121.485	251.231	205.553	119.284	123.086	125.512	129.708	252.375	126.008	-8191	255	
2788.525	1	1	0	0	0.22198	0.10748	0.24321	0.25366	0.07872	0.1316	0.18429	0.064073	0.17911	0.14892	0.32893	0.21252	0.28488	0.29709	0.18919	0.21633	-1.9542	-2.6729	-2.9083	-2.3583	-2.9021	-2.6771	-2.4896	-3.1813	-2.4792	-2.6792	-3.0687	-2.3771	-2.7542	-3.1167	-2.2292	-3.15	333.155	395.208	186.991	364.599	399.240	348.395	380.429	451.348	413.036	448.116	409.664	390.940	416.081	109.669	388.984	462.772	0.00064417	0.00035265	9.3296e-05	997.3	2.7712e-06	1.9354e-06	1079.4	363.62	2.3576e-06	4.4638e-06	442.26	185.41	154.77	60.127	6.2619e-06	74.19	3.4469e-05	2.0845e-05	5.5418e-06	814.19	2.3146e-07	2.3902e-07	890.69	298.42	2.3146e-07	2.3156e-07	344.7	147.63	123.59	47.792	2.2581e-07	57.929	175.015	173.316	132.011	116.755	259.209	249.769	115.193	121.509	282.234	212.767	118.888	122.869	125.141	129.754	245.250	126.263	-8191	255	
2788.621	1	1	0	0	0.1387	0.10192	0.042334	0.093537	0.17859	0.20009	0.10541	0.16574	0.0035718	0.26219	0.16619	0.21333	0.15783	0.22959	0.17951	0.39875	-2.2708	-2.5854	-2.9958	-2.4229	-2.7875	-2.8792	-2.4938	-2.9542	-2.6937	-2.5125	-2.9667	-2.4604	-2.8479	-2.8104	-2.425	-3.1833	453.098	301.127	217.256	440.543	424.584	241.653	342.602	416.463	329.678	262.120	420.538	457.066	213.313	112.445	292.267	370.453	0.00066069	0.00081476	0.00013018	998.95	4.6847e-06	3.2079e-06	1081.1	365.05	3.5941e-06	3.8947e-06	442.99	186.83	154.4	59.598	4.0199e-06	73.529	3.4946e-05	2.1502e-05	5.2614e-06	815.5	2.3687e-07	2.1874e-07	890.54	298.89	2.5107e-07	2.2026e-07	344.62	148.01	123.45	47.657	2.207e-07	57.493	185.664	183.655	126.959	116.973	298.169	270.730	115.164	121.458	242.284	243.733	118.940	122.670	125.466	129.846	206.349	125.973	-8191	255	
2788.741	1	1	0	0	0.27692	0.24141	0.19401	0.29045	0.098211	0.22676	0.1209	0.21065	0.066169	0.038318	0.15757	0.37184	0.3101	0.12636	0.33401	0.13789	-2.3958	-2.2396	-2.9229	-2.7375	-2.8604	-2.9062	-2.3438	-3.1333	-2.8583	-2.3812	-3.0729	-2.4792	-2.7208	-3.0792	-2.1063	-2.8875	119.068	429.207	451.975	372.967	418.228	353.768	108.659	346.907	123.873	175.866	447.614	406.071	450.786	450.319	416.972	362.701	0.00063756	0.0004974	9.9035e-05	995.88	2.2524e-06	8.9783e-07	1071.1	360.38	5.2675e-06	2.7051e-06	437.11	183.03	153.32	59.23	4.0869e-06	73.96	3.5421e-05	1.9774e-05	5.42e-06	813.44	2.49e-07	2.0721e-07	882.95	295.83	2.4678e-07	2.2032e-07	341.98	146.43	122.82	47.371	2.2019e-07	57.384	181.834	207.196	162.920	116.688	289.140	253.571	115.440	121.576	248.104	224.904	118.973	122.848	125.239	129.778	254.189	125.775	-8191	255	
2788.838	1	1	0	0	0.042958	0.15295	0.086192	0.34804	0.14085	0.14772	0.093763	0.12257	0.29514	0.16095	0.25792	0.3218	0.48537	0.24082	0.15903	0.4956	-2.4562	-2.3958	-3.0687	-2.5687	-2.525	-2.9792	-2.6312	-2.9688	-2.7812	-2.3354	-3.0292	-2.7604	-2.6208	-3.0583	-2.2396	-2.8729	292.857	462.297	219.785	401.554	294.319	275.493	146.057	363.946	127.998	373.704	116.834	445.427	443.296	448.802	213.790	411.077	0.00073195	0.0005141	5.637e-05	994.36	4.3499e-06	3.6257e-06	1082.8	362.69	2.7461e-06	6.3105e-06	443.22	186.13	154.31	59.687	3.9971e-06	74.281	3.5283e-05	2.0436e-05	5.405e-06	812.27	2.4235e-07	2.0805e-07	887.43	297.5	2.4751e-07	2.2652e-07	344.75	147.72	123.32	47.754	2.2211e-07	57.9	184.608	190.291	153.539	117.114	273.055	253.227	115.199	121.473	274.321	241.617	118.891	122.521	125.450	129.382	240.484	125.783	-8191	255	
2788.934	1	1	0	0	0.12664	0.057182	0.20687	0.18314	0.21688	0.21194	0.1537	0.40331	0.14336	0.19294	0.16021	0.15826	0.29548	0.19254	0.40862	0.2101	-2.4292	-2.25	-2.9271	-2.675	-2.3625	-3.1271	-2.5375	-2.6292	-2.8729	-2.2229	-2.8604	-2.7292	-2.575	-3.0312	-2.3438	-2.8875	224.838	232.694	459.942	374.272	237.933	122.248	378.534	428.036	261.914	239.855	107.922	441.516	452.474	437.572	460.046	357.788	0.00063415	0.00047078	8.0269e-05	997	2.3001e-06	2.4723e-06	1082.6	365.28	3.7813e-06	5.0788e-06	442.77	185.31	155.06	60.408	4.7621e-06	74.629	3.5104e-05	1.956e-05	5.322e-06	816.12	2.3712e-07	2.2056e-07	890	298.83	2.3113e-07	2.1664e-07	346.6	148.08	124.28	48.152	2.2413e-07	58.421	182.172	190.356	124.356	117.033	309.002	274.109	115.300	121.516	247.751	220.259	119.232	122.854	125.252	130.166	219.063	125.908	-8191	255	
2789.030	1	1	0	0	0.22592	0.26027	0.19582	0.12068	0.12887	0.12208	0.10453	0.12382	0.19049	0.34036	0.13205	0.25468	0.19122	0.40672	0.068922	0.19377	-2.5208	-2.1167	-2.85	-2.7104	-2.2521	-2.8875	-2.6417	-2.5	-3.0917	-2.5458	-2.7396	-2.8667	-2.3083	-3.1625	-2.3125	-2.8792	421.217	392.858	302.097	182.274	403.068	134.660	367.743	222.142	273.120	285.112	248.996	440.785	332.584	445.786	321.171	403.607	0.00072153	0.00065874	0.00011663	992.29	3.5373e-06	2.3235e-06	1081	364.62	2.5067e-06	7.1419e-06	439.94	185.33	153.91	60.389	4.1989e-06	73.905	3.5268e-05	1.9708e-05	5.7176e-06	812.93	2.3246e-07	2.0113e-07	888.72	297.9	2.3067e-07	2.1643e-07	345.15	147.72	123.55	47.901	2.421e-07	57.816	179.395	197.140	116.190	116.830	310.839	250.730	115.237	121.468	247.436	215.565	119.503	122.766	125.589	129.797	226.607	126.056	-8191	255	
2789.126	1	1	0	0	0.046655	0.19945	0.079339	0.17755	0.026941	0.089862	0.12368	0.11633	0.18096	0.18788	0.26661	0.063117	0.1067	0.35354	0.13747	0.27128	-2.4167	-2.4917	-2.6854	-2.9375	-2.2583	-2.7792	-2.5896	-2.5375	-3.1271	-2.2021	-2.5167	-3.0271	-2.4208	-2.9729	-2.5104	-2.4542	298.704	413.459	156.763	411.564	183.694	337.296	400.210	123.029	203.749	294.906	136.636	334.572	410.394	349.771	165.428	437.334	0.00064819	0.00070207	9.9021e-05	1004.2	3.193e-06	4.2767e-06	1078.4	364.15	4.9673e-06	4.4002e-06	445.01	184.98	154.75	59.86	5.6529e-06	73.578	3.3389e-05	1.9437e-05	6.0406e-06	815.01	2.3245e-07	2.0406e-07	888.24	298.99	2.2072e-07	2.1285e-07	346.7	147.65	124.07	47.807	2.549e-07	57.528	181.619	164.808	150.639	116.664	280.826	234.642	115.048	121.393	256.914	228.811	119.102	122.791	124.988	129.680	261.938	125.999	-8191	255	
2789.222	1	1	0	0	0.23006	0.096724	0.16377	0.32224	0.32909	0.082016	0.34056	0.30524	0.049771	0.12096	0.23593	0.2196	0.2404	0.22432	0.18812	0.22873	-2.4375	-2.4021	-2.525	-2.7979	-2.0104	-3.0583	-2.8458	-2.2938	-3.1604	-2.175	-2.675	-3.2812	-2.3521	-2.9979	-2.7625	-2.3	280.987	335.212	411.111	396.454	402.367	269.681	369.248	379.017	269.645	448.493	379.007	403.714	113.528	444.013	337.111	354.486	0.00066997	0.00064923	9.1589e-05	1000.5	3.1511e-06	2.8893e-06	1075.9	362.66	3.497e-06	3.3399e-06	440.44	186.66	155.13	60.082	4.7359e-06	74.74	3.379e-05	1.9097e-05	5.9188e-06	815.12	2.2201e-07	2.1035e-07	887.73	298.32	2.1989e-07	2.2246e-07	344.87	147.95	124.07	48.021	2.5093e-07	58.444	181.766	193.892	139.921	116.982	294.313	273.490	115.239	121.510	271.458	224.516	119.382	122.868	125.480	129.476	244.820	126.051	-8191	255	
2789.318	1	1	0	0	0.12626	0.23751	0.10972	0.21444	0.13526	0.22473	0.20844	0.029715	0.30789	0.044205	0.093737	0.045612	0.12382	0.27222	0.15109	0.33285	-2.6083	-2.4188	-2.5042	-3.025	-2.4875	-2.7792	-2.6896	-2.3812	-2.9125	-2.6083	-2.5229	-3.1854	-2.2583	-2.9458	-2.8771	-2.4188	147.613	461.123	341.042	297.652	111.347	430.622	434.038	332.844	372.484	382.833	334.144	397.298	265.999	113.022	400.897	443.295	0.00071227	0.00027381	9.4479e-05	1004.9	3.5596e-06	3.4751e-06	1093.8	371.51	4.5821e-06	2.999e-06	451.46	187.72	155.31	60.5	3.8674e-06	75.144	3.3582e-05	2.214e-05	6.0729e-06	820.26	2.319e-07	2.3543e-07	900.39	304.27	2.3109e-07	2.4268e-07	350.12	149.66	124.79	48.503	2.479e-07	58.764	179.550	172.054	179.808	117.076	286.173	236.945	115.236	121.634	256.140	269.598	119.215	122.631	125.120	129.771	212.969	125.947	-8191	255	
2789.414	1	1	0	0	0.24704	0.097894	0.19958	0.19563	0.12849	0.14174	0.4074	0.25976	0.1528	0.18166	0.16036	0.18267	0.28533	0.21409	0.2606	0.15981	-2.5104	-2.6979	-2.4521	-3.0521	-2.3104	-2.8937	-2.8	-2.4646	-3.0812	-2.4396	-2.5042	-3.0625	-2.5479	-2.8458	-2.8812	-2.5354	261.122	371.441	334.083	117.247	275.786	107.308	408.182	411.778	458.907	284.985	395.205	415.298	403.124	429.847	293.547	115.092	0.0006875	0.00056698	0.00010824	997.35	2.1881e-06	1.9849e-06	1079.8	369.67	3.8031e-06	5.9814e-06	447.79	185.75	155.58	60.831	1.7354e-06	74.203	3.4175e-05	2.2343e-05	6.0784e-06	816.5	2.2581e-07	2.4536e-07	892.57	302.6	2.2454e-07	2.4823e-07	347.94	148.31	124.49	48.507	2.3723e-07	58.094	179.781	210.909	130.075	116.718	290.274	288.585	115.150	121.544	255.894	222.579	119.207	122.563	125.376	129.740	241.390	126.154	-8191	255	
2789.533	1	1	0	0	0.18978	0.097087	0.14599	0.28471	0.10011	0.080127	0.10588	0.23984	0.098346	0.05368	0.17044	0.19276	0.090459	0.13949	0.038501	0.23301	-2.5354	-2.7125	-2.3063	-3.1792	-2.4729	-2.6437	-3.0917	-2.4417	-2.5833	-2.7625	-2.4646	-3.0625	-2.6625	-2.6833	-3.0187	-2.3896	174.064	176.907	210.657	385.851	138.031	313.878	148.893	362.415	360.459	105.636	373.520	309.290	363.950	420.097	129.766	423.865	0.00075128	0.00063051	0.0001315	994.7	3.2027e-06	1.9635e-06	1080.5	364.41	3.5503e-06	4.1761e-06	439.49	183.4	153.29	59.718	3.597e-06	73.748	3.37e-05	2.2613e-05	5.7446e-06	812.34	2.308e-07	2.2842e-07	887.2	298.68	2.382e-07	2.3803e-07	343.45	146.04	122.57	47.757	2.2617e-07	57.554	180.722	152.568	145.967	116.973	312.153	228.104	115.163	121.469	246.113	232.416	119.031	122.869	125.489	129.689	208.130	126.227	-8191	255	
2789.629	1	1	0	0	0.20644	0.24172	0.14293	0.18361	0.13163	0.30397	0.14293	0.10255	0.17906	0.2464	0.16127	0.21683	0.23131	0.18936	0.032705	0.188	-2.4604	-2.5438	-2.3438	-3.1833	-2.5229	-2.5854	-3.1604	-2.4292	-2.6479	-2.7771	-2.2479	-3.1625	-2.7667	-2.55	-2.9042	-2.4792	459.192	415.547	456.815	435.255	167.943	256.778	427.217	382.585	288.723	198.879	154.722	419.526	441.076	110.710	114.820	362.971	0.00070059	0.00042701	0.00010577	994.07	4.3033e-06	5.1096e-06	1083.1	367.08	3.2866e-06	3.506e-06	444.98	185.84	153.68	60.235	2.6359e-06	74.583	3.4887e-05	2.1102e-05	5.3813e-06	814.59	2.3853e-07	2.3935e-07	891.86	300.67	2.4763e-07	2.324e-07	346.45	147.63	123.28	48.096	2.2486e-07	58.113	178.351	185.169	158.614	116.665	293.676	216.706	115.401	121.308	273.590	223.839	119.403	122.726	125.012	129.966	195.051	126.102	-8191	255	
2789.726	1	1	0	0	0.042778	0.1324	0.22429	0.15619	0.10113	0.22712	0.14406	0.32969	0.065593	0.11632	0.11927	0.15124	0.0066508	0.1975	0.20538	0.35568	-2.1229	-2.8563	-2.0417	-2.925	-2.7167	-2.4208	-3.2604	-2.4542	-2.4042	-3.0438	-2.575	-2.9375	-2.7875	-2.2604	-2.95	-2.4938	445.544	292.072	258.327	461.937	351.247	153.324	461.438	396.130	112.375	455.076	255.974	435.979	162.344	460.130	282.693	385.161	0.00068279	0.00066715	0.00010398	996.8	3.9457e-06	2.4591e-06	1086.8	367.87	4.0967e-06	2.4141e-06	438.71	184.59	153.23	60.065	4.8657e-06	74.565	3.6057e-05	2.0843e-05	5.7881e-06	817.14	2.5391e-07	2.289e-07	896.17	301.39	2.5301e-07	2.2051e-07	344.96	147.3	122.77	48.081	2.1114e-07	58.349	180.995	214.079	128.166	117.065	269.787	278.510	115.154	121.547	269.563	224.043	118.813	123.038	125.475	129.875	249.664	125.923	-8191	255	
2789.822	1	1	0	0	0.23556	0.13456	0.19278	0.28001	0.14287	0.17647	0.052499	0.21722	0.19313	0.093355	0.16148	0.17187	0.17536	0.35722	0.20204	0.33232	-2.0438	-2.8688	-2.3604	-3.0104	-2.6646	-2.1875	-3.2146	-2.5604	-2.4583	-3.0854	-2.5646	-2.8167	-2.6312	-2.5312	-2.8312	-2.6688	446.521	307.616	247.191	420.546	167.502	337.692	300.622	118.618	462.493	410.068	386.242	404.996	421.227	407.215	287.941	417.495	0.00065151	0.00030692	6.4203e-05	1001.9	2.8801e-06	3.2343e-06	1086.7	366.17	5.6687e-06	3.1126e-06	443.76	184.78	153.32	59.795	4.8141e-06	73.763	3.6046e-05	2.0365e-05	5.2233e-06	816.45	2.467e-07	2.1988e-07	895.05	300.09	2.5424e-07	2.1192e-07	345.21	147.09	122.81	47.646	2.0613e-07	57.477	182.222	184.185	168.800	116.858	311.851	213.587	115.174	121.611	226.062	237.190	119.348	122.699	125.326	129.698	239.137	126.116	-8191	255	
2789.918	1	1	0	0	0.17465	0.15248	0.14263	0.20356	0.23864	0.19828	0.21923	0.20569	0.19088	0.018648	0.10333	0.12446	0.14116	0.2406	0.060507	0.27805	-2.1917	-2.8958	-2.1542	-2.9792	-2.9625	-2.4188	-2.975	-2.6333	-2.6937	-3.2125	-2.5604	-2.7062	-3.1688	-2.5083	-2.8646	-2.8125	136.361	309.346	293.319	427.369	122.686	449.453	360.699	420.212	239.084	297.093	134.527	107.677	427.248	250.212	183.472	381.538	0.00065436	0.00053123	9.2364e-05	997.13	4.4644e-06	3.7557e-06	1082.4	366.01	3.8156e-06	3.4848e-06	444.64	183.99	152.99	59.466	3.2188e-06	73.439	3.4299e-05	1.9228e-05	5.397e-06	814.23	2.2816e-07	2.0276e-07	889.5	300.12	2.3173e-07	2.0618e-07	343.59	146.15	122.05	47.531	2.0134e-07	57.477	179.704	185.631	131.020	117.154	274.852	238.329	115.252	121.287	258.593	215.600	118.822	123.237	125.321	129.620	213.400	126.212	-8191	255	
2790.014	1	1	0	0	0.35139	0.1226	0.20533	0.16912	0.224	0.13291	0.13128	0.12848	0.14514	0.2251	0.15171	0.22246	0.19105	0.022906	0.2298	0.086541	-1.8813	-2.9062	-2.4792	-2.6417	-2.8375	-2.2167	-2.8479	-2.9125	-2.3396	-3.1125	-2.6542	-2.7333	-3.1479	-2.5354	-2.6667	-2.9521	350.175	341.370	267.118	431.588	104.925	385.402	365.550	402.586	366.103	312.047	414.518	358.687	455.498	440.560	115.456	290.514	0.00072449	0.0004428	0.00011448	997.6	3.1043e-06	3.7174e-06	1090.8	366.38	2.2938e-06	4.9261e-06	445.78	184.3	153.58	59.834	6.256e-06	74.297	3.4202e-05	1.8161e-05	5.3784e-06	815.76	2.1636e-07	1.954e-07	893.48	300.35	2.1415e-07	1.9464e-07	345.7	146.53	122.61	47.721	2.2714e-07	57.846	181.122	194.822	132.348	117.312	326.013	248.063	115.395	121.663	259.618	222.242	119.143	122.540	125.334	130.033	240.390	125.792	-8191	255	
2790.135	1	1	0	0	0.1498	0.11995	0.089276	0.25331	0.15753	0.25463	0.097898	0.26032	0.10461	0.15365	0.13896	0.20951	0.10342	0.34432	0.13081	0.21207	-1.825	-3.1083	-2.6063	-2.3812	-3.0938	-2.4917	-2.8625	-2.9271	-2.5667	-2.8708	-2.7396	-2.6437	-3.3146	-2.575	-2.6229	-2.9792	192.913	270.981	403.550	150.520	288.885	117.094	365.753	375.935	395.845	429.148	383.000	437.395	123.603	420.337	391.708	437.797	0.00065781	0.00021505	9.765e-05	995.36	4.5205e-06	5.2894e-06	1085.1	365.43	5.5676e-06	4.4232e-06	442.04	184.59	153.1	59.629	4.4023e-06	73.983	3.1345e-05	1.8543e-05	5.6962e-06	815.43	2.1384e-07	1.9712e-07	892.52	300.44	2.1851e-07	1.9311e-07	345	147.01	122.73	47.709	2.3894e-07	58.191	182.340	210.577	144.482	116.731	295.618	220.761	115.059	121.475	242.941	206.710	119.175	122.727	125.184	129.850	242.654	126.255	-8191	255	
2790.231	1	1	0	0	0.26412	0.0057499	0.13018	0.24993	0.13378	0.097677	0.16221	0.36488	0.13754	0.13121	0.18624	0.15027	0.28295	0.2237	0.11032	0.26333	-1.9	-2.925	-2.6146	-2.4562	-3.05	-2.4875	-2.725	-2.8875	-2.3542	-2.9396	-2.8458	-2.4021	-2.9917	-2.5583	-2.5042	-3.0771	232.486	155.760	113.621	411.155	117.677	258.876	358.930	403.013	136.914	354.824	410.940	360.786	117.083	450.661	316.757	384.959	0.00068849	0.00062783	0.00011954	1003.6	2.9328e-06	3.4969e-06	1091.4	367.25	2.5887e-06	3.9759e-06	442.77	185.03	153.33	60.071	4.8746e-06	74.422	3.26e-05	1.7907e-05	5.5232e-06	820.47	2.0424e-07	1.975e-07	897.96	300.56	2.2104e-07	2.0263e-07	346.4	146.97	122.88	47.876	2.3427e-07	57.999	180.909	172.137	144.048	117.193	298.933	244.106	115.027	121.366	275.235	195.151	118.736	122.692	125.558	129.570	240.811	126.141	-8191	255	
2790.327	1	1	0	0	0.22159	0.039171	0.19371	0.12289	0.17119	0.11587	0.38484	0.16718	0.1372	0.18621	0.072452	0.11686	0.070316	0.13091	0.06614	0.035006	-1.8896	-2.8021	-2.8833	-2.4979	-2.8979	-2.6188	-2.7729	-2.9062	-2.4875	-2.9375	-2.9292	-2.5229	-3.1708	-2.6229	-2.4896	-3.0104	413.284	158.479	334.130	456.227	386.671	302.199	393.786	446.931	148.568	136.201	121.319	432.173	114.021	168.596	220.525	416.051	0.0006453	0.0004313	0.0001012	1006.1	2.8963e-06	2.6142e-06	1083.2	371.3	4.22e-06	1.7566e-06	448.54	186.45	156.55	60.65	4.7724e-06	75.322	3.2235e-05	1.9414e-05	5.774e-06	820.88	2.0239e-07	2.1419e-07	897.33	303.31	2.2208e-07	2.2548e-07	349.23	148.36	125.06	48.448	2.58e-07	58.835	184.025	150.467	158.505	117.069	271.530	218.822	115.233	121.405	280.950	257.542	119.045	122.753	125.412	129.770	229.410	126.224	-8191	255	
2790.421	1	1	0	0	0.018552	0.23998	0.11756	0.17294	0.15598	0.21936	0.13235	0.1921	0.13353	0.29481	0.0052455	0.11802	0.19631	0.22511	0.074257	0.28421	-1.8583	-2.6521	-2.8771	-2.3937	-3.1375	-2.6729	-2.4479	-3.0979	-2.6167	-2.6708	-2.9417	-2.3937	-3.0396	-2.4979	-2.4292	-3.0146	346.755	254.517	379.354	395.516	260.834	452.719	137.057	359.357	300.160	341.268	328.943	147.477	402.873	448.388	306.468	393.540	0.0006449	0.00032256	6.4259e-05	1020.3	3.9703e-06	2.3474e-06	1101.3	376.14	5.6538e-06	3.9658e-06	454.28	192.25	159.48	62.283	4.3087e-06	76.845	3.2941e-05	2.1098e-05	6.1675e-06	832.39	2.3341e-07	2.3797e-07	910.15	309.79	2.2944e-07	2.4819e-07	355.78	152.58	127.52	49.663	2.5349e-07	59.868	181.590	189.207	122.357	117.022	286.927	222.776	115.155	121.715	237.426	196.227	119.184	122.809	125.152	129.776	218.770	125.968	-8191	255	
#DATA ENDS
