BOXY.EXE: ISS Imagent and Oximeter Data Acquisition Program Version 0.80
Ascii Record File

#ACQ INFORMATION
2  Detector Channels 
16  External MUX Channels 
1  Auxiliary Channels 
5000  Waveform (CCF) Frequency (Hz)
1  Waveforms Skipped 
30  Waveforms Averaged 
1  Cycles Averaged 
16  Acquisitions per Waveform 
10.0806  Updata Rate (Hz) 

#FILE INFORMATION
TRUE -- External MUX Channel results are PARSED.
FALSE -- AC DC and Phase are NOT grouped.
TRUE -- Companion Program Settings File CREATED.
FALSE -- AC data not excluded
FALSE -- DC data not excluded
FALSE -- Phase data not excluded
FALSE -- Auxillary Chn. data not excluded
Tab delimiters

#CALIBRATION STATE
TRUE -- Waveform Calibration Values APPLIED.


#AUX CALIBRATION VALUES
Val Type	aux-1	

Term	1.0000e+00	
Factor	0.0000e+00	


#WF CALIBRATION VALUES
A = Detector Channel
Val Type	A-AC1	A-AC2	A-AC3	A-AC4	A-AC5	A-AC6	A-AC7	A-AC8	A-AC9	A-AC10	A-AC11	A-AC12	A-AC13	A-AC14	A-AC15	A-AC16	A-DC1	A-DC2	A-DC3	A-DC4	A-DC5	A-DC6	A-DC7	A-DC8	A-DC9	A-DC10	A-DC11	A-DC12	A-DC13	A-DC14	A-DC15	A-DC16	A-Ph1	A-Ph2	A-Ph3	A-Ph4	A-Ph5	A-Ph6	A-Ph7	A-Ph8	A-Ph9	A-Ph10	A-Ph11	A-Ph12	A-Ph13	A-Ph14	A-Ph15	A-Ph16	

Term	0.00000e+00	0.00000e+00	0.00000e+00	0.00000e+00	0.00000e+00	0.00000e+00	0.00000e+00	0.00000e+00	0.00000e+00	0.00000e+00	0.00000e+00	0.00000e+00	0.00000e+00	0.00000e+00	0.00000e+00	0.00000e+00	0.00000e+00	0.00000e+00	0.00000e+00	0.00000e+00	0.00000e+00	0.00000e+00	0.00000e+00	0.00000e+00	0.00000e+00	0.00000e+00	0.00000e+00	0.00000e+00	0.00000e+00	0.00000e+00	0.00000e+00	0.00000e+00	0.00000e+00	0.00000e+00	0.00000e+00	0.00000e+00	0.00000e+00	0.00000e+00	0.00000e+00	0.00000e+00	0.00000e+00	0.00000e+00	0.00000e+00	0.00000e+00	0.00000e+00	0.00000e+00	0.00000e+00	0.00000e+00	
Factor	1.00000e+00	1.00000e+00	1.00000e+00	1.00000e+00	1.00000e+00	1.00000e+00	1.00000e+00	1.00000e+00	1.00000e+00	1.00000e+00	1.00000e+00	1.00000e+00	1.00000e+00	1.00000e+00	1.00000e+00	1.00000e+00	1.00000e+00	1.00000e+00	1.00000e+00	1.00000e+00	1.00000e+00	1.00000e+00	1.00000e+00	1.00000e+00	1.00000e+00	1.00000e+00	1.00000e+00	1.00000e+00	1.00000e+00	1.00000e+00	1.00000e+00	1.00000e+00	X	X	X	X	X	X	X	X	X	X	X	X	X	X	X	X	

B = Detector Channel
Val Type	B-AC1	B-AC2	B-AC3	B-AC4	B-AC5	B-AC6	B-AC7	B-AC8	B-AC9	B-AC10	B-AC11	B-AC12	B-AC13	B-AC14	B-AC15	B-AC16	B-DC1	B-DC2	B-DC3	B-DC4	B-DC5	B-DC6	B-DC7	B-DC8	B-DC9	B-DC10	B-DC11	B-DC12	B-DC13	B-DC14	B-DC15	B-DC16	B-Ph1	B-Ph2	B-Ph3	B-Ph4	B-Ph5	B-Ph6	B-Ph7	B-Ph8	B-Ph9	B-Ph10	B-Ph11	B-Ph12	B-Ph13	B-Ph14	B-Ph15	B-Ph16	

Term	0.00000e+00	0.00000e+00	0.00000e+00	0.00000e+00	0.00000e+00	0.00000e+00	0.00000e+00	0.00000e+00	0.00000e+00	0.00000e+00	0.00000e+00	0.00000e+00	0.00000e+00	0.00000e+00	0.00000e+00	0.00000e+00	0.00000e+00	0.00000e+00	0.00000e+00	0.00000e+00	0.00000e+00	0.00000e+00	0.00000e+00	0.00000e+00	0.00000e+00	0.00000e+00	0.00000e+00	0.00000e+00	0.00000e+00	0.00000e+00	0.00000e+00	0.00000e+00	-1.27282e+02	-1.30498e+02	-1.26606e+02	-1.82720e+02	-7.04405e+01	-6.88341e+01	-1.60843e+02	-1.62015e+02	-7.31909e+01	-6.92541e+01	-1.72572e+02	-1.72955e+02	-1.82795e+02	-1.78089e+02	-7.17232e+01	-1.50939e+02	
Factor	1.93131e-05	1.69621e-04	4.86892e-05	1.65898e-01	1.33105e-06	1.92021e-06	1.95781e-01	6.11879e-02	1.30919e-06	1.87107e-06	9.62612e-02	3.22527e-02	2.98245e-02	9.98308e-03	1.50668e-06	1.45378e-02	1.28716e-05	2.34187e-05	6.58817e-06	8.38859e-02	2.30464e-07	2.64030e-07	9.33801e-02	3.11235e-02	2.35691e-07	2.61591e-07	4.74826e-02	1.59974e-02	1.53938e-02	5.11434e-03	2.44169e-07	7.23425e-03	X	X	X	X	X	X	X	X	X	X	X	X	X	X	X	X	



#DISTANCE SETTINGS
A = Detector Channel
A-1	A-2	A-3	A-4	A-5	A-6	A-7	A-8	A-9	A-10	A-11	A-12	A-13	A-14	A-15	A-16	

2.5000e+00	3.0000e+00	2.5000e+00	3.0000e+00	2.0000e+00	3.0000e+00	1.5000e+00	3.0000e+00	3.0000e+00	3.0000e+00	3.0000e+00	3.0000e+00	3.0000e+00	3.0000e+00	1.5000e+00	3.0000e+00	

B = Detector Channel
B-1	B-2	B-3	B-4	B-5	B-6	B-7	B-8	B-9	B-10	B-11	B-12	B-13	B-14	B-15	B-16	

1.0000e+01	1.0000e+01	1.0000e+01	1.4400e+00	1.0000e+01	1.0000e+01	1.5100e+00	1.9400e+00	1.0000e+01	1.0000e+01	1.9900e+00	2.4900e+00	2.4100e+00	2.9000e+00	1.0000e+01	2.9800e+00	




#DATA BEGINS
time	group	step	mark	flag	A-AC1	A-AC2	A-AC3	A-AC4	A-AC5	A-AC6	A-AC7	A-AC8	A-AC9	A-AC10	A-AC11	A-AC12	A-AC13	A-AC14	A-AC15	A-AC16	A-DC1	A-DC2	A-DC3	A-DC4	A-DC5	A-DC6	A-DC7	A-DC8	A-DC9	A-DC10	A-DC11	A-DC12	A-DC13	A-DC14	A-DC15	A-DC16	A-Ph1	A-Ph2	A-Ph3	A-Ph4	A-Ph5	A-Ph6	A-Ph7	A-Ph8	A-Ph9	A-Ph10	A-Ph11	A-Ph12	A-Ph13	A-Ph14	A-Ph15	A-Ph16	B-AC1	B-AC2	B-AC3	B-AC4	B-AC5	B-AC6	B-AC7	B-AC8	B-AC9	B-AC10	B-AC11	B-AC12	B-AC13	B-AC14	B-AC15	B-AC16	B-DC1	B-DC2	B-DC3	B-DC4	B-DC5	B-DC6	B-DC7	B-DC8	B-DC9	B-DC10	B-DC11	B-DC12	B-DC13	B-DC14	B-DC15	B-DC16	B-Ph1	B-Ph2	B-Ph3	B-Ph4	B-Ph5	B-Ph6	B-Ph7	B-Ph8	B-Ph9	B-Ph10	B-Ph11	B-Ph12	B-Ph13	B-Ph14	B-Ph15	B-Ph16	aux-1	digaux	

14683.125	1	1	0	768	0.084378	0.10517	0.1862	0.18636	0.20844	0.087184	0.25413	0.28841	0.092196	0.10416	0.17905	0.10194	0.39501	0.032187	0.25888	0.019797	-2.5	-3.3042	-2.6583	-3.2208	-2.8187	-2.9208	-3.6021	-2.9437	-2.9375	-2.9562	-2.9542	-3.0958	-3.1167	-2.8688	-3.0812	-2.6937	467.827	418.367	179.241	248.136	382.443	469.480	510.852	435.927	181.733	465.345	467.977	479.479	217.817	216.851	427.034	526.915	0.00049148	0.00033337	0.00013324	1365.7	3.884e-06	3.5402e-06	1358.2	367.43	4.2516e-06	5.0208e-06	420.52	139.81	121.62	41.84	2.8999e-06	51.843	0.00054661	0.00054922	0.00015639	1382.7	6.1059e-06	6.1899e-06	1380.5	374.24	6.2453e-06	5.8024e-06	428.11	143.32	124.65	42.96	5.8372e-06	53.216	199.432	273.573	271.561	187.399	310.615	315.345	187.143	191.869	309.804	317.453	191.526	195.596	196.073	201.158	310.728	200.479	-8191	255	
14683.221	1	1	0	0	0.22577	0.17503	0.14563	0.19899	0.21346	0.18088	0.2972	0.20048	0.056971	0.12187	0.39125	0.079766	0.074722	0.35286	0.20086	0.093744	-2.4333	-2.9625	-2.7313	-3.4625	-2.9917	-2.5875	-3.0958	-2.75	-3.0187	-3.1583	-2.7958	-3.3458	-3.225	-2.8208	-3.0583	-2.8083	185.142	378.680	525.800	201.246	442.980	233.788	442.807	452.762	335.001	236.433	462.645	332.867	481.689	505.924	259.816	454.813	0.00048559	0.00045733	0.00020235	1367.9	4.9843e-06	4.5327e-06	1363.2	367.87	6.0089e-06	5.1805e-06	421.03	140.48	122.58	42.045	3.4529e-06	51.767	0.000539	0.00054502	0.00015442	1383.5	6.0266e-06	6.0556e-06	1381.6	374.34	6.1388e-06	5.8389e-06	427.88	143.71	124.82	43.018	5.7319e-06	53.223	199.564	264.542	261.645	187.355	310.014	333.492	187.232	191.808	295.141	307.868	191.253	195.237	195.737	201.161	313.009	200.233	-8191	255	
14683.317	1	1	0	0	0.095904	0.23316	0.16613	0.090488	0.07337	0.21193	0.2853	0.20307	0.065617	0.032079	0.046867	0.34361	0.03171	0.31748	0.25492	0.35294	-2.3542	-3.0479	-2.8312	-3.1333	-3.1729	-2.7396	-3.4146	-3.1229	-2.8333	-3.1292	-2.6	-3.05	-3.2458	-2.7333	-3.2438	-2.9167	414.904	363.435	332.166	253.275	468.164	501.393	490.000	482.782	316.988	476.666	210.631	456.731	412.980	451.584	491.127	508.052	0.00052138	0.00045623	0.00014484	1369.8	3.6885e-06	7.191e-06	1359.7	368.67	6.9324e-06	5.492e-06	421.82	139.64	121.47	41.853	4.8897e-06	51.974	0.00056648	0.0005518	0.00015603	1383.9	5.9609e-06	6.2405e-06	1380.4	374.71	6.207e-06	6.0526e-06	427.16	143.34	124.65	42.962	5.9359e-06	53.249	200.469	264.851	263.398	187.438	319.022	333.655	187.060	192.014	295.541	328.324	191.443	195.280	195.830	201.030	307.937	199.970	-8191	255	
14683.414	1	1	0	0	0.25407	0.071849	0.19974	0.3696	0.35913	0.17655	0.20535	0.066509	0.20516	0.15768	0.10695	0.11139	0.15971	0.18394	0.24289	0.14967	-2.4583	-3.0312	-2.4958	-2.9771	-2.9979	-2.7646	-3.4271	-2.9583	-2.7417	-2.9708	-2.7604	-2.9688	-3.2458	-2.6375	-3.0875	-2.8833	190.322	453.119	489.205	494.074	504.548	301.657	508.946	319.011	404.142	310.220	508.268	195.237	192.641	485.082	406.349	400.053	0.00048468	0.00036768	0.00013436	1368.7	4.4017e-06	5.9863e-06	1355	366.49	4.8732e-06	4.6641e-06	422.22	140.12	122.41	41.893	3.2922e-06	51.898	0.00055243	0.00054507	0.00015709	1382.2	6.0612e-06	6.0595e-06	1378.8	373.86	6.0735e-06	5.7833e-06	428.22	143.11	124.64	42.966	5.9048e-06	53.197	196.618	271.079	263.408	187.267	302.243	338.896	187.271	191.805	316.567	321.417	191.686	195.560	195.949	201.015	328.704	200.210	-8191	255	
14683.510	1	1	0	0	0.11942	0.12497	0.071893	0.25826	0.12165	0.12529	0.14089	0.286	0.17188	0.062008	0.24881	0.26491	0.1587	0.2246	0.18042	0.076844	-2.2667	-3.1125	-2.6042	-3.0062	-3.1708	-2.8812	-3.2792	-3.3604	-2.9146	-3.1979	-2.9437	-2.9104	-3.3396	-2.7646	-3.1479	-3.2354	213.203	296.881	418.692	206.412	233.237	406.147	478.966	524.820	263.400	463.465	192.038	186.683	441.209	176.544	317.530	477.743	0.00048767	0.00055337	0.00011205	1368.9	3.9974e-06	3.4588e-06	1356.3	366.69	5.5501e-06	4.8934e-06	418.9	140.23	121.99	41.75	5.494e-06	51.692	0.00054581	0.00056381	0.00015352	1381	5.8187e-06	6.005e-06	1377.8	373.58	6.21e-06	5.822e-06	427.47	143.26	124.46	42.872	6.005e-06	53.134	199.667	268.667	279.634	187.535	311.170	308.900	187.361	191.951	289.074	303.066	191.572	195.444	195.989	201.023	311.927	200.409	-8191	255	
14683.606	1	1	0	0	0.16873	0.21741	0.21762	0.30794	0.039589	0.11235	0.37111	0.15266	0.11497	0.018519	0.14151	0.11622	0.26602	0.13982	0.026952	0.13512	-2.2167	-3.225	-2.7792	-2.925	-2.8604	-2.6208	-2.9292	-3.0187	-2.7188	-3.1542	-2.9021	-2.7833	-3.1771	-2.6333	-2.75	-3.2313	258.565	490.790	493.395	487.518	401.651	443.603	488.992	190.616	307.306	446.739	468.719	454.750	178.419	485.992	356.728	445.200	0.00048015	0.00046036	0.00015358	1369.5	4.2784e-06	5.9704e-06	1354.6	367.11	6.1563e-06	5.1291e-06	419.54	139.41	122.19	41.796	3.3318e-06	51.88	0.00053894	0.00054068	0.00015597	1380.5	5.8091e-06	5.9764e-06	1377.1	373.76	6.1923e-06	5.8509e-06	426.97	143.07	124.58	42.9	6.0111e-06	53.112	199.571	274.883	250.098	187.470	298.606	328.708	187.366	191.992	284.558	321.531	191.593	195.393	196.092	200.847	329.745	200.389	-8191	255	
14683.726	1	1	0	0	0.080253	0.12226	0.15983	0.13829	0.14269	0.32	0.25995	0.042521	0.26246	0.13657	0.33021	0.2253	0.14651	0.21666	0.12824	0.23434	-2.3812	-3.2333	-2.9917	-2.9083	-3.1875	-2.8688	-2.9396	-3.1188	-2.55	-2.8563	-3.1083	-2.7729	-3.2271	-3.0312	-2.9896	-3.2417	192.432	407.191	424.264	473.111	304.408	464.815	513.095	391.586	274.584	376.032	420.568	190.820	445.829	533.588	461.267	454.005	0.00052123	0.00055828	0.00014665	1362.2	4.3191e-06	4.9065e-06	1360.1	368.44	3.7288e-06	4.6609e-06	418.36	139.98	122.19	41.973	4.3422e-06	51.719	0.00054758	0.00054395	0.00015224	1378.6	5.8989e-06	5.9671e-06	1377	374.26	6.1368e-06	5.9349e-06	426.79	143.13	124.37	42.899	5.9771e-06	53.074	196.603	267.034	266.628	187.556	303.132	330.552	187.197	191.908	299.777	335.513	191.648	195.487	196.111	200.948	297.392	200.516	-8191	255	
14683.821	1	1	0	0	0.1408	0.17673	0.054089	0.43997	0.36197	0.084685	0.10381	0.24814	0.11312	0.16559	0.31605	0.18266	0.18874	0.12152	0.29692	0.24015	-2.1104	-2.9562	-2.8146	-2.7208	-2.9896	-2.8875	-3.0458	-3.3417	-2.8563	-2.8958	-3.25	-2.475	-3.0771	-2.625	-2.8312	-3.3771	308.400	502.539	522.108	515.477	323.038	477.611	431.111	517.845	257.428	265.276	484.893	202.939	464.953	388.042	188.180	515.942	0.00048232	0.00029321	0.00010155	1360.1	3.136e-06	6.0015e-06	1357.7	367.23	4.9989e-06	5.2766e-06	419.63	139.86	121.61	41.888	3.8557e-06	51.84	0.00054734	0.00054385	0.00014974	1377.6	5.9397e-06	6.2427e-06	1376.3	373.57	6.0563e-06	5.9605e-06	426.75	142.91	124.35	42.841	6.1887e-06	53.138	198.622	279.272	244.570	187.635	298.367	314.630	187.446	191.922	289.514	331.544	191.529	195.688	195.903	201.159	301.225	200.393	-8191	255	
14683.917	1	1	0	0	0.15748	0.095368	0.25108	0.249	0.13542	0.31224	0.12906	0.13509	0.24634	0.014674	0.1441	0.19662	0.21262	0.1353	0.23652	0.094039	-2.2479	-2.7083	-2.9938	-2.725	-3.1813	-2.9813	-2.7354	-3.4708	-2.9146	-2.9208	-3.175	-2.6979	-3.0979	-3.0792	-2.6188	-3.1854	467.922	335.801	223.429	500.425	236.322	393.233	483.308	356.791	382.087	300.651	202.399	183.712	205.814	422.958	421.467	400.606	0.00048854	0.00047752	0.0001468	1360.3	2.8058e-06	4.4546e-06	1359	367.4	4.783e-06	4.5595e-06	419.03	139.75	121.31	41.744	5.1465e-06	51.81	0.00054125	0.00054775	0.00015377	1377.3	6.0578e-06	5.9632e-06	1377.8	373.48	6.1309e-06	6.0656e-06	426.6	142.9	123.99	42.797	6.2334e-06	53.054	198.842	257.920	275.288	187.641	289.197	328.799	187.222	191.893	297.801	311.464	191.681	195.409	196.155	201.116	305.648	200.334	-8191	255	
14684.013	1	1	0	0	0.20931	0.1205	0.103	0.34833	0.056929	0.1778	0.21214	0.15478	0.15381	0.38424	0.25025	0.093143	0.095353	0.078111	0.26195	0.09909	-2.4521	-2.7521	-3.0396	-2.9688	-3.0333	-2.8646	-2.6354	-3.0375	-2.9104	-2.85	-3.0917	-2.5375	-2.9771	-2.8896	-2.7104	-3.3292	379.216	510.008	361.397	424.856	298.411	513.311	500.235	390.075	328.200	348.236	212.862	491.007	223.197	430.552	323.244	371.827	0.00046671	0.00052069	0.00014579	1361.2	4.2352e-06	5.8887e-06	1357.1	367.42	5.6494e-06	5.094e-06	419.27	139.94	121.66	41.753	5.702e-06	51.86	0.0005409	0.0005481	0.00014716	1376.3	6.053e-06	5.7817e-06	1375.3	373.44	6.042e-06	5.9806e-06	426.72	143.13	124.45	42.825	6.0859e-06	53.132	198.459	258.132	265.252	187.714	302.038	313.738	187.244	191.923	288.273	316.378	191.770	195.528	195.973	200.934	298.938	200.475	-8191	255	
14684.109	1	1	0	0	0.23456	0.13228	0.16643	0.22063	0.19769	0.11968	0.12292	0.26054	0.078124	0.19164	0.29305	0.079368	0.27028	0.32219	0.27772	0.044692	-2.4125	-2.7979	-3.2146	-2.8417	-2.8354	-2.8625	-2.7875	-3.225	-2.8979	-2.8042	-3.1417	-2.8125	-2.8	-3.0875	-2.5875	-3.0812	525.170	501.300	234.078	487.606	393.401	311.422	415.979	501.267	468.072	367.712	493.327	420.967	531.403	509.940	497.063	511.003	0.00048822	0.00040898	0.00011402	1362.6	4.2971e-06	3.9002e-06	1356.4	365.6	4.1475e-06	4.2652e-06	419.87	139.98	121.34	41.704	3.625e-06	51.914	0.00054562	0.00053409	0.00014552	1378.4	5.9959e-06	5.8004e-06	1376	373.14	6.1727e-06	6.0052e-06	427.18	143.15	124.15	42.861	6.0203e-06	53.196	197.516	271.349	262.442	187.368	297.754	300.092	187.170	192.075	289.131	314.638	191.819	195.281	195.938	200.890	309.148	200.255	-8191	255	
14684.205	1	1	0	0	0.25076	0.1443	0.10029	0.14918	0.088822	0.26633	0.19889	0.068958	0.22097	0.01118	0.18611	0.063203	0.23043	0.018762	0.24809	0.012912	-2.5292	-2.7917	-3.1813	-2.9375	-2.7854	-3.15	-2.9437	-3.1125	-2.8229	-2.6813	-3.1792	-2.9146	-3.0042	-3.0792	-2.6729	-3.2917	215.731	356.164	393.049	415.215	441.651	432.215	429.391	497.932	237.506	186.965	396.159	374.635	495.335	327.848	484.890	263.438	0.00051467	0.00049949	0.00014053	1361.5	3.9224e-06	3.863e-06	1356.6	367.67	5.2629e-06	2.6974e-06	419.35	139.35	121.93	41.771	4.5902e-06	51.529	0.00054822	0.00054619	0.00014812	1378.5	6.0079e-06	5.8483e-06	1376.3	373.78	6.1029e-06	5.9894e-06	426.68	142.76	124.25	42.815	5.9821e-06	53.049	200.133	273.785	259.472	187.530	305.313	325.806	187.432	192.010	307.850	321.434	191.763	195.427	196.059	201.199	299.554	200.326	-8191	255	
14684.326	1	1	0	0	0.15858	0.017908	0.19375	0.34057	0.070175	0.2697	0.10421	0.064437	0.16391	0.038856	0.1293	0.098813	0.0671	0.15308	0.082026	0.17657	-2.4729	-2.8083	-2.9562	-3.0521	-2.875	-3.2396	-2.7812	-3.0021	-3.0229	-2.8271	-3.2042	-2.8958	-2.8104	-3.2667	-2.8271	-2.8479	455.085	334.414	480.243	462.309	330.427	226.645	324.409	395.757	530.372	379.765	200.794	368.150	479.379	351.035	326.781	391.890	0.00048249	0.00041261	0.00016689	1364.7	4.7491e-06	3.926e-06	1359.2	367.23	5.2998e-06	5.4373e-06	419.85	139.26	121.54	41.77	4.7729e-06	51.851	0.00053943	0.00054088	0.00015051	1379.1	6.0449e-06	5.8351e-06	1376	373.75	6.0887e-06	5.7714e-06	427	142.97	124.25	42.84	6.2233e-06	53.125	198.314	255.075	252.549	187.528	304.373	312.886	187.302	191.959	291.561	342.197	191.561	195.486	196.021	201.359	303.066	200.304	-8191	255	
14684.422	1	1	0	0	0.17388	0.25234	0.22925	0.21182	0.019135	0.14063	0.24199	0.27555	0.094955	0.11535	0.18729	0.033746	0.042828	0.21438	0.049537	0.28646	-2.4521	-2.5125	-3.0458	-2.9771	-2.7313	-3.3229	-3.0062	-2.9625	-2.9688	-2.7333	-3.2896	-2.8604	-2.5021	-3.2208	-2.9813	-3.0042	179.312	270.608	235.308	453.088	260.874	179.092	517.558	494.522	234.057	257.170	512.953	203.408	313.380	521.814	276.598	497.860	0.00049489	0.00032604	0.00010122	1359.8	4.0564e-06	4.9026e-06	1356	366.66	4.6137e-06	4.6724e-06	420.13	140.05	121.51	41.657	4.7015e-06	51.629	0.0005479	0.00055288	0.00015464	1375.1	6.0675e-06	6.0589e-06	1375.8	373.29	6.1324e-06	5.9583e-06	426.85	142.9	124.16	42.719	6.002e-06	53.041	199.706	265.704	286.653	187.453	304.743	308.612	187.209	191.949	291.863	312.378	191.732	195.415	196.133	200.948	314.588	200.252	-8191	255	
14684.518	1	1	0	0	0.049408	0.17352	0.10464	0.15259	0.2669	0.21319	0.14014	0.20049	0.16287	0.27132	0.35474	0.1828	0.291	0.12403	0.11008	0.21174	-2.5208	-2.3667	-2.9979	-3.1708	-2.6604	-2.9813	-2.9521	-3.1021	-3.0812	-2.65	-3.0167	-3.1021	-2.725	-3.3438	-2.9313	-2.7292	464.709	439.513	425.312	440.965	404.817	485.552	378.255	180.299	456.010	216.084	506.187	220.541	493.110	450.427	247.756	449.479	0.0004933	0.00047365	0.00015772	1356.8	4.918e-06	2.4409e-06	1350.5	365.62	3.3338e-06	3.6598e-06	420.98	139.92	121.88	41.659	5.3877e-06	51.596	0.00053793	0.00055605	0.00015813	1374.5	5.9143e-06	5.9357e-06	1373.3	373.03	5.8893e-06	5.9479e-06	426.99	142.81	124.44	42.797	6.2553e-06	53.075	199.082	261.016	271.350	187.417	301.066	302.595	187.333	191.963	299.400	308.609	191.513	195.459	195.955	201.317	302.750	200.299	-8191	255	
14684.615	1	1	0	0	0.069212	0.21589	0.1606	0.31397	0.037738	0.16353	0.23854	0.13941	0.1827	0.13237	0.026159	0.17481	0.084266	0.19188	0.14789	0.0044232	-2.7583	-2.4208	-2.9	-3.1729	-2.5292	-3.1875	-3.0542	-2.9437	-3.1354	-2.7083	-3.1	-3.1375	-2.8542	-3.1958	-3.0062	-2.7896	503.573	337.293	327.718	509.185	356.794	362.782	489.919	341.688	344.524	419.754	211.164	466.972	451.244	496.194	365.843	468.940	0.00049772	0.00043914	0.00013763	1358.8	2.4903e-06	3.8523e-06	1354.7	365.93	6.0852e-06	4.2943e-06	420.11	139.63	122.02	41.845	4.195e-06	51.621	0.00053894	0.00056381	0.00015926	1377.5	5.9551e-06	6.0705e-06	1375.1	373.16	6.1903e-06	6.1686e-06	426.98	142.9	124.46	42.838	6.12e-06	53.059	200.142	276.561	256.624	187.611	294.484	329.246	187.402	191.797	299.230	307.933	191.682	195.681	195.981	201.064	326.022	200.071	-8191	255	
14684.711	1	1	0	0	0.12578	0.12565	0.053751	0.20812	0.33537	0.18328	0.19794	0.06728	0.25499	0.11963	0.15356	0.15639	0.28148	0.16383	0.14961	0.2574	-2.625	-2.6604	-2.9146	-3.1083	-2.725	-3.1375	-3.1	-2.8708	-3.0208	-2.9396	-3.0104	-3.0625	-2.6896	-3.1292	-3.125	-2.6979	508.909	380.914	525.150	514.845	200.720	228.562	463.814	286.710	260.910	391.968	521.270	238.823	477.417	515.016	521.672	518.643	0.00047006	0.00054128	0.00014893	1361.3	4.3025e-06	4.5726e-06	1355.1	367.13	4.1929e-06	6.5458e-06	422.18	139.96	120.76	41.822	3.2459e-06	51.768	0.00053275	0.00055956	0.00015728	1378.5	6.3368e-06	6.0369e-06	1377.6	373.83	6.0524e-06	6.3098e-06	427.77	143.1	124.07	42.95	6.1337e-06	53.159	198.318	279.819	265.366	187.428	297.004	319.865	187.180	192.005	288.837	310.940	191.582	195.483	196.130	201.006	311.858	200.298	-8191	255	
14684.805	1	1	0	0	0.17414	0.11908	0.070988	0.15552	0.17072	0.11668	0.28764	0.06174	0.10744	0.33998	0.34343	0.1831	0.22086	0.066624	0.2427	0.13932	-2.5479	-2.6375	-2.8208	-3.375	-2.525	-2.9979	-3.3375	-2.6562	-3.0312	-2.7562	-2.7938	-3.0396	-2.625	-3.1667	-3.1917	-2.7521	299.999	185.201	300.585	514.551	312.991	379.315	190.580	300.053	220.558	321.523	492.678	325.869	289.175	498.624	252.240	319.080	0.00049578	0.00046579	0.00012199	1363.1	4.6837e-06	4.9026e-06	1359.3	366.98	5.8411e-06	3.2372e-06	420.47	139.38	121.64	41.733	4.5551e-06	51.804	0.00054436	0.00057961	0.0001563	1378.2	6.1395e-06	6.4269e-06	1378.2	373.97	6.3602e-06	6.2706e-06	427.03	142.93	124.32	42.808	6.2517e-06	53.183	195.689	250.223	254.752	187.481	306.938	327.613	187.353	191.916	301.288	322.070	191.496	195.295	196.006	201.039	310.399	200.159	-8191	255	
14684.901	1	1	0	0	0.12024	0.14913	0.095459	0.20065	0.14731	0.1919	0.062385	0.098228	0.048615	0.093527	0.13794	0.21002	0.2859	0.10396	0.10507	0.063763	-2.4875	-2.9188	-2.5771	-3.2417	-2.8208	-3.0438	-3.3271	-2.725	-3.1271	-2.9979	-2.7188	-2.9167	-2.75	-2.8375	-3.175	-2.6875	282.827	291.020	469.572	464.472	347.380	321.611	197.665	178.454	504.221	355.951	360.096	211.592	196.320	223.244	440.225	433.415	0.00048773	0.00042418	9.8713e-05	1363.9	3.637e-06	3.3581e-06	1354	368.51	6.217e-06	4.728e-06	419.6	139.9	121.97	41.672	4.7465e-06	51.673	0.00055466	0.00056264	0.00015806	1378.9	6.2369e-06	6.3857e-06	1375.3	374.31	6.1044e-06	6.1746e-06	427.43	143.04	124.53	42.851	6.1627e-06	53.101	199.058	267.039	258.743	187.549	302.397	340.630	187.121	191.978	301.353	329.388	191.530	195.648	196.302	201.022	308.571	200.314	-8191	255	
14684.997	1	1	0	0	0.17406	0.21642	0.35272	0.18798	0.14646	0.31538	0.19411	0.14028	0.046391	0.091074	0.17689	0.24943	0.105	0.26716	0.18364	0.16893	-2.5854	-3.0042	-2.6229	-3.375	-2.7333	-2.875	-3.4188	-2.8667	-2.8167	-2.8812	-2.7667	-3.2667	-2.8292	-2.8104	-2.9583	-2.8104	395.278	425.439	190.485	502.554	383.634	202.080	426.083	477.815	307.408	381.348	435.019	510.454	431.224	474.458	389.344	423.003	0.0005063	0.00046579	0.00015977	1363.8	5.6826e-06	5.4714e-06	1358.7	368.74	4.1246e-06	5.7198e-06	419.21	139.83	121.47	41.803	5.2848e-06	51.499	0.00055881	0.0005602	0.00015817	1378.8	6.3843e-06	6.3395e-06	1376.5	374.86	6.4226e-06	6.1817e-06	427.26	143.17	124.53	42.832	6.2818e-06	53.097	198.829	264.681	263.500	187.489	304.959	342.717	187.306	192.015	291.220	319.091	191.737	195.372	196.052	200.966	302.046	200.204	-8191	255	
14685.094	1	1	0	0	0.23943	0.18647	0.18116	0.33119	0.097705	0.13935	0.1952	0.26731	0.076508	0.28725	0.086135	0.08221	0.19536	0.16842	0.19786	0.26705	-2.4313	-3.0458	-2.625	-3.1896	-2.6771	-2.8563	-3.3542	-2.9354	-2.8354	-3.0187	-2.7083	-3.1729	-3.1625	-2.8375	-3.0083	-2.7271	178.661	493.301	355.111	464.124	321.957	413.636	485.709	202.069	518.237	268.246	177.547	223.769	189.262	479.852	429.505	434.158	0.00052347	0.0003215	0.00018107	1364.9	3.6937e-06	4.3314e-06	1355.4	369.39	5.2587e-06	3.6152e-06	421.03	140.04	122.07	41.616	5.3096e-06	51.757	0.00056077	0.00057669	0.00016447	1379.4	6.4439e-06	6.6899e-06	1377.7	374.51	6.5012e-06	6.3643e-06	427.38	143.35	124.57	42.834	6.5951e-06	53.244	198.973	259.205	270.801	187.423	303.300	319.108	187.251	191.722	287.680	331.743	191.689	195.193	196.044	201.033	292.955	200.330	-8191	255	
14685.214	1	1	0	0	0.22932	0.21425	0.054003	0.10513	0.16302	0.12767	0.28561	0.10955	0.12111	0.17935	0.23925	0.15175	0.14815	0.31781	0.14051	0.13473	-2.5229	-3.0687	-2.7792	-3.1813	-2.9479	-2.675	-3.1729	-3.0333	-2.8833	-3.2542	-2.7583	-3.1104	-2.9938	-2.6771	-3.0396	-2.9188	496.148	216.032	258.497	411.889	317.805	500.535	481.780	508.551	491.104	208.285	483.654	528.910	405.466	501.842	421.732	429.667	0.00051715	0.00031708	0.00014474	1364.9	3.8869e-06	4.4055e-06	1359.1	368.37	5.2988e-06	4.8359e-06	420.81	140.33	122.23	41.963	3.8788e-06	51.843	0.00056715	0.0005701	0.00016421	1382.8	6.4756e-06	6.7377e-06	1379.8	374.73	6.4953e-06	6.4161e-06	427.27	143.43	124.72	43.016	6.2609e-06	53.265	197.644	261.167	271.740	187.641	279.722	328.265	187.168	191.703	302.500	325.542	191.495	195.281	195.954	200.959	316.083	200.280	-8191	255	
14685.286	1	1	0	0	0.14261	0.34654	0.18571	0.051391	0.044816	0.19498	0.24947	0.019044	0.18482	0.15258	0.32778	0.1045	0.19619	0.16819	0.20998	0.071709	-2.3542	-3.0208	-2.5104	-3.0833	-2.9688	-2.6271	-3.1958	-2.9437	-2.7125	-3.1583	-2.8146	-2.8458	-3.1521	-2.7958	-3.2083	-3.1354	382.684	234.727	484.885	496.121	423.759	408.030	503.308	348.947	526.996	434.972	313.386	517.608	502.307	464.530	419.630	416.155	0.00049326	0.00057009	0.0001487	1366.5	3.7416e-06	2.2031e-06	1363.6	369.23	5.1817e-06	3.4454e-06	421.8	140.56	122.4	42.074	4.057e-06	51.873	0.00056555	0.00058366	0.00016679	1382.4	6.3243e-06	6.4154e-06	1381.5	375.5	6.3283e-06	6.0264e-06	427.81	143.59	124.72	43.099	6.2319e-06	53.378	201.189	269.181	264.648	187.601	314.105	271.926	187.196	191.801	304.533	318.423	191.535	195.601	196.119	201.106	326.897	200.382	-8191	255	
14685.406	1	1	0	0	0.14908	0.20513	0.21286	0.27482	0.25694	0.059358	0.26617	0.31357	0.16672	0.074603	0.091466	0.08054	0.31777	0.16049	0.046605	0.17807	-2.2854	-3.2021	-2.5979	-3.0167	-3.2812	-2.8667	-3.2479	-3.0417	-2.8333	-3.1708	-2.9125	-2.9229	-3.0104	-2.8167	-3.1167	-3.0333	199.796	203.334	325.455	453.767	394.045	358.846	449.072	506.101	480.699	304.507	323.592	188.998	511.600	177.957	438.667	181.168	0.00052535	0.00050112	0.00018008	1372.7	3.2683e-06	5.6462e-06	1363.6	367.83	3.8241e-06	5.7233e-06	421.92	140.36	122.1	41.95	4.4327e-06	51.831	0.00057641	0.00056581	0.00016414	1386.1	6.2153e-06	6.5017e-06	1383	375	6.5886e-06	6.1954e-06	429.33	143.57	124.56	43.077	6.2268e-06	53.343	198.335	267.831	270.557	187.463	295.935	320.037	187.162	191.889	291.957	319.695	191.738	195.395	195.896	201.017	303.065	200.104	-8191	255	
14685.503	1	1	0	0	0.34362	0.029482	0.18968	0.27145	0.25336	0.26002	0.14297	0.24287	0.22684	0.16432	0.15697	0.16498	0.22719	0.11887	0.082271	0.067058	-2.2604	-3.0708	-2.8688	-3.0458	-3.1458	-2.7833	-3.0958	-2.9979	-2.7396	-3.3229	-2.9354	-2.8333	-3.1521	-2.7667	-2.9583	-3.025	180.396	478.159	396.842	431.002	408.638	491.494	219.028	484.087	293.815	223.165	455.245	509.496	268.331	221.085	508.001	489.415	0.0004997	0.0003918	0.00012963	1367.1	4.7402e-06	4.6993e-06	1361.4	368.27	5.3128e-06	4.9401e-06	421.58	139.64	122.31	42.05	4.5149e-06	51.923	0.00057209	0.0005863	0.00016398	1385	6.3234e-06	6.5282e-06	1382.1	375.02	6.5542e-06	6.2101e-06	428.84	143.44	124.75	43.04	6.6251e-06	53.307	197.300	286.781	261.652	187.522	299.697	319.449	187.344	191.937	299.485	313.968	191.720	195.495	195.781	200.996	325.383	200.123	-8191	255	
14685.599	1	1	0	0	0.14587	0.15229	0.22205	0.48267	0.19188	0.1317	0.26932	0.22944	0.32404	0.041768	0.12239	0.31021	0.26549	0.16471	0.22888	0.069919	-2.0167	-3.2583	-2.9667	-2.7729	-3.0021	-2.8438	-3.3833	-3.3125	-2.6458	-3.0792	-3.1521	-2.9938	-3.4375	-2.8646	-2.8354	-3.1937	249.793	257.263	520.565	499.338	352.659	281.938	421.575	498.050	516.096	247.380	494.236	523.192	526.775	173.962	462.493	223.447	0.00049241	0.0005329	0.00012609	1370.1	3.526e-06	4.954e-06	1362	369.45	5.3214e-06	4.9027e-06	420.77	140.26	122.02	42.121	4.1962e-06	51.897	0.00055898	0.00057522	0.0001612	1384.1	6.2605e-06	6.5474e-06	1382.3	375.69	6.346e-06	6.3763e-06	428.59	143.68	124.59	43.145	6.413e-06	53.342	198.536	265.287	271.944	187.582	288.531	331.669	187.416	191.885	284.914	318.407	191.544	195.850	196.260	200.991	307.277	200.197	-8191	255	
14685.695	1	1	0	0	0.018052	0.087943	0.090846	0.096271	0.30828	0.1789	0.3112	0.35304	0.25018	0.14621	0.17579	0.23704	0.10079	0.12484	0.42278	0.090612	-2.1479	-2.9313	-3.0146	-2.8396	-3.1646	-2.7042	-3.15	-3.3271	-2.6437	-3.0583	-2.9479	-2.8417	-3.4708	-2.8417	-2.7729	-3.1729	303.783	533.722	174.553	266.054	217.250	393.691	437.858	501.932	173.962	397.566	531.828	477.504	384.593	175.349	325.865	514.384	0.00050218	0.00049715	0.00018882	1374.2	4.2698e-06	5.0574e-06	1363.7	368.85	5.3069e-06	5.2056e-06	421.48	140.78	122.61	42.153	4.918e-06	51.806	0.00056496	0.00056927	0.00016781	1387.2	6.1755e-06	6.5755e-06	1384.4	375.33	6.4005e-06	6.2885e-06	428.9	143.8	125.04	43.101	6.3977e-06	53.339	200.105	262.014	265.407	187.354	313.253	319.263	187.281	191.768	300.336	307.963	191.594	195.404	195.911	200.951	315.867	200.142	-8191	255	
14685.814	1	1	0	0	0.23071	0.12191	0.19493	0.23033	0.075367	0.13228	0.059509	0.30454	0.052634	0.29775	0.21609	0.13879	0.24391	0.09853	0.055228	0.13194	-2.2188	-2.9854	-2.9104	-2.7979	-3.4146	-2.8979	-2.925	-3.1667	-2.85	-2.8104	-2.8875	-2.7854	-3.325	-2.7958	-2.8042	-3.3458	360.304	357.596	501.246	530.871	403.278	523.460	403.322	451.471	500.619	300.873	200.514	339.930	514.732	336.381	238.573	440.749	0.00050233	0.0006822	0.00019811	1367.1	5.3672e-06	2.7954e-06	1364.9	369.47	5.0835e-06	5.6624e-06	421.1	140.19	122.26	42.071	5.2631e-06	51.645	0.00056753	0.0005821	0.00016807	1384.4	6.3046e-06	6.3956e-06	1382.9	375.42	6.5154e-06	6.4248e-06	428.2	143.61	124.85	43.089	6.4674e-06	53.288	198.717	252.475	262.183	187.421	308.866	330.488	187.148	191.888	297.743	308.435	191.618	195.467	196.119	200.892	304.587	200.150	-8191	255	
14685.910	1	1	0	0	0.19802	0.090782	0.20864	0.11573	0.077741	0.11757	0.047795	0.10678	0.12914	0.1411	0.20431	0.28972	0.13435	0.31598	0.092506	0.11274	-2.1437	-2.9562	-3.1833	-2.7562	-3.0854	-3.0333	-2.9854	-3.3292	-2.8104	-2.8854	-3.1833	-2.8688	-3.0917	-2.8542	-2.6813	-3.3333	354.581	179.698	455.748	487.878	442.368	446.156	352.706	424.673	375.143	314.112	498.997	462.104	441.377	527.960	495.180	261.334	0.00050967	0.00050272	0.00013435	1368.3	4.3309e-06	5.515e-06	1363.7	370.1	4.6391e-06	4.1566e-06	422.14	140.35	122.24	42.19	3.731e-06	51.706	0.00056833	0.00058722	0.00016308	1384.8	6.2605e-06	6.5001e-06	1383.1	375.89	6.4206e-06	6.3965e-06	429.5	143.69	125.05	43.154	6.1322e-06	53.262	195.728	254.083	268.504	187.475	315.010	322.185	187.283	191.960	303.278	340.155	191.550	195.418	196.308	201.132	317.267	200.239	-8191	255	
14685.982	1	1	0	0	0.30393	0.18816	0.11689	0.30839	0.22828	0.10733	0.35278	0.26076	0.14144	0.057397	0.18959	0.12579	0.25351	0.17643	0.078983	0.24277	-2.3708	-2.6021	-3.0271	-2.8708	-3.1562	-2.9917	-2.7875	-3.1125	-2.7562	-3.0687	-3.225	-2.8083	-3.1354	-2.9208	-2.5375	-3.3438	475.843	521.126	359.915	514.681	453.144	381.157	462.898	472.468	398.720	206.957	462.196	484.631	194.260	179.491	186.259	483.139	0.00046741	0.00046581	0.0001447	1369.4	3.9603e-06	3.5509e-06	1364.2	370.3	4.1951e-06	5.1057e-06	422.75	140.46	122.49	42.152	4.0031e-06	51.925	0.00056426	0.00058883	0.00016193	1387.6	6.3603e-06	6.3477e-06	1385.3	376.12	6.3538e-06	6.4929e-06	428.95	143.63	124.92	43.129	6.4959e-06	53.271	200.654	260.440	244.252	187.524	289.619	321.082	187.283	191.758	265.774	319.322	191.787	195.545	195.972	200.997	291.745	200.305	-8191	255	
14686.102	1	1	0	0	0.060289	0.18408	0.21719	0.21787	0.21775	0.096917	0.22913	0.21291	0.30615	0.22088	0.23741	0.30337	0.10924	0.18686	0.35394	0.18996	-2.4208	-2.6479	-3.1792	-2.8187	-3.2146	-2.9604	-2.7083	-3.1104	-3	-2.7229	-3.1688	-2.5292	-3.1188	-3.15	-2.6042	-3.0542	430.208	294.720	337.600	468.180	301.901	252.905	495.856	458.536	180.330	175.906	395.812	512.223	314.115	370.166	274.221	204.273	0.00049193	0.00056064	0.00013933	1367	4.5972e-06	4.244e-06	1363.8	370.19	4.9072e-06	5.6571e-06	422.24	140.25	122.24	41.953	4.6896e-06	51.975	0.00056868	0.00059737	0.00016223	1384.6	6.4953e-06	6.3323e-06	1383.1	375.45	6.3195e-06	6.4515e-06	428.41	143.47	124.82	43.025	6.4766e-06	53.392	199.283	272.001	270.222	187.477	294.397	312.916	187.278	191.738	284.790	340.210	191.880	195.590	196.043	200.857	314.778	200.391	-8191	255	
14686.198	1	1	0	0	0.10366	0.23119	0.10737	0.12994	0.16525	0.049368	0.20131	0.15006	0.11392	0.29641	0.19198	0.25361	0.040912	0.15876	0.066629	0.21015	-2.4854	-2.8396	-3.3271	-3.0771	-2.8792	-3.0187	-2.8896	-3.2438	-2.9146	-2.5833	-3.525	-2.8917	-2.7396	-3.2979	-2.7146	-3.0417	530.001	192.686	319.819	448.111	505.115	190.974	491.533	502.491	454.336	360.451	452.530	423.124	190.030	511.434	435.474	522.762	0.000506	0.00049868	0.00010401	1368.7	4.8202e-06	4.4873e-06	1366.3	369.98	4.7022e-06	4.7827e-06	421.91	140.79	122.24	42.162	5.1555e-06	51.705	0.0005638	0.00058601	0.00015821	1385.1	6.3142e-06	6.4077e-06	1383.2	375.8	6.703e-06	6.4144e-06	428.89	143.65	124.74	43.072	6.2762e-06	53.187	199.106	257.081	262.196	187.237	305.771	307.516	187.070	192.038	291.725	306.066	191.498	195.292	196.119	200.898	305.375	200.458	-8191	255	
14686.295	1	1	0	0	0.17303	0.0448	0.16124	0.26058	0.047306	0.028752	0.35164	0.26035	0.25974	0.040904	0.16985	0.19337	0.11408	0.29653	0.13305	0.44471	-2.4167	-2.8812	-2.8333	-2.8104	-2.5583	-3.2687	-2.9271	-3.05	-2.7708	-2.5521	-3.3167	-3.0792	-2.9896	-3.2687	-2.9292	-3.0479	410.798	293.677	277.841	491.972	300.102	495.088	459.657	504.809	455.629	424.769	406.944	466.529	190.227	486.635	207.571	503.348	0.00052875	0.00061693	0.00014527	1368.8	4.2818e-06	5.3054e-06	1360.9	368.69	2.6054e-06	5.2855e-06	423.6	140.18	122.51	41.975	3.5682e-06	51.866	0.00056222	0.00059513	0.00016384	1386.6	6.4996e-06	6.4665e-06	1381.9	375.24	6.3563e-06	6.276e-06	428.92	143.43	124.86	43.075	6.5203e-06	53.326	197.111	267.358	271.384	187.562	304.507	312.545	187.386	191.932	288.841	317.832	191.629	195.414	195.817	201.213	302.424	200.036	-8191	255	
14686.391	1	1	0	0	0.13158	0.061932	0.31219	0.2105	0.14707	0.12668	0.25494	0.27971	0.18629	0.065064	0.32129	0.39245	0.17979	0.14599	0.094253	0.30062	-2.8312	-2.5854	-3.2125	-3.3604	-2.6458	-3.3146	-3.0375	-2.8958	-2.9813	-2.6458	-3.1854	-2.9604	-2.8875	-3.2812	-2.7208	-3.0479	177.607	230.786	254.910	464.421	348.191	293.023	375.723	266.743	228.563	232.443	192.781	465.591	531.160	208.349	384.846	189.036	0.00048931	0.00042597	0.00018896	1366.2	4.0427e-06	6.5283e-06	1366.8	368.43	5.3381e-06	5.3314e-06	421.92	140.54	122.2	42.143	6.1426e-06	51.906	0.00056707	0.0005902	0.00016643	1384.1	6.4708e-06	6.428e-06	1382.8	375.47	6.619e-06	6.5572e-06	428.55	143.61	124.84	43.025	6.4613e-06	53.261	197.440	264.279	265.654	187.567	304.021	317.976	187.311	192.131	300.142	326.435	191.428	195.355	196.238	200.985	302.851	200.178	-8191	255	
14686.511	1	1	0	0	0.20983	0.218	0.12082	0.24456	0.039017	0.20136	0.13407	0.39528	0.18954	0.046041	0.15677	0.1832	0.1541	0.061427	0.073102	0.040673	-2.4042	-2.8167	-3.0271	-3.1417	-2.5146	-3.1667	-3.1437	-2.9875	-3.0417	-2.6479	-3.0667	-3.2396	-2.7375	-2.9938	-2.9021	-3.0271	421.748	195.037	382.973	525.938	475.977	389.430	477.016	464.607	365.284	331.054	215.128	225.152	513.177	503.260	324.885	525.091	0.00045718	0.0003999	0.00013502	1370.3	2.6537e-06	4.216e-06	1364.5	369.03	5.5622e-06	4.9719e-06	423.94	140.33	122.02	42.009	5.6687e-06	51.789	0.00055474	0.00059962	0.00016152	1384.8	6.5533e-06	6.4071e-06	1383.8	375.45	6.2596e-06	6.6657e-06	429.46	143.66	124.82	43.011	6.5117e-06	53.205	201.902	276.423	272.670	187.570	311.525	317.677	187.053	191.955	295.732	361.103	191.423	195.463	195.910	200.787	303.904	200.542	-8191	255	
14686.583	1	1	0	0	0.1268	0.13295	0.13613	0.1706	0.090137	0.1588	0.33705	0.46475	0.17922	0.3008	0.052044	0.16063	0.11591	0.049675	0.10431	0.13669	-2.6792	-2.625	-3.0563	-3.4021	-2.725	-3.1708	-3.0271	-2.7708	-3.2833	-2.7042	-3.0854	-3.1729	-2.55	-3.2979	-2.9271	-3.0687	212.209	219.501	207.407	223.367	434.292	200.024	416.265	446.351	187.766	178.741	378.890	247.857	178.754	420.658	527.096	496.248	0.00051043	0.0006051	0.00011168	1367	5.1493e-06	5.0177e-06	1361.4	369.13	4.1045e-06	4.0077e-06	422.9	140.42	122.41	41.974	5.1793e-06	51.879	0.00055616	0.00057737	0.00016199	1384.8	6.429e-06	6.5777e-06	1383.1	375.42	6.2831e-06	6.5845e-06	428.91	143.51	125.02	43	6.6526e-06	53.334	200.495	277.775	257.519	187.493	315.164	330.039	187.234	191.731	298.460	333.933	191.626	195.295	195.959	201.030	305.891	200.291	-8191	255	
14686.679	1	1	0	0	0.11162	0.39435	0.2101	0.14878	0.15839	0.080606	0.1622	0.0043056	0.29262	0.19956	0.34569	0.32807	0.16303	0.22752	0.063728	0.021722	-2.7521	-2.6771	-2.7042	-3.1354	-2.4458	-3.2708	-3.1188	-2.8438	-3.1333	-2.7583	-2.9396	-3.4333	-2.925	-3.0438	-2.8875	-2.7479	516.074	243.820	516.936	398.879	220.628	313.284	409.290	210.336	429.398	175.467	489.646	531.619	461.357	505.071	353.310	434.635	0.00049691	0.00055946	0.00016022	1365	4.0438e-06	3.9243e-06	1363.2	370.39	5.4114e-06	3.7489e-06	422.05	140.48	122.04	41.972	6.4863e-06	51.799	0.00056021	0.00058591	0.00016658	1384.2	6.621e-06	6.5034e-06	1384.3	376.02	6.2969e-06	6.5125e-06	428.92	143.63	124.94	43.034	6.6358e-06	53.297	197.221	265.667	264.351	187.432	293.244	338.486	187.150	191.958	288.387	312.062	191.645	195.437	195.991	200.943	307.296	200.323	-8191	255	
14686.775	1	1	0	0	0.097533	0.14251	0.31503	0.078329	0.090134	0.22555	0.086718	0.11883	0.13939	0.010925	0.13217	0.054469	0.20646	0.19228	0.16573	0.23007	-2.7271	-2.9833	-2.8583	-3.1667	-2.6333	-3.1021	-3.2812	-2.8771	-2.95	-2.9417	-3.0958	-3.2938	-2.7	-2.7646	-3.0438	-3.0208	490.829	230.161	206.893	441.743	193.377	323.806	203.917	462.479	440.117	432.388	519.243	185.986	305.364	507.451	451.464	487.074	0.00050451	0.00054907	0.00012194	1371.2	3.3905e-06	3.6329e-06	1366	370.64	4.8622e-06	4.8587e-06	423.71	140.73	122.29	42.084	3.6283e-06	52.155	0.00057678	0.00058561	0.00017214	1387.8	6.6758e-06	6.9792e-06	1385.7	376.2	6.6524e-06	6.7681e-06	430.58	143.8	125.1	43.138	6.6958e-06	53.454	198.763	251.611	254.006	187.395	301.486	330.242	187.219	191.750	284.646	333.103	191.570	195.390	195.905	200.913	313.116	199.990	-8191	255	
14686.894	1	1	0	0	0.13794	0.12942	0.40299	0.30401	0.087899	0.08762	0.22305	0.31209	0.17956	0.14317	0.31251	0.37293	0.23725	0.088888	0.17314	0.27699	-2.5354	-2.8646	-2.9458	-3.4333	-2.7417	-2.8646	-3.2438	-2.7917	-2.9562	-2.675	-2.75	-3.3187	-2.8667	-2.8063	-3.2021	-2.7354	489.340	384.664	372.456	286.884	293.698	433.250	459.716	480.638	331.731	311.986	283.868	519.516	411.688	213.246	230.368	415.476	0.00047493	0.00045631	0.00016677	1376.1	3.5551e-06	6.2021e-06	1371.8	370.8	4.623e-06	3.6014e-06	422.29	141.32	122.5	42.152	3.8021e-06	52.067	0.00057887	0.00061752	0.00017365	1391.3	6.7646e-06	6.7641e-06	1389.4	377.17	6.6789e-06	6.7131e-06	429.38	144.12	125.25	43.16	6.6801e-06	53.452	199.711	263.658	280.754	187.494	316.633	310.261	187.068	191.778	291.996	331.423	191.217	195.407	196.241	200.965	323.501	200.347	-8191	255	
14686.990	1	1	0	0	0.07495	0.11503	0.19171	0.39741	0.24217	0.24679	0.35281	0.2194	0.1049	0.13176	0.18255	0.030852	0.19851	0.10264	0.18689	0.026971	-2.6208	-2.8375	-2.6375	-3.4333	-2.7417	-2.9479	-3.2792	-2.8708	-2.8583	-3.0396	-2.8271	-3.1125	-2.8479	-2.8438	-3.2333	-2.8833	282.861	182.349	267.479	475.185	396.552	272.389	479.348	213.191	408.081	501.160	321.799	208.787	489.333	295.319	382.226	442.482	0.00048694	0.00044355	9.8469e-05	1372.3	3.589e-06	5.3448e-06	1367.5	370.75	5.2637e-06	4.0049e-06	423.53	140.36	121.43	42.041	5.5054e-06	52.071	0.00058568	0.00061689	0.00017276	1390.1	6.7814e-06	6.9484e-06	1387.5	377.2	7.001e-06	6.6379e-06	429.73	143.7	124.65	43.063	6.5697e-06	53.307	199.207	256.982	254.712	187.381	302.496	310.037	187.375	191.808	288.067	337.958	191.444	195.548	195.689	200.851	312.087	200.263	-8191	255	
14687.086	1	1	0	0	0.087577	0.062861	0.18188	0.16518	0.1855	0.040305	0.29217	0.13576	0.14909	0.095923	0.25809	0.22137	0.070037	0.051919	0.099423	0.041415	-2.3417	-2.9146	-2.6396	-3.275	-2.8021	-2.8	-3.2875	-2.8438	-2.9062	-3.125	-2.65	-2.9104	-3.1312	-2.9562	-3.0542	-2.6833	334.847	437.943	496.035	241.255	212.227	385.818	447.768	511.270	350.985	385.428	320.227	448.613	206.992	515.235	464.347	500.267	0.00052452	0.00046151	0.00014912	1370.3	3.1678e-06	6.3299e-06	1361.9	370.83	4.9419e-06	5.2489e-06	420.76	141.27	121.84	42.101	4.7241e-06	51.87	0.00058241	0.00060801	0.00017781	1386.9	6.6652e-06	7.048e-06	1384.1	376.39	6.7639e-06	6.7659e-06	428.73	143.77	124.92	43.09	6.851e-06	53.343	199.382	277.098	271.939	187.495	300.661	344.030	187.211	191.831	283.736	321.058	191.729	195.694	196.128	200.957	293.655	200.256	-8191	255	
14687.183	1	1	0	0	0.06975	0.051348	0.081018	0.14607	0.21441	0.24001	0.40167	0.21129	0.048516	0.16252	0.19861	0.10522	0.14598	0.18092	0.21464	0.18419	-2.5667	-2.9	-2.4875	-3.1312	-2.8667	-2.8167	-3.3521	-2.9917	-2.8396	-2.9646	-2.7875	-2.925	-2.8458	-2.7167	-3.2021	-2.925	524.183	427.466	395.661	192.832	190.993	441.819	496.265	509.141	346.723	249.674	520.869	450.789	501.481	178.430	296.217	497.871	0.00048377	0.00039316	0.00017195	1369.6	4.298e-06	2.9236e-06	1361.7	369.44	4.8739e-06	2.1302e-06	422.92	140.33	122.15	41.975	4.5066e-06	51.783	0.00058831	0.00059313	0.00017272	1386.7	6.6743e-06	6.8296e-06	1384.6	375.74	6.8586e-06	6.6439e-06	429.23	143.68	124.82	43.03	6.5814e-06	53.297	200.472	271.732	251.572	187.490	285.136	327.338	187.200	192.035	303.278	306.840	191.598	195.468	196.031	201.172	305.709	200.325	-8191	255	
14687.279	1	1	0	0	0.24506	0.095683	0.055489	0.24682	0.10999	0.31473	0.20136	0.1124	0.12442	0.17353	0.26364	0.07404	0.16783	0.10663	0.24649	0.37092	-2.3375	-2.9375	-2.5292	-3.075	-3.1083	-2.8396	-3.25	-2.9333	-2.8875	-3.2042	-2.6104	-2.9646	-3.0062	-2.7583	-3.0583	-3.0583	285.116	433.069	197.469	513.176	258.488	425.389	516.802	528.403	215.843	474.376	517.543	184.734	503.324	468.729	280.608	502.970	0.00049858	0.00066124	0.00016957	1371.2	4.4583e-06	3.7179e-06	1365.3	370.82	4.5143e-06	4.7406e-06	420.43	140.38	121.88	41.85	3.6965e-06	51.944	0.00057836	0.00060025	0.00017422	1386.9	6.4261e-06	6.6184e-06	1385.8	376.35	6.9411e-06	6.5916e-06	428.84	143.67	124.81	43.025	6.4791e-06	53.302	197.280	263.863	267.607	187.433	311.334	331.850	187.378	191.887	300.705	304.734	191.364	195.185	196.006	201.034	301.653	200.390	-8191	255	
14687.375	1	1	0	0	0.30172	0.20138	0.26703	0.16702	0.24334	0.32687	0.19601	0.13436	0.097972	0.068614	0.20674	0.11979	0.10459	0.22919	0.10444	0.33312	-2.1708	-3.1125	-2.5792	-3.1437	-2.9458	-2.5625	-3.3271	-3.0563	-2.65	-3.0042	-2.7917	-2.9396	-3.1375	-2.7479	-2.9375	-3.0146	458.150	198.362	316.496	211.081	490.335	481.260	482.634	217.945	340.070	387.070	191.311	357.372	448.928	176.701	386.052	454.079	0.00052289	0.00048536	0.00012664	1369.3	3.9855e-06	5.2889e-06	1363.4	368.72	5.1297e-06	3.3878e-06	422.64	139.66	121.75	41.956	3.5999e-06	51.599	0.00058775	0.00060855	0.00017195	1386.6	6.5404e-06	6.7872e-06	1384.8	375.57	6.7432e-06	6.4815e-06	429.58	143.57	124.75	43.058	6.7777e-06	53.202	198.450	253.799	270.386	187.407	294.761	329.592	187.135	191.897	293.104	296.568	191.682	195.677	196.020	201.070	303.359	200.360	-8191	255	
14687.496	1	1	0	0	0.26423	0.13708	0.28969	0.53653	0.1353	0.15361	0.18461	0.35677	0.11545	0.24867	0.22844	0.29938	0.086413	0.19518	0.16569	0.21279	-2.2146	-2.8042	-2.75	-2.9792	-2.9104	-2.4354	-3.2271	-3.0354	-2.5979	-3.1417	-2.9271	-2.7229	-2.9958	-2.7375	-2.9688	-3.0646	298.374	253.074	211.083	479.491	334.413	447.620	281.927	407.059	508.553	505.243	424.964	512.984	217.715	215.468	186.596	198.423	0.00049315	0.00068568	0.00010977	1369.1	4.0412e-06	2.5084e-06	1361.1	369.38	4.4776e-06	3.8379e-06	422.88	140.32	122.26	42.075	3.5686e-06	51.775	0.00056973	0.00061269	0.00016921	1386.3	6.4112e-06	6.7163e-06	1383.8	375.89	6.6877e-06	6.433e-06	429.34	143.46	124.99	43.061	6.6836e-06	53.341	197.146	272.234	278.841	187.458	307.369	297.741	187.370	191.887	286.585	331.765	191.450	195.389	196.218	201.057	286.897	200.270	-8191	255	
14687.592	1	1	0	0	0.077345	0.18345	0.15148	0.09444	0.10767	0.23674	0.10528	0.063392	0.20596	0.16681	0.085689	0.16974	0.14181	0.028205	0.036497	0.24485	-1.9688	-3.0646	-2.7146	-2.9146	-3.1104	-2.5563	-3.0958	-3.1625	-2.7083	-3.1583	-2.7229	-2.725	-3.3146	-2.7188	-2.9167	-3.125	325.499	476.439	519.948	484.430	376.693	326.187	261.508	444.959	424.065	525.225	511.286	533.583	347.036	420.879	473.302	507.071	0.0004772	0.00052548	0.00012721	1373.5	2.3428e-06	5.4985e-06	1364.5	369.2	5.1216e-06	3.1393e-06	422.87	140.41	121.97	41.892	4.009e-06	52.122	0.00057118	0.00060445	0.00016837	1387.2	6.3272e-06	6.8307e-06	1384.2	375.36	6.5267e-06	6.5823e-06	429.67	143.45	124.6	43.064	6.6261e-06	53.432	196.227	250.118	264.290	187.474	321.208	322.992	187.392	191.998	295.254	310.486	191.710	195.399	196.154	200.783	305.351	199.986	-8191	255	
14687.686	1	1	0	0	0.089471	0.24108	0.13542	0.23442	0.068641	0.14933	0.29066	0.16344	0.16599	0.23983	0.17127	0.32498	0.062517	0.12772	0.21298	0.26554	-2.0917	-2.9667	-2.9437	-2.8646	-3.1562	-2.5479	-3.0042	-3.5104	-2.7042	-3.0229	-3.0396	-2.7062	-3.0667	-2.6708	-2.8771	-3.3187	485.678	202.815	443.381	504.793	456.163	523.992	406.394	515.420	228.678	254.886	212.273	464.565	477.842	239.811	220.989	469.394	0.00049901	0.00050323	0.00014113	1371.9	4.639e-06	6.3759e-06	1366.5	368.53	5.1462e-06	5.8888e-06	420.08	141.05	122.04	41.913	3.8176e-06	52.022	0.00058249	0.00062538	0.00016807	1388.6	6.5533e-06	6.5777e-06	1385.1	375.47	6.9367e-06	6.5518e-06	428.68	143.7	124.93	43.06	6.5397e-06	53.386	197.412	251.729	263.617	187.480	302.076	319.594	187.210	191.753	301.343	320.267	191.640	195.566	196.093	200.892	301.166	200.321	-8191	255	
14687.807	1	1	0	0	0.17395	0.22237	0.24349	0.31051	0.15189	0.10425	0.18961	0.12693	0.32115	0.14552	0.22976	0.25555	0.29657	0.22205	0.17631	0.20139	-2.1688	-3.0083	-3.1333	-2.5896	-3.0938	-2.7625	-2.9375	-3.2729	-2.6271	-3.0021	-2.9021	-2.6104	-3.0417	-2.6771	-2.6021	-3.2167	217.761	299.035	424.703	176.107	195.205	488.533	405.970	510.097	381.646	229.737	531.934	502.702	507.276	490.843	522.987	247.841	0.000476	0.00061756	0.00016325	1376	3.2304e-06	5.8092e-06	1360.2	370.57	4.6297e-06	5.3287e-06	421.77	140.94	121.18	42.107	4.7568e-06	52.015	0.00058029	0.00062396	0.00017154	1389.2	6.5178e-06	6.8274e-06	1384.5	375.94	6.5414e-06	6.6035e-06	428.25	143.77	124.67	43.051	6.6531e-06	53.329	198.508	272.153	271.326	187.464	300.159	327.279	187.253	191.955	294.992	311.589	191.617	195.339	195.917	201.317	310.918	200.101	-8191	255	
14687.878	1	1	0	0	0.14995	0.094358	0.12213	0.42098	0.05837	0.12511	0.26894	0.19239	0.080572	0.15738	0.060196	0.18202	0.22119	0.14182	0.083014	0.044203	-2.0146	-2.75	-2.9271	-2.8729	-3.075	-2.8688	-2.7542	-3.0812	-2.7396	-2.8333	-3.2083	-2.6479	-2.9958	-3.125	-2.5896	-3.0958	397.625	388.691	430.072	504.138	393.247	444.334	504.021	495.753	465.130	253.990	490.023	519.540	479.211	470.088	440.138	389.805	0.00050029	0.00050697	0.00014578	1369.6	3.4061e-06	4.854e-06	1357.9	368.79	5.9851e-06	5.449e-06	421.95	140.02	121.77	41.78	5.5809e-06	51.722	0.00056992	0.00060064	0.00016507	1386.1	6.3474e-06	6.6816e-06	1383	375.25	6.7761e-06	6.7643e-06	428.15	143.38	124.63	42.932	6.6765e-06	53.222	199.661	266.750	264.063	187.633	305.015	315.288	187.561	191.734	295.398	320.352	191.478	195.368	196.213	200.717	312.379	200.275	-8191	255	
14687.975	1	1	0	0	0.08796	0.10156	0.12392	0.20769	0.17903	0.28451	0.40029	0.47397	0.13539	0.23867	0.13718	0.37094	0.1093	0.16994	0.30077	0.16942	-2.4771	-2.8063	-3.1354	-2.8021	-2.8708	-2.9229	-2.6688	-3.2	-2.7083	-2.7792	-3.125	-2.5875	-3.1625	-2.9229	-2.4667	-3.2167	378.919	309.108	223.774	522.188	398.785	492.003	475.197	446.442	356.301	353.112	381.938	457.690	488.545	515.301	431.358	174.841	0.00050707	0.00044366	0.00016653	1372.6	5.0424e-06	6.4597e-06	1359.8	369.94	4.5915e-06	5.5517e-06	421	140.52	122.28	42.021	4.1151e-06	51.885	0.00058928	0.00060167	0.00016464	1385.3	6.4146e-06	6.7102e-06	1382.3	375.6	6.6431e-06	6.6564e-06	428.48	143.34	124.62	42.964	6.6083e-06	53.33	199.684	266.329	248.135	187.709	301.449	316.376	187.128	191.873	287.037	339.235	191.634	195.388	195.980	201.118	303.286	200.467	-8191	255	
14688.071	1	1	0	0	0.29021	0.012586	0.20692	0.065753	0.071721	0.10175	0.25989	0.087397	0.32096	0.057761	0.10781	0.1916	0.027126	0.19482	0.23229	0.033924	-2.4958	-2.7562	-3.2583	-2.7083	-2.7188	-3.0167	-2.9688	-3.3208	-2.8063	-2.7854	-3.0438	-2.9646	-2.7417	-3.0312	-2.6333	-2.9542	424.556	332.400	201.460	424.071	417.073	213.762	484.772	474.986	428.274	184.833	196.182	524.562	457.480	292.810	176.041	514.777	0.00048026	0.00058951	0.00010875	1370.3	3.4972e-06	4.7639e-06	1368	369.53	5.8162e-06	5.5168e-06	421.04	140.31	122.26	42.088	4.7187e-06	51.911	0.00057745	0.00059728	0.00016731	1386	6.4712e-06	6.7201e-06	1384.7	375.74	6.675e-06	6.6155e-06	428.45	143.56	124.86	43.091	6.6429e-06	53.271	200.286	263.265	285.168	187.589	297.338	333.880	187.253	191.796	296.887	317.907	191.573	195.306	196.052	200.863	305.192	200.175	-8191	255	
14688.191	1	1	0	0	0.096438	0.31202	0.12328	0.21728	0.12235	0.1149	0.27821	0.12891	0.13446	0.19919	0.14241	0.20331	0.027408	0.099156	0.15163	0.24575	-2.425	-2.6771	-3.1167	-2.7687	-2.7646	-3.125	-2.8417	-2.9792	-2.8104	-2.6958	-2.95	-2.775	-2.7708	-3.2542	-2.5146	-2.8812	345.398	519.447	460.518	457.481	230.716	332.545	491.353	520.272	271.552	462.598	419.402	497.107	364.734	233.478	438.772	400.077	0.00050206	0.00051885	0.0001087	1370.5	4.1677e-06	4.9835e-06	1361.8	369.94	6.1475e-06	4.7664e-06	422.41	140.44	121.44	41.996	4.0726e-06	51.887	0.00056592	0.00061801	0.00017059	1387.6	6.754e-06	6.6365e-06	1383.6	375.64	6.8198e-06	6.815e-06	428.72	143.62	124.62	42.973	6.6485e-06	53.314	199.093	253.088	245.417	187.435	306.759	343.808	187.228	191.842	291.526	319.215	191.724	195.612	196.304	201.272	307.646	200.492	-8191	255	
14688.287	1	1	0	0	0.10877	0.18908	0.13666	0.30269	0.25406	0.19702	0.18943	0.093715	0.12893	0.15836	0.049712	0.28523	0.23788	0.17542	0.18818	0.26961	-2.8021	-2.7125	-2.9833	-3.0042	-2.6771	-3.1833	-2.8563	-3.0125	-2.9188	-2.7021	-3.2562	-3	-2.95	-3.1396	-2.5312	-2.8604	429.951	265.995	419.272	185.866	405.458	393.386	458.333	529.204	210.688	265.617	181.231	481.344	511.436	224.649	182.324	494.150	0.00050253	0.00042111	0.00014003	1364.2	4.347e-06	4.594e-06	1362.6	368.86	5.4342e-06	5.8473e-06	421.14	139.87	122.32	41.792	3.8739e-06	51.809	0.00057477	0.00058586	0.00016597	1384.3	6.61e-06	6.4423e-06	1382.1	375.12	6.5061e-06	6.6897e-06	428.66	143.08	124.78	42.928	6.4812e-06	53.236	198.857	271.697	276.450	187.466	289.198	335.930	187.222	192.004	300.850	330.215	191.279	195.278	195.957	200.999	310.870	200.219	-8191	255	
14688.384	1	1	0	0	0.065681	0.22346	0.043241	0.34772	0.16287	0.26575	0.2949	0.13995	0.2243	0.10451	0.19614	0.3801	0.14818	0.13264	0.28022	0.25897	-2.5625	-2.6229	-2.925	-3.0187	-2.7146	-3.1771	-2.9229	-3.0521	-3.0979	-2.4292	-3.1708	-3.0958	-2.7229	-3.2625	-2.6063	-2.9604	364.760	379.802	265.108	488.247	211.347	446.700	463.415	477.511	303.686	481.707	198.428	532.395	226.690	227.977	200.795	438.096	0.0004803	0.00040399	0.00012058	1373	4.7424e-06	2.9252e-06	1367.5	368.9	5.6373e-06	3.4003e-06	420.95	139.68	121.46	41.827	5.9732e-06	51.934	0.00056396	0.00061245	0.00016864	1384.9	6.7166e-06	6.5386e-06	1383.6	375.73	6.4118e-06	6.6989e-06	428.84	143.16	124.63	43	6.6912e-06	53.283	200.465	256.084	277.623	187.576	294.794	324.634	187.628	191.839	290.133	318.720	191.551	195.560	195.951	200.986	308.841	200.165	-8191	255	
14688.455	1	1	0	0	0.279	0.22291	0.26216	0.21309	0.22357	0.11682	0.19668	0.14543	0.20268	0.11539	0.1505	0.24868	0.15858	0.3082	0.12611	0.1717	-2.5417	-2.5854	-2.9583	-3.1125	-2.5687	-2.975	-2.9562	-2.8458	-3.2979	-2.6958	-3.1625	-3.0708	-3.0062	-3.0854	-2.6958	-2.8667	336.445	296.880	380.826	529.414	403.140	424.858	512.217	507.737	482.080	362.822	512.822	223.405	512.688	397.931	430.607	452.423	0.00049072	0.00056594	0.00012473	1366.8	3.3428e-06	4.0275e-06	1362.6	368.98	5.3709e-06	5.4701e-06	422.6	139.6	121.69	42.132	4.1933e-06	51.887	0.00056903	0.00060864	0.00017209	1384.3	6.3186e-06	6.6294e-06	1382.9	375.4	6.5561e-06	6.5218e-06	428.56	143.26	124.7	43.029	6.4471e-06	53.222	196.373	271.994	248.324	187.455	275.561	287.518	186.959	192.025	297.327	346.478	191.515	195.513	195.994	201.096	305.522	200.266	-8191	255	
14688.576	1	1	0	0	0.16201	0.12433	0.10634	0.11054	0.14757	0.1495	0.14158	0.20879	0.13023	0.037229	0.19054	0.15379	0.051493	0.13921	0.037402	0.041827	-2.475	-2.3875	-2.9458	-3.2833	-2.6771	-2.8854	-2.8333	-2.7375	-3.0458	-2.8625	-3.2208	-3.125	-2.7229	-3.0146	-2.7958	-2.7333	494.210	247.173	515.157	465.983	192.408	215.637	175.972	419.188	333.942	421.936	433.512	492.306	235.547	320.110	466.513	397.899	0.00052025	0.00056445	0.00013324	1368	5.0504e-06	5.2496e-06	1361	370.13	5.073e-06	6.5812e-06	421.67	140.06	122.5	42.029	5.1017e-06	52.156	0.00057592	0.00059869	0.00016943	1385.5	6.4304e-06	6.4825e-06	1383.6	376.01	6.4368e-06	6.4433e-06	428.35	143.45	124.9	43.012	6.5096e-06	53.324	199.192	249.598	257.375	187.492	301.402	327.127	187.136	192.001	291.008	332.233	191.495	195.281	196.314	201.142	307.994	200.004	-8191	255	
14688.672	1	1	0	0	0.10629	0.24832	0.14281	0.32999	0.035332	0.078307	0.15487	0.079965	0.11643	0.1191	0.1563	0.23981	0.26359	0.14677	0.06432	0.1657	-2.7729	-2.7208	-2.8208	-3.0271	-2.6125	-2.9646	-2.9646	-2.75	-3.1083	-2.7875	-3.0583	-3.1333	-2.6104	-2.9521	-2.8417	-2.6479	432.115	194.009	327.742	527.093	220.440	479.216	396.025	213.006	319.082	325.418	277.137	483.813	193.142	220.940	432.071	433.746	0.00047761	0.00046411	0.00015648	1371.6	4.1749e-06	3.8851e-06	1361.3	370.13	5.2709e-06	5.7559e-06	422.63	140.5	122.32	41.92	5.7444e-06	51.854	0.00055876	0.00059318	0.00016373	1387.7	6.7425e-06	6.5942e-06	1382.8	375.9	6.6548e-06	6.5867e-06	429.14	143.35	124.72	43.033	6.5539e-06	53.311	200.596	264.849	276.510	187.520	311.953	300.678	187.293	192.077	291.081	330.894	191.400	195.386	196.144	201.172	295.827	200.270	-8191	255	
14688.768	1	1	0	0	0.1465	0.087135	0.13192	0.36756	0.13324	0.086385	0.1611	0.3704	0.16291	0.13332	0.25846	0.1165	0.19728	0.43548	0.080197	0.11808	-2.4562	-2.6229	-2.6667	-3.3979	-2.6875	-2.8583	-3.0458	-2.5875	-3.1208	-2.8542	-2.825	-3.2583	-2.7625	-2.7	-2.9208	-2.9042	432.054	303.792	230.505	486.705	258.367	506.305	428.402	520.944	204.101	263.078	192.281	400.849	500.570	470.621	495.671	425.834	0.00049448	0.0005221	0.00016547	1366.7	3.8296e-06	4.7208e-06	1360.5	368.88	4.9208e-06	2.3801e-06	421.42	139.81	122.22	42.047	3.8496e-06	51.907	0.00056817	0.00060913	0.00017125	1385.4	6.4031e-06	6.4671e-06	1382.4	375.47	6.4349e-06	6.4488e-06	428.78	143.39	124.82	43.016	6.4308e-06	53.392	198.273	258.055	272.879	187.398	307.039	304.870	187.210	191.839	286.975	339.271	191.684	195.475	195.944	200.732	318.329	200.208	-8191	255	
14688.887	1	1	0	0	0.23852	0.14367	0.10239	0.33072	0.16259	0.17886	0.20319	0.15496	0.13129	0.21662	0.15029	0.081194	0.20904	0.087142	0.21092	0.20822	-2.6229	-2.7417	-2.5583	-3.1333	-2.7354	-3.0625	-3.0563	-2.6604	-2.9521	-3.0875	-2.7667	-3.2271	-2.7167	-2.9083	-3.1208	-2.6375	251.477	191.670	329.772	189.034	441.674	314.719	455.412	190.616	476.114	375.685	469.555	181.189	473.061	232.750	403.004	494.943	0.00050492	0.00053143	0.00015984	1373.6	3.1138e-06	3.5588e-06	1364.2	369.06	5.4429e-06	4.6519e-06	420.95	139.61	121.63	41.813	3.7333e-06	52.078	0.00056504	0.00057864	0.0001675	1389.1	6.5337e-06	6.3389e-06	1383.7	375.6	6.4437e-06	6.4166e-06	428.95	143.33	124.6	42.965	6.3657e-06	53.364	199.616	248.089	282.536	187.553	306.527	340.130	187.113	191.806	290.295	326.661	191.448	195.608	195.993	201.029	299.076	200.398	-8191	255	
14688.983	1	1	0	0	0.15421	0.13675	0.27778	0.21055	0.15328	0.15517	0.20185	0.17411	0.14788	0.15263	0.36187	0.34378	0.22687	0.17601	0.11165	0.10979	-2.3667	-3.0146	-2.6813	-3.4813	-2.6271	-2.8083	-3.3479	-2.825	-2.8875	-2.9562	-2.7792	-3.2771	-2.9917	-2.7896	-3.0521	-2.5854	244.223	201.281	354.091	209.003	181.740	252.387	486.333	463.811	531.772	375.111	478.552	430.695	388.927	524.769	265.366	339.314	0.00048489	0.00026054	0.00016138	1372.2	2.7567e-06	5.7288e-06	1362.9	370.18	6.237e-06	5.4914e-06	423.03	140.48	121.79	41.897	4.151e-06	51.94	0.00055316	0.00059581	0.0001656	1388.4	6.3349e-06	6.702e-06	1382.7	375.77	6.6224e-06	6.445e-06	428.8	143.53	124.59	42.972	6.4613e-06	53.314	197.540	276.419	254.450	187.669	310.846	304.182	187.357	191.899	291.696	342.727	191.586	195.274	195.992	201.011	311.948	200.316	-8191	255	
14689.079	1	1	0	0	0.059606	0.23771	0.18919	0.15682	0.36769	0.18187	0.21534	0.14952	0.20479	0.11238	0.22827	0.14204	0.10154	0.15925	0.13066	0.070361	-2.3875	-3.1188	-2.4833	-3.0896	-2.8312	-2.8063	-3.1042	-2.6688	-3.0062	-3.0896	-2.6813	-2.9896	-3.0187	-2.7396	-3.0812	-2.6958	258.603	397.631	213.608	417.060	400.071	185.323	533.557	504.786	431.317	246.942	407.703	397.953	492.439	227.440	489.362	412.745	0.00050186	0.00048267	0.00016725	1370.8	4.4365e-06	2.7387e-06	1368.4	370.14	6.5484e-06	5.7081e-06	420.33	140.29	122.54	41.862	4.1944e-06	51.792	0.00058107	0.00058522	0.00017105	1386.7	6.4271e-06	6.5359e-06	1385.2	375.94	6.4938e-06	6.5098e-06	428.73	143.51	124.93	42.96	6.4339e-06	53.246	197.244	261.391	256.648	187.536	299.595	328.557	187.290	191.794	289.974	310.137	191.486	195.205	196.112	200.965	302.354	200.196	-8191	255	
14689.176	1	1	0	0	0.16999	0.17736	0.28094	0.23609	0.098705	0.18052	0.12626	0.33713	0.13705	0.078036	0.065304	0.25874	0.40417	0.26692	0.16696	0.25235	-2.3958	-3.1104	-2.5625	-3.2104	-2.8896	-2.5729	-3.1667	-2.8104	-2.9104	-3.1354	-2.5771	-2.8896	-2.5687	-2.6	-3.0833	-3.1146	350.267	385.208	506.905	496.954	373.067	196.800	424.953	454.169	239.708	191.992	484.325	382.580	500.664	495.653	531.228	475.966	0.00047907	0.00042279	0.00014914	1371.8	4.7124e-06	5.4026e-06	1362.9	369.34	5.2081e-06	3.5548e-06	422.5	140.51	121.98	42.032	3.0186e-06	51.945	0.00057919	0.00058386	0.00016667	1387.1	6.5121e-06	6.6789e-06	1384.2	375.64	6.6882e-06	6.4057e-06	429.55	143.67	124.73	43.087	6.3998e-06	53.397	199.566	261.119	262.523	187.541	297.689	333.326	187.133	191.911	302.702	329.464	191.618	195.516	196.016	201.135	310.112	200.274	-8191	255	
14689.272	1	1	0	0	0.29037	0.27789	0.068044	0.14005	0.10673	0.11532	0.24072	0.084658	0.14367	0.047136	0.20193	0.20787	0.2044	0.059321	0.22551	0.102	-2.4875	-3.0438	-2.4229	-2.9375	-3.05	-2.7083	-3.375	-2.925	-2.7771	-3.225	-2.7521	-2.8229	-3.1042	-2.9167	-3.2354	-2.8458	265.201	312.204	429.229	492.982	502.405	440.108	441.101	462.809	416.274	387.283	486.924	467.882	189.755	209.087	256.875	380.170	0.00051697	0.0003801	0.0001379	1372.7	3.5124e-06	2.5324e-06	1363.7	369.69	3.9915e-06	3.381e-06	421.44	140.98	122.69	41.858	3.2741e-06	51.849	0.00058676	0.00058254	0.00016554	1388	6.4636e-06	6.8527e-06	1383.8	376.1	6.755e-06	6.2063e-06	428.68	143.79	124.9	43.018	6.6444e-06	53.384	199.693	254.061	271.783	187.457	307.854	318.567	187.182	191.830	294.531	343.563	191.443	195.433	195.882	201.043	302.889	200.344	-8191	255	
14689.368	1	1	0	0	0.065824	0.27222	0.22333	0.31433	0.10591	0.17754	0.14609	0.11988	0.11123	0.14981	0.23178	0.25615	0.10983	0.063648	0.16276	0.039675	-2.4021	-3.1854	-2.6083	-2.9083	-3.0896	-2.7021	-3.1688	-2.7313	-2.6917	-3.3896	-3.0396	-2.9896	-3.0875	-2.7979	-2.8896	-2.9021	489.072	431.588	312.407	454.312	415.700	318.126	450.093	240.842	281.560	316.633	466.752	419.352	428.571	473.662	447.610	492.850	0.00050648	0.00045018	0.00018432	1371.6	5.0446e-06	6.879e-06	1361.9	369.75	5.3277e-06	4.6358e-06	421.48	140.22	121.79	42.008	5.5028e-06	51.94	0.00057179	0.00058513	0.00017172	1387.6	6.5063e-06	6.5463e-06	1384.7	376.24	6.7599e-06	6.5376e-06	428.68	143.43	124.73	43.072	6.5432e-06	53.388	198.326	249.654	262.423	187.580	307.117	331.094	186.980	191.843	292.351	330.278	191.585	195.339	195.988	201.067	310.384	200.474	-8191	255	
14689.488	1	1	0	0	0.087412	0.20115	0.13407	0.16342	0.43023	0.13495	0.14656	0.053775	0.054963	0.29626	0.16139	0.29068	0.12955	0.083456	0.30268	0.081788	-2.15	-3.2292	-2.675	-2.8104	-2.9854	-2.5583	-3.1063	-3.0312	-2.5833	-2.9479	-2.7146	-2.6708	-3.0979	-2.8271	-2.9292	-3.1208	482.639	473.515	502.986	452.552	248.747	174.399	484.842	320.881	300.099	449.746	508.417	203.411	248.408	505.788	468.944	336.222	0.00048683	0.00051122	0.00014825	1371.4	4.1259e-06	5.7626e-06	1363	368.1	6.1823e-06	3.0055e-06	422.99	140.39	122.34	42.04	4.8661e-06	52.033	0.00058381	0.00058249	0.0001682	1388.2	6.4986e-06	6.8098e-06	1385.5	375.57	6.5625e-06	6.5185e-06	429.21	143.83	124.98	43.017	6.4684e-06	53.351	197.941	243.705	274.744	187.507	298.696	316.961	187.145	191.726	297.621	336.255	191.508	195.506	195.871	201.009	302.222	200.627	-8191	255	
14689.583	1	1	0	0	0.23778	0.23956	0.13877	0.10055	0.074104	0.27329	0.20244	0.35369	0.053057	0.10306	0.14235	0.23161	0.18666	0.14756	0.17338	0.046278	-2.3583	-3.0146	-2.7438	-2.6792	-3.0938	-2.6667	-3.1167	-3.1979	-2.5271	-3.0979	-2.975	-2.675	-3.0271	-2.8688	-2.6229	-3.0542	488.091	516.260	524.254	435.616	422.966	217.418	524.201	515.788	443.651	482.622	450.317	512.035	324.560	500.403	261.409	464.169	0.00048664	0.00038054	0.00010526	1370.2	3.8891e-06	3.661e-06	1363.9	370.98	4.2777e-06	4.6529e-06	419.99	139.95	121.92	42.014	3.9637e-06	51.807	0.00056603	0.00057634	0.0001626	1386.3	6.478e-06	6.664e-06	1385.2	376.05	6.2944e-06	6.3545e-06	428.46	143.41	124.75	43.058	6.3698e-06	53.287	199.854	268.689	277.185	187.552	295.019	347.632	187.269	192.010	282.352	315.767	191.339	195.348	195.963	200.927	310.623	200.142	-8191	255	
14689.679	1	1	0	0	0.087159	0.25467	0.12026	0.24128	0.10544	0.31641	0.075183	0.22638	0.034563	0.067854	0.055075	0.13803	0.032181	0.067503	0.24654	0.18625	-2.0167	-2.9896	-2.8271	-2.8646	-2.9792	-2.7167	-3.0271	-3.2229	-2.6396	-2.9375	-2.8792	-2.5396	-2.9396	-2.8271	-2.6583	-3.1292	512.959	190.144	382.985	195.898	415.950	375.427	387.973	434.510	199.238	316.805	386.770	192.982	248.329	176.845	264.265	365.582	0.00050953	0.00064604	0.00017267	1370.7	3.7931e-06	5.1994e-06	1364.3	369.32	4.8775e-06	5.1303e-06	420.86	139.84	122.04	42.163	5.1034e-06	51.948	0.00057606	0.0005842	0.00016497	1387.2	6.4194e-06	6.7102e-06	1384.9	375.34	6.7422e-06	6.294e-06	428.47	143.44	124.85	43.035	6.5463e-06	53.278	197.641	255.110	275.879	187.653	283.850	329.994	187.158	192.124	282.240	326.806	191.329	195.434	196.160	200.985	302.928	200.268	-8191	255	
14689.752	1	1	0	0	0.15575	0.13131	0.18062	0.20772	0.037355	0.15708	0.19445	0.14562	0.14127	0.039496	0.27711	0.097577	0.092502	0.0031349	0.13834	0.13572	-2.1646	-2.9458	-3.0812	-2.9208	-3.2438	-3.0042	-3.0938	-3.125	-2.5104	-2.9625	-3.0167	-2.5729	-3.1333	-2.9625	-2.5563	-2.9167	411.784	176.272	319.760	447.869	213.925	406.394	481.126	200.563	342.915	403.767	480.147	346.883	504.581	236.012	481.344	530.338	0.00049955	0.00056968	0.00013412	1367.7	4.8297e-06	7.6408e-06	1360.7	368.74	4.6707e-06	3.8583e-06	422.86	139.97	122.32	41.909	4.8123e-06	51.789	0.00056992	0.00060596	0.00016514	1385.8	6.3776e-06	6.51e-06	1383.5	374.79	6.726e-06	6.2864e-06	428.35	143.13	124.79	43.024	6.4506e-06	53.234	200.720	260.326	267.043	187.367	294.956	319.623	187.275	191.981	300.161	313.741	191.489	195.329	196.158	201.006	303.744	200.395	-8191	255	
14689.871	1	1	0	0	0.087472	0.18034	0.16859	0.33009	0.08721	0.14216	0.25513	0.11042	0.14236	0.14263	0.1075	0.10054	0.42321	0.082814	0.035729	0.20763	-2.0917	-2.6063	-2.8979	-2.6979	-3.2625	-2.875	-2.8917	-3.1271	-2.7292	-2.7708	-3.3208	-2.8875	-3.1521	-2.9646	-2.4562	-3.075	356.735	482.276	304.108	490.484	315.034	528.212	497.751	472.996	220.995	238.305	219.558	448.326	527.510	275.680	432.609	211.573	0.00049019	0.00061321	8.2445e-05	1367.6	4.1844e-06	3.6156e-06	1361.8	369.34	4.7883e-06	2.7284e-06	421.54	139.96	122.34	41.876	5.8697e-06	51.93	0.00057464	0.00060503	0.00016293	1385.5	6.1443e-06	6.5634e-06	1382.4	375.63	6.5419e-06	6.2608e-06	429.02	143.41	124.76	43.03	6.6333e-06	53.318	199.698	259.265	294.097	187.662	317.953	333.762	187.220	191.773	299.510	305.289	191.667	195.444	196.133	201.268	307.440	200.603	-8191	255	
14689.967	1	1	0	0	0.052768	0.054963	0.32237	0.21813	0.24171	0.11112	0.19639	0.2996	0.22857	0.10704	0.27665	0.067738	0.047404	0.20696	0.18601	0.18225	-2.4167	-2.7479	-3.0375	-2.6625	-2.8958	-3.0458	-2.8	-3.225	-2.7042	-2.9708	-3.3229	-2.8792	-2.9542	-3.1354	-2.6063	-3.1417	427.761	463.285	208.675	513.604	280.505	501.519	495.120	188.054	484.775	353.761	189.500	353.716	289.618	508.300	238.167	318.364	0.00050642	0.00056464	0.00015344	1372.3	4.0931e-06	5.7883e-06	1364	370.07	4.9649e-06	5.1681e-06	423.03	140.33	122.05	42.038	4.4219e-06	51.894	0.00057517	0.0005941	0.00016326	1388.4	6.2269e-06	6.4264e-06	1385	375.4	6.5463e-06	6.3512e-06	428.98	143.46	124.65	43.08	6.6617e-06	53.343	198.994	277.407	272.211	187.513	302.524	345.264	187.015	191.841	297.428	324.984	191.182	195.283	195.956	201.096	332.092	200.267	-8191	255	
14690.064	1	1	0	0	0.13096	0.05974	0.10113	0.09208	0.22849	0.089417	0.15605	0.23985	0.21784	0.16152	0.10051	0.08707	0.078483	0.27233	0.17467	0.12458	-2.2833	-2.525	-3.225	-2.6937	-2.7	-2.825	-3.0417	-3.3979	-2.9854	-2.5167	-3.1979	-2.9625	-2.9375	-2.8708	-2.5958	-3.2979	230.042	416.992	243.630	224.317	421.120	330.933	224.070	528.360	219.710	360.204	330.645	410.202	526.347	473.913	523.178	203.277	0.00046253	0.00047913	0.00016664	1372.8	4.4422e-06	5.713e-06	1362.7	368.65	4.8986e-06	6.372e-06	420.72	140.1	121.92	41.954	4.8969e-06	51.927	0.00055788	0.0005844	0.00015805	1385.1	6.3599e-06	6.5975e-06	1383.1	375.08	6.4781e-06	6.6297e-06	427.93	143.16	124.43	43.017	6.5305e-06	53.273	199.835	252.469	274.435	187.408	321.970	316.037	187.432	191.789	284.469	315.462	191.494	195.457	195.921	201.081	306.014	199.987	-8191	255	
14690.160	1	1	0	0	0.072259	0.084901	0.30116	0.44201	0.17536	0.074407	0.27177	0.22968	0.14617	0.076038	0.050131	0.1342	0.021714	0.25183	0.22737	0.13591	-2.4146	-2.6875	-3.1646	-3.0771	-2.6646	-3.1125	-2.775	-3.0104	-2.775	-2.6646	-3.1625	-2.9437	-2.9333	-3.0875	-2.7125	-3.2687	460.407	334.974	383.480	477.659	298.582	438.516	408.612	439.164	502.298	195.675	403.102	505.754	377.746	501.056	210.086	441.413	0.00049341	0.00039136	0.00011661	1371.2	4.5396e-06	4.6141e-06	1363	368.07	5.3555e-06	5.2549e-06	421.82	140.07	121.81	41.894	4.8596e-06	51.962	0.00056563	0.00058498	0.0001642	1385.5	6.514e-06	6.3917e-06	1382.6	375.28	6.6764e-06	6.7049e-06	428.46	143.46	124.68	43.053	6.7045e-06	53.256	196.729	259.996	256.155	187.494	298.863	316.855	187.011	191.807	296.173	337.306	191.442	195.473	196.024	201.047	313.576	200.224	-8191	255	
14690.256	1	1	0	0	0.23855	0.056759	0.19494	0.32187	0.13129	0.34071	0.22012	0.16264	0.080052	0.031044	0.21992	0.11244	0.12832	0.19201	0.064224	0.12153	-2.6708	-2.4938	-2.9271	-3.0187	-2.7146	-3.1229	-2.9167	-3.0854	-3.0687	-2.4604	-3.0833	-3.0208	-2.7771	-3.0979	-2.7104	-2.9562	278.384	358.833	405.568	521.661	417.299	285.046	174.747	472.852	240.511	181.497	246.140	383.748	220.582	175.139	353.519	525.675	0.00050465	0.00035878	0.00012458	1366.5	5.2453e-06	4.8588e-06	1360.8	368.48	4.5175e-06	4.6351e-06	419.38	140.73	122.16	41.894	4.2216e-06	51.911	0.00057305	0.00060132	0.00017125	1385.3	6.5039e-06	6.6866e-06	1383.7	375.12	6.453e-06	6.754e-06	428.01	143.44	124.49	43.052	6.5956e-06	53.302	198.163	273.707	261.248	187.529	298.431	331.693	187.225	191.910	288.268	344.713	191.563	195.595	196.095	201.103	300.979	200.183	-8191	255	
14690.352	1	1	0	0	0.18532	0.041448	0.18303	0.32641	0.40478	0.2628	0.35166	0.1431	0.17045	0.093359	0.14983	0.14678	0.20328	0.20457	0.046441	0.15275	-2.5312	-2.6167	-3.1396	-2.8438	-2.7146	-3.3958	-2.8354	-3.1333	-3.0667	-2.4958	-3.2229	-2.95	-2.6896	-3.3375	-2.7708	-2.8563	367.157	386.392	304.929	526.684	334.853	311.717	500.491	469.859	320.657	242.357	485.313	245.151	516.665	174.255	452.588	436.348	0.00048178	0.0003322	0.00010776	1369.8	4.6667e-06	5.6425e-06	1362.9	368.51	5.379e-06	4.9618e-06	422.67	140.03	121.79	42.036	4.5009e-06	51.708	0.00056184	0.00061469	0.00016842	1386.2	6.4568e-06	6.614e-06	1382.1	375.08	6.6819e-06	6.5796e-06	428.75	143.58	124.51	43.034	6.6048e-06	53.292	197.365	270.558	293.163	187.418	307.373	339.022	187.127	191.866	292.043	345.382	191.615	195.450	196.189	201.057	304.361	200.382	-8191	255	
14690.448	1	1	0	0	0.27423	0.11695	0.15075	0.2928	0.23157	0.12213	0.28306	0.33557	0.10039	0.060391	0.35033	0.31553	0.29306	0.22936	0.16469	0.19509	-2.5917	-2.5458	-2.9917	-2.85	-2.7062	-3.1583	-2.9354	-2.8563	-2.9854	-2.6833	-3.0021	-2.875	-2.7854	-3.2667	-2.775	-2.7604	185.611	349.813	425.146	516.698	269.695	351.499	466.455	441.588	339.408	530.490	477.313	183.485	202.973	513.542	441.380	443.686	0.00051232	0.00059892	0.00013908	1374.2	3.3517e-06	6.4114e-06	1365.2	369.36	5.8973e-06	5.8337e-06	422.26	139.95	122.06	41.903	4.893e-06	51.935	0.00057295	0.00058557	0.00017091	1386.1	6.7003e-06	6.4445e-06	1382.4	375.04	6.5738e-06	6.5943e-06	428.53	143.26	124.72	43.057	6.6038e-06	53.294	198.663	249.790	256.828	187.640	302.431	332.476	187.193	191.827	296.016	331.739	191.422	195.386	195.567	201.046	297.679	200.200	-8191	255	
14690.569	1	1	0	0	0.03777	0.025699	0.075498	0.069255	0.086249	0.088937	0.21149	0.18621	0.15269	0.31329	0.060499	0.097202	0.19525	0.089164	0.19716	0.2318	-2.7583	-2.5542	-2.9562	-3.1437	-2.5396	-3.0896	-2.9208	-2.9146	-3.0042	-2.7333	-2.8521	-3.0438	-2.3729	-3.0854	-2.8792	-2.9146	222.108	381.752	244.719	243.706	251.067	331.869	418.313	453.525	332.440	467.564	495.115	219.117	454.582	270.703	181.582	436.377	0.00047025	0.00056331	0.000128	1368	3.024e-06	4.7532e-06	1361.3	370.02	5.9751e-06	4.7037e-06	421.21	140.5	121.71	41.952	4.7336e-06	51.866	0.00056091	0.00060591	0.00017162	1385.4	6.5053e-06	6.4874e-06	1381.7	375.79	6.6563e-06	6.6689e-06	428.56	143.42	124.72	43.009	6.3077e-06	53.312	197.635	277.551	261.746	187.509	310.262	317.724	187.248	191.938	299.297	351.071	191.560	195.234	196.071	200.994	293.675	200.241	-8191	255	
14690.665	1	1	0	0	0.22533	0.11578	0.24698	0.24385	0.14537	0.18925	0.1168	0.17879	0.16987	0.058705	0.087196	0.21041	0.22083	0.2197	0.16193	0.13541	-2.6354	-2.6917	-2.6833	-3.2854	-2.7146	-2.8958	-3.1458	-2.7771	-3.225	-2.5833	-2.6708	-3.2146	-2.5271	-3.0438	-2.9562	-2.5625	404.978	309.904	295.169	498.182	197.347	305.048	467.726	213.390	303.664	196.077	515.927	459.981	181.967	280.773	374.611	412.708	0.00051318	0.00038321	0.0001065	1372.6	5.4037e-06	4.5575e-06	1366	368.64	5.166e-06	4.6024e-06	422.11	139.92	121.64	42.017	4.2069e-06	52.044	0.00056927	0.00061396	0.00016927	1386.4	6.6518e-06	6.4247e-06	1384.3	375.26	6.3288e-06	6.676e-06	428.61	143.33	124.55	43.063	6.6068e-06	53.362	197.401	270.632	268.383	187.494	301.462	333.735	187.323	191.977	297.763	352.080	191.538	195.408	195.916	201.148	332.466	200.505	-8191	255	
14690.759	1	1	0	0	0.17909	0.076939	0.15089	0.13517	0.12985	0.073784	0.10071	0.2004	0.13038	0.050956	0.078067	0.22342	0.19332	0.089475	0.21629	0.17261	-2.7104	-2.8396	-2.7729	-3.4688	-2.575	-2.9562	-3.1208	-2.5354	-3.25	-3.0604	-2.8521	-3.375	-2.9083	-2.8521	-3.0396	-2.6437	412.512	285.695	321.596	412.738	306.662	367.907	491.589	428.058	385.478	436.899	435.357	480.594	500.255	399.715	497.536	410.213	0.00049634	0.00041893	0.00013255	1368.5	3.2077e-06	6.3113e-06	1361.1	370.01	4.6554e-06	5.344e-06	421.72	140.5	121.93	42.107	4.8034e-06	51.962	0.00057697	0.00061513	0.00016996	1385.7	6.5577e-06	6.6343e-06	1382.8	376	6.5925e-06	6.4003e-06	428.89	143.63	124.86	43.122	6.617e-06	53.337	196.638	245.479	292.683	187.568	322.447	341.888	187.187	191.958	294.202	351.344	191.675	195.338	196.022	201.154	332.332	200.202	-8191	255	
14690.857	1	1	0	0	0.071197	0.17169	0.092422	0.09662	0.046574	0.13305	0.31589	0.12766	0.10673	0.085352	0.19958	0.044823	0.2367	0.24843	0.24279	0.30891	-2.55	-2.6708	-2.6542	-3.3271	-2.7083	-3.1125	-3.1708	-2.7708	-2.9375	-3.1417	-2.5542	-3.4146	-2.8146	-2.7604	-3.3458	-2.7896	468.102	182.313	179.219	491.796	342.716	411.509	375.429	472.956	396.384	383.829	496.497	294.306	482.390	505.045	353.168	463.761	0.00048475	0.00072	0.00015004	1370.8	3.1876e-06	6.6444e-06	1366.4	370.24	5.0663e-06	6.8358e-06	422.41	140.88	122.18	42.083	4.2595e-06	51.866	0.00057431	0.00062396	0.00016978	1389.1	6.6844e-06	6.7498e-06	1385.9	376.26	6.6843e-06	6.8918e-06	429.36	143.88	124.86	43.121	6.5386e-06	53.271	199.334	271.731	256.509	187.594	297.714	324.593	187.081	191.844	277.825	322.489	191.728	195.489	195.944	201.070	308.827	200.395	-8191	255	
14690.976	1	1	0	0	0.23626	0.16974	0.20288	0.11848	0.019339	0.258	0.35735	0.074033	0.23428	0.29024	0.16291	0.27675	0.11356	0.24827	0.14471	0.1045	-2.3375	-2.9688	-2.5354	-3.2167	-2.7188	-2.65	-3.2562	-2.6625	-3.0521	-2.8729	-2.6875	-3.2229	-2.8646	-2.8146	-3.075	-2.7396	313.630	529.818	192.520	513.968	413.685	297.850	487.829	523.721	327.262	403.882	371.869	517.555	305.863	397.157	490.642	512.026	0.00049258	0.00038914	0.00014238	1376.1	3.9247e-06	5.5752e-06	1372.1	370.38	5.3687e-06	5.4753e-06	421.57	140.88	122.31	42.081	3.2596e-06	51.83	0.0005785	0.00061928	0.00017324	1390	6.7075e-06	6.8609e-06	1387.3	376.06	6.6691e-06	6.8204e-06	429.33	143.8	124.97	43.095	6.5697e-06	53.315	198.086	259.122	270.903	187.500	326.654	335.009	187.136	191.639	291.414	328.810	191.673	195.467	195.870	201.013	315.278	200.194	-8191	255	
14691.048	1	1	0	0	0.25552	0.32343	0.089231	0.1507	0.043439	0.141	0.1773	0.13475	0.20121	0.1579	0.27026	0.21745	0.19436	0.46583	0.12792	0.1753	-2.5729	-2.8792	-2.4854	-3.175	-3.0167	-2.5708	-3.3167	-2.9125	-2.7479	-3.1021	-2.7438	-3.1083	-3.1333	-2.7958	-3.1354	-3.025	278.408	514.518	271.359	199.420	220.602	188.422	509.551	485.577	416.480	245.457	500.306	489.102	523.223	529.528	251.346	471.951	0.00048269	0.00035547	0.00014368	1371.8	4.3321e-06	5.5223e-06	1364.2	369.94	5.4193e-06	5.8793e-06	422.09	140.38	122.23	42.115	5.2984e-06	51.724	0.00057279	0.00060074	0.00017331	1389.8	6.6503e-06	6.8895e-06	1386.8	376.59	6.6838e-06	6.7e-06	429.25	143.74	125.03	43.154	6.56e-06	53.422	198.333	252.160	278.952	187.343	312.488	322.207	187.108	192.036	300.069	329.792	191.434	195.399	195.959	200.983	307.721	200.023	-8191	255	
14691.168	1	1	0	0	0.3059	0.24878	0.098498	0.12893	0.073309	0.15396	0.037072	0.29109	0.12347	0.10464	0.24083	0.36752	0.11292	0.090912	0.15375	0.090285	-2.2042	-3.0042	-2.7208	-3.0833	-3.0708	-2.5125	-3.3083	-2.85	-2.7208	-3.2917	-2.5646	-3.1604	-2.9396	-2.7271	-3.1229	-2.8104	256.154	457.642	524.580	173.991	488.014	485.986	297.875	512.791	178.209	263.845	528.061	504.197	188.575	188.392	336.710	383.739	0.00049054	0.00059796	0.00012362	1375.8	4.4302e-06	4.5728e-06	1368.1	370.11	5.57e-06	3.8408e-06	422.43	140.05	122.5	42.167	4.3858e-06	51.863	0.00057885	0.00058025	0.00017435	1390.3	6.6158e-06	6.7124e-06	1386.8	376.31	6.7933e-06	6.5545e-06	429.83	143.65	125.29	43.178	6.6892e-06	53.417	197.999	270.746	271.903	187.498	313.382	328.010	187.231	191.818	288.279	308.027	191.687	195.550	196.197	200.987	291.832	200.315	-8191	255	
14691.265	1	1	0	0	0.14683	0.091326	0.14649	0.44947	0.13803	0.25925	0.33769	0.15055	0.26304	0.14821	0.15683	0.21062	0.20966	0.19778	0.076163	0.10976	-2.1875	-2.775	-2.7417	-3.0083	-2.8042	-2.8167	-3.1271	-3.2771	-2.7979	-3.0271	-2.8979	-2.975	-3.1354	-2.6917	-2.8646	-3.0333	434.653	347.356	310.265	497.421	308.767	382.516	192.447	430.756	337.373	174.419	510.905	479.316	450.643	484.790	532.714	376.456	0.00050823	0.00043614	0.00014296	1373.6	4.2686e-06	4.9204e-06	1366.3	369.06	4.0962e-06	4.6728e-06	421.87	140.27	122.75	41.975	6.4057e-06	52.059	0.00057603	0.00060855	0.00017225	1390.5	6.6052e-06	6.7883e-06	1386.2	376.25	6.7285e-06	6.5349e-06	429.4	143.65	125.07	43.094	6.7019e-06	53.516	196.526	260.496	252.541	187.636	305.659	325.362	187.180	191.886	282.715	324.194	191.407	195.457	196.078	200.988	310.318	200.312	-8191	255	
14691.361	1	1	0	0	0.15143	0.19158	0.09295	0.091219	0.11928	0.15162	0.30405	0.24384	0.16077	0.17909	0.095938	0.22797	0.10804	0.20516	0.20299	0.26898	-2.1292	-3.0125	-2.7083	-3.0187	-3.0604	-2.7958	-3.2208	-2.9167	-2.8104	-2.8688	-2.8271	-2.7729	-3.1312	-2.6208	-3.0708	-3.0687	478.957	296.782	180.247	430.822	404.001	496.825	491.928	461.964	365.294	389.995	533.653	421.437	383.082	312.657	247.143	433.749	0.00051678	0.00039749	0.00011067	1373.4	4.0018e-06	4.1427e-06	1364.6	369.65	4.3636e-06	4.6183e-06	421.21	140.28	122.16	41.992	4.2247e-06	52.249	0.00057654	0.00059825	0.00016491	1389.4	6.6225e-06	6.8774e-06	1386.4	376.52	6.785e-06	6.5262e-06	429.57	143.65	124.95	43.134	6.5183e-06	53.443	199.574	263.025	251.335	187.602	284.967	288.989	187.230	191.956	296.073	334.016	191.356	195.605	195.795	200.861	295.592	200.109	-8191	255	
14691.457	1	1	0	0	0.25826	0.21183	0.16832	0.13586	0.093005	0.12773	0.26725	0.27256	0.085053	0.28599	0.19649	0.10917	0.13806	0.32999	0.13118	0.032009	-2.1292	-3.0812	-2.6896	-2.8604	-2.9042	-2.6167	-3.1146	-2.9333	-2.6833	-3.1042	-2.7562	-2.7458	-3.1083	-2.4813	-2.6521	-3.1375	211.405	232.970	341.635	446.750	300.625	288.800	434.507	453.569	528.572	286.011	194.081	458.239	457.611	474.292	403.214	277.095	0.00047512	0.00039706	0.00012848	1374.7	4.7458e-06	4.5751e-06	1369.1	369.32	4.1295e-06	4.4391e-06	421.75	139.67	121.91	42.212	5.0175e-06	51.998	0.00057869	0.00059274	0.00017116	1389.6	6.4055e-06	6.6118e-06	1386.1	376.09	6.8076e-06	6.3937e-06	428.97	143.6	124.78	43.105	6.7345e-06	53.415	198.029	257.281	286.065	187.451	302.480	309.152	187.294	191.696	318.876	334.976	191.829	195.477	195.931	200.975	332.207	200.377	-8191	255	
14691.578	1	1	0	0	0.44519	0.2429	0.127	0.23192	0.06431	0.15334	0.48631	0.1114	0.043131	0.12337	0.12311	0.03662	0.21965	0.028745	0.15164	0.22723	-2.225	-2.8438	-2.8063	-2.7979	-3.0229	-2.6583	-3.0646	-2.925	-2.6917	-3.1562	-3.0521	-2.575	-3.0521	-2.6542	-2.7896	-3.3521	436.207	387.676	298.388	490.760	358.460	268.448	514.290	214.192	513.660	412.747	427.906	316.534	464.079	193.232	235.319	496.489	0.00047153	0.00046048	0.0001297	1376.2	3.7537e-06	4.8777e-06	1368.5	371.18	5.0783e-06	6.5597e-06	422.09	140.35	122.26	41.906	4.1736e-06	52.011	0.00057018	0.00058176	0.00016626	1391.3	6.5956e-06	6.7053e-06	1388	376.11	6.6499e-06	6.5976e-06	429.24	143.77	124.92	43.115	6.5987e-06	53.452	196.577	251.624	242.462	187.560	296.020	337.547	187.129	191.921	311.390	331.327	191.775	195.575	196.169	201.065	308.285	200.257	-8191	255	
14691.649	1	1	0	0	0.26744	0.19198	0.11535	0.21083	0.10866	0.094144	0.26679	0.056802	0.3187	0.2764	0.049402	0.1634	0.09174	0.051599	0.26325	0.085713	-2.2938	-2.8208	-2.7917	-2.6417	-3.1583	-2.7896	-2.9313	-3.1208	-2.4083	-3.0604	-3.1854	-2.5896	-3.2208	-3.0354	-2.8542	-2.9854	276.051	207.970	401.901	519.421	470.586	255.356	457.764	376.360	381.064	182.655	457.026	457.772	229.911	174.945	184.310	190.545	0.00048776	0.00037197	0.00012879	1376.3	4.5324e-06	5.0878e-06	1371.3	371.17	5.252e-06	4.5268e-06	423.36	140.77	122.73	42.036	3.9791e-06	52.161	0.00057482	0.00058962	0.00016805	1390.8	6.4597e-06	6.4698e-06	1389.1	376.7	6.2674e-06	6.6324e-06	429.7	144.02	125.14	43.159	6.4567e-06	53.419	199.976	245.767	279.030	187.458	306.024	334.295	187.186	191.947	292.962	319.146	191.543	195.668	195.975	201.053	292.318	200.191	-8191	255	
14691.745	1	1	0	0	0.1098	0.074281	0.1354	0.28903	0.1468	0.19072	0.19152	0.19379	0.20246	0.076564	0.16902	0.29347	0.26811	0.093507	0.10205	0.14268	-2.0917	-2.8708	-2.7875	-2.6542	-3.1792	-2.7458	-3.0979	-3.0917	-2.4604	-2.8083	-3.2375	-2.5938	-3.0187	-3.1104	-2.8958	-3.0167	412.709	288.219	325.609	478.302	253.391	345.519	397.884	471.508	383.860	294.530	446.568	526.818	475.549	532.255	409.202	455.490	0.00053098	0.00048192	0.00012063	1375.6	3.7457e-06	6.0137e-06	1369.9	369.2	4.43e-06	5.7625e-06	422.46	140.41	122.59	42.26	3.949e-06	51.934	0.00057415	0.00059049	0.00016481	1390.5	6.296e-06	6.5986e-06	1387.8	376.2	6.5316e-06	6.3147e-06	429.88	143.81	125.19	43.191	6.4618e-06	53.449	197.120	247.935	264.112	187.475	301.119	322.414	187.323	191.759	306.001	335.073	191.488	195.408	195.918	200.900	295.234	200.219	-8191	255	
14691.840	1	1	0	0	0.23104	0.089351	0.093891	0.2079	0.10601	0.10112	0.079321	0.23329	0.13562	0.18141	0.023229	0.18184	0.038739	0.30087	0.011524	0.45515	-2.3354	-2.7354	-3.0729	-2.7438	-2.9271	-3	-2.7167	-3.3021	-2.8146	-2.7354	-3.1417	-2.7708	-2.9771	-2.9729	-2.6083	-3.2729	360.215	472.502	491.948	515.030	204.313	525.745	240.905	524.416	212.189	533.321	399.957	524.515	502.117	522.047	295.607	527.759	0.0005175	0.00045315	0.00016566	1375.6	4.958e-06	4.5042e-06	1368.4	370.77	6.1765e-06	4.8786e-06	422.2	140.59	122.28	42.054	3.7443e-06	52.098	0.00058568	0.00059713	0.00016241	1390.3	6.4031e-06	6.4676e-06	1388.6	376.37	6.5758e-06	6.5659e-06	429.98	143.92	124.99	43.115	6.4318e-06	53.424	200.006	265.170	266.447	187.613	299.118	313.656	187.285	192.081	296.160	323.315	191.290	195.318	195.971	200.890	312.551	200.146	-8191	255	
14691.938	1	1	0	0	0.20034	0.15362	0.026846	0.31077	0.13527	0.27994	0.15038	0.40631	0.10173	0.16864	0.13466	0.24496	0.17988	0.29562	0.33168	0.11036	-2.1583	-2.7208	-3.1229	-2.7021	-3.0729	-2.8167	-2.9208	-3.2292	-2.65	-2.775	-3.0958	-2.7042	-3.0062	-2.9604	-2.45	-3.1958	460.315	327.441	351.877	484.530	178.922	197.554	450.956	476.308	248.879	234.023	503.208	182.348	330.104	183.255	433.418	519.716	0.00050226	0.00042316	0.00014492	1376.1	4.2971e-06	3.9138e-06	1368.5	369.19	4.94e-06	6.3826e-06	422.9	140.88	122.34	41.981	4.7852e-06	52.04	0.0005818	0.00058118	0.00016475	1390.1	6.4415e-06	6.3983e-06	1387.4	375.94	6.5832e-06	6.5425e-06	429.61	143.97	124.99	43.093	6.4639e-06	53.383	197.117	250.860	269.445	187.356	289.824	306.750	187.346	191.748	311.607	320.473	191.438	195.517	196.123	201.109	297.344	200.522	-8191	255	
14692.057	1	1	0	0	0.19293	0.13383	0.3287	0.15097	0.15196	0.12404	0.2333	0.13891	0.11439	0.057168	0.25294	0.03449	0.11908	0.14532	0.28585	0.10107	-2.3979	-2.5729	-3.0438	-2.9208	-2.7833	-3.0896	-2.6542	-3.1833	-2.7146	-2.6917	-3.2854	-2.775	-2.8729	-3.15	-2.4917	-3.0229	175.338	477.274	440.699	491.983	175.242	183.025	472.508	228.102	457.691	329.014	355.433	373.563	435.388	506.355	375.752	223.956	0.00050486	0.00047867	0.00012425	1374.2	5.1062e-06	6.9537e-06	1369.7	369.24	3.6045e-06	5.4068e-06	421.27	140.52	122.23	42.092	3.56e-06	51.853	0.00056774	0.00059957	0.00015998	1388.6	6.3392e-06	6.6932e-06	1387.1	375.94	6.4805e-06	6.5185e-06	429.3	143.72	124.93	43.098	6.3957e-06	53.264	199.337	269.275	267.601	187.409	299.722	335.212	186.983	191.676	300.672	323.783	191.448	195.516	196.140	201.098	312.719	200.262	-8191	255	
14692.153	1	1	0	0	0.14154	0.30033	0.069441	0.1784	0.23814	0.28027	0.27234	0.19078	0.13159	0.04682	0.27768	0.1089	0.29456	0.028763	0.052823	0.075604	-2.4896	-2.5833	-2.8625	-2.9479	-2.9417	-2.8771	-2.8208	-3.0583	-2.8083	-2.7229	-2.9313	-2.8125	-2.9917	-2.9292	-2.7542	-2.9208	278.815	431.021	203.730	501.449	233.665	187.115	441.726	475.569	497.526	498.849	514.303	467.019	201.584	427.342	484.356	528.442	0.00048471	0.00052937	0.00016464	1368.3	5.0205e-06	4.3505e-06	1365.2	368.7	4.6415e-06	6.7129e-06	421.14	140.01	122.54	41.742	4.6319e-06	51.848	0.00056458	0.0006083	0.0001655	1387.8	6.5553e-06	6.4104e-06	1386.1	375.54	6.6976e-06	6.8581e-06	427.9	143.47	124.8	42.983	6.7706e-06	53.272	198.162	267.706	271.860	187.453	312.296	329.655	187.229	191.961	309.073	319.371	191.595	195.408	196.213	200.974	325.049	200.068	-8191	255	
14692.249	1	1	0	0	0.036302	0.16972	0.0064638	0.12121	0.29671	0.21212	0.19843	0.06693	0.39263	0.29125	0.1771	0.15641	0.12504	0.078963	0.127	0.078292	-2.3438	-2.6479	-3.2958	-2.8812	-2.6063	-3.2167	-2.6604	-2.9917	-3.0062	-2.6854	-3.0042	-3.0312	-2.8333	-3.0521	-2.7271	-3.1125	342.420	296.394	440.829	500.990	195.634	198.190	496.212	414.013	332.607	308.659	429.246	524.778	242.690	262.047	244.452	212.028	0.00050455	0.00048398	0.00014284	1372.5	3.5465e-06	5.7191e-06	1363.5	369.68	4.619e-06	4.7355e-06	422.88	140.07	121.89	41.883	4.8668e-06	52.01	0.00058399	0.00061186	0.0001687	1386.8	6.5418e-06	6.4891e-06	1382.1	375.87	6.4786e-06	6.6629e-06	429.49	143.38	124.64	42.976	6.4944e-06	53.319	197.384	282.774	265.480	187.575	295.191	308.231	187.269	191.915	308.161	337.361	191.534	195.457	196.183	201.033	309.863	200.128	-8191	255	
14692.345	1	1	0	0	0.23547	0.085604	0.066489	0.29075	0.43226	0.10481	0.16057	0.17174	0.30222	0.04226	0.36995	0.11241	0.11004	0.14887	0.13371	0.17386	-2.3917	-2.4	-3.1292	-3.0729	-2.4896	-3.0375	-3.15	-3.0979	-3.0583	-2.4042	-2.975	-3.0604	-2.6437	-3.0896	-2.6188	-2.7729	422.699	484.618	372.306	489.400	321.160	380.443	465.267	485.158	249.730	459.159	200.054	467.544	176.795	366.467	252.773	215.229	0.00047441	0.00044185	0.00017503	1369.7	2.9505e-06	3.989e-06	1357.8	369.5	5.5158e-06	4.227e-06	422.58	140.17	121.24	42.222	4.0119e-06	51.871	0.00056037	0.00060064	0.00016694	1386.6	6.6393e-06	6.4825e-06	1381.9	375.33	6.5851e-06	6.603e-06	428.55	143.41	124.39	43.148	6.4532e-06	53.339	199.123	282.804	275.083	187.461	290.588	309.212	187.225	191.810	282.633	326.620	191.578	195.371	195.925	200.947	307.837	200.380	-8191	255	
14692.441	1	1	0	0	0.29628	0.077326	0.15032	0.069877	0.093353	0.16346	0.32611	0.083717	0.24379	0.10535	0.19363	0.31992	0.26721	0.10169	0.18347	0.24268	-2.7646	-2.5438	-2.8333	-3.0333	-2.5792	-3.1021	-2.7625	-2.7583	-2.9562	-2.6104	-2.8479	-2.9938	-2.7958	-3.1167	-2.7062	-2.7958	459.795	293.200	204.010	269.475	345.554	285.806	448.651	387.697	179.902	188.166	496.591	487.285	214.128	499.312	262.776	495.597	0.00047921	0.00053733	0.00012536	1373.4	4.9753e-06	4.5596e-06	1370.1	368.82	4.7187e-06	5.8035e-06	422.41	140.74	122.17	42.029	4.9139e-06	51.975	0.00055954	0.00058898	0.00016037	1387.5	6.6004e-06	6.2531e-06	1385.6	375.87	6.6087e-06	6.3229e-06	429.09	143.59	124.68	43.035	6.3433e-06	53.328	198.569	268.097	270.413	187.562	303.395	306.583	187.226	191.883	296.126	331.496	191.714	195.432	196.010	201.078	295.177	200.526	-8191	255	
14692.537	1	1	0	0	0.20941	0.19464	0.23262	0.30172	0.10238	0.084418	0.21502	0.42771	0.30847	0.044546	0.14353	0.1794	0.13096	0.10268	0.062983	0.13536	-2.7604	-2.7646	-2.725	-3.1	-2.7521	-2.8042	-2.9417	-2.9708	-3.3229	-2.7958	-2.8771	-3.1708	-2.7062	-3.0625	-2.9021	-2.8625	275.249	505.142	529.467	188.036	407.382	210.196	415.276	479.382	188.415	251.218	227.491	271.888	508.209	374.954	234.611	494.290	0.00048592	0.00054183	0.00017353	1370.7	4.5283e-06	4.1065e-06	1364	370.16	6.281e-06	4.821e-06	422.52	140.23	122.5	42.247	5.5058e-06	51.897	0.00055758	0.00060406	0.00016906	1386.9	6.2533e-06	6.5458e-06	1383.5	375.53	6.4e-06	6.4651e-06	428.67	143.51	125.16	43.056	6.4374e-06	53.348	198.558	274.861	258.907	187.539	307.457	315.543	187.289	192.042	287.258	319.131	191.330	195.305	196.277	201.076	308.559	200.329	-8191	255	
14692.658	1	1	0	0	0.059922	0.13874	0.17994	0.29462	0.39453	0.12445	0.2392	0.1763	0.015432	0.15097	0.11216	0.08204	0.14837	0.24335	0.3764	0.079089	-2.475	-2.5292	-2.7917	-3.025	-2.5312	-3.0125	-3.1188	-2.5417	-3.0438	-2.9521	-2.7896	-3.125	-2.8667	-2.7646	-2.9167	-2.7875	456.320	430.160	499.296	486.475	406.339	232.284	455.295	446.006	325.706	510.203	332.256	527.905	405.933	218.286	366.813	280.741	0.00049254	0.00054459	0.00013039	1371.7	5.0533e-06	3.9231e-06	1364.6	369.73	5.3636e-06	4.0975e-06	422.41	140.3	122.12	42.006	4.0494e-06	51.858	0.00055444	0.00059323	0.00016991	1388.5	6.5798e-06	6.5094e-06	1386.3	375.76	6.5301e-06	6.47e-06	428.69	143.41	124.85	43.084	6.2014e-06	53.315	199.213	277.174	258.550	187.512	291.666	336.770	187.362	191.931	286.695	329.589	191.501	195.215	196.294	201.123	297.979	200.384	-8191	255	
14692.752	1	1	0	0	0.17726	0.18252	0.07948	0.36793	0.20474	0.069666	0.24723	0.16133	0.26281	0.12761	0.22373	0.16368	0.13655	0.13257	0.065533	0.20079	-2.6937	-2.6437	-2.5812	-3.3458	-2.6479	-2.9271	-3.2646	-2.7687	-2.7375	-2.8937	-2.8667	-3.3167	-2.6688	-2.775	-2.95	-2.7083	235.874	341.663	357.278	200.280	213.040	248.005	502.849	434.213	423.177	325.516	492.758	481.707	476.386	460.486	319.742	446.597	0.00051571	0.00056784	0.00016654	1376.6	4.4828e-06	2.868e-06	1366.5	370	4.6597e-06	5.4921e-06	421.06	140.36	121.55	41.962	4.1388e-06	51.888	0.0005612	0.00059205	0.00016932	1390.3	6.405e-06	6.5502e-06	1386.2	375.81	6.4638e-06	6.4237e-06	428.45	143.47	124.71	43.1	6.4374e-06	53.332	201.016	260.541	273.494	187.490	292.077	346.029	187.029	191.820	283.175	335.944	191.346	195.475	196.169	201.198	303.085	200.409	-8191	255	
14692.848	1	1	0	0	0.21306	0.22251	0.14748	0.17373	0.14424	0.015347	0.41656	0.24528	0.12638	0.0724	0.10271	0.15179	0.18032	0.29917	0.19055	0.34893	-2.4708	-2.4833	-2.5792	-3.3333	-2.7146	-2.8083	-3.1896	-2.6792	-2.8354	-2.8854	-2.7146	-3.0104	-2.7542	-2.7271	-3.0563	-2.6146	454.546	383.096	312.413	475.915	366.749	389.198	419.604	531.727	361.203	265.857	285.422	192.963	526.745	474.359	350.182	475.263	0.00050113	0.00044145	0.00014776	1371.7	3.7638e-06	5.4975e-06	1362	368.91	5.0318e-06	4.4383e-06	422.25	139.84	122.45	41.927	4.6634e-06	52.026	0.00056383	0.00058771	0.00016702	1388.3	6.3042e-06	6.5171e-06	1386.3	376.09	6.3239e-06	6.5327e-06	429.44	143.67	125.05	43.045	6.4466e-06	53.363	198.828	270.473	257.861	187.529	305.590	312.015	187.171	191.982	285.913	304.504	191.616	195.436	195.878	200.917	314.900	200.416	-8191	255	
14692.945	1	1	0	0	0.19554	0.05352	0.19266	0.13701	0.2942	0.15953	0.31616	0.30799	0.19671	0.052568	0.12952	0.14051	0.14276	0.27209	0.17404	0.33675	-2.5208	-2.9875	-2.6229	-3.1104	-2.8583	-2.3958	-2.9896	-2.6917	-2.8937	-2.8875	-2.4125	-3.1583	-2.9854	-2.5354	-2.9958	-2.8208	274.455	487.925	268.445	187.478	288.392	290.862	440.196	493.230	270.823	473.133	185.842	237.328	367.596	293.444	510.917	436.122	0.00048842	0.00054103	0.0001133	1374.1	3.9264e-06	4.1531e-06	1368.1	369.34	5.223e-06	5.1153e-06	422.11	140.36	122.09	41.977	5.1396e-06	51.764	0.00056158	0.00058444	0.00015887	1389.5	6.2187e-06	6.3488e-06	1386.9	376.08	6.5895e-06	6.1828e-06	429.1	143.58	124.74	43.056	6.3896e-06	53.288	200.899	265.557	268.124	187.417	320.853	315.287	187.267	191.804	285.914	319.189	191.435	195.349	195.959	200.880	305.942	200.200	-8191	255	
#DATA ENDS
