BOXY.EXE: ISS Imagent and Oximeter Data Acquisition Program Version 0.80
Ascii Record File

#ACQ INFORMATION
2  Detector Channels 
16  External MUX Channels 
1  Auxiliary Channels 
5000  Waveform (CCF) Frequency (Hz)
1  Waveforms Skipped 
30  Waveforms Averaged 
1  Cycles Averaged 
16  Acquisitions per Waveform 
10.0806  Updata Rate (Hz) 

#FILE INFORMATION
TRUE -- External MUX Channel results are PARSED.
FALSE -- AC DC and Phase are NOT grouped.
TRUE -- Companion Program Settings File CREATED.
FALSE -- AC data not excluded
FALSE -- DC data not excluded
FALSE -- Phase data not excluded
FALSE -- Auxillary Chn. data not excluded
Tab delimiters

#CALIBRATION STATE
TRUE -- Waveform Calibration Values APPLIED.


#AUX CALIBRATION VALUES
Val Type	aux-1	

Term	1.0000e+00	
Factor	0.0000e+00	


#WF CALIBRATION VALUES
A = Detector Channel
Val Type	A-AC1	A-AC2	A-AC3	A-AC4	A-AC5	A-AC6	A-AC7	A-AC8	A-AC9	A-AC10	A-AC11	A-AC12	A-AC13	A-AC14	A-AC15	A-AC16	A-DC1	A-DC2	A-DC3	A-DC4	A-DC5	A-DC6	A-DC7	A-DC8	A-DC9	A-DC10	A-DC11	A-DC12	A-DC13	A-DC14	A-DC15	A-DC16	A-Ph1	A-Ph2	A-Ph3	A-Ph4	A-Ph5	A-Ph6	A-Ph7	A-Ph8	A-Ph9	A-Ph10	A-Ph11	A-Ph12	A-Ph13	A-Ph14	A-Ph15	A-Ph16	

Term	0.00000e+00	0.00000e+00	0.00000e+00	0.00000e+00	0.00000e+00	0.00000e+00	0.00000e+00	0.00000e+00	0.00000e+00	0.00000e+00	0.00000e+00	0.00000e+00	0.00000e+00	0.00000e+00	0.00000e+00	0.00000e+00	0.00000e+00	0.00000e+00	0.00000e+00	0.00000e+00	0.00000e+00	0.00000e+00	0.00000e+00	0.00000e+00	0.00000e+00	0.00000e+00	0.00000e+00	0.00000e+00	0.00000e+00	0.00000e+00	0.00000e+00	0.00000e+00	0.00000e+00	0.00000e+00	0.00000e+00	0.00000e+00	0.00000e+00	0.00000e+00	0.00000e+00	0.00000e+00	0.00000e+00	0.00000e+00	0.00000e+00	0.00000e+00	0.00000e+00	0.00000e+00	0.00000e+00	0.00000e+00	
Factor	1.00000e+00	1.00000e+00	1.00000e+00	1.00000e+00	1.00000e+00	1.00000e+00	1.00000e+00	1.00000e+00	1.00000e+00	1.00000e+00	1.00000e+00	1.00000e+00	1.00000e+00	1.00000e+00	1.00000e+00	1.00000e+00	1.00000e+00	1.00000e+00	1.00000e+00	1.00000e+00	1.00000e+00	1.00000e+00	1.00000e+00	1.00000e+00	1.00000e+00	1.00000e+00	1.00000e+00	1.00000e+00	1.00000e+00	1.00000e+00	1.00000e+00	1.00000e+00	X	X	X	X	X	X	X	X	X	X	X	X	X	X	X	X	

B = Detector Channel
Val Type	B-AC1	B-AC2	B-AC3	B-AC4	B-AC5	B-AC6	B-AC7	B-AC8	B-AC9	B-AC10	B-AC11	B-AC12	B-AC13	B-AC14	B-AC15	B-AC16	B-DC1	B-DC2	B-DC3	B-DC4	B-DC5	B-DC6	B-DC7	B-DC8	B-DC9	B-DC10	B-DC11	B-DC12	B-DC13	B-DC14	B-DC15	B-DC16	B-Ph1	B-Ph2	B-Ph3	B-Ph4	B-Ph5	B-Ph6	B-Ph7	B-Ph8	B-Ph9	B-Ph10	B-Ph11	B-Ph12	B-Ph13	B-Ph14	B-Ph15	B-Ph16	

Term	0.00000e+00	0.00000e+00	0.00000e+00	0.00000e+00	0.00000e+00	0.00000e+00	0.00000e+00	0.00000e+00	0.00000e+00	0.00000e+00	0.00000e+00	0.00000e+00	0.00000e+00	0.00000e+00	0.00000e+00	0.00000e+00	0.00000e+00	0.00000e+00	0.00000e+00	0.00000e+00	0.00000e+00	0.00000e+00	0.00000e+00	0.00000e+00	0.00000e+00	0.00000e+00	0.00000e+00	0.00000e+00	0.00000e+00	0.00000e+00	0.00000e+00	0.00000e+00	-9.73976e+01	-1.30849e+02	-1.20817e+02	-1.83215e+02	-5.41678e+01	-7.09084e+01	-1.60645e+02	-1.62015e+02	-5.77483e+01	-6.73109e+01	-1.72614e+02	-1.72392e+02	-1.82625e+02	-1.77464e+02	-6.51920e+01	-1.50396e+02	
Factor	1.53672e-05	1.55372e-04	4.49486e-05	1.55281e-01	1.27500e-06	1.63856e-06	1.77095e-01	5.59097e-02	1.17167e-06	1.81651e-06	8.77361e-02	2.76348e-02	2.61606e-02	8.30710e-03	1.34094e-06	1.23201e-02	5.68249e-06	7.41094e-06	2.07059e-06	7.96841e-02	7.84201e-08	8.14664e-08	8.56640e-02	2.88410e-02	7.84201e-08	8.17892e-08	4.38204e-02	1.39077e-02	1.36851e-02	4.31291e-03	8.00245e-08	6.19896e-03	X	X	X	X	X	X	X	X	X	X	X	X	X	X	X	X	



#DISTANCE SETTINGS
A = Detector Channel
A-1	A-2	A-3	A-4	A-5	A-6	A-7	A-8	A-9	A-10	A-11	A-12	A-13	A-14	A-15	A-16	

2.5000e+00	3.0000e+00	2.5000e+00	3.0000e+00	2.0000e+00	3.0000e+00	1.5000e+00	3.0000e+00	3.0000e+00	3.0000e+00	3.0000e+00	3.0000e+00	3.0000e+00	3.0000e+00	1.5000e+00	3.0000e+00	

B = Detector Channel
B-1	B-2	B-3	B-4	B-5	B-6	B-7	B-8	B-9	B-10	B-11	B-12	B-13	B-14	B-15	B-16	

1.0000e+01	1.0000e+01	1.0000e+01	1.4400e+00	1.0000e+01	1.0000e+01	1.5100e+00	1.9400e+00	1.0000e+01	1.0000e+01	1.9900e+00	2.4900e+00	2.4100e+00	2.9000e+00	1.0000e+01	2.9800e+00	




#DATA BEGINS
time	group	step	mark	flag	A-AC1	A-AC2	A-AC3	A-AC4	A-AC5	A-AC6	A-AC7	A-AC8	A-AC9	A-AC10	A-AC11	A-AC12	A-AC13	A-AC14	A-AC15	A-AC16	A-DC1	A-DC2	A-DC3	A-DC4	A-DC5	A-DC6	A-DC7	A-DC8	A-DC9	A-DC10	A-DC11	A-DC12	A-DC13	A-DC14	A-DC15	A-DC16	A-Ph1	A-Ph2	A-Ph3	A-Ph4	A-Ph5	A-Ph6	A-Ph7	A-Ph8	A-Ph9	A-Ph10	A-Ph11	A-Ph12	A-Ph13	A-Ph14	A-Ph15	A-Ph16	B-AC1	B-AC2	B-AC3	B-AC4	B-AC5	B-AC6	B-AC7	B-AC8	B-AC9	B-AC10	B-AC11	B-AC12	B-AC13	B-AC14	B-AC15	B-AC16	B-DC1	B-DC2	B-DC3	B-DC4	B-DC5	B-DC6	B-DC7	B-DC8	B-DC9	B-DC10	B-DC11	B-DC12	B-DC13	B-DC14	B-DC15	B-DC16	B-Ph1	B-Ph2	B-Ph3	B-Ph4	B-Ph5	B-Ph6	B-Ph7	B-Ph8	B-Ph9	B-Ph10	B-Ph11	B-Ph12	B-Ph13	B-Ph14	B-Ph15	B-Ph16	aux-1	digaux	

462.568	1	1	0	768	0.13805	0.3087	0.049599	0.29445	0.31012	0.16451	0.094373	0.12216	0.11256	0.13475	0.21858	0.082273	0.086	0.14377	0.11731	0.17977	-2.8	-2.7417	-2.8604	-3.3854	-2.7729	-3.125	-2.95	-2.75	-3.3375	-3.1292	-3.0979	-3.1333	-2.6937	-3.0479	-3.0438	-2.8833	223.102	86.136	102.962	274.608	-5.783	12.659	301.319	290.280	41.942	215.935	47.467	24.210	180.912	228.350	192.263	15.580	0.00010616	0.00032605	7.2477e-05	914.47	7.7668e-07	1.2451e-06	998.41	197.09	2.2738e-06	3.3336e-06	251.59	67.121	52.116	14.775	2.2447e-06	21.125	0.00023078	0.00025765	7.0624e-05	898.16	2.7712e-06	2.695e-06	979.76	194.69	2.7829e-06	2.7294e-06	248.02	68.068	52.741	14.876	2.724e-06	21.423	175.303	52.607	45.318	0.068	218.128	124.185	-0.016	7.756	194.036	182.366	7.094	14.329	14.983	22.336	161.153	21.674	-8191	255	
462.663	1	1	0	0	0.16685	0.23822	0.055204	0.13915	0.13015	0.018106	0.077267	0.19925	0.10709	0.25846	0.1782	0.14268	0.17369	0.090361	0.10919	0.070491	-3.0292	-2.8292	-2.8063	-3.3229	-2.6896	-3.1417	-3.1937	-3	-3.2604	-2.9208	-3.1229	-3.1833	-2.8104	-3.2229	-3.1188	-3.0125	211.876	190.661	122.238	341.693	69.946	63.512	324.096	18.051	28.379	132.930	186.597	300.655	40.915	270.438	201.515	6.308	9.9723e-05	0.00030766	0.00015206	916.15	2.576e-06	2.7629e-06	992.09	195.49	2.7189e-06	1.3177e-06	250.49	67.31	52.174	14.78	2.665e-06	21.338	0.00021551	0.00024007	6.6703e-05	896.9	2.6936e-06	2.6782e-06	977.13	193.9	2.6504e-06	2.6938e-06	247.76	67.804	52.663	14.884	2.5458e-06	21.445	156.551	82.490	110.015	0.170	156.948	151.782	0.222	7.477	183.127	15.791	7.034	13.938	14.681	22.320	130.457	20.940	-8191	255	
462.759	1	1	0	0	0.075894	0.028684	0.034217	0.13289	0.031104	0.041399	0.302	0.21083	0.095997	0.30958	0.05709	0.062055	0.098954	0.10501	0.1213	0.39648	-2.7208	-3.1125	-2.8979	-3.1729	-2.8438	-3.0354	-3.3583	-2.8271	-3.3063	-3.0125	-2.95	-3.4062	-2.875	-3.0938	-3.3583	-2.9062	162.333	35.933	48.269	167.826	194.568	75.845	200.569	349.222	81.491	85.734	201.631	270.003	306.997	307.067	193.205	336.042	0.00011888	0.00025284	4.4728e-05	909.1	2.6662e-06	2.01e-06	991.27	194.17	1.4805e-06	3.2184e-06	249.24	67.33	52.52	14.675	2.4506e-06	21.219	0.00022749	0.00023352	6.7795e-05	893	2.6011e-06	2.5828e-06	973.13	193.39	2.5341e-06	2.5711e-06	247.04	67.895	52.82	14.803	2.5071e-06	21.402	161.771	79.714	96.477	0.008	187.404	115.475	0.213	7.721	166.248	117.930	7.174	13.941	14.971	22.193	153.124	21.686	-8191	255	
462.855	1	1	0	0	0.24991	0.093442	0.13963	0.2953	0.11346	0.043745	0.25923	0.25288	0.16611	0.23278	0.076458	0.039595	0.26363	0.16805	0.069351	0.32348	-2.8563	-2.9125	-2.7458	-3.4271	-2.8187	-2.9979	-3.3146	-2.9875	-2.9896	-3.1125	-2.9042	-3.3833	-3.0708	-3.05	-3.2	-2.8646	228.804	26.338	181.703	278.410	171.392	132.431	288.088	295.571	137.521	267.273	-2.591	-4.591	212.892	323.428	324.096	205.510	9.1485e-05	0.00028727	5.6144e-05	910.1	1.9507e-06	4.8808e-06	986.78	195.62	2.2709e-06	2.6318e-06	249.33	67.854	52.742	14.647	3.3497e-06	21.145	0.00021651	0.00023232	6.6518e-05	890.1	2.6885e-06	2.5989e-06	972.75	193.57	2.6135e-06	2.5813e-06	247.03	67.96	52.845	14.834	2.4501e-06	21.384	172.010	67.224	64.684	0.109	153.750	162.591	0.389	7.411	187.317	97.601	7.036	14.255	14.582	22.246	195.384	21.675	-8191	255	
462.951	1	1	0	0	0.041096	0.097729	0.20997	0.23213	0.22645	0.07075	0.20372	0.12696	0.078511	0.11685	0.091303	0.11128	0.035789	0.24522	0.080671	0.2056	-2.7208	-2.9604	-2.65	-3.3792	-2.8396	-2.9729	-3.4437	-2.8792	-3.2313	-3.15	-2.7896	-3.3083	-2.9292	-2.9188	-3.1521	-2.8458	317.409	77.155	148.325	255.390	79.206	55.808	199.587	53.625	197.199	63.150	246.469	263.033	208.307	89.512	67.699	43.517	8.8385e-05	0.00018536	6.8306e-05	905.31	2.2177e-06	1.3147e-06	994.28	194.66	2.2732e-06	6.0039e-06	249.1	67.199	52.349	14.73	2.814e-06	21.249	0.00021807	0.00023283	6.5284e-05	889.32	2.6308e-06	2.6522e-06	974.07	193.3	2.6833e-06	2.5922e-06	246.61	67.758	52.686	14.843	2.6135e-06	21.403	164.678	77.847	81.632	0.046	197.557	131.648	0.319	7.420	128.836	124.267	7.127	14.404	14.458	22.490	126.204	21.649	-8191	255	
463.047	1	1	0	0	0.044233	0.20992	0.13086	0.2104	0.16973	0.048755	0.44704	0.172	0.28124	0.30615	0.081213	0.11869	0.099685	0.15857	0.13062	0.11718	-2.775	-3.2562	-2.8271	-3.2854	-3.0687	-2.9688	-3.3771	-3.0354	-3.1625	-3.1417	-2.8708	-3.3063	-3.0271	-2.8333	-3.2229	-2.8083	89.755	320.727	192.809	2.126	160.803	76.156	248.515	109.720	52.410	115.330	306.954	174.774	9.547	16.515	65.356	334.554	9.3269e-05	0.00035798	0.00010202	905.97	9.0593e-07	4.5449e-06	991.57	195.81	2.5491e-06	5.2897e-07	249.48	67.574	52.448	14.671	3.0002e-06	21.167	0.00022267	0.00023971	6.9585e-05	889.23	2.6952e-06	2.6256e-06	970.92	193.4	2.6295e-06	2.5937e-06	246.84	67.844	52.598	14.834	2.5791e-06	21.396	170.228	97.132	112.121	0.168	122.432	169.376	0.284	7.726	151.414	242.802	6.906	14.440	14.716	22.376	149.744	21.469	-8191	255	
463.168	1	1	0	0	0.18186	0.13176	0.21705	0.1839	0.28341	0.065904	0.23412	0.094838	0.22746	0.13906	0.11552	0.16106	0.0034907	0.25167	0.24765	0.070502	-2.5625	-3.2271	-2.7062	-3.3563	-2.9	-2.9625	-3.3375	-2.8917	-3.0396	-3.1937	-2.7687	-3.1146	-3.1458	-2.7458	-3.225	-2.8646	38.184	306.451	112.877	206.275	209.390	80.745	292.825	275.090	189.806	330.519	72.859	341.103	241.047	276.097	74.521	7.459	0.00010229	6.4774e-05	5.1397e-05	909.46	1.6637e-06	2.7163e-06	984.43	195.74	1.5392e-06	1.943e-06	247.73	67.113	52.127	14.578	3.0612e-06	21.095	0.00021866	0.00024258	6.6613e-05	888.71	2.6728e-06	2.629e-06	970.07	193.19	2.6727e-06	2.6834e-06	246.28	67.653	52.593	14.79	2.709e-06	21.396	171.780	98.064	57.463	0.058	192.592	88.581	0.368	7.920	218.331	136.045	6.944	13.820	14.550	22.142	166.748	21.332	-8191	255	
463.264	1	1	0	0	0.18967	0.10511	0.12213	0.20349	0.060824	0.201	0.17059	0.29205	0.083835	0.18282	0.072007	0.28068	0.021913	0.14084	0.081487	0.14901	-2.6688	-3.1562	-2.9062	-3.2292	-3.1729	-2.9917	-3.4771	-3.0896	-2.8812	-3.375	-2.9625	-3.1708	-3.3688	-2.975	-3.3125	-3.2417	100.759	60.214	348.832	301.893	140.788	154.823	0.649	339.070	102.545	178.031	69.100	304.976	320.547	36.059	19.409	335.281	9.701e-05	0.0002652	3.8186e-05	907.93	2.4671e-06	2.062e-06	985.78	194.36	3.0566e-06	3.2043e-06	247.2	67.082	52.355	14.749	2.5255e-06	21.086	0.00023355	0.0002447	7.0961e-05	890.15	2.8468e-06	2.8359e-06	969.45	192.95	2.7865e-06	2.8072e-06	246.13	67.591	52.599	14.828	2.7894e-06	21.341	168.260	68.885	96.628	0.126	251.262	135.280	0.185	7.544	189.072	155.069	7.147	14.270	14.799	22.100	115.809	21.624	-8191	255	
463.360	1	1	0	0	0.1608	0.099112	0.17226	0.34528	0.026097	0.083905	0.10988	0.063511	0.12802	0.17795	0.20529	0.15663	0.12028	0.15197	0.013111	0.098427	-2.4167	-3.3312	-2.7833	-3.2333	-3.2021	-2.9146	-3.3417	-3.2042	-2.8771	-3.3667	-3.0583	-3.1729	-3.0792	-2.7438	-3.3	-3.1958	49.504	37.560	33.040	322.808	314.821	293.123	326.279	337.888	48.532	304.877	245.082	244.506	318.650	320.961	303.137	248.192	0.00011679	0.00030414	0.00010044	900.49	7.9203e-07	4.1657e-06	988.67	194.16	2.646e-06	1.9972e-06	248.13	67.139	52.382	14.692	3.8769e-06	21.272	0.00023967	0.00025969	7.5206e-05	887.15	2.9337e-06	2.9202e-06	972.16	193.16	3.0058e-06	2.9736e-06	246.18	67.87	52.793	14.879	3.1998e-06	21.396	172.478	156.713	48.917	0.111	214.765	89.504	0.313	7.757	160.536	244.020	7.047	14.316	14.907	21.839	174.653	21.447	-8191	255	
463.456	1	1	0	0	0.16	0.17011	0.23963	0.29096	0.16747	0.16416	0.12257	0.15051	0.12091	0.18143	0.29693	0.075982	0.23732	0.093368	0.058526	0.11778	-2.3937	-3.1625	-3.0438	-3.0479	-3.1146	-2.775	-3.2458	-3.1958	-2.7208	-3.2438	-2.9813	-3.0271	-3.175	-2.9479	-2.9938	-3.1375	337.440	165.083	118.568	319.237	55.665	94.932	108.677	36.798	225.968	194.689	328.621	184.780	236.300	98.729	260.244	38.625	9.433e-05	0.00033443	0.00018932	914.19	1.3098e-06	3.9688e-06	996.48	195.24	3.7913e-06	2.5402e-06	250.34	67.602	52.47	14.806	1.0655e-06	21.127	0.00025469	0.00029687	8.4083e-05	896.68	3.3142e-06	3.2731e-06	979.88	194.43	3.3618e-06	3.293e-06	248.18	68.231	53.026	14.931	3.4404e-06	21.51	174.192	127.479	89.461	0.115	200.382	155.397	0.409	7.601	146.176	141.597	7.012	14.437	14.773	22.197	162.510	21.340	-8191	255	
463.553	1	1	0	0	0.19077	0.13551	0.12477	0.16965	0.17989	0.18319	0.30892	0.19016	0.11437	0.14606	0.18311	0.1418	0.062422	0.18111	0.29548	0.14673	-2.3708	-3.1646	-2.9875	-3.1021	-3.2938	-2.8771	-2.9583	-3.2625	-2.7646	-3.3063	-3.1167	-2.8	-3.3729	-2.8729	-3.3021	-3.1271	-6.159	205.636	94.760	289.108	346.256	336.225	27.484	137.503	232.335	223.494	294.088	183.957	11.505	98.954	15.362	70.994	9.2692e-05	0.00034875	0.0001036	924.95	1.8721e-06	3.1837e-06	1006.5	197.84	3.8889e-06	2.2081e-06	252.5	68.122	53.114	14.892	2.4717e-06	21.31	0.00027921	0.00031693	9.1908e-05	907.77	3.5866e-06	3.6723e-06	990.14	195.88	3.7978e-06	3.8656e-06	250.41	68.743	53.576	15.071	4.0301e-06	21.685	162.266	81.100	88.951	0.116	181.805	110.129	0.383	7.597	184.674	195.015	6.922	14.146	14.524	22.183	161.415	21.427	-8191	255	
463.649	1	1	0	0	0.2609	0.086487	0.13782	0.14618	0.1069	0.081451	0.067267	0.21478	0.21316	0.35818	0.070204	0.12388	0.13426	0.14076	0.093614	0.18534	-2.4562	-3.1542	-2.9479	-2.7938	-3.1958	-2.8312	-2.9979	-3.0938	-2.6937	-3.2229	-2.9854	-2.9167	-3.2938	-2.7271	-3.0563	-3.2042	257.214	330.729	110.311	6.936	77.316	23.242	127.224	185.183	134.151	303.694	345.752	236.207	328.989	105.936	276.460	286.628	0.00011697	0.00030163	0.00011927	931.27	3.5777e-06	1.67e-06	1013.3	198.33	6.8532e-07	3.2097e-06	254.57	68.544	53.098	14.859	1.4677e-06	21.532	0.00032147	0.00035313	0.00010243	915.81	3.8522e-06	3.8352e-06	997.2	196.9	3.6991e-06	3.7862e-06	251.58	69.19	53.713	15.109	3.7353e-06	21.764	164.839	72.721	91.384	0.038	178.545	121.760	0.113	7.461	176.608	127.972	6.725	14.163	14.898	22.224	173.474	21.406	-8191	255	
463.768	1	1	0	0	0.28699	0.20147	0.089635	0.32094	0.192	0.14266	0.060856	0.1569	0.2009	0.25326	0.21255	0.16404	0.34363	0.17095	0.23978	0.15898	-2.1917	-3.0438	-3.0229	-2.8271	-3.1604	-2.9813	-3.1396	-3.3063	-2.9833	-3	-3.2521	-2.85	-3.3187	-2.9958	-3.0125	-3.3333	214.913	113.648	226.610	346.891	177.487	40.367	220.299	245.434	164.643	260.009	263.885	5.110	296.587	36.438	268.670	327.530	6.7584e-05	0.00031869	0.00013596	931.29	1.2802e-06	5.8419e-07	1016.5	198.28	2.8824e-06	4.2625e-06	252.89	68.263	53.511	14.913	3.623e-06	21.575	0.00029043	0.00034178	9.3703e-05	916.18	3.7526e-06	3.8092e-06	1000.3	196.9	3.9994e-06	4.0453e-06	251.49	69.036	53.9	15.168	4.0436e-06	21.847	161.508	51.816	87.072	-0.094	109.385	259.892	0.338	7.342	219.979	141.525	6.677	14.331	14.902	22.432	138.109	21.474	-8191	255	
463.864	1	1	0	0	0.1649	0.24604	0.12637	0.24266	0.10667	0.18628	0.18772	0.10113	0.068159	0.044928	0.28447	0.12633	0.17902	0.077935	0.050431	0.090208	-2.3708	-3.1583	-3.1396	-3.0333	-3.0917	-2.8438	-2.9396	-3.3458	-2.6104	-3.0979	-3.2188	-2.7938	-3.1625	-3.1312	-2.8271	-3.1833	227.280	110.195	175.788	333.986	65.914	230.497	305.790	68.241	65.437	239.301	344.257	267.967	72.344	124.264	30.804	153.318	9.4311e-05	0.00023362	0.0001163	937	3.4863e-06	1.867e-07	1017.1	198.7	2.2538e-06	3.9832e-06	254.85	68.209	53.471	15.001	2.8769e-06	21.301	0.00032678	0.00038631	0.00010731	920.33	4.1398e-06	4.2154e-06	1003.5	197.41	3.969e-06	3.9366e-06	252.98	69.146	53.881	15.168	3.8789e-06	21.743	161.742	65.706	104.365	-0.043	160.744	253.792	0.126	7.404	192.823	124.161	6.997	13.996	14.744	22.590	148.118	20.834	-8191	255	
463.960	1	1	0	0	0.22503	0.2459	0.12354	0.27688	0.036374	0.12965	0.16312	0.35035	0.16655	0.22574	0.11367	0.11977	0.11418	0.12286	0.30509	0.11842	-2.3812	-3.0479	-3.0687	-2.7625	-3.1375	-3.0875	-2.9354	-3.1979	-2.6583	-3.0958	-3.2896	-2.7708	-3.0375	-2.9917	-2.8396	-3.2708	232.285	305.987	54.008	-3.797	310.298	219.172	322.233	-2.514	84.270	6.282	245.036	70.043	7.870	70.555	329.949	329.944	7.417e-05	0.00039021	8.5247e-05	933.8	3.3972e-06	1.4513e-06	1016.4	199.08	6.2157e-07	8.873e-07	252.74	68.191	53.484	14.966	1.2133e-06	21.528	0.00030333	0.00035222	9.79e-05	918.51	3.8632e-06	3.647e-06	1002.4	198.04	3.7359e-06	3.7741e-06	251.81	69.072	53.967	15.139	3.8228e-06	21.814	169.219	85.803	72.004	-0.261	199.906	73.445	0.274	7.563	189.597	174.707	6.949	14.051	14.457	21.628	155.511	21.278	-8191	255	
464.056	1	1	0	0	0.15996	0.21601	0.20412	0.2338	0.12945	0.10777	0.09046	0.15167	0.13577	0.18281	0.081494	0.27385	0.10219	0.1898	0.23149	0.12645	-2.5312	-2.9437	-3.1125	-2.9021	-3.2104	-3.1042	-3.0646	-3.3583	-2.9562	-2.9562	-3.3083	-2.8083	-3.2625	-3.0104	-2.7625	-3.2146	2.459	132.036	69.454	22.774	155.721	256.788	302.244	332.859	320.199	324.369	134.873	114.995	45.424	164.104	63.300	277.909	0.00011582	0.00012924	7.9927e-05	941	2.9682e-06	4.9377e-06	1022	198.38	1.1271e-06	2.5467e-06	253.06	68.372	53.217	14.915	2.4156e-06	21.587	0.00030797	0.00035444	9.2853e-05	920.39	3.7029e-06	3.6984e-06	1002.9	197.55	3.6599e-06	3.8313e-06	251.87	69.147	53.817	15.094	3.6731e-06	21.831	184.865	165.218	98.586	-0.232	113.431	114.361	0.110	7.229	223.030	142.600	6.554	14.068	14.829	22.287	154.980	21.161	-8191	255	
464.152	1	1	0	0	0.18077	0.091474	0.1881	0.22366	0.087116	0.061197	0.32656	0.16558	0.16807	0.21273	0.13348	0.20418	0.18137	0.22535	0.37384	0.14796	-2.5042	-2.8896	-3.2188	-2.9458	-3.0812	-3.1813	-2.8583	-3.2917	-2.9229	-2.7854	-3.2479	-2.9562	-2.8958	-3.1333	-2.6458	-3.0229	166.905	61.002	225.212	-10.466	310.968	30.895	259.459	69.249	121.498	108.792	258.772	221.409	78.260	46.340	294.122	183.861	0.00010864	0.00043565	9.3951e-05	939.38	2.0083e-06	9.8266e-07	1022.1	199.18	2.2607e-06	3.8603e-06	254.8	68.206	53.5	14.975	3.0259e-06	21.646	0.00029568	0.00034851	9.3535e-05	920.52	3.7119e-06	3.7753e-06	1004.5	197.53	3.7142e-06	3.7926e-06	252.14	69.02	53.841	15.174	3.703e-06	21.883	174.582	85.293	95.014	-0.099	122.887	124.142	0.070	7.406	121.434	139.466	6.960	14.101	14.568	22.131	171.130	21.411	-8191	255	
464.248	1	1	0	0	0.016062	0.11484	0.2214	0.2152	0.076547	0.15871	0.21727	0.16978	0.21823	0.25044	0.14278	0.09439	0.1898	0.10284	0.1847	0.053167	-2.7042	-2.7771	-3.2417	-2.8542	-3.1292	-3.3063	-2.75	-2.9875	-2.9583	-2.9146	-3.3333	-2.9458	-3.1917	-3.0708	-2.8396	-3.1813	334.473	15.116	228.553	275.909	82.913	272.559	314.303	260.405	9.937	147.356	5.832	275.867	53.125	249.759	30.739	204.192	8.8284e-05	0.00015781	7.8593e-05	938.55	2.6362e-06	9.9324e-07	1019.1	198.06	1.2028e-06	2.2619e-06	255.71	68.178	53.401	14.973	1.6892e-06	21.589	0.0003002	0.0003522	9.4656e-05	920.53	3.8179e-06	3.7588e-06	1002.7	197.71	3.6862e-06	3.778e-06	252.37	69.092	53.815	15.165	3.6908e-06	21.859	189.461	79.342	139.018	-0.089	145.942	178.191	-0.165	7.656	219.767	157.114	6.983	14.345	14.970	22.163	118.248	21.408	-8191	255	
464.344	1	1	0	0	0.11261	0.18508	0.040917	0.34587	0.28312	0.08503	0.081067	0.03702	0.072992	0.098274	0.14023	0.16241	0.14718	0.074458	0.13085	0.26212	-2.6542	-2.7208	-3.125	-3.0354	-2.8979	-3.2771	-2.8375	-3.0375	-3.0917	-2.925	-3.3229	-2.9104	-2.9521	-3.275	-2.7729	-3.1625	182.641	180.379	-7.605	280.970	70.661	174.869	258.086	309.476	303.109	250.601	216.498	268.590	335.220	123.998	104.849	59.246	0.00010729	0.00025168	7.5563e-05	936.65	7.5276e-07	1.0266e-06	1018.3	199.24	1.3166e-06	3.1742e-06	254.54	68.427	52.999	14.886	2.2794e-06	21.551	0.00029467	0.0003475	9.4009e-05	918.53	3.7995e-06	3.6346e-06	1004.3	197.65	3.8478e-06	3.8138e-06	251.85	69.195	53.829	15.183	4.0049e-06	21.867	171.480	78.150	157.611	-0.329	203.238	294.330	0.265	7.618	162.580	126.502	6.900	14.010	14.612	22.004	158.920	21.067	-8191	255	
464.441	1	1	0	0	0.25572	0.19643	0.036755	0.11643	0.18323	0.20009	0.10958	0.042529	0.068847	0.27214	0.19496	0.17795	0.14709	0.20896	0.27078	0.1783	-2.675	-2.6917	-3.1021	-3.2021	-2.8521	-3.3375	-2.9146	-3.0229	-3.1354	-2.7042	-3.1167	-3.2188	-2.725	-3.2375	-2.8292	-3.0104	312.644	54.186	348.131	146.308	24.808	285.878	327.057	303.414	331.594	265.272	243.133	58.997	112.447	36.224	45.494	228.154	9.1784e-05	0.00026841	0.00011388	937.38	3.5853e-06	3.089e-06	1022.5	200.05	1.7017e-06	5.2147e-06	254.14	68.625	53.47	14.984	2.4383e-06	21.536	0.00030572	0.00035628	9.8495e-05	920.34	3.8679e-06	3.7512e-06	1005	198.3	3.8517e-06	4.0072e-06	252.24	69.305	54.009	15.189	3.9479e-06	21.916	147.780	80.273	97.494	-0.155	250.604	101.972	0.072	7.439	134.598	112.221	6.803	14.503	14.588	22.057	148.687	21.552	-8191	255	
464.537	1	1	0	0	0.201	0.095613	0.066885	0.34598	0.11892	0.28287	0.2486	0.16587	0.23019	0.10902	0.2549	0.0031156	0.20579	0.12819	0.23924	0.16366	-2.7083	-2.8042	-3.0729	-3.1333	-2.8729	-3.2687	-3.0187	-2.9604	-3.2208	-2.7687	-3.1063	-3.1146	-2.8854	-3.1583	-2.8	-2.7438	89.999	221.004	118.217	328.243	41.939	36.273	233.328	169.247	286.730	45.202	71.084	202.110	320.575	316.528	94.806	100.022	8.4265e-05	0.00012533	1.2214e-05	940.8	3.5527e-06	3.2385e-06	1021.3	199.66	4.2343e-06	3.9773e-06	253.63	68.372	53.529	14.996	2.7813e-06	21.468	0.00031688	0.00035656	9.9048e-05	922.67	3.9156e-06	3.9218e-06	1005.3	198.09	3.915e-06	3.8252e-06	252.5	69.338	53.905	15.153	3.9517e-06	21.84	154.952	326.631	58.582	-0.249	193.627	136.051	0.020	7.585	232.003	84.145	7.064	14.028	15.200	22.240	153.708	21.726	-8191	255	
464.656	1	1	0	0	0.20618	0.0087367	0.067002	0.30016	0.070252	0.20832	0.042949	0.051689	0.10711	0.14942	0.12166	0.18972	0.14364	0.14866	0.077702	0.21085	-2.8167	-2.7042	-2.8479	-3.1437	-2.8667	-3.1854	-3.0812	-2.7958	-3.2188	-2.8229	-3.2875	-3.1542	-2.8833	-3.2833	-2.8417	-2.8583	53.853	288.153	-2.095	349.259	149.501	264.765	210.773	228.751	139.984	336.518	207.006	-3.912	329.132	-2.250	179.751	117.901	0.0001246	0.00026772	0.00013709	936.55	1.9662e-06	3.2149e-06	1021.3	199.02	2.1747e-06	2.0561e-06	255.32	68.887	53.515	14.911	2.1595e-06	21.54	0.00031155	0.00036642	0.00010138	921.44	3.9986e-06	3.8642e-06	1005.5	197.86	3.9375e-06	4.0891e-06	252.77	69.332	54.002	15.143	4.0924e-06	21.864	154.340	39.193	96.563	-0.164	148.567	187.125	-0.059	7.420	212.414	142.691	7.216	14.337	14.836	21.757	137.752	21.744	-8191	255	
464.729	1	1	0	0	0.2142	0.16619	0.057012	0.20457	0.092413	0.15794	0.24256	0.27427	0.018663	0.018424	0.29965	0.064398	0.19066	0.084237	0.17751	0.077049	-2.8187	-2.7229	-2.9333	-3.4167	-2.725	-3.3167	-3.1042	-2.9333	-3.3271	-2.7854	-3.1917	-3.2958	-2.7188	-3.0292	-3.0625	-2.8104	147.208	199.616	75.369	340.218	19.409	324.632	170.707	308.146	208.970	95.736	345.111	78.735	267.942	6.649	92.617	316.123	0.00010989	0.00024138	6.8152e-05	938.9	9.4167e-07	2.6748e-06	1022.1	199.86	1.6486e-06	4.1989e-06	254.48	68.271	53.68	14.955	2.9565e-06	21.732	0.00032066	0.00036976	0.00010319	922.8	4.1059e-06	3.9954e-06	1006	198.43	3.9748e-06	4.0055e-06	252.92	69.309	54.128	15.19	4.0149e-06	21.964	157.724	65.951	99.596	0.102	101.648	94.726	0.021	7.265	160.188	118.891	7.010	14.371	14.920	22.265	148.840	21.387	-8191	255	
464.848	1	1	0	0	0.22834	0.16523	0.28434	0.078167	0.18205	0.15069	0.45349	0.20476	0.033094	0.23426	0.16718	0.093133	0.024331	0.26264	0.15694	0.24512	-2.8063	-2.8937	-3.0104	-3.1354	-2.6437	-3.1792	-3.2292	-2.8646	-3.2771	-3.0167	-2.8958	-3.2083	-2.9146	-3.1646	-3.0812	-2.8771	147.132	166.095	248.993	262.749	333.275	189.957	305.003	-9.135	282.670	283.993	330.223	121.805	123.361	210.738	275.604	238.182	9.8551e-05	0.00052122	0.00014427	940.91	4.0115e-06	1.957e-06	1024.4	198.18	2.977e-07	1.7548e-06	254.24	68.486	53.663	14.971	1.7311e-06	21.622	0.00031499	0.00037013	0.00010148	924.1	3.9792e-06	3.9761e-06	1007.9	197.77	3.8225e-06	3.9794e-06	252.71	69.405	54.08	15.21	3.937e-06	21.942	156.532	65.887	63.507	-0.072	167.975	181.929	0.223	7.438	166.844	146.159	7.159	14.360	14.600	22.398	125.967	21.486	-8191	255	
464.944	1	1	0	0	0.13628	0.16948	0.28953	0.15239	0.36134	0.16845	0.057455	0.0023456	0.12958	0.22976	0.15852	0.057027	0.084218	0.099768	0.071148	0.040609	-2.8708	-2.8438	-2.7542	-3.375	-2.7792	-3.1292	-3.2771	-2.6813	-3.1063	-2.9688	-2.8937	-3.2687	-2.9729	-2.9729	-3.275	-2.8792	287.255	91.820	264.632	2.246	233.455	212.059	255.503	177.200	190.162	96.896	310.271	275.578	292.320	327.785	93.779	56.992	7.9146e-05	0.00041319	7.8609e-05	942.28	2.5689e-06	1.615e-06	1027.5	198.76	8.8295e-07	5.2134e-06	256.09	68.606	53.58	14.96	1.6013e-06	21.869	0.00032168	0.00037893	0.00010399	926.34	4.1845e-06	4.1556e-06	1010.8	198.6	4.0612e-06	4.2403e-06	253.3	69.629	54.312	15.254	4.389e-06	22.001	163.284	78.794	165.471	-0.014	198.275	179.234	0.249	7.775	204.807	123.777	7.270	14.056	15.016	21.779	126.373	21.283	-8191	255	
465.040	1	1	0	0	0.16406	0.0824	0.24932	0.29721	0.256	0.1059	0.18017	0.40696	0.044827	0.2552	0.022319	0.081638	0.11116	0.24365	0.27988	0.21533	-2.8896	-2.9792	-2.8521	-3.3646	-2.8292	-3.0646	-3.3312	-2.8187	-3.025	-3.1562	-2.7333	-3.2208	-2.7396	-2.8833	-3.0042	-2.7208	142.199	210.431	57.894	325.326	68.493	146.826	3.761	292.447	12.194	228.079	1.778	316.059	56.580	244.479	77.857	203.223	9.0902e-05	0.00033074	3.6105e-05	948.86	3.1424e-06	4.6868e-06	1035.1	200.57	3.1253e-06	3.9813e-06	254.94	69.465	54.422	15.145	3.5544e-06	21.919	0.000329	0.00040295	0.00010789	932.33	4.385e-06	4.4913e-06	1019.5	199.56	4.4595e-06	4.6751e-06	254.93	70.339	55.087	15.473	5.6597e-06	22.384	175.160	87.055	187.385	-0.005	150.368	149.944	0.172	7.511	172.624	197.865	7.080	14.363	14.250	21.887	206.101	21.087	-8191	255	
465.136	1	1	0	0	0.14374	0.061542	0.20558	0.13502	0.29904	0.25666	0.30297	0.098505	0.24512	0.1406	0.16488	0.14462	0.14681	0.098285	0.17601	0.17252	-2.8396	-2.9917	-2.6979	-3.2979	-2.7792	-2.9917	-3.2292	-2.8021	-3.0833	-3.0417	-2.8271	-3.2146	-2.9375	-2.9583	-3.0958	-3.0292	321.026	236.182	207.760	299.572	254.525	81.655	317.154	145.814	210.638	272.713	277.323	278.190	2.622	148.857	208.126	345.984	7.8374e-05	0.00039676	4.5581e-05	990.22	3.0557e-06	2.4284e-06	1092.1	208.42	4.1902e-06	4.4894e-06	268.73	72.383	56.872	15.782	4.4084e-06	22.528	0.00047675	0.00061225	0.00017698	977.3	7.2207e-06	7.8389e-06	1076	208.76	7.9577e-06	8.3002e-06	268.98	73.915	58.106	16.26	7.4284e-06	23.363	171.317	76.858	16.861	-0.283	160.567	312.428	-0.183	7.297	147.540	169.119	6.646	13.937	14.334	21.742	109.020	20.879	-8191	255	
465.257	1	1	0	0	0.19902	0.16978	0.35893	0.32637	0.044111	0.021432	0.13283	0.32155	0.14837	0.046907	0.058521	0.19119	0.15579	0.062265	0.1449	0.21206	-2.6521	-3.1646	-2.6688	-3.3708	-2.9396	-2.875	-3.3708	-2.9188	-2.8729	-3.2125	-2.8125	-3.2167	-2.9729	-2.9771	-3.2125	-2.8646	287.791	259.229	323.891	270.388	93.412	51.042	272.764	340.356	129.848	102.389	202.641	286.853	311.738	341.295	-1.392	322.911	9.6757e-05	0.00034928	3.6818e-05	1017	3.6092e-06	3.378e-06	1102.3	210.57	3.5965e-06	4.4307e-06	271.63	72.574	57.48	15.911	2.9475e-06	22.971	0.00055431	0.00065618	0.0001832	1001.7	6.8479e-06	6.956e-06	1087.1	210.89	6.5973e-06	6.3603e-06	270.4	74.15	58.033	16.29	6.4505e-06	23.481	146.375	83.502	-6.306	-0.436	210.988	124.133	-0.223	7.318	150.458	139.467	6.228	13.913	13.901	21.268	124.291	21.330	-8191	255	
465.353	1	1	0	0	0.19135	0.12999	0.11092	0.044348	0.13317	0.31069	0.14375	0.28182	0.173	0.1721	0.36518	0.21452	0.15205	0.17707	0.23475	0.18337	-2.5604	-3.1063	-2.7896	-3.1667	-2.9646	-2.6271	-3.3333	-2.9875	-2.9104	-3.1729	-2.9	-3.0917	-3.1271	-2.7687	-3.1896	-2.8333	79.178	133.877	338.416	78.221	1.540	303.766	316.165	152.618	122.048	230.095	53.801	-8.753	115.568	278.775	125.497	153.288	0.00013519	0.00030664	0.00010749	1022.4	2.7967e-06	3.3567e-06	1103.8	212.81	2.4883e-06	4.6688e-06	272.19	73.515	57.605	16.117	3.5859e-06	23.619	0.00051642	0.00060855	0.00017232	1003.4	7.0554e-06	7.3216e-06	1090.9	212.49	7.215e-06	7.5069e-06	272.69	75.008	58.837	16.594	7.9224e-06	24.049	176.344	53.706	35.011	-0.499	205.729	338.728	-0.095	7.231	106.599	110.061	6.585	13.625	14.128	21.436	178.823	20.875	-8191	255	
465.449	1	1	0	0	0.17318	0.047091	0.23042	0.074984	0.13033	0.13008	0.021991	0.067144	0.28271	0.22355	0.024186	0.08352	0.16022	0.11979	0.13506	0.26929	-2.5292	-3.1146	-2.8729	-3.2896	-3.0542	-2.8063	-3.3729	-2.8958	-2.7729	-3.225	-2.9146	-3.0187	-2.9667	-2.7729	-3.2417	-2.9354	61.132	249.330	146.900	34.967	107.293	-2.347	94.344	306.980	203.373	130.583	11.648	14.196	326.958	342.398	193.101	164.650	0.00013908	0.00025554	5.6671e-05	1034	2.216e-06	5.7471e-06	1119.2	215.68	3.1826e-06	2.6835e-06	275.49	74.52	58.379	16.517	3.9291e-06	23.725	0.00062969	0.00078707	0.00022201	1019.2	8.6991e-06	8.7632e-06	1108.1	216.03	8.6123e-06	8.4858e-06	276.13	76.021	59.915	16.936	9.0971e-06	24.297	181.291	139.674	80.214	-0.477	151.489	213.831	-0.131	6.982	111.778	114.582	6.453	13.508	14.838	21.292	149.935	20.699	-8191	255	
465.545	1	1	0	0	0.15678	0.075229	0.13647	0.24645	0.17235	0.0086089	0.19548	0.030074	0.17833	0.15582	0.27008	0.017253	0.28778	0.18478	0.071958	0.24081	-2.4437	-3.0042	-2.6312	-3.2062	-3.0604	-2.8833	-3.2792	-3.0479	-2.8625	-3.1896	-2.9958	-3.1042	-3.1458	-2.7979	-3.2583	-2.9083	-6.591	239.674	29.485	23.670	67.351	315.900	127.991	205.649	180.592	217.495	249.486	265.628	266.649	263.475	107.326	326.413	0.0001034	0.00038146	0.00012303	1043.4	2.9413e-06	4.4913e-06	1134.9	218.83	5.7182e-06	4.242e-06	279.8	74.954	59.331	16.704	3.9762e-06	23.81	0.00068699	0.00084306	0.00024034	1031.5	9.2846e-06	9.6164e-06	1124.3	219.9	9.448e-06	9.5114e-06	279.92	76.992	60.904	17.286	9.8412e-06	24.601	159.869	19.699	103.955	-0.414	167.154	187.132	-0.173	6.954	141.458	114.814	6.701	13.885	14.041	21.454	118.913	20.723	-8191	255	
465.640	1	1	0	0	0.1515	0.17194	0.31712	0.26765	0.11005	0.2194	0.22244	0.024126	0.09338	0.14507	0.20097	0.084978	0.022609	0.17058	0.076101	0.03617	-2.4854	-3.2771	-2.8187	-3.0854	-3.1875	-2.6667	-3.2896	-3.0729	-2.7	-3.3583	-2.8896	-2.9104	-3.2271	-2.7958	-3.1188	-3.1146	309.569	248.783	311.316	292.806	122.547	47.616	321.501	230.694	186.177	-2.620	331.423	142.744	72.119	61.843	41.851	142.047	0.00019071	0.00016397	7.0358e-05	1062.5	2.1501e-06	3.4407e-06	1155.1	223.68	1.9935e-06	2.9345e-06	285.79	76.974	60.603	17.344	2.5389e-06	24.461	0.00077635	0.00098453	0.00028096	1048.7	1.136e-05	1.1919e-05	1143.3	225.5	1.2374e-05	1.2909e-05	288.02	79.346	62.979	18.019	1.332e-05	25.436	151.283	15.670	71.856	-0.567	184.713	150.505	-0.441	7.052	215.464	75.457	6.391	13.373	14.159	21.024	115.015	20.774	-8191	255	
465.736	1	1	0	0	0.10763	0.068147	0.23449	0.076324	0.096263	0.014074	0.17101	0.043161	0.10672	0.16119	0.26813	0.091947	0.24402	0.25643	0.15753	0.094327	-2.3229	-3.1667	-3.0354	-3.0542	-3.1646	-2.7417	-3.1146	-3.2812	-2.5375	-3.1271	-2.8896	-2.9208	-3.3354	-2.6917	-2.9917	-3.0354	186.910	250.745	72.564	-5.351	253.168	32.751	230.561	170.294	181.112	67.289	301.243	201.515	192.658	336.092	119.491	43.310	8.5715e-05	0.00045859	6.1656e-05	1074.7	3.0329e-06	6.0519e-06	1167	229.81	2.3404e-06	7.0449e-06	289.78	77.45	61.42	17.462	1.9695e-06	24.456	0.00097494	0.0012103	0.00033558	1065.1	1.2785e-05	1.3036e-05	1156.8	231.08	1.252e-05	1.2856e-05	293.19	80.055	63.237	18.013	1.1787e-05	25.537	169.009	131.798	125.392	-0.609	269.801	162.739	-0.089	6.748	213.701	175.581	6.221	13.451	13.853	21.415	185.527	20.499	-8191	255	
465.832	1	1	0	0	0.33594	0.14715	0.15675	0.28183	0.052273	0.15501	0.24115	0.085576	0.21931	0.16677	0.0097794	0.070824	0.11829	0.17056	0.20317	0.046142	-2.2438	-3.225	-2.8708	-2.9708	-3.4396	-2.9313	-3.1146	-3.2896	-2.6	-3.0187	-3.15	-2.8271	-3.3937	-2.9146	-2.9229	-2.9354	33.237	23.771	208.546	342.247	191.856	74.966	301.747	14.933	130.421	280.518	111.476	20.502	180.886	327.007	237.420	-2.634	9.3154e-05	0.00025608	4.7526e-05	1080.5	2.4704e-06	3.9193e-06	1164.8	230.43	8.2734e-07	1.3628e-06	292.77	77.75	61.473	17.399	2.747e-06	24.704	0.00087613	0.0010842	0.00030878	1068.1	1.1933e-05	1.2344e-05	1156.9	232.39	1.2545e-05	1.303e-05	295.69	80.342	63.444	18.087	1.2563e-05	25.729	175.178	42.663	47.407	-0.558	260.145	82.059	0.008	6.950	251.959	241.924	6.490	13.524	14.459	21.009	61.786	20.517	-8191	255	
465.953	1	1	0	0	0.15661	0.11073	0.18211	0.081831	0.18584	0.30745	0.14188	0.16106	0.099748	0.20121	0.032695	0.10277	0.13823	0.41924	0.25292	0.162	-2.15	-3.0062	-2.8979	-2.7396	-3.2792	-2.9562	-3.2479	-3.0729	-2.7208	-3.1083	-3.2708	-2.7854	-3.3958	-3.0333	-2.8708	-3.2438	321.153	296.543	143.710	210.327	326.220	296.783	340.316	243.981	84.516	264.761	-4.903	206.410	245.752	288.398	254.125	80.644	0.00011865	0.00010244	0.00012222	1072.7	5.2446e-06	4.2557e-06	1173	233.06	2.9971e-06	2.4428e-06	295.39	78.607	61.948	17.534	3.119e-06	24.625	0.00093302	0.0011311	0.00031546	1066.4	1.1837e-05	1.2354e-05	1160	233.83	1.1788e-05	1.2311e-05	296.7	80.523	63.567	18.149	1.1206e-05	25.569	176.643	279.039	72.792	-0.495	164.142	123.348	-0.296	7.044	244.983	179.573	6.532	13.376	13.815	21.019	93.584	20.299	-8191	255	
466.024	1	1	0	0	0.23606	0.24056	0.19881	0.20539	0.068938	0.30096	0.11458	0.05028	0.29141	0.18523	0.15276	0.19748	0.14	0.095434	0.032032	0.15234	-2.5354	-3.1125	-2.8833	-3.025	-3.0667	-2.7771	-2.9896	-3.3646	-2.7333	-3.0396	-3.1208	-2.7438	-3.2583	-2.9333	-3.0396	-3.0583	-2.409	153.703	119.040	9.820	96.149	196.753	343.396	27.656	1.999	45.992	109.408	234.247	87.677	44.946	110.527	146.016	0.00013538	0.00024465	0.00015512	1078.5	4.3274e-06	3.4038e-06	1164.4	231.53	3.1279e-06	2.2827e-06	295.5	78.131	61.409	17.462	5.6309e-06	24.773	0.00083296	0.0010198	0.0002866	1066.3	1.0639e-05	1.1248e-05	1155.9	232.96	1.0949e-05	1.1181e-05	295.68	80.227	63.054	18.029	1.092e-05	25.589	183.111	295.080	76.042	-0.662	218.120	128.757	-0.113	7.010	158.416	171.509	6.388	13.562	14.249	20.928	117.049	20.444	-8191	255	
466.121	1	1	0	0	0.13831	0.030213	0.092264	0.085212	0.1733	0.30213	0.18967	0.15501	0.097336	0.15449	0.23113	0.30192	0.088141	0.11962	0.13703	0.081797	-2.1146	-2.8812	-2.9979	-2.8979	-3.1542	-2.8812	-3.0062	-3.2208	-2.7833	-2.8958	-3.2833	-2.6813	-3.1854	-3.05	-2.975	-3.3792	38.180	152.782	98.116	255.921	152.930	197.655	296.219	10.901	343.983	52.723	265.804	198.535	140.272	272.933	183.096	-0.756	0.00014057	0.00084931	0.00012887	1079.7	2.5015e-06	3.0286e-06	1169.6	233.05	6.7204e-07	1.2063e-06	294.02	78.155	61.523	17.37	5.2432e-06	24.759	0.00080662	0.0010158	0.00028665	1066.9	1.1037e-05	1.1436e-05	1158.6	233.94	1.1114e-05	1.154e-05	296.36	80.357	63.246	18.05	1.1226e-05	25.742	180.768	121.948	155.475	-0.449	252.809	83.838	0.030	6.878	175.756	227.378	6.665	13.518	14.003	21.130	187.667	20.242	-8191	255	
466.217	1	1	0	0	0.29072	0.11959	0.29173	0.095523	0.18786	0.24165	0.26062	0.34245	0.19572	0.10147	0.10389	0.11489	0.2135	0.020392	0.20968	0.20889	-2.5479	-2.9437	-3.1292	-2.8438	-2.9917	-3.2292	-2.8208	-3.25	-3.0146	-3.0167	-3.1208	-2.8979	-3.0563	-3.1167	-2.6104	-3.1833	83.101	63.813	348.418	259.933	271.126	121.691	26.396	187.340	346.005	275.995	74.029	180.702	341.383	190.128	306.009	-0.810	0.00013512	0.0011706	0.00017565	1085.1	2.675e-06	2.6604e-06	1167.9	235.04	2.0221e-06	3.4076e-06	296.04	78.837	61.788	17.469	7.1013e-07	24.868	0.0008695	0.0010572	0.00029304	1070.4	1.1452e-05	1.1484e-05	1160.5	234.89	1.1207e-05	1.1632e-05	297.75	80.573	63.649	18.187	1.134e-05	25.757	152.251	93.100	99.808	-0.592	180.627	135.445	-0.282	6.957	195.528	142.251	6.386	13.633	13.865	21.145	313.106	20.464	-8191	255	
466.337	1	1	0	0	0.21287	0.24465	0.20785	0.18975	0.17619	0.09928	0.056948	0.1876	0.097899	0.1345	0.17296	0.28619	0.14173	0.0051225	0.064959	0.18694	-2.4771	-2.7833	-2.9854	-2.9792	-2.8667	-3.2333	-2.925	-3.325	-2.9208	-2.7958	-3.4271	-2.8375	-2.8438	-3.2417	-2.6896	-3.2979	134.955	313.381	51.105	326.100	140.023	74.753	300.924	248.138	91.139	12.226	-8.420	288.430	327.598	337.986	130.433	17.087	0.00010922	0.0005859	0.00011074	1085	4.6988e-06	5.3381e-06	1171.5	232.43	3.5355e-06	4.5053e-06	295.7	78.509	62.248	17.581	1.8469e-06	24.983	0.0008353	0.0010283	0.00029027	1070.7	1.0947e-05	1.1002e-05	1160.4	234.79	1.1058e-05	1.139e-05	297.39	80.436	63.695	18.203	1.1145e-05	25.809	172.614	95.323	158.304	-0.581	192.484	172.900	-0.162	6.776	65.800	102.485	6.603	13.461	13.816	21.310	165.480	21.094	-8191	255	
466.434	1	1	0	0	0.029064	0.082885	0.20206	0.36487	0.090568	0.12192	0.20397	0.18652	0.22338	0.15823	0.15278	0.13452	0.23268	0.078693	0.032105	0.098108	-2.5479	-2.8563	-3.1771	-2.9854	-3.1354	-3.2083	-3.0062	-3.2438	-2.9083	-2.8708	-3.25	-2.9625	-2.9083	-3.3229	-2.7396	-3.1292	297.309	116.458	45.067	275.551	327.784	61.383	306.803	242.836	228.956	9.221	62.058	82.641	269.364	222.962	141.780	111.234	9.8654e-05	0.00061345	4.0223e-05	1085.2	5.251e-07	5.5807e-06	1170	235.48	1.363e-06	4.0632e-06	296.59	78.602	62.063	17.746	3.2459e-06	24.952	0.00083483	0.0010149	0.00028305	1069.4	1.0965e-05	1.1019e-05	1161.1	235.79	1.1055e-05	1.1696e-05	298.3	80.757	63.893	18.327	1.172e-05	25.896	146.939	94.746	345.725	-0.451	186.166	138.318	-0.292	6.688	132.418	158.343	6.393	13.405	13.874	21.022	177.703	20.296	-8191	255	
466.530	1	1	0	0	0.097596	0.14657	0.16706	0.29051	0.093186	0.14109	0.22451	0.068051	0.11655	0.11047	0.27798	0.063873	0.20357	0.25955	0.19402	0.24314	-2.6021	-2.75	-3.1854	-3.0729	-2.9125	-3.0187	-2.6958	-3.1312	-3.2271	-2.8083	-3.2313	-2.9292	-2.9104	-3.2083	-2.8875	-2.8958	271.276	116.608	194.161	-1.868	228.221	171.045	316.934	27.026	168.540	9.247	325.571	250.660	47.252	286.762	201.047	185.263	0.0001179	0.00053674	9.1281e-05	1085.8	4.5951e-06	8.5053e-06	1178	235.19	1.4166e-06	3.2542e-06	296.77	78.402	62.143	17.565	1.6747e-06	24.976	0.00086983	0.001074	0.00029644	1073.3	1.1666e-05	1.1848e-05	1166	236.77	1.1574e-05	1.1769e-05	298.49	80.96	64.007	18.253	1.1522e-05	25.946	162.282	20.658	114.326	-0.738	169.145	89.315	-0.447	6.857	183.585	142.976	6.556	13.408	13.825	21.063	242.676	20.045	-8191	255	
466.626	1	1	0	0	0.26512	0.11308	0.21882	0.15565	0.11954	0.094114	0.070387	0.067615	0.10026	0.1302	0.18276	0.11466	0.15763	0.06829	0.37098	0.047017	-2.8396	-2.6979	-3.1771	-3.1646	-2.7583	-3.35	-2.9813	-3.1	-3.225	-2.7583	-3.2167	-3.0354	-3.0125	-3.2958	-2.6396	-3.1646	298.120	201.419	266.986	117.016	275.381	247.679	156.147	88.084	199.415	302.034	328.245	255.168	283.003	327.561	346.961	23.282	0.00013593	0.00042841	0.0001445	1090.3	5.6011e-06	2.1608e-06	1177.3	235.6	3.9766e-06	1.7987e-06	296.82	79.095	62.787	17.597	2.79e-06	25.076	0.00086317	0.0010652	0.00029746	1077.1	1.1608e-05	1.1777e-05	1167.5	236.79	1.1451e-05	1.2029e-05	299.12	81.065	64.096	18.304	1.1719e-05	25.984	160.920	137.046	35.933	-0.685	131.251	184.502	0.010	6.781	221.476	199.163	6.406	13.771	14.292	20.885	105.022	20.440	-8191	255	
466.720	1	1	0	0	0.45036	0.12509	0.018157	0.1497	0.17739	0.10234	0.38638	0.10743	0.20841	0.19074	0.05402	0.070216	0.31913	0.24273	0.047699	0.2261	-2.6854	-2.6708	-3.1729	-3.05	-2.9104	-3.1875	-3.0812	-3.0167	-3.1896	-2.7021	-3.2479	-3.0229	-2.7604	-3.2958	-2.8688	-3.1833	141.660	292.429	261.661	15.605	-1.760	162.146	279.572	198.687	270.438	212.253	11.804	101.250	26.097	305.637	146.601	51.498	0.00010082	0.00023184	9.5303e-05	1092.4	1.1399e-06	4.3323e-06	1177	235.75	1.5895e-06	5.0895e-06	295.79	78.647	61.877	17.635	2.2582e-06	25.066	0.00087166	0.0010719	0.00030276	1076.9	1.1603e-05	1.1683e-05	1164.8	236.94	1.1066e-05	1.149e-05	298.2	80.769	63.675	18.235	1.1006e-05	25.882	167.077	64.035	178.311	-0.614	99.058	119.843	-0.543	6.657	93.628	229.855	6.167	13.342	14.202	20.771	157.585	20.181	-8191	255	
466.818	1	1	0	0	0.22066	0.16436	0.22143	0.16934	0.17302	0.13169	0.23639	0.15689	0.12829	0.049158	0.042226	0.050285	0.024367	0.10139	0.18727	0.088654	-2.7771	-2.8667	-3.0708	-3.175	-2.9021	-3.2479	-3.0354	-3.0229	-3.1729	-2.7208	-3.1896	-3.3	-2.9667	-3.2812	-2.8771	-2.7396	336.070	168.900	246.087	275.131	160.008	211.018	10.788	4.005	251.010	-4.369	42.145	13.430	321.027	310.407	219.140	196.906	0.00010109	0.00043705	7.1865e-05	1084.3	2.787e-06	4.7527e-06	1174.2	235.01	3.9423e-06	6.2144e-06	297.19	78.568	62.173	17.516	6.2636e-06	24.879	0.00081202	0.0010009	0.00027839	1072.8	1.0739e-05	1.0826e-05	1162.5	235.75	1.03e-05	1.0595e-05	297.53	80.684	63.547	18.093	1.0301e-05	25.816	166.913	97.668	77.760	-0.555	287.505	166.335	-0.171	6.972	147.981	194.100	6.212	13.614	14.118	21.267	197.677	20.449	-8191	255	
466.937	1	1	0	0	0.054687	0.16087	0.066914	0.19646	0.14719	0.071846	0.04659	0.19005	0.14742	0.19888	0.13113	0.27388	0.17051	0.16809	0.2353	0.078899	-2.7771	-2.8542	-3.075	-3.2792	-2.6562	-3.2146	-3.2917	-3.0604	-3.3708	-3.0104	-3.1396	-3.3604	-3.0896	-3.2833	-3.0563	-2.8417	59.278	164.749	339.008	348.802	162.191	214.770	38.833	255.670	302.431	189.043	247.173	239.552	249.676	41.915	207.568	66.869	9.8256e-05	0.00039604	0.00015741	1081.1	3.639e-06	4.3467e-06	1167.1	234.17	2.7808e-06	7.6474e-06	297.08	78.933	62.296	17.586	3.512e-06	24.826	0.00076789	0.00095248	0.00026732	1070	1.0262e-05	1.0422e-05	1161.5	235.24	1.025e-05	1.0496e-05	297.86	80.585	63.673	18.195	1.0431e-05	25.705	163.225	134.117	45.302	-0.296	174.147	105.637	-0.361	7.034	153.156	188.571	6.509	13.364	14.300	21.295	243.672	20.218	-8191	255	
467.033	1	1	0	0	0.111	0.21657	0.10829	0.16742	0.15861	0.21213	0.25917	0.07394	0.21391	0.29891	0.085905	0.18544	0.11405	0.1656	0.21802	0.21003	-2.8833	-2.9021	-3.1646	-3.4042	-2.7979	-3.2917	-3.4271	-2.975	-3.3187	-2.8896	-3.1833	-3.2292	-2.825	-3.0396	-3.175	-2.7521	46.973	14.668	94.995	-3.708	284.542	323.313	315.647	91.817	147.451	317.066	229.873	288.176	64.646	210.520	25.865	119.365	0.00011182	0.00046742	9.0259e-05	1087.3	3.7636e-06	1.9149e-06	1172.3	235.09	3.3204e-06	5.065e-06	295.77	78.843	62.138	17.422	2.8196e-06	24.88	0.00076248	0.00093575	0.00026417	1072.4	1.0162e-05	1.032e-05	1161.7	235.56	9.9579e-06	1.0146e-05	297.85	80.725	63.506	18.113	9.9721e-06	25.725	166.081	92.730	37.080	-0.613	179.620	106.279	-0.279	6.639	196.014	139.618	6.539	13.374	13.864	20.930	326.320	20.742	-8191	255	
467.129	1	1	0	0	0.14758	0.16832	0.06911	0.15317	0.27649	0.032424	0.11914	0.025234	0.17722	0.11942	0.2941	0.10911	0.15953	0.16594	0.15538	0.15243	-2.8792	-2.9125	-2.9062	-3.4229	-2.8396	-3.0708	-3.1875	-2.9104	-3.2021	-3.0146	-2.9458	-3.3833	-2.9938	-3.1479	-3.1917	-2.9375	292.574	175.183	78.997	329.157	225.092	333.086	236.948	174.687	329.081	168.370	291.744	319.652	6.071	71.017	222.872	205.319	0.00012645	0.00049121	5.7605e-05	1085.7	4.249e-06	4.996e-06	1171.1	233.75	7.9112e-07	6.2349e-06	294.82	78.365	61.34	17.514	6.1352e-06	24.907	0.00074182	0.00090833	0.00024961	1070.2	9.4754e-06	9.5185e-06	1157.4	234.51	9.2805e-06	9.7881e-06	296.08	80.136	63.247	17.966	9.3079e-06	25.647	169.199	71.686	102.737	-0.518	126.810	117.223	-0.545	6.883	5.471	134.452	6.405	13.841	14.382	21.186	174.835	20.891	-8191	255	
467.250	1	1	0	0	0.12255	0.24559	0.11291	0.10649	0.1378	0.10332	0.30081	0.28868	0.26808	0.17527	0.2126	0.15126	0.17038	0.065333	0.11447	0.20001	-2.8438	-2.9542	-2.8187	-3.45	-2.8167	-3	-3.3563	-2.9479	-3.2417	-3.0021	-2.9542	-3.4208	-2.9625	-3.2562	-3.0979	-2.8729	105.453	136.687	297.325	292.615	103.960	157.211	27.433	343.717	192.978	47.336	322.890	28.788	137.766	266.262	134.717	-0.128	0.00010577	0.00016352	0.00011922	1085.1	3.0005e-06	2.1589e-06	1172.5	232.07	1.7e-06	6.2099e-06	294.55	78.541	61.691	17.581	3.3518e-06	24.83	0.00070312	0.0008643	0.00023618	1067	9.14e-06	9.28e-06	1157.2	233.81	8.9646e-06	9.4075e-06	295.95	80.119	63.281	18.08	9.3295e-06	25.619	145.029	67.270	145.805	-0.337	226.712	167.490	-0.251	6.715	199.713	101.013	6.454	13.495	14.256	20.892	208.681	20.573	-8191	255	
467.322	1	1	0	0	0.20244	0.14379	0.08641	0.414	0.2055	0.040037	0.27415	0.070963	0.15611	0.15675	0.2998	0.12717	0.20575	0.1116	0.35905	0.2958	-2.8417	-3.0792	-3.05	-3.4646	-2.9583	-2.9313	-3.5062	-2.7125	-3.1542	-3.0896	-2.9875	-3.4396	-2.9854	-2.9396	-3.3333	-2.9125	298.279	323.112	74.732	39.199	161.239	-3.520	342.481	190.048	9.834	295.487	288.792	214.755	35.944	291.088	180.234	90.364	0.00012133	0.00049854	0.00014655	1083.1	4.325e-06	6.2837e-06	1169.9	233.6	1.0296e-06	4.0305e-06	296.66	78.57	61.802	17.694	2.3285e-06	25.028	0.00070442	0.00086549	0.00024465	1068.5	9.2729e-06	9.4352e-06	1158.1	234.09	8.9226e-06	9.027e-06	296.22	80.157	63.213	18.12	8.8239e-06	25.635	182.010	122.347	38.544	-0.469	181.837	117.265	-0.240	6.717	40.628	126.715	6.328	13.376	14.163	21.159	194.735	20.496	-8191	255	
467.418	1	1	0	0	0.079198	0.03709	0.11342	0.10619	0.12287	0.18925	0.1843	0.13954	0.13462	0.028481	0.24755	0.21407	0.037337	0.157	0.018467	0.1804	-2.8104	-3.15	-2.9167	-3.3604	-3.0208	-2.9354	-3.3521	-2.9396	-3.1458	-3.0958	-2.95	-3.2208	-3.0771	-2.8979	-3.1479	-3.0271	164.888	291.742	243.728	318.035	173.868	177.786	327.616	58.624	29.863	8.026	288.708	268.642	285.862	51.858	307.326	55.728	0.00012916	0.00052197	6.9209e-05	1076.7	1.4443e-06	3.0699e-06	1171.5	233.21	1.3215e-06	4.6784e-06	294.4	78.088	62.014	17.553	3.1078e-06	25.028	0.00066233	0.00081474	0.00022858	1064	8.8228e-06	8.7524e-06	1156.6	233.82	8.9796e-06	9.2703e-06	295.96	80.257	63.404	18.112	9.4797e-06	25.793	170.688	89.258	135.942	-0.410	104.104	197.894	-0.164	6.977	323.829	65.771	6.306	13.313	14.178	21.447	155.454	20.821	-8191	255	
467.514	1	1	0	0	0.19578	0.14873	0.097549	0.1401	0.084798	0.14935	0.076308	0.10572	0.33078	0.11146	0.17674	0.24799	0.14137	0.33337	0.29751	0.13362	-2.6521	-3.1312	-2.8979	-3.3375	-2.9396	-2.8292	-3.45	-2.9875	-3.0729	-3.1312	-2.8187	-3.0833	-3.0563	-2.8438	-3.2729	-2.8	208.388	-5.116	17.102	149.442	67.942	11.709	253.126	321.865	11.419	188.397	54.814	258.969	257.798	277.131	26.029	170.255	0.00014854	0.00054238	0.00014652	1079.5	4.6925e-06	4.2601e-06	1169.8	234.21	1.9282e-06	4.1342e-06	296.05	78.583	62.186	17.497	1.7076e-06	25.108	0.00072126	0.00088695	0.0002529	1065.9	9.7816e-06	1.009e-05	1159	234.81	1.0321e-05	1.0391e-05	296.83	80.839	63.744	18.166	1.0288e-05	25.908	168.868	66.125	110.269	-0.567	146.807	119.105	-0.337	7.243	254.128	153.656	6.629	13.543	13.658	21.123	131.661	20.360	-8191	255	
467.633	1	1	0	0	0.078751	0.20037	0.093121	0.13293	0.19568	0.15987	0.22322	0.27662	0.24189	0.18076	0.086873	0.096347	0.031784	0.29243	0.33257	0.26508	-2.5146	-3.2438	-2.8208	-3.3646	-3.0458	-2.8708	-3.5875	-3.175	-2.8958	-3.1625	-2.9479	-3.3438	-3.1646	-2.8438	-3.3208	-3.1042	294.058	-5.467	167.822	288.761	281.034	67.714	316.956	27.047	22.999	281.771	155.880	29.169	30.708	342.606	254.570	301.317	0.00010046	0.00045441	0.00012016	1084.2	2.8366e-06	5.194e-06	1168.4	234.86	1.3031e-06	6.87e-06	298.04	79.267	62.214	17.852	2.3723e-06	25.21	0.00078553	0.00097361	0.00027451	1069.5	1.0547e-05	1.0688e-05	1159.7	235.74	1.0278e-05	1.0507e-05	297.91	81.043	64.074	18.434	1.1028e-05	26.162	163.727	67.784	63.951	-0.478	109.228	119.800	-0.379	6.625	155.372	147.669	6.202	13.248	13.952	20.448	78.101	20.692	-8191	255	
467.729	1	1	0	0	0.24419	0.17494	0.11202	0.18403	0.16557	0.23901	0.1792	0.16461	0.037546	0.084866	0.13033	0.32171	0.13792	0.056195	0.25301	0.17257	-2.4813	-3.1604	-2.6813	-3.1667	-3.0542	-2.9083	-3.1375	-2.8542	-2.8542	-3.3104	-2.9583	-3.1646	-3.2292	-2.7938	-3.2146	-3.125	51.511	115.654	7.178	290.962	147.139	285.284	230.410	141.064	229.141	227.486	103.357	213.284	156.250	15.609	145.517	14.065	0.00010627	0.00021303	7.4097e-05	1098.4	2.743e-06	1.9574e-06	1190.3	239.51	1.8214e-06	6.5897e-06	302.94	80.632	63.413	18.193	4.1498e-06	25.645	0.00087964	0.0010967	0.00031753	1084.6	1.309e-05	1.3691e-05	1180.4	241.41	1.4054e-05	1.475e-05	305.32	83.262	65.987	18.985	1.4207e-05	26.68	168.041	81.614	109.538	-0.250	178.729	192.398	-0.423	6.830	85.021	129.057	6.494	13.483	13.496	20.532	168.682	20.155	-8191	255	
467.825	1	1	0	0	0.087652	0.039766	0.3096	0.067676	0.13031	0.13796	0.1058	0.20223	0.43976	0.076914	0.10231	0.068489	0.24063	0.25078	0.12091	0.062568	-2.3312	-3.3063	-2.7583	-3.0479	-3.1271	-2.8396	-3.2396	-3.0833	-2.8125	-3.2958	-2.9354	-2.9646	-3.2167	-2.8688	-3.1521	-3.075	60.651	341.716	152.534	344.564	218.096	299.427	282.227	277.675	285.221	222.288	257.221	322.248	337.443	223.122	31.212	106.847	0.00012728	0.0005668	7.9e-05	1108.2	4.1548e-06	3.6767e-06	1198.2	240.18	5.211e-06	1.7223e-06	303.07	80.935	63.938	18.272	1.5196e-06	25.604	0.0010234	0.00126	0.00034699	1096.7	1.3102e-05	1.3521e-05	1188.3	242.35	1.2843e-05	1.3077e-05	305.71	83.311	65.931	18.971	1.2796e-05	26.717	165.267	74.952	344.662	-0.536	208.434	173.693	-0.405	6.724	187.417	209.193	6.252	13.551	13.623	20.505	114.946	20.324	-8191	255	
467.899	1	1	0	0	0.29218	0.4143	0.042098	0.22126	0.32563	0.22916	0.078144	0.15788	0.13567	0.094698	0.16631	0.20157	0.2502	0.069995	0.13326	0.18576	-2.3917	-3.1646	-2.9146	-3.1875	-3.1792	-2.7271	-3.2687	-3.2208	-2.8625	-3.2542	-2.9771	-2.9458	-3.0646	-2.7146	-3.0583	-2.95	155.161	102.917	203.405	324.830	47.141	196.079	46.559	290.670	108.864	15.226	328.949	10.254	244.760	94.164	328.398	214.152	0.00016759	0.00040596	0.00011468	1107.4	4.3357e-06	4.1848e-06	1197.1	240.68	5.1036e-06	5.1167e-06	301.93	80.862	64.122	18.265	2.1525e-06	25.765	0.00095939	0.0011807	0.0003317	1096.1	1.2335e-05	1.2579e-05	1186.3	242.36	1.2098e-05	1.2425e-05	304.42	83.101	65.883	18.988	1.2074e-05	26.691	159.669	53.881	-2.572	-0.575	148.322	207.994	-0.493	6.722	210.600	58.858	6.631	13.286	13.855	20.695	115.421	20.146	-8191	255	
468.017	1	1	0	0	0.15919	0.14605	0.30554	0.36595	0.19188	0.25273	0.32402	0.1433	0.24387	0.21235	0.14135	0.13978	0.25427	0.38279	0.27939	0.15914	-2.3688	-3.1688	-2.9396	-3.075	-3.2708	-2.7271	-3.0625	-3.0917	-2.7104	-3.2667	-3.1396	-2.8208	-3.3125	-2.7896	-3.0479	-3.1042	49.092	171.773	132.632	-7.819	-1.561	119.910	327.132	216.900	51.480	88.996	217.197	344.366	324.133	293.006	252.134	304.466	0.00012829	0.00031096	0.00015822	1105.9	8.6887e-06	2.0293e-06	1198.8	240.68	4.4259e-06	3.6336e-06	301.48	81.313	63.805	18.199	2.6643e-06	25.689	0.00088228	0.0011024	0.00030345	1093.4	1.1025e-05	1.1169e-05	1185.1	241.3	1.0324e-05	1.0622e-05	302.67	82.713	65.344	18.937	1.0613e-05	26.573	157.117	153.290	103.755	-0.706	169.625	117.300	-0.455	6.726	164.323	105.717	6.141	13.288	14.063	20.610	215.041	19.940	-8191	255	
468.114	1	1	0	0	0.22068	0.14642	0.017878	0.067878	0.082496	0.17401	0.36433	0.23562	0.099103	0.23501	0.12506	0.29554	0.24307	0.14009	0.17262	0.30675	-2.1688	-3.2	-2.9583	-2.8438	-3.1896	-2.8563	-2.9708	-3.1813	-2.6854	-3.0167	-3.0438	-2.725	-3.2188	-3.0083	-2.7271	-3.2	43.266	-4.260	119.811	319.935	223.440	16.903	251.695	332.647	11.684	174.517	279.857	255.673	143.183	305.590	12.333	232.404	0.00014999	0.00061175	0.00014011	1098.9	6.3917e-06	3.7503e-06	1188.9	238.44	1.0149e-06	5.3746e-06	301.2	80.822	63.827	18.234	5.0453e-06	25.665	0.00079307	0.00097889	0.00026461	1086.3	1.0263e-05	1.0586e-05	1178.9	239.58	1.0452e-05	1.0833e-05	302.89	82.675	65.473	18.961	1.1238e-05	26.697	157.313	8.742	79.164	-0.532	175.127	168.016	-0.272	6.649	-2.719	86.097	6.486	13.622	13.901	20.478	129.436	20.236	-8191	255	
468.210	1	1	0	0	0.060269	0.15428	0.13007	0.21576	0.30788	0.091604	0.17604	0.15213	0.15606	0.060066	0.22222	0.30268	0.13112	0.10759	0.27545	0.02203	-2.4833	-3.0187	-3.0917	-2.7938	-3.2729	-2.9396	-3.0646	-3.2229	-2.6021	-3.0125	-3.2146	-2.8	-3.1625	-2.775	-2.6688	-3.1875	166.961	183.534	119.483	325.614	27.457	171.991	253.122	254.240	18.936	182.212	292.087	334.497	18.333	4.070	328.127	92.327	0.00012159	0.00042258	5.0036e-05	1101.6	4.7045e-06	4.2763e-06	1195.8	240.87	4.3024e-06	2.567e-06	299.8	79.741	63.093	18.254	1.7225e-06	25.849	0.00085086	0.0010645	0.00029922	1087.4	1.1394e-05	1.1714e-05	1181.8	240.24	1.1112e-05	1.1373e-05	302.6	82.392	65.082	18.878	1.0593e-05	26.534	181.385	36.749	51.345	-0.375	208.896	90.869	-0.376	6.732	239.277	68.789	6.359	13.492	13.568	20.598	290.915	20.505	-8191	255	
468.330	1	1	0	0	0.15489	0.16199	0.18967	0.14129	0.05925	0.1186	0.27351	0.23381	0.2766	0.044267	0.083559	0.15062	0.14424	0.19021	0.18233	0.014335	-2.2104	-2.9813	-3.025	-2.9292	-3.0625	-3.0312	-2.8917	-3.3229	-2.6771	-3.0354	-3.2833	-2.7792	-2.9229	-3.0146	-2.8583	-3.2812	236.944	157.042	116.374	253.906	262.137	38.414	294.678	259.515	123.865	248.081	120.210	295.767	13.359	114.442	127.896	37.826	0.00011608	0.00055614	0.00010397	1102	3.477e-06	2.9308e-06	1190.2	238.59	1.0282e-06	7.0106e-06	302.42	80.586	63.36	18.197	1.4765e-06	25.709	0.00081187	0.00098456	0.00027673	1087.4	1.0718e-05	1.0891e-05	1178.2	239.33	1.0508e-05	1.0637e-05	301.84	82.171	64.891	18.845	1.0416e-05	26.463	161.183	15.130	31.328	-0.325	182.991	172.397	-0.404	6.857	56.668	142.398	6.259	13.158	14.277	20.468	121.518	20.293	-8191	255	
468.426	1	1	0	0	0.23819	0.19261	0.14844	0.40307	0.15294	0.1501	0.13833	0.17194	0.054619	0.10605	0.093322	0.11697	0.26744	0.041514	0.17657	0.24036	-2.2292	-3.0229	-3.2146	-2.7687	-3.3438	-3.0646	-2.8271	-3.3917	-2.9521	-2.9104	-3.1312	-2.8438	-3.1021	-3.1958	-2.6729	-3.2854	82.043	168.601	12.156	344.621	127.225	57.805	-4.355	266.437	244.433	-7.277	241.362	316.103	-7.815	15.215	241.731	222.739	0.00010617	0.00045716	0.00011153	1093	2.498e-06	7.7963e-06	1187.2	237.43	1.5156e-06	4.185e-06	299.92	79.933	62.931	18.038	4.0906e-06	25.577	0.00077234	0.00096229	0.00026713	1082.2	1.0281e-05	1.0512e-05	1174.1	238.61	1.0196e-05	1.0583e-05	300.59	82.044	64.73	18.682	1.0033e-05	26.44	144.519	82.863	89.032	-0.690	132.405	132.922	-0.238	6.704	267.295	224.063	6.541	13.408	13.685	20.859	137.184	20.836	-8191	255	
468.523	1	1	0	0	0.20647	0.032938	0.086238	0.18937	0.17578	0.098554	0.10265	0.24166	0.15004	0.15365	0.25954	0.0087938	0.090255	0.092452	0.22033	0.12468	-2.55	-2.925	-3.1271	-2.9313	-3.1292	-3.0625	-2.8896	-3.1146	-2.9875	-2.9979	-3.4125	-2.9458	-3.0979	-3.2375	-2.6917	-3.2958	156.410	13.111	200.464	54.368	165.786	260.075	193.190	272.202	178.489	161.486	10.183	194.377	138.956	240.864	183.345	291.115	0.00013418	0.00042595	0.00014495	1096.5	4.5964e-06	4.7472e-06	1190.5	237.33	1.0651e-06	2.2219e-06	301.06	79.894	62.81	18.027	2.6666e-06	25.419	0.0007351	0.00091039	0.00024767	1081.2	9.6628e-06	9.7378e-06	1173	238.17	9.6788e-06	9.8921e-06	300.56	81.711	64.476	18.65	9.5694e-06	26.355	184.687	35.580	-4.203	-0.609	174.665	152.340	-0.203	7.138	169.264	173.182	6.043	13.455	13.813	20.546	121.149	20.223	-8191	255	
468.619	1	1	0	0	0.12634	0.054264	0.10175	0.20402	0.099162	0.090094	0.18372	0.28945	0.31277	0.082067	0.3358	0.073412	0.24652	0.15529	0.30978	0.12316	-2.3792	-2.8792	-3.2687	-2.7896	-2.9437	-3.1729	-2.8271	-3.1604	-2.875	-2.8021	-3.2854	-2.8104	-2.8729	-2.9896	-2.8187	-3.2562	13.882	122.539	-4.426	65.731	206.906	213.137	12.196	273.806	197.610	38.758	296.973	98.203	148.620	40.599	224.057	17.710	0.00014345	0.00078539	6.4143e-05	1094.8	1.5469e-06	4.1966e-06	1185.3	237	2.3681e-06	5.1019e-06	300.67	79.991	63.15	18.325	1.2644e-06	25.61	0.0007103	0.00087451	0.00024264	1079.2	9.5089e-06	9.6147e-06	1171.1	237.93	9.6489e-06	9.7871e-06	300.62	81.694	64.473	18.778	1.0038e-05	26.44	180.000	32.343	94.842	-0.592	237.098	164.363	-0.416	6.544	125.183	79.782	6.622	13.565	13.724	21.070	118.617	20.453	-8191	255	
468.713	1	1	0	0	0.087818	0.057131	0.024627	0.16867	0.031688	0.0071861	0.068597	0.127	0.077179	0.086798	0.17943	0.11809	0.24077	0.19509	0.16724	0.22217	-2.7438	-2.7583	-3.0833	-2.8396	-2.8021	-3.1917	-2.8083	-2.9896	-2.8937	-2.6646	-3.2521	-2.8937	-2.9833	-3.2542	-2.7542	-3.0979	193.212	123.441	341.714	262.205	284.409	8.044	266.196	45.902	214.031	41.411	280.916	339.183	324.050	23.672	74.543	-6.914	0.00015709	0.00060455	0.00010978	1092.9	2.7626e-06	4.6785e-06	1186.4	237.38	2.2334e-06	4.9054e-06	300.14	79.79	62.724	18.146	1.2669e-06	25.564	0.00075575	0.0009367	0.00026089	1081.4	1.0093e-05	1.0212e-05	1174.8	238.35	1.0131e-05	1.0238e-05	300.51	81.804	64.476	18.715	1.0149e-05	26.46	165.059	42.183	119.394	-0.491	138.307	47.568	-0.243	6.805	199.180	102.726	6.356	13.481	13.761	20.918	127.210	20.193	-8191	255	
468.809	1	1	0	0	0.1085	0.19679	0.066856	0.24114	0.20116	0.12381	0.12905	0.24218	0.1945	0.17592	0.13686	0.1365	0.05207	0.22375	0.28885	0.19091	-2.5333	-2.6604	-3	-3.1958	-2.925	-3.2417	-3.0146	-3.0542	-3.0792	-2.775	-3.0458	-2.9271	-2.9625	-3.1875	-2.8083	-3.1104	347.784	257.156	33.731	305.299	211.803	251.724	40.185	272.941	191.831	315.517	260.207	-1.042	4.045	62.000	312.573	3.786	0.0001289	0.00030304	0.00015294	1100.1	4.2152e-06	6.7337e-06	1188.1	238.55	1.1624e-06	4.7526e-06	298.21	79.5	63.043	18.151	1.6542e-06	25.583	0.00074914	0.00091897	0.00025577	1082.6	9.9589e-06	1.0025e-05	1175.1	238.62	9.9084e-06	1.0253e-05	300.29	81.894	64.645	18.765	1.0184e-05	26.377	158.099	34.341	155.743	-0.563	192.561	118.832	-0.150	6.643	32.168	288.966	6.847	13.516	13.905	20.645	226.013	20.350	-8191	255	
468.930	1	1	0	0	0.016169	0.22213	0.20821	0.19759	0.096293	0.119	0.093463	0.29954	0.18206	0.20993	0.24774	0.077702	0.12619	0.10353	0.095953	0.27073	-2.6271	-2.6437	-3.1417	-2.8854	-2.85	-3.3125	-3.0146	-2.9833	-3.2292	-2.6979	-3.1042	-3.1688	-2.8229	-3.0958	-2.8042	-2.9396	76.281	-0.784	290.896	293.732	224.875	259.777	188.001	207.620	54.375	-6.760	19.983	-1.227	6.156	60.622	79.149	295.034	0.00012587	0.00085287	9.9833e-05	1096.1	7.0486e-06	4.8626e-06	1191.9	237.18	5.1741e-06	1.8026e-06	299.53	80.145	63.109	18.15	1.8676e-07	25.821	0.0007731	0.00093841	0.00026489	1082.2	1.0199e-05	1.0457e-05	1175.5	238.54	1.0433e-05	1.0408e-05	301.36	82.009	64.665	18.782	1.0411e-05	26.505	191.339	71.033	50.656	-0.611	131.052	135.724	-0.303	6.982	165.239	169.751	6.355	13.682	13.541	20.836	199.155	20.465	-8191	255	
469.026	1	1	0	0	0.047963	0.039194	0.12385	0.17659	0.20829	0.11299	0.19343	0.12226	0.29436	0.090462	0.20197	0.2087	0.11364	0.087103	0.17639	0.22074	-2.7333	-2.6125	-2.9604	-3.1688	-2.7083	-3.0771	-3.0667	-3.05	-3.1146	-2.8688	-3.1417	-3.125	-2.7417	-3.0979	-3.0021	-3.0042	193.166	233.088	265.447	288.418	286.899	138.599	298.126	340.604	253.853	15.855	331.168	151.645	-4.584	216.635	101.520	281.923	0.00013506	0.00019344	3.4164e-05	1095.1	2.6643e-06	5.8016e-06	1190	239.27	2.0357e-06	2.428e-06	298.63	79.814	63.047	18.005	2.7442e-06	25.559	0.00079225	0.00098198	0.00027748	1084.1	1.0688e-05	1.0824e-05	1176.4	238.83	1.0458e-05	1.0703e-05	301.26	81.92	64.543	18.688	1.0448e-05	26.402	158.108	196.102	201.970	-0.563	186.652	134.304	-0.413	6.845	175.358	211.097	6.418	13.177	14.230	20.811	73.295	20.265	-8191	255	
469.122	1	1	0	0	0.026892	0.074945	0.16807	0.13164	0.05669	0.24306	0.088437	0.060394	0.20479	0.097067	0.018503	0.19702	0.073629	0.1624	0.19594	0.10351	-2.7938	-2.7375	-3.1417	-3.375	-2.6521	-2.9771	-3.1146	-2.8083	-3.3438	-2.8521	-2.9938	-3.0812	-2.7583	-3.025	-3.0771	-2.8833	41.889	264.309	193.576	12.666	75.404	84.877	227.084	277.558	158.739	171.790	336.681	199.236	142.748	287.523	47.161	280.482	0.00016718	0.00034295	0.00017252	1096.7	4.6705e-06	4.0945e-06	1188.9	237.62	4.7281e-06	4.1392e-06	299.05	79.817	62.524	18.161	2.9758e-06	25.444	0.00074014	0.00091315	0.00025382	1081.8	9.5821e-06	9.8539e-06	1175	238.1	9.4655e-06	9.9246e-06	300.41	81.712	64.368	18.649	1.0144e-05	26.372	154.995	77.748	120.556	-0.572	215.266	145.822	-0.268	6.841	181.282	135.542	6.132	13.386	14.148	20.892	116.511	20.294	-8191	255	
469.194	1	1	0	0	0.12924	0.18252	0.20676	0.25075	0.26657	0.16503	0.24016	0.24563	0.18308	0.27459	0.14159	0.195	0.089808	0.039567	0.072145	0.2204	-2.7354	-2.6604	-3.0146	-3.1813	-2.6167	-3.0958	-3.1188	-2.7917	-3.3542	-2.9062	-2.9854	-3.2021	-2.9021	-3.1042	-2.9917	-2.6312	53.789	53.204	-5.903	291.747	131.248	305.366	239.841	290.338	193.400	276.144	333.102	242.331	216.442	33.790	94.597	-6.123	0.00012246	0.00041003	0.00013314	1097	7.4587e-07	3.3771e-06	1188.1	237.42	2.5337e-06	5.9453e-06	298.59	79.932	62.791	17.999	3.5442e-06	25.255	0.00075152	0.00093886	0.00026173	1083.9	9.7703e-06	9.836e-06	1174.1	237.54	9.5467e-06	9.76e-06	299.71	81.591	64.218	18.576	9.6656e-06	26.236	173.329	9.774	99.689	-0.459	31.040	98.929	-0.139	6.465	207.443	104.972	6.433	13.434	14.204	20.765	132.449	20.174	-8191	255	
469.315	1	1	0	0	0.17314	0.13595	0.18131	0.17107	0.23382	0.10451	0.24651	0.31201	0.10208	0.30915	0.080755	0.31459	0.11439	0.25334	0.089258	0.16863	-2.9	-2.7188	-2.9188	-3.1375	-2.7875	-3.1375	-3.2896	-2.85	-3.0938	-2.9562	-2.8542	-3.2562	-2.7604	-3.0187	-2.9021	-2.7333	256.081	146.543	276.585	290.123	322.281	120.880	223.972	323.199	71.033	68.670	255.814	-5.717	170.040	306.372	123.263	-8.427	0.00013366	0.00025188	6.8396e-05	1094.2	1.902e-06	1.8132e-06	1188.4	237.74	4.3038e-06	4.8022e-06	300.78	79.662	62.43	18.141	5.0589e-06	25.329	0.00069834	0.00090041	0.00024616	1079.2	9.4879e-06	9.7675e-06	1172.7	238.14	9.505e-06	9.7413e-06	300.09	81.398	64.147	18.614	9.3097e-06	26.221	186.301	88.041	84.863	-0.664	153.149	15.240	-0.415	6.921	167.227	102.709	6.418	13.135	13.537	20.767	194.283	20.369	-8191	255	
469.411	1	1	0	0	0.18316	0.16456	0.16029	0.36614	0.2022	0.034222	0.020263	0.32127	0.094757	0.11057	0.069528	0.14894	0.19699	0.10029	0.15782	0.23273	-2.8542	-3.0292	-2.9688	-3.3583	-2.6937	-3.2292	-3.3292	-2.8896	-3.2292	-3.0979	-2.9229	-3.2313	-2.8208	-3.0563	-3.1292	-2.8812	210.014	73.150	15.400	326.728	19.086	47.862	246.415	282.325	129.525	143.932	125.104	7.732	283.971	297.030	95.262	261.551	0.00010723	0.00034474	0.00010618	1092.3	3.3068e-06	3.5493e-06	1186.7	236.94	3.012e-06	3.5643e-06	299.26	80.214	62.974	18.053	2.605e-06	25.585	0.00070547	0.00086603	0.00024244	1079.9	9.4197e-06	9.5655e-06	1173.2	237.85	1.0008e-05	1.0469e-05	300.39	81.739	64.537	18.721	1.0652e-05	26.444	188.112	130.683	95.134	-0.369	223.046	334.410	-0.145	6.605	190.493	139.871	6.526	13.396	13.775	20.963	132.350	19.920	-8191	255	
469.507	1	1	0	0	0.29227	0.13424	0.23655	0.058171	0.20022	0.24348	0.32407	0.17987	0.059641	0.12866	0.16332	0.25011	0.14258	0.11639	0.33886	0.19304	-2.6958	-2.9083	-2.5438	-3.4042	-2.925	-2.7875	-3.2271	-2.7375	-3.0187	-2.9104	-2.8563	-3.2313	-2.7062	-2.9313	-3.1875	-2.7604	85.837	253.140	70.581	53.808	279.287	252.804	280.742	270.362	135.932	227.089	289.142	236.613	336.563	288.905	91.557	259.512	0.00013676	0.00051484	9.1917e-05	1095	6.2226e-06	5.019e-06	1186.9	236.86	2.5575e-06	8.7219e-06	299.2	80.054	62.729	18.113	3.8337e-06	25.327	0.00080882	0.00098626	0.00028446	1084	1.0897e-05	1.115e-05	1174.9	237.91	1.0936e-05	1.1297e-05	300.14	81.692	64.306	18.634	1.0898e-05	26.346	148.704	40.177	88.334	-0.571	211.923	101.778	-0.156	6.775	180.038	183.384	6.404	13.198	13.716	20.609	169.970	20.501	-8191	255	
469.603	1	1	0	0	0.10769	0.21525	0.14198	0.11976	0.11345	0.13096	0.27793	0.094487	0.049278	0.062881	0.14083	0.13233	0.093344	0.030364	0.1345	0.10424	-2.7313	-2.9958	-2.8292	-3.2042	-2.9313	-2.85	-3.4896	-2.8417	-3.0083	-3.0375	-2.8354	-3.1333	-3.0187	-2.9458	-3.1208	-2.8438	80.793	306.958	188.092	-5.505	274.826	336.126	329.353	283.015	323.314	4.659	337.814	299.948	339.863	64.365	39.249	52.530	0.00012083	0.0005468	0.00010894	1095.9	3.0038e-06	2.4582e-06	1188.4	238.52	4.8798e-06	2.0163e-06	298.22	79.391	62.458	17.923	4.2173e-06	25.628	0.00084695	0.0010071	0.00028192	1080.8	1.102e-05	1.1096e-05	1175.5	238.32	1.0799e-05	1.0979e-05	299.39	81.416	64.234	18.583	1.0937e-05	26.373	165.436	70.341	176.810	-0.476	85.732	136.233	-0.373	6.868	134.268	4.331	6.703	13.649	13.662	21.038	98.523	20.483	-8191	255	
469.722	1	1	0	0	0.24648	0.18162	0.1319	0.088836	0.16285	0.1373	0.073321	0.093663	0.11331	0.24897	0.13399	0.22469	0.15519	0.11342	0.07533	0.252	-2.5417	-3.0896	-2.7333	-3.3125	-2.8792	-2.8229	-3.5	-2.9542	-2.9708	-3.1104	-2.725	-3.2	-2.9229	-2.7146	-3.2354	-2.8937	21.054	65.635	73.871	42.555	322.870	83.174	306.284	320.832	322.062	241.282	280.682	230.319	324.754	285.661	219.464	313.472	0.00011758	0.00016833	0.00012744	1093.8	1.72e-06	3.2781e-06	1183.3	237.67	2.6376e-06	4.9305e-06	300.65	79.209	62.533	18.063	4.0871e-06	25.755	0.00081547	0.0010351	0.00028569	1082.8	1.1354e-05	1.1725e-05	1175.6	238.3	1.1701e-05	1.2106e-05	301.42	81.749	64.47	18.73	1.205e-05	26.484	176.113	75.282	153.053	-0.493	34.298	268.045	-0.155	6.489	207.615	166.102	6.405	13.410	13.924	20.994	174.153	20.029	-8191	255	
469.794	1	1	0	0	0.24549	0.14222	0.070154	0.13333	0.034335	0.24609	0.24068	0.10415	0.32427	0.10137	0.1357	0.20903	0.062168	0.083807	0.17827	0.08997	-2.4667	-3.0875	-2.7562	-3.2542	-3.0479	-2.8667	-3.4854	-2.8792	-2.975	-3.3854	-2.8375	-3.1312	-3.2458	-2.7104	-3.2521	-2.9979	251.823	16.682	167.826	-8.342	322.864	41.360	273.926	272.553	167.951	187.413	332.158	337.891	53.380	147.363	204.786	198.979	0.00013901	0.00024966	6.114e-05	1098.9	4.6571e-06	1.2844e-06	1188.4	237.13	3.5774e-06	3.8406e-06	299.98	79.209	62.403	17.935	1.24e-06	25.396	0.00087977	0.0010776	0.00030416	1086.5	1.1479e-05	1.1612e-05	1178.2	238.03	1.1056e-05	1.1197e-05	300.17	81.416	64.308	18.591	1.0808e-05	26.227	175.001	68.186	176.556	-0.548	251.738	161.851	-0.256	6.972	190.661	185.284	6.262	13.454	14.031	21.044	109.103	20.426	-8191	255	
469.891	1	1	0	0	0.19001	0.19082	0.31103	0.14769	0.12345	0.11211	0.16033	0.20023	0.067029	0.28088	0.19275	0.053725	0.13857	0.11122	0.2059	0.061643	-2.4667	-2.9208	-2.6562	-3.2062	-3.0312	-2.7625	-3.3875	-2.7979	-2.8042	-3.0812	-2.8708	-2.9729	-3.0104	-2.7438	-3.1979	-3.1	174.656	219.519	117.598	211.192	303.037	184.600	314.429	11.067	320.816	275.997	276.853	74.584	302.615	-2.188	55.074	34.540	0.00013012	0.00062704	0.00017769	1097.5	3.7778e-06	6.7627e-06	1187.9	238.69	3.1662e-06	3.1567e-06	297.4	79.357	62.387	17.985	1.3069e-06	25.551	0.00082614	0.0010308	0.00029136	1085	1.1087e-05	1.1688e-05	1177.7	239.09	1.1783e-05	1.1922e-05	301.19	81.664	64.291	18.696	1.2231e-05	26.442	169.337	109.996	49.029	-0.549	219.655	103.779	-0.468	6.869	221.953	24.749	6.585	13.258	13.829	21.280	329.102	20.503	-8191	255	
470.010	1	1	0	0	0.23985	0.12507	0.16837	0.29897	0.23692	0.13912	0.085004	0.16414	0.19617	0.18533	0.16591	0.20764	0.10922	0.20752	0.25113	0.064896	-2.3708	-3.3979	-2.7521	-3.1729	-3.0729	-2.7875	-3.2562	-3.1458	-2.875	-3.375	-2.9896	-2.9958	-3.1729	-2.7729	-3.1625	-3.0729	331.333	212.287	241.804	341.022	110.365	285.791	205.083	286.255	295.839	-6.508	11.013	300.743	266.707	324.135	290.995	314.360	0.00010716	4.2425e-05	4.9967e-05	1102.5	2.8093e-06	9.767e-07	1195	237.88	2.8285e-06	8.3943e-07	298.48	79.968	62.416	17.926	3.0782e-06	25.585	0.00089909	0.0011398	0.00031932	1087.7	1.2358e-05	1.2577e-05	1181.6	239.24	1.2423e-05	1.2698e-05	301.85	81.96	64.616	18.697	1.2811e-05	26.507	173.841	94.883	57.644	-0.637	228.424	215.090	-0.071	6.830	170.474	239.091	6.566	13.492	14.209	20.873	160.393	20.200	-8191	255	
470.106	1	1	0	0	0.24159	0.17529	0.18287	0.14882	0.31712	0.086678	0.15303	0.27578	0.162	0.23041	0.24901	0.13848	0.060646	0.056	0.1437	0.15693	-2.2083	-3.1354	-2.9042	-2.8542	-3.1667	-2.7583	-3.3	-2.9729	-2.625	-3.0771	-3.0458	-2.7625	-3.1979	-2.7875	-2.9792	-3.0104	117.557	125.070	327.008	345.984	343.406	212.942	217.617	305.127	6.498	248.067	278.100	157.965	257.729	113.380	310.717	203.888	0.00012208	0.00039061	0.00017244	1103	3.3603e-06	2.5279e-06	1191.1	238.58	3.7729e-06	3.539e-06	300.32	79.977	62.321	18.054	3.3027e-06	25.328	0.00094667	0.0011723	0.00033085	1091.5	1.2665e-05	1.2916e-05	1182	239.97	1.2579e-05	1.29e-05	302.08	82.085	64.617	18.738	1.2885e-05	26.483	176.014	293.144	114.759	-0.504	137.614	73.589	-0.328	6.777	162.450	110.683	6.281	13.767	13.781	21.205	191.015	20.266	-8191	255	
470.203	1	1	0	0	0.19994	0.083482	0.12575	0.27097	0.11859	0.16762	0.19193	0.15933	0.12919	0.26112	0.17254	0.16904	0.1917	0.072062	0.2158	0.16666	-2.4062	-3.2313	-2.7396	-2.9833	-3.225	-2.8125	-3.3229	-3.0021	-2.6229	-3.0958	-2.9625	-2.8229	-3.2458	-2.9583	-3.0833	-3.2208	113.933	208.057	24.861	301.114	-6.858	265.994	251.269	5.582	173.544	304.591	142.614	-2.202	-0.060	31.473	182.004	269.979	0.00012049	0.00060736	0.00010997	1102	1.3338e-06	6.0382e-06	1190.3	238.73	2.0269e-06	4.9401e-06	300.26	79.246	62.685	17.95	1.4063e-06	25.312	0.00095904	0.0011982	0.00033235	1090.8	1.2511e-05	1.3022e-05	1181.4	239.59	1.2488e-05	1.2936e-05	302.07	81.685	64.52	18.629	1.2175e-05	26.323	171.897	131.333	156.235	-0.617	-9.136	94.376	-0.347	7.120	126.304	131.202	6.421	13.940	14.052	21.056	64.618	20.783	-8191	255	
470.299	1	1	0	0	0.1666	0.052867	0.036348	0.080905	0.05424	0.11193	0.15687	0.17913	0.16964	0.19819	0.13621	0.094656	0.069264	0.068465	0.33225	0.23422	-2.1104	-3.0896	-2.7917	-2.7812	-3.4167	-2.7958	-3.1729	-3.2208	-2.6813	-3.0687	-3.1333	-2.7542	-3.2313	-2.7938	-2.7771	-3.3292	292.227	153.189	14.845	185.713	329.910	89.425	224.651	339.191	87.491	324.225	322.953	301.209	334.186	155.860	304.198	271.325	0.00013059	0.00089904	9.4131e-05	1102.9	5.3867e-06	2.1428e-06	1191.4	237.4	2.4119e-06	6.0768e-06	298.63	79.334	61.789	17.977	1.0427e-06	25.49	0.00089689	0.0011119	0.00031428	1086.8	1.1917e-05	1.2129e-05	1177.2	237.84	1.1456e-05	1.199e-05	300.37	81.545	64.13	18.563	1.225e-05	26.346	171.142	24.962	0.946	-0.415	174.470	6.664	-0.320	6.774	138.406	113.739	6.596	13.368	13.995	20.936	-0.627	20.400	-8191	255	
470.419	1	1	0	0	0.15858	0.073931	0.044222	0.17621	0.12539	0.28835	0.16291	0.19074	0.13024	0.13956	0.093545	0.11006	0.088111	0.17037	0.11037	0.17961	-2.3917	-3.0104	-3.1292	-2.8333	-3.1417	-2.8042	-3.175	-3.3229	-2.7896	-3.175	-3.1562	-2.8417	-3.3042	-2.9458	-2.9521	-3.2375	309.592	299.585	56.296	290.414	214.333	6.432	297.527	10.202	329.483	-6.592	156.615	131.475	146.354	239.769	305.949	344.027	9.5028e-05	0.00068124	0.00013459	1102.1	2.1858e-06	6.6844e-06	1190.1	237.12	3.8558e-06	6.5122e-06	299.13	79.578	62.23	17.963	1.6081e-06	25.4	0.00087719	0.0010895	0.0003059	1088.4	1.1667e-05	1.2085e-05	1178.9	238.52	1.1361e-05	1.1535e-05	300.32	81.404	63.761	18.513	1.1184e-05	26.25	159.127	31.737	107.376	-0.651	150.963	108.680	-0.315	6.803	153.137	175.509	6.249	13.534	13.960	20.935	36.353	20.379	-8191	255	
470.491	1	1	0	0	0.13245	0.070773	0.24127	0.091758	0.044035	0.21571	0.19059	0.15884	0.065761	0.15516	0.23048	0.0514	0.11218	0.062506	0.10745	0.18986	-2.3875	-3.0104	-3.0146	-2.7896	-3.1896	-2.825	-2.9938	-3.5104	-2.925	-2.9875	-3.0125	-2.8021	-3.25	-3.0042	-2.9729	-3.2542	318.374	223.103	268.084	226.819	320.105	266.894	283.504	249.112	139.394	311.410	282.539	257.636	-0.070	223.669	154.485	-4.691	0.00012282	0.00036904	9.0412e-05	1098.8	4.5316e-06	5.6242e-06	1186.1	237.1	3.0412e-06	6.1442e-06	297.52	79.194	62.168	17.842	1.6682e-06	25.351	0.00082976	0.0010394	0.00028543	1083.2	1.1005e-05	1.156e-05	1175.1	237.75	1.1399e-05	1.1822e-05	300.05	81.233	64.107	18.526	1.197e-05	26.209	161.937	58.585	124.675	-0.539	226.109	166.823	-0.207	6.620	154.652	181.049	6.478	13.624	13.986	20.648	131.136	20.613	-8191	255	
470.612	1	1	0	0	0.18174	0.11889	0.17452	0.12546	0.11066	0.21246	0.19604	0.3707	0.15598	0.36183	0.19838	0.14102	0.026528	0.054936	0.42342	0.0683	-2.4083	-2.9125	-3.05	-2.8812	-3.0604	-2.9437	-2.9146	-3.1771	-2.9292	-2.9458	-3.2125	-2.85	-3.0917	-3.0854	-2.6813	-3.15	204.653	219.700	129.595	-8.786	342.295	288.073	260.395	277.354	27.504	86.964	81.170	-4.423	240.854	163.101	309.051	89.922	9.8782e-05	0.00048273	6.3831e-05	1099.1	4.9066e-06	3.2123e-06	1189.3	236.72	2.1523e-06	2.68e-06	298.99	79.69	62.466	18.017	3.819e-06	25.455	0.00088985	0.0011069	0.0003042	1085.8	1.1999e-05	1.2414e-05	1179.7	238.52	1.2098e-05	1.253e-05	301.22	82.025	64.523	18.704	1.3101e-05	26.597	184.272	32.808	47.889	-0.525	172.787	143.479	-0.210	6.741	72.862	179.858	6.604	13.347	13.510	20.845	194.172	20.596	-8191	255	
470.706	1	1	0	0	0.15438	0.30827	0.20705	0.1047	0.17997	0.15765	0.12375	0.10048	0.1195	0.17756	0.3305	0.26827	0.13907	0.15452	0.17972	0.23996	-2.3083	-2.7354	-3.0458	-2.6875	-2.9125	-3.0875	-2.8333	-3.4208	-2.9646	-3.0896	-3.0333	-2.8542	-3.2646	-3.2917	-2.8542	-3.2646	72.872	252.543	70.085	236.752	247.189	264.188	233.419	206.585	256.070	61.261	255.431	64.591	333.868	348.223	150.984	294.398	0.00012798	0.00037051	0.00014955	1106.4	1.8776e-06	1.5695e-06	1195.8	238.34	2.6333e-06	6.9223e-06	299.66	79.633	62.818	17.974	2.0592e-06	25.482	0.00099548	0.0012359	0.00034797	1095.6	1.3594e-05	1.3998e-05	1187.2	240.37	1.3469e-05	1.3872e-05	302.69	82.093	65.007	18.803	1.4383e-05	26.608	162.345	31.981	116.088	-0.711	106.838	-6.633	-0.310	6.793	224.226	136.563	6.190	13.355	14.254	20.918	91.373	20.010	-8191	255	
470.802	1	1	0	0	0.07408	0.030622	0.27697	0.27576	0.070606	0.1633	0.23626	0.11827	0.2306	0.19904	0.10768	0.11205	0.14605	0.24347	0.096874	0.35088	-2.4417	-2.8104	-3.325	-2.9792	-2.9771	-3.2062	-2.7083	-3.2354	-2.9021	-2.8292	-3.1583	-2.875	-3.1604	-3.1708	-2.5729	-3.0812	229.030	57.704	113.136	336.996	163.219	280.994	347.460	328.358	279.705	68.885	264.031	202.291	4.068	210.736	107.327	206.197	0.00015487	0.00073483	6.294e-05	1104	4.4336e-06	9.1881e-07	1201.8	238.68	4.9341e-06	2.8828e-06	302.04	79.968	62.405	18.134	3.4877e-06	25.46	0.0010952	0.0013858	0.00038318	1096	1.5209e-05	1.5358e-05	1190.5	241.49	1.4676e-05	1.4934e-05	304.51	82.599	64.969	18.852	1.3507e-05	26.66	162.697	57.107	127.024	-0.623	217.223	8.046	-0.209	6.685	186.894	123.206	6.170	13.599	13.898	21.207	197.960	20.570	-8191	255	
470.898	1	1	0	0	0.32357	0.18297	0.123	0.13923	0.2396	0.098323	0.14655	0.02776	0.2023	0.10811	0.22867	0.26738	0.13717	0.25473	0.28107	0.142	-2.5687	-2.8438	-3.2146	-2.9521	-2.7917	-3.1833	-2.8792	-3.1792	-3.0125	-2.7396	-3.3563	-2.9188	-3.0396	-3.2375	-2.8854	-3.1229	125.308	140.780	7.627	292.951	252.827	292.825	344.840	74.532	47.383	43.398	135.299	319.520	258.390	32.167	38.754	219.192	0.00013607	0.0007496	5.7977e-05	1111.8	5.0004e-06	9.5707e-07	1197.2	237.75	2.1317e-06	6.1087e-06	300.53	79.583	62.5	18.088	2.0495e-06	25.38	0.00097297	0.0012051	0.00033341	1099.9	1.2666e-05	1.2719e-05	1190.9	240.29	1.2818e-05	1.3337e-05	303.83	82.149	64.792	18.826	1.4151e-05	26.596	170.464	183.234	83.673	-0.593	138.304	145.485	-0.450	6.654	111.395	152.776	6.448	13.252	13.808	20.480	152.620	20.916	-8191	255	
471.019	1	1	0	0	0.17392	0.17453	0.11862	0.17835	0.23034	0.042438	0.10377	0.32949	0.075612	0.1131	0.084729	0.22637	0.058037	0.28447	0.18571	0.076703	-2.6458	-2.5563	-3.0917	-3.0792	-2.7083	-3.2021	-2.9396	-3.0375	-3.0958	-2.8	-3.2875	-3.1042	-2.7167	-3.1667	-2.7	-3.0271	250.006	17.384	303.288	326.666	9.119	257.388	280.654	347.364	157.782	310.211	23.213	213.479	5.383	285.402	239.418	35.876	0.00011484	0.000995	4.4427e-05	1108.5	2.0467e-06	4.8227e-06	1198.5	239.21	2.6384e-06	3.5113e-06	300.62	79.949	62.682	17.958	4.0248e-06	25.611	0.0010565	0.0013601	0.0003768	1097.9	1.4622e-05	1.5047e-05	1192.9	241.35	1.4781e-05	1.5445e-05	304.28	82.524	65.233	18.882	1.559e-05	26.844	164.548	62.574	17.709	-0.605	157.403	113.704	-0.314	6.462	42.021	115.469	6.507	13.391	13.998	20.658	120.954	20.036	-8191	255	
471.091	1	1	0	0	0.14945	0.20192	0.2413	0.29842	0.23326	0.16793	0.049963	0.19097	0.15382	0.18565	0.33874	0.26482	0.26573	0.097391	0.23503	0.068344	-2.8021	-2.7229	-3.0458	-3.2396	-2.8021	-3.2062	-2.8875	-3.0146	-3.3	-2.7938	-3.1188	-2.9042	-2.6042	-3.3375	-2.9	-3.1417	105.585	91.168	296.318	307.789	246.771	70.865	345.118	279.790	122.850	282.106	196.730	6.926	301.125	346.804	109.956	147.414	0.00015089	0.00047767	0.00022442	1108.9	1.6444e-06	1.7299e-06	1197.4	239.41	4.8207e-06	2.3396e-06	300.9	79.479	62.861	18.066	3.9083e-06	25.664	0.0011519	0.001425	0.00040941	1100	1.5651e-05	1.6372e-05	1193.4	241.84	1.6193e-05	1.6929e-05	305.72	82.85	65.687	19.083	1.7216e-05	27.035	179.745	135.306	76.709	-0.663	130.807	11.501	-0.215	6.853	215.158	185.708	6.350	13.063	13.997	20.902	312.194	20.455	-8191	255	
471.187	1	1	0	0	0.36247	0.19687	0.060698	0.23151	0.10372	0.13983	0.15918	0.37242	0.14874	0.1496	0.11202	0.21563	0.1334	0.15241	0.18323	0.34591	-2.7458	-2.6937	-2.9813	-3.1292	-2.6854	-3.2167	-2.9917	-2.9104	-3.2354	-2.7687	-3.0417	-3.0375	-2.6604	-3.1312	-3.0396	-2.875	272.579	65.515	239.647	315.493	71.428	16.203	174.327	261.314	346.988	256.944	277.765	170.208	267.160	60.830	160.744	314.907	0.00011733	0.00019448	0.0001217	1118.5	5.6212e-06	1.2122e-06	1208.2	240.38	2.0191e-06	2.7333e-06	302.18	80.531	63.109	18.053	7.0482e-06	25.595	0.0012602	0.0015443	0.00043161	1108.8	1.5681e-05	1.5885e-05	1200.9	243.21	1.4957e-05	1.5354e-05	305.72	82.946	65.384	18.915	1.5123e-05	26.822	176.476	79.956	89.651	-0.490	195.249	180.614	-0.253	6.858	305.421	102.716	6.545	13.317	13.195	20.696	117.695	20.708	-8191	255	
471.283	1	1	0	0	0.11306	0.12964	0.13218	0.1595	0.096511	0.15613	0.16744	0.13506	0.035099	0.38696	0.055363	0.14583	0.1019	0.17992	0.19272	0.18088	-2.7167	-2.7042	-3.0708	-3.2125	-2.7458	-3.1646	-3.1083	-2.8458	-3.2	-2.7875	-3.1146	-3.1437	-2.5604	-3.1083	-2.925	-2.7958	315.559	106.237	135.648	326.749	-5.091	266.278	294.953	303.657	261.844	94.796	314.945	325.597	328.838	305.380	88.146	114.295	0.00011023	0.0001366	0.00022928	1111.6	5.4477e-06	7.362e-06	1199.2	239.06	5.1751e-06	5.2349e-06	301.64	79.844	62.731	18.118	3.7659e-06	25.572	0.0011365	0.0014622	0.00041229	1102.7	1.61e-05	1.6577e-05	1193.9	242.45	1.64e-05	1.7243e-05	306.35	82.983	65.495	19.02	1.6496e-05	26.842	152.720	221.658	54.302	-0.520	199.995	127.299	-0.465	6.570	158.738	158.132	6.416	13.547	13.213	21.114	151.012	20.541	-8191	255	
471.379	1	1	0	0	0.032592	0.16096	0.10892	0.14316	0.042574	0.1044	0.16714	0.29208	0.074631	0.13963	0.079409	0.11221	0.13528	0.12816	0.13051	0.025973	-2.6896	-2.8	-2.8583	-3.2354	-2.7812	-2.9271	-3.0708	-2.6937	-3.125	-2.8833	-3.0146	-3.1521	-2.7687	-3.1188	-3.0833	-2.7333	183.573	44.009	107.775	12.128	281.659	311.534	214.324	264.172	297.272	148.815	340.085	303.103	144.824	341.344	47.143	123.249	9.6556e-05	0.00090534	0.00032429	1114.7	1.7961e-06	6.8735e-06	1201.3	240.51	2.3942e-06	4.5806e-06	303.12	80.221	62.936	18.087	3.5751e-06	25.681	0.0011987	0.0015116	0.00042095	1106.5	1.5912e-05	1.664e-05	1198.7	243.19	1.5693e-05	1.6587e-05	306.52	83.072	65.611	19	1.5743e-05	26.814	176.578	147.392	100.133	-0.628	205.093	130.969	-0.466	6.945	199.086	168.462	6.353	13.641	13.684	20.898	160.881	20.247	-8191	255	
471.500	1	1	0	0	0.17126	0.10268	0.088141	0.45618	0.17364	0.12206	0.15512	0.10116	0.24345	0.15413	0.16192	0.12005	0.26624	0.32239	0.09852	0.26056	-2.7292	-2.6854	-2.7354	-3.2979	-2.8208	-2.95	-3.1729	-2.8146	-3.0958	-2.9542	-2.8458	-3.1896	-2.7938	-2.9771	-3.0354	-2.8917	168.369	246.063	313.535	338.247	-9.261	330.498	297.684	70.290	118.735	245.470	243.764	208.495	194.787	250.151	224.417	52.142	0.00012023	0.00048804	0.00014934	1112.3	3.6159e-06	1.063e-06	1202.9	238.6	1.1266e-06	3.3672e-06	302.75	80.458	62.807	18.315	1.874e-06	25.609	0.0011507	0.0014258	0.00040503	1104.4	1.5253e-05	1.5638e-05	1195.3	241.93	1.4956e-05	1.5521e-05	305.96	82.677	65.372	19.014	1.4593e-05	26.788	183.655	6.481	67.446	-0.489	130.556	132.400	-0.251	7.046	109.408	187.066	6.579	13.385	13.728	21.270	196.441	20.494	-8191	255	
471.596	1	1	0	0	0.12261	0.32292	0.17551	0.38897	0.068647	0.20899	0.073204	0.18539	0.080311	0.3255	0.11681	0.20679	0.21275	0.19191	0.22827	0.338	-2.5979	-2.7708	-2.6625	-3.2687	-2.6521	-3.0125	-3.2583	-2.7729	-2.9875	-2.9313	-2.8271	-3.2896	-2.9958	-2.9229	-3.0771	-2.6458	92.435	139.810	201.849	283.125	188.315	212.285	270.142	102.363	231.054	315.784	185.293	-7.786	-5.185	343.023	57.845	146.347	0.00013055	0.00034386	0.00011498	1118.9	3.4033e-06	1.8218e-06	1207.6	240.65	1.2482e-07	8.38e-07	302.39	79.746	62.774	18.069	6.7655e-06	25.71	0.001079	0.001339	0.00037675	1105.9	1.4093e-05	1.4722e-05	1195.6	242.66	1.4509e-05	1.5193e-05	306.02	82.729	65.321	18.977	1.5059e-05	26.855	173.984	78.241	101.448	-0.654	179.682	173.637	-0.089	6.738	343.599	33.962	6.290	13.427	13.925	20.673	126.515	20.051	-8191	255	
471.692	1	1	0	0	0.031392	0.11545	0.068752	0.099837	0.19705	0.15381	0.14653	0.25555	0.11852	0.074235	0.34539	0.057508	0.26425	0.094915	0.18425	0.068708	-2.5854	-2.9437	-2.7604	-3.2771	-2.8312	-3.025	-3.1417	-2.7	-3.0375	-2.95	-2.6771	-3.1042	-2.9583	-2.9104	-3.0354	-2.7062	52.340	43.643	148.432	252.483	203.172	71.998	151.740	-8.228	21.015	256.614	236.557	230.294	-7.027	139.188	64.413	221.793	0.00010306	0.00052666	0.00014931	1108	2.7085e-06	5.4085e-06	1205.6	240.16	4.466e-06	5.6878e-06	302.55	79.933	62.888	18.269	5.3314e-06	25.671	0.0011143	0.001388	0.000387	1103.2	1.4782e-05	1.5595e-05	1196.8	242.55	1.5005e-05	1.5483e-05	305.89	82.508	65.403	19.015	1.5377e-05	26.888	171.337	64.103	86.114	-0.536	306.872	77.375	-0.429	6.870	174.798	99.124	6.565	13.134	14.159	21.050	147.128	20.319	-8191	255	
471.786	1	1	0	0	0.24015	0.10079	0.1915	0.24057	0.036845	0.11628	0.33458	0.2763	0.056807	0.1296	0.23067	0.091894	0.27749	0.053571	0.14682	0.17258	-2.7396	-3.0208	-2.8208	-3.2938	-2.7646	-3.0604	-3.3812	-2.8625	-2.9833	-3.0708	-2.8708	-3.1604	-2.9625	-2.7417	-3.3583	-2.7729	211.517	115.807	18.651	301.406	219.209	33.428	267.222	311.983	86.495	156.592	309.928	35.503	26.332	8.952	8.083	74.413	0.00016564	0.00056057	9.9507e-05	1110.9	1.6819e-06	1.0892e-06	1200.4	239.94	7.2281e-06	7.7107e-06	300.8	79.367	62.475	18.139	4.172e-06	25.634	0.0011429	0.0014344	0.00039935	1103.7	1.5388e-05	1.5843e-05	1193.5	241.87	1.5464e-05	1.5812e-05	305.25	82.681	65.356	19.003	1.5843e-05	26.936	160.750	197.384	54.611	-0.457	185.065	176.350	-0.539	6.850	203.160	143.835	6.602	13.267	13.982	21.307	81.013	20.463	-8191	255	
471.883	1	1	0	0	0.1241	0.12365	0.20529	0.18343	0.052493	0.066911	0.21083	0.16315	0.17786	0.31595	0.099989	0.071076	0.24373	0.13298	0.13255	0.093819	-2.5104	-2.9958	-2.7083	-3.25	-2.9167	-2.6688	-3.3187	-2.9167	-2.9313	-3.1333	-2.65	-3.2854	-2.9708	-2.7333	-3.2667	-2.8208	345.189	189.026	69.734	-6.782	295.238	97.243	272.884	295.491	62.125	257.358	297.179	330.092	17.191	146.875	25.583	-1.273	0.00010603	0.0001856	0.00016036	1118.4	1.1086e-06	4.6544e-06	1205.5	240.62	1.6657e-06	3.5848e-06	302.72	79.96	63.192	18.036	3.5747e-06	25.656	0.0011671	0.0014688	0.00041532	1107.3	1.572e-05	1.5761e-05	1199.3	243.43	1.5424e-05	1.5763e-05	306.46	82.9	65.755	19.063	1.5339e-05	26.897	186.735	149.505	147.906	-0.749	157.176	11.509	-0.103	6.851	190.185	197.160	6.415	13.366	13.607	20.547	305.095	20.025	-8191	255	
471.979	1	1	0	0	0.41669	0.22723	0.13358	0.36717	0.49259	0.12658	0.20522	0.1207	0.12524	0.1226	0.33963	0.18842	0.11031	0.20774	0.11677	0.17861	-2.4021	-3.1	-2.7396	-3.2646	-2.9271	-2.7458	-3.3104	-2.9813	-2.9604	-3.3333	-2.7438	-3.0333	-3.075	-2.7979	-3.2375	-3.0333	251.888	17.448	253.520	317.184	273.181	252.336	325.130	284.615	237.219	71.077	296.275	164.623	84.100	330.125	157.011	25.295	0.00010246	0.00040051	4.5797e-05	1116	5.5252e-06	2.9174e-06	1203.5	238.13	8.1433e-06	5.7544e-06	301.82	80.099	62.958	18.274	2.888e-06	25.625	0.0011382	0.001419	0.0003971	1105.1	1.5422e-05	1.5979e-05	1196.9	242.19	1.5908e-05	1.6395e-05	306.28	83.101	65.748	19.203	1.682e-05	26.998	170.712	92.185	67.068	-0.665	232.535	182.411	-0.358	7.047	160.688	162.349	6.245	13.442	13.843	20.682	198.780	19.843	-8191	255	
472.099	1	1	0	0	0.14902	0.21697	0.072375	0.28694	0.15354	0.1337	0.15574	0.10444	0.15775	0.10897	0.10838	0.048497	0.21163	0.14558	0.29045	0.04643	-2.3354	-3.1771	-2.7062	-3.0417	-3.0458	-2.6542	-3.3729	-2.8604	-2.8312	-3.2958	-2.9688	-3.0563	-3.2208	-2.6688	-3.2021	-3.1125	243.499	337.944	111.819	279.153	311.837	335.115	267.732	256.523	235.475	245.359	29.738	324.993	230.763	37.985	138.013	250.311	0.00010626	0.00058499	0.00015196	1108.5	4.1563e-06	8.3504e-06	1200.1	239.64	4.1487e-06	7.0093e-06	303.23	79.741	63.126	18.176	3.4841e-06	25.475	0.0012523	0.0015814	0.00045221	1104.5	1.6832e-05	1.7545e-05	1197.4	243.17	1.6804e-05	1.7123e-05	306.52	83.079	65.59	19.123	1.6506e-05	26.906	185.292	69.484	10.466	-0.692	188.194	107.048	-0.269	6.443	200.356	124.563	6.328	13.231	13.855	20.982	340.166	20.179	-8191	255	
472.196	1	1	0	0	0.23039	0.14543	0.16399	0.18995	0.14181	0.15564	0.31077	0.22762	0.40662	0.1955	0.16798	0.080167	0.21542	0.29239	0.16713	0.28461	-2.3167	-3.4208	-2.875	-3.025	-3.0771	-2.7375	-3.2396	-3.0042	-2.8104	-3.3542	-2.8083	-3.0917	-3.2104	-2.8375	-3.1937	-3.0687	114.071	195.538	271.283	291.368	143.443	317.471	10.220	292.345	51.246	189.340	98.421	142.632	240.184	52.165	15.367	-9.466	9.6352e-05	0.0003201	0.0001755	1110.9	3.5234e-06	1.5354e-06	1199	239.57	1.518e-06	1.2211e-05	299.65	79.517	62.609	17.878	6.6001e-06	25.669	0.0012055	0.0015059	0.00041276	1103.5	1.5627e-05	1.5734e-05	1194.5	242.36	1.5272e-05	1.5716e-05	304.76	82.479	65.115	18.895	1.527e-05	26.752	173.886	109.787	132.155	-0.656	142.861	138.299	-0.482	6.847	210.319	152.320	6.636	13.756	14.157	20.762	150.409	20.079	-8191	255	
472.292	1	1	0	0	0.1992	0.15007	0.17536	0.14705	0.13575	0.30435	0.25196	0.29545	0.059386	0.080549	0.019919	0.16388	0.21465	0.17398	0.21376	0.11497	-2.4229	-3.1562	-3.0604	-3.0438	-3.1917	-2.8854	-3.3187	-3.1833	-2.8917	-3.2375	-2.9667	-2.8917	-3.2375	-2.7104	-3.1562	-3.0479	181.786	288.610	323.052	167.738	326.690	75.599	283.668	332.636	236.065	289.048	220.322	309.289	266.104	28.722	-3.257	214.368	0.00011264	0.00015845	7.9721e-05	1107.9	4.3486e-06	1.7007e-06	1196.8	238.36	5.844e-06	2.9009e-06	301.12	79.46	63.006	18.101	2.8732e-06	25.714	0.0011013	0.0013556	0.00037867	1098.2	1.4285e-05	1.4461e-05	1188.8	240.46	1.4164e-05	1.4505e-05	303.64	82.182	64.92	18.863	1.4383e-05	26.7	144.508	78.452	70.531	-0.490	194.393	270.663	-0.450	6.775	158.727	181.873	6.253	13.544	13.754	20.999	221.931	20.532	-8191	255	
472.388	1	1	0	0	0.26504	0.073141	0.27254	0.23127	0.19784	0.087433	0.10107	0.18698	0.17602	0.21537	0.20516	0.084707	0.091677	0.11541	0.24443	0.24682	-2.3354	-3.0896	-2.9021	-2.8	-3.0167	-2.8063	-3.1562	-3.2833	-2.7479	-3.3333	-3.0938	-2.925	-3.1396	-2.8604	-3.0187	-3.0792	94.198	307.609	213.187	304.030	102.257	302.656	238.891	4.071	222.350	180.177	104.713	126.850	292.030	217.634	50.164	183.713	0.00010617	0.00051295	0.00027613	1113.6	8.666e-06	1.0408e-05	1199.1	238.23	3.6108e-06	8.5982e-06	302.17	79.621	62.688	18.033	3.3891e-06	25.688	0.0010283	0.0012817	0.00036208	1099.3	1.3755e-05	1.4053e-05	1190.9	241.02	1.3825e-05	1.4542e-05	304.48	82.383	65.047	18.879	1.441e-05	26.686	176.590	108.786	100.292	-0.492	173.958	187.757	-0.458	6.812	178.439	116.596	6.495	13.621	13.893	20.413	117.143	20.666	-8191	255	
#DATA ENDS
