BOXY.EXE: ISS Imagent and Oximeter Data Acquisition Program Version 0.80
Ascii Record File

#ACQ INFORMATION
2  Detector Channels 
16  External MUX Channels 
1  Auxiliary Channels 
5000  Waveform (CCF) Frequency (Hz)
1  Waveforms Skipped 
30  Waveforms Averaged 
1  Cycles Averaged 
16  Acquisitions per Waveform 
10.0806  Updata Rate (Hz) 

#FILE INFORMATION
TRUE -- External MUX Channel results are PARSED.
FALSE -- AC DC and Phase are NOT grouped.
TRUE -- Companion Program Settings File CREATED.
FALSE -- AC data not excluded
FALSE -- DC data not excluded
FALSE -- Phase data not excluded
FALSE -- Auxillary Chn. data not excluded
Tab delimiters

#CALIBRATION STATE
TRUE -- Waveform Calibration Values APPLIED.


#AUX CALIBRATION VALUES
Val Type	aux-1	

Term	1.0000e+00	
Factor	0.0000e+00	


#WF CALIBRATION VALUES
A = Detector Channel
Val Type	A-AC1	A-AC2	A-AC3	A-AC4	A-AC5	A-AC6	A-AC7	A-AC8	A-AC9	A-AC10	A-AC11	A-AC12	A-AC13	A-AC14	A-AC15	A-AC16	A-DC1	A-DC2	A-DC3	A-DC4	A-DC5	A-DC6	A-DC7	A-DC8	A-DC9	A-DC10	A-DC11	A-DC12	A-DC13	A-DC14	A-DC15	A-DC16	A-Ph1	A-Ph2	A-Ph3	A-Ph4	A-Ph5	A-Ph6	A-Ph7	A-Ph8	A-Ph9	A-Ph10	A-Ph11	A-Ph12	A-Ph13	A-Ph14	A-Ph15	A-Ph16	

Term	0.00000e+00	0.00000e+00	0.00000e+00	0.00000e+00	0.00000e+00	0.00000e+00	0.00000e+00	0.00000e+00	0.00000e+00	0.00000e+00	0.00000e+00	0.00000e+00	0.00000e+00	0.00000e+00	0.00000e+00	0.00000e+00	0.00000e+00	0.00000e+00	0.00000e+00	0.00000e+00	0.00000e+00	0.00000e+00	0.00000e+00	0.00000e+00	0.00000e+00	0.00000e+00	0.00000e+00	0.00000e+00	0.00000e+00	0.00000e+00	0.00000e+00	0.00000e+00	0.00000e+00	0.00000e+00	0.00000e+00	0.00000e+00	0.00000e+00	0.00000e+00	0.00000e+00	0.00000e+00	0.00000e+00	0.00000e+00	0.00000e+00	0.00000e+00	0.00000e+00	0.00000e+00	0.00000e+00	0.00000e+00	
Factor	1.00000e+00	1.00000e+00	1.00000e+00	1.00000e+00	1.00000e+00	1.00000e+00	1.00000e+00	1.00000e+00	1.00000e+00	1.00000e+00	1.00000e+00	1.00000e+00	1.00000e+00	1.00000e+00	1.00000e+00	1.00000e+00	1.00000e+00	1.00000e+00	1.00000e+00	1.00000e+00	1.00000e+00	1.00000e+00	1.00000e+00	1.00000e+00	1.00000e+00	1.00000e+00	1.00000e+00	1.00000e+00	1.00000e+00	1.00000e+00	1.00000e+00	1.00000e+00	X	X	X	X	X	X	X	X	X	X	X	X	X	X	X	X	

B = Detector Channel
Val Type	B-AC1	B-AC2	B-AC3	B-AC4	B-AC5	B-AC6	B-AC7	B-AC8	B-AC9	B-AC10	B-AC11	B-AC12	B-AC13	B-AC14	B-AC15	B-AC16	B-DC1	B-DC2	B-DC3	B-DC4	B-DC5	B-DC6	B-DC7	B-DC8	B-DC9	B-DC10	B-DC11	B-DC12	B-DC13	B-DC14	B-DC15	B-DC16	B-Ph1	B-Ph2	B-Ph3	B-Ph4	B-Ph5	B-Ph6	B-Ph7	B-Ph8	B-Ph9	B-Ph10	B-Ph11	B-Ph12	B-Ph13	B-Ph14	B-Ph15	B-Ph16	

Term	0.00000e+00	0.00000e+00	0.00000e+00	0.00000e+00	0.00000e+00	0.00000e+00	0.00000e+00	0.00000e+00	0.00000e+00	0.00000e+00	0.00000e+00	0.00000e+00	0.00000e+00	0.00000e+00	0.00000e+00	0.00000e+00	0.00000e+00	0.00000e+00	0.00000e+00	0.00000e+00	0.00000e+00	0.00000e+00	0.00000e+00	0.00000e+00	0.00000e+00	0.00000e+00	0.00000e+00	0.00000e+00	0.00000e+00	0.00000e+00	0.00000e+00	0.00000e+00	-1.23726e+02	-1.39918e+02	-1.78938e+02	-1.81413e+02	-3.50059e+01	-7.24347e+01	-1.57789e+02	-1.62015e+02	-7.41590e+01	-9.50557e+01	-1.80411e+02	-1.70917e+02	-1.81322e+02	-1.76271e+02	-8.71251e+01	-1.49364e+02	
Factor	1.81544e-05	1.23178e-04	2.51159e-05	1.85326e-01	8.05980e-07	9.73926e-07	1.72092e-01	5.34215e-02	8.30615e-07	1.09759e-06	1.07935e-01	3.07122e-02	2.47813e-02	9.40291e-03	9.68748e-07	1.38253e-02	5.41759e-07	5.53856e-07	1.53778e-07	8.86287e-02	6.03997e-09	6.06804e-09	7.82073e-02	2.56647e-02	6.05508e-09	6.07195e-09	4.76290e-02	1.39290e-02	1.17526e-02	4.39035e-03	6.05682e-09	6.14778e-03	X	X	X	X	X	X	X	X	X	X	X	X	X	X	X	X	



#DISTANCE SETTINGS
A = Detector Channel
A-1	A-2	A-3	A-4	A-5	A-6	A-7	A-8	A-9	A-10	A-11	A-12	A-13	A-14	A-15	A-16	

2.5000e+00	3.0000e+00	2.5000e+00	3.0000e+00	2.0000e+00	3.0000e+00	1.5000e+00	3.0000e+00	3.0000e+00	3.0000e+00	3.0000e+00	3.0000e+00	3.0000e+00	3.0000e+00	1.5000e+00	3.0000e+00	

B = Detector Channel
B-1	B-2	B-3	B-4	B-5	B-6	B-7	B-8	B-9	B-10	B-11	B-12	B-13	B-14	B-15	B-16	

1.0000e+01	1.0000e+01	1.0000e+01	1.4400e+00	1.0000e+01	1.0000e+01	1.5100e+00	1.9400e+00	1.0000e+01	1.0000e+01	1.9900e+00	2.4900e+00	2.4100e+00	2.9000e+00	1.0000e+01	2.9800e+00	




#DATA BEGINS
time	group	step	mark	flag	A-AC1	A-AC2	A-AC3	A-AC4	A-AC5	A-AC6	A-AC7	A-AC8	A-AC9	A-AC10	A-AC11	A-AC12	A-AC13	A-AC14	A-AC15	A-AC16	A-DC1	A-DC2	A-DC3	A-DC4	A-DC5	A-DC6	A-DC7	A-DC8	A-DC9	A-DC10	A-DC11	A-DC12	A-DC13	A-DC14	A-DC15	A-DC16	A-Ph1	A-Ph2	A-Ph3	A-Ph4	A-Ph5	A-Ph6	A-Ph7	A-Ph8	A-Ph9	A-Ph10	A-Ph11	A-Ph12	A-Ph13	A-Ph14	A-Ph15	A-Ph16	B-AC1	B-AC2	B-AC3	B-AC4	B-AC5	B-AC6	B-AC7	B-AC8	B-AC9	B-AC10	B-AC11	B-AC12	B-AC13	B-AC14	B-AC15	B-AC16	B-DC1	B-DC2	B-DC3	B-DC4	B-DC5	B-DC6	B-DC7	B-DC8	B-DC9	B-DC10	B-DC11	B-DC12	B-DC13	B-DC14	B-DC15	B-DC16	B-Ph1	B-Ph2	B-Ph3	B-Ph4	B-Ph5	B-Ph6	B-Ph7	B-Ph8	B-Ph9	B-Ph10	B-Ph11	B-Ph12	B-Ph13	B-Ph14	B-Ph15	B-Ph16	aux-1	digaux	

1663.826	1	1	0	256	0.1093	0.13446	0.16316	0.016734	0.1686	0.23663	0.0069555	0.10873	0.14609	0.15371	0.13574	0.099277	0.16934	0.12902	0.11011	0.17967	-2.75	-2.4583	-3.0708	-3.0458	-2.4562	-3.2646	-2.8104	-2.8021	-3.1104	-2.6083	-3.2479	-3.0625	-2.5104	-3.2042	-2.5667	-2.8063	111.046	51.987	163.620	266.387	218.057	208.148	103.511	263.190	143.905	25.574	146.698	-27.549	186.266	250.017	184.922	195.630	0.00024785	0.00032384	0.00053132	548.84	8.0704e-06	7.8321e-06	590.95	217.86	1.023e-06	2.0336e-05	265.15	93.93	81.593	31.673	1.4733e-05	36.177	0.0020121	0.0019278	0.00055905	871.97	2.2587e-05	2.0916e-05	843.31	306.66	2.2412e-05	2.1266e-05	415.54	142.3	117.19	43.523	2.4004e-05	57.318	-4.111	5.587	88.012	-74.508	14.749	44.729	-75.557	-69.479	108.903	-50.651	-71.970	-68.013	-65.174	-60.707	219.547	-64.382	-8191	255	
1663.922	1	1	0	0	0.15769	0.13453	0.20512	0.17058	0.20572	0.14006	0.11986	0.36059	0.13247	0.051133	0.14104	0.18854	0.027401	0.4101	0.18835	0.11978	-2.725	-2.6125	-2.9979	-3.1146	-2.4375	-3.1937	-2.9083	-2.7313	-3.2229	-2.6521	-3.075	-3.1271	-2.5021	-3.1229	-2.6833	-2.7562	48.381	50.574	85.175	117.694	-1.621	5.186	173.073	270.506	-62.625	63.877	-26.507	159.913	22.569	-41.681	149.557	194.193	0.00014947	0.00080713	0.00023839	541.94	3.9449e-06	9.505e-06	579.71	216.46	4.6992e-06	5.8875e-06	262.39	92.579	80.256	31.415	3.0855e-05	35.866	0.0020106	0.0019444	0.00061867	858.69	2.2433e-05	2.1212e-05	860.11	303.58	2.2193e-05	2.1737e-05	427.21	138.77	116.09	43.623	2.5715e-05	56.056	257.718	1.132	55.908	-74.213	14.971	49.998	-75.644	-69.076	-47.879	102.282	-72.064	-67.909	-65.271	-60.566	171.218	-64.750	-8191	255	
1664.018	1	1	0	0	0.1417	0.13762	0.18596	0.22803	0.11765	0.17551	0.11152	0.15526	0.11346	0.010885	0.25644	0.12255	0.26857	0.036578	0.048093	0.057508	-2.8979	-2.55	-3.0167	-3.0292	-2.4479	-3.2208	-3.0396	-2.6396	-3.275	-2.7083	-2.9479	-3.1021	-2.2687	-3.1437	-2.8625	-2.5521	24.475	79.781	-46.064	181.789	119.198	76.725	23.758	146.725	181.962	-49.721	30.483	82.980	268.289	249.241	5.283	165.558	0.00012834	0.00092738	0.00040325	539.36	2.4746e-06	1.1064e-05	580.3	215.82	1.7819e-05	3.2232e-05	261.45	92.013	80.292	31.243	8.1329e-06	35.889	0.0019833	0.0020405	0.00066373	842.97	2.235e-05	2.2432e-05	877.94	300.89	2.2122e-05	2.3501e-05	439.77	137.07	116.28	45.102	2.6726e-05	55.632	177.553	171.577	21.494	-74.007	139.012	181.078	-75.592	-69.002	61.460	225.951	-71.943	-68.416	-65.089	-60.437	74.783	-64.168	-8191	255	
1664.139	1	1	0	0	0.18712	0.36968	0.068593	0.095372	0.14472	0.15443	0.10858	0.17921	0.063692	0.28708	0.22456	0.11325	0.34805	0.20218	0.13903	0.15213	-2.8146	-2.5938	-2.7333	-3.2313	-2.5167	-3.0062	-3.1667	-2.6813	-3.1188	-2.85	-2.8667	-3.2271	-2.6125	-2.9396	-3.0417	-2.6	225.155	257.000	20.059	-76.135	187.392	140.735	188.968	232.823	122.591	-58.854	159.732	15.235	-56.074	-34.009	241.277	214.327	0.00012979	0.0030877	4.1085e-05	531.12	7.5819e-06	2.0195e-05	579.02	215.65	5.7919e-06	1.9122e-05	266.45	92.675	80.614	31.517	2.1669e-05	36.437	0.0019784	0.0022069	0.00067732	831.22	2.2232e-05	2.479e-05	880.3	298.55	2.2269e-05	2.5736e-05	441.48	137.02	116.18	47.036	2.6276e-05	55.467	66.120	139.982	211.038	-74.348	131.317	230.282	-75.543	-69.536	82.098	197.626	-72.959	-67.903	-65.336	-60.591	-33.787	-64.508	-8191	255	
1664.233	1	1	0	0	0.020422	0.064405	0.067878	0.11715	0.20569	0.019518	0.17137	0.26869	0.10462	0.01377	0.24931	0.065114	0.23004	0.074098	0.086118	0.23726	-2.6958	-2.8688	-2.5354	-3.3167	-2.7229	-2.8833	-3.0708	-2.4708	-3.1688	-2.7708	-2.8708	-3.2229	-2.575	-3.2167	-3.1375	-2.5208	65.208	268.660	83.967	186.734	189.739	48.500	197.920	188.092	256.014	165.862	-80.463	7.911	219.483	11.659	215.713	246.446	0.00037624	0.0010122	0.00058558	533.73	3.0241e-06	1.3588e-05	584.86	214.95	1.1967e-05	1.8456e-05	268.38	92.447	80.159	31.538	1.6775e-05	36.293	0.0019968	0.0023876	0.00065417	819.55	2.2049e-05	2.5766e-05	853.95	292.17	2.1306e-05	2.5346e-05	417.66	131.19	113.62	46.035	2.2525e-05	52.784	261.633	68.529	-67.190	-73.969	222.664	223.555	-75.635	-69.286	201.624	235.399	-72.107	-68.172	-65.463	-60.249	47.604	-64.057	-8191	255	
1664.306	1	1	0	0	0.075126	0.36894	0.15165	0.11215	0.10337	0.20057	0.22969	0.13212	0.2509	0.15028	0.065164	0.26828	0.1325	0.1073	0.13029	0.23355	-2.5896	-2.8771	-2.5604	-3.2292	-2.6771	-2.9479	-3.2083	-2.5042	-3.1667	-2.7562	-2.5	-2.9667	-2.7854	-2.8708	-3.0917	-2.5563	96.249	62.601	-84.405	63.618	29.925	-61.248	-36.557	243.658	164.394	41.147	-52.617	193.214	-43.756	3.958	56.712	232.916	0.00044111	0.0014392	0.00036231	532.39	1.3413e-05	1.0029e-05	584.82	215.3	1.1791e-05	8.3495e-06	264.19	91.012	78.383	31.421	1.4911e-05	35.814	0.0018488	0.0021901	0.00054831	771.82	2.0612e-05	2.3585e-05	804.73	279.61	2.0798e-05	2.364e-05	394.86	126.26	113.63	45.207	2.1131e-05	51.57	171.254	208.694	270.268	-74.041	232.031	187.682	-75.731	-69.548	204.921	75.916	-72.657	-67.971	-64.663	-60.544	125.446	-64.314	-8191	255	
1664.425	1	1	0	0	0.13191	0.088267	0.011463	0.11629	0.094446	0.10517	0.070357	0.22439	0.31597	0.17244	0.19576	0.13601	0.25223	0.18459	0.11066	0.10579	-2.5375	-2.9729	-2.6792	-3.3208	-2.7042	-2.875	-3.1333	-2.625	-2.9938	-3.1229	-2.7167	-3.2917	-2.7208	-2.7875	-3.2375	-2.6312	256.019	18.232	68.308	-48.820	-18.289	160.514	206.119	-21.016	240.239	-43.057	57.678	-79.997	256.055	85.649	38.390	269.877	0.00052285	0.0010268	0.00050592	528.48	1.3129e-05	2.3605e-05	577.63	213.06	1.4489e-05	2.0624e-05	261.35	90.267	78.315	31.163	1.0873e-05	35.526	0.0020202	0.0022074	0.00054732	775.29	2.3185e-05	2.4119e-05	806.85	281.7	2.3623e-05	2.3973e-05	395.85	128.49	118.84	45.261	2.185e-05	53.179	146.282	-57.932	-39.499	-74.435	243.224	10.566	-75.591	-69.398	209.830	0.530	-71.877	-67.793	-65.042	-60.728	29.743	-64.599	-8191	255	
1664.521	1	1	0	0	0.11475	0.035329	0.11522	0.091453	0.13401	0.14908	0.054771	0.088345	0.18752	0.21339	0.13202	0.11429	0.12518	0.15706	0.18409	0.23515	-2.6292	-3.0667	-2.3667	-3.2458	-2.8042	-2.7062	-3.4313	-2.7583	-2.7917	-3.0104	-2.4708	-3.1625	-2.9562	-2.7208	-3.3229	-2.7167	166.421	201.907	-46.525	78.100	-65.558	52.484	238.714	149.023	106.090	-7.950	-18.380	-42.545	81.802	-53.228	103.308	220.096	0.00021172	0.0035713	0.00030666	516.97	1.7634e-05	2.9887e-05	571.75	212.7	1.7472e-05	1.7911e-05	265.04	89.87	78.082	31.202	7.2985e-06	35.421	0.0023094	0.0022782	0.00058468	806.8	2.712e-05	2.5723e-05	826.84	296.5	2.7813e-05	2.5674e-05	415.2	137.17	126.77	46.473	2.3683e-05	57.058	135.197	-42.325	-21.285	-74.129	181.373	50.109	-75.221	-69.419	170.216	-44.957	-72.499	-68.143	-64.789	-60.448	55.266	-64.720	-8191	255	
1664.618	1	1	0	0	0.10881	0.18238	0.26671	0.36339	0.20453	0.086233	0.045868	0.16196	0.19035	0.25025	0.12839	0.37662	0.31623	0.11245	0.14324	0.13125	-2.15	-3.0625	-2.4375	-3.0563	-3.0125	-2.6125	-3.3292	-2.5729	-2.9792	-3.2021	-2.4688	-3.3438	-3	-2.575	-3.1437	-2.9437	267.871	33.948	165.677	241.734	20.733	208.689	262.571	158.586	-9.097	-74.868	-32.502	245.356	-82.123	45.225	3.268	257.864	0.00011865	0.0024499	0.00076828	523.23	2.0111e-05	2.4646e-05	573.61	212.54	1.3816e-05	1.2719e-05	262.37	90.302	79.884	31.087	1.3353e-05	35.475	0.0025904	0.0023587	0.00062162	863.46	2.9488e-05	2.6701e-05	848.03	315.38	3.0496e-05	2.7154e-05	430.07	148.74	131.47	47.793	2.6024e-05	62.367	172.618	-35.432	-48.556	-74.186	55.741	34.174	-75.518	-69.547	64.077	77.305	-72.123	-67.931	-65.301	-60.816	42.562	-64.743	-8191	255	
1664.714	1	1	0	0	0.17499	0.36702	0.1549	0.11196	0.049681	0.23715	0.032996	0.25092	0.1428	0.21787	0.22378	0.051876	0.098144	0.31994	0.27323	0.075978	-2.1833	-3.1042	-2.5187	-2.9292	-3.1604	-2.5146	-3.2229	-2.8063	-2.7062	-3.1437	-2.8083	-2.9521	-3.3187	-2.3937	-3.0812	-2.9396	185.705	133.519	211.308	247.297	-9.577	257.338	-41.207	153.267	114.937	99.895	-83.726	48.643	-57.909	260.012	27.791	147.169	0.00078031	0.0023946	0.00069664	511.36	2.0991e-05	1.5137e-05	558.65	211.64	2.0645e-05	3.2098e-05	257.28	89.418	79.139	30.947	2.1372e-05	35.259	0.0028148	0.0025706	0.00068417	937.14	3.1615e-05	2.871e-05	872.87	335.17	3.2039e-05	2.8981e-05	450.61	158.54	133.38	49.074	2.9369e-05	66.453	-0.485	-35.042	4.391	-74.224	90.044	6.299	-75.903	-69.353	-10.146	-42.584	-72.525	-67.390	-65.357	-60.848	193.558	-64.593	-8191	255	
1664.834	1	1	0	0	0.29606	0.20384	0.22664	0.094283	0.23228	0.30168	0.20771	0.11164	0.21699	0.069682	0.28757	0.28296	0.27629	0.21422	0.14331	0.21553	-2.2438	-3.1542	-2.675	-2.8146	-3.1167	-2.5917	-3.3875	-2.8958	-2.4875	-3.2083	-2.7542	-2.9688	-3.3438	-2.55	-3.0938	-2.9354	84.389	98.031	214.454	152.011	90.614	14.418	166.905	12.567	-36.560	108.942	97.465	230.205	200.841	-43.894	81.626	202.316	0.00015655	0.0022557	0.0005901	506.48	3.4887e-05	8.7104e-06	541.44	209.98	7.9996e-06	2.0983e-05	254.28	89.431	78.39	30.584	3.3582e-05	34.955	0.0029376	0.0027367	0.00078086	991.78	3.2739e-05	3.0742e-05	912.73	350.29	3.341e-05	3.0864e-05	487.11	167.5	136.44	50.583	3.48e-05	69.996	-47.214	-75.437	94.802	-74.110	69.926	-4.138	-75.779	-69.389	42.409	29.510	-72.329	-68.099	-65.588	-61.075	193.747	-64.508	-8191	255	
1664.906	1	1	0	0	0.073745	0.1754	0.19141	0.02717	0.08557	0.1503	0.29564	0.24674	0.10986	0.12904	0.11208	0.0078572	0.23425	0.28605	0.1409	0.16005	-2.1188	-3.1229	-2.6792	-2.6875	-3.1063	-2.6	-3.2208	-3.0604	-2.6729	-3.3042	-2.7125	-2.8583	-3.3708	-2.4875	-2.9458	-2.9542	66.872	107.773	124.735	168.150	118.645	95.957	-61.661	243.916	203.882	157.015	-78.560	76.934	237.516	231.580	-78.667	139.794	0.00018765	0.00075055	0.00066294	509.77	1.7072e-05	2.105e-05	541.41	211.46	8.1012e-06	6.1196e-06	248.83	90.129	77.981	30.527	4.2284e-05	35.586	0.0031055	0.002927	0.00092435	1038.6	3.4333e-05	3.2904e-05	986.73	360.29	3.479e-05	3.2676e-05	525.72	169.97	137.83	51.574	3.9312e-05	70.498	267.065	43.596	110.534	-74.716	31.846	7.513	-75.877	-69.354	146.667	-57.309	-72.290	-68.290	-65.629	-60.477	194.400	-64.176	-8191	255	
1665.002	1	1	0	0	0.095348	0.19456	0.051227	0.1737	0.15262	0.079905	0.29826	0.034448	0.36822	0.15203	0.093248	0.087431	0.11781	0.1087	0.092669	0.047371	-2.1396	-3.3208	-2.6688	-2.8792	-3.2375	-2.6396	-3.1458	-3.0979	-2.3896	-3.2042	-2.9458	-2.7021	-3.2958	-2.6521	-3.0875	-3.2292	-27.390	190.224	167.287	243.777	186.283	118.733	83.223	271.173	140.277	126.806	-51.166	45.502	39.466	203.510	-85.488	-58.261	8.0258e-05	0.0022148	0.00075428	516.51	1.1459e-05	1.9101e-05	543.68	211.84	1.2985e-05	2.798e-05	254.08	90.122	78.517	30.3	1.4189e-05	35.576	0.0031451	0.0031124	0.0010292	1038.6	3.511e-05	3.5069e-05	1043.8	358.89	3.5295e-05	3.5407e-05	553.81	168.39	138.32	53.733	4.2058e-05	69.483	-87.393	104.797	100.023	-74.297	264.858	251.777	-76.096	-69.698	42.994	190.326	-72.455	-68.130	-65.341	-60.911	185.092	-64.146	-8191	255	
1665.098	1	1	0	0	0.13102	0.14208	0.25413	0.17754	0.05832	0.064559	0.24107	0.082951	0.16948	0.024204	0.13525	0.12476	0.20654	0.10928	0.29879	0.19354	-2.0458	-3.1625	-2.9104	-2.8292	-3.3917	-2.6792	-2.9	-3.2188	-2.7062	-2.8625	-3.0104	-2.7354	-3.1146	-2.65	-2.825	-3.2896	267.638	209.772	-66.571	-56.671	57.816	214.894	134.500	245.141	103.063	144.194	267.538	-44.339	-81.888	145.706	-61.192	-78.641	0.00018137	0.0050256	0.00028568	515.97	1.1298e-05	3.9855e-05	544.77	212.45	1.259e-05	4.2548e-05	254.31	88.67	78.116	30.289	6.4271e-06	34.908	0.0031723	0.0033961	0.001091	1025.1	3.5321e-05	3.8337e-05	1055.8	353.69	3.5432e-05	3.8894e-05	560.55	167.52	139.27	56.992	4.3385e-05	69.309	-41.457	152.289	236.910	-74.276	134.920	202.475	-75.884	-69.887	11.840	212.810	-72.988	-68.323	-65.366	-60.701	-14.094	-64.152	-8191	255	
1665.217	1	1	0	0	0.12481	0.093742	0.075614	0.10343	0.030987	0.14393	0.13612	0.029854	0.218	0.17209	0.21452	0.16792	0.10516	0.065822	0.083749	0.19782	-1.9813	-3.2229	-2.975	-2.35	-3.1667	-2.6146	-2.7771	-3.1292	-2.5896	-3.0458	-3.025	-2.6771	-3.4354	-2.8271	-2.8229	-3.2833	77.551	169.349	-28.246	208.728	-77.558	149.498	231.875	161.592	-10.991	26.589	200.214	191.768	-53.398	225.778	24.843	196.570	0.0002895	0.0070773	0.00025321	500.98	8.9499e-06	2.3701e-05	535.96	209.37	1.5759e-05	6.1378e-05	253.85	86.49	76.022	29.92	2.1681e-05	34.362	0.0032885	0.0038106	0.0010951	1023.4	3.5901e-05	4.265e-05	1047.3	352.46	3.7009e-05	4.3816e-05	555.39	167.17	142.25	59.71	4.2735e-05	68.913	120.050	143.517	231.738	-74.250	-19.331	209.944	-75.590	-69.648	227.891	195.835	-72.772	-68.133	-65.286	-60.878	-6.030	-64.666	-8191	255	
1665.313	1	1	0	0	0.16179	0.070079	0.112	0.1414	0.2357	0.10665	0.081886	0.28328	0.098095	0.11894	0.15995	0.056982	0.27494	0.23441	0.14751	0.083219	-2.2604	-2.9458	-2.9688	-2.6042	-3.0667	-2.8333	-2.7375	-3.3208	-2.5729	-2.8063	-3.2938	-2.6437	-3.2833	-2.9792	-2.7687	-3.3625	47.661	118.610	123.958	145.152	142.286	33.871	217.611	212.349	269.738	261.259	217.865	56.343	-74.024	231.150	-49.637	-82.065	0.00033042	0.0036168	0.00060125	497.72	3.0123e-05	1.9893e-05	534.13	209.33	3.4327e-05	1.7668e-05	253.5	86.058	75.608	30.454	9.4377e-06	34.209	0.0034386	0.0041272	0.0010668	1017	3.8593e-05	4.5706e-05	1029.7	353.92	3.9792e-05	4.6191e-05	543.05	165.55	148	60.503	4.0857e-05	68.134	150.191	89.479	-68.503	-74.721	249.050	241.321	-75.379	-69.542	195.923	154.090	-72.737	-68.141	-64.905	-61.107	-15.044	-64.733	-8191	255	
1665.411	1	1	0	0	0.11229	0.12838	0.14151	0.099952	0.29481	0.085877	0.14707	0.13646	0.19717	0.075365	0.054357	0.056057	0.11109	0.1069	0.24805	0.10971	-2.1396	-2.8375	-3.2	-2.5792	-3.2625	-2.8958	-2.6583	-3.4292	-2.7333	-2.9125	-3.2854	-2.6292	-3.2125	-3.0167	-2.5438	-3.0958	246.092	-38.573	-31.615	219.104	90.372	259.224	-74.615	-51.663	216.060	92.241	7.533	13.043	121.983	-57.677	140.383	212.592	0.0008835	0.0028189	0.00077973	500.34	4.9329e-05	2.248e-05	536.74	209.87	4.9944e-05	4.3204e-05	252.22	86.66	76.12	30.782	3.1424e-05	34.448	0.0037091	0.0041981	0.0010263	1013.6	4.1642e-05	4.5397e-05	1017	351.01	4.3375e-05	4.5985e-05	538.05	167.4	157.1	60.349	4.0935e-05	69.1	154.247	8.906	262.656	-74.080	224.818	48.953	-75.752	-69.767	208.148	15.419	-73.138	-68.213	-64.581	-60.889	-28.311	-65.266	-8191	255	
1665.530	1	1	0	0	0.146	0.17691	0.17618	0.2506	0.20316	0.14495	0.17122	0.047997	0.065591	0.23355	0.092614	0.29039	0.05944	0.22308	0.11713	0.12653	-2.1562	-2.7604	-3.2	-2.6333	-3.1208	-3.0354	-2.6333	-3.4396	-3.025	-2.725	-3.3417	-2.6667	-3.1208	-3.2687	-2.6229	-3.1208	226.008	115.478	-40.228	229.700	17.964	120.151	230.973	13.710	207.839	155.719	-24.772	161.014	88.992	264.481	84.357	-39.517	0.00090848	0.0045997	0.00031604	500.41	2.8714e-05	3.1772e-05	540.45	208.62	2.5801e-05	3.4985e-05	251.97	85.234	76.617	30.51	1.8457e-05	33.632	0.0040789	0.0041312	0.0010174	1036.7	4.5895e-05	4.4711e-05	1021.3	359.96	4.6864e-05	4.4482e-05	533.87	170.19	161.95	58.805	3.9912e-05	71.318	160.061	-51.849	-65.865	-74.823	237.167	28.214	-75.589	-69.631	208.639	-5.121	-72.526	-68.150	-65.371	-60.801	23.876	-65.345	-8191	255	
1665.602	1	1	0	0	0.060574	0.30265	0.19994	0.19441	0.10977	0.12701	0.1443	0.062928	0.13934	0.25959	0.23381	0.26606	0.12517	0.37433	0.16749	0.097689	-2.5479	-2.6375	-3.3646	-2.6188	-2.9833	-3.1521	-2.4896	-3.2979	-2.8583	-2.6604	-3.2375	-2.7292	-2.9896	-3.3271	-2.4625	-3.0271	-72.730	-65.437	-46.702	-75.994	198.405	180.561	254.293	-36.986	59.309	2.965	132.738	93.746	116.545	-72.035	2.672	249.735	0.00016528	0.0041173	0.00073964	490.73	6.5351e-06	1.8367e-05	529.82	205.97	2.3573e-05	1.467e-05	248.45	84.641	77.623	30.163	6.4701e-06	32.874	0.0042774	0.003963	0.0010066	1068.8	4.77e-05	4.2701e-05	999.64	370.51	4.7558e-05	4.2297e-05	522.89	175.62	161.2	56.873	3.8826e-05	73.474	87.779	-51.978	253.316	-74.390	-2.129	1.597	-75.779	-70.125	20.350	89.069	-72.883	-68.342	-65.340	-60.817	64.324	-64.768	-8191	255	
1665.698	1	1	0	0	0.11124	0.22864	0.10065	0.094747	0.085117	0.15329	0.16238	0.24817	0.083489	0.060621	0.14339	0.079723	0.069589	0.088451	0.063666	0.083704	-2.6729	-2.6208	-3.3521	-2.6958	-2.8479	-3.1979	-2.6917	-3.1188	-3.0417	-2.3875	-3.3167	-2.8896	-2.7625	-3.2812	-2.5	-2.9646	186.875	140.325	93.808	182.461	244.167	237.999	178.449	191.675	184.500	19.257	175.421	119.056	255.211	-84.984	83.494	257.011	0.00052335	0.0031013	0.00014371	493.48	2.3313e-05	1.9343e-05	526.31	205.76	3.0559e-05	3.0277e-05	244.81	84.626	77.635	30.226	2.3833e-05	33.314	0.0041342	0.0037551	0.00096773	1104.7	4.5542e-05	4.0279e-05	985.62	381.53	4.5027e-05	4.0668e-05	517.69	182.24	156.83	56.07	3.9282e-05	76.719	-17.055	-61.147	16.833	-74.459	112.997	53.818	-76.172	-69.680	35.265	-14.263	-72.567	-68.742	-65.383	-60.559	237.099	-64.495	-8191	255	
1665.819	1	1	0	0	0.17998	0.037645	0.06896	0.28335	0.2594	0.17213	0.17197	0.32552	0.16991	0.13137	0.22553	0.19316	0.07315	0.11713	0.070291	0.15778	-2.6437	-2.5687	-3.1375	-2.7708	-2.6688	-3.3063	-2.6417	-2.8937	-3.0771	-2.4292	-3.0396	-2.7979	-2.5479	-3.1875	-2.6125	-2.8563	46.942	260.373	-21.075	-72.976	-39.397	113.275	210.405	-75.903	99.405	110.504	13.942	237.731	122.936	102.232	-8.844	-50.302	0.00037975	0.0018071	0.00037522	501.03	3.2235e-05	3.4853e-05	525.1	206.63	2.3254e-05	1.9568e-05	241.36	86.029	77.764	30.121	5.7512e-05	34.063	0.0039687	0.0036811	0.00099594	1145.9	4.351e-05	3.9375e-05	1007.3	391.44	4.2903e-05	3.9745e-05	535.16	186.75	152.78	55.404	4.1453e-05	77.783	-19.432	-47.912	134.617	-74.511	47.891	3.618	-75.765	-69.533	17.016	-17.761	-72.973	-68.390	-65.605	-60.854	195.656	-64.166	-8191	255	
1665.915	1	1	0	0	0.16953	0.090298	0.16582	0.12381	0.11588	0.27683	0.10876	0.1294	0.066063	0.06331	0.059089	0.082867	0.12336	0.20551	0.18734	0.12135	-2.7042	-2.475	-3.1125	-2.9104	-2.7125	-3.1292	-2.8646	-2.9604	-3.0396	-2.4813	-3.1125	-3.0687	-2.7542	-3.4521	-2.8167	-2.9229	270.914	-83.428	-33.148	34.997	25.070	129.114	-26.351	171.691	202.964	225.391	262.277	205.817	227.887	237.851	153.082	161.866	0.00021365	0.0014884	0.0012772	516.58	2.6006e-05	1.2813e-05	536.82	210.83	1.4055e-05	1.0569e-05	244.61	89.001	78.543	30.284	5.2319e-05	34.091	0.0037687	0.0035708	0.0010636	1155.2	4.114e-05	3.8254e-05	1049.7	387.3	4.0055e-05	3.7614e-05	550.76	181	146.69	53.721	4.2211e-05	73.751	262.850	-38.051	98.044	-75.072	53.071	131.001	-76.160	-69.503	-28.175	10.126	-72.210	-67.916	-65.290	-60.869	199.532	-64.154	-8191	255	
1666.011	1	1	0	0	0.10239	0.037663	0.18354	0.14983	0.094463	0.021043	0.12097	0.078103	0.17176	0.036102	0.02206	0.19795	0.073758	0.26687	0.13489	0.14922	-2.7708	-2.5125	-2.95	-3.0646	-2.5271	-3.3021	-3.0708	-3	-3.3	-2.4979	-3.05	-3.2083	-2.6396	-3.3667	-2.8854	-2.6625	36.860	44.278	217.481	221.836	195.832	-41.364	-16.961	106.837	114.561	59.655	164.841	203.186	-22.519	156.939	-10.400	139.361	0.00023152	0.0023789	0.00073865	522.91	1.7449e-05	1.4907e-05	542.69	209.7	6.1428e-06	2.4193e-05	250.37	87.872	77.962	30.071	1.2194e-05	33.973	0.0034052	0.0033076	0.0010679	1096.1	3.743e-05	3.5739e-05	1055	367.31	3.647e-05	3.6184e-05	552.22	170.25	141.28	52.944	4.2025e-05	69.199	36.257	100.381	97.065	-74.108	73.997	136.323	-76.230	-69.524	140.593	201.270	-71.876	-68.124	-65.251	-60.825	185.779	-64.769	-8191	255	
1666.107	1	1	0	0	0.093445	0.095626	0.04105	0.20797	0.21089	0.19392	0.34332	0.12312	0.095891	0.21266	0.21375	0.20176	0.15975	0.084113	0.31633	0.18922	-2.8104	-2.7083	-3.0521	-3.0583	-2.5375	-2.9542	-2.8604	-2.8958	-3.1479	-2.6396	-2.9938	-3.2896	-2.6146	-3.1083	-2.975	-2.5979	171.179	139.176	22.215	189.907	-35.367	-13.010	242.306	43.436	119.176	84.359	180.218	-85.803	208.831	18.129	-17.942	165.347	7.2547e-05	0.0030727	0.00052126	535.38	1.3176e-05	3.8093e-05	551.49	211.03	4.328e-06	4.0184e-05	250.76	88.452	78.286	30.151	2.5932e-05	34.283	0.0031262	0.0032642	0.0010511	1031	3.4167e-05	3.5143e-05	1035.1	347.09	3.2944e-05	3.5278e-05	529.76	158.59	133.4	52.364	3.8199e-05	64.041	119.901	143.940	96.711	-74.528	61.431	201.308	-75.718	-69.383	193.665	170.759	-71.839	-68.397	-65.083	-60.616	76.273	-63.954	-8191	255	
1666.203	1	1	0	0	0.13754	0.07776	0.21905	0.13803	0.10908	0.097634	0.18845	0.39509	0.098655	0.19709	0.21745	0.085626	0.28706	0.3604	0.11774	0.12987	-2.8063	-2.6937	-2.7396	-3.1896	-2.5771	-3.1583	-3.0125	-2.5208	-3.2687	-2.8875	-2.8312	-3.3979	-2.5833	-3.0229	-2.9042	-2.3583	-67.671	3.763	197.123	241.071	145.763	-15.004	233.616	135.927	134.393	131.052	72.497	147.870	133.721	176.207	258.780	270.856	7.4202e-05	0.0024076	0.00038343	539.01	6.4723e-06	2.7316e-05	567.73	210.89	1.0083e-05	2.842e-05	257.19	90.441	78.891	30.442	3.0272e-05	34.553	0.0027965	0.0031847	0.00094234	970.2	3.0512e-05	3.4603e-05	989.33	328.55	2.9698e-05	3.4494e-05	493.8	149.91	127.69	51.955	3.3106e-05	60.418	151.553	153.398	-2.970	-74.496	216.612	213.042	-75.406	-69.383	108.357	183.718	-71.917	-68.138	-65.055	-60.226	9.703	-64.231	-8191	255	
1666.298	1	1	0	0	0.24747	0.10516	0.22785	0.10128	0.14858	0.15042	0.18597	0.25523	0.18415	0.25808	0.021689	0.10569	0.23213	0.23964	0.039664	0.24083	-2.8271	-2.7562	-2.7938	-3.3292	-2.45	-2.875	-3.2188	-2.5583	-3.2083	-2.7979	-2.7313	-3.2062	-2.6375	-2.8479	-3.1458	-2.5583	31.591	20.903	114.282	139.082	46.299	-82.896	158.494	113.847	66.422	-57.888	267.004	-64.700	257.705	-52.877	124.708	226.741	0.00037625	0.0039789	0.00097362	552.05	1.2413e-05	2.6814e-05	588.53	214.03	3.0709e-05	9.8541e-06	258.91	90.833	79.036	31.013	1.966e-05	35.08	0.0025484	0.0030814	0.00082244	925.67	2.8397e-05	3.3405e-05	942.41	316.27	2.7826e-05	3.2956e-05	461.66	143.79	126.33	51.191	2.9019e-05	58.074	182.351	94.050	-63.088	-73.891	239.130	198.531	-75.743	-69.248	206.391	209.535	-72.296	-67.839	-64.511	-60.457	-1.265	-63.985	-8191	255	
1666.394	1	1	0	0	0.14826	0.12816	0.11404	0.27048	0.24408	0.16105	0.23095	0.063844	0.1764	0.25204	0.13251	0.094187	0.32495	0.23683	0.096107	0.30925	-2.5979	-2.8771	-2.3958	-3.2021	-2.6854	-2.8854	-3.1979	-2.2792	-3.0854	-3	-2.3417	-3.1521	-2.7792	-2.8083	-3.2021	-2.4396	112.018	132.281	131.018	156.068	-14.692	155.473	249.711	90.213	21.504	217.379	118.619	212.984	218.149	-57.197	123.065	-66.907	0.00045234	0.0014467	0.00032995	551.23	2.4389e-05	1.0342e-05	584.93	212.74	2.5618e-05	2.3564e-05	255.07	90.315	78.699	31.026	9.721e-06	34.37	0.0024944	0.0029396	0.00073099	891.61	2.8673e-05	3.2119e-05	902.61	307.79	2.9097e-05	3.2025e-05	445.59	140.96	129.56	50.558	2.8171e-05	57.291	143.490	-21.059	263.762	-74.046	263.527	63.145	-75.438	-69.164	218.070	3.349	-72.143	-68.249	-64.665	-60.605	-57.274	-63.908	-8191	255	
1666.492	1	1	0	0	0.07098	0.14891	0.33373	0.031422	0.042095	0.14618	0.10415	0.19054	0.068201	0.016762	0.01995	0.15173	0.11191	0.14311	0.14615	0.23191	-2.6437	-3.0167	-2.4083	-3.1729	-2.5875	-2.8563	-2.9854	-2.5917	-2.9667	-2.9708	-2.5375	-3.1042	-2.9688	-2.7708	-3.1583	-2.675	160.336	44.464	85.938	138.060	187.105	77.367	-85.285	112.404	-34.932	263.887	137.268	231.585	233.911	267.689	107.050	190.325	0.00065181	0.0032738	0.0003585	537.58	2.3122e-05	2.8762e-05	565.79	209.73	2.7198e-05	2.6699e-05	252.69	88.365	78.315	30.738	1.8768e-05	33.895	0.002741	0.0029219	0.00072602	886.98	3.1503e-05	3.1853e-05	887.31	309.56	3.2043e-05	3.1571e-05	442.44	142.17	134.39	49.846	2.7999e-05	58.256	153.851	-21.880	-79.442	-73.985	219.519	49.988	-75.265	-69.590	213.813	-23.194	-72.255	-68.049	-65.096	-60.623	16.006	-64.569	-8191	255	
1666.610	1	1	0	0	0.29379	0.040957	0.08515	0.14398	0.17112	0.13421	0.11344	0.079759	0.12081	0.24967	0.15546	0.09935	0.29043	0.17002	0.08157	0.15686	-2.4667	-2.9708	-2.5292	-3.1708	-3.0125	-2.7375	-3.2021	-2.5271	-2.8833	-3.0708	-2.4542	-3.3937	-2.9083	-2.7271	-3.2854	-2.5271	209.783	164.706	-50.986	222.447	22.828	13.784	111.137	268.185	43.275	-29.072	13.569	-13.493	203.881	-31.289	134.179	73.162	0.00048699	0.0024436	0.00036252	538.64	9.0976e-06	2.4843e-05	569.3	209.04	1.1409e-05	2.1906e-05	250.72	88.46	79.255	30.823	1.3846e-05	34.026	0.0029355	0.0028045	0.00071489	902.81	3.3118e-05	3.0582e-05	880.51	316.21	3.3375e-05	3.0154e-05	441.19	147.21	136.61	49.199	2.7684e-05	60.853	166.163	-12.379	137.859	-74.019	216.917	43.305	-75.018	-69.125	167.846	-25.126	-72.239	-67.949	-64.684	-61.066	-33.270	-64.172	-8191	255	
1666.707	1	1	0	0	0.055591	0.14475	0.15151	0.12585	0.28615	0.074282	0.15522	0.13692	0.073628	0.10533	0.13968	0.14076	0.24061	0.13874	0.21563	0.25015	-2.4	-3.1562	-2.3958	-2.9625	-2.9229	-2.5604	-3.1854	-2.7438	-2.7875	-3.0771	-2.5875	-3.0542	-2.9521	-2.5729	-3.2521	-2.8042	262.829	-64.265	51.330	-79.295	186.762	72.810	20.583	-70.615	182.988	46.454	-67.313	-43.515	158.287	215.984	124.582	-6.114	0.00011358	0.0012289	0.00023188	538.43	2.4032e-05	1.1609e-05	571.53	210.29	9.0547e-06	1.1913e-05	250.89	88.498	80.049	30.885	5.4627e-06	34.117	0.0029999	0.0026959	0.00070554	940.25	3.2713e-05	2.9354e-05	876.3	325.53	3.2703e-05	2.9236e-05	438.44	153.67	135.57	48.925	2.8063e-05	64.207	-15.941	-67.957	29.516	-74.393	86.139	-4.512	-75.640	-69.383	91.272	94.179	-72.538	-67.547	-64.873	-60.817	-76.935	-64.414	-8191	255	
1666.778	1	1	0	0	0.35433	0.42995	0.11208	0.12704	0.080069	0.1794	0.20295	0.19633	0.10298	0.22841	0.15903	0.14304	0.25329	0.18678	0.17475	0.07944	-2.3979	-3.2938	-2.6688	-2.9625	-3.0563	-2.5563	-3.05	-2.7375	-2.6458	-3.0125	-2.6104	-2.8792	-3.0146	-2.4875	-3.1396	-2.875	69.855	19.959	268.749	-85.102	72.667	19.387	74.221	-76.621	30.317	184.972	188.773	-2.902	112.074	-68.001	203.209	199.403	0.00041876	0.0016678	0.00014199	529.14	1.8541e-05	4.8459e-06	557.32	207.14	1.6832e-05	1.8951e-05	247.32	87.731	78.848	30.629	1.1459e-05	33.898	0.0029747	0.0027417	0.00074142	996.52	3.3692e-05	3.0597e-05	901.19	344.04	3.3628e-05	3.0427e-05	457.71	161.7	135.26	49.348	3.099e-05	67.052	-54.316	-51.672	48.623	-74.141	76.401	24.426	-75.572	-69.473	32.634	-27.779	-71.701	-68.113	-65.085	-60.042	232.772	-64.330	-8191	255	
1666.899	1	1	0	0	0.2627	0.14312	0.10346	0.13049	0.29596	0.091639	0.13809	0.16133	0.17072	0.21995	0.26763	0.1446	0.24457	0.24633	0.13203	0.27446	-2.3729	-3.1312	-2.8021	-2.8917	-3.0542	-2.5771	-3.1833	-3.1167	-2.6646	-3.1583	-2.7021	-2.85	-3.2104	-2.625	-3.0125	-3.1813	216.376	195.002	-66.121	168.457	64.726	43.838	-20.003	-80.531	220.136	153.911	-83.213	59.257	242.626	171.083	11.475	128.107	0.00029459	0.0030021	0.00087199	524.76	1.792e-05	1.1984e-05	536.78	207.93	1.6883e-05	1.3256e-05	239.7	87.125	77.626	30.227	4.9854e-05	33.964	0.0029839	0.0028033	0.00082371	1026.1	3.3463e-05	3.1689e-05	930.01	352.55	3.4224e-05	3.1651e-05	491.63	167.06	136.15	50.422	3.553e-05	68.261	-66.716	8.047	122.938	-74.570	26.154	47.567	-76.157	-69.562	15.815	12.893	-71.184	-68.231	-65.663	-60.311	193.330	-64.176	-8191	255	
1666.995	1	1	0	0	0.1743	0.16343	0.21669	0.12781	0.080967	0.12095	0.14266	0.28504	0.078485	0.24151	0.23025	0.091401	0.10631	0.18842	0.061406	0.090746	-2.1083	-3.2896	-2.7104	-2.7917	-3.225	-2.5167	-3.0875	-3.0021	-2.5146	-3.4167	-3.0146	-2.8208	-3.1417	-2.7396	-3.0146	-3.0729	68.264	187.364	262.199	175.333	261.131	103.864	195.424	203.675	26.547	45.219	266.600	193.917	-5.704	181.153	208.633	30.249	0.00017499	0.0012636	0.0010006	522.78	4.8918e-06	1.095e-05	533.38	208.58	9.3965e-06	1.6675e-05	241.41	87.34	78.251	30.44	2.1526e-05	33.936	0.0030315	0.0028909	0.00092301	1028.5	3.3272e-05	3.1999e-05	976.54	350.12	3.3717e-05	3.2365e-05	514.73	164.73	136.17	51.253	3.9087e-05	67.955	230.316	242.359	104.904	-74.229	77.520	-46.071	-76.100	-69.167	62.465	239.299	-72.103	-68.340	-65.295	-60.280	154.046	-64.210	-8191	255	
1667.091	1	1	0	0	0.17092	0.17353	0.17528	0.29171	0.091691	0.20308	0.13017	0.18642	0.14696	0.12047	0.2156	0.13198	0.20705	0.07558	0.14867	0.0063965	-2.0375	-3.3646	-2.8771	-2.7708	-3.2854	-2.5458	-3.1146	-3.1437	-2.5333	-3.1542	-2.8771	-2.6104	-3.3292	-2.7104	-2.7938	-3.2146	213.623	-69.276	-21.435	139.495	20.094	92.767	172.566	205.661	110.231	160.245	256.591	98.472	-47.978	216.201	-68.229	-15.553	0.00029002	0.0025347	0.00039119	521.06	1.4065e-05	1.3686e-05	539.74	207.96	5.9683e-06	1.4727e-05	244.8	87.628	78.198	30.192	1.764e-05	34.452	0.0030593	0.0030635	0.0010101	1018.4	3.3521e-05	3.414e-05	1013.6	345.38	3.3703e-05	3.4442e-05	532.1	161.83	134.77	52.967	4.0071e-05	66.05	247.557	144.858	50.544	-74.056	106.501	162.271	-76.058	-69.505	24.639	193.835	-72.445	-68.026	-65.254	-60.168	207.128	-64.122	-8191	255	
1667.212	1	1	0	0	0.19694	0.16554	0.0738	0.09702	0.099699	0.22759	0.29942	0.14668	0.17443	0.19204	0.14351	0.21774	0.17491	0.12126	0.26053	0.095496	-1.9542	-2.9	-2.8646	-2.7542	-3.2	-2.5708	-2.7458	-3.2188	-2.3812	-3.0729	-3.0583	-2.3958	-3.225	-2.7104	-2.8292	-3.1542	-33.732	1.693	105.981	17.984	-77.748	-71.456	200.902	155.628	22.711	-20.253	257.162	90.953	255.155	249.816	110.801	237.445	0.00019289	0.0062222	0.00060113	519.86	4.667e-06	3.8556e-05	545.41	206.23	2.1116e-05	4.2305e-05	249.76	86.16	77.826	30.292	9.3366e-06	34.211	0.0029814	0.0032539	0.0010122	991.28	3.2649e-05	3.658e-05	1012.3	337.68	3.2954e-05	3.6767e-05	521.28	157.47	132.35	54.144	3.7951e-05	63.605	-50.888	134.745	226.640	-74.192	268.229	192.554	-75.790	-69.357	-56.184	190.492	-72.370	-68.538	-65.083	-60.053	31.757	-64.325	-8191	255	
1667.306	1	1	0	0	0.10215	0.20489	0.11489	0.26702	0.14873	0.12129	0.14142	0.11814	0.048719	0.10927	0.43927	0.18984	0.22774	0.16548	0.17874	0.15883	-1.8417	-3.0271	-2.9792	-2.4042	-3.2146	-2.75	-2.6458	-3.1646	-2.5271	-2.9917	-3.075	-2.375	-3.2417	-2.8521	-2.4333	-3.2438	191.283	203.711	236.265	163.467	-37.118	13.590	23.156	245.114	-59.509	-3.447	-34.419	207.567	-68.326	228.125	62.245	124.689	7.6079e-05	0.0050143	0.0006942	520.53	4.8888e-06	4.2234e-05	539.89	207.44	1.6398e-05	9.4344e-06	248.95	86.467	77.21	30.397	1.91e-05	33.522	0.0028584	0.0033829	0.00094543	964.07	3.1795e-05	3.8089e-05	975.68	330.97	3.2636e-05	3.8619e-05	501.13	153.61	133.68	55.301	3.5803e-05	62.112	125.825	122.618	-69.517	-74.330	215.419	226.454	-75.345	-69.240	250.494	224.908	-72.714	-68.608	-65.045	-60.675	38.533	-64.427	-8191	255	
1667.402	1	1	0	0	0.21831	0.12113	0.16589	0.030637	0.26359	0.043464	0.17105	0.10919	0.1359	0.10758	0.13996	0.26853	0.082651	0.082937	0.28264	0.10182	-2.2125	-2.8292	-3.0708	-2.6604	-2.8792	-2.9313	-2.6667	-3.1646	-2.6646	-2.9917	-3.0354	-2.5104	-3.175	-3.0479	-2.5854	-3.475	245.062	114.174	40.710	87.267	-59.853	-19.563	118.570	121.110	-22.370	-74.509	230.410	192.634	67.938	125.974	196.860	190.608	0.00080415	0.0012797	0.0009106	522.46	2.3693e-05	1.1639e-05	544.22	208.09	9.6201e-06	1.7007e-05	247.84	85.981	76.791	30.698	7.5039e-06	33.97	0.0029488	0.0035094	0.00088821	946.53	3.2879e-05	3.8327e-05	944.18	324.2	3.352e-05	3.7991e-05	479.39	149.87	136.23	54.649	3.3533e-05	60.987	144.355	183.693	-78.584	-73.835	230.188	60.940	-75.544	-69.823	194.926	-51.504	-72.668	-67.939	-64.946	-60.523	97.012	-64.367	-8191	255	
1667.499	1	1	0	0	0.20875	0.099661	0.3225	0.19485	0.42579	0.1323	0.0095481	0.065412	0.14233	0.28047	0.14761	0.11281	0.24585	0.13811	0.09372	0.12282	-2.1562	-2.8729	-3.2562	-2.425	-2.9021	-2.9021	-2.4688	-3.3771	-2.7146	-2.6604	-3.2958	-2.6021	-3.0458	-3.0417	-2.5583	-3.2479	103.921	198.434	148.612	119.977	243.303	79.405	232.754	213.773	252.780	107.051	217.746	144.640	183.754	257.445	-38.514	255.220	0.00076198	0.0001636	0.00095344	524.57	3.3012e-05	2.4293e-05	558.34	207.51	2.899e-05	3.4395e-05	250.2	86.724	78.076	30.919	1.0301e-05	33.856	0.0031132	0.0034035	0.00083117	932.48	3.4511e-05	3.6174e-05	927.59	318.44	3.485e-05	3.5464e-05	462.98	147.94	138.76	52.649	3.1473e-05	60.356	176.025	57.848	-85.379	-74.280	223.089	50.545	-75.355	-69.261	198.645	2.305	-72.379	-68.077	-65.010	-60.580	26.743	-64.561	-8191	255	
1667.595	1	1	0	0	0.037148	0.070956	0.33446	0.11931	0.1951	0.11603	0.22928	0.075349	0.11507	0.15218	0.086837	0.23516	0.28322	0.18494	0.1002	0.037816	-2.2833	-2.8292	-3.0896	-2.6	-2.9688	-2.9583	-2.6625	-3.2229	-2.775	-2.6188	-3.2604	-2.4417	-2.6292	-3.0563	-2.5771	-3.0833	70.281	204.007	39.030	150.712	209.870	146.254	204.556	-45.784	139.729	268.982	260.102	159.381	-73.550	192.754	-43.644	68.631	0.00050776	0.0029474	0.00024551	533.51	1.545e-05	3.2377e-05	563.84	209.18	1.0322e-05	2.571e-05	253.87	87.458	78.099	30.933	2.7857e-05	34.035	0.0031971	0.0031599	0.00078132	937.33	3.5755e-05	3.382e-05	919.18	323.28	3.6143e-05	3.3588e-05	459.91	151.36	141.93	51.542	3.0636e-05	62.481	146.406	-32.828	40.912	-74.442	261.951	25.230	-75.319	-69.536	173.247	-4.208	-72.963	-67.686	-64.856	-60.560	39.578	-64.593	-8191	255	
1667.691	1	1	0	0	0.046517	0.16678	0.066282	0.20741	0.19607	0.20166	0.082738	0.091127	0.095565	0.23878	0.079643	0.13286	0.20503	0.28675	0.11481	0.25121	-2.5375	-2.7208	-3.1188	-2.6312	-2.7938	-3.1271	-2.6854	-3.2646	-3.0208	-2.6146	-3.3187	-2.7646	-2.7313	-3.1521	-2.4729	-3.1417	271.911	-9.704	56.502	-68.570	64.953	185.917	150.640	-20.099	-71.301	118.095	-82.492	245.272	-55.772	-81.667	151.922	199.233	0.00010394	0.0026301	0.0006569	519.3	1.1527e-05	2.1299e-05	550.88	206.63	2.1433e-05	2.1977e-05	247.79	86.188	78.218	30.357	1.2578e-06	33.204	0.0032826	0.0030109	0.00077072	964.04	3.6851e-05	3.2907e-05	905.92	334.71	3.7065e-05	3.3171e-05	457.01	157.92	142.32	50.838	3.1084e-05	65.222	47.574	-9.639	-64.787	-74.215	-39.179	25.484	-75.626	-69.537	81.418	21.857	-72.332	-68.059	-64.878	-60.452	-65.756	-64.276	-8191	255	
1667.787	1	1	0	0	0.073528	0.064436	0.036561	0.08806	0.080999	0.11111	0.16979	0.073581	0.14183	0.19547	0.28307	0.1142	0.2262	0.24906	0.24168	0.14046	-2.5938	-2.5312	-3.0521	-2.7583	-2.7812	-3.3875	-2.6979	-2.9979	-2.9313	-2.7042	-3.1458	-2.8604	-2.7792	-3.3396	-2.6188	-3.0062	233.619	259.174	-29.595	268.373	240.140	-69.952	66.625	-19.366	104.670	95.993	-69.724	79.744	-64.853	127.023	86.328	-20.413	0.00026665	0.00068132	0.00024635	512.21	1.1705e-05	2.0757e-05	537.43	205.73	2.706e-05	2.2263e-05	241.51	85.553	77.987	30.507	6.8006e-06	33.392	0.0032726	0.0029984	0.00077869	1005.5	3.6099e-05	3.2111e-05	902.22	344.75	3.5461e-05	3.2312e-05	456.21	162.47	138.37	49.853	3.1381e-05	66.991	-18.989	-55.270	63.733	-74.161	96.008	11.677	-75.530	-68.852	-11.254	6.873	-72.275	-68.307	-65.503	-60.640	122.322	-64.361	-8191	255	
1667.908	1	1	0	0	0.29744	0.049011	0.14927	0.26161	0.13753	0.16205	0.16995	0.18304	0.13861	0.090156	0.24607	0.12003	0.098616	0.20636	0.23911	0.15301	-2.6708	-2.3708	-3.1917	-3.0271	-2.6083	-3.2625	-2.8333	-2.8125	-3.1188	-2.7354	-3.05	-3.0792	-2.5333	-3.275	-2.7271	-2.8917	63.024	-50.548	234.030	208.406	87.171	88.013	87.925	-80.619	-16.150	-11.362	-54.533	170.731	204.618	-75.182	52.203	212.320	0.00037895	0.00017834	0.00021323	525.89	1.5538e-05	1.5022e-05	541.8	207.2	1.6774e-05	2.1225e-05	244.18	86.874	78.096	30.472	5.1917e-05	33.98	0.0030688	0.0028729	0.00079738	1022.4	3.3756e-05	3.09e-05	919.25	348.98	3.3293e-05	3.1137e-05	471.63	163.73	135.04	49.496	3.3428e-05	67.425	-46.625	102.123	52.386	-74.183	63.915	45.644	-75.784	-69.825	40.038	60.432	-72.021	-68.428	-64.818	-60.787	190.449	-64.469	-8191	255	
1668.004	1	1	0	0	0.092565	0.31561	0.1992	0.092886	0.059889	0.31609	0.12064	0.096209	0.45125	0.10576	0.051452	0.054269	0.1074	0.079103	0.21382	0.17285	-2.5938	-2.3396	-3.0896	-2.9771	-2.6292	-3.3125	-2.7271	-2.8354	-3.0792	-2.5187	-3.025	-3.0708	-2.6604	-3.1917	-2.6792	-2.8125	60.008	10.045	248.835	245.409	156.251	-10.330	234.332	217.715	26.078	214.180	242.983	-34.765	241.706	174.852	-60.599	6.996	0.00018849	0.0010681	0.00060011	528.16	1.2157e-05	4.5528e-06	548.09	210.74	1.0178e-05	1.896e-05	246.68	87.498	78.079	30.718	2.4075e-05	34.471	0.0029426	0.0028174	0.00085877	1018.8	3.2489e-05	3.0408e-05	957.87	347.51	3.2221e-05	3.097e-05	495.71	162.02	133.88	49.626	3.6522e-05	66.804	271.346	8.239	88.950	-74.400	4.413	183.543	-75.529	-69.180	36.629	6.782	-72.088	-68.270	-65.157	-60.554	175.443	-63.736	-8191	255	
1668.075	1	1	0	0	0.17758	0.07238	0.12116	0.21846	0.39116	0.20953	0.061691	0.094503	0.17845	0.03993	0.17823	0.04376	0.15422	0.15941	0.15921	0.25277	-2.7458	-2.4417	-3.0396	-3.0125	-2.3771	-3.0833	-2.7396	-2.6354	-3.1854	-2.6188	-2.8729	-3.3063	-2.5375	-3.1	-2.9271	-2.6958	-60.538	193.684	229.133	-40.786	188.377	148.218	106.938	241.721	124.051	2.087	-68.883	138.185	110.402	191.323	40.726	260.084	0.00010557	0.0017397	0.00018312	527.45	1.0928e-05	2.1701e-05	540.65	210	3.0747e-05	1.1946e-05	243.02	87.058	77.549	30.095	3.5274e-06	33.648	0.0029107	0.0029157	0.00095115	1009.8	3.3028e-05	3.2036e-05	998.52	345.82	3.2634e-05	3.3112e-05	518.99	159.74	134.5	51.429	3.9266e-05	65.854	175.709	75.438	33.878	-74.040	65.023	233.305	-76.302	-69.429	13.352	141.016	-72.530	-68.253	-65.221	-60.376	-60.418	-64.700	-8191	255	
1668.172	1	1	0	0	0.14094	0.13586	0.11002	0.094275	0.15729	0.018353	0.13759	0.068691	0.22218	0.11624	0.25979	0.148	0.057366	0.11589	0.055196	0.22931	-2.8812	-2.7271	-2.8083	-3.1271	-2.4354	-3.0958	-3.0396	-2.4542	-3.3646	-2.7562	-2.9667	-3.25	-2.525	-3.0667	-2.8125	-2.5229	188.257	66.248	267.642	-57.185	163.199	107.743	11.123	45.426	43.300	206.790	-6.144	16.227	-82.362	-28.613	177.109	265.158	0.00040513	0.0033872	0.00028018	520.62	1.07e-05	2.8595e-05	536.74	207.21	8.6872e-06	4.5484e-05	243.47	85.834	77.454	29.83	3.6748e-05	33.666	0.0029459	0.0031502	0.0010087	990.37	3.3098e-05	3.5151e-05	1007.8	340.01	3.2775e-05	3.6204e-05	525.07	157.14	133.71	53.607	3.9194e-05	64.583	-68.949	117.035	-56.386	-74.191	176.857	210.605	-75.773	-69.099	137.006	160.075	-72.170	-68.167	-65.273	-60.254	12.174	-64.045	-8191	255	
1668.290	1	1	0	0	0.13131	0.12635	0.24528	0.059113	0.13738	0.12181	0.083139	0.046918	0.20355	0.23284	0.085964	0.13835	0.13557	0.066379	0.10724	0.19033	-2.8146	-2.7979	-2.7833	-3.0979	-2.5958	-3.1063	-2.9688	-2.5875	-3.3542	-2.7979	-2.6146	-3.1833	-2.675	-2.8917	-2.9	-2.6458	-69.638	247.450	100.366	245.868	46.119	140.111	-17.072	-78.159	220.920	189.084	190.632	206.117	-83.507	213.476	-33.791	265.839	0.00018663	0.0044036	0.00076568	519.95	2.6703e-06	2.2995e-05	537.57	207.47	2.0852e-05	3.5613e-05	245.87	86.187	76.752	30.078	4.2756e-05	33.5	0.0029091	0.0034214	0.00098894	976.77	3.2907e-05	3.8309e-05	994.95	337.69	3.2934e-05	3.924e-05	516.03	155.45	135.08	55.751	3.7574e-05	64.018	189.419	141.649	-55.007	-73.972	177.071	220.602	-75.346	-69.696	-81.670	207.131	-72.080	-68.024	-65.251	-60.616	26.019	-63.841	-8191	255	
1668.387	1	1	0	0	0.091077	0.21576	0.061097	0.1225	0.12609	0.2384	0.16659	0.14304	0.15755	0.049438	0.033514	0.28159	0.30399	0.12634	0.23448	0.12073	-2.7375	-2.5979	-2.5833	-3.2583	-2.5792	-2.875	-3.1542	-2.4833	-3.0333	-2.825	-2.5687	-3.1521	-2.6083	-2.9021	-3.3	-2.3396	10.295	93.695	43.020	3.219	220.451	95.713	89.716	1.357	-65.941	-45.799	202.826	192.015	210.677	218.928	103.395	238.885	0.00073642	0.0025685	0.00085393	525.13	2.9082e-05	2.3889e-05	540.86	209.43	3.3777e-05	1.1777e-05	249.7	86.442	77.432	30.551	2.3758e-05	33.715	0.0029635	0.0036139	0.00094374	961.21	3.3969e-05	3.9923e-05	966.33	334.01	3.4235e-05	4.0397e-05	502.96	153.96	139.74	57.014	3.6182e-05	63.917	148.210	95.852	-77.269	-74.137	236.077	174.304	-75.387	-69.178	221.389	-39.338	-72.577	-68.516	-64.928	-60.734	-3.636	-64.594	-8191	255	
1668.483	1	1	0	0	0.02224	0.17174	0.0046222	0.13039	0.21934	0.18867	0.39144	0.15542	0.24725	0.30303	0.21851	0.18533	0.20666	0.13465	0.096199	0.15334	-2.5521	-2.6896	-2.5563	-3.2125	-2.5833	-2.7625	-3.2708	-2.6875	-3.0292	-2.75	-2.6333	-3.3271	-2.7521	-2.775	-3.1354	-2.5083	83.633	203.622	79.464	146.537	-41.031	202.359	178.302	190.730	8.972	221.494	-47.867	239.903	242.827	120.604	-81.453	96.363	0.001216	0.0015427	0.00091994	514.56	1.4216e-05	2.3153e-05	533.58	204.64	3.6775e-05	1.173e-05	242.98	84.95	76.942	30.696	2.1082e-05	33.695	0.0032573	0.0037437	0.00092513	968.02	3.7827e-05	4.1449e-05	961.95	336.32	3.8706e-05	4.135e-05	500.2	155.48	147.09	56.824	3.6165e-05	64.395	182.701	-39.972	-54.995	-74.202	247.795	63.955	-75.998	-69.459	207.098	-0.865	-72.111	-68.303	-65.149	-60.674	39.537	-64.448	-8191	255	
1668.579	1	1	0	0	0.11712	0.088399	0.12	0.070313	0.24961	0.16817	0.30593	0.19411	0.18138	0.23269	0.11426	0.11783	0.11456	0.074185	0.28943	0.10593	-2.6958	-2.875	-2.4125	-3.0417	-2.7208	-2.6688	-3.1958	-2.5333	-2.9625	-2.8479	-2.6042	-3.0479	-2.7521	-2.7313	-3.1896	-2.55	-47.142	103.038	234.605	-84.820	193.879	219.760	136.513	186.143	-78.852	31.458	174.444	137.150	-37.341	71.336	158.931	74.111	0.00058006	0.004956	0.00091033	504.28	1.2824e-05	2.8433e-05	524.44	204.03	3.5597e-05	4.586e-05	242.4	83.801	77.243	30.463	2.938e-05	32.808	0.0035904	0.003679	0.00091438	964.01	4.0642e-05	3.9686e-05	943.58	336.59	4.0892e-05	3.883e-05	489.39	155.48	149.32	54.604	3.4141e-05	64.409	175.143	-30.985	-50.547	-74.408	230.279	17.947	-75.619	-69.502	224.598	11.965	-72.322	-67.806	-64.886	-60.931	-22.927	-64.716	-8191	255	
1668.700	1	1	0	0	0.12418	0.2025	0.068543	0.076308	0.28466	0.085607	0.21642	0.12214	0.042748	0.056642	0.23121	0.1028	0.22384	0.20998	0.13278	0.21998	-2.2792	-3.0708	-2.5479	-3.0771	-2.7146	-2.8229	-3.3	-2.5292	-2.9521	-3	-2.4146	-3.0563	-2.8792	-2.6813	-3.2125	-2.7042	172.418	24.871	8.772	-37.726	193.093	42.222	250.529	12.189	77.000	213.999	244.040	-74.246	175.106	182.622	59.476	85.520	7.896e-05	0.0028939	0.00060851	507.25	8.5398e-06	3.232e-05	536.8	204.64	1.0717e-05	4.7201e-06	243.17	84.906	78.124	30.518	5.1699e-06	33.055	0.0036037	0.0033168	0.00085147	968.44	3.9114e-05	3.5252e-05	908.01	335.89	3.8275e-05	3.3904e-05	462.36	155.13	143.29	51.458	3.0622e-05	64.335	117.955	-3.442	-63.482	-74.059	-13.099	67.198	-75.463	-69.357	155.809	-77.735	-72.690	-67.877	-65.637	-60.280	-41.339	-64.732	-8191	255	
1668.771	1	1	0	0	0.20668	0.15662	0.068648	0.25026	0.021295	0.24232	0.099204	0.096435	0.11384	0.12474	0.050615	0.054381	0.1736	0.048165	0.15558	0.23959	-2.2417	-3.2292	-2.4437	-3.1146	-3.0354	-2.525	-3.2583	-2.6771	-2.7021	-3.3354	-2.6021	-2.9271	-2.9792	-2.5625	-3.1167	-2.7542	271.389	42.746	193.414	268.489	77.813	208.152	175.404	89.366	262.840	87.934	254.139	123.298	228.756	-12.099	208.261	253.655	0.00036565	0.0012569	0.00015692	521.03	1.9775e-05	1.5819e-05	547.28	208.82	2.7001e-05	2.7281e-05	251.18	86.58	78.903	30.67	7.7904e-06	33.542	0.003301	0.0029603	0.00077418	986.94	3.6005e-05	3.2099e-05	896.92	341.51	3.5674e-05	3.1806e-05	456.41	160.4	139.51	50.523	3.0452e-05	66.703	-1.442	-82.131	41.069	-73.899	67.201	36.863	-75.941	-69.559	22.754	29.462	-72.462	-68.016	-65.578	-60.369	176.549	-64.574	-8191	255	
1668.892	1	1	0	0	0.20926	0.1126	0.003816	0.12143	0.15224	0.22461	0.10574	0.22387	0.16506	0.13859	0.17669	0.10727	0.18482	0.051321	0.062546	0.19436	-2.2417	-3.0917	-2.4979	-2.9271	-2.9688	-2.6063	-3.25	-2.9813	-2.4646	-3.0375	-2.8104	-3.0333	-3.1625	-2.4167	-3.0042	-3.0375	-85.048	90.099	200.378	215.120	80.468	16.877	114.173	-8.160	226.401	246.641	256.982	-46.907	246.022	62.230	239.169	213.441	0.00032881	0.0039693	0.00075435	524.86	2.5037e-05	1.8906e-05	554.97	210.65	3.8304e-05	1.2022e-05	247.72	87.225	79.207	30.871	3.9947e-05	33.914	0.003131	0.0028791	0.00079032	1024.3	3.4722e-05	3.1882e-05	923.22	353.58	3.4699e-05	3.179e-05	474.17	165.98	137.42	50.417	3.2869e-05	68.336	-49.769	-64.280	107.663	-74.350	47.160	-8.485	-75.544	-69.218	27.870	-24.117	-72.346	-68.357	-64.861	-60.642	198.335	-64.188	-8191	255	
1668.988	1	1	0	0	0.34552	0.066181	0.26047	0.19124	0.22497	0.28191	0.15701	0.071625	0.31335	0.22514	0.21746	0.19368	0.13724	0.20522	0.31946	0.086125	-2.1312	-3.1854	-2.5812	-3.0542	-3.1396	-2.4479	-3.1271	-3.0521	-2.5312	-3.0458	-2.6042	-2.8563	-3.0042	-2.6063	-3.0542	-3.0563	262.817	74.645	27.341	2.648	-11.623	105.661	95.089	97.069	183.156	194.979	209.490	133.696	211.297	231.093	40.239	111.823	0.00043423	0.002124	0.00041188	528.44	1.1549e-05	7.0527e-07	543.93	210.49	2.3084e-05	1.7891e-05	245.33	86.219	77.521	30.276	2.682e-05	33.474	0.0030339	0.0028503	0.00085183	1030.5	3.315e-05	3.1321e-05	943.03	350.93	3.3167e-05	3.0735e-05	490.33	162.34	133.42	49.547	3.5169e-05	66.306	-45.212	-34.526	54.813	-74.311	51.268	264.861	-75.930	-69.058	31.193	23.288	-72.373	-68.396	-65.366	-60.293	173.990	-63.977	-8191	255	
1669.084	1	1	0	0	0.17563	0.10704	0.066986	0.18705	0.24865	0.33935	0.095171	0.14614	0.19323	0.17755	0.33596	0.087747	0.23194	0.10236	0.13547	0.2942	-2.2542	-3	-2.6521	-2.8792	-3.0896	-2.4729	-3.0062	-3.1063	-2.5563	-3.0958	-2.8792	-2.6937	-3.1479	-2.3229	-2.9708	-3.0938	46.512	129.864	-77.876	259.007	139.665	271.275	229.314	154.890	-28.331	171.571	-67.879	267.924	2.464	214.083	-65.371	174.435	0.00012534	0.0017563	0.00071814	524.1	1.9601e-05	5.3798e-07	544.16	209.8	6.6573e-06	1.6135e-05	245.52	86.534	77.39	30.262	2.7013e-06	33.816	0.0029128	0.0027892	0.00090714	999.67	3.1441e-05	3.0567e-05	966.46	338.87	3.1278e-05	3.0111e-05	497.03	155.76	129.63	49.229	3.6044e-05	63.605	161.549	228.529	90.256	-74.477	83.616	134.754	-75.796	-69.220	43.579	222.251	-72.472	-67.971	-65.090	-60.782	149.363	-64.638	-8191	255	
1669.180	1	1	0	0	0.28597	0.23749	0.20724	0.17455	0.045346	0.26791	0.16217	0.37249	0.10608	0.069628	0.063628	0.26993	0.12856	0.099262	0.16649	0.10149	-1.9937	-2.8104	-2.9417	-2.7917	-3.4354	-2.5396	-2.7833	-3.1896	-2.3271	-3.2188	-2.9479	-2.675	-3.1958	-2.6042	-2.7438	-3.0542	-54.122	201.697	150.882	113.794	83.356	239.809	154.762	259.586	147.813	234.247	-9.622	237.047	-83.416	73.593	201.552	-45.980	0.00026706	0.002832	0.00024526	528.22	9.3013e-06	2.2146e-05	548.45	209.5	1.2826e-05	3.8429e-05	248.52	86.554	77.448	30.077	1.2163e-05	33.907	0.0027808	0.0028427	0.0009367	974.58	3.1023e-05	3.2417e-05	993.72	336.21	3.1728e-05	3.3494e-05	517.74	156.4	131.42	52.158	3.8313e-05	63.993	262.524	136.459	98.021	-74.381	57.009	218.602	-75.610	-69.206	85.127	196.671	-72.383	-68.388	-65.657	-59.966	54.381	-64.118	-8191	255	
1669.299	1	1	0	0	0.11632	0.12883	0.20788	0.094141	0.14145	0.26733	0.12209	0.17996	0.44191	0.064814	0.20139	0.054582	0.19006	0.21628	0.074393	0.13689	-1.9458	-3.1562	-2.8458	-2.6437	-3.2146	-2.5	-2.6396	-3.25	-2.4417	-3.0104	-3.0687	-2.5542	-3.0167	-2.8063	-2.8	-3.2167	47.831	-82.735	225.450	-12.730	257.623	31.711	190.305	228.774	178.506	33.267	230.446	269.082	183.427	80.145	212.330	182.747	0.00011053	0.0051798	0.00057143	525.31	1.7244e-06	4.7586e-05	551.82	210.01	1.6928e-05	2.5348e-05	251.36	86.552	77.478	30.548	2.4579e-05	33.855	0.0028554	0.0032204	0.00097166	974.82	3.153e-05	3.6171e-05	999.47	333.99	3.1786e-05	3.6672e-05	513.17	154.92	131.64	54.459	3.7455e-05	63.395	152.397	134.733	-84.343	-73.953	-82.587	198.374	-75.690	-69.725	-62.974	190.081	-72.518	-68.069	-65.019	-60.339	30.605	-64.512	-8191	255	
1669.371	1	1	0	0	0.31745	0.11504	0.061396	0.12231	0.18602	0.14706	0.33473	0.13877	0.1046	0.22632	0.2169	0.20176	0.0076657	0.38572	0.30727	0.20961	-1.9979	-2.9833	-3.0354	-2.5792	-3.125	-2.7667	-2.6813	-3.1354	-2.5229	-3.0812	-3.0292	-2.5812	-3.2	-2.875	-2.6333	-3.3396	9.025	199.304	-72.120	5.742	6.197	85.691	212.855	256.806	141.488	267.984	269.326	108.713	1.224	-38.049	82.853	3.444	0.00033885	0.002802	0.0010887	516.36	1.2857e-05	1.2439e-05	542.48	206.54	1.5529e-05	6.0157e-06	249.38	85.93	76.362	29.725	3.1221e-05	33.261	0.0029196	0.0034983	0.00094347	964.35	3.2641e-05	3.9174e-05	977.15	331.85	3.3699e-05	3.9604e-05	500.48	154.07	134.79	55.638	3.5859e-05	61.945	101.170	106.889	-76.608	-74.111	232.675	268.559	-75.090	-69.651	253.504	196.326	-72.708	-68.592	-65.159	-60.703	31.941	-64.386	-8191	255	
1669.467	1	1	0	0	0.2117	0.0651	0.15554	0.13913	0.3302	0.068407	0.17865	0.056479	0.032384	0.19328	0.037272	0.2579	0.42964	0.15988	0.075756	0.12385	-2.1312	-2.7521	-3.0708	-2.3958	-3.0896	-2.7208	-2.8542	-3.3875	-2.625	-2.9104	-3.1479	-2.3312	-3.1646	-3.0604	-2.6229	-3.2188	9.196	43.485	-17.058	222.371	39.472	58.741	164.188	140.970	2.895	51.047	36.313	-26.451	-70.209	126.375	189.101	175.542	0.00098197	0.00059051	0.00079575	512.28	4.0997e-05	2.8217e-05	536.15	206.03	3.0244e-05	2.325e-05	245.4	85.57	76.188	30.207	3.4742e-05	33.03	0.0030625	0.0035683	0.00088371	937.95	3.3898e-05	3.841e-05	932.91	322.17	3.4323e-05	3.7584e-05	473	147.13	136.37	53.678	3.2471e-05	59.917	182.332	-51.934	-51.497	-74.204	235.971	25.278	-75.547	-69.708	184.931	-11.382	-72.311	-68.416	-64.537	-60.604	4.265	-64.640	-8191	255	
1669.588	1	1	0	0	0.061315	0.13355	0.036721	0.14187	0.2458	0.097089	0.23668	0.25405	0.23236	0.23047	0.22125	0.14201	0.046513	0.1261	0.10088	0.12141	-2.275	-2.7167	-3.0146	-2.6292	-2.9604	-2.8625	-2.5167	-3.2062	-2.7667	-2.6354	-3.2188	-2.4333	-2.9271	-2.9938	-2.35	-3.1833	151.322	96.103	-46.859	237.901	240.267	-71.329	-34.266	194.165	138.881	-38.364	23.207	-77.857	-77.790	-3.632	-19.233	105.772	0.00036831	0.0026525	0.00015768	518.68	2.2452e-05	3.6711e-05	541.61	207.11	3.1226e-05	3.5795e-05	245.88	85.117	77.26	30.305	1.5421e-05	32.989	0.0031178	0.0033102	0.00081865	920.26	3.5261e-05	3.5846e-05	914.9	320.06	3.5961e-05	3.5386e-05	462.52	147.67	140.19	52.078	3.1405e-05	60.128	131.802	-4.973	161.325	-74.552	254.015	29.023	-75.737	-69.824	211.443	39.169	-71.992	-68.250	-64.578	-60.610	74.308	-64.379	-8191	255	
1669.684	1	1	0	0	0.14646	0.12947	0.23313	0.11203	0.43591	0.13479	0.10876	0.3073	0.12356	0.14998	0.19584	0.16657	0.2466	0.17881	0.33456	0.11176	-2.3396	-2.5896	-3.2042	-2.6792	-2.9792	-2.975	-2.5021	-3.2604	-2.7167	-2.6396	-3.225	-2.7542	-3.0938	-3.1583	-2.3312	-3.0271	263.181	158.305	114.515	-51.736	140.959	215.195	143.301	-18.044	162.841	113.834	-37.708	228.019	157.790	61.216	246.902	-56.309	0.00016405	0.0030045	0.00020758	517.05	4.3047e-06	3.6481e-05	551.41	207.74	1.279e-05	2.2198e-05	249.22	85.743	78.242	30.68	1.9862e-05	33.538	0.0032581	0.0031196	0.00077783	932.93	3.6195e-05	3.3262e-05	906.37	324.25	3.6268e-05	3.295e-05	453.26	151.27	140.75	50.624	3.0188e-05	62.392	171.914	-41.506	5.858	-74.107	247.301	20.616	-75.545	-69.457	218.671	-35.661	-72.159	-68.045	-65.246	-60.430	8.562	-64.753	-8191	255	
1669.780	1	1	0	0	0.19584	0.10468	0.38914	0.24738	0.14791	0.06947	0.061493	0.12273	0.092569	0.063375	0.15179	0.1074	0.14231	0.25756	0.10934	0.38855	-2.4833	-2.6042	-3.0979	-2.675	-2.7896	-3.1104	-2.5583	-3.0021	-2.9604	-2.6792	-3.3354	-2.7042	-2.875	-3.1771	-2.5833	-3.075	211.844	122.243	43.564	-81.116	253.380	179.140	229.965	195.692	237.038	-40.893	234.228	254.788	194.750	228.162	-16.276	152.409	0.00027205	0.0033336	0.00043782	517.31	1.6861e-05	1.7437e-05	551.13	207.63	2.7706e-05	1.8223e-05	245.31	85.756	78.07	30.205	1.4147e-05	32.707	0.00325	0.002951	0.00076368	966.31	3.6064e-05	3.2126e-05	898.1	336.03	3.5794e-05	3.1926e-05	450.99	157	138.65	49.741	3.0081e-05	64.536	-55.270	-43.954	-67.603	-74.083	81.996	34.730	-75.786	-69.157	4.540	32.411	-72.483	-67.801	-65.116	-60.765	254.337	-64.409	-8191	255	
1669.876	1	1	0	0	0.22538	0.17719	0.081039	0.18806	0.030044	0.13029	0.077948	0.067976	0.14133	0.21945	0.16093	0.15964	0.11128	0.034995	0.044174	0.041695	-2.4792	-2.5333	-3.2	-2.6958	-2.5687	-3.0354	-2.4813	-2.9417	-3.0021	-2.4271	-3.0958	-2.8187	-2.8833	-3.1583	-2.6458	-2.8417	217.191	248.603	85.523	129.688	-32.467	14.920	257.385	61.065	72.424	230.609	236.193	-36.550	186.893	112.021	127.465	71.069	0.0004587	0.0016628	0.00012977	507.5	2.5472e-05	2.2474e-05	537.08	206.02	1.7795e-05	1.0957e-05	240.24	85.804	76.899	29.821	2.7007e-05	32.836	0.0031282	0.0028569	0.00075709	987.3	3.4029e-05	3.0737e-05	886.32	340.72	3.3522e-05	3.0791e-05	448.61	158.89	133.8	48.391	3.0819e-05	65.555	-52.507	-33.439	11.606	-74.162	89.183	-18.769	-75.347	-69.680	31.283	33.076	-72.225	-67.968	-64.921	-61.173	186.464	-64.445	-8191	255	
1669.972	1	1	0	0	0.087396	0.09348	0.026884	0.38544	0.26384	0.052489	0.074377	0.34357	0.048028	0.12569	0.24177	0.16584	0.12687	0.17695	0.11779	0.17571	-2.5729	-2.3958	-3.25	-2.8625	-2.6021	-3.125	-2.8292	-2.8688	-2.9979	-2.3042	-3.075	-2.9188	-2.6562	-3.2188	-2.4917	-2.7354	73.996	-25.454	-83.485	-75.883	-27.706	68.042	214.144	206.854	249.704	194.281	62.900	85.620	208.691	196.516	148.905	47.210	0.00049551	0.00079467	0.00079171	514.27	3.5031e-05	1.2746e-05	533.26	206.98	7.2479e-06	8.1546e-06	240.26	85.436	76.255	29.893	3.5425e-05	33.195	0.0029347	0.0028041	0.00079965	1009.8	3.3241e-05	3.0834e-05	927.7	350.76	3.3547e-05	3.1993e-05	484	164.99	135.4	49.777	3.6088e-05	68.59	5.962	10.275	108.741	-74.315	67.097	-29.232	-75.774	-69.680	1.962	-70.232	-72.057	-68.206	-65.352	-60.531	201.205	-64.511	-8191	255	
1670.068	1	1	0	0	0.2217	0.073223	0.10788	0.11164	0.2253	0.15457	0.20289	0.18679	0.126	0.12834	0.03785	0.20339	0.247	0.22734	0.1443	0.14691	-2.825	-2.6271	-2.9708	-3.1021	-2.5458	-3.0687	-2.6646	-2.8146	-3.1	-2.5958	-3.1688	-2.9938	-2.6104	-3.1729	-2.8458	-2.7438	21.394	12.460	14.527	140.388	15.685	-39.465	200.603	257.272	-9.522	26.099	219.703	-56.429	1.050	245.358	172.058	179.957	0.00021185	0.0011263	0.0011605	512.17	1.3679e-05	7.6634e-06	529.06	207.13	1.7035e-05	4.0558e-06	242.75	85.845	76.576	29.645	2.7865e-05	33.763	0.0030845	0.0029835	0.00093673	1030.5	3.4224e-05	3.2242e-05	980.07	351.46	3.3631e-05	3.2197e-05	510.49	161.95	133.32	49.609	3.7679e-05	66.029	-1.496	-81.371	75.453	-74.971	108.413	89.751	-75.848	-69.510	29.061	103.389	-71.983	-67.999	-65.405	-60.330	164.570	-63.947	-8191	255	
1670.165	1	1	0	0	0.14724	0.30234	0.030016	0.13725	0.082452	0.14726	0.27118	0.18393	0.038461	0.10426	0.18903	0.14878	0.25665	0.087776	0.20867	0.10626	-2.575	-2.4417	-3.0625	-2.9833	-2.4062	-3.2229	-2.8104	-2.7958	-3.2188	-2.7417	-2.9271	-3.1375	-2.4729	-3.0958	-2.9708	-2.4667	209.479	83.282	256.706	-29.422	31.253	42.040	136.403	167.490	206.491	156.529	-19.855	158.752	196.185	153.832	40.701	191.448	0.00018331	0.0021998	0.00053373	517.91	1.3143e-05	2.096e-05	541.01	208.59	1.2727e-05	4.4229e-05	246.46	86.74	76.804	29.701	9.8305e-06	33.47	0.0029196	0.0029367	0.00096084	989.41	3.2373e-05	3.222e-05	994.96	339.74	3.154e-05	3.268e-05	512.4	154.86	130.35	50.23	3.7322e-05	63.067	26.325	146.900	82.515	-74.644	64.989	188.432	-75.771	-69.204	4.199	196.387	-72.144	-67.949	-64.954	-60.174	-11.028	-64.589	-8191	255	
1670.261	1	1	0	0	0.16117	0.069604	0.10572	0.12397	0.18511	0.2191	0.15731	0.19211	0.31768	0.062064	0.011062	0.43526	0.044504	0.20179	0.19506	0.2158	-2.6625	-2.6667	-2.7917	-3.0792	-2.5	-3	-3.1604	-2.6646	-3.1625	-2.7854	-2.75	-3.2146	-2.5687	-2.9625	-2.9375	-2.6063	240.466	157.690	-6.060	-3.638	15.969	-55.580	215.026	-64.204	-84.817	154.908	140.464	197.044	250.754	265.189	135.133	209.168	0.00020817	0.0027524	0.00041236	516.72	6.997e-06	2.8634e-05	543.03	208.84	1.6352e-06	3.2557e-05	249.09	85.145	76.6	29.516	3.0767e-05	32.907	0.0027534	0.0030463	0.000944	946.83	3.0562e-05	3.3437e-05	968.37	328.01	2.9747e-05	3.3766e-05	494.75	148.37	126.51	51.008	3.4636e-05	59.976	261.330	123.407	-72.625	-74.521	172.300	188.461	-75.522	-69.747	130.752	179.276	-71.862	-68.253	-65.107	-60.371	13.293	-64.172	-8191	255	
1670.380	1	1	0	0	0.072195	0.33565	0.14984	0.013811	0.15002	0.27468	0.30677	0.09299	0.14661	0.27008	0.2461	0.033769	0.075009	0.3859	0.16313	0.17591	-2.7125	-2.5979	-2.6063	-3.1083	-2.3583	-3.1625	-3.1625	-2.5333	-3.2333	-2.7583	-2.7375	-3.2979	-2.7396	-2.9437	-2.8	-2.4875	58.745	160.803	83.994	223.516	119.620	164.842	252.579	245.957	-2.709	-64.336	53.946	109.559	-68.310	-42.845	88.264	165.907	0.00018422	0.0050232	0.0008154	520.59	1.8497e-05	2.6195e-05	555.02	209.43	1.378e-05	1.213e-05	251.63	84.964	75.926	29.665	1.9484e-05	33.322	0.002591	0.0030886	0.00085624	913.07	2.8602e-05	3.3695e-05	932.85	318	2.8636e-05	3.416e-05	473.05	143.86	125.75	51.554	3.2125e-05	58.784	137.549	128.597	-61.521	-73.962	-63.469	186.180	-75.551	-69.273	173.181	128.205	-72.357	-68.261	-64.691	-60.333	8.275	-64.118	-8191	255	
1670.476	1	1	0	0	0.11726	0.235	0.17509	0.17709	0.17669	0.084314	0.082484	0.27275	0.16094	0.058045	0.19859	0.17601	0.20768	0.13443	0.042216	0.14313	-2.7438	-2.7958	-2.7062	-3.0625	-2.5042	-2.6896	-3.1146	-2.5375	-3.0687	-2.9667	-2.6583	-3.2625	-2.5729	-2.8771	-3.1292	-2.6292	207.386	264.953	104.543	223.174	115.024	258.406	-76.281	200.722	25.545	212.982	-58.045	175.434	-48.055	95.422	268.395	223.647	0.00052191	0.00092602	0.00061826	521.49	2.0587e-05	1.0857e-05	551.2	210.81	2.0755e-05	4.888e-06	252.46	86.282	75.542	30.119	2.5482e-05	33.436	0.0026408	0.0031984	0.00081272	900.24	3.0316e-05	3.5254e-05	916.08	318.36	3.0751e-05	3.5462e-05	468.31	144.24	131.58	52.495	3.1428e-05	59.31	157.033	135.912	-45.689	-74.044	246.690	86.361	-75.862	-69.608	211.164	120.964	-72.305	-67.872	-65.055	-60.633	5.715	-64.357	-8191	255	
1670.572	1	1	0	0	0.1692	0.060668	0.15738	0.2752	0.17542	0.12882	0.088566	0.17199	0.11087	0.040711	0.17452	0.12531	0.21254	0.16908	0.23902	0.2117	-2.4208	-2.9729	-2.4854	-3.3	-2.7396	-2.7188	-3.1688	-2.6042	-3.1833	-3.1792	-2.7979	-3.3354	-2.7729	-2.7375	-3.1979	-2.4625	-86.334	33.524	98.969	63.175	39.921	211.299	92.396	3.837	115.158	203.480	137.636	-57.828	-27.922	-37.092	114.107	173.076	0.00098367	0.0013863	0.00090139	515.41	2.9558e-05	4.2189e-06	555.61	210.41	2.7756e-05	3.5165e-05	251.62	85.514	76.247	29.904	1.6905e-05	33.182	0.0029093	0.0032402	0.00080008	896.68	3.3237e-05	3.5232e-05	908.92	318.03	3.3804e-05	3.4753e-05	462.58	144.7	136.82	51.453	3.0682e-05	59.267	154.745	-15.115	-52.955	-74.439	247.405	37.653	-75.804	-69.526	203.519	27.860	-72.126	-67.840	-64.996	-60.681	43.689	-64.393	-8191	255	
1670.668	1	1	0	0	0.10812	0.028819	0.21577	0.034696	0.072732	0.037692	0.059256	0.069926	0.25274	0.096255	0.074362	0.037617	0.13108	0.15647	0.14879	0.2819	-2.6458	-3.0438	-2.4708	-3.1146	-2.7896	-2.8396	-3.2396	-2.6771	-2.9	-3.15	-2.7875	-3.2438	-3.0458	-2.6562	-3.0917	-2.7771	0.143	184.893	129.879	-14.474	3.257	-80.166	140.579	75.068	49.531	-27.706	90.645	185.884	-68.883	-54.013	205.747	73.251	0.00045312	0.0014225	0.00041644	506.68	1.9377e-05	1.8338e-05	539.51	207.74	4.8753e-06	2.2992e-05	247.88	84.188	76.016	29.511	2.2944e-05	32.421	0.0031343	0.003112	0.00078229	904.21	3.5442e-05	3.3777e-05	894.83	320.9	3.5756e-05	3.3202e-05	453.6	146.17	138.52	49.933	2.9816e-05	60.391	168.841	-37.170	242.993	-74.290	218.935	54.790	-75.536	-69.598	206.475	-0.274	-72.638	-68.489	-64.876	-60.619	27.940	-64.483	-8191	255	
1670.762	1	1	0	0	0.14442	0.096261	0.15253	0.17744	0.016094	0.16149	0.24644	0.26663	0.2246	0.093027	0.058139	0.16745	0.087022	0.16165	0.27171	0.21369	-2.5042	-3.0625	-2.3417	-3.0833	-2.8229	-2.4521	-3.3979	-2.6583	-2.8896	-2.9958	-2.4854	-3.15	-2.9896	-2.6375	-3.1292	-2.7313	204.497	-32.028	83.659	265.939	257.618	81.808	102.381	199.507	-4.129	-84.207	-77.367	227.363	167.783	-54.203	69.128	248.940	0.00034511	0.0032231	0.00086178	500.81	6.2191e-06	3.3938e-05	538.79	205.08	1.4758e-05	3.1487e-05	247.73	83.224	75.858	29.54	1.2227e-05	32.359	0.0032328	0.0029582	0.00076616	928.32	3.6011e-05	3.2377e-05	878.92	329.95	3.5925e-05	3.1915e-05	449.18	152.18	137.92	49.306	2.9408e-05	63.383	106.148	-14.233	264.166	-74.203	69.553	29.499	-75.579	-69.781	8.752	3.455	-72.513	-67.927	-65.338	-60.496	144.267	-64.512	-8191	255	
1670.883	1	1	0	0	0.21218	0.36093	0.23638	0.20297	0.16571	0.31514	0.021257	0.32046	0.22097	0.16303	0.13207	0.1855	0.075559	0.33554	0.093962	0.12738	-2.1583	-3.1875	-2.3917	-3.0958	-3.05	-2.5771	-3.1979	-2.8875	-2.7292	-3.3208	-2.425	-2.9917	-3.2146	-2.3792	-3.1042	-2.8708	160.903	161.699	-59.655	225.538	100.646	-85.542	-2.905	138.673	25.229	-40.529	-54.719	214.416	232.380	266.107	-6.213	259.111	0.00022475	0.0017262	0.00025746	502.98	2.357e-05	4.9933e-06	537.04	205.76	2.1335e-05	2.923e-05	243.48	83.859	77.01	29.56	2.5961e-05	32.899	0.0031695	0.0028423	0.00075747	966.61	3.4674e-05	3.1175e-05	879.32	339.88	3.4327e-05	3.1028e-05	451.89	158.1	135.15	48.861	3.045e-05	65.747	-79.373	-11.142	14.947	-73.832	80.873	37.471	-76.165	-69.627	5.638	54.051	-72.435	-67.868	-65.234	-60.608	151.729	-63.871	-8191	255	
1670.979	1	1	0	0	0.25508	0.18007	0.097675	0.15714	0.082474	0.2555	0.37436	0.15121	0.013122	0.1579	0.23008	0.19708	0.12767	0.18504	0.27162	0.16924	-2.4813	-3.0021	-2.5229	-3.0458	-2.9042	-2.5208	-3.1375	-2.7167	-2.85	-3.2062	-2.4771	-2.975	-3.0938	-2.6625	-3.15	-3.075	48.632	38.897	162.079	111.342	226.677	-33.467	224.110	-49.014	39.876	86.055	-48.748	269.246	-24.069	228.525	73.977	132.364	0.00032008	0.0028107	0.00046033	505.07	1.3024e-05	1.4418e-05	532.99	207.07	2.6799e-05	1.9352e-05	240.38	85.259	76.361	29.318	4.0193e-05	32.97	0.003047	0.0028157	0.00079313	1002.3	3.3773e-05	3.1197e-05	912.88	350.87	3.4067e-05	3.1585e-05	479.51	165.07	135.31	49.639	3.4662e-05	68.651	-43.593	-43.044	87.249	-74.470	70.908	32.577	-76.012	-69.378	32.484	8.251	-72.529	-68.089	-65.413	-60.746	195.447	-64.056	-8191	255	
1671.075	1	1	0	0	0.13449	0.085182	0.07506	0.19499	0.022903	0.1656	0.064639	0.097233	0.032284	0.17442	0.078111	0.11154	0.10431	0.030518	0.046453	0.23749	-2.0708	-3.1396	-2.5083	-2.8979	-3.2021	-2.4688	-3.1875	-3.0563	-2.6479	-3.3271	-2.6167	-2.7542	-3.2542	-2.7062	-2.8958	-3.1083	-82.770	218.131	61.024	-12.702	-73.946	260.864	-86.107	172.224	206.595	183.795	22.060	230.366	239.895	146.678	-56.208	259.000	0.0003965	0.0032592	0.00076032	502.58	1.7765e-05	8.9885e-06	519.52	206.2	1.399e-05	8.0763e-06	237.83	83.727	74.769	28.896	3.1183e-05	32.548	0.0031261	0.0029508	0.00091758	1029.9	3.4332e-05	3.2742e-05	956.85	353.62	3.4597e-05	3.2381e-05	508.61	164.51	134.73	50.112	3.8811e-05	67.973	-29.690	-61.610	114.620	-74.215	44.007	45.950	-76.326	-69.662	5.714	-65.123	-72.263	-68.551	-65.003	-60.508	207.121	-64.061	-8191	255	
1671.171	1	1	0	0	0.062913	0.10312	0.034228	0.15527	0.1161	0.23533	0.29203	0.13289	0.1204	0.18497	0.080712	0.25661	0.15269	0.2681	0.13393	0.19096	-1.9792	-3.1917	-2.7646	-2.6979	-3.0979	-2.5646	-2.8104	-3.0687	-2.5062	-3.1458	-2.8583	-2.6188	-3.15	-2.4708	-2.825	-3.3646	-45.109	118.649	78.746	188.167	143.475	259.082	163.481	116.304	-5.870	22.300	220.562	254.935	-31.986	-77.181	247.028	250.319	0.00021869	0.0015277	0.00055497	489.69	1.276e-05	1.7746e-05	516.42	204.7	2.2254e-05	2.1078e-05	238.45	83.724	75.478	28.919	2.3209e-06	32.671	0.0031499	0.0030489	0.0010044	1007.8	3.4111e-05	3.3504e-05	985.44	344.78	3.3429e-05	3.2848e-05	516.19	157.2	130.97	49.995	3.8505e-05	63.874	-45.688	145.974	88.703	-74.414	126.473	210.680	-75.976	-69.629	43.801	167.089	-71.849	-68.816	-65.323	-60.037	106.009	-64.655	-8191	255	
1671.268	1	1	0	0	0.24908	0.02162	0.10988	0.24185	0.085396	0.13669	0.097371	0.15699	0.28949	0.088843	0.24012	0.33416	0.21971	0.094213	0.04569	0.10456	-2.15	-3.1667	-2.7979	-2.675	-3.2042	-2.7458	-2.9708	-3.2167	-2.4042	-3.05	-2.8917	-2.5646	-3.1875	-2.6292	-2.7417	-3.1875	69.636	136.535	155.845	192.595	-23.133	48.878	188.423	-42.642	113.808	261.573	51.449	250.579	209.592	228.144	141.068	-83.898	0.0004512	0.0040512	0.0002885	502.18	1.45e-05	3.0847e-05	531.38	208.3	8.4624e-06	2.2808e-05	246.96	84.374	76.101	28.962	1.8408e-05	32.836	0.0028872	0.0030336	0.00097124	959.34	3.1398e-05	3.3561e-05	979.19	331.59	3.0997e-05	3.3675e-05	507.14	151.48	127.75	50.871	3.6566e-05	61.258	5.184	140.094	-74.910	-74.281	82.824	195.152	-75.144	-69.625	11.815	200.948	-72.029	-67.913	-65.061	-60.866	39.075	-64.683	-8191	255	
1671.364	1	1	0	0	0.32428	0.089542	0.18938	0.24031	0.1031	0.095004	0.26501	0.2125	0.23516	0.16565	0.27516	0.13612	0.080178	0.17237	0.32931	0.21412	-1.8729	-2.9813	-2.9833	-2.5042	-3.1896	-2.7521	-2.7417	-3.1125	-2.3417	-3.125	-2.9271	-2.5229	-3.1	-2.6833	-2.6917	-3.1312	244.066	69.169	30.638	-75.456	59.333	142.587	235.368	-30.232	230.727	-4.830	126.849	11.660	220.160	-85.914	244.798	226.522	4.4189e-05	0.0043747	0.00049362	509.62	1.6585e-05	2.071e-05	545.05	209.89	1.3905e-05	2.5467e-05	249.03	85.705	76.039	29.267	3.4906e-05	33.233	0.0027359	0.0031466	0.00091512	934.91	2.9982e-05	3.5239e-05	961.95	325.95	3.044e-05	3.5494e-05	490.91	149.45	127.6	52.488	3.4619e-05	60.282	106.828	144.311	266.649	-74.138	15.259	210.578	-75.388	-69.322	236.589	211.954	-72.419	-67.824	-64.963	-60.635	58.669	-64.344	-8191	255	
1671.460	1	1	0	0	0.10616	0.10211	0.16859	0.041485	0.42207	0.10764	0.35861	0.18356	0.066606	0.093508	0.20636	0.067671	0.082837	0.30513	0.45968	0.2316	-2.2313	-2.9104	-3.3292	-2.4333	-3.0687	-2.8583	-2.6083	-3.1708	-2.7479	-2.9417	-3.2229	-2.2875	-3.1688	-2.8771	-2.5333	-3.5521	51.344	-68.138	86.283	181.800	-68.890	50.095	-86.814	-72.096	58.403	-24.817	-33.447	249.051	-80.772	-20.896	204.436	-44.641	0.0003372	0.0015318	0.00096114	508.13	1.7907e-05	1.2604e-05	544.67	209.15	2.7655e-05	2.1545e-05	249.74	85.503	75.772	29.402	5.0409e-06	32.744	0.0027584	0.0033242	0.00086693	921.89	3.0843e-05	3.6813e-05	938.46	322.19	3.1726e-05	3.6908e-05	476.4	146.41	130.49	52.673	3.2445e-05	58.786	169.219	67.322	-64.416	-74.029	246.134	-56.764	-75.568	-69.520	224.017	184.037	-72.201	-68.176	-65.118	-59.881	-57.697	-64.012	-8191	255	
1671.556	1	1	0	0	0.14734	0.095304	0.1196	0.069966	0.30109	0.15136	0.038357	0.21946	0.22462	0.07893	0.07481	0.22697	0.40653	0.06346	0.13308	0.14588	-2.0333	-2.8438	-3.0854	-2.6063	-3.1896	-2.9521	-2.7521	-3.0875	-2.7729	-2.7896	-3.2	-2.4833	-3.0979	-2.8563	-2.5563	-3.2062	-50.441	240.588	3.159	-55.003	178.153	127.732	154.501	269.914	26.803	244.897	201.022	5.033	-83.864	-8.003	34.136	34.231	0.00038245	0.0025508	0.00068566	511.66	2.4838e-05	1.1811e-05	536.63	208.87	3.4871e-05	2.5736e-05	245.58	83.443	75.693	29.162	1.7627e-05	31.892	0.0028839	0.0032825	0.00080701	897.35	3.2513e-05	3.5794e-05	905.57	316.64	3.3555e-05	3.566e-05	462.14	144.43	135.18	51.731	3.1589e-05	58.321	167.121	268.232	261.457	-74.714	250.963	28.082	-75.542	-69.608	234.975	0.375	-72.684	-67.898	-65.198	-60.782	7.111	-64.623	-8191	255	
1671.675	1	1	0	0	0.097196	0.29281	0.14804	0.18886	0.12529	0.20014	0.17375	0.32956	0.17651	0.21561	0.25341	0.098732	0.050701	0.33849	0.30339	0.062036	-2.3583	-2.9292	-3.1083	-2.575	-3.0312	-3.0542	-2.6063	-3.2708	-2.7521	-2.6375	-3.5375	-2.7146	-2.9958	-3.1042	-2.5146	-3.2	266.789	168.975	105.075	-38.717	22.601	28.081	-22.979	207.543	-10.723	108.204	166.832	-13.844	161.559	268.868	-68.062	205.684	0.00031437	0.0044036	0.00030379	505.47	1.312e-05	3.6871e-05	536.51	205.74	1.0728e-05	1.2479e-05	245.65	82.444	75.251	29.427	1.5758e-05	32.522	0.0031321	0.0032058	0.00079071	904.59	3.5377e-05	3.4817e-05	903.76	319.32	3.6349e-05	3.4997e-05	458.64	147.98	140.17	50.935	3.165e-05	60.582	125.671	-16.000	-16.873	-74.135	218.071	30.805	-75.459	-69.271	-81.876	27.698	-72.459	-68.250	-65.164	-60.856	43.414	-64.457	-8191	255	
1671.771	1	1	0	0	0.21463	0.065274	0.17791	0.20191	0.19793	0.25837	0.21345	0.17319	0.24483	0.1749	0.19499	0.15571	0.073584	0.13206	0.11458	0.3956	-2.4729	-2.5187	-3.2083	-2.775	-2.9062	-3.1937	-2.5958	-3.1688	-2.8958	-2.7125	-3.2479	-2.5812	-2.7396	-3.0771	-2.5854	-3.2083	69.413	3.126	218.756	-46.703	188.468	251.159	256.285	221.458	143.800	51.811	-28.425	246.764	178.753	-2.369	158.184	93.728	0.0002965	0.0045466	0.00031876	501.28	5.8524e-06	3.4812e-05	545.21	205.85	1.5427e-05	2.9001e-05	246.87	83.967	76.227	29.329	1.9042e-06	32.464	0.0033276	0.003103	0.00078274	931.73	3.6879e-05	3.3146e-05	896.28	328.36	3.6968e-05	3.3113e-05	454.12	153.24	141.02	49.937	3.0878e-05	63.635	168.112	9.752	-13.106	-73.962	220.602	12.359	-75.816	-69.408	-28.436	25.561	-72.396	-67.889	-65.359	-60.231	35.369	-64.091	-8191	255	
1671.867	1	1	0	0	0.070902	0.21139	0.12956	0.13812	0.36344	0.16052	0.091062	0.14574	0.3297	0.16463	0.061447	0.25724	0.13108	0.13764	0.15396	0.089813	-2.5354	-2.5167	-3.1354	-2.7396	-2.6937	-3.2375	-2.4271	-3.2188	-2.775	-2.6042	-3.2354	-2.8646	-2.6979	-3.2333	-2.5792	-2.9333	-16.244	242.381	179.275	187.044	23.657	219.057	142.252	221.344	-72.973	120.284	55.664	237.851	187.161	184.610	-26.159	-63.498	0.00053243	0.000642	9.4328e-05	499.32	2.7505e-05	9.3097e-06	537.87	205.25	3.3642e-05	2.3149e-05	243.19	83.31	76.929	29.133	1.0774e-05	32.445	0.0033075	0.002992	0.00077645	975.92	3.6612e-05	3.2619e-05	897.07	342.98	3.6473e-05	3.2792e-05	457.54	160.91	139.2	49.477	3.165e-05	66.381	-52.734	-83.188	-38.466	-73.866	84.158	26.346	-75.743	-69.177	15.058	-32.459	-72.854	-68.045	-65.161	-60.775	266.178	-64.884	-8191	255	
1671.963	1	1	0	0	0.23331	0.14232	0.071582	0.11294	0.13008	0.18178	0.20264	0.093838	0.052167	0.19192	0.23294	0.079958	0.14296	0.19034	0.049322	0.21217	-2.5292	-2.3292	-3.1271	-2.7625	-2.7104	-3.1271	-2.7062	-2.9292	-3.0563	-2.4042	-3.15	-2.8479	-2.6229	-3.4167	-2.5667	-2.9021	82.806	-3.912	175.857	271.934	91.951	90.990	107.196	108.121	38.306	178.083	178.075	138.245	34.677	243.177	-21.025	19.079	0.00033727	0.0017473	0.00012245	498.89	2.5565e-05	1.3271e-05	518.38	205.17	1.5798e-05	3.5887e-05	240.25	83.41	75.37	29.013	3.1467e-05	31.966	0.0032139	0.0029896	0.00080626	1014.2	3.5704e-05	3.2392e-05	910.38	353.1	3.5405e-05	3.2949e-05	470.23	164.67	137.13	49.107	3.4276e-05	67.999	-25.507	24.381	133.212	-74.232	65.749	-37.088	-75.802	-70.032	16.411	-29.536	-72.583	-68.718	-64.991	-60.674	189.575	-64.025	-8191	255	
1672.060	1	1	0	0	0.059553	0.11003	0.13732	0.18955	0.1249	0.25457	0.26336	0.29722	0.14537	0.14083	0.09332	0.16624	0.075964	0.18095	0.15962	0.13165	-2.8312	-2.4313	-3.0646	-2.7687	-2.6083	-3.3125	-2.5687	-2.6708	-3.1042	-2.4104	-3.0979	-2.9208	-2.5146	-3.3125	-2.6292	-2.7875	177.363	72.779	81.562	97.878	-49.895	-13.651	-73.319	142.108	35.728	201.644	221.936	-60.118	101.190	-75.202	6.076	183.643	0.00012021	0.0025449	0.00090791	499.02	1.3366e-05	9.4877e-06	515.44	207.01	2.9785e-05	1.1896e-05	239.02	83.512	75.997	29.012	5.4033e-05	32.496	0.0031175	0.0029975	0.00087798	1025.5	3.4546e-05	3.1905e-05	938.72	353.85	3.3883e-05	3.2064e-05	492.08	162.71	134.19	48.854	3.6837e-05	66.952	199.598	-33.440	88.908	-74.417	81.891	47.203	-75.678	-69.652	10.301	160.393	-72.549	-68.752	-65.286	-60.325	176.468	-64.143	-8191	255	
1672.156	1	1	0	0	0.19615	0.17509	0.095759	0.19204	0.088095	0.26732	0.34761	0.10253	0.18716	0.18272	0.082466	0.17309	0.089953	0.26442	0.17878	0.085427	-2.8146	-2.2625	-3.1146	-3.1729	-2.4354	-3.2021	-2.8375	-2.9104	-3.1562	-2.5354	-3.1229	-3.0771	-2.525	-3.1625	-2.7396	-2.6	99.678	-69.683	174.003	245.368	-60.471	-53.348	238.311	-34.167	99.767	131.291	-5.510	101.624	253.377	160.036	2.133	13.053	0.00022488	0.00037459	0.0010205	504.07	1.4339e-05	1.4838e-05	522.68	208.98	2.0498e-05	1.4859e-05	239.08	84.627	76.663	28.873	1.3592e-05	32.757	0.0030377	0.0029668	0.00095507	1010.8	3.3768e-05	3.2372e-05	981.47	348.28	3.3307e-05	3.2533e-05	512.03	158.86	132.39	49.226	3.8104e-05	64.497	-79.852	128.738	77.796	-74.148	151.870	238.554	-75.841	-69.464	-40.413	189.695	-72.136	-67.877	-65.076	-60.858	225.163	-63.822	-8191	255	
1672.252	1	1	0	0	0.17449	0.10508	0.24274	0.20895	0.21187	0.23592	0.20785	0.15163	0.15699	0.17983	0.066399	0.23151	0.073382	0.28326	0.10394	0.19323	-2.6917	-2.5771	-2.8521	-3.2958	-2.3083	-3.2604	-2.7042	-2.5896	-3.2042	-2.5458	-2.6875	-3.0292	-2.5896	-3.0521	-2.9917	-2.3958	170.031	-14.108	-12.130	-55.692	-24.135	-79.986	-10.342	-65.673	49.847	58.070	52.304	-78.355	207.354	-17.705	166.962	69.589	0.00023393	0.00056125	0.00050472	508.68	1.3524e-05	2.6105e-05	533.17	207.53	1.153e-05	2.1842e-05	243.45	84.367	75.443	28.837	2.5618e-05	32.344	0.0028778	0.0029874	0.00096901	972.39	3.2267e-05	3.3114e-05	994.2	339.73	3.2085e-05	3.4509e-05	521.02	155.33	132.29	51.456	3.9225e-05	63.923	44.295	253.222	66.964	-74.495	-4.485	191.115	-75.318	-69.590	-58.081	147.547	-72.143	-68.102	-65.388	-60.759	22.353	-64.452	-8191	255	
1672.372	1	1	0	0	0.10703	0.1292	0.182	0.22517	0.18717	0.1448	0.11179	0.23429	0.14907	0.39295	0.050691	0.02374	0.28664	0.064913	0.23506	0.15807	-2.9188	-2.5062	-2.7625	-3.1417	-2.4354	-3.1292	-3.0604	-2.4583	-3.0146	-2.7	-2.9688	-3.2229	-2.5333	-3.0854	-2.8354	-2.4708	193.873	159.627	170.449	208.395	69.569	135.036	156.262	-82.493	-38.551	-50.347	109.916	265.199	176.848	-50.915	116.155	169.001	0.00024332	0.0026493	0.00062761	500.75	1.9458e-05	2.0375e-05	526.59	205.87	1.0617e-05	3.0777e-05	242.08	83.134	75.104	28.519	3.4508e-05	32.154	0.0028782	0.0033215	0.00099494	959.57	3.2477e-05	3.6774e-05	984.07	334.49	3.2112e-05	3.7486e-05	511.73	152.73	131.65	53.596	3.7918e-05	62.766	33.524	130.324	-8.326	-73.830	69.746	181.700	-75.490	-69.489	119.191	188.149	-72.825	-67.904	-65.104	-60.860	-3.095	-63.946	-8191	255	
1672.469	1	1	0	0	0.11297	0.29291	0.036814	0.15763	0.11671	0.15083	0.11388	0.067047	0.018233	0.15435	0.069528	0.09303	0.10202	0.06851	0.3708	0.19903	-2.5479	-2.8042	-2.6562	-3.0312	-2.5792	-2.8292	-3.0521	-2.7208	-2.9813	-2.8063	-2.5563	-3.3063	-2.675	-2.9833	-3.1188	-2.4771	-11.591	35.735	94.150	252.237	-70.068	231.435	-68.416	47.852	59.489	29.047	219.493	123.480	-57.618	65.965	-10.027	-37.269	0.00015863	0.0014556	0.00096184	498.5	1.5388e-05	1.5056e-05	521.03	205.82	3.792e-05	1.0937e-05	241.91	83.572	74.613	28.735	2.3538e-05	31.901	0.0029312	0.0035888	0.00096644	950.58	3.3612e-05	3.9928e-05	966.44	333.5	3.3731e-05	4.0254e-05	501.61	151.35	135.28	55	3.6163e-05	62.214	136.195	123.626	-46.943	-73.870	223.993	-44.675	-75.753	-69.939	192.096	191.055	-72.566	-68.606	-64.892	-60.096	17.946	-64.302	-8191	255	
1672.565	1	1	0	0	0.24455	0.16937	0.2944	0.20297	0.073417	0.065029	0.26411	0.1445	0.14272	0.2573	0.13077	0.27439	0.15646	0.29223	0.040192	0.22308	-2.7521	-2.7313	-2.4833	-3.2375	-2.6229	-2.8271	-3.1021	-2.4667	-3.1604	-2.8063	-2.4521	-3.2125	-2.65	-2.8208	-3.1896	-2.3833	25.764	58.500	53.589	225.499	266.281	-79.142	269.560	-40.182	174.938	254.095	-44.050	183.062	264.887	265.797	1.105	68.424	0.00070915	0.0014332	0.00065086	495.02	2.441e-05	1.0025e-05	525.57	205.73	3.3002e-05	2.4688e-05	243.64	83.152	75.501	28.661	2.6911e-05	31.997	0.0030933	0.0036638	0.00091556	935.73	3.5415e-05	4.007e-05	937.94	329.8	3.5901e-05	4.0002e-05	489.89	150.07	141.19	54.888	3.5052e-05	61.912	146.386	68.443	242.362	-74.218	260.833	59.691	-75.823	-69.611	201.236	-33.236	-72.365	-67.766	-64.890	-60.434	-3.354	-64.941	-8191	255	
1672.661	1	1	0	0	0.14248	0.205	0.19835	0.042311	0.39354	0.1764	0.094775	0.14676	0.18221	0.2863	0.30061	0.037319	0.17791	0.34555	0.10477	0.1379	-2.4562	-2.8208	-2.4625	-3.3187	-2.5792	-2.5687	-3.1896	-2.4521	-3.1958	-3.0104	-2.4771	-3.0458	-2.85	-2.6917	-3.225	-2.5896	160.913	83.893	186.667	217.047	146.758	124.666	132.879	232.896	129.505	-14.593	255.850	191.380	196.922	143.585	184.634	266.362	0.00098052	0.0038536	0.00031785	497.88	3.1474e-05	1.6448e-05	532.44	207.12	2.9827e-05	3.4356e-05	243.79	84.089	76.297	29.471	1.4154e-05	32.268	0.0033788	0.0036039	0.00089221	938.33	3.836e-05	3.8725e-05	931.9	328.89	3.8001e-05	3.742e-05	474.82	149.34	143.09	52.425	3.2502e-05	61.175	152.268	-16.914	260.319	-74.058	225.486	6.349	-75.262	-69.606	196.199	25.945	-72.778	-67.613	-65.370	-61.152	-1.891	-64.711	-8191	255	
1672.755	1	1	0	0	0.2284	0.19413	0.11183	0.14949	0.095879	0.23325	0.15773	0.10529	0.21697	0.083857	0.19745	0.028289	0.36394	0.17418	0.12308	0.23195	-2.3771	-2.8875	-2.2417	-2.8792	-2.7	-2.5875	-3.1	-2.7167	-3.0167	-3.0417	-2.4104	-3.2438	-3.0125	-2.5542	-3.2083	-2.5875	-21.268	121.952	115.297	-33.096	184.742	155.783	123.535	81.012	268.978	-39.990	67.845	55.217	-85.341	249.520	-76.164	223.153	0.00042185	0.0041622	0.00045781	499.24	8.1858e-06	2.7552e-05	529.5	205.08	1.8206e-05	2.461e-05	243.14	82.505	76.868	29.009	1.6278e-05	31.468	0.0033998	0.0032407	0.00082538	934.43	3.7982e-05	3.5034e-05	899.56	330.39	3.7766e-05	3.4035e-05	460.73	150.41	142.01	50.154	3.0515e-05	61.715	123.254	-46.483	-11.033	-74.297	267.924	41.642	-75.880	-69.437	101.518	-27.258	-72.425	-68.440	-64.731	-60.386	120.732	-64.586	-8191	255	
1672.852	1	1	0	0	0.31532	0.30751	0.050774	0.28737	0.29933	0.22163	0.45841	0.14672	0.25327	0.17089	0.31479	0.13431	0.14311	0.20867	0.19838	0.063947	-2.3438	-3.0312	-2.3896	-3.0604	-2.9667	-2.4646	-3.1729	-2.9437	-2.7854	-3.0687	-2.5042	-3.0187	-3.0167	-2.4771	-3.1792	-2.7792	42.305	63.195	67.773	176.850	11.733	95.424	195.380	180.036	-69.140	215.299	-70.221	-61.069	-18.405	151.299	108.618	-7.892	0.0001014	0.001464	0.00043266	503.22	2.0365e-05	1.9299e-05	531.85	205.61	9.379e-06	1.6355e-05	241.67	83.015	77.257	28.767	1.2038e-05	31.388	0.0033022	0.0029631	0.00077935	952.12	3.6121e-05	3.2273e-05	875.5	335.44	3.5775e-05	3.1609e-05	447.64	154.13	137.39	48.569	2.9518e-05	63.242	-80.381	24.539	-74.188	-73.981	75.512	46.568	-75.673	-69.697	196.793	48.627	-72.360	-67.937	-65.069	-60.628	213.313	-64.824	-8191	255	
1672.972	1	1	0	0	0.14495	0.15627	0.34166	0.10842	0.11639	0.2234	0.16073	0.23849	0.34763	0.094825	0.36283	0.12908	0.25141	0.1846	0.10202	0.11996	-2.2542	-3.1688	-2.4188	-2.9208	-2.9271	-2.4146	-3.1333	-2.7104	-2.5	-3.3292	-2.7875	-2.7729	-3.2313	-2.5271	-3.0938	-2.7167	-37.746	123.432	167.514	111.511	-47.688	183.399	125.173	-23.377	-86.432	197.427	119.261	243.799	233.050	219.298	70.760	229.145	6.9577e-05	0.0021819	0.00016307	506.73	1.8504e-05	3.5363e-05	538.79	207.73	1.6633e-05	1.5115e-05	243.44	83.82	77.642	29.197	3.174e-05	31.858	0.0031018	0.0028199	0.00075951	982.01	3.3923e-05	3.087e-05	880.61	341.11	3.3186e-05	2.9926e-05	448.12	156.09	131.79	47.281	2.9529e-05	63.413	6.734	-16.348	-70.946	-74.263	36.369	36.750	-75.619	-69.210	1.587	19.689	-72.357	-67.799	-64.987	-60.352	175.219	-64.017	-8191	255	
1673.068	1	1	0	0	0.29109	0.058663	0.14575	0.27805	0.30891	0.16061	0.14958	0.20874	0.11876	0.15014	0.12364	0.2354	0.26804	0.31471	0.040671	0.14449	-2.1479	-3.1646	-2.6188	-2.8937	-3.0875	-2.4833	-2.8646	-2.8292	-2.4917	-3.1125	-2.6	-2.875	-3.0333	-2.3438	-2.9542	-2.9708	-10.290	241.011	-70.126	211.542	18.903	21.197	-46.537	252.564	39.372	151.972	146.743	259.802	1.117	-86.929	210.543	196.225	0.00034812	0.0021555	0.00088385	519.46	2.1515e-05	1.1329e-05	544.96	210.61	1.4447e-05	6.4799e-06	244.25	86.899	77.882	29.281	4.8982e-05	32.764	0.0028325	0.0026241	0.00076726	980.7	3.0745e-05	2.8885e-05	898.52	338.93	3.0671e-05	2.8118e-05	461.02	155.14	127.71	46.47	3.0916e-05	62.465	-82.970	35.738	108.304	-73.932	72.511	-17.472	-75.686	-69.052	42.408	-20.417	-72.293	-67.834	-64.956	-60.615	188.487	-63.933	-8191	255	
1673.140	1	1	0	0	0.10111	0.064187	0.10667	0.21974	0.17969	0.1295	0.0404	0.25953	0.084177	0.12141	0.068865	0.11448	0.11218	0.21858	0.15964	0.19087	-2.1917	-3.2521	-2.6542	-2.8229	-3.0583	-2.5146	-2.9917	-2.8542	-2.4292	-3.1188	-2.8063	-2.7708	-3.15	-2.5542	-2.9437	-3.0417	226.716	201.731	97.437	250.474	216.732	-10.519	62.488	229.905	63.290	56.436	-81.415	46.617	160.565	-39.862	118.364	206.906	0.00025543	0.0019475	0.00044959	527.03	1.7261e-05	1.7632e-05	548.82	211.73	6.0181e-06	6.7451e-06	250.51	86.212	77.368	29.037	2.717e-05	32.416	0.0026445	0.0025008	0.00080029	960.68	2.8843e-05	2.7708e-05	925.22	332.08	2.9122e-05	2.7673e-05	474.99	151.47	125.77	46.468	3.3214e-05	60.62	29.961	255.156	97.509	-74.007	49.539	76.341	-75.896	-69.199	29.482	191.227	-72.022	-67.649	-65.084	-60.589	206.592	-63.561	-8191	255	
1673.236	1	1	0	0	0.13525	0.17668	0.17739	0.089418	0.15905	0.092673	0.25496	0.15063	0.21896	0.14014	0.148	0.1807	0.040432	0.3441	0.25545	0.14115	-1.9792	-3.2417	-2.7521	-2.625	-3.1333	-2.5687	-2.9833	-3.1	-2.275	-3.0792	-2.8604	-2.7687	-3.5229	-2.6208	-2.7812	-3.0833	2.740	9.571	51.569	245.130	246.780	137.654	165.789	-20.553	101.774	241.674	48.359	-48.575	44.641	-86.958	-25.614	149.897	0.00024191	0.0027198	0.00068764	522.21	3.5083e-06	3.3894e-05	536.12	209.76	8.7931e-06	2.1949e-05	247.25	84.647	76.798	28.621	1.5521e-05	31.959	0.0026188	0.0025992	0.00086164	938.88	2.8836e-05	2.9187e-05	942.71	325.43	2.9137e-05	2.9864e-05	487.82	148.1	124.79	48.006	3.4987e-05	59.188	15.883	115.777	109.855	-74.417	94.285	208.356	-75.634	-69.340	53.404	164.179	-71.974	-67.923	-64.539	-60.466	81.498	-64.364	-8191	255	
1673.332	1	1	0	0	0.045534	0.23407	0.13341	0.18052	0.17247	0.067561	0.23944	0.28278	0.1121	0.068378	0.095244	0.23244	0.32804	0.12656	0.074027	0.12617	-1.9125	-3.0729	-2.8063	-2.3854	-3.2521	-2.8042	-2.6354	-3.1792	-2.525	-3.0354	-3.1646	-2.6021	-3.1708	-2.5083	-2.5729	-3.2354	29.956	100.973	196.272	-84.598	-50.736	-17.365	-81.645	160.891	120.106	64.129	18.717	201.257	246.718	186.609	-76.464	184.080	0.00011675	0.0031884	0.00074164	511.42	3.1442e-06	2.7837e-05	540.88	208.33	1.1957e-05	4.7099e-05	246.43	83.799	76.486	28.448	2.9832e-05	31.899	0.0026015	0.0028345	0.00088495	920.99	2.8503e-05	3.201e-05	944.57	319.8	2.8986e-05	3.2407e-05	483.58	145.98	124.22	49.728	3.4006e-05	58.072	153.411	137.322	-56.555	-73.984	88.141	216.411	-75.298	-69.560	-25.073	169.978	-72.579	-67.705	-65.359	-60.040	32.936	-64.240	-8191	255	
1673.453	1	1	0	0	0.20383	0.17343	0.20935	0.098028	0.017132	0.037158	0.26581	0.1767	0.045236	0.066886	0.18221	0.093427	0.17576	0.26715	0.2856	0.10782	-1.9729	-3.0083	-2.8771	-2.5729	-3.0812	-2.9167	-2.7229	-3.25	-2.4792	-3.0854	-3.0583	-2.5333	-3.0917	-2.7354	-2.5771	-3.1937	-87.516	196.668	-25.542	209.661	162.707	94.476	144.437	188.515	33.444	248.703	168.434	79.429	133.043	-74.407	140.566	-31.808	0.00025203	0.0029233	0.0010248	515.86	7.027e-06	2.368e-05	548.76	208.66	2.1383e-05	1.7972e-05	247.61	85.647	76.154	28.761	2.203e-05	32.129	0.0025838	0.0030441	0.00084478	908.49	2.8191e-05	3.3789e-05	927.03	316.01	2.9019e-05	3.417e-05	469.09	144.67	125.76	50.968	3.2198e-05	57.612	139.171	134.365	-77.394	-74.051	228.655	200.585	-75.127	-69.538	-86.124	169.509	-71.705	-68.079	-64.681	-60.455	27.796	-64.536	-8191	255	
1673.549	1	1	0	0	0.171	0.20167	0.40014	0.24357	0.13576	0.097515	0.14398	0.14837	0.20835	0.086965	0.31621	0.164	0.12053	0.11558	0.064075	0.21935	-2.175	-2.8917	-2.9	-2.5771	-3.0146	-2.9	-2.6188	-3.2167	-2.5604	-2.8292	-3.1646	-2.625	-2.9062	-2.8333	-2.5208	-3.2708	-42.148	3.701	-20.998	141.675	-10.503	-18.628	18.275	-74.353	223.990	205.301	228.230	51.111	228.936	210.479	34.560	247.437	0.00082517	0.001271	0.00067151	520.05	1.6917e-05	1.7043e-05	548.1	208.04	1.7718e-05	6.442e-06	246.24	84.854	76.256	28.988	1.4351e-05	31.923	0.0026814	0.0031847	0.00080811	902.14	3.0197e-05	3.5269e-05	914.42	314.85	3.1457e-05	3.586e-05	463.6	144.74	132.28	52.021	3.215e-05	58.115	176.600	12.065	-65.323	-74.072	238.862	-8.432	-75.804	-69.116	191.527	48.438	-72.527	-68.085	-65.361	-60.709	-52.599	-64.460	-8191	255	
1673.645	1	1	0	0	0.31383	0.13653	0.28028	0.20204	0.20891	0.090006	0.22515	0.077607	0.10053	0.31946	0.19514	0.070713	0.10152	0.2098	0.16586	0.033675	-2.0938	-2.7729	-3.025	-2.5917	-2.9896	-2.9417	-2.625	-3.2188	-2.5771	-2.6312	-3.2479	-2.5167	-3.0521	-2.9896	-2.4958	-2.9813	-41.353	39.863	77.522	-25.565	110.025	225.150	226.843	188.164	182.291	230.516	229.989	-69.180	-60.658	208.482	196.040	136.392	0.00086753	0.00041045	0.00024276	506.21	4.4401e-05	1.701e-05	525.25	204.16	2.8201e-05	3.6111e-05	239.14	82.035	75.353	28.596	2.1656e-05	30.857	0.003009	0.0032964	0.00080963	906.15	3.4102e-05	3.6065e-05	901.18	314.26	3.5383e-05	3.6215e-05	459.34	145.35	138.44	51.36	3.2412e-05	58.491	167.822	180.096	-24.561	-74.648	272.749	9.978	-75.216	-69.236	199.360	24.209	-72.419	-68.398	-64.755	-60.970	5.054	-64.363	-8191	255	
#DATA ENDS
