BOXY.EXE: ISS Imagent and Oximeter Data Acquisition Program Version 0.80
Ascii Record File

#ACQ INFORMATION
2  Detector Channels 
16  External MUX Channels 
1  Auxiliary Channels 
5000  Waveform (CCF) Frequency (Hz)
1  Waveforms Skipped 
30  Waveforms Averaged 
1  Cycles Averaged 
16  Acquisitions per Waveform 
10.0806  Updata Rate (Hz) 

#FILE INFORMATION
TRUE -- External MUX Channel results are PARSED.
FALSE -- AC DC and Phase are NOT grouped.
TRUE -- Companion Program Settings File CREATED.
FALSE -- AC data not excluded
FALSE -- DC data not excluded
FALSE -- Phase data not excluded
FALSE -- Auxillary Chn. data not excluded
Tab delimiters

#CALIBRATION STATE
TRUE -- Waveform Calibration Values APPLIED.


#AUX CALIBRATION VALUES
Val Type	aux-1	

Term	1.0000e+00	
Factor	0.0000e+00	


#WF CALIBRATION VALUES
A = Detector Channel
Val Type	A-AC1	A-AC2	A-AC3	A-AC4	A-AC5	A-AC6	A-AC7	A-AC8	A-AC9	A-AC10	A-AC11	A-AC12	A-AC13	A-AC14	A-AC15	A-AC16	A-DC1	A-DC2	A-DC3	A-DC4	A-DC5	A-DC6	A-DC7	A-DC8	A-DC9	A-DC10	A-DC11	A-DC12	A-DC13	A-DC14	A-DC15	A-DC16	A-Ph1	A-Ph2	A-Ph3	A-Ph4	A-Ph5	A-Ph6	A-Ph7	A-Ph8	A-Ph9	A-Ph10	A-Ph11	A-Ph12	A-Ph13	A-Ph14	A-Ph15	A-Ph16	

Term	0.00000e+00	0.00000e+00	0.00000e+00	0.00000e+00	0.00000e+00	0.00000e+00	0.00000e+00	0.00000e+00	0.00000e+00	0.00000e+00	0.00000e+00	0.00000e+00	0.00000e+00	0.00000e+00	0.00000e+00	0.00000e+00	0.00000e+00	0.00000e+00	0.00000e+00	0.00000e+00	0.00000e+00	0.00000e+00	0.00000e+00	0.00000e+00	0.00000e+00	0.00000e+00	0.00000e+00	0.00000e+00	0.00000e+00	0.00000e+00	0.00000e+00	0.00000e+00	0.00000e+00	0.00000e+00	0.00000e+00	0.00000e+00	0.00000e+00	0.00000e+00	0.00000e+00	0.00000e+00	0.00000e+00	0.00000e+00	0.00000e+00	0.00000e+00	0.00000e+00	0.00000e+00	0.00000e+00	0.00000e+00	
Factor	1.00000e+00	1.00000e+00	1.00000e+00	1.00000e+00	1.00000e+00	1.00000e+00	1.00000e+00	1.00000e+00	1.00000e+00	1.00000e+00	1.00000e+00	1.00000e+00	1.00000e+00	1.00000e+00	1.00000e+00	1.00000e+00	1.00000e+00	1.00000e+00	1.00000e+00	1.00000e+00	1.00000e+00	1.00000e+00	1.00000e+00	1.00000e+00	1.00000e+00	1.00000e+00	1.00000e+00	1.00000e+00	1.00000e+00	1.00000e+00	1.00000e+00	1.00000e+00	X	X	X	X	X	X	X	X	X	X	X	X	X	X	X	X	

B = Detector Channel
Val Type	B-AC1	B-AC2	B-AC3	B-AC4	B-AC5	B-AC6	B-AC7	B-AC8	B-AC9	B-AC10	B-AC11	B-AC12	B-AC13	B-AC14	B-AC15	B-AC16	B-DC1	B-DC2	B-DC3	B-DC4	B-DC5	B-DC6	B-DC7	B-DC8	B-DC9	B-DC10	B-DC11	B-DC12	B-DC13	B-DC14	B-DC15	B-DC16	B-Ph1	B-Ph2	B-Ph3	B-Ph4	B-Ph5	B-Ph6	B-Ph7	B-Ph8	B-Ph9	B-Ph10	B-Ph11	B-Ph12	B-Ph13	B-Ph14	B-Ph15	B-Ph16	

Term	0.00000e+00	0.00000e+00	0.00000e+00	0.00000e+00	0.00000e+00	0.00000e+00	0.00000e+00	0.00000e+00	0.00000e+00	0.00000e+00	0.00000e+00	0.00000e+00	0.00000e+00	0.00000e+00	0.00000e+00	0.00000e+00	0.00000e+00	0.00000e+00	0.00000e+00	0.00000e+00	0.00000e+00	0.00000e+00	0.00000e+00	0.00000e+00	0.00000e+00	0.00000e+00	0.00000e+00	0.00000e+00	0.00000e+00	0.00000e+00	0.00000e+00	0.00000e+00	-9.73976e+01	-1.30849e+02	-1.20817e+02	-1.83215e+02	-5.41678e+01	-7.09084e+01	-1.60645e+02	-1.62015e+02	-5.77483e+01	-6.73109e+01	-1.72614e+02	-1.72392e+02	-1.82625e+02	-1.77464e+02	-6.51920e+01	-1.50396e+02	
Factor	1.53672e-05	1.55372e-04	4.49486e-05	1.55281e-01	1.27500e-06	1.63856e-06	1.77095e-01	5.59097e-02	1.17167e-06	1.81651e-06	8.77361e-02	2.76348e-02	2.61606e-02	8.30710e-03	1.34094e-06	1.23201e-02	5.68249e-06	7.41094e-06	2.07059e-06	7.96841e-02	7.84201e-08	8.14664e-08	8.56640e-02	2.88410e-02	7.84201e-08	8.17892e-08	4.38204e-02	1.39077e-02	1.36851e-02	4.31291e-03	8.00245e-08	6.19896e-03	X	X	X	X	X	X	X	X	X	X	X	X	X	X	X	X	



#DISTANCE SETTINGS
A = Detector Channel
A-1	A-2	A-3	A-4	A-5	A-6	A-7	A-8	A-9	A-10	A-11	A-12	A-13	A-14	A-15	A-16	

2.5000e+00	3.0000e+00	2.5000e+00	3.0000e+00	2.0000e+00	3.0000e+00	1.5000e+00	3.0000e+00	3.0000e+00	3.0000e+00	3.0000e+00	3.0000e+00	3.0000e+00	3.0000e+00	1.5000e+00	3.0000e+00	

B = Detector Channel
B-1	B-2	B-3	B-4	B-5	B-6	B-7	B-8	B-9	B-10	B-11	B-12	B-13	B-14	B-15	B-16	

1.0000e+01	1.0000e+01	1.0000e+01	1.4400e+00	1.0000e+01	1.0000e+01	1.5100e+00	1.9400e+00	1.0000e+01	1.0000e+01	1.9900e+00	2.4900e+00	2.4100e+00	2.9000e+00	1.0000e+01	2.9800e+00	




#DATA BEGINS
time	group	step	mark	flag	A-AC1	A-AC2	A-AC3	A-AC4	A-AC5	A-AC6	A-AC7	A-AC8	A-AC9	A-AC10	A-AC11	A-AC12	A-AC13	A-AC14	A-AC15	A-AC16	A-DC1	A-DC2	A-DC3	A-DC4	A-DC5	A-DC6	A-DC7	A-DC8	A-DC9	A-DC10	A-DC11	A-DC12	A-DC13	A-DC14	A-DC15	A-DC16	A-Ph1	A-Ph2	A-Ph3	A-Ph4	A-Ph5	A-Ph6	A-Ph7	A-Ph8	A-Ph9	A-Ph10	A-Ph11	A-Ph12	A-Ph13	A-Ph14	A-Ph15	A-Ph16	B-AC1	B-AC2	B-AC3	B-AC4	B-AC5	B-AC6	B-AC7	B-AC8	B-AC9	B-AC10	B-AC11	B-AC12	B-AC13	B-AC14	B-AC15	B-AC16	B-DC1	B-DC2	B-DC3	B-DC4	B-DC5	B-DC6	B-DC7	B-DC8	B-DC9	B-DC10	B-DC11	B-DC12	B-DC13	B-DC14	B-DC15	B-DC16	B-Ph1	B-Ph2	B-Ph3	B-Ph4	B-Ph5	B-Ph6	B-Ph7	B-Ph8	B-Ph9	B-Ph10	B-Ph11	B-Ph12	B-Ph13	B-Ph14	B-Ph15	B-Ph16	aux-1	digaux	

625.555	1	1	0	768	0.081959	0.014861	0.35365	0.11681	0.39593	0.26958	0.21841	0.21564	0.091229	0.2243	0.16472	0.32536	0.34059	0.015569	0.13654	0.077656	-2.1063	-2.6896	-2.7771	-2.6771	-2.9083	-2.6937	-2.6292	-2.95	-2.5312	-2.6167	-2.8646	-2.5979	-2.8271	-2.6979	-2.4771	-3.0604	24.173	8.871	54.081	348.447	198.931	100.265	295.034	320.816	334.862	232.646	127.555	63.481	272.388	209.322	176.921	267.735	0.00012308	0.00027676	7.7659e-05	1129.1	2.9215e-06	3.0346e-06	1225.8	245.36	1.4563e-06	1.9657e-06	306.41	84.016	66.229	19.704	1.5968e-06	27.374	0.00020131	0.00020383	5.6273e-05	1106.1	2.2757e-06	2.223e-06	1198.2	243.55	2.301e-06	2.1785e-06	304.93	84.533	66.351	19.851	2.2313e-06	27.534	156.247	58.814	80.662	4.116	198.196	116.570	4.264	11.229	128.303	130.714	11.000	17.897	18.177	24.514	129.991	24.242	-8191	255	
625.651	1	1	0	0	0.15556	0.049913	0.12505	0.10601	0.084452	0.16783	0.35011	0.12835	0.16956	0.16513	0.29419	0.25575	0.21337	0.11548	0.16459	0.15605	-2.2375	-2.6646	-2.7792	-2.5875	-2.9167	-2.8646	-2.4896	-3.0271	-2.5271	-2.7375	-3.1042	-2.3479	-2.8563	-2.7708	-2.5042	-3.0292	331.131	-4.187	119.760	5.785	282.643	297.005	255.413	6.669	162.127	168.577	209.418	269.080	244.422	9.801	36.759	294.589	0.00016002	0.00022536	9.035e-05	1128.9	4.1469e-06	3.224e-06	1220.2	245.96	2.3728e-06	4.7205e-06	308.59	83.664	65.751	19.451	2.7333e-06	26.955	0.0001964	0.00020975	5.6044e-05	1106.7	2.3402e-06	2.2312e-06	1197.8	243.39	2.2098e-06	2.2538e-06	304.96	84.353	66.155	19.707	2.2759e-06	27.415	162.475	79.232	115.667	4.038	171.159	165.215	4.084	11.475	161.537	172.158	11.081	17.924	18.438	25.044	131.818	24.529	-8191	255	
625.747	1	1	0	0	0.2465	0.30784	0.077978	0.29789	0.20634	0.20491	0.31672	0.13959	0.22899	0.1659	0.056231	0.1229	0.29856	0.24679	0.18787	0.15288	-2.1104	-2.6437	-3.0417	-2.5	-2.7812	-2.6458	-2.6104	-2.8083	-2.6208	-2.7354	-3.0771	-2.5563	-2.7625	-2.8083	-2.3667	-2.8896	185.864	233.764	142.971	329.665	79.107	90.341	289.575	217.018	88.248	75.110	93.582	313.809	33.265	273.938	159.661	244.128	0.00014567	0.00015994	6.9617e-05	1132.4	2.4072e-06	4.1047e-06	1217.1	245.18	2.03e-06	5.5681e-06	307.91	83.357	66.145	19.399	3.9309e-06	27.192	0.00019612	0.00020482	5.4612e-05	1107.3	2.3779e-06	2.1953e-06	1196.9	243.18	2.3297e-06	2.2153e-06	304.54	83.873	66.242	19.669	2.2887e-06	27.393	180.011	46.465	139.161	4.048	202.090	142.305	4.102	11.142	147.516	140.162	10.987	17.837	18.099	25.192	180.075	24.703	-8191	255	
625.844	1	1	0	0	0.10189	0.068147	0.27995	0.11199	0.11719	0.086328	0.32307	0.34871	0.094145	0.075773	0.12623	0.19021	0.27581	0.12208	0.30245	0.18249	-2.1854	-2.4646	-2.7979	-2.7271	-2.4729	-2.9083	-2.3333	-2.9125	-2.7771	-2.5125	-2.9437	-2.6375	-2.6937	-2.9146	-2.5271	-2.8542	110.335	225.047	84.120	15.320	15.532	220.467	279.058	284.720	97.794	352.723	351.389	18.296	303.723	294.651	318.067	270.669	0.0001352	0.00041382	0.00012995	1129.5	3.5891e-06	3.2414e-06	1222.1	244.99	2.8916e-06	3.4223e-07	309.6	83.162	65.823	19.475	3.0541e-06	27.339	0.00020344	0.0002087	5.5427e-05	1108.5	2.3341e-06	2.1952e-06	1199.8	243.29	2.359e-06	2.2622e-06	305.69	84.019	66.123	19.666	2.233e-06	27.41	164.924	85.399	69.766	3.996	168.866	110.277	4.289	11.475	175.045	138.335	11.035	18.123	18.351	25.098	188.272	24.755	-8191	255	
625.938	1	1	0	0	0.037374	0.25742	0.135	0.28246	0.29594	0.11555	0.26703	0.16198	0.24118	0.20106	0.15192	0.14456	0.097868	0.28291	0.12782	0.05649	-2.2125	-2.5104	-2.8875	-2.9292	-2.5083	-2.9479	-2.5938	-2.8771	-2.9354	-2.5	-2.9021	-2.7854	-2.4667	-2.8729	-2.6521	-2.8479	95.112	285.294	36.661	-0.044	339.611	296.466	280.233	206.965	346.272	86.314	23.558	313.072	340.863	316.234	135.311	349.138	0.00010603	0.00035445	5.0735e-05	1129.3	2.4109e-06	2.1491e-06	1213.5	244.22	9.3615e-07	3.5874e-06	306.91	83.179	65.564	19.5	2.5482e-06	27.031	0.00019567	0.00020346	5.6993e-05	1106.6	2.2673e-06	2.0448e-06	1197.3	242.49	2.2069e-06	2.1211e-06	304.9	84.12	65.98	19.7	2.2452e-06	27.351	163.170	90.116	84.689	3.975	166.763	118.937	4.377	11.479	188.374	126.902	11.302	18.355	19.012	25.063	149.827	24.540	-8191	255	
626.036	1	1	0	0	0.067852	0.10036	0.1042	0.050553	0.22873	0.30132	0.20645	0.21658	0.10415	0.1566	0.054882	0.12275	0.073956	0.072562	0.15581	0.23481	-2.2812	-2.5333	-2.9125	-2.875	-2.7542	-2.975	-2.7687	-2.8042	-2.8937	-2.5417	-2.9667	-2.6833	-2.5	-2.8667	-2.5812	-2.7146	39.361	197.794	90.080	1.641	181.989	162.990	297.760	339.665	122.457	256.707	16.261	273.043	252.254	293.183	102.421	311.463	0.00012208	0.00025315	0.0001114	1125	2.7032e-06	3.1437e-06	1213.7	244.59	2.3817e-06	4.5198e-06	307.04	83.58	65.316	19.38	2.3884e-06	27.086	0.00019454	0.00020488	5.3283e-05	1105.7	2.3451e-06	2.1247e-06	1195.5	242.48	2.1766e-06	2.1129e-06	304.59	84.132	65.863	19.619	2.1675e-06	27.38	172.347	85.840	50.486	4.031	167.811	130.286	4.456	11.527	160.576	208.116	11.199	17.815	18.264	25.150	159.129	24.891	-8191	255	
626.155	1	1	0	0	0.12672	0.18602	0.15664	0.33815	0.14534	0.086184	0.16413	0.031047	0.10027	0.12644	0.040311	0.49441	0.12655	0.065875	0.1556	0.14865	-2.3333	-2.4646	-2.6937	-2.7958	-2.4771	-2.9146	-2.6521	-2.7438	-2.9917	-2.3896	-2.6708	-2.9417	-2.525	-2.6958	-2.4562	-2.5729	31.396	25.662	297.614	310.997	13.389	136.615	335.429	146.951	12.339	222.400	13.170	219.966	231.796	228.514	168.307	334.828	0.00014012	0.00033032	8.814e-05	1126.2	2.4736e-06	2.2125e-06	1212.9	245.34	1.5187e-06	4.2949e-06	309.11	83.164	65.738	19.444	1.3816e-06	27.338	0.00019579	0.00019874	5.726e-05	1105.1	2.3023e-06	2.1085e-06	1195.8	243.36	2.2227e-06	2.0976e-06	305.52	84.017	66.18	19.71	2.1818e-06	27.465	169.729	87.337	109.403	4.019	203.528	159.275	4.394	11.347	162.781	149.820	11.194	17.883	18.446	25.189	177.916	24.755	-8191	255	
626.251	1	1	0	0	0.058818	0.19621	0.25835	0.25275	0.073525	0.12651	0.11746	0.29772	0.080179	0.23593	0.034634	0.054383	0.20549	0.18904	0.19565	0.30881	-2.3896	-2.5333	-2.5354	-3.0583	-2.5062	-2.7396	-2.7896	-2.6229	-2.8438	-2.5375	-2.8542	-2.9146	-2.4354	-2.9396	-2.6604	-2.4771	137.145	140.590	153.719	343.069	18.465	183.971	287.008	247.813	318.298	158.515	307.596	292.951	272.029	19.196	231.064	347.659	0.00010787	0.00049033	7.8769e-05	1127.3	2.9009e-06	3.9369e-06	1215.8	245.71	1.4405e-06	1.2914e-06	309.49	83.472	65.668	19.465	2.3987e-06	27.363	0.00019903	0.0001957	5.4267e-05	1105.7	2.327e-06	2.1297e-06	1196.7	243.21	2.2407e-06	2.11e-06	304.97	83.945	66.134	19.657	2.1512e-06	27.462	176.779	74.307	110.249	4.025	151.089	144.425	4.411	11.230	151.057	173.633	11.197	18.064	18.326	24.539	138.688	24.527	-8191	255	
626.347	1	1	0	0	0.16574	0.29608	0.16163	0.096588	0.17857	0.11378	0.44646	0.088559	0.16476	0.073927	0.023152	0.20313	0.17194	0.16985	0.28442	0.13561	-2.5729	-2.5312	-2.6958	-2.8125	-2.2833	-2.8688	-2.8229	-2.4917	-3.0229	-2.4437	-2.8333	-2.9521	-2.5271	-2.6813	-2.5438	-2.5938	220.744	101.571	50.775	281.508	215.124	22.005	264.057	123.330	35.172	243.156	95.916	15.890	247.387	263.516	71.900	328.808	0.00012398	0.000413	8.4569e-05	1126.4	1.694e-06	3.2848e-06	1216.5	244.8	2.0265e-06	3.0524e-06	307.64	83.742	65.558	19.378	2.3808e-06	27.224	0.00019517	0.00019605	5.6337e-05	1106.2	2.3395e-06	2.2045e-06	1198.4	243.07	2.1588e-06	2.1197e-06	304.94	84.223	66.012	19.677	2.177e-06	27.514	173.025	95.514	94.190	3.927	190.666	147.533	4.373	11.495	163.871	182.418	11.049	18.278	17.960	24.773	125.438	24.630	-8191	255	
626.443	1	1	0	0	0.21058	0.047871	0.30268	0.10556	0.086215	0.066776	0.082761	0.089257	0.23405	0.14193	0.16384	0.10127	0.40524	0.16956	0.23247	0.16063	-2.3625	-2.425	-2.4271	-2.9208	-2.3312	-2.8771	-2.975	-2.4771	-2.9083	-2.7562	-2.5542	-2.9188	-2.5646	-2.8563	-2.9104	-2.6	202.867	262.318	183.445	-1.880	290.248	318.509	240.313	1.030	187.088	282.982	227.571	351.215	2.598	268.094	27.492	31.880	0.00012587	0.0003948	7.8357e-05	1127.5	2.6077e-06	3.8057e-06	1218.1	243.39	2.3399e-06	3.1131e-06	308.78	83.888	66.398	19.547	3.097e-06	27.176	0.00019824	0.00020272	5.5828e-05	1105.8	2.3466e-06	2.1611e-06	1198.3	242.29	2.2108e-06	2.2209e-06	305.64	84.256	66.282	19.707	2.216e-06	27.411	161.217	115.202	86.274	3.988	149.898	134.927	4.225	11.461	172.595	148.873	11.123	17.907	18.516	25.130	151.870	24.670	-8191	255	
626.539	1	1	0	0	0.061608	0.13365	0.17035	0.3585	0.16466	0.35601	0.29615	0.14233	0.26879	0.30917	0.13362	0.27245	0.21744	0.24969	0.23295	0.012163	-2.5604	-2.5979	-2.6083	-3.0625	-2.525	-2.8563	-2.9083	-2.5375	-2.8729	-2.8042	-2.5083	-3.0479	-2.5604	-2.6333	-2.9354	-2.3875	222.051	95.652	184.695	336.788	140.949	277.631	281.975	264.267	67.515	96.302	1.392	343.880	316.056	52.238	203.435	257.655	0.0001236	0.00018203	0.00010775	1125	3.3322e-06	3.6052e-06	1218.5	243.88	3.0831e-06	1.265e-06	309.78	83.5	65.852	19.542	1.1593e-06	27.225	0.00019888	0.00021001	5.522e-05	1104.5	2.3013e-06	2.2072e-06	1197.5	242.78	2.2067e-06	2.1388e-06	305.35	84.17	65.928	19.687	2.1176e-06	27.423	167.814	82.298	90.422	4.010	162.527	160.242	4.235	11.418	166.864	97.653	11.192	18.160	18.330	24.810	158.991	24.447	-8191	255	
626.636	1	1	0	0	0.25491	0.19571	0.080892	0.18411	0.15741	0.066154	0.099103	0.15804	0.22122	0.19307	0.032256	0.18797	0.17901	0.33713	0.086915	0.2994	-2.4125	-2.4604	-2.3187	-3.0604	-2.5938	-2.9333	-2.9875	-2.3729	-2.7042	-2.8312	-2.7062	-2.9562	-2.7354	-2.5438	-2.8604	-2.4479	270.456	278.260	114.101	289.455	191.459	219.392	227.554	236.276	94.765	335.183	253.639	16.075	298.367	337.395	208.042	262.115	0.00014217	0.0003302	0.00013197	1129	2.5853e-06	3.7372e-06	1217	243.83	2.1189e-06	1.4989e-06	308.35	83.788	65.761	19.337	2.6639e-06	27.388	0.00020232	0.00020226	5.6471e-05	1108.5	2.3281e-06	2.2179e-06	1197.3	242.57	2.21e-06	2.1771e-06	305.2	84.077	66.208	19.618	2.1648e-06	27.459	160.639	61.337	112.682	3.989	162.508	137.344	4.274	11.294	212.010	91.773	11.001	18.390	18.429	24.690	182.725	24.392	-8191	255	
626.756	1	1	0	0	0.088742	0.24577	0.17186	0.12016	0.18865	0.084332	0.16872	0.22304	0.19051	0.049758	0.27767	0.23052	0.11981	0.063236	0.077983	0.24664	-2.2896	-2.7458	-2.3792	-3.0812	-2.4646	-2.5021	-3.0354	-2.6083	-2.7229	-2.7229	-2.5646	-3.0125	-2.6021	-2.3063	-2.9896	-2.6125	341.527	15.628	255.687	80.023	28.894	191.415	284.191	296.167	-1.543	255.931	295.129	310.960	63.775	310.139	70.366	345.471	0.00014852	0.00029636	0.0001217	1124.7	2.1592e-06	3.4234e-06	1215.1	244.67	3.6941e-06	4.0339e-06	307.42	83.211	65.577	19.513	5.8207e-07	27.051	0.00020143	0.00020297	5.7649e-05	1106.1	2.3503e-06	2.3033e-06	1196	242.84	2.284e-06	2.1454e-06	304.37	84.005	66.017	19.655	2.3012e-06	27.355	166.387	45.748	99.606	4.003	181.574	106.205	4.528	11.220	185.356	159.799	11.190	17.995	18.806	25.148	268.884	24.620	-8191	255	
626.851	1	1	0	0	0.17251	0.39622	0.11483	0.40151	0.16878	0.202	0.29978	0.30709	0.39709	0.14375	0.15838	0.16794	0.23098	0.2268	0.15241	0.1372	-2.3875	-2.9	-2.1958	-3.0396	-2.7375	-2.4813	-3.1792	-2.6688	-2.5062	-2.9313	-2.4313	-2.9792	-2.6937	-2.5187	-2.9042	-2.5854	295.328	326.800	264.137	298.198	194.230	227.062	313.947	343.334	36.668	188.555	301.576	164.734	349.088	16.156	338.134	245.978	0.00012441	0.00022605	7.6709e-05	1133.4	2.0543e-06	2.1752e-06	1213.1	245.07	2.1625e-06	2.8733e-06	307.44	83.315	66.449	19.497	3.2385e-06	27.252	0.00019841	0.00020596	5.6208e-05	1109.5	2.2474e-06	2.3089e-06	1195.5	242.72	2.1992e-06	2.1991e-06	304.68	83.966	66.221	19.649	2.2158e-06	27.332	167.721	106.246	89.094	3.719	204.095	147.812	4.169	11.647	168.431	113.417	11.184	18.143	18.460	25.129	157.766	24.718	-8191	255	
626.947	1	1	0	0	0.19109	0.30584	0.20352	0.11837	0.15502	0.060977	0.14326	0.11603	0.12327	0.41751	0.10335	0.24363	0.13829	0.17658	0.12859	0.15653	-2.0042	-2.6813	-2.3792	-2.9583	-2.8146	-2.5208	-3.0979	-2.7417	-2.5938	-2.975	-2.4292	-2.8729	-2.9896	-2.5708	-2.8042	-2.8542	103.713	161.446	48.214	108.673	203.023	272.648	23.777	321.371	62.971	219.424	311.731	277.607	128.050	9.621	348.095	145.279	0.00012859	0.00046194	8.1381e-05	1126.9	3.2509e-06	2.5469e-06	1216.2	243.9	3.0189e-06	1.6994e-06	307.08	83.912	65.579	19.599	2.0321e-06	26.995	0.00019914	0.00020023	5.6924e-05	1106.4	2.3325e-06	2.1989e-06	1195.2	242.34	2.294e-06	2.1189e-06	304.99	84.147	65.992	19.625	2.2557e-06	27.348	171.999	96.051	57.973	3.978	182.852	101.513	4.466	11.449	179.583	143.045	11.171	18.177	18.444	24.811	195.499	24.580	-8191	255	
627.043	1	1	0	0	0.20292	0.18197	0.076144	0.24924	0.13965	0.11211	0.07385	0.029108	0.16668	0.13155	0.18757	0.048999	0.24977	0.13602	0.27456	0.16884	-2.1188	-2.8979	-2.3958	-2.9	-2.7583	-2.4229	-2.9979	-2.7042	-2.4938	-2.8146	-2.4604	-2.85	-2.8208	-2.3042	-2.7792	-2.7625	177.837	276.210	37.803	330.447	328.819	132.300	22.569	209.471	314.234	131.612	235.524	152.072	32.953	84.886	299.255	291.061	0.00013365	0.00028616	7.1042e-05	1126.2	4.4937e-07	4.8383e-06	1215.3	244.72	1.9764e-06	5.1026e-06	308.87	83.607	65.839	19.37	2.3809e-06	27.215	0.00019664	0.00019742	5.6061e-05	1105.2	2.2154e-06	2.1112e-06	1195.7	242.65	2.2328e-06	2.1173e-06	305.19	84.049	66.072	19.54	2.1297e-06	27.376	166.439	126.107	72.942	3.999	232.801	156.910	4.323	11.263	205.409	158.994	11.065	18.034	18.270	25.119	149.203	24.716	-8191	255	
627.116	1	1	0	0	0.16386	0.11775	0.3446	0.31068	0.13723	0.22401	0.31459	0.17882	0.18144	0.25803	0.16491	0.14733	0.090891	0.087558	0.19399	0.38617	-1.95	-2.8083	-2.5583	-2.6937	-2.7708	-2.3146	-2.9042	-2.6896	-2.4062	-2.9917	-2.7375	-2.5396	-2.8521	-2.6708	-2.6604	-2.6375	157.422	92.279	17.982	21.486	134.467	2.612	318.481	338.343	223.211	185.918	348.457	32.577	78.916	-5.517	42.344	-1.048	0.00012796	0.00033403	3.206e-05	1125.2	1.735e-06	3.3286e-06	1221.1	245.06	2.5858e-06	2.7991e-06	309.99	83.914	65.446	19.59	4.0333e-06	26.964	0.00020399	0.00019817	5.7541e-05	1105.3	2.376e-06	2.1651e-06	1197.5	242.76	2.3119e-06	2.1683e-06	305.04	84.11	65.888	19.651	2.1635e-06	27.332	156.802	75.842	121.810	4.032	153.197	118.251	4.283	11.385	128.470	94.523	10.692	18.196	18.603	25.157	136.469	24.846	-8191	255	
627.235	1	1	0	0	0.10063	0.2217	0.12648	0.24624	0.20877	0.28404	0.37557	0.1536	0.15775	0.3551	0.1606	0.17843	0.20655	0.32955	0.037103	0.052389	-1.8271	-2.9729	-2.6083	-2.6833	-2.9583	-2.5083	-2.8937	-2.7292	-2.3917	-2.8583	-2.6958	-2.7604	-2.8521	-2.5208	-2.7625	-2.7833	302.983	131.041	138.368	217.829	80.156	22.008	311.999	39.168	169.161	319.680	114.326	332.920	277.842	281.710	153.865	153.845	0.00012771	0.00018464	7.9634e-05	1132	1.6441e-06	2.5923e-06	1222.2	245.16	2.1314e-06	3.7127e-06	309.67	83.742	65.647	19.456	1.5481e-06	27.306	0.00019923	0.00019085	5.4211e-05	1107.4	2.2987e-06	2.2137e-06	1198.1	242.63	2.2123e-06	2.178e-06	305.29	84.044	65.966	19.606	2.2412e-06	27.481	162.412	74.519	107.064	4.252	184.300	130.966	4.053	11.332	181.398	143.163	11.212	18.431	18.503	25.163	75.842	24.580	-8191	255	
627.331	1	1	0	0	0.34907	0.055114	0.11349	0.23855	0.15824	0.090288	0.40147	0.16378	0.054346	0.28581	0.21611	0.13768	0.015606	0.15702	0.11233	0.16669	-2.0646	-2.9125	-2.5542	-2.7292	-2.8896	-2.6958	-2.7687	-2.8458	-2.3708	-2.7854	-2.6437	-2.5938	-2.9771	-2.6271	-2.625	-2.6646	242.860	224.480	231.868	327.748	205.517	63.706	274.482	194.204	54.501	300.136	317.048	173.978	161.240	346.837	199.304	247.751	0.00013098	0.00017576	4.9573e-05	1126	1.1291e-06	4.9634e-06	1219.1	244.36	2.1633e-06	2.0677e-06	308.38	83.921	65.674	19.466	2.0219e-06	27.318	0.00020524	0.00020195	5.6229e-05	1104.9	2.282e-06	2.2054e-06	1199	242.71	2.2172e-06	2.1524e-06	304.57	84.172	65.904	19.587	2.1847e-06	27.409	179.391	149.966	62.611	4.241	187.671	107.361	4.256	11.342	168.527	136.042	10.894	18.312	18.534	24.947	157.725	24.504	-8191	255	
627.427	1	1	0	0	0.14029	0.22403	0.34254	0.39318	0.16949	0.22752	0.088852	0.15442	0.14198	0.17912	0.13628	0.2814	0.23538	0.19463	0.16426	0.1743	-1.9917	-2.7771	-2.8417	-2.425	-2.7562	-2.5312	-2.7792	-2.9979	-2.3438	-2.8271	-2.7375	-2.5083	-2.8125	-2.6229	-2.5854	-2.9313	35.401	253.146	224.473	340.504	-3.385	24.181	4.379	347.883	137.975	140.274	208.910	310.241	341.314	75.673	254.178	169.939	0.00012484	0.00037387	4.5773e-05	1129.4	2.9008e-06	2.6888e-06	1213	244.76	2.1758e-06	4.819e-06	308.45	83.545	65.576	19.495	3.1386e-06	27.043	0.00020082	0.00020057	5.6432e-05	1107.4	2.2979e-06	2.1395e-06	1195.3	242.55	2.2077e-06	2.1378e-06	305.02	84.136	65.976	19.638	2.2605e-06	27.377	164.783	148.562	132.306	4.025	194.785	173.934	4.519	11.149	139.417	139.455	11.034	17.779	18.549	25.054	140.396	24.685	-8191	255	
627.524	1	1	0	0	0.29761	0.21721	0.064208	0.32874	0.12287	0.057607	0.34902	0.12798	0.13748	0.19859	0.12998	0.12534	0.1724	0.17028	0.31109	0.16648	-2.0062	-2.6688	-2.6583	-2.4833	-2.8396	-2.5646	-2.5938	-2.975	-2.5729	-2.9104	-2.7708	-2.5771	-2.8917	-2.5646	-2.4604	-2.9604	95.779	254.594	91.089	325.892	301.516	64.837	306.026	21.669	8.139	115.643	300.714	84.004	28.464	117.952	261.264	269.190	0.00012709	0.00041904	5.9043e-05	1129.6	3.4965e-06	2.428e-06	1212.1	245.07	2.4055e-06	5.1943e-06	308.19	83.504	65.823	19.261	2.8434e-06	27.013	0.00019923	0.00020232	5.5707e-05	1107.8	2.2908e-06	2.111e-06	1197.3	242.95	2.1948e-06	2.1117e-06	304.51	83.886	65.953	19.526	2.1081e-06	27.354	166.341	97.759	95.124	3.826	193.367	157.577	4.405	11.474	154.480	156.092	10.926	18.073	18.654	24.983	143.865	24.758	-8191	255	
627.644	1	1	0	0	0.014263	0.30765	0.16732	0.34485	0.28521	0.2538	0.17159	0.16751	0.18671	0.055319	0.16696	0.071062	0.043842	0.16697	0.12209	0.21886	-2.0438	-2.6667	-2.7417	-2.525	-2.7479	-2.7687	-2.6292	-2.9562	-2.4458	-2.5958	-2.8812	-2.3542	-2.8187	-2.6958	-2.45	-3.0229	69.119	201.200	129.389	315.723	224.455	246.081	208.673	234.713	315.403	253.941	86.207	16.814	57.021	28.332	33.451	14.242	0.00013223	0.00014574	0.00011374	1123.8	2.4638e-06	3.3511e-06	1219.6	245.17	2.5967e-06	3.2175e-06	307.13	83.567	65.995	19.457	2.6533e-06	27.388	0.00019822	0.00019227	5.4185e-05	1105.1	2.2904e-06	2.1855e-06	1197.3	242.85	2.2395e-06	2.1983e-06	304.59	84.177	66.006	19.646	2.1903e-06	27.483	158.545	69.149	87.080	3.941	202.455	171.375	4.381	11.566	191.567	172.812	11.266	18.064	18.034	24.874	202.587	24.485	-8191	255	
627.716	1	1	0	0	0.36428	0.27839	0.057362	0.099306	0.18363	0.096507	0.2121	0.21947	0.11886	0.28283	0.027959	0.27575	0.17932	0.27365	0.18444	0.14854	-2.1771	-2.5729	-2.9813	-2.575	-2.6208	-2.825	-2.6188	-2.7646	-2.5167	-2.6479	-2.9958	-2.4042	-2.8438	-2.7146	-2.2438	-2.8979	320.595	196.176	224.434	302.031	46.491	53.476	208.038	4.194	112.633	342.832	41.545	248.429	9.671	300.789	305.017	305.300	0.00013567	0.00033928	5.4898e-05	1128.4	2.7518e-06	3.0732e-06	1221.3	245.95	2.8358e-06	3.8414e-06	308.11	83.421	65.647	19.622	2.8819e-06	27.201	0.00019844	0.00020062	5.2964e-05	1106.7	2.3172e-06	2.0893e-06	1197.2	243.12	2.2234e-06	2.1817e-06	304.88	84.076	65.998	19.708	2.2572e-06	27.372	170.031	85.605	106.332	4.135	179.951	116.566	4.225	11.129	157.076	131.588	11.167	18.245	18.279	24.759	147.184	24.761	-8191	255	
627.837	1	1	0	0	0.072326	0.14544	0.20127	0.31305	0.15525	0.049633	0.17177	0.15381	0.20888	0.1339	0.20569	0.28466	0.25236	0.090074	0.062218	0.11716	-1.9917	-2.4854	-2.7	-2.5521	-2.5583	-2.8854	-2.5542	-2.8729	-2.5042	-2.3375	-2.8	-2.3104	-2.6562	-2.7583	-2.2708	-2.9354	203.326	196.129	296.094	325.264	287.386	5.278	328.628	198.787	125.104	158.326	343.932	7.884	348.565	236.824	323.016	74.981	0.00011385	0.0002093	7.5177e-05	1126.9	4.1566e-06	2.3365e-06	1220.6	244.81	2.6571e-06	2.4213e-06	308.23	83.726	65.922	19.525	2.6761e-06	27.139	0.00020452	0.00020309	5.6199e-05	1106.7	2.2877e-06	2.118e-06	1199.9	243.04	2.2675e-06	2.2378e-06	304.47	84.095	66.139	19.617	2.2535e-06	27.392	171.074	95.971	136.658	4.095	165.853	131.297	4.251	11.314	161.704	180.418	10.956	17.958	18.317	24.996	147.077	24.821	-8191	255	
627.931	1	1	0	0	0.27195	0.1849	0.22102	0.34568	0.047633	0.15217	0.065139	0.2844	0.16072	0.19094	0.15532	0.066598	0.25215	0.029196	0.17752	0.26271	-2.2396	-2.4083	-2.5479	-2.4583	-2.6125	-2.8896	-2.5542	-2.7583	-2.9688	-2.3625	-3.0333	-2.675	-2.5875	-2.7854	-2.3563	-2.6146	328.025	186.462	216.616	292.244	62.246	277.231	248.218	278.033	225.184	40.680	351.512	43.049	222.418	302.111	27.787	16.708	0.00012022	0.00031241	9.3533e-05	1128.5	2.3894e-06	4.1768e-06	1215.2	244.1	2.9601e-06	4.21e-06	307.01	83.216	65.631	19.377	4.2413e-06	26.996	0.00019519	0.00020184	5.5755e-05	1107.7	2.2626e-06	2.1507e-06	1196.2	242.72	2.1533e-06	2.2243e-06	304.05	83.883	65.926	19.565	2.1262e-06	27.269	176.212	91.458	106.114	4.211	209.230	163.790	4.353	11.228	162.012	134.906	11.028	18.058	18.468	25.379	150.887	24.768	-8191	255	
628.027	1	1	0	0	0.20513	0.092656	0.06255	0.36082	0.15209	0.21708	0.11449	0.27367	0.15469	0.26833	0.10436	0.0058614	0.25528	0.10276	0.25783	0.035261	-2.3438	-2.3479	-2.7896	-2.75	-2.4958	-3.0312	-2.7667	-3.0042	-2.7729	-2.5687	-2.9813	-2.6542	-2.6792	-2.9688	-2.5104	-2.9146	217.291	84.560	134.047	322.334	222.340	321.070	38.891	272.654	10.149	152.343	282.664	218.239	327.879	24.242	255.122	220.937	0.00013928	0.00030729	0.00011921	1128.4	2.1589e-06	2.4374e-06	1218.4	243.79	2.6732e-06	4.9065e-06	308.31	82.73	65.631	19.335	2.8681e-06	27.119	0.00019497	0.00020125	5.4733e-05	1105	2.316e-06	2.1741e-06	1196.1	241.61	2.136e-06	2.078e-06	304.33	83.681	65.908	19.549	2.185e-06	27.287	172.485	71.078	89.745	4.103	191.904	152.720	4.502	11.323	190.340	118.195	11.138	17.916	18.273	25.080	156.861	24.488	-8191	255	
628.123	1	1	0	0	0.13361	0.12228	0.10734	0.2784	0.10242	0.1669	0.25755	0.11827	0.12881	0.17008	0.037765	0.3615	0.11089	0.35853	0.18355	0.13483	-2.3854	-2.3854	-2.7667	-2.8417	-2.5146	-2.9646	-2.4583	-2.7042	-2.9021	-2.4208	-2.8042	-2.6854	-2.5583	-3.0146	-2.3167	-2.6708	35.061	63.386	213.569	342.775	107.648	91.958	296.388	314.674	186.426	36.741	73.332	291.779	173.050	52.940	138.323	98.147	0.00014849	0.00037775	8.8132e-05	1128.2	1.0054e-06	2.1292e-06	1218.6	243.84	2.1959e-06	4.4684e-06	309.31	83.669	65.855	19.465	2.8998e-06	27.118	0.00020102	0.00020077	5.409e-05	1104.8	2.2624e-06	2.0416e-06	1197.1	242.39	2.1871e-06	2.1729e-06	305.15	83.966	65.866	19.573	2.1763e-06	27.343	172.418	146.736	123.076	4.037	182.131	126.268	4.276	11.187	211.566	142.343	11.077	18.176	18.434	25.171	172.084	24.342	-8191	255	
628.244	1	1	0	0	0.063158	0.021415	0.21816	0.29934	0.1038	0.046353	0.1674	0.34397	0.18299	0.21897	0.19532	0.10916	0.17402	0.09655	0.050502	0.096562	-2.3563	-2.2812	-2.6063	-2.9208	-2.1292	-2.8354	-2.7583	-2.6229	-2.875	-2.4521	-2.7458	-2.9125	-2.4479	-3.0146	-2.5667	-2.5438	138.031	286.544	104.523	317.348	71.992	4.695	246.371	271.356	13.280	28.996	329.338	37.107	216.029	351.563	352.165	346.452	0.00011911	0.00021912	0.00012222	1127.2	5.8301e-06	3.472e-06	1217.4	244.1	1.5904e-06	3.658e-06	305.81	83.183	65.724	19.27	4.0235e-06	27.062	0.00019916	0.00020116	5.4832e-05	1103.2	2.3969e-06	2.1317e-06	1196.1	241.92	2.2e-06	2.2245e-06	303.79	83.471	65.794	19.454	2.204e-06	27.273	161.785	115.135	96.491	3.758	174.850	157.086	4.526	11.423	174.443	169.914	11.132	18.272	18.583	25.173	159.450	24.778	-8191	255	
628.340	1	1	0	0	0.14871	0.17444	0.1523	0.30763	0.071347	0.098115	0.30091	0.076888	0.10638	0.11356	0.29546	0.1221	0.13732	0.017687	0.14486	0.18389	-2.6271	-2.5312	-2.7979	-2.9104	-2.2896	-2.9938	-2.825	-2.5687	-3.0646	-2.4458	-2.575	-2.7208	-2.3479	-2.8542	-2.5958	-2.4333	180.887	344.658	215.601	-4.889	60.301	49.324	218.304	300.325	0.932	222.766	316.621	-0.358	308.673	52.316	60.864	325.427	0.00012468	0.00036926	0.00013118	1126.8	2.3275e-06	3.5882e-06	1219.1	243.82	2.0813e-06	3.055e-06	307.93	83.26	65.245	19.275	4.9224e-06	26.958	0.00019331	0.0002057	5.4776e-05	1104	2.2614e-06	2.1407e-06	1197.7	242.1	2.1355e-06	2.2194e-06	304.12	83.428	65.625	19.448	2.1423e-06	27.238	177.866	90.935	97.315	3.845	196.856	139.473	4.199	11.244	182.121	165.861	11.282	18.369	18.316	24.753	168.269	24.882	-8191	255	
628.412	1	1	0	0	0.37038	0.10736	0.067445	0.033074	0.25884	0.081252	0.14081	0.2436	0.3209	0.16895	0.16617	0.14868	0.088657	0.19523	0.18684	0.24811	-2.3708	-2.2833	-2.6167	-2.9625	-2.3667	-2.7625	-2.6437	-2.3042	-3.0187	-2.6542	-2.6937	-2.95	-2.3271	-2.7375	-2.6312	-2.7	184.683	235.115	143.523	15.764	322.680	340.219	235.648	334.068	-0.942	244.796	236.583	-6.772	91.427	329.741	274.300	123.365	0.00013952	0.00042771	7.1709e-05	1123.2	2.0839e-06	3.7413e-06	1217.8	242.67	2.7632e-06	4.4407e-06	309.23	83.198	65.659	19.296	3.2524e-06	26.961	0.00019373	0.00020521	5.6708e-05	1102.8	2.3618e-06	2.1886e-06	1196	241.61	2.2907e-06	2.1839e-06	305.37	83.714	65.818	19.478	2.2552e-06	27.221	168.821	85.919	64.179	4.074	190.644	159.503	4.264	11.212	178.772	175.086	11.123	18.131	18.552	25.223	143.384	24.485	-8191	255	
628.532	1	1	0	0	0.21361	0.22081	0.016832	0.2452	0.19745	0.12744	0.17838	0.10768	0.10794	0.040279	0.30731	0.31654	0.028355	0.2775	0.030321	0.14701	-2.325	-2.4917	-2.5333	-3.0271	-2.3063	-2.7729	-2.75	-2.4813	-2.8708	-2.6792	-2.7771	-2.8375	-2.4271	-2.6583	-2.6792	-2.4417	255.814	104.013	19.029	6.340	279.405	233.702	262.009	256.359	15.230	110.661	263.685	260.212	160.075	330.888	342.811	216.750	0.00014102	0.00012338	9.5151e-05	1125.4	3.5696e-06	3.0239e-06	1219.3	243.79	1.1421e-06	2.7305e-06	307.85	82.844	65.526	19.212	3.2126e-06	26.829	0.00019899	0.00019837	5.6859e-05	1104.3	2.3511e-06	2.1909e-06	1195.7	241.95	2.2358e-06	2.1596e-06	304.37	83.535	65.597	19.421	2.2645e-06	27.149	177.267	105.044	78.156	3.853	169.562	158.628	4.491	11.512	156.063	173.847	11.148	17.847	18.549	25.004	158.829	25.033	-8191	255	
628.628	1	1	0	0	0.32613	0.32411	0.066053	0.49431	0.19247	0.074685	0.098006	0.27737	0.11045	0.12091	0.20858	0.19413	0.13864	0.29684	0.10296	0.16945	-2.3667	-2.5958	-2.6396	-3.0958	-2.325	-2.7687	-2.8604	-2.3688	-2.9292	-2.75	-2.5812	-2.9958	-2.4521	-2.7292	-2.9062	-2.525	225.823	348.250	96.468	317.795	94.428	113.534	239.917	291.605	164.070	301.516	5.805	313.067	143.836	334.457	319.960	175.598	0.00011806	0.00022063	6.1266e-05	1130.4	2.8856e-06	2.8055e-06	1215.9	244.16	3.3977e-06	3.849e-06	306.55	82.982	65.236	19.201	2.0387e-06	26.912	0.00019993	0.00020406	5.4465e-05	1105.7	2.2518e-06	2.1607e-06	1194.7	241.78	2.2564e-06	2.1713e-06	303.56	83.426	65.711	19.443	2.2884e-06	27.206	164.736	108.159	112.316	4.021	186.018	137.198	4.320	11.502	166.290	108.109	10.994	18.080	18.136	25.161	182.386	24.966	-8191	255	
628.725	1	1	0	0	0.11028	0.25332	0.15645	0.33331	0.19548	0.28947	0.16098	0.34463	0.097998	0.15693	0.09051	0.10852	0.17339	0.20078	0.25807	0.047612	-2.4562	-2.6937	-2.5833	-3.1021	-2.8625	-2.675	-3.1104	-2.3	-2.7042	-2.7917	-2.6125	-3.0896	-2.6875	-2.5333	-2.8917	-2.4979	212.143	321.296	328.890	20.887	207.977	144.382	242.610	283.967	331.927	34.134	24.003	256.434	341.730	106.703	169.073	50.933	0.00013279	0.00028941	0.00011383	1128.4	1.5175e-06	4.4268e-06	1212.5	244.92	2.9288e-06	2.6595e-06	308.04	82.959	65.445	19.307	9.7241e-07	27.167	0.00019177	0.00019624	5.7731e-05	1104.7	2.2869e-06	2.28e-06	1196.4	242.61	2.3073e-06	2.1862e-06	304.69	83.779	65.75	19.507	2.2707e-06	27.322	166.180	94.752	96.384	4.082	225.140	131.962	4.288	11.579	136.173	103.853	10.913	18.302	18.577	24.983	107.893	24.758	-8191	255	
628.821	1	1	0	0	0.22416	0.031025	0.18512	0.3029	0.077977	0.20151	0.083282	0.1441	0.12635	0.14005	0.14463	0.10289	0.24858	0.21887	0.1001	0.19177	-2.2729	-2.7708	-2.2875	-3.0083	-2.4854	-2.2958	-3.0396	-2.5062	-2.7562	-2.725	-2.5625	-2.9437	-2.6646	-2.7146	-2.8854	-2.5125	135.783	-0.880	7.820	335.926	126.634	163.413	317.153	276.822	116.768	264.097	-4.277	290.819	59.924	275.347	23.035	339.649	0.00013453	0.00049645	7.804e-05	1128.4	8.8363e-07	2.3194e-06	1217.7	244.8	2.1269e-06	5.2812e-06	308.46	83.316	65.495	19.411	3.3321e-06	27.044	0.0002008	0.00020108	5.7532e-05	1106.6	2.3402e-06	2.1465e-06	1197.4	242.66	2.2869e-06	2.2736e-06	304.74	83.828	65.784	19.503	2.2307e-06	27.274	169.033	97.158	77.450	4.032	209.594	146.064	4.219	11.344	196.015	145.020	11.183	18.227	18.729	25.543	131.853	24.640	-8191	255	
628.940	1	1	0	0	0.052699	0.2495	0.13952	0.31695	0.1668	0.19189	0.1348	0.23526	0.34955	0.23842	0.16865	0.10104	0.073087	0.20284	0.17975	0.27301	-2.1521	-2.7896	-2.4125	-3.0312	-2.5229	-2.5312	-2.9917	-2.5333	-2.5708	-2.8708	-2.4396	-2.875	-2.6375	-2.7208	-2.9792	-2.4979	309.285	236.491	61.789	338.286	122.512	84.118	343.616	344.748	89.717	25.917	345.001	269.405	286.436	337.449	77.761	130.344	0.00011464	0.00017185	0.00010941	1123.6	2.2492e-06	1.8162e-06	1214.2	244.94	3.2588e-06	3.5595e-06	308.68	83.422	65.617	19.221	1.9916e-06	26.985	0.00019843	0.00020236	5.9547e-05	1104.9	2.4472e-06	2.2756e-06	1196.2	242.64	2.3206e-06	2.2006e-06	304.45	83.835	65.821	19.468	2.203e-06	27.245	160.163	103.978	112.250	3.777	181.179	157.990	4.243	11.375	180.241	127.451	11.159	18.250	18.193	25.142	175.582	24.621	-8191	255	
629.011	1	1	0	0	0.19668	0.33999	0.065032	0.25338	0.27344	0.18899	0.17211	0.052884	0.13361	0.26345	0.19673	0.22747	0.077977	0.13593	0.068719	0.066198	-2.1417	-2.6875	-2.3563	-2.7854	-2.7292	-2.4062	-3.0729	-2.6771	-2.7708	-2.8312	-2.6354	-2.7958	-2.9125	-2.4833	-2.9021	-2.7812	142.534	188.987	139.415	289.345	199.329	233.713	6.891	290.960	116.211	34.595	322.983	10.931	73.794	71.594	52.628	95.573	0.00012059	0.00039535	5.9924e-05	1126.7	2.3131e-06	4.7113e-06	1221.1	244.07	1.6451e-06	2.3224e-06	306.7	82.88	65.3	19.172	2.7017e-06	26.909	0.00020341	0.00020037	5.8024e-05	1106.2	2.2928e-06	2.2439e-06	1197.7	242.47	2.2732e-06	2.1688e-06	304.12	83.666	65.659	19.463	2.33e-06	27.229	165.043	87.656	22.919	4.068	205.164	144.029	4.583	11.332	190.869	126.980	10.734	18.170	18.321	25.188	171.404	25.039	-8191	255	
629.107	1	1	0	0	0.10758	0.070568	0.078466	0.15199	0.14456	0.19908	0.22	0.18658	0.21964	0.085951	0.21001	0.11821	0.028961	0.18485	0.10209	0.39629	-2.1437	-2.9062	-2.4646	-2.7604	-2.7896	-2.5187	-2.9854	-2.7521	-2.4625	-2.8583	-2.7167	-2.5417	-2.8208	-2.3021	-2.8479	-2.7875	261.359	333.022	268.882	24.573	347.773	170.151	247.651	235.989	253.088	287.650	242.052	264.231	64.876	335.360	118.547	243.921	0.00011123	0.00028156	9.3004e-05	1127.1	1.3427e-06	3.8505e-06	1220.5	243.58	2.1186e-06	1.2564e-06	306.75	83.272	65.823	19.349	2.8968e-06	26.687	0.00020708	0.00020382	5.8964e-05	1106.1	2.3438e-06	2.2379e-06	1196.8	242.17	2.449e-06	2.2308e-06	303.94	83.508	65.741	19.385	2.3097e-06	27.123	177.689	89.328	87.509	4.046	147.568	166.104	4.415	11.335	120.991	50.527	11.088	18.080	18.328	25.182	104.054	24.913	-8191	255	
629.204	1	1	0	0	0.3099	0.1199	0.090774	0.14598	0.13611	0.092243	0.15799	0.013261	0.39488	0.036588	0.033354	0.2745	0.15833	0.13654	0.10283	0.078977	-1.9208	-2.8333	-2.4604	-2.5958	-2.9896	-2.45	-3.0479	-2.5958	-2.4271	-2.9375	-2.5167	-2.6792	-2.9479	-2.6417	-2.8937	-2.9562	326.682	237.667	14.748	0.691	288.233	129.991	346.214	86.691	200.724	90.488	212.056	309.119	336.334	293.928	215.001	228.048	0.0001393	8.2877e-05	9.721e-05	1132.2	2.003e-06	2.6646e-06	1210.8	243.75	2.4787e-06	2.7945e-06	308.13	82.798	65.474	19.135	4.2254e-06	26.721	0.00021335	0.00020857	5.6411e-05	1108	2.3555e-06	2.234e-06	1195.7	241.96	2.2757e-06	2.3073e-06	304.6	83.414	65.637	19.416	2.2434e-06	27.087	161.267	93.933	91.346	4.095	177.580	156.629	4.387	11.435	168.926	152.502	10.730	18.194	18.068	25.451	117.283	24.783	-8191	255	
629.324	1	1	0	0	0.26954	0.067423	0.2759	0.26621	0.29407	0.28037	0.29489	0.35173	0.20675	0.16815	0.17284	0.12337	0.28321	0.062693	0.11122	0.06118	-1.875	-2.9229	-2.5833	-2.6396	-2.6833	-2.4917	-2.8729	-2.8479	-2.2458	-3.0375	-2.7792	-2.6542	-2.8917	-2.3812	-2.6437	-2.9125	35.756	136.098	315.429	319.151	291.384	75.131	314.470	307.515	147.802	167.873	346.833	265.660	340.272	260.865	115.000	137.544	0.00014385	0.00038216	0.00013572	1127.4	1.7399e-06	2.1899e-06	1221.3	243.57	2.437e-06	4.2889e-06	307.72	83.049	65.508	19.1	2.9272e-06	26.699	0.00020981	0.00021012	6.0729e-05	1105.6	2.3913e-06	2.303e-06	1197.1	242.02	2.4696e-06	2.2318e-06	304.62	83.65	65.674	19.412	2.2939e-06	27.045	164.852	134.863	90.015	4.082	185.311	110.009	4.447	11.431	187.664	138.049	10.814	18.120	18.444	24.934	126.950	24.570	-8191	255	
629.420	1	1	0	0	0.037196	0.26048	0.12562	0.17359	0.1713	0.17303	0.12126	0.17366	0.14515	0.041511	0.062714	0.086693	0.067961	0.31527	0.20744	0.15877	-1.9813	-2.9146	-2.8021	-2.7354	-2.9021	-2.4062	-2.8354	-2.8771	-2.4667	-2.8937	-2.5875	-2.6021	-2.8937	-2.4938	-2.5667	-2.7938	302.985	329.329	237.676	279.577	234.490	103.208	279.206	127.245	243.493	216.681	38.676	4.768	146.594	305.863	170.389	9.444	0.00013944	0.00049678	9.0178e-05	1128.6	2.5882e-06	4.7027e-06	1223.9	244.59	3.2165e-06	4.2306e-06	307.12	82.614	65.023	19.259	2.9389e-06	27.069	0.00020913	0.00020862	5.9279e-05	1106.8	2.2992e-06	2.2291e-06	1198.9	242.38	2.4284e-06	2.2872e-06	304.53	83.575	65.606	19.435	2.3382e-06	27.204	169.494	60.897	81.091	4.257	192.706	148.391	4.222	11.524	162.884	141.850	10.847	17.739	18.165	24.882	111.568	24.992	-8191	255	
629.517	1	1	0	0	0.10767	0.25208	0.24219	0.17143	0.1964	0.29143	0.22786	0.16848	0.11409	0.20189	0.20504	0.3884	0.13484	0.25033	0.10503	0.16096	-1.7896	-2.6625	-2.6312	-2.3146	-2.8812	-2.6917	-2.6854	-2.8229	-2.2708	-2.7854	-2.6208	-2.4208	-2.9521	-2.5625	-2.3688	-2.8646	28.139	40.506	255.926	311.992	316.859	208.475	301.608	42.504	267.571	182.972	50.786	303.159	79.343	315.047	218.896	-6.144	0.00013971	0.00048857	9.0866e-05	1129.3	3.5915e-06	2.6183e-06	1214.5	243.49	3.5638e-06	3.3031e-06	310.36	83.374	65.207	19.294	2.8783e-06	27.069	0.00021313	0.00021177	5.7442e-05	1105.5	2.4805e-06	2.2804e-06	1196.2	241.98	2.3547e-06	2.225e-06	305.3	83.685	65.723	19.472	2.3197e-06	27.25	174.890	97.520	64.129	3.987	161.653	151.555	4.448	11.342	189.773	169.981	11.125	18.154	18.925	24.972	160.449	24.869	-8191	255	
629.613	1	1	0	0	0.092586	0.15472	0.13271	0.083851	0.20444	0.13789	0.17704	0.11216	0.18737	0.25912	0.08283	0.2388	0.17715	0.30167	0.37596	0.25279	-2.0208	-2.8	-2.8479	-2.5187	-2.9	-2.6375	-2.6562	-2.8417	-2.3104	-2.6083	-2.9354	-2.5854	-2.8729	-2.7292	-2.5	-2.8771	293.053	256.315	287.935	256.008	120.958	92.570	302.855	57.090	137.356	23.568	119.450	82.579	307.587	206.074	245.486	268.802	0.00015205	0.000163	0.00010703	1129.3	2.0956e-06	3.8656e-06	1219.5	243.83	1.5489e-06	3.2224e-06	307.83	82.496	65.892	19.296	2.0946e-06	26.876	0.00020477	0.00021013	5.7713e-05	1107.7	2.3533e-06	2.3461e-06	1199.3	242.26	2.4374e-06	2.3378e-06	305.04	83.416	65.827	19.428	2.2907e-06	27.177	162.583	49.303	101.740	4.219	186.764	93.581	4.195	11.353	181.943	148.672	11.043	18.244	18.412	24.958	142.948	24.869	-8191	255	
629.709	1	1	0	0	0.19691	0.064709	0.16027	0.13146	0.2127	0.090738	0.23368	0.096662	0.1178	0.065545	0.037112	0.028402	0.18241	0.18848	0.032013	0.1857	-2.0729	-2.6854	-2.7229	-2.6063	-2.8146	-2.8333	-2.6979	-2.9958	-2.3396	-2.8417	-2.9896	-2.4813	-2.8208	-2.6396	-2.4375	-2.7562	208.817	175.240	213.321	311.489	99.825	94.967	264.925	201.168	164.619	291.239	100.038	42.197	273.095	262.985	158.042	160.561	0.00013772	0.00043649	0.00010139	1131.1	3.0109e-06	4.0242e-06	1217.2	244.35	2.9308e-06	2.9519e-06	307.92	82.518	65.291	19.094	2.7986e-06	27.073	0.00020991	0.00021763	6.0591e-05	1107.4	2.3998e-06	2.3255e-06	1196.9	242.26	2.3828e-06	2.3308e-06	304.32	83.337	65.582	19.325	2.3145e-06	27.181	174.064	78.819	84.334	4.220	196.878	135.116	4.373	11.236	176.037	121.860	11.209	17.941	18.711	25.199	176.674	24.834	-8191	255	
629.805	1	1	0	0	0.17583	0.14941	0.12399	0.14303	0.16936	0.0085333	0.22136	0.038456	0.21444	0.22547	0.30217	0.11427	0.24791	0.1513	0.25562	0.16278	-2.1854	-2.4833	-2.8792	-2.6396	-2.6167	-2.7771	-2.6042	-2.8083	-2.5708	-2.5229	-2.9625	-2.4417	-2.8042	-2.7271	-2.525	-2.8792	336.402	181.219	191.946	336.436	78.484	100.723	320.476	272.680	61.474	265.454	292.640	295.405	272.617	340.720	306.772	272.394	0.0001549	0.00030182	8.4759e-05	1131.1	4.0074e-06	3.3219e-06	1220.1	244.93	3.49e-06	4.1993e-06	307.85	83.119	65.151	19.122	2.0882e-06	26.859	0.00021074	0.0002137	5.7903e-05	1107.3	2.3928e-06	2.2704e-06	1197.8	242.34	2.3845e-06	2.2923e-06	303.96	83.392	65.529	19.349	2.3477e-06	27.043	163.029	100.662	95.130	3.998	193.072	121.449	4.474	11.537	207.877	152.079	11.320	17.802	18.554	25.335	151.832	24.904	-8191	255	
629.926	1	1	0	0	0.049517	0.022958	0.044872	0.30494	0.08332	0.19289	0.25288	0.24119	0.076996	0.23825	0.14994	0.26325	0.03067	0.14522	0.016821	0.18612	-2.15	-2.375	-2.8583	-2.5333	-2.6792	-2.8125	-2.65	-2.9313	-2.5333	-2.4104	-3.0125	-2.6229	-2.7625	-2.9562	-2.4375	-2.8333	302.868	347.080	8.100	6.501	64.986	154.856	282.104	282.740	317.249	242.569	93.778	344.997	261.131	188.433	120.668	229.124	0.00013529	0.00029912	9.9141e-05	1126.8	2.5993e-06	2.7678e-06	1217.4	242.76	2.5856e-06	5.0944e-06	307.15	82.985	65.206	19.173	2.1818e-06	27.019	0.00020322	0.0002107	5.7364e-05	1104.1	2.4578e-06	2.2782e-06	1195.4	241.32	2.267e-06	2.3289e-06	303.73	83.387	65.644	19.373	2.2627e-06	27.088	177.322	82.588	105.743	3.805	190.932	137.202	4.313	11.360	176.885	109.305	10.922	18.011	18.669	25.208	166.273	24.747	-8191	255	
630.020	1	1	0	0	0.11411	0.1177	0.097161	0.27962	0.091362	0.10226	0.23099	0.17621	0.057389	0.062632	0.28121	0.15121	0.25004	0.064246	0.032621	0.16543	-2.2542	-2.3604	-2.8771	-2.5896	-2.6083	-2.8917	-2.5	-2.7792	-2.6	-2.425	-2.9646	-2.55	-2.675	-2.6604	-2.3833	-2.7458	270.866	292.351	10.466	2.694	263.132	235.127	280.157	224.608	223.116	26.862	304.725	227.620	297.478	234.125	300.796	269.865	0.00014914	0.00022772	5.0195e-05	1126	2.9159e-06	2.2717e-06	1220.1	243.56	1.9902e-06	3.7484e-06	308.01	82.585	65.663	19.139	2.8039e-06	27.146	0.00020426	0.00020717	5.6881e-05	1104.7	2.3709e-06	2.2247e-06	1198	241.86	2.3139e-06	2.383e-06	304.74	83.568	65.883	19.443	2.3627e-06	27.203	166.711	101.873	63.158	3.890	172.898	156.201	4.530	11.444	202.614	117.756	10.895	18.044	18.365	24.898	155.631	25.008	-8191	255	
630.116	1	1	0	0	0.17041	0.30196	0.081083	0.23825	0.1772	0.25353	0.38507	0.012745	0.18441	0.20272	0.10305	0.12126	0.1378	0.1065	0.17294	0.22562	-2.2833	-2.3333	-2.7938	-2.6312	-2.3792	-2.9479	-2.8354	-2.7771	-2.825	-2.4417	-3	-2.5896	-2.3792	-3.05	-2.4354	-2.7542	74.011	183.999	157.832	-5.215	154.083	52.192	262.124	346.954	300.758	0.025	167.783	277.051	209.910	338.914	145.569	305.414	0.0001505	0.00036188	5.7529e-05	1131.6	3.755e-06	4.4423e-06	1221.8	245.41	2.6409e-06	1.2687e-06	308.69	83.425	65.13	19.149	3.7551e-06	27.113	0.00019911	0.00022027	5.7174e-05	1109.9	2.4127e-06	2.2639e-06	1199.1	242.96	2.409e-06	2.3121e-06	305.25	83.784	65.789	19.392	2.4097e-06	27.196	171.981	87.930	60.896	4.206	199.193	120.250	4.495	11.309	184.916	170.199	11.281	18.647	18.352	25.346	173.455	24.962	-8191	255	
630.237	1	1	0	0	0.12137	0.018733	0.10581	0.40643	0.062281	0.094894	0.3159	0.051288	0.1657	0.18436	0.13991	0.16101	0.26076	0.20695	0.11351	0.19628	-2.1312	-2.4292	-2.7188	-2.5812	-2.3667	-2.825	-2.7938	-2.7479	-2.8563	-2.2667	-2.9271	-2.7188	-2.5333	-2.8667	-2.5167	-2.4896	235.835	190.450	106.621	298.938	130.877	340.207	294.925	196.807	235.828	129.261	316.925	293.394	273.493	127.432	159.567	114.443	0.00012609	0.00050244	7.6694e-05	1126.6	3.3495e-06	4.0822e-06	1220.3	244.04	3.4653e-06	4.0227e-06	309.34	82.319	65.528	19.233	2.2801e-06	26.861	0.00020528	0.00021532	5.9279e-05	1106.1	2.4622e-06	2.3612e-06	1198.9	242.11	2.3853e-06	2.3646e-06	305.08	83.267	65.666	19.362	2.3917e-06	27.09	176.567	77.915	56.378	4.178	164.254	158.391	4.370	11.548	161.778	176.291	11.193	18.147	18.446	24.982	121.271	24.854	-8191	255	
630.308	1	1	0	0	0.090453	0.11355	0.12637	0.04467	0.18581	0.14252	0.29722	0.11745	0.28905	0.293	0.28339	0.32436	0.17726	0.24481	0.069402	0.11631	-2.3438	-2.4208	-2.6646	-2.8563	-2.45	-2.8812	-2.6417	-2.6771	-2.9437	-2.3521	-2.8042	-2.6979	-2.4562	-2.85	-2.6021	-2.5187	331.038	136.895	46.264	26.115	20.192	111.159	262.200	153.600	266.097	138.856	4.950	260.768	55.356	51.395	168.131	305.291	0.00011971	0.00039654	7.7097e-05	1131.4	4.2897e-06	2.9204e-06	1221.1	243.8	2.3251e-06	9.4535e-07	307.5	83.346	65.153	19.254	2.5688e-06	26.802	0.00020933	0.00022154	5.9667e-05	1107.5	2.425e-06	2.2841e-06	1198.4	242.16	2.2534e-06	2.3272e-06	304.05	83.604	65.576	19.33	2.3647e-06	27.061	166.546	51.729	72.978	4.047	167.633	118.816	4.470	11.293	133.883	176.862	10.960	18.262	18.563	25.334	160.223	24.896	-8191	255	
630.405	1	1	0	0	0.11485	0.33461	0.05678	0.21919	0.11848	0.1134	0.30135	0.074695	0.12363	0.064051	0.15297	0.13545	0.15018	0.054159	0.17768	0.20515	-2.475	-2.4854	-2.5167	-2.9583	-2.3729	-2.85	-2.7667	-2.6479	-2.7687	-2.6063	-2.6562	-2.7854	-2.3896	-2.9958	-2.4062	-2.6042	220.301	285.008	82.540	276.057	18.540	116.514	218.171	292.908	337.482	209.293	335.956	62.901	283.712	74.540	242.271	202.125	0.00011749	0.00031009	7.4678e-05	1131.2	1.1091e-06	2.9617e-06	1217	245.32	2.5891e-06	5.178e-06	306.93	83.198	65.183	19.223	2.3983e-06	26.784	0.00021454	0.00021242	6.1531e-05	1106.7	2.3805e-06	2.36e-06	1195.8	242.18	2.3833e-06	2.384e-06	303.78	83.438	65.494	19.392	2.3367e-06	27.05	183.650	111.853	104.811	4.121	207.441	163.087	4.321	11.645	149.872	152.645	11.014	17.986	18.548	25.386	179.819	25.084	-8191	255	
630.501	1	1	0	0	0.038155	0.17169	0.17821	0.2045	0.11593	0.12691	0.33087	0.1444	0.070074	0.065985	0.15511	0.23065	0.14376	0.13962	0.084993	0.19735	-2.5021	-2.2979	-2.6083	-2.7958	-2.35	-2.7604	-2.875	-2.4896	-3.0542	-2.7042	-2.8792	-2.8083	-2.3187	-2.7229	-2.8146	-2.3	175.487	34.360	249.102	322.808	162.148	57.730	324.494	165.775	281.126	37.499	31.194	221.159	92.396	76.017	34.945	282.458	0.00013377	0.00025839	8.0734e-05	1127.6	2.0605e-06	2.2187e-06	1218.1	244.22	1.3224e-06	5.4669e-06	307.32	83.179	65.579	19.247	1.9525e-06	27.004	0.00020772	0.00022083	5.9918e-05	1107.5	2.4555e-06	2.3527e-06	1196.8	241.88	2.3861e-06	2.3342e-06	304.34	83.573	65.484	19.357	2.302e-06	27.194	176.161	87.213	103.387	4.248	197.308	96.371	4.378	11.500	170.671	160.320	11.115	18.151	18.816	25.113	201.027	24.866	-8191	255	
630.621	1	1	0	0	0.08451	0.16455	0.15374	0.13556	0.31409	0.084763	0.18381	0.12326	0.23442	0.12119	0.1119	0.17473	0.14158	0.16606	0.16582	0.15474	-2.5083	-2.5208	-2.5958	-2.8646	-2.3354	-2.8438	-2.8812	-2.3688	-2.925	-2.6646	-2.6937	-2.9	-2.4938	-2.7667	-2.8479	-2.4021	149.513	236.362	23.797	325.770	105.295	343.420	233.457	245.196	317.080	175.234	103.909	210.503	29.118	35.662	196.598	329.915	0.00013476	0.0005053	0.00016261	1129.6	2.6776e-06	3.3905e-06	1218.6	245.18	2.3555e-06	3.1283e-06	308.66	82.176	64.993	19.231	4.0646e-06	26.946	0.00020755	0.00021388	5.9887e-05	1107	2.4093e-06	2.2936e-06	1198.7	242.41	2.4304e-06	2.369e-06	304.38	83.224	65.504	19.392	2.3806e-06	27.103	164.271	44.320	76.219	3.941	154.798	168.431	4.476	11.582	176.667	155.735	10.935	18.217	18.819	25.253	132.727	25.055	-8191	255	
630.718	1	1	0	0	0.37812	0.23805	0.1128	0.035303	0.25437	0.13044	0.18673	0.067131	0.047652	0.39383	0.15891	0.05215	0.2386	0.064386	0.057221	0.14264	-2.3604	-2.5938	-2.4146	-2.8958	-2.4562	-2.8958	-2.9396	-2.6771	-2.625	-2.5875	-2.4458	-2.9479	-2.4729	-2.6813	-2.8208	-2.4604	218.413	217.375	49.235	19.312	99.676	95.426	314.260	266.925	215.966	99.065	265.863	324.710	21.233	186.573	255.900	44.121	0.00012367	0.00039797	7.0224e-05	1129.6	3.909e-06	8.2531e-07	1216.3	245	2.023e-06	2.9471e-06	307.16	83.123	65.23	19.268	2.6568e-06	26.882	0.00020774	0.00022724	6.1406e-05	1106.5	2.465e-06	2.4019e-06	1195.7	242.62	2.3586e-06	2.4181e-06	303.98	83.586	65.574	19.375	2.3852e-06	27.141	172.630	78.925	103.638	4.193	186.367	75.760	4.436	11.534	172.551	181.157	11.056	18.314	18.772	25.304	153.872	24.885	-8191	255	
630.814	1	1	0	0	0.004835	0.22672	0.28341	0.078421	0.24931	0.30136	0.055916	0.14075	0.10464	0.081045	0.17792	0.19394	0.23645	0.10917	0.23725	0.22692	-2.55	-2.7896	-2.5729	-2.9813	-2.6042	-2.7292	-2.9854	-2.4875	-2.9688	-2.6688	-2.5354	-2.825	-2.6021	-2.4979	-2.8708	-2.6167	135.732	143.589	101.021	26.790	155.033	228.990	47.788	20.321	104.795	234.082	13.947	267.612	270.599	9.538	220.966	315.428	0.00013309	0.00027233	0.00011273	1129.8	2.6333e-06	4.6499e-06	1218.9	244.1	2.9082e-06	4.1152e-06	308.61	83.025	65.668	19.263	2.0818e-06	26.952	0.0002022	0.00021308	6.1415e-05	1108.7	2.4312e-06	2.4416e-06	1199	242.18	2.3858e-06	2.2368e-06	304.66	83.592	65.745	19.396	2.237e-06	27.161	172.640	71.129	108.777	4.050	202.652	139.941	4.258	11.535	150.172	135.925	10.997	17.997	18.441	25.079	187.456	24.626	-8191	255	
630.885	1	1	0	0	0.25516	0.071654	0.12583	0.23783	0.11958	0.15966	0.45507	0.12476	0.12555	0.2716	0.10369	0.19535	0.1196	0.040419	0.36431	0.14697	-2.3417	-2.6604	-2.2562	-2.9583	-2.5625	-2.7646	-3.1521	-2.6229	-2.6521	-2.8958	-2.6521	-2.9042	-2.6437	-2.5333	-3.0229	-2.6458	133.624	320.799	21.911	303.589	322.827	302.937	293.039	322.313	84.578	45.146	326.784	317.842	111.165	241.907	176.297	166.212	0.0001482	0.00027173	2.2486e-06	1132.8	2.7207e-06	4.1333e-06	1219.5	244.91	2.93e-06	4.5095e-06	306.47	83.351	65.653	19.083	3.3837e-06	26.886	0.00019949	0.00020436	5.7515e-05	1111.1	2.3389e-06	2.2329e-06	1198.9	242.87	2.2789e-06	2.1674e-06	304.57	83.729	65.858	19.389	2.2522e-06	27.114	171.918	64.337	88.707	3.898	176.648	154.892	4.311	11.497	156.025	143.655	11.092	18.243	18.429	25.103	136.826	24.852	-8191	255	
631.004	1	1	0	0	0.12273	0.29565	0.10267	0.17983	0.15111	0.1312	0.37999	0.089718	0.22589	0.12904	0.11703	0.16835	0.077192	0.094217	0.13124	0.20154	-2.1896	-2.8542	-2.4646	-2.9771	-2.7042	-2.5854	-2.9583	-2.6521	-2.7604	-2.9479	-2.5354	-2.9875	-2.7271	-2.4	-3.0667	-2.5062	292.541	207.849	260.118	18.156	221.868	287.093	324.339	296.742	-5.566	162.841	168.692	34.705	162.680	53.483	153.685	280.712	0.00012449	0.00029804	0.00012608	1139.4	1.6293e-06	4.6957e-06	1215	245.3	1.9699e-06	3.8044e-06	307.48	82.634	65.285	19.197	2.4863e-06	26.947	0.00020189	0.00020107	5.6066e-05	1110.1	2.2636e-06	2.1638e-06	1198.2	242.2	2.2395e-06	2.1839e-06	304.34	83.135	65.598	19.305	2.2215e-06	27.077	174.037	99.259	103.670	3.821	193.124	147.913	4.261	11.154	183.355	160.398	11.090	18.449	18.484	25.491	181.937	24.909	-8191	255	
631.100	1	1	0	0	0.29898	0.22015	0.21085	0.14888	0.32718	0.11984	0.15856	0.22236	0.34727	0.1246	0.10974	0.12132	0.29613	0.14919	0.081601	0.12599	-2.2167	-2.9667	-2.5417	-2.8521	-2.8146	-2.4417	-2.9771	-2.6854	-2.525	-2.8812	-2.4125	-2.9708	-2.6937	-2.4854	-2.9896	-2.7083	220.780	115.497	165.905	341.508	157.118	287.462	186.206	187.000	152.351	316.255	319.861	25.030	39.170	293.006	223.583	352.348	0.00013659	0.00028689	5.4116e-05	1129	2.1426e-06	2.0665e-06	1217	243.19	1.5486e-06	3.654e-06	304.93	82.295	65.002	19.05	2.8498e-06	26.711	0.00020373	0.00020005	5.7735e-05	1104.5	2.333e-06	2.2096e-06	1194	241.07	2.3085e-06	2.1914e-06	302.68	83.226	65.16	19.229	2.2807e-06	27.002	166.054	52.778	68.809	4.117	187.156	162.559	4.424	11.509	169.607	148.276	10.952	18.306	19.059	25.298	128.158	25.077	-8191	255	
631.197	1	1	0	0	0.26315	0.22695	0.10165	0.24178	0.14924	0.17946	0.016793	0.33576	0.098729	0.052948	0.19476	0.06518	0.15583	0.26753	0.24648	0.18278	-2.1063	-2.8812	-2.5687	-2.9125	-2.7833	-2.3854	-2.8812	-2.9188	-2.6604	-2.6667	-2.4917	-2.7875	-3.0854	-2.5646	-2.8396	-2.7938	286.425	261.936	336.235	241.473	290.769	57.038	209.405	349.007	142.860	321.857	38.775	3.834	251.052	39.224	344.560	228.367	0.00014351	0.00041185	0.00012811	1129	4.2554e-06	4.0929e-06	1216.7	242.17	2.4485e-06	2.5018e-06	305.05	82.302	65.011	19.035	3.6359e-06	26.874	0.0002121	0.00022182	6.0815e-05	1103.9	2.4572e-06	2.3488e-06	1195.5	241	2.4166e-06	2.3126e-06	302.86	83.123	65.399	19.28	2.4047e-06	27.07	167.392	79.834	75.911	4.186	183.747	183.489	4.446	11.409	204.683	155.794	11.167	18.256	18.671	25.491	134.998	24.571	-8191	255	
631.317	1	1	0	0	0.22219	0.13491	0.044809	0.20038	0.35213	0.019028	0.19102	0.13557	0.251	0.17693	0.24874	0.21631	0.215	0.13664	0.19788	0.078896	-2.1417	-2.8167	-2.5458	-2.8187	-2.6771	-2.3208	-3.0646	-2.7042	-2.2021	-2.775	-2.5979	-2.6292	-3.0375	-2.4813	-2.7417	-2.6813	287.813	38.857	98.891	9.071	184.861	229.727	270.652	303.942	47.637	112.618	69.936	278.312	140.475	307.443	255.652	332.781	0.00010764	0.00033986	1.6033e-05	1131.1	3.3091e-06	3.6944e-06	1215.8	243.16	1.4438e-06	1.543e-06	306.37	82.533	64.874	19.074	2.7293e-06	26.858	0.00021616	0.00021376	6.1358e-05	1108.4	2.5083e-06	2.4027e-06	1197.3	241.75	2.4449e-06	2.3656e-06	303.31	83.167	65.148	19.236	2.3677e-06	26.967	160.105	76.076	137.274	4.140	185.722	105.235	4.257	11.454	204.303	131.218	10.934	18.200	18.447	25.524	154.977	24.923	-8191	255	
631.413	1	1	0	0	0.04772	0.12737	0.21859	0.23578	0.20619	0.11034	0.20899	0.17234	0.31197	0.056568	0.12852	0.33029	0.091352	0.21645	0.033226	0.044286	-2.2021	-2.825	-2.7042	-2.6021	-2.7708	-2.4333	-2.8458	-2.8063	-2.4375	-2.7979	-2.6729	-2.6125	-2.8438	-2.4813	-2.6063	-2.6917	301.521	172.253	162.846	234.235	314.954	332.835	5.151	271.061	124.091	29.616	14.874	348.135	342.511	82.417	108.152	52.784	0.00012468	0.00020476	5.7105e-05	1121.5	2.0331e-06	2.7711e-06	1214	245.53	2.043e-06	2.4668e-06	306.74	82.092	65.063	18.882	1.8014e-06	26.338	0.00021198	0.00021878	6.2066e-05	1104.9	2.4897e-06	2.4151e-06	1193.4	241.87	2.5567e-06	2.3951e-06	304.11	82.906	65.055	19.177	2.6005e-06	26.83	163.047	51.638	89.981	3.892	161.694	102.001	4.601	11.292	211.791	152.516	11.069	18.062	18.605	25.111	196.280	25.175	-8191	255	
631.509	1	1	0	0	0.27427	0.074467	0.27508	0.29057	0.12651	0.09337	0.24481	0.012704	0.15668	0.10525	0.15098	0.17732	0.23567	0.082641	0.1448	0.13396	-1.8396	-2.8229	-2.7208	-2.4896	-2.7583	-2.4583	-2.7729	-2.8771	-2.4021	-2.6958	-2.7396	-2.6479	-3.0312	-2.5833	-2.6917	-2.8958	193.833	222.074	151.395	-6.203	280.330	28.349	278.895	295.424	125.374	52.590	308.577	340.577	70.001	68.976	57.993	336.622	0.00012633	0.00022924	7.9942e-05	1130.6	2.8424e-06	1.669e-06	1214.4	244.23	1.4026e-06	3.9522e-06	304.94	82.218	64.323	18.844	1.4907e-06	26.592	0.00022574	0.00022623	6.3675e-05	1106.5	2.5776e-06	2.4141e-06	1195.8	241.48	2.5454e-06	2.4767e-06	302.66	82.67	64.909	19.054	2.6295e-06	26.884	166.182	90.970	52.132	4.166	176.134	266.899	4.331	11.300	196.818	172.467	11.285	18.351	18.772	25.650	159.366	24.844	-8191	255	
631.606	1	1	0	0	0.076039	0.33072	0.24372	0.087225	0.19922	0.14159	0.14471	0.28819	0.043352	0.13211	0.23957	0.061136	0.10869	0.275	0.17295	0.15429	-1.9833	-2.7417	-2.6479	-2.5208	-2.8333	-2.4813	-2.7	-2.9458	-2.3458	-2.6167	-2.8104	-2.45	-2.8083	-2.6542	-2.5958	-2.8312	187.505	106.215	245.561	278.065	213.874	228.048	249.552	246.518	244.626	339.180	273.539	286.424	129.288	98.137	271.633	61.924	0.00011699	0.00052508	0.00012801	1123.6	4.5462e-06	3.11e-06	1217.7	242.26	2.0583e-06	3.7947e-06	305.22	81.864	64.818	18.946	3.258e-06	26.414	0.00022793	0.00023365	6.4042e-05	1103.5	2.5674e-06	2.5407e-06	1193.8	240.74	2.4941e-06	2.5544e-06	302.31	82.636	65.047	19.092	2.6295e-06	26.757	167.372	83.328	101.207	4.310	196.250	173.971	4.142	11.627	175.903	156.726	10.912	18.224	19.101	25.294	144.827	24.664	-8191	255	
631.702	1	1	0	0	0.18195	0.082899	0.21528	0.18603	0.23767	0.037688	0.3448	0.17611	0.16282	0.13397	0.081727	0.15266	0.11017	0.037763	0.19511	0.10724	-2.0208	-2.7188	-2.6188	-2.5375	-2.7375	-2.6333	-2.5167	-2.9958	-2.3229	-2.6458	-2.9333	-2.3917	-2.9042	-2.5896	-2.5354	-3.0167	210.953	76.829	86.901	280.483	87.566	163.602	243.304	252.986	343.547	142.857	257.347	201.478	67.502	2.119	27.126	284.861	0.00012343	1.5842e-05	0.0001259	1128.1	2.4777e-06	4.2674e-06	1214.4	243.08	5.3136e-07	3.6622e-06	305.07	82.456	64.551	19.027	3.2473e-06	26.855	0.00022587	0.00022971	6.3287e-05	1105.6	2.6687e-06	2.5365e-06	1194.6	241	2.5408e-06	2.5706e-06	303.15	82.959	65.233	19.149	2.4649e-06	26.992	171.735	215.105	78.242	4.118	177.422	146.264	4.513	11.407	201.351	113.792	11.020	18.216	18.774	25.153	151.319	25.066	-8191	255	
631.798	1	1	0	0	0.11402	0.071547	0.17887	0.24552	0.083156	0.26559	0.24777	0.061598	0.24756	0.10828	0.072028	0.13103	0.088187	0.040129	0.13512	0.14693	-2.0271	-2.6979	-2.8458	-2.5187	-2.7396	-2.6083	-2.6604	-2.8292	-2.6417	-2.4625	-2.7833	-2.4542	-2.7438	-2.7458	-2.3	-2.8833	89.352	233.037	36.302	289.465	224.773	65.678	297.492	181.042	88.176	117.389	329.498	304.438	236.419	105.193	287.192	271.644	0.00012408	0.00030069	0.00012324	1137.4	2.5804e-06	4.2648e-06	1224.2	244.25	1.558e-06	4.3576e-06	308.83	82.822	65.276	19.141	9.7633e-07	26.914	0.00022346	0.00023632	6.4805e-05	1112.1	2.6068e-06	2.5392e-06	1202	242.75	2.5812e-06	2.5275e-06	304.65	83.433	65.57	19.324	2.5544e-06	27.085	179.409	117.378	79.168	4.085	189.121	158.539	4.503	11.388	184.302	126.411	10.766	18.274	18.263	25.338	101.378	24.901	-8191	255	
631.917	1	1	0	0	0.14303	0.20366	0.16951	0.088656	0.098443	0.20239	0.11999	0.32837	0.03388	0.31748	0.34817	0.15008	0.11866	0.18607	0.073423	0.22403	-2.0896	-2.5604	-2.8479	-2.4437	-2.5021	-2.7208	-2.6417	-2.9792	-2.5958	-2.5625	-2.8979	-2.5083	-2.4854	-2.8271	-2.2062	-3.0875	130.322	197.695	171.528	54.380	342.876	201.004	255.783	290.869	121.380	124.614	327.076	99.013	-4.753	266.861	128.538	257.510	0.00013633	0.00042827	0.00014846	1136.4	5.902e-07	2.7351e-06	1229.5	246.13	2.6946e-06	4.3628e-06	308.34	83.262	65.426	19.19	3.3666e-06	26.838	0.00022259	0.00024305	6.4555e-05	1114	2.632e-06	2.5263e-06	1205.2	242.95	2.6165e-06	2.5338e-06	304.94	83.494	65.752	19.378	2.6341e-06	27.116	170.422	65.350	86.069	3.980	161.991	200.892	4.515	11.321	202.047	137.905	10.864	18.464	18.595	25.032	161.590	25.102	-8191	255	
632.013	1	1	0	0	0.2461	0.14366	0.093279	0.10695	0.13854	0.24708	0.18906	0.10672	0.1139	0.18866	0.075166	0.24823	0.31851	0.2161	0.15805	0.20619	-2.2396	-2.5083	-2.8396	-2.7	-2.7979	-2.7833	-2.2833	-2.8229	-2.6063	-2.3333	-3.025	-2.4792	-2.5958	-2.7417	-2.5104	-2.8625	262.737	333.633	62.704	321.972	243.443	-2.458	323.660	18.527	234.304	194.363	131.011	329.924	271.622	204.416	84.167	245.648	0.00012288	0.00030369	0.00010004	1130.3	2.7148e-06	1.9529e-06	1226.2	244.88	2.0584e-06	2.6973e-06	309.06	82.782	65.5	19.275	2.9263e-06	26.878	0.00022916	0.00023599	6.5439e-05	1111.4	2.5988e-06	2.5482e-06	1204.2	242.47	2.5243e-06	2.5699e-06	304.54	83.43	65.758	19.443	2.5223e-06	27.151	174.546	117.936	92.674	4.041	181.900	127.816	4.357	11.332	178.388	144.243	11.304	18.177	18.872	25.058	168.060	24.957	-8191	255	
632.109	1	1	0	0	0.28598	0.092214	0.041628	0.24854	0.33418	0.051405	0.18249	0.060142	0.1785	0.25504	0.10451	0.0065614	0.27596	0.12611	0.10273	0.17416	-2.1229	-2.425	-2.6167	-2.7542	-2.5417	-2.7333	-2.4437	-2.6542	-2.65	-2.4583	-2.5771	-2.4708	-2.5667	-3.0083	-2.4458	-2.8042	14.396	235.653	60.492	93.032	39.981	292.366	291.843	215.490	45.951	270.080	293.673	334.491	145.798	44.807	15.007	299.494	0.00013218	0.00027119	2.747e-05	1130.2	1.7286e-06	3.4395e-06	1221.6	243.81	2.8694e-06	3.8384e-06	307.98	82.377	65.251	19.06	3.8977e-06	26.75	0.00022364	0.0002315	6.6759e-05	1109.3	2.7553e-06	2.5535e-06	1201.8	242.15	2.6266e-06	2.5997e-06	304.43	83.404	65.834	19.324	2.5916e-06	27.06	173.959	93.894	174.305	4.181	176.435	162.145	4.238	11.456	176.821	136.779	11.219	18.363	19.112	25.186	181.570	24.865	-8191	255	
632.181	1	1	0	0	0.082436	0.037013	0.10449	0.075875	0.28217	0.28021	0.23154	0.50995	0.24265	0.18639	0.20425	0.25706	0.093011	0.15989	0.14737	0.20661	-2.0917	-2.4667	-2.8833	-2.5583	-2.8125	-2.8229	-2.5396	-2.8646	-2.6979	-2.2917	-2.9792	-2.6208	-2.6083	-2.9375	-2.5708	-2.7646	158.352	52.570	72.176	223.960	213.568	290.289	216.557	257.133	19.145	97.191	123.589	274.525	334.094	51.091	301.828	345.573	0.00012504	0.00028572	7.2599e-05	1136.4	2.2226e-06	3.348e-06	1222.7	243.88	1.5259e-06	2.5447e-06	307.89	82.72	65.115	19.173	8.4302e-07	27.065	0.00022295	0.00023539	6.4512e-05	1111.2	2.7073e-06	2.455e-06	1200.1	242.88	2.5465e-06	2.5549e-06	304.69	83.496	65.495	19.339	2.4966e-06	27.153	171.972	83.479	71.715	4.149	169.809	154.483	4.148	11.401	144.303	189.093	11.291	17.895	18.754	25.260	147.625	24.988	-8191	255	
632.301	1	1	0	0	0.18513	0.19679	0.066507	0.16667	0.11745	0.13281	0.40366	0.1503	0.16815	0.29726	0.15982	0.29184	0.19455	0.12712	0.13522	0.058671	-2.2271	-2.1583	-2.5417	-2.6562	-2.4417	-2.6646	-2.5729	-2.8104	-2.6417	-2.5396	-2.9708	-2.6375	-2.3875	-2.8333	-2.5583	-2.6667	353.667	129.645	122.725	202.292	87.800	239.457	301.082	328.696	143.845	39.031	25.167	226.960	270.530	291.006	15.314	278.321	0.00011535	0.00035623	5.3012e-05	1133	3.2552e-06	3.4873e-06	1216.4	246.11	2.4808e-06	3.0888e-06	308.86	83.104	65.224	19.215	2.1379e-06	27.086	0.00022509	0.00022926	6.4473e-05	1112.7	2.6089e-06	2.4535e-06	1200.3	243.4	2.542e-06	2.3908e-06	305.38	83.669	65.757	19.411	2.5251e-06	27.213	169.315	71.455	110.862	3.900	181.910	158.653	4.165	12.056	169.770	142.266	11.044	18.366	18.500	25.096	164.125	24.899	-8191	255	
632.398	1	1	0	0	0.14574	0.10376	0.28207	0.2041	0.23381	0.11828	0.19173	0.25618	0.2716	0.10957	0.049022	0.057481	0.1607	0.007845	0.19414	0.12418	-2.4667	-2.2958	-2.6208	-2.825	-2.3167	-2.7604	-2.6792	-2.6396	-2.8312	-2.4146	-2.7833	-2.875	-2.4417	-2.7771	-2.6	-2.6437	281.372	68.636	157.604	251.290	111.912	264.744	308.717	-5.250	37.908	128.532	101.712	142.669	257.220	63.883	108.663	59.486	0.00013833	0.00023222	0.00019094	1131	2.2813e-06	3.3843e-06	1223.2	245.47	2.8012e-06	2.7987e-06	306.92	83.09	65.626	19.208	1.4905e-06	26.751	0.00021404	0.00022673	6.267e-05	1110.7	2.5343e-06	2.4343e-06	1201.9	242.9	2.5147e-06	2.5246e-06	304.55	83.457	65.817	19.419	2.4487e-06	27.139	172.878	101.731	107.952	3.955	203.516	177.200	4.286	11.325	186.398	162.309	10.726	18.095	18.422	25.521	199.811	24.947	-8191	255	
632.494	1	1	0	0	0.17971	0.13233	0.34273	0.1867	0.2429	0.10653	0.056885	0.26257	0.18074	0.14052	0.19854	0.17453	0.37622	0.19227	0.12339	0.25376	-2.4604	-2.4188	-2.5917	-3.0021	-2.4813	-2.8812	-2.9188	-2.5542	-2.8583	-2.5042	-2.7854	-2.7562	-2.5604	-2.8625	-2.55	-2.6729	162.104	236.322	316.975	268.540	189.125	94.155	306.417	330.460	20.559	136.960	294.697	296.156	2.863	346.966	325.930	276.779	0.00013048	0.00027442	8.669e-05	1133.6	2.7377e-06	2.6196e-06	1224	245.33	2.3342e-07	3.8281e-06	306.57	82.972	65.268	19.123	2.3328e-06	27.018	0.00021866	0.00022282	6.1786e-05	1112.1	2.6021e-06	2.3313e-06	1202.8	242.9	2.4487e-06	2.4867e-06	303.93	83.427	65.735	19.359	2.4869e-06	27.211	168.094	103.816	67.884	3.880	194.244	154.405	4.490	11.669	99.661	125.188	11.377	18.715	18.191	25.173	127.227	25.324	-8191	255	
632.590	1	1	0	0	0.14274	0.12617	0.25096	0.059433	0.30824	0.3053	0.24675	0.17267	0.16207	0.28121	0.3448	0.098655	0.02949	0.13292	0.12546	0.15016	-2.3875	-2.4979	-2.4062	-2.9333	-2.2958	-2.9583	-2.8937	-2.7521	-2.8625	-2.5167	-2.6542	-2.9979	-2.4208	-2.6604	-2.6354	-2.5625	312.488	213.158	267.005	338.222	214.486	139.354	324.426	310.977	120.508	219.779	58.042	109.719	281.680	305.083	341.856	318.500	0.0001298	0.00031207	7.6497e-05	1129.6	2.4833e-06	3.6367e-06	1225.2	244.43	3.4983e-06	4.051e-06	306.58	83.038	65.667	19.119	2.014e-06	26.928	0.00021358	0.00022759	6.2251e-05	1111.8	2.4528e-06	2.511e-06	1202.7	242.81	2.4088e-06	2.4605e-06	304.31	83.595	65.725	19.364	2.4559e-06	27.163	165.898	114.776	99.506	4.144	158.204	135.571	4.420	11.399	157.790	172.533	11.000	18.303	18.615	25.114	166.049	24.827	-8191	255	
632.686	1	1	0	0	0.11956	0.1218	0.047854	0.31129	0.31505	0.16854	0.18365	0.28532	0.070311	0.10022	0.17588	0.11703	0.1097	0.1541	0.30431	0.26997	-2.3729	-2.5625	-2.4104	-3.1063	-2.5333	-2.9625	-2.8417	-2.4646	-2.9417	-2.5583	-2.6958	-2.9625	-2.575	-2.6813	-2.7146	-2.3812	91.313	-2.081	314.521	5.676	17.337	238.662	275.256	31.102	306.664	276.014	327.270	146.182	343.548	56.463	175.200	315.199	0.00013765	0.00026843	0.0001506	1134.7	3.5938e-06	3.8757e-06	1224.2	244.38	2.1025e-06	2.0458e-06	307.57	82.947	65.212	19.329	3.5291e-06	26.808	0.00021395	0.00022066	6.2351e-05	1113	2.5493e-06	2.3958e-06	1203.8	242.39	2.508e-06	2.4871e-06	304.96	83.565	65.594	19.396	2.4059e-06	27.104	156.783	85.304	78.731	3.867	165.628	167.761	4.431	11.393	224.677	170.087	10.879	17.909	18.001	25.383	147.916	24.648	-8191	255	
632.782	1	1	0	0	0.07161	0.14785	0.20826	0.36515	0.0085135	0.041524	0.17535	0.098461	0.13307	0.16202	0.1984	0.45154	0.2412	0.15414	0.071912	0.22746	-2.3167	-2.7417	-2.4188	-3.175	-2.6167	-2.6729	-3.0312	-2.4896	-2.6375	-2.6375	-2.6708	-3.1104	-2.6708	-2.5146	-2.9167	-2.6792	316.401	73.893	120.278	283.625	-0.462	253.325	335.432	21.311	186.282	212.139	87.666	285.263	342.708	229.694	324.383	233.056	0.00012633	0.00017796	9.1133e-05	1129.3	2.1813e-06	3.5375e-06	1218.7	243.98	2.6036e-06	4.8908e-06	308.49	82.777	65.262	19.22	2.6849e-06	27.144	0.00021136	0.00023046	6.4684e-05	1108.3	2.5676e-06	2.4382e-06	1201	242.38	2.5122e-06	2.5196e-06	304.76	83.406	65.709	19.401	2.5053e-06	27.189	163.691	88.755	87.436	3.980	198.611	147.970	4.302	11.447	188.261	144.710	11.341	18.034	18.419	24.997	137.363	25.262	-8191	255	
632.878	1	1	0	0	0.060942	0.12936	0.16985	0.098166	0.255	0.10457	0.19153	0.20768	0.086142	0.13319	0.033672	0.18431	0.096209	0.22201	0.22212	0.15128	-2.3542	-2.8979	-2.4104	-3.1396	-2.6542	-2.7083	-2.9771	-2.7146	-2.8875	-2.8583	-2.5	-3.0417	-2.6208	-2.6021	-2.7562	-2.4583	14.004	31.021	340.980	152.747	306.223	306.712	281.267	38.559	204.344	180.939	344.360	109.505	286.186	346.213	70.172	321.553	0.00015882	0.0004096	0.00011641	1137.4	1.0996e-06	4.2941e-06	1225.8	244.53	1.8038e-06	2.8882e-06	307.98	82.544	65.269	19.285	2.8244e-06	26.855	0.00021847	0.00022389	6.1622e-05	1113.7	2.6009e-06	2.5064e-06	1205.4	242.51	2.4632e-06	2.5462e-06	305.25	83.394	65.587	19.429	2.4898e-06	27.119	167.465	90.446	125.532	4.054	133.299	143.417	4.424	11.433	217.717	125.681	10.847	18.343	18.004	25.521	126.531	24.737	-8191	255	
632.997	1	1	0	0	0.072136	0.081231	0.21686	0.27207	0.12231	0.050769	0.10755	0.27006	0.066277	0.057929	0.12751	0.5788	0.26378	0.16215	0.24533	0.053583	-2.1708	-2.7521	-2.3542	-2.9917	-2.5458	-2.5687	-3.1542	-2.4688	-2.8729	-2.7313	-2.6292	-2.8021	-2.725	-2.5958	-3.0583	-2.5396	208.866	144.262	106.030	346.722	158.823	65.285	184.967	30.074	328.184	347.013	214.456	22.508	-2.268	22.714	311.990	152.518	0.00011766	0.00034703	0.00010421	1135.6	3.2214e-06	2.421e-06	1220.6	244.23	3.3834e-06	6.0867e-06	306.71	83.028	65.748	19.366	2.5883e-06	26.725	0.00022013	0.00022798	6.4464e-05	1113.3	2.5771e-06	2.4603e-06	1203.3	242.84	2.5423e-06	2.5491e-06	304.95	83.785	65.748	19.552	2.4471e-06	27.133	164.863	108.887	94.178	4.045	195.303	147.002	3.976	11.355	190.992	153.035	10.755	17.900	18.417	25.197	211.215	24.610	-8191	255	
633.093	1	1	0	0	0.21635	0.22931	0.049495	0.16171	0.0059401	0.053228	0.037071	0.34161	0.37562	0.15458	0.29501	0.27322	0.11183	0.18429	0.085507	0.097565	-2.3083	-2.8479	-2.4229	-2.9125	-2.5854	-2.4542	-3.0458	-2.5625	-2.6958	-2.8812	-2.4771	-2.9188	-2.9	-2.6021	-2.8417	-2.7	150.401	42.581	299.664	317.398	347.090	-3.968	310.145	261.342	61.048	0.138	303.478	247.603	269.013	261.276	116.933	268.011	0.00012547	0.00067117	4.6708e-05	1134.6	2.3926e-06	3.3582e-06	1229.9	243.96	5.322e-07	4.1168e-06	308.35	82.996	65.874	19.33	1.339e-06	27.13	0.00021782	0.00022137	6.1833e-05	1112.6	2.6258e-06	2.4219e-06	1205.8	243.05	2.5518e-06	2.4484e-06	304.65	83.871	66.117	19.517	2.4106e-06	27.268	172.727	67.111	94.171	4.101	153.193	129.476	4.149	11.479	143.956	118.241	11.428	17.748	18.288	25.359	179.920	24.755	-8191	255	
633.190	1	1	0	0	0.14483	0.14552	0.21122	0.43463	0.22931	0.15875	0.12814	0.1109	0.28955	0.37733	0.34061	0.097832	0.23751	0.15528	0.085882	0.28619	-2.0333	-2.7208	-2.3708	-2.7938	-2.6583	-2.5708	-3.1021	-2.6625	-2.6354	-2.9104	-2.5	-2.7042	-2.925	-2.2375	-2.9208	-2.6271	337.558	324.020	155.555	290.691	76.722	34.292	9.119	310.071	297.739	128.366	38.480	9.529	8.851	144.291	75.208	302.390	0.00014702	0.0003307	8.293e-05	1136.7	2.017e-06	3.4166e-06	1225.8	245.84	2.6755e-06	2.8069e-06	308.72	83.69	65.942	19.326	1.9431e-06	27.286	0.00021719	0.00021354	5.9827e-05	1116	2.4854e-06	2.3585e-06	1208.9	243.74	2.3884e-06	2.4324e-06	305.49	83.997	66.14	19.502	2.4076e-06	27.306	171.095	89.536	118.527	4.226	185.060	167.558	4.050	11.280	189.951	209.701	11.049	18.219	18.469	25.089	125.618	24.377	-8191	255	
633.286	1	1	0	0	0.14113	0.11468	0.198	0.093863	0.12002	0.11611	0.092487	0.043733	0.16134	0.09708	0.055121	0.095462	0.067594	0.092433	0.24548	0.131	-2.075	-2.8333	-2.4604	-2.7938	-2.7271	-2.3458	-3.0979	-2.8167	-2.2979	-2.9396	-2.6083	-2.7771	-2.7479	-2.475	-2.7062	-2.9104	21.592	186.472	344.798	265.255	332.044	161.540	279.078	170.584	144.215	303.489	352.040	-2.921	152.555	352.064	171.464	79.910	0.00014536	0.00017507	6.9178e-05	1139.2	3.5903e-06	6.0322e-06	1231.7	245.89	3.4048e-06	4.5933e-06	311.02	83.681	65.745	19.371	3.8104e-06	27.22	0.00021727	0.00021577	6.3403e-05	1117.8	2.5276e-06	2.3355e-06	1210.6	243.9	2.4444e-06	2.3954e-06	307.17	84.131	66.261	19.561	2.3424e-06	27.413	167.521	46.460	78.353	4.344	195.063	166.664	4.334	11.540	185.315	171.264	10.787	18.017	18.445	24.935	140.011	24.523	-8191	255	
633.406	1	1	0	0	0.28063	0.36112	0.080918	0.26715	0.048688	0.23677	0.29666	0.31155	0.19786	0.14248	0.24705	0.20047	0.38744	0.06921	0.041684	0.16482	-2.075	-2.875	-2.4313	-2.6583	-2.9104	-2.4458	-2.9958	-2.8063	-2.35	-2.8229	-2.7167	-2.7438	-3.1042	-2.3708	-2.7479	-2.9542	140.795	330.794	113.864	265.523	155.154	41.411	317.719	-6.142	32.332	132.004	288.142	3.577	325.556	263.894	196.751	132.224	0.00013825	0.00042288	0.00010384	1141.8	3.3779e-06	3.5858e-06	1234.5	246.86	2.7737e-06	3.5954e-06	309.29	83.713	65.758	19.29	2.8896e-06	26.958	0.00020747	0.00021087	5.7631e-05	1122.3	2.3799e-06	2.3489e-06	1212.6	244.28	2.3608e-06	2.3293e-06	306.68	84.279	66.146	19.514	2.4297e-06	27.248	169.305	69.616	69.337	3.858	151.388	121.439	4.343	11.492	192.627	186.951	11.260	18.179	18.569	24.896	166.795	24.606	-8191	255	
633.478	1	1	0	0	0.16696	0.25919	0.10751	0.24683	0.28604	0.089272	0.31872	0.16866	0.088069	0.037852	0.079832	0.25193	0.1512	0.24733	0.262	0.28011	-2.0104	-2.7021	-2.4708	-2.5833	-3.0104	-2.6354	-2.8312	-2.9146	-2.4938	-2.8271	-2.7542	-2.5583	-2.9833	-2.3688	-2.6813	-2.9062	247.183	125.195	61.873	-3.345	328.147	97.804	271.522	-0.234	262.341	132.331	147.272	311.755	287.264	2.422	47.840	96.045	0.00012826	0.00051353	8.0763e-05	1146	2.8824e-06	4.697e-06	1233.1	245.42	2.5068e-06	7.3976e-07	309.25	83.631	66.096	19.398	2.8339e-06	27.024	0.00021287	0.00022247	6.0254e-05	1120.8	2.4898e-06	2.4296e-06	1211.1	243.51	2.5181e-06	2.3901e-06	306.42	84.155	66.209	19.541	2.4506e-06	27.355	171.417	80.077	89.410	4.094	155.287	137.754	4.403	11.437	159.212	216.672	10.947	17.832	18.785	24.906	173.013	24.755	-8191	255	
633.599	1	1	0	0	0.071166	0.21293	0.083523	0.15521	0.013611	0.079073	0.29226	0.16065	0.16495	0.18358	0.040357	0.25875	0.066218	0.12984	0.22233	0.10471	-2.0583	-2.8875	-2.85	-2.5958	-2.9062	-2.4479	-2.6354	-2.8646	-2.5438	-2.7542	-2.9146	-2.3438	-2.8479	-2.3875	-2.6	-3.0021	201.219	142.161	116.372	245.474	67.881	174.209	292.118	307.912	219.097	176.006	0.982	8.684	144.756	331.203	76.215	143.692	0.00014818	0.00039169	8.248e-05	1143.4	3.0781e-06	2.3521e-06	1231.8	244.91	1.855e-06	2.836e-06	311.25	83.474	65.719	19.3	2.5105e-06	27.017	0.00021242	0.00021773	5.99e-05	1122.1	2.4005e-06	2.287e-06	1212.1	244.14	2.406e-06	2.3325e-06	306.6	84.041	66.203	19.489	2.4923e-06	27.26	171.686	94.822	64.865	4.192	176.271	205.545	4.503	11.340	147.709	162.203	10.998	18.531	18.770	25.248	164.281	25.286	-8191	255	
633.695	1	1	0	0	0.12665	0.10359	0.10276	0.16186	0.18116	0.20649	0.16436	0.18454	0.30563	0.094927	0.1427	0.094813	0.21424	0.11928	0.14637	0.22059	-1.8354	-2.8104	-2.6396	-2.4062	-2.9542	-2.5667	-2.4938	-2.9604	-2.4271	-2.6	-2.8479	-2.4125	-2.8583	-2.5417	-2.5187	-2.8812	130.414	216.771	210.096	245.897	90.132	312.819	323.945	343.834	172.027	175.043	38.280	301.636	20.411	19.368	148.397	48.113	0.0001045	0.00033253	9.8279e-05	1140.2	3.0912e-06	4.3545e-06	1227.4	245.67	2.2459e-06	2.4458e-06	308.09	83.167	66.006	19.3	2.8826e-06	27.068	0.00020913	0.00022015	6.1971e-05	1118.3	2.4812e-06	2.3742e-06	1208.5	243.65	2.4578e-06	2.2935e-06	304.99	83.8	66.036	19.47	2.3442e-06	27.223	179.242	87.399	115.565	3.921	156.231	152.676	4.350	11.318	166.654	124.432	11.159	18.226	18.538	25.452	148.209	24.589	-8191	255	
633.791	1	1	0	0	0.31136	0.26065	0.22308	0.20988	0.043801	0.12755	0.14197	0.054999	0.16061	0.1484	0.038949	0.3201	0.15384	0.18803	0.15023	0.20408	-2.0979	-2.6917	-2.8458	-2.4	-2.9771	-2.5771	-2.6312	-2.7687	-2.3896	-2.4938	-2.9896	-2.3771	-2.8312	-2.5875	-2.3604	-3.1354	303.525	316.872	72.899	208.817	175.457	296.952	2.361	38.166	132.798	315.527	350.109	331.494	69.559	62.759	159.181	78.309	0.00011841	0.00038893	0.00011223	1141.4	2.4363e-06	8.3373e-07	1235.2	245.7	2.0919e-06	4.8967e-06	309.58	83.513	66.129	19.414	4.3011e-06	27.24	0.00021039	0.00021649	5.8999e-05	1119.4	2.4681e-06	2.2741e-06	1212.5	244.12	2.4116e-06	2.2944e-06	306.45	84.177	66.348	19.631	2.4041e-06	27.427	172.660	104.368	66.196	4.051	174.279	218.298	4.491	11.305	208.909	111.510	10.780	18.223	18.183	24.851	183.710	24.491	-8191	255	
633.887	1	1	0	0	0.20399	0.15028	0.22667	0.16329	0.084147	0.10958	0.27955	0.13399	0.23041	0.065457	0.28311	0.14802	0.091712	0.12182	0.11932	0.075556	-1.9521	-2.5896	-2.8438	-2.475	-2.8083	-2.625	-2.4208	-3.0062	-2.5083	-2.6208	-2.9542	-2.5563	-2.7625	-2.5646	-2.4979	-3.0042	256.846	21.799	89.326	-0.936	279.449	234.813	222.465	28.454	228.237	304.732	1.315	58.231	126.669	91.603	160.713	12.711	0.00014716	0.00037095	7.6907e-05	1149.9	2.8235e-06	2.3772e-06	1235.7	246.85	2.0498e-06	5.0221e-06	310.37	83.795	66.162	19.534	2.3265e-06	27.23	0.00021824	0.00022407	6.1721e-05	1123.2	2.6094e-06	2.4883e-06	1214	244.57	2.4758e-06	2.3726e-06	307.51	84.419	66.607	19.703	2.5468e-06	27.496	169.237	106.254	73.478	4.043	169.265	174.346	4.194	11.243	229.432	148.307	11.283	17.968	18.426	24.727	171.694	24.260	-8191	255	
633.981	1	1	0	0	0.061924	0.035787	0.25851	0.39758	0.13067	0.096633	0.23138	0.1016	0.13885	0.14875	0.070695	0.1374	0.22191	0.19337	0.2001	0.14269	-2.2542	-2.6104	-2.8542	-2.6312	-2.6229	-2.9625	-2.7667	-2.9375	-2.8354	-2.5521	-2.8979	-2.6333	-2.6604	-2.7958	-2.2438	-2.825	88.850	323.919	6.678	337.298	318.080	98.196	303.463	265.066	84.507	161.298	245.132	349.296	21.896	307.944	154.603	257.311	0.00012535	0.00038891	9.8826e-05	1144.7	2.2419e-06	1.1066e-06	1238.3	246.36	2.4459e-06	5.4776e-06	311.84	84.096	66.593	19.402	3.9778e-06	27.26	0.0002149	0.00022344	6.0397e-05	1123.4	2.4694e-06	2.3939e-06	1215.4	244.98	2.4467e-06	2.3853e-06	307.98	84.609	66.695	19.719	2.4561e-06	27.52	164.631	78.378	108.213	3.962	151.260	125.464	4.155	11.575	157.578	127.977	11.029	18.143	18.640	24.858	152.665	24.702	-8191	255	
634.078	1	1	0	0	0.10781	0.041044	0.19989	0.26162	0.16869	0.27736	0.1501	0.052708	0.20583	0.066592	0.1139	0.1639	0.086595	0.13292	0.052649	0.20289	-2.325	-2.5708	-2.7917	-2.5062	-2.4042	-2.9396	-2.5083	-3.0583	-2.7229	-2.4562	-2.9417	-2.7708	-2.7125	-2.9208	-2.3854	-2.8604	155.089	89.621	-4.704	255.274	338.341	60.859	1.915	251.384	179.683	85.529	310.833	94.610	-5.455	197.643	225.650	132.012	0.00012301	0.0003394	9.091e-05	1146.4	3.2856e-06	1.6211e-06	1238.2	247.85	2.8767e-06	4.4822e-06	310.96	83.483	66.264	19.436	2.7351e-06	27.085	0.00021293	0.00022327	6.1246e-05	1123.8	2.624e-06	2.4229e-06	1213.7	245.34	2.6217e-06	2.5009e-06	307.58	84.213	66.449	19.585	2.5995e-06	27.38	170.302	46.210	87.237	4.024	189.146	169.690	4.285	11.413	177.087	177.058	11.153	18.296	18.428	25.466	189.770	24.927	-8191	255	
634.174	1	1	0	0	0.092019	0.1651	0.08536	0.33299	0.20336	0.094879	0.26286	0.12855	0.19932	0.13788	0.082518	0.095974	0.12274	0.17951	0.23028	0.15131	-2.3708	-2.5187	-3.0042	-2.7167	-2.6229	-2.9458	-2.5917	-2.8292	-2.7042	-2.5729	-2.9958	-2.7062	-2.5	-2.9146	-2.3354	-2.8083	275.363	160.552	292.645	314.445	310.042	142.773	328.945	289.929	279.227	319.316	329.556	5.776	262.795	218.769	226.531	80.155	0.00012938	0.00038898	7.6349e-05	1144.6	2.8509e-06	3.197e-06	1234.8	246.64	1.9888e-06	3.1753e-06	310.58	83.923	65.823	19.326	1.3016e-06	27.06	0.00022188	0.00023899	6.5111e-05	1124.3	2.7254e-06	2.5579e-06	1214.6	244.99	2.5861e-06	2.6009e-06	306.88	84.353	66.372	19.58	2.6266e-06	27.362	167.639	105.271	56.426	4.063	163.392	153.193	4.455	11.370	168.665	109.096	10.960	17.779	18.742	24.756	157.686	24.267	-8191	255	
634.270	1	1	0	0	0.044446	0.068889	0.093663	0.1409	0.301	0.14696	0.28041	0.12261	0.21488	0.078972	0.074189	0.093731	0.17817	0.34095	0.19392	0.20388	-2.3979	-2.2667	-2.6604	-2.8792	-2.5146	-2.95	-2.5563	-2.7812	-2.7833	-2.3354	-2.9667	-2.6875	-2.4875	-2.9833	-2.4542	-2.6083	141.580	297.326	321.280	312.859	283.518	104.737	347.179	226.978	128.519	280.649	336.789	301.728	270.705	340.894	176.395	250.962	0.0001234	0.00024552	0.00011626	1145.1	2.4785e-06	3.5558e-06	1236.3	246.73	1.9689e-06	3.438e-06	312.02	84.031	66.211	19.25	1.8198e-07	27.254	0.00023074	0.00023664	6.5388e-05	1123.3	2.6093e-06	2.4915e-06	1217.2	245.02	2.5843e-06	2.6397e-06	307.75	84.388	66.358	19.483	2.5373e-06	27.336	172.742	62.335	111.958	3.860	187.324	153.550	4.339	11.384	191.664	130.348	10.707	18.233	18.654	25.630	113.433	24.610	-8191	255	
634.366	1	1	0	0	0.06479	0.076807	0.22401	0.12454	0.067946	0.040998	0.23459	0.10016	0.11104	0.18665	0.14018	0.17854	0.11858	0.15897	0.14924	0.25398	-2.4354	-2.3833	-2.8292	-2.8125	-2.5125	-2.6917	-2.9021	-2.5979	-2.7396	-2.4979	-2.9375	-2.6437	-2.6417	-2.9542	-2.4833	-2.6292	8.708	207.217	282.770	294.904	286.608	90.797	290.578	237.530	178.710	195.810	99.165	304.101	1.050	196.986	49.898	29.196	0.00014529	0.00019417	0.00012091	1146.3	1.0243e-06	3.8485e-06	1241.3	246.01	2.7254e-06	3.3058e-06	310.74	83.443	65.853	19.26	3.481e-06	27.036	0.00022049	0.00023179	6.2139e-05	1123.4	2.5135e-06	2.4903e-06	1216.3	244.56	2.4975e-06	2.5784e-06	307.13	84.055	66.48	19.504	2.5521e-06	27.283	171.085	96.978	95.691	4.098	183.680	191.358	4.337	11.403	149.661	156.860	10.803	18.292	18.720	25.249	134.549	24.901	-8191	255	
634.487	1	1	0	0	0.13967	0.14539	0.19975	0.36541	0.081635	0.18673	0.38273	0.10031	0.21228	0.14973	0.1463	0.26974	0.15051	0.19639	0.27207	0.30527	-2.3479	-2.4729	-2.7875	-2.6813	-2.3688	-2.7812	-2.6063	-2.4917	-2.9083	-2.5917	-2.6271	-2.7458	-2.4854	-2.8271	-2.4542	-2.3896	98.169	155.399	33.642	304.140	261.332	54.765	266.329	17.354	59.610	27.101	36.967	94.006	38.342	52.948	51.874	315.157	0.00011905	0.00020826	0.00010325	1145.2	2.8054e-06	4.7472e-06	1229.5	245.62	3.2314e-06	2.7997e-06	311.01	83.811	66.224	19.307	1.1862e-06	27.203	0.00022168	0.00023851	6.7717e-05	1123.2	2.7867e-06	2.5499e-06	1213.7	244.86	2.6655e-06	2.751e-06	307.57	84.246	66.317	19.542	2.6583e-06	27.399	162.868	87.851	75.006	4.093	172.955	175.946	4.214	11.507	170.963	125.053	11.173	18.339	18.668	25.237	125.439	25.296	-8191	255	
634.583	1	1	0	0	0.29402	0.13753	0.07812	0.087827	0.20227	0.18655	0.27336	0.16334	0.14055	0.13732	0.15571	0.25918	0.20666	0.13413	0.068049	0.32193	-2.4875	-2.4229	-2.4813	-3.0833	-2.4854	-2.9271	-2.7042	-2.5167	-2.8875	-2.4146	-2.625	-2.8396	-2.4208	-2.8354	-2.6125	-2.5208	122.176	347.529	286.443	253.015	129.461	70.246	296.891	14.189	16.193	197.504	16.201	2.415	54.545	199.834	120.113	318.537	0.00012327	0.0003343	4.2892e-05	1146.7	1.9403e-06	3.6026e-06	1235.4	247.16	2.397e-06	3.8525e-06	311.46	83.437	65.536	19.225	2.5145e-06	27.005	0.00023257	0.00025188	6.8062e-05	1123	2.9014e-06	2.7605e-06	1214.4	245.28	2.6921e-06	2.6771e-06	307.57	84.11	66.2	19.471	2.6713e-06	27.322	175.603	133.412	75.698	3.944	162.834	142.572	4.247	11.623	184.571	140.675	10.973	17.920	18.629	25.090	173.168	24.521	-8191	255	
634.679	1	1	0	0	0.21252	0.30467	0.1636	0.35152	0.040936	0.23692	0.13152	0.15034	0.39998	0.11061	0.34474	0.24328	0.2573	0.049917	0.0709	0.11908	-2.3958	-2.6	-2.75	-2.8521	-2.4396	-2.7896	-2.6875	-2.525	-3.0542	-2.5062	-2.7792	-2.9542	-2.3771	-2.8417	-2.5583	-2.4417	176.763	198.793	66.640	336.868	179.018	324.623	322.582	314.137	295.321	199.712	344.211	83.808	-3.475	108.080	-2.326	43.694	0.00012835	0.00029731	8.5522e-05	1144.5	2.2577e-06	3.6822e-06	1238.6	247.2	3.1275e-06	1.024e-06	311.15	83.8	65.814	19.359	1.2736e-06	27.12	0.00023179	0.00025015	6.8731e-05	1123.6	2.7416e-06	2.6348e-06	1216.2	245.14	2.6949e-06	2.6616e-06	307.44	84.398	66.244	19.606	2.624e-06	27.389	171.595	89.253	113.374	4.146	140.762	159.725	4.358	11.385	170.273	150.379	10.647	18.174	18.262	25.182	169.697	24.800	-8191	255	
634.775	1	1	0	0	0.13787	0.14717	0.34497	0.18049	0.13615	0.22706	0.17762	0.094114	0.19856	0.13547	0.18113	0.12266	0.13536	0.12702	0.078826	0.20393	-2.3729	-2.5458	-2.4062	-2.8167	-2.5896	-2.7583	-2.7958	-2.3646	-2.8417	-2.45	-2.4542	-2.9917	-2.65	-2.7938	-2.8958	-2.4417	233.005	261.970	326.433	321.251	200.785	80.123	322.587	5.815	229.267	292.241	55.669	139.688	199.286	283.415	286.477	231.684	0.00013393	0.00038864	8.7963e-05	1142.1	2.4579e-06	3.6114e-06	1242	246.16	8.3762e-07	5.0012e-06	309.54	83.852	66.032	19.326	2.1502e-06	27.076	0.00022968	0.00024709	6.6643e-05	1124.7	2.6888e-06	2.6044e-06	1216.6	244.52	2.6204e-06	2.5769e-06	307.35	84.231	66.409	19.559	2.5883e-06	27.381	170.228	97.792	88.683	4.244	194.804	106.927	4.371	11.401	115.475	166.217	11.370	18.292	18.402	25.169	204.704	24.979	-8191	255	
634.871	1	1	0	0	0.036405	0.41647	0.19029	0.31284	0.11827	0.23752	0.26902	0.18274	0.18317	0.16062	0.11684	0.10268	0.28825	0.079646	0.12643	0.042723	-2.2313	-2.5771	-2.4062	-2.8708	-2.5521	-2.675	-3.0333	-2.3604	-2.7375	-2.6604	-2.6167	-2.7458	-2.5479	-2.6458	-2.9229	-2.5458	32.492	284.232	47.091	327.786	191.900	160.220	290.671	144.099	39.838	123.280	312.432	73.239	242.984	207.710	189.839	332.602	0.00012445	0.00029624	9.9745e-05	1150.5	4.058e-06	2.1712e-06	1235.1	247.37	1.7019e-06	4.8723e-06	310.25	82.983	66.328	19.243	3.5677e-06	27.039	0.00023005	0.00024393	6.7777e-05	1124.7	2.7182e-06	2.7458e-06	1212.6	244.69	2.7939e-06	2.7604e-06	306.45	83.76	66.287	19.474	2.9357e-06	27.26	173.201	101.159	120.811	4.045	203.295	148.278	4.328	11.341	163.319	157.305	11.253	17.873	18.518	24.990	139.671	24.844	-8191	255	
634.967	1	1	0	0	0.058081	0.28859	0.34892	0.21613	0.28879	0.22469	0.32166	0.093265	0.21224	0.062442	0.098762	0.081186	0.11321	0.15129	0.21116	0.022454	-2.3583	-2.6813	-2.5229	-3.1063	-2.5667	-2.5646	-3.1146	-2.4083	-2.6562	-2.8729	-2.2333	-2.8208	-2.8521	-2.6792	-2.9854	-2.3333	308.552	312.465	99.811	341.223	206.660	106.236	325.945	300.026	320.166	189.520	-5.565	197.318	0.518	304.938	146.080	119.460	0.00012083	9.8169e-05	0.00011496	1145.3	2.7094e-06	1.1663e-06	1234.5	245.57	2.1439e-06	2.5399e-06	308.56	83.619	66.235	19.432	4.1139e-06	26.917	0.00024004	0.0002617	7.0064e-05	1121.5	2.8661e-06	2.7578e-06	1212.6	244.21	2.8551e-06	2.6837e-06	306.79	84.262	66.358	19.616	2.7758e-06	27.352	166.761	101.580	63.194	4.076	153.548	56.917	4.376	11.433	161.654	139.779	10.914	17.843	18.312	25.158	187.263	24.977	-8191	255	
635.086	1	1	0	0	0.25018	0.10256	0.14143	0.27991	0.15823	0.23788	0.23586	0.14243	0.23958	0.39848	0.28657	0.14135	0.14922	0.26768	0.2084	0.078724	-2.2708	-2.75	-2.4	-2.8438	-2.6083	-2.1583	-3.1042	-2.6229	-2.8167	-2.7542	-2.3292	-3.0208	-2.6583	-2.6042	-2.8729	-2.5542	13.624	340.059	85.668	353.213	7.215	230.731	334.717	352.741	11.779	9.563	321.543	144.942	17.851	332.384	343.482	205.609	0.00013326	0.00033757	0.0001557	1146.1	3.0867e-06	1.9542e-06	1239.1	247.28	2.3022e-06	3.2953e-06	310.44	84.038	66.108	19.37	2.196e-06	27.075	0.00023605	0.00025316	6.9999e-05	1124.4	2.828e-06	2.6667e-06	1217.9	245.49	2.8488e-06	2.7226e-06	307.29	84.314	66.467	19.598	2.7492e-06	27.326	171.599	95.072	99.055	3.965	153.709	153.073	4.162	11.560	130.928	129.414	10.903	18.247	18.328	25.030	140.490	24.889	-8191	255	
635.182	1	1	0	0	0.12807	0.022928	0.18018	0.12007	0.07324	0.15303	0.25354	0.29707	0.16108	0.19462	0.039893	0.19193	0.10826	0.41626	0.143	0.32822	-2.3375	-2.8479	-2.2417	-2.8875	-2.8333	-2.5271	-3.0833	-2.4708	-2.6667	-2.9104	-2.6208	-2.75	-2.6542	-2.4958	-2.7771	-2.575	304.474	118.226	236.553	285.292	224.395	162.882	330.025	334.284	48.278	88.831	233.262	328.539	345.033	310.026	99.848	257.369	0.00013827	0.00039876	0.00010506	1138.1	3.0574e-06	2.3971e-06	1233.4	246.02	2.4798e-06	1.278e-06	309.27	83.687	66.124	19.543	4.11e-06	27.17	0.00023916	0.00024501	7.106e-05	1120.5	2.8297e-06	2.7783e-06	1212	244.22	2.7864e-06	2.7689e-06	306.89	84.146	66.365	19.693	2.7737e-06	27.43	168.444	74.111	70.417	4.216	207.382	174.353	4.364	11.429	164.751	215.919	11.327	17.994	18.205	24.767	194.380	24.857	-8191	255	
635.279	1	1	0	0	0.10296	0.052628	0.12848	0.15361	0.21797	0.13284	0.098474	0.36439	0.27786	0.17683	0.42345	0.28691	0.2408	0.19368	0.060894	0.15717	-2.1021	-2.9042	-2.325	-2.7479	-2.6646	-2.3458	-2.9083	-2.6042	-2.575	-2.8292	-2.7292	-2.7229	-2.7979	-2.3792	-2.8042	-2.7062	250.022	98.041	30.449	20.090	225.679	86.034	334.376	208.366	137.413	330.835	343.433	298.144	308.960	346.052	255.427	279.022	0.00015477	0.00039014	4.4291e-05	1143.1	3.4525e-06	3.6761e-06	1236	246.95	3.3629e-06	3.6255e-06	311.3	84.294	66.037	19.442	3.1809e-06	27.291	0.00024909	0.00025852	7.3821e-05	1121.9	2.9724e-06	2.7877e-06	1215.7	245.01	2.9408e-06	2.7895e-06	307.87	84.573	66.518	19.677	2.9557e-06	27.51	165.600	120.503	91.110	4.023	189.584	89.503	4.194	11.086	180.051	109.588	10.566	18.468	18.492	24.917	155.816	24.503	-8191	255	
635.375	1	1	0	0	0.13237	0.18674	0.072263	0.28939	0.39702	0.13728	0.21266	0.19556	0.12461	0.12554	0.11378	0.13958	0.1324	0.33524	0.13957	0.22771	-1.9125	-2.925	-2.4604	-2.7938	-2.5958	-2.6229	-2.9688	-2.8979	-2.5083	-2.9813	-2.7042	-2.6833	-2.8729	-2.275	-2.6917	-2.775	305.578	337.939	309.386	237.975	31.211	88.846	7.797	327.568	70.916	304.215	338.098	197.252	18.049	260.737	249.000	7.423	0.00012581	0.00051146	0.00015056	1149.6	4.3041e-06	5.0289e-06	1235.7	246.28	2.041e-06	3.188e-06	311.66	84.111	66.432	19.626	2.3426e-06	27.117	0.00024664	0.00025179	7.2302e-05	1125.9	2.828e-06	2.8493e-06	1215.9	245.26	2.7656e-06	2.7123e-06	307.88	84.676	66.89	19.777	2.7177e-06	27.454	169.685	72.519	84.469	3.854	165.139	140.557	4.439	11.282	196.150	162.451	10.833	18.029	18.429	25.195	150.882	24.462	-8191	255	
#DATA ENDS
