BOXY.EXE: ISS Imagent and Oximeter Data Acquisition Program Version 0.80
Ascii Record File

#ACQ INFORMATION
2  Detector Channels 
16  External MUX Channels 
1  Auxiliary Channels 
5000  Waveform (CCF) Frequency (Hz)
1  Waveforms Skipped 
30  Waveforms Averaged 
1  Cycles Averaged 
16  Acquisitions per Waveform 
10.0806  Updata Rate (Hz) 

#FILE INFORMATION
TRUE -- External MUX Channel results are PARSED.
FALSE -- AC DC and Phase are NOT grouped.
TRUE -- Companion Program Settings File CREATED.
FALSE -- AC data not excluded
FALSE -- DC data not excluded
FALSE -- Phase data not excluded
FALSE -- Auxillary Chn. data not excluded
Tab delimiters

#CALIBRATION STATE
TRUE -- Waveform Calibration Values APPLIED.


#AUX CALIBRATION VALUES
Val Type	aux-1	

Term	1.0000e+00	
Factor	0.0000e+00	


#WF CALIBRATION VALUES
A = Detector Channel
Val Type	A-AC1	A-AC2	A-AC3	A-AC4	A-AC5	A-AC6	A-AC7	A-AC8	A-AC9	A-AC10	A-AC11	A-AC12	A-AC13	A-AC14	A-AC15	A-AC16	A-DC1	A-DC2	A-DC3	A-DC4	A-DC5	A-DC6	A-DC7	A-DC8	A-DC9	A-DC10	A-DC11	A-DC12	A-DC13	A-DC14	A-DC15	A-DC16	A-Ph1	A-Ph2	A-Ph3	A-Ph4	A-Ph5	A-Ph6	A-Ph7	A-Ph8	A-Ph9	A-Ph10	A-Ph11	A-Ph12	A-Ph13	A-Ph14	A-Ph15	A-Ph16	

Term	0.00000e+00	0.00000e+00	0.00000e+00	0.00000e+00	0.00000e+00	0.00000e+00	0.00000e+00	0.00000e+00	0.00000e+00	0.00000e+00	0.00000e+00	0.00000e+00	0.00000e+00	0.00000e+00	0.00000e+00	0.00000e+00	0.00000e+00	0.00000e+00	0.00000e+00	0.00000e+00	0.00000e+00	0.00000e+00	0.00000e+00	0.00000e+00	0.00000e+00	0.00000e+00	0.00000e+00	0.00000e+00	0.00000e+00	0.00000e+00	0.00000e+00	0.00000e+00	0.00000e+00	0.00000e+00	0.00000e+00	0.00000e+00	0.00000e+00	0.00000e+00	0.00000e+00	0.00000e+00	0.00000e+00	0.00000e+00	0.00000e+00	0.00000e+00	0.00000e+00	0.00000e+00	0.00000e+00	0.00000e+00	
Factor	1.00000e+00	1.00000e+00	1.00000e+00	1.00000e+00	1.00000e+00	1.00000e+00	1.00000e+00	1.00000e+00	1.00000e+00	1.00000e+00	1.00000e+00	1.00000e+00	1.00000e+00	1.00000e+00	1.00000e+00	1.00000e+00	1.00000e+00	1.00000e+00	1.00000e+00	1.00000e+00	1.00000e+00	1.00000e+00	1.00000e+00	1.00000e+00	1.00000e+00	1.00000e+00	1.00000e+00	1.00000e+00	1.00000e+00	1.00000e+00	1.00000e+00	1.00000e+00	X	X	X	X	X	X	X	X	X	X	X	X	X	X	X	X	

B = Detector Channel
Val Type	B-AC1	B-AC2	B-AC3	B-AC4	B-AC5	B-AC6	B-AC7	B-AC8	B-AC9	B-AC10	B-AC11	B-AC12	B-AC13	B-AC14	B-AC15	B-AC16	B-DC1	B-DC2	B-DC3	B-DC4	B-DC5	B-DC6	B-DC7	B-DC8	B-DC9	B-DC10	B-DC11	B-DC12	B-DC13	B-DC14	B-DC15	B-DC16	B-Ph1	B-Ph2	B-Ph3	B-Ph4	B-Ph5	B-Ph6	B-Ph7	B-Ph8	B-Ph9	B-Ph10	B-Ph11	B-Ph12	B-Ph13	B-Ph14	B-Ph15	B-Ph16	

Term	0.00000e+00	0.00000e+00	0.00000e+00	0.00000e+00	0.00000e+00	0.00000e+00	0.00000e+00	0.00000e+00	0.00000e+00	0.00000e+00	0.00000e+00	0.00000e+00	0.00000e+00	0.00000e+00	0.00000e+00	0.00000e+00	0.00000e+00	0.00000e+00	0.00000e+00	0.00000e+00	0.00000e+00	0.00000e+00	0.00000e+00	0.00000e+00	0.00000e+00	0.00000e+00	0.00000e+00	0.00000e+00	0.00000e+00	0.00000e+00	0.00000e+00	0.00000e+00	-6.21754e+01	-1.29907e+02	-1.24308e+02	-1.80762e+02	-5.26411e+01	-6.17388e+01	-1.54848e+02	-1.62015e+02	-4.22166e+01	-7.04166e+01	-1.70366e+02	-1.69164e+02	-1.78724e+02	-1.75805e+02	-5.78430e+01	-1.48156e+02	
Factor	1.71954e-05	1.67617e-04	4.33893e-05	1.54313e-01	1.43465e-06	1.59009e-06	1.64624e-01	6.03797e-02	1.16268e-06	1.56915e-06	8.76266e-02	2.82588e-02	2.37562e-02	8.66378e-03	1.59200e-06	1.25101e-02	5.98073e-06	7.73180e-06	2.16888e-06	7.96205e-02	8.16941e-08	8.55453e-08	7.98241e-02	3.12165e-02	8.23015e-08	8.55736e-08	4.39271e-02	1.42219e-02	1.24740e-02	4.52282e-03	8.38410e-08	6.30525e-03	X	X	X	X	X	X	X	X	X	X	X	X	X	X	X	X	



#DISTANCE SETTINGS
A = Detector Channel
A-1	A-2	A-3	A-4	A-5	A-6	A-7	A-8	A-9	A-10	A-11	A-12	A-13	A-14	A-15	A-16	

2.5000e+00	3.0000e+00	2.5000e+00	3.0000e+00	2.0000e+00	3.0000e+00	1.5000e+00	3.0000e+00	3.0000e+00	3.0000e+00	3.0000e+00	3.0000e+00	3.0000e+00	3.0000e+00	1.5000e+00	3.0000e+00	

B = Detector Channel
B-1	B-2	B-3	B-4	B-5	B-6	B-7	B-8	B-9	B-10	B-11	B-12	B-13	B-14	B-15	B-16	

1.0000e+01	1.0000e+01	1.0000e+01	1.4400e+00	1.0000e+01	1.0000e+01	1.5100e+00	1.9400e+00	1.0000e+01	1.0000e+01	1.9900e+00	2.4900e+00	2.4100e+00	2.9000e+00	1.0000e+01	2.9800e+00	




#DATA BEGINS
time	group	step	mark	flag	A-AC1	A-AC2	A-AC3	A-AC4	A-AC5	A-AC6	A-AC7	A-AC8	A-AC9	A-AC10	A-AC11	A-AC12	A-AC13	A-AC14	A-AC15	A-AC16	A-DC1	A-DC2	A-DC3	A-DC4	A-DC5	A-DC6	A-DC7	A-DC8	A-DC9	A-DC10	A-DC11	A-DC12	A-DC13	A-DC14	A-DC15	A-DC16	A-Ph1	A-Ph2	A-Ph3	A-Ph4	A-Ph5	A-Ph6	A-Ph7	A-Ph8	A-Ph9	A-Ph10	A-Ph11	A-Ph12	A-Ph13	A-Ph14	A-Ph15	A-Ph16	B-AC1	B-AC2	B-AC3	B-AC4	B-AC5	B-AC6	B-AC7	B-AC8	B-AC9	B-AC10	B-AC11	B-AC12	B-AC13	B-AC14	B-AC15	B-AC16	B-DC1	B-DC2	B-DC3	B-DC4	B-DC5	B-DC6	B-DC7	B-DC8	B-DC9	B-DC10	B-DC11	B-DC12	B-DC13	B-DC14	B-DC15	B-DC16	B-Ph1	B-Ph2	B-Ph3	B-Ph4	B-Ph5	B-Ph6	B-Ph7	B-Ph8	B-Ph9	B-Ph10	B-Ph11	B-Ph12	B-Ph13	B-Ph14	B-Ph15	B-Ph16	aux-1	digaux	

785.219	1	1	0	768	0.21872	0.0083338	0.055119	0.22098	0.07692	0.12407	0.24534	0.15287	0.09807	0.24201	0.23097	0.039944	0.094302	0.28489	0.18225	0.1252	-1.8458	-2.2167	-2.0896	-2.5146	-2.2104	-2.1229	-2.575	-2.2562	-2.2938	-2.3833	-2.1667	-2.6125	-2.3312	-2.3063	-2.6042	-2.3458	-142.888	-147.161	95.500	149.233	-135.122	146.280	81.932	-131.847	-143.234	191.877	110.787	97.374	64.571	192.242	62.098	171.361	0.0010062	0.0014832	0.00032624	981.69	3.3536e-06	5.0847e-06	1269.8	368.3	4.396e-06	7.5543e-06	548.84	245.54	163.12	80.163	7.5723e-06	128.23	0.00097345	0.00086076	0.00026043	891.84	9.2171e-06	1.0421e-05	1158	336.71	9.8453e-06	9.8265e-06	504.93	224.78	149.99	74.102	1.0051e-05	117.93	-91.922	-80.167	-78.384	-152.035	38.511	16.160	-152.435	-146.623	-17.752	-29.206	-147.475	-143.440	-141.442	-136.806	1.843	-139.253	-8191	255	
785.315	1	1	0	0	0.13872	0.11162	0.08692	0.12802	0.17406	0.14893	0.29306	0.21797	0.038816	0.17389	0.23655	0.16605	0.14419	0.20989	0.49691	0.46631	-1.8042	-2.4062	-1.8958	-2.3688	-2.1958	-2.2042	-2.6521	-2.1562	-2.0667	-2.2854	-2.0604	-2.5271	-2.3646	-2.2646	-2.5146	-2.4833	34.913	-14.227	29.508	171.290	-90.581	-152.295	112.452	156.050	-62.149	172.816	157.585	107.228	-101.286	121.564	182.795	140.366	0.001039	0.00098472	5.5611e-05	975.66	5.5931e-06	1.3346e-05	1272.8	368.65	7.6503e-06	1.1478e-05	551.91	244.88	161.75	79.803	1.0134e-05	128.12	0.00099156	0.00088584	0.00025684	887.58	9.3907e-06	1.024e-05	1156.5	336.08	1.0065e-05	9.8119e-06	504.61	224.43	149.55	73.818	1.0141e-05	117.82	-90.955	-78.167	-101.933	-151.964	23.498	-0.962	-152.306	-146.532	19.417	-38.171	-147.562	-143.209	-141.294	-136.815	-60.908	-139.101	-8191	255	
785.411	1	1	0	0	0.13022	0.23459	0.18526	0.095655	0.055341	0.1587	0.09957	0.20812	0.30348	0.2726	0.28495	0.18896	0.097798	0.28044	0.087973	0.17199	-1.8146	-2.4583	-2.1937	-2.3438	-2.4479	-2.1229	-2.5833	-2.2458	-2.2875	-2.5146	-2.1771	-2.5187	-2.5125	-2.2125	-2.5625	-2.2979	161.599	-95.446	171.813	78.373	-129.404	78.999	98.459	165.349	6.731	-117.952	136.497	-153.537	86.402	154.785	-140.956	168.597	0.0010297	0.000398	0.00017375	969.83	8.2017e-06	1.76e-06	1264.2	365.56	5.9156e-06	6.1532e-06	552.25	244.31	162.89	80.048	9.3296e-06	128.89	0.0010065	0.0008864	0.00025184	885.37	9.3405e-06	1.0396e-05	1153.6	333.9	9.874e-06	9.6302e-06	504.88	224.23	149.66	73.936	9.9278e-06	118.33	-91.693	-65.907	-84.859	-151.956	-21.840	-23.317	-152.454	-146.675	12.426	-1.921	-147.299	-143.285	-141.571	-136.938	-20.999	-139.176	-8191	255	
785.507	1	1	0	0	0.19116	0.13015	0.30986	0.094729	0.097024	0.11176	0.35707	0.41544	0.11941	0.049846	0.15045	0.28367	0.15453	0.12666	0.16981	0.29778	-1.6271	-2.5479	-2.0479	-2.4417	-2.1937	-1.8542	-2.5354	-2.2021	-2.1021	-2.5021	-2.3167	-2.3479	-2.4688	-2.2417	-2.4542	-2.4562	-73.997	-159.113	122.468	-156.584	-88.807	173.529	143.186	146.146	-99.715	-142.177	140.384	167.125	168.518	182.540	85.132	168.151	0.0010702	0.0010057	0.00031466	982.53	1.1688e-05	1.0921e-05	1281.3	368.54	4.4469e-06	1.3498e-05	555.03	246.14	163.22	81.046	3.9873e-06	129.7	0.0009586	0.00088761	0.00023996	889.56	9.4375e-06	9.734e-06	1161.1	337.26	9.8282e-06	9.8766e-06	507.95	226.23	150.29	74.494	1.0216e-05	119.02	-93.072	-81.556	-74.864	-151.900	18.628	-1.850	-152.325	-146.534	3.014	11.601	-147.609	-143.204	-141.612	-137.082	-6.008	-138.947	-8191	255	
785.603	1	1	0	0	0.20467	0.24928	0.2665	0.19019	0.11674	0.04708	0.23093	0.35668	0.20404	0.33919	0.29997	0.21658	0.2341	0.27785	0.078275	0.17459	-1.6042	-2.6333	-2.0625	-2.4	-2.4375	-2.1583	-2.5958	-2.3521	-2.0417	-2.4146	-2.1521	-2.3438	-2.4292	-2.1875	-2.4292	-2.5375	4.698	-84.358	-143.657	156.075	172.647	79.354	112.641	182.092	120.423	157.687	163.851	135.077	-92.853	189.499	-46.858	99.890	0.0010328	0.00095972	0.00030798	978.61	8.0156e-06	5.4366e-06	1279.4	368.77	8.4094e-07	1.1352e-05	552.04	243.84	161.38	79.773	9.3177e-06	127.08	0.00096824	0.00091168	0.00024927	891.55	9.508e-06	9.8628e-06	1160.7	335.61	9.4949e-06	9.6477e-06	503.74	223.67	148.03	73.406	9.9233e-06	117.16	-91.977	-84.007	-63.698	-152.443	-8.600	-0.265	-152.533	-146.527	45.144	-20.223	-147.328	-143.552	-141.827	-136.898	-17.314	-139.004	-8191	255	
785.700	1	1	0	0	0.015727	0.12152	0.23776	0.2583	0.11403	0.29941	0.15014	0.23448	0.0060483	0.31549	0.085467	0.14135	0.24811	0.055127	0.17303	0.32555	-1.5333	-2.3729	-2.0333	-2.3354	-2.4417	-2.1583	-2.4333	-2.4271	-2.0208	-2.6063	-2.3604	-2.2062	-2.5896	-2.1833	-2.4208	-2.6937	110.998	-57.156	-25.683	162.528	87.886	-45.835	189.362	79.815	153.066	-65.827	18.454	159.350	162.798	7.413	91.190	134.582	0.00099878	0.00073122	4.3881e-05	970.63	6.8823e-06	1.1012e-05	1263.3	362.49	8.9533e-06	9.4132e-06	549.11	241.68	160.38	79.129	1.2796e-05	127.21	0.0009272	0.00088825	0.00024073	883.13	9.1836e-06	9.4756e-06	1150.5	331.33	9.7586e-06	9.8579e-06	500.76	221.75	147.66	72.894	9.8588e-06	116.58	-91.708	-77.104	0.210	-152.129	-35.726	-29.936	-152.215	-146.556	-10.375	-14.845	-147.492	-143.203	-141.692	-137.021	-14.340	-139.157	-8191	255	
785.820	1	1	0	0	0.40246	0.17524	0.16213	0.034547	0.047349	0.0096202	0.27813	0.16716	0.2067	0.09959	0.26356	0.26938	0.40129	0.21249	0.01167	0.21644	-1.5083	-2.4729	-2.3208	-2.4521	-2.5354	-2.2833	-2.4813	-2.7896	-1.9708	-2.5667	-2.5396	-2.325	-2.575	-2.2	-2.2292	-2.5979	-53.092	102.639	28.762	-48.338	94.957	37.480	168.683	-158.051	-36.740	-13.053	-104.417	160.574	152.014	163.167	114.798	60.815	0.00099627	0.0012096	0.00011124	968.55	6.2343e-06	8.0378e-06	1266	362.69	3.8731e-06	5.7297e-06	546.66	240.76	160.27	78.824	1.0408e-05	126.83	0.00093184	0.00090254	0.00023865	879.9	9.3094e-06	9.4283e-06	1151.6	331.46	9.6571e-06	9.7737e-06	499.46	221.61	147.42	72.602	9.9271e-06	116.41	-91.660	-56.399	-73.039	-151.956	-35.937	7.586	-152.326	-146.340	-40.981	29.601	-147.497	-143.337	-141.616	-137.055	4.854	-139.167	-8191	255	
785.916	1	1	0	0	0.21882	0.12206	0.12307	0.25524	0.15055	0.18956	0.066822	0.2833	0.16664	0.17978	0.048068	0.38805	0.36799	0.2907	0.18732	0.24179	-1.7771	-2.2208	-2.2521	-2.2	-2.5625	-2.1229	-2.5583	-2.5271	-2.0271	-2.5979	-2.5187	-2.1063	-2.5062	-2.4708	-2.1188	-2.6146	81.894	63.196	-20.245	135.306	32.323	54.725	-163.043	-133.202	22.399	46.051	194.114	151.952	112.904	182.835	11.418	68.116	0.0010305	0.00049229	0.00017974	970.15	9.1e-06	8.9193e-06	1262.3	363.05	9.892e-06	1.0057e-05	546.74	240.33	159.73	78.866	1.1525e-05	126.78	0.00093299	0.00092343	0.00024352	881.65	9.7051e-06	9.7254e-06	1150.2	331.69	9.554e-06	1.0261e-05	499.35	221.25	147.17	72.678	9.8359e-06	116.78	-88.551	-63.669	-72.227	-151.950	-21.156	-6.385	-152.126	-146.755	5.078	-30.365	-147.674	-143.254	-141.702	-136.757	-16.525	-138.999	-8191	255	
786.012	1	1	0	0	0.20647	0.03795	0.17295	0.20464	0.22158	0.20588	0.21332	0.20093	0.16722	0.25866	0.24099	0.15925	0.32743	0.30263	0.33622	0.34032	-1.5375	-2.1479	-2.3417	-2.1479	-2.4729	-2.1146	-2.3688	-2.7229	-1.9833	-2.3625	-2.3521	-2.1229	-2.5042	-2.3729	-2.0979	-2.7021	84.118	140.750	-156.815	-159.876	156.898	-78.040	98.287	89.077	143.608	65.197	58.393	99.994	169.202	137.485	48.001	118.762	0.0010456	0.00082714	0.00031328	977.39	6.8233e-06	1.2509e-05	1268.2	362.84	7.9052e-06	1.1551e-05	550.98	242.64	161.81	79.55	3.0567e-06	128.07	0.0009404	0.00090438	0.00023807	883.32	9.4673e-06	9.4884e-06	1154.1	331.98	9.608e-06	9.8891e-06	503.57	223.41	148.58	73.372	9.75e-06	117.81	-92.140	-100.984	-103.642	-151.808	-47.154	8.752	-152.215	-146.594	-16.041	-34.656	-147.827	-143.162	-141.773	-136.920	-12.960	-139.013	-8191	255	
786.109	1	1	0	0	0.12787	0.24084	0.072103	0.33518	0.034828	0.22486	0.31314	0.23095	0.19226	0.038163	0.057074	0.2297	0.2667	0.51481	0.12862	0.11989	-1.4333	-2.2146	-2.3042	-2.0958	-2.4125	-2.3104	-2.25	-2.575	-2.1854	-2.1937	-2.375	-2.2313	-2.4146	-2.3854	-2.1188	-2.6625	91.595	110.332	-13.394	131.474	104.562	-80.569	105.641	191.038	-133.938	-16.600	125.270	164.657	151.675	131.635	-162.444	169.634	0.00096106	0.0014186	0.0002818	970.47	1.0419e-05	6.0071e-06	1267.6	365.58	5.6719e-06	5.0484e-06	554.29	244.84	162.18	80.288	7.3331e-06	128	0.00090982	0.00087872	0.00024296	884.62	9.5585e-06	9.6041e-06	1154.2	335.07	9.4708e-06	9.6343e-06	504.78	224.63	149.79	73.968	9.6122e-06	117.92	-94.998	-100.466	-90.028	-152.137	-22.232	-5.089	-152.463	-146.139	-22.009	-27.714	-147.481	-143.256	-141.501	-137.088	-58.319	-139.336	-8191	255	
786.203	1	1	0	0	0.15891	0.13894	0.1383	0.19155	0.18456	0.17888	0.094352	0.23868	0.1245	0.15437	0.26176	0.25331	0.32722	0.22953	0.46999	0.36366	-1.6771	-2.1729	-2.4	-2.0687	-2.1979	-2.2438	-2.0917	-2.5708	-2.2188	-2.0312	-2.55	-2.2479	-2.2438	-2.4021	-1.9396	-2.8458	-130.831	-158.020	89.873	174.026	-81.262	-111.503	156.871	174.754	-31.446	94.803	99.766	-163.578	-90.142	162.458	-52.947	146.090	0.0010275	0.0016693	0.00019091	973.07	1.0241e-05	2.607e-06	1273.2	367.35	1.0025e-05	9.2837e-06	555.79	245.14	163.46	80.832	1.148e-05	128.6	0.0009313	0.00087629	0.00025603	886.19	9.6154e-06	9.4446e-06	1157.5	337.64	9.727e-06	9.6711e-06	507.77	225.32	150.49	74.311	9.6566e-06	118.39	-94.096	-72.383	-84.575	-151.991	6.365	-7.743	-152.314	-146.418	18.714	-24.624	-147.476	-143.348	-141.462	-136.982	-43.342	-139.206	-8191	255	
786.299	1	1	0	0	0.15584	0.11035	0.080487	0.23956	0.1739	0.0091211	0.34156	0.11255	0.32658	0.31659	0.15365	0.080656	0.043239	0.19235	0.3855	0.37471	-1.6896	-2.1167	-2.4313	-2.1896	-2.3167	-2.5604	-2.0229	-2.3958	-2.2333	-1.9583	-2.4938	-2.1458	-2.3312	-2.6021	-1.9125	-2.3458	68.290	-18.499	-101.223	-141.397	-65.640	-68.513	125.855	174.556	167.132	-114.034	-160.798	135.176	156.767	191.976	186.845	163.783	0.0010466	0.0010253	0.00024502	974.57	8.0236e-06	8.3754e-06	1276.9	369.76	7.1373e-06	9.6416e-06	554.87	244.4	162.34	80.309	4.994e-06	128.4	0.00094053	0.00091116	0.00025593	887.83	9.6246e-06	9.8243e-06	1160.3	337.23	9.3411e-06	9.6803e-06	506.36	224.49	149.72	73.924	9.9668e-06	118.17	-91.521	-54.818	-97.576	-151.726	33.325	26.397	-152.661	-146.624	-45.902	-7.992	-147.383	-143.421	-141.911	-137.106	1.714	-139.064	-8191	255	
786.420	1	1	0	0	0.17711	0.26892	0.18657	0.29427	0.096119	0.30974	0.1019	0.26476	0.075853	0.23911	0.47292	0.14153	0.55367	0.35785	0.040226	0.23138	-1.8479	-2.0438	-2.4229	-2.3375	-2.2583	-2.4375	-2.1833	-2.325	-2.2333	-2.175	-2.4771	-2.3375	-2.3917	-2.6292	-1.9958	-2.4583	133.548	-105.077	32.865	192.147	-59.815	15.268	-147.187	130.416	-120.667	77.850	-106.589	127.128	166.540	122.192	69.301	170.153	0.0010756	0.0010609	0.00014845	983.83	8.688e-06	1.1119e-05	1274.1	365.6	5.5263e-06	6.998e-06	553.61	246.4	162.84	80.343	8.055e-06	128.51	0.00094739	0.0009028	0.00026227	890.54	9.4178e-06	9.8211e-06	1159.2	335.87	9.5312e-06	1.0078e-05	506.31	225.3	150.08	74.013	1.0084e-05	118.12	-94.617	-89.973	-73.994	-152.096	4.354	-9.969	-152.108	-146.632	11.136	-58.325	-147.694	-143.404	-141.471	-137.048	-14.669	-139.348	-8191	255	
786.516	1	1	0	0	0.14272	0.19954	0.33382	0.14865	0.30511	0.13954	0.1879	0.27188	0.20487	0.13164	0.16289	0.37506	0.12965	0.015381	0.24063	0.24914	-1.9167	-2.0458	-2.425	-2.0896	-2.0167	-2.4917	-2.1958	-2.3604	-2.525	-2.0625	-2.5646	-2.425	-2.2792	-2.6354	-2.1792	-2.5208	-107.044	40.022	139.209	186.256	157.381	-117.729	68.744	168.722	-85.369	-79.665	146.429	167.029	164.815	-6.757	78.384	149.735	0.0010857	0.00054918	0.00028342	976.34	8.9887e-06	4.9426e-06	1282.9	367.77	7.1884e-06	1.2829e-05	553.59	243.67	162.08	79.927	4.4486e-06	126.68	0.00096078	0.00089724	0.00026922	888.77	1.0039e-05	1.0335e-05	1163.5	336.21	9.8534e-06	9.8049e-06	505.01	223.24	148.84	73.57	9.9615e-06	116.94	-94.321	-77.337	-54.799	-151.975	56.058	-21.497	-152.361	-146.341	4.655	-67.847	-147.479	-143.626	-141.349	-136.981	29.471	-139.152	-8191	255	
786.612	1	1	0	0	0.049811	0.044708	0.13144	0.30808	0.20555	0.075191	0.48595	0.27347	0.17677	0.29434	0.46947	0.16388	0.4565	0.27974	0.097924	0.34139	-1.9792	-1.9813	-2.3	-2.3146	-2.1333	-2.5354	-2.0854	-2.2875	-2.425	-1.9708	-2.4833	-2.3354	-2.2104	-2.6708	-2.1854	-2.4708	-162.911	12.201	-6.710	153.675	52.174	-7.166	129.891	172.880	-108.334	61.479	180.767	153.513	105.287	-101.358	-157.056	184.147	0.00108	0.00082129	0.0002816	972.15	8.7659e-06	1.1523e-05	1270.1	365.7	6.3783e-06	4.2067e-06	546.19	240.91	160.47	79.048	1.0339e-05	126.56	0.00096039	0.00089305	0.00026269	882.29	9.8285e-06	1.0357e-05	1151.9	333.4	9.8301e-06	9.8139e-06	499.56	221.72	147.45	73.056	1.0045e-05	116.23	-89.579	-63.600	-76.566	-151.950	-5.497	-13.275	-152.192	-146.516	-51.076	-61.425	-147.345	-143.400	-141.653	-137.021	-26.500	-138.866	-8191	255	
786.708	1	1	0	0	0.25252	0.10655	0.12821	0.20957	0.16979	0.07483	0.32651	0.21263	0.19834	0.16716	0.035957	0.37733	0.20499	0.37694	0.1422	0.25866	-2.0271	-1.8375	-2.3583	-2.4688	-2.0458	-2.5708	-2.3333	-2.3542	-2.2729	-2.2229	-2.2708	-2.3625	-2.0229	-2.625	-2.0333	-2.2479	188.880	48.144	-86.193	115.454	-88.471	-108.061	128.984	191.701	-89.874	151.164	132.012	118.006	-131.036	178.892	-86.017	131.311	0.00092559	0.0013168	0.00021921	966.92	9.1687e-06	1.154e-05	1262.7	362.21	6.8021e-06	1.2118e-05	543.97	240.09	159.88	79.246	6.0611e-06	126.41	0.00097873	0.00091264	0.00027491	879.77	9.7939e-06	1.0703e-05	1149.3	331.63	9.9125e-06	1.0083e-05	498.6	220.89	147.27	73.008	1.0201e-05	116.43	-92.377	-63.782	-81.742	-152.240	-5.604	0.869	-152.361	-146.310	-18.565	-10.991	-147.376	-143.220	-141.473	-137.070	13.196	-139.065	-8191	255	
786.780	1	1	0	0	0.29406	0.092574	0.13138	0.10438	0.10589	0.11955	0.18924	0.19119	0.097791	0.11084	0.23812	0.081209	0.08203	0.20704	0.12352	0.16321	-1.9771	-1.8417	-2.1667	-2.4646	-2.0938	-2.2812	-2.4125	-2.1958	-2.4562	-1.8396	-2.4	-2.5312	-2.1458	-2.6625	-2.3438	-2.1521	155.675	-73.762	140.209	3.862	-58.085	107.649	168.722	133.735	57.374	-58.992	119.491	116.972	-145.762	154.528	43.143	152.068	0.001051	0.00069826	0.0003273	968.35	1.2181e-05	1.2225e-05	1265.8	363.48	7.2553e-06	1.0857e-05	545.17	242.26	160.52	79.46	8.0387e-06	126.79	0.00099289	0.0009124	0.0002744	881.92	9.9634e-06	1.053e-05	1151.6	332.43	1.0172e-05	9.931e-06	501.29	222.72	147.9	73.433	1.0175e-05	116.74	-93.323	-83.271	-69.699	-152.135	-3.437	-14.928	-152.318	-146.498	-16.326	1.584	-147.305	-143.299	-141.446	-137.046	-16.577	-139.187	-8191	255	
786.901	1	1	0	0	0.022749	0.10771	0.17977	0.29089	0.23657	0.16944	0.30837	0.32101	0.086268	0.106	0.071661	0.052341	0.2232	0.43616	0.17025	0.20895	-1.9667	-2.1771	-2.1396	-2.4313	-2.1771	-2.3917	-2.55	-2.1458	-2.5729	-2.0729	-2.1688	-2.6333	-2.1833	-2.4354	-2.1917	-2.25	175.353	76.544	131.108	145.006	85.080	-49.114	125.757	147.488	-134.171	-118.544	164.641	190.525	-134.411	-160.231	57.840	186.071	0.00098788	0.00093342	0.00036454	974.92	6.0811e-06	7.2507e-06	1268.7	362.3	9.1167e-06	9.318e-06	548.64	242.89	161.27	79.745	7.2976e-06	127.74	0.0010033	0.0009274	0.00027004	881.86	9.6632e-06	1.0664e-05	1153.4	332.6	1.0473e-05	9.9729e-06	502.03	223.31	148.51	73.62	9.7406e-06	117.31	-90.816	-70.129	-82.473	-151.918	-8.881	15.051	-152.463	-146.192	17.462	-17.370	-147.321	-143.175	-141.445	-136.910	-6.352	-139.249	-8191	255	
786.997	1	1	0	0	0.16773	0.073883	0.37764	0.41342	0.26554	0.05766	0.26079	0.24813	0.22538	0.14115	0.11959	0.20816	0.32328	0.21045	0.20776	0.42039	-1.8229	-2.2042	-2.0646	-2.4688	-2.0687	-2.2375	-2.4083	-2.075	-2.3312	-2.1146	-2	-2.7542	-2.325	-2.4646	-2.3333	-2.1562	-151.386	-25.130	-13.906	150.769	118.794	139.085	51.460	140.123	186.586	170.056	153.675	-161.298	128.526	142.137	-3.984	115.280	0.0010402	0.00096958	0.00023688	964.54	7.0178e-06	1.4122e-05	1272.1	363.07	4.2252e-06	8.5588e-06	547.45	241.08	159.86	79.108	1.1332e-05	126.35	0.00099185	0.00089373	0.00025905	878.87	9.7516e-06	1.057e-05	1150.6	331.92	1.0389e-05	1.0249e-05	499.18	221.38	147.29	72.897	1.0178e-05	115.98	-91.810	-44.753	-67.776	-151.922	65.760	4.798	-152.538	-146.478	-15.502	10.414	-147.235	-143.377	-141.511	-136.864	13.925	-139.056	-8191	255	
787.093	1	1	0	0	0.17236	0.26887	0.13008	0.18054	0.30368	0.16419	0.37577	0.14602	0.08209	0.029804	0.053572	0.34133	0.11221	0.099898	0.20469	0.14315	-1.7542	-2.1354	-1.8729	-2.6813	-2.1063	-2.1479	-2.5062	-2.1771	-2.1958	-2.3563	-2.1583	-2.4583	-2.2333	-2.2313	-2.4062	-2.3125	-63.592	101.948	36.578	110.600	-95.174	-61.574	127.099	23.095	97.061	115.283	-145.170	143.098	136.811	188.112	32.683	123.188	0.0010471	0.0010662	0.00014468	961.55	1.268e-05	9.6571e-06	1266.4	360.61	7.2875e-06	5.1693e-06	541.95	239.84	159.61	78.655	7.3386e-06	126.25	0.0010025	0.00091184	0.00025358	876.33	9.7735e-06	1.0786e-05	1149.6	329.5	1.0506e-05	9.7532e-06	496.57	220.26	146.6	72.458	1.0233e-05	115.85	-94.729	-63.258	-54.708	-152.061	-16.692	-20.017	-152.482	-146.646	-32.482	-65.650	-147.457	-143.462	-141.618	-136.641	-13.648	-139.121	-8191	255	
787.213	1	1	0	0	0.084465	0.18739	0.19816	0.30221	0.25986	0.23879	0.24021	0.3869	0.090976	0.079254	0.35602	0.036009	0.27383	0.43499	0.22721	0.37128	-1.8375	-2.1417	-1.9417	-2.5	-2.2333	-2.0563	-2.7083	-1.9292	-2.3312	-2.3396	-2.1542	-2.4125	-2.1729	-2.2438	-2.2938	-2.2354	-57.544	182.303	-18.197	-147.315	50.784	135.634	119.432	-130.885	-89.079	13.334	186.932	-122.817	173.562	135.423	-37.892	103.931	0.0010424	0.00073704	0.00024865	963.21	8.1145e-06	4.4836e-06	1260.7	359.45	4.2713e-06	9.6208e-06	542.68	239.32	158.3	78.181	6.7003e-06	125.53	0.00098989	0.00092047	0.00026181	877.16	9.5083e-06	1.0256e-05	1147.3	328.67	1.0164e-05	9.6935e-06	497.25	220.49	146.02	72.25	1.005e-05	115.75	-91.987	-88.955	-34.361	-151.989	-18.289	-21.111	-152.319	-146.348	-8.573	-35.779	-147.231	-143.315	-141.530	-136.894	12.467	-139.156	-8191	255	
787.308	1	1	0	0	0.16536	0.086039	0.25346	0.43343	0.087132	0.28818	0.31391	0.12225	0.14231	0.27704	0.075218	0.096541	0.21065	0.12167	0.021351	0.36778	-1.6479	-2.3271	-1.9979	-2.3396	-2.2125	-1.9854	-2.4542	-2.1312	-2.0521	-2.2188	-2.0021	-2.3812	-2.3937	-2.1292	-2.4583	-2.25	91.721	131.031	191.138	151.795	-57.374	159.110	101.063	9.265	-158.441	111.035	150.939	119.337	143.426	148.104	2.382	154.864	0.00098566	0.0010211	0.00027564	959.89	7.7793e-06	4.4264e-06	1263.1	361.22	4.4402e-06	6.58e-06	544.02	241.47	159.53	78.589	6.6972e-06	125.79	0.00097485	0.00089968	0.00025488	875.68	9.6082e-06	1.0161e-05	1150.9	329.44	1.0601e-05	1.0109e-05	498.75	221.64	147	72.554	1.0258e-05	115.93	-92.372	-67.419	-91.589	-151.770	-19.953	-23.686	-152.240	-146.366	1.473	-35.365	-146.974	-143.594	-141.789	-136.863	-44.084	-139.143	-8191	255	
787.381	1	1	0	0	0.23167	0.16925	0.10382	0.19599	0.16925	0.13401	0.10508	0.11543	0.07074	0.22264	0.18749	0.14605	0.54353	0.18909	0.24186	0.51378	-1.7417	-2.4646	-1.8604	-2.4	-2.1667	-1.9667	-2.7375	-2.3646	-2.1021	-2.4542	-2.1146	-2.5062	-2.3625	-2.1146	-2.3937	-2.4292	91.823	187.975	124.005	146.134	-102.671	-29.016	135.411	67.308	-116.431	-0.224	-143.459	150.964	182.517	76.600	-69.936	132.118	0.0010338	0.0011407	0.00019674	962.6	7.7771e-06	1.0879e-05	1267.9	361.41	3.8825e-06	9.1251e-06	544.9	240.54	159.5	78.174	7.1523e-06	126.26	0.00096599	0.00091069	0.00025442	875.79	9.5567e-06	1.0333e-05	1151	329.69	1.0352e-05	9.9317e-06	498.03	221.3	146.86	72.496	1.0374e-05	116.1	-98.892	-71.972	-107.042	-151.937	0.348	-47.556	-152.234	-146.371	-13.456	-48.856	-147.176	-143.152	-141.520	-137.028	-10.626	-138.890	-8191	255	
787.500	1	1	0	0	0.19031	0.27836	0.1234	0.15712	0.1472	0.16974	0.31638	0.087775	0.34038	0.23003	0.27582	0.17546	0.10303	0.2386	0.0026497	0.19502	-1.4875	-2.3625	-1.9458	-2.2	-2.4208	-1.8542	-2.5771	-2.3292	-1.8458	-2.3375	-2.1583	-2.2333	-2.4667	-2.0312	-2.3833	-2.3312	-1.788	189.138	-142.490	170.064	194.724	150.371	104.748	-12.486	-60.355	172.750	147.166	162.676	64.209	160.037	-64.269	137.473	0.0010522	0.00057383	0.0002469	962.37	3.7458e-06	2.6866e-06	1262.3	361.79	6.296e-06	6.2656e-06	548.6	244.14	161.04	79.524	1.2955e-05	127.02	0.00095864	0.00090878	0.0002523	878.46	9.7956e-06	9.9896e-06	1148.9	332.39	9.6526e-06	1.024e-05	501.37	223.49	148.41	73.312	1.0422e-05	117.06	-93.757	-72.703	-75.893	-152.115	13.700	25.756	-152.317	-146.347	-42.730	7.578	-147.520	-143.376	-141.717	-137.138	-54.374	-139.076	-8191	255	
787.596	1	1	0	0	0.17135	0.097566	0.15847	0.040618	0.1832	0.15996	0.166	0.077082	0.10005	0.10186	0.090953	0.18622	0.17675	0.53282	0.066859	0.29261	-1.6562	-2.3521	-1.9479	-2.3958	-2.3708	-2.0542	-2.6937	-2.2812	-1.9708	-2.5917	-2.0833	-2.3104	-2.4813	-2.1854	-2.3271	-2.5021	-1.992	-14.459	-49.013	156.581	-142.564	180.290	128.919	156.658	181.480	113.871	65.384	126.914	167.860	107.668	9.426	167.871	0.00098877	0.00079584	0.00021652	972.85	7.2156e-06	9.4803e-06	1274.5	367.69	8.6061e-06	8.8993e-06	553.33	245.53	163.96	80.752	1.0604e-05	129.49	0.00095319	0.000936	0.00025209	883.23	9.5841e-06	9.6853e-06	1157.5	335.99	9.737e-06	1.0122e-05	505.7	225.12	150.63	74.436	1.0613e-05	118.72	-93.491	-23.610	-67.277	-151.970	0.141	-26.691	-152.466	-146.745	13.552	-43.191	-147.805	-143.501	-141.568	-137.194	-31.812	-139.115	-8191	255	
787.692	1	1	0	0	0.15942	0.09928	0.27764	0.10307	0.13753	0.13152	0.23476	0.066986	0.24377	0.12211	0.40438	0.11766	0.068179	0.36224	0.22652	0.2922	-1.525	-2.1854	-1.8604	-2.2604	-2.3625	-2.1229	-2.55	-2.5042	-2.1312	-2.4208	-2.275	-2.2417	-2.4042	-2.2583	-2.1437	-2.4688	3.082	102.031	-64.727	-126.347	-21.496	13.328	116.147	107.456	86.667	-99.732	170.998	-150.920	65.832	127.268	17.584	105.058	0.0010576	0.00095112	0.00024261	975.2	7.8584e-06	6.4586e-06	1276.3	370.07	5.5713e-06	1.2548e-05	558.48	246.7	164.31	80.988	6.6005e-06	128.72	0.00096606	0.00092587	0.00025249	886.7	9.6682e-06	9.7723e-06	1159.6	338.17	9.5622e-06	1.0357e-05	509.12	226.05	150.93	74.648	1.0365e-05	118.57	-94.572	-104.034	-81.666	-151.682	14.045	1.609	-152.187	-146.361	4.072	-32.878	-147.608	-143.259	-141.750	-136.758	-11.870	-139.180	-8191	255	
787.813	1	1	0	0	0.29104	0.097335	0.33514	0.33867	0.32231	0.24783	0.17721	0.18343	0.13222	0.29258	0.29252	0.34245	0.27435	0.22175	0.095668	0.034216	-1.3813	-2.4083	-2.0146	-2.1063	-2.5604	-2.0146	-2.3563	-2.4333	-1.9208	-2.3875	-2.3625	-2.1625	-2.5958	-2.2625	-2.2812	-2.6417	68.682	114.366	138.551	188.198	191.686	40.369	151.696	187.404	162.930	-154.843	-161.335	156.542	-129.611	162.752	-78.521	93.505	0.001138	0.00085721	0.0003637	976.67	6.4544e-06	1.0086e-05	1274.8	368.28	6.723e-06	1.0127e-05	554.29	246.2	164.1	81.081	1.4009e-05	128.49	0.00097497	0.00094444	0.00026538	889.91	9.958e-06	9.8582e-06	1161.4	337.09	1.0075e-05	1.0629e-05	507.36	225.87	150.57	74.438	1.0347e-05	118.36	-90.039	-89.472	-86.444	-152.069	15.821	1.335	-152.457	-146.325	17.620	6.687	-147.620	-143.119	-141.632	-137.079	-67.434	-139.168	-8191	255	
787.909	1	1	0	0	0.065373	0.045678	0.21552	0.13083	0.059008	0.19453	0.30698	0.21811	0.188	0.24565	0.051121	0.17302	0.18815	0.29946	0.22731	0.49101	-1.4708	-2.2438	-2.3021	-2.1854	-2.5958	-2.275	-2.3604	-2.6125	-1.9958	-2.3417	-2.3042	-2.1188	-2.5104	-2.4	-2.15	-2.5979	-157.148	61.566	-23.249	-163.686	-155.849	62.522	171.784	146.317	-6.199	20.997	-144.209	172.622	145.085	175.388	-2.933	145.768	0.00099169	0.00083705	0.00048948	978.13	6.8825e-06	7.328e-06	1278.7	364.91	4.4666e-06	6.7093e-06	549.42	243.27	162.29	79.716	1.2819e-05	127.33	0.00099057	0.00096401	0.00025572	886.81	1.0427e-05	1.043e-05	1160.4	334.33	9.9679e-06	1.0575e-05	501.7	222.55	148.9	73.357	1.0123e-05	116.94	-90.644	-92.437	-100.523	-152.284	1.280	40.065	-152.508	-146.471	4.857	-4.120	-147.333	-143.352	-141.598	-136.834	-24.859	-139.127	-8191	255	
788.005	1	1	0	0	0.16221	0.13005	0.33626	0.03197	0.079229	0.055877	0.30736	0.078132	0.1627	0.15253	0.36906	0.45003	0.53885	0.042156	0.11492	0.17352	-1.5042	-2.225	-2.1292	-1.9583	-2.3187	-2.2375	-2.1583	-2.5146	-1.9729	-2.1292	-2.3229	-1.9479	-2.4917	-2.3479	-2.0833	-2.6875	-4.332	-147.955	167.833	193.139	-99.829	-21.629	95.897	-112.915	120.277	9.117	183.696	147.696	-158.690	-118.049	-35.629	116.340	0.001023	0.0008434	0.00031057	971.32	1.0317e-05	7.6203e-06	1269.4	364.12	4.7245e-06	6.6238e-06	548.5	241.69	160.51	79.048	1.4236e-05	127.07	0.0009767	0.00095014	0.0002574	883.8	1.0341e-05	1.0174e-05	1150.1	332.69	9.6963e-06	1.0292e-05	499.38	221.77	148.02	73.073	1.007e-05	116.57	-94.797	-85.415	-88.556	-152.225	-2.984	9.609	-152.395	-146.474	-28.780	-24.005	-147.391	-143.526	-141.723	-137.190	-31.532	-139.344	-8191	255	
788.102	1	1	0	0	0.10152	0.15976	0.14864	0.41361	0.15116	0.17227	0.23755	0.25194	0.21071	0.068397	0.24236	0.30087	0.12008	0.31827	0.25254	0.38232	-1.7021	-2.125	-2.3917	-2.0438	-2.4583	-2.2354	-2.35	-2.5563	-2.1167	-1.9833	-2.4562	-2.1646	-2.3979	-2.3271	-2.2208	-2.5333	-139.470	96.894	-161.148	160.767	79.613	-23.757	97.980	-162.721	-103.816	-64.781	164.838	184.570	143.688	165.943	-153.569	135.726	0.0010339	0.00064016	0.00030095	973.66	7.0567e-06	5.9609e-06	1273	365.14	5.0559e-06	5.9318e-06	548.44	241.54	161.92	79.891	5.6651e-06	126.74	0.00096246	0.00094499	0.00026526	884.43	1.0325e-05	1.023e-05	1151.6	333.99	9.9816e-06	1.0307e-05	501.61	221.98	148.79	73.648	9.9472e-06	116.65	-90.154	-97.175	-58.417	-151.975	-31.718	-54.035	-152.292	-146.486	-0.636	-49.087	-147.555	-143.327	-141.435	-137.098	2.929	-139.150	-8191	255	
788.196	1	1	0	0	0.16641	0.10971	0.1395	0.14911	0.13279	0.28613	0.2529	0.11632	0.27933	0.13019	0.18419	0.37192	0.17445	0.18215	0.23175	0.35821	-1.6333	-2.2146	-2.3542	-2.2271	-2.4	-2.4688	-2.3312	-2.4646	-2.1271	-2.1813	-2.4021	-2.1896	-2.4146	-2.5104	-2.0187	-2.5125	132.820	155.682	132.085	189.884	-155.875	104.442	154.996	182.845	56.256	-137.968	-143.983	115.057	170.357	173.425	112.065	-164.396	0.0009955	0.0016463	0.00032891	970.13	9.8332e-06	1.1344e-05	1265.1	364.98	3.8819e-06	1.0995e-05	551.17	243.84	161.87	79.485	1.0617e-05	127.1	0.00096272	0.00091968	0.00025156	883.58	9.8964e-06	9.9954e-06	1152.9	334.59	9.9223e-06	9.9531e-06	502.64	223.44	148.88	73.538	9.8028e-06	116.98	-90.084	-62.800	-58.380	-152.078	-10.027	-27.141	-152.406	-146.608	-15.621	-14.379	-147.807	-143.317	-141.432	-137.047	-15.939	-138.911	-8191	255	
788.292	1	1	0	0	0.33208	0.24557	0.1641	0.29651	0.078103	0.12447	0.24489	0.19637	0.13514	0.11775	0.078564	0.26849	0.42649	0.25863	0.15943	0.2959	-1.7354	-2.175	-2.5229	-2.0833	-2.2729	-2.3917	-2.1271	-2.6042	-2.2333	-2.2021	-2.725	-2.2917	-2.2938	-2.5729	-2.0187	-2.6854	87.148	-149.128	-56.067	-137.055	176.548	-106.443	85.657	162.675	-90.745	28.670	193.005	123.377	161.852	131.946	-50.788	98.609	0.0010235	0.0010744	0.00012472	967.7	9.7962e-06	1.0305e-05	1269.4	363	3.1422e-06	5.5675e-06	550.79	243.32	161.6	79.349	1.2919e-05	127.3	0.0009585	0.00090597	0.00025768	883.97	9.9233e-06	1.0258e-05	1153	333.01	9.9439e-06	9.6948e-06	502.11	223.28	148.67	73.446	9.8001e-06	117.05	-93.028	-70.288	-69.461	-151.808	4.999	-33.448	-152.468	-146.603	-11.803	-18.781	-147.646	-143.040	-141.625	-136.867	-8.159	-138.935	-8191	255	
788.388	1	1	0	0	0.26219	0.18561	0.29195	0.26281	0.12547	0.11952	0.14741	0.20861	0.23394	0.21431	0.096658	0.38986	0.25748	0.28344	0.11712	0.23024	-1.6958	-1.8604	-2.4396	-2.0708	-2	-2.3354	-2.0958	-2.3792	-2.2167	-1.9458	-2.5167	-2.2542	-2.3438	-2.4583	-1.9542	-2.55	-153.296	166.514	148.798	128.040	86.835	80.306	89.009	-134.991	-102.997	-149.073	127.940	129.206	188.939	114.884	53.377	138.014	0.00099094	0.00093009	0.0002364	971.94	1.2359e-05	9.3331e-06	1265.2	364.52	9.6618e-06	1.2937e-05	544.6	243.22	161.15	79.276	1.3588e-05	126.61	0.00092617	0.00089682	0.00025864	881.12	9.6164e-06	9.7577e-06	1148.2	332.1	9.5945e-06	9.6088e-06	498.6	222.02	147.98	73.214	9.8627e-06	116.64	-90.771	-60.796	-50.577	-152.114	6.262	-26.498	-152.597	-146.347	-12.918	3.355	-147.531	-143.234	-141.591	-137.054	-29.469	-139.227	-8191	255	
788.484	1	1	0	0	0.047831	0.13996	0.08242	0.34564	0.29661	0.071245	0.36669	0.18195	0.12381	0.12754	0.13487	0.14101	0.23235	0.17442	0.23964	0.20425	-1.775	-1.9229	-2.2938	-2.2979	-2.0792	-2.2687	-2.2875	-2.3875	-2.4729	-2.0625	-2.4604	-2.3083	-2.1771	-2.5896	-2.0896	-2.5583	92.728	-98.992	110.574	135.183	20.331	28.717	139.583	119.550	-91.432	64.443	161.580	189.868	104.706	157.231	134.771	118.264	0.0010186	0.00095417	0.00039842	966.04	7.3401e-06	6.2219e-06	1266.1	361.74	8.6621e-06	1.4623e-05	549.9	243.02	161.92	79.747	1.2463e-05	127.68	0.00091749	0.0008846	0.00025315	880.43	9.6918e-06	9.8557e-06	1148.7	332.38	9.7327e-06	9.4628e-06	500.25	222.27	148.66	73.467	9.5593e-06	117.15	-92.910	-97.960	-80.436	-151.867	1.523	31.579	-152.492	-146.603	-18.806	4.027	-147.377	-143.413	-141.444	-137.108	-9.127	-139.328	-8191	255	
788.605	1	1	0	0	0.14901	0.18712	0.06327	0.19303	0.074574	0.095154	0.095513	0.14962	0.057569	0.052393	0.17205	0.099391	0.3744	0.52767	0.14227	0.34384	-1.7958	-1.9208	-2.3875	-2.2625	-2.1063	-2.4104	-2.1479	-2.2729	-2.4271	-1.9021	-2.4083	-2.3479	-2.1542	-2.4958	-2.0875	-2.3958	153.433	116.622	7.330	189.638	95.178	-120.110	169.296	144.592	109.446	-42.778	-155.593	77.060	143.934	177.015	-115.449	66.943	0.001015	0.00094952	0.00028134	974.12	4.0346e-06	4.1173e-06	1265.1	364.56	5.7314e-06	9.2802e-06	547.86	242.01	161.03	79.328	6.764e-06	127.47	0.00092131	0.00087981	0.00025239	882.06	9.4238e-06	9.4695e-06	1152.2	333.06	9.4175e-06	9.7425e-06	501.6	222.34	148.3	73.232	9.7865e-06	116.85	-91.075	-74.745	-82.427	-152.277	-39.442	-3.519	-152.214	-146.761	-8.582	17.980	-147.571	-143.513	-141.560	-137.018	-21.939	-139.151	-8191	255	
788.677	1	1	0	0	0.31082	0.32977	0.085626	0.32042	0.34846	0.1577	0.21504	0.1627	0.14282	0.048848	0.1151	0.16149	0.34765	0.37141	0.4086	0.20102	-1.8667	-1.9729	-2.275	-2.4667	-2.1771	-2.4708	-2.2375	-2.3833	-2.5042	-2.1542	-2.2687	-2.3979	-2.1521	-2.5958	-2.275	-2.425	-53.091	55.274	-13.056	155.155	-69.694	-119.444	133.479	69.656	-37.350	-110.850	134.167	140.730	141.458	132.858	54.190	166.111	0.0009762	0.0013512	0.00028496	970.65	5.1376e-06	6.2668e-06	1267	364.63	8.1597e-06	9.7945e-06	547.34	242.29	160.75	79.227	1.2657e-05	127.52	0.00093747	0.00087519	0.00024904	881.08	8.9945e-06	9.8928e-06	1152	332.67	9.3023e-06	9.4156e-06	501.28	222.12	148.2	73.284	9.9261e-06	117.14	-90.877	-101.933	-73.979	-151.895	-42.953	36.571	-152.655	-146.383	12.317	-44.057	-147.565	-143.498	-141.526	-136.904	-21.379	-139.204	-8191	255	
788.773	1	1	0	0	0.069621	0.21424	0.16212	0.36462	0.31858	0.17711	0.16922	0.049684	0.057355	0.17838	0.093763	0.35769	0.20842	0.31696	0.11116	0.25855	-1.9667	-1.9521	-2.2792	-2.3312	-1.9771	-2.3375	-2.4229	-2.0625	-2.4854	-1.9479	-2.1021	-2.5583	-2.0792	-2.6188	-2.325	-2.0375	-6.428	-90.612	69.170	-156.007	-67.743	190.673	184.004	152.864	-83.387	-75.654	146.985	188.764	178.056	169.880	12.438	107.415	0.0010069	0.00085531	0.0002477	970.71	6.0787e-06	8.2244e-06	1271.1	363.97	4.3048e-06	8.8876e-06	547.85	242.37	160.58	79.444	6.0972e-06	126.71	0.00094691	0.0008957	0.00025557	881.47	9.3242e-06	1.0145e-05	1154.9	333.39	9.8265e-06	9.7295e-06	501.85	222.65	147.89	73.145	9.7481e-06	116.84	-89.809	-74.960	-63.436	-152.190	10.275	-27.041	-152.278	-146.499	-4.283	-40.372	-147.512	-143.362	-141.538	-137.234	-42.705	-139.499	-8191	255	
788.893	1	1	0	0	0.25261	0.18646	0.34479	0.13176	0.3119	0.18371	0.26824	0.32807	0.30094	0.10791	0.21248	0.30898	0.20595	0.39705	0.048005	0.38052	-2.0438	-2.2021	-2.0354	-2.4062	-1.9229	-2.3146	-2.3854	-2.025	-2.3125	-1.9646	-2.0604	-2.4542	-2.0583	-2.4833	-2.2583	-2.0979	16.469	-150.529	-48.682	108.648	137.676	-130.684	107.304	159.026	40.943	61.030	155.212	-124.416	-152.690	163.193	132.380	173.151	0.00104	0.00085339	0.00037339	962.02	8.3697e-06	1.2075e-05	1266.9	363.86	2.9715e-06	5.6645e-06	549.73	241.32	161.27	79.156	8.4894e-06	127.16	0.0009532	0.00088015	0.0002461	877	9.378e-06	1.0002e-05	1150.6	332.33	9.9873e-06	9.8497e-06	500.67	222.17	148.24	73.116	9.9949e-06	116.89	-91.685	-77.338	-70.759	-151.906	-20.332	-9.260	-152.870	-146.129	10.723	3.370	-147.192	-143.154	-141.589	-136.997	-28.710	-139.172	-8191	255	
788.990	1	1	0	0	0.3726	0.1109	0.24701	0.10088	0.31419	0.17356	0.10198	0.10289	0.23549	0.12609	0.047863	0.4538	0.034149	0.47893	0.29545	0.28454	-1.8229	-2.1271	-2.0812	-2.5146	-1.9646	-2.2333	-2.3937	-2.2062	-2.375	-2.1583	-1.9917	-2.6063	-2.275	-2.2854	-2.1833	-2.1688	-62.313	86.277	-135.799	113.107	148.106	122.133	170.230	-163.005	-29.567	135.263	-113.412	128.587	35.783	164.827	108.380	112.877	0.0010047	0.00019566	0.00033296	975.48	3.5997e-06	1.1184e-05	1268.3	362.13	1.1189e-05	7.2521e-06	553.16	244.64	162.4	80.182	3.8446e-06	128.07	0.00095769	0.00090111	0.00025061	885.31	9.3463e-06	9.9577e-06	1153.5	333.81	9.7831e-06	9.9214e-06	504.84	224.98	149.55	74.08	9.9231e-06	118.03	-89.529	-82.276	-82.828	-152.056	-41.127	1.823	-152.576	-146.536	13.134	-16.630	-147.269	-143.482	-141.843	-137.071	30.763	-139.367	-8191	255	
789.086	1	1	0	0	0.19237	0.11723	0.22664	0.23935	0.17284	0.36508	0.2275	0.29257	0.073286	0.27229	0.36517	0.19172	0.23991	0.29555	0.093693	0.34856	-1.8687	-2.1979	-1.9042	-2.5271	-2.0667	-2.3479	-2.45	-2.0812	-2.3771	-2.2313	-2.0771	-2.6688	-2.1875	-2.3729	-2.4437	-2.2708	91.935	99.559	102.933	150.244	-17.211	-130.969	88.482	91.521	-11.200	159.175	143.636	-164.271	172.445	-131.779	180.891	149.682	0.0010504	0.00058673	0.00017808	974.47	8.5444e-06	5.2026e-06	1277.3	367.71	3.6685e-06	8.0737e-06	551.91	244.56	163.09	80.362	9.6967e-06	128.82	0.00095563	0.00088273	0.00024612	884.81	9.4917e-06	9.7097e-06	1157.6	335.84	9.9599e-06	9.7868e-06	505.7	224.73	150.17	74.115	1.0229e-05	118.35	-92.642	-71.042	-25.190	-152.173	-14.167	-32.138	-152.353	-146.622	-25.657	-5.220	-147.605	-143.399	-141.786	-136.880	-8.324	-139.141	-8191	255	
789.182	1	1	0	0	0.32331	0.04277	0.29676	0.23378	0.157	0.17631	0.26596	0.18469	0.36464	0.15297	0.25993	0.17639	0.13538	0.56953	0.059764	0.057036	-1.9333	-2.0333	-1.9542	-2.4	-2.0479	-2.0417	-2.4604	-2.0354	-2.3146	-2.2354	-2.075	-2.575	-2.2812	-2.2792	-2.4479	-2.1729	154.023	70.652	-158.905	153.455	-49.902	23.222	99.684	165.491	-107.076	71.845	154.633	159.074	189.963	141.058	47.372	21.578	0.00098611	0.0010687	0.00013531	972.07	5.7265e-06	8.5204e-06	1278.1	367.04	2.9974e-06	4.2968e-06	555.16	246.65	163.69	80.491	4.7563e-06	128.64	0.00096241	0.0009005	0.00025461	886.42	9.7144e-06	1.0108e-05	1164	336.12	9.889e-06	1.0325e-05	507.36	225.61	150.43	74.302	1.0292e-05	118.53	-90.840	-51.746	-81.703	-152.020	-12.507	8.596	-152.603	-146.413	1.096	-33.751	-147.424	-143.214	-141.514	-136.923	-32.545	-139.083	-8191	255	
789.276	1	1	0	0	0.19171	0.073191	0.10168	0.15257	0.16103	0.15043	0.19967	0.38966	0.10449	0.095838	0.081454	0.19544	0.26538	0.2664	0.12764	0.17949	-1.5979	-2.2583	-1.6479	-2.2687	-2.025	-1.8667	-2.5729	-2.0854	-2.0646	-2.3542	-2.2292	-2.5563	-2.025	-2.1937	-2.2625	-2.4979	-75.325	35.687	-146.781	115.781	156.926	132.033	168.440	-157.776	-53.836	-122.915	105.670	82.965	-162.897	184.016	-21.344	145.533	0.001104	0.00052365	0.00024793	978.24	9.0827e-06	5.8738e-06	1273.5	365.71	5.6886e-06	3.217e-06	548.41	242.95	161.81	79.45	7.1033e-06	127.21	0.0010069	0.00092661	0.00025004	888.39	9.8753e-06	9.7646e-06	1157	334.4	9.8844e-06	1.0226e-05	501.85	222.86	148.9	73.355	1.0558e-05	116.83	-94.644	-100.269	-105.632	-151.848	-8.293	-47.537	-152.482	-146.920	-6.938	6.362	-147.110	-143.353	-141.723	-136.825	-15.641	-139.281	-8191	255	
789.372	1	1	0	0	0.19312	0.33227	0.098478	0.24111	0.15864	0.1842	0.41898	0.15004	0.24133	0.28228	0.15621	0.099982	0.33056	0.45705	0.16107	0.22188	-1.7167	-2.4646	-2.0375	-2.4542	-2.2458	-2.0312	-2.6583	-2.1958	-2.15	-2.375	-2.2292	-2.3583	-2.4208	-2.2375	-2.2604	-2.2479	-71.602	194.100	-60.136	120.633	190.818	159.737	112.860	61.184	161.253	-3.648	193.179	128.147	173.513	145.399	-116.980	150.489	0.0010209	0.0011814	0.00036801	971.45	3.3578e-06	8.7358e-06	1263.6	360.88	7.0186e-06	4.7363e-06	545.18	240.65	159.39	78.808	5.0955e-06	125.75	0.00098662	0.00092857	0.00025573	883.43	9.8777e-06	9.8425e-06	1149.6	331.86	9.9528e-06	1.0128e-05	497.96	220.93	147.03	72.689	1.0287e-05	115.59	-91.028	-67.719	-62.994	-151.881	-12.640	-14.328	-152.257	-146.740	-26.616	-49.556	-147.208	-143.399	-141.598	-136.890	-9.632	-138.913	-8191	255	
789.493	1	1	0	0	0.15942	0.077624	0.26188	0.29838	0.11055	0.10249	0.28679	0.13921	0.13564	0.053106	0.0705	0.20913	0.35895	0.32536	0.11572	0.26544	-1.6313	-2.4479	-1.875	-2.2146	-2.2896	-1.9271	-2.4125	-2.3729	-2.0667	-2.375	-2.2354	-2.3083	-2.3271	-2.1229	-2.3167	-2.3104	148.826	134.786	133.458	174.560	-161.411	-34.199	82.231	-154.179	-90.125	163.483	-57.539	192.707	-161.887	174.620	49.153	86.392	0.00094231	0.0014642	6.1423e-05	963.45	8.6813e-06	7.9794e-06	1264.7	360.21	2.7412e-06	9.7379e-06	543.17	241.01	160.12	78.878	5.6957e-06	126.61	0.00094645	0.00092255	0.00025214	876.5	9.5771e-06	9.7176e-06	1148.4	330.13	9.8469e-06	1.0309e-05	497.46	220.6	147.44	72.702	1.0132e-05	116.27	-91.210	-105.302	-13.844	-151.811	-5.285	-17.540	-152.398	-146.311	-41.285	-24.116	-147.301	-143.149	-141.669	-137.013	-11.964	-139.053	-8191	255	
789.589	1	1	0	0	0.13054	0.05566	0.23564	0.21302	0.3013	0.14908	0.03703	0.14071	0.24404	0.029877	0.11362	0.32788	0.30437	0.07495	0.2593	0.25446	-1.3521	-2.2271	-1.7833	-2.3563	-2.2479	-1.9333	-2.3646	-2.1813	-1.9667	-2.3958	-2.2917	-2.4521	-2.5125	-2.0979	-2.2375	-2.3521	12.949	101.444	60.739	161.800	10.273	133.014	5.917	-154.482	-90.824	14.172	97.512	180.445	159.676	84.925	-144.967	134.386	0.0010264	0.0010195	0.0003028	968.98	8.2056e-06	1.1321e-05	1263.4	362.41	6.4839e-06	9.7695e-06	546.95	244.1	160.42	79.383	7.9521e-06	127.11	0.00094205	0.0009243	0.0002542	880.16	9.6137e-06	9.7826e-06	1153.6	332.87	9.3558e-06	1.0272e-05	501.37	222.81	148.02	73.272	9.9991e-06	116.85	-92.943	-65.054	-95.693	-151.823	-27.540	-13.281	-152.269	-146.597	-1.235	-5.442	-147.136	-143.199	-141.709	-136.925	6.450	-138.933	-8191	255	
789.685	1	1	0	0	0.18346	0.062621	0.070621	0.035486	0.012642	0.39726	0.25137	0.18438	0.24296	0.15384	0.45361	0.075154	0.098001	0.44429	0.044507	0.087665	-1.4167	-2.35	-2.1625	-2.325	-2.4313	-2.0021	-2.25	-2.2417	-1.9146	-2.45	-2.2104	-2.3187	-2.4938	-2.0687	-2.1229	-2.5229	-6.520	121.773	15.186	-100.075	173.721	63.405	128.105	183.702	4.017	-92.139	132.563	-126.625	155.752	156.719	-23.591	-161.611	0.0010546	0.0012914	9.0119e-05	964.98	7.3263e-06	1.0146e-05	1271.3	362.69	7.1942e-06	4.0665e-06	549.73	242.18	160.29	79.437	8.4864e-06	126.51	0.00091648	0.00092867	0.00026443	879.96	9.7189e-06	9.4782e-06	1156.5	332.61	9.4432e-06	1.0078e-05	501.72	222.32	147.84	73.078	1.0122e-05	116.44	-89.050	-59.973	-53.475	-152.114	-3.865	-20.220	-152.366	-146.264	-17.959	-34.025	-147.434	-143.093	-141.443	-137.008	5.681	-138.917	-8191	255	
789.782	1	1	0	0	0.23894	0.053753	0.19739	0.30825	0.11855	0.04804	0.26703	0.12338	0.065422	0.1052	0.26749	0.061241	0.36941	0.2182	0.22082	0.43139	-1.2729	-2.3729	-2.2104	-2.1271	-2.4354	-1.9312	-2.0958	-2.5458	-1.9708	-2.1437	-2.2458	-2.0563	-2.4521	-2.2188	-2.0479	-2.5979	-146.667	140.890	-143.302	93.662	-61.450	105.862	91.106	153.308	-28.298	9.290	166.013	-89.612	128.979	129.582	159.293	189.615	0.00096883	0.0007726	0.00015407	972.18	5.02e-06	1.0116e-05	1258.9	359.31	7.4684e-06	7.8596e-06	543.58	239.68	159.84	78.677	1.0903e-05	125.61	0.00092544	0.00092732	0.00025907	880.37	9.7367e-06	9.8669e-06	1147.6	329.61	9.6492e-06	1.0097e-05	496.21	219.99	146.89	72.415	9.9123e-06	115.47	-97.024	-88.185	-52.697	-151.781	26.977	3.156	-152.283	-146.701	-37.826	-29.544	-147.425	-143.106	-141.717	-136.961	-33.904	-139.145	-8191	255	
789.902	1	1	0	0	0.073745	0.11299	0.096387	0.062102	0.059145	0.30848	0.12391	0.21275	0.15758	0.17197	0.14962	0.41957	0.094848	0.3326	0.21821	0.097682	-1.3563	-2.2188	-2.1208	-1.8917	-2.3812	-1.9688	-2.4125	-2.4437	-1.9562	-2.2313	-2.2292	-1.9083	-2.5104	-2.2812	-1.9062	-2.3937	-98.244	15.971	-126.423	50.826	-35.406	-99.449	-163.307	95.040	0.446	-120.056	-18.598	180.380	-125.385	167.628	-149.073	145.411	0.0010026	0.0008606	0.00044411	964.68	5.9052e-06	8.2909e-06	1265.3	361.72	9.6788e-06	6.5441e-06	542.85	239.38	159.33	78.609	9.2123e-06	126.08	0.0009261	0.00089041	0.00024953	876.44	9.7151e-06	9.6688e-06	1147.3	330.67	9.7061e-06	1.0119e-05	496.19	220.2	146.87	72.54	9.7518e-06	115.85	-91.260	-63.019	-60.481	-151.974	24.932	8.542	-152.364	-146.448	2.218	-26.166	-147.591	-143.448	-141.531	-136.974	-56.447	-139.187	-8191	255	
789.974	1	1	0	0	0.065684	0.039717	0.13749	0.26269	0.152	0.10717	0.1815	0.13441	0.27609	0.019385	0.23049	0.16557	0.17095	0.13156	0.13557	0.33052	-1.4792	-2.1146	-2.2	-2.0458	-2.3604	-1.8604	-2.1292	-2.5271	-1.8896	-2.1813	-2.3729	-2.1292	-2.4958	-2.2833	-2.0979	-2.3708	-121.544	-1.398	-26.489	139.791	-50.348	-87.377	105.321	176.405	16.182	32.096	-155.946	95.030	119.233	177.734	-54.897	161.801	0.0010678	0.0007713	0.00020571	960.72	5.7339e-06	1.1347e-05	1262.6	360.95	7.6018e-06	6.2134e-06	542.69	240.38	160.42	78.422	7.8472e-06	126.61	0.00093362	0.00090386	0.00025042	874.92	9.5483e-06	9.8263e-06	1147.2	329.91	9.387e-06	9.8312e-06	496.38	220.75	147.42	72.523	9.5804e-06	115.96	-95.240	-66.765	-88.725	-151.860	62.258	-7.726	-152.435	-146.298	-1.593	-70.050	-147.384	-143.122	-141.776	-136.944	-20.645	-139.045	-8191	255	
790.070	1	1	0	0	0.14004	0.34414	0.18795	0.21605	0.08696	0.2115	0.27664	0.13423	0.040055	0.076838	0.36565	0.34291	0.37255	0.19958	0.22503	0.21051	-1.525	-2.1417	-2.2375	-1.8375	-2.2958	-2.3458	-2.1583	-2.3833	-2.0083	-2.2854	-2.5667	-2.1937	-2.5062	-2.2854	-2.1583	-2.7062	59.083	194.950	49.771	-124.783	79.790	-66.265	-162.738	147.189	-27.987	-133.135	176.917	-138.168	173.587	168.284	-141.962	179.536	0.00094226	0.00053853	0.0002143	967.22	7.3985e-06	7.0586e-06	1268.4	360	8.8138e-06	5.4578e-06	550.01	242.35	160.04	79.104	5.3617e-06	126.5	0.0009375	0.00090322	0.00026118	879.43	9.9788e-06	1.0363e-05	1151.4	331.13	9.8422e-06	9.6563e-06	500.27	221.85	147.48	72.832	9.8157e-06	116.68	-92.552	-78.079	-78.498	-151.894	-29.085	6.746	-152.382	-146.641	3.550	4.955	-147.494	-143.348	-141.545	-137.061	-14.723	-139.254	-8191	255	
790.166	1	1	0	0	0.18738	0.41436	0.15	0.26096	0.18281	0.056011	0.16503	0.12516	0.071421	0.034449	0.19678	0.2371	0.38148	0.23004	0.13927	0.24622	-1.5146	-2.0667	-2.2062	-2.0187	-2.2938	-2.2542	-1.9167	-2.5563	-2.1479	-2.2062	-2.4646	-2.1104	-2.1271	-2.4021	-2.05	-2.7417	146.536	107.100	59.114	66.233	-9.644	-137.959	55.862	155.011	-61.675	127.083	36.444	-145.918	159.563	-126.469	154.607	155.068	0.00097256	0.0012418	8.9793e-05	970.8	8.3709e-06	1.0573e-05	1276.3	361.98	7.4405e-06	9.4892e-06	545.25	240.95	159.54	78.924	8.1903e-06	126.28	0.00095506	0.00090491	0.00026096	882.25	9.8269e-06	1.0404e-05	1153.3	331.05	9.8139e-06	1.0026e-05	499.62	221.32	147.31	72.537	1.0021e-05	116.12	-93.163	-106.400	-30.193	-152.069	-8.649	-6.555	-152.033	-146.567	22.308	-9.225	-147.255	-143.066	-141.222	-137.000	-10.861	-139.059	-8191	255	
790.285	1	1	0	0	0.15396	0.47849	0.1149	0.25886	0.22888	0.23683	0.2423	0.2526	0.13073	0.19647	0.2565	0.26508	0.18031	0.24228	0.2638	0.45151	-1.725	-1.8208	-2.2167	-2.2208	-2.1063	-2.2271	-2.2417	-2.3625	-2.3063	-1.8396	-2.3625	-2.325	-2.3521	-2.5354	-1.8312	-2.5229	79.859	1.191	84.661	128.214	-32.715	182.810	153.578	156.933	131.505	-16.943	136.592	112.635	142.651	124.747	167.600	120.354	0.0010344	0.00060556	0.00025668	966.98	9.5862e-06	9.8665e-06	1269.6	363.39	2.7114e-06	4.5254e-06	546.79	241.87	161.03	78.967	9.2044e-06	126.71	0.00098065	0.00092803	0.00025717	878.37	9.7061e-06	1.0375e-05	1152.1	331.75	1.0071e-05	9.921e-06	500.44	222.15	148.35	73.05	1.0193e-05	116.77	-95.095	-38.773	-80.592	-151.956	20.552	-37.148	-152.359	-146.407	35.239	-46.367	-147.224	-143.242	-141.788	-137.022	-14.078	-138.908	-8191	255	
790.381	1	1	0	0	0.16393	0.095044	0.13676	0.33482	0.1107	0.25403	0.33928	0.18561	0.22828	0.21682	0.17168	0.11023	0.15966	0.20377	0.096483	0.19051	-1.5771	-1.9354	-2.2833	-2.0125	-2.1	-2.3125	-1.8875	-2.4479	-2.3812	-1.8646	-2.4833	-2.4021	-2.1688	-2.5875	-1.8604	-2.4188	104.490	-130.403	143.719	142.928	-16.619	14.192	168.633	-152.100	-49.410	-25.183	30.471	128.736	-157.113	147.801	-38.603	45.953	0.0010327	0.0010778	0.00034277	973.41	5.9803e-06	5.5904e-06	1269.8	365.4	1.058e-05	9.9681e-06	549.08	242.48	162.5	79.84	8.2403e-06	127.5	0.00099701	0.00093097	0.00026882	882.39	1.0268e-05	1.0599e-05	1154.3	333.79	1.0454e-05	1.0064e-05	502.53	222.95	149.36	73.443	1.0574e-05	117.28	-94.205	-71.062	-64.352	-152.065	-27.176	-62.541	-152.334	-146.328	14.213	-34.346	-147.464	-143.475	-141.239	-136.874	-30.688	-139.032	-8191	255	
790.477	1	1	0	0	0.11648	0.10554	0.205	0.16803	0.25033	0.22213	0.28799	0.27571	0.39053	0.19697	0.13247	0.33969	0.3083	0.5537	0.19024	0.04252	-1.7583	-2.0687	-2.2021	-2.1917	-1.9042	-2.5896	-2.0312	-2.4354	-2.2229	-1.8042	-2.3792	-2.3688	-2.1312	-2.5354	-2.0021	-2.5042	-163.621	131.679	-83.395	148.615	58.321	-135.591	36.626	123.412	-97.833	16.411	171.305	165.247	180.998	-163.457	168.931	146.481	0.0010653	0.00084214	0.0004508	967.98	8.8571e-06	7.1861e-06	1274.3	363.69	4.1275e-06	1.1521e-05	550.46	243.67	161.38	79.516	4.9527e-06	126.88	0.0010072	0.00092743	0.00027545	883.45	1.0148e-05	1.0636e-05	1159.1	334.82	1.047e-05	1.0514e-05	503.36	223.83	148.9	73.441	1.0856e-05	117.2	-96.037	-89.982	-37.792	-151.812	-25.343	-39.423	-152.367	-146.223	18.715	-42.248	-147.224	-143.370	-141.533	-137.054	-40.501	-139.285	-8191	255	
790.573	1	1	0	0	0.14207	0.44396	0.22564	0.27797	0.24565	0.18005	0.21002	0.1547	0.071737	0.26447	0.080181	0.27289	0.073985	0.056634	0.095412	0.27087	-1.9229	-2.0312	-2.3229	-2.1583	-1.875	-2.3979	-2.1562	-2.1479	-2.2333	-1.9875	-2.5125	-2.2812	-2.0312	-2.6	-2.0333	-2.3354	120.941	126.551	30.334	132.727	161.127	-65.642	-161.942	-81.642	15.628	58.491	-56.505	132.114	132.834	-104.091	90.294	110.266	0.00095584	0.0012023	0.00033715	976.26	1.3138e-05	7.8278e-06	1274.1	365.7	4.472e-06	7.2716e-06	551.96	243.62	162.07	79.663	8.6404e-06	127.51	0.001003	0.00096343	0.0002793	886.75	9.9422e-06	1.0685e-05	1158.4	334.19	1.035e-05	1.0659e-05	503.48	223.74	149.33	73.491	1.0672e-05	117.26	-93.772	-77.631	-47.595	-151.711	5.260	-13.546	-152.316	-146.490	8.011	-47.247	-147.662	-143.285	-141.488	-137.070	-40.375	-139.079	-8191	255	
790.670	1	1	0	0	0.27909	0.19856	0.018189	0.18195	0.044929	0.13223	0.34944	0.23443	0.056868	0.064739	0.2316	0.1932	0.16833	0.23716	0.15288	0.088469	-1.8563	-1.9854	-2.1729	-2.3833	-2.0042	-2.3333	-2.2104	-2.1646	-2.4938	-1.8729	-2.3208	-2.275	-2.1813	-2.5375	-2.0563	-2.2229	162.489	-2.884	-37.149	102.950	105.813	32.976	193.635	119.014	-162.154	-99.881	138.349	-150.802	-57.714	194.767	13.116	-148.665	0.0010251	0.00091449	0.00030179	968.69	3.3549e-06	8.409e-06	1266.1	363.76	1.3431e-05	7.1213e-06	546.07	241.53	160.88	79.194	9.2473e-06	126.8	0.0010272	0.00095729	0.00027076	883.78	9.8111e-06	1.0614e-05	1154.7	333.02	1.0216e-05	1.0221e-05	500.29	222.1	148.44	73.043	1.0486e-05	116.52	-95.922	-57.138	-102.534	-152.068	87.232	-22.130	-152.321	-146.317	-10.303	-26.692	-147.059	-143.095	-141.268	-137.158	-39.521	-138.985	-8191	255	
790.766	1	1	0	0	0.30086	0.14547	0.11643	0.32896	0.21077	0.12019	0.47563	0.1438	0.097988	0.067691	0.27462	0.45896	0.44729	0.28303	0.20304	0.2806	-1.9	-2.025	-2.0771	-2.3604	-1.8875	-2.1417	-2.1667	-2.1063	-2.475	-2.1271	-2.0312	-2.4208	-2.0458	-2.4396	-2.2625	-2.0979	22.890	3.836	-72.984	142.590	113.448	-55.027	133.001	114.380	38.728	13.581	-105.346	163.897	-153.454	-148.944	-130.353	96.169	0.00090675	0.00052444	0.00031325	967.56	1.1589e-05	6.7216e-06	1264.6	365.48	9.7277e-06	8.8033e-06	549.06	242.82	160.81	78.888	5.3155e-06	126.19	0.00099344	0.0009287	0.00026584	881.99	9.8949e-06	1.0645e-05	1152.9	333.55	1.0537e-05	1.052e-05	501.77	222.43	148.3	72.969	1.053e-05	116.17	-93.446	-118.635	-55.747	-152.049	-10.088	-24.523	-152.496	-146.387	-9.479	-19.643	-147.627	-143.038	-141.248	-136.720	-44.333	-139.014	-8191	255	
790.862	1	1	0	0	0.042929	0.061644	0.065176	0.19503	0.22847	0.23439	0.31947	0.13234	0.06805	0.12343	0.18157	0.19024	0.40164	0.28478	0.09678	0.31619	-1.7708	-1.9229	-2.1833	-2.3396	-1.9271	-2.2354	-2.4146	-2.0125	-2.3917	-2.0208	-2.0417	-2.4833	-1.8875	-2.3521	-2.1479	-2.0458	122.784	-153.613	159.967	176.549	-14.965	-2.575	126.324	186.135	119.681	34.246	162.503	-55.668	190.332	-117.731	-156.376	156.471	0.00098085	0.0014032	0.0001286	973.04	4.9608e-06	9.2044e-06	1270.9	364.45	5.3618e-06	9.8001e-06	544.29	241.71	160.38	79.078	9.2412e-06	126.33	0.0010046	0.00095765	0.00026068	883.06	9.7635e-06	1.0751e-05	1154.1	332.67	1.0344e-05	1.0374e-05	498.37	221.36	147.59	72.828	1.0493e-05	116.03	-92.105	-97.417	-40.929	-151.880	-5.795	17.750	-152.375	-146.488	-21.056	-28.486	-147.610	-143.385	-141.555	-136.943	-38.798	-139.212	-8191	255	
790.983	1	1	0	0	0.12153	0.28074	0.28244	0.088524	0.13257	0.026579	0.23546	0.15543	0.053688	0.16805	0.17947	0.26869	0.068649	0.33611	0.14197	0.19963	-1.6583	-2.1542	-1.9521	-2.4292	-1.8896	-2.1271	-2.4021	-1.9354	-2.3104	-2.2354	-2.0333	-2.5896	-2.1063	-2.25	-2.2354	-2.2167	187.703	-16.019	-33.185	65.066	29.586	-143.513	107.404	-136.798	124.983	65.583	175.094	108.779	-148.847	-87.028	156.976	151.795	0.0010021	0.0011162	0.00021273	970.14	8.3035e-06	7.8946e-06	1266.6	361.87	1.1572e-05	1.2476e-05	545.85	241.91	160.55	78.992	6.4634e-06	126.02	0.00098474	0.00093025	0.00025815	881.9	1.0055e-05	1.0473e-05	1153.1	332.13	1.0495e-05	1.0934e-05	499.43	222.1	148.01	72.909	1.0731e-05	116.25	-92.175	-77.916	-52.993	-152.267	6.808	-0.712	-152.592	-146.312	-20.976	5.986	-147.705	-143.239	-141.338	-137.006	-47.770	-139.241	-8191	255	
791.079	1	1	0	0	0.18334	0.22988	0.13693	0.25448	0.11513	0.3141	0.32171	0.11871	0.19635	0.13655	0.28443	0.1662	0.14861	0.27695	0.15704	0.49943	-1.9438	-2.0979	-2.0229	-2.5938	-2.0854	-2.2104	-2.4521	-2.0021	-2.2458	-2.4	-2.0708	-2.6146	-2.1021	-2.275	-2.3708	-2.1937	42.740	-22.541	55.098	176.004	-22.705	-154.636	88.175	73.966	67.856	-65.308	119.948	133.168	-145.641	176.956	-114.393	176.309	0.0010034	0.0011726	0.00028193	963.44	9.2661e-06	6.2574e-06	1273.6	363.24	3.4626e-06	3.3328e-06	545.25	239.78	159.41	78.333	1.4018e-05	125.39	0.0010181	0.00098513	0.00026163	880.99	1.0569e-05	1.0862e-05	1157.2	332.64	1.0469e-05	1.0631e-05	499.42	220.51	147.1	72.503	1.0761e-05	115.41	-95.673	-86.799	-56.221	-152.021	-5.295	-16.991	-152.276	-146.604	19.238	-18.955	-147.381	-143.577	-141.340	-136.870	-14.429	-139.001	-8191	255	
791.175	1	1	0	0	0.1698	0.1164	0.07736	0.42546	0.10469	0.39444	0.15376	0.16625	0.14263	0.29491	0.11576	0.229	0.36553	0.22898	0.045079	0.29281	-1.8271	-2.2917	-1.9	-2.5125	-2.2417	-2.2	-2.4833	-2.0625	-2.2208	-2.2521	-2.1583	-2.5354	-1.9979	-2.2583	-2.4062	-2.2562	-147.262	110.744	-157.673	162.167	166.568	-48.265	117.901	164.283	-150.633	67.843	-114.715	184.527	96.784	-135.365	-105.593	132.230	0.0010847	0.0010757	8.5276e-05	960.02	9.9042e-06	5.8916e-06	1253.2	361.09	6.4287e-06	8.0629e-06	542.39	238.54	158.33	78.614	9.1531e-06	125.42	0.0010056	0.00097881	0.00026028	875.91	1.0149e-05	1.0447e-05	1145.1	329.38	1.043e-05	1.0588e-05	495.06	219.48	146.48	72.318	1.034e-05	115.3	-93.014	-96.778	-149.786	-152.027	-36.617	-39.842	-152.418	-146.429	-17.435	8.770	-147.419	-143.484	-141.661	-137.125	-27.733	-139.140	-8191	255	
791.271	1	1	0	0	0.16302	0.2323	0.12058	0.34857	0.027005	0.097489	0.29769	0.14195	0.028717	0.24765	0.13866	0.36442	0.078854	0.27365	0.13883	0.19795	-1.6917	-2.3187	-1.9146	-2.5625	-2.0771	-2.1167	-2.3688	-1.9792	-2	-2.2583	-1.9688	-2.3063	-2.3396	-2.1729	-2.3375	-2.1875	92.578	125.381	-42.827	113.490	64.850	28.538	133.178	158.605	-158.782	-13.710	113.981	159.322	52.465	163.872	24.004	168.714	0.00098833	0.0011967	0.0002208	961.6	1.2435e-05	1.0543e-05	1262.9	360.94	7.713e-06	6.4065e-06	542.33	240.85	159.26	78.295	9.0139e-06	125.33	0.00097694	0.00097002	0.00026065	876.56	1.0241e-05	1.0087e-05	1148.5	330.44	1.0217e-05	1.0718e-05	496.5	220.35	146.64	72.273	1.0887e-05	115.44	-93.870	-94.798	-60.816	-151.998	-10.053	11.600	-152.319	-146.409	-9.942	-25.424	-147.343	-143.324	-141.582	-137.131	-31.407	-139.104	-8191	255	
791.365	1	1	0	0	0.21527	0.23884	0.24496	0.24477	0.29717	0.04465	0.39829	0.14753	0.081973	0.10303	0.21533	0.23815	0.18631	0.29105	0.14752	0.31422	-1.6354	-2.3854	-1.95	-2.3458	-2.0396	-1.9042	-2.4896	-2.1771	-2.0229	-2.4292	-2.1667	-2.3354	-2.2833	-2.0917	-2.2271	-2.3104	63.761	-66.263	111.734	188.873	-92.206	18.360	135.522	103.880	-96.907	-158.466	165.653	183.042	133.120	-159.750	27.130	133.681	0.00097201	0.00095402	0.00028953	961.24	1.921e-06	1.1372e-05	1257.4	359.9	5.6929e-06	8.9418e-06	544.89	240.53	159.42	78.164	4.955e-06	125.7	0.001024	0.0009552	0.00026644	875.41	1.0524e-05	1.0178e-05	1145.9	330.07	1.0075e-05	1.0395e-05	496.96	220.56	146.55	72.213	1.0614e-05	115.61	-96.120	-81.287	-60.393	-152.212	79.090	-18.339	-152.318	-146.406	-3.330	13.852	-147.772	-143.360	-141.542	-137.090	-72.631	-139.173	-8191	255	
791.462	1	1	0	0	0.18158	0.26007	0.043487	0.19976	0.020119	0.074473	0.12462	0.12607	0.045965	0.15469	0.36095	0.1345	0.19526	0.013165	0.18829	0.33326	-1.5063	-2.275	-1.9583	-2.1562	-2.4729	-1.8104	-2.4375	-2.3083	-1.8917	-2.4646	-2.0563	-2.425	-2.5271	-2.1104	-2.4583	-2.2792	79.353	-49.610	1.047	148.457	118.710	47.043	192.505	142.673	195.397	-99.740	127.254	-162.611	71.760	21.084	-134.243	111.203	0.0009661	0.0015033	0.00021435	960.45	5.9196e-06	1.4302e-05	1268	359.7	7.1321e-06	7.1121e-06	544.35	241.74	159.57	78.593	8.2819e-06	126.26	0.00097745	0.00098353	0.00026824	876.34	1.0629e-05	1.0342e-05	1153.3	330.86	1.0254e-05	1.0646e-05	499.41	221.62	147.43	72.659	1.0931e-05	116.42	-92.622	-82.633	-65.665	-151.759	12.073	-49.018	-152.196	-146.603	4.481	-5.682	-147.335	-143.420	-141.520	-136.890	-11.377	-139.099	-8191	255	
791.582	1	1	0	0	0.1067	0.29806	0.13217	0.22065	0.11521	0.16493	0.18762	0.27387	0.21359	0.13422	0.28595	0.47777	0.12591	0.27624	0.16971	0.22258	-1.4479	-2.4625	-1.9708	-2.4708	-2.3208	-1.8479	-2.4104	-2.1417	-1.8583	-2.3271	-1.9937	-2.3167	-2.6146	-2.0542	-2.1688	-2.3917	168.530	-9.701	58.499	154.470	52.652	-159.825	36.473	139.469	-54.815	81.631	-159.089	144.702	150.233	113.874	27.365	104.698	0.00098373	0.00071437	0.00028768	956.05	9.678e-06	1.1727e-05	1260.8	359.55	8.8743e-06	5.3536e-06	540.42	239.37	159.13	77.973	5.7789e-06	125.75	0.0010012	0.00098614	0.0002803	874.96	1.0636e-05	1.069e-05	1149.3	330.11	1.0092e-05	1.0841e-05	496.48	219.83	146.47	72.151	1.074e-05	115.64	-92.769	-100.067	-63.505	-151.804	3.036	-17.865	-152.464	-146.624	-37.891	-40.031	-147.468	-143.365	-141.335	-136.922	-69.017	-139.025	-8191	255	
791.678	1	1	0	0	0.13698	0.081669	0.16903	0.15298	0.19988	0.40716	0.20768	0.28158	0.20764	0.049169	0.41839	0.31648	0.29137	0.20066	0.064465	0.22119	-1.5333	-2.2854	-2.0104	-2.3083	-2.3417	-1.8583	-2.4375	-2.4208	-1.8354	-2.275	-2.2604	-2.1583	-2.6021	-2.1312	-2.1625	-2.5438	-51.422	-161.196	85.566	-76.324	15.086	113.297	104.256	96.475	-57.340	38.390	161.625	168.713	179.946	165.024	31.279	107.806	0.00099578	0.0005945	5.5201e-05	967.48	1.1384e-05	1.1328e-05	1265.2	359.74	6.9795e-06	8.7918e-06	543.71	239.89	159.57	78.836	1.4536e-05	125.8	0.00097564	0.00096646	0.00027939	878.52	1.0783e-05	1.0918e-05	1148	330.8	1.0614e-05	1.1333e-05	498.7	220.81	147.31	72.541	1.115e-05	115.94	-90.625	-88.216	-54.474	-151.853	8.723	-68.853	-152.199	-146.473	6.674	-58.556	-147.545	-143.089	-141.404	-136.823	-24.419	-139.122	-8191	255	
791.774	1	1	0	0	0.18678	0.037663	0.27186	0.31936	0.30327	0.18008	0.20819	0.32255	0.14564	0.26445	0.24504	0.17406	0.26657	0.12737	0.075801	0.20994	-1.6	-2.4146	-2.1937	-2.0875	-2.2333	-1.9104	-2.3438	-2.4688	-2.0146	-2.3417	-2.3104	-2.1333	-2.6146	-2.1417	-2.1021	-2.7854	118.332	-0.205	146.478	163.433	25.635	109.045	92.175	115.852	178.328	7.177	122.111	-126.695	-124.414	67.266	-1.314	107.724	0.00095133	0.00072098	0.00017542	967.84	6.379e-06	1.017e-05	1264.8	365.28	4.3931e-06	9.0162e-06	546.67	240.29	159.13	78.833	1.3151e-05	126.13	0.0010198	0.0010218	0.00029226	877.83	1.0867e-05	1.1226e-05	1150.6	332.24	1.091e-05	1.1344e-05	499.27	220.99	147.32	72.702	1.1333e-05	116.03	-93.524	-70.336	-59.164	-151.767	4.160	-38.336	-152.414	-146.310	-14.981	-24.431	-147.306	-143.258	-141.507	-137.104	-25.731	-139.307	-8191	255	
791.846	1	1	0	0	0.051898	0.021646	0.10689	0.18893	0.13272	0.17091	0.085293	0.48676	0.061965	0.11482	0.0979	0.16642	0.30921	0.28206	0.058089	0.28962	-1.4771	-2.2708	-2.4146	-2.1208	-2.3271	-2.0875	-2.3625	-2.4396	-2.2146	-2.3354	-2.3312	-2.3521	-2.5979	-2.3812	-2.0208	-2.6917	170.914	-18.864	102.753	148.871	135.789	-162.938	-137.352	119.977	136.361	69.172	139.578	187.612	162.919	141.197	17.679	170.281	0.0009627	0.00081976	0.00023526	970.05	9.5454e-06	1.4398e-05	1271.1	364.63	6.3836e-06	7.9385e-06	545.39	243.35	161.36	79.586	9.0237e-06	126.89	0.0010336	0.0010662	0.00030203	880.57	1.1438e-05	1.2125e-05	1156.8	333.71	1.1547e-05	1.1854e-05	501.26	223.28	148.93	73.411	1.134e-05	117.06	-94.222	-65.422	-93.836	-151.982	-9.892	-14.328	-152.110	-146.753	-20.820	-7.931	-147.444	-143.149	-141.640	-136.717	-9.856	-139.118	-8191	255	
791.942	1	1	0	0	0.18003	0.20877	0.2864	0.12388	0.071492	0.2852	0.32413	0.16628	0.33433	0.19105	0.21308	0.47554	0.34586	0.088825	0.26157	0.23868	-1.3917	-2.2021	-2.2938	-1.8917	-2.3208	-2.1292	-2.2687	-2.5375	-2.0646	-2.3	-2.5979	-2.1312	-2.5896	-2.4958	-1.9292	-2.4813	-145.096	62.227	-116.304	104.227	-121.991	186.780	172.051	95.664	-2.012	-164.049	67.792	164.386	152.137	-119.238	-57.057	58.566	0.0010497	0.00059668	0.00019747	977.24	7.1296e-06	1.1938e-05	1283.7	363.36	5.5927e-06	1.3036e-05	547.18	243.95	162.09	79.34	7.0354e-06	126.77	0.0010733	0.0010326	0.0002963	886.75	1.1318e-05	1.157e-05	1165.2	333.92	1.1192e-05	1.1228e-05	502.94	223.9	149.05	73.285	1.1115e-05	116.78	-90.573	-82.465	-28.980	-152.000	25.946	-23.010	-152.219	-146.466	-21.275	-3.443	-147.520	-143.025	-141.440	-136.822	12.149	-139.212	-8191	255	
792.063	1	1	0	0	0.12505	0.20206	0.15768	0.31216	0.19066	0.13358	0.28635	0.20317	0.13491	0.051192	0.26161	0.10452	0.25202	0.3016	0.074292	0.17525	-1.4896	-2.1271	-2.2042	-2.1833	-2.3708	-2.2604	-2.1188	-2.5208	-2.0875	-2.1833	-2.5375	-2.1708	-2.1854	-2.2625	-2.0208	-2.7771	-65.777	-16.884	20.629	-152.944	66.430	44.480	183.406	44.356	128.605	-112.448	142.186	191.327	-131.044	125.133	-22.898	131.228	0.0010097	0.000528	0.00018865	971.71	8.8768e-06	9.527e-06	1276.2	366.1	5.1689e-06	1.3228e-05	541.94	240.69	160.36	78.379	1.0643e-05	125.56	0.0010676	0.0010208	0.00029801	883.32	1.1135e-05	1.1568e-05	1157.1	332.89	1.135e-05	1.1232e-05	498.17	221.24	147.57	72.514	1.0973e-05	115.43	-90.694	-84.006	-46.265	-151.919	-3.065	-30.814	-152.283	-146.406	-86.279	-25.822	-147.406	-143.495	-141.278	-136.723	-3.496	-139.206	-8191	255	
792.159	1	1	0	0	0.19397	0.017956	0.1031	0.19165	0.073769	0.11839	0.036711	0.24177	0.12775	0.23711	0.039521	0.098051	0.23089	0.088786	0.044056	0.32808	-1.6938	-2.0354	-2.4083	-2.0958	-2.1125	-2.4229	-2.0271	-2.5	-1.9792	-2.0292	-2.5667	-2.1417	-2.5104	-2.4917	-2.0563	-2.6521	184.739	153.622	127.371	108.745	42.774	80.306	-97.978	138.643	133.059	-42.562	70.893	-146.022	184.175	-97.202	-15.509	-160.916	0.00098692	0.00091012	0.00020106	966.61	7.0005e-06	9.3525e-06	1261.8	360.02	9.0206e-06	1.2817e-05	543.91	240.46	159.89	78.795	1.0225e-05	125.01	0.0010839	0.0010459	0.00029917	879.39	1.1441e-05	1.1906e-05	1152.3	331.24	1.1603e-05	1.1445e-05	499.05	220.74	147.49	72.569	1.1591e-05	115.27	-90.479	-89.989	-99.711	-151.923	27.881	-13.425	-152.307	-146.486	1.054	2.538	-147.397	-143.350	-141.130	-136.939	5.781	-139.149	-8191	255	
792.255	1	1	0	0	0.48001	0.33403	0.046002	0.1925	0.1381	0.14799	0.29719	0.19868	0.09511	0.0953	0.38971	0.45332	0.33843	0.54508	0.19062	0.22588	-1.7188	-2.0417	-2.4458	-2.1917	-2.1604	-2.5875	-2.275	-2.4354	-2.1146	-2.0167	-2.8417	-2.4333	-2.2542	-2.5979	-2.0292	-2.6583	167.075	-29.208	-25.439	181.462	-123.713	-38.166	128.158	184.123	32.998	38.800	185.811	162.015	-150.262	161.078	142.670	181.137	0.0010708	0.00155	0.00042701	963.68	5.8175e-06	6.4372e-06	1266.2	360.65	3.8646e-06	8.5264e-06	541.65	239.24	158.81	77.658	6.705e-06	125.09	0.0010884	0.0010562	0.0003059	876.73	1.1409e-05	1.205e-05	1151.3	329.56	1.1801e-05	1.1332e-05	497	220.09	146.8	71.974	1.1486e-05	115.11	-96.039	-80.838	-55.292	-151.928	-17.400	-13.209	-152.493	-146.293	5.330	-35.521	-147.662	-143.065	-141.346	-136.877	-14.123	-139.030	-8191	255	
792.374	1	1	0	0	0.12281	0.4191	0.25417	0.28109	0.21953	0.14775	0.21757	0.14886	0.049407	0.30364	0.37826	0.20881	0.23999	0.22354	0.125	0.32784	-1.7062	-2.0167	-2.4437	-2.2604	-2.2667	-2.4375	-2.275	-2.4083	-2.2833	-2.0687	-2.4917	-2.4437	-2.2021	-2.5396	-2.0583	-2.3729	-135.037	-114.155	-154.802	42.063	178.809	136.331	170.308	171.322	192.193	162.702	152.402	181.423	137.064	175.599	117.009	136.913	0.0010092	0.0010705	0.0002328	958.58	7.7e-06	9.3099e-06	1262.6	359.45	5.5202e-06	9.2332e-06	543.69	240.15	159.09	78.561	8.1896e-06	126.27	0.0010834	0.001036	0.00029189	877.18	1.0985e-05	1.1331e-05	1150.2	330.04	1.1264e-05	1.1264e-05	497.61	220.43	146.7	72.417	1.1337e-05	115.9	-91.973	-109.300	-74.261	-151.735	-29.274	28.523	-152.446	-146.212	-11.094	-35.711	-147.142	-143.066	-141.488	-136.842	-23.294	-139.079	-8191	255	
792.446	1	1	0	0	0.10457	0.20052	0.3826	0.26808	0.13897	0.23492	0.25385	0.25965	0.22428	0.087546	0.31281	0.29658	0.34892	0.060327	0.075759	0.1263	-1.8292	-2.0875	-2.4958	-2.4437	-2.1167	-2.3333	-2.2396	-2.3729	-2.3625	-2.05	-2.5854	-2.3396	-2.1083	-2.725	-2.0208	-2.4458	3.670	-62.700	180.812	-144.580	165.974	-66.008	160.498	146.092	75.042	97.476	112.009	-139.903	-97.866	-157.372	128.676	-151.336	0.0010352	0.0015128	0.00022255	961.23	7.6368e-06	4.1841e-06	1268.6	361.82	7.188e-06	9.802e-06	541.72	239.46	158.46	77.604	7.4368e-06	124.12	0.0010726	0.0010263	0.00029713	878.82	1.0696e-05	1.1266e-05	1153.5	330.4	1.1273e-05	1.1072e-05	495.43	219.38	145.88	71.724	1.1453e-05	114.35	-95.178	-75.487	-117.600	-151.941	12.077	-20.324	-152.547	-146.282	-14.769	9.722	-147.326	-143.245	-141.440	-136.922	-21.935	-138.961	-8191	255	
792.544	1	1	0	0	0.073737	0.13916	0.10188	0.20281	0.14854	0.12284	0.47133	0.12688	0.091514	0.092439	0.17037	0.22425	0.17468	0.36175	0.029042	0.051652	-2.0083	-1.8375	-2.2042	-2.2083	-1.8937	-2.5542	-2.3479	-2.1979	-2.5187	-1.9396	-2.5479	-2.2958	-2.3708	-2.7146	-2.2125	-2.4625	-157.598	183.184	103.629	136.674	-94.681	115.611	100.062	185.733	149.523	-109.761	-118.336	129.243	129.668	-129.285	-21.546	132.568	0.00099987	0.00062698	0.00019921	959.23	8.2607e-06	7.9287e-06	1258.7	355.16	5.6066e-06	3.8884e-06	537.94	235.84	157.05	76.889	1.4214e-06	123.93	0.0010616	0.0010159	0.00029201	871.94	1.0576e-05	1.1861e-05	1142.1	326.39	1.1174e-05	1.1118e-05	491.22	216.96	144.51	71.039	1.1855e-05	113.95	-92.658	-99.802	-74.046	-151.988	-37.444	-10.237	-152.256	-146.394	-37.439	-25.939	-147.294	-143.446	-141.776	-136.772	-52.752	-139.008	-8191	255	
792.663	1	1	0	0	0.084914	0.17489	0.40901	0.14976	0.24053	0.17891	0.22903	0.093985	0.098987	0.1417	0.076312	0.43558	0.22246	0.066394	0.21294	0.4905	-1.9583	-2.0896	-2.3063	-2.4583	-1.9104	-2.3937	-2.2875	-2.1604	-2.4333	-1.9771	-2.4375	-2.2333	-1.9771	-2.6688	-2.2896	-2.2125	-87.777	56.829	34.188	-143.069	51.819	-65.877	85.180	115.585	33.321	11.801	76.058	162.840	145.505	-104.547	82.345	109.492	0.00099213	0.0004533	0.0001563	962.94	6.4381e-06	8.8539e-06	1247.1	355.32	6.7484e-06	7.9976e-06	535.86	236.79	156.7	77.116	1.1373e-05	124.28	0.0010786	0.0010571	0.00028754	872.35	1.0646e-05	1.1236e-05	1141.1	325.19	1.1014e-05	1.1269e-05	492.31	217.53	145.04	71.342	1.1434e-05	114.21	-93.756	-78.827	-106.943	-151.696	21.255	8.117	-152.411	-146.360	-3.533	-13.977	-147.564	-143.130	-141.359	-136.675	6.822	-139.026	-8191	255	
792.759	1	1	0	0	0.12214	0.21477	0.18061	0.098386	0.14066	0.13603	0.21794	0.26414	0.12433	0.13505	0.14856	0.22853	0.1181	0.21865	0.13889	0.36368	-1.9375	-2.0208	-2.0208	-2.4354	-1.9312	-2.2667	-2.3063	-2.1437	-2.4771	-2.1792	-2.4604	-2.325	-1.9771	-2.4542	-2.2229	-2.325	4.328	12.006	55.262	175.144	43.510	70.471	174.501	156.712	25.116	84.984	121.421	145.230	-70.896	170.198	-28.914	159.140	0.0010528	0.0010447	0.00026412	950.33	6.625e-06	1.0957e-05	1258.6	357.56	5.0596e-06	5.5138e-06	541.75	238.22	157.83	78.389	2.5614e-06	124.98	0.0010377	0.00099635	0.00028111	869.33	1.0663e-05	1.12e-05	1143.6	327.75	1.0755e-05	1.1078e-05	495.62	219.15	145.7	72.186	1.099e-05	115.28	-95.333	-94.954	-111.900	-151.795	-82.234	-54.451	-152.343	-146.348	21.631	-78.249	-147.077	-143.159	-141.458	-136.874	24.127	-138.881	-8191	255	
792.855	1	1	0	0	0.13307	0.16964	0.091795	0.052775	0.30127	0.16964	0.1455	0.2063	0.27352	0.11468	0.25472	0.23191	0.055678	0.24422	0.074974	0.33313	-1.7354	-2.1354	-2.1396	-2.4813	-2.0062	-2.3854	-2.4479	-2.2417	-2.4542	-2.1437	-2.3	-2.5646	-2.2417	-2.4229	-2.4917	-2.1125	-99.578	173.642	31.059	75.258	82.789	77.717	140.486	-105.943	-12.814	-160.992	159.063	119.966	-113.692	143.240	-137.168	131.873	0.0010144	0.00089279	0.00045142	962.57	5.1143e-06	1.8037e-05	1262.8	361.88	6.8531e-06	5.7291e-06	541.75	239.86	159.23	78.239	2.8919e-06	125.83	0.0010085	0.0010222	0.00027524	875.08	1.0432e-05	1.107e-05	1148.9	330.99	1.0544e-05	1.1327e-05	497.34	220.91	146.96	72.269	1.1303e-05	115.57	-91.783	-124.330	-77.968	-151.809	-7.456	-4.256	-152.442	-146.238	3.236	-100.100	-147.716	-143.144	-141.199	-136.919	-46.880	-138.930	-8191	255	
792.975	1	1	0	0	0.095161	0.2136	0.079871	0.19533	0.29278	0.12654	0.27797	0.11666	0.23164	0.30664	0.099111	0.07548	0.15415	0.18332	0.061521	0.11189	-1.9479	-2.1958	-2.1208	-2.4417	-2.1396	-2.3646	-2.6042	-2.1771	-2.3667	-2.1312	-2.2104	-2.6771	-2.1188	-2.3979	-2.45	-2.1521	138.165	-21.387	60.714	84.152	38.866	177.088	125.379	124.242	56.891	-132.891	98.734	117.411	-139.256	154.657	70.534	117.008	0.000975	0.00073979	0.00019802	955.8	8.8167e-06	9.2315e-06	1259.1	358.35	8.1716e-06	4.7713e-06	539.32	238.43	158.45	78.3	6.5028e-06	125.22	0.0010201	0.0010144	0.00027118	872.05	1.065e-05	1.1012e-05	1144.9	327.89	1.0601e-05	1.1361e-05	493.98	219.56	146.16	72.049	1.1183e-05	115.05	-93.923	-88.110	-96.518	-152.099	-49.167	-6.322	-152.671	-146.354	-25.480	-0.545	-147.527	-143.261	-141.562	-136.980	-69.042	-139.195	-8191	255	
793.072	1	1	0	0	0.030957	0.029865	0.052638	0.24981	0.044865	0.28843	0.32847	0.093681	0.18363	0.20008	0.33426	0.22903	0.31213	0.37982	0.073523	0.25521	-2.0104	-2.1875	-1.8833	-2.6333	-2.1896	-2.2	-2.4958	-2.0917	-2.1896	-2.3146	-2.15	-2.5646	-2.2917	-2.3208	-2.3958	-2.1271	-115.597	70.098	6.118	138.625	184.723	-1.244	138.649	124.484	23.327	-68.637	155.551	187.726	52.274	-141.841	25.498	142.221	0.00093907	0.00093491	4.5225e-05	962.7	5.9312e-06	1.154e-05	1254.4	362.89	6.1918e-06	6.4573e-06	549.61	241.39	160.96	78.977	8.3712e-06	127.03	0.0010158	0.0010288	0.00027627	875.64	1.0543e-05	1.0561e-05	1148.1	332.15	1.0583e-05	1.1037e-05	499.93	222.1	148.06	72.941	1.1297e-05	116.67	-91.565	-62.385	-148.983	-151.911	-34.548	-4.649	-152.528	-146.461	-6.025	-38.096	-147.274	-143.260	-141.610	-136.770	-18.015	-139.126	-8191	255	
793.143	1	1	0	0	0.19571	0.19302	0.28989	0.22385	0.11381	0.069355	0.32388	0.082443	0.18257	0.34749	0.29606	0.37894	0.14099	0.29214	0.35367	0.26648	-1.8	-2.3917	-2.0354	-2.4583	-2.2188	-2.0146	-2.5167	-2.0021	-2.2	-2.2979	-2.2208	-2.7125	-2.2792	-2.2958	-2.4	-2.2687	-91.620	-32.627	-24.885	169.231	29.581	-131.280	153.135	183.171	-21.000	41.823	156.946	153.975	173.396	160.234	-141.027	96.041	0.00098164	0.00099679	0.00011435	969.27	9.7147e-06	3.8064e-06	1262.7	367.34	6.8828e-06	8.6384e-06	549.26	244.15	161.61	79.372	1.7294e-05	126.65	0.0010144	0.0010371	0.00028134	882.23	1.119e-05	1.1091e-05	1156.5	336.24	1.0881e-05	1.167e-05	502.33	223.75	148.9	73.246	1.112e-05	116.67	-91.305	-119.523	-92.503	-151.880	-18.230	-25.702	-152.152	-146.469	22.791	-19.804	-147.459	-143.226	-141.587	-136.919	-26.172	-138.996	-8191	255	
793.264	1	1	0	0	0.039403	0.083141	0.25474	0.33018	0.13239	0.22576	0.34248	0.12672	0.42956	0.19926	0.018054	0.22839	0.16234	0.29986	0.22953	0.57242	-1.8979	-2.1979	-2.0667	-2.5208	-2.2646	-1.9854	-2.6229	-2.0229	-2.3187	-2.3063	-2.0625	-2.3937	-2.3771	-2.0563	-2.4604	-2.3354	158.796	20.633	30.756	88.069	8.048	127.650	143.462	183.877	36.478	-164.465	174.245	-154.018	177.970	159.880	11.943	149.033	0.001093	0.0010071	0.00022916	970.65	5.7883e-06	7.3387e-06	1273.5	366	7.1102e-06	3.0171e-07	551.41	242.46	160.73	79	9.8819e-06	126.35	0.001044	0.0010509	0.00028368	882.93	1.146e-05	1.1305e-05	1159.7	334.93	1.1037e-05	1.1854e-05	503.66	223.03	148.83	73.142	1.1873e-05	116.72	-95.254	-109.090	-64.585	-151.654	31.594	-40.191	-152.609	-146.612	-47.365	64.913	-147.307	-143.437	-141.390	-137.116	-32.369	-138.944	-8191	255	
793.358	1	1	0	0	0.12402	0.1761	0.15219	0.11883	0.1269	0.10012	0.27866	0.14922	0.21673	0.34669	0.32117	0.19158	0.17892	0.23696	0.13491	0.37271	-1.9479	-2.4708	-1.9729	-2.5708	-2.0708	-2.0104	-2.5187	-2.175	-2.1396	-2.275	-2.1833	-2.2917	-2.4562	-2.1771	-2.4167	-2.5021	132.445	-8.166	71.811	-139.148	60.102	130.828	142.421	131.329	-8.795	-121.508	168.941	-149.355	-150.435	137.532	151.660	154.519	0.0010607	0.00058087	0.00022971	970.77	1.1057e-06	6.3777e-06	1266.2	364.04	4.448e-06	9.6509e-06	547.13	241.81	160.82	78.67	9.1162e-06	125.71	0.0010896	0.0011083	0.00029774	887.03	1.1879e-05	1.1657e-05	1157.6	334.36	1.1326e-05	1.1867e-05	501.81	222.02	147.84	72.605	1.1586e-05	115.78	-95.446	-64.310	-83.966	-151.592	14.080	-1.778	-152.323	-146.597	-38.866	3.046	-147.224	-143.340	-141.816	-136.878	11.522	-139.061	-8191	255	
793.454	1	1	0	0	0.24558	0.21892	0.17066	0.23552	0.37512	0.23514	0.26613	0.27657	0.1854	0.24229	0.21501	0.37391	0.3367	0.085186	0.23791	0.22408	-1.55	-2.4104	-1.9104	-2.1875	-2.3229	-2.1042	-2.6771	-2.3521	-1.9958	-2.6167	-2.2062	-2.3438	-2.4938	-1.9542	-2.425	-2.4729	42.249	-35.935	147.026	140.742	-152.188	155.482	131.933	93.032	139.254	3.128	-134.131	156.188	112.227	121.639	2.853	139.893	0.0010371	0.0014085	0.00044308	963.67	5.6712e-06	1.0691e-05	1263.5	362.9	6.6325e-06	9.238e-06	544.21	240.34	158.55	78.018	7.2227e-06	125.63	0.0010605	0.0010637	0.00030119	880.76	1.1513e-05	1.1383e-05	1151.5	332.98	1.1435e-05	1.1635e-05	498.42	220.5	146.96	72.126	1.1575e-05	115.25	-92.863	-62.758	-89.961	-152.044	-27.682	-11.137	-152.081	-146.813	-12.105	-14.612	-147.381	-142.880	-141.795	-136.675	-29.688	-139.100	-8191	255	
793.551	1	1	0	0	0.11456	0.24945	0.20984	0.14194	0.24355	0.096796	0.13955	0.27557	0.024692	0.26346	0.30429	0.066352	0.17879	0.085106	0.095346	0.18668	-1.7167	-2.5687	-1.9667	-2.5438	-2.5083	-1.9208	-2.4521	-2.2125	-1.9354	-2.4208	-2.3146	-2.2875	-2.7396	-2.1771	-2.425	-2.7833	107.143	-90.562	60.181	144.077	-68.068	46.448	102.613	124.599	123.834	-120.227	87.030	96.088	174.833	159.248	114.428	135.067	0.0010236	0.0007217	0.00038257	965.18	5.1126e-06	6.7466e-06	1262.6	360.8	5.8175e-06	7.347e-06	542.89	239.24	159.12	78.104	1.0918e-05	125.06	0.0010709	0.0010587	0.00030604	879.04	1.1466e-05	1.1478e-05	1148.7	331.12	1.1339e-05	1.1572e-05	496.71	220	146.62	72.048	1.1958e-05	115.15	-92.027	-110.427	-83.453	-152.078	-32.184	-53.719	-152.371	-146.302	14.024	-42.994	-147.725	-143.032	-141.389	-136.889	-0.320	-139.081	-8191	255	
793.647	1	1	0	0	0.12542	0.21841	0.15802	0.24484	0.040283	0.11875	0.083706	0.13323	0.068519	0.21463	0.16764	0.094232	0.066909	0.1332	0.17684	0.29731	-1.4458	-2.4188	-2.1229	-2.3312	-2.4188	-2.0438	-2.6458	-2.4062	-1.9479	-2.2562	-2.0646	-2.3521	-2.6146	-2.2292	-2.275	-2.6875	-144.741	-28.189	-24.310	-162.698	193.479	157.803	-6.174	146.484	-150.316	-133.747	-148.810	190.228	-160.081	134.279	-13.264	127.903	0.00099378	0.0013024	0.00015845	965.87	1.0979e-05	9.8495e-06	1259.5	359	5.2091e-06	5.4143e-06	542.07	239.93	158.7	77.989	5.4251e-06	124.63	0.0010826	0.0010541	0.00030749	878.69	1.1653e-05	1.1781e-05	1148.4	329.92	1.1343e-05	1.2008e-05	496.34	219.94	146.66	72.125	1.1554e-05	114.81	-91.782	-79.807	-92.054	-151.669	-16.961	-27.365	-152.347	-146.377	-64.353	-21.491	-147.241	-143.265	-141.577	-136.936	-47.217	-139.197	-8191	255	
793.743	1	1	0	0	0.13027	0.17645	0.01458	0.1371	0.14609	0.1048	0.076228	0.11151	0.10368	0.060512	0.28668	0.23944	0.16771	0.15022	0.20971	0.20342	-1.6167	-2.2521	-2.2083	-2.2542	-2.3438	-2.1271	-2.5062	-2.4979	-2.0896	-2.3521	-2.4229	-2.1646	-2.7125	-2.2771	-2.2042	-2.6083	71.508	-148.616	-150.663	104.053	-138.450	22.379	166.031	-84.563	-79.360	161.458	115.410	194.015	177.692	94.915	161.278	143.386	0.0010527	0.00079091	0.00014992	960.57	3.3468e-06	1.1289e-05	1267.1	363.09	5.1657e-06	1.2452e-05	548.63	240.64	161.11	78.841	8.2489e-06	125.64	0.0010693	0.0010671	0.00031	878.54	1.1516e-05	1.2278e-05	1153.5	332.46	1.1722e-05	1.1642e-05	501.1	221.54	148.22	72.713	1.1526e-05	115.76	-93.391	-89.922	-76.751	-152.196	-13.975	-1.812	-152.341	-146.304	-34.856	-27.016	-147.413	-143.211	-141.133	-136.947	-13.274	-139.241	-8191	255	
793.839	1	1	0	0	0.19858	0.21796	0.21501	0.034659	0.10687	0.10748	0.15918	0.32525	0.12288	0.17877	0.090431	0.13548	0.20422	0.23631	0.20356	0.23572	-1.575	-2.3792	-2.1646	-1.9958	-2.4229	-2.325	-2.4021	-2.4583	-2.0687	-2.1896	-2.3458	-2.0833	-2.8312	-2.3833	-1.9979	-2.7208	171.770	90.616	22.334	15.400	168.730	-99.110	109.011	116.851	-82.977	-27.130	67.825	188.176	-90.401	175.927	178.365	135.389	0.0010177	0.00063472	0.00018718	962.04	5.2261e-06	6.0247e-06	1268.3	360.86	7.9869e-06	8.7266e-06	542.33	239.33	159.3	78.364	3.8885e-06	124.94	0.0010872	0.0010893	0.00031413	879.11	1.1263e-05	1.2161e-05	1155.2	331.12	1.1324e-05	1.1971e-05	497.73	220.27	147.3	72.278	1.191e-05	114.99	-91.380	-79.686	-49.492	-151.972	-6.178	-34.735	-152.214	-146.626	19.411	-26.378	-147.433	-143.264	-141.471	-136.941	-41.133	-139.199	-8191	255	
793.935	1	1	0	0	0.23508	0.04512	0.40213	0.17919	0.25275	0.11187	0.29431	0.36466	0.36683	0.17348	0.1698	0.31525	0.24751	0.066762	0.16896	0.37811	-1.5021	-2.4437	-2.3125	-2.0312	-2.35	-2.2104	-2.0208	-2.4625	-2.1771	-2.1937	-2.4562	-2.2188	-2.5083	-2.3979	-2.1417	-2.6271	-115.142	91.289	180.476	157.224	-116.389	-91.750	99.243	-147.360	64.921	-163.291	-87.655	139.693	170.190	-80.098	113.061	132.364	0.00097156	0.0014967	0.00020635	963.48	7.0402e-06	8.4653e-06	1261.4	357.58	9.5149e-06	7.1232e-06	540.24	238.17	158.73	77.596	6.753e-06	123.95	0.0011363	0.0010938	0.00031471	878.68	1.1818e-05	1.2668e-05	1149	329.69	1.2076e-05	1.2156e-05	495.72	219.32	146.53	71.694	1.187e-05	114.35	-90.664	-46.343	-110.462	-152.165	8.292	-4.793	-152.361	-146.468	8.184	-18.699	-147.392	-143.422	-141.546	-137.028	-25.200	-138.827	-8191	255	
794.056	1	1	0	0	0.047114	0.21847	0.22507	0.15138	0.053917	0.2308	0.21857	0.18226	0.088947	0.03998	0.10888	0.46895	0.33359	0.26807	0.1947	0.30644	-1.5479	-2.3604	-2.4146	-2.0312	-2.3146	-2.2833	-2.2188	-2.4458	-2.2313	-2.2438	-2.5667	-2.1813	-2.325	-2.2521	-2.0729	-2.7625	115.396	-133.023	148.760	60.196	-36.504	58.262	116.162	47.524	21.040	-125.715	92.742	128.034	87.092	122.035	88.567	109.250	0.0010127	0.00082437	0.00024504	960.34	6.2e-06	9.2734e-06	1258.6	358.97	6.8816e-06	1.4798e-05	541.29	238.17	159.43	77.883	1.0482e-05	124.06	0.0011046	0.0010831	0.00031235	875.74	1.1496e-05	1.2789e-05	1146.4	329.7	1.2244e-05	1.2015e-05	495.25	219.44	147.06	71.91	1.2063e-05	114.39	-92.432	-79.480	-91.554	-151.791	-12.060	18.229	-152.190	-146.350	-16.253	13.491	-147.331	-143.264	-141.341	-136.994	-11.303	-139.098	-8191	255	
794.150	1	1	0	0	0.16304	0.22915	0.14302	0.2884	0.17831	0.40803	0.29107	0.1595	0.11482	0.10028	0.19311	0.24769	0.20429	0.15628	0.023762	0.40355	-1.4771	-2.0979	-2.4896	-2.0187	-2.3708	-2.5062	-2.0125	-2.525	-2.0417	-1.9333	-2.4271	-2.0958	-2.325	-2.5958	-1.9813	-2.5187	-78.192	-32.008	62.611	146.196	174.203	-104.161	77.731	74.254	140.889	4.049	171.034	120.630	103.544	160.775	-120.356	156.535	0.00097492	0.0012388	0.00037395	956.94	8.2163e-06	5.4359e-06	1259.3	358.48	5.473e-06	2.953e-06	541.74	238.6	158.9	77.594	1.139e-05	125.09	0.0011199	0.0010919	0.00030944	874.88	1.1804e-05	1.2384e-05	1146.6	329.27	1.2236e-05	1.2103e-05	496.25	219.66	146.97	71.938	1.1921e-05	115.08	-90.175	-105.277	-58.165	-151.959	5.087	-0.831	-152.187	-146.715	-7.708	-14.752	-147.295	-143.198	-141.763	-137.068	-0.559	-139.280	-8191	255	
794.246	1	1	0	0	0.25042	0.24652	0.38123	0.19965	0.28456	0.07578	0.17931	0.32136	0.19788	0.091052	0.16216	0.12311	0.097896	0.23029	0.10789	0.36357	-1.7188	-2.0938	-2.5979	-2.225	-2.1896	-2.4271	-2.0542	-2.4062	-2.2479	-2.1729	-2.6125	-2.4396	-2.3063	-2.5333	-2.0708	-2.4	175.984	-70.979	-18.939	-122.552	36.107	-29.197	-159.749	108.133	94.642	-104.587	42.385	46.174	53.089	162.504	-64.851	126.485	0.00097875	0.0010741	0.00032937	963.01	9.6698e-06	1.3166e-05	1266.8	362.39	9.9353e-06	7.2451e-06	540.97	241.17	159.82	78.022	1.5056e-05	125.56	0.0011348	0.0010771	0.00030897	877.91	1.1536e-05	1.2366e-05	1152.7	331.44	1.2085e-05	1.1968e-05	497.13	221.09	147.44	72.281	1.2081e-05	115.52	-91.851	-60.222	-90.844	-152.002	-32.192	-13.611	-152.501	-146.457	2.748	-43.355	-147.322	-143.326	-141.630	-136.920	-40.849	-138.906	-8191	255	
794.344	1	1	0	0	0.059036	0.022932	0.20908	0.23385	0.11027	0.099864	0.22427	0.089258	0.11274	0.082814	0.16933	0.18757	0.087865	0.28634	0.075448	0.14937	-1.6333	-1.9292	-2.575	-2.1479	-2.025	-2.4521	-2.1167	-2.325	-2.4167	-1.9062	-2.6417	-2.3875	-2.2292	-2.5687	-2.0854	-2.6604	-149.932	37.047	44.379	59.975	119.295	-15.021	102.778	76.193	78.669	34.932	189.493	153.580	122.282	111.618	52.655	121.854	0.0010808	0.00065976	0.00040431	960.24	9.2311e-06	8.0309e-06	1255.9	361.68	4.5257e-06	4.9223e-06	539.81	239.32	160.2	78.286	4.8813e-06	125.75	0.0011163	0.0010538	0.00029421	876.48	1.1221e-05	1.2005e-05	1143.8	332.02	1.19e-05	1.1687e-05	497.13	220.61	147.61	72.53	1.2128e-05	115.68	-93.356	-81.491	-44.053	-152.051	18.671	-0.424	-152.471	-146.458	14.944	2.414	-147.413	-143.402	-141.741	-136.795	-10.860	-138.998	-8191	255	
794.439	1	1	0	0	0.096897	0.2413	0.21361	0.32809	0.2353	0.24815	0.19171	0.2239	0.092099	0.19881	0.0068762	0.39125	0.0753	0.2056	0.093773	0.16592	-1.9979	-2.0458	-2.2417	-2.45	-2.0771	-2.4896	-2.1146	-2.3542	-2.4313	-2.1562	-2.4625	-2.4896	-2.2896	-2.7854	-2.1833	-2.4208	87.350	0.818	-133.567	110.537	-139.538	-90.087	68.962	189.467	-160.419	-9.746	74.461	118.438	92.333	-156.094	29.834	63.402	0.0010253	0.00050227	0.00024363	960.35	7.9381e-06	5.6241e-06	1268.6	364.25	4.2023e-06	7.3207e-06	547.77	241.33	160.92	79.139	1.0314e-05	126.23	0.0011392	0.0010942	0.00030605	877.22	1.1497e-05	1.2121e-05	1152.2	333.48	1.1969e-05	1.1937e-05	501.17	222.4	148.95	73.085	1.2207e-05	116.4	-92.143	-57.611	-47.876	-152.005	-55.869	16.632	-152.506	-146.251	-8.596	3.770	-147.720	-143.266	-141.650	-136.961	-40.270	-138.931	-8191	255	
794.535	1	1	0	0	0.19584	0.15777	0.1845	0.17545	0.144	0.06887	0.15443	0.18669	0.039411	0.13033	0.28974	0.27058	0.32141	0.27372	0.15551	0.16519	-2.1417	-2.025	-2.5667	-2.675	-1.9833	-2.4958	-2.2708	-2.4479	-2.4729	-2.0271	-2.3833	-2.4813	-2.1958	-2.6604	-2.2083	-2.3875	-109.798	-52.580	-120.831	-8.914	-49.276	-5.086	144.112	138.375	13.627	89.358	113.133	-140.690	175.804	102.465	-126.981	151.107	0.0009729	0.0014668	0.0002974	959.77	7.3658e-06	9.2013e-06	1271.7	362.4	6.887e-06	5.5409e-06	546.86	243.12	161.4	79.143	6.9642e-06	126.46	0.0011217	0.0010698	0.00030437	880.66	1.1459e-05	1.1885e-05	1156.6	333.82	1.2132e-05	1.2224e-05	502.47	222.82	149.26	73.247	1.2621e-05	116.33	-95.826	-94.132	-69.204	-151.745	1.175	-12.079	-152.164	-146.515	8.211	-20.551	-146.876	-143.242	-141.329	-137.056	34.828	-139.184	-8191	255	
794.655	1	1	0	0	0.12818	0.1261	0.11856	0.10447	0.28081	0.064236	0.43045	0.10679	0.21938	0.13888	0.1284	0.21679	0.13497	0.14608	0.10995	0.3644	-2.2208	-2.0187	-2.3146	-2.4313	-2.05	-2.4792	-2.4333	-2.2313	-2.4167	-2.0229	-2.5167	-2.6688	-2.2042	-2.6437	-2.2125	-2.0438	176.372	12.170	-119.135	-136.848	-95.419	9.028	107.017	110.086	3.847	-89.331	101.710	79.659	-70.542	184.176	-52.007	170.138	0.0010066	0.0007539	0.0001691	968.84	8.4781e-06	5.9925e-06	1271	364.73	8.9784e-06	5.4185e-06	546.19	242.97	161.73	78.829	6.1521e-06	126.64	0.0011263	0.0011413	0.00030851	884.08	1.1828e-05	1.2332e-05	1159	334.51	1.2367e-05	1.2901e-05	501.86	223.23	148.74	72.995	1.3001e-05	116.41	-93.300	-77.081	-40.244	-151.892	-51.144	3.452	-152.786	-146.230	-35.611	-59.017	-147.255	-143.042	-141.620	-136.818	-52.371	-139.123	-8191	255	
794.752	1	1	0	0	0.15409	0.15508	0.15076	0.16359	0.027288	0.095602	0.1964	0.39354	0.15876	0.24839	0.16303	0.26683	0.48527	0.38466	0.1692	0.12964	-1.9833	-2.1771	-2.4542	-2.6521	-2.1354	-2.3312	-2.5104	-2.1562	-2.6292	-2.2792	-2.1875	-2.5542	-2.1146	-2.5521	-2.4771	-2.3042	85.657	38.321	67.056	88.928	-88.230	-76.647	131.216	80.297	3.960	104.057	74.117	-146.694	136.177	178.127	125.477	129.277	0.00096999	0.0010259	0.00027605	975.18	5.2489e-06	1.0518e-06	1268.2	362.31	7.9632e-06	1.3621e-05	547.31	240.57	160.73	78.254	1.3015e-05	125.43	0.0011406	0.0011403	0.00031897	885.82	1.1984e-05	1.2231e-05	1159.3	332.31	1.2744e-05	1.2699e-05	500.98	220.84	148.16	72.364	1.2866e-05	115.34	-94.118	-93.352	-81.975	-151.924	-19.103	2.247	-152.064	-146.348	21.149	3.287	-147.076	-143.415	-141.446	-136.970	-24.239	-138.710	-8191	255	
794.848	1	1	0	0	0.12408	0.14064	0.13072	0.11652	0.40536	0.23359	0.25952	0.42409	0.076347	0.2877	0.16835	0.27488	0.43673	0.30407	0.11706	0.18795	-1.9813	-2.1688	-2.1188	-2.5167	-2.1229	-2.45	-2.5896	-2.2854	-2.3854	-2.2542	-2.3271	-2.6063	-2.3167	-2.6125	-2.4854	-2.3563	-20.790	-5.429	79.452	131.764	-134.753	-139.440	117.474	146.074	-138.311	156.986	-155.031	142.763	160.828	169.635	-158.385	171.366	0.00097093	0.00074778	0.00019176	967.39	5.1317e-06	1.4324e-05	1258.1	364.11	8.1903e-06	1.2961e-05	544.64	241.34	161.25	78.784	1.3285e-05	125.61	0.0011216	0.0011796	0.00030787	880.52	1.1725e-05	1.2045e-05	1150.8	332.77	1.179e-05	1.2467e-05	499.59	221.57	148.58	72.873	1.227e-05	115.61	-89.600	-76.829	-109.994	-152.160	13.736	0.207	-152.187	-146.677	-12.811	-26.560	-147.101	-143.195	-141.211	-136.884	-36.082	-138.953	-8191	255	
794.944	1	1	0	0	0.044214	0.21261	0.22119	0.21443	0.060869	0.082425	0.15607	0.26663	0.16226	0.16162	0.17047	0.52634	0.17115	0.28639	0.20914	0.12131	-1.9937	-2.3187	-2.1396	-2.4667	-2.1708	-2.2812	-2.5438	-2.1417	-2.475	-2.2646	-2.2396	-2.7687	-2.3729	-2.4437	-2.4479	-2.2396	-63.247	-110.410	169.124	154.652	52.068	-91.713	119.032	159.782	-117.360	-76.379	187.086	130.846	113.276	145.473	-49.005	-155.676	0.00099072	0.00091143	0.00019973	966.82	3.4545e-06	7.9183e-06	1263	365.31	9.968e-06	7.792e-06	546.74	240.85	161.34	79.104	1.4077e-05	125.58	0.0010935	0.0011394	0.00031082	883.47	1.2036e-05	1.2026e-05	1152.9	333.51	1.1836e-05	1.253e-05	500.42	221.87	148.81	73.029	1.2423e-05	115.49	-90.613	-80.315	-22.897	-151.941	-56.295	5.511	-152.165	-146.571	14.258	5.526	-147.810	-143.395	-141.727	-136.685	-36.083	-139.013	-8191	255	
795.040	1	1	0	0	0.19337	0.27226	0.11686	0.16478	0.16366	0.25794	0.14109	0.53266	0.22	0.16485	0.20088	0.23837	0.37984	0.39127	0.020894	0.47047	-1.8896	-2.3292	-2.0521	-2.5604	-2.1833	-2.2458	-2.6688	-2.2042	-2.4896	-2.5625	-2.3875	-2.6208	-2.3312	-2.4729	-2.5667	-2.3	1.069	102.758	48.449	167.049	-18.940	-81.434	137.854	122.818	114.881	106.742	145.208	191.358	176.374	-161.382	6.260	117.768	0.0010257	0.00083121	0.00021435	970.12	9.1978e-06	1.2883e-05	1266.2	364.05	8.1517e-06	1.0562e-05	541.71	240.35	159.91	78.587	8.6026e-06	125.95	0.0010945	0.0011318	0.0003134	883.34	1.198e-05	1.2017e-05	1153.2	333.42	1.2008e-05	1.2438e-05	498.64	221.32	147.98	72.78	1.2601e-05	115.74	-89.223	-89.052	-54.453	-151.901	-6.922	-58.484	-152.435	-146.164	-6.805	-54.850	-147.333	-143.289	-141.385	-136.658	-7.462	-138.953	-8191	255	
#DATA ENDS
