BOXY.EXE: ISS Imagent and Oximeter Data Acquisition Program Version 0.80
Ascii Record File

#ACQ INFORMATION
2  Detector Channels 
16  External MUX Channels 
1  Auxiliary Channels 
5000  Waveform (CCF) Frequency (Hz)
1  Waveforms Skipped 
30  Waveforms Averaged 
1  Cycles Averaged 
16  Acquisitions per Waveform 
10.0806  Updata Rate (Hz) 

#FILE INFORMATION
TRUE -- External MUX Channel results are PARSED.
FALSE -- AC DC and Phase are NOT grouped.
TRUE -- Companion Program Settings File CREATED.
FALSE -- AC data not excluded
FALSE -- DC data not excluded
FALSE -- Phase data not excluded
FALSE -- Auxillary Chn. data not excluded
Tab delimiters

#CALIBRATION STATE
TRUE -- Waveform Calibration Values APPLIED.


#AUX CALIBRATION VALUES
Val Type	aux-1	

Term	1.0000e+00	
Factor	0.0000e+00	


#WF CALIBRATION VALUES
A = Detector Channel
Val Type	A-AC1	A-AC2	A-AC3	A-AC4	A-AC5	A-AC6	A-AC7	A-AC8	A-AC9	A-AC10	A-AC11	A-AC12	A-AC13	A-AC14	A-AC15	A-AC16	A-DC1	A-DC2	A-DC3	A-DC4	A-DC5	A-DC6	A-DC7	A-DC8	A-DC9	A-DC10	A-DC11	A-DC12	A-DC13	A-DC14	A-DC15	A-DC16	A-Ph1	A-Ph2	A-Ph3	A-Ph4	A-Ph5	A-Ph6	A-Ph7	A-Ph8	A-Ph9	A-Ph10	A-Ph11	A-Ph12	A-Ph13	A-Ph14	A-Ph15	A-Ph16	

Term	0.00000e+00	0.00000e+00	0.00000e+00	0.00000e+00	0.00000e+00	0.00000e+00	0.00000e+00	0.00000e+00	0.00000e+00	0.00000e+00	0.00000e+00	0.00000e+00	0.00000e+00	0.00000e+00	0.00000e+00	0.00000e+00	0.00000e+00	0.00000e+00	0.00000e+00	0.00000e+00	0.00000e+00	0.00000e+00	0.00000e+00	0.00000e+00	0.00000e+00	0.00000e+00	0.00000e+00	0.00000e+00	0.00000e+00	0.00000e+00	0.00000e+00	0.00000e+00	0.00000e+00	0.00000e+00	0.00000e+00	0.00000e+00	0.00000e+00	0.00000e+00	0.00000e+00	0.00000e+00	0.00000e+00	0.00000e+00	0.00000e+00	0.00000e+00	0.00000e+00	0.00000e+00	0.00000e+00	0.00000e+00	
Factor	1.00000e+00	1.00000e+00	1.00000e+00	1.00000e+00	1.00000e+00	1.00000e+00	1.00000e+00	1.00000e+00	1.00000e+00	1.00000e+00	1.00000e+00	1.00000e+00	1.00000e+00	1.00000e+00	1.00000e+00	1.00000e+00	1.00000e+00	1.00000e+00	1.00000e+00	1.00000e+00	1.00000e+00	1.00000e+00	1.00000e+00	1.00000e+00	1.00000e+00	1.00000e+00	1.00000e+00	1.00000e+00	1.00000e+00	1.00000e+00	1.00000e+00	1.00000e+00	X	X	X	X	X	X	X	X	X	X	X	X	X	X	X	X	

B = Detector Channel
Val Type	B-AC1	B-AC2	B-AC3	B-AC4	B-AC5	B-AC6	B-AC7	B-AC8	B-AC9	B-AC10	B-AC11	B-AC12	B-AC13	B-AC14	B-AC15	B-AC16	B-DC1	B-DC2	B-DC3	B-DC4	B-DC5	B-DC6	B-DC7	B-DC8	B-DC9	B-DC10	B-DC11	B-DC12	B-DC13	B-DC14	B-DC15	B-DC16	B-Ph1	B-Ph2	B-Ph3	B-Ph4	B-Ph5	B-Ph6	B-Ph7	B-Ph8	B-Ph9	B-Ph10	B-Ph11	B-Ph12	B-Ph13	B-Ph14	B-Ph15	B-Ph16	

Term	0.00000e+00	0.00000e+00	0.00000e+00	0.00000e+00	0.00000e+00	0.00000e+00	0.00000e+00	0.00000e+00	0.00000e+00	0.00000e+00	0.00000e+00	0.00000e+00	0.00000e+00	0.00000e+00	0.00000e+00	0.00000e+00	0.00000e+00	0.00000e+00	0.00000e+00	0.00000e+00	0.00000e+00	0.00000e+00	0.00000e+00	0.00000e+00	0.00000e+00	0.00000e+00	0.00000e+00	0.00000e+00	0.00000e+00	0.00000e+00	0.00000e+00	0.00000e+00	6.26660e+01	-1.60708e+02	-1.38034e+02	-1.81640e+02	-8.09839e+01	-1.13405e+02	-1.57973e+02	-1.62015e+02	-1.03025e+02	-8.37485e+01	-1.80409e+02	-1.70637e+02	-1.81506e+02	-1.76090e+02	-1.06331e+02	-1.49360e+02	
Factor	4.46417e-05	7.40306e-05	1.66068e-05	1.80300e-01	6.95920e-07	6.52801e-07	1.65304e-01	5.16653e-02	1.08927e-06	6.59530e-07	1.02996e-01	2.98071e-02	2.44284e-02	9.16901e-03	8.66652e-07	1.32262e-02	3.52392e-07	3.56068e-07	9.93150e-08	8.43590e-02	3.89487e-09	3.90538e-09	7.38614e-02	2.41382e-02	3.89876e-09	3.90770e-09	4.36374e-02	1.29438e-02	1.10597e-02	4.10157e-03	3.91558e-09	5.63340e-03	X	X	X	X	X	X	X	X	X	X	X	X	X	X	X	X	



#DISTANCE SETTINGS
A = Detector Channel
A-1	A-2	A-3	A-4	A-5	A-6	A-7	A-8	A-9	A-10	A-11	A-12	A-13	A-14	A-15	A-16	

2.5000e+00	3.0000e+00	2.5000e+00	3.0000e+00	2.0000e+00	3.0000e+00	1.5000e+00	3.0000e+00	3.0000e+00	3.0000e+00	3.0000e+00	3.0000e+00	3.0000e+00	3.0000e+00	1.5000e+00	3.0000e+00	

B = Detector Channel
B-1	B-2	B-3	B-4	B-5	B-6	B-7	B-8	B-9	B-10	B-11	B-12	B-13	B-14	B-15	B-16	

1.0000e+01	1.0000e+01	1.0000e+01	1.4400e+00	1.0000e+01	1.0000e+01	1.5100e+00	1.9400e+00	1.0000e+01	1.0000e+01	1.9900e+00	2.4900e+00	2.4100e+00	2.9000e+00	1.0000e+01	2.9800e+00	




#DATA BEGINS
time	group	step	mark	flag	A-AC1	A-AC2	A-AC3	A-AC4	A-AC5	A-AC6	A-AC7	A-AC8	A-AC9	A-AC10	A-AC11	A-AC12	A-AC13	A-AC14	A-AC15	A-AC16	A-DC1	A-DC2	A-DC3	A-DC4	A-DC5	A-DC6	A-DC7	A-DC8	A-DC9	A-DC10	A-DC11	A-DC12	A-DC13	A-DC14	A-DC15	A-DC16	A-Ph1	A-Ph2	A-Ph3	A-Ph4	A-Ph5	A-Ph6	A-Ph7	A-Ph8	A-Ph9	A-Ph10	A-Ph11	A-Ph12	A-Ph13	A-Ph14	A-Ph15	A-Ph16	B-AC1	B-AC2	B-AC3	B-AC4	B-AC5	B-AC6	B-AC7	B-AC8	B-AC9	B-AC10	B-AC11	B-AC12	B-AC13	B-AC14	B-AC15	B-AC16	B-DC1	B-DC2	B-DC3	B-DC4	B-DC5	B-DC6	B-DC7	B-DC8	B-DC9	B-DC10	B-DC11	B-DC12	B-DC13	B-DC14	B-DC15	B-DC16	B-Ph1	B-Ph2	B-Ph3	B-Ph4	B-Ph5	B-Ph6	B-Ph7	B-Ph8	B-Ph9	B-Ph10	B-Ph11	B-Ph12	B-Ph13	B-Ph14	B-Ph15	B-Ph16	aux-1	digaux	

8384.126	1	1	0	512	0.26842	0.10403	0.23643	0.22847	0.39698	0.14303	0.20463	0.17075	0.050917	0.15618	0.12254	0.034032	0.068302	0.11678	0.12335	0.29129	-1.7812	-3.0333	-2.3792	-2.3104	-2.9313	-2.4583	-2.7833	-2.8458	-2.175	-2.8521	-2.6021	-2.7562	-2.8396	-2.3771	-2.8125	-2.7958	-102.002	97.987	-66.602	-87.888	235.480	206.553	138.992	146.036	166.133	86.455	107.094	-61.146	179.012	161.156	-106.767	199.158	0.00041199	0.001317	0.00040482	368.94	1.2606e-05	2.1044e-06	430.86	135.41	3.7489e-06	3.0533e-06	195.07	85.181	55.682	24.366	9.0555e-06	37.754	0.001432	0.0013647	0.00042855	699.5	1.5866e-05	1.4639e-05	711.17	227.35	1.5542e-05	1.4933e-05	359.08	129.25	92.357	36.388	1.7456e-05	56.25	123.483	-75.462	143.002	-108.504	63.753	161.371	-109.659	-104.287	92.095	99.282	-106.302	-102.063	-99.659	-96.321	184.311	-97.827	-8191	255	
8384.222	1	1	0	0	0.055288	0.12442	0.24327	0.41041	0.24274	0.18769	0.21193	0.065367	0.11488	0.16724	0.19504	0.18353	0.30012	0.24755	0.18534	0.092544	-1.9104	-2.6958	-2.6708	-2.5312	-2.8021	-2.5687	-2.6729	-2.7062	-2.25	-2.8229	-2.7521	-2.4521	-2.6021	-2.4083	-2.6875	-2.9333	233.866	80.441	69.470	-114.816	-109.607	-19.662	134.761	55.475	139.214	129.188	24.898	-112.878	193.449	205.614	182.547	-41.981	4.6429e-05	0.00097487	0.00037065	368.15	8.6657e-06	1.8077e-05	431.92	135.8	2.3135e-05	1.0498e-05	198.51	86.105	55.933	24.003	1.2615e-05	37.759	0.0013895	0.0013711	0.00044868	685.68	1.5476e-05	1.5177e-05	725.86	224.14	1.517e-05	1.5551e-05	366.68	127.42	91.165	37.336	1.7768e-05	55.123	227.581	95.416	117.546	-108.540	-5.536	138.209	-110.159	-103.611	-68.827	162.912	-105.740	-101.266	-100.134	-95.512	-71.616	-97.853	-8191	255	
8384.318	1	1	0	0	0.18813	0.12808	0.26482	0.24133	0.26088	0.077178	0.081601	0.059966	0.14946	0.12872	0.25353	0.095329	0.030882	0.0264	0.10404	0.23871	-1.7313	-2.7812	-2.5792	-2.4146	-3.0417	-2.4875	-2.7021	-2.8312	-2.4125	-2.6875	-2.7188	-2.3917	-2.8167	-2.6396	-2.5292	-2.6917	90.148	116.401	139.384	170.161	-115.027	-114.941	60.009	145.705	189.282	165.650	188.180	131.723	0.902	190.584	161.028	34.467	0.00078039	0.0011552	0.00015318	369.87	1.5557e-05	2.2771e-05	429.48	134.28	1.4408e-05	1.772e-05	198.96	85.313	55.215	23.952	1.8077e-05	37.496	0.0013435	0.0014567	0.00045214	671.9	1.4937e-05	1.6195e-05	719.08	219.66	1.4619e-05	1.6516e-05	361.57	124.86	89.711	38.437	1.7367e-05	54.404	23.736	122.058	26.596	-109.563	44.388	144.962	-109.000	-103.873	-16.223	185.833	-105.728	-101.414	-99.795	-96.172	-25.094	-98.183	-8191	255	
8384.439	1	1	0	0	0.1129	0.18307	0.14467	0.16713	0.2766	0.1393	0.13223	0.20883	0.12865	0.26652	0.22509	0.25231	0.11016	0.10786	0.2879	0.016624	-2.0687	-2.8146	-2.6042	-2.1604	-2.8104	-2.5833	-2.5292	-2.9188	-2.3167	-2.525	-2.625	-2.4271	-2.9979	-2.5792	-2.5771	-2.8292	34.793	-11.569	233.590	-63.863	84.208	-84.289	182.494	54.932	178.391	-14.573	152.559	-108.924	150.470	236.879	117.871	195.011	0.0010261	0.0010906	2.8309e-05	366.52	7.9292e-06	8.2469e-06	430.85	134.46	8.9654e-06	2.0138e-06	201.26	84.582	55.188	24.145	2.5652e-05	37.624	0.001333	0.0015626	0.00044294	663.43	1.4954e-05	1.742e-05	710.27	217.98	1.4885e-05	1.7472e-05	356.4	123.68	90.769	39.531	1.673e-05	53.866	77.310	95.183	-74.626	-109.004	185.999	146.657	-109.780	-104.314	187.768	169.061	-105.365	-102.006	-99.521	-95.764	-14.209	-98.312	-8191	255	
8384.535	1	1	0	0	0.16603	0.36448	0.1427	0.076163	0.14521	0.22282	0.32466	0.075044	0.22623	0.076707	0.10798	0.087069	0.16151	0.17	0.12891	0.13227	-1.9229	-2.6458	-2.5938	-2.1729	-2.9188	-2.6979	-2.6771	-3.1208	-2.1208	-2.4813	-2.9062	-2.0917	-2.8521	-2.6667	-2.6208	-3.2	131.743	123.578	82.578	111.892	83.349	109.376	193.698	157.020	211.669	229.185	206.290	70.766	-85.583	172.651	203.888	162.997	0.0012423	0.00090598	0.00045351	367.36	1.1688e-05	7.298e-06	427.6	135.85	2.8612e-05	3.0362e-06	200.68	85.473	55.526	24.848	1.8162e-05	37.627	0.0013854	0.001626	0.00042836	656.84	1.5563e-05	1.8152e-05	699.09	215.5	1.5912e-05	1.7884e-05	349.76	122.85	93.516	39.866	1.6228e-05	53.295	-4.498	3.733	-54.411	-109.137	159.498	154.181	-108.830	-103.775	172.237	179.938	-106.065	-101.638	-99.747	-96.267	3.508	-98.019	-8191	255	
8384.606	1	1	0	0	0.1158	0.18481	0.11867	0.19937	0.025142	0.035192	0.29818	0.20928	0.32505	0.18732	0.026591	0.20734	0.051008	0.11012	0.092187	0.29667	-1.825	-2.4146	-2.7417	-2.4	-2.6937	-2.6792	-2.3417	-2.8729	-2.5875	-2.6958	-2.675	-2.3937	-2.9292	-2.7521	-2.275	-2.9875	-47.443	-49.897	83.383	114.963	196.889	175.820	149.716	171.461	-49.752	89.457	-113.509	147.038	-34.827	184.021	27.422	180.300	0.0018291	0.0014279	0.00011646	369.03	1.3703e-05	1.2495e-05	431.14	136.22	3.325e-05	2.1413e-06	201.08	85.546	55.944	24.771	2.0523e-05	37.912	0.0014883	0.0016145	0.00041336	647.65	1.6529e-05	1.7775e-05	692.34	213.6	1.6969e-05	1.7351e-05	345.62	122.43	96.808	39.293	1.5702e-05	53.256	-3.481	-17.987	-45.305	-108.630	196.904	-16.221	-109.736	-103.687	195.367	165.725	-105.301	-102.150	-100.052	-95.792	23.344	-98.682	-8191	255	
8384.703	1	1	0	0	0.18195	0.22866	0.097515	0.16882	0.045216	0.063766	0.060633	0.25238	0.12571	0.24144	0.14848	0.14632	0.19498	0.20094	0.044079	0.32079	-2.1458	-2.4521	-2.7792	-2.4646	-2.6562	-2.625	-2.3125	-2.8229	-2.5854	-2.2729	-2.95	-2.4542	-2.5917	-2.7812	-2.5021	-2.8146	-85.493	25.315	91.689	51.700	76.700	70.965	-97.495	67.089	41.631	38.768	-113.235	198.338	-93.203	-29.493	111.823	141.772	0.0017064	0.00094001	0.00021608	365.23	1.42e-05	1.0453e-05	430.67	135.68	2.0101e-05	5.504e-06	201.5	85.617	55.892	24.616	4.5265e-06	37.384	0.0015798	0.001553	0.00040246	649.91	1.7431e-05	1.7097e-05	683.06	214.56	1.7749e-05	1.6644e-05	339.4	123.69	98.23	38.356	1.5163e-05	53.82	10.104	-47.691	-12.672	-109.490	200.351	-11.645	-109.622	-103.958	67.091	0.954	-105.178	-101.994	-99.733	-95.721	-13.937	-98.869	-8191	255	
8384.823	1	1	0	0	0.1809	0.084367	0.11179	0.025742	0.23319	0.050037	0.36887	0.15618	0.22826	0.20935	0.20715	0.056926	0.071418	0.14877	0.11293	0.15742	-2.1188	-2.5229	-2.7792	-2.4417	-2.8125	-2.9146	-2.3333	-2.8979	-2.7792	-2.3937	-3.0792	-2.6083	-2.5396	-2.9167	-2.3667	-2.8812	72.158	107.824	-9.198	-19.725	122.133	23.273	162.918	19.091	207.510	-50.228	99.405	-81.916	-116.127	31.611	50.582	26.452	0.00057263	0.0020078	0.00025152	362.94	5.9724e-06	5.1635e-06	430.13	133.82	5.5416e-06	1.6363e-05	201.07	83.66	56.496	24.694	9.2322e-06	37.627	0.001622	0.0014858	0.00038818	668.71	1.7751e-05	1.6402e-05	672.6	219.63	1.8016e-05	1.6137e-05	334.08	127.4	98.197	37.969	1.4859e-05	55.542	-117.724	-61.061	-12.682	-109.599	47.366	91.609	-109.517	-104.297	163.638	1.940	-105.282	-102.679	-99.751	-95.967	-38.248	-98.932	-8191	255	
8384.919	1	1	0	0	0.35068	0.13308	0.16919	0.2651	0.21153	0.21597	0.099647	0.29805	0.022656	0.1344	0.18451	0.20377	0.41754	0.36095	0.19666	0.30644	-2.2396	-2.3125	-2.9604	-2.45	-2.5583	-2.8979	-2.4833	-2.9021	-2.6458	-2.4292	-2.9021	-2.6771	-2.8229	-2.7292	-2.3646	-2.9708	169.592	-60.593	-44.079	183.441	81.605	141.909	-56.283	187.507	-78.001	-116.581	-81.671	234.977	-0.561	229.470	151.019	112.108	0.00010511	0.00059095	0.00020322	367.22	1.3307e-05	1.378e-05	431.06	135.92	2.4288e-05	1.0879e-05	199.24	85.267	57.156	24.813	1.6843e-05	37.769	0.0016077	0.0014486	0.00038066	696.81	1.7313e-05	1.6001e-05	671.69	227.59	1.7432e-05	1.5705e-05	333.85	131.5	96.795	37.626	1.4991e-05	57.256	158.259	-36.719	-81.180	-109.052	39.247	-50.185	-109.603	-104.478	-12.793	17.495	-105.955	-102.074	-99.941	-95.536	199.790	-98.600	-8191	255	
8385.015	1	1	0	0	0.18564	0.17441	0.073703	0.11666	0.22998	0.025971	0.13059	0.20082	0.1606	0.23266	0.051655	0.1969	0.057976	0.22535	0.15233	0.17243	-2.1125	-2.3312	-3.0312	-2.5938	-2.5146	-3.0042	-2.4229	-2.85	-2.7271	-2.2646	-3.0417	-2.5833	-2.4021	-3.0792	-2.2521	-2.7792	45.750	-30.541	133.425	204.854	38.260	227.759	156.355	132.257	233.252	43.952	161.317	199.120	-19.165	133.304	150.650	144.119	0.00046568	0.0014074	0.0004023	367.22	1.7777e-05	6.5721e-06	434.81	136.5	3.1887e-05	4.5012e-06	198.35	86.255	56.714	24.808	2.6029e-05	38.28	0.0015501	0.0014144	0.00038865	718.1	1.6846e-05	1.5754e-05	684.3	233.27	1.6942e-05	1.5387e-05	343.94	134.22	95.744	37.504	1.6072e-05	58.263	140.163	-43.254	132.993	-109.394	16.769	-82.908	-110.174	-104.468	24.351	29.747	-106.021	-101.733	-99.205	-95.698	182.835	-98.518	-8191	255	
8385.112	1	1	0	0	0.066136	0.23613	0.028387	0.17967	0.16793	0.10403	0.10916	0.17131	0.20755	0.29033	0.098282	0.27401	0.23419	0.19162	0.25215	0.10908	-2.3583	-2.4313	-2.7917	-2.7375	-2.5771	-2.8021	-2.725	-2.5958	-2.9208	-2.5187	-3.1396	-2.6833	-2.6208	-2.8833	-2.5771	-2.6333	129.361	36.856	-33.127	203.843	-85.416	145.406	-4.020	-34.693	-41.419	-12.843	233.723	40.631	122.352	-87.659	28.308	-40.366	0.00029002	0.0012608	0.00043497	372.56	3.1959e-06	1.1769e-05	431.25	136.53	1.1961e-06	1.1268e-05	196.02	85.959	57.213	24.713	3.9129e-05	38.15	0.0015235	0.0013982	0.00042153	729.21	1.6494e-05	1.5637e-05	712.17	234.61	1.6837e-05	1.5366e-05	360.57	134.88	95.574	37.57	1.7846e-05	58.137	195.420	-70.563	160.312	-109.009	135.691	-10.234	-110.358	-103.869	-34.889	71.271	-105.699	-101.081	-100.207	-95.534	183.213	-97.994	-8191	255	
8385.231	1	1	0	0	0.15043	0.15476	0.20653	0.15643	0.037631	0.04493	0.2068	0.36115	0.13659	0.04022	0.1086	0.29369	0.073285	0.15673	0.086843	0.12001	-2.4437	-2.4313	-2.7167	-2.8396	-2.2438	-2.9396	-2.7854	-2.675	-2.9854	-2.4667	-2.4604	-2.7979	-2.4354	-2.8292	-2.3937	-2.5958	-4.348	-0.685	59.817	164.145	-29.626	-46.747	-30.398	173.313	28.911	-12.171	204.082	210.257	107.662	185.225	194.499	-106.452	0.00095249	0.00080832	0.00022947	373.24	6.302e-06	6.2942e-06	431.81	136.21	3.8975e-05	1.1587e-05	196.82	85.462	56.858	24.3	1.8767e-05	37.521	0.0015332	0.0014235	0.00046082	729.45	1.6517e-05	1.5819e-05	739.95	232.29	1.6651e-05	1.5723e-05	371.46	132.28	93.902	37.582	1.8661e-05	56.516	108.755	18.231	129.803	-108.952	56.577	207.834	-110.268	-103.627	-22.276	211.625	-106.257	-101.774	-99.458	-95.931	192.881	-97.925	-8191	255	
8385.304	1	1	0	0	0.2139	0.12719	0.18757	0.070256	0.23104	0.080451	0.22078	0.21746	0.061865	0.12461	0.095127	0.26911	0.36782	0.41647	0.11424	0.11581	-2.3708	-2.1417	-2.5604	-2.9437	-2.5	-2.7875	-2.5854	-2.6417	-2.8708	-2.1792	-2.7938	-2.675	-2.4333	-2.8167	-2.3875	-2.4562	-55.279	158.185	-18.961	236.075	-22.009	232.866	185.649	135.701	-84.754	-49.149	-64.838	160.679	-80.794	155.621	12.825	70.852	0.00033771	0.0010843	0.00010599	368.37	7.3856e-06	9.6278e-06	431.26	136.57	1.2184e-05	1.851e-05	199.33	85.907	56.393	24.276	1.4455e-05	38.206	0.0014673	0.0014429	0.00046794	704.31	1.5647e-05	1.6074e-05	743.01	225.59	1.5791e-05	1.6247e-05	372.38	129.56	92.071	38.461	1.8602e-05	55.55	-75.222	98.571	231.676	-108.937	78.666	162.096	-109.885	-104.009	-16.425	197.925	-105.263	-101.665	-99.650	-95.995	20.429	-98.107	-8191	255	
8385.423	1	1	0	0	0.092959	0.16887	0.14436	0.16559	0.075983	0.11219	0.097964	0.24533	0.2984	0.013074	0.12154	0.14328	0.15593	0.16522	0.22994	0.1443	-2.3104	-2.2021	-2.5438	-2.8875	-2.075	-2.5729	-2.7833	-2.5958	-2.7313	-2.6	-2.7542	-2.7375	-2.2562	-3.025	-2.7167	-2.3104	218.529	-89.833	226.755	-61.072	-3.204	-73.971	128.475	-30.080	-120.120	-100.649	215.237	-88.156	207.660	163.222	-80.613	232.148	0.0010118	0.0026421	0.00036748	371.49	8.8794e-06	1.3953e-05	434.01	136.39	1.4288e-05	1.6163e-05	202.13	86.249	56.711	24.459	2.3686e-05	37.999	0.0014113	0.0015429	0.00046433	690.85	1.5228e-05	1.7207e-05	739.48	222.77	1.5439e-05	1.7559e-05	368.51	128.58	91.919	39.811	1.8219e-05	55.391	108.597	135.678	-41.638	-108.959	-16.240	162.337	-109.354	-103.834	226.701	209.292	-104.951	-101.771	-100.342	-96.207	70.864	-98.486	-8191	255	
8385.519	1	1	0	0	0.24162	0.070006	0.069851	0.019567	0.013048	0.073856	0.24369	0.20206	0.28471	0.11406	0.2073	0.1797	0.082469	0.16241	0.069978	0.090742	-2.4458	-2.4	-2.4917	-2.7979	-2.3771	-2.6771	-2.6688	-2.1437	-2.9813	-2.6688	-2.4896	-2.9792	-2.3542	-2.7292	-2.5062	-2.6271	-27.854	-35.370	201.852	25.139	-65.928	-19.122	170.500	17.033	64.824	152.627	229.750	205.886	189.549	113.820	-43.398	186.812	0.0010729	0.00081539	0.00026121	371.32	2.3388e-06	1.7153e-05	437.64	137.06	1.5281e-05	1.2635e-05	202.55	87.43	56.558	24.79	1.8152e-05	38.552	0.0014106	0.0016682	0.00045227	688.14	1.5527e-05	1.8384e-05	733.13	221.63	1.5769e-05	1.8649e-05	363.24	128	94.229	40.8	1.7583e-05	55.061	47.914	143.903	-101.875	-108.570	179.755	149.961	-109.425	-103.533	173.821	-89.567	-105.755	-101.804	-100.295	-95.816	-41.701	-97.763	-8191	255	
8385.615	1	1	0	0	0.23787	0.16902	0.36032	0.36197	0.017841	0.24593	0.33603	0.09759	0.15013	0.20654	0.23031	0.24117	0.14406	0.21421	0.12323	0.2367	-2.2562	-2.5438	-2.4938	-2.9188	-2.4062	-2.7604	-2.9625	-2.4354	-2.775	-2.7812	-2.3812	-2.9646	-2.4313	-2.6396	-2.8521	-2.3854	77.601	212.793	20.209	204.638	72.327	188.705	110.441	10.930	-47.891	39.499	130.959	-48.758	10.693	108.790	108.929	235.967	0.0017751	0.0012159	0.00023566	375.16	2.1412e-05	4.1991e-06	435.79	137.85	3.0939e-05	6.848e-06	199.34	86.668	55.848	24.654	1.3497e-05	38.205	0.0014676	0.0017237	0.00043619	678.31	1.6582e-05	1.8725e-05	722.67	219.52	1.6816e-05	1.8951e-05	356.6	126.28	97.618	40.672	1.716e-05	54.53	-6.136	52.029	-26.933	-108.617	181.937	25.221	-109.846	-104.496	158.029	22.132	-105.276	-101.489	-100.022	-95.831	7.058	-98.410	-8191	255	
8385.711	1	1	0	0	0.23914	0.2361	0.23043	0.18041	0.12506	0.33522	0.23647	0.0057699	0.19638	0.13258	0.13832	0.05464	0.21398	0.23093	0.14166	0.1603	-2.5229	-2.6125	-2.3042	-2.8688	-2.4813	-2.6063	-2.9167	-2.4521	-2.5875	-2.6917	-2.3542	-2.7979	-2.4792	-2.6625	-2.9437	-2.4729	-117.865	-4.510	-38.284	127.316	-10.188	168.225	109.736	184.981	-87.978	-39.808	95.904	149.280	100.717	184.168	-64.040	-88.730	0.0013914	0.0014679	0.00012744	369.67	1.5425e-05	1.9971e-05	437.8	135.62	2.2448e-05	7.5875e-06	202.14	85.932	56.034	24.959	8.9555e-06	37.687	0.0015929	0.0017202	0.00042863	672.01	1.793e-05	1.8506e-05	714.35	218.17	1.8204e-05	1.855e-05	352.6	126.09	100.91	40.122	1.6986e-05	54.643	-4.102	-22.975	-70.249	-108.935	191.108	-18.931	-109.852	-104.207	173.646	27.274	-105.512	-101.925	-99.581	-95.829	-45.074	-98.481	-8191	255	
8385.832	1	1	0	0	0.086834	0.23851	0.059406	0.056015	0.13788	0.30174	0.21249	0.23104	0.15297	0.12028	0.095808	0.062573	0.32841	0.031571	0.1357	0.24556	-2.2479	-2.7292	-2.1104	-3.0125	-2.5938	-2.4708	-2.8833	-2.3896	-2.5729	-2.6188	-2.4667	-2.8854	-2.5479	-2.6396	-3.025	-2.6125	206.529	42.792	234.619	44.896	-65.216	-56.347	208.524	170.571	164.362	174.301	-26.818	-67.807	16.548	-46.696	9.278	-64.697	0.0011997	0.001096	0.00012926	370.05	1.7042e-05	2.8425e-06	431.67	136.29	2.0999e-05	1.129e-05	199.62	85.872	56.311	24.652	1.372e-05	37.814	0.0016939	0.0016661	0.00042106	680.11	1.8922e-05	1.7799e-05	707.02	221.68	1.8815e-05	1.7846e-05	346.31	128.37	102.34	39.194	1.6292e-05	55.966	0.573	-63.525	-84.610	-109.209	175.091	-46.285	-109.738	-104.390	164.770	14.806	-105.456	-102.301	-99.873	-95.620	-17.586	-98.979	-8191	255	
8385.904	1	1	0	0	0.13127	0.14519	0.33075	0.12756	0.050082	0.098244	0.12231	0.079065	0.088787	0.1793	0.20501	0.25052	0.057089	0.23581	0.16558	0.13214	-2.3021	-2.6521	-2.4229	-2.7458	-2.6083	-2.4437	-2.975	-2.5563	-2.7896	-2.7271	-2.1583	-2.8792	-2.7896	-2.2271	-2.8021	-2.4146	16.365	-102.982	-84.062	2.382	-5.873	71.430	155.712	30.231	-1.117	223.311	-38.148	-111.669	106.727	-24.871	71.610	22.248	0.00052879	0.0021366	0.00029542	364.81	3.7762e-06	1.088e-05	434.28	136.49	2.8204e-05	5.2335e-06	203.38	86.08	56.617	24.664	5.1077e-06	37.936	0.0017039	0.0015936	0.00040243	696.26	1.8842e-05	1.7031e-05	694.01	229.07	1.8586e-05	1.716e-05	343.19	132.03	101.65	38.618	1.5667e-05	57.81	52.268	-90.451	-16.552	-109.346	30.041	-18.351	-109.471	-104.714	-13.680	19.055	-105.764	-102.259	-99.948	-95.742	94.781	-98.502	-8191	255	
8386.000	1	1	0	0	0.13268	0.056759	0.05033	0.24452	0.16607	0.30689	0.26195	0.19966	0.07704	0.09828	0.14825	0.19177	0.059153	0.22366	0.23079	0.22841	-2.1667	-2.5687	-2.1375	-2.7542	-2.6354	-2.3792	-2.8854	-2.575	-2.6458	-2.9917	-2.2458	-2.6354	-2.8229	-2.4854	-2.8125	-2.5875	32.621	210.162	115.561	157.322	-67.153	-14.304	-106.076	-69.867	197.621	3.769	-76.249	164.723	106.270	184.304	110.346	-96.738	0.0012084	0.00095647	0.00011952	366.86	1.5871e-05	7.0616e-06	437.94	137.94	3.3067e-05	7.9056e-06	201.19	86.416	57.164	24.691	8.1472e-06	38.622	0.0016461	0.001526	0.00039608	716.14	1.8175e-05	1.6489e-05	690.07	235.71	1.7807e-05	1.6564e-05	344.34	134.89	99.442	38.11	1.5826e-05	59.133	95.346	-62.700	-108.593	-109.482	0.043	-17.605	-109.648	-104.005	14.537	26.556	-105.712	-101.702	-99.418	-95.303	27.178	-98.574	-8191	255	
8386.120	1	1	0	0	0.089923	0.1826	0.11988	0.14963	0.092696	0.055673	0.27385	0.11187	0.2418	0.07732	0.074814	0.30983	0.060748	0.12297	0.072067	0.26763	-2.0417	-2.6854	-2.3625	-2.6688	-2.6771	-2.2417	-2.8875	-2.5812	-2.4708	-2.7729	-2.6312	-2.7354	-2.8583	-2.3083	-2.9083	-2.6667	-104.868	172.634	192.601	60.511	126.111	198.533	130.067	-68.231	-104.739	196.813	12.612	207.908	201.020	-37.021	-94.058	8.610	0.00052534	0.0010365	0.00014336	369.24	1.2979e-05	2.0445e-06	435.77	137.1	1.5103e-05	1.9113e-05	199.5	86.297	56.494	24.722	2.8189e-05	38.205	0.0015849	0.0014853	0.00041087	735	1.7537e-05	1.6168e-05	703.03	239.63	1.7283e-05	1.6096e-05	354.75	136.41	98.05	37.795	1.7129e-05	59.5	85.065	-33.501	67.611	-109.140	26.685	-62.716	-109.861	-104.325	52.609	7.748	-106.042	-102.093	-99.787	-96.047	181.377	-98.158	-8191	255	
8386.215	1	1	0	0	0.13496	0.17064	0.043758	0.16638	0.15556	0.15341	0.28719	0.15263	0.1827	0.12674	0.1739	0.097483	0.19336	0.091035	0.051432	0.28034	-1.8375	-2.7896	-2.1646	-2.7583	-2.7917	-2.3646	-2.8312	-2.8833	-2.1542	-2.9417	-2.3917	-2.5833	-2.8729	-2.2875	-2.85	-2.8417	20.042	192.105	86.807	-50.542	110.593	172.283	-107.914	145.430	69.688	47.191	119.193	-76.989	-58.866	-89.203	-57.912	204.221	0.00078263	0.0013303	0.00059593	376.66	9.6701e-06	1.1132e-05	429.37	137.78	9.9509e-06	5.8251e-06	199.58	86.111	56.268	24.456	1.1511e-05	38.077	0.0015583	0.0014608	0.00044592	742.3	1.7317e-05	1.5938e-05	729.66	239.53	1.6986e-05	1.5898e-05	370.31	135	96.612	37.352	1.8224e-05	58.517	55.669	219.276	153.662	-108.863	25.347	-94.939	-110.340	-103.682	-43.820	-10.108	-106.036	-101.486	-99.350	-95.685	175.278	-97.895	-8191	255	
8386.311	1	1	0	0	0.19265	0.07037	0.13973	0.22615	0.061207	0.27328	0.13195	0.013177	0.23655	0.2432	0.25349	0.039564	0.20436	0.24793	0.090489	0.15787	-2.0792	-2.9708	-2.5938	-2.3875	-2.9146	-2.3333	-2.8937	-2.7208	-2.4646	-2.8208	-2.2583	-2.4771	-3.0563	-2.3958	-2.7521	-2.7125	-30.893	25.846	234.487	182.313	-113.419	40.228	36.802	97.059	-62.371	-90.636	-59.511	64.251	142.471	203.003	-14.241	19.250	0.00052658	0.00013007	0.00033847	375.62	1.5377e-05	8.932e-06	430.64	137.78	1.4709e-05	6.1361e-06	200.66	87.207	56.807	24.508	8.8394e-06	38.293	0.0015091	0.0014438	0.00047038	722.93	1.6739e-05	1.5935e-05	746.29	235.06	1.6454e-05	1.6089e-05	380.24	133.05	95.433	38.184	1.9072e-05	57.872	108.876	-50.215	108.938	-109.307	-10.711	166.986	-110.196	-103.240	-38.978	184.596	-105.844	-101.867	-99.671	-96.093	135.670	-98.170	-8191	255	
8386.407	1	1	0	0	0.086281	0.13695	0.10969	0.14293	0.15383	0.14393	0.29	0.1887	0.12971	0.25386	0.1837	0.1913	0.14381	0.13244	0.11053	0.29969	-1.8583	-2.725	-2.575	-2.3937	-2.7667	-2.5312	-2.5396	-2.6104	-2.2333	-2.8771	-2.675	-2.2646	-2.7979	-2.5687	-2.7417	-2.9667	-113.321	76.095	72.784	-66.298	197.423	103.421	204.153	202.146	114.177	-120.381	-40.852	176.857	202.470	-62.682	67.243	-106.962	0.00032761	0.0022008	0.00030599	373.13	1.3347e-05	2.0115e-05	431.58	138.67	2.2846e-05	2.0355e-05	204.43	87.336	56.53	24.446	1.2701e-05	38.546	0.0014875	0.0015285	0.00049405	714.63	1.6527e-05	1.7227e-05	763.68	233.4	1.6344e-05	1.7444e-05	387.85	132.13	94.833	39.827	1.916e-05	57.328	114.990	132.977	164.747	-108.957	-23.081	202.327	-109.677	-104.209	-43.857	219.722	-105.472	-101.946	-99.697	-96.138	39.226	-98.229	-8191	255	
8386.526	1	1	0	0	0.12951	0.10615	0.16822	0.15197	0.24862	0.30645	0.22	0.20514	0.15184	0.072099	0.28669	0.23366	0.139	0.18743	0.057496	0.059576	-1.9104	-2.6562	-2.4292	-2.2875	-2.925	-2.6208	-2.725	-2.8271	-2.2667	-2.6167	-2.4	-2.2625	-2.8937	-2.4208	-2.5	-2.7458	70.754	146.588	72.675	-72.074	219.466	184.085	137.369	162.401	68.157	151.650	99.893	-100.887	224.677	157.051	-21.850	161.988	0.00050283	0.00052747	0.0001483	373.12	6.2636e-06	1.3905e-05	436.82	137.7	2.0892e-05	5.1072e-06	202.38	86.96	56.41	24.408	7.8765e-06	38.23	0.001451	0.0016294	0.00048761	700.5	1.6003e-05	1.8238e-05	749.34	228.87	1.5855e-05	1.8484e-05	378.34	129.78	93.991	40.715	1.844e-05	56.41	24.010	202.785	-80.880	-109.444	49.953	164.677	-109.135	-104.665	-101.442	89.206	-105.488	-102.039	-100.063	-96.177	-12.193	-98.082	-8191	255	
8386.598	1	1	0	0	0.18378	0.15936	0.14483	0.33518	0.29166	0.22065	0.060756	0.224	0.1284	0.20543	0.19957	0.11447	0.22846	0.093204	0.05067	0.053877	-1.7563	-2.6625	-2.7604	-2.3667	-2.775	-2.2625	-2.5208	-2.6979	-2.4375	-2.6188	-2.7521	-2.5167	-2.725	-2.6562	-2.6688	-2.925	103.042	125.608	-52.245	176.648	-57.212	33.130	-34.484	-95.356	212.423	100.201	227.279	165.942	-64.265	5.259	-65.094	104.636	0.0014893	0.0010539	0.00050754	369.07	4.4727e-06	1.4321e-05	432.41	137.65	3.5765e-05	2.6268e-06	199.78	85.632	55.308	24.331	2.1965e-05	37.879	0.0014547	0.0017229	0.00046651	688.89	1.6238e-05	1.9183e-05	733.25	225.46	1.6387e-05	1.9204e-05	367.93	127.33	95.077	41.158	1.761e-05	55.288	17.236	97.756	-59.485	-109.096	108.652	180.185	-109.814	-104.284	163.093	-91.405	-105.463	-101.742	-99.983	-95.520	1.581	-98.115	-8191	255	
8386.694	1	1	0	0	0.18423	0.15132	0.16808	0.092352	0.10947	0.15711	0.29024	0.038249	0.25387	0.048642	0.15952	0.10893	0.17951	0.19105	0.30048	0.078968	-1.6875	-2.5042	-2.6958	-2.4167	-2.8979	-2.55	-2.3688	-3.0583	-2.425	-2.6292	-2.9	-2.2604	-2.7708	-2.8042	-2.3	-2.9583	-65.668	-100.535	-8.997	136.066	234.359	177.097	207.905	113.034	115.712	113.654	-93.883	181.354	150.408	209.586	125.061	-104.033	0.0013511	0.00075523	0.00042345	368.55	2.8368e-05	1.0619e-05	431.68	136.94	4.438e-05	1.1304e-05	201.67	85.427	55.308	24.496	1.4666e-05	37.755	0.0015292	0.0017407	0.00044824	675.89	1.7123e-05	1.9212e-05	719.09	220.91	1.7463e-05	1.8898e-05	359.83	125.4	97.891	40.594	1.6897e-05	54.283	-13.325	43.658	-64.197	-108.295	216.391	-43.204	-109.660	-104.310	152.877	1.402	-105.457	-101.885	-99.941	-95.360	122.502	-98.406	-8191	255	
8386.790	1	1	0	0	0.1352	0.064033	0.21608	0.52883	0.13785	0.048068	0.12472	0.31705	0.14912	0.12609	0.2967	0.10888	0.1922	0.10815	0.15379	0.18892	-1.9604	-2.5833	-2.9458	-2.1479	-2.6	-2.6417	-2.3771	-2.7458	-2.325	-2.5583	-2.9292	-2.55	-2.6437	-2.7062	-2.2708	-2.8729	20.829	-31.883	109.823	-105.386	151.158	-75.659	177.515	218.335	204.778	41.251	57.700	-114.515	8.900	7.913	-101.795	202.754	0.0017283	0.00085736	0.0003943	366.9	1.279e-05	1.7428e-05	435.3	137.78	1.6049e-05	1.7965e-05	202.66	85.748	56.378	24.553	2.3347e-05	37.909	0.0016074	0.0016606	0.00042539	661.97	1.7827e-05	1.8112e-05	703.05	218.7	1.8136e-05	1.7905e-05	353.4	125.33	100.53	39.731	1.6377e-05	54.765	0.572	-75.275	-16.200	-108.687	168.921	-17.444	-109.454	-104.136	203.527	18.820	-105.739	-102.501	-100.774	-95.793	-39.534	-98.361	-8191	255	
8386.911	1	1	0	0	0.20486	0.19805	0.094741	0.098741	0.058177	0.070202	0.044775	0.40889	0.13345	0.10577	0.18908	0.20232	0.24047	0.24404	0.28795	0.19235	-2.1208	-2.2458	-2.9917	-2.4813	-2.5375	-2.65	-2.5292	-2.8125	-2.5271	-2.2479	-3.0333	-2.6042	-2.575	-2.95	-2.2958	-2.8333	-51.410	208.908	215.353	73.253	17.704	182.147	164.154	177.582	75.705	4.862	230.218	179.609	172.794	181.545	224.634	90.464	0.00057608	0.0012638	0.00025784	365.28	8.0005e-06	2.1977e-05	437.1	138.38	4.9282e-06	1.1099e-05	202.77	85.687	56.374	24.553	9.8033e-06	38.228	0.0016989	0.0016075	0.00041982	678.19	1.8732e-05	1.768e-05	699	224.41	1.8986e-05	1.7424e-05	350.58	129.35	102.21	39.35	1.6046e-05	56.688	45.402	-53.592	-57.354	-109.635	180.580	-17.028	-109.842	-104.569	109.909	42.878	-105.027	-101.784	-100.436	-96.055	-0.833	-98.780	-8191	255	
8387.007	1	1	0	0	0.1937	0.14453	0.09166	0.066308	0.11802	0.11228	0.32138	0.13011	0.17016	0.29078	0.066159	0.14868	0.084883	0.14225	0.014215	0.21451	-2.0083	-2.2896	-2.75	-2.3979	-2.675	-3.0375	-2.4104	-2.8417	-2.525	-2.3042	-3.0354	-2.5729	-2.7687	-2.9292	-2.3521	-2.9	74.988	-50.250	-34.615	17.675	154.044	-50.959	199.600	180.279	184.938	-55.930	159.657	208.737	-107.176	190.945	235.711	141.918	0.0002838	0.0011679	0.0002611	366.53	1.2961e-05	1.3961e-05	432.87	136.75	4.5301e-06	4.9396e-06	201.54	85.275	56.497	24.666	6.715e-06	38.005	0.0017392	0.0015821	0.00041136	708.06	1.8885e-05	1.7407e-05	691.95	232.54	1.8847e-05	1.6943e-05	344.93	133.17	100.52	38.75	1.5745e-05	58.018	3.991	-55.541	22.044	-109.013	-31.780	23.294	-109.241	-104.343	-101.720	19.636	-105.396	-102.002	-100.136	-96.098	65.507	-98.549	-8191	255	
8387.103	1	1	0	0	0.091728	0.05904	0.030022	0.13289	0.15168	0.10998	0.18345	0.080027	0.19894	0.0074137	0.12158	0.075744	0.30809	0.063748	0.1775	0.37981	-2.3479	-2.6625	-2.8042	-2.5625	-2.8104	-2.85	-2.4625	-2.8354	-3.0333	-2.6375	-2.9979	-2.4583	-2.6792	-3.125	-2.5062	-2.6833	128.713	186.883	176.051	223.972	223.629	183.239	194.951	-2.662	114.021	7.697	132.134	-30.698	-114.108	1.502	136.426	213.038	0.0010432	0.00070281	0.00015029	362.47	1.025e-05	5.5195e-06	431.12	136.33	1.7472e-05	5.9545e-06	197.74	84.9	56.103	24.493	1.1994e-05	37.634	0.0016733	0.0015229	0.00040345	729.71	1.803e-05	1.6746e-05	689.8	236.11	1.8035e-05	1.6358e-05	344.32	135.72	97.881	37.979	1.6147e-05	58.616	70.229	-79.392	160.788	-109.204	20.203	15.653	-110.071	-104.639	10.770	117.133	-105.956	-102.193	-99.433	-96.287	211.527	-98.497	-8191	255	
8387.199	1	1	0	0	0.11516	0.20905	0.12077	0.12522	0.23288	0.11291	0.30066	0.058083	0.11199	0.28891	0.094338	0.12094	0.12829	0.055033	0.25415	0.14391	-2.3417	-2.3417	-2.9938	-2.7208	-2.6104	-3.2646	-2.6333	-2.7729	-2.7583	-2.4688	-3.0687	-2.8021	-2.5625	-2.9708	-2.525	-2.9792	87.700	16.862	-50.695	-62.514	215.630	-86.758	41.194	-117.039	-42.828	30.457	135.650	-17.925	150.288	-78.540	219.878	-83.558	0.0010808	0.0012511	0.00031638	366.5	1.7528e-05	2.7383e-06	426.48	138.08	2.1354e-05	1.0579e-05	198	84.733	55.724	24.483	1.5768e-05	38.034	0.0015974	0.0014645	0.00041563	737.7	1.7257e-05	1.6232e-05	705.2	238.54	1.7503e-05	1.6025e-05	357.75	136.77	96.895	37.771	1.754e-05	59.086	84.871	-22.872	127.039	-108.696	32.990	4.967	-110.120	-104.168	35.229	57.223	-106.027	-102.243	-99.787	-95.482	154.752	-97.769	-8191	255	
8387.295	1	1	0	0	0.05987	0.087102	0.12341	0.22401	0.11655	0.098372	0.23146	0.0082258	0.060369	0.10593	0.22046	0.10049	0.021114	0.18248	0.30293	0.47834	-2.6854	-2.3208	-2.8708	-2.6813	-2.5979	-3.1792	-2.75	-2.8042	-2.8042	-2.3563	-2.8896	-2.8979	-2.4542	-3.0146	-2.6125	-2.8	46.587	-46.763	-1.527	121.557	-112.451	23.733	165.407	49.128	227.886	108.314	235.468	128.553	157.832	-112.411	-10.622	227.350	0.00057117	0.00015933	0.00047589	368.43	1.1688e-06	1.0384e-05	427.31	136.87	9.9268e-06	1.1234e-06	198.36	85.909	55.93	24.516	1.5275e-05	38.272	0.0015835	0.001463	0.00045621	742.66	1.7136e-05	1.6148e-05	736.88	238.53	1.7355e-05	1.6069e-05	374.76	136.63	96.559	37.981	1.8985e-05	58.873	165.135	1.592	140.294	-109.236	122.786	35.359	-109.928	-104.304	103.069	219.325	-105.704	-101.903	-99.522	-95.922	154.180	-97.828	-8191	255	
8387.391	1	1	0	0	0.19107	0.17705	0.052526	0.083359	0.041364	0.16539	0.29027	0.081182	0.14107	0.04324	0.23055	0.1115	0.22657	0.22735	0.077373	0.11401	-2.3187	-2.3771	-2.85	-2.8146	-2.325	-2.9667	-2.7333	-2.9271	-3.1021	-2.4917	-2.6479	-3.1667	-2.55	-2.9271	-2.7542	-2.7792	117.452	12.845	180.111	73.208	71.514	6.349	-77.876	238.195	-35.728	-34.138	-90.107	15.691	11.907	153.765	166.524	228.841	0.0012415	0.00076951	0.00011526	371.71	1.0409e-05	1.5577e-05	429.85	137.55	1.2739e-05	1.392e-05	199.78	85.686	55.89	24.122	1.0124e-05	37.966	0.001566	0.0014779	0.00048513	732.96	1.6737e-05	1.6453e-05	757.13	234.85	1.6887e-05	1.6539e-05	382.08	133.61	94.578	38.492	1.9403e-05	57.374	104.317	197.981	112.455	-108.500	36.712	215.652	-109.725	-103.717	85.343	210.769	-105.742	-102.035	-99.711	-96.517	85.594	-98.318	-8191	255	
8387.512	1	1	0	0	0.12471	0.20043	0.20493	0.094566	0.31113	0.19532	0.25073	0.061019	0.042694	0.12654	0.07375	0.14737	0.22389	0.1844	0.22065	0.090198	-2.575	-2.3854	-2.7979	-2.8229	-2.5875	-2.9354	-2.7958	-2.5	-3.2625	-2.4896	-2.6604	-2.8958	-2.5083	-3.0583	-2.5979	-2.4083	-51.136	-29.328	70.941	209.632	21.513	-23.124	214.238	122.638	169.784	16.115	103.256	199.832	178.405	195.029	232.752	-92.173	0.00045479	0.0029531	0.00029899	366.78	1.3672e-05	7.4381e-06	427.28	135.73	2.7519e-05	1.913e-05	199.26	85.193	55.536	24.236	1.1688e-05	37.631	0.0014973	0.0015482	0.00048723	712.62	1.6222e-05	1.7275e-05	759.23	229.57	1.6316e-05	1.7773e-05	380.91	131.36	93.564	39.742	1.9532e-05	56.853	86.192	88.847	32.680	-108.828	13.767	-94.759	-109.733	-103.906	-29.326	192.636	-105.803	-101.634	-100.089	-96.336	-50.065	-98.151	-8191	255	
8387.606	1	1	0	0	0.21745	0.29994	0.21712	0.20751	0.15642	0.068489	0.14056	0.10194	0.26523	0.46542	0.19251	0.12136	0.035899	0.26492	0.12082	0.12215	-2.6146	-2.6875	-2.6229	-2.9313	-2.3063	-2.7792	-2.8354	-2.3896	-3.05	-2.3812	-2.8021	-3.0167	-2.2979	-2.8042	-2.8021	-2.4208	96.815	142.723	203.360	189.050	154.742	173.767	30.727	206.039	41.166	118.217	27.918	-63.130	-110.721	-4.637	129.003	206.965	0.00025867	0.0016186	0.00040977	369.19	7.3988e-06	1.4909e-05	430.5	136.02	1.2989e-05	1.0193e-05	201.33	84.494	54.963	24.14	1.9412e-05	37.826	0.0014853	0.0017073	0.00049114	714.75	1.6516e-05	1.9041e-05	761.32	230.54	1.6688e-05	1.9598e-05	380.16	131.43	95.267	41.373	1.9342e-05	56.745	59.436	105.972	-75.341	-108.671	85.633	119.602	-109.319	-103.926	-30.721	202.743	-105.511	-101.771	-100.201	-95.486	7.632	-98.289	-8191	255	
8387.702	1	1	0	0	0.067005	0.20375	0.36716	0.046217	0.29908	0.17311	0.17025	0.10698	0.19483	0.13981	0.30648	0.10386	0.13021	0.094341	0.15558	0.058389	-2.5958	-2.3771	-2.5125	-3.1083	-2.5958	-2.7479	-2.6937	-2.2896	-3.0292	-2.6979	-2.4229	-2.9417	-2.5312	-2.6063	-2.8146	-2.5646	112.106	70.539	49.400	187.881	81.903	-110.239	-49.860	-73.459	-105.964	-58.671	-96.997	171.735	162.638	191.078	15.236	143.571	0.00091164	0.0015114	0.0002144	369.83	1.3048e-05	1.5563e-05	433.71	137.07	2.5035e-05	7.6672e-06	199.95	85.577	54.714	24.415	5.7216e-06	37.914	0.0015391	0.0018258	0.0004808	708.54	1.7122e-05	1.9905e-05	748.64	226.94	1.7279e-05	2.0145e-05	370.19	129.43	97.286	41.537	1.8338e-05	55.577	0.052	179.833	-23.580	-109.225	179.698	195.390	-109.400	-104.102	184.653	229.081	-104.906	-101.993	-100.097	-95.940	-9.316	-98.055	-8191	255	
8387.774	1	1	0	0	0.33221	0.06382	0.10896	0.14838	0.31214	0.15679	0.11356	0.15215	0.13642	0.17399	0.23342	0.088392	0.32426	0.18253	0.34336	0.11891	-2.4646	-2.4417	-2.325	-3.0375	-2.5458	-2.6479	-2.8187	-2.5729	-3.1167	-2.7792	-2.4708	-3.0167	-2.6208	-2.7542	-2.6708	-2.525	-107.197	-51.479	84.218	212.512	66.289	-6.058	212.757	32.535	7.769	7.464	-94.155	-83.182	144.454	-78.180	120.842	28.200	0.0016403	0.0013072	0.00013509	371.09	1.1972e-05	8.7229e-06	429.13	136.45	4.1865e-05	1.877e-05	199.83	85.936	55.025	24.461	1.4863e-05	37.972	0.0015914	0.0018084	0.00045022	686.45	1.7864e-05	1.9339e-05	727.13	221.72	1.8039e-05	1.9473e-05	362.1	127.05	100.48	40.849	1.7553e-05	55.146	12.389	-25.118	-80.385	-108.493	193.192	77.687	-109.767	-104.347	177.947	16.171	-105.888	-101.747	-100.441	-95.673	49.714	-98.125	-8191	255	
8387.895	1	1	0	0	0.099183	0.18598	0.081338	0.19452	0.32459	0.25196	0.32495	0.19703	0.048689	0.032014	0.089702	0.21575	0.26255	0.022575	0.17686	0.22587	-2.5583	-2.65	-2.4104	-2.9458	-2.5062	-2.4146	-2.9562	-2.3458	-2.7229	-2.9125	-2.1833	-3.0854	-2.6021	-2.7625	-2.8021	-2.6958	-104.155	157.622	55.115	-86.496	-44.668	-41.034	164.815	-66.829	155.643	-53.280	126.513	14.446	216.838	-117.841	-10.301	178.011	0.001083	0.00086935	0.00010644	362.78	1.5953e-05	5.7229e-06	435.09	135.61	2.1528e-05	1.6358e-05	197.39	84.567	55.485	24.637	3.5496e-06	37.561	0.0016798	0.0017301	0.00043637	676.62	1.8879e-05	1.8527e-05	714.16	221.14	1.884e-05	1.8593e-05	353.18	126.57	102.57	39.987	1.696e-05	55.561	33.132	-67.563	-102.380	-109.498	180.992	-54.350	-109.561	-104.534	171.881	-4.953	-105.535	-101.675	-99.998	-95.907	150.073	-98.403	-8191	255	
8387.991	1	1	0	0	0.067527	0.19014	0.27559	0.29029	0.10166	0.15135	0.16779	0.08771	0.13028	0.33818	0.1169	0.17916	0.13626	0.22863	0.18705	0.06913	-2.375	-2.7812	-2.4188	-2.7917	-2.5333	-2.4875	-2.7333	-2.5854	-2.9479	-2.6458	-2.4083	-2.875	-2.6479	-2.4125	-3.0854	-2.5833	114.862	141.040	142.136	-96.596	145.522	120.788	71.119	35.624	221.503	136.096	102.587	53.238	-55.904	-17.022	183.693	167.453	0.00081845	0.0017498	0.00022647	363.28	7.6618e-06	1.4465e-05	424.28	134.06	1.8083e-05	1.3025e-05	197.05	83.325	55.523	24.407	1.2283e-05	37.311	0.0017376	0.0016637	0.00042425	690.31	1.9483e-05	1.7774e-05	698.46	225.3	1.9151e-05	1.7777e-05	344.02	128.5	102.1	38.879	1.6103e-05	56.683	-21.931	-62.778	-32.031	-109.598	-61.305	31.294	-109.165	-104.246	-41.955	37.168	-105.649	-102.514	-99.480	-96.013	-3.973	-98.791	-8191	255	
8388.087	1	1	0	0	0.13811	0.13075	0.18632	0.044338	0.20623	0.063529	0.25181	0.1304	0.3919	0.066689	0.33857	0.059214	0.20612	0.36493	0.11993	0.20835	-2.2792	-2.6917	-2.6	-2.9625	-2.6146	-2.4521	-2.9542	-2.3479	-2.4917	-2.9583	-2.3438	-2.8646	-2.8229	-2.3708	-2.9833	-2.6562	-99.228	-96.760	235.761	197.511	127.980	-27.743	181.571	-97.093	219.941	-109.419	-69.758	221.570	203.179	213.684	-117.631	204.749	0.00067322	0.0016788	0.00023963	360.06	1.8485e-06	8.2226e-06	426.65	134.26	1.9994e-05	1.1174e-05	196.6	83.249	55.664	24.516	9.4479e-06	37.356	0.0017024	0.0015893	0.00040567	708.04	1.91e-05	1.723e-05	687.39	232.97	1.8738e-05	1.7467e-05	341.93	133.01	101.29	38.834	1.6296e-05	58.902	45.480	-31.447	-93.053	-109.281	155.339	8.105	-109.504	-104.642	-7.828	13.289	-106.003	-102.109	-99.813	-95.683	92.640	-98.934	-8191	255	
8388.183	1	1	0	0	0.30266	0.13265	0.090854	0.27278	0.14806	0.19218	0.21365	0.15851	0.19408	0.23588	0.11563	0.12043	0.015058	0.10446	0.1691	0.06949	-2.0229	-2.8729	-2.3542	-2.8438	-2.6104	-2.3417	-3.0312	-2.5438	-2.6229	-2.9396	-2.3792	-2.7562	-2.9688	-2.6708	-2.8604	-2.6583	83.363	23.166	-103.115	218.877	-96.252	31.513	171.942	84.195	-5.194	99.936	-75.636	-108.666	-105.269	-104.537	16.552	-8.966	0.00065225	0.0010691	0.00020616	360.9	1.424e-05	4.9752e-06	415.35	133.69	3.3584e-05	1.0469e-05	194.55	84.129	55.39	24.676	2.7586e-05	37.991	0.0016902	0.0015851	0.00041792	741.36	1.8978e-05	1.7301e-05	700.19	241.82	1.8568e-05	1.7378e-05	353.98	137.41	100.57	38.907	1.723e-05	60.797	200.080	-51.331	141.043	-109.373	31.478	-51.530	-110.027	-103.519	-44.210	19.069	-106.216	-102.180	-99.486	-96.397	164.519	-98.429	-8191	255	
8388.304	1	1	0	0	0.11931	0.099949	0.24495	0.052693	0.023536	0.2043	0.063247	0.14844	0.16848	0.31317	0.098147	0.39531	0.13765	0.17291	0.17437	0.099866	-2.1104	-2.9813	-2.3354	-2.4917	-2.8812	-2.4333	-2.9625	-2.6437	-2.4313	-2.9229	-2.5479	-2.7979	-2.9792	-2.2583	-2.7438	-2.7333	-16.692	46.058	104.113	169.155	-41.867	209.093	-31.314	219.990	37.443	-23.883	112.834	159.788	146.815	10.306	169.547	114.473	0.0005287	0.00032744	0.00035872	365.84	6.2245e-06	2.2378e-05	420.52	135.32	3.0318e-05	9.0127e-06	192.85	84.667	55.462	24.43	9.7996e-06	37.978	0.0016676	0.0015656	0.00045054	755.54	1.8462e-05	1.6975e-05	722.18	244.57	1.8102e-05	1.6883e-05	368.57	137.56	99.179	38.316	1.8362e-05	60.139	121.240	-31.823	97.650	-108.888	-34.038	14.129	-110.351	-103.890	-48.866	22.818	-105.337	-101.776	-99.886	-95.956	134.479	-97.936	-8191	255	
8388.400	1	1	0	0	0.08722	0.076512	0.037324	0.11338	0.079144	0.1068	0.26879	0.22146	0.13492	0.2053	0.13157	0.12469	0.17978	0.034548	0.19032	0.18582	-1.9688	-2.8667	-2.3708	-2.6437	-2.8729	-2.3187	-2.8063	-2.8104	-2.5167	-2.9562	-2.5854	-2.9333	-2.9292	-2.4458	-2.8354	-3.0104	73.964	-78.267	179.045	88.031	58.525	-29.899	224.962	159.851	-42.066	-30.704	48.581	3.007	220.297	194.504	204.445	200.962	0.0011742	0.0005385	0.00058976	372.28	7.764e-06	6.4702e-06	423.28	137.16	3.0296e-05	7.5746e-06	197.18	84.785	55.871	24.523	1.2713e-05	37.426	0.0016025	0.0014978	0.00047397	740.4	1.7455e-05	1.6182e-05	736.57	238.17	1.7089e-05	1.6213e-05	376.77	134.18	96.883	38.056	1.9149e-05	58.674	66.667	65.584	138.979	-109.054	85.731	-81.132	-109.996	-103.595	9.754	110.692	-105.395	-101.505	-99.950	-96.529	191.363	-98.420	-8191	255	
8388.472	1	1	0	0	0.10881	0.036804	0.099165	0.16217	0.11609	0.10087	0.18874	0.11666	0.17906	0.18562	0.24772	0.22219	0.059833	0.25292	0.11094	0.44903	-2.1021	-2.7729	-2.6333	-2.5687	-2.9083	-2.6521	-2.6021	-2.8688	-2.5021	-2.9333	-2.6854	-2.5208	-2.9313	-2.5542	-2.5458	-2.7646	-17.244	10.106	-95.182	175.873	-30.736	76.248	-7.685	-82.985	191.762	-86.676	-99.929	188.451	97.346	-95.405	180.314	218.055	0.00096256	0.0016948	0.00017281	367.87	5.0918e-06	1.7374e-05	425.99	136.26	2.9426e-05	1.7327e-05	196.73	85.044	56.207	24.423	3.4496e-06	38.225	0.001545	0.0015184	0.00050093	729.2	1.7217e-05	1.6944e-05	759.38	236.16	1.6897e-05	1.7181e-05	389.11	133.1	96.567	39.449	2.0034e-05	58.366	159.293	124.593	87.074	-109.227	-5.701	173.834	-109.957	-103.944	-7.942	222.873	-105.654	-102.098	-100.370	-96.081	25.917	-98.013	-8191	255	
8388.592	1	1	0	0	0.11873	0.1397	0.062655	0.10421	0.14375	0.16331	0.24206	0.069953	0.076429	0.28727	0.11942	0.14949	0.14487	0.1783	0.21314	0.023207	-2.0833	-2.8438	-2.4375	-2.5542	-3.1875	-2.5104	-2.8354	-2.7833	-2.2521	-2.9833	-2.7146	-2.2833	-2.9167	-2.6708	-2.5958	-2.7562	142.016	-96.447	-6.717	33.235	103.114	118.092	-102.757	90.106	-82.013	-47.808	84.642	-114.721	-104.372	181.113	-80.283	131.189	0.00024912	0.0018928	0.0002716	374.75	1.1919e-05	1.7954e-05	428.29	135.97	5.0422e-06	1.6456e-05	200.28	85.012	57.363	24.118	2.3412e-05	37.789	0.0015368	0.0016468	0.00051987	728.7	1.718e-05	1.8615e-05	770.44	236.05	1.6823e-05	1.8829e-05	392.29	133.05	96.649	41.073	1.9753e-05	57.875	176.322	88.202	-86.438	-108.893	84.765	167.823	-109.700	-104.168	-59.781	153.702	-105.342	-101.830	-99.980	-96.262	76.678	-97.844	-8191	255	
8388.687	1	1	0	0	0.18387	0.20552	0.088238	0.27596	0.11385	0.10117	0.30908	0.087602	0.24156	0.2258	0.13706	0.084674	0.17558	0.31482	0.16258	0.16293	-1.9042	-2.9229	-2.8646	-2.275	-3.1896	-2.7625	-2.5896	-2.8937	-2.3833	-2.8146	-2.8	-2.6708	-3.0417	-2.5979	-2.5542	-2.7104	-96.621	108.064	55.422	-79.329	1.761	217.385	-93.738	61.802	4.362	89.479	-41.659	95.998	210.784	213.267	-15.202	165.561	0.00095825	0.0012665	0.00040771	381.35	8.2453e-06	1.3001e-05	437.82	137.05	1.7042e-05	7.2307e-06	202.94	86.403	56.824	24.757	2.4129e-05	37.991	0.0015231	0.0017628	0.0005086	726.52	1.7133e-05	2.0139e-05	770.04	235.93	1.7323e-05	2.0285e-05	391.36	134	98.928	43.061	1.968e-05	58.325	33.113	139.232	-52.393	-109.074	-105.109	177.299	-110.123	-104.093	228.041	190.769	-105.193	-101.640	-99.518	-96.686	-27.230	-98.208	-8191	255	
8388.783	1	1	0	0	0.19184	0.14087	0.212	0.17552	0.089989	0.10205	0.16899	0.14026	0.054299	0.13786	0.066094	0.16917	0.1976	0.12076	0.21756	0.032805	-1.8167	-2.8417	-3.1042	-2.4104	-2.6271	-2.85	-2.5687	-3.1396	-2.5938	-2.825	-2.9979	-2.4229	-2.7562	-2.7958	-2.6229	-3.1437	40.854	148.946	133.349	177.161	-47.607	-59.898	15.168	217.210	210.317	153.923	17.130	196.023	125.634	231.446	-89.516	83.756	0.0022192	0.0012559	0.00032878	379.15	4.5443e-06	1.0034e-05	440.18	138.51	2.4452e-05	7.0583e-06	202.97	86.645	56.397	24.725	2.2611e-05	37.887	0.0016189	0.0018973	0.00050443	725.32	1.8204e-05	2.1229e-05	765	235.18	1.8679e-05	2.147e-05	391.9	135.14	105.04	44.513	2.0392e-05	59.124	16.734	51.807	-69.378	-108.958	-4.859	-67.401	-109.278	-103.893	186.590	61.187	-105.336	-101.898	-100.480	-95.542	16.980	-98.397	-8191	255	
8388.903	1	1	0	0	0.28343	0.12813	0.16914	0.13816	0.088852	0.22373	0.19534	0.16332	0.035027	0.15827	0.17637	0.31962	0.19015	0.088025	0.053217	0.084172	-1.9625	-2.6437	-2.8479	-2.4292	-2.8458	-2.6458	-2.6292	-2.9375	-2.5292	-2.6437	-2.9375	-2.3833	-2.8583	-2.5521	-2.3063	-3.0938	-49.219	14.485	-46.025	144.749	113.993	90.276	-92.113	48.994	65.830	-67.951	227.561	185.960	220.905	137.536	88.074	-82.787	0.0014367	0.00012884	0.00047284	393.16	2.5173e-05	1.1046e-05	447.87	137.99	2.6542e-05	1.33e-05	203.78	86.301	56.886	24.644	1.4719e-05	37.469	0.0018785	0.0020732	0.00053572	765.23	2.1436e-05	2.3283e-05	802.09	245.08	2.2196e-05	2.2954e-05	405.33	138.64	113.01	45.137	2.0663e-05	59.547	-11.162	4.321	-5.642	-108.993	199.325	-5.787	-109.724	-103.981	174.699	10.666	-105.191	-101.974	-100.136	-95.914	-14.064	-98.449	-8191	255	
8389.000	1	1	0	0	0.17232	0.13032	0.11115	0.12957	0.19396	0.069329	0.042026	0.22972	0.22334	0.04784	0.086599	0.19922	0.20879	0.39981	0.23242	0.095309	-1.9708	-2.5292	-2.9167	-2.4396	-2.9229	-3.025	-2.4062	-3.0021	-2.6708	-2.6729	-2.9375	-2.6417	-2.7938	-2.8771	-2.2375	-2.9333	0.139	210.035	31.923	161.461	154.634	151.871	-3.152	86.864	-82.084	-44.880	-87.122	42.346	-34.999	-36.185	-78.536	236.028	0.0021121	0.0013021	0.0004929	386.56	1.7266e-05	1.3984e-05	450.44	137.78	1.1508e-05	1.9928e-05	203.7	86.868	56.818	24.78	1.1252e-06	37.319	0.0020574	0.0020376	0.00052814	767.71	2.2667e-05	2.2264e-05	788.9	244.8	2.3037e-05	2.183e-05	394.78	140.02	114.09	43.784	1.9897e-05	60.179	-9.607	-53.734	-50.169	-109.156	220.999	-83.841	-110.230	-103.972	215.146	39.356	-105.453	-102.211	-100.152	-96.437	134.770	-98.763	-8191	255	
8389.071	1	1	0	0	0.14377	0.021157	0.064498	0.13935	0.11685	0.25277	0.073233	0.21638	0.15371	0.26929	0.088141	0.23533	0.049201	0.16256	0.098391	0.39302	-2.1167	-2.5187	-3.0729	-2.6333	-2.675	-2.7521	-2.4229	-3.0604	-2.7792	-2.6333	-2.9583	-2.4062	-2.6792	-2.8417	-2.4583	-3.1104	55.565	43.748	105.895	28.536	-39.081	-54.215	67.061	48.456	120.731	-37.261	64.661	159.023	197.462	-84.390	171.204	-115.652	0.00023107	0.00057849	8.5444e-05	383.65	1.3527e-05	7.3004e-06	453.27	137.07	8.9499e-06	1.5971e-05	204.18	86.536	58.19	24.948	2.4087e-05	37.445	0.0021081	0.0019344	0.00050095	789.55	2.3008e-05	2.1325e-05	777.67	251.22	2.3301e-05	2.09e-05	385.92	144.98	114.25	43.219	1.9159e-05	62.297	-102.660	-109.677	10.141	-109.344	-86.535	-10.348	-109.542	-104.633	215.980	-3.488	-104.881	-102.497	-100.121	-96.465	-32.926	-99.211	-8191	255	
8389.192	1	1	0	0	0.14898	0.31906	0.4327	0.034324	0.14576	0.098346	0.18784	0.040666	0.068455	0.026177	0.19809	0.26154	0.094539	0.11204	0.11764	0.10568	-2.2875	-2.3354	-2.9583	-2.7708	-2.6542	-2.8729	-2.4875	-2.8417	-2.5958	-2.2438	-3	-2.8208	-2.6479	-2.9625	-2.4646	-2.6208	71.875	207.748	15.184	82.705	87.871	69.783	122.323	195.044	7.481	138.935	131.251	156.455	-7.188	-28.791	-51.279	229.624	0.00062451	0.00026065	0.00045022	380.61	1.4502e-05	4.1537e-06	454.44	137.2	2.3727e-05	6.2229e-06	204.94	86.979	57.933	24.788	2.5223e-05	37.753	0.0020703	0.0018659	0.00048607	818.42	2.229e-05	2.0486e-05	769.33	259.17	2.2226e-05	2.014e-05	381.98	148.96	111.47	42.254	1.8983e-05	64.052	128.570	15.844	-3.894	-109.406	31.697	139.776	-110.265	-104.281	-4.828	-8.350	-105.616	-102.118	-99.874	-96.323	189.584	-98.287	-8191	255	
8389.288	1	1	0	0	0.023289	0.21952	0.12385	0.13083	0.28398	0.046755	0.038519	0.18726	0.2155	0.13174	0.18071	0.23336	0.10709	0.18799	0.15872	0.11385	-2.4021	-2.6833	-2.8229	-2.6333	-2.4437	-3.0083	-2.5396	-2.7438	-2.7667	-2.4354	-2.9708	-2.9833	-2.5438	-2.9021	-2.625	-2.8833	-50.831	-74.441	65.164	-0.456	56.452	15.801	-97.079	99.834	-0.461	147.335	77.078	-108.614	-106.764	76.520	153.372	80.307	0.00078127	0.00091355	0.000268	391.13	1.3342e-05	1.7381e-05	448.01	138.38	2.9941e-05	1.5884e-05	199.38	86.351	57.695	24.776	3.4755e-05	37.748	0.0019745	0.0018056	0.0004878	839.62	2.126e-05	1.9727e-05	773.71	263.11	2.113e-05	1.9288e-05	386.17	150.03	107.69	41.054	1.9913e-05	64.214	119.531	-67.512	104.842	-109.256	26.186	-43.320	-110.436	-104.358	-5.010	51.974	-106.402	-101.981	-99.459	-95.812	179.330	-98.021	-8191	255	
8389.384	1	1	0	0	0.29375	0.3867	0.13628	0.13685	0.15691	0.29462	0.10777	0.12462	0.17834	0.18897	0.060184	0.12582	0.16265	0.38885	0.15624	0.31202	-2.3875	-2.3271	-2.9354	-2.7771	-2.3229	-3.0667	-2.7583	-2.8021	-2.7708	-2.4167	-3.1208	-2.9625	-2.5604	-2.8833	-2.6937	-2.7604	46.665	-6.709	-18.989	145.243	-103.780	-104.252	31.884	-25.255	128.806	217.508	-13.825	215.147	169.452	154.968	77.254	213.673	0.0010519	0.0020473	0.00047643	385.23	6.4254e-06	1.4797e-05	444.95	137.95	2.5869e-05	1.8774e-05	198.46	86.045	56.829	24.43	2.3011e-05	37.455	0.0018729	0.0017365	0.00051375	838.18	2.0399e-05	1.8969e-05	797.73	261.66	2.0305e-05	1.8733e-05	399.13	148.51	105.24	40.337	2.1414e-05	63.251	112.954	-64.983	154.477	-109.477	-48.085	-30.316	-110.329	-104.332	-11.824	-50.640	-106.463	-101.795	-99.769	-96.311	174.628	-98.025	-8191	255	
8389.480	1	1	0	0	0.038049	0.15353	0.053132	0.3034	0.095983	0.28565	0.2356	0.083775	0.099535	0.090264	0.093967	0.1968	0.33625	0.055712	0.15737	0.26906	-2.3167	-2.5625	-2.85	-2.7479	-2.6833	-2.9708	-2.6208	-2.6542	-3.2313	-2.3896	-2.8333	-2.8667	-2.5625	-3.1417	-2.8021	-2.6833	199.843	115.294	-17.427	-109.397	43.138	46.477	230.928	66.080	141.287	-118.981	-105.782	139.878	-82.916	181.973	54.898	202.813	0.00063859	0.00091142	0.00047323	390.67	1.5445e-05	2.5098e-06	446.76	137.88	2.1643e-05	1.0453e-05	199.38	86.75	56.981	24.423	9.1666e-06	37.672	0.0018198	0.0017119	0.00054824	823.23	1.9849e-05	1.875e-05	824.62	256.76	1.9904e-05	1.8811e-05	415.18	145.67	104.25	40.85	2.2553e-05	61.983	75.249	142.308	162.717	-109.219	113.327	230.125	-109.708	-103.764	16.593	-102.597	-106.060	-102.122	-100.197	-96.251	-9.100	-97.960	-8191	255	
8389.599	1	1	0	0	0.17949	0.20156	0.24556	0.19407	0.1463	0.11628	0.15807	0.13387	0.10792	0.21125	0.10354	0.0072489	0.046727	0.12659	0.0091112	0.17666	-2.5833	-2.5042	-2.7875	-2.9208	-2.3417	-2.8	-2.5708	-2.6813	-3.0958	-2.5104	-2.6667	-2.925	-2.5375	-2.9208	-2.5875	-2.4313	-56.504	167.031	-7.651	222.290	-67.066	-89.852	51.012	194.447	70.124	111.003	31.608	53.944	215.289	209.248	30.704	143.994	0.00089749	0.0019832	0.00023988	390.58	1.0856e-05	1.091e-05	447.11	138.45	8.6783e-06	1.4104e-05	200.78	87.182	56.778	24.185	1.6118e-05	37.957	0.0017657	0.0017455	0.00056983	801.44	1.9065e-05	1.9386e-05	833.03	249.02	1.9043e-05	1.9676e-05	417.55	142.24	101.8	41.809	2.252e-05	60.423	162.997	172.663	230.782	-108.305	65.597	191.674	-109.405	-103.566	22.345	214.983	-105.523	-101.673	-99.840	-96.588	26.506	-97.969	-8191	255	
8389.695	1	1	0	0	0.036327	0.19463	0.094411	0.12855	0.28063	0.22079	0.10932	0.05609	0.15243	0.082663	0.28405	0.1436	0.15568	0.12058	0.1709	0.11068	-2.7604	-2.5146	-2.6083	-2.8729	-2.7083	-2.9479	-2.7354	-2.6875	-3.1396	-2.6312	-2.7792	-3.0229	-2.4104	-2.875	-2.8729	-2.5792	173.849	189.738	0.247	-74.607	-71.569	133.871	-91.313	214.808	-42.429	174.064	82.650	193.332	-115.270	108.510	40.913	-31.033	0.00065608	0.0025251	0.00023274	390.51	9.6927e-06	2.1596e-05	449.39	138.32	1.9838e-05	1.2819e-05	202.15	86.424	56.559	24.266	1.1572e-05	37.313	0.0016817	0.0018534	0.00055725	775.61	1.8314e-05	2.0479e-05	823.81	243.37	1.8285e-05	2.1016e-05	408.49	139.41	100.35	43.123	2.1881e-05	59.439	67.636	97.556	12.185	-109.024	-33.583	189.303	-109.874	-104.052	34.682	191.346	-104.981	-101.588	-100.574	-96.655	-54.519	-98.360	-8191	255	
8389.767	1	1	0	0	0.43554	0.096828	0.18234	0.054417	0.21457	0.2285	0.022095	0.19424	0.11149	0.14478	0.098409	0.045561	0.28661	0.36281	0.063846	0.12502	-2.3417	-2.7417	-2.6917	-2.9125	-2.3583	-2.9188	-2.9979	-2.5875	-2.8729	-2.6479	-2.6146	-2.9938	-2.4313	-2.8354	-2.775	-2.6271	65.632	6.330	-108.882	35.270	-84.813	25.777	30.604	193.277	156.138	45.953	-38.798	194.758	200.122	218.305	-50.782	137.201	0.00090737	0.0012226	0.00042189	383.88	9.9032e-06	8.7791e-06	440.04	135.43	1.1829e-05	1.5219e-05	198.35	84.812	55.368	24.223	1.2723e-05	36.878	0.0016765	0.00199	0.00054374	765.97	1.8542e-05	2.1963e-05	807.76	240.44	1.8938e-05	2.2649e-05	401.22	138.08	103.33	44.621	2.1616e-05	59.159	19.566	84.171	-43.343	-108.598	222.389	92.464	-109.252	-103.922	174.043	165.152	-104.913	-101.717	-99.987	-96.119	-14.872	-98.682	-8191	255	
8389.863	1	1	0	0	0.20713	0.11568	0.072403	0.10301	0.10577	0.13722	0.14604	0.19472	0.13503	0.17744	0.21816	0.11579	0.24177	0.17184	0.022564	0.025508	-2.5542	-2.3292	-2.3458	-3.0396	-2.4792	-2.6396	-3.0104	-2.725	-2.9208	-2.8063	-2.5333	-2.9125	-2.6021	-2.7313	-2.9271	-2.4729	63.175	-97.823	113.447	-81.072	130.092	-115.235	159.219	-39.100	221.713	-105.391	-105.049	168.314	-106.514	230.578	-90.855	-104.934	0.0015335	0.0009665	0.00033387	386.96	2.7647e-05	1.3275e-05	438.9	134.59	3.1815e-05	8.8422e-06	195.28	85.73	55.195	24.278	2.6827e-05	36.808	0.0017966	0.00213	0.00053779	766.03	2.0214e-05	2.3027e-05	798.43	238.69	2.0493e-05	2.323e-05	394.97	136.82	107.71	44.689	2.0936e-05	58.164	-8.846	63.594	-59.586	-108.903	182.254	22.427	-109.767	-103.836	173.082	-43.612	-105.304	-101.962	-100.456	-96.562	-0.501	-98.097	-8191	255	
8389.984	1	1	0	0	0.1882	0.040668	0.068915	0.059479	0.17876	0.24686	0.19605	0.23734	0.065461	0.184	0.092106	0.23694	0.21596	0.072266	0.16766	0.25252	-2.4	-2.625	-2.5625	-2.9729	-2.3917	-2.5333	-2.7854	-2.5812	-2.8354	-2.8979	-2.6083	-2.9542	-2.4208	-2.7354	-3.1021	-2.5146	79.275	137.836	-116.696	180.933	21.669	9.847	213.041	166.052	129.779	-78.819	181.349	-49.669	141.187	159.064	100.031	143.974	0.0024205	0.0022399	0.00021082	382.07	2.325e-05	1.3177e-05	445.84	134.22	7.9911e-06	1.1835e-05	197.14	85.097	54.975	24.435	1.443e-05	36.569	0.0019176	0.0020891	0.00051988	752.62	2.1635e-05	2.2396e-05	788.81	237.21	2.1915e-05	2.2514e-05	391.59	136.39	111.89	44.007	2.0499e-05	58.698	7.667	-38.984	1.139	-109.572	223.484	-77.965	-109.655	-104.103	201.120	22.464	-105.752	-102.048	-99.959	-96.132	0.231	-98.516	-8191	255	
8390.080	1	1	0	0	0.26038	0.084472	0.28609	0.11604	0.087856	0.24058	0.25179	0.11623	0.36925	0.22147	0.056276	0.33046	0.084857	0.30003	0.22932	0.077164	-2.2542	-2.5354	-2.3729	-3.0917	-2.8583	-2.5896	-2.675	-2.5563	-2.925	-3.0625	-2.6104	-3.1042	-2.7938	-2.4292	-3	-2.5625	147.817	-48.281	-78.853	-93.250	-105.478	225.680	166.287	-116.638	130.588	-82.973	-99.176	-80.784	227.031	227.185	67.393	-103.880	0.001371	0.0023898	0.00020315	386.62	1.9919e-05	5.7034e-06	446.93	133.22	2.4898e-05	1.325e-05	199	85.743	56.095	24.476	2.2541e-05	36.807	0.0020444	0.0020248	0.00051656	764.4	2.2887e-05	2.1672e-05	783.42	241.54	2.2856e-05	2.1722e-05	387.39	139.78	114.35	43.075	1.9912e-05	60.331	16.738	-73.292	-24.237	-109.274	165.727	49.044	-109.659	-104.534	230.386	4.372	-105.704	-102.485	-99.969	-96.327	8.160	-98.748	-8191	255	
8390.176	1	1	0	0	0.097172	0.068215	0.248	0.054412	0.29003	0.097501	0.20511	0.071166	0.11606	0.34551	0.29495	0.24982	0.11311	0.28961	0.29955	0.25336	-2.2083	-2.7833	-2.325	-2.8312	-2.6292	-2.4083	-3.1979	-2.6021	-2.8146	-2.8521	-2.575	-2.8396	-2.5833	-2.5271	-2.9896	-2.8208	195.317	55.179	151.486	158.130	183.426	60.859	134.014	55.586	30.973	-9.351	-116.125	-81.049	-48.761	177.463	-69.171	-35.966	0.00050294	0.00070305	0.0003873	381.7	6.6102e-06	4.1362e-06	448.25	133.89	2.1932e-05	1.2109e-05	195	84.555	56.407	24.301	1.6619e-05	36.027	0.0020781	0.0019564	0.00049757	790.99	2.3119e-05	2.0876e-05	771.52	250.24	2.2565e-05	2.0952e-05	376.6	143.15	112.42	42.049	1.9166e-05	61.697	29.561	-61.157	-10.228	-109.553	24.295	-12.707	-110.210	-104.591	2.380	33.722	-105.229	-102.382	-99.911	-95.889	-106.544	-98.336	-8191	255	
8390.272	1	1	0	0	0.30319	0.15073	0.12215	0.11766	0.24007	0.16129	0.19512	0.19397	0.11854	0.15387	0.19746	0.30982	0.24118	0.18965	0.064274	0.23707	-2.2729	-2.8396	-2.2646	-2.8396	-2.9729	-2.525	-3.0979	-2.8833	-2.7062	-2.8688	-2.5917	-2.9667	-2.8208	-2.6	-2.9333	-2.7125	-62.044	-5.476	210.885	222.637	-49.235	-29.539	216.433	227.930	87.882	-56.427	13.839	151.872	150.301	52.882	200.977	206.169	0.0013661	0.0020171	0.00032454	382.78	1.3476e-05	1.0117e-05	445.87	135.01	3.1306e-05	1.1266e-05	195.27	84.851	56.403	24.359	1.1403e-05	36.974	0.0020003	0.001873	0.00047874	810.88	2.2021e-05	1.9962e-05	758.37	255.64	2.1367e-05	1.9951e-05	372.09	145.43	108.96	41.014	1.9052e-05	63.04	136.136	-66.564	-25.670	-109.131	-22.315	-17.380	-110.066	-104.497	4.120	35.465	-105.042	-102.323	-99.157	-95.994	154.877	-98.737	-8191	255	
8390.368	1	1	0	0	0.078833	0.24621	0.080468	0.27086	0.095835	0.10988	0.15533	0.11731	0.1041	0.1749	0.11024	0.29847	0.10262	0.047151	0.13608	0.0043823	-2.1312	-3.05	-2.6729	-2.8396	-2.7458	-2.3771	-3.0104	-2.8875	-2.4604	-3.0292	-2.5021	-2.7583	-3.1688	-2.5167	-2.9354	-2.7188	210.277	-6.091	209.639	-17.880	-20.504	-1.696	206.584	5.641	-113.072	-18.841	-40.858	-97.164	57.296	-8.362	39.017	77.793	0.00049997	0.0013244	0.00052085	384.04	2.0344e-05	7.5161e-06	444.31	134.55	2.1211e-05	1.3612e-05	193.96	86.1	56.071	24.115	2.4106e-05	36.309	0.001901	0.0017855	0.0004889	825.05	2.1044e-05	1.9261e-05	773.14	260.84	2.0639e-05	1.9354e-05	386.79	147.42	106.95	40.556	2.0198e-05	63.386	103.339	-40.769	179.620	-108.789	-9.722	-88.800	-110.593	-104.268	-31.007	20.450	-105.600	-101.855	-99.950	-96.080	179.312	-98.298	-8191	255	
8390.465	1	1	0	0	0.12035	0.055943	0.080629	0.17194	0.041575	0.11034	0.25214	0.26452	0.22639	0.17555	0.19062	0.43329	0.27966	0.14125	0.13175	0.10457	-2.2167	-2.9333	-2.7562	-2.7896	-3.0521	-2.1604	-3	-2.9646	-2.5292	-3.1625	-2.5854	-2.6104	-2.8792	-2.4958	-2.8125	-2.6708	17.015	0.746	186.360	212.060	55.046	-56.828	34.316	230.235	52.284	-103.319	120.656	96.494	-0.593	212.841	-66.056	-97.261	0.00062677	0.0011151	0.00043215	390.19	1.0761e-05	4.1992e-06	442.61	134.51	3.9103e-06	9.1595e-06	196.04	86.274	56.898	24.042	1.9846e-05	37.59	0.001854	0.0017497	0.00052615	827.98	2.0703e-05	1.8981e-05	802.84	259.59	2.0237e-05	1.8925e-05	404.65	146.23	106.02	40.212	2.1346e-05	62.592	92.030	-65.310	138.890	-109.372	-2.239	-19.152	-110.361	-103.633	-12.402	163.649	-106.325	-102.204	-99.616	-96.273	-120.679	-98.074	-8191	255	
8390.583	1	1	0	0	0.14283	0.24128	0.068593	0.18151	0.021403	0.20466	0.066853	0.1293	0.25377	0.16277	0.28083	0.081149	0.17242	0.24616	0.14333	0.30545	-1.8583	-3.0958	-2.6813	-2.6167	-3.125	-2.875	-3.0812	-2.8438	-2.5625	-3.0396	-2.5729	-2.5979	-3.0833	-2.6104	-2.8646	-3.0542	226.803	28.887	211.675	179.165	-89.114	-116.708	196.491	-23.050	157.012	23.831	-89.978	-98.088	-76.657	60.553	184.355	-119.981	0.001101	0.00039482	0.00065226	393.87	1.4466e-05	2.3591e-06	453.43	136.74	1.8884e-05	1.3472e-05	198.94	86.981	57.13	24.229	5.7538e-06	37.295	0.0017829	0.0016896	0.00055064	807.89	1.9674e-05	1.8583e-05	820.9	254	1.926e-05	1.8648e-05	413.48	142.67	103.11	40.435	2.1702e-05	60.768	100.322	185.977	102.366	-108.722	-18.343	95.837	-110.463	-103.648	-47.151	193.375	-105.650	-101.764	-99.928	-97.011	133.626	-97.752	-8191	255	
8390.680	1	1	0	0	0.35297	0.10763	0.3399	0.42367	0.17057	0.13252	0.20011	0.014415	0.30369	0.090958	0.20957	0.11431	0.06906	0.09834	0.13758	0.09341	-2.0312	-2.7	-2.5958	-2.5292	-2.9146	-2.4167	-2.7625	-2.925	-2.5667	-3.0187	-2.6562	-2.4958	-2.9167	-2.6667	-2.6604	-2.925	-68.828	26.264	117.353	220.275	58.468	-56.577	219.090	-55.510	92.409	71.377	-118.556	237.122	206.607	200.304	8.858	144.961	0.001083	0.0024292	0.00012034	387.9	1.4157e-05	2.0946e-05	453.38	137.9	1.9572e-05	2.2403e-05	201.08	85.944	56.901	24.146	5.8115e-06	37.092	0.0016868	0.0017136	0.00055335	777.03	1.8517e-05	1.9084e-05	815.8	245.9	1.8352e-05	1.9377e-05	412.5	139.68	100.81	41.904	2.1743e-05	60.02	65.792	118.675	5.259	-108.617	19.827	182.911	-109.658	-103.637	2.268	198.494	-105.589	-101.838	-99.682	-96.695	48.723	-97.975	-8191	255	
8390.776	1	1	0	0	0.29645	0.062402	0.041845	0.21792	0.26098	0.11626	0.090995	0.22883	0.29372	0.18676	0.026079	0.12671	0.12609	0.2642	0.18443	0.083662	-2.2042	-2.7604	-2.7	-2.4625	-3.0771	-2.5958	-2.6208	-3.0729	-2.3063	-2.8208	-2.8438	-2.5	-2.875	-2.5292	-2.6833	-2.8583	-53.027	-10.820	118.541	-118.230	221.117	176.819	156.331	210.380	-4.546	110.517	11.617	142.120	79.592	216.589	140.289	211.650	0.0003498	0.0010598	0.00050313	393.58	1.2105e-05	1.0807e-05	451.17	136.63	2.3155e-05	2.0373e-05	200.12	86.276	56.417	23.935	1.2887e-05	37.327	0.0016701	0.0018706	0.00056003	777.1	1.8504e-05	2.0991e-05	816.75	245.62	1.8325e-05	2.1166e-05	408.79	138.67	100.89	43.255	2.1055e-05	59.221	149.354	66.582	-25.358	-108.567	15.992	183.424	-109.264	-103.869	-114.751	190.483	-105.841	-101.633	-100.261	-96.069	15.971	-98.487	-8191	255	
8390.872	1	1	0	0	0.33304	0.14048	0.045092	0.077914	0.2147	0.20571	0.1207	0.15005	0.29259	0.26754	0.21652	0.035136	0.21906	0.11557	0.058074	0.20133	-2.1625	-2.8354	-2.7333	-2.4271	-3.0271	-2.6125	-2.7042	-3.0146	-2.6208	-2.8688	-3.05	-2.2792	-2.9542	-2.7812	-2.4	-3.05	121.602	-44.193	204.647	231.072	-42.726	218.079	34.923	113.334	146.362	75.800	144.114	-67.999	207.491	152.777	-9.285	-89.366	0.0011673	0.0022283	0.00031481	391.1	1.5697e-05	1.2935e-05	454.31	136.94	2.5198e-05	5.1666e-06	201.51	86.485	55.829	24.35	2.2467e-05	36.979	0.0016611	0.0019598	0.00053754	761.18	1.8666e-05	2.184e-05	799.47	240.72	1.8724e-05	2.178e-05	397.6	136.3	102.82	44.007	2.0337e-05	58.338	39.524	99.743	-19.761	-108.532	-111.238	167.336	-109.805	-103.913	171.041	228.848	-104.843	-101.609	-99.869	-95.816	-31.976	-98.236	-8191	255	
8390.968	1	1	0	0	0.34447	0.10843	0.243	0.24553	0.044164	0.038737	0.033843	0.11458	0.20779	0.041503	0.19752	0.33033	0.25738	0.19853	0.24329	0.16654	-2.1625	-2.4542	-2.7333	-2.4917	-2.7271	-2.7438	-2.65	-2.9562	-2.3229	-2.6458	-2.9646	-2.5667	-2.9917	-2.6854	-2.7229	-3.0583	104.684	44.395	-38.116	203.240	60.913	178.303	-30.696	25.166	-107.012	-43.588	51.755	209.834	-50.175	-27.624	76.008	235.524	0.0018389	0.0019995	0.00031645	392.28	1.78e-05	1.5121e-05	455.36	137.41	2.7801e-05	5.9924e-06	199.47	87.088	56.129	24.371	1.2279e-05	37.327	0.0017563	0.0020066	0.00052149	754.89	1.9851e-05	2.2401e-05	794.56	238.15	2.0419e-05	2.1987e-05	395.95	136.36	107.6	44.302	2.0168e-05	58.252	-0.780	20.941	-88.052	-109.070	194.361	-42.478	-110.063	-104.007	179.442	-100.002	-105.349	-101.825	-101.057	-96.200	-53.992	-98.577	-8191	255	
8391.064	1	1	0	0	0.2639	0.034952	0.21106	0.18008	0.31695	0.2051	0.18433	0.33583	0.1002	0.21983	0.02792	0.12823	0.081546	0.23232	0.091107	0.231	-1.9167	-2.6208	-2.85	-2.4167	-2.8896	-2.8083	-2.5604	-3.0729	-2.5583	-2.5479	-3.1583	-2.7896	-2.6896	-2.6458	-2.6229	-2.8833	2.378	59.917	-45.034	188.996	-97.046	23.205	214.961	-60.211	-19.249	-8.231	-65.096	143.068	-85.647	117.818	-20.482	62.849	0.001174	0.0016717	0.00018619	390.19	1.4366e-05	1.8825e-05	456.95	135.54	3.5492e-05	1.8393e-05	201.86	86.067	55.762	24.779	7.9464e-06	36.394	0.0019298	0.0020054	0.00052303	758.45	2.1699e-05	2.248e-05	797.34	240.9	2.2516e-05	2.2204e-05	398.31	138.76	113.67	44.614	2.0592e-05	59.412	-40.196	-51.411	-94.308	-109.841	135.430	-31.379	-109.621	-104.107	180.630	43.923	-105.427	-102.134	-100.346	-95.753	167.259	-98.863	-8191	255	
8391.160	1	1	0	0	0.15797	0.020799	0.029631	0.34786	0.088176	0.087597	0.12589	0.16048	0.27631	0.081268	0.22676	0.26093	0.22306	0.050439	0.097024	0.23807	-2.2604	-2.6312	-2.9729	-2.4938	-2.6729	-2.8021	-2.5875	-2.8958	-2.8354	-2.6729	-2.8333	-2.65	-2.7062	-2.8146	-2.3771	-2.8688	97.619	128.582	0.501	224.176	-52.902	236.992	190.665	-50.106	-91.508	31.791	-108.482	-112.911	-13.258	-80.544	90.746	118.221	0.00066563	0.00079814	0.00018244	394.92	3.4182e-05	1.0555e-05	451.86	134.28	1.4097e-05	1.4292e-05	200.37	84.698	56.39	24.414	2.2086e-05	36.539	0.0021034	0.0019971	0.0005217	781.2	2.2925e-05	2.1861e-05	783.44	243.51	2.3029e-05	2.1114e-05	384.39	139.87	112.72	42.875	1.929e-05	60.245	4.758	-37.753	-67.455	-109.288	192.207	-9.579	-110.112	-104.130	188.523	-0.166	-106.106	-102.393	-100.450	-96.083	-52.187	-99.298	-8191	255	
8391.281	1	1	0	0	0.10775	0.16751	0.23772	0.05965	0.21865	0.27047	0.12069	0.2889	0.22148	0.2854	0.19489	0.12549	0.25356	0.12398	0.12938	0.17261	-2.3417	-2.4833	-2.7896	-2.6833	-2.5833	-2.7625	-2.4	-2.9708	-2.7188	-2.4938	-3.0917	-2.6167	-2.4729	-3.0729	-2.3125	-2.9771	-105.311	-48.423	136.387	191.312	77.834	221.811	-53.966	217.926	-6.553	87.408	-44.646	-97.463	-22.319	200.231	27.560	97.557	0.00051414	0.00092405	0.00024683	387.16	1.0576e-05	1.6881e-05	451.39	134.31	3.0638e-05	1.3025e-05	199.21	85.07	56.702	24.348	3.37e-06	36.899	0.0020672	0.0018836	0.00048884	796.82	2.2182e-05	2.0661e-05	766.32	249.39	2.2356e-05	2.0356e-05	376.68	144.74	110.69	42.187	1.8858e-05	61.949	38.457	-76.601	-18.577	-109.564	54.657	-7.453	-109.576	-104.470	15.891	-37.679	-104.859	-102.220	-99.775	-96.056	-22.435	-98.463	-8191	255	
8391.377	1	1	0	0	0.21045	0.17668	0.035626	0.26446	0.20601	0.10565	0.28064	0.032892	0.21708	0.19775	0.057891	0.20058	0.22116	0.14336	0.18991	0.20178	-2.2479	-2.4188	-2.9479	-2.7833	-2.4021	-2.9708	-2.2896	-2.7667	-2.9583	-2.4146	-2.9688	-2.825	-2.5687	-2.9313	-2.5208	-2.6708	102.724	92.925	144.876	120.137	-116.915	190.132	184.336	-24.774	-48.299	-65.503	-6.632	-113.533	-91.956	-109.075	-112.234	194.734	0.00068851	0.0017549	0.00013884	389.89	1.2432e-05	1.9328e-05	450.64	135.72	1.86e-05	8.0603e-06	198.33	85.886	57.135	24.706	1.501e-05	36.927	0.0020054	0.0018317	0.00048279	830.01	2.1494e-05	2.0248e-05	769.3	258.3	2.177e-05	1.9816e-05	381.73	149.44	109.38	41.984	1.956e-05	63.628	75.175	-51.288	149.530	-109.809	23.101	-25.020	-109.679	-104.143	-8.854	-20.007	-105.439	-102.322	-99.885	-96.206	188.812	-98.634	-8191	255	
8391.472	1	1	0	0	0.090507	0.26743	0.086344	0.60932	0.095426	0.23761	0.32239	0.019325	0.1065	0.2367	0.065912	0.068215	0.2332	0.12817	0.15561	0.077608	-2.4021	-2.3104	-2.9437	-2.7188	-2.6604	-2.8812	-2.4437	-2.6917	-2.8937	-2.4167	-3	-2.6208	-2.5479	-3.0125	-2.3792	-2.7604	213.543	179.650	34.528	223.001	-75.488	114.823	121.289	219.758	-31.153	205.875	64.628	129.921	159.157	-59.185	-97.130	-101.222	0.00031457	0.00093246	0.00052722	395.04	1.8284e-05	3.8374e-06	459.33	137.35	1.0858e-05	1.5176e-05	201	87.192	57.481	24.498	3.4052e-05	37.419	0.0019494	0.0017889	0.00050638	852.72	2.0978e-05	1.9643e-05	795.02	262.11	2.1021e-05	1.9175e-05	396.11	150.22	107.44	41.149	2.0777e-05	63.62	87.970	-108.743	163.197	-108.870	31.611	-34.730	-110.106	-104.126	-18.370	14.845	-106.046	-101.775	-100.112	-96.134	192.571	-98.078	-8191	255	
8391.568	1	1	0	0	0.096306	0.19967	0.054687	0.20806	0.19305	0.09417	0.21292	0.058731	0.22651	0.11668	0.09981	0.1462	0.23851	0.19573	0.052216	0.1415	-2.5417	-2.4604	-3.1854	-2.7604	-2.725	-3.0812	-2.7521	-2.7438	-2.8208	-2.5292	-2.9708	-2.9188	-2.4813	-2.8083	-2.6271	-2.8021	90.296	-91.061	182.233	165.217	-29.852	-120.088	63.885	85.059	-85.836	22.727	205.289	54.469	156.714	199.279	-47.653	149.731	0.00036698	0.0009364	0.00048862	402.26	6.5654e-06	8.2932e-06	457.17	137.76	2.0037e-05	4.37e-06	198.93	87.638	57.173	24.533	1.8394e-05	36.964	0.0018865	0.001731	0.00054039	848.51	2.0465e-05	1.9336e-05	828.72	261.54	2.0789e-05	1.9109e-05	414.96	149.79	107.25	41.241	2.2537e-05	62.879	150.347	-39.878	138.017	-108.700	-13.539	36.569	-110.294	-103.855	-12.115	27.580	-105.670	-102.048	-100.128	-96.259	174.560	-98.145	-8191	255	
8391.664	1	1	0	0	0.25387	0.06787	0.052011	0.10239	0.090817	0.067599	0.032168	0.34926	0.061972	0.11463	0.14342	0.21403	0.13811	0.13895	0.20106	0.028882	-2.5396	-2.5125	-2.7792	-2.7438	-2.3521	-3.0708	-2.675	-2.55	-2.9688	-2.4583	-2.9208	-2.9208	-2.2708	-3.0333	-2.6688	-2.6125	40.898	20.454	26.289	33.968	118.060	-94.771	159.986	192.118	-88.571	210.359	80.576	204.626	75.322	-56.901	20.079	153.420	0.00096633	0.0015203	0.00020438	400.27	3.8557e-06	1.8053e-05	456.77	138.07	8.3391e-06	2.4417e-05	200.72	87.1	57.607	24.313	1.2167e-05	37.27	0.0018585	0.0017633	0.00057332	836.52	2.0176e-05	1.9656e-05	853.43	257.02	2.0359e-05	1.9875e-05	425.65	147.28	105.98	42.177	2.3535e-05	62.099	153.019	165.673	71.352	-108.634	-47.558	145.813	-110.016	-103.748	-47.975	211.762	-104.788	-102.139	-100.138	-96.196	-37.710	-97.587	-8191	255	
8391.760	1	1	0	0	0.17906	0.12682	0.13145	0.16121	0.34863	0.073149	0.17057	0.25146	0.20883	0.16193	0.10918	0.33916	0.028538	0.052609	0.078028	0.12462	-2.4604	-2.5604	-2.6979	-2.9396	-2.4917	-3.2042	-2.8563	-2.3375	-2.9062	-2.7917	-2.7708	-2.9625	-2.3396	-2.775	-2.7875	-2.5292	128.687	-103.653	-108.746	-68.744	-39.027	119.292	72.705	160.820	-2.819	21.060	197.685	171.582	191.142	58.989	-70.569	-16.732	0.0010652	0.0019053	0.00025191	404.02	5.2446e-06	1.4409e-05	463.62	138.47	2.0851e-05	1.4929e-05	202.24	87.105	57.027	24.218	1.1898e-05	36.823	0.0018238	0.0018837	0.00059177	825.53	1.9629e-05	2.0871e-05	859.52	252.41	1.9621e-05	2.1097e-05	421.85	144.2	103.22	43.239	2.2764e-05	60.588	165.483	158.699	-63.677	-108.924	-4.715	200.309	-109.514	-103.827	-12.035	189.923	-104.388	-102.310	-100.637	-95.739	-23.874	-98.460	-8191	255	
8391.856	1	1	0	0	0.15876	0.2793	0.11745	0.036282	0.37646	0.14036	0.04352	0.15265	0.062232	0.034324	0.14184	0.25285	0.27885	0.23764	0.039843	0.28923	-2.5729	-2.5104	-2.8458	-2.9479	-2.4479	-2.8187	-3.0208	-2.4167	-2.8063	-2.6333	-2.7417	-2.9083	-2.5292	-2.8937	-2.7833	-2.6271	45.854	137.686	-76.829	186.391	28.674	29.610	61.766	90.663	1.094	193.218	124.638	219.675	202.062	174.285	95.225	-110.532	0.00035998	0.0026165	0.00048569	397.72	9.1864e-06	2.2379e-05	463.16	137.08	2.4363e-05	1.6193e-05	202.35	87.217	57.128	24.527	2.3872e-05	37.416	0.0017347	0.0019639	0.00056436	800.1	1.8794e-05	2.1697e-05	839.26	247.15	1.9108e-05	2.218e-05	411.26	141.82	103.26	44.332	2.1921e-05	60.013	-5.871	100.682	-59.273	-109.193	211.526	140.197	-109.569	-104.027	174.012	191.187	-105.218	-101.761	-99.921	-96.229	-51.078	-98.244	-8191	255	
8391.952	1	1	0	0	0.24865	0.04732	0.18937	0.038782	0.014408	0.17551	0.18393	0.24495	0.056066	0.16272	0.14165	0.19188	0.073385	0.11261	0.21139	0.10399	-2.5792	-2.4729	-2.6729	-3.1875	-2.3854	-2.7896	-2.8354	-2.3937	-2.8375	-2.7562	-2.5417	-3.2229	-2.4938	-2.7896	-3.0333	-2.3125	191.367	39.721	-70.066	209.340	118.260	40.742	-71.385	190.019	226.999	51.922	154.827	-87.926	-7.136	187.955	214.410	-61.112	0.0017716	0.001034	0.00069171	403.08	2.3031e-05	5.4127e-06	465.01	137.98	2.1597e-05	1.0965e-05	204.53	87.369	56.884	24.602	6.464e-06	37.343	0.0017553	0.0020697	0.0005469	788.84	1.9572e-05	2.272e-05	829.4	245.1	2.001e-05	2.3235e-05	407.28	141.07	107.27	45.262	2.1502e-05	59.342	-1.115	95.330	-27.582	-108.929	200.380	102.998	-109.852	-103.959	135.142	70.568	-105.603	-101.873	-100.480	-96.735	32.258	-97.880	-8191	255	
8392.073	1	1	0	0	0.19558	0.23637	0.15993	0.084276	0.12426	0.27132	0.13738	0.15211	0.2597	0.16952	0.031437	0.086742	0.17271	0.05731	0.20323	0.14953	-2.3042	-2.6063	-2.4271	-2.9021	-2.5687	-2.7917	-2.9896	-2.4313	-2.8896	-2.6646	-2.6125	-2.9667	-2.7562	-2.8271	-2.8479	-2.4333	-74.117	207.207	67.374	226.481	215.528	19.107	-84.143	193.716	-102.430	-84.321	206.023	-51.668	-103.331	-54.298	6.257	208.851	0.00073233	0.001082	0.00038469	400.44	3.2122e-05	1.7179e-05	454.83	137.09	4.7322e-05	8.2743e-06	199.66	87.373	56.561	24.589	7.5017e-06	37.197	0.0018669	0.0021086	0.00052939	773.41	2.082e-05	2.2417e-05	806.31	238.01	2.0846e-05	2.238e-05	392.79	136.32	109.06	43.701	2.0206e-05	57.54	13.934	-118.784	-51.600	-109.126	191.581	12.299	-109.526	-103.960	176.109	7.552	-105.315	-101.976	-100.063	-95.727	169.311	-98.341	-8191	255	
8392.169	1	1	0	0	0.2061	0.047345	0.12024	0.16804	0.10988	0.064852	0.031825	0.182	0.15717	0.15884	0.25383	0.10741	0.18032	0.29431	0.20573	0.057329	-2.4938	-2.5708	-2.4562	-3.0333	-2.5854	-2.6917	-2.9229	-2.5042	-2.9417	-2.7979	-2.475	-3.0667	-2.8479	-2.5687	-3.0458	-2.4417	-39.607	2.607	6.627	142.867	-8.627	-30.326	220.999	232.710	169.315	-69.148	202.299	180.922	123.726	204.406	223.903	211.858	0.0019694	0.0010176	0.0001365	395.32	7.3436e-06	8.2535e-06	459.93	135.54	3.0792e-05	1.282e-05	202.18	87.319	56.779	24.516	6.6805e-06	36.897	0.0019197	0.001981	0.00050028	752.93	2.149e-05	2.1159e-05	786.69	235.74	2.1408e-05	2.1166e-05	380.9	135.95	110.88	42.431	1.9323e-05	57.984	-0.554	-36.963	-91.709	-109.405	-88.952	33.347	-109.332	-104.459	181.543	50.407	-105.341	-102.345	-100.638	-96.172	-15.599	-98.582	-8191	255	
8392.265	1	1	0	0	0.012474	0.052147	0.080155	0.36265	0.16667	0.16228	0.038644	0.24226	0.1016	0.11453	0.1699	0.20853	0.11679	0.0681	0.15533	0.14239	-2.3583	-2.8312	-2.4375	-3.1896	-2.6271	-2.7104	-3.225	-2.6375	-2.6646	-2.9437	-2.5521	-2.8896	-2.7875	-2.4813	-2.8688	-2.3688	-11.467	191.345	-115.657	-58.887	-78.474	-69.350	6.672	17.711	129.330	-4.442	163.848	196.393	-74.179	-43.884	236.935	96.484	0.00071571	0.001804	0.00057365	393.39	1.719e-05	2.5271e-05	460.43	135.21	1.1061e-05	1.1821e-05	202.2	87.639	57.156	24.709	6.5737e-06	36.919	0.0019652	0.0018889	0.00047854	764.59	2.2003e-05	2.0253e-05	776.09	242.45	2.1914e-05	2.0429e-05	375.99	140.29	112.26	42.063	1.892e-05	60.591	-13.356	-121.682	-28.961	-109.280	229.217	15.849	-109.336	-104.421	130.253	35.792	-105.281	-102.115	-100.027	-96.035	118.675	-99.015	-8191	255	
8392.361	1	1	0	0	0.12834	0.31102	0.14902	0.17909	0.18865	0.1053	0.21598	0.076558	0.20853	0.081256	0.057519	0.20808	0.15697	0.19273	0.057998	0.086486	-2.35	-2.8563	-2.2833	-2.9417	-2.7562	-2.4562	-2.975	-2.5396	-2.825	-2.9271	-2.6583	-2.9854	-2.7313	-2.6937	-3.0062	-2.6417	-100.272	132.172	83.122	115.033	-10.178	-79.628	-17.852	-96.096	-92.382	176.339	-13.292	58.491	56.750	172.940	75.880	102.129	0.00073917	0.00063863	0.00013476	392.68	3.1666e-06	6.1877e-06	459.02	137.41	2.0713e-05	8.0706e-06	202.29	87.312	57.564	24.769	1.7757e-05	37.461	0.0019801	0.0018532	0.00047355	798.98	2.2083e-05	2.0021e-05	766.48	253.79	2.1512e-05	1.9996e-05	375.21	145.15	110.93	41.718	1.8542e-05	62.481	67.545	180.368	58.511	-109.588	28.866	-32.967	-109.482	-104.419	19.718	-9.112	-105.352	-102.418	-100.390	-96.053	184.023	-98.833	-8191	255	
8392.458	1	1	0	0	0.12204	0.13428	0.16075	0.20825	0.21941	0.087832	0.14533	0.072726	0.063944	0.2258	0.21565	0.19177	0.14454	0.13852	0.21335	0.31327	-2.2438	-3.0438	-2.4479	-2.9104	-2.7479	-2.4167	-3.0917	-2.6021	-2.5917	-3.0125	-2.7438	-2.825	-3.025	-2.4813	-3.0271	-2.6333	48.134	223.644	187.082	170.037	224.458	76.024	-82.939	192.879	-48.033	15.862	-63.141	-27.428	47.540	-118.731	207.224	234.983	0.00039958	0.00064896	0.0003262	395.72	2.0706e-05	7.9815e-06	462.01	137.29	7.6609e-06	4.2667e-06	197.27	86.789	57.047	24.592	1.5675e-05	37.176	0.0019134	0.0017991	0.00047225	821.92	2.1146e-05	1.9258e-05	771.79	258.73	2.0657e-05	1.9298e-05	378.68	147.43	108.1	40.71	1.9207e-05	63.095	221.008	-117.256	100.822	-109.474	6.571	12.507	-109.716	-103.990	2.756	81.995	-105.706	-102.000	-100.247	-95.903	182.723	-98.845	-8191	255	
8392.554	1	1	0	0	0.13867	0.22875	0.093032	0.25172	0.03785	0.23314	0.11891	0.10445	0.21019	0.11088	0.080194	0.10687	0.20408	0.26428	0.13743	0.056592	-2.0104	-2.9875	-2.2354	-2.625	-2.8917	-2.2125	-2.9292	-2.7167	-2.6292	-3.0146	-2.3917	-2.7542	-3.0667	-2.3583	-3.0333	-2.8083	-71.167	95.471	-120.088	127.261	-33.506	134.945	182.548	151.046	-118.004	-15.033	122.145	-42.418	221.464	126.071	153.839	129.532	0.00046436	0.00090214	0.00028159	395.96	2.0541e-06	1.6847e-05	450.47	136.56	1.7025e-05	1.151e-05	195.03	87.12	57.008	24.433	3.7462e-05	36.848	0.0018367	0.0017427	0.00049475	827.15	2.051e-05	1.8785e-05	788.58	259.94	2.0139e-05	1.8892e-05	393.63	146.82	106.14	40.134	2.0584e-05	62.712	-22.222	-2.926	134.998	-109.723	-23.054	-68.031	-110.364	-103.895	-46.047	72.119	-106.690	-101.872	-100.621	-96.166	171.753	-98.072	-8191	255	
8392.673	1	1	0	0	0.11883	0.11087	0.27163	0.079523	0.048053	0.11221	0.15274	0.15081	0.26208	0.12943	0.15227	0.18171	0.19172	0.03088	0.26623	0.16545	-1.8375	-2.9292	-2.4167	-2.7708	-3.0812	-2.4521	-2.8917	-2.8937	-2.625	-2.9562	-2.7188	-2.9437	-2.9188	-2.3396	-2.9333	-2.9292	51.024	51.788	-76.994	-24.294	132.228	141.920	176.492	193.126	27.641	-49.351	56.965	204.285	170.591	-46.583	11.484	226.618	0.00075111	0.00067072	0.00052048	396.73	1.2195e-05	1.4593e-06	454.12	137.22	1.3201e-05	9.148e-06	198.77	86.975	57.314	24.254	1.1804e-05	37.057	0.0017969	0.0016995	0.00053206	817.16	1.9999e-05	1.8392e-05	813.2	256	1.9602e-05	1.8542e-05	407.56	144.05	104.63	40.146	2.1471e-05	61.468	95.798	-52.056	146.916	-108.608	47.458	-39.006	-110.278	-103.934	48.119	197.128	-106.252	-101.727	-100.368	-96.388	179.828	-98.265	-8191	255	
8392.769	1	1	0	0	0.1358	0.18272	0.032032	0.16246	0.18775	0.05072	0.10318	0.23989	0.10182	0.19909	0.039364	0.2329	0.19371	0.021438	0.31622	0.22478	-1.9854	-2.9771	-2.7146	-2.4333	-2.9458	-2.6146	-2.8771	-2.7854	-2.5458	-2.8583	-2.8604	-2.7062	-2.9771	-2.6292	-2.7313	-2.9458	-40.827	-87.881	79.658	212.260	84.877	233.503	-30.338	167.312	71.215	-66.258	42.261	215.638	188.382	-29.598	145.837	116.857	0.0004954	0.00095709	0.00014109	391.41	1.1277e-05	5.8857e-06	457.71	136.55	1.9814e-05	1.7922e-05	199.47	87.568	57.465	24.139	1.2262e-05	37.512	0.0017424	0.0016997	0.0005546	797.26	1.9163e-05	1.8773e-05	826.8	250.03	1.8804e-05	1.8975e-05	413.25	141.46	102.18	41.13	2.1827e-05	60.268	93.561	102.749	163.459	-108.534	27.179	143.116	-109.679	-103.886	-21.468	211.442	-105.636	-102.089	-100.213	-95.956	-62.912	-97.587	-8191	255	
8392.865	1	1	0	0	0.123	0.040331	0.17199	0.10247	0.1661	0.26075	0.17281	0.09133	0.25957	0.37251	0.40615	0.10397	0.26416	0.068329	0.15302	0.18998	-2.1125	-2.8854	-2.775	-2.4229	-3.0146	-2.5646	-2.7854	-2.9354	-2.3979	-3.0104	-2.6437	-2.6375	-2.9417	-2.6896	-2.5333	-2.8667	98.304	-71.250	-61.370	-28.498	141.564	-95.354	148.242	125.961	32.456	61.637	-28.145	91.804	-79.449	-52.900	202.041	157.647	0.00050585	0.0017959	0.00034111	391.61	1.4493e-05	2.0922e-05	462.21	138.23	1.9163e-05	1.852e-05	203.66	87.867	57.642	24.36	9.5203e-06	37.579	0.0016729	0.0017773	0.00055818	782.36	1.8476e-05	2.0046e-05	827.98	246.99	1.8342e-05	2.0293e-05	412.6	140.59	101.17	42.792	2.1407e-05	59.964	86.532	161.387	-107.314	-109.242	-6.805	181.909	-110.108	-103.737	233.530	169.118	-105.028	-102.170	-99.736	-96.103	-14.300	-98.192	-8191	255	
8392.937	1	1	0	0	0.13757	0.11765	0.19096	0.28971	0.082667	0.037142	0.14718	0.29887	0.052787	0.12504	0.21382	0.19173	0.2143	0.17322	0.18688	0.031856	-2.0062	-2.7479	-2.6188	-2.7229	-3.1	-2.4729	-2.8708	-3.0292	-2.2583	-2.9958	-2.7875	-2.4396	-3.0854	-2.7771	-2.5271	-2.9458	222.391	-59.532	82.416	216.394	-93.317	160.252	79.028	202.471	49.051	-44.014	161.256	-77.982	198.614	13.951	66.202	39.311	0.00087003	0.0020984	0.00025245	399.48	1.0135e-05	1.1001e-05	457.16	138.06	1.9532e-05	1.7074e-05	201.51	87.589	55.877	24.279	3.2668e-05	37.244	0.001644	0.0019079	0.00054444	771.42	1.8265e-05	2.1235e-05	811.98	243.56	1.8236e-05	2.1352e-05	402.83	137.8	101.37	43.731	2.0573e-05	58.759	39.632	105.086	-38.651	-109.056	41.863	207.267	-109.414	-103.899	126.667	225.540	-105.334	-101.940	-100.741	-96.336	2.231	-97.935	-8191	255	
8393.057	1	1	0	0	0.10181	0.13016	0.15789	0.12619	0.29848	0.067243	0.17015	0.11553	0.10122	0.015986	0.12085	0.15314	0.16616	0.22658	0.1769	0.13689	-2.0979	-2.7583	-2.9771	-2.2729	-2.7979	-2.5167	-2.6417	-3.1646	-2.5062	-2.6312	-2.9021	-2.3312	-2.85	-2.6396	-2.4667	-3.1125	-121.281	92.220	110.317	43.969	87.455	131.195	156.571	2.712	11.747	-106.731	230.155	187.113	156.846	232.726	113.803	-115.802	0.001	0.0020497	0.00029624	398.55	2.0976e-05	1.5326e-06	456.32	135.59	2.3938e-05	3.2206e-06	201.03	86.309	55.97	24.342	5.4875e-06	37.051	0.0016954	0.0019845	0.00052783	757.98	1.902e-05	2.2031e-05	796.75	238.62	1.9307e-05	2.187e-05	395.37	136	104.82	44.116	2.0305e-05	58.088	25.530	184.908	-23.445	-109.364	219.416	-50.846	-109.715	-103.848	152.416	-45.760	-104.888	-101.727	-100.652	-96.715	-20.216	-98.541	-8191	255	
8393.153	1	1	0	0	0.22648	0.27711	0.18414	0.17804	0.090834	0.1083	0.28156	0.062266	0.16527	0.090204	0.19233	0.26579	0.19914	0.15828	0.41798	0.19695	-2.0583	-2.5917	-2.7938	-2.6354	-2.7104	-2.6312	-2.5312	-3.0917	-2.5187	-2.6063	-2.9437	-2.3854	-2.8354	-2.7042	-2.5021	-3.1667	234.478	86.762	-12.660	193.836	96.098	231.708	150.612	1.787	-73.983	112.711	1.159	186.987	-40.885	29.481	29.213	203.356	0.0021002	0.0012551	0.00034516	394.6	1.3932e-05	8.7004e-06	455.47	136.91	1.5874e-05	1.0226e-05	199.55	86.314	55.67	24.483	1.7504e-05	36.942	0.0018396	0.0020145	0.00052158	756.99	2.0714e-05	2.2296e-05	795.84	237.82	2.123e-05	2.1985e-05	393.93	136.35	109.61	44.024	2.009e-05	58.11	7.206	-86.326	-44.144	-109.152	201.108	-39.977	-109.741	-104.584	124.100	72.714	-105.644	-102.332	-100.115	-96.632	15.670	-98.243	-8191	255	
8393.249	1	1	0	0	0.10984	0.23338	0.22742	0.36566	0.082645	0.15652	0.21548	0.038116	0.11013	0.098569	0.047902	0.072498	0.29942	0.25477	0.17373	0.02385	-2.0187	-2.7583	-2.9458	-2.6521	-2.7542	-2.9688	-2.45	-3.1646	-2.7896	-2.6937	-2.9375	-2.6042	-2.8438	-2.8312	-2.6146	-3.1104	6.108	-66.726	180.109	131.334	96.275	-38.169	109.130	-54.211	152.823	-21.034	219.600	143.909	109.722	4.005	120.722	227.545	0.001443	0.0017169	0.00023744	388.75	1.2701e-05	1.5924e-05	454.56	134.86	2.2649e-05	1.6002e-05	199.94	86.152	57.211	24.64	9.1024e-06	37.145	0.0019898	0.0019756	0.00051449	762.86	2.2095e-05	2.1708e-05	789.58	239.74	2.2455e-05	2.1309e-05	389.46	138.51	112.67	43.423	1.9595e-05	59.484	0.044	-64.969	8.686	-109.237	185.103	-33.727	-110.141	-104.318	187.587	14.635	-105.040	-101.751	-100.222	-96.539	6.848	-98.885	-8191	255	
8393.346	1	1	0	0	0.16265	0.22426	0.16108	0.21364	0.25621	0.22247	0.12511	0.12556	0.11177	0.059126	0.11515	0.061855	0.10388	0.073432	0.10467	0.14245	-2.0458	-2.5979	-3.1271	-2.6146	-2.5625	-2.9708	-2.6521	-2.9437	-2.7646	-2.7167	-3.1562	-2.3521	-2.8604	-2.9708	-2.4146	-2.9583	207.948	-116.571	78.854	-68.096	-33.380	80.907	221.187	-38.760	116.897	61.358	-69.543	1.957	-46.170	147.156	-4.770	13.104	0.00057238	0.0014378	0.00017474	392.22	2.5558e-06	9.4752e-06	459.54	135.22	7.9787e-06	7.7321e-06	200.2	86.736	57.054	24.415	1.6557e-05	36.883	0.0020497	0.0019011	0.00049679	781.02	2.2248e-05	2.0862e-05	772.54	245.57	2.2239e-05	2.0202e-05	377.67	141.61	110.56	42.079	1.8465e-05	60.495	4.870	-49.832	70.163	-109.167	205.807	-21.443	-109.203	-104.098	-65.728	158.776	-106.050	-102.413	-99.769	-96.088	41.936	-98.123	-8191	255	
8393.464	1	1	0	0	0.089878	0.2209	0.24178	0.19725	0.15843	0.098313	0.10967	0.40696	0.048044	0.28209	0.31336	0.16952	0.19761	0.027092	0.078253	0.095627	-2.4708	-2.6542	-2.925	-2.6167	-2.7687	-2.8583	-2.3417	-3.0729	-2.8042	-2.3479	-3.0208	-2.825	-2.6562	-3.1021	-2.4813	-2.9833	-45.493	113.538	-58.671	177.397	176.238	-51.388	6.894	176.940	70.528	27.055	184.531	74.746	-119.494	51.980	234.684	120.470	0.00054171	0.001455	0.00035184	386.79	6.4565e-06	1.0846e-05	455.12	136.66	3.2511e-05	9.0073e-06	199.17	85.802	57.209	24.387	1.1673e-05	36.885	0.001976	0.0017996	0.00046982	800.38	2.1384e-05	1.9831e-05	757.23	250.96	2.133e-05	1.9444e-05	370.9	144.22	107.71	41.208	1.8363e-05	61.618	85.366	-56.496	-37.870	-109.592	33.749	4.533	-109.716	-104.294	-6.636	-0.536	-105.768	-102.232	-100.510	-96.144	233.391	-98.264	-8191	255	
8393.538	1	1	0	0	0.15093	0.19027	0.32046	0.072129	0.28399	0.019578	0.14388	0.19255	0.1585	0.26387	0.093065	0.13915	0.18198	0.22313	0.20178	0.17582	-2.3229	-2.4896	-2.9979	-2.8708	-2.7396	-2.8854	-2.5646	-2.9896	-3.0812	-2.4833	-2.8229	-2.7146	-2.7604	-2.9042	-2.4792	-2.9188	112.971	-93.897	88.597	-47.092	-65.150	-86.870	138.761	224.249	118.596	63.461	-10.764	12.717	-32.343	164.832	72.304	-25.316	0.00069638	0.00055083	0.00028465	391.07	1.2579e-05	7.7776e-06	451.96	136.32	3.0734e-05	1.1498e-05	195.36	86.251	57.283	24.408	4.6812e-05	36.948	0.0019	0.001752	0.00047011	821.77	2.0558e-05	1.9181e-05	766.56	256.21	2.0639e-05	1.8992e-05	378.38	147.17	106.17	40.635	1.9611e-05	62.652	40.229	-69.312	125.347	-109.701	-6.788	-33.064	-110.282	-103.793	8.829	27.413	-106.300	-102.215	-99.568	-96.340	169.484	-98.248	-8191	255	
8393.634	1	1	0	0	0.29463	0.31107	0.049013	0.14697	0.11446	0.12221	0.20412	0.090967	0.14005	0.16565	0.061078	0.24675	0.21018	0.087236	0.24664	0.11061	-2.5792	-2.3771	-3.0771	-2.7667	-2.5	-3.1937	-2.5312	-2.8604	-2.9104	-2.4562	-2.9833	-2.8729	-2.6792	-2.9042	-2.5687	-2.975	162.344	133.471	-103.771	33.206	-24.487	-99.939	74.184	-120.793	40.524	-24.455	-120.800	232.885	103.016	-85.262	-62.003	124.399	0.0010381	0.0013059	0.0004054	390.65	3.6509e-06	9.5429e-06	456.41	136.13	3.8634e-06	2.2477e-05	195.65	86.756	57.391	24.509	3.4174e-05	37.056	0.0018482	0.0017126	0.00050071	832.06	2.0082e-05	1.8756e-05	798.2	257.07	2.0203e-05	1.8629e-05	395.57	147.15	105.41	40.328	2.1092e-05	62.322	126.386	-80.434	181.027	-109.230	-48.781	-1.625	-110.803	-103.727	214.397	-9.899	-106.167	-101.693	-99.899	-96.328	217.687	-98.066	-8191	255	
8393.753	1	1	0	0	0.09121	0.061178	0.092804	0.14809	0.22963	0.21013	0.15228	0.15551	0.16225	0.13535	0.24587	0.11019	0.11502	0.15535	0.29813	0.12287	-2.55	-2.4292	-2.7979	-2.8	-2.7479	-3.2167	-2.75	-2.775	-2.9479	-2.5271	-2.7417	-2.9375	-2.5187	-3	-2.9375	-2.5875	-54.874	67.866	-56.989	94.489	150.835	101.384	232.116	131.537	37.874	-19.802	147.880	150.463	188.688	14.761	-26.118	-60.005	0.00073835	0.00066802	0.00036494	399.25	9.4401e-06	4.723e-06	452.72	135.78	2.2515e-05	1.8819e-06	199.18	87.471	57.345	24.351	4.5248e-06	37.701	0.0018234	0.0017051	0.0005416	827.1	1.9998e-05	1.891e-05	830.42	256.47	2.0288e-05	1.9277e-05	415.95	147.45	105.93	41.215	2.2818e-05	62.508	83.261	31.097	113.584	-108.862	-22.691	231.698	-110.560	-103.522	15.289	198.840	-105.896	-101.645	-100.044	-96.435	-8.462	-97.765	-8191	255	
8393.849	1	1	0	0	0.077115	0.24525	0.1376	0.16312	0.050548	0.20712	0.21873	0.11928	0.067687	0.14308	0.10895	0.14528	0.29667	0.16533	0.10271	0.14154	-2.6042	-2.4979	-2.7208	-3.0229	-2.4271	-3.1063	-2.8312	-2.5542	-3.2875	-2.6667	-2.6458	-3.0625	-2.5229	-3.15	-2.6354	-2.6792	82.642	17.205	40.457	155.154	201.304	-116.496	187.691	145.027	150.013	72.778	163.101	216.715	76.680	-119.383	-35.627	162.646	0.00034803	0.0020575	0.00032424	396.62	7.1373e-06	1.2091e-05	455.58	137.86	2.4512e-05	1.5825e-05	201.58	86.578	56.544	24.379	8.1983e-06	36.996	0.001826	0.001802	0.0005796	823.56	1.9936e-05	2.0005e-05	855.41	253.92	1.9903e-05	2.0514e-05	424.25	145.35	104.77	42.642	2.3316e-05	61.449	47.158	63.001	114.117	-108.847	-59.047	164.108	-109.958	-103.998	-22.613	187.823	-105.513	-101.566	-100.304	-96.516	-23.571	-98.098	-8191	255	
8393.945	1	1	0	0	0.055841	0.15101	0.1245	0.30754	0.051491	0.065141	0.04645	0.038143	0.24429	0.18688	0.1373	0.14095	0.16755	0.047546	0.28631	0.25976	-2.5312	-2.6729	-2.6354	-2.9604	-2.5833	-2.9854	-2.8583	-2.7042	-3	-2.6167	-2.6708	-3.1417	-2.5312	-2.7562	-2.8792	-2.6708	202.822	-56.029	234.777	-91.922	-48.590	115.171	70.723	8.922	-5.695	179.162	212.026	110.262	14.922	192.278	170.853	174.928	0.0005021	0.0030225	0.0003917	392.4	8.4595e-06	1.757e-05	458.68	135.38	1.0211e-05	2.5432e-05	201.24	85.429	56.085	24.258	1.2722e-05	36.702	0.0017732	0.0019306	0.00058167	808.35	1.9475e-05	2.1279e-05	846.84	250.48	1.9322e-05	2.1938e-05	417.75	142.69	103.49	43.865	2.2746e-05	60.665	132.570	114.100	-15.059	-108.477	62.133	147.565	-109.624	-104.049	30.276	221.928	-105.814	-101.660	-99.979	-95.558	25.492	-97.691	-8191	255	
#DATA ENDS
