BOXY.EXE: ISS Imagent and Oximeter Data Acquisition Program Version 0.80
Ascii Record File

#ACQ INFORMATION
2  Detector Channels 
16  External MUX Channels 
1  Auxiliary Channels 
5000  Waveform (CCF) Frequency (Hz)
1  Waveforms Skipped 
30  Waveforms Averaged 
1  Cycles Averaged 
16  Acquisitions per Waveform 
10.0806  Updata Rate (Hz) 

#FILE INFORMATION
TRUE -- External MUX Channel results are PARSED.
FALSE -- AC DC and Phase are NOT grouped.
TRUE -- Companion Program Settings File CREATED.
FALSE -- AC data not excluded
FALSE -- DC data not excluded
FALSE -- Phase data not excluded
FALSE -- Auxillary Chn. data not excluded
Tab delimiters

#CALIBRATION STATE
TRUE -- Waveform Calibration Values APPLIED.


#AUX CALIBRATION VALUES
Val Type	aux-1	

Term	1.0000e+00	
Factor	0.0000e+00	


#WF CALIBRATION VALUES
A = Detector Channel
Val Type	A-AC1	A-AC2	A-AC3	A-AC4	A-AC5	A-AC6	A-AC7	A-AC8	A-AC9	A-AC10	A-AC11	A-AC12	A-AC13	A-AC14	A-AC15	A-AC16	A-DC1	A-DC2	A-DC3	A-DC4	A-DC5	A-DC6	A-DC7	A-DC8	A-DC9	A-DC10	A-DC11	A-DC12	A-DC13	A-DC14	A-DC15	A-DC16	A-Ph1	A-Ph2	A-Ph3	A-Ph4	A-Ph5	A-Ph6	A-Ph7	A-Ph8	A-Ph9	A-Ph10	A-Ph11	A-Ph12	A-Ph13	A-Ph14	A-Ph15	A-Ph16	

Term	0.00000e+00	0.00000e+00	0.00000e+00	0.00000e+00	0.00000e+00	0.00000e+00	0.00000e+00	0.00000e+00	0.00000e+00	0.00000e+00	0.00000e+00	0.00000e+00	0.00000e+00	0.00000e+00	0.00000e+00	0.00000e+00	0.00000e+00	0.00000e+00	0.00000e+00	0.00000e+00	0.00000e+00	0.00000e+00	0.00000e+00	0.00000e+00	0.00000e+00	0.00000e+00	0.00000e+00	0.00000e+00	0.00000e+00	0.00000e+00	0.00000e+00	0.00000e+00	0.00000e+00	0.00000e+00	0.00000e+00	0.00000e+00	0.00000e+00	0.00000e+00	0.00000e+00	0.00000e+00	0.00000e+00	0.00000e+00	0.00000e+00	0.00000e+00	0.00000e+00	0.00000e+00	0.00000e+00	0.00000e+00	
Factor	1.00000e+00	1.00000e+00	1.00000e+00	1.00000e+00	1.00000e+00	1.00000e+00	1.00000e+00	1.00000e+00	1.00000e+00	1.00000e+00	1.00000e+00	1.00000e+00	1.00000e+00	1.00000e+00	1.00000e+00	1.00000e+00	1.00000e+00	1.00000e+00	1.00000e+00	1.00000e+00	1.00000e+00	1.00000e+00	1.00000e+00	1.00000e+00	1.00000e+00	1.00000e+00	1.00000e+00	1.00000e+00	1.00000e+00	1.00000e+00	1.00000e+00	1.00000e+00	X	X	X	X	X	X	X	X	X	X	X	X	X	X	X	X	

B = Detector Channel
Val Type	B-AC1	B-AC2	B-AC3	B-AC4	B-AC5	B-AC6	B-AC7	B-AC8	B-AC9	B-AC10	B-AC11	B-AC12	B-AC13	B-AC14	B-AC15	B-AC16	B-DC1	B-DC2	B-DC3	B-DC4	B-DC5	B-DC6	B-DC7	B-DC8	B-DC9	B-DC10	B-DC11	B-DC12	B-DC13	B-DC14	B-DC15	B-DC16	B-Ph1	B-Ph2	B-Ph3	B-Ph4	B-Ph5	B-Ph6	B-Ph7	B-Ph8	B-Ph9	B-Ph10	B-Ph11	B-Ph12	B-Ph13	B-Ph14	B-Ph15	B-Ph16	

Term	0.00000e+00	0.00000e+00	0.00000e+00	0.00000e+00	0.00000e+00	0.00000e+00	0.00000e+00	0.00000e+00	0.00000e+00	0.00000e+00	0.00000e+00	0.00000e+00	0.00000e+00	0.00000e+00	0.00000e+00	0.00000e+00	0.00000e+00	0.00000e+00	0.00000e+00	0.00000e+00	0.00000e+00	0.00000e+00	0.00000e+00	0.00000e+00	0.00000e+00	0.00000e+00	0.00000e+00	0.00000e+00	0.00000e+00	0.00000e+00	0.00000e+00	0.00000e+00	6.26660e+01	-1.60708e+02	-1.38034e+02	-1.81640e+02	-8.09839e+01	-1.13405e+02	-1.57973e+02	-1.62015e+02	-1.03025e+02	-8.37485e+01	-1.80409e+02	-1.70637e+02	-1.81506e+02	-1.76090e+02	-1.06331e+02	-1.49360e+02	
Factor	4.46417e-05	7.40306e-05	1.66068e-05	1.80300e-01	6.95920e-07	6.52801e-07	1.65304e-01	5.16653e-02	1.08927e-06	6.59530e-07	1.02996e-01	2.98071e-02	2.44284e-02	9.16901e-03	8.66652e-07	1.32262e-02	3.52392e-07	3.56068e-07	9.93150e-08	8.43590e-02	3.89487e-09	3.90538e-09	7.38614e-02	2.41382e-02	3.89876e-09	3.90770e-09	4.36374e-02	1.29438e-02	1.10597e-02	4.10157e-03	3.91558e-09	5.63340e-03	X	X	X	X	X	X	X	X	X	X	X	X	X	X	X	X	



#DISTANCE SETTINGS
A = Detector Channel
A-1	A-2	A-3	A-4	A-5	A-6	A-7	A-8	A-9	A-10	A-11	A-12	A-13	A-14	A-15	A-16	

2.5000e+00	3.0000e+00	2.5000e+00	3.0000e+00	2.0000e+00	3.0000e+00	1.5000e+00	3.0000e+00	3.0000e+00	3.0000e+00	3.0000e+00	3.0000e+00	3.0000e+00	3.0000e+00	1.5000e+00	3.0000e+00	

B = Detector Channel
B-1	B-2	B-3	B-4	B-5	B-6	B-7	B-8	B-9	B-10	B-11	B-12	B-13	B-14	B-15	B-16	

1.0000e+01	1.0000e+01	1.0000e+01	1.4400e+00	1.0000e+01	1.0000e+01	1.5100e+00	1.9400e+00	1.0000e+01	1.0000e+01	1.9900e+00	2.4900e+00	2.4100e+00	2.9000e+00	1.0000e+01	2.9800e+00	




#DATA BEGINS
time	group	step	mark	flag	A-AC1	A-AC2	A-AC3	A-AC4	A-AC5	A-AC6	A-AC7	A-AC8	A-AC9	A-AC10	A-AC11	A-AC12	A-AC13	A-AC14	A-AC15	A-AC16	A-DC1	A-DC2	A-DC3	A-DC4	A-DC5	A-DC6	A-DC7	A-DC8	A-DC9	A-DC10	A-DC11	A-DC12	A-DC13	A-DC14	A-DC15	A-DC16	A-Ph1	A-Ph2	A-Ph3	A-Ph4	A-Ph5	A-Ph6	A-Ph7	A-Ph8	A-Ph9	A-Ph10	A-Ph11	A-Ph12	A-Ph13	A-Ph14	A-Ph15	A-Ph16	B-AC1	B-AC2	B-AC3	B-AC4	B-AC5	B-AC6	B-AC7	B-AC8	B-AC9	B-AC10	B-AC11	B-AC12	B-AC13	B-AC14	B-AC15	B-AC16	B-DC1	B-DC2	B-DC3	B-DC4	B-DC5	B-DC6	B-DC7	B-DC8	B-DC9	B-DC10	B-DC11	B-DC12	B-DC13	B-DC14	B-DC15	B-DC16	B-Ph1	B-Ph2	B-Ph3	B-Ph4	B-Ph5	B-Ph6	B-Ph7	B-Ph8	B-Ph9	B-Ph10	B-Ph11	B-Ph12	B-Ph13	B-Ph14	B-Ph15	B-Ph16	aux-1	digaux	

8529.928	1	1	0	256	0.30331	0.24997	0.070141	0.097158	0.086732	0.087693	0.21044	0.19733	0.31569	0.033717	0.12824	0.19894	0.40673	0.33313	0.2028	0.16634	-1.7917	-3.1771	-2.6292	-2.5521	-3.0563	-2.6063	-2.9437	-2.9417	-2.3958	-3.1312	-2.6125	-2.5917	-3.0146	-2.5896	-2.9	-2.9062	274.880	147.320	314.828	314.521	98.039	250.024	57.448	260.508	67.966	230.068	256.159	51.918	266.654	296.245	147.098	102.920	0.00022411	0.00010938	2.5448e-05	199.43	1.8163e-07	9.6396e-07	254.84	65.622	1.6523e-06	4.6281e-07	102.65	40.459	24.557	11.408	6.1032e-07	21.594	8.4471e-06	6.5457e-06	1.9997e-06	187.09	7.1333e-08	7.194e-08	239.79	61.43	7.2484e-08	6.8971e-08	89.824	36.422	22.163	10.206	8.4495e-08	18.906	332.653	90.310	87.613	-10.051	184.283	91.657	-10.524	-4.874	79.532	139.549	-6.683	-2.665	-0.772	2.595	67.403	0.506	-8191	255	
8530.024	1	1	0	0	0.34421	0.10913	0.27801	0.26097	0.12635	0.19207	0.15381	0.074139	0.15938	0.41389	0.1357	0.099911	0.16917	0.11736	0.22461	0.15118	-2.1917	-2.7875	-2.6542	-2.7062	-2.9042	-2.6458	-2.7354	-3.0187	-2.6083	-2.7292	-2.9146	-2.4521	-3.0438	-2.7354	-2.6125	-3.25	-21.869	258.371	171.713	14.122	67.931	124.581	5.281	99.694	127.276	-7.636	79.136	238.597	126.330	334.496	185.681	225.980	0.00020351	4.3393e-05	1.867e-05	200.68	8.5776e-07	2.5694e-07	256.42	66.436	2.0884e-07	2.5543e-07	103.56	41.21	24.734	11.665	1.0097e-06	21.986	8.6454e-06	6.7475e-06	2.0538e-06	188.41	7.0667e-08	7.8327e-08	241.66	62.079	7.3687e-08	7.6819e-08	91.077	36.901	22.475	10.391	8.4071e-08	19.243	326.985	53.496	35.289	-9.854	32.619	0.799	-10.815	-4.684	60.101	114.500	-6.837	-2.462	-0.688	3.346	31.250	0.163	-8191	255	
8530.120	1	1	0	0	0.31032	0.12752	0.015844	0.12471	0.1464	0.16226	0.12772	0.10988	0.17138	0.15081	0.20691	0.18272	0.19556	0.17123	0.075474	0.070246	-2.1396	-2.7229	-2.9479	-2.5563	-3.1833	-2.6396	-2.7208	-2.9604	-2.5396	-3.0042	-2.9104	-2.3625	-2.9542	-2.8354	-2.7812	-3.0708	241.640	256.860	122.640	203.075	-9.131	158.133	293.022	179.334	12.278	146.615	65.017	265.517	-0.550	117.182	189.564	299.187	0.00022975	0.00010031	1.4787e-05	205.6	8.6579e-07	4.8874e-07	258.69	67.847	3.9005e-07	7.6246e-07	104.8	41.752	25.454	11.671	3.9611e-07	21.877	8.7819e-06	7.611e-06	2.0854e-06	191.52	7.5333e-08	8.3925e-08	245.35	63.56	7.9835e-08	8.6784e-08	92.708	37.592	22.857	10.462	8.3434e-08	19.265	334.289	-15.264	76.325	-9.899	132.634	96.667	-10.462	-4.626	97.762	56.153	-6.604	-2.305	-0.570	3.017	145.190	0.931	-8191	255	
8530.239	1	1	0	0	0.069561	0.2503	0.11752	0.071944	0.24608	0.078499	0.12732	0.15618	0.044989	0.11898	0.13017	0.1575	0.29867	0.1152	0.10441	0.15938	-2.1813	-2.825	-2.8438	-2.7208	-3.05	-2.7313	-2.7333	-3.0875	-2.65	-2.8583	-2.8604	-2.6875	-3.025	-2.6583	-2.4938	-3.075	329.051	182.778	150.800	5.688	187.258	174.729	295.677	214.113	39.994	123.572	240.296	281.098	276.819	88.110	11.390	35.199	0.00026896	0.0001255	1.0394e-05	204.73	6.8859e-07	1.0428e-06	260.91	68.42	2.5368e-07	9.5216e-07	106.06	42.015	25.249	11.647	7.5153e-07	21.981	9.2694e-06	7.7875e-06	2.0424e-06	191.88	8.1127e-08	8.7798e-08	246.89	64.136	8.1866e-08	8.0784e-08	92.96	37.646	23.01	10.462	8.3744e-08	19.195	334.700	337.194	121.124	-9.467	128.711	80.588	-10.260	-4.594	151.459	91.383	-6.670	-2.027	-0.872	2.963	149.508	0.790	-8191	255	
8530.335	1	1	0	0	0.18816	0.16079	0.13881	0.16336	0.16441	0.24717	0.18379	0.15371	0.18942	0.027648	0.14471	0.11569	0.21135	0.27107	0.25793	0.17169	-2.3521	-2.6771	-2.8792	-2.6146	-3.0021	-2.6083	-2.3167	-3.1104	-2.7	-2.7917	-2.9479	-2.6708	-2.7042	-2.9896	-2.3396	-2.9938	240.644	123.625	34.551	47.533	49.918	301.707	66.655	271.233	98.026	192.363	105.552	44.175	233.570	-19.701	48.549	281.840	0.0002229	7.9586e-05	1.6601e-05	204.57	5.7336e-07	5.3701e-07	262.03	69.205	1.6661e-06	4.1085e-07	107.23	42.154	25.771	11.9	3.9103e-07	22.032	9.8332e-06	8.1465e-06	2.1121e-06	192.65	8.7148e-08	8.7334e-08	248.15	64.604	8.756e-08	8.7362e-08	93.774	37.719	23.323	10.606	8.478e-08	19.322	327.085	45.789	55.254	-9.728	84.088	77.222	-10.558	-4.951	109.009	109.864	-6.802	-2.647	-0.938	2.685	76.953	0.784	-8191	255	
8530.431	1	1	0	0	0.19603	0.22446	0.24017	0.042143	0.1243	0.012848	0.040247	0.10642	0.11638	0.057271	0.28626	0.058477	0.14613	0.11367	0.076652	0.27045	-2.4479	-2.5062	-2.9667	-2.6125	-2.9729	-2.875	-2.5625	-2.9208	-2.6792	-2.6729	-3.2375	-2.6542	-2.6521	-3.0792	-2.325	-3.1146	313.344	336.495	303.410	97.873	197.602	135.038	296.967	91.186	116.626	-8.457	12.331	125.965	244.182	-14.880	102.480	244.999	0.00020501	6.8412e-06	1.8312e-05	209.45	1.7112e-06	2.3559e-07	263.39	70.36	3.1727e-07	5.9947e-07	109.24	42.935	26.22	12.012	8.7162e-07	22.364	1.0197e-05	8.0494e-06	2.0136e-06	195.21	9.0507e-08	8.4259e-08	250.32	65.854	9.2409e-08	8.5025e-08	95.596	38.395	23.677	10.778	8.1289e-08	19.634	327.282	228.325	73.665	-9.867	144.789	52.256	-10.637	-5.150	108.698	124.255	-6.890	-2.552	-0.637	2.701	74.320	0.635	-8191	255	
8530.527	1	1	0	0	0.16459	0.13202	0.15954	0.14656	0.15843	0.095976	0.20672	0.17467	0.19765	0.39614	0.23969	0.17579	0.11528	0.095649	0.41076	0.14881	-2.3208	-2.6792	-2.9833	-2.4583	-2.8792	-3.1	-2.5271	-3.1583	-2.6833	-2.6625	-3.1146	-2.5646	-2.55	-3.1417	-2.4875	-2.8042	115.872	-12.829	70.844	37.978	74.263	143.338	-20.378	-22.018	67.379	216.096	295.408	327.502	89.215	64.708	161.227	332.457	0.00023849	0.00010321	2.3576e-05	209.13	4.2167e-07	8.2839e-07	267.34	72.062	1.3549e-06	1.7644e-07	109.58	43.548	26.74	12.259	1.4871e-06	22.838	1.0421e-05	7.95e-06	2.0515e-06	196.52	9.1278e-08	8.4551e-08	252.68	67.195	9.4577e-08	8.8737e-08	96.669	39.08	24.209	11.001	8.6012e-08	19.939	-22.969	91.703	53.258	-9.705	194.840	110.163	-10.054	-5.417	124.235	17.933	-6.512	-2.641	-1.077	2.989	113.817	0.453	-8191	255	
8530.624	1	1	0	0	0.10657	0.050243	0.22124	0.015322	0.2831	0.1085	0.13049	0.096455	0.13008	0.21402	0.36238	0.073846	0.1042	0.060008	0.13725	0.22025	-2.4583	-2.55	-3.0667	-2.8542	-2.7188	-3.1146	-2.5917	-2.975	-2.9125	-2.4771	-2.9625	-2.925	-2.5375	-2.7792	-2.7146	-2.9104	127.830	273.889	323.247	28.184	298.527	64.145	52.565	161.229	235.536	184.406	-2.138	130.572	270.071	-17.275	287.668	217.644	0.00024321	6.4138e-05	2.129e-05	210.08	2.2471e-07	3.0015e-07	269.16	72.912	1.3646e-06	1.06e-06	113.02	44.481	27.35	12.631	5.1504e-07	23.423	1.0807e-05	7.9299e-06	2.0817e-06	198.49	9.8727e-08	8.8676e-08	256.19	68.211	9.7339e-08	9.0708e-08	99.151	40.019	24.717	11.321	9.1217e-08	20.461	-22.276	21.390	41.270	-9.783	125.929	62.631	-10.469	-4.935	100.533	29.085	-6.617	-2.385	-0.866	2.920	140.699	0.743	-8191	255	
8530.718	1	1	0	0	0.069972	0.076868	0.12555	0.078614	0.19108	0.096875	0.19123	0.30441	0.11398	0.071011	0.1685	0.16754	0.22063	0.024899	0.2856	0.22727	-2.3792	-2.4375	-3.0667	-2.8229	-2.7687	-3.0271	-2.5458	-2.9583	-2.7896	-2.5604	-2.95	-2.9292	-2.6562	-3.0521	-2.5687	-2.8042	-14.318	53.560	122.787	330.458	311.153	127.281	-21.922	143.204	245.856	255.608	196.465	181.668	317.471	335.065	243.673	294.103	0.00026621	8.3731e-05	2.03e-05	214.3	8.1565e-07	1.0095e-06	274.28	74.385	9.2905e-07	5.8264e-07	113.68	44.621	27.222	12.686	6.3701e-07	23.15	1.1051e-05	8.3639e-06	2.2437e-06	202.14	9.5027e-08	8.7131e-08	259.91	69.562	9.5568e-08	8.7834e-08	99.943	40.065	24.782	11.364	9.3419e-08	20.359	322.620	39.333	71.367	-9.569	112.691	105.438	-10.380	-4.958	96.825	112.726	-6.113	-1.965	-1.089	2.768	98.865	0.581	-8191	255	
8530.816	1	1	0	0	0.18572	0.16379	0.15764	0.18167	0.10687	0.22669	0.035602	0.2702	0.14945	0.16938	0.025418	0.020093	0.27158	0.065786	0.22506	0.19934	-2.6021	-2.6688	-2.9646	-2.9083	-2.5312	-3.1396	-2.7729	-2.7313	-2.9125	-2.725	-3.1542	-2.9354	-2.4958	-2.9958	-2.7333	-2.8396	286.935	189.280	197.370	72.027	-0.517	118.421	266.388	52.539	261.762	274.732	331.276	105.301	12.333	175.857	237.222	334.095	0.00021158	4.1235e-05	1.7375e-05	215.48	3.0834e-07	8.3126e-07	272.17	73.96	1.1932e-06	6.3585e-07	112.89	43.941	27.324	12.57	3.713e-07	23.196	1.0593e-05	8.1992e-06	2.338e-06	201.84	9.5473e-08	8.2338e-08	259.1	69.231	9.1621e-08	8.5196e-08	99.273	39.676	24.652	11.288	9.6723e-08	20.235	323.198	193.778	44.902	-9.726	166.234	24.520	-10.418	-4.493	101.115	112.058	-6.455	-2.664	-1.034	3.167	50.869	0.718	-8191	255	
8530.935	1	1	0	0	0.3832	0.19597	0.27229	0.15063	0.27533	0.14047	0.14223	0.02799	0.066618	0.1138	0.14989	0.10113	0.056007	0.17845	0.073565	0.1217	-2.4437	-2.4521	-2.8667	-2.7687	-2.5917	-3.0938	-2.8875	-2.725	-2.9938	-2.6583	-2.6979	-3.0458	-2.7479	-3.0542	-2.6854	-2.7375	139.429	155.347	181.310	91.451	241.978	259.066	32.202	264.078	38.153	255.957	284.624	42.502	28.305	207.886	89.818	63.786	0.00023026	0.00010555	5.9692e-06	213.58	3.1324e-07	1.1309e-07	273.28	74.085	4.6147e-07	2.5775e-07	111.76	44.009	27.318	12.458	1.3245e-06	23.047	1.0183e-05	8.0249e-06	2.4125e-06	201.5	9.0377e-08	8.7871e-08	258.59	69.01	8.9745e-08	8.8469e-08	98.627	39.557	24.526	11.213	1.0097e-07	20.28	-17.603	41.876	90.198	-9.847	201.689	18.892	-10.156	-4.606	4.387	105.358	-6.799	-2.081	-0.281	3.373	78.095	0.549	-8191	255	
8531.031	1	1	0	0	0.082124	0.048861	0.034218	0.05832	0.13381	0.094771	0.18204	0.13656	0.16187	0.029808	0.18671	0.14278	0.20893	0.21312	0.05429	0.14546	-2.4979	-2.5979	-2.8271	-2.8542	-2.5312	-3.1063	-2.875	-2.6937	-2.9	-2.8833	-2.7479	-3.0354	-2.7292	-3.0771	-3.0083	-2.5542	9.589	8.123	-21.143	96.063	70.816	164.489	2.342	120.471	217.587	259.444	234.575	137.706	46.054	294.104	222.833	26.902	0.0002331	3.6668e-05	2.0804e-05	215.01	6.1471e-07	2.3214e-07	274.62	74.374	9.5872e-07	3.7537e-07	112.63	44.172	27.592	12.751	5.659e-07	23.379	1.0256e-05	8.0776e-06	2.5315e-06	201.97	8.9071e-08	8.9563e-08	260.42	69.443	9.0857e-08	9.3272e-08	99.79	39.91	24.807	11.374	1.0178e-07	20.446	-21.107	308.296	87.828	-9.721	111.643	68.559	-10.335	-4.572	94.800	93.075	-6.467	-2.736	-0.367	2.686	71.857	0.578	-8191	255	
8531.127	1	1	0	0	0.10718	0.19467	0.22468	0.073307	0.10971	0.17702	0.23849	0.039071	0.11128	0.21201	0.17694	0.22157	0.11658	0.38636	0.11505	0.09244	-2.6562	-2.7708	-2.7542	-3.0625	-2.6042	-2.7771	-2.8958	-2.7646	-2.8063	-2.6875	-2.9	-2.9479	-2.5062	-2.975	-2.9667	-2.475	45.103	238.209	240.884	55.615	126.933	65.634	311.997	-20.902	2.184	2.614	284.102	326.724	135.281	4.433	192.051	276.861	0.00026663	3.958e-05	6.5657e-06	214.57	9.1409e-07	5.149e-07	273.57	74.229	1.3296e-06	1.7206e-07	114.38	44.769	27.218	12.73	5.0294e-07	23.449	9.9499e-06	9.059e-06	2.5799e-06	202.6	8.7602e-08	9.3957e-08	260.36	69.604	8.6666e-08	9.9443e-08	100.08	40.181	24.723	11.396	1.0202e-07	20.522	325.092	18.602	88.172	-9.867	143.073	72.657	-10.567	-4.714	84.124	121.937	-6.677	-2.317	-0.991	3.051	53.195	1.141	-8191	255	
8531.223	1	1	0	0	0.1572	0.30446	0.10632	0.028159	0.15058	0.067167	0.094774	0.23975	0.17014	0.19788	0.21643	0.065882	0.17031	0.14076	0.098129	0.11973	-2.5396	-2.7375	-2.8625	-2.9292	-2.7271	-2.7125	-2.9125	-2.3625	-2.8937	-2.9	-2.5667	-2.8875	-2.6271	-2.8833	-2.9333	-2.5875	171.532	77.097	204.769	-16.615	118.211	268.824	283.896	45.389	142.991	89.347	232.903	22.669	19.487	281.793	20.642	183.743	0.00030579	7.2829e-05	2.3961e-05	215.75	5.0911e-07	9.5616e-07	274.32	75.071	2.4682e-07	3.9735e-07	113.98	44.469	27.465	12.681	5.5323e-07	23.209	1.0277e-05	9.4543e-06	2.5092e-06	202.26	9.6357e-08	1.0244e-07	260.91	70.173	9.4642e-08	1.0155e-07	100.35	40.05	24.797	11.422	9.9129e-08	20.316	331.647	299.544	60.396	-9.625	27.662	102.077	-10.387	-4.794	-3.538	65.608	-6.444	-2.086	-0.321	3.034	57.364	0.393	-8191	255	
8531.319	1	1	0	0	0.15195	0.21231	0.19632	0.19665	0.10405	0.041749	0.18068	0.11995	0.16266	0.064574	0.090413	0.082126	0.075147	0.18659	0.24104	0.26407	-2.4771	-2.8563	-2.55	-2.9958	-2.4292	-2.7208	-3.0563	-2.3688	-2.8875	-2.9208	-2.5	-3.1562	-2.8229	-2.3917	-3	-2.65	158.892	257.524	196.669	132.172	44.976	197.258	131.873	280.360	100.835	274.946	274.015	30.088	5.986	76.938	188.491	268.412	0.00018416	6.1241e-05	2.7004e-05	215.01	7.2227e-07	3.503e-07	274.77	74.631	1.4056e-06	5.8525e-07	113.27	44.111	27.244	12.645	5.1205e-07	23.01	1.1244e-05	9.8586e-06	2.5607e-06	201.86	9.983e-08	1.005e-07	259.14	69.523	1.0136e-07	1.014e-07	99.572	39.627	24.64	11.365	9.6576e-08	20.227	329.448	51.260	52.951	-9.524	136.843	114.073	-10.474	-4.716	146.805	161.356	-6.529	-2.577	-0.548	2.688	191.033	0.776	-8191	255	
8531.416	1	1	0	0	0.10626	0.29999	0.14119	0.067196	0.11189	0.098676	0.17402	0.10257	0.18789	0.11203	0.075558	0.072269	0.052056	0.1402	0.02468	0.073943	-2.4479	-2.8583	-2.5875	-2.9104	-2.5083	-2.8396	-3.1042	-2.4875	-2.7646	-3.0187	-2.6458	-3.0125	-2.4833	-2.7417	-3.0938	-2.5875	296.649	306.520	137.460	76.062	42.123	26.077	251.585	91.678	257.776	77.950	223.658	211.780	283.369	313.346	227.234	285.954	0.0002448	8.5875e-05	2.4504e-05	213.01	6.2585e-07	6.4167e-07	270.95	73.496	1.8955e-06	1.742e-07	113.47	43.922	27.224	12.55	1.0495e-06	23.075	1.1231e-05	9.3594e-06	2.3912e-06	200.39	1.0177e-07	9.8814e-08	257.61	69.216	1.0208e-07	9.9467e-08	99.45	39.438	24.529	11.265	9.3329e-08	20.244	336.162	25.419	56.412	-9.860	109.875	58.336	-10.370	-4.371	130.700	178.964	-5.923	-2.523	-0.566	2.947	91.031	0.751	-8191	255	
8531.536	1	1	0	0	0.14798	0.11949	0.30458	0.22141	0.15895	0.11217	0.14283	0.075651	0.13697	0.038303	0.21494	0.21873	0.23601	0.10135	0.24456	0.047542	-2.3625	-2.9188	-2.2646	-3.0208	-2.7375	-2.6521	-3.2021	-2.6917	-2.6937	-3.1417	-2.6562	-2.9667	-2.6521	-2.6667	-3.2021	-2.8396	-12.832	283.058	291.676	83.884	246.632	291.315	198.986	23.100	130.004	33.661	72.262	-6.720	101.331	12.232	97.736	258.356	0.00027681	5.2774e-05	2.26e-05	211.72	6.3041e-07	4.1906e-07	272.24	73.241	1.5607e-06	8.6386e-07	112.73	43.976	27.024	12.497	7.6334e-07	23.257	1.1536e-05	8.8817e-06	2.3354e-06	199.53	1.0423e-07	9.6137e-08	257.41	68.932	1.0527e-07	9.3353e-08	98.702	39.456	24.375	11.268	8.8492e-08	20.436	329.579	335.976	52.042	-9.854	71.192	65.925	-10.696	-4.616	69.224	142.940	-6.625	-2.964	-0.705	3.426	115.470	0.457	-8191	255	
8531.631	1	1	0	0	0.10676	0.021982	0.094476	0.19206	0.22085	0.22265	0.25756	0.090084	0.11372	0.025086	0.13841	0.205	0.15168	0.18763	0.12009	0.087014	-2.0979	-2.8958	-2.6	-2.9354	-2.8063	-2.7562	-3.0312	-2.4729	-2.5604	-2.9771	-2.4688	-2.8688	-2.8771	-2.5271	-2.975	-2.875	73.414	9.465	269.176	239.090	249.291	227.456	86.991	325.620	132.064	248.479	109.347	189.988	29.643	79.828	82.501	106.767	0.00022399	9.9067e-05	1.7114e-05	212.92	5.3594e-07	9.1182e-07	270.71	73.801	5.034e-07	7.2263e-07	113.1	44.017	27.04	12.653	7.6446e-07	23.353	1.1261e-05	8.2689e-06	2.1725e-06	199.74	9.9741e-08	9.0401e-08	256.84	68.956	1.0004e-07	9.2637e-08	99.225	39.594	24.382	11.305	8.7024e-08	20.467	316.058	49.042	64.113	-9.525	136.338	150.393	-10.188	-5.264	82.302	98.684	-6.539	-2.138	-0.620	2.571	94.135	0.450	-8191	255	
8531.727	1	1	0	0	0.061946	0.21811	0.26683	0.19856	0.083031	0.10507	0.19912	0.20433	0.14832	0.057843	0.099181	0.051611	0.1861	0.14742	0.02502	0.11705	-2.1979	-2.8771	-2.6271	-2.8375	-3.125	-2.5146	-3.1063	-2.5479	-2.7	-3.0917	-2.475	-2.8604	-2.9562	-2.525	-3.1292	-2.7792	267.223	332.456	167.488	171.567	30.726	291.591	-18.116	321.559	250.448	235.230	294.433	227.610	88.995	110.245	262.567	234.858	0.00025312	8.7553e-05	1.771e-05	210.17	7.3908e-07	6.6725e-07	270.04	72.742	3.9162e-07	8.1754e-07	111.2	43.82	26.491	12.44	8.2398e-07	23.082	1.1007e-05	7.898e-06	2.182e-06	198.33	9.5708e-08	8.783e-08	255.74	68.263	9.4642e-08	8.4341e-08	98.062	39.276	24.037	11.157	8.881e-08	20.185	-22.375	2.995	68.553	-9.663	108.834	78.523	-10.479	-4.999	85.081	137.700	-6.747	-2.710	-0.924	2.788	98.739	0.434	-8191	255	
8531.823	1	1	0	0	0.19242	0.10112	0.17644	0.2367	0.16898	0.065735	0.26188	0.25428	0.22482	0.2282	0.025677	0.067752	0.297	0.23666	0.10477	0.013336	-2.2146	-3.1167	-2.6146	-2.7604	-3.0646	-2.7083	-3.1021	-2.7875	-2.825	-3.0458	-2.3729	-2.6792	-2.9833	-2.4167	-3.0146	-2.8063	168.924	189.191	19.948	330.893	6.344	103.845	241.278	313.325	-6.452	139.025	328.650	312.394	247.110	69.688	136.880	239.627	0.00026801	0.00012166	2.8447e-05	209.18	1.0165e-06	9.9462e-07	267.57	72.445	4.82e-07	3.8036e-07	110.77	43.166	26.506	12.45	7.7049e-07	22.898	1.048e-05	7.0939e-06	2.1824e-06	196.45	8.8925e-08	8.4291e-08	253.45	67.891	9.0752e-08	8.3299e-08	97.627	38.928	23.995	11.127	8.9561e-08	20.075	336.748	-2.688	35.459	-9.627	104.561	40.009	-10.584	-4.933	156.717	66.353	-6.921	-2.412	-0.835	2.793	79.066	0.797	-8191	255	
8531.919	1	1	0	0	0.16526	0.25058	0.10346	0.18771	0.23399	0.18606	0.16833	0.11942	0.37486	0.081204	0.12293	0.17976	0.12703	0.050954	0.22281	0.038095	-2.2062	-3.05	-2.6625	-2.6542	-2.8646	-2.5708	-3.0021	-2.6667	-2.4188	-3.2417	-2.7042	-2.6625	-3.0979	-2.325	-2.6729	-2.9333	191.062	91.424	134.777	237.363	73.775	172.968	121.711	210.202	226.343	198.203	192.410	184.080	289.625	207.871	165.622	97.032	0.00022953	7.4653e-05	1.2498e-05	208.91	3.6411e-07	3.7373e-07	269.57	72.224	2.9278e-07	5.5688e-07	111.64	43.788	26.709	12.396	7.6397e-07	23.004	1.0174e-05	7.5657e-06	2.3234e-06	197.03	9.032e-08	8.2599e-08	254.58	68.041	8.8461e-08	8.207e-08	98.356	39.204	24.17	11.131	9.4912e-08	20.196	-19.696	18.559	118.403	-9.844	124.826	7.704	-10.357	-4.989	56.419	152.134	-6.708	-2.767	-0.663	3.067	110.114	0.628	-8191	255	
8532.015	1	1	0	0	0.23865	0.15227	0.21756	0.11855	0.090818	0.27607	0.107	0.23046	0.089508	0.055662	0.27585	0.14375	0.14045	0.24291	0.19503	0.12051	-1.8833	-2.9562	-2.8375	-2.5687	-3.0521	-2.5604	-2.8854	-2.8896	-2.5208	-3.0812	-2.6854	-2.5958	-3.1146	-2.4417	-2.7458	-3.0729	-14.939	22.999	158.350	49.452	294.228	261.838	246.598	58.600	-16.547	217.892	28.778	260.285	64.130	276.498	132.267	128.423	0.00023963	3.33e-05	1.0394e-05	211.51	8.1484e-07	4.1322e-07	269.39	72.475	1.7177e-06	2.9662e-07	112.79	43.766	26.928	12.417	3.1369e-07	23.081	1.0171e-05	7.72e-06	2.4057e-06	198.64	8.4259e-08	8.1647e-08	256.01	68.169	8.7332e-08	8.124e-08	98.52	39.222	24.197	11.166	9.7832e-08	20.205	330.307	26.679	121.873	-9.555	149.155	105.133	-10.278	-5.210	84.279	72.614	-6.767	-2.910	-0.913	2.689	60.210	0.451	-8191	255	
8532.111	1	1	0	0	0.16202	0.036771	0.19478	0.080903	0.14017	0.27123	0.2294	0.12825	0.080106	0.235	0.082867	0.11343	0.030615	0.21824	0.15725	0.17768	-1.9312	-2.7687	-2.95	-2.4813	-3.1542	-2.7604	-2.6562	-3.0438	-2.6417	-3.1208	-2.8292	-2.3771	-3.075	-2.6583	-2.7146	-3.0167	63.948	336.861	145.020	312.438	107.274	158.594	166.437	171.074	18.209	27.908	298.162	166.003	219.349	175.055	142.726	164.601	0.00026208	9.5089e-05	2.1335e-05	212.42	6.0921e-07	2.8406e-07	269.18	71.743	6.1329e-07	6.5405e-07	110.29	43.704	26.311	12.372	9.788e-07	23.169	9.6335e-06	7.7356e-06	2.3633e-06	198.12	8.3034e-08	8.4649e-08	255.07	67.586	8.2174e-08	8.312e-08	97.568	39.191	23.96	11.072	9.3003e-08	20.182	327.344	34.855	89.276	-10.190	145.607	-16.151	-10.168	-4.965	63.450	108.067	-6.419	-2.655	-0.749	2.744	107.079	0.952	-8191	255	
8532.208	1	1	0	0	0.18949	0.050061	0.16923	0.077106	0.216	0.12709	0.18395	0.083948	0.072976	0.3251	0.18387	0.14237	0.092895	0.25743	0.049283	0.14399	-2.0687	-2.9396	-2.7687	-2.6458	-2.7792	-2.8688	-2.8167	-2.9875	-2.7292	-2.9958	-2.6646	-2.5104	-3.2208	-2.6042	-2.8104	-3.2375	182.190	-19.583	-18.134	141.926	12.586	284.779	22.438	102.570	147.592	245.284	307.502	5.272	82.915	308.377	49.681	-18.483	0.00023768	0.00015555	1.8391e-05	211.55	5.8081e-07	5.0971e-07	266.65	71.267	9.4371e-07	5.7522e-07	109.79	43.356	26.05	12.19	8.3982e-07	22.763	9.3274e-06	7.7727e-06	2.1812e-06	197.58	7.4708e-08	8.5284e-08	253.79	66.754	8.0964e-08	8.5953e-08	96.481	38.92	23.709	10.938	8.704e-08	20.026	-19.701	73.883	46.265	-9.645	105.989	4.934	-10.567	-4.848	106.830	86.824	-6.686	-2.385	-0.602	2.717	119.947	0.436	-8191	255	
8532.328	1	1	0	0	0.19001	0.11282	0.29469	0.23959	0.16039	0.21614	0.079116	0.19089	0.084305	0.21227	0.030747	0.23078	0.14334	0.054135	0.19637	0.25978	-1.9667	-2.8021	-3.1063	-2.4896	-2.9542	-2.8146	-2.5875	-2.9792	-2.7062	-2.7313	-3.0062	-2.5938	-2.7833	-2.7812	-2.5042	-3.1396	253.284	182.762	178.519	72.399	299.924	181.244	304.637	211.749	45.217	229.539	108.686	175.512	88.038	133.006	288.063	30.412	0.00020079	5.9138e-05	2.2633e-05	208.46	8.605e-07	5.7116e-07	265.43	70.01	1.0039e-06	7.5133e-07	108.14	42.594	26.053	12.021	6.1173e-07	22.677	8.8575e-06	8.1132e-06	2.0711e-06	195.25	7.6615e-08	8.6887e-08	251.35	65.743	8.2239e-08	8.5294e-08	95.392	38.327	23.526	10.813	8.3182e-08	19.793	-20.711	81.901	40.671	-9.862	129.174	115.243	-10.281	-4.549	104.365	129.342	-6.425	-2.352	-0.733	2.808	97.954	0.467	-8191	255	
8532.424	1	1	0	0	0.13327	0.078093	0.031889	0.043791	0.065075	0.12132	0.0737	0.068594	0.14926	0.074169	0.22887	0.23456	0.10288	0.01096	0.15897	0.23215	-2.275	-2.9021	-2.8958	-2.5021	-3.2479	-2.8458	-2.6708	-3.1146	-2.6146	-2.8563	-3.125	-2.6437	-2.9083	-2.9062	-2.5542	-3.1562	139.973	265.307	246.331	91.192	92.351	177.598	-22.309	89.938	-14.475	111.290	282.263	50.889	86.678	33.518	26.806	207.794	0.00022834	0.00015375	5.0707e-06	208.99	4.3649e-07	1.0199e-06	263.41	71.152	1.0311e-06	4.8385e-07	108.82	43.095	26.222	12.19	9.8452e-07	22.778	9.914e-06	8.0998e-06	2.0821e-06	195.66	8.3423e-08	8.8384e-08	252	66.618	8.7755e-08	8.7834e-08	96.305	38.498	23.714	10.909	8.3239e-08	19.897	326.366	29.840	125.283	-10.102	143.271	72.678	-10.509	-5.068	84.763	81.557	-6.341	-2.687	-0.781	2.627	54.095	0.724	-8191	255	
8532.496	1	1	0	0	0.21914	0.12771	0.19808	0.057058	0.17799	0.1254	0.23266	0.19932	0.17075	0.17962	0.19078	0.25849	0.067008	0.16192	0.099303	0.11637	-2.2125	-2.8271	-2.8917	-2.5083	-2.8604	-3	-2.6979	-3.1375	-2.7292	-2.7062	-3.1146	-2.4708	-2.8333	-3.0583	-2.4938	-3.1063	198.195	-8.653	167.058	27.458	41.097	136.679	144.150	312.417	277.555	213.394	117.563	286.951	-9.662	288.787	51.438	276.622	0.0002839	6.6225e-05	7.1403e-06	208.59	6.9711e-07	2.9717e-07	266.26	71.845	1.0754e-06	4.8351e-07	110.92	43.703	26.739	12.319	7.2832e-07	23.001	1.0283e-05	8.0575e-06	2.0546e-06	195.95	9.1521e-08	8.6797e-08	252.79	66.782	9.0305e-08	8.5163e-08	97.438	39.164	24.057	11.048	8.3067e-08	20.098	330.860	33.347	232.621	-10.135	118.689	67.040	-10.621	-4.748	102.003	210.217	-6.460	-1.831	-0.319	3.244	54.495	0.386	-8191	255	
8532.617	1	1	0	0	0.18848	0.16601	0.10472	0.18604	0.20665	0.13338	0.1504	0.068678	0.071421	0.10364	0.19311	0.21762	0.28307	0.31207	0.029416	0.21383	-2.4083	-2.725	-3.175	-2.5542	-2.7771	-3.0438	-2.7562	-2.8958	-2.7104	-2.7646	-3.1708	-2.7771	-2.8	-3.0479	-2.6312	-3.075	-2.530	40.657	91.913	232.769	119.777	218.913	93.703	-1.531	275.739	7.163	-11.063	38.631	242.420	254.254	274.767	285.624	0.00020669	0.00010073	1.753e-05	210.57	9.3648e-07	1.0479e-06	267.71	72.246	1.4385e-06	6.2006e-07	112.4	43.686	26.637	12.259	9.5084e-07	23.082	1.0654e-05	8.2281e-06	2.0496e-06	197.41	9.0117e-08	8.4665e-08	254.6	67.542	8.998e-08	8.5847e-08	97.953	39.274	24.099	11.044	8.5515e-08	20.197	327.534	13.018	44.850	-9.908	137.457	71.455	-10.239	-5.173	102.570	113.339	-6.853	-2.413	-0.809	2.564	131.370	0.476	-8191	255	
8532.711	1	1	0	0	0.16769	0.21374	0.070467	0.065049	0.070276	0.15222	0.25906	0.042868	0.19374	0.20522	0.24208	0.12782	0.12632	0.13957	0.089429	0.19952	-2.4729	-2.5354	-2.9854	-2.7042	-2.8583	-3.0104	-2.5271	-2.8937	-2.9896	-2.5583	-2.9958	-2.8771	-2.7812	-2.9292	-2.4708	-3.0104	265.258	121.409	-6.821	-20.979	268.348	109.763	291.092	282.916	221.292	217.813	7.340	73.986	67.020	295.838	-5.586	231.092	0.0002467	9.0772e-05	1.465e-05	211.04	1.0946e-06	6.042e-07	268.83	72.403	4.7057e-07	6.4983e-07	111.85	43.79	26.788	12.301	1.1702e-06	23.025	1.0671e-05	8.0405e-06	1.9859e-06	198.3	9.0888e-08	8.3518e-08	255.21	67.81	9.3253e-08	8.3185e-08	98.138	39.37	24.114	11.038	8.3328e-08	20.171	334.928	-1.960	62.252	-9.699	124.902	134.506	-10.075	-4.955	96.453	113.629	-6.705	-2.415	-0.475	2.915	111.181	0.803	-8191	255	
8532.807	1	1	0	0	0.15055	0.058393	0.061372	0.17023	0.081166	0.081808	0.17398	0.18619	0.06899	0.038479	0.30495	0.18784	0.031382	0.097063	0.19625	0.10892	-2.625	-2.5375	-2.8458	-2.7313	-2.8333	-3.0271	-2.4792	-3.0062	-2.8708	-2.7729	-3.1479	-2.7521	-2.675	-3.075	-2.4708	-2.7833	140.332	315.727	195.128	191.128	289.950	251.613	312.270	265.262	85.921	119.414	296.095	254.057	81.934	283.476	61.758	76.422	0.00023289	2.78e-05	1.9431e-05	209.61	5.0537e-07	2.3318e-07	267.04	72.635	1.4248e-06	8.8957e-07	110.67	43.397	26.591	12.336	1.6328e-06	22.841	1.0244e-05	7.5056e-06	2.0531e-06	197.17	9.1748e-08	7.8677e-08	254.16	67.549	8.946e-08	8.5701e-08	97.503	39.154	24.113	11.034	8.9398e-08	20.02	319.975	15.691	9.213	-9.428	60.543	113.425	-10.266	-4.978	142.386	79.995	-6.171	-2.206	-1.162	3.101	106.928	0.721	-8191	255	
8532.928	1	1	0	0	0.019623	0.42307	0.22506	0.03505	0.21042	0.16892	0.20066	0.13889	0.27732	0.34221	0.096521	0.023541	0.18817	0.25539	0.14712	0.20619	-2.5687	-2.4125	-3.0604	-2.6937	-2.6521	-3.1542	-2.6063	-2.5812	-2.9146	-2.4313	-2.8688	-2.8896	-2.7125	-3.0687	-2.5479	-2.5271	186.667	65.540	65.036	89.733	67.881	204.994	327.372	243.858	100.946	184.738	48.228	307.946	16.594	138.184	72.113	322.390	0.00027324	4.8102e-05	1.5956e-05	210.78	6.1062e-07	1.0294e-06	268.61	72.837	1.8346e-06	7.1265e-07	110.74	43.637	26.945	12.293	9.3817e-07	22.762	1.0017e-05	7.6926e-06	2.2189e-06	198.51	8.5687e-08	8.2509e-08	255.28	67.949	8.6942e-08	8.3625e-08	97.97	39.149	24.168	11.052	9.4455e-08	20.013	331.245	334.008	20.052	-9.555	139.842	75.089	-10.121	-4.666	101.255	142.464	-6.429	-2.798	-0.449	2.895	126.580	0.639	-8191	255	
8533.024	1	1	0	0	0.24638	0.17211	0.15504	0.25149	0.11471	0.32902	0.23984	0.10363	0.3139	0.14559	0.10165	0.1515	0.11972	0.20376	0.17116	0.13452	-2.7687	-2.6604	-2.7896	-2.6937	-2.6667	-3.0625	-2.5938	-2.5438	-2.9729	-2.5792	-2.9458	-2.7812	-2.4062	-2.9854	-2.6542	-2.7	250.117	245.630	322.555	16.094	57.465	138.400	162.757	210.481	68.831	82.565	166.184	-9.565	256.283	94.472	142.609	222.050	0.00025163	4.4658e-05	2.5665e-05	211.88	6.3644e-07	3.5062e-07	269.55	72.704	1.5402e-06	7.6131e-07	111.69	44.038	26.783	12.372	5.4065e-07	23.139	9.8743e-06	7.5516e-06	2.2797e-06	198.91	8.9095e-08	8.0475e-08	256.97	68.132	8.9468e-08	8.2493e-08	98.132	39.41	24.214	11.118	9.7979e-08	20.172	330.136	42.230	53.473	-10.218	134.235	115.791	-10.604	-5.105	131.910	159.557	-6.487	-2.494	-0.667	2.960	73.360	0.919	-8191	255	
8533.096	1	1	0	0	0.14311	0.1239	0.21737	0.12708	0.039064	0.2668	0.17748	0.32884	0.21012	0.039612	0.21534	0.27498	0.031917	0.14281	0.16284	0.12654	-2.6667	-2.5708	-2.6188	-3.0687	-2.725	-2.9896	-2.9375	-2.6021	-2.8646	-2.5938	-2.6875	-2.8229	-2.6396	-3.0146	-2.6208	-2.4604	75.025	205.755	169.419	194.502	-13.148	90.368	328.611	187.778	286.534	284.307	108.705	37.908	2.110	281.029	57.194	283.233	0.00027589	6.8427e-05	2.18e-05	212.38	1.206e-06	7.8058e-07	271.65	73.042	6.9151e-07	8.0742e-07	112.03	44.15	26.834	12.474	8.382e-07	23.111	9.7525e-06	7.7875e-06	2.4537e-06	199.83	8.3845e-08	8.3315e-08	258.12	68.267	8.5651e-08	8.6637e-08	98.773	39.532	24.293	11.181	9.8004e-08	20.344	328.911	29.450	67.492	-9.880	128.799	81.097	-10.471	-4.826	149.246	118.520	-6.484	-2.388	-0.984	3.003	102.592	0.900	-8191	255	
8533.216	1	1	0	0	0.075384	0.17389	0.14896	0.033008	0.20472	0.13587	0.077427	0.14823	0.098409	0.12773	0.017905	0.31048	0.006452	0.12297	0.053158	0.18765	-2.6875	-2.3563	-2.7583	-3.0042	-2.4771	-2.7792	-2.8604	-2.55	-2.9542	-2.6521	-2.7333	-2.8271	-2.5	-2.8979	-2.675	-2.6188	278.951	325.225	250.038	93.716	-22.697	57.541	269.826	254.671	104.256	14.514	206.841	65.689	50.379	80.264	52.703	329.236	0.00023616	2.6096e-05	1.69e-05	211.05	7.6605e-07	1.9464e-07	269.64	73.162	1.6214e-06	5.2848e-07	112.59	44.191	26.552	12.448	6.6178e-07	23.293	9.5998e-06	8.3372e-06	2.3802e-06	199.42	8.1979e-08	8.6903e-08	257.15	68.392	8.2775e-08	9.0846e-08	98.766	39.734	24.228	11.167	9.2318e-08	20.342	335.833	216.607	21.582	-9.900	113.032	72.472	-10.201	-5.192	105.045	112.017	-6.361	-2.513	-1.144	2.969	64.726	0.623	-8191	255	
8533.312	1	1	0	0	0.12956	0.13345	0.10791	0.23447	0.068668	0.11502	0.029929	0.15161	0.19427	0.28416	0.19969	0.21726	0.13827	0.11984	0.35471	0.43029	-2.6375	-2.7042	-2.6083	-2.8896	-2.6458	-2.7146	-3.0646	-2.5854	-2.8979	-2.7375	-2.5167	-2.8292	-2.5833	-2.9938	-2.8917	-2.6833	85.757	320.442	123.959	51.540	235.234	281.827	205.672	117.064	30.080	167.259	309.572	61.575	109.147	104.031	276.993	46.332	0.00020325	6.9951e-05	4.7356e-06	211.27	7.9129e-07	1.0676e-06	269.86	72.442	1.7855e-06	7.6733e-07	111.77	43.65	26.669	12.362	5.4343e-07	22.799	9.6923e-06	8.3572e-06	2.3569e-06	198.48	8.1476e-08	9.3395e-08	256.02	67.883	8.3368e-08	9.1017e-08	98.025	39.327	24.07	11.083	9.3403e-08	20.054	-20.958	315.764	7.550	-9.961	79.039	96.119	-10.643	-4.887	81.686	89.195	-6.491	-2.807	-0.907	3.095	80.748	0.496	-8191	255	
8533.409	1	1	0	0	0.14995	0.2057	0.11479	0.12662	0.20813	0.25792	0.10791	0.2652	0.11471	0.18953	0.070612	0.15975	0.084246	0.11196	0.034642	0.17673	-2.6354	-2.7625	-2.6854	-3.0542	-2.6604	-2.7604	-2.9833	-2.3875	-3.0729	-3.0104	-2.6021	-3.1979	-2.5187	-2.9125	-3.1354	-2.55	97.575	93.291	-19.051	307.304	105.966	3.865	41.007	291.992	72.761	68.581	138.054	75.829	40.940	210.858	313.829	298.471	0.00023675	4.7645e-05	2.5625e-05	210.01	8.3836e-07	7.6805e-07	268.86	72.541	6.8549e-07	2.745e-07	110.65	43.591	26.66	12.304	1.12e-06	22.917	9.8993e-06	8.6628e-06	2.1793e-06	198.05	8.4113e-08	9.1695e-08	255.21	67.794	8.8794e-08	9.1212e-08	97.599	39.083	24.1	11.077	8.5515e-08	20.08	328.821	33.448	82.483	-9.838	147.647	114.842	-10.618	-5.091	36.821	109.771	-6.342	-2.259	-0.649	2.661	90.042	0.675	-8191	255	
8533.505	1	1	0	0	0.16911	0.23	0.13965	0.05939	0.35971	0.035018	0.027147	0.19871	0.22248	0.061394	0.12786	0.14957	0.14769	0.070955	0.085197	0.10666	-2.5729	-2.8333	-2.8333	-3.2292	-2.7458	-3.0438	-3.0146	-2.6979	-3.0938	-2.8854	-2.5333	-2.9833	-2.7979	-2.6021	-2.9958	-2.6354	-3.353	57.456	246.776	134.693	224.093	-12.332	19.980	278.514	190.505	166.053	-20.855	133.300	225.714	179.699	55.803	298.893	0.00022965	0.00012332	3.3575e-05	211.39	1.1458e-06	2.2858e-07	270.91	72.661	1.9922e-06	6.496e-07	111.61	43.863	26.856	12.473	3.0931e-07	23.249	1.0082e-05	8.4781e-06	2.1268e-06	198.78	9.4256e-08	9.0174e-08	257.07	68.192	9.3895e-08	9.1994e-08	98.477	39.397	24.229	11.166	8.6542e-08	20.294	-22.519	38.578	99.535	-9.523	148.765	47.576	-10.292	-5.147	70.744	59.308	-6.729	-2.852	-0.651	2.813	323.454	0.543	-8191	255	
8533.624	1	1	0	0	0.079203	0.24948	0.27309	0.23903	0.18705	0.21631	0.3135	0.16861	0.27341	0.31055	0.1194	0.1586	0.16928	0.1204	0.14687	0.0796	-2.4542	-2.7313	-2.4208	-3.0417	-2.7771	-2.5563	-3.0083	-2.5312	-2.8458	-2.9646	-2.4333	-3.0792	-2.8708	-2.5667	-3.3771	-2.5854	123.780	31.042	155.080	324.613	24.703	223.099	54.413	-4.653	227.695	36.828	92.879	57.157	270.326	225.713	205.327	166.608	0.00022008	9.4356e-05	9.6263e-06	212.97	1.4305e-06	8.1617e-07	271.88	72.815	7.7701e-07	1.4397e-07	113.44	44.235	26.991	12.463	1.291e-06	23.289	1.0545e-05	8.0078e-06	2.1944e-06	199.9	9.8475e-08	8.8986e-08	257.85	68.372	9.4813e-08	8.9926e-08	98.906	39.604	24.375	11.202	8.4544e-08	20.358	-21.005	49.861	50.426	-9.937	127.550	111.990	-10.216	-4.681	56.008	64.223	-6.776	-2.574	-0.733	2.961	86.677	0.565	-8191	255	
8533.720	1	1	0	0	0.18426	0.099692	0.18425	0.10592	0.19733	0.22521	0.22284	0.29275	0.15046	0.059522	0.20401	0.25774	0.28622	0.21699	0.30278	0.079328	-2.2042	-3.1833	-2.5458	-2.8729	-2.9667	-2.5917	-3.2021	-2.5771	-2.9625	-2.8979	-2.6708	-3.1271	-2.725	-2.4271	-3.0708	-2.6688	268.591	22.644	93.032	262.720	103.965	287.697	-2.596	225.067	142.144	19.317	25.958	-11.757	24.718	10.224	110.856	38.958	0.00021528	8.2621e-05	1.8967e-05	211.51	8.3031e-07	4.3712e-07	272.04	73.548	1.4874e-06	4.7139e-07	113.33	44.279	27.114	12.604	2.6533e-07	23.407	1.1031e-05	8.1413e-06	2.1524e-06	199.89	9.6284e-08	8.8172e-08	259.16	68.723	9.915e-08	8.995e-08	99.337	39.825	24.495	11.296	8.6763e-08	20.509	326.808	21.687	39.942	-9.377	114.877	179.652	-10.551	-4.533	121.685	169.933	-6.714	-2.540	-0.723	2.850	190.201	0.500	-8191	255	
8533.791	1	1	0	0	0.29793	0.2277	0.15097	0.20897	0.099623	0.25298	0.065248	0.14285	0.053044	0.31	0.064595	0.34483	0.18129	0.26885	0.21615	0.41888	-2.3625	-3.0187	-2.4417	-3.0333	-2.9375	-2.4604	-3.1667	-2.7833	-2.6646	-3.0917	-2.3333	-2.9354	-2.975	-2.3812	-3.0563	-2.6708	64.916	258.761	185.811	230.945	171.498	69.202	336.609	290.672	161.655	101.538	206.473	235.192	313.825	73.373	131.647	-16.040	0.00026711	0.00013819	1.3665e-05	212.68	1.0853e-06	4.8776e-07	272.19	73.57	1.5023e-06	1.6013e-06	113.43	43.952	27.13	12.557	7.3747e-07	23.331	1.1105e-05	8.0538e-06	2.1804e-06	200.7	9.4913e-08	9.2313e-08	259.4	69.05	9.7331e-08	8.5807e-08	99.501	39.671	24.533	11.235	8.7032e-08	20.352	327.050	57.505	60.354	-9.748	144.280	56.092	-10.312	-4.937	117.083	129.120	-6.799	-2.536	-0.588	2.925	74.218	0.278	-8191	255	
8533.889	1	1	0	0	0.10547	0.14494	0.086743	0.36407	0.16923	0.15859	0.14565	0.18051	0.12205	0.094963	0.10728	0.035765	0.34722	0.092722	0.25681	0.18779	-2.2354	-2.9562	-2.5604	-2.9375	-2.8187	-2.4938	-2.9854	-2.9771	-2.5312	-3.0812	-2.5771	-2.6875	-2.8479	-2.5479	-2.9437	-2.75	258.769	279.280	-5.728	301.267	254.716	123.846	165.888	328.154	140.208	97.684	194.533	0.566	300.956	22.315	214.230	208.480	0.00026707	6.2553e-05	1.9302e-05	215.37	1.1363e-06	7.0372e-07	274.15	73.752	8.5406e-07	7.9228e-07	113.1	44.101	27.021	12.588	7.0457e-07	23.06	1.0705e-05	7.8928e-06	2.2367e-06	201.44	8.9225e-08	8.5821e-08	260.44	69.016	9.4837e-08	8.4805e-08	99.464	39.648	24.553	11.275	9.2383e-08	20.281	332.078	101.854	166.137	-9.662	187.675	94.899	-10.352	-4.761	69.867	120.716	-6.386	-2.524	-0.516	3.163	92.679	0.528	-8191	255	
8534.008	1	1	0	0	0.019196	0.076336	0.069166	0.16822	0.1671	0.066529	0.2202	0.25127	0.12791	0.11729	0.12343	0.033346	0.041632	0.31614	0.16859	0.34886	-2.2479	-3.0417	-2.5333	-3.0021	-3.0812	-2.7562	-2.8458	-2.8771	-2.5458	-3.0333	-2.7292	-2.7938	-3.1583	-2.5104	-2.9188	-2.9104	45.925	276.858	102.997	174.555	183.519	301.938	192.239	210.808	32.596	68.140	-22.888	210.623	39.576	259.990	160.732	292.255	0.00028334	6.5868e-05	1.7078e-05	216.34	6.7498e-07	5.9931e-07	275.19	74.669	8.3151e-07	2.9186e-07	114.05	44.528	27.318	12.633	6.6542e-07	23.212	1.0676e-05	7.4114e-06	2.3519e-06	203.03	9.3745e-08	8.709e-08	261.69	69.781	9.0809e-08	8.5416e-08	99.946	39.818	24.608	11.295	9.7408e-08	20.376	327.077	13.521	156.863	-9.671	103.588	89.820	-10.329	-4.907	99.792	210.607	-6.645	-2.535	-0.648	2.990	119.394	0.870	-8191	255	
8534.104	1	1	0	0	0.035298	0.30311	0.081118	0.10909	0.29635	0.061544	0.29181	0.1195	0.057024	0.20442	0.10743	0.018321	0.074041	0.23426	0.2667	0.037446	-1.9854	-2.7729	-2.7354	-2.7604	-3.0417	-2.3104	-2.9458	-2.9958	-2.5292	-3	-2.8146	-2.6458	-2.9792	-2.6292	-2.6896	-3.0958	318.990	8.154	285.361	69.733	323.201	143.082	247.767	67.135	279.255	250.036	209.506	177.349	117.431	-10.548	133.886	-0.101	0.00026392	0.0001047	1.9118e-05	215.54	6.6679e-07	5.5397e-07	275.65	74.569	1.1226e-06	3.7187e-07	114.84	44.821	27.438	12.751	6.8403e-07	23.515	1.0321e-05	7.5167e-06	2.4864e-06	202.45	8.6434e-08	8.6366e-08	262.25	70.108	8.9298e-08	8.5855e-08	100.97	40.199	24.764	11.4	9.8876e-08	20.643	334.534	20.850	61.075	-9.944	150.412	110.777	-10.559	-4.949	127.496	124.045	-6.966	-2.029	-0.731	2.822	160.509	0.735	-8191	255	
8534.200	1	1	0	0	0.17494	0.15049	0.18684	0.092986	0.091235	0.19337	0.19351	0.22271	0.14312	0.036605	0.10066	0.055031	0.08334	0.11328	0.11013	0.032402	-1.9792	-3.0125	-2.6167	-2.6479	-2.9458	-2.7271	-2.9104	-2.8542	-2.6021	-2.9521	-2.9208	-2.65	-3.1562	-2.6208	-2.7583	-2.9083	273.667	154.764	-17.248	136.987	-20.198	265.370	161.261	168.396	108.692	184.995	211.458	336.199	35.815	35.209	196.875	232.325	0.00021772	6.9335e-05	2.5385e-05	215.05	5.1973e-07	1.3576e-06	275.85	74.648	7.6987e-07	9.4602e-07	114.44	44.431	26.997	12.635	1.2041e-06	23.647	1.0198e-05	8.0805e-06	2.5089e-06	202.59	8.4746e-08	8.9734e-08	262.08	69.692	8.6853e-08	8.8737e-08	100.73	40.036	24.576	11.399	9.8395e-08	20.662	327.685	16.495	37.812	-9.665	102.016	93.705	-10.413	-4.975	122.706	148.519	-6.487	-2.525	-1.045	2.871	80.714	0.454	-8191	255	
8534.297	1	1	0	0	0.1971	0.20338	0.032863	0.094723	0.14759	0.12669	0.052451	0.23487	0.075717	0.060318	0.11967	0.1561	0.19084	0.17693	0.10131	0.14464	-2.1	-2.7583	-3.0062	-2.3771	-2.9792	-2.7604	-2.6271	-2.925	-2.5646	-2.7938	-2.9333	-2.5187	-3.175	-2.7687	-2.5	-3.0583	59.081	330.769	-16.683	1.311	-8.904	71.843	45.899	146.960	245.020	125.387	84.426	308.362	50.244	32.192	240.270	273.816	0.00025489	0.0001205	1.5126e-05	215.77	6.7443e-07	5.5813e-07	274.62	74.149	1.3498e-06	3.6204e-07	114.21	44.56	27.189	12.57	7.8769e-07	23.092	1.0142e-05	8.4766e-06	2.4752e-06	201.57	8.0324e-08	9.294e-08	260.32	69.373	8.734e-08	9.3988e-08	100.07	39.882	24.465	11.297	9.3754e-08	20.307	336.240	48.095	85.719	-9.749	113.069	39.821	-10.012	-4.696	104.701	44.524	-6.874	-2.250	-0.412	2.545	74.850	0.712	-8191	255	
8534.393	1	1	0	0	0.11019	0.065479	0.099147	0.22625	0.21473	0.17491	0.22327	0.060146	0.2132	0.15583	0.095074	0.015139	0.03789	0.055993	0.11298	0.11278	-2.1354	-2.8292	-3.0417	-2.6208	-2.9562	-2.7542	-2.6021	-2.9417	-2.5563	-2.8708	-2.9	-2.55	-3.1188	-2.8	-2.7542	-3.0917	248.699	177.609	307.897	333.132	261.968	109.553	298.058	141.139	253.789	104.946	328.009	118.580	169.408	15.358	175.841	28.569	0.00028251	9.2301e-05	1.3211e-05	212.66	1.3768e-06	5.7564e-07	272.13	73.391	8.2545e-07	6.7193e-07	112.45	43.768	26.965	12.561	4.6827e-07	23.065	9.8354e-06	8.8691e-06	2.3209e-06	200.47	8.4527e-08	1.0005e-07	259.06	69.092	8.9566e-08	9.7163e-08	99.46	39.485	24.425	11.263	9.1992e-08	20.149	326.966	31.990	44.394	-9.498	113.748	73.345	-10.259	-4.415	109.049	150.432	-6.568	-2.418	-0.813	3.136	89.287	0.539	-8191	255	
8534.489	1	1	0	0	0.31158	0.19891	0.17078	0.082086	0.12337	0.10404	0.14235	0.22223	0.14168	0.087613	0.27022	0.082852	0.18481	0.18963	0.2496	0.090162	-1.9792	-2.8979	-2.9875	-2.4646	-2.9625	-2.6333	-2.8271	-3.1333	-2.6333	-2.7458	-2.8187	-2.475	-2.6646	-2.8583	-2.5625	-3.0292	5.371	183.058	196.725	334.488	-15.510	-16.890	183.765	24.405	157.731	140.768	315.963	195.002	-3.146	180.921	196.638	213.340	0.00022488	7.0657e-05	1.5161e-05	213.31	6.7872e-07	1.1092e-07	273.3	74.588	1.4232e-06	1.6287e-06	113.04	44.314	27.308	12.629	4.148e-07	23.179	1.0404e-05	8.9106e-06	2.3391e-06	201.1	9.4467e-08	1.0225e-07	259.89	69.667	9.8029e-08	9.8018e-08	99.872	39.835	24.62	11.298	9.3158e-08	20.338	330.332	78.738	41.144	-9.584	160.121	192.609	-10.211	-4.985	103.547	158.827	-6.602	-2.349	-0.595	2.592	65.677	0.529	-8191	255	
8534.610	1	1	0	0	0.11181	0.12543	0.14205	0.11679	0.17278	0.1179	0.33165	0.15749	0.062564	0.15136	0.20322	0.1084	0.16047	0.24335	0.089295	0.018234	-2.175	-2.8771	-3.0938	-2.4	-3.0542	-2.6375	-2.7375	-3.05	-2.8167	-2.5896	-3.0021	-2.5125	-2.9625	-2.9813	-2.5812	-3.2292	137.788	138.213	67.251	304.029	98.775	59.207	170.182	324.982	204.755	66.810	306.038	52.363	34.219	213.214	108.962	234.968	0.00025032	9.6256e-05	6.6857e-06	214.76	7.4183e-07	5.2159e-07	273.58	74.084	1.0905e-06	8.4747e-07	113.78	44.347	27.105	12.562	9.0357e-07	23.437	1.1072e-05	9.3156e-06	2.2944e-06	201.27	9.7412e-08	9.6259e-08	259.75	69.444	9.7388e-08	9.6854e-08	100.06	39.718	24.518	11.267	8.8255e-08	20.41	322.280	54.450	17.122	-9.909	116.428	90.667	-10.678	-4.289	181.051	103.379	-6.340	-2.328	-0.607	2.778	65.767	0.524	-8191	255	
8534.706	1	1	0	0	0.052487	0.044034	0.20364	0.12831	0.025721	0.24073	0.15689	0.22695	0.15864	0.14126	0.13233	0.2757	0.17196	0.10693	0.016113	0.15332	-2.1667	-2.6583	-2.9417	-2.7458	-2.8167	-2.9021	-2.7021	-3.0208	-2.8271	-2.7333	-3.0563	-2.675	-2.6625	-3.0479	-2.2625	-2.9958	226.320	135.943	214.406	119.327	61.193	28.607	290.977	43.544	130.521	179.684	227.987	91.763	286.244	199.313	-3.350	288.134	0.00025367	8.3717e-05	2.0848e-05	213.75	7.693e-07	8.729e-07	274.26	73.955	1.4536e-06	6.0147e-07	113.13	44.456	27.226	12.625	1.2695e-06	23.315	1.1244e-05	8.1124e-06	2.1959e-06	200.59	9.88e-08	9.0922e-08	260	69.109	9.8216e-08	8.8835e-08	99.503	39.934	24.51	11.298	8.6298e-08	20.45	335.238	17.335	50.797	-9.840	198.716	86.344	-10.400	-5.006	123.279	140.286	-6.764	-2.502	-0.884	3.077	77.918	0.711	-8191	255	
8534.800	1	1	0	0	0.033057	0.29234	0.28831	0.197	0.19999	0.036151	0.22465	0.26135	0.21421	0.26641	0.14686	0.17928	0.10716	0.2307	0.2681	0.080633	-2.4125	-2.5875	-3.0646	-2.6542	-2.9229	-2.9188	-2.5146	-2.8563	-2.8854	-2.6063	-3.1312	-2.7667	-2.5792	-3.1458	-2.5417	-3.0125	68.344	292.882	261.482	-22.108	34.648	87.214	20.969	87.592	327.677	176.126	25.936	272.607	317.614	249.833	21.600	136.422	0.00024981	4.5932e-05	1.9587e-05	214.42	5.14e-07	8.8769e-07	274.78	73.291	8.5499e-07	6.8353e-07	112.99	43.915	26.595	12.451	7.0803e-07	22.995	1.0767e-05	8.1161e-06	2.0492e-06	201.08	9.4808e-08	8.5007e-08	259.29	68.859	9.6535e-08	8.7728e-08	99.067	39.524	24.245	11.158	8.5947e-08	20.138	320.932	131.860	85.293	-9.673	99.830	34.382	-10.223	-4.738	59.111	160.091	-6.927	-2.588	-0.250	3.045	126.451	0.675	-8191	255	
8534.896	1	1	0	0	0.11099	0.121	0.22665	0.2242	0.27932	0.16248	0.33233	0.091872	0.26905	0.10555	0.041537	0.20361	0.098077	0.059074	0.22395	0.31878	-2.4208	-2.5979	-3.1854	-2.6042	-2.6271	-3.0854	-2.2938	-3.1208	-2.9292	-2.8271	-2.95	-2.7729	-2.5875	-3.2229	-2.5229	-2.8229	9.213	75.285	33.209	255.539	156.264	276.650	331.200	261.915	126.736	187.216	266.414	244.647	293.612	-19.265	279.948	284.694	0.00026976	8.4371e-05	2.904e-05	212.65	7.2851e-07	1.0445e-06	269.55	72.808	1.3767e-06	6.0445e-07	111.47	43.591	26.403	12.441	4.3052e-07	22.959	1.0508e-05	8.0249e-06	2.0091e-06	199.76	9.0499e-08	8.1834e-08	256.97	68.065	9.0727e-08	8.3389e-08	97.892	39.119	24.09	11.069	8.4992e-08	20.069	334.850	38.466	60.326	-9.945	114.710	76.545	-10.473	-4.956	54.536	98.944	-6.736	-2.721	-0.780	2.821	1.293	0.814	-8191	255	
8535.017	1	1	0	0	0.20197	0.215	0.28649	0.21233	0.16643	0.14711	0.13581	0.16124	0.33396	0.13662	0.20554	0.20812	0.13053	0.37922	0.26802	0.12241	-2.5958	-2.4562	-3.2708	-2.8292	-2.5604	-3.1271	-2.6542	-2.9271	-2.9417	-2.625	-2.9854	-2.9667	-2.5792	-2.9958	-2.4958	-2.7021	208.964	24.306	264.068	222.756	293.645	163.808	92.785	156.188	326.929	167.327	75.121	207.172	43.241	307.468	264.765	311.482	0.00023186	6.7247e-05	2.2784e-05	210.09	4.0057e-07	9.2575e-07	269.61	72.278	1.3715e-06	6.1077e-07	111.34	43.393	26.349	12.19	6.1465e-07	22.849	9.8817e-06	7.6562e-06	2.044e-06	198.52	8.4843e-08	7.6838e-08	255.42	67.633	8.5805e-08	7.791e-08	97.608	39.117	23.947	10.981	8.5547e-08	20.059	333.916	-9.666	82.159	-9.895	167.877	60.290	-10.372	-4.718	81.863	99.225	-6.805	-2.621	-0.807	2.627	88.395	0.419	-8191	255	
8535.089	1	1	0	0	0.067454	0.23669	0.098832	0.13369	0.083661	0.15313	0.17187	0.10602	0.10075	0.21648	0.17942	0.043381	0.090874	0.21199	0.23993	0.26485	-2.4896	-2.5146	-2.8896	-2.8396	-2.4688	-3.0125	-2.7833	-2.6125	-3.0125	-2.5687	-2.8563	-2.775	-2.4437	-3.0729	-2.7542	-2.7417	276.855	64.354	32.873	336.757	-16.801	282.510	10.520	166.086	-8.365	163.558	326.333	333.447	306.527	247.151	107.862	161.460	0.00026739	0.00011993	1.6061e-05	211.9	3.5418e-07	2.548e-07	269.31	72.181	1.4102e-06	7.6899e-07	111.25	43.994	26.488	12.275	7.3066e-07	22.909	9.6548e-06	7.3402e-06	2.1518e-06	197.84	8.5225e-08	7.05e-08	255.33	67.564	8.2629e-08	7.5899e-08	97.593	39.268	23.931	10.979	8.9838e-08	20.15	328.539	-14.714	107.432	-9.787	231.097	103.842	-10.233	-5.009	63.011	100.234	-6.545	-2.802	-0.841	3.077	134.060	0.481	-8191	255	
8535.185	1	1	0	0	0.077166	0.074406	0.18348	0.2055	0.11512	0.21787	0.14556	0.099786	0.083469	0.21536	0.18708	0.13984	0.095755	0.402	0.1954	0.0624	-2.6542	-2.3104	-2.9437	-2.9729	-2.4313	-3.0938	-2.8875	-2.8396	-3.1167	-2.5708	-2.9146	-2.9375	-2.4292	-2.9979	-2.6333	-2.7479	190.022	148.869	170.025	54.238	234.258	159.782	105.655	108.286	198.039	119.603	303.915	200.057	310.311	257.375	60.800	25.363	0.00023648	6.4245e-05	2.4982e-05	208.94	5.686e-07	2.9951e-07	267.67	72.323	1.1689e-06	5.0478e-07	112.22	43.848	26.389	12.269	8.9292e-07	23.156	9.345e-06	7.0012e-06	2.1582e-06	196.24	8.0283e-08	7.5724e-08	253.6	67.404	7.8722e-08	7.5028e-08	98.055	39.306	23.878	10.987	9.0213e-08	20.222	327.092	24.927	58.042	-9.596	88.670	81.862	-10.820	-4.824	88.284	148.506	-6.979	-2.388	-0.824	2.659	97.333	0.308	-8191	255	
8535.281	1	1	0	0	0.22234	0.048777	0.25328	0.21826	0.079844	0.22038	0.20198	0.10674	0.1271	0.026937	0.24727	0.274	0.13509	0.11494	0.038225	0.16559	-2.5375	-2.6	-2.6813	-2.9104	-2.5667	-3.0438	-2.8375	-2.6	-3.3333	-2.5687	-2.9729	-3.2875	-2.6937	-2.8875	-3.1146	-2.5708	268.105	268.167	4.697	306.371	83.998	247.899	146.277	202.438	208.435	191.667	239.523	231.394	298.993	45.668	176.678	256.688	0.00021405	5.2511e-06	1.8134e-05	209.02	2.2159e-07	3.5364e-07	265.22	71.596	4.543e-07	7.8192e-07	110.38	43.543	26.294	12.125	8.6073e-07	22.795	9.0939e-06	7.2742e-06	2.1965e-06	195.78	7.7646e-08	7.7042e-08	252.44	66.912	7.4856e-08	8.1826e-08	97.045	39.005	23.78	10.875	8.4544e-08	19.951	328.785	27.262	61.820	-9.889	82.263	200.893	-10.344	-4.905	12.138	105.825	-6.598	-2.679	-0.645	2.814	159.108	0.624	-8191	255	
8535.401	1	1	0	0	0.40951	0.040859	0.21973	0.12271	0.28265	0.026125	0.14815	0.25168	0.027054	0.077899	0.17022	0.093872	0.19665	0.11902	0.19299	0.18979	-2.6063	-2.7521	-2.7625	-3.1542	-2.4562	-3.0667	-3.0917	-2.6604	-3.1542	-2.7021	-2.6458	-3.0333	-2.6333	-2.7042	-2.9125	-2.475	-8.247	265.753	225.903	192.230	55.505	213.351	263.776	317.854	296.522	263.314	266.551	173.343	251.787	-4.272	38.135	287.856	0.00023328	6.0312e-05	2.1135e-05	206.39	9.0938e-07	8.0298e-07	264.63	71.08	1.2492e-06	5.6329e-07	109.9	43.595	26.44	12.15	5.114e-07	22.652	8.6586e-06	7.72e-06	2.1512e-06	194.32	7.6591e-08	8.2558e-08	251.2	66.296	7.6245e-08	8.2485e-08	96.537	38.864	23.712	10.857	8.5604e-08	19.838	332.390	58.889	50.317	-9.772	87.868	93.151	-10.788	-5.132	145.303	117.286	-7.170	-2.691	-0.526	2.770	116.494	0.717	-8191	255	
8535.498	1	1	0	0	0.075286	0.16366	0.20094	0.12254	0.071284	0.11874	0.066563	0.23343	0.20794	0.22175	0.18169	0.15578	0.24024	0.18473	0.15106	0.18623	-2.6396	-2.8271	-2.5833	-3.1688	-2.4562	-2.9646	-2.9437	-2.3292	-2.8563	-2.8167	-2.8563	-3.0583	-2.6208	-2.7146	-2.875	-2.8896	70.976	159.880	182.166	71.260	143.809	250.045	305.063	216.481	239.257	89.162	271.716	211.903	155.202	329.165	124.070	302.566	0.00023142	8.9623e-05	1.0318e-05	207.43	5.6533e-07	7.1545e-07	266.74	71.155	4.1943e-07	4.8529e-07	110.63	43.243	26.411	12.107	1.2835e-06	22.789	9.0726e-06	7.6985e-06	2.0953e-06	195.07	8.2904e-08	8.6976e-08	252.55	66.731	8.0972e-08	8.9039e-08	97.109	38.962	23.855	10.923	8.3361e-08	20.009	331.095	20.296	51.220	-9.381	101.293	57.196	-10.098	-4.553	111.445	131.040	-6.531	-2.513	-1.423	3.096	96.814	0.595	-8191	255	
8535.592	1	1	0	0	0.32916	0.24055	0.14276	0.056033	0.15649	0.17553	0.11884	0.3126	0.13306	0.06392	0.27487	0.22591	0.23394	0.048126	0.22713	0.073849	-2.5062	-2.8063	-2.6625	-3.0583	-2.6521	-2.7562	-3.0917	-2.4396	-2.7667	-2.9688	-2.55	-3.0125	-2.5792	-3.0062	-2.9458	-2.6771	142.252	330.684	-17.984	243.134	215.830	93.684	283.190	43.472	212.283	237.933	64.235	254.578	316.438	336.475	75.381	213.763	0.00029165	0.00011119	3.5526e-05	209.31	7.855e-07	6.3301e-07	266.63	71.811	8.766e-07	1.0323e-06	111.31	43.841	26.761	12.302	5.0143e-07	22.925	9.7062e-06	8.1666e-06	2.0707e-06	197.06	8.5103e-08	8.792e-08	254.42	67.319	8.8104e-08	8.9063e-08	97.979	39.289	24.207	11.018	8.2562e-08	20.11	333.636	42.936	73.003	-9.441	127.807	20.416	-10.169	-4.582	78.871	72.672	-6.648	-2.305	-0.714	2.926	14.675	0.752	-8191	255	
8535.690	1	1	0	0	0.15833	0.29313	0.10454	0.083634	0.06815	0.09077	0.11881	0.17954	0.2887	0.091161	0.32401	0.16388	0.33784	0.32922	0.26992	0.17759	-2.5375	-2.8083	-2.6917	-2.9542	-2.7896	-2.7271	-3.1729	-2.5896	-2.9333	-2.8563	-2.6792	-3.1083	-2.7938	-2.5146	-3.2521	-2.7104	216.106	278.126	199.003	113.508	121.092	160.780	311.397	27.885	203.263	267.477	231.375	213.597	304.503	156.742	263.706	88.078	0.00024725	5.7929e-05	3.602e-05	210.66	6.8664e-07	4.4958e-07	268.35	72.586	9.6134e-07	8.2233e-07	112.76	44.541	26.977	12.497	5.5986e-07	23.14	1.0073e-05	7.8743e-06	2.085e-06	197.98	9.1757e-08	8.9775e-08	255.6	67.955	9.2742e-08	8.4301e-08	98.834	39.757	24.392	11.171	8.2301e-08	20.356	327.581	45.424	8.548	-9.610	176.804	73.300	-10.353	-4.885	84.033	125.354	-6.587	-2.407	-0.868	3.010	32.347	0.427	-8191	255	
8535.784	1	1	0	0	0.12641	0.29903	0.27516	0.18475	0.24933	0.17978	0.16624	0.051886	0.083668	0.21001	0.12757	0.089478	0.11423	0.26179	0.077502	0.2309	-2.3396	-3.0771	-2.4104	-3.0938	-2.9125	-2.4667	-3.025	-2.6333	-2.8875	-3.0479	-2.5604	-3.1312	-2.9104	-2.35	-3.0958	-2.7083	51.177	213.943	301.842	225.179	100.428	243.035	-19.570	-5.759	119.642	153.713	178.654	128.400	245.069	39.678	209.064	240.758	0.00026487	0.00010733	3.4495e-05	213.74	4.5352e-07	5.494e-07	273.63	73.733	6.4135e-07	4.2011e-07	112.92	44.281	27.05	12.422	2.217e-07	22.932	1.0823e-05	8.0731e-06	2.1529e-06	200.18	9.6641e-08	9.0092e-08	258.82	69.001	9.6299e-08	8.8127e-08	99.205	39.739	24.53	11.164	8.2774e-08	20.146	328.808	90.771	51.426	-9.844	46.063	29.864	-10.798	-4.718	256.137	162.325	-6.701	-2.461	-0.597	2.821	79.335	0.486	-8191	255	
8535.880	1	1	0	0	0.25457	0.083722	0.1701	0.25175	0.11684	0.13917	0.08717	0.088271	0.23383	0.15066	0.15805	0.25207	0.17042	0.21864	0.041833	0.092815	-2.4104	-3.0146	-2.4313	-3.0333	-2.6646	-2.6771	-3.0458	-2.7458	-2.8083	-3.0271	-2.6875	-2.7979	-2.9396	-2.3375	-3.0792	-2.7438	76.417	327.871	108.108	236.607	254.175	281.136	102.607	229.656	240.703	271.921	164.359	278.424	265.588	18.982	265.448	138.255	0.00026316	8.6527e-05	1.1755e-05	213.72	4.5705e-07	2.5457e-07	273.44	73.592	1.0771e-06	1.0666e-06	112.72	44.233	27.233	12.39	6.3498e-07	22.74	1.0625e-05	7.9388e-06	2.0788e-06	201.1	9.6844e-08	9.0442e-08	259.52	69.069	9.6202e-08	8.636e-08	98.963	39.681	24.474	11.128	8.4266e-08	20.019	324.334	328.598	-9.169	-10.046	86.774	2.499	-10.164	-4.637	107.549	133.376	-7.017	-1.768	-0.762	3.314	109.100	0.818	-8191	255	
8535.977	1	1	0	0	0.30609	0.28241	0.17116	0.067273	0.3301	0.060747	0.098065	0.075785	0.20714	0.18435	0.23006	0.22044	0.086889	0.05608	0.31389	0.15135	-2.2208	-2.9625	-2.5333	-2.8583	-2.9062	-2.7229	-3.0625	-2.6229	-2.8979	-2.9542	-2.7062	-2.7792	-3.1688	-2.4792	-2.8875	-2.7396	310.578	188.602	9.573	260.703	192.448	334.240	186.041	324.106	231.217	147.016	69.405	23.359	183.225	225.247	237.285	238.613	0.00024833	7.4957e-05	4.3319e-06	213.68	2.3173e-07	1.2098e-06	275.6	73.824	4.6749e-07	5.1447e-07	113.19	44.162	27.403	12.544	1.0051e-06	23.067	1.0531e-05	8.1814e-06	2.116e-06	201.14	9.3615e-08	8.6952e-08	259.78	69.115	9.4602e-08	8.5709e-08	99.491	39.726	24.672	11.181	8.9593e-08	20.172	-20.136	14.272	27.738	-9.511	144.760	88.877	-10.546	-4.844	81.052	115.778	-6.744	-2.539	-0.583	3.030	106.133	0.795	-8191	255	
8536.097	1	1	0	0	0.10932	0.18742	0.092144	0.079524	0.20501	0.23295	0.10929	0.16863	0.35248	0.32576	0.066286	0.1226	0.22797	0.12947	0.13588	0.19903	-2.2229	-2.9375	-2.7	-2.7875	-3.0083	-2.4396	-3.0938	-2.6562	-2.4875	-3.1562	-2.6896	-2.6188	-2.7938	-2.4604	-2.9333	-2.7542	146.713	-10.913	125.528	-12.264	145.957	88.326	259.319	293.952	64.349	204.623	206.071	183.605	35.853	285.769	92.382	141.309	0.00024684	5.0471e-05	1.5973e-05	213.04	4.5431e-07	7.3085e-07	275.1	74.277	1.5552e-06	6.4821e-07	114.12	44.206	27.017	12.52	4.7729e-07	23.027	1.0466e-05	7.4611e-06	2.2962e-06	201.86	8.9395e-08	8.2965e-08	260.84	69.356	9.1466e-08	8.1231e-08	100.02	39.815	24.6	11.211	9.6698e-08	20.22	327.127	42.905	104.851	-9.723	2.482	42.383	-10.257	-4.648	86.542	77.909	-6.384	-2.421	-0.957	2.932	135.867	0.573	-8191	255	
8536.193	1	1	0	0	0.1471	0.19256	0.23589	0.13585	0.30068	0.14967	0.15825	0.072852	0.037526	0.12254	0.11874	0.029919	0.045281	0.18475	0.24235	0.14307	-2.0792	-3.0563	-2.5333	-2.7271	-2.9896	-2.4188	-3.0125	-2.9437	-2.6937	-3.1562	-2.5687	-2.8333	-3.1125	-2.6917	-2.9062	-3.0271	155.009	209.234	49.222	265.753	28.945	88.298	71.032	16.762	80.026	199.746	274.270	297.049	74.556	195.868	72.455	117.042	0.00024765	3.886e-05	1.7593e-05	214.71	5.5225e-07	8.9235e-08	275.99	73.596	1.616e-06	8.1473e-07	114.73	44.665	27.433	12.633	1.4232e-06	23.408	1.0541e-05	7.8439e-06	2.4481e-06	202.38	8.7935e-08	8.5528e-08	262.38	69.583	9.37e-08	8.5473e-08	100.88	40.251	24.824	11.325	1.0166e-07	20.529	331.743	94.023	76.243	-9.826	75.604	56.051	-10.748	-4.642	71.203	175.339	-6.559	-2.497	-0.610	3.363	110.990	0.510	-8191	255	
8536.290	1	1	0	0	0.11634	0.20795	0.17369	0.062023	0.2397	0.061461	0.18269	0.23915	0.2044	0.025628	0.17317	0.065914	0.14138	0.059431	0.14233	0.26867	-1.8	-3	-2.7021	-2.6688	-3.0167	-2.7562	-3.0271	-3.0396	-2.4229	-2.95	-2.8729	-2.6937	-3.0625	-2.6875	-2.5396	-3.125	7.014	-15.983	-3.627	5.966	61.148	103.595	129.436	51.763	218.980	43.448	101.682	133.257	159.279	200.443	214.691	283.675	0.00025276	4.6093e-05	1.6638e-05	218.58	6.1366e-07	3.6119e-07	279.35	74.695	7.5252e-07	6.6275e-07	115.03	44.689	27.444	12.671	6.3941e-07	23.175	1.0658e-05	8.0746e-06	2.6021e-06	204.45	9.1935e-08	9.0784e-08	264.33	70.314	9.2993e-08	9.2376e-08	101.51	40.241	24.904	11.353	1.0381e-07	20.338	328.241	87.059	54.146	-9.712	81.491	120.915	-10.347	-4.335	160.215	87.245	-6.713	-2.236	-0.870	3.119	138.195	0.701	-8191	255	
8536.386	1	1	0	0	0.17174	0.26875	0.050283	0.067057	0.18356	0.10706	0.23542	0.12098	0.073943	0.21847	0.095155	0.069997	0.22716	0.40658	0.34935	0.21303	-2	-3.0292	-2.6083	-2.45	-3.175	-2.7542	-2.7333	-2.7938	-2.5167	-3.0062	-2.8125	-2.6375	-3.0625	-2.7896	-3.0229	-2.9437	91.507	-13.339	99.658	276.791	5.877	62.814	323.690	271.171	142.952	67.920	108.195	37.378	177.560	-20.525	268.044	134.210	0.00023471	2.5902e-05	7.5643e-06	216.43	6.507e-07	1.1453e-06	276.9	75.199	2.044e-06	6.319e-07	114.16	44.43	27.487	12.567	1.3348e-06	23.145	1.036e-05	8.4218e-06	2.5754e-06	203.27	8.6117e-08	9.6886e-08	263.48	70.219	8.9753e-08	9.6235e-08	100.52	39.802	24.775	11.305	1.0206e-07	20.231	332.142	216.871	34.011	-9.658	99.520	108.350	-10.283	-4.508	106.070	86.903	-6.356	-2.434	-0.799	2.821	135.926	0.873	-8191	255	
8536.482	1	1	0	0	0.088832	0.083952	0.23286	0.17663	0.10436	0.14531	0.084129	0.13304	0.28548	0.22969	0.13851	0.077983	0.051644	0.21597	0.13499	0.20353	-2.1167	-3.0896	-3.05	-2.7354	-2.8438	-2.6708	-2.7271	-3.2833	-2.4396	-2.75	-2.9896	-2.6708	-2.9167	-2.7021	-2.7583	-3.05	285.603	302.664	152.422	-8.293	171.987	244.962	7.538	2.652	46.781	272.104	24.890	134.656	295.633	21.289	136.909	141.479	0.00022544	4.7201e-05	3.0199e-05	216.82	4.7687e-07	7.4623e-07	276.26	74.937	1.6997e-06	8.8264e-07	114.95	44.578	27.327	12.595	5.8231e-07	23.156	1.0092e-05	9.1094e-06	2.5425e-06	203.69	8.9038e-08	1.0038e-07	262.34	70.38	9.1012e-08	1.0608e-07	100.82	39.83	24.777	11.372	1.0007e-07	20.336	330.897	34.833	23.788	-9.798	217.676	44.912	-10.279	-4.664	52.014	153.100	-6.174	-2.525	-0.284	2.653	48.059	0.370	-8191	255	
8536.578	1	1	0	0	0.1236	0.10808	0.089068	0.17487	0.23057	0.1443	0.12154	0.24063	0.21317	0.21551	0.058383	0.12902	0.17548	0.10645	0.16931	0.054944	-1.9896	-2.9688	-3.1	-2.475	-2.825	-2.7562	-2.8271	-3.0583	-2.4667	-2.8083	-3.0146	-2.5312	-2.8375	-2.7979	-2.5208	-3.0938	66.942	40.850	334.471	149.972	119.868	298.296	317.501	108.431	77.254	138.686	16.214	163.131	24.040	53.539	220.140	288.276	0.00028302	8.3832e-05	2.2234e-05	217.08	5.4082e-07	1.133e-06	277.5	75.354	1.0527e-06	8.5294e-07	114.97	44.866	27.633	12.68	1.7144e-06	23.38	1.0925e-05	9.1576e-06	2.4547e-06	203.86	9.4556e-08	1.027e-07	263.51	70.425	9.7485e-08	1.0441e-07	101.1	40.196	24.965	11.404	9.7318e-08	20.454	324.618	61.955	94.251	-9.569	116.752	81.295	-10.583	-5.171	60.918	143.674	-7.046	-2.316	-0.737	3.178	96.853	0.813	-8191	255	
8536.697	1	1	0	0	0.20026	0.15386	0.13362	0.20587	0.049092	0.18708	0.12663	0.10602	0.24564	0.062254	0.22282	0.11367	0.087224	0.057681	0.09181	0.33212	-2.0667	-2.7167	-2.9229	-2.5583	-3.075	-2.9042	-2.6688	-2.9354	-2.8563	-2.9083	-2.8917	-2.5938	-2.9125	-2.6729	-2.5646	-3.1104	97.494	183.107	1.655	313.302	325.568	85.108	250.241	193.883	133.020	120.540	32.216	308.152	131.846	214.806	-18.914	171.260	0.00027125	5.999e-05	1.728e-05	218.29	1.36e-06	4.9412e-07	279.77	75.378	1.4429e-06	4.276e-07	116.77	45.302	27.709	12.934	6.3906e-07	23.663	1.1293e-05	9.3779e-06	2.3964e-06	204.68	1.0179e-07	9.822e-08	265.26	70.819	1.052e-07	9.8311e-08	102.29	40.554	25.137	11.533	9.9137e-08	20.74	330.092	46.827	61.755	-10.226	127.982	98.566	-10.552	-4.869	105.823	124.150	-6.946	-2.678	-0.850	3.105	113.527	0.940	-8191	255	
8536.793	1	1	0	0	0.17998	0.14707	0.050425	0.097386	0.08568	0.15142	0.012426	0.14914	0.36435	0.053424	0.052245	0.12747	0.20298	0.1628	0.19324	0.07739	-2.3354	-2.5958	-3.15	-2.5854	-2.7271	-3.0604	-2.4562	-2.8667	-2.6813	-2.7313	-3.0979	-2.5771	-2.7062	-3.0167	-2.6021	-2.8833	302.090	135.525	259.963	103.645	83.106	143.864	135.015	101.109	60.847	60.600	17.570	180.243	17.549	103.392	306.682	295.475	0.00027726	9.3316e-05	1.2013e-05	217.96	4.9421e-07	6.0832e-07	279.96	75.587	1.1288e-06	6.8776e-07	115.83	44.789	27.624	12.693	9.9362e-07	23.326	1.1379e-05	9.1821e-06	2.36e-06	205.58	1.0393e-07	9.6805e-08	265.59	70.857	1.0762e-07	9.4387e-08	101.63	40.197	25.025	11.455	9.0735e-08	20.504	330.919	48.189	65.397	-9.722	68.492	70.113	-10.455	-4.730	75.016	83.163	-6.459	-2.409	-0.378	3.403	106.641	0.520	-8191	255	
8536.889	1	1	0	0	0.26603	0.15883	0.063492	0.26596	0.30262	0.24984	0.22593	0.25638	0.021952	0.15316	0.1658	0.061542	0.15523	0.073153	0.25895	0.37421	-2.55	-2.5604	-3.0729	-2.4917	-2.9104	-2.8833	-2.4604	-2.8563	-2.7667	-2.5521	-3.1708	-2.6042	-2.6396	-3.1417	-2.4188	-3.0646	7.772	-7.872	129.473	301.836	272.528	216.199	3.231	189.911	231.516	308.536	36.288	-3.150	218.701	120.206	274.699	266.860	0.00025313	4.3532e-05	1.7971e-05	216.56	6.3589e-07	6.9444e-07	279.91	75.414	8.4953e-07	3.4328e-07	114.44	44.239	27.688	12.677	1.1695e-06	23.258	1.1469e-05	8.7993e-06	2.1783e-06	204.25	1.0154e-07	9.3509e-08	264.91	70.662	1.0137e-07	9.0952e-08	100.82	39.839	24.852	11.388	8.9593e-08	20.364	326.063	-16.628	38.485	-10.006	89.638	99.039	-10.664	-4.790	146.124	118.787	-6.544	-2.825	-0.805	2.823	74.582	0.473	-8191	255	
8536.961	1	1	0	0	0.12144	0.17565	0.24878	0.24261	0.29634	0.097704	0.024962	0.029661	0.13393	0.29717	0.1315	0.028416	0.19226	0.073159	0.061401	0.13983	-2.6375	-2.5042	-3.0042	-2.6708	-2.8833	-3.1042	-2.5083	-2.8875	-2.7792	-2.625	-3.0312	-2.7938	-2.6813	-2.9417	-2.4479	-2.9792	35.977	211.843	270.815	288.673	93.207	193.943	15.800	245.553	22.450	197.960	59.397	-8.323	23.149	295.392	-6.044	52.553	0.0002725	0.00012536	1.6969e-05	217.64	7.3063e-07	6.0252e-07	280.55	74.359	9.9756e-07	3.0762e-07	114.68	44.207	27.364	12.66	4.8222e-07	23.263	1.1072e-05	8.3683e-06	2.1458e-06	204.3	9.927e-08	9.3005e-08	264.75	70.303	9.7883e-08	8.8803e-08	100.5	39.831	24.78	11.364	9.1176e-08	20.379	318.293	30.749	28.783	-9.898	206.833	68.526	-10.674	-5.044	94.759	188.694	-6.679	-2.602	-0.839	2.485	128.871	0.646	-8191	255	
8537.081	1	1	0	0	0.14098	0.12063	0.1148	0.086203	0.26539	0.098601	0.25324	0.27249	0.10509	0.10685	0.27959	0.11702	0.084708	0.06144	0.39977	0.049003	-2.5458	-2.7042	-3.0875	-2.7917	-2.7208	-3.2396	-2.6083	-2.6792	-2.9792	-2.5521	-2.8521	-2.8417	-2.7854	-3.1146	-2.4521	-2.7958	72.602	-11.621	69.983	41.229	230.811	36.052	152.596	293.389	156.658	221.069	35.653	62.161	303.179	23.643	329.056	256.561	0.00025471	3.7726e-05	9.731e-06	220.53	7.8448e-07	7.2992e-07	278.33	75.266	2.0334e-06	1.1528e-06	114.39	44.7	27.335	12.809	4.6107e-07	23.439	1.0812e-05	8.2504e-06	2.2563e-06	205.89	9.6065e-08	8.4112e-08	265.78	70.422	9.5723e-08	8.8029e-08	101.1	40.127	24.863	11.406	9.7082e-08	20.532	322.278	53.941	41.779	-9.812	69.794	126.760	-10.531	-4.996	29.576	117.585	-6.833	-2.377	-0.669	3.116	195.073	0.691	-8191	255	
8537.178	1	1	0	0	0.24743	0.14943	0.2982	0.26406	0.23816	0.13011	0.12605	0.13361	0.18703	0.22744	0.27807	0.14073	0.048122	0.11715	0.19784	0.077276	-2.5792	-2.3563	-3.0958	-2.85	-2.5646	-3.2229	-2.5875	-2.9188	-3.1875	-2.4271	-3.0125	-2.875	-2.5271	-2.9521	-2.6833	-2.6542	195.441	27.830	30.106	250.008	-6.851	97.140	190.628	321.855	285.014	286.259	-15.108	222.164	139.360	153.905	283.399	167.954	0.00022342	5.4972e-05	3.129e-05	218.37	5.5306e-07	7.7446e-07	280.15	75.414	9.4094e-07	7.1849e-07	115.16	44.706	27.706	12.821	9.6674e-07	23.585	1.0337e-05	7.8083e-06	2.3457e-06	205.29	9.3371e-08	8.3673e-08	266.53	70.886	9.3156e-08	8.8339e-08	101.54	40.469	24.996	11.459	9.8142e-08	20.704	333.543	-4.572	49.386	-9.696	90.462	80.376	-10.391	-4.672	131.199	139.028	-6.740	-2.741	-0.349	3.042	107.080	0.200	-8191	255	
8537.274	1	1	0	0	0.051041	0.15058	0.14714	0.14751	0.13859	0.1763	0.10724	0.12456	0.27578	0.058575	0.16665	0.27632	0.22158	0.19016	0.16204	0.25112	-2.5187	-2.5667	-2.8583	-2.85	-2.575	-2.9771	-2.7125	-2.6688	-3.0979	-2.4521	-2.8229	-2.9792	-2.5042	-3.0042	-2.6583	-2.7313	288.931	106.940	257.557	160.395	314.914	56.562	25.578	298.112	237.825	214.813	225.896	237.524	3.773	56.662	323.356	296.797	0.00022108	6.312e-05	2.6576e-05	219.19	3.7103e-07	4.4676e-07	279.59	75.283	1.047e-06	8.9621e-07	115.89	45.093	27.492	12.74	1.1947e-06	23.579	1.0384e-05	7.9233e-06	2.4872e-06	205.68	8.9079e-08	8.2648e-08	266.63	70.78	8.946e-08	8.7907e-08	101.44	40.326	24.884	11.381	9.886e-08	20.532	328.987	-16.362	73.477	-9.773	166.239	140.533	-10.287	-4.758	88.808	144.953	-6.617	-2.541	-0.596	2.904	63.910	0.536	-8191	255	
8537.370	1	1	0	0	0.095529	0.11204	0.22471	0.082039	0.20848	0.25417	0.16001	0.277	0.19714	0.039372	0.11726	0.28137	0.10687	0.14633	0.12861	0.17093	-2.6729	-2.5083	-2.9021	-2.8167	-2.3708	-3.1083	-2.6542	-2.7292	-2.9667	-2.8417	-2.85	-2.9146	-2.5729	-2.8667	-2.7938	-2.5583	179.725	206.339	27.585	251.257	25.462	68.881	199.411	6.163	143.030	264.151	-14.770	136.113	222.894	42.895	54.698	190.504	0.00024751	0.00011721	7.899e-06	216.34	8.5696e-07	2.4225e-07	276.44	74.58	1.2305e-06	8.1114e-07	114.78	44.15	27.192	12.552	1.3423e-06	23.043	1.0031e-05	7.9292e-06	2.4175e-06	203.67	8.8608e-08	8.2973e-08	262.97	70.101	8.4294e-08	9.0585e-08	100.86	39.798	24.643	11.281	9.6388e-08	20.27	325.867	59.802	332.487	-9.776	111.198	77.185	-10.202	-4.800	92.928	166.624	-6.972	-2.724	-0.425	2.750	85.923	0.416	-8191	255	
8537.489	1	1	0	0	0.17021	0.23272	0.15774	0.29919	0.25177	0.17092	0.33402	0.22015	0.11356	0.10739	0.19862	0.22157	0.036919	0.10714	0.049503	0.043612	-2.4792	-2.7979	-2.6021	-2.9896	-2.3354	-3.0271	-3.0396	-2.6667	-3.1292	-2.5667	-2.825	-2.975	-2.5792	-2.9521	-2.7396	-2.5312	184.781	80.778	287.260	19.696	92.988	280.711	230.257	146.360	2.433	189.079	-2.391	273.900	314.267	331.626	288.383	157.983	0.00023847	5.2835e-05	2.9622e-05	215.49	5.307e-07	6.5944e-07	276.31	74.085	1.1185e-06	1.1684e-06	113.9	44.525	27.238	12.628	5.9472e-07	23.233	9.7224e-06	8.3988e-06	2.3641e-06	201.92	8.4462e-08	8.8717e-08	261.9	69.472	8.3433e-08	9.4159e-08	100.17	39.748	24.64	11.295	9.2432e-08	20.323	336.756	15.246	41.750	-9.751	191.733	88.254	-10.533	-4.957	103.054	158.755	-6.408	-2.618	-0.996	2.781	58.423	0.620	-8191	255	
8537.562	1	1	0	0	0.25132	0.20849	0.075966	0.26816	0.073658	0.033408	0.1552	0.46071	0.1757	0.14309	0.2388	0.09082	0.22759	0.18714	0.11031	0.24088	-2.4604	-2.8271	-2.6188	-2.9333	-2.7542	-2.8458	-3.0125	-2.3104	-3.1958	-2.9854	-2.5875	-3.0604	-2.7	-2.8396	-2.9583	-2.6208	144.132	134.632	26.621	278.399	265.048	263.919	155.824	331.238	-2.949	291.390	214.005	258.057	281.728	-22.530	243.724	311.974	0.00024615	7.1589e-05	2.8166e-05	215.64	3.8965e-07	5.6e-07	278.69	74.222	6.6569e-07	1.4734e-06	114.37	44.673	27.118	12.678	5.4493e-07	23.372	9.4573e-06	8.7452e-06	2.3869e-06	203.24	8.533e-08	9.4331e-08	263.25	69.985	8.613e-08	9.5861e-08	100.32	40.017	24.683	11.37	8.8386e-08	20.417	327.647	28.504	31.337	-9.384	127.208	123.054	-10.609	-4.781	150.271	116.120	-6.624	-2.254	-0.641	3.100	322.675	0.624	-8191	255	
8537.658	1	1	0	0	0.17592	0.1562	0.095899	0.089647	0.16783	0.091928	0.21034	0.26504	0.18315	0.12554	0.1662	0.18584	0.13876	0.097181	0.091262	0.26011	-2.4521	-2.7812	-2.5938	-3.0438	-2.6937	-2.8083	-3.0104	-2.225	-3.0875	-2.9104	-2.4021	-3.0875	-2.4896	-2.6667	-3.1229	-2.4667	199.844	263.542	271.887	20.865	25.525	170.638	309.481	121.802	109.779	-11.643	202.645	8.838	26.054	-8.279	60.151	294.174	0.00023554	3.5701e-05	2.4348e-05	217.39	8.7497e-07	1.3131e-06	279.3	74.697	1.083e-06	7.5647e-07	114.69	45.03	27.597	12.638	8.6112e-07	23.458	1.0287e-05	8.6117e-06	2.2729e-06	202.77	9.0539e-08	9.403e-08	263.83	69.92	9.0857e-08	9.2914e-08	100.56	40.143	24.819	11.342	8.9479e-08	20.586	332.586	28.745	43.774	-9.391	121.306	39.544	-10.260	-5.011	90.246	131.254	-6.592	-2.949	-0.415	3.051	61.482	0.915	-8191	255	
8537.777	1	1	0	0	0.16926	0.12444	0.2878	0.16309	0.34981	0.081636	0.13819	0.14117	0.2162	0.14429	0.30499	0.0873	0.14543	0.28977	0.14188	0.12732	-2.3917	-2.9396	-2.4521	-3.0458	-2.7438	-2.5833	-3.1458	-2.6146	-2.7333	-3.1646	-2.4354	-3.0938	-2.7833	-2.6458	-2.9354	-2.4625	242.518	239.949	13.146	150.160	286.194	144.486	71.358	12.133	143.296	305.638	244.668	-21.388	62.814	83.231	299.355	313.030	0.00023262	6.8825e-05	2.2636e-06	217.31	6.4943e-07	5.0109e-07	277.38	74.661	9.8715e-07	5.5712e-07	114.3	44.524	27.586	12.62	1.3711e-06	23.389	1.068e-05	8.5441e-06	2.1994e-06	203.7	9.1992e-08	9.0955e-08	263.79	70.064	9.3911e-08	8.8575e-08	100.77	40.153	24.789	11.309	8.6689e-08	20.416	328.542	25.733	121.086	-9.467	118.189	30.694	-10.554	-4.550	110.744	129.748	-6.581	-2.632	-0.722	2.828	74.744	0.738	-8191	255	
8537.873	1	1	0	0	0.22418	0.24066	0.21508	0.30785	0.039802	0.11694	0.055009	0.43864	0.11275	0.06868	0.39735	0.16697	0.081863	0.27427	0.036713	0.13501	-2.525	-2.925	-2.5208	-2.8063	-2.7646	-2.7188	-3.2062	-2.6604	-2.6479	-2.975	-2.4792	-2.9333	-2.7958	-2.5042	-3.2354	-2.6833	252.823	135.947	286.046	172.801	95.331	150.508	26.897	32.112	-16.395	189.139	299.822	319.948	78.568	331.374	155.348	302.649	0.0002334	7.2747e-05	1.116e-05	215.02	6.3383e-07	1.3624e-07	275.36	74.171	2.4443e-06	7.8178e-07	113.43	44.169	27.244	12.494	1.1479e-06	23.104	1.0989e-05	7.6569e-06	2.0864e-06	201.99	9.4402e-08	8.7692e-08	260.51	69.37	9.4585e-08	8.5611e-08	99.672	39.77	24.576	11.203	7.9127e-08	20.209	330.282	93.256	26.008	-10.003	96.628	58.018	-10.423	-4.912	120.736	113.595	-6.653	-2.315	-0.342	3.051	99.558	0.532	-8191	255	
8537.970	1	1	0	0	0.15886	0.24361	0.22441	0.29154	0.12301	0.33689	0.17141	0.15549	0.13716	0.12027	0.10026	0.15818	0.1943	0.18953	0.18174	0.068465	-2.2125	-2.85	-2.5646	-2.9146	-2.9208	-2.5062	-3.0292	-2.7438	-2.5625	-3.0146	-2.6042	-3.0604	-2.8187	-2.5042	-3.0708	-2.7562	222.644	258.413	270.098	53.901	33.429	223.897	245.307	312.970	-5.248	94.798	126.640	0.028	1.214	267.960	44.599	54.310	0.00023531	5.7232e-05	1.9222e-05	214.49	9.5912e-07	3.1826e-07	275.29	74.222	6.1777e-07	3.3439e-07	113.42	44.367	27.263	12.48	3.3539e-07	23.197	1.0714e-05	7.5316e-06	2.0132e-06	201.56	9.1367e-08	8.4438e-08	260.55	69.508	9.4699e-08	8.2892e-08	99.831	39.892	24.66	11.245	8.0702e-08	20.4	330.830	-3.933	41.888	-10.426	126.063	72.512	-10.434	-4.830	115.951	65.343	-6.696	-2.407	-0.754	2.984	141.219	0.680	-8191	255	
8538.090	1	1	0	0	0.016567	0.081318	0.21963	0.091734	0.14836	0.11783	0.27357	0.17245	0.24416	0.25223	0.29962	0.090113	0.068775	0.079928	0.20034	0.17713	-2.25	-2.9104	-2.55	-2.9167	-2.6729	-2.7083	-2.8875	-2.95	-2.6813	-3.2771	-2.6167	-2.9958	-2.9604	-2.4333	-3.1167	-2.6167	218.798	162.169	269.800	306.926	108.794	66.865	233.343	207.468	157.721	205.275	54.313	278.819	283.024	253.518	54.205	261.583	0.00021609	7.07e-05	2.1163e-05	216.57	5.783e-07	3.2854e-07	276.85	73.839	7.5607e-07	2.7668e-07	114.41	44.601	27.428	12.622	2.83e-07	23.318	1.0507e-05	7.8253e-06	2.0633e-06	202.59	8.9363e-08	8.1216e-08	261.32	69.529	9.2149e-08	7.8341e-08	100.32	40.079	24.768	11.257	8.1729e-08	20.506	328.655	-3.121	63.494	-9.300	154.805	96.423	-10.151	-4.640	118.012	105.678	-6.673	-2.564	-0.705	2.975	179.953	0.494	-8191	255	
8538.186	1	1	0	0	0.13855	0.36458	0.1019	0.078593	0.2372	0.25785	0.13387	0.077535	0.26043	0.024255	0.33751	0.078155	0.11653	0.090628	0.065443	0.2323	-2.25	-2.8646	-2.2896	-2.8542	-2.9375	-2.5187	-3.0687	-2.675	-2.8042	-2.975	-2.4313	-2.8708	-2.8729	-2.6125	-2.8521	-2.8479	-15.823	9.906	-7.901	309.565	251.657	40.636	11.867	122.168	256.865	184.980	16.608	254.130	61.822	270.227	231.099	297.154	0.00023426	0.00012989	2.8327e-06	214.72	6.007e-07	7.2959e-07	277.24	74.242	1.0264e-06	4.8634e-07	115.45	44.671	27.552	12.523	3.8383e-07	23.579	1.0158e-05	7.4025e-06	2.1473e-06	202.34	8.7172e-08	8.028e-08	261.89	69.519	8.9225e-08	7.7161e-08	100.72	40.228	24.817	11.309	8.8565e-08	20.608	337.061	11.095	49.510	-10.085	143.827	81.356	-10.560	-4.800	117.815	102.499	-6.599	-2.760	-0.659	2.833	110.812	0.292	-8191	255	
8538.258	1	1	0	0	0.091103	0.35975	0.11728	0.23624	0.062948	0.27102	0.12687	0.15942	0.30045	0.15027	0.18174	0.022466	0.063741	0.076741	0.16547	0.10935	-2.1146	-2.95	-2.5896	-2.875	-2.9417	-2.6229	-3.1312	-2.7625	-2.5854	-3.1979	-2.7604	-2.65	-3.1562	-2.4583	-3.1729	-2.8563	316.900	30.416	315.887	255.818	252.207	114.517	285.390	7.272	177.315	141.200	49.644	152.880	260.173	-16.057	271.738	309.244	0.00024657	7.8869e-05	2.5024e-05	215.41	4.28e-07	7.7707e-07	277.02	74.309	4.8414e-07	1.3371e-06	114.49	44.658	27.195	12.607	5.1242e-07	23.418	1.0044e-05	7.2512e-06	2.2867e-06	202.6	8.4616e-08	8.1989e-08	262.5	69.76	8.6869e-08	7.7356e-08	100.42	40.218	24.69	11.302	9.5458e-08	20.475	324.883	20.492	40.932	-9.830	108.577	113.685	-10.605	-4.746	124.508	130.979	-6.834	-2.693	-0.448	2.635	54.704	0.516	-8191	255	
8538.379	1	1	0	0	0.095087	0.029266	0.22512	0.28337	0.17009	0.14376	0.25209	0.12316	0.21066	0.2484	0.22489	0.15284	0.11627	0.14353	0.13749	0.10012	-1.8479	-2.8396	-2.5958	-2.6562	-3.0875	-2.6271	-2.9458	-3.1063	-2.5917	-3.2333	-2.7167	-2.5521	-3.1875	-2.5146	-2.7833	-3.0542	277.215	278.192	164.575	317.583	295.639	103.242	333.870	-12.759	48.553	44.213	330.469	20.743	199.605	251.046	88.629	91.348	0.00021699	0.00011562	1.216e-05	214.63	6.7296e-07	9.7097e-08	273.08	74.058	4.8404e-07	6.8074e-07	113.38	44.359	27.288	12.494	6.519e-07	22.928	9.9947e-06	7.4782e-06	2.3488e-06	201.05	8.0486e-08	8.1834e-08	260.45	69.16	8.2069e-08	8.0092e-08	99.824	39.776	24.572	11.181	9.2701e-08	20.164	330.487	70.739	93.137	-9.528	71.124	43.347	-10.690	-4.856	67.505	132.327	-6.604	-2.084	-0.733	2.607	96.613	0.728	-8191	255	
8538.475	1	1	0	0	0.23957	0.13613	0.30048	0.23028	0.1254	0.17304	0.1529	0.06032	0.12948	0.043765	0.085564	0.086747	0.01194	0.021348	0.43384	0.20241	-1.8896	-2.7833	-2.8417	-2.5667	-2.925	-2.5417	-2.9333	-3.025	-2.3146	-3.1292	-2.85	-2.4542	-2.9896	-2.7438	-2.4938	-3.0271	-4.356	291.323	302.653	100.183	155.515	133.823	269.959	139.152	265.022	48.219	193.201	223.429	135.654	289.912	174.949	243.783	0.00026947	6.8685e-05	3.0729e-05	213.84	1.1823e-06	7.1148e-07	273.29	73.78	1.0002e-06	4.1968e-07	113.21	44.397	27.253	12.573	8.3385e-07	23.178	9.621e-06	7.7022e-06	2.3587e-06	200.91	7.9123e-08	8.6341e-08	260.07	69.317	8.1419e-08	8.5188e-08	99.766	39.777	24.552	11.22	9.2995e-08	20.251	-22.026	66.693	54.776	-9.868	104.231	107.543	-10.649	-4.977	177.917	71.981	-6.649	-2.127	-0.879	3.016	71.425	0.613	-8191	255	
8538.569	1	1	0	0	0.17587	0.13876	0.42641	0.36483	0.19211	0.23791	0.07624	0.28998	0.06686	0.22859	0.20292	0.10891	0.40134	0.10936	0.38023	0.22091	-1.9792	-2.8896	-2.8292	-2.4646	-3.025	-2.8063	-2.5229	-3.1167	-2.7438	-2.8021	-3.0917	-2.4437	-2.8688	-2.7875	-2.5042	-2.9437	73.289	290.151	129.903	100.260	1.239	191.835	161.394	-1.432	185.290	129.625	231.259	316.269	258.068	300.581	262.963	168.141	0.00025533	9.7419e-05	1.3456e-05	215.05	9.5764e-07	7.8644e-07	274.34	74.003	6.1334e-07	7.5669e-07	113.86	44.716	27.331	12.532	9.3989e-07	23.277	9.5073e-06	7.9566e-06	2.1988e-06	201.67	7.8181e-08	9.1963e-08	260.78	69.597	8.336e-08	9.2718e-08	100.55	40.1	24.698	11.268	8.7905e-08	20.375	324.967	25.728	70.274	-9.702	62.301	141.312	-10.671	-4.552	215.398	130.930	-6.792	-2.572	-0.553	3.011	71.070	0.353	-8191	255	
8538.665	1	1	0	0	0.25051	0.11772	0.098669	0.28537	0.11384	0.22284	0.28282	0.23486	0.16534	0.037233	0.16959	0.13555	0.12526	0.2225	0.18725	0.1059	-2.1896	-2.825	-2.8229	-2.4708	-2.8521	-2.6437	-2.6688	-3.0938	-2.3854	-2.8375	-3.0583	-2.6083	-3.1292	-2.7854	-2.5583	-3.3167	18.459	268.863	214.304	104.781	210.942	70.117	310.145	290.050	53.103	141.379	-13.934	260.899	115.716	177.152	263.898	71.050	0.00023748	2.2302e-05	2.7091e-05	216.72	1.1778e-06	1.0246e-06	278.4	74.857	1.0596e-06	9.8358e-07	116	45.153	27.42	12.65	1.49e-06	23.352	1.0084e-05	8.7162e-06	2.2412e-06	202.96	8.5939e-08	9.5267e-08	263.21	69.717	8.9891e-08	9.5959e-08	101.16	40.417	24.83	11.334	9.0164e-08	20.556	329.858	282.273	13.463	-9.614	119.077	53.719	-10.287	-5.145	145.993	123.806	-6.523	-2.654	-0.989	3.009	131.025	0.705	-8191	255	
8538.786	1	1	0	0	0.31583	0.29572	0.38179	0.12163	0.20398	0.070495	0.15611	0.12985	0.17635	0.032981	0.24538	0.027447	0.078438	0.20382	0.23575	0.10325	-2.1188	-2.7771	-2.9437	-2.4458	-3.075	-2.8417	-2.6417	-3.1167	-2.5292	-2.8729	-3.0354	-2.5563	-2.9521	-2.7583	-2.6104	-3.2021	12.014	56.160	247.723	168.814	174.154	-13.683	289.451	116.443	-19.705	267.012	67.294	168.751	128.251	313.334	319.226	187.106	0.00023816	0.00011214	7.1733e-06	215.61	3.614e-07	7.3154e-07	279.64	74.896	2.2611e-06	4.3657e-07	115.02	45.213	27.503	12.73	6.9387e-07	23.402	1.0526e-05	8.7348e-06	2.1709e-06	202.66	9.0759e-08	9.176e-08	264.23	70.026	9.6031e-08	9.1579e-08	101.17	40.361	24.849	11.365	9.0132e-08	20.554	329.659	32.754	72.649	-9.368	65.607	62.636	-10.721	-4.591	104.697	128.069	-6.430	-2.420	-0.571	2.903	44.382	0.635	-8191	255	
8538.858	1	1	0	0	0.045677	0.21143	0.18462	0.3423	0.22944	0.21835	0.12936	0.17825	0.031418	0.30761	0.12971	0.22493	0.1271	0.041252	0.16344	0.065077	-2.225	-2.5729	-3.0833	-2.5896	-2.7854	-3	-2.4562	-3.0833	-2.6813	-2.5958	-3.1208	-2.5583	-2.8563	-2.7625	-2.4854	-2.8896	258.773	44.451	318.304	81.510	152.757	248.613	256.183	272.664	274.198	207.749	135.362	-20.114	200.437	241.430	120.914	68.028	0.00026558	5.7476e-05	1.5096e-05	216.05	1.1023e-06	3.9639e-07	279.4	74.755	1.0431e-06	8.3291e-07	115.08	44.815	27.488	12.475	8.3878e-07	23.168	1.1188e-05	8.513e-06	2.1862e-06	202.84	9.4231e-08	9.0645e-08	263.53	69.762	9.8062e-08	9.2222e-08	100.71	40.136	24.792	11.243	8.7301e-08	20.248	331.778	37.885	16.964	-9.124	126.286	69.750	-10.791	-4.796	102.942	105.452	-6.675	-2.611	-0.856	2.942	45.896	0.406	-8191	255	
8538.954	1	1	0	0	0.087026	0.11836	0.30678	0.10516	0.19521	0.095813	0.020542	0.19686	0.19377	0.096502	0.14889	0.1585	0.15368	0.25982	0.040704	0.13075	-2.3021	-2.5146	-2.9792	-2.6937	-2.9271	-2.9146	-2.6792	-3.0146	-2.9104	-2.6479	-3.1042	-2.7042	-2.6688	-3.0292	-2.7125	-2.7521	23.363	189.526	303.573	241.449	224.502	2.846	-11.943	313.245	268.293	197.182	-22.648	180.857	-16.497	135.990	86.528	240.739	0.00026611	7.1778e-05	3.3314e-05	214.93	6.1009e-07	5.3537e-07	275.62	74.44	1.6609e-06	7.4916e-07	114.31	44.312	27.405	12.567	1.1689e-06	23.26	1.099e-05	8.2534e-06	2.1349e-06	202.21	9.6236e-08	8.8969e-08	261.5	69.634	9.9759e-08	8.715e-08	100.31	39.939	24.741	11.215	8.7513e-08	20.293	331.218	46.909	13.786	-9.845	110.533	58.006	-10.482	-4.770	43.885	107.318	-7.074	-2.792	-0.547	2.592	62.071	0.897	-8191	255	
8539.050	1	1	0	0	0.063402	0.1107	0.11224	0.2271	0.14422	0.34172	0.22058	0.099071	0.24323	0.10659	0.22422	0.097544	0.30799	0.17864	0.090043	0.076556	-2.5375	-2.6229	-3.0854	-2.8083	-2.8021	-2.9292	-2.7833	-2.9083	-2.7333	-2.6646	-3.15	-2.7188	-2.7604	-3.0146	-2.5687	-2.8917	276.207	202.912	129.889	294.186	267.935	102.240	210.220	233.635	199.221	304.630	184.646	144.512	259.824	-11.696	234.748	17.909	0.00026128	8.6452e-05	2.743e-05	214.61	4.1037e-07	6.0949e-07	278.34	75.079	4.9192e-07	9.8198e-07	114.87	45.06	27.542	12.577	9.57e-07	23.194	1.0981e-05	8.1658e-06	2.0269e-06	202.8	9.7826e-08	8.8636e-08	263.64	70.1	1.0006e-07	9.0797e-08	100.79	40.361	24.888	11.322	9.2081e-08	20.453	-10.611	53.374	58.095	-9.846	48.103	35.894	-10.132	-4.509	90.294	103.406	-6.581	-2.297	-0.687	3.145	141.655	0.799	-8191	255	
8539.171	1	1	0	0	0.088529	0.10187	0.25157	0.17002	0.13759	0.087174	0.12874	0.099568	0.01482	0.3677	0.077774	0.24721	0.33848	0.2259	0.20825	0.27956	-2.4542	-2.4792	-2.8958	-2.8646	-2.8271	-3.0833	-2.6667	-2.7396	-2.9437	-2.5271	-3.1479	-2.625	-2.7812	-3.0458	-2.6521	-2.7979	26.204	259.351	104.031	334.031	-11.516	22.479	271.729	4.642	146.618	48.122	265.318	106.481	260.918	159.878	104.946	-15.245	0.00022991	7.7524e-05	1.8349e-05	218.38	1.1255e-06	7.0918e-07	277.11	75.728	6.8705e-07	7.4259e-07	116.09	45.319	27.737	12.747	4.5259e-07	23.609	1.1216e-05	8.3016e-06	2.1744e-06	204.57	9.9019e-08	8.8799e-08	264.37	70.827	9.8021e-08	9.1123e-08	102.26	40.583	25.123	11.445	9.6062e-08	20.69	320.993	49.533	19.974	-9.711	108.858	81.882	-10.306	-4.796	68.155	97.704	-7.129	-2.585	-0.767	3.339	197.864	0.701	-8191	255	
8539.267	1	1	0	0	0.09307	0.17233	0.1941	0.2719	0.29446	0.19178	0.13308	0.21845	0.22774	0.10465	0.3142	0.057287	0.013773	0.32222	0.018776	0.21385	-2.3875	-2.6083	-3.0354	-2.6604	-2.6021	-3.2375	-2.6542	-2.6937	-2.8125	-2.6625	-2.9833	-2.85	-2.6813	-3.0792	-2.4875	-2.7896	65.052	74.083	299.557	322.540	-22.458	24.399	289.606	174.419	149.199	257.483	312.210	304.755	69.982	46.713	94.472	275.162	0.00026106	0.00017633	2.052e-05	218.44	1.1495e-06	6.3106e-07	280.61	75.575	5.5705e-07	5.1636e-07	116.97	45.447	27.856	12.87	7.5097e-07	23.527	1.1012e-05	8.4299e-06	2.4367e-06	205.35	9.7923e-08	8.6976e-08	266.87	71.154	9.6291e-08	8.5904e-08	102.6	40.811	25.118	11.515	1.0332e-07	20.702	323.271	68.501	61.895	-9.807	109.099	91.351	-10.384	-4.955	137.424	104.161	-6.352	-2.048	-0.896	3.104	77.485	0.358	-8191	255	
8539.363	1	1	0	0	0.14089	0.084477	0.098341	0.21359	0.47052	0.33711	0.2506	0.14953	0.15995	0.043818	0.12558	0.156	0.19041	0.040153	0.13937	0.18557	-2.6958	-2.4521	-3.0333	-2.8083	-2.4354	-3.1646	-2.8125	-2.7667	-3.0667	-2.5708	-3.05	-2.9188	-2.3854	-3.1292	-2.6813	-2.6458	271.777	244.227	282.745	323.029	178.754	155.891	216.774	305.104	68.286	295.472	-16.378	174.630	182.879	223.202	175.317	188.328	0.00026304	8.8344e-05	2.3476e-05	218.7	3.2229e-07	4.9821e-07	279.52	75.795	8.3211e-07	8.3486e-07	116.68	45.087	27.537	12.803	5.097e-07	23.336	1.092e-05	8.2111e-06	2.5214e-06	205.28	9.3939e-08	8.6529e-08	264.89	70.848	9.4594e-08	9.0919e-08	102.17	40.36	24.894	11.427	1.011e-07	20.498	336.560	36.748	71.183	-9.731	70.761	86.465	-10.612	-4.634	98.542	84.952	-6.671	-2.478	-0.299	2.767	298.658	0.584	-8191	255	
8539.459	1	1	0	0	0.041274	0.049723	0.13531	0.040498	0.26201	0.051373	0.23336	0.21816	0.1106	0.27398	0.082865	0.076671	0.032118	0.1872	0.18773	0.12867	-2.7542	-2.6729	-2.75	-2.7354	-2.4333	-3.2396	-2.8521	-2.5896	-3.2979	-2.8646	-2.6875	-2.7562	-2.7062	-3.0583	-2.7875	-2.7146	193.931	202.419	-22.067	-8.179	14.106	282.374	28.837	203.595	74.039	89.398	232.346	144.247	7.531	127.298	87.541	271.430	0.00022544	8.2166e-06	1.4017e-05	215.53	4.0015e-07	7.4014e-07	279.48	74.953	7.2191e-07	9.2671e-07	115.33	44.641	27.202	12.62	1.3643e-06	23.139	1.0236e-05	8.2882e-06	2.6294e-06	203.77	9.1051e-08	8.8245e-08	264.39	70.293	8.9265e-08	9.1855e-08	101.14	40.034	24.719	11.33	1.0169e-07	20.317	-18.846	21.381	134.138	-9.884	155.612	67.883	-10.196	-4.549	116.857	110.325	-6.080	-2.319	-0.943	3.006	80.448	0.548	-8191	255	
8539.555	1	1	0	0	0.059437	0.26534	0.10068	0.17584	0.24018	0.013958	0.15166	0.077685	0.14863	0.11269	0.22474	0.099151	0.13291	0.085809	0.36723	0.057639	-2.8167	-2.4146	-2.7104	-3.0625	-2.6813	-2.8042	-2.7583	-2.6958	-3.0333	-2.6562	-2.7979	-3.2167	-2.5458	-2.9229	-3.0187	-2.7771	61.562	45.444	333.394	142.223	147.823	254.488	226.886	80.658	80.812	183.388	187.248	-0.008	181.250	107.995	51.373	155.859	0.00026529	8.2352e-05	2.9423e-05	217.24	6.0097e-07	4.2166e-07	279.69	75.538	7.1767e-07	1.1887e-06	115.76	44.674	27.561	12.582	3.5272e-07	23.292	1.012e-05	8.7593e-06	2.4988e-06	203.83	8.989e-08	9.3794e-08	264.76	70.468	8.8591e-08	1.0043e-07	101.31	40.096	24.739	11.306	9.8934e-08	20.418	335.732	21.404	57.095	-9.752	81.290	109.814	-10.747	-4.930	85.981	164.288	-6.617	-2.196	-0.932	2.681	71.979	0.997	-8191	255	
8539.651	1	1	0	0	0.11161	0.39703	0.19393	0.36347	0.17782	0.11685	0.3577	0.16211	0.13017	0.13675	0.25453	0.034763	0.19263	0.077713	0.26311	0.11529	-2.4521	-2.475	-2.7896	-3.1625	-2.45	-3.0479	-3.0167	-2.5938	-3.0083	-2.775	-2.5583	-2.8937	-2.6625	-3.0187	-3.0438	-2.6167	275.247	65.315	290.254	318.505	190.522	188.828	7.108	185.558	175.027	114.240	315.029	88.550	202.225	216.673	91.825	306.524	0.00022573	0.00014227	1.6022e-05	216.56	5.0729e-07	9.8422e-07	278.45	74.418	7.2684e-07	3.5345e-07	115.38	44.838	27.589	12.745	6.5917e-07	23.444	1.0161e-05	9.0286e-06	2.4858e-06	203.96	8.9931e-08	1.011e-07	264.37	70.199	9.1824e-08	1.0289e-07	101.54	40.211	24.879	11.405	9.5597e-08	20.563	332.597	29.313	29.480	-9.779	79.577	91.436	-10.671	-4.660	154.319	89.343	-6.812	-2.506	-0.693	2.795	97.961	0.616	-8191	255	
8539.770	1	1	0	0	0.176	0.12868	0.17209	0.03143	0.15569	0.27885	0.2978	0.22144	0.24986	0.26888	0.10689	0.17765	0.36452	0.16647	0.16033	0.16794	-2.5312	-2.5792	-2.5812	-3.0625	-2.4521	-2.9083	-2.9854	-2.6125	-2.9708	-3.1604	-2.5812	-3.1875	-2.5896	-2.7188	-3.1708	-2.5146	217.930	15.804	226.279	294.891	73.742	39.678	326.634	1.068	54.795	126.495	5.345	299.482	55.092	311.608	247.953	95.146	0.00021522	8.338e-05	1.8149e-05	218.08	6.288e-07	1.1493e-06	280.24	74.826	1.092e-06	9.6349e-07	114.96	45.064	27.902	12.86	5.5236e-07	23.6	1.0477e-05	9.53e-06	2.4123e-06	204.69	9.4905e-08	1.0443e-07	266.14	70.657	9.8655e-08	1.0484e-07	101.89	40.603	25.168	11.537	9.5303e-08	20.658	332.146	26.503	18.275	-9.877	157.152	77.573	-10.067	-4.901	119.633	127.485	-6.684	-2.585	-0.461	3.084	74.631	0.434	-8191	255	
#DATA ENDS
