BOXY.EXE: ISS Imagent and Oximeter Data Acquisition Program Version 0.80
Ascii Record File

#ACQ INFORMATION
2  Detector Channels 
16  External MUX Channels 
1  Auxiliary Channels 
5000  Waveform (CCF) Frequency (Hz)
1  Waveforms Skipped 
30  Waveforms Averaged 
1  Cycles Averaged 
16  Acquisitions per Waveform 
10.0806  Updata Rate (Hz) 

#FILE INFORMATION
TRUE -- External MUX Channel results are PARSED.
FALSE -- AC DC and Phase are NOT grouped.
TRUE -- Companion Program Settings File CREATED.
FALSE -- AC data not excluded
FALSE -- DC data not excluded
FALSE -- Phase data not excluded
FALSE -- Auxillary Chn. data not excluded
Tab delimiters

#CALIBRATION STATE
TRUE -- Waveform Calibration Values APPLIED.


#AUX CALIBRATION VALUES
Val Type	aux-1	

Term	1.0000e+00	
Factor	0.0000e+00	


#WF CALIBRATION VALUES
A = Detector Channel
Val Type	A-AC1	A-AC2	A-AC3	A-AC4	A-AC5	A-AC6	A-AC7	A-AC8	A-AC9	A-AC10	A-AC11	A-AC12	A-AC13	A-AC14	A-AC15	A-AC16	A-DC1	A-DC2	A-DC3	A-DC4	A-DC5	A-DC6	A-DC7	A-DC8	A-DC9	A-DC10	A-DC11	A-DC12	A-DC13	A-DC14	A-DC15	A-DC16	A-Ph1	A-Ph2	A-Ph3	A-Ph4	A-Ph5	A-Ph6	A-Ph7	A-Ph8	A-Ph9	A-Ph10	A-Ph11	A-Ph12	A-Ph13	A-Ph14	A-Ph15	A-Ph16	

Term	0.00000e+00	0.00000e+00	0.00000e+00	0.00000e+00	0.00000e+00	0.00000e+00	0.00000e+00	0.00000e+00	0.00000e+00	0.00000e+00	0.00000e+00	0.00000e+00	0.00000e+00	0.00000e+00	0.00000e+00	0.00000e+00	0.00000e+00	0.00000e+00	0.00000e+00	0.00000e+00	0.00000e+00	0.00000e+00	0.00000e+00	0.00000e+00	0.00000e+00	0.00000e+00	0.00000e+00	0.00000e+00	0.00000e+00	0.00000e+00	0.00000e+00	0.00000e+00	0.00000e+00	0.00000e+00	0.00000e+00	0.00000e+00	0.00000e+00	0.00000e+00	0.00000e+00	0.00000e+00	0.00000e+00	0.00000e+00	0.00000e+00	0.00000e+00	0.00000e+00	0.00000e+00	0.00000e+00	0.00000e+00	
Factor	1.00000e+00	1.00000e+00	1.00000e+00	1.00000e+00	1.00000e+00	1.00000e+00	1.00000e+00	1.00000e+00	1.00000e+00	1.00000e+00	1.00000e+00	1.00000e+00	1.00000e+00	1.00000e+00	1.00000e+00	1.00000e+00	1.00000e+00	1.00000e+00	1.00000e+00	1.00000e+00	1.00000e+00	1.00000e+00	1.00000e+00	1.00000e+00	1.00000e+00	1.00000e+00	1.00000e+00	1.00000e+00	1.00000e+00	1.00000e+00	1.00000e+00	1.00000e+00	X	X	X	X	X	X	X	X	X	X	X	X	X	X	X	X	

B = Detector Channel
Val Type	B-AC1	B-AC2	B-AC3	B-AC4	B-AC5	B-AC6	B-AC7	B-AC8	B-AC9	B-AC10	B-AC11	B-AC12	B-AC13	B-AC14	B-AC15	B-AC16	B-DC1	B-DC2	B-DC3	B-DC4	B-DC5	B-DC6	B-DC7	B-DC8	B-DC9	B-DC10	B-DC11	B-DC12	B-DC13	B-DC14	B-DC15	B-DC16	B-Ph1	B-Ph2	B-Ph3	B-Ph4	B-Ph5	B-Ph6	B-Ph7	B-Ph8	B-Ph9	B-Ph10	B-Ph11	B-Ph12	B-Ph13	B-Ph14	B-Ph15	B-Ph16	

Term	0.00000e+00	0.00000e+00	0.00000e+00	0.00000e+00	0.00000e+00	0.00000e+00	0.00000e+00	0.00000e+00	0.00000e+00	0.00000e+00	0.00000e+00	0.00000e+00	0.00000e+00	0.00000e+00	0.00000e+00	0.00000e+00	0.00000e+00	0.00000e+00	0.00000e+00	0.00000e+00	0.00000e+00	0.00000e+00	0.00000e+00	0.00000e+00	0.00000e+00	0.00000e+00	0.00000e+00	0.00000e+00	0.00000e+00	0.00000e+00	0.00000e+00	0.00000e+00	-3.43671e-01	-1.28886e+02	-1.25619e+02	-1.82862e+02	-5.71745e+01	-6.81809e+01	-1.60871e+02	-1.62015e+02	-3.19388e+01	-6.41406e+01	-1.72576e+02	-1.72478e+02	-1.82445e+02	-1.78185e+02	-5.29652e+01	-1.51172e+02	
Factor	3.74574e-05	1.65184e-04	5.15718e-05	1.65372e-01	2.41300e-06	1.69649e-06	1.91291e-01	5.90050e-02	2.23131e-06	1.72544e-06	9.08189e-02	3.18365e-02	2.88288e-02	9.23025e-03	2.06985e-06	1.33595e-02	8.31791e-06	1.05830e-05	2.94811e-06	8.55080e-02	1.10851e-07	1.17203e-07	9.29119e-02	3.05842e-02	1.10972e-07	1.16886e-07	4.57212e-02	1.59736e-02	1.50964e-02	4.83111e-03	1.13233e-07	6.77596e-03	X	X	X	X	X	X	X	X	X	X	X	X	X	X	X	X	



#DISTANCE SETTINGS
A = Detector Channel
A-1	A-2	A-3	A-4	A-5	A-6	A-7	A-8	A-9	A-10	A-11	A-12	A-13	A-14	A-15	A-16	

2.5000e+00	3.0000e+00	2.5000e+00	3.0000e+00	2.0000e+00	3.0000e+00	1.5000e+00	3.0000e+00	3.0000e+00	3.0000e+00	3.0000e+00	3.0000e+00	3.0000e+00	3.0000e+00	1.5000e+00	3.0000e+00	

B = Detector Channel
B-1	B-2	B-3	B-4	B-5	B-6	B-7	B-8	B-9	B-10	B-11	B-12	B-13	B-14	B-15	B-16	

1.0000e+01	1.0000e+01	1.0000e+01	1.4400e+00	1.0000e+01	1.0000e+01	1.5100e+00	1.9400e+00	1.0000e+01	1.0000e+01	1.9900e+00	2.4900e+00	2.4100e+00	2.9000e+00	1.0000e+01	2.9800e+00	




#DATA BEGINS
time	group	step	mark	flag	A-AC1	A-AC2	A-AC3	A-AC4	A-AC5	A-AC6	A-AC7	A-AC8	A-AC9	A-AC10	A-AC11	A-AC12	A-AC13	A-AC14	A-AC15	A-AC16	A-DC1	A-DC2	A-DC3	A-DC4	A-DC5	A-DC6	A-DC7	A-DC8	A-DC9	A-DC10	A-DC11	A-DC12	A-DC13	A-DC14	A-DC15	A-DC16	A-Ph1	A-Ph2	A-Ph3	A-Ph4	A-Ph5	A-Ph6	A-Ph7	A-Ph8	A-Ph9	A-Ph10	A-Ph11	A-Ph12	A-Ph13	A-Ph14	A-Ph15	A-Ph16	B-AC1	B-AC2	B-AC3	B-AC4	B-AC5	B-AC6	B-AC7	B-AC8	B-AC9	B-AC10	B-AC11	B-AC12	B-AC13	B-AC14	B-AC15	B-AC16	B-DC1	B-DC2	B-DC3	B-DC4	B-DC5	B-DC6	B-DC7	B-DC8	B-DC9	B-DC10	B-DC11	B-DC12	B-DC13	B-DC14	B-DC15	B-DC16	B-Ph1	B-Ph2	B-Ph3	B-Ph4	B-Ph5	B-Ph6	B-Ph7	B-Ph8	B-Ph9	B-Ph10	B-Ph11	B-Ph12	B-Ph13	B-Ph14	B-Ph15	B-Ph16	aux-1	digaux	

7921.021	1	1	0	768	0.29791	0.1194	0.13822	0.085581	0.29372	0.21506	0.18467	0.067236	0.14617	0.07359	0.13235	0.32012	0.34883	0.25453	0.1523	0.16923	-2.3833	-2.7854	-2.5375	-3.175	-2.5792	-2.5833	-3.0083	-2.6417	-2.8625	-2.6833	-2.4125	-3.0417	-2.6	-2.7208	-2.8583	-2.5146	-72.640	200.584	181.520	196.228	29.630	-62.469	158.192	93.589	-47.424	49.607	-119.393	198.474	198.510	192.322	129.668	131.179	0.00069686	0.0010147	0.00033315	1073.1	3.9276e-05	3.4805e-05	1194.9	331.89	3.6173e-05	2.9592e-05	400.26	177.64	114.41	48.289	4.188e-06	70.572	0.023891	0.030161	0.0084158	1228.7	0.00031538	0.00033326	1362.8	394.26	0.00031223	0.00033126	500.26	209.01	148.64	59.013	0.00031857	84.996	20.379	-99.563	2.385	-110.745	-119.986	93.606	-111.608	-106.030	91.782	103.528	-107.341	-103.127	-102.953	-98.310	137.386	-100.370	-8191	255	
7921.117	1	1	0	0	0.13748	0.041593	0.2279	0.40413	0.22688	0.32562	0.16104	0.095002	0.07038	0.20813	0.088633	0.076575	0.28508	0.15104	0.19083	0.19819	-2.6146	-2.6625	-2.6396	-3.0938	-2.6708	-2.7979	-2.9875	-2.5521	-2.875	-2.675	-2.6625	-3.1625	-2.6896	-2.7375	-2.8625	-2.6292	-4.346	-36.452	-19.767	208.125	202.886	-93.208	158.953	166.663	-117.814	36.083	224.224	157.696	207.619	203.996	70.147	229.357	0.0011676	0.0011495	0.0005527	1077	3.5248e-05	2.3624e-05	1191.1	333.74	1.7425e-05	2.8138e-05	408.23	176.65	114.02	49.088	2.6214e-05	71.256	0.023702	0.030432	0.0084768	1231.4	0.0003249	0.00034624	1371.1	399.69	0.00033378	0.00035681	513.87	213.03	152.8	60.738	0.00034693	87.713	-20.651	68.595	197.251	-110.497	176.321	105.904	-111.153	-106.389	28.347	4.981	-107.668	-103.319	-102.435	-98.748	87.292	-100.627	-8191	255	
7921.213	1	1	0	0	0.14008	0.089376	0.31457	0.031168	0.058587	0.10476	0.37492	0.4271	0.07814	0.10941	0.12099	0.13005	0.15098	0.17237	0.1826	0.21167	-2.4396	-2.7729	-2.4646	-3.0021	-2.5625	-2.6688	-3.125	-2.6896	-2.775	-2.8833	-2.5667	-3.0958	-2.7375	-2.6688	-2.8875	-2.5354	-20.408	-115.020	12.665	-100.710	154.541	46.343	168.512	162.246	-108.502	-77.291	189.102	203.788	-86.458	107.015	-22.073	-114.906	0.0001877	0.0017264	0.0009844	1071	2.9363e-05	2.6044e-05	1182.4	334.79	1.2952e-05	3.6938e-05	400.05	176.45	113.42	48.767	2.1762e-05	70.908	0.026163	0.033479	0.0093045	1259.2	0.00035145	0.00036921	1385.6	405.79	0.00034204	0.00035867	508.55	210.26	150.02	59.434	0.00032209	85.346	-87.510	-71.658	-38.212	-110.610	-64.451	-14.174	-110.884	-106.217	187.553	88.757	-107.479	-103.157	-102.170	-98.293	12.989	-100.545	-8191	255	
7921.309	1	1	0	0	0.49945	0.1436	0.13542	0.27285	0.27291	0.15127	0.32422	0.2023	0.22326	0.088774	0.14642	0.22551	0.32506	0.29801	0.090479	0.12667	-2.2583	-2.65	-2.475	-3.0062	-2.6708	-2.5708	-3.0938	-2.7042	-2.8	-2.8937	-2.4458	-2.9542	-2.8563	-2.5896	-3	-2.675	-48.441	-95.787	226.821	-122.180	-106.322	77.624	187.590	158.273	18.138	57.606	-80.926	196.824	197.349	-96.133	220.979	-52.730	0.0011777	0.0024416	0.00046425	1069.4	5.1468e-05	1.2592e-05	1188.4	330.92	4.7484e-06	1.2347e-05	402.17	176.2	114.32	48.794	1.7556e-05	70.646	0.023697	0.029727	0.0082373	1221.6	0.00030678	0.00031905	1347.5	388.52	0.00029789	0.00031075	492.12	205.76	145.56	58.193	0.00029743	83.779	-82.775	-91.473	-47.945	-110.621	161.249	-12.557	-110.905	-106.191	69.743	60.457	-107.680	-102.920	-102.227	-98.041	35.811	-100.275	-8191	255	
7921.405	1	1	0	0	0.27311	0.18887	0.2461	0.12288	0.038692	0.13537	0.21017	0.24369	0.20675	0.28254	0.21925	0.095016	0.1341	0.21979	0.14089	0.44723	-2.1813	-2.95	-2.5438	-2.9021	-2.8667	-2.5521	-3.0229	-2.6479	-2.5458	-2.925	-2.6917	-2.8229	-2.9208	-2.5917	-2.8104	-2.7417	-83.523	-34.063	103.582	150.887	-92.315	-65.414	178.186	173.423	-104.707	-29.426	180.447	185.312	227.401	177.516	-94.954	147.439	0.0010116	0.0035014	0.00099455	1063.7	4.8256e-05	1.6483e-05	1189.5	332.01	2.4106e-05	1.727e-05	400.95	175.94	114.54	48.744	2.7851e-05	71.033	0.022121	0.027668	0.0077697	1208.9	0.00029848	0.00031668	1348.6	391.02	0.00030961	0.0003263	500.08	208.95	148.85	59.151	0.00031799	85.274	-12.125	-64.671	-27.303	-110.559	174.591	195.835	-111.215	-105.738	50.031	-46.520	-107.530	-103.207	-102.121	-98.458	55.882	-100.258	-8191	255	
7921.501	1	1	0	0	0.22157	0.13648	0.1702	0.42837	0.19913	0.1905	0.18475	0.061176	0.34588	0.17862	0.047877	0.13204	0.13487	0.15747	0.24252	0.19032	-2.0396	-3.0375	-2.2896	-2.9938	-2.7042	-2.4188	-3.1979	-2.825	-2.6333	-2.9896	-2.7354	-2.925	-2.9583	-2.5792	-2.8792	-2.9229	130.679	7.660	-93.053	195.874	58.992	-116.818	185.678	-71.021	-59.790	86.200	-91.922	151.645	164.025	-99.697	-108.477	183.411	0.00051372	0.0017322	0.00057594	1066.3	8.7331e-06	1.9078e-05	1188.3	331.35	2.1588e-05	4.0878e-05	402.22	176.61	114.35	48.893	3.005e-05	70.737	0.023511	0.029603	0.0082726	1225.4	0.00031117	0.00032756	1358.4	393.13	0.00030977	0.00032707	499.72	208.34	148.33	59.078	0.00031172	85.075	-34.043	158.603	-19.526	-110.346	147.370	124.383	-111.112	-106.238	143.788	158.936	-107.762	-103.028	-102.355	-98.264	121.385	-100.604	-8191	255	
7921.622	1	1	0	0	0.074914	0.19347	0.29561	0.1501	0.16766	0.2394	0.14327	0.19585	0.18241	0.11066	0.17516	0.15209	0.12849	0.2186	0.23338	0.11639	-2.1792	-3.1167	-2.5229	-2.6917	-3.025	-2.6333	-2.9708	-2.8271	-2.5729	-3.0792	-2.7313	-2.65	-2.9667	-2.6167	-2.9667	-2.8187	7.187	166.772	232.926	177.331	226.552	181.276	227.964	114.656	4.941	-14.168	215.230	229.324	-54.800	-54.982	-19.338	186.106	0.00081481	0.0023674	0.00018868	1069.6	1.1942e-05	1.8475e-05	1192.3	331.15	2.758e-05	2.5227e-05	402.81	177.3	114.68	49.688	9.5737e-06	72.002	0.022792	0.028711	0.0080163	1214.7	0.00029794	0.00031697	1350.3	390.33	0.00030306	0.00032062	499.46	209.39	149.41	59.967	0.00032521	86.858	-23.371	-41.468	-34.652	-110.911	196.143	20.533	-111.232	-105.947	-8.517	-46.128	-107.645	-103.024	-102.302	-98.197	-50.758	-100.367	-8191	255	
7921.718	1	1	0	0	0.23047	0.13854	0.12014	0.11944	0.33427	0.41839	0.17749	0.29427	0.15111	0.10803	0.11154	0.21659	0.1761	0.11801	0.047541	0.14515	-2.1083	-2.8125	-2.5604	-2.7812	-2.8604	-2.5167	-3.0271	-2.7042	-2.5208	-2.7917	-2.6396	-2.7771	-3.0104	-2.5792	-2.6896	-2.8667	54.312	-113.096	22.536	203.660	-89.289	-96.741	194.458	168.124	-92.160	11.652	167.172	197.007	131.809	181.045	-7.762	169.164	0.0005688	0.00087153	0.00057616	1076.7	2.3801e-05	2.0231e-05	1197.9	335.41	3.4776e-05	2.9255e-05	405.28	178.1	116.67	49.841	3.1765e-05	72.22	0.02453	0.03144	0.0088376	1248.3	0.00032967	0.00034791	1378.7	400.78	0.00032471	0.0003417	509.59	212.33	152.1	60.909	0.0003389	87.472	-60.978	7.354	-3.673	-110.591	56.454	-10.533	-111.070	-106.299	-42.797	-56.064	-107.261	-103.230	-102.361	-98.035	-75.528	-100.011	-8191	255	
7921.813	1	1	0	0	0.28069	0.0596	0.22923	0.054672	0.12297	0.23073	0.36218	0.11782	0.17615	0.10339	0.27302	0.2878	0.22438	0.22804	0.22697	0.34776	-2.0812	-2.8083	-2.6458	-2.6417	-2.8958	-2.6083	-2.7542	-2.9729	-2.4104	-2.7375	-2.8646	-2.6333	-2.9688	-2.7208	-2.5521	-2.9021	75.784	206.033	-16.553	7.431	230.916	204.509	187.765	198.273	-26.117	186.805	220.059	174.109	192.774	24.479	-36.179	101.691	0.00087027	0.0025219	0.00089651	1070.7	3.5128e-05	1.7086e-05	1182.5	332.21	2.4946e-05	1.1448e-05	398.34	173.85	112.74	48.78	3.6938e-05	70.789	0.024883	0.031505	0.0087286	1234.6	0.00032133	0.00033762	1360.7	392.44	0.00030726	0.00032238	491.81	205.11	145.3	58.439	0.00030162	83.849	-54.141	-11.194	57.959	-110.908	71.349	165.918	-111.055	-106.098	-105.262	-74.379	-107.665	-102.878	-102.151	-97.854	7.442	-100.035	-8191	255	
7921.910	1	1	0	0	0.098137	0.23331	0.25538	0.039703	0.13293	0.21452	0.18281	0.11896	0.35554	0.11218	0.051285	0.054115	0.3016	0.26148	0.043692	0.31683	-2.0271	-2.6646	-2.7958	-2.6083	-3.0187	-2.4771	-2.7667	-3.0479	-2.5563	-2.8208	-2.8563	-2.6083	-2.8417	-2.6458	-2.6583	-3.0729	177.075	94.837	-119.938	-88.831	174.578	200.206	-110.517	102.336	25.872	-0.149	-67.399	-91.302	201.564	-87.635	67.634	225.258	0.00061021	0.00065579	0.00063284	1059.6	2.5443e-05	1.6268e-05	1176	323.64	3.3803e-05	1.682e-05	390.35	172.88	109.73	47.503	2.343e-05	69.431	0.021839	0.02775	0.0076742	1194.5	0.00027743	0.00029017	1306.9	372.85	0.00025408	0.00026085	459.67	192.96	132.29	53.896	0.00021357	77.326	-19.666	-120.860	-49.697	-110.428	141.075	-54.625	-111.315	-105.715	143.688	-4.810	-107.540	-102.824	-101.898	-97.723	-5.303	-99.809	-8191	255	
7922.005	1	1	0	0	0.094406	0.063395	0.11403	0.24801	0.11598	0.14902	0.35396	0.1166	0.17417	0.12456	0.2683	0.20124	0.098755	0.20836	0.030412	0.38284	-2.1813	-2.6958	-2.6958	-2.6021	-2.6979	-2.7458	-2.7146	-3.0146	-2.4917	-2.8479	-2.8979	-2.4104	-3.0375	-2.8479	-2.6813	-3.0979	225.880	-78.691	-4.189	188.850	115.752	23.995	-101.983	124.296	-56.517	59.071	-114.260	-85.177	217.204	-17.583	174.731	-86.640	0.00085435	0.0012142	0.00068164	1053.8	4.0472e-05	2.9939e-05	1166.2	319.32	9.2805e-06	8.2942e-06	389.95	174.22	109.9	48.236	3.7316e-05	70.662	0.015417	0.019486	0.0053555	1120.3	0.00019645	0.00020789	1238.5	349.89	0.00019349	0.00020177	438.69	187.83	128.16	53.227	0.00019528	77.383	-7.165	-14.269	24.318	-110.365	52.570	3.788	-111.064	-105.541	-2.257	186.234	-107.207	-102.541	-101.792	-97.530	4.407	-99.589	-8191	255	
7922.101	1	1	0	0	0.10431	0.20579	0.17308	0.14485	0.11435	0.13776	0.26848	0.069487	0.021539	0.20542	0.095082	0.13251	0.1391	0.12174	0.056149	0.15743	-2.075	-2.7208	-2.9667	-2.5146	-2.8729	-2.7438	-2.6583	-3.1521	-2.6667	-2.6979	-2.9479	-2.6937	-2.8688	-2.7938	-2.5083	-3.1188	148.965	-63.937	96.576	-78.688	60.566	18.336	182.663	143.942	31.341	16.118	136.806	120.457	179.056	190.358	199.340	-82.981	0.00041348	0.0018831	0.00019659	1051.9	1.411e-05	2.3164e-05	1174.8	324.45	3.261e-05	1.6479e-05	393.5	174.11	111.74	48.675	2.244e-05	70.687	0.014625	0.018773	0.0052334	1122.5	0.00020091	0.00021368	1249.7	355.2	0.00020315	0.00021466	447.17	190.99	130.92	54.158	0.00020243	77.997	-27.443	102.403	-100.577	-110.194	-64.866	78.382	-110.955	-105.645	134.491	216.373	-107.474	-102.822	-101.380	-97.124	58.504	-99.545	-8191	255	
7922.222	1	1	0	0	0.17076	0.11114	0.12595	0.25105	0.17412	0.11682	0.049668	0.31702	0.16254	0.18965	0.19933	0.17001	0.088319	0.11628	0.29865	0.33249	-2.2188	-2.5958	-3.0583	-2.6479	-2.8958	-2.8688	-2.5792	-2.9271	-2.5604	-2.6146	-3.1271	-2.5542	-2.6771	-3.0667	-2.4229	-2.8354	198.566	36.085	162.842	153.714	214.459	172.619	-118.126	178.416	77.821	166.854	-94.349	79.212	221.944	39.617	0.786	78.843	0.0010435	0.0013071	0.00020638	1059.6	5.9716e-06	9.0166e-06	1181.6	326.62	2.5199e-05	1.0765e-05	397.52	175.13	112.42	48.756	2.1401e-05	70.59	0.015085	0.019065	0.0052799	1126.1	0.00020029	0.00021465	1257.5	358.21	0.00021148	0.00022744	454.34	193.26	134.14	55.184	0.00022809	79.786	-53.895	-106.243	147.631	-110.486	77.086	107.300	-111.071	-105.476	185.321	92.714	-107.117	-102.762	-101.683	-97.307	43.177	-99.439	-8191	255	
7922.318	1	1	0	0	0.15861	0.44481	0.20812	0.30701	0.065251	0.24718	0.1844	0.07065	0.31221	0.043254	0.015571	0.13465	0.108	0.26494	0.1743	0.063627	-2.2604	-2.575	-2.7875	-2.6875	-2.5521	-2.8354	-2.6833	-3.2104	-2.7958	-2.5083	-3.1729	-2.8375	-2.8042	-2.8125	-2.5417	-3.0104	54.751	-78.739	75.027	105.237	-67.087	106.858	113.924	202.261	-52.585	119.306	166.629	213.558	25.627	212.083	-110.622	147.267	0.00071062	0.00048596	0.00072984	1064.2	1.4391e-05	5.6601e-06	1178	327.1	2.3858e-05	1.9041e-05	394.82	174.34	112.29	48.731	2.0657e-05	71.28	0.017231	0.021655	0.0059754	1152.1	0.00022736	0.00023833	1273.1	364.03	0.0002251	0.00023635	455.99	194.11	134.09	55.254	0.00022579	79.873	-0.386	125.323	-43.838	-110.761	162.822	-87.658	-111.046	-105.776	170.736	49.675	-107.572	-102.714	-102.071	-97.520	220.716	-99.635	-8191	255	
7922.414	1	1	0	0	0.1951	0.094297	0.31785	0.21978	0.04334	0.19352	0.2121	0.46283	0.22215	0.17033	0.27289	0.080351	0.30572	0.25915	0.041267	0.043079	-2.4354	-2.4917	-2.8583	-2.6063	-2.4375	-2.8729	-2.65	-2.8187	-2.8333	-2.5333	-2.925	-2.6896	-2.5833	-2.9479	-2.5271	-2.9771	-93.692	154.819	176.787	-79.835	150.783	68.872	156.820	218.135	234.473	-37.241	219.465	120.952	63.622	224.297	204.099	-121.880	0.00057517	0.0016418	0.00065957	1061.8	3.0818e-05	6.8039e-06	1188	327.5	2.1089e-05	1.2618e-05	398.6	175.52	114	49.093	2.0799e-05	71.382	0.016937	0.021459	0.0060383	1151.3	0.00022911	0.0002414	1281.1	366.43	0.00023074	0.00024057	459.77	195.4	135.92	55.578	0.00022518	80.048	-63.070	103.777	-94.242	-110.425	73.776	82.589	-111.231	-105.565	6.123	55.480	-107.138	-102.811	-101.986	-97.339	24.958	-99.791	-8191	255	
7922.510	1	1	0	0	0.15884	0.034374	0.14297	0.23848	0.039108	0.24801	0.063433	0.068549	0.095522	0.032825	0.19463	0.22956	0.19582	0.084739	0.12595	0.15906	-2.3417	-2.5417	-2.8521	-2.8146	-2.6813	-2.9313	-2.7396	-2.85	-2.8417	-2.3896	-2.9604	-2.8937	-2.5771	-3.1917	-2.6979	-2.8208	181.242	-70.218	219.756	127.166	-25.032	177.354	195.334	-82.296	60.408	216.298	113.757	169.810	-77.040	175.720	-98.180	199.313	0.00022358	0.0014799	0.00094774	1067.2	4.8325e-05	1.5817e-05	1190.3	326.66	3.4879e-05	1.7914e-05	399.86	178.23	113.82	49.231	1.1062e-05	71.823	0.016252	0.020238	0.00554	1138.3	0.00020168	0.0002092	1259.9	357.03	0.00019188	0.00020034	446.32	191.68	131.43	54.425	0.00019485	78.912	-14.991	22.062	233.706	-110.544	60.607	116.017	-110.966	-105.593	-42.929	37.033	-107.390	-102.983	-102.038	-97.353	157.669	-99.649	-8191	255	
7922.582	1	1	0	0	0.23987	0.14873	0.23338	0.16135	0.21276	0.19436	0.302	0.34583	0.21397	0.16275	0.34964	0.081318	0.18736	0.066475	0.34319	0.32859	-2.425	-2.3729	-2.7812	-2.8771	-2.5938	-2.8875	-2.6958	-2.8396	-2.8083	-2.4938	-2.7896	-2.6458	-2.4479	-2.9333	-2.5979	-2.5458	124.513	150.902	-93.819	206.307	105.059	-55.593	200.153	232.997	0.331	-7.732	192.292	123.939	159.984	182.960	165.556	159.798	0.00014533	0.0015383	0.00052195	1068.1	2.4261e-05	1.4522e-05	1195.5	329.19	5.8222e-06	1.9844e-05	396.72	177.32	113.89	49.294	1.6169e-05	72.298	0.014887	0.018845	0.0053131	1140.2	0.00020071	0.00021314	1266.9	361.19	0.00020383	0.00021464	452.67	193.82	133.71	55.002	0.00020707	79.133	35.855	164.431	3.616	-110.463	99.169	169.727	-111.147	-105.521	-90.292	44.808	-107.577	-102.622	-101.987	-97.588	232.570	-99.317	-8191	255	
7922.702	1	1	0	0	0.16784	0.10182	0.18653	0.17773	0.070303	0.17682	0.31903	0.13864	0.22922	0.059307	0.051917	0.15414	0.21152	0.10866	0.50716	0.097684	-2.4979	-2.4146	-2.8333	-2.8896	-2.5458	-2.9562	-2.7271	-2.6521	-2.9042	-2.375	-2.9875	-2.6979	-2.5417	-2.8917	-2.8083	-2.6958	-117.777	184.327	67.439	-117.834	97.200	-43.781	177.882	-9.564	220.160	-4.820	153.600	151.262	226.952	217.053	115.173	188.675	0.0007658	0.00079285	0.00092451	1064.8	2.3551e-05	2.3946e-05	1189.1	330.94	1.4615e-05	2.0985e-05	399.03	175.51	114	49.511	2.0842e-05	71.705	0.015382	0.019639	0.0055304	1143.8	0.0002112	0.00022573	1274.7	364.48	0.00021848	0.000234	461.09	195.83	136.18	55.842	0.00022879	80.352	-36.196	225.958	-74.158	-110.345	224.989	183.942	-111.393	-106.017	113.430	-5.056	-107.445	-102.696	-102.093	-97.773	-7.489	-99.647	-8191	255	
7922.797	1	1	0	0	0.063667	0.21359	0.13656	0.094724	0.066906	0.058752	0.38922	0.22768	0.13677	0.20208	0.072114	0.26476	0.042608	0.33227	0.24387	0.05175	-2.5167	-2.4896	-2.7271	-2.8958	-2.4562	-3.0438	-2.6958	-2.7667	-2.9583	-2.4062	-2.7375	-3.0333	-2.4292	-2.8417	-2.6375	-2.3688	44.716	6.847	44.713	6.569	-113.231	57.838	169.464	212.836	138.609	193.980	110.248	145.151	3.533	183.380	170.646	75.500	0.0010086	0.0017718	0.00022493	1066.3	5.5483e-06	2.1223e-05	1188.4	328.54	3.3112e-05	1.8959e-05	401.08	176.33	114.51	49.27	1.0145e-05	71.414	0.016629	0.020937	0.0058572	1150.3	0.00021764	0.00023257	1279.8	365.16	0.00022079	0.0002346	460.16	195.65	136.25	55.781	0.00022724	80.376	-4.018	-79.888	-68.300	-110.490	132.869	163.673	-110.980	-105.611	23.479	-96.992	-107.314	-102.718	-102.161	-97.859	99.737	-100.089	-8191	255	
7922.893	1	1	0	0	0.33947	0.11306	0.13177	0.14406	0.076605	0.22621	0.096378	0.052283	0.23066	0.10887	0.12665	0.095054	0.14922	0.093064	0.15732	0.28395	-2.45	-2.375	-2.5396	-2.775	-2.5208	-2.8458	-2.9271	-2.6208	-2.8604	-2.525	-2.5583	-3.0687	-2.5021	-2.8438	-2.7938	-2.4229	152.416	172.106	-13.812	206.495	7.296	-54.869	160.225	227.842	18.628	-62.414	138.331	210.565	-88.234	-34.664	138.956	174.144	0.00098388	0.0012758	0.0006649	1071.3	3.4096e-05	1.6499e-05	1194.4	330.07	9.9054e-06	2.6721e-05	402.76	177.15	114.46	49.404	1.8663e-05	71.839	0.016851	0.021414	0.0059918	1158.5	0.00022626	0.00023907	1287.9	367.41	0.00022421	0.000237	461.17	195.53	135.04	55.352	0.00021514	79.802	-33.466	-24.113	-14.754	-110.425	18.837	-84.246	-110.990	-105.860	162.786	-2.077	-107.567	-103.316	-101.731	-97.409	233.336	-100.006	-8191	255	
7922.991	1	1	0	0	0.18572	0.29314	0.15224	0.20071	0.18227	0.12731	0.29526	0.05329	0.096866	0.26066	0.10429	0.24463	0.16594	0.076379	0.2268	0.11612	-2.4875	-2.625	-2.5521	-2.8354	-2.3917	-2.7625	-2.9792	-2.425	-2.7229	-2.5687	-2.7562	-3.0479	-2.7854	-2.7562	-2.7667	-2.6063	-3.759	120.228	231.699	194.634	77.676	-52.395	119.220	-106.833	88.807	171.829	192.793	136.526	168.691	218.258	-120.784	204.128	0.00055893	0.0017136	0.00085249	1073.3	5.9527e-06	8.7277e-06	1192	330.9	2.1333e-05	1.6408e-05	398.16	176.3	114.16	49.553	5.7046e-06	71.522	0.016081	0.020444	0.00577	1152.5	0.00022158	0.00023802	1287.4	368.86	0.00022975	0.0002431	463.8	196.55	137.54	56.308	0.00023395	80.657	-15.246	-54.334	-113.543	-110.510	36.121	-12.264	-111.031	-105.349	-40.241	-32.832	-107.668	-102.928	-102.493	-97.483	59.924	-99.876	-8191	255	
7923.110	1	1	0	0	0.12081	0.094625	0.042874	0.2011	0.092157	0.14802	0.23549	0.12725	0.19207	0.14532	0.065983	0.4678	0.21236	0.023099	0.21047	0.2379	-2.2625	-2.7229	-2.525	-3.1708	-2.5687	-2.725	-2.9771	-2.6208	-2.8646	-2.7271	-2.5333	-3.075	-2.7646	-2.7875	-2.8917	-2.7229	107.163	-87.291	-51.810	-78.928	-49.372	-46.810	164.541	172.583	75.522	-61.475	234.527	204.411	142.610	187.394	38.434	-99.399	0.00030759	0.00060249	0.00069199	1064.5	3.6969e-05	8.4125e-06	1187.9	328.41	4.8504e-05	1.3984e-05	401.8	176.75	114.18	49.573	1.7201e-05	71.598	0.0173	0.021908	0.0060786	1159.9	0.00023247	0.00024853	1290.2	369.2	0.00024029	0.00025762	470.22	199.6	140.14	57.322	0.00025797	82.255	-30.314	234.189	189.394	-110.225	103.242	11.870	-110.728	-105.689	-1.854	88.001	-107.350	-102.609	-101.855	-97.701	41.750	-100.252	-8191	255	
7923.181	1	1	0	0	0.019766	0.070638	0.12066	0.35041	0.22718	0.020091	0.19811	0.14555	0.2079	0.15929	0.10938	0.18928	0.15706	0.30159	0.18063	0.17779	-2.475	-2.6917	-2.5354	-2.9813	-2.5812	-2.6937	-3.0833	-2.4167	-2.7167	-2.7938	-2.5479	-2.9542	-2.8125	-2.5521	-3.0229	-2.4792	-72.306	213.827	118.505	224.676	15.778	63.229	197.575	163.905	175.979	131.440	177.845	-96.572	187.317	191.951	-62.292	157.514	0.00073032	0.0019798	0.00086896	1070.3	2.5419e-05	1.2933e-05	1182.7	327.56	2.8182e-05	2.5591e-05	395.61	175.12	113.23	49.244	1.2545e-05	71.25	0.019136	0.023921	0.0065179	1167.2	0.00022969	0.0002347	1267.8	359.15	0.00020456	0.00021106	447.01	189.86	131.27	54.257	0.00019445	78.24	-22.221	-66.404	-40.969	-110.647	47.707	220.339	-111.308	-105.523	-5.296	-91.520	-107.171	-102.649	-102.071	-97.551	89.721	-99.842	-8191	255	
7923.302	1	1	0	0	0.33626	0.084741	0.15267	0.15626	0.058611	0.16282	0.20686	0.32019	0.23334	0.06563	0.16161	0.25299	0.15652	0.24524	0.081993	0.41165	-2.1792	-2.9208	-2.4854	-3.175	-2.7938	-2.5646	-3.0146	-2.6813	-2.7938	-2.9896	-2.5854	-2.9125	-2.7687	-2.7521	-3.1	-2.5333	70.797	94.613	205.551	188.724	7.299	127.425	68.238	200.592	-83.674	45.516	187.802	219.581	-25.132	191.950	207.198	221.697	0.0008474	0.0012238	0.00039552	1069.3	3.8966e-05	1.0948e-05	1190.9	327.61	9.9721e-06	2.9779e-05	400.23	176.13	114.08	49.558	1.6378e-05	71.568	0.014402	0.0181	0.0050108	1127	0.00018873	0.00020059	1248.1	353.87	0.000187	0.00019585	444.58	190.52	131.15	54.454	0.00019437	78.695	-29.777	87.754	135.845	-110.521	11.447	30.245	-111.080	-105.636	-47.822	135.948	-107.122	-102.735	-101.989	-97.518	191.760	-99.765	-8191	255	
7923.398	1	1	0	0	0.12185	0.020736	0.23256	0.23479	0.036797	0.0317	0.20212	0.179	0.2554	0.063434	0.11127	0.086397	0.15623	0.14015	0.2095	0.16916	-2.1771	-2.7333	-2.4021	-2.975	-2.6688	-2.4458	-3.0125	-2.6708	-2.7583	-2.7854	-2.6021	-2.9229	-2.7917	-2.7458	-2.9229	-2.6104	-121.340	28.564	44.538	192.660	-112.795	207.540	185.318	177.550	-24.699	-38.884	98.986	113.835	111.866	220.599	162.845	231.067	0.00061945	0.001436	0.00085205	1069.5	9.1915e-06	1.4145e-05	1191.3	329.02	4.9311e-05	1.2549e-05	397.52	176.29	113.76	49.427	8.5119e-06	71.159	0.014822	0.019016	0.0053159	1140.5	0.000203	0.00021333	1264.3	359.49	0.00020797	0.00021806	454.02	193.65	134.51	55.571	0.0002237	80.215	-48.882	201.951	-33.324	-110.559	85.413	-117.881	-111.177	-105.649	42.651	123.316	-107.746	-102.791	-101.938	-97.571	37.732	-99.850	-8191	255	
7923.494	1	1	0	0	0.19665	0.15482	0.16378	0.15562	0.31904	0.23032	0.15494	0.26389	0.18465	0.097537	0.18309	0.27463	0.13564	0.26288	0.23887	0.27267	-2.2333	-2.9	-2.5938	-2.9188	-2.6042	-2.4729	-3.0104	-2.75	-2.4708	-2.8542	-2.5771	-2.75	-3.0229	-2.4542	-2.8	-2.7854	-51.460	65.632	234.536	-56.183	85.469	-13.773	192.234	131.130	43.432	-81.873	173.749	-121.638	-60.012	196.116	52.167	126.484	0.00062736	0.00057624	0.00084439	1067.7	1.2374e-05	2.2818e-05	1185.2	328.07	9.5775e-06	1.6396e-05	397.62	175.86	114.54	49.817	2.163e-05	72.229	0.016855	0.021119	0.005816	1153.1	0.00021618	0.00022794	1272.4	362.66	0.00021318	0.00022555	457	195.83	137.59	56.873	0.00025102	82.807	-39.413	34.431	-22.706	-110.570	233.695	-108.643	-111.087	-106.006	58.379	27.212	-107.514	-102.527	-101.907	-97.946	170.550	-100.075	-8191	255	
7923.591	1	1	0	0	0.1289	0.10547	0.071539	0.31491	0.105	0.11417	0.32248	0.22345	0.19247	0.17188	0.14577	0.17589	0.24779	0.24249	0.10324	0.13914	-2.0563	-2.9854	-2.4583	-2.6917	-2.7521	-2.4917	-2.9792	-2.8187	-2.5229	-2.9229	-2.5625	-2.6979	-2.9208	-2.5438	-2.7083	-2.8167	-95.022	-99.286	70.144	222.817	-52.030	-18.172	132.933	-118.302	-73.383	230.533	214.847	159.746	187.519	157.529	128.500	177.561	0.00061027	0.0023014	0.00059366	1076.1	1.7244e-05	1.1735e-05	1187.2	331.62	1.2971e-05	1.3545e-05	397.06	176.64	113.92	49.342	9.3965e-06	72.169	0.01956	0.025061	0.0070494	1192.8	0.00025722	0.00027013	1304.6	374.49	0.00024091	0.00024786	463.4	196.13	136.27	56.034	0.00023326	80.895	-11.696	-104.588	-45.265	-110.632	23.009	24.464	-111.104	-106.257	-36.131	24.939	-107.435	-102.818	-102.187	-97.543	150.862	-99.810	-8191	255	
7923.711	1	1	0	0	0.25633	0.32082	0.088745	0.14101	0.27482	0.2364	0.21695	0.26945	0.17544	0.1701	0.086524	0.15308	0.055711	0.045105	0.25432	0.14253	-1.8125	-2.7	-2.5687	-2.7792	-2.9708	-2.4562	-2.9958	-2.8187	-2.4708	-3.0708	-2.9062	-2.5438	-2.9521	-2.6	-2.6354	-2.9646	-26.085	-52.534	-33.935	-82.320	130.697	187.234	132.935	172.741	159.293	233.878	204.737	202.316	-96.536	-37.096	30.471	174.171	0.00053916	0.0019548	0.00055135	1065.4	3.6954e-05	1.2402e-05	1180.3	331.53	2.5132e-05	9.9707e-07	399.34	175.17	113.28	49.609	2.4592e-05	72.059	0.01727	0.021795	0.0061276	1160	0.00023052	0.0002456	1287.8	368.95	0.00022437	0.0002337	456.83	192.72	132.79	54.871	0.00019226	78.317	6.374	-80.609	67.980	-110.555	81.921	206.363	-110.908	-105.691	12.869	-94.635	-107.159	-102.722	-101.881	-97.588	0.256	-99.688	-8191	255	
7923.806	1	1	0	0	0.19438	0.17709	0.27527	0.17756	0.33935	0.11695	0.21368	0.10035	0.16198	0.14912	0.21729	0.4171	0.19426	0.35285	0.059212	0.079974	-2.0771	-2.7833	-2.6625	-2.725	-2.8958	-2.4646	-3.0604	-2.9542	-2.2125	-2.9208	-2.6979	-2.7125	-2.9521	-2.6813	-2.6854	-2.9708	104.647	199.323	-104.982	198.479	-7.852	13.479	58.352	-18.847	156.170	48.133	220.339	213.399	-104.244	-120.159	180.424	45.418	0.00029501	0.00045751	0.00053569	1066.3	1.9348e-05	1.0845e-05	1187.2	326.7	6.9263e-06	1.0442e-05	400.28	179.36	115.58	50.168	2.6717e-05	72.762	0.013602	0.016959	0.0046927	1113.9	0.00017196	0.00018316	1239.9	349.9	0.00017404	0.00019017	445.67	192.11	132.3	55.237	0.00019745	79.583	-76.300	92.165	-121.117	-110.572	-57.564	2.548	-111.201	-105.679	224.226	190.840	-107.413	-102.474	-101.707	-97.725	36.527	-99.603	-8191	255	
7923.879	1	1	0	0	0.015197	0.035471	0.10762	0.051914	0.083424	0.12681	0.30557	0.1534	0.128	0.11706	0.14533	0.27887	0.18277	0.080402	0.14819	0.056477	-1.9042	-2.7188	-2.6375	-2.6708	-2.6708	-2.6646	-2.6937	-2.9875	-2.3229	-2.8083	-2.8	-2.6896	-3.0521	-2.7271	-2.6312	-2.9896	113.120	214.084	62.679	-40.785	-43.262	219.492	168.867	104.507	16.239	-99.954	114.585	204.147	-103.131	-122.070	-63.335	207.149	0.0012237	0.0010043	0.00064229	1074.2	1.4273e-05	1.9439e-05	1200.1	329.06	1.2662e-05	1.1243e-05	401.83	177.67	114.53	50.067	2.2627e-05	72.679	0.014649	0.018465	0.0051187	1130.9	0.00018692	0.00019666	1255.1	354.27	0.00018428	0.00019713	446.94	191.78	132.02	55.173	0.00019655	79.279	-23.960	222.533	-19.956	-110.360	95.290	0.177	-111.114	-105.851	-29.844	166.887	-107.148	-103.047	-101.962	-97.334	75.721	-99.892	-8191	255	
7923.998	1	1	0	0	0.2738	0.10805	0.31096	0.18667	0.18885	0.07562	0.14535	0.22913	0.19134	0.12137	0.21876	0.07566	0.12587	0.10369	0.15748	0.055042	-1.8875	-2.7417	-2.6771	-2.4375	-2.9229	-2.5062	-2.4729	-3.0187	-2.5854	-2.8479	-2.8729	-2.5625	-3.0146	-2.925	-2.525	-2.9625	152.199	192.018	192.736	-45.286	227.182	76.247	88.002	194.103	29.233	-105.906	197.470	223.042	167.393	160.319	154.271	-53.975	0.00053231	0.0016301	0.0004595	1072.5	2.021e-05	1.6159e-05	1185.2	325.56	2.6763e-05	1.5084e-05	395.16	175.03	112.63	49.506	1.1207e-05	72.42	0.014557	0.018305	0.0050674	1128.3	0.00018707	0.00019555	1246.3	351.49	0.00018288	0.00019415	442.08	189.13	130.08	54.476	0.00019188	78.989	-54.124	-8.341	210.702	-110.703	124.299	-101.421	-110.990	-105.978	-109.804	-18.265	-107.039	-103.075	-101.890	-97.478	-13.667	-99.428	-8191	255	
7924.094	1	1	0	0	0.16611	0.049119	0.19398	0.32252	0.042589	0.056985	0.26097	0.19804	0.066411	0.087942	0.13489	0.14374	0.16065	0.2421	0.22272	0.32475	-1.9833	-2.6063	-2.8917	-2.5146	-2.7646	-2.7396	-2.7667	-2.9313	-2.3812	-2.6437	-3.0146	-2.5083	-2.8729	-2.8646	-2.5938	-2.9854	-22.294	30.107	72.195	226.152	86.174	-109.372	138.721	-76.851	41.654	-12.465	228.228	220.151	202.785	193.458	-27.485	156.757	0.00067581	0.0019086	0.00032733	1065.9	1.2379e-05	1.563e-05	1176.8	327.83	4.4473e-06	1.6267e-05	394.86	175.39	112.23	49.631	3.1841e-05	72.371	0.014502	0.018476	0.0051207	1127.1	0.00019152	0.0002012	1244.9	353.3	0.00018677	0.00019601	440.96	188.13	128.66	54.2	0.00017871	78.339	-31.756	35.092	24.138	-110.606	-86.397	28.996	-110.950	-105.608	38.456	61.935	-107.520	-102.591	-101.785	-97.340	110.453	-99.166	-8191	255	
7924.190	1	1	0	0	0.19105	0.27972	0.12232	0.17596	0.14829	0.29926	0.06787	0.12505	0.11032	0.35609	0.13425	0.22647	0.15148	0.27091	0.14802	0.089611	-2.1417	-2.5563	-2.8375	-2.5854	-2.7479	-2.7854	-2.7375	-3.0229	-2.475	-2.4854	-2.9396	-2.4458	-2.7604	-2.9458	-2.3979	-3.0729	16.165	-13.868	-23.164	170.783	183.238	116.231	48.121	52.989	102.151	-91.440	128.603	5.774	102.301	208.365	-115.904	-40.632	0.00051457	0.00087552	0.00011477	1066.2	3.4493e-05	1.9003e-05	1181.7	326.82	3.7219e-06	1.6489e-05	394.34	176.32	113.26	49.684	8.1289e-06	72.475	0.013177	0.016605	0.0045912	1110.5	0.00017085	0.00018199	1231.8	349.26	0.00017294	0.00018346	436.43	187.71	128.56	53.885	0.00017211	77.751	7.810	55.181	94.285	-110.042	-31.377	46.662	-111.165	-105.748	72.003	43.407	-106.921	-102.917	-101.859	-97.468	82.238	-99.319	-8191	255	
7924.286	1	1	0	0	0.10376	0.24474	0.09842	0.13401	0.11224	0.19654	0.08139	0.16607	0.18142	0.13121	0.12486	0.23589	0.096308	0.40909	0.072428	0.15861	-2.1833	-2.5771	-2.9062	-2.5875	-2.7062	-3.0417	-2.5792	-3.0396	-2.4562	-2.3917	-3.1271	-2.7604	-2.9333	-3.0333	-2.3937	-2.9167	-67.098	-84.118	-117.834	210.148	-58.414	59.496	-114.568	-83.683	-67.684	-5.257	-23.085	-83.024	-37.398	187.838	136.202	205.305	0.0004587	0.0015821	0.00037954	1068.1	1.9126e-05	2.0808e-05	1187.4	326.37	1.5265e-05	7.2648e-06	397.5	177.99	114.27	50.134	1.7543e-05	73.496	0.012448	0.01534	0.0041941	1101.7	0.00015235	0.00015614	1215.5	341.54	0.0001404	0.00014673	425.75	184.51	124.67	53.116	0.00014665	77.417	-21.546	-51.816	-108.391	-110.611	71.716	55.886	-111.199	-105.604	75.684	-2.165	-106.770	-102.504	-101.951	-97.383	-13.937	-99.393	-8191	255	
7924.407	1	1	0	0	0.11817	0.23113	0.11438	0.061829	0.3324	0.050294	0.34041	0.040658	0.12042	0.25518	0.19325	0.01197	0.098387	0.22417	0.25206	0.3922	-2.2687	-2.4437	-3.0083	-2.6625	-2.7646	-2.9333	-2.5167	-2.875	-2.6396	-2.3604	-3.0646	-2.6396	-2.7896	-2.9688	-2.4	-2.9146	34.310	-76.161	219.602	-120.099	172.812	-114.564	-113.458	217.759	-67.019	40.394	-110.126	153.740	179.604	-101.278	-4.829	-119.358	0.0003207	0.0023943	0.00031577	1069.7	8.9911e-06	1.0949e-05	1187.6	330.7	1.347e-05	6.6789e-06	396.41	176	114	50.338	5.1458e-05	73.339	0.011676	0.015202	0.0043725	1117.1	0.00017467	0.00018825	1247.2	356.2	0.00019028	0.0002005	448.28	191.31	132.64	55.919	0.00021428	81.324	-17.983	-51.510	106.889	-110.009	57.659	48.585	-110.870	-106.007	147.266	21.215	-106.855	-102.682	-101.918	-97.646	106.947	-99.707	-8191	255	
7924.479	1	1	0	0	0.15295	0.17211	0.12618	0.24597	0.092922	0.10083	0.2958	0.26036	0.23523	0.18715	0.27983	0.15151	0.16478	0.11671	0.17725	0.33366	-2.4333	-2.4292	-2.9083	-2.7458	-2.6063	-2.975	-2.5938	-2.7729	-2.6896	-2.5146	-3.0208	-2.5104	-2.4938	-3.0854	-2.6667	-2.7729	125.276	104.753	10.249	183.432	-106.025	-96.173	232.581	-120.717	224.106	188.859	191.639	232.749	13.271	-2.086	70.959	113.358	0.00065532	0.0011315	0.00040819	1075.7	8.2966e-07	7.3371e-06	1178.6	329.33	1.1434e-05	9.9212e-06	394.41	175.65	112.2	50.406	1.0822e-05	72.904	0.016306	0.020652	0.0057884	1157.3	0.00021948	0.00022936	1267.9	362.31	0.00020949	0.00021494	447.47	190.55	129.84	54.895	0.00017855	78.567	-16.986	26.490	-79.379	-110.521	23.162	-28.271	-110.857	-105.590	41.994	10.180	-106.968	-102.927	-101.735	-97.434	59.957	-99.263	-8191	255	
7924.575	1	1	0	0	0.077582	0.098664	0.049442	0.030204	0.046927	0.19986	0.25028	0.21803	0.13925	0.06275	0.14278	0.14511	0.25832	0.29572	0.081328	0.19757	-2.3896	-2.6021	-2.8917	-2.8312	-2.45	-2.8875	-2.6625	-2.8563	-2.9208	-2.4375	-2.9688	-2.8604	-2.4042	-2.8646	-2.7	-2.6375	49.419	63.500	100.737	193.119	-77.641	-28.500	-84.313	211.334	-113.904	-84.881	45.656	167.556	-33.258	234.615	113.601	191.158	0.00081237	0.0016165	0.00049722	1057.8	5.3937e-05	8.9062e-06	1185.2	326.55	3.052e-05	1.9797e-05	397.36	177.35	113.3	50.842	1.6794e-05	73.862	0.012569	0.015505	0.0043353	1099.4	0.00016424	0.00017458	1232	348.93	0.00017792	0.00019101	443.86	191.58	131.97	56.116	0.00021049	81.397	-10.654	32.624	-75.744	-110.675	25.451	50.419	-111.149	-105.768	50.680	17.315	-107.418	-102.675	-102.183	-97.400	52.739	-99.660	-8191	255	
7924.671	1	1	0	0	0.049104	0.22878	0.20197	0.10198	0.080732	0.095661	0.20041	0.25989	0.14404	0.23136	0.32492	0.11188	0.17501	0.171	0.12545	0.085423	-2.4271	-2.3604	-2.9417	-2.8792	-2.3417	-3.0604	-2.6167	-2.6833	-2.8646	-2.575	-2.7854	-2.9708	-2.4042	-2.9271	-2.5687	-2.7125	153.903	66.153	-86.724	174.995	-50.426	154.264	214.478	192.387	30.418	-49.998	201.775	-97.823	161.075	214.009	51.578	-2.145	0.0012568	0.0019298	0.0010882	1071.6	3.7431e-06	3.3495e-05	1180.8	327.57	1.6592e-05	3.5784e-06	394.26	175.68	112.8	51.069	1.376e-05	73.733	0.016104	0.020708	0.0058546	1157.8	0.00022487	0.00024097	1280.1	367.39	0.00022969	0.0002467	463.05	197.69	138.11	58.365	0.00025474	84.211	-40.824	117.928	-22.057	-110.403	23.577	-41.993	-111.285	-105.627	-103.052	-62.961	-107.300	-102.484	-101.992	-97.827	74.913	-99.742	-8191	255	
7924.790	1	1	0	0	0.33774	0.25579	0.068637	0.17007	0.33347	0.034176	0.15656	0.07747	0.079598	0.11868	0.19594	0.18845	0.39057	0.17507	0.30939	0.39777	-2.4271	-2.5812	-2.725	-2.9521	-2.325	-3.0104	-2.5833	-2.6229	-2.8312	-2.3792	-2.7271	-2.9958	-2.5542	-2.7896	-2.8	-2.75	-74.893	169.496	141.283	203.388	130.730	70.275	-112.658	123.608	96.851	-112.009	-65.059	-34.480	229.633	140.254	-95.193	169.086	0.00034898	0.0020304	0.00063019	1076	2.4588e-05	1.3456e-05	1178.5	330.79	1.6191e-05	2.6455e-06	395.34	175.82	113.68	50.792	1.7877e-05	74.02	0.019186	0.024582	0.0069755	1190.1	0.00026408	0.00028238	1311.1	379.15	0.00026167	0.00027595	472.33	199.67	140.4	58.748	0.0002628	84.692	-54.410	201.995	-3.302	-110.642	-15.354	34.877	-111.258	-106.220	-19.818	220.030	-107.772	-102.734	-102.279	-98.007	54.006	-99.658	-8191	255	
7924.886	1	1	0	0	0.18803	0.13738	0.48853	0.49623	0.12097	0.16418	0.18898	0.077239	0.24209	0.17789	0.28781	0.09917	0.095266	0.30545	0.10403	0.29045	-2.6125	-2.2896	-2.6354	-3.0896	-2.5312	-2.9562	-2.8375	-2.5938	-2.9542	-2.5729	-2.7083	-2.9313	-2.6354	-2.9688	-2.7771	-2.5292	30.943	196.065	0.784	-120.595	-44.015	-53.771	213.959	25.798	231.628	65.153	121.260	-30.379	192.102	173.071	16.990	196.298	0.00049244	0.0024	8.0317e-05	1073.2	4.9503e-06	1.4816e-05	1182	330.88	4.3385e-05	1.3321e-05	397.99	176.1	113.76	51.171	2.6919e-05	73.717	0.019779	0.025175	0.0070567	1194.5	0.00026667	0.00028461	1315.8	381.17	0.00026913	0.00028635	478.67	202.06	142.38	59.412	0.00027371	85.421	-74.079	-53.325	122.156	-110.615	-105.333	92.996	-111.009	-106.195	-65.760	77.149	-107.141	-103.338	-102.606	-98.042	98.533	-100.109	-8191	255	
7924.982	1	1	0	0	0.064284	0.17245	0.031116	0.29118	0.16967	0.13538	0.16942	0.11732	0.22317	0.14473	0.25619	0.072114	0.35701	0.2958	0.094697	0.036118	-2.5979	-2.5792	-2.4958	-3.0875	-2.3312	-2.7875	-2.8896	-2.5438	-2.8771	-2.8	-2.7667	-3.0687	-2.3396	-2.8396	-2.8417	-2.6188	96.967	40.895	202.810	220.262	218.576	177.850	141.411	157.989	219.380	174.896	142.347	-38.492	211.503	-103.621	200.400	68.869	0.00091406	0.0014524	0.00021324	1069.9	2.468e-05	7.8451e-06	1172.3	330.9	1.539e-05	2.7577e-05	396.89	176.58	113.79	51.081	7.4553e-06	73.904	0.02039	0.025955	0.0072776	1196.7	0.00027396	0.00029333	1317.3	383.32	0.00027891	0.00029664	481.19	203.27	144.56	60.153	0.00029301	86.26	-42.999	-76.186	-18.261	-110.490	-55.434	-119.883	-111.313	-105.618	-103.916	11.075	-107.386	-103.055	-102.441	-97.808	-96.929	-100.271	-8191	255	
7925.078	1	1	0	0	0.12235	0.15439	0.14062	0.14895	0.13642	0.3178	0.31519	0.27764	0.18783	0.20411	0.1401	0.18259	0.35001	0.17643	0.30512	0.35091	-2.5	-2.7104	-2.5708	-3.1896	-2.6104	-2.6167	-3.0229	-2.6604	-3.0875	-2.6229	-2.6542	-3.1896	-2.5771	-2.6813	-2.8458	-2.3854	231.910	32.465	-33.307	176.239	133.738	26.155	184.906	230.836	-94.319	-58.439	157.340	140.300	-89.692	-94.662	157.534	205.989	0.0015401	0.0030064	0.00061787	1068.3	1.0317e-05	2.2593e-05	1174.2	334.86	2.4591e-05	2.526e-05	398.52	175.93	114.45	51.176	1.9219e-06	74.012	0.021865	0.027959	0.0077791	1210	0.00029098	0.0003099	1327.8	389.09	0.00029182	0.00030936	487.6	205.12	146.91	60.765	0.00030175	86.925	-14.799	-69.344	-19.036	-110.364	176.992	11.108	-111.348	-106.097	-51.100	-92.868	-107.846	-103.426	-102.193	-98.267	-97.048	-100.264	-8191	255	
7925.174	1	1	0	0	0.10967	0.1262	0.15553	0.030453	0.073013	0.15276	0.28912	0.29026	0.13936	0.15632	0.31723	0.13987	0.21063	0.20655	0.16827	0.14344	-2.6271	-2.625	-2.5125	-2.8833	-2.5687	-2.7604	-2.9958	-2.475	-2.7521	-2.7792	-2.6729	-2.9229	-2.7396	-2.7125	-2.8667	-2.5667	66.467	153.212	59.551	202.737	147.122	-79.519	177.697	-110.691	142.458	-87.810	232.517	13.600	168.854	205.176	84.393	135.150	0.0011796	0.00084494	0.0010714	1079.4	2.0618e-05	1.9495e-05	1176	333.45	2.3569e-05	9.5236e-06	398.41	175.33	114.32	51.328	3.0114e-05	73.676	0.022483	0.028362	0.0078573	1218.3	0.00029336	0.00031144	1331	390.23	0.00029117	0.00030987	488.87	204.94	146.49	60.61	0.00029379	86.458	-47.420	45.356	112.356	-110.767	141.945	74.668	-111.267	-106.090	-72.170	38.862	-107.411	-103.335	-102.344	-97.966	42.459	-100.272	-8191	255	
7925.271	1	1	0	0	0.1635	0.23482	0.11123	0.09378	0.10855	0.032753	0.33218	0.28215	0.090642	0.33988	0.067725	0.32524	0.10296	0.022814	0.11936	0.40172	-2.1854	-2.5958	-2.4021	-3.0542	-2.5083	-2.3875	-2.9313	-2.6958	-2.7396	-2.8479	-2.5292	-2.9042	-2.7812	-2.5146	-2.9688	-2.8375	179.259	49.513	-89.574	173.369	15.287	15.183	193.416	200.207	-1.646	150.784	155.407	183.727	183.956	-6.203	37.384	150.325	0.00077953	0.003462	0.00024247	1064.3	5.1496e-05	1.8886e-05	1182.9	334.32	3.2357e-05	1.6286e-05	394.67	176.91	115.83	51.284	2.5418e-05	73.857	0.02174	0.027378	0.0075786	1205.4	0.00028291	0.00029906	1327	387.63	0.00028106	0.00029405	481.83	203.22	144.58	59.906	0.00027503	85.26	-25.511	13.734	-101.874	-110.364	80.138	135.176	-111.081	-106.230	97.377	-18.311	-107.679	-102.989	-102.067	-98.036	49.920	-99.892	-8191	255	
7925.391	1	1	0	0	0.099846	0.1992	0.15179	0.28074	0.18499	0.2018	0.11992	0.21423	0.32772	0.023599	0.089058	0.30478	0.23353	0.15715	0.1844	0.16759	-2.2896	-2.8104	-2.475	-2.7583	-2.8208	-2.4646	-3.0771	-2.725	-2.6292	-2.7896	-2.5312	-2.9417	-2.7792	-2.4854	-2.9646	-2.7771	112.994	116.460	186.204	139.349	-53.088	-0.422	171.543	118.037	217.928	-21.526	135.676	204.989	148.532	185.986	157.437	171.362	0.00067016	0.0022905	0.0004072	1075	3.3379e-05	1.2448e-05	1179.2	332.46	2.683e-05	6.6866e-06	397.86	176.74	114.8	50.851	2.6057e-05	73.078	0.020191	0.025301	0.0069935	1190.5	0.00025937	0.00026999	1297.3	376.6	0.00025016	0.00026236	470.25	199.37	140.89	58.597	0.0002621	84.345	-62.595	-107.890	-50.859	-110.476	-88.130	218.163	-110.874	-105.944	24.678	190.262	-107.551	-102.975	-102.081	-97.506	-96.544	-100.010	-8191	255	
7925.487	1	1	0	0	0.17382	0.10705	0.34206	0.1789	0.15522	0.36771	0.27237	0.24484	0.12161	0.10096	0.21301	0.21329	0.17945	0.18976	0.32696	0.06625	-1.9729	-2.7458	-2.4271	-2.8375	-2.6771	-2.4938	-3.0271	-2.6896	-2.6229	-2.8063	-2.5958	-3.0125	-2.7458	-2.3479	-2.8667	-2.8229	84.038	74.702	146.978	153.381	103.209	19.936	233.676	105.395	-22.238	-98.400	126.219	179.179	172.009	214.809	140.588	173.996	0.00058582	0.0015746	0.00072834	1078.6	2.4787e-05	2.7702e-05	1198.6	342.21	4.6601e-05	3.7282e-05	405.68	180.97	118.86	52.61	3.2134e-05	75.481	0.020152	0.026008	0.0074501	1216	0.00029489	0.00031948	1358.7	401.74	0.00031602	0.00033457	508.16	213.91	154.74	63.602	0.00033877	91.074	-41.799	-30.762	-20.365	-110.230	-41.336	-8.121	-111.034	-106.161	73.779	216.887	-107.949	-103.372	-102.545	-98.392	31.531	-100.276	-8191	255	
7925.583	1	1	0	0	0.090488	0.084327	0.026742	0.39131	0.15004	0.073781	0.22133	0.18152	0.097145	0.10813	0.31816	0.032786	0.25747	0.31277	0.24851	0.31945	-2.2062	-3.0104	-2.3958	-2.8583	-2.8937	-2.4083	-3.025	-2.95	-2.6792	-2.8458	-2.5875	-2.6792	-2.9271	-2.5708	-2.7604	-2.8271	-48.890	-67.798	146.377	-96.853	70.266	91.416	92.804	178.846	-22.903	72.041	202.150	-25.505	165.148	-81.747	183.955	220.618	0.0006849	0.00055438	0.0004612	1104.6	3.4484e-05	2.0352e-05	1218.9	355.14	4.2234e-05	1.6477e-05	423.1	184.49	123.69	54.986	2.2101e-05	77.382	0.025932	0.033559	0.0096267	1303.8	0.00037635	0.00040667	1450.1	438.5	0.00040196	0.00042542	558.14	230.18	169.24	69.021	0.00040845	96.902	-12.789	-100.448	-25.104	-110.651	63.179	60.292	-111.091	-106.785	63.048	158.656	-108.303	-103.265	-103.426	-98.865	10.267	-100.776	-8191	255	
7925.702	1	1	0	0	0.13925	0.049021	0.15609	0.19331	0.18406	0.10345	0.094236	0.39532	0.11847	0.1658	0.22948	0.10854	0.16079	0.23622	0.19519	0.1184	-2.2396	-2.9833	-2.5521	-2.9417	-2.8875	-2.4542	-3.0375	-2.9229	-2.3583	-2.8396	-2.8271	-2.5708	-2.9625	-2.675	-2.6562	-2.9	-17.800	-9.851	159.981	178.779	213.265	42.074	67.123	206.815	-32.532	137.602	215.346	-112.602	37.071	155.446	30.619	-36.349	0.00063708	0.0024173	0.00040048	1102.1	4.0541e-05	1.2758e-05	1215.2	351.29	1.7972e-05	1.4683e-05	417.25	184.72	123.29	54.472	3.8833e-05	77.776	0.02926	0.036416	0.01006	1303.5	0.00037111	0.00039438	1436.4	430.23	0.00038226	0.00040692	548.45	227.65	166.82	68.034	0.00039789	96.368	-32.609	168.548	-7.630	-110.240	-63.370	31.040	-110.921	-106.217	215.299	13.022	-107.890	-103.368	-102.647	-98.870	68.620	-100.919	-8191	255	
7925.774	1	1	0	0	0.2673	0.18242	0.16176	0.11268	0.067627	0.13393	0.032508	0.21458	0.20445	0.14994	0.069543	0.13311	0.12785	0.18896	0.22002	0.25209	-2.2208	-3.0771	-2.6042	-2.6646	-2.9771	-2.7542	-3.0417	-2.9854	-2.6312	-3.0708	-2.8438	-2.6208	-3.0271	-2.55	-2.8208	-2.9333	145.995	99.727	-96.037	-119.885	54.510	-37.173	-19.774	107.030	43.040	2.035	103.336	29.897	231.822	221.397	227.123	174.522	0.001382	0.002122	0.00045492	1102.7	2.4019e-05	3.0564e-05	1215.9	355.9	3.0172e-05	2.2027e-05	419.2	184.81	123.26	54.569	4.3702e-05	78.66	0.029022	0.036937	0.010265	1317.9	0.0003848	0.0004123	1450.8	437.34	0.00039974	0.00042685	557.69	230.21	170.08	69.134	0.00041958	98.03	-5.785	-33.005	-95.309	-110.150	95.689	138.151	-110.851	-106.542	-43.939	155.677	-108.283	-103.689	-102.920	-98.870	226.671	-101.201	-8191	255	
7925.870	1	1	0	0	0.16262	0.13484	0.34285	0.37186	0.099676	0.030402	0.058601	0.12695	0.089837	0.28906	0.20731	0.20433	0.065447	0.18163	0.078447	0.1789	-2.0021	-2.7896	-2.6875	-2.8229	-3.1813	-2.6604	-2.9	-3.2292	-2.5938	-3.0104	-2.7667	-2.6562	-3.025	-2.6333	-2.5833	-2.9708	141.075	-71.507	-57.205	205.665	96.878	72.455	-86.215	173.078	-12.105	108.545	201.912	-101.375	-63.104	-30.000	-118.219	174.373	0.00052583	0.0033456	0.00062188	1107	1.9044e-05	1.253e-05	1210.6	348.8	2.907e-05	1.0071e-05	410.42	182.97	121.51	53.551	2.5921e-05	76.899	0.03101	0.039659	0.010994	1338.9	0.00039763	0.00041682	1445.2	429.57	0.00037244	0.00038674	532.24	221.94	161.13	65.893	0.00037169	94.118	-52.116	-63.194	42.488	-110.612	-32.193	-87.264	-110.957	-106.439	-93.908	45.817	-107.678	-103.151	-102.693	-98.221	203.095	-100.782	-8191	255	
7925.966	1	1	0	0	0.061867	0.18107	0.11846	0.23509	0.15929	0.14079	0.12999	0.10961	0.16512	0.03986	0.26488	0.23636	0.1986	0.083777	0.20073	0.09605	-1.9396	-2.8375	-2.8271	-2.6813	-2.8708	-2.6417	-2.6083	-3.0604	-2.6833	-2.9604	-2.7417	-2.6792	-3.0292	-2.7417	-2.5104	-3.1146	175.883	231.742	234.765	168.869	83.202	97.664	203.411	125.999	6.674	-10.835	124.566	190.490	161.032	137.353	204.289	5.855	0.00055087	0.0020425	0.0003623	1110.7	1.4843e-05	4.7632e-05	1223.8	356.67	1.6115e-05	4.0057e-05	421.04	186.69	124.71	55.31	4.7594e-05	78.844	0.028224	0.036534	0.010337	1327.2	0.0004025	0.00043047	1472.6	445.06	0.0004189	0.00044792	568.04	234.07	173.96	70.628	0.00044303	100.37	14.819	-53.107	-101.567	-110.320	-102.131	62.315	-111.218	-106.341	-0.563	-83.077	-108.067	-103.293	-102.518	-98.673	-1.695	-100.948	-8191	255	
7926.087	1	1	0	0	0.21604	0.1996	0.20895	0.18664	0.1222	0.080294	0.26033	0.29601	0.09782	0.15001	0.10122	0.039806	0.22995	0.19107	0.14868	0.13663	-2.0771	-2.8604	-2.675	-2.6063	-2.8063	-2.6583	-2.55	-3.0479	-2.6312	-2.6896	-2.8604	-2.675	-2.9771	-2.8354	-2.5021	-3.1229	-108.275	25.811	179.157	107.923	193.014	-34.291	78.113	173.609	-15.084	-85.966	227.495	55.859	173.787	186.260	-86.643	71.149	0.00151	0.0050721	0.00015567	1119.1	2.938e-05	1.8818e-05	1238.9	365.89	4.4929e-05	2.7106e-05	431.14	188.5	127.49	57.773	1.4598e-05	81.776	0.033044	0.04258	0.011986	1382.5	0.00045553	0.00049251	1534.1	471.32	0.0004885	0.00052761	610.5	249.77	190.57	77.26	0.0005495	109.62	-6.320	-9.853	206.052	-110.518	-14.049	-45.873	-111.254	-106.797	209.221	-39.106	-108.199	-104.036	-103.512	-99.660	-78.678	-101.680	-8191	255	
7926.183	1	1	0	0	0.15577	0.13411	0.17844	0.21126	0.070015	0.30633	0.10185	0.06383	0.1702	0.19169	0.14611	0.45875	0.32983	0.10519	0.12446	0.17615	-2.1271	-2.8021	-2.7458	-2.8417	-2.8771	-2.7229	-2.5729	-3.0312	-2.6292	-2.9083	-3.0292	-2.6292	-2.9292	-2.6583	-2.5708	-3.1854	-118.166	149.406	-95.377	215.999	73.504	-93.477	178.965	187.235	-14.242	108.412	137.976	200.219	112.228	185.285	-88.061	234.347	0.00055831	0.0005298	0.00023369	1125.1	5.051e-07	3.2794e-05	1229	364.86	4.9677e-05	2.262e-05	424.63	186.64	126.04	56.58	4.1741e-05	79.767	0.040975	0.05222	0.014404	1456.3	0.00052124	0.00054454	1556.7	476.08	0.00049333	0.00052025	598.52	244.16	185.44	74.925	0.00051288	105.85	23.359	13.827	179.346	-110.821	170.305	160.742	-110.925	-106.719	-34.784	-1.674	-108.045	-103.635	-103.407	-99.600	125.973	-101.375	-8191	255	
7926.279	1	1	0	0	0.11128	0.18387	0.08466	0.26974	0.059746	0.06527	0.2409	0.22474	0.23606	0.20763	0.302	0.26195	0.2574	0.3767	0.027714	0.22351	-2.2604	-2.5854	-3.1292	-2.5521	-2.8521	-2.8521	-2.5396	-3.1854	-2.6083	-2.6354	-3.1063	-2.7375	-2.8812	-2.8833	-2.4313	-3.0333	103.422	32.968	169.038	157.763	211.549	45.872	178.206	167.811	-53.331	-74.079	168.038	213.984	225.613	-124.649	99.029	150.329	0.00032893	0.00049756	0.00097697	1137.4	1.9478e-05	3.6216e-05	1244.3	379.55	4.2021e-05	3.9106e-05	444.49	192.98	131.79	59.384	2.2289e-05	83.177	0.038964	0.049732	0.014067	1461	0.00054936	0.00058972	1623	510.18	0.00058119	0.00062089	656.05	265.27	204.49	82.151	0.00061406	115.19	10.981	-94.728	-70.565	-110.394	170.303	135.816	-111.020	-107.298	40.558	4.906	-108.467	-104.055	-103.313	-100.095	142.696	-102.023	-8191	255	
7926.351	1	1	0	0	0.27718	0.10497	0.056706	0.060325	0.103	0.2552	0.18319	0.09376	0.13323	0.1667	0.22996	0.20482	0.42008	0.10794	0.11073	0.076839	-2.0854	-2.625	-2.9521	-2.7417	-2.6333	-2.8604	-2.6312	-2.8771	-2.8125	-2.4771	-3.0229	-2.7229	-2.7438	-3.0938	-2.5396	-3.0187	164.285	34.951	-4.099	-38.193	190.520	43.052	-81.089	212.909	8.385	-81.883	199.383	-100.874	-105.657	150.305	-4.244	-48.840	0.0014654	0.0025089	0.00055341	1141.3	1.8336e-05	8.7487e-06	1233.3	375.07	3.129e-05	2.5847e-05	433.13	188.73	125.37	56.663	1.3961e-05	79.224	0.045233	0.056795	0.015641	1504.2	0.00057494	0.0005981	1615.3	499.96	0.00053683	0.00055288	612.78	247.53	184.82	74.083	0.00049149	103.84	5.613	-100.029	-100.877	-110.626	-55.051	-120.469	-111.174	-106.830	92.225	5.066	-108.025	-103.917	-102.931	-99.307	-83.804	-101.206	-8191	255	
7926.472	1	1	0	0	0.18717	0.086731	0.04981	0.38652	0.083135	0.11066	0.12951	0.14735	0.22164	0.10387	0.11363	0.098731	0.22971	0.040353	0.22928	0.13881	-2.1813	-2.375	-2.9583	-2.7438	-2.6479	-3.0625	-2.675	-2.7125	-2.775	-2.6063	-2.9771	-2.8125	-2.6396	-3.0833	-2.5625	-2.8125	185.177	-64.441	212.442	203.294	105.409	114.403	158.415	225.040	201.052	211.194	191.434	-22.197	-109.907	18.929	27.202	139.471	0.0010342	0.0016974	0.00043446	1125.2	2.9601e-05	1.6217e-05	1237.5	366.1	5.7398e-05	3.3142e-05	430.86	187.81	125.83	55.944	3.7809e-05	79.319	0.036024	0.04555	0.0127	1408.1	0.00047803	0.00050348	1540	471.36	0.00047338	0.00049585	593.08	242.52	180.31	72.683	0.00046376	101.79	14.948	-21.244	6.742	-110.406	135.275	-115.182	-111.074	-106.743	104.500	78.194	-107.898	-103.686	-103.174	-99.160	226.444	-101.209	-8191	255	
7926.568	1	1	0	0	0.17771	0.073771	0.15501	0.15816	0.11792	0.13406	0.18345	0.35382	0.032237	0.071783	0.097798	0.2292	0.13559	0.19839	0.22986	0.25713	-2.3792	-2.3937	-2.8688	-2.6604	-2.6604	-2.8625	-2.5042	-2.6708	-2.7188	-2.4062	-3.0292	-2.7896	-2.6542	-2.9875	-2.3937	-2.7708	209.445	170.397	-71.588	208.234	209.117	174.546	195.113	151.155	143.301	19.878	134.528	225.715	157.205	225.001	-49.520	134.402	0.00051896	0.0028278	0.00024257	1124.7	1.2285e-05	1.8757e-05	1228.8	360	1.5388e-05	4.4934e-06	426.31	186.07	124.99	54.766	2.7368e-05	78.311	0.033747	0.042516	0.011872	1376.1	0.00043893	0.00046205	1502.4	457.16	0.00044383	0.00047086	580.92	237.9	177.13	71.289	0.00045946	100.57	-55.228	-97.097	39.112	-110.675	17.406	226.033	-111.396	-106.386	228.987	-117.216	-108.574	-103.865	-103.075	-99.148	116.121	-101.358	-8191	255	
7926.664	1	1	0	0	0.12521	0.35796	0.097957	0.2128	0.25701	0.21657	0.41494	0.14227	0.14804	0.21222	0.16884	0.2013	0.18386	0.18267	0.19214	0.29036	-2.1396	-2.3125	-2.8458	-2.8563	-2.6	-2.9562	-2.7833	-2.6979	-2.8438	-2.4313	-2.9958	-2.9875	-2.5583	-2.925	-2.4813	-2.7125	-11.134	-70.647	-20.752	-86.252	42.796	200.551	203.276	-105.003	-107.048	226.993	84.723	-56.559	-4.564	206.848	221.515	213.551	0.0011368	0.0022894	0.0011428	1113	1.6642e-05	2.3478e-05	1217.8	352.73	2.2894e-05	2.4575e-05	412.37	180.94	119.73	53.239	2.2377e-05	75.853	0.03316	0.041204	0.011265	1344.6	0.00039802	0.00040891	1443.3	429.44	0.00036752	0.0003809	528.71	219.41	159.09	65.114	0.0003493	91.673	-39.896	195.374	126.967	-110.604	233.235	206.154	-111.471	-106.165	184.698	-56.723	-107.971	-103.078	-102.101	-98.547	-111.409	-100.722	-8191	255	
7926.784	1	1	0	0	0.17548	0.13716	0.14525	0.21043	0.17408	0.18757	0.032912	0.46042	0.35476	0.27953	0.079748	0.22767	0.12932	0.19857	0.12178	0.079497	-2.5604	-2.5771	-2.7208	-2.85	-2.4729	-2.8708	-2.6229	-2.8042	-2.9313	-2.3771	-2.8229	-2.9708	-2.3917	-2.9896	-2.7542	-2.6979	20.361	82.794	-5.984	201.792	-56.464	-17.395	221.040	225.729	-75.068	-24.541	221.560	119.639	-117.574	223.350	167.485	-82.009	0.00062956	0.0027831	0.00089258	1098.7	1.9113e-05	2.9682e-05	1215.7	346.39	2.9724e-05	2.054e-05	405.54	180.24	119.08	52.991	4.7015e-05	75.523	0.025387	0.031897	0.0088477	1266	0.00031899	0.00033259	1376.4	402.93	0.00029726	0.00030758	495.9	209.42	149.32	61.831	0.00028742	87.348	-1.844	-120.480	-52.867	-110.508	120.614	96.767	-111.350	-106.242	42.604	68.934	-107.789	-103.016	-102.389	-98.100	-21.450	-100.132	-8191	255	
7926.879	1	1	0	0	0.087509	0.21116	0.068428	0.3049	0.21262	0.22069	0.15567	0.29677	0.41823	0.015657	0.12913	0.1713	0.12078	0.14446	0.18483	0.034536	-2.6021	-2.3771	-2.6667	-2.7521	-2.3438	-2.8958	-2.9188	-2.3771	-2.9292	-2.5271	-2.775	-3	-2.7521	-2.875	-2.6229	-2.8396	44.669	212.244	115.178	205.322	-67.671	-59.542	153.493	-106.653	54.010	209.043	191.816	92.919	192.344	218.774	153.527	229.935	0.00082676	0.0012886	0.0002581	1103.3	1.1905e-05	2.0102e-05	1209.8	343.17	9.6349e-06	7.4851e-06	406.98	183.66	119.89	53.072	1.1803e-05	75.173	0.020809	0.026323	0.0072986	1224.8	0.00026609	0.00028063	1340.3	389.41	0.00026075	0.0002762	485.18	207.76	147.33	61.512	0.00027643	87.308	-46.499	105.680	-104.661	-110.514	145.316	-79.715	-111.146	-105.774	166.301	70.206	-107.725	-103.170	-102.351	-98.206	178.927	-100.357	-8191	255	
7926.975	1	1	0	0	0.20031	0.085915	0.036714	0.24622	0.13452	0.10867	0.18155	0.15876	0.083298	0.16933	0.24853	0.20315	0.15043	0.28312	0.078384	0.24773	-2.5229	-2.5792	-2.7687	-3.1792	-2.4188	-2.9083	-2.9917	-2.6479	-2.8042	-2.6292	-2.6646	-2.9313	-2.2833	-2.9354	-2.7583	-2.5917	112.659	21.744	15.734	126.493	66.916	-21.078	-67.920	180.276	86.333	145.661	210.400	156.602	172.335	210.302	-76.549	195.985	0.0005812	0.0022058	0.0010405	1107.1	2.9912e-05	7.3804e-06	1215.8	344.3	2.9209e-05	7.5957e-06	408.86	182.31	120.12	52.721	2.5016e-05	74.433	0.020801	0.026728	0.0075124	1236.9	0.00028265	0.0002987	1352.9	392.88	0.0002717	0.00028541	487.95	206.41	146.81	60.757	0.00027225	86.123	-46.968	-36.465	-54.442	-110.188	18.725	30.663	-111.030	-105.775	7.176	57.129	-107.673	-103.062	-102.583	-97.743	37.181	-100.274	-8191	255	
7927.071	1	1	0	0	0.11242	0.40129	0.18047	0.045556	0.15694	0.14346	0.084698	0.1651	0.30632	0.14212	0.29835	0.28486	0.18805	0.086611	0.09111	0.24303	-2.325	-2.5021	-2.7	-2.8792	-2.6667	-2.8875	-2.9042	-2.4688	-2.7167	-2.7896	-2.7333	-3.0146	-2.5396	-2.8292	-3.0479	-2.7708	8.141	91.083	65.483	-105.857	-113.021	132.197	68.297	125.592	52.426	32.673	133.201	234.397	-121.097	-14.894	226.613	147.167	0.00067719	0.0013299	8.3536e-05	1106.4	6.3268e-06	1.8067e-05	1212.7	346.09	3.1968e-05	2.2639e-05	406.8	181.21	119.15	52.627	2.5518e-05	74.84	0.020535	0.026518	0.0074337	1234	0.00028337	0.00030443	1360.9	397.05	0.00028816	0.00030411	496.11	208.77	149.62	61.766	0.0002883	87.101	-28.811	-70.717	220.114	-110.323	89.710	-102.185	-111.406	-106.078	47.583	225.540	-107.698	-103.169	-101.955	-98.081	65.762	-100.195	-8191	255	
7927.167	1	1	0	0	0.17087	0.10264	0.14795	0.16003	0.047963	0.15261	0.22459	0.1268	0.10139	0.08876	0.19047	0.086451	0.27108	0.28232	0.2568	0.012512	-2.5083	-2.7479	-2.5958	-3.1	-2.5917	-2.7354	-2.8937	-2.4667	-2.8667	-2.8333	-2.5625	-2.9375	-2.6312	-2.7479	-2.8729	-2.5125	232.524	38.967	171.838	-22.378	164.804	-62.654	156.748	184.903	20.620	226.890	-50.132	-105.929	19.168	-97.391	155.934	72.528	0.00065078	0.0021224	0.00057707	1101.7	1.7039e-05	2.2594e-05	1209.1	343.44	2.9198e-05	5.0167e-05	410.02	180.09	118.9	53.237	2.2112e-05	75.91	0.021519	0.027381	0.0075851	1235.8	0.00028671	0.00030863	1359.2	398.95	0.00029548	0.00031233	501.06	210.61	152.24	63.016	0.00031092	89.312	-30.504	-63.438	-76.523	-110.610	-53.747	206.859	-111.206	-105.942	189.822	141.520	-107.723	-103.251	-102.280	-98.178	6.565	-100.230	-8191	255	
7927.263	1	1	0	0	0.055272	0.059413	0.2549	0.18484	0.08444	0.2816	0.19646	0.26667	0.038329	0.11525	0.32144	0.21851	0.17771	0.28063	0.2433	0.10802	-2.3354	-2.4958	-2.475	-2.9792	-2.4958	-2.7521	-3.1396	-2.5896	-2.7271	-2.75	-2.4583	-3.0854	-2.6958	-2.7167	-2.8625	-2.5396	16.358	101.319	81.510	128.201	85.571	56.626	147.256	186.840	-12.619	-13.432	141.605	-89.435	-87.959	203.838	3.107	214.628	0.0010726	0.0034641	0.00017686	1108.3	1.6747e-05	2.2188e-05	1218.1	345.44	3.8944e-05	1.6468e-05	410.37	182.84	121	53.573	5.7625e-05	75.649	0.023477	0.029757	0.0082697	1262.4	0.00031281	0.00033035	1385.2	407.97	0.00031304	0.00032864	508.07	213.37	154.44	63.428	0.00030554	88.974	1.945	-8.400	155.101	-110.415	60.274	95.743	-111.202	-106.549	-49.427	212.119	-107.556	-103.141	-102.555	-98.107	-17.326	-100.527	-8191	255	
7927.384	1	1	0	0	0.15572	0.23855	0.23865	0.080693	0.22839	0.081103	0.18625	0.083311	0.26683	0.22548	0.2078	0.1609	0.21167	0.085919	0.29918	0.052296	-2.2146	-2.8146	-2.3417	-2.8646	-2.6021	-2.5583	-3.0229	-2.5667	-2.6792	-2.9062	-2.3792	-2.9542	-2.7687	-2.6896	-2.8688	-2.6729	115.761	132.330	123.128	213.177	-105.143	234.637	64.563	126.950	163.136	-8.278	223.697	230.574	192.098	186.222	-73.858	202.164	0.00084363	0.0037508	0.00089016	1109.6	1.0214e-05	2.5164e-05	1208.9	344.77	3.8457e-05	2.8823e-05	403.8	182.28	119.95	52.859	1.201e-05	74.794	0.022392	0.027933	0.0076774	1243.4	0.00028403	0.00029668	1349.7	393.87	0.00027265	0.0002849	486.13	206.26	147.36	60.923	0.00027191	85.912	-40.021	213.503	59.407	-110.696	-56.141	11.880	-111.290	-105.864	72.870	57.835	-107.303	-103.174	-102.346	-97.850	100.397	-100.348	-8191	255	
7927.480	1	1	0	0	0.26658	0.096193	0.11533	0.13134	0.098485	0.073056	0.037973	0.19849	0.11251	0.15257	0.23232	0.071341	0.33553	0.27068	0.27179	0.17257	-2.1958	-2.7542	-2.525	-2.8417	-2.9667	-2.3875	-3.0958	-2.6688	-2.6542	-2.9417	-2.5646	-2.7958	-2.7313	-2.5521	-3.0563	-2.7354	34.826	96.801	10.175	113.349	-2.284	-30.880	68.425	47.840	211.353	137.682	181.835	179.219	194.725	170.363	164.662	-105.350	0.00086882	0.0028777	0.0011443	1103.9	2.9019e-05	2.759e-05	1209.2	345.77	2.4763e-05	5.6077e-06	409.95	181.77	120.9	53.467	1.8213e-05	75.452	0.020374	0.025841	0.0072865	1234.2	0.00028419	0.00030161	1360.1	400.09	0.00029803	0.00031651	503.98	212.9	155.16	63.742	0.0003276	90.502	-63.834	15.300	195.934	-110.522	-66.426	64.457	-111.029	-106.145	45.594	199.397	-107.592	-103.355	-102.509	-98.440	94.536	-100.502	-8191	255	
7927.576	1	1	0	0	0.29271	0.084237	0.023771	0.17341	0.12608	0.29793	0.24332	0.28944	0.12376	0.080037	0.065907	0.45251	0.016923	0.27037	0.29758	0.027704	-2.1521	-2.8917	-2.4542	-3.1792	-2.8521	-2.3521	-3.1063	-2.8688	-2.5667	-3.0542	-2.5417	-2.8937	-2.7604	-2.55	-2.8833	-2.7792	59.485	101.408	219.699	-111.933	3.498	153.954	200.648	159.715	100.181	-64.912	207.977	204.883	164.967	-43.524	81.841	193.551	0.00074872	0.0022685	0.0010678	1110.2	4.7408e-05	2.8327e-05	1215.7	349.58	1.0968e-05	2.8095e-05	410.67	182.24	120.69	53.515	5.0178e-05	74.952	0.024496	0.030764	0.0087072	1276.1	0.00032622	0.00034195	1393.4	413.66	0.00032382	0.00033902	512.96	214.35	154.95	63.484	0.00031171	88.34	-16.650	-52.703	-5.742	-110.448	-45.077	-18.331	-110.795	-106.090	41.985	31.549	-107.484	-103.105	-102.609	-98.294	-38.813	-100.373	-8191	255	
7927.648	1	1	0	0	0.079853	0.14497	0.18485	0.19261	0.28981	0.07841	0.21407	0.17523	0.28035	0.095866	0.079414	0.35153	0.4079	0.35828	0.28586	0.10531	-2.0708	-2.9313	-2.4583	-2.9333	-2.9188	-2.3854	-3.0833	-2.7167	-2.5708	-2.9396	-2.7354	-2.8479	-3.0312	-2.4646	-2.6979	-2.9146	76.298	171.827	97.840	213.449	122.311	80.383	201.762	-120.933	160.336	-102.995	-79.634	164.529	-113.376	167.446	118.379	125.739	0.00048286	0.0012361	0.0002626	1104.9	4.1604e-05	2.4056e-05	1208.9	344.42	1.2848e-05	1.129e-05	406.7	181.14	120.05	53.102	3.0404e-05	75.609	0.022194	0.02744	0.007549	1230.4	0.00026838	0.00028039	1340.3	393.04	0.00026589	0.00027851	485.56	206.95	148.7	62.048	0.00030137	88.878	-49.566	-77.227	180.481	-110.470	-16.353	46.926	-111.126	-106.196	182.330	-64.005	-107.529	-103.072	-102.454	-97.965	18.957	-100.619	-8191	255	
7927.744	1	1	0	0	0.2288	0.13074	0.10499	0.16734	0.28281	0.13128	0.23868	0.15858	0.27372	0.16384	0.25039	0.20388	0.072018	0.46802	0.18556	0.28809	-1.9958	-2.9729	-2.6125	-2.6625	-2.9188	-2.3563	-2.8167	-2.7604	-2.5312	-2.9062	-2.8688	-2.6604	-2.8417	-2.4875	-2.7833	-2.925	-45.986	-96.197	-72.313	174.933	109.116	199.124	218.226	116.616	-54.471	-16.545	131.674	230.230	59.737	206.894	103.296	129.688	0.00093987	0.0012825	0.00078246	1114.6	3.2153e-05	2.9103e-06	1221.3	351.75	4.9105e-05	7.0604e-06	411.03	180.8	119.99	53.234	6.3081e-06	75.254	0.023437	0.030239	0.0086541	1283.1	0.00033401	0.00035711	1408	416.68	0.00032991	0.00034338	512	213.42	153.68	63.508	0.00032128	89.378	-67.914	92.215	178.731	-110.340	-52.413	142.538	-111.231	-106.151	13.248	-3.294	-107.958	-103.166	-102.640	-98.377	179.022	-100.206	-8191	255	
7927.863	1	1	0	0	0.080317	0.0072275	0.25124	0.12966	0.14446	0.068407	0.16525	0.02468	0.16991	0.24481	0.21693	0.14045	0.19231	0.26372	0.20746	0.20946	-1.9	-2.8	-2.4938	-2.6229	-2.9021	-2.725	-3.0271	-3.0479	-2.2729	-2.7229	-2.6813	-2.6188	-3.0854	-2.7604	-2.6708	-3.0583	124.000	-113.844	9.571	215.409	215.898	196.497	199.928	230.927	-52.218	-122.981	94.683	219.398	-111.016	182.067	25.859	-108.871	0.0005331	0.0034038	0.00029933	1110.6	1.9748e-05	2.053e-05	1211	349.96	3.195e-05	7.1421e-06	408.45	181.63	120.75	53.659	3.6019e-05	76.228	0.023764	0.030363	0.0085753	1271.1	0.00032136	0.00034356	1391.2	413	0.00032497	0.00034523	514.6	215.96	156.98	64.622	0.00033326	90.954	-61.388	-65.678	55.668	-110.320	217.832	76.819	-111.040	-106.207	32.038	92.127	-107.548	-103.098	-102.443	-98.377	53.686	-100.563	-8191	255	
7927.959	1	1	0	0	0.26152	0.29068	0.036811	0.056808	0.18922	0.081262	0.37017	0.27525	0.096315	0.17299	0.1555	0.068583	0.20401	0.15812	0.234	0.080597	-1.7833	-2.9667	-2.4938	-2.7625	-2.9083	-2.6583	-2.7375	-3.0938	-2.3146	-2.6875	-2.7708	-2.5979	-2.7917	-2.775	-2.6583	-3.1542	138.162	24.882	174.593	189.541	23.476	108.798	132.179	204.452	136.883	220.869	-77.055	168.309	-86.009	174.102	-33.046	97.822	0.00091847	0.0019503	0.00040768	1112.8	1.3777e-05	1.5335e-05	1216.5	349.62	6.1019e-05	2.6805e-05	415.04	183.46	121.64	54.572	5.0433e-05	76.435	0.024411	0.03087	0.0086181	1273.7	0.00031674	0.0003364	1389.6	411.43	0.00031824	0.00033882	516.36	216.4	157.17	64.976	0.00033106	91.212	1.626	-121.640	200.205	-110.786	80.003	170.823	-111.309	-106.223	18.027	62.163	-107.353	-103.453	-102.505	-98.632	-50.744	-100.713	-8191	255	
7928.055	1	1	0	0	0.080004	0.097907	0.13516	0.22788	0.16836	0.15657	0.24475	0.34179	0.07731	0.18582	0.19436	0.17929	0.15335	0.086846	0.33679	0.13997	-2.1646	-2.8	-2.6854	-2.6188	-2.9104	-2.7812	-2.7104	-3.0167	-2.4313	-2.6646	-3.0646	-2.5312	-2.8083	-2.6354	-2.4875	-3.0771	111.393	-84.324	207.525	-103.426	-1.492	203.059	99.594	210.176	-45.786	-51.057	130.582	145.363	71.588	-89.496	90.560	-82.911	0.00057942	0.0027118	0.00076673	1120.4	8.356e-06	1.7294e-05	1226	354.32	2.7108e-05	2.4876e-05	418.08	184.02	123.4	55.081	2.0357e-05	78.038	0.024217	0.030849	0.0086219	1281.4	0.00032724	0.00034881	1407.9	419.94	0.00033884	0.00036039	528.43	221.16	162.31	67.027	0.00036862	95.373	-37.843	-50.906	-66.332	-110.493	-25.728	12.251	-111.109	-106.305	100.288	56.428	-107.647	-103.387	-102.260	-98.681	-7.167	-100.734	-8191	255	
7928.152	1	1	0	0	0.072411	0.1907	0.20899	0.15586	0.029427	0.20795	0.041497	0.29064	0.13935	0.082036	0.020539	0.092864	0.10583	0.19141	0.38314	0.34951	-1.9562	-2.6417	-2.8083	-2.3812	-2.9146	-2.8979	-2.7313	-3.0104	-2.5625	-2.7854	-2.8771	-2.6479	-2.8979	-2.9646	-2.6042	-3.1688	121.880	151.964	116.820	-103.948	93.269	72.136	145.693	115.564	140.198	94.068	130.661	186.068	118.145	166.970	231.143	229.261	0.0007676	0.0013175	0.00023552	1126.9	3.2622e-05	3.2502e-05	1229.7	368.27	4.9174e-06	4.1067e-05	427.27	187.23	125.34	56.437	3.0943e-05	79.631	0.028109	0.036595	0.010419	1352	0.00040947	0.00044481	1498.9	459.39	0.00044645	0.00047907	584.97	238.85	178.8	72.367	0.00044933	101.02	-23.082	-79.507	-3.765	-110.700	70.830	47.120	-111.196	-106.786	69.649	14.762	-107.809	-103.733	-102.779	-99.062	-113.280	-101.164	-8191	255	
7928.248	1	1	0	0	0.26725	0.062041	0.18177	0.46807	0.1737	0.071691	0.11914	0.23355	0.27313	0.1483	0.20711	0.16039	0.20813	0.20301	0.22626	0.092472	-2.2729	-2.5833	-3.0396	-2.675	-2.8208	-2.8812	-2.6792	-3.1	-2.7	-2.7375	-2.9792	-2.7479	-2.8604	-2.8333	-2.4271	-3.15	83.619	154.039	179.104	207.005	-98.827	55.262	-116.572	156.403	35.329	-12.328	89.182	69.630	106.122	145.157	-81.668	196.808	0.00078996	0.0023965	0.00085779	1121.1	3.312e-05	1.8076e-05	1221.8	360.78	2.995e-05	1.3636e-05	423.08	183.99	124.62	56.293	3.4429e-05	78.665	0.032984	0.04153	0.011395	1364.3	0.0004267	0.00045446	1489.6	453.97	0.00043775	0.00046263	573.75	235.12	176.93	72.178	0.000455	101.13	-20.541	176.559	71.759	-110.669	134.430	70.189	-111.347	-106.856	14.612	34.788	-108.030	-103.689	-102.684	-99.080	19.404	-101.320	-8191	255	
7928.344	1	1	0	0	0.039213	0.23936	0.082533	0.20531	0.17045	0.12226	0.17286	0.30812	0.08669	0.16292	0.10634	0.2428	0.12752	0.21466	0.11707	0.17006	-2.0958	-2.5625	-2.9458	-2.7417	-2.8875	-2.8667	-2.7396	-3.0604	-2.7188	-2.6562	-3.0875	-2.7292	-2.8104	-2.9062	-2.4396	-3.1208	73.666	132.792	143.987	-36.897	-49.899	98.888	218.898	165.680	-7.470	18.055	156.549	201.940	-61.282	201.090	-30.080	214.968	0.0013834	0.0012933	0.00037581	1125.3	7.8574e-05	4.2998e-05	1225.7	364.88	2.7614e-05	1.9271e-05	424.49	186.75	124.84	56.64	2.0624e-05	79.583	0.033474	0.042224	0.01178	1380.9	0.00043932	0.00046253	1496.7	457.09	0.00043671	0.00045764	573.23	235.84	176.35	71.974	0.00044032	100.68	-0.454	216.690	220.421	-110.465	33.228	-47.051	-111.283	-106.359	-26.555	186.743	-108.080	-103.648	-102.691	-99.118	-99.057	-101.118	-8191	255	
7928.464	1	1	0	0	0.2276	0.16048	0.16115	0.30397	0.11889	0.083654	0.25634	0.19507	0.075276	0.13247	0.17057	0.072776	0.068493	0.17548	0.24882	0.3745	-2.2667	-2.5438	-2.7792	-2.7667	-2.6958	-2.9167	-2.6167	-3.0708	-2.6104	-2.5312	-2.9437	-2.7896	-2.8396	-3.0146	-2.4208	-2.8604	191.630	-50.382	-101.967	208.015	10.175	-20.468	88.828	220.238	62.027	112.880	150.181	150.999	183.285	172.329	31.741	187.671	0.00087576	0.0018396	0.00041094	1119.9	4.3626e-05	3.2419e-05	1216	361.03	2.2564e-05	2.8954e-05	419.77	186.16	124.53	55.689	1.6263e-05	79.19	0.031871	0.039671	0.010841	1351	0.00040333	0.00042214	1462.4	444.23	0.00040094	0.00042122	554.93	230.33	170.68	69.644	0.00041136	98.789	-2.910	-75.421	-36.923	-110.461	72.700	82.906	-111.093	-106.494	4.163	67.973	-107.967	-103.559	-102.300	-98.774	65.636	-100.549	-8191	255	
7928.561	1	1	0	0	0.048058	0.021737	0.043946	0.22409	0.12027	0.26413	0.13638	0.40029	0.14006	0.090847	0.17521	0.23772	0.30459	0.40158	0.16488	0.13841	-2.2417	-2.4042	-2.9771	-2.6542	-2.7313	-2.9917	-2.6896	-3.2062	-2.7667	-2.5271	-3.0979	-2.8688	-2.6667	-3.15	-2.4208	-2.8104	146.163	168.858	-108.269	223.739	18.615	-44.155	178.397	217.715	50.241	2.784	169.259	-66.728	102.514	214.587	-67.082	193.960	0.0012373	0.0016245	0.00045634	1130.1	1.1594e-05	2.8665e-05	1225.8	363.21	1.4205e-05	8.6557e-06	431.81	186.18	127.6	57.802	5.6802e-05	82.035	0.03127	0.039837	0.011172	1368.9	0.00042487	0.00045625	1502	461.4	0.00045442	0.00049007	597.36	244.88	187.43	76.741	0.00053787	109.93	-21.632	26.669	-13.207	-110.417	139.378	107.652	-111.341	-106.988	-37.775	227.535	-107.840	-103.929	-102.872	-99.870	-41.252	-101.944	-8191	255	
7928.657	1	1	0	0	0.076887	0.12968	0.1684	0.18449	0.2847	0.22064	0.28806	0.15874	0.24022	0.16163	0.33586	0.071501	0.22588	0.10817	0.17807	0.17595	-2.3604	-2.3542	-2.7562	-2.7438	-2.5083	-2.8208	-2.8104	-2.8333	-2.8646	-2.3021	-2.7021	-2.8271	-2.7646	-2.9354	-2.5646	-2.7729	136.358	-74.400	157.093	147.752	102.952	81.597	201.749	205.162	-62.127	8.685	215.086	-80.770	201.009	-42.428	187.381	-50.681	0.001343	0.0012376	0.0011055	1148.9	5.8708e-05	3.2629e-05	1240.5	377.72	2.9379e-05	3.042e-05	433.34	186.26	126.13	57.391	2.6855e-05	80.796	0.041059	0.05278	0.014858	1493.3	0.0005564	0.00058734	1608.8	503.39	0.00054643	0.00057496	628.02	251.01	190.66	76.87	0.00053615	107.2	-41.762	97.638	-26.743	-110.415	204.832	10.718	-111.134	-106.896	153.949	14.416	-108.135	-104.076	-103.361	-99.307	71.846	-101.384	-8191	255	
7928.753	1	1	0	0	0.10747	0.06344	0.15767	0.20857	0.089804	0.19855	0.31637	0.10847	0.19443	0.044509	0.15357	0.1686	0.18896	0.18824	0.19238	0.04805	-2.4958	-2.5417	-2.6708	-2.7146	-2.5104	-2.7375	-2.8333	-2.75	-2.8396	-2.4521	-2.8187	-2.9042	-2.5083	-2.9542	-2.5271	-2.8771	198.544	-18.970	164.815	225.040	-116.129	72.551	-117.400	199.790	166.228	-97.056	191.632	153.343	-124.018	182.519	186.646	104.080	0.0002075	0.00061054	0.0014673	1125.4	7.5266e-05	2.8521e-05	1218.2	366.3	5.3434e-05	2.6075e-05	426.37	183.56	124.92	56.502	3.7494e-05	79.592	0.038358	0.048263	0.013323	1422.3	0.00048674	0.00051292	1526.9	471.71	0.00047489	0.00050221	590.91	239.3	180.17	73.513	0.00048243	103.55	-17.935	-106.827	112.059	-110.266	-44.691	80.814	-111.283	-106.557	-47.764	66.550	-108.478	-103.709	-102.849	-99.261	122.920	-101.234	-8191	255	
7928.872	1	1	0	0	0.27832	0.14846	0.075978	0.045021	0.19096	0.031026	0.21277	0.30639	0.26705	0.22032	0.30494	0.063943	0.10177	0.084508	0.26796	0.35651	-2.7208	-2.4479	-2.7167	-2.9271	-2.4354	-2.9271	-2.7917	-2.6542	-2.9875	-2.4833	-2.725	-2.9	-2.5521	-3.1583	-2.6417	-2.7229	-74.717	209.818	223.092	197.542	187.688	147.626	190.683	191.821	55.572	54.509	174.352	229.626	231.947	-30.365	227.085	130.538	0.00045697	0.0036861	0.0006631	1121.9	2.4852e-05	3.8379e-05	1214.7	361.69	2.4323e-05	1.6538e-05	416.58	182.3	122.67	55.669	2.7002e-05	78.473	0.035065	0.04434	0.012296	1387.5	0.00044655	0.00047198	1489.4	454.33	0.00042278	0.00044453	559.81	229.33	170.47	70.021	0.000423	98.797	-31.858	9.477	-96.901	-110.755	-122.704	-68.797	-111.060	-106.614	64.757	120.917	-107.902	-103.722	-102.851	-99.000	82.323	-100.691	-8191	255	
7928.943	1	1	0	0	0.39507	0.070473	0.082143	0.28053	0.14221	0.25241	0.34137	0.22392	0.064173	0.24831	0.19321	0.0438	0.17053	0.03215	0.1862	0.11268	-2.6458	-2.4	-2.7854	-3	-2.5271	-3.0354	-2.9521	-2.7771	-3.0708	-2.4896	-2.8187	-3.0021	-2.275	-2.9437	-2.6	-2.6625	213.479	6.451	-52.745	224.862	194.403	118.036	189.099	202.467	-83.973	37.660	81.560	-41.419	-123.083	-17.559	23.348	146.069	0.0007192	0.0017223	0.00052955	1110.1	5.8449e-05	1.4044e-05	1213.2	363.21	1.8468e-05	2.376e-05	427.87	183.77	124.51	56.404	4.1492e-05	79.259	0.030881	0.039395	0.011078	1350.4	0.000421	0.00045179	1483.3	457.26	0.00044403	0.00047985	581.58	237.21	178.75	73.268	0.00047297	102.11	-60.058	156.686	233.075	-110.555	140.037	22.941	-111.201	-106.793	140.683	47.941	-108.294	-103.923	-102.887	-99.072	117.114	-101.279	-8191	255	
7929.064	1	1	0	0	0.11561	0.195	0.075724	0.011147	0.085308	0.1579	0.071936	0.082954	0.36163	0.15433	0.10067	0.011153	0.17462	0.043639	0.040066	0.23923	-2.4917	-2.4792	-2.5354	-2.9292	-2.4938	-2.7875	-2.9813	-2.5062	-3.0563	-2.5396	-2.5438	-3.175	-2.6125	-2.9479	-2.8208	-2.6188	217.975	-13.015	7.776	72.602	-21.344	72.356	139.471	-78.175	-101.308	84.401	171.052	12.652	214.693	94.096	114.584	170.835	0.00070441	0.0016359	0.00050162	1113	5.3838e-05	2.6778e-05	1201.6	359.87	7.0894e-06	3.1349e-05	414.83	181.44	120.73	54.673	2.1064e-05	77.538	0.034254	0.043249	0.011995	1371.1	0.00043725	0.00046004	1472.7	448.76	0.00041195	0.00043126	549.04	224.35	166.17	68.555	0.00040744	97.021	-34.680	-113.146	-17.096	-110.187	82.359	91.391	-111.260	-106.283	44.202	50.442	-108.143	-103.671	-102.717	-98.814	-26.655	-100.839	-8191	255	
7929.160	1	1	0	0	0.030335	0.13535	0.2075	0.055009	0.19777	0.15282	0.26916	0.19029	0.10238	0.17659	0.032431	0.1224	0.21935	0.1636	0.259	0.18121	-2.5062	-2.5875	-2.6625	-3.1271	-2.5208	-2.7146	-3.0667	-2.5563	-2.8229	-2.5667	-2.6917	-3.1312	-2.6854	-2.8812	-2.9646	-2.5271	-121.292	-12.328	159.424	223.757	24.023	165.273	189.322	205.128	91.246	153.263	74.175	144.076	-89.397	204.601	208.592	24.941	0.00075613	0.0019534	0.00022077	1110	7.2661e-05	4.2003e-05	1207.5	361.69	3.3666e-05	2.0424e-05	419.86	183.75	124.61	56.841	1.4325e-05	80.528	0.030543	0.039311	0.011064	1351.6	0.00042586	0.00045857	1486.2	457.93	0.00044298	0.00047225	576.5	234.81	177.5	73.143	0.00047271	103.9	-27.429	181.700	1.480	-110.515	-93.144	26.215	-111.278	-106.580	-32.924	42.901	-108.457	-103.411	-103.302	-98.781	204.584	-101.557	-8191	255	
7929.256	1	1	0	0	0.12571	0.0094478	0.11575	0.21623	0.073326	0.1975	0.12004	0.053547	0.23969	0.27618	0.35293	0.2423	0.14133	0.25397	0.089314	0.25065	-2.4229	-2.7229	-2.6375	-3.1521	-2.4229	-2.8229	-3.0271	-2.6583	-2.6333	-2.8208	-2.5	-3.0792	-2.9479	-2.8479	-2.8438	-2.8063	-51.570	-26.497	182.663	214.572	-123.221	190.600	-14.220	38.663	-50.851	76.553	-115.342	112.959	201.828	190.787	76.300	160.744	0.0013749	0.0021622	0.0012634	1126.5	1.4466e-05	2.7242e-06	1230.1	377.75	3.109e-05	3.5311e-05	443.43	190.44	131.8	60.203	2.4727e-05	84.57	0.036179	0.046489	0.013194	1433.8	0.00051368	0.00055433	1582.7	500.22	0.0005498	0.00059007	646.1	260.91	202.39	82.557	0.00061214	116.82	-30.546	208.987	6.051	-110.681	52.245	-10.883	-111.369	-106.937	-54.782	34.453	-108.223	-104.219	-103.861	-99.785	72.616	-102.349	-8191	255	
7929.353	1	1	0	0	0.15364	0.28596	0.30849	0.21593	0.10932	0.081573	0.24112	0.067926	0.13792	0.032455	0.37261	0.19355	0.22215	0.28588	0.076177	0.10933	-2.3896	-2.7667	-2.4896	-3.0729	-2.8958	-2.5604	-3.0062	-2.5771	-2.7021	-2.7771	-2.7354	-3.0438	-2.8646	-2.6333	-3.1042	-2.6167	141.280	133.980	-56.632	131.274	-43.474	-7.554	133.494	197.332	114.300	167.604	205.970	177.396	206.227	165.287	18.233	198.317	0.00068517	0.00032941	0.00056146	1159.3	4.7629e-05	2.423e-05	1258	391.44	2.4912e-05	4.3801e-05	449.39	191.32	132.09	60.078	4.6445e-05	84.155	0.046417	0.059465	0.016677	1557.3	0.00063395	0.00066706	1685.6	537.68	0.00062889	0.0006572	672.49	267.33	207.26	83.297	0.00061467	115.32	-36.965	160.205	-9.878	-110.759	74.564	82.897	-111.132	-107.292	113.223	-9.467	-108.477	-104.579	-103.646	-100.208	-104.958	-102.254	-8191	255	
7929.449	1	1	0	0	0.021748	0.15488	0.30274	0.21088	0.090939	0.065992	0.41272	0.066697	0.27238	0.20011	0.072854	0.44591	0.21253	0.34685	0.064636	0.33305	-2.4417	-2.8542	-2.3333	-2.9521	-2.725	-2.6583	-3.1521	-2.6813	-2.7375	-2.9854	-2.5833	-2.9708	-2.8812	-2.5729	-2.9667	-2.7167	116.822	-17.071	108.122	166.221	57.570	-29.724	83.093	61.887	160.303	74.659	216.421	168.478	204.735	165.389	156.950	194.987	0.00085811	0.0039178	0.0010229	1143.4	5.7405e-05	2.8575e-05	1232.6	379.24	4.6589e-05	1.8602e-05	433.2	187.34	127.69	57.271	1.8924e-05	80.634	0.044582	0.055604	0.015227	1494.7	0.00056022	0.00058118	1590	498.28	0.00052615	0.00054561	612.94	247.25	187.65	75.676	0.00050461	106.25	-12.096	-55.634	224.829	-110.441	-68.489	-93.724	-111.041	-107.252	88.230	231.736	-108.314	-103.857	-103.192	-99.345	-102.551	-101.614	-8191	255	
7929.545	1	1	0	0	0.033413	0.16236	0.2044	0.18954	0.070356	0.23677	0.14988	0.090672	0.27465	0.12822	0.14968	0.055934	0.29474	0.076326	0.257	0.21517	-2.3125	-2.9396	-2.4271	-3.1146	-2.9396	-2.5396	-3.0563	-2.7771	-2.7292	-2.7854	-2.6937	-2.8396	-2.8583	-2.7458	-2.9604	-2.8208	62.869	51.300	222.418	226.398	174.250	111.323	24.763	-77.395	89.129	232.693	164.045	-73.887	209.537	-85.276	44.707	211.460	0.0012684	0.0029227	0.00065959	1127	3.4082e-05	6.0773e-06	1234.3	377.99	2.5988e-05	3.4283e-05	434.34	188.01	128.3	58.125	1.8316e-05	80.693	0.037658	0.047714	0.01343	1439.5	0.00051168	0.00054282	1572.2	494.82	0.00052392	0.00055117	619.52	250.24	189.75	76.709	0.00051989	107.04	-2.053	217.442	110.062	-110.650	9.156	224.342	-111.349	-107.092	142.352	40.399	-108.390	-104.124	-103.331	-99.399	-96.790	-101.937	-8191	255	
7929.641	1	1	0	0	0.17005	0.053031	0.057893	0.22438	0.40704	0.12609	0.20875	0.20905	0.15534	0.23804	0.31579	0.23463	0.15988	0.28996	0.20454	0.11493	-2.3333	-2.7604	-2.5958	-3.0438	-2.7271	-2.4562	-3.075	-2.8208	-2.5563	-2.9542	-2.7021	-2.8125	-3.0958	-2.6333	-2.9125	-2.85	-45.143	-62.042	186.169	-95.067	-49.314	35.474	186.020	114.194	116.310	132.161	-52.738	-123.708	200.797	-109.986	-108.059	176.394	0.0009859	0.00096634	0.00061655	1131.9	1.8999e-05	1.5738e-05	1221.7	369.17	8.3518e-06	2.12e-05	416.99	182.19	123.94	55.406	4.2204e-05	77.551	0.038117	0.047983	0.013287	1423.4	0.00048656	0.00051257	1531.7	472.47	0.00046696	0.00048548	577.37	234.41	174.87	70.673	0.00043804	98.956	-8.460	-99.001	166.350	-110.737	69.269	-33.241	-111.512	-106.858	46.462	-26.384	-108.423	-103.808	-103.302	-98.890	2.578	-101.115	-8191	255	
7929.737	1	1	0	0	0.12929	0.29401	0.28531	0.28386	0.21542	0.039044	0.024738	0.1034	0.16344	0.1787	0.15706	0.25895	0.17281	0.14805	0.12553	0.26279	-2.1063	-2.8688	-2.5771	-2.8187	-3.0583	-2.3354	-2.9313	-2.8021	-2.5104	-2.9167	-2.7083	-2.8312	-3.0458	-2.5604	-2.7104	-2.9042	64.096	155.745	204.097	192.963	-17.456	-38.420	-38.815	-92.838	199.894	44.558	82.114	-92.136	117.089	177.749	196.537	2.477	0.00069264	0.0014103	0.0015682	1110.4	4.0383e-05	9.7196e-06	1202.9	355.39	3.3812e-05	4.701e-06	409.21	179.78	120.83	53.485	3.27e-05	75.653	0.031871	0.040403	0.011266	1350.1	0.00041518	0.00043511	1451.9	441.6	0.00040132	0.00042031	545.74	224.06	166.33	67.722	0.00040113	95.108	-25.584	-56.727	27.161	-110.529	-54.974	86.796	-111.205	-106.745	-113.486	-42.890	-107.951	-103.510	-102.579	-98.222	-113.378	-100.992	-8191	255	
7929.833	1	1	0	0	0.19224	0.07756	0.087083	0.12095	0.19581	0.10521	0.13686	0.18569	0.14477	0.38221	0.27656	0.026676	0.080827	0.31981	0.016829	0.29351	-2.0187	-2.8958	-2.6896	-2.7646	-3.0938	-2.5938	-3.1146	-3.0563	-2.5208	-2.9625	-3.1208	-2.675	-2.9479	-2.6583	-2.7896	-3.0292	-98.435	37.285	155.688	-72.405	110.436	-68.569	-81.710	-117.675	-21.740	18.563	202.583	164.759	-22.108	-117.796	-41.702	212.173	0.00097634	0.0016651	0.001429	1105.9	2.2873e-05	1.1332e-05	1199.8	354.85	1.6079e-05	3.3603e-06	413.68	180.74	120.91	54.394	3.7312e-05	76.559	0.029489	0.037717	0.010605	1328.8	0.00040502	0.00043374	1452.6	443.97	0.00041936	0.00044669	558.1	228.19	170.16	69.422	0.00043357	97.179	-16.131	-85.151	37.717	-110.689	4.811	46.953	-111.115	-106.677	142.431	-114.165	-108.583	-104.200	-103.163	-98.694	-118.973	-101.186	-8191	255	
7929.952	1	1	0	0	0.063058	0.22118	0.14787	0.24917	0.28093	0.11904	0.21621	0.1189	0.22775	0.09254	0.15205	0.14089	0.2492	0.14105	0.18449	0.10357	-1.9542	-3.0167	-2.6562	-2.8604	-3.1937	-2.4292	-2.6937	-2.9229	-2.4167	-2.7458	-2.8208	-2.6042	-3.0104	-2.9042	-2.6771	-2.9625	22.449	71.244	-21.296	230.704	-17.267	35.733	150.308	196.104	-24.067	131.414	-103.254	156.637	-110.311	182.799	-55.264	157.664	0.00090069	0.0015188	0.0013228	1103.5	4.5542e-05	2.9242e-05	1189.4	354.38	3.6014e-05	1.6535e-05	408.69	179.2	119.61	53.369	5.8779e-05	75.476	0.031541	0.039916	0.011093	1337.1	0.00040976	0.00043993	1448.1	441.38	0.00041073	0.00043366	547.57	224.56	166.47	67.626	0.00040215	93.956	-65.836	38.481	229.717	-110.522	-121.962	19.135	-110.961	-106.468	-27.294	112.553	-107.873	-103.322	-102.734	-98.367	-16.641	-100.989	-8191	255	
7930.048	1	1	0	0	0.20992	0.33192	0.085857	0.24678	0.079877	0.09711	0.26516	0.37727	0.11244	0.06697	0.28222	0.17373	0.2439	0.16622	0.24861	0.21826	-2.0292	-2.8375	-2.7708	-2.5708	-3.0479	-2.6562	-2.7646	-2.9875	-2.5979	-2.875	-2.8688	-2.5458	-2.8729	-2.7938	-2.6979	-3.1104	50.677	-119.741	-29.288	152.575	159.009	226.282	221.418	168.469	-36.394	-119.000	-77.490	197.434	162.126	196.468	18.581	177.705	0.001281	0.0017614	0.00083199	1099.4	2.0031e-05	1.5267e-05	1183.1	345.22	1.5787e-05	2.7584e-05	400.77	175.94	116.84	52.168	1.9096e-05	73.051	0.028782	0.036257	0.010026	1294	0.00036545	0.00038633	1393.2	418.72	0.0003505	0.00036739	511.74	211.53	153.63	62.765	0.0003253	87.301	-10.948	-87.674	-23.284	-110.312	199.454	41.416	-110.957	-105.928	-108.674	-108.967	-107.653	-103.392	-102.561	-97.971	-99.155	-100.465	-8191	255	
7930.144	1	1	0	0	0.064919	0.15706	0.21365	0.16093	0.14411	0.30656	0.15342	0.2719	0.1628	0.037745	0.039838	0.19511	0.12021	0.17601	0.24889	0.22146	-1.9104	-2.7104	-2.8292	-2.6958	-2.6771	-2.7375	-2.7687	-2.9375	-2.5187	-2.7292	-2.85	-2.6521	-3.0833	-2.8167	-2.525	-3.1979	25.161	171.517	20.206	-121.589	5.790	-80.069	110.906	95.119	123.333	96.274	14.511	186.989	58.348	-103.135	-38.627	169.674	0.00040237	0.0012762	6.3384e-05	1085.8	3.6216e-05	2.8643e-05	1168.9	340.55	3.4833e-05	2.8424e-05	396.37	176.01	117.07	52.09	2.1148e-05	72.608	0.023681	0.029628	0.0082211	1236.1	0.00030551	0.00032414	1342.9	401.11	0.00031077	0.00033266	498.2	208.85	152.55	62.781	0.00032905	87.623	-50.878	35.973	54.084	-110.329	168.155	88.821	-111.479	-105.956	-85.051	120.488	-107.756	-103.128	-102.211	-98.273	216.721	-100.614	-8191	255	
7930.241	1	1	0	0	0.18463	0.023092	0.18948	0.084996	0.040185	0.076579	0.088065	0.23164	0.16875	0.21752	0.18895	0.09367	0.26474	0.15971	0.10222	0.13169	-1.9917	-2.575	-2.9167	-2.6729	-2.8354	-2.7208	-2.4062	-3.1458	-2.6437	-2.7583	-3.0542	-2.6437	-2.8479	-3	-2.3979	-3.0521	81.822	126.952	137.557	-119.299	-17.527	-79.789	9.077	146.601	98.330	82.032	-69.052	203.303	171.738	217.946	106.280	132.615	0.00092277	0.0018861	0.00040684	1090.1	1.3998e-05	2.7299e-05	1182	345.79	3.5536e-05	5.3753e-05	402.86	177.85	118.43	52.813	3.3108e-05	73.615	0.024408	0.030858	0.008607	1254.1	0.00032419	0.00034242	1364.4	409.81	0.00033356	0.00035264	511.88	213.58	156.45	64.053	0.00034227	89.461	-9.725	0.766	-89.364	-110.320	2.354	33.707	-111.049	-106.103	-80.530	25.658	-107.773	-103.326	-102.554	-98.314	16.418	-100.598	-8191	255	
7930.337	1	1	0	0	0.19596	0.13713	0.075101	0.26875	0.30215	0.10203	0.35663	0.25361	0.2008	0.062337	0.081452	0.18237	0.28698	0.051581	0.31544	0.14181	-2.0646	-2.625	-2.9813	-2.45	-2.9479	-2.875	-2.6458	-3.1875	-2.6021	-2.8438	-3.0208	-2.7396	-2.825	-2.9604	-2.5271	-3.1375	-86.296	11.373	-88.339	-115.700	-85.690	-22.536	206.113	13.099	-84.487	-40.209	214.712	220.262	178.674	-95.787	46.910	21.561	0.00055781	0.00071518	0.00050971	1095.7	2.5366e-05	3.4884e-06	1188.8	349.68	1.7375e-05	1.2962e-05	404	178.23	120.15	52.836	1.9263e-05	74.353	0.02546	0.032188	0.0089373	1271.9	0.00033607	0.00035309	1375.5	413.67	0.00033231	0.00034864	509.02	212.43	155.98	63.961	0.00033921	89.893	-19.257	-26.072	1.903	-110.274	104.357	78.510	-111.392	-106.088	40.830	-91.390	-107.522	-103.243	-102.475	-98.717	15.528	-100.682	-8191	255	
7930.433	1	1	0	0	0.17674	0.062365	0.15901	0.34805	0.19968	0.14832	0.074179	0.2484	0.21409	0.15199	0.33176	0.25658	0.21306	0.19277	0.027465	0.17085	-2.3667	-2.3937	-2.9354	-2.6792	-2.6771	-2.825	-2.5771	-2.9437	-2.7292	-2.5667	-3.1708	-2.7417	-2.7646	-2.9062	-2.6292	-3.0104	170.343	-104.178	183.336	219.500	206.795	113.773	196.499	220.242	50.745	141.384	135.551	136.226	-3.509	231.191	73.678	162.475	0.00072542	0.0011798	0.00066155	1106	2.1861e-05	6.3317e-06	1201.1	355.94	4.3254e-05	3.27e-05	413.1	180.35	121.95	53.97	2.8475e-05	75.758	0.025479	0.032688	0.0091907	1291.8	0.00035904	0.00038178	1413.5	430.37	0.00036745	0.0003855	531.39	221.19	163.14	66.364	0.00036647	92.993	-19.090	150.013	0.662	-110.486	167.055	-105.280	-111.042	-106.391	91.318	34.129	-107.876	-103.310	-102.296	-98.421	15.113	-100.764	-8191	255	
7930.554	1	1	0	0	0.095113	0.15069	0.062173	0.33646	0.10846	0.091177	0.1765	0.19742	0.16157	0.055056	0.051267	0.33443	0.095263	0.43993	0.24403	0.19575	-2.4146	-2.4354	-2.85	-2.7625	-2.5208	-2.9083	-2.6271	-2.9104	-2.7625	-2.575	-3.0146	-2.5125	-2.6542	-3.1354	-2.4604	-2.9104	233.181	-61.092	6.108	-103.703	-21.737	99.227	-36.728	185.568	-7.608	58.508	-14.947	177.709	20.345	196.991	44.265	177.378	0.00013726	0.0016072	0.00057883	1113.2	4.0426e-05	2.4149e-05	1205.8	352.23	2.1919e-05	2.6483e-05	413.11	181.09	122.67	54.273	3.0694e-06	76.346	0.026851	0.033607	0.0093216	1294.9	0.00035197	0.00037195	1407.5	425.95	0.00036235	0.00038257	533.37	221.32	164.15	67.059	0.00037931	94.029	67.819	133.332	183.853	-110.419	119.681	31.593	-111.104	-106.192	-87.252	-34.417	-107.913	-103.552	-103.029	-98.686	-117.233	-100.847	-8191	255	
7930.650	1	1	0	0	0.1607	0.18841	0.27195	0.104	0.34415	0.21933	0.25281	0.31121	0.050349	0.071032	0.23375	0.3895	0.16321	0.15111	0.032652	0.1923	-2.3583	-2.4479	-2.75	-2.7521	-2.5563	-3.0417	-2.7438	-2.9646	-2.8583	-2.6854	-2.8771	-2.725	-2.5104	-3.0458	-2.4437	-2.975	65.512	-59.294	13.382	190.375	78.466	-112.064	148.947	93.112	-56.275	-55.811	217.788	126.961	54.302	182.655	160.424	188.379	0.0011114	0.0034632	0.00036347	1106.9	2.1607e-05	3.6888e-05	1219.6	357.28	2.3197e-05	2.7226e-05	419.87	185.18	125.52	56.537	1.5795e-05	78.876	0.027995	0.035328	0.0099334	1316.3	0.00037762	0.00040031	1442.6	440.16	0.00039445	0.00041915	556.95	230.31	173	70.87	0.00042882	99.339	-52.752	-38.456	-11.428	-110.458	111.218	52.726	-111.387	-106.573	-115.112	95.872	-107.990	-103.394	-102.584	-99.005	81.116	-101.131	-8191	255	
7930.744	1	1	0	0	0.12318	0.27255	0.17768	0.31968	0.081954	0.37582	0.087649	0.21246	0.27429	0.21131	0.072156	0.10595	0.12554	0.28914	0.32658	0.15584	-2.4833	-2.3896	-2.7604	-2.7562	-2.6729	-2.9375	-2.7542	-2.9917	-2.8104	-2.5771	-2.8354	-2.9437	-2.5563	-3.15	-2.5646	-2.7646	123.486	32.626	-79.422	205.797	141.698	111.966	129.728	155.335	-55.508	-44.711	204.704	163.881	2.187	161.394	170.439	118.135	0.0010364	0.0031682	0.00080451	1128.5	2.1744e-05	8.8653e-06	1228.4	368.7	2.7195e-05	2.06e-05	425.58	186	126.86	56.809	1.7812e-05	79.182	0.031516	0.040051	0.011281	1371.5	0.00042624	0.00045071	1492.4	461.31	0.00042812	0.00045174	571.19	234.75	175.77	71.761	0.00043324	100.29	-32.712	-52.497	118.738	-110.469	-58.073	103.167	-110.717	-106.974	198.740	67.631	-108.009	-103.929	-102.979	-99.346	185.186	-101.356	-8191	255	
7930.840	1	1	0	0	0.31957	0.15289	0.1262	0.05393	0.113	0.20825	0.3313	0.13537	0.19689	0.084084	0.050966	0.10756	0.33912	0.19297	0.15461	0.19318	-2.4146	-2.3708	-2.7375	-2.7375	-2.4833	-2.9125	-2.8187	-2.8458	-2.7188	-2.6625	-2.9354	-3.0167	-2.4229	-3.0167	-2.7125	-2.6729	199.526	114.223	115.556	179.063	-101.308	229.520	-68.824	-104.895	103.438	76.192	-116.968	-123.322	157.660	150.218	-20.931	201.473	0.00067847	0.002898	0.00077377	1135.2	3.2044e-05	2.7586e-05	1233	372.86	4.3871e-05	6.1306e-06	429.76	186.66	128.48	57.981	1.1385e-05	80.736	0.031932	0.040625	0.011406	1377.1	0.00042841	0.00045901	1506.8	468.42	0.00044489	0.00047097	584.34	238.47	180.83	73.946	0.00045943	102.91	-45.483	58.237	213.171	-110.510	35.490	-52.339	-111.132	-106.784	1.533	181.025	-108.260	-103.676	-103.058	-99.088	141.902	-101.452	-8191	255	
#DATA ENDS
