BOXY.EXE: ISS Imagent and Oximeter Data Acquisition Program Version 0.80
Ascii Record File

#ACQ INFORMATION
2  Detector Channels 
16  External MUX Channels 
1  Auxiliary Channels 
5000  Waveform (CCF) Frequency (Hz)
1  Waveforms Skipped 
30  Waveforms Averaged 
1  Cycles Averaged 
16  Acquisitions per Waveform 
10.0806  Updata Rate (Hz) 

#FILE INFORMATION
TRUE -- External MUX Channel results are PARSED.
FALSE -- AC DC and Phase are NOT grouped.
TRUE -- Companion Program Settings File CREATED.
FALSE -- AC data not excluded
FALSE -- DC data not excluded
FALSE -- Phase data not excluded
FALSE -- Auxillary Chn. data not excluded
Tab delimiters

#CALIBRATION STATE
TRUE -- Waveform Calibration Values APPLIED.


#AUX CALIBRATION VALUES
Val Type	aux-1	

Term	1.0000e+00	
Factor	0.0000e+00	


#WF CALIBRATION VALUES
A = Detector Channel
Val Type	A-AC1	A-AC2	A-AC3	A-AC4	A-AC5	A-AC6	A-AC7	A-AC8	A-AC9	A-AC10	A-AC11	A-AC12	A-AC13	A-AC14	A-AC15	A-AC16	A-DC1	A-DC2	A-DC3	A-DC4	A-DC5	A-DC6	A-DC7	A-DC8	A-DC9	A-DC10	A-DC11	A-DC12	A-DC13	A-DC14	A-DC15	A-DC16	A-Ph1	A-Ph2	A-Ph3	A-Ph4	A-Ph5	A-Ph6	A-Ph7	A-Ph8	A-Ph9	A-Ph10	A-Ph11	A-Ph12	A-Ph13	A-Ph14	A-Ph15	A-Ph16	

Term	0.00000e+00	0.00000e+00	0.00000e+00	0.00000e+00	0.00000e+00	0.00000e+00	0.00000e+00	0.00000e+00	0.00000e+00	0.00000e+00	0.00000e+00	0.00000e+00	0.00000e+00	0.00000e+00	0.00000e+00	0.00000e+00	0.00000e+00	0.00000e+00	0.00000e+00	0.00000e+00	0.00000e+00	0.00000e+00	0.00000e+00	0.00000e+00	0.00000e+00	0.00000e+00	0.00000e+00	0.00000e+00	0.00000e+00	0.00000e+00	0.00000e+00	0.00000e+00	0.00000e+00	0.00000e+00	0.00000e+00	0.00000e+00	0.00000e+00	0.00000e+00	0.00000e+00	0.00000e+00	0.00000e+00	0.00000e+00	0.00000e+00	0.00000e+00	0.00000e+00	0.00000e+00	0.00000e+00	0.00000e+00	
Factor	1.00000e+00	1.00000e+00	1.00000e+00	1.00000e+00	1.00000e+00	1.00000e+00	1.00000e+00	1.00000e+00	1.00000e+00	1.00000e+00	1.00000e+00	1.00000e+00	1.00000e+00	1.00000e+00	1.00000e+00	1.00000e+00	1.00000e+00	1.00000e+00	1.00000e+00	1.00000e+00	1.00000e+00	1.00000e+00	1.00000e+00	1.00000e+00	1.00000e+00	1.00000e+00	1.00000e+00	1.00000e+00	1.00000e+00	1.00000e+00	1.00000e+00	1.00000e+00	X	X	X	X	X	X	X	X	X	X	X	X	X	X	X	X	

B = Detector Channel
Val Type	B-AC1	B-AC2	B-AC3	B-AC4	B-AC5	B-AC6	B-AC7	B-AC8	B-AC9	B-AC10	B-AC11	B-AC12	B-AC13	B-AC14	B-AC15	B-AC16	B-DC1	B-DC2	B-DC3	B-DC4	B-DC5	B-DC6	B-DC7	B-DC8	B-DC9	B-DC10	B-DC11	B-DC12	B-DC13	B-DC14	B-DC15	B-DC16	B-Ph1	B-Ph2	B-Ph3	B-Ph4	B-Ph5	B-Ph6	B-Ph7	B-Ph8	B-Ph9	B-Ph10	B-Ph11	B-Ph12	B-Ph13	B-Ph14	B-Ph15	B-Ph16	

Term	0.00000e+00	0.00000e+00	0.00000e+00	0.00000e+00	0.00000e+00	0.00000e+00	0.00000e+00	0.00000e+00	0.00000e+00	0.00000e+00	0.00000e+00	0.00000e+00	0.00000e+00	0.00000e+00	0.00000e+00	0.00000e+00	0.00000e+00	0.00000e+00	0.00000e+00	0.00000e+00	0.00000e+00	0.00000e+00	0.00000e+00	0.00000e+00	0.00000e+00	0.00000e+00	0.00000e+00	0.00000e+00	0.00000e+00	0.00000e+00	0.00000e+00	0.00000e+00	-2.03927e+02	-1.31831e+02	-1.25538e+02	-1.83254e+02	-8.09175e+01	-7.08768e+01	-1.60701e+02	-1.62015e+02	-9.04271e+01	-7.32347e+01	-1.72480e+02	-1.72818e+02	-1.83168e+02	-1.78087e+02	-6.61985e+01	-1.50828e+02	
Factor	3.89286e-05	1.23717e-04	3.30348e-05	1.37229e-01	1.13119e-06	1.25685e-06	1.52528e-01	4.65841e-02	1.24710e-06	1.41356e-06	7.24308e-02	2.45414e-02	2.28361e-02	7.36464e-03	1.53149e-06	1.05710e-02	3.04281e-06	3.29901e-06	9.19863e-07	7.35445e-02	3.56907e-08	3.63287e-08	7.68056e-02	2.49985e-02	3.56985e-08	3.62099e-08	3.76454e-02	1.27287e-02	1.23343e-02	3.98035e-03	3.59260e-08	5.53306e-03	X	X	X	X	X	X	X	X	X	X	X	X	X	X	X	X	



#DISTANCE SETTINGS
A = Detector Channel
A-1	A-2	A-3	A-4	A-5	A-6	A-7	A-8	A-9	A-10	A-11	A-12	A-13	A-14	A-15	A-16	

2.5000e+00	3.0000e+00	2.5000e+00	3.0000e+00	2.0000e+00	3.0000e+00	1.5000e+00	3.0000e+00	3.0000e+00	3.0000e+00	3.0000e+00	3.0000e+00	3.0000e+00	3.0000e+00	1.5000e+00	3.0000e+00	

B = Detector Channel
B-1	B-2	B-3	B-4	B-5	B-6	B-7	B-8	B-9	B-10	B-11	B-12	B-13	B-14	B-15	B-16	

1.0000e+01	1.0000e+01	1.0000e+01	1.4400e+00	1.0000e+01	1.0000e+01	1.5100e+00	1.9400e+00	1.0000e+01	1.0000e+01	1.9900e+00	2.4900e+00	2.4100e+00	2.9000e+00	1.0000e+01	2.9800e+00	




#DATA BEGINS
time	group	step	mark	flag	A-AC1	A-AC2	A-AC3	A-AC4	A-AC5	A-AC6	A-AC7	A-AC8	A-AC9	A-AC10	A-AC11	A-AC12	A-AC13	A-AC14	A-AC15	A-AC16	A-DC1	A-DC2	A-DC3	A-DC4	A-DC5	A-DC6	A-DC7	A-DC8	A-DC9	A-DC10	A-DC11	A-DC12	A-DC13	A-DC14	A-DC15	A-DC16	A-Ph1	A-Ph2	A-Ph3	A-Ph4	A-Ph5	A-Ph6	A-Ph7	A-Ph8	A-Ph9	A-Ph10	A-Ph11	A-Ph12	A-Ph13	A-Ph14	A-Ph15	A-Ph16	B-AC1	B-AC2	B-AC3	B-AC4	B-AC5	B-AC6	B-AC7	B-AC8	B-AC9	B-AC10	B-AC11	B-AC12	B-AC13	B-AC14	B-AC15	B-AC16	B-DC1	B-DC2	B-DC3	B-DC4	B-DC5	B-DC6	B-DC7	B-DC8	B-DC9	B-DC10	B-DC11	B-DC12	B-DC13	B-DC14	B-DC15	B-DC16	B-Ph1	B-Ph2	B-Ph3	B-Ph4	B-Ph5	B-Ph6	B-Ph7	B-Ph8	B-Ph9	B-Ph10	B-Ph11	B-Ph12	B-Ph13	B-Ph14	B-Ph15	B-Ph16	aux-1	digaux	

14818.926	1	1	0	256	0.18887	0.13599	0.034665	0.30464	0.12569	0.11203	0.19825	0.052492	0.029302	0.13833	0.14881	0.20979	0.11414	0.23219	0.13322	0.12597	-2.15	-2.5187	-2.7	-2.6792	-2.8438	-2.7979	-2.6854	-3.0792	-2.5833	-2.75	-2.9979	-2.6083	-2.9667	-2.8292	-2.3271	-3.0438	232.786	34.084	-5.078	175.113	184.567	0.842	-73.412	8.581	-93.811	125.751	63.858	199.680	72.434	-110.368	166.124	78.003	0.00079538	0.00085611	0.00072208	716.92	1.2611e-05	2.464e-05	888.89	153.6	7.8503e-06	2.5498e-05	262.49	105.4	55.264	19.036	2.1101e-05	42.239	0.020777	0.022751	0.006285	1204.7	0.00024559	0.00024975	1401.8	322.12	0.00024377	0.00024889	515.53	190.04	139.2	46.069	0.000244	79.596	63.852	148.484	65.681	-102.065	-86.931	60.898	-102.386	-95.701	-89.250	109.766	-96.210	-92.098	-90.890	-84.334	46.767	-87.180	-8191	255	
14819.022	1	1	0	0	0.056213	0.10044	0.067453	0.11489	0.17039	0.077219	0.043872	0.069393	0.21287	0.27747	0.25159	0.20985	0.43409	0.16801	0.19159	0.27746	-2.3583	-2.6875	-2.825	-2.7208	-2.7229	-2.8292	-2.6292	-2.9688	-2.6167	-2.5583	-3.1729	-2.6354	-2.7521	-2.9562	-2.4708	-2.9562	66.623	159.303	223.023	-77.539	77.991	-98.169	-107.230	194.585	156.406	17.723	-101.190	177.398	207.429	20.804	176.776	-95.687	0.0015025	0.00095503	0.00010604	723.34	9.0002e-06	2.9072e-05	894.27	153.46	3.0645e-05	3.4251e-05	262.2	105.34	55.727	19.093	1.8223e-05	42.275	0.020809	0.022589	0.0063151	1203.3	0.00024579	0.00024888	1399	321.65	0.00024328	0.00024671	515.6	189.91	139.2	45.906	0.00024299	79.941	101.330	215.337	55.580	-102.213	-98.216	159.332	-102.467	-95.863	59.709	40.855	-96.614	-92.525	-91.775	-84.905	-53.134	-87.286	-8191	255	
14819.143	1	1	0	0	0.11138	0.071506	0.20834	0.13472	0.083929	0.3402	0.04676	0.085975	0.040839	0.34723	0.12152	0.11504	0.050238	0.23719	0.16376	0.15844	-2.3187	-2.3563	-3	-2.8479	-2.6542	-2.9771	-2.6875	-2.9854	-2.6979	-2.5312	-3.0563	-2.5354	-2.575	-2.9458	-2.4292	-2.8917	73.138	21.104	76.900	219.179	-31.409	93.907	158.374	179.802	36.699	86.750	-25.444	130.836	231.528	-111.816	171.214	215.922	0.0011532	0.0020728	0.00059963	716	5.8041e-06	2.7951e-05	893.76	154.42	1.1433e-05	1.3891e-05	262.8	105.6	55.79	19.153	7.7928e-06	42.76	0.020864	0.02259	0.0062924	1203.4	0.00024488	0.00024864	1401.3	322.85	0.00024446	0.00024703	516.22	190.9	139.88	46.101	0.00024432	80.287	99.593	48.790	-12.501	-102.727	-37.187	-4.962	-102.226	-96.084	67.785	152.398	-96.629	-92.623	-91.109	-84.333	61.449	-87.250	-8191	255	
14819.237	1	1	0	0	0.16048	0.097552	0.19184	0.093469	0.25562	0.15413	0.066577	0.12857	0.14716	0.1515	0.26755	0.28499	0.33348	0.19291	0.20049	0.13171	-2.4562	-2.4917	-2.9854	-2.7042	-2.475	-3.2062	-2.6021	-2.8542	-2.9375	-2.6188	-2.9313	-2.5542	-2.6125	-3.0938	-2.6562	-2.9333	245.209	27.073	108.456	-87.021	33.265	-99.556	-37.183	235.271	68.158	119.577	177.255	-111.801	222.838	-23.882	153.974	214.495	0.0013877	0.001229	0.00045129	715.44	1.1569e-05	9.9775e-06	896.7	154.06	2.0388e-05	8.0483e-06	265.56	105.74	55.632	19.068	1.9801e-05	42.495	0.020811	0.022512	0.0062815	1204.4	0.00024335	0.00024666	1399.1	321.64	0.00024228	0.00024395	515.13	190.25	138.36	45.793	0.00024199	79.763	129.172	-15.605	-63.643	-102.419	-105.975	137.505	-102.525	-95.642	207.820	-50.034	-96.962	-92.551	-91.576	-85.042	88.037	-87.072	-8191	255	
14819.311	1	1	0	0	0.14443	0.32994	0.13914	0.44588	0.088672	0.28048	0.65866	0.23999	0.22192	0.29092	0.13454	0.17814	0.29173	0.30265	0.29617	0.1853	-2.4417	-2.3167	-2.9125	-2.9042	-2.6229	-3.05	-2.5438	-2.7771	-3.0042	-2.6083	-3.0083	-2.9188	-2.5938	-3.0042	-2.6229	-2.6375	221.139	227.885	-13.100	182.089	-101.875	128.666	212.174	176.058	-53.986	-41.285	217.196	239.789	224.281	-41.821	223.300	175.187	0.00060054	0.00092091	0.00011324	717.82	1.5388e-05	9.6095e-06	892.69	153.11	2.2769e-05	1.1554e-05	264.54	105.55	55.241	18.927	2.0443e-05	41.719	0.020592	0.022219	0.0062298	1203.6	0.00024167	0.00024651	1397	321.17	0.00024178	0.00024373	513.86	189.67	137.82	45.614	0.00024163	79.243	-0.697	237.014	-13.695	-102.512	139.961	92.523	-102.606	-95.704	158.082	245.502	-96.910	-92.260	-90.983	-84.893	44.981	-87.309	-8191	255	
14819.431	1	1	0	0	0.1118	0.17515	0.20699	0.24806	0.19344	0.065634	0.26177	0.0767	0.3375	0.04595	0.31546	0.17806	0.13339	0.21989	0.22838	0.1078	-2.6271	-2.5458	-2.8812	-2.7229	-2.7021	-2.9688	-2.8354	-2.75	-3.0896	-2.4437	-2.85	-2.9583	-2.725	-2.75	-2.7354	-2.8312	219.548	-68.758	30.856	157.974	215.585	-86.294	149.706	179.010	84.514	174.079	135.717	-28.157	1.698	-48.185	144.995	158.256	0.00061278	0.00058049	0.00064697	713.34	1.4913e-05	3.6462e-05	888.9	153.67	1.6072e-05	1.4048e-05	262.02	104.9	55.645	18.908	6.2214e-06	42.29	0.020514	0.022096	0.0062163	1200.6	0.00023929	0.00024402	1391.3	318.45	0.00023916	0.00024046	510.54	188.32	136.61	45.341	0.00024046	79.03	100.999	37.516	173.000	-101.964	-100.002	63.707	-102.374	-95.614	34.305	209.537	-96.360	-92.602	-91.408	-85.027	109.206	-87.450	-8191	255	
14819.526	1	1	0	0	0.26747	0.28488	0.12742	0.17041	0.12391	0.21515	0.12353	0.22148	0.48485	0.1037	0.02148	0.1658	0.12064	0.19781	0.26372	0.1417	-2.4958	-2.5417	-2.7125	-2.8896	-2.5708	-3.0167	-2.8688	-2.6167	-2.9229	-2.4396	-2.8354	-2.975	-2.7104	-3.0187	-2.7229	-2.5687	28.023	239.851	228.394	206.291	90.356	-105.804	96.157	-18.891	182.761	-6.188	166.401	158.306	-72.475	81.169	-103.176	239.533	0.0017229	0.0013077	0.00021883	715.59	8.8756e-06	2.3251e-05	893.29	153.09	3.283e-05	1.95e-05	264.22	105.12	54.795	18.751	1.2509e-05	42.131	0.02043	0.022006	0.0062096	1193	0.00023818	0.00024425	1387.5	317.29	0.00023877	0.00024113	511.2	188.58	136.12	45.373	0.00024022	78.768	138.328	76.580	175.793	-102.257	-42.782	200.938	-102.203	-95.521	-38.608	-56.545	-96.733	-92.428	-91.310	-85.061	118.240	-86.660	-8191	255	
14819.622	1	1	0	0	0.21749	0.13271	0.29019	0.19243	0.17045	0.079334	0.37695	0.36846	0.0349	0.13377	0.17299	0.18209	0.17687	0.20449	0.28543	0.17284	-2.4729	-2.5625	-2.6896	-2.8521	-2.5458	-2.8021	-2.9042	-2.4771	-3.1229	-2.6083	-2.9833	-2.9104	-2.5458	-2.8854	-2.8625	-2.6	66.237	119.265	78.334	-79.875	166.699	-45.385	241.750	85.603	100.436	45.823	240.502	140.494	78.339	-56.768	-108.486	-64.300	0.0013817	0.0016979	0.0001541	705.86	1.835e-05	1.2357e-05	888.05	149.86	2.1034e-05	2.638e-05	260.49	104.09	54.616	18.648	1.0536e-05	41.896	0.020337	0.021938	0.0061715	1185.1	0.00023523	0.00024236	1380.5	314.03	0.00023618	0.00023959	507.41	187.34	134.86	44.976	0.00023815	78.021	142.748	149.523	-84.992	-102.292	-62.082	-24.687	-102.380	-96.234	244.022	69.855	-96.431	-92.047	-91.062	-85.091	240.384	-87.065	-8191	255	
14819.742	1	1	0	0	0.025654	0.14117	0.26782	0.26928	0.15789	0.33847	0.16827	0.1359	0.028315	0.18705	0.18054	0.28175	0.10398	0.35374	0.13079	0.17625	-2.6083	-2.4229	-2.825	-3.0167	-2.5187	-2.9042	-2.9146	-2.6354	-3.1521	-2.675	-2.5729	-3.1458	-2.575	-2.8708	-2.6688	-2.6146	-58.260	46.458	2.521	195.285	217.633	228.878	163.840	49.136	-3.044	126.727	-102.319	233.695	-63.050	-67.073	212.810	221.265	0.0012771	0.0025745	0.0004945	705.89	2.1367e-05	2.5835e-06	882.58	150.65	1.3792e-05	3.3306e-05	258.39	103.03	53.397	18.443	2.1198e-05	41.267	0.020191	0.021852	0.0061693	1187.4	0.0002371	0.00024465	1385.7	316.58	0.00024128	0.00024538	508.61	187.35	135.92	45.328	0.00024388	77.974	144.195	-6.793	98.709	-102.704	229.626	-100.877	-102.648	-96.261	3.258	34.032	-96.359	-92.764	-91.158	-84.590	228.159	-87.560	-8191	255	
14819.838	1	1	0	0	0.16248	0.11273	0.065917	0.27413	0.1415	0.20802	0.23504	0.30134	0.15043	0.12531	0.10934	0.28016	0.23872	0.1047	0.17778	0.38798	-2.3583	-2.7542	-2.5854	-3.0021	-2.4875	-2.9396	-2.9917	-2.5833	-2.9083	-2.7292	-2.7333	-2.9083	-2.65	-2.8208	-2.9313	-2.4979	-5.368	150.655	178.647	204.284	180.746	-95.695	188.544	221.114	157.614	-87.923	-104.565	212.003	155.061	-113.051	168.117	115.469	0.00022993	0.0023093	0.00068141	705.11	2.4443e-05	3.0923e-05	874.39	149.02	1.699e-05	8.9982e-06	255	101.33	53.551	18.269	2.0241e-05	40.703	0.020562	0.022296	0.0062518	1189.9	0.00024067	0.00024916	1388.8	316.35	0.00024744	0.00025257	512.69	189.4	138.85	46.23	0.00025239	78.875	105.432	202.910	-53.433	-102.264	-109.780	-70.477	-102.724	-95.850	51.016	219.847	-96.882	-92.046	-91.226	-85.135	194.184	-87.209	-8191	255	
14819.910	1	1	0	0	0.10629	0.15483	0.23839	0.08954	0.14532	0.13461	0.092535	0.26408	0.18075	0.080652	0.1983	0.33603	0.36595	0.16043	0.081382	0.057318	-2.5312	-2.7167	-2.7062	-3.0375	-2.6896	-2.9625	-2.9375	-2.5646	-2.9688	-2.8438	-2.6021	-2.9562	-2.5521	-2.7771	-2.8292	-2.6063	203.143	155.154	219.062	114.950	157.099	98.705	21.101	168.994	-93.558	86.419	14.797	184.276	-63.541	-65.999	95.895	69.554	8.3622e-05	0.0010944	0.00038092	698.6	2.0517e-05	2.6411e-05	869.92	149.18	3.2024e-05	2.2489e-05	252.31	101.52	53.198	18.444	2.8697e-05	40.569	0.021424	0.023169	0.0064518	1200.3	0.00024874	0.00025665	1397.5	320.16	0.00025322	0.00025832	517.79	191.51	141.46	47.162	0.00026121	80.61	-78.774	135.727	-2.664	-102.285	60.335	-47.304	-102.157	-96.327	97.871	32.188	-97.058	-92.290	-91.527	-84.872	2.794	-87.361	-8191	255	
14820.031	1	1	0	0	0.17882	0.13567	0.23199	0.061266	0.26085	0.057466	0.25453	0.27813	0.199	0.020849	0.2442	0.34776	0.052852	0.34113	0.13902	0.17908	-2.4875	-2.7271	-2.4604	-3.0771	-2.6708	-2.6583	-3.0542	-2.3792	-2.8604	-2.8417	-2.5625	-3.0646	-2.7271	-2.6771	-2.9	-2.7521	159.304	-28.376	196.722	-23.067	225.071	35.593	188.654	78.935	245.061	220.184	244.640	155.127	50.280	-86.578	-48.163	21.074	0.0015836	0.0011899	0.00024402	697.36	1.1825e-05	2.7493e-05	874.09	148.16	1.7826e-05	2.0184e-05	253.5	100.46	52.705	17.807	2.8015e-05	39.316	0.022371	0.024198	0.0067122	1224.6	0.00026117	0.00026813	1422.4	327.56	0.00026548	0.00027024	528.71	194.82	145.47	48.388	0.00027717	82.285	148.775	74.898	17.906	-102.416	81.451	-46.981	-102.278	-96.059	-44.836	16.074	-96.970	-91.637	-91.205	-85.078	141.100	-87.474	-8191	255	
14820.127	1	1	0	0	0.14708	0.14961	0.12368	0.3208	0.11246	0.058229	0.073501	0.30202	0.0053353	0.075313	0.2615	0.34191	0.089409	0.21633	0.23476	0.079753	-2.3354	-2.8083	-2.3958	-2.8688	-2.7979	-2.6458	-3.1063	-2.6979	-2.7875	-2.9167	-2.5917	-3.1063	-2.6813	-2.6875	-2.9375	-2.6688	79.893	154.135	-41.037	175.074	89.153	125.022	199.121	212.127	-73.630	-22.239	104.676	210.947	151.911	-73.098	-18.046	220.994	0.00077196	0.0021493	0.00048418	685.69	2.7693e-05	3.9078e-05	995.54	165.21	1.6492e-05	1.963e-05	281.97	110.7	59.534	20.049	2.8626e-05	44.628	0.02419	0.0263	0.007368	1221.3	0.00030642	0.00033219	1672.3	390.01	0.00033372	0.0003363	618.83	226.15	170.39	55.802	0.00032311	92.927	-53.443	208.036	111.140	-112.173	-47.736	55.800	-104.141	-97.741	60.916	61.998	-98.262	-94.142	-92.762	-87.054	189.493	-88.828	-8191	255	
14820.223	1	1	0	0	0.10539	0.23582	0.11935	0.15606	0.042559	0.39576	0.19405	0.083313	0.10365	0.049742	0.24116	0.21092	0.20563	0.11286	0.013483	0.42017	-2.3438	-2.8604	-2.4813	-2.9354	-2.8104	-2.5208	-3.1063	-2.6604	-2.9938	-2.8875	-2.6104	-2.9708	-2.9625	-2.6354	-2.9375	-2.7542	6.035	17.838	-113.287	-75.209	221.191	24.477	156.122	-28.341	125.618	-78.126	213.229	176.898	151.322	163.518	210.004	156.174	0.00062702	0.0053429	0.00038351	796.23	2.2642e-05	3.7549e-06	991.35	167.62	2.0962e-05	4.2467e-05	284.45	114.21	59.915	20.682	8.9115e-06	45.465	0.027017	0.028872	0.0079474	1408.3	0.00030601	0.00030868	1611.1	371.84	0.00030319	0.00030609	591.53	218.54	162.84	53.777	0.00030526	91.727	233.761	-111.067	-114.890	-103.943	169.802	-81.069	-103.724	-97.557	138.906	196.536	-98.335	-93.867	-92.366	-86.337	-6.611	-88.800	-8191	255	
14820.319	1	1	0	0	0.19197	0.1209	0.090857	0.36092	0.15037	0.22972	0.086596	0.14742	0.18837	0.088377	0.079721	0.14394	0.17985	0.098425	0.20154	0.2519	-2.2083	-2.9479	-2.4542	-2.8896	-3.0062	-2.4125	-3.0875	-2.8083	-2.6417	-3.0646	-2.5229	-2.6542	-2.8292	-2.5396	-2.9708	-2.7542	144.770	-74.404	204.245	-112.940	-34.519	54.740	143.173	136.223	115.054	31.888	41.469	-72.923	177.215	67.595	-83.696	156.139	0.001649	0.0015462	0.00098248	794.8	3.2191e-05	1.2706e-05	987.75	166.73	2.7589e-05	3.5554e-05	284.16	113.16	60.31	20.821	5.8555e-06	45.922	0.026086	0.028314	0.0078856	1412	0.00030858	0.00031238	1628.9	377.8	0.00030944	0.0003133	600.34	221.14	165.21	54.295	0.00031	92.326	135.213	231.005	50.588	-104.012	105.409	31.911	-103.643	-97.458	78.985	203.111	-97.951	-94.052	-93.547	-86.336	226.068	-88.736	-8191	255	
14820.415	1	1	0	0	0.12947	0.079684	0.1252	0.46708	0.18356	0.0851	0.36008	0.23495	0.12558	0.27208	0.10243	0.10372	0.070744	0.30301	0.13976	0.2758	-2.1063	-2.9854	-2.575	-2.8729	-2.9562	-2.5333	-2.8875	-2.7875	-2.5229	-3.0667	-2.6104	-2.725	-2.9	-2.5458	-3	-3.0479	112.288	-58.241	12.311	166.417	4.006	235.210	201.838	184.572	236.854	87.050	220.050	-73.026	221.435	146.909	13.770	159.856	0.00061642	0.0020753	0.00049977	802.54	5.3819e-05	2.8808e-05	991.22	167.29	1.0877e-05	2.8307e-05	288.09	114.14	60.602	20.56	2.3695e-05	45.982	0.026035	0.028111	0.0078081	1399.9	0.00030215	0.00030591	1614.8	373.62	0.00030101	0.00030594	595.76	219.93	163.4	53.89	0.0003071	91.93	44.512	4.758	-49.618	-103.424	144.283	34.437	-104.379	-97.529	213.048	42.866	-98.009	-93.801	-92.888	-86.746	184.403	-88.745	-8191	255	
14820.534	1	1	0	0	0.12434	0.20554	0.13723	0.12977	0.1121	0.14666	0.087594	0.27848	0.16969	0.20608	0.32544	0.16862	0.27337	0.032241	0.17296	0.18373	-2.1979	-2.9042	-2.6979	-2.9125	-2.8479	-2.7583	-3.0229	-2.7958	-2.6104	-3.0979	-2.9833	-2.5812	-3.0479	-2.6708	-2.9896	-3.0729	-25.474	60.230	173.035	202.277	112.157	56.244	165.151	-70.127	-50.099	13.940	-106.180	198.223	-79.644	198.020	-114.686	-13.604	0.00077438	0.004189	0.00029332	800.97	1.4636e-05	2.7164e-05	993.76	167.5	8.8157e-06	3.9506e-05	287.85	114.37	59.44	20.647	7.7665e-06	45.744	0.025891	0.028084	0.0077877	1400.5	0.00030208	0.00030696	1618.7	376.69	0.00030527	0.00031285	602.62	221.96	166.03	54.737	0.00031643	93.225	164.178	11.386	19.831	-103.786	27.464	43.573	-103.839	-97.727	70.723	103.427	-98.218	-93.962	-93.506	-87.428	153.220	-88.434	-8191	255	
14820.606	1	1	0	0	0.15791	0.21145	0.12644	0.28447	0.14771	0.024752	0.24148	0.21432	0.20016	0.12617	0.17469	0.26508	0.036283	0.041045	0.16303	0.014222	-2.0667	-2.95	-2.8167	-2.6979	-2.8812	-2.5917	-2.9625	-2.9958	-2.5708	-2.9562	-2.7854	-2.7417	-2.9333	-2.5938	-2.8208	-3.1562	-59.166	124.225	-85.506	-105.735	164.224	80.078	128.944	218.449	-1.775	186.344	202.976	159.121	150.171	43.332	177.827	89.475	0.0003675	0.0008064	0.00062721	800.88	4.0352e-05	2.3868e-05	997.59	168.78	3.1269e-05	2.9821e-05	286.03	113.45	61.269	20.448	2.3973e-05	45.457	0.026568	0.029028	0.0080857	1426.1	0.00031326	0.00031762	1648.1	381.84	0.00031218	0.00032095	611.09	223.8	168.28	55.525	0.00032268	94.365	16.385	-63.907	179.925	-103.742	45.067	54.307	-104.035	-97.356	68.893	-50.746	-98.488	-93.928	-92.353	-86.895	89.857	-88.786	-8191	255	
14820.702	1	1	0	0	0.16915	0.10557	0.086195	0.0717	0.2585	0.11993	0.10099	0.25706	0.13675	0.14988	0.15448	0.20294	0.1722	0.20008	0.16078	0.21411	-2.1854	-2.8604	-2.8979	-2.8208	-2.9813	-2.7	-2.9938	-3.0271	-2.5604	-2.8812	-2.9104	-2.7	-2.8625	-2.875	-2.75	-3.1375	1.911	4.086	204.092	-97.444	-32.691	143.667	180.387	36.176	198.137	-51.281	243.237	110.190	230.988	-107.105	162.700	217.866	0.00047044	0.0032393	9.0306e-05	804.55	1.9231e-05	1.2848e-05	1004	169.96	1.8375e-05	3.9307e-05	284.3	115.11	60.816	20.762	3.431e-05	45.62	0.027232	0.030036	0.0083729	1451.2	0.00032589	0.00033206	1680.7	392.52	0.00032572	0.00033393	623.39	227.48	171.19	56.293	0.00032834	94.887	74.749	-26.779	58.207	-104.014	7.148	-10.948	-103.807	-97.792	62.259	145.661	-98.240	-94.338	-92.981	-86.461	123.958	-89.036	-8191	255	
14820.823	1	1	0	0	0.21603	0.16137	0.083268	0.21781	0.2627	0.21115	0.15501	0.037802	0.18226	0.031818	0.17464	0.11438	0.32255	0.03944	0.13049	0.31293	-2.225	-2.9708	-2.7625	-2.8542	-3.0146	-2.8229	-2.7354	-3.0333	-2.6688	-2.8979	-2.9792	-2.6271	-3.0312	-2.9083	-2.7021	-3.1292	-96.326	207.061	65.394	111.401	237.915	150.683	202.183	207.226	45.009	67.661	-113.017	92.734	72.876	-24.989	115.255	148.350	0.0011847	0.0025932	0.00047093	813.7	2.5497e-05	2.0725e-05	1003	167.39	4.0205e-05	1.427e-05	287.31	114.1	60.161	20.635	3.0954e-05	45.63	0.027462	0.030075	0.0083536	1448.5	0.00032364	0.00032999	1673.4	389.74	0.00032229	0.00033197	620.94	226.2	171.54	56.292	0.00032809	94.902	59.516	134.544	96.450	-103.730	210.563	107.693	-104.079	-97.100	89.617	23.399	-98.145	-93.927	-92.827	-85.930	164.804	-88.830	-8191	255	
14820.919	1	1	0	0	0.1092	0.064979	0.11559	0.13047	0.042483	0.067475	0.17276	0.33243	0.28498	0.22053	0.041094	0.32881	0.12639	0.09904	0.10048	0.16799	-2.1125	-2.5833	-2.8708	-2.625	-2.8729	-2.8208	-2.7625	-2.8854	-2.5625	-2.8771	-2.9396	-2.5979	-3.1708	-2.8792	-2.6271	-3.1312	205.784	100.848	-18.281	84.074	152.133	37.180	98.404	136.618	92.996	1.685	95.686	159.395	187.728	227.178	155.915	197.504	0.00033525	0.0037229	0.0009669	812.34	4.5979e-05	3.1797e-05	988.04	166.91	3.1634e-05	2.3011e-05	285.05	112.54	60.156	20.505	2.0403e-05	45.927	0.027542	0.030136	0.0083602	1448.6	0.00032364	0.00032928	1662	388.72	0.00032209	0.00033011	615.28	223.95	170.27	55.934	0.00032293	94.219	96.353	-51.257	19.337	-103.604	-10.297	33.792	-104.050	-97.767	41.471	-4.825	-98.117	-93.684	-93.046	-86.665	-107.119	-89.467	-8191	255	
14821.015	1	1	0	0	0.089813	0.1406	0.16932	0.37696	0.36222	0.1367	0.32461	0.19257	0.018373	0.33453	0.16107	0.21311	0.13215	0.029738	0.26686	0.25579	-2.325	-2.8979	-3.0896	-2.7333	-2.8417	-2.9292	-2.7083	-3.1396	-2.5396	-2.7083	-3.0104	-2.7812	-2.8458	-2.9	-2.725	-3.1354	134.793	74.227	-1.030	216.375	111.431	129.602	181.278	-76.884	-96.483	53.721	152.612	209.841	67.987	55.325	-72.335	196.028	0.00073145	0.001231	0.00071707	809.2	1.663e-05	2.6976e-05	996.4	167.53	5.4248e-05	1.6007e-05	283.74	114.18	60.545	20.514	1.398e-05	46.154	0.027139	0.02972	0.0082218	1433.7	0.00031773	0.00032299	1645	383.46	0.00031449	0.00032159	609.65	222.28	167.67	55.191	0.00031398	93.548	196.490	114.189	34.349	-103.830	134.716	43.390	-103.867	-97.629	47.826	119.404	-97.914	-93.667	-92.662	-86.155	-109.365	-88.675	-8191	255	
14821.111	1	1	0	0	0.089311	0.17432	0.34015	0.39506	0.073221	0.046836	0.10996	0.13547	0.21382	0.19523	0.091526	0.20619	0.28474	0.24452	0.14066	0.23951	-2.4042	-2.8479	-3.0458	-2.7271	-2.7125	-2.8854	-2.8563	-3.1458	-2.8021	-2.5896	-3.0375	-2.8333	-2.8708	-3.2583	-2.6583	-3.1146	120.801	147.977	80.364	184.841	68.035	-63.529	204.204	227.512	148.179	-7.931	51.073	170.430	-76.819	219.855	-29.410	164.764	0.0015378	0.0019561	0.00025616	912.44	5.7325e-06	6.701e-06	1127.4	189.54	3.4084e-05	2.0268e-05	321.47	129.59	68.325	23.477	2.9075e-05	52.046	0.02641	0.027786	0.0087535	1570.2	0.00034719	0.00035293	1817.7	424.4	0.0003476	0.00035486	676.87	247.87	186.86	61.541	0.00034998	104.4	74.407	-34.366	126.861	-105.417	-21.889	189.475	-105.479	-98.988	-91.401	116.287	-99.469	-95.395	-94.281	-88.326	-28.198	-90.500	-8191	255	
14821.207	1	1	0	0	0.23488	0.18042	0.052348	0.18881	0.14251	0.14452	0.1935	0.35771	0.19117	0.36208	0.075544	0.16194	0.15809	0.11299	0.20027	0.27789	-2.5042	-2.6792	-3.0146	-2.8896	-2.7583	-2.9604	-2.8229	-2.9375	-2.8604	-2.5958	-3.3708	-2.95	-2.8042	-3.0854	-2.6021	-3.0187	84.956	9.092	-93.466	153.274	-28.591	-54.753	218.724	233.982	225.777	-81.216	155.571	241.163	-28.551	202.809	133.192	172.639	0.0012072	0.0036901	0.00068248	906.91	4.1168e-06	2.5652e-05	1128.6	188.87	1.7615e-05	1.1856e-05	323.43	129.47	68.339	23.171	2.6084e-05	51.745	0.029785	0.032284	0.0089968	1583.8	0.00035	0.00035437	1817.7	424	0.00034532	0.00035055	673.78	246.58	184.97	60.898	0.00034537	103.81	137.884	87.793	194.783	-105.311	101.945	114.068	-105.402	-99.679	33.583	30.620	-99.355	-95.121	-94.117	-88.065	61.710	-90.306	-8191	255	
14821.303	1	1	0	0	0.1692	0.28074	0.13069	0.24051	0.089858	0.13504	0.19564	0.08218	0.22613	0.12077	0.29612	0.094392	0.06302	0.28138	0.29068	0.092642	-2.55	-2.5812	-3.0917	-2.8667	-2.6021	-3.1042	-2.7021	-2.8375	-2.8146	-2.7125	-3.1396	-2.7729	-2.9625	-3.2479	-2.7083	-2.9667	88.640	44.545	200.297	15.888	233.353	-104.921	214.460	179.091	55.335	-77.807	169.572	173.088	78.080	192.311	132.304	139.777	0.00039723	0.0024531	0.00046012	903	1.7986e-05	9.174e-06	1124.2	188.14	3.6419e-05	2.3164e-05	322.66	128.52	68.292	22.99	5.6303e-05	51.318	0.029672	0.032097	0.0089748	1583.5	0.00034926	0.00035409	1822.9	426.28	0.0003495	0.00035283	679.62	248.93	187.22	61.866	0.00035476	104.84	78.894	-110.760	-61.459	-105.413	91.872	232.441	-105.482	-98.622	-2.804	62.844	-99.383	-95.362	-94.477	-87.922	62.679	-89.908	-8191	255	
14821.422	1	1	0	0	0.27205	0.056799	0.081357	0.1202	0.24209	0.16688	0.11578	0.16711	0.065933	0.12715	0.036146	0.33087	0.18415	0.25262	0.1604	0.25555	-2.3604	-2.5729	-2.8937	-2.8375	-2.7188	-3.1917	-2.8604	-2.9375	-2.975	-2.4333	-3.1063	-2.8417	-2.6146	-3.0062	-2.7062	-2.8167	100.928	227.726	221.837	-48.013	229.121	-90.621	143.583	188.908	147.403	42.324	28.807	179.830	177.665	155.490	159.209	192.646	0.0020219	0.00051162	0.0002086	908.81	3.1517e-05	4.1019e-05	1127	191.81	1.7384e-05	6.8067e-06	322.51	129.53	68.606	23.645	4.1003e-05	51.461	0.030247	0.032529	0.0091246	1593.8	0.00035142	0.00035646	1823.5	427.29	0.00034852	0.00035222	678.34	248.51	186.28	61.536	0.0003514	104.76	63.595	-82.982	-6.052	-105.478	114.641	-59.652	-105.432	-99.030	6.835	78.085	-99.123	-95.474	-94.372	-88.150	227.445	-90.557	-8191	255	
14821.518	1	1	0	0	0.055573	0.052588	0.051734	0.24791	0.18935	0.11042	0.099308	0.3727	0.30724	0.018497	0.35069	0.20189	0.41302	0.28485	0.13325	0.26036	-2.6937	-2.525	-3.1208	-3.0187	-2.5167	-3.0396	-2.8958	-2.7583	-2.8021	-2.6063	-2.9271	-2.9208	-2.5458	-3.0833	-2.7438	-2.7583	49.782	122.101	-53.765	169.257	194.069	43.809	148.361	78.196	48.969	186.221	212.390	-47.352	180.025	242.564	88.182	188.075	0.0022089	0.0030369	0.0011175	917.01	4.3493e-05	1.0224e-05	1119.9	191.21	1.4669e-05	3.9326e-05	321.73	129.99	68.991	23.412	1.0741e-05	51.672	0.030012	0.032343	0.0090948	1596.4	0.00034834	0.00035581	1824.4	427.29	0.00034731	0.0003503	679.29	248.65	185.25	61.426	0.00035193	104.7	90.636	-114.000	36.509	-105.696	-59.147	174.957	-104.890	-99.428	236.950	-73.113	-99.208	-95.087	-94.770	-87.233	114.500	-90.070	-8191	255	
14821.615	1	1	0	0	0.13908	0.18193	0.018862	0.16874	0.14221	0.12519	0.38067	0.10115	0.30934	0.2017	0.17141	0.18809	0.069053	0.17058	0.077179	0.20799	-2.5458	-2.6542	-2.8708	-2.8458	-2.5542	-3.0438	-2.8792	-2.7354	-3	-2.6271	-2.9854	-3.0167	-2.5917	-2.9729	-2.7896	-2.7438	-91.419	158.085	-65.152	222.650	-20.561	-83.858	155.751	-72.819	235.649	208.601	72.965	205.060	22.059	-88.362	-86.030	148.919	0.00081485	0.0024861	0.00019881	915.13	2.5521e-05	3.4865e-05	1127.9	190.52	1.2193e-05	4.1083e-05	322.28	129.75	68.473	23.335	1.1876e-05	51.622	0.029852	0.032258	0.0091205	1596.5	0.00034848	0.00035732	1832.2	427.07	0.00034845	0.0003527	677.77	248.59	184.94	61.181	0.00034897	103.66	85.007	74.737	-54.173	-105.442	-43.045	97.917	-105.334	-98.935	143.351	140.621	-99.456	-95.464	-94.622	-88.046	178.587	-89.951	-8191	255	
14821.711	1	1	0	0	0.15247	0.11902	0.07775	0.23226	0.12837	0.23401	0.27635	0.11105	0.15698	0.068114	0.24501	0.1725	0.096162	0.09795	0.21571	0.28574	-2.5583	-2.6813	-2.8271	-3.0687	-2.4271	-2.8063	-2.8	-2.6083	-2.9521	-2.5312	-2.8021	-3.0563	-2.4396	-2.8667	-2.7375	-2.5438	-4.363	22.997	114.131	157.756	85.118	90.407	130.619	129.546	87.984	76.540	-19.000	-109.181	128.446	54.990	202.146	232.905	0.00087566	0.0017241	0.00099753	911.29	1.9388e-05	1.2556e-05	1126.7	188.82	1.6264e-05	1.3391e-05	323.23	128.92	69.499	23.173	5.8344e-05	51.93	0.029481	0.031867	0.0089679	1581.1	0.00034291	0.00035294	1819.7	422.7	0.00034459	0.0003493	675.66	246.79	184.09	60.868	0.00034673	103.27	205.642	14.340	70.975	-105.468	-70.833	-82.934	-105.750	-99.177	106.367	-56.724	-99.808	-95.430	-94.629	-88.230	122.225	-90.256	-8191	255	
14821.831	1	1	0	0	0.27363	0.22088	0.061642	0.064712	0.17017	0.090214	0.29905	0.073303	0.02203	0.11612	0.21014	0.25171	0.30283	0.10258	0.05183	0.14196	-2.6604	-2.7271	-2.7271	-2.9104	-2.4104	-2.9188	-2.7875	-2.4604	-3.0229	-2.7125	-2.8479	-3.1396	-2.5687	-2.8688	-2.8688	-2.7792	153.406	114.803	102.845	-70.978	80.239	78.363	150.783	-47.305	45.959	-87.151	183.733	205.887	-109.204	71.634	92.466	151.131	0.00015578	0.0036913	0.0015034	912.75	4.5142e-05	2.1205e-05	1121.2	191.58	1.4838e-05	1.3459e-05	325.49	130.43	68.257	23.039	5.0544e-05	52.143	0.029332	0.031677	0.0089131	1579.6	0.00034167	0.00035234	1817.1	421.37	0.00034384	0.00034714	672.95	245.88	183.05	60.823	0.00034307	102.61	-90.991	-27.735	61.765	-105.220	40.871	236.058	-105.592	-98.694	-70.935	-82.161	-98.942	-95.729	-94.554	-87.330	45.845	-89.772	-8191	255	
14821.903	1	1	0	0	0.096079	0.15002	0.23223	0.16452	0.13612	0.079739	0.2279	0.11898	0.1891	0.088209	0.22282	0.09194	0.33118	0.017333	0.026154	0.22789	-2.5708	-2.6229	-2.7188	-3.15	-2.7	-2.9229	-3.1104	-2.5208	-2.9667	-2.6854	-2.8688	-2.975	-2.6042	-2.7812	-2.8729	-2.6063	-7.289	-2.852	219.840	-105.772	42.564	89.812	170.828	152.970	-4.103	-75.881	164.472	-7.143	95.912	179.286	207.170	191.143	0.0010582	0.0012279	0.00092421	911.32	6.1731e-06	1.4116e-05	1129.1	191.2	3.5316e-05	6.0518e-05	327.23	130.53	68.665	23.419	3.5554e-05	51.628	0.029038	0.031321	0.0087604	1567.5	0.00033561	0.00034573	1806.3	416.77	0.00033711	0.00034184	667.98	244.71	181.34	60.35	0.00033953	102.3	175.533	4.649	155.468	-105.746	89.923	57.725	-105.737	-99.181	55.230	38.522	-99.944	-95.059	-94.254	-88.462	-40.019	-89.880	-8191	255	
14821.999	1	1	0	0	0.076565	0.19673	0.3325	0.062872	0.045959	0.16893	0.20484	0.21845	0.12441	0.073271	0.24017	0.20267	0.024136	0.27137	0.027476	0.40859	-2.4667	-2.8146	-2.3625	-3.1562	-2.4917	-2.7875	-3.0958	-2.4938	-2.975	-2.8979	-2.6917	-3.1354	-2.7833	-2.8083	-2.8271	-2.6854	141.332	-99.837	186.126	-105.716	20.269	164.761	199.715	202.764	8.397	-89.831	-97.986	211.701	216.652	156.811	177.174	168.022	0.0020426	0.00037353	0.00059973	911.21	2.631e-05	8.6295e-06	1137	190.16	2.9986e-05	2.6807e-05	323.99	127.27	68.996	23.337	3.7184e-05	51.6	0.028896	0.031298	0.0087599	1571	0.00033681	0.00034814	1813.4	417.76	0.00034057	0.00034559	667.98	244.56	182.49	60.334	0.00034224	102	116.829	79.051	180.852	-105.752	-115.907	44.017	-105.577	-99.696	164.324	42.170	-99.807	-95.241	-94.625	-88.524	111.128	-90.096	-8191	255	
14822.120	1	1	0	0	0.18391	0.017711	0.13182	0.08221	0.30078	0.15017	0.063935	0.12562	0.15273	0.093988	0.14934	0.43533	0.10575	0.18624	0.076342	0.15405	-2.5833	-2.6667	-2.5021	-3.1104	-2.6375	-2.7583	-3.0146	-2.5979	-2.7833	-2.8583	-2.6667	-2.9771	-2.5333	-2.8792	-2.9458	-2.7042	24.315	-107.618	14.544	219.289	206.299	15.382	212.185	-90.872	43.944	-47.509	-65.030	163.822	-13.581	174.013	175.519	-100.590	0.00042351	0.00097981	0.00084071	918.04	1.1937e-05	2.8335e-05	1129.5	191.34	2.3022e-05	3.3728e-05	324.42	129.31	68.907	23.218	1.7814e-05	51.835	0.029161	0.031418	0.0087477	1578.8	0.00033765	0.00034692	1810.2	416.66	0.00033737	0.00034037	660.14	242.29	180	59.434	0.0003324	100.74	19.827	221.351	33.445	-105.623	-64.973	47.011	-105.367	-98.554	57.048	66.040	-99.747	-95.618	-94.318	-88.271	46.301	-90.057	-8191	255	
14822.214	1	1	0	0	0.15624	0.038651	0.041528	0.16809	0.071889	0.095387	0.021017	0.14524	0.12223	0.13684	0.30559	0.10321	0.084752	0.12161	0.18067	0.079253	-2.3146	-2.5729	-2.3625	-3.0896	-2.6417	-2.6542	-3.0542	-2.3792	-2.9167	-2.8042	-2.5042	-2.9188	-3.0042	-2.6208	-3.0292	-2.6813	-68.652	83.690	129.600	151.827	-79.604	210.045	-113.704	184.829	190.824	72.363	203.190	242.537	121.670	-57.403	237.762	199.919	0.0010303	0.0031557	0.00033217	911.3	1.5183e-05	2.4258e-05	1125.9	191.38	2.1927e-05	3.1644e-05	325.62	130.6	69.331	23.252	4.1967e-05	51.819	0.028273	0.030393	0.0084602	1552.4	0.0003312	0.00033971	1801.9	415.63	0.00033853	0.00034286	663.84	245.04	182.51	60.058	0.00033887	102.1	142.310	179.055	-11.238	-105.292	-93.812	91.087	-105.144	-99.060	48.771	-90.325	-99.799	-95.242	-93.822	-88.156	45.293	-90.011	-8191	255	
14822.310	1	1	0	0	0.30397	0.2088	0.25023	0.26309	0.21551	0.090933	0.19366	0.11994	0.32315	0.029354	0.14591	0.16137	0.12763	0.21028	0.12665	0.15234	-2.2292	-2.7333	-2.375	-3.0062	-2.7333	-2.45	-3.1417	-2.675	-2.6458	-3.0646	-2.5167	-2.9979	-2.7479	-2.5854	-2.8958	-2.7562	-34.173	170.106	120.358	235.223	232.473	17.692	203.499	-61.260	-17.900	10.769	18.704	185.330	178.111	96.224	38.040	214.754	0.0006609	0.0052537	0.00011961	922.2	1.0881e-05	3.2458e-05	1126.7	190.48	1.8445e-05	5.9468e-05	323.31	130.44	69.134	23.594	3.1083e-05	51.757	0.028817	0.031077	0.0085942	1569	0.00033516	0.00034059	1800.8	414.28	0.00033428	0.00033812	658.89	243.28	179.79	59.049	0.00033017	100.83	92.291	-0.403	-96.168	-105.390	-61.896	31.429	-105.437	-99.048	241.740	80.204	-99.780	-95.361	-94.649	-87.935	184.379	-90.005	-8191	255	
14822.407	1	1	0	0	0.10864	0.12133	0.05873	0.091429	0.30748	0.13342	0.30438	0.47899	0.13805	0.25514	0.16328	0.11636	0.11709	0.061769	0.27296	0.024881	-2.2167	-2.9667	-2.4188	-2.9729	-2.8125	-2.4771	-3.0604	-2.8125	-2.7062	-2.9562	-2.6042	-2.8937	-2.8417	-2.5563	-2.9313	-2.7229	208.799	-29.411	238.740	-2.491	84.643	51.899	142.034	135.661	27.639	-112.538	-84.456	152.175	175.038	3.866	76.040	143.091	0.00063416	0.00029607	0.0011937	916.03	2.222e-05	3.4623e-05	1124	188.24	2.2915e-05	2.8666e-05	322.46	128.78	68.071	23.308	3.4698e-05	51.344	0.027965	0.030128	0.0083527	1541	0.00032365	0.00032895	1774.2	407.02	0.0003244	0.00032838	646.19	238.57	176.33	57.866	0.00032181	99.256	-69.330	-97.400	-39.348	-105.814	-33.993	158.850	-105.148	-98.989	226.335	43.935	-99.666	-94.550	-94.599	-88.086	124.147	-90.004	-8191	255	
14822.504	1	1	0	0	0.13274	0.095731	0.21184	0.25581	0.12952	0.22415	0.34047	0.053391	0.070293	0.15321	0.21054	0.24845	0.10651	0.25844	0.16477	0.32952	-2.1979	-2.9042	-2.5729	-2.9646	-2.8479	-2.3667	-2.9646	-2.8896	-2.5833	-3.0563	-2.6063	-2.8854	-2.8333	-2.4479	-2.8229	-2.7313	89.427	10.121	215.636	93.092	-102.957	-15.501	213.498	143.519	225.812	1.570	189.457	225.901	144.597	229.936	22.788	166.804	0.001099	0.0032445	0.0010927	910.31	4.9673e-05	4.2325e-05	1126.3	187.94	3.8505e-05	1.0292e-05	319.75	128.65	66.914	23.252	1.2739e-05	52.049	0.027189	0.029413	0.0081696	1520.9	0.00031625	0.00032086	1753.7	400.32	0.00031508	0.00032053	639.17	236.52	173.43	57.318	0.00031775	98.682	206.972	80.889	57.191	-105.191	116.526	157.967	-105.303	-99.373	-15.313	69.524	-100.029	-95.248	-94.584	-87.899	-21.893	-90.447	-8191	255	
14822.599	1	1	0	0	0.3135	0.21812	0.20371	0.11063	0.21203	0.21317	0.11786	0.25152	0.19012	0.18769	0.23645	0.020651	0.1312	0.21341	0.20147	0.069772	-2.1458	-2.8854	-2.7562	-2.8458	-2.9417	-2.5229	-2.8917	-2.8146	-2.5667	-2.9479	-2.6271	-2.7417	-2.7979	-2.6479	-2.7583	-2.9958	209.885	15.675	233.414	142.841	34.299	205.628	138.685	107.133	130.655	-46.769	-31.830	191.036	96.065	174.690	203.775	183.371	0.00057532	0.001917	0.00033669	906.43	2.3901e-05	4.0355e-05	1115.8	190.29	2.7142e-05	1.0216e-05	322.46	129.86	68.292	23.037	3.5111e-05	52.041	0.026873	0.029113	0.0080595	1510.2	0.00031166	0.00031492	1735.1	395.61	0.00030563	0.00030936	626.55	231.99	168.91	55.653	0.00030382	96.784	84.921	127.267	196.514	-105.352	242.407	163.653	-105.412	-99.328	52.101	-80.527	-99.226	-95.036	-95.355	-87.728	196.222	-90.263	-8191	255	
14822.695	1	1	0	0	0.018504	0.29597	0.11525	0.25265	0.31089	0.12409	0.28279	0.2904	0.031833	0.22279	0.25361	0.073884	0.062335	0.23521	0.12219	0.13001	-2.0292	-2.7292	-2.675	-2.7562	-2.8688	-2.5208	-3.1479	-2.8771	-2.4292	-3.1312	-2.8146	-2.7271	-3.0125	-2.6354	-2.7979	-3.0792	-83.338	168.565	-1.167	174.504	-49.002	3.371	160.603	131.552	193.755	24.540	194.483	181.127	237.178	50.159	-49.982	174.059	0.0011239	0.0028601	0.00068254	903.51	3.5534e-05	4.0725e-05	1117.8	190.05	4.5845e-05	1.1582e-05	319	129.56	67.029	22.811	2.1638e-05	51.271	0.025631	0.028097	0.0078241	1490.3	0.00030579	0.0003109	1734.1	395.71	0.00030724	0.00031462	631.08	233.76	171.53	56.54	0.00031554	97.65	151.926	-60.125	33.378	-105.341	-37.095	82.800	-105.833	-99.124	48.654	-40.209	-99.820	-95.203	-94.522	-87.417	-97.689	-90.105	-8191	255	
14822.791	1	1	0	0	0.20158	0.20658	0.080216	0.095641	0.1694	0.14905	0.25756	0.021848	0.054145	0.23383	0.27487	0.15696	0.29679	0.081	0.14352	0.23443	-1.9229	-2.8833	-2.8125	-2.8646	-3.1417	-2.575	-2.9396	-2.9437	-2.4188	-3.0646	-2.8271	-2.8125	-3.0563	-2.6583	-2.7625	-3.0521	-77.630	74.823	90.880	-43.063	-86.854	89.108	156.022	102.817	188.241	91.931	-89.798	-49.575	176.246	129.097	104.525	211.339	0.0006196	0.005129	0.0008194	910.45	4.3482e-05	3.7999e-05	1113.3	185.17	3.1244e-05	5.3479e-05	310.27	124.39	65.713	22.23	1.723e-05	49.491	0.026644	0.029279	0.0081385	1515.2	0.00031609	0.0003204	1746.3	396.62	0.00031312	0.00031984	629.85	230.82	171.54	56.122	0.00031926	96.856	109.477	-72.376	37.107	-105.492	24.674	-82.007	-105.568	-99.326	228.513	-104.034	-99.783	-95.191	-94.184	-87.682	46.914	-90.573	-8191	255	
14822.912	1	1	0	0	0.18738	0.10954	0.1411	0.21223	0.22492	0.14748	0.23809	0.30883	0.082543	0.16205	0.21769	0.13377	0.088166	0.29969	0.052954	0.0079828	-2.1479	-2.8604	-2.9917	-2.8375	-2.825	-2.4583	-2.825	-3.2479	-2.7	-2.7687	-2.8187	-2.5854	-3.0812	-2.7104	-2.5812	-3.1562	-49.794	-8.338	-78.450	222.228	-18.168	-32.473	-96.913	23.379	-24.515	33.424	172.398	-86.249	-82.751	-59.534	106.395	123.232	0.0007944	0.0046085	0.00078238	905.27	2.8185e-05	3.2191e-05	1107.1	187.18	4.487e-05	2.6249e-05	309.86	124.48	65.931	22.216	3.6053e-05	49.3	0.026955	0.029645	0.0082185	1517.4	0.00031649	0.000321	1741	395.82	0.00031058	0.00031843	626.8	229.63	170.37	55.687	0.00030969	95.251	189.982	-30.164	135.439	-105.524	138.562	94.006	-105.715	-99.305	-69.407	103.155	-99.410	-95.660	-95.027	-87.836	230.189	-90.247	-8191	255	
14823.008	1	1	0	0	0.18175	0.22379	0.18247	0.17614	0.041323	0.072528	0.27511	0.027332	0.10941	0.090728	0.10816	0.093304	0.28874	0.25886	0.14052	0.22019	-2.1667	-2.9896	-2.7875	-2.7667	-2.8771	-2.9479	-2.675	-3.0708	-2.475	-3.1104	-3.0312	-2.5396	-3.0833	-2.6437	-2.5917	-3.0563	156.282	144.205	172.768	198.641	-53.843	191.447	-43.031	-13.379	214.299	48.526	-9.998	179.201	217.018	-76.452	-92.224	-114.434	0.00075623	0.0037604	0.00093916	896.09	1.6891e-05	2.8136e-05	1104.7	184.43	3.4224e-05	2.4093e-05	319.27	126.46	67.31	22.236	9.3122e-05	50.834	0.025878	0.028259	0.00784	1473.7	0.00030216	0.00030661	1705.4	386.71	0.00029812	0.00030614	619.02	227.53	167.96	55.184	0.00030378	95.515	172.910	97.778	-114.381	-105.359	98.340	-98.922	-105.257	-99.200	185.499	-40.021	-99.672	-95.168	-95.062	-88.198	85.914	-90.245	-8191	255	
14823.104	1	1	0	0	0.25835	0.10137	0.11819	0.21357	0.09765	0.28763	0.19473	0.20094	0.21478	0.14123	0.29036	0.13658	0.17374	0.18826	0.14489	0.2813	-2.1146	-2.8125	-2.9604	-2.7021	-3.2271	-2.9375	-2.7729	-3.0854	-2.6646	-2.7438	-3.1271	-2.6396	-2.8854	-2.9417	-2.8208	-3.0333	175.514	-31.678	227.225	-60.716	100.619	-9.828	214.770	-92.860	-90.849	-93.607	177.393	206.526	203.059	-51.285	135.149	-32.240	0.00061304	0.0016085	0.00098245	900.88	1.7128e-05	1.3613e-06	1109.4	187.98	1.3449e-05	4.2545e-05	319.72	126.68	68.047	22.962	3.3788e-05	51.035	0.025596	0.02807	0.0078108	1477.2	0.00030267	0.00030931	1716.4	392.17	0.00030348	0.00031171	626.34	229.79	169.68	55.791	0.00030251	95.82	90.869	116.973	-80.087	-105.362	151.643	-43.719	-105.414	-99.500	71.594	90.319	-99.226	-95.677	-94.431	-87.348	30.903	-90.123	-8191	255	
14823.200	1	1	0	0	0.21967	0.12442	0.010838	0.37571	0.3785	0.16603	0.3254	0.16891	0.17582	0.16986	0.10786	0.030102	0.17982	0.15054	0.10776	0.09997	-2.2687	-2.8021	-2.7396	-2.6125	-3.0708	-2.8646	-2.7562	-3.0229	-2.6562	-2.7	-3.0667	-2.6396	-3.0021	-2.9583	-2.4188	-3.0563	151.788	229.670	76.892	157.480	153.756	143.608	223.510	196.833	-35.197	-117.033	-99.635	192.674	-50.241	-116.092	-35.998	-92.661	0.00032884	0.0011906	0.0017036	899.47	8.6529e-06	1.4545e-05	1116.4	188.06	2.995e-05	4.2272e-05	320.98	127.32	66.817	22.755	3.3529e-05	50.01	0.025513	0.027855	0.0076967	1467.7	0.0002994	0.00030419	1706.7	388.19	0.00029834	0.00030667	623.39	229.16	169.57	55.951	0.00030865	96.745	194.379	-0.102	83.334	-104.989	241.116	43.618	-105.384	-99.214	229.255	188.817	-100.103	-95.419	-94.329	-87.670	183.338	-90.210	-8191	255	
14823.296	1	1	0	0	0.024365	0.12846	0.10571	0.2361	0.11934	0.019282	0.22764	0.10609	0.14093	0.17038	0.11614	0.052891	0.20689	0.31808	0.37872	0.11853	-2.3875	-2.45	-2.9188	-2.5167	-2.8167	-2.8125	-2.5896	-3.0062	-2.7062	-2.7438	-3.1604	-2.5729	-2.8208	-2.8854	-2.5583	-3.075	230.797	74.965	30.009	-115.045	142.976	132.187	183.650	15.342	168.339	-63.453	226.682	-56.674	-98.640	-92.366	139.459	158.332	0.00079946	0.0011745	0.00049433	915.26	1.5809e-05	1.8485e-05	1120.6	188.49	2.1215e-05	3.8253e-05	317.89	127.26	67.362	22.787	5.1838e-05	50.505	0.026386	0.028859	0.0080246	1506	0.00031244	0.00031804	1737.7	396.8	0.00031042	0.00031591	632.34	231.63	171.93	56.473	0.00031136	97.217	-6.733	-72.779	-30.636	-105.293	165.658	31.612	-105.870	-99.459	213.545	4.909	-99.673	-95.097	-94.017	-88.483	153.167	-90.404	-8191	255	
14823.391	1	1	0	0	0.046917	0.094569	0.13689	0.10849	0.088757	0.31524	0.41123	0.15554	0.25601	0.31282	0.20509	0.21212	0.17884	0.16714	0.28776	0.1981	-2.2396	-2.5812	-3.1896	-2.6708	-2.8417	-2.9271	-2.5854	-3.0687	-2.8438	-2.5708	-2.9042	-2.8521	-2.9458	-2.9021	-2.4458	-2.8937	-75.509	104.742	42.808	239.404	6.762	31.556	107.300	166.123	188.969	199.627	-65.094	169.869	166.144	199.581	74.878	100.350	0.001429	0.0032131	0.00031926	909.95	1.7473e-05	1.5793e-05	1126.7	188.67	1.0196e-05	3.0763e-05	321.3	127.57	68.226	22.83	2.0503e-05	51.306	0.026525	0.028798	0.0080405	1508.6	0.00031094	0.00031593	1741	398.01	0.00030936	0.00031369	633.05	232.73	172.32	56.54	0.00030997	97.658	165.615	-36.878	47.844	-105.278	-70.359	-116.593	-105.484	-99.058	80.035	-24.106	-99.499	-95.220	-94.159	-88.074	-70.972	-89.844	-8191	255	
14823.511	1	1	0	0	0.21854	0.051261	0.10804	0.032578	0.14664	0.13462	0.20907	0.2304	0.2297	0.067016	0.17657	0.085378	0.051951	0.055991	0.1798	0.077751	-2.4708	-2.4208	-3.0458	-2.7292	-2.7542	-3.0021	-2.5958	-3.0208	-2.8333	-2.5229	-3.0479	-2.8208	-2.8542	-2.9542	-2.5583	-3.0208	21.912	231.694	-13.517	235.743	-96.040	137.938	125.461	-106.548	117.543	-44.473	226.088	-34.764	65.395	176.266	39.832	155.985	0.00039171	0.0024341	0.00078873	918.1	8.5904e-06	1.7545e-05	1126.6	189.32	2.3484e-05	3.4733e-05	322.64	129.51	68.629	23.278	3.5291e-05	51.423	0.026488	0.028631	0.0079876	1506.2	0.00031012	0.00031497	1741.7	397.68	0.0003089	0.00031252	633.24	233.24	171.83	56.469	0.00030715	97.203	13.383	26.595	60.665	-105.474	-58.295	55.240	-105.738	-99.618	31.032	150.077	-99.425	-95.414	-93.745	-88.324	-47.201	-90.357	-8191	255	
14823.608	1	1	0	0	0.251	0.15019	0.11522	0.30034	0.10536	0.26359	0.40591	0.16298	0.059016	0.19745	0.092317	0.15602	0.18571	0.35138	0.28795	0.098803	-2.35	-2.475	-2.9292	-2.6937	-2.55	-3.05	-2.9062	-2.9	-3.0062	-2.5938	-3.0854	-2.8542	-2.7354	-2.975	-2.7625	-2.9104	182.594	59.017	-89.537	153.316	-66.071	181.073	214.666	-29.644	58.204	-23.573	183.029	81.585	75.965	233.667	193.926	198.005	0.0005889	0.00023149	0.00054951	911.43	3.7278e-05	1.5076e-05	1124.6	189.37	5.6503e-06	1.006e-05	317.17	127.64	68.144	22.745	4.7649e-05	50.96	0.026115	0.028121	0.0078921	1499.4	0.00030651	0.0003133	1738.8	397.05	0.00030932	0.00031285	632.9	232.58	171.92	56.577	0.00031056	97.287	17.800	64.738	102.060	-105.745	122.123	119.104	-105.471	-98.705	10.784	-96.448	-99.153	-94.973	-94.601	-88.627	87.401	-89.536	-8191	255	
14823.704	1	1	0	0	0.078023	0.096122	0.056358	0.29141	0.084137	0.13592	0.1703	0.21095	0.23962	0.048673	0.40255	0.3407	0.22583	0.17134	0.16503	0.083862	-2.3958	-2.475	-3.0458	-2.7979	-2.6708	-3.1917	-2.8604	-2.8792	-2.875	-2.5979	-3	-2.8375	-2.5687	-3.1792	-2.75	-2.6396	-106.526	57.851	32.301	223.781	-68.720	-67.271	95.487	203.921	17.943	98.330	164.461	233.166	-92.471	173.591	87.388	-51.484	0.00044418	0.0028999	0.001005	922.53	1.8308e-05	1.5754e-05	1134.4	190.89	2.6464e-05	2.44e-05	323.53	128.23	67.89	23.02	2.8163e-05	51.058	0.026522	0.028505	0.0080274	1514.9	0.0003094	0.00031761	1752.1	400.8	0.0003125	0.00031662	640.23	234.63	173.24	57.367	0.00031626	98.451	140.741	39.175	-70.801	-105.756	25.502	76.901	-105.874	-99.590	-49.827	127.932	-99.525	-95.429	-94.649	-87.917	156.275	-89.791	-8191	255	
14823.775	1	1	0	0	0.093102	0.096413	0.24266	0.13674	0.40314	0.20263	0.13984	0.043145	0.16195	0.21371	0.16389	0.30512	0.23865	0.12849	0.19543	0.041163	-2.5979	-2.6104	-2.6896	-2.9833	-2.5708	-3.1229	-2.8125	-2.6813	-3.0125	-2.7521	-3.075	-3.0271	-2.6896	-3.0563	-2.8688	-2.7521	-83.892	-108.780	90.759	210.231	161.241	-101.450	168.253	-23.018	7.479	205.408	-96.190	213.258	179.737	-22.223	94.184	150.886	0.00069793	0.0017215	0.00045585	912.64	2.8273e-05	2.9345e-05	1138.5	189.04	2.7196e-05	2.5703e-05	324.49	129.49	68.067	22.994	5.431e-05	51.981	0.02701	0.029081	0.0081812	1520	0.00031153	0.00031862	1751.7	399.19	0.00030968	0.00031274	636.3	233.99	171.34	56.805	0.00030996	97.775	183.290	231.183	-112.610	-105.718	72.023	55.236	-105.553	-98.884	31.543	-74.496	-99.642	-95.343	-94.169	-88.073	222.526	-90.641	-8191	255	
14823.896	1	1	0	0	0.020351	0.16389	0.10581	0.10543	0.054061	0.1624	0.11291	0.15992	0.036183	0.13166	0.13037	0.1464	0.35372	0.14647	0.2158	0.17094	-2.4792	-2.5604	-2.6875	-3.0167	-2.5875	-3.0042	-2.9313	-2.5312	-3.0438	-2.6146	-2.9396	-3.0021	-2.55	-3.0167	-2.9396	-2.6354	41.154	111.731	83.571	211.509	163.106	39.178	196.753	-110.103	89.375	52.602	-65.021	-115.539	-105.769	-99.109	191.148	-104.705	0.0001707	0.0031016	0.00018566	927	6.0545e-06	9.3158e-06	1135.9	192.1	4.6419e-05	2.8968e-05	326.05	129.8	68.886	23.342	2.3211e-05	51.52	0.026431	0.028419	0.0080495	1515.8	0.00030804	0.0003168	1756.1	399.15	0.00030965	0.00031239	637.37	234.57	170.96	56.811	0.00031026	97.5	-27.386	-14.003	-33.355	-105.519	30.283	168.898	-105.103	-99.371	141.632	200.060	-99.869	-95.212	-93.836	-88.767	-16.508	-90.352	-8191	255	
14823.992	1	1	0	0	0.13616	0.17419	0.22555	0.19434	0.21103	0.018592	0.34303	0.043047	0.1532	0.26234	0.10505	0.15253	0.19975	0.14745	0.15377	0.15403	-2.5792	-2.6333	-2.725	-3.0333	-2.675	-2.7021	-2.8438	-2.6583	-3.0187	-2.7125	-2.6813	-2.7271	-2.6771	-2.75	-2.9458	-2.6333	195.582	-112.020	-48.851	56.108	160.862	49.371	152.291	65.820	181.026	-46.499	139.951	-96.996	151.760	-20.591	225.850	117.577	0.00041571	0.0017986	0.00037416	916.73	2.7887e-05	6.5737e-05	1139.9	190.47	2.0958e-05	3.1558e-05	322.05	129.2	67.836	23.097	4.5356e-05	51.314	0.026293	0.028453	0.0079926	1511.5	0.0003053	0.00031448	1749.4	395.96	0.00030626	0.0003118	634.76	233.43	171.53	56.959	0.0003135	97.578	121.662	-82.478	239.582	-105.412	36.575	142.970	-105.530	-99.522	65.264	236.823	-99.722	-95.471	-94.442	-87.858	38.695	-90.031	-8191	255	
14824.088	1	1	0	0	0.29332	0.12497	0.0055269	0.1729	0.25054	0.24349	0.27326	0.14387	0.14629	0.0756	0.29166	0.31148	0.035921	0.26728	0.30765	0.0073587	-2.7146	-2.6583	-2.6104	-3.2521	-2.5687	-2.9188	-3.0687	-2.6688	-3.0125	-2.8021	-2.5875	-2.9458	-2.4062	-2.8667	-2.9042	-2.5958	77.529	191.841	184.595	197.477	105.733	240.168	188.582	166.156	14.065	188.279	139.961	230.411	-46.302	172.916	136.017	-102.315	0.0013183	0.0020137	0.00048536	927.21	3.2093e-05	2.9098e-05	1135	188.71	3.7351e-05	2.3551e-05	322.93	128.54	67.692	22.942	4.564e-05	51.471	0.026691	0.028904	0.0081285	1529.3	0.00031295	0.00032339	1771.9	401.46	0.00031825	0.00032235	644.57	236.36	173.96	57.527	0.00031771	98.085	22.183	209.117	193.631	-105.621	85.364	-95.464	-105.734	-99.092	-69.735	151.002	-99.762	-95.133	-94.448	-87.863	94.955	-89.997	-8191	255	
14824.184	1	1	0	0	0.16835	0.074609	0.052871	0.11453	0.19469	0.33337	0.16603	0.087564	0.096502	0.17022	0.099422	0.10952	0.29222	0.1118	0.11622	0.12924	-2.3458	-2.7542	-2.6833	-3.0875	-2.6042	-2.6937	-3.1688	-2.7938	-2.7375	-2.7562	-2.675	-3	-2.5375	-2.7708	-2.9854	-2.7104	88.385	149.446	-55.286	51.456	214.957	33.690	107.236	220.181	93.844	174.901	31.770	195.019	224.681	-45.078	19.219	112.586	0.00093393	0.0031712	0.00023519	920.44	4.6984e-05	3.5946e-06	1140.6	190.58	2.2229e-05	2.1246e-05	323.24	129.35	67.464	23.019	4.7361e-05	52.265	0.0269	0.029051	0.0080619	1522.9	0.00030965	0.00031833	1758.4	398.98	0.00031131	0.00031584	636.9	234.49	171.96	56.967	0.00031246	97.567	118.598	-45.945	-42.038	-105.415	207.866	156.919	-105.804	-99.337	36.641	169.897	-99.924	-95.048	-94.661	-87.359	79.462	-89.958	-8191	255	
14824.303	1	1	0	0	0.081	0.13312	0.10659	0.32823	0.20404	0.26496	0.17484	0.27193	0.040986	0.1206	0.19312	0.079659	0.03858	0.059463	0.17294	0.1871	-2.3854	-2.8354	-2.4604	-3.1813	-2.6271	-2.6583	-2.9896	-2.8083	-2.8125	-2.7542	-2.4833	-3.2271	-2.7958	-2.7479	-2.7771	-2.6104	103.671	208.405	234.608	213.065	19.570	-112.408	185.726	207.281	230.081	155.475	73.132	112.304	141.005	227.703	177.597	-109.151	0.00055794	0.0029745	0.00066539	929.15	1.1033e-05	1.2476e-05	1142.8	188.27	3.9857e-05	4.0126e-05	325.6	129.27	67.766	23.007	8.4914e-06	50.981	0.026581	0.028795	0.0079956	1521.2	0.00030924	0.00031769	1765.8	398.56	0.00031188	0.00031715	638.08	234.92	172.53	56.875	0.000313	97.293	112.396	-85.700	85.336	-105.416	106.716	-87.498	-105.688	-98.467	14.519	180.118	-99.087	-95.576	-94.206	-88.112	-10.660	-90.132	-8191	255	
14824.377	1	1	0	0	0.0057725	0.27392	0.16618	0.23104	0.19998	0.070853	0.11177	0.093086	0.19552	0.3091	0.21941	0.1175	0.13432	0.088392	0.067073	0.082065	-2.4292	-2.9521	-2.6917	-2.9208	-2.6833	-2.575	-3.1312	-2.575	-2.7271	-3.0187	-2.4896	-2.9667	-2.7521	-2.7167	-2.8833	-2.5792	-16.503	135.698	-64.561	224.612	4.171	-28.391	210.491	-91.457	238.538	53.226	185.115	236.281	-108.636	209.042	164.211	-58.839	0.00077761	0.003059	0.00059343	917.64	2.2956e-05	1.623e-05	1144.5	190	4.9445e-05	1.5992e-05	322.88	129.05	67.85	22.805	1.4155e-05	50.729	0.026647	0.028734	0.0079785	1519.2	0.00030904	0.00031607	1751.9	395.11	0.00030998	0.0003126	630.14	232.68	171.52	56.494	0.00031197	97.134	20.555	-45.224	58.368	-105.557	-1.163	-70.791	-105.423	-98.788	-80.314	63.943	-99.615	-95.657	-94.903	-88.164	132.280	-90.164	-8191	255	
14824.473	1	1	0	0	0.31418	0.278	0.16037	0.2896	0.12733	0.17048	0.1635	0.26145	0.14555	0.076663	0.13274	0.3645	0.070239	0.074393	0.090921	0.085573	-2.5771	-2.9417	-2.375	-2.8104	-2.7729	-2.6875	-3.2104	-2.6437	-2.6396	-3.0646	-2.6	-2.8542	-2.7604	-2.5396	-2.975	-2.7625	164.912	6.652	-42.296	198.419	60.970	194.621	173.772	221.586	-88.459	226.028	118.288	172.848	94.475	29.118	104.356	230.292	0.00096395	0.0019147	0.00092394	922.32	1.4444e-05	2.5758e-05	1141.1	188.23	4.0869e-05	1.5743e-05	319.42	127.91	68.143	22.817	2.76e-05	51.081	0.026781	0.02896	0.0080495	1529.5	0.00031314	0.00032074	1766.9	399.8	0.00031553	0.0003192	634.76	234.56	173.39	56.772	0.0003146	97.673	135.593	44.701	7.634	-105.174	219.595	52.539	-105.602	-99.249	97.189	17.107	-99.662	-95.075	-94.414	-88.316	126.158	-90.212	-8191	255	
14824.592	1	1	0	0	0.24662	0.1217	0.17018	0.231	0.35172	0.13374	0.13988	0.17406	0.27348	0.19711	0.13652	0.13977	0.03802	0.41856	0.10084	0.23054	-2.0604	-2.8833	-2.4083	-2.8917	-3.0667	-2.5271	-3	-2.6	-2.6625	-3.2042	-2.65	-3.05	-2.8812	-2.5083	-3.0042	-2.8521	95.194	131.877	4.518	164.614	91.950	-110.335	153.930	191.541	88.449	195.480	125.076	-17.573	-15.732	187.407	56.095	222.070	0.00086857	0.0025262	0.00060446	920.96	7.6459e-06	1.0012e-05	1140.4	190.44	2.9412e-05	1.6038e-05	320.42	128.71	67.972	22.923	3.5325e-05	51.728	0.026743	0.02879	0.0079804	1523.6	0.00031171	0.00031698	1760.6	397.16	0.00030982	0.0003135	631.65	234.02	171.52	56.412	0.0003109	97.42	169.446	-62.925	-114.079	-105.556	207.168	65.725	-105.654	-99.229	26.476	42.215	-99.908	-95.373	-94.272	-88.214	227.931	-90.315	-8191	255	
14824.688	1	1	0	0	0.21861	0.20434	0.12273	0.10758	0.16946	0.12076	0.21549	0.10605	0.11911	0.29163	0.19883	0.19911	0.17342	0.18875	0.20228	0.15339	-2.3104	-2.925	-2.4938	-2.9417	-2.8521	-2.6042	-3.15	-2.6979	-2.7083	-3.0875	-2.8333	-2.8146	-3.0438	-2.5833	-2.9208	-2.8417	211.920	186.389	57.137	-63.995	39.645	31.031	156.863	242.647	156.438	143.229	92.168	173.876	216.456	-29.816	62.861	201.178	0.00039583	0.0041274	0.00046271	925.26	2.4853e-05	1.0271e-05	1139.5	190.31	3.0897e-05	1.6053e-05	326.66	129.41	68.313	22.961	1.162e-05	51.482	0.026329	0.028625	0.0079424	1520.9	0.00030985	0.0003137	1764.5	399.66	0.00031056	0.00031582	635.5	235.1	173.11	56.807	0.00031728	98.087	74.210	-65.071	65.321	-105.337	192.257	237.006	-105.304	-99.009	210.675	-116.124	-99.826	-95.486	-95.170	-88.413	238.981	-90.118	-8191	255	
14824.784	1	1	0	0	0.14541	0.10713	0.2573	0.19066	0.029359	0.1853	0.18209	0.16408	0.234	0.2204	0.024269	0.23794	0.25312	0.19564	0.040015	0.23614	-2.1333	-2.875	-2.6333	-2.9375	-3.1521	-2.6146	-3.1188	-2.8104	-2.5438	-2.9396	-2.8458	-2.8146	-3.1063	-2.475	-2.8958	-2.8771	112.570	-67.256	-30.369	194.211	-53.912	-12.679	161.697	186.695	32.032	68.483	-57.515	233.138	-65.372	122.105	54.918	223.937	0.00062132	0.0021527	0.00099801	921.19	1.6182e-05	2.1348e-05	1141	188.5	8.6395e-06	2.867e-05	324.53	127.74	67.439	23.153	3.8696e-05	50.486	0.026906	0.029205	0.0081544	1537.3	0.00031886	0.00032455	1783.3	405.89	0.00032133	0.00032785	647.83	238.01	176.61	57.887	0.00032747	99.093	68.877	-66.749	-31.154	-105.643	-32.706	124.547	-105.531	-99.813	174.539	-11.824	-99.473	-95.413	-94.598	-88.051	85.959	-90.317	-8191	255	
14824.905	1	1	0	0	0.15533	0.14798	0.1371	0.14362	0.17025	0.30741	0.075518	0.12084	0.34543	0.15677	0.24539	0.15793	0.12178	0.21589	0.10617	0.22614	-2.1792	-2.8333	-2.7542	-2.7917	-3.1042	-2.6042	-2.9771	-2.8958	-2.5438	-2.9396	-2.8	-2.7458	-3.1104	-2.6021	-2.7292	-2.7875	8.842	-67.068	163.071	108.732	-110.400	69.513	117.727	209.846	62.679	-74.814	173.597	218.105	159.470	-52.943	184.871	195.009	0.0016975	0.0046746	0.00015102	922.99	2.3338e-05	2.7948e-05	1132.7	189.89	3.8576e-05	1.2441e-05	321.13	128.14	69.099	23.111	5.7091e-06	52.029	0.027375	0.029761	0.0082689	1536.8	0.00031812	0.00032225	1774.5	403.01	0.00031575	0.0003231	641.28	236.32	174.87	57.381	0.00032294	99.015	135.453	24.100	-72.053	-105.537	-20.015	-37.220	-105.391	-99.909	-49.732	90.852	-99.793	-95.219	-94.255	-89.033	126.000	-90.409	-8191	255	
14825.001	1	1	0	0	0.21411	0.089638	0.19071	0.43737	0.12184	0.17824	0.14339	0.25408	0.12209	0.25213	0.13553	0.16944	0.096517	0.076188	0.023915	0.033091	-2.0396	-2.9104	-2.6312	-2.7333	-2.9208	-2.7417	-2.8	-2.9354	-2.5521	-2.9854	-2.8937	-2.675	-3.1188	-2.7812	-2.8438	-2.8458	174.325	52.220	133.670	207.954	39.177	127.268	189.071	212.992	90.374	-101.347	181.267	89.558	-82.990	154.765	-60.207	98.436	0.0017898	0.0021059	0.00065587	921.79	3.7046e-05	2.7726e-05	1135.8	190.56	3.2227e-05	1.2127e-05	323.11	128.61	67.431	22.974	5.9408e-05	51.576	0.027029	0.029603	0.0082548	1535.2	0.00031889	0.00032273	1776.4	403.6	0.00031621	0.00032339	644.56	236.48	175.24	57.55	0.00032304	99.093	187.508	-69.080	220.983	-105.494	230.935	-25.354	-105.057	-99.485	4.768	-10.964	-99.656	-95.927	-94.755	-87.497	68.034	-90.594	-8191	255	
14825.073	1	1	0	0	0.27072	0.057035	0.20439	0.23249	0.1954	0.087954	0.26509	0.267	0.31728	0.055844	0.15043	0.15586	0.091084	0.16773	0.10966	0.32071	-2.1	-2.7146	-2.7854	-2.7188	-2.8625	-2.6813	-2.8354	-3.1042	-2.5729	-2.8917	-2.8458	-2.7271	-2.9521	-2.675	-2.7438	-3.3187	-36.750	-100.457	116.337	211.207	38.876	-87.559	193.234	205.836	191.996	-114.042	7.407	92.441	126.123	-77.409	-24.488	192.867	0.0011531	0.00087448	0.00075795	925.69	2.9273e-05	2.0421e-05	1133.4	187.6	1.5339e-05	2.5623e-05	319.5	128	67.545	23.06	3.5629e-05	51.365	0.02714	0.029769	0.0082767	1533.7	0.00031908	0.00032467	1778	401.95	0.00031489	0.00032407	641.1	234.7	173.68	57.102	0.00031755	97.905	242.405	183.870	-3.473	-105.254	214.386	211.565	-105.622	-98.753	221.015	120.377	-99.723	-95.574	-94.477	-87.898	3.669	-90.187	-8191	255	
14825.193	1	1	0	0	0.15872	0.17968	0.015121	0.066362	0.098692	0.17599	0.064041	0.19298	0.17567	0.19894	0.055079	0.18615	0.17655	0.1076	0.24566	0.24976	-2.1104	-2.8792	-2.7792	-2.5833	-2.9437	-2.6813	-2.6417	-3.1125	-2.6792	-2.6417	-2.95	-2.6396	-2.9917	-2.875	-2.8063	-3.2396	-41.543	135.784	27.243	233.429	-101.469	76.630	-11.537	-107.252	180.377	150.718	-109.181	-10.104	187.814	-11.583	-59.179	141.342	0.0010537	0.0011433	0.00093315	918.84	2.3416e-05	1.3223e-05	1141.8	188.28	1.9185e-05	3.228e-05	319.31	127.22	67.604	22.564	1.7902e-05	50.69	0.026717	0.029296	0.0081717	1522.3	0.00031627	0.00032211	1769.4	400.44	0.00031356	0.00032261	638.16	233.22	173.6	57.024	0.00031761	97.84	47.924	155.090	32.280	-105.477	45.138	160.392	-105.789	-98.968	67.807	-83.744	-99.806	-95.457	-94.359	-88.234	23.594	-89.674	-8191	255	
14825.288	1	1	0	0	0.22537	0.23923	0.12379	0.080434	0.076368	0.3088	0.2343	0.20708	0.12745	0.15488	0.30872	0.31026	0.23387	0.23705	0.11259	0.18705	-2.3187	-2.6604	-2.9292	-2.6042	-2.7313	-2.7917	-2.6104	-2.9646	-2.625	-2.8312	-3.1146	-2.5875	-2.9104	-2.7	-2.5917	-3.1229	71.512	25.257	178.203	49.127	207.640	56.778	216.859	132.186	-0.582	205.221	-110.829	162.903	106.966	-77.333	18.165	188.549	0.00081391	0.0026875	0.00062091	924.22	9.1545e-06	4.8322e-05	1139.9	188.82	5.4704e-05	1.734e-05	320.91	126.54	67.44	22.789	2.2796e-05	50.567	0.026847	0.029495	0.008175	1527.7	0.0003167	0.00032315	1770.7	400.35	0.00031508	0.0003227	639.96	233.69	173.89	57.093	0.00031607	97.448	98.136	-18.438	45.741	-105.522	-74.200	45.365	-105.229	-99.335	102.177	3.673	-99.792	-95.614	-94.011	-88.398	-4.379	-89.999	-8191	255	
14825.384	1	1	0	0	0.12683	0.19399	0.34593	0.088732	0.04621	0.10642	0.20236	0.20465	0.10457	0.13868	0.43558	0.34776	0.1247	0.25802	0.30411	0.18077	-2.2896	-2.5896	-2.9708	-2.5479	-2.8125	-2.7708	-2.7167	-2.8937	-2.6708	-2.5938	-3.2375	-2.6833	-2.8208	-2.9292	-2.6292	-3.0146	-15.306	-1.626	-75.262	-14.426	-52.902	-113.684	223.101	226.988	120.446	-115.976	167.310	190.734	62.355	186.610	27.013	170.435	0.0010809	0.0022192	0.00096364	912.68	7.0641e-06	3.4167e-05	1136.7	188.27	4.0695e-05	2.9126e-05	319.86	127.96	66.845	22.894	3.7691e-05	50.969	0.026643	0.028967	0.0080159	1509.9	0.0003111	0.00031485	1745.4	394.66	0.00030584	0.000311	627.9	230.71	170.91	56.126	0.00030672	96.878	209.038	28.836	51.079	-105.507	57.775	-113.469	-105.418	-98.433	-34.833	108.446	-99.861	-95.088	-95.034	-88.369	-45.155	-89.985	-8191	255	
14825.480	1	1	0	0	0.18811	0.045671	0.33065	0.19706	0.24851	0.078229	0.23434	0.20742	0.026669	0.19717	0.28264	0.048784	0.12548	0.1991	0.34641	0.35644	-2.4375	-2.6208	-2.8396	-2.7458	-2.8208	-2.7833	-2.7708	-2.9521	-2.8729	-2.6417	-2.9875	-2.7396	-2.7208	-3.0396	-2.4417	-2.9375	40.416	139.600	104.833	222.246	122.361	-78.956	201.174	177.576	179.533	3.853	203.819	232.214	127.847	-69.971	152.592	204.929	0.00034794	0.00016216	5.0054e-05	921.59	1.9916e-05	4.3819e-05	1137.7	189.36	3.5379e-06	6.3853e-05	318.87	126.39	67.787	22.83	2.4938e-05	50.924	0.026163	0.028515	0.007944	1503.6	0.00030884	0.00031396	1744.9	394.87	0.00030619	0.00031143	627.96	229.72	170.05	55.799	0.00030323	96.264	34.980	110.228	123.975	-105.318	45.203	161.147	-105.474	-99.187	15.689	31.130	-99.887	-95.645	-94.080	-88.557	-104.455	-90.526	-8191	255	
14825.600	1	1	0	0	0.20407	0.21949	0.1814	0.22455	0.072667	0.32489	0.14296	0.12105	0.061823	0.11352	0.10325	0.14108	0.28679	0.085167	0.14439	0.34052	-2.3937	-2.5583	-2.8958	-2.7375	-2.6333	-2.8229	-2.5417	-2.8667	-2.8854	-2.6521	-3.0563	-2.7521	-2.6937	-3.0667	-2.5563	-2.9729	-31.213	237.446	46.347	220.168	-39.574	4.098	241.629	32.302	-82.278	-23.628	134.709	223.372	153.605	-65.021	-78.607	-95.750	0.00047258	0.003012	0.00080752	909.6	1.6955e-05	2.9389e-05	1124.6	187.76	3.4956e-05	2.6163e-05	317.01	126.22	66.992	22.458	3.6628e-05	50.168	0.025866	0.027881	0.007773	1488	0.00030121	0.00030532	1716.5	388.05	0.00029804	0.00029924	616.29	225.4	165.9	54.467	0.00029339	94.189	126.324	97.963	-104.417	-105.478	200.388	-14.472	-105.538	-98.839	-91.952	-6.508	-99.672	-95.365	-94.409	-87.863	161.980	-89.908	-8191	255	
14825.672	1	1	0	0	0.14508	0.20316	0.17533	0.2797	0.25987	0.045897	0.16978	0.28719	0.25691	0.1157	0.21084	0.20977	0.049897	0.20946	0.011944	0.085866	-2.4292	-2.5958	-2.9062	-2.9229	-2.5333	-2.9417	-2.6437	-3.1542	-2.7938	-2.7292	-3.0563	-2.8375	-2.6292	-2.9062	-2.7646	-2.9417	112.490	28.394	129.237	189.465	180.026	82.583	126.791	78.835	-17.278	-89.298	22.205	234.356	111.109	234.148	-43.970	125.038	0.00081907	0.0014291	0.00060982	912.23	1.9741e-05	1.8368e-05	1128.7	185.82	9.5439e-06	2.32e-05	315.29	127.86	67.026	22.498	5.0564e-05	50.519	0.025121	0.02708	0.0075639	1470	0.00029432	0.00029905	1705.4	384.73	0.00029367	0.00029625	613.04	225.31	165.36	54.272	0.00029259	94.355	183.137	34.870	-17.530	-105.007	127.245	-50.825	-105.383	-99.071	221.406	96.394	-99.780	-94.935	-94.180	-88.057	-27.086	-90.522	-8191	255	
14825.768	1	1	0	0	0.19404	0.18453	0.085082	0.36217	0.12986	0.13404	0.24513	0.11204	0.13017	0.21902	0.1834	0.068366	0.053815	0.17729	0.084918	0.28539	-2.475	-2.4479	-2.9062	-2.8875	-2.7208	-2.8417	-2.8271	-2.8458	-2.8667	-2.3875	-2.8438	-2.7583	-2.6521	-3.0563	-2.6229	-2.7458	-8.626	15.050	55.136	167.848	158.551	22.220	225.941	145.465	-41.694	65.511	188.844	226.852	184.596	202.292	166.378	132.486	0.00039246	0.0023812	0.00032122	907.55	3.0698e-05	2.2584e-05	1123.9	187.58	3.8971e-05	1.7895e-05	317.25	127.51	66.992	22.52	3.1782e-05	50.381	0.025045	0.026998	0.0075951	1469.9	0.00029283	0.00029836	1700.2	382.54	0.00029135	0.00029262	610.38	224.58	163.51	53.78	0.00028992	93.798	37.253	206.450	-25.242	-105.395	105.215	211.697	-105.550	-99.403	4.042	56.220	-99.602	-95.258	-94.188	-88.260	-51.238	-90.112	-8191	255	
14825.864	1	1	0	0	0.22911	0.15944	0.1711	0.053999	0.063801	0.08112	0.10409	0.13995	0.18611	0.22341	0.26892	0.12792	0.12553	0.42722	0.12965	0.08245	-2.35	-2.4188	-2.9167	-2.875	-2.5458	-2.9729	-2.725	-2.6375	-2.9688	-2.5125	-2.8646	-2.8563	-2.5312	-2.8625	-2.8271	-2.9271	-27.529	151.645	-27.142	191.971	48.061	-18.492	-6.410	119.777	150.598	51.877	172.570	118.825	106.234	174.868	238.716	154.878	0.00057331	0.0015184	0.00086625	904.05	3.8499e-05	5.561e-06	1130.5	186.75	1.4973e-05	2.2504e-05	317.46	125.38	66.628	22.496	2.7975e-05	50.416	0.024602	0.026556	0.0074657	1455.1	0.00028712	0.00029379	1696.8	380.77	0.00028748	0.00029214	610.78	224.1	163.09	54.059	0.00029188	93.479	198.845	-36.909	-28.582	-105.559	196.906	-98.215	-105.437	-99.430	33.452	213.245	-99.349	-95.263	-94.420	-87.985	147.192	-90.005	-8191	255	
14825.985	1	1	0	0	0.21854	0.19259	0.18241	0.24342	0.31771	0.12483	0.10427	0.045482	0.2195	0.35314	0.16675	0.13017	0.27355	0.24514	0.11639	0.38375	-2.575	-2.4146	-2.8229	-2.9604	-2.5229	-2.9313	-2.9604	-2.7021	-3.0312	-2.5458	-2.8563	-3.1167	-2.4	-2.8729	-2.8458	-2.6167	-19.494	210.531	-112.075	188.231	-114.665	58.444	175.689	121.526	172.504	93.539	-27.935	40.023	239.126	-106.693	-99.537	241.607	0.0013824	0.0035763	0.00044589	899.79	1.3496e-05	2.9215e-06	1130.2	186.77	1.125e-05	3.4763e-05	319.51	126.88	66.856	22.523	3.1625e-05	50.863	0.024616	0.026676	0.0075421	1459.5	0.00028741	0.00029592	1698.3	381.15	0.0002894	0.00029256	612.76	224.81	163.28	54.038	0.00029367	93.709	173.158	-103.444	80.686	-105.682	-10.472	152.012	-105.275	-99.252	-51.847	101.862	-99.873	-95.268	-94.800	-88.062	-25.092	-89.672	-8191	255	
14826.081	1	1	0	0	0.12381	0.098742	0.18328	0.19636	0.045167	0.084542	0.23752	0.16272	0.14483	0.1514	0.27438	0.26144	0.22228	0.026266	0.17448	0.090917	-2.6042	-2.6833	-2.775	-3.1958	-2.5625	-3.0333	-2.9917	-2.7229	-3.0375	-2.6271	-2.8542	-3.0062	-2.3958	-2.9854	-2.8208	-2.5708	214.833	227.902	-85.133	216.632	-102.994	240.287	146.366	234.163	-8.348	209.690	217.895	-101.799	220.402	203.714	103.291	-67.411	0.00076547	0.0017284	0.0012658	906.46	2.8855e-05	7.7276e-06	1131.5	187.22	2.1151e-05	2.5395e-05	320.6	127.59	67.239	22.647	2.4777e-05	51.503	0.024756	0.026774	0.0075109	1457.9	0.00028756	0.00029576	1699.5	380.44	0.00028864	0.00029263	612.14	224.74	163.42	54.25	0.0002927	93.976	138.955	134.442	33.019	-105.186	12.956	63.849	-105.371	-99.586	202.126	41.740	-99.510	-95.332	-93.895	-87.719	162.832	-90.153	-8191	255	
14826.177	1	1	0	0	0.32941	0.092362	0.015377	0.39706	0.23026	0.18298	0.20053	0.2018	0.1306	0.11296	0.16278	0.11657	0.42476	0.26603	0.11319	0.11291	-2.5396	-2.5062	-2.7354	-3.0792	-2.3833	-2.8833	-3	-2.5979	-2.8375	-2.6792	-2.5333	-3.0104	-2.6063	-2.8042	-2.8667	-2.7896	-53.897	67.506	214.552	187.015	215.746	237.542	-10.211	211.885	86.622	-102.187	82.403	-108.353	162.868	110.459	-98.122	212.622	0.0014327	0.0018743	0.00070104	913.1	1.6735e-05	2.3635e-05	1137.3	189.66	2.0772e-05	3.0902e-05	322.21	128.16	67.855	22.602	2.0718e-05	51.254	0.024802	0.026828	0.0075442	1468.3	0.00028855	0.00029851	1714.3	382.34	0.00029012	0.00029514	614.86	225.51	163.93	54.381	0.00029222	93.945	49.521	95.400	-27.434	-105.673	169.961	164.022	-105.535	-99.243	-99.902	223.823	-99.892	-95.778	-94.982	-88.098	63.243	-90.095	-8191	255	
14826.274	1	1	0	0	0.39183	0.093334	0.12405	0.1624	0.13689	0.22294	0.15588	0.18564	0.26931	0.30128	0.19745	0.22649	0.15124	0.34412	0.052545	0.18055	-2.6354	-2.7167	-2.5708	-3.0042	-2.5896	-2.7833	-2.95	-2.4604	-2.95	-2.8563	-2.7104	-3.1354	-2.6063	-2.7771	-2.7	-2.75	-107.561	157.686	114.454	148.075	167.168	-13.841	173.215	188.013	142.361	-81.129	-99.778	174.119	-37.583	202.202	181.915	110.749	0.00068779	0.0022235	7.9983e-05	917.4	3.334e-05	2.439e-05	1145.7	188.2	1.9352e-05	4.0358e-05	321.56	127.63	67.889	22.892	4.2897e-05	50.867	0.024762	0.026801	0.0074967	1468.6	0.0002877	0.000296	1715	380.99	0.00028935	0.00029276	611.64	224.69	163.37	54.108	0.00028789	93.117	94.428	36.043	-73.600	-105.610	21.164	234.079	-105.312	-98.842	17.273	52.132	-99.299	-95.487	-94.253	-87.295	10.819	-90.794	-8191	255	
14826.370	1	1	0	0	0.035644	0.15397	0.096537	0.31316	0.17839	0.13459	0.36375	0.024066	0.14028	0.20099	0.041869	0.33966	0.034243	0.16136	0.21811	0.15939	-2.3875	-2.7667	-2.4375	-3.1917	-2.7104	-2.7687	-3.0938	-2.5667	-2.8208	-2.675	-2.6937	-2.9833	-2.75	-2.7687	-2.8979	-2.5917	188.285	90.512	71.282	-74.514	182.841	87.326	206.969	-84.612	3.756	169.468	-38.521	221.759	73.132	90.165	40.717	205.418	0.0012033	0.0031805	0.0013479	922.49	2.9933e-05	7.9792e-06	1135.2	190.28	3.597e-05	4.0486e-05	321.73	127.1	68.088	22.967	4.2283e-05	51.428	0.024469	0.026482	0.0073623	1458.7	0.00028401	0.0002922	1698.8	378.34	0.00028667	0.00028939	606.27	223.6	162.2	53.633	0.00028347	92.526	-112.879	181.616	29.410	-105.224	79.618	-1.141	-105.344	-98.855	154.949	37.335	-99.445	-95.192	-94.860	-87.688	-84.551	-89.766	-8191	255	
14826.466	1	1	0	0	0.27952	0.081531	0.32392	0.15743	0.19574	0.016774	0.094742	0.071588	0.23426	0.092963	0.21508	0.20164	0.18687	0.22744	0.17328	0.14385	-2.3042	-2.8521	-2.5833	-3.2229	-2.6375	-2.7354	-3.1458	-2.5021	-2.9167	-2.9375	-2.7938	-3.0938	-2.9646	-2.7146	-3.0771	-2.7542	30.767	-16.855	66.415	182.196	185.244	132.996	189.523	59.109	105.678	-30.002	-69.613	-100.157	222.171	102.562	12.855	-91.753	0.00060985	0.0029298	0.00089469	911.85	1.4377e-05	2.6732e-05	1144.6	190.36	6.2899e-06	3.8453e-05	324.56	128.79	67.436	22.831	2.1866e-05	51.577	0.02416	0.02606	0.0071985	1446.3	0.00028034	0.00028593	1695.7	373.83	0.00028057	0.00028361	603.24	222.35	160.98	53.14	0.00027942	92.51	138.888	-83.157	-35.306	-105.386	-96.509	233.135	-105.618	-99.026	-78.451	-22.891	-99.983	-95.098	-94.535	-88.256	63.342	-90.685	-8191	255	
14826.585	1	1	0	0	0.18483	0.26271	0.1597	0.13865	0.11397	0.039985	0.31102	0.1349	0.18123	0.063317	0.063903	0.3742	0.24355	0.11482	0.15183	0.088029	-2.425	-2.7125	-2.4417	-3.2146	-3.0292	-2.6875	-3.2333	-2.8479	-2.5896	-3.0438	-2.5875	-3.0146	-2.7708	-2.6125	-3.0104	-2.8063	-110.283	114.474	219.339	136.686	133.924	11.347	181.098	211.111	52.676	42.189	203.837	-109.164	176.560	225.106	188.765	139.948	0.0011381	0.00033521	0.00044349	915.67	1.895e-05	1.9482e-05	1142.6	189.1	3.859e-05	1.1424e-05	325.23	130.58	68.021	23.08	4.3795e-05	51.682	0.023809	0.025797	0.0071676	1448.1	0.00028004	0.00028496	1695.7	375.53	0.00028034	0.00028299	602.48	223.84	161.55	53.148	0.00028161	93.132	130.479	-82.660	120.459	-105.371	216.924	-2.591	-105.312	-99.402	-54.384	226.953	-99.734	-95.484	-94.182	-87.953	64.411	-90.370	-8191	255	
14826.681	1	1	0	0	0.060803	0.094442	0.21223	0.30272	0.14442	0.082198	0.07858	0.17951	0.17131	0.048271	0.1875	0.20287	0.26761	0.064941	0.046312	0.29177	-2.3208	-2.9938	-2.4938	-3	-2.9333	-2.4583	-3.2354	-2.7229	-2.7583	-3	-2.8208	-2.8146	-2.9562	-2.6083	-3.05	-2.9125	101.147	78.482	34.081	-108.703	215.272	148.022	157.617	-19.664	-7.765	95.083	180.576	-77.530	222.782	-20.423	237.519	196.950	0.0011692	0.0034404	0.0012835	920.3	3.2684e-05	5.2379e-05	1155.9	190.91	3.6023e-05	3.0602e-05	325.56	128.84	68.402	22.929	5.6306e-05	51.933	0.024035	0.025935	0.0072128	1459	0.00028098	0.00028649	1707.7	378.02	0.00028403	0.00028661	606.88	224.88	162.91	53.439	0.00028414	93.547	137.295	46.654	210.795	-105.225	-15.596	-12.665	-105.376	-98.961	203.895	-111.447	-99.544	-95.014	-94.489	-88.657	-98.132	-90.561	-8191	255	
14826.777	1	1	0	0	0.1629	0.19825	0.15581	0.066468	0.27834	0.27752	0.075825	0.17949	0.2546	0.1592	0.11304	0.026011	0.13133	0.16357	0.056159	0.25878	-2.2479	-2.8604	-2.45	-3.0875	-2.8271	-2.5896	-3.1833	-2.8146	-2.6542	-3.0417	-2.725	-3.0042	-3.0354	-2.5271	-3.0042	-3.0021	8.724	98.355	-63.403	64.285	155.114	-85.949	7.811	72.953	69.255	13.414	81.384	69.859	-84.352	206.412	-45.718	198.762	0.0012731	0.0029311	0.00026283	924.57	1.4303e-05	1.7591e-05	1151.2	189.26	1.4536e-05	3.6445e-05	326.89	128.84	69.123	23.332	1.9853e-05	51.573	0.024058	0.025907	0.0071808	1453.4	0.00027765	0.00028094	1696.8	375.63	0.00027758	0.00028161	602.42	223.05	161.15	52.894	0.00028047	92.799	73.389	-4.566	164.699	-105.413	66.997	173.496	-105.463	-99.640	107.443	55.161	-100.010	-95.287	-94.576	-88.006	-52.915	-90.565	-8191	255	
14826.873	1	1	0	0	0.14149	0.039453	0.27553	0.19023	0.17912	0.073304	0.10029	0.23358	0.14484	0.12628	0.22737	0.27689	0.022236	0.29624	0.11796	0.2099	-2.0875	-3.0187	-2.6583	-2.8	-2.8875	-2.6937	-3.1083	-2.8396	-2.6562	-2.9896	-2.7292	-2.925	-3.0042	-2.7	-3.05	-2.9625	170.994	202.112	14.460	220.795	86.064	-95.276	118.148	124.896	-16.350	57.840	230.655	186.019	174.428	207.859	-51.132	233.152	0.0005081	0.002735	0.0013143	925.31	3.0141e-05	1.2904e-05	1158.7	190.32	1.7866e-05	2.2606e-05	325.51	127.91	67.866	22.933	2.2384e-05	51.185	0.023739	0.025709	0.0071947	1457	0.00027951	0.00028408	1714.5	379.61	0.00028171	0.00028758	609.27	224.88	163.39	53.687	0.00028931	93.989	176.589	-45.838	13.641	-105.129	240.821	66.966	-105.299	-99.797	227.221	38.681	-99.719	-95.387	-94.338	-87.534	66.161	-90.644	-8191	255	
14826.969	1	1	0	0	0.23066	0.070772	0.10507	0.35394	0.12437	0.018964	0.29178	0.1595	0.10075	0.066774	0.13252	0.36428	0.11428	0.22753	0.23007	0.16141	-2.1854	-3.0146	-2.5687	-2.9604	-2.8667	-2.6292	-2.9583	-2.9771	-2.3	-3.0271	-2.9729	-2.7062	-2.9271	-2.5396	-2.7	-2.8479	166.726	129.363	211.937	215.895	46.400	224.783	182.215	236.445	57.776	-17.783	195.046	-82.108	-26.305	190.331	167.203	217.676	0.00015754	0.002135	0.00046529	929.14	2.5157e-05	1.1823e-05	1166.3	190.55	4.6774e-06	2.5944e-05	328.74	129.96	67.609	22.872	1.7424e-05	51.876	0.024369	0.026644	0.0074043	1475.6	0.00028591	0.00029089	1728.3	381.39	0.00028443	0.00028917	610.93	225.31	162.83	53.436	0.00028746	93.87	-7.990	93.342	48.684	-105.304	-23.951	29.742	-105.330	-99.593	59.710	61.658	-99.486	-95.307	-94.062	-88.324	136.751	-90.132	-8191	255	
14827.065	1	1	0	0	0.22561	0.14748	0.11548	0.19216	0.12043	0.080992	0.14331	0.20525	0.20622	0.20426	0.37403	0.25094	0.17305	0.15666	0.27124	0.29709	-2.1063	-2.9958	-2.7333	-2.7687	-2.9625	-2.6542	-3.025	-2.9083	-2.5583	-2.9375	-2.9604	-2.6479	-3.075	-2.7354	-2.7708	-2.9375	117.535	99.863	96.853	165.912	-41.582	81.946	-94.265	100.250	72.931	148.420	209.304	-84.388	-107.502	-5.545	161.273	190.362	0.0001937	0.0019038	0.0010423	917.44	2.0029e-05	2.2768e-05	1161.5	192.27	1.5614e-05	2.5251e-05	329.88	130.14	68.417	22.814	2.1454e-05	51.489	0.024041	0.026292	0.0073185	1462.3	0.00028277	0.00028732	1720.5	379.72	0.00027929	0.00028625	608.97	223.9	161.84	53.243	0.00028438	93.145	56.174	-111.451	-5.998	-105.310	-87.622	34.649	-105.154	-99.618	70.272	35.217	-99.361	-95.290	-94.107	-87.772	111.185	-90.087	-8191	255	
14827.162	1	1	0	0	0.21951	0.19044	0.25211	0.21349	0.21761	0.13961	0.14784	0.29363	0.11418	0.24694	0.040298	0.23919	0.035517	0.19851	0.030268	0.13217	-2.0167	-2.8812	-2.7938	-2.6458	-3.1146	-2.7375	-2.8812	-3.0146	-2.5042	-2.9917	-2.9688	-2.8042	-3.0812	-2.8125	-2.55	-2.9833	104.984	-50.631	-83.486	168.960	-49.452	98.921	96.458	177.205	49.269	172.728	-60.565	156.188	50.920	-108.130	179.144	211.918	0.00032374	0.0049331	0.00032754	921.73	9.8699e-06	2.1654e-05	1156.2	190.73	3.9972e-05	6.1663e-06	329.8	129.14	67.741	23.021	3.4052e-05	51.588	0.023791	0.026058	0.0072852	1457.7	0.00028226	0.0002879	1718.4	380.23	0.00028184	0.0002883	612.09	224.41	162.99	53.72	0.00028758	93.772	144.837	46.074	88.944	-105.299	236.682	-57.472	-105.406	-99.185	12.107	-103.639	-100.064	-95.160	-94.324	-87.526	226.593	-89.977	-8191	255	
14827.282	1	1	0	0	0.07699	0.24891	0.11655	0.27445	0.13606	0.09938	0.16945	0.13997	0.1135	0.29318	0.2346	0.10514	0.14494	0.28271	0.14633	0.14988	-2.1437	-2.7646	-2.8146	-2.7104	-3.0438	-2.8458	-2.8167	-2.9604	-2.4417	-2.8312	-3.0083	-2.575	-2.9979	-2.8104	-2.6292	-3.0479	-50.162	22.409	188.211	-107.983	-52.673	-80.862	138.059	-116.912	155.061	-114.233	157.281	177.351	219.745	174.456	-25.763	-101.112	0.00086045	0.0023702	0.0014771	919.52	3.3351e-05	2.9223e-05	1162.7	189.77	2.4058e-05	3.4091e-05	329.63	128.98	67.919	22.765	3.4494e-05	51.033	0.02413	0.026493	0.0073526	1466.4	0.00028735	0.00029229	1732.2	385.05	0.00028844	0.00029754	619.44	226.59	166.32	54.472	0.00029449	94.866	110.935	-67.508	35.047	-105.366	127.525	32.040	-105.470	-99.505	94.441	55.094	-99.745	-94.891	-94.520	-87.840	-51.939	-89.656	-8191	255	
14827.377	1	1	0	0	0.075685	0.32001	0.23598	0.19082	0.072034	0.13578	0.40776	0.22933	0.18999	0.15784	0.10234	0.087142	0.15161	0.11851	0.0084656	0.15588	-2.2458	-2.6562	-2.8187	-2.5229	-2.9042	-2.7729	-2.7792	-3.0646	-2.7375	-2.8396	-3.0125	-2.4708	-2.9146	-2.7583	-2.625	-3.0875	132.582	201.925	-40.144	234.504	-43.386	127.254	159.798	189.392	136.043	77.647	-74.281	-20.180	-88.192	135.290	-5.842	175.453	0.0003362	0.0035169	0.00069066	932.57	1.7098e-05	1.3055e-05	1161.7	189.81	6.3225e-05	3.2067e-05	328.9	128.75	67.945	22.99	4.435e-05	51.568	0.024907	0.027221	0.0075603	1482.7	0.00029263	0.00029792	1738.6	385.99	0.00029001	0.00029725	619.76	226.42	165.41	54.346	0.00029179	94.594	-110.740	8.471	106.015	-105.704	141.559	226.981	-105.554	-98.925	20.189	-83.126	-99.382	-95.006	-94.445	-87.913	-31.463	-90.137	-8191	255	
14827.473	1	1	0	0	0.13573	0.091929	0.16809	0.12089	0.22187	0.13936	0.36142	0.1474	0.27466	0.21148	0.16062	0.3336	0.10226	0.1924	0.35699	0.23478	-2.2167	-2.6083	-2.9875	-2.5458	-2.9417	-2.7479	-2.6708	-3.0938	-2.5625	-2.6562	-3.0792	-2.5042	-2.9375	-2.9062	-2.5479	-3.1188	-64.037	-82.376	-45.743	-116.854	146.856	-24.626	172.696	32.758	71.090	-102.485	-59.014	225.898	185.609	85.152	87.024	207.793	0.0013481	0.0014085	0.00072001	927.05	5.7638e-05	1.2448e-05	1160.8	190.33	2.7453e-05	3.1235e-05	326.37	128.33	67.928	22.929	3.6484e-05	51.051	0.024738	0.026901	0.0074754	1479.4	0.00029123	0.00029651	1737.3	385.55	0.00029035	0.00029666	619.77	226.32	166.13	54.313	0.00029302	94.479	103.708	180.956	-100.368	-105.340	-84.461	65.074	-105.544	-99.257	131.703	69.838	-99.706	-95.248	-94.377	-88.161	132.601	-89.853	-8191	255	
14827.546	1	1	0	0	0.16362	0.1508	0.21047	0.22241	0.10106	0.14974	0.25224	0.2905	0.28511	0.12414	0.29834	0.36228	0.1372	0.18732	0.1606	0.14951	-2.1208	-2.6063	-2.9292	-2.9083	-2.9104	-2.9188	-2.6167	-3.0104	-2.6917	-2.5458	-3.0604	-2.7604	-2.9167	-2.7646	-2.3833	-2.9271	182.092	119.373	-83.913	226.167	82.024	85.777	166.459	120.883	-6.987	-114.721	206.546	219.350	-96.891	-11.815	9.563	190.681	0.00052422	0.00069959	0.00065371	924.92	1.9031e-05	1.5398e-05	1167.3	191.79	1.7484e-05	2.8941e-05	329.09	127.19	68.033	22.563	4.3472e-05	50.25	0.024999	0.027316	0.0076025	1490	0.00029721	0.0003018	1751.8	391.97	0.00029886	0.00030536	628.63	228.18	168.78	55.068	0.00030013	95.42	82.755	45.608	-57.770	-105.368	71.048	210.222	-105.655	-99.215	236.433	-97.512	-99.689	-95.465	-94.639	-88.053	96.336	-89.843	-8191	255	
14827.665	1	1	0	0	0.053842	0.21762	0.058493	0.46133	0.30561	0.082073	0.35939	0.015486	0.039713	0.06711	0.22021	0.30516	0.15994	0.21121	0.15745	0.10228	-2.5292	-2.6979	-2.8187	-2.7958	-2.7438	-2.8083	-2.7062	-2.9646	-2.675	-2.8083	-3.0979	-2.7188	-2.8542	-2.925	-2.4354	-2.8292	156.332	47.455	228.141	200.500	202.478	220.712	207.250	150.655	197.463	181.310	167.338	231.111	20.367	-110.808	104.802	200.645	0.0015196	0.0018251	0.001263	935.45	1.9773e-05	2.9258e-05	1163.1	191.22	2.9383e-05	8.5224e-06	325.98	126.47	66.161	22.13	4.2693e-05	50.112	0.025695	0.027827	0.007761	1505.1	0.00030175	0.00030592	1762.8	393.72	0.00030118	0.00030596	630.06	229.42	169.95	55.314	0.00030467	96.011	113.476	-19.351	241.417	-105.544	180.753	150.812	-105.406	-98.887	226.346	193.592	-99.737	-95.624	-94.131	-87.862	34.625	-89.773	-8191	255	
14827.761	1	1	0	0	0.20954	0.018909	0.091309	0.10871	0.17099	0.036973	0.40135	0.22535	0.065223	0.12558	0.039592	0.12609	0.16381	0.017495	0.16988	0.19082	-2.45	-2.45	-2.9583	-2.7562	-2.6646	-3.0708	-2.7167	-2.7417	-2.9042	-2.6312	-3.0458	-2.6833	-2.8646	-2.9875	-2.5187	-2.8604	-98.746	219.116	-56.873	186.194	230.791	182.848	184.369	137.437	-0.167	-81.040	240.471	-31.753	-99.079	-112.502	201.732	110.211	0.00039416	0.00082672	0.0012189	938.36	1.5049e-05	1.9893e-05	1185.4	190.25	8.2371e-06	3.8352e-05	327.16	126.48	67.01	22.095	1.3865e-05	50.789	0.026029	0.028217	0.0079073	1520.8	0.00030674	0.00031186	1782.8	397.98	0.0003081	0.00031091	636.45	230.7	170.4	55.626	0.00030794	96.614	120.744	242.404	-69.612	-105.190	-93.536	52.091	-105.402	-99.420	-116.619	215.012	-99.708	-94.981	-94.145	-87.686	130.787	-89.615	-8191	255	
14827.857	1	1	0	0	0.26518	0.15038	0.17967	0.29223	0.17787	0.21124	0.1301	0.27616	0.13879	0.11697	0.076914	0.18045	0.089299	0.037106	0.22504	0.10576	-2.4042	-2.5458	-2.8604	-2.7396	-2.5854	-2.8458	-2.6125	-2.6	-2.9479	-2.5062	-3.0542	-2.75	-2.6146	-3.0104	-2.6208	-3.0187	108.564	181.345	123.832	174.011	79.892	10.850	205.525	219.165	-2.628	63.871	139.990	91.779	221.956	112.751	191.043	-107.142	0.00056528	0.00068131	0.00028644	942.16	2.2958e-05	1.9543e-05	1169	191.1	3.0571e-05	3.5518e-05	324.92	125.82	66.656	22.187	2.7843e-05	50.289	0.026125	0.028255	0.007951	1528.3	0.00030572	0.00031094	1776	396.04	0.00030485	0.00030733	632.93	229.13	168.83	55.17	0.00030466	95.768	174.185	148.784	187.509	-105.618	-58.745	-16.888	-105.578	-98.969	57.499	186.399	-99.670	-95.585	-93.895	-87.729	-0.961	-89.856	-8191	255	
14827.954	1	1	0	0	0.12581	0.04613	0.16877	0.090666	0.28729	0.2	0.14654	0.19643	0.22362	0.086943	0.10181	0.038138	0.33907	0.27219	0.17099	0.24482	-2.3896	-2.55	-2.8167	-2.7729	-2.3688	-2.9062	-2.6063	-2.5542	-2.8771	-2.3979	-3.0229	-2.8187	-2.5625	-2.7	-2.6208	-2.7375	152.020	66.582	132.287	151.877	15.522	147.631	191.616	-97.032	241.263	138.340	-41.135	-94.221	-18.023	-102.842	238.589	196.192	0.0010817	0.0040384	0.00092369	935.55	1.5475e-05	2.3078e-05	1172.2	190.77	2.3657e-05	4.4063e-05	323.98	126.72	66.401	22.034	2.3532e-05	49.823	0.025894	0.028016	0.0078796	1521.3	0.00030239	0.00030919	1774.9	395.42	0.00030265	0.00030554	631.22	228.73	168.04	55.108	0.00030443	95.432	93.770	-53.754	60.142	-105.367	65.037	-15.493	-105.634	-99.609	-85.117	36.885	-100.064	-95.021	-93.587	-88.145	1.477	-89.590	-8191	255	
14828.074	1	1	0	0	0.058002	0.14352	0.068351	0.32136	0.1083	0.15692	0.30532	0.2447	0.21582	0.15801	0.079489	0.37473	0.24789	0.33087	0.06447	0.14872	-2.4813	-2.5146	-2.8563	-2.9417	-2.6042	-3.0354	-2.8396	-2.5375	-2.9167	-2.5229	-2.8771	-2.9625	-2.775	-3.0187	-2.6854	-2.6521	165.907	11.832	116.393	202.617	203.670	166.828	201.924	177.970	79.478	153.804	130.774	184.072	-85.132	155.743	-54.991	144.585	0.00040372	0.0027148	0.00068262	943.63	3.5655e-05	4.5735e-05	1170.5	190.77	2.413e-05	7.1298e-06	324.38	126.6	66.222	22.237	1.7858e-05	50.285	0.025862	0.027962	0.007852	1519.1	0.00030132	0.00030918	1773	393.64	0.00030239	0.00030583	631.51	228.9	167.83	55.051	0.00030406	95.141	167.423	64.503	-51.482	-105.547	228.378	-80.351	-105.613	-98.853	32.630	58.412	-99.723	-95.037	-93.902	-88.164	190.589	-89.892	-8191	255	
14828.170	1	1	0	0	0.18709	0.17517	0.20385	0.22895	0.23166	0.26857	0.21454	0.12327	0.16684	0.059167	0.18749	0.32275	0.22359	0.24299	0.23754	0.11132	-2.6188	-2.3542	-2.7021	-2.9396	-2.5271	-3.1104	-2.9625	-2.5771	-3.025	-2.6396	-2.8583	-2.9292	-2.5771	-2.9208	-2.5771	-2.6813	1.275	223.130	175.160	215.600	148.171	94.120	198.883	217.528	-51.216	67.246	205.535	208.502	179.652	-36.112	156.705	-111.144	0.0019038	0.0016694	0.0010228	940.44	1.1689e-05	5.3598e-05	1176	190.31	2.6953e-05	3.1665e-05	328.63	128.08	67.069	22.497	4.7348e-05	50.87	0.02566	0.027723	0.0077862	1510.8	0.00029823	0.00030662	1772.7	391.32	0.00029958	0.00030239	629.53	228.43	166.43	54.637	0.00029854	94.832	85.841	116.972	162.668	-105.181	-18.560	97.226	-105.694	-98.989	127.167	-45.111	-99.191	-95.409	-94.490	-87.375	79.184	-89.629	-8191	255	
14828.266	1	1	0	0	0.13428	0.19103	0.27241	0.26205	0.065183	0.037949	0.19106	0.22037	0.29461	0.3891	0.47529	0.094611	0.27188	0.28345	0.10265	0.096144	-2.5104	-2.4708	-2.7021	-3.0229	-2.5021	-2.8292	-3.0438	-2.625	-2.9813	-2.5875	-2.6333	-3.1021	-2.5792	-2.8104	-2.7771	-2.7458	19.890	216.619	191.598	197.827	216.703	171.183	123.699	223.096	-3.510	-19.523	211.096	161.257	-21.634	-66.999	167.009	-85.324	0.0011926	0.0034018	0.000587	936.37	1.3612e-05	1.2147e-05	1184.9	190.61	5.918e-05	2.2393e-05	328.67	127.18	66.652	22.317	1.3246e-05	50.74	0.025188	0.027289	0.0076391	1500.1	0.00029265	0.00030074	1762.1	388.47	0.0002948	0.00029859	624.2	227.25	165.34	54.555	0.00029738	94.306	89.266	84.069	-54.971	-105.621	-4.786	76.411	-105.525	-99.147	34.569	-4.162	-99.538	-95.189	-94.457	-87.567	130.266	-90.337	-8191	255	
14828.363	1	1	0	0	0.28959	0.17131	0.23081	0.28903	0.20917	0.096085	0.3213	0.11433	0.37391	0.17646	0.25407	0.040848	0.30718	0.1195	0.075631	0.32101	-2.5854	-2.7292	-2.8667	-2.9979	-2.5812	-2.8292	-3.0667	-2.6312	-2.8542	-2.6542	-2.6333	-3.0208	-2.6792	-2.6521	-3	-2.5896	35.367	179.637	8.403	-65.800	-60.774	-4.268	179.947	-99.140	230.928	0.082	-42.808	-95.839	142.462	26.643	118.552	184.585	0.00059086	0.0031549	0.0010248	932.3	2.6426e-06	1.341e-05	1181.2	192.5	4.3526e-05	4.8839e-05	329.75	125.81	66.577	22.236	4.6687e-05	49.96	0.02528	0.027397	0.0076452	1498.7	0.00029395	0.00030412	1764.7	388.4	0.00029703	0.00030154	625.92	226.93	165.91	54.617	0.00029981	94.1	172.922	-43.140	-34.767	-105.189	115.137	232.273	-105.720	-99.254	215.824	156.926	-99.441	-95.203	-94.292	-87.472	236.593	-90.203	-8191	255	
14828.457	1	1	0	0	0.12352	0.073969	0.29087	0.16321	0.16296	0.12952	0.046757	0.27447	0.090864	0.082019	0.32291	0.25616	0.085094	0.14659	0.22917	0.082783	-2.5208	-2.6063	-2.5083	-3.1292	-2.5083	-2.6229	-3.1271	-2.5	-2.8979	-2.775	-2.6813	-3.1146	-2.5417	-2.5812	-2.8771	-2.6042	150.896	77.798	240.678	234.193	235.997	145.632	-49.182	190.652	36.935	166.313	144.466	-68.152	-21.608	-68.313	228.866	204.716	0.00026687	0.0048524	0.00066177	934.45	2.0143e-05	1.1275e-05	1174.3	192.24	3.153e-05	1.8449e-05	327.37	126.41	66.781	22.286	3.6568e-05	50.26	0.025411	0.027456	0.0076564	1501.8	0.00029388	0.00030242	1762.7	388.02	0.00029722	0.00030029	622.09	227.03	166.18	54.634	0.00029997	94.322	211.239	-84.092	146.076	-105.724	156.846	-45.303	-105.474	-98.733	236.086	160.687	-99.581	-95.248	-94.317	-87.755	31.329	-90.314	-8191	255	
14828.555	1	1	0	0	0.12036	0.19544	0.055855	0.30367	0.039756	0.095383	0.31438	0.20107	0.1087	0.21302	0.13954	0.17842	0.12529	0.29882	0.15928	0.12503	-2.3958	-2.6437	-2.5146	-3.1354	-2.4979	-2.6188	-3.275	-2.7479	-2.7354	-2.7188	-2.5354	-2.9208	-2.775	-2.8271	-2.9104	-2.5167	-40.358	-34.629	47.071	-110.100	-69.012	-88.455	169.196	73.864	-2.751	-16.890	152.859	171.601	-51.993	216.616	-78.656	78.584	0.00026466	0.0044007	0.0012006	941.66	6.6698e-06	3.1875e-05	1188.9	190.39	1.1149e-05	9.3337e-06	325.46	127.26	66.588	22.447	7.809e-05	50.326	0.025532	0.027613	0.0076639	1513.1	0.00029814	0.00030581	1775.5	390.17	0.00030098	0.00030455	625.57	228.22	166.88	54.52	0.00030019	94.286	-44.150	80.023	16.865	-105.469	10.531	82.074	-105.554	-98.932	-45.219	-26.376	-99.234	-95.617	-94.279	-87.655	79.971	-90.267	-8191	255	
14828.674	1	1	0	0	0.12549	0.027382	0.12676	0.16585	0.19635	0.10811	0.23807	0.37391	0.23842	0.16917	0.15485	0.40347	0.11608	0.063705	0.2911	0.16297	-2.3792	-2.8167	-2.2854	-2.9646	-2.575	-2.7792	-3.1958	-2.4938	-2.8688	-2.8542	-2.3417	-2.9646	-2.7979	-2.5396	-3.1604	-2.8063	-13.476	156.327	190.640	-94.623	108.807	222.520	189.349	137.107	-69.140	205.964	116.488	217.963	36.271	10.843	195.652	172.831	0.0013053	0.0034959	0.0013651	939.31	2.6121e-05	9.5494e-06	1172.4	190.59	2.724e-05	3.6696e-05	324.86	125.3	65.485	22.013	4.1842e-05	49.816	0.025464	0.027457	0.0076021	1502.9	0.00029421	0.0003003	1753.1	385.52	0.00029355	0.0002973	615.72	224.52	163.88	53.552	0.00029446	92.912	89.524	26.274	-3.247	-105.271	119.526	67.887	-105.499	-98.937	68.438	120.745	-99.909	-95.508	-94.065	-88.687	-84.866	-89.926	-8191	255	
14828.770	1	1	0	0	0.13502	0.20842	0.25576	0.082202	0.23315	0.15057	0.30024	0.19732	0.1975	0.10303	0.18098	0.080876	0.068881	0.1059	0.05827	0.28179	-2.1646	-2.7854	-2.475	-3.0125	-2.6917	-2.5854	-3.1625	-2.7625	-2.8312	-2.8458	-2.4771	-2.9771	-2.9479	-2.6521	-2.7854	-2.8063	41.165	77.369	-20.349	196.441	208.949	218.473	149.609	-84.717	-116.610	-73.499	-30.251	169.185	115.008	109.034	-94.384	242.146	0.0011291	0.0057144	0.00021488	933.15	3.9247e-05	2.8336e-06	1169.5	189.4	1.2085e-05	1.8376e-05	321.73	124.61	65.414	21.642	1.7724e-05	49.314	0.025025	0.027065	0.0074976	1493.9	0.00029206	0.00029845	1747.9	384.48	0.00029443	0.0002983	616.09	224.39	164.14	53.574	0.00029561	92.619	99.687	-89.481	-15.258	-105.315	-41.201	114.180	-105.622	-98.809	66.916	123.919	-99.042	-95.242	-94.711	-87.638	27.046	-89.849	-8191	255	
#DATA ENDS
