BOXY.EXE: ISS Imagent and Oximeter Data Acquisition Program Version 0.80
Ascii Record File

#ACQ INFORMATION
2  Detector Channels 
16  External MUX Channels 
1  Auxiliary Channels 
5000  Waveform (CCF) Frequency (Hz)
1  Waveforms Skipped 
30  Waveforms Averaged 
1  Cycles Averaged 
16  Acquisitions per Waveform 
10.0806  Updata Rate (Hz) 

#FILE INFORMATION
TRUE -- External MUX Channel results are PARSED.
FALSE -- AC DC and Phase are NOT grouped.
TRUE -- Companion Program Settings File CREATED.
FALSE -- AC data not excluded
FALSE -- DC data not excluded
FALSE -- Phase data not excluded
FALSE -- Auxillary Chn. data not excluded
Tab delimiters

#CALIBRATION STATE
TRUE -- Waveform Calibration Values APPLIED.


#AUX CALIBRATION VALUES
Val Type	aux-1	

Term	1.0000e+00	
Factor	0.0000e+00	


#WF CALIBRATION VALUES
A = Detector Channel
Val Type	A-AC1	A-AC2	A-AC3	A-AC4	A-AC5	A-AC6	A-AC7	A-AC8	A-AC9	A-AC10	A-AC11	A-AC12	A-AC13	A-AC14	A-AC15	A-AC16	A-DC1	A-DC2	A-DC3	A-DC4	A-DC5	A-DC6	A-DC7	A-DC8	A-DC9	A-DC10	A-DC11	A-DC12	A-DC13	A-DC14	A-DC15	A-DC16	A-Ph1	A-Ph2	A-Ph3	A-Ph4	A-Ph5	A-Ph6	A-Ph7	A-Ph8	A-Ph9	A-Ph10	A-Ph11	A-Ph12	A-Ph13	A-Ph14	A-Ph15	A-Ph16	

Term	0.00000e+00	0.00000e+00	0.00000e+00	0.00000e+00	0.00000e+00	0.00000e+00	0.00000e+00	0.00000e+00	0.00000e+00	0.00000e+00	0.00000e+00	0.00000e+00	0.00000e+00	0.00000e+00	0.00000e+00	0.00000e+00	0.00000e+00	0.00000e+00	0.00000e+00	0.00000e+00	0.00000e+00	0.00000e+00	0.00000e+00	0.00000e+00	0.00000e+00	0.00000e+00	0.00000e+00	0.00000e+00	0.00000e+00	0.00000e+00	0.00000e+00	0.00000e+00	0.00000e+00	0.00000e+00	0.00000e+00	0.00000e+00	0.00000e+00	0.00000e+00	0.00000e+00	0.00000e+00	0.00000e+00	0.00000e+00	0.00000e+00	0.00000e+00	0.00000e+00	0.00000e+00	0.00000e+00	0.00000e+00	
Factor	1.00000e+00	1.00000e+00	1.00000e+00	1.00000e+00	1.00000e+00	1.00000e+00	1.00000e+00	1.00000e+00	1.00000e+00	1.00000e+00	1.00000e+00	1.00000e+00	1.00000e+00	1.00000e+00	1.00000e+00	1.00000e+00	1.00000e+00	1.00000e+00	1.00000e+00	1.00000e+00	1.00000e+00	1.00000e+00	1.00000e+00	1.00000e+00	1.00000e+00	1.00000e+00	1.00000e+00	1.00000e+00	1.00000e+00	1.00000e+00	1.00000e+00	1.00000e+00	X	X	X	X	X	X	X	X	X	X	X	X	X	X	X	X	

B = Detector Channel
Val Type	B-AC1	B-AC2	B-AC3	B-AC4	B-AC5	B-AC6	B-AC7	B-AC8	B-AC9	B-AC10	B-AC11	B-AC12	B-AC13	B-AC14	B-AC15	B-AC16	B-DC1	B-DC2	B-DC3	B-DC4	B-DC5	B-DC6	B-DC7	B-DC8	B-DC9	B-DC10	B-DC11	B-DC12	B-DC13	B-DC14	B-DC15	B-DC16	B-Ph1	B-Ph2	B-Ph3	B-Ph4	B-Ph5	B-Ph6	B-Ph7	B-Ph8	B-Ph9	B-Ph10	B-Ph11	B-Ph12	B-Ph13	B-Ph14	B-Ph15	B-Ph16	

Term	0.00000e+00	0.00000e+00	0.00000e+00	0.00000e+00	0.00000e+00	0.00000e+00	0.00000e+00	0.00000e+00	0.00000e+00	0.00000e+00	0.00000e+00	0.00000e+00	0.00000e+00	0.00000e+00	0.00000e+00	0.00000e+00	0.00000e+00	0.00000e+00	0.00000e+00	0.00000e+00	0.00000e+00	0.00000e+00	0.00000e+00	0.00000e+00	0.00000e+00	0.00000e+00	0.00000e+00	0.00000e+00	0.00000e+00	0.00000e+00	0.00000e+00	0.00000e+00	-1.27282e+02	-1.30498e+02	-1.26606e+02	-1.82720e+02	-7.04405e+01	-6.88341e+01	-1.60843e+02	-1.62015e+02	-7.31909e+01	-6.92541e+01	-1.72572e+02	-1.72955e+02	-1.82795e+02	-1.78089e+02	-7.17232e+01	-1.50939e+02	
Factor	1.93131e-05	1.69621e-04	4.86892e-05	1.65898e-01	1.33105e-06	1.92021e-06	1.95781e-01	6.11879e-02	1.30919e-06	1.87107e-06	9.62612e-02	3.22527e-02	2.98245e-02	9.98308e-03	1.50668e-06	1.45378e-02	1.28716e-05	2.34187e-05	6.58817e-06	8.38859e-02	2.30464e-07	2.64030e-07	9.33801e-02	3.11235e-02	2.35691e-07	2.61591e-07	4.74826e-02	1.59974e-02	1.53938e-02	5.11434e-03	2.44169e-07	7.23425e-03	X	X	X	X	X	X	X	X	X	X	X	X	X	X	X	X	



#DISTANCE SETTINGS
A = Detector Channel
A-1	A-2	A-3	A-4	A-5	A-6	A-7	A-8	A-9	A-10	A-11	A-12	A-13	A-14	A-15	A-16	

2.5000e+00	3.0000e+00	2.5000e+00	3.0000e+00	2.0000e+00	3.0000e+00	1.5000e+00	3.0000e+00	3.0000e+00	3.0000e+00	3.0000e+00	3.0000e+00	3.0000e+00	3.0000e+00	1.5000e+00	3.0000e+00	

B = Detector Channel
B-1	B-2	B-3	B-4	B-5	B-6	B-7	B-8	B-9	B-10	B-11	B-12	B-13	B-14	B-15	B-16	

1.0000e+01	1.0000e+01	1.0000e+01	1.4400e+00	1.0000e+01	1.0000e+01	1.5100e+00	1.9400e+00	1.0000e+01	1.0000e+01	1.9900e+00	2.4900e+00	2.4100e+00	2.9000e+00	1.0000e+01	2.9800e+00	




#DATA BEGINS
time	group	step	mark	flag	A-AC1	A-AC2	A-AC3	A-AC4	A-AC5	A-AC6	A-AC7	A-AC8	A-AC9	A-AC10	A-AC11	A-AC12	A-AC13	A-AC14	A-AC15	A-AC16	A-DC1	A-DC2	A-DC3	A-DC4	A-DC5	A-DC6	A-DC7	A-DC8	A-DC9	A-DC10	A-DC11	A-DC12	A-DC13	A-DC14	A-DC15	A-DC16	A-Ph1	A-Ph2	A-Ph3	A-Ph4	A-Ph5	A-Ph6	A-Ph7	A-Ph8	A-Ph9	A-Ph10	A-Ph11	A-Ph12	A-Ph13	A-Ph14	A-Ph15	A-Ph16	B-AC1	B-AC2	B-AC3	B-AC4	B-AC5	B-AC6	B-AC7	B-AC8	B-AC9	B-AC10	B-AC11	B-AC12	B-AC13	B-AC14	B-AC15	B-AC16	B-DC1	B-DC2	B-DC3	B-DC4	B-DC5	B-DC6	B-DC7	B-DC8	B-DC9	B-DC10	B-DC11	B-DC12	B-DC13	B-DC14	B-DC15	B-DC16	B-Ph1	B-Ph2	B-Ph3	B-Ph4	B-Ph5	B-Ph6	B-Ph7	B-Ph8	B-Ph9	B-Ph10	B-Ph11	B-Ph12	B-Ph13	B-Ph14	B-Ph15	B-Ph16	aux-1	digaux	

14720.531	1	1	0	256	0.23413	0.088253	0.21622	0.27644	0.023302	0.14218	0.21944	0.15041	0.14106	0.066028	0.23014	0.081727	0.28368	0.2929	0.077326	0.17269	-1.9333	-3.0667	-2.7021	-2.5312	-3.1354	-2.6479	-2.9583	-3.1479	-2.4813	-3.0083	-2.7542	-2.5833	-3.2438	-2.6917	-2.8792	-2.9562	205.047	206.135	373.682	471.058	333.601	302.292	463.265	325.886	248.812	502.605	484.166	248.711	523.712	435.522	301.665	504.468	0.00048069	0.00034175	0.00012884	1298.8	4.3286e-06	6.754e-06	1299.3	358.39	6.1337e-06	4.1309e-06	410.6	136.14	118.63	40.805	3.1939e-06	51.1	0.0011123	0.0016022	0.00044757	1317.2	1.5684e-05	1.7894e-05	1320	366.2	1.6601e-05	1.7412e-05	420.28	140.22	121.65	41.995	1.6812e-05	52.7	198.120	265.572	308.292	187.657	299.474	329.623	187.305	192.138	301.898	344.509	191.538	195.735	196.413	201.644	312.613	200.350	-8191	255	
14720.627	1	1	0	0	0.21422	0.31689	0.097839	0.15894	0.19842	0.13461	0.27969	0.095836	0.27684	0.076125	0.28952	0.1524	0.24914	0.17622	0.03401	0.10382	-2.2125	-2.6875	-2.7604	-2.7792	-3.0438	-2.6271	-2.8917	-3.1729	-2.5292	-2.8438	-3.0021	-2.5729	-2.9813	-2.9083	-2.6167	-3	236.331	503.190	255.348	225.138	257.041	276.825	464.001	497.716	232.450	415.468	512.585	208.881	502.711	192.435	276.709	280.647	0.00048975	0.00042433	0.00014336	1298.2	2.7556e-06	4.6249e-06	1298.1	358.22	4.7633e-06	2.3736e-06	412.37	136.47	118.09	40.633	4.4395e-06	50.694	0.0011121	0.0016183	0.0004482	1319	1.6265e-05	1.8423e-05	1322.2	365.54	1.6961e-05	1.8463e-05	421.15	140.19	121.25	41.959	1.7486e-05	52.587	199.256	243.780	279.124	187.820	305.883	373.748	187.407	192.130	288.047	337.399	191.529	195.750	196.135	201.159	322.229	200.331	-8191	255	
14720.746	1	1	0	0	0.14653	0.092571	0.079989	0.18768	0.13175	0.26743	0.28471	0.14965	0.012424	0.029073	0.29208	0.085764	0.27761	0.30508	0.02472	0.34837	-2.2271	-2.9062	-2.6604	-2.7458	-3.1396	-2.7188	-2.9875	-3.0812	-2.3812	-2.9521	-2.9625	-2.525	-3.1458	-2.8021	-2.8354	-3.1146	370.803	254.891	273.793	511.699	415.942	428.805	468.628	466.006	491.000	437.473	490.515	199.706	186.414	461.664	452.341	498.161	0.00050125	0.00044151	0.00012891	1301.2	4.5307e-06	7.3445e-06	1297.9	356.91	2.5784e-06	4.4669e-06	410.66	136.32	118.16	40.459	4.487e-06	50.95	0.0011631	0.0016583	0.00047145	1320	1.6887e-05	1.9097e-05	1321	365.43	1.7563e-05	1.8866e-05	421.05	139.94	121.2	41.881	1.799e-05	52.613	197.842	278.416	231.235	187.825	303.566	331.706	187.320	192.303	303.174	343.467	191.515	195.760	195.967	201.415	305.323	200.464	-8191	255	
14720.842	1	1	0	0	0.21233	0.055589	0.15509	0.19415	0.1217	0.19893	0.10905	0.25065	0.22191	0.12728	0.085268	0.18874	0.24654	0.12485	0.21718	0.20979	-2.2396	-2.9188	-2.8854	-2.6917	-3.0396	-2.7479	-2.7917	-3.225	-2.7792	-2.6625	-3.0646	-2.7646	-2.9854	-2.9958	-2.5979	-3.0438	279.687	209.428	271.468	503.822	178.278	518.591	462.291	211.440	210.021	179.000	435.711	477.626	501.587	466.731	245.866	446.704	0.0005057	0.00067274	0.00013593	1302.9	2.8283e-06	5.2939e-06	1300	358.63	4.8388e-06	5.7069e-06	412.35	135.81	117.81	40.678	5.284e-06	50.82	0.0011768	0.0017235	0.00047256	1323	1.6959e-05	1.9234e-05	1323.9	365.74	1.7891e-05	1.8961e-05	421.74	139.96	121.04	41.937	1.7977e-05	52.549	201.491	279.350	255.182	187.778	293.538	307.034	187.429	192.295	318.207	334.825	192.011	195.682	196.233	201.425	305.291	200.558	-8191	255	
14720.914	1	1	0	0	0.25937	0.13511	0.13695	0.32694	0.070168	0.086148	0.26323	0.28322	0.14674	0.21947	0.41563	0.18391	0.2105	0.26956	0.22998	0.21457	-2.2062	-2.8646	-2.9813	-2.6292	-3.0812	-2.9604	-2.6125	-3.2896	-2.9188	-2.5729	-3.0875	-2.7417	-3.0104	-3.0479	-2.5292	-3.1875	367.505	293.630	401.539	481.845	484.302	274.379	486.578	501.415	394.319	278.335	492.638	489.622	456.933	184.643	484.324	421.850	0.000457	0.00066723	0.00022891	1302.5	3.8622e-06	7.0479e-06	1300.5	357.72	4.7187e-06	4.8013e-06	413.04	135.93	117.11	40.591	4.5185e-06	50.719	0.0011926	0.0017204	0.00047969	1323	1.7639e-05	1.9093e-05	1325.7	365.54	1.7952e-05	1.9786e-05	421.59	139.87	121.04	41.947	1.8405e-05	52.576	195.914	244.077	254.704	187.702	311.620	317.238	187.398	191.931	307.129	277.713	191.792	195.601	196.145	201.333	300.699	200.536	-8191	255	
14721.012	1	1	0	0	0.17749	0.05571	0.18483	0.47192	0.19901	0.050267	0.20704	0.37082	0.083657	0.26876	0.08844	0.16127	0.1383	0.18545	0.12464	0.13726	-2.4354	-2.6688	-3.0271	-2.7062	-2.8708	-2.975	-2.7146	-3.0062	-2.6667	-2.575	-3.0458	-2.6458	-2.8708	-3.1479	-2.7313	-3.0208	445.176	503.651	275.824	508.409	208.772	266.567	526.385	497.037	478.921	324.804	177.374	395.332	183.375	483.985	488.189	440.902	0.00046557	0.00053991	8.6589e-05	1304.2	5.3907e-06	5.6463e-06	1300.1	358.66	5.2672e-06	6.5861e-06	412.18	136.13	117.78	40.507	2.9168e-06	50.915	0.0011952	0.0017637	0.00048461	1321.4	1.816e-05	1.9881e-05	1325.8	365.7	1.8756e-05	1.9867e-05	421.3	140	121.26	41.816	1.8809e-05	52.685	198.878	262.215	268.192	187.662	291.324	317.084	187.545	192.036	276.523	334.304	191.863	195.673	196.183	201.387	305.059	200.426	-8191	255	
14721.131	1	1	0	0	0.089649	0.036688	0.15599	0.36257	0.10135	0.14944	0.32421	0.22469	0.27272	0.32862	0.029409	0.077176	0.15092	0.30148	0.20434	0.15383	-2.3875	-2.575	-3.2125	-2.6479	-2.75	-2.9708	-2.7229	-3.0292	-2.7604	-2.6188	-3.0917	-2.8229	-2.6875	-2.9583	-2.7313	-2.7625	293.679	382.831	294.892	500.813	343.194	368.857	442.507	482.027	324.971	510.726	353.601	483.635	465.570	453.851	344.328	400.387	0.00046119	0.00032296	0.00016864	1305.4	3.7478e-06	1.9742e-06	1293.8	357.76	6.8231e-06	7.599e-06	411.95	135.96	118.04	40.719	5.2141e-06	50.768	0.0012134	0.0017543	0.00049899	1324.5	1.7742e-05	1.924e-05	1324	365.59	1.7927e-05	1.9235e-05	420.73	139.72	121.26	41.928	1.8257e-05	52.563	198.835	254.112	249.982	187.460	269.678	343.780	187.468	192.049	281.966	325.106	191.653	195.572	196.279	201.391	310.660	200.300	-8191	255	
14721.227	1	1	0	0	0.17779	0.35176	0.11034	0.25816	0.081343	0.33933	0.36974	0.31863	0.30973	0.066066	0.27642	0.11252	0.043364	0.22782	0.21889	0.060011	-2.3271	-2.4729	-3.0271	-2.9375	-2.5938	-3.0375	-2.8125	-2.9021	-3.1333	-2.5	-3.1354	-2.8708	-2.6	-2.9146	-2.6208	-2.9437	423.769	202.212	504.795	454.623	461.182	451.287	461.684	462.419	257.874	408.979	265.548	331.838	479.814	505.013	327.060	389.497	0.00049081	0.00033821	0.00010867	1304.7	8.0876e-06	4.0099e-06	1296	357.65	6.5048e-06	3.71e-06	411.01	136.06	116.87	40.507	5.135e-06	50.712	0.0011716	0.0016983	0.00047438	1321.5	1.7374e-05	1.8884e-05	1321.5	364.94	1.7603e-05	1.8875e-05	420.25	139.83	120.74	41.824	1.7958e-05	52.534	198.276	234.069	251.091	187.637	310.496	332.278	187.609	192.333	287.555	302.411	191.726	195.788	196.303	201.232	341.967	200.372	-8191	255	
14721.323	1	1	0	0	0.13326	0.24283	0.16703	0.40994	0.16625	0.16026	0.19943	0.3142	0.15935	0.06724	0.25726	0.2565	0.17061	0.14728	0.050532	0.24541	-2.45	-2.5083	-2.9	-3.0208	-2.7229	-3.0854	-2.6688	-2.8958	-3.0438	-2.4833	-2.8417	-2.9583	-2.6854	-3.2521	-2.6125	-2.8479	287.521	257.899	183.513	521.608	415.789	517.272	503.332	404.301	478.201	219.844	511.944	457.170	229.383	430.798	305.931	480.859	0.00044537	0.00051466	0.00011833	1299.2	4.3834e-06	4.6318e-06	1293.9	356.35	4.4289e-06	5.2731e-06	411.05	136.07	117.82	40.465	3.6103e-06	50.833	0.0011606	0.0017312	0.00048133	1319.3	1.7287e-05	1.8749e-05	1318.4	364.77	1.7255e-05	1.8998e-05	420.22	139.69	121.05	41.785	1.8007e-05	52.588	200.865	250.619	212.480	187.585	292.453	367.810	187.491	191.982	272.520	332.327	191.800	195.690	196.440	201.533	330.465	200.669	-8191	255	
14721.419	1	1	0	0	0.22387	0.054033	0.25309	0.30111	0.1544	0.17057	0.33241	0.15899	0.14085	0.074079	0.090176	0.21587	0.023	0.20873	0.13304	0.41782	-2.6188	-2.55	-2.8771	-3.0271	-2.3937	-2.9458	-3.0729	-2.5917	-3.0583	-2.7917	-3.0083	-2.9417	-2.6167	-3.1083	-2.8563	-2.6688	295.156	348.132	328.498	521.245	376.655	517.555	428.674	483.146	448.168	475.937	228.668	413.829	176.077	451.212	503.020	475.676	0.00052473	0.00054299	0.00016011	1299.3	4.4244e-06	5.5949e-06	1294.9	356.26	2.4705e-06	7.1718e-06	409.71	134.96	116.96	40.469	3.2653e-06	50.526	0.0011698	0.001688	0.0004784	1318.5	1.7137e-05	1.9073e-05	1319.2	364.46	1.7617e-05	1.9166e-05	419.56	139.42	120.54	41.749	1.8438e-05	52.374	196.557	260.634	267.454	187.661	304.353	314.031	187.394	192.139	286.748	329.226	191.852	195.422	196.338	201.496	308.283	200.547	-8191	255	
14721.515	1	1	0	0	0.074516	0.23118	0.066924	0.10508	0.19984	0.10894	0.068111	0.10414	0.10726	0.21907	0.46196	0.1013	0.18139	0.29297	0.21814	0.16023	-2.6604	-2.5938	-2.8563	-3.2458	-2.5833	-3.2375	-3.0396	-2.5542	-3.2458	-2.6833	-2.9	-3.3688	-2.625	-3.0646	-2.8896	-2.6521	311.803	435.088	200.535	465.861	238.167	201.281	532.587	509.944	515.448	516.371	515.178	389.299	397.403	219.343	531.543	420.410	0.00046356	0.00049469	0.0001292	1299.1	4.4358e-06	6.4582e-06	1289.2	356.38	5.2752e-06	3.3533e-06	409.75	134.74	117.12	40.528	4.6214e-06	50.659	0.0011808	0.0017913	0.00049808	1317.4	1.7623e-05	1.9752e-05	1317.2	364.04	1.8081e-05	1.9562e-05	418.91	139.07	120.39	41.733	1.8622e-05	52.332	196.966	277.264	241.121	187.735	318.602	324.838	187.349	192.086	304.684	321.984	191.711	195.607	196.394	201.540	310.396	200.509	-8191	255	
14721.611	1	1	0	0	0.11767	0.028368	0.013355	0.48702	0.21391	0.20036	0.2435	0.10984	0.092175	0.2619	0.088008	0.073469	0.11192	0.3005	0.057923	0.11862	-2.6708	-2.7313	-2.8354	-3.1417	-2.5	-2.7875	-2.9396	-2.9167	-2.9792	-2.6458	-3.025	-2.9354	-2.6917	-3.0896	-2.8854	-2.6354	379.244	521.080	209.243	531.667	272.146	261.181	483.963	448.986	179.579	366.636	215.001	474.023	421.117	440.759	533.746	252.651	0.0004763	0.00048169	0.000165	1300.6	6.5322e-06	2.5445e-06	1295.6	355.95	6.866e-06	5.0652e-06	409.86	135.08	116.19	40.353	1.5097e-06	50.617	0.0012035	0.0017859	0.00050054	1319.7	1.794e-05	2.0051e-05	1317.6	363.28	1.8478e-05	1.9686e-05	419.12	139.12	120.32	41.609	1.8554e-05	52.405	200.078	269.536	265.738	187.681	299.930	363.458	187.427	192.043	298.302	325.094	191.973	195.516	196.414	201.375	296.043	200.705	-8191	255	
14721.732	1	1	0	0	0.096998	0.12135	0.097123	0.19638	0.13127	0.12931	0.40708	0.27001	0.28021	0.22091	0.28317	0.06813	0.11256	0.21102	0.17742	0.077418	-2.6771	-2.6104	-2.7687	-3.1333	-2.725	-2.9875	-3.1896	-2.6458	-3.0333	-2.8646	-2.7521	-3.2104	-2.6583	-2.7792	-2.8229	-2.7021	302.449	410.005	524.889	506.880	335.661	488.391	507.484	326.291	516.928	504.442	194.407	378.770	484.648	524.551	254.304	466.507	0.00048617	0.00048248	0.00011199	1293.8	3.4228e-06	2.8229e-06	1290.4	355.96	5.0796e-06	7.7445e-06	408.22	134.81	117.26	40.427	7.9802e-06	50.596	0.0011961	0.0017447	0.00048674	1313.3	1.7872e-05	1.9394e-05	1314.9	363.38	1.785e-05	1.9079e-05	418.23	138.85	120.39	41.64	1.8237e-05	52.226	196.422	259.496	264.299	187.588	325.265	367.081	187.385	192.023	295.503	301.857	191.907	195.464	196.311	201.539	304.106	200.363	-8191	255	
14721.826	1	1	0	0	0.13738	0.046658	0.19761	0.12749	0.10831	0.20672	0.23284	0.30437	0.23262	0.15512	0.16329	0.18148	0.10092	0.29702	0.11856	0.24823	-2.6	-3.0625	-2.6437	-3.2396	-2.7625	-2.6875	-3.2083	-2.6958	-2.9542	-2.8958	-2.7729	-3.1896	-2.8208	-2.875	-3.1167	-2.5563	268.599	415.655	271.694	521.475	490.993	522.435	528.595	446.157	501.896	436.092	183.484	345.946	228.098	509.249	232.063	473.622	0.00049694	0.00048549	0.00012722	1291.9	5.2257e-06	4.0174e-06	1288.5	355.62	2.9539e-06	5.5496e-06	409.01	135.31	116.88	40.251	4.9371e-06	50.416	0.0011967	0.0017687	0.0004875	1312	1.7799e-05	1.9633e-05	1312.7	362.92	1.7925e-05	1.9158e-05	418.53	138.86	120.24	41.495	1.8918e-05	52.248	198.253	247.973	254.631	187.631	298.267	330.774	187.527	192.289	292.960	292.841	191.830	195.969	196.410	201.311	304.962	200.504	-8191	255	
14721.923	1	1	0	0	0.1973	0.17215	0.1349	0.1811	0.044797	0.08452	0.23238	0.33836	0.31856	0.12483	0.33195	0.19393	0.17984	0.1013	0.088834	0.17393	-2.6	-2.8479	-2.4437	-3.2333	-2.6583	-2.8875	-3.2042	-2.6333	-2.8917	-2.8688	-2.9208	-3.0354	-2.7188	-2.9437	-2.9104	-2.6625	207.402	279.598	322.296	532.140	243.901	253.744	492.320	507.924	333.568	368.032	178.709	354.570	241.457	241.478	395.056	354.749	0.00050919	0.00067406	0.00015619	1289.9	1.8189e-06	6.2803e-06	1289.7	356.61	5.7233e-06	7.2867e-06	410.65	135.43	117.05	40.46	3.6604e-06	50.493	0.0012063	0.001777	0.00050512	1310.7	1.8228e-05	2.0142e-05	1312.8	364.09	1.8222e-05	1.9856e-05	419.13	139.24	120.68	41.738	1.8325e-05	52.442	193.219	262.729	272.863	187.675	306.094	357.588	187.582	192.134	300.208	355.282	191.690	195.621	196.274	201.620	314.364	200.345	-8191	255	
14722.019	1	1	0	0	0.16135	0.078319	0.18816	0.2369	0.11643	0.1154	0.23878	0.14225	0.26687	0.20356	0.2015	0.24959	0.20443	0.29213	0.17361	0.24131	-2.4396	-2.8333	-2.4875	-3.2687	-2.6896	-2.5604	-3.1854	-2.7875	-2.9625	-2.9083	-2.8333	-3.1083	-3.0083	-2.7083	-3.0917	-2.8125	449.051	399.179	419.178	302.865	299.082	233.362	457.140	512.330	228.674	413.565	461.817	457.438	521.581	192.491	400.163	483.484	0.0005204	0.00061069	0.00017077	1294.3	5.9351e-06	3.7346e-06	1287.4	358.12	6.4921e-06	4.933e-06	410.73	135.87	117.56	40.514	3.7448e-06	50.793	0.0011895	0.0017586	0.00048858	1315	1.7755e-05	1.9295e-05	1316.5	364.74	1.8004e-05	1.9432e-05	420.07	139.69	120.89	41.83	1.8513e-05	52.503	200.117	266.569	272.984	187.783	298.024	343.988	187.270	192.189	311.124	311.463	191.677	195.626	196.206	201.300	321.040	200.585	-8191	255	
14722.115	1	1	0	0	0.050955	0.26583	0.1669	0.35596	0.14009	0.13349	0.37985	0.052533	0.076792	0.13222	0.10056	0.21019	0.16591	0.14497	0.21395	0.34001	-2.2729	-2.9917	-2.5458	-3.0396	-2.9542	-2.5812	-3.175	-2.7875	-2.9583	-3.1083	-2.6063	-3.1042	-2.6854	-2.5958	-3.1688	-2.7042	266.959	447.724	521.741	474.297	521.016	516.939	433.021	193.100	228.645	457.677	212.153	369.079	520.745	506.034	217.309	512.342	0.00047365	0.00052082	0.0001893	1297.3	5.5881e-06	4.3252e-06	1291.1	358.17	4.2327e-06	9.8005e-06	413.93	135.75	117.82	40.609	6.0881e-06	51.073	0.0012377	0.001812	0.0005125	1317.9	1.8699e-05	2.076e-05	1317.7	366.14	1.9637e-05	2.1093e-05	421.96	140.01	121.46	42	2.0519e-05	52.792	198.874	266.281	282.719	187.621	281.278	317.939	187.321	191.863	288.120	338.919	191.472	195.544	196.392	201.544	297.684	200.717	-8191	255	
14722.211	1	1	0	0	0.12381	0.10973	0.136	0.14732	0.14145	0.12482	0.20799	0.17462	0.16317	0.050416	0.18159	0.22889	0.31102	0.132	0.075116	0.12714	-2.15	-2.9188	-2.5146	-2.8812	-2.8625	-2.7854	-3.2292	-2.6208	-2.6688	-2.8729	-2.625	-2.8063	-2.8979	-2.7729	-2.9208	-3.0667	475.293	294.197	470.535	509.407	416.947	492.258	520.956	512.495	343.866	394.983	468.414	506.610	463.950	225.612	329.710	481.066	0.00050777	0.00068324	7.5626e-05	1308.2	3.1901e-06	8.3506e-06	1305.5	360.22	3.8741e-06	5.4258e-06	413.28	136.98	118.12	40.903	7.6096e-06	50.997	0.0013204	0.0019282	0.00055316	1327.1	1.9987e-05	2.2455e-05	1330.5	368.16	2.0699e-05	2.2372e-05	424.29	140.83	122.05	42.17	2.1273e-05	52.903	197.919	259.723	288.264	187.529	299.125	335.470	187.499	192.124	284.384	340.079	191.747	195.425	196.362	201.035	322.272	200.293	-8191	255	
14722.307	1	1	0	0	0.14337	0.071431	0.36096	0.15352	0.052303	0.45653	0.19284	0.23235	0.16538	0.045028	0.045887	0.047327	0.1623	0.083836	0.19718	0.1851	-2.2687	-3.0354	-2.7042	-2.9875	-2.8521	-2.5396	-3.0563	-3.2604	-2.3458	-3.2333	-2.7208	-2.8812	-3.2313	-2.7062	-3.0521	-2.9729	212.155	276.215	475.875	486.935	225.099	515.939	207.824	493.000	449.427	174.290	479.946	362.255	210.217	481.390	189.770	383.826	0.0005224	0.00061374	0.00020588	1314.3	3.8663e-06	2.7229e-06	1305.4	361.17	3.8239e-06	6.4831e-06	414.93	136.32	118.86	41.049	2.0331e-06	50.984	0.0013586	0.0019775	0.00056192	1333.4	1.9925e-05	2.2279e-05	1333.2	369.26	2.0591e-05	2.1907e-05	424.87	140.81	122.22	42.268	2.0584e-05	52.829	199.002	269.767	282.030	187.504	338.336	303.358	187.272	192.128	296.817	318.950	191.725	195.611	196.045	201.389	271.583	200.444	-8191	255	
14722.428	1	1	0	0	0.13564	0.082397	0.26013	0.44885	0.27887	0.13608	0.065353	0.060435	0.099245	0.15104	0.038382	0.25845	0.1334	0.13471	0.074583	0.16015	-2.025	-3.2104	-2.8208	-2.9125	-2.9688	-2.7958	-3.0187	-3.1604	-2.7208	-2.9979	-2.9875	-2.4708	-3.05	-2.55	-2.8875	-2.9958	279.901	280.452	450.420	512.901	519.008	330.845	419.824	319.347	488.393	516.869	246.193	226.798	473.903	492.597	517.450	496.911	0.00051563	0.00035407	0.00010276	1310	4.1205e-06	7.5743e-06	1306.5	360.8	4.7545e-06	3.4775e-06	413.67	136.47	118.54	40.99	4.3249e-06	51	0.0013232	0.00195	0.00055663	1333.6	1.9555e-05	2.213e-05	1333.2	368.96	2.0372e-05	2.1764e-05	424.71	141.06	122.19	42.241	2.0811e-05	52.865	201.944	266.290	261.131	187.713	289.263	362.733	187.396	192.021	289.102	272.100	191.324	195.656	196.343	201.344	294.805	200.314	-8191	255	
14722.524	1	1	0	0	0.085845	0.14224	0.23742	0.14032	0.081673	0.10471	0.15888	0.14729	0.22814	0.20442	0.15144	0.091453	0.13395	0.41829	0.14475	0.29849	-1.9833	-3.0563	-2.8083	-2.9667	-2.9396	-2.7938	-2.875	-3.1188	-2.3667	-2.9229	-2.8792	-2.6188	-3.1833	-2.6708	-2.8063	-2.8208	363.021	474.733	310.740	533.659	530.495	277.063	454.853	492.739	465.362	456.313	411.950	505.354	493.613	522.150	234.310	407.421	0.00052272	0.0007225	0.00013596	1315.2	3.6776e-06	5.4904e-06	1314.4	361.69	4.0228e-06	5.3713e-06	414.02	137.4	118.74	40.882	5.081e-06	51.244	0.001357	0.001984	0.00056094	1333	1.9731e-05	2.2406e-05	1334.6	369.76	2.0828e-05	2.2522e-05	424.98	141.36	122.23	42.186	2.1209e-05	53.005	199.388	258.936	279.666	187.622	307.741	328.022	187.518	191.998	289.231	310.172	191.668	195.721	195.983	201.448	327.763	200.371	-8191	255	
14722.620	1	1	0	0	0.27033	0.057942	0.25336	0.28005	0.096612	0.14213	0.16967	0.2015	0.095583	0.15598	0.079709	0.21727	0.25308	0.22363	0.17118	0.090164	-2.2271	-2.8104	-3.0167	-2.8771	-2.9604	-2.6646	-2.9167	-2.9375	-2.5438	-2.8958	-3.1688	-2.5062	-3.1208	-2.7521	-2.7	-2.9938	453.791	176.173	271.781	493.888	522.628	433.954	177.661	193.602	315.351	177.865	470.055	366.381	523.442	495.746	526.266	429.458	0.00048459	0.00050839	0.0001286	1315.2	4.3816e-06	4.566e-06	1310.4	361.13	5.3951e-06	3.6176e-06	413.86	136.58	119.02	41.078	5.3692e-06	51.012	0.001351	0.0020087	0.00056369	1335.1	2.0062e-05	2.2221e-05	1335.9	369.17	2.0804e-05	2.2296e-05	425.02	141.06	122.38	42.205	2.1086e-05	52.898	205.279	275.386	251.904	187.614	272.187	332.262	187.287	191.995	281.266	341.541	191.736	195.531	196.027	201.233	319.534	200.462	-8191	255	
14722.714	1	1	0	0	0.17482	0.11539	0.23363	0.057048	0.145	0.12137	0.12554	0.1903	0.10224	0.070734	0.38231	0.11352	0.22857	0.047651	0.037921	0.015555	-2.2896	-2.8646	-2.8688	-2.625	-2.8458	-2.7521	-2.7521	-3.3458	-2.5396	-2.6958	-3.0854	-2.6875	-3.0604	-2.9521	-2.4813	-3.1646	419.432	177.289	356.590	518.141	179.697	392.933	472.041	427.746	418.794	474.311	203.678	189.633	462.931	439.046	420.906	420.515	0.00048129	0.00036165	0.00014001	1314.3	3.1044e-06	2.2789e-06	1314.6	360.91	3.4386e-06	7.274e-06	415.43	136.08	118.59	40.867	5.431e-06	51.165	0.0013233	0.0019747	0.00054878	1335.3	2.0188e-05	2.2807e-05	1337.2	369.32	2.0778e-05	2.2151e-05	425.36	140.75	122.08	42.217	2.0951e-05	53.031	200.158	247.658	299.648	187.463	318.569	364.608	187.420	192.024	252.327	316.070	191.740	195.666	196.171	201.158	322.961	200.309	-8191	255	
14722.811	1	1	0	0	0.11208	0.086737	0.16689	0.37822	0.18406	0.19477	0.26639	0.14951	0.13401	0.19089	0.19733	0.14876	0.0361	0.20827	0.058244	0.00296	-2.1354	-2.7729	-2.8021	-2.7583	-2.9313	-2.8917	-2.6917	-3.0083	-2.7771	-2.7604	-3.1542	-2.7396	-2.9792	-3.0208	-2.3958	-2.9396	282.424	388.210	374.278	482.756	298.972	493.727	455.551	226.735	383.311	369.409	496.378	510.209	461.390	431.001	303.193	438.880	0.00048557	0.00041726	0.00014764	1316.3	4.5599e-06	6.1686e-06	1310.9	360.96	4.7731e-06	5.8494e-06	417.12	136.77	118.55	40.981	6.5235e-06	51.275	0.0013423	0.0019716	0.00055323	1337.9	2.0065e-05	2.2205e-05	1339.3	369.31	2.0726e-05	2.1721e-05	425.82	141.11	122.48	42.317	2.0632e-05	53.061	196.955	256.724	313.294	187.596	301.972	360.212	187.372	192.106	301.637	314.900	191.721	195.728	196.245	201.549	329.729	200.516	-8191	255	
14722.907	1	1	0	0	0.23266	0.022194	0.23992	0.18213	0.23103	0.28402	0.1601	0.29848	0.10791	0.26089	0.30066	0.13852	0.19451	0.29979	0.092463	0.17271	-2.225	-2.4958	-2.9896	-2.7812	-2.8312	-2.9667	-2.5938	-3.125	-2.6875	-2.8875	-3.1396	-2.9521	-3.0292	-3.3104	-2.6417	-3.0583	247.441	386.288	210.195	511.625	488.870	313.613	406.566	177.446	220.620	274.800	494.451	196.515	491.814	477.198	246.578	424.913	0.00050807	0.00070473	0.00020571	1315.4	4.058e-06	1.0159e-05	1315.7	361.14	4.7033e-06	6.2968e-06	415.36	137.15	119.13	40.862	5.9208e-06	51.201	0.0013288	0.0019804	0.00055431	1339.1	2.0159e-05	2.2138e-05	1339.3	369.59	2.0569e-05	2.2104e-05	425.14	141.15	122.46	42.295	2.0848e-05	53.015	197.910	251.573	280.152	187.603	313.085	295.282	187.413	191.963	288.941	302.807	191.623	195.677	196.016	201.340	327.921	200.314	-8191	255	
14723.003	1	1	0	0	0.17613	0.062348	0.22513	0.13543	0.12055	0.18999	0.21289	0.062903	0.14953	0.029159	0.20616	0.049835	0.098315	0.15429	0.20226	0.069767	-2.4333	-2.7562	-3.0958	-2.825	-2.9917	-3.0625	-2.8729	-3.2667	-2.8729	-2.8458	-3.0875	-2.8375	-2.7479	-3.1292	-2.525	-3.1833	292.323	507.467	488.349	211.584	352.374	194.107	499.762	510.468	491.253	313.917	252.650	479.068	291.058	489.316	183.738	217.599	0.00047868	0.00048169	0.00016991	1316	4.374e-06	8.3551e-06	1312.6	362.2	5.5467e-06	5.8612e-06	415.58	137.19	119.03	40.938	5.9936e-06	51.196	0.0013368	0.0019577	0.00054752	1338.6	1.9749e-05	2.1767e-05	1340.2	370.27	2.0401e-05	2.1998e-05	425.63	141.26	122.6	42.316	2.0956e-05	53.012	203.173	269.517	271.820	187.550	328.937	318.706	187.326	192.057	279.523	324.757	191.712	195.380	196.379	201.087	322.946	200.768	-8191	255	
14723.099	1	1	0	0	0.14948	0.26085	0.26241	0.37491	0.25803	0.10724	0.28774	0.18029	0.17295	0.12464	0.04067	0.11875	0.13032	0.084027	0.33368	0.13019	-2.3458	-2.6542	-2.9521	-2.9271	-2.5646	-3.2521	-2.7167	-2.9313	-2.9396	-2.4646	-3.0604	-2.9625	-2.6917	-3.1625	-2.4813	-2.7917	223.043	405.086	471.902	482.663	258.900	443.545	494.471	416.843	436.476	289.521	453.747	506.761	389.834	469.197	424.612	390.801	0.00048398	0.00030959	0.00023647	1315.7	2.9401e-06	8.4163e-06	1317.7	361.69	2.8556e-06	4.7051e-06	416.88	137.15	118.47	40.893	4.7254e-06	50.97	0.0013318	0.0019823	0.00055597	1338.2	2.0611e-05	2.2016e-05	1342	370.3	2.046e-05	2.248e-05	425.94	141.22	122.33	42.212	2.0912e-05	52.972	199.943	238.441	274.443	187.661	328.064	301.602	187.337	191.859	269.894	355.581	191.797	195.574	196.046	201.050	314.133	200.400	-8191	255	
14723.220	1	1	0	0	0.22865	0.061856	0.23929	0.35765	0.25801	0.20993	0.1677	0.23161	0.25517	0.12938	0.20492	0.10343	0.15217	0.03765	0.16344	0.22221	-2.4854	-2.5854	-2.7625	-2.8917	-2.6188	-3.1167	-2.6208	-2.9833	-2.7604	-2.4146	-2.9854	-3.0062	-2.5938	-3.1271	-2.3625	-2.6937	303.588	479.265	483.371	477.284	477.118	274.751	521.057	474.702	406.597	232.867	502.624	477.185	302.690	182.746	240.042	393.367	0.00051444	0.00065419	0.0001518	1321.5	4.1765e-06	3.7846e-06	1315.2	361.04	6.3089e-06	6.8335e-06	416.57	137.11	118.75	40.883	6.5595e-06	51.263	0.0013274	0.0019943	0.00055887	1341.6	2.0126e-05	2.235e-05	1339.4	369.63	2.0781e-05	2.2027e-05	425.72	141.08	122.32	42.242	2.0712e-05	52.984	197.429	261.755	278.443	187.654	339.406	297.611	187.315	192.022	298.403	381.665	191.681	195.806	196.331	201.171	332.858	200.349	-8191	255	
14723.316	1	1	0	0	0.22331	0.11613	0.38345	0.2659	0.067241	0.089893	0.32513	0.22582	0.41545	0.098407	0.23939	0.19267	0.10433	0.096974	0.068837	0.033427	-2.3458	-2.5458	-2.8375	-2.9833	-2.3792	-3.0792	-2.8417	-2.8979	-2.8292	-2.3917	-3.0958	-2.9875	-2.5417	-3.0521	-2.65	-2.8021	186.768	532.310	435.680	177.247	501.374	317.346	506.532	426.783	196.959	305.957	407.128	512.620	465.320	411.863	405.733	204.537	0.00049432	0.00095153	0.00018184	1315.2	3.4061e-06	6.3648e-06	1312	362.85	5.2353e-06	4.6942e-06	414.94	136.55	119.01	41.188	4.8201e-06	50.924	0.0013103	0.0019851	0.00055317	1337.9	1.9642e-05	2.2136e-05	1338.5	370.22	2.0445e-05	2.2042e-05	425.69	140.96	122.5	42.314	2.1204e-05	52.969	197.654	283.240	274.097	187.606	318.195	320.769	187.375	191.921	289.152	337.341	191.399	195.432	195.954	201.227	312.050	200.231	-8191	255	
14723.412	1	1	0	0	0.22615	0.13799	0.17324	0.12493	0.11823	0.18065	0.30397	0.16096	0.18407	0.15751	0.19126	0.04852	0.30593	0.12508	0.075225	0.15971	-2.4917	-2.5771	-2.7229	-2.8771	-2.5958	-2.9958	-2.9271	-2.7	-3.2333	-2.5833	-2.9208	-3.0458	-2.4792	-3.0125	-2.7146	-2.7042	476.458	498.089	436.871	446.333	410.984	491.933	469.931	391.878	422.309	319.901	387.344	269.896	501.781	517.572	231.395	325.055	0.0005336	0.00069905	0.00013494	1318	4.3794e-06	5.2567e-06	1316.6	362.35	4.9754e-06	3.6569e-06	416.63	136.77	119.26	40.917	3.0319e-06	51.035	0.0013321	0.0019681	0.00056244	1339.6	2.0058e-05	2.2422e-05	1340.9	370.06	2.0401e-05	2.224e-05	426.15	141.02	122.5	42.274	2.1193e-05	52.995	193.289	276.791	302.876	187.589	310.673	345.003	187.282	192.229	306.379	292.696	191.665	195.781	196.136	201.401	323.640	200.385	-8191	255	
14723.508	1	1	0	0	0.17431	0.24965	0.2024	0.16331	0.42278	0.05796	0.15457	0.31193	0.13113	0.19198	0.069545	0.12669	0.04277	0.26688	0.2992	0.099449	-2.6208	-2.7333	-2.6729	-3.2	-2.5375	-3.0125	-3.0479	-2.7396	-2.9729	-2.6021	-2.8667	-3.1125	-2.6021	-3.0896	-3.0563	-2.7292	354.881	365.030	212.257	455.119	381.066	532.063	490.376	478.221	330.514	378.405	231.423	460.517	272.979	517.713	206.936	312.857	0.00049359	0.00068927	2.9787e-05	1323.6	4.9673e-06	5.1496e-06	1314.7	361.33	5.5435e-06	2.9427e-06	414.6	136.71	118.93	40.889	4.8313e-06	51.072	0.0013119	0.0020035	0.0005715	1341.7	2.0205e-05	2.2245e-05	1341.5	369.86	2.0323e-05	2.2026e-05	425.18	141.09	122.31	42.255	2.1114e-05	52.929	195.102	234.549	321.622	187.768	309.722	332.396	187.237	192.022	299.196	345.423	191.726	195.679	196.301	201.088	300.147	200.451	-8191	255	
14723.604	1	1	0	0	0.22563	0.2565	0.056197	0.23716	0.13195	0.26103	0.096688	0.29531	0.091418	0.24465	0.094088	0.055907	0.36044	0.24288	0.23996	0.075513	-2.4896	-2.6854	-2.7146	-3.0604	-2.6979	-2.7375	-3.15	-2.7896	-2.8271	-2.6688	-2.5896	-3.2896	-2.7229	-2.7438	-3.0417	-2.6667	281.414	175.433	420.587	190.500	181.497	516.645	378.199	445.469	503.367	313.928	361.411	215.948	496.279	510.216	414.072	287.103	0.00051267	0.0006983	0.00014353	1319.5	3.9745e-06	5.8406e-06	1313.8	361.64	5.1889e-06	5.0254e-06	414.17	137.06	118.83	40.903	4.93e-06	51.234	0.0013367	0.0019883	0.00056047	1341.3	2.027e-05	2.2597e-05	1342.6	370.49	2.0801e-05	2.2086e-05	425.46	141.22	122.47	42.287	2.0649e-05	53.063	198.049	252.496	262.168	187.687	265.179	347.826	187.410	192.010	318.705	324.898	191.626	195.413	196.305	201.398	320.916	200.280	-8191	255	
14723.700	1	1	0	0	0.060078	0.24443	0.058605	0.21848	0.31683	0.17737	0.22972	0.21367	0.29908	0.040844	0.1055	0.14422	0.10521	0.043573	0.13237	0.41994	-2.5917	-2.5625	-2.6396	-3.2125	-2.675	-2.9	-3.1479	-2.5312	-3.0667	-2.8396	-2.9562	-3.0125	-2.6688	-3.1042	-2.8646	-2.6583	205.442	458.863	488.248	487.979	390.489	210.607	434.895	439.333	319.269	431.535	319.575	525.103	522.383	217.902	206.135	483.080	0.00049188	0.0006202	0.00016394	1320.3	1.8182e-06	7.0145e-06	1317.1	361.57	3.9323e-06	6.1506e-06	414.91	137.06	118.17	40.935	5.0271e-06	51.09	0.0013244	0.0019723	0.00054542	1341	1.9673e-05	2.2283e-05	1342.3	369.92	1.9658e-05	2.1482e-05	425.21	141.25	122.39	42.334	2.0041e-05	53.015	197.797	231.085	288.911	187.634	260.231	288.918	187.218	192.080	302.662	311.948	191.743	195.461	196.248	201.156	316.774	200.267	-8191	255	
14723.819	1	1	0	0	0.073705	0.24224	0.28152	0.17898	0.18423	0.33055	0.10302	0.17743	0.031026	0.19753	0.26599	0.20094	0.23815	0.2695	0.10535	0.20232	-2.4667	-2.925	-2.3792	-3.1771	-2.6417	-2.7812	-3.1937	-2.8458	-2.8438	-3.0833	-2.5271	-3.2417	-2.8021	-2.8354	-3.0271	-2.6458	195.159	455.271	352.413	456.516	507.678	401.251	266.620	413.387	413.711	277.458	525.750	516.840	214.747	503.943	496.746	434.653	0.00049576	0.00041606	3.9924e-05	1323.5	1.365e-06	3.0421e-06	1311.2	362.78	5.6501e-06	6.4199e-06	417.32	137	118.88	41.142	3.861e-06	51.142	0.001298	0.0019198	0.00053286	1340.5	1.9732e-05	2.1654e-05	1340.2	370.2	2.0038e-05	2.1393e-05	425.67	141.25	122.42	42.331	1.9662e-05	52.986	201.638	271.784	299.003	187.545	342.267	263.208	187.177	192.138	301.995	357.880	191.676	195.418	196.013	201.361	281.096	200.717	-8191	255	
14723.915	1	1	0	0	0.16698	0.12351	0.07842	0.40617	0.29508	0.10311	0.088386	0.17549	0.16926	0.11581	0.092847	0.14427	0.29993	0.12315	0.18084	0.086005	-2.3833	-2.7917	-2.5958	-3.3104	-2.7604	-2.6896	-3.1875	-2.7729	-2.8917	-3.0938	-2.6437	-2.975	-3.0687	-2.7021	-3.0958	-2.7646	206.641	372.363	511.188	480.774	315.790	432.083	259.461	526.173	526.563	204.297	478.181	197.683	205.559	446.235	479.417	316.135	0.00046599	0.00045156	0.00018324	1316.1	4.2886e-06	6.696e-06	1309	360.38	5.2051e-06	6.7349e-06	414.52	136.85	118.48	41.017	4.786e-06	51.232	0.0012842	0.0018971	0.00052121	1336.2	1.9461e-05	2.1051e-05	1338.3	369.27	1.9835e-05	2.0924e-05	424.66	140.83	122.13	42.222	1.9881e-05	52.9	196.892	264.797	258.963	187.637	309.835	304.171	187.375	191.897	283.992	336.767	191.666	195.299	196.360	201.339	250.252	200.382	-8191	255	
14724.012	1	1	0	0	0.24124	0.13025	0.29091	0.26654	0.10878	0.24839	0.21034	0.12905	0.074339	0.22707	0.27508	0.26662	0.14627	0.19363	0.089475	0.11075	-2.4083	-2.9333	-2.5292	-3.4229	-2.9125	-2.5333	-3.2625	-2.5875	-2.7021	-3.0438	-2.7625	-3.125	-2.7333	-2.6771	-3.0979	-2.8417	455.494	303.958	398.622	474.554	397.158	441.574	441.984	530.001	231.636	206.596	511.971	459.390	219.706	279.655	385.419	496.384	0.00050551	0.00039009	0.00014844	1318.2	4.6566e-06	5.6714e-06	1308	361.17	4.8596e-06	5.9681e-06	415.36	136.52	118.67	40.87	4.6932e-06	51.154	0.0013024	0.001895	0.00053666	1335.4	1.8953e-05	2.0639e-05	1333.1	368.68	1.9344e-05	2.0981e-05	424.31	140.62	122.25	42.202	1.9746e-05	52.872	198.271	270.862	277.189	187.665	289.056	357.149	187.352	192.057	313.808	310.481	191.577	195.628	196.091	201.254	327.032	200.659	-8191	255	
14724.108	1	1	0	0	0.1916	0.29025	0.25386	0.20142	0.14025	0.099265	0.30622	0.13846	0.13791	0.24768	0.33569	0.33979	0.17124	0.1106	0.26012	0.151	-2.2938	-3.2	-2.4979	-3.0771	-2.8875	-2.6979	-3.1167	-2.9646	-2.7271	-3.1333	-2.7833	-2.9625	-3.0167	-2.65	-3.0708	-2.7313	191.519	358.110	426.480	191.931	332.628	479.434	480.433	511.562	349.236	383.051	419.336	384.797	190.290	229.395	382.084	480.716	0.00047164	0.00034663	0.00011346	1312.5	4.1294e-06	1.43e-06	1307.5	359.41	3.4399e-06	5.1873e-06	414.11	137	118.42	40.817	4.3776e-06	50.891	0.0012741	0.001846	0.00052063	1334.4	1.8998e-05	2.058e-05	1332.2	367.87	1.9429e-05	2.0397e-05	423.68	140.88	121.98	42.147	1.968e-05	52.788	200.833	257.028	276.286	187.621	319.224	392.073	187.315	192.093	273.010	314.578	191.564	195.624	196.205	201.422	294.262	200.447	-8191	255	
14724.204	1	1	0	0	0.1411	0.073896	0.18828	0.43789	0.045791	0.19552	0.27984	0.2659	0.24367	0.091319	0.18893	0.32663	0.15665	0.31441	0.35162	0.25703	-2.2917	-3.1167	-2.5854	-2.6708	-3.0354	-2.5312	-2.9979	-3.0375	-2.4562	-2.9292	-2.7979	-2.8583	-3.2354	-2.7687	-2.9729	-2.9396	195.862	376.453	479.910	480.431	381.964	463.663	480.994	533.114	321.315	473.504	508.403	517.122	333.662	493.442	321.246	191.063	0.00048274	0.00022677	0.00015275	1309.8	4.4369e-06	8.1e-06	1312.7	360.39	4.7201e-06	4.434e-06	414.87	136.76	117.86	40.981	5.7527e-06	50.983	0.0012555	0.0018299	0.00051202	1331.5	1.8509e-05	2.061e-05	1334.6	368.59	1.9289e-05	2.0293e-05	423.7	140.89	121.7	42.195	1.9593e-05	52.793	201.191	291.814	263.474	187.632	296.348	305.937	187.231	192.061	296.122	328.655	191.716	195.664	196.198	201.299	307.655	200.356	-8191	255	
14724.300	1	1	0	0	0.17251	0.14266	0.14323	0.1176	0.1498	0.028926	0.13365	0.23712	0.14022	0.10296	0.22519	0.12481	0.34298	0.14666	0.039548	0.11647	-2.0917	-2.9562	-2.8396	-2.9188	-3.1958	-2.4813	-3.0583	-3.0167	-2.5479	-3.1104	-2.7021	-2.8667	-3.0479	-2.8458	-2.6813	-2.9437	356.903	338.542	452.818	474.420	338.766	353.052	506.206	474.113	179.147	314.230	181.152	448.486	477.862	469.637	213.227	202.742	0.00050106	0.00045179	0.00016113	1310.4	4.9173e-06	4.6387e-06	1306.6	359.2	4.5566e-06	6.6197e-06	413.13	136.83	118.3	40.905	6.4823e-06	50.777	0.0012507	0.0018398	0.00051905	1330.9	1.8831e-05	2.0958e-05	1330.7	368.07	1.9117e-05	2.0175e-05	423.31	140.79	121.87	42.153	1.9782e-05	52.723	200.787	289.536	294.558	187.564	308.256	348.887	187.345	191.863	294.510	325.530	191.692	195.685	196.066	201.244	322.378	200.677	-8191	255	
14724.396	1	1	0	0	0.15937	0.13229	0.093851	0.2886	0.31415	0.11224	0.34096	0.24936	0.22699	0.05069	0.28436	0.18041	0.056235	0.10853	0.15155	0.22983	-2.1292	-3.0958	-2.8063	-2.8208	-2.7938	-2.6042	-2.9437	-3.1063	-2.6458	-2.9813	-3.0438	-2.6875	-3.2583	-2.7833	-2.7625	-3.075	198.765	245.692	271.578	495.264	337.647	432.448	496.650	478.971	217.918	252.114	507.592	512.556	297.489	526.821	474.399	459.567	0.00045936	0.00064839	0.00013442	1308.9	4.435e-06	2.9322e-06	1309.4	360.91	4.2209e-06	3.8304e-06	413.97	136.85	118.41	40.926	6.5176e-06	50.938	0.0012486	0.0018602	0.00051902	1332.1	1.8355e-05	2.0784e-05	1332.7	368.8	1.921e-05	2.0326e-05	423.64	140.99	121.91	42.189	1.9246e-05	52.78	196.486	251.314	282.176	187.646	307.897	381.691	187.319	191.848	318.631	310.447	191.863	195.653	196.173	201.223	308.157	200.532	-8191	255	
14724.517	1	1	0	0	0.0678	0.28123	0.26885	0.050452	0.088102	0.11067	0.32526	0.10841	0.23354	0.038348	0.10375	0.16583	0.22708	0.3248	0.3677	0.1765	-2.0417	-3.0208	-2.7979	-2.8375	-2.9958	-2.7167	-2.7833	-3.1312	-2.4125	-3.1271	-3.0229	-2.7333	-3.2125	-2.825	-2.5875	-3.1146	355.240	362.847	382.356	220.945	426.364	215.101	196.223	483.740	281.136	205.915	476.287	442.306	508.289	299.854	303.185	495.156	0.00048147	0.00064255	0.00013845	1310.6	3.1308e-06	2.1123e-06	1309.7	360.82	4.6899e-06	7.27e-06	413.56	137.37	118.63	40.766	2.7775e-06	51.139	0.0012444	0.0018037	0.00051541	1332.1	1.8649e-05	2.084e-05	1332.9	368.7	1.8837e-05	2.0631e-05	423.18	141.04	122.17	42.099	1.9352e-05	52.806	196.212	245.176	270.356	187.685	296.447	291.101	187.340	191.886	257.832	320.318	191.809	195.548	196.216	201.282	325.895	200.146	-8191	255	
14724.613	1	1	0	0	0.30905	0.11139	0.047103	0.26117	0.01804	0.14145	0.3471	0.017858	0.19392	0.19588	0.049193	0.17661	0.10049	0.26101	0.11773	0.18973	-1.9688	-3.025	-2.7812	-2.5646	-2.8729	-2.8937	-2.6396	-3.2417	-2.6729	-2.9	-3.1042	-2.625	-3.0792	-2.925	-2.6125	-3.2708	531.201	361.864	392.576	500.319	290.055	246.913	462.553	511.215	318.659	266.086	499.872	391.589	404.877	476.319	246.753	300.996	0.0004727	0.00061639	0.00015064	1312	2.44e-06	6.1078e-06	1308.3	360.92	4.3987e-06	5.8648e-06	413.92	136.57	118.38	40.796	4.6389e-06	50.996	0.0012401	0.0018315	0.00050962	1332.6	1.84e-05	2.0708e-05	1333.9	368.79	1.9089e-05	2.0798e-05	423.6	140.64	122.1	42.187	1.9201e-05	52.914	202.440	282.178	318.796	187.430	342.128	311.167	187.271	192.047	305.148	281.907	191.599	195.498	196.061	201.231	317.806	200.488	-8191	255	
14724.685	1	1	0	0	0.2796	0.23634	0.28481	0.34011	0.34992	0.076385	0.039562	0.25101	0.15652	0.22081	0.25433	0.29475	0.040362	0.043949	0.15033	0.16534	-2.1396	-2.8229	-3.0292	-2.8417	-2.9437	-2.875	-2.7917	-3.1979	-2.6604	-2.7729	-3.0187	-2.6417	-2.9479	-3.0646	-2.6562	-3.2375	257.674	178.436	415.596	441.828	351.555	424.546	386.477	442.239	246.261	331.462	174.573	342.972	217.124	450.789	452.372	196.760	0.00050841	0.00056427	0.00013983	1310.7	3.6228e-06	5.3554e-06	1309.6	361.33	4.1049e-06	8.5385e-07	414.76	136.28	119.01	40.777	4.0608e-06	51.26	0.0012348	0.0018095	0.00051176	1333	1.8726e-05	2.0681e-05	1335.5	368.8	1.8833e-05	2.0537e-05	423.72	140.85	122.09	42.147	1.9267e-05	52.851	196.712	238.299	272.195	187.702	307.699	347.276	187.367	192.041	296.055	224.126	191.628	195.393	196.218	201.049	311.088	200.512	-8191	255	
14724.781	1	1	0	0	0.094928	0.1573	0.042135	0.3007	0.22035	0.081806	0.21107	0.24286	0.13479	0.083889	0.083366	0.081092	0.027646	0.092352	0.20985	0.2377	-2.2542	-2.7438	-2.7604	-2.6958	-2.8271	-3.1146	-2.65	-2.9771	-2.7542	-2.5896	-3.2042	-2.7229	-2.9354	-2.9229	-2.7313	-3.2542	287.686	387.914	431.744	519.231	191.537	322.974	454.479	506.263	222.882	231.857	178.879	491.231	485.887	456.629	473.820	432.451	0.00047379	0.00044032	0.00015549	1314.9	4.2065e-06	6.5866e-06	1309.8	360.59	4.5736e-06	7.2199e-06	414.57	136.94	119.12	40.809	3.5417e-06	51.385	0.0012268	0.001807	0.00051054	1334.1	1.8772e-05	1.9978e-05	1335.3	368.59	1.8926e-05	1.9947e-05	423.76	140.89	122.29	42.165	1.9278e-05	52.892	197.972	281.514	249.184	187.621	291.507	343.716	187.299	191.920	320.353	332.093	191.711	195.680	196.210	201.393	309.779	200.462	-8191	255	
14724.901	1	1	0	0	0.14394	0.246	0.19437	0.28632	0.074915	0.1397	0.11737	0.17439	0.17117	0.1323	0.093336	0.087771	0.064507	0.14646	0.10133	0.14408	-2.3875	-2.7125	-3.0042	-2.7667	-2.8854	-2.9229	-2.6708	-2.7875	-2.7896	-2.575	-3.2521	-2.7625	-2.8563	-3.0604	-2.5625	-2.8833	196.032	317.869	500.533	511.722	342.746	416.518	475.593	505.804	528.406	494.343	287.722	175.288	295.113	180.811	315.979	397.462	0.00048562	0.00027105	0.00018766	1314.5	2.6213e-06	5.7787e-06	1308.1	360.64	5.6646e-06	4.4891e-06	413.95	136.42	118.22	40.883	5.3864e-06	51.001	0.001242	0.0018315	0.00050669	1333	1.8679e-05	2.0224e-05	1332.6	368.78	1.8867e-05	1.9489e-05	423.18	140.7	122.03	42.21	1.8904e-05	52.81	197.918	288.966	276.858	187.601	330.986	354.058	187.420	192.274	310.799	267.118	191.562	195.769	196.023	201.028	325.783	200.291	-8191	255	
14724.996	1	1	0	0	0.12913	0.25672	0.12814	0.46478	0.096326	0.13511	0.035272	0.16759	0.17357	0.074777	0.093197	0.039967	0.19886	0.14413	0.18649	0.16583	-2.5354	-2.4729	-3.0396	-2.9021	-2.8229	-3.0917	-2.7854	-2.9604	-2.8771	-2.6479	-2.9562	-2.8479	-2.6562	-3.0312	-2.5125	-2.9479	278.217	358.324	533.449	524.335	247.990	413.599	255.020	477.289	471.993	345.035	435.637	490.975	510.458	475.188	355.212	179.159	0.00053418	0.0006004	0.00013141	1311.8	2.7681e-06	4.7563e-06	1306.9	361.45	5.6439e-06	5.9204e-06	413.89	136.66	118.85	40.758	3.5852e-06	51.199	0.0012235	0.0017605	0.00048876	1333.8	1.799e-05	1.9603e-05	1334.7	369.01	1.8599e-05	1.9628e-05	423.61	140.79	122.19	42.162	1.8827e-05	52.891	202.674	272.778	290.857	187.692	290.907	333.508	187.262	192.031	300.944	339.840	191.608	195.530	196.021	201.266	287.739	200.255	-8191	255	
14725.092	1	1	0	0	0.079047	0.27925	0.2651	0.38848	0.18262	0.049553	0.10651	0.26883	0.21138	0.30871	0.2575	0.078648	0.2547	0.14464	0.24398	0.19987	-2.6375	-2.6771	-3.1063	-3	-2.6396	-3.2167	-2.7375	-3.1646	-2.9813	-2.4396	-3.1437	-2.8917	-2.9042	-3.2188	-2.7229	-2.9583	292.398	515.195	485.280	202.307	408.628	285.671	457.652	503.221	176.260	261.136	450.838	512.316	387.673	521.850	375.176	235.348	0.00050797	0.00037452	0.00022596	1314.8	4.0407e-06	3.648e-06	1303.2	359.13	3.7809e-06	5.9595e-06	412.97	136.53	118.17	40.95	5.371e-06	51.07	0.0012108	0.0017559	0.00049525	1332.6	1.7824e-05	1.9504e-05	1331.3	367.95	1.8181e-05	1.9777e-05	423.47	140.86	121.88	42.152	1.8661e-05	52.848	197.423	281.569	266.147	187.724	276.677	359.185	187.340	192.094	286.907	320.324	191.624	195.627	196.098	201.210	317.411	200.419	-8191	255	
14725.213	1	1	0	0	0.27981	0.15553	0.088316	0.28253	0.29278	0.18757	0.0028734	0.24792	0.10475	0.14699	0.28747	0.16356	0.24705	0.20822	0.265	0.1405	-2.5917	-2.7271	-2.8958	-3.1083	-2.5083	-3.0938	-2.6979	-2.8958	-2.8708	-2.6667	-2.8042	-2.8729	-2.4417	-3.2667	-2.8125	-2.8833	210.889	392.045	278.487	227.397	335.949	246.523	258.336	480.194	390.921	228.216	478.697	493.957	191.505	502.570	194.992	268.814	0.00049183	0.00029759	0.00017461	1311.9	9.7099e-07	5.637e-06	1304.9	360.39	5.9417e-06	5.376e-06	413.68	136.7	118.93	40.886	4.6293e-06	50.965	0.0012201	0.0017479	0.00049413	1333	1.8244e-05	1.9833e-05	1331.2	367.86	1.8189e-05	1.9472e-05	423.49	140.67	122.16	42.202	1.8698e-05	52.872	201.397	263.811	308.420	187.561	328.393	334.179	187.478	191.822	307.378	334.264	191.455	195.423	195.973	201.147	318.226	200.262	-8191	255	
14725.284	1	1	0	0	0.17411	0.13127	0.092403	0.17802	0.23554	0.092247	0.33542	0.092392	0.13179	0.26323	0.22917	0.17055	0.27403	0.18885	0.057603	0.26871	-2.5208	-2.6271	-2.8125	-2.8937	-2.6417	-3.0833	-2.9875	-2.7333	-3.1104	-2.7583	-3.0229	-3.2417	-2.4854	-3.0979	-2.8042	-2.7792	216.547	341.555	420.634	504.921	511.188	422.066	493.692	194.241	489.016	497.483	532.392	486.948	441.603	499.981	435.987	511.464	0.00051297	0.00053741	0.00017962	1313.5	5.4374e-06	4.1605e-06	1309.3	360.07	3.5316e-06	3.1847e-06	412.96	137.1	118.46	40.949	3.8803e-06	50.918	0.0012013	0.0017577	0.00049955	1333.6	1.7725e-05	1.9652e-05	1332.1	367.92	1.7934e-05	1.9512e-05	423.16	140.98	122	42.211	1.8751e-05	52.754	199.002	265.528	242.247	187.700	313.069	315.365	187.578	192.321	292.946	357.527	191.680	195.550	196.252	201.305	325.319	200.376	-8191	255	
14725.380	1	1	0	0	0.15481	0.060809	0.15192	0.1754	0.089359	0.10621	0.17834	0.16159	0.17481	0.082892	0.24286	0.14991	0.17453	0.27623	0.12843	0.17849	-2.4688	-2.6625	-2.8333	-3.1479	-2.6229	-2.9646	-3.0104	-2.525	-3.1771	-2.675	-2.9813	-2.9146	-2.5417	-2.8937	-3.0146	-2.5687	177.970	485.594	521.052	491.604	410.721	346.781	197.395	459.807	513.488	382.138	507.125	482.009	259.520	504.799	310.718	191.400	0.000478	0.00055637	8.205e-05	1308.7	4.9016e-06	5.3393e-06	1308.4	361.25	4.8101e-06	4.6275e-06	414.84	136.71	118.26	40.854	4.1636e-06	51.26	0.0011765	0.0017608	0.00049864	1332.1	1.7688e-05	1.972e-05	1332	368.23	1.8018e-05	1.9284e-05	424.15	140.58	121.94	42.139	1.8221e-05	52.843	200.349	260.278	195.439	187.591	274.397	333.246	187.284	192.029	294.575	317.068	191.775	195.384	196.400	201.127	291.614	200.317	-8191	255	
14725.501	1	1	0	0	0.15879	0.18788	0.19426	0.1474	0.046975	0.073589	0.1127	0.33802	0.18912	0.29769	0.2271	0.26505	0.26416	0.070472	0.18797	0.2883	-2.6646	-2.5896	-2.5667	-3.1937	-2.4979	-2.9604	-2.9542	-2.6979	-3.1667	-2.75	-2.7333	-3.1604	-2.6312	-2.9083	-2.7938	-2.8542	384.018	208.969	251.796	520.168	207.692	297.608	393.880	496.686	377.182	456.326	463.816	413.227	494.476	287.252	260.211	519.053	0.00049321	0.00050903	6.1934e-05	1309.7	3.4149e-06	4.8761e-06	1304.6	359.54	4.6587e-06	4.1898e-06	412.23	136.31	118.78	41.026	5.3052e-06	51.003	0.0011894	0.0017331	0.00047578	1329.2	1.7765e-05	1.9245e-05	1331.3	367.82	1.7782e-05	1.9297e-05	423.26	140.76	122.01	42.191	1.7881e-05	52.819	200.723	267.232	280.976	187.676	311.973	338.252	187.405	192.062	288.495	334.227	191.750	195.679	196.026	201.578	321.805	200.406	-8191	255	
14725.597	1	1	0	0	0.11766	0.057144	0.06083	0.18349	0.11257	0.14053	0.081533	0.20745	0.21465	0.17816	0.24016	0.19575	0.25314	0.12686	0.092586	0.27618	-2.4646	-2.6813	-2.7	-3.2896	-2.625	-2.8667	-3.1521	-2.6	-3.0542	-2.5271	-2.8646	-2.9042	-2.7062	-2.7083	-3.0396	-2.5792	298.740	229.275	270.806	492.897	525.691	183.504	522.542	489.328	232.825	304.455	503.925	493.884	294.722	275.299	331.891	499.759	0.00049909	0.00082859	0.00012798	1310.6	3.6512e-06	6.8389e-06	1307.2	361.55	4.0415e-06	7.5823e-06	412.26	137.31	119.1	40.953	5.1139e-06	51.143	0.0011855	0.0017185	0.00048962	1331.1	1.7587e-05	1.9362e-05	1332.6	368.59	1.7779e-05	1.9285e-05	423.48	141.06	122.11	42.212	1.8125e-05	52.866	198.541	240.376	247.068	187.691	320.150	332.755	187.415	192.069	308.849	340.596	191.631	195.551	196.207	201.354	297.926	200.294	-8191	255	
14725.693	1	1	0	0	0.22597	0.077488	0.099419	0.17215	0.13947	0.074026	0.078294	0.12601	0.032408	0.17086	0.13808	0.30713	0.17894	0.20082	0.43367	0.10648	-2.3146	-2.8521	-2.6188	-3.4313	-2.7854	-2.7687	-3.1771	-2.7438	-2.85	-3.0146	-2.6333	-3.0229	-2.7917	-2.5354	-3.1646	-2.6979	269.935	300.324	261.215	466.037	405.954	295.613	512.611	488.353	215.236	213.573	532.119	473.357	413.640	344.569	444.598	417.737	0.00051852	0.00032032	0.00011935	1311	4.8251e-06	2.9016e-06	1299.3	359.39	6.6223e-06	1.8555e-06	414.57	136.49	118.08	40.816	5.1699e-06	50.858	0.0011997	0.0017029	0.00048814	1330.4	1.755e-05	1.9613e-05	1329.7	367.94	1.8007e-05	1.9011e-05	423.26	140.85	121.88	42.18	1.8122e-05	52.798	198.053	228.842	253.840	187.558	309.797	339.863	187.352	191.924	296.992	340.727	191.658	195.646	196.220	201.308	318.884	200.469	-8191	255	
14725.790	1	1	0	0	0.038136	0.27438	0.062434	0.087738	0.21688	0.18957	0.039995	0.25534	0.24032	0.38227	0.15154	0.15393	0.16709	0.19173	0.13014	0.21926	-2.3667	-2.5854	-2.5646	-3.1208	-2.7292	-2.6604	-3.1729	-2.7896	-2.8521	-2.8625	-2.6188	-3.1167	-2.6937	-2.7417	-3.0458	-2.7687	502.852	448.277	431.872	381.473	296.909	251.953	346.558	465.307	323.878	479.712	463.191	475.955	280.201	431.242	305.035	325.777	0.00049686	0.00043622	0.00014516	1310.3	4.3312e-06	2.4156e-06	1302.7	360.22	4.4633e-06	2.2452e-06	413.77	136.58	118.75	40.872	3.1923e-06	50.979	0.0011907	0.0017316	0.00047752	1330.1	1.7621e-05	1.8906e-05	1329.8	367.48	1.7654e-05	1.8459e-05	422.73	140.71	121.98	42.129	1.7888e-05	52.831	198.810	235.363	265.420	187.680	313.561	341.999	187.159	191.968	297.369	349.400	191.918	195.365	196.406	201.308	312.398	200.400	-8191	255	
14725.908	1	1	0	0	0.099976	0.071823	0.091504	0.20455	0.15116	0.18942	0.18514	0.1934	0.24403	0.13487	0.14552	0.34802	0.36995	0.10885	0.12229	0.14927	-2.425	-3.0042	-2.475	-2.9229	-2.7583	-2.5833	-2.9646	-2.8583	-2.7521	-2.9396	-2.825	-3.0792	-2.9771	-2.8125	-2.8563	-2.825	335.243	308.174	199.077	463.532	419.593	195.385	502.234	523.355	420.703	210.323	521.733	504.363	482.239	478.678	281.448	369.839	0.00046941	0.00066678	0.00015189	1311.2	4.0357e-06	5.1545e-06	1306.4	359.86	7.3532e-06	5.7528e-06	413.73	136.69	118.27	40.977	6.3881e-06	50.843	0.0011723	0.0017293	0.00047738	1329.2	1.7464e-05	1.9027e-05	1329.2	367.55	1.7778e-05	1.8418e-05	422.63	140.63	121.83	42.108	1.8106e-05	52.714	195.289	272.035	307.060	187.655	304.096	331.558	187.274	191.903	275.316	299.730	191.802	195.444	196.338	201.259	309.066	200.373	-8191	255	
14725.980	1	1	0	0	0.23331	0.053139	0.19626	0.059192	0.15669	0.082082	0.39338	0.10016	0.15666	0.095979	0.33227	0.26344	0.13709	0.2364	0.078246	0.46475	-2.2271	-2.925	-2.6417	-2.775	-2.9188	-2.4604	-2.9813	-2.9813	-2.7729	-3.0271	-2.8417	-2.8125	-3.1771	-2.5458	-3.1083	-2.8063	256.687	336.645	519.017	441.723	285.208	193.645	460.337	384.964	286.439	344.733	491.071	213.278	251.813	186.999	229.522	182.380	0.00049777	0.00030844	0.00016998	1310.3	4.1126e-06	6.4944e-06	1303.9	359.76	2.6463e-06	5.4173e-06	412.79	136.48	118.23	40.793	5.3697e-06	51.104	0.0011992	0.0016682	0.00048698	1329.5	1.7315e-05	1.9073e-05	1328.7	367.97	1.7718e-05	1.8871e-05	422.76	140.59	121.94	42.148	1.8301e-05	52.756	199.215	304.862	266.929	187.662	296.583	322.904	187.512	192.055	320.145	327.571	191.623	195.568	196.188	201.264	312.268	200.436	-8191	255	
14726.076	1	1	0	0	0.23291	0.18933	0.32161	0.16005	0.39336	0.31721	0.089407	0.044797	0.27164	0.33232	0.39107	0.13822	0.19584	0.10392	0.21168	0.28338	-2.0625	-3.1208	-2.3542	-3.0167	-2.9979	-2.6979	-3.1271	-2.8729	-2.8042	-2.9396	-2.7375	-2.8312	-3.0667	-2.4625	-3.0771	-2.7917	445.866	257.463	179.910	202.155	427.236	470.483	443.602	374.226	449.772	263.506	503.494	220.686	450.357	223.409	261.552	469.190	0.00050867	0.0004411	9.5689e-05	1309.5	4.9991e-06	4.052e-06	1307.1	360.14	4.3223e-06	4.3617e-06	413.36	136.87	118.52	40.9	3.0272e-06	51.013	0.0011773	0.0016746	0.00048133	1328.6	1.7178e-05	1.9039e-05	1331	368.03	1.7733e-05	1.8723e-05	422.41	140.65	121.73	42.093	1.8023e-05	52.78	197.523	279.657	272.791	187.696	303.808	297.285	187.413	192.076	299.387	344.058	191.588	195.518	196.159	201.191	342.348	200.388	-8191	255	
14726.172	1	1	0	0	0.32603	0.25147	0.20425	0.29532	0.21686	0.35199	0.35877	0.065721	0.096903	0.06925	0.28523	0.28226	0.044387	0.12254	0.28775	0.42926	-2.1417	-2.9062	-2.7083	-2.8563	-2.9562	-2.6146	-2.8833	-2.9146	-2.6208	-3.0354	-2.7146	-2.7604	-3.0604	-2.6646	-2.7333	-3.0042	354.191	425.063	428.153	496.204	531.262	521.432	420.057	486.223	238.518	449.833	470.825	443.433	508.363	481.213	299.596	485.392	0.00048704	0.00037241	0.00016772	1309	4.7609e-06	3.6141e-06	1304.2	359.38	6.3171e-06	8.5158e-06	413.11	135.33	118.38	40.907	4.2737e-06	50.985	0.0011734	0.0016668	0.0004745	1328.4	1.726e-05	1.8826e-05	1327.9	367.13	1.7912e-05	1.9216e-05	422.28	140.34	121.64	42.065	1.8164e-05	52.71	195.011	278.339	281.424	187.572	290.601	319.082	187.407	191.840	286.710	316.829	191.555	195.510	196.260	201.267	320.707	200.463	-8191	255	
14726.293	1	1	0	0	0.10912	0.037363	0.25906	0.22393	0.19165	0.25034	0.21777	0.07205	0.14178	0.2562	0.26609	0.21521	0.17441	0.33717	0.087841	0.12845	-1.9583	-3.0396	-2.5979	-2.8521	-3.0521	-2.675	-3.0646	-3.0125	-2.6042	-2.9208	-2.825	-2.8542	-3.1813	-2.55	-2.8083	-2.9729	340.537	531.942	439.718	516.511	330.086	453.208	501.547	458.431	191.247	506.297	416.810	487.507	532.459	463.596	243.985	275.916	0.00048079	0.00061462	0.00013996	1306.5	6.981e-06	3.7407e-06	1302.3	360.07	5.1067e-06	5.9743e-06	413.24	136.12	118.11	40.845	4.9939e-06	51.02	0.0011735	0.0016928	0.00048172	1327.2	1.7658e-05	1.946e-05	1327.3	367.01	1.7834e-05	1.8852e-05	422.3	140.2	121.63	42.088	1.8301e-05	52.622	202.598	254.659	263.873	187.716	304.508	322.290	187.345	191.901	293.892	297.815	191.646	195.568	195.999	201.082	332.381	200.604	-8191	255	
14726.389	1	1	0	0	0.17733	0.15717	0.077092	0.15322	0.18799	0.16835	0.075101	0.24104	0.20715	0.0076355	0.19785	0.15497	0.050516	0.20107	0.18678	0.088832	-2.3208	-2.8896	-2.8271	-2.7375	-2.8875	-2.7729	-2.9104	-3.0729	-2.5833	-3.0854	-2.775	-2.6146	-3.2708	-2.6271	-2.5979	-3.0167	202.056	207.843	512.500	521.435	226.125	527.402	399.217	527.149	454.449	366.182	482.522	513.575	460.304	464.052	447.266	258.650	0.0004561	0.00030504	0.00018214	1309.1	4.0127e-06	4.38e-06	1308.1	358.75	5.9309e-06	3.7255e-06	412.12	136.34	118.01	40.788	3.3063e-06	50.845	0.0011757	0.0017226	0.0004896	1326.7	1.7131e-05	1.9584e-05	1327.7	366.92	1.8038e-05	1.9001e-05	421.77	140.3	121.61	42.094	1.7867e-05	52.65	202.804	224.811	284.772	187.577	319.965	353.861	187.339	191.924	306.093	306.535	191.683	195.401	196.194	201.272	294.587	200.488	-8191	255	
14726.485	1	1	0	0	0.17086	0.01843	0.064749	0.20245	0.078039	0.15044	0.22789	0.018658	0.12503	0.033814	0.044456	0.2656	0.1534	0.4235	0.11066	0.11284	-2.1667	-2.7938	-2.9625	-2.7125	-3.0646	-2.5875	-2.9208	-3.1937	-2.9458	-2.7979	-3.0479	-2.4875	-3.0708	-2.65	-2.7667	-3.05	368.831	292.836	480.280	464.762	478.990	428.934	506.275	487.251	220.842	179.875	528.115	232.208	476.366	488.594	177.319	203.928	0.00049643	0.00044747	0.00014196	1307.3	1.9949e-06	4.8804e-06	1301.5	359.68	2.8338e-06	3.951e-06	414.5	136.8	118.08	40.506	6.061e-06	50.859	0.0011843	0.0017108	0.00047657	1326.6	1.7396e-05	1.8789e-05	1328.1	367.26	1.7564e-05	1.9086e-05	422.38	140.38	121.53	42.067	1.7697e-05	52.691	198.574	279.612	257.273	187.536	308.340	332.536	187.382	192.193	310.339	307.385	191.745	195.630	196.330	201.172	313.512	200.266	-8191	255	
14726.581	1	1	0	0	0.153	0.17201	0.16558	0.26579	0.053113	0.18671	0.080855	0.16799	0.13066	0.20446	0.2657	0.19854	0.14251	0.10483	0.35024	0.20009	-2.3667	-2.7292	-3.1083	-2.5833	-3.0125	-2.6875	-2.8125	-3.0354	-2.7333	-2.8542	-3.0667	-2.7729	-2.8833	-2.9688	-2.7271	-2.9896	308.586	189.085	450.683	179.069	523.300	481.992	385.964	274.994	238.520	423.509	242.355	533.993	321.931	357.163	183.632	482.840	0.0004885	0.00023819	0.00013062	1312.7	6.344e-06	7.0235e-06	1301.1	359.14	3.6381e-06	1.5998e-06	414	136.96	118.31	40.755	2.0125e-06	51.012	0.0011712	0.0016781	0.00046949	1327.7	1.7119e-05	1.9251e-05	1326.9	367.05	1.7643e-05	1.8993e-05	422.26	140.38	121.65	42.115	1.7763e-05	52.7	197.418	267.968	262.759	187.506	292.716	286.045	187.308	192.074	280.877	343.842	191.486	195.756	196.169	201.229	319.155	200.534	-8191	255	
14726.678	1	1	0	0	0.096888	0.1294	0.093371	0.24269	0.18182	0.16555	0.36122	0.027501	0.10641	0.18477	0.03806	0.20066	0.31934	0.23015	0.16055	0.13853	-2.4521	-2.7583	-2.9854	-2.6625	-2.8937	-2.9042	-2.5417	-3.2521	-2.6646	-2.8854	-3.0438	-2.7583	-3.0187	-3.0396	-2.4708	-3.2938	517.927	410.024	302.750	516.045	302.416	281.009	525.188	238.282	294.055	488.237	523.924	486.293	510.111	457.191	499.689	441.891	0.00048037	0.00054275	0.00015747	1312.6	4.843e-06	5.6626e-06	1303.1	360.31	4.1562e-06	3.6984e-06	413.57	136.74	118.4	40.771	5.3069e-06	51.008	0.0011708	0.0016826	0.00046854	1328.2	1.6968e-05	1.8927e-05	1328.7	367.6	1.7564e-05	1.8387e-05	422.41	140.38	121.8	42.083	1.7884e-05	52.745	199.122	243.057	268.519	187.558	314.841	347.479	187.297	192.069	301.650	368.211	191.543	195.641	196.336	201.249	314.450	200.454	-8191	255	
14726.774	1	1	0	0	0.20226	0.22669	0.14879	0.20029	0.081092	0.17759	0.29728	0.28489	0.17742	0.3352	0.32584	0.13655	0.16109	0.12566	0.28246	0.037347	-2.1896	-2.6437	-3.225	-2.8187	-2.8292	-2.9667	-2.6937	-3.1875	-2.5563	-2.6604	-3.0646	-2.8333	-2.825	-3.0958	-2.6688	-2.9813	341.381	441.699	428.171	469.853	366.628	306.166	432.222	503.295	322.940	252.863	184.565	472.190	176.139	452.274	270.877	244.961	0.00049424	0.00060521	8.7048e-05	1305.3	4.6982e-06	7.5629e-06	1301.5	358.64	6.6909e-06	5.6127e-06	413.93	136.25	118.48	40.859	4.5772e-06	51.111	0.0011796	0.0016741	0.00045874	1327.2	1.7007e-05	1.8612e-05	1328.1	367.05	1.7721e-05	1.861e-05	422.39	140.54	121.73	42.119	1.7732e-05	52.733	201.115	266.029	274.540	187.485	309.555	353.059	187.372	192.319	297.239	373.164	191.516	195.745	196.264	201.241	288.285	200.338	-8191	255	
14726.893	1	1	0	0	0.15011	0.14619	0.17396	0.25182	0.028157	0.18085	0.23973	0.049973	0.2427	0.19675	0.11365	0.24373	0.2437	0.19728	0.061987	0.20376	-2.4604	-2.5333	-3.0583	-2.7729	-2.6792	-2.9979	-2.7333	-3.0062	-2.7167	-2.5563	-3.1125	-2.9167	-2.8187	-3.2646	-2.5521	-3.0938	306.395	469.380	445.751	393.625	236.791	225.661	176.077	363.753	398.120	409.565	176.433	510.946	513.387	526.592	194.477	390.330	0.00048594	0.00036308	0.00012686	1305	3.2249e-06	8.0071e-06	1301.1	359.97	5.7886e-06	4.4424e-06	412.51	136.8	118.45	40.928	3.5961e-06	50.946	0.0011499	0.001669	0.00046352	1327.2	1.7171e-05	1.8465e-05	1326.6	367.07	1.7581e-05	1.872e-05	422.57	140.67	121.89	42.123	1.7895e-05	52.886	197.712	275.313	264.203	187.649	315.902	349.509	187.365	192.233	304.882	302.770	191.757	195.503	195.822	201.381	280.550	200.581	-8191	255	
14726.989	1	1	0	0	0.25193	0.311	0.12609	0.2945	0.25406	0.043076	0.34776	0.38823	0.24014	0.075142	0.11541	0.18432	0.07387	0.11168	0.17299	0.18173	-2.4271	-2.5229	-2.8521	-2.9708	-2.6042	-3.0271	-2.7625	-3.05	-3.0146	-2.6937	-3.0646	-2.6604	-2.8479	-3.1229	-2.4417	-3.0187	491.034	232.903	243.188	521.540	299.773	531.138	432.315	188.103	497.229	373.773	443.890	498.243	520.834	271.253	446.651	335.855	0.00047558	0.00040461	9.6559e-05	1310	6.0973e-06	2.3591e-06	1302.5	360.05	4.5968e-06	3.5563e-06	412.86	135.92	118.84	40.786	4.1048e-06	50.796	0.0011575	0.0017003	0.0004657	1328.5	1.7063e-05	1.8715e-05	1329.6	367.64	1.7553e-05	1.891e-05	421.78	140.37	121.98	42.094	1.7911e-05	52.737	198.343	245.917	266.596	187.585	295.115	322.992	187.440	191.985	290.804	296.751	191.611	195.586	196.176	201.286	323.631	200.811	-8191	255	
14727.085	1	1	0	0	0.12388	0.13207	0.15071	0.27628	0.1261	0.13203	0.17768	0.31647	0.1162	0.28728	0.093842	0.047024	0.30087	0.061024	0.066711	0.16425	-2.5292	-2.5271	-2.7833	-2.9708	-2.3563	-3.1437	-2.7812	-3.0583	-3.0021	-2.5729	-2.95	-2.9333	-2.5604	-3.1583	-2.575	-2.8229	424.951	362.612	366.096	522.276	379.268	493.779	492.719	465.780	272.740	204.756	290.754	472.956	515.803	527.124	525.991	284.754	0.00047139	0.0007674	0.00010742	1308.7	1.3555e-06	4.6148e-06	1304.2	359.65	5.384e-06	4.8523e-06	413.07	136.59	117.99	40.714	3.8945e-06	50.885	0.0011864	0.0017116	0.00047561	1328.8	1.7432e-05	1.9043e-05	1329.4	367.36	1.7648e-05	1.913e-05	422.46	140.51	121.74	42.066	1.7993e-05	52.69	195.603	262.430	255.144	187.528	267.960	275.689	187.430	192.104	298.460	350.997	191.785	195.367	196.171	201.186	312.395	200.227	-8191	255	
14727.181	1	1	0	0	0.082994	0.1807	0.17513	0.16659	0.21583	0.16936	0.093433	0.49069	0.42005	0.25937	0.23283	0.081815	0.31657	0.23028	0.18404	0.11344	-2.5729	-2.5146	-2.9437	-3.0563	-2.6937	-2.9771	-2.8875	-2.6625	-3.0167	-2.7146	-2.9167	-3.0292	-2.4833	-3.1583	-2.9188	-3.0896	370.382	285.142	341.722	202.463	392.281	528.566	308.414	463.952	252.802	240.610	474.452	527.454	207.618	219.148	480.253	463.939	0.00050138	0.0004784	0.00012729	1306.5	2.279e-06	3.8048e-06	1306.5	359.46	7.2541e-06	5.6661e-06	412.9	136.57	118.53	40.895	5.488e-06	51.099	0.0011802	0.0016906	0.00048197	1326.7	1.7544e-05	1.889e-05	1329.3	367.41	1.7498e-05	1.9016e-05	422.61	140.6	121.82	42.141	1.8291e-05	52.837	200.472	249.868	298.319	187.812	307.000	309.542	187.219	191.927	299.590	309.794	191.793	195.344	196.188	201.382	306.182	200.348	-8191	255	
14727.277	1	1	0	0	0.19	0.068811	0.098511	0.38887	0.051694	0.048784	0.19852	0.36771	0.14828	0.21467	0.11132	0.012026	0.1961	0.19121	0.2036	0.17842	-2.4938	-2.7646	-2.9083	-2.975	-2.7042	-3.0521	-3.1083	-2.7938	-3.1625	-2.7479	-3.0708	-2.9813	-2.5833	-3.0687	-2.9375	-2.7625	454.008	315.660	521.091	438.482	266.967	407.941	508.293	492.737	428.565	445.375	487.717	290.119	383.775	249.807	446.362	432.736	0.00048588	0.0004951	8.4416e-05	1306.8	2.8686e-06	4.9916e-06	1301.5	359.6	4.3096e-06	4.7642e-06	413.12	137.18	118.62	40.962	3.1625e-06	50.942	0.0011868	0.0017032	0.00048217	1328.4	1.6866e-05	1.8928e-05	1330.3	367.54	1.7587e-05	1.8903e-05	422.69	140.72	121.91	42.229	1.8025e-05	52.766	200.859	254.391	281.862	187.606	321.843	338.962	187.387	192.163	271.817	365.271	191.763	195.579	196.228	201.349	322.778	200.596	-8191	255	
14727.373	1	1	0	0	0.21206	0.1422	0.1395	0.25345	0.023035	0.050513	0.30322	0.18967	0.16455	0.20968	0.38212	0.046132	0.16642	0.29535	0.046029	0.086107	-2.5792	-2.5687	-2.6854	-3.0625	-2.4583	-3.0354	-3.05	-2.6854	-2.9	-2.8125	-2.8958	-3.0521	-2.7604	-2.9958	-2.9042	-2.6354	254.982	233.465	300.314	495.279	479.765	500.545	509.522	451.259	391.666	282.643	487.021	499.353	451.888	482.096	480.880	459.627	0.00050238	0.00053199	0.00025151	1310.8	5.3363e-06	5.798e-06	1308.2	361.19	5.948e-06	6.3298e-06	415.16	136.42	117.86	40.751	4.3639e-06	51.013	0.0011739	0.0017043	0.00048054	1330	1.7413e-05	1.9222e-05	1330.9	368.12	1.7744e-05	1.9464e-05	423.66	140.57	121.72	42.068	1.8459e-05	52.749	199.257	294.656	251.693	187.579	288.687	295.591	187.262	191.941	296.347	332.198	191.738	195.494	195.961	201.451	350.399	200.427	-8191	255	
14727.470	1	1	0	0	0.1775	0.27187	0.17509	0.45455	0.18206	0.17085	0.20287	0.42699	0.21397	0.072385	0.29412	0.17908	0.23045	0.29989	0.06025	0.23618	-2.7667	-2.8354	-2.4854	-3.3896	-2.5479	-2.9583	-3.05	-2.8	-3.0479	-2.8396	-2.9167	-3.1833	-2.9354	-2.6479	-3.2	-2.6104	349.336	269.227	513.025	525.738	213.027	193.355	467.333	461.778	198.087	490.475	433.995	501.189	511.604	478.443	187.525	516.166	0.00047358	0.00056305	0.00014956	1303.7	6.7964e-06	5.1163e-06	1308.8	360.54	4.196e-06	3.8462e-06	414.58	136.14	118.32	40.873	6.103e-06	51.267	0.0011841	0.0017117	0.00047891	1327.1	1.7352e-05	1.9062e-05	1331.7	367.66	1.7298e-05	1.9209e-05	423.03	140.44	121.89	42.14	1.7918e-05	52.846	200.539	284.374	245.371	187.612	321.946	277.272	187.291	191.881	301.308	293.066	191.397	195.919	196.237	201.184	307.058	200.672	-8191	255	
14727.590	1	1	0	0	0.23172	0.12671	0.090921	0.32194	0.16459	0.31538	0.16938	0.072475	0.1659	0.33596	0.14512	0.20499	0.019307	0.05778	0.23564	0.14025	-2.6625	-2.7521	-2.5292	-3.3688	-2.5771	-2.7625	-3.1521	-2.6312	-2.9917	-2.8312	-2.7188	-3.2417	-2.8896	-2.6958	-2.9375	-2.6	294.540	370.082	508.852	524.441	292.639	395.185	494.667	195.370	257.002	525.291	523.881	504.151	371.734	415.835	320.512	459.436	0.00044794	0.00072818	0.00018207	1313.2	4.6058e-06	4.205e-06	1305.8	360.2	4.56e-06	6.355e-06	411.66	136.81	118.56	40.809	6.3948e-06	50.872	0.0011698	0.001736	0.00048659	1329.3	1.7454e-05	1.921e-05	1331	367.96	1.7835e-05	1.8996e-05	422.36	140.57	121.94	42.127	1.8065e-05	52.645	197.251	260.218	270.285	187.658	303.286	314.226	187.133	192.095	282.694	316.151	191.669	195.728	196.176	201.217	300.907	200.450	-8191	255	
14727.686	1	1	0	0	0.28372	0.20833	0.19258	0.16047	0.039053	0.094731	0.25161	0.34525	0.10092	0.065228	0.38292	0.16324	0.27921	0.1071	0.15093	0.19482	-2.5396	-2.8625	-2.4313	-3.3292	-2.725	-2.7042	-3.0708	-2.7646	-2.8958	-3	-2.7729	-3.25	-2.75	-2.5583	-3.0687	-2.6667	516.819	211.327	355.625	457.414	526.034	496.785	452.531	521.722	295.603	499.834	470.743	439.122	388.841	519.240	227.372	182.918	0.00048437	0.00043313	0.00015779	1309.4	4.664e-06	7.4274e-06	1305.9	359.17	6.0699e-06	3.4368e-06	414.86	136.99	118.18	40.912	4.9736e-06	50.888	0.0011846	0.0017267	0.00048374	1330	1.7636e-05	1.8908e-05	1331.5	367.3	1.8076e-05	1.8968e-05	423.99	140.86	121.86	42.19	1.8027e-05	52.78	195.768	268.844	253.280	187.630	271.171	306.719	187.530	191.978	293.882	319.873	191.759	195.408	196.228	201.348	279.662	200.559	-8191	255	
14727.781	1	1	0	0	0.070548	0.042686	0.079654	0.11272	0.16005	0.19183	0.18572	0.14572	0.2491	0.065498	0.14054	0.016405	0.12265	0.11887	0.030122	0.23572	-2.5271	-2.9688	-2.4875	-3.1	-2.8833	-2.8708	-3.0667	-2.8729	-2.7313	-3.0083	-2.6896	-2.9208	-3.1625	-2.6688	-3.0812	-2.7604	336.799	461.207	214.958	174.302	432.548	235.461	448.950	499.189	333.103	314.241	179.478	347.374	363.114	283.831	284.772	211.800	0.00045961	0.00059258	0.00015781	1310.6	5.5061e-06	6.1984e-06	1310.2	360.28	4.6117e-06	4.5474e-06	412.82	136.66	118.29	40.775	4.0023e-06	51.182	0.0011805	0.0017163	0.000495	1330.5	1.7838e-05	1.9559e-05	1332.6	367.66	1.8187e-05	1.9393e-05	423.07	140.58	121.97	42.138	1.8283e-05	52.839	201.495	277.882	276.868	187.522	335.545	319.897	187.379	192.110	288.403	310.815	191.719	195.378	196.235	201.384	309.825	200.270	-8191	255	
14727.854	1	1	0	0	0.041022	0.16794	0.19256	0.28438	0.21532	0.077547	0.044597	0.15754	0.39643	0.40349	0.085051	0.08855	0.086826	0.17874	0.14769	0.25537	-2.2188	-2.9604	-2.3	-3.0271	-2.8271	-2.5896	-3.0646	-2.9083	-2.9833	-3.1125	-2.7729	-3.0958	-3.0042	-2.6562	-3.0292	-2.9313	476.140	298.538	526.002	512.454	487.868	213.431	531.281	505.281	373.247	241.330	524.158	398.649	490.471	437.667	197.059	368.065	0.00049964	0.00032572	0.00011381	1313.8	5.1341e-06	4.6157e-06	1314.3	360.09	6.4797e-06	4.8399e-06	415.39	136.64	118.92	40.668	3.3345e-06	50.889	0.0011838	0.0017278	0.0004795	1333.5	1.7574e-05	1.9617e-05	1335	368.16	1.8185e-05	1.9036e-05	423.85	140.92	122.16	42.128	1.832e-05	52.786	196.899	216.941	279.563	187.579	311.403	317.979	187.213	192.141	303.498	292.732	191.821	195.498	196.109	201.350	302.695	200.278	-8191	255	
14727.973	1	1	0	0	0.12599	0.19187	0.26326	0.19094	0.15962	0.19902	0.10386	0.064839	0.12299	0.038405	0.33291	0.27275	0.11373	0.12204	0.12102	0.019902	-2.4208	-3.0292	-2.6021	-3.0125	-3.0187	-2.4938	-3.1146	-2.8563	-2.5646	-2.9083	-2.9667	-2.7333	-2.8542	-2.7958	-2.8792	-3.2354	358.276	529.025	182.334	481.502	437.353	277.593	446.717	234.179	354.795	180.428	497.003	501.781	275.749	383.379	531.143	474.829	0.00048684	0.00045696	0.00018607	1309.6	3.1492e-06	5.2536e-06	1309	360.55	6.2491e-06	3.7988e-06	412.07	136.72	118.35	40.898	3.8786e-06	51.073	0.0011898	0.0017208	0.0004894	1332.8	1.7747e-05	1.9243e-05	1333.4	368.25	1.7924e-05	1.8775e-05	422.48	140.62	121.82	42.148	1.8363e-05	52.817	201.161	315.624	260.532	187.576	313.729	323.854	187.362	192.084	303.725	351.008	191.644	195.760	196.225	201.383	321.154	200.495	-8191	255	
14728.069	1	1	0	0	0.068839	0.083241	0.17707	0.1292	0.24591	0.30062	0.2984	0.34034	0.16323	0.22236	0.19714	0.050968	0.22225	0.21531	0.15566	0.22223	-2.2146	-3.1604	-2.5687	-2.8979	-3.0354	-2.6646	-3.0625	-2.8333	-2.5521	-3.1188	-2.8187	-2.9229	-3.1229	-2.7292	-3.025	-3.1354	472.828	176.663	240.523	527.101	310.781	244.228	430.786	503.384	304.951	227.019	450.883	289.566	505.938	494.005	271.379	529.065	0.00049552	0.00031062	0.0001058	1315.2	3.1888e-06	5.1387e-06	1310.4	361.76	3.2999e-06	2.6828e-06	414.16	136.55	118.75	40.78	4.8817e-06	51.031	0.001178	0.0017261	0.00048371	1333.6	1.7493e-05	1.9501e-05	1334.1	368.6	1.7852e-05	1.8709e-05	423.31	140.9	122.03	42.129	1.8416e-05	52.865	199.897	229.199	302.361	187.595	310.092	334.981	187.389	191.881	269.969	301.821	191.691	195.554	196.166	201.300	306.505	200.499	-8191	255	
14728.165	1	1	0	0	0.11319	0.24118	0.33544	0.32405	0.18142	0.17465	0.41571	0.37301	0.19649	0.074838	0.14949	0.18106	0.093552	0.23437	0.14408	0.25124	-2.2354	-3	-2.6125	-2.8854	-3.2604	-2.6396	-3.0396	-3.1375	-2.5271	-3.0146	-2.8146	-2.6437	-2.9729	-2.7438	-2.6042	-3.2	299.748	238.534	342.868	475.404	485.034	264.879	484.902	463.646	357.339	409.554	472.498	466.397	253.935	446.206	307.793	404.539	0.00048049	0.00057341	0.00019501	1314	4.3855e-06	3.8877e-06	1314.5	359.05	6.0865e-06	4.8521e-06	413.2	137.14	118.42	40.947	5.3581e-06	51.154	0.0011989	0.0017191	0.00049048	1335.3	1.7493e-05	1.9324e-05	1334.2	367.51	1.7631e-05	1.9016e-05	423.32	140.91	122.12	42.195	1.8533e-05	52.841	196.844	251.791	261.844	187.753	316.569	281.271	187.379	192.040	305.035	305.349	191.625	195.373	196.223	201.204	302.394	200.440	-8191	255	
14728.261	1	1	0	0	0.18929	0.22813	0.07851	0.24783	0.18436	0.1138	0.34135	0.35646	0.044687	0.18017	0.044482	0.28719	0.37152	0.28818	0.057664	0.20095	-1.8979	-2.8958	-2.7729	-2.7542	-3.0875	-2.7979	-3.0604	-3.1542	-2.6646	-2.9146	-3.1083	-2.6042	-3.2125	-2.6896	-2.8958	-3.1417	239.499	432.304	436.736	464.156	273.356	178.768	466.492	450.681	371.829	204.131	252.993	195.714	490.325	414.247	213.583	362.626	0.00048653	0.00042283	0.00012768	1319.8	4.9543e-06	7.4054e-06	1312.6	360.51	5.2778e-06	3.747e-06	414.43	137.48	118.94	41.22	3.097e-06	51.186	0.0011738	0.0017135	0.00049314	1336.3	1.7107e-05	1.9379e-05	1335.9	368.74	1.7669e-05	1.9219e-05	423.85	141.02	122.13	42.265	1.8243e-05	52.857	198.993	241.289	251.281	187.727	311.569	301.708	187.385	192.090	305.026	300.982	191.698	195.679	196.351	201.179	293.429	200.602	-8191	255	
14728.382	1	1	0	0	0.1387	0.10116	0.1629	0.22342	0.065014	0.1071	0.10678	0.47334	0.085704	0.28009	0.051293	0.24086	0.17577	0.11559	0.23653	0.1493	-2.1104	-2.8063	-2.9229	-2.7042	-3.1688	-2.6792	-3.0958	-2.9729	-2.7313	-2.7625	-3.0687	-2.5687	-2.9917	-2.9146	-2.85	-3.0521	454.184	471.115	400.423	186.547	387.432	309.452	432.720	465.802	259.120	429.093	430.242	487.093	515.223	238.320	204.788	410.681	0.00053002	0.00043076	8.3464e-05	1315.3	3.3712e-06	4.8521e-06	1309.4	359.68	5.9655e-06	4.7381e-06	415.07	136.81	118.27	40.724	2.6531e-06	51.033	0.0011903	0.0016999	0.0004847	1335.6	1.7289e-05	1.9147e-05	1334	367.84	1.7915e-05	1.9198e-05	423.3	140.79	121.88	42.124	1.8069e-05	52.757	199.548	264.872	179.774	187.706	302.212	338.234	187.394	191.946	286.415	326.016	191.669	195.583	196.261	201.348	310.059	200.232	-8191	255	
14728.454	1	1	0	0	0.1754	0.25259	0.12212	0.37785	0.10448	0.067974	0.24281	0.13007	0.1172	0.26735	0.25152	0.14972	0.11433	0.15943	0.21518	0.25202	-2.2083	-2.8958	-3.0896	-2.5979	-3.0354	-2.8146	-2.8833	-2.9667	-2.6354	-2.7167	-3.1688	-2.3187	-3.0646	-2.8979	-2.5896	-3.1708	516.153	344.775	465.634	497.687	257.438	521.569	468.325	361.799	253.241	233.776	486.014	407.955	190.619	489.267	207.895	530.825	0.00050708	0.00053517	0.0001369	1310.6	1.2385e-06	5.2035e-06	1309.3	359.91	5.641e-06	6.6498e-06	412.73	136.53	118.6	40.945	3.9811e-06	51.056	0.0011895	0.0017288	0.00048811	1332.5	1.7398e-05	1.93e-05	1332.7	367.97	1.8052e-05	1.9248e-05	422.19	140.73	121.93	42.163	1.8211e-05	52.791	201.309	236.396	247.267	187.672	284.415	340.568	187.341	192.141	290.276	309.162	191.835	195.361	196.335	201.304	283.377	200.415	-8191	255	
14728.574	1	1	0	0	0.16718	0.20712	0.042535	0.40077	0.32828	0.18082	0.34332	0.11571	0.13235	0.25284	0.099347	0.30406	0.093801	0.1961	0.25189	0.17714	-2.0875	-2.6542	-3.0042	-2.5396	-2.8646	-2.9688	-2.8375	-2.9979	-2.6021	-2.9083	-3.0583	-2.7625	-2.7792	-2.9417	-2.3771	-3.1375	359.018	405.486	441.930	495.364	200.068	364.866	505.863	419.057	202.878	245.952	428.881	202.756	435.653	463.766	238.807	465.833	0.00049732	0.00054852	0.00018282	1313.1	4.9407e-06	3.7046e-06	1301.6	360.44	7.4667e-06	5.7334e-06	411.79	136.53	118.03	40.781	2.6288e-06	50.923	0.0011921	0.0017231	0.00047753	1332.1	1.7398e-05	1.941e-05	1329.3	368.13	1.8047e-05	1.875e-05	422.03	140.51	121.82	42.099	1.7988e-05	52.797	198.088	273.316	272.286	187.633	302.015	317.830	187.250	191.946	301.554	300.165	191.676	195.649	196.061	201.407	312.598	200.707	-8191	255	
14728.671	1	1	0	0	0.11942	0.045147	0.27039	0.17176	0.19738	0.019335	0.11757	0.19699	0.05443	0.1941	0.1648	0.23209	0.35611	0.30589	0.1702	0.20749	-2.1917	-2.6854	-2.9646	-2.7604	-2.6833	-2.7854	-2.6979	-3.0042	-2.8792	-2.4	-3.1396	-2.6125	-2.8812	-3.0042	-2.5938	-2.9854	438.177	450.764	369.305	466.775	459.259	199.362	441.524	398.607	233.373	497.165	495.480	516.229	197.873	202.370	361.963	419.517	0.0004843	0.00051743	0.00016437	1314	3.6159e-06	2.9678e-06	1308.2	358.85	4.8745e-06	3.7696e-06	411.48	136.57	119.07	40.954	3.8439e-06	50.829	0.0011863	0.0017147	0.00047917	1330.6	1.7286e-05	1.9029e-05	1332.4	367.28	1.765e-05	1.8872e-05	422.54	140.44	122.09	42.144	1.7958e-05	52.62	197.346	282.962	265.510	187.529	290.871	366.733	187.258	192.078	289.610	307.386	191.779	195.520	196.177	201.284	309.363	200.547	-8191	255	
14728.767	1	1	0	0	0.17231	0.38521	0.13916	0.21315	0.060418	0.16308	0.23263	0.14574	0.057856	0.21404	0.06056	0.23629	0.11344	0.16208	0.16171	0.17152	-2.3979	-2.5521	-2.975	-2.8146	-2.7375	-2.8521	-2.7104	-3.0021	-3.0187	-2.6333	-3.2271	-2.7667	-2.8312	-3.1979	-2.3917	-3.1646	432.123	211.222	464.376	442.124	256.862	262.974	201.116	216.507	349.658	217.726	218.625	497.068	324.741	519.703	333.796	258.612	0.00049961	0.00047197	7.8563e-05	1309.3	2.6094e-06	8.6991e-06	1306.4	360.38	5.1589e-06	3.8326e-06	413.84	136.52	118.36	40.652	5.373e-06	50.738	0.0011897	0.0017234	0.00047243	1330	1.735e-05	1.8934e-05	1331	367.22	1.7859e-05	1.8947e-05	423.09	140.43	121.86	42.042	1.7833e-05	52.622	199.335	246.154	293.183	187.640	278.814	338.870	187.388	191.882	327.880	339.599	191.775	195.527	196.274	201.231	334.316	200.637	-8191	255	
14728.863	1	1	0	0	0.095437	0.12635	0.23322	0.44221	0.13344	0.075254	0.35235	0.16522	0.088829	0.19326	0.13648	0.20119	0.067461	0.17336	0.17683	0.14826	-2.4521	-2.5854	-3.0083	-2.8708	-2.7438	-2.9938	-2.675	-3.0729	-2.9229	-2.375	-3.1354	-2.8979	-2.7854	-3.1229	-2.6542	-2.8438	365.136	497.218	444.627	490.103	421.769	323.459	489.280	441.166	213.315	525.830	460.615	347.922	282.741	489.355	308.300	213.673	0.00048529	0.00020294	7.2513e-05	1310.8	3.7684e-06	3.0052e-06	1307.3	359.15	6.2417e-06	1.232e-06	413.51	136.78	118.39	40.898	4.6193e-06	51.068	0.0011696	0.0017083	0.00047962	1332.1	1.754e-05	1.9405e-05	1330.8	367.67	1.7974e-05	1.931e-05	423.02	140.74	121.86	42.163	1.7994e-05	52.76	195.000	193.655	232.512	187.640	329.326	339.402	187.336	191.979	295.950	324.265	191.601	195.558	196.045	201.339	314.263	200.507	-8191	255	
14728.982	1	1	0	0	0.10086	0.098236	0.215	0.090258	0.14913	0.11668	0.18555	0.49032	0.23659	0.14303	0.21491	0.17973	0.23709	0.1118	0.1358	0.028682	-2.5062	-2.5187	-2.9	-3.2583	-2.4792	-3.2042	-2.7083	-2.9688	-3.0021	-2.7562	-2.9667	-3.1479	-2.7167	-3.1104	-2.7938	-2.8292	453.020	187.912	177.758	368.269	425.565	208.367	384.810	505.283	387.181	514.468	191.189	492.290	198.547	211.016	454.239	275.352	0.00051859	0.0004339	0.00021497	1311.1	6.0942e-06	6.8829e-06	1306.2	359.32	6.2673e-06	2.2017e-06	413.69	137.03	118.69	40.817	4.3961e-06	50.924	0.0011686	0.0017122	0.00048345	1331	1.7021e-05	1.8944e-05	1332	367.51	1.7644e-05	1.8816e-05	423.32	140.61	122.02	42.141	1.8013e-05	52.769	201.433	303.990	277.674	187.563	307.621	314.411	187.146	192.044	289.733	322.542	191.588	195.558	196.071	201.172	316.795	200.424	-8191	255	
14729.078	1	1	0	0	0.10095	0.30343	0.037876	0.041476	0.27406	0.080777	0.24867	0.29662	0.035351	0.11079	0.19071	0.31	0.21109	0.19741	0.070758	0.12488	-2.5396	-2.5312	-2.8937	-3.425	-2.8	-3.1229	-2.8396	-3.0187	-3.0625	-2.6875	-2.9417	-3.0229	-2.6083	-3.1021	-2.7417	-2.6396	180.586	476.226	228.339	515.151	188.226	194.548	474.126	470.945	239.004	308.123	434.049	179.979	474.552	504.495	257.658	377.158	0.00047334	0.00042265	0.00018942	1313.3	4.2113e-06	3.7454e-06	1308.9	358.72	3.2131e-06	4.9436e-06	413.07	136.95	118.11	40.644	2.9355e-06	50.77	0.001197	0.0017377	0.00048387	1332.3	1.7451e-05	1.9246e-05	1332.6	367.49	1.8127e-05	1.9011e-05	422.96	140.78	121.94	42.13	1.7792e-05	52.669	200.767	243.636	266.522	187.563	306.671	328.396	187.495	191.942	298.277	332.257	191.750	195.824	196.592	201.339	335.477	200.525	-8191	255	
14729.150	1	1	0	0	0.1172	0.18447	0.06176	0.35296	0.055122	0.038233	0.24344	0.3105	0.068629	0.032145	0.11866	0.31396	0.32657	0.19136	0.17451	0.18187	-2.6125	-2.7812	-2.7083	-3.1083	-2.6542	-2.9917	-2.9375	-2.9083	-2.9688	-2.6583	-2.9896	-2.8667	-2.6708	-3.0229	-2.7812	-2.5479	351.207	197.302	397.391	504.090	470.759	327.663	515.910	436.878	188.045	312.104	452.406	366.349	457.796	415.932	296.213	184.118	0.00047256	0.00050712	0.00016495	1313.7	5.5931e-06	6.7386e-06	1303.4	360.01	5.7032e-06	5.8298e-06	413.97	136.4	118.8	40.87	2.5076e-06	51.029	0.0011712	0.001719	0.00047919	1332.3	1.7168e-05	1.9351e-05	1332.1	368.16	1.7499e-05	1.9154e-05	423.5	140.52	122.15	42.096	1.82e-05	52.774	194.893	255.655	273.921	187.696	296.573	342.137	187.045	191.917	282.846	300.609	191.842	195.472	196.057	201.107	293.879	200.763	-8191	255	
14729.270	1	1	0	0	0.22105	0.041947	0.27547	0.17601	0.20637	0.17134	0.3572	0.16373	0.33524	0.1797	0.068749	0.081747	0.26723	0.25967	0.10863	0.20277	-2.7167	-2.5271	-2.7562	-3.1875	-2.7042	-2.9729	-2.9229	-2.7958	-3.0854	-2.8396	-2.7271	-3.3208	-2.7938	-2.925	-2.8625	-2.5938	308.047	449.245	358.293	475.475	259.242	300.192	421.422	502.840	422.321	529.628	468.057	365.536	184.839	227.311	395.420	429.793	0.0004711	0.00038191	0.00014423	1314.4	3.7194e-06	2.5518e-06	1308	360.49	5.6786e-06	4.4516e-06	415.15	136.29	118.19	40.924	5.6667e-06	50.944	0.0011898	0.001749	0.00048751	1333.3	1.7337e-05	1.9021e-05	1332.6	368.14	1.7772e-05	1.8626e-05	423.74	140.48	121.82	42.169	1.8191e-05	52.778	198.581	239.845	247.478	187.586	295.074	245.007	187.552	192.028	292.890	281.374	191.525	195.452	196.209	201.249	312.252	200.554	-8191	255	
14729.366	1	1	0	0	0.27369	0.16164	0.22867	0.10471	0.099793	0.024748	0.12243	0.18402	0.0075171	0.045385	0.20559	0.19923	0.39368	0.04413	0.11613	0.093321	-2.4313	-2.7021	-2.6937	-3.2479	-2.6167	-2.8125	-3.3063	-2.7729	-3.15	-2.9104	-2.7521	-3.3	-2.7729	-3.0229	-2.7917	-2.7292	502.426	178.024	459.294	369.327	278.137	458.390	433.119	345.890	404.274	208.783	517.762	470.054	174.237	262.135	183.436	220.060	0.00049195	0.00049817	0.00012496	1313.7	5.1956e-06	3.6871e-06	1304.9	360.66	4.2465e-06	2.1803e-06	414.51	136.59	118.86	40.951	5.8761e-06	50.872	0.0011882	0.0017165	0.00047987	1332.4	1.7688e-05	1.9392e-05	1333.5	368.39	1.782e-05	1.9092e-05	423.76	141.03	122.15	42.179	1.8485e-05	52.768	196.667	304.427	265.871	187.562	286.303	296.509	187.408	191.955	304.719	351.035	191.816	195.550	196.143	201.146	314.576	200.362	-8191	255	
14729.462	1	1	0	0	0.16615	0.28682	0.21255	0.35063	0.052049	0.069191	0.3084	0.20761	0.16317	0.10354	0.18969	0.24246	0.18481	0.14172	0.25018	0.12412	-2.5104	-2.7979	-2.4792	-3.1833	-2.7646	-2.8688	-3.2104	-2.5938	-3.0812	-2.7812	-2.7792	-3.0458	-2.9	-2.8125	-3.1167	-2.7438	498.147	505.469	452.079	508.136	337.173	291.630	441.443	448.430	475.700	528.641	302.906	202.610	180.652	482.664	484.420	430.572	0.00046187	0.00050522	0.00013558	1313.5	4.1539e-06	3.7054e-06	1306	360.12	4.7223e-06	3.4269e-06	414.99	136.46	118.29	40.799	5.1509e-06	50.805	0.0011684	0.0016982	0.00048287	1333.8	1.7421e-05	1.9389e-05	1334.7	368.32	1.8116e-05	1.9476e-05	423.89	140.71	121.95	42.114	1.8267e-05	52.827	195.787	288.876	246.330	187.590	323.146	335.673	187.286	191.949	307.684	344.749	191.678	195.379	195.958	201.080	304.470	200.356	-8191	255	
14729.559	1	1	0	0	0.21553	0.080446	0.15296	0.26234	0.02402	0.087679	0.22118	0.15906	0.01331	0.28542	0.33889	0.1021	0.054675	0.31854	0.15286	0.15106	-2.3937	-2.8438	-2.575	-3.075	-2.65	-2.8937	-3.2771	-2.7458	-2.8438	-2.9542	-2.6688	-3.0354	-2.8771	-2.7687	-3	-2.7458	342.580	399.643	223.797	510.629	293.122	184.452	488.884	476.089	530.191	358.304	473.546	205.751	379.684	519.121	428.806	237.158	0.00052389	0.00061785	0.00011438	1315.6	1.315e-06	3.4269e-06	1310.6	359.79	5.9403e-06	3.7671e-06	413.5	137.34	118.4	41.003	5.3571e-06	51.07	0.0011851	0.0017122	0.00048433	1334.1	1.7843e-05	1.9378e-05	1334.2	367.32	1.8075e-05	1.9151e-05	423.28	140.8	121.88	42.245	1.8024e-05	52.781	201.072	220.956	261.403	187.800	382.212	321.312	187.308	191.927	288.318	325.028	191.678	195.603	196.343	201.576	308.972	200.618	-8191	255	
14729.678	1	1	0	0	0.098709	0.14557	0.19234	0.46479	0.06901	0.23156	0.28868	0.26813	0.012162	0.16954	0.12324	0.090614	0.04911	0.19497	0.31801	0.01324	-2.3667	-3.0271	-2.6708	-2.8896	-2.8875	-2.5771	-3.3583	-2.9062	-2.9354	-3.1875	-2.6583	-2.9917	-2.9604	-2.5875	-3.15	-2.6729	478.369	502.982	300.011	469.844	326.498	309.698	428.125	190.244	265.860	188.471	498.412	240.820	302.881	183.715	314.863	385.405	0.00047752	0.00042971	0.00014316	1313.4	2.6837e-06	2.1401e-06	1312.1	359.83	6.8957e-06	5.8451e-06	412.73	136.87	119.33	41.103	3.789e-06	50.908	0.0011771	0.0016985	0.00047896	1334.8	1.7534e-05	1.9579e-05	1336.3	368.13	1.7677e-05	1.8995e-05	422.76	140.95	122.21	42.203	1.7919e-05	52.891	200.938	265.025	256.565	187.535	293.772	298.787	187.270	192.026	297.532	295.622	191.575	195.796	196.186	200.936	290.415	200.506	-8191	255	
14729.751	1	1	0	0	0.34913	0.20096	0.071726	0.38889	0.075308	0.022474	0.24381	0.34493	0.39724	0.16066	0.056215	0.12658	0.18622	0.16459	0.17133	0.086529	-2.5125	-2.9458	-2.5187	-3.1208	-2.7542	-2.6312	-3.2271	-2.8792	-2.6437	-3.1271	-2.7354	-3.15	-2.9729	-2.7354	-2.9521	-3.0167	241.665	489.632	313.912	176.065	467.644	496.906	404.768	402.615	428.840	179.049	363.500	471.519	499.026	438.131	289.466	237.294	0.00048388	0.00068046	6.6956e-05	1312.9	6.4094e-06	5.1135e-06	1315.9	360.52	5.5601e-06	5.6814e-06	414.04	136.96	118.64	40.781	3.1486e-06	50.967	0.0011756	0.0016946	0.00047464	1335.9	1.7175e-05	1.8895e-05	1338.7	368.63	1.7812e-05	1.8866e-05	423.53	141	122.13	42.118	1.7894e-05	52.815	197.810	262.593	281.173	187.746	288.058	304.009	187.224	191.902	289.852	307.416	191.524	195.509	196.340	201.289	316.399	200.677	-8191	255	
14729.847	1	1	0	0	0.094777	0.12223	0.19333	0.20558	0.034781	0.16515	0.19684	0.090325	0.072625	0.1671	0.31795	0.24539	0.11828	0.13558	0.064036	0.22861	-2.1479	-3.1125	-2.7146	-3.175	-3.0812	-2.6146	-3.2333	-2.7979	-2.7896	-3.1229	-2.9938	-3.0229	-3.0667	-2.8229	-2.9229	-2.8688	307.432	229.690	270.178	210.850	448.326	513.692	519.634	514.814	216.204	220.606	473.843	179.916	527.960	472.910	205.180	437.939	0.00052524	0.00062024	0.00011564	1318.6	4.0064e-06	4.8719e-06	1309	361.58	4.702e-06	6.6056e-06	415.5	136.72	118.64	40.976	1.0625e-06	50.956	0.0011611	0.0016986	0.00047844	1337.3	1.7037e-05	1.9219e-05	1335.2	368.61	1.7911e-05	1.8859e-05	423.88	140.86	122.04	42.19	1.7928e-05	52.794	195.508	269.011	292.223	187.507	298.515	351.374	187.392	191.893	292.863	321.394	191.643	195.375	196.100	201.288	342.908	200.394	-8191	255	
14729.943	1	1	0	0	0.1227	0.13946	0.10139	0.17293	0.34845	0.10209	0.22812	0.28352	0.34231	0.21878	0.2237	0.13406	0.049361	0.25738	0.041927	0.15256	-2.2854	-3.0687	-2.8229	-2.8937	-2.9833	-2.5604	-3.0687	-2.95	-2.4208	-3.0229	-2.8854	-2.7333	-2.9729	-2.4062	-3.0833	-2.9375	466.501	331.142	450.470	437.483	521.494	235.388	512.315	507.683	251.909	531.794	444.780	448.175	326.902	429.981	340.028	441.741	0.00051386	0.00059341	4.6995e-05	1314.3	1.5097e-06	4.6005e-06	1309.7	359.73	4.5941e-06	4.825e-06	414.3	136.46	118.97	40.76	6.6287e-06	50.692	0.0011989	0.0016869	0.00046868	1335.3	1.7299e-05	1.8879e-05	1335.9	367.87	1.7714e-05	1.8794e-05	423.15	140.75	122.23	42.154	1.7854e-05	52.708	197.226	268.336	216.985	187.666	315.945	301.685	187.332	191.972	287.101	332.724	191.849	195.679	196.069	201.210	293.051	200.371	-8191	255	
14730.062	1	1	0	0	0.12186	0.14804	0.19644	0.18585	0.097982	0.27968	0.087091	0.20889	0.12808	0.15061	0.24399	0.27108	0.19615	0.11884	0.14472	0.092599	-2.0896	-2.9125	-2.7021	-2.9229	-2.9604	-2.9875	-3.0438	-3.2458	-2.4542	-2.9125	-2.9042	-2.6896	-3.2229	-2.6292	-2.8042	-2.9667	304.094	440.650	516.642	513.503	348.017	419.073	403.552	518.938	456.952	412.474	512.247	228.714	510.278	479.568	466.129	505.558	0.00050195	0.00075018	0.0001873	1316	7.6432e-06	6.4553e-06	1313	359.56	2.8592e-06	3.0788e-06	412.37	137.04	119.28	41.111	2.452e-06	50.995	0.0011807	0.0016806	0.00047436	1335	1.7268e-05	1.8837e-05	1336.9	367.93	1.7511e-05	1.8663e-05	423.08	140.76	122.35	42.258	1.7687e-05	52.779	200.287	274.615	280.286	187.515	303.635	324.774	187.220	192.033	286.588	329.022	191.494	195.732	196.372	201.160	312.085	200.557	-8191	255	
14730.158	1	1	0	0	0.13899	0.046271	0.11145	0.33718	0.12093	0.12063	0.15891	0.26624	0.12651	0.15555	0.081049	0.072693	0.1698	0.16592	0.28429	0.29918	-2.0125	-2.9708	-2.875	-2.8875	-3.0229	-2.3625	-3.0187	-3.0229	-2.475	-2.8354	-3.0771	-2.6937	-3.0292	-2.8354	-2.6604	-3.2375	339.961	233.982	408.759	518.842	478.162	235.680	385.912	492.992	498.533	199.102	490.863	450.167	193.552	480.738	421.418	513.046	0.00047948	0.00029888	0.00021049	1318	3.7528e-06	4.8146e-06	1312.5	360.84	4.8334e-06	8.1499e-06	414.97	137.25	119.15	40.921	5.6666e-06	51.246	0.0011452	0.0016602	0.00046082	1336	1.6956e-05	1.8924e-05	1336.7	368.19	1.7299e-05	1.833e-05	423.85	141.06	122.31	42.232	1.7635e-05	52.9	199.304	222.748	278.276	187.572	287.053	335.288	187.408	191.907	278.172	322.859	191.850	195.644	195.920	201.367	314.436	200.480	-8191	255	
14730.254	1	1	0	0	0.16457	0.099026	0.1257	0.20251	0.079852	0.12483	0.15596	0.04473	0.026704	0.039994	0.34989	0.27309	0.25095	0.37656	0.10536	0.36488	-2.0896	-2.8271	-2.8208	-2.7562	-3.0396	-2.8688	-3.0083	-3.0375	-2.6833	-2.8292	-3.0417	-2.5625	-3.0625	-2.9208	-2.6188	-3.3104	278.563	280.083	414.415	517.836	269.166	324.848	242.398	506.682	304.704	376.750	452.717	502.165	507.961	440.983	355.272	495.832	0.00052472	0.00057414	0.00017207	1314.4	5.6712e-06	5.8497e-06	1312.9	361.07	5.3922e-06	8.125e-06	415.16	137.1	119.01	40.962	3.5672e-06	51.014	0.001171	0.0016678	0.00046658	1334.7	1.6782e-05	1.8359e-05	1335.5	368.13	1.704e-05	1.8272e-05	422.98	141.01	122.25	42.218	1.7518e-05	52.83	198.198	264.761	252.478	187.658	296.845	349.581	187.315	191.867	277.765	316.959	191.560	195.662	196.399	201.221	330.232	200.708	-8191	255	
14730.375	1	1	0	0	0.18148	0.26968	0.17634	0.38204	0.044862	0.13623	0.15835	0.15816	0.19972	0.012547	0.070944	0.20435	0.19908	0.30317	0.12358	0.11557	-1.9958	-2.8167	-3.0354	-2.8021	-3.0854	-2.975	-2.8604	-3.0979	-2.6625	-2.9167	-3.0396	-2.6708	-3.0187	-2.9625	-2.7229	-3.2938	421.206	260.534	314.926	489.846	343.794	192.145	480.926	483.725	483.755	208.273	479.385	213.092	520.042	509.348	225.966	333.533	0.00045962	0.00020875	0.00016768	1313.4	4.0734e-06	6.8552e-06	1307.5	361.19	3.6554e-06	3.1245e-06	415.47	137.05	118.83	41.008	4.7858e-06	51.03	0.0011067	0.0016493	0.0004405	1333.5	1.6536e-05	1.8083e-05	1332.8	368.28	1.7085e-05	1.8068e-05	423.05	140.79	122.09	42.185	1.7324e-05	52.729	198.408	295.850	269.016	187.649	279.680	326.491	187.397	191.859	271.698	317.953	191.696	195.582	196.377	201.295	307.349	200.461	-8191	255	
#DATA ENDS
