BOXY.EXE: ISS Imagent and Oximeter Data Acquisition Program Version 0.80
Ascii Record File

#ACQ INFORMATION
2  Detector Channels 
16  External MUX Channels 
1  Auxiliary Channels 
5000  Waveform (CCF) Frequency (Hz)
1  Waveforms Skipped 
30  Waveforms Averaged 
1  Cycles Averaged 
16  Acquisitions per Waveform 
10.0806  Updata Rate (Hz) 

#FILE INFORMATION
TRUE -- External MUX Channel results are PARSED.
FALSE -- AC DC and Phase are NOT grouped.
TRUE -- Companion Program Settings File CREATED.
FALSE -- AC data not excluded
FALSE -- DC data not excluded
FALSE -- Phase data not excluded
FALSE -- Auxillary Chn. data not excluded
Tab delimiters

#CALIBRATION STATE
TRUE -- Waveform Calibration Values APPLIED.


#AUX CALIBRATION VALUES
Val Type	aux-1	

Term	1.0000e+00	
Factor	0.0000e+00	


#WF CALIBRATION VALUES
A = Detector Channel
Val Type	A-AC1	A-AC2	A-AC3	A-AC4	A-AC5	A-AC6	A-AC7	A-AC8	A-AC9	A-AC10	A-AC11	A-AC12	A-AC13	A-AC14	A-AC15	A-AC16	A-DC1	A-DC2	A-DC3	A-DC4	A-DC5	A-DC6	A-DC7	A-DC8	A-DC9	A-DC10	A-DC11	A-DC12	A-DC13	A-DC14	A-DC15	A-DC16	A-Ph1	A-Ph2	A-Ph3	A-Ph4	A-Ph5	A-Ph6	A-Ph7	A-Ph8	A-Ph9	A-Ph10	A-Ph11	A-Ph12	A-Ph13	A-Ph14	A-Ph15	A-Ph16	

Term	0.00000e+00	0.00000e+00	0.00000e+00	0.00000e+00	0.00000e+00	0.00000e+00	0.00000e+00	0.00000e+00	0.00000e+00	0.00000e+00	0.00000e+00	0.00000e+00	0.00000e+00	0.00000e+00	0.00000e+00	0.00000e+00	0.00000e+00	0.00000e+00	0.00000e+00	0.00000e+00	0.00000e+00	0.00000e+00	0.00000e+00	0.00000e+00	0.00000e+00	0.00000e+00	0.00000e+00	0.00000e+00	0.00000e+00	0.00000e+00	0.00000e+00	0.00000e+00	0.00000e+00	0.00000e+00	0.00000e+00	0.00000e+00	0.00000e+00	0.00000e+00	0.00000e+00	0.00000e+00	0.00000e+00	0.00000e+00	0.00000e+00	0.00000e+00	0.00000e+00	0.00000e+00	0.00000e+00	0.00000e+00	
Factor	1.00000e+00	1.00000e+00	1.00000e+00	1.00000e+00	1.00000e+00	1.00000e+00	1.00000e+00	1.00000e+00	1.00000e+00	1.00000e+00	1.00000e+00	1.00000e+00	1.00000e+00	1.00000e+00	1.00000e+00	1.00000e+00	1.00000e+00	1.00000e+00	1.00000e+00	1.00000e+00	1.00000e+00	1.00000e+00	1.00000e+00	1.00000e+00	1.00000e+00	1.00000e+00	1.00000e+00	1.00000e+00	1.00000e+00	1.00000e+00	1.00000e+00	1.00000e+00	X	X	X	X	X	X	X	X	X	X	X	X	X	X	X	X	

B = Detector Channel
Val Type	B-AC1	B-AC2	B-AC3	B-AC4	B-AC5	B-AC6	B-AC7	B-AC8	B-AC9	B-AC10	B-AC11	B-AC12	B-AC13	B-AC14	B-AC15	B-AC16	B-DC1	B-DC2	B-DC3	B-DC4	B-DC5	B-DC6	B-DC7	B-DC8	B-DC9	B-DC10	B-DC11	B-DC12	B-DC13	B-DC14	B-DC15	B-DC16	B-Ph1	B-Ph2	B-Ph3	B-Ph4	B-Ph5	B-Ph6	B-Ph7	B-Ph8	B-Ph9	B-Ph10	B-Ph11	B-Ph12	B-Ph13	B-Ph14	B-Ph15	B-Ph16	

Term	0.00000e+00	0.00000e+00	0.00000e+00	0.00000e+00	0.00000e+00	0.00000e+00	0.00000e+00	0.00000e+00	0.00000e+00	0.00000e+00	0.00000e+00	0.00000e+00	0.00000e+00	0.00000e+00	0.00000e+00	0.00000e+00	0.00000e+00	0.00000e+00	0.00000e+00	0.00000e+00	0.00000e+00	0.00000e+00	0.00000e+00	0.00000e+00	0.00000e+00	0.00000e+00	0.00000e+00	0.00000e+00	0.00000e+00	0.00000e+00	0.00000e+00	0.00000e+00	-1.23726e+02	-1.39918e+02	-1.78938e+02	-1.81413e+02	-3.50059e+01	-7.24347e+01	-1.57789e+02	-1.62015e+02	-7.41590e+01	-9.50557e+01	-1.80411e+02	-1.70917e+02	-1.81322e+02	-1.76271e+02	-8.71251e+01	-1.49364e+02	
Factor	1.81544e-05	1.23178e-04	2.51159e-05	1.85326e-01	8.05980e-07	9.73926e-07	1.72092e-01	5.34215e-02	8.30615e-07	1.09759e-06	1.07935e-01	3.07122e-02	2.47813e-02	9.40291e-03	9.68748e-07	1.38253e-02	5.41759e-07	5.53856e-07	1.53778e-07	8.86287e-02	6.03997e-09	6.06804e-09	7.82073e-02	2.56647e-02	6.05508e-09	6.07195e-09	4.76290e-02	1.39290e-02	1.17526e-02	4.39035e-03	6.05682e-09	6.14778e-03	X	X	X	X	X	X	X	X	X	X	X	X	X	X	X	X	



#DISTANCE SETTINGS
A = Detector Channel
A-1	A-2	A-3	A-4	A-5	A-6	A-7	A-8	A-9	A-10	A-11	A-12	A-13	A-14	A-15	A-16	

2.5000e+00	3.0000e+00	2.5000e+00	3.0000e+00	2.0000e+00	3.0000e+00	1.5000e+00	3.0000e+00	3.0000e+00	3.0000e+00	3.0000e+00	3.0000e+00	3.0000e+00	3.0000e+00	1.5000e+00	3.0000e+00	

B = Detector Channel
B-1	B-2	B-3	B-4	B-5	B-6	B-7	B-8	B-9	B-10	B-11	B-12	B-13	B-14	B-15	B-16	

1.0000e+01	1.0000e+01	1.0000e+01	1.4400e+00	1.0000e+01	1.0000e+01	1.5100e+00	1.9400e+00	1.0000e+01	1.0000e+01	1.9900e+00	2.4900e+00	2.4100e+00	2.9000e+00	1.0000e+01	2.9800e+00	




#DATA BEGINS
time	group	step	mark	flag	A-AC1	A-AC2	A-AC3	A-AC4	A-AC5	A-AC6	A-AC7	A-AC8	A-AC9	A-AC10	A-AC11	A-AC12	A-AC13	A-AC14	A-AC15	A-AC16	A-DC1	A-DC2	A-DC3	A-DC4	A-DC5	A-DC6	A-DC7	A-DC8	A-DC9	A-DC10	A-DC11	A-DC12	A-DC13	A-DC14	A-DC15	A-DC16	A-Ph1	A-Ph2	A-Ph3	A-Ph4	A-Ph5	A-Ph6	A-Ph7	A-Ph8	A-Ph9	A-Ph10	A-Ph11	A-Ph12	A-Ph13	A-Ph14	A-Ph15	A-Ph16	B-AC1	B-AC2	B-AC3	B-AC4	B-AC5	B-AC6	B-AC7	B-AC8	B-AC9	B-AC10	B-AC11	B-AC12	B-AC13	B-AC14	B-AC15	B-AC16	B-DC1	B-DC2	B-DC3	B-DC4	B-DC5	B-DC6	B-DC7	B-DC8	B-DC9	B-DC10	B-DC11	B-DC12	B-DC13	B-DC14	B-DC15	B-DC16	B-Ph1	B-Ph2	B-Ph3	B-Ph4	B-Ph5	B-Ph6	B-Ph7	B-Ph8	B-Ph9	B-Ph10	B-Ph11	B-Ph12	B-Ph13	B-Ph14	B-Ph15	B-Ph16	aux-1	digaux	

1040.475	1	1	0	256	0.2466	0.11321	0.16183	0.23387	0.18884	0.079984	0.21284	0.21618	0.10258	0.21016	0.21877	0.18982	0.23533	0.21584	0.14515	0.17611	-2.5604	-2.6229	-3.1833	-2.9021	-2.7271	-3.1875	-2.625	-3.1292	-2.7083	-2.5	-3.2646	-2.8521	-2.9208	-3.2354	-2.4021	-3.0438	382.970	500.540	403.080	459.039	245.815	323.247	460.528	450.650	419.879	382.058	430.815	196.847	378.178	448.006	219.590	217.926	0.00019948	0.00025257	1.7274e-05	988.19	7.637e-07	3.7114e-06	1073.9	205.87	3.4596e-06	5.535e-06	261.89	74.137	57.682	16.974	7.0607e-06	24.007	0.00029589	0.00028599	7.722e-05	954.24	3.229e-06	3.0855e-06	1039.5	203.7	3.2315e-06	3.1117e-06	255.4	74.047	58.411	17.691	3.0401e-06	24.821	198.778	338.742	333.972	175.831	481.819	355.330	175.614	183.264	257.582	386.713	182.637	188.989	189.858	197.193	400.679	196.868	-8191	255	
1040.571	1	1	0	0	0.20888	0.29002	0.20918	0.14897	0.035767	0.2102	0.27839	0.16831	0.10645	0.15242	0.089089	0.14529	0.064793	0.12348	0.093074	0.1668	-2.3708	-2.5583	-3.2729	-2.7354	-2.8063	-3.1354	-2.7729	-3.0167	-2.9542	-2.3167	-3.3542	-2.7479	-2.8333	-3.1437	-2.6083	-3.0875	377.597	295.920	502.074	210.924	476.856	485.990	477.959	402.852	329.256	441.129	479.248	187.406	287.570	295.044	449.466	189.470	0.00026433	0.0005915	7.2428e-05	992.22	3.2876e-06	2.8691e-06	1076.6	207.3	2.0719e-07	4.2253e-06	261.05	73.915	57.886	17.022	2.9635e-06	24.045	0.00029113	0.00028179	7.5789e-05	956.77	3.2068e-06	3.0703e-06	1040.6	204.65	3.1938e-06	3.0988e-06	254.77	74.254	58.521	17.686	3.0624e-06	24.821	205.000	210.932	457.361	175.970	452.978	302.710	175.715	182.937	260.396	231.420	182.798	189.007	189.595	197.791	225.037	196.977	-8191	255	
1040.667	1	1	0	0	0.12399	0.2171	0.21408	0.23233	0.31826	0.18511	0.31992	0.085305	0.19403	0.23615	0.097495	0.17818	0.24298	0.094831	0.13203	0.081838	-2.6958	-2.3625	-3.0958	-2.9667	-2.8	-3.3292	-2.5396	-3.0021	-3.1833	-2.5917	-3.1458	-3.0104	-2.7104	-3.1167	-2.7542	-2.9583	366.485	343.137	241.189	442.516	478.620	433.287	524.142	472.141	173.764	215.636	501.335	192.376	251.337	518.372	468.964	321.659	0.00030569	0.00058732	7.5811e-05	987.26	2.0351e-06	2.1131e-06	1073.8	206.74	3.092e-06	2.385e-06	263.56	73.853	57.433	17.104	3.6353e-06	24.172	0.000288	0.00028343	7.7909e-05	956.22	3.1762e-06	3.0791e-06	1039.7	204.8	3.1838e-06	3.1325e-06	256.87	74.622	58.344	17.766	3.1734e-06	24.965	197.760	239.036	432.060	175.792	457.124	330.220	175.412	182.958	494.016	207.224	182.451	189.709	189.937	197.698	352.194	196.937	-8191	255	
1040.763	1	1	0	0	0.11283	0.2426	0.29722	0.1956	0.26842	0.19264	0.28082	0.21063	0.17155	0.13288	0.11346	0.17412	0.22249	0.268	0.12586	0.12102	-2.6333	-2.3854	-3.0125	-3.0104	-2.4667	-3.3333	-2.8479	-2.7958	-3.0417	-2.4958	-3.0396	-2.9292	-2.4396	-2.9938	-2.6417	-2.8229	342.193	309.456	232.218	389.996	517.722	315.588	176.732	495.109	333.248	471.004	506.270	435.433	189.004	295.508	492.639	194.558	0.00027942	0.00013781	6.1022e-05	990.7	4.6466e-06	6.4943e-06	1078.8	206.8	8.7811e-07	2.9612e-06	263.32	73.654	57.585	17.103	5.1192e-06	24.03	0.00028796	0.00028726	8.1471e-05	960.25	3.1645e-06	3.0765e-06	1045.5	205.3	3.1393e-06	3.104e-06	257.65	74.328	58.272	17.758	3.2879e-06	24.963	216.678	305.744	513.148	175.681	416.025	260.747	175.616	183.294	273.903	318.476	182.940	189.694	189.926	196.842	196.488	196.492	-8191	255	
1040.858	1	1	0	0	0.061276	0.043399	0.18475	0.11316	0.10741	0.15506	0.19646	0.11172	0.053662	0.151	0.039538	0.13835	0.073623	0.026025	0.059523	0.10413	-2.8667	-2.4938	-2.9813	-2.9	-2.4979	-3.2208	-3.0271	-2.7479	-3.2313	-2.6396	-3.1104	-3.225	-2.4521	-3.1208	-2.9167	-2.7875	225.475	491.626	290.737	500.680	246.419	369.217	373.497	431.435	252.807	221.386	413.433	473.516	267.590	268.412	293.251	374.722	0.00021314	0.00070158	9.8528e-05	990.53	4.2222e-06	1.5768e-06	1076.9	206.43	3.5718e-06	3.253e-06	264.07	73.629	57.338	17.177	4.8539e-06	23.955	0.00028781	0.0002856	8.3431e-05	959.35	3.1698e-06	3.1236e-06	1047.8	204.57	3.1385e-06	3.1488e-06	258.82	74.437	58.232	17.816	3.3892e-06	24.857	213.421	188.827	241.712	175.527	357.125	205.665	175.708	183.011	312.273	236.920	182.827	189.176	189.724	197.602	312.493	196.511	-8191	255	
1040.954	1	1	0	0	0.082546	0.16579	0.12171	0.079699	0.13992	0.13343	0.18809	0.1329	0.11434	0.099329	0.21378	0.29317	0.23324	0.20151	0.072145	0.16424	-2.9375	-2.7083	-2.9	-3.3563	-2.3979	-3.1937	-3.0854	-2.7521	-3.2208	-2.7417	-2.8208	-3.2	-2.6333	-3.0896	-2.9583	-2.5187	360.971	199.236	442.710	203.726	230.743	176.022	493.073	331.649	501.453	381.894	447.486	415.315	361.351	456.202	390.604	493.991	0.00025465	0.00022387	2.3705e-05	990.47	3.9858e-06	2.2296e-06	1082.4	207.18	2.2214e-06	8.1593e-06	261.57	74.091	57.432	17.185	3.5821e-06	24.146	0.00028659	0.00029364	8.7154e-05	960.68	3.1875e-06	3.2392e-06	1051.6	205.3	3.1569e-06	3.2854e-06	259.41	74.532	58.526	17.927	3.4283e-06	24.9	206.682	263.809	495.478	175.805	321.147	242.156	175.815	183.048	374.949	320.139	183.053	189.052	189.800	197.264	326.609	196.632	-8191	255	
1041.075	1	1	0	0	0.21827	0.055468	0.087258	0.17373	0.23189	0.14066	0.30692	0.40343	0.041563	0.14861	0.024794	0.1522	0.23215	0.31709	0.14483	0.080325	-2.7354	-2.7625	-2.5417	-3.3063	-2.4375	-2.9542	-3.1104	-2.5917	-3.275	-2.8229	-2.775	-3.1854	-2.4208	-2.9437	-3.2125	-2.4167	313.070	428.078	437.156	198.839	357.749	521.315	418.146	484.282	397.697	297.091	431.066	453.654	188.640	509.436	357.852	311.146	0.00026956	0.00035356	2.5113e-05	994.47	3.8305e-06	2.5436e-06	1084.5	208.83	1.3103e-06	4.5958e-06	265.05	73.997	57.568	17.165	2.73e-06	24.239	0.00028766	0.00030271	8.6803e-05	963.1	3.2051e-06	3.3627e-06	1052.9	206.17	3.1784e-06	3.3774e-06	260.18	74.687	58.666	18.003	3.3703e-06	25.041	202.255	440.308	354.882	175.668	242.353	398.641	175.640	183.380	236.551	500.111	182.900	189.687	189.704	197.300	396.194	196.995	-8191	255	
1041.171	1	1	0	0	0.057231	0.15982	0.43213	0.16811	0.16061	0.045286	0.1854	0.096358	0.12556	0.19868	0.29996	0.19685	0.12521	0.058831	0.021571	0.05111	-2.6729	-2.7896	-2.6562	-3.2125	-2.4958	-2.9542	-3.2083	-2.5083	-3.3146	-2.9146	-2.7146	-3.3167	-2.5312	-2.8229	-2.9188	-2.5062	228.089	225.118	383.522	404.465	417.543	336.678	450.842	518.594	367.097	167.010	414.782	167.934	198.134	391.614	286.722	263.423	0.00017846	0.00036741	0.0001737	1005	1.6755e-06	3.4501e-06	1091.6	208.35	4.1957e-06	5.9495e-06	264.67	74.02	58.494	17.339	3.8291e-06	24.186	0.00029269	0.00031621	8.6309e-05	968.73	3.2681e-06	3.4984e-06	1059.2	206.81	3.2902e-06	3.5441e-06	260.03	74.889	59.307	18.253	3.3694e-06	25.135	172.223	229.458	306.334	175.690	455.938	305.423	175.628	183.059	220.378	290.028	182.934	189.584	189.607	197.493	203.998	196.422	-8191	255	
1041.267	1	1	0	0	0.17969	0.11185	0.084954	0.28952	0.14886	0.10818	0.30531	0.37006	0.06514	0.044372	0.47003	0.29295	0.1338	0.21687	0.33275	0.33933	-2.6708	-2.8021	-2.4625	-3.075	-2.7083	-2.7333	-3.2521	-2.5042	-3.1896	-3.1354	-2.4042	-3.2354	-2.7375	-2.8896	-3.1208	-2.5312	258.356	370.326	521.951	462.269	334.177	396.993	485.981	493.472	181.638	360.290	471.300	515.143	413.706	509.543	502.273	271.616	0.00029082	0.00025995	0.00012609	1011.6	2.213e-06	5.5308e-06	1096.9	210.14	3.9891e-06	1.9416e-06	264.12	74.615	58.072	17.297	1.386e-06	24.246	0.00030438	0.00032691	8.6856e-05	976.63	3.4264e-06	3.5998e-06	1067.7	207.87	3.4508e-06	3.5837e-06	261.95	75.471	59.795	18.31	3.4331e-06	25.204	195.270	495.509	221.977	175.737	324.200	423.143	175.628	182.952	280.633	251.744	182.837	188.930	189.528	197.368	341.550	196.504	-8191	255	
1041.339	1	1	0	0	0.25715	0.31393	0.22145	0.26342	0.038675	0.18909	0.16734	0.093284	0.060895	0.27068	0.23793	0.14348	0.14269	0.24702	0.03284	0.10742	-2.7292	-2.9625	-2.6542	-3.2583	-2.8187	-2.7354	-3.1958	-2.4271	-2.8812	-3.0667	-2.5854	-3.3104	-2.8104	-2.7	-3.1333	-2.5333	433.297	400.491	434.176	359.461	324.941	423.584	490.464	457.246	511.767	486.895	171.628	457.201	293.453	423.777	312.997	452.589	0.00023052	0.00043904	5.4636e-05	1014	3.0666e-06	6.5507e-06	1111.2	212.08	5.171e-06	4.8844e-06	268.93	75.117	58.648	17.407	8.7699e-06	24.648	0.00032463	0.00033054	8.8163e-05	984.71	3.6414e-06	3.6845e-06	1076.6	209.59	3.7123e-06	3.6618e-06	265.09	76.171	60.718	18.495	3.5183e-06	25.568	206.940	361.719	175.144	175.544	261.756	296.426	175.413	183.132	263.797	320.573	182.799	189.169	189.645	197.011	331.520	196.278	-8191	255	
1041.459	1	1	0	0	0.18557	0.1159	0.17502	0.033966	0.13232	0.19792	0.28681	0.19443	0.16607	0.13527	0.26987	0.17721	0.2388	0.1852	0.19595	0.067154	-2.475	-2.9854	-2.4854	-3.1521	-2.8312	-2.5875	-3.4	-2.6229	-2.8354	-3.125	-2.5125	-3.2479	-2.8187	-2.6354	-3.1229	-2.7021	398.056	301.992	489.144	497.127	193.238	251.930	490.724	514.840	167.600	261.251	451.147	259.998	517.805	471.731	236.683	461.118	0.00027557	0.00066513	5.6813e-05	1026.9	3.327e-06	2.7908e-06	1120.2	213.07	5.1766e-06	5.1372e-06	269.55	75.281	59.115	17.589	3.6642e-06	24.598	0.00034595	0.00033684	9.0379e-05	999.03	3.8371e-06	3.6551e-06	1088.6	211.74	3.8401e-06	3.6639e-06	266.97	76.72	61.105	18.555	3.5034e-06	25.775	204.328	255.654	492.959	175.546	366.201	245.173	175.310	182.995	337.966	419.961	182.752	189.167	189.444	197.449	244.599	196.465	-8191	255	
1041.555	1	1	0	0	0.040189	0.16285	0.33769	0.2731	0.10564	0.080404	0.083882	0.051922	0.18541	0.27794	0.25179	0.098991	0.17439	0.18218	0.11785	0.14439	-2.3646	-3.0479	-2.6229	-3.1521	-2.9271	-2.5812	-3.4813	-2.7854	-2.8083	-3.1917	-2.4167	-3.0167	-3.0229	-2.5396	-3.2458	-2.7438	513.888	183.939	399.308	452.950	468.497	395.186	458.783	513.288	481.244	357.129	408.086	442.062	490.825	344.656	393.605	430.184	0.00028615	0.0010624	0.00015964	1033.7	5.1148e-06	1.7108e-06	1121.5	211.92	1.4363e-06	4.3862e-06	270.72	75.482	59.1	17.531	4.2358e-06	24.412	0.00034569	0.0003264	8.9201e-05	1002.7	3.7621e-06	3.5742e-06	1087.6	211.52	3.6995e-06	3.5181e-06	265.76	76.785	60.696	18.462	3.4108e-06	25.727	222.785	220.103	234.601	175.690	303.156	267.588	175.646	182.986	463.688	417.805	182.659	189.332	189.727	196.952	233.638	196.666	-8191	255	
1041.651	1	1	0	0	0.052522	0.19736	0.10542	0.068658	0.0888	0.18224	0.17889	0.1848	0.056338	0.14932	0.2327	0.12046	0.14266	0.15002	0.11406	0.13333	-2.2708	-3.1479	-2.6292	-3.1292	-2.9396	-2.6792	-3.2875	-2.8417	-2.7354	-3.3063	-2.825	-2.9896	-3.1458	-2.45	-3.1646	-2.8563	362.137	200.689	296.775	437.839	338.339	302.467	490.849	189.062	336.090	464.143	186.321	385.523	453.684	516.663	232.127	447.819	0.00023393	0.00033206	7.6304e-05	1033.3	4.6972e-06	2.011e-06	1111.1	212.27	5.953e-07	4.0708e-06	269.07	75.298	58.708	17.482	2.8665e-06	24.535	0.00032935	0.00031708	8.7214e-05	1000.9	3.5882e-06	3.4629e-06	1080.9	211.6	3.5305e-06	3.3763e-06	264.33	76.758	60.05	18.288	3.3739e-06	25.632	210.564	241.273	291.616	175.711	391.965	304.829	175.559	182.898	230.257	269.039	182.814	189.103	189.530	197.386	299.384	196.490	-8191	255	
1041.748	1	1	0	0	0.23929	0.17452	0.053291	0.19467	0.077061	0.1889	0.049939	0.32316	0.30207	0.031914	0.13257	0.14518	0.066401	0.063829	0.26641	0.05294	-2.1167	-3.2333	-2.5812	-2.9208	-3.0875	-2.5146	-3.2333	-3.0542	-2.5521	-3.2812	-2.7375	-3.0062	-3.3812	-2.575	-3.1375	-2.9542	318.372	178.397	348.859	205.877	183.383	228.225	485.872	429.389	414.797	472.633	334.522	318.971	483.450	439.121	288.036	277.584	0.00026573	0.00026733	6.4751e-05	1021.1	2.4865e-06	7.3207e-06	1115.1	211.52	1.3922e-06	6.3255e-06	266.55	75.464	58.5	17.378	2.9274e-06	24.499	0.00031485	0.00030312	8.6967e-05	994.77	3.4143e-06	3.3319e-06	1080.5	210.38	3.4153e-06	3.2854e-06	263.11	76.434	59.577	18.168	3.4065e-06	25.434	198.251	175.405	302.841	175.552	314.020	314.645	175.566	182.613	491.386	305.096	183.019	189.116	189.284	197.037	204.641	196.424	-8191	255	
1041.866	1	1	0	0	0.2057	0.11779	0.19889	0.099581	0.15462	0.063711	0.27568	0.153	0.2381	0.14288	0.15324	0.27259	0.08622	0.14744	0.071087	0.15867	-2.0104	-3.0563	-2.725	-2.8042	-3.2375	-2.5	-3.1188	-3.1021	-2.3646	-3.1479	-2.8688	-2.6792	-3.2792	-2.6167	-2.7938	-2.9688	443.902	458.195	247.000	221.532	253.484	329.343	467.981	424.157	395.446	246.007	365.199	196.003	286.881	241.883	281.323	261.130	0.00019458	0.00064924	8.3208e-05	1014.7	2.7141e-06	7.8265e-06	1111.1	210.49	1.29e-06	5.6906e-06	268.88	75.349	58.592	17.487	8.2423e-06	24.584	0.00030496	0.0002968	8.7813e-05	989.39	3.3103e-06	3.2847e-06	1075.2	209.39	3.3341e-06	3.2244e-06	263.88	75.897	59.623	18.194	3.4537e-06	25.358	205.029	224.496	369.371	175.625	284.946	366.710	175.470	183.130	260.901	268.661	182.929	189.020	189.909	197.234	278.857	196.839	-8191	255	
1041.938	1	1	0	0	0.14008	0.3992	0.44151	0.21647	0.021729	0.057572	0.24773	0.12157	0.012915	0.12311	0.19281	0.24858	0.13739	0.27431	0.21592	0.052177	-1.8813	-3.2042	-2.8458	-2.8333	-3.3063	-2.3583	-2.9729	-3.275	-2.4646	-3.1625	-2.8583	-2.6354	-3.4146	-2.6354	-2.9208	-3.0792	353.805	233.779	210.186	456.996	458.807	182.440	514.513	182.634	341.161	350.655	499.332	223.734	277.759	371.400	195.138	196.924	0.00023464	0.0011797	8.2878e-05	1024.3	2.6699e-06	3.6228e-06	1108.7	210.32	1.1661e-06	1.2573e-06	269.23	74.789	58.69	17.424	2.0854e-06	24.419	0.00029981	0.00029968	8.8585e-05	989.89	3.2698e-06	3.3163e-06	1075.8	209.04	3.3052e-06	3.3261e-06	264.27	75.784	59.616	18.245	3.5153e-06	25.365	208.537	228.897	372.280	175.585	320.192	300.022	175.350	182.697	489.752	277.637	182.618	189.154	189.868	197.161	399.087	196.527	-8191	255	
1042.036	1	1	0	0	0.046033	0.2282	0.11205	0.10327	0.20281	0.10073	0.18621	0.17005	0.20195	0.19793	0.17895	0.062887	0.22231	0.15158	0.13635	0.15592	-2.0146	-3.1042	-3.1188	-2.5896	-3.1937	-2.6604	-3.025	-3.275	-2.625	-3.025	-3.0896	-2.7271	-3.1771	-2.7458	-2.7313	-3.2458	308.104	402.275	389.613	514.207	271.606	251.474	508.143	171.412	436.864	388.737	512.306	413.153	313.477	394.392	293.627	521.645	0.00023045	0.00077334	0.00016415	1022.5	3.865e-06	3.8104e-06	1110.6	210.93	4.1643e-06	7.1547e-06	266.4	74.951	58.454	17.614	1.0758e-06	24.248	0.00030038	0.00030771	8.9449e-05	987.9	3.2631e-06	3.4132e-06	1077.5	208.81	3.2856e-06	3.4173e-06	263.99	75.839	59.44	18.346	3.4901e-06	25.263	180.715	240.752	246.208	175.548	268.942	273.956	175.759	183.005	292.438	191.250	182.613	189.890	189.525	197.142	514.634	197.134	-8191	255	
1042.155	1	1	0	0	0.15834	0.13034	0.047372	0.31565	0.036646	0.17723	0.38961	0.16817	0.22647	0.25656	0.090453	0.42097	0.16693	0.1023	0.1428	0.31747	-2.1167	-2.9646	-2.9667	-2.5875	-3.3167	-2.7938	-2.8958	-3.1708	-2.6	-2.9479	-3.3333	-2.6	-3.3979	-2.9333	-2.7354	-3.175	520.552	517.661	325.002	466.449	283.693	320.223	480.244	215.458	466.053	493.095	469.519	524.055	500.640	479.800	258.000	342.048	0.00017448	0.00030516	0.00024548	1021.4	2.3784e-06	4.9674e-06	1108.2	211.51	1.4748e-06	2.172e-06	267.86	75.535	58.925	17.457	5.7497e-06	24.311	0.00029867	0.00031752	8.7776e-05	988.23	3.2451e-06	3.5025e-06	1076.7	208.85	3.3079e-06	3.53e-06	263.54	75.861	59.635	18.394	3.4635e-06	25.21	178.068	218.645	249.998	175.888	386.480	312.776	175.576	183.074	524.277	178.982	182.665	189.417	189.605	197.073	348.512	196.718	-8191	255	
1042.251	1	1	0	0	0.1345	0.20574	0.26938	0.19943	0.1467	0.21506	0.023982	0.2037	0.20788	0.24969	0.08412	0.27894	0.091556	0.14907	0.23329	0.20292	-2.1396	-2.8292	-2.9062	-2.7062	-3.1271	-2.8937	-2.7229	-3.2854	-2.6896	-2.9813	-3.2229	-2.6583	-3.0604	-2.9458	-2.4083	-3.3937	203.437	348.826	506.729	201.424	346.588	466.007	418.043	484.590	209.000	207.167	397.215	434.582	219.373	234.370	446.663	172.966	0.00025088	0.0006773	6.0622e-05	1021.7	2.683e-06	3.4244e-06	1108.7	211.09	5.1573e-06	4.0196e-06	266.93	74.76	58.722	17.438	4.8195e-06	24.304	0.00030828	0.00032416	8.6595e-05	988.85	3.3681e-06	3.5805e-06	1077.1	208.71	3.4184e-06	3.5928e-06	263.67	75.637	60.018	18.435	3.4553e-06	25.316	184.137	339.540	322.978	175.529	280.642	273.906	175.571	183.126	254.167	364.189	182.818	189.399	189.380	197.231	210.701	196.703	-8191	255	
1042.347	1	1	0	0	0.13955	0.10931	0.054651	0.23579	0.22282	0.050234	0.31271	0.034267	0.1771	0.13234	0.21959	0.14485	0.12788	0.15974	0.054862	0.21012	-2.375	-2.8208	-3.2917	-2.6437	-3.0021	-3.1437	-2.7479	-3.1937	-2.7208	-2.7521	-3.2521	-2.7125	-3.1917	-3.0542	-2.5104	-3.1	336.953	213.240	219.187	435.748	419.836	404.712	485.523	462.997	283.815	429.106	513.171	500.809	304.638	213.876	311.923	211.159	0.00013166	0.00049976	0.00016516	1020	4.1818e-06	6.409e-06	1112.6	210.18	5.8278e-06	1.1367e-06	267.96	75.106	59.176	17.472	3.7237e-06	24.456	0.00032177	0.00033043	8.6875e-05	988.05	3.5424e-06	3.5952e-06	1078.8	209.42	3.6087e-06	3.6327e-06	263.78	76.109	60.443	18.412	3.4379e-06	25.368	201.899	311.457	394.946	175.643	300.899	338.801	175.301	183.071	174.541	421.049	183.066	189.232	189.641	196.942	361.519	196.669	-8191	255	
1042.468	1	1	0	0	0.3026	0.22037	0.045592	0.2257	0.098864	0.1807	0.28934	0.095039	0.24314	0.22976	0.082111	0.13709	0.077048	0.19537	0.11179	0.12147	-2.2812	-2.6667	-3.3292	-2.7062	-2.95	-3.0687	-2.7167	-3.3208	-2.8271	-2.6104	-3.275	-2.6646	-2.8354	-3.0062	-2.4771	-3.1667	316.895	306.345	255.826	414.517	518.529	407.392	394.710	399.455	439.754	428.459	515.040	465.759	274.898	420.607	288.481	478.874	0.00027261	0.00052863	0.00010187	1020.5	3.6881e-07	5.6381e-06	1107.7	212.83	1.4547e-06	2.0731e-06	268.71	75.589	58.685	17.524	4.1687e-06	24.316	0.00032651	0.00032537	8.5971e-05	990.31	3.5894e-06	3.5042e-06	1076.6	209.79	3.5902e-06	3.4643e-06	263.81	76.189	60.444	18.323	3.3683e-06	25.362	200.727	316.593	214.401	175.473	508.317	291.742	175.428	183.007	266.555	408.226	182.342	189.091	190.071	197.077	377.373	196.482	-8191	255	
1042.564	1	1	0	0	0.15761	0.28848	0.13589	0.18497	0.14904	0.15227	0.17999	0.24898	0.15047	0.15823	0.27532	0.18719	0.069621	0.13237	0.13431	0.045981	-2.4562	-2.7521	-3.0896	-2.7521	-2.8854	-3.1708	-2.6083	-3.2188	-3.0125	-2.6271	-3.2521	-2.7375	-2.8104	-3.0792	-2.5958	-3.1604	520.074	331.855	243.736	478.737	289.950	423.740	448.056	480.751	382.886	395.159	207.083	274.877	429.400	220.531	390.467	506.780	0.00039098	0.00029306	9.4625e-05	1022.6	2.3235e-06	3.8659e-06	1112.3	211.28	2.9305e-06	8.0449e-07	269.79	75.356	58.97	17.456	1.9347e-06	24.734	0.00032453	0.00031063	8.4242e-05	991.27	3.5632e-06	3.389e-06	1076.6	209.88	3.5981e-06	3.4368e-06	263.73	76.349	60.221	18.28	3.3199e-06	25.513	207.114	322.487	210.409	175.644	355.850	346.179	175.758	183.016	195.690	298.052	183.095	189.094	189.800	196.793	264.625	196.377	-8191	255	
1042.636	1	1	0	0	0.13617	0.071105	0.2407	0.3065	0.12442	0.13249	0.17405	0.063071	0.2161	0.21598	0.15015	0.2317	0.16497	0.24436	0.29991	0.16927	-2.6333	-2.3688	-3.1188	-2.9562	-2.6562	-3.1792	-2.8312	-3.2125	-3.1667	-2.6021	-3.3063	-2.9125	-2.7729	-3.3333	-2.6271	-2.9938	239.747	420.141	320.144	471.174	353.597	371.617	267.252	403.703	218.842	324.983	464.894	222.506	245.967	513.930	460.141	327.931	0.00024546	0.000382	0.00015745	1023.1	1.0658e-06	8.0075e-06	1108.4	211.12	6.7996e-06	5.7405e-06	267.83	75.009	58.643	17.424	1.1468e-06	24.605	0.00032119	0.0003067	8.3709e-05	992.54	3.5123e-06	3.363e-06	1075	210.7	3.4917e-06	3.3588e-06	263.2	76.321	60.051	18.235	3.3272e-06	25.546	191.193	257.960	317.402	175.469	376.087	306.708	175.640	183.040	343.505	396.443	182.751	189.307	189.787	197.235	276.085	196.727	-8191	255	
1042.756	1	1	0	0	0.034543	0.09213	0.089248	0.21244	0.13361	0.30047	0.20869	0.16368	0.41534	0.30369	0.065176	0.25496	0.34277	0.085267	0.012088	0.19175	-2.7125	-2.6646	-3.1771	-2.8917	-2.5979	-3.2208	-2.6583	-2.9813	-3.3708	-2.6042	-3.3021	-3.0833	-2.7083	-3.2667	-2.7583	-2.7292	185.928	248.567	390.848	195.307	292.915	498.268	447.066	484.595	198.683	241.703	451.923	445.437	220.267	340.013	445.148	501.611	0.00019208	0.00033966	0.00012901	1017.2	2.8263e-06	1.7965e-06	1110.2	212.21	1.41e-06	1.6848e-06	268.07	75.134	58.794	17.377	5.3407e-07	24.371	0.00031433	0.00030575	8.3821e-05	990.97	3.3963e-06	3.296e-06	1075.5	210.63	3.3873e-06	3.3121e-06	263.39	76.286	59.848	18.234	3.3982e-06	25.483	209.354	472.588	407.749	175.597	324.045	293.497	175.511	183.267	240.234	412.388	182.512	189.116	189.757	196.995	339.302	196.336	-8191	255	
1042.851	1	1	0	0	0.13189	0.041764	0.096038	0.38128	0.2988	0.048221	0.27838	0.094427	0.16817	0.16175	0.090578	0.19493	0.27141	0.28054	0.12756	0.23648	-2.7729	-2.3438	-3.1479	-3.0875	-2.5833	-3.2292	-2.8208	-2.9271	-3.2396	-2.5104	-3.1417	-2.9437	-2.5125	-3.2208	-2.7458	-2.7458	274.770	191.664	342.136	484.330	472.485	280.141	503.659	316.064	443.113	346.072	511.113	262.139	508.844	420.235	370.099	401.161	0.00021633	0.0011592	4.0278e-05	1018.2	2.7036e-06	3.5027e-06	1105.5	210.47	1.2062e-06	5.6652e-06	267.9	75.376	58.603	17.455	2.0123e-06	24.355	0.00030511	0.00030058	8.705e-05	987.74	3.3529e-06	3.2783e-06	1075.6	210.47	3.3262e-06	3.3003e-06	264.36	76.083	59.699	18.219	3.4843e-06	25.395	186.290	328.675	259.259	175.416	380.717	293.800	175.429	182.754	303.586	322.528	182.468	189.189	189.597	197.335	523.309	196.983	-8191	255	
1042.947	1	1	0	0	0.2271	0.18962	0.089549	0.47752	0.13437	0.18356	0.31159	0.15854	0.070915	0.10212	0.092668	0.20446	0.11017	0.22413	0.29047	0.084495	-2.7438	-2.4729	-2.8688	-2.8812	-2.2771	-3.2479	-3.0229	-2.7396	-3.4854	-2.6292	-2.9813	-3.1625	-2.5292	-3.1125	-2.7188	-2.5625	225.399	235.449	166.671	460.378	345.859	176.039	463.841	265.198	430.637	345.947	195.784	524.415	444.474	341.332	444.340	258.143	0.00025237	0.0006204	0.00011492	1016.2	1.6745e-06	6.072e-06	1106.4	210.78	1.259e-06	5.4914e-06	270.3	74.916	58.727	17.481	3.1562e-06	24.367	0.00030517	0.00030338	8.9064e-05	988.48	3.3458e-06	3.3181e-06	1076.6	209.85	3.3556e-06	3.377e-06	265.67	75.938	59.878	18.261	3.5789e-06	25.418	197.026	514.951	494.378	175.697	393.249	349.086	175.361	182.855	315.918	220.936	182.970	189.546	189.525	197.263	237.809	196.495	-8191	255	
1043.043	1	1	0	0	0.12363	0.061566	0.033176	0.11025	0.20365	0.026065	0.25536	0.3018	0.070001	0.13602	0.079926	0.26291	0.23946	0.081778	0.1806	0.15024	-2.7292	-2.5604	-2.8042	-3.1646	-2.4417	-3.0687	-2.9792	-2.5458	-3.0167	-2.625	-2.9521	-3.1667	-2.4271	-2.9083	-2.9938	-2.675	313.558	427.283	271.548	392.627	254.978	319.303	406.701	518.322	297.486	323.876	299.092	432.154	293.623	219.442	431.552	267.154	0.00026244	0.00075528	6.4158e-05	1022.1	1.943e-06	5.9337e-06	1109.2	211.28	1.2922e-06	4.4844e-06	266.44	74.909	58.786	17.493	4.8183e-06	24.398	0.00030194	0.00031337	9.045e-05	988.89	3.3372e-06	3.4134e-06	1077.5	209.7	3.3104e-06	3.4615e-06	264.39	75.775	59.641	18.298	3.572e-06	25.388	221.562	202.781	215.555	175.691	509.885	301.198	175.731	182.971	192.818	276.789	182.773	189.382	189.841	196.879	343.842	197.024	-8191	255	
1043.164	1	1	0	0	0.13917	0.13274	0.026418	0.25877	0.054383	0.098379	0.088045	0.12848	0.17897	0.23056	0.099179	0.12848	0.082346	0.2529	0.10038	0.17201	-2.65	-2.5917	-2.8146	-3.2667	-2.5687	-3.0187	-3.0312	-2.6104	-3.1688	-2.7458	-2.6	-3.3042	-2.4562	-3	-3.0687	-2.4313	341.804	276.383	247.602	494.814	437.313	204.192	453.589	245.893	168.098	282.441	300.034	495.996	441.822	183.394	433.465	438.070	0.00023405	0.00070601	3.2182e-05	1020.8	1.5901e-06	1.7372e-06	1110.7	211.05	3.4905e-06	4.6462e-06	268.31	75.062	58.935	17.383	7.0174e-06	24.398	0.00030323	0.00032038	9.0493e-05	989.01	3.354e-06	3.5273e-06	1078.1	209.84	3.3055e-06	3.564e-06	264.99	75.807	59.843	18.41	3.5097e-06	25.402	220.848	198.449	271.291	175.687	363.444	363.492	175.425	182.920	382.440	280.051	182.889	189.338	189.713	197.039	341.729	196.749	-8191	255	
1043.235	1	1	0	0	0.074766	0.35253	0.067303	0.14397	0.13135	0.18757	0.083621	0.12512	0.18139	0.094809	0.29872	0.14111	0.04257	0.13828	0.29442	0.053749	-2.6729	-2.6583	-2.7333	-3.35	-2.6042	-2.9479	-3.3271	-2.5708	-3.0271	-2.8167	-2.6417	-3.2229	-2.6875	-2.7542	-3.0333	-2.5625	230.805	166.907	392.383	165.475	504.988	218.082	512.668	504.378	441.122	360.089	172.161	339.035	490.719	228.642	274.540	460.230	0.00025594	0.00042016	5.1969e-05	1021	4.2577e-06	3.7177e-06	1107	211.14	5.0274e-06	9.3015e-07	268.83	75.161	58.578	17.48	3.8815e-06	24.501	0.00030607	0.00032711	8.9754e-05	986.63	3.3712e-06	3.6051e-06	1077.5	209.7	3.3908e-06	3.6413e-06	264.42	75.731	59.878	18.402	3.4406e-06	25.413	200.084	321.296	509.202	175.833	374.681	252.325	175.494	183.193	251.556	257.146	182.815	189.208	189.638	197.045	165.943	196.888	-8191	255	
1043.331	1	1	0	0	0.22831	0.1782	0.08581	0.3445	0.11254	0.15353	0.33054	0.047663	0.099036	0.11694	0.23379	0.082944	0.164	0.10322	0.17875	0.10724	-2.675	-2.8958	-2.6146	-3.2292	-2.7292	-2.7667	-3.2271	-2.4875	-3.0146	-3.0958	-2.4271	-3.3312	-2.7875	-2.7583	-3.2333	-2.475	186.237	463.568	241.960	203.578	250.775	233.974	491.238	244.589	209.835	514.341	201.219	274.591	461.310	505.387	403.457	418.942	0.00023336	0.0005501	0.00015229	1013.7	9.7536e-07	6.6777e-07	1106.1	211.68	4.297e-06	4.7277e-06	269.92	75.134	58.676	17.443	6.5245e-06	24.582	0.00031174	0.00032895	8.7345e-05	985.5	3.4799e-06	3.6109e-06	1074	209.83	3.4946e-06	3.5844e-06	264.03	75.72	60.144	18.377	3.4025e-06	25.339	196.716	188.651	336.883	175.410	254.158	178.820	175.539	182.798	193.252	181.676	182.859	188.879	189.625	197.405	321.081	196.535	-8191	255	
1043.428	1	1	0	0	0.044073	0.16576	0.21751	0.28632	0.15638	0.20302	0.14923	0.048635	0.038306	0.1752	0.13305	0.27093	0.094055	0.2405	0.1649	0.060984	-2.5083	-2.8937	-2.5833	-3.3063	-2.8063	-2.5625	-3.0812	-2.6625	-2.925	-3.0396	-2.3375	-3.2271	-2.8417	-2.5563	-3.2042	-2.7771	188.492	297.352	277.769	501.560	345.345	498.779	496.240	265.130	180.539	506.369	516.300	498.506	477.852	328.206	492.523	215.489	0.00037582	0.00071894	0.00024323	1024.1	1.3544e-06	1.0151e-06	1105.7	211.65	3.3379e-06	1.2664e-06	268.91	75.291	58.873	17.374	2.081e-06	24.417	0.00032201	0.00032514	8.6308e-05	987.78	3.5582e-06	3.54e-06	1072.6	209.57	3.6074e-06	3.5339e-06	263.63	75.68	60.293	18.307	3.3687e-06	25.387	195.533	313.581	174.756	175.509	220.126	467.543	175.476	182.718	285.163	207.210	182.761	189.301	189.781	197.221	451.216	197.116	-8191	255	
1043.548	1	1	0	0	0.33136	0.10401	0.071079	0.16335	0.11504	0.065912	0.26624	0.1869	0.22518	0.080393	0.26219	0.085724	0.14883	0.10445	0.088209	0.40207	-2.3521	-3.2583	-2.5479	-3.3292	-3.1437	-2.5417	-3.3146	-2.6667	-2.9708	-3.1083	-2.5417	-3.075	-2.7458	-2.6708	-3.1875	-2.65	440.881	188.612	211.616	173.921	470.516	363.007	413.105	473.873	220.292	505.455	480.106	430.337	170.429	191.516	388.596	176.641	0.00016047	9.165e-05	2.5109e-05	1021.4	6.9067e-06	3.6178e-06	1102.8	210.8	5.846e-07	2.5355e-06	267.64	75.543	58.988	17.291	1.6434e-06	24.428	0.00032872	0.0003205	8.6043e-05	989.56	3.6229e-06	3.4878e-06	1073.3	209.73	3.5997e-06	3.4139e-06	263.37	76.062	60.227	18.24	3.3001e-06	25.367	190.337	290.847	251.527	175.649	192.753	289.569	175.421	183.270	270.335	340.983	182.529	189.182	190.038	196.734	352.465	196.776	-8191	255	
1043.644	1	1	0	0	0.094376	0.093275	0.32144	0.11492	0.1147	0.31781	0.10355	0.06555	0.25412	0.083706	0.1838	0.14039	0.073411	0.23767	0.17361	0.10943	-2.2604	-3.0417	-2.4938	-3.175	-2.8333	-2.4333	-3.3271	-2.675	-2.6875	-3.2479	-2.6771	-2.9938	-3.1125	-2.4813	-3.2438	-2.6979	385.303	300.953	414.304	479.629	269.495	241.040	418.766	238.566	203.105	469.973	522.259	423.400	324.028	241.092	300.812	341.979	0.00019742	0.00077735	5.7144e-05	1016.4	3.3114e-06	3.9093e-06	1104.7	210.85	4.7943e-06	6.0708e-06	269.56	75.048	58.629	17.409	5.7085e-06	24.511	0.00032344	0.00030753	8.4534e-05	987.83	3.5357e-06	3.4003e-06	1071.4	210.15	3.5637e-06	3.3791e-06	263.23	76.01	59.944	18.263	3.3869e-06	25.588	208.863	201.817	494.285	175.565	357.525	507.437	175.423	182.912	370.883	192.622	182.849	189.082	189.464	197.316	328.355	196.765	-8191	255	
1043.739	1	1	0	0	0.18462	0.10845	0.041827	0.060068	0.028874	0.23116	0.17717	0.11341	0.092164	0.23034	0.083283	0.14453	0.14713	0.13646	0.11597	0.20309	-2.2542	-3.3	-2.5271	-3.1396	-3.0896	-2.5021	-3.2833	-2.8167	-2.5542	-3.1188	-2.675	-2.9979	-3.25	-2.4771	-3.0396	-3.025	255.067	511.544	441.202	282.164	203.893	498.261	502.717	263.118	231.102	501.798	452.414	410.168	308.348	411.317	216.420	465.931	0.00021909	0.00068989	7.7442e-05	1018.1	2.1389e-06	2.0884e-06	1112.3	210.72	3.0624e-06	5.1848e-06	268.13	75.12	58.944	17.398	2.6211e-06	24.501	0.00032438	0.00030871	8.6488e-05	991.29	3.5274e-06	3.4395e-06	1076.4	210.53	3.5339e-06	3.4192e-06	264.64	76.463	60.045	18.318	3.4744e-06	25.613	207.922	217.302	245.072	175.648	338.685	489.568	175.621	183.082	231.444	253.624	183.084	189.145	189.344	197.134	208.551	196.183	-8191	255	
1043.837	1	1	0	0	0.11685	0.11248	0.12927	0.21788	0.2513	0.43236	0.1176	0.19625	0.35871	0.14684	0.13613	0.23219	0.10639	0.26503	0.19746	0.37918	-2.2667	-3.2521	-2.5563	-2.9208	-3.1188	-2.6479	-3.2	-3.0812	-2.625	-3.075	-2.6396	-2.8187	-3.4021	-2.5438	-3.0563	-2.9167	517.915	505.814	354.522	391.591	470.666	322.034	479.700	448.090	288.479	274.487	412.716	274.400	173.302	221.457	397.789	426.583	0.00039592	0.00064393	4.711e-05	1022.7	1.7988e-06	3.2013e-06	1104.8	211.66	2.0415e-06	1.7253e-06	271.25	75.305	58.372	17.416	3.4853e-06	24.348	0.00032338	0.00031435	8.9462e-05	991.88	3.516e-06	3.4386e-06	1077.4	210.7	3.4815e-06	3.4027e-06	265.79	76.467	59.921	18.275	3.5334e-06	25.53	213.540	303.148	346.184	175.525	361.297	364.967	175.524	182.993	364.876	462.302	182.786	188.964	190.035	197.192	216.416	196.782	-8191	255	
1043.931	1	1	0	0	0.21639	0.26935	0.19991	0.18182	0.14396	0.27787	0.11051	0.33574	0.18516	0.029752	0.41184	0.033059	0.14581	0.35952	0.15221	0.17142	-2.0708	-3.0812	-2.6458	-2.5438	-3.1292	-2.5667	-3.0875	-3.0104	-2.6979	-3.1958	-2.8312	-2.875	-3.25	-2.6333	-2.875	-2.9896	250.544	458.268	479.186	518.625	251.507	182.483	199.157	430.779	219.058	323.092	496.281	194.860	487.664	522.220	312.815	195.492	0.00029566	0.00022381	5.8138e-05	1020.4	7.7505e-06	4.5488e-06	1105	211.94	2.6945e-06	5.9296e-06	267.08	75.224	58.388	17.44	5.388e-06	24.432	0.00031164	0.00030633	9.0769e-05	990.23	3.4001e-06	3.3771e-06	1074.9	210.7	3.433e-06	3.342e-06	264.96	76.212	59.59	18.22	3.5935e-06	25.378	207.090	185.632	229.908	175.634	356.228	233.657	175.466	182.876	280.048	287.056	182.634	188.998	189.457	197.520	286.421	196.348	-8191	255	
1044.027	1	1	0	0	0.087046	0.089438	0.098934	0.078855	0.11349	0.061203	0.23934	0.13025	0.23889	0.076893	0.15072	0.19481	0.10723	0.42104	0.30959	0.18392	-1.9354	-3.1521	-2.7646	-2.775	-3.2271	-2.6708	-3.0292	-3.0312	-2.5896	-3.0958	-2.9792	-2.4437	-3.0417	-2.6729	-2.9313	-3.2292	462.550	222.944	405.650	513.469	380.671	279.159	504.208	452.337	350.361	431.685	389.371	455.629	381.356	454.832	290.290	431.263	0.00016863	0.00035276	2.3073e-05	1019.9	5.1179e-06	7.4782e-06	1110.7	211.49	4.8713e-06	4.6886e-06	269.01	75.064	58.52	17.37	1.5431e-06	24.456	0.00030981	0.00030953	9.2078e-05	988.69	3.3777e-06	3.4164e-06	1078.8	210.14	3.3788e-06	3.4392e-06	265.19	75.978	59.724	18.25	3.6188e-06	25.335	193.398	323.537	436.131	175.576	364.911	241.192	175.538	183.005	276.039	496.487	182.696	189.522	189.604	197.235	194.524	196.169	-8191	255	
1044.148	1	1	0	0	0.17111	0.25271	0.20954	0.15473	0.32509	0.2402	0.16794	0.22312	0.13623	0.099044	0.1329	0.24577	0.26058	0.077576	0.066673	0.20775	-2.1188	-3.0312	-2.8604	-2.5104	-3.2917	-2.8479	-2.8187	-3.2333	-2.5021	-2.9708	-3.0812	-2.5042	-3.2375	-2.6625	-2.8667	-3.3583	469.177	438.319	199.647	392.908	228.415	324.335	507.174	478.956	520.308	272.518	454.209	431.842	265.026	438.125	182.709	417.347	0.00021818	0.00053004	7.0635e-05	1022.6	3.5021e-06	5.2374e-06	1108.1	211.42	3.0291e-06	4.6643e-06	269.41	75.059	57.968	17.306	5.1787e-06	24.369	0.00030783	0.00031812	9.1315e-05	988.65	3.3209e-06	3.5176e-06	1077.1	209.75	3.3406e-06	3.4955e-06	265.04	75.718	59.525	18.313	3.5506e-06	25.268	220.588	189.466	330.438	175.823	373.196	257.173	175.688	183.064	314.462	210.942	182.965	189.376	189.551	196.845	304.422	196.160	-8191	255	
1044.244	1	1	0	0	0.10524	0.3312	0.1139	0.20069	0.043122	0.029004	0.17187	0.040758	0.20029	0.33446	0.31285	0.15213	0.22285	0.26833	0.17178	0.058925	-2.0625	-2.95	-2.9771	-2.4792	-3.2438	-2.7604	-2.8625	-3.2854	-2.6063	-2.9875	-2.9917	-2.4271	-3.2188	-2.8	-2.5667	-3.3646	397.418	368.450	394.082	438.383	355.297	318.012	174.194	197.082	419.412	415.581	464.983	506.181	460.689	472.892	418.812	380.161	0.00025019	0.00022883	0.00017834	1017.3	1.4234e-06	5.1293e-06	1096.6	212.24	5.0599e-06	4.3044e-06	268.49	74.748	58.326	17.299	1.5363e-06	24.379	0.00030407	0.00032349	8.7952e-05	984.78	3.2841e-06	3.5267e-06	1072	209.16	3.2821e-06	3.5063e-06	263.01	75.268	59.479	18.294	3.3847e-06	25.193	200.048	247.878	229.566	175.810	480.181	372.385	175.781	182.795	265.123	264.308	183.121	189.027	189.929	197.049	509.141	196.508	-8191	255	
1044.340	1	1	0	0	0.019438	0.1493	0.23458	0.40998	0.11126	0.19189	0.17011	0.30142	0.19156	0.066094	0.17345	0.12775	0.12458	0.25693	0.12866	0.17992	-2.1292	-2.8521	-3.0875	-2.5312	-3.0208	-2.9958	-2.5979	-3.3167	-2.6958	-2.9875	-3.0563	-2.5146	-3.0417	-2.9604	-2.5229	-3.1937	286.112	453.746	338.213	461.686	435.236	171.794	227.951	470.781	457.287	282.941	374.394	296.070	240.111	438.926	454.971	208.177	0.00026203	0.00047088	7.3474e-05	1017.4	2.1279e-06	5.5408e-06	1106.3	212.14	5.2094e-06	5.1099e-06	266.49	74.882	58.246	17.307	3.5705e-06	24.562	0.0003047	0.00032471	8.5899e-05	983.39	3.3877e-06	3.5645e-06	1070.8	208.85	3.4162e-06	3.5642e-06	262.81	75.678	59.761	18.279	3.3878e-06	25.198	188.594	449.269	230.653	175.515	262.015	310.540	175.706	183.225	268.672	204.680	182.599	189.438	189.661	197.096	259.352	196.519	-8191	255	
1044.436	1	1	0	0	0.27601	0.071425	0.075887	0.086958	0.19313	0.13305	0.19626	0.048013	0.12357	0.092113	0.074187	0.18543	0.14989	0.054093	0.1584	0.26723	-2.2979	-2.8021	-3.0958	-2.5625	-2.9979	-2.8771	-2.5625	-3.225	-2.7729	-2.775	-3.2083	-2.5875	-2.9021	-2.9917	-2.3979	-3.1479	384.943	235.845	331.702	233.695	494.155	502.446	516.940	310.698	476.176	314.112	495.915	362.959	260.564	249.392	284.238	178.897	0.00025491	0.00023139	6.1312e-05	1013.4	1.9828e-06	6.9206e-06	1100.7	211.6	6.5687e-06	5.1119e-06	266.47	74.907	58.329	17.309	2.5711e-06	24.434	0.00031761	0.0003229	8.5236e-05	983.75	3.5084e-06	3.5131e-06	1070.8	209.16	3.5094e-06	3.5109e-06	262.9	75.459	59.753	18.207	3.3449e-06	25.241	224.119	518.794	240.433	175.841	314.870	401.399	175.471	182.958	291.582	220.042	182.902	189.279	189.795	197.284	416.190	196.444	-8191	255	
1044.532	1	1	0	0	0.15756	0.12731	0.083051	0.37911	0.073128	0.063531	0.21588	0.23998	0.15201	0.2721	0.26806	0.095082	0.30859	0.11672	0.23021	0.16216	-2.3354	-2.8187	-3.1896	-2.6312	-2.8646	-3.0646	-2.725	-3.1271	-2.9021	-2.7354	-3.1667	-2.7854	-3.0271	-3.0292	-2.4562	-3.1	445.092	353.559	310.988	501.351	390.691	458.667	433.308	497.980	412.768	192.636	444.128	447.960	186.604	465.127	454.225	524.327	0.00019995	0.00055592	7.6404e-05	1019.7	2.5268e-06	4.8485e-06	1102.1	210.96	2.0044e-06	5.8897e-06	267.76	74.48	58.572	17.412	4.8866e-06	24.231	0.00031988	0.00031691	8.2716e-05	982.66	3.5015e-06	3.404e-06	1068.8	208.84	3.5317e-06	3.3688e-06	261.71	75.419	59.947	18.21	3.3087e-06	25.238	208.872	326.838	266.508	175.595	314.088	289.915	175.665	183.177	439.766	438.598	182.990	189.186	189.626	197.475	253.029	196.760	-8191	255	
1044.629	1	1	0	0	0.12191	0.083141	0.15903	0.20148	0.13822	0.071758	0.53975	0.22256	0.079283	0.047678	0.12633	0.051298	0.10151	0.13082	0.15908	0.10336	-2.3646	-2.5521	-3.2125	-2.8646	-2.8604	-3.3187	-2.6729	-3.2167	-2.9458	-2.6063	-3.3812	-2.9188	-2.7667	-3.2583	-2.6708	-3.0479	285.066	184.081	252.441	395.952	363.706	486.599	512.899	189.855	458.404	414.946	510.661	280.399	453.267	165.926	246.016	434.583	0.00022661	0.00039859	9.4743e-05	1012	5.4712e-06	3.5676e-06	1102.9	210.76	1.8378e-06	3.6263e-06	268.42	75.321	58.302	17.303	4.2834e-06	24.527	0.00032057	0.00030726	8.2632e-05	982.84	3.5123e-06	3.3524e-06	1068.7	209.2	3.5172e-06	3.3489e-06	261.81	75.951	59.774	18.131	3.283e-06	25.355	207.913	194.470	524.813	175.406	322.816	283.352	175.448	182.997	477.031	319.920	182.546	188.872	189.467	197.404	222.242	196.613	-8191	255	
1044.725	1	1	0	0	0.27866	0.17844	0.31672	0.13702	0.2234	0.069477	0.22821	0.17925	0.14643	0.21833	0.089169	0.10649	0.057067	0.25825	0.12415	0.12341	-2.6354	-2.5896	-3.3042	-2.9271	-2.6937	-3.2042	-2.7521	-2.9583	-3.0042	-2.525	-3.0875	-2.9479	-2.6521	-3.0792	-2.5729	-2.8354	344.638	267.130	200.866	196.313	274.557	231.260	480.021	508.209	230.776	202.525	500.312	331.609	186.871	216.900	198.568	479.812	0.00014581	0.000601	5.9184e-05	1016.3	4.2839e-06	3.3392e-06	1102.9	209.95	1.5949e-06	7.4359e-06	268.09	75.338	58.594	17.43	3.119e-06	24.24	0.00031681	0.00030578	8.2511e-05	985.43	3.4614e-06	3.2904e-06	1068.9	209.07	3.4351e-06	3.286e-06	261.97	75.971	59.64	18.132	3.2748e-06	25.33	198.380	229.819	478.997	175.702	292.130	280.767	175.784	183.123	486.059	298.358	182.649	189.175	189.899	197.323	238.303	196.735	-8191	255	
1044.844	1	1	0	0	0.11876	0.26414	0.063505	0.15922	0.12351	0.18775	0.29595	0.037719	0.13023	0.037509	0.11845	0.1622	0.30626	0.32382	0.067064	0.19616	-2.7229	-2.3771	-3.1271	-2.9437	-2.6917	-3.2833	-2.6604	-2.8917	-3.1688	-2.4333	-3.0458	-2.8583	-2.4562	-3.3125	-2.5229	-2.7396	320.995	412.148	517.069	465.669	378.405	476.316	402.809	386.835	318.129	280.780	231.902	372.667	452.418	511.911	321.177	189.004	0.00017937	0.00057205	0.0001638	1013.8	2.5396e-06	3.1263e-06	1098.5	210.67	7.302e-07	2.0044e-06	267.08	74.221	58.618	17.528	1.1111e-06	24.545	0.0003071	0.00029879	8.29e-05	983.3	3.3348e-06	3.2294e-06	1066.7	209.21	3.3459e-06	3.2678e-06	261.92	75.762	59.429	18.129	3.3811e-06	25.425	217.361	192.832	184.254	175.620	310.791	301.089	175.453	183.097	467.246	477.874	182.675	189.326	189.654	197.513	203.331	196.822	-8191	255	
1044.940	1	1	0	0	0.085164	0.12208	0.17454	0.15569	0.11974	0.078869	0.13158	0.26222	0.071315	0.032344	0.20269	0.10782	0.072728	0.23578	0.15372	0.063273	-2.6854	-2.4667	-3.0062	-3.0854	-2.6479	-3.325	-2.7375	-2.8854	-3.0958	-2.3688	-3.0604	-2.8729	-2.3979	-3.2396	-2.7625	-2.7958	399.654	213.914	446.559	369.845	283.836	194.090	439.324	516.045	368.448	430.867	347.548	306.058	222.964	506.978	414.210	213.723	0.00019663	0.00031545	0.0001599	1015.6	3.7948e-06	4.3972e-06	1100.6	210.51	2.0757e-06	3.3732e-06	266.25	74.88	58.514	17.421	4.9761e-06	24.287	0.00030098	0.00029675	8.596e-05	984.99	3.3332e-06	3.2249e-06	1069.5	209.18	3.2978e-06	3.2659e-06	262.61	75.699	59.48	18.098	3.4604e-06	25.263	191.785	325.247	166.671	175.642	301.848	346.832	175.464	183.381	234.135	317.637	182.908	189.586	189.382	197.303	197.223	196.717	-8191	255	
1045.036	1	1	0	0	0.11429	0.13049	0.13316	0.21829	0.068602	0.052225	0.094978	0.24366	0.26392	0.2228	0.083186	0.097663	0.099703	0.24588	0.01366	0.23707	-2.7313	-2.3063	-2.9854	-3.0563	-2.5479	-3.1208	-2.9458	-2.7021	-3.0312	-2.5229	-2.9667	-3.0167	-2.3792	-3.0563	-2.8979	-2.4833	304.568	417.986	483.254	443.023	187.762	481.843	435.222	228.322	260.819	244.267	403.004	393.673	256.499	194.519	268.248	517.530	0.00027494	0.0004124	7.9548e-05	1017	2.9095e-06	5.0019e-06	1099.4	210.46	6.2912e-06	5.2984e-07	266.91	74.682	58.472	17.431	4.0427e-06	24.22	0.00029774	0.0002999	8.7598e-05	982.52	3.2648e-06	3.2247e-06	1070.9	208.55	3.2687e-06	3.2851e-06	262.88	75.397	59.292	18.12	3.4534e-06	25.182	208.395	195.266	509.376	175.622	311.642	303.990	175.636	183.021	391.815	206.348	182.844	189.654	189.830	197.406	378.223	196.610	-8191	255	
1045.108	1	1	0	0	0.13466	0.14534	0.058654	0.19437	0.10605	0.062501	0.0595	0.2756	0.27831	0.23083	0.10741	0.20833	0.3101	0.18136	0.1268	0.17127	-2.7188	-2.6396	-2.7792	-3.3396	-2.4354	-2.9771	-3.1771	-2.7146	-3.2771	-2.7062	-2.6792	-3.3021	-2.3771	-3.2125	-2.9625	-2.4771	212.593	385.232	408.881	213.644	194.710	181.315	394.671	300.575	323.429	511.804	403.378	374.855	300.395	265.742	262.173	426.147	0.00023569	0.00022705	7.4346e-05	1013.8	4.1277e-07	2.1182e-06	1102.1	210.51	4.3545e-06	2.0784e-06	267.15	74.992	58.384	17.393	5.4952e-06	24.291	0.00029224	0.00030524	8.8049e-05	978.42	3.2504e-06	3.3138e-06	1070.8	208.33	3.1892e-06	3.3813e-06	263.37	75.34	59.28	18.185	3.4532e-06	25.159	203.480	225.449	239.928	175.918	228.453	239.645	175.635	182.906	196.340	302.378	182.727	189.132	189.697	196.975	388.630	196.303	-8191	255	
1045.228	1	1	0	0	0.088255	0.15807	0.13973	0.132	0.24495	0.1195	0.24984	0.33606	0.42898	0.039935	0.13975	0.29749	0.067769	0.37029	0.093113	0.14026	-2.7979	-2.8104	-2.7354	-3.3438	-2.4417	-2.9125	-3.2354	-2.5958	-3.1875	-2.7396	-2.8083	-3.3667	-2.5604	-2.8479	-3.0396	-2.6333	381.431	376.962	207.429	458.187	242.261	182.023	451.474	463.931	244.372	457.819	268.863	460.128	424.180	263.454	422.022	263.837	0.00024934	0.00078141	5.4394e-05	1011.5	2.0785e-06	1.6441e-06	1097.7	210	6.3135e-06	6.4182e-06	266.86	74.809	58.459	17.254	6.0469e-06	24.337	0.00029124	0.00031446	8.6696e-05	979.53	3.2314e-06	3.4173e-06	1068.2	208.04	3.2359e-06	3.4973e-06	262.42	75.097	59.263	18.243	3.3932e-06	25.214	191.105	232.227	273.893	175.786	297.013	354.836	175.702	183.063	272.325	283.280	183.239	189.164	189.722	197.073	183.593	196.494	-8191	255	
1045.324	1	1	0	0	0.11609	0.12955	0.07365	0.37975	0.027444	0.1235	0.15122	0.089319	0.0795	0.10037	0.11196	0.1762	0.023088	0.24095	0.10118	0.1009	-2.7938	-2.8542	-2.5083	-3.3271	-2.5438	-2.8083	-3.3104	-2.6667	-2.9979	-3.0125	-2.5479	-3.2708	-2.625	-3.0333	-3.2417	-2.525	463.746	418.655	318.474	450.780	211.976	369.673	488.598	478.944	403.611	396.051	376.059	479.267	388.421	248.854	176.791	464.957	0.00026061	0.00024375	0.00013758	1016.6	4.5905e-06	2.8097e-06	1100.2	209.82	2.4566e-06	3.7759e-06	266.1	74.417	58.384	17.35	3.9097e-06	24.378	0.00029755	0.00031892	8.5317e-05	980.63	3.2664e-06	3.4553e-06	1066.8	207.85	3.2234e-06	3.4088e-06	261.05	74.854	59.13	18.144	3.1998e-06	25.005	183.005	200.660	346.786	175.700	209.981	427.024	175.702	183.391	225.760	195.215	182.755	189.193	189.790	197.287	372.367	196.943	-8191	255	
1045.421	1	1	0	0	0.046896	0.053027	0.21371	0.34544	0.13501	0.078092	0.25076	0.2018	0.13482	0.23565	0.33826	0.26848	0.27855	0.059377	0.22884	0.21244	-2.6646	-3.0229	-2.3958	-3.2958	-2.7646	-2.8021	-3.2687	-2.7292	-2.9208	-2.9375	-2.5187	-3.1229	-2.7646	-2.5187	-3.1417	-2.45	476.396	222.261	305.676	486.403	510.024	183.124	392.739	446.913	390.055	234.499	170.621	475.719	454.923	292.175	500.186	354.707	0.00025599	0.00077919	0.00018085	1006.6	1.2725e-06	2.9591e-06	1092.6	208.82	5.0109e-06	5.3355e-06	266.75	74.093	58.073	17.329	1.8312e-06	24.414	0.00029054	0.00030533	8.1852e-05	972.69	3.2828e-06	3.3539e-06	1060.2	207.05	3.3309e-06	3.3511e-06	260.31	74.643	59.205	18.141	3.2053e-06	25.031	192.837	288.943	249.201	175.718	229.608	321.051	175.573	182.824	247.782	332.392	182.874	188.884	189.166	197.185	429.022	196.444	-8191	255	
1045.517	1	1	0	0	0.11898	0.22472	0.28096	0.043468	0.38626	0.093427	0.30761	0.28056	0.24571	0.10576	0.11911	0.19984	0.15787	0.20442	0.096901	0.17875	-2.5833	-2.8271	-2.3667	-3.3229	-2.7604	-2.8438	-3.3208	-2.7875	-3.0521	-3.1979	-2.525	-3.0958	-2.9521	-2.6479	-3.1896	-2.5812	336.165	439.731	188.580	503.085	308.357	517.446	179.455	489.006	286.135	243.331	176.271	207.110	174.690	323.712	200.873	375.410	0.0002674	0.00070541	0.00010484	1012.3	2.0956e-06	2.6006e-06	1098	209.14	2.3584e-06	2.622e-06	265.42	74.213	58.064	17.176	3.1189e-06	24.247	0.00030589	0.00030686	8.2401e-05	976.22	3.4062e-06	3.3906e-06	1062.5	207.21	3.4216e-06	3.3229e-06	259.81	74.834	59.372	18.023	3.1417e-06	24.992	190.583	298.467	239.304	175.544	448.094	379.791	175.616	182.737	166.877	306.044	182.925	189.529	189.500	197.154	334.337	196.789	-8191	255	
1045.637	1	1	0	0	0.22935	0.1609	0.14627	0.21074	0.072273	0.048598	0.36308	0.16223	0.13821	0.12271	0.20772	0.23576	0.25083	0.20666	0.39598	0.13327	-2.2896	-3.0312	-2.4938	-3.0292	-2.9896	-2.5604	-3.3625	-2.8021	-2.8104	-3.0042	-2.5125	-2.9938	-2.9104	-2.5521	-3.1458	-2.7854	395.187	345.604	351.401	400.388	503.905	254.614	165.960	390.960	481.593	338.540	412.372	197.256	293.075	359.212	461.915	491.741	0.00020758	0.00065339	0.00021701	1006.4	2.0792e-06	6.8274e-06	1091.5	209.35	1.5952e-06	1.3563e-06	262.43	74.524	57.962	17.356	4.6608e-06	24.071	0.00030754	0.00029607	8.0689e-05	973.74	3.3426e-06	3.2477e-06	1059.6	207.1	3.3695e-06	3.1924e-06	258.58	74.979	59.139	17.965	3.099e-06	24.954	208.400	222.467	256.077	175.632	401.507	301.486	175.654	183.102	292.604	341.366	182.833	189.668	189.784	197.593	328.995	196.673	-8191	255	
1045.732	1	1	0	0	0.11658	0.16575	0.080674	0.16694	0.075584	0.25051	0.075991	0.15204	0.17471	0.15594	0.06788	0.18766	0.13205	0.094087	0.27628	0.52321	-2.2604	-3.05	-2.4667	-3.0854	-2.9729	-2.5458	-3.325	-2.6583	-2.8542	-3.1396	-2.6875	-2.9938	-3.1271	-2.4896	-3.1479	-2.9458	502.780	463.494	300.916	450.198	376.498	257.888	254.694	451.243	279.243	424.293	426.924	448.728	339.643	372.327	248.187	504.926	0.00022563	0.00035224	7.4325e-05	1004.5	1.8599e-06	5.2099e-06	1095.1	209.23	3.5556e-06	5.231e-06	265.95	74.352	57.975	17.298	1.5857e-06	24.188	0.00030536	0.00029079	7.9942e-05	972.99	3.3323e-06	3.2659e-06	1059.7	207.66	3.3491e-06	3.232e-06	259.86	75.2	59.264	18.059	3.1973e-06	25.19	204.140	517.964	343.033	175.657	311.043	301.706	175.503	183.063	344.458	306.908	183.130	189.757	189.669	197.340	296.888	196.822	-8191	255	
1045.830	1	1	0	0	0.17428	0.15281	0.020248	0.1287	0.18161	0.075353	0.20306	0.19059	0.15719	0.12408	0.14854	0.33271	0.02542	0.21645	0.073321	0.22129	-2.1104	-3.1417	-2.575	-3.0979	-3.1083	-2.5354	-3.2687	-2.9875	-2.6188	-3.1854	-2.5125	-2.8479	-3.1292	-2.4979	-3.1229	-2.9646	393.989	291.281	435.920	442.550	505.820	411.219	461.782	414.373	422.844	394.824	469.077	371.096	342.073	520.844	457.245	454.667	0.00030741	0.00053539	9.7829e-05	1011.2	3.8349e-06	3.5629e-06	1097.9	208.68	1.8784e-06	1.0062e-06	263.47	74.722	58.088	17.322	4.1081e-06	24.114	0.00030812	0.00029703	8.3283e-05	980.44	3.3607e-06	3.3061e-06	1064	207.91	3.3557e-06	3.2416e-06	260.43	75.522	59.194	18.039	3.3026e-06	25.257	210.209	319.461	220.614	175.728	392.433	328.176	175.705	183.224	291.740	407.055	182.766	189.306	190.018	197.210	246.528	196.317	-8191	255	
1045.924	1	1	0	0	0.088564	0.1305	0.17089	0.25628	0.22682	0.223	0.22628	0.1675	0.089493	0.1777	0.14876	0.071717	0.13161	0.036084	0.057267	0.22382	-2.05	-3.1333	-2.6	-2.9792	-3.1833	-2.4229	-3.2062	-3.05	-2.5729	-3.3042	-2.7854	-2.9688	-3.3021	-2.6	-2.9437	-3.1688	316.340	492.059	373.452	494.084	291.718	252.563	478.913	364.616	257.993	506.116	419.305	465.568	444.704	273.249	461.860	460.778	0.00028251	0.00026215	0.00010095	1008.2	3.327e-06	9.8113e-07	1096.6	209.38	2.8383e-06	2.1956e-06	264.81	74.614	58.126	17.218	2.4776e-06	24.057	0.00030554	0.00029366	8.4995e-05	979.32	3.2768e-06	3.2332e-06	1064.1	208.14	3.3012e-06	3.2058e-06	260.87	75.451	59.142	18.002	3.4054e-06	25.218	214.510	429.010	253.377	175.881	307.594	429.613	175.796	183.300	370.951	202.695	182.961	189.067	189.406	197.349	298.885	196.698	-8191	255	
1046.020	1	1	0	0	0.11333	0.20976	0.16075	0.12462	0.073448	0.24943	0.32676	0.31739	0.1378	0.015767	0.28837	0.14803	0.11767	0.30135	0.012745	0.28046	-2.2042	-2.9792	-2.6833	-2.7333	-3.1375	-2.5958	-3.0604	-3.2687	-2.6688	-3.1792	-2.9167	-2.7229	-3.3563	-2.7583	-2.8333	-3.2188	362.934	219.980	295.656	210.484	472.162	238.835	452.025	469.015	182.227	208.730	471.369	396.376	189.560	433.993	167.742	511.795	0.00024008	0.00075271	8.0061e-05	1010.9	2.7541e-06	2.4817e-06	1095.9	208.53	1.1677e-06	3.2e-06	266.55	74.187	58.309	17.327	2.471e-06	24.128	0.00030125	0.00029376	8.7389e-05	979.38	3.2808e-06	3.2663e-06	1066.7	207.88	3.3002e-06	3.264e-06	262.5	75.352	59.109	18.103	3.5367e-06	25.168	204.374	270.717	205.876	175.780	186.335	209.883	175.670	183.147	393.185	191.097	182.726	189.459	190.096	197.299	387.442	196.947	-8191	255	
1046.116	1	1	0	0	0.36427	0.17173	0.28093	0.06362	0.23728	0.20102	0.33966	0.098712	0.20946	0.27572	0.15454	0.24003	0.18885	0.31133	0.086162	0.31828	-1.8438	-3.1458	-2.7812	-2.8271	-3.1667	-2.5646	-3.1458	-3.3104	-2.4521	-3.2021	-3.0917	-2.6396	-3.275	-2.8812	-2.9	-3.1646	179.413	264.715	464.851	446.513	384.189	312.978	466.764	361.322	344.354	308.610	310.976	515.120	339.177	485.004	272.281	442.981	0.00025012	0.00019074	0.00016209	1010	1.6142e-06	2.7691e-06	1095.3	210.15	9.0894e-07	5.3739e-06	265.91	74.367	57.863	17.366	2.2034e-06	24.228	0.00030281	0.00030339	8.8909e-05	978.38	3.2728e-06	3.3596e-06	1066.2	207.7	3.3076e-06	3.3854e-06	262.71	75.271	59.144	18.158	3.4691e-06	25.128	202.040	488.046	214.118	175.685	291.334	254.691	175.680	183.114	255.740	225.168	182.661	189.241	189.450	197.415	432.989	196.433	-8191	255	
1046.237	1	1	0	0	0.18139	0.033275	0.2097	0.022581	0.16276	0.18355	0.32782	0.14953	0.042937	0.1122	0.040326	0.055073	0.067232	0.25969	0.20898	0.28311	-1.8521	-2.9729	-2.9917	-2.6875	-3.2062	-2.7396	-2.8771	-3.1833	-2.6063	-3.2271	-3.0104	-2.475	-3.2146	-2.7604	-2.65	-3.2313	192.294	220.592	426.178	280.359	274.514	208.014	181.454	395.953	493.265	167.407	450.333	220.772	238.336	293.915	165.543	168.924	0.00020388	0.00020098	3.4263e-05	1012.1	5.8044e-06	3.3836e-06	1096.3	210.67	1.1267e-06	1.4437e-06	266.61	74.821	58.031	17.495	2.6439e-07	24.213	0.00029658	0.00031173	8.707e-05	979.63	3.2161e-06	3.4242e-06	1065.4	207.96	3.2666e-06	3.439e-06	262.6	75.257	59.036	18.247	3.4017e-06	25.087	221.600	463.535	244.490	175.549	319.821	444.731	175.672	183.014	233.659	383.971	182.799	189.717	189.588	196.720	191.080	196.780	-8191	255	
1046.333	1	1	0	0	0.083845	0.20455	0.23579	0.1155	0.1718	0.16061	0.040445	0.2879	0.24349	0.15885	0.12115	0.29489	0.19321	0.21104	0.30405	0.097922	-2.2625	-3.0229	-3.0042	-2.5729	-3.1312	-2.9146	-2.7333	-3.2021	-2.5375	-2.975	-3.2479	-2.4625	-3.1396	-2.8583	-2.3563	-3.1333	520.478	499.202	304.684	446.589	442.113	325.141	166.185	483.032	300.170	524.272	337.199	411.921	166.542	432.502	521.560	375.416	0.00024176	0.00063772	0.00015359	1007.3	1.6316e-06	9.3891e-07	1098	210.78	4.3623e-06	2.169e-06	265.8	75.093	58.219	17.364	1.6026e-06	24.203	0.00029881	0.00032023	8.6347e-05	978.82	3.2601e-06	3.5183e-06	1067.7	207.91	3.3074e-06	3.5153e-06	261.99	75.249	59.235	18.269	3.3642e-06	25.043	193.626	248.081	220.474	175.754	324.790	522.894	175.535	183.401	308.509	247.682	182.967	189.253	189.951	197.160	248.138	196.109	-8191	255	
1046.405	1	1	0	0	0.16255	0.15883	0.11043	0.38116	0.23542	0.30284	0.38452	0.045219	0.21355	0.16986	0.19104	0.024073	0.11595	0.059133	0.29246	0.17951	-2.1917	-2.9208	-2.8917	-2.6583	-3.0875	-2.9104	-2.8354	-3.4229	-2.725	-2.7479	-3.1813	-2.7146	-2.9375	-3.0083	-2.6646	-3.1063	500.115	509.689	501.501	486.183	203.684	166.836	481.622	345.490	449.834	334.582	460.250	291.560	199.878	294.266	227.453	302.439	0.00032131	0.00046496	9.3993e-05	1010.2	5.6182e-06	1.2004e-06	1096.5	209.28	1.994e-06	4.1025e-06	265.62	74.827	58.554	17.29	2.3395e-06	24.204	0.00030542	0.0003227	8.502e-05	977.2	3.3365e-06	3.4913e-06	1065.6	207.5	3.3833e-06	3.5028e-06	261.01	75.084	59.563	18.234	3.3381e-06	25.095	224.756	353.949	430.873	175.521	192.367	346.375	175.679	183.011	286.277	286.255	182.639	189.092	189.685	197.891	314.529	196.503	-8191	255	
1046.501	1	1	0	0	0.21738	0.16468	0.16042	0.33725	0.15585	0.13957	0.35447	0.1733	0.1005	0.12087	0.20251	0.078349	0.065706	0.10742	0.051486	0.14906	-2.3563	-2.6208	-3.1667	-2.6583	-2.9854	-3.0521	-2.6521	-3.0042	-2.6896	-2.7021	-3.2938	-2.6875	-2.9375	-3.0312	-2.6625	-3.2333	345.474	427.965	343.911	421.340	274.774	220.155	471.147	398.884	460.781	335.174	438.723	315.304	200.224	399.798	198.259	208.322	0.00032165	0.00029122	0.0001707	1011.9	1.125e-06	7.4212e-06	1093.8	209.91	5.705e-06	2.1615e-06	265.97	74.652	58.15	17.37	3.7214e-07	24.483	0.00030996	0.00031501	8.3018e-05	978.6	3.4419e-06	3.4042e-06	1063	207.44	3.4768e-06	3.4328e-06	261.01	75.163	59.677	18.174	3.2863e-06	25.131	198.606	422.438	196.681	175.637	302.664	357.154	175.626	183.126	292.039	429.190	182.366	189.243	189.680	197.595	198.078	196.608	-8191	255	
1046.622	1	1	0	0	0.18991	0.15643	0.29629	0.18787	0.31508	0.023098	0.21907	0.061491	0.14092	0.34238	0.16548	0.16775	0.23809	0.15777	0.1508	0.12555	-2.4583	-2.8	-3.3333	-2.8521	-2.7938	-2.9958	-2.8125	-3.2021	-2.8771	-2.7375	-3.1021	-2.6854	-3.0146	-3.1208	-2.4313	-3.1229	418.463	392.360	471.451	304.855	499.947	522.339	431.841	501.594	242.053	405.676	169.730	292.748	435.096	475.010	502.090	502.589	0.00016635	0.00013507	0.00019452	1016.6	3.3402e-06	2.4269e-06	1093.8	210.17	1.3823e-06	1.101e-05	266.58	74.717	58.281	17.273	1.2706e-06	24.169	0.00031842	0.00031113	8.3403e-05	979.54	3.5028e-06	3.3941e-06	1064.6	208.09	3.5171e-06	3.3581e-06	261.16	75.478	59.677	18.144	3.2695e-06	25.218	187.719	180.331	247.870	175.660	231.439	493.861	175.547	183.101	360.537	288.645	182.548	189.046	189.938	197.454	328.343	196.516	-8191	255	
1046.716	1	1	0	0	0.066698	0.25487	0.12056	0.21999	0.18588	0.19499	0.18056	0.05515	0.24619	0.46038	0.2801	0.21251	0.29571	0.2386	0.14443	0.30328	-2.5146	-2.5271	-3.1896	-2.5708	-2.9125	-3.1063	-2.7812	-3.2021	-3.0167	-2.4313	-3.3	-2.6875	-2.7458	-3.0812	-2.4917	-3.0125	434.605	406.712	508.518	179.920	261.574	314.203	466.607	231.132	405.727	513.938	473.354	481.773	167.456	478.717	277.712	467.430	0.00023371	0.00059964	4.0027e-05	1010.8	2.819e-06	4.0322e-06	1097.3	210.29	5.205e-07	7.5385e-06	267.24	74.468	58.174	17.315	2.4024e-06	24.354	0.00031834	0.00030587	8.2083e-05	979.46	3.4877e-06	3.3261e-06	1064.5	208.47	3.4856e-06	3.3384e-06	261.51	75.643	59.567	18.095	3.2647e-06	25.284	187.456	291.064	208.042	175.508	314.526	460.488	175.462	183.212	327.458	289.367	183.328	189.126	190.172	197.340	415.804	196.668	-8191	255	
1046.812	1	1	0	0	0.15443	0.15529	0.05955	0.072744	0.29836	0.15302	0.1282	0.34419	0.071432	0.218	0.066303	0.33739	0.038522	0.22341	0.1346	0.18894	-2.5625	-2.3229	-3.1521	-2.675	-2.5375	-3.4208	-2.8438	-3.0042	-2.9813	-2.4792	-3.1854	-2.7542	-2.7125	-3.3083	-2.5792	-2.8979	382.334	413.700	217.192	518.387	496.064	315.823	440.236	510.489	444.751	215.902	217.089	395.521	329.347	227.944	300.851	251.403	0.00024376	0.00041934	8.2795e-05	1009.5	3.6864e-06	2.948e-06	1101.3	209.11	4.6188e-06	9.9321e-06	265.72	74.326	58.577	17.293	3.681e-06	24.466	0.00031174	0.00030335	8.1733e-05	979.35	3.4245e-06	3.2573e-06	1064.6	208.36	3.3605e-06	3.2824e-06	260.17	75.618	59.451	18.025	3.2783e-06	25.338	217.803	260.486	500.951	175.750	197.890	452.630	175.394	183.093	358.430	374.370	182.952	189.233	189.964	197.389	276.681	196.612	-8191	255	
1046.910	1	1	0	0	0.17678	0.25179	0.12139	0.13276	0.051953	0.23763	0.26061	0.19071	0.087924	0.23804	0.13163	0.45821	0.21176	0.12749	0.24981	0.21946	-2.4938	-2.4208	-3.05	-2.8833	-2.5708	-3.2104	-2.6458	-2.8083	-3.4938	-2.4521	-3.1104	-3.0812	-2.6604	-3.2104	-2.7521	-2.7917	368.149	236.157	508.384	227.895	428.458	384.923	465.266	203.834	289.905	355.708	492.974	466.827	221.894	180.399	269.195	260.466	0.00030875	0.00034168	0.00016224	1008.9	3.0619e-06	3.045e-06	1097.5	210.55	5.491e-06	3.2966e-06	267.3	74.384	58.224	17.323	5.5764e-06	24.185	0.00030566	0.00029892	8.3621e-05	979.95	3.312e-06	3.2261e-06	1065.2	208.92	3.3089e-06	3.2688e-06	261.96	75.536	59.299	17.996	3.3929e-06	25.274	180.596	348.017	499.874	175.728	360.454	373.059	175.832	182.885	283.236	199.973	182.747	189.125	189.806	197.393	215.318	196.617	-8191	255	
1047.004	1	1	0	0	0.22792	0.15221	0.12405	0.17785	0.13115	0.12105	0.11821	0.20754	0.22499	0.17652	0.1746	0.18671	0.28564	0.025904	0.016378	0.26692	-2.7313	-2.5104	-3.05	-3.0479	-2.4833	-3.2667	-2.7812	-2.6458	-3.3187	-2.675	-3.0438	-2.9167	-2.6604	-3.15	-2.6729	-2.7917	286.816	414.451	212.249	469.301	215.891	220.486	433.804	455.666	201.170	197.163	458.383	413.879	226.692	315.468	273.309	508.294	0.00022098	0.00046782	8.9253e-05	1010.9	1.5485e-06	5.0499e-06	1101.7	210.33	2.9346e-06	4.1195e-06	267.46	74.366	58.55	17.228	2.4584e-06	24.277	0.00030091	0.00029805	8.6364e-05	980.77	3.3142e-06	3.2377e-06	1066.7	208.93	3.2708e-06	3.2577e-06	262.36	75.407	59.306	18.023	3.5035e-06	25.223	215.604	186.141	390.887	175.680	376.515	357.173	175.442	182.854	381.397	321.781	182.822	189.722	189.736	196.971	241.847	196.589	-8191	255	
1047.101	1	1	0	0	0.052082	0.10369	0.07394	0.17638	0.14943	0.2273	0.14553	0.12248	0.10652	0.2037	0.061739	0.11296	0.17391	0.19505	0.19738	0.4192	-2.8396	-2.525	-3.0062	-3.0875	-2.5417	-3.075	-3.0458	-2.6562	-3.1396	-2.6521	-2.8667	-3.2292	-2.35	-3.0625	-2.8958	-2.6854	256.892	169.997	448.470	489.293	416.573	480.604	448.691	511.300	176.101	374.858	380.006	390.360	486.809	357.969	308.387	455.552	0.00023871	0.00024715	0.00018612	1010.1	2.8113e-06	4.2051e-06	1099.1	210.01	2.3957e-06	5.3639e-07	267.4	74.375	58.134	17.351	5.2484e-06	24.361	0.00029789	0.0003016	8.8486e-05	979.45	3.2853e-06	3.264e-06	1068	208.5	3.2635e-06	3.3194e-06	263.09	75.416	59.166	18.109	3.4974e-06	25.142	202.237	467.226	255.358	175.587	426.229	254.804	175.730	183.120	291.691	261.439	182.830	189.179	189.956	197.054	366.773	196.921	-8191	255	
1047.197	1	1	0	0	0.11537	0.14538	0.10041	0.11029	0.096141	0.26994	0.28722	0.030956	0.38657	0.17606	0.059092	0.22158	0.18516	0.21601	0.35859	0.11232	-2.7979	-2.5708	-2.6688	-3.0417	-2.5312	-3.125	-2.9437	-2.55	-3.3083	-2.8917	-2.9	-3.0917	-2.6167	-3.2417	-3.0042	-2.4917	439.100	342.079	286.542	230.465	214.624	293.551	480.912	174.455	232.947	217.648	282.259	384.960	460.529	468.856	403.991	337.277	0.00023913	0.00041984	2.7963e-05	1009.2	3.301e-06	2.5951e-06	1093.8	209.83	3.967e-06	9.3628e-07	267.98	74.612	58.169	17.272	3.1568e-06	24.299	0.00029543	0.00030712	8.8235e-05	977.41	3.2501e-06	3.3825e-06	1066.5	207.97	3.2264e-06	3.4222e-06	262.93	75.388	59.193	18.169	3.4571e-06	25.169	204.448	481.714	184.911	175.826	336.832	403.127	175.737	183.317	343.052	263.830	182.725	188.985	189.244	196.793	228.904	196.563	-8191	255	
1047.317	1	1	0	0	0.18652	0.2256	0.20731	0.15439	0.1529	0.14935	0.27017	0.12856	0.13755	0.15535	0.11768	0.019322	0.11797	0.28502	0.11853	0.22731	-2.7188	-2.5958	-2.6646	-3.2708	-2.4562	-2.9833	-3.1396	-2.6312	-3.2729	-2.8333	-2.8438	-3.1771	-2.5271	-3.0021	-3.1708	-2.4729	427.303	195.976	512.455	203.194	201.976	439.140	454.012	210.091	170.829	200.553	488.015	473.461	290.995	178.838	193.592	230.110	0.00015677	0.00028507	7.7687e-05	1010.4	3.7981e-07	2.9294e-06	1100.5	209.12	3.5405e-06	3.5396e-06	266.29	74.453	58.369	17.282	6.8733e-06	24.428	0.0002914	0.00031625	8.7575e-05	977.7	3.27e-06	3.468e-06	1068.3	207.46	3.2444e-06	3.4873e-06	262.53	75.016	59.362	18.199	3.3776e-06	25.177	202.707	334.390	260.979	175.907	236.085	271.515	175.836	182.801	258.006	200.790	182.829	189.529	189.898	197.433	331.554	196.231	-8191	255	
1047.413	1	1	0	0	0.16143	0.2056	0.019102	0.25203	0.13209	0.024782	0.20429	0.11218	0.071638	0.3645	0.089374	0.076311	0.12439	0.13251	0.15249	0.23727	-2.6562	-2.8042	-2.4854	-3.2042	-2.7146	-2.7417	-3.1521	-2.5875	-3.075	-2.9708	-2.5917	-3.1625	-2.6562	-2.7292	-3.1792	-2.6375	166.707	511.991	302.586	427.769	268.659	402.829	497.764	385.146	459.941	192.900	523.196	477.193	167.624	359.903	453.074	186.443	0.00037701	0.00039452	2.6667e-05	1009.1	4.5575e-06	6.1503e-06	1094.4	210.1	2.802e-06	2.3436e-06	265.99	74.807	58.319	17.37	4.8369e-06	24.171	0.00030119	0.0003224	8.5932e-05	978.73	3.343e-06	3.5203e-06	1065	207.48	3.3408e-06	3.4974e-06	261.84	75.223	59.411	18.262	3.3292e-06	25.116	199.953	312.745	394.250	175.562	334.681	314.547	175.683	183.180	323.325	337.769	182.725	189.004	189.934	196.867	314.262	196.711	-8191	255	
1047.510	1	1	0	0	0.018262	0.18564	0.2581	0.14137	0.15345	0.051404	0.064696	0.16993	0.096675	0.23597	0.13397	0.17908	0.27018	0.19244	0.041559	0.2369	-2.6792	-2.7854	-2.4979	-3.1917	-2.7292	-2.7687	-3.2333	-2.5333	-3.125	-3.1188	-2.5875	-3.2333	-2.8438	-2.6083	-3.1542	-2.6021	438.212	231.833	432.792	463.345	284.960	208.426	184.400	504.928	357.571	333.255	445.507	522.114	292.539	428.147	324.421	386.400	0.0003057	0.0002791	7.9166e-05	1014.1	6.8288e-06	1.1215e-06	1100.5	209.36	1.316e-06	5.9053e-06	265.67	74.447	58.474	17.233	5.1757e-06	24.41	0.00030819	0.00031734	8.4894e-05	978.38	3.4013e-06	3.5005e-06	1067.3	207.86	3.444e-06	3.4618e-06	260.89	74.996	59.696	18.159	3.306e-06	25.161	187.474	336.986	272.931	175.571	293.549	418.288	175.562	183.079	305.888	354.876	182.954	188.928	189.739	197.365	347.575	196.383	-8191	255	
1047.630	1	1	0	0	0.032562	0.20506	0.0033882	0.14635	0.16137	0.13538	0.17763	0.067528	0.15957	0.12094	0.028659	0.12846	0.12894	0.077309	0.36258	0.052552	-2.5	-2.9625	-2.3688	-3.2875	-2.6063	-2.6958	-3.3271	-2.4583	-2.8812	-3.0333	-2.4854	-3.2479	-2.8688	-2.7104	-3.1042	-2.5833	458.794	203.401	409.657	383.983	502.940	322.042	437.659	188.561	238.465	514.864	403.039	212.360	183.751	209.038	329.314	351.945	0.00022761	0.00059398	3.5515e-05	1015.4	5.1817e-06	4.4929e-06	1099	209.83	4.2247e-06	3.1172e-06	265.67	74.537	58.281	17.503	3.4395e-06	24.379	0.00031612	0.00031412	8.3408e-05	980.21	3.5047e-06	3.4295e-06	1066.8	208.04	3.5488e-06	3.3707e-06	261.07	75.264	59.686	18.218	3.2931e-06	25.206	194.507	308.264	332.990	175.651	176.005	348.179	175.857	183.130	224.208	171.644	182.785	189.158	189.674	197.352	230.353	196.515	-8191	255	
1047.700	1	1	0	0	0.052429	0.21493	0.13628	0.10732	0.058524	0.23241	0.17112	0.2507	0.11516	0.071542	0.12344	0.26889	0.13172	0.10714	0.069042	0.24007	-2.2875	-3.1479	-2.4583	-3.1229	-2.9	-2.4188	-3.3604	-2.7792	-2.7625	-3.2125	-2.625	-3.0604	-3.0062	-2.6292	-3.2521	-2.8542	171.085	454.758	450.382	241.853	185.146	396.196	417.675	438.321	491.515	245.160	500.399	242.665	332.370	489.208	439.368	174.713	0.00014608	0.00056789	0.00020238	1010.8	5.408e-06	3.3175e-06	1098	210.38	2.1416e-06	1.7319e-06	266.92	74.525	58.318	17.313	3.614e-06	24.293	0.000317	0.00030617	8.363e-05	979.97	3.5385e-06	3.3848e-06	1067.5	208.36	3.5223e-06	3.3466e-06	261.6	75.355	59.848	18.124	3.2484e-06	25.246	180.791	308.991	182.938	175.758	248.550	295.058	175.650	182.893	321.025	328.815	182.896	189.120	189.444	197.019	411.224	196.441	-8191	255	
1047.798	1	1	0	0	0.23802	0.065486	0.31492	0.2426	0.1149	0.15912	0.26033	0.1942	0.085088	0.17149	0.29992	0.033049	0.18388	0.13218	0.133	0.090493	-2.3375	-3.1312	-2.4875	-3.0729	-3.0479	-2.4271	-3.3292	-2.8354	-2.6833	-3.3125	-2.6104	-3.0187	-3.1083	-2.6229	-3.0438	-2.9125	499.078	230.391	353.653	468.996	422.936	291.459	457.117	499.991	187.148	464.788	493.802	222.565	177.647	168.233	333.236	398.548	0.00017092	0.00026867	5.3421e-05	1013	4.0713e-06	4.0656e-06	1097.4	209.58	5.0964e-06	1.1041e-06	266.93	74.414	58.456	17.342	2.8607e-06	24.263	0.00031366	0.00030183	8.3363e-05	983.45	3.4457e-06	3.3027e-06	1066.5	208.76	3.4418e-06	3.3031e-06	261.8	75.665	59.625	18.07	3.27e-06	25.336	212.317	344.126	244.567	175.823	378.495	295.241	175.749	183.033	307.392	375.931	182.770	189.204	189.685	197.054	360.234	196.847	-8191	255	
1047.917	1	1	0	0	0.13984	0.13406	0.13507	0.35257	0.17319	0.12213	0.11513	0.068173	0.19326	0.061538	0.10118	0.31905	0.08933	0.097118	0.1032	0.13747	-2.1792	-3.1708	-2.6125	-2.875	-3.1146	-2.4667	-3.1708	-3.0396	-2.5667	-3.3021	-2.5854	-2.9083	-3.2979	-2.5896	-3.0146	-2.9417	293.842	426.422	404.177	269.959	384.553	303.427	397.592	351.967	210.415	220.337	374.230	341.846	504.457	197.378	271.527	455.682	0.00018737	0.00049681	6.7962e-05	1011.2	1.5494e-06	7.9783e-06	1102.9	210.19	2.5839e-06	4.6625e-06	267.14	74.806	58.274	17.199	2.5972e-06	24.343	0.00030768	0.00029774	8.4469e-05	984.9	3.4028e-06	3.3199e-06	1069.1	209.17	3.3879e-06	3.2833e-06	262.14	75.956	59.591	18.097	3.3775e-06	25.371	219.903	449.283	300.880	175.631	383.386	298.560	175.620	183.351	301.869	331.714	182.992	189.076	189.955	197.295	229.388	196.817	-8191	255	
1048.013	1	1	0	0	0.26022	0.23549	0.12526	0.53115	0.16504	0.093906	0.18794	0.11999	0.083864	0.1288	0.067152	0.20945	0.066865	0.22306	0.192	0.1211	-2.0812	-3.1063	-2.5812	-2.8937	-3.225	-2.5042	-3.0458	-2.8812	-2.5187	-3.1375	-2.6625	-2.6125	-3.2917	-2.5312	-3.0354	-2.9188	305.780	404.672	214.132	519.157	194.541	271.836	439.790	372.022	290.473	237.299	174.290	165.750	324.586	312.464	220.003	427.827	0.00029934	0.00047898	0.00013772	1019	1.4745e-06	5.234e-06	1103.5	208.51	4.577e-06	3.5971e-06	267.14	75.289	58.591	17.442	2.4929e-06	24.373	0.00030753	0.00029645	8.708e-05	987.55	3.3525e-06	3.299e-06	1071.9	208.66	3.3288e-06	3.2785e-06	263.24	76.061	59.617	18.195	3.4764e-06	25.387	190.203	343.164	256.683	175.864	234.758	320.462	175.516	183.206	358.195	334.149	182.756	189.391	189.463	196.956	236.059	196.730	-8191	255	
1048.109	1	1	0	0	0.25232	0.059361	0.23823	0.25971	0.17102	0.12008	0.30454	0.061111	0.1565	0.050548	0.054876	0.17634	0.17192	0.087638	0.16654	0.10356	-2.0771	-3.1042	-2.8333	-2.825	-3.2562	-2.5833	-3.0021	-3.1646	-2.4479	-3.2687	-3.0729	-2.5687	-3.1	-2.5375	-2.8917	-3.2125	207.504	181.689	356.044	172.899	206.759	296.837	447.074	407.929	296.123	521.076	286.197	481.680	331.552	276.727	363.277	383.614	0.00014638	0.00029758	0.0001212	1017.1	2.5548e-06	1.2022e-06	1104.7	210.53	2.2691e-06	3.0737e-06	266.41	74.648	58.47	17.2	4.3507e-06	24.534	0.00030294	0.00029847	8.8797e-05	984.67	3.297e-06	3.3126e-06	1073	208.9	3.3326e-06	3.2883e-06	263.23	75.61	59.464	18.128	3.5149e-06	25.353	196.043	269.784	439.892	175.707	358.968	467.034	175.686	183.199	446.181	238.192	182.685	189.182	189.658	197.389	249.978	196.306	-8191	255	
1048.205	1	1	0	0	0.073038	0.16721	0.15222	0.087561	0.32529	0.32155	0.15439	0.20022	0.24689	0.024174	0.19907	0.43615	0.14642	0.033003	0.2968	0.13901	-1.9208	-3.0375	-2.8479	-2.8042	-3.3479	-2.5354	-3.0167	-3.2188	-2.35	-3.1958	-3.0604	-2.5646	-3.3979	-2.6937	-2.8438	-3.0417	482.071	458.646	279.092	366.832	443.868	401.324	392.492	479.495	317.208	263.559	466.502	186.007	395.906	336.919	258.755	274.067	0.00023268	0.00033863	7.783e-05	1015.6	1.1004e-06	4.9695e-06	1107.4	209.92	1.3722e-06	1.6658e-06	266.44	74.798	58.498	17.424	2.9738e-06	24.445	0.00030287	0.00030713	8.9906e-05	983.13	3.3011e-06	3.3909e-06	1074	208.47	3.3241e-06	3.4179e-06	263.42	75.662	59.481	18.256	3.5593e-06	25.3	207.633	485.850	169.525	175.366	500.154	296.668	175.828	183.025	517.245	205.959	182.773	189.322	189.907	197.531	336.497	196.296	-8191	255	
1048.302	1	1	0	0	0.064331	0.18817	0.17096	0.30763	0.15116	0.20941	0.18393	0.13231	0.26397	0.10025	0.33236	0.24599	0.11994	0.17305	0.14401	0.19015	-2.0292	-3.0708	-2.975	-2.6146	-3.2188	-2.6979	-2.7542	-3.1271	-2.7208	-3.0208	-3.1063	-2.7333	-3.0938	-2.775	-2.725	-3.2	390.145	175.040	388.510	206.979	524.008	228.204	172.798	443.581	256.630	375.467	468.494	300.263	512.614	491.379	457.596	201.111	0.00014684	0.00040914	7.4002e-05	1018.7	2.3466e-07	7.4335e-06	1104.3	210.67	3.3056e-06	1.3598e-06	265.66	74.77	58.67	17.204	7.2746e-07	24.264	0.00030249	0.00032074	8.9919e-05	987.35	3.3136e-06	3.5424e-06	1074.4	208.92	3.3316e-06	3.5423e-06	263.63	75.658	59.647	18.322	3.4894e-06	25.213	190.710	187.348	308.487	175.889	378.066	308.126	175.688	183.069	275.247	344.728	182.440	189.368	189.735	197.131	358.217	196.786	-8191	255	
1048.398	1	1	0	0	0.13996	0.27454	0.11138	0.29318	0.22886	0.065074	0.21221	0.18781	0.036205	0.10808	0.081328	0.14305	0.12808	0.2201	0.07696	0.12665	-2.15	-2.9333	-2.9938	-2.6958	-3.0521	-2.775	-2.7229	-3.4354	-2.5854	-2.9479	-3.2042	-2.5896	-3.1583	-2.9854	-2.5417	-3.3896	475.164	297.003	419.912	463.966	257.861	391.622	519.959	428.215	445.342	386.405	516.511	268.708	294.945	453.424	175.256	398.922	0.00019998	0.00019682	0.00013768	1021.5	2.9978e-06	1.6222e-06	1106.4	210.07	2.6716e-06	6.0665e-06	267.99	74.696	58.371	17.374	4.1163e-06	24.358	0.00030657	0.00032861	8.9104e-05	988.39	3.3388e-06	3.5948e-06	1074.5	208.54	3.3971e-06	3.5902e-06	263.1	75.565	59.726	18.396	3.4397e-06	25.18	193.678	342.751	451.784	175.875	298.954	482.086	175.510	182.918	240.778	328.415	183.218	189.482	189.745	197.232	290.366	196.759	-8191	255	
1048.494	1	1	0	0	0.15399	0.22523	0.16443	0.1554	0.11776	0.16056	0.099425	0.12732	0.13071	0.15344	0.083195	0.13564	0.12358	0.094701	0.062377	0.142	-2.2271	-2.7667	-3.0604	-2.7188	-2.9896	-2.8812	-2.6625	-3.425	-2.6833	-2.8542	-3.0875	-2.6646	-3.1104	-3.0104	-2.45	-3.2521	423.488	385.392	374.904	246.793	492.442	241.190	411.543	508.075	227.878	412.717	359.515	319.746	276.827	510.544	228.209	178.927	0.00025089	0.0002656	0.00018552	1023.5	5.8644e-06	2.3556e-06	1107.2	211.27	1.3405e-06	2.6057e-06	266.95	75.262	58.759	17.455	6.0329e-06	24.449	0.00031325	0.00032772	8.6557e-05	986.83	3.4522e-06	3.5883e-06	1073.9	208.74	3.4842e-06	3.5715e-06	262.63	75.622	59.955	18.358	3.3614e-06	25.229	194.175	211.761	289.473	175.785	338.735	241.652	175.657	183.126	434.440	379.673	182.785	189.367	189.826	197.391	327.508	196.735	-8191	255	
1048.590	1	1	0	0	0.19712	0.024842	0.23699	0.13904	0.44505	0.01328	0.29746	0.073802	0.11991	0.24148	0.030268	0.13325	0.23901	0.13494	0.14663	0.30464	-2.3812	-2.8604	-3.2208	-2.5646	-2.95	-3.1875	-2.6188	-3.3333	-2.7917	-2.8521	-3.3333	-2.6188	-3.1208	-3.1417	-2.3792	-3.0625	390.317	396.664	203.706	249.182	465.219	428.603	456.257	186.182	502.144	230.600	241.070	490.058	260.604	439.086	310.486	394.153	0.00027143	0.00030981	4.7818e-05	1018.8	7.4001e-07	2.719e-06	1105.7	210.08	5.7966e-06	5.5064e-06	268.06	75.142	58.667	17.367	5.409e-06	24.423	0.00032045	0.00032342	8.5842e-05	986.16	3.5207e-06	3.5004e-06	1073.4	208.45	3.5585e-06	3.488e-06	262.25	75.611	60.134	18.275	3.3448e-06	25.219	203.945	255.058	330.361	175.657	423.224	193.226	175.610	183.266	253.980	251.844	182.770	189.036	189.605	197.526	283.337	196.012	-8191	255	
1048.709	1	1	0	0	0.32417	0.020913	0.14766	0.4085	0.18574	0.098263	0.40702	0.21014	0.09725	0.25602	0.32677	0.071162	0.15521	0.12122	0.069653	0.12937	-2.4562	-2.4813	-3.2396	-2.6688	-2.7562	-3.1667	-2.5021	-3.2354	-2.7542	-2.625	-3.2708	-2.8	-2.7833	-3.0438	-2.5625	-3.0583	194.292	364.167	391.314	508.673	458.403	332.108	502.039	371.083	327.331	317.332	486.973	315.156	284.625	238.619	429.519	492.842	0.00025895	0.00010241	0.00012431	1021.1	1.6845e-06	9.2179e-07	1101.5	211.18	2.6107e-06	9.5031e-06	268.21	74.854	58.591	17.416	4.1167e-06	24.498	0.00032187	0.00031489	8.4128e-05	987.39	3.5844e-06	3.4121e-06	1072.1	209.31	3.5765e-06	3.4274e-06	262.47	75.711	60.054	18.241	3.3061e-06	25.348	179.922	367.666	232.546	175.845	454.764	182.836	175.598	182.961	285.571	268.476	182.730	189.126	189.821	196.823	328.388	196.507	-8191	255	
1048.805	1	1	0	0	0.19312	0.19279	0.13988	0.12748	0.097731	0.15043	0.61174	0.099959	0.1872	0.17535	0.23897	0.20075	0.12888	0.27229	0.30254	0.040003	-2.5729	-2.5938	-3.2542	-2.8063	-2.8104	-3.1375	-2.6979	-3.1312	-2.9313	-2.5625	-3.1792	-2.7917	-2.8896	-3.2854	-2.5833	-2.9667	192.496	385.525	328.194	260.484	218.151	323.201	425.939	233.932	287.089	342.999	488.261	481.081	223.339	511.757	187.436	425.691	0.00026748	0.00060894	0.00022846	1019.4	5.7098e-06	4.2533e-06	1108.8	211.63	4.0533e-06	4.6578e-06	268.23	75.537	58.518	17.343	3.3504e-06	24.269	0.00032055	0.00030926	8.351e-05	987.92	3.497e-06	3.3441e-06	1072.9	210	3.4995e-06	3.3837e-06	261.97	76.253	60	18.199	3.3128e-06	25.343	218.479	265.327	521.407	175.536	214.967	297.673	175.427	183.234	343.177	337.374	183.114	189.300	190.013	197.125	371.448	196.200	-8191	255	
1048.901	1	1	0	0	0.20936	0.096404	0.0063471	0.28905	0.11546	0.26869	0.17419	0.1677	0.034483	0.22797	0.22162	0.14579	0.11319	0.25662	0.18636	0.12666	-2.4521	-2.5187	-3.2583	-2.9	-2.7792	-3.2458	-2.8375	-2.8563	-3.0917	-2.6042	-3.2771	-2.925	-2.7042	-3.3625	-2.7854	-3.0708	459.833	285.557	432.840	185.989	327.728	331.426	499.251	402.590	234.287	230.598	465.368	417.469	455.772	294.380	234.251	502.353	0.00023694	0.00037466	1.2296e-05	1015.6	1.7461e-06	5.7137e-06	1101.8	211.11	2.2665e-06	8.5663e-06	267.43	74.624	58.647	17.307	1.5094e-06	24.488	0.00031806	0.00030575	8.3527e-05	987.05	3.4433e-06	3.296e-06	1071	210.21	3.4533e-06	3.3353e-06	262.62	76.109	59.845	18.141	3.4117e-06	25.471	207.367	244.127	456.219	175.810	399.571	366.596	175.666	183.102	244.283	346.665	182.777	189.403	189.656	196.992	314.957	196.730	-8191	255	
1048.997	1	1	0	0	0.28743	0.23574	0.12129	0.07302	0.20071	0.052489	0.18722	0.28326	0.14551	0.087025	0.10873	0.17699	0.11956	0.16802	0.12584	0.17515	-2.6146	-2.4062	-3.0875	-3.0125	-2.6333	-3.2854	-2.7854	-2.8229	-3.1792	-2.8083	-3.0479	-3.0896	-2.6958	-3.35	-2.6667	-2.8417	246.502	511.249	493.901	480.872	378.625	355.733	442.832	488.427	239.941	389.349	514.291	203.737	360.356	288.245	178.260	481.206	0.00026495	0.00013862	6.158e-05	1018	1.9576e-06	3.8738e-06	1109.4	211.01	2.2396e-06	2.7149e-06	267.47	74.652	58.409	17.508	7.3035e-06	24.523	0.00031046	0.00030493	8.6556e-05	989.05	3.3996e-06	3.3077e-06	1076.5	210.02	3.4044e-06	3.3499e-06	263.64	76.101	59.579	18.238	3.5247e-06	25.478	205.034	287.985	402.188	175.473	309.321	298.686	175.542	183.162	285.419	181.599	182.910	189.346	190.096	197.117	262.851	196.601	-8191	255	
1049.093	1	1	0	0	0.22237	0.080389	0.15206	0.21958	0.093917	0.16192	0.17419	0.19764	0.1842	0.13062	0.1472	0.20879	0.2246	0.18657	0.065485	0.085756	-2.8563	-2.3396	-3.0083	-3.1917	-2.5875	-3.1875	-2.9188	-2.6542	-3.0917	-2.525	-3.1312	-2.9292	-2.4417	-2.9979	-2.9771	-2.7313	517.604	438.618	224.366	498.233	263.395	403.093	445.582	196.136	506.585	323.984	384.387	485.250	183.602	400.872	344.089	442.929	0.00020353	0.00072745	4.4073e-05	1022.7	1.9876e-06	1.1483e-06	1111	211.1	3.9002e-06	9.808e-06	266.63	75.209	58.725	17.34	2.2373e-06	24.368	0.00030844	0.00030439	8.9408e-05	991.83	3.3884e-06	3.3013e-06	1076.8	209.76	3.3664e-06	3.3499e-06	263.89	76.02	59.695	18.209	3.5618e-06	25.416	214.522	489.384	492.061	175.398	254.089	267.262	175.655	183.113	355.774	325.393	182.951	189.295	189.960	197.308	319.275	197.082	-8191	255	
1049.190	1	1	0	0	0.16526	0.21843	0.030936	0.34098	0.15972	0.16453	0.2733	0.032909	0.1439	0.10018	0.078748	0.07781	0.16727	0.19179	0.10601	0.028767	-2.7917	-2.6	-2.8312	-3.3312	-2.5604	-3.1833	-3.075	-2.6312	-3.2792	-2.6854	-2.9604	-3.3292	-2.3958	-2.9583	-2.8083	-2.4813	393.532	426.782	278.605	285.678	177.282	429.980	428.880	281.901	346.843	504.039	270.186	189.403	487.973	222.672	507.098	415.139	0.00024463	0.00039483	0.00012189	1022.2	3.4744e-06	5.854e-06	1104.8	210.44	1.8814e-06	1.7184e-06	267.25	74.5	58.514	17.264	1.3398e-06	24.239	0.00030265	0.00030974	9.0263e-05	988.53	3.3371e-06	3.3738e-06	1077.4	209.53	3.3481e-06	3.4236e-06	265.26	75.626	59.566	18.23	3.5736e-06	25.264	203.936	196.345	246.378	175.761	426.296	502.493	175.280	183.207	222.692	458.564	183.045	189.214	190.035	197.401	264.785	196.865	-8191	255	
1049.310	1	1	0	0	0.22309	0.10863	0.18593	0.26267	0.14201	0.23844	0.15506	0.36321	0.18262	0.15485	0.19244	0.094939	0.23843	0.033646	0.24196	0.19303	-2.8042	-2.6688	-2.6771	-3.2687	-2.4167	-3.0125	-3.125	-2.6375	-3.0375	-2.8333	-2.9375	-3.2292	-2.6125	-2.9458	-3.175	-2.6542	223.317	426.239	445.437	454.207	261.638	447.579	444.798	465.348	307.548	356.231	427.754	417.122	365.133	171.281	370.348	470.256	0.00024801	0.00073094	0.00011042	1014.2	7.1662e-06	2.3186e-06	1109.5	211.97	2.5048e-06	4.4233e-06	267.92	75.015	58.373	17.382	3.7677e-06	24.225	0.00030199	0.00031541	9.0837e-05	986.66	3.3375e-06	3.4721e-06	1077	209.47	3.2765e-06	3.5225e-06	263.89	75.516	59.608	18.309	3.5004e-06	25.285	217.081	357.529	512.628	175.735	315.467	344.039	175.384	183.075	310.987	216.585	182.753	189.136	190.099	196.994	355.729	196.269	-8191	255	
1049.406	1	1	0	0	0.20802	0.090803	0.46906	0.15508	0.15699	0.094734	0.16128	0.14656	0.088353	0.055509	0.19396	0.06863	0.30003	0.14009	0.16077	0.40773	-2.8833	-2.75	-2.7854	-3.1792	-2.4417	-3.1562	-3.15	-2.5917	-3.2896	-2.6896	-2.7896	-3.3312	-2.8521	-2.9417	-3.2729	-2.4333	387.655	226.044	212.996	393.609	433.723	363.414	472.967	429.620	407.960	429.011	469.615	422.899	512.388	269.045	287.770	452.196	0.00031164	0.00053356	7.0323e-05	1021.2	2.0551e-06	2.4219e-06	1102.8	209.29	2.4903e-06	8.7054e-06	268.45	75.316	58.563	17.38	4.189e-06	24.539	0.00030116	0.00032478	8.944e-05	987	3.3455e-06	3.5703e-06	1074.7	208.46	3.3045e-06	3.5712e-06	264.4	75.562	59.736	18.389	3.4423e-06	25.264	189.242	186.743	205.783	175.794	405.095	229.664	175.552	183.047	403.560	249.608	182.839	189.205	189.629	197.446	300.075	196.379	-8191	255	
1049.503	1	1	0	0	0.090219	0.24421	0.19768	0.11065	0.18215	0.14154	0.19364	0.1928	0.12702	0.13166	0.17502	0.06242	0.3233	0.071682	0.04013	0.18408	-2.6312	-3.0625	-2.6562	-3.4646	-2.6792	-2.9229	-3.4021	-2.7292	-3.1104	-2.9958	-2.5583	-3.2188	-2.7958	-2.8167	-3.2292	-2.4354	308.269	383.602	187.577	448.889	401.267	238.899	501.365	430.893	281.898	432.606	510.752	422.113	485.727	218.797	187.679	489.465	0.00025062	0.00060314	0.00013407	1016.2	3.548e-06	3.7571e-06	1107.6	211.1	6.2335e-07	5.3152e-06	267.7	75.216	58.571	17.417	5.556e-06	24.613	0.00030529	0.00032981	8.7141e-05	986.19	3.4245e-06	3.5629e-06	1074.5	209.16	3.4063e-06	3.544e-06	263.46	75.655	59.854	18.399	3.3371e-06	25.246	186.706	494.089	211.753	175.623	313.098	313.644	175.583	183.444	489.292	332.695	182.626	189.231	189.627	197.223	352.359	196.759	-8191	255	
1049.599	1	1	0	0	0.096483	0.12522	0.11957	0.32728	0.21628	0.25001	0.16348	0.065236	0.15259	0.1984	0.10898	0.11211	0.30705	0.069346	0.19746	0.26828	-2.6583	-3.1188	-2.5167	-3.3	-2.7354	-2.8375	-3.1937	-2.6042	-2.9708	-3.1146	-2.6937	-3.3417	-2.95	-2.725	-3.2875	-2.6	497.415	337.769	222.969	178.702	498.990	432.319	446.200	171.877	503.218	236.672	349.944	233.994	330.634	286.257	178.189	365.263	0.00029904	0.00024355	0.00014331	1017.4	1.8009e-06	1.449e-06	1106.6	211.09	1.9703e-06	6.7977e-06	267.81	75.143	58.251	17.405	6.3334e-06	24.572	0.00031618	0.00032285	8.5212e-05	985.14	3.4924e-06	3.513e-06	1072.9	208.83	3.5234e-06	3.4827e-06	263.4	75.578	59.898	18.312	3.3189e-06	25.203	210.774	271.696	267.860	175.788	285.957	197.926	175.453	182.885	271.625	289.489	182.421	189.471	189.406	197.371	347.792	197.039	-8191	255	
1049.693	1	1	0	0	0.24829	0.15155	0.11367	0.37542	0.31835	0.20195	0.17347	0.20341	0.139	0.085846	0.27389	0.13636	0.085752	0.18996	0.14001	0.14518	-2.4688	-3.0729	-2.525	-3.1042	-2.9958	-2.675	-3.5604	-2.7396	-2.9625	-3.1354	-2.5708	-3.3125	-2.8229	-2.5417	-3.2938	-2.5792	237.478	513.810	508.342	501.563	463.403	175.954	426.764	485.448	291.407	484.549	170.183	223.204	286.015	475.136	427.635	352.135	0.00033861	0.00019252	6.2934e-05	1018.3	1.2709e-06	3.9732e-06	1106.6	209.6	5.2248e-06	1.313e-06	265.87	74.594	58.703	17.406	6.2325e-06	24.344	0.00032168	0.00031496	8.5321e-05	986.29	3.5501e-06	3.4545e-06	1072	208.81	3.5895e-06	3.3903e-06	262.64	75.507	60.112	18.239	3.3223e-06	25.296	184.084	358.230	508.425	175.600	313.967	463.169	175.723	182.888	319.365	284.425	182.812	189.571	189.763	197.129	275.455	196.646	-8191	255	
1049.789	1	1	0	0	0.2705	0.12624	0.071507	0.32913	0.079751	0.23368	0.32563	0.10317	0.15923	0.068406	0.20129	0.16161	0.12305	0.16965	0.025993	0.22213	-2.5875	-3.2	-2.3979	-3.2125	-2.8229	-2.4313	-3.0792	-2.7708	-2.7271	-3.2958	-2.5	-3.0083	-3.0333	-2.5479	-3.3146	-2.775	476.091	515.831	180.139	482.524	197.569	293.034	463.199	204.243	438.849	485.208	242.487	390.987	449.155	446.796	369.851	172.508	0.00013037	0.00027507	0.00012896	1018.3	3.5019e-06	4.2458e-06	1104.1	212.09	5.6739e-06	3.0381e-06	267.61	74.309	58.623	17.366	2.6774e-06	24.494	0.00032519	0.0003121	8.4369e-05	988.77	3.5718e-06	3.404e-06	1071.7	210.17	3.5426e-06	3.3617e-06	263.58	76.048	60.012	18.257	3.3108e-06	25.442	185.748	306.247	195.471	175.540	324.938	357.144	175.603	183.032	261.060	340.557	183.019	189.293	189.435	197.211	357.381	196.584	-8191	255	
1049.885	1	1	0	0	0.31142	0.11502	0.20561	0.23211	0.40246	0.097305	0.13249	0.13209	0.20356	0.077083	0.13999	0.09453	0.15135	0.33844	0.15008	0.043297	-2.3688	-3.1771	-2.5583	-3.2354	-3.0271	-2.4604	-3.4896	-2.8646	-2.7438	-3.2375	-2.6896	-2.9813	-3.1833	-2.3979	-3.1792	-2.8771	244.240	323.111	248.069	493.000	193.569	239.511	414.341	427.164	497.639	287.482	382.243	414.552	432.534	169.576	464.243	391.411	0.00029287	0.0007224	0.00020619	1019.3	1.4556e-06	5.2794e-06	1103.7	211.98	3.2734e-06	1.8297e-06	266.35	74.934	58.406	17.293	3.766e-06	24.267	0.00032241	0.00030997	8.5536e-05	988.42	3.5019e-06	3.3985e-06	1071.8	209.89	3.4953e-06	3.323e-06	262.91	76.145	59.769	18.198	3.3609e-06	25.446	212.063	342.526	172.350	175.793	312.891	504.039	175.556	183.258	483.597	281.467	182.982	188.792	189.705	197.164	171.266	196.624	-8191	255	
1050.006	1	1	0	0	0.23731	0.27385	0.23079	0.036723	0.12059	0.20247	0.23145	0.34941	0.2388	0.38034	0.16116	0.11082	0.10019	0.18364	0.20423	0.055131	-2.1167	-3.2896	-2.7208	-2.8583	-3.1417	-2.4917	-3.3083	-3.1396	-2.5667	-3.2417	-2.8146	-3.0292	-3.3542	-2.5271	-3.0812	-2.8979	354.364	300.085	225.984	263.279	243.935	328.402	381.393	493.293	306.012	203.920	417.473	394.322	505.833	182.913	253.582	309.249	0.00022739	0.00043048	9.5983e-05	1016.6	2.9059e-06	3.6961e-06	1108.7	210.96	3.2398e-06	2.8446e-06	266.59	75.439	58.395	17.478	6.3811e-06	24.326	0.00031191	0.00030439	8.5915e-05	989.3	3.3972e-06	3.3363e-06	1073.5	209.98	3.4192e-06	3.3144e-06	263.35	76.264	59.492	18.177	3.4232e-06	25.433	206.360	255.292	236.510	175.594	369.793	304.333	175.396	182.812	287.939	326.369	182.837	189.373	189.574	197.298	523.450	196.917	-8191	255	
1050.102	1	1	0	0	0.15097	0.29035	0.19098	0.063986	0.1076	0.15367	0.15302	0.28666	0.055329	0.10374	0.21266	0.034527	0.33395	0.26158	0.16333	0.10378	-2.1688	-3.2146	-2.5812	-2.8104	-3.1333	-2.5438	-3.2792	-2.9896	-2.375	-3.1958	-2.8208	-2.7	-3.1646	-2.5667	-3.0312	-3.0792	447.551	347.805	463.595	204.544	275.066	230.008	355.220	452.881	251.845	482.764	206.582	282.612	376.012	320.449	249.828	188.464	0.00020664	0.00030658	8.311e-05	1020.9	1.4969e-06	2.1796e-06	1106.1	211.24	3.877e-06	4.5392e-06	266.42	74.871	58.682	17.359	2.3139e-06	24.597	0.00030896	0.0003005	8.8115e-05	988.76	3.3646e-06	3.3213e-06	1075.4	209.82	3.3969e-06	3.2969e-06	263.94	75.947	59.693	18.228	3.5051e-06	25.463	208.967	470.315	452.895	175.686	492.131	338.255	175.633	183.025	336.585	207.943	182.516	189.571	190.136	196.934	432.446	196.228	-8191	255	
1050.174	1	1	0	0	0.1149	0.24786	0.21233	0.15969	0.057535	0.022614	0.23187	0.11157	0.20905	0.16045	0.10783	0.014768	0.25665	0.13209	0.11514	0.11206	-2.0917	-3.2021	-2.7708	-2.7271	-3.1792	-2.4021	-3.1583	-3.2125	-2.5958	-3.1604	-2.8875	-2.775	-3.3917	-2.7667	-2.9	-3.1708	431.027	253.416	187.544	470.048	198.628	186.057	396.033	420.836	378.132	295.893	332.675	404.195	228.855	175.098	283.907	413.902	0.00022314	4.8929e-05	0.00014591	1017.3	3.8786e-06	1.7551e-06	1106.5	210.93	4.804e-06	3.3813e-06	267.23	74.63	58.483	17.356	4.3057e-06	24.357	0.00030547	0.00030089	9.0225e-05	988.25	3.3134e-06	3.3291e-06	1076	209.3	3.3433e-06	3.3345e-06	263.92	75.88	59.528	18.232	3.5736e-06	25.284	212.736	381.853	424.380	175.393	448.091	277.682	175.653	182.925	302.113	424.594	182.963	189.333	189.927	197.491	322.438	196.737	-8191	255	
1050.270	1	1	0	0	0.28325	0.061472	0.16572	0.28494	0.10658	0.047085	0.17462	0.12497	0.086707	0.17644	0.19259	0.16349	0.22719	0.17998	0.088691	0.23145	-2.2583	-3.1604	-3.0167	-2.6813	-3.2854	-2.6104	-3.1771	-3.1063	-2.4646	-3.0646	-2.9417	-2.5875	-3.2812	-2.8604	-2.6458	-3.0708	496.819	170.657	234.461	363.249	242.363	491.198	416.936	501.153	406.497	507.639	485.797	317.627	169.498	447.971	385.011	491.160	0.00022995	0.0001543	0.00013564	1023.1	4.0389e-06	3.6801e-06	1106	210.59	2.1255e-06	4.6632e-06	267.09	74.55	58.808	17.352	2.3464e-06	24.331	0.00030426	0.00030833	8.9511e-05	988.01	3.258e-06	3.3935e-06	1074.8	208.71	3.2731e-06	3.4118e-06	264.01	75.464	59.545	18.268	3.5106e-06	25.279	192.261	235.867	239.208	175.720	299.502	277.848	175.820	182.978	467.340	226.138	182.737	189.070	189.804	196.679	281.434	196.437	-8191	255	
#DATA ENDS
