BOXY.EXE: ISS Imagent and Oximeter Data Acquisition Program Version 0.80
Ascii Record File

#ACQ INFORMATION
2  Detector Channels 
16  External MUX Channels 
1  Auxiliary Channels 
5000  Waveform (CCF) Frequency (Hz)
1  Waveforms Skipped 
30  Waveforms Averaged 
1  Cycles Averaged 
16  Acquisitions per Waveform 
10.0806  Updata Rate (Hz) 

#FILE INFORMATION
TRUE -- External MUX Channel results are PARSED.
FALSE -- AC DC and Phase are NOT grouped.
TRUE -- Companion Program Settings File CREATED.
FALSE -- AC data not excluded
FALSE -- DC data not excluded
FALSE -- Phase data not excluded
FALSE -- Auxillary Chn. data not excluded
Tab delimiters

#CALIBRATION STATE
TRUE -- Waveform Calibration Values APPLIED.


#AUX CALIBRATION VALUES
Val Type	aux-1	

Term	1.0000e+00	
Factor	0.0000e+00	


#WF CALIBRATION VALUES
A = Detector Channel
Val Type	A-AC1	A-AC2	A-AC3	A-AC4	A-AC5	A-AC6	A-AC7	A-AC8	A-AC9	A-AC10	A-AC11	A-AC12	A-AC13	A-AC14	A-AC15	A-AC16	A-DC1	A-DC2	A-DC3	A-DC4	A-DC5	A-DC6	A-DC7	A-DC8	A-DC9	A-DC10	A-DC11	A-DC12	A-DC13	A-DC14	A-DC15	A-DC16	A-Ph1	A-Ph2	A-Ph3	A-Ph4	A-Ph5	A-Ph6	A-Ph7	A-Ph8	A-Ph9	A-Ph10	A-Ph11	A-Ph12	A-Ph13	A-Ph14	A-Ph15	A-Ph16	

Term	0.00000e+00	0.00000e+00	0.00000e+00	0.00000e+00	0.00000e+00	0.00000e+00	0.00000e+00	0.00000e+00	0.00000e+00	0.00000e+00	0.00000e+00	0.00000e+00	0.00000e+00	0.00000e+00	0.00000e+00	0.00000e+00	0.00000e+00	0.00000e+00	0.00000e+00	0.00000e+00	0.00000e+00	0.00000e+00	0.00000e+00	0.00000e+00	0.00000e+00	0.00000e+00	0.00000e+00	0.00000e+00	0.00000e+00	0.00000e+00	0.00000e+00	0.00000e+00	0.00000e+00	0.00000e+00	0.00000e+00	0.00000e+00	0.00000e+00	0.00000e+00	0.00000e+00	0.00000e+00	0.00000e+00	0.00000e+00	0.00000e+00	0.00000e+00	0.00000e+00	0.00000e+00	0.00000e+00	0.00000e+00	
Factor	1.00000e+00	1.00000e+00	1.00000e+00	1.00000e+00	1.00000e+00	1.00000e+00	1.00000e+00	1.00000e+00	1.00000e+00	1.00000e+00	1.00000e+00	1.00000e+00	1.00000e+00	1.00000e+00	1.00000e+00	1.00000e+00	1.00000e+00	1.00000e+00	1.00000e+00	1.00000e+00	1.00000e+00	1.00000e+00	1.00000e+00	1.00000e+00	1.00000e+00	1.00000e+00	1.00000e+00	1.00000e+00	1.00000e+00	1.00000e+00	1.00000e+00	1.00000e+00	X	X	X	X	X	X	X	X	X	X	X	X	X	X	X	X	

B = Detector Channel
Val Type	B-AC1	B-AC2	B-AC3	B-AC4	B-AC5	B-AC6	B-AC7	B-AC8	B-AC9	B-AC10	B-AC11	B-AC12	B-AC13	B-AC14	B-AC15	B-AC16	B-DC1	B-DC2	B-DC3	B-DC4	B-DC5	B-DC6	B-DC7	B-DC8	B-DC9	B-DC10	B-DC11	B-DC12	B-DC13	B-DC14	B-DC15	B-DC16	B-Ph1	B-Ph2	B-Ph3	B-Ph4	B-Ph5	B-Ph6	B-Ph7	B-Ph8	B-Ph9	B-Ph10	B-Ph11	B-Ph12	B-Ph13	B-Ph14	B-Ph15	B-Ph16	

Term	0.00000e+00	0.00000e+00	0.00000e+00	0.00000e+00	0.00000e+00	0.00000e+00	0.00000e+00	0.00000e+00	0.00000e+00	0.00000e+00	0.00000e+00	0.00000e+00	0.00000e+00	0.00000e+00	0.00000e+00	0.00000e+00	0.00000e+00	0.00000e+00	0.00000e+00	0.00000e+00	0.00000e+00	0.00000e+00	0.00000e+00	0.00000e+00	0.00000e+00	0.00000e+00	0.00000e+00	0.00000e+00	0.00000e+00	0.00000e+00	0.00000e+00	0.00000e+00	-6.21754e+01	-1.29907e+02	-1.24308e+02	-1.80762e+02	-5.26411e+01	-6.17388e+01	-1.54848e+02	-1.62015e+02	-4.22166e+01	-7.04166e+01	-1.70366e+02	-1.69164e+02	-1.78724e+02	-1.75805e+02	-5.78430e+01	-1.48156e+02	
Factor	1.71954e-05	1.67617e-04	4.33893e-05	1.54313e-01	1.43465e-06	1.59009e-06	1.64624e-01	6.03797e-02	1.16268e-06	1.56915e-06	8.76266e-02	2.82588e-02	2.37562e-02	8.66378e-03	1.59200e-06	1.25101e-02	5.98073e-06	7.73180e-06	2.16888e-06	7.96205e-02	8.16941e-08	8.55453e-08	7.98241e-02	3.12165e-02	8.23015e-08	8.55736e-08	4.39271e-02	1.42219e-02	1.24740e-02	4.52282e-03	8.38410e-08	6.30525e-03	X	X	X	X	X	X	X	X	X	X	X	X	X	X	X	X	



#DISTANCE SETTINGS
A = Detector Channel
A-1	A-2	A-3	A-4	A-5	A-6	A-7	A-8	A-9	A-10	A-11	A-12	A-13	A-14	A-15	A-16	

2.5000e+00	3.0000e+00	2.5000e+00	3.0000e+00	2.0000e+00	3.0000e+00	1.5000e+00	3.0000e+00	3.0000e+00	3.0000e+00	3.0000e+00	3.0000e+00	3.0000e+00	3.0000e+00	1.5000e+00	3.0000e+00	

B = Detector Channel
B-1	B-2	B-3	B-4	B-5	B-6	B-7	B-8	B-9	B-10	B-11	B-12	B-13	B-14	B-15	B-16	

1.0000e+01	1.0000e+01	1.0000e+01	1.4400e+00	1.0000e+01	1.0000e+01	1.5100e+00	1.9400e+00	1.0000e+01	1.0000e+01	1.9900e+00	2.4900e+00	2.4100e+00	2.9000e+00	1.0000e+01	2.9800e+00	




#DATA BEGINS
time	group	step	mark	flag	A-AC1	A-AC2	A-AC3	A-AC4	A-AC5	A-AC6	A-AC7	A-AC8	A-AC9	A-AC10	A-AC11	A-AC12	A-AC13	A-AC14	A-AC15	A-AC16	A-DC1	A-DC2	A-DC3	A-DC4	A-DC5	A-DC6	A-DC7	A-DC8	A-DC9	A-DC10	A-DC11	A-DC12	A-DC13	A-DC14	A-DC15	A-DC16	A-Ph1	A-Ph2	A-Ph3	A-Ph4	A-Ph5	A-Ph6	A-Ph7	A-Ph8	A-Ph9	A-Ph10	A-Ph11	A-Ph12	A-Ph13	A-Ph14	A-Ph15	A-Ph16	B-AC1	B-AC2	B-AC3	B-AC4	B-AC5	B-AC6	B-AC7	B-AC8	B-AC9	B-AC10	B-AC11	B-AC12	B-AC13	B-AC14	B-AC15	B-AC16	B-DC1	B-DC2	B-DC3	B-DC4	B-DC5	B-DC6	B-DC7	B-DC8	B-DC9	B-DC10	B-DC11	B-DC12	B-DC13	B-DC14	B-DC15	B-DC16	B-Ph1	B-Ph2	B-Ph3	B-Ph4	B-Ph5	B-Ph6	B-Ph7	B-Ph8	B-Ph9	B-Ph10	B-Ph11	B-Ph12	B-Ph13	B-Ph14	B-Ph15	B-Ph16	aux-1	digaux	

998.948	1	1	0	512	0.16727	0.066905	0.024976	0.22545	0.13265	0.15153	0.44611	0.12294	0.067986	0.51626	0.1436	0.2542	0.14977	0.23033	0.065876	0.15629	-1.8542	-2.2771	-2.4188	-2.1021	-2.4167	-2.4062	-2.225	-2.4979	-2.1521	-2.2833	-2.5792	-2.4688	-2.4396	-2.725	-2.0812	-2.8438	26.574	95.426	-42.988	225.662	145.329	-53.787	214.591	237.983	-30.512	13.986	-53.659	235.825	231.656	261.501	22.000	220.346	0.00037248	0.0013728	0.00010055	893.72	6.8262e-06	1.0943e-05	1095	340.25	1.1804e-05	1.6661e-05	437.77	168.23	126.87	61.803	3.8208e-06	86.394	0.0062995	0.0075623	0.0021847	940.94	7.9755e-05	8.7337e-05	1126.3	358.54	8.4909e-05	8.249e-05	464.77	178.36	135.51	65.079	8.2136e-05	90.194	-82.155	-39.076	90.006	-86.369	55.922	58.791	-87.305	-80.423	69.231	50.506	-82.700	-78.156	-74.511	-70.120	133.711	-73.848	-8191	255	
999.020	1	1	0	0	0.1045	0.20822	0.32532	0.1963	0.12147	0.019882	0.15105	0.073102	0.31013	0.22281	0.11092	0.27456	0.15906	0.092404	0.016441	0.28821	-1.7125	-2.35	-2.4062	-2.0917	-2.4625	-2.2229	-2.2854	-2.4188	-2.2	-2.1354	-2.625	-2.1396	-2.5521	-2.5542	-1.9438	-2.5042	227.796	24.293	31.510	-86.224	93.288	63.660	146.177	225.226	216.019	52.889	-83.715	179.525	239.545	255.135	137.583	143.733	0.00037783	0.00025139	0.00014301	892.72	1.1014e-05	5.9809e-06	1093.5	338.53	8.2616e-06	1.1942e-05	438.21	169.99	126.39	61.896	7.7726e-06	86.968	0.0062797	0.0075128	0.002144	940.55	7.8889e-05	8.6704e-05	1127.1	357.5	8.5365e-05	8.2584e-05	464.92	179.06	135.42	65.169	8.3659e-05	90.668	260.772	230.235	-7.099	-86.391	87.660	56.809	-87.081	-80.207	-42.083	9.826	-82.877	-77.886	-74.388	-70.021	27.132	-73.760	-8191	255	
999.116	1	1	0	0	0.16448	0.19066	0.10207	0.19106	0.12099	0.051312	0.2462	0.31929	0.2129	0.2557	0.26449	0.15936	0.20407	0.18447	0.22998	0.12629	-1.7771	-2.1625	-2.4729	-2.2062	-2.225	-2.3604	-2.3812	-2.3812	-2.2729	-2.1458	-2.6542	-2.0958	-2.4437	-2.5896	-2.1125	-2.5604	110.995	215.614	137.648	-97.588	25.263	126.788	234.761	154.917	118.257	243.215	224.815	-90.727	245.218	218.869	-27.084	254.104	0.00046522	9.9145e-05	0.00038538	898.2	9.1359e-06	1.4275e-05	1092	340.43	4.3492e-06	8.7116e-06	439.66	170.16	126.31	62.202	2.0757e-05	87.748	0.0061601	0.0074728	0.0020928	943.33	7.7769e-05	8.5067e-05	1129.2	358.71	8.378e-05	8.3423e-05	464.93	179.78	135.69	65.398	8.4784e-05	90.961	257.436	-35.494	12.094	-86.006	72.550	35.969	-87.413	-80.835	24.613	27.647	-83.055	-77.832	-74.692	-69.953	75.285	-73.684	-8191	255	
999.237	1	1	0	0	0.20544	0.17562	0.16908	0.2376	0.32002	0.063853	0.041694	0.32257	0.076227	0.1942	0.20193	0.22508	0.18084	0.28339	0.10484	0.1827	-1.8792	-2.0542	-2.425	-2.2146	-2.0646	-2.5417	-2.1271	-2.4208	-2.4854	-2.1792	-2.5	-2.2604	-2.1667	-2.7313	-2.2188	-2.4979	-17.761	3.837	-68.158	192.276	231.844	118.380	234.976	134.912	252.918	223.641	193.000	239.241	-87.182	158.572	43.399	165.472	0.00042827	0.001921	5.8541e-05	900.8	1.0729e-05	1.3494e-05	1092.3	340.55	1.918e-05	9.8034e-06	438.07	169.33	126.66	61.855	2.0259e-05	86.971	0.0061197	0.0075636	0.0020741	945.15	7.7778e-05	8.3961e-05	1130.3	359.31	8.2826e-05	8.4178e-05	463.52	179.15	135.68	65.136	8.5829e-05	90.543	-97.599	82.309	131.267	-86.390	97.684	-6.504	-87.172	-80.216	114.820	51.281	-82.693	-77.795	-74.282	-70.101	97.374	-73.720	-8191	255	
999.333	1	1	0	0	0.19459	0.21771	0.099389	0.13589	0.16494	0.2116	0.29888	0.17032	0.11976	0.076724	0.21476	0.39959	0.085984	0.18052	0.20618	0.28479	-2.0812	-1.9729	-2.4417	-2.4792	-2.1396	-2.4688	-2.3583	-2.3063	-2.3146	-2.1896	-2.6813	-2.3833	-2.1521	-2.8208	-2.3125	-2.6042	151.491	-14.693	205.037	99.352	-34.916	128.732	128.895	-82.210	-61.702	204.018	176.011	249.449	-91.481	257.536	27.206	202.023	0.00040603	0.0014759	0.00023659	895.96	6.1424e-06	4.8668e-06	1089.2	340.09	5.2566e-06	1.4048e-05	438.13	169.25	126.8	62.375	1.0042e-05	86.699	0.0060825	0.0076806	0.0020687	942.9	7.8273e-05	8.2569e-05	1127	359.43	8.1354e-05	8.4818e-05	463.95	179	135.73	65.329	8.5396e-05	90.618	-97.733	-50.776	-57.070	-86.193	127.230	-55.703	-86.978	-80.241	55.049	22.810	-82.884	-77.886	-74.702	-70.071	78.876	-73.897	-8191	255	
999.429	1	1	0	0	0.32464	0.032405	0.092397	0.2073	0.29455	0.20431	0.15819	0.15111	0.20834	0.078926	0.23162	0.35476	0.17322	0.23495	0.19208	0.56314	-1.8937	-2.1917	-2.55	-2.3854	-1.9979	-2.5875	-2.4458	-2.3229	-2.5021	-2.0229	-2.4833	-2.4583	-2.3937	-2.6104	-2.1854	-2.3875	31.802	75.018	57.015	230.444	-35.971	25.574	-27.959	231.441	-78.071	114.720	43.773	-80.719	241.189	-64.736	-16.448	178.471	0.00015453	0.002378	0.00073907	896.45	3.7865e-07	7.1078e-06	1098.1	341.07	1.748e-06	5.1183e-06	442.28	169.63	126.96	62.463	1.4324e-05	87.33	0.0059622	0.0077264	0.0020711	940.25	7.84e-05	8.2507e-05	1130.2	359.77	8.0251e-05	8.5585e-05	464.92	178.96	136.16	65.298	8.5238e-05	90.934	-61.412	-47.800	27.152	-86.194	145.462	-35.683	-87.205	-80.436	12.720	101.902	-83.016	-77.796	-74.417	-69.958	11.264	-73.814	-8191	255	
999.550	1	1	0	0	0.2118	0.14327	0.20868	0.20514	0.10596	0.2067	0.097734	0.1643	0.090988	0.084435	0.036335	0.21997	0.10913	0.14953	0.34897	0.1541	-2.0875	-2.1688	-2.2646	-2.4208	-1.975	-2.6333	-2.3021	-2.1771	-2.4417	-2.0271	-2.5354	-2.4375	-2.2646	-2.4979	-2.2667	-2.1312	202.891	-65.440	13.762	226.570	128.410	176.837	60.447	214.207	208.959	173.852	-42.352	249.866	68.284	-93.305	36.143	196.067	0.00036881	0.00075947	0.00027009	905.86	8.9464e-06	1.1245e-05	1101.3	341.75	6.7408e-06	1.7817e-05	438.9	170.6	127.2	62.41	1.0321e-05	87.623	0.0059007	0.0077241	0.0020658	942.31	7.9617e-05	8.221e-05	1133	360.42	7.8808e-05	8.6858e-05	464.63	179.61	136.55	65.398	8.4553e-05	91.018	-92.975	-22.467	25.487	-86.112	21.438	-3.069	-87.258	-80.414	57.780	-21.351	-82.988	-77.871	-74.613	-70.019	71.959	-73.399	-8191	255	
999.622	1	1	0	0	0.23229	0.16841	0.2914	0.049972	0.10309	0.20895	0.32948	0.03227	0.065793	0.13668	0.19685	0.32865	0.19052	0.165	0.11004	0.29971	-2.0604	-2.1375	-2.3521	-2.5896	-2.0146	-2.3104	-2.5125	-2.2479	-2.4104	-2.1542	-2.45	-2.6917	-2.1188	-2.6542	-2.4458	-2.3187	66.444	-50.086	29.020	245.596	93.237	54.966	76.495	159.269	-46.705	202.454	168.042	227.000	50.770	199.214	-87.757	177.387	0.00036993	0.00076806	0.00017769	898.55	8.4696e-06	3.8359e-06	1099.9	342.25	2.0416e-06	9.4592e-06	440.76	169.42	126.67	62.209	8.1827e-06	87.282	0.0058703	0.0078507	0.0020632	941.77	8.161e-05	8.1673e-05	1136	360.62	7.8331e-05	8.8002e-05	466.26	178.96	136.42	65.169	8.4855e-05	90.79	261.516	246.142	204.022	-86.218	129.695	-50.941	-87.361	-80.211	132.918	170.514	-82.772	-78.023	-74.650	-69.951	30.375	-73.736	-8191	255	
999.718	1	1	0	0	0.14385	0.24798	0.12197	0.20198	0.10364	0.1928	0.11901	0.096649	0.12556	0.17168	0.25352	0.055398	0.13127	0.27652	0.27872	0.24126	-1.9833	-2.1375	-2.3396	-2.5854	-2.2125	-2.3479	-2.5042	-2.2625	-2.5062	-2.1333	-2.2917	-2.4979	-2.2229	-2.425	-2.4562	-2.0854	86.135	-35.593	140.613	-82.436	96.185	51.865	142.652	-11.679	214.668	-53.132	257.700	104.865	234.971	211.322	174.743	236.959	0.00031474	0.0010496	0.00047864	896.53	4.4091e-06	1.7033e-05	1096.6	340.04	1.7317e-06	6.6874e-06	438.11	169.29	126.41	61.542	2.9533e-06	86.603	0.0059043	0.0079388	0.002089	939.83	8.3053e-05	8.2442e-05	1129.4	359.14	7.886e-05	8.8629e-05	463.11	178.39	136.26	64.882	8.3414e-05	90.408	248.842	31.404	17.120	-86.491	224.428	49.303	-87.309	-80.423	181.337	96.808	-82.935	-77.760	-74.214	-69.887	147.393	-73.887	-8191	255	
999.837	1	1	0	0	0.13074	0.19659	0.15882	0.082665	0.17563	0.14508	0.26427	0.28868	0.276	0.10212	0.1694	0.13299	0.13895	0.13956	0.1344	0.18401	-2.0229	-2.2625	-2.1688	-2.5979	-2.2021	-2.425	-2.6292	-2.2542	-2.3688	-2.2375	-2.1771	-2.7021	-2.3292	-2.2833	-2.5917	-2.3375	107.979	174.558	-3.848	114.176	-31.084	126.373	194.324	154.027	244.216	93.745	107.990	-76.007	51.424	-19.778	31.454	202.457	0.00033865	0.0012043	2.3859e-05	896.05	7.6605e-06	9.6837e-06	1090.7	340.85	9.3569e-07	6.1261e-06	435.29	167.8	126.19	61.641	1.8107e-05	87.267	0.0058428	0.0078844	0.0020928	937.83	8.3956e-05	8.1624e-05	1126.9	359.68	7.8744e-05	8.7535e-05	462.73	177.69	136.01	64.939	8.2243e-05	90.516	260.106	-32.697	-38.995	-86.038	-25.583	256.204	-87.655	-80.525	178.448	122.270	-82.876	-77.859	-74.423	-69.906	33.904	-73.707	-8191	255	
999.933	1	1	0	0	0.18128	0.075123	0.068599	0.37356	0.05163	0.28089	0.25064	0.2648	0.079185	0.13656	0.055253	0.059928	0.24371	0.11858	0.20233	0.23276	-1.9396	-2.2979	-2.1208	-2.7271	-2.5292	-2.2188	-2.6292	-2.1854	-2.375	-2.2875	-2.0375	-2.5521	-2.2125	-2.2208	-2.475	-2.3458	143.434	164.234	-45.087	145.686	254.350	64.941	186.062	134.164	125.514	93.609	217.092	75.228	22.193	-12.779	206.914	224.396	0.00032304	0.00062109	0.00023552	895.72	1.1842e-05	1.0485e-05	1089.9	341.18	8.0891e-06	1.1443e-05	435.96	167.92	126.16	61.725	4.5284e-06	86.396	0.0058882	0.0077622	0.0021226	936.89	8.4689e-05	8.2083e-05	1125.5	360.13	7.9281e-05	8.6318e-05	464.5	177.88	136.21	64.984	8.1049e-05	90.619	-88.801	23.871	8.461	-86.269	95.507	89.481	-87.105	-80.395	7.177	91.353	-82.844	-77.858	-74.495	-69.889	196.002	-73.840	-8191	255	
1000.029	1	1	0	0	0.027965	0.23163	0.19857	0.099376	0.17892	0.42534	0.15623	0.29784	0.19603	0.082093	0.062726	0.18116	0.037504	0.19469	0.12548	0.028592	-1.7958	-2.3167	-2.0667	-2.6	-2.3354	-2.1562	-2.7333	-2.1604	-2.2938	-2.3937	-2.1021	-2.3833	-2.4583	-2.2313	-2.6188	-2.3083	181.466	150.340	254.950	209.534	107.057	-90.667	180.080	-96.505	17.677	88.669	-81.248	-51.849	-0.395	-68.332	-92.576	244.705	0.0002365	0.00068981	9.8033e-05	900.09	1.3375e-05	9.5472e-06	1096.8	338.71	6.7919e-06	9.0705e-06	438.77	169.58	126.2	61.524	1.2347e-05	86.558	0.0058615	0.0076908	0.0021442	937.9	8.4324e-05	8.2873e-05	1129.3	360.62	8.0248e-05	8.5425e-05	466.96	178.51	136.22	64.787	8.2319e-05	90.841	256.496	105.196	215.042	-85.964	129.293	13.615	-87.112	-80.400	-18.746	4.173	-82.427	-77.828	-74.257	-69.937	-0.812	-73.936	-8191	255	
1000.149	1	1	0	0	0.060355	0.073521	0.25684	0.18394	0.13312	0.15445	0.176	0.15045	0.10554	0.18302	0.094046	0.16071	0.36625	0.1801	0.25247	0.16759	-1.8458	-2.325	-2.0938	-2.5563	-2.2062	-1.9417	-2.5896	-2.2104	-2.4396	-2.3771	-2.175	-2.5062	-2.5	-2.1458	-2.5187	-2.2979	26.248	-95.763	-34.452	-83.368	-92.739	2.758	138.289	171.425	133.931	90.332	66.407	226.796	244.623	252.291	142.312	116.350	0.00043565	0.0010015	0.00028529	893.82	3.0277e-06	2.3476e-06	1096.6	337.01	3.1733e-06	8.4499e-06	435.46	168.54	125.23	60.946	2.2792e-06	85.208	0.0059034	0.0077363	0.0021992	936.93	8.4512e-05	8.4541e-05	1129.6	358.81	8.1393e-05	8.502e-05	465.22	177.21	135.24	64.316	8.2142e-05	89.773	253.547	11.936	-8.112	-85.998	79.338	81.081	-87.328	-80.318	75.335	23.788	-82.714	-77.870	-74.530	-69.855	115.966	-73.931	-8191	255	
1000.246	1	1	0	0	0.30275	0.20429	0.2928	0.37117	0.16708	0.10568	0.18218	0.16264	0.17918	0.14837	0.2751	0.15974	0.25868	0.14495	0.23446	0.18778	-1.75	-2.5083	-2.0083	-2.5646	-2.3563	-1.9833	-2.6562	-2.1208	-2.2042	-2.3854	-2.0979	-2.5042	-2.4896	-2.2354	-2.4292	-2.3104	208.991	222.754	99.167	147.575	-92.311	225.520	198.014	151.109	206.244	-13.700	-90.298	86.697	211.486	236.462	-92.980	-58.422	0.00033501	0.002559	0.00015679	894.22	1.4132e-05	1.5265e-05	1090.4	337.27	4.8956e-06	9.2519e-06	434.84	166.81	125.4	60.473	6.3749e-06	85.518	0.0059358	0.0076941	0.002256	935.04	8.2916e-05	8.4961e-05	1123.9	357.76	8.1018e-05	8.4903e-05	464.85	176.35	134.74	64.11	8.3113e-05	89.502	-96.029	-24.228	-15.383	-86.192	29.593	127.065	-87.279	-80.560	40.172	7.117	-82.654	-77.686	-74.538	-69.985	245.295	-73.857	-8191	255	
1000.317	1	1	0	0	0.17942	0.20251	0.078055	0.035428	0.078451	0.21788	0.29058	0.26741	0.27158	0.092428	0.24938	0.074964	0.065979	0.20701	0.10463	0.22744	-1.5562	-2.6437	-2.1562	-2.5292	-2.4292	-2.2313	-2.5958	-2.3854	-2.0625	-2.5	-2.1729	-2.5563	-2.4979	-2.1208	-2.5312	-2.2542	208.918	166.446	-43.021	222.576	50.479	23.941	167.759	233.957	-60.440	-65.110	198.229	175.849	-65.028	259.780	-54.623	153.348	0.00033332	0.0013801	0.00029923	889.57	1.1764e-05	2.6463e-06	1091.9	336.18	4.4913e-06	1.914e-05	436.58	166.79	124.79	60.955	1.276e-05	85.621	0.0060387	0.0077457	0.0022738	934.34	8.2857e-05	8.7134e-05	1124.5	357.67	8.1958e-05	8.3981e-05	464.96	176.08	134.45	64.341	8.1682e-05	89.409	-94.356	2.051	260.959	-86.018	168.512	86.072	-87.168	-80.082	237.833	50.398	-82.742	-77.950	-74.246	-69.780	55.452	-73.792	-8191	255	
1000.413	1	1	0	0	0.16618	0.33516	0.15095	0.10091	0.30338	0.10071	0.25246	0.12798	0.074545	0.12805	0.045813	0.17141	0.16816	0.10634	0.1471	0.23907	-1.6313	-2.4646	-2.0458	-2.4167	-2.3563	-2.1104	-2.6125	-2.725	-2.1042	-2.5958	-2.3354	-2.4583	-2.6354	-2.2792	-2.2687	-2.4292	7.047	221.819	9.131	190.705	-53.479	169.908	213.256	87.288	-10.950	50.020	145.853	193.331	236.808	-56.709	-10.766	245.506	0.00031965	0.00056313	0.00043859	890.48	1.6722e-06	8.4191e-06	1092.9	337.28	7.8703e-06	7.4441e-06	434.02	166.72	125.72	60.837	5.5826e-06	85.922	0.0060553	0.0076159	0.002276	934.97	8.18e-05	8.9044e-05	1127	357.12	8.328e-05	8.4166e-05	465.54	176.6	134.72	64.456	8.3619e-05	89.871	-90.730	0.018	-7.629	-86.214	161.779	133.609	-87.329	-80.674	83.279	54.553	-82.562	-77.675	-74.388	-69.831	91.238	-73.794	-8191	255	
1000.532	1	1	0	0	0.24402	0.090546	0.18421	0.36276	0.12713	0.20414	0.14052	0.26388	0.18545	0.22856	0.33518	0.069896	0.42508	0.2663	0.37455	0.28824	-1.6729	-2.3729	-2.1958	-2.3187	-2.6063	-2.1854	-2.3479	-2.5917	-2.2562	-2.5458	-2.5104	-2.2208	-2.6292	-2.1125	-2.375	-2.575	-66.293	-8.417	-95.473	255.607	-21.697	11.670	186.751	183.648	-50.632	190.040	210.485	218.156	-96.197	135.237	12.437	147.263	0.00026634	0.0010588	0.00040082	894.43	2.2106e-05	9.3199e-06	1095	337.62	7.9556e-06	1.66e-05	437.54	167.81	125.31	60.969	7.5836e-06	86.313	0.0061977	0.0077003	0.0022617	938.61	8.0456e-05	9.0365e-05	1128.8	358.01	8.4378e-05	8.418e-05	467.74	177.75	134.75	64.731	8.2548e-05	89.953	235.229	-2.391	60.697	-85.904	2.523	189.580	-87.488	-80.359	47.743	-0.881	-83.107	-77.899	-74.478	-69.862	94.669	-73.734	-8191	255	
1000.628	1	1	0	0	0.26911	0.065953	0.17483	0.043499	0.2869	0.33448	0.17774	0.10828	0.18072	0.09619	0.36975	0.10576	0.20929	0.071272	0.089281	0.30934	-1.5979	-2.4708	-2.3646	-2.4313	-2.5479	-2.2313	-2.4979	-2.5792	-2.0417	-2.3854	-2.45	-2.2771	-2.65	-2.325	-2.2	-2.6729	233.561	189.713	46.560	111.133	123.597	-17.649	250.675	-57.405	49.795	69.550	231.431	206.948	-21.415	216.091	206.871	148.311	0.00041964	0.0013709	0.00047798	890.8	4.9474e-06	3.9622e-06	1093.4	338.34	9.6195e-07	3.6239e-06	435.93	168.39	126.06	61.188	6.7986e-06	86.273	0.006262	0.0075976	0.0022146	935.65	7.9755e-05	8.9996e-05	1126.8	358.19	8.4856e-05	8.4056e-05	464.8	177.38	135.18	64.848	8.2611e-05	89.833	-95.755	201.130	23.328	-85.894	36.269	174.645	-87.481	-80.639	160.480	117.630	-82.666	-77.800	-74.646	-69.415	11.523	-73.993	-8191	255	
1000.725	1	1	0	0	0.12267	0.19644	0.20944	0.32484	0.046071	0.25388	0.32016	0.20068	0.23361	0.099323	0.25054	0.1319	0.47816	0.23554	0.126	0.26998	-1.6208	-2.3333	-2.4188	-2.0979	-2.3521	-2.2208	-2.225	-2.6083	-1.9771	-2.3354	-2.3604	-2.0854	-2.5312	-2.5187	-2.1458	-2.7208	248.086	147.202	-0.205	212.141	-92.364	-24.721	212.461	216.063	-63.762	149.644	229.352	203.779	203.611	239.830	-9.670	198.295	0.00036537	0.0019714	0.00012918	893.97	7.5968e-06	6.6574e-06	1087	336.53	7.7396e-06	3.8233e-06	435.77	167.65	124.47	61.048	7.3167e-06	85.817	0.0064078	0.0076618	0.0022083	938.13	8.0589e-05	9.0002e-05	1124.3	357.04	8.5987e-05	8.4661e-05	463.75	177.81	134.64	64.592	8.3402e-05	89.596	247.551	68.726	95.041	-86.444	50.948	84.732	-87.276	-80.488	-45.240	81.674	-82.840	-77.532	-74.430	-69.931	93.765	-73.584	-8191	255	
1000.821	1	1	0	0	0.19486	0.070126	0.10811	0.24798	0.31337	0.22826	0.1253	0.19322	0.030957	0.36195	0.10582	0.24517	0.23408	0.22165	0.051687	0.16504	-1.5708	-2.3458	-2.5021	-2.4062	-2.4917	-2.4813	-2.1479	-2.5021	-2.2375	-2.3063	-2.6771	-2.1708	-2.5021	-2.5917	-2.1458	-2.5062	13.978	-38.676	248.221	199.391	242.585	208.630	230.178	-85.919	-12.106	29.685	36.763	162.668	208.712	238.733	12.684	-86.153	0.00052751	0.0012536	0.00024481	898.08	8.3795e-07	1.4686e-05	1089.8	336.42	6.938e-06	6.9321e-06	433.63	167.59	124.86	61.061	1.0372e-05	85.924	0.0063997	0.0076853	0.0021746	940.12	8.0252e-05	8.9127e-05	1124.9	356.73	8.7071e-05	8.5361e-05	463.08	177.8	134.94	64.608	8.4774e-05	89.677	-98.057	-34.981	-79.458	-86.091	177.382	80.956	-87.135	-80.215	-20.592	-5.659	-82.679	-77.546	-74.522	-69.886	103.281	-73.713	-8191	255	
1000.917	1	1	0	0	0.3077	0.18646	0.19748	0.27936	0.17037	0.14995	0.32671	0.12632	0.26617	0.17352	0.25706	0.10593	0.25977	0.18256	0.17961	0.11967	-1.6083	-2.2667	-2.4	-2.2479	-2.3187	-2.3375	-2.3667	-2.7313	-2.1354	-2.1771	-2.5187	-2.2771	-2.5187	-2.5917	-2.0875	-2.875	79.672	9.759	230.169	182.511	-67.499	-29.570	196.880	141.909	-88.808	215.225	247.954	-56.663	246.811	-84.460	-9.861	197.764	0.00024959	0.0014596	0.0004604	897.91	1.1825e-05	2.3896e-06	1092.4	337.4	2.0324e-06	7.409e-06	437.51	168.45	125.9	60.915	2.2195e-05	86.209	0.0064363	0.0076475	0.0021637	943.67	8.0724e-05	8.7589e-05	1129.8	357.63	8.6066e-05	8.5062e-05	463.41	178.71	135.38	64.508	8.5228e-05	90.021	240.938	15.788	2.099	-86.004	108.834	-56.233	-87.229	-80.139	235.748	-41.373	-82.557	-77.983	-74.347	-69.832	8.058	-73.812	-8191	255	
1001.013	1	1	0	0	0.26925	0.022889	0.099142	0.087952	0.20417	0.057587	0.30832	0.088193	0.21314	0.08052	0.42289	0.13912	0.085496	0.30963	0.08564	0.53926	-1.6354	-2.1063	-2.6042	-2.3083	-2.2479	-2.4229	-2.2438	-2.3292	-2.3792	-2.4188	-2.5854	-2.1917	-2.3958	-2.3417	-2.1063	-2.4896	-79.276	111.473	194.803	200.344	259.265	226.183	210.450	261.466	167.980	-65.824	258.316	51.916	174.209	259.424	147.472	196.388	0.00030544	0.0021514	0.00037645	901.06	7.8014e-06	1.6199e-05	1091.4	336.65	5.9264e-06	7.1034e-06	437.08	167.72	126.31	60.909	1.2249e-05	85.405	0.006376	0.0076067	0.0021331	943.72	8.0827e-05	8.5733e-05	1128.2	357.66	8.556e-05	8.5333e-05	462.7	177.98	134.86	64.317	8.6447e-05	89.321	-84.061	-39.352	-10.586	-86.316	34.178	14.407	-87.430	-80.269	233.110	51.829	-82.966	-77.769	-74.441	-69.980	52.962	-73.822	-8191	255	
1001.109	1	1	0	0	0.11752	0.14569	0.17501	0.088329	0.15418	0.071199	0.098891	0.1014	0.13058	0.2712	0.23713	0.20198	0.4881	0.34303	0.4063	0.32085	-1.8396	-2.0979	-2.3958	-2.2687	-2.3458	-2.4875	-2.0396	-2.4021	-2.3167	-2.1521	-2.6208	-2.2479	-2.4333	-2.5167	-2.0812	-2.4792	232.926	1.234	136.981	205.835	152.296	-76.210	220.308	-87.388	117.224	102.918	169.524	169.872	238.482	216.112	40.573	207.114	0.00019399	0.00063493	0.00027846	892.78	1.1143e-05	7.6011e-06	1089	338.15	5.8687e-06	3.2902e-06	437.79	167.02	125.85	60.969	1.128e-05	85.736	0.0062242	0.0076179	0.002136	941.74	8.0299e-05	8.4158e-05	1125.2	357.29	8.3632e-05	8.6293e-05	462.13	177.54	135.08	64.268	8.6953e-05	89.308	256.773	-28.563	50.384	-86.262	-26.392	146.419	-87.244	-80.253	48.106	240.666	-82.718	-77.708	-74.199	-70.043	136.686	-73.505	-8191	255	
1001.230	1	1	0	0	0.20164	0.13236	0.040207	0.30812	0.14501	0.089253	0.25707	0.22804	0.21188	0.18533	0.22135	0.17814	0.049611	0.26942	0.22286	0.18088	-1.875	-2.05	-2.5229	-2.4792	-2.025	-2.4542	-2.0563	-2.3625	-2.4375	-2.0958	-2.5833	-2.1958	-2.3417	-2.6125	-2.1271	-2.5312	21.934	204.254	192.194	233.996	-76.810	84.019	259.860	230.308	150.575	187.465	248.685	191.902	259.123	-71.958	-66.474	244.605	0.00036018	0.00046817	0.00020943	899.78	1.1592e-06	2.7021e-06	1084.7	338.2	5.2765e-06	1.1488e-05	436.02	167.97	125.84	61.058	1.7224e-05	85.981	0.0061581	0.0077901	0.0021378	944.72	8.0512e-05	8.4051e-05	1127.7	357.8	8.2643e-05	8.7567e-05	462.87	177.93	135.43	64.459	8.7591e-05	89.572	254.156	-63.668	-80.255	-86.456	96.561	8.659	-87.540	-80.762	21.290	70.689	-82.659	-77.808	-74.591	-69.997	128.686	-73.449	-8191	255	
1001.326	1	1	0	0	0.14313	0.28441	0.1783	0.16232	0.16412	0.1182	0.048601	0.15174	0.077255	0.13957	0.21075	0.036462	0.1993	0.4551	0.052629	0.25848	-1.95	-1.9917	-2.3667	-2.2083	-2.2229	-2.6063	-2.2417	-2.4375	-2.5125	-2.1604	-2.4854	-2.5042	-2.1854	-2.5208	-2.1104	-2.4271	20.107	-43.571	174.472	259.122	254.457	190.387	-30.507	-90.444	10.123	20.037	197.623	243.528	214.508	250.964	214.473	211.153	0.00023591	0.0014512	5.0638e-05	896.21	1.3887e-05	3.0643e-06	1089.9	339.83	5.7338e-06	1.0825e-05	437.47	168.95	126.36	61.251	1.0726e-05	85.903	0.006078	0.0079275	0.0021445	941.95	8.1045e-05	8.3054e-05	1131.1	358.09	8.1514e-05	8.9026e-05	464.36	178.41	135.92	64.698	8.778e-05	89.96	-53.492	34.370	178.453	-86.158	38.927	242.307	-87.247	-80.285	253.354	121.215	-82.730	-77.755	-74.179	-70.259	20.283	-73.768	-8191	255	
1001.422	1	1	0	0	0.14152	0.23337	0.12533	0.098734	0.48435	0.28559	0.32601	0.084027	0.12387	0.040341	0.17559	0.22038	0.31875	0.1808	0.18934	0.0096638	-2.2646	-2.0854	-2.4208	-2.3688	-2.0979	-2.4958	-2.3542	-2.2833	-2.4354	-2.1396	-2.5729	-2.4375	-2.2604	-2.6646	-1.9417	-2.4021	-50.055	259.297	113.088	236.589	8.794	-96.690	-93.699	89.568	82.165	112.574	7.612	247.759	257.039	0.999	92.792	226.024	0.00042066	0.00086734	0.00037455	898.88	6.479e-06	6.7835e-06	1095.3	340.62	4.2613e-07	5.5833e-06	439.34	168.39	125.95	61.383	9.3673e-06	85.712	0.00598	0.0080491	0.0021308	943.1	8.1985e-05	8.3118e-05	1133.6	359.96	8.0624e-05	8.9274e-05	466.11	178.35	136.09	64.61	8.7015e-05	89.819	255.329	-56.991	-92.420	-86.450	-63.589	76.737	-87.071	-80.421	121.103	64.454	-82.848	-77.792	-74.302	-70.312	-19.801	-73.502	-8191	255	
1001.518	1	1	0	0	0.24801	0.1127	0.1045	0.029473	0.10802	0.12962	0.14529	0.096619	0.17613	0.019389	0.15315	0.32998	0.4522	0.30464	0.18437	0.23144	-1.9271	-2.0833	-2.1583	-2.4771	-1.9167	-2.5229	-2.425	-2.2479	-2.4417	-2.2833	-2.3812	-2.4458	-2.1729	-2.5396	-2.1646	-2.3125	231.197	-80.115	101.226	44.134	195.938	181.881	166.355	174.335	124.301	21.474	231.439	-85.986	239.262	12.263	13.562	191.609	0.0003194	0.00043547	0.00038958	895.09	7.915e-06	3.4478e-06	1090.3	339.93	7.4611e-06	2.4378e-06	437.14	168.45	126.53	61.411	4.5826e-06	85.898	0.0058992	0.0080933	0.0021193	938.14	8.2975e-05	8.326e-05	1130.9	358.66	8.0181e-05	8.9141e-05	464.1	177.52	136.11	64.575	8.537e-05	89.688	256.920	34.341	18.182	-86.250	246.921	98.164	-87.473	-80.417	61.052	-27.768	-82.747	-77.897	-74.472	-69.805	-81.249	-73.873	-8191	255	
1001.613	1	1	0	0	0.034328	0.20678	0.13806	0.31203	0.083292	0.28449	0.28342	0.20239	0.073396	0.1574	0.073387	0.23558	0.11405	0.076413	0.060242	0.2486	-1.9542	-2.0375	-2.2646	-2.6667	-2.0792	-2.3625	-2.5125	-2.225	-2.2979	-2.2708	-2.3229	-2.6604	-2.2354	-2.2542	-2.3625	-2.2062	15.079	197.843	-17.089	228.574	167.571	158.233	129.937	201.483	48.767	91.262	-52.145	-94.362	38.478	231.354	119.657	224.795	0.00031626	0.00014665	0.00020932	896.23	1.5426e-05	1.3403e-05	1091.4	337.66	4.9178e-06	8.3072e-06	436.89	168.38	126.69	61.595	7.2006e-06	86.3	0.0058682	0.0081495	0.0021262	935.49	8.4843e-05	8.3714e-05	1128.8	358.79	8.0197e-05	8.866e-05	464.76	177.67	136.64	64.824	8.4215e-05	90.197	-78.199	21.041	70.423	-85.964	209.313	15.960	-87.577	-80.401	116.336	40.126	-82.761	-77.829	-74.310	-69.992	80.535	-73.878	-8191	255	
1001.709	1	1	0	0	0.1883	0.089323	0.28191	0.0824	0.19447	0.27126	0.24085	0.37975	0.030965	0.20967	0.15937	0.38664	0.17656	0.22605	0.1802	0.16966	-1.9333	-2.2562	-2.2542	-2.6	-2.025	-2.4271	-2.6458	-2.0729	-2.4979	-2.1729	-2.1708	-2.4542	-2.1063	-2.2583	-2.4896	-2.1167	48.373	84.390	-70.022	217.768	-22.943	-5.089	113.330	206.717	136.511	30.032	167.755	-48.810	217.009	252.276	223.659	241.119	0.00034419	0.0016702	0.0001706	895.41	9.7351e-06	8.0812e-06	1089.2	340.27	2.2729e-06	1.2057e-05	440.55	169.74	126.96	61.63	1.2823e-05	87.028	0.0058994	0.0080706	0.0021294	936.3	8.4937e-05	8.3779e-05	1124.6	360.42	7.9773e-05	8.6917e-05	466.17	178.38	137.11	64.949	8.2275e-05	90.808	241.405	-40.203	-77.572	-86.354	93.544	-86.714	-87.273	-80.144	1.007	-15.723	-82.753	-77.842	-74.673	-69.985	107.615	-73.647	-8191	255	
1001.830	1	1	0	0	0.25571	0.14348	0.1866	0.14074	0.11994	0.28948	0.10794	0.13227	0.12806	0.17221	0.25886	0.049864	0.17601	0.27386	0.13215	0.26604	-1.7812	-2.3187	-2.0333	-2.5563	-2.2542	-2.2375	-2.4083	-1.9667	-2.3417	-2.3729	-2.375	-2.6146	-2.35	-2.4667	-2.3458	-2.4792	-63.113	237.871	-91.567	182.960	241.803	170.766	190.321	-25.756	197.887	-41.606	238.475	195.047	-77.599	178.892	-32.882	185.468	0.00034107	0.0009034	0.00032627	894.05	7.8073e-06	2.425e-06	1103.4	342.12	5.7834e-06	1.2735e-05	441.73	170.06	127.65	62.128	1.11e-05	87.072	0.0059025	0.0078807	0.0021304	935.61	8.4434e-05	8.3172e-05	1129	361.94	8.0343e-05	8.5732e-05	469.42	178.74	137.63	65.294	8.0882e-05	91.305	-76.038	-84.056	32.428	-86.016	18.781	-36.702	-87.321	-80.223	66.098	21.523	-82.762	-78.115	-74.188	-70.008	17.884	-73.485	-8191	255	
1001.926	1	1	0	0	0.13603	0.2409	0.15533	0.12014	0.23161	0.20746	0.21489	0.2814	0.12776	0.23216	0.28228	0.1292	0.30124	0.12206	0.31322	0.057193	-1.9125	-2.3729	-2.0292	-2.6646	-2.1771	-2.2667	-2.6854	-2.1437	-2.2729	-2.3583	-2.1229	-2.5521	-2.1729	-2.2396	-2.3646	-2.3042	-98.354	208.390	-46.714	241.334	-60.498	153.824	159.972	185.082	-94.013	0.461	101.508	245.866	157.944	-34.322	254.449	260.954	0.00033868	0.0010631	0.00040937	899.61	7.742e-06	2.0433e-05	1094.2	342.15	7.344e-06	8.2879e-06	441.71	168.27	126.37	61.581	5.5197e-06	86.508	0.0059205	0.0077112	0.0021504	937.83	8.3972e-05	8.3351e-05	1126.9	362.1	8.0203e-05	8.4918e-05	467.67	177.75	136.53	64.676	8.1154e-05	90.323	244.942	-32.845	13.435	-86.415	167.478	41.011	-87.203	-80.643	143.470	11.423	-82.702	-77.817	-74.557	-69.762	103.417	-73.780	-8191	255	
1002.020	1	1	0	0	0.156	0.29292	0.084003	0.23667	0.24438	0.27425	0.18089	0.068536	0.14901	0.097476	0.30028	0.28254	0.27601	0.022192	0.13702	0.073867	-1.9562	-2.2979	-1.9188	-2.4958	-2.2604	-2.2229	-2.6104	-2.2313	-2.3083	-2.4542	-2.3271	-2.6042	-2.375	-2.1833	-2.5125	-2.2042	223.980	129.607	97.685	62.695	43.019	135.718	15.135	184.316	237.869	198.537	249.102	-81.516	222.550	63.816	-80.882	186.507	0.00017619	0.001918	0.00042612	896.09	2.0476e-06	2.2849e-05	1088.6	338.67	3.3691e-06	2.6197e-06	437.89	168.47	126.01	61.205	4.6062e-06	85.902	0.0059968	0.0076048	0.0021972	935.5	8.3665e-05	8.476e-05	1123.6	359.98	8.0514e-05	8.3826e-05	466.19	177.11	135.85	64.445	8.1204e-05	90.025	238.007	-51.141	-20.260	-86.413	172.498	106.646	-87.415	-80.390	38.376	-2.617	-82.695	-77.706	-74.546	-70.001	91.644	-73.679	-8191	255	
1002.116	1	1	0	0	0.1388	0.17791	0.053261	0.085209	0.25657	0.39541	0.30553	0.32721	0.25628	0.13505	0.38906	0.26894	0.39859	0.31369	0.16847	0.3381	-1.8687	-2.3917	-1.9562	-2.6479	-2.3333	-2.175	-2.6979	-2.2604	-2.2771	-2.5625	-2.025	-2.4542	-2.4979	-2.0187	-2.4854	-2.2625	97.216	94.067	246.882	168.514	62.400	-2.602	164.465	-76.749	-10.162	2.912	73.632	163.427	226.042	231.799	205.992	214.141	0.00030686	0.00070778	0.0004265	895.57	1.0045e-05	1.9554e-05	1088.4	337.01	4.1319e-06	9.1331e-06	439.98	168.21	126.37	61.644	3.7248e-06	86.245	0.0059532	0.007475	0.0022365	936.69	8.1739e-05	8.5251e-05	1121	359.95	7.9743e-05	8.2161e-05	467.07	177.31	136.06	64.73	8.11e-05	90.095	250.918	197.869	103.645	-86.322	33.277	107.278	-87.435	-80.275	210.479	24.034	-82.707	-77.765	-74.161	-70.064	58.480	-73.985	-8191	255	
1002.212	1	1	0	0	0.1571	0.084877	0.18337	0.29918	0.15727	0.10798	0.18509	0.42072	0.073435	0.2809	0.066298	0.3136	0.28236	0.19165	0.33639	0.17956	-1.7417	-2.4917	-1.7708	-2.5729	-2.4542	-2.225	-2.6208	-2.3542	-2.0958	-2.6125	-2.2292	-2.4354	-2.3146	-2.2521	-2.5479	-2.4146	-86.181	-12.531	82.880	236.323	138.021	217.013	133.327	258.408	-11.368	259.757	200.305	245.985	243.223	207.919	207.408	189.645	0.00030269	0.0012199	0.00013763	893.54	3.8509e-06	1.3578e-05	1089.1	341.33	3.5095e-06	1.47e-05	439.08	169.29	126.51	61.117	1.3054e-05	86.304	0.0060494	0.0073929	0.0022825	936.33	8.0928e-05	8.7163e-05	1124.8	361.1	8.1395e-05	8.2697e-05	469.35	177.87	135.63	64.727	8.2627e-05	90.067	-91.624	-6.036	248.124	-86.255	74.598	17.655	-87.143	-80.346	-48.737	46.432	-82.675	-77.825	-74.230	-70.054	42.850	-73.692	-8191	255	
1002.309	1	1	0	0	0.094351	0.088442	0.10978	0.05546	0.12986	0.19076	0.10798	0.1293	0.27366	0.020082	0.14811	0.07752	0.42943	0.11395	0.18612	0.1675	-1.6396	-2.3646	-2.1562	-2.4104	-2.375	-2.05	-2.575	-2.3333	-2.1354	-2.4625	-2.2625	-2.5062	-2.5896	-2.0333	-2.5	-2.3958	96.497	-63.700	-15.149	-37.967	-71.209	21.437	249.022	210.749	176.097	73.869	25.752	-67.018	250.706	-83.052	122.193	249.577	0.00028219	0.0013216	0.00018709	898.1	1.1757e-05	7.7882e-06	1097.5	336.51	9.7163e-06	9.7701e-06	438.27	168.25	126.02	60.944	9.5616e-06	85.471	0.0060999	0.0075178	0.0022818	939.98	8.0293e-05	8.8846e-05	1128.9	358.46	8.2568e-05	8.3828e-05	465.39	177.87	135.28	64.377	8.3688e-05	89.388	247.627	12.366	26.390	-86.211	59.584	47.476	-87.028	-80.376	-90.491	-56.053	-82.803	-77.582	-74.262	-69.980	244.142	-73.943	-8191	255	
1002.405	1	1	0	0	0.048078	0.20631	0.16375	0.26669	0.1115	0.2223	0.092109	0.079618	0.14694	0.16232	0.1499	0.20786	0.15565	0.28483	0.13714	0.19111	-1.8333	-2.425	-2.1792	-2.3667	-2.3917	-2.0563	-2.5083	-2.4604	-2.1312	-2.425	-2.2958	-2.2646	-2.5896	-2.1771	-2.4813	-2.3875	65.553	132.660	-62.878	258.163	-89.327	-83.798	238.506	171.929	-35.697	229.885	243.242	186.651	-71.656	164.434	74.535	220.343	0.00038592	0.00062816	0.00029523	893.8	1.0995e-05	1.3184e-05	1092.7	336.59	5.7001e-06	1.6951e-05	436.2	166.33	125.28	60.537	1.6089e-05	84.781	0.0060946	0.0076365	0.0021879	937.34	8.0654e-05	8.6034e-05	1123.4	356.9	8.242e-05	8.5397e-05	463.07	176.21	135.06	63.979	8.4632e-05	88.694	257.600	-5.461	-8.003	-86.242	74.389	99.448	-87.176	-80.295	55.071	-17.767	-82.877	-77.932	-74.332	-70.095	46.698	-73.948	-8191	255	
1002.501	1	1	0	0	0.1244	0.10026	0.050266	0.20461	0.33475	0.15597	0.22338	0.24263	0.026267	0.1137	0.20425	0.088405	0.12652	0.27344	0.39866	0.3478	-1.5646	-2.4313	-2.3542	-2.3083	-2.5396	-2.2375	-2.55	-2.5104	-2.0771	-2.4375	-2.3646	-2.1396	-2.8	-2.2625	-2.2729	-2.6125	176.841	-22.414	118.183	-90.313	100.631	131.957	188.247	178.686	7.132	-29.118	55.142	172.184	-87.328	179.049	-48.317	185.239	0.00032868	0.00087679	0.00032449	891.95	5.8309e-06	1.4081e-05	1087.3	336	9.1061e-06	6.1797e-06	433.09	166.74	125.39	60.765	3.0984e-06	84.893	0.006175	0.0076799	0.0022125	936.75	8.1297e-05	8.6475e-05	1122.4	355.74	8.2355e-05	8.5695e-05	461.59	176.18	134.83	64.047	8.4244e-05	88.694	-90.441	-14.550	-23.087	-86.092	209.696	102.132	-87.210	-80.182	-2.226	95.011	-82.565	-77.928	-74.303	-70.042	204.418	-73.963	-8191	255	
1002.621	1	1	0	0	0.036026	0.11831	0.28281	0.15176	0.21529	0.16627	0.41022	0.10691	0.20468	0.28905	0.12646	0.085019	0.22451	0.32937	0.22634	0.27143	-1.5771	-2.3937	-2.3875	-2.2021	-2.55	-2.375	-2.3375	-2.5646	-1.9979	-2.2583	-2.3167	-2.0646	-2.6542	-2.2875	-2.3021	-2.6646	90.841	-66.440	197.317	245.120	97.115	122.162	138.399	184.992	-5.466	171.665	148.291	249.956	149.670	261.791	132.338	132.849	0.00038816	0.00089637	0.00013381	891.75	3.6602e-06	1.1883e-05	1088	337.7	1.6281e-05	1.016e-05	435.21	167.54	125.48	60.584	1.5306e-05	85.028	0.0061132	0.0076761	0.0022006	935.55	8.0324e-05	8.5866e-05	1124.2	356.44	8.2811e-05	8.6299e-05	462.65	176.93	134.91	64.064	8.4153e-05	88.749	-97.383	-51.559	-35.727	-86.064	71.961	88.888	-87.351	-80.182	84.905	-26.196	-83.028	-77.709	-74.567	-69.894	72.116	-73.791	-8191	255	
1002.718	1	1	0	0	0.12295	0.070383	0.14962	0.14658	0.14552	0.05175	0.16288	0.19744	0.021932	0.088762	0.051417	0.33302	0.16371	0.27157	0.2071	0.20264	-1.7333	-2.3	-2.4021	-2.1792	-2.4458	-2.3396	-2.1333	-2.6958	-2.1792	-2.4396	-2.4021	-2.2021	-2.5667	-2.325	-2.1708	-2.5625	244.638	126.971	163.908	189.695	167.768	115.025	115.232	169.437	157.014	-47.967	-67.687	250.306	-53.375	-56.749	-10.554	251.633	0.00044256	0.00066731	0.00017056	896.63	4.6785e-06	9.734e-06	1088.8	337.82	5.6187e-06	6.0355e-06	438.09	168.04	125.5	60.815	3.2552e-06	85.401	0.0061736	0.0077924	0.0021536	939.23	8.0965e-05	8.603e-05	1125	356.95	8.344e-05	8.5309e-05	464.6	177.41	134.93	64.112	8.3613e-05	89.124	-87.163	2.450	25.812	-86.265	199.542	4.688	-87.166	-80.339	15.493	71.142	-82.939	-77.797	-74.080	-69.862	83.584	-73.673	-8191	255	
1002.789	1	1	0	0	0.15929	0.19908	0.17268	0.38898	0.11554	0.31623	0.18665	0.10005	0.16515	0.022082	0.04441	0.16241	0.16432	0.26434	0.07417	0.15393	-1.7042	-2.3167	-2.3167	-2.2625	-2.4229	-2.4813	-2.3354	-2.6229	-2.3417	-2.3458	-2.5396	-2.0583	-2.6146	-2.375	-2.1646	-2.5229	32.355	0.488	56.564	210.843	183.545	165.903	-74.241	120.284	116.508	249.970	162.874	216.200	173.460	253.126	90.717	162.875	0.00035881	0.0012099	0.00011719	892.42	1.0565e-05	6.6159e-06	1089.4	335.63	6.7742e-06	9.3695e-06	434.88	166.38	125.55	60.516	2.2226e-05	84.749	0.0061366	0.0078324	0.0021543	939.9	8.2466e-05	8.6136e-05	1124.7	355.77	8.4116e-05	8.6521e-05	462.17	176.42	135.03	63.927	8.3266e-05	88.722	260.074	193.786	67.912	-86.349	-25.971	66.105	-87.010	-80.512	14.211	21.324	-82.713	-77.621	-74.290	-69.894	81.479	-73.754	-8191	255	
1002.910	1	1	0	0	0.12658	0.046843	0.27381	0.19727	0.066005	0.26216	0.047773	0.040349	0.18554	0.19255	0.36775	0.15494	0.28049	0.27956	0.22734	0.27773	-1.8479	-2.3312	-2.3771	-2.1958	-2.3708	-2.5542	-2.075	-2.6729	-2.1521	-1.9646	-2.5875	-2.4104	-2.3583	-2.5375	-2.0521	-2.5729	157.119	19.128	82.761	-80.986	135.013	249.517	170.527	130.837	12.139	180.621	164.068	-28.762	147.787	260.483	142.187	-4.105	0.00028142	0.0011361	0.00020967	894.28	6.7384e-06	9.6827e-06	1083.9	335.48	1.0332e-05	8.3894e-06	434.29	167	125.21	60.664	6.395e-06	84.968	0.0061938	0.0077837	0.0021358	937.22	8.204e-05	8.4977e-05	1120.2	356.43	8.3758e-05	8.5408e-05	461.76	176.98	135.12	63.951	8.4069e-05	88.813	245.478	-39.196	-42.713	-86.313	51.533	22.249	-87.353	-80.364	-28.417	-53.491	-82.695	-77.640	-74.501	-70.015	-69.057	-73.645	-8191	255	
1003.006	1	1	0	0	0.050451	0.28477	0.21509	0.22206	0.065771	0.22841	0.31063	0.071635	0.15125	0.086089	0.26982	0.34568	0.18925	0.079689	0.28922	0.20411	-1.7458	-1.9854	-2.5479	-2.3812	-2.1562	-2.4021	-2.2021	-2.5333	-2.3521	-2.2375	-2.6521	-2.2604	-2.2792	-2.6646	-1.8771	-2.7125	-10.201	107.468	-60.577	-89.084	70.229	239.081	218.860	166.159	2.210	-15.511	223.505	208.246	246.847	180.957	-67.460	211.397	0.00029465	0.00074943	3.7103e-06	888.34	1.0871e-05	1.4834e-05	1086.5	335.62	4.9902e-06	1.7775e-05	436.52	167.89	124.51	60.6	1.4715e-05	85.074	0.006136	0.0077603	0.0021211	936.15	8.2598e-05	8.4642e-05	1123.1	355.97	8.3188e-05	8.6606e-05	463.41	177.17	134.91	63.929	8.4952e-05	89.195	-78.079	-29.853	63.455	-86.167	131.817	39.254	-87.187	-80.499	132.577	-87.009	-82.933	-77.721	-74.485	-70.005	42.188	-73.802	-8191	255	
1003.102	1	1	0	0	0.14456	0.14594	0.17874	0.062049	0.07135	0.081596	0.22464	0.21116	0.098381	0.38396	0.1445	0.19978	0.26732	0.28496	0.1982	0.34937	-1.85	-2.1354	-2.6333	-2.4313	-2.3333	-2.4604	-2.2146	-2.4354	-2.4292	-2.2292	-2.6729	-2.3167	-2.5417	-2.5771	-2.2333	-2.6083	241.225	131.350	-46.870	-46.338	-51.758	85.697	197.566	198.339	89.619	74.744	252.245	-62.755	97.901	255.129	229.698	197.219	0.00030501	0.0009175	0.00012686	891.18	1.1909e-05	2.3066e-06	1086.5	335.66	2.7816e-06	8.0537e-06	438.41	167.45	125.39	60.616	1.3483e-05	85.503	0.0061583	0.0078016	0.0021386	937.69	8.2502e-05	8.4519e-05	1125.2	356.48	8.3465e-05	8.5574e-05	464.77	177.57	135.14	63.82	8.5702e-05	89.483	235.417	27.211	32.277	-85.717	103.014	182.156	-87.229	-80.235	184.083	77.924	-82.748	-77.742	-74.457	-69.964	5.072	-73.607	-8191	255	
1003.221	1	1	0	0	0.14744	0.25545	0.10438	0.047277	0.072326	0.16228	0.22727	0.13346	0.10801	0.057403	0.14466	0.37513	0.24581	0.075463	0.11555	0.26811	-2.0396	-1.9708	-2.3479	-2.3812	-2.2375	-2.5104	-2.2438	-2.1688	-2.2958	-2.0104	-2.3729	-2.3688	-2.3563	-2.6104	-2.225	-2.3875	73.110	211.767	204.048	-57.967	208.990	-55.211	209.577	202.017	49.784	-91.412	-0.787	246.988	253.482	194.944	75.246	202.297	0.00029882	0.0021739	0.00046022	894.63	6.5344e-06	1.062e-05	1090.3	335.4	4.3758e-06	1.353e-05	436.29	167.75	124.89	60.277	7.5002e-06	85.148	0.0061367	0.0078485	0.002159	939.42	8.233e-05	8.4709e-05	1127.7	357.12	8.215e-05	8.6537e-05	465.07	177.28	134.94	63.721	8.5721e-05	88.936	260.271	46.219	33.096	-86.088	112.246	-21.774	-87.122	-80.353	-3.946	58.445	-82.604	-77.757	-74.474	-70.017	54.210	-73.458	-8191	255	
1003.317	1	1	0	0	0.15756	0.26016	0.27079	0.19934	0.11968	0.22062	0.21808	0.12283	0.071467	0.052943	0.21809	0.073753	0.091346	0.17998	0.15444	0.38947	-1.8979	-2.0563	-2.4188	-2.5875	-2.1104	-2.4917	-2.4313	-2.4437	-2.4167	-2.2292	-2.7146	-2.3146	-2.1104	-2.5542	-2.2479	-2.2979	-29.946	-31.099	21.332	251.450	179.404	34.420	198.378	-67.791	-84.030	251.297	231.957	-76.057	-68.972	-15.586	141.427	75.221	0.00033855	0.0013604	0.00029161	891.52	1.1376e-06	6.1175e-06	1083.3	333.54	7.1363e-06	6.885e-06	435.47	166.38	125.01	60.237	1.9732e-06	84.669	0.006114	0.0078348	0.0021856	936.59	8.2796e-05	8.564e-05	1123.7	355.78	8.1141e-05	8.7194e-05	463.75	176.23	134.49	63.448	8.6221e-05	88.53	248.851	-19.319	235.774	-85.673	11.079	3.808	-87.385	-80.233	76.696	163.693	-82.894	-77.752	-74.553	-69.838	130.545	-73.732	-8191	255	
1003.413	1	1	0	0	0.029768	0.43308	0.045383	0.030065	0.32031	0.086293	0.15048	0.1886	0.15993	0.10051	0.056355	0.2879	0.25614	0.45015	0.21135	0.19265	-2.0958	-1.8875	-2.3208	-2.5292	-2.0521	-2.4333	-2.3896	-2.2271	-2.4938	-2.0208	-2.6521	-2.3667	-2.2354	-2.6417	-2.3312	-2.4104	-49.790	190.161	55.753	-49.882	141.271	-27.486	119.574	154.703	-35.275	72.472	183.191	203.850	231.957	238.620	74.290	218.607	0.00023431	0.0014752	0.00032544	889.66	7.2387e-06	7.3058e-06	1082.9	334.5	1.0096e-05	1.8423e-05	433.3	166.04	124.8	60.066	1.6061e-05	84.721	0.0060921	0.0078681	0.0022133	932.64	8.2427e-05	8.5981e-05	1121.2	355.64	8.1798e-05	8.7309e-05	463.31	176.26	134.57	63.542	8.6615e-05	88.712	251.615	-38.934	-26.629	-86.217	-25.949	80.269	-87.507	-80.178	-3.348	28.048	-82.487	-77.786	-74.324	-69.988	83.437	-73.738	-8191	255	
1003.510	1	1	0	0	0.14866	0.18061	0.11773	0.24782	0.12736	0.22162	0.21326	0.40437	0.15076	0.1296	0.058879	0.071883	0.22781	0.085241	0.030646	0.16343	-1.9729	-2.2021	-2.4542	-2.5375	-2.0958	-2.5146	-2.5292	-2.1375	-2.5438	-2.1854	-2.4229	-2.4188	-2.2	-2.4542	-2.3021	-2.3187	-6.970	203.499	162.891	245.284	142.666	9.615	129.830	198.791	-27.670	-35.312	170.002	-78.574	251.788	-1.794	57.362	222.637	0.00032596	0.00091777	7.9452e-05	887.87	1.7628e-06	6.2568e-06	1085.9	334.17	4.9654e-06	4.8264e-06	435.69	166.94	125.18	60.359	5.6577e-06	84.896	0.0061115	0.0079507	0.0022271	933.08	8.3031e-05	8.7516e-05	1121.9	356.23	8.1676e-05	8.8575e-05	463.58	176.36	134.73	63.664	8.5995e-05	88.78	-94.395	256.556	101.218	-86.444	123.850	122.898	-87.175	-80.366	130.966	26.734	-82.962	-77.722	-74.144	-70.106	48.991	-73.743	-8191	255	
1003.606	1	1	0	0	0.15317	0.1744	0.21019	0.097184	0.17065	0.17256	0.22421	0.10612	0.21187	0.15587	0.13055	0.31413	0.21111	0.09355	0.21452	0.22102	-2.1875	-2.2313	-2.2687	-2.6167	-1.9854	-2.5875	-2.4813	-2.1	-2.3521	-2.2646	-2.3292	-2.6208	-2.2083	-2.4542	-2.575	-2.1917	-83.363	-52.927	181.447	182.725	48.214	196.630	249.530	115.330	126.316	136.842	125.121	208.516	-88.340	20.116	22.950	226.698	0.00037967	0.00064965	0.00026061	889.21	8.37e-06	1.485e-05	1087.3	334.48	2.7436e-06	1.2503e-05	433.52	166.32	124.66	60.487	7.9404e-06	84.99	0.0061102	0.0079104	0.0022472	934.24	8.3569e-05	8.7837e-05	1123.6	356.61	8.1991e-05	8.8514e-05	463.22	176.43	134.77	63.757	8.5971e-05	88.776	256.109	33.138	35.715	-86.339	4.824	122.605	-87.292	-79.929	18.588	1.595	-82.761	-77.701	-74.259	-70.092	72.990	-73.751	-8191	255	
1003.702	1	1	0	0	0.18686	0.1573	0.38523	0.28698	0.16506	0.2702	0.21427	0.23868	0.15006	0.18381	0.15988	0.21084	0.26874	0.25436	0.07736	0.24136	-1.7938	-2.2083	-2.1271	-2.6312	-2.1229	-2.3563	-2.5062	-2.025	-2.4958	-2.4042	-2.1479	-2.5854	-2.125	-2.4021	-2.4875	-2.1396	65.451	100.716	-54.357	-66.149	-22.665	182.161	209.571	193.364	55.122	91.954	54.257	169.359	205.688	-82.077	48.022	230.945	0.00041365	0.00047109	7.4987e-05	890.62	7.1719e-06	1.5861e-05	1081.8	334.84	4.3572e-06	1.1844e-05	433.02	165.38	124.54	60.173	1.4649e-05	84.126	0.0062492	0.0080456	0.0022428	933.16	8.41e-05	8.8409e-05	1120.2	355.06	8.4164e-05	8.8739e-05	463.34	175.52	134.62	63.511	8.5471e-05	88.184	-94.626	64.231	-28.423	-86.244	13.972	31.914	-87.262	-80.420	47.377	22.134	-82.901	-77.711	-74.583	-69.891	24.256	-73.744	-8191	255	
1003.798	1	1	0	0	0.14572	0.11901	0.11634	0.25324	0.1367	0.15714	0.19933	0.17173	0.17749	0.065634	0.16045	0.10018	0.064872	0.26425	0.11732	0.1644	-2.0333	-2.4375	-1.9979	-2.6208	-2.1521	-2	-2.5917	-2.2687	-2.2896	-2.2687	-2.2729	-2.4833	-2.2938	-2.5458	-2.4917	-2.3375	210.659	63.601	260.628	217.904	56.398	31.133	203.796	216.868	34.479	174.357	235.358	151.083	257.951	207.908	192.451	235.021	0.00042803	0.0019688	0.00023046	887.58	2.6172e-06	7.7739e-06	1078.6	332.47	1.1015e-05	4.87e-06	433.61	164.65	123.81	59.681	1.0944e-05	83.757	0.0062856	0.0080277	0.0022785	931.29	8.5478e-05	8.922e-05	1119.5	354.84	8.5824e-05	8.9523e-05	462.16	175.38	134.57	63.389	8.5371e-05	88.183	260.766	-0.629	11.259	-85.838	-23.199	94.983	-87.181	-80.477	-40.376	-18.078	-82.578	-77.722	-74.422	-69.757	21.418	-73.568	-8191	255	
1003.919	1	1	0	0	0.27588	0.16542	0.18108	0.022496	0.12423	0.072474	0.42428	0.19725	0.18145	0.12295	0.0409	0.083164	0.12831	0.43255	0.30919	0.25831	-2.0208	-2.3979	-2.1292	-2.6542	-2.3	-2.2	-2.5938	-2.15	-2.3917	-2.3833	-2.1417	-2.3583	-2.5375	-2.3229	-2.3771	-2.3708	20.077	198.073	-66.586	111.508	120.367	-31.575	186.625	120.593	-80.295	83.718	87.594	-96.322	-91.432	206.295	187.165	224.212	0.00036621	0.00072842	0.00021745	887.62	1.4011e-05	9.1903e-06	1080	333.4	4.2846e-06	1.4291e-05	431.77	166.07	124.86	59.663	1.4295e-05	83.969	0.0063579	0.008082	0.0022694	932.44	8.6345e-05	8.9367e-05	1119	355.23	8.6328e-05	8.8953e-05	461.82	175.73	134.62	63.309	8.5454e-05	88.29	229.840	-36.925	-95.127	-86.092	103.264	144.401	-87.539	-80.256	-3.648	81.104	-82.768	-78.055	-74.494	-69.930	-3.812	-73.922	-8191	255	
1004.013	1	1	0	0	0.17271	0.11211	0.1356	0.27379	0.23733	0.21101	0.13592	0.046125	0.12141	0.19043	0.17119	0.21955	0.086263	0.19694	0.26313	0.51872	-1.8771	-2.3458	-2.1583	-2.4708	-2.2646	-2.1292	-2.8896	-2.3042	-2.1792	-2.3708	-2.3104	-2.5312	-2.5	-2.4146	-2.5625	-2.3333	-20.410	251.594	-77.823	209.400	126.385	-31.464	159.567	131.977	-8.287	125.273	-95.086	222.399	-36.613	-95.696	-32.887	238.623	0.00036258	0.0015427	0.00046	886.33	4.9065e-06	1.3642e-05	1078.5	333.09	9.3649e-06	1.9698e-05	432.11	165.71	124.03	59.84	1.3712e-05	83.853	0.0064164	0.0079913	0.0022921	934.15	8.6098e-05	9.0389e-05	1121.8	355.7	8.7348e-05	8.849e-05	462.45	176.08	134.5	63.465	8.6895e-05	88.399	-90.255	-31.485	26.881	-86.256	-54.526	57.944	-87.401	-80.354	16.879	-4.688	-82.769	-78.007	-74.383	-70.058	97.274	-73.707	-8191	255	
1004.086	1	1	0	0	0.15495	0.17703	0.25211	0.032985	0.24351	0.066583	0.15219	0.23141	0.23272	0.022781	0.29998	0.20719	0.2537	0.24819	0.059857	0.17448	-1.9042	-2.3375	-2.0687	-2.6729	-2.5542	-2.1042	-2.6312	-2.325	-2.5375	-2.6583	-2.2458	-2.5	-2.5667	-2.3521	-2.4896	-2.4958	238.362	181.091	-2.702	95.901	111.582	143.948	155.485	64.657	98.665	25.227	74.860	244.595	220.003	-35.485	15.491	247.484	0.00035021	0.0013411	0.00033927	885.82	1.5024e-05	1.333e-05	1086.6	333.26	6.3487e-06	1.6636e-05	432.39	165.68	125	60.329	7.8197e-06	84.159	0.0064406	0.0080463	0.002289	934.12	8.6091e-05	9.0118e-05	1122.1	356.48	8.7574e-05	8.7375e-05	463.49	176.5	135.04	63.784	8.6205e-05	88.655	-91.662	47.324	-51.624	-86.112	58.830	1.433	-87.463	-80.143	115.477	-2.251	-82.833	-77.828	-74.449	-70.034	231.748	-73.644	-8191	255	
1004.183	1	1	0	0	0.11815	0.23118	0.1316	0.16524	0.12792	0.13106	0.30966	0.37349	0.050412	0.12759	0.29861	0.34503	0.10797	0.26931	0.19641	0.19355	-1.6375	-2.4333	-1.9896	-2.3875	-2.4625	-2.0771	-2.6312	-2.4688	-2.0458	-2.4083	-2.0354	-2.4333	-2.6792	-2.0812	-2.675	-2.2896	205.416	-8.225	62.331	195.659	241.521	-54.736	154.653	173.220	196.333	247.418	223.357	-65.539	34.105	257.716	207.068	188.625	0.00038871	0.00088772	0.0001162	893.61	8.1415e-06	1.6907e-05	1085.3	335.07	4.566e-06	1.124e-05	431.41	166.36	125.01	60.5	2.1473e-05	84.273	0.0063755	0.0079268	0.002274	938.78	8.5359e-05	8.8928e-05	1122.6	356.11	8.7018e-05	8.7358e-05	462.93	176.33	135.03	63.806	8.6461e-05	88.594	-87.677	11.215	248.792	-86.150	26.788	46.945	-87.381	-80.379	113.529	-54.242	-82.421	-77.716	-74.427	-69.946	-57.663	-74.069	-8191	255	
1004.301	1	1	0	0	0.036937	0.34142	0.17367	0.29498	0.20103	0.16424	0.2476	0.29345	0.046586	0.3283	0.12131	0.14274	0.2037	0.063796	0.1683	0.26347	-1.6833	-2.3208	-2.025	-2.4104	-2.3583	-2.0125	-2.4958	-2.4667	-2.0292	-2.5167	-2.3875	-2.3896	-2.5896	-1.9813	-2.1875	-2.475	31.728	254.149	128.625	254.026	185.592	92.321	259.687	209.142	9.274	51.804	184.045	179.324	-30.584	179.539	50.131	155.449	0.00030473	0.0016466	0.00034713	887.76	8.0988e-06	3.0876e-06	1082.9	335.55	6.3796e-06	1.1521e-05	435.35	166.24	126.22	60.835	7.975e-06	85.092	0.0063458	0.0078545	0.0022577	937.82	8.3266e-05	8.8287e-05	1120.3	356.87	8.5925e-05	8.6655e-05	464.82	176.83	135.85	64.18	8.7167e-05	89.039	247.260	-51.223	32.202	-86.142	219.418	-69.461	-87.233	-80.203	44.623	82.138	-82.747	-77.759	-74.462	-69.994	39.115	-73.896	-8191	255	
1004.398	1	1	0	0	0.15995	0.21059	0.30479	0.026751	0.19034	0.2036	0.067406	0.18407	0.15962	0.19758	0.19671	0.13724	0.25746	0.15139	0.17369	0.14753	-1.5438	-2.3583	-2.1458	-2.2313	-2.4875	-2.1104	-2.5042	-2.5583	-2.0125	-2.5312	-2.3521	-2.2979	-2.5917	-2.2562	-2.325	-2.6667	186.132	20.463	-31.465	-39.869	35.366	171.782	-95.905	-66.346	-52.885	-0.589	206.027	-36.974	184.437	195.342	104.984	230.261	0.00020496	0.001115	0.00044525	890.79	1.2673e-05	9.6457e-06	1083.6	336.55	3.3558e-06	7.2267e-06	436.88	166.57	125.56	60.365	1.2148e-05	84.887	0.0063697	0.0079868	0.0022603	937.73	8.3079e-05	9.0167e-05	1122.8	357.87	8.6087e-05	8.7889e-05	465.71	177.13	135.53	64.073	8.8847e-05	88.996	-73.279	14.558	-8.805	-86.302	29.267	-55.294	-87.223	-80.406	250.899	23.776	-82.776	-77.781	-74.552	-69.986	64.459	-73.506	-8191	255	
1004.494	1	1	0	0	0.17577	0.19824	0.15819	0.17778	0.1573	0.18623	0.20673	0.057836	0.20685	0.025215	0.33972	0.17379	0.2516	0.28559	0.12234	0.32006	-1.625	-2.3354	-2.2542	-2.1604	-2.5438	-2.2604	-2.3271	-2.475	-1.9271	-2.4896	-2.2479	-2.2958	-2.4229	-2.2792	-2.175	-2.4896	19.981	24.348	4.063	-93.744	-79.786	86.841	221.371	87.870	-22.773	-66.373	211.854	208.984	231.799	-36.357	56.641	188.223	0.00027137	0.0018699	0.00017128	891.39	5.5711e-06	3.9929e-06	1081.3	337.63	2.6451e-06	1.8512e-05	436.96	167.36	126.34	60.549	6.0793e-06	85.058	0.0063636	0.0080658	0.0022797	938.53	8.3386e-05	9.0904e-05	1123.2	358.2	8.6037e-05	9.024e-05	466.23	177.51	135.99	64.203	8.8496e-05	88.827	251.983	-13.102	-40.454	-86.369	-1.717	14.885	-87.239	-80.288	-90.605	41.543	-82.894	-77.599	-74.485	-70.022	72.455	-73.900	-8191	255	
1004.590	1	1	0	0	0.11766	0.13132	0.10278	0.25744	0.19315	0.17812	0.26699	0.093854	0.17965	0.16409	0.22302	0.15129	0.2551	0.031288	0.041192	0.29906	-1.6437	-2.2	-2.1417	-2.0771	-2.4542	-2.3208	-2.1792	-2.7229	-2.1979	-2.3	-2.4688	-2.0917	-2.525	-2.2313	-2.2479	-2.6104	160.411	89.553	-97.114	-95.306	11.288	232.176	137.640	236.606	2.855	154.366	147.379	253.867	-89.320	199.281	161.598	209.611	0.00027273	0.00067983	0.00029791	889.43	3.7763e-06	1.8476e-06	1080.1	335.79	3.2223e-06	1.0697e-05	434.83	165.93	125.01	60.092	2.1922e-05	83.851	0.0063578	0.0081594	0.0022798	938.63	8.3556e-05	9.0854e-05	1122.6	356.29	8.6528e-05	9.0724e-05	463.72	176.4	135.26	63.596	8.9291e-05	87.957	259.019	-5.031	82.472	-86.127	107.289	238.182	-87.331	-80.188	142.645	-28.178	-82.396	-77.930	-74.316	-70.107	-1.288	-73.885	-8191	255	
1004.711	1	1	0	0	0.093061	0.21264	0.028889	0.16221	0.10003	0.219	0.21693	0.062113	0.13508	0.037465	0.18175	0.2465	0.29468	0.081263	0.022962	0.44632	-1.6458	-2.2438	-2.2396	-1.9625	-2.4521	-2.4062	-2.2042	-2.6417	-2.2417	-2.2125	-2.5417	-2.1937	-2.575	-2.3229	-1.9979	-2.7479	114.047	188.741	-47.403	237.883	-49.381	-59.489	248.206	-83.622	113.384	212.508	232.572	225.261	-37.274	51.969	34.316	-75.188	0.00021426	0.0013335	0.00014088	885.66	9.7976e-06	6.9136e-06	1079.8	334.1	5.2451e-06	1.4426e-05	431.24	165.27	124.21	59.646	6.1002e-06	83.242	0.0064979	0.008245	0.0022873	936.91	8.5859e-05	9.1585e-05	1119.8	355.36	8.7984e-05	9.2078e-05	461.32	175.5	134.74	63.376	9.0601e-05	87.608	-80.774	69.269	18.654	-86.299	176.247	39.690	-87.112	-80.281	17.676	180.817	-82.369	-77.885	-74.243	-69.936	119.159	-73.820	-8191	255	
1004.782	1	1	0	0	0.33727	0.15997	0.12681	0.16284	0.13098	0.1047	0.24469	0.10207	0.25636	0.10945	0.055804	0.17087	0.1635	0.33457	0.11698	0.39368	-1.6604	-2.4146	-2.4271	-2.0646	-2.4271	-2.3063	-2.1646	-2.6375	-1.9813	-2.3042	-2.5958	-2.1042	-2.3063	-2.2917	-1.9875	-2.6042	11.031	145.430	-51.370	-89.776	8.186	-41.311	185.797	82.768	176.296	-52.246	115.030	241.871	83.683	180.714	-73.259	168.676	0.00015752	0.00083322	0.0002967	885.26	2.7068e-06	1.6218e-05	1082.2	333.16	9.639e-06	1.1644e-05	434.51	165.42	125.25	59.743	2.0873e-05	83.157	0.006578	0.0083646	0.0022886	937.48	8.6518e-05	9.1585e-05	1120.6	355.44	8.8098e-05	9.2708e-05	462.03	175.93	135.56	63.397	8.9659e-05	87.637	256.794	-83.990	-26.131	-86.086	1.611	87.711	-87.394	-80.293	57.005	124.862	-83.052	-77.842	-74.452	-69.802	63.261	-73.696	-8191	255	
1004.903	1	1	0	0	0.13941	0.10563	0.18499	0.18986	0.076687	0.16936	0.18904	0.20107	0.1596	0.070779	0.19846	0.15972	0.12714	0.16603	0.36409	0.076694	-1.7896	-2.0583	-2.3083	-2.0875	-2.325	-2.3312	-2.1063	-2.5104	-2.0979	-2.1917	-2.5896	-2.0917	-2.2208	-2.5833	-2.2458	-2.6083	240.544	64.723	63.340	203.968	-35.457	88.440	167.446	99.531	-58.915	-48.724	175.543	210.984	-49.697	-55.432	26.209	152.096	0.00033676	0.00091769	0.00012227	886.19	7.3657e-06	1.5404e-05	1074.9	334.43	6.4599e-06	2.4341e-05	430.17	164.81	125.26	59.506	1.2895e-05	83.994	0.0065963	0.0083179	0.0022778	936.71	8.7718e-05	9.1417e-05	1118.3	355.78	8.8436e-05	9.3964e-05	460.66	176	135.49	63.264	9.0077e-05	88.088	-98.356	249.375	-59.068	-86.191	56.383	5.293	-87.287	-80.458	149.651	44.842	-82.742	-77.742	-74.347	-69.919	-34.619	-73.669	-8191	255	
1004.999	1	1	0	0	0.19494	0.25206	0.077488	0.095297	0.068385	0.21789	0.37239	0.1701	0.14108	0.024242	0.29453	0.21439	0.46765	0.19587	0.20488	0.13262	-1.6562	-2.0833	-2.4458	-2.25	-2.1708	-2.375	-1.9937	-2.3292	-2.2646	-1.8854	-2.6083	-2.1292	-2.4292	-2.4771	-1.8917	-2.5	-97.175	-86.974	52.541	232.290	-15.147	10.491	209.273	77.114	48.822	-8.955	240.766	177.968	192.341	-70.625	203.998	182.864	0.00037318	0.0014439	0.00023586	888.25	1.1932e-05	1.8356e-05	1078.2	333.53	5.1581e-06	7.1126e-06	429.97	164.56	124.12	59.444	1.3043e-05	82.831	0.0066059	0.0083534	0.0022915	937.96	8.9132e-05	9.0829e-05	1122.3	356.08	8.9233e-05	9.3871e-05	460.83	175.56	134.93	63.013	9.0656e-05	87.415	-90.133	-17.087	65.456	-86.420	-4.236	90.972	-86.953	-80.126	80.886	-8.816	-82.752	-77.786	-74.371	-70.183	84.607	-73.367	-8191	255	
1005.093	1	1	0	0	0.080623	0.38279	0.063	0.24471	0.051423	0.23735	0.32943	0.18401	0.23892	0.1575	0.061369	0.083693	0.081188	0.12694	0.058176	0.11087	-1.9604	-1.8604	-2.4	-2.2208	-2.2729	-2.5125	-2.2417	-2.3146	-2.4604	-2.2687	-2.4083	-2.3146	-2.1833	-2.6521	-1.9792	-2.4708	-72.819	214.234	6.681	255.043	175.119	212.934	237.532	214.764	230.760	198.985	237.940	180.499	-43.810	-45.777	-86.904	216.792	0.00034011	0.0032153	0.00031713	885.76	4.0182e-06	5.0592e-06	1078.8	330.17	8.7472e-06	9.3284e-06	430.04	163.96	124	59.344	1.7359e-05	82.722	0.0066262	0.0083874	0.0023071	937.09	8.9936e-05	9.0955e-05	1119.9	355.08	8.8518e-05	9.2909e-05	460.28	175.26	134.78	62.926	9.0377e-05	87.371	-92.677	-24.714	55.901	-86.003	45.493	77.048	-87.399	-80.247	55.192	-81.335	-82.699	-77.777	-74.301	-69.911	86.751	-73.729	-8191	255	
1005.190	1	1	0	0	0.34185	0.22507	0.21321	0.22864	0.2721	0.26387	0.13235	0.23915	0.21691	0.075448	0.11652	0.34413	0.1873	0.21949	0.057101	0.13171	-1.8312	-1.9292	-2.4771	-2.2646	-2.1292	-2.4167	-2.2062	-2.3521	-2.3854	-1.9604	-2.4979	-2.2333	-2.1813	-2.4854	-1.8604	-2.3083	86.384	10.844	-87.858	242.647	165.209	32.434	191.794	233.515	40.592	114.917	181.582	170.429	195.758	239.742	128.362	-75.511	0.00038985	0.00098663	9.8536e-05	886.44	7.3674e-06	1.4133e-06	1071	332.5	1.4883e-05	1.9732e-06	428.5	164.17	124.17	59.174	5.5456e-06	82.842	0.0064933	0.0083097	0.0023321	936.67	8.9396e-05	9.0376e-05	1119	355.08	8.8034e-05	9.2737e-05	460.99	175.16	134.83	62.86	9.073e-05	87.402	-92.810	35.776	96.110	-86.510	138.665	58.445	-87.448	-80.468	151.852	78.540	-82.487	-77.714	-74.207	-70.082	-1.325	-73.817	-8191	255	
1005.310	1	1	0	0	0.22237	0.23495	0.075807	0.11119	0.14778	0.29156	0.14966	0.48069	0.15608	0.066678	0.18141	0.24654	0.43079	0.43491	0.26136	0.062348	-2.0083	-1.9937	-2.2271	-2.4437	-2.0646	-2.4208	-2.2521	-2.1875	-2.3792	-2.0646	-2.4021	-2.4229	-1.9521	-2.5771	-2.1667	-2.1917	-44.639	187.608	207.990	95.950	170.488	-52.498	226.115	185.545	38.824	134.728	-88.610	210.932	210.618	229.349	106.830	143.380	0.0001729	0.0020562	0.00032049	885.56	5.4392e-06	1.334e-05	1077.3	328.98	6.8568e-06	5.8847e-06	431.1	163.97	123.38	59.365	5.3209e-06	83.077	0.0065479	0.0084184	0.0023792	935.89	8.9561e-05	9.156e-05	1119.6	354.24	8.8792e-05	9.3302e-05	461.72	175.39	134.27	63.053	9.1896e-05	87.72	211.658	-91.300	-20.000	-86.336	242.480	74.266	-87.260	-80.278	177.606	125.859	-82.725	-77.646	-74.648	-70.050	110.394	-73.763	-8191	255	
1005.382	1	1	0	0	0.27274	0.24459	0.18173	0.27762	0.18494	0.16853	0.31112	0.1401	0.22168	0.16722	0.19067	0.22383	0.17327	0.25843	0.32606	0.3687	-2.0771	-1.9354	-2.2167	-2.3167	-1.9542	-2.3042	-2.5854	-2.2667	-2.5854	-2.1	-2.4104	-2.3917	-2.0792	-2.5458	-2.325	-2.1917	220.409	95.177	224.507	203.401	102.201	-89.821	241.987	247.339	0.505	148.134	199.155	189.596	170.166	146.398	175.109	227.485	0.00033906	0.00037963	0.00030584	885.35	1.2893e-05	5.244e-06	1073.4	331.13	4.1163e-06	7.9721e-06	430.3	165.32	124.13	59.457	1.0726e-05	83.792	0.0065173	0.0084702	0.0024057	937.55	8.9819e-05	9.1478e-05	1120.5	355.53	8.738e-05	9.2713e-05	462.96	175.72	134.69	63.333	9.1377e-05	88.179	244.132	229.152	167.380	-85.959	36.270	44.543	-87.198	-80.308	58.339	-28.918	-82.430	-77.677	-74.351	-69.933	-78.621	-73.592	-8191	255	
1005.478	1	1	0	0	0.19001	0.36375	0.26137	0.4026	0.1398	0.053657	0.12825	0.15377	0.11549	0.096298	0.0091235	0.1685	0.0597	0.2108	0.16425	0.15916	-2.0896	-2.0896	-2.2354	-2.4583	-1.9937	-2.2979	-2.6104	-2.1375	-2.5021	-2.1813	-2.275	-2.625	-2.0229	-2.2792	-2.1958	-2.1063	-49.871	47.430	140.203	229.199	-42.164	-72.458	209.147	-51.313	41.940	185.867	99.527	242.485	242.312	254.186	107.569	153.124	0.00038992	0.00061698	3.9469e-05	886.65	4.9884e-06	4.8107e-06	1074.4	332.1	1.1752e-05	4.6115e-06	430.55	164.86	125.13	59.551	8.571e-06	83.521	0.0064599	0.0085208	0.0023994	935.89	8.8321e-05	9.2687e-05	1118.2	355.74	8.8063e-05	9.2663e-05	463.17	175.82	135.28	63.267	9.0503e-05	87.842	257.982	146.016	-8.801	-86.235	79.855	175.222	-87.288	-80.318	68.752	-22.446	-82.822	-77.600	-74.571	-70.178	24.511	-73.802	-8191	255	
1005.574	1	1	0	0	0.071203	0.19526	0.14415	0.14324	0.25995	0.035102	0.26358	0.3689	0.1264	0.1327	0.11566	0.06644	0.14977	0.33841	0.053674	0.12029	-2.2687	-2.0146	-2.2979	-2.6646	-2.1688	-2.4271	-2.4125	-2.1229	-2.4562	-2.4396	-2.3125	-2.7354	-2.1271	-2.3771	-2.5125	-2.0854	-1.376	252.485	129.371	250.734	-79.137	33.340	-76.510	208.583	194.867	57.376	-76.445	209.972	255.841	206.257	54.843	250.228	6.5456e-05	0.00058785	0.00010653	883.64	7.9715e-06	1.0335e-05	1070.5	331.44	6.7218e-06	2.0148e-05	429.87	164.29	123.64	59.567	8.9808e-06	83.155	0.0063986	0.0084408	0.0023706	933.89	8.7943e-05	9.3101e-05	1118.1	355.68	8.7856e-05	9.2615e-05	462.9	175.16	134.93	63.473	8.9939e-05	87.781	-86.803	-61.713	-77.689	-86.429	102.386	172.385	-87.353	-80.341	142.264	70.820	-82.621	-77.710	-74.479	-69.928	53.812	-73.873	-8191	255	
1005.695	1	1	0	0	0.31814	0.20339	0.18082	0.24901	0.064383	0.23026	0.15433	0.32444	0.18501	0.09376	0.092152	0.17747	0.19025	0.092644	0.3054	0.22472	-2.0979	-2.2562	-2.1021	-2.6604	-2.0917	-2.2375	-2.7854	-1.9958	-2.5938	-2.2417	-2.1708	-2.5229	-2.3354	-2.4604	-2.3292	-2.2896	198.873	89.273	258.851	201.790	196.245	89.597	163.896	177.551	169.327	223.835	-64.384	196.507	228.240	-36.478	68.161	139.995	0.0003894	0.0012805	4.17e-05	883.09	9.1756e-06	4.0047e-06	1067.4	330.64	1.8267e-06	1.013e-05	429.5	164.46	123.68	59.556	1.0645e-05	83.072	0.0065311	0.0084578	0.0023632	934.12	8.8883e-05	9.3914e-05	1115.8	354.74	8.9226e-05	9.2526e-05	463.57	175.4	135	63.423	9.0052e-05	87.675	243.661	204.965	117.035	-86.363	81.251	-51.707	-87.337	-80.350	-11.604	82.499	-82.711	-77.923	-74.510	-70.021	-57.087	-73.896	-8191	255	
1005.791	1	1	0	0	0.095093	0.032602	0.24744	0.17261	0.29879	0.07571	0.18675	0.35687	0.16729	0.14428	0.11405	0.13881	0.19014	0.29897	0.14553	0.21054	-2.1208	-2.2875	-2.2188	-2.6042	-2.25	-2.3521	-2.6292	-2.2146	-2.3521	-2.275	-2.3542	-2.6792	-2.2875	-2.2354	-2.5417	-2.3396	-71.465	10.772	77.546	-85.963	170.012	259.124	116.415	95.057	121.317	82.054	-46.949	144.603	-78.020	243.848	40.010	-69.224	0.00035564	0.0013758	0.00038914	880.59	7.4465e-06	1.7803e-05	1070.8	329.87	4.0398e-06	1.9267e-05	430.09	164.45	123.86	59.109	1.6059e-05	83.186	0.0066356	0.0084947	0.0023855	932.84	8.9631e-05	9.4818e-05	1117.2	354.52	9.0252e-05	9.2663e-05	462.64	175.42	134.79	63.289	8.9986e-05	87.95	261.292	46.552	184.466	-86.401	4.288	-12.402	-87.407	-80.321	119.524	86.445	-82.800	-77.798	-74.382	-69.848	99.162	-73.581	-8191	255	
1005.887	1	1	0	0	0.11514	0.25066	0.17984	0.15227	0.16119	0.053316	0.30964	0.23072	0.09521	0.058883	0.27167	0.1181	0.13225	0.25525	0.063437	0.3213	-1.825	-2.4417	-1.9479	-2.7438	-2.2604	-2.3521	-2.7229	-2.2604	-2.325	-2.3375	-2.1479	-2.35	-2.3771	-2.2042	-2.4667	-2.1792	-33.333	194.970	113.783	229.461	-54.633	-9.665	210.908	10.550	-68.527	-74.466	182.244	-87.002	144.997	203.019	222.603	213.695	0.00024433	0.00042137	0.00030049	884.22	7.3366e-06	7.4751e-06	1073.8	331.94	1.2721e-05	1.5322e-05	429.84	164.75	124.06	59.204	1.1318e-05	82.943	0.0067026	0.0083976	0.0023576	937.47	8.8786e-05	9.4499e-05	1119.3	355.52	8.997e-05	9.2956e-05	462.46	175.81	134.76	63.201	8.9181e-05	87.504	-83.919	31.463	-50.997	-86.315	-71.484	122.008	-87.371	-80.516	119.412	22.621	-82.418	-77.879	-74.536	-70.157	58.850	-73.790	-8191	255	
1005.983	1	1	0	0	0.11777	0.11151	0.24554	0.2529	0.16637	0.26988	0.16055	0.19252	0.33936	0.14903	0.2319	0.21501	0.061022	0.30108	0.32762	0.12779	-1.85	-2.4813	-1.95	-2.5146	-2.2479	-2.0667	-2.6813	-2.2458	-2.2521	-2.4125	-1.9875	-2.3729	-2.3292	-2.1333	-2.4833	-2.1958	-2.043	159.067	-26.300	217.882	-7.242	119.557	138.934	-85.179	78.166	237.081	197.467	226.862	-30.809	237.671	112.505	-10.559	0.00028159	0.0019763	0.00030667	881.71	8.1714e-06	9.4574e-06	1071.8	331.92	1.6003e-06	1.0308e-05	429.42	163.74	123.47	58.965	1.152e-05	82.387	0.0067166	0.0083338	0.0023481	934.3	8.8724e-05	9.3585e-05	1114	354.94	9.0503e-05	9.1784e-05	460.77	175.19	134.63	63.004	9.0708e-05	87.055	-94.246	-22.482	246.545	-86.343	107.664	66.396	-87.389	-80.446	104.243	172.623	-82.953	-78.207	-74.613	-70.068	109.903	-73.944	-8191	255	
1006.079	1	1	0	0	0.11681	0.18508	0.080324	0.29607	0.22658	0.18178	0.15147	0.14618	0.078136	0.13986	0.1846	0.18278	0.26254	0.15404	0.21802	0.2484	-1.6646	-2.3646	-1.875	-2.3375	-2.4667	-2.0187	-2.7021	-2.4125	-2.1354	-2.5583	-2.2396	-2.2833	-2.5479	-2.0563	-2.5375	-2.3563	41.985	117.798	139.344	-75.735	-24.353	208.888	242.977	137.248	2.646	10.389	249.395	261.143	153.832	-85.428	255.295	219.256	0.00027916	0.00085711	0.00019608	880.72	5.8779e-06	4.9427e-06	1064.3	330.36	4.2839e-06	7.8047e-06	428.45	163.82	123.58	59.043	2.4387e-05	82.708	0.0067364	0.0082847	0.002366	935.68	8.8974e-05	9.3819e-05	1115.8	354.85	9.1401e-05	9.1311e-05	461.36	175.09	134.77	63.102	9.0961e-05	87.431	-78.021	-17.604	-17.008	-86.038	19.758	12.936	-87.286	-80.408	-24.011	127.902	-82.633	-77.670	-74.405	-70.014	70.187	-73.717	-8191	255	
1006.174	1	1	0	0	0.21756	0.2578	0.0069055	0.17881	0.10744	0.0421	0.22315	0.35706	0.26572	0.075258	0.1964	0.2454	0.19968	0.10699	0.16141	0.41759	-1.75	-2.3667	-1.9937	-2.2146	-2.4062	-1.975	-2.5896	-2.2646	-2.1208	-2.5563	-2.1021	-2.4542	-2.6083	-2.2229	-2.3583	-2.2271	-59.870	-80.935	183.187	-95.088	229.562	-63.248	183.614	140.308	105.062	70.441	136.747	29.015	-83.477	172.165	-60.427	233.333	0.00023852	0.00071267	0.0001823	880.67	6.8675e-06	1.1998e-05	1069	332.23	5.8485e-06	1.7422e-05	429.46	163.55	123.83	59.447	8.7355e-06	83.112	0.0067209	0.008159	0.0023728	934.87	8.8467e-05	9.2548e-05	1115.1	355.15	8.9494e-05	9.18e-05	461.24	175.73	135.02	63.248	9.0816e-05	87.7	-87.842	29.982	46.826	-86.196	241.962	118.320	-87.330	-80.565	172.624	-6.666	-83.028	-77.672	-74.460	-69.914	76.061	-74.045	-8191	255	
1006.272	1	1	0	0	0.11576	0.070508	0.039234	0.29998	0.07487	0.22296	0.16236	0.24901	0.03205	0.1589	0.18255	0.4425	0.15984	0.12957	0.21123	0.29271	-1.5187	-2.5375	-2.1625	-2.2875	-2.4875	-2.2333	-2.4479	-2.4062	-1.9021	-2.5375	-2.2979	-2.3271	-2.6562	-2.2146	-2.4396	-2.5792	-81.885	-95.275	101.068	251.391	251.179	251.341	241.124	222.562	39.531	184.976	61.000	230.137	142.216	-69.065	20.856	181.981	0.00027557	0.0014344	0.00032691	882.06	5.0561e-06	8.6839e-06	1072.5	332.84	3.7507e-06	1.7592e-05	429.87	164.66	124.2	59.525	5.3009e-07	82.931	0.0067008	0.0082351	0.0023583	936.77	8.7508e-05	9.2694e-05	1120.9	356.5	8.9418e-05	9.2447e-05	462.82	176.44	135.13	63.545	9.2043e-05	87.757	254.530	2.532	259.063	-86.158	145.164	-82.877	-87.272	-80.531	80.309	151.629	-82.766	-77.814	-74.587	-70.028	24.147	-73.411	-8191	255	
1006.391	1	1	0	0	0.36494	0.10574	0.19091	0.1817	0.14667	0.22302	0.36758	0.40576	0.024466	0.16915	0.14963	0.034497	0.1691	0.24787	0.20881	0.047389	-1.675	-2.4083	-2.2167	-2.2	-2.5479	-2.1875	-2.4604	-2.4021	-2.2771	-2.3646	-2.3854	-2.1312	-2.525	-2.0917	-2.1583	-2.5333	-40.998	258.111	68.994	140.532	64.855	234.844	228.255	-95.581	-10.922	220.036	-97.057	98.479	220.840	222.340	-77.581	231.721	0.00030797	0.0012409	0.00022038	880.15	1.1975e-05	8.9138e-06	1070.8	331.36	2.5139e-06	3.3962e-06	429.36	162.66	123.75	58.967	2.0444e-05	82.635	0.0066439	0.008318	0.0023961	938.48	8.7939e-05	9.2928e-05	1119.1	355.32	8.945e-05	9.2663e-05	461.87	175.24	134.5	63.083	9.2451e-05	87.134	-95.183	-16.489	-19.093	-86.522	-17.280	70.865	-87.189	-80.552	10.432	246.759	-82.494	-77.848	-74.264	-69.952	56.311	-74.135	-8191	255	
1006.487	1	1	0	0	0.33955	0.11273	0.30748	0.36471	0.14234	0.12808	0.20176	0.13195	0.1931	0.28436	0.43294	0.20316	0.37314	0.31374	0.34146	0.19068	-1.6479	-2.5917	-2.1583	-2.1458	-2.6813	-2.2042	-2.2229	-2.4667	-2.0187	-2.5292	-2.3792	-2.2167	-2.5708	-2.2542	-2.1479	-2.7021	163.654	86.755	63.698	191.544	-23.700	130.752	208.753	216.664	-14.418	-48.491	248.544	187.659	235.807	-84.887	30.047	92.567	0.00034352	0.0008331	0.0006818	880.83	3.7123e-06	2.2867e-05	1068.5	330.31	6.5306e-06	2.3903e-06	427.48	163.28	122.96	58.914	7.6618e-06	82.044	0.0066078	0.0084145	0.0023761	934.78	8.8466e-05	9.3411e-05	1116.6	353.2	9.0597e-05	9.4091e-05	460.23	174.83	134.04	62.859	9.3042e-05	86.914	259.107	-5.222	20.220	-86.205	57.529	74.413	-87.650	-80.490	231.561	165.165	-82.777	-78.180	-74.557	-69.851	100.770	-74.058	-8191	255	
1006.583	1	1	0	0	0.10957	0.10267	0.12233	0.078211	0.26728	0.12799	0.12919	0.28993	0.22461	0.14241	0.2473	0.10598	0.12215	0.27233	0.23527	0.21074	-1.5562	-2.4271	-2.325	-2.15	-2.5062	-2.375	-2.2271	-2.6771	-1.95	-2.0375	-2.3708	-2.1646	-2.5104	-2.2625	-2.0938	-2.4875	222.844	172.438	201.173	196.949	-96.045	-3.827	257.080	170.663	183.039	-23.557	99.507	210.545	227.213	-87.005	113.272	245.564	0.00030952	0.0004057	4.2772e-05	883.01	4.6401e-06	6.1117e-06	1071.7	330.17	2.1101e-06	3.5134e-06	428.21	163.8	123.63	58.835	1.1185e-05	82.52	0.0065998	0.0085038	0.0023609	933.7	8.8441e-05	9.3506e-05	1118.2	353.54	9.0147e-05	9.4417e-05	461.01	174.97	134.39	62.804	9.3215e-05	87.094	244.743	247.898	159.670	-86.420	79.154	126.033	-87.325	-80.414	71.846	28.570	-82.723	-77.832	-74.285	-70.033	152.802	-73.724	-8191	255	
1006.679	1	1	0	0	0.15247	0.37061	0.18095	0.20256	0.11448	0.23293	0.19692	0.16016	0.36439	0.14237	0.093826	0.2579	0.18032	0.13358	0.30715	0.16478	-1.6063	-2.25	-2.2958	-2.0687	-2.3792	-2.1667	-2.2062	-2.5854	-1.9979	-2.3146	-2.6417	-2.0604	-2.3625	-2.3812	-2.0229	-2.6271	139.906	39.155	-1.291	201.826	-53.896	4.498	179.960	-66.214	78.388	-16.389	-33.350	220.309	180.744	-94.220	179.694	205.933	0.00035773	0.00045789	0.00036699	876.4	2.8455e-06	5.2795e-06	1067.3	330.85	8.0355e-06	1.7583e-05	428.22	165	123.79	59.293	8.6082e-06	83.133	0.0066233	0.0085755	0.0023624	933.38	8.9665e-05	9.3197e-05	1117.6	354.36	8.9831e-05	9.3571e-05	462.07	175.72	135.07	63.141	9.1978e-05	87.692	-92.937	85.698	259.798	-85.942	55.538	47.208	-87.033	-80.581	72.359	64.873	-82.900	-77.895	-74.233	-69.986	74.252	-73.925	-8191	255	
1006.775	1	1	0	0	0.25983	0.10976	0.22731	0.12943	0.12448	0.1649	0.25204	0.18477	0.1137	0.11292	0.2909	0.16877	0.063754	0.038441	0.094557	0.080922	-1.7958	-2.1146	-2.5875	-2.3083	-2.3438	-2.4542	-2.3875	-2.7	-2.2167	-2.1771	-2.7188	-2.225	-2.5979	-2.3563	-2.25	-2.5083	173.596	233.220	-45.254	-57.114	167.395	61.234	210.667	167.097	175.142	45.738	-58.661	228.234	187.711	158.151	168.866	145.900	0.00037756	0.0013384	0.00017414	881.45	4.9919e-06	1.3155e-05	1068.7	329.52	9.6703e-06	1.8944e-05	429.18	164.1	123.58	59.082	1.0959e-05	83.239	0.0066035	0.0085497	0.0023243	933.79	8.918e-05	9.2085e-05	1119	354.16	8.9309e-05	9.4107e-05	461.62	175.37	135.12	63.151	9.0842e-05	87.648	-97.369	-30.607	-7.383	-86.181	75.079	166.455	-87.136	-80.488	32.279	161.213	-82.549	-77.843	-74.709	-69.866	-7.649	-73.829	-8191	255	
1006.871	1	1	0	0	0.06866	0.093987	0.12041	0.14395	0.15996	0.17173	0.34591	0.26195	0.17318	0.3219	0.25966	0.31755	0.14541	0.31125	0.14719	0.18109	-1.8583	-2.2271	-2.6167	-2.2354	-2.2208	-2.4729	-2.2375	-2.6063	-2.1521	-2.1896	-2.6479	-2.3667	-2.325	-2.4604	-2.0396	-2.35	-71.884	166.274	19.040	106.049	98.428	233.225	236.654	193.068	65.348	243.065	162.060	190.156	-64.801	235.662	181.732	122.003	0.00024336	0.00011277	0.00033979	884.29	1.1447e-05	1.4238e-05	1064.1	330.96	8.1342e-06	7.5298e-06	430.57	164.25	124.06	59.183	1.3496e-05	82.531	0.0065627	0.0084939	0.0022993	933.79	8.8942e-05	9.1434e-05	1114.1	354.03	8.9093e-05	9.3334e-05	460.78	175.25	135.15	63.054	9.074e-05	87.419	229.616	-11.067	52.878	-86.124	205.717	54.442	-87.573	-80.120	42.294	-29.088	-82.499	-78.041	-74.274	-70.231	-62.022	-73.879	-8191	255	
1006.992	1	1	0	0	0.27955	0.10055	0.26221	0.041971	0.088713	0.32078	0.12132	0.1466	0.14584	0.031599	0.16504	0.16107	0.13744	0.21649	0.19361	0.031815	-1.8625	-2.0292	-2.3917	-2.3417	-2.1521	-2.3937	-2.1063	-2.7229	-2.2792	-1.9979	-2.6125	-2.3125	-2.3812	-2.4833	-2.1312	-2.6167	51.052	187.499	189.482	236.658	7.702	130.782	184.810	147.720	-77.445	215.104	-95.262	179.392	-74.480	198.382	-1.538	259.968	0.00024065	0.0006205	0.0001358	881.43	7.2228e-07	1.6801e-05	1070.2	333.36	3.4711e-06	4.9531e-06	431.44	163.99	124.71	59.52	2.1466e-05	83.427	0.0065681	0.0084726	0.0023145	933.63	8.9183e-05	9.128e-05	1116	355.65	8.8497e-05	9.2381e-05	462.36	175.61	135.49	63.404	8.9292e-05	87.911	242.836	-39.369	-39.802	-86.400	-13.139	139.066	-87.365	-80.247	-37.022	-81.486	-82.907	-77.937	-74.386	-70.026	70.022	-73.775	-8191	255	
1007.086	1	1	0	0	0.24618	0.34627	0.12259	0.13629	0.090303	0.18412	0.029468	0.081484	0.11348	0.2309	0.13581	0.17346	0.19418	0.20258	0.047222	0.15941	-2.1979	-1.9854	-2.5583	-2.3063	-2.4021	-2.4625	-2.1854	-2.3479	-2.4729	-2.2396	-2.5292	-2.3479	-2.2333	-2.5583	-2.2313	-2.6146	199.832	4.496	220.648	-57.156	139.811	238.836	-68.433	130.803	-28.882	31.519	129.605	228.263	157.592	241.784	128.827	147.493	0.00042407	0.002048	0.00045764	883.56	5.8201e-06	1.1649e-05	1074.8	332.77	1.039e-05	1.2673e-05	430.6	164.26	124.84	59.572	9.3997e-06	83.243	0.0064827	0.008323	0.0022717	934.05	8.7894e-05	8.9943e-05	1116	355.94	8.6727e-05	9.0823e-05	462.09	176.06	135.46	63.369	8.9097e-05	88.067	245.838	-45.865	25.777	-86.318	232.764	100.963	-87.209	-80.367	43.166	105.257	-82.669	-78.002	-74.757	-69.945	-20.816	-73.843	-8191	255	
1007.182	1	1	0	0	0.23953	0.14391	0.07774	0.096758	0.18299	0.30615	0.26259	0.15917	0.26452	0.16815	0.032249	0.19983	0.045452	0.19506	0.13784	0.22912	-1.9208	-2.0208	-2.5312	-2.4292	-2.0917	-2.55	-2.3812	-2.4062	-2.6688	-2.1396	-2.4562	-2.5458	-1.9771	-2.4979	-2.0875	-2.3729	-18.796	113.691	43.965	-34.544	7.375	145.592	182.764	210.378	184.135	260.144	9.532	165.343	-30.698	154.099	-8.850	250.810	0.00033098	0.0010379	0.00023453	884.94	3.6696e-06	1.2947e-05	1072	335.11	3.8987e-06	8.7723e-06	432.48	165.8	125.21	59.873	5.8602e-06	83.384	0.0064283	0.0082444	0.0022927	936.29	8.7695e-05	9.0201e-05	1117.6	357.47	8.6989e-05	9.1347e-05	464.65	176.62	136.07	63.644	8.8586e-05	88.156	236.480	-73.305	-33.805	-86.224	186.900	45.306	-87.416	-80.467	110.884	-17.133	-83.059	-77.881	-74.410	-69.955	-30.203	-73.790	-8191	255	
1007.256	1	1	0	0	0.088041	0.21886	0.0319	0.077631	0.037475	0.090935	0.30235	0.11085	0.088385	0.19461	0.082369	0.17768	0.23968	0.25541	0.16893	0.098404	-1.9125	-1.9458	-2.4792	-2.3688	-2.1792	-2.5667	-2.3083	-2.1646	-2.5021	-2.0208	-2.4417	-2.5563	-2.2062	-2.675	-2.4271	-2.3771	238.874	227.526	23.125	77.006	181.376	85.166	214.683	64.705	259.967	256.456	231.548	186.124	202.293	-69.329	-10.379	146.290	0.0003367	0.0021525	0.00019026	883.18	9.3239e-06	4.5281e-06	1073	332.54	8.1462e-06	1.6735e-05	428.2	163.37	123.89	59.172	1.1872e-05	83.126	0.0064333	0.0081661	0.0023118	934.56	8.7043e-05	9.0154e-05	1115.8	356.48	8.6632e-05	9.1905e-05	461.17	175.2	135.12	63.159	8.9004e-05	87.422	-74.635	-48.824	-43.516	-86.282	10.845	55.914	-87.411	-80.380	-43.230	55.417	-82.813	-77.800	-74.405	-70.010	255.354	-73.820	-8191	255	
1007.375	1	1	0	0	0.1857	0.028658	0.10338	0.16618	0.026261	0.032904	0.35634	0.23602	0.039277	0.27749	0.10982	0.15577	0.084695	0.27818	0.20247	0.21068	-2.0583	-2.0854	-2.2542	-2.4188	-1.7979	-2.3333	-2.3792	-2.1562	-2.425	-2.1396	-2.3583	-2.5187	-2.1958	-2.4583	-2.2625	-2.2333	-1.844	88.920	191.320	180.315	-3.479	-29.666	237.376	247.353	-60.542	86.347	-26.804	202.317	-73.100	-79.538	39.472	167.242	0.00035076	0.0008268	3.2872e-05	880.43	5.664e-06	1.4615e-05	1067.8	331.23	5.1541e-06	1.0331e-05	426.64	163.35	123.71	59.331	1.0579e-05	82.404	0.0064408	0.0081863	0.0023467	933.73	8.793e-05	9.1729e-05	1114.7	355.91	8.7057e-05	9.1851e-05	460.76	174.69	134.62	63.023	9.0374e-05	87.129	254.612	-24.543	232.524	-86.293	-82.480	125.606	-87.105	-80.258	92.666	46.814	-82.780	-77.553	-74.288	-69.950	-28.746	-74.012	-8191	255	
1007.471	1	1	0	0	0.06476	0.12435	0.081634	0.24117	0.31171	0.10327	0.14936	0.20861	0.2913	0.1032	0.20255	0.089529	0.18516	0.55034	0.22902	0.29381	-2.1021	-2.1771	-2.1625	-2.6854	-1.9417	-2.5104	-2.6458	-2.1521	-2.5333	-2.2708	-2.4917	-2.6646	-2.1688	-2.3917	-2.4458	-2.2917	-60.538	152.035	-49.014	260.079	251.663	105.667	-18.166	229.057	14.828	-40.507	207.740	151.213	-62.978	251.187	167.416	60.670	0.00029992	0.0012049	0.000391	881.07	6.816e-06	4.7651e-06	1067.9	331.75	6.2723e-06	1.3247e-05	428.17	163.07	123.34	59.136	4.0072e-06	82.33	0.0064988	0.0082974	0.0023794	933.56	8.8501e-05	9.2636e-05	1114.1	355.48	8.7904e-05	9.276e-05	461.86	174.58	134.52	63.037	9.031e-05	87.039	251.467	-17.326	6.545	-86.309	-20.755	77.362	-87.247	-80.513	-0.520	70.542	-82.554	-77.914	-74.612	-69.987	81.550	-73.898	-8191	255	
1007.567	1	1	0	0	0.11847	0.26283	0.097304	0.22861	0.17749	0.21761	0.16761	0.11426	0.04991	0.093269	0.1534	0.15373	0.18365	0.28333	0.043851	0.36847	-2.2125	-2.3375	-2.1208	-2.6479	-2.1417	-2.325	-2.6542	-2.1042	-2.5625	-2.2875	-2.3917	-2.4833	-2.0458	-2.4417	-2.5187	-2.2146	9.104	102.444	-18.753	209.402	-93.847	92.887	143.701	252.027	-55.944	220.868	-29.956	229.699	169.138	-92.299	22.046	-55.985	0.00031228	0.0014981	0.0005514	883.53	6.5306e-06	2.0335e-05	1062.7	330.44	7.3636e-06	1.0568e-05	426.7	163.27	123.46	58.716	1.3379e-05	82.538	0.0065234	0.0082447	0.0023866	932.97	8.8754e-05	9.3594e-05	1114.5	354.99	8.8935e-05	9.4034e-05	461.03	174.67	134.33	62.885	9.0812e-05	87.122	246.450	89.304	14.735	-86.321	196.771	57.970	-87.302	-80.403	24.726	92.917	-82.579	-78.110	-74.315	-70.005	-48.890	-73.674	-8191	255	
1007.663	1	1	0	0	0.041234	0.020848	0.09873	0.34829	0.13674	0.19239	0.051663	0.021682	0.1143	0.14113	0.29612	0.13945	0.11098	0.096184	0.076877	0.24072	-2.1917	-2.3708	-2.05	-2.6292	-2.15	-2.375	-2.6937	-2.1771	-2.5062	-2.2708	-2.0958	-2.6729	-2.4375	-2.5312	-2.3812	-2.1188	163.181	103.029	165.308	-77.834	194.219	74.230	205.303	240.583	-32.165	-22.176	213.821	202.314	-81.614	196.327	80.149	138.006	0.0001623	0.0008942	0.00029761	881.29	1.2828e-05	1.3633e-05	1062.6	330.55	6.9492e-06	6.7811e-06	426.72	163.55	122.96	58.811	6.178e-06	82.023	0.0066171	0.0083808	0.0023937	934.65	8.8812e-05	9.4326e-05	1115.1	353.64	8.8695e-05	9.295e-05	460.39	174.48	134.19	62.868	8.9914e-05	86.696	-95.056	141.257	-39.934	-86.389	-46.107	116.916	-87.262	-80.673	145.841	-43.042	-82.772	-78.103	-74.297	-70.176	38.891	-74.103	-8191	255	
1007.784	1	1	0	0	0.36742	0.17461	0.084756	0.2011	0.31834	0.011609	0.21074	0.12482	0.26401	0.096077	0.072485	0.19495	0.11021	0.40798	0.083197	0.20422	-1.7208	-2.3937	-2.1813	-2.5812	-2.2854	-2.3187	-2.6396	-2.2042	-2.4854	-2.4208	-2.0604	-2.5875	-2.2708	-2.3125	-2.5292	-2.3542	-66.558	-72.937	247.031	172.519	-50.087	-15.511	220.673	239.282	-31.957	57.329	29.186	223.407	118.229	244.063	83.483	-78.173	0.00037888	5.9683e-05	0.00032409	878.16	7.7647e-06	9.7085e-06	1061.4	327.78	5.1798e-06	5.8504e-06	423.16	162.08	122.14	58.173	1.2002e-05	81.376	0.0066104	0.0083993	0.0023936	931.51	8.907e-05	9.4553e-05	1111.1	351.76	9.0599e-05	9.2981e-05	457.58	173.86	133.59	62.396	9.053e-05	86.41	253.571	65.757	-0.416	-86.121	0.788	9.531	-87.367	-80.282	259.334	78.309	-82.722	-77.761	-74.608	-69.866	20.929	-73.789	-8191	255	
1007.880	1	1	0	0	0.02931	0.091753	0.25464	0.22948	0.1398	0.1526	0.050417	0.172	0.32093	0.13997	0.28536	0.037267	0.30635	0.074489	0.024601	0.38266	-1.8854	-2.3917	-2.0292	-2.4958	-2.2104	-1.9542	-2.5521	-2.3208	-2.2583	-2.4771	-2.1167	-2.5229	-2.5292	-2.3771	-2.4854	-2.3354	192.330	205.420	70.280	-83.367	172.253	-52.582	80.728	2.615	-11.173	136.286	210.908	45.992	240.120	-1.431	-50.575	183.096	0.00029889	0.00024786	0.0002365	879.5	6.7974e-06	1.9766e-05	1065.7	328.18	4.7548e-06	2.2771e-05	425.31	161.83	122.7	58.479	1.4342e-05	81.73	0.0067222	0.0084294	0.0024079	931.37	9.0077e-05	9.5156e-05	1112.9	352.26	9.3169e-05	9.4021e-05	458.4	173.8	133.53	62.552	9.1121e-05	86.464	252.638	1.811	-13.567	-86.413	82.309	67.425	-87.643	-80.436	213.810	11.871	-82.772	-77.688	-74.660	-69.967	133.722	-73.875	-8191	255	
1007.952	1	1	0	0	0.073398	0.26029	0.12661	0.25503	0.2555	0.32477	0.30674	0.049791	0.25088	0.099042	0.23058	0.10413	0.3732	0.23796	0.20922	0.1533	-1.8354	-2.3604	-1.9896	-2.5229	-2.2146	-2.0417	-2.6021	-2.25	-2.0354	-2.5583	-2.3479	-2.4021	-2.3563	-1.925	-2.4062	-2.2708	2.447	153.174	173.436	153.067	127.001	260.991	186.822	202.283	245.891	-3.809	216.201	166.662	248.129	225.751	-32.133	212.654	0.00050806	0.001156	0.00039785	876.78	4.5669e-06	8.9694e-06	1064.6	327.85	8.9277e-07	5.8632e-06	427.08	162.87	122.68	58.798	5.161e-06	82.048	0.0068106	0.0084512	0.0023825	932.63	9.0026e-05	9.4818e-05	1113.1	351.85	9.2265e-05	9.3241e-05	459.18	174.57	134	62.774	9.1587e-05	86.989	252.176	-51.968	-14.643	-86.209	9.669	68.205	-87.446	-80.423	42.940	84.946	-82.727	-77.772	-74.440	-70.057	168.629	-73.814	-8191	255	
1008.072	1	1	0	0	0.185	0.34667	0.26241	0.11397	0.080744	0.097485	0.23595	0.44996	0.1042	0.31895	0.043343	0.091242	0.20373	0.35398	0.21421	0.23855	-1.7687	-2.5312	-1.9146	-2.5729	-2.4437	-2.1021	-2.4979	-2.3667	-2.0896	-2.4583	-2.2667	-2.3542	-2.4208	-2.1375	-2.1979	-2.4125	178.003	224.436	2.987	234.274	-21.020	116.294	131.815	-94.900	161.667	-39.021	-89.433	-78.596	212.153	194.380	225.670	155.527	0.00029877	0.00028729	0.00025807	880.38	2.0859e-06	1.59e-05	1065.4	329.02	8.7005e-06	1.5501e-05	428.22	163.7	122.7	59.144	8.8107e-06	82.298	0.0068057	0.0085264	0.0023797	936.02	8.9623e-05	9.5209e-05	1114.3	353.51	9.3145e-05	9.3297e-05	462.05	175.55	134.68	63.105	9.2265e-05	87.255	252.812	-91.733	83.958	-86.279	164.044	28.061	-87.335	-80.174	73.806	5.845	-82.614	-77.989	-74.505	-69.835	85.015	-73.866	-8191	255	
1008.167	1	1	0	0	0.092067	0.18114	0.24585	0.078847	0.27567	0.29806	0.11725	0.12266	0.47259	0.1383	0.16065	0.23892	0.12365	0.14685	0.19306	0.34501	-1.7104	-2.5229	-1.8354	-2.2354	-2.4396	-2.1021	-2.4146	-2.3104	-2.1437	-2.5875	-2.4771	-2.3646	-2.5563	-2.3271	-2.2479	-2.2917	-1.141	155.360	-64.989	211.910	31.859	117.228	257.637	-68.947	10.090	176.682	243.908	-71.993	245.054	192.304	81.895	248.973	0.00025492	0.00081826	0.00014308	878.06	2.2758e-06	1.4529e-05	1068.6	328.65	1.4175e-05	1.5267e-05	426.63	163.5	123.37	58.873	8.7545e-06	82.03	0.0068053	0.0085628	0.0024102	934.85	9.0019e-05	9.5318e-05	1115.8	353.83	9.2246e-05	9.3834e-05	459.94	175.1	134.75	62.826	9.2621e-05	86.863	-72.771	-80.390	70.794	-86.372	137.345	113.924	-87.432	-80.141	99.526	133.039	-82.920	-77.790	-74.247	-70.125	-6.461	-73.963	-8191	255	
1008.265	1	1	0	0	0.23658	0.12654	0.058929	0.24905	0.088952	0.24489	0.045017	0.17843	0.207	0.035023	0.27182	0.15063	0.16753	0.2815	0.14149	0.21727	-1.7333	-2.3167	-2.2417	-2.2104	-2.3312	-2.1042	-2.4771	-2.5687	-1.9979	-2.5375	-2.3979	-2.3187	-2.5438	-2.1771	-2.3542	-2.6667	168.641	57.506	229.165	186.632	-8.933	3.894	195.627	179.809	90.893	6.876	-62.822	249.483	236.868	259.655	-73.574	176.533	0.00030946	0.00063621	0.000445	876.01	1.3394e-06	3.2546e-06	1066.6	328.94	1.3523e-05	7.5347e-06	427.56	163.83	123.66	58.887	9.4824e-06	81.905	0.0067577	0.0085061	0.0023843	934.47	9.0118e-05	9.4171e-05	1112.9	354.1	9.1077e-05	9.4129e-05	460.5	175.29	135.02	62.983	9.2939e-05	86.95	250.506	-23.024	99.504	-86.202	97.652	93.627	-87.476	-80.343	67.316	124.376	-82.651	-77.727	-74.569	-70.052	109.750	-73.656	-8191	255	
1008.383	1	1	0	0	0.26673	0.16536	0.19307	0.34548	0.24439	0.11185	0.12423	0.34544	0.14022	0.23712	0.14514	0.024552	0.38071	0.13147	0.09316	0.16122	-1.6083	-2.5167	-2.225	-2.0958	-2.4333	-2.2708	-2.4062	-2.5083	-2.1	-2.4208	-2.5104	-2.1354	-2.6604	-2.2521	-2.2479	-2.6437	10.590	53.590	-55.409	187.890	230.243	-92.006	-83.454	194.617	146.189	6.204	143.239	-17.231	206.380	-46.578	200.743	205.452	0.00025665	0.00055636	0.00036912	879.03	6.8971e-06	1.44e-05	1063.6	328.02	4.2798e-06	1.9171e-05	425.4	163.05	122.88	58.706	1.0707e-05	81.91	0.0067271	0.0085167	0.0023832	933.45	9.0057e-05	9.4457e-05	1114.8	353.19	9.2155e-05	9.4389e-05	459.71	174.56	134.43	62.654	9.4921e-05	86.791	240.831	-15.561	-6.755	-86.510	113.996	-2.269	-87.146	-80.386	-64.922	133.013	-82.556	-77.850	-74.295	-70.166	-88.247	-73.629	-8191	255	
1008.480	1	1	0	0	0.013594	0.041108	0.040252	0.23047	0.24861	0.23814	0.09465	0.25886	0.17641	0.12862	0.215	0.10148	0.27887	0.27175	0.28098	0.24225	-1.6625	-2.3646	-2.3208	-2.1917	-2.4771	-2.2146	-2.375	-2.4417	-2.1229	-2.2562	-2.3438	-2.1625	-2.5187	-2.4021	-2.3833	-2.6792	48.364	83.244	234.785	203.176	208.718	147.275	213.783	5.766	82.856	6.435	75.239	-71.487	227.340	-87.545	-34.921	201.189	0.00027092	0.00023944	0.00019979	884.47	2.0461e-06	3.387e-06	1065.8	329.33	5.7106e-06	8.3068e-06	425.32	163.16	122.54	59.085	8.9126e-06	81.784	0.0067817	0.0086058	0.002387	936.7	9.0249e-05	9.4885e-05	1116.8	354.13	9.1231e-05	9.5439e-05	459.17	174.95	134.15	62.874	9.5498e-05	86.748	248.080	42.700	30.778	-86.415	27.781	-97.869	-87.278	-80.593	20.763	92.572	-83.019	-77.696	-74.476	-70.217	-26.195	-73.924	-8191	255	
1008.551	1	1	0	0	0.13802	0.16109	0.32983	0.15573	0.20407	0.056637	0.126	0.32101	0.13262	0.20089	0.2306	0.26624	0.18613	0.35805	0.37279	0.2008	-1.6688	-2.3979	-2.3271	-2.2042	-2.6396	-2.3354	-2.3896	-2.6688	-2.1437	-2.4	-2.5812	-2.1333	-2.5312	-2.4708	-2.15	-2.8021	-41.780	-12.773	172.941	-50.517	167.231	-67.541	53.794	-54.295	126.166	243.479	146.636	210.510	165.657	184.383	116.777	-90.065	0.00044042	0.00093913	0.00017823	881.81	1.0085e-05	4.5368e-06	1067	328.71	8.9518e-06	8.8814e-06	424.96	162.15	122.78	58.284	8.5293e-06	81.603	0.0068224	0.0087606	0.0024268	936.95	9.1196e-05	9.606e-05	1118.5	353.55	9.2053e-05	9.769e-05	459.27	174.06	134.16	62.494	9.5512e-05	86.298	247.741	71.336	-43.495	-86.047	72.614	39.252	-87.150	-80.165	114.781	154.125	-82.806	-77.914	-74.557	-69.872	-25.647	-73.643	-8191	255	
1008.672	1	1	0	0	0.15362	0.22639	0.064298	0.20414	0.25953	0.16478	0.38858	0.2757	0.12853	0.1359	0.16511	0.22461	0.23558	0.17606	0.18749	0.05878	-1.625	-2.1896	-2.4646	-2.2729	-2.2313	-2.4813	-2.1083	-2.6375	-2.1083	-2.2438	-2.7313	-1.975	-2.4479	-2.5417	-2.0708	-2.6521	-16.314	23.754	148.553	226.734	153.671	37.960	121.435	182.139	163.246	260.800	117.504	254.375	25.312	53.619	112.615	193.830	0.00025671	0.0013668	0.00028874	873.55	1.2026e-06	1.8304e-05	1060	326.4	2.5481e-06	9.5837e-06	423.31	161.67	122.67	58.493	8.8344e-06	81.078	0.0067825	0.0087021	0.0024439	932.64	9.1411e-05	9.5956e-05	1112.4	352.6	9.1358e-05	9.7398e-05	457.63	173.92	134.42	62.564	9.5679e-05	85.906	246.884	245.627	-15.619	-86.407	-61.453	26.855	-87.550	-80.467	140.609	82.361	-82.866	-77.692	-74.449	-70.034	155.249	-73.640	-8191	255	
1008.768	1	1	0	0	0.035861	0.16294	0.2895	0.038596	0.19946	0.084545	0.24312	0.17327	0.15452	0.12692	0.010798	0.19305	0.097063	0.22337	0.088035	0.29743	-1.9021	-2.2	-2.4313	-2.1125	-2.3208	-2.3937	-2.2458	-2.4354	-2.2875	-2.2667	-2.525	-2.2125	-2.3187	-2.4625	-2.0438	-2.6479	-66.805	224.723	-92.728	171.053	27.445	9.143	208.749	-95.786	51.632	-63.135	254.609	120.194	153.486	193.113	237.649	-87.857	0.0003999	0.00089882	0.00018058	873.07	3.0098e-06	1.4476e-05	1061.3	328.15	6.4517e-06	2.5877e-05	422.7	161.8	122.92	58.624	1.4945e-05	80.889	0.0067919	0.0088172	0.0024233	931.35	9.1852e-05	9.5864e-05	1112.3	352.4	9.1449e-05	9.733e-05	457.08	173.67	134.35	62.594	9.5385e-05	86.035	239.401	47.972	107.642	-86.152	216.588	19.108	-87.294	-80.221	172.377	19.403	-82.843	-77.552	-74.493	-70.000	61.588	-73.757	-8191	255	
#DATA ENDS
