BOXY.EXE: ISS Imagent and Oximeter Data Acquisition Program Version 0.80
Ascii Record File

#ACQ INFORMATION
2  Detector Channels 
16  External MUX Channels 
1  Auxiliary Channels 
5000  Waveform (CCF) Frequency (Hz)
1  Waveforms Skipped 
30  Waveforms Averaged 
1  Cycles Averaged 
16  Acquisitions per Waveform 
10.0806  Updata Rate (Hz) 

#FILE INFORMATION
TRUE -- External MUX Channel results are PARSED.
FALSE -- AC DC and Phase are NOT grouped.
TRUE -- Companion Program Settings File CREATED.
FALSE -- AC data not excluded
FALSE -- DC data not excluded
FALSE -- Phase data not excluded
FALSE -- Auxillary Chn. data not excluded
Tab delimiters

#CALIBRATION STATE
TRUE -- Waveform Calibration Values APPLIED.


#AUX CALIBRATION VALUES
Val Type	aux-1	

Term	1.0000e+00	
Factor	0.0000e+00	


#WF CALIBRATION VALUES
A = Detector Channel
Val Type	A-AC1	A-AC2	A-AC3	A-AC4	A-AC5	A-AC6	A-AC7	A-AC8	A-AC9	A-AC10	A-AC11	A-AC12	A-AC13	A-AC14	A-AC15	A-AC16	A-DC1	A-DC2	A-DC3	A-DC4	A-DC5	A-DC6	A-DC7	A-DC8	A-DC9	A-DC10	A-DC11	A-DC12	A-DC13	A-DC14	A-DC15	A-DC16	A-Ph1	A-Ph2	A-Ph3	A-Ph4	A-Ph5	A-Ph6	A-Ph7	A-Ph8	A-Ph9	A-Ph10	A-Ph11	A-Ph12	A-Ph13	A-Ph14	A-Ph15	A-Ph16	

Term	0.00000e+00	0.00000e+00	0.00000e+00	0.00000e+00	0.00000e+00	0.00000e+00	0.00000e+00	0.00000e+00	0.00000e+00	0.00000e+00	0.00000e+00	0.00000e+00	0.00000e+00	0.00000e+00	0.00000e+00	0.00000e+00	0.00000e+00	0.00000e+00	0.00000e+00	0.00000e+00	0.00000e+00	0.00000e+00	0.00000e+00	0.00000e+00	0.00000e+00	0.00000e+00	0.00000e+00	0.00000e+00	0.00000e+00	0.00000e+00	0.00000e+00	0.00000e+00	0.00000e+00	0.00000e+00	0.00000e+00	0.00000e+00	0.00000e+00	0.00000e+00	0.00000e+00	0.00000e+00	0.00000e+00	0.00000e+00	0.00000e+00	0.00000e+00	0.00000e+00	0.00000e+00	0.00000e+00	0.00000e+00	
Factor	1.00000e+00	1.00000e+00	1.00000e+00	1.00000e+00	1.00000e+00	1.00000e+00	1.00000e+00	1.00000e+00	1.00000e+00	1.00000e+00	1.00000e+00	1.00000e+00	1.00000e+00	1.00000e+00	1.00000e+00	1.00000e+00	1.00000e+00	1.00000e+00	1.00000e+00	1.00000e+00	1.00000e+00	1.00000e+00	1.00000e+00	1.00000e+00	1.00000e+00	1.00000e+00	1.00000e+00	1.00000e+00	1.00000e+00	1.00000e+00	1.00000e+00	1.00000e+00	X	X	X	X	X	X	X	X	X	X	X	X	X	X	X	X	

B = Detector Channel
Val Type	B-AC1	B-AC2	B-AC3	B-AC4	B-AC5	B-AC6	B-AC7	B-AC8	B-AC9	B-AC10	B-AC11	B-AC12	B-AC13	B-AC14	B-AC15	B-AC16	B-DC1	B-DC2	B-DC3	B-DC4	B-DC5	B-DC6	B-DC7	B-DC8	B-DC9	B-DC10	B-DC11	B-DC12	B-DC13	B-DC14	B-DC15	B-DC16	B-Ph1	B-Ph2	B-Ph3	B-Ph4	B-Ph5	B-Ph6	B-Ph7	B-Ph8	B-Ph9	B-Ph10	B-Ph11	B-Ph12	B-Ph13	B-Ph14	B-Ph15	B-Ph16	

Term	0.00000e+00	0.00000e+00	0.00000e+00	0.00000e+00	0.00000e+00	0.00000e+00	0.00000e+00	0.00000e+00	0.00000e+00	0.00000e+00	0.00000e+00	0.00000e+00	0.00000e+00	0.00000e+00	0.00000e+00	0.00000e+00	0.00000e+00	0.00000e+00	0.00000e+00	0.00000e+00	0.00000e+00	0.00000e+00	0.00000e+00	0.00000e+00	0.00000e+00	0.00000e+00	0.00000e+00	0.00000e+00	0.00000e+00	0.00000e+00	0.00000e+00	0.00000e+00	-1.23726e+02	-1.39918e+02	-1.78938e+02	-1.81413e+02	-3.50059e+01	-7.24347e+01	-1.57789e+02	-1.62015e+02	-7.41590e+01	-9.50557e+01	-1.80411e+02	-1.70917e+02	-1.81322e+02	-1.76271e+02	-8.71251e+01	-1.49364e+02	
Factor	1.81544e-05	1.23178e-04	2.51159e-05	1.85326e-01	8.05980e-07	9.73926e-07	1.72092e-01	5.34215e-02	8.30615e-07	1.09759e-06	1.07935e-01	3.07122e-02	2.47813e-02	9.40291e-03	9.68748e-07	1.38253e-02	5.41759e-07	5.53856e-07	1.53778e-07	8.86287e-02	6.03997e-09	6.06804e-09	7.82073e-02	2.56647e-02	6.05508e-09	6.07195e-09	4.76290e-02	1.39290e-02	1.17526e-02	4.39035e-03	6.05682e-09	6.14778e-03	X	X	X	X	X	X	X	X	X	X	X	X	X	X	X	X	



#DISTANCE SETTINGS
A = Detector Channel
A-1	A-2	A-3	A-4	A-5	A-6	A-7	A-8	A-9	A-10	A-11	A-12	A-13	A-14	A-15	A-16	

2.5000e+00	3.0000e+00	2.5000e+00	3.0000e+00	2.0000e+00	3.0000e+00	1.5000e+00	3.0000e+00	3.0000e+00	3.0000e+00	3.0000e+00	3.0000e+00	3.0000e+00	3.0000e+00	1.5000e+00	3.0000e+00	

B = Detector Channel
B-1	B-2	B-3	B-4	B-5	B-6	B-7	B-8	B-9	B-10	B-11	B-12	B-13	B-14	B-15	B-16	

1.0000e+01	1.0000e+01	1.0000e+01	1.4400e+00	1.0000e+01	1.0000e+01	1.5100e+00	1.9400e+00	1.0000e+01	1.0000e+01	1.9900e+00	2.4900e+00	2.4100e+00	2.9000e+00	1.0000e+01	2.9800e+00	




#DATA BEGINS
time	group	step	mark	flag	A-AC1	A-AC2	A-AC3	A-AC4	A-AC5	A-AC6	A-AC7	A-AC8	A-AC9	A-AC10	A-AC11	A-AC12	A-AC13	A-AC14	A-AC15	A-AC16	A-DC1	A-DC2	A-DC3	A-DC4	A-DC5	A-DC6	A-DC7	A-DC8	A-DC9	A-DC10	A-DC11	A-DC12	A-DC13	A-DC14	A-DC15	A-DC16	A-Ph1	A-Ph2	A-Ph3	A-Ph4	A-Ph5	A-Ph6	A-Ph7	A-Ph8	A-Ph9	A-Ph10	A-Ph11	A-Ph12	A-Ph13	A-Ph14	A-Ph15	A-Ph16	B-AC1	B-AC2	B-AC3	B-AC4	B-AC5	B-AC6	B-AC7	B-AC8	B-AC9	B-AC10	B-AC11	B-AC12	B-AC13	B-AC14	B-AC15	B-AC16	B-DC1	B-DC2	B-DC3	B-DC4	B-DC5	B-DC6	B-DC7	B-DC8	B-DC9	B-DC10	B-DC11	B-DC12	B-DC13	B-DC14	B-DC15	B-DC16	B-Ph1	B-Ph2	B-Ph3	B-Ph4	B-Ph5	B-Ph6	B-Ph7	B-Ph8	B-Ph9	B-Ph10	B-Ph11	B-Ph12	B-Ph13	B-Ph14	B-Ph15	B-Ph16	aux-1	digaux	

2798.561	1	1	0	256	0.085484	0.31228	0.22168	0.16672	0.22901	0.22023	0.20419	0.12578	0.12888	0.16428	0.25097	0.19172	0.21473	0.12261	0.15779	0.13667	-1.7563	-2.9292	-2.7583	-2.3479	-2.9146	-2.5812	-2.5146	-3.0438	-2.1813	-2.7083	-2.9938	-2.3229	-3.1208	-2.5687	-2.6792	-3.0604	111.481	198.239	120.972	345.700	323.070	200.225	342.457	362.214	213.021	117.448	438.593	313.469	461.790	451.661	288.475	459.274	0.00061006	0.00011191	5.4213e-05	710.08	4.2775e-06	1.3152e-06	808.5	237.71	3.4016e-06	3.5206e-06	321.87	131.95	99.806	45.94	4.4701e-06	64.063	2.5078e-05	1.2558e-05	3.5513e-06	580.47	1.3638e-07	1.462e-07	662.13	194.79	1.3788e-07	1.4353e-07	250.53	104.67	80.106	36.801	1.5161e-07	49.487	179.859	440.856	121.985	116.961	278.026	286.774	114.956	121.897	218.344	234.592	119.052	123.702	125.760	130.404	214.726	126.705	-8191	255	
2798.657	1	1	0	0	0.17585	0.090498	0.10598	0.19482	0.33432	0.11506	0.23042	0.22925	0.38601	0.12944	0.15048	0.24982	0.22508	0.18223	0.11359	0.10212	-1.9021	-2.8563	-2.7896	-2.5125	-2.8854	-2.6937	-2.5583	-3.1167	-2.5271	-2.6333	-2.8812	-2.3833	-2.9458	-2.8771	-2.4562	-2.9229	238.143	431.740	161.915	463.450	380.111	249.398	352.954	439.353	326.094	363.448	422.647	341.703	246.233	285.400	329.454	454.715	0.00056549	0.00052671	5.5592e-05	710.64	3.7668e-06	1.6593e-06	799.36	236.52	2.5382e-06	3.0025e-06	317.95	130.3	99.883	45.614	3.5769e-06	62.024	2.3072e-05	1.286e-05	3.4549e-06	580.11	1.3132e-07	1.3259e-07	659.19	193.33	1.3807e-07	1.4693e-07	248.54	103.42	79.41	36.358	1.4128e-07	48.244	181.991	187.908	139.564	117.011	287.533	206.901	115.377	121.679	245.137	183.644	119.056	123.766	126.241	130.796	252.304	126.700	-8191	255	
2798.753	1	1	0	0	0.26172	0.25302	0.11581	0.12102	0.25419	0.11653	0.14577	0.1585	0.15433	0.17818	0.14573	0.069274	0.24217	0.051974	0.083663	0.13993	-1.9083	-2.375	-2.9021	-2.2562	-2.7542	-2.6208	-2.2938	-2.9062	-2.4708	-2.4708	-3.0167	-2.4583	-3.0417	-2.7062	-2.2479	-3.3292	154.916	333.545	431.311	137.096	430.406	116.626	361.492	365.059	123.141	257.350	419.558	219.237	389.466	138.225	309.259	448.153	0.00055546	0.00033514	4.8668e-05	703.3	2.1478e-06	2.6368e-06	792.83	234.33	3.1913e-06	1.2227e-06	318.31	128.73	98.99	45.363	2.7442e-06	61.943	2.364e-05	1.3933e-05	3.1726e-06	573.23	1.3552e-07	1.4997e-07	650.97	191.2	1.416e-07	1.3895e-07	246.34	102.42	78.882	36.229	1.5394e-07	48.125	179.942	198.476	159.164	116.963	314.237	223.871	115.025	122.476	268.888	200.918	119.281	123.653	125.760	130.666	224.753	126.947	-8191	255	
2798.849	1	1	0	0	0.092524	0.078311	0.28174	0.10662	0.26388	0.17918	0.12514	0.21882	0.2067	0.05489	0.16884	0.31917	0.10962	0.085764	0.22082	0.026542	-2.1958	-2.4979	-3.2	-2.4	-2.6604	-2.75	-2.1979	-3.0479	-2.4625	-2.5792	-2.8792	-2.3042	-2.8	-2.8438	-2.3979	-3.1083	180.495	358.317	271.097	395.361	372.915	383.135	316.041	432.345	387.569	283.890	390.027	363.292	276.716	456.743	286.302	371.181	0.00055791	0.00045091	8.1589e-05	705.16	2.4502e-06	2.6391e-06	800.76	235.81	2.0535e-06	1.5165e-06	314.72	130.71	99.074	46.365	2.5804e-06	62.508	2.4457e-05	1.3373e-05	3.2405e-06	574.5	1.4282e-07	1.5013e-07	656.15	192.25	1.543e-07	1.4005e-07	246.32	103.7	79.181	36.726	1.4988e-07	48.765	179.710	199.103	148.861	116.960	291.401	270.457	115.365	121.979	248.158	204.845	119.631	123.794	126.163	130.751	230.903	126.587	-8191	255	
2798.970	1	1	0	0	0.16073	0.36317	0.094667	0.11173	0.12954	0.23889	0.15215	0.15843	0.12322	0.11246	0.049213	0.096495	0.12302	0.20381	0.085831	0.17086	-2.0646	-2.5583	-3.1562	-2.375	-2.6688	-2.8063	-2.3229	-2.9562	-2.6437	-2.625	-3.1896	-2.5021	-2.7667	-3.0125	-2.4	-2.7979	197.824	193.588	184.338	257.407	224.497	429.459	356.321	447.789	349.208	161.125	196.842	376.180	227.044	320.983	207.421	320.146	0.00055383	0.00057609	9.1407e-05	711.33	2.3734e-06	3.2783e-06	805.67	234.48	3.5126e-06	2.039e-06	320.58	131.11	98.855	45.819	9.0424e-07	62.824	2.5774e-05	1.3204e-05	3.2876e-06	578.53	1.5075e-07	1.3776e-07	662.45	192.24	1.5221e-07	1.3873e-07	248.95	104.08	79.064	36.597	1.3758e-07	48.997	178.148	188.330	170.954	116.752	284.317	217.870	114.864	122.505	285.068	232.255	119.608	123.759	126.247	130.705	239.892	126.944	-8191	255	
2799.066	1	1	0	0	0.16262	0.30921	0.08196	0.15906	0.090461	0.1261	0.01774	0.4271	0.07175	0.12928	0.15452	0.13382	0.11553	0.31704	0.10896	0.23689	-2.3667	-2.4167	-2.9208	-2.5687	-2.5333	-3.0771	-2.2958	-2.8187	-2.7375	-2.425	-3.0938	-2.6125	-2.4854	-3.2313	-2.1312	-2.9396	409.676	146.299	397.773	411.159	295.867	244.352	355.264	381.479	104.583	275.075	150.759	115.562	404.493	449.162	213.749	364.469	0.00060103	0.00035554	5.8973e-05	704	1.9936e-06	2.8498e-06	798.5	233.7	3.1243e-06	2.383e-06	319.61	130.47	98.658	45.72	3.9263e-06	61.822	2.6043e-05	1.2431e-05	3.1092e-06	574.85	1.5598e-07	1.3442e-07	656.85	191.05	1.5509e-07	1.2889e-07	248.18	103.64	78.716	36.468	1.3801e-07	48.238	180.655	218.290	119.230	116.904	284.708	241.572	114.951	122.498	237.753	198.657	119.172	123.682	126.271	130.553	230.962	126.846	-8191	255	
2799.162	1	1	0	0	0.15576	0.3231	0.12847	0.069213	0.083997	0.066718	0.092131	0.12185	0.24604	0.019936	0.24973	0.40617	0.13296	0.084839	0.070523	0.046358	-2.1479	-2.2417	-2.9583	-2.4521	-2.4333	-2.9354	-2.6063	-2.5729	-2.9688	-2.1271	-2.9583	-2.5667	-2.4083	-3.1312	-2.2729	-2.7875	434.951	132.762	376.246	440.418	149.332	362.704	121.615	381.100	125.217	422.850	111.495	434.032	161.373	412.545	384.424	383.115	0.00054805	0.00042866	6.2901e-05	693.69	3.0018e-06	2.7536e-06	791.74	233.03	3.6535e-06	2.4405e-06	316.93	128.85	98.206	45.47	2.8738e-06	61.97	2.5246e-05	1.25e-05	3.0893e-06	569.43	1.4136e-07	1.2883e-07	651.06	190.51	1.4469e-07	1.3077e-07	246.95	102.91	78.474	36.334	1.3755e-07	48.333	181.163	189.057	142.705	116.755	300.320	231.451	114.847	122.479	277.523	190.713	119.512	124.284	126.108	130.759	243.840	126.763	-8191	255	
2799.234	1	1	0	0	0.057772	0.15762	0.31681	0.19844	0.16501	0.040836	0.17751	0.19082	0.17737	0.095602	0.15996	0.038733	0.18592	0.41438	0.20949	0.39564	-2.4333	-2.1583	-2.8458	-2.8708	-2.325	-2.9583	-2.2667	-2.7687	-2.9771	-2.3208	-3.025	-2.6625	-2.1771	-3.1667	-2.3792	-2.7313	400.405	361.794	399.323	387.010	221.835	417.278	394.079	435.374	120.107	252.326	158.185	111.958	436.079	132.111	392.600	418.595	0.00054172	0.00035838	8.1109e-05	707.78	1.7957e-06	1.8047e-06	801.84	238.92	4.2252e-06	4.7934e-06	325.34	133.53	102.5	47.282	3.7612e-06	63.461	2.3889e-05	1.155e-05	3.3767e-06	576.29	1.3816e-07	1.141e-07	660.58	196.03	1.3187e-07	1.2664e-07	253.4	106.55	81.285	37.548	1.4613e-07	49.571	178.988	195.000	126.168	117.200	304.008	244.776	115.195	122.427	243.926	224.144	119.754	123.987	126.146	130.949	239.519	127.167	-8191	255	
2799.330	1	1	0	0	0.22084	0.072077	0.1224	0.17308	0.18229	0.066384	0.087536	0.1884	0.24249	0.21389	0.34554	0.25456	0.1965	0.1382	0.30969	0.19584	-2.5667	-2.3896	-2.6292	-2.8604	-2.4062	-3.0042	-2.8021	-2.6312	-3.0833	-2.4125	-2.8312	-3.0104	-2.3729	-3.0479	-2.5146	-2.3771	145.778	359.290	393.823	414.566	284.345	326.818	303.948	410.086	320.844	369.354	422.869	214.578	428.886	448.980	181.017	441.635	0.00058262	0.00033175	8.4431e-05	717.38	2.5807e-06	4.6544e-06	815.54	241	2.4575e-06	4.1109e-06	328.08	134.62	101.99	47.246	4.3799e-06	63.992	2.4784e-05	1.1452e-05	3.2848e-06	586.22	1.4292e-07	1.2611e-07	669.62	198.31	1.4073e-07	1.2474e-07	256.75	107.47	81.373	37.627	1.5715e-07	49.888	180.751	209.833	123.980	116.885	303.942	250.762	114.853	122.367	256.285	223.627	119.296	123.973	125.626	130.529	221.107	127.228	-8191	255	
2799.451	1	1	0	0	0.063094	0.073761	0.060091	0.15605	0.12848	0.14136	0.15205	0.19798	0.18252	0.2243	0.25489	0.1558	0.21921	0.034972	0.1796	0.11463	-2.6688	-2.2938	-2.7125	-2.8521	-2.1604	-3.175	-2.6354	-2.4292	-3.2125	-2.3438	-2.5417	-2.8937	-2.35	-2.8312	-2.675	-2.4042	123.321	282.693	326.014	372.983	203.866	136.071	400.199	116.881	235.845	185.271	377.635	371.639	408.164	219.068	249.769	407.564	0.00056879	0.00029822	4.5541e-05	721.84	3.1743e-06	1.9214e-06	818.98	241.18	3.0026e-06	1.8551e-06	328.28	133.74	101.77	46.941	5.0637e-06	63.194	2.3215e-05	1.1622e-05	3.6186e-06	588.28	1.4111e-07	1.2407e-07	670.97	198.16	1.2608e-07	1.2016e-07	256.04	106.72	81.078	37.462	1.5498e-07	49.318	180.192	187.505	446.956	117.078	291.145	235.645	115.352	121.934	229.835	209.751	119.090	123.394	126.030	130.816	238.584	126.654	-8191	255	
2799.545	1	1	0	0	0.11028	0.17239	0.055481	0.308	0.1979	0.11021	0.22982	0.18886	0.1555	0.037716	0.41084	0.25628	0.33862	0.068048	0.16994	0.14827	-2.7292	-2.2792	-2.675	-2.9271	-2.3312	-2.8688	-2.775	-2.3812	-3.0104	-2.5375	-2.6042	-2.9729	-2.5271	-2.7417	-2.7438	-2.3396	259.694	378.855	452.183	408.366	373.221	171.985	463.206	438.578	300.071	219.860	422.324	124.872	462.744	156.625	377.616	445.758	0.00052684	0.00061836	6.2719e-05	714.35	2.128e-06	2.9511e-06	798.92	240.57	2.6526e-06	3.2262e-06	326.12	132.25	101.15	46.569	2.6486e-06	62.747	2.2769e-05	1.2927e-05	3.8102e-06	581.82	1.3137e-07	1.3337e-07	659.43	196.89	1.3327e-07	1.3333e-07	253.61	105.43	80.727	37.232	1.5475e-07	48.991	182.905	174.262	125.358	117.221	328.843	231.179	115.188	122.216	246.405	258.002	119.282	123.703	125.682	130.783	239.676	126.851	-8191	255	
2799.641	1	1	0	0	0.097088	0.17145	0.21399	0.26232	0.10584	0.087672	0.19094	0.011732	0.10837	0.068779	0.14933	0.04186	0.21623	0.3168	0.083042	0.15616	-2.4958	-2.6604	-2.3333	-3	-2.325	-2.8917	-2.8438	-2.45	-2.8792	-2.5979	-2.5229	-3.0979	-2.3208	-2.6375	-2.7917	-2.1833	190.511	288.059	275.708	137.583	160.033	432.823	385.420	233.581	422.225	250.191	351.526	107.112	392.712	115.358	209.219	414.962	0.00057951	0.00027732	2.1414e-05	710.9	3.819e-06	2.7721e-06	807.11	239.46	3.8604e-06	3.587e-06	326.96	132.07	100.26	46.619	2.6639e-06	62.768	2.3526e-05	1.3297e-05	3.5529e-06	580.02	1.3069e-07	1.3505e-07	662.76	195.87	1.3401e-07	1.4035e-07	254.02	105.46	80.14	37.115	1.4295e-07	48.955	182.442	178.876	111.705	117.106	291.941	271.468	115.541	122.049	235.717	227.845	118.819	123.594	126.069	130.839	223.871	126.630	-8191	255	
2799.739	1	1	0	0	0.17522	0.26584	0.24718	0.21622	0.18751	0.11581	0.10653	0.18595	0.052845	0.33391	0.084652	0.39189	0.21435	0.15519	0.11033	0.32914	-2.4479	-2.6458	-2.3	-2.9437	-2.4479	-2.5333	-2.9625	-2.1958	-2.725	-2.7542	-2.4146	-3.0458	-2.3792	-2.775	-2.9104	-2.4104	382.805	232.199	396.670	372.531	237.298	295.321	395.844	382.790	298.301	424.983	353.330	440.235	462.582	407.049	282.938	375.991	0.00058343	0.00049023	0.00011122	715.5	2.6327e-06	1.8654e-06	809.13	240.19	4.087e-06	3.1106e-06	328.14	133.33	99.874	46.881	2.2812e-06	63.446	2.3852e-05	1.4276e-05	3.4731e-06	582.27	1.412e-07	1.4002e-07	665.8	196.17	1.431e-07	1.3069e-07	255.2	106	80.16	37.194	1.4456e-07	49.312	182.007	166.526	140.523	117.248	283.724	255.289	115.055	122.207	216.522	224.846	119.291	123.816	126.417	130.750	205.037	126.605	-8191	255	
2799.858	1	1	0	0	0.12815	0.057081	0.028742	0.32891	0.33049	0.089395	0.20822	0.015113	0.073093	0.039391	0.37699	0.15944	0.13478	0.10789	0.30709	0.12741	-2.3792	-2.6958	-2.1167	-3.0375	-2.4104	-2.4875	-2.9354	-2.3479	-2.7375	-2.7188	-2.1479	-3.1708	-2.5854	-2.5438	-3.0062	-2.3688	283.549	371.060	221.649	428.350	313.119	423.100	301.512	231.747	398.048	310.809	326.892	400.572	378.837	403.079	353.185	351.914	0.00059448	0.00044767	6.9243e-05	711.34	1.809e-06	2.2999e-06	810.66	238.32	3.2195e-06	3.4763e-06	326.12	132.23	100.16	46.551	2.6131e-06	62.521	2.3908e-05	1.3064e-05	3.214e-06	582.04	1.3474e-07	1.3495e-07	666.5	195.37	1.3857e-07	1.3821e-07	254.09	105.24	79.74	37.037	1.4164e-07	48.695	182.191	201.415	174.932	117.115	286.490	269.251	115.052	122.845	249.224	246.727	119.427	123.467	125.713	130.816	251.622	126.694	-8191	255	
2799.930	1	1	0	0	0.074727	0.37002	0.20942	0.14364	0.18319	0.16705	0.27873	0.069899	0.2866	0.24917	0.13669	0.13713	0.12867	0.085307	0.077971	0.022645	-2.3688	-2.4562	-2.275	-2.9396	-2.6208	-2.35	-3.2188	-2.3708	-2.6958	-2.9083	-2.2104	-2.9479	-2.7708	-2.1917	-3.0167	-2.6875	256.864	441.150	110.851	112.415	347.608	135.458	442.368	398.246	334.391	145.962	437.924	116.286	398.945	365.414	376.725	373.484	0.00060981	0.00031016	3.6275e-05	708.35	2.2861e-06	2.1825e-06	796.56	237.78	2.6035e-06	3.7667e-06	322.09	130.29	99.586	45.51	2.5054e-06	61.762	2.4406e-05	1.2281e-05	3.2002e-06	577.69	1.4235e-07	1.3558e-07	655.02	194.45	1.4945e-07	1.2628e-07	250.47	103.89	79.204	36.569	1.3406e-07	48.242	180.619	189.524	150.470	117.137	269.707	245.067	114.891	122.160	246.443	214.510	119.377	124.007	126.156	130.699	232.896	126.967	-8191	255	
2800.050	1	1	0	0	0.12995	0.16934	0.46478	0.13637	0.11675	0.21005	0.22079	0.050306	0.12007	0.17556	0.17136	0.31503	0.016843	0.16192	0.038408	0.3525	-2.0729	-2.9792	-2.1896	-3.0083	-2.5083	-2.3083	-3.1	-2.4354	-2.7458	-2.7583	-2.3729	-2.9083	-2.675	-2.4271	-2.9667	-2.7271	349.023	225.814	386.447	346.730	358.037	148.579	381.183	248.705	416.404	448.837	180.521	413.050	175.460	183.502	174.949	368.963	0.00054213	0.00024454	8.2455e-05	709.66	2.307e-06	3.892e-06	799.05	234.77	1.4456e-06	3.5795e-06	321.61	130.12	98.236	45.649	2.5562e-06	61.893	2.4962e-05	1.1894e-05	2.9939e-06	577.29	1.5345e-07	1.1767e-07	656.16	193.04	1.4525e-07	1.3182e-07	249.68	103.25	78.643	36.37	1.331e-07	48.36	180.979	135.861	120.282	116.915	282.435	257.039	115.016	122.479	252.792	207.346	119.708	123.837	126.267	130.512	238.929	126.879	-8191	255	
2800.147	1	1	0	0	0.22481	0.084666	0.094523	0.13522	0.20935	0.16169	0.17721	0.12125	0.13474	0.13971	0.19768	0.22089	0.061782	0.34887	0.14045	0.086411	-1.9104	-2.975	-2.3208	-2.7167	-2.8458	-2.2854	-3.2271	-2.7062	-2.2979	-3.0146	-2.3021	-2.8396	-2.8708	-2.3979	-3.1146	-2.7104	108.149	186.715	383.519	117.108	186.042	302.186	415.076	310.249	117.946	325.054	434.126	109.309	335.466	415.427	239.679	132.497	0.00054287	0.00031997	5.1843e-05	709.39	2.5644e-06	3.2953e-06	805.77	235.41	2.9275e-06	3.2865e-06	323.65	131.15	98.331	45.847	3.7341e-06	62.75	2.48e-05	1.1558e-05	3.1371e-06	578.62	1.5027e-07	1.3442e-07	661.38	192.9	1.5212e-07	1.2771e-07	251.27	103.78	78.355	36.505	1.3912e-07	48.856	183.994	187.886	151.641	116.656	297.032	259.052	114.930	122.194	231.513	250.647	119.354	123.736	126.086	130.754	242.876	126.901	-8191	255	
2800.243	1	1	0	0	0.202	0.11537	0.10045	0.24066	0.16152	0.14181	0.28908	0.16304	0.19011	0.067717	0.21392	0.017174	0.12861	0.12427	0.26059	0.12643	-1.7687	-2.9354	-2.4021	-2.7521	-3.0812	-2.3187	-2.9542	-2.8417	-2.5062	-3.1771	-2.575	-2.6	-2.9396	-2.4188	-2.7896	-2.8708	195.929	127.795	150.534	272.579	460.566	140.909	449.152	385.151	300.683	292.389	449.387	213.171	171.003	131.254	231.082	439.078	0.00058288	0.00028189	6.1132e-05	715.8	3.8098e-06	2.5455e-06	807.42	236.72	3.0904e-06	3.6672e-06	320.78	129.12	97.278	45.501	3.5683e-06	62.2	2.4992e-05	1.2665e-05	3.5731e-06	583.22	1.4627e-07	1.3505e-07	663.78	193.24	1.515e-07	1.3227e-07	250.37	103.4	78.082	36.299	1.6175e-07	48.403	183.759	204.734	122.578	117.063	276.029	246.906	115.251	122.445	249.112	238.438	119.553	123.828	125.933	130.680	216.021	126.851	-8191	255	
2800.339	1	1	0	0	0.061416	0.24462	0.13731	0.17286	0.15702	0.11193	0.1247	0.21427	0.10142	0.23231	0.22589	0.14839	0.092937	0.27156	0.22859	0.22264	-1.85	-3.0438	-2.6667	-2.5896	-3.0542	-2.2958	-3.0854	-2.7938	-2.1896	-3.0583	-2.5042	-2.6063	-3.1583	-2.3875	-2.8021	-2.7917	213.836	320.865	332.365	123.731	327.888	450.521	376.937	338.804	460.179	162.802	377.819	395.926	331.955	437.078	176.442	375.630	0.00055851	0.00028676	8.6908e-05	700.96	3.3889e-06	3.0047e-06	786.59	233.86	2.0346e-06	3.1339e-06	318.61	128.49	96.718	45.292	2.8991e-06	61.233	2.509e-05	1.2126e-05	3.6525e-06	574.13	1.3523e-07	1.3891e-07	651.39	191.69	1.5015e-07	1.2324e-07	248.12	101.99	77.609	36.02	1.5156e-07	47.694	181.892	189.010	143.773	116.571	275.428	265.264	115.002	122.211	216.416	216.173	119.620	123.595	126.325	130.769	228.842	126.742	-8191	255	
2800.459	1	1	0	0	0.30901	0.040005	0.066414	0.035096	0.086313	0.20485	0.33637	0.10994	0.11587	0.065045	0.17241	0.064994	0.10368	0.24655	0.11667	0.17478	-1.9312	-2.9792	-2.6125	-2.55	-3.1521	-2.3917	-2.8771	-2.8271	-2.275	-3.0021	-2.7375	-2.5896	-2.9229	-2.3417	-2.7938	-2.9729	325.509	354.684	110.363	406.760	366.296	187.017	417.297	391.945	107.589	382.941	338.732	459.938	380.235	125.020	189.702	155.829	0.00054186	0.00042874	0.00012106	701.34	2.732e-06	1.3877e-06	792.6	235.1	2.8644e-06	2.0449e-06	316.5	128.54	97.327	45.298	2.5446e-06	61.594	2.3697e-05	1.2324e-05	3.8742e-06	575.72	1.3735e-07	1.3465e-07	650.93	191.87	1.405e-07	1.319e-07	247.96	101.95	77.742	36.014	1.5016e-07	48.212	178.805	177.753	144.557	116.887	279.928	262.533	115.155	122.284	241.791	205.116	119.285	123.963	125.986	130.695	208.129	127.070	-8191	255	
2800.531	1	1	0	0	0.1472	0.12152	0.22926	0.34048	0.3359	0.18065	0.3498	0.11203	0.25382	0.061545	0.040244	0.045018	0.20876	0.23604	0.44332	0.12103	-1.7979	-2.7354	-2.8083	-2.5125	-2.9021	-2.5729	-2.6042	-3.0521	-2.3729	-2.8354	-2.775	-2.3646	-3.05	-2.5458	-2.6	-3.05	212.450	373.506	129.289	432.725	409.589	284.260	404.974	439.039	456.352	267.970	112.008	146.291	449.174	231.298	116.606	150.532	0.00055758	0.0002482	5.0189e-05	709.57	1.7566e-06	3.1225e-06	799.99	235.67	1.7835e-06	2.1826e-06	318.27	129.38	97.809	45.376	2.0226e-06	62.888	2.4301e-05	1.2616e-05	4.0793e-06	579.81	1.431e-07	1.4066e-07	659.14	192.31	1.481e-07	1.4024e-07	249.69	103.02	77.892	36.306	1.5276e-07	48.906	180.848	136.196	149.061	117.182	315.596	248.750	115.234	122.321	241.108	216.941	119.192	123.960	125.909	130.736	227.747	126.923	-8191	255	
2800.627	1	1	0	0	0.10601	0.2912	0.035383	0.24665	0.056048	0.047588	0.26196	0.061831	0.43768	0.1364	0.22211	0.2396	0.27315	0.237	0.089665	0.19603	-2.0208	-2.65	-2.7375	-2.4271	-3.0563	-2.4792	-2.5979	-3.1	-2.3729	-2.8958	-2.925	-2.3	-3.1604	-2.6375	-2.6875	-2.9583	330.344	206.361	267.829	453.159	108.364	135.331	387.050	184.026	377.568	388.979	339.558	112.574	285.297	375.598	450.327	383.845	0.00055631	0.00039819	7.8819e-05	716.21	4.1341e-06	3.7507e-06	808.85	235.5	2.6781e-06	4.8105e-06	322.58	128.67	96.93	45.325	3.5254e-06	61.869	2.5043e-05	1.4059e-05	3.8185e-06	584.19	1.3849e-07	1.5016e-07	662.56	192.63	1.412e-07	1.4432e-07	250.25	102.44	77.566	36.216	1.5181e-07	48.437	181.589	182.508	133.197	116.943	285.976	236.313	115.323	121.989	216.183	227.995	119.727	123.755	126.016	130.746	253.584	126.969	-8191	255	
2800.746	1	1	0	0	0.19671	0.19997	0.081359	0.19875	0.22505	0.25205	0.069852	0.16862	0.19333	0.071628	0.053535	0.3686	0.074569	0.17809	0.13689	0.13509	-1.9667	-2.6896	-2.7625	-2.4125	-2.875	-2.6833	-2.3458	-2.7979	-2.3167	-2.5729	-2.9479	-2.2417	-2.8312	-2.6771	-2.325	-3.2104	384.454	119.854	202.839	329.578	442.302	242.267	315.268	364.562	232.593	125.351	308.663	419.611	408.567	323.385	156.654	403.022	0.00052289	0.00037545	6.9424e-05	701.88	1.1686e-06	1.7417e-06	791.47	233.98	2.5486e-06	2.1669e-06	316.05	128.03	96.583	44.98	3.8809e-06	61.243	2.3673e-05	1.3721e-05	3.683e-06	574.8	1.3877e-07	1.5147e-07	651.72	191.27	1.3908e-07	1.5423e-07	247.15	101.57	77.368	35.921	1.5326e-07	47.94	182.023	211.151	142.358	116.948	273.001	249.923	115.126	122.197	256.726	216.204	119.667	123.690	126.305	131.020	249.414	127.424	-8191	255	
2800.842	1	1	0	0	0.26128	0.30091	0.055155	0.32851	0.13345	0.20636	0.13943	0.23763	0.1303	0.35308	0.36347	0.24956	0.085521	0.22524	0.17446	0.30057	-1.9146	-2.375	-2.9188	-2.3354	-2.9458	-2.6729	-2.1542	-3.1771	-2.3375	-2.725	-2.8917	-2.4479	-2.8458	-2.9062	-2.1771	-3.0062	230.542	288.027	267.981	382.078	287.563	133.947	372.251	463.395	161.180	235.103	386.799	434.500	342.789	133.641	185.186	392.454	0.00054007	0.00040143	7.4891e-05	706.29	2.1308e-06	2.3636e-06	794.96	233.19	1.6583e-06	3.2378e-06	318.64	127.87	96.252	45.209	3.9418e-06	61.778	2.414e-05	1.3942e-05	3.4616e-06	575.2	1.3733e-07	1.3835e-07	654.28	191.27	1.4787e-07	1.4689e-07	247.71	101.48	77.001	36.061	1.4626e-07	48.272	180.021	191.733	119.371	116.690	315.929	245.439	115.250	122.383	224.453	223.132	119.360	123.717	126.086	130.964	259.467	126.944	-8191	255	
2800.939	1	1	0	0	0.18903	0.069143	0.13358	0.33113	0.28435	0.24782	0.19377	0.15202	0.074246	0.093741	0.15217	0.17861	0.058791	0.23417	0.030331	0.11074	-2.2313	-2.4313	-2.8438	-2.3646	-2.5833	-3	-2.1542	-3.0979	-2.6021	-2.4833	-3.1417	-2.3688	-2.8667	-2.8646	-2.4437	-2.9	357.562	271.788	177.737	391.287	350.891	268.638	385.392	385.550	417.970	405.697	217.187	225.766	189.189	262.775	214.681	431.121	0.00050228	0.00023114	8.4354e-05	709.69	2.6146e-06	1.7151e-06	799.81	234.92	4.0081e-06	5.183e-06	319.89	128.97	96.923	45.448	3.4202e-06	62.665	2.415e-05	1.2905e-05	3.1508e-06	580.1	1.4376e-07	1.2994e-07	657.7	191.7	1.5313e-07	1.4079e-07	249.73	102.89	77.678	36.345	1.3326e-07	48.847	179.319	192.505	126.490	116.868	322.427	253.738	115.508	122.002	249.844	220.979	119.665	123.889	125.957	131.010	234.023	126.729	-8191	255	
2801.035	1	1	0	0	0.20932	0.2443	0.046635	0.16128	0.26172	0.063075	0.18465	0.30342	0.18517	0.15044	0.26834	0.317	0.17796	0.11127	0.30023	0.27349	-2.3729	-2.0312	-3.0542	-2.3583	-2.575	-2.8375	-2.4229	-2.8396	-2.5438	-2.3125	-2.9667	-2.3063	-2.6229	-3.1354	-2.2062	-2.8021	408.536	215.062	342.789	213.909	248.016	219.751	400.993	433.260	397.921	152.453	448.461	422.089	404.119	461.449	265.898	339.268	0.00058663	0.00021434	8.5994e-05	712.51	3.4753e-06	3.3859e-06	808.33	238.02	3.6193e-06	3.0091e-06	322.16	130.04	98.022	46.194	2.8437e-06	62.453	2.4437e-05	1.2395e-05	3.3565e-06	580.33	1.5207e-07	1.3107e-07	664.07	193.51	1.592e-07	1.3415e-07	251.67	103.32	77.981	36.572	1.4168e-07	48.926	180.893	175.273	144.052	117.140	292.632	225.992	115.269	122.217	241.206	214.312	119.477	123.920	126.594	130.550	255.669	126.890	-8191	255	
2801.131	1	1	0	0	0.044143	0.11056	0.096073	0.095876	0.044936	0.062705	0.4556	0.17259	0.31383	0.0863	0.087589	0.29729	0.16522	0.22272	0.081402	0.24851	-2.3271	-2.4646	-3.1042	-2.525	-2.525	-2.9292	-2.3854	-2.9104	-2.7896	-2.3833	-3.0604	-2.5958	-2.3354	-3.1979	-2.3229	-2.6063	141.157	336.208	116.103	435.050	119.192	351.733	376.148	374.997	176.666	171.207	262.936	392.461	426.434	428.272	352.082	393.446	0.0006002	0.00039378	8.2458e-05	704.92	1.5152e-06	1.3448e-06	794.48	233.71	1.4917e-06	4.1685e-06	321.26	128.87	96.95	45.561	2.8824e-06	61.431	2.5279e-05	1.1948e-05	3.0137e-06	573.85	1.4295e-07	1.2579e-07	654.04	191.87	1.5148e-07	1.3248e-07	249.07	102.69	77.576	36.303	1.333e-07	48.247	179.250	189.418	144.804	117.125	299.907	290.613	115.013	122.492	273.751	247.109	119.213	124.133	126.259	131.106	226.459	127.019	-8191	255	
2801.227	1	1	0	0	0.22625	0.16472	0.16556	0.12817	0.057378	0.17069	0.21624	0.13043	0.17893	0.17417	0.33166	0.08175	0.14718	0.32085	0.080901	0.24234	-2.425	-2.2583	-3.1083	-2.5583	-2.3187	-2.9917	-2.4646	-2.8375	-2.9771	-2.175	-2.8167	-2.7125	-2.4792	-3.1	-2.4437	-2.7521	461.051	322.195	210.586	414.524	440.823	281.045	393.702	417.867	144.086	438.068	451.459	219.814	433.500	430.098	464.012	337.201	0.00057302	0.00039168	6.5474e-05	699.19	1.6095e-06	3.6074e-06	807.69	234.67	2.5612e-06	2.9128e-06	321.41	129.56	97.742	45.475	3.401e-06	62.517	2.4372e-05	1.2179e-05	3.0189e-06	572.5	1.3594e-07	1.2297e-07	659.43	192.35	1.4194e-07	1.2579e-07	251.13	103.11	77.89	36.291	1.4109e-07	48.757	179.828	196.765	146.881	117.198	255.835	239.968	115.302	122.261	244.853	180.977	119.261	123.895	126.211	130.908	231.122	126.830	-8191	255	
2801.323	1	1	0	0	0.15474	0.12055	0.10572	0.086393	0.22176	0.12506	0.10292	0.2921	0.14777	0.097859	0.2635	0.19692	0.19295	0.39311	0.29017	0.12377	-2.3542	-2.2896	-2.9062	-2.6917	-2.3854	-2.8729	-2.5938	-2.6854	-2.9771	-2.3896	-2.875	-2.8854	-2.3354	-3.0375	-2.4375	-2.3708	142.005	311.127	348.092	172.609	258.629	430.051	132.257	148.593	249.484	335.831	431.374	405.680	414.778	412.652	366.778	312.693	0.0005528	0.00045391	7.3394e-05	707.56	2.4225e-06	1.6832e-06	807.07	236.37	2.8035e-06	3.7072e-06	323.6	130.71	97.651	45.772	2.9957e-06	63.235	2.35e-05	1.2448e-05	3.2447e-06	576.6	1.381e-07	1.1654e-07	662.6	192.8	1.4077e-07	1.2507e-07	251.82	104	78.179	36.603	1.4887e-07	49.248	187.666	174.467	133.684	116.994	294.007	225.608	115.198	122.375	244.149	267.126	119.344	123.689	126.264	130.713	224.516	126.922	-8191	255	
2801.419	1	1	0	0	0.12473	0.039508	0.10602	0.13406	0.010804	0.11726	0.12552	0.10166	0.22513	0.1879	0.072718	0.14873	0.2097	0.25688	0.22466	0.30062	-2.4479	-2.4208	-2.6208	-2.7833	-2.2438	-2.9688	-2.7417	-2.4792	-3.0187	-2.3208	-2.7479	-2.9938	-2.35	-3.0083	-2.6708	-2.4771	204.850	201.078	122.364	340.166	116.272	351.321	216.990	356.541	444.416	288.955	114.097	410.729	429.184	425.133	108.254	459.490	0.00049523	0.00053285	0.00011811	710.14	2.2474e-06	2.8518e-06	804.56	238.64	2.4791e-06	4.0193e-06	321.91	130.43	97.752	46.196	4.2071e-06	62.87	2.3056e-05	1.1977e-05	3.6349e-06	579.74	1.367e-07	1.1823e-07	665.08	193.59	1.348e-07	1.2776e-07	251.85	103.81	78.121	36.632	1.5206e-07	49.205	181.664	162.731	140.309	117.138	286.202	247.901	115.292	122.186	235.011	219.617	119.161	124.068	126.073	130.782	220.843	126.856	-8191	255	
2801.538	1	1	0	0	0.11223	0.34036	0.091531	0.2642	0.078447	0.10537	0.10267	0.13264	0.18502	0.14106	0.17385	0.28771	0.19395	0.15187	0.078739	0.22363	-2.6	-2.3708	-2.6625	-3.1063	-2.3229	-2.9708	-2.8167	-2.5375	-3.0042	-2.2583	-2.7292	-3.1188	-2.1562	-2.9188	-2.7979	-2.2625	220.338	318.520	198.167	375.582	397.652	216.790	430.492	314.403	159.169	460.948	423.917	420.513	351.479	383.368	397.987	355.578	0.00053605	0.00040896	8.6302e-05	708.18	2.0089e-06	3.8749e-06	802.63	233.76	2.4325e-06	7.7438e-07	320.8	129.29	97.334	45.811	4.0733e-06	62.03	2.218e-05	1.1696e-05	3.7999e-06	575.55	1.2651e-07	1.2519e-07	658.31	191.7	1.3251e-07	1.3836e-07	249.74	102.88	77.734	36.416	1.6337e-07	48.478	180.351	195.421	143.850	117.172	281.176	239.834	115.255	122.148	220.130	200.455	119.005	123.807	126.274	130.884	216.814	127.104	-8191	255	
2801.634	1	1	0	0	0.34773	0.20141	0.15	0.086028	0.13374	0.11655	0.30009	0.16574	0.13602	0.19085	0.30946	0.25648	0.054591	0.31259	0.15665	0.13315	-2.7042	-2.4875	-2.2583	-3.1333	-2.2146	-2.8792	-2.9	-2.1875	-2.9437	-2.7938	-2.4417	-3.1271	-2.2938	-2.8354	-2.8583	-2.4667	314.405	431.893	274.788	387.734	120.590	132.564	357.082	368.559	161.080	269.219	160.539	421.530	376.201	156.953	322.525	433.016	0.00059082	0.00043696	5.1641e-05	701.74	1.2934e-06	1.7178e-06	802.3	233.46	3.2747e-06	2.8321e-06	321.32	129.67	96.886	45.679	1.6679e-06	62.643	2.3869e-05	1.2096e-05	3.707e-06	573.25	1.3767e-07	1.4025e-07	657.71	191.58	1.347e-07	1.455e-07	250.18	102.83	77.443	36.38	1.4738e-07	48.776	182.078	151.705	128.332	116.805	288.557	225.197	115.325	122.233	246.789	242.511	119.402	123.899	126.051	130.601	254.054	126.882	-8191	255	
2801.730	1	1	0	0	0.066774	0.18314	0.11824	0.026776	0.16538	0.28497	0.070978	0.36521	0.11259	0.071711	0.10065	0.24281	0.11999	0.2647	0.1038	0.10598	-2.2812	-2.7833	-2.3542	-2.9708	-2.2833	-2.9125	-3.0604	-2.2375	-2.9625	-2.75	-2.3583	-3.0021	-2.4646	-2.7583	-2.9375	-2.3896	375.446	377.463	421.693	140.190	207.124	159.874	460.420	447.116	111.072	348.458	447.026	429.169	433.741	432.286	334.779	432.442	0.00055874	0.00045167	2.2178e-05	711.22	3.5058e-06	2.3033e-06	799.97	234.42	2.0226e-06	1.0734e-06	325.59	130.56	97.654	45.621	4.5305e-06	63.182	2.2879e-05	1.3486e-05	3.436e-06	579.45	1.4268e-07	1.457e-07	661.29	192.26	1.3397e-07	1.5129e-07	251.52	103.12	77.807	36.518	1.4385e-07	49.417	184.859	142.398	126.142	116.958	296.053	214.119	115.406	122.122	224.895	197.253	119.563	123.878	126.049	130.728	229.876	126.818	-8191	255	
2801.827	1	1	0	0	0.17221	0.16033	0.24556	0.14251	0.12774	0.097098	0.26022	0.13967	0.052179	0.10766	0.30982	0.2862	0.19292	0.20569	0.079212	0.078185	-2.4167	-2.6958	-2.2396	-2.9875	-2.3458	-2.5521	-3.0062	-2.2146	-2.9042	-2.75	-2.0833	-2.8021	-2.5542	-2.5438	-3.0021	-2.2687	319.911	445.272	393.428	293.598	332.818	196.275	407.525	128.076	338.265	121.071	431.393	416.822	461.006	140.439	453.298	344.205	0.00057415	0.00058057	6.8922e-05	719	1.7506e-06	1.3192e-06	810.9	236.93	2.38e-06	3.2663e-06	325.68	131.5	98.21	46.159	2.2808e-06	63.164	2.4282e-05	1.4945e-05	3.4116e-06	585.1	1.4443e-07	1.5302e-07	667.33	194.25	1.4909e-07	1.4184e-07	253.41	104.3	78.294	36.855	1.4887e-07	49.394	181.855	168.020	145.703	116.890	296.987	253.555	115.148	122.233	228.288	248.226	119.521	124.220	126.073	131.133	212.313	127.095	-8191	255	
2801.923	1	1	0	0	0.20486	0.077832	0.16666	0.31714	0.11331	0.2571	0.29564	0.23416	0.063175	0.075074	0.15894	0.16284	0.16116	0.14641	0.2157	0.18407	-2.3083	-2.6583	-2.2438	-3.0021	-2.6021	-2.3604	-3.1208	-2.5625	-2.3917	-2.8208	-2.5458	-3.0042	-2.5938	-2.55	-3.0187	-2.5292	231.295	167.426	352.833	428.157	283.701	319.596	405.978	448.522	181.145	345.215	355.271	295.230	416.739	331.289	248.483	443.907	0.00056985	0.00054193	4.5987e-05	708.32	2.2791e-06	4.1148e-06	798.05	233.95	2.6469e-06	2.0975e-06	319.32	128.27	97.012	45.711	3.01e-06	62.112	2.509e-05	1.3943e-05	3.3873e-06	577.99	1.5472e-07	1.426e-07	656.2	191.62	1.571e-07	1.3848e-07	249.33	102.38	77.693	36.418	1.3224e-07	48.687	180.463	167.208	127.789	116.812	274.831	262.897	115.131	122.354	248.711	225.230	119.274	124.216	126.199	130.752	250.126	127.119	-8191	255	
2802.042	1	1	0	0	0.28478	0.12849	0.053866	0.12729	0.076691	0.15661	0.27743	0.015956	0.32177	0.16338	0.17763	0.45673	0.074971	0.03894	0.30058	0.10717	-2.2208	-2.9229	-2.1667	-2.9062	-2.7875	-2.4729	-2.9229	-2.4896	-2.575	-3.0458	-2.2521	-2.7917	-2.775	-2.4146	-3.2083	-2.6292	403.723	301.402	184.691	349.340	246.419	413.537	349.138	364.792	277.162	264.588	446.268	338.272	183.757	339.038	276.724	418.425	0.00057297	0.00033806	7.9009e-05	702.48	3.1362e-06	2.5689e-06	798.28	235.03	1.9644e-06	3.3391e-06	322.48	129.85	96.973	46.148	2.9709e-06	63.323	2.5404e-05	1.2506e-05	3.4075e-06	575.22	1.5024e-07	1.2841e-07	655.97	191.73	1.4665e-07	1.3062e-07	250.15	102.88	77.758	36.625	1.3199e-07	49.318	181.998	180.712	151.472	117.099	283.018	217.460	115.540	122.081	280.191	217.513	119.419	124.051	125.849	130.733	220.026	126.864	-8191	255	
2802.138	1	1	0	0	0.017971	0.27969	0.15417	0.28032	0.042855	0.238	0.10804	0.032083	0.20158	0.14987	0.37833	0.11082	0.17529	0.069112	0.057431	0.10217	-2.0625	-2.8563	-2.2792	-2.8896	-2.8042	-2.45	-3.1146	-2.5271	-2.6833	-3.0792	-2.1271	-2.6604	-2.8458	-2.35	-2.9083	-2.6021	432.713	210.743	397.324	340.719	104.849	218.954	343.161	453.304	337.627	381.922	458.800	335.239	154.123	282.160	309.139	357.799	0.00056822	0.00064372	4.2896e-05	707.1	2.9599e-06	3.0716e-06	806.96	235.85	2.5444e-06	2.1079e-06	320.52	129.42	98.144	46.186	2.6926e-06	63.577	2.5196e-05	1.2498e-05	3.2354e-06	578.58	1.5133e-07	1.3862e-07	659.25	192.53	1.5487e-07	1.3099e-07	250.59	103.4	78.169	36.844	1.4035e-07	49.879	180.634	172.700	458.878	117.000	312.643	253.018	115.080	122.270	217.536	259.417	119.295	123.474	126.765	130.777	257.571	127.278	-8191	255	
2802.234	1	1	0	0	0.2645	0.080536	0.13441	0.10445	0.075196	0.083032	0.1456	0.21213	0.22708	0.088119	0.10401	0.17887	0.054239	0.26171	0.066986	0.18767	-1.7646	-2.8833	-2.3312	-2.4979	-2.6979	-2.4042	-3.0604	-2.7771	-2.3396	-2.9125	-2.5938	-2.6437	-2.9854	-2.2938	-2.9167	-2.6417	206.672	286.258	324.205	348.704	175.792	369.478	368.761	414.957	464.349	344.690	132.514	414.125	138.380	460.976	364.532	322.047	0.000574	0.00022675	8.3034e-05	714.38	2.0457e-06	1.562e-06	809.39	237.38	3.2843e-06	3.5027e-06	325.15	130.89	98.187	46.688	4.2102e-06	63.762	2.4473e-05	1.2743e-05	3.5298e-06	581.75	1.4797e-07	1.3423e-07	666.47	194.34	1.6225e-07	1.3105e-07	252.69	104.01	78.301	36.99	1.4857e-07	49.694	182.984	165.195	138.708	116.537	294.790	203.982	114.650	122.495	239.774	221.877	119.691	123.862	126.316	130.815	219.548	127.211	-8191	255	
2802.330	1	1	0	0	0.035294	0.12591	0.17816	0.039691	0.094854	0.16645	0.17234	0.21787	0.12082	0.030666	0.064554	0.25353	0.14929	0.20587	0.031279	0.24828	-1.9479	-3.2583	-2.4417	-2.8125	-2.9896	-2.5917	-2.8125	-2.9542	-2.3812	-3.0062	-2.6667	-2.5604	-2.8583	-2.3604	-2.8542	-2.9	446.903	210.684	170.498	162.733	166.987	125.478	374.232	348.413	157.260	142.766	416.775	423.655	110.332	390.518	299.418	150.388	0.00056563	0.00047433	5.0837e-05	709.64	2.4617e-06	1.9071e-06	796.21	234.59	3.1577e-06	3.1563e-06	319.53	128.69	96.856	45.519	2.8379e-06	63.162	2.5055e-05	1.1847e-05	3.5186e-06	578.54	1.5506e-07	1.3821e-07	654.93	192.5	1.5824e-07	1.2465e-07	249.25	102.34	77.295	36.464	1.558e-07	49.228	181.573	159.017	126.679	117.052	276.308	235.387	115.117	122.531	260.194	241.147	119.374	123.750	125.832	130.809	254.698	127.113	-8191	255	
2802.426	1	1	0	0	0.2523	0.097566	0.22712	0.16095	0.073656	0.18451	0.21932	0.28889	0.12542	0.20445	0.070597	0.14985	0.14622	0.14336	0.21857	0.17151	-1.5125	-2.9417	-2.4667	-2.3104	-2.9813	-2.3625	-2.8479	-2.9625	-2.0312	-3.0229	-2.8229	-2.3583	-3.025	-2.5354	-2.7729	-2.8667	333.129	408.714	313.090	176.644	287.118	370.983	377.705	412.559	170.634	245.083	426.647	388.412	435.077	425.526	267.119	390.916	0.00048942	0.00023912	0.00013804	713.07	2.9646e-06	1.2798e-06	791.73	235.94	2.415e-06	3.6308e-06	320.62	128.28	95.499	45.894	2.3668e-06	62.598	2.3971e-05	1.2532e-05	3.7458e-06	578.13	1.4293e-07	1.2795e-07	654.36	192.27	1.5462e-07	1.3209e-07	248.7	102.2	76.754	36.408	1.6533e-07	49.031	176.911	206.363	163.459	116.836	285.773	258.723	115.257	121.909	227.480	227.943	119.515	124.200	126.259	130.445	242.797	126.768	-8191	255	
2802.522	1	1	0	0	0.090867	0.14707	0.30624	0.28306	0.21761	0.2472	0.21845	0.18241	0.1982	0.091476	0.19299	0.25781	0.10962	0.36847	0.16008	0.47313	-1.7479	-2.625	-2.6979	-2.3625	-3.0521	-2.5208	-2.5812	-2.9729	-2.4375	-2.8083	-2.6521	-2.5125	-2.9479	-2.5083	-2.6208	-2.9125	316.000	150.291	321.750	111.032	303.407	217.848	336.012	361.823	148.276	176.122	280.693	118.856	452.912	116.925	197.610	414.166	0.00057223	0.00037549	7.4923e-05	705.07	1.7029e-06	2.7027e-06	804.21	233.55	3.0217e-06	3.5396e-06	320.11	128.46	97.199	46.006	3.6993e-06	63.485	2.4631e-05	1.1862e-05	3.8717e-06	576.85	1.4113e-07	1.2648e-07	658.02	191.75	1.4456e-07	1.4187e-07	249.04	102.08	77.12	36.512	1.6106e-07	49.572	177.398	175.654	180.700	116.467	289.228	232.640	115.054	122.144	256.234	199.185	119.483	123.945	126.080	130.732	208.778	126.802	-8191	255	
2802.619	1	1	0	0	0.29562	0.184	0.09734	0.13108	0.10653	0.13097	0.076286	0.076852	0.18204	0.22215	0.097509	0.14815	0.11345	0.24565	0.21384	0.22646	-1.9438	-2.7021	-2.4729	-2.425	-2.975	-2.4813	-2.7	-2.8583	-2.3	-2.8729	-2.7646	-2.4021	-2.8563	-2.6625	-2.4188	-3.075	349.876	214.350	399.279	108.655	382.103	288.805	397.989	431.444	197.634	234.448	356.539	209.134	285.769	458.651	452.827	426.085	0.00057979	0.00039029	0.00011262	706.32	2.829e-06	2.4038e-06	803.82	234.17	3.3427e-06	1.418e-06	323.61	129.69	95.997	46.018	2.5441e-06	63.427	2.3834e-05	1.2215e-05	3.8467e-06	579.14	1.4072e-07	1.4418e-07	662.49	192.13	1.3785e-07	1.4998e-07	250.42	102.97	77.095	36.622	1.5336e-07	49.459	179.275	177.149	142.218	116.793	294.549	265.405	115.365	122.212	223.099	177.658	119.770	123.872	126.213	130.892	241.131	126.917	-8191	255	
2802.715	1	1	0	0	0.12915	0.10937	0.10942	0.11116	0.088701	0.16675	0.19082	0.1169	0.094189	0.014435	0.19882	0.12627	0.081864	0.14553	0.13576	0.34051	-1.8854	-2.6	-2.8521	-2.2667	-2.9437	-2.6312	-2.5062	-2.9625	-2.2375	-2.7812	-2.9188	-2.3563	-2.8146	-2.5354	-2.6292	-3.1875	205.262	224.923	192.569	175.182	414.731	249.487	114.447	280.604	240.150	271.047	289.627	422.401	294.528	387.009	268.616	453.294	0.00059489	0.00041163	0.00011123	709.03	3.6131e-06	1.756e-06	800.74	234.2	2.9545e-06	2.9518e-06	318.12	128.24	95.677	45.643	3.7143e-06	62.897	2.5069e-05	1.449e-05	3.8137e-06	578.42	1.424e-07	1.5245e-07	656.11	191.3	1.4853e-07	1.502e-07	248.11	101.76	76.677	36.332	1.6149e-07	49.087	182.108	210.098	131.603	117.025	285.329	265.914	114.745	122.462	236.444	220.882	118.999	123.944	126.127	131.079	238.259	126.844	-8191	255	
2802.811	1	1	0	0	0.21897	0.30701	0.25031	0.15484	0.11087	0.14283	0.22755	0.12209	0.19746	0.12268	0.12279	0.14158	0.28348	0.16517	0.1616	0.20221	-1.7271	-2.7292	-2.725	-2.4688	-2.7979	-2.6042	-2.5458	-2.8083	-2.4604	-2.7313	-2.875	-2.3875	-2.9625	-2.8479	-2.1104	-2.9229	111.345	451.136	406.423	404.002	138.060	233.195	376.659	232.563	122.595	241.125	440.362	158.564	380.669	350.420	141.081	423.546	0.00057922	0.00030956	9.2722e-05	708.32	3.2494e-06	2.4561e-06	798.04	234.91	1.9179e-06	5.5455e-06	320.58	129.28	95.708	45.792	1.8985e-06	63.609	2.5504e-05	1.5613e-05	3.7893e-06	577.71	1.5972e-07	1.6028e-07	657.38	192.37	1.5958e-07	1.6186e-07	249.41	102.66	76.909	36.562	1.5362e-07	49.269	176.888	187.900	180.376	116.753	298.937	267.316	115.354	122.669	234.331	238.728	118.947	123.859	126.219	130.835	237.421	127.196	-8191	255	
2802.930	1	1	0	0	0.11399	0.24135	0.19087	0.34035	0.014234	0.27155	0.031908	0.05703	0.19803	0.20578	0.052552	0.066579	0.24284	0.16122	0.1688	0.12008	-2.3104	-2.5854	-2.7812	-2.2167	-2.7396	-2.8979	-2.3729	-3.2146	-2.4521	-2.4583	-3.1562	-2.4813	-2.7958	-2.9062	-2.4021	-3.1042	111.145	439.387	169.106	385.728	289.338	380.319	446.338	348.110	121.119	446.156	162.228	191.647	372.646	459.204	345.857	411.973	0.00054638	0.0002776	6.6448e-05	711.9	2.2608e-06	3.871e-06	802.66	235.05	3.0137e-06	3.4102e-06	321.69	130.53	96.284	45.65	2.1763e-06	63.555	2.548e-05	1.4947e-05	3.4738e-06	580.04	1.6492e-07	1.5358e-07	660.39	191.92	1.7344e-07	1.6168e-07	250.19	103.08	76.919	36.511	1.5671e-07	49.62	183.502	172.891	148.368	117.057	305.544	252.867	115.171	122.423	256.725	227.910	119.168	123.764	126.521	131.014	202.304	126.996	-8191	255	
2803.026	1	1	0	0	0.16163	0.12485	0.040997	0.042955	0.39133	0.057255	0.17351	0.22571	0.11298	0.17275	0.11578	0.27334	0.28099	0.14852	0.21522	0.32255	-2.2333	-2.3708	-2.8354	-2.5521	-2.5604	-2.7667	-2.425	-2.8375	-2.6937	-2.2083	-3.0042	-2.55	-2.7396	-2.9417	-2.2708	-2.7854	149.862	245.433	319.450	169.540	343.889	274.709	393.721	440.459	322.690	396.224	130.689	453.664	453.283	374.571	197.781	417.001	0.00055548	0.00034917	6.111e-05	711.41	1.7664e-06	2.229e-06	811	234.56	3.3191e-06	3.9685e-06	324.09	129.59	96.765	46.082	1.8632e-06	63.921	2.6192e-05	1.3821e-05	3.5215e-06	581.51	1.7122e-07	1.4886e-07	664.23	192.82	1.7503e-07	1.5587e-07	250.68	103.06	77.391	36.712	1.532e-07	49.81	180.264	206.534	139.073	116.632	314.807	266.511	115.129	122.539	202.024	188.608	119.776	123.967	126.469	131.054	213.829	127.358	-8191	255	
2803.122	1	1	0	0	0.0049419	0.05659	0.097897	0.091214	0.17016	0.17923	0.1639	0.37989	0.088589	0.18259	0.17634	0.28731	0.14449	0.030586	0.14319	0.17666	-2.1521	-2.2729	-2.9562	-2.7417	-2.6125	-2.9417	-2.1	-2.9708	-2.9062	-2.3083	-3.0771	-2.5458	-2.3688	-2.9792	-2.0979	-2.8937	440.437	420.304	286.537	253.455	396.863	327.585	320.897	423.530	266.081	457.888	401.673	153.126	446.602	425.230	410.192	295.060	0.00059778	0.00043295	3.5313e-05	712.32	2.3929e-06	2.412e-06	798.02	233.86	1.5693e-06	2.5183e-06	319.26	128.34	95.97	45.636	2.0609e-06	63.219	2.6877e-05	1.3964e-05	3.5087e-06	579.34	1.5991e-07	1.4693e-07	657.9	192.08	1.6751e-07	1.4293e-07	248.99	102.28	76.886	36.503	1.4929e-07	49.395	178.401	228.022	131.798	116.840	264.589	251.617	114.928	122.123	236.025	177.854	119.129	123.719	126.351	130.834	235.661	126.944	-8191	255	
2803.218	1	1	0	0	0.12111	0.24155	0.25899	0.12072	0.30025	0.13715	0.2624	0.14962	0.25803	0.081121	0.17298	0.25702	0.12309	0.20097	0.16679	0.21295	-2.3771	-2.0875	-2.8792	-2.5146	-2.2896	-2.9813	-2.375	-2.675	-2.8021	-2.1562	-2.9708	-2.6667	-2.5333	-2.9	-2.3708	-2.7542	355.755	403.952	442.774	397.244	308.700	391.152	421.161	390.957	149.536	455.928	330.330	428.753	441.743	133.445	331.139	413.170	0.00057644	0.00028714	0.00010997	709.88	2.9578e-06	8.0758e-07	800.18	234.22	2.4376e-06	1.1738e-06	321.44	128.96	96.862	45.728	4.0192e-06	63.702	2.6245e-05	1.3745e-05	3.5926e-06	578.84	1.6412e-07	1.38e-07	658.61	192.15	1.5895e-07	1.4331e-07	250.99	103.13	77.469	36.603	1.5263e-07	49.58	181.924	159.459	144.197	116.876	270.819	269.187	115.498	122.487	197.543	209.222	119.185	124.242	126.647	130.861	225.886	126.991	-8191	255	
2803.314	1	1	0	0	0.27383	0.21991	0.27838	0.11177	0.14895	0.10804	0.12635	0.13828	0.098543	0.30989	0.22112	0.33531	0.11547	0.36168	0.13318	0.32051	-2.3979	-2.1646	-2.7896	-2.5917	-2.4271	-2.8937	-2.6312	-2.8646	-2.7687	-2.3208	-2.8146	-2.8063	-2.275	-3.0312	-2.5167	-2.7792	213.474	317.899	345.023	134.766	340.989	278.360	443.816	110.825	307.994	273.636	115.779	202.738	107.455	448.213	213.407	426.607	0.0005872	0.00061205	0.00010524	706.19	2.1129e-06	2.0628e-06	805.33	234.46	2.7134e-06	4.3389e-06	322.08	129.54	97.43	46.307	3.9373e-06	63.833	2.6104e-05	1.2946e-05	3.6336e-06	577.87	1.5632e-07	1.3508e-07	662.06	192.58	1.4999e-07	1.4479e-07	251.71	103.65	77.757	36.944	1.5912e-07	50.042	182.226	193.598	149.991	117.101	297.866	238.462	115.245	122.504	231.294	210.125	119.361	123.801	126.101	131.124	234.422	127.454	-8191	255	
2803.410	1	1	0	0	0.17099	0.13988	0.16494	0.24973	0.1351	0.23604	0.27819	0.19677	0.16158	0.17707	0.13478	0.31849	0.079392	0.30108	0.040348	0.23326	-2.4979	-2.0979	-2.7333	-2.675	-2.3208	-2.925	-2.4417	-2.5438	-3.1396	-2.2583	-2.7125	-3.0125	-2.3458	-2.9146	-2.5375	-2.6625	187.279	149.875	122.532	449.545	439.078	337.475	427.548	397.649	230.178	315.005	342.644	454.494	234.357	114.011	332.903	111.635	0.00061904	0.00028501	0.000134	705.04	1.7628e-06	3.1545e-06	813.94	237.47	3.953e-06	8.7388e-07	323.08	130.86	97.39	46.166	6.8225e-07	63.851	2.5469e-05	1.3171e-05	3.6945e-06	579.67	1.5569e-07	1.3414e-07	669.52	194.2	1.5872e-07	1.3618e-07	252.47	104.27	77.904	36.847	1.6486e-07	50.02	182.796	199.046	152.967	117.068	301.662	245.667	114.809	122.606	236.519	226.458	119.357	123.986	126.271	130.654	261.440	127.213	-8191	255	
2803.531	1	1	0	0	0.15598	0.13715	0.065206	0.35701	0.17693	0.099158	0.42733	0.20028	0.11815	0.23573	0.22648	0.2038	0.099735	0.088557	0.062875	0.16194	-2.4958	-2.5375	-2.625	-2.7021	-2.2667	-3.0687	-2.8146	-2.5125	-2.9771	-2.6292	-2.8396	-3.0542	-2.5771	-2.8937	-2.7083	-2.5042	313.940	313.172	311.891	443.294	350.252	209.518	146.873	424.368	342.189	244.471	335.204	413.735	342.804	450.199	204.387	328.977	0.00055407	0.00036533	8.5732e-05	706.41	2.5799e-06	6.8428e-07	804.13	234.88	2.2094e-06	3.3263e-06	321.14	129.75	96.909	45.999	3.274e-06	63.043	2.4682e-05	1.2976e-05	4.0722e-06	578.74	1.6059e-07	1.3915e-07	660.03	192.78	1.523e-07	1.4456e-07	250.53	103.21	77.604	36.63	1.8107e-07	49.311	182.142	197.094	165.228	116.876	265.135	232.042	114.879	122.562	262.915	263.358	119.146	124.002	126.292	130.951	238.287	126.960	-8191	255	
2803.627	1	1	0	0	0.14597	0.32801	0.13035	0.040691	0.086459	0.030004	0.11077	0.27936	0.039841	0.17602	0.2173	0.11167	0.267	0.17326	0.084202	0.17019	-2.6104	-2.2896	-2.8417	-3.1375	-2.2646	-2.8417	-2.9375	-2.1312	-3.0083	-2.6167	-2.625	-2.9521	-2.4875	-2.825	-2.8	-2.2667	347.878	251.642	180.811	187.576	293.846	249.903	191.078	209.970	442.841	441.346	398.389	287.602	391.564	397.635	268.369	346.743	0.0005792	0.00037661	4.5426e-05	700.8	2.8594e-06	1.8842e-06	804.27	235.24	2.4977e-06	3.7911e-06	323.59	128.8	96.888	45.762	1.7832e-06	63.491	2.5237e-05	1.4199e-05	4.1828e-06	575.29	1.4753e-07	1.558e-07	659.41	192.78	1.5438e-07	1.553e-07	251.2	102.74	77.404	36.569	1.6437e-07	49.514	180.705	175.837	165.517	116.856	299.813	243.993	115.173	122.125	202.772	222.726	119.192	123.968	126.221	130.634	212.337	127.015	-8191	255	
2803.723	1	1	0	0	0.058418	0.23804	0.074636	0.32247	0.25495	0.22501	0.081451	0.26661	0.089319	0.23798	0.17974	0.20063	0.073183	0.10938	0.083344	0.31019	-2.5958	-2.4313	-2.4437	-2.8042	-2.2562	-2.725	-2.6937	-2.2417	-3.1542	-2.4979	-2.4417	-3.1667	-2.35	-2.7625	-2.8479	-2.4333	258.434	152.063	425.319	383.451	375.505	355.670	436.821	348.427	444.404	305.968	342.273	431.645	111.699	424.324	258.554	443.435	0.00057042	0.00040008	7.6943e-05	700.46	2.5444e-06	3.4352e-06	817.25	235.17	3.3868e-06	3.9321e-06	324.81	130.49	97.034	46.175	4.7809e-06	63.686	2.4872e-05	1.5085e-05	4.1796e-06	575.49	1.5688e-07	1.6696e-07	665.76	192.61	1.5755e-07	1.6964e-07	252.24	103.98	77.57	36.81	1.7068e-07	49.959	183.060	198.284	129.462	117.026	284.168	256.513	115.238	122.232	274.123	209.212	119.252	124.211	126.119	130.503	213.056	126.876	-8191	255	
2803.820	1	1	0	0	0.15828	0.12969	0.099617	0.13293	0.14539	0.0087648	0.43839	0.25225	0.23529	0.13866	0.29479	0.29178	0.16226	0.10012	0.36893	0.23782	-2.4896	-2.4562	-2.3187	-3.1813	-2.425	-2.6458	-2.9667	-2.2833	-3.1646	-2.8271	-2.4833	-3.0917	-2.5771	-2.4354	-2.9062	-2.2792	116.471	198.402	397.590	412.112	266.524	365.967	371.639	381.736	299.924	119.532	430.868	121.811	447.130	321.418	388.608	398.335	0.00054419	0.00032351	8.8465e-05	706.85	2.8006e-06	3.431e-06	818.03	236.44	3.6876e-06	3.6788e-06	325.07	130.76	96.289	45.979	5.6505e-06	63.391	2.5781e-05	1.5052e-05	4.1869e-06	578.85	1.5743e-07	1.6505e-07	671.15	193.63	1.5591e-07	1.5418e-07	253.44	104.42	77.373	36.67	1.6181e-07	49.624	181.272	189.680	135.483	117.225	294.669	269.450	115.364	122.288	253.800	197.871	119.627	124.082	126.370	130.925	247.134	126.941	-8191	255	
2803.914	1	1	0	0	0.20394	0.15591	0.11787	0.032784	0.19156	0.11197	0.33489	0.18132	0.23369	0.19989	0.12348	0.18891	0.2807	0.13841	0.19958	0.15241	-2.3688	-2.7625	-2.3292	-3.1104	-2.4708	-2.7417	-2.9146	-2.3583	-2.7417	-2.6021	-2.3063	-3.0854	-2.5042	-2.2938	-2.9271	-2.4188	203.184	108.134	397.757	271.774	220.107	187.245	423.400	271.154	439.510	405.597	293.862	432.643	456.495	436.705	311.286	353.750	0.0005848	0.00044648	8.4796e-05	700.63	3.013e-06	2.5244e-06	803.73	235.44	2.3978e-06	1.4604e-06	318.4	129.03	96.267	45.28	3.6683e-06	62.535	2.6036e-05	1.5106e-05	3.9217e-06	572.04	1.6171e-07	1.5485e-07	659.78	192.31	1.6701e-07	1.653e-07	249.67	102.66	76.712	36.171	1.5542e-07	49.026	182.155	163.804	107.304	117.116	289.695	194.112	115.031	122.708	244.559	176.391	119.860	123.814	125.895	130.915	213.917	127.195	-8191	255	
2804.010	1	1	0	0	0.081726	0.14617	0.22089	0.14229	0.15151	0.037966	0.26304	0.091467	0.24736	0.2214	0.17551	0.16926	0.088253	0.20367	0.19251	0.30858	-2.2188	-2.8812	-2.1979	-2.8854	-2.7083	-2.325	-3.0479	-2.3479	-2.4375	-3.075	-2.1542	-3.1583	-2.6729	-2.4375	-2.9479	-2.3479	325.363	370.822	360.111	347.302	383.276	415.752	240.134	388.010	228.998	250.913	402.248	391.744	435.175	457.053	450.100	412.513	0.00058269	0.00031884	9.0576e-05	698.61	2.8095e-06	3.8004e-06	795.73	232.66	3.4884e-06	2.9921e-06	320.11	130.37	97.044	45.509	2.4412e-06	62.963	2.6553e-05	1.3779e-05	3.7477e-06	570.24	1.6097e-07	1.4881e-07	654.97	190.28	1.6196e-07	1.4966e-07	250	103.14	77.186	36.319	1.4795e-07	49.137	183.014	167.056	170.007	117.018	313.234	242.699	115.428	122.414	250.005	242.713	119.750	123.976	126.004	130.623	234.340	127.123	-8191	255	
2804.131	1	1	0	0	0.12006	0.15097	0.23307	0.34265	0.079751	0.052968	0.16949	0.33237	0.18915	0.059231	0.086511	0.13667	0.1959	0.030071	0.098533	0.26019	-2.1229	-2.6729	-2.1688	-2.8625	-2.5458	-2.4083	-2.9646	-2.5042	-2.7042	-2.8125	-2.2958	-2.9979	-2.6792	-2.5521	-2.9917	-2.5146	378.037	225.350	392.896	402.567	457.493	460.845	415.808	441.483	310.046	366.417	402.528	286.402	189.244	418.150	254.311	380.201	0.00059722	0.00033549	9.2707e-05	708.01	2.7649e-06	3.0819e-06	807.4	239.04	2.5398e-06	2.8531e-06	326.23	132.1	98.127	46.296	3.3993e-06	63.034	2.6437e-05	1.4106e-05	3.5555e-06	579.85	1.7018e-07	1.4941e-07	665.09	194.29	1.6479e-07	1.5924e-07	254.03	105.22	78.328	36.795	1.5112e-07	49.712	179.134	228.964	137.070	116.731	277.834	240.732	115.369	122.054	249.340	223.314	119.498	124.019	126.054	130.879	225.511	127.050	-8191	255	
2804.227	1	1	0	0	0.10642	0.22564	0.11793	0.19526	0.17694	0.057532	0.099434	0.32191	0.030138	0.19739	0.14199	0.12912	0.034743	0.05905	0.24468	0.31257	-2.1146	-2.8	-2.2646	-2.925	-2.8229	-2.0896	-2.9083	-2.5979	-2.4	-3.1104	-2.2354	-2.575	-2.7562	-2.1833	-2.8979	-2.8604	238.760	456.346	139.561	460.690	410.732	450.016	216.215	376.100	147.746	395.455	411.018	397.965	120.945	376.993	445.158	363.170	0.0005796	0.00043179	6.8167e-05	717.27	2.6601e-06	3.4677e-06	817.25	237.95	3.8918e-06	3.2173e-06	329.56	131.97	97.615	45.866	3.6505e-06	63.496	2.6345e-05	1.2792e-05	3.5423e-06	584.32	1.5607e-07	1.45e-07	669.64	194.05	1.5998e-07	1.4168e-07	255.05	105.06	78.074	36.633	1.4928e-07	49.653	179.594	176.812	155.107	116.945	332.004	228.492	115.510	122.052	245.744	208.613	119.196	124.171	125.947	130.816	215.241	127.267	-8191	255	
2804.299	1	1	0	0	0.052369	0.059641	0.34108	0.07827	0.20127	0.15086	0.15281	0.1753	0.16817	0.020543	0.24768	0.02183	0.15619	0.30928	0.25152	0.21954	-1.8312	-2.8771	-2.3542	-2.7313	-2.8917	-2.4583	-3.0563	-2.7875	-2.2958	-3.0208	-2.5312	-2.8083	-3.1063	-2.3104	-2.8021	-2.6792	240.946	108.938	135.928	390.385	408.422	113.952	279.093	107.808	401.065	312.031	287.243	147.758	409.970	441.224	152.186	322.944	0.00058427	0.00044578	7.3978e-05	705.47	1.5671e-06	2.9028e-06	803.36	234.2	3.0718e-06	4.2269e-06	321.97	130.62	96.466	45.197	4.6454e-06	62.939	2.6043e-05	1.2191e-05	3.436e-06	575.37	1.4984e-07	1.3027e-07	662.24	191.82	1.5232e-07	1.2463e-07	251.67	103.63	77.23	36.217	1.4613e-07	48.888	182.567	175.139	137.284	116.807	267.183	230.117	115.576	122.490	236.341	227.000	119.629	123.900	126.243	130.963	222.492	127.093	-8191	255	
2804.395	1	1	0	0	0.11493	0.21627	0.094575	0.13921	0.060884	0.1999	0.23946	0.14867	0.074848	0.17614	0.063493	0.37634	0.3015	0.14185	0.056722	0.3617	-1.6354	-2.9625	-2.325	-2.4521	-2.8271	-2.2833	-2.7292	-2.9562	-2.3771	-2.8937	-2.7083	-2.5708	-3.0042	-2.4417	-2.7896	-2.8271	272.517	201.349	357.459	234.855	342.028	242.133	384.876	454.736	308.414	182.840	311.772	388.772	387.209	116.246	169.742	349.407	0.00058234	0.00044061	9.847e-05	695.85	2.7065e-06	3.3229e-06	797.13	234.46	2.1353e-06	2.2597e-06	321.49	130.07	95.813	45.393	1.61e-06	62.292	2.4771e-05	1.1006e-05	3.5234e-06	570.4	1.4091e-07	1.2857e-07	657.62	191.7	1.4459e-07	1.2016e-07	250.39	103.13	76.7	36.104	1.5603e-07	48.791	179.927	152.405	158.008	117.081	278.723	246.531	115.325	122.401	248.164	234.066	119.751	124.166	126.289	130.731	192.057	127.405	-8191	255	
2804.491	1	1	0	0	0.15148	0.023859	0.1001	0.3107	0.12349	0.2312	0.23322	0.36608	0.11432	0.069243	0.42107	0.10466	0.26424	0.168	0.046207	0.1221	-2.0104	-3.0021	-2.4458	-2.4417	-2.8917	-2.3875	-2.775	-2.9396	-2.4125	-2.9917	-2.4813	-2.3729	-3.1271	-2.6375	-2.5833	-2.8812	269.366	299.807	454.996	460.362	190.449	232.472	434.052	402.103	385.301	113.911	388.616	395.852	411.739	147.073	429.132	346.425	0.00056743	0.00037287	7.8151e-05	700.92	1.4519e-06	1.8342e-06	811.03	232.22	3.9019e-06	3.1355e-06	320.26	129.33	95.617	45.583	3.6087e-06	62.983	2.396e-05	1.155e-05	3.4488e-06	573.95	1.318e-07	1.2596e-07	662.7	190.9	1.4426e-07	1.2835e-07	250.41	103.04	76.614	36.234	1.5793e-07	49.205	181.088	161.456	144.659	116.804	304.999	228.420	114.920	122.316	257.213	230.754	119.809	123.851	126.549	131.099	236.195	126.807	-8191	255	
2804.611	1	1	0	0	0.13335	0.033563	0.14962	0.42044	0.083801	0.14498	0.22187	0.067588	0.23996	0.39065	0.11631	0.23314	0.18222	0.079624	0.24828	0.41637	-1.6042	-3.0312	-2.3958	-2.3208	-2.9875	-2.5208	-2.4458	-2.8646	-2.2458	-2.825	-2.7458	-2.4646	-3.0354	-2.5729	-2.4542	-2.9417	447.714	350.720	118.131	399.444	380.878	208.224	403.433	119.378	196.821	287.914	124.371	435.331	445.060	306.708	450.134	403.498	0.00053407	0.00019308	8.9871e-05	705.38	2.153e-06	3.0925e-06	805.24	233.89	2.73e-06	1.9769e-06	323.55	130.93	95.935	45.617	3.2811e-06	63.202	2.3595e-05	1.2201e-05	3.6625e-06	577.52	1.3082e-07	1.3292e-07	665.69	191.37	1.3942e-07	1.3373e-07	253.02	104.06	76.917	36.392	1.5389e-07	49.325	183.400	172.476	128.526	117.070	324.447	244.372	115.013	122.686	259.159	205.125	119.571	124.108	126.508	130.909	222.254	127.286	-8191	255	
2804.708	1	1	0	0	0.17402	0.090767	0.17238	0.13815	0.0086237	0.2748	0.19321	0.30927	0.080333	0.24394	0.054054	0.26423	0.24068	0.1567	0.19702	0.13435	-1.7	-2.725	-2.5563	-2.5062	-2.9688	-2.3875	-2.4896	-3.2	-2.5146	-2.75	-2.8479	-2.2771	-3.2021	-2.525	-2.425	-2.9708	377.202	183.644	106.143	115.314	221.048	382.391	406.023	312.797	325.585	266.078	340.317	441.166	433.926	410.214	227.331	122.322	0.0006007	0.00052064	7.0953e-05	700.53	2.9661e-06	2.1801e-06	805.69	232.58	3.4849e-06	1.8374e-06	319.89	129.28	96.326	44.798	3.9539e-06	61.889	2.4294e-05	1.3754e-05	3.6128e-06	572.65	1.232e-07	1.3891e-07	660.77	190.39	1.3684e-07	1.3738e-07	249.91	103.22	76.675	35.793	1.4873e-07	48.585	179.768	207.540	149.165	117.021	289.587	289.329	115.173	122.053	233.511	196.393	119.953	123.892	126.600	130.982	239.668	127.060	-8191	255	
2804.804	1	1	0	0	0.16541	0.053502	0.26608	0.16102	0.023607	0.19929	0.066058	0.18532	0.19805	0.067723	0.1086	0.22571	0.26983	0.21385	0.056582	0.21032	-1.9729	-2.4938	-2.4896	-2.3479	-2.8958	-2.5854	-2.6125	-3.2396	-2.3729	-2.7562	-2.9375	-2.3479	-2.9646	-2.7521	-2.5396	-3.1271	134.535	131.052	362.548	119.396	452.628	122.306	284.643	442.435	447.703	456.382	288.638	415.758	460.636	441.909	340.469	205.882	0.0005775	0.00024719	4.5659e-05	701.2	2.7433e-06	2.7268e-06	802.19	232.85	2.8853e-06	3.5022e-06	321.33	131.38	96.892	45.574	1.9361e-06	62.778	2.3886e-05	1.2719e-05	3.4703e-06	568.2	1.3148e-07	1.3621e-07	658.76	191.6	1.3842e-07	1.4277e-07	251.22	104.04	77.407	36.24	1.3673e-07	48.941	182.202	203.757	148.759	117.238	296.407	238.968	114.980	122.487	244.166	212.905	119.489	124.148	126.388	131.153	214.670	127.410	-8191	255	
2804.923	1	1	0	0	0.059709	0.19864	0.13309	0.14113	0.1195	0.18471	0.1725	0.22069	0.16042	0.21014	0.18135	0.24276	0.23975	0.071539	0.12853	0.22318	-1.8021	-2.2896	-2.9104	-2.3708	-2.7542	-2.5812	-2.4729	-3.2083	-2.4271	-2.4792	-3.0896	-2.4271	-2.675	-2.5396	-2.3937	-3.1542	210.763	296.428	281.853	131.229	161.151	125.519	357.679	380.627	442.008	396.403	156.074	389.153	457.175	132.929	322.672	444.314	0.00058708	0.00056374	6.0825e-05	701.35	1.851e-06	2.4506e-06	813.32	234.37	3.1289e-06	2.3842e-06	322.7	130.69	96.878	45.735	4.1364e-06	63.457	2.4262e-05	1.3104e-05	3.2088e-06	571.94	1.402e-07	1.3731e-07	664.85	192.24	1.4541e-07	1.3862e-07	253.52	104.27	77.576	36.408	1.4603e-07	49.345	180.374	162.425	140.006	117.214	313.116	242.067	115.758	122.356	266.859	259.006	120.096	123.934	126.034	130.569	244.588	127.126	-8191	255	
2804.996	1	1	0	0	0.09503	0.35873	0.2039	0.10115	0.030972	0.22695	0.26619	0.20898	0.051757	0.15475	0.10621	0.050608	0.21584	0.21758	0.25504	0.08342	-1.9562	-2.2167	-3.0104	-2.575	-2.6229	-2.7687	-2.3646	-3.0479	-2.3229	-2.5771	-3.1562	-2.5229	-2.6646	-3.0021	-2.2438	-2.8875	273.678	361.102	271.741	127.634	373.392	157.606	399.264	194.700	328.333	312.715	315.567	447.414	462.342	341.459	428.148	166.549	0.00059716	0.00018776	7.0865e-05	706.45	1.8855e-06	2.7223e-06	822.57	234.94	4.3732e-06	2.207e-06	329.05	132.62	97.121	45.59	4.6978e-06	62.936	2.4809e-05	1.3747e-05	3.2316e-06	575.9	1.4612e-07	1.3335e-07	670.47	192.35	1.6552e-07	1.4e-07	255.26	105.28	77.913	36.492	1.4605e-07	49.493	182.017	202.328	115.956	116.995	293.771	252.721	115.200	122.150	250.970	243.726	119.278	124.345	126.173	130.824	237.828	126.991	-8191	255	
2805.092	1	1	0	0	0.20722	0.3071	0.11245	0.15892	0.12366	0.16694	0.21884	0.16949	0.28857	0.11897	0.17606	0.30231	0.2789	0.038853	0.11293	0.15798	-2.15	-2.2896	-3.0375	-2.4813	-2.6958	-3.0958	-2.3063	-2.7771	-2.7	-2.3875	-3.2854	-2.4062	-2.6833	-3.0167	-2.1292	-2.75	309.143	104.887	285.652	147.274	289.696	370.828	359.704	402.888	371.845	241.795	328.593	449.648	143.493	307.559	449.502	307.425	0.00056966	0.00045399	9.2258e-05	698.53	4.485e-06	1.2382e-06	806.17	236.67	3.0438e-06	3.0978e-06	324.8	131.63	97.251	45.499	4.3157e-06	62.613	2.4613e-05	1.3119e-05	3.2886e-06	573.24	1.5625e-07	1.384e-07	664.28	193.04	1.51e-07	1.3241e-07	253.31	104.57	77.758	36.242	1.3576e-07	48.766	180.983	189.365	122.348	116.840	299.643	201.771	115.191	122.389	234.900	219.326	120.052	124.011	126.145	130.819	236.374	126.736	-8191	255	
2805.211	1	1	0	0	0.16767	0.31104	0.10917	0.084262	0.12728	0.25445	0.14984	0.023462	0.12984	0.062922	0.21993	0.07256	0.062271	0.26687	0.12747	0.24258	-2.2083	-2.2083	-2.9854	-2.5583	-2.5417	-3.0333	-2.5042	-2.9167	-2.9542	-2.3604	-3	-2.6333	-2.4646	-3.0938	-2.2938	-2.7938	115.221	408.545	239.523	296.583	417.044	425.145	339.327	152.141	259.838	377.967	240.874	208.179	279.186	451.272	314.389	418.349	0.00056056	0.00038303	4.3245e-05	702.01	3.0444e-06	2.7469e-06	798.35	234.52	2.4459e-06	2.0189e-06	324.12	131.6	96.494	45.45	3.5114e-06	63.263	2.4574e-05	1.2174e-05	3.1332e-06	570.08	1.5779e-07	1.2691e-07	658.19	191.28	1.4327e-07	1.3601e-07	252.2	104.28	77.455	36.248	1.4086e-07	49.215	180.252	224.340	148.169	116.996	272.961	255.573	115.047	122.477	249.918	200.204	119.164	124.004	126.199	131.120	259.148	127.215	-8191	255	
2805.307	1	1	0	0	0.14034	0.17102	0.17347	0.22791	0.19129	0.1097	0.13718	0.058546	0.031905	0.18186	0.26051	0.036194	0.28793	0.19753	0.26735	0.23669	-2.4146	-2.1021	-2.9875	-2.4979	-2.3708	-3.0708	-2.4062	-2.5479	-2.9604	-2.3521	-3.0938	-2.6958	-2.3583	-3.075	-2.3104	-2.7375	229.855	369.886	250.167	215.632	135.096	169.759	447.721	420.366	299.262	423.710	404.913	147.362	456.649	431.322	415.461	130.637	0.00052411	0.00033633	7.3999e-05	702.7	1.4642e-06	2.6561e-06	813.16	235.15	3.4217e-06	2.8129e-06	324.69	131.84	97.518	45.367	2.6513e-06	63.461	2.3957e-05	1.215e-05	3.1403e-06	574.9	1.3967e-07	1.2489e-07	667.43	192.81	1.3772e-07	1.2788e-07	253.77	104.86	77.786	36.378	1.4557e-07	49.341	179.913	166.998	128.875	117.030	304.038	247.146	115.259	122.283	198.451	240.094	119.307	124.142	126.562	130.948	235.453	127.233	-8191	255	
2805.403	1	1	0	0	0.13448	0.21419	0.32172	0.15704	0.042058	0.20387	0.38771	0.1368	0.12843	0.14168	0.26183	0.1575	0.14978	0.060767	0.13905	0.07862	-2.3146	-2.3063	-2.7917	-2.8042	-2.3917	-2.9562	-2.5396	-2.6375	-3.0521	-2.4042	-2.9417	-2.9208	-2.2417	-2.8688	-2.5104	-2.6917	222.294	224.693	396.595	175.497	327.759	170.942	347.537	367.774	413.800	276.882	131.194	232.180	154.115	113.467	200.964	452.046	0.00055846	0.00029177	4.9927e-05	700.23	2.4369e-06	1.5913e-06	818.03	235.52	2.0163e-06	2.6143e-06	328.18	132.71	98.102	45.983	2.1246e-06	63.058	2.4062e-05	1.2384e-05	3.2543e-06	575.52	1.42e-07	1.2202e-07	670.1	193.16	1.4579e-07	1.2456e-07	256.21	105.44	77.996	36.612	1.5092e-07	49.262	183.105	187.435	143.918	117.045	286.391	228.040	115.287	122.259	216.478	219.848	119.976	123.776	126.187	130.883	230.471	127.328	-8191	255	
2805.524	1	1	0	0	0.19718	0.15373	0.04502	0.179	0.077647	0.15899	0.26063	0.19866	0.090812	0.26483	0.1462	0.15114	0.24814	0.23408	0.077502	0.086721	-2.5417	-2.2562	-2.6333	-2.7188	-2.0708	-2.8937	-2.7938	-2.5521	-3.1375	-2.3771	-2.9875	-2.9854	-2.3312	-2.9604	-2.675	-2.6396	409.187	345.972	249.000	148.049	112.506	114.399	438.153	351.140	271.718	354.238	456.891	171.936	424.758	433.974	460.206	151.207	0.00053396	0.00032787	8.4475e-05	701.11	2.2469e-06	2.0983e-06	806.62	232.12	3.5792e-06	2.2788e-06	321.84	130.06	96.364	44.847	3.2355e-06	62.028	2.3805e-05	1.1098e-05	3.5151e-06	571.42	1.3526e-07	1.1537e-07	660.55	190.06	1.3338e-07	1.2388e-07	250.48	103.52	76.917	35.864	1.4689e-07	48.495	180.355	191.345	129.016	116.653	285.074	254.921	115.560	122.202	245.587	221.947	119.594	123.676	126.148	130.608	219.048	127.270	-8191	255	
2805.596	1	1	0	0	0.20598	0.07073	0.19699	0.079861	0.0099388	0.32055	0.11268	0.22622	0.071886	0.18293	0.36344	0.15531	0.28918	0.042932	0.18673	0.15535	-2.6188	-2.2438	-2.5333	-2.7687	-2.25	-2.8021	-2.825	-2.6271	-3.1167	-2.5187	-2.5417	-3.1021	-2.2562	-2.7812	-2.6437	-2.3146	121.693	395.383	415.507	322.324	188.696	338.672	179.061	394.668	260.039	443.938	454.392	174.277	452.136	176.595	400.967	449.459	0.00054702	0.00046886	7.2416e-05	698.72	1.5701e-06	3.6037e-06	800.1	232.19	3.3958e-06	1.5597e-06	323.1	130.15	96.427	44.97	2.3158e-06	62.362	2.2501e-05	1.1274e-05	3.5657e-06	569.27	1.286e-07	1.2421e-07	657.96	190.23	1.3215e-07	1.2088e-07	250.94	103.82	77.004	36.004	1.532e-07	48.764	182.005	176.687	118.329	117.057	299.557	263.182	115.156	122.289	255.808	250.672	119.442	123.876	126.353	130.568	180.751	127.075	-8191	255	
2805.692	1	1	0	0	0.14544	0.14951	0.062476	0.27052	0.2554	0.092311	0.1415	0.16555	0.16192	0.18297	0.1328	0.13011	0.10255	0.15937	0.044784	0.20159	-2.7583	-2.6125	-2.4292	-2.8812	-2.1562	-2.7812	-2.7771	-2.5938	-2.9729	-2.5917	-2.5938	-3.2125	-2.5062	-2.8333	-2.9771	-2.225	216.284	457.401	256.938	464.067	133.050	136.120	388.266	180.036	105.579	178.601	169.426	171.620	204.471	404.242	187.089	440.366	0.00054546	0.00040441	9.1361e-05	697.33	3.5467e-06	2.23e-06	802.78	234.63	2.2746e-06	4.2404e-06	322.98	131.79	96.39	45.245	4.2056e-06	62.992	2.2217e-05	1.2095e-05	3.5234e-06	571.6	1.2985e-07	1.3067e-07	662.87	191.96	1.3306e-07	1.3112e-07	251.66	104.47	77.227	36.214	1.4341e-07	49.069	180.524	172.371	147.901	116.591	283.670	246.223	115.629	122.119	215.387	198.546	119.650	123.888	125.998	130.891	274.649	126.888	-8191	255	
2805.788	1	1	0	0	0.24683	0.15828	0.19354	0.01922	0.1959	0.18757	0.1116	0.17164	0.052784	0.26806	0.29046	0.20506	0.13107	0.253	0.34425	0.14777	-2.4208	-2.2667	-2.3354	-3.0146	-2.3812	-2.6	-2.9188	-2.2396	-2.9229	-2.75	-2.4333	-3.2417	-2.5146	-2.575	-2.8333	-2.5312	227.979	238.390	189.747	392.959	402.134	184.439	113.621	382.145	120.527	127.564	349.245	130.426	115.445	412.910	360.260	447.400	0.00057122	0.00049344	7.5458e-05	700.38	2.3626e-06	1.4019e-06	809.6	234.74	1.7619e-06	4.08e-06	326.6	132.36	97.322	45.143	3.5876e-06	62.848	2.4147e-05	1.2414e-05	3.4767e-06	572.99	1.3082e-07	1.4133e-07	666	191.5	1.3691e-07	1.4263e-07	253.21	105.03	77.6	36.195	1.3736e-07	49.141	180.150	189.464	134.231	116.838	299.069	218.360	115.218	122.092	226.584	214.580	119.374	124.183	126.170	130.796	217.862	127.218	-8191	255	
2805.907	1	1	0	0	0.15846	0.16941	0.16363	0.062399	0.047829	0.060562	0.13115	0.20815	0.21004	0.054895	0.089056	0.080892	0.1957	0.25898	0.20974	0.21784	-2.5458	-2.4979	-2.1583	-3.0521	-2.5083	-2.6063	-3.0708	-2.2729	-2.9458	-2.875	-2.3083	-2.8125	-2.4542	-2.6292	-3.1125	-2.5021	190.771	315.545	313.241	249.514	414.394	248.655	116.950	426.525	230.830	372.838	433.308	225.737	186.875	107.266	365.941	344.986	0.00054536	0.00032635	9.7164e-05	701.07	2.711e-06	4.0058e-06	812.36	234.35	2.0852e-06	3.5285e-06	322.3	131.59	96.434	45.325	2.8975e-06	61.985	2.3399e-05	1.3287e-05	3.3969e-06	571.85	1.4537e-07	1.4295e-07	663.91	191.06	1.3852e-07	1.4539e-07	251.57	104.65	77.145	36.184	1.3984e-07	48.41	180.579	189.158	172.311	116.952	302.946	269.332	115.299	122.495	238.697	222.703	119.100	123.818	126.374	130.993	219.023	126.933	-8191	255	
2806.003	1	1	0	0	0.1469	0.10071	0.10162	0.22005	0.066079	0.24342	0.35985	0.57365	0.15116	0.1862	0.2631	0.3043	0.30948	0.33078	0.2009	0.184	-2.3667	-2.5625	-2.2833	-2.8063	-2.5104	-2.4375	-3.1813	-2.4646	-2.6771	-2.8937	-2.1479	-2.9854	-2.7188	-2.3708	-2.9458	-2.4875	310.300	336.069	128.760	388.203	331.066	266.118	449.791	404.615	427.941	372.477	391.926	126.412	414.794	112.077	455.104	149.815	0.00057382	0.00018786	5.3498e-05	696.53	2.5306e-06	2.2487e-06	803.34	232.5	2.3446e-06	9.5231e-07	323.69	131.34	97.293	45.469	3.5086e-06	62.703	2.4691e-05	1.3029e-05	3.5013e-06	568.64	1.4608e-07	1.3705e-07	660.21	190.51	1.4612e-07	1.3785e-07	252.71	104.67	77.533	36.313	1.3864e-07	49.069	177.975	163.851	148.685	116.814	295.928	217.554	115.410	122.595	244.395	187.398	119.103	123.990	126.022	130.757	224.946	126.749	-8191	255	
2806.099	1	1	0	0	0.26041	0.13581	0.063043	0.17858	0.10788	0.14403	0.037639	0.22813	0.3442	0.20794	0.18871	0.1923	0.12302	0.25666	0.25137	0.074139	-2.1813	-2.9042	-2.2438	-2.7917	-2.6375	-2.6146	-3.15	-2.3563	-2.6	-3.1646	-2.3521	-2.9979	-2.8271	-2.5396	-2.9958	-2.3229	230.333	163.814	284.562	382.363	117.795	353.058	145.586	419.210	112.328	230.052	413.418	461.895	215.305	452.498	108.251	418.472	0.00056333	0.00045313	2.3403e-05	696.91	1.7197e-06	1.7093e-06	802.3	235.51	3.8848e-06	2.2141e-06	322.51	132.01	97.674	45.378	2.2752e-06	62.823	2.5562e-05	1.2585e-05	3.2444e-06	570.81	1.4829e-07	1.2682e-07	662.57	192.02	1.5679e-07	1.3104e-07	253.31	104.9	77.745	36.129	1.3454e-07	49.164	182.124	177.695	197.373	117.339	256.732	249.892	115.492	122.376	238.559	227.117	119.458	124.004	126.245	131.006	223.518	127.007	-8191	255	
2806.195	1	1	0	0	0.1435	0.19425	0.15855	0.19475	0.20783	0.036184	0.12091	0.12611	0.14755	0.072625	0.11838	0.17834	0.13749	0.19367	0.10504	0.060914	-2.0687	-3.05	-2.0646	-2.9062	-2.7021	-2.1583	-3.0938	-2.5312	-2.4917	-2.8667	-2.6021	-2.6625	-2.7479	-2.4542	-2.8646	-2.475	462.381	352.096	198.145	117.660	306.998	139.132	433.585	207.594	370.784	453.367	333.490	447.621	179.216	376.020	269.927	334.319	0.00055034	0.00037077	8.4283e-05	701.96	2.5758e-06	1.9374e-06	809.69	234.51	2.8832e-06	2.3524e-06	327.92	133.27	98.156	45.629	2.1477e-06	63.023	2.5098e-05	1.2969e-05	3.3213e-06	573.63	1.4365e-07	1.313e-07	668.38	192.66	1.5369e-07	1.2627e-07	254.74	105.99	77.927	36.509	1.3417e-07	49.453	183.007	189.430	131.231	116.953	260.022	282.488	115.566	122.006	254.691	229.538	119.591	124.012	126.120	130.942	208.348	127.080	-8191	255	
2806.291	1	1	0	0	0.085026	0.011715	0.24138	0.1697	0.12731	0.1209	0.37283	0.15648	0.16671	0.13211	0.16534	0.157	0.22613	0.17538	0.17555	0.18469	-2.0979	-2.9208	-2.2333	-2.5896	-2.9479	-2.3375	-3.0812	-2.6646	-2.4625	-3.1562	-2.3688	-2.7812	-2.8396	-2.3729	-2.9021	-2.5667	331.230	270.436	456.449	284.835	398.792	184.337	375.366	109.033	302.661	423.371	397.494	268.913	444.436	354.520	129.740	426.382	0.00057198	0.00031205	7.5372e-05	702.63	2.7268e-06	2.3546e-06	813.95	236.15	2.7858e-06	1.1867e-06	329.94	132.97	97.764	45.665	3.207e-06	63.253	2.4671e-05	1.1988e-05	3.3014e-06	573.79	1.4422e-07	1.3293e-07	668.03	192.87	1.4816e-07	1.2354e-07	254.77	105.7	78.018	36.401	1.4096e-07	49.063	179.087	190.057	155.387	116.861	287.511	213.347	115.013	122.321	246.949	165.965	119.566	123.882	126.446	131.008	217.428	126.699	-8191	255	
2806.388	1	1	0	0	0.19212	0.17715	0.0026303	0.2896	0.13972	0.091086	0.16895	0.29933	0.11734	0.23614	0.182	0.11685	0.48412	0.3059	0.11262	0.13696	-1.9354	-3.0229	-2.3	-2.6771	-3.1021	-2.4458	-2.8354	-2.6646	-2.2833	-3.0583	-2.4458	-2.6542	-3.0417	-2.0479	-2.7333	-2.7708	228.260	289.030	267.552	159.410	223.757	257.510	457.350	325.038	401.015	311.036	201.078	186.189	429.703	388.902	352.097	235.343	0.00058172	0.000498	3.4075e-05	702.6	1.2828e-06	2.2001e-06	801.43	234.37	2.6892e-06	2.6523e-06	324.44	132.2	97.949	45.58	3.1569e-06	63.011	2.4434e-05	1.1524e-05	3.3226e-06	569.56	1.4091e-07	1.2768e-07	660.86	192.21	1.4203e-07	1.233e-07	252.63	104.99	77.946	36.283	1.4473e-07	49.005	181.915	197.706	177.042	116.662	248.681	253.933	115.682	122.505	232.777	285.899	119.705	123.950	126.635	130.942	238.894	126.907	-8191	255	
2806.484	1	1	0	0	0.14143	0.19677	0.11657	0.2908	0.040011	0.17874	0.046398	0.15407	0.26707	0.15388	0.39997	0.12079	0.083151	0.37889	0.15073	0.098242	-1.7542	-2.95	-2.6542	-2.6667	-2.8771	-2.4646	-2.9646	-2.9313	-2.4458	-3.0458	-2.7354	-2.6417	-3.2333	-2.5229	-2.5979	-2.9354	410.295	297.493	442.170	116.031	310.002	255.266	357.477	437.084	136.415	259.834	131.272	169.471	347.582	454.309	302.081	383.353	0.00055569	0.00031002	0.00012373	703.91	1.6766e-06	2.9759e-06	812.07	234.75	3.0495e-06	2.2664e-06	325.98	132.93	96.826	45.8	3.2311e-06	63.027	2.4334e-05	1.1316e-05	3.4414e-06	574.44	1.2684e-07	1.2338e-07	668.23	192.34	1.4303e-07	1.2475e-07	253.93	105.59	77.625	36.598	1.4771e-07	49.112	177.664	146.485	150.411	117.002	272.197	266.096	115.059	122.149	246.208	225.172	119.784	124.111	126.160	131.033	239.935	126.962	-8191	255	
2806.604	1	1	0	0	0.07686	0.26708	0.091826	0.11363	0.16851	0.18215	0.071039	0.13728	0.30377	0.14787	0.13554	0.10666	0.054108	0.12594	0.17582	0.068372	-1.7458	-2.6562	-2.5042	-2.5438	-2.8042	-2.3563	-2.6771	-2.9875	-2.2354	-3.1104	-2.5479	-2.3375	-2.9146	-2.5125	-2.5833	-2.7333	362.666	257.687	351.988	187.038	305.394	365.216	324.705	138.046	250.116	410.148	168.532	428.533	442.672	367.263	433.642	373.106	0.00056904	0.00032892	7.3261e-05	703.22	1.9027e-06	2.0362e-06	816.47	236.96	4.055e-06	4.0477e-06	328.86	134.09	97.724	45.929	4.3013e-06	63.747	2.3752e-05	1.1903e-05	3.5962e-06	573.34	1.2777e-07	1.2153e-07	672.27	193.2	1.3703e-07	1.1986e-07	256.21	106.76	78.281	36.653	1.5315e-07	49.634	180.946	168.266	120.668	116.745	269.555	234.309	115.542	122.188	240.651	233.538	119.733	123.630	126.362	130.907	250.625	127.188	-8191	255	
2806.701	1	1	0	0	0.13657	0.2384	0.15067	0.22759	0.27044	0.13602	0.42038	0.098934	0.28677	0.18902	0.03244	0.29389	0.19052	0.1466	0.32058	0.3098	-1.8937	-2.7812	-2.65	-2.1688	-2.9854	-2.6146	-2.5979	-2.9437	-2.175	-2.8854	-2.6104	-2.2646	-2.9083	-2.5979	-2.5208	-3.1875	265.127	153.111	217.185	106.133	372.310	295.481	336.195	375.787	390.944	271.361	329.174	403.374	429.860	297.872	391.774	378.204	0.00054916	0.00041609	5.224e-05	703.44	1.3592e-06	3.3295e-06	813.3	236.03	3.6107e-06	2.6907e-06	327.76	134.41	97.528	46.07	3.1003e-06	63.047	2.3353e-05	1.2493e-05	3.6195e-06	574.63	1.3181e-07	1.3833e-07	671.72	193.97	1.4016e-07	1.3718e-07	255.43	106.66	78.236	36.683	1.5421e-07	49.185	179.537	199.418	169.607	116.992	295.615	242.523	115.331	122.187	246.769	231.950	119.170	124.032	126.633	131.009	243.477	126.833	-8191	255	
2806.797	1	1	0	0	0.099341	0.034931	0.16489	0.34609	0.16035	0.036704	0.1777	0.04334	0.068803	0.16912	0.079254	0.12768	0.07995	0.32152	0.40801	0.14437	-1.7292	-2.8083	-2.7938	-2.3396	-2.8479	-2.5625	-2.5229	-3.1458	-2.4917	-2.7229	-2.9271	-2.2812	-3.0458	-2.6958	-2.2646	-2.9667	229.453	368.280	352.079	200.651	177.090	294.628	171.385	343.258	199.985	386.637	398.878	393.748	183.156	460.123	269.164	375.836	0.00059489	0.00024109	7.9246e-05	697.97	2.7135e-06	2.3982e-06	814.9	235.79	2.9846e-06	3.8057e-06	328.46	133.72	97.49	46.333	3.321e-06	63.624	2.3819e-05	1.2219e-05	3.4568e-06	571.07	1.3492e-07	1.4139e-07	668.3	193.38	1.3731e-07	1.3753e-07	255.68	106.57	78.388	36.96	1.4597e-07	49.638	178.132	461.381	167.310	116.864	291.108	239.312	115.543	122.449	270.399	264.911	119.360	123.704	125.941	130.710	230.893	126.957	-8191	255	
2806.893	1	1	0	0	0.078925	0.029062	0.16054	0.2469	0.19031	0.10903	0.25804	0.18824	0.14736	0.17073	0.064793	0.022395	0.17079	0.10095	0.20509	0.23682	-1.9604	-2.6042	-2.8833	-2.2125	-2.9229	-2.7229	-2.6562	-3.1417	-2.3458	-2.5646	-2.8312	-2.5312	-3.0271	-2.9313	-2.525	-3.1063	261.588	444.246	304.443	451.705	430.296	206.297	274.433	144.348	231.631	120.788	109.109	378.439	154.172	359.494	349.168	413.047	0.00060061	0.0003775	4.5578e-05	703.93	3.5235e-06	3.3829e-06	814.76	236.35	2.3056e-06	3.1196e-06	329.32	136.34	99.62	46.789	3.6426e-06	64.837	2.3831e-05	1.2993e-05	3.3738e-06	574.13	1.3448e-07	1.4117e-07	671.89	194.62	1.4351e-07	1.4835e-07	258	108.3	79.338	37.322	1.4663e-07	50.414	181.780	176.675	182.384	116.980	258.741	243.892	115.784	122.424	219.798	192.959	119.408	124.095	126.107	130.781	229.958	127.093	-8191	255	
2806.987	1	1	0	0	0.068905	0.38994	0.26275	0.10379	0.11863	0.097558	0.22088	0.098064	0.10272	0.0936	0.23029	0.11619	0.33413	0.2678	0.13424	0.13075	-1.9417	-2.3625	-2.7229	-2.4083	-2.9042	-2.7271	-2.3875	-3.075	-2.5021	-2.1813	-3.0521	-2.6479	-2.6958	-2.7396	-2.1771	-2.8438	309.260	145.914	149.058	400.317	311.281	284.042	212.202	113.876	198.198	463.064	403.866	454.307	185.587	397.805	176.690	315.433	0.00059856	0.00030318	4.1399e-05	704.1	3.2922e-06	2.4778e-06	821.76	239.84	3.6074e-06	2.6703e-06	331.17	136.24	100.08	46.789	2.9209e-06	64.551	2.5319e-05	1.3196e-05	3.3113e-06	576.11	1.494e-07	1.3762e-07	677.09	196.14	1.508e-07	1.4527e-07	259.37	108.29	79.783	37.324	1.4941e-07	50.467	179.773	205.125	150.183	117.122	268.473	218.531	115.520	122.684	233.942	218.763	119.488	124.248	126.747	131.006	225.764	126.972	-8191	255	
2807.083	1	1	0	0	0.037244	0.1076	0.12938	0.11632	0.17078	0.16749	0.12913	0.075466	0.21216	0.21205	0.11999	0.37202	0.11726	0.31968	0.067515	0.22547	-1.9792	-2.2125	-2.9229	-2.4562	-2.875	-2.9271	-2.0771	-2.7875	-2.8208	-2.4083	-3.0333	-2.4979	-2.7042	-3.1167	-2.2271	-2.7646	212.107	245.212	306.766	123.948	306.411	442.503	370.780	423.067	141.328	339.027	392.943	430.010	179.523	450.935	149.859	167.743	0.0005504	0.00044677	0.00010295	704.98	1.8354e-06	1.9041e-06	828.63	241.16	2.1068e-06	2.4771e-06	331.43	137.27	100.23	46.61	2.625e-06	64.063	2.4806e-05	1.3076e-05	3.1595e-06	576.96	1.4132e-07	1.3886e-07	679.67	197.46	1.4979e-07	1.3962e-07	259.52	108.92	79.648	37.285	1.3518e-07	50.021	179.004	185.432	147.024	116.898	243.656	285.310	115.119	122.447	238.543	239.672	119.634	124.057	126.538	130.486	231.900	127.104	-8191	255	
2807.204	1	1	0	0	0.040333	0.10546	0.25224	0.12793	0.15784	0.37765	0.10232	0.23654	0.067127	0.31031	0.19863	0.13825	0.27954	0.0080429	0.13011	0.34427	-2.1188	-2.2396	-3.0104	-2.5292	-2.5521	-2.8875	-2.4583	-2.9562	-2.975	-2.3583	-2.9188	-2.5125	-2.525	-3.0292	-2.1646	-2.7208	146.158	200.522	251.286	445.024	381.129	161.631	353.995	448.176	233.654	386.463	388.846	339.787	125.247	165.159	267.072	423.016	0.00060601	0.00036955	9.6443e-05	708.78	2.4584e-06	1.4705e-06	817.14	237.8	2.5517e-06	4.9422e-06	329.62	135.7	98.405	46.773	1.9385e-06	63.592	2.4892e-05	1.2566e-05	3.2473e-06	578.24	1.4408e-07	1.3271e-07	671.61	195.18	1.5668e-07	1.3171e-07	256.61	107.51	78.733	37.065	1.3998e-07	49.729	181.269	185.757	137.395	117.209	269.428	217.977	115.316	122.325	243.923	236.745	119.566	124.111	126.135	130.694	207.199	127.309	-8191	255	
2807.300	1	1	0	0	0.14573	0.085002	0.29028	0.16368	0.23526	0.13245	0.26383	0.16608	0.15838	0.16211	0.15171	0.31747	0.18284	0.18296	0.22335	0.078909	-2.3083	-2.2542	-2.8917	-2.5146	-2.4875	-3.2062	-2.3458	-2.575	-2.8625	-2.4333	-3.0146	-2.6042	-2.5062	-3.0104	-2.1292	-2.675	274.396	348.244	303.463	127.848	190.878	161.240	366.896	113.591	415.505	353.119	234.302	363.932	381.467	446.434	164.806	292.682	0.00057785	0.00035489	7.7381e-05	708.73	2.7177e-06	3.416e-06	814.45	238.5	2.8343e-06	3.6951e-06	330.27	136.35	99.104	46.446	3.3539e-06	64.133	2.5036e-05	1.1988e-05	3.2803e-06	578.45	1.4818e-07	1.2475e-07	675.64	195.75	1.4853e-07	1.2742e-07	258.72	108.29	79.094	37.139	1.3593e-07	50.142	177.592	173.422	131.331	116.955	265.906	243.767	115.288	122.488	236.724	219.676	119.137	123.909	126.403	130.827	243.764	127.455	-8191	255	
2807.396	1	1	0	0	0.11198	0.21299	0.15931	0.4392	0.12881	0.12341	0.12191	0.15865	0.15864	0.15163	0.028074	0.071368	0.28818	0.070151	0.12204	0.09893	-2.4167	-2.2604	-2.7542	-2.4792	-2.1896	-2.9375	-2.5479	-2.7833	-2.8667	-2.0646	-2.9333	-2.8688	-2.3458	-3.0271	-2.5646	-2.4771	165.821	371.564	156.505	250.990	298.883	415.169	381.775	284.803	301.462	414.000	434.744	346.730	176.325	253.377	339.223	265.525	0.00057602	0.00019523	8.9492e-05	700.68	3.8079e-06	3.0839e-06	826.69	239.98	1.438e-06	2.518e-06	334.01	136.66	98.766	46.647	3.5542e-06	64.903	2.4907e-05	1.2698e-05	3.3232e-06	577.31	1.4045e-07	1.3132e-07	678.48	195.92	1.3884e-07	1.2642e-07	259.83	108.5	79.143	37.243	1.4379e-07	50.47	182.245	192.909	158.807	116.921	272.476	278.738	115.247	122.406	263.082	205.429	119.405	124.163	126.428	130.852	236.860	127.251	-8191	255	
2807.468	1	1	0	0	0.0081758	0.063941	0.3235	0.26534	0.08149	0.060532	0.1169	0.13126	0.13904	0.10192	0.27072	0.12518	0.01694	0.17801	0.16052	0.32586	-2.275	-2.2979	-2.7958	-2.7542	-2.2479	-2.9083	-2.7958	-2.5458	-2.9	-2.4188	-2.7771	-3.0417	-2.4354	-3.0167	-2.7458	-2.3729	372.781	398.184	277.693	367.682	164.692	399.466	426.702	436.957	347.708	292.361	172.649	360.435	333.479	458.484	169.581	108.194	0.00058951	0.00045782	0.00010895	705.2	2.8053e-06	3.4077e-06	820.36	239.52	3.2892e-06	3.0836e-06	331.86	134.16	98.728	45.808	2.9285e-06	63.253	2.3899e-05	1.1624e-05	3.3751e-06	576.3	1.3483e-07	1.2178e-07	675.19	195.79	1.3729e-07	1.2216e-07	258.19	107.25	78.647	36.565	1.452e-07	49.299	180.323	188.076	135.776	117.159	311.084	300.316	115.293	122.456	268.975	204.050	119.251	123.961	126.144	130.936	222.970	127.238	-8191	255	
2807.589	1	1	0	0	0.15411	0.16046	0.057118	0.085795	0.10372	0.1221	0.14268	0.25234	0.13643	0.29735	0.28787	0.28226	0.23096	0.45429	0.1087	0.19205	-2.4688	-2.3604	-2.6479	-2.8458	-2.3812	-3.0792	-2.6604	-2.2146	-2.8354	-2.5312	-2.5875	-2.8917	-2.3854	-3.1479	-2.5542	-2.4479	379.259	172.632	268.497	201.658	303.291	274.348	354.953	435.311	423.667	437.396	458.149	392.823	411.941	448.712	388.818	230.244	0.00056112	0.00054052	5.4549e-05	700.11	2.9535e-06	3.6232e-06	812.65	237.11	3.4242e-06	2.898e-06	329.25	133.5	98.248	45.682	3.9057e-06	63.195	2.3125e-05	1.1766e-05	3.5897e-06	572.51	1.2825e-07	1.1911e-07	669.59	194.4	1.3131e-07	1.3066e-07	255.89	106.69	78.557	36.704	1.5552e-07	49.522	182.485	176.024	133.544	117.081	274.330	228.306	115.107	122.462	257.619	229.799	119.338	123.828	126.287	130.743	259.501	127.025	-8191	255	
2807.685	1	1	0	0	0.10684	0.15356	0.046896	0.34823	0.11103	0.079633	0.41651	0.17442	0.15756	0.11689	0.16273	0.11835	0.14954	0.053466	0.20287	0.14948	-2.6562	-2.5042	-2.5292	-2.9562	-2.2875	-2.7875	-2.6875	-2.3021	-3.0312	-2.5938	-2.6208	-2.9167	-2.275	-2.9854	-2.6958	-2.4833	263.113	382.823	463.087	433.462	116.885	343.516	386.138	135.660	168.851	122.564	173.503	212.557	463.325	179.028	260.262	376.376	0.00051424	0.0003386	6.3199e-05	705.96	2.3168e-06	2.2816e-06	823.7	240.39	3.283e-06	4.1872e-06	332.23	135.22	98.541	46.505	4.8244e-06	64.307	2.2443e-05	1.2134e-05	3.5084e-06	576.73	1.3182e-07	1.3568e-07	675.25	196.05	1.3285e-07	1.2856e-07	258.31	107.63	78.777	37.121	1.5285e-07	50.052	182.799	186.300	118.073	116.657	314.907	245.922	114.876	122.224	263.802	211.260	119.304	124.082	126.220	130.870	245.515	127.136	-8191	255	
2807.781	1	1	0	0	0.034394	0.22432	0.070679	0.25386	0.11543	0.16232	0.16492	0.054046	0.23745	0.24494	0.36541	0.10076	0.13568	0.079551	0.13261	0.22953	-2.6271	-2.3167	-2.4938	-3.1833	-2.2979	-2.7479	-2.9562	-2.3	-2.9542	-2.6104	-2.5938	-3.1875	-2.3083	-2.7771	-2.9146	-2.0604	272.449	294.756	341.965	440.540	414.735	384.429	454.338	196.706	218.270	393.941	456.485	443.525	353.228	386.750	459.792	142.873	0.00054652	0.00033277	7.4761e-05	711.62	9.3973e-07	2.851e-06	828.43	240.1	2.3776e-06	2.5066e-06	334.06	136.65	97.293	46.082	2.1064e-06	63.862	2.2755e-05	1.2717e-05	3.4385e-06	579.61	1.3415e-07	1.3864e-07	678.95	196.02	1.3064e-07	1.3408e-07	258.56	107.92	78.379	36.82	1.3977e-07	49.908	180.714	196.389	132.049	116.747	328.825	274.138	114.928	122.127	237.071	202.563	119.841	123.579	126.548	130.819	198.008	127.294	-8191	255	
2807.877	1	1	0	0	0.22529	0.25728	0.22445	0.25833	0.21467	0.38615	0.17783	0.16117	0.14568	0.12825	0.2325	0.17686	0.33274	0.36559	0.096637	0.10072	-2.5	-2.6333	-2.5667	-2.8542	-2.3792	-2.7271	-3.1729	-2.3875	-2.825	-2.6375	-2.3833	-3.1729	-2.6104	-2.4646	-2.8729	-2.3917	166.205	426.237	235.334	433.526	328.436	367.636	431.544	407.197	136.905	364.194	441.413	449.899	408.081	449.934	130.552	187.823	0.00057562	0.00031516	0.00010148	706.69	1.8179e-06	1.4231e-06	820.63	236.21	2.8596e-06	4.0686e-06	328.47	133.57	96.491	45.394	2.6092e-06	62.329	2.3116e-05	1.257e-05	3.2995e-06	579.43	1.3157e-07	1.3537e-07	674.91	193.95	1.3801e-07	1.362e-07	256.05	105.77	77.371	36.059	1.3223e-07	48.579	183.636	146.778	147.534	117.449	305.254	261.894	115.545	122.276	252.268	243.392	119.222	123.577	126.101	131.635	208.090	126.884	-8191	255	
2807.996	1	1	0	0	0.21615	0.18179	0.11574	0.036468	0.11038	0.049766	0.1645	0.12675	0.35345	0.097826	0.11611	0.19341	0.090284	0.085379	0.22656	0.15033	-2.5375	-2.8646	-2.2583	-3.1125	-2.5271	-2.4979	-2.8646	-2.2812	-2.7854	-2.8833	-2.3667	-3.025	-2.4146	-2.3896	-2.9021	-2.4583	153.522	451.847	417.769	422.240	277.575	377.775	437.825	340.623	324.351	219.025	297.388	162.247	285.498	380.975	278.896	438.388	0.00056488	0.0003676	8.1881e-05	697.24	3.2086e-06	3.967e-06	807.13	233.19	3.7965e-06	2.8001e-06	326.06	132.22	96.719	45.038	3.3442e-06	62.147	2.3967e-05	1.2269e-05	3.0076e-06	570.18	1.3707e-07	1.3379e-07	663.95	191.9	1.4077e-07	1.2425e-07	253.19	105.07	77.124	36.072	1.2679e-07	48.681	179.329	184.887	135.241	116.917	280.223	271.170	115.190	122.232	237.404	207.681	119.461	124.021	126.067	130.820	234.150	127.184	-8191	255	
2808.092	1	1	0	0	0.047352	0.15526	0.086257	0.25859	0.17927	0.16113	0.1978	0.12045	0.1893	0.082644	0.075527	0.22159	0.15893	0.18188	0.19671	0.033517	-2.3833	-3.0187	-2.3625	-3.2167	-2.6688	-2.6042	-3.0021	-2.5229	-2.6958	-2.9042	-2.2708	-2.9062	-2.8812	-2.4271	-2.7562	-2.3208	193.238	463.692	278.865	163.816	428.873	337.085	366.781	415.604	356.541	182.667	419.233	404.280	141.150	128.247	324.798	457.108	0.00061065	0.0003298	6.1558e-05	708.26	4.1905e-06	3.3685e-06	813.25	238.25	2.4368e-06	4.2039e-06	330.68	131.9	96.932	45.416	4.375e-06	62.952	2.3638e-05	1.2315e-05	3.3834e-06	575.07	1.4686e-07	1.2866e-07	668.79	193.87	1.4706e-07	1.1802e-07	255.17	105.17	77.364	36.211	1.3775e-07	49.202	182.909	205.007	173.979	117.142	271.172	225.160	115.544	122.434	226.174	220.061	119.716	123.847	126.370	130.654	226.311	126.633	-8191	255	
2808.166	1	1	0	0	0.13647	0.010592	0.11388	0.23891	0.19862	0.11868	0.13904	0.028192	0.19058	0.24302	0.19632	0.25253	0.11737	0.07625	0.077801	0.4273	-2.0854	-3.0146	-2.3	-2.9208	-2.6958	-2.2521	-3.0104	-2.4542	-2.7812	-3.0729	-2.3625	-2.8688	-2.7479	-2.3333	-2.9562	-2.6042	235.555	190.938	338.861	395.304	207.238	346.971	448.169	345.178	111.986	441.094	122.447	394.041	293.877	369.976	200.283	398.256	0.00062922	0.00020797	8.2144e-05	712.91	3.0626e-06	2.36e-06	817.48	238	2.5029e-06	3.803e-06	330.86	133.33	96.821	45.283	2.8412e-06	63.198	2.5361e-05	1.1841e-05	3.057e-06	581.33	1.4758e-07	1.2864e-07	672.98	193.88	1.4675e-07	1.246e-07	256.56	106.19	77.372	36.262	1.2549e-07	49.575	179.624	182.838	131.711	117.130	298.147	245.693	115.365	122.239	222.232	252.032	119.689	124.163	126.159	130.935	250.847	127.038	-8191	255	
2808.284	1	1	0	0	0.16786	0.085413	0.060866	0.066491	0.18476	0.36236	0.23804	0.089615	0.15235	0.10397	0.21562	0.42577	0.10666	0.21288	0.12021	0.51186	-2.3167	-2.8458	-2.2396	-2.6104	-2.6792	-2.3604	-3.2167	-2.6896	-2.6583	-2.925	-2.2917	-2.4958	-2.8937	-2.4583	-3.1208	-2.6896	258.907	232.500	427.950	291.221	302.027	137.534	175.509	396.851	266.631	187.869	414.887	130.119	335.730	393.514	159.109	413.092	0.00056255	0.00046586	5.9499e-05	711.6	2.2242e-06	1.6147e-06	818.4	235.8	3.3627e-06	2.5267e-06	326.36	132.72	96.611	45.267	2.3966e-06	62.449	2.3782e-05	1.1524e-05	2.9144e-06	578.76	1.3438e-07	1.2003e-07	671.05	192.85	1.3901e-07	1.2059e-07	253.93	105.47	77.069	36.096	1.2411e-07	48.895	181.110	187.670	118.682	117.066	313.400	227.212	114.800	122.373	230.769	214.650	119.392	123.990	126.200	130.679	219.448	126.985	-8191	255	
2808.381	1	1	0	0	0.18368	0.11455	0.24121	0.31648	0.22721	0.27269	0.16932	0.23025	0.082454	0.14869	0.17106	0.10927	0.35655	0.10017	0.16751	0.19485	-1.9167	-2.7646	-2.3812	-2.7583	-2.925	-2.3729	-3.175	-2.7125	-2.5146	-3.1125	-2.3208	-2.7104	-2.7708	-2.4396	-2.85	-3.0083	246.382	313.872	267.182	135.512	374.207	263.753	384.885	381.481	426.372	439.217	436.588	417.567	367.929	113.891	300.155	375.108	0.00052811	0.00052138	9.6274e-05	703.11	2.3387e-06	2.1841e-06	809.68	235.5	3.0263e-06	3.501e-06	327.16	132.22	96.207	44.99	3.463e-06	62.652	2.3675e-05	1.1247e-05	3.2075e-06	572.76	1.3631e-07	1.2326e-07	666.15	192.33	1.3341e-07	1.1103e-07	253.98	105.09	76.947	35.956	1.2761e-07	48.876	182.946	190.158	124.350	116.948	325.165	228.256	115.278	122.068	250.766	206.944	119.381	123.869	126.139	130.653	212.000	127.267	-8191	255	
#DATA ENDS
