BOXY.EXE: ISS Imagent and Oximeter Data Acquisition Program Version 0.80
Ascii Record File

#ACQ INFORMATION
2  Detector Channels 
16  External MUX Channels 
1  Auxiliary Channels 
5000  Waveform (CCF) Frequency (Hz)
1  Waveforms Skipped 
30  Waveforms Averaged 
1  Cycles Averaged 
16  Acquisitions per Waveform 
10.0806  Updata Rate (Hz) 

#FILE INFORMATION
TRUE -- External MUX Channel results are PARSED.
FALSE -- AC DC and Phase are NOT grouped.
TRUE -- Companion Program Settings File CREATED.
FALSE -- AC data not excluded
FALSE -- DC data not excluded
FALSE -- Phase data not excluded
FALSE -- Auxillary Chn. data not excluded
Tab delimiters

#CALIBRATION STATE
TRUE -- Waveform Calibration Values APPLIED.


#AUX CALIBRATION VALUES
Val Type	aux-1	

Term	1.0000e+00	
Factor	0.0000e+00	


#WF CALIBRATION VALUES
A = Detector Channel
Val Type	A-AC1	A-AC2	A-AC3	A-AC4	A-AC5	A-AC6	A-AC7	A-AC8	A-AC9	A-AC10	A-AC11	A-AC12	A-AC13	A-AC14	A-AC15	A-AC16	A-DC1	A-DC2	A-DC3	A-DC4	A-DC5	A-DC6	A-DC7	A-DC8	A-DC9	A-DC10	A-DC11	A-DC12	A-DC13	A-DC14	A-DC15	A-DC16	A-Ph1	A-Ph2	A-Ph3	A-Ph4	A-Ph5	A-Ph6	A-Ph7	A-Ph8	A-Ph9	A-Ph10	A-Ph11	A-Ph12	A-Ph13	A-Ph14	A-Ph15	A-Ph16	

Term	0.00000e+00	0.00000e+00	0.00000e+00	0.00000e+00	0.00000e+00	0.00000e+00	0.00000e+00	0.00000e+00	0.00000e+00	0.00000e+00	0.00000e+00	0.00000e+00	0.00000e+00	0.00000e+00	0.00000e+00	0.00000e+00	0.00000e+00	0.00000e+00	0.00000e+00	0.00000e+00	0.00000e+00	0.00000e+00	0.00000e+00	0.00000e+00	0.00000e+00	0.00000e+00	0.00000e+00	0.00000e+00	0.00000e+00	0.00000e+00	0.00000e+00	0.00000e+00	0.00000e+00	0.00000e+00	0.00000e+00	0.00000e+00	0.00000e+00	0.00000e+00	0.00000e+00	0.00000e+00	0.00000e+00	0.00000e+00	0.00000e+00	0.00000e+00	0.00000e+00	0.00000e+00	0.00000e+00	0.00000e+00	
Factor	1.00000e+00	1.00000e+00	1.00000e+00	1.00000e+00	1.00000e+00	1.00000e+00	1.00000e+00	1.00000e+00	1.00000e+00	1.00000e+00	1.00000e+00	1.00000e+00	1.00000e+00	1.00000e+00	1.00000e+00	1.00000e+00	1.00000e+00	1.00000e+00	1.00000e+00	1.00000e+00	1.00000e+00	1.00000e+00	1.00000e+00	1.00000e+00	1.00000e+00	1.00000e+00	1.00000e+00	1.00000e+00	1.00000e+00	1.00000e+00	1.00000e+00	1.00000e+00	X	X	X	X	X	X	X	X	X	X	X	X	X	X	X	X	

B = Detector Channel
Val Type	B-AC1	B-AC2	B-AC3	B-AC4	B-AC5	B-AC6	B-AC7	B-AC8	B-AC9	B-AC10	B-AC11	B-AC12	B-AC13	B-AC14	B-AC15	B-AC16	B-DC1	B-DC2	B-DC3	B-DC4	B-DC5	B-DC6	B-DC7	B-DC8	B-DC9	B-DC10	B-DC11	B-DC12	B-DC13	B-DC14	B-DC15	B-DC16	B-Ph1	B-Ph2	B-Ph3	B-Ph4	B-Ph5	B-Ph6	B-Ph7	B-Ph8	B-Ph9	B-Ph10	B-Ph11	B-Ph12	B-Ph13	B-Ph14	B-Ph15	B-Ph16	

Term	0.00000e+00	0.00000e+00	0.00000e+00	0.00000e+00	0.00000e+00	0.00000e+00	0.00000e+00	0.00000e+00	0.00000e+00	0.00000e+00	0.00000e+00	0.00000e+00	0.00000e+00	0.00000e+00	0.00000e+00	0.00000e+00	0.00000e+00	0.00000e+00	0.00000e+00	0.00000e+00	0.00000e+00	0.00000e+00	0.00000e+00	0.00000e+00	0.00000e+00	0.00000e+00	0.00000e+00	0.00000e+00	0.00000e+00	0.00000e+00	0.00000e+00	0.00000e+00	-2.01755e+02	-1.34409e+02	-1.35399e+02	-1.83083e+02	-7.80460e+01	-8.12555e+01	-1.60467e+02	-1.62015e+02	-8.85724e+01	-1.01881e+02	-1.72403e+02	-1.72793e+02	-1.83201e+02	-1.78124e+02	-8.67152e+01	-1.50843e+02	
Factor	3.95846e-05	9.73124e-05	3.25810e-05	1.60056e-01	1.18439e-06	1.23687e-06	1.74041e-01	5.40722e-02	1.55454e-06	1.21527e-06	8.19567e-02	2.70238e-02	2.54596e-02	8.25599e-03	1.22934e-06	1.17843e-02	1.81825e-06	1.89526e-06	5.27697e-07	8.49425e-02	2.06298e-08	2.08177e-08	8.67731e-02	2.86734e-02	2.06830e-08	2.08248e-08	4.19639e-02	1.38319e-02	1.35346e-02	4.39431e-03	2.08435e-08	6.06864e-03	X	X	X	X	X	X	X	X	X	X	X	X	X	X	X	X	



#DISTANCE SETTINGS
A = Detector Channel
A-1	A-2	A-3	A-4	A-5	A-6	A-7	A-8	A-9	A-10	A-11	A-12	A-13	A-14	A-15	A-16	

2.5000e+00	3.0000e+00	2.5000e+00	3.0000e+00	2.0000e+00	3.0000e+00	1.5000e+00	3.0000e+00	3.0000e+00	3.0000e+00	3.0000e+00	3.0000e+00	3.0000e+00	3.0000e+00	1.5000e+00	3.0000e+00	

B = Detector Channel
B-1	B-2	B-3	B-4	B-5	B-6	B-7	B-8	B-9	B-10	B-11	B-12	B-13	B-14	B-15	B-16	

1.0000e+01	1.0000e+01	1.0000e+01	1.4400e+00	1.0000e+01	1.0000e+01	1.5100e+00	1.9400e+00	1.0000e+01	1.0000e+01	1.9900e+00	2.4900e+00	2.4100e+00	2.9000e+00	1.0000e+01	2.9800e+00	




#DATA BEGINS
time	group	step	mark	flag	A-AC1	A-AC2	A-AC3	A-AC4	A-AC5	A-AC6	A-AC7	A-AC8	A-AC9	A-AC10	A-AC11	A-AC12	A-AC13	A-AC14	A-AC15	A-AC16	A-DC1	A-DC2	A-DC3	A-DC4	A-DC5	A-DC6	A-DC7	A-DC8	A-DC9	A-DC10	A-DC11	A-DC12	A-DC13	A-DC14	A-DC15	A-DC16	A-Ph1	A-Ph2	A-Ph3	A-Ph4	A-Ph5	A-Ph6	A-Ph7	A-Ph8	A-Ph9	A-Ph10	A-Ph11	A-Ph12	A-Ph13	A-Ph14	A-Ph15	A-Ph16	B-AC1	B-AC2	B-AC3	B-AC4	B-AC5	B-AC6	B-AC7	B-AC8	B-AC9	B-AC10	B-AC11	B-AC12	B-AC13	B-AC14	B-AC15	B-AC16	B-DC1	B-DC2	B-DC3	B-DC4	B-DC5	B-DC6	B-DC7	B-DC8	B-DC9	B-DC10	B-DC11	B-DC12	B-DC13	B-DC14	B-DC15	B-DC16	B-Ph1	B-Ph2	B-Ph3	B-Ph4	B-Ph5	B-Ph6	B-Ph7	B-Ph8	B-Ph9	B-Ph10	B-Ph11	B-Ph12	B-Ph13	B-Ph14	B-Ph15	B-Ph16	aux-1	digaux	

13829.603	1	1	0	768	0.11991	0.18133	0.087015	0.19557	0.057093	0.29973	0.18698	0.27131	0.096084	0.033662	0.26957	0.14294	0.17351	0.060272	0.082042	0.20952	-2.3	-2.4938	-2.7313	-3.0563	-2.5187	-2.7854	-2.8333	-2.6583	-2.8396	-2.6	-2.6104	-3.0938	-2.5875	-2.925	-2.9625	-2.4292	14.336	236.249	200.506	179.757	145.812	213.881	175.349	228.417	19.490	52.149	138.878	-32.009	269.370	33.577	65.887	224.549	0.00039493	0.00013271	7.0916e-05	1370.2	3.7786e-06	2.4395e-06	1360.7	368.84	4.6262e-06	2.7729e-06	421.5	140.92	122.27	41.935	5.0512e-06	51.995	0.00051432	0.00050121	0.00014162	1381.2	5.5761e-06	5.6445e-06	1379.8	374.57	5.5997e-06	5.5838e-06	427.1	143.24	124.8	43.018	5.4369e-06	53.289	105.609	-27.602	106.655	-71.201	132.545	-9.228	-71.166	-66.475	38.825	-43.090	-66.956	-62.935	-62.022	-57.513	18.944	-58.175	-8191	255	
13829.699	1	1	0	0	0.1648	0.097789	0.086928	0.095731	0.19768	0.031275	0.40324	0.21889	0.11667	0.16377	0.0896	0.14479	0.10605	0.107	0.11109	0.045048	-2.4958	-2.6312	-2.4583	-3.2542	-2.6354	-2.7875	-2.9792	-2.5417	-2.8604	-2.5229	-2.5854	-3.1208	-2.4396	-2.8271	-2.8729	-2.5792	209.238	11.627	77.151	111.052	261.221	210.501	222.941	242.665	-35.834	113.339	165.895	253.045	68.368	219.581	-39.244	182.497	0.00034214	0.00042385	4.7962e-05	1366.2	3.606e-06	2.6385e-06	1366.2	369.94	2.4133e-06	5.4664e-06	426.09	141.16	122.89	42.514	5.8695e-06	52.68	0.00048594	0.00048059	0.00013204	1379.7	5.143e-06	5.0939e-06	1379.8	375.08	4.9577e-06	4.9184e-06	428.04	143.63	124.88	43.223	4.8657e-06	53.517	95.356	23.186	65.296	-71.077	108.267	15.831	-71.237	-66.394	78.253	25.377	-66.862	-62.536	-62.089	-57.708	112.007	-58.020	-8191	255	
13829.795	1	1	0	0	0.12556	0.10196	0.067724	0.040564	0.14795	0.1213	0.1505	0.27082	0.17396	0.25914	0.306	0.043697	0.043774	0.0977	0.20388	0.17881	-2.4417	-2.6729	-2.4646	-3.0979	-2.6542	-2.5167	-2.8917	-2.7562	-2.825	-2.8771	-2.3583	-3.1208	-2.6958	-2.5896	-2.8146	-2.6417	137.337	211.008	44.787	258.707	123.572	184.400	-76.939	175.227	-77.795	17.982	270.567	211.242	243.225	257.646	272.998	160.830	0.00037748	0.00032167	7.9791e-05	1370.2	5.3568e-06	2.7898e-06	1363.2	372.9	5.1939e-06	2.6695e-06	422.67	141.58	123.26	42.243	5.5876e-06	52.24	0.00044308	0.00044024	0.00012143	1378.8	4.7947e-06	4.8346e-06	1377.5	375.79	4.8566e-06	4.8797e-06	427.59	143.88	125.11	43.137	4.9063e-06	53.344	127.164	53.865	271.704	-71.198	89.233	86.566	-71.310	-66.409	257.243	-33.643	-66.763	-62.809	-62.460	-57.500	33.846	-58.347	-8191	255	
13829.891	1	1	0	0	0.322	0.25071	0.23537	0.27837	0.32421	0.019828	0.14344	0.35738	0.16286	0.084446	0.11991	0.26414	0.24254	0.4664	0.21422	0.30404	-2.0792	-2.6979	-2.5438	-2.9875	-2.625	-2.4062	-3.0458	-2.5187	-2.5354	-2.8937	-2.4646	-2.9625	-2.6833	-2.5438	-2.9125	-2.5312	116.149	-74.723	100.899	182.226	246.669	-31.685	251.490	273.640	77.209	88.626	-54.778	137.982	199.170	202.349	123.350	191.390	0.00037392	0.00024446	9.9407e-05	1366.2	2.494e-06	3.0661e-06	1362.9	369.28	9.0368e-06	7.4181e-06	421.73	140.74	122.67	42.223	6.3506e-06	52.238	0.00045289	0.00045018	0.00012736	1378.5	4.9807e-06	4.9954e-06	1377.4	375.27	5.0519e-06	5.0364e-06	427.2	143.51	124.9	43.139	5.0886e-06	53.401	106.707	56.698	-19.441	-70.990	209.383	77.577	-71.220	-66.255	49.264	-12.583	-66.966	-62.694	-62.498	-57.622	63.239	-58.352	-8191	255	
13829.988	1	1	0	0	0.0024236	0.2216	0.26427	0.47575	0.25939	0.11488	0.27406	0.44794	0.075434	0.02971	0.21447	0.40574	0.28983	0.027268	0.15304	0.28365	-2.3417	-2.6625	-2.3312	-2.9146	-2.7	-2.575	-3.1333	-2.7917	-2.7167	-2.8521	-2.4188	-2.9062	-2.65	-2.5062	-2.8937	-2.7062	-71.585	186.427	102.702	235.047	156.527	147.726	271.904	249.237	185.425	-80.954	99.361	-66.745	251.000	-6.402	-1.340	-37.351	0.00040065	0.00036471	0.00018737	1371.9	5.3106e-06	6.3123e-06	1368.7	369.5	4.2832e-06	3.2279e-06	424.71	140.65	122.16	42.027	2.6707e-06	52.537	0.00046853	0.00046455	0.0001289	1380.1	5.1149e-06	5.0546e-06	1380.2	374.99	5.1396e-06	5.0636e-06	428.62	143.31	124.67	42.977	5.1064e-06	53.372	97.423	-26.842	3.056	-71.162	38.807	24.488	-71.018	-66.448	-33.931	49.051	-66.986	-62.966	-62.297	-57.481	19.029	-58.274	-8191	255	
13830.084	1	1	0	0	0.23843	0.28577	0.081076	0.21012	0.17828	0.22703	0.21827	0.18136	0.30659	0.17558	0.40951	0.33227	0.043183	0.068752	0.32401	0.20186	-2.2313	-2.8375	-2.4042	-2.9437	-2.7833	-2.5271	-3.0729	-2.7042	-2.5187	-2.7604	-2.5563	-2.8812	-2.8063	-2.5	-2.6854	-2.8417	178.223	21.179	-44.805	225.779	104.255	140.489	257.184	206.644	43.427	-36.625	232.427	228.989	244.232	-56.554	179.398	170.486	0.00037681	0.00038604	0.00016011	1373.4	3.4729e-06	2.303e-06	1366.7	369.83	3.9551e-06	1.8738e-06	422.17	141.11	123.16	42.37	5.2697e-06	52.543	0.00047442	0.00046556	0.00013071	1379.8	5.1544e-06	5.1002e-06	1379.6	374.68	5.1688e-06	5.0676e-06	427.96	143.49	124.87	43.174	5.1324e-06	53.371	100.616	50.245	1.874	-71.019	78.486	-28.393	-71.055	-66.285	5.890	20.212	-66.819	-63.022	-62.285	-57.488	42.203	-58.340	-8191	255	
13830.203	1	1	0	0	0.25284	0.20568	0.11483	0.1045	0.21063	0.10233	0.21678	0.10319	0.17184	0.17131	0.22689	0.15013	0.19043	0.34168	0.24858	0.34873	-1.9542	-2.8833	-2.4042	-2.8896	-2.9562	-2.4333	-2.9646	-2.8521	-2.7583	-2.8708	-2.6729	-2.6042	-2.8	-2.4437	-2.7917	-2.8979	268.519	55.841	252.580	-63.464	-76.254	52.336	206.975	70.217	166.261	79.455	252.877	105.000	221.876	181.132	162.258	-83.628	0.00040576	0.00031116	5.8512e-05	1368.8	1.5124e-06	4.6915e-06	1366.7	369.13	7.2021e-06	3.2979e-06	422.18	141.52	122.75	42.229	4.8891e-06	52.089	0.00046171	0.00046287	0.00012948	1378.9	5.1099e-06	5.128e-06	1378	374.37	5.2363e-06	5.1393e-06	427.11	143.54	124.51	43.044	5.3326e-06	53.149	136.221	-14.242	-58.786	-70.890	-55.614	114.568	-71.027	-66.602	51.753	28.965	-67.148	-62.736	-62.179	-57.398	37.346	-58.078	-8191	255	
13830.299	1	1	0	0	0.23166	0.19923	0.16258	0.066125	0.013629	0.034858	0.11224	0.18663	0.16239	0.15544	0.17756	0.11031	0.092421	0.14667	0.10663	0.12196	-2.0979	-2.8396	-2.575	-2.7604	-2.7562	-2.4313	-3.0438	-2.8729	-2.55	-2.9271	-2.8229	-2.6417	-2.8208	-2.4604	-2.725	-2.7938	231.287	131.512	108.138	198.324	176.863	200.301	140.531	255.929	15.237	32.305	230.116	216.151	-15.846	-64.707	-10.834	165.189	0.00025734	0.00039791	0.00025038	1362.6	3.7596e-06	6.0343e-06	1364.7	368.66	5.8368e-06	5.8339e-06	424.37	140.23	122.4	42.046	3.2988e-06	52.082	0.00049461	0.00048115	0.00013431	1376.6	5.2047e-06	5.2709e-06	1377.9	374.47	5.2504e-06	5.1954e-06	428.03	143.2	124.51	43.047	5.3156e-06	53.176	127.188	36.945	-17.681	-70.981	51.906	23.857	-71.249	-66.465	34.031	29.569	-67.003	-62.741	-62.270	-57.166	16.789	-58.303	-8191	255	
13830.395	1	1	0	0	0.054356	0.24191	0.28467	0.3369	0.12437	0.20274	0.25338	0.2144	0.016464	0.078376	0.14462	0.0077363	0.18974	0.19512	0.22081	0.042198	-1.9771	-2.9542	-2.4667	-2.5625	-2.9979	-2.6021	-2.7938	-2.9667	-2.4667	-2.7875	-2.7542	-2.3688	-2.8583	-2.6042	-2.5625	-3.0438	140.468	245.587	39.463	257.308	173.288	133.941	249.174	209.885	179.645	120.482	162.241	242.374	184.091	95.030	72.974	206.524	0.00044367	0.00042821	0.00016757	1366.3	1.1341e-06	4.8097e-07	1365.8	368.2	5.6293e-06	5.8337e-06	423.44	140.83	122	42.064	3.805e-06	52.066	0.00048633	0.00048632	0.00013552	1377.4	5.3204e-06	5.2707e-06	1377.8	373.74	5.3444e-06	5.3461e-06	428.33	143.25	124.23	42.929	5.4271e-06	53.09	112.975	-11.673	14.874	-71.138	180.971	184.844	-71.230	-66.300	111.660	-20.821	-66.900	-62.751	-62.069	-57.654	41.477	-58.348	-8191	255	
13830.491	1	1	0	0	0.15219	0.11238	0.080851	0.047118	0.0079603	0.16247	0.30611	0.33569	0.26058	0.106	0.3473	0.065202	0.02396	0.1728	0.13975	0.049954	-2.0875	-2.7396	-2.5125	-2.6688	-3.0542	-2.5521	-2.7708	-2.9646	-2.2812	-2.6833	-2.7604	-2.3958	-2.9333	-2.3979	-2.4562	-2.7604	184.732	142.102	-14.476	198.441	129.512	101.869	224.857	211.079	187.237	3.516	240.013	-57.053	-26.946	143.638	21.945	146.947	0.00022353	0.00015722	0.00017144	1365.3	3.4842e-06	3.5779e-06	1366.1	369.48	4.4282e-06	7.7085e-06	422.41	140.78	122.33	42.139	2.8889e-06	52.018	0.00049115	0.00048964	0.00013724	1378	5.4751e-06	5.4034e-06	1379	374.32	5.4583e-06	5.4696e-06	426.95	143.29	124.5	42.958	5.4585e-06	53.12	83.428	64.144	-37.322	-71.122	58.120	52.214	-70.964	-66.403	49.475	71.697	-66.960	-62.874	-62.066	-57.399	39.144	-58.076	-8191	255	
13830.587	1	1	0	0	0.14808	0.10791	0.19614	0.10782	0.11607	0.30051	0.12194	0.23963	0.18812	0.15607	0.14506	0.20671	0.030709	0.33311	0.10573	0.027305	-1.8167	-2.5479	-2.8708	-2.7042	-2.6833	-2.5958	-2.6417	-2.9583	-2.5	-2.8167	-2.8646	-2.5667	-2.8937	-2.6646	-2.55	-2.8375	-16.531	87.601	186.798	255.818	25.171	83.654	231.396	225.286	247.282	-3.513	123.998	212.004	143.923	133.171	198.755	34.536	0.00043375	0.00044034	0.00022656	1363.6	3.8953e-06	6.8833e-06	1360.8	368.91	4.4251e-06	5.1802e-06	424.09	140.32	122.12	42.062	4.6442e-06	51.987	0.00049418	0.00049042	0.00013697	1378.7	5.3976e-06	5.4978e-06	1378.1	374.04	5.4734e-06	5.5372e-06	427.8	143	124.35	42.987	5.53e-06	53.182	137.303	-39.102	-4.044	-71.028	124.060	63.295	-71.263	-66.347	58.069	32.714	-66.960	-62.907	-62.284	-57.589	9.335	-58.244	-8191	255	
13830.683	1	1	0	0	0.064325	0.14758	0.13894	0.26046	0.13603	0.19404	0.19872	0.16875	0.24981	0.19824	0.16928	0.035176	0.084048	0.1431	0.29861	0.14311	-2.0438	-2.6875	-2.9042	-2.5646	-2.8208	-2.7417	-2.5167	-2.8125	-2.5167	-2.6813	-3.0438	-2.5979	-2.7729	-2.8667	-2.3771	-2.875	117.088	-34.040	184.686	256.334	64.827	268.423	256.193	-34.113	165.320	-38.499	215.294	37.765	217.978	227.101	272.760	193.281	0.000327	0.00043454	0.00011702	1360.3	8.804e-06	7.595e-06	1368.4	368.49	8.7339e-06	3.017e-06	421.35	140.84	121.69	41.982	1.6994e-06	52.082	0.00049824	0.00050279	0.0001393	1376.4	5.5304e-06	5.5064e-06	1379	374.34	5.5967e-06	5.5192e-06	426.76	143.16	124.29	42.977	5.5823e-06	53.159	107.351	-21.055	15.411	-71.094	17.655	2.640	-70.973	-66.546	60.035	31.618	-67.135	-63.077	-62.360	-57.457	126.984	-58.457	-8191	255	
13830.779	1	1	0	0	0.25826	0.039929	0.099353	0.33341	0.22178	0.04996	0.28475	0.27161	0.13324	0.075327	0.20818	0.24144	0.070703	0.28417	0.24337	0.22581	-2.0146	-2.5167	-2.7708	-2.5729	-2.4208	-2.5521	-2.5687	-2.8979	-2.5146	-2.4417	-2.9396	-2.5458	-2.8104	-2.8167	-2.3979	-2.8333	-78.635	111.831	254.764	202.535	-36.188	269.650	225.565	235.999	180.518	42.043	208.261	180.299	273.857	194.008	110.582	118.468	0.00042397	5.9378e-05	0.00021689	1367	8.4704e-06	5.9625e-06	1356.5	368.28	1.1095e-05	3.3226e-06	419.39	140.45	121.93	41.87	4.9067e-06	51.853	0.00050371	0.00050404	0.00014057	1381.3	5.501e-06	5.5433e-06	1377.5	373.83	5.5116e-06	5.5916e-06	426.64	143.13	124.28	42.844	5.6201e-06	53.089	128.299	11.313	-3.532	-70.978	32.558	73.073	-71.092	-66.402	83.912	103.765	-67.013	-62.820	-62.194	-57.800	14.392	-58.486	-8191	255	
13830.898	1	1	0	0	0.23235	0.079587	0.13268	0.3142	0.21561	0.35804	0.31657	0.20475	0.48054	0.38866	0.16109	0.3689	0.13488	0.12296	0.28796	0.23449	-2.0979	-2.3646	-2.7375	-2.6063	-2.7229	-2.7396	-2.4437	-2.7854	-2.4021	-2.5625	-3.1021	-2.6354	-2.5896	-2.8479	-2.5042	-2.7146	-70.926	65.558	256.264	272.882	222.016	2.520	-24.165	193.997	-1.890	-14.579	6.466	-82.598	213.163	-54.915	151.983	249.951	0.00034199	0.00029036	0.00018144	1361.4	3.3842e-06	8.2119e-06	1365.4	367.46	1.0074e-05	5.7051e-06	423.44	140.34	121.8	42.076	7.6005e-06	52.058	0.00051303	0.00050525	0.0001409	1376	5.5379e-06	5.5839e-06	1379	373.6	5.5805e-06	5.6058e-06	427.8	143.24	124.36	42.966	5.5789e-06	53.151	90.251	22.412	-15.755	-71.165	146.844	54.342	-70.956	-66.499	-0.510	4.173	-66.965	-63.108	-62.321	-57.502	67.876	-58.235	-8191	255	
13830.994	1	1	0	0	0.24934	0.15663	0.32876	0.1665	0.29416	0.091431	0.33389	0.076003	0.14648	0.021763	0.208	0.048416	0.299	0.29309	0.1353	0.18705	-2.1937	-2.325	-2.9271	-2.4833	-2.6271	-2.8167	-2.5938	-2.7708	-2.7625	-2.4542	-3.0229	-2.5521	-2.725	-2.9292	-2.475	-2.6604	112.218	212.995	-43.702	257.306	9.940	-63.430	192.919	217.528	257.899	237.534	223.596	245.648	-80.944	-55.106	-3.360	186.078	0.00029813	0.00069396	2.2926e-05	1367.9	2.9392e-06	1.9089e-06	1366.4	367.28	5.9975e-06	3.685e-06	420.94	140.24	122.23	41.947	4.7535e-06	51.889	0.00050698	0.0005055	0.00014234	1378.4	5.5765e-06	5.595e-06	1382.1	373.6	5.5774e-06	5.5459e-06	427.49	143.13	124.52	42.891	5.561e-06	53.065	104.506	53.520	-10.899	-71.223	257.547	61.808	-71.204	-66.406	82.545	6.256	-66.989	-62.675	-62.405	-57.529	33.440	-58.336	-8191	255	
13831.091	1	1	0	0	0.08192	0.071375	0.044567	0.28591	0.12491	0.13655	0.10614	0.30729	0.36511	0.15212	0.3815	0.24759	0.25293	0.21986	0.093593	0.27314	-2.0917	-2.5312	-2.9396	-2.7125	-2.4562	-2.7458	-2.4521	-2.6771	-2.6646	-2.325	-2.9625	-2.7875	-2.5729	-2.9562	-2.5021	-2.6125	-16.533	150.475	-0.792	230.394	90.436	-53.679	259.466	212.892	-42.528	111.052	-58.915	199.306	253.804	210.183	216.121	140.506	0.00029011	0.00059699	0.00015262	1364.7	4.7486e-06	4.8304e-06	1358.7	369.25	5.3486e-06	4.6236e-06	421.58	139.98	122.07	41.942	5.5948e-06	51.768	0.00050403	0.00050662	0.00014074	1377.1	5.5478e-06	5.4819e-06	1375.5	374.03	5.5689e-06	5.5277e-06	426.95	142.93	124.32	42.975	5.5217e-06	53.056	128.927	-5.082	27.197	-71.075	113.865	60.238	-70.913	-66.373	8.294	-5.493	-66.997	-62.649	-62.268	-57.710	144.241	-58.265	-8191	255	
13831.164	1	1	0	0	0.19697	0.22615	0.25623	0.21658	0.20136	0.1814	0.19023	0.40453	0.028954	0.18535	0.051656	0.33403	0.23178	0.16997	0.15444	0.18565	-2.4021	-2.3396	-2.7625	-2.8625	-2.4813	-2.7729	-2.625	-2.5062	-2.925	-2.5229	-2.9979	-2.825	-2.6479	-2.9896	-2.4354	-2.8063	-19.490	87.982	18.556	265.359	39.811	167.052	237.101	212.120	170.277	233.241	-33.458	261.469	164.059	-70.796	36.264	256.756	0.00028947	0.00050558	9.5336e-05	1363.6	2.0726e-06	7.4167e-06	1361.5	367.98	8.1075e-06	6.3403e-06	422.36	140.93	122.23	42.215	5.0386e-06	51.954	0.00050456	0.00050582	0.00014025	1378.4	5.603e-06	5.4714e-06	1378.3	374.05	5.494e-06	5.5565e-06	427.45	143.12	124.51	42.951	5.5482e-06	53.127	95.983	-17.680	-29.401	-70.994	90.387	32.664	-71.257	-66.459	80.967	11.879	-67.407	-62.838	-62.025	-57.601	51.201	-58.076	-8191	255	
13831.283	1	1	0	0	0.18806	0.16115	0.23234	0.29679	0.16894	0.092536	0.36595	0.18285	0.30292	0.23194	0.40136	0.046075	0.2149	0.19858	0.097992	0.19317	-2.3521	-2.15	-2.4833	-2.8063	-2.4229	-2.9646	-2.7333	-2.6917	-2.8917	-2.4375	-2.7292	-2.8396	-2.5479	-2.9917	-2.7	-2.5042	185.899	189.753	-2.166	256.575	139.568	113.577	228.667	178.482	109.555	-10.140	-41.764	140.178	-13.002	221.896	152.738	59.297	0.00025812	0.00049221	3.981e-05	1365.2	3.591e-06	1.4818e-06	1366.9	367.12	1.6267e-06	3.2055e-06	420.54	140.27	122.25	41.909	3.8354e-06	51.897	0.00050022	0.00051303	0.00014035	1379.2	5.5349e-06	5.525e-06	1379.7	373.99	5.5073e-06	5.4657e-06	427.22	142.91	124.78	42.857	5.558e-06	53.071	106.651	-28.844	74.419	-71.070	67.669	153.172	-71.234	-66.628	50.414	-65.533	-66.860	-62.847	-62.306	-57.606	43.625	-58.280	-8191	255	
13831.379	1	1	0	0	0.17935	0.20261	0.15342	0.40122	0.1891	0.022158	0.084675	0.063912	0.053497	0.14731	0.18167	0.42137	0.27872	0.1971	0.065716	0.23631	-2.4229	-2.3979	-2.7375	-3.1583	-2.4583	-2.8583	-2.8375	-2.5271	-2.7792	-2.5083	-2.8271	-2.9875	-2.3604	-2.9375	-2.8312	-2.5479	49.753	-73.940	240.373	210.956	-16.417	49.036	-23.185	241.961	229.038	-44.383	187.619	-54.924	250.863	238.342	148.642	203.969	0.00041921	0.00013793	7.8707e-05	1365	1.0092e-05	7.3034e-06	1364.4	369.96	9.4721e-06	5.4943e-06	422.55	138.94	122.12	42.101	6.2367e-06	51.862	0.00050431	0.00050422	0.00013993	1378.2	5.5688e-06	5.5031e-06	1378.1	374.51	5.521e-06	5.5281e-06	427.51	142.62	124.48	42.906	5.5258e-06	53.189	120.122	131.733	64.534	-71.250	90.976	90.892	-71.062	-66.265	42.448	8.932	-66.838	-62.868	-62.154	-57.483	43.682	-58.307	-8191	255	
13831.475	1	1	0	0	0.29957	0.22002	0.25586	0.2589	0.075805	0.16797	0.12237	0.15658	0.30087	0.071377	0.12243	0.048484	0.10813	0.23012	0.19926	0.19389	-2.5229	-2.3771	-2.7604	-2.9729	-2.3854	-2.8	-2.8375	-2.5021	-2.7708	-2.5229	-2.6688	-3.0833	-2.5146	-2.6583	-2.7146	-2.3875	-36.959	113.076	191.935	269.623	152.349	65.686	225.851	248.049	40.713	233.460	-66.061	-43.749	110.732	249.151	169.602	111.334	0.00029831	0.00054515	0.00010546	1367	9.7784e-06	4.8656e-06	1359.4	369.1	1.0188e-05	2.0031e-06	421.82	140.75	121.94	41.925	5.9373e-06	52.048	0.00049936	0.00050375	0.00014025	1378.9	5.4843e-06	5.518e-06	1375.2	374.13	5.4982e-06	5.4872e-06	426.9	142.96	124.52	42.846	5.5742e-06	53.189	101.372	14.158	29.623	-71.106	55.173	74.506	-71.104	-66.343	23.931	180.033	-66.891	-62.866	-61.983	-57.569	103.715	-58.412	-8191	255	
13831.596	1	1	0	0	0.15159	0.15117	0.16772	0.095413	0.26321	0.032373	0.15358	0.08169	0.21412	0.020761	0.091979	0.28201	0.19429	0.20354	0.12977	0.18069	-2.4458	-2.7083	-2.5187	-3.0708	-2.375	-2.7229	-2.9396	-2.45	-2.7833	-2.4583	-2.5667	-2.8688	-2.5125	-2.6833	-2.8104	-2.5375	243.864	-76.030	-62.011	239.425	130.558	-11.863	98.596	274.198	262.675	62.568	133.930	210.939	-22.856	205.310	-50.576	267.437	0.00036775	0.00035002	7.8819e-05	1361.7	8.492e-06	4.9156e-06	1357.4	369.19	2.6147e-06	6.9483e-06	421.37	140.15	121.9	42.009	2.9342e-06	51.987	0.00050333	0.00049467	0.00013846	1375.8	5.4209e-06	5.4726e-06	1376	374.31	5.442e-06	5.5146e-06	426.86	142.84	124.28	42.993	5.404e-06	53.098	99.805	-17.012	-13.773	-71.192	66.123	81.881	-71.198	-66.292	-48.146	-5.422	-66.902	-62.781	-62.209	-57.480	75.863	-58.244	-8191	255	
13831.692	1	1	0	0	0.12633	0.049916	0.22447	0.31639	0.15581	0.20364	0.33407	0.39566	0.14501	0.066852	0.17366	0.21005	0.32587	0.2699	0.1206	0.19056	-2.1625	-2.6333	-2.4479	-2.9313	-2.4604	-2.7396	-2.8417	-2.4542	-2.7208	-2.5667	-2.4917	-2.9917	-2.5271	-2.6208	-2.9292	-2.4729	150.850	-13.243	271.361	192.326	126.284	-47.654	229.842	178.462	272.084	-20.768	272.900	271.141	9.282	256.586	263.189	171.845	0.00044522	0.00037069	7.9051e-05	1365.4	6.8314e-06	5.2707e-06	1362.6	370.31	1.8628e-06	1.7672e-06	421.54	140.09	122.2	42.299	3.9317e-06	51.996	0.00049678	0.00049728	0.00013706	1376.2	5.4682e-06	5.4186e-06	1376.4	374.7	5.3424e-06	5.3808e-06	427.13	143.05	124.39	43.048	5.3972e-06	53.209	121.956	-10.189	71.657	-71.228	36.550	128.138	-71.133	-66.437	224.868	259.732	-66.944	-62.920	-62.144	-57.670	35.225	-58.259	-8191	255	
13831.764	1	1	0	0	0.23839	0.094163	0.21923	0.21871	0.12272	0.17963	0.26471	0.26108	0.10781	0.14996	0.14873	0.1114	0.3418	0.26728	0.16563	0.2621	-2.25	-2.7167	-2.2729	-3.0896	-2.3937	-2.5167	-2.8708	-2.5979	-2.7708	-2.7188	-2.5083	-2.9583	-2.65	-2.5271	-2.9979	-2.6333	142.735	162.211	106.246	-81.863	138.114	-48.500	203.206	256.128	34.868	182.709	254.230	180.612	232.645	265.246	-28.342	154.639	0.00039987	0.00025439	0.0001091	1358.6	5.7919e-06	1.6057e-06	1362.2	368.27	6.937e-06	4.633e-06	420.86	140.86	122.2	41.915	2.1904e-06	51.945	0.00049733	0.00049338	0.00013798	1375.4	5.4342e-06	5.4535e-06	1377.3	373.27	5.6009e-06	5.5256e-06	426.9	143.32	124.51	43.039	5.5531e-06	53.231	124.839	-78.329	1.409	-71.139	42.477	15.614	-71.089	-66.394	47.394	-17.005	-66.818	-62.974	-62.410	-57.444	-5.103	-58.290	-8191	255	
13831.884	1	1	0	0	0.21472	0.10262	0.12008	0.2493	0.26378	0.2995	0.38424	0.22687	0.11979	0.021185	0.10424	0.3138	0.22247	0.2687	0.16083	0.22539	-2.0187	-2.8021	-2.3292	-2.9521	-2.6437	-2.5583	-2.9875	-2.5521	-2.7208	-2.825	-2.3292	-2.7	-2.6042	-2.7396	-2.65	-2.5771	185.254	229.186	69.053	-78.270	193.645	0.317	216.194	246.666	19.295	260.351	243.931	135.019	-46.105	227.141	201.873	97.517	0.0002595	0.00035235	0.00018443	1365.3	4.2445e-06	4.3632e-06	1367.4	369.53	6.8947e-06	3.5827e-06	422.08	140.45	122.5	42.073	7.6426e-06	51.906	0.00050698	0.00050612	0.00013937	1379.5	5.542e-06	5.5335e-06	1376.9	374.33	5.5255e-06	5.5506e-06	427.1	143.04	124.23	43.055	5.4874e-06	53.093	94.137	-49.395	-39.536	-71.263	76.532	38.764	-71.047	-66.425	178.885	55.072	-66.822	-62.860	-62.191	-57.468	131.364	-58.103	-8191	255	
13831.980	1	1	0	0	0.17621	0.19956	0.17953	0.29843	0.13458	0.27551	0.18317	0.045917	0.291	0.12622	0.21763	0.34821	0.11817	0.15452	0.18632	0.057249	-2.0563	-2.5875	-2.3479	-2.8458	-2.7583	-2.4354	-3	-2.6604	-2.4688	-2.9979	-2.4646	-2.7333	-2.8125	-2.4062	-2.8729	-2.6417	236.707	141.495	-66.499	217.793	-5.165	229.509	244.021	-12.706	-17.942	149.774	-54.043	234.527	271.844	238.499	69.798	214.549	0.00046974	0.00066115	0.00023505	1366.4	6.314e-06	4.816e-06	1366.5	368.85	2.8154e-06	6.4951e-06	422.87	140	122.62	41.94	8.8698e-06	51.829	0.00050006	0.00049855	0.00014104	1377.9	5.5004e-06	5.5523e-06	1378.8	374.04	5.6488e-06	5.6397e-06	427.68	143.21	124.78	42.878	5.7515e-06	53.124	115.145	-6.622	9.313	-71.076	86.471	56.135	-71.094	-66.377	135.982	-17.940	-66.877	-62.740	-62.056	-57.402	67.349	-58.101	-8191	255	
13832.075	1	1	0	0	0.2327	0.13494	0.20714	0.4304	0.17255	0.23157	0.49235	0.31357	0.19313	0.1228	0.28568	0.12626	0.096758	0.1137	0.24651	0.20205	-2.0396	-2.9125	-2.5354	-2.7229	-2.6875	-2.2292	-2.8667	-2.7833	-2.325	-2.8521	-2.3646	-2.6229	-2.7771	-2.4896	-2.6854	-2.525	168.133	-78.272	-43.576	199.901	-37.543	-68.772	232.199	200.880	-3.488	-61.645	161.346	229.004	-2.699	266.858	54.534	189.522	0.00037299	0.00084872	4.9592e-05	1364.2	4.7915e-06	6.3148e-06	1362.4	368.94	7.468e-06	2.3656e-06	422.27	140.22	122.41	42.081	1.266e-06	52.012	0.00052887	0.00052337	0.00014503	1380.1	5.7257e-06	5.7672e-06	1378.9	374.32	5.7282e-06	5.7549e-06	428.34	143.23	124.6	43.014	5.8694e-06	53.219	88.838	72.921	7.382	-71.095	8.513	33.797	-71.143	-66.610	68.899	67.422	-66.946	-62.992	-62.050	-57.483	-5.768	-58.479	-8191	255	
13832.195	1	1	0	0	0.28111	0.46763	0.11064	0.34021	0.11107	0.27881	0.18461	0.20944	0.2094	0.046342	0.20602	0.30048	0.028517	0.1682	0.14642	0.3972	-2.1021	-2.8021	-2.3271	-2.6708	-2.7125	-2.2	-2.7958	-2.7667	-2.2958	-2.9229	-2.4917	-2.5979	-2.7333	-2.5292	-2.7104	-2.8	192.075	144.462	145.322	274.511	-79.029	-21.042	264.363	225.313	136.367	-48.818	197.864	240.256	3.135	-29.425	89.491	228.504	0.00041621	0.00039034	4.1067e-05	1369.5	4.8766e-06	6.0266e-06	1366.1	369.57	5.8301e-06	5.5062e-06	421.74	140.03	122.69	41.874	3.944e-06	51.992	0.00053422	0.0005434	0.00014776	1381.8	5.9447e-06	5.8425e-06	1382.3	374.37	6.0614e-06	5.9905e-06	428.22	143.2	124.72	42.921	6.096e-06	53.287	114.715	-8.608	-6.085	-71.244	135.082	90.117	-71.101	-66.525	112.671	40.166	-67.022	-62.844	-61.981	-57.487	89.146	-58.357	-8191	255	
13832.292	1	1	0	0	0.021229	0.21807	0.10587	0.16801	0.21778	0.10854	0.4034	0.024576	0.11895	0.25156	0.063975	0.25462	0.1347	0.045576	0.20737	0.15166	-1.9625	-2.8021	-2.5625	-2.7104	-2.7625	-2.3937	-2.7604	-2.8396	-2.3292	-2.8333	-2.5292	-2.375	-2.8354	-2.5438	-2.5854	-2.8167	215.645	-56.351	249.902	239.818	73.557	194.322	199.822	24.229	143.619	254.373	-2.045	-56.769	-27.944	-53.468	168.897	253.960	0.00027554	0.00048351	6.6255e-05	1368.7	3.6192e-06	2.7514e-06	1359.3	370.7	4.8837e-06	4.6721e-06	421.67	139.64	122.17	41.824	8.6589e-06	51.865	0.00054664	0.00054087	0.00015339	1382	5.9311e-06	5.9841e-06	1380.1	375.16	5.8783e-06	5.8932e-06	428.15	143.19	124.71	42.934	5.9947e-06	53.237	119.297	-20.865	10.498	-70.920	187.368	58.057	-71.322	-66.453	-55.052	0.081	-67.146	-62.697	-61.933	-57.503	76.679	-58.457	-8191	255	
13832.388	1	1	0	0	0.071673	0.17803	0.21283	0.061931	0.13246	0.13139	0.059266	0.1691	0.18416	0.26797	0.21508	0.2082	0.06098	0.18183	0.23289	0.14624	-1.85	-2.6917	-2.5208	-2.7083	-2.8583	-2.4167	-2.9333	-2.8563	-2.3792	-2.7604	-2.7854	-2.4208	-2.9083	-2.7708	-2.4917	-2.6	193.153	73.414	34.533	161.126	77.779	64.282	259.469	260.064	62.173	138.552	-78.437	256.530	98.823	247.114	13.452	270.612	0.00042472	0.00039975	5.267e-05	1366.5	4.67e-06	5.0442e-06	1363.9	369.75	5.1868e-06	8.8628e-07	421.52	140.84	122.32	41.795	5.9378e-06	51.891	0.000539	0.0005428	0.00015074	1382.3	5.911e-06	5.8798e-06	1381.3	375.02	5.9054e-06	5.836e-06	427.58	143.26	124.54	42.913	5.9005e-06	53.182	100.073	-14.104	79.982	-71.066	102.306	37.662	-71.025	-66.208	-10.777	30.157	-67.055	-63.067	-62.209	-57.429	106.334	-58.192	-8191	255	
13832.459	1	1	0	0	0.096582	0.28058	0.2241	0.24659	0.21214	0.24739	0.25103	0.28657	0.025579	0.10798	0.1837	0.079403	0.14588	0.2008	0.163	0.095088	-1.9688	-2.6792	-2.7313	-2.6063	-2.6958	-2.4396	-2.5771	-2.9437	-2.5167	-2.7583	-2.725	-2.4917	-2.7625	-2.525	-2.4	-2.9375	144.436	-15.770	243.703	267.121	208.476	22.586	194.680	172.115	241.507	-20.048	110.642	204.591	-68.732	165.357	0.628	173.149	0.00031667	0.00031679	1.7372e-05	1365.4	6.8335e-06	3.2561e-06	1358.6	368.46	3.9471e-06	4.1749e-06	422.58	140.26	122.34	41.769	7.7001e-06	51.869	0.00053177	0.0005312	0.00015022	1379.5	5.8549e-06	5.8914e-06	1379	374.62	5.8514e-06	5.9238e-06	427.89	143	124.58	42.958	5.8667e-06	53.149	99.733	7.499	60.395	-71.127	88.029	43.777	-71.367	-66.539	30.334	28.198	-67.197	-62.930	-62.260	-57.464	40.021	-58.412	-8191	255	
13832.580	1	1	0	0	0.24057	0.039636	0.11591	0.14133	0.22883	0.18009	0.10577	0.13804	0.23207	0.13504	0.25574	0.17704	0.037987	0.16078	0.12418	0.2093	-1.9375	-2.5312	-2.7729	-2.5875	-2.9229	-2.5604	-2.6813	-2.9833	-2.5708	-2.5833	-2.8771	-2.4042	-2.9771	-2.65	-2.3646	-3.1063	24.348	227.231	-59.902	252.541	178.100	152.600	270.335	205.460	167.005	58.705	254.779	181.126	142.183	-30.706	213.585	240.720	0.00030843	4.3246e-05	0.0003496	1372.3	3.5932e-06	2.1055e-06	1369.6	371.24	1.3553e-06	3.0147e-06	422.03	140.72	122.08	42.071	2.8208e-06	51.76	0.00053688	0.00053164	0.00014955	1381.9	5.843e-06	5.8505e-06	1379.5	375.05	5.867e-06	5.9317e-06	428.21	143.21	124.81	43.028	5.9496e-06	53.127	94.398	91.392	-32.812	-70.879	12.675	-10.257	-71.008	-66.432	35.883	139.144	-67.059	-62.801	-62.085	-57.662	73.580	-58.301	-8191	255	
13832.676	1	1	0	0	0.27088	0.13731	0.19527	0.24921	0.19855	0.24722	0.038818	0.098756	0.24447	0.16628	0.21203	0.20092	0.22045	0.19969	0.20139	0.16043	-1.95	-2.4792	-2.6542	-2.4625	-2.8396	-2.8125	-2.5771	-2.9667	-2.4688	-2.6167	-2.9979	-2.3979	-2.7896	-2.7625	-2.1875	-2.7542	43.572	-24.848	-77.782	271.898	250.491	149.857	148.714	184.909	245.614	272.919	-2.258	240.016	252.949	247.965	232.200	273.686	0.00036569	0.0005998	9.9777e-05	1370.4	7.946e-06	6.7585e-06	1359.7	369.8	2.9506e-06	6.1583e-06	422.84	139.71	121.72	42.05	4.8181e-06	52.142	0.00053639	0.00053646	0.00014843	1380.7	5.8452e-06	5.9331e-06	1382.1	374.76	5.9209e-06	5.9494e-06	428.51	142.87	124.52	43.002	5.8922e-06	53.256	113.869	-6.280	-21.680	-71.208	92.198	65.979	-70.966	-66.364	99.232	-30.236	-66.827	-62.734	-62.089	-57.672	68.407	-58.159	-8191	255	
13832.772	1	1	0	0	0.07604	0.16246	0.092723	0.13007	0.21702	0.16238	0.335	0.1747	0.079727	0.16885	0.2737	0.12554	0.183	0.13791	0.27045	0.13642	-2.0146	-2.4458	-2.7292	-2.5521	-2.5417	-2.8063	-2.4875	-2.8521	-2.5833	-2.6271	-3.1083	-2.4479	-2.4667	-2.7917	-2.4958	-2.6875	219.906	-42.907	166.770	165.457	234.401	246.995	203.594	257.369	245.462	89.627	250.969	-67.617	235.058	113.864	-60.781	-24.474	0.00023538	0.00046266	0.00017123	1366.5	3.7154e-06	2.1421e-06	1357.5	367.79	5.2242e-06	3.0523e-06	424.75	140.03	122.11	41.859	2.2147e-06	52.142	0.00053794	0.00053972	0.00015009	1381	5.8792e-06	5.8153e-06	1379.3	373.82	5.8983e-06	5.783e-06	428.97	143.4	124.63	42.967	5.8875e-06	53.222	125.419	12.453	45.354	-71.135	39.856	91.207	-70.962	-66.556	45.727	27.374	-67.311	-62.927	-62.003	-57.663	7.044	-58.011	-8191	255	
13832.869	1	1	0	0	0.25952	0.22943	0.15318	0.1988	0.1823	0.08409	0.3219	0.3979	0.23484	0.086154	0.0077644	0.24972	0.3032	0.27639	0.19756	0.24132	-2.1333	-2.6229	-2.8479	-2.3917	-2.3958	-2.725	-2.4167	-2.8646	-2.7167	-2.3646	-2.9521	-2.7021	-2.4958	-2.8604	-2.4313	-2.7521	154.576	15.232	35.827	207.998	-0.652	26.603	261.595	227.177	136.806	-58.484	0.798	239.528	-74.514	197.975	48.137	229.703	0.0004456	0.0004917	0.00013181	1369.1	4.4784e-06	1.9108e-06	1362.7	368.62	3.5933e-06	5.0474e-06	421.67	140.66	122.33	42.075	4.4187e-06	52.312	0.00052509	0.00053334	0.00014867	1381	5.8497e-06	5.7625e-06	1380.4	374.63	5.8584e-06	5.8037e-06	428.56	143.29	124.88	43.072	5.8344e-06	53.351	86.694	42.482	-4.408	-70.966	108.954	70.450	-71.124	-66.544	16.220	29.856	-67.016	-62.830	-62.162	-57.607	52.319	-58.244	-8191	255	
13832.987	1	1	0	0	0.33058	0.050302	0.065208	0.1426	0.063833	0.078372	0.41495	0.1185	0.16173	0.075911	0.18802	0.18759	0.26603	0.15713	0.10324	0.26289	-2.2417	-2.3042	-2.7708	-2.8646	-2.4521	-2.7458	-2.4708	-2.7833	-2.5104	-2.3333	-3.0792	-2.6583	-2.5271	-2.8771	-2.3375	-2.8729	211.144	239.186	171.565	200.853	184.733	125.794	216.242	216.474	14.599	83.867	-72.714	257.426	222.036	121.665	239.450	204.851	0.00038339	0.00054619	0.00013407	1370.3	1.7661e-06	4.2926e-06	1367.3	370.9	2.7445e-06	9.3105e-07	422.68	139.6	122.67	42.131	9.3682e-06	52.077	0.00052659	0.00052308	0.00014641	1382.1	5.7318e-06	5.725e-06	1383.4	376.06	5.7064e-06	5.6857e-06	428.22	143.2	124.8	43.039	5.7742e-06	53.284	101.014	-26.507	0.981	-71.066	-23.456	62.026	-70.988	-66.324	84.913	-32.345	-66.959	-62.928	-62.245	-57.611	5.045	-58.305	-8191	255	
13833.061	1	1	0	0	0.19778	0.12744	0.10809	0.43784	0.081748	0.070992	0.32786	0.43151	0.27763	0.13304	0.15644	0.14228	0.40442	0.28946	0.17815	0.19434	-2.3479	-2.3771	-2.825	-2.9146	-2.3417	-2.7917	-2.525	-2.825	-2.6167	-2.4437	-2.9708	-2.675	-2.5479	-2.75	-2.5208	-2.6	-27.094	-28.553	45.279	-81.109	85.047	262.144	191.614	255.780	57.005	106.300	274.209	-54.000	179.422	228.182	84.466	240.958	0.00029838	0.00036042	0.00025887	1364.2	6.9974e-06	8.1765e-06	1365	369.35	4.0111e-06	6.7018e-06	421.49	139.79	121.93	41.66	3.6556e-06	51.769	0.0005304	0.00052793	0.0001485	1379.8	5.8722e-06	5.8599e-06	1381.6	375.09	5.8944e-06	5.8621e-06	427.34	142.98	124.54	42.83	5.9239e-06	53.103	124.915	30.507	1.856	-71.117	41.658	80.006	-70.979	-66.546	-7.948	55.796	-66.968	-63.088	-62.335	-57.634	8.051	-58.299	-8191	255	
13833.157	1	1	0	0	0.10308	0.21082	0.13803	0.35281	0.38056	0.22972	0.28218	0.2561	0.040438	0.11224	0.29767	0.23602	0.27991	0.06532	0.27433	0.2532	-2.2271	-2.1146	-2.6104	-2.7687	-2.4021	-2.825	-2.6271	-2.7229	-2.675	-2.2958	-2.7021	-2.8688	-2.525	-2.75	-2.55	-2.5062	203.112	43.706	100.345	274.252	179.239	8.904	187.846	167.904	261.680	235.005	261.518	225.091	210.506	249.225	199.676	150.401	0.00045152	0.00018896	8.2525e-05	1367.5	1.8234e-06	2.2675e-06	1366.6	369.93	9.2455e-06	7.4224e-06	424.38	140.18	122.69	41.874	2.4104e-06	51.794	0.0005341	0.00054186	0.00015226	1381.9	5.8953e-06	5.8986e-06	1380.5	375.51	5.9283e-06	5.8997e-06	430.13	143.34	125.19	42.976	5.8934e-06	53.23	106.691	-56.172	132.488	-70.857	50.829	115.889	-71.260	-66.539	53.373	20.524	-66.862	-62.777	-62.294	-57.480	-9.563	-58.264	-8191	255	
13833.276	1	1	0	0	0.16801	0.058497	0.14528	0.093533	0.088489	0.18418	0.094309	0.27576	0.34742	0.12034	0.19308	0.10202	0.31319	0.26592	0.21942	0.18481	-2.2625	-2.4437	-2.7062	-2.8021	-2.3167	-2.8875	-2.8479	-2.5667	-2.9208	-2.5333	-2.6375	-2.875	-2.4813	-2.8521	-2.6083	-2.4708	269.667	143.723	152.642	250.260	-28.785	42.653	202.856	242.602	108.735	122.386	255.680	255.798	266.036	252.048	51.152	-62.680	0.00035305	0.00053462	2.7991e-05	1368	5.3436e-06	5.4319e-06	1365.6	368.21	5.9171e-06	4.1192e-06	421.01	140.14	122.43	42.233	4.857e-06	51.926	0.00053657	0.0005382	0.00014982	1383.5	5.7981e-06	5.8877e-06	1383.6	374.84	5.8383e-06	5.8303e-06	428.26	143.24	124.72	43.11	5.8858e-06	53.191	95.430	-31.488	251.053	-71.221	80.260	-1.170	-71.061	-66.245	122.286	49.201	-66.801	-62.860	-62.267	-57.428	112.577	-58.323	-8191	255	
13833.372	1	1	0	0	0.12535	0.090482	0.023426	0.19274	0.23533	0.05532	0.18094	0.37882	0.20357	0.17032	0.060473	0.14003	0.19575	0.14916	0.093293	0.23109	-2.3	-2.3937	-2.4	-2.825	-2.3729	-2.7104	-2.8083	-2.3854	-2.7333	-2.4333	-2.5854	-2.825	-2.575	-2.6146	-2.7188	-2.5292	132.180	61.186	-72.641	273.160	70.817	16.958	158.277	180.699	95.358	265.313	30.333	269.301	-80.696	-47.730	179.566	190.904	0.0003263	0.00027142	0.00025577	1366.4	3.6935e-06	1.0663e-06	1366.1	370.05	2.6654e-06	7.7131e-06	422.11	140.57	121.43	41.982	3.5019e-06	51.931	0.0005367	0.0005358	0.00014959	1382.1	5.8538e-06	5.8858e-06	1382.4	375.42	5.8809e-06	5.8618e-06	428.44	143.52	124.3	43.06	5.9337e-06	53.179	91.629	25.924	-20.236	-70.980	30.367	12.730	-71.148	-66.374	146.497	25.404	-66.959	-62.992	-62.399	-57.363	24.917	-57.961	-8191	255	
13833.468	1	1	0	0	0.26659	0.18411	0.23216	0.22819	0.16287	0.081205	0.12342	0.098572	0.14827	0.16564	0.16796	0.24255	0.22936	0.068112	0.1604	0.12854	-2.5021	-2.5208	-2.4667	-3.1063	-2.4083	-2.5687	-2.8667	-2.4708	-2.7521	-2.4896	-2.4917	-3.0667	-2.5771	-2.775	-2.8875	-2.2604	-79.718	145.693	158.799	239.923	270.339	244.106	107.853	258.676	76.828	242.984	152.467	267.962	197.361	82.514	-58.057	195.436	0.00028162	5.3969e-05	0.00011709	1366.7	1.9807e-06	4.7149e-06	1361.8	369.84	7.6884e-06	6.0346e-06	422.13	141.1	122.3	42.204	5.7118e-06	52.086	0.00053632	0.00054279	0.00014956	1379.7	5.8475e-06	5.8436e-06	1380.6	375.35	5.8076e-06	5.8849e-06	428.23	143.64	124.93	43.156	5.8736e-06	53.273	124.236	48.375	114.321	-71.064	43.246	115.336	-71.209	-66.506	70.390	-26.637	-67.113	-62.795	-62.048	-57.476	148.493	-58.348	-8191	255	
13833.564	1	1	0	0	0.34853	0.086682	0.35719	0.16472	0.17979	0.093361	0.18608	0.29513	0.10344	0.29949	0.20628	0.17741	0.12003	0.32294	0.11678	0.35053	-2.3604	-2.4208	-2.3208	-2.9958	-2.5	-2.5687	-2.8833	-2.6125	-2.6458	-2.5729	-2.5187	-2.8979	-2.5708	-2.5021	-2.7687	-2.3521	250.590	5.343	183.429	211.918	-60.742	98.323	212.015	206.488	3.217	218.169	194.564	184.996	-62.156	-77.913	251.087	217.566	0.00028125	0.00019429	0.00012639	1369.6	8.4136e-07	6.0353e-06	1361.1	370.49	2.9954e-06	1.8767e-06	421.09	140.41	122.33	41.994	5.1694e-07	51.616	0.00053146	0.0005303	0.00014591	1384	5.7361e-06	5.7847e-06	1381.3	375.77	5.7235e-06	5.7803e-06	428.48	143.36	124.95	43.024	5.779e-06	53.23	123.942	-32.721	87.618	-71.247	64.407	54.654	-71.113	-66.290	46.429	41.675	-67.167	-62.900	-62.159	-57.419	13.860	-58.321	-8191	255	
13833.660	1	1	0	0	0.20656	0.08718	0.29359	0.18433	0.23554	0.10146	0.16695	0.11126	0.10087	0.16686	0.329	0.28437	0.16448	0.26455	0.20709	0.32353	-2.1771	-2.6604	-2.2812	-3.05	-2.425	-2.6083	-2.9979	-2.5563	-2.7042	-2.8083	-2.475	-2.9354	-2.625	-2.7667	-2.9333	-2.4813	-83.361	-66.796	234.493	-57.627	-74.063	151.750	215.963	-67.735	73.969	-60.904	-65.359	263.878	223.050	233.936	-53.852	209.959	0.00035393	0.00059991	0.00021077	1369.1	3.4742e-06	2.949e-06	1363.9	370.07	8.9513e-06	3.1789e-06	423.14	140.1	122.93	42.05	4.6209e-06	51.817	0.0005222	0.00052065	0.00014409	1381.4	5.6297e-06	5.6402e-06	1380.5	375.76	5.6702e-06	5.7293e-06	428.56	143.46	124.98	43.062	5.7335e-06	53.224	100.139	13.906	17.524	-71.022	77.558	11.836	-71.284	-66.532	83.649	42.890	-66.795	-62.571	-62.045	-57.477	-80.199	-58.041	-8191	255	
13833.757	1	1	0	0	0.37625	0.17455	0.43517	0.34689	0.1526	0.036204	0.36129	0.37346	0.12867	0.14472	0.19883	0.10338	0.10448	0.077105	0.025465	0.22526	-2.1521	-2.4813	-2.3833	-2.9646	-2.425	-2.4875	-2.9625	-2.4313	-2.5854	-2.6646	-2.2958	-2.8563	-2.5667	-2.4167	-2.8854	-2.3979	264.041	37.974	-68.198	204.568	75.064	108.730	274.293	213.693	79.628	20.574	213.963	196.501	166.342	133.320	228.108	151.782	0.00037438	0.000328	4.5243e-05	1369.7	3.1009e-06	4.3144e-06	1367.4	371.22	6.9959e-06	4.608e-06	423.28	140.59	121.78	42.077	6.1301e-06	52.067	0.00052025	0.00051891	0.00014467	1381.7	5.7072e-06	5.7449e-06	1381.4	375.87	5.8394e-06	5.7192e-06	428.98	143.45	124.58	43.026	5.8094e-06	53.367	112.279	-23.845	-35.419	-71.034	45.638	75.481	-71.049	-66.558	113.067	50.400	-67.019	-62.917	-62.139	-57.375	101.310	-58.027	-8191	255	
13833.877	1	1	0	0	0.27501	0.12839	0.27427	0.28686	0.073588	0.083302	0.23151	0.082409	0.15396	0.055115	0.33216	0.18712	0.35168	0.33295	0.083823	0.11985	-2.2313	-2.8208	-2.2708	-2.8354	-2.5583	-2.4062	-2.9896	-2.4958	-2.6396	-2.8667	-2.2708	-2.65	-2.8	-2.4646	-2.8	-2.5354	254.453	208.613	134.346	223.620	10.179	245.889	243.849	33.372	265.289	2.517	213.053	148.145	245.218	220.261	175.180	-62.594	0.00038775	0.000489	0.00011971	1368.2	2.4945e-06	2.9907e-06	1365.3	369.76	2.3141e-06	2.7657e-06	422.45	140.17	122.05	42.088	4.1661e-06	51.788	0.00053233	0.00052336	0.0001459	1382.9	5.7007e-06	5.6581e-06	1381.4	375.56	5.7614e-06	5.6564e-06	428.15	143.42	124.6	43.029	5.7411e-06	53.141	109.514	1.178	-17.685	-70.986	261.876	39.531	-71.276	-66.408	273.282	48.796	-66.947	-62.759	-62.176	-57.390	43.484	-58.114	-8191	255	
13833.973	1	1	0	0	0.085666	0.22089	0.33993	0.13608	0.12056	0.28674	0.074815	0.33089	0.1118	0.1649	0.15579	0.25474	0.13159	0.15091	0.11769	0.10544	-1.9896	-2.6625	-2.3396	-2.8896	-2.6646	-2.4771	-2.9125	-2.7333	-2.2292	-2.7687	-2.5396	-2.6375	-2.775	-2.4813	-2.7417	-2.6667	105.295	142.330	22.096	241.064	112.611	201.594	191.338	199.588	55.025	207.052	172.072	251.245	200.449	9.933	239.080	245.388	0.00019374	0.00035131	3.6183e-05	1372.8	6.231e-06	6.0137e-06	1366.4	370.25	5.6089e-06	4.5438e-06	422.13	140.72	121.99	42.081	1.7571e-06	52.278	0.00052362	0.00051992	0.00014518	1384.6	5.7646e-06	5.7181e-06	1380.8	375.41	5.6577e-06	5.6397e-06	427.96	143.46	124.8	43.112	5.741e-06	53.278	140.226	-76.825	114.112	-71.060	110.385	21.435	-71.402	-66.330	134.303	25.860	-67.048	-62.933	-62.003	-57.700	59.987	-58.220	-8191	255	
13834.068	1	1	0	0	0.093789	0.12782	0.20619	0.27616	0.29351	0.22784	0.13936	0.1735	0.38046	0.27785	0.19852	0.070415	0.12644	0.13575	0.031071	0.067441	-2.0833	-2.7271	-2.4104	-2.9062	-2.7458	-2.4333	-2.9188	-2.7687	-2.4646	-2.7979	-2.6083	-2.6271	-3.0104	-2.4521	-2.6104	-2.775	67.041	-63.642	131.047	230.448	33.144	189.302	213.055	249.756	221.865	-10.524	232.166	206.765	182.108	-10.953	254.359	-81.247	0.0002599	0.00055691	0.00016523	1369.9	5.9792e-06	8.1238e-06	1370.5	370.23	7.0682e-06	5.4304e-06	422.98	140.12	122.34	42.298	3.6868e-06	51.975	0.00052058	0.00052006	0.00014725	1383.8	5.7655e-06	5.7849e-06	1383.3	375.95	5.7608e-06	5.7676e-06	428.24	143.53	124.85	43.1	5.8036e-06	53.312	107.500	15.578	10.752	-70.909	95.122	95.820	-70.931	-66.413	28.477	-3.911	-66.939	-62.871	-62.014	-57.487	92.605	-58.211	-8191	255	
13834.164	1	1	0	0	0.27421	0.19681	0.26624	0.28992	0.11328	0.087804	0.16304	0.19443	0.26597	0.07295	0.39719	0.099849	0.065366	0.058439	0.30662	0.17406	-1.9542	-2.8729	-2.5563	-2.7292	-2.6417	-2.3604	-2.8917	-2.8792	-2.2354	-2.9208	-2.6458	-2.6813	-3.0167	-2.4208	-2.6833	-2.8375	-76.397	54.080	250.845	-66.986	141.068	108.206	179.207	228.066	62.987	209.868	257.353	193.744	273.351	138.643	147.741	158.757	0.00032675	0.00039217	7.4008e-05	1367.7	6.6246e-06	5.0016e-06	1370.6	368.88	3.159e-06	3.6895e-06	422.83	140.8	121.67	42.071	3.7695e-06	51.936	0.00053217	0.00052971	0.00014741	1384.2	5.7772e-06	5.7815e-06	1383.7	374.81	5.6926e-06	5.7835e-06	428.51	143.57	124.66	43.098	5.8177e-06	53.206	99.979	14.804	54.689	-71.104	44.180	92.901	-70.990	-66.467	122.258	-33.799	-66.807	-62.963	-62.296	-57.589	86.525	-58.387	-8191	255	
13834.285	1	1	0	0	0.25138	0.064584	0.073311	0.10946	0.13162	0.13344	0.26516	0.11102	0.14627	0.044751	0.32325	0.18929	0.067425	0.040768	0.080018	0.060378	-2.0396	-2.6958	-2.4708	-2.8021	-2.6729	-2.4729	-2.6292	-3.0438	-2.3167	-2.7542	-2.6854	-2.45	-2.9354	-2.6813	-2.6854	-2.9562	50.172	25.711	192.013	-61.848	264.929	180.146	241.043	247.116	243.627	-10.859	157.318	199.102	168.466	249.175	100.127	-1.493	0.0004262	0.00044014	2.1155e-05	1370.9	3.1121e-06	3.8605e-06	1370.3	370.34	8.9463e-07	2.9211e-06	421.52	140.42	122.96	41.984	6.6083e-06	51.971	0.00052325	0.00052472	0.00014607	1384	5.7322e-06	5.6423e-06	1383.9	375.2	5.6526e-06	5.7164e-06	428.68	143.45	125.27	43.06	5.7931e-06	53.259	118.756	-26.413	-50.837	-71.200	97.485	8.367	-71.017	-66.512	85.682	18.955	-66.959	-62.769	-61.932	-57.480	-31.457	-58.347	-8191	255	
13834.356	1	1	0	0	0.22608	0.20367	0.11213	0.14024	0.14549	0.27742	0.17172	0.04455	0.2653	0.087798	0.27213	0.12598	0.16147	0.084919	0.16729	0.036037	-1.9646	-2.9271	-2.6312	-2.6021	-2.6875	-2.3771	-2.7229	-2.9	-2.2604	-2.6833	-2.575	-2.3104	-2.7812	-2.6292	-2.45	-2.675	128.161	-28.898	64.660	198.086	130.822	166.849	252.356	178.925	139.346	46.810	-82.626	257.151	263.183	171.327	108.410	224.895	0.00035768	0.00031548	4.3377e-05	1373.1	1.9722e-06	6.0862e-06	1367.9	371.06	7.0764e-06	4.4822e-06	422.26	141.03	122.46	42.079	5.8609e-06	52.254	0.00052253	0.00052174	0.00014666	1384.7	5.7211e-06	5.7572e-06	1384.3	375.84	5.7209e-06	5.7458e-06	428.65	143.75	124.97	43.061	5.766e-06	53.383	101.622	268.394	109.458	-71.030	37.581	76.884	-71.161	-66.556	44.123	201.930	-66.937	-62.856	-62.280	-57.517	50.318	-58.058	-8191	255	
13834.452	1	1	0	0	0.21817	0.25127	0.26432	0.25242	0.14747	0.20718	0.13875	0.17554	0.079945	0.19805	0.07696	0.18541	0.28492	0.12041	0.13011	0.24689	-1.7938	-2.5854	-2.6542	-2.6125	-2.625	-2.5292	-2.4708	-2.8354	-2.2292	-2.5375	-2.775	-2.3688	-2.8083	-2.7687	-2.2833	-2.8667	243.859	130.718	219.326	231.490	-55.918	275.128	204.933	260.333	11.740	28.443	-63.820	81.868	18.910	249.227	-78.660	95.407	0.0003723	0.00033465	0.00021492	1374.4	4.3263e-06	2.5953e-06	1370.6	368.82	1.1153e-05	5.2393e-06	422.46	140.81	122.94	42.295	5.7913e-06	52.06	0.00052265	0.00051897	0.00014455	1385.2	5.6627e-06	5.6788e-06	1382.4	375.39	5.7219e-06	5.7499e-06	428.73	143.42	125.13	43.161	5.8454e-06	53.315	105.328	50.340	22.431	-71.194	124.728	11.910	-71.164	-66.541	13.383	-7.467	-67.017	-62.794	-62.304	-57.778	31.862	-58.122	-8191	255	
13834.549	1	1	0	0	0.29596	0.23889	0.056932	0.36562	0.15513	0.081902	0.21649	0.4681	0.15186	0.040754	0.28339	0.26111	0.31429	0.2197	0.033955	0.2305	-2.0396	-2.4396	-2.7083	-2.4813	-2.7229	-2.6208	-2.6021	-2.8146	-2.4813	-2.5563	-2.8917	-2.4375	-2.7875	-2.6292	-2.3292	-2.9729	121.901	112.763	6.117	247.319	96.113	81.474	180.043	254.463	227.157	243.987	251.419	167.581	-3.288	274.367	62.037	185.298	0.00039627	0.000554	0.00012429	1367.2	2.9603e-06	5.1209e-06	1367.3	368.96	1.1686e-06	5.5797e-06	422.94	140.71	122.72	41.964	6.681e-06	51.806	0.00053491	0.00053946	0.00014979	1383.9	5.8834e-06	5.86e-06	1382.2	375.52	5.9074e-06	5.8335e-06	429.36	143.47	125.26	43.066	5.7846e-06	53.247	122.525	-23.183	-32.289	-71.123	17.637	75.813	-70.983	-66.444	7.741	18.166	-66.990	-62.835	-61.924	-57.525	55.665	-58.222	-8191	255	
13834.669	1	1	0	0	0.1471	0.15051	0.077833	0.11343	0.27681	0.1235	0.02202	0.15707	0.2468	0.21652	0.14028	0.29869	0.28673	0.30795	0.17869	0.16427	-2.0875	-2.4604	-2.9271	-2.5042	-2.5542	-2.725	-2.425	-2.775	-2.5146	-2.5417	-2.925	-2.3896	-2.7292	-2.7875	-2.3875	-2.8396	-51.202	83.125	249.761	271.706	-43.948	-22.877	-27.432	273.914	87.560	195.029	185.127	-51.477	-49.096	191.186	13.750	259.628	0.00035834	0.00062201	0.00012795	1368.4	2.2091e-06	6.3144e-06	1365.6	368.03	6.7875e-06	9.144e-06	422.16	140.16	121.91	42.042	4.5123e-06	51.895	0.00052036	0.00052135	0.00014468	1382.7	5.7518e-06	5.7376e-06	1383.6	374.98	5.7963e-06	5.8356e-06	428.61	143.3	124.9	43.071	5.843e-06	53.259	127.208	-0.234	-0.362	-70.929	-55.580	37.368	-70.850	-66.580	26.134	9.829	-66.920	-62.784	-62.100	-57.590	13.520	-58.186	-8191	255	
13834.765	1	1	0	0	0.085755	0.050701	0.1579	0.22593	0.17348	0.065907	0.17211	0.43781	0.22618	0.24286	0.20749	0.12951	0.17357	0.22385	0.11361	0.19712	-2.2625	-2.4771	-2.7396	-2.5563	-2.4917	-2.5958	-2.5354	-2.8875	-2.4938	-2.2521	-2.8958	-2.725	-2.5646	-2.7646	-2.3604	-2.5979	52.766	123.092	131.708	-44.422	10.684	-6.933	194.271	227.051	127.619	110.419	212.517	-34.558	241.915	219.331	148.808	234.771	0.00030332	0.00048494	5.2685e-05	1368	5.6952e-06	7.7499e-06	1369.1	369.67	6.9774e-06	3.8452e-06	422.05	141.34	122.8	42.027	7.5026e-06	52.028	0.00053126	0.00053242	0.00014537	1383.4	5.7826e-06	5.7553e-06	1384.8	375.34	5.7994e-06	5.6915e-06	428.17	143.8	125.15	43.063	5.7522e-06	53.3	134.993	-19.303	-8.395	-70.935	27.509	64.463	-70.986	-66.568	20.412	6.832	-67.064	-62.930	-62.226	-57.308	-2.037	-58.137	-8191	255	
13834.861	1	1	0	0	0.16659	0.30112	0.15692	0.26574	0.041295	0.40083	0.061773	0.14808	0.18471	0.17864	0.15666	0.19939	0.124	0.43311	0.15757	0.16197	-2.2146	-2.4271	-2.8042	-2.5208	-2.4354	-2.8542	-2.575	-2.65	-2.6063	-2.2938	-2.75	-2.5167	-2.5938	-3.0396	-2.3729	-2.7271	80.838	184.814	-27.420	-71.031	48.164	33.929	204.697	200.842	59.023	121.010	248.912	269.618	226.426	244.745	-3.111	170.427	0.00043247	0.00066175	8.4103e-05	1368.4	7.5858e-06	1.2603e-06	1368.5	369.82	8.6325e-07	4.95e-06	422.72	141.39	122.07	42.154	9.2367e-06	52.257	0.00050973	0.00051769	0.00014195	1383	5.6649e-06	5.6646e-06	1384.5	375.81	5.7558e-06	5.6826e-06	429.15	144.02	124.83	43.126	5.8176e-06	53.348	103.925	-21.154	-30.006	-71.110	75.758	-46.319	-71.454	-66.479	61.530	50.684	-66.893	-62.985	-62.192	-57.605	89.421	-58.319	-8191	255	
13834.958	1	1	0	0	0.10785	0.10099	0.10598	0.42464	0.12436	0.22992	0.18019	0.15316	0.23278	0.17889	0.16511	0.19673	0.078947	0.30347	0.29975	0.056013	-2.0354	-2.5083	-2.6625	-2.7667	-2.3958	-2.7042	-2.5021	-2.8104	-2.5792	-2.3104	-2.6458	-2.7042	-2.5646	-2.7313	-2.4188	-2.6312	108.499	217.512	-18.985	236.309	64.367	19.023	-55.768	261.896	51.724	141.949	-62.333	206.237	-63.516	220.970	106.758	210.760	0.00022462	0.00062231	9.3807e-05	1372.7	2.7916e-06	3.8343e-06	1361.9	369.59	1.045e-05	4.143e-06	421.82	139.83	122.62	42.145	5.404e-06	52.344	0.00052225	0.00051241	0.00014414	1384.8	5.6669e-06	5.6367e-06	1380.9	375.7	5.7397e-06	5.6969e-06	428.2	143.6	124.9	43.105	5.8057e-06	53.423	129.746	21.767	-11.089	-71.011	124.485	37.868	-71.386	-66.290	29.308	-20.079	-66.969	-62.930	-62.183	-57.713	-35.419	-58.298	-8191	255	
13835.054	1	1	0	0	0.18545	0.30769	0.15077	0.35292	0.17901	0.24191	0.14542	0.23678	0.11169	0.13712	0.19491	0.038079	0.11456	0.017848	0.12576	0.38296	-2.1458	-2.2229	-2.625	-2.9292	-2.3063	-2.8667	-2.5979	-2.7062	-2.6625	-2.3021	-2.6437	-2.7313	-2.5146	-2.8063	-2.475	-2.4479	80.838	-3.378	167.458	234.725	218.672	58.548	144.845	-52.437	-16.062	148.590	153.495	218.937	145.221	216.107	149.580	242.479	0.00043741	0.00029436	7.3875e-05	1366.4	8.4878e-06	4.7553e-06	1367.5	370.6	3.5401e-06	5.6989e-06	423.03	140.82	122.34	42.091	6.5281e-06	52.036	0.00051442	0.00051692	0.00014429	1381.4	5.6763e-06	5.6785e-06	1381.6	375.92	5.7254e-06	5.7266e-06	428.56	143.64	124.92	43.082	5.7441e-06	53.411	117.999	83.612	-34.962	-70.924	83.869	24.640	-71.048	-66.511	-7.383	13.946	-66.982	-62.910	-62.301	-57.366	42.571	-58.319	-8191	255	
13835.148	1	1	0	0	0.22109	0.13985	0.13454	0.30548	0.20738	0.32095	0.29955	0.15566	0.28963	0.16243	0.045664	0.18102	0.26718	0.20358	0.10428	0.05589	-2.3438	-2.3229	-2.6229	-2.9521	-2.3646	-2.8458	-2.675	-2.6021	-2.7854	-2.3521	-2.5917	-2.8333	-2.3438	-2.7313	-2.6875	-2.5229	96.017	126.979	-41.935	230.059	243.932	106.477	227.729	167.544	17.427	61.630	147.343	170.550	-17.423	206.600	206.286	-54.444	0.00034426	0.00043767	7.1103e-05	1372.9	9.3484e-06	3.0433e-06	1366	369.91	6.7207e-06	2.4143e-06	424.09	140.27	122.51	42.089	7.5552e-06	52.095	0.00052444	0.00052237	0.00014673	1385.2	5.7025e-06	5.7226e-06	1383.8	375.47	5.7771e-06	5.7677e-06	428.8	143.47	124.94	43.096	5.8522e-06	53.339	104.249	-19.374	71.435	-71.036	40.596	89.995	-71.159	-66.402	-14.388	72.440	-66.957	-62.871	-62.196	-57.729	62.908	-58.081	-8191	255	
13835.246	1	1	0	0	0.16167	0.19471	0.24819	0.28129	0.10536	0.2264	0.23219	0.29527	0.045846	0.23576	0.21381	0.22538	0.075821	0.15848	0.17135	0.2094	-2.3792	-2.3479	-2.6521	-2.8021	-2.3271	-2.7146	-2.6875	-2.5896	-2.7375	-2.4875	-2.6583	-2.7625	-2.5208	-2.7875	-2.5854	-2.4458	170.721	224.170	143.566	266.108	193.992	70.027	-84.245	258.356	214.123	167.653	-76.375	257.624	204.610	177.760	28.192	222.965	0.00023049	0.00058703	0.00018798	1374.7	4.2921e-06	1.2973e-06	1370.3	368.36	4.5115e-06	2.7641e-06	424.41	141.46	121.91	41.947	1.1649e-06	52.369	0.00052758	0.00052981	0.00014758	1384.5	5.6979e-06	5.7555e-06	1383.1	374.81	5.7224e-06	5.7857e-06	429.4	143.83	124.76	43.04	5.8171e-06	53.328	150.929	212.636	28.184	-71.005	78.850	193.214	-71.134	-66.385	211.529	52.558	-66.955	-62.965	-62.135	-57.423	-4.621	-58.309	-8191	255	
13835.365	1	1	0	0	0.21672	0.10755	0.18473	0.16729	0.17127	0.18675	0.027992	0.17249	0.17521	0.085111	0.10302	0.2606	0.38485	0.14799	0.20018	0.22602	-2.3417	-2.3021	-2.2854	-2.8771	-2.3542	-2.5938	-2.8083	-2.5062	-2.6792	-2.4104	-2.4625	-2.9313	-2.4375	-2.6562	-2.7083	-2.5125	172.701	85.910	-51.897	231.206	-80.350	-76.149	246.367	197.239	77.565	114.799	65.264	273.138	117.602	271.740	237.229	203.696	0.00045705	0.00017936	0.00018053	1373.3	6.6514e-06	6.6437e-06	1367.5	368.96	4.9544e-06	3.7559e-06	422.38	140.33	122.54	42.131	3.6651e-06	51.952	0.00052779	0.00053623	0.00014974	1384.1	5.8191e-06	5.8528e-06	1382.4	375.12	5.8394e-06	5.8384e-06	429.34	143.48	124.97	43.097	5.881e-06	53.406	100.962	1.067	-27.690	-71.141	75.680	79.533	-71.239	-66.364	140.211	17.104	-67.050	-62.943	-62.387	-57.457	137.595	-58.006	-8191	255	
13835.461	1	1	0	0	0.1559	0.21592	0.27636	0.39083	0.18933	0.20475	0.27829	0.0422	0.25787	0.17523	0.051752	0.18446	0.2453	0.26296	0.14912	0.1476	-2.2979	-2.4562	-2.3604	-2.9042	-2.4813	-2.6437	-2.9688	-2.3458	-2.6625	-2.5479	-2.325	-2.9896	-2.4938	-2.6708	-2.7583	-2.3208	-17.389	38.386	-56.267	197.744	101.351	-53.228	265.431	204.446	213.454	78.437	-35.739	215.298	192.089	-60.449	120.482	272.936	0.00025227	0.00015306	7.4115e-05	1367.8	7.1774e-06	5.3669e-06	1368.2	369.19	1.0146e-05	6.0317e-06	422.96	140.67	122.28	42.022	4.3427e-06	51.931	0.00053625	0.00053693	0.00014947	1382.5	5.8917e-06	5.8971e-06	1383.4	375.35	5.8463e-06	5.8606e-06	428.38	143.58	124.79	43.061	5.9236e-06	53.296	93.462	-18.880	224.072	-71.122	0.465	71.476	-71.225	-66.270	23.379	120.026	-66.945	-62.924	-62.387	-57.728	7.578	-58.050	-8191	255	
13835.557	1	1	0	0	0.1792	0.15892	0.054573	0.24734	0.15498	0.11007	0.1846	0.19266	0.10887	0.090572	0.27279	0.21275	0.032348	0.10466	0.16135	0.1917	-2.1104	-2.5167	-2.3104	-2.9708	-2.5375	-2.7021	-2.8667	-2.5417	-2.7375	-2.7479	-2.3875	-2.9292	-2.5792	-2.6521	-2.8521	-2.575	141.622	-79.360	252.825	224.215	46.494	85.770	-65.006	176.930	81.766	-0.147	228.051	-75.192	95.883	176.513	-24.565	-23.525	0.00022017	0.00030253	0.00023273	1372.8	1.1992e-06	5.9181e-06	1362.2	368.56	3.7179e-06	1.3834e-06	421.93	141	122.4	42.033	6.2102e-06	51.839	0.00053957	0.00053933	0.0001481	1383.6	5.8567e-06	5.7646e-06	1381.7	374.9	5.8767e-06	5.8661e-06	428.47	143.69	124.7	43.003	5.899e-06	53.234	85.791	-27.273	15.572	-71.106	-35.056	91.387	-71.040	-66.484	73.770	114.320	-66.940	-62.994	-62.427	-57.467	114.883	-58.462	-8191	255	
13835.653	1	1	0	0	0.26333	0.19453	0.07445	0.21965	0.10436	0.10928	0.17839	0.22932	0.12228	0.2483	0.11753	0.14248	0.16649	0.12993	0.20703	0.18283	-2.0729	-2.6458	-2.3458	-2.8167	-2.4188	-2.3812	-2.9583	-2.3833	-2.4938	-2.7833	-2.3688	-2.9	-2.6292	-2.3896	-2.8208	-2.4542	84.312	-51.541	203.347	175.785	115.109	62.555	226.466	197.897	-75.019	64.165	-56.923	-74.825	162.958	-61.225	58.815	225.178	0.00030902	0.00034359	0.00020502	1365.9	1.2988e-06	6.3443e-06	1363.4	369.06	1.3689e-06	2.3403e-06	421.7	140.76	121.97	42.065	2.1678e-06	52.209	0.00053966	0.00053366	0.00015049	1382.6	5.9427e-06	5.8968e-06	1382.4	374.9	5.996e-06	5.9811e-06	428.77	143.48	124.66	43.122	5.9648e-06	53.32	106.995	-29.036	-4.682	-71.162	69.129	58.261	-71.158	-66.589	-71.751	69.526	-66.815	-63.029	-62.092	-57.553	59.705	-58.009	-8191	255	
13835.750	1	1	0	0	0.12263	0.31912	0.48123	0.31079	0.3118	0.20481	0.086037	0.17781	0.15664	0.17177	0.087261	0.061678	0.1575	0.079211	0.04204	0.15002	-1.9688	-2.6729	-2.2479	-2.7646	-2.5792	-2.3187	-3.0167	-2.6	-2.4938	-2.7313	-2.6208	-2.7583	-2.6396	-2.3521	-2.7583	-2.5854	212.820	174.812	172.295	262.466	-25.043	223.433	140.368	218.776	233.845	17.146	-26.914	222.483	-13.629	75.988	34.167	257.174	0.00034897	0.00060014	4.2601e-05	1370.2	2.2961e-06	3.7195e-06	1365.6	369.46	5.1523e-06	3.2143e-06	423.15	140.25	122.16	41.896	4.837e-06	51.741	0.00053334	0.00053303	0.00014992	1382.6	5.9045e-06	5.8601e-06	1381.4	375.52	5.9251e-06	5.9572e-06	429.17	143.23	124.78	43.024	6.0087e-06	53.159	120.566	-33.791	-49.263	-71.106	137.993	-7.735	-71.420	-66.591	127.869	253.685	-67.026	-62.823	-62.273	-57.378	158.445	-58.188	-8191	255	
13835.846	1	1	0	0	0.13985	0.13515	0.073521	0.29286	0.099139	0.21305	0.27319	0.37009	0.25253	0.25043	0.090006	0.16661	0.24948	0.22103	0.20145	0.14957	-1.9521	-2.6792	-2.4146	-2.8104	-2.7417	-2.2146	-2.8063	-2.6354	-2.4854	-2.7958	-2.4729	-2.6896	-2.7125	-2.5187	-2.5542	-2.7354	118.331	221.195	-57.474	241.917	200.658	114.456	178.407	216.775	-19.768	212.908	181.194	184.746	139.787	269.446	-50.988	206.994	0.00025714	0.00028607	0.00011056	1366.8	5.451e-06	4.1017e-06	1365	369.16	5.944e-06	2.7353e-06	424.42	140.67	122.14	41.752	2.6425e-07	51.887	0.00055089	0.00054622	0.00015154	1381.4	5.9978e-06	5.9662e-06	1381.1	375.15	6.0398e-06	6.068e-06	428.95	143.58	124.61	42.962	6.0509e-06	53.249	116.471	-40.972	54.488	-71.119	98.586	131.551	-71.198	-66.272	60.891	-18.942	-66.789	-62.787	-62.192	-57.397	229.746	-58.022	-8191	255	
13835.966	1	1	0	0	0.41093	0.1796	0.080393	0.23197	0.081539	0.09863	0.25598	0.085753	0.097693	0.17968	0.090563	0.13416	0.077141	0.041922	0.097428	0.24915	-1.75	-2.7771	-2.4771	-2.8354	-2.6729	-2.1896	-2.8875	-2.6417	-2.5438	-2.8688	-2.6188	-2.8229	-2.8063	-2.2292	-2.6312	-2.5708	145.984	-71.577	89.429	268.513	205.459	79.750	228.235	226.500	157.360	-1.787	252.219	253.703	5.328	251.109	13.768	217.360	0.00035295	0.00045488	0.00016937	1366.7	4.4247e-06	8.433e-06	1367.9	370.23	4.7823e-06	1.0273e-05	422.22	140.01	121.61	41.946	7.0217e-06	52.129	0.00054941	0.0005436	0.00015328	1383.5	6.0057e-06	5.995e-06	1382.9	375.35	6.061e-06	6.0854e-06	428.78	143.18	124.6	42.944	6.051e-06	53.289	109.353	10.694	-6.303	-71.082	117.698	36.807	-71.292	-66.418	36.740	63.302	-66.828	-62.967	-62.049	-57.470	73.137	-58.334	-8191	255	
13836.061	1	1	0	0	0.28815	0.097615	0.11223	0.026857	0.19036	0.078068	0.31958	0.15179	0.21416	0.24064	0.1863	0.16268	0.23535	0.35164	0.22457	0.37074	-1.8083	-2.8292	-2.3396	-2.7854	-2.8937	-2.5104	-2.8563	-2.725	-2.1604	-2.7771	-2.4458	-2.4375	-2.8583	-2.5563	-2.6813	-2.7146	-27.236	189.521	81.756	134.254	90.658	235.781	200.308	167.405	238.395	179.067	162.037	-61.797	240.389	189.570	77.121	228.147	0.0002987	0.00071248	0.00018024	1367.6	2.897e-06	3.5114e-06	1361.9	368.4	1.6302e-06	4.3636e-06	423.06	139.61	121.43	41.855	3.0557e-06	51.796	0.00054645	0.00054911	0.00015279	1382.6	5.9767e-06	6.0264e-06	1382.3	374.66	5.9217e-06	5.9244e-06	428.27	143.04	124.27	42.913	6.0408e-06	53.185	121.245	18.178	16.192	-71.140	23.084	36.463	-71.290	-66.395	-46.219	23.390	-66.845	-62.759	-62.250	-57.363	89.174	-58.296	-8191	255	
13836.157	1	1	0	0	0.041036	0.1811	0.057522	0.42208	0.069437	0.16251	0.27848	0.056606	0.083542	0.045904	0.30637	0.19548	0.11366	0.33676	0.1564	0.036932	-1.9208	-2.7313	-2.5146	-2.8396	-2.5917	-2.5229	-2.8604	-2.7646	-2.3521	-2.7667	-2.6104	-2.5521	-2.8167	-2.3146	-2.4979	-2.8229	-22.819	194.980	71.426	166.363	-34.553	-65.690	210.272	261.448	39.055	167.211	200.187	189.732	103.682	-83.373	-6.103	135.015	0.00024992	0.00054157	0.00016492	1362.2	7.0229e-06	6.4612e-06	1365.4	369.84	5.3528e-06	4.6497e-06	423.29	140.28	121.79	41.809	4.7738e-06	51.535	0.00053903	0.00053965	0.00015009	1380.5	5.8664e-06	5.8963e-06	1379.8	374.6	5.9212e-06	5.9797e-06	428.35	142.98	124.45	42.868	6.0164e-06	53.051	135.111	80.440	-26.226	-71.062	124.734	76.616	-71.427	-66.560	34.791	14.509	-66.905	-62.710	-62.121	-57.602	82.078	-57.954	-8191	255	
13836.229	1	1	0	0	0.24332	0.17603	0.1358	0.14837	0.30489	0.20717	0.32817	0.28759	0.19317	0.041736	0.17459	0.17276	0.037511	0.31389	0.097324	0.059145	-1.7771	-2.6333	-2.5604	-2.4521	-2.8667	-2.5375	-2.8875	-2.8875	-2.275	-2.8708	-2.7729	-2.5021	-2.9583	-2.4417	-2.5396	-2.8729	-67.578	219.986	68.102	255.201	111.987	-1.496	234.205	237.919	228.009	89.072	6.795	206.444	254.022	219.186	246.534	-57.710	0.00021371	0.00044359	0.00021792	1366.1	5.3609e-06	2.6097e-06	1359.1	368.96	1.0045e-05	1.4696e-06	421.31	138.97	121.05	41.7	9.6585e-07	51.935	0.00054044	0.0005464	0.00015057	1379.4	5.9849e-06	5.9885e-06	1379.3	374.89	5.8939e-06	5.917e-06	427.67	142.79	124.25	42.831	6.0274e-06	53.099	101.758	22.865	36.561	-71.166	28.915	238.589	-71.202	-66.328	46.748	-62.635	-67.083	-62.904	-62.204	-57.683	-65.311	-58.155	-8191	255	
13836.326	1	1	0	0	0.14268	0.16336	0.04165	0.10985	0.10822	0.12443	0.1632	0.17463	0.10739	0.12158	0.19861	0.16062	0.28742	0.1598	0.11102	0.28126	-2.0083	-2.6083	-2.7375	-2.5312	-2.775	-2.5062	-2.7333	-2.9417	-2.3271	-2.6562	-2.725	-2.5438	-2.9688	-2.7146	-2.4562	-2.9688	5.367	122.787	58.738	69.661	-61.478	-26.873	170.438	194.000	-50.949	36.645	212.921	-82.642	217.188	211.508	37.702	192.562	0.00034982	0.00035326	0.00022905	1366.8	3.4451e-06	5.9723e-06	1366.9	368.7	1.0256e-06	5.485e-06	420.12	139.07	122.04	41.785	5.8117e-06	51.658	0.00054374	0.00054118	0.00014942	1380.3	5.9857e-06	5.9476e-06	1381.4	374.65	5.8819e-06	5.9281e-06	426.88	142.77	124.51	42.963	6.0051e-06	53.063	88.108	16.487	-6.614	-71.212	94.434	-8.362	-71.154	-66.448	156.719	28.541	-66.830	-62.863	-62.512	-57.393	65.927	-58.610	-8191	255	
13836.445	1	1	0	0	0.080462	0.036742	0.1474	0.1958	0.16824	0.18505	0.2929	0.21311	0.18827	0.14882	0.13601	0.35205	0.2155	0.13325	0.1952	0.27472	-1.8583	-2.5938	-2.825	-2.5938	-2.6625	-2.6125	-2.6104	-2.9729	-2.4521	-2.7	-2.9562	-2.4854	-2.7396	-2.7188	-2.4167	-2.9354	56.190	-75.953	202.793	241.851	210.814	223.472	174.860	-77.825	131.493	248.718	197.296	206.780	74.380	254.459	76.016	205.156	0.00043064	0.00055347	7.6345e-05	1365.1	2.4465e-06	8.8907e-06	1362.1	369.46	3.9974e-06	1.1234e-05	420.85	139.45	121.92	41.961	4.5023e-06	52.035	0.00054541	0.0005429	0.0001507	1378.6	5.9525e-06	5.9576e-06	1379.4	374.92	5.9446e-06	5.9792e-06	427.74	142.76	124.39	42.915	5.9858e-06	53.231	110.912	32.376	58.949	-71.049	0.724	66.646	-71.260	-66.352	229.935	21.018	-67.190	-63.070	-62.104	-57.795	103.057	-58.271	-8191	255	
13836.541	1	1	0	0	0.25365	0.1558	0.21137	0.28608	0.2059	0.15004	0.19703	0.33506	0.17574	0.11286	0.27405	0.084518	0.10307	0.14819	0.12305	0.072391	-1.7354	-2.3187	-2.7104	-2.4292	-2.8333	-2.6813	-2.4646	-2.7271	-2.6229	-2.3104	-2.8854	-2.5167	-2.7167	-2.6979	-2.0938	-2.8563	105.048	210.602	37.379	227.524	38.018	157.382	146.933	225.597	114.692	155.631	259.813	244.380	-26.489	-64.697	171.595	102.477	0.00049691	0.00070735	7.3615e-05	1367.4	3.3296e-06	1.4242e-06	1363.3	369.52	7.8358e-06	2.8727e-06	423.91	139.81	122.33	41.967	3.0593e-06	51.797	0.00053259	0.0005367	0.00014926	1380.7	5.8178e-06	5.843e-06	1380.7	375.12	5.8459e-06	5.8845e-06	428.37	143.07	124.65	43.034	5.9234e-06	53.255	92.798	3.922	66.457	-71.011	29.560	68.198	-71.068	-66.526	53.212	26.011	-66.886	-62.848	-62.417	-57.599	45.005	-58.382	-8191	255	
13836.638	1	1	0	0	0.11141	0.22199	0.20033	0.29532	0.053155	0.097871	0.28434	0.048781	0.15192	0.086757	0.13725	0.23325	0.21608	0.062741	0.19293	0.075637	-2.0854	-2.1583	-2.7292	-2.6292	-2.5104	-2.85	-2.5271	-2.8521	-2.6292	-2.3354	-2.9125	-2.5896	-2.6354	-2.825	-2.3229	-2.8438	206.752	-66.057	172.292	253.549	208.522	138.206	229.878	240.861	59.600	106.730	248.909	25.183	-59.753	-74.902	13.403	210.926	0.00019137	0.00017682	0.00015238	1370.5	6.0391e-06	6.9574e-06	1366.9	369.2	2.5645e-07	8.6066e-06	422.4	139.41	121.55	41.911	7.7182e-06	51.947	0.00053927	0.00053591	0.00014808	1383.5	5.9298e-06	5.9743e-06	1382.1	375.1	6.0301e-06	6.0364e-06	428.29	142.93	124.47	42.95	5.9813e-06	53.214	148.827	19.338	29.984	-71.138	64.766	37.626	-71.083	-66.434	-6.986	19.261	-66.840	-62.973	-62.404	-57.276	67.031	-58.277	-8191	255	
13836.758	1	1	0	0	0.16548	0.18388	0.045378	0.15427	0.17911	0.2078	0.096773	0.31242	0.034147	0.08153	0.18203	0.090507	0.15875	0.18753	0.19693	0.13527	-2.1292	-2.3229	-2.7167	-2.6625	-2.5125	-3.0187	-2.4646	-2.8125	-2.6521	-2.4333	-3	-2.7021	-2.6437	-2.8917	-2.3146	-2.8625	165.477	-65.148	41.920	249.059	136.024	194.712	-28.936	185.410	30.798	274.387	174.586	-15.596	100.447	192.426	-66.183	211.529	0.00037578	0.00043997	0.00020589	1365.7	4.4416e-06	7.946e-06	1365.7	370.24	1.8315e-06	8.5132e-06	422.98	139.93	122.22	42.137	3.4615e-06	52.137	0.00054724	0.00054444	0.00014986	1383.3	5.8899e-06	5.9061e-06	1383.8	375.64	5.8304e-06	5.8832e-06	429.23	143.32	124.68	43.112	5.8259e-06	53.364	107.703	-5.497	-7.212	-70.911	62.877	35.576	-70.968	-66.337	134.988	60.499	-67.070	-63.000	-61.936	-57.375	89.639	-58.293	-8191	255	
13836.830	1	1	0	0	0.054687	0.12883	0.29889	0.22143	0.2317	0.27366	0.18865	0.13696	0.073737	0.039223	0.1945	0.071155	0.10061	0.21249	0.12235	0.26585	-2.3521	-2.6458	-2.9062	-2.825	-2.5563	-2.7917	-2.725	-2.6708	-2.8229	-2.3187	-3.0312	-2.7375	-2.5667	-2.9313	-2.5625	-2.6792	185.557	54.066	227.923	187.621	111.885	199.111	-56.834	109.447	140.867	94.774	200.678	-9.816	-47.595	192.361	158.605	235.619	0.00039845	0.00065591	7.4246e-05	1368.1	3.6585e-06	4.099e-06	1363.8	368.38	2.6138e-06	6.8017e-06	424.3	140.79	122.5	41.934	1.8629e-06	52.386	0.00053319	0.00052399	0.00014629	1384	5.8044e-06	5.7449e-06	1383.2	375.5	5.7405e-06	5.7352e-06	428.88	143.7	124.85	43.047	5.7848e-06	53.449	89.487	-8.620	33.979	-71.235	56.685	117.567	-71.161	-66.301	92.556	87.170	-66.877	-62.627	-62.296	-57.439	69.166	-57.934	-8191	255	
13836.926	1	1	0	0	0.19069	0.18709	0.032682	0.21904	0.072741	0.20994	0.16189	0.063433	0.10791	0.13711	0.060396	0.22735	0.096216	0.10978	0.2918	0.12465	-2.2646	-2.4688	-2.6375	-2.8875	-2.3708	-2.9	-2.6625	-2.6188	-2.5875	-2.4042	-2.7542	-2.8021	-2.525	-2.7875	-2.4646	-2.5229	28.441	66.158	-77.234	251.790	66.215	-42.584	156.817	150.881	137.626	-74.621	126.255	-75.534	128.371	132.108	259.600	201.272	0.00040598	0.00031609	0.00015757	1365	5.7462e-06	3.2934e-06	1360.5	371.37	2.0028e-06	7.7965e-06	422.87	140.39	122.24	41.96	5.796e-06	52.055	0.00052979	0.00052192	0.00014618	1382.4	5.7532e-06	5.7414e-06	1380.9	376.12	5.7178e-06	5.7345e-06	428.73	143.45	124.73	43.064	5.7201e-06	53.341	110.073	9.117	-0.212	-71.168	10.570	73.389	-71.026	-66.411	112.732	62.889	-67.027	-62.879	-62.242	-57.619	77.596	-58.147	-8191	255	
13837.047	1	1	0	0	0.15987	0.021542	0.045798	0.34303	0.19576	0.13797	0.072007	0.3758	0.19198	0.27245	0.079093	0.13913	0.34111	0.31147	0.32713	0.12872	-2.3	-2.3771	-2.5667	-2.7125	-2.375	-2.6833	-2.6167	-2.4896	-2.7375	-2.2146	-2.6458	-2.6917	-2.3104	-2.8292	-2.3104	-2.5187	3.598	263.901	43.750	208.964	250.269	25.335	173.982	209.444	210.231	235.157	99.388	187.478	214.060	245.016	48.644	239.784	0.00040156	0.00040564	0.00014126	1370.1	2.2708e-06	4.5862e-06	1370.8	370	1.47e-06	6.8655e-06	423.78	140.95	122.11	41.982	7.2272e-06	51.992	0.00051728	0.00051264	0.00014402	1383.9	5.6281e-06	5.6814e-06	1386.2	375.19	5.7435e-06	5.7705e-06	429.57	143.32	124.56	43.038	5.8384e-06	53.275	130.994	54.234	102.147	-71.201	44.286	-34.394	-71.190	-66.138	49.751	17.786	-67.052	-62.809	-62.065	-57.606	47.803	-58.303	-8191	255	
13837.141	1	1	0	0	0.40901	0.080515	0.26152	0.22251	0.20861	0.043782	0.29356	0.42373	0.01907	0.15758	0.19183	0.35092	0.16675	0.3791	0.20736	0.35654	-2.4479	-2.4062	-2.5542	-2.7625	-2.2375	-2.8083	-2.7812	-2.4625	-2.7354	-2.4292	-2.4771	-2.7583	-2.3292	-2.775	-2.4646	-2.5854	74.898	269.686	122.407	236.969	95.263	20.342	-75.776	217.534	189.759	-54.172	-80.535	234.715	1.710	209.418	185.752	57.645	0.00024135	0.00039625	0.00020373	1367.9	4.7217e-06	8.8439e-06	1364.9	369.92	2.9787e-06	1.0071e-05	421.97	140.76	121.97	42.083	1.4808e-06	51.947	0.00052628	0.00053271	0.00014676	1384.6	5.75e-06	5.8521e-06	1383.6	375.4	5.8014e-06	5.8463e-06	428.45	143.65	124.71	43.098	5.8783e-06	53.404	108.135	-30.267	-6.785	-70.919	38.708	60.104	-71.276	-66.492	12.450	82.523	-66.670	-62.966	-62.232	-57.632	-3.895	-57.993	-8191	255	
13837.237	1	1	0	0	0.10999	0.31117	0.093317	0.2115	0.21329	0.19983	0.32743	0.032906	0.31637	0.1694	0.17056	0.15487	0.22914	0.36065	0.026332	0.12349	-2.2792	-2.4104	-2.5708	-2.7625	-2.575	-2.5396	-2.7125	-2.4688	-2.8563	-2.4813	-2.6479	-2.7083	-2.3438	-2.575	-2.7333	-2.4583	236.268	155.542	209.869	8.842	198.798	46.813	245.078	224.876	204.484	-61.852	162.849	256.731	208.601	265.451	-3.912	199.264	0.00029105	0.00030606	9.4967e-05	1367.2	5.6065e-06	2.4787e-06	1362.5	370.71	2.9185e-06	4.8619e-06	423.33	140.36	121.63	41.863	4.6752e-06	52.079	0.00053919	0.0005358	0.00015038	1381.5	5.8754e-06	5.9056e-06	1382	375.73	5.9146e-06	5.8735e-06	428.72	143.15	124.82	43.014	5.9089e-06	53.269	91.580	42.065	17.458	-71.046	57.692	59.114	-71.077	-66.608	137.551	48.187	-66.881	-63.010	-62.410	-57.555	38.309	-58.425	-8191	255	
13837.358	1	1	0	0	0.15526	0.040051	0.10389	0.28825	0.044244	0.11317	0.16942	0.16503	0.26612	0.096073	0.11556	0.12851	0.08357	0.25041	0.099185	0.22764	-2.3604	-2.3521	-2.4292	-3.0854	-2.3792	-2.4917	-2.95	-2.4021	-2.775	-2.6146	-2.5687	-2.7708	-2.5167	-2.6083	-2.8021	-2.4396	187.892	44.100	272.473	205.003	-62.852	61.403	-72.117	-35.674	106.591	12.064	241.583	239.767	147.984	222.174	196.156	-65.371	0.00041138	0.00040454	0.00014625	1372.5	1.5474e-06	2.2894e-06	1372.5	369.48	5.8422e-07	1.7723e-06	421.83	140.35	121.8	41.944	1.0023e-05	51.991	0.00053286	0.00053592	0.00015046	1384.7	5.8841e-06	5.951e-06	1383.2	374.77	6.01e-06	6.0193e-06	428.22	143.35	124.35	43.032	5.9312e-06	53.277	111.721	-11.211	-0.373	-70.987	-8.121	230.963	-71.121	-66.504	217.540	-31.201	-67.087	-62.534	-62.389	-57.532	2.117	-58.103	-8191	255	
13837.454	1	1	0	0	0.16192	0.18988	0.14579	0.33353	0.081451	0.095792	0.2277	0.15085	0.22649	0.34086	0.16353	0.26841	0.19854	0.25518	0.1563	0.07906	-2.2958	-2.4083	-2.5333	-2.9979	-2.4313	-2.6479	-2.8063	-2.4521	-2.6854	-2.6271	-2.4583	-2.7604	-2.4437	-2.5333	-2.7146	-2.4521	92.498	-11.660	118.098	231.661	165.062	42.406	239.967	269.430	74.191	85.632	222.121	227.146	-53.845	272.480	178.137	245.467	0.00041779	0.00060966	0.00020384	1370.5	4.8626e-06	4.8442e-06	1360.1	370.37	5.3133e-06	9.2743e-06	421.89	140.52	121.66	41.931	3.9252e-06	51.722	0.0005355	0.0005414	0.00014989	1384	5.8024e-06	5.9833e-06	1379.1	375.97	5.8316e-06	5.8654e-06	427.67	143.32	124.52	42.989	5.8095e-06	53.178	95.210	-3.030	-21.997	-71.239	10.512	70.333	-71.423	-66.539	245.012	3.101	-66.766	-62.851	-62.298	-57.573	228.110	-58.421	-8191	255	
13837.526	1	1	0	0	0.088054	0.26147	0.30295	0.41697	0.079496	0.1071	0.11786	0.23462	0.059502	0.095684	0.16143	0.039605	0.099662	0.40197	0.19311	0.18803	-2.2771	-2.5646	-2.3292	-2.8958	-2.4125	-2.425	-2.8396	-2.4625	-2.6229	-2.7333	-2.6979	-2.8104	-2.6	-2.6271	-2.9042	-2.4562	82.412	32.807	135.588	-71.353	265.331	213.829	195.583	242.631	207.796	-51.388	211.169	263.427	6.568	233.303	222.636	157.664	0.00020649	0.0006489	0.0001756	1371.8	1.5181e-06	2.5424e-06	1362.6	368.48	4.7845e-06	2.8916e-06	423.01	139.9	122.56	42.003	3.7268e-06	51.813	0.00053596	0.00054121	0.00014722	1381.6	5.8672e-06	5.9136e-06	1381.5	374.3	5.8582e-06	5.8842e-06	428.87	143.14	124.69	43.019	5.8648e-06	53.246	94.275	24.818	-0.961	-70.951	72.137	114.073	-71.235	-66.405	-65.805	57.912	-66.945	-62.871	-62.326	-57.611	77.675	-58.330	-8191	255	
13837.622	1	1	0	0	0.29922	0.15443	0.14485	0.27914	0.21832	0.21547	0.25867	0.25719	0.15614	0.14377	0.16359	0.1837	0.15289	0.13414	0.21779	0.15622	-2.0875	-2.5354	-2.4208	-2.8833	-2.6208	-2.3146	-3.0354	-2.7083	-2.5354	-2.7521	-2.625	-2.8146	-2.7062	-2.3792	-2.8688	-2.7062	251.559	-8.477	210.248	159.087	-70.705	149.991	181.438	167.638	181.002	109.048	238.935	210.334	9.147	187.669	249.397	71.789	0.00031185	0.00051518	0.00011514	1369.3	5.0095e-06	4.6482e-06	1367.9	367.85	3.0691e-06	7.2441e-06	421.67	139.81	121.86	41.93	4.1703e-06	51.737	0.00054362	0.00054203	0.0001518	1383.8	5.8946e-06	5.9725e-06	1380.9	373.93	5.9124e-06	5.9441e-06	427.52	143.08	124.61	42.957	5.9441e-06	53.084	101.878	-9.563	-83.565	-71.104	99.480	63.890	-70.994	-66.262	33.633	8.236	-66.741	-62.876	-62.391	-57.391	60.521	-58.393	-8191	255	
13837.742	1	1	0	0	0.19741	0.10869	0.20045	0.10483	0.099002	0.087767	0.12897	0.25946	0.15565	0.062647	0.14644	0.0063166	0.058065	0.47691	0.10812	0.10003	-2.1979	-2.6042	-2.2979	-2.9271	-2.4167	-2.4104	-2.9771	-2.6146	-2.4813	-2.7333	-2.5854	-2.6208	-2.7458	-2.3292	-2.8042	-2.6562	37.847	109.019	-45.530	212.162	-6.548	-72.305	172.208	227.460	248.905	109.622	-70.469	166.023	123.771	209.751	37.766	272.338	0.00043135	0.00068053	0.00017771	1368	1.6295e-06	3.0092e-06	1366	369.98	6.3161e-06	4.8054e-06	419.94	140.38	122.07	41.928	4.4089e-06	52.093	0.00054256	0.00054606	0.00015028	1381.1	5.9689e-06	5.9879e-06	1381	375.06	6.0024e-06	5.9802e-06	428.08	143.32	124.63	42.973	5.8622e-06	53.323	141.882	31.457	16.992	-71.211	12.105	-64.673	-71.163	-66.498	14.013	72.627	-66.870	-62.842	-62.510	-57.563	55.370	-58.223	-8191	255	
13837.839	1	1	0	0	0.24293	0.19544	0.21563	0.1931	0.12795	0.040715	0.11578	0.41077	0.15137	0.14835	0.081028	0.1588	0.2002	0.20454	0.21796	0.35683	-1.9062	-2.8875	-2.4188	-2.9333	-2.6292	-2.3354	-2.8542	-2.6646	-2.3438	-2.85	-2.4479	-2.8812	-2.7271	-2.3458	-2.8854	-2.7812	219.826	127.552	125.711	256.918	93.633	160.230	49.191	181.811	27.221	149.073	78.661	226.930	249.905	248.658	80.709	267.961	0.00034225	0.00022634	0.00013376	1364.9	3.8169e-06	8.0874e-06	1366.3	368.26	4.6737e-06	4.4083e-06	422.38	140.05	122.92	42.181	5.3321e-06	52.021	0.00052925	0.00052564	0.0001477	1380	5.7811e-06	5.6989e-06	1382.4	374.75	5.7374e-06	5.6151e-06	429.27	143.41	124.9	43.016	5.6566e-06	53.29	97.093	-77.989	4.704	-70.964	24.546	80.733	-71.212	-66.568	43.249	29.527	-66.742	-62.657	-62.069	-57.512	87.957	-58.139	-8191	255	
13837.935	1	1	0	0	0.12234	0.36243	0.32516	0.27434	0.043095	0.26634	0.17441	0.3334	0.21324	0.08508	0.091261	0.29454	0.23853	0.015558	0.1059	0.072483	-1.8083	-2.8729	-2.525	-2.7167	-2.6229	-2.6063	-2.5792	-2.8167	-2.3667	-2.8833	-2.6833	-2.5583	-2.7854	-2.3542	-2.825	-2.7917	246.908	53.185	191.046	249.527	-4.332	-7.416	165.381	198.497	210.126	0.925	109.210	246.477	200.162	221.209	148.163	218.085	0.00030049	0.00039099	5.2214e-05	1362.2	1.5786e-06	9.0562e-06	1366.9	369.49	4.9989e-06	5.4789e-06	423.11	141.02	122.04	41.896	2.6838e-06	51.902	0.00051104	0.00051401	0.00014187	1378.7	5.6198e-06	5.5669e-06	1380.1	375.38	5.5209e-06	5.5724e-06	428.77	143.78	124.59	42.986	5.5968e-06	53.236	123.254	10.630	16.952	-70.935	-36.677	27.561	-71.213	-66.202	-67.827	26.307	-67.103	-62.928	-62.304	-57.518	71.089	-58.396	-8191	255	
13838.029	1	1	0	0	0.12539	0.15273	0.14533	0.15769	0.20014	0.18079	0.18907	0.24501	0.22777	0.039763	0.28712	0.15372	0.3549	0.0596	0.21691	0.12735	-1.7917	-2.7875	-2.4688	-2.6562	-2.8375	-2.4979	-2.7875	-2.6937	-2.2792	-2.6958	-2.5812	-2.5438	-2.8333	-2.5167	-2.5146	-2.7917	-43.821	199.009	-84.191	225.806	105.330	-70.880	114.683	-36.265	180.836	95.651	250.651	238.407	209.753	143.793	30.069	83.199	0.00028923	0.00031347	0.00020359	1369.4	3.4136e-06	5.6519e-06	1368.5	370.22	8.8174e-07	2.1888e-06	423.08	139.67	122.1	42.109	2.9114e-06	51.856	0.00049811	0.00048816	0.00013651	1379.9	5.1825e-06	5.1371e-06	1379.9	375.03	5.0896e-06	5.2201e-06	427.22	142.71	124.1	42.891	5.1952e-06	53.107	98.405	-32.827	8.900	-71.145	85.655	18.772	-70.929	-66.338	137.503	7.810	-66.972	-62.882	-62.245	-57.462	57.378	-58.314	-8191	255	
13838.125	1	1	0	0	0.16373	0.17204	0.12277	0.0338	0.086814	0.14922	0.073087	0.15244	0.37966	0.14999	0.11399	0.25507	0.25925	0.047694	0.13807	0.21456	-1.9646	-2.6333	-2.65	-2.6417	-2.8479	-2.2917	-2.5958	-2.8187	-2.4583	-2.6167	-2.6667	-2.5229	-2.7417	-2.5938	-2.4792	-2.8271	208.841	21.674	-1.890	254.414	264.879	176.936	165.596	131.004	207.831	250.798	166.599	270.272	249.730	42.675	-17.737	151.882	0.00046941	0.00049577	0.0002585	1364.7	1.4188e-06	1.0533e-05	1364.7	367.28	3.4691e-06	1.3414e-06	420.56	140.65	122.01	42.041	4.6637e-06	51.98	0.00046036	0.00046247	0.00012705	1374.1	4.9843e-06	5.0532e-06	1372.9	373.21	5.1771e-06	5.1713e-06	426.67	143.02	124.37	43.043	5.3894e-06	53.227	126.766	49.459	-28.124	-71.009	100.856	41.560	-71.103	-66.604	-17.926	-75.603	-66.944	-62.913	-62.130	-57.570	-33.013	-57.948	-8191	255	
13838.221	1	1	0	0	0.18778	0.11458	0.28254	0.26034	0.151	0.098656	0.3299	0.15057	0.14731	0.24329	0.56671	0.081338	0.18866	0.1941	0.09485	0.16435	-1.9229	-2.5875	-2.5812	-2.5146	-2.6375	-2.3292	-2.5938	-3.0479	-2.2708	-2.5875	-2.6229	-2.4667	-2.7896	-2.7875	-2.55	-2.7854	137.788	67.570	-44.150	233.701	158.449	171.194	201.352	264.986	200.964	241.947	237.751	67.496	224.418	199.525	72.140	9.849	0.00022633	0.00066899	9.6467e-05	1370.2	3.1196e-06	6.2714e-07	1364.2	368.64	5.2785e-06	3.1971e-06	421.45	139.92	121.39	41.854	3.5568e-06	51.671	0.00049098	0.00049399	0.00013753	1377.5	5.2882e-06	5.2716e-06	1377.8	373.84	5.3085e-06	5.3228e-06	426.6	142.65	123.79	42.828	5.5177e-06	52.967	118.040	0.744	15.896	-71.138	142.989	171.661	-70.963	-66.510	-35.416	70.734	-66.863	-62.894	-62.306	-57.733	189.009	-57.957	-8191	255	
13838.318	1	1	0	0	0.16999	0.09797	0.21937	0.2508	0.21667	0.25469	0.44426	0.2483	0.038309	0.3028	0.1012	0.30728	0.38539	0.23905	0.1377	0.07906	-2.0979	-2.5875	-2.8271	-2.5083	-2.8146	-2.3875	-2.5771	-2.9729	-2.2646	-2.6833	-2.9896	-2.4375	-2.7062	-2.6729	-2.35	-2.9667	141.032	250.583	74.951	-56.977	201.274	10.371	215.572	220.576	211.829	-9.122	251.197	237.663	271.179	-76.061	210.788	81.426	0.00026252	0.00033032	6.9786e-05	1364.4	4.3438e-06	2.3015e-06	1363.6	369.92	7.0552e-06	6.3512e-06	422.34	140.93	122.09	42.257	4.8499e-06	52.025	0.00051028	0.00051178	0.00014018	1374.5	5.5098e-06	5.3887e-06	1375.2	373.96	5.3476e-06	5.3557e-06	427.41	143.5	124.55	43.113	5.3618e-06	53.244	113.291	-63.055	-64.431	-71.274	127.184	87.104	-71.199	-66.616	-4.048	27.292	-67.051	-62.657	-61.859	-57.816	65.172	-57.888	-8191	255	
13838.438	1	1	0	0	0.1733	0.065584	0.077403	0.20822	0.091188	0.18332	0.16762	0.24003	0.36339	0.19629	0.2829	0.060793	0.18295	0.15928	0.040405	0.10744	-2.0854	-2.3688	-2.5521	-2.5708	-2.6083	-2.5	-2.4313	-2.9188	-2.4104	-2.4375	-2.9604	-2.4542	-2.7958	-2.5646	-2.05	-2.8771	259.743	262.240	159.109	203.979	206.949	68.208	183.443	-63.854	223.967	-16.561	259.605	248.143	128.718	252.189	194.384	222.721	0.00042955	0.00030649	0.00016782	1366.9	5.936e-06	7.9812e-06	1367.7	370.55	3.1335e-06	5.8603e-06	422.48	140.5	122.74	42.224	3.9103e-06	52.5	0.000486	0.00048426	0.0001351	1380.7	5.4124e-06	5.3765e-06	1381	375.16	5.3852e-06	5.3815e-06	428.29	143.3	124.76	43.125	5.1768e-06	53.465	105.716	-11.670	26.964	-71.098	24.089	4.365	-71.193	-66.557	129.493	-17.350	-66.846	-62.751	-62.338	-57.471	17.639	-58.035	-8191	255	
13838.534	1	1	0	0	0.25076	0.10312	0.31492	0.063351	0.11527	0.051833	0.10344	0.10091	0.28224	0.20626	0.052904	0.10388	0.20645	0.19157	0.20142	0.14318	-2.0333	-2.3187	-2.6521	-2.5417	-2.5771	-2.5021	-2.5375	-2.8271	-2.5646	-2.2604	-3	-2.5854	-2.5187	-2.7188	-2.0542	-2.8312	11.614	155.705	-68.559	-51.661	144.254	77.931	166.410	190.030	7.992	75.334	237.879	163.468	242.820	132.320	189.584	-52.224	0.00033822	0.00037799	8.8629e-05	1369.1	2.0984e-06	7.5389e-06	1363.8	369.16	3.8353e-06	6.0158e-06	422.59	140.56	122.64	42.079	3.7872e-06	52.296	0.00047496	0.00047109	0.00012957	1379	5.1268e-06	5.1412e-06	1376.5	374.34	5.1818e-06	5.1912e-06	427.37	143.27	124.59	42.952	5.2124e-06	53.218	104.733	-31.669	267.464	-71.099	36.785	73.411	-71.146	-66.562	71.607	57.333	-66.908	-62.558	-62.195	-57.737	91.866	-58.041	-8191	255	
13838.631	1	1	0	0	0.066139	0.10504	0.36275	0.19084	0.18115	0.183	0.34352	0.14716	0.18406	0.20991	0.1056	0.3357	0.18215	0.073847	0.10645	0.18277	-2.2104	-2.2146	-2.7979	-2.5708	-2.4729	-2.6417	-2.4667	-2.7208	-2.4979	-2.3396	-2.85	-2.6896	-2.6	-2.7146	-2.2854	-2.7208	144.464	126.332	171.166	196.145	155.654	30.530	206.632	234.078	-1.150	-82.809	-81.256	251.674	-46.791	214.038	185.666	38.980	0.00024894	0.00041243	0.00014946	1371.2	5.1983e-06	3.3088e-06	1368	369.72	1.6217e-06	3.6587e-06	422.32	140.7	122.39	42.29	6.7944e-06	51.98	0.00047618	0.00046967	0.00012964	1380	5.0774e-06	5.0245e-06	1380.1	374.7	4.9397e-06	4.8911e-06	427.41	143.42	124.69	43.124	4.8334e-06	53.242	131.603	-17.787	-15.055	-71.017	64.089	-42.443	-71.215	-66.395	251.883	5.034	-66.944	-62.736	-62.120	-57.687	29.133	-57.915	-8191	255	
13838.727	1	1	0	0	0.25011	0.17745	0.24463	0.41233	0.24394	0.14998	0.14246	0.43359	0.12899	0.057763	0.30819	0.24809	0.091254	0.28876	0.18757	0.25601	-2.2062	-2.3688	-2.7792	-2.5375	-2.4729	-2.7292	-2.5083	-2.8063	-2.6583	-2.2833	-2.8854	-2.5625	-2.5	-2.9708	-2.4354	-2.5458	103.424	78.054	-49.923	247.591	197.669	61.775	68.631	275.467	1.132	193.356	220.963	222.009	259.959	269.642	-4.765	196.019	0.00026481	0.0006097	6.6895e-05	1366.3	5.2056e-06	7.4142e-06	1362	369.31	2.6544e-06	3.1318e-06	422.38	140.38	121.48	42.233	5.6604e-06	52.182	0.00043974	0.00044269	0.00012226	1376.9	4.8804e-06	4.8584e-06	1374.3	373.67	5.0132e-06	5.0321e-06	426.29	142.91	124.09	42.997	5.169e-06	53.266	124.934	-11.903	18.761	-71.261	98.287	45.911	-70.950	-66.544	107.510	60.499	-67.303	-62.984	-62.236	-57.613	32.288	-58.164	-8191	255	
13838.823	1	1	0	0	0.10411	0.072126	0.094694	0.16699	0.16236	0.070553	0.37961	0.22809	0.21729	0.074726	0.4387	0.25681	0.063047	0.14026	0.11891	0.083447	-2.2208	-2.2146	-2.4938	-2.6562	-2.3312	-2.7958	-2.4813	-2.7042	-2.675	-2.3542	-2.7708	-2.7229	-2.4458	-2.7333	-2.2208	-2.5	257.192	48.578	160.627	231.491	112.635	-69.495	164.454	-67.254	147.915	221.736	232.274	202.207	194.144	267.392	44.793	218.221	0.00035057	0.00044951	0.00021077	1372.3	4.7522e-06	2.3829e-06	1365.9	371.26	1.6388e-06	3.1599e-06	425.23	141.62	123.34	42.574	3.228e-06	52.32	0.00046683	0.00047058	0.00013294	1381.7	5.2345e-06	5.1683e-06	1381.5	375.74	5.1707e-06	5.0913e-06	429.68	143.94	125.23	43.379	5.1609e-06	53.46	127.022	68.025	-21.320	-71.114	45.850	-1.699	-71.093	-66.382	27.335	48.601	-66.817	-63.038	-62.412	-57.746	43.748	-57.972	-8191	255	
13838.919	1	1	0	0	0.25387	0.041766	0.27423	0.22745	0.055318	0.1281	0.14115	0.079419	0.22506	0.094675	0.24687	0.22097	0.22632	0.25306	0.14485	0.2498	-2.2667	-2.3292	-2.7854	-2.7833	-2.3187	-2.6937	-2.3771	-2.5312	-2.8104	-2.3167	-2.7479	-2.8396	-2.3	-2.9813	-2.5021	-2.6375	-43.164	80.892	216.752	224.608	52.953	256.513	182.677	212.681	10.249	162.059	169.264	171.203	234.949	274.454	96.454	221.480	0.00039079	0.00044042	0.00023243	1370.1	3.416e-06	2.8075e-06	1367.6	371.41	4.3303e-07	2.1153e-06	424.68	141.75	123.23	42.471	4.6528e-06	52.737	0.00047702	0.00047081	0.00013268	1382.8	5.1823e-06	5.1348e-06	1381.4	375.8	5.1148e-06	5.1348e-06	428.52	143.94	125.21	43.342	4.9762e-06	53.689	114.652	-34.908	33.923	-70.886	88.709	0.030	-71.050	-66.599	101.380	98.619	-66.717	-62.847	-62.516	-57.617	75.367	-57.971	-8191	255	
13839.040	1	1	0	0	0.27089	0.13246	0.20449	0.24275	0.15561	0.20777	0.21828	0.18657	0.25482	0.16891	0.094969	0.10147	0.16146	0.28775	0.22051	0.051179	-2.1792	-2.5333	-2.5583	-2.8375	-2.2354	-2.7333	-2.7	-2.5625	-2.9	-2.5521	-2.7292	-2.7771	-2.5958	-2.7292	-2.5667	-2.5542	18.748	136.358	67.867	247.286	230.183	-63.639	190.794	266.864	73.238	243.610	257.196	255.388	63.268	240.623	101.764	237.110	0.00027	0.00021573	7.8244e-05	1375.1	6.485e-06	9.4228e-06	1373.7	371.38	6.7623e-06	2.7723e-06	426.8	141.56	123.46	42.267	1.761e-06	52.166	0.0004583	0.00045907	0.00012613	1384.8	5.0805e-06	5.0547e-06	1385.1	376.18	5.1193e-06	5.1523e-06	429.45	143.85	125.25	43.134	5.2276e-06	53.328	114.710	-59.106	271.604	-71.155	58.732	54.157	-71.141	-66.449	32.335	1.785	-66.995	-62.894	-62.249	-57.631	119.710	-58.496	-8191	255	
13839.134	1	1	0	0	0.36547	0.30309	0.16681	0.34057	0.32739	0.097793	0.18935	0.20074	0.049433	0.11417	0.29206	0.20479	0.34654	0.10814	0.069402	0.26213	-2.2604	-2.3875	-2.2833	-2.9333	-2.2396	-2.6521	-2.7333	-2.5187	-2.6896	-2.3958	-2.5187	-2.8708	-2.3542	-2.6042	-2.6562	-2.3875	273.282	193.775	-30.055	246.139	-56.747	140.213	181.817	223.559	-6.684	187.341	205.718	-76.312	-60.925	175.168	151.259	124.254	0.00038906	0.00028056	9.4431e-05	1366.3	1.8954e-06	6.1426e-06	1372.3	368.4	4.7935e-06	3.1314e-06	422.57	139.5	122.07	42.014	3.1097e-06	51.78	0.00048246	0.00048254	0.00013473	1377.9	5.3452e-06	5.4145e-06	1381.4	373.75	5.5188e-06	5.5851e-06	428.26	142.97	124.3	42.935	5.8573e-06	53.052	86.630	56.294	41.295	-71.211	45.156	80.998	-71.028	-66.386	90.192	19.646	-66.985	-63.161	-62.432	-57.631	95.367	-58.170	-8191	255	
13839.230	1	1	0	0	0.20872	0.13628	0.13655	0.3285	0.18531	0.2582	0.1251	0.06348	0.13245	0.17186	0.13557	0.11977	0.11321	0.082844	0.12682	0.25478	-2.2375	-2.4958	-2.4938	-2.9521	-2.3646	-2.6937	-2.7687	-2.2708	-2.6917	-2.45	-2.375	-2.7542	-2.3667	-2.6688	-2.8354	-2.4625	245.658	69.053	-47.566	217.391	52.976	213.248	111.708	-23.336	58.581	-67.378	229.063	267.087	236.447	-22.687	83.756	220.615	0.00025481	6.9074e-05	0.0001854	1372.1	6.7332e-06	3.9185e-06	1367.7	367.49	2.133e-06	9.4644e-07	423.4	140.85	122.41	41.981	3.9581e-06	52.191	0.00053332	0.00053364	0.0001508	1383.5	5.885e-06	5.8635e-06	1383.2	374.84	5.8715e-06	5.8276e-06	428.93	143.7	125.05	43.087	5.8039e-06	53.471	88.269	-27.329	0.125	-71.115	-70.453	-30.593	-71.268	-66.507	218.081	35.457	-67.101	-63.008	-62.270	-57.593	51.460	-58.145	-8191	255	
13839.326	1	1	0	0	0.11526	0.25937	0.084921	0.44295	0.10617	0.038207	0.26947	0.076694	0.056397	0.1119	0.17323	0.16957	0.21988	0.14596	0.14256	0.46949	-2.1854	-2.4396	-2.2083	-2.9583	-2.2146	-2.5896	-3.0083	-2.3917	-2.6917	-2.5	-2.4271	-2.8729	-2.5146	-2.4708	-2.7604	-2.4146	184.822	-68.717	-80.766	248.876	193.699	-34.548	227.436	242.110	209.253	-2.705	209.846	-50.493	-9.850	-72.394	247.000	220.614	0.00021674	0.00030887	0.00016645	1372.7	5.7659e-06	1.2462e-06	1375.3	371.4	6.2263e-06	4.8142e-06	425.14	141.16	123.45	42.562	2.4495e-06	52.43	0.0005166	0.00052188	0.00014191	1386.8	5.5141e-06	5.451e-06	1386.8	376.75	5.3513e-06	5.2666e-06	430.01	144.22	125.36	43.356	5.4372e-06	53.561	124.294	1.304	-1.456	-71.213	57.317	84.506	-71.097	-66.678	1.438	89.691	-66.982	-63.082	-62.497	-57.500	18.520	-58.321	-8191	255	
13839.422	1	1	0	0	0.29065	0.13714	0.11078	0.28489	0.18336	0.19406	0.057647	0.30036	0.11422	0.41259	0.046925	0.14191	0.22499	0.46212	0.036798	0.14623	-2.2	-2.6583	-2.2229	-3.0042	-2.5479	-2.4833	-2.9583	-2.5375	-2.4708	-2.6667	-2.1917	-2.7396	-2.5083	-2.625	-2.7417	-2.4646	-78.018	-73.378	237.487	269.166	194.683	265.935	213.834	233.397	36.604	1.441	215.468	233.363	216.176	-56.189	-40.296	-4.298	0.00036767	0.00018685	0.00019097	1373.1	7.3351e-06	6.6793e-06	1368.4	371.11	9.2091e-06	5.203e-06	422.78	140.53	123.06	42.202	5.1017e-06	52.2	0.00050441	0.0005054	0.00014299	1388.6	5.6368e-06	5.754e-06	1387.2	376.32	5.8286e-06	5.8218e-06	430.26	143.65	125.44	43.163	5.8433e-06	53.452	104.016	4.758	-24.187	-71.238	80.970	96.116	-71.317	-66.600	21.611	11.103	-66.775	-62.849	-62.451	-57.396	78.135	-58.062	-8191	255	
#DATA ENDS
