BOXY.EXE: ISS Imagent and Oximeter Data Acquisition Program Version 0.80
Ascii Record File

#ACQ INFORMATION
2  Detector Channels 
16  External MUX Channels 
1  Auxiliary Channels 
5000  Waveform (CCF) Frequency (Hz)
1  Waveforms Skipped 
30  Waveforms Averaged 
1  Cycles Averaged 
16  Acquisitions per Waveform 
10.0806  Updata Rate (Hz) 

#FILE INFORMATION
TRUE -- External MUX Channel results are PARSED.
FALSE -- AC DC and Phase are NOT grouped.
TRUE -- Companion Program Settings File CREATED.
FALSE -- AC data not excluded
FALSE -- DC data not excluded
FALSE -- Phase data not excluded
FALSE -- Auxillary Chn. data not excluded
Tab delimiters

#CALIBRATION STATE
TRUE -- Waveform Calibration Values APPLIED.


#AUX CALIBRATION VALUES
Val Type	aux-1	

Term	1.0000e+00	
Factor	0.0000e+00	


#WF CALIBRATION VALUES
A = Detector Channel
Val Type	A-AC1	A-AC2	A-AC3	A-AC4	A-AC5	A-AC6	A-AC7	A-AC8	A-AC9	A-AC10	A-AC11	A-AC12	A-AC13	A-AC14	A-AC15	A-AC16	A-DC1	A-DC2	A-DC3	A-DC4	A-DC5	A-DC6	A-DC7	A-DC8	A-DC9	A-DC10	A-DC11	A-DC12	A-DC13	A-DC14	A-DC15	A-DC16	A-Ph1	A-Ph2	A-Ph3	A-Ph4	A-Ph5	A-Ph6	A-Ph7	A-Ph8	A-Ph9	A-Ph10	A-Ph11	A-Ph12	A-Ph13	A-Ph14	A-Ph15	A-Ph16	

Term	0.00000e+00	0.00000e+00	0.00000e+00	0.00000e+00	0.00000e+00	0.00000e+00	0.00000e+00	0.00000e+00	0.00000e+00	0.00000e+00	0.00000e+00	0.00000e+00	0.00000e+00	0.00000e+00	0.00000e+00	0.00000e+00	0.00000e+00	0.00000e+00	0.00000e+00	0.00000e+00	0.00000e+00	0.00000e+00	0.00000e+00	0.00000e+00	0.00000e+00	0.00000e+00	0.00000e+00	0.00000e+00	0.00000e+00	0.00000e+00	0.00000e+00	0.00000e+00	0.00000e+00	0.00000e+00	0.00000e+00	0.00000e+00	0.00000e+00	0.00000e+00	0.00000e+00	0.00000e+00	0.00000e+00	0.00000e+00	0.00000e+00	0.00000e+00	0.00000e+00	0.00000e+00	0.00000e+00	0.00000e+00	
Factor	1.00000e+00	1.00000e+00	1.00000e+00	1.00000e+00	1.00000e+00	1.00000e+00	1.00000e+00	1.00000e+00	1.00000e+00	1.00000e+00	1.00000e+00	1.00000e+00	1.00000e+00	1.00000e+00	1.00000e+00	1.00000e+00	1.00000e+00	1.00000e+00	1.00000e+00	1.00000e+00	1.00000e+00	1.00000e+00	1.00000e+00	1.00000e+00	1.00000e+00	1.00000e+00	1.00000e+00	1.00000e+00	1.00000e+00	1.00000e+00	1.00000e+00	1.00000e+00	X	X	X	X	X	X	X	X	X	X	X	X	X	X	X	X	

B = Detector Channel
Val Type	B-AC1	B-AC2	B-AC3	B-AC4	B-AC5	B-AC6	B-AC7	B-AC8	B-AC9	B-AC10	B-AC11	B-AC12	B-AC13	B-AC14	B-AC15	B-AC16	B-DC1	B-DC2	B-DC3	B-DC4	B-DC5	B-DC6	B-DC7	B-DC8	B-DC9	B-DC10	B-DC11	B-DC12	B-DC13	B-DC14	B-DC15	B-DC16	B-Ph1	B-Ph2	B-Ph3	B-Ph4	B-Ph5	B-Ph6	B-Ph7	B-Ph8	B-Ph9	B-Ph10	B-Ph11	B-Ph12	B-Ph13	B-Ph14	B-Ph15	B-Ph16	

Term	0.00000e+00	0.00000e+00	0.00000e+00	0.00000e+00	0.00000e+00	0.00000e+00	0.00000e+00	0.00000e+00	0.00000e+00	0.00000e+00	0.00000e+00	0.00000e+00	0.00000e+00	0.00000e+00	0.00000e+00	0.00000e+00	0.00000e+00	0.00000e+00	0.00000e+00	0.00000e+00	0.00000e+00	0.00000e+00	0.00000e+00	0.00000e+00	0.00000e+00	0.00000e+00	0.00000e+00	0.00000e+00	0.00000e+00	0.00000e+00	0.00000e+00	0.00000e+00	-3.80650e+01	-1.32862e+02	-1.25430e+02	-1.81665e+02	-4.66408e+01	-6.69153e+01	-1.55920e+02	-1.62015e+02	-3.32665e+01	-6.84437e+01	-1.70727e+02	-1.71644e+02	-1.80701e+02	-1.77487e+02	-4.82893e+01	-1.50551e+02	
Factor	2.17353e-05	1.62563e-04	4.39496e-05	1.54653e-01	1.72098e-06	1.76303e-06	1.62475e-01	5.94268e-02	1.39045e-06	1.85064e-06	8.19659e-02	2.80416e-02	2.61055e-02	8.93581e-03	1.65438e-06	1.28829e-02	1.84756e-05	4.85871e-05	1.36813e-05	7.94789e-02	4.32069e-07	5.65725e-07	7.86197e-02	3.06710e-02	4.39986e-07	5.82689e-07	4.11320e-02	1.40425e-02	1.36022e-02	4.66921e-03	4.79335e-07	6.49530e-03	X	X	X	X	X	X	X	X	X	X	X	X	X	X	X	X	



#DISTANCE SETTINGS
A = Detector Channel
A-1	A-2	A-3	A-4	A-5	A-6	A-7	A-8	A-9	A-10	A-11	A-12	A-13	A-14	A-15	A-16	

2.5000e+00	3.0000e+00	2.5000e+00	3.0000e+00	2.0000e+00	3.0000e+00	1.5000e+00	3.0000e+00	3.0000e+00	3.0000e+00	3.0000e+00	3.0000e+00	3.0000e+00	3.0000e+00	1.5000e+00	3.0000e+00	

B = Detector Channel
B-1	B-2	B-3	B-4	B-5	B-6	B-7	B-8	B-9	B-10	B-11	B-12	B-13	B-14	B-15	B-16	

1.0000e+01	1.0000e+01	1.0000e+01	1.4400e+00	1.0000e+01	1.0000e+01	1.5100e+00	1.9400e+00	1.0000e+01	1.0000e+01	1.9900e+00	2.4900e+00	2.4100e+00	2.9000e+00	1.0000e+01	2.9800e+00	




#DATA BEGINS
time	group	step	mark	flag	A-AC1	A-AC2	A-AC3	A-AC4	A-AC5	A-AC6	A-AC7	A-AC8	A-AC9	A-AC10	A-AC11	A-AC12	A-AC13	A-AC14	A-AC15	A-AC16	A-DC1	A-DC2	A-DC3	A-DC4	A-DC5	A-DC6	A-DC7	A-DC8	A-DC9	A-DC10	A-DC11	A-DC12	A-DC13	A-DC14	A-DC15	A-DC16	A-Ph1	A-Ph2	A-Ph3	A-Ph4	A-Ph5	A-Ph6	A-Ph7	A-Ph8	A-Ph9	A-Ph10	A-Ph11	A-Ph12	A-Ph13	A-Ph14	A-Ph15	A-Ph16	B-AC1	B-AC2	B-AC3	B-AC4	B-AC5	B-AC6	B-AC7	B-AC8	B-AC9	B-AC10	B-AC11	B-AC12	B-AC13	B-AC14	B-AC15	B-AC16	B-DC1	B-DC2	B-DC3	B-DC4	B-DC5	B-DC6	B-DC7	B-DC8	B-DC9	B-DC10	B-DC11	B-DC12	B-DC13	B-DC14	B-DC15	B-DC16	B-Ph1	B-Ph2	B-Ph3	B-Ph4	B-Ph5	B-Ph6	B-Ph7	B-Ph8	B-Ph9	B-Ph10	B-Ph11	B-Ph12	B-Ph13	B-Ph14	B-Ph15	B-Ph16	aux-1	digaux	

786.908	1	1	0	768	0.25081	0.035102	0.12428	0.057888	0.091464	0.18481	0.25321	0.20408	0.10492	0.28152	0.27106	0.2357	0.13375	0.17451	0.17936	0.3533	-2.7104	-3.3083	-2.825	-3.2313	-2.9708	-2.9729	-3.4354	-3.0979	-3.1292	-3.3937	-2.925	-3.3	-3.3125	-3.0396	-3.1625	-2.8625	21.896	-18.452	231.845	302.050	29.723	213.390	311.180	299.229	330.100	-10.861	229.361	300.119	0.609	296.744	119.339	280.253	0.00030242	0.00057352	0.00013588	825.85	5.3712e-06	4.6991e-06	703.72	307.73	3.6385e-06	4.4531e-06	279.41	125.57	144.71	72.034	3.9674e-06	60.484	0.00047602	0.00073275	0.00013961	838.88	5.138e-06	5.3991e-06	711.65	313.16	4.9379e-06	5.0548e-06	283.83	128.22	148.06	73.936	6.1195e-06	61.787	229.274	67.351	74.913	-8.248	152.150	123.197	-9.825	-3.620	176.020	123.663	-7.199	-3.937	-1.040	1.362	148.355	-2.075	-8191	255	
787.004	1	1	0	0	0.12118	0.16636	0.04189	0.34211	0.081204	0.225	0.32777	0.25555	0.25497	0.13205	0.066051	0.10733	0.43819	0.24363	0.070298	0.11316	-2.5729	-3.1833	-2.8021	-3.3042	-3.275	-2.8854	-3.3396	-2.9854	-2.9833	-3.1792	-2.9396	-3.1042	-3.2687	-3.075	-3.2583	-3.15	269.489	330.122	260.720	252.326	183.313	167.123	265.588	264.975	228.016	292.763	287.723	91.226	-9.310	286.313	220.826	9.816	0.00029031	0.00059586	0.00011726	836.37	4.5116e-06	5.4707e-06	711.5	310.59	4.27e-06	5.9688e-06	284.2	127.59	147.07	73.146	4.3043e-06	61.684	0.00047775	0.00082446	0.00014046	847.3	5.0039e-06	5.7126e-06	720.39	316.82	5.2496e-06	5.85e-06	288.66	130.41	150.43	75.149	6.0676e-06	62.692	229.571	69.413	69.082	-8.366	152.387	116.882	-9.847	-3.627	185.900	125.453	-7.502	-3.667	-1.174	1.459	149.794	-1.896	-8191	255	
787.100	1	1	0	0	0.061088	0.18214	0.1153	0.17517	0.27654	0.16986	0.2265	0.096893	0.066109	0.048109	0.1961	0.49303	0.1744	0.4141	0.13364	0.27416	-2.6458	-3.3187	-2.8375	-3.3729	-3.1604	-2.9188	-3.5021	-3.1854	-2.8958	-3.2729	-2.9437	-3.1646	-3.5	-3.1146	-3.0833	-3.2708	40.497	99.855	-18.164	-9.189	272.072	101.772	292.336	232.394	32.205	32.671	104.409	307.189	283.550	3.104	104.647	292.810	0.00030612	0.00066846	0.0001166	846.86	4.4605e-06	5.0927e-06	720.66	314.85	3.9137e-06	4.6199e-06	287.21	128.69	147.83	73.33	4.9395e-06	61.787	0.00047548	0.00076241	0.00014482	857.38	5.2937e-06	5.715e-06	729	320.41	5.4842e-06	5.334e-06	291.34	131.46	151.38	75.433	6.3102e-06	62.92	233.738	75.970	59.145	-8.184	162.745	132.294	-9.781	-3.595	171.126	126.321	-7.162	-3.882	-1.017	1.648	162.970	-2.127	-8191	255	
787.196	1	1	0	0	0.13955	0.21623	0.15384	0.024993	0.085378	0.13721	0.1942	0.086919	0.12801	0.051705	0.21405	0.25566	0.17032	0.16195	0.11475	0.26803	-2.5896	-3.2125	-2.8271	-3.1396	-3.4021	-3.125	-3.3708	-3.1542	-2.8958	-3.4396	-3.1979	-3.0167	-3.2479	-2.9146	-3.15	-3.2562	171.770	-7.216	221.868	190.446	108.270	21.611	276.447	331.300	95.415	212.332	226.036	243.565	315.774	259.897	80.406	283.105	0.00030644	0.00066317	0.00015145	842.67	5.3042e-06	5.8547e-06	719.5	313.48	3.449e-06	4.5141e-06	285.69	127.74	147.22	73.141	5.4386e-06	61.299	0.00048983	0.00081252	0.00014006	856.37	4.9058e-06	5.5005e-06	726.44	319.5	5.3183e-06	5.5161e-06	290.28	130.51	150.49	75.086	5.9877e-06	62.605	231.388	69.482	62.045	-8.302	176.062	119.405	-9.856	-3.516	167.402	119.383	-7.014	-3.818	-1.077	1.610	160.087	-1.973	-8191	255	
787.290	1	1	0	0	0.28077	0.2454	0.1307	0.26202	0.11356	0.10034	0.25366	0.18393	0.036379	0.26757	0.22617	0.15087	0.20814	0.22214	0.18885	0.30365	-2.4542	-3.4125	-3.0187	-3.1396	-3.2229	-2.8958	-3.4458	-3.1917	-2.8792	-3.2958	-3.2083	-2.9229	-3.3375	-3.0125	-3.1479	-3.2	134.937	48.994	-2.838	23.105	2.958	40.468	-16.056	338.080	40.675	236.730	283.962	288.678	337.376	310.182	159.585	140.841	0.00031956	0.00058138	0.00013823	843.57	4.6173e-06	6.1382e-06	721.12	316.12	4.2211e-06	6.1463e-06	290.34	129.98	149.71	74.43	4.6514e-06	62.658	0.00048094	0.00074561	0.0001369	857.64	4.913e-06	5.5948e-06	729.91	322.02	5.278e-06	5.4785e-06	294.68	132.68	152.95	76.46	5.8649e-06	63.877	232.857	71.604	70.901	-8.341	164.412	124.780	-9.874	-3.473	173.002	115.332	-6.923	-4.012	-0.909	1.601	157.143	-2.024	-8191	255	
787.388	1	1	0	0	0.073834	0.22866	0.22668	0.13215	0.18965	0.075869	0.11626	0.21673	0.32597	0.087562	0.27779	0.26953	0.17352	0.21812	0.071398	0.16261	-2.4542	-3.2396	-2.9042	-3.0771	-3.3604	-2.9896	-3.1354	-3.4062	-3.0187	-3.1813	-3.0146	-3.0479	-3.4083	-2.9938	-2.8479	-3.2958	268.786	168.355	124.409	335.635	92.640	8.505	301.115	215.023	280.747	27.843	279.311	291.965	317.496	307.320	227.548	312.728	0.00034096	0.00057044	0.00015828	852.51	4.9032e-06	6.3541e-06	730.62	319.85	3.5142e-06	4.922e-06	293.29	132.11	151.08	75.392	4.7455e-06	63.449	0.00049938	0.00087568	0.00014759	867.16	5.2109e-06	5.7598e-06	738.89	325.93	5.4852e-06	5.5574e-06	298.01	134.62	154.82	77.404	6.2014e-06	64.703	227.899	78.956	68.008	-8.264	152.470	126.365	-9.698	-3.368	179.831	112.610	-6.975	-4.057	-1.027	1.744	163.258	-2.146	-8191	255	
787.507	1	1	0	0	0.18596	0.054497	0.077653	0.40117	0.21747	0.011877	0.31882	0.26909	0.13471	0.34834	0.14471	0.28566	0.14232	0.23557	0.04603	0.20234	-2.4813	-3.1125	-3.1667	-2.8917	-3.3646	-2.9792	-3.0958	-3.1854	-2.7167	-3.1708	-3.275	-2.9479	-3.325	-3.2562	-2.8396	-3.4083	69.911	57.572	137.809	330.789	165.427	74.845	257.536	316.816	229.646	194.902	311.006	277.405	71.692	295.315	-1.625	300.531	0.00033517	0.00072092	0.00015336	862.62	4.3116e-06	6.1143e-06	730.21	319.26	3.6148e-06	4.434e-06	290.6	131.27	150.88	75.046	4.3413e-06	62.95	0.00051235	0.00072931	0.00014804	872.55	4.9175e-06	5.827e-06	739.39	325.88	5.4732e-06	5.3984e-06	296.61	134.02	154.29	77.137	6.2743e-06	64.242	228.848	47.380	58.188	-8.183	160.611	120.183	-9.755	-3.408	177.488	116.219	-7.321	-3.849	-1.012	1.477	157.070	-1.713	-8191	255	
787.603	1	1	0	0	0.11227	0.043877	0.25404	0.050115	0.091127	0.19637	0.15945	0.33831	0.064597	0.1158	0.045448	0.23822	0.15405	0.23149	0.048877	0.10184	-2.5042	-3.075	-3.0396	-3.025	-3.1854	-3.1562	-2.8688	-3.4417	-2.9792	-3.1021	-3.2792	-2.9354	-3.4729	-3.15	-2.8563	-3.3521	15.636	-1.350	287.485	307.026	151.153	144.935	267.410	290.763	129.937	39.664	90.686	305.904	331.774	291.025	101.657	113.319	0.00031188	0.00049305	0.00015723	852.96	5.1718e-06	5.771e-06	722.34	316.37	3.2278e-06	5.6561e-06	287.92	129.47	149.67	74.306	3.4664e-06	62.288	0.00050496	0.00054438	0.00021183	865.91	4.8482e-06	5.5913e-06	732.43	322.92	5.2138e-06	5.107e-06	293.16	132.54	152.83	76.434	6.2034e-06	63.636	226.805	51.416	73.070	-8.283	162.398	128.494	-9.800	-3.498	173.125	122.078	-7.054	-3.660	-1.031	1.670	162.534	-2.072	-8191	255	
787.699	1	1	0	0	0.1776	0.064561	0.21404	0.11198	0.10155	0.15098	0.28434	0.071726	0.20522	0.033864	0.31143	0.15097	0.27608	0.10727	0.012203	0.20258	-2.2042	-3.2583	-3.1312	-2.8375	-3.3146	-3.0563	-3.1229	-3.4333	-2.9708	-3.0979	-3.3333	-2.7812	-3.275	-3.4125	-2.9104	-3.6042	157.474	213.187	113.038	305.615	110.889	327.813	288.691	180.278	59.288	264.645	217.868	225.935	263.645	51.605	60.022	304.517	0.0003118	0.00049908	0.00012919	852.56	5.7544e-06	5.3562e-06	720.89	317.78	3.4549e-06	4.724e-06	291.76	131.17	151.29	75.27	4.6073e-06	63.338	0.00048552	0.00047727	0.00020713	863.41	5.0966e-06	5.636e-06	732.63	324.13	5.3605e-06	5.4481e-06	296.22	134.01	154.51	77.414	6.467e-06	64.596	230.392	50.197	65.149	-8.346	153.848	125.351	-9.986	-3.544	188.206	117.614	-7.136	-3.798	-1.009	1.683	155.807	-2.117	-8191	255	
787.796	1	1	0	0	0.23067	0.090845	0.23195	0.25149	0.23301	0.24543	0.10635	0.14637	0.015931	0.12698	0.14619	0.15885	0.22883	0.28732	0.15658	0.013916	-2.6292	-3.0896	-3.2792	-3.0292	-3.0167	-3.1542	-2.9333	-3.5229	-3.1333	-2.8854	-3.3792	-3.2333	-3.3438	-3.4313	-2.8125	-3.4125	145.620	47.242	38.270	296.655	272.316	122.406	253.790	232.921	10.101	-2.386	188.085	164.280	59.596	-7.478	261.377	82.863	0.00032643	0.00050357	0.00016845	857.73	5.5673e-06	5.0018e-06	732.11	320.96	4.0381e-06	6.4289e-06	292.55	131.57	151.52	75.456	4.8531e-06	63.472	0.0005167	0.00051462	0.00025122	870.42	5.3541e-06	5.5158e-06	739.78	327.12	5.4723e-06	6.1377e-06	297.71	134.65	154.94	77.558	6.6907e-06	64.721	226.817	66.720	76.208	-8.161	153.917	135.381	-9.884	-3.655	163.254	129.987	-7.182	-3.898	-0.739	1.506	168.842	-1.788	-8191	255	
787.892	1	1	0	0	0.066186	0.18475	0.14232	0.14668	0.099506	0.25513	0.078517	0.086158	0.12416	0.11483	0.16571	0.14794	0.078369	0.055417	0.097558	0.1437	-2.6354	-2.9833	-3.5771	-3.1562	-3.0792	-3.3458	-3.0625	-3.3521	-3.1229	-3.0563	-3.5438	-3.0896	-3.3125	-3.5167	-2.8208	-3.4479	222.953	153.432	175.227	327.755	138.241	215.476	253.785	320.530	119.464	73.284	52.676	306.764	274.080	243.260	139.734	227.845	0.00033843	0.00058113	0.00013521	856.32	3.3664e-06	5.1929e-06	727.1	318.67	3.4677e-06	5.0652e-06	290.06	130.41	150.55	74.662	3.8465e-06	62.361	0.00051035	0.00054357	0.00021525	868	4.8023e-06	5.5524e-06	734.52	324.95	5.4577e-06	5.9823e-06	294.85	133.33	153.75	76.792	6.0945e-06	63.633	229.266	71.779	93.169	-8.179	158.102	120.913	-9.682	-3.413	172.005	125.124	-7.058	-4.002	-0.911	1.820	167.035	-2.101	-8191	255	
787.988	1	1	0	0	0.087833	0.24023	0.058733	0.090307	0.1248	0.059114	0.22241	0.019528	0.087324	0.078942	0.27499	0.21982	0.30258	0.32418	0.068443	0.14848	-2.7854	-2.9667	-3.4229	-3.0396	-3.2333	-3.375	-2.9562	-3.4	-3.0292	-2.8354	-3.4688	-2.9188	-3.3667	-3.5312	-2.7833	-3.4271	116.847	319.151	291.410	189.705	8.301	117.309	262.167	-12.963	276.758	174.803	309.691	-15.771	265.081	317.970	324.686	190.461	0.00029563	0.00049309	0.00014013	847.82	5.0967e-06	5.5345e-06	718.4	315.46	3.9778e-06	5.0835e-06	288.18	129.27	148.78	74.019	4.7067e-06	62.322	0.00050127	0.0004963	0.00023834	859.25	5.0129e-06	5.3956e-06	726.53	321.34	5.542e-06	5.589e-06	291.7	132.01	152.21	76.231	6.0646e-06	63.624	226.184	55.419	86.931	-8.292	167.541	131.364	-9.636	-3.686	195.140	114.979	-7.081	-3.938	-0.905	1.454	164.707	-2.132	-8191	255	
788.084	1	1	0	0	0.041665	0.37385	0.24917	0.11846	0.16466	0.14483	0.17143	0.22151	0.22097	0.11097	0.069021	0.11528	0.054601	0.24113	0.23019	0.34877	-2.8646	-2.8063	-3.2792	-3.1958	-3.0187	-3.4042	-2.9437	-3.1813	-3.1312	-2.8292	-3.3958	-3.2687	-3.0208	-3.5604	-3.0021	-3.2083	176.384	241.934	174.655	286.982	266.371	51.720	135.941	293.670	309.227	62.218	328.797	282.047	306.675	284.468	37.920	273.021	0.00031938	0.0005441	0.00016073	850.61	4.7631e-06	4.9471e-06	723.7	317.96	4.0757e-06	5.6158e-06	290.74	131.18	151.48	75.545	4.8538e-06	63.52	0.00050415	0.00051158	0.00021334	862.34	5.1227e-06	5.3178e-06	732.71	324.41	7.7538e-06	5.6861e-06	296.45	134.23	154.72	77.6	6.505e-06	64.801	227.147	55.241	86.572	-8.457	155.821	122.367	-9.760	-3.620	179.054	118.933	-7.136	-3.772	-0.958	1.529	148.960	-1.866	-8191	255	
788.203	1	1	0	0	0.15765	0.17561	0.19609	0.056508	0.12389	0.12767	0.18528	0.12661	0.10998	0.061308	0.091047	0.14001	0.060937	0.50604	0.13244	0.20687	-2.9125	-2.8896	-3.3083	-3.2208	-3.0125	-3.3937	-3.0458	-3.2021	-3.3417	-2.8521	-3.3542	-3.1771	-3.075	-3.3812	-3.1208	-3.2604	231.233	54.653	52.377	53.850	141.481	181.615	35.391	314.183	276.523	184.866	42.381	310.063	285.284	314.065	221.457	32.909	0.0003416	0.00051208	0.00016382	865.76	5.9478e-06	5.2934e-06	731.43	322.87	3.2053e-06	4.1956e-06	293.65	132.1	151.74	75.319	5.6994e-06	63.36	0.00050038	0.00052585	0.00024393	874.79	5.3307e-06	5.5182e-06	740.82	327.61	8.126e-06	5.6484e-06	297.98	134.71	155.06	77.538	6.477e-06	64.56	231.908	53.440	71.273	-8.333	153.013	121.925	-9.735	-3.497	166.574	109.301	-7.042	-3.940	-0.689	1.606	167.884	-2.049	-8191	255	
788.299	1	1	0	0	0.1422	0.12691	0.062833	0.14362	0.20612	0.11288	0.075647	0.22807	0.23143	0.23161	0.29793	0.078498	0.024292	0.097241	0.21052	0.17529	-2.8042	-2.8792	-3.1312	-3.35	-2.8958	-3.4208	-3.175	-3.2562	-3.3625	-2.9917	-3.2646	-3.45	-2.8792	-3.6312	-2.8104	-3.1562	293.670	249.884	238.204	277.586	124.313	0.186	7.374	281.253	33.734	304.158	325.396	327.813	317.523	12.402	134.118	183.686	0.00030039	0.00051286	0.00014667	855.09	6.8689e-06	4.8153e-06	727.47	319.59	3.4565e-06	5.5253e-06	288.84	130.26	150.1	74.477	4.2128e-06	62.383	0.00049553	0.000513	0.00018709	867.73	5.2325e-06	5.3449e-06	734.16	325.08	8.654e-06	5.6751e-06	294.76	133	153.38	76.666	6.3941e-06	63.612	229.843	53.050	65.831	-8.256	143.141	109.373	-9.721	-3.418	149.780	126.971	-7.046	-3.644	-1.001	1.654	161.109	-1.848	-8191	255	
788.395	1	1	0	0	0.19929	0.062275	0.23915	0.17168	0.22833	0.24268	0.23929	0.34629	0.072104	0.16055	0.21164	0.16077	0.34489	0.18818	0.40725	0.15946	-2.9813	-2.9021	-3.1	-3.4437	-2.9604	-3.3021	-3.2521	-3.0646	-3.4021	-2.9375	-3.2125	-3.175	-3.1188	-3.4771	-3.2104	-3.0771	309.634	62.656	107.061	-15.347	-8.181	231.719	274.195	164.396	105.960	66.425	327.906	117.482	304.301	323.152	253.340	274.583	0.0003238	0.00050701	0.00013717	844	6.9558e-06	5.4101e-06	714.97	314.94	4.078e-06	4.5315e-06	288.43	129.03	148.49	74.133	4.2243e-06	62.401	0.00049349	0.00050095	0.00013462	857.68	5.1524e-06	4.9866e-06	724.09	320.83	7.8373e-06	5.8791e-06	292.11	131.97	152.26	76.27	6.0376e-06	63.586	227.405	63.436	71.921	-8.223	157.995	130.979	-9.530	-3.404	167.813	132.308	-7.101	-3.824	-0.846	1.567	171.936	-1.944	-8191	255	
788.469	1	1	0	0	0.049594	0.11427	0.12576	0.17866	0.066136	0.10119	0.35819	0.10231	0.061789	0.10881	0.24177	0.1397	0.2524	0.28008	0.1589	0.18489	-3.0125	-3.0563	-3.3375	-3.3812	-2.7979	-3.3146	-3.3104	-3.0958	-3.4104	-2.9188	-3.1667	-3.4646	-3.05	-3.3667	-3.0125	-3.1229	329.467	66.008	257.070	-3.163	301.217	313.490	14.050	262.923	165.882	71.889	4.653	112.091	264.701	291.212	10.163	246.187	0.00030445	0.00045141	0.00012087	851.32	6.5796e-06	5.5137e-06	723.95	319.83	2.8684e-06	5.855e-06	291.89	131.18	151.08	75.182	5.9403e-06	63.246	0.00048933	0.00049103	0.00013468	863.32	5.3478e-06	5.2011e-06	732.28	325.06	8.61e-06	5.8087e-06	296.46	133.91	154.35	77.425	7.3668e-06	64.646	229.178	51.769	61.470	-8.310	157.210	128.635	-9.776	-3.652	166.957	122.247	-6.977	-3.925	-1.050	1.587	171.860	-1.620	-8191	255	
788.588	1	1	0	0	0.10637	0.1981	0.20258	0.29172	0.021826	0.20503	0.11588	0.1528	0.17353	0.1752	0.20438	0.13355	0.37108	0.16918	0.19397	0.30917	-3.0167	-2.9333	-3.1854	-3.3167	-2.9083	-3.0604	-3.2125	-2.9979	-3.3167	-3.0458	-3.0604	-3.3271	-3.1958	-3.1542	-3.1063	-2.7562	133.489	289.924	328.252	244.719	105.029	50.186	94.907	307.183	232.350	122.570	291.558	274.696	321.494	319.068	338.567	268.965	0.00032937	0.00063537	0.00016359	858.28	6.2752e-06	4.5718e-06	726.55	318.24	2.9173e-06	5.2549e-06	290.4	130.01	149.42	74.683	6.0483e-06	62.176	0.00049719	0.00055744	0.00014705	871.12	5.4432e-06	5.4168e-06	736.26	325.04	7.7172e-06	5.9495e-06	294.72	133.03	153.04	76.658	9.7924e-06	63.374	227.500	49.935	60.831	-8.166	152.361	129.143	-9.657	-3.430	165.487	124.901	-6.944	-3.719	-0.858	1.551	168.575	-2.130	-8191	255	
788.684	1	1	0	0	0.13758	0.1614	0.045755	0.15246	0.24077	0.17952	0.14444	0.21687	0.21104	0.15408	0.25086	0.037577	0.12461	0.50533	0.22234	0.080049	-2.9625	-2.9604	-2.7854	-3.4667	-3.0229	-3.0938	-3.3812	-3.0917	-3.2812	-3.2021	-2.8688	-3.3583	-2.9271	-3.2792	-3.3375	-2.8792	129.978	166.396	126.388	171.119	323.351	322.112	-9.355	301.413	327.636	330.078	-5.893	199.562	128.880	306.049	305.133	274.639	0.00031718	0.00054162	0.00011948	840.78	5.3585e-06	5.5511e-06	711.01	311.31	3.6984e-06	4.188e-06	280.71	126.44	145.85	72.602	5.4433e-06	60.485	0.0005075	0.00049984	0.00014916	853.52	5.2559e-06	5.3119e-06	718.57	317.85	8.3772e-06	5.8087e-06	285.6	129.28	149.27	74.573	8.7269e-06	61.555	231.179	51.784	73.547	-8.367	144.948	132.692	-10.030	-3.347	149.699	119.990	-7.029	-3.873	-1.161	1.491	172.839	-1.899	-8191	255	
788.780	1	1	0	0	0.24176	0.2243	0.1015	0.1499	0.082011	0.12027	0.21807	0.085939	0.20274	0.15933	0.11558	0.162	0.084614	0.26995	0.25534	0.072291	-2.8042	-3.1521	-2.8854	-3.3646	-2.9792	-2.9521	-3.2042	-2.9146	-3.0021	-3.225	-2.9188	-3.3479	-2.9583	-3.2583	-3.3854	-2.8771	55.297	141.695	250.115	-4.623	223.797	294.085	265.711	191.086	-19.589	220.458	28.766	128.768	90.632	283.127	235.587	166.721	0.00029765	0.00054099	0.0001351	824.42	4.6263e-06	5.0668e-06	698.29	305.57	2.6006e-06	4.9121e-06	276.7	125.25	144.8	72.34	5.0966e-06	60.303	0.00047894	0.00051057	0.00013633	837.29	5.1596e-06	5.4392e-06	705.4	311.14	6.1341e-06	6.809e-06	282.06	128.03	148.32	74.186	9.6896e-06	61.591	228.751	65.526	63.162	-8.233	170.970	122.938	-9.442	-3.616	163.080	121.063	-7.102	-3.832	-0.888	1.668	166.926	-1.772	-8191	255	
788.900	1	1	0	0	0.18188	0.20766	0.076462	0.071683	0.23429	0.089919	0.16495	0.30205	0.24818	0.25948	0.2383	0.11829	0.23205	0.36032	0.083661	0.13843	-2.5708	-3.3104	-2.7375	-3.4958	-3.0333	-3.1063	-3.3604	-3.0479	-3.0021	-3.2521	-2.8312	-3.3333	-3.2396	-3.1167	-3.3937	-2.9729	-4.959	-13.140	195.613	-2.370	241.653	43.877	317.760	259.758	1.657	278.179	25.993	105.370	242.164	320.860	232.811	311.301	0.00030355	0.0006122	0.00014677	830.67	4.7561e-06	4.92e-06	707.49	310.27	4.1944e-06	5.8361e-06	281.61	126.87	146.54	73.114	6.2844e-06	61.227	0.00047975	0.00051978	0.00015181	843.62	5.264e-06	5.464e-06	713.96	315.43	5.2175e-06	1.0136e-05	286.56	129.8	150.15	75.139	8.633e-06	62.458	228.319	55.851	77.581	-8.075	144.119	114.581	-9.830	-3.478	172.118	124.514	-6.857	-3.832	-0.715	1.566	168.313	-2.022	-8191	255	
788.997	1	1	0	0	0.065783	0.16821	0.04167	0.027443	0.26966	0.31737	0.27559	0.24954	0.26617	0.32732	0.21282	0.16579	0.22862	0.20108	0.10557	0.096713	-2.6646	-3.1562	-2.8042	-3.3458	-3.0938	-2.775	-3.3812	-3.1604	-3.0563	-3.3583	-3.0042	-3.3604	-3.2104	-2.9583	-3.3563	-3.2625	306.888	271.802	2.186	289.463	199.988	25.278	319.701	326.828	183.568	286.620	106.514	16.666	19.097	268.221	268.913	172.632	0.00032956	0.00050961	0.00013981	832.58	5.3866e-06	5.5217e-06	706	309.69	3.2378e-06	5.4851e-06	281.03	126.19	146.1	72.667	5.1047e-06	60.292	0.00050735	0.00054276	0.00015275	847.73	5.2451e-06	5.4204e-06	714.39	315.68	5.388e-06	9.0414e-06	286.21	129.11	149.34	74.663	9.4129e-06	61.641	226.702	62.230	55.531	-8.216	155.832	125.997	-10.017	-3.713	174.155	108.009	-6.798	-3.891	-0.871	1.630	173.909	-1.914	-8191	255	
789.068	1	1	0	0	0.091602	0.23207	0.34343	0.09944	0.023872	0.14821	0.25227	0.075395	0.18877	0.22898	0.22232	0.043204	0.46722	0.33847	0.10884	0.048446	-2.6375	-3.2896	-2.7	-3.4479	-3.1333	-2.9	-3.4813	-3.0854	-3.0896	-3.4771	-3.0208	-3.4562	-3.2646	-3.1646	-3.2146	-3.1271	149.207	329.557	115.411	321.581	57.130	322.966	293.102	94.940	139.347	320.671	-7.031	289.266	24.031	322.522	12.706	51.799	0.00030404	0.00042942	0.00012756	827.2	5.4307e-06	4.7328e-06	698.46	305.71	4.0279e-06	6.0704e-06	275.15	123.48	143.21	70.967	5.3371e-06	58.823	0.0004893	0.00049285	0.00015024	839.95	5.9518e-06	5.5653e-06	706.45	311.6	5.4274e-06	9.8268e-06	279.74	126.12	146.16	72.97	8.5511e-06	59.982	228.301	58.707	70.470	-8.103	164.936	119.238	-9.794	-3.609	170.449	115.781	-7.058	-3.765	-0.908	1.536	152.817	-2.036	-8191	255	
789.189	1	1	0	0	0.037408	0.10169	0.084381	0.26321	0.19698	0.30369	0.16374	0.16969	0.29329	0.20317	0.18578	0.29497	0.083819	0.22889	0.098548	0.14099	-2.5771	-3.2854	-2.7708	-3.2979	-3.1937	-2.9396	-3.4917	-3.0563	-2.9125	-3.2854	-3.0583	-3.3292	-3.35	-3.1562	-3.45	-3.1625	15.064	-14.119	227.587	251.118	191.146	332.233	264.839	331.434	130.527	-12.067	249.347	311.568	310.546	312.053	184.703	144.672	0.00031867	0.00046722	0.00013653	814.66	5.4227e-06	5.2606e-06	684.58	302.18	3.8849e-06	5.6943e-06	274.38	123.02	142.87	70.834	4.5929e-06	59.469	0.00047652	0.00050298	0.00014893	824.57	8.104e-06	5.5924e-06	694.06	307.65	5.2038e-06	8.5194e-06	278.14	125.47	146.08	72.906	9.3031e-06	60.452	231.052	54.911	72.160	-8.308	173.443	135.477	-9.584	-3.434	175.665	123.307	-7.158	-3.828	-0.898	1.729	160.698	-2.141	-8191	255	
789.283	1	1	0	0	0.22624	0.096356	0.022731	0.14603	0.24287	0.035791	0.31617	0.1886	0.17444	0.10323	0.11963	0.11741	0.19356	0.31855	0.12233	0.22455	-2.4646	-3.2562	-3.0438	-3.1479	-3.2042	-2.8625	-3.3375	-3.0958	-2.9437	-3.3667	-2.9688	-3.1375	-3.3604	-2.8833	-2.8563	-3.2188	54.913	332.909	21.292	284.991	329.179	122.496	294.119	322.710	197.561	227.118	128.067	228.732	327.401	327.685	-7.024	285.648	0.00028583	0.00044038	0.00014843	821.32	4.0763e-06	4.6433e-06	691.49	304.21	4.7007e-06	5.5633e-06	276.32	124.17	143.59	71.638	5.2965e-06	59.926	0.00047771	0.00048273	0.00014613	831.18	7.7286e-06	5.9224e-06	700.2	309.79	5.608e-06	1.0076e-05	280.61	127.07	147.28	73.575	7.5126e-06	60.932	230.007	58.317	74.630	-8.246	153.996	129.324	-9.593	-3.582	176.159	104.675	-7.230	-3.940	-0.710	1.723	158.578	-1.949	-8191	255	
789.379	1	1	0	0	0.12187	0.072162	0.11661	0.085425	0.24457	0.13131	0.055081	0.30993	0.15623	0.064299	0.35045	0.19332	0.082623	0.13166	0.074907	0.2376	-2.5021	-3.2333	-2.9104	-3.0187	-3.2833	-3.05	-3.5062	-3.0563	-2.8167	-3.5521	-2.9229	-3.1542	-3.4708	-3.0583	-3.0312	-3.2896	117.768	314.416	286.977	260.271	223.444	64.070	268.956	272.624	8.148	163.660	-20.547	275.557	77.107	300.351	270.459	303.066	0.00030432	0.00045097	0.00015859	820.33	3.2785e-06	4.9241e-06	693.1	303.25	3.7304e-06	4.4375e-06	275.24	123.32	142.99	70.962	5.5041e-06	58.874	0.00048329	0.00049093	0.00015061	830.94	8.2057e-06	5.8234e-06	700.47	309.46	5.3632e-06	8.5934e-06	279.21	125.95	146.28	72.996	6.3092e-06	60.195	231.485	56.955	60.366	-8.267	156.497	138.790	-9.892	-3.306	178.219	102.099	-7.075	-3.809	-0.869	1.598	169.421	-1.771	-8191	255	
789.500	1	1	0	0	0.23243	0.15295	0.12739	0.11026	0.10119	0.18244	0.15486	0.21242	0.023157	0.22982	0.43146	0.059857	0.27469	0.2031	0.096241	0.1868	-2.3854	-3.2375	-3.1521	-3.2062	-3.2083	-2.9479	-3.3021	-3.3021	-2.9792	-3.3104	-3.1937	-3.1562	-3.5083	-3.1	-3.1042	-3.3208	288.641	89.199	92.186	223.653	143.073	56.917	27.962	250.484	16.558	20.055	237.435	272.931	325.003	315.635	262.264	335.923	0.00030779	0.00054533	0.00015516	814.35	4.7081e-06	3.9122e-06	682.93	299.59	3.2551e-06	4.6327e-06	271.62	121.66	142.01	70.224	5.2013e-06	58.389	0.00048833	0.00047474	0.0001442	825.46	7.7052e-06	5.4852e-06	691.26	305.79	5.2908e-06	9.6921e-06	276.42	124.59	144.99	72.325	6.0766e-06	59.627	227.960	63.407	71.497	-8.162	166.485	134.686	-9.904	-3.399	175.630	119.334	-7.065	-3.697	-0.917	1.740	170.628	-1.611	-8191	255	
789.596	1	1	0	0	0.076123	0.10677	0.21185	0.10399	0.10134	0.12818	0.226	0.17242	0.12953	0.1203	0.21704	0.16842	0.35161	0.22134	0.13203	0.19932	-2.3771	-3.1833	-2.9979	-3.0563	-3.45	-2.9583	-3.2479	-3.3958	-2.8875	-3.0979	-3.1667	-3.0208	-3.4729	-3.1771	-3.0687	-3.3812	275.291	103.147	150.436	192.267	329.753	-7.109	288.108	303.864	71.741	162.784	282.081	-15.854	319.587	282.173	252.554	270.535	0.00027948	0.00056845	0.00013025	813.83	3.6678e-06	6.0561e-06	687.97	304.39	4.063e-06	5.8548e-06	276.28	124.5	144.12	71.83	5.0691e-06	59.833	0.0004709	0.00047646	0.00015337	823.89	7.8195e-06	5.7174e-06	695.15	309.55	5.2633e-06	6.7471e-06	281.12	126.9	147.54	73.859	6.4241e-06	61.14	229.901	45.230	66.765	-8.159	158.967	131.189	-9.595	-3.543	176.754	120.598	-7.185	-3.673	-0.811	1.746	165.142	-1.853	-8191	255	
789.692	1	1	0	0	0.20039	0.13155	0.27331	0.15348	0.14636	0.17122	0.10849	0.17773	0.067581	0.2808	0.16371	0.2313	0.07145	0.047747	0.16934	0.27146	-2.5708	-3.3	-3.0917	-2.9542	-3.2583	-2.9896	-3.1979	-3.4604	-2.7938	-3.3187	-3.4104	-2.9875	-3.3396	-3.1917	-3.1437	-3.5396	-9.908	255.817	170.090	12.136	335.196	7.231	307.070	245.622	102.679	220.341	212.676	320.928	79.185	45.821	217.465	295.905	0.00029389	0.00054328	0.00014165	824.67	5.3097e-06	5.8248e-06	700.26	307.89	3.5614e-06	6.6427e-06	279.12	125.35	145.85	72.522	4.1625e-06	59.991	0.00049934	0.00050288	0.00014345	838.45	7.3749e-06	5.7244e-06	708.53	313.43	5.4934e-06	5.6788e-06	284.55	128.25	148.62	74.352	6.3432e-06	61.291	228.644	74.478	66.838	-8.081	155.494	121.197	-9.841	-3.298	177.219	116.562	-7.318	-3.932	-0.887	1.485	163.130	-2.193	-8191	255	
789.764	1	1	0	0	0.1623	0.11217	0.10054	0.13616	0.12106	0.056326	0.18182	0.14454	0.12386	0.1837	0.10159	0.19769	0.010763	0.27364	0.092357	0.13762	-2.65	-3.2271	-3.275	-3.0062	-3.2625	-2.9583	-3.0979	-3.3917	-2.8708	-3.3521	-3.3875	-2.8625	-3.425	-3.325	-3.0521	-3.4208	210.797	170.247	319.752	12.058	94.241	168.025	219.937	211.904	26.275	30.997	272.570	215.987	295.797	-18.179	98.638	278.588	0.00029839	0.00048139	0.00015525	824.47	4.4501e-06	4.4644e-06	692.32	303.85	3.9819e-06	4.6762e-06	273.19	122.73	142.52	70.602	3.7473e-06	58.387	0.00050115	0.00050035	0.00014725	835.45	8.1787e-06	5.7386e-06	700.2	309.76	5.6529e-06	5.9143e-06	278.07	125.27	145.38	72.594	6.2913e-06	59.513	230.255	67.030	70.606	-8.021	142.032	124.547	-9.718	-3.623	169.268	128.765	-7.125	-3.877	-0.990	1.866	187.652	-1.797	-8191	255	
789.885	1	1	0	0	0.20717	0.049061	0.09527	0.18493	0.24587	0.3907	0.1096	0.20603	0.16114	0.046092	0.1498	0.35509	0.20513	0.25806	0.064582	0.41432	-2.5771	-3.1333	-3.3542	-2.975	-3.3937	-3.125	-2.8854	-3.3375	-3.1292	-3.1083	-3.3812	-2.9562	-3.375	-3.2875	-2.8354	-3.3958	162.981	179.704	117.001	313.280	13.561	209.847	41.515	260.917	316.573	70.690	-1.030	290.272	60.959	15.660	-6.737	276.243	0.00028199	0.00056096	0.00011414	807.02	4.8252e-06	5.8494e-06	677.06	298.12	3.4226e-06	5.9147e-06	269.69	121.25	140.47	70.101	4.2992e-06	58.156	0.00047059	0.00050004	0.0001408	818.1	5.5224e-06	7.0421e-06	685.1	303.51	5.3816e-06	6.0903e-06	273.71	123.69	143.96	71.97	5.9657e-06	59.415	230.688	47.920	77.372	-8.226	152.816	129.174	-10.057	-3.543	164.651	125.828	-7.076	-4.067	-0.888	1.671	169.139	-2.005	-8191	255	
789.981	1	1	0	0	0.14482	0.10017	0.080622	0.14905	0.060175	0.23157	0.087828	0.37469	0.04134	0.3079	0.1003	0.2196	0.10093	0.23373	0.2304	0.026542	-2.6167	-2.8688	-3.2729	-3.0875	-3.1771	-3.2708	-3.0167	-3.4292	-2.9708	-2.9625	-3.6458	-3.0542	-3.3083	-3.3583	-2.8771	-3.3875	184.830	317.800	68.400	272.748	195.248	40.421	235.757	1.751	52.586	180.437	-6.350	331.087	257.772	-9.468	192.092	266.939	0.00026363	0.00049359	0.00016222	809.35	3.9571e-06	4.0195e-06	682.32	302.5	4.1905e-06	6.2755e-06	274.01	122.83	143.69	71.154	5.1481e-06	59.236	0.00048137	0.00050804	0.00014243	821.73	5.1236e-06	9.648e-06	691.54	307.49	5.5319e-06	5.9361e-06	278.53	125.75	146.7	73.222	6.4451e-06	60.594	229.440	67.874	68.582	-8.286	151.738	107.845	-9.909	-3.432	160.883	116.417	-7.300	-3.804	-0.880	1.715	172.235	-1.980	-8191	255	
790.077	1	1	0	0	0.42007	0.17942	0.09258	0.040132	0.19464	0.19604	0.23484	0.074263	0.46311	0.18627	0.1149	0.25427	0.14502	0.26564	0.16042	0.18727	-2.7396	-2.8208	-3.3479	-3.0875	-3.2062	-3.3312	-3.1	-3.3187	-3.2625	-2.9479	-3.4208	-3.1229	-3.2313	-3.5458	-2.7917	-3.4104	35.041	251.478	54.618	37.187	172.208	296.780	228.418	166.641	119.773	276.027	9.650	158.042	268.819	257.193	113.470	230.941	0.00029251	0.00052754	0.00015055	820.76	5.2605e-06	5.5052e-06	692.85	304.77	4.1464e-06	4.4721e-06	276.83	123.76	143.44	71.191	4.7497e-06	58.968	0.00049276	0.00049984	0.00013978	833.34	5.1146e-06	8.5908e-06	701.84	310.18	5.377e-06	6.0041e-06	280.32	126.26	146.75	73.213	6.1595e-06	60.213	225.706	61.571	51.934	-8.235	151.159	119.658	-9.748	-3.489	180.204	131.374	-7.091	-3.782	-1.135	1.581	156.173	-2.039	-8191	255	
790.173	1	1	0	0	0.17365	0.20885	0.19201	0.12168	0.19989	0.099266	0.26892	0.22236	0.09053	0.025726	0.010525	0.36147	0.33696	0.28806	0.15285	0.33074	-2.75	-2.8729	-3.2583	-3.0833	-3.1479	-3.4813	-2.8875	-3.4208	-3.2479	-2.9354	-3.3563	-3.1688	-3.3292	-3.35	-2.7313	-3.3542	241.363	240.312	318.241	14.791	19.054	89.209	175.655	146.766	40.283	79.253	226.456	279.407	330.210	-0.475	71.580	270.771	0.00030033	0.0005261	0.00011718	816.97	4.6807e-06	3.1787e-06	685.44	300.96	3.2848e-06	5.2561e-06	270.19	121.5	141.32	70.011	3.1631e-06	57.959	0.00052509	0.00050409	0.00014548	825.68	5.093e-06	9.2402e-06	691.64	306.75	5.5805e-06	5.7553e-06	275.56	123.93	144.5	72.04	6.3092e-06	58.982	234.784	65.160	70.186	-8.172	163.923	125.209	-9.471	-3.387	172.270	135.226	-7.183	-3.736	-0.714	1.615	156.572	-2.119	-8191	255	
790.292	1	1	0	0	0.3153	0.11598	0.08963	0.30488	0.25751	0.11732	0.24975	0.222	0.25309	0.18946	0.035603	0.17504	0.25089	0.17727	0.15518	0.020915	-2.8083	-2.9562	-3.275	-2.9979	-2.9083	-3.2687	-3.2042	-3.2562	-3.3229	-2.9437	-3.4083	-3.2854	-3.1063	-3.5958	-3.0667	-3.2292	30.061	145.840	39.296	267.030	93.642	288.119	32.709	289.548	89.486	284.185	166.783	10.947	240.348	291.211	27.632	119.928	0.0002973	0.00045071	0.00015072	799.36	4.7097e-06	6.1034e-06	671.14	296.54	4.3288e-06	5.5538e-06	268.37	120.01	140.76	69.551	3.375e-06	57.858	0.00060581	0.00051846	0.00013781	811.74	5.2478e-06	8.2619e-06	678.79	302.24	5.3788e-06	5.6023e-06	272.68	122.8	143.73	71.605	6.4301e-06	59.116	230.457	62.027	69.196	-8.509	163.431	126.970	-9.333	-3.483	168.826	127.443	-7.160	-4.150	-0.682	1.810	163.702	-1.713	-8191	255	
790.364	1	1	0	0	0.20398	0.1726	0.24231	0.26568	0.18535	0.088992	0.065298	0.21019	0.19407	0.12845	0.27816	0.23839	0.2276	0.23712	0.22407	0.09094	-2.9417	-2.7083	-3.1937	-3.1625	-2.8563	-3.3854	-3.1625	-3.1292	-3.1813	-2.8979	-3.3417	-3.3625	-2.7896	-3.3917	-3.0833	-3.0521	210.765	118.083	272.361	304.372	281.118	292.131	208.244	286.909	142.008	67.922	232.859	281.390	335.514	194.894	322.660	230.129	0.00028784	0.00056955	0.00010763	808.8	5.3744e-06	5.8394e-06	685.85	302.14	3.8299e-06	4.7895e-06	273.29	123.01	142.61	70.694	4.679e-06	58.634	0.00056339	0.00051593	0.0001347	820.42	5.4189e-06	9.7199e-06	691.76	306.97	5.3513e-06	6.0976e-06	277.44	125.19	145.97	72.732	6.3372e-06	59.846	230.561	63.325	63.038	-8.249	154.020	105.655	-9.792	-3.458	182.286	126.330	-7.202	-3.883	-1.002	1.616	157.017	-1.781	-8191	255	
790.462	1	1	0	0	0.1569	0.21184	0.09946	0.14215	0.18199	0.19631	0.15366	0.1885	0.21164	0.10564	0.12219	0.089028	0.3428	0.12737	0.18362	0.22753	-2.9437	-2.9	-3.1604	-3.1896	-2.8312	-3.1979	-3.0563	-3.0042	-3.2812	-2.9396	-3.3896	-3.1063	-3.0812	-3.4833	-2.9542	-3.0521	43.411	-21.365	34.267	204.007	260.924	144.134	117.148	39.813	201.473	29.971	12.060	168.587	323.219	328.358	290.081	292.409	0.00028597	0.00069224	0.00012761	816.97	3.9951e-06	5.765e-06	682.08	301.36	3.7515e-06	6.2606e-06	271.74	121.76	141.24	70.039	4.2931e-06	57.95	0.00060538	0.00052626	0.00014026	826.03	5.1479e-06	8.8171e-06	691.82	306.41	5.1717e-06	5.9689e-06	275.73	124.3	144.49	72.095	6.471e-06	59.122	232.126	61.819	73.493	-8.189	149.719	115.187	-9.983	-3.483	174.485	120.110	-7.136	-3.898	-0.737	1.751	162.849	-1.896	-8191	255	
790.580	1	1	0	0	0.1297	0.14976	0.11715	0.20241	0.089974	0.11906	0.20815	0.10829	0.19388	0.021794	0.12433	0.058222	0.15977	0.15318	0.17672	0.12895	-2.7354	-2.8063	-3.0125	-3.4375	-2.8896	-3.2375	-3.2083	-2.9875	-3.4417	-2.9625	-3.2604	-3.2062	-3.0812	-3.3354	-3.3021	-2.9813	239.295	246.074	265.885	281.601	126.693	207.794	165.589	249.494	186.186	53.467	208.824	4.444	298.653	-19.200	246.475	276.343	0.00031062	0.00050717	0.00018982	804.93	4.1286e-06	5.2673e-06	672.66	296.58	3.7239e-06	5.2699e-06	267.21	120.09	139.48	69.088	4.028e-06	56.962	0.00056951	0.00052019	0.00014679	815.82	5.0759e-06	8.7063e-06	680.9	302.79	5.1112e-06	5.9252e-06	272.46	122.45	142.88	71.178	6.3182e-06	58.267	230.974	54.931	72.555	-8.023	161.174	112.509	-10.031	-3.430	183.396	133.696	-7.126	-3.998	-1.224	1.835	156.163	-1.824	-8191	255	
790.677	1	1	0	0	0.1016	0.007282	0.092872	0.33002	0.28405	0.15394	0.18842	0.21557	0.19308	0.31634	0.34447	0.21547	0.11746	0.22222	0.10607	0.12992	-3.275	-3.05	-3.1771	-3.3625	-2.8833	-3.4042	-3.15	-3.0687	-3.2562	-3.2313	-3.1437	-3.3458	-2.9896	-3.275	-3.1458	-3.0667	315.278	280.297	238.503	281.514	62.962	326.183	250.154	310.240	269.214	168.148	-12.729	250.690	-20.087	252.709	76.095	333.831	0.00030137	0.0004705	0.00013785	796.88	4.2452e-06	5.5995e-06	666.82	296.38	3.8164e-06	6.2746e-06	267.54	120.65	140.55	69.71	4.5527e-06	57.813	0.00059495	0.00051442	0.00013644	808.52	4.9958e-06	6.3892e-06	676.97	301.34	5.3504e-06	6.0842e-06	271.81	122.93	143.51	71.637	6.3881e-06	58.984	236.837	62.209	67.767	-8.202	170.194	111.766	-9.764	-3.580	178.724	121.714	-7.433	-3.843	-1.058	1.706	158.140	-1.833	-8191	255	
790.773	1	1	0	0	0.13837	0.12356	0.061547	0.12269	0.21522	0.10657	0.23196	0.27721	0.15137	0.14218	0.3412	0.1255	0.24213	0.2787	0.11257	0.15821	-2.9792	-3.0312	-3.0292	-3.4208	-2.9188	-3.175	-3.1042	-3.0708	-3.3063	-3.225	-3.2771	-3.5333	-3.2646	-3.4083	-3.1937	-2.9375	124.993	42.911	265.969	197.230	298.039	-15.291	-17.428	-16.102	178.665	324.710	18.397	66.641	-5.101	-12.247	35.844	106.057	0.00030238	0.0004842	0.00014742	809.8	4.6358e-06	5.7465e-06	682.48	301.04	3.6254e-06	5.4242e-06	272.57	122.4	142.86	70.718	4.8606e-06	58.556	0.00057255	0.00049397	0.00014066	821.02	5.246e-06	5.431e-06	690.16	306.82	5.289e-06	6.1729e-06	276.86	124.89	145.97	72.589	6.3841e-06	59.856	230.445	60.996	69.288	-8.271	158.977	125.690	-9.642	-3.275	176.778	110.802	-7.033	-3.872	-1.004	1.696	169.190	-1.948	-8191	255	
790.869	1	1	0	0	0.11732	0.083284	0.11641	0.086324	0.23988	0.17507	0.24419	0.13859	0.16328	0.081394	0.27349	0.25738	0.068043	0.072538	0.11823	0.28779	-2.9	-2.8958	-2.9021	-3.4667	-3.0792	-3.2271	-3.4375	-2.9083	-3.1396	-3.2833	-3.1021	-3.3896	-3.125	-3.1146	-3.3042	-3.0479	112.477	283.040	137.322	282.512	202.944	168.528	257.842	309.444	209.772	332.157	16.023	-15.570	271.809	206.780	112.558	256.270	0.00030647	0.00032925	7.972e-05	812.79	5.2223e-06	4.865e-06	681.96	300.77	2.9492e-06	5.1188e-06	270.8	121.11	140.97	69.902	4.2211e-06	57.69	0.00058987	0.00052353	0.00013573	826.3	5.481e-06	5.339e-06	691.82	306.71	4.9938e-06	5.8172e-06	275.94	123.97	144.39	71.819	6.2593e-06	58.805	231.155	61.607	72.230	-8.344	153.795	126.271	-9.837	-3.571	177.793	119.662	-7.205	-3.556	-0.886	1.642	178.243	-2.134	-8191	255	
790.965	1	1	0	0	0.18592	0.23616	0.21114	0.10118	0.091457	0.16987	0.10935	0.11451	0.24778	0.1163	0.29034	0.1224	0.13928	0.28017	0.10484	0.080806	-2.9104	-3.2062	-2.675	-3.3854	-3.0438	-2.9854	-3.4208	-2.9958	-3.0667	-3.1875	-3.0292	-3.3979	-3.0771	-3.1146	-3.2562	-3.0187	90.986	9.762	283.814	104.386	71.363	74.594	194.252	245.900	43.500	3.711	301.130	55.401	289.162	316.498	88.704	303.555	0.0002911	0.00037214	0.00012692	801.38	5.6053e-06	5.27e-06	668.77	293.9	3.9211e-06	5.0054e-06	264.13	118.37	138.32	68.342	3.308e-06	56.413	0.00048606	0.00068872	0.00014123	812.54	5.3208e-06	5.352e-06	677.46	300.19	5.2413e-06	5.9665e-06	268.14	120.85	141.55	70.222	6.0856e-06	57.497	228.258	69.837	65.326	-8.015	143.062	129.165	-9.763	-3.481	182.061	132.736	-7.072	-3.774	-1.083	1.798	152.218	-2.108	-8191	255	
791.061	1	1	0	0	0.11426	0.10883	0.18104	0.10371	0.15439	0.17471	0.18369	0.10756	0.077278	0.11553	0.074595	0.30543	0.17788	0.36032	0.068661	0.15402	-2.6625	-3.2021	-2.85	-3.4208	-3.1167	-2.9708	-3.375	-2.9688	-3.1937	-3.2521	-2.7583	-3.4333	-3.1125	-3.0229	-3.3042	-2.9375	213.332	74.136	321.277	265.740	277.142	304.219	281.816	112.576	14.220	12.862	78.443	287.908	332.557	-20.425	101.551	149.928	0.00029923	0.00044298	0.00015131	790.21	5.8514e-06	4.5898e-06	664.01	293.1	3.2442e-06	4.9331e-06	265.74	118.53	138.36	68.67	4.3375e-06	56.912	0.00046405	0.00084491	0.00015409	802.65	5.3036e-06	5.7598e-06	671	298.32	5.1863e-06	5.9143e-06	269.26	121.33	141.55	70.506	6.2383e-06	58.043	228.444	61.254	68.886	-8.256	165.335	131.269	-9.712	-3.391	159.935	128.089	-6.984	-3.694	-0.874	1.835	167.873	-1.881	-8191	255	
791.182	1	1	0	0	0.21566	0.15246	0.059544	0.038708	0.097934	0.20148	0.13316	0.14165	0.11021	0.09836	0.13361	0.33672	0.27756	0.37024	0.015058	0.13426	-2.7438	-2.9938	-2.7771	-3.2396	-3.2021	-2.9479	-3.5312	-3.0833	-2.9729	-3.2833	-3.0604	-3.2604	-3.2458	-3.1917	-3.4042	-3.2146	210.235	4.034	-13.038	313.499	236.628	107.276	31.988	327.082	165.766	28.918	272.771	316.030	288.130	288.909	22.538	199.304	0.0002799	0.00049897	0.00016217	803.21	4.6285e-06	5.2838e-06	674.8	296.93	4.3001e-06	6.0615e-06	267.55	119.77	139.68	68.768	3.7804e-06	56.91	0.00046597	0.00077668	0.0001495	811.94	5.4666e-06	5.8258e-06	684.07	302.67	5.3165e-06	6.1668e-06	272.28	122.48	142.9	70.752	5.9937e-06	58.144	230.396	46.918	73.490	-7.989	159.242	134.368	-9.729	-3.657	180.727	126.985	-7.123	-3.742	-1.072	1.817	165.948	-1.894	-8191	255	
791.276	1	1	0	0	0.31999	0.18696	0.042066	0.11154	0.14273	0.064647	0.30407	0.12989	0.084279	0.1719	0.16926	0.060591	0.056898	0.17829	0.11291	0.16289	-2.5979	-3.3646	-2.8146	-3.375	-3.2417	-2.7958	-3.5104	-3.0333	-3.0208	-3.3104	-3.1396	-3.1937	-3.35	-2.9229	-3.2354	-3.1875	154.902	-9.034	77.645	286.643	68.216	-17.118	11.231	304.706	187.172	269.336	128.368	129.047	24.637	268.451	204.091	287.673	0.00028622	0.00044059	0.0001543	801.62	4.6431e-06	6.2059e-06	667.32	295.19	3.3718e-06	5.069e-06	264.22	117.81	137.75	67.793	3.8628e-06	55.814	0.00048395	0.00085199	0.00014531	811.03	5.5044e-06	5.8116e-06	677.87	300.13	5.1515e-06	5.7371e-06	269	120.16	140.69	69.574	6.2034e-06	56.792	226.347	66.689	61.923	-8.205	155.810	124.664	-9.582	-3.489	176.254	108.466	-7.174	-3.602	-0.856	1.654	159.915	-1.960	-8191	255	
791.372	1	1	0	0	0.15648	0.19458	0.032975	0.18224	0.31749	0.066659	0.15817	0.1665	0.10641	0.29841	0.093885	0.27044	0.1762	0.12989	0.24234	0.2176	-2.6708	-3.3167	-2.8521	-3.4021	-3.0687	-2.8271	-3.3312	-3.1292	-2.9167	-3.3979	-3.1229	-3.1312	-3.4271	-2.9042	-3.1292	-3.1875	242.980	197.985	32.104	318.596	25.090	110.784	250.260	261.682	188.426	2.158	313.851	312.097	332.874	309.140	162.886	312.764	0.00028865	0.00042168	0.00012936	786.49	4.2778e-06	5.7556e-06	653.91	287.95	4.1589e-06	6.7078e-06	261.05	116.26	135.13	66.72	3.7123e-06	55.242	0.00047209	0.00075391	0.00014249	797.91	5.2694e-06	5.5429e-06	663.81	294.1	5.3972e-06	5.7723e-06	264.16	118.22	138.68	68.747	6.1075e-06	56.41	229.318	45.980	70.610	-8.045	162.187	127.931	-9.772	-3.492	180.508	131.347	-7.201	-3.855	-0.968	1.680	167.479	-1.982	-8191	255	
791.469	1	1	0	0	0.077073	0.18551	0.03431	0.27405	0.091284	0.090555	0.027199	0.066936	0.17216	0.22739	0.19734	0.47549	0.049506	0.2815	0.17975	0.17211	-2.3521	-3.2417	-2.7896	-3.1146	-3.3979	-2.9021	-3.3292	-3.0563	-2.7833	-3.2604	-3.0979	-3.1771	-3.2854	-3.1271	-3.2687	-3.3417	281.866	305.169	61.290	235.423	231.968	77.209	315.520	212.123	285.792	261.527	262.274	-8.817	21.776	279.008	259.240	273.479	0.00027521	0.00037218	0.00014455	786.71	4.4783e-06	3.6669e-06	659.87	291.07	4.1635e-06	5.1108e-06	263.05	117.52	137.46	67.974	4.1407e-06	56.433	0.00045692	0.00083195	0.00014961	797.82	5.0903e-06	5.7126e-06	667	296.14	5.3192e-06	5.7601e-06	267.55	119.91	140.93	69.831	6.1924e-06	57.486	228.072	90.829	58.045	-8.003	144.006	130.822	-9.585	-3.366	171.999	123.368	-7.261	-3.740	-0.764	1.765	159.932	-1.870	-8191	255	
791.589	1	1	0	0	0.23315	0.045949	0.25204	0.13694	0.028364	0.08527	0.15219	0.14038	0.1176	0.07347	0.36839	0.052245	0.18661	0.21586	0.31919	0.16267	-2.4479	-3.2458	-3.0792	-3.0646	-3.1917	-2.8667	-3.2875	-3.2812	-3.0292	-3.1917	-3.0021	-2.975	-3.5958	-3.1458	-3.1354	-3.2167	88.995	296.902	169.094	9.922	9.044	52.848	226.867	295.570	67.360	122.935	311.592	40.849	298.775	244.638	46.592	290.966	0.00027603	0.0004287	0.0001194	796.46	6.2933e-06	4.7169e-06	667.8	294.71	3.4149e-06	5.8041e-06	266.1	118.99	138.24	68.24	3.9093e-06	56.33	0.00046697	0.00073842	0.00014813	809.04	5.1749e-06	6.0415e-06	676.61	300.31	5.2936e-06	5.6533e-06	270.25	121.07	141.55	70.072	6.0206e-06	57.422	230.763	50.534	66.540	-8.193	154.613	139.794	-9.482	-3.424	175.788	123.804	-6.857	-3.919	-0.838	1.768	158.498	-1.768	-8191	255	
791.661	1	1	0	0	0.13935	0.091157	0.18655	0.13835	0.10874	0.14799	0.086094	0.11188	0.072479	0.019615	0.16676	0.13405	0.13334	0.1476	0.1758	0.13994	-2.4854	-3.1542	-2.9229	-2.8896	-3.3417	-2.9562	-3.1208	-3.3542	-2.9417	-3.1354	-3.2875	-3.0542	-3.3875	-3.0604	-3.0729	-3.4104	172.474	328.084	125.577	240.529	148.875	28.817	304.046	296.948	38.217	247.484	212.528	311.898	-5.637	-20.929	108.853	241.385	0.00028618	0.00055648	9.9236e-05	793.56	4.2589e-06	5.2607e-06	664.66	292.36	3.0618e-06	4.7542e-06	261.01	117.08	136.22	67.343	4.4868e-06	55.081	0.00046289	0.00075583	0.00016443	805.17	5.0597e-06	5.8352e-06	672.05	297.86	5.6502e-06	5.7091e-06	266.24	119.56	139.75	69.192	5.9687e-06	56.405	229.106	51.620	77.523	-8.213	145.839	125.752	-9.817	-3.231	188.797	126.905	-7.281	-3.630	-0.891	1.800	162.180	-1.928	-8191	255	
791.757	1	1	0	0	0.11594	0.14965	0.26202	0.075204	0.06005	0.381	0.28872	0.21023	0.054938	0.05641	0.20112	0.18065	0.12895	0.22865	0.1902	0.2269	-2.3625	-3.1958	-3.1625	-3.05	-3.4292	-3.0146	-3.0896	-3.4417	-2.8479	-3.1125	-3.1854	-2.8917	-3.4792	-3.2042	-2.9979	-3.5625	269.047	333.777	41.293	284.926	309.170	131.429	36.861	267.299	158.636	94.799	-19.664	329.571	65.557	334.989	-13.731	-10.921	0.00027334	0.00039936	0.00010218	785.17	4.8274e-06	6.4284e-06	656.43	288.81	2.8569e-06	5.2443e-06	262.32	116.62	136.7	67.352	4.9403e-06	55.728	0.00046701	0.00049488	0.00019373	796.71	5.1209e-06	5.7786e-06	663.57	294.91	5.168e-06	5.5477e-06	265.8	118.93	139.65	69.111	6.0147e-06	56.709	229.165	57.991	67.628	-8.306	150.284	129.496	-9.759	-3.351	172.373	126.163	-6.780	-3.608	-0.714	1.886	162.003	-1.922	-8191	255	
791.853	1	1	0	0	0.13595	0.27355	0.08035	0.26665	0.13797	0.17062	0.28941	0.02606	0.28029	0.051952	0.15074	0.077235	0.30548	0.171	0.10057	0.1102	-2.5458	-3.1458	-3.1271	-2.875	-3.3187	-3.2167	-3.0563	-3.2646	-2.8896	-3.0458	-3.1667	-3.1083	-3.3063	-3.2667	-2.9562	-3.2687	227.760	233.827	177.901	273.132	288.335	145.745	314.121	152.734	151.499	34.755	73.684	140.287	234.685	-18.285	100.603	43.595	0.00030751	0.0004416	0.0001431	790.8	5.2819e-06	5.0893e-06	666.5	294.08	3.085e-06	5.7762e-06	264.88	118.26	139.19	68.249	4.9921e-06	57.092	0.00047679	0.00049589	0.00024455	801.61	5.0093e-06	5.5111e-06	673.28	299.83	5.4622e-06	5.5101e-06	269.9	121.03	142.09	70.323	5.9727e-06	58.019	226.799	50.864	70.429	-8.411	156.142	136.775	-10.109	-3.537	168.700	135.347	-7.336	-3.753	-0.691	1.742	171.040	-1.916	-8191	255	
791.974	1	1	0	0	0.0252	0.08122	0.14796	0.13007	0.12154	0.067863	0.16662	0.12846	0.084617	0.31708	0.28806	0.43583	0.071759	0.048846	0.15487	0.18059	-2.4813	-3.1792	-3.3583	-2.9646	-3.3021	-3.2	-2.9604	-3.2771	-2.95	-3.2479	-3.3167	-2.7979	-3.325	-3.3875	-2.7875	-3.3812	-6.074	306.998	233.996	299.291	27.499	-10.739	268.921	208.196	20.761	117.133	236.943	286.575	231.361	230.560	181.597	4.414	0.0002843	0.00055928	0.00010193	801.99	4.3346e-06	4.647e-06	674.21	295.94	3.0908e-06	4.5874e-06	266.97	118.89	138.92	68.207	3.9822e-06	56.115	0.00048121	0.00050358	0.00021217	815.34	4.9355e-06	5.9024e-06	680.86	302.36	5.4027e-06	5.8949e-06	271.26	121.34	141.94	70.23	6.3462e-06	57.38	227.837	62.552	52.809	-8.009	167.735	125.957	-9.734	-3.412	180.540	121.512	-7.083	-3.659	-0.890	1.597	168.590	-2.053	-8191	255	
792.070	1	1	0	0	0.20669	0.20157	0.05398	0.19991	0.096779	0.18807	0.14287	0.31147	0.032058	0.020613	0.1832	0.18116	0.049066	0.31055	0.13505	0.24501	-2.6875	-3.0083	-3.2521	-2.9479	-3.1917	-3.0812	-2.9667	-3.3708	-3.175	-2.9979	-3.4604	-3.0375	-3.2729	-3.3208	-2.9354	-3.4313	309.830	114.089	22.594	317.683	231.548	302.483	186.672	316.799	48.579	322.534	293.653	252.403	105.861	309.400	1.608	233.546	0.0002955	0.00059046	0.00014833	794.62	4.1156e-06	4.9955e-06	666.19	292.96	4.358e-06	5.054e-06	263.13	117.16	137.07	67.107	5.0266e-06	55.159	0.00047463	0.00051259	0.00023369	806.39	4.9184e-06	5.728e-06	672.06	298.82	5.3687e-06	5.7443e-06	267.22	119.54	140.14	69.146	6.3342e-06	56.378	229.566	42.409	52.048	-8.298	157.276	130.468	-9.850	-3.278	160.367	121.514	-6.887	-3.676	-0.877	2.037	165.522	-1.613	-8191	255	
792.164	1	1	0	0	0.13637	0.025761	0.1438	0.33973	0.15758	0.054483	0.047479	0.20313	0.14817	0.0096649	0.28693	0.17625	0.095385	0.25151	0.044367	0.22003	-2.6271	-3.0708	-3.2979	-2.9542	-3.2938	-3.1833	-3.1125	-3.3042	-2.9188	-2.9479	-3.5312	-3.1667	-3.2271	-3.3667	-3.0458	-3.2313	88.755	78.162	27.373	263.653	76.014	286.595	63.134	263.548	224.108	42.424	-6.146	144.408	327.700	-3.595	306.883	235.483	0.00030049	0.00041804	8.6147e-05	786.96	5.018e-06	6.1879e-06	657.89	289.56	3.4307e-06	4.6017e-06	260.26	116.38	135.93	66.757	4.4541e-06	55.212	0.00047113	0.00050146	0.00020265	797.89	4.7708e-06	5.6231e-06	664.69	295.49	6.0223e-06	5.7504e-06	264.81	118.65	139.16	68.782	6.0586e-06	56.271	227.580	53.228	88.977	-8.287	150.755	121.197	-9.838	-3.399	183.842	124.935	-7.197	-3.649	-0.739	1.681	160.347	-1.881	-8191	255	
792.262	1	1	0	0	0.040989	0.27653	0.046491	0.10438	0.21206	0.15976	0.14059	0.036151	0.058155	0.07002	0.23819	0.11214	0.39199	0.24082	0.13298	0.34923	-2.6792	-2.8604	-3.2771	-2.975	-3.0854	-3.3167	-2.9896	-3.3521	-3.2417	-2.7458	-3.3833	-3.1	-3.1583	-3.5542	-2.775	-3.375	-7.323	197.614	-10.392	194.928	87.601	195.644	235.460	136.965	223.579	268.748	298.867	311.006	259.022	308.122	135.184	240.928	0.0002768	0.00050945	0.0001065	785.85	4.0702e-06	5.1186e-06	661.79	291.19	3.5594e-06	5.158e-06	263.22	117.22	137.16	67.189	3.8065e-06	55.56	0.00046728	0.00049609	0.00022158	800.08	4.9373e-06	5.6148e-06	668.99	297.26	7.4321e-06	5.7723e-06	267.14	119.58	140.18	69.314	6.3941e-06	56.639	231.468	56.645	61.599	-8.303	144.961	122.126	-9.963	-3.470	154.571	123.768	-6.951	-3.837	-1.060	1.655	161.416	-1.778	-8191	255	
792.357	1	1	0	0	0.15223	0.097246	0.17277	0.077546	0.26727	0.16037	0.17209	0.12195	0.086078	0.089321	0.19228	0.18661	0.33038	0.32976	0.18061	0.16186	-2.7438	-2.7667	-3.2917	-3.1312	-3.1312	-3.2479	-3.0875	-3.4	-3.2896	-2.9146	-3.4729	-3.1917	-2.9375	-3.4	-3.0104	-2.9771	124.456	184.955	-0.300	41.554	298.901	63.850	244.515	305.792	0.508	193.897	29.126	74.747	336.271	317.833	270.176	316.894	0.00028688	0.00052293	0.00014378	787.58	4.6959e-06	4.3321e-06	657.62	290.25	3.8902e-06	5.5115e-06	259.86	116.01	135.76	66.672	4.29e-06	54.64	0.00046562	0.00049711	0.00020445	798.66	4.8059e-06	5.3874e-06	664.42	295.46	8.3249e-06	5.6873e-06	264.39	118.25	138.84	68.51	6.1565e-06	55.63	230.830	59.537	61.338	-8.279	163.135	114.793	-9.943	-3.570	175.781	114.267	-7.163	-3.674	-0.898	1.742	167.444	-2.030	-8191	255	
792.453	1	1	0	0	0.058461	0.040093	0.094822	0.18625	0.26982	0.080254	0.055464	0.073551	0.22	0.083328	0.19552	0.16347	0.1971	0.037854	0.14915	0.1581	-2.8354	-2.7771	-3.0854	-3.2687	-2.8146	-3.3354	-3.0521	-3.2229	-3.175	-2.9542	-3.2542	-3.0875	-2.7917	-3.4458	-2.8854	-3.0708	206.112	309.324	96.713	310.599	63.656	228.878	301.859	189.842	106.573	148.810	336.917	245.418	6.357	287.702	-10.368	49.391	0.00027018	0.00053706	0.0001091	775.17	5.2063e-06	4.9975e-06	647.97	284.97	4.1526e-06	4.7719e-06	254.02	112.84	132.06	65.009	3.4852e-06	53.128	0.00045435	0.000505	0.00018062	785.88	4.9265e-06	5.4262e-06	653.3	289.22	6.7355e-06	5.8645e-06	257.67	114.98	135.15	66.79	5.9647e-06	53.941	226.837	60.961	59.152	-8.380	153.166	137.490	-9.800	-3.451	175.422	118.391	-7.274	-3.752	-0.999	1.895	161.997	-2.006	-8191	255	
792.549	1	1	0	0	0.13626	0.14134	0.13369	0.053642	0.21402	0.081635	0.11241	0.093223	0.10965	0.075304	0.10011	0.19615	0.21009	0.14827	0.067409	0.22441	-2.8333	-2.8937	-3.2104	-3.2479	-2.95	-3.4625	-3.0812	-3.0583	-3.2729	-2.7854	-3.0438	-3.3104	-2.9	-3.3312	-2.7792	-2.8354	12.039	190.612	255.251	0.678	74.218	1.503	95.500	43.158	-20.412	228.103	64.884	150.677	322.399	150.342	40.464	250.231	0.00027576	0.0004779	0.00013027	758.6	3.8332e-06	4.2898e-06	631.39	279.84	3.4422e-06	4.9404e-06	248.03	110.07	130.06	63.569	3.549e-06	52.009	0.00044715	0.00048607	0.00012692	771.15	4.9139e-06	5.0974e-06	637.72	284.19	7.7401e-06	5.6666e-06	251.95	112.47	132.76	65.44	6.1994e-06	53.017	232.088	63.758	59.406	-8.500	165.770	129.495	-10.039	-3.434	176.052	118.251	-7.061	-3.939	-1.098	1.529	171.321	-2.167	-8191	255	
792.670	1	1	0	0	0.21993	0.12256	0.323	0.20892	0.39881	0.099271	0.053344	0.083644	0.12269	0.12102	0.16707	0.23026	0.18376	0.10185	0.2849	0.094506	-2.9125	-3	-3.1813	-3.3875	-2.9688	-3.2271	-3.1604	-3.1146	-3.3604	-2.9292	-3.1813	-3.1771	-2.9375	-3.3875	-3.0125	-3.0542	43.759	196.898	147.757	325.939	89.317	128.938	305.167	42.715	183.843	102.941	298.528	-20.198	253.836	247.678	123.534	188.116	0.00026987	0.00049466	0.00013725	747.86	5.2065e-06	3.6069e-06	619.09	273.87	3.1749e-06	5.2713e-06	242.45	108.18	127.07	62.434	3.5571e-06	50.726	0.00042417	0.00051796	0.00013385	759.86	4.94e-06	4.9253e-06	627.99	278.78	6.5329e-06	5.5113e-06	247.51	110.56	130.3	64.15	6.6877e-06	51.798	230.994	52.025	61.396	-8.441	149.421	137.173	-9.923	-3.394	182.340	128.328	-6.998	-3.710	-0.797	1.637	175.195	-2.117	-8191	255	
792.766	1	1	0	0	0.11833	0.13364	0.27846	0.089128	0.21383	0.157	0.15617	0.17159	0.13114	0.27145	0.19753	0.083157	0.2972	0.29668	0.32463	0.084969	-2.8958	-2.9313	-3.0458	-3.4292	-2.7208	-3.1437	-3.1896	-3.0062	-3.3854	-2.9542	-3.1542	-3.4062	-2.7708	-3.2104	-3.1146	-3.1063	185.170	79.399	292.789	306.740	297.882	16.216	170.134	250.022	123.657	179.242	214.153	315.062	254.315	336.180	53.725	265.056	0.00026847	0.00051302	9.6607e-05	734.57	4.1569e-06	3.8093e-06	603.65	265.16	5.0939e-06	3.94e-06	235.17	104.63	123.64	60.717	4.6615e-06	49.128	0.00041797	0.00046806	0.00012231	744.15	4.706e-06	5.1304e-06	611.42	270.25	7.3835e-06	5.2612e-06	238.68	106.72	126.37	62.174	7.7572e-06	49.969	233.370	65.224	50.786	-8.418	143.144	130.326	-10.021	-3.641	179.315	130.005	-6.963	-3.866	-0.933	1.506	172.491	-1.850	-8191	255	
792.862	1	1	0	0	0.071061	0.1463	0.14844	0.12171	0.1436	0.19347	0.25958	0.09515	0.16471	0.054086	0.24632	0.27073	0.24684	0.22967	0.242	0.26569	-2.8708	-2.8312	-3.1688	-3.3521	-2.8021	-3.0833	-3.2208	-2.9167	-3.0604	-3.1375	-3.0333	-3.2854	-2.9917	-3.1875	-3.2458	-2.9729	124.434	132.479	161.619	174.908	278.549	307.066	330.399	33.576	184.986	88.077	158.993	309.032	319.858	297.460	201.406	-13.773	0.00025217	0.0005467	0.00013665	716.03	3.9488e-06	4.9867e-06	585.68	257.19	3.4296e-06	4.5903e-06	228.24	102.51	121.7	59.525	2.8887e-06	48.415	0.00041997	0.00048344	0.00012692	726.3	4.7321e-06	4.6743e-06	595.15	261.55	6.6346e-06	5.2357e-06	232.54	104.47	124.16	61.157	8.678e-06	49.316	231.749	50.969	72.991	-8.490	141.431	127.444	-9.746	-3.484	177.710	126.492	-7.348	-3.860	-0.900	1.879	154.777	-2.177	-8191	255	
792.958	1	1	0	0	0.21388	0.34887	0.16705	0.085484	0.2223	0.23023	0.033975	0.16034	0.15268	0.10318	0.15581	0.060754	0.21643	0.080309	0.037167	0.20771	-2.8708	-3.0312	-3.075	-3.2	-3.0167	-3.1396	-3.2479	-3.0104	-3.1292	-3.1813	-2.7875	-3.4667	-3.1458	-3.0917	-3.2875	-2.9479	80.691	329.483	281.327	60.409	92.985	233.085	168.957	120.855	178.223	113.415	0.377	299.004	11.885	223.101	278.006	305.284	0.00022852	0.00041309	0.00011738	713.7	4.2575e-06	4.0993e-06	586.27	255.45	2.5923e-06	4.849e-06	230.8	104.27	123.95	61.152	2.2409e-06	50.293	0.00040958	0.00044255	0.0001324	724.63	4.7906e-06	5.167e-06	593.89	260.49	5.8839e-06	7.0542e-06	234.45	106.67	127.17	62.971	8.3504e-06	51.186	229.549	67.313	58.926	-8.419	167.961	111.657	-10.030	-3.423	169.468	140.212	-7.035	-3.656	-0.800	1.839	176.273	-2.047	-8191	255	
793.054	1	1	0	0	0.15261	0.17037	0.088166	0.19504	0.34227	0.16669	0.10102	0.065896	0.13308	0.035697	0.13025	0.20628	0.27138	0.056765	0.1253	0.052847	-2.7208	-3.0583	-2.9229	-3.3271	-3.0917	-3.2021	-3.4083	-2.8042	-3.1958	-3.1708	-3.0021	-3.3354	-3.1875	-3.1146	-3.3917	-2.8771	260.192	88.412	235.513	321.846	-0.262	214.003	53.767	-11.392	126.165	321.603	175.201	321.494	259.252	327.757	295.554	-12.774	0.00025026	0.00057311	0.00014895	748.41	3.7758e-06	3.3688e-06	621.41	269.15	2.4289e-06	4.5949e-06	245.7	112.05	132.59	65.074	2.3859e-06	53.586	0.00044422	0.00059469	0.00015648	758.73	5.688e-06	5.9118e-06	625.68	273.82	5.9416e-06	9.4905e-06	249.19	114.53	135.55	66.978	1.0192e-05	54.603	231.043	57.031	73.019	-8.272	149.497	131.196	-9.661	-3.313	179.087	150.586	-7.148	-3.704	-0.721	2.000	175.407	-1.728	-8191	255	
793.150	1	1	0	0	0.12566	0.041586	0.026335	0.24039	0.24866	0.12229	0.32198	0.17044	0.13026	0.18644	0.13184	0.10412	0.20408	0.3017	0.034635	0.014344	-2.7687	-3.1333	-2.8417	-3.3438	-2.9375	-2.9437	-3.225	-3	-3.2583	-3.1417	-2.8104	-3.25	-3.2208	-3.0062	-3.1875	-2.9625	190.880	272.005	53.765	307.403	204.219	321.342	270.895	263.363	234.975	249.945	250.252	16.674	241.017	299.115	273.348	258.785	0.00026527	0.00050985	9.8805e-05	788.81	3.3936e-06	3.6874e-06	651.08	282.92	3.7041e-06	5.8898e-06	258.18	117.52	139.12	67.768	5.0626e-06	55.924	0.00049311	0.00064803	0.00018826	799.68	6.4837e-06	7.3073e-06	656.86	288.22	6.4e-06	1.1884e-05	263.01	120.05	142.03	69.75	1.0422e-05	56.966	230.924	58.655	50.476	-8.107	164.383	121.917	-9.819	-3.335	181.428	141.451	-6.792	-3.718	-0.791	1.887	176.667	-1.886	-8191	255	
793.269	1	1	0	0	0.047942	0.1285	0.056734	0.25543	0.06762	0.05681	0.14499	0.10032	0.1791	0.26897	0.18537	0.36009	0.24614	0.15924	0.18345	0.28312	-2.7521	-3.1375	-3.0354	-3.3042	-3.1146	-2.8979	-3.4229	-2.8396	-3.2375	-3.3292	-3.0417	-3.3833	-3.125	-3.0354	-3.3521	-3.1875	-16.190	278.521	309.958	329.764	298.699	191.968	-14.413	73.999	239.332	330.276	293.794	33.365	337.885	255.643	120.175	303.251	0.00029048	0.00042921	0.00011146	817	5.558e-06	4.4597e-06	672.9	297.36	2.9801e-06	5.5003e-06	274.34	122.44	143.38	70.018	3.8968e-06	57.843	0.00055073	0.00075259	0.00020511	829.05	8.5109e-06	8.2843e-06	680.43	303.82	7.6347e-06	1.2059e-05	278.11	124.98	147.04	71.995	1.2042e-05	58.906	227.395	60.959	68.558	-8.136	155.789	133.219	-10.029	-3.227	166.736	149.076	-6.882	-3.688	-0.896	2.059	161.645	-1.931	-8191	255	
793.365	1	1	0	0	0.2734	0.10715	0.21396	0.18821	0.12099	0.022863	0.077105	0.18005	0.1053	0.1372	0.11685	0.09178	0.1352	0.094652	0.10624	0.16284	-2.5292	-3.1875	-2.8021	-3.3854	-3.2042	-2.9708	-3.5292	-3.1125	-2.9562	-3.1729	-3.1021	-3.3979	-3.3542	-3.2042	-3.3792	-3.1229	285.883	98.030	229.228	6.057	51.095	88.317	68.283	268.186	219.830	331.680	55.282	125.004	274.497	137.230	234.756	266.665	0.00029365	0.00055387	0.00012079	841.17	6.2139e-06	5.7149e-06	695.02	313.54	3.1935e-06	6.4438e-06	284.96	125.58	147.52	71.994	4.5506e-06	59.498	0.00059611	0.00084764	0.00023255	853	1.0466e-05	1.0016e-05	706.11	318.98	8.5724e-06	1.4902e-05	290.24	128.69	151.05	73.806	1.2671e-05	60.543	230.267	51.240	73.244	-8.113	138.886	131.411	-9.790	-3.270	167.505	122.579	-6.755	-3.738	-0.682	2.063	161.934	-1.602	-8191	255	
793.461	1	1	0	0	0.26778	0.16279	0.059792	0.055587	0.1329	0.13945	0.17569	0.23596	0.12621	0.073211	0.090639	0.36471	0.15139	0.19113	0.094011	0.039176	-2.3771	-3.0667	-2.8104	-3.2042	-3.0312	-2.7271	-3.3021	-3.1792	-2.9896	-3.3042	-2.8979	-3.1083	-3.2396	-2.8167	-3.2562	-3.0625	73.253	256.902	100.008	245.517	-15.084	176.542	18.699	309.251	138.919	47.229	289.046	292.727	301.613	298.686	160.836	59.155	0.00032402	0.00049152	0.00014708	858.09	5.6603e-06	6.0566e-06	713.46	319.79	3.0309e-06	5.6648e-06	292.67	128.79	150.96	73.65	4.048e-06	60.76	0.00063956	0.00096607	0.00027072	871.58	1.2244e-05	1.1393e-05	722.68	326.82	9.4377e-06	1.4252e-05	297.51	131.54	154.19	75.48	1.2286e-05	61.921	227.897	58.374	72.349	-7.880	144.924	116.120	-9.695	-3.100	168.874	136.585	-6.794	-3.585	-0.767	1.958	163.771	-1.781	-8191	255	
793.533	1	1	0	0	0.1778	0.31762	0.13122	0.12482	0.11086	0.28604	0.16967	0.21257	0.11204	0.092314	0.11107	0.23938	0.28045	0.39577	0.083774	0.20806	-2.3771	-3.2771	-2.9333	-3.0875	-3.4125	-2.8771	-3.5021	-3.1875	-2.975	-3.2354	-3.1333	-3.0167	-3.4292	-3.0854	-3.2375	-3.0958	23.762	119.659	34.996	288.830	99.332	208.704	287.867	238.822	132.318	-17.103	234.936	297.224	252.289	-6.659	65.681	247.415	0.00033346	0.00049978	0.00015647	873.37	5.1839e-06	6.2588e-06	726.25	325.47	4.0653e-06	3.7831e-06	295.91	130.19	152.34	73.928	3.9057e-06	61.067	0.00069029	0.0010421	0.00030378	887.5	1.2599e-05	1.2532e-05	734.41	332.37	1.076e-05	1.6284e-05	300.7	133.01	156.02	76.095	1.1598e-05	62.406	231.636	60.318	89.595	-7.997	167.939	131.481	-9.436	-3.179	156.121	164.443	-6.801	-3.615	-0.761	2.121	163.358	-1.277	-8191	255	
793.629	1	1	0	0	0.36034	0.089004	0.21708	0.080255	0.15842	0.087071	0.11002	0.29913	0.12847	0.11722	0.12242	0.042095	0.28478	0.26464	0.082063	0.11929	-2.4396	-3.3125	-3.0729	-3.3354	-3.2104	-2.7188	-3.3438	-3.35	-2.9646	-3.3563	-3.2208	-3.1292	-3.4917	-3.1104	-3.05	-3.3187	229.526	203.263	51.538	12.641	182.809	241.052	97.315	329.338	142.189	158.850	100.809	215.971	272.515	10.566	112.359	292.548	0.00030459	0.00056894	0.00019851	881.26	6.63e-06	5.4162e-06	728.05	328.55	4.0936e-06	4.1982e-06	298.04	130.8	153.29	74.467	6.3231e-06	61.818	0.0007428	0.0011275	0.00032567	893.9	1.3549e-05	1.3019e-05	738.1	335.04	1.1312e-05	1.5747e-05	302.95	134.13	156.92	76.694	1.2645e-05	63.127	227.596	76.047	69.840	-7.863	149.725	117.221	-9.477	-2.921	183.457	102.739	-6.889	-3.581	-0.555	2.299	157.223	-1.505	-8191	255	
793.750	1	1	0	0	0.23151	0.26106	0.038707	0.27082	0.055341	0.25484	0.19416	0.087126	0.18086	0.29548	0.11082	0.18815	0.10236	0.38357	0.11541	0.10925	-2.5687	-3.2854	-3.0625	-3.2	-3.2146	-2.8104	-3.3854	-3.2188	-2.8771	-3.275	-3.1458	-2.9771	-3.525	-3.0354	-3.0646	-3.4667	14.331	110.682	290.702	316.298	177.610	-20.765	337.322	318.063	17.547	269.744	264.992	289.494	-12.192	279.007	139.217	267.661	0.00032339	0.00056149	0.0001671	889.25	7.0055e-06	5.6154e-06	736.64	331.68	4.5196e-06	5.3786e-06	301.74	133.1	154.97	75.467	3.433e-06	62.776	0.0007386	0.0011375	0.00032496	902.57	1.3463e-05	1.3193e-05	747.26	338.85	1.1907e-05	1.4894e-05	307.84	136.31	158.91	77.572	1.3045e-05	64.088	231.681	67.824	74.405	-7.857	161.229	128.766	-9.500	-3.082	156.525	114.881	-6.831	-3.513	-0.513	2.056	164.103	-1.347	-8191	255	
793.846	1	1	0	0	0.12495	0.29475	0.1571	0.039314	0.18225	0.14137	0.31257	0.22188	0.069907	0.23175	0.26963	0.27329	0.29586	0.2606	0.12053	0.22626	-2.5854	-3.3229	-3.1271	-3.1125	-3.1729	-3.0854	-3.2687	-3.3583	-2.9917	-3.3583	-3.0875	-2.8708	-3.3937	-3.1208	-3.1	-3.4917	180.611	313.802	64.148	173.901	184.900	118.036	279.290	331.561	87.963	218.950	330.328	254.898	307.277	289.566	121.722	286.870	0.00032591	0.00058892	0.00014066	900.18	5.4836e-06	6.6163e-06	742.98	335.42	3.1115e-06	3.7915e-06	301.67	133.58	156.43	75.684	4.2615e-06	63.212	0.00076574	0.0012093	0.00035041	911.73	1.4175e-05	1.445e-05	753.41	342.14	1.252e-05	1.4281e-05	309.1	136.87	160.17	78.008	1.3823e-05	64.385	231.802	64.437	81.682	-7.875	153.914	131.365	-9.653	-3.097	165.390	134.170	-6.658	-3.533	-0.640	2.150	146.800	-1.698	-8191	255	
793.942	1	1	0	0	0.16933	0.18247	0.20795	0.16566	0.17135	0.038613	0.46042	0.13759	0.05963	0.25342	0.25007	0.061901	0.25139	0.26153	0.12102	0.096521	-2.4042	-3.1542	-3.2042	-2.9979	-3.1667	-3.0604	-3.1	-3.3271	-3.0396	-3.0708	-3.2708	-2.8937	-3.4271	-3.2854	-2.8396	-3.5104	322.309	236.971	231.326	306.820	124.644	0.977	269.901	313.228	257.848	178.641	192.372	337.219	61.291	-18.468	112.582	189.057	0.00032099	0.00059799	0.00013699	900.36	5.8309e-06	5.7478e-06	742.72	335.22	3.7724e-06	5.0086e-06	303.56	133.71	156.53	75.914	3.6619e-06	63.255	0.00080735	0.0012636	0.0003745	914.25	1.4181e-05	1.5526e-05	752.15	342.41	1.3323e-05	1.5639e-05	309.5	136.99	160.43	78.134	1.4671e-05	64.514	228.299	59.913	76.404	-7.745	155.883	114.958	-9.731	-3.030	181.314	114.869	-6.520	-3.532	-0.631	2.180	151.684	-1.683	-8191	255	
794.061	1	1	0	0	0.2916	0.068043	0.24658	0.090811	0.28331	0.14157	0.085413	0.22331	0.12347	0.32291	0.070145	0.19628	0.078885	0.32995	0.17897	0.16054	-2.4979	-3.1146	-3.2729	-2.9229	-3.3021	-2.9625	-3.0396	-3.4375	-3.0229	-3.1458	-3.2938	-2.9625	-3.325	-3.3438	-2.8792	-3.4875	36.282	248.105	243.526	139.440	26.725	28.048	142.292	310.692	290.435	26.214	17.963	337.975	317.885	295.804	307.126	250.860	0.00031549	0.00073993	0.00014441	900	7.4429e-06	5.5138e-06	749.96	335.46	3.3943e-06	4.8396e-06	304.54	134.08	157.03	76.259	3.0087e-06	63.199	0.00083872	0.0013025	0.00040132	914.06	1.3739e-05	1.8259e-05	762.54	342.98	1.3794e-05	1.6232e-05	310.23	137.5	160.68	78.335	1.6283e-05	64.732	229.021	53.475	66.982	-7.836	156.835	118.865	-9.544	-3.042	175.285	134.179	-6.622	-3.599	-0.577	2.125	163.425	-1.632	-8191	255	
794.135	1	1	0	0	0.048225	0.12022	0.13621	0.28741	0.12435	0.20373	0.15313	0.30552	0.16976	0.13562	0.34056	0.11805	0.11261	0.36393	0.06943	0.40658	-2.5896	-2.9271	-3.2687	-2.8083	-2.9646	-3.0896	-3.0479	-3.2083	-2.7583	-2.9729	-3.4188	-2.8625	-3.1833	-3.3979	-2.7042	-3.3812	4.790	13.024	37.740	296.650	158.697	327.782	270.459	316.155	-16.944	120.637	264.396	22.678	327.726	321.382	209.147	276.204	0.00034386	0.00065991	0.0001691	920.38	4.5721e-06	7.3017e-06	766.24	336.34	2.1935e-06	5.8938e-06	304.61	134.74	157.27	76.003	5.1201e-06	63.406	0.00090165	0.0014873	0.00043182	935.75	1.406e-05	2.0482e-05	775.1	343.78	1.4773e-05	1.8026e-05	310.61	137.88	160.78	78.28	1.7348e-05	64.89	225.490	65.933	66.401	-7.886	151.762	136.151	-9.435	-3.097	172.250	126.842	-6.935	-3.563	-0.366	2.074	151.473	-1.491	-8191	255	
794.231	1	1	0	0	0.062911	0.12823	0.075169	0.18459	0.22237	0.049112	0.1755	0.047093	0.078856	0.20897	0.14189	0.11221	0.18325	0.23039	0.023492	0.28526	-2.5208	-2.6771	-3.2333	-3.0271	-3.1604	-3.3083	-2.9625	-3.4188	-3.025	-2.8208	-3.4792	-3.0812	-3.175	-3.4104	-2.7375	-3.2771	298.754	149.702	279.161	275.029	37.275	332.047	75.818	53.745	198.523	319.198	45.882	270.290	331.959	294.470	262.403	-13.145	0.00030091	0.00038032	0.00017594	932.42	4.7022e-06	6.1735e-06	769.68	336.83	2.82e-06	6.0718e-06	303.61	134.57	157.27	76.159	4.9198e-06	63.056	0.00091366	0.0016391	0.00046385	945.42	1.4627e-05	2.2687e-05	780.41	343.85	1.5614e-05	1.8922e-05	310.25	137.74	160.93	78.39	1.8201e-05	64.636	228.848	68.691	57.238	-7.513	164.436	143.118	-9.292	-3.134	151.958	125.952	-6.660	-3.270	-0.481	2.231	194.931	-1.541	-8191	255	
794.350	1	1	0	0	0.19264	0.17015	0.38292	0.23749	0.28409	0.043918	0.25305	0.24102	0.18103	0.045908	0.048716	0.13825	0.028456	0.22466	0.21863	0.09485	-2.5875	-2.8625	-3.2604	-3.1208	-3.1208	-3.3104	-2.9313	-3.3688	-3.0604	-3.0896	-3.3854	-3.0146	-3.1729	-3.4	-2.8688	-3.225	164.092	204.541	297.140	312.219	39.852	-17.242	4.278	299.248	312.376	83.676	-2.178	-18.112	308.264	293.110	231.218	190.176	0.00032733	0.0006097	0.00010588	933.75	4.9114e-06	6.7755e-06	771.35	333.8	5.127e-06	7.7079e-06	302.99	134.49	157.15	75.998	6.3982e-06	63.233	0.0010263	0.0017416	0.00049774	949.18	1.6301e-05	2.339e-05	782.41	342.13	1.7544e-05	2.1541e-05	309.42	137.54	161.01	78.271	1.9244e-05	64.641	234.364	59.424	75.607	-7.760	165.406	109.745	-9.413	-3.048	180.503	117.285	-6.792	-3.525	-0.253	2.330	138.662	-1.678	-8191	255	
794.446	1	1	0	0	0.06643	0.16272	0.1462	0.23106	0.088175	0.30027	0.17318	0.062676	0.11889	0.095101	0.16649	0.11834	0.22127	0.11595	0.14235	0.14242	-2.7188	-2.8479	-3.3833	-3.1958	-2.9646	-3.3063	-3.0229	-3.1208	-3.1729	-2.7771	-3.3563	-3.0125	-3.1021	-3.6646	-2.7333	-3.3333	36.620	6.465	238.937	312.520	170.056	309.020	158.795	336.441	155.296	206.370	278.929	209.346	325.468	203.235	174.899	272.839	0.00031238	0.00049058	0.00015627	931.43	6.7475e-06	2.8312e-06	769.18	335.34	4.3007e-06	7.1736e-06	304.02	134.62	157.79	76.216	5.2282e-06	63.406	0.0011041	0.0018294	0.00051245	950.45	1.7304e-05	2.4933e-05	781.34	343.22	1.881e-05	2.3357e-05	310.07	137.92	161.82	78.392	2.0268e-05	64.866	229.943	71.369	73.594	-7.801	169.828	111.753	-9.526	-3.067	192.922	120.309	-6.644	-3.597	-0.535	2.244	174.195	-1.269	-8191	255	
794.542	1	1	0	0	0.082063	0.097288	0.13286	0.070562	0.084251	0.22029	0.13576	0.028453	0.14456	0.1178	0.20641	0.41998	0.1413	0.25703	0.20323	0.11422	-2.9042	-2.8875	-2.975	-2.9854	-2.9062	-3.3833	-2.8333	-3.1771	-3.2375	-2.9542	-3.3937	-3.0958	-2.9875	-3.3604	-3.0771	-3.3187	212.802	45.636	181.664	220.495	63.972	172.704	233.080	74.170	113.229	121.220	244.077	327.312	312.578	279.702	213.959	306.161	0.00031525	0.00052591	0.00017986	934.45	6.1224e-06	4.9776e-06	773.14	336.68	3.0691e-06	5.9195e-06	305.64	136.28	158.85	76.369	5.9723e-06	63.764	0.0011822	0.0019533	0.0005261	951.38	1.8001e-05	2.4264e-05	784.36	345.03	1.7832e-05	2.2301e-05	311.55	139.24	162.73	78.728	1.965e-05	65.124	230.210	67.663	73.844	-7.693	156.061	129.919	-9.586	-2.935	181.341	125.789	-6.659	-3.445	-0.561	2.177	158.964	-1.568	-8191	255	
794.662	1	1	0	0	0.16512	0.18752	0.076133	0.13531	0.20039	0.12892	0.026168	0.11465	0.15069	0.045616	0.059839	0.05167	0.085344	0.24602	0.11471	0.20355	-2.75	-2.5438	-2.9688	-3.1958	-2.8792	-3.2417	-2.9729	-3.0896	-3.2	-2.8625	-3.3021	-3.2292	-2.85	-3.3354	-2.9458	-3.1417	334.420	328.687	55.481	218.787	72.220	178.013	297.355	271.990	102.810	136.327	224.107	11.734	244.335	20.363	3.712	287.829	0.00032579	0.00054855	0.00016594	936.23	4.861e-06	4.8089e-06	771.48	338.83	4.0476e-06	7.5348e-06	305.51	135.16	158.06	75.878	6.1107e-06	62.931	0.0011126	0.0018579	0.00049062	951.49	1.6898e-05	2.3707e-05	782.39	345.94	1.6967e-05	2.0541e-05	310.95	138.24	162.07	78.166	1.8735e-05	64.388	230.479	61.786	80.529	-7.948	131.020	153.840	-9.740	-3.182	163.856	123.229	-6.764	-3.519	-0.681	2.188	178.402	-1.658	-8191	255	
794.759	1	1	0	0	0.26778	0.21717	0.22527	0.52514	0.17796	0.25891	0.16148	0.12641	0.1227	0.12943	0.27403	0.11912	0.21092	0.23692	0.042581	0.28042	-2.8937	-2.9333	-3.2604	-3.2812	-2.8208	-3.3771	-3.0854	-3.0104	-3.4062	-2.8104	-3.275	-3.2938	-2.9292	-3.25	-2.9271	-3.1542	139.931	159.411	46.792	287.602	321.315	119.930	257.604	229.998	211.460	266.387	283.974	293.747	309.570	-19.314	318.363	257.279	0.00031847	0.00064742	0.0001614	928.21	5.7409e-06	3.8163e-06	765.82	337.37	2.385e-06	3.9623e-06	302.64	134.47	158.07	75.493	5.8705e-06	62.542	0.0010857	0.0017801	0.00049435	944.19	1.595e-05	2.076e-05	774.88	344.82	1.6378e-05	2.0645e-05	309.47	137.79	161.74	77.794	1.8956e-05	64.039	229.059	64.560	57.239	-7.840	176.207	105.277	-9.489	-3.117	185.598	92.548	-7.073	-3.517	-0.611	2.146	178.287	-1.559	-8191	255	
794.830	1	1	0	0	0.15151	0.10729	0.12419	0.1973	0.22657	0.14369	0.10904	0.36461	0.094139	0.30402	0.36688	0.30455	0.050111	0.24256	0.098672	0.19186	-3.0312	-2.8104	-2.7854	-3.3104	-2.7417	-3.2396	-3.1896	-2.9958	-3.1562	-2.8604	-3.1333	-3.2583	-2.8063	-3.1854	-3.2542	-2.975	-9.128	316.070	52.220	279.954	112.619	-1.677	292.981	270.733	32.874	182.422	8.614	271.052	82.109	241.720	121.948	180.414	0.00034939	0.00044572	0.00017612	923.37	3.4502e-06	5.3794e-06	756.91	335.09	4.2186e-06	6.9714e-06	302.74	134.04	157.92	75.381	5.1248e-06	62.325	0.0010475	0.0017323	0.00049866	937.48	1.6642e-05	2.075e-05	771.12	342.99	1.6851e-05	2.1563e-05	308.31	137.23	161.2	77.619	1.9514e-05	63.831	225.645	72.768	72.790	-7.923	156.490	138.637	-9.737	-3.232	163.097	128.270	-6.586	-3.435	-0.631	2.023	158.752	-1.699	-8191	255	
794.951	1	1	0	0	0.082875	0.36471	0.069357	0.18028	0.1502	0.084691	0.076027	0.099631	0.1375	0.043971	0.39922	0.061702	0.11934	0.11508	0.066545	0.18804	-3.1042	-2.9688	-3.0375	-3.4437	-2.7979	-3.3271	-3.2687	-3.1042	-3.4688	-2.95	-3.2625	-3.3833	-2.975	-3.3167	-3.1292	-2.875	-8.448	176.011	184.777	221.325	171.410	307.975	322.640	237.742	304.730	19.955	331.603	331.856	327.988	6.608	17.785	272.993	0.00032071	0.00055168	0.00016862	916.06	6.6047e-06	6.4106e-06	758.46	335.52	5.1753e-06	4.0245e-06	301.14	133.59	157.36	74.999	4.1588e-06	61.935	0.0010746	0.0018395	0.00048968	933.42	1.6534e-05	1.9559e-05	768.43	342.65	1.7467e-05	2.1589e-05	307.29	136.75	161.04	77.321	2.004e-05	63.354	229.413	47.671	62.202	-7.961	167.858	140.338	-9.405	-3.062	168.132	114.892	-6.601	-3.716	-0.744	1.968	152.002	-1.843	-8191	255	
795.047	1	1	0	0	0.11042	0.074141	0.23449	0.2857	0.14203	0.12558	0.21256	0.18427	0.26891	0.10229	0.15403	0.052348	0.19536	0.25474	0.11922	0.42197	-2.9208	-3.0187	-2.825	-3.4	-3.0104	-3.1875	-3.1146	-3.0229	-3.1292	-3.1083	-2.9583	-3.4729	-3.0958	-3.2396	-3.275	-2.9271	243.068	338.312	282.390	-4.912	317.687	78.575	228.087	172.007	151.533	292.142	170.923	279.600	66.775	265.117	264.842	273.085	0.00028401	0.00054417	0.00016483	910.61	5.6957e-06	4.9257e-06	740.42	329.12	3.6207e-06	5.3859e-06	296	132.04	154.9	74.165	3.2807e-06	60.914	0.0010407	0.001886	0.00052117	924.57	1.7301e-05	2.114e-05	752.77	336.97	1.7665e-05	2.281e-05	301.45	134.77	158.87	76.456	2.0176e-05	62.359	223.675	61.838	61.175	-7.840	154.562	143.404	-9.514	-3.186	168.588	157.712	-6.882	-3.769	-0.659	1.961	163.454	-1.902	-8191	255	
795.141	1	1	0	0	0.23136	0.15204	0.055754	0.065896	0.096678	0.50199	0.28064	0.16658	0.19447	0.17662	0.25711	0.17915	0.43098	0.15631	0.098579	0.070236	-3.0708	-3.1854	-3.0396	-3.4271	-3.0208	-3.1771	-3.2438	-3.0646	-3.3063	-3.1167	-3.0396	-3.3229	-3.1479	-3.3563	-3.4021	-2.9292	126.606	148.966	142.781	157.603	266.231	2.288	31.742	166.287	84.534	161.814	252.921	266.663	334.421	262.522	172.217	185.645	0.00031716	0.00046109	0.0001568	898.67	5.4382e-06	6.5946e-06	734.8	326.06	2.9794e-06	6.1831e-06	292.85	130.95	153.96	73.771	3.7738e-06	60.704	0.0010153	0.0021744	0.00055136	913.91	1.7407e-05	2.267e-05	743.58	332.22	1.8185e-05	2.3915e-05	297.33	134.01	157.79	76.014	2.0338e-05	62.07	224.997	63.801	59.323	-8.005	149.909	150.770	-9.325	-3.089	170.857	128.345	-6.877	-3.559	-0.587	2.153	198.759	-1.823	-8191	255	
795.238	1	1	0	0	0.19641	0.065986	0.25625	0.24053	0.16306	0.17158	0.10946	0.11894	0.20382	0.45197	0.25036	0.20017	0.16059	0.18011	0.26331	0.10593	-2.7896	-3.0854	-2.7313	-3.3354	-3.0083	-3.0542	-3.5458	-2.8667	-3.225	-3.2438	-2.9042	-3.4479	-3.2792	-3.1021	-3.1854	-3.0875	14.096	172.216	125.162	261.420	300.729	337.612	287.581	306.244	24.443	247.235	250.572	291.800	301.269	306.902	336.113	318.351	0.00030613	0.00062072	0.00011971	892.64	3.9294e-06	5.8224e-06	721.52	322.16	5.122e-06	4.4322e-06	287.79	130.4	154.26	73.68	5.3671e-06	60.745	0.0010224	0.0021914	0.00053745	906.49	1.8385e-05	2.304e-05	735.26	328.99	1.8896e-05	2.3973e-05	294.99	133.62	158.02	75.924	2.0315e-05	62.111	233.179	41.645	54.031	-7.812	137.050	117.901	-9.704	-3.148	157.857	143.217	-6.791	-3.722	-0.515	2.156	171.104	-1.497	-8191	255	
795.334	1	1	0	0	0.20252	0.14604	0.15982	0.093724	0.28246	0.1127	0.20791	0.080651	0.15089	0.11752	0.29918	0.16707	0.2271	0.21178	0.32221	0.11073	-2.6896	-3.0625	-2.8958	-3.4521	-2.9437	-2.8896	-3.2562	-2.9479	-3.0396	-3.1854	-2.7313	-3.3667	-3.1063	-2.9188	-3.2875	-3.0229	128.166	23.910	88.395	245.455	112.128	273.006	327.217	219.475	207.379	150.059	-13.074	271.263	328.652	330.531	154.249	313.189	0.00030499	0.00060319	0.00015919	887.34	5.7615e-06	6.8997e-06	719.49	319.47	2.5064e-06	5.7522e-06	288.23	129.68	152.87	73.463	5.9939e-06	60.083	0.0010463	0.0022962	0.00057553	902.73	1.9137e-05	2.2856e-05	729.64	326.88	1.9208e-05	2.4844e-05	293.76	132.62	157.02	75.608	2.1232e-05	61.406	223.371	73.167	60.769	-7.752	170.336	126.047	-9.651	-3.182	188.482	107.706	-6.738	-3.628	-0.710	2.055	152.147	-1.764	-8191	255	
795.430	1	1	0	0	0.062363	0.17853	0.20494	0.31017	0.15358	0.05751	0.16596	0.24069	0.10806	0.19532	0.19718	0.12544	0.18691	0.20747	0.23232	0.29	-2.5583	-3.1583	-2.8542	-3.1917	-3.1271	-2.8125	-3.3042	-3.1521	-3.0146	-3.325	-2.7667	-3.3021	-3.1646	-2.9104	-3.2	-3.1063	116.284	260.643	-2.963	334.568	15.337	317.188	7.181	327.308	313.355	73.103	246.941	229.686	314.333	323.855	14.595	252.681	0.00031269	0.00083321	0.00012445	876.6	4.8637e-06	4.7231e-06	709.37	315.51	4.2923e-06	5.1876e-06	283.27	128.49	151.43	73.006	5.2107e-06	59.665	0.0010664	0.002295	0.00057635	892.79	2.0396e-05	2.2918e-05	718.5	322.16	1.9024e-05	2.399e-05	288.65	131.42	155.86	75.136	2.048e-05	60.952	231.138	51.793	86.707	-7.829	155.364	123.921	-9.680	-3.150	195.567	129.496	-7.056	-3.907	-0.644	1.992	175.594	-1.971	-8191	255	
795.526	1	1	0	0	0.10632	0.10207	0.10135	0.18445	0.22413	0.18765	0.15608	0.16289	0.27923	0.2859	0.11395	0.080924	0.19335	0.059927	0.12842	0.1256	-2.5521	-3.2687	-2.8542	-3.2917	-3.1167	-2.7896	-3.3583	-3.1	-2.9437	-3.2708	-2.95	-3.2792	-3.3208	-3.0625	-3.2104	-3.2521	188.086	279.837	102.732	260.496	248.019	90.885	306.667	17.821	16.523	219.579	310.901	47.991	220.473	218.085	333.651	79.486	0.00031309	0.00076182	0.00012971	870.73	4.5355e-06	5.7354e-06	702.61	311.5	3.7783e-06	4.5455e-06	279.45	127.65	151.44	73.106	3.1151e-06	59.505	0.0010707	0.0023274	0.00058183	886.13	1.8903e-05	2.3276e-05	713.44	317.3	1.9434e-05	2.4383e-05	285.46	131.05	155.64	75.104	2.1081e-05	60.98	227.944	67.010	58.412	-7.867	168.701	105.437	-9.855	-3.246	167.205	114.923	-6.757	-3.603	-0.696	1.929	144.861	-1.862	-8191	255	
795.622	1	1	0	0	0.17939	0.37262	0.068569	0.34291	0.04139	0.095213	0.066775	0.27146	0.22764	0.12039	0.13222	0.12154	0.11147	0.12301	0.015632	0.119	-2.5021	-3.1792	-2.9521	-3.2062	-3.2729	-2.7125	-3.3688	-3.0854	-2.8833	-3.4313	-3.1521	-3.1562	-3.4958	-3.0771	-3.1688	-3.1292	233.338	260.433	222.457	3.199	212.551	-11.457	169.787	182.774	150.308	100.421	182.373	-20.178	-3.051	331.685	331.383	243.337	0.00029107	0.00056506	6.6749e-05	865.55	6.9178e-06	5.4523e-06	700.39	310.33	4.3209e-06	3.8564e-06	279.15	128.33	151.7	73.095	7.8158e-06	59.615	0.0010732	0.0022328	0.00059397	883.99	1.921e-05	2.3922e-05	711.39	317.58	1.9521e-05	2.4076e-05	285.7	131.39	155.87	75.199	2.1422e-05	61.033	234.436	68.048	60.334	-7.920	148.025	153.121	-9.784	-3.219	167.447	86.655	-6.788	-3.697	-0.578	2.172	170.628	-1.732	-8191	255	
795.743	1	1	0	0	0.065361	0.12399	0.21747	0.13875	0.24707	0.13186	0.20063	0.22067	0.24239	0.10795	0.089239	0.28804	0.0083558	0.24609	0.13843	0.30159	-2.5042	-3.2896	-2.9458	-3.2167	-3.2062	-2.9583	-3.2458	-3.1188	-2.7917	-3.2396	-3.0333	-3.1562	-3.4333	-3.0854	-3.075	-3.2021	260.380	218.160	304.101	138.567	337.707	92.845	336.561	229.215	48.541	71.503	326.159	334.013	217.045	286.166	150.717	309.815	0.00030504	0.00060127	0.00010502	865.32	4.8313e-06	5.0246e-06	697.4	308.39	4.7562e-06	4.2239e-06	277.13	127.29	150.72	72.44	4.8992e-06	59.075	0.0010883	0.0024146	0.00061634	881.27	2.0346e-05	2.4948e-05	706.75	315.85	2.0303e-05	2.6053e-05	283.31	130.26	154.87	74.609	2.2531e-05	60.367	231.502	53.617	61.521	-7.703	157.963	137.672	-9.527	-2.905	212.792	118.064	-7.018	-3.675	-0.712	1.953	175.135	-1.983	-8191	255	
795.839	1	1	0	0	0.12675	0.15802	0.063856	0.21269	0.22848	0.18828	0.29844	0.12176	0.12665	0.12638	0.17547	0.11501	0.13528	0.21054	0.23398	0.1144	-2.2875	-3.2104	-3.125	-3.1875	-3.3688	-2.8333	-3.1562	-3.1833	-2.8479	-3.3	-3.1021	-3.1	-3.3333	-2.8833	-3.0208	-3.3	131.527	220.259	304.555	274.990	101.591	13.040	48.185	202.898	86.322	103.469	145.816	284.103	294.865	308.900	-4.114	6.383	0.00028153	0.00065524	0.00013246	860.5	6.9577e-06	4.6513e-06	687.79	304.43	2.5164e-06	6.4338e-06	272.8	125.34	150.2	71.924	4.0992e-06	58.642	0.001119	0.0022892	0.00064815	874.4	2.0336e-05	2.6048e-05	698.17	311.52	2.0657e-05	2.6038e-05	279.08	128.72	153.58	74.087	2.3372e-05	59.877	231.797	39.580	52.334	-7.893	144.538	109.854	-9.479	-3.233	208.151	109.256	-6.763	-3.492	-0.706	2.051	153.713	-1.959	-8191	255	
795.935	1	1	0	0	0.213	0.33294	0.24359	0.45226	0.32681	0.13762	0.17147	0.1841	0.14955	0.12062	0.062832	0.35412	0.088207	0.34647	0.093717	0.24318	-2.3937	-3.1875	-3.1833	-2.7812	-3.3	-3.0479	-3.2646	-3.25	-2.85	-3.4167	-3.1083	-2.9896	-3.2771	-3.0917	-2.9521	-3.2208	63.734	45.574	278.107	328.863	23.961	100.694	271.047	39.533	210.777	304.414	198.164	314.128	-15.609	308.891	73.763	22.806	0.00029649	0.00048894	0.00012833	849.91	5.5203e-06	5.6956e-06	682.36	299.27	2.58e-06	7.1178e-06	268	125.05	148.34	71.239	5.0199e-06	58.296	0.0011463	0.0022591	0.00071602	867.79	2.0865e-05	2.7213e-05	693.63	306.63	2.2166e-05	2.7664e-05	274.67	127.93	152.48	73.592	2.4999e-05	59.571	234.396	38.871	83.049	-7.826	158.359	135.090	-9.615	-2.954	241.018	144.482	-6.731	-3.551	-0.560	2.056	187.058	-1.754	-8191	255	
796.031	1	1	0	0	0.22098	0.072961	0.094267	0.17059	0.19737	0.095746	0.20078	0.35111	0.10376	0.074698	0.1175	0.17903	0.24391	0.11276	0.26193	0.21618	-2.4	-3.2562	-3.0542	-3.0542	-3.2812	-2.925	-3.0896	-3.5208	-2.9167	-3.1	-3.0563	-2.8688	-3.4729	-3.1292	-2.8333	-3.3063	236.502	261.486	17.077	255.405	190.337	137.600	111.445	225.569	138.083	287.355	284.183	271.261	256.581	288.082	107.743	181.620	0.0002924	0.00050304	9.5953e-05	852.16	5.8265e-06	5.9641e-06	679.43	300.28	4.6022e-06	4.3964e-06	268	124.61	148.94	71.499	5.3772e-06	57.937	0.0011963	0.0024201	0.00073665	865.37	2.1818e-05	2.931e-05	691.27	306.48	2.2695e-05	2.9689e-05	274.46	127.85	152.82	73.632	2.5643e-05	59.527	229.151	63.579	56.063	-7.877	177.122	120.178	-9.489	-3.143	178.992	99.005	-6.751	-3.734	-0.592	2.045	168.215	-1.693	-8191	255	
796.127	1	1	0	0	0.10889	0.35755	0.07876	0.22758	0.16096	0.40767	0.25565	0.19192	0.12159	0.098814	0.021393	0.13362	0.13276	0.11969	0.20291	0.19196	-2.2875	-3.2042	-3.0521	-3.0104	-3.2521	-3.1688	-2.9271	-3.3792	-2.8833	-3.0667	-3.275	-3.0646	-3.3063	-3.2708	-2.8833	-3.4146	65.424	94.998	189.630	34.608	287.065	193.700	294.654	311.947	222.771	195.294	220.544	64.543	335.368	320.390	121.580	312.632	0.0003299	0.00054485	0.00014052	848.45	6.4108e-06	6.1442e-06	673.86	294.36	5.2558e-06	5.6669e-06	260.78	122.66	146.2	70.553	4.9754e-06	56.925	0.0012655	0.0025403	0.00081187	861.16	2.2947e-05	3.0222e-05	685.15	300.16	2.406e-05	3.0659e-05	266.36	126.08	150.48	72.764	2.7162e-05	58.398	225.558	58.599	63.278	-7.819	173.437	142.222	-9.754	-3.171	178.707	137.446	-6.781	-3.561	-0.688	1.897	149.512	-1.828	-8191	255	
796.224	1	1	0	0	0.24924	0.093935	0.058535	0.010515	0.12042	0.016799	0.093905	0.23656	0.23827	0.054931	0.21334	0.19141	0.2945	0.23212	0.12939	0.10867	-2.3854	-3	-3.2458	-2.8729	-3.1583	-2.9458	-2.8604	-3.3563	-2.95	-3.0604	-3.2396	-2.9958	-3.2479	-3.3375	-2.8812	-3.4854	296.983	58.865	267.211	34.822	37.215	109.853	245.301	249.357	150.912	200.603	10.003	270.748	-15.498	285.343	81.981	166.219	0.00029501	0.00038407	0.00014873	839.23	4.803e-06	7.2789e-06	665.07	284.1	3.7926e-06	4.0991e-06	247.9	120.8	145.05	69.751	2.1606e-06	56.428	0.0012947	0.0026231	0.00077485	853.78	2.328e-05	3.0659e-05	675.66	290.55	2.4647e-05	3.0957e-05	254.12	124.19	148.83	71.915	2.6748e-05	57.763	228.281	70.798	73.469	-7.879	156.596	136.171	-9.678	-3.135	175.170	123.835	-6.867	-3.606	-0.823	2.014	172.579	-1.908	-8191	255	
796.342	1	1	0	0	0.22043	0.16542	0.18304	0.16819	0.19729	0.12198	0.20245	0.1604	0.1365	0.073468	0.08532	0.12319	0.33356	0.10494	0.15027	0.16755	-2.3396	-2.9458	-3.2562	-2.9938	-3.1208	-3.1292	-3.0687	-3.4354	-2.8667	-2.9813	-3.3042	-2.8542	-3.2917	-3.2458	-2.7583	-3.4062	62.373	260.262	66.978	291.212	187.374	-4.569	24.811	72.838	316.816	143.234	95.624	229.181	-10.481	319.678	289.611	232.281	0.00028259	0.00068931	0.00015816	828.58	5.0517e-06	2.9629e-06	656.31	277.72	2.5785e-06	3.4725e-06	242.31	119.58	143.19	69.316	6.2906e-06	55.894	0.0012918	0.0026045	0.00079967	846.62	2.3698e-05	3.0539e-05	668.94	284.52	2.5505e-05	3.1022e-05	248.32	122.71	146.99	71.262	2.6759e-05	57.223	225.050	71.627	69.494	-7.925	140.633	157.946	-9.711	-2.877	208.179	156.711	-6.992	-3.706	-0.692	2.002	188.933	-1.948	-8191	255	
796.439	1	1	0	0	0.13094	0.16467	0.083497	0.11496	0.076098	0.087532	0.30785	0.19154	0.18448	0.17386	0.20386	0.1918	0.29842	0.27782	0.11866	0.18204	-2.6063	-3.0938	-3.1167	-2.9167	-2.9354	-3.0542	-2.9521	-3.3	-3.1792	-2.9271	-3.4417	-2.9458	-3.1729	-3.2958	-2.7938	-3.2458	-0.699	187.210	87.090	15.235	161.156	290.486	228.292	18.416	110.088	106.041	193.364	250.216	314.097	315.991	234.433	316.070	0.0002594	0.00052957	0.00015924	827.33	3.8594e-06	6.7647e-06	653.74	272.24	4.5304e-06	6.3e-06	234.78	117.23	140.67	67.399	5.1621e-06	54.482	0.0012903	0.0026008	0.00077798	841.8	2.401e-05	3.1006e-05	662.78	278.86	2.784e-05	3.2501e-05	241.45	120.37	144.52	69.549	2.8004e-05	55.842	229.450	97.719	84.780	-7.674	147.650	129.053	-9.616	-3.089	153.781	124.344	-6.374	-3.772	-0.779	2.006	169.279	-1.756	-8191	255	
796.535	1	1	0	0	0.11379	0.30306	0.061275	0.26148	0.026538	0.23488	0.070688	0.19303	0.25311	0.14158	0.19812	0.02149	0.08373	0.015971	0.058514	0.26458	-2.7167	-2.8354	-3.2625	-3.0354	-3.1937	-3.2646	-2.8396	-3.3812	-3.2438	-2.8771	-3.6458	-3.0917	-3.2104	-3.475	-3.1667	-3.3271	160.514	117.304	130.400	300.403	244.007	57.004	331.794	305.399	131.179	95.501	296.455	96.927	270.909	144.829	83.997	229.874	0.00025071	0.00063495	0.00016389	816.86	5.2835e-06	4.4476e-06	639.8	262.68	4.1466e-06	6.5586e-06	223.47	112.8	136.27	64.754	4.546e-06	52.259	0.0013005	0.0026652	0.00082809	832.3	2.4373e-05	3.1764e-05	650.64	268.82	2.6669e-05	3.2367e-05	228.49	115.52	139.68	66.542	2.8782e-05	53.524	230.070	48.801	61.421	-7.874	176.833	137.532	-9.906	-2.981	172.106	108.330	-6.556	-3.969	-0.980	1.873	124.789	-1.945	-8191	255	
796.631	1	1	0	0	0.13318	0.13432	0.22406	0.12163	0.10165	0.09108	0.17563	0.14318	0.18688	0.056793	0.21153	0.14794	0.32846	0.19057	0.15796	0.15541	-2.7854	-2.6958	-3.1604	-3.0042	-2.9062	-3.2125	-2.9375	-3.3	-3.1083	-2.9771	-3.4375	-3.1188	-2.8917	-3.5958	-2.8875	-3.2354	292.545	284.560	282.697	239.102	289.832	243.546	303.769	286.568	196.519	273.221	24.002	220.809	85.912	286.166	283.730	215.115	0.00026697	0.00048583	0.00010337	804.06	3.272e-06	5.4679e-06	626.51	249.72	2.9629e-06	4.723e-06	211.16	109.36	132.76	61.811	3.2026e-06	50.093	0.0012904	0.0026672	0.00076638	818.06	2.3698e-05	3.0732e-05	639.55	256.74	2.6186e-05	3.0445e-05	216.23	111.96	136.1	63.667	2.6946e-05	51.402	231.417	82.345	41.992	-8.032	138.750	110.432	-9.961	-3.048	208.788	107.313	-6.722	-3.799	-0.935	1.907	125.674	-2.180	-8191	255	
796.727	1	1	0	0	0.11237	0.12045	0.28928	0.15177	0.022934	0.093618	0.098518	0.33804	0.15348	0.1156	0.026419	0.16346	0.17597	0.50495	0.14955	0.16125	-2.6833	-2.7625	-3.0062	-3.0146	-3.0062	-3.3167	-3.15	-3.2021	-3.2146	-2.8563	-3.3354	-3.3042	-3.1188	-3.65	-2.8917	-3.2875	330.219	17.114	18.491	319.177	71.602	331.575	270.436	-15.916	134.013	155.731	263.771	269.012	289.732	-0.829	300.154	249.701	0.00024318	0.00050819	0.00015817	794.25	4.475e-06	4.4687e-06	621.72	243.86	4.27e-06	4.5212e-06	204.64	107.7	130.09	60.341	4.7368e-06	48.921	0.0012101	0.0026081	0.00073879	810.63	2.2903e-05	2.9396e-05	633.11	249.43	2.5005e-05	3.0611e-05	209.18	110.19	133.59	62.155	2.731e-05	50.168	229.271	62.158	55.551	-7.846	137.624	162.935	-9.741	-3.000	151.301	121.453	-6.896	-3.837	-0.723	1.822	190.985	-1.896	-8191	255	
#DATA ENDS
