BOXY.EXE: ISS Imagent and Oximeter Data Acquisition Program Version 0.80
Ascii Record File

#ACQ INFORMATION
2  Detector Channels 
16  External MUX Channels 
1  Auxiliary Channels 
5000  Waveform (CCF) Frequency (Hz)
1  Waveforms Skipped 
30  Waveforms Averaged 
1  Cycles Averaged 
16  Acquisitions per Waveform 
10.0806  Updata Rate (Hz) 

#FILE INFORMATION
TRUE -- External MUX Channel results are PARSED.
FALSE -- AC DC and Phase are NOT grouped.
TRUE -- Companion Program Settings File CREATED.
FALSE -- AC data not excluded
FALSE -- DC data not excluded
FALSE -- Phase data not excluded
FALSE -- Auxillary Chn. data not excluded
Tab delimiters

#CALIBRATION STATE
TRUE -- Waveform Calibration Values APPLIED.


#AUX CALIBRATION VALUES
Val Type	aux-1	

Term	1.0000e+00	
Factor	0.0000e+00	


#WF CALIBRATION VALUES
A = Detector Channel
Val Type	A-AC1	A-AC2	A-AC3	A-AC4	A-AC5	A-AC6	A-AC7	A-AC8	A-AC9	A-AC10	A-AC11	A-AC12	A-AC13	A-AC14	A-AC15	A-AC16	A-DC1	A-DC2	A-DC3	A-DC4	A-DC5	A-DC6	A-DC7	A-DC8	A-DC9	A-DC10	A-DC11	A-DC12	A-DC13	A-DC14	A-DC15	A-DC16	A-Ph1	A-Ph2	A-Ph3	A-Ph4	A-Ph5	A-Ph6	A-Ph7	A-Ph8	A-Ph9	A-Ph10	A-Ph11	A-Ph12	A-Ph13	A-Ph14	A-Ph15	A-Ph16	

Term	0.00000e+00	0.00000e+00	0.00000e+00	0.00000e+00	0.00000e+00	0.00000e+00	0.00000e+00	0.00000e+00	0.00000e+00	0.00000e+00	0.00000e+00	0.00000e+00	0.00000e+00	0.00000e+00	0.00000e+00	0.00000e+00	0.00000e+00	0.00000e+00	0.00000e+00	0.00000e+00	0.00000e+00	0.00000e+00	0.00000e+00	0.00000e+00	0.00000e+00	0.00000e+00	0.00000e+00	0.00000e+00	0.00000e+00	0.00000e+00	0.00000e+00	0.00000e+00	0.00000e+00	0.00000e+00	0.00000e+00	0.00000e+00	0.00000e+00	0.00000e+00	0.00000e+00	0.00000e+00	0.00000e+00	0.00000e+00	0.00000e+00	0.00000e+00	0.00000e+00	0.00000e+00	0.00000e+00	0.00000e+00	
Factor	1.00000e+00	1.00000e+00	1.00000e+00	1.00000e+00	1.00000e+00	1.00000e+00	1.00000e+00	1.00000e+00	1.00000e+00	1.00000e+00	1.00000e+00	1.00000e+00	1.00000e+00	1.00000e+00	1.00000e+00	1.00000e+00	1.00000e+00	1.00000e+00	1.00000e+00	1.00000e+00	1.00000e+00	1.00000e+00	1.00000e+00	1.00000e+00	1.00000e+00	1.00000e+00	1.00000e+00	1.00000e+00	1.00000e+00	1.00000e+00	1.00000e+00	1.00000e+00	X	X	X	X	X	X	X	X	X	X	X	X	X	X	X	X	

B = Detector Channel
Val Type	B-AC1	B-AC2	B-AC3	B-AC4	B-AC5	B-AC6	B-AC7	B-AC8	B-AC9	B-AC10	B-AC11	B-AC12	B-AC13	B-AC14	B-AC15	B-AC16	B-DC1	B-DC2	B-DC3	B-DC4	B-DC5	B-DC6	B-DC7	B-DC8	B-DC9	B-DC10	B-DC11	B-DC12	B-DC13	B-DC14	B-DC15	B-DC16	B-Ph1	B-Ph2	B-Ph3	B-Ph4	B-Ph5	B-Ph6	B-Ph7	B-Ph8	B-Ph9	B-Ph10	B-Ph11	B-Ph12	B-Ph13	B-Ph14	B-Ph15	B-Ph16	

Term	0.00000e+00	0.00000e+00	0.00000e+00	0.00000e+00	0.00000e+00	0.00000e+00	0.00000e+00	0.00000e+00	0.00000e+00	0.00000e+00	0.00000e+00	0.00000e+00	0.00000e+00	0.00000e+00	0.00000e+00	0.00000e+00	0.00000e+00	0.00000e+00	0.00000e+00	0.00000e+00	0.00000e+00	0.00000e+00	0.00000e+00	0.00000e+00	0.00000e+00	0.00000e+00	0.00000e+00	0.00000e+00	0.00000e+00	0.00000e+00	0.00000e+00	0.00000e+00	-1.94746e+02	-1.29429e+02	-1.23296e+02	-1.81177e+02	-8.24941e+01	-6.72532e+01	-1.58393e+02	-1.62015e+02	-8.26879e+01	-6.57740e+01	-1.70238e+02	-1.70284e+02	-1.81041e+02	-1.76563e+02	-7.59332e+01	-1.49301e+02	
Factor	3.81472e-05	1.55800e-04	4.27792e-05	1.56288e-01	1.59967e-06	1.59687e-06	1.72052e-01	5.78622e-02	1.65686e-06	1.77183e-06	8.97467e-02	3.04905e-02	2.59666e-02	9.04681e-03	1.74401e-06	1.28027e-02	2.48459e-05	6.22447e-05	1.74435e-05	8.03579e-02	5.30800e-07	7.33201e-07	8.33309e-02	2.98252e-02	5.43097e-07	7.33792e-07	4.50204e-02	1.52899e-02	1.34928e-02	4.71424e-03	5.97119e-07	6.48029e-03	X	X	X	X	X	X	X	X	X	X	X	X	X	X	X	X	



#DISTANCE SETTINGS
A = Detector Channel
A-1	A-2	A-3	A-4	A-5	A-6	A-7	A-8	A-9	A-10	A-11	A-12	A-13	A-14	A-15	A-16	

2.5000e+00	3.0000e+00	2.5000e+00	3.0000e+00	2.0000e+00	3.0000e+00	1.5000e+00	3.0000e+00	3.0000e+00	3.0000e+00	3.0000e+00	3.0000e+00	3.0000e+00	3.0000e+00	1.5000e+00	3.0000e+00	

B = Detector Channel
B-1	B-2	B-3	B-4	B-5	B-6	B-7	B-8	B-9	B-10	B-11	B-12	B-13	B-14	B-15	B-16	

1.0000e+01	1.0000e+01	1.0000e+01	1.4400e+00	1.0000e+01	1.0000e+01	1.5100e+00	1.9400e+00	1.0000e+01	1.0000e+01	1.9900e+00	2.4900e+00	2.4100e+00	2.9000e+00	1.0000e+01	2.9800e+00	




#DATA BEGINS
time	group	step	mark	flag	A-AC1	A-AC2	A-AC3	A-AC4	A-AC5	A-AC6	A-AC7	A-AC8	A-AC9	A-AC10	A-AC11	A-AC12	A-AC13	A-AC14	A-AC15	A-AC16	A-DC1	A-DC2	A-DC3	A-DC4	A-DC5	A-DC6	A-DC7	A-DC8	A-DC9	A-DC10	A-DC11	A-DC12	A-DC13	A-DC14	A-DC15	A-DC16	A-Ph1	A-Ph2	A-Ph3	A-Ph4	A-Ph5	A-Ph6	A-Ph7	A-Ph8	A-Ph9	A-Ph10	A-Ph11	A-Ph12	A-Ph13	A-Ph14	A-Ph15	A-Ph16	B-AC1	B-AC2	B-AC3	B-AC4	B-AC5	B-AC6	B-AC7	B-AC8	B-AC9	B-AC10	B-AC11	B-AC12	B-AC13	B-AC14	B-AC15	B-AC16	B-DC1	B-DC2	B-DC3	B-DC4	B-DC5	B-DC6	B-DC7	B-DC8	B-DC9	B-DC10	B-DC11	B-DC12	B-DC13	B-DC14	B-DC15	B-DC16	B-Ph1	B-Ph2	B-Ph3	B-Ph4	B-Ph5	B-Ph6	B-Ph7	B-Ph8	B-Ph9	B-Ph10	B-Ph11	B-Ph12	B-Ph13	B-Ph14	B-Ph15	B-Ph16	aux-1	digaux	

51449.145	1	1	0	768	0.13072	0.082699	0.22187	0.14898	0.021601	0.30112	0.16628	0.33894	0.14081	0.29235	0.094653	0.047352	0.20607	0.21744	0.056328	0.091337	-2.5354	-3.5042	-2.8271	-3.5479	-3.2188	-2.5771	-3.7646	-2.8917	-2.975	-3.5042	-2.7875	-3.2125	-3.4458	-2.9542	-3.3646	-3.0438	233.605	-14.657	11.160	174.346	100.990	34.662	149.643	255.040	-56.667	-83.942	264.511	229.802	-84.614	189.422	-49.077	149.237	0.00066425	0.0003304	0.00018931	803.86	5.4633e-06	4.2039e-06	712.05	319.84	6.7716e-06	9.4382e-06	329.9	150.7	157.33	71.145	4.9244e-06	78.087	0.0027625	0.0055336	0.0015956	839.13	4.8386e-05	6.7085e-05	743.2	335.5	5.0842e-05	6.6315e-05	347.65	158.96	165.7	75.368	5.4988e-05	82.854	121.835	0.921	-17.920	-78.807	51.263	36.308	-80.132	-73.376	58.382	42.102	-75.754	-71.572	-69.515	-64.090	20.390	-67.337	-8191	255	
51449.242	1	1	0	0	0.061708	0.30788	0.16046	0.27416	0.11847	0.16623	0.075269	0.081601	0.088226	0.29336	0.072994	0.21308	0.23539	0.22335	0.2072	0.16187	-2.4104	-3.525	-2.7042	-3.2729	-3.4604	-2.5625	-3.6188	-3.1333	-2.8229	-3.4521	-2.8146	-3.3521	-3.4833	-2.7229	-3.4	-3.3104	23.628	-85.411	-71.352	233.026	232.340	231.668	263.781	175.881	185.251	226.666	-4.308	194.994	259.899	245.183	27.008	158.936	0.00060381	0.00064181	0.00018938	802.23	1.5183e-06	6.2515e-06	710.61	318.31	6.8922e-06	6.7484e-06	332.09	150.57	157.18	70.97	6.0918e-06	78.251	0.0027757	0.0056674	0.001588	836.57	4.879e-05	6.5933e-05	740.42	334.3	5.0428e-05	6.6751e-05	347.78	158.85	165.73	75.396	5.5219e-05	82.989	125.146	-3.536	6.681	-79.027	62.424	62.530	-79.893	-73.176	36.761	62.266	-75.579	-71.617	-69.350	-64.088	67.241	-67.390	-8191	255	
51449.340	1	1	0	0	0.036986	0.053876	0.30017	0.090259	0.17392	0.26682	0.25882	0.26226	0.11098	0.061988	0.15065	0.29453	0.27824	0.14309	0.26061	0.20792	-2.5312	-3.5229	-2.85	-3.0417	-3.4813	-2.7938	-3.5042	-3.2729	-2.7167	-3.5417	-3.0792	-2.9688	-3.6437	-2.9042	-3.2854	-3.4604	176.267	187.491	95.378	-60.686	9.663	187.201	190.674	121.987	-71.940	70.129	-45.045	247.812	-65.090	244.915	119.749	-87.340	0.00066065	0.00048498	0.00017344	803.35	3.6571e-06	1.8434e-06	707.61	321.16	2.4027e-06	8.8999e-06	332.1	151.48	157.04	71.7	4.3213e-06	79.379	0.0027664	0.0056639	0.0015954	835.97	4.7665e-05	6.578e-05	740.42	336.3	4.9604e-05	6.4256e-05	349.54	159.89	166.1	75.852	5.4696e-05	84.055	127.049	-22.089	4.530	-78.798	57.931	2.304	-80.184	-73.658	37.709	52.101	-75.747	-71.893	-69.547	-64.307	22.109	-67.772	-8191	255	
51449.434	1	1	0	0	0.27294	0.080227	0.12046	0.1418	0.22348	0.087364	0.15422	0.030895	0.096133	0.19899	0.34904	0.13477	0.10811	0.088118	0.11799	0.2096	-2.2708	-3.6	-3.0521	-2.8854	-3.4833	-2.8563	-3.2917	-3.4896	-2.6167	-3.6625	-2.9833	-2.9208	-3.6792	-2.9458	-3.2167	-3.6625	-20.832	114.562	-9.213	62.720	62.852	234.590	222.278	212.193	57.284	26.350	198.260	-12.832	201.872	3.990	138.650	167.371	0.00057471	0.00055568	0.00028829	803.55	6.0052e-06	6.3473e-06	710.88	322.27	3.159e-06	6.8243e-06	332.18	151.34	157.59	71.456	2.4377e-06	79.013	0.0026939	0.0055281	0.0015539	837.07	4.8065e-05	6.5958e-05	743.68	338.01	5.0028e-05	6.4438e-05	350.24	159.87	165.91	75.65	5.4103e-05	83.516	123.494	5.489	-2.136	-78.997	-2.316	52.356	-80.095	-73.479	27.482	41.544	-75.623	-71.759	-69.387	-64.361	77.560	-67.568	-8191	255	
51449.531	1	1	0	0	0.16258	0.18608	0.19031	0.10164	0.17038	0.1335	0.25316	0.1264	0.20466	0.083247	0.13936	0.29694	0.16787	0.24039	0.084729	0.19983	-2.3354	-3.3458	-3.1271	-2.8375	-3.5563	-2.8083	-3.1437	-3.6333	-2.8646	-3.4292	-3.3917	-2.775	-3.6583	-3.0354	-2.9021	-3.7375	103.655	76.030	98.364	266.067	116.560	-6.684	257.328	142.629	-89.580	118.975	34.438	-40.775	-68.103	-87.726	89.221	185.690	0.00070983	0.00060092	0.00015225	801.3	5.6304e-06	7.5827e-06	710.74	320.06	6.6195e-06	4.5285e-06	331.1	151.11	156.79	70.721	4.8878e-06	78.432	0.00272	0.0055144	0.001535	835.31	4.8207e-05	6.4458e-05	741.07	335.8	4.9685e-05	6.4698e-05	347.77	158.95	165.31	75.056	5.4674e-05	82.548	126.415	10.958	2.097	-78.926	25.545	80.717	-80.188	-73.581	10.918	50.898	-75.767	-71.679	-69.386	-64.153	41.076	-67.564	-8191	255	
51449.629	1	1	0	0	0.19989	0.12889	0.026897	0.11148	0.22791	0.087912	0.22386	0.094758	0.13298	0.37377	0.20199	0.26613	0.18538	0.3671	0.059211	0.35924	-2.5458	-3.2583	-3.3292	-2.8104	-3.5687	-2.9396	-3.0312	-3.6125	-2.7438	-3.1667	-3.3375	-2.9229	-3.7021	-3.1271	-2.7938	-3.6833	161.650	19.668	207.871	243.910	2.415	183.966	24.573	210.121	-88.681	191.203	-48.716	195.416	252.626	-87.853	-82.593	225.437	0.00064809	0.00054235	0.00018002	802.26	4.0365e-06	6.8212e-06	710.96	318.92	3.4785e-06	7.5952e-06	329.46	149.59	156.51	70.475	3.8877e-06	77.116	0.0027204	0.0055515	0.0015467	835.59	4.7159e-05	6.4797e-05	741.12	334.57	4.986e-05	6.5337e-05	346.13	157.94	164.94	74.686	5.5633e-05	81.911	124.766	7.469	-3.124	-78.930	57.473	79.938	-80.006	-73.405	62.266	55.220	-75.628	-71.617	-69.307	-64.183	65.083	-67.406	-8191	255	
51449.746	1	1	0	0	0.41076	0.082308	0.12671	0.18466	0.15986	0.080968	0.061143	0.21071	0.34379	0.044321	0.25833	0.19677	0.065656	0.32149	0.28142	0.23236	-2.2854	-3.2583	-3.5104	-2.6354	-3.4813	-3.325	-3.1833	-3.6125	-2.8729	-3.2146	-3.6167	-2.8	-3.6	-3.3167	-2.8438	-3.6583	263.511	-41.333	129.721	219.494	256.718	-45.256	104.648	147.269	91.514	169.703	211.764	-43.515	149.734	-64.178	260.860	232.955	0.0006295	0.00061759	0.00013121	803.93	8.4052e-06	6.5256e-06	707.56	317.99	4.064e-06	7.1212e-06	327.22	148.38	154.12	69.559	4.9327e-06	76.716	0.0027428	0.0057466	0.001592	836.87	4.921e-05	6.7187e-05	739.03	333.92	5.099e-05	6.8718e-05	344.11	156.57	163.31	73.954	5.8799e-05	81.384	114.755	-8.488	6.682	-78.949	28.153	55.423	-80.358	-73.460	24.449	68.854	-75.645	-71.700	-69.190	-64.131	35.124	-67.277	-8191	255	
51449.844	1	1	0	0	0.061584	0.2787	0.25544	0.23279	0.1808	0.16545	0.20781	0.25596	0.16889	0.13341	0.24652	0.23379	0.052073	0.085279	0.13316	0.18938	-2.4604	-3.0917	-3.3833	-2.8146	-3.2979	-3.3146	-2.8646	-3.5854	-2.8208	-2.8833	-3.6729	-2.7812	-3.4479	-3.3521	-2.7875	-3.7833	-10.728	-69.423	-77.544	169.250	-68.104	57.345	-49.969	168.092	25.748	-16.876	104.191	166.983	12.093	208.914	-65.003	214.165	0.00054556	0.00050509	0.00014791	799.4	3.9353e-06	7.1774e-06	703.32	315.87	6.9204e-06	6.3547e-06	324.59	146.32	153.22	69.394	6.1533e-06	75.58	0.0029563	0.0061154	0.0017207	832.73	5.2339e-05	7.2043e-05	734.62	331.5	5.5004e-05	7.3619e-05	341.64	154.77	161.81	73.495	6.2889e-05	80.364	121.720	-18.767	14.573	-78.751	35.996	42.939	-80.080	-73.255	36.913	58.622	-75.767	-71.529	-69.125	-64.069	66.939	-67.384	-8191	255	
51449.938	1	1	0	0	0.40123	0.057413	0.2192	0.30159	0.27099	0.16532	0.1142	0.10664	0.27323	0.048764	0.20373	0.040726	0.26411	0.11495	0.29392	0.12371	-2.6708	-2.9083	-3.6167	-2.8146	-3.2062	-3.575	-2.8146	-3.6896	-3.0083	-2.7938	-3.6917	-2.9271	-3.3354	-3.575	-2.6917	-3.5625	-35.873	-26.039	138.605	247.330	-38.374	254.599	235.166	211.113	149.108	9.654	232.054	22.001	233.870	229.826	152.646	175.158	0.0005677	0.00049609	0.00021063	796.47	6.0953e-06	4.5753e-06	693.29	313.38	3.8778e-06	4.805e-06	320.7	144.84	152.34	68.775	8.8729e-06	75.235	0.0030268	0.0063178	0.001818	828.92	5.462e-05	7.3572e-05	727.33	329.05	5.6202e-05	7.4683e-05	337.82	152.91	160.7	72.896	6.3102e-05	79.523	118.342	8.980	-7.331	-78.841	33.570	74.458	-79.985	-73.395	-1.903	56.688	-75.845	-71.494	-69.185	-63.986	40.915	-67.414	-8191	255	
51450.035	1	1	0	0	0.046454	0.11578	0.085109	0.16877	0.047685	0.08863	0.11313	0.28098	0.092502	0.31213	0.052096	0.23177	0.099494	0.083254	0.12211	0.26038	-2.6208	-2.7792	-3.6125	-2.8896	-3.1708	-3.5438	-2.7917	-3.6354	-3.2854	-2.6104	-3.8583	-2.9771	-3.2438	-3.6708	-2.65	-3.4458	204.552	-65.089	238.446	250.858	-5.384	238.149	-84.704	203.794	-14.311	210.621	28.702	230.243	-45.717	-79.896	157.680	-51.448	0.00061183	0.00039189	0.00015109	791.43	5.047e-06	4.6142e-06	691.7	313.31	5.3481e-06	6.4562e-06	321.1	145.41	152.65	69.236	1.3724e-06	75.481	0.0029963	0.0063338	0.0017842	826.82	5.302e-05	7.3123e-05	724.61	328.92	5.4363e-05	7.3315e-05	338.18	153.49	161.52	73.222	6.0261e-05	80.107	120.443	6.306	-1.717	-78.665	8.548	56.766	-80.083	-73.315	24.065	67.088	-75.472	-71.667	-69.210	-64.035	134.488	-67.330	-8191	255	
51450.129	1	1	0	0	0.15992	0.15902	0.14475	0.16795	0.035989	0.10774	0.061481	0.073687	0.21095	0.28737	0.022873	0.26606	0.31975	0.035662	0.12472	0.11873	-2.7542	-2.6792	-3.5354	-3.0625	-2.8542	-3.6083	-2.8083	-3.3896	-3.1604	-2.8021	-3.6792	-3.2042	-3.05	-3.6458	-2.9208	-3.4479	187.855	98.350	224.135	202.756	-70.912	-49.916	184.971	198.704	55.645	156.460	114.170	133.674	-49.110	205.557	-17.416	247.344	0.00067821	0.00059982	0.00013948	794.71	4.6004e-06	7.8512e-06	694.82	314.37	2.3358e-06	5.197e-06	323.56	146.5	153.92	69.551	4.0883e-06	76.126	0.0029216	0.006117	0.0016948	828.27	5.2292e-05	7.1447e-05	728.99	331.02	5.2714e-05	7.1696e-05	340.87	154.87	162.44	73.766	5.9778e-05	80.776	124.545	-6.408	1.690	-78.597	16.460	65.700	-80.092	-73.295	0.108	61.323	-75.477	-71.556	-69.302	-64.014	53.702	-67.126	-8191	255	
51450.227	1	1	0	0	0.11161	0.17016	0.064634	0.066514	0.26678	0.3072	0.26698	0.21537	0.1993	0.10981	0.026009	0.55812	0.16239	0.12141	0.093695	0.24655	-3.2396	-2.6792	-3.475	-3.0354	-2.7021	-3.4771	-2.8604	-3.2458	-3.4625	-2.7104	-3.5146	-3.2042	-2.7583	-3.6354	-2.8208	-3.2479	-7.560	-12.596	11.224	-64.985	8.029	97.656	177.101	223.112	107.567	-43.432	19.000	211.518	256.856	188.828	115.626	-65.563	0.00067498	0.00076383	0.00018571	799.96	2.6886e-06	3.4045e-06	697.66	315.26	4.8196e-06	4.7686e-06	322.56	146.32	153.88	69.126	4.6032e-06	75.315	0.0028923	0.0060983	0.0016884	831.16	5.2627e-05	6.9923e-05	728.41	331.04	5.3195e-05	7.0837e-05	339.54	154.23	162.27	73.371	5.9959e-05	79.805	118.305	5.614	-9.057	-78.830	40.030	28.088	-80.076	-73.087	44.466	24.493	-75.536	-71.703	-69.243	-64.082	37.947	-67.156	-8191	255	
51450.348	1	1	0	0	0.12843	0.15421	0.21972	0.0059322	0.086927	0.28093	0.06739	0.1911	0.08347	0.13741	0.16233	0.26004	0.13687	0.17463	0.3299	0.038229	-3.1354	-2.6083	-3.3396	-3.3083	-2.5271	-3.6292	-2.9813	-3.2562	-3.4125	-2.4875	-3.325	-3.3167	-2.7104	-3.5625	-2.7896	-2.9042	245.445	-89.117	240.759	124.181	260.847	246.484	189.783	204.777	-70.109	125.593	-52.065	-40.693	170.767	-70.665	-53.855	188.866	0.00059295	0.00075576	0.00015382	797.86	4.5445e-06	3.8146e-06	693.11	314.3	2.8788e-06	5.2195e-06	319.77	145.03	152.93	68.713	7.2982e-06	74.674	0.0028726	0.0060756	0.0016942	830.01	5.3385e-05	7.1463e-05	724.81	328.98	5.4595e-05	7.1609e-05	337.23	153.09	161.59	72.989	5.9493e-05	79.306	119.678	21.982	26.841	-78.839	87.893	60.901	-80.195	-73.465	50.504	80.100	-75.682	-71.649	-69.483	-64.068	35.303	-67.449	-8191	255	
51450.441	1	1	0	0	0.16672	0.078612	0.10311	0.14925	0.2256	0.27611	0.22932	0.049323	0.13847	0.20163	0.22916	0.3584	0.06665	0.1283	0.27538	0.06378	-3.1271	-2.6063	-3.2667	-3.4875	-2.5979	-3.5	-3.0896	-2.9521	-3.6521	-2.7583	-3.2146	-3.3583	-2.6146	-3.5771	-3.0625	-2.8833	191.676	241.761	248.176	229.223	104.881	21.601	236.653	-71.935	190.524	95.053	-49.880	193.266	-88.080	177.716	-38.972	177.244	0.00059711	0.00044505	0.00021294	793.39	5.1758e-06	5.6265e-06	691.51	311.68	4.9956e-06	5.0494e-06	320.44	145.12	152.97	68.534	5.7772e-06	74.532	0.0029088	0.006174	0.0016766	827.03	5.2334e-05	7.1235e-05	725.22	327.8	5.4466e-05	7.3693e-05	336.83	153.12	161.56	72.827	6.0284e-05	78.977	129.447	8.496	-20.203	-79.062	26.901	59.840	-80.164	-73.412	32.803	52.869	-75.577	-71.904	-69.449	-64.278	57.129	-67.504	-8191	255	
51450.539	1	1	0	0	0.19247	0.39905	0.14384	0.21693	0.097558	0.16744	0.27065	0.060157	0.24755	0.08545	0.038559	0.1453	0.25291	0.20116	0.1348	0.14931	-3.1333	-2.7417	-3.1937	-3.4583	-2.6396	-3.5125	-3.2188	-2.8229	-3.6	-2.7958	-3.1	-3.6333	-2.6271	-3.5125	-3.1542	-2.8458	-32.768	66.796	165.449	206.829	-75.500	5.738	186.665	100.032	108.190	255.822	163.497	183.150	-47.550	117.206	70.983	-9.551	0.00060357	0.00059829	0.00018865	793.44	3.8445e-06	4.6091e-06	691.09	311.94	2.8286e-06	7.2778e-06	320.27	144.52	152.22	68.609	2.9556e-06	74.371	0.0029108	0.0062696	0.0017227	829.1	5.3238e-05	7.1913e-05	725.03	328.38	5.5939e-05	7.368e-05	337.1	152.79	161.25	72.703	6.1133e-05	78.856	123.131	3.493	18.075	-79.045	81.009	50.625	-80.166	-73.421	-5.572	66.372	-75.772	-71.607	-69.375	-64.120	2.916	-67.293	-8191	255	
51450.637	1	1	0	0	0.081601	0.22115	0.28161	0.20944	0.081959	0.039132	0.30342	0.37337	0.037059	0.066191	0.24925	0.066665	0.12655	0.1717	0.10433	0.10339	-3.1937	-2.7812	-2.8021	-3.5708	-2.5979	-3.525	-3.1063	-2.7229	-3.5042	-2.9437	-3.0667	-3.6229	-2.7292	-3.2875	-3.3271	-2.8063	257.790	62.408	151.567	243.440	-60.521	132.475	226.220	179.987	163.022	135.896	243.034	-41.853	191.318	-12.789	122.673	96.966	0.00063998	0.00080616	0.00022617	794.5	6.8635e-06	6.1682e-06	690.01	310.46	4.9148e-06	8.4756e-06	318.05	143.42	151.48	68.265	5.0792e-06	73.702	0.0029637	0.0063145	0.001732	827.42	5.4003e-05	7.3015e-05	721.98	325.82	5.6366e-05	7.3534e-05	334.16	151.37	160.39	72.271	6.1549e-05	78.174	127.172	-9.226	-7.086	-78.936	31.106	69.675	-80.243	-73.616	46.329	48.706	-75.567	-71.646	-69.370	-64.047	62.594	-67.233	-8191	255	
51450.707	1	1	0	0	0.10979	0.16246	0.16505	0.21667	0.14405	0.031972	0.27054	0.19935	0.092912	0.19698	0.16183	0.078048	0.35141	0.11329	0.069827	0.2933	-3.0271	-3.0563	-2.6771	-3.5854	-2.6917	-3.0396	-3.4083	-2.75	-3.6146	-3.1667	-3.0979	-3.65	-2.8646	-3.2208	-3.6667	-2.6667	205.464	-47.526	-69.603	-40.989	-79.140	-76.609	212.225	176.327	14.337	94.929	80.817	-42.344	215.533	-70.338	78.791	255.141	0.00059457	0.00042292	0.00014038	789.13	7.5817e-06	5.9083e-06	687.45	309.05	2.8824e-06	5.1553e-06	316.48	143.28	151.84	68.142	4.6318e-06	73.705	0.0029354	0.006219	0.0017802	824.12	5.464e-05	7.3196e-05	719.64	325.57	5.5265e-05	7.3419e-05	333.16	151.24	160.36	72.373	6.1482e-05	78.246	124.265	-12.736	-0.055	-78.942	25.802	85.846	-80.068	-73.554	70.838	64.882	-75.515	-71.696	-69.589	-64.210	53.892	-67.357	-8191	255	
51450.828	1	1	0	0	0.064165	0.097837	0.18214	0.15874	0.13872	0.068776	0.22289	0.31715	0.43273	0.31763	0.086092	0.053063	0.21173	0.31245	0.20278	0.24791	-3.0521	-3.1083	-2.6229	-3.65	-2.7229	-3.0833	-3.6562	-2.7479	-3.3771	-3.25	-2.8583	-3.6271	-2.8937	-3.0812	-3.6417	-2.8729	185.400	-64.053	236.824	230.407	-37.668	135.025	179.209	236.125	222.907	26.796	10.575	87.412	207.203	210.842	-78.464	112.478	0.00056448	0.0005463	0.00014255	791.34	8.2163e-06	5.9142e-06	685.11	309.13	2.5294e-06	6.3202e-06	317.6	143.45	152	68.334	6.7776e-06	73.897	0.0029808	0.0062517	0.0017647	826.04	5.4438e-05	7.3103e-05	718.77	325.72	5.502e-05	7.2948e-05	334.34	151.71	160.74	72.522	6.0608e-05	78.433	122.186	-3.924	29.868	-78.861	43.169	45.038	-80.294	-73.433	96.050	50.562	-75.555	-71.588	-69.260	-64.155	44.841	-67.499	-8191	255	
51450.926	1	1	0	0	0.019918	0.17705	0.20241	0.21768	0.15905	0.13628	0.22968	0.11183	0.1813	0.038043	0.17409	0.14473	0.21422	0.1372	0.15983	0.23045	-3.0438	-3.1854	-2.5792	-3.5521	-3.0292	-2.7208	-3.5125	-2.6958	-3.2396	-3.4271	-2.7313	-3.5479	-3.0854	-3.0396	-3.5229	-3.0083	137.780	135.962	-32.974	199.997	223.499	165.411	108.833	203.002	180.301	194.240	135.611	257.561	-87.822	-22.854	-15.710	228.581	0.00065722	0.00031507	0.00015478	788.55	2.6926e-06	5.0069e-06	688.34	310.96	2.5173e-06	9.2144e-06	319.31	144.59	152.26	68.713	2.7518e-06	74.776	0.0029224	0.0061672	0.0017331	824.89	5.2801e-05	7.1562e-05	720.63	326.57	5.4047e-05	7.0866e-05	335.78	152.64	161.07	73	6.0517e-05	79.176	117.168	-13.381	-11.711	-78.922	22.235	65.977	-80.027	-73.451	23.036	42.485	-75.617	-71.731	-69.645	-64.154	26.721	-67.577	-8191	255	
51451.020	1	1	0	0	0.10224	0.14675	0.15505	0.21836	0.095643	0.23745	0.13862	0.2202	0.086682	0.34121	0.32776	0.20406	0.05415	0.15143	0.2508	0.25948	-2.9833	-3.1229	-2.5375	-3.5687	-3.0854	-2.8229	-3.5104	-2.6854	-3.0542	-3.4917	-2.4958	-3.425	-3.2104	-2.7938	-3.4396	-3.1292	-37.397	58.286	160.813	251.571	205.672	-66.086	223.867	219.770	140.287	83.570	156.226	-81.343	-90.274	256.495	158.316	156.927	0.00061917	0.0004267	0.00013997	793.99	5.6124e-06	6.7566e-06	687.43	311.02	4.7386e-06	7.0577e-06	316.68	143.41	152.97	68.841	4.5859e-06	74.397	0.0029045	0.0061437	0.0017331	826.35	5.263e-05	7.219e-05	720.15	326.53	5.3845e-05	7.1422e-05	333.98	151.78	161.24	73.024	5.9785e-05	78.706	123.770	23.103	6.852	-78.810	58.512	65.535	-80.382	-73.601	26.350	90.757	-75.689	-71.504	-69.491	-63.992	-14.211	-67.651	-8191	255	
51451.117	1	1	0	0	0.20357	0.11899	0.11055	0.021471	0.083401	0.25618	0.29318	0.27446	0.18284	0.18222	0.36985	0.28108	0.24196	0.057181	0.15348	0.13255	-2.6292	-3.4479	-2.6896	-3.3458	-3.2812	-2.6125	-3.4854	-2.7938	-2.9708	-3.5938	-2.625	-3.4333	-3.3083	-2.7167	-3.4313	-3.1458	150.839	65.282	152.224	106.395	-48.617	228.177	82.091	200.154	114.593	150.609	218.407	-46.534	13.353	206.386	17.388	112.404	0.00055017	0.00069249	9.7343e-05	789.71	5.5207e-06	5.105e-06	689.5	310.91	6.9513e-06	6.2047e-06	316.58	143.84	152.9	68.602	6.1479e-06	73.718	0.0028849	0.006041	0.0016964	824.48	5.1411e-05	7.111e-05	718.55	326.62	5.3446e-05	6.9927e-05	333.6	152.01	161.38	72.924	6.0095e-05	78.386	126.654	-24.203	-3.551	-78.836	50.984	64.297	-80.112	-73.490	12.896	64.126	-75.744	-71.600	-69.558	-64.083	57.744	-67.679	-8191	255	
51451.234	1	1	0	0	0.1878	0.18599	0.11989	0.19119	0.036946	0.12579	0.39741	0.24127	0.10591	0.084787	0.12086	0.08537	0.21577	0.13502	0.28735	0.17484	-2.4771	-3.5667	-2.7625	-3.2708	-3.3771	-2.6188	-3.575	-3.1708	-2.6979	-3.5812	-2.7542	-3.1688	-3.3625	-2.7604	-3.5521	-3.2313	257.763	232.478	87.451	91.042	91.270	47.992	217.996	164.275	65.774	222.374	-33.303	253.478	-67.806	-60.420	261.705	246.673	0.00062087	0.00066245	0.00014348	790.59	6.3429e-06	6.1743e-06	689.45	309.59	4.3431e-06	6.3201e-06	317.64	144.9	153.47	69.242	4.4174e-06	74.826	0.0028702	0.0060313	0.0016933	824.94	5.1411e-05	7.0791e-05	720.04	326.43	5.2932e-05	6.9328e-05	334.78	152.7	161.96	73.333	5.8177e-05	79.317	124.242	26.571	20.870	-78.772	40.290	66.720	-80.166	-73.360	10.391	77.682	-75.815	-71.625	-69.762	-64.264	19.828	-67.509	-8191	255	
51451.309	1	1	0	0	0.045645	0.19467	0.097301	0.077649	0.17149	0.078123	0.16801	0.085688	0.15293	0.22936	0.044183	0.13057	0.18078	0.24714	0.09064	0.10925	-2.4688	-3.4125	-2.8479	-3.0396	-3.2208	-2.7812	-3.3833	-3.2792	-2.7167	-3.6417	-2.8563	-3.1375	-3.5521	-2.925	-3.175	-3.2729	246.903	-63.172	201.195	-72.637	146.538	234.000	115.891	39.004	195.682	-20.686	-74.156	221.860	263.088	-70.680	158.228	82.383	0.00059017	0.00041739	0.000131	792.44	4.1053e-06	5.2311e-06	688.36	313.39	3.8626e-06	8.0749e-06	320.72	145.56	154.22	69.88	4.9873e-06	75.908	0.0028663	0.0059147	0.0016438	825.57	5.0506e-05	6.9078e-05	722.81	329.2	5.249e-05	6.8178e-05	337.8	154.24	162.67	74.098	5.6383e-05	80.31	123.459	9.418	-20.629	-78.947	47.757	46.819	-80.359	-73.479	57.866	53.649	-75.663	-71.701	-69.549	-64.155	52.850	-67.514	-8191	255	
51451.430	1	1	0	0	0.22829	0.13801	0.1158	0.09296	0.028667	0.21919	0.18702	0.092725	0.34253	0.28887	0.21479	0.31184	0.11181	0.23086	0.34565	0.29473	-2.2333	-3.35	-2.7708	-3.0042	-3.4729	-2.7083	-3.3563	-3.2729	-2.6083	-3.4729	-3.0354	-2.8771	-3.5479	-2.8312	-3.1958	-3.5083	209.845	261.633	21.014	221.040	-90.924	110.784	214.712	101.109	74.413	-18.157	194.368	221.047	215.338	-79.970	178.200	218.666	0.00069863	0.00040986	0.00017298	795.44	4.8903e-06	6.2088e-06	688.3	313.35	4.6437e-06	5.1883e-06	319.64	145.35	154.12	69.772	5.6354e-06	75.41	0.0027728	0.0058039	0.0016087	827.44	4.9215e-05	6.7404e-05	721.85	329.08	5.1732e-05	6.6359e-05	336.58	153.09	162.55	73.857	5.5778e-05	79.855	122.671	-28.714	9.416	-78.830	22.237	55.344	-80.054	-73.379	28.164	64.789	-75.805	-71.764	-69.264	-64.349	59.732	-67.491	-8191	255	
51451.523	1	1	0	0	0.25782	0.05632	0.22008	0.44839	0.092511	0.20513	0.26685	0.17941	0.26113	0.092687	0.10644	0.3344	0.10063	0.2441	0.082791	0.3942	-2.2521	-3.4625	-2.8521	-2.8833	-3.5979	-2.6271	-3.2938	-3.625	-2.5708	-3.45	-3.3875	-2.925	-3.6604	-2.9604	-3.1042	-3.7229	155.247	88.887	204.396	228.884	0.783	256.574	243.601	211.235	156.145	109.064	94.542	208.475	197.385	239.447	250.636	205.104	0.00063337	0.00085216	0.00016086	792.82	7.2378e-06	7.3653e-06	690.88	314.39	3.0266e-06	5.558e-06	318.79	145.33	153.6	69.537	6.7547e-06	75.434	0.0028017	0.0057112	0.0015939	825.96	4.9552e-05	6.7346e-05	721.6	329.46	5.1489e-05	6.7081e-05	336.31	153.08	162.56	73.72	5.6552e-05	79.835	126.061	2.694	-10.662	-78.736	39.051	71.948	-80.236	-73.348	-7.436	55.439	-75.506	-71.673	-69.573	-64.168	49.636	-67.482	-8191	255	
51451.621	1	1	0	0	0.14183	0.039739	0.085669	0.16682	0.26669	0.20347	0.19198	0.05954	0.083953	0.18222	0.065707	0.1538	0.18347	0.075687	0.1145	0.086937	-2.3333	-3.2708	-3.0292	-2.7812	-3.5729	-2.8167	-3.0687	-3.5917	-2.6937	-3.3438	-3.5062	-2.7625	-3.5708	-2.9833	-2.7104	-3.7458	-64.273	162.325	85.603	163.674	219.260	91.497	216.437	66.800	-22.548	44.176	37.072	210.654	-78.127	209.144	119.279	240.025	0.00065942	0.00078242	0.00014259	789.12	1.9356e-06	3.4853e-06	693.04	313.36	6.9742e-06	6.3365e-06	322.28	146.02	154.3	69.903	4.4304e-06	75.885	0.0028059	0.0056641	0.0015926	825.95	4.9384e-05	6.758e-05	723.73	329.46	5.0989e-05	6.5997e-05	338.5	154.38	162.93	74.09	5.6413e-05	80.401	119.929	-8.880	23.609	-78.936	25.637	62.042	-80.123	-73.507	24.456	76.799	-75.769	-71.749	-69.506	-64.204	84.832	-67.557	-8191	255	
51451.715	1	1	0	0	0.15881	0.14659	0.18716	0.24155	0.083538	0.19429	0.12194	0.12551	0.22893	0.11165	0.22719	0.13484	0.18631	0.12835	0.041585	0.10154	-2.3042	-3.0812	-3.3729	-2.6979	-3.5812	-3.1625	-2.8833	-3.6792	-2.9604	-3.1688	-3.4854	-2.7396	-3.4938	-3.3563	-2.675	-3.7125	202.929	-48.524	262.844	-86.506	118.293	182.645	143.916	265.203	-17.195	-37.521	174.830	31.718	-17.845	266.356	188.068	80.400	0.00056607	0.00071441	0.00020858	796.16	2.2852e-06	4.5418e-06	695.47	315.73	2.2924e-06	1.0378e-05	322.7	146.83	154.93	69.756	5.6519e-06	75.478	0.0027623	0.0056265	0.0015807	829.91	4.8823e-05	6.5701e-05	726.17	331.26	5.0332e-05	6.655e-05	339.76	154.88	163.59	73.89	5.7009e-05	79.891	126.856	11.148	1.544	-78.842	90.791	60.419	-80.220	-73.511	72.845	80.406	-75.367	-71.779	-69.303	-64.259	42.592	-67.393	-8191	255	
51451.836	1	1	0	0	0.22271	0.19039	0.069767	0.04563	0.074767	0.26812	0.22974	0.2536	0.18819	0.12567	0.10156	0.27378	0.21638	0.31669	0.11414	0.17344	-2.6208	-3.0583	-3.2667	-2.7333	-3.2625	-3.1854	-2.6437	-3.4271	-2.7271	-2.9562	-3.6083	-2.6896	-3.2354	-3.3729	-2.75	-3.5938	40.785	227.186	15.771	-24.949	115.062	-11.296	143.179	239.338	134.603	-69.256	56.830	218.895	243.702	217.949	-18.197	223.927	0.00058441	0.00061998	0.00022301	794	3.3324e-06	6.1909e-06	693.24	313.43	5.7237e-06	6.6675e-06	319.32	145.22	153.78	69.294	4.0647e-06	74.701	0.0027511	0.0056068	0.001614	828.03	4.8905e-05	6.7115e-05	722.68	328.63	5.0793e-05	6.7425e-05	335.71	152.84	162.3	73.239	5.7666e-05	78.94	117.739	9.536	3.074	-78.832	42.041	41.341	-80.129	-73.431	48.205	77.309	-75.924	-71.732	-69.342	-64.250	99.895	-67.560	-8191	255	
51451.930	1	1	0	0	0.13916	0.23257	0.067317	0.23623	0.20837	0.12923	0.16473	0.076752	0.092082	0.08358	0.27488	0.47533	0.031893	0.13991	0.17937	0.18582	-2.4854	-2.8292	-3.6021	-2.8812	-3.0979	-3.3646	-2.6729	-3.7021	-3.1208	-2.7104	-3.6104	-2.8333	-3.2396	-3.5125	-2.6437	-3.4688	157.459	-73.831	-31.992	205.954	148.614	258.543	241.437	-3.290	159.456	43.146	241.167	211.902	-79.653	191.445	-45.389	148.836	0.00055819	0.00062779	0.00020247	788.89	4.4405e-06	6.008e-06	686.35	311.68	4.9148e-06	7.0649e-06	318.15	144.43	152.82	69.48	2.5709e-06	75.462	0.0027827	0.0058587	0.0016353	823.24	4.9641e-05	6.6892e-05	718.38	327.31	5.1267e-05	6.8622e-05	334.81	152.43	161.65	73.692	5.772e-05	79.89	124.593	-14.584	16.423	-78.924	16.845	61.026	-79.923	-73.559	21.727	93.673	-75.740	-71.868	-69.341	-64.242	41.824	-67.656	-8191	255	
51452.027	1	1	0	0	0.077562	0.13032	0.21158	0.30728	0.21548	0.16834	0.17248	0.080511	0.090894	0.09707	0.17695	0.37455	0.072491	0.13548	0.11257	0.25549	-2.6167	-2.8896	-3.5833	-2.7708	-3.0167	-3.3167	-2.7188	-3.3833	-3.1458	-2.7354	-3.5312	-2.8458	-3.0646	-3.5146	-2.6771	-3.5125	117.843	-11.335	265.926	210.243	30.354	258.969	-64.349	130.634	11.837	136.892	187.865	213.912	135.663	204.453	20.089	180.578	0.00063724	0.00073045	0.00012449	789.83	6.9602e-06	5.0837e-06	690.19	313.4	4.9635e-06	7.6612e-06	319.45	144.9	153.18	69.937	4.3357e-06	75.661	0.0027918	0.0058194	0.001647	821.01	5.0388e-05	6.7849e-05	720.41	329.65	5.1895e-05	6.9163e-05	336.7	153.07	162	73.977	5.7699e-05	80.263	128.715	2.624	4.994	-78.930	34.936	82.128	-80.231	-73.380	31.195	47.061	-76.068	-71.624	-69.356	-64.091	41.444	-67.330	-8191	255	
51452.121	1	1	0	0	0.13647	0.13007	0.17186	0.21308	0.26078	0.029156	0.36656	0.13605	0.11774	0.37591	0.038594	0.059309	0.16819	0.11826	0.21924	0.29899	-2.725	-2.6271	-3.4437	-3.0187	-2.9146	-3.525	-2.7208	-3.3646	-3.1375	-2.7	-3.6958	-3.1521	-2.9958	-3.6979	-2.6771	-3.3646	117.370	206.079	122.151	237.735	59.377	234.217	245.583	187.124	61.904	-45.727	-79.438	35.111	208.504	233.774	225.812	208.237	0.00062585	0.00055822	0.00019011	789.95	3.0351e-06	5.9943e-06	693.21	314.33	4.106e-06	5.2348e-06	320.85	144.28	152.86	68.947	4.1652e-06	74.683	0.0028153	0.0059424	0.0016617	824.44	5.0789e-05	6.8044e-05	724.83	330.09	5.2911e-05	6.8761e-05	337.54	152.47	161.58	73.293	5.8696e-05	79.072	124.644	-2.716	3.573	-79.079	45.451	66.237	-79.948	-73.363	40.448	31.396	-75.564	-71.588	-69.291	-64.013	31.401	-67.498	-8191	255	
51452.219	1	1	0	0	0.096729	0.082772	0.03811	0.093843	0.11246	0.22539	0.10654	0.23803	0.017469	0.20148	0.1683	0.23181	0.22079	0.044853	0.1327	0.080388	-2.8438	-2.7771	-3.5875	-3.0708	-2.6208	-3.55	-2.8688	-3.3417	-3.3479	-2.6562	-3.5208	-3.2	-2.975	-3.5563	-2.7083	-3.2208	1.070	-29.279	-69.768	81.178	153.215	237.389	259.505	239.381	73.414	-31.350	184.944	177.288	173.214	147.098	16.140	-87.692	0.00058855	0.00050389	0.00014	790.13	6.9682e-06	7.4826e-06	686.53	312.52	7.8319e-06	6.1204e-06	316.53	143.37	152.37	68.628	2.7777e-06	74.038	0.0028086	0.0060338	0.0016567	824.5	5.0729e-05	6.8637e-05	720.61	327.55	5.2573e-05	6.9398e-05	333.94	151.43	161.06	72.788	5.748e-05	78.286	118.059	-7.510	-3.156	-78.798	55.449	63.008	-80.154	-73.352	20.678	70.499	-75.615	-71.500	-69.234	-64.126	65.752	-67.487	-8191	255	
51452.316	1	1	0	0	0.22958	0.13725	0.17218	0.24628	0.025704	0.12131	0.14815	0.18046	0.063136	0.31404	0.32105	0.259	0.24153	0.069735	0.092246	0.16328	-3.0854	-2.8229	-3.5042	-3.2292	-2.7292	-3.5146	-2.9917	-3.0729	-3.5021	-2.4958	-3.3875	-3.325	-2.9167	-3.7917	-2.7021	-2.8479	27.449	-29.390	-79.686	-69.085	172.800	264.350	43.742	161.326	-18.626	229.952	234.369	-75.855	219.254	258.436	89.628	77.484	0.0006484	0.00066346	0.0002534	791.73	4.8798e-06	5.8634e-06	689.32	311.26	3.5282e-06	6.0573e-06	319	144.16	152.99	68.892	4.2228e-06	74.072	0.0027694	0.0058838	0.0016352	823.7	5.0038e-05	6.8046e-05	720.13	327.45	5.0382e-05	6.8206e-05	335.43	152.21	161.58	72.995	5.677e-05	78.608	118.203	-10.108	-16.181	-78.957	26.402	58.039	-80.274	-73.255	53.309	87.991	-75.560	-71.664	-69.214	-64.179	37.915	-67.304	-8191	255	
51452.410	1	1	0	0	0.09755	0.062484	0.11249	0.11153	0.071887	0.11591	0.26736	0.21086	0.077445	0.096419	0.033891	0.16875	0.15317	0.3552	0.20716	0.15603	-3	-2.6458	-3.2479	-3.4604	-2.4833	-3.3708	-2.9333	-2.8563	-3.5354	-2.6896	-3.4375	-3.4062	-2.6562	-3.6292	-3	-2.8771	237.599	135.788	-2.720	142.993	-14.538	-49.871	145.416	181.895	146.599	186.149	-25.830	152.279	244.662	268.768	85.581	223.467	0.0006038	0.00062708	0.00020023	792.73	4.2537e-06	6.1983e-06	693.47	312.99	4.9844e-06	4.0967e-06	318.33	145.03	153.18	69.191	4.3026e-06	74.867	0.0027778	0.0057713	0.0016023	825.91	4.9889e-05	6.6983e-05	722.1	328.14	5.1318e-05	6.741e-05	335.8	152.68	162.02	73.326	5.6606e-05	79.13	123.224	6.079	-10.186	-78.967	51.616	31.439	-80.213	-73.011	47.038	69.954	-75.516	-71.687	-69.367	-64.050	51.814	-67.232	-8191	255	
51452.531	1	1	0	0	0.18212	0.23604	0.20119	0.23541	0.21271	0.025327	0.19773	0.2176	0.14023	0.21184	0.25666	0.2931	0.27354	0.41668	0.3021	0.23953	-3.3729	-2.6917	-3.0625	-3.4958	-2.5875	-3.4917	-3.2083	-2.7333	-3.6604	-2.7875	-3.1979	-3.5125	-2.6437	-3.5104	-3.0771	-2.8771	183.794	68.243	129.774	250.483	256.445	-26.546	132.295	-75.337	-39.382	-67.886	247.488	-36.933	209.366	201.079	46.759	172.973	0.00057358	0.00074054	0.00018182	794.59	4.319e-06	3.9516e-06	693.35	313.28	1.0925e-06	6.9134e-06	318.07	144.18	153.09	68.929	4.5161e-06	73.778	0.0027672	0.0057866	0.0015854	827.09	5.0147e-05	6.7772e-05	721.16	328.49	5.1853e-05	6.7727e-05	334.92	151.99	161.71	73.124	5.6576e-05	78.448	126.342	-13.521	17.474	-78.724	43.471	88.357	-80.218	-73.363	48.463	49.794	-75.636	-71.571	-69.363	-64.087	44.649	-67.409	-8191	255	
51452.605	1	1	0	0	0.1566	0.19513	0.29309	0.087107	0.14939	0.078361	0.077432	0.28202	0.073669	0.15709	0.073333	0.10691	0.16098	0.21198	0.50853	0.21088	-3.1063	-2.7771	-3.1333	-3.6854	-2.4979	-3.4062	-3.4562	-2.8083	-3.3625	-2.7562	-2.9521	-3.5896	-2.7167	-3.2333	-3.2708	-2.825	229.508	154.773	-33.406	266.842	222.193	198.684	225.805	57.654	92.629	73.944	116.156	-40.448	31.541	-33.749	77.835	250.326	0.00060273	0.00027371	0.00015592	790.25	5.0387e-06	6.9578e-06	685.4	312.31	1.0463e-06	5.08e-06	315.93	143.44	152.88	69.074	7.7656e-06	73.943	0.0027732	0.0056683	0.0016065	821.7	4.932e-05	6.7062e-05	714.97	327.45	5.1018e-05	6.7565e-05	332.5	151.21	161.41	73.228	5.5892e-05	78.264	122.613	24.116	-11.921	-79.155	49.298	82.840	-80.214	-73.368	41.422	61.529	-75.654	-71.406	-69.346	-63.984	38.164	-67.486	-8191	255	
51452.699	1	1	0	0	0.050844	0.10682	0.22653	0.032649	0.31085	0.1425	0.097682	0.37015	0.064487	0.071468	0.36961	0.23383	0.14953	0.039275	0.28292	0.13061	-3.1646	-3.0167	-2.6708	-3.6667	-2.7542	-3.3479	-3.425	-2.8479	-3.2958	-3.0917	-2.8646	-3.5875	-2.9021	-3.1708	-3.3792	-2.7042	71.841	-54.574	21.049	265.811	104.625	23.560	113.635	255.944	164.098	-7.913	253.268	-67.119	168.452	17.931	194.370	-61.508	0.0006598	0.00022869	0.0001354	788.58	9.5132e-07	5.6498e-06	685.92	311.09	3.4613e-06	1.0311e-05	316.75	142.83	153.15	68.976	7.1524e-06	73.725	0.0027566	0.0055758	0.0016049	821.18	4.9848e-05	6.7699e-05	714.6	326.93	5.0368e-05	6.6156e-05	333.31	151.13	161.5	73.185	5.4778e-05	78.367	118.184	10.223	38.940	-78.857	67.215	58.579	-80.096	-73.333	13.111	64.578	-75.501	-71.722	-69.300	-64.045	72.209	-67.489	-8191	255	
51452.797	1	1	0	0	0.058476	0.13819	0.065675	0.20975	0.068225	0.18493	0.04417	0.20004	0.079467	0.12752	0.052995	0.12461	0.13447	0.12448	0.24893	0.18592	-3.1083	-3.0479	-2.5104	-3.6833	-2.8146	-3.0312	-3.575	-2.8063	-3.3896	-3.2729	-2.7458	-3.5312	-2.9875	-3.1958	-3.5729	-2.8604	98.413	156.442	83.251	252.619	-91.127	234.691	244.042	-43.279	-79.444	248.912	-83.202	-35.530	56.686	32.172	43.332	215.586	0.00065012	0.00062346	0.0001484	785.3	3.7258e-06	7.7273e-06	685.78	311.23	1.1288e-06	4.0143e-06	317.53	143.47	152.97	69.338	3.5688e-06	73.914	0.0026884	0.005574	0.0015773	820.01	4.8422e-05	6.4626e-05	714.41	326.63	4.8658e-05	6.3976e-05	333.48	151.8	161.69	73.285	5.462e-05	78.494	127.815	10.397	1.789	-78.897	59.657	68.666	-80.158	-73.217	58.846	61.973	-75.644	-71.619	-69.336	-63.882	19.389	-67.284	-8191	255	
51452.918	1	1	0	0	0.28619	0.25776	0.16259	0.26023	0.2523	0.26004	0.11532	0.13433	0.063035	0.18558	0.087653	0.049129	0.1509	0.15701	0.11389	0.081679	-3.0167	-3.1937	-2.5667	-3.6792	-2.9	-2.8812	-3.6792	-2.5667	-3.2062	-3.3563	-2.6813	-3.4625	-3.025	-3.0187	-3.4229	-2.9313	158.779	-83.839	-9.505	254.876	18.743	-36.520	-61.685	-46.817	84.192	220.848	19.362	237.986	-79.956	-65.181	136.043	-8.562	0.00053881	0.0003588	0.00018902	787.8	3.9515e-06	5.6879e-06	683.99	310.77	2.8051e-06	7.8987e-06	314.41	142.65	152.16	68.45	5.2225e-06	73.084	0.0026822	0.0055105	0.0015893	821.26	4.8524e-05	6.4789e-05	713.69	325.33	4.8875e-05	6.5364e-05	330.47	150.74	161	72.538	5.4047e-05	77.217	123.296	-17.098	7.641	-78.915	87.881	63.540	-80.144	-73.327	22.306	41.715	-75.669	-71.673	-69.282	-64.093	50.186	-67.250	-8191	255	
51453.012	1	1	0	0	0.1912	0.19575	0.057485	0.081847	0.084594	0.12145	0.065799	0.31836	0.16041	0.2335	0.17713	0.29934	0.20845	0.17615	0.17858	0.14148	-2.775	-3.4104	-2.5146	-3.6396	-3.0354	-2.7167	-3.6667	-2.9042	-3.1	-3.4354	-2.7062	-3.4521	-3.2417	-2.8375	-3.3542	-2.8208	154.348	-7.862	105.232	213.584	227.173	53.859	-79.159	178.700	254.732	73.000	251.281	-87.257	212.778	217.474	60.477	165.657	0.00054197	0.00054955	0.00012313	785.62	5.038e-06	5.5626e-06	680.85	308.62	2.8156e-06	3.8473e-06	313.25	142.9	153.07	68.547	5.6139e-06	72.883	0.002688	0.0055434	0.0015525	818.36	4.7908e-05	6.4795e-05	711.34	324.68	4.9886e-05	6.4951e-05	330.69	150.78	161.25	72.742	5.441e-05	77.557	118.563	-12.989	18.281	-78.838	38.743	65.341	-79.963	-73.282	48.062	79.263	-75.535	-71.671	-69.349	-63.960	68.035	-67.466	-8191	255	
51453.109	1	1	0	0	0.18517	0.30952	0.11703	0.29812	0.089338	0.11786	0.068275	0.13447	0.0099447	0.26721	0.40789	0.033924	0.22514	0.22069	0.32362	0.36143	-2.5604	-3.3479	-2.5479	-3.3792	-3.0604	-2.6562	-3.7687	-2.9417	-2.8896	-3.475	-2.7125	-3.4104	-3.3604	-2.6021	-3.5146	-2.9583	46.238	162.877	59.099	-5.847	-44.113	132.061	-86.959	7.529	-36.797	-26.113	-50.878	12.010	247.462	263.955	47.657	222.369	0.00062522	0.00049191	0.00017568	781.65	5.0465e-06	7.9558e-06	677.96	311.12	3.9918e-06	8.0282e-06	316.99	143.99	153.69	68.745	7.4956e-06	73.497	0.0026467	0.005481	0.00154	816.27	4.739e-05	6.467e-05	708.64	326.91	4.9207e-05	6.6529e-05	333.05	151.62	161.64	72.854	5.4722e-05	77.848	122.633	-6.589	10.944	-78.732	63.751	40.976	-79.971	-73.299	9.930	53.390	-75.664	-71.728	-69.343	-64.088	49.247	-67.505	-8191	255	
51453.203	1	1	0	0	0.13574	0.14069	0.081809	0.21061	0.064208	0.11837	0.17667	0.13245	0.1837	0.15395	0.06432	0.061164	0.092256	0.1371	0.070139	0.16507	-2.4729	-3.5042	-2.7271	-3.3542	-3.2812	-2.6667	-3.5271	-3.0604	-2.9625	-3.6479	-2.6042	-3.2062	-3.6104	-2.9146	-3.4188	-3.2083	-90.787	183.408	-58.199	259.019	156.111	-50.435	257.962	174.400	-1.649	44.782	143.199	232.287	-76.077	74.539	23.160	260.529	0.00058668	0.00040793	0.00017128	782.76	3.8418e-06	7.9886e-06	681.94	311.96	7.4917e-06	7.0058e-06	316.12	144.31	153.16	68.537	4.6808e-06	73.707	0.0027012	0.005533	0.0015467	816.87	4.6654e-05	6.4598e-05	712.2	327.68	4.9629e-05	6.4247e-05	333.68	152.1	161.71	72.871	5.3749e-05	77.92	119.389	43.462	-20.782	-78.855	35.840	58.699	-79.976	-73.130	35.529	62.036	-75.383	-71.636	-69.403	-64.052	51.185	-67.580	-8191	255	
51453.301	1	1	0	0	0.19814	0.042923	0.071308	0.11671	0.082603	0.15727	0.12847	0.16579	0.11446	0.13548	0.16892	0.13024	0.29418	0.051721	0.098069	0.13671	-2.4854	-3.4792	-2.6667	-3.15	-3.5458	-2.75	-3.5021	-3.1104	-2.6667	-3.4917	-2.8333	-3.0438	-3.6625	-2.6854	-3.3958	-3.2938	120.605	167.668	56.833	259.834	129.715	49.088	-73.123	219.685	167.442	25.660	5.968	202.195	241.457	185.948	106.461	-41.044	0.00062419	0.00042187	0.00014911	784.52	5.1938e-06	5.3606e-06	678.8	310.58	5.5609e-06	5.1942e-06	315.18	143.12	152.71	68.198	3.2079e-06	72.881	0.0027117	0.005556	0.0015726	818.68	4.7405e-05	6.4468e-05	711.73	326.32	4.9735e-05	6.4818e-05	331.18	150.99	161.34	72.433	5.34e-05	77.218	126.010	-10.326	-5.164	-78.813	10.606	61.566	-80.147	-73.424	26.065	44.743	-75.629	-71.518	-69.270	-63.917	18.944	-67.406	-8191	255	
51453.395	1	1	0	0	0.071491	0.080221	0.145	0.026911	0.23447	0.24692	0.13071	0.16016	0.1274	0.15125	0.033104	0.22527	0.080538	0.26328	0.14628	0.12948	-2.1896	-3.625	-2.8563	-3.1521	-3.3208	-2.7917	-3.2396	-3.3187	-2.575	-3.4625	-3.025	-3.1312	-3.6937	-2.8208	-3.2625	-3.4083	212.418	264.535	96.112	140.675	180.971	-32.503	73.540	5.890	264.517	-90.135	-65.728	223.891	188.953	-70.569	-14.857	190.805	0.00055232	0.00061958	0.00012618	783.99	3.7194e-06	1.8628e-06	675.19	309.6	5.2367e-06	3.1687e-06	314.64	142.37	152.49	68.167	3.6467e-06	72.941	0.0026824	0.0055966	0.0015366	817.44	4.745e-05	6.4497e-05	707.05	325.44	4.957e-05	6.4892e-05	329.77	150.29	161.06	72.421	5.3769e-05	77.282	118.428	-12.640	14.769	-78.986	56.695	34.145	-79.863	-73.172	3.069	58.309	-75.714	-71.712	-69.207	-63.965	38.006	-67.316	-8191	255	
51453.516	1	1	0	0	0.2115	0.1024	0.18345	0.053864	0.23377	0.13641	0.28969	0.12114	0.15698	0.063225	0.058861	0.2773	0.14563	0.17189	0.18194	0.18619	-2.1979	-3.4417	-3.0125	-2.8792	-3.5438	-2.5875	-3.075	-3.3625	-2.7062	-3.4792	-3.1937	-2.8021	-3.5792	-3.1063	-3.05	-3.5167	40.828	45.162	60.125	96.999	20.157	164.093	-40.453	171.153	98.675	129.396	-4.108	206.545	188.132	268.785	116.407	167.138	0.00059051	0.00050904	0.00015271	780.58	4.8792e-06	6.2953e-06	675.75	310.18	4.8099e-06	4.2295e-06	313.97	143.08	152.4	68.62	3.3731e-06	73.597	0.0026619	0.0055848	0.0015407	814.48	4.7169e-05	6.505e-05	706.68	325.77	4.9352e-05	6.3814e-05	330.13	150.65	160.87	72.802	5.3282e-05	77.863	125.670	-9.410	-17.680	-78.793	68.470	78.163	-79.936	-73.226	3.380	69.851	-75.636	-71.670	-69.209	-63.928	57.085	-67.401	-8191	255	
51453.613	1	1	0	0	0.10823	0.1744	0.21489	0.21468	0.13077	0.13539	0.28899	0.10191	0.33952	0.27129	0.090596	0.23478	0.28987	0.21743	0.11908	0.21429	-2.25	-3.4583	-3.0438	-2.7667	-3.3583	-3.0479	-3.2208	-3.5667	-2.5146	-3.4188	-3.2333	-3.0021	-3.6771	-3.2042	-2.8729	-3.6937	247.323	73.920	11.024	228.492	268.047	106.971	139.199	-3.673	214.714	-79.509	-75.818	-67.669	-69.162	222.447	-57.936	-38.676	0.00053807	0.00054204	0.00010812	786.19	2.1454e-06	7.1841e-06	679.28	311.35	4.9298e-06	9.1229e-06	315.34	143.55	152.48	68.638	3.7546e-06	73.264	0.0027149	0.0055294	0.0015243	816.09	4.7455e-05	6.5603e-05	708.27	326.99	4.8995e-05	6.3572e-05	331.43	150.89	161.14	72.772	5.5123e-05	77.804	122.049	20.739	-41.424	-78.828	73.150	69.694	-80.001	-73.163	49.652	81.847	-75.616	-71.659	-69.470	-63.884	69.239	-67.329	-8191	255	
51453.711	1	1	0	0	0.32563	0.14103	0.10481	0.27676	0.1482	0.16016	0.28491	0.06073	0.13639	0.24089	0.14732	0.17081	0.17931	0.30587	0.14458	0.092084	-2.2833	-3.3	-3.2875	-2.7979	-3.5812	-3.0187	-2.9833	-3.5062	-2.5	-3.2438	-3.4667	-2.8792	-3.5208	-3.3708	-2.6625	-3.75	136.475	38.557	19.451	-49.425	179.948	-39.239	234.875	-29.525	156.905	-80.936	187.476	249.087	125.297	250.336	138.801	266.919	0.00058605	0.0005031	0.00018402	781.93	3.7046e-06	3.9775e-06	676.07	310.67	3.1913e-06	7.9795e-06	311.1	141.43	151.7	68.444	4.8896e-06	72.535	0.0026869	0.0054459	0.0015165	814.33	4.7735e-05	6.4319e-05	705.53	325.63	4.9915e-05	6.4377e-05	328.23	149.41	160.3	72.446	5.4986e-05	76.808	124.611	4.285	5.097	-78.960	76.538	87.858	-80.283	-73.180	45.307	41.554	-75.681	-71.718	-69.111	-63.879	28.625	-67.324	-8191	255	
51453.828	1	1	0	0	0.016198	0.1189	0.11639	0.19387	0.28692	0.097584	0.36386	0.28031	0.079747	0.15927	0.076991	0.24286	0.12825	0.094381	0.060943	0.22286	-2.3375	-3.0979	-3.2687	-2.7188	-3.425	-3.1312	-2.925	-3.6396	-2.8083	-3.0563	-3.5792	-2.7229	-3.3583	-3.3146	-2.6979	-3.75	88.916	-87.020	39.887	147.883	111.816	134.606	231.257	155.474	197.106	-39.189	-65.997	184.818	215.358	71.463	258.748	222.143	0.0005767	0.00051949	0.0002084	785.23	5.4972e-06	3.9145e-06	673.76	310.1	3.5599e-06	7.7963e-06	312.18	141.28	151.84	68.157	1.4011e-06	72.365	0.0027011	0.0054939	0.0015602	814.8	4.7699e-05	6.5383e-05	703.74	324.33	4.9337e-05	6.4354e-05	327.13	148.83	160.24	72.188	5.6045e-05	76.687	114.512	-0.281	-8.047	-78.520	56.378	60.740	-79.934	-73.197	49.676	48.011	-75.674	-71.556	-69.033	-63.921	35.916	-67.283	-8191	255	
51453.902	1	1	0	0	0.043544	0.15114	0.25361	0.20194	0.16362	0.15008	0.06896	0.28597	0.2046	0.16508	0.11971	0.25585	0.089183	0.36508	0.13745	0.091042	-2.5042	-2.95	-3.5396	-2.7604	-3.0875	-3.3479	-2.7104	-3.5854	-2.9271	-2.9938	-3.7229	-2.8229	-3.3125	-3.4708	-2.5563	-3.7354	59.453	174.373	-6.877	-60.650	-34.180	133.902	245.494	214.809	-29.699	105.135	218.357	153.704	258.000	251.059	67.283	202.396	0.00057157	0.00080365	0.00019925	781.39	5.4781e-06	6.3954e-06	673.98	309.87	4.4346e-06	4.2544e-06	311.11	141.28	151.84	68.169	4.3705e-07	72.741	0.0027152	0.0055633	0.0015806	813.59	4.8661e-05	6.4649e-05	703.07	324.89	4.9652e-05	6.5907e-05	327.23	149.01	160.04	72.37	5.589e-05	77.126	127.520	10.615	35.284	-78.732	55.385	74.445	-79.920	-73.439	30.696	33.108	-75.714	-71.562	-69.229	-64.000	11.222	-67.257	-8191	255	
51453.996	1	1	0	0	0.085035	0.187	0.16357	0.10267	0.13682	0.24228	0.082197	0.2073	0.21786	0.050975	0.198	0.15086	0.22496	0.2454	0.079023	0.19007	-2.5938	-2.8	-3.5583	-2.9458	-3.1833	-3.5271	-2.6292	-3.3729	-2.8896	-2.8354	-3.5479	-2.9271	-3.2292	-3.4917	-2.6646	-3.35	133.142	245.166	241.314	218.877	7.048	121.052	-46.518	267.063	144.668	-2.146	-8.667	162.928	212.987	258.117	194.282	231.068	0.00058148	0.00052833	0.00019386	777.07	3.4196e-06	5.5242e-06	671.76	309.75	3.0094e-06	5.1462e-06	313.08	141.04	151.66	68.569	4.9246e-06	72.981	0.0026974	0.0055444	0.0015757	810.15	4.8432e-05	6.5577e-05	701.84	325.29	4.984e-05	6.6905e-05	328.69	149.02	160.03	72.605	5.6621e-05	77.312	123.667	-11.559	5.794	-78.691	-2.304	29.682	-79.822	-73.064	15.278	60.579	-75.220	-71.497	-69.043	-64.125	17.010	-67.265	-8191	255	
51454.094	1	1	0	0	0.10509	0.23019	0.077461	0.11056	0.091237	0.26375	0.29921	0.22142	0.10185	0.063723	0.13891	0.06299	0.42882	0.14581	0.20141	0.35384	-2.7625	-2.5604	-3.4021	-3.0667	-3.1063	-3.4021	-2.7	-3.2438	-3.3333	-2.7125	-3.5917	-3.0354	-2.9625	-3.5521	-2.5958	-3.3646	56.554	143.222	195.349	223.652	219.305	44.891	259.722	166.579	-64.599	116.721	198.061	264.719	268.854	264.011	7.174	254.031	0.00062458	0.00070599	0.00020048	772.57	3.2936e-06	5.4586e-06	668.71	308.94	5.9082e-06	7.2394e-06	309.54	140.97	151.17	68.383	4.1901e-06	73.04	0.0027051	0.0057032	0.0015841	807.72	4.9059e-05	6.5735e-05	698.15	324.35	4.9219e-05	6.7668e-05	326.33	148.42	159.41	72.646	5.5352e-05	77.269	124.224	3.040	10.131	-78.829	63.712	81.726	-80.106	-73.055	37.450	50.984	-75.514	-71.505	-69.209	-64.027	74.342	-67.239	-8191	255	
51454.211	1	1	0	0	0.16956	0.011913	0.20572	0.24205	0.26411	0.031353	0.27295	0.08339	0.2364	0.07412	0.24232	0.14883	0.33021	0.12533	0.055483	0.046618	-2.7604	-2.5771	-3.4042	-2.9417	-2.9396	-3.6208	-2.9271	-3.4854	-3.2646	-2.7438	-3.4833	-3.0146	-2.8563	-3.7667	-2.7292	-3.1437	213.590	31.614	62.700	-89.745	12.811	-32.366	150.348	-89.341	-34.084	205.006	204.799	251.600	-69.642	191.697	25.304	197.827	0.00060075	0.00061168	0.00019434	775.67	2.2243e-06	7.4433e-06	667.07	309.53	5.0478e-06	8.6446e-06	309.03	139.92	151	68.647	4.8867e-06	72.957	0.0027278	0.0056159	0.0015699	807.88	4.8417e-05	6.6058e-05	698.3	325.08	4.9597e-05	6.6668e-05	325.72	148.24	159.84	72.768	5.5831e-05	77.254	120.209	-9.438	-0.727	-78.656	50.027	71.747	-79.956	-73.154	13.185	94.497	-75.671	-71.308	-69.112	-63.812	63.925	-67.140	-8191	255	
51454.309	1	1	0	0	0.2186	0.08146	0.2213	0.25818	0.11487	0.19185	0.12499	0.10675	0.20681	0.1124	0.31411	0.1115	0.34939	0.19761	0.25136	0.13271	-3.0729	-2.5542	-3.3104	-3.2	-2.8646	-3.7625	-2.875	-3.2833	-3.5062	-2.6646	-3.3729	-3.3604	-2.7833	-3.6417	-2.7812	-3.1792	11.767	53.756	37.806	190.624	24.066	213.368	-8.495	247.197	70.708	217.630	-15.714	205.158	-76.061	220.374	74.559	226.550	0.00060849	0.00064066	0.00012031	775.71	5.9625e-06	5.98e-06	670.07	310.93	5.0727e-06	8.1584e-06	310.28	140.42	151.73	68.825	3.8198e-06	73.459	0.0026968	0.005717	0.0015976	810.32	4.9126e-05	6.6359e-05	698.85	325.69	4.985e-05	6.7804e-05	326.97	148.7	160.16	73.051	5.5324e-05	77.738	120.946	20.267	10.703	-78.718	44.847	45.557	-79.849	-73.124	41.638	35.618	-75.527	-71.467	-69.269	-63.944	54.253	-67.168	-8191	255	
51454.406	1	1	0	0	0.14654	0.078512	0.34378	0.13709	0.11402	0.2038	0.054273	0.066651	0.13277	0.34215	0.15325	0.33613	0.23879	0.11	0.147	0.22085	-3.2167	-2.7583	-3.3792	-3.2146	-2.6	-3.6188	-2.9521	-3.1146	-3.5687	-2.8187	-3.3688	-3.2667	-2.7458	-3.5625	-3.0062	-3.0625	114.720	260.912	144.619	-17.447	3.023	108.953	134.457	222.188	19.274	59.576	190.465	-85.280	241.188	219.855	226.998	219.694	0.00059245	0.0004893	0.00013665	778.03	6.0495e-06	5.8094e-06	670.19	311.4	5.7993e-06	6.015e-06	311.96	141.08	151.84	68.735	4.0898e-06	73.041	0.002679	0.0058226	0.0015962	811.83	4.8971e-05	6.7144e-05	700.59	326.71	5.0852e-05	6.6957e-05	327.79	149.05	160.19	73.05	5.5619e-05	77.49	122.412	0.693	-19.864	-78.767	54.034	44.045	-79.908	-73.131	42.132	65.046	-75.389	-71.399	-69.142	-63.648	30.024	-67.306	-8191	255	
51454.477	1	1	0	0	0.068647	0.15765	0.2951	0.13513	0.18433	0.16207	0.21302	0.10022	0.11389	0.30787	0.14842	0.22214	0.19051	0.031317	0.14131	0.15811	-3.1708	-2.6271	-3.2625	-3.5292	-2.6604	-3.5542	-3.2271	-2.7771	-3.6437	-2.8333	-3.0896	-3.5292	-2.6188	-3.6437	-3.1833	-2.9208	-54.210	144.015	17.312	91.562	262.040	146.787	216.521	260.538	-15.315	8.137	-49.074	-83.440	176.875	158.196	59.642	-87.893	0.00062164	0.00082923	0.00019529	779.23	2.7208e-06	5.2582e-06	666.99	310.28	5.9634e-06	4.7951e-06	309.21	140.62	151.52	68.918	4.1086e-06	72.739	0.0026941	0.0057434	0.001583	809.99	4.9576e-05	6.6008e-05	696.69	325.76	5.019e-05	6.7539e-05	325.47	148.25	160.36	72.989	5.6033e-05	76.983	122.676	1.534	36.077	-78.762	3.056	47.388	-79.844	-73.268	11.011	49.072	-75.840	-71.766	-69.200	-64.071	59.498	-67.303	-8191	255	
51454.598	1	1	0	0	0.2459	0.18106	0.11999	0.16112	0.093279	0.086928	0.24284	0.18515	0.15277	0.25413	0.22202	0.32699	0.46026	0.12598	0.087364	0.18679	-3.3042	-2.8292	-3.1437	-3.575	-2.6458	-3.3875	-3.2875	-2.7292	-3.6063	-3.1	-2.9979	-3.6104	-2.7354	-3.4083	-3.3271	-2.5958	-68.781	68.059	-74.250	227.126	263.601	255.361	238.127	178.520	207.149	26.332	206.775	205.416	233.127	-62.190	65.515	-90.660	0.00060067	0.00059554	0.00020251	775.1	8.2363e-06	5.3367e-06	666.65	310.1	5.9884e-06	8.0682e-06	308.68	140.62	152.4	69.034	5.9969e-06	72.752	0.0027366	0.0056685	0.0016042	809.28	5.0617e-05	6.631e-05	696.56	325.44	4.9923e-05	6.6342e-05	325.09	148.34	160.67	73.129	5.6183e-05	77.1	122.626	-32.309	3.365	-78.784	71.115	50.182	-79.906	-73.025	-2.261	49.912	-75.627	-71.709	-69.088	-63.858	29.890	-67.431	-8191	255	
51454.691	1	1	0	0	0.0081655	0.14041	0.077131	0.15858	0.044765	0.18747	0.12639	0.067866	0.20315	0.11148	0.23072	0.20175	0.14116	0.38584	0.057921	0.18748	-3.3063	-3.1167	-2.7521	-3.6667	-2.7812	-3.1375	-3.2687	-2.7521	-3.4437	-2.9458	-2.8979	-3.5708	-2.8333	-3.2604	-3.3521	-2.7875	36.081	208.859	228.913	224.054	-42.704	-81.194	160.781	149.852	-1.147	174.519	268.206	-56.682	-83.825	207.934	246.543	38.808	0.00060478	0.00066139	0.00021024	777.69	5.7722e-06	4.5625e-06	665.16	311.62	7.4229e-06	5.7726e-06	308.67	141.09	151.72	68.918	6.1224e-06	72.978	0.0027433	0.0057541	0.0016162	812.06	4.9539e-05	6.6753e-05	696.73	326.36	5.1558e-05	6.6722e-05	325.72	148.55	160.54	73.064	5.523e-05	77.265	119.025	-3.601	3.174	-78.725	56.848	71.385	-80.075	-73.237	16.196	33.795	-75.618	-71.412	-69.079	-63.702	13.611	-67.308	-8191	255	
51454.789	1	1	0	0	0.15012	0.10987	0.13927	0.077285	0.1223	0.11364	0.11912	0.24894	0.079043	0.076855	0.090692	0.091601	0.31369	0.24758	0.142	0.15622	-3.2083	-3.1396	-2.8604	-3.675	-2.7604	-3.0896	-3.4458	-2.7708	-3.4292	-3.1375	-2.725	-3.5229	-2.7313	-3.1771	-3.4208	-2.6688	101.071	200.396	-44.021	-65.593	265.273	251.350	72.103	142.248	70.932	238.116	260.666	164.640	232.577	265.351	95.156	226.408	0.00065521	0.00073055	0.00016648	778.77	4.0911e-06	3.9345e-06	668.36	310.96	6.1995e-06	7.497e-06	309.61	140.09	151.54	69.137	6.6341e-06	72.602	0.002765	0.0057409	0.0016155	812.95	5.0085e-05	6.7445e-05	698.76	325.49	5.1254e-05	6.7471e-05	324.94	148.03	160.34	73.076	5.604e-05	76.87	122.563	-7.105	-6.809	-78.655	66.136	40.043	-80.166	-73.187	34.113	75.440	-75.208	-71.380	-69.102	-63.858	27.095	-67.455	-8191	255	
51454.910	1	1	0	0	0.1551	0.079908	0.10219	0.33196	0.32274	0.22142	0.19404	0.080609	0.22393	0.12278	0.17867	0.033352	0.17585	0.43893	0.14409	0.0642	-2.8708	-3.1854	-2.5812	-3.6188	-2.8833	-2.8979	-3.5646	-2.8688	-3.3729	-3.4062	-2.9979	-3.6771	-3.1125	-3.1021	-3.4583	-2.7854	-44.258	78.861	-23.891	256.334	191.041	-22.446	51.391	229.318	-59.926	7.988	-53.847	182.377	162.606	-75.675	28.486	149.262	0.00064632	0.00039877	0.00019113	776.65	5.0121e-06	4.3354e-06	660.26	309.52	3.523e-06	6.3316e-06	307.3	139.64	151	68.835	3.6392e-07	72.543	0.0027304	0.0056976	0.0016135	809.23	4.9131e-05	6.7054e-05	693.31	324.48	5.0631e-05	6.6754e-05	323.32	147.4	159.86	72.879	5.68e-05	76.697	126.842	-26.396	9.941	-78.693	33.039	59.076	-80.070	-73.267	49.180	61.142	-75.675	-71.452	-69.348	-63.963	-31.789	-67.342	-8191	255	
51455.004	1	1	0	0	0.070048	0.23115	0.1416	0.2036	0.10837	0.21055	0.34259	0.18055	0.2411	0.12977	0.14984	0.25048	0.30273	0.15046	0.075081	0.12361	-2.9042	-3.3021	-2.6604	-3.525	-3.0229	-2.8854	-3.5646	-2.8937	-3.1521	-3.3312	-2.7917	-3.6479	-3.2667	-2.9875	-3.6479	-3.0083	42.101	113.730	28.045	259.139	265.645	-12.527	213.658	154.260	238.221	-87.331	161.874	192.882	238.017	-43.766	-50.321	172.160	0.00049548	0.00070297	0.00012893	773.47	2.2292e-06	3.8825e-06	663.38	308.4	4.2421e-06	5.3292e-06	306	139.1	150.91	68.56	2.6391e-06	71.992	0.0027369	0.0057847	0.0016465	806.8	4.9751e-05	6.8848e-05	691.58	323.76	5.1902e-05	6.881e-05	322.58	147.12	159.33	72.721	6.1225e-05	76.473	126.035	-8.556	24.564	-78.737	-18.480	40.354	-80.129	-73.075	36.923	78.692	-75.520	-71.428	-69.353	-63.876	-6.421	-67.340	-8191	255	
51455.102	1	1	0	0	0.13547	0.089048	0.13256	0.13768	0.071473	0.023141	0.0981	0.18252	0.066448	0.096107	0.14411	0.15796	0.10903	0.28093	0.31213	0.25013	-2.7167	-3.4938	-2.7313	-3.5271	-3.1917	-2.7083	-3.5896	-2.9396	-2.9771	-3.4604	-2.7146	-3.3771	-3.5917	-2.9646	-3.5771	-3.1688	201.334	222.423	75.249	-40.646	-22.567	138.342	-60.353	148.085	24.238	173.623	60.541	-72.862	228.558	251.350	-47.086	102.566	0.0006875	0.00048974	0.00019337	778.48	4.977e-06	7.9013e-06	663.95	308.04	3.3834e-06	7.9336e-06	305.23	137.43	149.73	67.255	6.9795e-06	70.588	0.0029817	0.0063816	0.001881	812.51	5.8025e-05	8.2062e-05	695.91	323.48	6.4974e-05	8.7778e-05	322.3	145.64	158.33	71.653	7.7811e-05	75.02	123.548	-13.677	10.197	-78.609	31.967	40.141	-80.169	-73.238	-40.545	35.975	-75.726	-71.552	-69.164	-63.530	43.536	-67.130	-8191	255	
51455.195	1	1	0	0	0.31681	0.033934	0.10237	0.22026	0.23786	0.19899	0.038476	0.18132	0.088426	0.13122	0.2774	0.090357	0.15715	0.12658	0.1199	0.14796	-2.6104	-3.5292	-2.7812	-3.3458	-3.3729	-2.675	-3.5542	-3.2229	-2.7958	-3.45	-2.8771	-3.4313	-3.6083	-2.7771	-3.7	-3.1521	175.083	166.178	-60.379	196.519	132.448	267.249	188.461	26.143	-48.154	-9.119	183.739	38.003	62.992	187.836	212.144	198.250	0.0005495	0.00068444	0.00023186	784.14	4.6731e-06	7.8215e-06	666.75	304.65	6.7528e-06	3.2769e-06	300.42	135.11	147.82	66.392	2.1784e-06	69.191	0.003697	0.0081495	0.0023077	820.93	6.9392e-05	9.8817e-05	700.06	321.34	7.3549e-05	9.8475e-05	317.87	143.36	156.75	70.541	8.2906e-05	73.359	124.959	-14.271	38.837	-78.531	30.329	49.378	-80.078	-73.088	-11.080	46.014	-75.511	-71.553	-68.837	-63.449	48.802	-67.275	-8191	255	
51455.293	1	1	0	0	0.12594	0.053223	0.11408	0.054844	0.099843	0.087004	0.26206	0.12347	0.15674	0.1025	0.33044	0.23128	0.24205	0.13559	0.039724	0.14327	-2.4479	-3.4521	-2.7792	-3.2812	-3.3417	-2.6583	-3.5417	-3.2104	-2.6937	-3.6229	-2.9021	-3.1312	-3.5833	-2.7417	-3.3	-3.3958	236.354	44.543	37.205	90.978	-20.883	-70.934	221.144	193.929	68.411	181.037	-11.107	252.745	-64.919	-49.895	222.846	-60.616	0.00051521	0.00067317	0.00018315	780.08	5.723e-06	3.5048e-06	657.41	302.39	2.324e-06	5.2564e-06	295.15	134.17	147.17	65.79	4.5573e-06	68.933	0.0038461	0.0084199	0.0024155	818.06	7.186e-05	0.00010001	692.7	318.79	7.5108e-05	9.9336e-05	314.19	142.21	155.87	70.189	8.0335e-05	73.257	125.412	4.832	25.436	-78.698	33.824	78.780	-79.852	-73.110	90.979	76.335	-75.349	-71.419	-68.814	-63.597	42.919	-67.087	-8191	255	
51455.391	1	1	0	0	0.15223	0.26473	0.29486	0.3243	0.19733	0.053792	0.13416	0.37836	0.13048	0.058824	0.28289	0.075452	0.16705	0.20454	0.030338	0.055972	-2.3417	-3.5708	-2.8104	-2.9625	-3.4667	-2.7417	-3.3417	-3.3333	-2.4271	-3.4104	-2.9521	-3.0208	-3.4896	-2.8021	-3.2104	-3.3312	-58.153	204.145	51.274	261.363	62.446	238.990	211.111	176.040	-87.634	65.792	-16.959	-0.389	219.732	232.184	130.502	156.880	0.00054638	0.00065535	0.00023399	773.78	6.6962e-06	7.4755e-06	654.25	302.03	6.8414e-06	4.5842e-06	296.15	133.92	146.69	66.257	5.0862e-06	69.163	0.0037663	0.008159	0.0022937	811.59	6.9622e-05	9.4991e-05	688.25	317.9	6.9685e-05	9.2436e-05	314.03	142	155.69	70.314	7.3192e-05	73.303	128.234	-1.265	-12.566	-78.568	63.686	66.437	-79.781	-73.147	28.803	35.800	-75.266	-71.324	-68.918	-63.646	14.375	-66.986	-8191	255	
51455.512	1	1	0	0	0.20675	0.10546	0.22072	0.29318	0.17614	0.042511	0.072443	0.14241	0.22716	0.18097	0.040379	0.36067	0.1486	0.040351	0.10142	0.15038	-2.2812	-3.3896	-3.05	-2.9833	-3.5646	-2.7479	-3.2583	-3.3396	-2.6479	-3.4292	-3.2208	-2.7562	-3.7375	-2.8958	-2.9042	-3.6792	187.182	75.150	27.862	122.220	214.914	15.930	183.704	213.062	40.061	72.278	-49.252	195.202	-75.751	215.610	222.307	155.242	0.00051948	0.00054557	8.9697e-05	771.6	6.5376e-06	8.1362e-06	653.92	301.86	2.622e-06	4.6139e-06	299.09	134.55	147.11	66.791	4.7122e-06	69.926	0.003454	0.0075158	0.0020854	808.38	6.2402e-05	8.5456e-05	686.84	317.88	6.3473e-05	8.1984e-05	315.27	142.61	155.73	70.83	6.5964e-05	74.221	125.006	-5.134	-25.420	-78.532	42.328	77.325	-80.013	-72.997	26.480	65.491	-75.522	-71.310	-68.792	-63.497	48.992	-67.023	-8191	255	
51455.605	1	1	0	0	0.13358	0.074438	0.28468	0.094134	0.15678	0.11009	0.27024	0.11256	0.21244	0.13871	0.04755	0.1914	0.23649	0.3312	0.07683	0.15453	-2.2479	-3.4833	-3.2042	-2.8375	-3.4792	-2.8167	-3.1063	-3.4458	-2.6917	-3.3854	-3.2333	-2.6937	-3.7333	-2.9271	-2.8646	-3.5729	214.562	235.924	6.868	-73.195	238.085	-2.567	-87.070	172.331	-15.527	229.300	-77.227	49.240	-61.644	-82.686	107.292	-66.173	0.00053323	0.00066229	0.00010485	767.79	3.1658e-06	4.3672e-06	653.23	303.76	2.9672e-06	8.9167e-06	299.26	134.77	147.39	66.702	5.7092e-06	70.078	0.0031684	0.0067249	0.0018808	804.51	5.8187e-05	7.7686e-05	685.32	318.88	5.8944e-05	7.7218e-05	315.49	142.73	155.99	70.874	6.5326e-05	74.198	136.300	17.323	-7.191	-78.583	-23.020	41.806	-79.936	-72.947	58.896	57.611	-75.297	-71.192	-69.110	-63.621	66.108	-67.000	-8191	255	
51455.703	1	1	0	0	0.1113	0.21265	0.045196	0.11694	0.16725	0.040014	0.2078	0.28885	0.23672	0.11282	0.2672	0.062135	0.052331	0.28847	0.27537	0.1197	-2.2604	-3.15	-3.2771	-2.7333	-3.4396	-2.9979	-2.9771	-3.6188	-2.6562	-3.3979	-3.4	-2.7229	-3.5021	-3.0896	-2.5354	-3.6688	69.581	212.157	39.266	-43.167	214.442	54.337	12.631	234.069	13.775	-35.724	-48.807	-67.707	-50.507	-56.515	-82.750	-61.495	0.00055334	0.00056563	0.00016163	771.66	1.3985e-07	2.9809e-06	654.76	304.13	6.8645e-06	6.7475e-06	297.87	134.63	147.82	66.781	3.3441e-06	70.187	0.0031133	0.0066633	0.0018743	805.38	5.8318e-05	7.6435e-05	683.46	318.87	5.9599e-05	7.6808e-05	315.39	142.75	156.43	71.061	6.4401e-05	74.321	120.444	-13.682	10.387	-78.455	202.487	41.456	-79.872	-72.913	32.962	59.806	-75.304	-71.156	-68.717	-63.595	0.101	-67.254	-8191	255	
51455.773	1	1	0	0	0.018062	0.09061	0.080486	0.15238	0.080962	0.17364	0.10756	0.23531	0.27983	0.1077	0.079675	0.13758	0.2165	0.25534	0.14612	0.20466	-2.2917	-3.0521	-3.5312	-2.6917	-3.3646	-2.8625	-2.7271	-3.6604	-2.8688	-3.0792	-3.4688	-2.8063	-3.4104	-3.3417	-2.5854	-3.5875	91.355	-70.215	161.292	173.341	222.158	-56.453	-51.302	242.183	-2.462	-59.307	112.245	27.669	-62.822	241.031	263.460	247.447	0.00058513	0.00067933	0.00011438	767.37	4.1078e-06	7.011e-06	649.96	303.15	2.8731e-06	6.5469e-06	299.43	134.68	148.14	67.015	7.0858e-06	70.498	0.0030862	0.0066462	0.0018523	802.48	5.6668e-05	7.621e-05	680.93	319.15	5.8867e-05	7.7048e-05	315.58	142.59	156.38	71.245	6.4605e-05	74.706	133.784	9.982	-33.712	-78.266	56.538	39.433	-79.725	-72.900	47.336	54.390	-75.006	-71.205	-68.843	-63.719	63.000	-67.330	-8191	255	
51455.895	1	1	0	0	0.22206	0.050637	0.15627	0.27616	0.23101	0.14068	0.047034	0.074729	0.086583	0.060271	0.14577	0.24252	0.21441	0.095506	0.16443	0.050244	-2.5854	-3.0104	-3.45	-2.7812	-3.3438	-3.2438	-2.6625	-3.6208	-2.725	-2.9083	-3.6354	-2.7625	-3.4354	-3.5229	-2.4688	-3.4479	100.776	173.146	85.713	261.240	-15.813	101.085	-46.193	-17.945	28.086	144.614	55.269	206.013	212.586	-74.794	-9.691	240.473	0.00053261	0.00068936	0.00020942	766.35	5.0722e-06	6.4594e-06	651.38	304.35	4.3082e-06	7.5092e-06	300.24	135.96	147.92	67.56	4.7685e-06	70.645	0.0030432	0.0065015	0.0018277	801.13	5.5947e-05	7.3934e-05	682.09	319.96	5.725e-05	7.5165e-05	316.96	143.48	156.29	71.554	6.3264e-05	75.083	128.118	-6.629	15.354	-78.510	65.447	60.101	-79.575	-72.889	53.104	48.953	-75.356	-71.453	-68.837	-63.554	52.174	-66.912	-8191	255	
51455.988	1	1	0	0	0.12637	0.034759	0.24698	0.026373	0.20895	0.1402	0.097594	0.095185	0.15994	0.041767	0.098309	0.1724	0.35657	0.16807	0.28744	0.17607	-2.6437	-2.9396	-3.4688	-2.7604	-3.1063	-3.3167	-2.6896	-3.4646	-3.0687	-2.9146	-3.6021	-2.8708	-3.0458	-3.3917	-2.725	-3.5729	-14.718	140.819	39.879	9.971	-23.578	131.841	239.383	-62.324	254.661	-33.438	213.346	189.039	268.512	-79.212	130.765	196.843	0.00060459	0.0007726	0.00021903	768.04	1.1168e-06	8.1116e-06	650.1	304.69	4.4197e-06	3.6287e-06	299.88	135.33	147.98	67.334	1.9763e-06	70.675	0.0030075	0.0063854	0.0017729	799.71	5.4553e-05	7.3532e-05	680.25	319.87	5.5469e-05	7.2879e-05	315.89	143.13	156.51	71.52	6.0869e-05	74.989	127.525	-16.940	2.028	-78.480	-16.718	63.280	-79.603	-72.969	38.300	75.793	-75.110	-71.385	-68.812	-63.579	31.261	-67.128	-8191	255	
51456.086	1	1	0	0	0.142	0.13405	0.11224	0.079549	0.25248	0.06543	0.19792	0.14428	0.13216	0.17871	0.038969	0.13305	0.21164	0.32731	0.1678	0.056969	-2.7771	-2.8167	-3.5417	-2.9813	-3.2	-3.5375	-2.7792	-3.6521	-3.1625	-2.7042	-3.6229	-2.9792	-3.0396	-3.7167	-2.7521	-3.5458	128.462	6.224	37.930	231.412	191.603	262.673	166.011	198.667	247.073	85.052	5.326	170.001	247.525	221.409	92.795	28.506	0.00059385	0.00052123	0.00015882	762.7	6.5773e-06	4.0316e-06	650.44	303.55	4.2192e-06	7.8708e-06	301.13	135.99	148.92	67.88	4.5639e-06	71.269	0.0028619	0.0062228	0.0016809	797.47	5.2029e-05	7.0604e-05	678.21	320.06	5.3442e-05	7.0701e-05	316.48	143.69	157.22	71.986	5.9568e-05	75.514	124.961	17.828	6.229	-78.386	65.422	39.631	-79.749	-72.755	10.786	38.653	-75.094	-71.487	-68.637	-63.591	43.484	-67.095	-8191	255	
51456.180	1	1	0	0	0.046557	0.095578	0.2139	0.21987	0.16174	0.39205	0.4035	0.12153	0.18792	0.04744	0.13067	0.082149	0.19448	0.17786	0.20504	0.21592	-3.0229	-2.8	-3.6417	-2.9562	-3.1521	-3.6083	-2.8458	-3.5167	-3.4604	-2.7896	-3.7042	-3.1521	-3.0812	-3.4833	-2.7729	-3.3708	187.466	100.073	-21.124	-82.474	0.959	213.383	130.296	167.391	14.429	-80.235	-85.646	228.935	122.839	-55.184	263.199	-38.710	0.00060054	0.00070742	0.0001479	762.69	1.1051e-06	7.2204e-06	649.19	305.41	2.5431e-06	8.9113e-06	302.44	136.94	149.49	68.738	1.7007e-06	72.177	0.0028315	0.0059826	0.0016531	796.67	5.0064e-05	6.8603e-05	679.16	321.04	5.2187e-05	6.8658e-05	318.86	144.78	157.77	72.765	5.7931e-05	76.585	120.978	10.792	-21.368	-78.504	66.508	74.764	-79.891	-73.011	12.806	66.655	-75.653	-71.178	-68.687	-63.461	45.989	-67.126	-8191	255	
51456.301	1	1	0	0	0.21197	0.11874	0.24305	0.25358	0.028792	0.2133	0.15983	0.0603	0.17577	0.092622	0.11454	0.2347	0.023683	0.23206	0.23671	0.16668	-3.0521	-2.7083	-3.4146	-3.1646	-2.9979	-3.6417	-3.0563	-3.2729	-3.4792	-2.7979	-3.3583	-3.3521	-2.9833	-3.7354	-2.9104	-3.3563	135.317	111.453	108.401	206.060	262.791	132.941	70.337	141.877	81.631	130.558	-47.384	187.320	185.724	251.079	-42.103	186.231	0.00059377	0.00056358	0.00020523	766.59	4.8243e-06	6.7496e-06	654.03	308.03	2.7612e-06	5.1141e-06	305.99	138.79	151.15	69.014	4.7516e-06	72.631	0.0027595	0.0058129	0.0016084	798.64	4.9914e-05	6.7824e-05	684.39	323.28	5.0964e-05	6.8093e-05	321.61	146.6	159.31	73.166	5.6808e-05	76.828	124.713	0.720	14.788	-78.513	34.907	60.336	-79.517	-73.015	52.471	96.436	-75.362	-71.176	-68.739	-63.593	4.819	-67.034	-8191	255	
51456.371	1	1	0	0	0.17878	0.021418	0.080023	0.13182	0.12943	0.17892	0.06931	0.063847	0.049751	0.12815	0.23239	0.22238	0.24069	0.34682	0.13622	0.12615	-3.2167	-2.7771	-3.3104	-3.4188	-2.6729	-3.5375	-2.825	-3.0354	-3.5458	-2.8833	-3.3833	-3.3521	-2.9583	-3.7125	-3.025	-3.1667	232.984	77.276	-68.881	196.335	74.040	29.801	109.629	-37.692	106.072	201.406	151.668	-71.016	160.612	216.703	46.681	-83.761	0.00056468	0.0005812	0.00017833	767.71	4.9047e-06	3.0483e-06	652.01	308.77	5.5057e-06	6.9771e-06	303.84	138.63	150.74	68.748	2.9919e-06	72.33	0.0028104	0.0057374	0.0015757	801.02	4.9348e-05	6.8197e-05	683.58	323.57	5.0513e-05	6.7552e-05	320.31	145.9	159.21	73.055	5.6861e-05	76.563	127.573	-5.459	-5.234	-78.637	35.598	45.271	-79.705	-72.694	45.759	33.963	-75.062	-71.287	-68.607	-63.454	44.148	-66.998	-8191	255	
51456.469	1	1	0	0	0.15899	0.16582	0.14341	0.29137	0.16653	0.31234	0.28091	0.15736	0.23578	0.19701	0.090316	0.11144	0.16705	0.077795	0.10746	0.16462	-3.1458	-2.75	-3.3187	-3.4229	-2.5875	-3.5542	-3.1542	-3.0062	-3.5229	-2.9104	-3.3563	-3.5854	-2.7167	-3.5771	-2.975	-2.9313	164.164	125.438	-21.689	250.722	-37.773	-66.570	133.258	235.364	176.680	207.740	131.886	-90.672	251.850	4.144	268.983	-84.130	0.00061086	0.00057147	0.00019402	767.07	8.0063e-06	4.8537e-06	650.44	308.31	3.166e-06	5.8806e-06	304.6	138.68	151.34	69.164	4.353e-06	72.73	0.0027456	0.005764	0.0016109	800.02	4.9189e-05	6.5524e-05	681.1	323.67	5.0646e-05	6.6316e-05	320.46	146.42	159.55	73.343	5.6223e-05	76.969	125.144	7.416	-4.941	-78.587	50.866	51.996	-79.814	-72.762	67.951	72.002	-75.420	-71.331	-68.868	-63.500	20.149	-67.057	-8191	255	
51456.590	1	1	0	0	0.041107	0.02226	0.22304	0.080708	0.052757	0.05355	0.21535	0.16658	0.24003	0.18444	0.17302	0.24719	0.16379	0.22958	0.38589	0.3002	-3.2562	-2.8	-3.1521	-3.6	-2.6771	-3.4479	-3.0667	-2.8438	-3.5292	-2.9354	-3.1688	-3.6125	-2.775	-3.3812	-3.2687	-2.8458	117.571	6.139	-77.170	247.408	79.479	231.223	244.355	209.933	122.218	-57.507	182.675	204.262	264.537	-78.147	25.523	229.473	0.00062191	0.00028207	0.00018775	767.72	5.3436e-06	3.7108e-06	650.59	309	4.1313e-06	8.2505e-06	306.25	138.6	151.55	69.472	6.5829e-06	72.853	0.0027614	0.0057802	0.0016029	801.93	4.9343e-05	6.6819e-05	682.55	323.94	5.0543e-05	6.6506e-05	321.5	146.7	159.75	73.588	5.6124e-05	77.19	124.864	-12.122	-15.211	-78.334	18.873	35.061	-79.829	-72.856	87.380	83.844	-75.304	-71.275	-68.889	-63.416	55.923	-66.998	-8191	255	
51456.688	1	1	0	0	0.13118	0.099248	0.27332	0.24252	0.23326	0.011304	0.15387	0.14259	0.10278	0.29173	0.10288	0.12866	0.093736	0.23552	0.15405	0.21913	-3.1667	-2.8729	-2.8958	-3.4562	-2.5896	-3.1896	-3.5583	-2.7292	-3.4646	-2.975	-2.9229	-3.5625	-2.8646	-3.3563	-3.5312	-2.7333	11.824	-19.757	150.436	-87.752	109.799	248.933	151.809	206.662	34.707	42.173	-52.211	-38.417	-79.383	253.367	12.379	-77.037	0.00059949	0.00056331	0.00021095	773.11	5.2088e-06	3.8135e-06	654.18	310.21	6.3679e-06	5.304e-06	306.07	138.76	151.17	69.463	4.2773e-06	73.275	0.0027381	0.0057187	0.0016284	804.06	4.9503e-05	6.6089e-05	683.87	324.71	5.1135e-05	6.6965e-05	321.89	146.97	159.63	73.651	5.6843e-05	77.359	124.242	-30.157	8.962	-78.445	43.586	79.672	-79.702	-72.664	30.171	64.536	-75.112	-71.263	-68.757	-63.495	73.596	-66.895	-8191	255	
51456.781	1	1	0	0	0.1419	0.074632	0.039131	0.16838	0.088899	0.21936	0.10951	0.26216	0.092529	0.17842	0.016092	0.066641	0.27207	0.24181	0.20241	0.22463	-3.1729	-2.8667	-2.6937	-3.5896	-2.8146	-3.15	-3.5646	-2.6833	-3.4271	-3.2042	-2.8563	-3.8479	-2.8021	-3.1333	-3.4979	-2.8646	28.785	185.449	66.312	251.441	74.650	1.568	260.822	213.672	-79.529	76.088	115.804	75.641	250.522	246.790	190.797	-73.137	0.00056407	0.00056316	0.00014693	770.21	4.9566e-06	6.1467e-06	652.51	308.13	4.5308e-06	6.6404e-06	303.84	138.52	151.02	69.486	2.0199e-06	72.679	0.0027325	0.0057165	0.0016268	800.72	4.9245e-05	6.6955e-05	681.6	323.73	5.0587e-05	6.75e-05	320.22	146.09	159.46	73.547	5.6111e-05	77.164	119.757	0.425	-6.458	-78.448	29.297	58.765	-79.847	-72.993	38.264	76.670	-75.204	-71.079	-68.695	-63.396	68.070	-66.901	-8191	255	
51456.879	1	1	0	0	0.016602	0.1241	0.075404	0.20336	0.126	0.074621	0.14277	0.22364	0.051942	0.26175	0.17945	0.17127	0.24	0.09631	0.20797	0.40383	-3.0833	-3.3333	-2.6562	-3.6208	-2.8187	-2.825	-3.7	-2.825	-3.3812	-3.2667	-2.8354	-3.825	-3.1417	-2.9396	-3.5104	-2.8708	220.728	-22.820	-84.153	222.576	105.530	140.270	-53.621	242.283	116.711	40.486	0.599	-60.434	165.812	224.149	82.933	264.945	0.00057862	0.00047605	0.00017352	765.56	4.6697e-06	2.559e-06	650.69	308.98	4.5198e-06	7.8644e-06	303.39	138.33	150.76	69.586	6.6135e-06	73.205	0.0027302	0.0056457	0.0016376	799.63	4.9208e-05	6.7522e-05	680.41	324.13	5.0883e-05	6.735e-05	320.46	146.3	159.6	73.718	5.7448e-05	77.355	130.593	-15.112	10.427	-78.371	8.544	61.632	-79.732	-72.496	14.187	72.099	-75.168	-71.132	-68.709	-63.627	48.670	-66.875	-8191	255	
51456.996	1	1	0	0	0.068099	0.062065	0.12143	0.1552	0.070356	0.19157	0.13439	0.31223	0.050217	0.018464	0.04373	0.096896	0.09432	0.071299	0.07744	0.35888	-2.8521	-3.3646	-2.6396	-3.6063	-2.8417	-2.9271	-3.8167	-2.8125	-3.3187	-3.4833	-2.8479	-3.7375	-3.1937	-3.0417	-3.525	-3.0021	129.266	222.156	165.989	166.726	54.001	7.501	162.952	-80.700	92.897	-17.857	-62.992	-32.174	227.195	-83.332	2.835	144.659	0.00059037	0.00041347	0.00016587	767.6	7.2255e-06	4.4746e-06	651.93	309.31	3.8137e-06	4.3377e-06	306.3	139.41	150.97	69.795	8.0593e-06	73.548	0.0027868	0.005667	0.0016624	800.1	5.1005e-05	6.7771e-05	683.49	324.96	5.2351e-05	6.8655e-05	321.76	147.13	159.83	74.041	5.6966e-05	77.797	120.105	-3.670	22.585	-78.201	36.639	49.759	-79.659	-72.851	7.242	60.219	-75.065	-71.280	-68.592	-63.428	39.381	-66.998	-8191	255	
51457.070	1	1	0	0	0.14825	0.011442	0.10165	0.18946	0.13979	0.11091	0.10002	0.17072	0.14389	0.089378	0.20957	0.28778	0.16995	0.56127	0.10922	0.33441	-2.9083	-3.4875	-2.7083	-3.6875	-3.2396	-2.7958	-3.6271	-3.0687	-3.1604	-3.5479	-2.9021	-3.4917	-3.3042	-2.8792	-3.6083	-3.0771	56.250	-14.201	141.263	-89.702	-21.292	-50.005	267.822	174.171	-11.157	-76.510	20.861	240.970	218.982	-65.904	67.096	88.951	0.00055184	0.00059018	0.00013844	770.1	4.0726e-06	4.5479e-06	654.59	310.09	2.8519e-06	5.3535e-06	304.71	139.23	151.33	69.822	7.2482e-07	73.264	0.0028173	0.0058284	0.00165	802.06	4.9695e-05	6.856e-05	684.35	325.56	5.1712e-05	6.7602e-05	321.37	146.88	159.86	73.894	5.7383e-05	77.638	124.823	-17.016	-0.087	-78.176	33.401	53.882	-79.455	-72.738	11.909	77.784	-75.075	-71.300	-68.725	-63.401	-10.966	-66.837	-8191	255	
51457.191	1	1	0	0	0.12368	0.16861	0.11909	0.36814	0.15035	0.20298	0.17214	0.23766	0.13793	0.16798	0.049642	0.10247	0.26508	0.25466	0.051587	0.16988	-2.5104	-3.5187	-2.7229	-3.3688	-3.1958	-2.7729	-3.6458	-3.0875	-2.8792	-3.6042	-2.7125	-3.1583	-3.4229	-2.7417	-3.5229	-3.2583	232.528	-74.434	171.891	257.935	122.209	15.037	172.180	201.237	222.970	-51.952	242.305	-12.978	192.382	-89.622	39.847	242.416	0.00061064	0.00048846	0.00015892	766.28	3.2021e-06	3.3742e-06	649	310.34	4.984e-06	5.3715e-06	305.03	138.84	151.15	69.995	2.0904e-06	73.582	0.002786	0.0058603	0.0016327	799.59	5.0382e-05	6.7943e-05	681.97	325.01	5.2239e-05	6.7546e-05	321.41	146.95	159.96	74.101	5.6433e-05	77.829	120.086	-5.609	1.039	-78.159	59.420	45.636	-79.226	-72.939	21.759	57.075	-75.412	-71.025	-68.767	-63.343	27.602	-66.889	-8191	255	
51457.285	1	1	0	0	0.15928	0.097973	0.15056	0.071978	0.15428	0.085578	0.38519	0.30766	0.16207	0.1153	0.065251	0.13509	0.28833	0.099824	0.1077	0.10683	-2.4896	-3.5521	-2.7146	-3.3396	-3.3333	-2.8229	-3.5625	-3.3271	-2.6917	-3.6771	-2.7604	-3.1333	-3.6917	-2.7708	-3.5792	-3.2521	221.313	79.131	87.505	152.415	-21.037	199.157	181.855	179.381	237.306	18.024	151.189	241.835	117.274	233.615	56.877	-72.706	0.00062692	0.00048568	0.0001797	769	4.8609e-06	6.805e-06	657.07	311.75	6.6121e-06	6.1835e-06	306.83	139.58	152.18	70.075	3.9764e-06	73.677	0.0027716	0.00575	0.0016222	800.99	4.9772e-05	6.8493e-05	684.96	326.68	5.1526e-05	6.7594e-05	322.97	147.82	161.03	74.394	5.5904e-05	78.07	120.620	-6.115	-1.228	-78.148	59.188	30.612	-79.533	-72.664	64.348	45.456	-75.170	-71.146	-68.720	-63.298	54.317	-66.788	-8191	255	
51457.383	1	1	0	0	0.14779	0.14959	0.13928	0.077118	0.20747	0.1995	0.29436	0.32766	0.079794	0.25974	0.15654	0.20299	0.21923	0.34371	0.039742	0.077277	-2.35	-3.475	-2.875	-3.0292	-3.5042	-2.6604	-3.5667	-3.2958	-2.9083	-3.5229	-2.9375	-3.0687	-3.6312	-2.8896	-3.2	-3.6146	56.160	206.631	72.354	176.801	-60.319	107.800	151.800	233.781	213.293	-44.598	234.911	197.542	-51.720	218.708	50.396	249.574	0.0006363	0.00045396	0.00014679	772.44	4.7825e-06	6.5301e-06	655.33	311.57	5.8741e-06	6.5853e-06	308.82	140.15	153.03	70.195	3.6917e-06	74.21	0.0027756	0.0058326	0.0016006	806.47	4.9308e-05	6.7676e-05	687.44	326.78	5.1385e-05	6.764e-05	324.75	148.4	161.69	74.518	5.6613e-05	78.39	122.666	7.074	0.846	-78.158	25.040	39.732	-79.545	-72.805	24.884	63.023	-74.998	-70.896	-68.828	-63.424	3.935	-66.907	-8191	255	
51457.477	1	1	0	0	0.048591	0.15511	0.13138	0.12593	0.01735	0.070077	0.28282	0.2843	0.066428	0.048169	0.18617	0.15246	0.034171	0.26767	0.25565	0.2719	-2.4458	-3.5854	-3.1437	-3.0646	-3.5917	-2.75	-3.4062	-3.5125	-2.7583	-3.6	-3.2271	-2.825	-3.5833	-2.8979	-3.0438	-3.5312	-60.635	180.984	162.932	167.951	-42.632	72.522	-52.121	81.451	8.453	4.220	44.374	28.933	178.652	-74.531	15.291	252.627	0.0006231	0.00054218	0.00021302	773.49	5.56e-06	5.3319e-06	655.61	311.46	5.0886e-06	7.218e-06	305.4	140.09	153.13	70.175	6.7082e-06	73.479	0.0027685	0.0056931	0.0016022	806.02	4.8913e-05	6.7568e-05	686.43	326.78	5.1147e-05	6.6508e-05	322.66	148.02	161.52	74.304	5.5701e-05	77.831	125.218	-17.970	-4.218	-78.138	60.196	41.320	-79.683	-72.602	48.812	42.958	-75.057	-70.842	-68.516	-63.163	40.613	-66.648	-8191	255	
51457.598	1	1	0	0	0.15343	0.25084	0.089251	0.20357	0.085225	0.20312	0.21303	0.092735	0.12976	0.13165	0.1387	0.19932	0.14512	0.16821	0.19417	0.17853	-2.3771	-3.4437	-3.1417	-2.8771	-3.7042	-2.9458	-3.1833	-3.6729	-2.5854	-3.6167	-3.4167	-2.975	-3.725	-3.1479	-3.125	-3.5062	257.296	75.982	190.664	240.843	165.127	193.437	265.879	58.087	177.177	180.088	240.373	-67.174	251.102	-71.763	-85.652	237.092	0.00067694	0.00077915	0.00014608	770.03	6.4164e-06	5.8635e-06	656.43	310.08	1.4967e-06	8.9436e-06	307.26	140.04	153.33	70.305	2.3721e-06	73.312	0.0027847	0.0058098	0.0016129	804.61	4.9417e-05	6.6866e-05	686.88	325.94	5.1026e-05	6.753e-05	322.3	147.9	161.56	74.264	5.5877e-05	77.728	126.728	-14.885	6.133	-78.284	46.209	49.440	-79.505	-72.688	-11.318	57.434	-75.218	-70.787	-68.419	-63.330	37.093	-66.864	-8191	255	
51457.672	1	1	0	0	0.17106	0.13085	0.12392	0.14867	0.24077	0.16478	0.11465	0.12993	0.17249	0.1944	0.1792	0.19352	0.22238	0.27079	0.021578	0.25711	-2.2771	-3.3146	-3.1437	-2.9292	-3.5312	-2.8583	-2.9417	-3.5438	-2.8125	-3.1562	-3.3167	-2.7167	-3.5521	-3.2396	-2.9083	-3.6063	-77.883	-83.728	180.320	264.442	44.901	109.089	-38.078	230.597	241.442	-24.445	86.812	-66.055	-87.902	238.084	185.491	-25.381	0.0005815	0.00048836	0.0001743	773.74	5.0873e-06	9.0591e-06	657.62	309.36	7.0291e-06	7.4628e-06	306.04	140.38	153.16	70.031	6.5138e-06	73.248	0.0027889	0.0057803	0.0016198	806.17	4.8887e-05	6.8278e-05	687.63	324.62	5.2085e-05	6.7952e-05	323.16	148	161.74	74.254	5.6869e-05	77.657	125.335	-5.586	-5.617	-78.046	28.664	50.947	-79.368	-72.630	30.384	39.327	-75.241	-70.969	-68.703	-63.475	77.103	-66.766	-8191	255	
51457.766	1	1	0	0	0.12926	0.19556	0.14261	0.22605	0.1156	0.050533	0.21604	0.26551	0.14907	0.11733	0.11145	0.099245	0.071629	0.24571	0.24864	0.15192	-2.4896	-3.2208	-3.375	-2.8	-3.4979	-3.2833	-3.1333	-3.7438	-2.6813	-3.1125	-3.3708	-2.8563	-3.7042	-3.375	-2.7917	-3.7687	21.188	203.289	-18.683	199.906	-9.226	-40.400	31.476	253.185	-40.703	-50.397	55.839	209.157	113.227	262.984	246.381	148.897	0.00050191	0.00046182	0.00020025	772.37	7.0898e-06	5.0867e-06	658.52	311.22	3.3456e-06	8.6799e-06	307.01	140.51	153.4	69.872	5.5051e-06	73.501	0.0028052	0.0056625	0.0016162	807.09	5.006e-05	6.7786e-05	689.39	326.21	5.138e-05	6.9313e-05	323.86	148.55	161.87	74.228	5.7741e-05	77.822	132.034	-17.940	9.137	-78.493	33.076	78.920	-79.595	-72.516	45.538	61.376	-74.958	-71.005	-68.523	-63.222	39.964	-66.739	-8191	255	
51457.863	1	1	0	0	0.19291	0.051656	0.11933	0.24761	0.42279	0.14798	0.25561	0.095936	0.13532	0.26341	0.34118	0.10117	0.20884	0.2163	0.14559	0.11181	-2.4667	-2.8771	-3.4437	-2.7958	-3.2146	-3.1792	-2.6958	-3.6688	-2.9083	-3.0521	-3.725	-2.9188	-3.4708	-3.4146	-2.7917	-3.7042	59.034	217.378	-63.279	205.290	67.729	-30.398	234.600	248.889	50.301	19.460	-43.213	214.925	-63.957	149.633	-10.236	171.406	0.00061342	0.0004288	0.00020386	773.44	4.1129e-06	4.1417e-06	659.32	310.26	3.0343e-06	5.8678e-06	304.95	139.83	152.22	69.999	4.8742e-06	73.083	0.0028308	0.0057228	0.0016357	806.92	5.0685e-05	6.7954e-05	688.31	325.33	5.1255e-05	6.8019e-05	321.9	147.43	161.14	74.01	5.7473e-05	77.512	120.404	16.538	-6.758	-78.174	3.916	67.478	-79.542	-72.687	14.539	53.330	-74.908	-70.868	-68.553	-63.315	2.102	-66.609	-8191	255	
51457.961	1	1	0	0	0.092903	0.19055	0.18704	0.19043	0.18167	0.12993	0.031896	0.16263	0.15492	0.17383	0.04542	0.28902	0.056651	0.12129	0.14798	0.17229	-2.6688	-2.8396	-3.6542	-2.8708	-3.2646	-3.3604	-3.0125	-3.6625	-2.9104	-3.1208	-3.6479	-2.9417	-3.4062	-3.6	-2.6937	-3.5146	-24.577	109.839	-36.880	-57.252	-24.058	181.892	185.283	263.395	78.210	-19.149	250.520	243.760	145.248	10.165	-78.786	-23.008	0.00058216	0.00037319	0.00022217	774.09	6.3133e-06	5.8169e-06	657.13	310.83	4.6125e-06	4.9171e-06	305.44	139.6	152.74	69.843	7.7512e-06	73.17	0.0028126	0.0058769	0.001618	807.45	5.0648e-05	6.9133e-05	685.95	325.61	5.1208e-05	6.8545e-05	321.82	147.39	161.38	74.109	5.7638e-05	77.517	126.395	-12.436	-15.676	-78.012	86.397	35.708	-79.664	-72.720	0.063	44.249	-75.306	-71.065	-68.777	-63.636	11.046	-66.732	-8191	255	
51458.078	1	1	0	0	0.23364	0.17701	0.11915	0.28278	0.17252	0.2104	0.13093	0.38132	0.25207	0.2141	0.44328	0.26678	0.32807	0.23809	0.14517	0.4118	-2.5667	-2.7521	-3.4021	-2.8417	-3.1312	-3.3625	-2.7271	-3.4646	-3.1333	-2.8125	-3.6271	-2.7958	-3.0167	-3.6667	-2.7604	-3.5229	-5.050	120.606	66.479	220.859	-63.355	209.560	176.524	212.503	68.385	196.347	186.629	222.696	256.073	202.489	117.427	264.389	0.00059778	0.00053148	0.00022925	773.72	5.4127e-06	5.4705e-06	658.24	310.44	5.1507e-06	6.3e-06	308.23	139.88	152.58	70.09	5.9019e-06	73.753	0.0028111	0.0057683	0.0016464	806.39	5.0225e-05	6.8295e-05	687.07	325.84	5.1461e-05	6.8978e-05	323.41	147.86	161.32	74.2	5.7663e-05	78.165	127.161	-28.389	18.348	-78.559	47.402	32.911	-79.721	-72.568	53.706	40.928	-75.319	-71.280	-68.811	-63.515	72.096	-66.959	-8191	255	
51458.176	1	1	0	0	0.06018	0.063246	0.085255	0.26977	0.25588	0.1446	0.048271	0.034344	0.23548	0.068554	0.11311	0.21655	0.1616	0.16928	0.12616	0.19504	-2.8167	-2.6917	-3.4313	-2.8646	-2.8729	-3.4792	-2.6583	-3.4333	-3.3292	-2.6542	-3.4917	-3.0667	-3.0271	-3.6458	-2.7562	-3.3042	127.033	182.762	-50.367	178.910	103.463	28.634	202.049	-23.758	70.993	-62.082	268.453	186.582	-65.256	214.588	-39.587	213.539	0.00063966	0.00044046	0.0001777	774.1	6.1959e-06	8.3087e-06	661.14	310.58	5.6816e-06	9.0306e-06	308.63	140.15	153.19	69.939	4.64e-06	73.589	0.0027664	0.0059049	0.0016368	806.6	5.1045e-05	6.8516e-05	690.86	326.45	5.2034e-05	7.041e-05	324.84	148.16	161.69	74.203	5.7578e-05	77.905	130.435	-37.073	-15.877	-78.235	42.914	67.322	-79.618	-72.767	55.912	52.114	-75.296	-71.364	-68.663	-63.374	71.258	-66.760	-8191	255	
51458.270	1	1	0	0	0.21088	0.17849	0.35885	0.24299	0.18568	0.16347	0.19016	0.2187	0.056412	0.18479	0.058602	0.29988	0.15291	0.25642	0.15977	0.14748	-2.9437	-2.6479	-3.5417	-3.1063	-2.7396	-3.4958	-2.8	-3.4313	-3.3167	-2.6708	-3.6271	-3.2062	-2.8312	-3.8167	-2.6792	-3.1583	175.645	245.707	5.225	-68.019	80.020	-10.958	190.818	219.134	38.327	-68.261	130.919	219.647	151.913	219.053	60.832	93.333	0.0006514	0.00042218	0.0002159	770.68	4.9141e-06	4.9064e-06	656.32	309.87	2.7406e-06	7.0308e-06	306.55	140.34	152.71	69.923	4.2546e-06	73.405	0.0027858	0.0059253	0.001641	807.3	4.9934e-05	6.8179e-05	687.94	325.24	5.1801e-05	6.9097e-05	322.67	147.75	161.25	74.118	5.7129e-05	77.707	125.552	-25.728	-15.783	-78.593	60.384	57.762	-79.492	-72.624	-20.833	55.537	-75.020	-71.025	-68.504	-63.630	80.473	-66.925	-8191	255	
51458.367	1	1	0	0	0.18652	0.17242	0.2036	0.13693	0.13275	0.17389	0.1187	0.2139	0.18003	0.29593	0.073078	0.36314	0.17492	0.12293	0.31248	0.050411	-3.1833	-2.6979	-3.2771	-3.3688	-2.7812	-3.5208	-2.8792	-2.9542	-3.3979	-2.6083	-3.3271	-3.2854	-2.9167	-3.5687	-3.0083	-2.9813	148.156	40.873	253.230	-64.375	116.698	209.762	191.620	237.289	160.788	-38.448	-37.522	249.979	211.332	-82.063	78.285	39.166	0.00058898	0.00051837	0.00012412	775.28	4.5767e-06	3.6316e-06	657.39	310.35	5.3483e-06	4.2486e-06	307.08	140.11	153.47	70.313	4.4814e-06	73.802	0.0028007	0.005923	0.0016221	808.15	5.0982e-05	6.7978e-05	688.36	326.34	5.2184e-05	6.8622e-05	323.52	148	161.86	74.481	5.6376e-05	78.13	121.980	-4.689	29.673	-78.219	-5.686	56.003	-79.519	-72.554	48.718	85.919	-75.098	-71.150	-68.624	-63.395	50.123	-66.877	-8191	255	
51458.461	1	1	0	0	0.21935	0.13368	0.28949	0.060112	0.18782	0.1326	0.25314	0.16621	0.07327	0.11394	0.14223	0.15779	0.06166	0.085145	0.049017	0.18012	-3.075	-2.5792	-3.475	-3.5354	-2.7375	-3.5229	-3.2333	-3.0958	-3.6667	-2.7792	-3.3958	-3.4021	-2.7729	-3.7292	-2.8958	-2.9896	128.668	217.178	223.428	-19.804	151.281	68.431	233.513	220.218	-5.936	91.751	-50.797	197.962	164.040	196.401	258.938	231.722	0.00062955	0.00083998	0.00016755	776.34	4.7062e-06	4.1722e-06	658.97	311.55	6.6304e-06	6.0963e-06	307.71	141.17	153.9	70.717	3.1447e-06	74.738	0.0027797	0.0058911	0.0016264	809.56	5.0002e-05	6.685e-05	689.93	327.58	5.1891e-05	6.7775e-05	324.71	148.8	162.29	74.941	5.6353e-05	78.972	119.978	-1.852	-19.020	-78.281	48.793	-0.871	-79.620	-72.519	14.751	80.812	-74.772	-71.072	-68.722	-63.424	10.416	-66.560	-8191	255	
51458.559	1	1	0	0	0.19926	0.096073	0.10403	0.26508	0.15912	0.11645	0.14072	0.095161	0.13885	0.092212	0.23146	0.12781	0.12345	0.12729	0.29674	0.20624	-3.2729	-2.6896	-3.2854	-3.4938	-2.625	-3.5	-3.2833	-2.8896	-3.4417	-2.7542	-3.1021	-3.3729	-2.7271	-3.6208	-3.175	-2.7833	206.230	-33.050	43.670	205.878	60.753	3.121	177.099	89.290	26.408	213.645	175.122	-59.560	255.025	47.512	9.853	-5.183	0.00065446	0.0008229	7.8976e-05	779.3	2.4445e-06	4.4044e-06	664.18	314.28	7.7674e-06	8.9266e-06	308.75	141.33	154.08	70.826	5.6221e-06	74.019	0.002753	0.0058081	0.0016003	811.36	5.0428e-05	6.7268e-05	693.97	329.56	5.0868e-05	6.8188e-05	326.15	149.52	162.87	74.945	5.6756e-05	78.474	126.024	8.879	-10.412	-78.184	83.383	35.071	-79.676	-72.717	16.060	43.453	-74.921	-70.859	-68.632	-63.288	11.542	-66.655	-8191	255	
51458.680	1	1	0	0	0.14544	0.32932	0.3662	0.19708	0.1861	0.16214	0.26828	0.29519	0.083891	0.35743	0.24342	0.17303	0.28469	0.19693	0.067679	0.20015	-3.1979	-2.7021	-2.9375	-3.6458	-2.475	-3.4042	-3.2062	-2.6625	-3.4479	-2.825	-2.9125	-3.575	-2.7646	-3.3479	-3.2458	-2.85	240.236	-60.408	-63.316	229.354	-12.292	146.562	213.504	268.883	-22.957	46.774	238.335	171.880	-84.372	222.782	266.089	193.555	0.00061972	0.0005509	0.00018277	778.99	6.7714e-06	6.8453e-06	658.36	310.65	4.6728e-06	5.6226e-06	308.91	140.94	153.69	70.348	4.422e-06	73.764	0.002815	0.005854	0.0016506	812.19	5.0918e-05	6.8487e-05	690.59	326.89	5.0926e-05	6.7659e-05	324.57	148.64	162.2	74.659	5.7118e-05	78.02	125.182	1.012	-1.805	-77.999	89.460	61.375	-79.722	-72.779	35.552	37.576	-74.792	-70.996	-68.628	-63.186	63.533	-66.707	-8191	255	
51458.773	1	1	0	0	0.065828	0.17113	0.12224	0.09645	0.17633	0.15136	0.20279	0.24744	0.23038	0.11251	0.0348	0.11936	0.30461	0.18953	0.20557	0.21875	-3.0917	-2.8667	-2.6958	-3.6229	-2.6646	-3.2021	-3.3417	-2.6792	-3.3708	-2.8833	-2.6896	-3.65	-3.05	-3.2646	-3.4146	-2.8	22.468	144.417	-86.416	26.778	261.136	-52.673	252.832	255.014	24.631	-87.119	-78.083	225.179	-80.507	-38.084	74.405	200.704	0.00061031	0.00073306	0.00018401	777.92	4.8011e-06	4.5994e-06	659.62	310.92	1.679e-06	5.5992e-06	307.36	141.24	154.19	70.458	5.0276e-06	73.821	0.0028319	0.005912	0.0016075	810.34	5.0418e-05	6.7256e-05	689.85	326.54	5.1798e-05	6.7942e-05	324.75	148.83	162.68	74.756	5.7662e-05	78.294	125.640	-18.391	-15.801	-78.099	29.479	51.336	-79.562	-72.667	99.928	56.928	-74.762	-70.802	-68.579	-63.387	15.052	-66.589	-8191	255	
51458.871	1	1	0	0	0.10911	0.10676	0.13313	0.2436	0.059178	0.076817	0.16534	0.30419	0.12971	0.35048	0.14475	0.22349	0.30285	0.33075	0.14621	0.14524	-3.0896	-3.0854	-2.8083	-3.7062	-2.6479	-3.0312	-3.525	-2.8771	-3.3083	-3.1167	-2.8229	-3.8125	-2.9396	-3.2396	-3.4417	-2.6021	62.705	117.305	23.839	-54.573	236.013	166.094	86.630	238.456	-88.179	96.316	251.664	146.930	70.355	212.541	67.803	198.424	0.00055408	0.001009	0.00011934	777.26	4.3454e-06	7.7045e-06	660.8	312.58	2.9098e-06	6.1771e-06	308.36	141.23	154.82	70.53	7.0027e-06	74.299	0.0027762	0.0059357	0.0016265	811.21	5.0522e-05	6.7424e-05	691.47	328.05	5.171e-05	6.8354e-05	325.56	149.37	162.99	75.024	5.7766e-05	78.735	119.028	-6.421	-5.368	-78.146	55.645	34.147	-79.320	-72.435	32.992	78.982	-74.876	-70.820	-68.563	-63.231	20.979	-66.607	-8191	255	
51458.969	1	1	0	0	0.082973	0.13438	0.078473	0.2526	0.13093	0.15699	0.22014	0.29332	0.12835	0.13722	0.081134	0.15512	0.16176	0.18097	0.39023	0.38393	-3.1604	-3.1063	-2.7333	-3.3792	-3.0208	-2.8812	-3.6021	-2.8958	-3.2729	-3.3187	-2.6667	-3.6417	-2.9771	-2.9062	-3.6417	-2.8417	211.355	125.155	207.272	203.435	82.587	20.132	0.721	182.474	107.421	9.675	-49.486	189.507	164.876	-72.268	155.069	166.923	0.00057029	0.00078787	0.00016941	777.69	4.2121e-06	5.096e-06	664.83	313.56	3.1889e-06	5.0961e-06	309.1	141.95	154.77	70.856	2.7877e-06	74.178	0.0028106	0.0057862	0.0016161	811.75	4.8201e-05	6.7865e-05	693.7	328.66	5.1447e-05	6.6689e-05	326.34	149.79	163.17	75.104	5.6597e-05	78.582	116.583	0.106	-1.830	-77.973	48.282	45.909	-79.667	-72.613	-8.160	60.936	-74.884	-70.805	-68.541	-63.316	31.890	-66.536	-8191	255	
#DATA ENDS
