BOXY.EXE: ISS Imagent and Oximeter Data Acquisition Program Version 0.80
Ascii Record File

#ACQ INFORMATION
2  Detector Channels 
16  External MUX Channels 
1  Auxiliary Channels 
5000  Waveform (CCF) Frequency (Hz)
1  Waveforms Skipped 
30  Waveforms Averaged 
1  Cycles Averaged 
16  Acquisitions per Waveform 
10.0806  Updata Rate (Hz) 

#FILE INFORMATION
TRUE -- External MUX Channel results are PARSED.
FALSE -- AC DC and Phase are NOT grouped.
TRUE -- Companion Program Settings File CREATED.
FALSE -- AC data not excluded
FALSE -- DC data not excluded
FALSE -- Phase data not excluded
FALSE -- Auxillary Chn. data not excluded
Tab delimiters

#CALIBRATION STATE
TRUE -- Waveform Calibration Values APPLIED.


#AUX CALIBRATION VALUES
Val Type	aux-1	

Term	1.0000e+00	
Factor	0.0000e+00	


#WF CALIBRATION VALUES
A = Detector Channel
Val Type	A-AC1	A-AC2	A-AC3	A-AC4	A-AC5	A-AC6	A-AC7	A-AC8	A-AC9	A-AC10	A-AC11	A-AC12	A-AC13	A-AC14	A-AC15	A-AC16	A-DC1	A-DC2	A-DC3	A-DC4	A-DC5	A-DC6	A-DC7	A-DC8	A-DC9	A-DC10	A-DC11	A-DC12	A-DC13	A-DC14	A-DC15	A-DC16	A-Ph1	A-Ph2	A-Ph3	A-Ph4	A-Ph5	A-Ph6	A-Ph7	A-Ph8	A-Ph9	A-Ph10	A-Ph11	A-Ph12	A-Ph13	A-Ph14	A-Ph15	A-Ph16	

Term	0.00000e+00	0.00000e+00	0.00000e+00	0.00000e+00	0.00000e+00	0.00000e+00	0.00000e+00	0.00000e+00	0.00000e+00	0.00000e+00	0.00000e+00	0.00000e+00	0.00000e+00	0.00000e+00	0.00000e+00	0.00000e+00	0.00000e+00	0.00000e+00	0.00000e+00	0.00000e+00	0.00000e+00	0.00000e+00	0.00000e+00	0.00000e+00	0.00000e+00	0.00000e+00	0.00000e+00	0.00000e+00	0.00000e+00	0.00000e+00	0.00000e+00	0.00000e+00	0.00000e+00	0.00000e+00	0.00000e+00	0.00000e+00	0.00000e+00	0.00000e+00	0.00000e+00	0.00000e+00	0.00000e+00	0.00000e+00	0.00000e+00	0.00000e+00	0.00000e+00	0.00000e+00	0.00000e+00	0.00000e+00	
Factor	1.00000e+00	1.00000e+00	1.00000e+00	1.00000e+00	1.00000e+00	1.00000e+00	1.00000e+00	1.00000e+00	1.00000e+00	1.00000e+00	1.00000e+00	1.00000e+00	1.00000e+00	1.00000e+00	1.00000e+00	1.00000e+00	1.00000e+00	1.00000e+00	1.00000e+00	1.00000e+00	1.00000e+00	1.00000e+00	1.00000e+00	1.00000e+00	1.00000e+00	1.00000e+00	1.00000e+00	1.00000e+00	1.00000e+00	1.00000e+00	1.00000e+00	1.00000e+00	X	X	X	X	X	X	X	X	X	X	X	X	X	X	X	X	

B = Detector Channel
Val Type	B-AC1	B-AC2	B-AC3	B-AC4	B-AC5	B-AC6	B-AC7	B-AC8	B-AC9	B-AC10	B-AC11	B-AC12	B-AC13	B-AC14	B-AC15	B-AC16	B-DC1	B-DC2	B-DC3	B-DC4	B-DC5	B-DC6	B-DC7	B-DC8	B-DC9	B-DC10	B-DC11	B-DC12	B-DC13	B-DC14	B-DC15	B-DC16	B-Ph1	B-Ph2	B-Ph3	B-Ph4	B-Ph5	B-Ph6	B-Ph7	B-Ph8	B-Ph9	B-Ph10	B-Ph11	B-Ph12	B-Ph13	B-Ph14	B-Ph15	B-Ph16	

Term	0.00000e+00	0.00000e+00	0.00000e+00	0.00000e+00	0.00000e+00	0.00000e+00	0.00000e+00	0.00000e+00	0.00000e+00	0.00000e+00	0.00000e+00	0.00000e+00	0.00000e+00	0.00000e+00	0.00000e+00	0.00000e+00	0.00000e+00	0.00000e+00	0.00000e+00	0.00000e+00	0.00000e+00	0.00000e+00	0.00000e+00	0.00000e+00	0.00000e+00	0.00000e+00	0.00000e+00	0.00000e+00	0.00000e+00	0.00000e+00	0.00000e+00	0.00000e+00	-1.94746e+02	-1.29429e+02	-1.23296e+02	-1.81177e+02	-8.24941e+01	-6.72532e+01	-1.58393e+02	-1.62015e+02	-8.26879e+01	-6.57740e+01	-1.70238e+02	-1.70284e+02	-1.81041e+02	-1.76563e+02	-7.59332e+01	-1.49301e+02	
Factor	3.81472e-05	1.55800e-04	4.27792e-05	1.56288e-01	1.59967e-06	1.59687e-06	1.72052e-01	5.78622e-02	1.65686e-06	1.77183e-06	8.97467e-02	3.04905e-02	2.59666e-02	9.04681e-03	1.74401e-06	1.28027e-02	2.48459e-05	6.22447e-05	1.74435e-05	8.03579e-02	5.30800e-07	7.33201e-07	8.33309e-02	2.98252e-02	5.43097e-07	7.33792e-07	4.50204e-02	1.52899e-02	1.34928e-02	4.71424e-03	5.97119e-07	6.48029e-03	X	X	X	X	X	X	X	X	X	X	X	X	X	X	X	X	



#DISTANCE SETTINGS
A = Detector Channel
A-1	A-2	A-3	A-4	A-5	A-6	A-7	A-8	A-9	A-10	A-11	A-12	A-13	A-14	A-15	A-16	

2.5000e+00	3.0000e+00	2.5000e+00	3.0000e+00	2.0000e+00	3.0000e+00	1.5000e+00	3.0000e+00	3.0000e+00	3.0000e+00	3.0000e+00	3.0000e+00	3.0000e+00	3.0000e+00	1.5000e+00	3.0000e+00	

B = Detector Channel
B-1	B-2	B-3	B-4	B-5	B-6	B-7	B-8	B-9	B-10	B-11	B-12	B-13	B-14	B-15	B-16	

1.0000e+01	1.0000e+01	1.0000e+01	1.4400e+00	1.0000e+01	1.0000e+01	1.5100e+00	1.9400e+00	1.0000e+01	1.0000e+01	1.9900e+00	2.4900e+00	2.4100e+00	2.9000e+00	1.0000e+01	2.9800e+00	




#DATA BEGINS
time	group	step	mark	flag	A-AC1	A-AC2	A-AC3	A-AC4	A-AC5	A-AC6	A-AC7	A-AC8	A-AC9	A-AC10	A-AC11	A-AC12	A-AC13	A-AC14	A-AC15	A-AC16	A-DC1	A-DC2	A-DC3	A-DC4	A-DC5	A-DC6	A-DC7	A-DC8	A-DC9	A-DC10	A-DC11	A-DC12	A-DC13	A-DC14	A-DC15	A-DC16	A-Ph1	A-Ph2	A-Ph3	A-Ph4	A-Ph5	A-Ph6	A-Ph7	A-Ph8	A-Ph9	A-Ph10	A-Ph11	A-Ph12	A-Ph13	A-Ph14	A-Ph15	A-Ph16	B-AC1	B-AC2	B-AC3	B-AC4	B-AC5	B-AC6	B-AC7	B-AC8	B-AC9	B-AC10	B-AC11	B-AC12	B-AC13	B-AC14	B-AC15	B-AC16	B-DC1	B-DC2	B-DC3	B-DC4	B-DC5	B-DC6	B-DC7	B-DC8	B-DC9	B-DC10	B-DC11	B-DC12	B-DC13	B-DC14	B-DC15	B-DC16	B-Ph1	B-Ph2	B-Ph3	B-Ph4	B-Ph5	B-Ph6	B-Ph7	B-Ph8	B-Ph9	B-Ph10	B-Ph11	B-Ph12	B-Ph13	B-Ph14	B-Ph15	B-Ph16	aux-1	digaux	

51104.148	1	1	0	256	0.25231	0.045509	0.15112	0.37717	0.10678	0.1008	0.52403	0.086106	0.33534	0.13353	0.27142	0.03509	0.24028	0.18664	0.19852	0.1362	-2.3479	-3.1958	-3.3063	-3.1042	-3.2792	-3	-2.9333	-3.6979	-2.6063	-3.1792	-3.5583	-2.8563	-3.6396	-3.1771	-2.9104	-3.7083	99.807	354.680	429.735	395.183	121.442	433.744	404.755	434.706	241.074	345.535	424.229	304.273	439.568	398.714	244.771	123.306	0.0010001	0.00051242	0.00017547	1345	5.4327e-06	2.4391e-06	1345.4	365.64	6.7819e-06	7.1524e-06	415.89	136.47	117.97	39.338	5.8486e-06	49.535	0.0010128	0.0013186	0.00036366	1372.6	1.2227e-05	1.4612e-05	1371.7	374.43	1.2774e-05	1.535e-05	427.19	139.28	121.04	40.699	1.3886e-05	51.482	105.744	171.176	176.394	95.660	217.774	257.218	95.549	100.249	230.085	241.141	99.861	104.299	104.644	109.257	236.309	108.410	-8191	255	
51104.246	1	1	0	0	0.14037	0.11029	0.078513	0.14149	0.16686	0.30308	0.24494	0.28286	0.091603	0.090667	0.10841	0.033924	0.080934	0.20199	0.27225	0.17086	-2.4479	-3.2229	-3.3271	-2.8792	-3.4688	-3.0708	-3.1083	-3.6896	-2.8083	-3.1479	-3.8229	-2.8167	-3.4437	-3.2729	-2.6896	-3.6146	319.659	232.293	415.170	418.540	141.717	246.911	360.664	98.990	406.350	174.992	368.626	360.798	156.915	422.645	415.395	412.677	0.0010241	0.00043506	0.00015103	1344.3	5.5948e-06	4.7862e-06	1339.9	364.89	7.0459e-06	6.5766e-06	417.67	135.42	117.62	39.129	8.7244e-06	49.805	0.0010217	0.0012921	0.00036359	1370.2	1.2426e-05	1.5055e-05	1368.1	373.94	1.2697e-05	1.5371e-05	427.25	138.68	120.77	40.614	1.3652e-05	51.441	103.706	159.351	176.291	95.703	203.407	240.511	95.532	100.324	215.763	251.601	99.876	104.005	104.670	109.301	238.491	108.384	-8191	255	
51104.340	1	1	0	0	0.17085	0.053213	0.080527	0.26871	0.095664	0.2781	0.084896	0.12872	0.04911	0.28666	0.12319	0.18967	0.11157	0.088748	0.27599	0.24297	-2.5333	-2.8292	-3.525	-2.95	-3.3812	-3.3771	-2.6646	-3.8146	-2.9542	-2.8937	-3.6833	-2.7854	-3.3083	-3.4979	-2.8208	-3.5625	327.191	290.221	134.216	418.030	217.996	202.118	255.498	354.793	118.792	212.614	139.926	305.593	378.797	354.065	145.604	344.526	0.00099736	0.00043155	0.00014622	1339.9	5.6982e-06	2.8211e-06	1340	366.87	4.015e-06	5.8474e-06	412.36	136.01	117.84	39.318	5.7504e-06	49.714	0.00099865	0.001303	0.00035345	1367.6	1.2235e-05	1.4245e-05	1365.8	374.48	1.2374e-05	1.5058e-05	425.56	138.79	120.69	40.65	1.3291e-05	51.324	104.079	198.107	171.830	95.752	223.508	252.422	95.507	100.326	202.830	230.190	99.846	104.254	104.811	109.429	224.159	108.343	-8191	255	
51104.438	1	1	0	0	0.080342	0.34326	0.29798	0.11567	0.15777	0.33063	0.090322	0.073749	0.39735	0.22871	0.14286	0.1214	0.37817	0.037971	0.17611	0.13652	-2.5812	-2.8667	-3.5708	-2.9979	-3.2771	-3.1667	-2.7604	-3.6708	-3.0229	-2.8396	-3.6083	-2.9729	-3.1792	-3.6208	-2.7333	-3.4375	211.235	108.675	220.069	401.053	146.014	287.247	433.550	124.342	99.459	227.753	384.560	376.204	401.447	390.126	86.903	382.258	0.00099914	0.00048727	0.00013776	1334.4	6.2283e-06	4.6858e-06	1336.5	363.93	7.6644e-06	3.5111e-06	413.06	135.82	117.98	39.294	6.0024e-06	49.523	0.0010026	0.0013073	0.00036173	1363.9	1.2318e-05	1.4591e-05	1363.1	373.56	1.2291e-05	1.5061e-05	425.54	138.68	120.67	40.624	1.3205e-05	51.29	104.345	161.700	190.592	95.676	212.554	238.014	95.432	100.263	217.035	217.118	99.756	104.300	104.860	109.198	226.881	108.512	-8191	255	
51104.531	1	1	0	0	0.23546	0.17484	0.12274	0.27621	0.06344	0.18667	0.15086	0.1758	0.21105	0.1274	0.31614	0.33649	0.36587	0.17434	0.36683	0.03257	-2.8937	-2.7167	-3.4708	-3.0646	-3.1312	-3.525	-2.8917	-3.4604	-3.2104	-2.7375	-3.675	-2.9813	-3.2188	-3.7604	-2.6021	-3.4875	207.892	121.521	223.991	396.788	236.017	354.205	352.045	338.082	365.998	247.931	391.780	83.918	357.804	369.992	318.109	167.101	0.0010613	0.00040582	0.00012376	1336	5.9098e-06	3.2228e-06	1332.6	364.79	6.3712e-06	5.2801e-06	413.77	135.41	117.49	39.172	8.6853e-06	49.367	0.0010155	0.0012502	0.00034931	1363.4	1.1941e-05	1.4462e-05	1361.3	373.19	1.1817e-05	1.4833e-05	425.37	138.57	120.27	40.575	1.3344e-05	51.222	103.095	175.821	197.905	95.751	203.152	221.191	95.840	100.514	216.347	244.875	99.888	104.397	104.812	109.436	220.398	108.878	-8191	255	
51104.652	1	1	0	0	0.27024	0.17354	0.013866	0.087302	0.12236	0.27707	0.085281	0.28903	0.15541	0.21832	0.32931	0.054126	0.11418	0.2206	0.12173	0.11813	-2.9562	-2.6854	-3.6417	-3.1063	-2.8146	-3.5042	-3.0125	-3.4792	-3.3438	-2.6667	-3.6562	-3.2021	-3.0625	-3.6083	-2.8	-3.3146	364.728	347.197	245.974	360.064	410.135	167.988	382.144	329.253	428.827	84.895	350.722	92.416	331.226	366.493	207.886	407.285	0.001029	0.00042805	0.00016097	1336.4	5.3217e-06	5.4704e-06	1327.8	363.73	7.7673e-06	6.0769e-06	412.93	134.92	117.08	39.238	5.0515e-06	49.478	0.00097655	0.0013186	0.0003432	1361.4	1.2323e-05	1.4519e-05	1357.6	372.7	1.2326e-05	1.4508e-05	424.45	138.38	120.14	40.551	1.2839e-05	51.199	103.222	145.232	169.898	95.674	210.081	235.135	95.719	100.373	217.168	223.125	99.861	104.321	104.924	109.380	225.012	108.534	-8191	255	
51104.746	1	1	0	0	0.15749	0.10967	0.25243	0.13661	0.14655	0.12095	0.089917	0.01613	0.067821	0.1804	0.18997	0.20884	0.19585	0.267	0.10602	0.081713	-3	-2.7062	-3.5333	-3.4125	-2.8312	-3.5583	-3.0417	-3.3208	-3.6604	-2.7313	-3.6292	-3.1688	-3.05	-3.7604	-3.0479	-3.0167	176.778	280.040	234.406	91.754	212.345	336.868	128.840	391.336	139.892	211.525	405.152	147.806	383.390	421.198	182.398	97.201	0.0010438	0.00054501	0.00014285	1336.1	5.6117e-06	4.5978e-06	1324.4	363.76	6.4876e-06	4.4898e-06	415.18	135.23	117.3	39.231	6.253e-06	49.456	0.00099544	0.0013604	0.00033582	1359.8	1.2602e-05	1.3752e-05	1355.6	372.4	1.1645e-05	1.5043e-05	424.71	138.15	120.12	40.582	1.2668e-05	51.204	102.071	168.113	182.625	95.728	229.458	236.831	95.596	100.606	225.897	231.103	99.825	104.313	104.941	109.300	236.478	108.644	-8191	255	
51104.844	1	1	0	0	0.25447	0.16898	0.04285	0.10025	0.043954	0.2282	0.24551	0.082863	0.16434	0.34995	0.2985	0.17679	0.083539	0.18734	0.11096	0.28004	-3.0271	-2.5646	-3.4479	-3.4062	-2.6688	-3.5458	-3.1354	-2.9875	-3.5812	-2.8521	-3.5021	-3.3896	-2.7729	-3.6021	-3.0708	-2.8667	350.360	93.136	216.399	337.483	382.753	199.816	380.644	390.250	132.802	92.290	377.619	350.897	430.367	407.447	120.875	388.141	0.0010431	0.00043191	0.00016492	1330	6.047e-06	5.4344e-06	1331.9	363.59	6.7352e-06	5.2776e-06	412.4	134.88	117.83	39.378	6.5143e-06	49.639	0.00099026	0.0012427	0.00035835	1356.3	1.2197e-05	1.4093e-05	1356.2	372.38	1.1631e-05	1.5095e-05	424.51	138.04	120.27	40.537	1.2737e-05	51.24	103.435	178.242	155.723	95.741	226.273	230.253	95.749	100.592	205.192	240.062	99.730	104.347	104.835	109.558	220.718	108.681	-8191	255	
51104.941	1	1	0	0	0.090804	0.17491	0.15496	0.24645	0.19571	0.21496	0.36021	0.35691	0.2021	0.13544	0.14659	0.17686	0.26942	0.28421	0.046684	0.14916	-3.4521	-2.8646	-3.2687	-3.6792	-2.6396	-3.6917	-3.3646	-2.8708	-3.475	-2.9042	-3.2938	-3.5438	-2.6479	-3.2271	-3.1271	-2.8125	249.631	279.237	403.747	128.374	248.295	132.011	407.678	371.624	395.952	117.355	325.361	399.778	89.389	395.682	220.168	367.586	0.0010323	0.00046158	0.00014652	1328.2	6.7348e-06	5.3644e-06	1327.6	364.34	5.9893e-06	2.8911e-06	412.47	134.77	117.51	39.191	5.9813e-06	49.555	0.0009752	0.0012991	0.00035058	1356	1.2457e-05	1.381e-05	1354.9	372.12	1.2331e-05	1.4821e-05	424.06	138.24	120.17	40.512	1.246e-05	51.248	105.246	165.313	171.110	95.792	222.452	222.548	95.579	100.679	224.671	217.498	99.807	104.299	104.814	109.637	233.071	108.735	-8191	255	
51105.035	1	1	0	0	0.1973	0.2059	0.13262	0.10784	0.071593	0.1393	0.30849	0.18853	0.15366	0.12825	0.1233	0.13711	0.35484	0.18824	0.32742	0.068463	-3.2	-2.8417	-3.2417	-3.575	-2.7021	-3.3667	-3.4375	-2.8146	-3.6229	-2.8125	-3.0896	-3.5563	-2.875	-3.4146	-3.225	-2.825	265.081	340.062	389.202	310.215	426.061	212.962	361.694	99.093	330.354	273.662	367.150	422.702	427.089	423.990	243.370	365.477	0.0010472	0.00059261	0.00013461	1324	6.7252e-06	4.5297e-06	1327.2	365.84	6.1854e-06	5.8449e-06	412.52	134.55	117.4	39.141	5.6177e-06	49.42	0.0009753	0.0012794	0.00034836	1355.4	1.2094e-05	1.422e-05	1355.8	372.92	1.203e-05	1.4239e-05	424.25	138.19	120.03	40.483	1.2628e-05	51.181	101.519	168.209	185.480	95.934	220.375	233.309	95.443	100.394	222.386	230.436	99.971	104.348	104.842	109.559	224.942	108.482	-8191	255	
51105.133	1	1	0	0	0.024749	0.053248	0.25805	0.44251	0.11826	0.032049	0.32121	0.13435	0.16544	0.26281	0.32017	0.15906	0.29226	0.27244	0.1747	0.088677	-3.1813	-2.9479	-2.7938	-3.7062	-2.5958	-3.3937	-3.6354	-2.6896	-3.5875	-3.1188	-3.0062	-3.7167	-2.9229	-3.3646	-3.4375	-2.8542	204.357	181.884	198.214	419.152	120.321	346.131	389.180	437.165	396.921	256.217	115.970	410.498	112.262	325.482	356.574	123.076	0.0010608	0.00045012	0.00010316	1329	7.7106e-06	3.6623e-06	1329.3	363.53	6.5518e-06	4.9263e-06	412.27	134.86	117.45	39.117	6.5704e-06	49.21	0.00098669	0.0012777	0.00035112	1356.3	1.2182e-05	1.3819e-05	1356.9	372.05	1.2107e-05	1.3954e-05	423.72	138.15	120.04	40.509	1.295e-05	51.089	105.204	173.000	199.097	95.918	227.106	243.059	95.706	100.770	215.579	241.476	99.971	104.469	104.894	109.609	241.014	108.417	-8191	255	
51105.230	1	1	0	0	0.14246	0.14752	0.18631	0.12163	0.28679	0.071107	0.41127	0.055799	0.22057	0.088434	0.13515	0.20432	0.12917	0.31535	0.12335	0.31618	-3.0542	-3	-2.7604	-3.8479	-2.9104	-3.0104	-3.7812	-2.7229	-3.3854	-3.225	-2.9938	-3.6562	-2.8875	-3.1625	-3.6021	-2.9625	113.965	243.633	207.332	395.820	346.017	205.841	420.518	141.877	252.903	408.201	261.396	301.098	433.023	432.942	107.430	128.528	0.001006	0.00053959	0.00013835	1328.8	7.5496e-06	4.2255e-06	1326.7	363.95	6.2155e-06	4.0497e-06	414.8	135.02	116.92	39.11	7.8428e-06	49.236	0.00095636	0.0012861	0.00035781	1356.9	1.2023e-05	1.4551e-05	1354	371.96	1.2087e-05	1.3889e-05	424.94	138.16	119.99	40.448	1.2903e-05	51.16	104.541	167.396	175.190	95.950	212.133	226.012	95.750	100.565	225.387	240.134	99.988	104.514	104.652	109.806	222.531	108.768	-8191	255	
51105.348	1	1	0	0	0.26005	0.15988	0.13248	0.17087	0.045	0.021826	0.15318	0.23119	0.12775	0.21686	0.25239	0.07706	0.33323	0.28908	0.10888	0.11595	-3.0479	-3.2833	-2.675	-3.8021	-3.0646	-3.1354	-3.8688	-2.8312	-3.2667	-3.5187	-2.7042	-3.5042	-2.9896	-2.9979	-3.5187	-2.9583	234.361	280.819	152.863	372.524	186.565	259.664	440.165	394.220	266.581	374.001	206.599	415.261	439.175	98.115	236.335	393.097	0.0010711	0.00070876	0.00014096	1335.8	6.8408e-06	4.5765e-06	1330.8	363.13	6.7017e-06	4.9478e-06	413.2	135.39	117.42	39.182	5.3929e-06	49.329	0.00099751	0.001261	0.00035581	1358.1	1.2056e-05	1.436e-05	1358.3	371.88	1.1981e-05	1.4622e-05	424.09	138.13	120.11	40.428	1.286e-05	51.155	106.186	163.966	171.783	96.024	201.185	233.784	95.715	100.644	231.534	234.878	99.947	104.163	104.954	109.374	227.353	108.632	-8191	255	
51105.422	1	1	0	0	0.20574	0.1778	0.10363	0.22954	0.30295	0.10973	0.094732	0.081079	0.22354	0.046939	0.16247	0.055667	0.20212	0.27919	0.2305	0.31998	-2.9208	-3.35	-2.6958	-3.7979	-3.05	-2.9562	-3.725	-3.0354	-3.3	-3.3875	-3.0312	-3.7104	-3.3104	-2.8333	-3.6562	-2.9062	425.454	181.393	393.833	275.503	163.147	323.357	363.764	401.177	230.410	298.815	411.160	370.308	353.775	83.554	259.464	378.716	0.0010432	0.00045899	0.00014433	1332.6	6.1198e-06	3.8613e-06	1330.4	364.07	6.477e-06	5.431e-06	413.98	134.42	117.36	39.07	6.5466e-06	49.261	0.0010057	0.0012107	0.00036232	1357.1	1.2106e-05	1.4473e-05	1357.9	372.23	1.2462e-05	1.3977e-05	424.93	138.07	119.99	40.383	1.2516e-05	51.135	102.408	172.650	171.790	95.895	219.386	232.082	95.660	100.586	226.850	235.968	99.983	104.358	104.864	109.763	217.311	108.512	-8191	255	
51105.520	1	1	0	0	0.079384	0.24388	0.025401	0.10861	0.085607	0.15669	0.1208	0.14803	0.22016	0.08057	0.031443	0.12241	0.26952	0.31771	0.14739	0.24429	-2.6521	-3.4917	-2.6562	-3.6354	-3.2083	-2.7708	-3.7375	-3.0333	-3.1396	-3.6292	-2.925	-3.4354	-3.2854	-2.8375	-3.5292	-3.1125	406.015	313.453	165.339	434.217	229.374	210.363	404.412	301.613	433.996	194.191	353.536	351.379	114.169	376.096	105.719	328.471	0.0010252	0.00049721	0.0001163	1331.5	4.9881e-06	5.6055e-06	1331.5	363.53	7.042e-06	5.8655e-06	413.82	135.18	117.32	39.155	5.0471e-06	49.372	0.0009812	0.0012171	0.00037184	1359.7	1.189e-05	1.5122e-05	1358.5	372.19	1.2047e-05	1.4385e-05	424.28	138.28	120.06	40.48	1.2434e-05	51.123	105.229	182.686	186.383	96.024	210.878	233.586	95.871	100.631	225.525	223.534	99.988	104.534	104.853	109.649	229.925	108.595	-8191	255	
51105.613	1	1	0	0	0.048367	0.09058	0.25453	0.19768	0.21103	0.051635	0.24787	0.17248	0.14528	0.23473	0.13652	0.22126	0.087593	0.11851	0.13126	0.37376	-2.5625	-3.6979	-2.7812	-3.5021	-3.4354	-2.8167	-3.8583	-3.2417	-2.8125	-3.6667	-2.9479	-3.3958	-3.3896	-2.825	-3.5646	-3.0542	280.009	150.733	233.075	385.072	223.587	308.443	341.716	358.134	95.820	316.945	440.490	92.094	297.008	372.627	182.793	131.204	0.0010627	0.00047616	0.00015598	1331.5	5.2223e-06	4.6058e-06	1334.8	363.96	6.3123e-06	2.196e-06	412.69	135.17	116.89	39.196	5.1869e-06	49.286	0.0010008	0.0011773	0.00036003	1358.6	1.1577e-05	1.4475e-05	1359.6	372.27	1.2188e-05	1.3911e-05	424.64	138.18	120.13	40.508	1.2747e-05	51.125	105.270	167.073	165.889	95.802	204.737	219.572	95.675	100.470	223.512	249.797	99.918	104.428	104.836	109.491	227.326	108.442	-8191	255	
51105.734	1	1	0	0	0.23534	0.048558	0.075891	0.028012	0.023994	0.2958	0.045038	0.20717	0.11206	0.092713	0.24156	0.36308	0.089646	0.25838	0.10812	0.040698	-2.4688	-3.7062	-2.7375	-3.35	-3.5792	-2.9333	-3.6708	-3.3	-2.8771	-3.6458	-3.1375	-3.2313	-3.5667	-2.9938	-3.2854	-3.3479	405.567	280.528	291.779	301.258	340.201	82.718	252.363	404.743	247.261	211.523	369.696	401.766	414.442	406.266	373.309	365.627	0.0010454	0.00066096	0.00015507	1331.4	5.8426e-06	4.2556e-06	1333.1	364.12	6.7149e-06	5.3296e-06	414.11	135.5	117.54	39.117	5.8348e-06	49.426	0.0010164	0.0012254	0.00034654	1358.9	1.2163e-05	1.5264e-05	1358.7	372.33	1.2784e-05	1.4176e-05	424.14	138.3	120.15	40.463	1.2614e-05	51.196	105.116	164.815	173.664	95.745	213.688	227.758	95.694	100.431	235.264	222.155	99.712	104.387	104.970	109.555	232.430	108.289	-8191	255	
51105.828	1	1	0	0	0.047621	0.14127	0.1034	0.1554	0.20963	0.18447	0.18874	0.22223	0.026713	0.11334	0.15061	0.25395	0.12183	0.16058	0.052545	0.16361	-2.2854	-3.6063	-2.8646	-2.9833	-3.675	-2.9375	-3.3792	-3.3771	-2.6104	-3.7083	-3.1083	-3.15	-3.6562	-3.0167	-3.2938	-3.4729	94.915	269.275	138.072	151.226	433.320	207.410	109.629	401.017	363.692	145.229	341.937	94.884	182.984	376.242	408.979	403.249	0.0010591	0.00056353	0.0001399	1333.1	5.8311e-06	4.533e-06	1328.8	364.3	5.2472e-06	5.1309e-06	412.62	134.95	117.59	39.04	5.8602e-06	49.241	0.0010464	0.0012935	0.00035934	1359.7	1.1914e-05	1.4374e-05	1358.1	372.79	1.2727e-05	1.4139e-05	424.75	138.47	120.4	40.432	1.2508e-05	51.225	100.533	160.818	179.500	95.913	195.086	236.314	95.726	100.559	204.004	222.563	99.903	104.550	104.827	109.670	227.014	108.404	-8191	255	
51105.926	1	1	0	0	0.31908	0.069122	0.19499	0.26387	0.034871	0.17762	0.15467	0.12545	0.12213	0.24588	0.39962	0.093532	0.12028	0.2752	0.19357	0.1135	-2.425	-3.4771	-3.0604	-2.9208	-3.5146	-2.7167	-3.2646	-3.6104	-2.9229	-3.5021	-3.1479	-3.05	-3.7583	-3.0687	-2.9521	-3.6792	260.737	97.679	351.892	384.362	194.025	306.958	420.100	154.981	140.467	134.595	442.145	145.529	190.474	236.294	363.938	280.573	0.0009915	0.00041128	0.0001174	1331.5	5.7426e-06	4.6696e-06	1334.2	363.7	7.3293e-06	5.7615e-06	413.24	135.14	117.28	39.139	6.6086e-06	49.532	0.00099942	0.0012232	0.00035781	1359	1.1861e-05	1.4664e-05	1360	372.68	1.272e-05	1.4419e-05	424.87	138.28	120.21	40.453	1.264e-05	51.182	104.943	199.011	180.034	95.857	218.131	214.637	95.675	100.576	225.809	241.806	100.038	104.444	104.877	109.614	236.329	108.275	-8191	255	
51106.047	1	1	0	0	0.11962	0.060543	0.21342	0.13126	0.23591	0.09285	0.22733	0.19476	0.070869	0.20269	0.15903	0.27534	0.11928	0.068312	0.26653	0.084467	-2.3896	-3.4375	-3.2188	-2.9604	-3.5396	-3.0167	-3.3688	-3.7708	-2.5542	-3.3417	-3.6562	-2.9125	-3.7271	-2.8854	-2.9062	-3.5542	224.940	170.800	352.426	371.715	223.440	282.726	404.877	376.409	88.479	414.393	101.907	98.589	336.829	367.557	375.533	86.687	0.0010028	0.00052378	0.00011543	1333.5	6.5604e-06	3.9639e-06	1333.8	364.49	5.991e-06	3.8793e-06	411.71	134.86	117.53	39.077	7.5195e-06	49.391	0.0010074	0.0012529	0.00034836	1360.2	1.1921e-05	1.4498e-05	1357.7	372.26	1.2432e-05	1.4259e-05	424.07	138.38	120.37	40.419	1.3066e-05	51.187	103.086	169.894	166.045	96.062	228.054	237.737	95.816	100.352	216.352	237.689	99.920	104.534	104.968	109.628	220.799	108.535	-8191	255	
51106.117	1	1	0	0	0.28678	0.20414	0.039133	0.34291	0.10724	0.14548	0.20119	0.31912	0.27339	0.099344	0.035934	0.37714	0.067972	0.16359	0.17035	0.15659	-2.2125	-3.2708	-3.3312	-2.9667	-3.5208	-2.9771	-3.0021	-3.7104	-2.8271	-3.1729	-3.5729	-2.8417	-3.5938	-3.3167	-2.9875	-3.5583	345.749	382.559	302.744	88.665	154.652	263.129	194.948	410.441	242.137	192.508	148.903	385.218	134.391	103.008	287.576	187.865	0.00099064	0.00054084	0.00013699	1327.7	7.231e-06	3.4598e-06	1329.9	363.38	6.2881e-06	5.3074e-06	414.97	135.2	117.48	39.027	6.0758e-06	49.533	0.00097225	0.0012776	0.00034251	1358.3	1.2024e-05	1.4253e-05	1359.3	372.72	1.2071e-05	1.4376e-05	425.22	138.33	120.33	40.421	1.3004e-05	51.265	104.616	188.178	179.408	95.979	216.593	241.875	95.565	100.575	224.602	230.312	99.408	104.303	104.708	109.628	220.309	108.469	-8191	255	
51106.215	1	1	0	0	0.17377	0.1451	0.11303	0.11993	0.17593	0.22976	0.1615	0.30667	0.25853	0.23806	0.26318	0.18341	0.2757	0.12882	0.22278	0.33517	-2.3917	-3.1813	-3.4542	-2.7958	-3.5	-3.0792	-2.9333	-3.7729	-2.8771	-3.1333	-3.6917	-2.7979	-3.4979	-3.3563	-2.8208	-3.6896	326.265	295.069	239.913	324.470	422.803	106.833	419.438	379.142	100.550	168.458	89.166	380.746	394.725	420.967	377.549	83.031	0.0010718	0.00051653	0.00018013	1328.7	5.7313e-06	5.2386e-06	1329.8	363.42	5.8494e-06	4.2174e-06	414.72	135.07	117.73	39.016	5.4609e-06	49.325	0.0010136	0.0012586	0.0003404	1357.7	1.2289e-05	1.4276e-05	1358.6	372.64	1.2025e-05	1.4187e-05	424.67	138.48	120.32	40.451	1.3144e-05	51.229	102.156	156.414	173.185	95.810	235.372	232.979	95.620	100.411	228.008	234.894	99.940	104.386	104.897	109.470	231.014	108.428	-8191	255	
51106.336	1	1	0	0	0.11001	0.096442	0.1437	0.31165	0.047259	0.24446	0.35888	0.10746	0.066189	0.17833	0.23542	0.27451	0.28734	0.12098	0.25016	0.17	-2.5646	-2.7042	-3.4708	-2.9479	-3.4437	-3.2	-3.0271	-3.575	-2.9708	-3.1917	-3.5854	-2.8354	-3.3125	-3.5646	-2.6958	-3.7229	383.196	283.780	361.791	351.632	240.960	405.746	417.877	352.673	110.452	265.874	365.870	397.284	303.085	88.807	422.829	142.299	0.0010021	0.00054071	0.00012428	1328.3	6.4997e-06	4.4041e-06	1331	364.39	6.7927e-06	7.0575e-06	413.27	135.15	117.17	39.024	5.4258e-06	49.384	0.00098918	0.0012889	0.0003505	1357.6	1.2244e-05	1.4849e-05	1356.6	372.35	1.2565e-05	1.4575e-05	424.27	138.26	120.16	40.424	1.2929e-05	51.169	105.523	165.678	172.328	95.788	211.485	243.603	95.672	100.645	218.290	233.767	99.932	104.309	105.005	109.778	231.192	108.600	-8191	255	
51106.430	1	1	0	0	0.24318	0.13293	0.19733	0.18329	0.06345	0.11702	0.21122	0.05136	0.065203	0.29569	0.18293	0.34356	0.066061	0.51069	0.16532	0.23678	-2.7313	-2.8292	-3.4562	-2.8333	-3.1104	-3.425	-2.9437	-3.6979	-3.1188	-3.0458	-3.6208	-2.7333	-3.0625	-3.6521	-2.875	-3.6021	239.697	360.839	218.413	397.707	352.123	146.771	272.248	421.796	176.892	153.660	391.704	339.052	195.677	85.881	109.717	335.931	0.0010231	0.00051011	0.00016018	1329.5	8.1404e-06	5.0723e-06	1330.8	364.04	6.8831e-06	4.3764e-06	412.72	135.06	117.37	39.039	5.0104e-06	49.272	0.0010008	0.0012586	0.00037173	1357	1.2689e-05	1.4201e-05	1358.2	372.57	1.2294e-05	1.4515e-05	424.63	138.35	120.22	40.447	1.326e-05	51.174	106.854	162.318	167.017	96.032	213.676	224.816	95.520	100.480	232.894	239.402	99.942	104.299	104.846	109.546	220.005	108.738	-8191	255	
51106.527	1	1	0	0	0.0119	0.092514	0.16805	0.090864	0.074928	0.11653	0.12515	0.1379	0.26284	0.15289	0.052514	0.28901	0.21228	0.12576	0.095473	0.13973	-2.7188	-2.7583	-3.5542	-2.9979	-3.1396	-3.425	-2.7667	-3.6437	-3.3042	-2.7625	-3.7625	-3.1333	-3.0271	-3.6813	-2.7625	-3.3063	305.441	271.741	98.510	355.377	415.536	352.892	346.271	308.396	306.545	266.455	434.995	434.869	435.821	395.147	172.155	307.083	0.00098991	0.00058546	9.2461e-05	1330.2	4.2824e-06	4.4682e-06	1329.9	363.24	4.2957e-06	5.824e-06	410.45	135.01	117.18	39.077	6.6367e-06	49.476	0.00098767	0.00132	0.0003529	1357.6	1.204e-05	1.4102e-05	1357.9	372.61	1.193e-05	1.452e-05	423.48	138.22	120.09	40.401	1.2745e-05	51.158	104.443	178.982	172.698	95.940	214.457	228.137	95.674	100.548	226.372	235.594	99.950	104.254	105.107	109.587	232.881	108.658	-8191	255	
51106.645	1	1	0	0	0.15491	0.052751	0.25906	0.18852	0.13932	0.090589	0.29594	0.20827	0.13544	0.44997	0.13819	0.35518	0.21088	0.028338	0.17303	0.016611	-2.9542	-2.6625	-3.5792	-3.2562	-2.7958	-3.5646	-3.1979	-3.2646	-3.4083	-2.7667	-3.7125	-3.2062	-2.9583	-3.6583	-2.7979	-3.1542	373.621	298.395	411.946	377.969	384.792	240.041	435.407	333.860	111.216	286.942	125.174	423.257	391.333	120.724	342.711	158.340	0.00099207	0.00033874	0.00014949	1329.3	6.807e-06	6.2118e-06	1331.2	362.89	7.8106e-06	5.2346e-06	414.44	135.44	116.86	39.02	3.9431e-06	49.314	0.0009679	0.0013222	0.00034444	1358.5	1.2318e-05	1.4296e-05	1356	371.99	1.2659e-05	1.467e-05	424.55	138.31	120.09	40.428	1.3046e-05	51.148	104.154	163.695	175.103	95.792	212.015	235.853	95.550	100.546	222.195	211.349	99.790	104.592	105.138	109.494	219.117	108.836	-8191	255	
51106.719	1	1	0	0	0.25545	0.077074	0.13407	0.37514	0.35514	0.0079934	0.23296	0.14591	0.14855	0.18431	0.13879	0.19455	0.15524	0.1833	0.23883	0.057039	-3.1312	-2.6833	-3.525	-3.2146	-2.75	-3.5458	-2.9292	-3.3312	-3.6167	-2.6125	-3.4521	-3.3542	-2.9437	-3.5812	-2.9813	-3.3375	353.429	159.002	273.256	400.916	134.598	153.673	132.617	384.649	391.377	307.333	403.074	410.452	359.215	422.627	215.409	280.697	0.0010113	0.00041049	0.00015052	1333.1	5.9375e-06	5.0802e-06	1325.4	364.23	7.699e-06	6.534e-06	412.47	135.27	117.74	39.189	5.7477e-06	49.417	0.00098804	0.0013261	0.00034782	1357.4	1.2584e-05	1.4116e-05	1357	372.76	1.2054e-05	1.5284e-05	424.35	138.35	120.34	40.491	1.3096e-05	51.194	104.436	163.466	173.257	95.927	214.262	222.169	95.542	100.599	223.018	225.836	100.130	104.409	104.983	109.579	229.280	108.842	-8191	255	
51106.812	1	1	0	0	0.063084	0.039963	0.25496	0.33348	0.31582	0.08913	0.16528	0.011955	0.12736	0.12233	0.10963	0.30118	0.12863	0.12315	0.34207	0.19218	-3.1917	-2.7521	-3.2896	-3.3833	-2.7	-3.5396	-3.2125	-3.0396	-3.5708	-2.6917	-3.4604	-3.5229	-2.775	-3.625	-3.1708	-3.1708	127.132	373.406	357.072	400.821	184.982	330.748	358.890	135.470	281.366	209.057	312.166	378.644	92.115	339.481	379.946	356.178	0.001028	0.00050501	0.00014315	1330.1	4.6056e-06	4.2241e-06	1331.6	364.53	7.8454e-06	5.2484e-06	412.6	135.03	117.47	39.108	4.5441e-06	49.416	0.00098767	0.0012392	0.00036046	1357.3	1.2024e-05	1.3865e-05	1358.3	372.88	1.226e-05	1.476e-05	424.52	138.33	120.15	40.521	1.2903e-05	51.211	104.276	156.436	170.744	95.840	217.216	211.527	95.811	100.781	224.285	238.665	100.159	104.107	104.868	109.644	228.199	108.510	-8191	255	
51106.910	1	1	0	0	0.18275	0.23287	0.17932	0.13829	0.22455	0.12554	0.27978	0.060904	0.13954	0.27273	0.16892	0.12025	0.077924	0.15878	0.12912	0.15433	-3.2938	-2.8542	-3.25	-3.6792	-2.7042	-3.5333	-3.1396	-2.7646	-3.5625	-2.775	-3.2729	-3.5563	-2.7562	-3.5458	-3.1188	-3.0062	396.697	155.893	267.818	368.162	245.369	166.875	389.396	135.779	249.881	152.713	133.690	341.241	109.239	168.815	110.188	330.421	0.0010095	0.00055452	0.00010956	1330.1	5.773e-06	3.9063e-06	1330.4	364.5	7.41e-06	5.1255e-06	413.79	135.88	117.3	39.308	6.1977e-06	49.395	0.0009826	0.0013367	0.00036395	1357.6	1.2718e-05	1.449e-05	1357.8	372.65	1.25e-05	1.4911e-05	425.2	138.54	120.13	40.509	1.2878e-05	51.197	103.635	163.678	177.195	95.946	219.727	234.628	95.654	100.536	216.136	232.895	99.936	104.316	104.935	109.893	230.838	108.514	-8191	255	
51107.031	1	1	0	0	0.15014	0.18975	0.11576	0.23765	0.14317	0.070663	0.14672	0.36871	0.34568	0.12166	0.15881	0.1376	0.042563	0.176	0.11385	0.0026084	-3.2313	-2.675	-3.0417	-3.6146	-2.6896	-3.6063	-3.4354	-2.7729	-3.6312	-2.9562	-3.1437	-3.5083	-2.8708	-3.3875	-3.2875	-2.8833	228.447	164.708	313.651	413.096	207.649	192.920	387.816	114.764	290.278	436.678	323.551	115.873	126.966	390.225	167.867	180.000	0.0010496	0.00038602	0.00012409	1334.5	6.0441e-06	4.8731e-06	1331	363.04	6.6077e-06	4.9966e-06	413.99	134.86	117.46	39.184	6.6516e-06	49.481	0.00099611	0.0012711	0.00036188	1359.5	1.2573e-05	1.4441e-05	1357	372.53	1.2307e-05	1.4662e-05	425.2	138.4	120.22	40.488	1.2694e-05	51.282	104.537	171.417	167.475	95.876	223.241	234.784	95.730	100.810	213.037	232.493	99.822	104.417	105.026	109.675	233.511	108.714	-8191	255	
51107.125	1	1	0	0	0.12987	0.092457	0.23726	0.24259	0.41762	0.071021	0.23564	0.20551	0.21834	0.25609	0.17683	0.32353	0.10085	0.073032	0.027331	0.079903	-3.2062	-2.8792	-2.7687	-3.6875	-2.7	-3.1813	-3.5875	-2.8896	-3.7167	-2.9958	-3.0479	-3.7958	-2.9729	-3.3208	-3.3271	-2.7792	103.592	307.959	228.568	425.243	130.556	217.766	365.179	352.136	238.094	227.694	305.419	317.443	223.568	124.343	168.281	360.611	0.0010204	0.00045975	0.00014967	1327.8	6.8657e-06	3.2487e-06	1332.7	364.31	7.791e-06	3.0962e-06	415.85	135.08	117.65	39.218	5.5828e-06	49.279	0.0010201	0.0012703	0.00035138	1360.3	1.2243e-05	1.4798e-05	1358.4	372.59	1.2172e-05	1.4382e-05	425.6	138.44	120.45	40.56	1.2583e-05	51.204	104.714	169.233	182.836	95.837	223.172	240.146	95.650	100.471	226.619	226.519	100.074	104.423	105.011	109.749	229.856	108.574	-8191	255	
51107.223	1	1	0	0	0.21942	0.036851	0.22762	0.12097	0.025549	0.25479	0.24378	0.2429	0.094471	0.009972	0.23819	0.072395	0.24916	0.10374	0.22979	0.22268	-3.0583	-3.2021	-2.675	-3.7542	-2.7854	-3.0042	-3.5708	-2.7979	-3.4646	-3.0563	-2.875	-3.8563	-3.0271	-3.3396	-3.5396	-2.7417	224.504	183.862	137.181	389.939	254.561	339.658	372.171	341.839	319.505	262.411	393.350	277.803	110.096	129.867	107.462	236.139	0.00096764	0.00060026	0.0001403	1331.1	6.4148e-06	4.4074e-06	1328.9	363.49	6.0973e-06	6.1986e-06	414.82	135.6	117.22	39.082	5.3999e-06	49.569	0.00095046	0.0012787	0.00036184	1359.1	1.2298e-05	1.4291e-05	1358.8	372.76	1.2346e-05	1.4644e-05	425.42	138.52	120.15	40.444	1.2419e-05	51.252	102.822	166.473	167.314	96.031	217.825	219.919	95.793	100.658	222.374	252.130	100.164	104.506	104.777	109.705	234.730	108.620	-8191	255	
51107.316	1	1	0	0	0.34281	0.25128	0.20436	0.10601	0.16805	0.10795	0.25121	0.10324	0.08633	0.039644	0.053641	0.15592	0.040797	0.12368	0.12763	0.084865	-2.9562	-3.2229	-2.8521	-3.6667	-2.9292	-3.0396	-3.8438	-2.9146	-3.3771	-3.3063	-2.9021	-3.625	-2.9958	-2.9958	-3.6333	-2.7375	98.417	411.788	178.813	420.572	313.780	270.513	396.801	274.663	139.372	246.968	378.650	305.753	360.629	227.954	154.599	399.806	0.001045	0.00046697	0.00015673	1333	7.3848e-06	4.0635e-06	1334.6	363.46	6.9726e-06	4.8944e-06	413.93	135.51	117.67	39.133	6.3956e-06	49.652	0.00099358	0.0012573	0.00036439	1359.4	1.2224e-05	1.4971e-05	1360.3	372.63	1.2335e-05	1.4332e-05	425.06	138.62	120.3	40.47	1.2736e-05	51.221	105.436	174.347	171.031	96.135	215.604	221.281	95.904	100.680	214.382	230.542	100.061	104.622	105.124	109.857	232.795	108.784	-8191	255	
51107.414	1	1	0	0	0.069559	0.12403	0.18101	0.067795	0.15242	0.15729	0.080142	0.29453	0.33556	0.053488	0.15788	0.18427	0.16265	0.35203	0.31355	0.0071268	-3.1625	-3.4583	-2.6167	-3.6813	-2.9688	-3.0812	-3.8875	-3.0229	-3.1417	-3.5229	-2.7354	-3.4042	-3.375	-2.9604	-3.3979	-2.8542	342.108	423.795	160.706	107.494	410.663	212.343	417.559	408.157	158.377	302.850	102.099	405.142	85.946	421.861	436.817	202.666	0.0010466	0.000487	0.0001616	1331.9	4.7432e-06	5.9629e-06	1332.8	363.95	6.8994e-06	5.1059e-06	414.72	135.42	117.75	39.011	5.7985e-06	49.401	0.00099275	0.0012509	0.00036319	1361.4	1.2141e-05	1.4797e-05	1361.4	372.84	1.2068e-05	1.3913e-05	425.51	138.71	120.4	40.515	1.2811e-05	51.185	104.318	174.173	185.570	95.946	219.245	233.957	95.742	100.529	218.900	230.525	100.053	104.405	104.916	109.725	228.183	108.563	-8191	255	
51107.512	1	1	0	0	0.25421	0.10758	0.30053	0.049441	0.19134	0.12816	0.33054	0.14609	0.12794	0.27439	0.14096	0.098928	0.50167	0.25785	0.22754	0.13306	-2.6688	-3.4938	-2.6333	-3.4688	-3.1417	-2.8229	-3.6958	-3.0125	-3.0125	-3.3708	-2.8896	-3.2938	-3.3625	-2.7625	-3.5583	-3.1104	298.375	192.469	429.877	123.020	322.514	240.918	405.266	442.299	221.046	228.342	89.562	91.780	436.788	409.791	273.946	87.509	0.0010442	0.00056306	0.00013169	1333.9	7.7538e-06	6.1089e-06	1335.3	363.49	7.7903e-06	4.3497e-06	413.64	135.21	117.56	39.076	6.3333e-06	49.283	0.00099358	0.0012254	0.00036522	1360.8	1.2294e-05	1.4803e-05	1361.3	372.82	1.2543e-05	1.4217e-05	425.88	138.53	120.29	40.462	1.2459e-05	51.195	102.992	157.460	167.499	96.005	226.822	228.387	95.635	100.538	224.223	236.277	100.143	104.303	104.789	109.668	234.235	108.643	-8191	255	
51107.605	1	1	0	0	0.06072	0.059509	0.18889	0.29426	0.19558	0.13595	0.15204	0.23518	0.36941	0.038354	0.10095	0.03775	0.099415	0.19193	0.2001	0.23534	-2.5687	-3.5229	-2.7917	-3.4583	-3.4313	-2.7	-3.6708	-3.0375	-2.8958	-3.3979	-2.9021	-3.3396	-3.4437	-2.7188	-3.5292	-2.975	439.309	440.956	414.825	406.065	372.829	338.066	430.554	405.602	204.768	269.013	118.651	313.011	425.347	131.807	334.291	98.493	0.0010167	0.00059485	0.00012964	1329.3	6.06e-06	4.8261e-06	1332.4	363.04	6.3658e-06	4.7681e-06	414.58	135.26	117.1	39.021	6.0463e-06	49.391	0.00097882	0.001247	0.00035519	1360	1.1819e-05	1.4916e-05	1358.9	372.57	1.2228e-05	1.3856e-05	425.53	138.42	120.23	40.43	1.2897e-05	51.144	100.339	164.541	178.276	96.028	214.075	239.297	95.719	100.710	234.826	238.904	100.075	104.425	104.920	109.613	220.898	108.792	-8191	255	
51107.727	1	1	0	0	0.050065	0.13942	0.21911	0.20024	0.12461	0.13322	0.043667	0.091833	0.10273	0.1424	0.16974	0.22078	0.38451	0.070902	0.18372	0.21031	-2.5125	-3.6396	-2.775	-3.3646	-3.5625	-2.8417	-3.5542	-3.3333	-2.6229	-3.5479	-2.8521	-3.1063	-3.4062	-2.8333	-3.3479	-3.2354	171.728	129.031	342.606	401.194	227.385	219.625	394.407	397.697	385.826	312.645	424.134	440.053	435.235	371.985	328.399	348.233	0.0010444	0.00037542	0.0001356	1333.6	5.2709e-06	4.4035e-06	1333.2	363.82	6.7663e-06	3.8093e-06	413.56	135.26	116.86	39.061	6.7198e-06	49.588	0.001009	0.0012244	0.0003674	1360.1	1.1638e-05	1.4762e-05	1358.4	372.14	1.2601e-05	1.4425e-05	424.95	138.51	120.16	40.447	1.267e-05	51.177	101.672	170.810	175.174	96.006	217.961	237.292	95.869	100.582	219.586	232.409	99.975	104.516	104.920	109.780	223.623	108.435	-8191	255	
51107.820	1	1	0	0	0.12987	0.035612	0.062974	0.21093	0.15031	0.17008	0.3392	0.20658	0.17149	0.07625	0.27353	0.10087	0.26954	0.23044	0.14011	0.26858	-2.3771	-3.5021	-2.8917	-3.25	-3.6312	-2.6042	-3.6396	-3.3729	-2.8958	-3.4437	-3.0417	-3.2042	-3.75	-2.825	-3.175	-3.3833	171.362	204.150	327.242	399.002	96.586	107.764	406.646	91.038	383.649	132.970	409.824	435.847	89.384	154.544	397.331	359.538	0.0010449	0.00038371	0.00012435	1331.1	7.1958e-06	4.0082e-06	1333.9	363.57	6.9544e-06	4.5583e-06	414.7	135.66	117.24	39.113	7.0661e-06	49.415	0.001021	0.0012155	0.00035894	1360.4	1.2177e-05	1.4965e-05	1360.5	372.61	1.243e-05	1.3881e-05	424.84	138.67	120.24	40.489	1.2576e-05	51.128	102.255	162.548	193.573	96.081	203.549	232.936	95.702	100.801	223.829	232.239	100.383	104.676	105.032	109.870	218.173	108.632	-8191	255	
51107.918	1	1	0	0	0.25024	0.25276	0.07913	0.24468	0.1675	0.20988	0.27638	0.32841	0.10516	0.30348	0.17317	0.27271	0.20728	0.068287	0.083805	0.31486	-2.2313	-3.4125	-2.8771	-3.0771	-3.4938	-2.6021	-3.3854	-3.5875	-2.6917	-3.5271	-3.2313	-2.8896	-3.4688	-2.9688	-3.1604	-3.4021	264.606	130.772	340.613	425.948	174.779	175.250	412.846	397.831	238.528	262.085	149.898	330.380	82.550	268.626	282.084	435.059	0.0010082	0.00044653	0.00014415	1332	5.8835e-06	5.4015e-06	1333.7	364.02	8.8247e-06	5.701e-06	415.12	135.03	117.38	39.161	6.6861e-06	49.489	0.001004	0.0011867	0.00034778	1360	1.1359e-05	1.485e-05	1358.6	372.35	1.2515e-05	1.3936e-05	425.17	138.44	120.16	40.426	1.2741e-05	51.159	102.008	167.799	173.529	95.981	207.179	237.304	95.855	100.520	223.987	237.203	100.211	104.900	104.990	109.662	214.089	108.657	-8191	255	
51108.016	1	1	0	0	0.21586	0.12091	0.19727	0.15763	0.20121	0.079481	0.25442	0.047471	0.16519	0.044853	0.050883	0.21982	0.12565	0.10209	0.04446	0.15715	-2.3125	-3.4354	-3.0708	-2.9125	-3.5042	-2.7896	-3.3417	-3.5812	-2.7438	-3.3271	-3.3563	-2.8438	-3.6896	-3.0125	-3.1021	-3.6125	349.055	187.015	329.978	403.548	313.326	437.369	332.025	343.700	335.763	198.525	421.275	348.575	290.404	213.524	101.082	130.418	0.00099547	0.00059729	0.00011459	1331.1	5.8868e-06	2.9298e-06	1329.8	364.39	4.7138e-06	6.5559e-06	414.36	135.49	117.62	39.184	6.3701e-06	49.237	0.00099896	0.0012489	0.00035403	1359.1	1.1589e-05	1.4397e-05	1358.8	373	1.2391e-05	1.4156e-05	425.35	138.62	120.28	40.474	1.2729e-05	51.188	102.673	167.545	178.905	96.165	215.015	243.944	95.946	100.592	219.066	225.351	100.030	104.429	105.055	109.612	230.321	108.679	-8191	255	
51108.109	1	1	0	0	0.16019	0.055958	0.19986	0.04991	0.187	0.16361	0.12468	0.14277	0.21392	0.2604	0.036722	0.19461	0.076414	0.3008	0.10782	0.0552	-2.2771	-3.3417	-3.1771	-2.6167	-3.4688	-2.8937	-2.8979	-3.5917	-2.625	-3.2833	-3.3917	-2.7896	-3.5354	-3.0417	-2.8229	-3.6229	83.187	279.315	316.435	381.303	441.292	144.282	180.295	96.353	145.213	386.956	236.032	411.050	155.852	400.576	158.291	233.375	0.00097855	0.00047614	0.00010584	1334.5	6.6782e-06	3.7853e-06	1331.5	364.73	6.7877e-06	4.2828e-06	412.89	135.33	117.91	39.231	6.7831e-06	49.391	0.0010062	0.0011596	0.00034524	1359.5	1.1727e-05	1.3923e-05	1358.6	372.56	1.2375e-05	1.3887e-05	425.06	138.6	120.49	40.512	1.304e-05	51.208	103.747	161.120	191.200	96.210	216.434	234.261	95.839	100.762	218.476	251.978	99.981	104.627	104.987	109.664	222.802	108.632	-8191	255	
51108.207	1	1	0	0	0.27812	0.26764	0.14994	0.19219	0.12681	0.25484	0.070507	0.069663	0.15336	0.15976	0.20955	0.088999	0.14012	0.043214	0.30983	0.21869	-2.45	-3.1083	-3.3729	-2.8104	-3.4646	-2.9562	-3.0958	-3.725	-2.9479	-3.1229	-3.4813	-2.8521	-3.5333	-3.2188	-2.9333	-3.6667	206.065	342.063	398.781	86.988	337.899	361.432	270.413	369.911	225.908	89.563	422.824	283.433	357.550	389.314	194.615	397.678	0.0010147	0.00035564	0.00015784	1328.9	5.5108e-06	5.2491e-06	1332.1	364.02	5.5482e-06	6.4402e-06	413.51	135.24	117.63	39.181	5.2782e-06	49.657	0.001	0.0012824	0.00035359	1358.6	1.1503e-05	1.3929e-05	1359.3	372.8	1.2268e-05	1.3685e-05	424.76	138.38	120.35	40.488	1.2628e-05	51.201	106.356	178.755	152.668	96.030	220.438	227.655	95.869	100.855	227.181	241.770	99.999	104.505	105.151	109.473	213.954	108.672	-8191	255	
51108.328	1	1	0	0	0.092629	0.094523	0.29076	0.24379	0.28255	0.053838	0.20696	0.22446	0.19768	0.28979	0.085556	0.090746	0.096623	0.063886	0.061589	0.28173	-2.475	-3.1	-3.5729	-3.0438	-3.1542	-3.3292	-2.9688	-3.6208	-2.8063	-3.1229	-3.6104	-2.6854	-3.4646	-3.2833	-2.8021	-3.7167	245.920	431.098	319.358	374.992	151.711	412.914	398.822	348.877	272.772	169.065	204.818	234.210	369.702	364.968	236.823	238.324	0.0010679	0.0004961	0.00013187	1329.6	5.5912e-06	4.261e-06	1330.3	364.91	6.711e-06	3.9136e-06	414.38	135.4	117.5	39.148	4.9856e-06	49.321	0.00098162	0.0012354	0.00033132	1358.5	1.1437e-05	1.3748e-05	1358.2	372.64	1.197e-05	1.4014e-05	425.11	138.64	120.24	40.478	1.2612e-05	51.132	103.404	175.168	184.727	96.000	221.100	224.978	95.823	101.017	222.488	234.982	100.297	104.644	105.399	109.878	223.361	108.860	-8191	255	
51108.422	1	1	0	0	0.11937	0.1263	0.066946	0.27587	0.030183	0.06189	0.25849	0.23047	0.10625	0.13295	0.18244	0.27204	0.093735	0.24062	0.32207	0.021635	-2.7167	-3.0375	-3.4875	-2.8688	-3.2313	-3.2104	-3.0208	-3.5938	-3.0375	-2.8958	-3.4938	-2.7417	-3.3167	-3.55	-2.6875	-3.5333	325.801	391.076	437.730	354.084	111.523	86.144	297.299	374.328	394.887	183.665	399.273	114.553	269.844	392.292	157.275	91.435	0.0010522	0.00049672	0.00013408	1328.7	6.3328e-06	4.5756e-06	1329.5	364.46	6.8053e-06	4.7198e-06	413.83	135.46	117.29	39.084	6.5377e-06	49.319	0.00099394	0.0012546	0.00033546	1356.8	1.1596e-05	1.3799e-05	1357.7	372.85	1.2223e-05	1.4173e-05	425.36	138.35	120.33	40.429	1.3032e-05	51.123	103.672	164.077	192.005	96.085	217.871	226.824	95.923	100.959	211.172	230.063	100.329	104.946	105.201	109.803	209.036	108.755	-8191	255	
51108.516	1	1	0	0	0.21687	0.24996	0.072679	0.24804	0.26017	0.18799	0.11246	0.16229	0.11844	0.16403	0.23564	0.29466	0.48146	0.28237	0.082463	0.078801	-2.775	-2.8792	-3.6	-3.1688	-3.1729	-3.4979	-2.95	-3.5062	-3.2292	-2.7583	-3.6188	-2.8875	-3.0812	-3.5938	-2.7104	-3.4208	262.051	249.157	105.870	407.235	406.626	223.489	391.861	404.036	243.340	153.777	110.512	186.324	424.758	346.733	405.026	126.161	0.00098114	0.00047403	0.00014919	1333	6.2082e-06	3.8099e-06	1336.3	364.32	6.1312e-06	5.3053e-06	411.65	134.89	117.49	39.007	6.0049e-06	49.687	0.00095274	0.0012223	0.0003339	1359.3	1.2037e-05	1.3717e-05	1358.4	372.91	1.1396e-05	1.4078e-05	423.91	138.38	120.4	40.468	1.3125e-05	51.193	105.206	155.233	183.047	96.112	222.596	237.629	96.139	100.893	220.914	230.133	100.207	104.562	105.208	109.720	223.448	109.190	-8191	255	
51108.590	1	1	0	0	0.32596	0.096175	0.13076	0.15741	0.18777	0.20645	0.19785	0.093741	0.19674	0.048721	0.54139	0.1533	0.28487	0.0864	0.20015	0.12734	-3.0438	-2.8375	-3.5479	-3.2687	-2.8937	-3.6042	-2.9104	-3.4271	-3.2917	-2.7375	-3.7729	-3.0875	-3.1771	-3.6479	-2.7521	-3.4292	313.405	355.279	408.021	94.169	300.064	385.691	301.676	366.040	267.415	343.471	406.068	169.398	422.126	258.662	439.785	418.034	0.0010245	0.00046921	0.00012164	1327.9	6.2538e-06	4.888e-06	1327.3	364.85	7.2328e-06	4.9175e-06	414.01	134.99	117.51	39.218	7.1546e-06	49.369	0.00097463	0.0013045	0.00033266	1358.5	1.2195e-05	1.4467e-05	1357.2	372.88	1.2019e-05	1.4295e-05	424.83	138.33	120.4	40.518	1.2725e-05	51.122	102.977	159.868	176.576	95.886	212.766	218.822	95.944	100.844	216.492	228.210	100.331	104.570	105.122	109.913	220.416	108.734	-8191	255	
51108.711	1	1	0	0	0.11542	0.19103	0.10645	0.1053	0.12717	0.1585	0.014358	0.3702	0.21789	0.24142	0.31447	0.15415	0.10705	0.11255	0.22453	0.16296	-3.1437	-2.7625	-3.5187	-3.2417	-2.9792	-3.6	-2.9271	-3.3458	-3.4396	-2.8688	-3.6104	-3.2979	-2.9271	-3.5438	-2.9062	-3.2188	352.762	244.203	340.687	302.415	280.108	115.678	236.877	380.710	221.128	366.184	412.687	408.248	441.662	394.044	152.214	432.136	0.0010385	0.00039226	0.00015353	1330.8	7.2022e-06	4.7502e-06	1329.9	364.68	7.8186e-06	4.7074e-06	414.03	135.3	117.64	39.231	4.6568e-06	49.37	0.00098762	0.00128	0.0003359	1358.1	1.2527e-05	1.4103e-05	1355.7	372.77	1.2002e-05	1.4526e-05	424.83	138.47	120.37	40.477	1.2358e-05	51.153	104.112	176.109	176.531	96.016	216.082	225.738	95.880	100.843	211.723	238.909	100.141	104.645	105.360	109.770	208.798	108.891	-8191	255	
51108.805	1	1	0	0	0.23313	0.066949	0.12341	0.13786	0.16965	0.21722	0.34932	0.22486	0.22922	0.18236	0.16202	0.14911	0.22685	0.3392	0.13588	0.153	-3.1833	-2.6125	-3.2583	-3.4854	-2.8583	-3.5542	-3.0042	-2.9688	-3.6333	-2.6833	-3.5125	-3.4437	-2.8271	-3.5271	-3.1417	-3.1292	395.219	384.079	209.863	109.622	377.177	360.566	387.013	393.348	194.183	271.125	408.988	107.122	385.798	392.849	144.938	189.271	0.0010392	0.00052386	0.00016095	1326.8	6.3938e-06	5.1128e-06	1328.3	363.26	5.7782e-06	4.4512e-06	413.48	135.72	117.73	39.193	7.1833e-06	49.435	0.00098685	0.0012628	0.00033989	1356.8	1.2085e-05	1.4267e-05	1358	372.38	1.1674e-05	1.4468e-05	424.85	138.56	120.39	40.47	1.2528e-05	51.225	104.403	171.372	183.785	96.168	209.163	218.945	96.049	101.040	224.366	235.231	100.298	104.780	105.260	109.876	221.764	109.023	-8191	255	
51108.902	1	1	0	0	0.21858	0.20311	0.034828	0.057849	0.23204	0.17888	0.024856	0.066133	0.091211	0.064775	0.062833	0.17457	0.05989	0.23989	0.12652	0.16107	-3.3375	-2.6375	-3.3667	-3.4479	-2.6729	-3.3917	-3.2167	-2.8833	-3.4583	-2.8104	-3.1979	-3.5708	-2.6542	-3.5438	-3.1125	-2.9813	269.477	159.848	265.785	306.905	368.221	165.267	404.382	302.510	125.780	134.608	109.983	106.605	236.682	382.543	332.587	375.108	0.0010473	0.00047948	0.00017513	1329.1	5.8185e-06	5.5064e-06	1334.7	365.29	7.4012e-06	6.3732e-06	415.34	135.43	117.64	39.066	5.0235e-06	49.391	0.0010004	0.0012666	0.00034469	1358	1.2349e-05	1.3767e-05	1358.3	372.78	1.2006e-05	1.4818e-05	425.32	138.55	120.28	40.507	1.2089e-05	51.198	105.528	167.832	177.031	96.270	219.251	242.634	96.061	100.815	217.418	234.187	100.258	104.801	105.436	109.949	235.958	108.907	-8191	255	
51108.996	1	1	0	0	0.10705	0.18135	0.084493	0.35817	0.011161	0.092052	0.30053	0.052849	0.10248	0.23568	0.063101	0.12132	0.19977	0.21666	0.10979	0.18477	-3.325	-2.9042	-3.0979	-3.4583	-2.7646	-3.3646	-3.3417	-2.9729	-3.5229	-2.9333	-3.1792	-3.5604	-2.7125	-3.5875	-3.2125	-2.8729	407.984	193.767	278.770	442.087	378.178	425.578	379.369	361.377	398.409	348.504	157.744	301.740	134.864	117.721	420.960	368.760	0.0010331	0.00046501	0.00011298	1330.9	6.9947e-06	4.4691e-06	1323.2	363.58	5.7585e-06	6.1276e-06	413.33	134.69	117.31	39.147	6.013e-06	49.505	0.0009663	0.0012558	0.00033575	1356.6	1.2336e-05	1.3561e-05	1355.8	371.94	1.1993e-05	1.4968e-05	424.74	138.17	120.03	40.414	1.2696e-05	51.137	102.832	179.530	184.791	96.253	221.584	207.080	96.041	100.975	224.196	233.867	100.575	104.834	105.060	109.801	237.497	108.991	-8191	255	
51109.117	1	1	0	0	0.17824	0.13642	0.10322	0.27473	0.080134	0.090789	0.15116	0.13992	0.17712	0.11091	0.084899	0.16861	0.19143	0.29726	0.12156	0.22983	-3.3167	-2.8292	-2.975	-3.8521	-2.6979	-3.3	-3.5479	-2.9604	-3.4625	-3.0083	-3.1479	-3.7396	-2.9146	-3.3271	-3.5604	-2.8771	223.411	347.654	371.912	407.169	362.825	329.816	388.261	417.414	103.828	175.607	414.170	88.786	382.175	392.204	97.588	198.169	0.0010491	0.00066654	9.0817e-05	1330.6	6.7407e-06	4.1583e-06	1327.6	364.53	7.1915e-06	4.5097e-06	413.47	134.77	116.94	39.254	6.2061e-06	49.498	0.0010016	0.0012588	0.00033997	1354.5	1.2437e-05	1.4319e-05	1353.9	372.31	1.1646e-05	1.4003e-05	424.2	138.28	120.22	40.485	1.2352e-05	51.122	106.010	171.831	174.598	96.378	228.737	229.835	95.753	100.699	214.156	226.477	100.375	104.856	105.114	110.110	213.779	108.963	-8191	255	
51109.215	1	1	0	0	0.17221	0.026583	0.17613	0.40988	0.19182	0.21098	0.19141	0.2384	0.08413	0.22666	0.069973	0.21056	0.077415	0.038062	0.12697	0.17622	-3.1292	-3.1562	-2.8333	-3.7708	-2.7646	-3.2583	-3.6	-3.0125	-3.6437	-3.1104	-2.9729	-3.7479	-2.8021	-3.1667	-3.3187	-2.7958	337.027	427.820	206.052	409.714	353.507	88.531	412.152	343.710	95.703	239.976	333.985	114.080	201.750	345.959	309.678	105.934	0.0010407	0.00046886	7.8694e-05	1325.9	5.1771e-06	4.5817e-06	1328.8	362.73	5.4743e-06	5.7812e-06	413.64	135.64	117.1	39.149	6.6543e-06	49.237	0.000962	0.0012516	0.000344	1354.2	1.2044e-05	1.379e-05	1356	371.71	1.1802e-05	1.4289e-05	425.19	138.28	120.11	40.394	1.2612e-05	51.184	104.675	165.848	186.855	96.211	223.544	224.898	96.042	100.995	210.613	230.881	100.186	105.038	105.070	110.001	230.658	108.914	-8191	255	
51109.285	1	1	0	0	0.088702	0.24127	0.12285	0.15076	0.2419	0.18929	0.13144	0.08206	0.48172	0.026825	0.14945	0.21521	0.082461	0.097747	0.16723	0.20846	-3.025	-3.2771	-2.6125	-3.8167	-2.9229	-3.225	-3.6771	-2.7729	-3.3083	-3.3688	-2.8187	-3.7646	-2.8937	-3.0312	-3.5167	-2.8104	229.014	136.537	378.187	407.248	437.868	409.785	391.210	439.376	408.026	343.145	398.231	368.689	84.001	335.543	123.772	383.323	0.0010574	0.00038579	0.00015677	1326.5	4.9499e-06	4.6195e-06	1332.6	364.51	7.8399e-06	5.5853e-06	414.57	134.89	116.98	39.091	4.8866e-06	49.428	0.00098742	0.0011941	0.00036159	1357.1	1.2077e-05	1.4334e-05	1357.2	372.35	1.1881e-05	1.4298e-05	424.82	138.37	120.07	40.492	1.2994e-05	51.215	104.976	174.870	176.839	96.313	221.836	236.151	95.803	100.803	216.539	234.270	100.351	104.477	105.037	109.631	209.477	108.843	-8191	255	
51109.406	1	1	0	0	0.17759	0.13006	0.37992	0.18974	0.19802	0.13094	0.095996	0.21759	0.081112	0.066086	0.074439	0.053524	0.20281	0.20466	0.1586	0.09479	-2.9958	-3.3604	-2.6583	-3.7417	-3.1521	-2.8688	-3.975	-2.8583	-3.2562	-3.5375	-2.8875	-3.6437	-3.1229	-2.9729	-3.6729	-3.0229	206.854	246.660	365.437	390.344	322.951	178.790	404.945	86.836	256.152	170.148	152.503	369.157	332.177	273.781	171.926	391.641	0.0010736	0.00059675	0.00015599	1329.7	6.4587e-06	4.653e-06	1336.7	363.38	6.8023e-06	5.4563e-06	414.38	135.85	117.08	39.261	6.2783e-06	49.651	0.0009914	0.0012462	0.00036697	1358.5	1.2201e-05	1.4575e-05	1357.8	372.4	1.1841e-05	1.4145e-05	425.31	138.63	120.1	40.478	1.2416e-05	51.286	105.069	160.381	168.671	96.130	212.729	245.352	95.732	100.959	215.801	238.202	100.376	104.503	105.174	109.913	231.652	108.816	-8191	255	
51109.504	1	1	0	0	0.20234	0.34544	0.10622	0.19988	0.13212	0.082092	0.32219	0.11908	0.14075	0.23921	0.22629	0.064933	0.20063	0.21164	0.12829	0.017712	-2.8646	-3.5021	-2.7062	-3.4729	-3.0812	-2.85	-3.8021	-3.0333	-3.1104	-3.6521	-2.8229	-3.4333	-3.325	-2.9604	-3.6083	-3.0792	104.200	144.720	182.077	416.319	215.513	164.398	411.812	424.305	210.636	194.600	360.377	97.296	206.176	387.421	415.842	287.467	0.0010816	0.00054623	9.0107e-05	1328.8	5.5062e-06	4.8282e-06	1335.3	364.22	6.6172e-06	5.297e-06	413.91	135.75	117.65	39.058	6.3383e-06	49.216	0.001	0.0012555	0.00036366	1357.5	1.2039e-05	1.475e-05	1357.8	372.35	1.2397e-05	1.4324e-05	424.67	138.63	120.44	40.419	1.2345e-05	51.134	105.636	162.320	193.013	96.224	218.464	234.451	96.048	100.957	208.751	251.712	100.393	105.013	105.323	109.989	219.199	109.060	-8191	255	
51109.598	1	1	0	0	0.18952	0.18823	0.025996	0.1972	0.1757	0.18847	0.18604	0.22398	0.11742	0.11783	0.30017	0.079828	0.073928	0.090193	0.12497	0.078123	-2.8042	-3.5875	-2.85	-3.6333	-3.3292	-2.775	-3.7625	-3.2042	-3.0833	-3.5687	-2.8146	-3.4562	-3.3438	-2.9188	-3.5479	-3.1562	258.341	279.995	291.430	396.818	408.937	367.790	390.657	410.740	183.697	220.465	415.644	150.593	229.079	386.331	272.961	375.655	0.00099075	0.00027078	0.00011463	1332.1	6.7315e-06	4.8253e-06	1329.3	363.19	6.6962e-06	5.1723e-06	415.25	134.87	117.21	39.263	7.0379e-06	49.469	0.00097147	0.0012015	0.00035617	1359.4	1.1779e-05	1.4644e-05	1357.1	371.92	1.2146e-05	1.3861e-05	425.57	138.28	120.14	40.501	1.2559e-05	51.099	105.290	180.181	181.474	96.393	220.213	232.927	96.001	100.989	222.136	241.287	100.322	104.872	105.114	110.021	215.707	108.876	-8191	255	
51109.695	1	1	0	0	0.094602	0.11454	0.21702	0.12679	0.33703	0.14704	0.22356	0.2261	0.19362	0.34097	0.20733	0.12332	0.06305	0.1516	0.17756	0.1358	-2.6229	-3.5458	-2.7438	-3.5187	-3.4458	-2.6458	-3.7938	-3.3417	-2.7917	-3.675	-2.9354	-3.1312	-3.625	-2.6396	-3.5563	-3.2979	354.928	220.618	149.010	371.211	170.038	114.853	395.378	373.171	329.304	318.281	95.827	383.147	424.730	349.778	269.181	357.587	0.0010565	0.00050624	0.00014362	1330.8	6.758e-06	4.7974e-06	1331.3	363.63	7.0397e-06	3.6733e-06	412.15	135.01	117.09	39.198	5.5402e-06	49.448	0.00099062	0.0012691	0.0003541	1357.4	1.1691e-05	1.4928e-05	1357.9	372.18	1.2239e-05	1.4369e-05	423.6	138.5	119.92	40.481	1.2648e-05	51.11	103.932	164.447	177.898	96.112	218.818	254.240	96.069	100.850	220.221	234.671	100.265	104.928	105.105	109.918	218.631	108.891	-8191	255	
51109.816	1	1	0	0	0.1016	0.19474	0.11091	0.20524	0.18999	0.21514	0.2784	0.18292	0.14923	0.1439	0.13912	0.25912	0.10411	0.3109	0.071151	0.20694	-2.3604	-3.6063	-2.8792	-3.4146	-3.575	-2.8292	-3.4708	-3.5292	-2.8917	-3.7458	-2.9875	-3.0708	-3.725	-2.8375	-3.4146	-3.3208	207.284	156.910	145.937	376.616	106.105	136.234	390.263	425.204	429.628	268.370	372.805	364.069	189.327	87.288	348.438	398.285	0.001058	0.00047008	0.00013165	1329.4	6.2462e-06	4.1944e-06	1335.4	364.25	7.4819e-06	4.9407e-06	412.41	134.75	117.88	39.177	6.4828e-06	49.319	0.0010014	0.0012349	0.00034905	1358.1	1.2056e-05	1.4688e-05	1359.3	373.08	1.2298e-05	1.4202e-05	424.61	138.36	120.58	40.518	1.27e-05	51.125	104.021	174.463	169.103	96.063	213.894	208.127	95.944	100.744	227.480	250.330	100.361	104.789	105.223	109.847	231.045	109.079	-8191	255	
51109.887	1	1	0	0	0.041335	0.060474	0.18849	0.079946	0.064318	0.24972	0.17187	0.11739	0.21593	0.097124	0.092237	0.10036	0.097623	0.18621	0.099392	0.13037	-2.4854	-3.6875	-2.9938	-3.2125	-3.6229	-2.7021	-3.5958	-3.5021	-2.7458	-3.6146	-3.2104	-3.0812	-3.7667	-2.7229	-3.2479	-3.6604	361.109	349.333	402.659	415.772	126.435	351.840	126.565	431.034	173.183	324.945	109.225	403.080	378.617	91.283	126.794	173.596	0.0010632	0.00060685	0.00010781	1331.2	4.8874e-06	3.8332e-06	1334.4	363.51	5.5044e-06	3.932e-06	413.78	135.29	117.38	39.195	6.6405e-06	49.381	0.0010215	0.0012929	0.00035138	1358	1.1883e-05	1.513e-05	1360	372.28	1.257e-05	1.4752e-05	424.8	138.45	120.35	40.531	1.2742e-05	51.162	104.611	167.673	200.435	96.211	232.161	231.119	95.985	100.876	223.782	225.751	100.272	104.889	105.121	109.978	219.615	108.872	-8191	255	
51110.008	1	1	0	0	0.22495	0.11923	0.065361	0.25911	0.18991	0.15156	0.15238	0.1671	0.20958	0.091445	0.15497	0.24799	0.14306	0.10845	0.18665	0.36342	-2.4958	-3.5458	-3.3625	-3.0229	-3.65	-2.9146	-3.4708	-3.8354	-2.725	-3.4313	-3.3667	-2.9146	-3.7292	-3.0167	-3.075	-3.6188	288.193	198.019	310.676	428.318	240.200	394.819	406.410	397.963	359.525	389.924	307.386	382.678	208.346	98.795	192.778	401.738	0.0010038	0.00039472	0.00014739	1331.7	5.5248e-06	3.9243e-06	1336	363.4	6.4093e-06	5.3941e-06	414.91	135.24	117.76	38.999	6.851e-06	49.43	0.0010119	0.0012502	0.0003508	1359.5	1.1911e-05	1.4632e-05	1360.6	372.37	1.2076e-05	1.4485e-05	424.74	138.49	120.26	40.465	1.3102e-05	51.106	106.242	165.618	162.204	96.312	226.333	250.318	95.988	100.992	218.388	224.266	100.256	104.882	105.031	109.764	229.325	108.842	-8191	255	
51110.102	1	1	0	0	0.10032	0.29348	0.036086	0.25156	0.12747	0.07182	0.20679	0.16469	0.16349	0.30606	0.1056	0.18336	0.17744	0.1792	0.20312	0.26521	-2.4479	-3.5771	-3.3396	-2.675	-3.5646	-3.1833	-3.1292	-3.7917	-2.8438	-3.5771	-3.4021	-2.6	-3.6063	-3.0042	-3.0229	-3.7271	155.496	402.073	216.857	198.811	280.357	130.727	330.068	91.348	408.460	341.386	301.083	339.999	302.433	407.425	296.982	346.651	0.0010232	0.00056006	0.0001632	1329.7	5.7218e-06	4.8865e-06	1334.8	363.46	7.2217e-06	4.758e-06	412.36	135.52	117.73	39.058	6.3535e-06	49.416	0.0010204	0.0012497	0.00035468	1357.2	1.1963e-05	1.4604e-05	1359.4	372.37	1.2613e-05	1.4298e-05	424.66	138.63	120.39	40.511	1.2855e-05	51.246	105.486	176.591	159.358	96.175	205.239	243.408	96.064	100.909	222.335	220.506	100.303	104.866	105.047	109.744	228.058	108.803	-8191	255	
51110.199	1	1	0	0	0.12831	0.099239	0.18944	0.18729	0.16486	0.23069	0.038067	0.17275	0.11017	0.31236	0.19299	0.29202	0.14139	0.28003	0.094493	0.14356	-2.7292	-3.2396	-3.4042	-2.8229	-3.5938	-3.0958	-3.2333	-3.925	-2.8438	-3.1875	-3.4229	-2.8333	-3.525	-3.3292	-2.9167	-3.7729	320.860	324.802	126.371	386.399	245.159	319.338	335.661	310.339	233.587	422.447	389.724	386.632	93.504	387.483	118.511	401.123	0.0010607	0.00041894	0.00015019	1328.7	5.6804e-06	5.0296e-06	1332.7	363.27	7.1473e-06	5.5096e-06	412.54	135.69	117.46	39.008	5.5041e-06	49.532	0.0010144	0.0012352	0.0003585	1358	1.1991e-05	1.4644e-05	1357.9	372.65	1.2337e-05	1.4457e-05	424.76	138.76	120.41	40.426	1.3061e-05	51.128	105.137	176.500	167.221	96.218	227.336	239.557	95.898	100.982	220.994	239.402	100.251	104.801	105.037	109.763	230.940	109.118	-8191	255	
51110.297	1	1	0	0	0.1073	0.23503	0.24057	0.13324	0.10312	0.12081	0.18028	0.24732	0.033315	0.20027	0.18428	0.11663	0.22901	0.12572	0.24152	0.25089	-2.5062	-3.0667	-3.5083	-3.0646	-3.4104	-3.2792	-3.0021	-3.8688	-2.9542	-3.0833	-3.5812	-2.8167	-3.5625	-3.3833	-2.6375	-3.6167	276.237	90.912	442.211	116.258	164.826	101.359	108.970	367.755	353.220	134.613	437.470	422.074	113.470	243.553	416.492	422.494	0.00097877	0.00033911	0.00013329	1334.6	6.8421e-06	2.1638e-06	1329.4	364.63	5.6342e-06	5.6831e-06	414.3	135.69	117.43	39.037	6.3271e-06	49.631	0.00099575	0.0012772	0.00034691	1359.1	1.2205e-05	1.4139e-05	1358.2	372.58	1.1926e-05	1.4673e-05	425.32	138.3	120.49	40.454	1.298e-05	51.243	103.420	197.487	207.856	96.128	211.715	237.984	96.057	100.800	214.860	237.583	100.333	104.797	105.111	109.807	233.884	108.927	-8191	255	
51110.414	1	1	0	0	0.08421	0.1652	0.1869	0.25668	0.071027	0.16971	0.30472	0.21289	0.22469	0.053885	0.21659	0.18186	0.12224	0.10281	0.091627	0.29897	-2.6208	-2.9479	-3.5563	-2.9125	-3.2417	-3.3604	-2.8896	-3.8667	-3.0917	-3.1167	-3.7812	-3.0333	-3.3021	-3.6042	-2.5979	-3.7104	191.879	130.683	375.333	418.651	165.384	431.324	411.221	367.358	148.469	375.425	353.361	129.490	413.316	395.979	250.983	389.020	0.001042	0.00038165	0.00015694	1330.7	6.4069e-06	5.3285e-06	1335.4	364.68	7.4124e-06	4.1627e-06	413.65	135.06	117.59	39.132	7.5722e-06	49.376	0.00099016	0.0012293	0.00034429	1358.4	1.1907e-05	1.3909e-05	1358.9	373.18	1.2035e-05	1.4495e-05	424.62	138.44	120.46	40.459	1.3246e-05	51.154	106.310	170.811	189.631	96.131	222.131	223.352	95.885	101.019	220.471	227.769	100.148	104.766	105.387	109.629	228.895	108.961	-8191	255	
51110.512	1	1	0	0	0.063739	0.11351	0.075043	0.091155	0.24246	0.14711	0.073608	0.18812	0.028279	0.18252	0.070718	0.11693	0.05839	0.098918	0.22113	0.22183	-2.8625	-2.8479	-3.7396	-2.9667	-3.3063	-3.5062	-2.8187	-3.7125	-3.1271	-2.6854	-3.7583	-3.0354	-3.0458	-3.5729	-2.6833	-3.6354	391.065	143.292	347.640	178.353	249.382	184.851	280.280	364.698	221.563	388.144	282.025	95.662	261.854	397.008	207.366	196.266	0.0010362	0.00052532	0.00011258	1329.6	5.3185e-06	4.744e-06	1331.7	364.89	6.9614e-06	5.3567e-06	414.82	135.31	117.68	39.246	7.9679e-06	49.57	0.00099047	0.0012939	0.00034683	1357.8	1.1661e-05	1.4149e-05	1359.4	372.78	1.1989e-05	1.4676e-05	425.3	138.63	120.3	40.5	1.26e-05	51.18	104.894	168.957	175.578	96.322	224.022	206.663	95.951	100.951	225.649	231.288	100.281	104.849	105.323	110.070	209.179	109.105	-8191	255	
51110.586	1	1	0	0	0.41481	0.2146	0.17084	0.34748	0.096537	0.25341	0.18075	0.13091	0.26829	0.11849	0.21556	0.16384	0.033112	0.21309	0.21626	0.14687	-2.8458	-2.6771	-3.5542	-3.2313	-3.0917	-3.3708	-2.9979	-3.5104	-3.3708	-2.7292	-3.7271	-2.9625	-3.0104	-3.5396	-2.6937	-3.55	234.666	189.452	428.655	87.154	256.942	260.714	376.266	379.189	306.264	86.477	104.237	442.472	364.919	403.426	149.882	324.118	0.0010302	0.00059264	0.00012513	1332.9	5.1395e-06	4.9205e-06	1327.5	364.06	6.04e-06	5.3217e-06	415.91	135.73	117.62	39.202	5.4255e-06	49.405	0.00098509	0.0012983	0.00035378	1358.1	1.1721e-05	1.3879e-05	1357.2	372.84	1.1827e-05	1.4795e-05	426.16	138.58	120.59	40.555	1.2678e-05	51.08	102.884	160.859	178.724	96.300	215.285	237.209	95.848	100.925	219.901	238.840	100.460	104.989	105.324	109.837	223.558	109.218	-8191	255	
51110.680	1	1	0	0	0.1811	0.2175	0.11779	0.28364	0.17722	0.15904	0.2998	0.35062	0.15121	0.35546	0.21397	0.053455	0.21383	0.12534	0.13439	0.27148	-3.1979	-2.5458	-3.6042	-3.2708	-3.0812	-3.6625	-2.9896	-3.5187	-3.5125	-2.8854	-3.6792	-3.325	-2.8708	-3.7229	-2.9562	-3.2958	393.372	358.461	436.355	399.867	354.604	228.213	361.657	351.752	388.514	322.093	126.522	398.436	433.268	416.338	257.147	347.730	0.001032	0.0005078	0.00014942	1332.8	5.6822e-06	4.4225e-06	1338.9	365.57	8.2287e-06	4.0041e-06	414.17	135.55	117.92	39.192	5.6732e-06	49.436	0.00098074	0.0012754	0.00033444	1359.2	1.171e-05	1.3867e-05	1359.7	373.12	1.1921e-05	1.4752e-05	425.7	138.64	120.55	40.558	1.2788e-05	51.196	103.730	161.393	191.667	96.084	223.349	241.642	96.155	101.021	220.936	236.386	100.479	104.756	105.376	109.982	219.467	108.959	-8191	255	
51110.801	1	1	0	0	0.094222	0.29817	0.26119	0.38579	0.19242	0.059626	0.2227	0.096016	0.16114	0.05197	0.19976	0.15265	0.2066	0.24501	0.040047	0.12051	-3.225	-2.7667	-3.55	-3.4667	-2.7812	-3.7521	-3.15	-3.3104	-3.7167	-2.85	-3.6521	-3.3292	-2.8688	-3.5104	-3.1146	-3.125	409.780	129.363	219.892	442.050	105.942	173.892	399.861	382.008	177.553	360.179	436.292	384.984	401.922	441.384	417.781	361.959	0.0010529	0.00048862	0.0001278	1330.6	5.0558e-06	5.1185e-06	1335.6	366.45	6.7236e-06	4.5047e-06	413.26	134.75	117.64	39.267	4.5456e-06	49.212	0.00097308	0.0013115	0.00034378	1357.6	1.1779e-05	1.4131e-05	1358.9	373.33	1.1728e-05	1.4369e-05	425.44	138.25	120.43	40.548	1.2911e-05	51.154	105.246	164.336	167.316	96.233	214.028	248.824	96.204	101.179	216.793	244.107	100.208	104.507	105.512	110.008	233.707	109.166	-8191	255	
51110.895	1	1	0	0	0.15198	0.065976	0.30505	0.32897	0.17952	0.17216	0.13888	0.2784	0.19507	0.15224	0.12232	0.076476	0.15294	0.081371	0.069954	0.23887	-3.4708	-2.6646	-3.3604	-3.4792	-2.9083	-3.675	-3.075	-3.0646	-3.4729	-2.8958	-3.5667	-3.4813	-2.8083	-3.6292	-3.1375	-2.8896	221.835	317.757	361.402	99.730	371.484	378.286	336.530	412.525	278.963	181.338	410.529	138.016	415.367	98.525	339.088	412.092	0.0010365	0.00049963	0.00010231	1329.2	7.0877e-06	5.1616e-06	1338.7	364.59	5.3957e-06	5.0588e-06	413.58	135.38	117.66	39.337	4.3854e-06	49.505	0.00098007	0.0012824	0.00033237	1356.6	1.2567e-05	1.3525e-05	1359.3	372.76	1.1888e-05	1.4849e-05	424.75	138.45	120.48	40.567	1.2467e-05	51.198	105.653	182.186	165.854	96.255	227.042	240.096	95.887	100.975	224.584	239.665	100.467	104.679	105.186	110.161	242.353	109.041	-8191	255	
51110.992	1	1	0	0	0.031516	0.22829	0.14205	0.28056	0.14057	0.28374	0.26691	0.18296	0.27568	0.29107	0.21158	0.14716	0.082158	0.015416	0.19008	0.43496	-3.2625	-2.8479	-3.1875	-3.8146	-2.8417	-3.6333	-3.2979	-2.9792	-3.5625	-2.8083	-3.3104	-3.5896	-2.85	-3.6688	-3.0771	-2.9667	180.797	290.055	346.433	402.765	340.444	228.025	430.220	313.961	91.606	122.451	95.277	305.838	418.347	392.947	109.069	152.697	0.000991	0.00051816	0.00014691	1330.7	7.766e-06	5.0564e-06	1337.1	364.85	6.9111e-06	4.7842e-06	413.85	134.95	118.07	39.088	6.9004e-06	49.437	0.00098576	0.001241	0.0003444	1358	1.2232e-05	1.4099e-05	1359.9	372.61	1.1731e-05	1.437e-05	425.2	138.39	120.47	40.52	1.222e-05	51.154	104.443	175.808	168.110	96.248	212.582	229.454	96.100	100.964	229.148	233.085	100.438	104.643	105.153	110.072	224.655	109.026	-8191	255	
51111.086	1	1	0	0	0.21877	0.071652	0.22933	0.32092	0.080485	0.09958	0.20434	0.20384	0.15649	0.15155	0.1945	0.086882	0.032561	0.20547	0.098233	0.2495	-3.3438	-2.8604	-3.0729	-3.7208	-2.6937	-3.4729	-3.5771	-2.9333	-3.7	-3.1479	-3.1688	-3.5646	-2.9125	-3.5062	-3.5229	-3.0271	336.605	210.444	318.317	356.167	319.456	153.349	112.353	391.639	231.119	181.631	150.041	280.782	414.903	426.473	151.552	365.611	0.00095149	0.00043906	0.00012725	1330.7	5.6798e-06	3.7894e-06	1337.5	363.87	8.1348e-06	4.1988e-06	414.1	135.27	118.03	39.331	6.6457e-06	49.402	0.00094958	0.0012273	0.00035392	1357.2	1.2415e-05	1.4342e-05	1359.5	372.52	1.1897e-05	1.3944e-05	425.5	138.75	120.53	40.568	1.2377e-05	51.206	104.943	169.281	159.446	96.455	221.189	249.182	95.929	101.034	225.820	244.093	100.436	104.562	105.361	110.088	242.635	108.960	-8191	255	
51111.184	1	1	0	0	0.050792	0.032649	0.031259	0.20427	0.087016	0.26131	0.19175	0.14195	0.14808	0.24256	0.26797	0.15891	0.18293	0.095913	0.037904	0.29375	-3.3854	-3.0271	-3	-3.8542	-2.9625	-3.1125	-3.7479	-2.8042	-3.5875	-3.0625	-3.0604	-3.7125	-3.0208	-3.2667	-3.5958	-3.0208	183.882	195.253	324.069	405.203	161.081	132.277	427.229	400.683	144.383	154.546	319.681	303.444	156.326	252.977	132.296	344.574	0.0010432	0.00054888	0.00014194	1331.4	5.611e-06	6.1654e-06	1336.6	363.93	7.1689e-06	5.7405e-06	415.69	135.24	117.5	39.308	6.0555e-06	49.354	0.00097256	0.0012088	0.00034607	1358.9	1.2121e-05	1.4103e-05	1361	372.67	1.1982e-05	1.406e-05	425.35	138.52	120.31	40.606	1.2489e-05	51.186	104.680	169.413	165.195	96.271	230.584	246.217	95.988	101.008	227.474	240.412	100.408	104.875	105.257	109.904	223.531	108.793	-8191	255	
51111.281	1	1	0	0	0.10037	0.086527	0.031347	0.062039	0.15621	0.084385	0.094846	0.26397	0.25925	0.22428	0.062958	0.14897	0.12913	0.10437	0.094915	0.26741	-3.2646	-3.1937	-2.7687	-3.5938	-2.9271	-3.1979	-3.7042	-2.8292	-3.5312	-3.2021	-2.9354	-3.5667	-3.1792	-3.0979	-3.4083	-2.8167	261.093	338.318	207.309	404.126	309.246	154.129	332.297	395.622	289.340	339.474	130.290	428.068	403.183	176.007	442.134	396.365	0.0010396	0.00055468	0.0001164	1332.5	6.3418e-06	5.1114e-06	1327.5	365.07	5.8804e-06	4.4245e-06	413.44	135.97	117.92	39.171	6.1324e-06	49.357	0.0009722	0.0012288	0.00035679	1359.6	1.2179e-05	1.3838e-05	1357.6	372.71	1.1924e-05	1.3713e-05	425.12	138.66	120.59	40.564	1.27e-05	51.145	104.682	174.736	174.562	96.392	213.437	238.474	96.158	101.093	221.334	203.823	100.370	104.906	105.149	110.165	233.347	109.102	-8191	255	
51111.375	1	1	0	0	0.099427	0.17036	0.33642	0.23998	0.13292	0.17676	0.053422	0.20985	0.3409	0.14764	0.13795	0.051271	0.057834	0.14003	0.11447	0.090056	-3.0958	-3.3	-2.7208	-3.75	-2.8417	-2.925	-3.8208	-2.9417	-3.2354	-3.3854	-2.7854	-3.5146	-3.1333	-3.0771	-3.4813	-2.825	149.635	325.495	347.194	363.980	115.172	279.960	425.355	163.079	337.744	256.771	361.195	354.519	113.060	88.399	427.106	273.855	0.0010359	0.0005316	0.00013297	1329	7.4249e-06	5.4931e-06	1336.8	364.13	6.2078e-06	7.2406e-06	414.12	135.05	117.63	39.376	6.4892e-06	49.551	0.00098462	0.0012379	0.00034898	1357.6	1.2108e-05	1.5069e-05	1360.7	372.88	1.2038e-05	1.4344e-05	424.97	138.54	120.26	40.645	1.2103e-05	51.186	105.986	182.833	177.428	96.490	219.797	235.355	96.144	100.889	217.429	240.130	100.138	104.706	105.376	110.039	217.395	109.007	-8191	255	
51111.496	1	1	0	0	0.12172	0.25076	0.01432	0.18136	0.14092	0.10791	0.10302	0.15022	0.046306	0.16783	0.1401	0.10157	0.20915	0.2892	0.013961	0.12899	-2.8312	-3.4458	-2.5667	-3.6917	-3.3167	-3.1125	-3.8917	-3.0729	-3.2375	-3.5583	-2.8479	-3.6896	-3.1417	-2.9042	-3.5146	-2.85	270.739	381.244	321.765	412.254	441.927	217.910	420.741	374.660	115.304	159.556	361.986	142.577	387.254	249.515	284.332	332.116	0.0010384	0.00057448	0.00017599	1330.3	6.8101e-06	5.4296e-06	1335.9	364.43	7.3843e-06	5.481e-06	412.88	136.25	117.52	39.304	5.9299e-06	49.538	0.00098265	0.0012296	0.00034382	1358.4	1.1674e-05	1.4763e-05	1360.5	372.92	1.2168e-05	1.3647e-05	424.85	138.81	120.5	40.574	1.2553e-05	51.159	104.223	165.723	171.053	96.280	225.750	224.230	96.043	101.012	224.546	228.621	100.611	104.918	105.416	110.008	230.604	108.973	-8191	255	
51111.590	1	1	0	0	0.44256	0.24388	0.2398	0.21191	0.22316	0.3577	0.13415	0.15498	0.10048	0.25225	0.16275	0.14222	0.1289	0.22804	0.1356	0.029474	-2.8583	-3.4396	-2.6625	-3.5208	-3.3604	-2.7812	-3.7125	-3.175	-3.1833	-3.5896	-2.8438	-3.3979	-3.5	-2.8708	-3.6271	-3.1625	231.894	212.767	333.067	354.951	121.216	353.709	368.993	229.019	424.705	112.271	117.051	128.694	392.130	386.321	363.134	324.221	0.0010338	0.00050133	0.00013301	1331.7	6.338e-06	3.124e-06	1334.9	364.16	6.8493e-06	5.2174e-06	414.17	135.77	117.6	39.109	7.9231e-06	49.435	0.00099404	0.0012391	0.0003593	1358.9	1.1787e-05	1.4574e-05	1359.9	372.74	1.2135e-05	1.4156e-05	425.15	138.75	120.33	40.567	1.2379e-05	51.275	103.690	169.400	177.991	96.360	207.765	235.259	96.267	101.147	225.276	229.227	100.287	104.633	105.034	110.036	215.347	108.983	-8191	255	
51111.688	1	1	0	0	0.17702	0.11181	0.085583	0.074139	0.17358	0.043585	0.20617	0.22166	0.093202	0.21921	0.18064	0.045025	0.28641	0.19902	0.055466	0.16873	-2.7792	-3.5938	-2.6896	-3.4833	-3.4813	-2.6917	-3.7062	-3.0854	-2.825	-3.5917	-2.9313	-3.2542	-3.4917	-2.6937	-3.5563	-3.2208	259.897	250.486	141.256	121.313	380.151	192.323	278.266	409.837	186.299	314.519	361.956	166.787	439.219	398.141	199.833	213.135	0.00098975	0.00049599	0.00013421	1332.4	7.4866e-06	4.4859e-06	1336.5	365.35	5.4297e-06	4.2255e-06	414.43	135.8	117.46	39.275	6.9344e-06	49.488	0.00098462	0.0012564	0.00036704	1361.4	1.2203e-05	1.4817e-05	1361.3	373.12	1.203e-05	1.3953e-05	426.09	139	120.57	40.653	1.2671e-05	51.267	107.091	171.798	186.618	96.332	234.452	221.656	96.201	100.880	222.708	205.943	100.257	104.934	105.291	109.875	217.257	108.873	-8191	255	
51111.781	1	1	0	0	0.15154	0.38213	0.19896	0.32804	0.099458	0.061434	0.33415	0.27471	0.14721	0.11199	0.29503	0.19705	0.15559	0.19636	0.19592	0.1592	-2.4417	-3.4729	-2.9729	-3.3625	-3.5271	-2.6042	-3.6063	-3.4458	-2.8042	-3.5542	-3.1188	-3.2417	-3.5042	-2.9437	-3.4375	-3.2562	176.036	128.179	261.613	422.328	147.658	105.976	419.716	413.559	235.524	124.017	84.417	374.875	409.011	337.912	340.791	361.728	0.00099926	0.00042851	0.00012709	1334.1	6.5997e-06	4.0098e-06	1339	364.77	6.2604e-06	5.6632e-06	414.03	135.61	117.79	39.359	5.0875e-06	49.378	0.0009883	0.0012515	0.00036213	1360.5	1.1878e-05	1.4536e-05	1362.9	373.42	1.2338e-05	1.4078e-05	425.07	138.79	120.55	40.603	1.2787e-05	51.153	104.578	172.020	183.702	96.317	210.690	245.362	96.186	101.035	222.303	248.421	100.324	105.012	105.359	110.076	195.971	108.727	-8191	255	
51111.879	1	1	0	0	0.31727	0.04382	0.23123	0.2644	0.12336	0.28295	0.21055	0.20202	0.14617	0.026528	0.17627	0.08477	0.1871	0.17868	0.21655	0.25244	-2.3917	-3.6583	-3.0542	-3.2417	-3.5729	-2.8333	-3.5417	-3.3792	-2.5312	-3.5979	-3.1292	-3.0875	-3.7479	-2.65	-3.3688	-3.5771	365.356	305.941	135.417	400.688	319.200	233.758	404.433	326.903	319.189	277.823	194.327	195.520	183.796	121.644	212.509	100.188	0.0010746	0.00058842	0.0001194	1331.6	5.034e-06	3.1448e-06	1331.6	365.29	5.7782e-06	4.5258e-06	415.6	135.03	117.5	39.245	5.1054e-06	49.312	0.0010015	0.001219	0.00036035	1358.8	1.1903e-05	1.4765e-05	1359.9	372.78	1.2521e-05	1.4158e-05	425.65	138.57	120.37	40.6	1.2729e-05	51.089	105.539	163.393	158.054	96.335	224.216	239.798	96.145	101.029	231.012	205.370	100.632	104.748	105.522	109.983	227.482	109.022	-8191	255	
51111.977	1	1	0	0	0.16369	0.17308	0.25257	0.0045991	0.1711	0.083003	0.31966	0.22785	0.1127	0.22672	0.11592	0.22413	0.33525	0.16105	0.26806	0.12273	-2.2938	-3.3875	-2.9646	-2.9354	-3.7833	-2.7854	-3.4188	-3.5979	-2.7646	-3.4729	-3.2833	-2.9188	-3.6396	-3.1312	-3.0167	-3.5479	116.285	339.376	219.634	391.483	116.005	320.111	422.902	358.851	379.704	411.023	90.635	193.633	377.145	346.457	270.353	88.311	0.0010465	0.00051184	9.0754e-05	1331	5.6025e-06	5.3798e-06	1335	364.83	7.9387e-06	4.6105e-06	412.67	135.08	117.9	39.26	6.2218e-06	49.526	0.00099094	0.0012592	0.00035465	1360.1	1.2022e-05	1.423e-05	1361.5	373.14	1.2465e-05	1.4323e-05	425.03	138.59	120.67	40.63	1.2745e-05	51.141	105.974	166.946	180.823	96.317	216.768	239.127	96.087	101.223	221.892	233.995	100.352	105.164	105.491	110.033	224.670	109.146	-8191	255	
51112.098	1	1	0	0	0.20711	0.29507	0.072642	0.33376	0.20063	0.093004	0.30153	0.17836	0.2302	0.077425	0.21409	0.16569	0.10811	0.12881	0.19731	0.084755	-2.4021	-3.3833	-3.1917	-2.8458	-3.6458	-2.9521	-3.375	-3.6667	-2.6417	-3.375	-3.6146	-2.8312	-3.5625	-3.05	-3.0417	-3.55	377.253	158.371	339.730	122.353	91.985	298.679	356.842	340.863	152.008	262.591	437.349	416.259	104.918	442.009	262.730	246.693	0.0010497	0.00048148	0.00016399	1329.5	6.1506e-06	4.9999e-06	1330.5	363.59	5.3223e-06	6.0795e-06	416.65	135.55	117.76	39.284	4.9165e-06	49.203	0.0010346	0.0012353	0.00034854	1360	1.2076e-05	1.4062e-05	1359.6	372.89	1.2576e-05	1.4252e-05	426.03	138.77	120.64	40.545	1.2669e-05	51.063	105.775	155.030	172.649	96.309	221.904	229.662	96.222	101.054	225.543	240.013	100.234	104.740	105.318	110.179	221.239	108.997	-8191	255	
51112.191	1	1	0	0	0.11284	0.074588	0.11003	0.19446	0.21545	0.17126	0.094921	0.48375	0.26029	0.12166	0.058986	0.20611	0.27798	0.1153	0.18645	0.11497	-2.3208	-3.3375	-3.4188	-2.8333	-3.4792	-3.1021	-3.1042	-3.6396	-2.8042	-3.4062	-3.4771	-2.9083	-3.6083	-3.2833	-2.7708	-3.7792	102.472	428.882	331.044	357.116	390.324	280.322	200.630	362.112	137.400	162.215	361.326	139.674	396.364	354.478	205.871	278.062	0.00099817	0.00035506	0.00015149	1330.3	6.7803e-06	4.1872e-06	1329	365.62	7.1973e-06	3.8799e-06	413.03	136.11	117.73	39.314	4.8209e-06	49.292	0.00099451	0.0012432	0.00033804	1358.8	1.2103e-05	1.4832e-05	1358.8	373.17	1.2173e-05	1.4332e-05	425.24	138.81	120.35	40.56	1.2827e-05	51.12	106.073	164.482	168.054	96.212	218.616	246.936	96.188	100.873	224.988	229.152	100.404	104.916	105.241	110.183	212.146	109.001	-8191	255	
51112.289	1	1	0	0	0.078405	0.35797	0.050907	0.17133	0.25991	0.18779	0.11242	0.16929	0.15161	0.11102	0.038202	0.3404	0.087735	0.17075	0.10268	0.078021	-2.4167	-3.2625	-3.5104	-2.8688	-3.3646	-3.175	-3.0021	-3.8063	-2.9958	-3.1	-3.6521	-2.7958	-3.6	-3.3417	-2.7896	-3.7188	218.641	100.640	202.402	392.880	433.230	379.748	425.791	108.433	155.138	271.044	339.550	389.467	327.153	251.355	210.775	129.708	0.0010265	0.00035458	0.00015166	1329	7.2456e-06	3.8188e-06	1336.1	363.27	6.6263e-06	5.2256e-06	413.88	135.77	117.48	39.193	6.018e-06	49.274	0.0010113	0.0012522	0.00032859	1358.3	1.1949e-05	1.4556e-05	1360	372.76	1.2662e-05	1.4648e-05	425.12	138.6	120.27	40.524	1.2804e-05	51.161	105.289	184.557	173.388	96.300	216.618	229.822	96.135	101.245	214.156	228.798	100.430	104.783	105.275	110.378	232.585	109.214	-8191	255	
51112.383	1	1	0	0	0.096256	0.16133	0.084699	0.12412	0.11498	0.171	0.21276	0.28178	0.30717	0.13716	0.3312	0.047434	0.30345	0.18114	0.17043	0.17058	-2.6979	-2.8625	-3.6333	-3.0021	-3.325	-3.4396	-2.9417	-3.7562	-3.0792	-2.9208	-3.8271	-2.9562	-3.3583	-3.4562	-2.7167	-3.5521	346.858	180.137	238.817	400.422	247.765	99.051	405.162	399.171	87.664	253.376	387.096	169.572	371.335	90.243	351.887	313.477	0.0010093	0.00047338	0.00012597	1326.4	5.6451e-06	4.4011e-06	1326.1	364.54	6.6989e-06	5.2419e-06	413.82	135.24	117.54	39.036	6.7545e-06	49.466	0.00098007	0.001268	0.00034022	1355.6	1.195e-05	1.411e-05	1356.3	373.02	1.1901e-05	1.4364e-05	425.08	138.47	120.31	40.507	1.2956e-05	51.167	102.011	173.958	172.676	96.410	210.619	234.089	96.266	101.029	228.374	224.299	100.639	105.170	105.320	110.103	223.140	109.225	-8191	255	
51112.457	1	1	0	0	0.15213	0.21015	0.078619	0.033022	0.10468	0.25379	0.35843	0.17944	0.049754	0.073563	0.34278	0.18796	0.16815	0.1894	0.16895	0.048591	-2.7208	-2.9375	-3.7021	-2.9833	-3.3104	-3.5042	-2.9458	-3.5792	-3.0438	-3.0229	-3.625	-2.8958	-3.2146	-3.5104	-2.6375	-3.6208	186.014	272.041	125.147	388.702	346.762	111.488	404.460	400.821	241.627	123.671	369.132	369.472	431.540	142.922	178.880	128.767	0.001051	0.00053924	9.8357e-05	1331.1	6.9188e-06	3.2384e-06	1332.9	364.17	8.0255e-06	4.8443e-06	413.33	135.38	117.74	39.219	5.8325e-06	49.365	0.00099689	0.0012257	0.00033804	1358.1	1.1895e-05	1.3937e-05	1359.1	372.73	1.1884e-05	1.485e-05	424.6	138.45	120.55	40.607	1.3059e-05	51.18	106.334	162.589	175.913	96.534	215.053	238.267	96.303	100.992	228.241	230.095	100.481	104.885	105.424	110.137	233.819	109.222	-8191	255	
51112.574	1	1	0	0	0.18102	0.30525	0.13564	0.24548	0.079958	0.10744	0.27923	0.026293	0.24263	0.11602	0.13098	0.17455	0.096836	0.19898	0.30897	0.23621	-2.9417	-2.7562	-3.4604	-2.9854	-3.1896	-3.6729	-2.7292	-3.5625	-3.2604	-2.8688	-3.5812	-3.2417	-3.1375	-3.7417	-2.7833	-3.5062	326.567	389.453	402.301	348.266	300.653	128.473	418.234	96.788	201.110	319.716	181.404	107.285	243.780	119.700	131.058	334.262	0.0011195	0.00050302	0.00012699	1329	6.6643e-06	4.5115e-06	1333.1	364.79	6.7595e-06	4.0121e-06	414.49	135.61	118.01	39.111	6.0399e-06	49.313	0.0010001	0.0012177	0.00033975	1355.9	1.213e-05	1.3792e-05	1356.7	373.04	1.1786e-05	1.3829e-05	424.75	138.73	120.45	40.645	1.2842e-05	51.136	104.174	172.225	168.914	96.400	214.565	250.373	96.146	101.288	221.652	231.602	100.595	105.171	105.487	110.014	216.438	108.670	-8191	255	
51112.672	1	1	0	0	0.093809	0.040272	0.37528	0.248	0.094111	0.32022	0.29626	0.26056	0.10633	0.017366	0.060045	0.084731	0.13913	0.24831	0.11808	0.063396	-2.9688	-2.7354	-3.4583	-3.1312	-2.8396	-3.4896	-3.0938	-3.4667	-3.3042	-2.6771	-3.6896	-3.3979	-3.225	-3.7542	-2.9875	-3.3146	209.388	143.875	90.955	116.947	101.440	215.044	369.913	213.953	171.207	246.735	126.661	385.182	150.097	365.518	200.187	118.449	0.0010447	0.00054283	0.00013006	1326.8	5.3933e-06	4.9171e-06	1330.1	362.98	6.519e-06	6.1551e-06	412.27	135.21	117.55	39.261	5.1947e-06	49.404	0.0009839	0.0012465	0.00032252	1357.6	1.1529e-05	1.4111e-05	1357.9	372	1.1621e-05	1.4685e-05	424.73	138.45	120.41	40.641	1.2382e-05	51.157	103.404	177.743	184.221	95.997	215.835	241.505	95.855	100.827	221.552	227.190	100.362	104.441	105.059	110.015	224.347	108.792	-8191	255	
51112.770	1	1	0	0	0.1686	0.15065	0.075294	0.19932	0.052601	0.15768	0.22521	0.049955	0.078096	0.19853	0.13148	0.19729	0.13947	0.29293	0.21103	0.23801	-3.3521	-2.7625	-3.4625	-3.2146	-2.7667	-3.5604	-3.0896	-3.2875	-3.3625	-2.5583	-3.7417	-3.4083	-2.675	-3.5646	-2.9958	-3.1437	86.165	202.641	277.092	101.348	374.794	361.123	341.443	84.224	225.222	420.002	367.492	366.427	282.034	109.475	187.263	385.735	0.0010094	0.0004822	0.00013422	1332.1	5.7997e-06	4.4131e-06	1332.2	364.04	6.3161e-06	5.2276e-06	415.24	135.56	118.06	39.27	5.0504e-06	49.678	0.00095449	0.0012636	0.0003388	1357.4	1.1728e-05	1.3422e-05	1358.4	372.55	1.1711e-05	1.3869e-05	425.47	138.55	120.73	40.641	1.2186e-05	51.15	104.260	166.064	170.610	96.090	228.291	241.301	95.845	100.920	214.478	227.696	100.226	104.535	105.119	109.574	218.641	108.997	-8191	255	
51112.887	1	1	0	0	0.28856	0.18382	0.26273	0.3269	0.15196	0.044573	0.16614	0.25682	0.09946	0.11684	0.40081	0.012421	0.2843	0.18474	0.068188	0.07039	-3.1208	-2.6646	-3.4125	-3.4688	-2.7438	-3.5375	-3.1208	-3.0854	-3.5312	-2.9583	-3.4854	-3.4604	-2.975	-3.7396	-2.925	-3.1896	397.915	281.380	178.537	91.631	435.864	406.134	267.008	374.822	312.810	407.787	386.777	416.487	384.265	357.749	428.031	145.427	0.0010122	0.00052543	0.00017995	1327	4.1922e-06	5.2759e-06	1332.3	365.18	5.4675e-06	4.9131e-06	414	135.48	117.92	39.32	6.6515e-06	49.361	0.00095496	0.0012627	0.00033568	1355.8	1.1741e-05	1.3101e-05	1358.4	373.46	1.1334e-05	1.4662e-05	425.66	138.68	120.51	40.67	1.2105e-05	51.039	104.116	173.492	176.303	96.229	195.181	242.505	95.864	100.916	228.853	242.319	100.405	104.626	105.041	109.834	232.625	108.923	-8191	255	
51112.984	1	1	0	0	0.04927	0.15243	0.054142	0.47322	0.30707	0.22769	0.10826	0.43862	0.037747	0.27743	0.096363	0.078356	0.15237	0.19046	0.1627	0.19127	-3.1417	-2.6833	-3.3542	-3.6625	-2.8375	-3.5521	-3.5062	-2.9229	-3.7896	-2.8458	-3.2792	-3.5146	-2.8521	-3.5667	-3.25	-3.1271	108.982	214.542	240.483	396.684	246.873	439.577	346.082	391.532	209.773	109.338	424.921	421.555	438.031	90.614	367.609	257.902	0.0010336	0.00055714	0.00016778	1327.5	6.0081e-06	4.1567e-06	1331.7	364.9	6.0769e-06	4.5983e-06	412.51	135.14	117.31	39.276	4.2557e-06	49.705	0.00096992	0.0012098	0.00033183	1357.3	1.2065e-05	1.3909e-05	1357	373.31	1.1489e-05	1.4252e-05	425.04	138.61	120.47	40.646	1.212e-05	51.226	104.643	168.792	169.308	96.156	210.123	228.122	95.726	101.044	216.621	231.052	100.323	104.713	105.217	109.930	232.029	109.059	-8191	255	
51113.055	1	1	0	0	0.14798	0.29611	0.23988	0.12341	0.14454	0.21761	0.096066	0.43136	0.23296	0.30196	0.12472	0.21086	0.18156	0.14025	0.088089	0.26061	-3.1604	-2.7729	-3.0917	-3.5271	-2.7208	-3.4188	-3.4479	-3.0042	-3.6042	-3.0812	-2.9813	-3.6271	-2.8729	-3.4646	-3.2438	-2.8875	341.498	328.052	200.585	419.043	426.052	311.811	301.669	312.187	149.220	135.104	390.902	374.366	219.750	437.431	198.929	349.736	0.0010289	0.00061425	0.00011982	1324.7	8.5403e-06	4.3595e-06	1329.2	364.15	5.9862e-06	5.0376e-06	415.05	135.37	118.05	39.44	6.638e-06	49.339	0.00096987	0.0012309	0.00032772	1356.3	1.219e-05	1.3477e-05	1357.2	372.91	1.1341e-05	1.4362e-05	426.23	138.59	120.68	40.753	1.202e-05	51.071	105.729	188.519	169.989	96.137	227.670	231.405	96.046	101.019	214.506	242.300	100.437	104.719	105.229	109.763	212.074	108.870	-8191	255	
51113.176	1	1	0	0	0.28937	0.1418	0.072647	0.20701	0.32827	0.090915	0.079602	0.1083	0.18176	0.053506	0.079614	0.047501	0.12883	0.14223	0.01894	0.13764	-3.1542	-3.0021	-3.0896	-3.8583	-2.7729	-3.2958	-3.6875	-2.8229	-3.6896	-2.9708	-3.0146	-3.7479	-2.9271	-3.4062	-3.5167	-2.8937	266.142	271.921	135.191	326.842	118.502	281.978	119.593	330.567	330.268	225.059	169.476	422.471	367.194	92.698	90.063	374.413	0.0010501	0.00051883	0.00018015	1332.2	7.1787e-06	4.9397e-06	1330.1	364.71	7.2406e-06	5.9269e-06	415.62	135.41	118.07	39.394	6.1347e-06	49.286	0.00095108	0.0012724	0.00034102	1359.5	1.1996e-05	1.3491e-05	1359.2	373.13	1.1346e-05	1.4283e-05	425.87	138.76	120.61	40.704	1.1536e-05	51.145	104.417	161.797	167.816	96.293	203.200	233.557	96.106	100.871	215.622	244.943	100.312	104.849	105.349	110.133	218.107	108.928	-8191	255	
51113.273	1	1	0	0	0.36701	0.19669	0.19641	0.1684	0.23227	0.15663	0.038304	0.022288	0.21594	0.056692	0.20088	0.20971	0.076111	0.12331	0.18265	0.075644	-3.2938	-3.1562	-2.6333	-3.7583	-2.7271	-3.1479	-3.6396	-2.75	-3.2417	-3.1833	-2.9	-3.7313	-2.9458	-3.1792	-3.45	-2.8375	418.570	152.851	374.256	409.458	92.750	237.138	318.204	362.201	382.877	208.050	88.657	282.690	338.902	403.215	115.773	325.446	0.0010288	0.00042865	0.00014132	1329.5	7.81e-06	4.6912e-06	1331.3	364.4	6.3358e-06	4.0148e-06	412.63	135.82	117.72	39.394	4.3304e-06	49.674	0.00097297	0.0012345	0.00035748	1360.2	1.2127e-05	1.3722e-05	1359.1	373.1	1.1645e-05	1.339e-05	425.56	139.11	120.55	40.676	1.2242e-05	51.271	105.045	173.315	163.229	96.159	209.164	208.797	96.089	100.910	221.683	237.601	100.158	104.743	105.264	109.873	218.511	108.738	-8191	255	
51113.367	1	1	0	0	0.10296	0.14265	0.097713	0.27771	0.14094	0.18781	0.28379	0.14337	0.25416	0.17292	0.12602	0.061995	0.067104	0.10794	0.21855	0.30457	-3.1271	-3.1042	-2.6188	-3.8833	-3.0146	-3.0062	-3.6896	-3.0542	-3.4833	-3.4125	-2.8688	-3.4896	-3.1875	-2.8396	-3.6312	-2.8042	142.664	308.662	209.581	364.509	253.820	111.363	390.845	428.461	316.782	105.789	89.919	257.574	376.383	178.594	424.232	140.618	0.0010002	0.00052566	0.00014037	1332.1	5.6646e-06	5.0455e-06	1341.2	364.19	6.8213e-06	6.5686e-06	415.87	135.78	117.71	39.41	6.9568e-06	49.502	0.00098058	0.0012024	0.00035454	1361.4	1.1531e-05	1.3864e-05	1363.7	372.98	1.1838e-05	1.402e-05	426.41	138.8	120.68	40.737	1.2335e-05	51.169	105.115	159.886	181.065	96.272	211.572	236.642	95.959	100.804	217.268	214.446	100.336	104.782	105.316	109.923	231.194	109.134	-8191	255	
51113.488	1	1	0	0	0.11085	0.14241	0.15477	0.33037	0.24973	0.27533	0.34386	0.31982	0.020104	0.085536	0.26552	0.44164	0.21406	0.13377	0.21223	0.16225	-3.0021	-3.2271	-2.7021	-3.5979	-3.0021	-2.8729	-3.8729	-2.8833	-3.0604	-3.4688	-2.8146	-3.4917	-3.2417	-2.8521	-3.5354	-2.85	125.372	388.913	99.912	414.090	145.838	437.876	360.120	429.268	405.087	388.066	432.297	396.431	387.478	388.983	133.901	110.860	0.0010669	0.00043774	0.00011787	1333.1	5.6078e-06	4.8985e-06	1334.4	364.54	6.6546e-06	6.6712e-06	415.12	135.98	118.19	39.412	8.1357e-06	49.399	0.00098022	0.0012352	0.00036003	1363.2	1.1506e-05	1.4791e-05	1364	373.33	1.2073e-05	1.4006e-05	426.02	139.13	120.98	40.723	1.2476e-05	51.286	106.475	181.829	194.802	96.330	216.722	234.788	95.972	100.886	212.271	231.007	100.537	104.886	105.214	109.959	224.379	109.150	-8191	255	
51113.586	1	1	0	0	0.08347	0.045346	0.12722	0.38328	0.059472	0.20174	0.15807	0.27404	0.20736	0.1393	0.27557	0.10779	0.099636	0.23932	0.48035	0.26106	-2.7646	-3.4479	-2.5896	-3.6417	-3.1542	-2.8354	-3.8229	-3.0708	-3.0625	-3.7	-2.7792	-3.4375	-3.2604	-2.8083	-3.5958	-3.0833	204.650	154.964	194.550	371.141	112.722	188.553	384.084	423.024	377.516	242.878	377.596	390.344	436.863	438.004	416.132	365.911	0.0010529	0.00050913	0.00013253	1337.8	6.5692e-06	4.5597e-06	1339.3	365.19	7.3273e-06	6.0821e-06	415.18	135.76	118.22	39.393	5.5101e-06	49.545	0.00098239	0.0012095	0.00035152	1365.8	1.1785e-05	1.4786e-05	1365.1	373.72	1.1732e-05	1.3988e-05	426.68	139.13	121.22	40.763	1.1911e-05	51.23	104.575	185.586	183.743	96.358	210.098	216.817	96.258	101.028	230.055	239.786	100.584	104.867	105.472	110.211	235.972	109.167	-8191	255	
51113.680	1	1	0	0	0.15851	0.090906	0.18211	0.19186	0.10036	0.14332	0.21939	0.14571	0.072785	0.14219	0.27225	0.15227	0.12519	0.22529	0.069447	0.1635	-2.6667	-3.5125	-2.6562	-3.425	-3.2708	-2.6813	-3.6458	-3.1479	-2.8917	-3.6771	-2.9125	-3.3	-3.5125	-2.7396	-3.4354	-3.3646	83.222	406.157	265.222	419.955	183.480	243.227	359.301	362.337	254.406	347.139	99.649	129.323	393.175	340.133	330.073	286.505	0.00098826	0.00036399	0.00011886	1343.1	6.0013e-06	4.5938e-06	1339.4	366.42	5.8937e-06	2.9895e-06	414	136.38	118.1	39.589	6.8613e-06	49.445	0.00095424	0.0011548	0.00034273	1366.8	1.1779e-05	1.4827e-05	1365.2	374.16	1.1402e-05	1.3665e-05	425.97	139.23	120.95	40.823	1.1849e-05	51.255	103.158	165.199	165.586	96.642	222.843	239.326	96.173	101.039	226.178	234.944	100.376	104.703	105.248	109.982	221.614	108.710	-8191	255	
51113.750	1	1	0	0	0.20782	0.1321	0.098267	0.32015	0.22206	0.14593	0.22538	0.4635	0.038313	0.33805	0.23412	0.30974	0.11486	0.16648	0.11052	0.28895	-2.4833	-3.5896	-2.6958	-3.4083	-3.4771	-2.8167	-3.75	-3.3375	-2.8312	-3.6333	-3.1042	-3.2458	-3.5042	-2.7125	-3.3833	-3.2438	372.358	207.379	220.875	86.322	94.082	300.583	337.913	94.142	156.566	158.893	387.318	357.010	425.004	134.259	119.942	383.637	0.0010108	0.00052449	0.00013945	1336.2	6.4947e-06	5.1685e-06	1343.8	364.83	6.8024e-06	4.695e-06	414.99	136.06	118.46	39.492	6.0933e-06	49.554	0.00098146	0.0011301	0.00034676	1363.9	1.154e-05	1.407e-05	1366.8	374.05	1.2176e-05	1.4038e-05	426.35	139.17	121.05	40.821	1.2471e-05	51.272	105.899	163.691	198.339	96.355	223.754	249.835	96.095	101.075	217.901	230.913	100.383	104.875	105.209	109.747	223.455	108.947	-8191	255	
51113.871	1	1	0	0	0.15154	0.22159	0.34058	0.32583	0.12375	0.16652	0.19362	0.058795	0.36659	0.12276	0.20532	0.11593	0.18688	0.19628	0.095556	0.24943	-2.4792	-3.5438	-2.9562	-3.1979	-3.6417	-2.8354	-3.4417	-3.4333	-2.8438	-3.5646	-3.1813	-2.9771	-3.6708	-2.8833	-3.4813	-3.5875	272.413	158.884	343.842	428.190	276.947	150.488	347.501	92.483	160.819	194.738	393.245	219.790	137.054	117.186	382.685	433.806	0.0010714	0.00043251	0.0001152	1338.4	7.3111e-06	4.2912e-06	1340.2	366.4	5.6831e-06	4.0674e-06	415.29	136.31	118.54	39.44	5.719e-06	49.489	0.00099906	0.0011663	0.00033484	1364.8	1.1404e-05	1.4612e-05	1366.8	374.31	1.1872e-05	1.3701e-05	427.2	139.29	121.24	40.839	1.1624e-05	51.292	103.775	171.106	180.018	96.386	221.576	247.737	96.076	100.812	222.636	223.047	100.399	104.814	105.497	110.091	219.884	109.068	-8191	255	
51113.969	1	1	0	0	0.027109	0.081162	0.22098	0.19628	0.031997	0.16235	0.19513	0.2814	0.020178	0.16564	0.17628	0.063717	0.12477	0.10922	0.16797	0.16986	-2.5125	-3.5208	-3.0771	-3.0812	-3.7083	-2.7479	-3.45	-3.5521	-2.75	-3.6083	-3.3667	-3.0167	-3.7375	-3.0812	-3.3125	-3.4208	361.494	104.440	157.690	389.218	192.048	204.635	382.999	403.788	239.429	253.607	216.806	268.594	421.902	353.627	148.405	426.113	0.0010724	0.00053907	0.00014347	1336.2	4.3519e-06	5.1281e-06	1341.7	367.31	5.8233e-06	6.215e-06	415.55	135.74	117.88	39.308	5.5948e-06	49.691	0.0010174	0.0011911	0.00033248	1364.7	1.1609e-05	1.4097e-05	1366.2	374.24	1.2368e-05	1.3882e-05	426.47	139.4	120.8	40.737	1.243e-05	51.3	104.580	171.034	168.960	96.495	223.148	240.787	96.303	100.991	217.431	228.491	100.387	104.863	105.288	110.128	227.010	108.949	-8191	255	
#DATA ENDS
