BOXY.EXE: ISS Imagent and Oximeter Data Acquisition Program Version 0.80
Ascii Record File

#ACQ INFORMATION
2  Detector Channels 
16  External MUX Channels 
1  Auxiliary Channels 
5000  Waveform (CCF) Frequency (Hz)
1  Waveforms Skipped 
30  Waveforms Averaged 
1  Cycles Averaged 
16  Acquisitions per Waveform 
10.0806  Updata Rate (Hz) 

#FILE INFORMATION
TRUE -- External MUX Channel results are PARSED.
FALSE -- AC DC and Phase are NOT grouped.
TRUE -- Companion Program Settings File CREATED.
FALSE -- AC data not excluded
FALSE -- DC data not excluded
FALSE -- Phase data not excluded
FALSE -- Auxillary Chn. data not excluded
Tab delimiters

#CALIBRATION STATE
TRUE -- Waveform Calibration Values APPLIED.


#AUX CALIBRATION VALUES
Val Type	aux-1	

Term	1.0000e+00	
Factor	0.0000e+00	


#WF CALIBRATION VALUES
A = Detector Channel
Val Type	A-AC1	A-AC2	A-AC3	A-AC4	A-AC5	A-AC6	A-AC7	A-AC8	A-AC9	A-AC10	A-AC11	A-AC12	A-AC13	A-AC14	A-AC15	A-AC16	A-DC1	A-DC2	A-DC3	A-DC4	A-DC5	A-DC6	A-DC7	A-DC8	A-DC9	A-DC10	A-DC11	A-DC12	A-DC13	A-DC14	A-DC15	A-DC16	A-Ph1	A-Ph2	A-Ph3	A-Ph4	A-Ph5	A-Ph6	A-Ph7	A-Ph8	A-Ph9	A-Ph10	A-Ph11	A-Ph12	A-Ph13	A-Ph14	A-Ph15	A-Ph16	

Term	0.00000e+00	0.00000e+00	0.00000e+00	0.00000e+00	0.00000e+00	0.00000e+00	0.00000e+00	0.00000e+00	0.00000e+00	0.00000e+00	0.00000e+00	0.00000e+00	0.00000e+00	0.00000e+00	0.00000e+00	0.00000e+00	0.00000e+00	0.00000e+00	0.00000e+00	0.00000e+00	0.00000e+00	0.00000e+00	0.00000e+00	0.00000e+00	0.00000e+00	0.00000e+00	0.00000e+00	0.00000e+00	0.00000e+00	0.00000e+00	0.00000e+00	0.00000e+00	0.00000e+00	0.00000e+00	0.00000e+00	0.00000e+00	0.00000e+00	0.00000e+00	0.00000e+00	0.00000e+00	0.00000e+00	0.00000e+00	0.00000e+00	0.00000e+00	0.00000e+00	0.00000e+00	0.00000e+00	0.00000e+00	
Factor	1.00000e+00	1.00000e+00	1.00000e+00	1.00000e+00	1.00000e+00	1.00000e+00	1.00000e+00	1.00000e+00	1.00000e+00	1.00000e+00	1.00000e+00	1.00000e+00	1.00000e+00	1.00000e+00	1.00000e+00	1.00000e+00	1.00000e+00	1.00000e+00	1.00000e+00	1.00000e+00	1.00000e+00	1.00000e+00	1.00000e+00	1.00000e+00	1.00000e+00	1.00000e+00	1.00000e+00	1.00000e+00	1.00000e+00	1.00000e+00	1.00000e+00	1.00000e+00	X	X	X	X	X	X	X	X	X	X	X	X	X	X	X	X	

B = Detector Channel
Val Type	B-AC1	B-AC2	B-AC3	B-AC4	B-AC5	B-AC6	B-AC7	B-AC8	B-AC9	B-AC10	B-AC11	B-AC12	B-AC13	B-AC14	B-AC15	B-AC16	B-DC1	B-DC2	B-DC3	B-DC4	B-DC5	B-DC6	B-DC7	B-DC8	B-DC9	B-DC10	B-DC11	B-DC12	B-DC13	B-DC14	B-DC15	B-DC16	B-Ph1	B-Ph2	B-Ph3	B-Ph4	B-Ph5	B-Ph6	B-Ph7	B-Ph8	B-Ph9	B-Ph10	B-Ph11	B-Ph12	B-Ph13	B-Ph14	B-Ph15	B-Ph16	

Term	0.00000e+00	0.00000e+00	0.00000e+00	0.00000e+00	0.00000e+00	0.00000e+00	0.00000e+00	0.00000e+00	0.00000e+00	0.00000e+00	0.00000e+00	0.00000e+00	0.00000e+00	0.00000e+00	0.00000e+00	0.00000e+00	0.00000e+00	0.00000e+00	0.00000e+00	0.00000e+00	0.00000e+00	0.00000e+00	0.00000e+00	0.00000e+00	0.00000e+00	0.00000e+00	0.00000e+00	0.00000e+00	0.00000e+00	0.00000e+00	0.00000e+00	0.00000e+00	-1.94746e+02	-1.29429e+02	-1.23296e+02	-1.81177e+02	-8.24941e+01	-6.72532e+01	-1.58393e+02	-1.62015e+02	-8.26879e+01	-6.57740e+01	-1.70238e+02	-1.70284e+02	-1.81041e+02	-1.76563e+02	-7.59332e+01	-1.49301e+02	
Factor	3.81472e-05	1.55800e-04	4.27792e-05	1.56288e-01	1.59967e-06	1.59687e-06	1.72052e-01	5.78622e-02	1.65686e-06	1.77183e-06	8.97467e-02	3.04905e-02	2.59666e-02	9.04681e-03	1.74401e-06	1.28027e-02	2.48459e-05	6.22447e-05	1.74435e-05	8.03579e-02	5.30800e-07	7.33201e-07	8.33309e-02	2.98252e-02	5.43097e-07	7.33792e-07	4.50204e-02	1.52899e-02	1.34928e-02	4.71424e-03	5.97119e-07	6.48029e-03	X	X	X	X	X	X	X	X	X	X	X	X	X	X	X	X	



#DISTANCE SETTINGS
A = Detector Channel
A-1	A-2	A-3	A-4	A-5	A-6	A-7	A-8	A-9	A-10	A-11	A-12	A-13	A-14	A-15	A-16	

2.5000e+00	3.0000e+00	2.5000e+00	3.0000e+00	2.0000e+00	3.0000e+00	1.5000e+00	3.0000e+00	3.0000e+00	3.0000e+00	3.0000e+00	3.0000e+00	3.0000e+00	3.0000e+00	1.5000e+00	3.0000e+00	

B = Detector Channel
B-1	B-2	B-3	B-4	B-5	B-6	B-7	B-8	B-9	B-10	B-11	B-12	B-13	B-14	B-15	B-16	

1.0000e+01	1.0000e+01	1.0000e+01	1.4400e+00	1.0000e+01	1.0000e+01	1.5100e+00	1.9400e+00	1.0000e+01	1.0000e+01	1.9900e+00	2.4900e+00	2.4100e+00	2.9000e+00	1.0000e+01	2.9800e+00	




#DATA BEGINS
time	group	step	mark	flag	A-AC1	A-AC2	A-AC3	A-AC4	A-AC5	A-AC6	A-AC7	A-AC8	A-AC9	A-AC10	A-AC11	A-AC12	A-AC13	A-AC14	A-AC15	A-AC16	A-DC1	A-DC2	A-DC3	A-DC4	A-DC5	A-DC6	A-DC7	A-DC8	A-DC9	A-DC10	A-DC11	A-DC12	A-DC13	A-DC14	A-DC15	A-DC16	A-Ph1	A-Ph2	A-Ph3	A-Ph4	A-Ph5	A-Ph6	A-Ph7	A-Ph8	A-Ph9	A-Ph10	A-Ph11	A-Ph12	A-Ph13	A-Ph14	A-Ph15	A-Ph16	B-AC1	B-AC2	B-AC3	B-AC4	B-AC5	B-AC6	B-AC7	B-AC8	B-AC9	B-AC10	B-AC11	B-AC12	B-AC13	B-AC14	B-AC15	B-AC16	B-DC1	B-DC2	B-DC3	B-DC4	B-DC5	B-DC6	B-DC7	B-DC8	B-DC9	B-DC10	B-DC11	B-DC12	B-DC13	B-DC14	B-DC15	B-DC16	B-Ph1	B-Ph2	B-Ph3	B-Ph4	B-Ph5	B-Ph6	B-Ph7	B-Ph8	B-Ph9	B-Ph10	B-Ph11	B-Ph12	B-Ph13	B-Ph14	B-Ph15	B-Ph16	aux-1	digaux	

51050.562	1	1	0	768	0.26513	0.08829	0.21126	0.085625	0.077928	0.053877	0.22101	0.12835	0.16794	0.12528	0.31703	0.42756	0.19545	0.2264	0.13169	0.08102	-2.6813	-3.2104	-3.6604	-3.0479	-3.4688	-3.3167	-3.1604	-3.6104	-3.0271	-3.0187	-3.7104	-2.875	-3.4313	-3.5062	-2.9458	-3.8417	301.220	131.249	106.686	418.600	353.187	285.336	386.019	372.817	296.338	266.788	371.240	334.764	158.473	343.495	125.291	288.137	0.0010853	0.00056072	0.00011853	1346.3	6.2713e-06	4.5306e-06	1348.5	365.62	7.0702e-06	4.9515e-06	414.41	139.43	120.83	41.272	6.4978e-06	51.009	0.00074548	0.00057823	0.00014453	1373.3	5.6829e-06	5.913e-06	1371.8	372.53	5.9413e-06	6.0186e-06	424.77	142.24	123.84	42.553	6.383e-06	52.684	105.061	160.164	179.679	95.971	222.128	234.960	95.788	100.789	208.211	234.200	100.023	104.409	105.109	109.475	233.602	108.806	-8191	255	
51050.656	1	1	0	0	0.22236	0.028208	0.059404	0.30491	0.1337	0.16689	0.086512	0.17191	0.12392	0.027202	0.1612	0.1737	0.24524	0.080754	0.15746	0.35629	-2.85	-2.9583	-3.6979	-3.1583	-3.3896	-3.5917	-2.9583	-3.8583	-3.3563	-2.8854	-3.7333	-3.1375	-3.2333	-3.8042	-2.9354	-3.6333	417.493	132.401	374.548	427.915	166.198	217.031	372.599	291.112	222.533	118.822	95.920	95.225	385.060	376.516	358.629	88.692	0.0010853	0.0005339	0.00014402	1345.4	6.3303e-06	4.4839e-06	1341.2	364.1	6.481e-06	5.3516e-06	412.96	139.05	120.69	41.25	6.6467e-06	51.16	0.00074289	0.00056708	0.00013795	1369.9	5.9217e-06	5.4807e-06	1367.6	371.68	5.991e-06	6.4879e-06	424.19	142.11	123.53	42.568	6.3693e-06	52.72	105.435	170.360	177.684	95.807	222.547	239.781	95.798	100.851	216.129	235.283	99.795	104.140	104.942	109.779	226.301	108.804	-8191	255	
51050.754	1	1	0	0	0.22207	0.12797	0.16144	0.15222	0.25071	0.15153	0.17327	0.05729	0.089591	0.078091	0.22994	0.2257	0.18034	0.15587	0.16716	0.22807	-3.0125	-2.8333	-3.8229	-3.0187	-3.0396	-3.5083	-2.8458	-3.5646	-3.4417	-2.7792	-3.9167	-3.0667	-3.2542	-3.7458	-3.0146	-3.6708	253.318	271.974	104.756	377.562	298.545	228.038	389.876	331.352	417.039	314.540	439.156	368.543	91.946	93.809	241.471	337.074	0.0010436	0.00050279	0.00014583	1340.9	5.9124e-06	4.6789e-06	1344.2	364.39	6.3372e-06	5.3203e-06	414.79	139.36	121.11	41.136	6.0002e-06	51.158	0.0006976	0.00056409	0.00013962	1368.8	6.2015e-06	5.6334e-06	1370	371.77	5.827e-06	6.1318e-06	424.97	142.19	123.75	42.523	6.4277e-06	52.843	104.241	173.097	185.723	95.980	219.142	232.885	95.760	100.457	218.018	232.576	99.874	104.366	104.906	109.642	223.176	108.785	-8191	255	
51050.852	1	1	0	0	0.24746	0.25176	0.038287	0.32683	0.25127	0.021532	0.3961	0.14741	0.15495	0.29812	0.13103	0.34456	0.3167	0.21773	0.3949	0.091304	-3.1125	-2.8792	-3.6562	-3.3167	-2.7875	-3.7479	-3.2042	-3.4667	-3.3958	-2.8792	-3.7646	-3.2188	-2.9062	-3.8646	-3.075	-3.4625	357.577	385.717	261.723	414.133	349.939	378.527	374.885	347.387	91.487	169.283	101.128	405.845	173.277	107.978	164.182	120.146	0.0010757	0.00046603	0.00012932	1348.9	6.2391e-06	5.1389e-06	1345.1	364.33	6.9038e-06	5.7596e-06	415.48	139.46	121.26	41.414	6.1607e-06	50.963	0.0007123	0.00055917	0.00013878	1371	6.2303e-06	5.5387e-06	1369.1	371.7	5.8688e-06	6.225e-06	424.88	142.36	123.95	42.626	6.0471e-06	52.716	104.579	170.962	179.439	96.000	217.112	233.151	95.706	100.687	219.682	240.567	100.060	104.426	104.876	109.467	224.812	108.632	-8191	255	
51050.945	1	1	0	0	0.12749	0.28361	0.14769	0.19	0.097842	0.17504	0.3934	0.33878	0.080231	0.25815	0.21285	0.19116	0.21742	0.1664	0.15536	0.1019	-3.3417	-2.8229	-3.6	-3.45	-2.8292	-3.6521	-3.0521	-3.3312	-3.6792	-2.8104	-3.6375	-3.5729	-2.9354	-3.8063	-3.0208	-3.225	118.406	259.549	321.837	361.772	332.482	302.040	349.701	345.685	125.610	177.522	93.401	91.370	320.582	138.468	103.708	272.717	0.0010683	0.00043371	0.00016487	1350.5	6.823e-06	4.8269e-06	1348.8	364.8	6.5392e-06	5.1767e-06	417.17	140.17	121.66	41.521	6.8412e-06	51.331	0.00071665	0.00055683	0.00014017	1372.8	6.3884e-06	5.6563e-06	1372	372.86	5.5769e-06	6.0844e-06	426.66	143.02	124.28	42.897	6.2125e-06	52.992	105.345	169.154	165.318	95.940	216.671	238.362	95.735	100.628	218.746	229.096	99.939	104.333	104.917	109.846	218.742	108.706	-8191	255	
51051.043	1	1	0	0	0.25767	0.099157	0.187	0.070133	0.10704	0.19615	0.17812	0.20743	0.11945	0.2312	0.26305	0.24156	0.15844	0.16745	0.2504	0.13517	-3.3625	-2.7979	-3.4188	-3.5708	-2.9021	-3.7958	-3.3792	-3.2313	-3.6521	-2.9167	-3.6479	-3.5104	-2.9875	-3.8646	-3.2167	-3.1729	295.275	88.042	195.782	430.017	335.746	382.058	377.739	297.763	432.919	110.151	393.365	396.279	323.611	387.566	336.288	184.254	0.0010616	0.00052808	0.00013564	1351	6.26e-06	3.6812e-06	1346.2	365.02	5.5023e-06	4.8643e-06	418.02	140.15	121.45	41.543	6.5031e-06	51.476	0.00071478	0.00056461	0.00014449	1375.2	6.2015e-06	5.195e-06	1374	373.37	5.6595e-06	5.9712e-06	426.8	143.15	124.37	42.881	6.2001e-06	53.127	104.673	170.349	173.771	95.940	224.382	230.729	95.637	100.742	228.064	226.004	100.018	104.336	105.013	109.505	232.538	108.618	-8191	255	
51051.160	1	1	0	0	0.09275	0.17185	0.11213	0.29791	0.20622	0.090339	0.099887	0.34362	0.18049	0.256	0.18268	0.2704	0.18936	0.26277	0.21955	0.13533	-3.4771	-2.9021	-3.3917	-3.7938	-2.6958	-3.7833	-3.3833	-3.1479	-3.8063	-3.0479	-3.5583	-3.6771	-2.9104	-3.7854	-3.3438	-2.9292	354.543	308.877	407.486	365.599	328.739	144.994	362.379	402.187	99.374	339.607	426.055	118.626	110.607	424.991	194.147	356.860	0.0010274	0.00056843	0.00010962	1349.1	6.0571e-06	3.8388e-06	1348.5	367.63	6.8835e-06	5.4709e-06	417.54	139.95	122.09	41.644	5.9267e-06	51.464	0.00070034	0.00057239	0.00015459	1375.8	6.1451e-06	5.8855e-06	1375.1	374.35	5.6369e-06	6.3611e-06	426.84	143.2	124.64	42.972	5.8493e-06	53.203	105.682	170.227	183.114	95.872	217.146	240.495	95.736	100.520	219.584	226.994	100.186	104.282	104.874	109.465	228.898	108.793	-8191	255	
51051.258	1	1	0	0	0.13769	0.24282	0.1498	0.18561	0.044241	0.076903	0.13354	0.013406	0.20295	0.095172	0.2366	0.14559	0.076871	0.035706	0.16527	0.12998	-3.4167	-3.0708	-3.1375	-3.8125	-2.8604	-3.5792	-3.6	-3.1063	-3.6521	-3.0479	-3.2188	-3.7438	-3.1458	-3.5125	-3.4521	-3.0458	332.991	92.567	333.031	110.956	167.691	386.699	377.171	360.111	100.815	416.500	126.324	380.546	423.955	354.994	166.207	336.433	0.0010784	0.00065394	0.00015487	1351.2	6.267e-06	5.2103e-06	1350.4	366.29	6.594e-06	5.589e-06	417.91	140.36	122.22	41.854	5.6585e-06	51.42	0.00072219	0.00058212	0.0001603	1376.9	6.1783e-06	5.7037e-06	1375	374.26	5.6358e-06	6.2082e-06	427.96	143.6	124.82	43.073	5.6938e-06	53.205	105.009	169.092	180.043	95.966	218.176	240.542	95.655	100.758	223.341	232.698	100.306	104.455	104.742	109.442	231.130	108.521	-8191	255	
51051.352	1	1	0	0	0.099934	0.26878	0.17966	0.36111	0.028693	0.26515	0.15684	0.20567	0.090627	0.21255	0.069012	0.17078	0.17283	0.16627	0.17756	0.1351	-3.4729	-3.175	-3.125	-3.9437	-2.8187	-3.3042	-3.6021	-2.8937	-3.6104	-3.0896	-3.0417	-3.7458	-2.9708	-3.375	-3.5438	-2.9938	302.665	211.111	304.366	390.791	118.264	197.128	99.973	287.749	419.959	401.172	118.906	92.494	112.178	398.154	100.353	312.739	0.0010413	0.00050852	0.00013629	1349	7.3005e-06	3.8372e-06	1349.8	366.03	6.6737e-06	2.9069e-06	417.38	140.71	121.93	41.747	6.8524e-06	51.378	0.00069874	0.00057071	0.00015074	1376.3	6.1374e-06	5.8641e-06	1375.8	374.13	5.8688e-06	6.1822e-06	427.63	143.58	124.65	43.116	5.6739e-06	53.178	102.890	162.915	178.770	95.962	220.650	241.071	95.876	100.567	217.645	232.252	100.030	104.438	104.679	109.654	222.991	108.975	-8191	255	
51051.449	1	1	0	0	0.21816	0.23281	0.048836	0.26356	0.13187	0.20343	0.11014	0.29808	0.13588	0.27254	0.056598	0.27341	0.37745	0.063931	0.20429	0.091516	-3.2812	-3.1917	-2.9042	-3.8896	-2.8833	-3.2792	-3.8646	-2.9583	-3.4917	-3.425	-3.0125	-3.8042	-3.1729	-3.1604	-3.5583	-3.0208	221.868	392.862	186.800	397.784	157.206	238.496	342.876	85.348	300.329	360.063	273.835	84.248	402.655	206.621	169.485	393.877	0.0011087	0.00057999	0.00014293	1353.5	6.959e-06	4.1565e-06	1348.5	366.71	7.5449e-06	4.7102e-06	417.34	140.19	122.16	41.734	4.8146e-06	51.633	0.00073321	0.00054762	0.00016008	1377.4	6.0544e-06	5.945e-06	1374.4	374.12	5.8349e-06	5.4576e-06	427.59	143.27	124.8	43.036	5.4935e-06	53.228	102.830	174.908	178.732	96.088	221.000	230.658	95.441	100.724	218.600	233.970	100.022	104.318	104.843	109.556	225.811	108.636	-8191	255	
51051.547	1	1	0	0	0.27037	0.20476	0.057945	0.16163	0.11453	0.27218	0.14366	0.066469	0.16965	0.19379	0.01625	0.2868	0.19917	0.25168	0.25682	0.15715	-3.1167	-3.5708	-2.8479	-3.8625	-3.0708	-3.0875	-3.7458	-3	-3.6312	-3.3104	-3.0083	-3.8083	-3.3312	-3.15	-3.7687	-2.8896	153.716	244.767	109.354	352.392	275.293	294.139	386.010	131.418	214.319	205.551	153.941	396.045	172.889	369.610	256.446	216.047	0.0011058	0.00044881	0.00014659	1351.3	6.8849e-06	4.1817e-06	1352.3	366.1	7.2443e-06	5.1119e-06	416.14	140	122.3	41.647	5.3221e-06	51.323	0.00072845	0.00051507	0.00015514	1376.1	6.0854e-06	5.9252e-06	1375.6	373.67	6.0295e-06	5.4561e-06	426.4	143.32	124.82	43.034	5.445e-06	53.15	103.720	170.825	180.707	95.916	216.307	223.301	95.724	100.556	221.729	223.899	99.899	104.479	104.813	109.545	225.768	108.419	-8191	255	
51051.641	1	1	0	0	0.19865	0.068118	0.17225	0.18407	0.092907	0.2286	0.13464	0.042423	0.17829	0.22086	0.060066	0.31283	0.25615	0.097641	0.14981	0.16177	-3.0854	-3.3792	-2.825	-3.7229	-3.1562	-3.1396	-3.9667	-3.0375	-3.3604	-3.5042	-3.0104	-3.7021	-3.4208	-2.9521	-3.7833	-3.2104	195.784	316.175	164.701	410.193	270.311	322.977	390.748	359.777	398.957	124.514	224.772	93.332	370.635	295.521	439.784	83.622	0.0010324	0.00050654	0.00013523	1346.8	6.6916e-06	4.1969e-06	1348.3	366.15	7.3702e-06	4.8099e-06	417.68	139.84	121.82	41.78	6.2442e-06	51.243	0.00069677	0.00050911	0.00015339	1374.7	6.0544e-06	5.913e-06	1374.8	374.01	6.1223e-06	6.1623e-06	427.02	143.23	124.55	42.984	5.5296e-06	53.097	101.603	162.633	167.146	96.034	218.119	233.919	95.514	100.693	213.764	230.654	99.895	104.536	104.683	109.608	218.610	108.553	-8191	255	
51051.762	1	1	0	0	0.19603	0.090659	0.075321	0.22882	0.030595	0.25199	0.025388	0.079783	0.10667	0.21216	0.13585	0.25003	0.1603	0.36119	0.1659	0.18062	-2.8083	-3.5708	-2.7708	-3.6958	-3.1458	-2.9083	-3.8479	-3.2812	-3.0875	-3.6625	-2.9667	-3.4229	-3.5229	-3.0708	-3.7646	-3.1312	144.026	207.329	241.668	421.194	304.688	113.498	406.901	278.005	111.572	381.252	440.992	440.784	111.816	112.955	95.778	366.818	0.0011063	0.00052134	0.00015304	1346.8	6.4861e-06	4.6633e-06	1349.4	366.25	6.2821e-06	6.1054e-06	417.46	140.34	121.97	41.589	6.3489e-06	51.489	0.00073632	0.00053012	0.00015888	1375.6	5.8819e-06	6.2994e-06	1374.6	374.51	5.9639e-06	5.56e-06	427.26	143.58	124.51	43.016	5.5545e-06	53.266	105.312	168.778	184.485	96.247	210.823	236.404	95.794	100.574	216.854	234.897	100.059	104.525	104.952	109.385	227.628	108.604	-8191	255	
51051.855	1	1	0	0	0.084403	0.16135	0.077339	0.18246	0.050195	0.078871	0.13769	0.18268	0.032821	0.31388	0.063264	0.22004	0.030237	0.2845	0.015629	0.11234	-2.7479	-3.7146	-2.6042	-3.6	-3.4229	-2.9021	-3.8229	-3.1604	-2.9333	-3.6167	-3.1437	-3.5458	-3.5687	-2.9167	-3.6333	-3.3604	401.754	126.814	154.646	384.243	206.157	421.632	318.907	101.744	420.760	168.725	171.105	354.633	272.646	415.675	441.547	288.312	0.0010812	0.00054141	0.00013155	1353	6.2821e-06	3.6095e-06	1353.1	366.28	7.1283e-06	4.904e-06	416.76	140.28	121.67	41.44	5.3321e-06	51.466	0.0007271	0.00050016	0.00015376	1377.5	5.7282e-06	5.9939e-06	1376.7	374.22	6.3248e-06	5.5157e-06	426.84	143.38	124.6	42.928	5.6341e-06	53.182	104.487	175.615	167.939	95.945	229.554	231.260	95.668	100.661	214.919	238.586	99.924	104.476	104.778	109.608	222.610	108.357	-8191	255	
51051.953	1	1	0	0	0.0053428	0.11087	0.18829	0.40324	0.04598	0.36191	0.22821	0.1424	0.18292	0.1063	0.16181	0.23442	0.067363	0.10742	0.056574	0.35604	-2.6125	-3.7	-3.0167	-3.6188	-3.5812	-3.0333	-3.8063	-3.3875	-2.7521	-3.8167	-3.2062	-3.1896	-3.7667	-2.9125	-3.6063	-3.4604	145.005	217.471	381.175	406.916	299.576	98.523	408.035	364.597	149.934	167.675	416.983	400.575	265.986	162.401	422.439	118.068	0.0011039	0.00048493	0.00012784	1351.5	5.7811e-06	4.9009e-06	1350.8	366.98	7.903e-06	5.3564e-06	417.23	140.15	122.39	41.425	5.9806e-06	51.285	0.00074367	0.00055087	0.00014878	1375.7	5.9029e-06	6.3391e-06	1375.7	374.36	6.2569e-06	5.586e-06	427.41	143.23	124.66	42.862	5.4462e-06	53.09	103.913	167.862	184.253	96.015	220.228	237.013	95.654	100.729	217.804	226.097	99.828	104.670	104.786	109.506	229.132	108.654	-8191	255	
51052.051	1	1	0	0	0.11272	0.30083	0.13244	0.15864	0.11376	0.25754	0.04124	0.17089	0.083712	0.10001	0.16297	0.15392	0.2416	0.088951	0.13093	0.1208	-2.6771	-3.6854	-3.0771	-3.2938	-3.6125	-2.7938	-3.7062	-3.5354	-2.8812	-3.6125	-3.1292	-2.9562	-3.7667	-2.9396	-3.4208	-3.5917	107.634	417.145	253.498	442.290	192.843	138.864	318.726	435.824	277.172	132.133	370.106	366.448	435.412	384.351	294.142	424.741	0.0010786	0.00059471	0.00013647	1349.5	5.1976e-06	4.8626e-06	1346	365.78	7.1086e-06	4.6031e-06	417.53	140.22	121.94	41.591	5.9223e-06	51.422	0.00074056	0.00050807	0.00015735	1375.3	5.486e-06	6.0138e-06	1374	373.91	6.1653e-06	5.4943e-06	426.66	143.12	124.34	42.872	5.9762e-06	53.19	103.683	175.444	178.099	95.949	216.975	240.034	95.642	100.658	219.865	235.911	99.823	104.433	104.837	109.508	220.593	108.260	-8191	255	
51052.121	1	1	0	0	0.095312	0.065295	0.11593	0.20886	0.092667	0.21748	0.32327	0.12429	0.16303	0.27789	0.086447	0.12042	0.063824	0.42365	0.31969	0.17047	-2.6021	-3.6917	-3.3396	-3.325	-3.7708	-3.1021	-3.425	-3.5312	-2.975	-3.5583	-3.3958	-3.0979	-3.8771	-2.9521	-3.2292	-3.5958	382.885	291.657	441.174	441.450	324.294	247.975	387.671	375.873	361.578	177.677	349.414	235.494	159.450	385.066	338.768	138.916	0.0010608	0.00053186	0.00014361	1347.6	6.3692e-06	4.7109e-06	1349.9	365.32	6.964e-06	4.8629e-06	416.89	140.52	122.31	41.476	6.034e-06	51.5	0.00073088	0.00052376	0.00015419	1376.2	5.9958e-06	6.2215e-06	1375.2	374.36	6.0725e-06	5.534e-06	426.59	143.41	124.71	42.922	5.7883e-06	53.197	105.233	171.703	170.432	95.940	222.735	228.987	95.625	100.587	223.527	244.500	99.841	104.630	104.873	109.431	224.474	108.472	-8191	255	
51052.242	1	1	0	0	0.086378	0.090104	0.18906	0.10868	0.068328	0.23342	0.15055	0.22416	0.10134	0.15272	0.053142	0.26318	0.42175	0.088902	0.2015	0.23121	-2.3688	-3.5167	-3.2771	-3.0042	-3.7875	-2.9188	-3.3417	-3.6521	-2.7438	-3.5292	-3.6125	-2.8937	-3.8667	-3.1271	-3.05	-3.8771	105.329	106.178	138.004	87.863	184.389	348.628	424.468	87.104	99.985	191.449	205.914	365.334	105.690	309.657	332.755	133.880	0.0010976	0.0005062	0.00012918	1345	6.0336e-06	5.6983e-06	1344.6	367.17	6.8438e-06	5.325e-06	415.47	140.65	121.66	41.487	5.4074e-06	51.459	0.00074543	0.00053608	0.00014845	1374.2	6.0401e-06	5.7388e-06	1373.8	373.78	6.2049e-06	5.7893e-06	426.16	143.09	124.56	42.898	5.9861e-06	53.143	103.235	165.123	180.150	96.075	216.546	227.316	95.679	100.523	227.522	236.429	100.050	104.656	104.913	109.508	232.219	108.599	-8191	255	
51052.340	1	1	0	0	0.06422	0.18005	0.045473	0.18225	0.028473	0.27071	0.3104	0.046348	0.066064	0.18478	0.1694	0.18029	0.26734	0.12161	0.090399	0.070221	-2.5208	-3.4313	-3.475	-3.1979	-3.7	-3.1708	-3.2687	-3.7875	-2.7875	-3.5083	-3.6271	-2.9292	-3.6604	-3.1979	-2.9375	-3.8312	306.389	128.635	152.568	347.959	324.902	425.882	334.175	425.784	395.852	437.844	118.543	122.780	410.069	421.600	428.557	388.814	0.0010918	0.00048349	0.00013445	1349.7	6.8474e-06	5.0171e-06	1348.2	365.55	7.0862e-06	6.3774e-06	416.65	139.43	121.82	41.63	5.932e-06	51.256	0.00073601	0.00049822	0.00014042	1375.1	5.6751e-06	5.9359e-06	1373.6	373.42	6.1008e-06	6.2128e-06	426.21	142.92	124.49	42.929	6.3842e-06	53.152	104.279	163.941	175.561	95.889	211.068	230.104	95.616	100.539	221.245	226.411	100.003	104.542	104.800	109.295	223.209	108.383	-8191	255	
51052.434	1	1	0	0	0.22024	0.057068	0.22389	0.22307	0.1298	0.092121	0.069501	0.037329	0.18915	0.079898	0.15297	0.1018	0.14441	0.31205	0.26984	0.15691	-2.6396	-3.3417	-3.5667	-2.9813	-3.6063	-3.3854	-3.2375	-3.9688	-2.8521	-3.1625	-3.725	-2.8271	-3.5187	-3.4271	-2.8625	-3.9521	249.813	389.649	442.030	423.634	422.391	385.717	133.025	320.907	288.891	204.165	258.735	143.935	370.010	426.352	307.140	302.910	0.0010442	0.00043388	0.00012354	1348.7	5.7828e-06	5.3329e-06	1347.9	367.45	6.5107e-06	5.8404e-06	417.3	140.26	121.74	41.559	6.1198e-06	51.59	0.00072063	0.00051106	0.00014027	1377	5.6353e-06	5.7633e-06	1374.8	374.67	6.1766e-06	5.9147e-06	427.34	143.23	124.53	42.98	6.3631e-06	53.181	104.981	175.951	177.328	95.968	214.234	244.059	95.588	100.489	232.824	223.908	100.058	104.204	105.019	109.352	233.082	108.711	-8191	255	
51052.531	1	1	0	0	0.34401	0.059187	0.17839	0.30823	0.14827	0.16338	0.090721	0.20021	0.1697	0.10687	0.068216	0.2219	0.24753	0.1972	0.1478	0.24427	-2.4771	-3.0708	-3.6937	-3.0792	-3.6417	-3.3208	-3.0812	-3.8958	-3.0792	-3.0104	-3.8021	-2.8292	-3.5417	-3.5563	-2.9083	-3.875	158.629	203.614	251.533	376.727	369.617	436.118	315.523	434.794	439.367	142.081	368.303	172.932	354.441	373.503	255.774	386.955	0.0010525	0.00055362	0.00012497	1349.4	6.4639e-06	4.5113e-06	1351.1	367.13	7.6928e-06	5.7294e-06	416.41	140.41	122.25	41.627	6.1783e-06	51.627	0.00072664	0.00055515	0.000141	1378	5.9162e-06	6.0581e-06	1377	374.48	6.0193e-06	6.2296e-06	427.04	143.15	124.84	42.939	6.0993e-06	53.151	104.654	166.277	176.501	96.091	225.635	228.154	95.623	100.511	216.061	236.456	99.705	104.161	104.780	109.409	229.122	108.400	-8191	255	
51052.652	1	1	0	0	0.15188	0.14144	0.23363	0.047197	0.083098	0.29526	0.054089	0.089802	0.21837	0.094227	0.20683	0.1111	0.08199	0.11568	0.055735	0.36013	-2.7125	-2.8458	-3.6875	-2.9688	-3.2646	-3.5604	-3.0229	-3.9313	-3.2104	-3.0521	-3.6708	-2.9292	-3.2562	-3.6813	-2.8792	-3.6854	420.087	246.001	223.124	422.257	250.723	161.586	266.851	329.789	214.534	255.983	145.598	440.411	126.486	313.561	351.572	398.040	0.0010577	0.00053422	0.00016208	1353.6	6.6648e-06	4.8135e-06	1349.7	367.54	6.8114e-06	4.7505e-06	417.4	139.67	121.93	41.494	7.2708e-06	51.447	0.00072229	0.00059314	0.00014947	1377.2	6.0589e-06	5.9664e-06	1376.2	374.58	6.1076e-06	6.3473e-06	427.51	143.05	124.63	42.896	6.2586e-06	53.108	105.439	168.377	165.548	95.803	212.620	235.696	95.552	100.498	217.521	238.772	99.812	104.185	104.748	109.417	227.613	108.511	-8191	255	
51052.723	1	1	0	0	0.21681	0.10871	0.14228	0.28252	0.18997	0.13142	0.27918	0.21579	0.17592	0.17833	0.089792	0.015163	0.08093	0.053296	0.14996	0.1516	-2.8958	-2.9104	-3.6229	-3.1167	-3.175	-3.6354	-2.9729	-3.7167	-3.2708	-2.9354	-3.9333	-3.3021	-3.3	-3.7375	-2.7958	-3.5187	183.878	83.247	82.717	397.724	343.657	302.710	338.072	215.426	151.172	329.689	280.435	180.113	320.306	94.404	152.482	325.130	0.0010797	0.00049239	0.00013397	1352.2	5.766e-06	5.0573e-06	1353.7	366.81	6.0104e-06	4.7631e-06	416.51	140.4	122.06	41.5	5.9178e-06	51.336	0.00072778	0.00055929	0.00014558	1379	6.2225e-06	5.4196e-06	1377.4	374.28	5.8066e-06	6.3152e-06	427.4	143.24	124.73	42.91	6.2735e-06	53.146	102.934	170.584	175.571	96.038	220.157	234.726	95.865	100.639	216.187	239.513	99.931	104.587	104.854	109.217	224.024	108.749	-8191	255	
51052.844	1	1	0	0	0.31791	0.3547	0.090262	0.48944	0.030974	0.099927	0.33462	0.52285	0.20297	0.037975	0.12564	0.193	0.21789	0.07723	0.063784	0.20679	-3.1104	-2.9104	-3.5708	-3.35	-2.9604	-3.7604	-3.0979	-3.4604	-3.4896	-2.9333	-3.6979	-3.375	-3.1458	-3.75	-2.8146	-3.4458	181.074	363.027	329.836	442.328	313.311	437.983	365.639	396.379	273.794	274.208	328.433	414.607	314.110	375.263	286.801	395.874	0.0010475	0.00051118	0.00013797	1351.7	6.7627e-06	4.7233e-06	1356.2	366.97	7.0463e-06	4.9731e-06	416.88	139.86	121.68	41.389	7.0639e-06	51.326	0.00071126	0.00054775	0.00015459	1378.4	6.1816e-06	5.4578e-06	1379	374.56	5.6324e-06	6.2449e-06	427.14	143.16	124.6	42.84	6.1578e-06	53.193	106.024	164.570	175.903	95.550	217.888	231.065	95.611	100.760	222.713	237.854	99.907	104.430	104.897	109.464	219.046	108.450	-8191	255	
51052.938	1	1	0	0	0.052829	0.26214	0.19644	0.10168	0.19203	0.21758	0.2274	0.26806	0.068397	0.12663	0.14715	0.093217	0.021766	0.10044	0.17841	0.1901	-3.0938	-2.775	-3.5479	-3.4125	-2.8063	-3.725	-3.2375	-3.35	-3.5521	-2.8479	-3.6979	-3.3354	-2.9896	-3.8625	-3.1208	-3.275	329.515	398.420	246.127	384.909	307.298	116.094	256.758	397.696	434.156	245.300	429.559	105.952	286.734	368.380	95.447	414.814	0.0010779	0.00054827	0.00014911	1352.8	5.9912e-06	4.5589e-06	1350.7	366.11	6.8465e-06	5.5868e-06	418.87	140.46	122.43	41.681	6.0162e-06	51.509	0.00072032	0.00054827	0.00014216	1377.8	6.2115e-06	5.6029e-06	1377.9	373.94	5.7534e-06	6.4467e-06	428.2	143.32	124.76	42.904	5.96e-06	53.215	104.121	164.502	171.687	95.984	206.954	225.441	95.721	100.436	219.327	230.457	99.963	104.318	105.101	109.500	225.736	108.588	-8191	255	
51053.031	1	1	0	0	0.078864	0.2372	0.25959	0.34236	0.15741	0.20481	0.15399	0.1205	0.098633	0.098966	0.12792	0.39373	0.20426	0.10018	0.12658	0.21027	-3.25	-2.7938	-3.5062	-3.5708	-2.8583	-3.6708	-3.1958	-3.2333	-3.8021	-2.7687	-3.6042	-3.5208	-2.6667	-3.8479	-3.325	-3.0167	311.406	360.057	348.411	429.441	404.358	114.733	417.324	334.886	135.025	172.408	201.446	434.712	416.427	309.891	83.978	162.105	0.0010657	0.00056602	0.00013732	1352.8	5.4186e-06	4.5857e-06	1354.4	367.34	6.9736e-06	5.3517e-06	418.44	140.87	122.6	41.715	5.6009e-06	51.675	0.00070821	0.00058951	0.00014235	1378.9	6.1893e-06	5.5815e-06	1378.7	375.2	5.7851e-06	5.9835e-06	428.92	143.65	125.03	43.071	5.9749e-06	53.297	104.275	167.420	174.925	95.944	225.536	237.495	95.490	100.585	218.717	233.362	99.905	104.171	104.811	109.276	218.260	108.539	-8191	255	
51053.133	1	1	0	0	0.099207	0.34501	0.30887	0.16177	0.2646	0.058615	0.28904	0.15095	0.20833	0.29528	0.15515	0.15009	0.20625	0.11342	0.2216	0.023975	-3.2958	-2.8479	-3.425	-3.7208	-2.8417	-3.4729	-3.2521	-3.1708	-3.4375	-3.0479	-3.4333	-3.5563	-2.85	-3.6625	-3.2979	-2.9479	299.649	87.584	387.315	406.797	297.445	97.201	403.250	329.438	354.850	316.075	333.079	348.911	424.838	130.846	192.705	269.557	0.0010586	0.00042169	0.00014884	1349.9	6.8695e-06	4.8301e-06	1352.2	367.8	6.2824e-06	5.0589e-06	420.2	141.09	122.64	41.836	5.6397e-06	51.735	0.00071841	0.00054866	0.0001611	1379.2	6.2314e-06	5.6487e-06	1380.5	375.65	5.7229e-06	5.9621e-06	429.16	144.09	125.43	43.282	5.8455e-06	53.483	103.720	172.716	172.952	95.689	211.916	222.644	95.632	100.511	219.685	241.793	99.960	104.049	104.923	109.507	230.058	108.451	-8191	255	
51053.250	1	1	0	0	0.20869	0.30259	0.12975	0.21098	0.044669	0.068858	0.15944	0.16013	0.2468	0.38371	0.21542	0.20107	0.17235	0.10018	0.07249	0.21202	-3.4521	-2.8792	-3.2479	-3.7271	-2.75	-3.6583	-3.6562	-2.8958	-3.6396	-3.0625	-3.0563	-3.8146	-2.9875	-3.5125	-3.4875	-3.0146	431.284	331.829	210.950	418.297	275.678	135.894	399.657	355.079	312.142	279.492	424.894	380.030	439.380	246.457	258.377	155.188	0.0010961	0.00055432	0.00015119	1356.9	6.9545e-06	4.1014e-06	1357.2	368.35	7.2767e-06	5.9859e-06	420.61	141.73	122.89	42.023	6.5887e-06	52.017	0.0007315	0.00056967	0.00015507	1383.7	6.4227e-06	5.5112e-06	1382.4	377.25	5.629e-06	5.9223e-06	430.25	144.52	125.69	43.392	6.1068e-06	53.676	105.453	169.968	178.422	95.915	217.619	222.930	95.573	100.567	213.741	237.995	100.160	104.258	104.799	109.460	227.795	108.710	-8191	255	
51053.348	1	1	0	0	0.14077	0.24634	0.17014	0.27228	0.16317	0.22233	0.075321	0.035409	0.23323	0.12665	0.16469	0.15645	0.25389	0.3482	0.047505	0.16153	-3.2625	-3.1396	-3.0438	-3.775	-2.8	-3.5208	-3.5667	-2.9958	-3.6	-3.2021	-3.1604	-3.7146	-2.9437	-3.4458	-3.6833	-2.8917	123.144	282.950	193.220	110.887	261.569	218.918	143.318	415.033	439.038	126.685	374.993	424.432	418.735	385.617	430.193	282.437	0.0011027	0.00054165	0.00012865	1358	6.7754e-06	4.3706e-06	1356.2	368.75	7.5266e-06	5.8289e-06	420.52	141.83	123.44	41.969	6.1783e-06	52.099	0.00072814	0.00057252	0.00014889	1383.8	6.1451e-06	5.6457e-06	1381.2	377.19	5.801e-06	6.0217e-06	430.65	145.02	126	43.465	5.7149e-06	53.721	102.907	169.093	170.967	95.736	216.478	242.139	95.694	100.358	222.816	230.256	100.065	104.408	104.793	109.545	228.566	108.475	-8191	255	
51053.418	1	1	0	0	0.17428	0.092863	0.040845	0.20147	0.26642	0.19799	0.37483	0.33672	0.28749	0.14803	0.17611	0.26626	0.062787	0.24919	0.17938	0.26767	-3.2687	-3.1604	-2.8417	-3.7208	-2.8354	-3.3	-3.7521	-3.0042	-3.4313	-3.3646	-3.1125	-3.7958	-3.1083	-3.3271	-3.6688	-3.0104	138.512	331.751	264.738	423.786	315.772	344.727	401.650	289.000	355.803	381.441	126.674	349.365	273.968	440.565	267.651	98.473	0.0010608	0.00053704	0.00014182	1357.4	6.4932e-06	4.8399e-06	1352.9	368.42	6.7175e-06	5.5426e-06	419.13	141.33	122.82	42.015	7.311e-06	51.665	0.00071054	0.00053712	0.00015946	1383.5	6.4547e-06	5.8702e-06	1382.8	376.36	5.8123e-06	5.7679e-06	429.58	144.4	125.7	43.395	5.7809e-06	53.584	103.531	177.292	167.712	95.933	218.607	230.140	95.506	100.637	223.506	241.600	99.918	104.264	104.723	109.630	218.011	108.419	-8191	255	
51053.539	1	1	0	0	0.18561	0.20809	0.05341	0.12809	0.19418	0.13089	0.11248	0.28256	0.19728	0.27055	0.040907	0.22195	0.22981	0.19809	0.057253	0.41666	-3.1375	-3.3521	-2.8375	-3.9146	-3.1229	-3.275	-3.9354	-2.975	-3.6312	-3.4604	-2.8521	-3.7458	-3.1167	-3.2667	-3.5646	-3.1229	354.001	95.153	222.103	395.274	234.183	304.036	363.308	425.905	371.186	98.637	105.681	97.786	319.495	379.963	184.008	390.155	0.0011288	0.00030696	0.00010449	1356.7	6.0626e-06	4.7561e-06	1358.2	369.65	6.8791e-06	4.3019e-06	418.86	141.79	122.9	41.996	5.705e-06	51.856	0.00073849	0.00050626	0.00015325	1384	5.8974e-06	6.2261e-06	1383.5	377.12	5.844e-06	6.173e-06	429.2	144.59	125.6	43.335	5.4885e-06	53.71	105.538	160.828	172.745	95.994	208.903	230.086	95.569	100.667	224.942	228.113	99.981	104.220	104.879	109.343	230.144	108.338	-8191	255	
51053.637	1	1	0	0	0.24001	0.18721	0.051079	0.11818	0.053407	0.25767	0.20223	0.10468	0.20974	0.073585	0.14835	0.14858	0.27847	0.085735	0.13633	0.13407	-2.9667	-3.3875	-2.825	-3.9104	-3.2687	-3.0104	-3.8146	-3.1104	-3.2625	-3.5021	-2.9167	-3.5312	-3.3125	-2.9646	-3.6604	-3.0229	396.082	421.928	295.822	407.083	336.490	282.529	339.492	367.586	174.645	399.865	324.375	420.766	430.710	369.245	249.686	209.045	0.001063	0.00044986	0.00012981	1361.8	5.4116e-06	5.3659e-06	1359.4	370.08	6.617e-06	5.8381e-06	419.96	141.35	123.4	42.019	5.572e-06	52.066	0.00072622	0.0005331	0.00015405	1385.9	5.8985e-06	5.9206e-06	1384.9	377.07	6.0046e-06	6.1134e-06	430.3	144.71	126.01	43.498	5.5408e-06	53.844	103.556	161.193	173.739	95.913	226.527	226.323	95.827	100.643	214.890	235.768	99.929	104.270	104.588	109.624	231.931	108.289	-8191	255	
51053.730	1	1	0	0	0.099575	0.16469	0.3158	0.29274	0.11363	0.26597	0.24548	0.11027	0.25642	0.075516	0.29691	0.088711	0.20096	0.14139	0.16675	0.28054	-2.7896	-3.6667	-2.7917	-3.6688	-3.3812	-2.9667	-3.6437	-3.1875	-3.2542	-3.8792	-2.9562	-3.6458	-3.4604	-2.9583	-3.5146	-3.0833	411.736	369.152	248.017	344.506	248.506	302.697	415.502	382.065	343.868	328.791	340.033	441.532	383.303	407.263	140.433	429.300	0.0011234	0.00048497	0.00010084	1357.8	5.4106e-06	4.8042e-06	1362.7	370.26	5.8574e-06	4.4282e-06	419.72	141.89	123.36	42.195	7.0969e-06	52.305	0.00075148	0.0005366	0.00015986	1386.2	5.7149e-06	6.0825e-06	1386.3	378.14	5.853e-06	5.7878e-06	429.78	145.1	126.15	43.541	5.7647e-06	53.853	103.927	188.157	170.779	95.900	211.187	227.741	95.559	100.644	212.292	224.282	99.918	104.599	104.632	109.370	213.773	108.341	-8191	255	
51053.828	1	1	0	0	0.045455	0.10582	0.16049	0.11453	0.13211	0.20316	0.15952	0.011992	0.086825	0.1796	0.20087	0.12613	0.097956	0.20256	0.10934	0.21393	-2.9167	-3.7812	-2.8583	-3.6125	-3.4375	-2.8667	-3.7542	-3.2229	-2.9354	-3.6417	-2.9625	-3.4354	-3.4979	-2.8604	-3.6125	-3.3646	414.334	287.699	364.970	83.215	245.600	212.712	411.708	183.107	354.299	355.802	337.964	390.423	215.182	191.702	234.909	120.750	0.0010429	0.00048014	0.00010859	1364.7	5.5065e-06	4.9424e-06	1357.8	368.52	7.3404e-06	5.3529e-06	419.44	141.98	123.46	42.095	6.9242e-06	52.098	0.00072622	0.00050379	0.00016099	1386.7	6.0025e-06	6.2689e-06	1383.3	377.12	6.3293e-06	5.7282e-06	429.88	144.99	126.09	43.481	5.542e-06	53.805	103.596	162.758	180.919	95.977	205.807	243.058	95.763	100.627	218.026	231.576	99.869	104.472	104.793	109.398	231.719	108.367	-8191	255	
51053.945	1	1	0	0	0.29069	0.14209	0.093725	0.34766	0.1623	0.1474	0.47043	0.18311	0.14233	0.02003	0.14561	0.16124	0.1337	0.29404	0.19074	0.35108	-2.4688	-3.7208	-2.8396	-3.4708	-3.6146	-2.8729	-3.6667	-3.2896	-2.8229	-3.6729	-3.0854	-3.4396	-3.6833	-2.8479	-3.5208	-3.4542	258.085	363.046	88.371	401.929	237.386	299.967	390.099	390.398	387.035	351.390	339.688	171.980	400.943	430.214	348.475	435.155	0.0010521	0.00046096	0.00012425	1354.5	7.07e-06	4.9081e-06	1352.5	368.96	8.068e-06	5.3425e-06	418.78	141.08	122.6	41.775	6.6058e-06	51.844	0.00072835	0.00049588	0.00015314	1382.2	5.81e-06	6.3529e-06	1382.2	376.63	6.3316e-06	5.7939e-06	429.46	144.38	125.52	43.227	5.7261e-06	53.505	105.018	161.224	183.587	95.893	214.953	223.533	95.667	100.586	225.670	225.138	100.040	104.151	104.910	109.431	230.977	108.239	-8191	255	
51054.020	1	1	0	0	0.16984	0.13306	0.17631	0.29917	0.028066	0.14976	0.24585	0.121	0.31841	0.28605	0.26867	0.1988	0.11063	0.13185	0.11413	0.025742	-2.5583	-3.7	-2.9021	-3.3625	-3.6729	-2.9292	-3.8063	-3.4813	-2.7333	-3.7917	-3.1979	-3.225	-3.9375	-2.9292	-3.4313	-3.5125	138.235	233.454	197.717	421.537	363.632	142.817	351.069	83.981	278.736	204.839	151.407	157.220	372.994	162.848	313.054	291.001	0.0011228	0.00047654	0.00015146	1352.3	7.0255e-06	4.4261e-06	1360.2	368.83	6.3547e-06	5.6875e-06	416.51	141.31	122.72	41.729	6.5554e-06	52.06	0.00075666	0.00047721	0.00015263	1381.9	5.8421e-06	6.4079e-06	1382.2	376.24	6.0929e-06	5.5891e-06	428.09	144.23	125.64	43.229	6.1055e-06	53.624	103.514	172.461	176.555	95.908	218.890	242.247	95.735	100.566	221.279	238.516	99.807	104.356	105.000	109.591	222.671	108.521	-8191	255	
51054.113	1	1	0	0	0.087321	0.039923	0.12668	0.12404	0.1025	0.2227	0.48714	0.20144	0.028215	0.26341	0.16397	0.22401	0.28782	0.23826	0.17114	0.049475	-2.5458	-3.525	-3.0521	-3.2292	-3.7708	-2.8458	-3.4958	-3.5396	-2.9167	-3.6083	-3.3625	-3.0604	-3.7833	-3.1042	-3.3167	-3.6521	159.234	403.765	322.372	429.352	341.117	88.253	351.528	371.620	98.214	144.357	429.853	383.232	370.747	86.169	376.194	99.725	0.0010611	0.00052775	0.00015519	1359.7	6.0209e-06	4.9354e-06	1360.2	368.02	6.9493e-06	6.1053e-06	418.34	141.41	122.96	42.095	6.1952e-06	51.88	0.00073606	0.00050768	0.00015245	1384.1	6.0091e-06	6.44e-06	1384.3	375.96	6.0487e-06	5.5967e-06	429.22	144.68	125.66	43.382	5.8518e-06	53.716	103.461	170.971	181.661	96.053	220.324	246.903	95.544	100.657	225.220	232.479	99.939	104.237	104.957	109.420	222.853	108.452	-8191	255	
51054.211	1	1	0	0	0.18445	0.066374	0.16319	0.35601	0.0079729	0.31656	0.21765	0.095937	0.13098	0.1403	0.26942	0.10185	0.18623	0.033025	0.17679	0.096106	-2.3208	-3.6562	-3.1813	-3.0438	-3.7667	-2.9562	-3.4396	-3.6813	-2.9292	-3.5146	-3.5438	-3.0104	-3.9188	-3.0333	-3.2417	-3.7771	92.946	343.824	432.618	414.264	256.198	91.565	406.536	430.463	409.681	415.335	106.714	104.992	343.713	410.528	351.112	406.621	0.0011174	0.00049172	0.00014007	1356.5	6.5694e-06	4.0198e-06	1359.8	368	7.3249e-06	6.0537e-06	417.52	142.14	122.85	42.131	6.527e-06	52.148	0.00073901	0.00049951	0.00014711	1383.4	6.0268e-06	6.2032e-06	1382.9	375.87	6.3373e-06	5.6762e-06	429.05	144.81	125.79	43.404	5.9476e-06	53.775	104.783	162.701	164.104	96.027	221.426	238.540	95.755	100.579	217.305	216.259	99.939	104.510	104.940	109.160	222.195	108.344	-8191	255	
51054.332	1	1	0	0	0.038969	0.18604	0.15118	0.1413	0.17482	0.1569	0.13988	0.21796	0.17893	0.10704	0.21592	0.13988	0.080163	0.23301	0.063567	0.10693	-2.4917	-3.3688	-3.5146	-3.0104	-3.7083	-3.0917	-3.2708	-3.6833	-2.775	-3.4125	-3.7667	-2.8563	-3.6083	-3.4375	-3.2	-3.8417	195.092	223.805	118.914	409.296	132.400	421.251	106.747	396.807	406.210	333.464	335.550	145.178	84.895	438.784	351.624	263.652	0.0010839	0.00051905	0.00010887	1355.8	6.323e-06	3.9305e-06	1357.5	369.59	7.094e-06	4.8083e-06	418.34	141.85	123.04	41.918	7.0516e-06	52.106	0.0007183	0.00053297	0.00013835	1382.7	5.8266e-06	5.7205e-06	1382.3	377.08	5.8756e-06	5.612e-06	429.38	144.72	125.73	43.336	5.9189e-06	53.678	105.545	169.211	178.560	95.886	220.605	235.262	95.820	100.574	229.561	239.797	99.848	104.495	105.043	109.353	223.231	108.799	-8191	255	
51054.426	1	1	0	0	0.072789	0.26633	0.29008	0.15814	0.10277	0.21949	0.27807	0.34439	0.22198	0.2478	0.22012	0.23986	0.25487	0.2017	0.19914	0.11229	-2.6188	-3.1979	-3.5021	-2.9688	-3.6229	-3.1896	-3.0958	-3.7708	-2.875	-3.2396	-3.7646	-2.7458	-3.7125	-3.475	-2.8375	-3.8229	426.757	161.583	84.201	392.906	286.568	396.655	367.169	94.487	136.846	275.996	329.510	86.723	377.195	404.764	262.412	298.906	0.0010395	0.00055554	0.00014025	1356.5	5.6288e-06	4.1002e-06	1358.2	368.93	6.3854e-06	4.8264e-06	420.15	141.73	123.24	42.021	7.5057e-06	52.065	0.00072244	0.00054049	0.00014591	1383.1	5.7039e-06	5.6655e-06	1382.6	376.54	5.7557e-06	5.9361e-06	429.76	144.61	125.93	43.415	6.2785e-06	53.711	103.351	179.192	185.446	95.969	216.164	237.085	95.762	100.646	214.949	246.971	99.897	104.573	104.947	109.661	229.143	108.519	-8191	255	
51054.523	1	1	0	0	0.27074	0.13077	0.25491	0.26143	0.2342	0.11144	0.24325	0.1695	0.15942	0.16562	0.20402	0.18613	0.10931	0.22745	0.050003	0.065527	-2.6896	-3.075	-3.6104	-3.0021	-3.2938	-3.5146	-3.0958	-3.8187	-3	-3.1	-3.6354	-2.8958	-3.5438	-3.4958	-2.6292	-3.7708	264.581	84.371	267.632	392.125	103.797	96.572	388.697	435.656	109.753	359.336	405.645	389.998	354.107	378.117	250.184	136.764	0.0010614	0.00053459	0.0001407	1355.8	5.2466e-06	5.2611e-06	1358.8	369.17	6.4523e-06	5.824e-06	419.44	142.25	122.87	42.005	5.2311e-06	52.078	0.00072483	0.00052415	0.00014038	1382.2	5.5988e-06	5.7342e-06	1383.8	376.82	6.1166e-06	5.7771e-06	429.34	144.87	125.69	43.414	6.1565e-06	53.725	104.569	172.467	180.392	95.843	219.586	232.345	95.619	100.767	218.861	223.779	99.906	104.314	104.982	109.452	229.321	108.548	-8191	255	
51054.617	1	1	0	0	0.26685	0.15755	0.10135	0.072353	0.052875	0.10588	0.089986	0.19753	0.043465	0.3443	0.096886	0.18756	0.11574	0.083964	0.14565	0.24146	-2.5625	-3.025	-3.6667	-2.8979	-3.2583	-3.6167	-2.9313	-3.7771	-3.1125	-2.7167	-3.7938	-2.8896	-3.3812	-3.8021	-2.8396	-3.6208	112.187	124.051	435.955	435.780	181.711	135.075	415.706	388.942	221.106	271.226	375.117	350.349	391.135	383.830	317.486	392.994	0.0010764	0.00043046	0.00011783	1355.4	6.6932e-06	4.1005e-06	1357.9	368.9	6.8229e-06	5.5202e-06	419.43	141.41	122.85	42.02	6.4351e-06	52.099	0.00073088	0.00055268	0.00014307	1382.9	5.9262e-06	5.5005e-06	1381.3	376.4	5.7783e-06	6.2296e-06	429.31	144.5	125.79	43.372	6.1814e-06	53.767	105.591	169.754	178.003	95.972	222.633	238.588	95.518	100.678	220.744	234.803	99.862	104.485	105.160	109.424	227.248	108.437	-8191	255	
51054.715	1	1	0	0	0.065301	0.066423	0.15642	0.44202	0.25973	0.12858	0.11651	0.21268	0.050066	0.14892	0.16809	0.087366	0.12784	0.24544	0.073797	0.084982	-3.0708	-2.8812	-3.525	-3.0771	-3.1	-3.725	-2.9313	-3.5812	-3.4604	-2.8375	-3.8333	-3.1042	-3.0104	-3.8479	-2.6958	-3.6896	303.212	363.799	266.676	87.263	130.781	129.305	294.086	119.315	388.941	84.521	351.101	355.291	290.550	436.488	321.306	99.876	0.0011225	0.00054638	0.00012384	1353	6.4815e-06	5.2721e-06	1353.1	369.38	5.533e-06	5.0772e-06	419.09	141.2	122.89	41.977	6.7979e-06	51.855	0.00073425	0.0005672	0.00013493	1380.5	5.7846e-06	5.5662e-06	1381.3	376.56	5.8123e-06	6.3855e-06	429.47	144.23	125.6	43.36	6.1192e-06	53.736	104.179	165.036	177.719	95.934	216.910	232.245	95.688	100.655	215.666	232.215	100.251	104.202	105.102	109.289	224.815	108.472	-8191	255	
51054.812	1	1	0	0	0.11248	0.16063	0.036365	0.17286	0.056885	0.20573	0.22879	0.15259	0.18651	0.34933	0.26548	0.084568	0.095941	0.089835	0.14931	0.35463	-3.0729	-2.8396	-3.6333	-3.1688	-3.0917	-3.675	-2.9021	-3.3542	-3.4625	-2.7771	-3.8625	-3.3646	-3.0458	-3.8292	-2.6521	-3.5021	397.814	209.783	116.485	403.502	187.338	333.484	397.672	226.762	257.834	259.696	229.966	152.496	424.399	106.394	288.081	382.806	0.0010619	0.00053155	0.00014909	1357	6.426e-06	4.3765e-06	1356.5	368.45	7.0617e-06	4.7208e-06	418.8	141.05	123.27	41.802	5.6392e-06	51.526	0.00070547	0.00058108	0.00013653	1380.8	6.1285e-06	5.5723e-06	1380.3	375.9	5.9865e-06	5.959e-06	428.62	144.08	125.51	43.21	5.7821e-06	53.417	103.389	169.054	169.420	95.864	218.177	230.095	95.779	100.856	212.681	238.179	99.816	104.558	104.734	109.601	227.317	108.873	-8191	255	
51054.934	1	1	0	0	0.045674	0.21778	0.15591	0.30498	0.096018	0.084896	0.30222	0.30262	0.1588	0.0752	0.11859	0.073324	0.21347	0.23828	0.13832	0.15772	-3.1063	-2.8521	-3.5062	-3.2562	-2.9167	-3.6417	-3.3063	-3.4667	-3.6146	-2.8229	-3.6271	-3.2792	-3.0167	-3.6146	-2.85	-3.3417	304.097	299.519	166.526	401.866	437.115	197.743	425.053	403.595	412.027	169.282	364.539	382.875	398.059	383.844	370.189	258.779	0.0010853	0.00054651	0.00015049	1350.7	6.4239e-06	4.9467e-06	1348.2	365.41	5.6105e-06	5.6284e-06	415.56	139.22	120.47	41.212	6.2433e-06	50.531	0.00072327	0.00056072	0.00014747	1377	6.2325e-06	5.609e-06	1373.3	373.09	5.6957e-06	6.3198e-06	424.56	142.02	123.29	42.398	5.7821e-06	52.392	105.140	168.514	177.698	95.809	220.921	231.885	95.686	100.620	220.837	240.654	100.130	104.333	105.037	109.449	236.325	108.619	-8191	255	
51055.027	1	1	0	0	0.17657	0.16219	0.19734	0.34263	0.069991	0.079079	0.11261	0.081155	0.04628	0.27146	0.1596	0.23765	0.11252	0.25011	0.20896	0.13195	-3.3208	-2.8854	-3.4708	-3.6063	-2.7146	-3.6375	-3.2479	-3.1688	-3.5083	-2.7292	-3.4792	-3.3208	-2.875	-3.7875	-3.0771	-3.0604	153.525	127.317	373.337	425.087	266.185	338.152	424.924	83.350	185.784	259.173	269.677	88.114	381.460	381.457	126.550	434.034	0.0010686	0.00043128	0.00013186	1343.7	6.6486e-06	3.8665e-06	1342	361.79	7.51e-06	4.6909e-06	411.71	137.83	120.07	41.082	6.5791e-06	50.544	0.00069719	0.00060092	0.00014358	1368.4	6.3596e-06	5.5784e-06	1365.6	369.15	5.6618e-06	6.3763e-06	422.05	141.01	122.81	42.277	6.266e-06	52.286	104.958	167.083	174.016	95.955	219.187	227.976	95.761	100.726	221.784	227.596	100.018	104.413	104.716	109.757	217.442	108.364	-8191	255	
51055.121	1	1	0	0	0.1844	0.27841	0.37903	0.23892	0.14493	0.14736	0.1291	0.13857	0.10277	0.021284	0.16165	0.082055	0.18133	0.18975	0.13973	0.12561	-3.3563	-2.7667	-3.175	-3.4417	-2.7875	-3.6104	-3.1813	-2.9688	-3.675	-2.8354	-3.2125	-3.65	-2.9979	-3.7313	-3.125	-3.0854	176.170	146.739	407.082	399.486	185.329	235.174	252.487	301.474	258.069	104.405	228.910	90.615	390.500	89.270	200.552	301.185	0.0010652	0.00043119	0.00014344	1340.6	5.3798e-06	5.1665e-06	1339.9	361.01	7.1573e-06	4.182e-06	409.74	137.42	119.75	40.762	5.4635e-06	50.398	0.00070707	0.00055527	0.00015307	1364.9	6.1827e-06	5.4807e-06	1361.6	367.97	5.7455e-06	6.4528e-06	420.95	140.52	122.48	42.081	5.7149e-06	52.151	104.450	172.423	168.417	95.861	220.879	231.495	95.886	100.622	224.080	235.218	100.228	104.395	104.919	109.702	229.317	108.684	-8191	255	
51055.242	1	1	0	0	0.16282	0.058578	0.14212	0.16924	0.18013	0.10785	0.27346	0.23417	0.098257	0.13742	0.16743	0.2125	0.1307	0.13292	0.35141	0.060772	-3.2583	-2.7125	-3.1646	-3.7896	-2.7125	-3.5938	-3.525	-3.0125	-3.6125	-2.8292	-3.2979	-3.7208	-2.8583	-3.5771	-3.3604	-2.8583	270.273	214.984	344.153	92.492	235.711	228.497	320.219	389.933	267.661	309.673	415.276	337.773	301.438	434.241	299.421	258.391	0.0010866	0.00043429	0.00012745	1336.3	7.4374e-06	5.3755e-06	1333.6	359.27	6.8262e-06	3.4859e-06	410.72	137.51	119.42	40.798	5.747e-06	50.239	0.00072022	0.00057135	0.00015114	1362.2	6.3021e-06	6.0795e-06	1358.7	366.84	5.5792e-06	5.8245e-06	420.1	140.25	121.96	41.979	5.5507e-06	52.075	105.224	164.544	186.144	96.028	213.305	234.822	95.505	100.876	218.706	240.104	100.095	104.422	105.101	109.701	219.444	108.723	-8191	255	
51055.316	1	1	0	0	0.26215	0.068293	0.016005	0.066934	0.23598	0.13175	0.097234	0.065208	0.043977	0.18447	0.10116	0.17527	0.16611	0.24152	0.1666	0.11192	-3.2458	-3.0625	-2.8521	-3.7125	-2.8875	-3.4854	-3.5604	-3.0187	-3.65	-3.0396	-3.1688	-3.7417	-2.9354	-3.4688	-3.6	-2.8812	161.024	406.915	404.664	440.936	230.296	232.533	362.318	406.710	282.422	121.918	278.057	411.233	165.328	90.613	365.035	155.064	0.0010266	0.00047351	0.00014125	1331.2	6.1019e-06	4.8565e-06	1328.5	357.02	6.6117e-06	4.3221e-06	408.8	136.53	119.13	40.654	6.1252e-06	50.283	0.0007049	0.00054801	0.00016044	1358.1	6.4735e-06	5.8992e-06	1356	365.89	6.0589e-06	6.1241e-06	419.33	139.55	121.66	41.905	5.7448e-06	51.953	105.482	167.466	173.790	96.027	215.119	224.673	95.709	100.740	226.009	237.851	100.289	104.649	104.724	109.707	218.282	108.752	-8191	255	
51055.410	1	1	0	0	0.083374	0.224	0.14411	0.21705	0.13769	0.31621	0.15867	0.037525	0.21645	0.27112	0.14817	0.20372	0.23731	0.22633	0.12902	0.042473	-3.1583	-3.1437	-2.8292	-3.6979	-2.9271	-3.2396	-3.7292	-2.875	-3.5479	-3.2396	-2.9979	-3.7125	-2.9729	-3.1583	-3.4562	-2.9604	168.051	361.788	134.507	399.348	311.950	225.268	414.034	204.636	269.667	170.996	352.726	107.932	97.442	294.323	198.959	116.468	0.0010118	0.00055771	0.00013212	1328.5	7.233e-06	4.8404e-06	1330.5	358.3	6.6006e-06	5.3448e-06	409.25	136	118.24	40.483	6.3701e-06	50.174	0.00068575	0.00056241	0.00016212	1355.2	6.2402e-06	6.0413e-06	1353.1	365.51	5.7602e-06	5.9116e-06	418.72	139.38	121.28	41.765	5.6117e-06	51.753	104.348	168.233	177.801	95.980	214.934	221.287	95.640	100.699	220.832	221.114	100.239	104.430	104.836	109.619	226.283	108.786	-8191	255	
51055.508	1	1	0	0	0.26034	0.090338	0.24081	0.23197	0.18435	0.086579	0.28394	0.36732	0.12512	0.25805	0.15607	0.070604	0.25003	0.107	0.11099	0.065702	-3.0292	-3.2229	-2.6583	-3.7958	-2.8958	-2.9792	-3.825	-2.8021	-3.4458	-3.3063	-2.9188	-3.85	-3.2812	-3.1521	-3.5896	-2.9333	192.245	219.557	367.991	368.134	150.156	351.113	419.053	85.879	146.260	235.541	412.542	257.980	378.463	243.373	229.500	269.852	0.0010902	0.00049556	0.00014558	1330.6	6.1766e-06	3.8978e-06	1329.6	356.97	6.3249e-06	6.143e-06	409.07	137.25	118.76	40.397	6.0982e-06	49.971	0.00072172	0.00054827	0.00016797	1354.2	5.8797e-06	6.1482e-06	1351.8	364.86	5.8089e-06	5.8566e-06	418.06	139.52	121.31	41.711	6.0533e-06	51.667	105.272	177.669	188.281	95.918	226.232	236.350	95.663	100.573	215.874	239.766	100.064	104.623	104.910	109.586	224.567	108.699	-8191	255	
51055.629	1	1	0	0	0.093342	0.18197	0.11829	0.41109	0.26684	0.15461	0.097843	0.18694	0.19291	0.12562	0.11042	0.15177	0.094283	0.21974	0.22576	0.20947	-2.8479	-3.3875	-3.0229	-3.8063	-3.1	-3.0625	-3.7979	-2.7625	-3.3729	-3.3771	-2.8333	-3.65	-3.3438	-3.1354	-3.7917	-3.0708	181.982	154.538	389.635	411.156	127.332	319.028	147.975	375.448	174.306	318.509	305.389	340.180	120.661	408.214	249.285	352.617	0.0010644	0.00046228	0.00012345	1328.4	5.5072e-06	3.8583e-06	1329.7	357.49	7.5879e-06	5.2168e-06	407.57	136.16	118.7	40.394	6.7281e-06	50.083	0.00071463	0.00053271	0.00016557	1353.4	6.05e-06	6.2353e-06	1351.5	365.16	6.18e-06	5.7251e-06	417.65	139.41	121.27	41.662	5.6577e-06	51.686	106.511	167.758	173.287	95.973	213.808	223.293	95.885	100.802	212.507	241.321	100.121	104.731	104.862	109.762	228.106	108.660	-8191	255	
51055.723	1	1	0	0	0.12902	0.10605	0.11211	0.045872	0.049872	0.12919	0.13217	0.157	0.17914	0.097842	0.10811	0.11071	0.071704	0.17116	0.10288	0.18071	-3.0021	-3.425	-2.8375	-3.5021	-3.1937	-2.975	-3.9333	-3.0104	-3.1333	-3.6813	-2.9167	-3.45	-3.3396	-2.9354	-3.5208	-2.9958	93.232	168.715	351.504	395.085	159.871	86.189	414.433	398.256	368.490	435.209	256.841	313.642	115.173	399.725	285.228	370.675	0.0010492	0.00046634	0.00011951	1325.5	6.041e-06	3.7702e-06	1327	356.41	5.8623e-06	6.1169e-06	408.41	136.41	118.64	40.509	5.1915e-06	50.082	0.00071385	0.0005711	0.00015888	1351.6	5.8587e-06	6.3514e-06	1351.3	364.74	6.0239e-06	5.8581e-06	418.75	139.39	121.24	41.828	5.6241e-06	51.703	104.126	162.414	176.181	96.071	222.408	228.305	95.642	100.436	218.656	224.648	99.676	104.624	104.865	109.617	232.467	108.672	-8191	255	
51055.820	1	1	0	0	0.15519	0.08912	0.19226	0.15689	0.30825	0.052764	0.090115	0.17999	0.11838	0.069257	0.10744	0.011345	0.35486	0.074158	0.066533	0.12045	-2.6708	-3.5896	-2.8438	-3.5479	-3.4604	-2.8667	-3.7729	-3.0896	-2.9792	-3.6208	-2.7958	-3.5083	-3.525	-2.9875	-3.7	-3.3167	159.040	378.158	334.274	192.909	265.047	212.120	416.031	371.541	129.342	133.453	421.075	170.419	376.242	291.901	295.606	153.703	0.0010219	0.00058581	0.00014533	1328.5	6.3634e-06	4.4799e-06	1327.9	356.5	5.4826e-06	4.6833e-06	406.52	136.09	118.75	40.477	5.6782e-06	49.886	0.00070925	0.00052506	0.0001603	1354.1	5.8366e-06	6.278e-06	1351.4	364.31	6.1789e-06	5.5447e-06	417.21	139.13	121.23	41.727	5.6042e-06	51.629	103.943	170.987	173.369	96.104	229.849	236.361	95.668	100.588	219.107	226.249	100.055	104.714	104.749	109.611	223.552	108.744	-8191	255	
51055.891	1	1	0	0	0.036479	0.037156	0.075907	0.26123	0.15538	0.080406	0.14897	0.20048	0.36318	0.25142	0.18645	0.26761	0.068183	0.094572	0.13662	0.2616	-2.7667	-3.5083	-2.7646	-3.4938	-3.5062	-2.6458	-3.8375	-3.2333	-2.8688	-3.8771	-2.8958	-3.3	-3.6479	-2.9604	-3.3812	-3.4208	318.717	324.192	352.988	374.337	404.310	322.377	374.775	408.548	306.490	182.869	240.828	348.693	404.240	337.927	374.928	397.139	0.0010148	0.00047878	0.00015184	1321.4	6.4464e-06	5.1272e-06	1327.2	358.34	7.0528e-06	4.7912e-06	406.83	136.53	118.16	40.352	5.47e-06	50.06	0.00071106	0.00051611	0.00015481	1350.3	6.0058e-06	6.3422e-06	1351.3	364.73	6.309e-06	5.5799e-06	417	139.26	121.04	41.641	5.7846e-06	51.607	106.302	166.181	158.476	95.881	217.850	229.082	95.328	99.998	219.136	216.085	99.589	104.018	104.645	109.114	225.655	108.214	-8191	255	
51056.012	1	1	0	0	0.27715	0.027023	0.26477	0.16351	0.13766	0.13033	0.28433	0.057827	0.052736	0.20354	0.24412	0.024147	0.23128	0.3988	0.11504	0.13624	-2.4771	-3.5979	-2.9375	-3.2062	-3.6646	-2.7896	-3.5833	-3.5771	-2.8063	-3.5729	-3.1708	-3.0854	-3.6542	-2.9271	-3.3875	-3.4167	103.078	240.234	107.972	124.553	105.981	112.314	376.246	387.184	134.641	205.343	110.833	341.780	418.404	93.661	384.584	364.864	0.001035	0.0004255	0.00013074	1325.6	5.4331e-06	4.4774e-06	1326.3	357.43	6.0612e-06	4.5352e-06	407.81	135.64	118.49	40.15	6.0481e-06	49.865	0.00072048	0.00051183	0.00015794	1351.3	5.9439e-06	6.5011e-06	1349.8	364.45	6.0544e-06	5.4515e-06	417.81	138.9	121.01	41.57	5.8306e-06	51.542	104.587	157.583	181.153	95.515	202.989	242.867	95.317	100.207	227.194	231.551	99.234	104.086	104.382	109.079	231.899	108.117	-8191	255	
51056.105	1	1	0	0	0.17129	0.18482	0.023285	0.25617	0.13995	0.030815	0.16193	0.037913	0.18372	0.21409	0.046868	0.14403	0.099614	0.2247	0.16537	0.26949	-2.4667	-3.6229	-3.0917	-2.975	-3.625	-2.8333	-3.3667	-3.5896	-2.9229	-3.6042	-3.2979	-3.0563	-3.6208	-2.8854	-3.2042	-3.5187	369.890	302.805	270.314	350.131	424.442	323.678	388.224	394.011	136.755	405.354	246.315	323.242	318.423	425.845	107.244	439.505	0.0010406	0.0004285	0.00011205	1325.7	5.1318e-06	4.2139e-06	1328.3	355.58	6.6021e-06	5.5753e-06	406.43	136.89	118.03	40.211	6.3259e-06	49.774	0.00071302	0.00052584	0.00014707	1350.8	5.7094e-06	6.4354e-06	1348.6	363.72	6.2716e-06	6.0507e-06	417.07	139.15	120.84	41.545	6.2287e-06	51.543	106.315	171.997	175.195	95.583	203.592	237.343	95.381	100.188	220.862	228.726	99.373	103.907	104.188	108.999	217.237	107.965	-8191	255	
51056.203	1	1	0	0	0.09343	0.039878	0.077646	0.38124	0.14992	0.2248	0.12096	0.19487	0.12807	0.19656	0.21643	0.13884	0.095815	0.19015	0.11585	0.14388	-2.4729	-3.6437	-3.1875	-2.9521	-3.5521	-3.0167	-3.3563	-3.7792	-2.6625	-3.5958	-3.4271	-2.9625	-3.8333	-3.0896	-3.2583	-3.7438	184.828	128.085	169.766	95.990	108.180	436.306	265.904	362.700	172.317	211.284	351.507	349.051	325.628	399.235	101.431	265.388	0.0010306	0.0004939	0.0001332	1324.9	5.2576e-06	4.2744e-06	1323.4	356.56	6.203e-06	4.8896e-06	407.61	135.91	118.25	40.3	7.0231e-06	49.945	0.00073388	0.00054581	0.00015161	1351.3	5.7138e-06	6.3055e-06	1348	363.8	6.1483e-06	5.5019e-06	416.96	139.07	121.13	41.621	5.9936e-06	51.651	103.705	160.173	175.535	95.493	214.466	243.757	95.301	100.192	208.753	232.225	99.373	103.966	104.515	109.083	219.672	108.023	-8191	255	
51056.324	1	1	0	0	0.26644	0.13446	0.14566	0.37457	0.034096	0.1633	0.13817	0.25116	0.25614	0.034122	0.32221	0.12841	0.092363	0.14553	0.052763	0.13793	-2.5146	-3.3812	-3.4354	-3.0896	-3.6542	-3.0083	-3.2917	-3.7354	-2.8708	-3.4938	-3.5604	-2.9313	-3.7812	-3.1688	-3.0229	-3.7229	407.228	427.204	405.462	413.024	112.601	229.685	404.420	357.555	387.028	385.434	83.456	142.946	305.605	426.795	430.022	376.182	0.0010399	0.0003949	0.00013868	1324	6.3293e-06	5.2041e-06	1322.5	356.6	6.4017e-06	4.7274e-06	407.62	135.88	118.44	40.275	6.516e-06	49.861	0.00071685	0.00053141	0.00015281	1349.7	6.019e-06	6.0459e-06	1348.6	364.28	6.1279e-06	6.1455e-06	417.48	138.95	120.97	41.587	6.4016e-06	51.662	102.945	167.945	184.729	95.543	217.743	232.376	95.159	100.140	215.177	239.168	99.194	104.246	104.241	109.116	220.206	108.320	-8191	255	
51056.422	1	1	0	0	0.18167	0.1043	0.098805	0.39039	0.14244	0.17483	0.49211	0.11797	0.099928	0.053154	0.10425	0.27321	0.24456	0.095139	0.11996	0.15898	-2.5479	-3.2125	-3.5417	-2.9125	-3.6792	-3.0312	-3.0563	-3.7812	-3.0333	-3.1708	-3.475	-2.7771	-3.6375	-3.3	-2.7458	-3.7354	350.535	433.910	128.972	409.898	115.511	128.624	370.455	369.999	260.426	291.935	313.418	416.197	111.339	431.268	397.814	435.942	0.0010307	0.00051673	0.00014752	1323.2	7.1785e-06	4.3073e-06	1319.6	355.96	6.894e-06	5.0273e-06	408.28	136.08	118.72	40.272	7.1748e-06	50.191	0.00071566	0.00053453	0.00015321	1348.4	6.0257e-06	6.107e-06	1349.4	363.56	5.9797e-06	6.306e-06	418.24	139.34	121.25	41.656	6.7076e-06	51.718	104.877	171.418	187.145	95.382	213.586	247.197	95.159	100.157	224.007	241.315	99.595	103.897	104.614	108.984	230.001	107.984	-8191	255	
51056.516	1	1	0	0	0.075965	0.056918	0.20354	0.46876	0.13359	0.13408	0.26301	0.11419	0.30762	0.23802	0.32987	0.12607	0.059032	0.19625	0.084821	0.20051	-2.4583	-2.9896	-3.5812	-2.9292	-3.2708	-3.1896	-3.0812	-3.7438	-2.9271	-2.8917	-3.6646	-2.7625	-3.5792	-3.5208	-2.925	-3.6083	416.562	115.450	386.325	399.809	241.071	438.360	351.563	389.564	392.445	432.413	379.886	406.074	353.339	85.709	337.029	435.676	0.0010751	0.00045708	0.00014412	1321.7	5.7807e-06	4.055e-06	1324.8	356.7	5.454e-06	5.3342e-06	407.75	136.06	118.65	40.204	5.3438e-06	49.94	0.00073689	0.00056163	0.00014863	1349.8	5.6066e-06	6.0214e-06	1349.2	364.63	5.9254e-06	6.7601e-06	417.99	139.18	121.28	41.597	6.3755e-06	51.624	105.862	170.580	174.396	95.274	218.221	229.600	94.857	100.023	213.072	226.108	99.625	104.051	104.667	109.067	232.803	108.312	-8191	255	
51056.613	1	1	0	0	0.070912	0.27659	0.13372	0.24541	0.080899	0.13172	0.14246	0.30406	0.26296	0.033757	0.17903	0.12568	0.12051	0.20155	0.42906	0.36106	-2.6562	-2.925	-3.5271	-3.1479	-3.2896	-3.6021	-3.0104	-3.7104	-3.1167	-2.9667	-3.6792	-2.8187	-3.4354	-3.6083	-2.7875	-3.6417	436.663	298.133	321.500	84.472	305.699	440.846	395.332	391.280	235.204	183.952	98.956	196.683	403.740	417.182	94.325	395.470	0.0010412	0.00050907	0.00013638	1322.5	6.5684e-06	4.2358e-06	1325	356.66	6.8812e-06	4.6444e-06	409.59	136.39	119.21	40.232	6.8331e-06	50	0.00072974	0.00057939	0.00014671	1349.3	5.6884e-06	6.0123e-06	1350.8	364.19	5.8044e-06	6.1761e-06	418.63	139.45	121.47	41.697	6.174e-06	51.709	102.698	164.426	184.021	95.433	219.838	221.807	95.008	100.275	216.874	232.933	99.479	103.820	104.465	109.222	230.782	108.229	-8191	255	
51056.707	1	1	0	0	0.08493	0.18281	0.15113	0.18934	0.26887	0.12476	0.35237	0.1127	0.17377	0.11197	0.21415	0.40037	0.16212	0.23809	0.054366	0.2627	-3.0917	-2.8812	-3.6479	-3.0646	-3.2125	-3.7021	-2.9271	-3.6604	-3.3083	-2.8729	-3.7313	-3.1417	-3.2188	-3.6604	-2.8	-3.5875	214.521	316.386	354.493	147.910	355.607	89.038	423.379	408.252	220.425	313.951	365.086	426.158	396.732	89.321	95.024	389.371	0.0010201	0.00052973	0.00011336	1324.4	6.5961e-06	2.6011e-06	1326	355.47	5.9139e-06	5.7138e-06	409	135.98	118.47	40.399	6.3374e-06	50.121	0.00070562	0.00057187	0.00014591	1349.8	6.0168e-06	5.7174e-06	1349.4	363.9	5.87e-06	6.2495e-06	418.75	139.11	121.22	41.734	6.3519e-06	51.733	104.918	176.752	172.873	95.520	219.329	234.338	95.033	100.081	215.402	236.054	99.372	103.935	104.289	109.021	220.943	108.399	-8191	255	
51056.805	1	1	0	0	0.033102	0.018442	0.08872	0.22945	0.041359	0.015667	0.095165	0.083593	0.10768	0.080321	0.16831	0.19129	0.13416	0.22503	0.18603	0.31639	-3.075	-2.8167	-3.6042	-3.1979	-2.9813	-3.6958	-3.0354	-3.6208	-3.4479	-2.6792	-3.6792	-3.2479	-3.1271	-3.725	-2.8063	-3.4562	149.187	197.838	176.129	410.746	262.619	191.615	387.561	382.624	396.175	196.567	297.481	389.877	422.779	120.820	396.706	343.179	0.0010497	0.00048472	0.00014474	1323.5	6.2899e-06	4.7793e-06	1323.3	357.12	6.8519e-06	4.3258e-06	406.72	136.21	118.36	40.123	5.7741e-06	50.113	0.00071421	0.00054062	0.00014783	1349.9	6.1418e-06	6.1558e-06	1348.8	364.89	6.1155e-06	6.3886e-06	418.19	139.34	121.2	41.624	6.4178e-06	51.692	102.900	158.668	179.747	95.265	220.525	222.791	95.203	100.148	219.527	237.273	99.436	103.781	104.299	108.920	220.419	107.963	-8191	255	
51056.926	1	1	0	0	0.30666	0.39422	0.22809	0.25685	0.058337	0.16376	0.31655	0.16321	0.19163	0.004502	0.26573	0.1364	0.25201	0.15856	0.018232	0.16037	-3.0792	-2.8021	-3.4771	-3.4354	-2.7292	-3.7604	-2.8771	-3.3438	-3.6583	-2.7521	-3.6542	-3.4146	-2.9208	-3.7042	-2.8354	-3.3396	132.794	210.862	228.830	437.901	351.486	195.860	369.759	435.848	177.246	370.829	381.678	99.033	94.267	202.507	221.245	367.724	0.0010279	0.00046319	0.00013614	1324.3	5.8298e-06	4.6028e-06	1323.2	356.82	5.7931e-06	4.4212e-06	405.61	136.36	118.04	40.345	5.7181e-06	49.781	0.00070992	0.00060157	0.00014405	1350.4	6.405e-06	5.8015e-06	1348.2	364.68	5.474e-06	6.2479e-06	417.78	139.45	120.97	41.664	5.8468e-06	51.589	105.549	167.042	181.083	95.431	213.301	237.149	95.186	100.169	215.683	238.231	99.624	103.646	104.305	109.004	233.077	108.144	-8191	255	
51057.020	1	1	0	0	0.28293	0.24031	0.12079	0.26617	0.070324	0.14085	0.15379	0.11848	0.14355	0.17166	0.20496	0.39623	0.050919	0.23696	0.045917	0.032295	-3.2396	-2.7646	-3.5083	-3.5938	-2.8563	-3.8021	-3.0479	-3.1292	-3.6312	-2.6562	-3.6625	-3.4188	-2.9875	-3.7167	-3.0062	-3.1729	241.467	174.280	411.560	436.397	164.091	221.728	387.642	92.512	371.193	330.195	400.402	414.229	99.173	403.382	187.909	294.815	0.0010263	0.00047341	0.00012111	1327.2	6.4952e-06	5.1505e-06	1323.9	356.91	6.6505e-06	5.114e-06	407.86	136.56	118.65	40.339	6.5874e-06	50.077	0.00070065	0.00057641	0.00014587	1351.3	6.4149e-06	5.6747e-06	1350.1	364.74	5.6233e-06	6.303e-06	418.68	139.44	121.27	41.692	6.0359e-06	51.804	105.464	166.338	167.544	95.376	218.383	240.721	95.164	100.096	220.779	232.002	99.224	103.858	104.383	109.147	225.232	108.312	-8191	255	
51057.117	1	1	0	0	0.19169	0.15695	0.13185	0.11531	0.14322	0.12059	0.379	0.31863	0.17788	0.023323	0.21729	0.19263	0.057438	0.061863	0.074731	0.27045	-3.3167	-2.7104	-3.475	-3.5271	-2.6583	-3.5938	-3.4	-3.025	-3.5812	-2.7458	-3.4396	-3.5563	-2.7375	-3.6083	-3.2333	-3.0458	183.426	341.860	204.041	423.058	418.202	305.829	392.599	406.112	112.605	389.046	339.797	199.374	97.052	439.391	115.861	94.944	0.0010639	0.00046401	0.00013579	1321.3	4.9257e-06	4.4685e-06	1322.2	356.76	7.3215e-06	5.1273e-06	406.71	136.38	118.6	40.377	5.5512e-06	50.009	0.00071225	0.00057343	0.00014569	1349.7	6.2137e-06	5.9573e-06	1348.9	364.45	5.8971e-06	6.2005e-06	417.99	139.53	121.41	41.753	5.8605e-06	51.82	105.388	166.471	174.961	95.364	210.213	239.749	95.168	100.273	215.000	234.529	99.434	103.586	104.302	109.068	223.978	108.118	-8191	255	
51057.188	1	1	0	0	0.15076	0.20597	0.078332	0.21493	0.23971	0.080022	0.22644	0.16773	0.20059	0.1923	0.21257	0.23506	0.15651	0.23593	0.08405	0.084944	-3.2146	-2.8271	-3.05	-3.7479	-2.6312	-3.4562	-3.5229	-3.0271	-3.7062	-2.8646	-3.1667	-3.8125	-3.0187	-3.525	-3.4042	-2.8375	409.667	202.288	350.028	121.189	135.842	306.921	388.640	304.367	121.976	387.811	87.365	136.783	356.957	425.531	401.830	411.320	0.0010425	0.00043864	0.00013118	1327	6.3429e-06	3.3269e-06	1323.8	357.41	6.7453e-06	5.2461e-06	408.88	136.39	118.81	40.43	5.8196e-06	50.145	0.00070666	0.00055203	0.00015946	1352.4	6.2446e-06	5.803e-06	1351.1	365.63	5.7534e-06	6.1761e-06	419.53	139.73	121.58	41.796	5.8269e-06	51.894	105.300	166.987	171.156	95.255	220.760	223.492	94.941	100.315	222.274	238.598	99.570	103.903	104.573	108.945	229.764	108.075	-8191	255	
51057.309	1	1	0	0	0.16987	0.22632	0.064257	0.032784	0.10519	0.25374	0.13996	0.18235	0.23729	0.19426	0.32656	0.2946	0.047681	0.18528	0.10163	0.067948	-3.2417	-2.9708	-3.0083	-3.6937	-2.7167	-3.45	-3.7208	-2.9625	-3.5333	-3.0938	-3.05	-3.7979	-2.9667	-3.4625	-3.4875	-2.9208	427.073	432.150	344.040	255.073	161.567	117.919	411.107	331.955	144.362	206.955	405.762	252.222	87.667	345.905	221.699	302.497	0.001029	0.00051142	0.00013448	1329.1	6.2814e-06	4.3396e-06	1327.9	357.7	6.6483e-06	4.8594e-06	410.55	137.21	119.11	40.403	6.8273e-06	50.281	0.0007063	0.00056824	0.0001519	1353.6	6.2247e-06	5.6686e-06	1351.8	365.5	5.8338e-06	5.7954e-06	419.23	139.96	121.81	41.854	5.8095e-06	51.871	104.202	169.112	172.218	95.383	215.986	234.379	94.979	100.085	219.403	241.494	99.670	104.008	104.268	109.163	217.571	107.932	-8191	255	
51057.402	1	1	0	0	0.040725	0.06132	0.2456	0.10261	0.065316	0.44143	0.31449	0.16926	0.21174	0.064572	0.047738	0.11019	0.27985	0.25752	0.1461	0.35937	-3.3375	-3.1208	-2.8833	-3.8104	-2.8208	-3.2542	-3.6583	-2.9813	-3.3958	-3.3333	-2.9583	-3.65	-3.0917	-3.1562	-3.5896	-2.7958	315.367	395.395	298.497	349.898	293.096	326.763	394.368	285.778	289.824	375.773	329.558	427.002	383.320	363.420	95.120	291.479	0.001066	0.00047874	0.00012833	1327.9	6.9128e-06	4.7191e-06	1329.3	357.48	6.5777e-06	4.8675e-06	408.97	137.09	119.13	40.649	5.7166e-06	50.373	0.00070562	0.00052467	0.00014954	1352.9	6.3652e-06	6.33e-06	1351.9	365.81	5.6403e-06	6.1058e-06	419.2	140.08	121.8	41.963	5.7945e-06	51.929	106.308	185.700	167.089	95.250	219.552	231.986	95.107	100.044	223.825	223.449	99.379	103.862	104.242	109.088	237.025	108.152	-8191	255	
51057.500	1	1	0	0	0.037805	0.17431	0.17085	0.20591	0.30486	0.28076	0.3017	0.21457	0.12421	0.12036	0.18764	0.20631	0.11304	0.29997	0.10808	0.26714	-3.1042	-3.2188	-2.7979	-3.6104	-3.1063	-3.0458	-3.7542	-2.9333	-3.5667	-3.3438	-2.9667	-3.8312	-3.0354	-3.1354	-3.6667	-2.9021	108.136	244.145	139.377	97.288	214.933	330.228	389.920	248.544	179.305	174.003	297.235	344.424	127.332	407.062	153.453	219.033	0.0010511	0.00049004	0.00015626	1327.6	6.0331e-06	5.231e-06	1326.9	358.13	5.9192e-06	4.8592e-06	408.46	136.93	118.8	40.688	6.4607e-06	50.441	0.00071142	0.00053725	0.00016386	1354.9	6.0655e-06	5.945e-06	1352.2	365.96	5.8643e-06	6.0263e-06	419.3	140.08	121.62	41.923	5.8232e-06	52.048	103.988	166.054	168.997	95.443	220.118	238.113	95.224	100.001	220.401	245.206	99.470	103.890	104.143	109.147	218.330	108.001	-8191	255	
51057.598	1	1	0	0	0.1562	0.27197	0.038346	0.33043	0.20713	0.032666	0.28238	0.35003	0.17857	0.17865	0.24952	0.096342	0.18233	0.18554	0.063738	0.16053	-3.0875	-3.4021	-2.8563	-3.9292	-2.9938	-3.1021	-3.8417	-3.0563	-3.35	-3.5271	-2.7458	-3.4521	-3.1896	-3.0542	-3.5771	-2.9604	371.988	259.339	315.211	408.505	102.310	208.065	411.075	419.482	251.045	263.221	363.289	98.701	82.275	391.845	421.177	115.491	0.0010224	0.00043002	0.00014367	1325.6	6.4417e-06	4.257e-06	1330.1	358.19	6.2335e-06	6.2596e-06	409.97	137.32	119.3	40.622	5.9082e-06	50.296	0.00069439	0.00051287	0.00015652	1351.4	6.1916e-06	6.2368e-06	1351.9	366.26	5.8881e-06	5.7465e-06	420.04	140.52	122.12	42.022	5.4848e-06	52.04	105.249	172.721	185.131	95.442	221.662	231.631	95.204	100.119	217.847	242.351	99.507	103.990	104.352	109.223	228.326	108.214	-8191	255	
51057.719	1	1	0	0	0.23652	0.082276	0.13849	0.26164	0.33673	0.15311	0.46029	0.085212	0.18552	0.23977	0.22734	0.098332	0.055239	0.16389	0.10036	0.24451	-2.7479	-3.5292	-2.7917	-3.7917	-3.2125	-2.7667	-3.9583	-2.8646	-3.1875	-3.5896	-3.0479	-3.5146	-3.3812	-2.7583	-3.6583	-3.0604	127.822	426.064	240.371	83.273	359.001	112.371	381.985	364.481	249.100	147.813	435.535	329.980	328.947	422.142	275.540	376.589	0.0010337	0.00063456	0.00012559	1324.4	6.1389e-06	4.7156e-06	1328.2	358.79	7.5505e-06	3.8206e-06	408.29	136.9	118.65	40.667	5.2412e-06	50.509	0.00069765	0.00052882	0.00015041	1351.4	5.9826e-06	6.4736e-06	1350.5	366.09	6.0906e-06	5.5646e-06	418.6	139.91	121.6	41.997	5.4226e-06	51.976	104.225	174.545	179.908	95.310	211.798	230.059	95.256	99.961	213.635	231.795	99.599	103.989	104.390	109.022	224.062	107.868	-8191	255	
51057.789	1	1	0	0	0.18329	0.14259	0.12634	0.30191	0.22074	0.087964	0.29546	0.13294	0.035201	0.14379	0.055946	0.010812	0.16679	0.25005	0.17874	0.22087	-2.8333	-3.6521	-2.9646	-3.5	-3.4021	-2.8354	-3.8625	-3.2854	-3.0167	-3.6271	-2.7667	-3.5021	-3.5583	-3.0083	-3.6542	-3.2104	297.256	139.509	242.263	366.000	88.281	243.345	351.534	145.605	258.541	291.200	380.552	237.259	105.440	395.019	211.160	410.318	0.0010204	0.00053696	0.00012876	1324.3	6.2361e-06	4.5908e-06	1326.5	357.86	6.3026e-06	5.3881e-06	407.78	136.44	118.89	40.461	7.0887e-06	50.371	0.00071401	0.00054231	0.00015394	1350	6.1683e-06	6.385e-06	1350.9	366.02	6.1461e-06	5.7312e-06	418.65	139.83	121.54	41.823	5.7921e-06	51.98	102.726	179.883	176.913	95.517	220.901	236.506	95.098	99.904	222.374	237.288	99.495	104.072	104.327	108.828	231.096	107.981	-8191	255	
51057.887	1	1	0	0	0.24225	0.15513	0.13416	0.13494	0.1269	0.073701	0.20367	0.20623	0.035441	0.12909	0.11935	0.23986	0.23623	0.1747	0.064489	0.085248	-2.6771	-3.6833	-2.8625	-3.5271	-3.4292	-2.8917	-3.775	-3.3542	-2.7917	-3.5917	-2.8729	-3.0312	-3.6937	-2.8521	-3.55	-3.4729	347.650	257.584	104.181	327.489	238.655	371.817	368.112	367.797	298.620	283.759	106.424	345.432	435.711	95.096	385.388	356.299	0.001025	0.00048331	0.00011391	1321.9	6.7364e-06	4.1224e-06	1322.7	357.56	6.0233e-06	5.9369e-06	407.86	136.5	118.62	40.348	7.0505e-06	50.024	0.00071302	0.00052649	0.00014587	1349.8	6.0378e-06	6.0153e-06	1349.3	365.44	5.9514e-06	5.6823e-06	418.27	139.47	121.27	41.692	5.8132e-06	51.729	105.958	172.086	172.275	95.450	210.755	233.743	95.186	99.884	216.169	222.453	99.404	103.731	104.034	109.107	219.404	107.917	-8191	255	
51058.004	1	1	0	0	0.10333	0.12796	0.19032	0.15855	0.10991	0.023563	0.28263	0.24705	0.11247	0.058979	0.23677	0.17829	0.1558	0.18255	0.14028	0.086393	-2.2979	-3.5792	-2.9542	-3.3875	-3.5187	-2.7396	-3.7333	-3.4	-2.8063	-3.6396	-3.1063	-3.0667	-3.7958	-3.0854	-3.4062	-3.5062	394.752	167.032	366.277	357.356	276.257	145.124	347.029	436.030	300.681	321.974	306.118	89.118	429.941	306.996	424.412	421.090	0.0010253	0.0004943	0.00011412	1321.2	6.4911e-06	4.6686e-06	1326.1	355.9	7.1395e-06	5.9431e-06	408.32	136.49	118.31	40.364	4.9514e-06	50.022	0.00072172	0.00053154	0.0001503	1347.9	5.7227e-06	6.3559e-06	1348.7	364.79	6.0872e-06	5.7893e-06	418.2	139.39	121.14	41.758	5.8219e-06	51.671	104.575	159.922	179.007	95.446	217.745	241.463	95.206	100.040	221.566	224.741	99.227	103.686	104.417	108.920	224.251	108.094	-8191	255	
51058.102	1	1	0	0	0.078516	0.24921	0.083935	0.24325	0.12059	0.11567	0.14837	0.096286	0.28847	0.26084	0.065924	0.086145	0.1541	0.16002	0.16608	0.2354	-2.45	-3.5104	-3.0563	-3.175	-3.6396	-2.9062	-3.6354	-3.7479	-2.8312	-3.6083	-3.2687	-2.9396	-3.725	-3.0333	-3.2687	-3.8625	119.289	364.898	428.886	380.858	384.600	360.405	364.571	305.232	431.545	284.939	391.949	122.969	126.628	363.224	147.373	190.407	0.001058	0.00042056	0.00011833	1319.1	5.5897e-06	4.174e-06	1327.6	357.28	6.5283e-06	4.1281e-06	407.07	136.96	118.88	40.39	5.9346e-06	50.127	0.00072886	0.00050729	0.00015405	1346.4	5.7481e-06	6.2017e-06	1347.8	365.18	6.2309e-06	5.7205e-06	418.18	139.53	121.52	41.783	6.1802e-06	51.819	103.398	155.256	178.132	95.213	221.732	243.765	95.195	100.067	230.009	232.322	99.275	103.975	104.291	108.903	226.201	107.897	-8191	255	
51058.195	1	1	0	0	0.28194	0.20765	0.10858	0.22616	0.059488	0.18411	0.16193	0.1947	0.1633	0.15678	0.24707	0.21094	0.11223	0.33522	0.056458	0.25275	-2.4021	-3.5583	-3.1896	-2.9979	-3.6333	-2.875	-3.3521	-3.6875	-2.8333	-3.5458	-3.5563	-2.9042	-3.7854	-2.9604	-3.1312	-3.5375	316.525	328.482	88.933	416.483	127.365	346.335	418.163	394.168	124.565	190.465	86.765	252.426	207.245	346.282	150.587	435.445	0.0010614	0.00047033	0.00011941	1320.2	6.9643e-06	3.842e-06	1324.6	356.83	7.5593e-06	5.3202e-06	406.32	136.56	118.59	40.474	5.5542e-06	50.033	0.00071416	0.00052739	0.00015038	1348.7	5.8112e-06	6.3116e-06	1347.8	364.92	6.2298e-06	5.5524e-06	417.72	139.72	121.4	41.788	5.9612e-06	51.781	104.821	168.765	183.584	95.425	214.501	220.308	95.223	100.136	227.076	230.359	99.180	103.886	104.092	108.928	217.718	108.040	-8191	255	
51058.293	1	1	0	0	0.088137	0.15241	0.26079	0.2733	0.10478	0.11535	0.19315	0.1485	0.066961	0.27628	0.011524	0.2751	0.3557	0.076478	0.16043	0.080894	-2.4271	-3.3521	-3.2396	-3.0792	-3.7396	-3.0271	-3.3	-3.7771	-2.8542	-3.3979	-3.3979	-2.9938	-3.5396	-3.1458	-2.9562	-3.8958	347.824	211.243	380.464	393.268	256.507	425.020	401.520	409.147	305.106	314.861	255.173	429.780	115.010	358.094	228.369	296.426	0.0010281	0.00054546	0.00014276	1318.9	6.6879e-06	5.1003e-06	1322.2	357.74	5.6328e-06	5.1419e-06	408.91	136.41	118.87	40.584	5.1053e-06	50.194	0.00071691	0.00054542	0.00014951	1347.5	5.6055e-06	6.2307e-06	1346.6	365.64	6.0012e-06	6.1547e-06	418.73	139.48	121.52	41.799	5.8393e-06	51.893	102.885	175.250	172.761	96.447	214.881	237.607	96.219	101.085	224.814	230.891	100.184	104.968	105.122	110.031	229.857	109.059	-8191	255	
51058.414	1	1	0	0	0.11017	0.36221	0.10776	0.256	0.19001	0.10245	0.34158	0.23652	0.18473	0.13143	0.16029	0.35533	0.20781	0.095789	0.083728	0.36824	-2.4708	-3.3854	-3.5792	-3.0271	-3.6521	-3.3542	-3.2208	-3.8021	-2.85	-3.3771	-3.6188	-2.7604	-3.6813	-3.4104	-2.9813	-3.9125	135.670	377.219	199.876	118.000	328.369	318.014	427.523	377.478	401.748	100.291	317.174	377.060	341.905	162.775	276.180	97.893	0.0010624	0.00048012	0.00014166	1321.4	5.6319e-06	4.4481e-06	1324.7	358.92	6.2586e-06	4.8681e-06	408.75	137.07	118.76	40.493	7.0259e-06	50.299	0.00072457	0.00053945	0.00014496	1348.7	5.5701e-06	5.7877e-06	1348.1	366.04	6.1053e-06	5.7435e-06	419.01	139.83	121.59	41.834	6.0583e-06	51.944	105.897	172.150	182.385	96.485	212.556	236.047	96.250	101.162	217.966	230.697	100.420	105.001	105.345	109.904	222.167	109.232	-8191	255	
51058.484	1	1	0	0	0.24191	0.15082	0.18481	0.25282	0.16472	0.21283	0.063496	0.38485	0.20165	0.28674	0.062818	0.061837	0.13337	0.21322	0.12765	0.30098	-2.6146	-3.2521	-3.6417	-2.9479	-3.5458	-3.3833	-3.0687	-3.7271	-3.1729	-3.0646	-3.6583	-2.9167	-3.6521	-3.5208	-2.8667	-3.6458	213.053	416.123	347.398	429.015	368.771	396.857	291.097	369.090	191.134	121.143	409.925	288.287	442.931	123.946	132.922	374.749	0.0010863	0.0004465	0.0001162	1323.3	6.2752e-06	3.5585e-06	1319.8	356.91	7.2513e-06	5.4558e-06	406.83	136.3	118.75	40.625	6.6268e-06	50.28	0.00073093	0.00055125	0.00013951	1348.2	5.9317e-06	5.7388e-06	1347.7	365.9	5.9311e-06	5.9315e-06	418	139.46	121.31	41.834	6.2834e-06	51.918	105.441	169.947	179.689	96.421	220.799	237.682	96.310	101.039	225.635	232.580	100.477	104.999	105.529	109.903	221.127	109.251	-8191	255	
51058.605	1	1	0	0	0.14274	0.052597	0.21191	0.23303	0.32796	0.14756	0.55766	0.1418	0.24488	0.12265	0.026127	0.35032	0.07144	0.19053	0.055919	0.050101	-2.6354	-2.9708	-3.625	-3.1083	-3.2896	-3.3458	-2.9271	-3.9021	-3.0958	-2.9021	-3.8812	-3.2083	-3.3958	-3.5938	-2.7917	-3.6229	326.486	313.417	359.144	438.193	361.463	206.938	421.554	435.626	240.950	145.307	240.300	384.669	406.758	436.166	357.317	267.208	0.0010675	0.00051098	0.00014041	1322.1	5.847e-06	4.799e-06	1323.4	356.56	6.3631e-06	4.5344e-06	409.53	137.08	119.29	40.61	5.4735e-06	50.266	0.00071841	0.00053595	0.00014718	1348.1	5.9273e-06	5.6487e-06	1347	365.25	5.7557e-06	6.4375e-06	418.56	139.83	121.63	41.841	6.0098e-06	52.049	106.112	168.319	172.590	96.298	221.200	229.324	96.067	101.137	223.678	239.701	100.725	104.837	105.550	110.138	234.815	109.105	-8191	255	
51058.699	1	1	0	0	0.089213	0.12354	0.1226	0.095101	0.23706	0.052781	0.3188	0.16354	0.14442	0.12104	0.17627	0.29769	0.31408	0.076539	0.18324	0.10164	-2.9646	-2.8521	-3.5792	-2.8917	-3.3187	-3.5458	-2.9333	-3.6292	-3.2875	-2.9729	-3.6937	-3.1833	-3.4604	-3.7083	-2.6729	-3.4354	321.229	127.770	232.888	412.622	327.929	308.868	403.126	143.478	108.171	132.114	393.897	401.503	368.653	253.927	187.933	341.252	0.0010423	0.00049831	0.00013668	1317.9	6.6039e-06	4.6639e-06	1324.4	358.85	5.6499e-06	6.2591e-06	409.15	137.7	119.21	40.757	5.9962e-06	50.544	0.00071634	0.00057537	0.00014834	1346.4	6.1263e-06	5.5952e-06	1348.8	366.46	5.6878e-06	6.2785e-06	419.35	140.31	121.97	42.012	6.3631e-06	52.119	105.435	166.180	177.424	96.481	211.162	240.346	96.071	101.212	217.310	232.214	100.612	104.970	105.499	109.863	233.061	109.115	-8191	255	
51058.797	1	1	0	0	0.18328	0.28749	0.12739	0.31496	0.031657	0.24735	0.33021	0.18414	0.077642	0.085074	0.31135	0.13365	0.11723	0.1737	0.21654	0.052318	-3.0687	-2.6667	-3.825	-3.1125	-2.8625	-3.7333	-2.9771	-3.4813	-3.5479	-2.8979	-3.8708	-3.2021	-3.0729	-3.6083	-2.975	-3.4104	319.134	407.155	192.782	414.768	408.753	373.568	399.467	244.363	215.485	319.687	414.636	135.128	311.186	376.793	356.055	238.486	0.0010669	0.00044356	0.00012249	1324.2	6.2752e-06	4.7553e-06	1329.7	359.74	7.6091e-06	5.7736e-06	408.96	137.39	120.28	40.777	5.8028e-06	50.654	0.00072208	0.00056357	0.0001358	1351	5.8554e-06	5.5571e-06	1352.7	367.1	5.5656e-06	6.6714e-06	419.7	140.36	122.37	42.133	6.2698e-06	52.317	104.936	166.208	178.283	96.463	231.811	229.711	96.345	101.227	226.410	239.795	100.603	104.949	105.376	110.112	232.761	109.029	-8191	255	
51058.895	1	1	0	0	0.29833	0.17122	0.18593	0.2064	0.17216	0.083029	0.27709	0.089942	0.046736	0.24621	0.050799	0.11759	0.41173	0.077559	0.17061	0.092428	-3.1229	-2.9333	-3.5271	-3.3479	-2.8229	-3.8792	-3.0167	-3.4854	-3.575	-2.9625	-3.7458	-3.4167	-3.0187	-3.6917	-2.8854	-3.2771	317.135	284.120	377.602	441.272	277.782	261.808	425.699	108.417	427.807	133.176	294.561	313.748	426.944	111.405	344.000	417.547	0.0010114	0.00044778	0.00013008	1329.8	5.4963e-06	4.3629e-06	1328.8	360.44	6.137e-06	5.0026e-06	410.24	137.56	119.45	40.817	6.4579e-06	50.256	0.00069346	0.00054386	0.00013984	1354.6	6.2137e-06	5.1828e-06	1354	367.61	5.6686e-06	6.1058e-06	420.1	140.41	122.23	42.134	5.8381e-06	52.076	105.319	167.465	180.366	96.340	225.069	234.769	96.214	101.169	213.171	223.989	100.457	104.819	105.393	110.067	223.175	109.008	-8191	255	
51059.012	1	1	0	0	0.30743	0.12273	0.18447	0.42432	0.31633	0.1888	0.18563	0.22019	0.38191	0.36202	0.11144	0.081384	0.083476	0.10819	0.084465	0.21872	-3.4167	-2.8354	-3.4688	-3.3812	-2.675	-3.7021	-3.0958	-3.0563	-3.4562	-2.8812	-3.6271	-3.5375	-2.8979	-3.7917	-2.9	-3.0812	127.615	335.048	144.562	385.620	274.667	317.899	352.893	404.073	375.291	239.747	114.770	102.473	228.227	165.536	129.590	360.366	0.0010508	0.0004759	0.00012649	1326.6	7.7912e-06	4.0487e-06	1330.3	360.04	6.1212e-06	5.8541e-06	409.88	137.6	119.98	40.685	6.3012e-06	50.536	0.0007182	0.00059547	0.00014344	1353.2	6.405e-06	5.6441e-06	1353.8	367.28	6.0465e-06	6.5705e-06	420.43	140.43	122.41	42.061	5.9998e-06	52.124	103.832	174.348	170.846	96.301	222.526	221.025	96.116	101.389	221.965	246.179	100.439	105.012	105.523	109.920	235.025	108.917	-8191	255	
51059.086	1	1	0	0	0.23087	0.13959	0.22164	0.29258	0.31357	0.11663	0.078519	0.2009	0.13022	0.16034	0.17451	0.12321	0.14582	0.1957	0.082645	0.043078	-3.2958	-2.8979	-3.3667	-3.5875	-2.7125	-3.7479	-3.3458	-3.3292	-3.6271	-2.8792	-3.6729	-3.65	-3.15	-3.7562	-3.2833	-2.9979	421.623	300.974	380.941	417.452	249.521	170.723	388.906	353.659	194.651	429.493	177.791	86.799	244.912	92.470	357.287	296.325	0.0010493	0.00051793	0.00012164	1327	7.2644e-06	6.2636e-06	1331	359.69	6.3228e-06	5.6996e-06	411.24	137.78	119.77	40.859	7.0707e-06	50.68	0.00070526	0.00059171	0.0001354	1353.6	6.3818e-06	5.7679e-06	1356.2	367.64	5.6754e-06	6.3549e-06	421.47	140.83	122.57	42.19	6.0334e-06	52.316	104.625	156.779	176.042	96.489	213.900	230.381	96.266	101.061	220.420	226.261	100.307	105.005	105.018	109.948	223.559	109.064	-8191	255	
51059.180	1	1	0	0	0.22101	0.13647	0.1083	0.25244	0.24187	0.079328	0.086267	0.16102	0.012454	0.055302	0.051967	0.31649	0.097069	0.23805	0.25159	0.26382	-3.3417	-2.9354	-3.2625	-3.7875	-2.8104	-3.7333	-3.3729	-2.9479	-3.7083	-2.9333	-3.2083	-3.8167	-2.7271	-3.6	-3.3479	-2.9083	100.113	431.139	197.546	161.574	404.091	403.425	410.757	122.291	246.204	407.332	278.484	376.878	415.637	442.583	171.412	252.367	0.0010523	0.00047353	0.0001627	1331.1	6.9202e-06	3.3502e-06	1333.5	361.29	6.7634e-06	5.5292e-06	411.06	137.88	119.53	40.863	5.3433e-06	50.597	0.00070976	0.00057291	0.00014951	1356.9	6.5299e-06	5.1232e-06	1356	368.58	5.6358e-06	6.0156e-06	420.7	140.79	122.23	42.141	5.8406e-06	52.251	107.044	172.137	180.685	96.258	215.674	238.394	96.064	101.039	213.811	222.207	100.332	104.744	105.272	110.134	226.856	109.077	-8191	255	
51059.277	1	1	0	0	0.16789	0.24338	0.11807	0.14502	0.072431	0.27355	0.35473	0.21313	0.15864	0.057608	0.12616	0.027244	0.21195	0.22695	0.072427	0.25242	-3.3063	-3.0479	-3.0479	-3.6958	-2.7729	-3.3979	-3.7062	-2.8312	-3.5917	-3.0375	-3.1604	-3.7208	-3.0417	-3.5792	-3.4771	-2.8375	143.176	289.069	95.437	369.651	304.421	245.925	407.362	387.291	305.319	85.978	396.555	156.594	389.044	147.407	219.235	429.251	0.0010367	0.00043224	0.00013072	1330.1	6.258e-06	4.9908e-06	1330.7	359.2	6.8306e-06	4.7018e-06	412.4	137.81	120.07	40.879	6.2867e-06	50.809	0.00072012	0.00055657	0.00015376	1356.3	6.2524e-06	6.0275e-06	1354.8	367.3	5.586e-06	6.0691e-06	421.44	140.88	122.46	42.155	5.7896e-06	52.233	104.702	182.321	173.775	96.363	219.445	233.463	95.954	101.087	220.142	219.914	100.453	105.147	105.158	110.045	222.676	109.203	-8191	255	
51059.371	1	1	0	0	0.092937	0.082075	0.29136	0.25972	0.24316	0.053827	0.16912	0.23731	0.1043	0.18415	0.13657	0.14937	0.097324	0.19793	0.22169	0.14846	-3.2438	-3.1146	-2.775	-3.7042	-2.7167	-3.2542	-3.675	-2.9958	-3.4979	-3.2333	-2.9146	-3.8208	-2.9479	-3.3854	-3.5667	-2.8521	176.522	171.718	231.313	416.211	396.769	358.056	399.194	394.517	309.239	142.359	342.636	420.092	88.388	404.320	200.401	269.557	0.0010147	0.00042119	0.00012955	1327.1	5.1413e-06	4.1775e-06	1333.2	361.57	7.5183e-06	5.1132e-06	410.73	138.05	120.04	40.803	6.3135e-06	50.778	0.00068016	0.00052662	0.0001639	1355.6	5.9837e-06	5.9435e-06	1356.1	368.57	5.9401e-06	5.9162e-06	421.27	141.23	122.69	42.277	5.6701e-06	52.372	105.279	171.907	186.877	96.359	216.408	228.045	96.034	101.125	223.048	233.210	100.508	104.858	105.448	110.144	226.892	108.865	-8191	255	
51059.492	1	1	0	0	0.17317	0.21271	0.24755	0.13872	0.077512	0.27365	0.12832	0.32097	0.10756	0.020376	0.1274	0.059534	0.049262	0.1325	0.2216	0.34014	-3.3125	-3.1125	-2.7667	-3.8021	-2.8063	-3.05	-3.7833	-2.7604	-3.4083	-3.4479	-2.8042	-3.8187	-3.1542	-3.0625	-3.6708	-2.8833	349.488	318.783	193.426	381.516	173.437	441.481	356.788	416.653	351.544	154.931	191.583	119.694	286.067	237.691	228.201	347.344	0.0010437	0.00046571	0.0001569	1336.6	7.7172e-06	3.9922e-06	1337.5	359.59	6.4123e-06	3.9938e-06	412.12	137.48	119.32	40.761	6.2592e-06	50.321	0.00071577	0.00053258	0.00015103	1359.6	6.1882e-06	5.7373e-06	1358.6	368.19	5.7817e-06	5.8214e-06	421.97	140.99	122.21	42.068	5.5059e-06	52.033	104.724	168.719	168.233	96.379	213.728	241.249	96.076	100.983	220.030	220.577	100.300	104.897	105.397	110.029	222.755	109.158	-8191	255	
51059.590	1	1	0	0	0.18445	0.065089	0.14439	0.1417	0.22764	0.0633	0.10162	0.21776	0.1223	0.11256	0.033108	0.087718	0.11217	0.40432	0.077056	0.19076	-3.0042	-3.4688	-2.7021	-3.8458	-2.9917	-2.975	-3.9167	-3.0292	-3.3375	-3.575	-3.0396	-3.7021	-3.2521	-3.075	-3.5292	-2.9333	339.687	264.543	369.751	375.127	149.453	338.546	394.096	392.682	211.433	136.063	195.502	358.655	341.209	122.397	334.584	379.971	0.001059	0.00038547	0.00011771	1329.2	6.5818e-06	4.7458e-06	1332.7	360.31	6.5499e-06	4.7204e-06	410.73	137.91	119.51	40.756	5.689e-06	50.439	0.00072327	0.00052337	0.00016644	1356.8	6.1882e-06	6.2215e-06	1356.7	368.02	5.7681e-06	5.7679e-06	420.72	140.98	122.23	42.132	5.7386e-06	52.112	104.391	163.751	182.490	96.359	212.216	234.894	96.005	101.045	222.688	237.521	100.755	105.033	105.424	109.993	235.385	109.095	-8191	255	
51059.684	1	1	0	0	0.13847	0.14706	0.15811	0.29864	0.087119	0.27177	0.26537	0.1606	0.12418	0.028395	0.26166	0.098419	0.1706	0.13995	0.033514	0.2207	-3.0312	-3.3521	-2.6625	-3.4417	-3.1771	-2.8167	-3.9062	-3.0229	-3.2417	-3.6896	-2.8771	-3.6688	-3.3812	-2.9458	-3.6333	-3.1604	419.112	280.477	427.747	377.105	353.569	222.071	357.218	369.808	428.185	247.093	439.359	272.388	432.993	407.026	91.309	363.877	0.001041	0.00047596	0.00014795	1333.7	5.789e-06	4.6762e-06	1333	359.9	7.3131e-06	5.3945e-06	412.39	137.67	120.05	40.931	6.317e-06	50.734	0.00071256	0.00053894	0.00015172	1356.2	5.5247e-06	6.1833e-06	1358	368.17	6.0804e-06	5.8765e-06	421.59	140.82	122.77	42.294	5.7211e-06	52.401	102.454	171.922	170.557	96.460	211.081	240.243	96.229	100.993	214.802	243.267	100.617	105.088	105.576	110.117	225.200	108.932	-8191	255	
51059.781	1	1	0	0	0.13248	0.038616	0.13562	0.10602	0.21051	0.12655	0.19135	0.21958	0.32234	0.089896	0.20807	0.077183	0.21501	0.18598	0.17196	0.094992	-2.7854	-3.5625	-2.7479	-3.6667	-3.25	-2.8625	-3.8	-3.1667	-3.1021	-3.6208	-2.8937	-3.5667	-3.5229	-3.0229	-3.675	-3.3646	157.180	193.288	122.450	421.369	238.020	158.665	366.006	406.572	367.030	314.245	85.572	102.427	100.264	420.508	333.198	336.566	0.0010476	0.00049645	0.00011784	1335.8	4.9578e-06	4.6897e-06	1334.3	360.97	6.761e-06	4.3154e-06	411.74	138.72	120.18	41.004	6.0416e-06	51.03	0.00071447	0.00052532	0.00016222	1358.1	5.5292e-06	6.4094e-06	1359.5	368.58	6.0929e-06	5.2252e-06	422.21	141.55	122.76	42.348	5.7124e-06	52.571	105.908	178.232	180.909	96.519	224.016	238.413	96.283	100.986	215.351	225.372	100.426	104.753	105.513	109.944	221.445	108.964	-8191	255	
51059.879	1	1	0	0	0.1029	0.21858	0.26518	0.25598	0.0037133	0.12742	0.39502	0.22802	0.53543	0.14354	0.13934	0.1932	0.04091	0.19851	0.095622	0.10828	-2.6125	-3.7229	-2.65	-3.3104	-3.2479	-2.8417	-3.7958	-3.1813	-3.0354	-3.7646	-3.0604	-3.1396	-3.5208	-2.7354	-3.5812	-3.4583	367.367	301.017	225.607	358.152	426.420	137.071	368.607	359.188	86.838	113.912	322.430	405.792	410.226	287.163	106.407	339.818	0.0010736	0.00052088	0.00011646	1331.1	6.347e-06	4.7453e-06	1335	362	6.0472e-06	4.7372e-06	412.43	138.56	120.05	41.161	6.5856e-06	50.9	0.00073689	0.00052558	0.0001478	1358.2	5.9228e-06	6.2429e-06	1360.3	369.51	5.9141e-06	5.7006e-06	422.03	141.38	122.97	42.398	5.4624e-06	52.444	103.077	173.741	173.770	96.511	223.513	243.995	96.083	100.944	225.640	245.600	100.266	104.944	105.295	110.057	234.811	108.759	-8191	255	
51059.973	1	1	0	0	0.18686	0.21095	0.29863	0.1861	0.063374	0.22358	0.16044	0.16802	0.094517	0.14899	0.25244	0.18602	0.19006	0.24037	0.21331	0.056419	-2.45	-3.6917	-2.9313	-3.2896	-3.6667	-2.6917	-3.8063	-3.4813	-2.6875	-3.7604	-3.0021	-3.2104	-3.8104	-2.7229	-3.3688	-3.5521	222.071	146.525	273.705	113.065	290.251	388.219	102.925	389.310	224.446	116.930	364.316	423.589	84.448	435.827	292.626	221.721	0.0010471	0.00058293	0.0001543	1334.8	6.0594e-06	3.9979e-06	1334	361.2	6.2243e-06	5.7166e-06	412.65	138.8	120.4	40.904	6.2425e-06	50.745	0.00073523	0.00053466	0.00015328	1362.1	5.8399e-06	6.3483e-06	1358.7	368.94	6.2626e-06	5.6838e-06	422.05	141.33	122.85	42.237	5.7659e-06	52.502	106.622	177.317	185.347	96.620	227.932	231.366	96.245	100.932	220.154	243.152	100.351	104.914	105.476	109.822	235.526	109.167	-8191	255	
51060.094	1	1	0	0	0.16585	0.26019	0.1737	0.21485	0.24594	0.1764	0.11979	0.35445	0.04048	0.14919	0.18498	0.23259	0.17732	0.3057	0.07257	0.40168	-2.4583	-3.7521	-3.1937	-3.2542	-3.6208	-2.7562	-3.4896	-3.6833	-2.6958	-3.525	-3.2562	-3.1542	-3.7646	-3.0625	-3.2917	-3.5125	274.678	194.410	145.285	348.262	218.542	438.240	208.697	406.808	291.066	256.126	284.879	375.617	426.886	361.667	291.119	363.963	0.0010505	0.00047512	0.00012195	1336.3	6.1988e-06	3.59e-06	1332.1	361.03	7.1799e-06	4.8066e-06	412.33	138.16	120.11	40.815	6.8211e-06	50.682	0.0007401	0.0005283	0.00014547	1360.5	5.9074e-06	6.5545e-06	1357.4	369.44	6.1642e-06	5.5172e-06	421.72	141.08	122.71	42.211	5.904e-06	52.356	104.234	174.290	173.651	96.522	212.970	241.744	96.187	100.982	219.754	243.336	100.397	104.726	105.300	109.950	226.968	108.902	-8191	255	
51060.188	1	1	0	0	0.20062	0.086044	0.15549	0.16118	0.10887	0.23897	0.12946	0.095656	0.13052	0.23618	0.37976	0.092785	0.36207	0.24503	0.06663	0.31196	-2.375	-3.5583	-3.1083	-3	-3.6729	-2.8458	-3.3125	-3.7583	-2.8438	-3.5062	-3.2771	-2.9313	-3.8688	-3.0792	-3.1771	-3.6833	308.001	384.691	289.996	395.674	250.647	205.356	401.112	240.443	246.273	398.443	93.601	425.470	418.408	428.184	311.088	294.785	0.0010254	0.00054182	0.00013089	1332.7	6.7422e-06	4.9193e-06	1332.2	361.62	6.6556e-06	3.725e-06	410.29	137.24	119.85	40.765	7.1148e-06	50.548	0.00070821	0.00054386	0.00014285	1359.8	5.799e-06	6.0764e-06	1358.6	369.1	6.1574e-06	5.9055e-06	420.81	140.81	122.45	42.145	6.0048e-06	52.164	105.308	176.844	180.737	96.260	217.921	237.297	96.345	100.848	225.212	233.498	100.355	105.210	105.341	110.068	223.031	109.032	-8191	255	
51060.285	1	1	0	0	0.14585	0.14983	0.10296	0.36249	0.17737	0.17179	0.2181	0.049723	0.15384	0.16084	0.083707	0.20859	0.25531	0.1236	0.23445	0.20405	-2.3417	-3.3917	-3.3187	-3.0625	-3.4667	-3.1646	-3.3333	-3.725	-2.6937	-3.3583	-3.4625	-2.9708	-3.8167	-3.2354	-3.0521	-3.6396	429.138	372.986	87.573	429.279	142.063	114.080	389.669	116.457	277.562	231.430	146.003	371.981	342.356	139.280	224.467	347.905	0.0010695	0.00060328	0.00013392	1332	5.9615e-06	4.6375e-06	1330.3	360.43	7.0251e-06	4.3761e-06	410.67	137.93	119.78	40.729	5.4431e-06	50.459	0.000727	0.00054996	0.00014925	1356.7	5.7747e-06	6.1619e-06	1356.5	368	6.137e-06	5.7679e-06	420.77	140.74	122.32	42.03	5.6988e-06	52.131	104.407	170.555	166.622	96.369	221.697	238.834	96.258	101.220	219.905	229.521	100.413	104.986	105.350	109.750	230.126	108.962	-8191	255	
51060.383	1	1	0	0	0.19695	0.10436	0.187	0.35095	0.0074316	0.075366	0.33101	0.21426	0.19571	0.043446	0.014481	0.12943	0.14752	0.097282	0.27398	0.17078	-2.4875	-3.2604	-3.4375	-2.9646	-3.6542	-3.2938	-3.025	-3.6104	-2.9	-3.3958	-3.7313	-2.8292	-3.7	-3.4646	-2.8146	-3.7479	166.084	426.359	425.378	93.711	196.500	213.135	402.086	381.047	262.066	234.290	138.186	424.573	248.408	202.298	203.175	440.153	0.0010489	0.00053834	9.6735e-05	1326.8	6.4586e-06	4.621e-06	1331.3	360.35	6.3709e-06	4.4855e-06	409.85	138.07	119.59	40.779	4.913e-06	50.559	0.00072565	0.00056422	0.00013293	1354.2	5.8587e-06	6.2139e-06	1355.4	368.01	6.0782e-06	5.5508e-06	420.62	140.76	122.34	42.081	5.8655e-06	52.17	104.750	174.841	173.609	96.313	222.690	242.563	96.180	101.141	221.813	245.988	100.426	104.983	105.471	110.032	222.517	108.945	-8191	255	
#DATA ENDS
