BOXY.EXE: ISS Imagent and Oximeter Data Acquisition Program Version 0.80
Ascii Record File

#ACQ INFORMATION
2  Detector Channels 
16  External MUX Channels 
1  Auxiliary Channels 
5000  Waveform (CCF) Frequency (Hz)
1  Waveforms Skipped 
30  Waveforms Averaged 
1  Cycles Averaged 
16  Acquisitions per Waveform 
10.0806  Updata Rate (Hz) 

#FILE INFORMATION
TRUE -- External MUX Channel results are PARSED.
FALSE -- AC DC and Phase are NOT grouped.
TRUE -- Companion Program Settings File CREATED.
FALSE -- AC data not excluded
FALSE -- DC data not excluded
FALSE -- Phase data not excluded
FALSE -- Auxillary Chn. data not excluded
Tab delimiters

#CALIBRATION STATE
TRUE -- Waveform Calibration Values APPLIED.


#AUX CALIBRATION VALUES
Val Type	aux-1	

Term	1.0000e+00	
Factor	0.0000e+00	


#WF CALIBRATION VALUES
A = Detector Channel
Val Type	A-AC1	A-AC2	A-AC3	A-AC4	A-AC5	A-AC6	A-AC7	A-AC8	A-AC9	A-AC10	A-AC11	A-AC12	A-AC13	A-AC14	A-AC15	A-AC16	A-DC1	A-DC2	A-DC3	A-DC4	A-DC5	A-DC6	A-DC7	A-DC8	A-DC9	A-DC10	A-DC11	A-DC12	A-DC13	A-DC14	A-DC15	A-DC16	A-Ph1	A-Ph2	A-Ph3	A-Ph4	A-Ph5	A-Ph6	A-Ph7	A-Ph8	A-Ph9	A-Ph10	A-Ph11	A-Ph12	A-Ph13	A-Ph14	A-Ph15	A-Ph16	

Term	0.00000e+00	0.00000e+00	0.00000e+00	0.00000e+00	0.00000e+00	0.00000e+00	0.00000e+00	0.00000e+00	0.00000e+00	0.00000e+00	0.00000e+00	0.00000e+00	0.00000e+00	0.00000e+00	0.00000e+00	0.00000e+00	0.00000e+00	0.00000e+00	0.00000e+00	0.00000e+00	0.00000e+00	0.00000e+00	0.00000e+00	0.00000e+00	0.00000e+00	0.00000e+00	0.00000e+00	0.00000e+00	0.00000e+00	0.00000e+00	0.00000e+00	0.00000e+00	0.00000e+00	0.00000e+00	0.00000e+00	0.00000e+00	0.00000e+00	0.00000e+00	0.00000e+00	0.00000e+00	0.00000e+00	0.00000e+00	0.00000e+00	0.00000e+00	0.00000e+00	0.00000e+00	0.00000e+00	0.00000e+00	
Factor	1.00000e+00	1.00000e+00	1.00000e+00	1.00000e+00	1.00000e+00	1.00000e+00	1.00000e+00	1.00000e+00	1.00000e+00	1.00000e+00	1.00000e+00	1.00000e+00	1.00000e+00	1.00000e+00	1.00000e+00	1.00000e+00	1.00000e+00	1.00000e+00	1.00000e+00	1.00000e+00	1.00000e+00	1.00000e+00	1.00000e+00	1.00000e+00	1.00000e+00	1.00000e+00	1.00000e+00	1.00000e+00	1.00000e+00	1.00000e+00	1.00000e+00	1.00000e+00	X	X	X	X	X	X	X	X	X	X	X	X	X	X	X	X	

B = Detector Channel
Val Type	B-AC1	B-AC2	B-AC3	B-AC4	B-AC5	B-AC6	B-AC7	B-AC8	B-AC9	B-AC10	B-AC11	B-AC12	B-AC13	B-AC14	B-AC15	B-AC16	B-DC1	B-DC2	B-DC3	B-DC4	B-DC5	B-DC6	B-DC7	B-DC8	B-DC9	B-DC10	B-DC11	B-DC12	B-DC13	B-DC14	B-DC15	B-DC16	B-Ph1	B-Ph2	B-Ph3	B-Ph4	B-Ph5	B-Ph6	B-Ph7	B-Ph8	B-Ph9	B-Ph10	B-Ph11	B-Ph12	B-Ph13	B-Ph14	B-Ph15	B-Ph16	

Term	0.00000e+00	0.00000e+00	0.00000e+00	0.00000e+00	0.00000e+00	0.00000e+00	0.00000e+00	0.00000e+00	0.00000e+00	0.00000e+00	0.00000e+00	0.00000e+00	0.00000e+00	0.00000e+00	0.00000e+00	0.00000e+00	0.00000e+00	0.00000e+00	0.00000e+00	0.00000e+00	0.00000e+00	0.00000e+00	0.00000e+00	0.00000e+00	0.00000e+00	0.00000e+00	0.00000e+00	0.00000e+00	0.00000e+00	0.00000e+00	0.00000e+00	0.00000e+00	-1.94746e+02	-1.29429e+02	-1.23296e+02	-1.81177e+02	-8.24941e+01	-6.72532e+01	-1.58393e+02	-1.62015e+02	-8.26879e+01	-6.57740e+01	-1.70238e+02	-1.70284e+02	-1.81041e+02	-1.76563e+02	-7.59332e+01	-1.49301e+02	
Factor	3.81472e-05	1.55800e-04	4.27792e-05	1.56288e-01	1.59967e-06	1.59687e-06	1.72052e-01	5.78622e-02	1.65686e-06	1.77183e-06	8.97467e-02	3.04905e-02	2.59666e-02	9.04681e-03	1.74401e-06	1.28027e-02	2.48459e-05	6.22447e-05	1.74435e-05	8.03579e-02	5.30800e-07	7.33201e-07	8.33309e-02	2.98252e-02	5.43097e-07	7.33792e-07	4.50204e-02	1.52899e-02	1.34928e-02	4.71424e-03	5.97119e-07	6.48029e-03	X	X	X	X	X	X	X	X	X	X	X	X	X	X	X	X	



#DISTANCE SETTINGS
A = Detector Channel
A-1	A-2	A-3	A-4	A-5	A-6	A-7	A-8	A-9	A-10	A-11	A-12	A-13	A-14	A-15	A-16	

2.5000e+00	3.0000e+00	2.5000e+00	3.0000e+00	2.0000e+00	3.0000e+00	1.5000e+00	3.0000e+00	3.0000e+00	3.0000e+00	3.0000e+00	3.0000e+00	3.0000e+00	3.0000e+00	1.5000e+00	3.0000e+00	

B = Detector Channel
B-1	B-2	B-3	B-4	B-5	B-6	B-7	B-8	B-9	B-10	B-11	B-12	B-13	B-14	B-15	B-16	

1.0000e+01	1.0000e+01	1.0000e+01	1.4400e+00	1.0000e+01	1.0000e+01	1.5100e+00	1.9400e+00	1.0000e+01	1.0000e+01	1.9900e+00	2.4900e+00	2.4100e+00	2.9000e+00	1.0000e+01	2.9800e+00	




#DATA BEGINS
time	group	step	mark	flag	A-AC1	A-AC2	A-AC3	A-AC4	A-AC5	A-AC6	A-AC7	A-AC8	A-AC9	A-AC10	A-AC11	A-AC12	A-AC13	A-AC14	A-AC15	A-AC16	A-DC1	A-DC2	A-DC3	A-DC4	A-DC5	A-DC6	A-DC7	A-DC8	A-DC9	A-DC10	A-DC11	A-DC12	A-DC13	A-DC14	A-DC15	A-DC16	A-Ph1	A-Ph2	A-Ph3	A-Ph4	A-Ph5	A-Ph6	A-Ph7	A-Ph8	A-Ph9	A-Ph10	A-Ph11	A-Ph12	A-Ph13	A-Ph14	A-Ph15	A-Ph16	B-AC1	B-AC2	B-AC3	B-AC4	B-AC5	B-AC6	B-AC7	B-AC8	B-AC9	B-AC10	B-AC11	B-AC12	B-AC13	B-AC14	B-AC15	B-AC16	B-DC1	B-DC2	B-DC3	B-DC4	B-DC5	B-DC6	B-DC7	B-DC8	B-DC9	B-DC10	B-DC11	B-DC12	B-DC13	B-DC14	B-DC15	B-DC16	B-Ph1	B-Ph2	B-Ph3	B-Ph4	B-Ph5	B-Ph6	B-Ph7	B-Ph8	B-Ph9	B-Ph10	B-Ph11	B-Ph12	B-Ph13	B-Ph14	B-Ph15	B-Ph16	aux-1	digaux	

51495.840	1	1	0	768	0.1944	0.10191	0.09298	0.24736	0.42329	0.10924	0.15293	0.13921	0.10829	0.1383	0.18913	0.13741	0.33848	0.084844	0.23682	0.25787	-3.4188	-2.8875	-3.1458	-3.7438	-2.5687	-3.4458	-3.275	-2.8771	-3.625	-3.0604	-2.9958	-3.7313	-2.7104	-3.4125	-3.1792	-2.8604	132.640	213.817	-45.490	35.533	118.604	103.626	102.009	109.268	-82.926	-2.262	180.326	-128.920	169.887	169.542	31.849	183.228	0.0010016	0.00047497	0.00012762	442.93	3.7194e-06	3.6167e-06	429.5	198.49	4.548e-06	6.6025e-06	220.36	115.25	100.35	55.664	3.8322e-06	66.218	0.00085734	0.00083888	0.00023203	459.12	7.5175e-06	8.9389e-06	444.87	206.88	8.1736e-06	9.8145e-06	229.42	120.51	105.17	58.812	9.5352e-06	69.91	136.769	-59.657	-50.284	-121.506	-3.922	-2.663	-123.463	-116.165	-11.607	17.324	-118.482	-114.824	-112.744	-108.278	-26.137	-111.317	-8191	255	
51495.938	1	1	0	0	0.3092	0.20192	0.14935	0.23202	0.14699	0.28497	0.12533	0.28356	0.23175	0.28542	0.14591	0.017365	0.16122	0.030169	0.20364	0.37497	-3.2646	-2.9854	-2.7625	-3.5563	-2.8312	-3.2375	-3.5917	-2.8146	-3.6125	-3.0771	-3	-3.6896	-3.0354	-3.4146	-3.3563	-2.8542	-115.024	134.281	-7.970	-121.923	220.615	108.570	129.958	164.857	-67.194	126.834	74.721	215.971	219.107	32.979	-69.148	-125.122	0.0009736	0.0004798	0.000106	442.06	4.0741e-06	4.1222e-06	430.44	198.87	4.3229e-06	4.9394e-06	219.97	115.75	101.11	56.648	4.4802e-06	67.515	0.00086319	0.0008713	0.00023865	458.07	7.5318e-06	9.7012e-06	445.3	206.6	7.7267e-06	1.01e-05	229.2	121.34	105.95	59.877	9.4556e-06	71.571	135.983	-46.489	-28.291	-121.428	-2.534	5.968	-123.195	-116.038	-9.036	18.018	-118.070	-115.142	-112.704	-108.401	0.545	-111.640	-8191	255	
51496.031	1	1	0	0	0.067036	0.10813	0.13815	0.064637	0.081855	0.02253	0.082663	0.16419	0.072338	0.15348	0.043479	0.2769	0.14262	0.35874	0.14057	0.2062	-3.0958	-3.1396	-2.8229	-3.6937	-2.6917	-2.9229	-3.6625	-2.8146	-3.4875	-3.2729	-2.8021	-3.7271	-2.9125	-3.1396	-3.4	-2.9375	-26.552	124.305	68.803	105.122	41.905	82.208	221.561	206.427	-22.891	4.423	122.476	149.532	-28.469	165.222	90.819	-116.207	0.0010301	0.00047618	0.00010588	443.89	4.2695e-06	3.952e-06	428.68	197.91	4.0607e-06	4.5223e-06	220.04	115.67	101	56.798	2.9616e-06	67.897	0.00088508	0.00086157	0.0002417	460.22	7.8348e-06	9.9532e-06	445.98	206.56	8.1408e-06	9.8557e-06	229.5	121.22	106.2	60.047	9.0986e-06	71.653	134.103	-49.050	-54.869	-121.404	-4.863	12.485	-123.228	-116.152	-20.753	12.926	-118.511	-114.957	-113.079	-108.597	-14.633	-111.968	-8191	255	
51496.129	1	1	0	0	0.31576	0.2826	0.14046	0.076365	0.16118	0.06146	0.22647	0.43217	0.20421	0.10678	0.085054	0.11672	0.12421	0.22895	0.17735	0.063131	-3.1688	-3.2396	-2.6146	-3.5896	-2.9729	-2.8583	-3.6896	-2.7604	-3.3875	-3.4375	-2.8667	-3.5542	-3.2604	-2.9583	-3.5062	-2.9417	-33.483	79.654	82.761	186.769	-92.162	73.307	97.903	-0.888	-9.931	-21.207	45.326	122.298	-110.747	212.444	136.169	44.211	0.00097351	0.00051308	0.00013256	453.52	4.0677e-06	3.7944e-06	441.62	201.15	3.736e-06	4.3526e-06	223.96	117.53	103.48	58.655	4.3176e-06	70.012	0.00087281	0.00083538	0.00023818	468.12	7.8072e-06	9.941e-06	456.91	210.04	8.0096e-06	1.0111e-05	233.17	123.55	108.67	62.03	9.4233e-06	74.12	134.434	-47.230	-37.594	-121.860	-8.146	10.680	-123.830	-116.389	-39.905	12.396	-118.861	-115.422	-113.241	-108.847	-19.500	-112.128	-8191	255	
51496.227	1	1	0	0	0.17252	0.05791	0.032842	0.094984	0.093669	0.19567	0.15796	0.1391	0.24473	0.26008	0.11856	0.021508	0.20308	0.26192	0.033682	0.37997	-2.875	-3.2854	-2.6583	-3.6063	-3.1146	-2.8125	-3.7	-2.8563	-3.1854	-3.5625	-2.7833	-3.5875	-3.2354	-2.9979	-3.5771	-3.0396	-99.654	98.530	-53.218	30.796	-9.394	115.258	-103.308	129.169	-20.905	-119.167	-61.670	50.188	181.062	-27.184	20.434	220.540	0.0010289	0.00046951	0.00013285	460.08	3.4466e-06	3.7421e-06	446.9	202.07	3.6588e-06	4.387e-06	223.28	117.57	103.01	57.899	3.8811e-06	69.111	0.00091686	0.00088867	0.00025907	476.66	7.9808e-06	1.1032e-05	462.24	210.79	8.6771e-06	1.0536e-05	233.43	123.15	108.32	61.276	9.804e-06	73.071	135.381	-56.562	-52.765	-121.556	-4.720	6.565	-123.352	-116.716	-6.327	15.576	-118.678	-115.323	-112.985	-108.822	-28.864	-111.833	-8191	255	
51496.320	1	1	0	0	0.17546	0.099977	0.16673	0.20006	0.10971	0.25395	0.19872	0.050066	0.064238	0.17688	0.10696	0.1198	0.11939	0.45169	0.12365	0.14326	-2.8875	-3.5563	-2.5938	-3.4062	-3.275	-2.875	-3.6021	-2.9188	-2.9146	-3.6667	-2.7188	-3.6	-3.4083	-2.8729	-3.6479	-3.25	-132.366	4.771	16.630	45.450	128.658	12.346	195.950	176.945	41.855	34.718	143.841	54.306	207.911	112.181	51.739	147.370	0.0010032	0.00055523	0.00012755	460.85	3.8e-06	4.5317e-06	443.29	202	3.1775e-06	5.9854e-06	224.14	117.58	103.26	57.124	4.4233e-06	68.045	0.00091614	0.00091837	0.00026303	476.46	7.8182e-06	1.065e-05	462.43	211.12	8.4225e-06	9.6738e-06	233	123	108.13	60.399	9.3947e-06	71.825	133.919	-38.863	-46.961	-121.320	-9.942	39.474	-123.254	-116.222	5.198	26.461	-118.400	-115.235	-113.070	-108.698	-2.415	-111.708	-8191	255	
51496.441	1	1	0	0	0.064697	0.12004	0.056147	0.14273	0.17452	0.32018	0.27538	0.085252	0.097561	0.21589	0.18015	0.31806	0.15764	0.20486	0.13818	0.16915	-2.7875	-3.4688	-2.675	-3.4854	-3.3771	-2.6312	-3.4688	-3.0146	-2.9708	-3.7104	-2.9646	-3.4729	-3.4271	-2.9104	-3.5458	-3.1625	97.514	175.440	-116.292	105.924	42.095	93.807	183.765	127.156	27.110	138.856	183.523	145.917	97.885	167.642	38.190	175.753	0.0010092	0.00050466	0.00011941	452.5	4.1087e-06	3.3988e-06	443.17	201.65	3.5982e-06	3.0142e-06	222.92	116.79	102.53	56.557	4.8519e-06	67.062	0.00089745	0.00086754	0.00025831	469.36	7.5307e-06	1.0175e-05	459.2	209.52	8.0005e-06	9.2565e-06	232.1	122.43	107.53	59.7	9.473e-06	70.717	136.304	-38.292	-37.989	-121.597	-20.551	13.655	-123.216	-116.011	-27.432	18.005	-118.523	-115.055	-113.045	-108.547	-17.304	-111.738	-8191	255	
51496.535	1	1	0	0	0.20455	0.089555	0.096888	0.072105	0.12046	0.11462	0.13291	0.17768	0.17284	0.046511	0.11127	0.26114	0.23462	0.32737	0.10152	0.1038	-2.6375	-3.5521	-2.8625	-3.3104	-3.45	-2.7021	-3.5333	-3.4062	-2.7458	-3.425	-2.8875	-3.2521	-3.6562	-2.9521	-3.5167	-3.4313	153.225	-105.115	134.140	109.438	-15.356	-91.077	52.749	189.300	-93.796	185.715	120.935	117.195	189.664	202.774	187.126	171.554	0.00093795	0.00045048	0.00010648	452.81	3.9118e-06	4.7515e-06	439.99	200.01	4.3276e-06	4.2844e-06	222.27	116.54	102.19	56.022	4.1886e-06	66.461	0.00087235	0.00082422	0.00025224	468.83	7.5882e-06	1.0462e-05	456.56	208.67	8.8355e-06	9.3069e-06	232.11	121.82	107.02	59.099	9.4419e-06	70.157	134.170	-52.845	-31.655	-121.692	-3.104	6.799	-123.226	-116.520	-25.421	22.085	-118.661	-115.000	-113.007	-108.563	-13.025	-111.741	-8191	255	
51496.633	1	1	0	0	0.064916	0.01146	0.21221	0.11868	0.17449	0.12737	0.19753	0.26619	0.23367	0.20332	0.19035	0.11446	0.23398	0.24841	0.15292	0.21308	-2.2854	-3.6396	-2.825	-2.9938	-3.575	-2.7771	-3.7208	-3.3417	-2.725	-3.6292	-2.9562	-3.0104	-3.5833	-2.9188	-3.4396	-3.4917	-120.011	-19.626	123.794	140.074	142.155	-54.244	-126.348	-40.950	-123.669	-15.518	-97.663	121.697	225.963	207.887	217.616	-118.448	0.00097548	0.00045295	0.00012493	454.88	3.9426e-06	4.6778e-06	440.85	200.17	5.706e-06	4.6945e-06	222.69	116.69	102.88	56.78	3.4454e-06	67.451	0.00089906	0.0008617	0.00024479	470.89	7.5683e-06	1.0341e-05	457.97	208.56	8.5911e-06	9.6738e-06	231.99	122.46	107.69	59.895	9.4494e-06	71.153	134.622	-62.589	-47.542	-121.820	-12.682	25.211	-123.568	-116.037	-25.411	17.328	-118.839	-115.199	-112.866	-108.768	-5.482	-111.792	-8191	255	
51496.727	1	1	0	0	0.12603	0.027308	0.23818	0.27468	0.1143	0.15004	0.042592	0.19696	0.10825	0.15129	0.12001	0.21441	0.17161	0.22952	0.12986	0.076044	-2.4062	-3.5833	-2.9562	-2.8854	-3.6208	-2.525	-3.2771	-3.6625	-2.8625	-3.6479	-3.0854	-3.0104	-3.6562	-3.0042	-3.0687	-3.6771	-75.839	102.397	-23.103	195.530	35.499	152.570	-41.468	-56.389	-3.612	76.756	-30.816	-39.863	61.026	-84.287	72.044	-77.477	0.00096692	0.00046675	0.00010702	453.53	3.7487e-06	5.3538e-06	436.88	198.64	3.7912e-06	3.4919e-06	220.95	115.59	101.15	55.72	4.867e-06	65.854	0.00090599	0.00087596	0.0002509	469.53	7.7066e-06	1.0387e-05	455.9	207.56	8.7869e-06	1.0007e-05	230.35	120.68	106.27	58.643	9.9433e-06	69.383	134.374	-44.596	-44.310	-121.814	-19.867	13.176	-123.376	-116.229	-28.117	17.523	-118.750	-115.421	-112.865	-108.596	-2.798	-111.972	-8191	255	
51496.824	1	1	0	0	0.127	0.032667	0.092354	0.048686	0.25637	0.10114	0.13981	0.25751	0.037948	0.18761	0.1121	0.18055	0.12028	0.050813	0.25813	0.11812	-2.2208	-3.2833	-3.1458	-2.7771	-3.6354	-2.7333	-3.1437	-3.6708	-2.7896	-3.4271	-3.2938	-2.7708	-3.825	-3.0458	-3.1188	-3.4437	74.005	-12.354	-111.668	-15.987	23.600	190.169	80.922	-129.500	179.514	-11.813	93.985	213.433	-70.019	152.345	-117.598	218.311	0.00095738	0.00046094	0.00010798	450.26	4.3869e-06	4.0329e-06	436.61	198.49	3.7302e-06	4.2751e-06	219.02	115.38	101.22	56.355	4.4067e-06	67.065	0.00088399	0.00091072	0.00024773	466.55	8.0195e-06	1.0077e-05	454.44	207.11	8.7722e-06	1.012e-05	229.04	121.18	106.61	59.429	1.0081e-05	70.836	135.519	-39.392	-39.500	-121.770	-0.073	13.718	-123.301	-116.280	-37.783	9.280	-118.857	-115.179	-112.965	-108.547	-21.823	-111.828	-8191	255	
51496.922	1	1	0	0	0.22795	0.11759	0.24334	0.19962	0.089435	0.14646	0.23011	0.052564	0.18356	0.15798	0.18948	0.049079	0.084325	0.16873	0.25745	0.51477	-2.4396	-3.2479	-3.2979	-2.8896	-3.4313	-3.0021	-3.0146	-3.625	-2.6958	-3.2792	-3.4667	-2.7208	-3.5812	-3.0625	-2.9083	-3.7562	56.374	63.671	142.478	142.953	168.464	98.083	-55.157	131.739	160.841	-126.047	116.092	153.394	149.004	-127.937	-82.694	100.935	0.0010219	0.0004243	0.00015656	452.43	4.1145e-06	5.209e-06	441.3	199.95	3.8992e-06	5.5468e-06	220.51	116.71	102.76	57.437	5.0525e-06	68.411	0.00092639	0.00090787	0.00025787	470.04	8.2053e-06	1.0509e-05	458.61	208.02	8.9192e-06	1.0184e-05	229.89	122.44	107.5	60.591	1.054e-05	72.157	134.771	-39.816	-37.598	-121.500	-14.461	12.964	-123.414	-116.298	-12.210	18.449	-118.925	-115.391	-112.970	-108.782	-2.434	-111.946	-8191	255	
51497.039	1	1	0	0	0.11878	0.036636	0.14778	0.11452	0.070708	0.16019	0.072773	0.14409	0.086658	0.13718	0.086614	0.17838	0.16228	0.40326	0.15289	0.077244	-2.4562	-3.2417	-3.4792	-2.8563	-3.4313	-3.0021	-2.8854	-3.6625	-2.8563	-3.2896	-3.4771	-2.8833	-3.6375	-3.4792	-2.9562	-3.6979	-77.673	14.520	-126.635	-73.690	-73.499	-1.360	183.924	129.776	70.840	-64.142	-17.362	-50.338	110.532	179.419	-53.612	217.943	0.0010278	0.00040252	0.00013421	456.77	4.2598e-06	3.6767e-06	444.25	199.52	3.9649e-06	4.5331e-06	221.32	117.09	102.34	57.181	4.9319e-06	68.031	0.00092861	0.00093069	0.00025914	472.11	7.9852e-06	1.0833e-05	459.63	208.02	9.1727e-06	1.0106e-05	230.77	122.53	107.53	60.388	1.035e-05	71.922	135.703	-62.290	-43.383	-121.424	0.514	10.203	-123.457	-116.389	-24.373	6.610	-118.730	-115.277	-112.881	-108.897	-37.876	-111.789	-8191	255	
51497.137	1	1	0	0	0.060084	0.19531	0.16344	0.12842	0.17944	0.083076	0.32325	0.026885	0.18434	0.1278	0.17777	0.13344	0.060021	0.22437	0.063304	0.081179	-2.5271	-2.8083	-3.5	-2.7417	-3.4021	-3.3125	-2.8563	-3.6208	-3.1063	-3.0687	-3.6208	-2.9813	-3.5083	-3.6146	-2.6896	-3.7417	198.591	-100.228	-124.336	221.385	-88.057	-7.758	187.013	98.339	91.965	102.194	36.197	82.027	217.339	-105.723	194.222	-74.930	0.00099527	0.0005058	0.0001402	454.67	5.3135e-06	4.8855e-06	439.49	198.91	4.2242e-06	4.5769e-06	219.13	116.07	102.25	57.022	4.7511e-06	68.04	0.00092556	0.00094015	0.0002578	471.16	8.3137e-06	1.098e-05	457.49	207.23	8.9498e-06	1.0386e-05	228.74	121.58	107.1	60.259	1.0188e-05	71.852	136.793	-35.694	-49.657	-121.798	3.173	18.438	-123.659	-116.515	-12.436	19.092	-118.618	-115.370	-112.818	-108.842	0.042	-111.960	-8191	255	
51497.230	1	1	0	0	0.26257	0.1687	0.28967	0.037976	0.17233	0.18377	0.19467	0.2026	0.1287	0.1773	0.086728	0.19165	0.20553	0.19508	0.023301	0.18317	-2.6271	-2.8958	-3.5271	-2.7708	-3.2938	-3.4625	-2.7625	-3.6562	-3.1562	-2.9875	-3.5958	-3.0479	-3.3229	-3.4396	-2.6208	-3.5979	21.508	44.732	-112.490	212.692	-110.626	206.949	191.037	-55.738	0.699	168.052	-118.622	95.404	214.791	219.983	165.033	187.241	0.0010094	0.00035367	0.00011807	453.44	3.4826e-06	4.8285e-06	440.63	198.28	4.608e-06	3.2859e-06	219.97	115.94	101.67	56.028	4.4726e-06	66.627	0.00091899	0.00096505	0.00024693	470.69	8.0925e-06	1.0159e-05	457.93	207.25	8.8355e-06	1.1178e-05	229.71	121.55	106.62	59.315	1.0483e-05	70.356	133.746	-49.724	-39.585	-122.016	3.936	15.489	-123.507	-116.396	-12.931	11.739	-119.038	-115.447	-112.821	-108.991	-4.213	-112.209	-8191	255	
51497.328	1	1	0	0	0.24844	0.16733	0.136	0.11028	0.34141	0.1738	0.11987	0.19984	0.17485	0.1281	0.12562	0.17031	0.24485	0.12147	0.13223	0.14019	-2.7208	-2.75	-3.5792	-2.9562	-3.1583	-3.5417	-2.7542	-3.5812	-3.1458	-2.925	-3.5938	-2.9896	-3.2396	-3.4292	-2.7833	-3.4521	1.698	137.249	3.532	-6.831	131.110	-93.898	-36.205	-124.675	41.494	224.923	87.615	-131.073	-130.454	153.093	120.246	5.044	0.0010117	0.00039983	0.0001225	452.6	4.5196e-06	4.4675e-06	441.06	198.51	3.3719e-06	3.3909e-06	221.34	116.51	102.3	56.53	3.7078e-06	67.135	0.00091024	0.00096791	0.00024635	468.84	8.3247e-06	1.0014e-05	458.03	207.71	8.2981e-06	1.0908e-05	231.56	122.41	107.21	59.649	1.0604e-05	70.887	136.781	-30.411	-48.739	-121.937	-15.897	17.841	-123.584	-116.677	-15.812	31.691	-119.087	-115.477	-113.150	-109.237	-10.982	-112.289	-8191	255	
51497.426	1	1	0	0	0.11372	0.23088	0.25244	0.092893	0.1476	0.0090168	0.040363	0.010625	0.16081	0.22776	0.21881	0.30119	0.0831	0.15122	0.13895	0.24666	-3.0979	-2.6958	-3.5917	-3.125	-2.8854	-3.6375	-2.7854	-3.5792	-3.5312	-2.8104	-3.6312	-2.9729	-3.0208	-3.6813	-2.7687	-3.3604	77.343	224.819	-1.680	179.184	208.769	85.543	70.902	-85.749	-56.373	1.107	97.268	34.366	150.049	203.049	161.594	-102.566	0.00098632	0.00049421	0.000142	452.01	3.9066e-06	4.8795e-06	442.4	199.04	3.0943e-06	4.5609e-06	221.79	115.69	101.26	55.856	4.5545e-06	66.349	0.00091314	0.00095351	0.00025998	469.3	8.3712e-06	1.0474e-05	458.37	207.99	8.9962e-06	1.1352e-05	230.82	121.42	106.54	58.946	1.0762e-05	70.019	135.220	-35.562	-34.131	-121.847	-18.391	27.725	-124.002	-116.517	-15.093	6.097	-119.109	-115.494	-113.238	-109.011	-14.420	-112.435	-8191	255	
51497.520	1	1	0	0	0.25834	0.18712	0.29012	0.42325	0.13748	0.16036	0.1509	0.11945	0.26609	0.12705	0.10981	0.19062	0.20671	0.014926	0.13088	0.23546	-3.1583	-2.6229	-3.5333	-3.075	-3.0292	-3.6896	-2.9708	-3.2062	-3.5042	-2.6063	-3.5312	-3.1458	-2.7729	-3.7604	-2.7354	-3.175	64.041	25.804	-8.832	224.877	-99.828	-91.393	107.058	-127.191	184.378	-42.292	140.894	151.169	186.820	-39.733	-105.038	127.056	0.0009857	0.00032191	0.00010576	453.48	5.2469e-06	4.462e-06	443.17	197.69	5.3687e-06	5.3092e-06	219.83	114.5	100.91	55.333	2.7056e-06	65.808	0.00091909	0.00097698	0.00027354	469.36	9.1043e-06	1.0946e-05	457.27	206.85	9.3266e-06	1.1644e-05	229.44	120.31	105.97	58.483	1.0792e-05	69.256	135.179	-48.409	-50.091	-122.145	-15.386	11.039	-123.535	-116.636	-11.972	20.805	-118.879	-115.614	-113.176	-109.051	-24.577	-112.126	-8191	255	
51497.617	1	1	0	0	0.049065	0.16943	0.13839	0.067098	0.18055	0.058772	0.26777	0.38553	0.1057	0.14944	0.13043	0.18946	0.19994	0.29655	0.19926	0.18948	-3.2208	-2.6646	-3.3438	-3.2667	-3.0229	-3.5396	-2.9167	-3.0854	-3.5417	-2.5229	-3.55	-3.4146	-2.8667	-3.7687	-2.9542	-2.9958	-5.273	24.532	216.677	223.036	-87.721	-46.192	219.994	-128.635	37.235	-11.447	-88.157	25.499	-64.373	179.100	-52.008	101.758	0.0010216	0.00050943	0.00010535	449.96	4.3957e-06	3.7604e-06	439.16	197.51	2.828e-06	6.1074e-06	219.55	115.4	101.42	55.494	4.5961e-06	65.256	0.00092339	0.0010222	0.00026841	467.23	9.153e-06	1.1128e-05	456.06	206.35	9.2496e-06	1.1559e-05	229.69	120.56	106.14	58.494	1.0861e-05	69.149	135.683	-48.421	-47.910	-122.260	-1.215	8.148	-124.065	-116.539	-14.143	10.623	-119.284	-115.441	-113.254	-109.146	-11.275	-112.107	-8191	255	
51497.715	1	1	0	0	0.17893	0.20966	0.20434	0.090104	0.18059	0.069129	0.050917	0.21229	0.15947	0.22379	0.22593	0.16266	0.096234	0.11634	0.19023	0.22198	-3.275	-2.8042	-3.4562	-3.4771	-2.6813	-3.5104	-2.8146	-3.0667	-3.6375	-2.9104	-3.4437	-3.5729	-2.9437	-3.7854	-3.0646	-2.9479	-84.771	23.010	18.618	-85.315	55.858	-73.021	82.722	-100.629	16.610	13.084	155.444	-123.212	-3.426	-115.215	-117.693	30.097	0.00096375	0.00052362	9.5896e-05	451.58	4.2615e-06	4.5187e-06	439.82	198.93	3.6198e-06	4.4559e-06	223.91	115.8	101.36	55.082	4.2015e-06	65.373	0.0008943	0.0010129	0.00027706	467.35	9.0822e-06	1.1027e-05	456.6	207.59	8.8672e-06	1.1548e-05	232.01	121.21	106.51	58.313	1.0733e-05	69.25	134.743	-53.385	-53.882	-122.289	-6.625	-10.135	-123.912	-116.534	0.198	32.139	-118.833	-115.488	-113.198	-108.969	-13.973	-112.033	-8191	255	
51497.809	1	1	0	0	0.071073	0.081087	0.26441	0.21942	0.23865	0.18666	0.28228	0.17404	0.39588	0.14535	0.080167	0.14902	0.21026	0.067733	0.098256	0.14467	-3.2313	-2.8438	-3.3333	-3.6229	-2.6312	-3.4437	-3.1333	-2.8354	-3.6188	-2.9708	-3.1271	-3.4688	-2.825	-3.3937	-3.2354	-2.75	29.107	85.867	-52.645	223.713	-107.120	202.157	36.565	151.255	37.271	104.127	204.997	4.144	181.928	27.251	47.777	-66.938	0.00093767	0.00045017	0.00010727	451.95	4.9634e-06	4.7237e-06	441.76	199.96	4.8957e-06	4.4748e-06	223.14	115.42	101.08	54.879	4.6572e-06	64.66	0.00088922	0.00097763	0.0002655	468.21	9.0148e-06	1.0813e-05	458.45	208.76	8.6398e-06	1.094e-05	232.83	121.38	106.26	57.921	9.9794e-06	68.313	136.033	-60.113	-45.751	-121.826	-0.915	5.350	-123.986	-116.714	-17.796	8.663	-119.194	-115.642	-113.447	-109.015	-10.025	-112.041	-8191	255	
51497.930	1	1	0	0	0.038192	0.30853	0.45717	0.17857	0.30352	0.25718	0.063383	0.11123	0.16577	0.19583	0.26831	0.078354	0.10549	0.10662	0.21952	0.16614	-3.4229	-2.9125	-3.0708	-3.6396	-2.7146	-3.6417	-3.5062	-2.9458	-3.6646	-2.9688	-2.9813	-3.6562	-2.7458	-3.6708	-3.4104	-2.8333	17.447	112.743	46.762	110.913	197.491	216.490	-76.190	-53.645	-117.514	-107.000	122.812	-23.053	130.201	169.611	86.844	159.067	0.00099154	0.00052565	0.00011026	448.64	3.2888e-06	4.3632e-06	437.52	199.05	4.8795e-06	4.2382e-06	222.71	116.02	101.3	54.595	3.9288e-06	64.267	0.00088865	0.00097491	0.00026659	465.14	8.3756e-06	1.0476e-05	455.28	208.01	8.4508e-06	1.0215e-05	232.61	121.25	106.32	57.697	9.7977e-06	68.104	135.043	-52.546	-47.691	-122.326	0.709	10.415	-123.739	-116.702	-31.245	11.846	-118.804	-115.606	-113.291	-109.085	-3.183	-112.128	-8191	255	
51498.000	1	1	0	0	0.17462	0.1039	0.10456	0.13712	0.19474	0.14495	0.23353	0.14706	0.10724	0.21748	0.23617	0.10617	0.2746	0.085426	0.24426	0.14677	-3.3042	-3.0479	-2.8729	-3.6104	-2.7479	-3.3146	-3.3958	-2.7292	-3.4313	-3.1208	-2.9167	-3.6125	-2.9458	-3.2104	-3.5708	-2.6979	-127.089	39.252	122.388	50.480	-85.398	46.578	196.862	132.187	126.209	61.480	180.747	100.534	173.238	-109.489	-30.362	155.209	0.00095703	0.0004646	9.7049e-05	449.04	4.063e-06	3.2355e-06	437.2	199.66	4.1929e-06	4.051e-06	224.31	116.13	101.84	54.721	4.5963e-06	64.866	0.00087571	0.00091824	0.00026187	465.06	8.6144e-06	1.0505e-05	455.55	208.55	8.6205e-06	1.0025e-05	233.99	121.82	106.75	57.921	9.6808e-06	68.645	135.320	-53.886	-37.775	-122.311	-14.228	-6.036	-123.981	-116.705	-6.822	11.365	-118.777	-115.850	-113.249	-109.028	15.422	-111.991	-8191	255	
51498.121	1	1	0	0	0.21581	0.079143	0.16242	0.11161	0.14453	0.081134	0.14357	0.161	0.23209	0.34882	0.17205	0.060453	0.31384	0.10166	0.16006	0.14074	-3.2354	-3.0875	-2.7083	-3.5812	-2.95	-3.0646	-3.5854	-2.7687	-3.4896	-3.1792	-2.6562	-3.7542	-2.9208	-2.9667	-3.6042	-2.7958	166.333	-119.762	-8.795	223.729	127.330	8.103	204.532	-86.046	129.986	91.206	-126.063	219.237	213.638	155.757	82.423	157.872	0.0009782	0.00042198	0.00011303	451.85	3.1056e-06	4.361e-06	444.22	199.79	4.6492e-06	4.3215e-06	223.89	116.54	101.19	54.792	3.9164e-06	64.677	0.00088068	0.00088906	0.00026794	467.86	8.3258e-06	1.0398e-05	459.7	209.04	8.4848e-06	9.9398e-06	234.36	122.26	106.54	57.774	9.896e-06	68.233	134.681	-50.570	-36.076	-122.352	-5.333	35.708	-123.935	-116.595	-34.697	13.470	-119.065	-115.514	-113.371	-109.039	-6.735	-112.144	-8191	255	
51498.219	1	1	0	0	0.049446	0.15608	0.21346	0.13794	0.0058687	0.17974	0.17033	0.20045	0.14073	0.20771	0.049137	0.1075	0.16312	0.1356	0.152	0.10275	-2.8875	-3.2021	-2.6396	-3.7083	-2.8833	-2.8875	-3.5604	-2.8354	-3.3	-3.4146	-2.7292	-3.5021	-3.0229	-2.9875	-3.5542	-2.7375	43.976	-107.991	57.918	130.346	-97.559	48.607	133.258	192.467	77.484	20.840	174.837	118.879	-105.257	208.830	-26.772	60.176	0.00097942	0.00048362	0.00010168	451.72	4.6592e-06	3.3563e-06	441.12	199.31	4.4599e-06	3.8382e-06	223.63	115.34	100.99	53.709	3.0136e-06	63.333	0.00088141	0.00088764	0.00025682	467.26	8.2573e-06	1.0703e-05	457.79	208.32	8.3829e-06	1.01e-05	233.37	120.83	105.86	56.762	9.3661e-06	66.926	134.668	-50.683	-36.763	-121.950	-17.809	20.842	-123.614	-116.832	-23.048	32.090	-118.875	-115.430	-113.246	-108.864	-22.942	-112.002	-8191	255	
51498.312	1	1	0	0	0.29769	0.14168	0.12424	0.21367	0.16027	0.22399	0.3052	0.10361	0.25558	0.055719	0.10287	0.28798	0.12606	0.6089	0.10636	0.18505	-2.7062	-3.4292	-2.5292	-3.5	-3.0479	-2.7833	-3.7167	-2.9313	-3.1083	-3.4458	-2.7854	-3.5062	-3.2229	-2.8833	-3.6104	-2.9208	168.163	-42.817	-50.451	19.923	91.657	30.887	194.425	123.552	-132.396	157.062	16.123	149.500	167.366	190.314	206.265	216.278	0.00091202	0.0003746	0.0001438	449.81	3.6239e-06	5.0993e-06	443.18	200.29	3.8354e-06	4.3997e-06	224.6	115.46	101.27	54.021	3.8927e-06	63.5	0.00086629	0.00084406	0.00024232	466.77	7.6822e-06	1.0355e-05	459.61	208.62	8.022e-06	9.4873e-06	234.23	120.96	106	56.748	9.1633e-06	66.781	135.124	-49.851	-48.067	-121.865	1.482	-6.365	-123.718	-116.404	-37.663	11.748	-119.300	-115.348	-113.311	-108.894	0.937	-111.931	-8191	255	
51498.410	1	1	0	0	0.24957	0.093022	0.15684	0.11384	0.10172	0.15323	0.17275	0.14348	0.1001	0.11094	0.09617	0.30899	0.11827	0.098466	0.11289	0.10239	-2.6063	-3.4604	-2.5187	-3.4479	-3.4708	-2.6542	-3.6896	-2.9542	-3.1	-3.6312	-2.6604	-3.3708	-3.35	-2.8021	-3.5062	-3.0771	-30.474	7.803	198.067	65.915	150.715	16.562	195.909	162.872	-123.521	207.025	220.169	-99.290	-117.281	136.021	-58.572	-19.156	0.0009141	0.00046413	0.00010563	453.03	5.1496e-06	2.8854e-06	444.1	199.12	4.0761e-06	4.2599e-06	222.17	114.55	99.751	53.007	4.3061e-06	62.814	0.00086257	0.00083732	0.00024243	468.18	7.4356e-06	1.0143e-05	459.24	207.77	8.6454e-06	9.8664e-06	232.81	119.73	104.87	56.064	9.2516e-06	66.079	133.362	-50.231	-34.033	-122.072	-6.655	5.373	-123.620	-116.858	-19.742	10.590	-118.957	-115.603	-113.062	-108.865	-33.835	-112.102	-8191	255	
51498.527	1	1	0	0	0.12214	0.15502	0.055445	0.48141	0.0421	0.075267	0.061436	0.085361	0.22842	0.14823	0.27968	0.34559	0.045543	0.34728	0.13246	0.21574	-2.5792	-3.5	-2.5854	-3.1833	-3.4333	-2.575	-3.6042	-3.0854	-2.9646	-3.4813	-2.8063	-3.2146	-3.4729	-2.8208	-3.65	-3.3229	-19.982	-1.786	-113.872	221.036	88.647	-67.754	27.061	-124.279	168.421	148.731	-72.705	168.759	102.905	200.525	217.138	-118.326	0.00093736	0.00042892	9.3299e-05	449.56	3.1663e-06	4.951e-06	441.31	197.35	5.8745e-06	3.5841e-06	222.63	114.55	99.791	52.66	4.3931e-06	61.939	0.00084072	0.00084225	0.00024911	465.71	7.3748e-06	1.0554e-05	458.77	206.65	8.5889e-06	9.5683e-06	232.34	119.96	104.55	55.602	9.2442e-06	65.379	136.344	-43.682	-37.786	-121.960	-16.869	19.240	-123.662	-116.622	-23.219	12.107	-118.997	-115.161	-113.207	-108.902	-4.367	-111.892	-8191	255	
51498.625	1	1	0	0	0.28455	0.21747	0.25938	0.24464	0.12494	0.30858	0.13699	0.2755	0.089012	0.067163	0.17052	0.12534	0.22457	0.072969	0.037245	0.2574	-2.5208	-3.5396	-2.8	-3.0979	-3.4771	-2.6458	-3.5833	-3.1063	-2.625	-3.7438	-2.9292	-2.9917	-3.6542	-2.8688	-3.6667	-3.3604	158.862	97.724	57.121	86.414	173.359	-35.769	13.124	197.219	24.261	54.141	208.278	144.809	-91.673	88.415	-108.163	152.407	0.0009047	0.00048308	9.904e-05	446.09	3.1724e-06	3.5215e-06	436.76	196.7	4.959e-06	5.1134e-06	219.94	113.46	98.094	52.12	3.8123e-06	61.026	0.00084522	0.00085664	0.00025805	464	7.4765e-06	1.0592e-05	453.69	205.1	8.6635e-06	9.6799e-06	229.67	118.74	103.38	54.907	9.4942e-06	64.339	135.327	-58.458	-30.053	-121.878	-8.557	30.924	-123.900	-116.589	-35.516	12.504	-119.038	-115.456	-113.096	-108.921	1.817	-111.920	-8191	255	
51498.695	1	1	0	0	0.057975	0.24199	0.2878	0.32988	0.061323	0.083941	0.22335	0.20006	0.22185	0.03509	0.065194	0.17302	0.28978	0.13121	0.11693	0.18649	-2.4021	-3.475	-2.9958	-3.0812	-3.4146	-2.7021	-3.3854	-3.2979	-2.7333	-3.7104	-3.0062	-2.8979	-3.5521	-2.6708	-3.1917	-3.3625	-17.657	-25.121	-16.392	179.040	49.508	-23.837	-6.152	-121.835	53.807	98.281	-84.256	-125.941	-5.703	143.104	161.443	224.583	0.00090716	0.00048046	0.00013142	441.12	3.3376e-06	4.2074e-06	425.76	193.85	3.2448e-06	4.5535e-06	215.69	112.78	97.92	52.791	3.2276e-06	62.547	0.00086795	0.00092796	0.00024948	456.64	8.2285e-06	1.1421e-05	442.97	202.42	9.4374e-06	1.0842e-05	225.18	118.07	102.84	55.8	1.0501e-05	66.127	135.229	-35.263	-42.400	-122.136	-4.791	7.210	-123.904	-116.728	-10.284	17.156	-119.351	-115.669	-113.256	-109.029	-5.092	-112.137	-8191	255	
51498.816	1	1	0	0	0.079187	0.115	0.06917	0.15701	0.19756	0.27807	0.088786	0.25009	0.12227	0.071616	0.014784	0.10925	0.13841	0.088129	0.14136	0.20856	-2.3958	-3.3833	-2.9792	-2.8479	-3.5125	-2.8917	-3.1792	-3.3937	-2.6458	-3.4	-3.0187	-2.9875	-3.7083	-2.7062	-3.1	-3.5375	182.823	113.479	134.452	-46.201	-124.964	30.245	184.700	-61.785	-104.606	6.883	-128.203	188.897	136.445	128.373	187.620	-113.709	0.00096961	0.00042985	0.00014985	434.9	4.412e-06	4.5754e-06	422.97	193.58	4.9387e-06	3.2488e-06	217.95	112.71	97.745	52.535	2.861e-06	62.062	0.0008872	0.00091201	0.00026125	450.44	7.6878e-06	1.107e-05	440.23	202.91	9.0482e-06	1.0553e-05	226.44	118.02	102.43	55.573	1.011e-05	65.633	136.554	-45.229	-57.568	-122.032	9.782	7.552	-123.698	-117.046	-8.056	21.693	-119.337	-115.480	-113.256	-108.899	-23.768	-111.968	-8191	255	
51498.914	1	1	0	0	0.10431	0.16391	0.083836	0.26771	0.10164	0.048812	0.13857	0.1496	0.11737	0.30738	0.39301	0.070418	0.29124	0.053787	0.19086	0.078462	-2.1625	-3.425	-3.1417	-2.7875	-3.4646	-2.7708	-3.0375	-3.4625	-2.8167	-3.3708	-3.2812	-2.8479	-3.575	-2.9729	-2.8979	-3.8229	74.267	106.139	98.718	209.155	140.763	129.655	88.469	-92.045	216.079	115.846	100.251	73.863	-122.295	96.697	-110.391	173.546	0.00092939	0.00041944	0.00011352	435.14	4.4644e-06	3.7353e-06	423.09	194.3	3.1303e-06	5.9254e-06	217.6	112.4	97.112	52.076	3.574e-06	61.3	0.00087043	0.00094379	0.00026467	451.3	8.4652e-06	1.1417e-05	439.8	202.78	9.1682e-06	1.0767e-05	227.08	117.57	102.1	54.875	1.0273e-05	64.888	133.800	-46.427	-48.405	-122.363	-20.215	8.392	-123.412	-116.748	-10.969	3.110	-118.893	-115.553	-112.916	-108.889	10.904	-111.756	-8191	255	
51499.012	1	1	0	0	0.11603	0.1558	0.1199	0.10689	0.14571	0.05679	0.10919	0.14178	0.030584	0.22111	0.1725	0.17794	0.10546	0.11448	0.29843	0.12972	-2.3438	-3.2917	-3.2271	-2.7146	-3.4292	-2.9854	-2.9333	-3.5729	-2.7604	-3.2812	-3.4688	-2.7604	-3.5229	-3.1104	-2.7604	-3.6292	65.380	154.430	156.744	78.768	77.845	135.794	164.135	142.981	159.086	215.241	-112.058	-120.779	122.018	200.443	-0.237	213.837	0.00090677	0.00043115	0.00010921	436.46	4.367e-06	2.5288e-06	423.93	194.74	4.92e-06	4.3302e-06	216.67	113.83	98.566	53.438	3.772e-06	63.691	0.00088969	0.00096674	0.00025693	451.79	7.8713e-06	1.0517e-05	440.84	203	8.6839e-06	1.0053e-05	226.71	118.94	103.45	56.389	9.799e-06	67.069	137.611	-37.454	-39.188	-122.013	-17.530	13.661	-123.571	-116.602	-11.416	3.552	-118.968	-115.371	-113.357	-109.139	-2.037	-112.040	-8191	255	
51499.105	1	1	0	0	0.052082	0.068337	0.090906	0.18851	0.16007	0.17089	0.089135	0.2714	0.39476	0.27658	0.15677	0.15482	0.11959	0.44492	0.2431	0.32717	-2.2687	-3.0521	-3.2333	-2.6354	-3.3708	-2.9417	-2.9229	-3.5	-2.8208	-2.9646	-3.6083	-2.4958	-3.5896	-3.2229	-2.7875	-3.7938	-53.875	102.292	-67.531	127.772	52.917	-84.991	101.173	-133.665	64.362	113.721	-125.809	200.733	114.474	156.023	145.168	-70.836	0.00094555	0.00041565	0.00012777	438.93	4.1691e-06	4.8714e-06	429.65	195.69	5.1388e-06	4.2403e-06	218.76	114.89	100.12	53.978	3.8896e-06	64.181	0.00087809	0.00085275	0.00023229	455.79	7.2145e-06	9.6676e-06	447.1	204.83	8.0967e-06	9.5225e-06	229.49	120.42	104.93	56.988	9.7368e-06	67.694	134.708	-45.333	-45.655	-122.589	9.983	5.528	-123.730	-116.407	-12.515	-1.277	-118.960	-115.452	-113.020	-109.277	-18.725	-112.058	-8191	255	
51499.227	1	1	0	0	0.055626	0.12832	0.18104	0.15582	0.015873	0.10567	0.16669	0.18268	0.16113	0.044592	0.26652	0.3011	0.16184	0.32767	0.16675	0.22095	-2.4021	-2.9667	-3.4437	-2.7458	-3.3042	-3.2583	-2.6021	-3.5062	-2.8042	-2.8479	-3.5542	-2.6896	-3.3958	-3.2958	-2.5333	-3.5563	152.681	68.810	37.075	117.140	71.807	11.957	106.841	86.249	94.783	-19.884	-103.346	165.721	-21.502	154.777	212.675	169.154	0.00094032	0.0004858	0.00010434	447.09	5.266e-06	3.7842e-06	436.44	197.86	3.4853e-06	4.8198e-06	220.16	115.45	100.69	54.385	2.9111e-06	64.922	0.00086143	0.00087376	0.00023004	463.49	7.4201e-06	9.3376e-06	453.89	206.14	7.8455e-06	9.5546e-06	230.17	121.27	105.6	57.453	9.6223e-06	68.541	136.064	-46.187	-56.628	-121.985	-8.588	5.888	-123.752	-116.489	-19.874	11.803	-118.984	-115.679	-113.257	-109.098	-18.605	-112.043	-8191	255	
51499.297	1	1	0	0	0.20042	0.11712	0.15028	0.14624	0.0449	0.31127	0.18037	0.19166	0.3359	0.17598	0.10589	0.1612	0.064989	0.19773	0.11635	0.14518	-2.6229	-2.7125	-3.6979	-2.7958	-3.1917	-3.2438	-2.7854	-3.5979	-2.9333	-2.9729	-3.6708	-2.7125	-3.2354	-3.6042	-2.6375	-3.6167	-131.852	50.719	-21.265	104.054	109.654	19.910	37.382	-97.412	133.635	81.858	191.407	-132.799	187.041	201.476	3.963	182.157	0.00093682	0.00035828	0.00013728	449.44	2.6954e-06	3.9972e-06	440.67	197.79	4.6317e-06	4.1408e-06	221.64	116.03	100.92	54.558	4.0007e-06	65.137	0.00084864	0.00084731	0.00023614	465.29	7.3173e-06	9.5423e-06	456.21	206.67	8.1238e-06	9.6341e-06	231.59	121.63	105.73	57.696	9.5937e-06	68.687	134.781	-61.184	-28.238	-122.135	-10.565	4.490	-123.724	-116.703	-21.854	28.538	-119.265	-115.745	-113.207	-109.066	-10.737	-111.949	-8191	255	
51499.395	1	1	0	0	0.17185	0.13565	0.31468	0.09031	0.020344	0.043675	0.069604	0.17986	0.18198	0.046456	0.2662	0.25171	0.068105	0.28458	0.1582	0.052729	-2.8083	-2.5438	-3.4833	-2.7708	-3.0167	-3.4562	-2.7021	-3.6146	-3.1708	-2.7583	-3.7292	-3.0333	-3.0292	-3.5667	-2.7375	-3.4104	80.534	161.761	-28.057	-114.276	180.191	59.719	156.398	-133.965	-49.846	-85.608	130.222	-61.659	-121.189	-71.213	-61.280	179.470	0.00093472	0.00037028	0.00014787	450.43	4.1211e-06	4.7894e-06	442.67	197.48	3.2886e-06	4.936e-06	220.92	115.39	100.36	54.546	5.1984e-06	64.91	0.00088286	0.00088841	0.00024454	467.46	7.7441e-06	9.246e-06	457.02	206.68	7.9371e-06	1.0502e-05	230.72	121.07	105.43	57.591	9.9221e-06	68.555	133.874	-50.841	-37.934	-122.376	-2.392	11.132	-123.390	-116.512	-24.089	15.365	-119.366	-115.490	-113.271	-108.951	-15.602	-111.925	-8191	255	
51499.488	1	1	0	0	0.065475	0.15431	0.1725	0.089945	0.098992	0.053792	0.23269	0.23799	0.12474	0.19328	0.039788	0.2372	0.29577	0.32226	0.12584	0.058878	-2.7708	-2.6271	-3.7854	-2.95	-2.9646	-3.6562	-2.7313	-3.4292	-3.2812	-2.5854	-3.625	-3.15	-2.9021	-3.7479	-2.8042	-3.3625	81.062	174.098	154.186	147.852	202.136	207.150	121.653	218.048	143.554	-36.876	-116.698	93.070	222.786	-125.880	169.887	155.368	0.00098069	0.00042119	0.00012739	452.28	4.0564e-06	3.9721e-06	442.15	198.07	3.9612e-06	3.7917e-06	221.28	115.37	99.734	54.671	4.1212e-06	64.929	0.00087266	0.00091163	0.00025119	469.34	8.1699e-06	9.7638e-06	459.89	206.8	8.0797e-06	1.0536e-05	230.69	120.45	104.95	57.723	1.0428e-05	68.636	135.764	-42.825	-45.371	-122.015	-1.865	6.590	-123.874	-116.880	-17.616	9.749	-119.282	-115.773	-113.346	-109.115	-15.549	-111.924	-8191	255	
51499.609	1	1	0	0	0.1884	0.18876	0.22253	0.26786	0.04643	0.090301	0.1891	0.17717	0.14849	0.26653	0.058343	0.29047	0.12949	0.27114	0.062336	0.18518	-3.0167	-2.625	-3.5396	-3.2396	-2.8438	-3.6229	-2.7979	-3.2229	-3.4625	-2.7562	-3.5812	-3.1521	-2.7875	-3.7646	-2.8	-3.2021	-126.970	-103.847	14.165	-130.470	-100.713	203.659	189.824	176.236	171.172	87.213	82.444	197.003	174.811	159.515	-34.120	140.476	0.00098235	0.00034427	0.00012066	453.8	3.9868e-06	3.9957e-06	440.71	198.44	3.48e-06	4.7183e-06	220.76	114.79	100.09	54.543	4.448e-06	64.864	0.0008855	0.00092693	0.00024908	471.11	8.505e-06	1.0399e-05	459.39	206.41	7.8659e-06	1.1169e-05	230.4	120.09	104.7	57.486	1.0265e-05	68.499	134.540	-48.871	-55.367	-122.230	-20.696	20.845	-123.976	-116.887	-41.281	19.057	-119.269	-115.697	-113.082	-108.950	-7.045	-112.096	-8191	255	
51499.707	1	1	0	0	0.22428	0.075967	0.16934	0.12355	0.02407	0.072571	0.18651	0.036087	0.22031	0.15493	0.057433	0.34132	0.19283	0.1375	0.12783	0.069778	-3.0354	-2.6229	-3.2854	-3.3146	-2.8417	-3.6063	-2.7896	-3.0104	-3.6146	-2.7583	-3.4688	-3.4979	-2.7188	-3.7417	-3.0542	-3.1437	181.835	-75.626	-102.008	78.348	128.903	120.412	144.152	197.380	51.893	128.956	221.203	24.863	149.215	156.453	-18.679	70.043	0.00098644	0.000517	9.8243e-05	455.06	3.8254e-06	3.9469e-06	442.93	198.59	4.7495e-06	4.5344e-06	222.53	113.45	98.825	53.688	4.0554e-06	63.756	0.00088462	0.00095961	0.00025297	471.98	8.526e-06	1.0201e-05	460.4	207.19	8.5685e-06	1.069e-05	231.86	119.15	104.04	56.766	1.0037e-05	67.289	135.631	-63.470	-25.087	-122.313	-5.636	24.671	-123.743	-116.645	-10.021	8.620	-119.152	-115.524	-113.526	-109.017	9.428	-112.132	-8191	255	
51499.801	1	1	0	0	0.014005	0.17458	0.052346	0.045634	0.29514	0.34774	0.089121	0.24021	0.18866	0.31001	0.18517	0.091618	0.094013	0.14275	0.19346	0.20899	-3.1667	-2.7583	-3.3104	-3.45	-2.6833	-3.4479	-2.9521	-2.9188	-3.3667	-2.7	-3.4521	-3.6375	-2.7896	-3.4562	-3.0875	-2.8583	-107.796	203.835	-74.629	94.212	-69.946	61.458	44.935	-133.146	96.589	200.818	172.072	191.716	223.217	-117.871	219.561	109.733	0.00095148	0.00049723	9.5773e-05	455.99	4.1829e-06	3.5991e-06	441.75	197.41	3.0557e-06	4.5116e-06	219.71	111.59	98.326	52.915	5.0475e-06	62.683	0.0008754	0.00099786	0.00027364	472.72	9.0944e-06	1.0923e-05	459.75	205.96	8.9317e-06	1.1612e-05	229.03	116.87	102.98	55.896	1.033e-05	66.15	134.874	-51.714	-37.310	-122.139	-0.026	5.085	-123.754	-116.847	-8.133	6.397	-118.724	-115.525	-113.487	-108.933	-2.065	-112.052	-8191	255	
51499.898	1	1	0	0	0.071209	0.22596	0.20683	0.21789	0.046606	0.14698	0.23236	0.14207	0.16611	0.21082	0.082312	0.13085	0.19646	0.28536	0.21463	0.14544	-3.3271	-2.8479	-3.1625	-3.6396	-2.7146	-3.4417	-3.4396	-2.7708	-3.8021	-2.8812	-3.2125	-3.6792	-2.8063	-3.5062	-3.3958	-2.9813	39.887	-3.102	190.294	194.836	-130.537	130.808	73.239	214.280	64.944	193.897	33.825	-35.542	41.387	142.286	144.337	196.219	0.00096149	0.00055832	0.00012109	453.59	4.1194e-06	4.5225e-06	441.39	196.49	2.6887e-06	4.12e-06	218.35	110.71	97.004	51.931	3.4612e-06	61.355	0.00089844	0.0010392	0.00028615	471.27	9.2437e-06	1.1325e-05	459.14	205.3	9.6072e-06	1.1764e-05	227.93	115.66	101.83	54.924	1.1247e-05	64.8	136.766	-52.747	-46.604	-122.194	-19.497	12.206	-123.906	-116.844	-13.671	31.266	-119.072	-115.683	-113.261	-108.963	-27.068	-111.857	-8191	255	
51499.992	1	1	0	0	0.031908	0.11857	0.056973	0.37892	0.057879	0.080513	0.12915	0.18312	0.10377	0.17913	0.066495	0.17863	0.063568	0.12882	0.21475	0.25765	-3.3625	-2.6979	-2.9667	-3.6771	-2.7562	-3.3063	-3.4375	-2.7062	-3.5646	-3.0583	-3.0333	-3.7229	-2.8292	-3.4688	-3.475	-2.7792	-30.015	50.190	14.647	135.756	147.546	132.455	113.268	-105.796	195.620	56.129	190.821	-104.264	148.302	-126.679	169.173	186.084	0.00089989	0.00037789	0.0001462	451.89	4.442e-06	3.8447e-06	435.26	193.69	3.7174e-06	3.7381e-06	214.45	109.64	96.027	51.211	3.419e-06	60.307	0.0009178	0.0010984	0.00031253	468.03	9.8198e-06	1.2075e-05	454.12	202.56	9.769e-06	1.2079e-05	224.79	114.49	100.84	53.959	1.1079e-05	63.606	135.082	-51.884	-44.305	-121.995	-11.574	1.745	-123.844	-116.860	-16.231	23.449	-119.121	-115.351	-113.078	-108.723	-16.009	-111.935	-8191	255	
51500.090	1	1	0	0	0.284	0.17867	0.32397	0.20753	0.29615	0.23067	0.027551	0.23952	0.04132	0.17823	0.10003	0.1302	0.066191	0.17768	0.18895	0.23838	-3.2458	-3.2417	-2.8083	-3.6833	-2.9813	-3.3167	-3.5104	-2.7458	-3.5917	-3.2938	-3.0167	-3.6	-2.9458	-3.1479	-3.375	-2.8625	91.187	195.193	172.427	-44.320	58.677	-90.602	15.280	2.895	-126.241	0.084	190.881	88.642	168.794	-125.392	66.497	126.945	0.00089258	0.00036127	0.00011939	442.19	3.958e-06	3.4366e-06	432.36	191.35	4.3722e-06	4.1598e-06	212.68	108.42	94.688	50.237	3.6028e-06	59.108	0.00087985	0.0010203	0.00029091	459.71	9.1618e-06	1.1113e-05	447.83	199.16	9.1591e-06	1.158e-05	221.85	113.72	99.65	53.027	1.0712e-05	62.353	137.087	-36.101	-52.456	-121.853	7.349	21.595	-123.478	-116.734	-23.947	9.327	-118.716	-115.366	-113.181	-108.852	-6.150	-112.015	-8191	255	
51500.211	1	1	0	0	0.10518	0.31047	0.2002	0.26166	0.26877	0.17506	0.14973	0.30358	0.11248	0.25141	0.21392	0.17709	0.073272	0.14563	0.24488	0.2379	-3.1854	-3.3	-2.8875	-3.7021	-2.7271	-3.0646	-3.7271	-2.7812	-3.3854	-3.2229	-2.9146	-3.6417	-3.1021	-2.9688	-3.4896	-2.8146	25.403	43.035	113.862	163.710	-39.683	53.174	-39.246	31.391	-48.063	123.023	153.967	109.292	11.650	209.680	147.654	165.839	0.00086282	0.00045274	0.00010442	437.76	4.2296e-06	4.3312e-06	425.67	188.42	4.7048e-06	4.2363e-06	208.21	107.32	92.988	49.345	3.9921e-06	57.439	0.00088482	0.00097997	0.00028509	454	8.662e-06	1.1647e-05	441.32	196.37	9.2756e-06	1.1814e-05	218.15	112.57	98.117	51.977	1.0578e-05	60.65	134.865	-45.374	-37.839	-121.985	8.170	12.131	-123.712	-116.429	-20.414	24.026	-118.895	-115.422	-113.195	-108.496	-28.942	-111.750	-8191	255	
51500.305	1	1	0	0	0.058888	0.097932	0.1088	0.14547	0.10207	0.18724	0.16117	0.19644	0.043069	0.1063	0.1255	0.065973	0.087307	0.14287	0.14344	0.32475	-3.075	-3.2771	-2.6042	-3.5229	-3.2313	-3.0271	-3.5938	-2.8688	-3.2104	-3.3104	-2.8771	-3.7146	-3.0833	-3.05	-3.5958	-2.95	-50.137	188.830	54.832	-91.797	50.461	-37.128	-117.700	7.792	-67.423	-122.236	184.672	197.350	108.488	111.450	75.622	149.876	0.00080124	0.00036981	9.9106e-05	431.02	4.5431e-06	3.6856e-06	417.12	184.51	3.0527e-06	4.3317e-06	205.8	105.59	92.127	47.904	3.6325e-06	56.306	0.00088218	0.0010624	0.00032412	446.78	9.9016e-06	1.3121e-05	433.82	192.77	1.0513e-05	1.2964e-05	215.14	110.8	96.473	50.596	1.2436e-05	59.494	135.466	-38.308	-27.189	-121.774	-6.085	15.863	-123.565	-116.444	-30.650	17.944	-118.852	-115.146	-112.960	-108.592	-29.886	-111.539	-8191	255	
51500.402	1	1	0	0	0.2125	0.055941	0.14237	0.17876	0.14436	0.12594	0.067077	0.15283	0.043811	0.28101	0.15043	0.23463	0.18415	0.0862	0.0596	0.10108	-2.9417	-3.4125	-2.6667	-3.7042	-3.2562	-2.9062	-3.7146	-2.8604	-3.1479	-3.5563	-2.8312	-3.5646	-3.2958	-2.8896	-3.4208	-3.1375	74.130	42.646	-128.201	-108.688	83.604	168.562	-122.835	217.574	-16.440	163.501	170.379	102.569	25.405	-121.724	65.466	158.742	0.00080174	0.00038376	0.00012414	423.66	4.9939e-06	3.7997e-06	410.75	183.2	3.1438e-06	4.0758e-06	204.3	105.7	92.005	48.939	3.357e-06	57.57	0.00091381	0.0012275	0.00035243	439.2	1.0973e-05	1.4701e-05	426.14	191.69	1.1489e-05	1.4868e-05	213.84	110.85	96.478	51.582	1.3756e-05	61.109	135.427	-66.668	-40.499	-121.934	-2.852	32.155	-123.753	-116.607	-36.185	8.300	-118.681	-115.344	-113.122	-108.692	-13.122	-111.745	-8191	255	
51500.523	1	1	0	0	0.1258	0.093053	0.19319	0.15575	0.15303	0.085892	0.161	0.24006	0.11835	0.15035	0.04566	0.10206	0.1963	0.15498	0.059117	0.3614	-2.7687	-3.625	-2.7542	-3.3542	-3.2854	-2.7562	-3.6333	-3.0563	-2.8792	-3.5042	-2.8479	-3.325	-3.3271	-2.6958	-3.5667	-3.1375	-110.427	-130.735	-53.990	-115.808	206.656	125.226	-26.375	136.884	-15.340	-97.990	52.819	-37.539	194.912	-109.481	145.288	-64.511	0.00086679	0.00037324	0.00010887	423.68	3.4619e-06	4.231e-06	411.57	184.03	3.6709e-06	3.2377e-06	205.24	107.32	92.8	50.697	4.1453e-06	60.571	0.00099792	0.0012572	0.00037376	438.98	1.0885e-05	1.4215e-05	426.6	192.54	1.1317e-05	1.3494e-05	214.7	112.5	97.423	53.517	1.1762e-05	63.942	133.380	-51.606	-41.186	-121.847	-16.863	-2.916	-123.683	-116.590	-29.591	19.479	-118.812	-115.140	-113.112	-108.877	-3.414	-112.119	-8191	255	
51500.594	1	1	0	0	0.16791	0.20805	0.11959	0.028103	0.057596	0.045376	0.12221	0.24706	0.10048	0.15025	0.094141	0.10827	0.22871	0.35745	0.17364	0.070554	-2.6354	-3.5417	-2.7729	-3.2292	-3.3854	-2.7583	-3.675	-3.2729	-2.8458	-3.6771	-2.9917	-3.3292	-3.5854	-2.9542	-3.5104	-3.2771	-113.413	-112.707	-3.614	-117.816	16.784	-118.838	169.493	170.149	133.845	211.685	-94.988	109.026	127.324	205.389	137.743	-13.735	0.0008824	0.00045192	0.00014321	425.76	4.8224e-06	4.1942e-06	416.59	188	5.3624e-06	5.1067e-06	207.99	109.8	94.693	52.374	5.0464e-06	62.958	0.00092292	0.0010589	0.00031714	441.19	9.3974e-06	1.282e-05	431.85	195.36	1.0246e-05	1.1255e-05	218.12	115.05	99.646	55.477	1.0909e-05	66.584	135.076	-51.235	-38.151	-121.912	3.459	17.986	-123.515	-116.403	-20.099	3.362	-118.980	-115.197	-113.150	-108.842	-24.138	-111.855	-8191	255	
51500.691	1	1	0	0	0.23102	0.21115	0.18463	0.18852	0.12198	0.095215	0.18015	0.083831	0.1056	0.1409	0.05315	0.19882	0.089322	0.2682	0.14964	0.13414	-2.5333	-3.6458	-2.9458	-3.075	-3.6333	-2.625	-3.5771	-3.2667	-2.8229	-3.6375	-2.7917	-3.2271	-3.5125	-2.9583	-3.2938	-3.3271	-56.134	20.614	-33.817	-52.787	-68.737	-40.875	120.228	25.843	128.537	159.939	214.473	224.570	148.503	214.269	-121.008	139.646	0.00094894	0.0002677	0.00011275	433.05	5.4814e-06	4.0106e-06	421.95	190.46	4.3004e-06	4.5912e-06	214.29	114.13	98.165	54.994	4.5263e-06	66.354	0.00092173	0.00097231	0.00028324	449.17	8.1024e-06	1.1084e-05	440.26	199.47	8.6545e-06	1.0363e-05	223.58	119.2	103	58.126	9.5663e-06	70.132	135.186	-54.964	-51.383	-121.790	0.798	28.887	-123.547	-116.518	-14.518	23.686	-118.901	-115.411	-113.408	-108.848	-25.531	-111.952	-8191	255	
51500.785	1	1	0	0	0.16233	0.25705	0.16252	0.11976	0.21927	0.29728	0.13333	0.076021	0.069891	0.043533	0.27732	0.14095	0.15849	0.3545	0.1162	0.20822	-2.3375	-3.525	-2.9813	-2.9729	-3.5979	-2.7667	-3.4583	-3.1958	-2.6729	-3.6937	-2.9646	-3.0208	-3.6979	-2.9	-3.2521	-3.5979	127.954	109.018	156.270	-107.859	-35.449	162.044	218.385	96.724	-82.355	158.175	148.295	154.327	118.401	147.898	113.195	144.360	0.0010245	0.00052222	0.00012224	441.41	4.7158e-06	3.2896e-06	432.84	193.14	4.6729e-06	4.5859e-06	216.76	115.46	99.304	55.807	4.6792e-06	67.829	0.0009092	0.00088115	0.00025493	457.62	8.0051e-06	1.0537e-05	448.06	201.68	8.9068e-06	1.0496e-05	226.33	120.88	104.15	59.064	9.901e-06	71.826	133.715	-39.973	-41.327	-121.857	-13.387	18.080	-123.560	-116.783	-9.168	6.942	-118.831	-115.084	-113.039	-109.049	-26.336	-111.887	-8191	255	
51500.906	1	1	0	0	0.15649	0.011962	0.1149	0.063364	0.019801	0.1452	0.14685	0.26514	0.15904	0.2104	0.29474	0.097948	0.16202	0.33315	0.21226	0.18851	-2.4813	-3.6125	-3.1375	-2.8063	-3.6271	-2.8729	-3.3375	-3.4	-2.725	-3.4188	-3.0958	-2.7812	-3.5812	-2.9167	-3.1292	-3.5812	38.175	-68.531	28.409	133.249	204.294	2.451	-131.381	113.935	-27.703	-8.261	164.678	2.288	211.389	-114.698	-120.735	215.036	0.00097579	0.00045149	0.00011007	447.77	4.9662e-06	4.7566e-06	433.38	195.05	4.3639e-06	4.4456e-06	215.38	115.26	99.362	56.069	3.7306e-06	67.166	0.00093731	0.00092641	0.00025824	464.04	8.1765e-06	1.1076e-05	451.59	202.98	9.2044e-06	1.0504e-05	225.82	120.73	104.3	59.098	1.0173e-05	71.045	137.530	-51.042	-41.754	-121.781	-6.647	8.757	-123.223	-116.337	-29.500	14.192	-118.693	-115.199	-113.004	-108.969	-22.517	-112.061	-8191	255	
51501.004	1	1	0	0	0.05816	0.099195	0.24921	0.18781	0.22097	0.037338	0.11082	0.053894	0.28183	0.2721	0.24621	0.25359	0.23189	0.12822	0.067761	0.18555	-2.2542	-3.45	-3.1792	-2.9958	-3.4729	-2.8479	-2.9	-3.75	-2.7292	-3.4146	-3.1813	-2.7333	-3.7417	-3.1354	-2.8792	-3.5542	46.473	216.958	175.703	220.958	21.060	68.312	154.690	-127.366	33.309	220.128	-91.067	146.769	-115.914	161.041	-130.063	126.167	0.00098382	0.00048684	0.00015271	445.75	3.6816e-06	4.7642e-06	437	194.93	4.0017e-06	4.4108e-06	216.1	114.31	98.61	55.393	5.3795e-06	66.676	0.00094228	0.00094664	0.00027819	462.86	8.3966e-06	1.0848e-05	451.86	202.63	9.0991e-06	1.0527e-05	225.9	119.98	103.73	58.408	1.0655e-05	70.5	134.986	-47.850	-58.209	-121.700	-6.165	13.264	-123.389	-116.511	-11.353	21.499	-118.850	-115.196	-112.979	-108.585	-14.430	-111.705	-8191	255	
51501.098	1	1	0	0	0.16457	0.16697	0.20082	0.1693	0.1845	0.17266	0.26595	0.025827	0.095465	0.17497	0.046642	0.12699	0.3168	0.29891	0.16014	0.26833	-2.5458	-3.1833	-3.3583	-2.7229	-3.4813	-2.9938	-2.9896	-3.7333	-2.7458	-3.4979	-3.3625	-2.6708	-3.6542	-3.1688	-2.825	-3.6646	-13.992	165.333	-22.014	70.009	185.384	-127.419	142.010	-24.382	-6.370	-97.420	-45.325	40.029	-121.120	216.982	203.228	160.549	0.00094953	0.00053972	0.00012015	447.78	4.6998e-06	5.2925e-06	437.42	194.81	4.6675e-06	4.4593e-06	216.99	114.59	99.086	55.276	5.1372e-06	66.97	0.00092261	0.00093588	0.00026263	463.7	8.349e-06	1.0827e-05	453.94	203.04	9.0233e-06	1.051e-05	226.58	120.26	103.94	58.424	1.0198e-05	70.7	135.010	-59.656	-43.581	-121.574	-15.085	2.824	-123.376	-116.139	-16.651	31.574	-118.572	-115.020	-112.809	-108.558	-15.761	-111.652	-8191	255	
51501.172	1	1	0	0	0.16052	0.15769	0.26311	0.25511	0.32438	0.10034	0.2799	0.43855	0.20318	0.075759	0.15204	0.082511	0.15232	0.058675	0.067466	0.18548	-2.3708	-3.1042	-3.3792	-2.6896	-3.2313	-3.3021	-2.6375	-3.5604	-2.8542	-3.1542	-3.4396	-2.7188	-3.6	-3.3125	-2.75	-3.7583	192.353	-23.397	142.000	-24.811	147.199	197.290	84.940	-129.707	27.056	0.388	-89.666	121.601	143.781	-82.459	-40.922	-126.240	0.0009665	0.0003813	0.00012458	448.32	4.1277e-06	3.8239e-06	437.34	195	5.4633e-06	5.6047e-06	218.05	115.39	99.157	54.91	5.2153e-06	66.134	0.0009178	0.00092433	0.00026449	464.32	7.9167e-06	1.0413e-05	454.79	203.05	8.9317e-06	1.0646e-05	227.52	120.51	103.92	57.899	1.0219e-05	69.956	134.247	-56.172	-46.403	-121.557	-1.751	29.583	-123.327	-116.238	-5.758	16.626	-118.470	-115.191	-112.673	-108.584	-18.980	-111.536	-8191	255	
51501.289	1	1	0	0	0.13426	0.028214	0.11221	0.14599	0.16056	0.20269	0.10592	0.067313	0.24647	0.14581	0.1776	0.23074	0.043017	0.13751	0.11342	0.33766	-2.6896	-2.8021	-3.5375	-2.7021	-3.2979	-3.2708	-2.7208	-3.5292	-2.8896	-3.0021	-3.4021	-2.8625	-3.4229	-3.5604	-2.8146	-3.5854	160.189	4.165	47.141	-73.346	-87.639	101.494	-13.635	-129.631	12.409	-43.248	121.822	-100.047	23.561	65.749	66.204	176.270	0.00098845	0.00037247	0.0001484	445.29	3.8924e-06	4.8096e-06	432.99	194.44	3.5992e-06	4.8243e-06	216.75	114.17	98.317	54.504	4.2916e-06	65.339	0.00089274	0.0009517	0.00024737	461.6	7.7508e-06	1.0415e-05	451.82	202.33	8.4406e-06	1.0648e-05	226.46	119.59	103.25	57.396	1.0193e-05	69.104	135.819	-54.790	-49.630	-121.283	-5.956	19.282	-123.013	-116.067	-17.810	18.017	-118.716	-114.843	-112.760	-108.520	-3.592	-111.469	-8191	255	
51501.387	1	1	0	0	0.071256	0.29675	0.22542	0.077756	0.16419	0.11246	0.11478	0.30449	0.17374	0.12601	0.12942	0.13312	0.1587	0.20086	0.1497	0.15588	-2.675	-2.8708	-3.4938	-2.7812	-3.3146	-3.5042	-2.7396	-3.6458	-3.1771	-2.9146	-3.6958	-2.9542	-3.2354	-3.5646	-2.9375	-3.7104	206.940	22.945	92.590	172.617	-101.108	-120.332	200.379	115.614	-16.125	-73.631	24.170	185.726	-71.792	179.258	-33.877	182.472	0.00099494	0.00049325	0.00013269	443.28	4.0601e-06	4.4783e-06	433.63	193.88	4.4608e-06	3.2983e-06	218.01	114.28	98.358	54.128	3.734e-06	64.905	0.000887	0.00097413	0.00024755	460.14	7.9056e-06	1.0356e-05	451.45	202.32	8.3343e-06	1.0394e-05	227.13	119.64	103.38	56.964	1.0188e-05	68.437	134.818	-50.684	-43.259	-121.648	-6.761	13.750	-123.109	-116.283	9.087	1.449	-118.544	-115.259	-112.619	-108.540	-7.289	-111.506	-8191	255	
51501.484	1	1	0	0	0.36438	0.16363	0.17313	0.21481	0.083188	0.20506	0.13593	0.1769	0.24087	0.19828	0.12309	0.032837	0.098074	0.088651	0.11709	0.05007	-2.9396	-2.9208	-3.75	-2.7938	-2.9625	-3.4729	-2.8417	-3.475	-3.1562	-2.825	-3.6417	-2.9562	-3.0729	-3.8854	-2.7938	-3.4188	109.201	133.256	-82.640	224.731	-66.140	-32.209	199.974	-113.310	20.519	183.040	152.335	-17.912	7.927	-117.998	79.841	-46.316	0.00095584	0.00045218	0.0001054	445.21	3.4265e-06	4.6353e-06	435.86	195.69	4.7695e-06	3.9858e-06	219.81	113.66	98.275	53.245	4.9833e-06	64.201	0.00090361	0.00097361	0.00025093	460.98	8.1677e-06	1.0214e-05	451.9	203.48	8.2687e-06	1.0811e-05	228.58	119.5	103.13	56.267	1.0254e-05	67.822	134.497	-42.518	-45.015	-121.750	-19.972	2.955	-122.955	-116.074	-21.964	11.351	-118.495	-115.159	-112.493	-108.277	-24.666	-111.517	-8191	255	
51501.602	1	1	0	0	0.067661	0.13161	0.059666	0.39049	0.067198	0.17926	0.1134	0.031064	0.23049	0.14796	0.18086	0.22327	0.2066	0.05652	0.23781	0.27374	-2.9646	-2.7521	-3.5	-3.0958	-2.8354	-3.5229	-2.6583	-3.2854	-3.4437	-2.7333	-3.5333	-3.1646	-2.9167	-3.7354	-2.8312	-3.2875	-74.555	-50.574	-85.706	183.337	82.483	185.692	223.716	-14.730	159.912	216.194	-36.684	221.685	213.751	184.308	209.740	184.126	0.0009234	0.00042702	0.00011098	448.95	4.4753e-06	2.9591e-06	440.86	195.46	4.6062e-06	3.7022e-06	219.03	113.77	98.285	53.066	2.9747e-06	63.842	0.00086857	0.00096207	0.00024414	463.77	8.3214e-06	9.996e-06	455.45	203.64	8.5719e-06	1.0645e-05	228.86	119.53	102.87	56.023	1.0126e-05	67.221	133.431	-53.123	-40.319	-121.606	-7.873	14.893	-123.042	-116.007	-11.274	19.143	-118.497	-114.998	-112.440	-108.285	-20.248	-111.022	-8191	255	
51501.699	1	1	0	0	0.073511	0.080727	0.22767	0.12268	0.14113	0.12167	0.14981	0.064252	0.24283	0.14824	0.21086	0.25542	0.30801	0.23524	0.21966	0.1379	-3.1667	-2.6667	-3.4292	-3.125	-2.7021	-3.5646	-2.8229	-3.2458	-3.4146	-2.725	-3.5896	-3.3354	-2.8021	-3.8292	-3.0875	-3.1813	131.846	18.309	-130.767	-112.105	-38.302	213.639	-93.174	203.259	-121.309	109.845	-51.346	45.719	-99.650	137.654	-26.022	208.979	0.00093354	0.00050988	0.00010407	444.26	4.4968e-06	4.7934e-06	437.71	193.89	3.545e-06	3.9608e-06	218.12	113.7	97.984	52.881	3.6455e-06	63.401	0.00085641	0.000936	0.0002417	461.4	8.192e-06	1.0094e-05	453.47	202.41	8.0277e-06	1.0594e-05	228.06	119.02	102.51	55.76	1.0176e-05	66.936	134.505	-47.947	-39.550	-121.281	-27.598	31.687	-122.899	-115.826	-30.102	4.807	-118.049	-114.591	-112.180	-108.164	-15.093	-111.262	-8191	255	
51501.797	1	1	0	0	0.18154	0.11879	0.25794	0.20984	0.25733	0.087532	0.25806	0.09964	0.050857	0.0040787	0.087054	0.12147	0.23759	0.40706	0.0525	0.24374	-3.0938	-2.6396	-3.2979	-3.2292	-2.8333	-3.4917	-3.0583	-3.025	-3.4729	-2.6979	-3.3812	-3.3771	-2.8271	-3.6292	-3.1875	-3.0583	-115.215	199.057	-78.692	82.052	-29.346	-95.568	187.452	80.680	-69.641	96.172	172.600	175.601	-110.169	171.957	-110.160	109.048	0.0009277	0.00047945	0.00011331	446.26	3.8327e-06	4.2725e-06	434.18	194.64	4.1334e-06	4.4736e-06	218.73	113.75	97.488	52.589	3.2537e-06	62.836	0.00084869	0.00092174	0.0002505	461.2	8.2152e-06	9.9257e-06	452.56	202.31	8.0786e-06	1.0771e-05	227.75	118.8	102	55.364	9.7816e-06	66.316	135.057	-45.150	-30.969	-121.524	-1.125	5.637	-122.851	-115.837	-33.258	10.478	-117.931	-114.626	-112.715	-108.019	-1.511	-111.023	-8191	255	
51501.891	1	1	0	0	0.14818	0.2121	0.18277	0.11521	0.1023	0.18338	0.11534	0.17988	0.18293	0.21177	0.029287	0.10763	0.17603	0.025358	0.27662	0.24254	-3.3667	-2.8208	-3.3958	-3.6063	-2.7229	-3.9375	-3.2896	-3.3167	-3.7562	-2.9292	-3.4396	-3.6417	-3.0125	-3.7396	-3.3104	-3.1167	63.743	-57.466	170.353	156.324	14.087	122.654	129.335	-23.062	75.037	149.476	82.979	206.883	163.359	58.253	-29.977	155.592	0.00088526	0.00048949	0.00011024	444.66	3.2986e-06	4.3651e-06	432.06	193.79	4.8535e-06	4.5694e-06	218.15	112	96.102	51.472	4.925e-06	61.982	0.00085884	0.00097024	0.00026423	460.21	8.526e-06	1.1065e-05	450.84	201.18	8.5708e-06	1.0859e-05	226.86	117.52	101.02	54.3	1.0186e-05	65.225	133.128	-33.543	-40.962	-121.365	-29.058	-7.320	-123.183	-115.842	-27.277	29.000	-118.184	-114.584	-112.338	-107.910	-19.812	-110.938	-8191	255	
51501.988	1	1	0	0	0.13805	0.12329	0.16162	0.15937	0.14777	0.25178	0.19395	0.42227	0.1114	0.35164	0.044054	0.089806	0.14086	0.19174	0.089736	0.38296	-3.3167	-3.0583	-3.2438	-3.7833	-2.7938	-3.4521	-3.4062	-2.7458	-3.7396	-3.0625	-3.3854	-3.8187	-3.1125	-3.6625	-3.5354	-3.0979	-108.868	143.974	183.598	209.718	-88.354	148.090	-61.861	-131.998	64.672	8.205	57.863	-51.481	-127.166	134.338	39.850	170.563	0.00095582	0.00061826	0.00011436	445.29	3.4059e-06	3.7552e-06	432.86	193.5	5.1127e-06	5.5673e-06	217.84	112.39	96.581	51.589	3.6462e-06	62.1	0.00088689	0.00095857	0.00025805	459.25	8.4309e-06	1.0691e-05	450.95	200.98	8.3671e-06	1.0712e-05	227.14	117.67	101.19	54.442	9.6435e-06	65.447	134.112	-42.098	-43.194	-121.245	1.814	14.224	-122.950	-115.560	-12.662	6.956	-118.006	-114.293	-112.178	-108.036	-3.829	-110.999	-8191	255	
51502.082	1	1	0	0	0.22415	0.060876	0.12313	0.22018	0.33508	0.02721	0.11316	0.28367	0.26041	0.24012	0.1227	0.13795	0.23026	0.13925	0.24367	0.054284	-3.3167	-3.1396	-2.9833	-3.8771	-2.8958	-3.5292	-3.5833	-2.8438	-3.8583	-3.1625	-3.1979	-3.7854	-3.0875	-3.5333	-3.5375	-3.1479	-64.601	159.361	88.753	166.290	197.662	49.789	191.672	199.983	-27.253	29.820	187.473	-54.839	172.777	220.776	-103.692	108.638	0.00088137	0.00040135	0.00013536	440.76	3.397e-06	3.4143e-06	432	192.94	2.9524e-06	3.934e-06	217.09	112.22	96.583	51.512	4.5625e-06	61.752	0.00085025	0.00089581	0.00024272	458.47	8.4198e-06	9.634e-06	450.41	200.63	8.151e-06	1.0172e-05	226.66	117.69	101.22	54.448	9.7007e-06	65.318	133.382	-47.904	-32.492	-120.839	-18.992	-2.975	-122.576	-115.750	-34.000	15.094	-117.626	-114.345	-111.827	-107.615	-10.396	-110.932	-8191	255	
51502.203	1	1	0	0	0.1316	0.21978	0.056519	0.2411	0.18772	0.099632	0.27128	0.11076	0.040715	0.11109	0.09776	0.10242	0.13097	0.14767	0.23425	0.21769	-3.2854	-3.3187	-3.0104	-3.8688	-2.8354	-3.5125	-3.7417	-2.8667	-3.6792	-3.4958	-3.1813	-3.7083	-3.1833	-3.4625	-3.6354	-3.1104	37.853	-85.100	-79.426	119.690	205.215	-86.910	149.653	196.395	8.122	-121.550	81.868	-94.436	142.492	221.549	88.825	213.807	0.00093061	0.00038721	0.00014309	443.1	3.6855e-06	3.8618e-06	434.15	192.47	3.5864e-06	4.8987e-06	217.77	112.82	96.613	51.349	5.4682e-06	61.622	0.00084952	0.00090981	0.00025976	457.48	8.0914e-06	1.0326e-05	450.3	201	8.5074e-06	1.0027e-05	227.48	117.7	101.09	54.267	9.7194e-06	65.024	135.347	-57.438	-34.562	-121.017	-10.474	14.823	-122.777	-115.643	-23.158	12.413	-117.648	-114.359	-112.018	-107.795	-20.613	-110.813	-8191	255	
51502.297	1	1	0	0	0.10131	0.15597	0.15129	0.1938	0.22593	0.11166	0.073096	0.13285	0.11514	0.25547	0.1717	0.064052	0.17003	0.062889	0.11871	0.11517	-3.1292	-3.4354	-2.9375	-3.8333	-3.1521	-3.0854	-3.7646	-2.8937	-3.5479	-3.4313	-2.9938	-3.6562	-3.0938	-3.1146	-3.4979	-3.0833	200.189	-123.530	-20.197	-31.444	88.595	66.758	-51.378	218.418	95.727	47.830	84.250	29.168	-57.496	48.484	116.151	207.617	0.00087208	0.00042283	0.00010974	444.82	2.2805e-06	2.9219e-06	436.8	192.39	2.5675e-06	4.6167e-06	217.65	112.29	96.436	51.135	4.0408e-06	61.558	0.00085035	0.00087856	0.00026725	459.29	8.2937e-06	1.0665e-05	452.22	200.95	8.5945e-06	1.0099e-05	227.84	117.7	101.01	53.871	9.8798e-06	64.829	136.537	-61.371	-43.182	-120.990	4.279	13.230	-122.441	-115.492	-16.290	5.792	-118.217	-114.411	-112.283	-107.860	6.277	-110.918	-8191	255	
51502.395	1	1	0	0	0.27667	0.23905	0.11876	0.18375	0.13159	0.10914	0.023748	0.21226	0.11744	0.044842	0.085504	0.033993	0.2216	0.062229	0.12757	0.41738	-3.2188	-3.6063	-2.6729	-3.6896	-3.1083	-3.0542	-3.8083	-2.8854	-3.2687	-3.4729	-2.8312	-3.7125	-3.2854	-3.2	-3.6229	-3.2687	-28.265	-8.897	161.509	140.987	-125.489	-128.674	31.016	129.539	64.273	86.933	39.085	106.730	182.935	220.941	-96.137	167.023	0.00084949	0.00042779	0.00010865	446.62	4.6934e-06	3.6402e-06	435.61	192.36	3.5987e-06	3.6761e-06	218.12	112.27	96.569	51.137	4.1707e-06	61.582	0.00084688	0.00092939	0.00027106	461.73	8.411e-06	1.0627e-05	452.25	201.03	8.5289e-06	1.0455e-05	228.05	117.81	101.05	53.903	9.4805e-06	64.939	134.351	-48.899	-35.091	-121.151	-5.310	-0.840	-122.738	-115.483	-17.793	20.347	-117.783	-114.258	-112.069	-107.724	-2.475	-111.143	-8191	255	
51502.465	1	1	0	0	0.086159	0.13004	0.045084	0.21412	0.18328	0.28892	0.13385	0.003672	0.089584	0.19413	0.25059	0.22845	0.11432	0.18729	0.12541	0.19342	-2.8104	-3.4167	-2.6542	-3.5687	-3.2417	-3.0646	-3.6042	-3.1021	-3.3792	-3.6937	-2.9458	-3.5146	-3.5187	-2.8896	-3.925	-3.0812	107.835	120.496	91.696	161.931	137.725	9.800	66.718	189.148	61.167	-102.381	146.069	191.146	-33.254	-70.405	-118.490	140.651	0.0008879	0.00036235	0.00012372	445.65	3.4168e-06	3.9019e-06	434.8	192.71	4.2691e-06	4.892e-06	217.59	111.98	96.373	51.125	4.2404e-06	61.464	0.00085568	0.00090164	0.00027063	461.14	8.0438e-06	1.0699e-05	452.22	200.89	8.8898e-06	1.0701e-05	227.44	117.5	100.96	53.883	9.7218e-06	64.856	135.744	-70.322	-38.723	-121.104	-2.852	4.374	-122.812	-115.716	-13.281	5.239	-117.882	-114.314	-112.418	-107.917	-2.711	-110.994	-8191	255	
51502.586	1	1	0	0	0.16598	0.11745	0.1536	0.13456	0.071137	0.17372	0.24379	0.29135	0.44243	0.16362	0.14387	0.19692	0.19059	0.12731	0.052383	0.2241	-2.9396	-3.7083	-2.8708	-3.575	-3.4792	-2.9292	-3.9396	-3.1583	-3.1083	-3.7479	-2.9958	-3.5458	-3.5583	-3.025	-3.6146	-3.3333	-59.610	147.564	146.228	0.651	222.114	51.006	219.651	148.986	-40.850	-13.737	-63.091	-63.921	169.643	209.006	143.385	168.704	0.00088648	0.00048653	0.00010559	443.35	3.9735e-06	4.0964e-06	439.35	193.25	4.5877e-06	3.782e-06	218.25	112.31	96.289	51.062	3.7974e-06	61.064	0.00086743	0.00091668	0.00027201	459.95	7.7574e-06	1.0613e-05	453.93	200.78	9.0448e-06	1.0197e-05	227.67	117.45	100.78	53.801	9.6435e-06	64.558	133.812	-53.653	-39.271	-120.784	-21.227	24.312	-122.583	-115.383	-19.802	31.138	-117.685	-114.097	-112.058	-107.622	-9.074	-110.779	-8191	255	
51502.684	1	1	0	0	0.18641	0.18952	0.099477	0.13816	0.024978	0.067511	0.12833	0.33511	0.10732	0.18167	0.12783	0.028832	0.085731	0.29604	0.15461	0.26308	-2.7167	-3.625	-2.9813	-3.3812	-3.6	-2.9688	-3.6208	-3.2396	-2.9208	-3.6146	-3.1521	-3.4021	-3.75	-2.8854	-3.5521	-3.4146	70.972	212.352	100.977	83.381	62.563	73.759	105.987	156.964	-87.124	73.702	-101.911	150.881	25.670	-106.065	-79.133	213.025	0.00086686	0.00037973	0.00013932	445.58	3.4808e-06	4.5932e-06	437.03	192.07	3.8987e-06	5.358e-06	217.53	112.48	95.935	50.973	3.7546e-06	61.433	0.00085744	0.00088336	0.0002739	460.42	7.9299e-06	1.0578e-05	452.62	200.57	9.1501e-06	1.0382e-05	227.78	117.67	100.61	53.8	9.906e-06	64.821	136.905	-55.839	-36.522	-120.600	-16.561	20.526	-122.624	-115.365	-9.674	39.040	-117.566	-113.936	-112.100	-107.776	9.158	-110.749	-8191	255	
51502.777	1	1	0	0	0.021087	0.040065	0.12812	0.30279	0.12575	0.12445	0.16548	0.12487	0.17036	0.22146	0.23514	0.24427	0.24259	0.075907	0.22025	0.067805	-2.4167	-3.8875	-3.0271	-3.3604	-3.7396	-2.8312	-3.6	-3.4688	-2.9167	-3.9062	-3.075	-3.1562	-3.7229	-2.9792	-3.6167	-3.5792	-123.458	-112.114	221.035	-127.229	93.194	77.420	159.674	90.997	-82.048	142.435	200.440	-109.168	103.468	-101.539	98.595	91.297	0.00090872	0.00049264	0.00010349	444.86	2.4023e-06	3.6947e-06	435.37	192.65	4.0875e-06	5.4028e-06	217.28	111.71	95.608	50.593	2.7661e-06	60.981	0.00086691	0.00090566	0.00026816	459.62	8.1633e-06	1.1282e-05	451.26	200.18	9.0075e-06	1.0333e-05	227.07	117.21	100.27	53.46	9.4507e-06	64.324	135.157	-47.661	-37.862	-120.880	18.873	18.701	-122.438	-115.561	-25.574	23.306	-117.727	-113.946	-111.924	-107.742	-14.043	-110.654	-8191	255	
51502.875	1	1	0	0	0.19949	0.29195	0.13136	0.25449	0.042019	0.23205	0.3903	0.31997	0.23958	0.17606	0.1556	0.22959	0.11472	0.14811	0.15734	0.034402	-2.4333	-3.7167	-3.0312	-3.1021	-3.7271	-2.9708	-3.5563	-3.6396	-2.9125	-3.6271	-3.2021	-3.15	-3.8208	-3.3271	-3.3021	-3.9125	161.182	182.873	-33.862	-119.545	-88.997	72.349	-12.257	197.308	153.477	74.289	-115.228	216.941	80.272	173.618	106.584	82.962	0.00086987	0.00049571	0.00013662	441.77	2.9479e-06	4.3668e-06	434.75	191.5	4.3738e-06	4.2766e-06	216.75	111.27	95.639	50.564	4.6818e-06	61.063	0.00086044	0.00089269	0.00025675	457.29	8.2517e-06	1.066e-05	450.43	199.27	9.2259e-06	1.0654e-05	225.93	116.36	99.901	53.294	1.0321e-05	64.315	135.661	-38.403	-41.264	-120.991	10.775	11.016	-122.460	-115.503	-15.246	17.516	-118.043	-114.277	-112.309	-107.989	-7.137	-110.917	-8191	255	
51502.973	1	1	0	0	0.25808	0.082508	0.20436	0.1856	0.15336	0.1955	0.13258	0.17921	0.075014	0.16668	0.13226	0.20962	0.26138	0.25127	0.29258	0.16738	-2.6063	-3.6729	-3.225	-3.05	-3.8187	-3.0833	-3.4437	-3.5479	-2.7792	-3.6104	-3.2625	-2.95	-3.9188	-3.0896	-3.2458	-3.6021	-59.959	103.203	106.912	-105.029	223.138	197.604	223.036	202.262	57.413	121.081	130.626	209.155	-87.566	108.715	-95.599	-82.355	0.00091629	0.00035095	0.00012384	440.76	3.5543e-06	3.1012e-06	433.39	191.86	4.3108e-06	3.8771e-06	217.83	112.14	95.467	50.915	4.0434e-06	60.969	0.00087566	0.00093121	0.00026529	458.12	7.9543e-06	1.0578e-05	451.81	199.65	8.8559e-06	1.0079e-05	227.11	117.4	100.15	53.668	9.9644e-06	64.586	134.491	-58.892	-35.813	-120.864	-23.669	15.922	-122.561	-115.439	-31.702	33.733	-117.562	-113.934	-111.885	-107.548	-2.127	-110.756	-8191	255	
51503.066	1	1	0	0	0.11988	0.10789	0.28485	0.14379	0.14499	0.34893	0.11132	0.12064	0.1092	0.11371	0.24315	0.3263	0.17812	0.091954	0.31052	0.12945	-2.4688	-3.7021	-3.4021	-2.925	-3.7542	-2.8854	-3.0208	-3.4688	-2.9146	-3.5146	-3.475	-2.9542	-3.725	-3.2917	-3.0187	-3.8104	190.518	-86.749	146.552	46.560	-124.277	99.494	-108.355	-111.670	64.629	-36.307	136.850	-99.689	156.066	-131.357	48.643	226.343	0.00083737	0.00045746	7.159e-05	442.99	4.1186e-06	3.67e-06	435.21	191.82	3.323e-06	5.5406e-06	216.73	111.98	95.619	50.277	4.3546e-06	60.545	0.00088296	0.00087467	0.00025348	458.28	8.4762e-06	1.0375e-05	451.72	199.46	9.1489e-06	1.0402e-05	226.56	116.94	99.998	52.963	1.0426e-05	63.825	136.904	-52.758	-47.326	-121.020	-15.399	4.625	-122.640	-115.556	-25.045	24.424	-117.569	-113.953	-111.984	-107.764	-22.202	-110.839	-8191	255	
51503.164	1	1	0	0	0.19217	0.038479	0.13832	0.11757	0.084455	0.20837	0.148	0.10944	0.031615	0.17029	0.019019	0.17581	0.2426	0.17546	0.13949	0.18714	-2.4354	-3.4667	-3.5979	-2.9375	-3.5563	-3.3354	-3.1792	-3.8979	-3.0896	-3.3104	-3.6063	-2.925	-3.7021	-3.4979	-3.125	-3.7417	22.175	29.536	197.977	118.238	141.092	36.490	225.357	-53.574	225.926	134.486	-77.538	-105.775	122.802	202.160	143.484	111.778	0.00088458	0.00042273	7.4809e-05	439.69	4.0765e-06	2.9752e-06	435.67	190.06	4.5971e-06	3.6815e-06	216.05	110.18	93.911	49.339	3.5859e-06	59.179	0.00087183	0.00095922	0.00025199	456.58	8.2993e-06	1.0853e-05	449.9	198.09	9.1908e-06	1.0658e-05	225.11	115.1	98.81	52.021	1.0324e-05	62.636	135.186	-40.897	-46.254	-120.680	-5.647	21.329	-122.090	-115.296	-4.800	4.082	-117.364	-113.848	-111.806	-107.362	-15.413	-110.796	-8191	255	
51503.285	1	1	0	0	0.2361	0.26503	0.1351	0.18188	0.116	0.12937	0.13659	0.083409	0.094668	0.12479	0.10706	0.13549	0.31752	0.36469	0.067201	0.097657	-2.6937	-3.3083	-3.7521	-2.8396	-3.6208	-3.4042	-2.9208	-3.675	-3.1229	-3.1792	-3.7146	-3.1167	-3.5438	-3.4854	-2.9625	-3.9979	-128.328	-71.215	-38.637	-115.003	180.668	30.365	-19.666	-128.257	68.200	77.068	-107.671	159.649	-96.824	178.467	126.967	184.581	0.00088338	0.00044482	0.0001219	438.59	3.7954e-06	3.7833e-06	434.67	189.99	4.5028e-06	3.216e-06	217.44	110.33	94.43	49.027	4.4476e-06	59.196	0.00085263	0.00096868	0.00026587	455.49	8.3513e-06	1.0483e-05	449.82	198.04	9.1444e-06	1.1637e-05	225.57	115.21	98.791	51.89	1.0625e-05	62.601	136.617	-49.353	-46.318	-120.665	-11.632	20.040	-122.701	-115.656	-26.859	0.108	-117.904	-114.303	-111.934	-107.483	6.104	-110.523	-8191	255	
51503.379	1	1	0	0	0.20379	0.23806	0.12021	0.04807	0.057342	0.18907	0.12916	0.13694	0.076018	0.27837	0.29072	0.37952	0.29055	0.084426	0.29721	0.27438	-2.8833	-3.1437	-3.775	-2.9771	-3.4708	-3.5979	-2.9583	-3.6521	-3.1146	-3.2417	-3.8875	-2.9354	-3.4062	-3.7812	-2.9646	-3.8042	173.383	-88.350	-60.109	6.614	129.505	41.161	133.182	135.838	16.633	79.791	191.597	122.804	191.570	-100.987	47.759	175.179	0.00085081	0.00055119	0.00012321	441.24	2.4866e-06	4.5943e-06	431.99	190.55	4.5603e-06	3.8658e-06	217.29	109.93	94.141	49.131	4.7471e-06	59.282	0.0008592	0.0010226	0.00026561	456.92	8.5459e-06	1.0838e-05	449.6	198.66	9.4363e-06	1.0793e-05	226.38	115.08	98.693	51.736	1.0596e-05	62.459	134.285	-61.555	-45.935	-120.811	-13.395	9.542	-122.280	-115.346	-17.048	21.725	-117.636	-114.062	-111.914	-107.773	-7.336	-110.560	-8191	255	
51503.477	1	1	0	0	0.1873	0.19617	0.13983	0.041509	0.17976	0.12124	0.075173	0.12044	0.054785	0.025156	0.11769	0.14956	0.091443	0.039015	0.25108	0.094514	-2.8583	-3.0042	-3.7	-2.925	-3.4771	-3.7	-3.0042	-3.8146	-3.0917	-3.0271	-3.6625	-2.9833	-3.1208	-3.8292	-3.0146	-3.6937	95.335	0.509	1.627	188.094	13.659	105.582	-87.897	155.807	87.901	-118.772	8.609	113.490	-100.292	-111.170	210.383	225.008	0.00087414	0.0002563	7.2963e-05	443.07	3.5679e-06	3.7635e-06	436.66	191.61	3.8055e-06	4.4995e-06	218.15	110.35	94.708	49.061	2.1039e-06	59.197	0.00085511	0.00096803	0.00026616	458.91	8.3081e-06	1.0978e-05	453.23	199.57	8.9769e-06	1.0998e-05	227.38	115.57	98.988	51.854	1.0493e-05	62.492	137.175	-57.167	-50.296	-121.115	-16.796	11.219	-122.262	-115.738	-6.827	19.010	-117.906	-114.222	-111.802	-107.794	18.083	-110.597	-8191	255	
51503.570	1	1	0	0	0.25118	0.11376	0.15731	0.1146	0.094292	0.13532	0.29312	0.040373	0.069824	0.064896	0.067164	0.11041	0.2403	0.11172	0.23669	0.11855	-3.025	-3.0187	-3.7812	-3.0375	-3.2833	-3.6229	-3	-3.7208	-3.4083	-2.7562	-3.825	-3.2854	-3.125	-3.7812	-2.825	-3.4792	-8.224	49.064	63.610	180.153	204.376	72.300	161.331	-102.364	144.978	126.254	-43.283	54.807	-33.614	169.507	-61.402	-125.622	0.00085921	0.00026862	8.5599e-05	444.1	2.7615e-06	3.9232e-06	432.33	189.49	3.0905e-06	4.0972e-06	217.22	109.96	94.098	48.788	4.0868e-06	58.818	0.00083668	0.00098437	0.00026569	458.5	8.6708e-06	1.0444e-05	451.02	198.64	8.5526e-06	1.0944e-05	226.5	115.08	98.635	51.508	1.0467e-05	61.999	135.936	-35.380	-37.668	-120.786	-4.410	6.724	-122.416	-115.546	-2.577	17.184	-118.058	-114.092	-111.915	-107.645	-12.792	-110.616	-8191	255	
51503.691	1	1	0	0	0.091924	0.14097	0.17406	0.13427	0.13648	0.16259	0.21435	0.15603	0.069615	0.19844	0.12793	0.19051	0.27482	0.17994	0.23578	0.23561	-3.1583	-3.0083	-3.6333	-3.1646	-2.8458	-3.8229	-3.0812	-3.475	-3.5438	-2.8208	-3.7375	-3.3688	-2.85	-3.8083	-3.0521	-3.3708	0.882	-39.093	-77.056	-94.541	-53.607	-79.238	125.159	-113.436	207.365	5.195	-93.703	155.399	210.841	186.028	218.273	198.226	0.00087298	0.00039628	0.00012197	442.01	3.4936e-06	4.0236e-06	434.94	190.45	3.8924e-06	4.7171e-06	215.69	109.04	93.367	48.233	3.0397e-06	58.217	0.00084476	0.0010268	0.00027132	457.64	8.4574e-06	1.0871e-05	450.99	198.54	9.0494e-06	1.1547e-05	225.99	114.3	98.023	50.997	1.1048e-05	61.444	135.564	-48.823	-47.607	-121.313	-2.068	17.275	-122.712	-115.482	-9.376	26.473	-117.855	-114.076	-112.103	-107.617	-8.405	-110.565	-8191	255	
51503.762	1	1	0	0	0.073217	0.27175	0.26653	0.13563	0.19606	0.086032	0.1014	0.16457	0.20268	0.13905	0.3058	0.1262	0.066957	0.28497	0.46408	0.12662	-3.2146	-2.8125	-3.5667	-3.2438	-2.7687	-3.7271	-3.1104	-3.3167	-3.8146	-2.8937	-3.5542	-3.4479	-3.1125	-3.8667	-3.0896	-3.3458	172.454	144.463	56.092	177.000	-90.510	87.385	121.740	221.530	144.812	173.692	-55.583	123.155	115.769	-107.485	175.748	172.090	0.00081514	0.00031208	0.00010759	444.94	4.1842e-06	3.3139e-06	434.3	190.19	4.4446e-06	4.8723e-06	216.39	109.84	93.843	48.408	3.6792e-06	58.529	0.00085713	0.001044	0.00028444	460.28	8.9628e-06	1.1035e-05	452.6	198.79	8.8344e-06	1.2005e-05	226.85	114.91	98.391	51.13	1.0792e-05	61.767	136.627	-34.368	-53.685	-121.580	-7.325	12.608	-122.946	-115.766	-12.896	7.350	-118.230	-114.268	-112.318	-107.996	-11.696	-110.866	-8191	255	
51503.883	1	1	0	0	0.24202	0.086035	0.31449	0.023454	0.166	0.16019	0.029825	0.15086	0.17696	0.063957	0.17636	0.073536	0.17388	0.086946	0.14524	0.26514	-3.4042	-2.8625	-3.4771	-3.5292	-2.7938	-3.6667	-3.1708	-2.9833	-3.4979	-2.9167	-3.4813	-3.5708	-2.8125	-3.7396	-3.2562	-3.1396	113.187	-12.493	176.135	32.685	-53.311	-32.263	206.875	196.533	202.749	19.715	70.918	136.808	47.860	-124.422	105.255	168.551	0.00087287	0.00035955	0.00012103	444.2	3.3752e-06	3.8642e-06	437.33	191.59	4.0764e-06	3.9582e-06	218.73	109.61	93.569	48.434	5.0311e-06	58.356	0.00085118	0.0010333	0.00027753	461.61	9.2337e-06	1.0888e-05	454.7	199.46	8.771e-06	1.1658e-05	227.13	114.75	98.255	51.181	1.0451e-05	61.851	135.708	-46.098	-48.468	-121.158	-26.023	2.871	-123.126	-115.781	-8.554	24.793	-118.069	-114.594	-112.394	-108.084	-16.788	-111.089	-8191	255	
51503.980	1	1	0	0	0.053033	0.19241	0.36739	0.13703	0.1086	0.15825	0.046684	0.077056	0.085268	0.062326	0.044472	0.24872	0.10775	0.1663	0.078178	0.18494	-3.2375	-2.875	-3.3646	-3.6354	-2.9667	-3.8208	-3.3083	-3.2146	-3.8063	-2.9042	-3.2917	-3.6562	-2.9625	-3.8167	-3.3583	-2.9938	-71.036	-23.915	-63.063	166.437	43.790	-19.210	-93.673	91.939	88.951	-103.315	146.724	-6.856	-7.833	-113.567	29.180	166.189	0.00088108	0.0005069	0.00013761	443.64	3.2304e-06	3.7066e-06	435.98	189.84	3.8633e-06	4.5527e-06	215.98	108.74	93.612	48.359	5.8645e-06	58.345	0.00085434	0.0010596	0.00027644	459.92	9.0966e-06	1.1565e-05	451.79	197.93	9.1467e-06	1.2251e-05	225.5	114.26	98.039	50.981	1.078e-05	61.524	133.746	-39.933	-46.366	-121.166	0.810	-9.265	-122.881	-116.025	-22.643	12.253	-117.680	-114.520	-112.137	-107.935	-3.243	-110.918	-8191	255	
51504.074	1	1	0	0	0.17513	0.23632	0.13629	0.20455	0.069149	0.39401	0.21271	0.07659	0.11946	0.18296	0.075133	0.2621	0.11618	0.10989	0.15071	0.2102	-3.5312	-3	-3.0375	-3.6646	-2.7313	-3.5458	-3.4104	-3.0792	-3.5938	-3.0229	-3.2479	-3.7812	-3.0125	-3.5521	-3.2229	-3.0792	58.921	54.682	70.904	137.751	168.700	-20.518	198.521	-36.105	-131.630	-117.794	-27.652	83.974	-25.227	-120.303	40.931	67.581	0.00088494	0.00046298	8.3439e-05	443.84	3.7619e-06	2.24e-06	434.93	190.91	3.3934e-06	5.7954e-06	216.37	110.35	94.181	48.953	4.0726e-06	59.535	0.00086515	0.0010809	0.00028644	460.59	9.1961e-06	1.0919e-05	453.88	198.27	9.2293e-06	1.1594e-05	226.21	115.48	98.909	51.78	1.0256e-05	62.892	136.668	-36.536	-41.331	-121.467	-36.352	13.257	-122.701	-115.718	-9.871	10.737	-118.141	-114.366	-112.323	-108.243	-10.365	-111.161	-8191	255	
51504.172	1	1	0	0	0.36959	0.028344	0.16408	0.11042	0.095583	0.16796	0.10697	0.23657	0.15199	0.10326	0.12725	0.022392	0.20853	0.088432	0.24129	0.27671	-3.2125	-3.0875	-3.025	-3.5187	-2.8646	-3.3312	-3.6479	-2.7917	-3.7125	-3.2396	-2.9333	-3.7271	-2.9646	-3.2938	-3.4792	-2.9417	187.484	211.538	-91.661	-116.456	159.779	159.892	133.816	174.358	96.305	-25.534	-56.916	200.549	110.540	224.773	87.123	201.024	0.00083861	0.000401	0.00010283	445.64	3.779e-06	4.4258e-06	440.91	191.65	4.5584e-06	5.5977e-06	219.71	112.78	95.317	50.302	3.6944e-06	60.977	0.00085879	0.00095779	0.00026983	462.32	8.7261e-06	1.0937e-05	457.48	199.92	8.5097e-06	1.0874e-05	229.2	117.97	99.982	52.94	9.8761e-06	64.329	138.171	-61.111	-39.408	-121.488	-16.389	14.703	-122.858	-116.056	-15.224	16.491	-117.791	-114.767	-112.617	-108.123	-20.174	-111.178	-8191	255	
51504.289	1	1	0	0	0.26904	0.1052	0.13028	0.04372	0.21556	0.13264	0.22844	0.28713	0.22703	0.2007	0.057383	0.11045	0.18811	0.13005	0.14816	0.28375	-3.3646	-3.2479	-2.9271	-4.0021	-2.9958	-3.2354	-3.7271	-2.8958	-3.4646	-3.3354	-2.85	-3.8333	-3.025	-3.1667	-3.6521	-3.0396	-44.904	-91.997	-31.673	76.268	218.068	89.514	110.599	46.241	44.079	143.057	-105.371	159.704	-55.093	129.306	-51.516	147.507	0.00085868	0.00047478	0.00012219	448.98	2.7795e-06	3.1847e-06	438.55	191.65	4.1593e-06	3.8502e-06	218.31	111.76	95.038	49.946	3.0007e-06	60.448	0.00084031	0.00098061	0.00026463	464.2	8.4043e-06	1.065e-05	455.92	199.94	8.616e-06	1.0755e-05	227.97	117	99.499	52.64	1.0151e-05	63.814	134.709	-45.098	-32.406	-121.468	-29.266	13.376	-123.106	-116.251	-25.381	8.911	-118.292	-114.848	-112.790	-108.329	-3.647	-111.179	-8191	255	
51504.363	1	1	0	0	0.28583	0.13889	0.37554	0.36538	0.035353	0.20387	0.33581	0.27902	0.077747	0.15349	0.18844	0.39369	0.22115	0.15903	0.33836	0.046857	-3.2	-3.6646	-2.6792	-3.8312	-3.2292	-3.1083	-3.7458	-2.9625	-3.5417	-3.3479	-2.7188	-3.7042	-3.1688	-3.0479	-3.6646	-2.9167	26.594	183.584	84.311	161.190	-48.838	-80.146	-111.606	130.069	190.367	114.472	-93.238	-130.649	210.096	-84.156	10.592	108.286	0.00090437	0.00046915	0.00012322	443.73	2.6848e-06	4.0611e-06	436.95	191.38	2.6869e-06	5.486e-06	216.34	110.65	94.749	49.57	4.8042e-06	60.222	0.00087245	0.0009552	0.00027168	461.33	8.4707e-06	1.101e-05	453.11	198.8	9.1512e-06	1.0892e-05	226.71	116.04	99.11	52.369	1.0105e-05	63.654	135.994	-45.275	-34.817	-121.418	-3.459	14.888	-123.102	-116.019	-25.632	19.901	-118.400	-114.468	-112.521	-107.980	-12.983	-111.228	-8191	255	
51504.461	1	1	0	0	0.11084	0.32514	0.17776	0.15676	0.11795	0.11583	0.092393	0.13487	0.13129	0.23731	0.22376	0.29291	0.066756	0.081471	0.24306	0.056257	-2.9854	-3.3708	-2.7	-3.7042	-3.2625	-2.9417	-3.7583	-2.9	-3.4292	-3.3583	-2.7854	-3.6542	-3.3146	-3.0438	-3.7729	-3.0708	29.608	-48.009	87.836	-55.610	47.241	-49.286	177.831	123.893	-92.886	38.378	-94.900	221.648	47.676	203.946	91.641	175.408	0.00087788	0.00040854	0.00012631	443.14	2.7651e-06	3.5448e-06	437.81	191.72	3.147e-06	5.639e-06	219.51	111.52	95.208	50.139	3.339e-06	60.912	0.0008461	0.00094093	0.00029247	461.07	8.3114e-06	1.1128e-05	455.14	199.89	8.7676e-06	1.082e-05	228.35	117.11	99.707	52.851	1.0211e-05	64.376	132.804	-62.240	-27.651	-120.946	-14.419	11.136	-122.655	-116.066	-21.687	25.399	-117.893	-114.203	-112.347	-108.144	-28.488	-111.047	-8191	255	
51504.555	1	1	0	0	0.17686	0.12725	0.15108	0.16816	0.13337	0.02796	0.25408	0.11415	0.23776	0.30108	0.10766	0.13565	0.036391	0.14398	0.14991	0.33533	-2.9979	-3.4854	-2.9292	-3.7396	-3.1896	-2.8958	-3.7604	-2.9479	-3.2687	-3.6125	-2.6521	-3.6208	-3.3729	-2.9896	-3.6688	-3.1729	134.170	-26.662	-6.575	203.813	136.122	-119.693	152.531	184.862	223.477	-114.297	-72.000	36.881	137.728	203.648	215.290	174.101	0.0008903	0.00030285	9.8279e-05	446.3	4.5044e-06	3.7304e-06	441.2	192.31	5.2698e-06	4.2651e-06	219.72	112.63	95.64	50.578	3.7164e-06	61.382	0.000865	0.00089736	0.00026732	462.89	8.2097e-06	1.0505e-05	457.53	200.06	8.6409e-06	9.9521e-06	229.15	117.97	100.1	53.205	9.8898e-06	64.918	133.581	-50.139	-39.286	-121.231	-12.069	33.617	-122.960	-116.067	-24.955	17.481	-118.047	-114.512	-112.417	-108.059	-14.559	-111.238	-8191	255	
51504.652	1	1	0	0	0.17222	0.10131	0.20573	0.18055	0.034541	0.072237	0.090884	0.24365	0.080268	0.20392	0.16312	0.18739	0.20024	0.079009	0.048947	0.29795	-2.7917	-3.7667	-2.9021	-3.3208	-3.5187	-2.7771	-3.6937	-3.0458	-3.1854	-3.6104	-2.9	-3.4375	-3.5604	-2.8521	-3.4646	-3.3583	-101.107	82.352	-86.113	-12.897	-111.326	136.512	-57.426	194.070	43.656	-76.129	-60.426	178.149	-96.719	128.897	135.006	161.684	0.00087008	0.00039938	0.00013229	447.77	2.9221e-06	3.8395e-06	440.27	192.38	3.436e-06	3.5018e-06	219.24	111.82	94.926	49.882	4.4407e-06	60.828	0.0008855	0.00094366	0.00028146	464.27	8.129e-06	1.0827e-05	457.55	199.97	8.9238e-06	1.0616e-05	228.5	117.38	99.562	52.86	1.007e-05	64.352	135.414	-49.870	-39.528	-121.202	-18.517	22.161	-122.611	-115.991	-9.927	35.113	-118.314	-114.652	-112.863	-108.349	5.857	-111.274	-8191	255	
51504.773	1	1	0	0	0.18005	0.079355	0.17027	0.3264	0.096182	0.082936	0.24647	0.21808	0.242	0.017102	0.19153	0.26582	0.17858	0.27853	0.25032	0.11751	-2.6458	-3.7396	-2.8604	-3.5021	-3.5396	-2.8833	-3.6458	-3.2938	-2.8438	-3.7917	-2.8625	-3.4437	-3.65	-2.925	-3.5375	-3.4875	39.589	204.805	-69.622	-106.093	129.627	192.604	63.700	204.662	-111.879	-72.815	182.222	164.525	127.869	209.384	205.686	171.568	0.00086268	0.00048225	0.00012977	448.76	3.5555e-06	3.884e-06	440.97	191.05	3.3788e-06	5.278e-06	218.36	111.7	94.73	49.976	4.1067e-06	60.442	0.00087002	0.00096363	0.00027226	463.78	8.3114e-06	1.1618e-05	456.36	199.11	9.1342e-06	1.0567e-05	227.15	116.81	99.227	52.648	1.0437e-05	63.945	135.807	-50.752	-48.480	-121.367	1.541	11.510	-122.929	-116.255	-25.489	11.895	-118.032	-114.395	-112.569	-108.143	-9.734	-111.050	-8191	255	
51504.867	1	1	0	0	0.023655	0.067449	0.13846	0.1616	0.22972	0.060964	0.12574	0.058094	0.069995	0.091671	0.25106	0.28169	0.12509	0.35396	0.14556	0.051556	-2.7062	-3.5729	-2.8896	-3.4125	-3.7188	-2.8833	-3.6937	-3.4625	-2.8854	-3.8	-3.2958	-3.2792	-3.8625	-2.9458	-3.4896	-3.4729	104.181	57.921	37.459	210.769	-57.288	121.001	-132.670	25.748	74.783	184.502	-53.921	-3.366	217.711	192.094	46.018	-134.063	0.00087778	0.00045787	0.00010892	446.55	4.8852e-06	3.2566e-06	440.93	189.79	4.6367e-06	3.8659e-06	217.1	110.48	93.661	49.271	3.4633e-06	59.804	0.00088032	0.00096324	0.00027891	462.82	8.6576e-06	1.1414e-05	455.72	197.78	9.5868e-06	1.1198e-05	226.44	115.82	98.436	52.007	1.0386e-05	63.177	132.636	-34.219	-46.098	-121.415	-14.445	16.276	-123.127	-116.113	3.799	28.716	-118.273	-114.309	-112.638	-108.313	3.883	-111.267	-8191	255	
51504.965	1	1	0	0	0.026658	0.11856	0.098562	0.37174	0.12585	0.18493	0.21215	0.32267	0.25084	0.057568	0.12104	0.072861	0.082663	0.18352	0.21298	0.077103	-2.5521	-3.7021	-2.9792	-3.0167	-3.8833	-2.9667	-3.5271	-3.6167	-2.7375	-3.725	-3.0958	-3.1312	-3.9437	-3.0292	-3.3563	-3.7583	-126.884	116.386	11.165	195.750	-20.989	-116.691	225.449	153.858	-102.062	-8.552	183.928	-97.624	162.003	189.895	108.676	134.912	0.00085979	0.00041851	9.3661e-05	444.23	4.5357e-06	3.7372e-06	439.99	189.47	3.5059e-06	4.3051e-06	216.83	110.38	93.181	48.273	2.8188e-06	58.831	0.0008784	0.00095546	0.00026863	461.2	8.2484e-06	1.1103e-05	455.32	197.57	9.5302e-06	1.0904e-05	226.48	114.96	97.631	50.98	1.052e-05	62.066	134.786	-48.848	-41.112	-121.371	-16.587	7.450	-122.974	-115.856	-0.638	30.125	-118.371	-114.547	-112.434	-108.170	-17.266	-110.928	-8191	255	
51505.059	1	1	0	0	0.038049	0.15624	0.161	0.10464	0.34168	0.099116	0.18611	0.21617	0.13888	0.31832	0.22628	0.090041	0.075816	0.33307	0.22562	0.25034	-2.6604	-3.5979	-3.2354	-3.0563	-3.8396	-3.1854	-3.2458	-3.6708	-2.7583	-3.6771	-3.4062	-3.0333	-3.8729	-3.2125	-3.2333	-3.7708	80.048	152.697	-17.327	107.158	226.122	-115.059	219.750	-61.767	97.556	0.724	-59.768	212.297	-55.609	226.028	65.607	203.868	0.0008743	0.00043334	8.0356e-05	444.8	3.7025e-06	4.883e-06	436.51	188.2	3.1887e-06	4.3634e-06	215.71	109.55	93.29	48.406	3.0744e-06	58.988	0.00088073	0.00097335	0.00027343	460.95	8.6697e-06	1.1762e-05	452.98	196.82	9.6649e-06	1.1466e-05	225.04	114.37	97.584	51.055	1.0693e-05	62.13	133.966	-48.596	-46.019	-121.320	-22.210	-6.184	-122.845	-115.780	-22.690	30.223	-118.013	-114.371	-112.261	-108.014	-12.121	-111.087	-8191	255	
51505.156	1	1	0	0	0.22742	0.12913	0.066453	0.20182	0.33526	0.17129	0.31012	0.064717	0.14322	0.080242	0.18713	0.19719	0.12428	0.23751	0.068823	0.14119	-2.4729	-3.6458	-3.4375	-2.9	-3.575	-3.1771	-3.1771	-3.7729	-2.9062	-3.3063	-3.5563	-2.8708	-3.9062	-3.1354	-2.8729	-3.8833	79.932	-51.980	93.663	56.110	214.186	-51.733	78.219	112.681	156.839	201.719	136.844	136.272	73.166	110.679	75.180	180.124	0.00084483	0.00051281	0.00013302	443.82	3.6684e-06	3.9354e-06	436.16	188.59	5.5104e-06	3.6774e-06	215	109.58	93.041	48.537	3.5975e-06	58.875	0.00089052	0.0009928	0.00027768	460.46	8.8422e-06	1.1585e-05	453.83	197.1	9.8787e-06	1.1305e-05	224.54	114.46	97.443	51.133	1.0733e-05	62.093	134.517	-47.574	-50.520	-121.317	15.574	-1.203	-122.592	-116.046	-16.061	10.628	-118.094	-114.578	-112.189	-108.259	-7.537	-110.907	-8191	255	
51505.254	1	1	0	0	0.18685	0.055544	0.14426	0.12752	0.11371	0.18244	0.25929	0.070379	0.15379	0.2018	0.057689	0.15213	0.16926	0.18817	0.20264	0.11836	-2.6229	-3.2771	-3.3979	-2.8229	-3.55	-3.2875	-3.1375	-3.9208	-2.8875	-3.3333	-3.6208	-2.8479	-3.7417	-3.4437	-2.8167	-3.9042	42.240	-6.502	101.793	-77.207	152.932	65.150	-110.374	-64.262	28.403	70.892	-11.876	-34.262	186.854	-121.830	202.782	-112.460	0.00086067	0.00028272	9.8381e-05	444.76	3.5256e-06	4.0311e-06	435.72	188.53	4.6152e-06	4.9073e-06	214.9	108.97	92.992	48.324	4.1454e-06	58.655	0.00087675	0.00096609	0.00027368	459.88	8.6233e-06	1.1091e-05	452.4	196.38	9.4465e-06	1.0949e-05	224.64	114.26	97.517	51.066	1.1068e-05	62.017	135.583	-38.525	-27.091	-121.055	12.289	32.278	-122.735	-115.657	-22.871	28.676	-118.089	-114.757	-112.625	-108.455	-19.853	-111.281	-8191	255	
51505.371	1	1	0	0	0.065585	0.057031	0.075256	0.14223	0.17538	0.20983	0.044594	0.1632	0.18753	0.13552	0.25619	0.14076	0.069528	0.29902	0.16491	0.13542	-2.6542	-3.1542	-3.7125	-2.8458	-3.4771	-3.4271	-2.8271	-3.6979	-3.0167	-3.0771	-3.7958	-2.9042	-3.5979	-3.5438	-2.7708	-3.8229	113.992	127.410	127.984	208.119	-61.411	57.725	165.954	-116.070	-75.268	-66.127	116.389	-129.446	114.376	125.692	152.579	88.814	0.00084874	0.00039046	0.00010491	445.03	3.1793e-06	3.6952e-06	434.25	189.83	5.0335e-06	4.6896e-06	215.96	109.5	92.914	48.685	3.2847e-06	59.098	0.00087556	0.0010037	0.00027466	460.74	8.3269e-06	1.1128e-05	452.89	197.05	9.3967e-06	1.1323e-05	225.42	114.6	97.596	51.271	1.0947e-05	62.417	135.197	-52.464	-41.490	-121.488	-3.110	15.427	-123.038	-116.361	-25.704	-5.875	-118.589	-114.886	-112.822	-108.450	-15.238	-111.445	-8191	255	
51505.469	1	1	0	0	0.12656	0.043757	0.094475	0.21747	0.18837	0.047489	0.094602	0.14852	0.11057	0.096501	0.11045	0.25767	0.19841	0.10908	0.1781	0.20145	-2.7146	-3.0438	-3.6562	-2.9125	-3.2167	-3.5458	-2.8063	-3.7062	-2.95	-2.9396	-3.6312	-2.825	-3.3417	-3.7104	-2.7771	-3.7	96.030	-122.829	151.525	210.162	-111.155	122.025	95.118	-57.124	90.459	89.297	31.444	128.825	2.560	179.182	-81.093	98.828	0.00083808	0.00046971	0.00014457	444.6	2.5885e-06	3.8447e-06	435.08	186.77	5.3781e-06	4.8165e-06	214.68	108.74	92.133	48.246	3.8099e-06	58.596	0.00086686	0.0010213	0.00027942	460.17	8.7958e-06	1.1077e-05	451.66	195.81	9.6083e-06	1.2025e-05	223.36	113.9	96.923	50.972	1.1233e-05	61.904	133.476	-45.572	-51.941	-121.935	-25.128	13.786	-123.329	-116.616	-2.609	11.906	-118.743	-115.412	-112.869	-108.789	-16.448	-111.842	-8191	255	
51505.562	1	1	0	0	0.17372	0.22717	0.079158	0.3269	0.096934	0.31754	0.079629	0.25501	0.058318	0.027127	0.25101	0.19792	0.20947	0.24321	0.074241	0.26086	-2.9292	-3.0062	-3.7104	-2.9625	-3.2333	-3.5229	-3.0167	-3.5375	-3.2917	-2.8729	-3.7646	-3.0396	-3.0375	-3.7687	-2.8125	-3.6437	36.119	177.658	-33.064	205.484	-2.104	104.231	125.359	49.660	0.897	93.507	-78.668	-120.061	156.042	208.242	5.368	-119.471	0.00087519	0.00045051	9.1098e-05	444.72	3.5253e-06	3.6003e-06	433.09	188.08	2.95e-06	2.8494e-06	213.73	108.28	92.224	48.5	4.1269e-06	58.378	0.00087054	0.0010414	0.0002908	459.87	8.8821e-06	1.1893e-05	451.29	195.86	9.2677e-06	1.1916e-05	223.46	113.88	96.964	51.07	1.1226e-05	61.962	134.495	-54.892	-36.433	-122.159	-22.172	20.478	-123.682	-116.202	-31.362	11.877	-118.919	-115.236	-113.240	-108.832	-1.486	-111.821	-8191	255	
51505.660	1	1	0	0	0.047558	0.098382	0.071427	0.078723	0.1432	0.27497	0.047749	0.18132	0.1534	0.10651	0.24391	0.085128	0.077947	0.045053	0.1564	0.22025	-3.0458	-2.7458	-3.5833	-2.95	-2.8812	-3.5312	-2.6458	-3.1375	-3.2104	-2.7333	-3.5875	-2.9813	-2.9521	-3.5604	-2.5479	-3.3167	11.788	41.362	33.009	84.731	-40.776	-43.104	66.306	-119.417	5.928	101.175	129.604	65.169	46.289	118.466	-83.930	90.527	0.00083283	0.00045617	9.1573e-05	442.78	4.5677e-06	2.9357e-06	434.79	187.35	4.4308e-06	4.5655e-06	213.4	108.21	91.871	48.061	3.5814e-06	58.241	0.00087582	0.0010641	0.00029145	458.68	9.4516e-06	1.1704e-05	451.63	195.03	9.3548e-06	1.2818e-05	223.03	113.42	96.571	50.679	1.098e-05	61.695	134.518	-43.318	-56.266	-122.146	2.774	12.187	-123.429	-116.695	-17.164	20.978	-118.904	-115.236	-113.012	-108.831	-21.647	-111.759	-8191	255	
#DATA ENDS
