BOXY.EXE: ISS Imagent and Oximeter Data Acquisition Program Version 0.80
Ascii Record File

#ACQ INFORMATION
2  Detector Channels 
16  External MUX Channels 
1  Auxiliary Channels 
5000  Waveform (CCF) Frequency (Hz)
1  Waveforms Skipped 
30  Waveforms Averaged 
1  Cycles Averaged 
16  Acquisitions per Waveform 
10.0806  Updata Rate (Hz) 

#FILE INFORMATION
TRUE -- External MUX Channel results are PARSED.
FALSE -- AC DC and Phase are NOT grouped.
TRUE -- Companion Program Settings File CREATED.
FALSE -- AC data not excluded
FALSE -- DC data not excluded
FALSE -- Phase data not excluded
FALSE -- Auxillary Chn. data not excluded
Tab delimiters

#CALIBRATION STATE
TRUE -- Waveform Calibration Values APPLIED.


#AUX CALIBRATION VALUES
Val Type	aux-1	

Term	1.0000e+00	
Factor	0.0000e+00	


#WF CALIBRATION VALUES
A = Detector Channel
Val Type	A-AC1	A-AC2	A-AC3	A-AC4	A-AC5	A-AC6	A-AC7	A-AC8	A-AC9	A-AC10	A-AC11	A-AC12	A-AC13	A-AC14	A-AC15	A-AC16	A-DC1	A-DC2	A-DC3	A-DC4	A-DC5	A-DC6	A-DC7	A-DC8	A-DC9	A-DC10	A-DC11	A-DC12	A-DC13	A-DC14	A-DC15	A-DC16	A-Ph1	A-Ph2	A-Ph3	A-Ph4	A-Ph5	A-Ph6	A-Ph7	A-Ph8	A-Ph9	A-Ph10	A-Ph11	A-Ph12	A-Ph13	A-Ph14	A-Ph15	A-Ph16	

Term	0.00000e+00	0.00000e+00	0.00000e+00	0.00000e+00	0.00000e+00	0.00000e+00	0.00000e+00	0.00000e+00	0.00000e+00	0.00000e+00	0.00000e+00	0.00000e+00	0.00000e+00	0.00000e+00	0.00000e+00	0.00000e+00	0.00000e+00	0.00000e+00	0.00000e+00	0.00000e+00	0.00000e+00	0.00000e+00	0.00000e+00	0.00000e+00	0.00000e+00	0.00000e+00	0.00000e+00	0.00000e+00	0.00000e+00	0.00000e+00	0.00000e+00	0.00000e+00	0.00000e+00	0.00000e+00	0.00000e+00	0.00000e+00	0.00000e+00	0.00000e+00	0.00000e+00	0.00000e+00	0.00000e+00	0.00000e+00	0.00000e+00	0.00000e+00	0.00000e+00	0.00000e+00	0.00000e+00	0.00000e+00	
Factor	1.00000e+00	1.00000e+00	1.00000e+00	1.00000e+00	1.00000e+00	1.00000e+00	1.00000e+00	1.00000e+00	1.00000e+00	1.00000e+00	1.00000e+00	1.00000e+00	1.00000e+00	1.00000e+00	1.00000e+00	1.00000e+00	1.00000e+00	1.00000e+00	1.00000e+00	1.00000e+00	1.00000e+00	1.00000e+00	1.00000e+00	1.00000e+00	1.00000e+00	1.00000e+00	1.00000e+00	1.00000e+00	1.00000e+00	1.00000e+00	1.00000e+00	1.00000e+00	X	X	X	X	X	X	X	X	X	X	X	X	X	X	X	X	

B = Detector Channel
Val Type	B-AC1	B-AC2	B-AC3	B-AC4	B-AC5	B-AC6	B-AC7	B-AC8	B-AC9	B-AC10	B-AC11	B-AC12	B-AC13	B-AC14	B-AC15	B-AC16	B-DC1	B-DC2	B-DC3	B-DC4	B-DC5	B-DC6	B-DC7	B-DC8	B-DC9	B-DC10	B-DC11	B-DC12	B-DC13	B-DC14	B-DC15	B-DC16	B-Ph1	B-Ph2	B-Ph3	B-Ph4	B-Ph5	B-Ph6	B-Ph7	B-Ph8	B-Ph9	B-Ph10	B-Ph11	B-Ph12	B-Ph13	B-Ph14	B-Ph15	B-Ph16	

Term	0.00000e+00	0.00000e+00	0.00000e+00	0.00000e+00	0.00000e+00	0.00000e+00	0.00000e+00	0.00000e+00	0.00000e+00	0.00000e+00	0.00000e+00	0.00000e+00	0.00000e+00	0.00000e+00	0.00000e+00	0.00000e+00	0.00000e+00	0.00000e+00	0.00000e+00	0.00000e+00	0.00000e+00	0.00000e+00	0.00000e+00	0.00000e+00	0.00000e+00	0.00000e+00	0.00000e+00	0.00000e+00	0.00000e+00	0.00000e+00	0.00000e+00	0.00000e+00	-1.94746e+02	-1.29429e+02	-1.23296e+02	-1.81177e+02	-8.24941e+01	-6.72532e+01	-1.58393e+02	-1.62015e+02	-8.26879e+01	-6.57740e+01	-1.70238e+02	-1.70284e+02	-1.81041e+02	-1.76563e+02	-7.59332e+01	-1.49301e+02	
Factor	3.81472e-05	1.55800e-04	4.27792e-05	1.56288e-01	1.59967e-06	1.59687e-06	1.72052e-01	5.78622e-02	1.65686e-06	1.77183e-06	8.97467e-02	3.04905e-02	2.59666e-02	9.04681e-03	1.74401e-06	1.28027e-02	2.48459e-05	6.22447e-05	1.74435e-05	8.03579e-02	5.30800e-07	7.33201e-07	8.33309e-02	2.98252e-02	5.43097e-07	7.33792e-07	4.50204e-02	1.52899e-02	1.34928e-02	4.71424e-03	5.97119e-07	6.48029e-03	X	X	X	X	X	X	X	X	X	X	X	X	X	X	X	X	



#DISTANCE SETTINGS
A = Detector Channel
A-1	A-2	A-3	A-4	A-5	A-6	A-7	A-8	A-9	A-10	A-11	A-12	A-13	A-14	A-15	A-16	

2.5000e+00	3.0000e+00	2.5000e+00	3.0000e+00	2.0000e+00	3.0000e+00	1.5000e+00	3.0000e+00	3.0000e+00	3.0000e+00	3.0000e+00	3.0000e+00	3.0000e+00	3.0000e+00	1.5000e+00	3.0000e+00	

B = Detector Channel
B-1	B-2	B-3	B-4	B-5	B-6	B-7	B-8	B-9	B-10	B-11	B-12	B-13	B-14	B-15	B-16	

1.0000e+01	1.0000e+01	1.0000e+01	1.4400e+00	1.0000e+01	1.0000e+01	1.5100e+00	1.9400e+00	1.0000e+01	1.0000e+01	1.9900e+00	2.4900e+00	2.4100e+00	2.9000e+00	1.0000e+01	2.9800e+00	




#DATA BEGINS
time	group	step	mark	flag	A-AC1	A-AC2	A-AC3	A-AC4	A-AC5	A-AC6	A-AC7	A-AC8	A-AC9	A-AC10	A-AC11	A-AC12	A-AC13	A-AC14	A-AC15	A-AC16	A-DC1	A-DC2	A-DC3	A-DC4	A-DC5	A-DC6	A-DC7	A-DC8	A-DC9	A-DC10	A-DC11	A-DC12	A-DC13	A-DC14	A-DC15	A-DC16	A-Ph1	A-Ph2	A-Ph3	A-Ph4	A-Ph5	A-Ph6	A-Ph7	A-Ph8	A-Ph9	A-Ph10	A-Ph11	A-Ph12	A-Ph13	A-Ph14	A-Ph15	A-Ph16	B-AC1	B-AC2	B-AC3	B-AC4	B-AC5	B-AC6	B-AC7	B-AC8	B-AC9	B-AC10	B-AC11	B-AC12	B-AC13	B-AC14	B-AC15	B-AC16	B-DC1	B-DC2	B-DC3	B-DC4	B-DC5	B-DC6	B-DC7	B-DC8	B-DC9	B-DC10	B-DC11	B-DC12	B-DC13	B-DC14	B-DC15	B-DC16	B-Ph1	B-Ph2	B-Ph3	B-Ph4	B-Ph5	B-Ph6	B-Ph7	B-Ph8	B-Ph9	B-Ph10	B-Ph11	B-Ph12	B-Ph13	B-Ph14	B-Ph15	B-Ph16	aux-1	digaux	

51466.098	1	1	0	256	0.031737	0.12784	0.1315	0.058276	0.2194	0.12276	0.21509	0.25615	0.19048	0.33028	0.064429	0.24592	0.18685	0.099521	0.3068	0.12684	-2.5271	-2.7	-3.4146	-2.85	-3.2042	-3.3979	-2.9938	-3.5708	-3.1042	-3.0625	-3.6125	-2.7417	-3.475	-3.4479	-2.7583	-3.4458	-70.376	-51.786	110.686	173.200	208.392	233.059	-83.142	177.465	36.015	-79.802	-22.354	193.564	197.927	256.656	174.746	146.013	0.00061782	0.00038757	0.00012424	808.26	9.0101e-06	1.0638e-05	723.03	328.77	4.434e-06	7.9856e-06	346.68	154.58	155.15	70.362	6.4601e-06	75.55	0.0051375	0.011847	0.0033052	851.79	0.00010183	0.00013661	762.28	347.23	0.00010285	0.00013869	368.92	164.22	165.48	74.923	0.0001141	80.769	119.865	-59.685	38.715	-78.989	46.217	64.578	-80.154	-73.746	32.417	57.515	-75.935	-72.090	-69.463	-64.632	38.806	-67.566	-8191	255	
51466.219	1	1	0	0	0.035378	0.097159	0.12983	0.25701	0.12086	0.17754	0.29548	0.26472	0.047861	0.097106	0.10014	0.20105	0.11979	0.22278	0.031324	0.11119	-2.5979	-2.8292	-3.6208	-2.8063	-3.1542	-3.5333	-2.8271	-3.6583	-3.1125	-2.7479	-3.5583	-2.95	-3.2521	-3.5833	-2.7479	-3.4625	42.914	-2.402	-22.632	266.028	-31.468	-16.319	180.476	196.631	37.427	-77.777	187.780	6.461	259.402	-52.899	251.905	147.992	0.00051753	0.00060128	0.00020769	824.15	3.7147e-06	7.5744e-06	731.06	330.74	7.4392e-06	8.1749e-06	347.8	155.18	155.86	70.395	5.016e-06	75.504	0.0051292	0.011743	0.003272	864.56	9.8148e-05	0.00013676	773.22	350.6	0.00010302	0.0001366	370.1	164.9	166.05	75.098	0.00011338	80.736	134.622	10.819	-5.749	-79.089	39.924	37.095	-80.228	-73.472	47.689	20.656	-76.307	-71.960	-69.797	-64.646	49.029	-67.564	-8191	255	
51466.312	1	1	0	0	0.23801	0.14757	0.20153	0.25432	0.13121	0.033104	0.14067	0.081844	0.15475	0.12246	0.18282	0.16947	0.23796	0.20126	0.16598	0.27238	-2.775	-2.6042	-3.45	-2.7333	-3.0354	-3.5417	-2.7958	-3.6854	-3.3417	-2.6354	-3.6688	-3.1646	-2.9896	-3.5458	-2.7896	-3.5062	81.537	243.367	48.516	245.843	14.424	-77.119	209.141	151.195	-66.332	77.184	210.307	-90.828	205.730	-13.452	260.071	183.918	0.00060001	0.0007468	1.4027e-05	818.59	9.4831e-06	5.5392e-06	727.13	331.36	5.4704e-06	4.1503e-06	345.88	153.41	155.82	70.165	2.533e-06	75.119	0.0050858	0.01168	0.003224	861.71	0.00010072	0.00013497	767.16	349.86	0.00010319	0.00013854	367.31	163.45	164.93	74.61	0.00011293	80.21	123.798	-11.071	52.210	-79.329	31.685	39.430	-80.158	-73.663	29.713	63.006	-75.926	-71.998	-69.593	-64.537	37.703	-67.509	-8191	255	
51466.410	1	1	0	0	0.23521	0.22832	0.058721	0.16541	0.069523	0.091983	0.11587	0.17424	0.14275	0.1012	0.24219	0.1436	0.24518	0.291	0.18249	0.29161	-3.0208	-2.5729	-3.4688	-3.2104	-2.9375	-3.6271	-2.775	-3.3229	-3.3229	-2.7792	-3.6396	-3.0125	-2.8417	-3.675	-2.8104	-3.1229	98.412	58.833	198.185	233.461	7.902	-12.850	116.970	120.390	53.483	242.943	247.861	77.736	226.271	222.437	-39.867	185.088	0.0005687	0.0005181	9.5334e-05	816.1	5.411e-06	5.6678e-06	721.58	329.95	3.2938e-06	4.0952e-06	345.56	154.23	155.64	70.351	7.7542e-06	75.29	0.0051116	0.011708	0.0032477	857.61	0.00010074	0.00013808	765.07	349.75	0.00010295	0.00013641	368.46	163.81	165.34	75.023	0.00011142	80.433	129.340	-18.983	-2.199	-79.069	41.265	65.806	-80.076	-73.607	117.487	43.923	-75.944	-71.953	-69.719	-64.774	56.679	-67.509	-8191	255	
51466.508	1	1	0	0	0.033411	0.11488	0.12001	0.091574	0.11314	0.098325	0.10604	0.061152	0.17589	0.020899	0.09503	0.17921	0.092479	0.28387	0.37457	0.14689	-3.1188	-2.575	-3.5833	-3.1854	-2.6604	-3.6271	-2.8708	-3.35	-3.5458	-2.7562	-3.4437	-3.025	-2.8333	-3.6125	-2.7833	-3.1146	232.884	16.938	108.465	46.169	236.949	50.239	182.726	-16.495	43.378	-2.769	76.924	247.454	-27.004	262.684	-39.217	150.920	0.00067778	0.00075746	0.00012106	817.3	8.4396e-06	5.9527e-06	724.28	332.39	6.4665e-06	1.0306e-05	348.48	154.48	155.94	70.898	6.0358e-06	76.218	0.0050458	0.011709	0.0032158	860.51	9.9927e-05	0.00013584	765.45	350.91	0.00010109	0.0001369	370.3	164.81	165.99	75.567	0.00011201	81.342	119.182	-4.976	8.509	-79.105	42.188	71.467	-80.419	-73.588	27.283	74.233	-76.064	-71.968	-69.624	-64.757	14.719	-67.575	-8191	255	
51466.602	1	1	0	0	0.11238	0.14919	0.17465	0.36654	0.17949	0.060631	0.070003	0.23537	0.14594	0.10176	0.15091	0.20894	0.035278	0.075504	0.072841	0.17409	-3.1042	-2.6792	-3.3833	-3.4042	-2.6771	-3.5458	-2.95	-3.1854	-3.4729	-2.6625	-3.375	-3.5438	-2.8625	-3.7188	-2.9896	-3.0208	14.352	-84.677	76.867	-40.209	265.533	93.788	154.276	210.968	106.018	23.695	-86.445	-86.012	43.762	-83.749	-10.121	257.561	0.00069327	0.00067748	0.00023159	823.47	4.7693e-06	2.7113e-06	734.11	335.24	5.8214e-06	7.5563e-06	350.45	154.76	157.34	70.958	2.2601e-06	75.248	0.0050992	0.011693	0.0032371	867.39	0.00010017	0.00013795	777.04	354.17	0.00010088	0.00013689	373.02	165.17	167.15	75.526	0.00011115	80.202	128.004	-15.842	-24.156	-79.187	23.490	50.668	-80.245	-73.586	38.831	53.864	-76.019	-71.994	-69.845	-64.712	40.369	-67.369	-8191	255	
51466.695	1	1	0	0	0.15621	0.018665	0.062157	0.11839	0.1039	0.10272	0.38599	0.18255	0.034722	0.041151	0.20052	0.30387	0.18529	0.21716	0.3383	0.26339	-3.1979	-2.6542	-3.1521	-3.5438	-2.6771	-3.4396	-3.1125	-2.7958	-3.4854	-2.6229	-3.1063	-3.4167	-2.9	-3.6083	-3.1458	-2.8667	266.639	198.644	202.712	218.336	-77.809	216.350	204.442	231.514	48.508	-39.200	214.705	180.208	138.908	191.794	242.925	-88.155	0.00058173	0.00072611	0.00023222	851.48	2.6901e-06	4.5633e-06	755.15	338.83	5.8826e-06	7.9159e-06	351.07	154.98	157.88	71.232	7.135e-06	73.275	0.0049924	0.011275	0.0031899	893.63	9.6854e-05	0.00013146	797.84	357.95	9.8184e-05	0.00012919	374.07	164.97	167.61	75.64	0.00010449	78.115	120.107	3.015	11.697	-79.275	54.306	95.493	-80.475	-73.845	50.598	60.942	-76.075	-72.171	-69.910	-64.822	22.908	-67.461	-8191	255	
51466.793	1	1	0	0	0.10096	0.19388	0.34378	0.026938	0.070644	0.12805	0.11443	0.1447	0.18055	0.09492	0.3671	0.14503	0.27184	0.22446	0.045276	0.38572	-3.0208	-2.7771	-2.8167	-3.6521	-2.65	-3.4437	-3.2687	-2.6792	-3.4854	-2.8354	-2.9271	-3.6333	-2.8042	-3.4021	-3.3625	-2.8438	170.784	66.042	8.032	-15.554	-30.807	-15.040	165.505	260.901	12.195	-19.477	177.272	192.751	-77.683	257.709	97.131	263.579	0.00065842	0.0007321	0.00017321	874.62	5.4118e-06	1.0936e-05	765.47	343.89	6.9192e-06	5.1954e-06	354.65	154.7	159.21	70.915	2.8257e-06	72.572	0.0048216	0.010792	0.0029807	915.28	9.0805e-05	0.00012419	807.13	363.3	9.2639e-05	0.00012389	375.74	164.81	168.8	75.532	0.00010017	77.394	121.759	-14.969	-51.307	-79.126	26.091	75.788	-80.402	-73.579	60.592	61.893	-76.003	-71.991	-69.794	-64.473	71.219	-67.388	-8191	255	
51466.914	1	1	0	0	0.14474	0.098639	0.14242	0.094304	0.12635	0.17211	0.022512	0.12894	0.19128	0.11541	0.16129	0.14502	0.15949	0.32431	0.070904	0.18837	-3.1542	-2.9437	-2.8021	-3.6562	-2.7229	-3.1625	-3.3812	-2.7854	-3.3625	-2.9542	-2.9833	-3.7062	-2.7083	-3.3479	-3.4667	-2.7812	50.775	-43.929	-21.627	-5.455	18.766	-21.965	122.341	107.352	200.287	-82.688	257.879	219.901	-71.668	-80.948	223.588	200.414	0.00061475	0.00050615	0.00024044	868.41	6.1981e-06	5.1275e-06	761.41	342.57	3.7618e-06	6.2865e-06	351.68	154.61	158.33	70.78	2.0479e-06	72.468	0.0046375	0.010419	0.0029223	910.64	9.0414e-05	0.00012151	802.09	360.88	9.2113e-05	0.00012115	373.16	164.18	168.16	75.172	0.00010082	77.079	127.803	15.836	-17.780	-79.014	61.855	54.847	-80.091	-73.402	1.705	51.445	-75.905	-71.988	-69.853	-64.692	31.332	-67.393	-8191	255	
51467.008	1	1	0	0	0.14879	0.059032	0.31563	0.25928	0.24361	0.10566	0.13736	0.18584	0.096762	0.11514	0.19674	0.17232	0.18254	0.21789	0.038137	0.10058	-3	-3	-2.6958	-3.4854	-2.7917	-3.2562	-3.5479	-2.7313	-3.4354	-3.1854	-2.7083	-3.5917	-2.9729	-3.0854	-3.5479	-2.7104	146.933	119.118	-36.321	227.179	-0.872	-2.554	257.019	266.867	119.785	73.775	-8.379	178.669	-41.885	-60.010	151.838	-31.690	0.0005957	0.0007808	0.00014354	869.68	4.4975e-06	6.4402e-06	762.89	340	8.0242e-06	6.0526e-06	349.51	153.95	157.26	70.52	6.5421e-06	72.258	0.0045487	0.010154	0.0028681	913.27	8.9018e-05	0.00011868	802.66	358.33	8.9505e-05	0.00011944	370.61	163.45	166.7	74.915	9.7882e-05	76.939	126.625	-3.361	-7.194	-79.248	23.684	48.309	-80.436	-73.573	44.505	63.082	-76.014	-72.080	-69.775	-64.558	66.702	-67.354	-8191	255	
51467.105	1	1	0	0	0.14036	0.21692	0.2158	0.11592	0.092583	0.047497	0.36817	0.10019	0.048291	0.21634	0.24244	0.19823	0.27232	0.34732	0.17858	0.089212	-3.0042	-3.2417	-2.55	-3.6875	-2.9667	-2.9458	-3.6	-2.7917	-3.3042	-3.3125	-2.7167	-3.7	-3.0417	-2.9021	-3.5458	-2.8958	8.061	-39.882	-32.896	263.508	172.620	13.986	264.546	174.277	163.747	67.748	-5.908	234.100	238.691	217.863	51.619	202.705	0.00058589	0.00059409	0.00025331	858.74	3.1454e-06	8.1307e-06	751.79	336.15	6.8407e-06	5.8346e-06	347.18	153.32	155.35	69.681	2.7028e-06	71.59	0.004424	0.0098335	0.0028145	899.7	8.4587e-05	0.00011584	790.55	354.17	8.661e-05	0.00011466	368.17	162.6	165.04	74.155	9.3795e-05	76.307	120.986	-45.370	2.404	-78.880	59.302	47.998	-80.354	-73.654	24.464	32.495	-75.839	-71.768	-69.590	-64.614	19.430	-67.077	-8191	255	
51467.203	1	1	0	0	0.11593	0.22558	0.12913	0.14324	0.10721	0.24481	0.062679	0.24796	0.10689	0.074572	0.25667	0.17063	0.44951	0.12477	0.20559	0.14153	-2.8063	-3.3104	-2.7062	-3.6292	-3.1583	-2.7667	-3.5938	-2.7958	-2.925	-3.2583	-2.8604	-3.3438	-3.2708	-2.7729	-3.6292	-2.6792	52.922	50.426	49.403	-50.177	116.379	6.369	-22.053	190.868	-61.286	262.094	-64.380	-66.564	211.295	260.454	-11.471	113.812	0.00056137	0.00023977	0.00016916	849.93	5.1574e-06	5.5786e-06	746.63	333.66	5.446e-06	7.3165e-06	345.02	152.38	154.9	68.982	2.2219e-06	71.878	0.0042889	0.0095846	0.0027278	890.62	8.2903e-05	0.00011447	786.71	352.23	8.5304e-05	0.0001128	366.3	161.83	164.56	73.617	9.2902e-05	76.546	120.674	-21.564	17.548	-78.896	63.767	75.588	-80.393	-73.683	47.319	33.350	-75.880	-71.649	-69.628	-64.387	83.165	-67.405	-8191	255	
51467.297	1	1	0	0	0.30563	0.14745	0.12789	0.046855	0.033852	0.18345	0.10901	0.39586	0.18287	0.091935	0.25578	0.11741	0.045811	0.23841	0.18472	0.083816	-2.8479	-3.4437	-2.8021	-3.625	-3.4271	-2.7979	-3.55	-3.0854	-2.8667	-3.5229	-2.8187	-3.5167	-3.4125	-2.7458	-3.4896	-2.9562	181.886	171.490	122.035	243.408	204.358	-24.640	27.913	255.821	205.084	195.170	150.703	196.763	234.806	-83.398	-87.874	-57.498	0.00059789	0.00065074	0.00029742	845.58	5.8135e-06	5.9457e-06	749.09	335.38	7.9073e-07	5.671e-06	350.52	154.21	155.9	69.947	2.4793e-06	72.45	0.0042365	0.009628	0.002709	885.37	8.1302e-05	0.00011159	787.74	353.23	8.2489e-05	0.00011042	369.81	163.56	165.34	74.33	9.0135e-05	77.134	122.884	-20.588	20.395	-78.953	61.999	45.416	-80.309	-73.730	239.306	81.606	-75.965	-71.973	-69.710	-64.603	-10.560	-67.408	-8191	255	
51467.395	1	1	0	0	0.11215	0.15794	0.078605	0.17314	0.10763	0.14494	0.18556	0.22261	0.13736	0.25313	0.15767	0.088055	0.2401	0.18236	0.095344	0.24801	-2.425	-3.7229	-2.6208	-3.3167	-3.2875	-2.7958	-3.625	-3.0771	-2.7979	-3.4958	-2.7583	-3.2375	-3.5875	-2.9104	-3.55	-3.2583	10.151	41.168	124.499	-25.333	217.562	-27.524	173.152	226.352	-7.213	162.070	194.918	-88.692	233.717	120.513	185.651	35.302	0.00050801	0.00093303	0.00019456	855.29	2.2151e-06	5.0548e-06	762.86	339.41	3.115e-06	6.0408e-06	352.61	156.46	157.15	71.063	4.3803e-06	73.121	0.0041884	0.0093073	0.0025749	896.97	7.7873e-05	0.00010885	799.25	356.77	7.9279e-05	0.000106	373.37	165.52	166.47	75.27	8.6649e-05	77.859	117.794	-3.064	-21.995	-79.117	49.483	66.551	-80.388	-73.775	43.135	48.430	-76.160	-72.106	-69.719	-64.681	47.074	-67.537	-8191	255	
51467.516	1	1	0	0	0.080409	0.14749	0.12674	0.10839	0.27011	0.073262	0.038174	0.10747	0.067857	0.15916	0.20534	0.22662	0.18922	0.24075	0.067036	0.17324	-2.4417	-3.6333	-2.7479	-3.2604	-3.4313	-2.6875	-3.6583	-3.4083	-2.7479	-3.5958	-2.8146	-3.0896	-3.6	-2.7875	-3.3146	-3.4688	49.515	230.218	-21.770	225.321	22.466	-44.942	154.532	245.170	166.560	-74.056	147.043	164.892	225.682	-69.619	-31.849	153.618	0.00067096	0.00025359	0.00030178	860.06	8.0738e-06	7.3599e-06	762.98	338.91	4.273e-06	5.4386e-06	353.29	156.3	157.49	71.197	7.6847e-06	73.29	0.0040092	0.009049	0.0025294	900.03	7.5654e-05	0.00010494	800.8	357.64	7.8394e-05	0.00010342	373.04	165.49	166.92	75.561	8.7003e-05	78.1	124.304	-19.507	-13.788	-79.174	45.851	82.807	-80.387	-73.884	33.640	34.792	-76.199	-71.683	-69.794	-64.832	79.698	-67.649	-8191	255	
51467.609	1	1	0	0	0.30025	0.087753	0.11889	0.35971	0.10893	0.11263	0.18424	0.21058	0.035308	0.14159	0.14341	0.10603	0.16553	0.13764	0.13611	0.32167	-2.1813	-3.4833	-2.9354	-3.0354	-3.5083	-2.7458	-3.2812	-3.2042	-2.7646	-3.4979	-3.1667	-3.1625	-3.5729	-2.8375	-3.1792	-3.4354	-67.019	196.561	196.579	255.228	-27.882	147.532	203.301	196.294	127.451	184.443	-79.642	-43.394	-87.713	262.371	15.038	213.117	0.00059591	0.00065794	0.0001051	858.01	4.4494e-06	5.5166e-06	762.24	338.73	6.6442e-06	5.6011e-06	352.19	155.71	157.53	70.673	5.8462e-06	73.149	0.004072	0.0090068	0.0025188	899.19	7.8106e-05	0.00010583	800.46	357.21	8.0552e-05	0.00010555	372.46	165.17	166.92	75.08	8.7349e-05	77.556	124.467	-2.071	42.317	-79.222	13.178	56.813	-80.597	-73.738	6.057	77.806	-76.387	-72.109	-69.866	-64.743	62.111	-67.559	-8191	255	
51467.703	1	1	0	0	0.32983	0.060448	0.074889	0.34017	0.1279	0.24684	0.11667	0.21862	0.22831	0.10408	0.036297	0.093814	0.044572	0.11116	0.12928	0.053056	-2.3896	-3.4688	-3.0229	-2.9833	-3.4688	-2.7542	-3.3937	-3.5	-2.6646	-3.4167	-3.2979	-2.9396	-3.7396	-2.9396	-3.3104	-3.6833	21.339	90.670	138.203	245.231	-31.213	149.485	19.638	238.474	50.780	212.002	227.610	177.093	30.618	225.656	13.532	100.726	0.00059869	0.00040717	8.7144e-05	866.79	5.125e-06	5.2606e-06	768.33	339.18	2.0995e-06	6.1032e-06	354.05	156.32	157.75	71.023	3.0515e-06	72.975	0.0040923	0.0091299	0.002528	905.47	7.82e-05	0.00010679	806.79	357.9	7.9753e-05	0.0001062	374.18	165.34	167.27	75.219	8.6669e-05	77.487	115.432	23.128	35.934	-79.296	9.730	76.281	-80.567	-73.761	2.692	28.890	-76.181	-71.958	-70.025	-64.888	33.538	-67.562	-8191	255	
51467.801	1	1	0	0	0.23257	0.11736	0.20958	0.27147	0.12091	0.026294	0.062088	0.16811	0.16282	0.24741	0.34236	0.16015	0.13841	0.23451	0.13236	0.096687	-2.3083	-3.6188	-3.15	-2.9646	-3.6167	-2.8792	-2.9646	-3.6562	-2.7625	-3.4	-3.3021	-2.9417	-3.675	-2.8604	-2.8396	-3.7146	161.680	37.284	-28.955	243.081	105.553	187.600	218.972	126.836	252.392	127.710	222.549	178.782	201.165	-74.120	-24.417	81.364	0.00062295	0.00039713	0.00017417	869.04	4.6354e-06	3.6735e-06	777	342.12	1.1747e-06	5.1082e-06	353.19	155.91	157.26	70.715	3.5518e-06	72.092	0.0041424	0.0090676	0.0025086	909.51	7.824e-05	0.00010647	812.21	359.59	8.0444e-05	0.00010646	374.22	164.94	167.07	75.133	8.8233e-05	76.688	121.507	17.179	19.172	-79.379	38.465	116.523	-80.304	-73.718	171.932	86.757	-76.133	-71.961	-69.713	-64.911	-14.598	-67.825	-8191	255	
51467.898	1	1	0	0	0.055373	0.25466	0.16524	0.2795	0.053105	0.36335	0.040251	0.19129	0.12995	0.087382	0.27102	0.36768	0.054486	0.19436	0.086849	0.12432	-2.475	-3.2271	-3.375	-2.8229	-3.7	-3.1792	-3.0021	-3.6667	-2.7562	-3.2229	-3.6188	-2.85	-3.7438	-3.0958	-2.8688	-3.825	145.216	-75.244	261.001	86.016	254.733	181.889	88.240	221.291	75.415	12.238	176.384	168.097	-91.416	183.999	-41.020	-80.885	0.00053173	0.00075526	0.00013718	870.76	2.7783e-06	5.3065e-06	767.33	341.91	6.1298e-06	7.5166e-06	351.38	154.52	158.23	70.243	3.8362e-06	71.691	0.0040704	0.0089683	0.0025268	909.33	7.7405e-05	0.00010442	806.22	359.8	7.9912e-05	0.00010657	372.86	163.83	167.47	74.775	8.813e-05	76.208	124.274	16.753	12.601	-79.389	29.724	31.877	-80.489	-73.909	0.760	68.265	-76.200	-72.197	-69.729	-64.748	24.997	-67.456	-8191	255	
51467.992	1	1	0	0	0.25064	0.25041	0.26492	0.17268	0.087468	0.13838	0.26322	0.22624	0.12315	0.071317	0.065495	0.13679	0.31976	0.11842	0.11291	0.10414	-2.4208	-3.1083	-3.3646	-2.625	-3.5187	-2.9958	-2.925	-3.7208	-2.8708	-3.0583	-3.6688	-2.7667	-3.4938	-3.3375	-2.7167	-3.6333	240.370	86.504	200.377	146.591	230.201	250.567	241.038	-9.253	-9.091	47.746	50.917	114.369	247.278	-57.644	18.672	257.406	0.00055765	0.00087696	0.00019616	866.51	3.6852e-06	4.1054e-06	763.8	341.21	3.7931e-06	9.3444e-06	351.28	153.89	157.03	70.63	5.6874e-06	71.845	0.004047	0.0090413	0.0025522	907.84	7.8242e-05	0.00010667	801.96	359.25	8.0002e-05	0.00010612	371.55	163.27	166.8	74.952	8.9282e-05	76.338	117.568	-7.431	6.172	-79.307	38.453	62.488	-80.408	-73.683	39.282	101.865	-76.246	-71.999	-69.677	-64.826	27.481	-67.717	-8191	255	
51468.090	1	1	0	0	0.081659	0.23129	0.076672	0.17108	0.067881	0.049579	0.080601	0.13777	0.076439	0.10407	0.17059	0.037586	0.10174	0.18158	0.19803	0.20153	-2.5875	-3.0667	-3.4083	-2.7958	-3.3063	-3.0833	-2.7812	-3.6354	-2.7792	-2.8208	-3.6437	-2.6458	-3.4313	-3.4583	-2.7188	-3.6667	132.695	90.983	127.719	-81.009	125.465	-64.914	126.508	102.916	223.542	2.503	-51.835	-74.598	-28.125	259.661	196.335	152.478	0.00059024	0.00071033	0.00019701	874.94	4.2033e-06	6.6428e-06	779.14	345.45	2.0531e-06	6.5535e-06	354.75	155.02	159.48	70.833	7.2546e-06	73.63	0.0040806	0.0091562	0.0025526	916.54	7.9272e-05	0.00010711	818.2	365.47	7.931e-05	0.00010646	376.43	164.14	169.15	75.139	9.0394e-05	78.276	121.679	-15.975	2.515	-79.095	64.031	35.176	-80.616	-73.826	42.353	76.389	-76.341	-72.225	-69.928	-64.871	59.753	-68.017	-8191	255	
51468.188	1	1	0	0	0.25521	0.093178	0.037704	0.37983	0.1825	0.11286	0.15366	0.03904	0.35699	0.076261	0.19075	0.18871	0.067405	0.21239	0.070783	0.097168	-2.6458	-2.8875	-3.4917	-2.8208	-3.1521	-3.525	-2.8896	-3.6063	-3.0583	-2.8563	-3.5438	-2.7979	-3.0854	-3.4729	-2.6167	-3.6312	159.438	40.527	227.204	231.571	120.301	156.810	19.459	82.622	-4.142	-66.335	180.734	223.151	5.884	-89.301	-49.097	208.714	0.000645	0.00077114	0.00011783	906.56	6.9929e-06	6.7411e-06	797.01	352.62	3.9331e-06	1.8349e-06	355.4	154.4	160.91	70.679	1.0336e-06	73.204	0.0041293	0.0093209	0.0025989	950.57	7.9571e-05	0.0001079	835.02	370.88	8.1501e-05	0.00010889	376.65	163.88	169.93	75.108	9.1344e-05	77.882	123.329	-35.427	-14.748	-79.310	55.489	36.588	-80.681	-73.766	47.128	53.716	-76.160	-72.301	-69.675	-64.769	111.325	-67.923	-8191	255	
51468.305	1	1	0	0	0.10251	0.1577	0.21199	0.086768	0.21262	0.18466	0.14346	0.24278	0.21345	0.050285	0.17044	0.11925	0.12147	0.18609	0.20142	0.31142	-2.6417	-2.6813	-3.4417	-2.9271	-3.0979	-3.4083	-2.7188	-3.3937	-3.2896	-2.6521	-3.5792	-2.925	-3.1708	-3.5104	-2.65	-3.4542	68.189	-28.185	98.984	116.782	23.184	151.833	95.672	212.743	-55.426	124.322	147.975	128.627	-44.156	-79.498	77.658	107.528	0.00058351	0.00028733	9.6038e-05	892.97	7.1993e-06	4.8725e-06	780.35	346.34	3.8729e-06	6.4128e-06	351.89	153.93	158.55	70.297	4.9866e-06	73.518	0.0041735	0.0093122	0.0026521	935.56	8.0384e-05	0.00011049	818.51	364.92	8.2528e-05	0.0001111	372.43	163.05	168.35	74.764	9.1411e-05	78.139	129.885	-42.567	20.683	-79.248	41.886	69.470	-80.595	-73.695	9.983	83.222	-76.165	-72.068	-69.678	-64.727	57.233	-67.860	-8191	255	
51468.402	1	1	0	0	0.030154	0.18754	0.23882	0.062286	0.23174	0.11486	0.31203	0.17138	0.036052	0.049752	0.2369	0.21371	0.09755	0.17289	0.13073	0.13205	-2.7792	-2.5792	-3.3	-3.075	-2.8958	-3.45	-2.8063	-3.2292	-3.2771	-2.7792	-3.6417	-3.2167	-2.9271	-3.7771	-2.6229	-3.3604	22.828	55.839	101.626	-46.266	203.199	206.382	139.722	159.000	2.036	61.146	-46.176	164.349	166.351	236.517	234.504	188.808	0.00060536	0.00048847	0.00011305	877.06	5.0032e-06	4.3472e-06	773.22	342.11	3.8487e-06	9.2475e-06	350.06	153.66	158.14	69.987	3.584e-06	73.81	0.0042029	0.0093852	0.0026601	917.97	8.2805e-05	0.00011255	809.16	360.94	8.4493e-05	0.00011414	371.44	162.68	167.61	74.524	9.4412e-05	78.363	119.962	1.162	-14.962	-79.389	62.668	48.426	-80.602	-73.804	65.771	56.644	-76.015	-72.305	-69.677	-64.572	49.715	-67.709	-8191	255	
51468.473	1	1	0	0	0.18831	0.13083	0.17587	0.14256	0.094688	0.15928	0.056107	0.20927	0.1855	0.23661	0.13371	0.14013	0.16629	0.079739	0.2285	0.13638	-3.1188	-2.5583	-3.6292	-3.2333	-2.7771	-3.4771	-2.7771	-3.2625	-3.4604	-2.5854	-3.4333	-3.1083	-2.9083	-3.6208	-2.9458	-3.0542	-14.022	104.298	41.931	168.678	75.474	203.609	-6.380	236.158	-57.013	-80.984	114.730	232.454	265.133	-65.497	149.471	206.810	0.00068258	0.0004775	0.00015691	874.66	6.9497e-06	5.5768e-06	772.86	342.86	5.7935e-06	6.8758e-06	351.96	153.62	157.7	70.179	5.927e-06	73.516	0.0043073	0.0097694	0.0027324	916.12	8.3737e-05	0.0001153	812.1	361.18	8.5371e-05	0.00011643	372.05	162.91	167.51	74.719	9.5979e-05	78.369	126.993	-4.378	-2.225	-79.247	28.253	84.155	-80.594	-73.589	16.870	51.351	-75.999	-72.154	-69.633	-64.531	50.152	-67.759	-8191	255	
51468.594	1	1	0	0	0.35716	0.2606	0.14228	0.093645	0.12072	0.2022	0.17137	0.11585	0.093632	0.088239	0.17072	0.36472	0.084547	0.34608	0.17754	0.14335	-3.1021	-2.6896	-3.3917	-3.2021	-2.6312	-3.7083	-2.9062	-3.0729	-3.5687	-2.6708	-3.4104	-3.3812	-2.7979	-3.7396	-2.9625	-3.0167	76.703	125.717	-21.816	-60.354	15.150	245.292	-83.324	216.992	-19.591	247.456	244.969	225.737	237.157	262.919	72.458	-86.002	0.00055498	0.00066242	0.00017482	877.77	3.9467e-06	5.1382e-06	767.62	343.93	4.941e-06	5.8733e-06	350.57	153.16	157.76	70.274	4.2313e-06	73.42	0.0043583	0.01001	0.0027575	917.69	8.5235e-05	0.00011656	809.58	361.9	8.6997e-05	0.00011589	370.5	162.61	166.94	74.787	9.5053e-05	78.339	125.005	-3.721	-21.567	-79.396	30.171	55.883	-80.585	-73.885	55.875	88.343	-76.175	-72.111	-69.658	-64.790	49.312	-67.764	-8191	255	
51468.688	1	1	0	0	0.021776	0.050434	0.28407	0.18235	0.061895	0.10178	0.087966	0.18863	0.17198	0.082848	0.16319	0.089467	0.42121	0.35766	0.19639	0.1369	-3.1333	-2.5542	-3.1479	-3.4938	-2.7583	-3.6063	-3.2562	-2.9646	-3.4896	-2.8875	-3.3708	-3.5542	-2.7958	-3.4938	-3.0187	-3.075	253.933	9.406	-60.556	263.527	148.683	95.292	254.030	222.193	98.558	23.693	-83.021	242.574	250.073	241.254	-20.994	209.855	0.00053666	0.0007132	0.00020384	875.76	5.0368e-06	6.7744e-06	764.56	342.73	2.0582e-06	8.2915e-06	350.14	153.86	158.19	70.83	3.9766e-06	74.254	0.0044219	0.0099283	0.0027617	916.4	8.653e-05	0.00011583	805.13	361.36	8.7746e-05	0.0001161	370.99	163.03	167.64	75.246	9.6343e-05	78.821	119.454	-3.727	-2.411	-79.211	46.896	71.456	-80.652	-73.625	51.553	39.748	-76.031	-72.064	-69.765	-64.607	28.408	-67.871	-8191	255	
51468.785	1	1	0	0	0.03568	0.051489	0.34655	0.19868	0.37238	0.18657	0.086674	0.10027	0.11647	0.076558	0.15306	0.086931	0.40567	0.083089	0.2495	0.22056	-3.1146	-2.7896	-2.95	-3.4917	-2.6917	-3.35	-3.3833	-2.9167	-3.5417	-2.9229	-3.0563	-3.5125	-2.7292	-3.5354	-3.2729	-2.7833	-76.582	-57.024	210.565	162.629	56.140	160.538	226.727	-5.273	79.176	-53.228	198.251	255.693	220.249	136.407	42.973	197.606	0.0005815	0.00050948	0.00014635	873.25	3.7995e-06	4.8992e-06	765.43	343.86	2.8901e-06	4.9583e-06	350.66	154.04	157.9	70.964	5.5317e-06	74.611	0.0044562	0.010073	0.0027911	914.26	8.6679e-05	0.00011637	805.11	362.67	8.829e-05	0.00011755	370.87	163.45	167.75	75.542	9.7587e-05	79.256	120.308	17.505	-28.526	-79.278	6.606	54.636	-80.666	-73.777	27.608	26.814	-76.150	-72.128	-69.625	-64.713	30.578	-67.839	-8191	255	
51468.906	1	1	0	0	0.17147	0.12594	0.16112	0.021387	0.13805	0.17583	0.12313	0.13992	0.25947	0.12555	0.16626	0.29887	0.12651	0.31028	0.072621	0.29895	-3.3167	-3.05	-2.8542	-3.6458	-2.8729	-3.2646	-3.4021	-2.8063	-3.6229	-3.1417	-3.0125	-3.7896	-2.7708	-3.4062	-3.6	-2.8646	234.196	212.781	-51.917	-74.866	178.071	243.141	-51.689	-65.642	109.097	108.720	183.172	202.785	112.557	-80.977	223.484	177.266	0.00055569	0.00042332	0.00016154	875	4.8019e-06	6.6606e-06	768.04	345.02	8.9803e-06	7.3134e-06	350.76	153.61	158.72	70.943	6.2964e-06	74.169	0.0044706	0.0099899	0.0028068	915.14	8.6248e-05	0.00011655	806.5	362.83	8.8449e-05	0.00011684	370.81	163.08	167.89	75.488	9.595e-05	78.973	116.534	2.612	-1.589	-79.351	52.600	73.447	-80.659	-73.965	22.952	66.225	-76.004	-71.999	-69.884	-64.601	20.021	-67.783	-8191	255	
51469.004	1	1	0	0	0.22778	0.10636	0.07005	0.067858	0.1297	0.18006	0.3011	0.087646	0.14229	0.13935	0.15448	0.49547	0.24317	0.25812	0.18404	0.30076	-3.1813	-3.075	-2.6937	-3.7875	-2.8396	-3.3063	-3.45	-2.6708	-3.4854	-3.1167	-2.7792	-3.7229	-2.9479	-3.1771	-3.375	-2.7667	-40.232	-58.080	206.914	239.847	165.334	65.990	249.382	-55.621	57.095	159.163	-6.569	235.777	238.276	241.797	255.831	232.022	0.00069175	0.00063006	0.0001461	876.15	9.0948e-06	6.2363e-06	763.74	341.62	4.3462e-06	6.3824e-06	346.73	152.66	157.76	70.95	3.9713e-06	73.991	0.0043905	0.0099442	0.002801	916.47	8.496e-05	0.00011633	803.52	360.91	8.6703e-05	0.00011642	367.58	162.11	167.67	75.389	9.4585e-05	78.546	125.791	-6.517	-18.085	-79.324	33.633	58.445	-80.570	-73.837	55.091	31.350	-76.192	-72.301	-69.750	-64.648	54.883	-68.089	-8191	255	
51469.074	1	1	0	0	0.15825	0.075467	0.070668	0.14329	0.23879	0.10329	0.14307	0.30526	0.17663	0.05698	0.45224	0.11559	0.3287	0.11767	0.15748	0.24565	-3.1479	-3.0146	-2.7854	-3.6417	-2.9021	-3.1125	-3.6833	-2.8125	-3.3688	-3.3104	-2.6646	-3.6625	-3.0979	-3.125	-3.5167	-2.7583	-88.735	8.201	10.592	-19.740	-22.975	146.632	254.922	120.617	153.607	128.552	243.112	242.087	220.027	-76.898	-48.242	227.091	0.00070332	0.00039901	4.6999e-05	878.78	7.8395e-06	4.1743e-06	764.03	344.12	2.6388e-06	6.8536e-06	350.09	153.11	159.19	71.457	3.2018e-06	74.156	0.0042776	0.009681	0.0027083	919.51	8.2204e-05	0.00011267	804.03	362.23	8.3489e-05	0.00011074	369.49	162.51	168.44	75.867	9.1718e-05	78.819	122.948	3.073	-2.927	-79.203	8.111	41.768	-80.663	-73.836	3.803	84.284	-76.119	-72.261	-69.808	-64.601	45.657	-67.949	-8191	255	
51469.195	1	1	0	0	0.21578	0.14557	0.12617	0.059667	0.13885	0.25622	0.16784	0.37381	0.20422	0.14891	0.07673	0.14396	0.13725	0.074249	0.24668	0.086519	-2.85	-3.2792	-2.7583	-3.7458	-3.1208	-3.0333	-3.5333	-2.7687	-3.1917	-3.3458	-2.5771	-3.3917	-3.0875	-3.0875	-3.55	-3	237.509	90.235	-8.992	192.617	235.889	-25.808	-82.651	-70.485	186.436	193.446	226.466	225.116	221.267	40.146	204.823	229.257	0.00063679	0.00062085	0.00013592	888.29	5.437e-06	4.4004e-06	773.54	344.09	5.583e-06	5.3296e-06	351.02	154.19	159.38	71.594	4.0326e-06	74.309	0.0041444	0.0092821	0.002595	929.07	7.9159e-05	0.00010722	811.56	363.06	7.9998e-05	0.00010631	370.7	163.19	168.69	75.953	8.854e-05	78.952	128.441	-18.250	23.808	-78.998	62.101	74.104	-80.596	-73.705	30.492	69.123	-76.170	-72.128	-69.999	-64.785	57.314	-67.793	-8191	255	
51469.289	1	1	0	0	0.1122	0.047423	0.13914	0.10653	0.13261	0.18584	0.10934	0.33122	0.049492	0.17672	0.084961	0.12454	0.31439	0.20376	0.079938	0.30848	-2.65	-3.3771	-2.6375	-3.7188	-3.0771	-2.6875	-3.6208	-2.9667	-3.1	-3.425	-2.8583	-3.4458	-3.2667	-3.1104	-3.4792	-3.1375	135.299	84.176	-88.088	184.468	154.323	224.618	-76.999	223.944	120.781	265.666	227.654	201.014	218.221	246.503	193.767	191.867	0.00053746	0.00084623	0.00015096	883.83	5.7298e-06	4.9686e-06	771.73	345.56	6.9254e-06	5.0939e-06	350.47	154.11	159.14	71.371	6.8473e-06	74.267	0.0040705	0.0091007	0.0025436	925.6	7.7331e-05	0.00010558	812.49	363.2	7.916e-05	0.00010435	371.47	163.66	168.55	75.872	8.6989e-05	79.054	133.911	6.290	-26.887	-79.139	43.430	86.902	-80.496	-73.865	30.582	70.798	-76.036	-72.144	-69.868	-64.893	10.112	-67.901	-8191	255	
51469.387	1	1	0	0	0.30291	0.087706	0.13652	0.061176	0.1416	0.12251	0.10029	0.30331	0.060783	0.10976	0.17425	0.048844	0.21124	0.15325	0.024378	0.16469	-2.6063	-3.5479	-2.6688	-3.5563	-3.1833	-2.6125	-3.7354	-3.0938	-2.9417	-3.6667	-2.7021	-3.4396	-3.5062	-2.8104	-3.3937	-3.1458	-8.096	199.280	177.564	242.264	109.983	153.547	-81.506	217.582	165.445	19.538	-59.247	213.771	241.181	221.053	247.374	232.908	0.00052936	0.0005973	0.00017291	880.04	3.5733e-06	5.482e-06	770.57	345.67	6.4716e-06	4.1845e-06	348.65	153.81	159.53	71.174	6.3211e-06	73.875	0.0040549	0.0090177	0.0025149	920.92	7.5908e-05	0.00010484	808.34	362.34	7.8429e-05	0.00010365	369.14	162.81	168.44	75.733	8.7433e-05	78.555	132.923	-21.896	-18.658	-79.139	39.427	57.679	-80.631	-73.919	74.149	23.340	-76.161	-71.964	-69.995	-64.676	26.972	-67.773	-8191	255	
51469.484	1	1	0	0	0.043911	0.21554	0.16885	0.30843	0.084864	0.19175	0.10403	0.23849	0.16094	0.21607	0.079828	0.24974	0.22715	0.2027	0.17827	0.15097	-2.5021	-3.5833	-2.6458	-3.2521	-3.4958	-2.8583	-3.6667	-3.1667	-3.0208	-3.6271	-3.0042	-3.4062	-3.6271	-2.8875	-3.5812	-3.3021	98.539	68.475	241.285	-81.476	-57.400	262.619	87.075	223.287	83.605	103.732	-71.642	216.635	-79.353	232.547	160.849	200.266	0.00057898	0.00091789	0.00016157	879.69	4.1232e-06	5.7386e-06	770.65	343.81	6.9737e-06	8.1377e-06	349.3	153.97	159.56	71.236	4.921e-06	74.001	0.004093	0.0089079	0.0024764	919.86	7.5756e-05	0.00010465	807.5	361.67	7.8091e-05	0.00010414	369.14	162.85	168.56	75.626	8.6215e-05	78.636	122.302	-8.772	12.173	-79.050	36.767	63.378	-80.576	-73.807	15.802	63.229	-76.060	-72.215	-69.826	-64.880	83.565	-67.785	-8191	255	
51469.578	1	1	0	0	0.15168	0.161	0.19929	0.26849	0.26291	0.065929	0.13726	0.094285	0.13062	0.17274	0.13039	0.25127	0.12905	0.20688	0.069445	0.14677	-2.3833	-3.5479	-2.8958	-3.0979	-3.4208	-2.8167	-3.5333	-3.4833	-2.7562	-3.6771	-3.2667	-2.8854	-3.7771	-2.9167	-3.2562	-3.6125	162.085	261.294	64.354	254.035	55.203	50.295	219.015	-33.385	-36.633	132.671	-71.267	263.333	-43.391	239.262	194.087	257.526	0.00066755	0.00045791	0.00015053	879.33	3.4849e-06	8.1294e-06	772.43	343.46	2.3494e-06	6.412e-06	350.24	154.39	159.56	71.595	1.882e-06	74.597	0.0039941	0.0087825	0.0024662	918.88	7.4544e-05	0.00010405	808.32	362.5	7.7465e-05	0.00010106	370.38	163.48	168.8	76.087	8.3782e-05	79.329	122.594	-22.266	-0.222	-79.213	60.250	87.021	-80.439	-73.979	27.673	78.473	-76.291	-72.225	-69.648	-64.649	48.770	-67.875	-8191	255	
51469.699	1	1	0	0	0.36797	0.11998	0.2657	0.25889	0.13737	0.10078	0.21997	0.095897	0.15044	0.16624	0.14055	0.23923	0.15452	0.089001	0.22856	0.26775	-2.4667	-3.5438	-3.0625	-3.0583	-3.6208	-2.9146	-3.2729	-3.6229	-2.925	-3.4917	-3.1417	-2.9958	-3.8292	-2.7292	-3.3187	-3.5187	20.286	182.423	24.013	-45.444	79.673	137.291	226.850	-70.535	54.208	54.760	193.470	225.641	-83.720	176.424	12.792	209.400	0.00055009	0.00079447	0.0001729	881.22	6.8783e-06	6.2363e-06	768.51	344.83	5.0388e-06	7.4905e-06	351.91	154.73	159.58	71.947	4.1919e-06	74.841	0.0039765	0.0086497	0.0024249	920.69	7.4707e-05	0.00010151	809.08	363.33	7.73e-05	0.00010317	371.28	164.01	169.21	76.35	8.4134e-05	79.466	126.901	-14.990	31.367	-79.222	55.293	33.492	-80.337	-73.824	-3.662	22.398	-76.341	-71.920	-69.668	-64.752	98.829	-68.036	-8191	255	
51469.770	1	1	0	0	0.10964	0.27294	0.14878	0.15734	0.090693	0.19433	0.23165	0.144	0.13921	0.036302	0.30744	0.1476	0.01345	0.048451	0.26957	0.022556	-2.1167	-3.4333	-3.2083	-2.9	-3.5271	-3.0021	-3.2938	-3.6208	-2.8	-3.5083	-3.2896	-2.85	-3.7062	-3.0021	-3.0229	-3.7167	156.811	-47.486	-49.961	232.825	63.466	134.214	250.996	-0.030	36.814	-0.125	216.386	-68.329	244.353	124.820	-47.398	111.461	0.00066261	0.00024547	0.00017066	878.56	5.354e-06	5.701e-06	768.95	345.05	5.6086e-06	9.0016e-06	348.88	154.22	159.89	71.578	7.3614e-06	74.094	0.0039932	0.0086882	0.0024414	919.15	7.56e-05	0.00010287	808.36	362.69	7.6786e-05	0.00010093	369.4	163.07	169.32	75.86	8.4227e-05	78.645	130.261	-23.426	-6.989	-79.106	34.007	56.101	-80.515	-73.768	32.001	60.918	-76.156	-71.913	-69.886	-65.009	-0.163	-67.903	-8191	255	
51469.867	1	1	0	0	0.21991	0.061904	0.057275	0.29948	0.37592	0.070256	0.10356	0.10327	0.12097	0.17172	0.079955	0.19473	0.22081	0.041559	0.13311	0.31378	-2.2854	-3.3146	-3.2167	-2.8042	-3.6333	-2.9396	-3.0229	-3.6729	-2.7313	-3.3021	-3.4604	-2.9167	-3.6896	-3.0604	-2.8375	-3.6167	228.342	-59.785	138.742	197.478	-16.711	80.590	48.237	-80.290	241.497	-31.600	108.376	228.029	184.173	-48.613	18.837	-54.932	0.00050061	0.00048977	0.00011761	883.65	5.7754e-06	3.7488e-06	769.04	344.3	3.5387e-06	6.1426e-06	348.08	153.74	160.29	71.697	6.4775e-06	74.283	0.0038908	0.0085326	0.0023987	921.91	7.3884e-05	9.9651e-05	805.75	362	7.5445e-05	9.8755e-05	368.82	162.9	169.47	75.988	8.1351e-05	78.849	121.940	4.873	-16.122	-78.984	80.237	74.029	-80.590	-73.880	19.537	74.434	-76.127	-72.008	-69.610	-64.852	43.941	-67.872	-8191	255	
51469.984	1	1	0	0	0.18018	0.12409	0.35586	0.35714	0.38454	0.14466	0.44669	0.17163	0.2278	0.20358	0.087932	0.28605	0.18605	0.22765	0.33813	0.21936	-2.4479	-3.1875	-3.4313	-2.7542	-3.4813	-2.9292	-2.975	-3.7458	-2.7521	-2.9458	-3.55	-2.8125	-3.5021	-3.3708	-2.9625	-3.5979	-86.888	149.208	147.257	-66.793	6.751	77.939	102.281	209.809	31.810	-73.270	11.986	95.683	-25.600	207.013	23.990	222.075	0.00063822	0.00060357	0.00015011	876.5	3.9017e-06	3.9108e-06	764.34	345.79	4.6017e-06	5.8723e-06	352.25	155.8	160.8	72.371	4.8316e-06	75.481	0.0038264	0.0083363	0.0023184	916.77	7.2477e-05	9.7051e-05	803.68	362.76	7.3774e-05	9.8655e-05	372.35	164.39	169.96	76.806	8.0513e-05	80.449	128.542	-9.143	29.146	-79.271	27.095	149.400	-80.415	-73.754	19.374	60.983	-75.931	-72.124	-69.721	-64.803	24.443	-67.955	-8191	255	
51470.082	1	1	0	0	0.16692	0.29379	0.10079	0.34859	0.092696	0.26917	0.11618	0.22687	0.32245	0.17289	0.14794	0.60691	0.18205	0.24856	0.14414	0.37939	-2.3187	-3.0875	-3.5917	-2.8333	-3.4625	-3.2042	-2.7729	-3.7125	-2.8917	-2.9521	-3.5125	-2.7167	-3.5417	-3.5104	-2.5396	-3.6125	-86.848	-81.341	45.660	237.207	138.402	109.910	116.462	241.804	107.808	211.199	219.298	208.058	-69.231	262.337	-66.425	241.951	0.00063306	0.0010179	0.00019195	876.55	8.2484e-07	5.1722e-06	771.99	348.76	7.5503e-06	9.1372e-06	355.8	156.53	160.89	72.807	7.6409e-06	76.08	0.0037476	0.0081756	0.0023183	916.92	7.0632e-05	9.6146e-05	810.17	366.17	7.2652e-05	9.6767e-05	375.4	165.69	170.49	77.284	7.9584e-05	80.73	121.991	-0.147	0.498	-79.154	73.027	39.917	-80.436	-73.819	22.892	52.052	-76.108	-72.251	-69.732	-64.870	31.988	-67.937	-8191	255	
51470.180	1	1	0	0	0.20212	0.14673	0.040414	0.20987	0.26643	0.1436	0.27935	0.21247	0.24254	0.19643	0.3589	0.27997	0.13745	0.15361	0.091995	0.15277	-2.6542	-2.9313	-3.5708	-2.8667	-3.0875	-3.2917	-2.6479	-3.6583	-2.8812	-2.8917	-3.7354	-2.7125	-3.3708	-3.4271	-2.5146	-3.5542	100.144	91.384	81.918	254.834	176.494	3.624	248.863	250.537	240.780	264.419	-81.204	-85.768	-44.716	189.666	84.862	255.162	0.00066679	0.00066717	0.00010352	876.17	4.9819e-06	4.9353e-06	770.23	347.56	4.1512e-06	7.3149e-06	354.57	157	161.27	73.158	3.8485e-06	76.462	0.0037215	0.0082495	0.0022571	916.82	6.9349e-05	9.498e-05	807.43	365.54	7.1392e-05	9.5327e-05	374.3	165.73	170.68	77.567	7.8907e-05	81.031	121.854	-8.746	-11.150	-79.289	33.981	68.359	-80.397	-73.665	40.043	73.930	-76.266	-72.268	-69.578	-64.863	46.957	-67.938	-8191	255	
51470.273	1	1	0	0	0.38993	0.095025	0.043107	0.35257	0.043084	0.27215	0.21185	0.30857	0.25693	0.065407	0.18126	0.23793	0.089689	0.33513	0.17365	0.30931	-2.7125	-2.7458	-3.4417	-2.9146	-3.1437	-3.4292	-2.8312	-3.4771	-3.2062	-2.9021	-3.85	-2.9708	-3.2042	-3.6792	-2.8312	-3.5292	175.571	205.487	85.529	184.022	241.228	191.295	243.509	229.918	152.212	127.155	209.522	-82.541	-35.375	232.750	164.872	142.102	0.00064352	0.00046754	0.00012229	875.46	5.9218e-06	4.4735e-06	771.36	349.94	4.9323e-06	4.998e-06	354.54	156.81	161.81	73.389	6.6963e-06	76.756	0.0036807	0.0081594	0.0022661	917.53	6.9316e-05	9.5041e-05	808.9	366.51	7.1363e-05	9.5738e-05	375.3	166.2	171.28	77.893	7.9125e-05	81.465	125.466	-16.769	-1.749	-79.059	38.804	26.301	-80.327	-73.680	34.171	75.747	-76.058	-72.083	-69.838	-64.801	53.358	-67.883	-8191	255	
51470.371	1	1	0	0	0.06799	0.24592	0.063038	0.14056	0.087021	0.076716	0.20249	0.014954	0.10222	0.22094	0.11239	0.25781	0.3411	0.17851	0.16311	0.051711	-2.8375	-2.8125	-3.5187	-2.9458	-2.9396	-3.3771	-2.7771	-3.5333	-3.3125	-2.7812	-3.5563	-3.0979	-3.225	-3.5646	-2.7083	-3.5312	3.790	-59.473	177.828	250.687	1.795	71.116	111.018	191.764	42.052	103.047	35.878	213.559	-88.472	-79.737	96.954	235.919	0.00066829	0.00058992	0.00023238	879.85	5.6714e-06	6.9328e-06	771.61	348.64	6.0013e-06	6.0864e-06	357.02	158.22	162.53	73.59	7.9321e-06	77.556	0.0036824	0.0082836	0.0023042	918.69	7.0773e-05	9.5748e-05	809.92	367.22	7.1919e-05	9.7154e-05	376.57	166.95	171.73	78.081	7.9846e-05	82.18	123.496	-12.175	8.657	-79.166	22.538	89.171	-80.659	-73.569	3.918	38.670	-76.140	-72.110	-69.711	-64.629	76.071	-67.750	-8191	255	
51470.469	1	1	0	0	0.14305	0.27949	0.13466	0.18938	0.12924	0.071856	0.29986	0.1928	0.16449	0.1885	0.14611	0.20276	0.27571	0.20024	0.15537	0.31266	-2.9813	-2.5417	-3.4917	-3.1271	-2.7417	-3.5312	-2.8937	-3.3	-3.4042	-2.7042	-3.5375	-3.2083	-2.9479	-3.8646	-2.9167	-3.2938	267.595	199.584	139.583	189.213	123.129	121.950	215.597	156.628	-84.357	204.739	202.194	-2.364	223.543	239.273	-78.139	204.879	0.00063876	0.00097111	0.00019575	876.84	5.4684e-06	7.4575e-06	773.32	348.96	5.3806e-06	1.048e-05	357.06	157.84	162.42	73.501	3.1599e-06	77.153	0.0037253	0.0083287	0.0022926	916.56	7.1602e-05	9.8785e-05	810.76	367.26	7.2782e-05	9.668e-05	376.81	166.66	171.44	78.026	8.0442e-05	81.589	124.134	18.089	-4.084	-79.237	32.438	39.588	-80.393	-73.627	48.379	28.313	-75.976	-72.202	-69.689	-64.710	17.741	-67.681	-8191	255	
51470.586	1	1	0	0	0.054851	0.032457	0.24269	0.17695	0.063229	0.23224	0.049994	0.26642	0.18567	0.16466	0.20168	0.03827	0.23856	0.27583	0.34236	0.1058	-3.0812	-2.675	-3.5208	-3.1396	-2.7958	-3.6083	-3.1417	-3.0833	-3.6292	-2.8563	-3.4292	-3.5021	-2.9188	-3.6375	-2.9708	-3.2792	28.068	1.239	253.827	-82.359	98.445	166.841	175.553	170.024	114.945	142.652	226.760	-50.952	217.977	255.570	-80.616	265.789	0.00059565	0.00087854	0.00026259	871.89	4.7392e-06	7.0977e-06	767.67	347.26	7.0924e-06	5.5047e-06	354.79	156.81	161.65	73.394	2.313e-06	76.576	0.0037851	0.0082793	0.002253	911.36	7.0243e-05	9.6246e-05	803.69	365.63	7.2124e-05	9.6769e-05	374.66	165.94	170.97	77.902	7.958e-05	81.276	124.658	-28.319	6.979	-79.199	67.975	57.106	-80.469	-73.589	16.630	40.955	-75.985	-72.192	-69.851	-64.761	5.664	-67.875	-8191	255	
51470.684	1	1	0	0	0.13851	0.17537	0.19453	0.23681	0.39175	0.0383	0.13459	0.12921	0.37145	0.069702	0.13395	0.20013	0.24064	0.18034	0.13104	0.22288	-3.3063	-2.6937	-3.3563	-3.4313	-2.7792	-3.6167	-3.0104	-3.0312	-3.7062	-2.8021	-3.3771	-3.7396	-2.5563	-3.6792	-3.2438	-3.1354	-84.981	124.964	123.836	177.459	190.151	-90.895	51.849	203.126	232.381	52.670	106.186	-87.086	232.731	-53.664	-89.419	259.499	0.00059065	0.00069026	0.00026883	874.03	4.6497e-06	6.2762e-06	767.58	348.74	2.4196e-06	5.4302e-06	354.94	156.79	162.52	73.596	2.1718e-06	76.612	0.0037631	0.008292	0.002299	911.59	7.1394e-05	9.5732e-05	803.03	366.45	7.1743e-05	9.6303e-05	374.58	166.12	171.53	78.02	7.9952e-05	81.407	126.012	-1.721	3.487	-79.544	8.447	69.760	-80.653	-73.801	-38.945	74.330	-76.356	-72.377	-69.665	-64.675	36.456	-68.186	-8191	255	
51470.777	1	1	0	0	0.076762	0.13702	0.14564	0.27418	0.1222	0.091234	0.23666	0.088423	0.13681	0.23814	0.13081	0.1259	0.28232	0.23238	0.19715	0.1518	-3.1271	-2.7042	-3.1542	-3.4458	-2.8375	-3.5146	-3.0833	-3.0479	-3.5438	-2.7021	-3.25	-3.6208	-2.7979	-3.5479	-3.0812	-2.8833	114.556	93.887	239.143	202.910	179.969	83.547	209.208	-75.655	161.625	-11.107	-46.372	-56.510	-68.915	252.910	175.089	-23.872	0.00058936	0.00068712	0.00014633	873.19	4.7364e-06	6.0284e-06	768.91	349.82	2.5236e-06	8.3914e-06	356.46	157.71	162.48	73.83	5.0838e-06	77.127	0.0037618	0.0081747	0.0022464	911.89	7.0063e-05	9.5304e-05	803.99	366.92	7.2006e-05	9.5922e-05	375.93	166.7	171.69	78.208	7.9329e-05	81.678	124.774	-4.112	-8.675	-79.430	39.711	41.667	-80.768	-73.953	98.683	40.341	-76.469	-72.352	-69.936	-64.899	43.247	-67.987	-8191	255	
51470.875	1	1	0	0	0.17688	0.1378	0.17648	0.1196	0.037411	0.041359	0.11454	0.19958	0.23111	0.056191	0.0651	0.14096	0.24855	0.21697	0.37382	0.10543	-3.2104	-2.8625	-3.0625	-3.6104	-2.7854	-3.4167	-3.3875	-2.6521	-3.5687	-2.8125	-2.9521	-3.6458	-3.0354	-3.5438	-3.2875	-2.8417	29.304	151.056	263.660	248.720	223.051	6.898	222.651	159.188	185.466	-34.428	-15.927	229.313	228.155	123.579	-17.142	212.005	0.00061538	0.0002265	0.00014122	872.37	4.8749e-06	4.8307e-06	764.95	346.77	4.8457e-06	5.8798e-06	352.19	156.06	160.97	73.01	3.4932e-06	75.814	0.0037289	0.0080967	0.0022753	911.84	7.08e-05	9.5136e-05	802.3	364.46	7.1579e-05	9.546e-05	372.16	164.97	170.37	77.519	7.9042e-05	80.322	122.306	13.433	8.701	-79.419	46.172	-3.722	-80.927	-73.892	45.411	79.589	-76.273	-72.533	-69.898	-64.868	23.392	-67.993	-8191	255	
51470.996	1	1	0	0	0.14268	0.071959	0.14474	0.38925	0.26001	0.044463	0.059178	0.18538	0.20925	0.24448	0.20075	0.21596	0.29141	0.045764	0.081081	0.1511	-3.2396	-3.0375	-2.825	-3.6146	-2.8333	-3.2146	-3.6	-2.9771	-3.5771	-3.1896	-3.0521	-3.8104	-2.9688	-3.4125	-3.3896	-2.7667	34.869	47.328	203.738	170.320	24.290	68.171	190.839	-56.706	157.221	-49.661	257.293	-12.219	258.398	267.813	93.285	-50.037	0.00061881	0.00050114	0.00017571	863.97	5.7067e-06	4.7701e-06	759.37	344.31	8.5649e-06	9.0247e-06	350.56	154	159.95	72.67	5.7978e-06	74.796	0.0037649	0.0081651	0.0022801	905.64	7.0729e-05	9.588e-05	794.85	361.74	7.3169e-05	9.5862e-05	369.03	163.55	169.37	76.884	8.0202e-05	79.567	122.518	-34.523	-15.026	-79.422	40.109	32.898	-80.509	-74.041	40.626	59.436	-76.326	-72.010	-70.003	-64.972	30.714	-67.916	-8191	255	
51471.066	1	1	0	0	0.15996	0.12658	0.23979	0.16968	0.11939	0.2311	0.10247	0.054864	0.18297	0.0894	0.14219	0.1374	0.11809	0.081408	0.14185	0.15793	-3.1917	-3.1396	-2.9437	-3.575	-2.7729	-3.1188	-3.6729	-2.8208	-3.475	-3.2625	-2.9188	-3.4875	-3.0646	-3.3438	-3.5312	-2.9458	-29.750	0.372	-45.631	-91.892	244.816	143.184	7.654	7.915	-22.964	67.166	214.978	43.801	-35.098	126.869	47.854	180.441	0.00057001	0.00071267	0.00024656	865.88	5.6401e-06	6.7033e-06	758.75	342.18	3.9102e-06	7.9799e-06	350.53	154.49	159.72	72.492	4.5023e-06	75.091	0.0037903	0.0082639	0.0023288	905.27	7.1224e-05	9.5157e-05	793.93	360.47	7.2838e-05	9.6702e-05	368.78	163.16	169.15	76.752	8.0043e-05	79.74	122.705	-10.087	10.120	-79.426	69.118	72.084	-80.792	-74.137	38.148	54.109	-76.504	-72.470	-70.085	-64.878	18.135	-68.138	-8191	255	
51471.164	1	1	0	0	0.10774	0.2166	0.11301	0.10205	0.22503	0.18298	0.19404	0.25303	0.12303	0.13881	0.26613	0.095732	0.15862	0.21319	0.11909	0.12595	-3.0271	-3.2021	-2.5708	-3.6333	-2.9229	-3.0812	-3.5187	-2.8167	-3.2708	-3.4208	-2.9	-3.6583	-3.2917	-2.9938	-3.5146	-2.9542	73.105	100.288	152.168	244.597	264.549	202.072	-81.451	152.189	249.558	36.364	-65.743	-81.354	266.126	182.381	89.872	172.300	0.00061406	0.00053464	0.00018692	862.39	6.1491e-06	4.2498e-06	757.93	343.85	5.0961e-06	5.5565e-06	351.01	154.9	159.76	72.871	4.5812e-06	75.593	0.003731	0.0081098	0.0023124	902.09	6.9821e-05	9.4864e-05	793.07	361.36	7.2043e-05	9.6284e-05	370.31	163.86	168.99	77.172	7.8409e-05	80.248	129.038	-13.223	-3.840	-79.424	34.587	42.313	-80.686	-74.141	57.799	78.543	-76.308	-72.260	-70.029	-64.855	28.383	-68.154	-8191	255	
51471.285	1	1	0	0	0.073665	0.17496	0.08674	0.12515	0.20644	0.15945	0.085495	0.13894	0.18593	0.20063	0.023269	0.13299	0.23489	0.11841	0.073564	0.20028	-2.75	-3.2104	-2.4958	-3.6021	-2.9479	-2.9271	-3.7938	-2.8042	-3.2521	-3.4688	-2.9458	-3.5938	-3.4208	-2.9771	-3.7687	-2.8771	62.431	213.811	-49.484	163.696	239.265	19.876	80.413	23.050	193.555	130.150	-19.955	-62.999	226.808	249.700	249.663	166.550	0.00060401	0.0005146	5.4309e-06	862.93	5.3008e-06	3.7214e-06	754.53	342.7	6.4859e-06	5.6194e-06	348.6	154.34	159.54	72.362	4.0525e-06	74.718	0.0037844	0.0082028	0.002296	901.57	7.0561e-05	9.6314e-05	792.36	360.73	7.1888e-05	9.5534e-05	368.34	163.19	168.62	76.801	7.9633e-05	79.517	125.737	5.615	-60.909	-79.402	37.772	22.982	-80.767	-73.978	26.994	68.354	-76.526	-72.289	-69.967	-64.858	23.183	-68.142	-8191	255	
51471.379	1	1	0	0	0.402	0.19852	0.25463	0.2712	0.042004	0.09931	0.20209	0.068118	0.09073	0.18773	0.096811	0.07361	0.22022	0.40316	0.20665	0.30905	-2.7375	-3.4542	-2.6083	-3.475	-3.1854	-2.9021	-3.6146	-2.7458	-2.7917	-3.4958	-2.8708	-3.4604	-3.4729	-2.7521	-3.5896	-2.9375	-42.165	-32.331	259.237	186.206	48.038	262.835	199.430	68.076	36.116	215.960	7.771	-2.764	223.457	241.179	187.763	121.601	0.00053641	0.00066479	0.0002264	860.82	1.9135e-06	6.2783e-06	748.34	342.16	5.2031e-06	6.3021e-06	348.38	154.04	158.75	72.736	5.2415e-06	75.301	0.0037073	0.0082551	0.0022955	899.47	6.9781e-05	9.5739e-05	786.56	359.54	7.2974e-05	9.5844e-05	367.76	163.05	168.63	76.979	7.8565e-05	79.96	125.977	19.495	2.187	-79.317	30.178	51.522	-80.733	-73.914	49.052	113.570	-76.367	-72.414	-69.923	-64.925	15.293	-68.129	-8191	255	
51471.473	1	1	0	0	0.21234	0.18445	0.086269	0.088984	0.15799	0.142	0.099397	0.19582	0.31356	0.16968	0.071936	0.27837	0.044601	0.32428	0.08975	0.18369	-2.6396	-3.5438	-2.7875	-3.3187	-3.4188	-2.7313	-3.6312	-3.1229	-2.8229	-3.5542	-2.8729	-3.2771	-3.4396	-2.6937	-3.4146	-3.1562	-25.623	245.934	103.931	199.458	65.397	-34.189	75.485	24.702	157.266	177.281	136.047	239.443	226.603	260.411	59.332	-1.328	0.00066429	0.00075557	0.00017128	853.94	5.6967e-06	6.8636e-06	752	344	5.7151e-06	4.9254e-06	351.27	155.95	159.81	73.267	3.8831e-06	76.357	0.0036904	0.0081218	0.0022953	895.14	6.9969e-05	9.5237e-05	787.79	361.3	7.2045e-05	9.4846e-05	370.57	164.56	169.27	77.59	7.8428e-05	81.04	126.478	-50.862	-22.597	-79.442	21.623	82.944	-80.689	-74.032	50.157	62.089	-76.274	-72.038	-69.883	-64.845	68.260	-68.247	-8191	255	
51471.570	1	1	0	0	0.082325	0.087176	0.13197	0.11592	0.065269	0.14691	0.12071	0.11114	0.064799	0.14319	0.27619	0.096521	0.23793	0.33403	0.078579	0.061891	-2.55	-3.5938	-2.8167	-3.2604	-3.4813	-2.8896	-3.6042	-3.3417	-2.8104	-3.6292	-2.9396	-3.0938	-3.7229	-2.8396	-3.3167	-3.4167	257.696	88.879	-52.400	-73.740	212.613	-51.771	-88.476	204.204	89.248	247.167	-81.886	172.625	212.118	195.905	14.415	-20.484	0.00065426	0.00050119	0.00011661	860.07	4.8568e-06	6.509e-06	755.33	346.04	2.4391e-06	7.4078e-06	354.28	156.46	160.46	73.588	6.6497e-06	76.673	0.0037292	0.0081578	0.0022601	897.92	6.937e-05	9.5845e-05	791.96	364.01	7.184e-05	9.5797e-05	373.42	165.48	170.14	78.123	7.9027e-05	81.362	118.350	-12.874	2.749	-79.357	63.994	68.752	-80.765	-73.983	77.064	36.327	-76.734	-72.347	-70.204	-64.877	35.016	-68.139	-8191	255	
51471.668	1	1	0	0	0.19817	0.10856	0.16653	0.23102	0.18712	0.05995	0.37754	0.061083	0.15588	0.12853	0.28219	0.14653	0.2081	0.28375	0.056917	0.1969	-2.4437	-3.6542	-3.025	-3.0583	-3.4917	-2.7875	-3.4771	-3.5187	-2.6896	-3.5938	-3.0833	-3.0021	-3.6979	-2.8646	-3.2646	-3.6229	-47.357	47.429	-75.039	-54.547	61.297	-70.722	196.523	200.400	130.053	32.093	136.110	-31.869	-81.129	-85.228	177.493	236.324	0.00058704	0.00065233	0.0002013	864.83	7.4157e-06	4.0943e-06	755.94	344.94	7.5442e-06	8.6536e-06	351.74	154.9	159.46	72.828	5.8397e-06	75.75	0.0037564	0.0080752	0.0022908	902.13	6.9418e-05	9.5965e-05	791.61	362.67	7.1986e-05	9.5046e-05	370.45	164.1	168.99	77.395	7.9281e-05	80.387	122.695	-4.889	0.106	-79.303	67.751	40.575	-80.719	-74.089	26.451	69.343	-76.613	-72.267	-69.877	-64.738	28.816	-68.078	-8191	255	
51471.762	1	1	0	0	0.25536	0.17492	0.055512	0.37466	0.13754	0.0029391	0.068503	0.29337	0.17815	0.1073	0.08256	0.16707	0.24029	0.1492	0.258	0.1336	-2.1958	-3.3854	-3.0167	-2.825	-3.5917	-2.5687	-3.2438	-3.525	-2.8063	-3.4333	-3.2583	-2.7687	-3.6604	-3.175	-2.9521	-3.6229	160.844	-87.182	215.958	240.400	170.145	19.771	-18.769	223.554	131.806	159.079	160.247	7.525	-19.471	63.910	242.936	229.304	0.00056267	0.00052676	0.00021624	852.84	6.9394e-06	5.1796e-06	750.55	343.87	7.2798e-06	9.1591e-06	350.22	155	158.99	72.895	6.449e-06	75.923	0.0037703	0.0081946	0.0022917	890.07	6.9955e-05	9.7502e-05	785.89	361.71	7.2499e-05	9.472e-05	370.13	163.73	168.45	77.289	7.9834e-05	80.593	120.873	-18.719	25.057	-79.298	66.972	67.569	-80.697	-73.772	21.794	61.428	-76.425	-72.338	-69.919	-64.813	64.568	-67.888	-8191	255	
51471.859	1	1	0	0	0.1483	0.11524	0.11036	0.31114	0.20522	0.1695	0.074235	0.090638	0.015756	0.099205	0.1892	0.11285	0.33939	0.065655	0.10116	0.042027	-2.2938	-3.3958	-3.0563	-2.8771	-3.5417	-3	-2.9583	-3.6937	-2.6583	-3.275	-3.2667	-2.7417	-3.6771	-3.2208	-2.9062	-3.6437	165.891	29.123	157.703	264.327	221.195	197.188	-29.095	-70.183	186.811	258.483	202.185	105.914	256.948	-83.295	237.031	27.310	0.00056146	0.00049912	9.0658e-05	855.54	3.8064e-06	6.2485e-06	753.77	344.92	4.6429e-06	9.6834e-06	353.81	155.49	160.6	73.029	5.2442e-06	76.393	0.003743	0.0080686	0.0022567	893.83	6.8109e-05	9.5252e-05	792.39	362.7	7.0701e-05	9.3554e-05	373.31	164.66	169.65	77.463	7.7556e-05	80.9	126.595	0.042	8.133	-79.286	42.128	29.276	-80.710	-73.922	4.954	41.465	-76.544	-72.350	-70.022	-64.876	62.686	-68.046	-8191	255	
51471.953	1	1	0	0	0.18841	0.11831	0.18455	0.22223	0.026922	0.085811	0.18247	0.25556	0.21596	0.14164	0.036089	0.22723	0.048789	0.12986	0.063266	0.1428	-2.2854	-3.3208	-3.1104	-2.7604	-3.55	-3.1292	-2.8708	-3.6125	-2.7167	-3.0708	-3.3479	-2.7125	-3.7479	-3.1625	-2.8625	-3.7854	-69.527	-9.906	198.880	47.826	-58.663	83.278	229.992	215.996	-80.444	99.106	-52.018	-78.608	154.749	7.239	143.094	263.740	0.00064991	0.00081437	0.00028267	864.96	3.0337e-06	4.7194e-06	766.59	346.33	2.7567e-06	7.6014e-06	355.13	155.74	160.94	72.312	8.64e-06	74.998	0.0036628	0.0079092	0.0022449	903.22	6.8097e-05	9.2751e-05	802.88	364.66	6.9988e-05	9.3543e-05	374.39	164.96	170.39	77.05	7.8424e-05	79.735	125.724	-6.619	8.603	-79.372	-5.195	43.076	-80.710	-74.027	41.697	72.102	-76.548	-72.321	-70.047	-64.798	54.049	-67.997	-8191	255	
51472.074	1	1	0	0	0.063161	0.10121	0.23357	0.21618	0.18951	0.14319	0.25852	0.33991	0.10055	0.19393	0.25224	0.1149	0.17821	0.14554	0.28877	0.12983	-2.3063	-3.1562	-3.5125	-2.7562	-3.5479	-2.9458	-2.8688	-3.7417	-2.8812	-3.1437	-3.5438	-2.6688	-3.5792	-3.2458	-2.5271	-3.7792	-54.895	-4.598	173.412	-72.693	21.372	131.840	223.191	231.824	265.128	-5.759	187.880	-57.135	-84.522	-74.912	-55.026	249.654	0.0006444	0.0007615	0.00020686	866.29	4.7761e-06	5.8927e-06	757.77	343.46	6.8467e-06	3.5006e-06	348.71	152.96	159.96	71.762	5.5049e-06	74.156	0.0036971	0.0080445	0.0022911	906.8	6.9802e-05	9.575e-05	795.55	360.92	7.2222e-05	9.6061e-05	368.55	162.23	168.92	76.253	7.9314e-05	78.76	127.613	11.886	-13.468	-79.513	9.580	77.668	-80.610	-73.930	25.371	51.254	-76.236	-72.572	-69.903	-64.894	31.027	-68.044	-8191	255	
51472.172	1	1	0	0	0.089618	0.22539	0.064119	0.12678	0.10366	0.080377	0.4002	0.18673	0.040662	0.070162	0.053471	0.087558	0.18627	0.11642	0.12118	0.13434	-2.6104	-2.9729	-3.4458	-2.6312	-3.3354	-3.2333	-2.7958	-3.6875	-2.9562	-2.9813	-3.5833	-3.0021	-3.3625	-3.6333	-2.8229	-3.7208	-36.290	50.911	-16.818	209.717	221.693	202.067	192.416	169.957	18.243	96.029	166.737	136.097	227.923	129.455	-72.378	-63.405	0.00056653	0.00055456	0.00020368	855.57	3.1366e-06	6.9655e-06	751.45	340.63	4.2834e-06	7.6658e-06	347.4	153.06	159.14	71.642	5.7375e-06	74.004	0.0037217	0.008222	0.0022694	894.81	7.0024e-05	9.546e-05	787.85	359.06	7.3007e-05	9.6599e-05	367.41	161.79	168.6	76.145	8.2222e-05	78.562	124.907	4.964	10.050	-79.372	1.867	29.974	-80.558	-73.862	55.798	48.294	-76.365	-72.179	-69.809	-64.676	58.867	-67.855	-8191	255	
51472.270	1	1	0	0	0.22736	0.14064	0.30574	0.26183	0.30955	0.10324	0.24646	0.058345	0.13978	0.14003	0.027988	0.04549	0.25415	0.20756	0.074602	0.02161	-2.5583	-2.8771	-3.3958	-2.8542	-3.225	-3.4875	-2.725	-3.5396	-3.2125	-2.8479	-3.7062	-2.9417	-3.2438	-3.4271	-2.5625	-3.5979	128.266	100.151	189.758	245.023	175.915	24.725	139.340	216.536	102.693	84.436	-6.847	-60.579	262.489	191.982	184.553	136.063	0.00067706	0.00061491	0.0001659	853.45	2.6772e-06	7.4409e-06	747.36	340.24	5.1504e-06	5.1631e-06	347.17	153.14	158.86	71.522	6.9662e-06	74.082	0.0037858	0.008357	0.00234	894.03	7.1764e-05	9.7091e-05	785.44	358.56	7.404e-05	9.9663e-05	366.74	161.98	168.15	76.076	8.1831e-05	78.656	126.718	-5.729	-6.547	-79.443	131.197	93.626	-80.636	-74.136	18.339	24.841	-76.247	-72.239	-69.827	-64.714	27.782	-68.083	-8191	255	
51472.363	1	1	0	0	0.22188	0.33096	0.24933	0.22226	0.079854	0.088296	0.17295	0.23013	0.077125	0.14222	0.25146	0.20944	0.15327	0.19845	0.037555	0.12327	-2.7042	-2.7438	-3.4917	-2.8917	-2.925	-3.4562	-2.7875	-3.4	-3.0542	-2.6688	-3.7396	-2.7792	-3.0021	-3.6937	-2.6583	-3.5708	260.101	140.344	199.466	32.514	186.646	-63.592	132.583	-81.854	112.728	242.672	-52.962	239.823	262.518	-13.509	169.938	239.148	0.00060879	0.00061251	0.00021282	855.29	7.4053e-06	9.1226e-06	749.41	342.27	2.1922e-06	8.2266e-06	348.13	152.74	158.56	71.798	5.2145e-06	74.272	0.0037699	0.0084474	0.0023722	893.87	7.1767e-05	9.8585e-05	786.74	359.44	7.348e-05	9.7784e-05	367.04	161.6	168.06	76.376	8.1447e-05	78.883	123.064	-9.757	-8.181	-79.227	41.034	41.735	-80.651	-73.885	79.838	63.635	-76.275	-72.361	-69.825	-64.735	30.707	-68.047	-8191	255	
51472.461	1	1	0	0	0.30879	0.37542	0.025585	0.17138	0.067233	0.30725	0.10418	0.15402	0.054645	0.15328	0.1599	0.073128	0.25801	0.24385	0.18277	0.064582	-3.0958	-2.625	-3.4562	-3.0354	-2.8563	-3.6792	-2.875	-3.3021	-3.3396	-2.7458	-3.7229	-3.1875	-2.9375	-3.6958	-2.825	-3.2417	97.957	207.238	82.075	198.325	86.650	83.732	237.903	198.898	59.401	266.870	85.404	225.663	217.429	-82.262	16.952	152.953	0.00064264	0.00067056	0.00014094	852.42	5.708e-06	4.3083e-06	743.31	342.95	3.644e-06	8.6976e-06	348.94	153.27	159.55	72.452	6.4434e-06	75.097	0.0037885	0.0083505	0.0023253	890.9	7.144e-05	9.6515e-05	780.2	360.81	7.3052e-05	9.701e-05	367.16	161.98	168.69	77.047	7.9891e-05	79.849	120.859	-3.672	-36.371	-79.360	46.059	120.435	-80.539	-73.855	33.057	82.187	-76.287	-72.332	-69.753	-64.749	30.035	-67.987	-8191	255	
51472.555	1	1	0	0	0.22774	0.071049	0.086991	0.035099	0.10289	0.1	0.028355	0.21676	0.21526	0.21492	0.18904	0.1555	0.15891	0.19875	0.18679	0.13082	-3.1625	-2.6063	-3.3083	-3.15	-2.7354	-3.6833	-2.9708	-3.175	-3.3979	-2.6333	-3.5604	-3.1771	-2.9333	-3.8125	-2.9021	-3.2687	255.317	20.167	252.030	101.487	17.068	223.448	220.723	211.321	247.707	122.498	250.462	-21.688	231.550	116.944	-15.193	258.839	0.00053889	0.00079837	0.00022886	850.55	4.2046e-06	2.1061e-06	748.48	344.84	7.3524e-06	7.6317e-06	351.65	154.78	160.09	73.347	5.6988e-06	76.229	0.0037648	0.0082691	0.0023106	888.89	7.1701e-05	9.6816e-05	782.35	362.88	7.2226e-05	9.729e-05	370.79	163.56	169.46	77.768	7.8646e-05	80.729	121.387	-4.168	-6.094	-79.375	100.043	125.744	-80.695	-73.845	34.499	56.441	-76.143	-72.462	-69.988	-64.699	19.825	-67.964	-8191	255	
51472.676	1	1	0	0	0.37809	0.20207	0.18339	0.046729	0.11604	0.14515	0.070952	0.37006	0.21695	0.038756	0.10565	0.30502	0.36472	0.21353	0.30545	0.18232	-3.1188	-2.7229	-3.3167	-3.3229	-2.6937	-3.4396	-3.0375	-3.0208	-3.4854	-2.4708	-3.2292	-3.3937	-2.8292	-3.7333	-2.8833	-3.0271	34.412	-62.047	195.428	245.060	-8.236	85.693	120.249	195.772	148.441	55.348	163.804	230.941	227.972	257.066	25.884	239.381	0.00062277	0.00090394	0.00020522	849.35	7.8821e-06	9.7574e-06	746.06	345.98	4.5531e-06	6.9963e-06	353.12	154.96	159.81	73.63	3.268e-06	76.427	0.0037418	0.0081983	0.0022994	889.09	7.1261e-05	9.5697e-05	783.94	364.32	7.3119e-05	9.6795e-05	372.42	164.12	169.54	78.102	8.0677e-05	81.307	118.147	-6.012	1.806	-79.590	42.972	54.212	-80.488	-73.837	72.976	57.356	-76.349	-72.180	-69.772	-64.614	68.802	-68.081	-8191	255	
51472.770	1	1	0	0	0.011448	0.13932	0.096317	0.14133	0.2934	0.19187	0.16914	0.25032	0.1635	0.19872	0.12013	0.19487	0.28718	0.0016509	0.22511	0.17896	-3.1646	-2.6042	-3.1958	-3.4021	-2.6729	-3.4792	-3.1875	-2.8896	-3.5854	-2.7958	-3.3521	-3.5187	-2.8229	-3.5417	-3.1604	-3.025	52.350	-19.721	-47.953	-84.208	22.493	-10.395	268.118	240.266	140.425	192.266	-30.311	-90.758	236.400	180.000	54.279	187.360	0.00062708	0.00078461	0.00017693	851.99	5.8474e-06	5.265e-06	751.15	347.59	7.6048e-07	8.6723e-06	355.33	156.07	160.57	74.05	1.0725e-05	76.909	0.0037626	0.0082961	0.0022814	891.28	7.2082e-05	9.5926e-05	786.81	365.41	7.2637e-05	9.6151e-05	373.88	164.79	169.96	78.44	7.9562e-05	81.658	126.300	-27.772	-4.433	-79.111	58.342	44.183	-80.651	-73.810	81.905	89.216	-76.406	-72.441	-69.883	-64.649	62.733	-68.129	-8191	255	
51472.867	1	1	0	0	0.10644	0.20306	0.078081	0.219	0.11281	0.17226	0.10367	0.016378	0.11229	0.18669	0.27204	0.080589	0.051169	0.23456	0.071693	0.16153	-3.2333	-2.8333	-2.8542	-3.6562	-2.6708	-3.4583	-3.1896	-2.7333	-3.4729	-2.8063	-3.1417	-3.6375	-2.9313	-3.5	-3.3063	-3.0375	33.419	111.114	225.495	237.905	192.188	-34.418	172.786	-83.493	265.503	80.815	-65.391	176.404	229.045	-76.496	-75.789	242.935	0.00062264	0.0004069	0.00013794	849.39	6.4982e-06	4.9396e-06	748.8	349.08	6.2788e-06	7.8109e-06	357.01	156.93	160.83	74.303	7.0702e-06	77.654	0.0037631	0.0082315	0.0022807	888.13	7.0861e-05	9.5814e-05	784.79	367.3	7.2878e-05	9.5823e-05	375.48	165.66	170.4	79.016	7.9547e-05	82.567	120.916	-23.638	-0.356	-79.385	21.059	60.442	-80.817	-73.690	31.429	59.436	-76.158	-72.299	-69.748	-64.767	68.183	-67.799	-8191	255	
51472.938	1	1	0	0	0.077188	0.094812	0.1907	0.15778	0.25959	0.059828	0.23084	0.2508	0.20472	0.13045	0.38928	0.13082	0.23179	0.1341	0.27906	0.11977	-3.4104	-2.9875	-2.8833	-3.6813	-2.6125	-3.4083	-3.3792	-3.0542	-3.5271	-2.9896	-2.9729	-3.775	-2.9313	-3.4562	-3.4167	-2.9667	222.844	-6.359	166.493	182.148	61.673	146.900	159.815	215.853	222.540	177.463	236.170	133.973	-65.888	174.286	258.535	133.571	0.00062459	0.00049602	0.00017859	851.51	5.5729e-06	5.2606e-06	752.09	351.2	4.2878e-06	6.6117e-06	357.88	157.21	162.48	75.053	1.1969e-06	78.168	0.0037418	0.008157	0.0022872	893.32	7.0478e-05	9.5124e-05	789.08	369.21	7.1957e-05	9.5404e-05	376.56	166.43	171.84	79.644	7.9306e-05	83.092	123.246	-65.716	-6.263	-79.304	33.866	56.462	-80.661	-73.801	-13.237	69.878	-75.979	-72.152	-69.746	-64.693	24.953	-68.061	-8191	255	
51473.059	1	1	0	0	0.18643	0.20231	0.05191	0.052047	0.11898	0.0099604	0.13991	0.26323	0.040801	0.19015	0.28358	0.19165	0.40889	0.1023	0.082219	0.25889	-3.2292	-3.0271	-2.7875	-3.8021	-2.75	-3.2438	-3.6771	-2.9354	-3.5312	-3.1063	-2.8979	-3.5771	-3.0521	-3.2625	-3.5958	-2.7125	81.163	112.157	187.077	-58.907	126.378	-8.253	146.846	257.010	109.597	-34.379	114.285	-76.516	192.441	-70.063	133.731	227.484	0.00065377	0.00051916	0.0001242	858.85	6.506e-06	8.6619e-06	752.68	351.21	4.729e-06	7.3133e-06	357.53	157.95	162.83	75.206	3.4339e-06	78.827	0.0037358	0.0081225	0.0022815	895.46	7.0288e-05	9.6217e-05	790.57	369.53	7.2243e-05	9.5095e-05	377.02	166.91	172.21	79.838	8.0422e-05	83.475	120.027	40.554	-1.405	-79.273	36.290	69.268	-80.608	-73.994	17.752	91.316	-76.131	-72.053	-69.759	-64.644	127.247	-68.088	-8191	255	
51473.156	1	1	0	0	0.15655	0.17286	0.10075	0.23624	0.025395	0.13365	0.17176	0.18988	0.20664	0.11425	0.22621	0.19075	0.18592	0.22296	0.30988	0.028049	-2.9583	-3.1875	-2.7396	-3.7583	-2.8396	-3.0458	-3.6	-3.0333	-3.4208	-3.1396	-2.9958	-3.5104	-3.1729	-3.1896	-3.5104	-2.7979	239.550	253.488	58.691	258.723	-26.115	11.461	-32.910	204.060	103.285	88.682	226.741	212.556	-72.811	220.654	-71.864	148.262	0.00064587	0.00027616	0.00013324	859.89	7.8981e-06	3.9123e-06	756.98	351.6	2.3399e-06	7.9399e-06	356.46	157.43	162.33	75.056	3.0552e-06	77.945	0.0036957	0.0081323	0.0022742	897.46	7.0293e-05	9.5412e-05	793.41	369.41	7.1383e-05	9.5673e-05	376.48	166.51	171.84	79.727	8.0095e-05	82.601	127.776	-1.920	6.092	-79.279	13.345	94.227	-80.654	-73.969	26.942	47.009	-76.223	-72.275	-69.905	-64.671	34.334	-68.000	-8191	255	
51473.254	1	1	0	0	0.20427	0.060327	0.17666	0.048491	0.23626	0.064097	0.30872	0.33371	0.12012	0.10619	0.1314	0.071793	0.073559	0.23047	0.11479	0.21597	-3.1188	-3.4167	-2.4354	-3.8125	-3.2	-2.8104	-3.6604	-2.7604	-3.2438	-3.4792	-2.7313	-3.5354	-3.1417	-2.9437	-3.5792	-2.8979	61.575	179.550	180.624	-26.707	-0.181	1.773	175.567	240.255	180.405	77.702	148.145	39.682	-90.492	228.590	-76.164	192.383	0.00065573	0.00075175	0.00017683	853.11	6.6487e-06	5.9377e-06	751.1	350.26	5.5561e-06	7.6398e-06	356.02	157.16	162.26	75.28	4.4037e-06	77.899	0.0037096	0.0080788	0.0022782	893.46	6.8358e-05	9.5776e-05	786.84	368.26	7.1704e-05	9.4279e-05	375.55	166.3	171.72	79.78	7.8573e-05	82.846	126.519	-2.892	-15.373	-79.234	30.060	74.148	-80.508	-73.874	35.303	36.289	-76.158	-72.086	-69.967	-64.687	61.400	-68.141	-8191	255	
51473.348	1	1	0	0	0.13241	0.14058	0.046383	0.17361	0.24193	0.13739	0.14493	0.08205	0.18511	0.18512	0.48009	0.17468	0.12337	0.10386	0.080623	0.19525	-2.8063	-3.4042	-2.5854	-3.5604	-3.0583	-2.7562	-3.8292	-2.9958	-3.0854	-3.4708	-2.6396	-3.5479	-3.3875	-2.7896	-3.7625	-3.0438	1.615	159.874	201.502	-5.115	9.384	-34.209	-77.255	185.747	-60.098	-32.007	156.119	229.382	222.304	-80.879	98.890	175.467	0.00065188	0.00076319	0.00012281	855.48	6.5194e-06	3.6868e-06	754.19	350.82	4.7539e-06	6.8644e-06	356.6	157.42	162.74	75.391	5.9907e-06	78.085	0.0037043	0.0080482	0.002288	894.84	6.9044e-05	9.4575e-05	790.14	369.19	7.0702e-05	9.4444e-05	376.08	166.61	172.16	79.922	7.9092e-05	82.979	124.106	-35.510	18.784	-79.047	38.508	56.025	-80.705	-73.873	48.374	75.681	-76.201	-72.038	-69.898	-64.579	59.542	-68.032	-8191	255	
51473.469	1	1	0	0	0.19401	0.2368	0.2488	0.12288	0.12339	0.17803	0.10875	0.23707	0.083281	0.20504	0.12691	0.24418	0.23364	0.16907	0.17533	0.31737	-2.6646	-3.5062	-2.6813	-3.5583	-3.1833	-2.8875	-3.6271	-3.0917	-2.9792	-3.5521	-2.8458	-3.5625	-3.4375	-2.8771	-3.4396	-3.0646	-86.615	-13.430	147.268	253.820	52.209	121.913	217.221	-7.355	-4.028	66.310	-63.229	250.325	-86.976	186.595	214.586	224.755	0.00071289	0.00080671	0.00024077	862.7	7.5777e-06	4.945e-06	759.85	351.24	4.4449e-06	7.1307e-06	358.4	158.75	163.32	75.764	7.0497e-06	78.903	0.0037189	0.0080223	0.0022854	898.52	6.9904e-05	9.4896e-05	795.42	369.73	7.091e-05	9.4988e-05	378.29	167.69	172.81	80.145	7.8637e-05	83.591	119.151	14.930	3.459	-79.228	33.957	26.831	-80.559	-73.871	59.535	74.091	-76.267	-72.052	-69.785	-64.674	22.488	-68.088	-8191	255	
51473.539	1	1	0	0	0.036298	0.19474	0.20894	0.051911	0.10238	0.17557	0.27888	0.11134	0.21113	0.10959	0.26701	0.34162	0.24344	0.14535	0.051636	0.044045	-2.4375	-3.3375	-2.8312	-3.2438	-3.3563	-2.6229	-3.5458	-3.3146	-2.8417	-3.4521	-2.8354	-3.1208	-3.7	-3.0458	-3.5875	-3.2812	217.034	265.642	-73.867	240.206	-29.297	243.280	143.124	246.690	-17.407	106.623	191.340	-35.882	179.499	192.460	228.107	139.996	0.00063408	0.00059908	0.00018101	864.61	2.9429e-06	3.8117e-06	760.09	353.08	4.0885e-06	5.0577e-06	359.72	158.38	163.13	75.379	4.9038e-06	78.535	0.0037212	0.0081155	0.0022723	899.18	6.9467e-05	9.5579e-05	796.06	370.81	7.1621e-05	9.4994e-05	378.04	167.51	172.41	79.946	7.7927e-05	83.214	124.265	10.161	12.121	-79.250	62.680	84.025	-80.727	-74.032	41.399	95.261	-76.166	-71.864	-69.771	-64.705	44.962	-68.081	-8191	255	
51473.637	1	1	0	0	0.10434	0.14299	0.24669	0.045591	0.12607	0.27961	0.11678	0.41688	0.26956	0.24752	0.11705	0.17632	0.31043	0.26854	0.31826	0.17323	-2.3563	-3.5667	-2.8708	-3.2396	-3.5229	-2.7188	-3.4437	-3.4313	-2.8354	-3.5062	-3.1333	-3.2667	-3.7438	-2.925	-3.5208	-3.5729	138.700	56.924	-58.875	214.407	-25.777	173.987	236.638	218.105	-0.295	131.259	204.909	-91.265	242.162	147.701	207.730	236.339	0.00064211	0.00075765	0.00018789	856.35	7.4042e-06	6.6235e-06	753.7	351.44	3.5336e-06	3.8539e-06	357.56	157.49	162.9	75.331	7.7042e-06	78.153	0.0037538	0.0080568	0.0022569	896.63	6.8808e-05	9.4259e-05	793.01	369.82	7.2912e-05	9.4567e-05	377.06	166.87	172.65	80.008	7.8303e-05	83.041	126.703	-32.540	21.855	-78.910	39.383	24.602	-80.332	-73.754	79.782	20.544	-76.336	-72.185	-69.713	-64.538	28.262	-67.964	-8191	255	
51473.754	1	1	0	0	0.26674	0.14877	0.16453	0.084534	0.044259	0.1882	0.095462	0.17372	0.19004	0.048385	0.2552	0.16098	0.20962	0.054541	0.093597	0.069111	-2.2188	-3.7167	-2.9729	-2.9688	-3.5229	-2.775	-3.3854	-3.5042	-2.8333	-3.5687	-3.0833	-2.9229	-3.6208	-2.9	-3.2021	-3.5271	-10.880	246.520	-63.031	209.635	-52.595	206.921	233.499	200.607	-84.845	46.317	81.534	-77.357	214.803	224.144	11.011	136.541	0.00060407	0.00067441	0.0001829	859.22	1.1959e-06	3.393e-06	763.37	351.77	1.7189e-06	5.8043e-06	358.04	158.01	163.77	75.409	3.0903e-06	78.578	0.0037611	0.0081255	0.0022608	898.35	6.9961e-05	9.4911e-05	796.22	369.48	7.1835e-05	9.4046e-05	377.88	167.14	173.03	79.931	7.9249e-05	83.337	120.989	-15.270	-10.945	-79.069	-36.649	47.265	-80.559	-73.775	19.427	69.876	-76.074	-72.030	-69.750	-64.686	84.942	-68.060	-8191	255	
51473.852	1	1	0	0	0.18934	0.17514	0.1052	0.16053	0.2322	0.14909	0.079971	0.33634	0.19877	0.2037	0.036071	0.19761	0.4998	0.32931	0.2477	0.074338	-2.2875	-3.5292	-3.0146	-2.9146	-3.6729	-2.9646	-3.2438	-3.7542	-2.65	-3.55	-3.4	-2.8833	-3.5938	-3.1479	-3.0396	-3.7562	186.469	97.051	256.347	112.576	186.088	68.362	78.923	165.734	37.280	146.084	224.604	259.624	-53.815	253.186	249.502	125.244	0.00061129	0.00059074	0.00023396	859.29	6.673e-06	5.6512e-06	764.36	353.03	4.7885e-06	3.8941e-06	360.65	159.49	163.98	75.705	5.3809e-06	79.266	0.0037928	0.008067	0.0022493	897.82	7.0349e-05	9.4779e-05	799.51	370.66	7.2183e-05	9.384e-05	380.4	168.37	173.34	80.458	7.8777e-05	83.937	121.963	-26.863	-0.526	-78.966	37.554	70.505	-80.140	-73.874	8.591	60.299	-75.961	-72.085	-69.466	-64.479	45.907	-67.892	-8191	255	
51473.949	1	1	0	0	0.15471	0.17576	0.12909	0.10034	0.12305	0.16848	0.059068	0.17313	0.083108	0.15512	0.32133	0.22198	0.18947	0.22492	0.10084	0.059117	-2.3458	-3.4396	-3.2083	-2.8208	-3.6021	-3.0229	-3.0854	-3.6271	-2.7396	-3.3083	-3.4208	-2.8167	-3.7188	-3.2354	-2.9146	-3.6771	93.658	250.961	129.435	-57.507	14.565	10.165	248.853	184.331	-50.423	84.295	212.902	222.609	261.913	236.711	121.017	229.329	0.00063693	0.00066246	0.00022982	860.24	5.0107e-06	7.1851e-06	762.13	352.4	4.1171e-06	6.9548e-06	357.16	157.83	163.36	75.581	3.927e-06	78.154	0.0037904	0.0080536	0.0022574	899.29	6.9606e-05	9.4804e-05	797.75	370.4	7.2393e-05	9.3884e-05	376.78	167	172.79	80.154	7.9325e-05	82.894	116.703	14.766	12.225	-78.782	38.362	88.128	-80.353	-73.767	-19.830	68.122	-76.295	-72.161	-69.583	-64.588	17.920	-67.914	-8191	255	
51474.066	1	1	0	0	0.13912	0.14621	0.077628	0.031268	0.19354	0.070386	0.08644	0.17521	0.13819	0.17046	0.13942	0.28376	0.34666	0.29244	0.20563	0.2071	-2.4833	-3.1167	-3.3833	-2.8167	-3.6167	-3.0042	-3.0729	-3.6146	-2.9104	-3.1729	-3.4646	-2.9146	-3.6896	-3.2729	-2.7687	-3.9	262.003	-34.457	-76.658	205.219	100.614	157.018	185.865	-77.420	251.356	134.656	11.094	209.567	-62.020	-61.079	86.575	214.428	0.00064623	0.000759	0.00023613	860.82	4.2886e-06	7.8046e-06	763.78	351.94	2.8981e-06	7.6243e-06	357.24	157.46	163.68	75.516	3.0586e-06	77.851	0.0037387	0.0081516	0.0022842	900.3	6.9868e-05	9.3709e-05	796.18	369.99	7.1446e-05	9.4896e-05	376.34	166.88	173.12	80.069	7.9378e-05	82.76	125.199	-4.393	10.364	-78.924	-0.699	45.515	-80.294	-73.640	26.514	78.708	-76.184	-72.043	-69.621	-64.443	12.598	-67.735	-8191	255	
51474.164	1	1	0	0	0.069838	0.13657	0.12197	0.038416	0.086779	0.10426	0.23003	0.042738	0.15147	0.17703	0.25185	0.24135	0.16325	0.10889	0.16526	0.19087	-2.5208	-3.0625	-3.4125	-2.8083	-3.5771	-3.3958	-2.8875	-3.6625	-3.0333	-2.9979	-3.6	-2.8833	-3.5958	-3.4375	-2.7271	-3.7438	197.455	219.383	111.735	21.106	-55.926	3.930	173.382	-64.907	30.467	19.479	202.624	173.151	-54.858	162.505	168.304	-78.749	0.0006218	0.00067193	0.00020849	860.61	5.2949e-06	2.9221e-06	757.1	352.7	6.741e-06	7.3989e-06	357.44	158.21	163.98	75.524	3.5025e-06	78.221	0.0037165	0.0080892	0.0022603	899.84	6.9008e-05	9.5082e-05	795.08	370.5	7.174e-05	9.5437e-05	376.56	166.84	173.28	80.132	7.9375e-05	82.982	117.914	4.888	26.753	-79.033	17.442	31.437	-80.121	-73.617	65.017	45.031	-75.931	-72.197	-69.579	-64.645	57.953	-67.693	-8191	255	
51474.234	1	1	0	0	0.1194	0.1513	0.1837	0.19293	0.04869	0.056344	0.34402	0.15485	0.16585	0.019164	0.27203	0.38569	0.32457	0.26406	0.17856	0.35101	-2.6833	-2.9	-3.3958	-2.8958	-3.3812	-3.5083	-2.8083	-3.4521	-3.0625	-2.8958	-3.5854	-2.8021	-3.175	-3.5479	-2.6146	-3.6188	54.166	-6.345	213.147	254.627	262.351	-31.574	201.040	188.735	55.512	263.821	-53.324	222.256	260.825	198.081	22.598	217.197	0.00054823	0.0006014	0.00025274	861.24	3.5407e-06	5.3619e-06	763.92	352.75	3.684e-06	6.5542e-06	357.85	158.55	164.24	75.475	3.7533e-06	78.007	0.0037078	0.0081241	0.0022906	901.32	6.8866e-05	9.4114e-05	798.76	370.89	7.145e-05	9.4855e-05	377.63	167.39	173.84	80.181	8.0349e-05	82.781	124.237	-17.768	-0.468	-78.968	33.509	33.459	-80.394	-73.719	45.531	57.249	-76.000	-72.181	-69.456	-64.654	34.260	-67.785	-8191	255	
51474.355	1	1	0	0	0.3413	0.063071	0.09527	0.16134	0.15278	0.17896	0.28722	0.26984	0.13203	0.16369	0.27733	0.37931	0.2667	0.3067	0.25659	0.038831	-2.6625	-2.8958	-3.7354	-2.9417	-3.1562	-3.4729	-2.9125	-3.3625	-3.2229	-2.8896	-3.525	-3.0875	-3.2542	-3.7062	-2.6625	-3.425	134.123	165.399	10.847	6.547	169.740	26.730	210.826	202.347	97.895	-66.505	-54.634	245.441	261.866	-77.694	114.551	-79.015	0.00061411	0.00072204	0.0002126	860.64	6.6862e-06	3.2746e-06	756.63	353.21	5.3634e-06	8.5092e-06	355.26	157.2	163.82	75.342	4.9032e-06	78.071	0.0037428	0.0082002	0.0022627	899.95	6.8907e-05	9.546e-05	793.99	370.33	7.1426e-05	9.6284e-05	375.32	166.11	172.92	79.985	7.9613e-05	82.464	122.894	-5.290	-14.570	-79.157	70.494	72.644	-80.453	-73.536	25.362	31.460	-75.853	-72.067	-69.534	-64.506	10.741	-67.723	-8191	255	
51474.449	1	1	0	0	0.28497	0.14942	0.1142	0.18887	0.35421	0.11832	0.10499	0.14804	0.2375	0.27039	0.075621	0.40522	0.29119	0.095342	0.20596	0.25043	-2.8438	-2.7354	-3.4458	-3.05	-2.9417	-3.5146	-3.0583	-3.6333	-3.25	-2.8021	-3.7625	-2.9625	-3.2	-3.8417	-2.7542	-3.5604	104.771	241.597	213.320	108.015	192.672	62.539	215.054	163.030	263.473	252.063	72.591	254.046	236.023	204.425	109.772	-68.382	0.00064522	0.00063204	0.00025321	858.01	3.6875e-06	5.968e-06	758.26	352.8	5.2576e-06	4.3529e-06	355.28	157.21	163.53	75.607	2.7699e-06	77.737	0.0037335	0.0081742	0.0022465	896.42	6.8593e-05	9.4942e-05	791.89	369.75	7.0286e-05	9.6405e-05	374.4	166.37	173.06	80.166	7.7909e-05	82.487	123.439	-9.515	7.318	-78.933	72.627	62.653	-80.372	-73.300	41.805	68.428	-75.916	-72.239	-69.328	-64.162	58.906	-67.566	-8191	255	
51474.547	1	1	0	0	0.13651	0.16622	0.16592	0.23387	0.10563	0.10179	0.14299	0.15108	0.17626	0.037831	0.25247	0.15145	0.10441	0.2049	0.27334	0.12426	-3.0854	-2.7479	-3.5208	-3.0625	-2.7562	-3.5854	-2.8875	-3.3375	-3.3688	-2.8667	-3.5771	-3.2521	-2.9083	-3.7438	-2.8187	-3.35	233.800	160.554	5.513	247.449	7.065	33.336	-8.366	-63.172	267.337	235.401	257.313	239.848	-43.519	-82.039	256.180	-63.042	0.00061286	0.00067623	0.00018061	859.15	4.6949e-06	7.3442e-06	759.6	353.95	2.1752e-06	8.5787e-06	356.77	158.01	164.05	75.762	4.6698e-06	78.271	0.0037218	0.0081308	0.0022493	898.61	6.9e-05	9.4016e-05	794.44	371.54	7.1829e-05	9.6e-05	376.08	166.9	173.44	80.298	7.8387e-05	83.048	121.105	-9.303	5.146	-78.667	14.856	51.305	-80.317	-73.610	30.179	45.649	-75.911	-71.944	-69.517	-64.409	12.620	-67.559	-8191	255	
51474.645	1	1	0	0	0.067935	0.17937	0.08057	0.19108	0.10427	0.040465	0.13137	0.16127	0.060157	0.072148	0.17142	0.14818	0.20594	0.30878	0.36666	0.1406	-3.1188	-2.7313	-3.3917	-3.3979	-2.6542	-3.7417	-2.8542	-3.0938	-3.4646	-2.6854	-3.5	-3.2042	-2.9875	-3.6542	-2.8979	-3.2542	113.954	-40.440	-60.149	-52.736	130.509	-28.503	-66.481	212.527	73.057	210.427	138.952	157.775	-17.018	-52.585	239.098	-90.643	0.00065955	0.00091699	0.000209	861.88	2.817e-06	5.863e-06	760.75	354.44	3.0576e-06	6.3152e-06	358.1	158.43	164.29	75.658	7.5525e-06	78.28	0.0037309	0.0080843	0.0021997	901.95	6.8913e-05	9.4027e-05	798.1	371.81	7.0611e-05	9.478e-05	378.59	167.45	173.63	80.347	7.8204e-05	82.94	128.345	-12.848	-15.532	-78.898	40.210	19.463	-80.180	-73.444	14.390	63.978	-75.728	-71.898	-69.054	-64.317	59.116	-67.585	-8191	255	
51474.766	1	1	0	0	0.033305	0.096711	0.024185	0.32537	0.30305	0.19582	0.060541	0.23735	0.088617	0.32368	0.11432	0.14139	0.2833	0.27829	0.089173	0.16173	-3.2	-2.6104	-3.4854	-3.5375	-2.6063	-3.5812	-3.1542	-3.1875	-3.6042	-2.8667	-3.5167	-3.4479	-2.8875	-3.5563	-3.0812	-3.0312	59.182	2.775	-29.398	194.286	-15.913	248.008	263.328	267.163	129.380	219.239	128.704	-21.348	251.707	247.409	199.810	153.638	0.00066917	0.00055018	0.00024499	864.32	6.3911e-06	8.5459e-06	756.7	353.12	6.3668e-06	5.0115e-06	359.94	158.21	163.98	75.622	6.7655e-06	78.313	0.0036707	0.0080516	0.002202	901	6.7428e-05	9.2037e-05	793.54	371.27	6.901e-05	9.1328e-05	377.57	167.07	173.46	80.301	7.4798e-05	82.819	120.118	-8.618	5.108	-79.006	51.623	49.436	-80.139	-73.344	37.511	81.981	-75.897	-71.884	-69.226	-64.220	69.806	-67.521	-8191	255	
51474.836	1	1	0	0	0.045495	0.23113	0.05975	0.25835	0.14128	0.19236	0.17277	0.35782	0.13254	0.047931	0.2145	0.14289	0.05437	0.35585	0.20962	0.068404	-3.3563	-2.7292	-3.1292	-3.6021	-2.7375	-3.4625	-3.2625	-2.6083	-3.4688	-2.6896	-3.0625	-3.6875	-2.7146	-3.5625	-3.2979	-2.8083	107.631	-90.034	23.739	240.553	18.198	184.068	230.225	262.921	83.548	137.128	170.479	-82.069	94.127	202.503	8.197	131.235	0.00068994	0.00066085	0.00017112	863.08	7.4265e-06	3.3108e-06	759.92	354.43	7.0222e-06	8.1979e-06	359.98	159.2	164.19	76.191	5.1376e-06	78.88	0.0035764	0.0076488	0.002177	898.74	6.7213e-05	9.0891e-05	795.32	371.93	6.7883e-05	9.075e-05	378.84	167.98	173.77	80.769	7.4544e-05	83.509	129.223	-23.863	26.723	-78.625	30.897	69.366	-80.104	-73.324	2.222	71.107	-75.714	-71.712	-69.306	-64.189	42.928	-67.477	-8191	255	
51474.934	1	1	0	0	0.086109	0.19799	0.089272	0.028359	0.21908	0.029395	0.11809	0.17433	0.10756	0.1329	0.088583	0.18332	0.37123	0.23047	0.041833	0.10842	-3.3167	-2.9542	-3.0438	-3.6396	-2.65	-3.5021	-3.2396	-2.9313	-3.4625	-2.9896	-3.0312	-3.7229	-2.7708	-3.2646	-3.3958	-2.6667	124.575	240.390	-87.797	129.556	243.207	136.414	121.064	227.388	98.044	187.057	1.946	-45.104	-81.976	262.603	-72.316	228.762	0.00058335	0.00055695	9.8803e-05	863.21	5.126e-06	6.6928e-06	762.88	355.92	3.2878e-06	5.1656e-06	360.05	159.56	165.47	76.196	5.019e-06	79.503	0.0035902	0.0076971	0.0021662	900.36	6.6494e-05	9.2026e-05	798.54	373.42	6.8776e-05	9.0709e-05	380.31	168.82	174.61	80.882	7.5657e-05	83.928	125.414	-9.673	-39.144	-78.936	82.348	69.554	-80.182	-73.206	-3.152	57.269	-75.678	-71.831	-69.306	-63.891	64.923	-67.454	-8191	255	
51475.027	1	1	0	0	0.073298	0.087991	0.049881	0.21617	0.27378	0.12701	0.14175	0.28692	0.069287	0.068918	0.1724	0.11648	0.15512	0.40172	0.11621	0.25928	-3.2687	-2.8917	-3.0021	-3.4	-2.7	-3.3917	-3.4833	-2.7	-3.6042	-3.1479	-2.8333	-3.7917	-3.0146	-3.3312	-3.3667	-2.875	75.501	134.087	-41.236	209.598	-42.909	89.759	-38.464	213.581	53.385	-20.350	154.409	5.289	212.995	266.257	40.138	-59.794	0.00068591	0.0007474	0.00015386	864.55	6.5377e-06	8.1355e-06	765.76	354.62	3.0559e-06	6.0235e-06	362.09	160.25	165.15	76.146	3.1656e-06	78.744	0.0036566	0.0077889	0.0022341	903.24	6.7098e-05	9.0654e-05	804.5	373.1	6.9202e-05	9.2313e-05	380.57	168.94	174.44	80.731	7.6343e-05	83.503	123.021	-16.404	-14.863	-78.652	37.045	63.281	-79.992	-73.238	16.883	70.551	-75.570	-71.677	-69.229	-64.088	30.778	-67.523	-8191	255	
51475.148	1	1	0	0	0.077703	0.1435	0.21321	0.20425	0.17954	0.02788	0.17674	0.18903	0.25439	0.24434	0.14162	0.065139	0.46148	0.11245	0.18913	0.27958	-3.2542	-3.2042	-2.5438	-3.6792	-2.8458	-3.0604	-3.5792	-2.6833	-3.4313	-3.2792	-2.8646	-3.6917	-3.0521	-3.2417	-3.6667	-2.9583	174.439	239.022	167.306	-47.899	-63.953	216.760	67.114	210.089	267.826	137.611	192.338	232.246	202.587	186.203	-9.014	212.560	0.00063598	0.00060392	0.00032293	861.72	2.3967e-06	8.513e-06	761.83	353.93	6.0492e-06	4.4455e-06	360.14	159.42	164.98	76.249	1.8893e-06	78.816	0.0036121	0.0077773	0.0021863	901.37	6.6918e-05	8.9512e-05	799.5	371.44	6.9225e-05	8.8813e-05	378.95	168.09	174.2	80.755	7.454e-05	83.504	124.123	-14.197	12.566	-78.493	62.321	87.615	-80.132	-73.265	18.335	73.342	-75.656	-71.438	-69.185	-63.858	55.713	-67.471	-8191	255	
51475.246	1	1	0	0	0.056233	0.18971	0.10625	0.2278	0.11967	0.15707	0.30069	0.31358	0.15333	0.11082	0.15011	0.090544	0.29564	0.15246	0.25838	0.25201	-3.0771	-3.1813	-2.7146	-3.6521	-2.9292	-2.9688	-3.8042	-2.8438	-3.3104	-3.4562	-2.9354	-3.7521	-3.2625	-3.1937	-3.6729	-2.9229	132.780	-45.562	209.075	107.238	266.885	-3.338	186.514	166.750	-25.499	232.404	257.240	221.073	197.248	236.782	176.469	235.818	0.00060455	0.00079705	0.00018551	862.09	6.2301e-06	5.8341e-06	764.5	354.11	3.3233e-06	7.687e-06	360.28	159.39	165.47	76.525	2.5835e-06	79.348	0.003531	0.0076204	0.0021459	899.51	6.6044e-05	8.818e-05	799.91	371.57	6.7207e-05	8.7534e-05	379.87	168.67	174.34	81.013	7.3492e-05	84.06	125.175	-2.656	27.991	-78.550	14.701	81.637	-80.086	-73.107	21.984	60.966	-75.697	-71.616	-69.101	-63.998	17.198	-67.299	-8191	255	
51475.340	1	1	0	0	0.082483	0.052702	0.24199	0.27107	0.027722	0.13554	0.23088	0.086496	0.29839	0.040004	0.29013	0.16373	0.4603	0.18238	0.20545	0.037418	-2.8729	-3.4854	-2.65	-3.4771	-3.175	-2.9146	-3.7438	-2.9896	-3.2333	-3.5979	-2.8625	-3.6604	-3.2125	-3.1146	-3.5729	-2.8958	-83.835	192.027	191.603	184.431	147.321	191.650	170.758	226.240	220.147	-52.429	195.398	213.565	176.214	212.170	-80.261	99.352	0.00061848	0.00056059	0.00020645	861.04	7.9382e-06	3.6687e-06	769.08	355.67	3.0066e-06	5.6149e-06	365.81	161.53	165.75	76.952	4.8103e-06	80.277	0.0035136	0.0075308	0.0021244	899.13	6.424e-05	8.8528e-05	802.88	373.79	6.6972e-05	8.7586e-05	384.12	170.54	175.36	81.54	7.2984e-05	85.163	120.508	20.019	5.805	-78.653	62.787	16.586	-79.987	-73.016	87.545	55.828	-75.456	-71.395	-68.950	-63.901	25.306	-67.223	-8191	255	
51475.438	1	1	0	0	0.13962	0.1959	0.11367	0.32542	0.13605	0.19666	0.13921	0.28036	0.28729	0.088863	0.051807	0.24404	0.04278	0.23794	0.099826	0.37335	-2.6562	-3.4729	-2.55	-3.65	-3.3104	-2.6229	-3.6937	-3.0854	-3.0292	-3.6104	-2.7354	-3.5396	-3.4062	-2.8042	-3.4625	-3.1021	-90.201	39.751	-15.081	-40.384	168.591	178.481	99.092	-68.416	-76.080	104.825	65.710	209.307	-10.500	241.964	-70.468	238.358	0.00066405	0.00051269	0.00023258	862.19	4.4454e-06	6.8413e-06	770.57	359	4.0393e-06	4.576e-06	366.7	162.73	166.11	77.206	3.3506e-06	80.938	0.0034978	0.0075367	0.0021349	901.08	6.4209e-05	8.9027e-05	804.18	377.07	6.6981e-05	8.8054e-05	387.45	171.46	175.38	81.897	7.331e-05	85.578	126.889	-16.914	11.161	-78.439	33.573	45.550	-79.905	-72.962	71.162	33.524	-75.357	-71.526	-68.973	-63.716	-24.453	-67.292	-8191	255	
51475.531	1	1	0	0	0.09987	0.08984	0.226	0.14173	0.30721	0.16516	0.076602	0.1728	0.12673	0.12785	0.13756	0.17977	0.28291	0.23993	0.030072	0.18611	-2.6708	-3.6417	-2.6354	-3.5812	-3.3792	-2.5833	-3.6979	-3.1958	-2.9583	-3.5896	-2.9417	-3.3396	-3.4792	-2.9292	-3.5687	-3.3458	228.247	166.474	185.400	246.364	8.835	-32.263	86.795	-54.237	95.184	38.408	261.401	-58.926	214.292	235.727	197.815	140.273	0.00068735	0.00049086	0.00018574	863.1	1.2689e-06	3.4683e-06	765.67	360.66	4.291e-06	5.597e-06	368.38	162.42	166.28	77.967	4.2685e-06	81.484	0.003475	0.0074987	0.0020775	900.27	6.3966e-05	8.8241e-05	803.3	378.49	6.7205e-05	8.6698e-05	387.88	171.55	175.57	82.429	7.3439e-05	86.255	124.046	-26.222	16.211	-78.497	108.163	46.701	-79.592	-73.128	-0.003	40.498	-75.554	-71.488	-68.953	-63.825	32.442	-67.406	-8191	255	
51475.629	1	1	0	0	0.18061	0.23416	0.058106	0.26085	0.16151	0.05138	0.0494	0.14501	0.12894	0.16794	0.28404	0.17149	0.045928	0.069454	0.26159	0.033269	-2.4396	-3.6	-2.7188	-3.2292	-3.4229	-2.9167	-3.4396	-3.2021	-2.8583	-3.5625	-2.9854	-3.0938	-3.6188	-2.8646	-3.2979	-3.3875	87.645	211.369	134.330	-63.149	153.042	170.929	-50.951	-80.889	165.112	126.996	184.620	249.814	143.020	223.180	-19.019	120.043	0.0006494	0.00057271	0.00022252	863.73	4.2521e-06	5.2768e-06	772.91	359.34	6.8359e-06	9.036e-06	368.62	162.12	166.55	77.56	3.4851e-06	81.311	0.0035539	0.0075081	0.0021274	901.13	6.4939e-05	8.942e-05	807.4	377.19	6.7422e-05	8.9114e-05	387.06	171.45	175.78	82.212	7.2842e-05	85.974	121.098	-3.141	24.397	-78.133	-2.312	70.900	-79.716	-73.087	37.398	34.972	-75.398	-71.209	-68.847	-63.898	23.213	-67.302	-8191	255	
51475.746	1	1	0	0	0.1122	0.16975	0.07364	0.14084	0.14302	0.33762	0.082683	0.25549	0.20072	0.1782	0.15011	0.13131	0.047225	0.26488	0.34501	0.12406	-2.4062	-3.6104	-2.9146	-2.9771	-3.5333	-2.5354	-3.4875	-3.4813	-2.6229	-3.5875	-3.0812	-2.8063	-3.6875	-2.8042	-3.0729	-3.5896	61.154	256.256	84.653	144.561	246.639	-15.470	228.223	252.026	216.808	7.949	126.476	167.899	212.860	169.273	-0.962	261.851	0.00069709	0.00067657	0.00021633	861.43	5.061e-06	6.7486e-06	776.09	357.52	4.4909e-06	5.4386e-06	366.48	162.25	166.98	77.363	8.5839e-06	80.732	0.0035659	0.0075869	0.0021232	901.84	6.4662e-05	8.9999e-05	810.87	375.86	6.7747e-05	8.9367e-05	385.92	171.48	176.06	81.987	7.2691e-05	85.618	127.556	-35.881	0.658	-78.128	58.075	68.624	-79.671	-72.985	24.463	50.252	-75.473	-71.512	-69.024	-63.733	72.969	-67.753	-8191	255	
51475.844	1	1	0	0	0.05794	0.11311	0.21992	0.14079	0.15926	0.13113	0.16977	0.28577	0.20766	0.06701	0.22889	0.33037	0.13628	0.14024	0.16998	0.15135	-2.3375	-3.4646	-2.9562	-2.8604	-3.45	-2.7479	-3.1417	-3.5542	-2.675	-3.5104	-3.2542	-2.9208	-3.8771	-3	-3.1333	-3.6813	77.866	149.467	-51.380	225.452	-29.297	-65.896	-82.466	155.003	160.274	56.218	260.217	210.891	190.109	182.457	-27.272	206.914	0.00065379	0.00056807	0.00014655	865.29	5.8201e-06	3.445e-06	771.8	356.49	1.7961e-06	7.4718e-06	364.7	160.74	165.76	76.88	5.4976e-06	80.189	0.003592	0.0075072	0.0020704	903.1	6.4488e-05	8.7813e-05	808.64	374.28	6.7255e-05	8.7609e-05	383.84	170.1	175.09	81.451	7.2821e-05	84.861	131.327	-7.752	-15.944	-78.664	31.206	53.866	-79.845	-73.227	86.982	62.660	-75.533	-71.778	-68.950	-63.894	4.888	-67.408	-8191	255	
51475.941	1	1	0	0	0.04649	0.12297	0.097464	0.16496	0.14704	0.11789	0.1345	0.21478	0.0631	0.082805	0.087394	0.22325	0.083231	0.3001	0.11327	0.34693	-2.3083	-3.4313	-3.1667	-2.9562	-3.6833	-2.9583	-3.0396	-3.6667	-2.65	-3.4188	-3.4958	-2.8708	-3.6333	-3.1083	-2.9708	-3.6375	193.067	50.892	44.830	231.980	113.493	84.646	130.036	209.965	41.361	-7.333	-36.809	248.593	-69.601	-64.767	-16.457	185.156	0.00064599	0.0007298	0.0001008	860.18	7.5782e-06	8.3704e-06	770.52	353.94	8.4086e-06	7.5087e-06	364.36	161.11	165.5	76.871	4.8339e-06	80.359	0.0034952	0.0074421	0.0020549	897.28	6.3501e-05	8.6981e-05	804.75	373.44	6.6217e-05	8.6302e-05	383.79	170.17	175	81.536	7.2368e-05	85.327	128.332	-10.947	-12.712	-78.452	46.111	62.079	-80.564	-73.919	26.039	52.084	-76.232	-72.410	-69.686	-64.871	28.748	-68.194	-8191	255	
#DATA ENDS
