BOXY.EXE: ISS Imagent and Oximeter Data Acquisition Program Version 0.80
Ascii Record File

#ACQ INFORMATION
2  Detector Channels 
16  External MUX Channels 
1  Auxiliary Channels 
5000  Waveform (CCF) Frequency (Hz)
1  Waveforms Skipped 
30  Waveforms Averaged 
1  Cycles Averaged 
16  Acquisitions per Waveform 
10.0806  Updata Rate (Hz) 

#FILE INFORMATION
TRUE -- External MUX Channel results are PARSED.
FALSE -- AC DC and Phase are NOT grouped.
TRUE -- Companion Program Settings File CREATED.
FALSE -- AC data not excluded
FALSE -- DC data not excluded
FALSE -- Phase data not excluded
FALSE -- Auxillary Chn. data not excluded
Tab delimiters

#CALIBRATION STATE
TRUE -- Waveform Calibration Values APPLIED.


#AUX CALIBRATION VALUES
Val Type	aux-1	

Term	1.0000e+00	
Factor	0.0000e+00	


#WF CALIBRATION VALUES
A = Detector Channel
Val Type	A-AC1	A-AC2	A-AC3	A-AC4	A-AC5	A-AC6	A-AC7	A-AC8	A-AC9	A-AC10	A-AC11	A-AC12	A-AC13	A-AC14	A-AC15	A-AC16	A-DC1	A-DC2	A-DC3	A-DC4	A-DC5	A-DC6	A-DC7	A-DC8	A-DC9	A-DC10	A-DC11	A-DC12	A-DC13	A-DC14	A-DC15	A-DC16	A-Ph1	A-Ph2	A-Ph3	A-Ph4	A-Ph5	A-Ph6	A-Ph7	A-Ph8	A-Ph9	A-Ph10	A-Ph11	A-Ph12	A-Ph13	A-Ph14	A-Ph15	A-Ph16	

Term	0.00000e+00	0.00000e+00	0.00000e+00	0.00000e+00	0.00000e+00	0.00000e+00	0.00000e+00	0.00000e+00	0.00000e+00	0.00000e+00	0.00000e+00	0.00000e+00	0.00000e+00	0.00000e+00	0.00000e+00	0.00000e+00	0.00000e+00	0.00000e+00	0.00000e+00	0.00000e+00	0.00000e+00	0.00000e+00	0.00000e+00	0.00000e+00	0.00000e+00	0.00000e+00	0.00000e+00	0.00000e+00	0.00000e+00	0.00000e+00	0.00000e+00	0.00000e+00	0.00000e+00	0.00000e+00	0.00000e+00	0.00000e+00	0.00000e+00	0.00000e+00	0.00000e+00	0.00000e+00	0.00000e+00	0.00000e+00	0.00000e+00	0.00000e+00	0.00000e+00	0.00000e+00	0.00000e+00	0.00000e+00	
Factor	1.00000e+00	1.00000e+00	1.00000e+00	1.00000e+00	1.00000e+00	1.00000e+00	1.00000e+00	1.00000e+00	1.00000e+00	1.00000e+00	1.00000e+00	1.00000e+00	1.00000e+00	1.00000e+00	1.00000e+00	1.00000e+00	1.00000e+00	1.00000e+00	1.00000e+00	1.00000e+00	1.00000e+00	1.00000e+00	1.00000e+00	1.00000e+00	1.00000e+00	1.00000e+00	1.00000e+00	1.00000e+00	1.00000e+00	1.00000e+00	1.00000e+00	1.00000e+00	X	X	X	X	X	X	X	X	X	X	X	X	X	X	X	X	

B = Detector Channel
Val Type	B-AC1	B-AC2	B-AC3	B-AC4	B-AC5	B-AC6	B-AC7	B-AC8	B-AC9	B-AC10	B-AC11	B-AC12	B-AC13	B-AC14	B-AC15	B-AC16	B-DC1	B-DC2	B-DC3	B-DC4	B-DC5	B-DC6	B-DC7	B-DC8	B-DC9	B-DC10	B-DC11	B-DC12	B-DC13	B-DC14	B-DC15	B-DC16	B-Ph1	B-Ph2	B-Ph3	B-Ph4	B-Ph5	B-Ph6	B-Ph7	B-Ph8	B-Ph9	B-Ph10	B-Ph11	B-Ph12	B-Ph13	B-Ph14	B-Ph15	B-Ph16	

Term	0.00000e+00	0.00000e+00	0.00000e+00	0.00000e+00	0.00000e+00	0.00000e+00	0.00000e+00	0.00000e+00	0.00000e+00	0.00000e+00	0.00000e+00	0.00000e+00	0.00000e+00	0.00000e+00	0.00000e+00	0.00000e+00	0.00000e+00	0.00000e+00	0.00000e+00	0.00000e+00	0.00000e+00	0.00000e+00	0.00000e+00	0.00000e+00	0.00000e+00	0.00000e+00	0.00000e+00	0.00000e+00	0.00000e+00	0.00000e+00	0.00000e+00	0.00000e+00	-1.94746e+02	-1.29429e+02	-1.23296e+02	-1.81177e+02	-8.24941e+01	-6.72532e+01	-1.58393e+02	-1.62015e+02	-8.26879e+01	-6.57740e+01	-1.70238e+02	-1.70284e+02	-1.81041e+02	-1.76563e+02	-7.59332e+01	-1.49301e+02	
Factor	3.81472e-05	1.55800e-04	4.27792e-05	1.56288e-01	1.59967e-06	1.59687e-06	1.72052e-01	5.78622e-02	1.65686e-06	1.77183e-06	8.97467e-02	3.04905e-02	2.59666e-02	9.04681e-03	1.74401e-06	1.28027e-02	2.48459e-05	6.22447e-05	1.74435e-05	8.03579e-02	5.30800e-07	7.33201e-07	8.33309e-02	2.98252e-02	5.43097e-07	7.33792e-07	4.50204e-02	1.52899e-02	1.34928e-02	4.71424e-03	5.97119e-07	6.48029e-03	X	X	X	X	X	X	X	X	X	X	X	X	X	X	X	X	



#DISTANCE SETTINGS
A = Detector Channel
A-1	A-2	A-3	A-4	A-5	A-6	A-7	A-8	A-9	A-10	A-11	A-12	A-13	A-14	A-15	A-16	

2.5000e+00	3.0000e+00	2.5000e+00	3.0000e+00	2.0000e+00	3.0000e+00	1.5000e+00	3.0000e+00	3.0000e+00	3.0000e+00	3.0000e+00	3.0000e+00	3.0000e+00	3.0000e+00	1.5000e+00	3.0000e+00	

B = Detector Channel
B-1	B-2	B-3	B-4	B-5	B-6	B-7	B-8	B-9	B-10	B-11	B-12	B-13	B-14	B-15	B-16	

1.0000e+01	1.0000e+01	1.0000e+01	1.4400e+00	1.0000e+01	1.0000e+01	1.5100e+00	1.9400e+00	1.0000e+01	1.0000e+01	1.9900e+00	2.4900e+00	2.4100e+00	2.9000e+00	1.0000e+01	2.9800e+00	




#DATA BEGINS
time	group	step	mark	flag	A-AC1	A-AC2	A-AC3	A-AC4	A-AC5	A-AC6	A-AC7	A-AC8	A-AC9	A-AC10	A-AC11	A-AC12	A-AC13	A-AC14	A-AC15	A-AC16	A-DC1	A-DC2	A-DC3	A-DC4	A-DC5	A-DC6	A-DC7	A-DC8	A-DC9	A-DC10	A-DC11	A-DC12	A-DC13	A-DC14	A-DC15	A-DC16	A-Ph1	A-Ph2	A-Ph3	A-Ph4	A-Ph5	A-Ph6	A-Ph7	A-Ph8	A-Ph9	A-Ph10	A-Ph11	A-Ph12	A-Ph13	A-Ph14	A-Ph15	A-Ph16	B-AC1	B-AC2	B-AC3	B-AC4	B-AC5	B-AC6	B-AC7	B-AC8	B-AC9	B-AC10	B-AC11	B-AC12	B-AC13	B-AC14	B-AC15	B-AC16	B-DC1	B-DC2	B-DC3	B-DC4	B-DC5	B-DC6	B-DC7	B-DC8	B-DC9	B-DC10	B-DC11	B-DC12	B-DC13	B-DC14	B-DC15	B-DC16	B-Ph1	B-Ph2	B-Ph3	B-Ph4	B-Ph5	B-Ph6	B-Ph7	B-Ph8	B-Ph9	B-Ph10	B-Ph11	B-Ph12	B-Ph13	B-Ph14	B-Ph15	B-Ph16	aux-1	digaux	

51353.152	1	1	0	768	0.16061	0.20731	0.20382	0.22206	0.31951	0.083082	0.16746	0.31309	0.054087	0.16805	0.10353	0.42614	0.36562	0.17604	0.099717	0.15005	-2.9104	-2.3167	-3.3542	-3.1708	-2.5875	-3.6125	-2.8	-3.15	-3.4167	-2.475	-3.4958	-3.125	-2.8021	-3.7104	-2.7917	-3.0292	-91.086	84.251	46.781	161.712	-82.318	66.726	155.867	187.602	15.149	123.553	146.156	162.549	-108.990	178.563	37.860	47.532	0.00099717	0.0007364	0.00024942	1044.2	9.6916e-06	6.5144e-06	978.24	414.3	7.1435e-06	6.8037e-06	437.59	183.05	172.45	72.801	8.0503e-06	76.22	0.0028739	0.0056945	0.0015595	1054.5	5.0601e-05	6.4717e-05	989.96	421.68	5.0362e-05	6.753e-05	445.37	186.87	176.13	74.691	5.6577e-05	78.426	135.950	-41.971	-38.929	-122.174	-4.704	-3.519	-123.507	-116.547	-25.583	-10.040	-118.632	-114.305	-112.144	-106.590	-39.657	-109.069	-8191	255	
51353.250	1	1	0	0	0.19228	0.089901	0.15442	0.093984	0.1529	0.030303	0.14083	0.13765	0.023683	0.19299	0.259	0.11498	0.090618	0.28808	0.22894	0.11871	-3.1521	-2.575	-3.4021	-3.2917	-2.6167	-3.5604	-2.9146	-3.0812	-3.4896	-2.8354	-3.4354	-3.4354	-2.7771	-3.4271	-3.0583	-2.9313	179.238	-64.684	-90.575	129.463	-108.138	148.611	-123.773	182.289	-7.108	-73.633	215.739	219.538	140.006	194.376	181.020	133.361	0.00099745	0.00060106	2.8798e-05	1046.1	3.3137e-06	7.3105e-06	975.49	413.67	7.0264e-06	8.5548e-06	435.1	183.28	172.84	73.062	7.5184e-06	76.612	0.0028834	0.0057181	0.001617	1053.6	4.843e-05	6.7421e-05	986.68	420.11	5.0557e-05	6.746e-05	443.42	186.99	176.31	74.884	5.5865e-05	78.81	140.449	-42.710	-75.441	-122.161	0.331	27.811	-123.645	-116.523	-19.652	13.974	-118.406	-114.476	-112.153	-106.500	-13.030	-109.225	-8191	255	
51353.348	1	1	0	0	0.13544	0.155	0.17609	0.26017	0.20915	0.051682	0.055172	0.32277	0.1048	0.048785	0.20536	0.27155	0.011554	0.19689	0.19499	0.094409	-2.9354	-2.5729	-3.1542	-3.3667	-2.6896	-3.5604	-3.0833	-2.9333	-3.5646	-2.7208	-3.2375	-3.4396	-2.7667	-3.6021	-3.0771	-2.9104	-69.268	215.815	201.935	-122.574	-119.021	-127.239	188.740	107.599	-61.406	135.381	173.230	170.717	-132.229	-129.276	143.748	143.598	0.0010483	0.00088132	0.00016779	1049.3	6.2867e-06	8.2728e-06	976.97	412.46	6.7972e-06	9.4538e-06	436.43	183.72	172.74	72.928	4.8883e-06	76.952	0.0028689	0.0058275	0.0016021	1055.1	5.0871e-05	6.6434e-05	987.99	419.62	5.0332e-05	6.7165e-05	444.8	187.69	176.93	74.898	5.4932e-05	79.243	137.839	-63.856	-73.541	-122.052	-47.818	7.209	-123.531	-116.791	-32.860	-8.545	-118.486	-114.410	-112.178	-106.662	1.196	-109.347	-8191	255	
51353.441	1	1	0	0	0.045916	0.068444	0.18355	0.15828	0.13972	0.29967	0.15946	0.20976	0.11143	0.14442	0.12829	0.16545	0.033057	0.13134	0.12392	0.21596	-3.0583	-2.7521	-2.75	-3.5125	-2.6146	-3.3688	-3.2917	-2.8042	-3.5104	-2.7229	-3.0042	-3.7938	-2.8354	-3.5646	-3.225	-2.8729	68.460	157.333	225.020	-126.609	223.147	-125.502	88.542	-126.910	123.301	28.598	-106.413	119.495	57.454	109.813	-8.331	-86.885	0.00095957	0.00072537	0.00015527	1044.6	8.7517e-06	7.2915e-06	979.7	413.94	6.1073e-06	9.0211e-06	439.4	184.91	173.44	73.151	8.7462e-06	77.196	0.0028481	0.0057047	0.0016008	1055.6	4.969e-05	6.6358e-05	990.7	421.1	5.0677e-05	6.753e-05	446.89	188.6	177.39	75.266	5.5598e-05	79.368	137.761	-38.436	-26.760	-122.213	12.992	31.257	-123.651	-116.661	-25.197	11.237	-118.568	-114.326	-112.122	-106.542	13.348	-109.305	-8191	255	
51353.539	1	1	0	0	0.12804	0.11877	0.3375	0.12139	0.14036	0.22704	0.11802	0.0063949	0.1136	0.05598	0.28886	0.21423	0.19139	0.29375	0.19252	0.14562	-3.0771	-2.8438	-2.9	-3.6042	-2.6646	-3.2812	-3.3771	-2.6104	-3.5521	-2.9021	-2.7625	-3.7625	-2.7542	-3.4083	-3.3563	-2.7229	93.464	127.232	35.218	-36.071	127.751	13.833	131.423	136.105	154.894	110.656	163.600	198.914	-40.234	209.447	96.524	157.097	0.0010775	0.00043751	0.00021793	1048	7.0236e-06	4.5145e-06	975.67	415.97	4.178e-06	7.8319e-06	436.09	184.09	173.56	73.292	8.3713e-06	77.075	0.002886	0.0057374	0.0016029	1057.3	5.0408e-05	6.6405e-05	989.97	422.3	5.1464e-05	6.5943e-05	444.91	188.06	177.49	75.327	5.62e-05	79.187	134.539	-37.741	-41.968	-121.984	-16.930	33.125	-123.521	-116.536	-52.896	3.033	-118.425	-114.279	-112.276	-106.467	-16.044	-109.130	-8191	255	
51353.633	1	1	0	0	0.089501	0.12204	0.13366	0.27388	0.090369	0.10011	0.12238	0.14686	0.037	0.26684	0.085641	0.30566	0.30114	0.16999	0.24405	0.16281	-3.0938	-3.025	-2.7833	-3.6229	-2.6729	-3.0521	-3.4458	-2.7521	-3.5187	-3.2646	-2.9667	-3.5104	-2.9708	-3.1292	-3.3771	-2.7438	208.814	-61.607	223.947	208.340	-103.989	30.583	79.367	-33.337	-24.785	164.553	146.540	-104.857	-119.963	-99.620	-21.658	-99.836	0.0010541	0.00068936	0.00024815	1048.4	4.527e-06	5.7773e-06	972.7	415.04	8.2836e-06	1.0239e-05	436.67	184.39	173.7	73.592	9.5776e-06	77.165	0.0029035	0.0057288	0.0016488	1056.5	4.9983e-05	6.6361e-05	987.83	420.55	5.157e-05	6.7896e-05	444.78	188.08	177.73	75.666	5.6791e-05	79.649	138.201	-32.388	-45.526	-122.006	-9.912	5.169	-123.575	-116.519	-9.832	26.120	-118.624	-114.426	-112.034	-106.545	-15.702	-109.218	-8191	255	
51353.754	1	1	0	0	0.047804	0.12243	0.051973	0.089822	0.056332	0.13646	0.32015	0.30943	0.23607	0.20583	0.032743	0.015097	0.39565	0.10735	0.12571	0.34753	-3.1188	-3.1312	-2.6625	-3.5458	-2.9	-3.0375	-3.5771	-2.7458	-3.3479	-3.1583	-2.8312	-3.4188	-3.0563	-3.05	-3.5625	-2.6479	-67.892	41.480	11.763	-41.114	-29.832	191.534	-54.745	176.525	145.278	118.545	223.779	156.960	207.967	189.738	-116.413	134.067	0.0010555	0.00099162	0.00021806	1044.5	5.3867e-06	6.5873e-06	977.37	414.77	6.0128e-06	1.1223e-05	435.99	184.9	173.91	73.279	7.7033e-06	77.731	0.0028996	0.0058549	0.0016128	1054.9	5.0846e-05	6.8198e-05	988.11	421.7	5.2262e-05	6.831e-05	445.26	188.73	177.98	75.236	5.7835e-05	80.063	137.204	-34.174	-28.478	-121.853	-8.099	26.032	-123.470	-116.349	-26.816	26.000	-118.308	-114.407	-112.187	-106.389	-15.386	-109.450	-8191	255	
51353.848	1	1	0	0	0.032402	0.19802	0.024478	0.11193	0.13985	0.11153	0.15951	0.23364	0.10353	0.12887	0.12814	0.17951	0.18855	0.16995	0.20308	0.55635	-2.9354	-3.3208	-2.6479	-3.5729	-2.9292	-2.7979	-3.5479	-2.6771	-3.0583	-3.5375	-2.7042	-3.6417	-3.1604	-3.1708	-3.4667	-2.9292	176.635	-27.362	34.217	85.124	-11.988	-123.366	98.171	143.112	-67.312	3.976	201.788	-133.179	-5.690	-63.466	124.223	167.017	0.0010489	0.00084762	0.0002525	1041.5	6.514e-06	8.8861e-06	980.81	413.96	6.202e-06	6.8279e-06	437.97	185.83	174.07	73.686	8.2972e-06	77.78	0.0028745	0.00584	0.0016474	1055.5	5.0932e-05	6.9156e-05	992.1	421.63	5.3173e-05	6.9371e-05	446.58	189.61	178.18	75.43	5.812e-05	79.995	142.212	-69.525	-63.809	-121.911	0.980	10.033	-123.435	-116.347	-13.573	-5.804	-118.461	-114.077	-111.875	-106.335	-22.909	-108.888	-8191	255	
51353.945	1	1	0	0	0.24291	0.18899	0.18221	0.060685	0.20841	0.079752	0.39921	0.16115	0.093165	0.21164	0.0088781	0.10024	0.10849	0.20909	0.098108	0.32267	-2.6937	-3.4417	-2.75	-3.7	-3.0958	-2.7521	-3.6312	-2.9167	-2.9583	-3.6229	-2.75	-3.4062	-3.2667	-3.0208	-3.5146	-3.0333	205.580	7.136	151.779	9.311	-94.910	-79.372	159.851	175.285	145.431	58.797	-20.683	82.724	-49.605	-122.783	96.845	147.168	0.0010342	0.00055078	0.00020476	1051.3	5.4285e-06	5.6152e-06	978.52	413.57	5.2584e-06	8.2243e-06	434.03	184.31	174.24	73.337	9.1695e-06	76.79	0.0029294	0.0058824	0.001663	1057	5.0918e-05	6.9691e-05	989.24	420.65	5.3059e-05	6.9602e-05	443.55	187.95	177.42	75.281	5.7797e-05	79.089	137.174	-71.262	-59.028	-121.543	-3.827	-10.451	-123.274	-116.457	-49.834	13.187	-118.554	-114.013	-112.109	-106.376	-11.124	-109.234	-8191	255	
51354.039	1	1	0	0	0.0045865	0.20402	0.25817	0.1183	0.15315	0.090836	0.074689	0.24325	0.21518	0.12762	0.1424	0.29708	0.21841	0.35612	0.12831	0.11937	-2.5479	-3.4646	-2.6646	-3.5583	-3.2458	-2.6521	-3.6	-3.1562	-3.1729	-3.4688	-2.8604	-3.4208	-3.3042	-2.7771	-3.5042	-3.1604	176.135	98.034	217.612	203.179	-128.827	150.083	160.965	144.767	89.696	84.376	-67.169	206.856	-131.197	165.327	-89.211	184.393	0.0010719	0.00082248	0.00018509	1044.8	5.6459e-06	7.4947e-06	977.99	412.95	8.1292e-06	7.9312e-06	434.43	183.88	173.6	73.474	5.5926e-06	76.434	0.002919	0.0059803	0.001664	1054.9	5.0657e-05	6.9462e-05	988.65	420.72	5.3168e-05	6.7145e-05	443.25	187.69	177.57	75.338	5.7214e-05	79.171	134.994	-51.064	-81.085	-121.767	6.690	22.788	-123.377	-116.474	-25.448	22.819	-118.399	-114.209	-111.787	-106.475	9.219	-109.280	-8191	255	
51354.137	1	1	0	0	0.30683	0.10913	0.12199	0.12081	0.21903	0.24675	0.29404	0.12284	0.15651	0.072764	0.24753	0.30736	0.28515	0.072835	0.11585	0.073226	-2.3729	-3.5542	-2.6667	-3.3792	-3.3354	-2.6458	-3.5417	-3.1937	-2.8354	-3.4667	-2.925	-3.1125	-3.6354	-2.7354	-3.3937	-3.4188	-21.027	34.575	-5.478	209.935	3.616	-76.727	158.117	182.386	-26.305	-108.802	210.958	-124.719	-115.303	137.659	-24.333	225.283	0.00098592	0.00058779	9.5993e-05	1051.2	6.7405e-06	5.8456e-06	981.33	414.46	5.0697e-06	3.2883e-06	435.29	184.28	173.57	73.749	7.3121e-06	77.127	0.0029361	0.0058894	0.001688	1058.5	5.0821e-05	6.8554e-05	991.82	422.06	5.3113e-05	6.9689e-05	444.8	188.07	177.79	75.592	5.7926e-05	79.422	139.802	-59.660	-27.682	-121.741	-1.226	23.759	-123.287	-116.427	20.342	31.939	-118.430	-114.097	-111.858	-106.363	-16.216	-109.226	-8191	255	
51354.234	1	1	0	0	0.18009	0.094738	0.13955	0.2326	0.06352	0.18986	0.096038	0.16476	0.20284	0.17517	0.25271	0.031723	0.16958	0.2145	0.15614	0.091897	-2.3625	-3.4458	-2.6688	-3.2354	-3.5458	-2.6792	-3.6458	-3.3521	-2.6708	-3.4146	-2.8917	-3.0625	-3.6958	-2.8063	-3.2667	-3.4271	-117.763	-51.865	96.219	180.798	140.660	38.430	141.607	-121.987	-95.830	-77.573	154.058	57.309	-117.286	193.277	-22.419	89.984	0.0010372	0.00048437	0.00019134	1048.2	6.1957e-06	8.56e-06	979.32	415.36	8.2426e-06	9.9951e-06	437.18	182.77	173.16	73.509	3.0943e-06	76.498	0.0029537	0.0060372	0.001668	1061	5.2154e-05	6.9636e-05	995.28	422.08	5.3793e-05	7.0843e-05	445.16	187.24	177.03	75.438	5.925e-05	78.55	141.466	-45.164	-39.582	-121.524	-6.415	-16.361	-123.231	-116.565	6.935	-3.906	-118.581	-114.082	-111.848	-106.405	-13.117	-109.103	-8191	255	
51354.355	1	1	0	0	0.064005	0.16107	0.11154	0.088224	0.37037	0.17276	0.31221	0.059008	0.094611	0.19094	0.087251	0.21412	0.20115	0.098279	0.066392	0.10902	-2.4146	-3.5354	-3.0062	-2.9292	-3.4292	-2.6312	-3.3271	-3.5229	-2.7604	-3.4479	-3.125	-2.9854	-3.6333	-2.8563	-2.9458	-3.4	106.938	48.978	-132.753	84.381	119.674	-127.246	98.718	175.928	58.638	199.573	222.347	191.406	-115.651	219.587	-56.601	-107.259	0.0010393	0.00062211	0.00016429	1045.3	5.8463e-06	3.0248e-06	978.44	413.88	5.4644e-06	5.8142e-06	435.19	182.13	172.23	73.171	7.8396e-06	75.684	0.002949	0.0058562	0.0016853	1058.6	5.2056e-05	7.1127e-05	991.38	420.97	5.3959e-05	6.97e-05	443.57	185.99	176.28	75.108	5.8931e-05	78.088	138.620	-24.881	-19.106	-121.877	-23.868	11.701	-123.505	-116.285	-19.763	15.967	-118.404	-114.001	-111.680	-106.421	-26.448	-109.141	-8191	255	
51354.449	1	1	0	0	0.16444	0.19386	0.10685	0.21229	0.073945	0.25273	0.10037	0.31187	0.14063	0.091604	0.15748	0.51733	0.15277	0.27043	0.16957	0.25657	-2.3354	-3.3958	-2.8667	-2.7625	-3.5479	-2.9042	-3.2229	-3.5563	-2.5521	-3.4458	-3.3896	-2.8042	-3.5792	-3.0604	-3.0042	-3.5458	-21.055	-131.921	-45.805	182.327	186.003	19.087	167.436	-45.018	210.494	64.189	-48.053	156.106	85.103	199.832	-118.272	107.191	0.000995	0.00032681	0.00015355	1049.2	6.1099e-06	4.8378e-06	983.53	416.02	6.7578e-06	9.4181e-06	436.86	182.59	173.38	73.507	5.732e-06	76.036	0.0029865	0.0058973	0.0016588	1058.6	5.232e-05	6.9931e-05	995.25	422.28	5.3126e-05	6.9564e-05	444.11	186.78	177.15	75.403	5.9018e-05	78.331	137.330	-23.658	-57.722	-121.663	6.678	17.487	-123.140	-116.194	-17.858	22.514	-118.425	-114.231	-111.812	-106.275	2.989	-108.954	-8191	255	
51354.547	1	1	0	0	0.15817	0.18167	0.19709	0.18518	0.024507	0.19561	0.25565	0.21229	0.17352	0.081788	0.085877	0.1656	0.11214	0.33762	0.03175	0.24171	-2.425	-3.45	-3.3417	-2.6833	-3.6771	-2.8854	-3.0354	-3.5312	-2.5708	-3.2667	-3.4604	-2.7896	-3.6292	-3.0521	-2.9708	-3.7104	-43.510	83.764	72.936	99.219	-58.862	-30.283	147.269	173.289	-78.065	100.524	183.993	113.229	133.347	205.856	225.251	210.817	0.0010353	0.00062813	0.00011376	1054.2	8.1247e-06	5.0407e-06	983.62	414.65	4.9244e-06	7.6268e-06	435.69	182.22	173.85	73.374	4.84e-06	76.553	0.0029836	0.0060616	0.0016793	1062.4	5.2203e-05	7.0419e-05	994.03	422.09	5.4778e-05	7.0479e-05	444.63	186.62	177.34	75.152	6.0868e-05	78.666	134.164	-24.435	-91.274	-121.908	-40.418	35.065	-123.310	-116.287	-24.218	14.768	-118.433	-114.127	-111.742	-106.489	-34.746	-108.933	-8191	255	
51354.641	1	1	0	0	0.20678	0.18845	0.24614	0.030034	0.35485	0.11075	0.18018	0.19836	0.081198	0.16591	0.14291	0.31668	0.19659	0.21167	0.21238	0.10145	-2.3688	-3.1312	-3.3812	-2.7542	-3.4354	-3.0271	-2.9938	-3.6146	-2.7396	-3.1979	-3.5438	-2.7354	-3.3771	-3.1958	-2.7458	-3.5938	166.548	43.127	111.490	220.724	-68.614	166.811	222.447	156.757	9.186	17.021	-82.415	179.385	-42.870	105.307	220.378	66.280	0.0010329	0.00072556	0.0001703	1051.2	7.0551e-06	5.4719e-06	986.52	414.7	8.3576e-06	7.5969e-06	435.53	180.97	172.06	72.211	8.6215e-06	75.072	0.0030333	0.0060809	0.0016874	1062.5	5.2342e-05	7.1484e-05	996.58	421.3	5.444e-05	7.0352e-05	443.43	185.22	175.77	74.247	5.9566e-05	77.361	141.320	-70.971	-33.247	-121.885	6.153	6.400	-123.127	-116.206	-12.736	9.294	-118.258	-114.071	-111.784	-106.234	-40.280	-108.899	-8191	255	
51354.738	1	1	0	0	0.11522	0.026325	0.28343	0.13337	0.14008	0.10618	0.34077	0.13436	0.10172	0.16419	0.22971	0.11786	0.23716	0.28604	0.065649	0.097343	-2.5542	-2.975	-3.3479	-2.8146	-3.2896	-3.1875	-2.8354	-3.7292	-2.8063	-3.0854	-3.6875	-2.7146	-3.2792	-3.4292	-2.6854	-3.6688	-11.938	-120.159	203.960	207.721	-58.680	-13.008	122.162	187.614	88.235	159.816	130.085	166.535	193.622	131.316	-23.886	142.334	0.0010389	0.00076894	0.00023572	1051.3	5.2737e-06	7.7099e-06	980.61	413.84	6.617e-06	5.0712e-06	433.76	179.92	170.76	71.991	7.1086e-06	75.08	0.0030107	0.0060568	0.0017014	1060.1	5.2574e-05	6.9903e-05	993.7	420.39	5.4315e-05	7.0997e-05	442.39	183.99	175.03	74.038	5.9895e-05	77.115	133.704	-61.451	-42.782	-121.728	-24.959	19.969	-123.151	-116.308	-42.120	7.920	-118.035	-113.937	-111.768	-106.091	-4.893	-109.047	-8191	255	
51354.832	1	1	0	0	0.28463	0.13009	0.11248	0.15891	0.16496	0.073103	0.31059	0.054334	0.13695	0.21166	0.036713	0.21745	0.14371	0.1576	0.11094	0.14246	-2.6292	-2.8625	-3.5104	-2.9083	-3.1979	-3.2917	-2.8125	-3.5604	-2.9958	-2.85	-3.6292	-2.7833	-3.3875	-3.5021	-2.6771	-3.4958	56.751	48.883	36.989	58.221	-134.281	-133.838	148.215	-81.628	172.618	-77.442	221.895	80.561	-127.686	220.392	123.792	130.203	0.00099274	0.00060713	0.00017432	1052.2	7.0472e-06	6.4256e-06	983.78	414.65	7.1016e-06	1.4263e-06	434.51	179.78	170.67	72.168	1.0368e-05	74.927	0.0030187	0.0061573	0.001694	1060.1	5.2528e-05	7.0099e-05	994.58	420.74	5.5121e-05	7.1847e-05	441.76	184.08	174.97	74.011	5.9992e-05	77.107	139.749	-70.570	-24.096	-121.945	-15.047	-18.418	-123.506	-116.313	-14.601	-56.194	-118.443	-114.067	-111.833	-106.177	-9.879	-108.890	-8191	255	
51354.930	1	1	0	0	0.042656	0.26514	0.13929	0.18455	0.033245	0.32521	0.14442	0.031349	0.12152	0.064648	0.080958	0.10409	0.11959	0.14231	0.15568	0.23649	-2.8688	-2.7125	-3.5062	-2.9375	-3.0812	-3.4854	-2.6937	-3.5146	-2.9938	-2.7687	-3.5708	-3.0646	-3.2229	-3.8396	-2.8104	-3.4562	166.241	18.198	-65.241	208.473	199.734	80.871	156.279	-125.900	-77.772	173.516	-38.523	112.439	-94.034	109.039	-43.431	191.119	0.0010401	0.00055249	0.00027934	1052.7	5.3805e-06	7.3323e-06	989.2	412.91	8.4246e-06	9.0402e-06	434.77	180.96	171.46	72.213	4.7529e-06	75.331	0.0029719	0.006045	0.0016753	1061.6	5.3779e-05	7.0561e-05	997.31	421.67	5.4063e-05	7.0233e-05	443.79	185.12	175.57	74.284	5.9784e-05	77.498	138.065	-44.822	-53.312	-121.653	-8.068	-4.727	-123.216	-116.479	-18.779	21.988	-118.044	-113.938	-111.567	-106.257	-4.261	-108.884	-8191	255	
51355.027	1	1	0	0	0.19553	0.087544	0.29687	0.17247	0.13636	0.057013	0.13744	0.16474	0.24647	0.081607	0.2499	0.1017	0.19238	0.13808	0.1285	0.26556	-2.8312	-2.7188	-3.6312	-2.8979	-3.0146	-3.4979	-2.7896	-3.3854	-3.1479	-2.7896	-3.5062	-2.8521	-3.1437	-3.7021	-2.7062	-3.3312	130.474	89.440	157.869	224.812	-30.863	-68.243	148.222	207.647	-22.707	181.214	191.406	164.199	-90.937	203.987	-29.147	204.265	0.00095095	0.00086805	0.00019574	1056.3	9.4522e-06	1.1701e-05	987.89	415.09	6.3001e-06	4.0489e-06	434.31	180.35	170.76	71.922	8.4242e-06	74.807	0.002947	0.0061398	0.0017025	1065.4	5.2838e-05	7.1116e-05	999.07	421.63	5.4766e-05	7.1241e-05	443.56	184.37	175.28	74.069	5.8849e-05	76.911	136.504	-48.003	-52.371	-121.775	2.204	3.421	-123.346	-116.188	-34.454	11.546	-118.198	-113.890	-111.523	-106.332	-17.870	-108.812	-8191	255	
51355.121	1	1	0	0	0.025669	0.18701	0.10349	0.11027	0.30594	0.1527	0.034567	0.23528	0.077186	0.17861	0.1143	0.2062	0.27605	0.29748	0.1505	0.23473	-2.9	-2.6604	-3.375	-3.1833	-2.6437	-3.5625	-2.7792	-3.225	-3.4917	-2.6437	-3.4771	-3.2313	-2.6937	-3.7333	-2.6458	-3.2354	115.913	114.229	-69.483	212.816	90.601	21.303	40.719	214.998	-35.948	127.243	-84.272	-89.371	161.499	222.359	-31.160	-66.483	0.0010657	0.00083082	0.00017931	1051.4	7.0947e-06	6.6265e-06	980.72	414.06	5.6369e-06	7.5118e-06	434.7	179.97	170.98	72.243	7.111e-06	74.523	0.0030115	0.0061111	0.0016891	1061.2	5.2258e-05	7.1374e-05	994.26	420.55	5.4672e-05	7.2138e-05	443	184.08	175.15	74.038	5.8907e-05	76.764	138.642	-25.348	-42.810	-121.965	-6.123	19.768	-123.337	-116.064	-31.797	4.397	-118.271	-114.037	-111.526	-106.134	2.163	-108.871	-8191	255	
51355.242	1	1	0	0	0.20411	0.094987	0.012784	0.14849	0.10521	0.085311	0.17772	0.43491	0.16959	0.24083	0.074118	0.16229	0.08992	0.049833	0.21073	0.17186	-3.1292	-2.5875	-3.3375	-3.5062	-2.6104	-3.5625	-2.8917	-3.0667	-3.5042	-2.5979	-3.4708	-3.3396	-2.8646	-3.5292	-2.6354	-3.05	55.633	19.587	60.961	202.958	34.149	224.953	162.638	221.391	156.525	-72.399	57.997	-99.823	-133.348	154.520	96.460	208.499	0.00096652	0.00057332	0.0002455	1049.3	9.8242e-06	6.5244e-06	983.52	416.52	7.0306e-06	6.2671e-06	433.64	179.16	171.66	72.071	5.0315e-06	74.88	0.0030023	0.0062291	0.0016886	1062.8	5.2336e-05	7.1857e-05	994.77	422.29	5.4337e-05	7.1155e-05	442.46	183.57	175.25	73.894	5.9782e-05	76.869	138.528	-47.869	-43.032	-121.668	-5.546	26.404	-123.228	-116.286	-3.887	19.928	-118.134	-114.196	-111.728	-105.989	-27.174	-108.745	-8191	255	
51355.312	1	1	0	0	0.03679	0.09279	0.12182	0.34265	0.088403	0.021437	0.25927	0.23665	0.02875	0.1809	0.13214	0.23995	0.27809	0.38511	0.36765	0.050364	-3.1229	-2.4938	-3.2125	-3.4437	-2.6042	-3.3271	-3.0625	-2.8917	-3.5208	-2.7646	-3.3917	-3.6979	-2.8312	-3.6771	-3.0875	-2.8958	17.882	28.960	40.808	173.352	44.651	62.468	157.244	194.574	-119.612	218.493	-31.419	213.202	76.852	-110.962	-25.240	216.531	0.0010118	0.00070066	0.00016124	1056.5	6.8426e-06	5.2624e-06	985.73	414.74	4.5857e-06	9.4609e-06	435.24	180.58	171.37	71.808	5.5608e-06	74.687	0.0029583	0.0061369	0.0016923	1066.8	5.3793e-05	7.1331e-05	999.71	422.38	5.4152e-05	7.1451e-05	444.39	184.03	175.13	73.715	6.0401e-05	76.815	136.122	-38.192	-67.640	-121.548	-35.768	34.948	-122.869	-116.073	5.816	16.324	-118.216	-113.892	-111.639	-105.815	-6.205	-108.939	-8191	255	
51355.434	1	1	0	0	0.2125	0.097807	0.076564	0.17698	0.2587	0.12892	0.28185	0.10325	0.26484	0.040085	0.16198	0.05236	0.14785	0.20539	0.3075	0.048772	-3.2167	-2.8542	-3.075	-3.4271	-2.6042	-3.4313	-3.2313	-3	-3.5333	-2.7188	-3.0229	-3.7	-2.8146	-3.5229	-3.1854	-2.9458	27.030	75.124	-103.903	51.282	133.414	95.441	-130.226	115.213	220.284	217.937	152.011	-22.319	117.609	189.258	-102.363	1.367	0.001052	0.00084673	0.00015467	1058	5.6125e-06	7.216e-06	990.88	415.03	6.9532e-06	6.6015e-06	435.56	179.67	170.01	71.606	6.9077e-06	73.931	0.0030168	0.0062594	0.0016888	1067.2	5.3384e-05	7.1195e-05	1002.6	421.97	5.3829e-05	7.1433e-05	442.88	183.28	174.54	73.503	5.9128e-05	76.165	138.450	-42.459	-72.342	-121.778	-0.805	33.551	-123.092	-115.943	-7.734	68.455	-118.190	-113.929	-111.551	-105.783	-43.034	-108.982	-8191	255	
51355.531	1	1	0	0	0.13855	0.10652	0.16832	0.32168	0.10115	0.015215	0.47376	0.14353	0.17034	0.23971	0.11975	0.15841	0.12525	0.33744	0.20291	0.12906	-3.2271	-2.8229	-2.9708	-3.7854	-2.7146	-3.4833	-3.4813	-2.8354	-3.4854	-2.8688	-3.0083	-3.6104	-2.8792	-3.5083	-3.4417	-2.7812	96.976	-42.627	171.442	200.107	-32.849	133.437	121.726	152.921	61.223	-82.843	146.237	187.488	-122.576	-128.811	55.516	132.837	0.0011572	0.00083973	0.00013162	1055.2	2.9829e-06	2.7329e-06	989	414.89	5.4813e-06	9.0137e-06	435.1	179.23	170.65	71.482	1.0319e-05	73.881	0.0030087	0.006233	0.0016954	1065.8	5.2668e-05	7.1194e-05	999.99	421.56	5.6225e-05	7.239e-05	442.72	182.9	174.67	73.438	6.0219e-05	76.184	136.460	-45.953	-29.511	-121.679	-13.059	28.156	-123.266	-116.055	-7.279	17.247	-117.962	-113.626	-111.494	-105.842	5.086	-108.834	-8191	255	
51355.625	1	1	0	0	0.11345	0.23304	0.11186	0.18397	0.24992	0.25348	0.059843	0.12264	0.12805	0.1891	0.092757	0.10896	0.16178	0.13873	0.088518	0.11487	-3.1375	-3.0854	-2.8688	-3.7042	-2.7792	-3.2771	-3.5167	-2.7188	-3.3604	-3.0625	-2.9833	-3.4208	-2.9375	-3.3125	-3.2729	-2.8167	194.310	11.569	-99.658	217.572	-44.822	92.714	91.428	-123.233	-121.146	-114.173	-56.757	223.305	182.134	-65.438	-48.674	-124.782	0.00098633	0.001123	0.00019574	1052.6	7.2627e-06	6.3687e-06	990.25	416.13	8.2265e-06	8.2712e-06	433.63	178.64	170.34	71.108	4.3489e-06	73.762	0.0029573	0.006178	0.0017257	1065.8	5.3174e-05	7.1791e-05	1001.5	422.26	5.4212e-05	7.1008e-05	442.63	182.85	174.23	73.108	5.9117e-05	76.09	137.350	-40.817	-42.130	-121.766	7.555	1.533	-123.094	-116.014	-27.588	8.640	-118.155	-113.780	-111.549	-105.756	5.965	-108.901	-8191	255	
51355.723	1	1	0	0	0.079036	0.14998	0.17888	0.23553	0.093113	0.2059	0.18919	0.28957	0.013737	0.12198	0.12575	0.072844	0.30712	0.24506	0.07759	0.18731	-3.05	-3.0625	-2.85	-3.5125	-2.8854	-3.0875	-3.6833	-2.8792	-3.2687	-3.1521	-2.7521	-3.6167	-3.0667	-3.1208	-3.6	-2.9271	166.705	54.689	-39.297	138.781	-98.971	-60.166	66.739	206.963	-95.004	74.055	-22.044	212.292	-111.694	-133.563	103.173	173.304	0.00099574	0.00078122	0.00017981	1060.5	6.8168e-06	5.3788e-06	1001.3	416.03	6.6387e-06	4.9746e-06	438.68	179.74	170.97	71.134	6.4702e-06	73.757	0.0030002	0.0060657	0.0017359	1072.5	5.2735e-05	7.1461e-05	1008.1	423.01	5.4271e-05	7.0629e-05	446.02	183.19	174.57	72.927	5.9886e-05	76.097	138.395	-56.877	-54.079	-121.795	3.371	17.390	-123.072	-116.089	-21.388	-29.863	-118.245	-113.673	-111.581	-105.789	-8.163	-108.901	-8191	255	
51355.844	1	1	0	0	0.057958	0.079581	0.16107	0.26501	0.060066	0.02275	0.16104	0.13987	0.2855	0.13449	0.073105	0.12277	0.14181	0.15419	0.14346	0.23738	-3.0292	-3.1729	-2.5625	-3.5208	-3.0375	-2.7812	-3.6375	-2.7625	-3.175	-3.3458	-2.6667	-3.6146	-3.0354	-2.9083	-3.5354	-2.8187	176.069	-80.000	93.218	194.912	204.342	22.339	140.208	191.045	-56.707	61.616	-113.394	195.529	224.115	-110.309	-82.607	169.781	0.00096346	0.00054179	0.00015152	1067	4.9698e-06	6.5961e-06	995.46	416.47	5.2408e-06	7.2535e-06	434.15	178.16	170.5	70.984	6.5893e-06	73.795	0.0030071	0.0062045	0.0017438	1075.4	5.2875e-05	7.1904e-05	1007.2	422.55	5.4318e-05	7.263e-05	442.87	182.26	174.22	72.73	5.889e-05	75.742	137.757	-37.959	-31.936	-121.267	7.656	13.197	-123.229	-116.118	-40.535	11.204	-118.142	-113.820	-111.587	-105.768	-27.695	-108.870	-8191	255	
51355.938	1	1	0	0	0.048458	0.29685	0.21876	0.15234	0.16371	0.19555	0.34908	0.41911	0.25247	0.13456	0.051056	0.20495	0.1718	0.11549	0.10905	0.080313	-2.9188	-3.375	-2.7708	-3.5	-3.1521	-2.7833	-3.6896	-2.9208	-2.9875	-3.2771	-2.825	-3.3292	-3.1833	-2.8604	-3.6	-3.0438	-102.007	188.373	45.885	178.184	-72.802	-131.521	182.990	178.464	-118.101	-114.459	172.571	153.194	160.948	123.795	64.059	203.666	0.00097014	0.00074668	0.00019124	1064.4	7.6103e-06	4.5652e-06	993.1	415.7	8.1133e-06	9.3298e-06	433.64	179.03	170.21	71.2	6.6308e-06	73.611	0.003031	0.0061647	0.0017068	1073	5.3031e-05	7.2697e-05	1006	422.59	5.5213e-05	7.1904e-05	442.3	182.66	174.52	72.975	6.0406e-05	75.943	137.063	-52.082	-48.028	-121.415	-1.726	35.418	-123.100	-116.244	-47.322	5.244	-118.160	-113.694	-111.461	-105.936	-30.053	-108.907	-8191	255	
51356.035	1	1	0	0	0.078825	0.12449	0.28023	0.24216	0.049592	0.13192	0.083615	0.36402	0.13387	0.2175	0.17985	0.10894	0.24285	0.41637	0.11294	0.33282	-2.7104	-3.4646	-2.7396	-3.4417	-3.1708	-2.7396	-3.7	-3.0208	-2.8375	-3.5312	-2.8438	-3.3917	-3.3479	-2.7562	-3.4479	-3.0729	133.507	-30.757	220.637	150.220	120.328	4.315	206.843	165.082	199.559	-24.747	216.038	180.307	214.723	188.182	14.311	40.567	0.0010118	0.00036967	0.00020177	1063.1	6.9824e-06	6.2372e-06	997.36	416.09	4.2955e-06	7.9618e-06	435.18	179.31	170.53	70.973	7.7268e-06	73.913	0.0029766	0.0060716	0.0017243	1073.9	5.2718e-05	7.2672e-05	1007.5	423.06	5.3743e-05	7.2058e-05	444.59	183.21	174.71	72.986	5.9568e-05	75.995	136.762	-30.052	-32.138	-121.559	13.979	4.435	-123.100	-116.018	-38.885	35.656	-118.089	-113.806	-111.525	-105.949	-5.981	-108.873	-8191	255	
51356.129	1	1	0	0	0.11992	0.23965	0.082199	0.15268	0.1939	0.0996	0.26579	0.13333	0.15424	0.1688	0.14063	0.14848	0.32572	0.28021	0.10665	0.072906	-2.3937	-3.4646	-2.6271	-3.2438	-3.4458	-2.6729	-3.5062	-3.2771	-2.6333	-3.5896	-2.9458	-3.1813	-3.5104	-2.6792	-3.5292	-3.2083	144.607	-130.572	1.766	-122.437	57.822	157.529	161.302	165.878	43.171	-39.125	-121.334	219.439	184.829	-115.279	178.193	102.288	0.0011139	0.00061428	0.00019439	1063.5	2.7075e-06	4.9796e-06	996.31	417.47	5.3995e-06	7.3092e-06	436.8	179.72	171.22	71.057	6.7502e-06	73.884	0.0030177	0.0061647	0.0017249	1073.8	5.2416e-05	7.2485e-05	1009.6	423.93	5.5103e-05	7.1826e-05	445.12	183.33	175.05	73.009	5.9596e-05	75.845	136.102	-48.649	-24.957	-121.375	47.165	19.252	-123.126	-116.126	-36.836	1.721	-118.155	-113.608	-111.463	-105.868	-23.182	-108.866	-8191	255	
51356.227	1	1	0	0	0.23744	0.10289	0.11866	0.085568	0.072228	0.21021	0.17051	0.20485	0.36824	0.074312	0.47585	0.27893	0.26725	0.29538	0.056621	0.098635	-2.4125	-3.5187	-2.8521	-3.3021	-3.4646	-2.7729	-3.4854	-3.2479	-2.6	-3.5208	-2.8854	-3.1896	-3.5792	-2.9792	-3.2875	-3.3292	140.638	-130.582	-57.472	-113.008	59.059	-83.207	139.523	57.608	1.016	55.923	213.665	180.008	-62.986	164.573	42.682	80.553	0.00104	0.00082725	0.00016139	1066.7	5.5508e-06	6.2804e-06	993.03	415.78	7.5519e-06	6.6914e-06	434.37	178.04	170.48	71.006	1.0071e-05	73.076	0.0030411	0.0061076	0.001728	1074.9	5.3356e-05	7.3083e-05	1004.5	422.61	5.5434e-05	7.0623e-05	441.86	181.49	174.08	72.953	6.0294e-05	75.295	141.324	-34.851	-29.270	-121.377	-15.528	47.562	-123.041	-116.043	-55.817	5.526	-117.946	-113.713	-111.359	-105.883	6.095	-108.694	-8191	255	
51356.324	1	1	0	0	0.20704	0.14494	0.15828	0.13645	0.19798	0.041992	0.10377	0.079875	0.065094	0.16373	0.19469	0.046598	0.17259	0.20748	0.16929	0.060724	-2.3063	-3.5854	-2.7375	-3.1729	-3.4729	-2.7604	-3.425	-3.3937	-2.575	-3.6167	-3.0604	-2.8542	-3.7687	-2.8625	-3.0938	-3.4542	151.754	-23.294	-89.788	179.686	98.535	-84.776	140.824	162.645	183.050	-0.791	-107.803	84.933	192.690	-91.064	161.165	148.105	0.00098725	0.0012395	0.00026518	1058.7	3.9315e-06	6.6354e-06	994.07	416.55	1.128e-05	7.2575e-06	432.78	177.76	170.84	71.243	7.5958e-06	73.22	0.0030048	0.0061838	0.0017266	1069.9	5.2828e-05	7.2599e-05	1005.2	422.77	5.5189e-05	7.1777e-05	441.91	181.36	174.51	73.129	5.9973e-05	75.436	137.227	-43.496	-42.758	-121.442	-34.152	25.687	-123.020	-116.086	-8.403	20.591	-118.044	-113.720	-111.446	-105.873	-18.428	-108.632	-8191	255	
51356.441	1	1	0	0	0.096688	0.29943	0.17287	0.24633	0.17806	0.087184	0.056202	0.20434	0.042002	0.13001	0.15099	0.1512	0.11186	0.042194	0.060166	0.32366	-2.2896	-3.3396	-2.9875	-3.0146	-3.4688	-2.6521	-3.3417	-3.6167	-2.7188	-3.35	-3.2354	-2.7604	-3.7292	-2.8958	-3.0354	-3.6792	116.459	-31.560	-114.345	-91.327	218.031	25.487	-37.119	212.739	-11.316	163.579	137.110	-74.390	201.177	-3.148	-125.333	161.439	0.0010487	0.00078845	0.00014427	1063.3	6.5149e-06	8.5614e-06	993.02	416.36	4.962e-06	7.5211e-06	433.4	177.27	170.2	71.495	3.6526e-06	73.436	0.0030454	0.0061989	0.0017307	1072.2	5.2867e-05	7.1608e-05	1004.2	422.92	5.568e-05	7.2179e-05	442.27	181.43	174.35	73.36	6.0284e-05	75.513	139.908	-36.901	-16.881	-121.316	-27.139	-3.260	-122.971	-116.018	-14.536	-10.520	-118.123	-113.701	-111.446	-105.812	-0.611	-108.766	-8191	255	
51356.539	1	1	0	0	0.21273	0.17571	0.14878	0.13782	0.13161	0.19295	0.045843	0.089675	0.21824	0.019835	0.15183	0.17103	0.089925	0.11061	0.20945	0.17686	-2.1771	-3.4167	-3.1646	-2.7229	-3.4708	-2.9125	-3.2667	-3.4583	-2.7542	-3.3167	-3.45	-2.75	-3.6542	-3.05	-2.7188	-3.8896	-100.032	-104.576	132.679	210.979	117.583	91.481	71.880	106.285	126.217	-65.207	80.730	204.897	187.603	-88.405	16.337	-129.174	0.0010588	0.00084209	0.00025316	1059.7	6.0529e-06	7.3844e-06	995.22	416.33	7.2833e-06	6.961e-06	435.42	178.6	170.35	71.5	4.1458e-06	73.326	0.0030359	0.0060884	0.0017365	1070.5	5.3198e-05	7.1764e-05	1006.1	423.28	5.5946e-05	7.3121e-05	442.49	182.3	174.48	73.481	6.1089e-05	75.432	136.115	-45.576	-53.433	-121.481	-8.462	17.924	-122.997	-115.976	-17.930	9.963	-117.854	-113.902	-111.161	-105.834	-14.922	-108.742	-8191	255	
51356.609	1	1	0	0	0.19931	0.17518	0.3139	0.16905	0.23874	0.074352	0.18555	0.10388	0.1355	0.13636	0.22733	0.27909	0.29308	0.28449	0.18198	0.29716	-2.3375	-3.3063	-3.2792	-2.8479	-3.5208	-3.0479	-3.0375	-3.8479	-2.6458	-3.2625	-3.6979	-2.7562	-3.6542	-3.1813	-2.8667	-3.7208	156.559	-105.509	-45.841	144.611	76.187	-91.557	207.057	173.351	98.720	101.341	160.953	212.939	-116.984	-111.935	213.076	176.263	0.00097447	0.00091424	0.00022992	1057.6	4.0928e-06	5.9227e-06	988.02	414.77	6.4078e-06	4.3803e-06	431.71	177.7	171.51	71.748	7.1851e-06	73.547	0.0030257	0.0061443	0.0017102	1067.7	5.2905e-05	7.1727e-05	999	421.28	5.4355e-05	7.0684e-05	439.59	181.34	174.8	73.682	6.0478e-05	75.603	133.651	-51.266	-21.381	-121.442	-26.368	-15.437	-122.897	-115.955	-41.847	51.296	-118.112	-113.695	-111.469	-105.981	5.795	-108.788	-8191	255	
51356.707	1	1	0	0	0.11567	0.044789	0.15498	0.18997	0.12806	0.19074	0.2063	0.31561	0.080994	0.018445	0.048463	0.21216	0.23725	0.21106	0.11856	0.1621	-2.5	-2.9667	-3.3583	-2.7021	-3.4479	-3.2188	-2.8646	-3.7771	-2.6542	-2.85	-3.7125	-2.825	-3.5729	-3.3042	-2.8417	-3.7	57.469	8.403	-116.126	-130.007	-93.893	83.159	204.177	156.350	2.240	58.707	144.194	153.965	206.875	180.683	76.883	193.220	0.0010199	0.00047815	0.00015977	1055	5.6089e-06	8.1032e-06	982.99	415.96	6.2708e-06	7.5071e-06	432.01	178.58	171.14	72.129	4.9989e-06	73.917	0.0030471	0.0060766	0.0017151	1064.9	5.3628e-05	7.2118e-05	996.45	422.02	5.489e-05	7.1727e-05	440.9	182.55	175.27	74.065	5.9992e-05	76.001	138.337	-51.635	-45.930	-121.315	17.975	36.307	-122.992	-115.802	-35.696	42.265	-118.102	-113.795	-111.404	-105.884	27.491	-108.719	-8191	255	
51356.805	1	1	0	0	0.18432	0.24553	0.35071	0.1477	0.13165	0.13982	0.37584	0.014374	0.085445	0.17168	0.18237	0.35973	0.13076	0.26211	0.1205	0.26913	-2.4437	-2.9167	-3.4458	-2.7458	-3.3271	-3.2958	-2.7542	-3.6292	-2.975	-2.8167	-3.7	-2.7979	-3.4229	-3.4792	-2.6958	-3.5958	-13.890	-131.707	-39.448	-23.573	-118.347	159.516	167.643	-3.908	25.924	-2.455	198.452	216.510	196.517	212.539	-94.896	-93.128	0.0010265	0.00045909	0.00018625	1053.2	5.5389e-06	7.9678e-06	981.59	416.29	6.4375e-06	5.2417e-06	434.49	179.03	171.47	72.602	8.3949e-06	74.405	0.0029622	0.0061369	0.0017426	1064.7	5.2402e-05	7.0933e-05	995.74	423.17	5.3558e-05	7.0728e-05	442.09	183.28	175.75	74.467	6.0504e-05	76.604	142.241	-78.190	-23.142	-121.216	6.378	15.348	-122.956	-116.065	-36.140	26.872	-117.761	-113.733	-111.246	-105.917	-24.726	-108.549	-8191	255	
51356.922	1	1	0	0	0.21127	0.31313	0.19961	0.23948	0.14274	0.17254	0.33585	0.16834	0.088487	0.28164	0.12315	0.13205	0.21967	0.11869	0.19608	0.19859	-2.7354	-2.7396	-3.4208	-2.9625	-3.2687	-3.4729	-2.7604	-3.5708	-3.1354	-2.8688	-3.6125	-2.7375	-3.2271	-3.725	-2.6562	-3.5312	-103.149	136.975	-98.507	190.147	208.820	-15.238	148.684	219.865	141.444	30.966	-46.915	-52.339	178.790	-98.561	126.594	-106.130	0.00094269	0.00072156	0.00024766	1055.2	4.5293e-06	4.0629e-06	983.77	416.57	5.0792e-06	4.2203e-06	433.72	179.72	171.87	72.378	7.4486e-06	74.193	0.0029828	0.0061672	0.0017153	1065.5	5.2985e-05	7.1189e-05	998.94	423.57	5.5211e-05	7.1828e-05	442.74	183.32	175.92	74.383	6.1552e-05	76.353	138.067	-29.987	-26.659	-121.428	-0.019	0.722	-122.939	-115.841	-28.567	50.856	-117.864	-113.670	-111.014	-105.691	-8.526	-108.630	-8191	255	
51357.020	1	1	0	0	0.056676	0.055418	0.15501	0.24866	0.32572	0.15631	0.093228	0.13395	0.094989	0.030359	0.33499	0.34167	0.30069	0.28625	0.10316	0.33248	-2.8917	-2.5417	-3.4875	-3.1292	-2.8604	-3.5771	-2.9667	-3.6021	-3.2417	-2.8396	-3.5812	-3.2417	-3.0563	-3.5312	-2.4729	-3.35	104.742	158.719	28.556	-133.761	93.998	-131.631	140.618	-49.322	-47.715	106.305	-32.386	104.785	220.258	189.741	-93.838	187.722	0.0010043	0.00073256	0.0001524	1055.6	9.3971e-06	6.3921e-06	989.15	415.86	6.9961e-06	8.1744e-06	434.56	178.89	172.29	72.66	6.6209e-06	74.367	0.0030477	0.0061391	0.0016944	1064	5.3008e-05	7.1617e-05	997.74	422.13	5.4942e-05	7.3265e-05	441.72	183.07	176.13	74.705	6.0772e-05	76.525	138.168	-38.815	-21.401	-121.311	-7.719	3.299	-122.816	-115.808	-17.508	13.100	-117.941	-113.535	-111.178	-105.685	-24.586	-108.571	-8191	255	
51357.113	1	1	0	0	0.08908	0.13494	0.17161	0.17505	0.12165	0.18304	0.19128	0.1116	0.18073	0.054261	0.070867	0.10586	0.2778	0.14521	0.29969	0.37326	-3.0583	-2.6792	-3.5042	-3.2542	-2.8	-3.5479	-2.8833	-3.5	-3.3375	-2.6542	-3.5708	-3.1979	-2.8958	-3.7271	-2.7854	-3.1479	126.831	-57.254	213.279	188.427	22.919	-86.516	82.799	-89.665	10.477	-100.329	178.934	-59.555	159.788	-110.174	-80.063	145.132	0.00094363	0.00078799	0.0001815	1056.3	3.9468e-06	7.3135e-06	985.14	416.01	1.066e-05	1.0613e-05	433.53	179.87	172.61	72.55	9.7608e-06	74.55	0.0030524	0.0062045	0.0017511	1064.7	5.3716e-05	7.3074e-05	996.91	423.07	5.482e-05	7.454e-05	442.44	183.61	176.36	74.79	6.1119e-05	76.874	137.903	-42.129	-45.288	-121.452	-24.554	37.548	-122.817	-115.793	-31.531	26.066	-117.852	-113.580	-111.027	-105.596	-13.238	-108.301	-8191	255	
51357.211	1	1	0	0	0.14248	0.14652	0.096553	0.31206	0.32386	0.18822	0.075261	0.29436	0.27292	0.11229	0.14566	0.12631	0.25547	0.136	0.066186	0.18936	-3.2083	-2.6188	-3.4333	-3.2146	-2.6583	-3.3708	-3.0229	-3.2896	-3.4604	-2.6833	-3.5917	-3.3125	-2.8354	-3.6167	-3.0667	-3.0438	37.061	213.595	-27.842	141.526	-108.623	94.694	156.126	221.372	201.237	54.015	97.092	155.678	210.433	87.145	117.181	205.652	0.0011165	0.00069707	0.00022006	1054.4	6.5686e-06	6.8524e-06	991	417.27	5.3745e-06	8.6541e-06	435.66	180.19	173.28	72.994	6.1836e-06	74.939	0.003032	0.0062094	0.0017426	1064.4	5.3725e-05	7.3076e-05	999.37	423.54	5.5118e-05	7.2464e-05	443.68	184.19	176.73	74.953	6.0562e-05	77.158	140.920	-47.461	-38.662	-121.287	11.287	21.329	-122.876	-115.644	-36.320	27.092	-117.531	-113.611	-111.236	-105.467	-32.951	-108.623	-8191	255	
51357.309	1	1	0	0	0.13921	0.065788	0.15928	0.16782	0.18289	0.052696	0.19094	0.31864	0.16955	0.18148	0.14566	0.084569	0.20761	0.10544	0.18022	0.053747	-3.1708	-2.6375	-3.2438	-3.4104	-2.7208	-3.6417	-3.0646	-3.0417	-3.5687	-2.8312	-3.4521	-3.4396	-2.7396	-3.6583	-3.0146	-2.9667	103.869	221.542	47.862	-103.831	153.535	51.585	158.660	78.912	-0.821	-12.953	141.462	65.756	92.394	-87.822	-124.362	206.923	0.0010029	0.00079106	0.00026472	1057.4	5.081e-06	3.8852e-06	990.61	416.38	4.385e-06	6.597e-06	435.59	179.53	172.21	72.653	7.5296e-06	74.292	0.0030028	0.0061747	0.0017038	1068.2	5.3596e-05	7.1351e-05	1001.4	423.87	5.5239e-05	7.2054e-05	443.84	183.46	175.99	74.675	5.9324e-05	76.418	135.186	-19.517	-39.234	-121.203	11.113	21.316	-122.540	-115.774	-49.090	5.041	-117.864	-113.467	-111.056	-105.458	-25.702	-108.421	-8191	255	
51357.402	1	1	0	0	0.19083	0.089007	0.23185	0.12352	0.14915	0.013332	0.068393	0.27123	0.16683	0.15685	0.079642	0.13344	0.2163	0.26088	0.19635	0.27938	-3.1604	-2.8812	-3.1896	-3.5208	-2.7542	-3.5229	-3.4083	-2.9271	-3.5812	-2.7479	-3.325	-3.4562	-2.7792	-3.5104	-3.2729	-2.8292	-84.489	50.582	-110.626	220.445	149.804	8.522	175.271	-127.092	115.905	168.194	225.103	156.694	84.210	-117.874	47.246	146.349	0.0010207	0.0008273	0.00021594	1054.7	5.2894e-06	5.1536e-06	987.31	417.54	3.6176e-06	1.1177e-05	434.53	179.48	172.21	72.687	5.7072e-06	74.518	0.0030298	0.0061814	0.0017464	1066.7	5.3945e-05	7.0354e-05	998.58	424.03	5.3701e-05	7.2216e-05	443.32	183.38	176.52	74.699	6.0467e-05	76.731	139.466	-59.097	-37.922	-121.308	-32.055	0.269	-122.929	-115.751	-8.867	8.762	-117.901	-113.561	-111.182	-105.629	8.142	-108.629	-8191	255	
51357.523	1	1	0	0	0.13368	0.034397	0.14456	0.31708	0.11904	0.23374	0.16313	0.081444	0.075444	0.15363	0.39115	0.12215	0.12713	0.13553	0.14293	0.28842	-3.2167	-2.6729	-3.0708	-3.6979	-2.6729	-3.2875	-3.45	-3.0375	-3.6146	-2.7667	-3.2458	-3.7188	-2.8937	-3.3354	-3.2896	-2.8625	115.279	79.799	152.983	201.226	-76.498	216.606	110.829	-83.201	189.284	-17.894	219.814	136.788	185.152	107.615	-10.263	217.526	0.00097953	0.0010099	0.00015447	1058.7	4.4519e-06	5.924e-06	986.63	418.26	8.7112e-06	6.0433e-06	437.96	180.87	173.08	73.106	6.2847e-06	74.817	0.0030676	0.0061447	0.0017496	1067.7	5.3468e-05	7.2051e-05	1001.2	424.86	5.6333e-05	7.2167e-05	444.88	184.45	176.94	75.175	6.0965e-05	77.03	140.575	-33.581	-29.942	-121.333	-28.870	7.942	-122.843	-115.558	-40.679	-1.130	-117.819	-113.357	-111.159	-105.519	-46.206	-108.273	-8191	255	
51357.617	1	1	0	0	0.039199	0.091661	0.068224	0.061508	0.26261	0.14232	0.17901	0.27897	0.060505	0.17398	0.19185	0.22487	0.065357	0.28186	0.071954	0.20457	-3.2562	-2.9083	-2.8604	-3.6167	-2.5792	-3.2021	-3.2438	-2.7188	-3.4562	-3.1	-2.8417	-3.5583	-2.95	-3.3187	-3.3146	-2.8646	-79.021	65.605	-102.904	207.701	-114.236	151.678	167.540	108.077	134.893	56.174	185.413	192.048	-99.899	204.448	133.394	133.076	0.0010734	0.00069083	0.00025356	1061.5	5.7996e-06	7.6974e-06	992.52	420.08	1.0744e-05	5.5632e-06	437.8	180.15	172.59	72.408	9.0475e-06	74.683	0.0030173	0.0061943	0.0017252	1071.8	5.4199e-05	7.2549e-05	1003	425.93	5.4376e-05	7.2503e-05	446.08	184.12	176.65	74.435	6.0017e-05	76.804	139.218	-26.825	-46.868	-121.419	-1.621	34.815	-122.739	-115.605	-8.090	7.302	-117.689	-113.441	-111.319	-105.401	-33.378	-108.636	-8191	255	
51357.715	1	1	0	0	0.17202	0.33244	0.13561	0.23112	0.092573	0.14329	0.13172	0.14222	0.14683	0.11184	0.12822	0.16411	0.23569	0.087215	0.30142	0.18107	-3.0708	-2.9042	-2.5271	-3.5771	-2.9104	-3.1229	-3.5104	-2.95	-3.4917	-3.0833	-2.8792	-3.8396	-3.075	-3.1917	-3.5729	-2.8979	225.824	180.527	-62.996	152.796	-19.009	8.810	178.900	113.541	122.668	5.611	-124.771	176.704	186.615	207.417	-77.035	175.531	0.00093043	0.00065445	0.00024702	1060.5	4.5191e-06	5.4402e-06	993.1	417.67	6.0621e-06	6.2791e-06	433.64	178.96	171.96	71.706	7.9889e-06	74.534	0.0029848	0.006171	0.0017642	1071.4	5.398e-05	7.2573e-05	1004.2	424.28	5.4765e-05	7.1149e-05	443.04	183	176.06	73.715	6.1974e-05	76.423	142.383	-58.049	-35.272	-120.999	-27.852	67.713	-122.531	-115.642	-2.809	19.737	-117.617	-113.327	-111.208	-105.208	3.564	-108.380	-8191	255	
51357.836	1	1	0	0	0.10107	0.19881	0.12208	0.21281	0.18305	0.18201	0.22055	0.096372	0.29987	0.11931	0.21814	0.25248	0.18458	0.28494	0.12755	0.11122	-2.9833	-3.0958	-2.6792	-3.5792	-2.8146	-2.7875	-3.5979	-2.8792	-3.2938	-3.35	-2.8979	-3.6104	-2.9875	-2.8625	-3.6063	-2.9292	-2.429	-37.212	131.347	165.836	-111.406	-85.943	179.361	209.693	-53.496	64.000	43.352	-80.742	175.366	152.940	210.914	223.770	0.00093086	0.00070076	0.0001169	1062.3	3.9757e-06	7.34e-06	990.16	417.36	7.8625e-06	6.9792e-06	434.61	179.83	173.21	72.925	5.6411e-06	74.499	0.003049	0.0062968	0.0017482	1070.2	5.3386e-05	7.2731e-05	1001.3	424.04	5.5322e-05	7.3327e-05	444.06	184.15	177.08	74.951	6.0861e-05	76.862	136.611	-17.251	-51.059	-121.035	-18.044	12.059	-122.665	-115.641	-12.270	33.229	-117.595	-113.434	-111.047	-105.414	-21.372	-108.153	-8191	255	
51357.906	1	1	0	0	0.31257	0.17129	0.076066	0.13511	0.12011	0.16765	0.18917	0.19213	0.11706	0.062884	0.094345	0.2594	0.19294	0.24182	0.14874	0.10432	-2.7417	-3.3333	-2.6937	-3.6104	-2.9271	-2.7604	-3.6792	-2.9792	-3.1458	-3.7625	-2.6979	-3.525	-3.3708	-2.7479	-3.5	-3.0604	-131.216	87.160	22.716	182.335	204.922	12.100	187.980	77.019	56.292	120.604	107.261	145.621	155.690	185.467	162.914	191.022	0.0010084	0.0010835	0.00026303	1064.4	7.878e-06	8.5716e-06	990.17	417.58	4.5134e-06	8.8508e-06	435.45	181.42	173.67	73.347	7.8024e-06	74.997	0.0030439	0.0062871	0.0017549	1070.8	5.3747e-05	7.301e-05	1001.1	424.92	5.5129e-05	7.2146e-05	444.73	184.61	177.48	75.269	6.0814e-05	77.156	137.755	-26.479	-32.126	-121.374	-5.600	6.074	-122.607	-115.831	-68.805	19.324	-117.650	-113.449	-111.055	-105.521	-7.957	-108.402	-8191	255	
51358.004	1	1	0	0	0.17016	0.20317	0.17673	0.03859	0.20462	0.17859	0.31682	0.36731	0.18086	0.042308	0.19786	0.25997	0.37322	0.12261	0.137	0.11959	-2.8125	-3.5458	-2.5375	-3.6271	-3.1229	-2.7958	-3.6312	-3.1937	-3.0479	-3.4875	-2.8729	-3.3792	-3.5	-2.7333	-3.7292	-3.1688	145.688	-18.440	9.490	132.393	-116.134	37.211	217.188	172.918	212.009	24.254	162.203	155.491	129.463	-132.062	-86.051	118.531	0.00099237	0.0010521	7.3769e-05	1063.3	7.6558e-06	6.4319e-06	997.4	421	4.4985e-06	7.9673e-06	439.99	181.85	174.18	74.372	3.7272e-06	75.292	0.0030253	0.0060495	0.0017197	1073.1	5.2674e-05	7.1828e-05	1005	427.51	5.4786e-05	7.0673e-05	448.88	185.79	178.28	76.371	5.9806e-05	77.508	134.667	-49.564	-74.377	-120.942	21.425	12.179	-122.379	-115.674	-20.221	2.561	-117.899	-113.679	-111.291	-105.564	-17.724	-108.546	-8191	255	
51358.098	1	1	0	0	0.14642	0.11804	0.17217	0.24731	0.12472	0.15747	0.14866	0.1737	0.14301	0.042758	0.11968	0.36921	0.20388	0.12746	0.19797	0.22756	-2.7417	-3.6375	-2.6396	-3.5521	-3.4833	-2.7	-3.7333	-3.1021	-2.8521	-3.5854	-3.0208	-3.4	-3.5083	-2.9167	-3.5583	-3.3208	111.172	93.395	165.086	148.644	-41.220	-30.134	195.352	86.330	119.784	-24.662	77.924	146.359	132.172	-117.643	8.909	198.281	0.0010293	0.00069896	0.00017918	1063.8	7.7099e-06	5.8345e-06	996.15	420.7	5.9558e-06	8.1077e-06	440.33	181.69	174.6	74.469	7.1865e-06	75.334	0.0030668	0.0061871	0.0017196	1075.9	5.2911e-05	7.1464e-05	1005	428.13	5.5596e-05	7.3864e-05	448.27	185.45	178.55	76.564	6.0891e-05	77.319	141.234	-4.355	-53.939	-121.173	10.196	48.472	-122.642	-115.946	-9.750	25.003	-118.005	-113.599	-111.116	-105.662	-31.057	-108.547	-8191	255	
51358.219	1	1	0	0	0.12054	0.29908	0.11882	0.14225	0.1442	0.05775	0.11048	0.10309	0.23592	0.072776	0.042659	0.18627	0.080059	0.2869	0.14797	0.10571	-2.3375	-3.4062	-2.7604	-3.1729	-3.5312	-2.6125	-3.6167	-3.3563	-2.5604	-3.5479	-2.9417	-3.2875	-3.6583	-2.8083	-3.5292	-3.4125	22.828	-80.367	12.759	-131.279	94.885	-80.630	51.212	121.443	98.742	-124.357	-107.133	84.885	140.146	207.293	193.516	170.059	0.00099385	0.00078725	0.00012268	1063.7	8.7998e-06	6.8918e-06	993.68	421.76	4.8799e-06	3.0769e-06	438.69	181.09	174.64	74.508	3.509e-06	75.425	0.0030122	0.0061284	0.0017071	1072	5.329e-05	7.2094e-05	1003.4	427.74	5.526e-05	7.2086e-05	446.67	185.36	178.71	76.587	6.0004e-05	77.45	134.464	-57.975	-38.152	-121.092	2.582	28.785	-122.790	-115.735	-6.484	33.247	-117.758	-113.387	-111.039	-105.677	8.581	-108.479	-8191	255	
51358.316	1	1	0	0	0.2136	0.18503	0.24177	0.064132	0.26751	0.11464	0.28326	0.061134	0.10118	0.21211	0.018851	0.065831	0.2038	0.063232	0.15767	0.13461	-2.2938	-3.5979	-2.8125	-3.2458	-3.5771	-2.7	-3.3417	-3.3625	-2.6937	-3.6021	-3.0479	-2.9813	-3.7458	-2.9417	-3.2146	-3.5792	116.894	-60.936	121.805	177.659	84.577	130.656	158.736	194.322	29.851	73.557	115.377	-58.910	190.424	-11.717	35.860	59.573	0.0010574	0.00062682	0.00021344	1061.6	5.5397e-06	7.4102e-06	988.6	420.12	8.0129e-06	8.4976e-06	439.68	182.26	175.22	74.508	6.8249e-06	75.541	0.0030621	0.0061945	0.0017251	1072.6	5.2595e-05	7.2213e-05	1001.8	427.39	5.6138e-05	7.379e-05	447.86	185.92	179.11	76.538	6.1512e-05	77.79	135.400	-32.050	-45.789	-121.092	22.042	39.685	-122.709	-115.886	-11.907	15.207	-117.810	-113.167	-111.087	-105.490	-19.274	-108.448	-8191	255	
51358.410	1	1	0	0	0.34108	0.21574	0.12453	0.036192	0.11876	0.11555	0.1674	0.23969	0.30595	0.17709	0.057051	0.35896	0.16708	0.28616	0.16915	0.0045196	-2.1312	-3.5479	-3.0458	-2.9646	-3.6583	-2.7604	-3.2917	-3.6167	-2.6375	-3.5375	-3.2562	-3.0146	-3.6562	-3.0521	-3.0229	-3.6333	-53.794	-39.075	124.064	-123.719	-41.911	130.088	162.758	122.493	-64.893	81.332	-2.206	190.456	-122.348	-102.677	-97.815	-118.064	0.0010607	0.00067668	0.00013829	1064.1	6.1681e-06	9.648e-06	997.43	422.84	1.1132e-05	6.9263e-06	440.71	181.71	174.12	74.1	9.1273e-06	75.08	0.0030834	0.0062705	0.0017353	1074.8	5.4221e-05	7.4107e-05	1005.9	427.97	5.6507e-05	7.2146e-05	447.71	185.57	178.41	76.053	6.108e-05	77.374	133.423	-51.120	-28.757	-121.024	9.770	32.229	-122.286	-115.753	-22.148	13.071	-117.793	-113.386	-110.877	-105.406	-23.305	-108.520	-8191	255	
51358.484	1	1	0	0	0.15877	0.14906	0.2355	0.22428	0.062826	0.28057	0.12511	0.35555	0.25185	0.32057	0.18421	0.1762	0.10582	0.37937	0.23485	0.21199	-2.2771	-3.3521	-3.0583	-2.7604	-3.575	-2.9938	-3.0708	-3.5646	-2.8167	-3.3208	-3.3729	-2.7396	-3.7521	-3.1104	-3	-3.6292	212.439	-19.805	-114.481	148.503	-64.856	158.358	106.696	184.254	-84.186	136.518	198.526	8.785	105.258	201.710	39.703	87.831	0.00096413	0.00066227	0.00021918	1056.4	5.8628e-06	6.9858e-06	990.68	418.8	6.8093e-06	1.0353e-05	437.88	178.48	172.3	72.211	7.6845e-06	73.392	0.0031346	0.0062788	0.0017744	1070.1	5.4728e-05	7.4162e-05	1000.7	425.68	5.7284e-05	7.4136e-05	444.15	182.29	175.98	74.239	6.1205e-05	75.859	137.381	-51.093	-35.423	-121.065	15.382	19.157	-122.729	-115.765	-29.573	-1.686	-117.683	-113.584	-110.837	-105.346	-8.191	-108.350	-8191	255	
51358.602	1	1	0	0	0.059597	0.23875	0.065887	0.10077	0.24098	0.16346	0.40903	0.17936	0.051592	0.071541	0.2719	0.095345	0.14105	0.26445	0.10881	0.20193	-2.4	-3.3396	-3.3937	-2.8563	-3.4333	-3.0687	-3.1583	-3.6021	-2.6958	-3.2167	-3.4208	-2.7458	-3.5792	-3.0354	-2.8563	-3.75	-21.760	189.336	-127.900	132.910	-31.042	-12.915	99.667	-52.437	135.546	123.872	99.818	70.635	30.575	201.656	-25.709	199.805	0.0010153	0.00069717	0.00019913	1064.3	2.5109e-06	4.0862e-06	993.36	418.5	5.2036e-06	1.0325e-05	436.47	177.09	170.81	71.403	7.6701e-06	73.681	0.0030636	0.0063009	0.0017419	1073.6	5.4034e-05	7.2819e-05	1006.3	425.41	5.6085e-05	7.3459e-05	444.11	181.03	174.9	73.542	6.1268e-05	75.547	139.332	-48.640	-41.727	-120.817	-23.257	35.392	-122.269	-115.496	-29.366	13.989	-117.736	-113.516	-110.793	-105.105	-15.492	-108.240	-8191	255	
51358.699	1	1	0	0	0.14369	0.14449	0.093632	0.095696	0.10393	0.20494	0.25986	0.17196	0.21122	0.15948	0.28817	0.22674	0.16089	0.18087	0.22686	0.038441	-2.2938	-3.2729	-3.6271	-2.8708	-3.3396	-2.9833	-2.725	-3.7313	-2.7583	-2.9938	-3.6958	-2.7687	-3.4688	-3.5312	-2.7771	-3.6813	77.830	32.682	29.973	-61.170	220.926	110.551	180.305	167.177	-37.698	-69.800	210.238	205.823	188.254	99.027	-28.055	149.851	0.00091798	0.00095859	0.0001612	1065.9	6.6522e-06	6.9152e-06	1003.7	420.68	8.9749e-06	6.4252e-06	437.54	178.01	171.58	71.608	7.1001e-06	73.95	0.0030812	0.0061382	0.0017305	1077.3	5.4452e-05	7.1742e-05	1011.9	426.47	5.5359e-05	7.3306e-05	445.42	181.97	175.68	73.454	6.1582e-05	76.268	139.356	-30.607	-56.238	-120.815	-18.782	17.169	-122.237	-115.336	-35.193	42.214	-117.543	-113.121	-110.657	-105.036	-12.596	-108.140	-8191	255	
51358.797	1	1	0	0	0.39211	0.058216	0.045869	0.22977	0.072234	0.10105	0.16622	0.15676	0.20384	0.058275	0.26278	0.22757	0.32024	0.039593	0.16064	0.13582	-2.5292	-2.9938	-3.3563	-2.9667	-3.3333	-3.3917	-2.9521	-3.6083	-2.9208	-3.0104	-3.5854	-2.7708	-3.2083	-3.3854	-2.6375	-3.6792	170.757	139.452	38.540	126.675	170.376	-79.616	209.889	166.165	162.320	39.304	202.110	149.245	199.015	-3.501	-21.660	171.896	0.00091187	0.00072524	0.00025059	1072.9	1.1474e-06	7.4532e-06	1002.4	418.96	8.2652e-06	6.3897e-06	437.44	179.15	172.48	71.741	9.353e-06	74.089	0.0030779	0.0062068	0.0017689	1081.4	5.4173e-05	7.4203e-05	1013.6	427.07	5.7056e-05	7.4643e-05	446	183.29	176.35	73.834	6.2304e-05	76.464	136.452	-39.100	-25.952	-120.864	-11.659	16.056	-122.131	-115.019	-28.450	10.479	-117.426	-113.059	-110.662	-105.110	-10.179	-108.077	-8191	255	
51358.914	1	1	0	0	0.17662	0.12534	0.092183	0.13733	0.48723	0.14197	0.28034	0.201	0.12444	0.10964	0.078399	0.17192	0.18345	0.13256	0.061611	0.28323	-2.7417	-2.7375	-3.6354	-2.8271	-3.1104	-3.4354	-2.8667	-3.6896	-3.0938	-2.8563	-3.6146	-2.8458	-3.2083	-3.6333	-2.7313	-3.3542	157.368	105.714	-122.842	215.145	-29.088	189.789	151.715	217.027	172.906	15.002	-105.812	159.538	149.996	196.830	-53.322	177.994	0.00095358	0.00086045	0.00025383	1067.3	8.8809e-06	9.4312e-06	997.84	419.31	1.0278e-05	5.4024e-06	438.54	179.69	173.15	72.506	6.4935e-06	74.868	0.0030558	0.0063162	0.0017389	1077.3	5.4683e-05	7.369e-05	1008.5	427.26	5.5905e-05	7.3529e-05	445.1	183.54	177.27	74.533	6.1431e-05	76.883	133.712	-45.663	-40.556	-120.873	17.569	-6.022	-122.355	-115.230	-24.897	40.378	-117.264	-112.911	-110.665	-104.767	-1.858	-107.731	-8191	255	
51359.012	1	1	0	0	0.06948	0.10532	0.14763	0.32195	0.10001	0.14505	0.173	0.23239	0.014373	0.052261	0.16732	0.16769	0.27379	0.29534	0.032982	0.22182	-2.6854	-2.8187	-3.5917	-2.8979	-2.9896	-3.6292	-2.8271	-3.5146	-3.35	-2.85	-3.7667	-3.0396	-3.0833	-3.8	-2.8125	-3.3542	60.011	161.449	176.850	171.247	-130.193	-26.813	192.604	115.845	109.269	209.982	81.930	37.496	-115.376	213.175	-87.801	124.773	0.0010337	0.00061481	0.00010064	1066.8	7.515e-06	7.757e-06	996.23	420.99	5.5806e-06	9.0901e-06	438.19	180.42	173.33	72.95	6.1091e-06	74.81	0.0030374	0.0063329	0.001739	1075.6	5.37e-05	7.135e-05	1006	427.53	5.4956e-05	7.3052e-05	445.98	183.91	177.23	74.792	6.0716e-05	76.843	134.057	-42.164	-29.927	-120.682	-5.320	34.295	-122.132	-115.294	-16.273	15.136	-117.041	-112.890	-110.472	-105.278	-37.694	-107.728	-8191	255	
51359.109	1	1	0	0	0.23448	0.044298	0.14066	0.21228	0.27701	0.47123	0.060934	0.30117	0.26684	0.27964	0.16423	0.11161	0.13071	0.10853	0.25985	0.14445	-2.6813	-2.6708	-3.5625	-3.0875	-2.8229	-3.4583	-2.7729	-3.3875	-3.3187	-2.7333	-3.6063	-3.0396	-3.1188	-3.7917	-2.6875	-3.0958	-37.799	-107.364	83.848	213.596	185.042	71.466	-109.117	184.063	-15.803	49.313	215.016	123.680	-80.525	-41.102	45.675	33.468	0.0010268	0.00067893	0.00027936	1064.2	2.5377e-06	5.6956e-06	996.15	420.85	3.0554e-06	5.8502e-06	438.49	181.51	173.91	73.036	9.0271e-06	75.532	0.0030262	0.006268	0.0016768	1076.2	5.308e-05	7.0537e-05	1007.5	427.74	5.5551e-05	7.1661e-05	448.16	184.94	178.15	75.227	5.8791e-05	77.521	140.427	-45.259	-26.051	-120.907	12.256	14.276	-122.646	-115.643	-31.746	39.397	-117.714	-113.501	-110.942	-105.290	-19.072	-108.448	-8191	255	
51359.203	1	1	0	0	0.11069	0.0951	0.1772	0.37807	0.13262	0.11114	0.091605	0.17664	0.15212	0.16502	0.039186	0.033281	0.19715	0.27696	0.16296	0.16792	-2.9833	-2.7417	-3.5104	-3.3667	-2.8708	-3.6333	-2.9229	-3.2375	-3.3708	-2.5875	-3.4646	-3.3625	-2.9083	-3.5646	-2.7958	-3.2042	-129.467	-19.304	-64.350	-130.111	-90.378	107.596	163.530	136.180	21.771	-95.007	199.729	-91.348	69.571	223.309	123.900	145.864	0.0010305	0.00078214	0.00019658	1072.5	5.4852e-06	3.4191e-06	997.99	422.67	1.0077e-05	5.4502e-06	440.28	181.39	175.11	73.862	7.4702e-06	75.187	0.0029755	0.0061428	0.0016877	1080.3	5.2558e-05	7.0312e-05	1009.2	429.25	5.4206e-05	7.1344e-05	448.43	185.18	178.89	75.97	5.8867e-05	77.284	138.012	-38.964	-53.406	-121.475	-38.181	57.278	-122.758	-115.629	-6.372	20.816	-117.787	-113.800	-111.250	-105.424	0.296	-108.625	-8191	255	
51359.301	1	1	0	0	0.11285	0.16992	0.20524	0.29921	0.27093	0.1391	0.1379	0.35697	0.12392	0.20382	0.13891	0.08438	0.11799	0.16875	0.13532	0.2452	-3.0125	-2.6125	-3.4458	-3.4875	-2.8042	-3.4667	-2.8958	-3.1854	-3.4938	-2.6458	-3.45	-3.4125	-2.8729	-3.5583	-3.1521	-3.1354	57.222	-116.432	-125.953	188.360	-96.920	8.816	203.124	176.497	79.296	-103.257	88.848	172.878	144.046	-83.503	135.446	209.077	0.001039	0.00072565	0.00025353	1068	8.0421e-06	6.127e-06	993.21	421.19	7.5685e-06	7.7805e-06	440.18	181.65	175.48	74.3	5.8556e-06	75.181	0.0029445	0.0061629	0.0016837	1076.3	5.1725e-05	7.102e-05	1004.7	428.77	5.2859e-05	6.9851e-05	448.34	184.96	179.1	76.371	5.8599e-05	77.347	136.538	-41.361	-80.938	-121.277	-32.665	28.697	-122.624	-115.449	-22.888	25.458	-117.894	-113.454	-110.541	-104.882	-33.750	-108.106	-8191	255	
51359.395	1	1	0	0	0.14813	0.038758	0.091339	0.06328	0.20372	0.03903	0.24052	0.24067	0.094388	0.27482	0.16686	0.27104	0.18046	0.34651	0.19531	0.087167	-3.3208	-2.7229	-3.0812	-3.4375	-2.7188	-3.5083	-3.0563	-2.8187	-3.6583	-2.8104	-3.3375	-3.5563	-2.8229	-3.4437	-3.1083	-2.8104	-85.735	-112.266	-127.302	110.934	-82.484	186.602	-5.674	216.196	162.907	126.863	178.213	218.848	211.811	184.655	-80.983	43.399	0.00098296	0.00084754	0.00020968	1063.1	5.4474e-06	5.6133e-06	1001.9	422.44	4.5667e-06	5.6259e-06	441.35	180.73	175.51	74.353	4.9938e-06	75.43	0.002982	0.0060302	0.0016669	1075.9	5.2766e-05	7.0841e-05	1008.3	428.91	5.3399e-05	7.0788e-05	449.05	184.74	178.95	76.373	5.8142e-05	77.601	136.562	-61.524	-53.407	-120.913	-39.014	11.662	-122.120	-115.102	-32.732	17.690	-117.105	-113.070	-110.579	-104.824	-10.618	-108.070	-8191	255	
51359.516	1	1	0	0	0.17327	0.14	0.1546	0.12734	0.27101	0.12891	0.31477	0.029156	0.34214	0.21818	0.078474	0.14119	0.033874	0.16397	0.075459	0.30585	-3.2104	-2.8292	-3.0771	-3.7021	-2.6167	-3.3354	-3.3312	-3	-3.6583	-2.8271	-3.1708	-3.825	-2.8125	-3.2542	-3.3292	-2.9125	-26.116	158.338	-12.569	158.692	-102.231	55.635	74.883	182.382	48.626	11.399	123.713	215.786	207.174	178.707	196.195	207.826	0.0010336	0.00077458	0.00023554	1065.2	4.5585e-06	7.7085e-06	994.68	424.08	2.7024e-06	1.1906e-05	441.97	182.81	174.8	74.356	9.4153e-06	75.676	0.0029549	0.0060707	0.0017002	1076.6	5.2285e-05	7.0997e-05	1006.9	430.15	5.3744e-05	7.0661e-05	450.43	186.01	179	76.341	5.8589e-05	77.808	138.103	-51.639	-52.039	-120.706	-19.756	29.548	-122.261	-115.014	-17.099	40.663	-117.035	-112.747	-110.326	-104.905	-31.164	-107.744	-8191	255	
51359.609	1	1	0	0	0.10688	0.16065	0.075289	0.10411	0.12656	0.064004	0.17916	0.40014	0.28597	0.084881	0.25887	0.24025	0.091741	0.15008	0.083486	0.044789	-3.1208	-2.9167	-2.9479	-3.7521	-2.5563	-3.3396	-3.4167	-2.8979	-3.5417	-3.0583	-2.9375	-3.75	-2.9771	-3.3229	-3.3542	-2.7583	25.231	12.683	-50.871	-83.821	-88.229	197.333	39.275	130.375	-106.462	-86.091	-128.301	186.659	-125.770	-122.742	19.905	-64.263	0.00097911	0.00062123	0.00025819	1066.5	8.8158e-06	7.187e-06	994.09	422.06	8.1254e-06	7.0929e-06	442.25	181.3	174.75	74.098	7.1573e-06	75.355	0.0030087	0.0060357	0.0017055	1076.2	5.2499e-05	7.0911e-05	1006.9	429.45	5.3841e-05	7.0725e-05	448.92	184.76	178.53	76.09	5.93e-05	77.145	134.627	-21.285	-21.967	-120.595	-23.294	25.992	-122.647	-115.462	-25.146	64.855	-117.255	-113.459	-111.015	-105.119	-9.072	-108.212	-8191	255	
51359.707	1	1	0	0	0.11415	0.045286	0.15663	0.087397	0.092918	0.1959	0.17191	0.26479	0.14262	0.20105	0.082992	0.12305	0.072272	0.12113	0.16849	0.16847	-3.1167	-3.0563	-2.9188	-3.775	-2.9792	-3.1958	-3.4417	-2.9146	-3.4313	-3.1271	-3.0438	-3.7104	-2.8229	-3.2333	-3.4729	-2.9229	-45.334	144.748	-54.269	216.471	173.044	-74.026	-74.060	174.956	67.066	141.010	42.796	182.276	11.359	192.412	-72.023	106.203	0.00097637	0.00044618	0.00026887	1067.3	1.001e-05	9.1532e-06	994.83	420.62	7.5766e-06	5.2445e-06	440.03	179.53	174.22	73.779	7.7225e-06	75.012	0.0029807	0.0061048	0.0017124	1076.2	5.3738e-05	7.0476e-05	1003.2	428.13	5.3452e-05	7.064e-05	447.35	183.84	178.09	75.603	6.0676e-05	77.036	137.913	-72.219	-49.699	-121.067	1.479	25.279	-122.844	-115.548	-21.542	7.940	-117.669	-113.039	-110.672	-104.983	-6.861	-107.963	-8191	255	
51359.777	1	1	0	0	0.18471	0.10429	0.031653	0.15639	0.096779	0.23535	0.13777	0.24439	0.066032	0.2131	0.12769	0.21276	0.3426	0.3322	0.18612	0.22315	-2.8	-3.2438	-2.6604	-3.9396	-2.6688	-3.1333	-3.6104	-3.0229	-3.2417	-3.0438	-2.9771	-3.6688	-3.0875	-3.0396	-3.4646	-2.9396	-53.502	120.843	10.393	-132.503	67.861	11.527	83.368	148.989	-71.059	159.877	102.559	101.871	185.904	203.939	221.434	150.428	0.0010451	0.00082205	0.00020791	1066.7	1.0055e-05	5.1829e-06	988.73	422.8	6.8995e-06	9.1913e-06	437.14	180.79	174.38	73.54	7.4581e-06	75.231	0.0029816	0.006098	0.0017392	1076.6	5.2734e-05	7.1808e-05	1003.4	428.21	5.4066e-05	7.0956e-05	446.76	184.49	178.13	75.633	6.017e-05	77.31	139.768	-53.925	-44.659	-121.129	-6.817	21.377	-122.512	-115.465	-22.523	10.212	-117.601	-113.106	-110.939	-105.063	-25.044	-108.062	-8191	255	
51359.898	1	1	0	0	0.28033	0.17434	0.079674	0.28732	0.2423	0.12739	0.18594	0.25384	0.073474	0.071699	0.093719	0.41283	0.27126	0.235	0.078729	0.083938	-2.7896	-3.3771	-2.575	-3.7521	-3.0938	-2.6729	-3.7354	-2.9875	-3.0062	-3.4437	-2.8208	-3.75	-3.2354	-2.8812	-3.4875	-2.7917	-8.451	62.605	138.258	151.357	-49.462	-57.450	113.444	116.568	-104.408	4.984	168.724	183.918	-122.297	136.759	203.742	-87.394	0.0010024	0.00054735	0.00020364	1068	3.1864e-06	8.3807e-06	996.22	422.92	6.4203e-06	4.2916e-06	441.03	181.53	174.8	73.879	7.255e-06	75.37	0.0030274	0.0062413	0.0017613	1076.8	5.3567e-05	7.2999e-05	1007.5	428.81	5.5303e-05	7.2288e-05	448.92	185.33	178.87	75.932	6.0586e-05	77.653	136.337	-31.216	-46.020	-120.786	-15.544	14.224	-122.206	-115.395	-4.174	9.925	-117.687	-113.296	-110.726	-105.275	-54.740	-108.066	-8191	255	
51359.996	1	1	0	0	0.15657	0.18333	0.30619	0.19385	0.18379	0.027197	0.22113	0.26216	0.053193	0.11527	0.19363	0.022362	0.16502	0.21541	0.13153	0.14607	-2.8396	-3.3958	-2.6521	-3.4813	-3.1396	-2.8187	-3.6354	-2.9208	-3.05	-3.5417	-2.8104	-3.5292	-3.2687	-2.8125	-3.7354	-3.0896	-14.167	28.216	48.560	206.311	-115.109	51.022	177.620	173.650	-57.587	153.575	207.650	-51.523	-19.800	192.891	33.079	52.578	0.00096992	0.00059602	9.4183e-05	1064.4	6.2578e-06	6.2601e-06	992.7	421.5	7.1311e-06	8.9736e-06	439.09	180.39	174.11	73.648	3.283e-06	74.818	0.0030413	0.0062845	0.0017559	1074.7	5.3304e-05	7.1866e-05	1004.6	428.44	5.5775e-05	7.315e-05	447.04	183.9	177.85	75.617	6.0748e-05	76.889	136.258	-55.176	-43.454	-120.837	1.501	32.550	-122.573	-115.506	-19.726	9.532	-117.343	-113.285	-110.928	-105.096	-16.357	-107.945	-8191	255	
51360.094	1	1	0	0	0.22921	0.13459	0.13386	0.29463	0.13411	0.18985	0.092069	0.059272	0.1661	0.05193	0.11767	0.25115	0.013043	0.24811	0.24176	0.19234	-2.55	-3.5187	-2.8396	-3.3396	-3.2729	-2.6937	-3.7	-3.1979	-2.8812	-3.6479	-2.8625	-3.3458	-3.4917	-2.8583	-3.6021	-3.1813	141.019	83.967	-56.756	163.497	-60.643	-74.470	-129.162	225.431	-13.595	-130.124	184.105	219.682	-130.796	205.298	43.753	203.006	0.0009698	0.00088732	0.00021221	1064.1	6.5214e-06	7.1315e-06	994.09	421.74	9.609e-06	1.0455e-05	437.08	180.36	173.54	73.326	5.2356e-06	74.482	0.0030187	0.0062172	0.0017328	1073.6	5.2789e-05	7.4929e-05	1002.7	428.07	5.5032e-05	7.1867e-05	445.85	183.86	177.75	75.33	5.9845e-05	76.682	138.887	-47.366	-39.934	-120.965	30.423	16.531	-122.326	-115.312	-16.728	19.012	-117.893	-113.557	-110.953	-105.473	-2.553	-108.502	-8191	255	
51360.188	1	1	0	0	0.15866	0.10666	0.070404	0.22376	0.10589	0.047448	0.14221	0.26333	0.21175	0.090886	0.41414	0.13244	0.50007	0.16681	0.10007	0.21942	-2.6937	-3.5021	-2.6312	-3.2208	-3.3792	-2.625	-3.4875	-3.1521	-2.9792	-3.425	-3.1208	-3.3187	-3.7021	-2.8312	-3.4188	-3.1229	22.703	-84.949	31.735	160.983	141.881	17.121	-105.834	207.927	-91.070	-82.503	205.345	151.782	193.960	206.171	-20.473	-66.635	0.0010633	0.00033497	0.00027762	1064.7	5.6829e-06	7.563e-06	990.11	421.95	5.8371e-06	6.0327e-06	437.11	180.23	173.6	72.966	5.7246e-06	74.703	0.0030082	0.0061882	0.0017191	1074.5	5.3154e-05	7.2799e-05	1004.2	428.18	5.4582e-05	7.1666e-05	446.12	184.33	177.76	75.159	5.9869e-05	76.872	135.985	-55.797	-37.534	-121.168	-8.328	22.648	-122.792	-115.992	4.183	-6.295	-118.018	-113.443	-111.309	-105.583	-8.389	-108.595	-8191	255	
51360.285	1	1	0	0	0.17701	0.14117	0.044363	0.18355	0.22872	0.040716	0.16418	0.15843	0.15417	0.064825	0.10495	0.1129	0.2128	0.16296	0.2374	0.103	-2.4146	-3.4083	-2.8396	-3.0229	-3.6125	-2.6937	-3.6083	-3.4479	-2.6583	-3.5146	-2.9583	-3.0333	-3.4479	-2.6917	-3.3375	-3.4708	-49.474	180.331	-54.874	-117.179	78.970	113.427	-130.744	142.297	75.726	43.150	-92.977	108.316	184.685	207.607	16.556	129.963	0.0010037	0.00077184	9.8691e-05	1064.5	5.73e-06	5.7132e-06	992.9	421.79	1.2513e-05	8.3379e-06	440.53	180.39	173.76	72.782	8.7381e-06	74.548	0.0030839	0.0061582	0.001723	1077.1	5.283e-05	7.2234e-05	1007.3	428.57	5.5869e-05	7.1491e-05	447.81	184.24	177.85	75.044	6.0945e-05	76.741	136.210	-54.714	-14.497	-121.466	-30.833	17.329	-122.965	-116.019	-39.877	18.344	-118.143	-113.628	-111.190	-105.663	2.338	-108.593	-8191	255	
51360.379	1	1	0	0	0.31706	0.2016	0.23139	0.23665	0.25728	0.078041	0.092182	0.20012	0.128	0.17274	0.051313	0.15215	0.15857	0.13555	0.01474	0.15424	-2.4354	-3.5583	-3.0875	-2.9104	-3.7083	-2.6375	-3.2333	-3.5458	-2.6167	-3.5208	-3.3146	-3.05	-3.4688	-2.8854	-3.1042	-3.5687	109.046	-35.037	-64.398	180.466	162.728	223.833	33.585	163.241	-70.496	100.640	89.917	192.206	137.264	188.811	-104.887	164.484	0.0010439	0.00088042	0.00018398	1066.7	6.4564e-06	4.5771e-06	991.77	419.26	1.0458e-05	6.7431e-06	438.28	179.24	173.38	72.787	3.9321e-06	74.363	0.0030831	0.0060713	0.0017241	1076.1	5.3906e-05	7.1634e-05	1004.4	427.42	5.508e-05	7.1237e-05	445.76	183.12	177.47	74.956	5.9493e-05	76.489	140.242	-47.665	-39.143	-121.342	-9.928	17.994	-122.945	-116.089	-2.153	15.023	-118.053	-113.720	-111.191	-105.953	31.523	-108.982	-8191	255	
51360.477	1	1	0	0	0.1257	0.11353	0.19659	0.22859	0.26077	0.28722	0.14541	0.38793	0.19551	0.10192	0.072748	0.27461	0.090832	0.1425	0.08438	0.14218	-2.2313	-3.45	-3.0521	-2.8833	-3.3625	-2.6937	-3.1125	-3.6292	-2.7625	-3.4417	-3.3979	-2.7792	-3.6521	-2.8958	-2.9479	-3.6063	94.463	-23.455	116.515	-127.385	196.599	-54.420	8.562	111.882	46.436	-37.689	147.931	-103.173	93.288	-7.933	4.299	-47.963	0.0010388	0.00084558	0.00021272	1061.7	8.0528e-06	6.3864e-06	993.66	420.56	7.0213e-06	3.8936e-06	439.56	180.54	174.51	73.551	5.9714e-06	74.972	0.0030491	0.0060917	0.0017026	1072.9	5.2633e-05	7.2242e-05	1002.8	427.98	5.5097e-05	7.1788e-05	447.09	184.46	178.53	75.608	6.0017e-05	77.197	146.197	-55.203	-53.953	-121.588	8.092	32.804	-123.144	-115.750	-43.978	-6.790	-118.227	-113.910	-111.335	-105.837	-56.459	-108.920	-8191	255	
51360.598	1	1	0	0	0.16108	0.18925	0.14526	0.40568	0.17915	0.24741	0.15244	0.32973	0.19433	0.14105	0.23573	0.17068	0.15704	0.13643	0.22533	0.098104	-2.3583	-3.1833	-3.2	-2.8583	-3.5208	-2.9	-3.0896	-3.5708	-2.7938	-3.0583	-3.4417	-2.9833	-3.65	-3.3354	-2.8396	-3.5354	59.865	197.489	78.462	219.726	90.547	87.724	208.338	163.247	182.642	78.031	169.486	179.795	172.917	215.479	49.070	221.059	0.0010429	0.00054109	0.00021617	1063.3	5.6601e-06	5.3331e-06	991.38	422.22	5.8986e-06	4.876e-06	439.08	181.28	174.93	74.007	4.7575e-06	75.244	0.0030498	0.0061407	0.0017235	1072.8	5.2947e-05	7.1037e-05	1001.9	428.51	5.6106e-05	7.1334e-05	447.95	185.2	179.11	76.037	6.047e-05	77.521	135.730	-32.276	-45.684	-121.476	-41.177	23.594	-122.805	-115.951	-54.280	45.757	-118.178	-113.567	-111.287	-105.824	-29.248	-108.736	-8191	255	
51360.691	1	1	0	0	0.14355	0.055262	0.024626	0.24293	0.042364	0.26661	0.15693	0.42205	0.25186	0.25211	0.1781	0.035797	0.12073	0.35783	0.1987	0.16276	-2.3625	-3.0917	-3.5062	-2.7958	-3.4188	-3.1729	-2.9833	-3.7146	-2.6979	-3.1729	-3.4938	-2.8875	-3.6312	-3.3771	-2.7	-3.5958	-53.572	-55.630	-91.784	201.509	-81.347	117.327	199.211	214.243	-51.089	219.074	187.243	-26.323	175.860	181.317	-1.814	160.193	0.0010279	0.0006995	0.00021825	1066	3.4627e-06	6.4364e-06	990.68	421.66	5.623e-06	5.1106e-06	438.92	181.07	174.52	73.667	6.822e-06	74.996	0.0030506	0.006136	0.0017133	1074	5.3363e-05	7.1794e-05	1002.4	428.81	5.5136e-05	7.2618e-05	447.92	184.76	178.59	75.685	6.1369e-05	77.243	138.356	-67.324	-6.969	-121.584	12.964	31.019	-122.812	-115.805	-22.672	16.230	-118.138	-113.580	-111.358	-105.941	-15.184	-108.707	-8191	255	
51360.789	1	1	0	0	0.10592	0.30567	0.099827	0.12369	0.10253	0.33073	0.10303	0.086541	0.11979	0.067748	0.24291	0.23583	0.17152	0.189	0.18594	0.20745	-2.3187	-2.8646	-3.4729	-2.7583	-3.3688	-3.3187	-2.7396	-3.7354	-2.8646	-3.0458	-3.6604	-2.8521	-3.4813	-3.5312	-2.7354	-3.6937	131.383	-24.846	223.112	-133.351	202.575	102.677	55.535	87.833	-33.337	180.813	-52.298	-67.262	-94.997	43.344	-17.348	119.100	0.00095717	0.00081438	0.00017825	1061.9	9.0244e-06	7.7314e-06	988.69	421.25	5.355e-06	5.1084e-06	438.92	180.85	174.72	73.989	3.9197e-06	75.198	0.0030597	0.0060873	0.0017368	1070.3	5.3015e-05	7.0702e-05	998.59	428.2	5.4452e-05	7.1114e-05	446.59	184.46	178.76	75.947	6.1736e-05	77.306	136.032	-51.299	-34.899	-121.564	-18.837	-2.510	-123.023	-115.847	-10.084	38.561	-118.075	-113.778	-111.548	-105.956	8.128	-108.801	-8191	255	
51360.883	1	1	0	0	0.18125	0.032979	0.16412	0.12173	0.019034	0.20076	0.25229	0.25973	0.097921	0.088661	0.16434	0.20275	0.2996	0.048173	0.0030766	0.27425	-2.4625	-2.9396	-3.5229	-2.8729	-3.0833	-3.375	-2.7	-3.5646	-3.1646	-3.0854	-3.7979	-2.9896	-3.3917	-3.6396	-2.6396	-3.6	62.006	83.610	151.242	147.651	-104.102	-12.622	145.136	-117.952	73.730	69.583	-61.184	169.118	193.532	122.203	-7.850	113.212	0.0010752	0.0010374	0.00020962	1058.2	6.0325e-06	9.0088e-06	983.75	421.25	6.8326e-06	6.7055e-06	436.62	181.02	175	74.052	7.0529e-06	75.894	0.0029933	0.0063098	0.0017418	1069.1	5.3565e-05	7.2547e-05	996.7	427.73	5.4968e-05	7.2771e-05	446.37	184.82	179.22	76.085	6.1855e-05	77.762	135.645	-53.455	-42.179	-121.782	-10.480	19.118	-123.004	-116.061	-23.939	39.403	-118.365	-113.799	-111.316	-105.802	8.630	-108.939	-8191	255	
51361.004	1	1	0	0	0.24988	0.16738	0.22974	0.10564	0.19182	0.1354	0.010956	0.077058	0.054785	0.13516	0.2837	0.34501	0.051633	0.28664	0.17429	0.2407	-2.7771	-2.8937	-3.5875	-3.0229	-3.1771	-3.7208	-2.9562	-3.4729	-3.1396	-2.8771	-3.6729	-3.0208	-3.0625	-3.6646	-2.7313	-3.4417	-28.261	213.111	-37.627	-14.561	94.124	-114.497	185.003	164.613	41.504	-100.972	-59.352	132.513	-121.020	161.804	84.519	203.999	0.0010825	0.00069833	0.00013467	1056.9	6.268e-06	6.037e-06	987.82	420.26	4.6622e-06	7.3812e-06	438.21	180.3	175.15	73.924	4.4521e-06	75.813	0.0029819	0.0062594	0.0017358	1069.7	5.2841e-05	7.2993e-05	998.85	427.93	5.5629e-05	7.2227e-05	447.34	185.33	179.19	76.075	6.0137e-05	77.95	137.378	-33.450	-34.464	-121.414	-30.727	-4.952	-123.071	-115.896	-53.986	-17.165	-118.077	-113.934	-111.381	-105.810	-22.717	-108.710	-8191	255	
51361.074	1	1	0	0	0.18523	0.16618	0.070149	0.1083	0.052548	0.10438	0.27411	0.15894	0.084273	0.32101	0.16953	0.24677	0.23886	0.093044	0.34968	0.20022	-2.7917	-2.5625	-3.5208	-2.875	-3.0625	-3.4	-2.8771	-3.4437	-3.2687	-2.7188	-3.5812	-3.1667	-2.9313	-3.7333	-2.6792	-3.4208	95.360	125.831	-2.402	170.345	-110.777	224.792	100.416	-89.116	93.670	89.760	225.735	-96.961	213.381	177.595	121.691	150.843	0.0011185	0.00054575	0.00015667	1062.1	7.5615e-06	7.8241e-06	993.65	421.31	9.051e-06	8.076e-06	438.62	180.59	175.03	73.75	9.1819e-06	74.803	0.0030237	0.0061716	0.0017497	1072.7	5.3406e-05	7.3494e-05	1002.4	428.9	5.5101e-05	7.3317e-05	446.53	184.53	178.5	75.719	6.1325e-05	77.18	133.468	-45.595	-38.429	-121.635	3.041	-15.906	-122.952	-116.049	-12.456	23.080	-118.055	-113.956	-111.171	-105.788	-15.856	-108.727	-8191	255	
51361.195	1	1	0	0	0.23147	0.2033	0.26381	0.23575	0.36744	0.11054	0.16595	0.29133	0.13422	0.21788	0.27389	0.29405	0.17708	0.33301	0.19256	0.24893	-3.0146	-2.5458	-3.4875	-3.0958	-2.8521	-3.575	-2.7854	-3.3167	-3.2792	-2.6167	-3.6958	-3.2667	-3.0396	-3.7188	-2.6417	-3.1688	-67.536	127.087	-104.952	-122.391	-2.849	-53.180	152.500	205.726	33.319	106.014	171.561	151.845	-75.295	-129.673	-126.101	150.016	0.001024	0.00053069	0.0002322	1058.6	6.8051e-06	5.4584e-06	985.46	418.84	8.8606e-06	7.2519e-06	438.09	179.75	174.29	73.587	5.3051e-06	74.815	0.0030574	0.0062249	0.0017329	1068.8	5.4692e-05	7.2419e-05	996.47	426.51	5.4817e-05	7.4235e-05	445.2	183.45	178.2	75.479	6.0988e-05	76.916	136.104	-50.444	-40.927	-121.615	-23.155	-8.153	-123.101	-115.835	-33.762	2.737	-118.037	-113.841	-111.342	-105.667	-30.989	-108.657	-8191	255	
51361.293	1	1	0	0	0.13122	0.15543	0.046774	0.028634	0.14063	0.14613	0.11109	0.32033	0.16811	0.073326	0.21652	0.26918	0.24922	0.45314	0.34737	0.065541	-3.1583	-2.5375	-3.3396	-3.2479	-2.6792	-3.75	-2.9938	-3.0375	-3.6521	-2.7083	-3.2687	-3.3042	-2.7812	-3.7542	-3.0708	-3.1292	11.084	-18.799	-116.474	214.772	-129.623	106.919	205.014	184.752	-87.765	173.715	177.917	-128.598	203.582	166.527	-4.162	182.135	0.001037	0.0010746	0.00014056	1058.4	3.8832e-06	4.8967e-06	990.07	420.33	7.5369e-06	3.9214e-06	436.92	179.43	174.52	73.723	2.827e-06	75.256	0.0030381	0.0063601	0.0017566	1070.4	5.42e-05	7.2966e-05	998.91	427.41	5.6634e-05	7.3812e-05	445.64	183.78	178.64	75.746	6.1415e-05	77.412	133.085	-32.653	-45.001	-121.500	15.200	20.731	-122.989	-115.901	-26.012	42.288	-118.180	-113.930	-111.233	-105.829	21.372	-108.643	-8191	255	
51361.391	1	1	0	0	0.24641	0.13578	0.095788	0.010008	0.13505	0.10739	0.16858	0.13703	0.14059	0.24084	0.05435	0.22509	0.048871	0.21796	0.031679	0.04979	-3.0667	-2.7896	-3.2438	-3.4271	-2.5687	-3.5354	-3.1667	-3.1188	-3.6063	-2.7479	-3.3187	-3.2938	-2.6021	-3.6521	-3.05	-2.9833	-72.742	124.111	11.336	34.817	223.768	215.192	151.058	114.232	156.037	171.397	-78.500	102.562	-22.478	218.950	-100.443	18.848	0.0010139	0.00072127	0.00018745	1055.9	9.1031e-06	7.8271e-06	984.25	420.39	7.4196e-06	1.0989e-05	438.46	181.92	174.98	73.968	8.4813e-06	75.41	0.0030646	0.0063894	0.0017497	1069.7	5.5157e-05	7.3264e-05	997.04	428.21	5.6756e-05	7.4118e-05	446.92	185.17	179.09	75.987	6.1772e-05	77.808	138.784	-42.117	-49.322	-121.604	14.038	31.213	-123.032	-115.920	-17.555	-1.180	-118.125	-113.887	-111.270	-105.624	-27.138	-108.639	-8191	255	
51361.484	1	1	0	0	0.27458	0.28518	0.18039	0.16505	0.2635	0.17998	0.13944	0.19775	0.19196	0.086623	0.20086	0.10934	0.23913	0.21175	0.23801	0.18589	-3.1312	-2.7188	-3.175	-3.6063	-2.6229	-3.3333	-3.1854	-2.8917	-3.5708	-2.85	-3.2167	-3.5292	-2.6208	-3.5354	-3.2604	-2.8542	-52.735	169.974	127.695	207.690	-30.294	130.897	173.797	-130.758	-108.350	13.818	-92.361	205.600	220.056	223.366	-109.766	15.149	0.00094141	0.0009671	9.0162e-05	1061.7	5.1511e-06	2.2097e-06	985.92	420.44	7.1962e-06	8.619e-06	436.8	179.28	174.51	73.459	1.9945e-06	74.576	0.0030744	0.0063448	0.0017848	1069.6	5.5669e-05	7.4212e-05	997.53	427.21	5.6456e-05	7.4055e-05	445.29	183.65	178.14	75.463	6.1047e-05	76.795	137.731	-34.984	-26.437	-121.506	-47.848	12.691	-123.023	-115.769	-7.543	-14.973	-118.065	-113.786	-111.388	-105.630	-42.889	-108.707	-8191	255	
51361.605	1	1	0	0	0.17619	0.11206	0.20649	0.10257	0.066973	0.13535	0.15914	0.09609	0.039625	0.079602	0.15814	0.19723	0.14451	0.21973	0.19996	0.1979	-3.2833	-2.9062	-2.9896	-3.6958	-2.5938	-3.3125	-3.5354	-2.7125	-3.4813	-2.9896	-3.1917	-3.6708	-2.8208	-3.675	-3.2	-2.9125	87.142	124.541	-83.880	197.750	159.966	120.874	181.018	-56.516	85.931	17.386	-111.815	96.854	180.340	143.879	113.120	143.026	0.0010579	0.00076342	0.00013165	1056.5	5.4547e-06	8.2679e-06	978.79	419.03	6.7055e-06	4.3772e-06	436.28	178.59	173.91	73.304	6.3671e-06	74.321	0.0030712	0.0062268	0.0017595	1066	5.4025e-05	7.2503e-05	993.27	425.92	5.5915e-05	7.2743e-05	444.23	183.09	177.93	75.369	5.9866e-05	76.691	136.685	-68.133	-32.460	-121.491	8.568	15.116	-122.758	-115.864	-22.139	26.694	-117.949	-113.653	-111.250	-105.730	-2.404	-108.769	-8191	255	
51361.676	1	1	0	0	0.1175	0.13656	0.12545	0.13414	0.14988	0.071615	0.11528	0.2092	0.15102	0.031086	0.018146	0.13408	0.18025	0.20732	0.16595	0.1718	-3.0146	-2.9542	-2.975	-3.6021	-2.7958	-3.2333	-3.5	-2.7521	-3.5333	-3.025	-2.9	-3.6375	-3.1375	-3.3146	-3.5583	-2.6229	-12.176	84.040	-113.822	65.429	-59.075	-53.830	49.761	184.481	-131.622	-105.465	14.975	162.912	225.648	177.283	61.545	223.932	0.0010027	0.00077569	0.00019955	1056.8	7.4963e-06	7.8012e-06	984.23	419.53	5.9083e-06	7.1582e-06	434.75	179.73	173.3	73.544	6.4049e-06	75.056	0.0030517	0.0061946	0.001736	1067.6	5.3856e-05	7.2356e-05	993.78	426.15	5.5095e-05	7.1097e-05	443.88	183.65	178.06	75.665	6.0289e-05	77.095	137.307	-38.373	-43.050	-121.375	-19.452	16.251	-123.163	-116.072	-11.585	44.743	-118.054	-113.746	-111.449	-105.672	-47.639	-108.709	-8191	255	
51361.773	1	1	0	0	0.060374	0.22066	0.087076	0.26829	0.2213	0.29676	0.22852	0.074329	0.24496	0.21869	0.07928	0.28772	0.31745	0.23975	0.20381	0.090174	-3.0479	-3.0563	-2.575	-3.5708	-2.8	-3.0396	-3.6042	-2.7	-3.3896	-3.05	-2.8125	-3.7375	-3.0125	-3.1813	-3.5542	-2.6667	148.891	144.999	207.102	220.509	91.994	21.189	198.037	209.021	-9.991	175.289	211.187	203.989	202.082	-103.175	-80.037	-88.995	0.0010075	0.0010562	0.00020925	1057.1	8.1832e-06	5.9898e-06	980.69	418.89	6.8889e-06	6.8147e-06	437.88	179.63	174.45	73.62	3.134e-06	75.345	0.0030461	0.0062631	0.0017773	1067.4	5.309e-05	7.1145e-05	994.64	426.06	5.4802e-05	7.0679e-05	444.95	184.21	178.41	75.715	6.1797e-05	77.514	141.552	-45.100	-42.473	-121.425	-13.866	15.476	-123.085	-116.433	-19.823	-11.978	-118.686	-114.104	-111.855	-106.148	-32.316	-109.248	-8191	255	
51361.867	1	1	0	0	0.16992	0.11691	0.24989	0.17332	0.16875	0.23695	0.15086	0.36564	0.17446	0.098449	0.15478	0.32607	0.26565	0.17485	0.084915	0.28216	-2.8396	-3.1333	-2.7229	-3.7125	-2.9271	-2.8771	-3.7333	-2.6542	-3.3083	-3.3354	-2.6937	-3.7438	-2.9458	-2.9396	-3.7146	-3.0125	46.484	-11.611	-126.779	215.426	-94.092	-56.547	-46.419	145.633	71.894	-68.579	222.701	177.691	-120.067	158.587	-26.784	194.528	0.0010196	0.00033809	0.00023341	1055.9	4.1272e-06	8.9425e-06	981.06	418.47	1.0049e-05	7.6272e-06	433.61	179.58	173.64	73.476	8.392e-06	74.503	0.003029	0.0062835	0.0017398	1066.5	5.3954e-05	7.2987e-05	992.83	425.33	5.5534e-05	7.221e-05	442.51	183.48	177.84	75.535	6.1972e-05	76.882	136.272	-53.856	-31.110	-121.813	15.791	21.256	-123.386	-116.276	-30.506	17.216	-118.423	-114.274	-111.720	-106.284	-8.479	-109.222	-8191	255	
51361.965	1	1	0	0	0.070006	0.29001	0.15749	0.30727	0.25897	0.15115	0.1602	0.23736	0.080336	0.25915	0.13299	0.20752	0.14139	0.1982	0.24758	0.33571	-2.6458	-3.3771	-2.6667	-3.6063	-3.1333	-2.6813	-3.5771	-2.8021	-2.9188	-3.5333	-2.7792	-3.4437	-3.2354	-2.8854	-3.5563	-2.8937	42.748	-18.837	48.115	210.748	160.354	-68.938	185.342	-85.460	-94.233	150.519	83.114	-109.262	219.287	-80.448	-36.441	192.298	0.0010196	0.00048983	0.00024718	1051.5	6.3121e-06	8.1942e-06	975.07	415.89	5.1161e-06	8.1733e-06	430.55	178.39	172.91	73.463	9.2414e-06	74.224	0.003051	0.006308	0.0017436	1062.6	5.3742e-05	7.3401e-05	988.38	423.62	5.5747e-05	7.3769e-05	440.91	182.52	177.32	75.336	6.2797e-05	76.559	138.607	-41.590	-53.545	-121.805	-32.587	30.225	-123.281	-116.327	-33.944	5.612	-118.329	-114.189	-111.921	-106.169	11.142	-109.017	-8191	255	
51362.086	1	1	0	0	0.14305	0.16912	0.28899	0.31778	0.014989	0.16302	0.18862	0.25679	0.25249	0.041344	0.26015	0.33644	0.048628	0.20786	0.14024	0.2366	-2.5875	-3.6292	-2.5354	-3.4896	-3.0292	-2.7812	-3.7687	-2.9771	-2.9792	-3.6208	-2.8271	-3.3979	-3.4146	-2.7271	-3.5187	-3.0583	215.847	214.410	105.976	185.955	170.972	159.732	126.056	203.006	-56.980	-30.283	132.115	157.668	78.760	160.752	-57.277	203.835	0.0010975	0.00089413	0.00029042	1054.9	3.038e-06	5.938e-06	975.28	415.03	6.035e-06	4.3958e-06	431.93	179.14	173.35	73.013	7.6335e-06	74.464	0.0030436	0.0062608	0.0017723	1064.5	5.3445e-05	7.4892e-05	989.67	423.37	5.5657e-05	7.4304e-05	441.39	182.77	177.26	75.027	6.2148e-05	76.807	139.655	-28.072	-50.760	-121.943	18.672	5.285	-123.405	-116.405	6.960	-17.112	-118.549	-113.994	-111.569	-106.044	1.941	-109.188	-8191	255	
51362.180	1	1	0	0	0.21979	0.17128	0.23327	0.10605	0.070241	0.086263	0.26542	0.15423	0.35112	0.1623	0.12303	0.16255	0.094316	0.23002	0.16681	0.15569	-2.5583	-3.4271	-2.8896	-3.325	-3.2292	-2.5521	-3.5812	-3.1312	-2.7208	-3.4083	-2.8604	-3.2542	-3.4667	-2.6937	-3.4771	-3.1333	111.544	104.746	29.712	-134.138	202.245	106.755	-123.447	-64.632	-70.543	128.409	126.804	186.189	123.279	168.582	131.441	133.458	0.0010054	0.0003684	0.00018716	1055	5.4159e-06	8.0116e-06	979.52	417.58	8.8919e-06	7.4672e-06	435.08	178.97	173.09	72.831	6.3157e-06	74.417	0.0030852	0.006212	0.001781	1064.5	5.4331e-05	7.4392e-05	993.65	424.52	5.6338e-05	7.308e-05	442.24	183.26	177.39	75.037	6.1019e-05	76.782	135.946	-45.198	-50.385	-121.997	-27.368	0.027	-123.407	-116.274	-36.618	28.521	-118.415	-114.138	-111.784	-106.187	-33.131	-109.188	-8191	255	
51362.277	1	1	0	0	0.32826	0.071905	0.044307	0.11798	0.096665	0.20203	0.11722	0.25252	0.14093	0.14456	0.17814	0.043621	0.17336	0.12205	0.2197	0.26255	-2.3146	-3.6125	-2.6521	-3.0021	-3.3646	-2.6917	-3.4688	-3.1188	-2.8646	-3.5312	-2.8979	-3.1021	-3.6646	-2.7917	-3.3604	-3.4083	109.700	194.850	-17.109	171.792	23.849	146.973	174.715	100.745	21.451	-50.088	-31.907	-48.365	202.309	225.450	81.092	139.358	0.00099394	0.00069547	0.00022212	1055.2	7.2968e-06	6.4787e-06	982.32	415.73	7.1811e-06	8.4914e-06	429.42	177.91	173.25	72.816	9.0489e-06	73.942	0.003032	0.0062783	0.001761	1064.1	5.4343e-05	7.4189e-05	991.11	423.5	5.5195e-05	7.3333e-05	440.27	182.16	177.12	74.922	6.1063e-05	76.312	136.136	-48.354	-54.800	-121.661	-17.991	-7.116	-123.495	-116.368	-21.800	18.921	-118.476	-114.040	-111.795	-106.117	0.613	-109.207	-8191	255	
51362.371	1	1	0	0	0.10561	0.25113	0.39637	0.32032	0.060997	0.12588	0.29115	0.27653	0.15741	0.10342	0.097475	0.12411	0.15477	0.25783	0.13408	0.037334	-2.2896	-3.3229	-2.9854	-3.1896	-3.4583	-2.8167	-3.3521	-3.3917	-2.5521	-3.4083	-3.2062	-3.1229	-3.7333	-2.8812	-3.1688	-3.4583	39.394	151.353	82.322	-75.557	200.312	-107.444	110.338	169.802	174.250	168.904	167.847	130.885	-55.425	174.041	33.040	185.387	0.001078	0.0007268	0.00019347	1050.4	5.9911e-06	5.4812e-06	974.23	417.07	7.5211e-06	8.5041e-06	430.97	177.94	173.24	73.122	7.432e-06	74.104	0.0031058	0.0062032	0.0017529	1060.8	5.3954e-05	7.3067e-05	987.3	423.7	5.7273e-05	7.3121e-05	440.49	182.28	177.28	75.252	6.0978e-05	76.394	136.080	-61.372	-35.900	-121.857	-16.014	19.963	-123.295	-116.309	17.687	30.871	-118.485	-113.902	-111.550	-106.063	-8.435	-109.069	-8191	255	
51362.469	1	1	0	0	0.16389	0.099955	0.27117	0.13883	0.058638	0.22488	0.353	0.3605	0.22592	0.28268	0.18633	0.1204	0.10975	0.020424	0.12742	0.22307	-2.3271	-3.4729	-2.9958	-2.8792	-3.3583	-2.7833	-3.1583	-3.6063	-2.5146	-3.5833	-3.2604	-2.8042	-3.7292	-3.0062	-2.9417	-3.7646	160.449	68.544	-103.777	188.401	95.639	-108.739	122.961	172.123	57.843	84.643	218.229	-55.890	-38.186	37.432	224.347	120.302	0.001005	0.00062734	0.00027781	1049.8	1.1752e-05	5.1378e-06	977.73	417.04	4.0723e-06	4.6363e-06	431.76	177.99	173.4	73.088	8.9418e-06	74.362	0.0031155	0.0062035	0.0017507	1061.7	5.3899e-05	7.2611e-05	989.42	423.89	5.6706e-05	7.274e-05	441.33	182.67	177.31	75.154	6.0604e-05	76.504	134.676	-38.058	-58.560	-121.664	-17.059	35.610	-123.029	-116.139	-6.548	11.260	-118.186	-113.884	-111.511	-106.040	-8.301	-109.148	-8191	255	
51362.566	1	1	0	0	0.13778	0.2025	0.10477	0.10101	0.19868	0.16233	0.23526	0.11686	0.10852	0.096972	0.19464	0.11485	0.23206	0.17425	0.18113	0.037798	-2.2583	-3.2708	-3.0812	-3.0208	-3.5375	-3.0354	-3.0542	-3.6875	-2.7396	-3.2521	-3.3083	-2.8563	-3.6542	-3.1375	-2.8708	-3.7104	-60.656	-120.325	-117.880	-64.117	109.684	67.987	129.841	-120.902	129.955	-110.792	173.411	114.927	-110.764	-37.254	74.636	-6.971	0.0010366	0.0007617	0.00030701	1050.1	4.0085e-06	1.0065e-05	982.18	417.79	9.2743e-06	8.4163e-06	433.76	178.34	172.56	72.883	3.1162e-06	74.09	0.0030858	0.006221	0.0017162	1063.2	5.4624e-05	7.1392e-05	992.99	424.41	5.6938e-05	7.2179e-05	441.56	182.55	177.16	75.173	6.0716e-05	76.288	139.221	-36.775	-35.159	-121.814	-29.873	9.288	-123.332	-116.208	-36.506	12.962	-118.313	-113.971	-111.559	-105.992	-24.956	-108.960	-8191	255	
51362.688	1	1	0	0	0.35508	0.11557	0.18395	0.10253	0.069671	0.23344	0.20428	0.20176	0.12159	0.092248	0.11681	0.11132	0.10276	0.28247	0.16813	0.11382	-2.4062	-2.9604	-3.3375	-2.9125	-3.5646	-3.0979	-2.8937	-3.5729	-2.8396	-3.0104	-3.4521	-2.9062	-3.4729	-3.2125	-2.7646	-3.5563	181.490	-23.397	5.359	-61.799	-72.258	-86.417	68.158	181.602	-47.966	-118.154	201.836	-115.437	193.705	167.439	-66.513	164.837	0.0010253	0.00072805	0.00028223	1054.2	6.6983e-06	7.0929e-06	972.53	416.03	7.0834e-06	6.6618e-06	432.66	177.67	172.42	72.827	6.6527e-06	73.625	0.0030895	0.0062403	0.001804	1061.9	5.4704e-05	7.2317e-05	985.29	422.79	5.572e-05	7.3194e-05	439.52	181.32	176.46	75.053	6.1853e-05	75.859	139.543	-39.982	-21.001	-121.677	-34.199	15.427	-123.165	-115.985	-23.924	40.569	-118.311	-114.036	-111.573	-106.175	20.351	-109.172	-8191	255	
51362.781	1	1	0	0	0.28682	0.062001	0.16634	0.065929	0.29371	0.10355	0.15191	0.34154	0.089984	0.086653	0.40421	0.12001	0.19974	0.016976	0.053254	0.37378	-2.3271	-3.1208	-3.4396	-2.7646	-3.4229	-3.0958	-2.6854	-3.7271	-2.9	-3.0875	-3.625	-2.9792	-3.4208	-3.3271	-2.6208	-3.7438	-77.572	31.194	173.512	188.443	202.199	-111.728	66.183	217.506	204.935	113.386	166.858	213.770	-127.693	150.386	28.761	208.043	0.0010646	0.00072337	0.00014858	1046.1	8.9066e-06	9.6093e-06	970.28	414.68	1.0016e-05	4.7464e-06	427.95	176.82	172.34	72.233	6.5867e-06	73.456	0.0030151	0.0062601	0.0017649	1057.4	5.3934e-05	7.3312e-05	983.48	422.14	5.5505e-05	7.2315e-05	437.71	180.96	176.32	74.62	6.1034e-05	75.706	137.217	-43.444	-38.256	-121.777	-19.834	24.013	-123.034	-116.023	-51.494	25.316	-118.308	-113.989	-111.436	-105.926	-14.904	-109.042	-8191	255	
51362.879	1	1	0	0	0.13744	0.14885	0.1749	0.1956	0.19159	0.12487	0.17072	0.089528	0.23296	0.08705	0.077511	0.2295	0.20356	0.19784	0.018722	0.029918	-2.5333	-3.0563	-3.3438	-2.8354	-3.275	-3.1979	-2.9708	-3.6583	-3	-2.8646	-3.7667	-2.8271	-3.1771	-3.5438	-2.7438	-3.5438	213.181	162.890	151.204	168.395	204.777	102.777	-126.110	76.349	-15.418	212.108	193.126	-131.339	159.404	175.467	223.430	-92.744	0.00094951	0.00046589	0.00013865	1042.1	9.9634e-06	6.6998e-06	972.44	414.9	5.931e-06	1.1659e-05	428.55	175.75	171.9	72.698	3.9919e-06	73.684	0.0030178	0.0061979	0.0017837	1056.3	5.3868e-05	7.2555e-05	983.64	421.81	5.4999e-05	7.3434e-05	438.37	180.46	176.06	74.525	6.1737e-05	75.808	135.957	-48.885	-51.562	-121.606	-14.033	-10.824	-123.148	-116.336	-2.765	14.840	-118.185	-113.914	-111.362	-105.980	-31.461	-108.942	-8191	255	
51362.973	1	1	0	0	0.38764	0.14782	0.12647	0.28766	0.28029	0.084358	0.063913	0.23543	0.18279	0.19944	0.32147	0.16682	0.095947	0.20796	0.28443	0.11725	-2.6875	-2.9875	-3.3271	-2.7417	-3.1063	-3.4271	-2.7292	-3.4375	-3.0625	-2.8063	-3.5458	-2.9458	-3.0146	-3.4938	-2.6042	-3.4125	162.378	-63.578	-57.797	162.267	-92.404	156.783	225.209	64.098	84.829	208.467	156.267	136.578	-127.088	-126.633	11.485	-97.350	0.0010204	0.0005701	0.00017169	1048.2	5.0759e-06	6.2527e-06	971.83	414.58	5.7686e-06	5.7736e-06	428.02	176.3	171.11	72.307	5.5249e-06	73.093	0.0031028	0.0063204	0.0017405	1056.6	5.37e-05	7.3141e-05	982.29	421.71	5.5558e-05	7.4081e-05	437.43	180.42	175.35	74.304	6.1818e-05	75.27	136.323	-32.028	-18.866	-121.737	-13.937	29.251	-123.279	-116.168	-24.281	24.037	-118.366	-114.111	-111.497	-105.907	-32.138	-108.918	-8191	255	
#DATA ENDS
