BOXY.EXE: ISS Imagent and Oximeter Data Acquisition Program Version 0.80
Ascii Record File

#ACQ INFORMATION
2  Detector Channels 
16  External MUX Channels 
1  Auxiliary Channels 
5000  Waveform (CCF) Frequency (Hz)
1  Waveforms Skipped 
30  Waveforms Averaged 
1  Cycles Averaged 
16  Acquisitions per Waveform 
10.0806  Updata Rate (Hz) 

#FILE INFORMATION
TRUE -- External MUX Channel results are PARSED.
FALSE -- AC DC and Phase are NOT grouped.
TRUE -- Companion Program Settings File CREATED.
FALSE -- AC data not excluded
FALSE -- DC data not excluded
FALSE -- Phase data not excluded
FALSE -- Auxillary Chn. data not excluded
Tab delimiters

#CALIBRATION STATE
TRUE -- Waveform Calibration Values APPLIED.


#AUX CALIBRATION VALUES
Val Type	aux-1	

Term	1.0000e+00	
Factor	0.0000e+00	


#WF CALIBRATION VALUES
A = Detector Channel
Val Type	A-AC1	A-AC2	A-AC3	A-AC4	A-AC5	A-AC6	A-AC7	A-AC8	A-AC9	A-AC10	A-AC11	A-AC12	A-AC13	A-AC14	A-AC15	A-AC16	A-DC1	A-DC2	A-DC3	A-DC4	A-DC5	A-DC6	A-DC7	A-DC8	A-DC9	A-DC10	A-DC11	A-DC12	A-DC13	A-DC14	A-DC15	A-DC16	A-Ph1	A-Ph2	A-Ph3	A-Ph4	A-Ph5	A-Ph6	A-Ph7	A-Ph8	A-Ph9	A-Ph10	A-Ph11	A-Ph12	A-Ph13	A-Ph14	A-Ph15	A-Ph16	

Term	0.00000e+00	0.00000e+00	0.00000e+00	0.00000e+00	0.00000e+00	0.00000e+00	0.00000e+00	0.00000e+00	0.00000e+00	0.00000e+00	0.00000e+00	0.00000e+00	0.00000e+00	0.00000e+00	0.00000e+00	0.00000e+00	0.00000e+00	0.00000e+00	0.00000e+00	0.00000e+00	0.00000e+00	0.00000e+00	0.00000e+00	0.00000e+00	0.00000e+00	0.00000e+00	0.00000e+00	0.00000e+00	0.00000e+00	0.00000e+00	0.00000e+00	0.00000e+00	0.00000e+00	0.00000e+00	0.00000e+00	0.00000e+00	0.00000e+00	0.00000e+00	0.00000e+00	0.00000e+00	0.00000e+00	0.00000e+00	0.00000e+00	0.00000e+00	0.00000e+00	0.00000e+00	0.00000e+00	0.00000e+00	
Factor	1.00000e+00	1.00000e+00	1.00000e+00	1.00000e+00	1.00000e+00	1.00000e+00	1.00000e+00	1.00000e+00	1.00000e+00	1.00000e+00	1.00000e+00	1.00000e+00	1.00000e+00	1.00000e+00	1.00000e+00	1.00000e+00	1.00000e+00	1.00000e+00	1.00000e+00	1.00000e+00	1.00000e+00	1.00000e+00	1.00000e+00	1.00000e+00	1.00000e+00	1.00000e+00	1.00000e+00	1.00000e+00	1.00000e+00	1.00000e+00	1.00000e+00	1.00000e+00	X	X	X	X	X	X	X	X	X	X	X	X	X	X	X	X	

B = Detector Channel
Val Type	B-AC1	B-AC2	B-AC3	B-AC4	B-AC5	B-AC6	B-AC7	B-AC8	B-AC9	B-AC10	B-AC11	B-AC12	B-AC13	B-AC14	B-AC15	B-AC16	B-DC1	B-DC2	B-DC3	B-DC4	B-DC5	B-DC6	B-DC7	B-DC8	B-DC9	B-DC10	B-DC11	B-DC12	B-DC13	B-DC14	B-DC15	B-DC16	B-Ph1	B-Ph2	B-Ph3	B-Ph4	B-Ph5	B-Ph6	B-Ph7	B-Ph8	B-Ph9	B-Ph10	B-Ph11	B-Ph12	B-Ph13	B-Ph14	B-Ph15	B-Ph16	

Term	0.00000e+00	0.00000e+00	0.00000e+00	0.00000e+00	0.00000e+00	0.00000e+00	0.00000e+00	0.00000e+00	0.00000e+00	0.00000e+00	0.00000e+00	0.00000e+00	0.00000e+00	0.00000e+00	0.00000e+00	0.00000e+00	0.00000e+00	0.00000e+00	0.00000e+00	0.00000e+00	0.00000e+00	0.00000e+00	0.00000e+00	0.00000e+00	0.00000e+00	0.00000e+00	0.00000e+00	0.00000e+00	0.00000e+00	0.00000e+00	0.00000e+00	0.00000e+00	-1.94746e+02	-1.29429e+02	-1.23296e+02	-1.81177e+02	-8.24941e+01	-6.72532e+01	-1.58393e+02	-1.62015e+02	-8.26879e+01	-6.57740e+01	-1.70238e+02	-1.70284e+02	-1.81041e+02	-1.76563e+02	-7.59332e+01	-1.49301e+02	
Factor	3.81472e-05	1.55800e-04	4.27792e-05	1.56288e-01	1.59967e-06	1.59687e-06	1.72052e-01	5.78622e-02	1.65686e-06	1.77183e-06	8.97467e-02	3.04905e-02	2.59666e-02	9.04681e-03	1.74401e-06	1.28027e-02	2.48459e-05	6.22447e-05	1.74435e-05	8.03579e-02	5.30800e-07	7.33201e-07	8.33309e-02	2.98252e-02	5.43097e-07	7.33792e-07	4.50204e-02	1.52899e-02	1.34928e-02	4.71424e-03	5.97119e-07	6.48029e-03	X	X	X	X	X	X	X	X	X	X	X	X	X	X	X	X	



#DISTANCE SETTINGS
A = Detector Channel
A-1	A-2	A-3	A-4	A-5	A-6	A-7	A-8	A-9	A-10	A-11	A-12	A-13	A-14	A-15	A-16	

2.5000e+00	3.0000e+00	2.5000e+00	3.0000e+00	2.0000e+00	3.0000e+00	1.5000e+00	3.0000e+00	3.0000e+00	3.0000e+00	3.0000e+00	3.0000e+00	3.0000e+00	3.0000e+00	1.5000e+00	3.0000e+00	

B = Detector Channel
B-1	B-2	B-3	B-4	B-5	B-6	B-7	B-8	B-9	B-10	B-11	B-12	B-13	B-14	B-15	B-16	

1.0000e+01	1.0000e+01	1.0000e+01	1.4400e+00	1.0000e+01	1.0000e+01	1.5100e+00	1.9400e+00	1.0000e+01	1.0000e+01	1.9900e+00	2.4900e+00	2.4100e+00	2.9000e+00	1.0000e+01	2.9800e+00	




#DATA BEGINS
time	group	step	mark	flag	A-AC1	A-AC2	A-AC3	A-AC4	A-AC5	A-AC6	A-AC7	A-AC8	A-AC9	A-AC10	A-AC11	A-AC12	A-AC13	A-AC14	A-AC15	A-AC16	A-DC1	A-DC2	A-DC3	A-DC4	A-DC5	A-DC6	A-DC7	A-DC8	A-DC9	A-DC10	A-DC11	A-DC12	A-DC13	A-DC14	A-DC15	A-DC16	A-Ph1	A-Ph2	A-Ph3	A-Ph4	A-Ph5	A-Ph6	A-Ph7	A-Ph8	A-Ph9	A-Ph10	A-Ph11	A-Ph12	A-Ph13	A-Ph14	A-Ph15	A-Ph16	B-AC1	B-AC2	B-AC3	B-AC4	B-AC5	B-AC6	B-AC7	B-AC8	B-AC9	B-AC10	B-AC11	B-AC12	B-AC13	B-AC14	B-AC15	B-AC16	B-DC1	B-DC2	B-DC3	B-DC4	B-DC5	B-DC6	B-DC7	B-DC8	B-DC9	B-DC10	B-DC11	B-DC12	B-DC13	B-DC14	B-DC15	B-DC16	B-Ph1	B-Ph2	B-Ph3	B-Ph4	B-Ph5	B-Ph6	B-Ph7	B-Ph8	B-Ph9	B-Ph10	B-Ph11	B-Ph12	B-Ph13	B-Ph14	B-Ph15	B-Ph16	aux-1	digaux	

51291.895	1	1	0	256	0.056923	0.30793	0.065255	0.26893	0.12372	0.23707	0.052891	0.28379	0.18627	0.21503	0.19383	0.25233	0.38408	0.030607	0.16862	0.38605	-2.2396	-3.1	-3.2271	-2.8063	-3.5417	-2.8917	-2.9938	-3.5708	-2.6875	-3.2083	-3.3729	-2.6583	-3.5875	-3.2583	-2.7917	-3.7542	407.311	275.547	133.239	398.408	279.360	187.501	429.149	335.398	281.328	369.345	381.929	429.228	110.443	346.683	245.179	429.025	0.0013368	0.00070243	0.00017293	1150.3	6.7443e-06	6.2743e-06	919.61	412.08	7.1247e-06	6.4672e-06	369.12	132.86	152.29	62.807	7.7488e-06	63.046	0.0012504	0.0014516	0.00039306	1137.8	1.3699e-05	1.6045e-05	908.17	411.17	1.3711e-05	1.6815e-05	367.85	131.82	151.95	63.321	1.558e-05	63.455	104.185	171.422	173.126	97.434	221.369	230.253	96.017	102.728	217.800	236.984	100.692	105.397	107.712	112.954	210.988	109.230	-8191	255	
51291.992	1	1	0	0	0.29469	0.081669	0.17432	0.073216	0.082671	0.25734	0.11818	0.17538	0.11352	0.066188	0.14244	0.095134	0.057503	0.31577	0.15976	0.053812	-2.4125	-3.15	-3.4729	-2.6188	-3.2875	-3.125	-2.8458	-3.7	-2.7625	-3.1458	-3.5229	-2.8354	-3.5104	-3.2375	-2.6604	-3.6792	314.891	366.869	331.722	323.861	352.668	396.840	420.942	400.670	244.100	221.932	314.345	87.531	381.208	435.697	432.300	400.388	0.0012233	0.00073204	0.00013561	1150.1	6.2847e-06	5.8442e-06	918.44	412.95	7.4074e-06	4.3954e-06	369.59	133.08	152.44	63.016	8.0249e-06	63.379	0.0012098	0.0015062	0.00040603	1139.6	1.3963e-05	1.6978e-05	907.74	412.29	1.413e-05	1.6863e-05	367.33	132.33	152.34	63.463	1.5897e-05	63.771	103.862	174.507	166.996	96.886	217.532	218.132	95.858	102.996	229.157	228.534	100.955	105.797	108.051	113.228	233.874	109.757	-8191	255	
51292.113	1	1	0	0	0.085892	0.15143	0.21325	0.16944	0.15251	0.19363	0.044323	0.12283	0.13353	0.2481	0.13034	0.23126	0.30881	0.37154	0.17532	0.3869	-2.475	-2.9333	-3.5229	-3.0104	-3.1479	-3.1458	-2.7229	-3.6646	-2.8583	-2.8708	-3.6437	-2.7958	-3.2042	-3.3646	-2.5958	-3.6	95.878	337.039	324.797	375.372	86.657	199.188	248.586	399.139	334.768	232.821	444.686	356.996	396.504	438.352	323.775	392.803	0.0013482	0.00057404	0.00015393	1156.5	5.4313e-06	4.622e-06	924.96	416.12	6.5096e-06	4.9295e-06	373.32	133.77	153.01	63.304	9.3533e-06	63.617	0.0012273	0.0015011	0.00040741	1142.8	1.3375e-05	1.7019e-05	913.35	413.41	1.4011e-05	1.6865e-05	370.35	133.2	152.99	63.878	1.5902e-05	63.974	104.533	181.620	173.010	97.177	233.545	249.096	95.926	103.011	194.761	249.337	101.138	105.971	108.120	113.554	220.997	109.988	-8191	255	
51292.184	1	1	0	0	0.23738	0.15653	0.11848	0.025188	0.056219	0.11056	0.16889	0.39725	0.14276	0.16667	0.15256	0.23937	0.082436	0.104	0.090804	0.15375	-2.7708	-2.8563	-3.5229	-2.7792	-3.1521	-3.475	-2.8396	-3.6625	-3.1333	-2.9354	-3.6833	-3.0187	-3.2271	-3.6167	-2.8333	-3.5354	167.869	400.809	354.422	412.731	225.769	428.981	373.922	385.144	361.823	216.751	400.600	363.040	401.698	187.573	431.478	381.362	0.0012925	0.00053521	0.00016988	1152.6	7.1831e-06	6.0543e-06	921.49	414.53	7.6154e-06	5.28e-06	370.04	133.54	153.25	63.813	7.797e-06	63.881	0.0012193	0.0015977	0.00041108	1141.1	1.4275e-05	1.7484e-05	910.45	412.47	1.4626e-05	1.7675e-05	368.74	132.91	153.11	64.205	1.713e-05	64.314	105.749	181.459	182.187	97.404	211.062	222.232	96.182	103.479	232.382	239.803	101.132	106.070	108.101	113.646	226.161	109.764	-8191	255	
51292.281	1	1	0	0	0.38572	0.16652	0.11131	0.29765	0.41394	0.15903	0.087427	0.32616	0.30371	0.021167	0.11838	0.17334	0.17429	0.22986	0.14439	0.23119	-2.7062	-2.8312	-3.5687	-2.9979	-3.1667	-3.5062	-2.6708	-3.55	-3.0917	-2.7042	-3.7646	-2.8417	-3.0958	-3.5979	-2.7292	-3.4938	180.589	371.530	276.329	393.197	425.480	306.227	354.739	360.514	87.058	213.921	398.045	393.356	313.118	389.679	257.632	419.288	0.0012564	0.00055352	0.00013612	1157.1	7.6316e-06	5.4872e-06	925.4	417.86	8.7207e-06	7.0079e-06	372.55	135.11	155.7	64.303	7.7742e-06	64.574	0.0012232	0.0016389	0.00042039	1141	1.4639e-05	1.8411e-05	909.22	414.61	1.5557e-05	1.9111e-05	369.55	134.23	155.23	64.95	1.7028e-05	64.971	106.426	155.709	172.666	97.229	212.270	226.010	95.857	102.947	207.687	256.478	101.244	105.567	107.476	113.062	228.945	109.416	-8191	255	
51292.398	1	1	0	0	0.19957	0.12248	0.010702	0.36707	0.084566	0.22488	0.18962	0.36216	0.1379	0.17692	0.33343	0.14949	0.10995	0.12726	0.18389	0.048278	-2.7062	-2.7188	-3.5521	-2.9667	-2.9646	-3.6042	-2.6813	-3.4437	-3.2854	-2.5896	-3.6229	-3.1917	-3.0604	-3.7042	-2.8854	-3.2667	326.924	428.846	100.923	402.362	322.301	191.597	371.170	433.330	236.422	100.991	359.846	399.888	384.905	408.985	238.525	378.858	0.0013515	0.00055858	0.00015843	1152.9	5.667e-06	5.9943e-06	920.68	415.76	7.379e-06	7.7825e-06	371.21	135.27	156.21	64.333	6.2213e-06	64.332	0.0013166	0.0016988	0.00046094	1142	1.4875e-05	1.9141e-05	908.38	413.9	1.5585e-05	1.9678e-05	369.34	134.79	155.73	64.99	1.7104e-05	64.864	101.051	164.906	172.836	96.878	222.549	232.042	95.629	102.768	211.007	215.783	100.716	105.175	107.712	112.925	222.719	109.206	-8191	255	
51292.496	1	1	0	0	0.094299	0.24289	0.13674	0.21027	0.13393	0.12395	0.097362	0.19408	0.095474	0.12772	0.16264	0.26466	0.094624	0.13836	0.2043	0.095001	-3.0854	-2.6188	-3.5625	-3.15	-2.7875	-3.6125	-2.95	-3.2812	-3.4792	-2.5938	-3.4458	-3.1188	-2.85	-3.7208	-2.9708	-3.1396	438.858	199.578	336.796	442.207	86.060	101.811	403.468	440.174	354.158	143.293	285.342	441.755	260.116	346.768	434.061	197.465	0.0012959	0.0005536	0.00014996	1153.4	4.8566e-06	7.5001e-06	918.28	416.3	8.0509e-06	5.8892e-06	369.3	135.37	156.23	64.536	8.2015e-06	64.466	0.0012803	0.0017466	0.00045716	1142.5	1.5706e-05	1.8749e-05	908.97	413.88	1.6271e-05	1.9303e-05	368.42	134.64	155.76	64.969	1.7334e-05	64.729	104.657	184.993	163.526	97.091	208.251	240.096	95.593	102.685	222.227	234.563	100.607	105.474	107.862	112.875	207.382	109.502	-8191	255	
51292.594	1	1	0	0	0.035854	0.071135	0.19362	0.2298	0.090809	0.19337	0.090106	0.15881	0.15418	0.11964	0.10612	0.040197	0.066986	0.15161	0.26563	0.24908	-3.1521	-2.5729	-3.1937	-3.3563	-2.7354	-3.4146	-2.9062	-3.0896	-3.5875	-2.6646	-3.3854	-3.4875	-2.8187	-3.6208	-2.8792	-2.9062	359.277	131.381	192.920	442.922	149.341	406.965	428.699	286.776	417.326	285.332	344.485	155.347	392.517	441.631	327.446	373.557	0.0013257	0.00049224	0.00017857	1150.1	5.4914e-06	4.5555e-06	913.05	414.61	8.1256e-06	6.2656e-06	366.29	134.13	154.97	63.652	8.8514e-06	63.567	0.0013014	0.0017305	0.00047192	1138.3	1.5679e-05	1.9398e-05	901.99	412.71	1.563e-05	2.0439e-05	365.89	133.25	154.63	64.394	1.7385e-05	64.009	106.095	168.667	180.457	96.998	213.960	228.496	95.763	102.959	228.807	221.720	100.882	105.446	107.757	113.134	225.450	109.193	-8191	255	
51292.688	1	1	0	0	0.19464	0.27305	0.11118	0.39206	0.2943	0.2902	0.17944	0.21517	0.030291	0.017536	0.18455	0.21863	0.049449	0.31455	0.15678	0.3716	-3.3688	-2.5604	-3.2458	-3.5312	-2.6083	-3.4396	-3.1813	-2.8812	-3.4646	-2.7687	-3.25	-3.4104	-2.7167	-3.4229	-2.9875	-2.7646	420.942	123.348	217.074	98.736	94.472	212.022	405.669	423.890	306.079	245.190	354.238	85.095	100.790	97.285	247.099	98.116	0.0013438	0.00064769	0.00014667	1145.9	4.9739e-06	6.9005e-06	910.77	416.34	5.7959e-06	6.3826e-06	366.51	134.65	156.48	64.184	8.287e-06	63.73	0.0013031	0.0017141	0.00047021	1136.3	1.6309e-05	1.9879e-05	899.62	412.97	1.6269e-05	2.0892e-05	365.97	133.98	156.03	64.913	1.765e-05	64.285	104.886	179.230	187.429	96.838	202.001	213.814	95.722	102.873	212.107	236.079	100.647	105.456	107.525	112.897	228.483	109.348	-8191	255	
51292.785	1	1	0	0	0.11031	0.050544	0.16945	0.1003	0.059696	0.069438	0.11499	0.16775	0.22004	0.32093	0.19711	0.22941	0.15973	0.29436	0.22983	0.27095	-3.1271	-2.6813	-3.1208	-3.6167	-2.6292	-3.3563	-3.3375	-2.6979	-3.4604	-2.725	-3.2083	-3.3646	-2.7979	-3.6229	-3.25	-2.8917	200.923	206.109	149.367	221.785	209.188	120.398	210.308	402.577	265.452	117.386	178.977	396.717	103.053	102.997	147.792	373.569	0.0013017	0.00065856	0.00019264	1152	5.5579e-06	4.4956e-06	916.29	415.02	8.6908e-06	6.1196e-06	369.23	136.38	157.67	64.867	7.6061e-06	64.664	0.0013305	0.0017753	0.00049976	1140.2	1.5751e-05	1.9276e-05	902.71	413.8	1.6752e-05	1.9854e-05	367.91	135.55	157.31	65.533	1.7932e-05	64.813	103.409	168.313	177.860	96.738	236.691	231.628	95.626	102.852	221.622	242.922	100.684	105.729	107.531	112.762	233.323	109.459	-8191	255	
51292.879	1	1	0	0	0.066276	0.030546	0.25918	0.1904	0.11695	0.21148	0.10518	0.25202	0.32926	0.14387	0.2185	0.23483	0.13878	0.090341	0.25265	0.2376	-3.1646	-2.6479	-2.9354	-3.7062	-2.6167	-3.4	-3.1771	-2.7125	-3.5812	-2.95	-2.9729	-3.5833	-2.7438	-3.3604	-3.3167	-2.7792	137.395	355.872	261.712	381.798	207.034	182.313	154.672	86.267	108.211	320.690	422.716	420.297	430.671	111.801	216.919	386.156	0.0013941	0.00047232	0.00014163	1153.7	8.6004e-06	4.7843e-06	919.98	416.89	6.1786e-06	6.1182e-06	369.59	135.84	156.71	65.169	6.3851e-06	64.603	0.0013142	0.0017295	0.0004765	1143.2	1.5338e-05	1.8813e-05	909.5	414.65	1.5159e-05	1.8845e-05	369.28	135.46	156.57	65.643	1.6931e-05	64.849	104.046	160.461	183.140	96.884	227.533	230.484	95.581	102.846	221.945	215.087	100.706	105.264	107.279	112.792	239.985	109.496	-8191	255	
51292.977	1	1	0	0	0.067675	0.21458	0.14202	0.18072	0.36981	0.26236	0.021595	0.30961	0.10415	0.080992	0.09537	0.10537	0.096605	0.070067	0.074006	0.39437	-2.9833	-2.9479	-2.6167	-3.6937	-2.5229	-3.0771	-3.375	-2.6792	-3.5042	-2.9208	-2.8104	-3.6854	-2.7083	-3.2542	-3.4021	-2.7396	187.791	324.392	86.411	376.936	156.503	264.196	284.738	124.871	99.813	145.179	430.845	420.664	93.073	400.350	157.003	372.787	0.0013899	0.00060275	0.00014145	1149.8	6.8563e-06	5.0145e-06	918.34	414.88	7.8168e-06	7.3101e-06	366.9	136.79	157.1	65.325	7.2937e-06	64.634	0.0012863	0.0016082	0.00045731	1140.4	1.5494e-05	1.8637e-05	904.29	413.72	1.6088e-05	1.8623e-05	367.34	135.8	157.33	65.949	1.7594e-05	65.011	106.398	176.929	167.599	96.793	208.994	239.821	95.582	102.808	222.520	240.551	100.772	105.501	107.581	112.717	224.531	109.169	-8191	255	
51293.074	1	1	0	0	0.057067	0.079307	0.24776	0.22025	0.014374	0.025313	0.32343	0.15284	0.12573	0.26529	0.20393	0.14707	0.12734	0.32074	0.11448	0.22452	-3.0583	-3.1021	-2.6271	-3.6937	-2.6771	-3.0687	-3.3854	-2.6312	-3.2792	-3.2646	-2.6042	-3.6979	-2.875	-3.0729	-3.3896	-2.7542	313.745	195.424	87.601	395.460	443.092	434.382	389.306	400.321	154.451	324.531	120.289	411.952	356.850	374.882	314.319	274.925	0.001351	0.00071573	0.00015602	1147.2	6.1811e-06	6.5514e-06	915.71	416.27	5.3726e-06	7.8475e-06	369.92	136.39	157.58	65.176	8.9229e-06	64.562	0.0012675	0.0017011	0.00048151	1138.3	1.4711e-05	1.9054e-05	902.99	414.42	1.5464e-05	1.8412e-05	367.75	135.77	157.1	65.747	1.6704e-05	64.902	105.956	153.693	179.363	96.870	226.542	235.211	95.700	102.933	228.786	237.741	100.782	105.393	107.221	112.952	214.834	109.045	-8191	255	
51293.191	1	1	0	0	0.1777	0.13007	0.20638	0.21823	0.35493	0.043518	0.17536	0.29172	0.17479	0.1113	0.19251	0.33135	0.13752	0.062416	0.28276	0.28996	-2.9271	-3.2042	-2.7521	-3.675	-2.7146	-2.8375	-3.6917	-2.8208	-3.2062	-3.2854	-2.6729	-3.6188	-3.0167	-2.8271	-3.5625	-2.8875	205.703	189.768	285.388	391.314	201.355	231.035	356.052	362.410	374.960	293.805	385.185	306.121	405.179	383.915	393.824	329.795	0.0014086	0.00067479	0.00016344	1162.8	7.1861e-06	3.2429e-06	920.18	417.13	6.4467e-06	5.6198e-06	371.86	138.31	158.14	65.426	7.3054e-06	64.728	0.0013032	0.0016237	0.00047479	1147.3	1.4533e-05	1.9048e-05	909.8	414.88	1.4908e-05	1.7901e-05	370.49	136.78	157.83	66.084	1.6268e-05	65.205	104.771	188.875	177.560	96.851	213.588	236.880	95.661	102.682	223.025	212.928	100.318	105.227	107.490	112.824	218.533	109.109	-8191	255	
51293.289	1	1	0	0	0.26363	0.082711	0.096337	0.31386	0.27899	0.19983	0.12088	0.40554	0.081756	0.058333	0.20734	0.27158	0.13309	0.24428	0.118	0.10634	-2.9354	-3.15	-2.5604	-3.4938	-3.0312	-2.7667	-3.725	-2.7313	-2.7979	-3.3208	-2.7521	-3.4	-3.1729	-2.8083	-3.5979	-2.8646	164.541	128.297	224.155	412.054	187.264	198.893	416.944	433.367	432.167	267.728	442.500	415.306	411.180	380.379	154.743	443.810	0.0013227	0.00046699	0.00017578	1160.8	8.5045e-06	5.0301e-06	931.13	418.2	5.653e-06	6.6939e-06	369.82	136.85	158.36	65.366	8.6484e-06	64.821	0.0012595	0.001518	0.00046785	1150.7	1.4244e-05	1.8536e-05	915.39	416.64	1.5193e-05	1.8566e-05	370.36	135.95	157.47	65.939	1.5997e-05	65.053	105.231	171.408	181.497	96.860	210.498	238.065	95.543	102.684	219.330	233.574	100.612	105.583	107.465	112.744	234.984	109.232	-8191	255	
51293.387	1	1	0	0	0.40995	0.015087	0.30381	0.32211	0.23181	0.20478	0.039345	0.21989	0.10801	0.10568	0.19031	0.080682	0.16885	0.19211	0.18585	0.034006	-2.7687	-3.5833	-2.5896	-3.3771	-3.1333	-2.6562	-3.6063	-3.0458	-2.9479	-3.4708	-2.4729	-3.3	-3.4229	-2.8104	-3.4458	-3.0104	439.276	153.637	105.751	347.097	210.621	295.015	355.059	270.951	168.557	350.722	292.547	348.778	128.300	386.291	403.584	268.137	0.0013492	0.00061297	0.00014167	1154.7	9.0237e-06	6.0688e-06	923.52	419.58	8.2614e-06	3.1748e-06	372.8	137.43	159.05	65.636	8.2026e-06	64.93	0.0012728	0.0015583	0.00045418	1146.1	1.4896e-05	1.8694e-05	911.62	417.75	1.5691e-05	1.7747e-05	371.16	136.95	158.95	66.494	1.6687e-05	65.279	106.082	160.641	167.990	97.007	215.691	234.962	95.529	102.601	217.529	267.648	100.419	105.595	107.305	112.846	232.707	109.024	-8191	255	
51293.480	1	1	0	0	0.18453	0.19757	0.21858	0.26641	0.1432	0.14885	0.25631	0.24562	0.070869	0.25845	0.12399	0.28273	0.090062	0.067466	0.33731	0.14082	-2.6646	-3.475	-2.5333	-3.2542	-3.3937	-2.6625	-3.5729	-3.0396	-2.7021	-3.5292	-2.6562	-3.0833	-3.5604	-2.8458	-3.4938	-2.975	222.416	142.299	147.884	413.054	315.193	97.394	401.022	442.577	296.508	178.037	270.209	404.048	430.540	162.324	105.106	365.499	0.0013465	0.00059304	0.00014766	1156.5	5.6617e-06	6.4522e-06	922.33	420.03	7.4994e-06	4.1749e-06	372.22	137.21	158.4	65.503	8.4068e-06	64.83	0.0012776	0.0016352	0.00045698	1145.7	1.4813e-05	1.9514e-05	909.7	417.17	1.5596e-05	1.8369e-05	370.45	136.53	158.17	66.013	1.6123e-05	65.109	101.908	171.896	173.555	96.946	227.217	221.477	95.365	102.456	211.276	223.663	100.295	105.227	107.426	112.564	212.488	109.141	-8191	255	
51293.578	1	1	0	0	0.24404	0.080021	0.22124	0.23594	0.19262	0.15065	0.042313	0.17741	0.063797	0.092987	0.20489	0.1274	0.1185	0.24653	0.039805	0.21753	-2.3083	-3.3375	-2.6604	-3.1312	-3.35	-2.5312	-3.5125	-3.2583	-2.6417	-3.6417	-2.8542	-2.8937	-3.5396	-2.8292	-3.1729	-3.325	146.410	322.446	119.478	398.096	230.765	378.219	388.984	373.716	86.112	360.071	418.826	377.475	421.314	341.689	220.427	120.891	0.0013634	0.00054832	0.0001266	1162.4	6.4393e-06	5.3715e-06	926.35	418.48	6.2313e-06	5.9601e-06	374.06	137.12	158.86	65.54	5.6054e-06	65.039	0.0013023	0.0015668	0.00045378	1149.9	1.4464e-05	1.8385e-05	914.26	417.06	1.5568e-05	1.8317e-05	371.3	136.21	158.23	66.102	1.6237e-05	65.296	103.979	169.508	171.126	96.797	209.241	230.772	95.482	102.731	223.770	221.387	100.405	105.193	107.210	112.617	235.007	109.272	-8191	255	
51293.672	1	1	0	0	0.071626	0.019807	0.33697	0.34111	0.16673	0.29763	0.18033	0.067917	0.16265	0.17248	0.14377	0.035718	0.28859	0.01923	0.12717	0.063822	-2.2604	-3.4729	-2.8583	-2.9792	-3.375	-2.6125	-3.2854	-3.4042	-2.7438	-3.4646	-3.0667	-3.0438	-3.6833	-2.8458	-3.2833	-3.3333	351.365	214.074	360.974	377.023	211.322	158.172	311.707	119.297	308.724	297.042	278.652	188.803	341.409	156.175	129.620	293.736	0.0013812	0.00053184	0.00018534	1160.1	7.9001e-06	6.176e-06	923.97	419.62	6.4653e-06	6.2135e-06	372.02	137.05	158.73	65.886	9.3195e-06	64.716	0.0013107	0.0015372	0.0004604	1150.3	1.5019e-05	1.943e-05	912.22	417.1	1.6022e-05	1.8281e-05	370.51	136.08	158.23	66.302	1.6856e-05	64.859	104.126	176.979	183.120	96.568	221.774	238.064	95.509	102.497	223.878	219.136	100.159	105.052	107.407	112.640	235.766	108.765	-8191	255	
51293.793	1	1	0	0	0.17475	0.13617	0.060956	0.22957	0.29383	0.33145	0.082154	0.10459	0.18285	0.088044	0.038013	0.11981	0.090528	0.17723	0.154	0.29374	-2.3021	-3.5812	-2.9813	-2.8812	-3.4813	-2.8292	-3.3771	-3.4333	-2.6292	-3.4542	-3.1146	-2.9271	-3.4646	-2.7292	-3.1708	-3.4646	215.382	334.353	358.460	403.425	251.120	259.529	423.600	122.269	180.701	434.072	206.109	377.794	386.668	436.047	191.616	393.429	0.0013394	0.00051136	0.00015011	1162.7	9.0626e-06	7.0075e-06	921.24	419.69	9.324e-06	6.5995e-06	372.07	137.4	158.75	66.006	8.7754e-06	65.221	0.0013129	0.0015813	0.00046218	1147.9	1.4875e-05	1.9691e-05	908.88	417.4	1.614e-05	1.856e-05	369.77	136.71	158.85	66.507	1.6706e-05	65.43	102.448	161.440	176.980	96.712	215.770	238.848	95.789	102.383	221.059	234.881	100.341	105.383	107.153	112.645	229.797	108.924	-8191	255	
51293.891	1	1	0	0	0.26924	0.078584	0.11821	0.17751	0.20338	0.14679	0.12904	0.25259	0.061698	0.1901	0.22254	0.067354	0.1953	0.17303	0.19589	0.026058	-2.2896	-3.4	-3	-3.0208	-3.5833	-2.8354	-3.0021	-3.5812	-2.5667	-3.4437	-3.2083	-2.9062	-3.6458	-2.8979	-2.7875	-3.6937	96.571	294.103	95.225	409.750	197.116	393.136	91.030	405.827	254.816	285.468	134.911	405.595	98.609	406.898	157.134	162.295	0.0013677	0.0006863	0.00017871	1158.6	5.4714e-06	6.5491e-06	925.79	419.93	6.4328e-06	6.6493e-06	374.72	138.45	160.56	66.384	7.4949e-06	65.624	0.0013219	0.0017164	0.00048111	1148.5	1.4898e-05	1.8901e-05	912.18	418.19	1.6065e-05	1.8666e-05	371.92	137.63	159.91	67.129	1.795e-05	66.099	102.086	183.145	169.350	96.720	228.551	238.361	95.427	102.219	233.079	235.991	100.619	105.294	107.372	112.554	220.921	109.083	-8191	255	
51293.984	1	1	0	0	0.16232	0.19916	0.16055	0.18301	0.17297	0.0065789	0.19489	0.18285	0.14435	0.28949	0.111	0.097814	0.30136	0.32728	0.20314	0.12466	-2.3479	-3.2521	-3.225	-2.6646	-3.4688	-2.8625	-2.9854	-3.5896	-2.7667	-3.2542	-3.5354	-2.6125	-3.5521	-3.1354	-2.6146	-3.5729	95.183	385.060	372.707	444.092	327.143	370.047	443.948	376.978	90.349	212.841	147.058	444.065	378.187	415.259	267.700	355.765	0.0013401	0.00067942	0.00020741	1167.7	6.1211e-06	6.543e-06	927.02	420.96	8.223e-06	5.8703e-06	375.37	139.54	161.46	66.853	7.9414e-06	65.939	0.0012933	0.001729	0.0004741	1152.8	1.5155e-05	1.8828e-05	915.5	419.55	1.6636e-05	1.8721e-05	373.57	138.77	160.9	67.443	1.6846e-05	66.24	105.159	169.630	178.449	96.599	232.267	249.356	95.436	102.378	224.526	229.192	100.477	105.226	107.414	112.678	229.005	109.024	-8191	255	
51294.078	1	1	0	0	0.13039	0.23532	0.065282	0.3812	0.20824	0.13606	0.26067	0.35184	0.18258	0.13749	0.19629	0.18464	0.083576	0.3233	0.12481	0.061633	-2.3729	-3.175	-3.3271	-2.9	-3.4562	-2.8896	-2.7979	-3.6625	-2.5417	-3.1333	-3.4479	-2.6188	-3.3646	-3.2646	-2.6771	-3.7167	285.244	216.697	416.072	375.576	145.878	347.824	393.771	356.291	159.578	424.606	88.469	376.826	84.604	90.005	192.637	91.064	0.0012939	0.00065528	0.00019854	1162.5	5.7358e-06	5.7615e-06	922.73	421.08	6.9572e-06	8.0652e-06	372.92	138.2	160.4	66.472	9.2217e-06	65.106	0.0013122	0.0016835	0.00046552	1151.3	1.5478e-05	1.9505e-05	910.27	419.14	1.6733e-05	2.0153e-05	370.99	137.54	160.37	67.038	1.9194e-05	65.587	104.242	180.049	182.886	96.857	207.802	240.534	95.941	102.479	221.153	241.379	100.401	105.261	107.486	112.585	239.270	108.923	-8191	255	
51294.176	1	1	0	0	0.24454	0.095286	0.10663	0.013997	0.084945	0.19715	0.079898	0.15313	0.20082	0.26432	0.25491	0.032509	0.27418	0.086987	0.13783	0.055193	-2.55	-3.05	-3.4208	-2.8958	-3.4938	-3.2812	-2.8125	-3.5438	-2.7687	-3.0021	-3.3438	-2.7604	-3.3521	-3.5083	-2.5812	-3.6625	376.664	380.993	105.196	392.321	365.992	131.385	365.269	417.071	391.301	428.145	430.813	99.384	435.950	99.578	397.891	102.235	0.0013508	0.00072588	0.00021755	1158.5	7.5286e-06	7.4722e-06	915.22	419.81	6.1272e-06	4.7555e-06	370.12	138.2	160.05	66.482	8.6309e-06	65.257	0.0013559	0.0017234	0.00049539	1147.1	1.585e-05	2.0227e-05	905.8	417.65	1.6808e-05	2.0849e-05	369.67	137.08	160.08	67.128	1.8386e-05	65.624	105.984	182.505	176.363	96.705	212.467	222.300	95.600	102.560	193.644	217.361	100.204	104.978	107.156	112.565	225.459	108.954	-8191	255	
51294.273	1	1	0	0	0.20989	0.14132	0.22782	0.1027	0.18643	0.1095	0.026144	0.26692	0.083257	0.19442	0.17416	0.14363	0.26739	0.27394	0.2977	0.19354	-2.4375	-2.9021	-3.425	-2.8396	-3.1292	-3.3583	-2.7812	-3.4875	-2.7146	-2.7687	-3.5542	-2.7562	-3.3417	-3.2729	-2.6292	-3.7062	199.870	183.542	332.625	429.989	151.185	398.627	133.462	414.259	398.433	226.927	376.390	415.267	434.331	392.683	384.267	383.517	0.0013532	0.00081408	0.00018653	1155.2	6.4063e-06	6.7444e-06	918.27	420.65	6.2859e-06	6.9382e-06	374.28	138.5	160.92	66.641	5.8792e-06	65.129	0.0013334	0.0017644	0.00049067	1147.5	1.6041e-05	2.0162e-05	907.58	418.4	1.6567e-05	2.0341e-05	371.24	137.67	160.48	67.288	1.8934e-05	65.909	102.741	169.182	173.440	96.842	216.780	252.348	95.392	102.527	219.837	230.970	100.385	105.283	107.081	112.567	223.698	109.057	-8191	255	
51294.367	1	1	0	0	0.13963	0.081892	0.15801	0.26182	0.16622	0.33511	0.13324	0.22713	0.084056	0.10863	0.078293	0.097791	0.015066	0.26888	0.097179	0.099584	-2.7896	-2.6917	-3.5771	-2.9729	-3.0271	-3.525	-2.725	-3.5271	-3.1312	-2.7208	-3.5854	-2.9167	-3.0708	-3.5104	-2.7792	-3.2292	415.907	424.920	116.299	441.292	118.825	321.953	388.511	364.029	397.984	253.086	389.849	383.630	332.236	141.582	439.605	274.353	0.0013875	0.00066624	0.00021448	1162.8	5.8333e-06	6.1023e-06	925.27	421.67	8.6781e-06	9.3227e-06	372.16	139.26	160.58	66.862	6.313e-06	65.404	0.0013374	0.0018243	0.00050739	1152.2	1.6071e-05	2.0658e-05	911.44	420.03	1.6975e-05	2.1485e-05	372.32	138.27	160.62	67.436	1.9097e-05	65.801	104.318	159.078	172.454	96.690	212.334	240.511	95.355	102.492	214.025	233.096	100.609	105.120	107.414	112.457	223.420	109.182	-8191	255	
51294.488	1	1	0	0	0.13604	0.10035	0.35191	0.14927	0.22531	0.19804	0.13641	0.28503	0.27468	0.12288	0.14164	0.085938	0.10289	0.25736	0.15682	0.2261	-2.8167	-2.6583	-3.4708	-2.8958	-2.8396	-3.5083	-2.7125	-3.4188	-3.2771	-2.5542	-3.5062	-2.8104	-3.05	-3.6292	-2.6188	-3.2938	326.464	371.192	443.036	395.426	175.709	111.777	346.105	436.505	364.994	181.081	349.062	431.546	424.964	425.431	108.649	176.748	0.0013283	0.00042985	0.00018662	1158	7.4977e-06	5.8854e-06	916.93	420.66	7.5562e-06	5.4451e-06	369.81	137.37	160.32	66.472	7.9473e-06	65.233	0.0013716	0.0018574	0.00049641	1147.8	1.6635e-05	2.1037e-05	905.04	418.93	1.7188e-05	2.1509e-05	368.73	136.76	160.28	67.298	1.9056e-05	65.65	101.657	169.905	197.614	96.498	217.939	227.043	95.129	102.446	211.905	256.256	100.304	105.055	107.123	112.725	213.741	109.004	-8191	255	
51294.586	1	1	0	0	0.19265	0.053465	0.095674	0.14533	0.38654	0.071485	0.11951	0.24844	0.068733	0.053221	0.13783	0.098565	0.11263	0.091861	0.18627	0.16434	-2.8271	-2.6188	-3.3896	-3.2604	-2.8333	-3.5771	-2.7396	-3.2583	-3.3438	-2.7646	-3.5042	-3.1083	-2.8146	-3.6458	-2.6937	-3.1917	193.743	420.381	109.934	380.859	151.403	330.886	433.824	342.874	275.477	121.058	429.257	245.095	327.933	149.035	390.086	434.146	0.0013969	0.00043513	0.00013553	1153.3	7.4491e-06	5.7334e-06	912.32	418.45	7.4376e-06	4.6766e-06	370.29	137.57	160.78	67.12	7.4634e-06	65.709	0.0013628	0.0018198	0.00050157	1144.9	1.6383e-05	2.0111e-05	902.01	417.92	1.7121e-05	2.1237e-05	369.6	137.22	160.72	67.708	1.8421e-05	65.827	105.965	184.566	166.237	96.532	228.201	237.979	95.207	102.570	231.113	252.611	100.265	105.057	107.340	112.540	217.378	108.981	-8191	255	
51294.684	1	1	0	0	0.17511	0.13834	0.19648	0.2235	0.15904	0.15301	0.078458	0.36141	0.18956	0.22218	0.095031	0.21657	0.32657	0.14312	0.051813	0.2494	-3.0312	-2.3208	-3.3771	-3.15	-2.8812	-3.4833	-2.9938	-3.1333	-3.4396	-2.7875	-3.4271	-3.3833	-2.6896	-3.7313	-2.7354	-3.1437	94.843	242.286	183.633	88.015	115.796	327.114	140.933	412.765	181.282	271.194	323.969	405.706	116.039	401.973	420.407	380.611	0.001334	0.00075682	0.00017166	1152.2	8.4281e-06	5.9208e-06	920.27	421.22	8.0916e-06	6.9386e-06	369.7	139.1	161.04	67.274	8.3104e-06	65.814	0.0013349	0.0018878	0.00049892	1144.8	1.6834e-05	2.0838e-05	904.95	419.1	1.6738e-05	2.1395e-05	370.12	137.9	160.8	67.74	1.8745e-05	66.137	104.577	183.459	172.940	96.671	218.407	222.185	95.263	102.573	214.421	237.179	100.111	104.714	107.201	112.463	220.761	108.950	-8191	255	
51294.754	1	1	0	0	0.062286	0.26112	0.26392	0.0428	0.18333	0.17736	0.21323	0.14318	0.19963	0.17958	0.039095	0.15721	0.36974	0.50776	0.27117	0.31888	-3.0646	-2.6625	-3.175	-3.2562	-2.5625	-3.5062	-3.0542	-3.1417	-3.3187	-2.7958	-3.2104	-3.3292	-2.6188	-3.6208	-2.9896	-2.925	348.392	113.920	268.396	323.413	148.937	150.188	411.502	268.581	423.155	167.128	343.048	356.894	383.172	430.505	110.239	288.306	0.0013099	0.00069178	0.00015889	1161.4	6.4075e-06	6.7186e-06	915.89	421.04	9.2468e-06	7.3841e-06	372.6	139.59	162.11	67.423	9.8209e-06	66.115	0.0013719	0.0018509	0.00050637	1150.1	1.692e-05	2.0479e-05	908.46	419.7	1.7328e-05	2.1567e-05	371.61	138.48	161.59	68.241	1.9393e-05	66.462	103.906	181.809	186.173	96.504	222.212	263.426	95.164	102.218	235.800	218.141	100.162	104.905	106.976	112.527	219.944	109.018	-8191	255	
51294.871	1	1	0	0	0.32264	0.14641	0.15088	0.39401	0.10297	0.19446	0.10128	0.20956	0.017568	0.21093	0.14979	0.21095	0.039948	0.28718	0.11985	0.16749	-2.9562	-2.5125	-3.1708	-3.525	-2.5938	-3.3229	-3.2313	-2.7438	-3.3292	-2.7854	-2.9562	-3.5521	-2.5917	-3.35	-3.05	-2.7208	354.031	178.191	195.127	428.179	424.852	255.999	379.023	334.920	165.748	145.459	416.118	311.245	215.907	375.295	248.571	390.508	0.0013514	0.00053205	0.00016998	1157.6	7.6719e-06	7.5911e-06	916.12	420.31	8.482e-06	4.7496e-06	372.57	140.71	164.22	68.447	8.5011e-06	66.901	0.0013617	0.0018588	0.00051011	1146.3	1.7186e-05	2.0999e-05	904.63	418.97	1.6944e-05	2.0746e-05	371.49	139.97	163.93	69.115	1.8828e-05	67.399	104.383	170.859	172.446	96.663	225.116	227.756	95.403	102.609	211.270	247.214	100.091	105.035	107.241	112.492	227.410	108.994	-8191	255	
51294.969	1	1	0	0	0.20716	0.16185	0.42112	0.12386	0.19978	0.27827	0.30854	0.249	0.13322	0.27699	0.10395	0.27819	0.09846	0.12508	0.33373	0.21352	-3.1229	-2.7687	-2.8646	-3.475	-2.6646	-3.1417	-3.2979	-2.7729	-3.4896	-2.8354	-3.0354	-3.4437	-2.6562	-3.3479	-3.1479	-2.6083	284.182	102.118	386.543	310.219	311.776	290.426	363.403	392.379	100.147	389.822	261.266	437.273	427.350	390.017	324.244	404.414	0.0013845	0.00056358	0.00019313	1163.7	6.0288e-06	5.2623e-06	917.08	422.87	7.1369e-06	5.1329e-06	373.67	142.38	165.9	69.613	6.8009e-06	68.118	0.001378	0.0019059	0.00053591	1149	1.6499e-05	2.064e-05	904.52	420.46	1.7134e-05	2.0762e-05	373.5	142.01	165.96	70.219	1.8936e-05	68.448	105.128	186.199	197.059	96.571	223.804	223.652	95.153	102.310	223.333	234.858	100.299	104.914	107.107	112.428	219.068	109.070	-8191	255	
51295.066	1	1	0	0	0.047276	0.16497	0.093437	0.28858	0.17041	0.058139	0.25055	0.08999	0.27807	0.26787	0.22192	0.072104	0.21135	0.099281	0.20481	0.13204	-3.1354	-2.9646	-2.7687	-3.7083	-2.6729	-3.325	-3.4521	-2.6625	-3.4667	-3.0729	-2.7417	-3.5792	-2.8542	-3.4229	-3.3042	-2.8438	413.655	381.407	310.893	432.405	230.115	397.372	385.926	96.351	311.261	205.309	429.187	198.098	426.301	417.167	415.677	414.770	0.0013795	0.00066753	0.00017223	1159.3	7.42e-06	6.0288e-06	922.68	422.2	6.12e-06	6.8635e-06	378.11	143.69	166.98	69.809	8.1358e-06	68.636	0.0013603	0.0017967	0.00051426	1146.2	1.7063e-05	2.047e-05	911.28	420.73	1.6678e-05	2.1095e-05	375.87	143.3	166.46	70.633	1.9271e-05	69.084	106.182	157.220	175.102	96.800	218.482	238.082	95.212	102.322	232.866	223.441	100.039	105.057	107.070	112.565	225.969	108.804	-8191	255	
51295.160	1	1	0	0	0.065749	0.10123	0.17315	0.031827	0.06545	0.11365	0.14396	0.28215	0.079488	0.3292	0.21746	0.12204	0.22721	0.31055	0.071777	0.3972	-3.0563	-2.9104	-2.5833	-3.6458	-2.8292	-3.0938	-3.5646	-2.8458	-3.5062	-2.8958	-2.8125	-3.7417	-2.9979	-3.1	-3.6583	-2.8	102.745	145.015	204.862	391.618	131.384	331.791	347.673	385.735	144.871	291.639	203.361	358.751	95.005	378.976	322.185	350.914	0.0014399	0.0006551	0.00016541	1162.9	5.9194e-06	6.5646e-06	921.73	424.09	8.8344e-06	5.5173e-06	376.95	144.89	168.02	70.05	7.0849e-06	68.053	0.0014265	0.0018915	0.00053984	1152.6	1.6902e-05	2.1492e-05	911.81	422.87	1.7945e-05	2.1329e-05	375.78	143.9	167.69	70.875	1.9523e-05	68.625	103.528	169.969	184.534	96.543	227.420	230.651	94.879	102.510	222.291	240.817	100.100	104.852	107.095	112.506	223.284	108.707	-8191	255	
51295.281	1	1	0	0	0.14859	0.23865	0.099317	0.15549	0.17444	0.11447	0.037386	0.33865	0.2863	0.19091	0.33899	0.11436	0.22051	0.099684	0.2342	0.092827	-2.9646	-3.2	-2.8063	-3.5667	-2.7146	-2.9146	-3.5687	-2.6604	-3.1542	-3.3063	-2.7812	-3.5521	-3.0729	-3.0354	-3.4667	-2.8563	306.506	415.421	365.786	125.648	84.815	357.744	326.371	420.524	242.288	150.621	147.221	339.834	161.953	371.672	332.499	343.377	0.0014305	0.00060488	0.00016509	1156.6	6.9319e-06	5.7881e-06	913.18	423.77	8.3932e-06	5.2736e-06	374.04	143.81	167.74	69.954	9.8651e-06	67.651	0.0014453	0.001937	0.0005543	1148.3	1.7719e-05	2.2809e-05	902.9	422.04	1.7664e-05	2.183e-05	373.19	143.41	167.33	70.585	1.9961e-05	68.188	107.538	156.009	168.157	96.588	226.305	219.254	95.328	102.370	227.121	239.591	100.370	104.932	107.043	112.488	227.042	108.478	-8191	255	
51295.352	1	1	0	0	0.20432	0.039264	0.18289	0.40837	0.25569	0.082739	0.058145	0.49412	0.22552	0.27402	0.29005	0.34484	0.2226	0.22923	0.10038	0.16417	-2.9583	-3.4458	-2.7	-3.7792	-3.1292	-2.6979	-3.6042	-2.8667	-3.2375	-3.3604	-2.6729	-3.5542	-3.1583	-2.9208	-3.5271	-2.9	316.159	308.770	102.255	371.823	232.613	150.781	364.676	388.880	174.241	150.615	370.181	406.366	434.427	105.047	99.917	408.815	0.0014326	0.00049733	0.00023243	1157.3	6.5252e-06	4.578e-06	910.37	420.75	7.9024e-06	7.2363e-06	373.77	142.71	166.17	68.85	7.8436e-06	67.225	0.0014324	0.001865	0.00054453	1144.2	1.7165e-05	2.2806e-05	899.28	419.52	1.7501e-05	2.1803e-05	372.09	142.02	165.79	69.733	1.9658e-05	67.565	106.309	147.184	184.087	96.739	218.665	227.876	95.234	102.434	234.033	224.450	100.554	104.882	107.079	112.435	227.115	108.887	-8191	255	
51295.473	1	1	0	0	0.26177	0.11735	0.14384	0.17086	0.079094	0.15452	0.21524	0.27055	0.12078	0.2179	0.025104	0.092231	0.085187	0.34614	0.082711	0.2728	-2.8583	-3.2271	-2.3917	-3.5333	-3.0333	-2.7542	-3.5229	-2.8563	-2.8583	-3.45	-2.5646	-3.5354	-3.4354	-2.6104	-3.4	-2.8583	299.974	85.277	338.981	386.938	342.972	349.161	415.171	342.744	199.007	425.378	124.248	407.158	336.198	355.801	379.124	243.566	0.0013829	0.00070966	0.00015284	1154.8	7.6718e-06	6.4179e-06	910.5	420.9	8.9373e-06	6.5552e-06	372.19	142.3	165.4	69.119	7.2335e-06	67.232	0.0014028	0.0018541	0.00053046	1144.2	1.7419e-05	2.2083e-05	899.29	419.04	1.8231e-05	2.1685e-05	370.53	141.65	165.34	69.687	1.9084e-05	67.535	106.533	169.840	188.025	96.520	212.973	211.922	95.112	102.395	218.235	247.665	100.361	105.141	107.156	112.598	206.602	108.598	-8191	255	
51295.566	1	1	0	0	0.14214	0.085201	0.043333	0.21468	0.13972	0.17914	0.11856	0.19587	0.12262	0.13315	0.041659	0.029853	0.096805	0.064628	0.15302	0.15016	-2.5583	-3.3917	-2.5021	-3.375	-3.3833	-2.5187	-3.7062	-2.9542	-2.7979	-3.5479	-2.7875	-3.25	-3.5896	-2.75	-3.4437	-3.0708	109.736	399.175	284.999	397.760	277.099	336.431	137.208	384.352	108.251	351.795	204.517	403.433	374.147	361.727	267.960	409.506	0.0014008	0.0007796	0.00016113	1153	5.3283e-06	5.636e-06	909.48	420.63	8.978e-06	7.4263e-06	371.99	140.58	164.44	68.528	8.7203e-06	66.745	0.0014371	0.0018861	0.00051836	1143.9	1.6582e-05	2.2389e-05	898.62	418.81	1.7654e-05	2.1118e-05	369.63	140.4	164.29	69.285	1.8725e-05	67.083	105.241	180.975	174.266	96.611	213.493	217.730	95.311	102.248	214.028	231.180	100.117	104.951	107.063	112.620	221.887	108.762	-8191	255	
51295.664	1	1	0	0	0.2663	0.010649	0.16254	0.043651	0.061984	0.29178	0.036706	0.27798	0.19299	0.13165	0.071408	0.2873	0.15907	0.13785	0.099306	0.14394	-2.3667	-3.4979	-2.8479	-3.1104	-3.3187	-2.6521	-3.4521	-3.2042	-2.7042	-3.5146	-2.9813	-3.2625	-3.5312	-2.7771	-3.4083	-3.2354	396.021	443.425	341.576	369.836	192.882	361.018	381.199	111.293	422.331	394.990	308.087	125.798	432.916	421.438	123.242	439.894	0.0013833	0.00043319	0.00020003	1154.8	7.9525e-06	7.0879e-06	907.91	417.53	7.8247e-06	6.6173e-06	369.43	140.46	164.57	68.415	7.4357e-06	66.537	0.0013928	0.0018474	0.00052763	1142.6	1.6649e-05	2.197e-05	896.98	417.44	1.7419e-05	2.1077e-05	368.57	139.69	164.3	69.026	1.8901e-05	66.992	103.636	172.010	168.170	96.685	221.762	242.896	95.232	102.318	226.901	234.023	100.141	104.746	107.077	112.578	228.388	108.821	-8191	255	
51295.762	1	1	0	0	0.087446	0.085026	0.10076	0.29125	0.12527	0.1485	0.31289	0.011078	0.17493	0.20531	0.11886	0.161	0.22164	0.27242	0.26192	0.21513	-2.3083	-3.5042	-2.8187	-3.0771	-3.3708	-2.7521	-3.4708	-3.1063	-2.6437	-3.5812	-2.9062	-2.8542	-3.575	-2.825	-3.25	-3.2479	336.697	173.617	129.519	313.049	222.449	400.300	371.047	356.781	431.001	418.936	372.406	410.676	407.637	419.403	351.685	112.449	0.0014054	0.00036982	0.00022239	1152.6	7.4922e-06	7.3291e-06	908.01	420.12	8.0948e-06	6.6777e-06	370.63	140.31	164.8	68.581	7.4618e-06	66.786	0.0014176	0.0018405	0.00052105	1141.1	1.7252e-05	2.2153e-05	896.33	418.09	1.8425e-05	2.1795e-05	369.24	140.18	164.34	69.134	1.9068e-05	67.095	104.578	191.577	187.415	96.753	224.568	256.504	95.266	102.524	222.344	223.669	100.243	104.838	107.276	112.506	227.721	108.731	-8191	255	
51295.883	1	1	0	0	0.079996	0.25532	0.1336	0.13011	0.12272	0.19143	0.26416	0.14893	0.13556	0.11124	0.18038	0.25864	0.12157	0.19677	0.34773	0.11739	-2.3458	-3.4	-2.8979	-2.9333	-3.6104	-2.7188	-3.15	-3.575	-2.5375	-3.4583	-3.0896	-2.925	-3.5458	-2.8958	-3.1354	-3.3771	107.952	407.001	114.408	160.566	131.496	91.511	412.121	96.783	358.002	383.268	424.212	125.925	403.289	356.612	198.971	252.088	0.0014044	0.00054903	0.00014017	1151	5.3754e-06	5.9272e-06	909.65	420.83	8.0741e-06	3.6514e-06	372.57	141.51	165.6	68.996	9.2346e-06	67.553	0.0014516	0.0018798	0.00052418	1143.9	1.7545e-05	2.2428e-05	900.17	419.46	1.8305e-05	2.139e-05	370.98	140.9	165.15	69.633	1.9597e-05	67.62	100.539	164.072	164.150	96.784	221.896	243.902	95.400	102.276	211.771	234.041	100.398	105.077	107.136	112.491	218.444	108.699	-8191	255	
51295.953	1	1	0	0	0.075573	0.14582	0.091455	0.083392	0.10395	0.085438	0.19372	0.22899	0.081318	0.17893	0.17178	0.10355	0.13294	0.071867	0.27738	0.32004	-2.2208	-3.4271	-3.2417	-2.8979	-3.5687	-2.8187	-3.0687	-3.5396	-2.5604	-3.4625	-3.175	-2.7188	-3.7479	-2.8292	-2.9813	-3.7292	276.508	351.937	407.567	121.861	200.671	201.130	359.654	313.990	251.572	132.665	394.678	277.304	368.316	130.132	165.035	93.810	0.0013404	0.00061367	0.00020863	1156.8	5.8976e-06	6.7009e-06	912.76	421	6.7482e-06	5.368e-06	369.62	140.8	164.93	68.506	1.1118e-05	66.628	0.001425	0.0018682	0.00052625	1146.1	1.6863e-05	2.1868e-05	900.08	418.82	1.8201e-05	2.1587e-05	368.94	140.04	164.48	69.17	2.0143e-05	66.916	105.687	164.288	179.123	96.678	220.163	231.056	95.207	102.288	204.679	249.851	100.353	104.961	107.329	112.598	232.600	108.839	-8191	255	
51296.051	1	1	0	0	0.18074	0.044575	0.28073	0.33007	0.2256	0.24497	0.11256	0.27821	0.14418	0.097466	0.23649	0.27036	0.37756	0.23391	0.22898	0.15399	-2.2729	-3.1375	-3.0312	-2.8083	-3.5354	-2.7229	-2.8771	-3.4729	-2.7396	-3.2958	-3.2979	-2.6583	-3.7354	-3	-2.8979	-3.4688	390.322	156.568	109.006	437.339	307.634	222.708	364.951	283.968	246.009	420.973	420.879	328.600	105.129	428.168	389.480	401.813	0.0014096	0.00066957	0.00020937	1154.5	6.9265e-06	6.587e-06	903.54	420.4	6.5741e-06	4.7685e-06	369.4	139.11	163.39	67.834	8.5166e-06	65.771	0.0014059	0.0018179	0.00052345	1143.6	1.6651e-05	2.1923e-05	895.54	418.16	1.7567e-05	2.1489e-05	367.92	139.05	163.54	68.659	1.9059e-05	66.298	104.535	184.519	180.390	96.589	221.226	222.296	95.654	102.417	214.296	245.643	100.508	105.206	107.236	112.287	211.577	108.856	-8191	255	
51296.168	1	1	0	0	0.068639	0.11655	0.064896	0.18375	0.34326	0.06144	0.054527	0.11049	0.27447	0.17596	0.21514	0.049689	0.40227	0.30222	0.14708	0.26079	-2.4313	-3.2333	-3.4208	-2.7188	-3.4667	-2.8083	-2.7771	-3.7021	-2.6813	-3.1063	-3.4958	-2.6708	-3.5521	-3.1625	-2.5646	-3.4979	342.129	333.248	279.417	325.446	420.652	256.330	353.972	165.219	229.851	274.033	423.372	214.978	390.516	123.770	396.647	388.820	0.0013742	0.00057223	0.00016657	1150.3	7.4115e-06	5.3852e-06	906.75	421.03	8.03e-06	6.0023e-06	369.84	139.79	163.98	68.418	8.7881e-06	66.549	0.0014302	0.0018535	0.00054086	1140	1.7224e-05	2.1261e-05	895.05	418.47	1.7559e-05	2.1706e-05	368.08	139.21	163.75	68.928	1.975e-05	66.765	103.740	170.596	186.828	96.763	224.577	239.493	95.336	102.596	223.790	246.146	100.314	104.932	107.052	112.366	227.824	108.824	-8191	255	
51296.266	1	1	0	0	0.2039	0.14391	0.089743	0.28499	0.062368	0.098948	0.025631	0.2286	0.066619	0.098399	0.22028	0.21373	0.21792	0.11827	0.20276	0.17167	-2.1875	-2.8937	-3.375	-2.6792	-3.3125	-3.1167	-2.8833	-3.4125	-2.6729	-2.9146	-3.5625	-2.5896	-3.3479	-3.2875	-2.7021	-3.6333	174.746	245.118	116.247	312.316	398.009	431.583	105.812	392.968	180.745	346.510	406.477	96.698	104.419	362.973	432.025	426.110	0.0013427	0.00050192	0.0001938	1158.4	6.7495e-06	4.9491e-06	914.14	421.49	9.6135e-06	5.0864e-06	372.44	140.19	164.64	68.547	1.0129e-05	66.679	0.0013876	0.0018807	0.00051255	1147.5	1.6687e-05	2.0418e-05	902	420	1.7695e-05	2.2162e-05	370.69	139.7	164.23	69.123	1.91e-05	66.97	104.379	166.072	179.707	96.480	224.191	209.092	95.212	102.460	216.879	247.523	100.232	104.956	107.291	112.548	227.368	108.647	-8191	255	
51296.359	1	1	0	0	0.25379	0.19391	0.12646	0.19055	0.09133	0.22468	0.21096	0.38794	0.27674	0.34231	0.20815	0.37186	0.33011	0.15281	0.11758	0.14726	-2.4792	-2.7938	-3.4854	-2.8937	-3.1979	-3.3438	-2.6021	-3.4583	-2.8812	-2.6813	-3.6104	-2.6583	-3.3	-3.5021	-2.5833	-3.6604	258.673	143.947	306.629	179.941	239.999	331.450	92.111	413.375	409.951	279.120	427.466	439.586	360.901	444.263	414.381	367.588	0.0013749	0.00060553	0.00017032	1155.4	6.0307e-06	3.6983e-06	909.89	421.12	6.7487e-06	6.5407e-06	369.86	138.71	162.94	68.017	9.7309e-06	65.607	0.0013829	0.0019097	0.00050248	1146.5	1.6802e-05	2.0876e-05	897.27	418.97	1.7636e-05	2.1488e-05	368.38	138.4	162.83	68.511	1.9678e-05	66.146	105.397	168.459	173.292	96.931	227.650	231.508	95.197	102.509	222.969	234.000	100.484	104.918	107.294	112.513	233.697	108.982	-8191	255	
51296.457	1	1	0	0	0.30197	0.16615	0.15594	0.25027	0.15794	0.14875	0.24253	0.25201	0.19639	0.10201	0.066952	0.1737	0.24543	0.10541	0.12301	0.30901	-2.7208	-2.7625	-3.4562	-2.9083	-3.0438	-3.2438	-2.8458	-3.5187	-3.0771	-2.8146	-3.7417	-2.7604	-3.1708	-3.4167	-2.4458	-3.5708	436.542	155.487	359.725	367.371	201.862	147.336	396.609	350.315	123.320	94.378	363.155	171.989	418.572	382.655	97.604	85.024	0.0013346	0.00069879	0.00015706	1152.6	5.0115e-06	7.5568e-06	903.98	421.23	7.0807e-06	4.8056e-06	367.62	138.2	162.53	67.723	8.4312e-06	65.686	0.0013991	0.0018877	0.00050989	1142.7	1.6673e-05	2.1286e-05	894.35	418.14	1.7638e-05	2.1638e-05	367.13	138.02	162.58	68.297	1.9347e-05	66.133	102.949	170.901	180.552	96.596	205.459	223.551	95.226	102.401	223.129	239.879	100.339	104.875	107.424	112.617	230.993	108.754	-8191	255	
51296.578	1	1	0	0	0.051235	0.039139	0.22392	0.15496	0.2225	0.18241	0.39886	0.088405	0.16918	0.29257	0.16063	0.197	0.12235	0.024734	0.25299	0.13799	-2.8146	-2.4708	-3.4583	-2.8958	-3.0812	-3.5958	-2.9833	-3.4896	-3.2812	-2.6521	-3.4271	-2.7687	-2.8937	-3.4833	-2.7062	-3.4833	230.096	275.756	315.927	422.810	340.660	320.788	354.614	395.408	400.459	407.682	345.268	438.195	398.670	413.370	188.770	376.348	0.0014132	0.00043669	0.00016673	1159.1	6.6623e-06	5.3248e-06	908.94	419.87	9.76e-06	4.7968e-06	368.12	139.06	162.12	67.693	8.5932e-06	65.837	0.0013889	0.0018903	0.00051411	1145.3	1.6319e-05	2.0841e-05	896.72	419.01	1.6985e-05	2.0829e-05	368.03	138.25	162.56	68.389	1.9306e-05	66.142	103.386	162.232	163.722	96.591	215.723	242.257	95.132	102.669	214.234	257.109	100.337	104.746	107.324	112.359	221.541	109.049	-8191	255	
51296.648	1	1	0	0	0.14969	0.11069	0.041569	0.22503	0.20617	0.15784	0.28956	0.097948	0.055427	0.28635	0.29104	0.14901	0.20947	0.27707	0.1343	0.14404	-2.8229	-2.6688	-3.4542	-2.925	-2.7667	-3.4125	-2.8542	-3.3542	-3.3354	-2.6958	-3.5208	-3.0646	-3.0229	-3.5542	-2.7687	-3.1708	132.026	435.451	191.851	410.782	247.154	258.293	344.023	124.478	169.348	349.960	429.233	267.044	368.070	359.746	431.263	413.484	0.0013597	0.00065277	0.00016295	1157	6.9928e-06	7.3424e-06	911.85	422.44	8.2598e-06	6.7085e-06	370.71	139.73	163.93	68.046	5.9154e-06	65.936	0.0013749	0.0018791	0.00051302	1149.7	1.649e-05	2.0403e-05	902.37	420.09	1.7024e-05	2.1463e-05	369.26	139.1	163.58	68.742	1.8965e-05	66.299	103.117	174.637	193.946	96.617	224.536	237.909	95.425	102.386	217.280	227.279	100.609	104.873	107.344	112.214	220.883	109.129	-8191	255	
51296.746	1	1	0	0	0.074357	0.28522	0.22264	0.2255	0.19559	0.077471	0.1414	0.34699	0.26364	0.13906	0.11065	0.23581	0.23705	0.18806	0.1291	0.24686	-3.0208	-2.4208	-3.275	-3.1271	-2.7625	-3.3792	-2.6646	-3.2792	-3.2604	-2.6729	-3.475	-3.0604	-2.8	-3.5812	-2.6937	-2.9417	230.758	379.015	402.864	114.898	131.586	335.154	90.382	361.295	188.224	245.362	374.671	352.678	417.857	322.641	237.668	393.494	0.0012798	0.00053167	0.00020598	1157.6	7.858e-06	6.6154e-06	904.92	419.07	7.9264e-06	7.8962e-06	370.08	139.77	164.16	68.24	7.0239e-06	65.714	0.001329	0.0018157	0.00050263	1149.1	1.6905e-05	2.1072e-05	897.57	418.87	1.7377e-05	2.2046e-05	368.33	139.17	164.07	68.939	1.9273e-05	66.126	104.730	169.076	172.839	96.779	203.564	233.417	95.334	102.487	224.261	257.861	100.319	104.754	107.275	112.522	225.096	108.925	-8191	255	
51296.840	1	1	0	0	0.14571	0.10457	0.26508	0.258	0.087995	0.21765	0.26157	0.16813	0.17204	0.21616	0.31097	0.15533	0.10052	0.17851	0.35539	0.1011	-3.1208	-2.6458	-3.3417	-3.3396	-2.5771	-3.375	-2.8833	-2.9875	-3.4646	-2.6896	-3.2771	-3.2604	-2.7667	-3.6354	-2.7771	-2.6521	131.714	137.510	152.340	420.969	109.102	255.666	352.880	372.336	382.038	112.223	113.454	429.538	278.425	147.581	170.586	368.372	0.001356	0.00092742	0.00017742	1148.7	7.2396e-06	4.517e-06	904.29	421.05	7.7422e-06	4.8235e-06	369.49	140.39	164.15	68.383	6.9565e-06	65.929	0.0013434	0.0019086	0.00050986	1142.8	1.7094e-05	2.148e-05	894.61	419.2	1.7513e-05	2.2055e-05	368.21	139.7	164.24	69.198	1.8283e-05	66.498	103.687	161.218	153.028	96.716	229.811	220.393	95.371	102.507	219.674	244.616	100.486	104.861	107.166	112.425	212.044	109.045	-8191	255	
51296.961	1	1	0	0	0.25846	0.040699	0.10727	0.16163	0.08701	0.33622	0.062992	0.14989	0.1938	0.19498	0.081012	0.033211	0.06904	0.08752	0.2928	0.12942	-3.1875	-2.7104	-3.0917	-3.4875	-2.6979	-3.3354	-3.0708	-2.9562	-3.4604	-2.6583	-3.2292	-3.5438	-2.6625	-3.475	-2.9521	-2.8396	230.089	436.913	343.945	439.536	241.292	355.140	406.200	384.096	249.772	388.122	280.751	223.347	164.032	267.250	436.181	282.558	0.0014381	0.00060485	0.00015273	1155.2	8.4249e-06	5.5199e-06	904.79	420.15	7.624e-06	5.8897e-06	370.03	139.53	163.42	67.969	6.144e-06	65.788	0.0013767	0.0017652	0.00050782	1143.4	1.6767e-05	2.0789e-05	894.13	418.41	1.6282e-05	2.0759e-05	367.67	138.43	163.03	68.572	1.766e-05	66.057	104.107	158.574	170.321	96.620	209.566	254.720	95.135	102.331	218.796	242.729	100.552	104.945	107.093	112.642	227.601	108.826	-8191	255	
51297.059	1	1	0	0	0.14755	0.063793	0.2189	0.028062	0.12668	0.18419	0.28316	0.28679	0.35849	0.15683	0.13488	0.1306	0.08313	0.17297	0.077668	0.39033	-3.1458	-2.6937	-2.9625	-3.5167	-2.7979	-3.3917	-3.2125	-2.7625	-3.5625	-2.7812	-2.8812	-3.5125	-2.7833	-3.3333	-3.1813	-2.7646	95.550	306.285	291.880	384.919	354.941	192.502	402.242	440.460	230.814	218.522	139.781	96.866	91.348	387.393	260.761	350.568	0.0013352	0.00070973	0.00020512	1159	8.1498e-06	3.6691e-06	912.27	419.79	4.9293e-06	6.5193e-06	365.28	138.21	162.26	67.346	8.46e-06	65.385	0.0013511	0.0017764	0.00049318	1146.4	1.6079e-05	1.8982e-05	898.02	417.84	1.6052e-05	2.0563e-05	365.28	137.47	161.76	68.141	1.7897e-05	65.568	103.499	187.993	179.505	96.520	219.321	219.552	95.343	102.640	219.233	243.276	99.992	104.929	107.167	112.562	231.526	109.103	-8191	255	
51297.152	1	1	0	0	0.18211	0.20758	0.22923	0.19038	0.1848	0.17643	0.24045	0.2702	0.065146	0.2116	0.19814	0.14689	0.04745	0.22543	0.019367	0.092564	-3.0729	-2.8667	-2.9188	-3.6479	-2.5333	-3.3583	-3.4229	-2.6875	-3.4708	-2.9854	-2.7313	-3.5917	-2.7521	-3.2438	-3.1688	-2.6521	150.141	230.522	420.365	372.168	272.848	363.573	352.534	103.578	193.052	110.282	266.966	368.297	149.539	407.100	233.659	368.731	0.0013708	0.00058868	0.00017187	1150	7.1164e-06	5.5231e-06	897.46	419.84	7.3677e-06	5.5263e-06	365.31	138.15	161.42	67.579	8.0959e-06	64.916	0.0013302	0.0017937	0.00049267	1140.6	1.6104e-05	2.0644e-05	889.41	416.79	1.6597e-05	2.0413e-05	364.62	137.26	161.53	68.131	1.7762e-05	65.368	102.972	164.654	186.203	96.616	226.432	250.167	95.433	102.488	210.189	233.057	100.168	105.166	107.288	112.634	223.687	108.861	-8191	255	
51297.250	1	1	0	0	0.17947	0.20926	0.27003	0.31081	0.24179	0.35171	0.15843	0.18643	0.26676	0.13346	0.044452	0.12436	0.12936	0.17831	0.22336	0.15645	-3.1042	-2.7458	-2.7188	-3.7583	-2.5479	-3.1437	-3.4667	-2.8146	-3.2333	-3.05	-2.9646	-3.5729	-2.9646	-3.2521	-3.4875	-2.75	322.049	204.446	102.039	404.774	122.400	406.639	419.011	113.157	382.569	98.609	357.645	409.129	421.620	344.830	265.559	319.042	0.0014096	0.00052548	0.00018388	1152.5	5.1606e-06	5.5407e-06	904.72	416.53	8.011e-06	6.3671e-06	366.09	138.76	161.66	67.604	7.6017e-06	65.321	0.0013472	0.0017426	0.00049994	1140.1	1.6046e-05	2.0385e-05	892.96	415.84	1.6068e-05	2.0048e-05	365.49	137.79	161.87	68.346	1.7427e-05	65.879	105.565	170.201	185.732	96.750	220.771	236.752	95.308	102.500	217.274	236.199	100.485	104.890	107.157	112.538	216.838	109.097	-8191	255	
51297.344	1	1	0	0	0.12037	0.19762	0.10128	0.13317	0.088261	0.1804	0.13826	0.15513	0.13196	0.28724	0.0606	0.11984	0.10867	0.20691	0.21875	0.18914	-3.1562	-3.1646	-2.5708	-3.6813	-2.8438	-2.8563	-3.6167	-2.7417	-3.3	-3.2313	-2.7667	-3.4083	-2.9188	-3.0687	-3.6	-2.675	425.815	365.422	162.464	329.606	240.549	260.988	434.148	404.807	444.057	267.012	336.585	410.263	114.501	369.776	244.539	304.316	0.0012881	0.00054772	0.00014449	1151.7	5.9241e-06	4.9686e-06	908.04	418.98	8.3777e-06	4.4959e-06	370.75	140.05	163.93	68.527	8.2726e-06	66.014	0.0013164	0.0016732	0.00049013	1140.9	1.5683e-05	2.0207e-05	895.76	417.33	1.6676e-05	2.0007e-05	367.99	139.06	163.16	68.908	1.7569e-05	66.477	105.103	172.111	178.160	96.732	218.913	244.191	95.436	102.154	228.606	235.755	100.258	105.139	107.294	112.298	217.040	108.818	-8191	255	
51297.441	1	1	0	0	0.12618	0.089641	0.065199	0.36169	0.2151	0.15018	0.19024	0.47549	0.30913	0.16841	0.20802	0.06873	0.22906	0.24014	0.071059	0.16182	-2.6583	-3.2167	-2.7	-3.5979	-2.9104	-2.7792	-3.5917	-2.8083	-3.2854	-3.2583	-2.7792	-3.5292	-3.1479	-2.8812	-3.5312	-2.7771	107.467	267.378	112.382	385.135	261.182	129.554	104.499	366.883	202.424	84.341	126.188	98.143	408.425	372.547	177.604	299.914	0.0013468	0.00050494	0.00011943	1158.3	5.4188e-06	5.3664e-06	908.98	420.12	6.2158e-06	6.2688e-06	368.5	140.43	164.47	68.301	8.5735e-06	66.241	0.0013302	0.0017432	0.00050412	1147.8	1.6052e-05	2.0583e-05	900.25	418.72	1.6861e-05	2.0071e-05	367.9	139.42	163.89	69.059	1.786e-05	66.434	103.825	162.369	189.413	96.722	225.619	222.120	95.177	102.316	223.346	260.965	100.554	105.237	107.169	112.602	226.240	108.781	-8191	255	
51297.562	1	1	0	0	0.091336	0.35309	0.13444	0.34246	0.16751	0.1307	0.079545	0.30486	0.21476	0.06081	0.10982	0.15324	0.34551	0.38146	0.013203	0.079245	-2.6708	-3.4437	-2.5396	-3.5396	-3.0333	-2.6729	-3.8417	-2.9688	-3.0125	-3.4271	-2.6396	-3.5438	-3.2271	-2.8563	-3.6208	-2.9313	246.482	196.137	392.325	422.275	284.568	307.623	173.148	372.926	339.709	285.836	313.124	94.847	140.369	400.930	126.871	226.764	0.0013858	0.00065065	0.00015223	1155.8	6.685e-06	5.0922e-06	904.94	420.16	7.4427e-06	7.26e-06	367.41	140.03	164.3	68.12	6.8194e-06	65.783	0.0013705	0.0017868	0.00049572	1145.2	1.5697e-05	2.0892e-05	896.7	418.41	1.6596e-05	1.9875e-05	367.01	139.14	163.9	68.934	1.8133e-05	66.356	103.620	161.310	175.138	96.593	203.772	255.773	95.206	102.321	227.175	230.461	100.340	105.162	107.059	112.566	236.733	109.203	-8191	255	
51297.656	1	1	0	0	0.059839	0.096125	0.12957	0.27206	0.092159	0.26822	0.18934	0.40986	0.067901	0.027575	0.12436	0.22702	0.12007	0.092624	0.065528	0.3302	-2.6625	-3.4792	-2.6354	-3.4188	-3.225	-2.6375	-3.7375	-2.8417	-2.8333	-3.4792	-2.6729	-3.3917	-3.4042	-2.7417	-3.4021	-2.9729	222.436	276.622	108.171	197.868	215.991	436.736	156.498	405.511	307.658	136.181	152.188	402.146	351.133	242.738	117.867	412.529	0.0013562	0.00054875	0.00015768	1155.3	4.9958e-06	3.078e-06	908.76	420.42	7.8574e-06	7.2365e-06	371.53	140.01	163.76	68.759	8.6243e-06	66.63	0.0013404	0.0017547	0.00049241	1146.3	1.589e-05	2.0621e-05	899.04	419.22	1.6456e-05	2.0545e-05	369.49	139.74	163.76	69.386	1.7631e-05	67.21	104.740	171.452	159.931	96.593	219.135	216.871	95.122	102.585	233.026	248.622	100.097	105.058	107.176	112.504	219.441	109.220	-8191	255	
51297.754	1	1	0	0	0.095036	0.059217	0.24907	0.037919	0.091824	0.20939	0.19701	0.13218	0.081024	0.16674	0.23607	0.077761	0.17757	0.13885	0.073143	0.053582	-2.3854	-3.4	-2.6937	-3.4292	-3.2792	-2.6375	-3.6708	-3.2125	-2.6437	-3.4813	-2.7479	-3.175	-3.4625	-2.6646	-3.4125	-3.1729	371.703	383.861	235.427	163.182	265.763	86.517	97.610	421.481	214.834	213.769	137.930	178.793	384.239	114.705	270.231	144.986	0.0012773	0.00049849	0.00015224	1165.8	6.0251e-06	6.523e-06	925.37	424.6	7.934e-06	6.0499e-06	375.62	142.9	166.64	69.406	9.3483e-06	67.668	0.0013384	0.0017007	0.00048137	1154.4	1.5445e-05	2.0105e-05	911.15	422.87	1.7067e-05	1.9675e-05	374.27	142.48	166.17	70.328	1.8216e-05	68.087	103.410	162.812	170.178	96.793	220.456	228.169	95.489	102.296	203.419	224.151	100.473	104.971	106.887	112.490	222.148	108.665	-8191	255	
51297.875	1	1	0	0	0.15566	0.1876	0.09316	0.21135	0.17107	0.12515	0.29507	0.050897	0.1431	0.057639	0.07298	0.24739	0.45523	0.17334	0.22975	0.26611	-2.3271	-3.4396	-2.7604	-3.1417	-3.4979	-2.6208	-3.2146	-3.3583	-2.7875	-3.5062	-2.9833	-3.1667	-3.6083	-2.6229	-3.3917	-3.3667	364.963	279.522	137.039	435.277	364.685	262.372	373.631	343.010	131.129	94.359	204.483	392.252	381.799	160.286	145.319	353.383	0.0014077	0.00072009	0.00018051	1167.9	4.3968e-06	7.4154e-06	925.98	426.52	9.5681e-06	6.0624e-06	374.01	143.24	166.28	69.637	8.3219e-06	67.241	0.0013725	0.0017513	0.00048191	1158.7	1.5322e-05	2.0175e-05	914.69	424.25	1.693e-05	1.9337e-05	373.36	142.03	166.27	70.332	1.7234e-05	67.849	104.410	189.132	186.154	96.674	203.897	231.641	95.270	102.408	200.984	223.977	100.044	105.144	107.294	112.528	230.324	108.897	-8191	255	
51297.945	1	1	0	0	0.21265	0.055977	0.075745	0.13449	0.16447	0.10319	0.06604	0.31997	0.07861	0.061048	0.18958	0.10772	0.23046	0.23682	0.12167	0.1909	-2.2687	-3.5542	-2.7833	-3.0208	-3.4021	-2.6625	-3.4708	-3.3104	-2.5083	-3.5375	-2.9125	-3.0312	-3.4667	-2.8312	-2.9479	-3.4062	308.851	113.264	233.444	114.894	110.310	347.278	255.263	363.804	126.542	227.412	283.315	394.925	412.925	427.157	349.575	373.211	0.001381	0.00061824	0.00014529	1168.9	6.0687e-06	4.4885e-06	923.7	424.46	7.0373e-06	6.9413e-06	375.4	143.02	166.29	69.625	8.4746e-06	67.864	0.0013706	0.0016963	0.00048057	1157.7	1.5578e-05	1.9909e-05	912.44	423.21	1.658e-05	1.9436e-05	374.26	141.94	165.91	70.293	1.7274e-05	68.185	106.645	155.679	169.638	96.673	226.518	225.640	95.411	102.204	223.850	217.496	99.971	104.934	107.418	112.501	220.255	108.949	-8191	255	
51298.043	1	1	0	0	0.03547	0.030065	0.41864	0.25484	0.057097	0.13074	0.13792	0.24216	0.20087	0.075659	0.24915	0.28555	0.19619	0.30842	0.05513	0.10388	-2.4125	-3.1833	-3.1208	-2.8979	-3.6063	-2.9375	-3.05	-3.6458	-2.5708	-3.5896	-3.0812	-2.8375	-3.6063	-2.9958	-2.9292	-3.4417	171.717	118.327	377.896	327.165	334.033	351.776	431.239	90.983	98.915	94.864	384.579	88.721	397.027	415.385	161.259	212.171	0.0013796	0.00067151	0.00015303	1170.5	6.8298e-06	6.8882e-06	926.98	425.03	7.3366e-06	5.9599e-06	376.93	142.93	166.36	69.47	7.993e-06	68.106	0.0013381	0.0016964	0.00046294	1159.9	1.5382e-05	1.9775e-05	915.96	424.12	1.6157e-05	1.8839e-05	374.91	142.14	165.84	70.167	1.7813e-05	68.235	105.011	196.222	170.323	96.806	224.013	231.177	95.316	102.321	218.623	226.537	100.196	104.817	107.187	112.413	224.195	108.940	-8191	255	
51298.137	1	1	0	0	0.10525	0.18541	0.26272	0.44161	0.14399	0.23252	0.27554	0.17209	0.17723	0.062555	0.05391	0.11177	0.064733	0.32509	0.21486	0.25189	-2.1542	-3.475	-3.1917	-3.0208	-3.4479	-2.8667	-2.9354	-3.5229	-2.8521	-3.2854	-3.2938	-2.7188	-3.7313	-3.1104	-2.9562	-3.6083	208.164	219.837	409.294	92.357	217.363	440.685	97.209	299.186	157.509	172.033	147.103	250.278	141.620	401.469	246.985	433.353	0.0013494	0.00065983	0.00015465	1176.5	5.8906e-06	5.2503e-06	930.54	428.5	8.1243e-06	7.7044e-06	381.04	142.1	165.42	69.426	7.5925e-06	67.849	0.0013094	0.0016245	0.00046705	1165.4	1.5257e-05	1.8716e-05	920.16	426.26	1.5622e-05	1.8715e-05	378.2	141.79	165.48	70.164	1.6834e-05	68.285	105.190	168.270	183.807	96.833	233.368	214.005	95.422	102.544	228.781	222.399	100.050	104.904	107.173	112.274	224.710	109.019	-8191	255	
51298.258	1	1	0	0	0.099754	0.1273	0.092228	0.097175	0.15275	0.20628	0.13733	0.052813	0.17529	0.10534	0.17663	0.08907	0.32161	0.091181	0.20471	0.16344	-2.2333	-3.2292	-3.3312	-2.8208	-3.4958	-2.9062	-3.0146	-3.6354	-2.6833	-3.3542	-3.3042	-2.5938	-3.5417	-3.1521	-2.6021	-3.6312	198.278	223.704	168.509	92.104	165.080	152.150	391.551	426.855	134.445	308.385	303.995	278.694	384.543	430.512	383.621	406.954	0.0013971	0.00053062	0.00021157	1173.9	8.422e-06	6.7258e-06	929.79	428.29	7.5193e-06	7.0723e-06	377.26	143.44	167.24	70.348	8.4278e-06	68.788	0.001319	0.001632	0.00047177	1162.5	1.5398e-05	1.9263e-05	918.85	425.8	1.5994e-05	1.9603e-05	376.87	143.03	167.26	71.084	1.8137e-05	69.233	104.367	172.784	169.877	96.602	225.063	234.124	95.275	102.465	222.839	244.784	100.443	104.852	107.464	112.486	216.728	108.788	-8191	255	
51298.352	1	1	0	0	0.098444	0.17285	0.21229	0.074093	0.12	0.13802	0.19865	0.34131	0.29728	0.21979	0.11138	0.14773	0.17065	0.38015	0.085144	0.092998	-2.3187	-3.0583	-3.2812	-2.7875	-3.1333	-3.0187	-2.7979	-3.6958	-2.6771	-2.9646	-3.5042	-2.7104	-3.3792	-3.2979	-2.7833	-3.4167	87.331	365.105	374.414	125.007	201.579	201.946	332.477	405.095	296.061	327.532	381.159	409.163	375.489	362.146	151.198	337.671	0.0014255	0.00056185	0.00017607	1174.7	8.4555e-06	5.1423e-06	933.03	435.52	9.4175e-06	5.4818e-06	385.14	148.87	171.93	72.277	9.5804e-06	70.133	0.0014012	0.0018268	0.00050433	1167	1.6811e-05	2.15e-05	921.53	431.99	1.8388e-05	2.2113e-05	382.7	148.1	172.36	73.045	2.003e-05	70.388	103.803	168.457	187.252	96.719	225.808	219.326	95.405	102.597	231.198	234.534	100.297	105.153	107.154	112.338	222.565	109.096	-8191	255	
51298.449	1	1	0	0	0.13161	0.12843	0.30361	0.17137	0.062964	0.10739	0.418	0.11484	0.035435	0.15629	0.10225	0.18223	0.23665	0.35715	0.20261	0.30944	-2.4375	-2.8208	-3.4271	-2.6562	-3.3396	-3.3354	-2.6083	-3.6604	-3.0604	-2.8521	-3.6375	-2.7604	-3.2875	-3.2104	-2.6562	-3.5542	238.922	314.684	104.939	435.002	294.502	404.962	375.199	289.411	209.537	227.585	110.661	338.914	335.906	368.826	257.215	428.375	0.0014237	0.00055179	0.00018627	1179.8	6.5079e-06	6.3811e-06	933.61	433.18	7.1023e-06	6.728e-06	386.24	149.79	172.9	72.405	1.0676e-05	70.603	0.0014254	0.0019368	0.00052421	1170.2	1.6806e-05	2.2071e-05	924.26	432.24	1.8115e-05	2.2859e-05	383.83	149.22	173.07	73.327	1.9824e-05	70.889	103.961	172.955	172.518	96.543	198.309	249.542	95.476	102.509	236.166	221.925	100.263	104.796	107.185	112.462	232.888	108.732	-8191	255	
51298.523	1	1	0	0	0.039268	0.17413	0.22494	0.3384	0.12548	0.1042	0.19736	0.13537	0.078809	0.17698	0.10548	0.054402	0.1165	0.37569	0.1224	0.18762	-2.7	-2.7792	-3.5333	-2.8312	-3.3063	-3.3979	-2.9729	-3.7958	-2.9792	-2.8063	-3.7021	-2.7333	-3.1917	-3.6667	-2.6937	-3.45	442.535	360.925	294.359	420.545	395.312	242.705	199.078	111.140	150.054	89.711	104.001	301.176	110.988	365.661	146.847	155.799	0.0014415	0.0004703	0.00017582	1182.2	6.9523e-06	4.2658e-06	943.7	434.37	6.8457e-06	5.5529e-06	381.94	146.62	170.64	71.603	9.6469e-06	68.637	0.0014424	0.001923	0.00050895	1171.4	1.7059e-05	2.1613e-05	927.29	431.02	1.7424e-05	2.2433e-05	380.37	146.02	170.18	72.159	2.0293e-05	68.989	105.145	156.859	174.233	96.701	215.991	234.868	95.514	102.525	227.069	232.705	100.269	105.138	107.197	112.477	232.110	108.910	-8191	255	
51298.641	1	1	0	0	0.11703	0.3166	0.16087	0.29053	0.097672	0.15764	0.20379	0.37112	0.35383	0.04783	0.050331	0.29449	0.3393	0.32727	0.19531	0.14511	-2.7979	-2.6417	-3.5667	-2.8958	-2.9917	-3.3167	-2.7354	-3.4562	-3.1521	-2.7333	-3.6104	-2.8438	-3.0125	-3.7062	-2.5812	-3.5417	329.511	189.502	354.703	424.874	424.343	186.483	262.272	429.327	151.838	299.026	85.961	383.839	127.060	399.542	88.192	426.618	0.0013915	0.00056305	0.00019289	1167.3	5.9898e-06	6.0887e-06	915.4	425.01	7.2668e-06	6.7538e-06	370.5	140.85	163.66	68.655	9.3005e-06	66.279	0.0013777	0.0018762	0.00050651	1159.5	1.6428e-05	2.1252e-05	905.45	422.68	1.7217e-05	2.1181e-05	370.84	139.61	163.6	69.26	1.8677e-05	66.727	105.142	164.626	181.432	96.579	226.624	229.735	95.121	102.472	218.858	232.551	100.624	105.183	107.217	112.527	232.904	109.028	-8191	255	
51298.738	1	1	0	0	0.064209	0.18638	0.11626	0.40216	0.19637	0.16011	0.17927	0.20579	0.11719	0.17315	0.20162	0.37282	0.2192	0.18079	0.026702	0.084343	-2.7104	-2.6104	-3.5167	-3.1167	-2.7396	-3.3812	-2.7479	-3.3688	-3.2625	-2.6875	-3.65	-3.0604	-2.95	-3.6437	-2.7125	-3.3646	101.636	219.106	231.195	421.839	285.699	416.422	372.320	89.944	384.632	325.287	391.770	436.103	120.198	107.617	407.798	321.134	0.0013144	0.00055512	0.00014097	1162	5.9559e-06	4.8667e-06	909.69	419.94	6.6804e-06	6.5228e-06	370.15	136.43	159.34	66.542	8.8197e-06	65.359	0.0013285	0.0017478	0.00047871	1150	1.5367e-05	1.9357e-05	900.99	418.1	1.5367e-05	1.9253e-05	368.49	135.56	159.17	67.323	1.6293e-05	65.683	104.971	175.168	177.379	96.529	225.563	220.922	95.209	102.562	226.385	228.720	100.501	105.176	107.447	112.775	230.468	109.118	-8191	255	
51298.836	1	1	0	0	0.16059	0.055195	0.068273	0.25244	0.2486	0.21715	0.096673	0.15701	0.085452	0.2105	0.14813	0.15497	0.26446	0.20684	0.18815	0.32115	-3.0729	-2.675	-3.25	-3.1771	-2.9083	-3.6521	-2.8958	-3.1708	-3.3167	-2.4604	-3.5146	-3.2604	-2.6375	-3.6542	-2.6688	-2.9479	214.657	245.144	371.942	420.535	234.748	236.681	304.150	315.255	201.729	336.947	211.628	352.838	418.276	435.894	338.652	372.062	0.0012977	0.00052093	0.00017947	1172.3	8.7703e-06	6.5186e-06	927.03	424.09	7.3867e-06	6.8516e-06	375.07	136.83	159.88	66.726	8.163e-06	65.886	0.0012499	0.0015228	0.0004282	1162.5	1.4173e-05	1.7146e-05	913.64	422.38	1.3827e-05	1.734e-05	373.02	136.54	159.71	67.491	1.4821e-05	66.208	101.029	151.784	178.481	96.667	208.185	243.665	95.342	102.601	227.620	251.465	100.414	105.310	107.449	112.661	221.425	109.024	-8191	255	
51298.953	1	1	0	0	0.47477	0.20872	0.22318	0.18034	0.20881	0.21803	0.27845	0.25413	0.26109	0.091387	0.17634	0.44488	0.11036	0.12572	0.17604	0.077156	-2.9833	-2.5292	-3.0854	-3.2771	-2.6479	-3.6146	-2.9479	-3.0625	-3.3625	-2.6271	-3.2	-3.0938	-2.7521	-3.5208	-2.9	-2.9583	254.964	316.461	130.659	126.915	386.027	317.671	442.222	412.762	430.435	203.423	398.786	365.126	138.546	93.119	137.065	233.351	0.0013848	0.00066309	0.00015253	1185.4	7.0083e-06	4.4401e-06	942.47	427.02	8.2163e-06	5.6487e-06	379.83	139.58	162.93	68.282	7.7753e-06	66.687	0.0011989	0.0014279	0.00038383	1176.2	1.3094e-05	1.5709e-05	928.55	426.66	1.2758e-05	1.574e-05	377.2	138.63	162.45	68.875	1.433e-05	67.214	104.880	163.895	182.396	96.609	211.853	240.735	95.252	102.609	227.319	226.634	100.505	105.126	107.480	112.557	226.546	109.083	-8191	255	
51299.051	1	1	0	0	0.15107	0.15945	0.083721	0.39067	0.13354	0.049504	0.15138	0.22284	0.2134	0.081155	0.15001	0.1655	0.35705	0.14572	0.14132	0.22151	-2.9938	-2.7167	-3.1896	-3.4583	-2.6042	-3.3812	-3.0771	-2.8771	-3.4333	-2.6437	-3.2083	-3.3937	-2.7333	-3.5729	-2.8708	-2.9104	283.238	92.762	249.964	433.710	338.144	284.400	390.549	84.711	138.669	149.537	222.671	389.873	439.892	254.962	211.161	434.184	0.0014083	0.00057835	0.00019641	1203.8	8.2366e-06	4.3644e-06	946.64	434.68	9.1614e-06	7.0206e-06	381.19	143.17	165.74	69.775	9.8068e-06	67.77	0.0011661	0.0013319	0.00037656	1190	1.2552e-05	1.4472e-05	936.35	430.91	1.2744e-05	1.5726e-05	380.03	142.21	166.33	70.472	1.4289e-05	68.129	103.913	168.315	182.513	96.667	216.962	207.195	95.104	102.656	238.425	233.446	100.042	105.185	107.033	112.487	217.980	108.930	-8191	255	
51299.121	1	1	0	0	0.18939	0.13193	0.19534	0.19567	0.1592	0.045614	0.12474	0.17045	0.36096	0.032751	0.19064	0.12071	0.13493	0.23865	0.088678	0.12583	-3.0708	-2.6479	-3.0792	-3.45	-2.575	-3.2646	-2.9771	-2.8521	-3.5854	-2.8958	-3.1104	-3.5458	-2.7604	-3.6458	-3.1958	-2.9583	275.530	140.410	384.934	192.385	357.033	316.556	98.294	405.230	265.954	379.104	329.658	429.326	419.806	416.395	105.910	407.048	0.0014161	0.0005827	0.00016999	1210.9	6.8198e-06	4.9015e-06	959.1	436.38	9.606e-06	6.9369e-06	387.99	146.66	170.1	71.134	8.2823e-06	68.806	0.0011922	0.0014166	0.00036639	1195.4	1.2942e-05	1.4464e-05	944.58	434.61	1.2584e-05	1.518e-05	385.57	145.63	169.85	71.826	1.497e-05	69.278	105.651	152.660	185.950	96.528	219.251	239.091	95.335	102.389	226.494	215.524	100.094	104.622	107.117	112.440	223.928	108.984	-8191	255	
51299.242	1	1	0	0	0.33376	0.1153	0.18037	0.090861	0.15149	0.20975	0.066344	0.14507	0.10755	0.19718	0.29106	0.085322	0.15108	0.035895	0.089082	0.28111	-3.1958	-2.8417	-2.9208	-3.7062	-2.5771	-3.1375	-3.2479	-2.975	-3.4062	-3	-3.0333	-3.4813	-2.75	-3.3958	-3.2417	-2.7938	241.664	191.013	148.827	367.645	437.436	299.602	244.773	436.250	253.316	215.339	430.488	99.014	191.448	258.716	375.156	115.870	0.0014644	0.0007775	0.00014867	1212.2	7.7991e-06	4.5212e-06	961.16	436.63	6.7721e-06	7.9681e-06	386.9	145.68	169.03	70.995	9.0455e-06	68.832	0.0012284	0.0013757	0.00039306	1201.3	1.3016e-05	1.4884e-05	946.44	435.08	1.2867e-05	1.4619e-05	385.38	144.78	168.72	71.47	1.2919e-05	69.076	103.419	160.990	186.411	96.607	217.896	220.738	95.000	102.305	225.688	233.114	100.060	104.882	106.964	112.628	231.304	108.840	-8191	255	
51299.336	1	1	0	0	0.12068	0.095561	0.014317	0.076967	0.10391	0.20295	0.2266	0.22136	0.077897	0.17715	0.16891	0.20026	0.22311	0.16569	0.18514	0.19621	-3.1208	-2.8792	-2.7396	-3.65	-2.6667	-3.0396	-3.5	-2.6854	-3.3187	-3.1333	-2.9813	-3.6042	-2.8542	-3.1729	-3.35	-2.9313	309.886	292.618	180.553	234.315	292.283	179.972	362.080	411.943	96.716	225.052	387.548	404.637	125.572	416.436	133.134	381.999	0.0013606	0.00054504	0.0001365	1212.4	8.4469e-06	4.3446e-06	955.02	436.02	8.8709e-06	5.8354e-06	384.51	142.66	165.77	69.835	9.1613e-06	67.799	0.0011248	0.0012669	0.0003754	1201.5	1.1827e-05	1.4097e-05	946.24	433.51	1.2232e-05	1.3953e-05	382.51	142.15	166.03	70.394	1.2913e-05	68.153	105.199	173.189	175.471	96.519	207.014	250.716	95.215	102.510	218.924	247.803	100.388	104.897	107.076	112.473	233.145	108.913	-8191	255	
51299.434	1	1	0	0	0.18837	0.29196	0.18576	0.041809	0.087223	0.25761	0.35079	0.30513	0.26303	0.10204	0.069599	0.40755	0.33902	0.25854	0.15723	0.31274	-3.0208	-3.0146	-2.7604	-3.6792	-2.6063	-3.0396	-3.4313	-2.7812	-3.2604	-3.2	-2.7833	-3.6083	-2.9437	-2.9125	-3.4562	-2.5896	296.056	226.109	253.954	344.326	124.488	281.889	314.953	426.432	347.909	164.131	410.632	361.801	132.267	108.601	152.154	378.819	0.001468	0.0007052	0.00013184	1200.6	7.308e-06	5.1901e-06	950.43	433.04	6.6288e-06	8.6955e-06	382.32	141.85	164.32	68.585	6.7702e-06	66.86	0.0011757	0.0012653	0.00035508	1193	1.1859e-05	1.4456e-05	936.23	431.3	1.3032e-05	1.5171e-05	380.25	140.4	164.32	69.404	1.3914e-05	67.413	103.908	180.288	181.081	96.581	200.558	256.904	94.978	102.357	223.451	225.162	100.065	105.304	107.345	112.896	219.991	108.670	-8191	255	
51299.527	1	1	0	0	0.084236	0.16663	0.33369	0.15484	0.22915	0.10603	0.40429	0.29405	0.073362	0.19021	0.11798	0.15719	0.17554	0.2553	0.084687	0.29777	-2.9708	-3.25	-2.7062	-3.6396	-2.8979	-2.9	-3.6188	-2.8979	-3.2396	-3.2021	-2.8458	-3.5417	-3.0583	-3.1146	-3.4958	-2.925	88.615	418.086	124.342	410.445	216.062	359.362	382.323	401.782	145.021	326.266	346.423	348.419	411.960	400.064	96.738	348.907	0.0013861	0.00080026	0.00015471	1197.6	6.1669e-06	4.8037e-06	953.28	434.03	7.2414e-06	5.7774e-06	382.27	140.45	163.36	68.148	7.5288e-06	66.853	0.0011818	0.001304	0.00038761	1189.3	1.2339e-05	1.5223e-05	937	431	1.2694e-05	1.4923e-05	380.47	139.29	163.22	68.94	1.3436e-05	67.277	103.490	165.310	176.816	96.461	205.607	230.782	95.185	102.284	224.876	246.924	100.251	105.150	106.877	112.509	217.703	109.156	-8191	255	
51299.648	1	1	0	0	0.069312	0.12012	0.2715	0.25043	0.050134	0.11516	0.035864	0.14618	0.23836	0.044515	0.18065	0.12416	0.103	0.090569	0.21697	0.165	-2.8875	-3.5312	-2.5458	-3.4062	-3.1437	-2.8208	-3.6521	-2.9292	-3.1375	-3.475	-2.6875	-3.5646	-3.275	-2.6833	-3.6354	-2.9146	142.147	163.472	226.629	360.117	149.386	122.958	320.881	349.959	372.730	138.690	401.893	125.909	210.702	249.392	357.698	121.412	0.0013619	0.00060535	0.00015965	1206.6	5.2246e-06	6.2599e-06	954.41	436.18	6.8356e-06	5.6299e-06	385.86	142.18	164.91	68.969	7.606e-06	67.531	0.0011648	0.0013388	0.00037264	1197.1	1.2162e-05	1.4864e-05	944.1	434.13	1.2527e-05	1.4576e-05	383.85	141.21	164.77	69.572	1.339e-05	67.964	106.502	181.583	166.313	96.467	219.547	231.239	95.092	102.388	218.307	235.533	100.245	104.825	107.237	112.725	235.359	108.877	-8191	255	
51299.746	1	1	0	0	0.2114	0.14878	0.10014	0.32692	0.22118	0.19733	0.10069	0.24581	0.066624	0.049029	0.34504	0.1387	0.35455	0.30003	0.25119	0.065313	-2.5292	-3.3625	-2.5146	-3.4708	-3.3021	-2.5312	-3.5854	-3.0333	-2.9938	-3.4813	-2.5667	-3.4917	-3.4146	-2.7583	-3.3896	-2.9792	380.464	442.238	336.165	410.367	435.061	338.814	433.568	436.629	91.241	291.655	408.760	356.244	385.717	355.746	299.570	306.891	0.0014163	0.0004796	0.00015898	1212.5	6.6532e-06	5.1822e-06	952.97	435.75	8.3867e-06	7.1956e-06	384.45	141.74	165.25	69.191	6.9258e-06	67.578	0.0011991	0.0012793	0.00038659	1198.5	1.2346e-05	1.5594e-05	942.19	433.8	1.3149e-05	1.4489e-05	382.02	141.3	165.32	69.842	1.347e-05	68.113	104.888	187.650	183.841	96.560	212.539	245.238	95.601	102.386	221.930	244.163	100.043	105.076	107.210	112.434	243.017	108.985	-8191	255	
51299.816	1	1	0	0	0.074839	0.080213	0.17768	0.31871	0.35729	0.060004	0.095848	0.18988	0.04424	0.3223	0.19399	0.052139	0.27211	0.27841	0.048738	0.27716	-2.3708	-3.4479	-2.6813	-3.2292	-3.275	-2.7021	-3.6083	-3.0917	-2.7042	-3.5792	-2.9021	-3.2542	-3.4	-2.65	-3.325	-3.1167	412.791	421.705	214.542	126.046	437.290	293.113	421.160	401.714	184.922	95.198	93.525	314.932	356.796	383.669	287.500	417.273	0.0014066	0.00056588	0.00018398	1203.6	7.4534e-06	7.125e-06	950.17	435.43	6.4468e-06	6.8777e-06	384.98	144.47	166.54	69.96	9.2492e-06	68.579	0.0012108	0.0013075	0.00038514	1194.6	1.2166e-05	1.6013e-05	941.94	433.98	1.3248e-05	1.5393e-05	383.08	143.11	166.43	70.714	1.3698e-05	69.102	105.069	176.911	176.793	96.700	227.706	230.485	95.317	102.329	228.292	231.868	100.093	104.974	107.185	112.606	218.846	109.066	-8191	255	
51299.914	1	1	0	0	0.14108	0.2128	0.062718	0.33448	0.11183	0.24462	0.31021	0.28678	0.13583	0.16739	0.21928	0.065789	0.12	0.23811	0.010047	0.21599	-2.2396	-3.5354	-2.8063	-2.9958	-3.3875	-2.45	-3.4479	-3.3438	-2.7	-3.4854	-2.9729	-3.1042	-3.5479	-2.6917	-3.1896	-3.2292	327.503	281.964	353.410	386.569	279.071	176.948	312.811	411.966	206.190	365.080	402.158	335.471	424.249	134.980	337.935	400.348	0.0014637	0.00059452	0.00022585	1211.4	6.98e-06	5.8296e-06	957.58	437.45	9.6863e-06	6.7812e-06	388.56	146.71	170.42	71.309	6.9557e-06	69.82	0.0012502	0.0013873	0.00038892	1199.2	1.2829e-05	1.6331e-05	945.81	435.76	1.4032e-05	1.5511e-05	386.73	145.79	169.78	71.968	1.4576e-05	69.888	103.326	164.074	167.378	96.543	217.271	237.884	95.145	102.200	211.159	224.365	100.032	104.945	106.981	112.415	232.590	108.831	-8191	255	
51300.035	1	1	0	0	0.18201	0.045958	0.21761	0.17184	0.37896	0.18482	0.039159	0.2332	0.070081	0.22526	0.27976	0.33117	0.12196	0.26534	0.17314	0.24139	-2.1771	-3.4542	-2.7375	-3.0354	-3.5271	-2.5104	-3.2125	-3.4021	-2.6833	-3.6063	-3.0021	-2.9062	-3.6354	-2.7229	-3.2021	-3.5896	326.725	285.302	330.861	337.950	267.812	205.121	421.797	388.064	354.296	95.851	207.409	438.963	88.916	403.810	247.846	404.254	0.0014232	0.00060035	0.00022449	1222.2	6.7748e-06	3.925e-06	972.25	444.4	8.5482e-06	8.3525e-06	394.2	151.13	174.74	73.026	9.412e-06	71.646	0.0012163	0.0013319	0.00038492	1209.5	1.279e-05	1.6239e-05	959.62	441.81	1.4072e-05	1.6471e-05	393.45	150.32	174.51	73.808	1.5064e-05	71.75	103.452	154.110	174.478	96.761	229.819	229.016	95.110	102.396	208.182	227.541	100.384	104.502	106.892	112.151	214.413	108.597	-8191	255	
51300.133	1	1	0	0	0.097573	0.08172	0.246	0.14588	0.1682	0.32572	0.093573	0.11743	0.25495	0.080435	0.35889	0.29468	0.070827	0.22608	0.1352	0.10576	-2.2708	-3.3646	-2.9521	-2.8083	-3.3104	-2.6625	-3.2667	-3.4208	-2.6708	-3.4938	-3.0333	-2.6604	-3.5229	-2.9208	-3.0375	-3.5958	309.418	138.974	248.753	392.670	304.420	295.926	303.512	417.803	399.245	373.307	377.953	85.580	139.630	425.187	397.152	368.129	0.0014836	0.00056067	0.00018768	1224.8	7.3997e-06	3.7003e-06	977.03	444.86	8.0254e-06	5.5533e-06	396.62	152.36	176.6	73.659	1.0398e-05	71.199	0.0012838	0.0013405	0.00038983	1215.5	1.2948e-05	1.5616e-05	963.57	442.82	1.371e-05	1.5136e-05	394.53	151.48	176.17	74.358	1.4466e-05	71.827	103.053	176.044	175.359	96.508	216.582	234.005	95.303	102.009	231.688	243.215	100.113	105.069	107.069	112.101	221.208	108.904	-8191	255	
51300.227	1	1	0	0	0.090666	0.14737	0.11541	0.13018	0.030804	0.31499	0.21114	0.18657	0.13789	0.076998	0.2548	0.084316	0.17783	0.10699	0.11276	0.073915	-2.2792	-3.5125	-2.9479	-2.8104	-3.5375	-2.7292	-3.1521	-3.5812	-2.7542	-3.4208	-3.2542	-2.9354	-3.5708	-3.1229	-2.7958	-3.6583	168.741	168.603	153.271	387.729	393.917	113.656	376.137	356.031	430.243	139.253	299.096	341.400	364.205	296.611	181.269	361.368	0.0014943	0.00057302	0.000143	1223.4	6.295e-06	6.4685e-06	975.72	444.09	7.9029e-06	5.9385e-06	396.36	151.29	174.31	73.227	7.5149e-06	71.449	0.0012774	0.0013582	0.00037064	1214.1	1.2436e-05	1.4986e-05	963.79	441.6	1.3351e-05	1.3936e-05	393.67	149.91	173.78	73.96	1.4015e-05	71.802	104.745	191.133	180.351	96.526	209.308	248.883	95.119	102.064	224.256	239.129	99.942	105.093	107.107	112.107	217.765	108.542	-8191	255	
51300.324	1	1	0	0	0.29021	0.21216	0.21372	0.14907	0.038327	0.16873	0.19939	0.089974	0.31628	0.075046	0.14961	0.14352	0.125	0.15106	0.12646	0.15106	-2.3146	-3.3833	-3.2979	-2.7896	-3.35	-2.95	-3.0333	-3.6625	-2.7438	-3.3125	-3.4396	-2.6583	-3.6292	-3.2062	-2.9562	-3.7	149.120	350.300	378.369	109.648	443.350	100.655	103.751	371.784	182.930	284.250	175.161	414.733	413.037	422.128	130.092	419.215	0.0013801	0.00083896	0.00017086	1229	7.4858e-06	5.5719e-06	975.38	443.23	7.4569e-06	6.3932e-06	397.23	149.97	172.72	72.854	8.4831e-06	70.752	0.0011747	0.0012921	0.00036828	1216.3	1.1882e-05	1.4504e-05	963.52	441.83	1.2611e-05	1.398e-05	393.34	148.89	172.27	73.358	1.4178e-05	71.066	103.934	166.783	178.320	96.605	229.106	240.934	95.448	102.288	224.914	251.873	100.357	104.968	106.858	112.205	227.668	108.790	-8191	255	
51300.418	1	1	0	0	0.0906	0.1437	0.26176	0.45233	0.20115	0.16268	0.25891	0.18178	0.082494	0.12415	0.18086	0.074937	0.13612	0.15892	0.061637	0.12978	-2.3646	-3.1667	-3.4437	-2.5917	-3.5458	-3.0771	-2.8563	-3.6229	-2.8312	-3.1771	-3.5833	-2.8063	-3.4854	-3.3958	-2.7583	-3.6063	320.814	244.303	241.543	414.882	234.968	420.663	334.144	88.038	339.352	188.417	341.794	407.178	439.287	433.806	355.648	338.655	0.001426	0.00065069	0.00013678	1226.8	7.2498e-06	5.5871e-06	975.27	441.17	8.6492e-06	7.2322e-06	391.59	147.02	169.61	71.814	7.4933e-06	69.963	0.001191	0.0013073	0.00033041	1216	1.1092e-05	1.4658e-05	962.42	439.77	1.213e-05	1.4893e-05	389.84	145.95	169.94	72.357	1.3556e-05	70.445	105.168	171.930	159.443	96.468	217.350	237.932	95.362	102.272	223.877	235.009	100.205	105.049	107.076	112.244	220.151	108.749	-8191	255	
51300.516	1	1	0	0	0.054291	0.11037	0.32838	0.30427	0.18396	0.14657	0.19989	0.14274	0.14783	0.23271	0.14638	0.28933	0.2039	0.31045	0.21793	0.060834	-2.5979	-2.9229	-3.5667	-2.8146	-3.3833	-3.2438	-2.7646	-3.625	-2.8812	-2.95	-3.5729	-2.9062	-3.3479	-3.525	-2.7333	-3.5792	269.453	288.900	378.375	397.892	217.696	142.678	381.577	429.976	165.334	196.104	429.408	407.001	406.913	436.755	197.747	320.874	0.0014056	0.00053037	0.00020284	1218.2	7.7533e-06	5.8549e-06	970.3	439.63	9.2741e-06	7.6096e-06	389.99	146.45	170.53	71.708	7.1571e-06	69.785	0.0011788	0.0012593	0.00034589	1209.8	1.1872e-05	1.3822e-05	958	438.57	1.2338e-05	1.4763e-05	388.95	145.53	170.34	72.361	1.3474e-05	70.152	105.301	156.835	181.356	96.314	218.003	245.075	95.512	102.195	217.346	230.969	100.189	104.783	107.140	112.211	228.680	108.986	-8191	255	
51300.633	1	1	0	0	0.11753	0.26613	0.23137	0.13857	0.081303	0.10406	0.15052	0.1065	0.035247	0.45694	0.070712	0.13513	0.28894	0.29419	0.11867	0.21952	-2.5146	-2.9	-3.5333	-2.8104	-3.1667	-3.3021	-2.9854	-3.4437	-3.1083	-2.8937	-3.5958	-2.7792	-3.3438	-3.4646	-2.7271	-3.5021	224.690	272.295	316.404	366.343	342.956	333.955	402.567	126.226	442.790	94.887	393.492	431.660	95.997	425.137	327.555	99.167	0.0014891	0.0005319	0.00022844	1223.2	7.0578e-06	4.6024e-06	970.56	439.81	7.3059e-06	6.7835e-06	390.66	144.91	168.56	71.263	7.6973e-06	69.735	0.001199	0.0012546	0.0003367	1211.9	1.1469e-05	1.4117e-05	958.26	438.4	1.2411e-05	1.4263e-05	388.16	144.42	168.61	71.839	1.3372e-05	69.928	104.879	173.035	175.774	96.443	218.266	227.617	95.301	102.154	223.207	222.556	100.006	104.830	107.154	112.281	235.324	108.981	-8191	255	
51300.730	1	1	0	0	0.13796	0.21316	0.22408	0.26216	0.050716	0.18174	0.10762	0.17799	0.2393	0.032929	0.18381	0.14207	0.36221	0.10169	0.071165	0.25284	-2.75	-2.6125	-3.55	-2.925	-2.9938	-3.4792	-2.6542	-3.4792	-3.1354	-2.6937	-3.6667	-2.8646	-3.0375	-3.6708	-2.8729	-3.425	139.997	321.022	249.156	426.896	353.372	140.999	336.396	371.790	149.160	167.759	381.233	427.590	394.961	418.494	116.096	372.548	0.0014642	0.00067856	0.00021793	1220.9	6.9391e-06	5.6915e-06	968.71	441.73	8.2175e-06	6.272e-06	392.42	145.83	169.72	71.605	1.0976e-05	70.27	0.0011748	0.0012794	0.00033622	1211.4	1.163e-05	1.4175e-05	957.33	438.84	1.2057e-05	1.383e-05	390.04	145.12	169.16	72.239	1.3511e-05	70.625	103.766	176.741	161.171	96.432	226.667	232.813	95.211	102.281	229.018	255.488	100.112	105.219	107.173	112.096	230.534	108.836	-8191	255	
51300.828	1	1	0	0	0.22111	0.26804	0.1951	0.051805	0.061023	0.066378	0.17327	0.023834	0.08537	0.23213	0.073715	0.071873	0.24674	0.12068	0.30619	0.39363	-3.0375	-2.6583	-3.5062	-2.9896	-2.9125	-3.4188	-2.8042	-3.2708	-3.25	-2.6542	-3.45	-2.9562	-2.9979	-3.6833	-2.7167	-3.4896	265.006	92.342	162.282	367.963	368.134	306.214	356.564	274.510	379.401	361.958	415.047	368.532	92.566	97.593	411.121	373.289	0.0014182	0.00059245	0.00013823	1229.1	8.3855e-06	7.2861e-06	974.97	442.06	8.073e-06	7.0852e-06	392.06	146.01	169.4	71.828	7.0659e-06	70.404	0.001153	0.0012655	0.00033023	1217	1.2124e-05	1.3358e-05	961.41	439.68	1.1877e-05	1.4255e-05	388.83	145.42	169.68	72.513	1.3326e-05	70.779	104.241	178.789	179.984	96.337	216.340	229.636	95.128	102.376	220.757	226.314	100.213	104.869	107.020	111.921	210.764	108.749	-8191	255	
51300.922	1	1	0	0	0.13553	0.15561	0.061535	0.319	0.088512	0.20507	0.26496	0.13284	0.040626	0.31957	0.12761	0.10538	0.38461	0.17105	0.05826	0.23209	-2.8771	-2.5729	-3.5083	-3.1854	-2.9104	-3.6312	-2.975	-3.4042	-3.3688	-2.7812	-3.4458	-3.1146	-2.9833	-3.7417	-2.6937	-3.1958	330.623	236.245	365.619	99.862	370.304	184.258	402.156	435.624	128.005	263.451	432.890	88.833	398.589	345.729	181.834	340.715	0.0014923	0.00061078	0.00019233	1227.2	8.8305e-06	6.0846e-06	974.9	441.82	7.8182e-06	6.9056e-06	390.2	146.75	170.88	71.867	9.2112e-06	69.884	0.0011714	0.0012716	0.00034331	1215.5	1.1901e-05	1.313e-05	959.48	439.36	1.1863e-05	1.4754e-05	388.45	146.29	170.38	72.49	1.2788e-05	70.5	102.706	172.966	186.845	96.433	207.476	238.174	95.137	102.425	222.984	252.646	100.277	104.783	107.003	112.240	228.720	108.824	-8191	255	
51301.043	1	1	0	0	0.23694	0.066151	0.14238	0.21193	0.23357	0.15868	0.11519	0.17911	0.13015	0.061962	0.24463	0.16327	0.30585	0.14893	0.32963	0.24506	-2.9792	-2.6792	-3.4	-3.2938	-2.8146	-3.6583	-2.9979	-3.1979	-3.3042	-2.8604	-3.6312	-3.3354	-2.7167	-3.6979	-2.7333	-3.0146	84.444	223.515	340.472	386.537	394.436	173.470	89.514	345.000	295.470	165.349	427.638	396.043	427.767	150.374	249.845	368.357	0.0014149	0.00068834	0.00017037	1226.4	7.7441e-06	5.2734e-06	966.9	439.98	6.6787e-06	5.47e-06	389.7	146.96	169.9	71.552	8.0759e-06	70.039	0.0011589	0.0012402	0.00033582	1211.7	1.2204e-05	1.3854e-05	956.07	437.74	1.1566e-05	1.3979e-05	388.08	145.78	169.4	72.195	1.302e-05	70.492	104.484	173.028	171.657	96.436	221.330	230.908	95.122	102.073	220.933	231.174	100.369	104.577	106.813	112.257	228.177	108.734	-8191	255	
51301.113	1	1	0	0	0.3149	0.20342	0.12004	0.18487	0.27408	0.19602	0.1862	0.32803	0.083058	0.067429	0.11419	0.1581	0.13281	0.05484	0.023848	0.53333	-3.0187	-2.7667	-3.1604	-3.3229	-2.6854	-3.625	-2.9021	-3.1833	-3.6604	-2.7708	-3.3771	-3.4771	-2.7521	-3.5521	-3.1854	-2.875	253.725	118.358	231.438	379.036	345.357	375.777	318.016	285.118	215.721	405.394	402.914	387.711	391.726	241.938	404.768	389.883	0.0014383	0.00054573	0.00017997	1224.6	7.9138e-06	7.4467e-06	970.25	439.27	7.3158e-06	6.5272e-06	390.63	146.43	168.89	70.73	9.648e-06	69.016	0.0011684	0.0012356	0.00033441	1210.5	1.1944e-05	1.4039e-05	958.38	437.3	1.1542e-05	1.4057e-05	388.33	144.91	168.48	71.543	1.3194e-05	69.534	102.968	204.536	188.142	96.337	215.333	236.081	94.934	102.114	222.305	227.507	100.120	104.797	107.045	112.035	237.280	108.756	-8191	255	
51301.211	1	1	0	0	0.16673	0.23357	0.12024	0.22513	0.13932	0.15666	0.14206	0.35116	0.14125	0.094154	0.080239	0.12103	0.26134	0.14045	0.10953	0.24883	-3.3	-2.525	-3.0438	-3.6562	-2.5792	-3.4479	-3.0563	-2.925	-3.5854	-2.9333	-3.1646	-3.5104	-2.8083	-3.6604	-3.1146	-2.6875	102.409	183.887	94.142	90.580	251.727	356.965	156.921	412.362	279.116	338.278	272.820	325.121	405.083	427.189	412.285	382.403	0.0014668	0.00059484	0.00019757	1230	6.9161e-06	6.4477e-06	966.49	440.08	8.0684e-06	6.8763e-06	385.41	145.19	171.07	71.294	7.6344e-06	68.391	0.0011547	0.0012509	0.00033648	1216.9	1.1709e-05	1.3618e-05	953.54	437.49	1.1644e-05	1.4459e-05	384.25	144.13	170.65	71.949	1.353e-05	68.777	104.662	163.661	181.703	96.429	222.053	237.889	94.997	102.229	218.099	228.248	100.042	104.713	106.793	111.885	236.781	108.441	-8191	255	
51301.328	1	1	0	0	0.12836	0.08949	0.13593	0.024099	0.15461	0.1387	0.20448	0.13574	0.15497	0.044906	0.25788	0.067521	0.17624	0.14017	0.2438	0.22318	-3.0771	-2.8229	-2.8833	-3.6479	-2.5708	-3.35	-3.4229	-2.8917	-3.3438	-2.9771	-2.9396	-3.725	-2.9188	-3.3604	-3.2479	-2.7667	282.418	97.352	395.798	306.745	203.217	201.489	402.927	418.421	98.638	383.523	348.722	254.228	298.775	108.383	138.824	366.740	0.0014212	0.00068283	0.00015671	1244.2	7.3844e-06	6.9553e-06	975.06	448.07	8.7746e-06	6.8332e-06	393.11	148.53	175.89	72.672	7.639e-06	68.456	0.001174	0.0013135	0.00037151	1232.1	1.221e-05	1.4638e-05	962.14	446.62	1.2625e-05	1.4197e-05	390.64	147.72	175.26	73.134	1.3087e-05	68.72	104.445	168.899	166.331	96.322	217.324	235.885	95.077	102.045	211.487	244.748	99.865	104.594	106.466	111.799	219.348	108.217	-8191	255	
51301.426	1	1	0	0	0.06584	0.033565	0.19143	0.26711	0.2644	0.042226	0.25	0.33057	0.12917	0.09865	0.10993	0.11369	0.26624	0.24607	0.13603	0.32623	-2.95	-2.8354	-2.5104	-3.6917	-2.5708	-3.1542	-3.3833	-2.8104	-3.4396	-2.8854	-2.8667	-3.7687	-2.8958	-3.3187	-3.3625	-2.6104	346.372	198.205	133.453	429.983	217.780	95.110	123.266	92.316	306.536	95.859	350.270	115.052	410.162	413.353	316.339	156.010	0.0014272	0.00042556	0.00016924	1255.8	8.0941e-06	6.1305e-06	970.33	447.45	9.7566e-06	6.9831e-06	386.99	145.36	171.47	70.64	8.3882e-06	67.059	0.0011682	0.0012302	0.00035777	1242.8	1.2092e-05	1.3848e-05	958.56	444.43	1.2461e-05	1.4018e-05	384.4	144.34	170.63	71.37	1.274e-05	67.206	104.922	176.311	179.277	96.265	210.344	228.969	95.083	101.842	219.935	241.012	99.716	104.475	106.610	111.749	221.522	108.083	-8191	255	
51301.523	1	1	0	0	0.071212	0.15459	0.070142	0.24336	0.18866	0.067284	0.40403	0.23557	0.031585	0.12845	0.33507	0.11867	0.15275	0.061111	0.033937	0.34703	-3.0604	-3.1458	-2.6146	-3.6708	-2.6146	-2.9167	-3.5563	-2.8083	-3.3896	-3.0542	-2.6688	-3.6521	-2.9771	-3.0604	-3.5687	-2.8063	375.827	120.117	306.097	98.226	358.443	376.373	410.607	411.328	391.140	308.452	428.027	114.787	373.680	438.875	404.381	368.843	0.0013716	0.00063486	0.00017735	1228.1	6.5674e-06	5.9257e-06	951.84	434.33	7.1842e-06	6.6897e-06	377.19	138.46	161.47	67.437	7.926e-06	64.546	0.0011091	0.0011791	0.00033473	1218.7	1.1034e-05	1.326e-05	941.84	432.33	1.1434e-05	1.3006e-05	375.48	137.25	161.77	68.014	1.2605e-05	64.754	104.421	184.241	164.317	96.537	213.361	232.602	94.860	102.104	208.893	239.261	100.184	105.087	106.572	112.027	225.167	108.716	-8191	255	
51301.617	1	1	0	0	0.14299	0.23716	0.15502	0.27994	0.15805	0.054115	0.25216	0.35321	0.024616	0.13726	0.27433	0.07868	0.10623	0.072662	0.10891	0.16283	-2.8021	-3.2	-2.6688	-3.5833	-2.7917	-3	-3.6229	-2.7812	-3.2687	-3.3646	-2.8063	-3.5375	-3.2	-2.7875	-3.6958	-2.9021	204.010	411.700	119.455	379.024	169.265	236.792	367.968	85.980	421.794	439.761	364.123	437.910	128.791	431.860	95.186	398.160	0.0013364	0.00068451	0.00016139	1215.2	6.597e-06	5.1912e-06	946.8	427.73	6.7745e-06	6.2208e-06	373.06	135.27	158.9	65.957	7.0641e-06	63.677	0.001099	0.0012047	0.0003432	1200.5	1.0794e-05	1.3156e-05	931.84	425.84	1.1188e-05	1.288e-05	371.12	134.52	158.43	66.682	1.249e-05	63.886	104.588	175.622	182.000	96.374	231.763	232.394	94.732	102.118	219.547	236.879	99.989	104.691	106.912	112.014	231.207	108.673	-8191	255	
51301.715	1	1	0	0	0.10973	0.025257	0.15437	0.21143	0.20293	0.24858	0.18416	0.28465	0.24325	0.18829	0.12831	0.1411	0.27547	0.25941	0.064188	0.15098	-2.6771	-3.2354	-2.7854	-3.5875	-2.9604	-2.8125	-3.4604	-2.8771	-2.8917	-3.4354	-3.0896	-3.425	-3.3208	-2.8937	-3.6	-2.6479	197.657	371.334	437.072	431.162	197.344	180.707	425.167	372.149	251.747	206.189	348.495	338.163	345.812	89.565	342.819	337.467	0.0013104	0.00049528	0.00016872	1207.9	7.5648e-06	6.4381e-06	937.82	424.02	7.4634e-06	6.6409e-06	373.65	135.63	158.5	65.868	7.2704e-06	63.84	0.0010463	0.0011479	0.00032834	1192.8	1.0923e-05	1.2859e-05	927.37	423.73	1.1239e-05	1.2422e-05	371.18	134.57	157.94	66.468	1.1987e-05	64.161	103.150	170.101	186.780	96.247	216.613	235.162	94.982	102.087	224.786	233.099	100.104	104.762	106.585	111.923	228.287	108.775	-8191	255	
#DATA ENDS
