BOXY.EXE: ISS Imagent and Oximeter Data Acquisition Program Version 0.80
Ascii Record File

#ACQ INFORMATION
2  Detector Channels 
16  External MUX Channels 
1  Auxiliary Channels 
5000  Waveform (CCF) Frequency (Hz)
1  Waveforms Skipped 
30  Waveforms Averaged 
1  Cycles Averaged 
16  Acquisitions per Waveform 
10.0806  Updata Rate (Hz) 

#FILE INFORMATION
TRUE -- External MUX Channel results are PARSED.
FALSE -- AC DC and Phase are NOT grouped.
TRUE -- Companion Program Settings File CREATED.
FALSE -- AC data not excluded
FALSE -- DC data not excluded
FALSE -- Phase data not excluded
FALSE -- Auxillary Chn. data not excluded
Tab delimiters

#CALIBRATION STATE
TRUE -- Waveform Calibration Values APPLIED.


#AUX CALIBRATION VALUES
Val Type	aux-1	

Term	1.0000e+00	
Factor	0.0000e+00	


#WF CALIBRATION VALUES
A = Detector Channel
Val Type	A-AC1	A-AC2	A-AC3	A-AC4	A-AC5	A-AC6	A-AC7	A-AC8	A-AC9	A-AC10	A-AC11	A-AC12	A-AC13	A-AC14	A-AC15	A-AC16	A-DC1	A-DC2	A-DC3	A-DC4	A-DC5	A-DC6	A-DC7	A-DC8	A-DC9	A-DC10	A-DC11	A-DC12	A-DC13	A-DC14	A-DC15	A-DC16	A-Ph1	A-Ph2	A-Ph3	A-Ph4	A-Ph5	A-Ph6	A-Ph7	A-Ph8	A-Ph9	A-Ph10	A-Ph11	A-Ph12	A-Ph13	A-Ph14	A-Ph15	A-Ph16	

Term	0.00000e+00	0.00000e+00	0.00000e+00	0.00000e+00	0.00000e+00	0.00000e+00	0.00000e+00	0.00000e+00	0.00000e+00	0.00000e+00	0.00000e+00	0.00000e+00	0.00000e+00	0.00000e+00	0.00000e+00	0.00000e+00	0.00000e+00	0.00000e+00	0.00000e+00	0.00000e+00	0.00000e+00	0.00000e+00	0.00000e+00	0.00000e+00	0.00000e+00	0.00000e+00	0.00000e+00	0.00000e+00	0.00000e+00	0.00000e+00	0.00000e+00	0.00000e+00	0.00000e+00	0.00000e+00	0.00000e+00	0.00000e+00	0.00000e+00	0.00000e+00	0.00000e+00	0.00000e+00	0.00000e+00	0.00000e+00	0.00000e+00	0.00000e+00	0.00000e+00	0.00000e+00	0.00000e+00	0.00000e+00	
Factor	1.00000e+00	1.00000e+00	1.00000e+00	1.00000e+00	1.00000e+00	1.00000e+00	1.00000e+00	1.00000e+00	1.00000e+00	1.00000e+00	1.00000e+00	1.00000e+00	1.00000e+00	1.00000e+00	1.00000e+00	1.00000e+00	1.00000e+00	1.00000e+00	1.00000e+00	1.00000e+00	1.00000e+00	1.00000e+00	1.00000e+00	1.00000e+00	1.00000e+00	1.00000e+00	1.00000e+00	1.00000e+00	1.00000e+00	1.00000e+00	1.00000e+00	1.00000e+00	X	X	X	X	X	X	X	X	X	X	X	X	X	X	X	X	

B = Detector Channel
Val Type	B-AC1	B-AC2	B-AC3	B-AC4	B-AC5	B-AC6	B-AC7	B-AC8	B-AC9	B-AC10	B-AC11	B-AC12	B-AC13	B-AC14	B-AC15	B-AC16	B-DC1	B-DC2	B-DC3	B-DC4	B-DC5	B-DC6	B-DC7	B-DC8	B-DC9	B-DC10	B-DC11	B-DC12	B-DC13	B-DC14	B-DC15	B-DC16	B-Ph1	B-Ph2	B-Ph3	B-Ph4	B-Ph5	B-Ph6	B-Ph7	B-Ph8	B-Ph9	B-Ph10	B-Ph11	B-Ph12	B-Ph13	B-Ph14	B-Ph15	B-Ph16	

Term	0.00000e+00	0.00000e+00	0.00000e+00	0.00000e+00	0.00000e+00	0.00000e+00	0.00000e+00	0.00000e+00	0.00000e+00	0.00000e+00	0.00000e+00	0.00000e+00	0.00000e+00	0.00000e+00	0.00000e+00	0.00000e+00	0.00000e+00	0.00000e+00	0.00000e+00	0.00000e+00	0.00000e+00	0.00000e+00	0.00000e+00	0.00000e+00	0.00000e+00	0.00000e+00	0.00000e+00	0.00000e+00	0.00000e+00	0.00000e+00	0.00000e+00	0.00000e+00	-1.94746e+02	-1.29429e+02	-1.23296e+02	-1.81177e+02	-8.24941e+01	-6.72532e+01	-1.58393e+02	-1.62015e+02	-8.26879e+01	-6.57740e+01	-1.70238e+02	-1.70284e+02	-1.81041e+02	-1.76563e+02	-7.59332e+01	-1.49301e+02	
Factor	3.81472e-05	1.55800e-04	4.27792e-05	1.56288e-01	1.59967e-06	1.59687e-06	1.72052e-01	5.78622e-02	1.65686e-06	1.77183e-06	8.97467e-02	3.04905e-02	2.59666e-02	9.04681e-03	1.74401e-06	1.28027e-02	2.48459e-05	6.22447e-05	1.74435e-05	8.03579e-02	5.30800e-07	7.33201e-07	8.33309e-02	2.98252e-02	5.43097e-07	7.33792e-07	4.50204e-02	1.52899e-02	1.34928e-02	4.71424e-03	5.97119e-07	6.48029e-03	X	X	X	X	X	X	X	X	X	X	X	X	X	X	X	X	



#DISTANCE SETTINGS
A = Detector Channel
A-1	A-2	A-3	A-4	A-5	A-6	A-7	A-8	A-9	A-10	A-11	A-12	A-13	A-14	A-15	A-16	

2.5000e+00	3.0000e+00	2.5000e+00	3.0000e+00	2.0000e+00	3.0000e+00	1.5000e+00	3.0000e+00	3.0000e+00	3.0000e+00	3.0000e+00	3.0000e+00	3.0000e+00	3.0000e+00	1.5000e+00	3.0000e+00	

B = Detector Channel
B-1	B-2	B-3	B-4	B-5	B-6	B-7	B-8	B-9	B-10	B-11	B-12	B-13	B-14	B-15	B-16	

1.0000e+01	1.0000e+01	1.0000e+01	1.4400e+00	1.0000e+01	1.0000e+01	1.5100e+00	1.9400e+00	1.0000e+01	1.0000e+01	1.9900e+00	2.4900e+00	2.4100e+00	2.9000e+00	1.0000e+01	2.9800e+00	




#DATA BEGINS
time	group	step	mark	flag	A-AC1	A-AC2	A-AC3	A-AC4	A-AC5	A-AC6	A-AC7	A-AC8	A-AC9	A-AC10	A-AC11	A-AC12	A-AC13	A-AC14	A-AC15	A-AC16	A-DC1	A-DC2	A-DC3	A-DC4	A-DC5	A-DC6	A-DC7	A-DC8	A-DC9	A-DC10	A-DC11	A-DC12	A-DC13	A-DC14	A-DC15	A-DC16	A-Ph1	A-Ph2	A-Ph3	A-Ph4	A-Ph5	A-Ph6	A-Ph7	A-Ph8	A-Ph9	A-Ph10	A-Ph11	A-Ph12	A-Ph13	A-Ph14	A-Ph15	A-Ph16	B-AC1	B-AC2	B-AC3	B-AC4	B-AC5	B-AC6	B-AC7	B-AC8	B-AC9	B-AC10	B-AC11	B-AC12	B-AC13	B-AC14	B-AC15	B-AC16	B-DC1	B-DC2	B-DC3	B-DC4	B-DC5	B-DC6	B-DC7	B-DC8	B-DC9	B-DC10	B-DC11	B-DC12	B-DC13	B-DC14	B-DC15	B-DC16	B-Ph1	B-Ph2	B-Ph3	B-Ph4	B-Ph5	B-Ph6	B-Ph7	B-Ph8	B-Ph9	B-Ph10	B-Ph11	B-Ph12	B-Ph13	B-Ph14	B-Ph15	B-Ph16	aux-1	digaux	

51127.172	1	1	0	256	0.058332	0.29149	0.16651	0.17333	0.36897	0.21582	0.062068	0.14247	0.10851	0.21298	0.081048	0.19941	0.19538	0.076838	0.083047	0.28529	-3.2812	-2.7333	-3.3271	-3.4292	-2.9458	-3.4479	-3.2229	-3.175	-3.4354	-3.0417	-3.3958	-3.3854	-2.7375	-3.6396	-3.0687	-3.0646	288.038	406.892	309.168	122.797	343.809	130.109	299.129	410.511	141.586	311.148	349.726	123.162	435.810	329.617	92.862	89.420	0.00047312	0.0002636	6.4604e-05	932.63	3.6169e-06	1.8385e-06	1044.8	199.05	3.4671e-06	2.2685e-06	257.77	71.84	55.474	16.043	3.6861e-06	23.518	0.00038201	0.00045244	0.00011284	926.86	4.7153e-06	4.2174e-06	1035.8	199.05	3.8922e-06	4.7666e-06	258.81	72.262	55.451	16.367	4.2781e-06	23.942	106.035	192.801	181.529	99.377	214.582	248.012	99.382	107.313	212.234	241.881	106.873	113.689	114.300	121.637	216.841	120.517	-8191	255	
51127.270	1	1	0	0	0.053939	0.063465	0.14488	0.06367	0.30688	0.34119	0.28203	0.27663	0.18515	0.037342	0.2071	0.087178	0.38679	0.13903	0.21775	0.25742	-3.3167	-2.5812	-3.35	-3.6146	-2.825	-3.5167	-3.2896	-3.05	-3.6583	-2.975	-3.2792	-3.65	-2.6813	-3.5125	-3.1312	-2.7917	427.698	211.324	209.457	389.967	259.187	323.171	337.630	367.813	91.925	249.322	390.275	139.421	425.464	371.091	373.549	343.793	0.00052761	0.00032615	7.5571e-05	936.15	4.4646e-06	2.0592e-06	1046.7	199.56	3.0944e-06	2.9861e-06	257.98	72.646	55.117	15.993	2.0789e-06	23.251	0.00040085	0.00047578	0.00012279	925.63	4.6766e-06	4.2373e-06	1036	199.17	4.054e-06	4.8262e-06	258.51	72.635	55.324	16.31	3.9062e-06	23.86	108.176	163.905	198.453	99.500	224.377	222.736	99.373	107.326	224.591	243.753	106.874	113.977	114.252	121.316	222.870	120.677	-8191	255	
51127.363	1	1	0	0	0.15224	0.27024	0.19728	0.32092	0.033701	0.094325	0.23901	0.063349	0.21817	0.20724	0.098064	0.20715	0.046175	0.1366	0.17946	0.16199	-3.2146	-2.8812	-3.0354	-3.5542	-2.7625	-3.4583	-3.4375	-2.7083	-3.7396	-2.9854	-3.0104	-3.7229	-2.6604	-3.3229	-3.3354	-2.7708	301.748	139.812	191.122	424.705	204.000	272.273	390.584	192.752	141.074	255.743	420.103	383.731	194.250	236.551	334.158	264.378	0.00054747	0.00026141	5.2448e-05	933.73	4.3786e-06	2.1541e-06	1043.1	199.6	3.3156e-06	2.3589e-06	256.82	71.903	55.452	16.081	3.6012e-06	23.174	0.00039422	0.00041989	0.00011026	924.75	4.6666e-06	4.2129e-06	1033.1	199.53	3.8526e-06	4.8736e-06	257.48	72.184	55.366	16.364	4.0505e-06	23.806	110.285	192.812	180.346	99.596	215.802	238.790	99.318	107.432	228.536	254.244	106.733	113.992	114.262	121.649	229.047	120.477	-8191	255	
51127.461	1	1	0	0	0.21275	0.12029	0.11616	0.38431	0.18147	0.084632	0.19389	0.12987	0.16322	0.22978	0.13584	0.16193	0.15633	0.23318	0.19047	0.36511	-3.2938	-3.0125	-2.9042	-3.6729	-2.7979	-3.3792	-3.6271	-2.7438	-3.475	-3.1437	-2.9188	-3.7125	-2.925	-3.2229	-3.5521	-2.6667	101.023	182.208	167.588	127.252	426.372	156.758	119.564	415.455	99.104	269.848	285.245	392.442	344.554	313.593	95.497	384.165	0.00051653	0.00028998	6.9269e-05	931.7	2.9862e-06	1.3335e-06	1041.6	199.45	3.6148e-06	2.2738e-06	256.33	71.512	55.054	16.164	2.5207e-06	23.294	0.00038775	0.00041354	0.00011556	923.02	4.6567e-06	4.3152e-06	1031.3	198.93	3.6648e-06	4.5465e-06	257.09	71.987	55.099	16.351	3.7096e-06	23.817	105.628	190.530	173.829	99.700	206.484	257.591	99.443	107.308	230.072	214.682	106.702	113.354	113.962	121.719	230.158	120.769	-8191	255	
51127.582	1	1	0	0	0.22067	0.2362	0.16547	0.11632	0.23631	0.28976	0.1718	0.13643	0.20115	0.15679	0.31775	0.098593	0.15926	0.11174	0.16041	0.049387	-3.3333	-3.2	-2.7729	-3.7833	-2.95	-3.1958	-3.7417	-2.8146	-3.4083	-3.3312	-2.9083	-3.7146	-2.9167	-3.15	-3.5062	-2.7417	159.217	423.918	141.552	436.848	414.089	270.246	395.841	394.497	403.725	261.185	380.146	425.932	398.017	392.771	140.400	280.632	0.00055274	0.00038789	8.6127e-05	928.8	3.607e-06	2.2548e-06	1037.7	198.39	1.8836e-06	2.2132e-06	257.58	71.924	55.087	16.079	4.4488e-06	23.292	0.00039909	0.00040018	0.00011629	920.7	4.9398e-06	4.6207e-06	1029.2	198.76	3.8424e-06	4.175e-06	257.28	72.181	55.245	16.286	3.6972e-06	23.746	105.253	190.995	189.734	99.668	221.745	252.318	99.454	107.413	235.648	234.093	106.586	113.373	114.163	122.016	223.975	120.354	-8191	255	
51127.652	1	1	0	0	0.10248	0.18028	0.042116	0.042018	0.057992	0.14049	0.20606	0.13228	0.28795	0.22084	0.088322	0.089281	0.085699	0.020123	0.17726	0.36002	-3.2271	-3.375	-2.6667	-3.8563	-3.0563	-3.1292	-3.8375	-2.7875	-3.3917	-3.5958	-2.9792	-3.7521	-3.0771	-3.0917	-3.5708	-2.8917	140.304	429.216	401.060	411.038	91.230	430.230	378.729	407.569	331.043	106.823	363.155	176.032	249.291	444.936	173.588	91.026	0.00053327	0.00023649	8.6529e-05	933.35	3.8548e-06	2.7149e-06	1041.5	199.87	2.9121e-06	2.0311e-06	255.05	71.635	54.94	15.918	3.069e-06	23.26	0.00039075	0.00039227	0.0001152	921.75	4.3802e-06	4.4557e-06	1030.6	198.41	3.9884e-06	3.7775e-06	256.92	72.059	55.205	16.304	3.8191e-06	23.832	109.107	152.907	189.126	99.691	221.370	238.180	99.586	107.380	221.898	259.693	106.616	113.626	113.857	121.693	222.804	120.283	-8191	255	
51127.750	1	1	0	0	0.13906	0.19761	0.11367	0.23441	0.30009	0.098033	0.32108	0.16536	0.10381	0.20974	0.41094	0.088668	0.11353	0.21845	0.14649	0.065873	-3.0125	-3.3479	-2.6813	-3.6354	-3.0083	-2.9688	-3.9021	-2.7854	-3.2333	-3.5833	-2.7313	-3.5333	-3.1354	-2.8042	-3.7375	-3.0208	103.032	270.540	346.991	135.401	119.314	426.579	408.851	105.074	153.996	130.042	208.667	379.015	127.698	445.088	337.172	446.387	0.00052567	0.00025427	5.9097e-05	928.77	4.1456e-06	2.4488e-06	1040.6	199.97	2.3001e-06	2.7705e-06	256.39	72.077	54.925	15.967	3.3984e-06	23.515	0.00040017	0.00038436	0.00011429	921.19	4.4786e-06	4.9018e-06	1030.2	198.96	4.0042e-06	4.0695e-06	256.84	72.15	55.164	16.296	3.7407e-06	23.886	109.367	187.004	193.422	99.781	211.638	257.366	99.699	107.442	235.346	230.547	106.809	113.795	113.881	121.571	247.899	120.911	-8191	255	
51127.844	1	1	0	0	0.029788	0.1376	0.25954	0.29654	0.056181	0.15397	0.25792	0.20601	0.27336	0.027015	0.12869	0.38529	0.15144	0.14376	0.05851	0.22117	-2.6125	-3.4083	-2.9208	-3.4333	-3.2583	-2.8125	-3.7938	-3.0667	-3.1042	-3.6146	-2.8917	-3.5479	-3.3542	-2.8958	-3.5375	-3.0812	92.808	154.112	380.825	355.816	95.435	187.570	391.558	361.452	175.542	445.650	426.356	448.456	235.026	143.542	224.189	375.386	0.00049097	0.00025635	9.3831e-05	927.3	4.0468e-06	1.9347e-06	1039.9	199.82	3.4643e-06	2.9762e-06	256.06	72.01	54.986	16.042	3.488e-06	23.315	0.00038749	0.00034286	0.00011309	921.44	4.3448e-06	4.6665e-06	1032	198.89	3.994e-06	3.7836e-06	256.52	72.149	54.99	16.338	3.4148e-06	23.71	109.733	182.739	179.128	99.698	213.970	225.212	99.480	107.295	235.623	253.674	106.819	114.064	113.866	121.286	215.100	120.721	-8191	255	
51127.965	1	1	0	0	0.12486	0.040966	0.22664	0.32459	0.28737	0.094698	0.32228	0.099699	0.10845	0.20375	0.17801	0.092856	0.32731	0.082131	0.093907	0.25925	-2.7958	-3.5917	-2.7896	-3.6	-3.4458	-2.7333	-3.8479	-3.2188	-2.9229	-3.6417	-3.0042	-3.2875	-3.4167	-2.7896	-3.5875	-3.2021	97.718	232.556	197.452	139.435	253.603	253.497	327.907	329.749	206.891	395.057	339.890	202.776	418.353	444.158	206.973	284.031	0.00048766	0.00027371	4.7671e-05	929.33	3.074e-06	2.6946e-06	1037.6	198.13	3.0662e-06	2.2173e-06	255.3	71.757	55.073	15.915	4.354e-06	23.385	0.00038972	0.00037658	0.00011614	920.11	4.0429e-06	4.3014e-06	1027.3	198.07	4.1683e-06	4.0573e-06	256.26	71.909	54.971	16.263	3.8091e-06	23.734	106.199	178.785	177.185	99.707	227.990	237.645	99.605	107.248	228.610	231.783	106.617	113.994	113.931	121.692	223.514	120.246	-8191	255	
51128.059	1	1	0	0	0.1903	0.06577	0.072714	0.12453	0.16769	0.26316	0.16265	0.040283	0.42936	0.18493	0.29625	0.1749	0.29881	0.10164	0.10507	0.33874	-2.6396	-3.75	-2.8937	-3.3563	-3.5083	-2.8812	-3.7417	-3.2146	-2.7604	-3.7958	-2.9542	-3.2021	-3.575	-2.8625	-3.4062	-3.4167	163.916	215.399	339.485	99.658	112.071	164.264	382.656	361.875	346.594	226.861	363.616	139.538	373.903	341.467	361.769	260.998	0.00054441	0.00026099	7.7983e-05	928.37	3.7304e-06	3.8589e-06	1032.4	199.19	4.0632e-06	2.3806e-06	254.04	71.465	54.827	15.999	2.313e-06	23.093	0.00041731	0.00033301	0.00011574	918.73	3.9843e-06	4.6421e-06	1025.6	198.27	4.3131e-06	4.1398e-06	255.5	71.838	54.882	16.273	3.7308e-06	23.656	106.606	177.373	186.915	99.866	229.899	246.121	99.407	107.301	232.458	257.865	106.834	113.979	114.085	121.663	210.087	120.707	-8191	255	
51128.156	1	1	0	0	0.14394	0.17356	0.083286	0.16174	0.3264	0.22662	0.10738	0.051175	0.088352	0.27863	0.11672	0.10214	0.087342	0.18477	0.15462	0.21769	-2.4729	-3.6063	-2.9354	-3.2479	-3.5146	-2.7792	-3.6958	-3.3854	-2.8229	-3.7542	-3.1354	-3.1063	-3.5646	-2.6854	-3.4417	-3.5021	126.758	357.015	383.463	380.286	353.699	161.566	374.942	367.284	304.712	349.101	129.256	427.671	400.778	225.509	290.524	353.973	0.00052062	0.00019356	0.00010127	923.99	2.7574e-06	2.7614e-06	1027.8	198.02	3.4009e-06	3.3353e-06	253.63	71.463	54.721	15.836	3.6267e-06	23.049	0.00039194	0.00034196	0.0001124	915.1	3.9722e-06	4.7001e-06	1022.9	197.43	4.2475e-06	3.7164e-06	254.22	71.635	54.845	16.166	3.7855e-06	23.625	106.208	159.024	172.500	99.840	219.090	239.490	99.420	107.284	212.805	243.653	106.590	113.245	114.442	121.437	249.511	120.589	-8191	255	
51128.254	1	1	0	0	0.097884	0.088605	0.15636	0.20335	0.24006	0.165	0.1172	0.31535	0.16383	0.1605	0.021744	0.027563	0.11648	0.084822	0.10502	0.24147	-2.4646	-3.5583	-2.95	-2.9854	-3.5604	-2.8833	-3.3875	-3.375	-2.6688	-3.5354	-3.2708	-3.025	-3.7021	-3.0208	-3.225	-3.6958	392.955	118.816	102.742	305.935	394.623	322.073	436.195	408.882	352.450	369.129	270.477	180.742	399.608	390.751	155.747	310.758	0.00052193	0.0002537	5.9807e-05	921.79	4.4066e-06	2.6017e-06	1033.1	197.2	3.9402e-06	1.8444e-06	253.53	71.348	54.823	15.906	3.3193e-06	22.965	0.00040602	0.00034429	0.00010404	914.09	3.9954e-06	4.969e-06	1022.8	196.89	4.3697e-06	3.7332e-06	255.07	71.583	54.669	16.167	3.8328e-06	23.54	108.664	187.309	201.803	99.877	220.840	216.236	99.622	107.230	237.976	244.967	106.781	113.958	113.987	122.026	218.576	120.273	-8191	255	
51128.348	1	1	0	0	0.084871	0.15819	0.0077608	0.34635	0.29357	0.19907	0.02255	0.051425	0.040286	0.40244	0.23055	0.13229	0.04928	0.077586	0.019878	0.21302	-2.4375	-3.425	-3.1292	-2.8438	-3.4875	-2.8854	-3.4792	-3.7417	-2.8167	-3.4479	-3.3833	-2.9062	-3.7396	-2.9729	-3.275	-3.5896	340.816	287.101	200.476	394.093	199.284	129.353	180.982	273.811	95.456	303.766	114.999	183.946	296.999	100.475	179.950	425.569	0.00054499	0.00035785	8.852e-05	924.66	3.2432e-06	1.5897e-06	1030.7	197.97	2.8296e-06	3.2825e-06	252.77	70.688	54.707	15.934	2.8634e-06	23.124	0.00042362	0.00035804	0.00010012	914.99	4.0695e-06	4.2724e-06	1022.4	197.42	4.3855e-06	4.3233e-06	253.67	71.275	54.684	16.191	4.3814e-06	23.598	112.774	190.640	186.043	99.658	222.088	218.355	99.663	107.385	218.556	255.718	106.754	113.676	113.830	121.571	249.604	120.927	-8191	255	
51128.445	1	1	0	0	0.025585	0.16385	0.28862	0.11549	0.053131	0.23072	0.3725	0.093349	0.06455	0.20856	0.13554	0.1322	0.089702	0.085292	0.068877	0.11023	-2.6	-3.2875	-3.3833	-3.0125	-3.7229	-2.9729	-3.0687	-3.5854	-2.7083	-3.5104	-3.4437	-2.8937	-3.5833	-3.1521	-3.0479	-3.7271	239.856	380.805	321.294	448.613	368.306	323.398	375.485	358.492	350.500	310.866	260.716	336.173	260.377	406.330	107.527	419.346	0.00050056	0.00028774	8.413e-05	921.99	4.2608e-06	3.067e-06	1028.6	198.02	4.327e-06	1.8767e-06	253.3	71.287	54.737	15.94	3.8436e-06	23.025	0.00037957	0.00038981	0.00010048	914.09	4.1911e-06	4.4282e-06	1022.8	197.25	4.4715e-06	4.3615e-06	254.1	71.344	54.593	16.159	4.2383e-06	23.543	109.190	183.841	217.764	99.822	229.092	236.468	99.766	107.146	230.113	232.464	107.148	113.941	114.091	121.727	238.415	120.771	-8191	255	
51128.539	1	1	0	0	0.097417	0.1055	0.041705	0.069357	0.2392	0.22529	0.11376	0.029858	0.27406	0.27037	0.15027	0.19543	0.070765	0.15649	0.068674	0.28689	-2.3208	-3.1854	-3.5187	-3.0563	-3.5833	-3.0979	-3.0187	-3.6521	-2.9417	-3.3042	-3.675	-2.9396	-3.5292	-3.4396	-2.7625	-3.7104	324.518	207.767	400.853	424.841	119.567	373.007	117.182	189.219	230.466	163.177	381.914	169.097	391.575	392.231	113.359	350.123	0.00049406	0.0003709	5.7321e-05	919.22	3.0336e-06	2.8306e-06	1034.3	199.3	4.0337e-06	2.9323e-06	252.07	70.928	54.513	15.798	3.5616e-06	22.978	0.00039148	0.00044064	9.1106e-05	912.26	4.2818e-06	4.3106e-06	1022.8	197.24	4.1751e-06	4.5006e-06	253.35	71.116	54.488	16.116	4.2632e-06	23.47	108.459	176.736	203.451	99.706	235.036	234.216	99.673	107.729	219.865	275.936	106.900	113.591	113.938	121.454	241.580	120.734	-8191	255	
51128.660	1	1	0	0	0.045349	0.034896	0.1975	0.10254	0.17068	0.10929	0.23705	0.30418	0.15685	0.11571	0.13671	0.1879	0.16614	0.17139	0.18697	0.15478	-2.4896	-3.1667	-3.5729	-2.9604	-3.55	-3.4521	-3.0271	-3.75	-2.9917	-3.1333	-3.5938	-2.7938	-3.4667	-3.325	-2.7062	-3.7896	331.983	114.867	108.916	130.016	106.725	415.320	287.232	406.576	169.388	243.021	413.119	369.203	356.513	364.234	366.347	151.273	0.0004721	0.00029364	5.776e-05	919.44	3.6531e-06	1.8922e-06	1025.8	196.42	3.6285e-06	3.2209e-06	251.76	70.641	53.85	15.655	3.5987e-06	23.003	0.00038811	0.00039188	0.00010357	909.86	4.2276e-06	4.0983e-06	1018.3	195.97	3.9861e-06	4.6198e-06	252.17	70.818	54.171	15.992	4.3229e-06	23.426	109.748	177.319	159.958	99.781	220.014	244.863	99.610	107.382	234.299	232.365	106.907	113.955	114.082	121.740	228.040	120.624	-8191	255	
51128.758	1	1	0	0	0.12282	0.029816	0.21136	0.21098	0.23719	0.19911	0.16942	0.18963	0.024831	0.3182	0.046309	0.10569	0.082635	0.090627	0.24094	0.28687	-2.7667	-3.0021	-3.7354	-2.8896	-3.5146	-3.5542	-2.9875	-3.6083	-3.2313	-2.9208	-3.8917	-3.0167	-3.1979	-3.5833	-2.6958	-3.6813	295.712	192.366	258.254	354.686	330.803	174.447	393.839	414.126	412.773	195.076	416.346	329.630	320.899	203.530	419.233	355.362	0.00050958	0.00026067	4.447e-05	917.05	3.9023e-06	2.1257e-06	1025.1	195.68	4.1404e-06	3.4578e-06	251.71	70.818	53.813	15.669	2.4543e-06	22.8	0.00038651	0.0003911	9.3541e-05	907.84	4.3094e-06	3.8325e-06	1015.4	195.55	4.123e-06	4.9837e-06	252.4	70.787	54.171	16.02	4.3117e-06	23.377	109.537	198.866	173.661	99.774	240.875	264.426	99.793	107.374	233.109	271.172	107.049	113.684	114.356	121.936	233.754	121.330	-8191	255	
51128.855	1	1	0	0	0.30986	0.08987	0.045535	0.086004	0.26813	0.27122	0.26197	0.076859	0.14403	0.13438	0.23947	0.17968	0.050854	0.10818	0.17926	0.10959	-2.8187	-2.8604	-3.6125	-2.9208	-3.1583	-3.6625	-3.0062	-3.5667	-3.4396	-2.9104	-3.7	-2.9646	-3.3354	-3.5	-2.8271	-3.5042	130.698	277.281	91.118	404.089	437.599	161.689	370.915	215.949	443.715	149.543	382.289	276.787	269.739	106.103	221.661	129.766	0.00046818	0.00038756	5.9516e-05	914.51	3.6386e-06	2.4558e-06	1027.3	196.96	2.4298e-06	2.6073e-06	252.38	70.596	54.255	15.929	2.2133e-06	23.068	0.00038873	0.00041432	9.5285e-05	907.56	4.4742e-06	3.6003e-06	1016.2	195.54	3.9092e-06	4.5036e-06	252.28	70.666	54.203	16.086	4.2333e-06	23.424	109.229	190.077	193.135	99.693	220.743	244.582	99.690	107.469	206.801	261.310	107.140	113.864	114.214	121.711	229.712	120.353	-8191	255	
51128.949	1	1	0	0	0.22644	0.14468	0.26669	0.29507	0.11111	0.20361	0.13425	0.26503	0.08758	0.19009	0.10286	0.19364	0.071129	0.37185	0.1582	0.3432	-3.1104	-2.8708	-3.6167	-3.1417	-3.1188	-3.7542	-2.9688	-3.3688	-3.3937	-2.8542	-3.7313	-3.1333	-2.9958	-3.6854	-2.8187	-3.2938	114.500	330.323	352.109	445.176	99.363	226.707	427.206	382.682	215.207	420.924	268.164	413.719	103.091	401.768	379.702	327.971	0.00047606	0.00027707	5.9164e-05	913.59	3.8919e-06	2.3974e-06	1022	196.38	3.1038e-06	2.4626e-06	251.29	70.671	54.406	15.711	2.1147e-06	22.848	0.00038873	0.00041328	0.0001015	906.51	4.3116e-06	3.8646e-06	1013.9	195.73	3.5381e-06	4.5358e-06	252.25	70.638	54.187	16.053	4.0753e-06	23.34	108.700	154.761	206.110	99.718	213.189	237.971	99.732	107.544	224.630	213.835	106.921	113.795	114.238	121.801	244.520	120.842	-8191	255	
51129.047	1	1	0	0	0.054628	0.21503	0.25863	0.25348	0.099665	0.14921	0.3137	0.1342	0.25302	0.25668	0.12172	0.18044	0.2469	0.23449	0.15832	0.080598	-3.1562	-2.7229	-3.4146	-3.3167	-2.8896	-3.6917	-3.1188	-3.2	-3.6312	-2.7687	-3.7083	-3.3854	-2.8271	-3.7062	-3.0229	-3.3542	344.712	400.041	217.504	111.576	399.858	401.081	329.889	379.909	427.616	407.524	367.165	114.511	202.924	268.408	143.217	356.669	0.00050196	0.00023185	7.0497e-05	917.94	4.5363e-06	2.3601e-06	1023.3	196.64	3.2621e-06	2.2878e-06	251.61	70.342	53.78	15.77	2.3088e-06	22.968	0.00037346	0.00039953	9.365e-05	907.94	4.4731e-06	3.7347e-06	1017.4	196.34	4.0698e-06	4.3003e-06	252.12	70.732	54.122	16.041	4.0455e-06	23.422	112.105	185.478	177.997	99.902	213.360	234.015	99.821	107.834	214.294	252.175	107.278	113.877	114.086	121.786	224.988	120.753	-8191	255	
51129.141	1	1	0	0	0.11723	0.37012	0.10443	0.21895	0.1355	0.25352	0.34278	0.16305	0.054071	0.39854	0.15647	0.2713	0.10863	0.074793	0.29631	0.12301	-3.3187	-2.5396	-3.5646	-3.6188	-2.7604	-3.6875	-3.2917	-3.1562	-3.6646	-2.8438	-3.5958	-3.4167	-2.9833	-3.7125	-3.1958	-3.0417	437.597	251.895	400.422	424.816	124.364	364.147	103.773	134.001	370.438	162.927	363.676	339.619	384.309	155.774	419.280	449.589	0.00050121	0.00015781	4.7816e-05	917.55	3.9461e-06	2.2778e-06	1026.4	195.88	3.2232e-06	3.3091e-06	250.97	70.601	53.73	15.783	2.3539e-06	22.672	0.00036544	0.00044466	9.6266e-05	909.29	4.4278e-06	3.8707e-06	1015	195.53	3.572e-06	4.9898e-06	251.61	70.72	54.09	16.043	4.2308e-06	23.282	110.073	171.392	186.168	99.629	216.333	249.387	99.585	107.719	230.762	238.655	106.808	113.589	114.275	121.635	235.186	120.534	-8191	255	
51129.262	1	1	0	0	0.079018	0.09093	0.17923	0.079218	0.29937	0.2039	0.20567	0.15037	0.14647	0.11923	0.032101	0.21536	0.27515	0.051026	0.14712	0.12775	-3.3333	-2.6937	-3.5396	-3.3667	-2.7729	-3.7125	-3.325	-3.1396	-3.5563	-2.8646	-3.2875	-3.3771	-2.8917	-3.6063	-3.0542	-2.9896	270.918	403.017	434.830	339.830	122.786	89.712	363.735	356.191	331.730	419.525	283.709	344.302	150.067	144.429	122.186	190.130	0.00052125	0.00021514	8.1492e-05	916.17	3.586e-06	1.1578e-06	1025.9	196.06	3.8495e-06	1.7904e-06	250.92	70.95	53.979	15.74	3.0411e-06	23.059	0.00040116	0.0004387	0.0001176	907.12	4.8004e-06	4.3778e-06	1015.6	195.58	4.0008e-06	5.4087e-06	251.95	70.815	54.076	16.007	4.405e-06	23.436	111.178	227.386	170.470	99.760	206.653	238.055	99.729	107.477	220.974	263.412	106.974	114.148	114.587	121.359	257.620	120.361	-8191	255	
51129.359	1	1	0	0	0.28617	0.18525	0.016433	0.12324	0.39263	0.055208	0.19712	0.29644	0.20329	0.12386	0.15599	0.13951	0.11191	0.19636	0.075308	0.12128	-3.4188	-2.825	-3.0917	-3.7604	-2.7083	-3.4229	-3.3479	-2.7458	-3.6917	-2.8	-3.1125	-3.4896	-2.7562	-3.6354	-3.3854	-2.8021	138.003	435.581	217.604	374.029	324.499	234.251	429.403	402.808	211.196	139.872	92.111	364.751	275.323	392.633	277.209	378.239	0.00050431	0.00028174	6.1254e-05	918.03	2.99e-06	2.1553e-06	1028.9	197.04	2.7452e-06	2.2492e-06	251.55	70.502	54.033	15.85	4.2308e-06	22.798	0.00038972	0.00043831	0.00010521	909.88	5.089e-06	4.7108e-06	1018.1	195.92	4.2758e-06	5.1121e-06	252.29	70.677	54.1	16.037	4.3702e-06	23.316	108.140	180.711	182.011	99.690	235.192	241.383	99.743	107.745	227.219	258.961	106.922	113.691	114.019	121.700	230.655	120.590	-8191	255	
51129.453	1	1	0	0	0.11568	0.15771	0.23521	0.14338	0.018606	0.14766	0.24664	0.037902	0.049665	0.11915	0.0081771	0.15027	0.30272	0.11396	0.17224	0.067412	-3.2188	-2.9979	-2.8479	-3.6813	-2.875	-3.475	-3.6042	-2.9813	-3.6833	-3.0854	-3.0354	-3.6396	-2.65	-3.3729	-3.4562	-2.7333	249.248	350.831	129.493	381.291	354.247	112.957	414.109	445.184	191.933	408.031	261.873	371.648	319.867	400.920	148.697	321.541	0.0005195	0.00029975	8.2927e-05	917.4	3.2555e-06	2.3482e-06	1023.6	196.51	4.0763e-06	2.1545e-06	251.73	70.498	54.247	15.764	3.4452e-06	22.942	0.00039365	0.00042975	0.00012508	909.06	4.6832e-06	4.3396e-06	1018.4	195.81	4.054e-06	4.629e-06	252.47	70.666	54.044	15.987	4.0019e-06	23.341	111.411	193.012	195.662	99.752	217.985	234.803	99.566	107.353	224.761	237.653	107.174	113.636	114.068	121.826	204.617	121.190	-8191	255	
51129.551	1	1	0	0	0.013429	0.12693	0.1607	0.096476	0.11459	0.15348	0.34908	0.093045	0.21072	0.14634	0.16443	0.13321	0.23904	0.093924	0.26646	0.17694	-3.3292	-3.0354	-2.9437	-3.8229	-2.9542	-3.3021	-3.5583	-2.8896	-3.3688	-3.1937	-3.0458	-3.5229	-2.9604	-3.0375	-3.5875	-2.8125	193.281	366.641	429.870	431.530	233.120	316.348	398.507	231.627	172.139	380.195	138.824	314.779	99.767	424.772	291.153	358.300	0.00051239	0.00036616	6.4186e-05	915.71	3.9296e-06	2.9856e-06	1024.9	196.01	3.4568e-06	2.533e-06	249.67	70.405	53.594	15.651	3.5354e-06	22.955	0.00039044	0.00041873	0.00011691	908.54	4.8646e-06	4.3595e-06	1016.4	195.51	4.3719e-06	4.3508e-06	251.71	70.671	53.888	15.979	3.9136e-06	23.31	107.394	193.927	172.895	99.555	238.553	245.073	99.764	107.207	229.694	250.410	107.124	113.958	114.060	121.598	247.367	120.902	-8191	255	
51129.645	1	1	0	0	0.34491	0.18774	0.44023	0.16336	0.36328	0.072371	0.15819	0.17821	0.071921	0.10561	0.078688	0.16167	0.28764	0.20863	0.13546	0.13584	-3.2271	-3.1688	-2.8937	-3.8125	-2.875	-3.1813	-3.7917	-2.9125	-3.4417	-3.3396	-2.8292	-3.6333	-2.9188	-3.0667	-3.6333	-2.8458	406.553	174.568	429.289	425.984	244.495	386.895	418.821	128.803	407.884	437.810	418.133	324.841	430.409	422.483	283.141	182.748	0.00052117	0.00018512	3.4421e-05	916	3.3913e-06	2.1806e-06	1023.9	195.4	2.9817e-06	2.6729e-06	251.93	70.696	53.358	15.762	3.935e-06	22.818	0.00040318	0.00042339	0.00011647	907.85	4.4322e-06	4.746e-06	1016.8	195.39	3.9895e-06	4.7467e-06	252.5	70.617	53.806	15.999	4.0181e-06	23.381	111.550	171.674	150.321	99.519	230.212	248.675	99.505	107.165	231.856	219.017	107.157	113.587	113.997	121.736	253.532	120.517	-8191	255	
51129.742	1	1	0	0	0.2305	0.034732	0.15007	0.048406	0.23366	0.042175	0.13006	0.13975	0.17766	0.036575	0.11412	0.16962	0.056108	0.09765	0.24425	0.31279	-3.1	-3.3208	-2.8667	-3.6229	-3.0417	-3.0792	-3.7167	-3	-3.2417	-3.5583	-2.8375	-3.7271	-3.0208	-2.9854	-3.7146	-2.8083	246.723	157.201	302.895	142.268	261.817	157.681	294.008	399.792	337.809	431.426	376.539	183.785	394.809	379.143	311.990	431.991	0.00049897	0.0003454	5.9689e-05	918.22	2.9798e-06	1.7169e-06	1028.5	195.78	3.776e-06	2.2208e-06	250.43	70.335	54.238	15.756	2.8291e-06	22.892	0.00039153	0.00040381	0.00011945	909.62	4.3791e-06	4.5627e-06	1019.3	195.36	4.1264e-06	4.4333e-06	251.74	70.619	54.031	16.038	3.681e-06	23.306	106.431	189.147	222.743	99.545	219.220	252.593	99.415	107.174	223.476	241.866	106.943	113.641	113.911	121.646	240.383	120.826	-8191	255	
51129.840	1	1	0	0	0.11723	0.11716	0.24682	0.020993	0.19887	0.23673	0.04227	0.066626	0.15114	0.14015	0.053198	0.017698	0.25217	0.24541	0.24943	0.10613	-2.8833	-3.5042	-2.8271	-3.675	-3.0229	-2.9479	-3.775	-3.0146	-3.0458	-3.5563	-2.775	-3.5938	-3.1979	-2.7771	-3.7396	-2.9771	278.990	231.315	99.164	444.732	425.622	371.028	445.229	114.794	287.773	276.268	301.846	301.372	144.240	91.127	433.251	294.580	0.00049083	0.00033017	4.9875e-05	919.71	4.6158e-06	2.2705e-06	1025.5	196.33	3.4515e-06	3.1163e-06	251.7	70.189	53.745	15.716	2.9843e-06	22.909	0.00040017	0.00043779	0.0001096	910.62	4.6954e-06	4.4466e-06	1017.4	195.46	4.0766e-06	4.0664e-06	251.94	70.63	53.812	15.98	4.0442e-06	23.293	105.302	191.200	152.722	99.495	210.015	240.342	99.431	107.338	226.938	253.909	106.692	113.709	113.945	121.757	242.930	120.336	-8191	255	
51129.934	1	1	0	0	0.067804	0.054222	0.22385	0.10441	0.098392	0.034491	0.20273	0.011795	0.089617	0.089049	0.16645	0.0933	0.042762	0.25382	0.23722	0.047936	-2.6604	-3.4396	-2.7521	-3.7208	-3.3458	-2.6625	-3.7625	-3.0187	-3.0083	-3.7521	-2.9375	-3.5812	-3.5229	-2.8458	-3.7396	-3.1437	94.285	375.670	303.017	355.948	412.271	309.376	380.692	291.225	95.299	445.416	217.037	199.786	151.958	247.777	234.887	434.821	0.00048627	0.0002521	5.4114e-05	917.83	2.7095e-06	1.4191e-06	1026.2	195.83	3.2205e-06	3.3917e-06	250.07	70.269	53.888	15.7	2.3885e-06	22.845	0.00039205	0.0004068	0.00011447	909.11	4.3603e-06	5.0346e-06	1018.5	195.42	4.4975e-06	4.7681e-06	251.48	70.306	53.914	15.971	3.9335e-06	23.288	108.968	157.943	186.450	99.651	230.051	257.672	99.535	107.138	229.739	239.888	106.328	113.791	113.771	121.491	258.565	120.438	-8191	255	
51130.055	1	1	0	0	0.16721	0.23319	0.094108	0.21264	0.090112	0.17522	0.19632	0.27705	0.13476	0.13249	0.1962	0.34178	0.27487	0.16785	0.1317	0.10704	-2.7854	-3.5958	-2.6854	-3.5833	-3.5896	-2.9125	-3.7188	-3.3729	-2.9354	-3.7146	-2.9958	-3.4167	-3.5458	-2.8146	-3.5646	-3.4083	243.503	165.155	205.066	378.180	184.126	272.904	362.918	96.501	115.540	226.288	172.520	346.302	174.235	382.834	309.233	255.025	0.00051348	0.00026176	6.0567e-05	919.15	2.7237e-06	2.1507e-06	1024.9	195.54	3.5071e-06	2.7899e-06	251.24	69.873	53.74	15.623	2.9174e-06	22.772	0.0004214	0.00038436	0.00013341	910.22	4.5295e-06	5.1339e-06	1018	195.02	4.3154e-06	4.0573e-06	252.15	70.348	53.821	15.923	4.359e-06	23.26	108.368	193.272	185.059	99.707	206.248	251.778	99.464	107.026	213.236	223.637	106.705	113.890	113.866	121.994	218.958	120.574	-8191	255	
51130.148	1	1	0	0	0.13632	0.17778	0.2607	0.090123	0.1713	0.038108	0.22166	0.14242	0.10811	0.24155	0.15074	0.1073	0.21128	0.26222	0.10039	0.27503	-2.6437	-3.7438	-3.0646	-3.1854	-3.6104	-2.625	-3.675	-3.3271	-2.8229	-3.8104	-3.075	-3.2	-3.6312	-2.7917	-3.6042	-3.3417	305.538	145.490	377.648	274.653	436.957	244.603	250.849	198.734	346.731	330.874	177.910	283.135	367.667	413.049	318.606	389.290	0.00045268	0.0002123	6.1854e-05	915.2	3.0633e-06	3.0879e-06	1029.8	195.41	3.6943e-06	3.1976e-06	251.27	70.409	53.792	15.772	3.3998e-06	22.763	0.00039122	0.00037477	0.00012458	910.01	4.2696e-06	4.9277e-06	1020.3	195.2	4.6763e-06	4.4456e-06	251.99	70.405	53.961	15.965	4.4759e-06	23.248	108.283	160.740	187.714	99.569	239.177	260.456	99.513	106.879	233.141	235.312	107.073	113.591	114.227	121.356	235.882	120.691	-8191	255	
51130.223	1	1	0	0	0.087438	0.0019769	0.14008	0.14832	0.043489	0.11399	0.22632	0.14038	0.17377	0.24091	0.11645	0.28515	0.08128	0.3351	0.20267	0.11547	-2.5708	-3.7354	-2.9521	-3.1875	-3.5417	-2.7562	-3.6479	-3.4	-2.8458	-3.6479	-3.1354	-3.0438	-3.8146	-2.9188	-3.3958	-3.5854	229.525	180.000	168.850	407.478	147.607	195.401	131.187	89.991	443.878	195.699	275.377	137.479	238.296	125.316	270.959	167.342	0.00048011	0.00028913	6.5134e-05	922.24	3.5503e-06	1.9621e-06	1026.2	195.14	3.7102e-06	3.3988e-06	250.85	70.772	53.462	15.7	3.1511e-06	22.595	0.000401	0.0003985	0.00011215	911.33	4.3614e-06	5.2516e-06	1019	195.31	4.5903e-06	4.629e-06	252.08	70.584	53.832	15.911	4.3826e-06	23.145	108.561	188.003	186.647	99.679	213.613	230.242	99.396	107.336	214.067	247.564	106.498	113.423	114.383	121.833	238.990	120.902	-8191	255	
51130.344	1	1	0	0	0.44849	0.26219	0.19937	0.30138	0.068706	0.26502	0.11165	0.051077	0.01196	0.34377	0.067189	0.28104	0.19187	0.21937	0.24174	0.13232	-2.4979	-3.6167	-3.1479	-3.0583	-3.7083	-2.8917	-3.3625	-3.5458	-2.7292	-3.625	-3.2313	-2.9688	-3.6167	-3.0229	-3.2208	-3.7875	445.861	225.916	245.518	398.056	399.528	303.200	433.706	421.359	372.842	134.760	424.054	173.317	390.620	372.195	191.079	377.745	0.00052908	0.00027426	6.885e-05	922.43	3.1131e-06	3.0506e-06	1029.6	195.84	2.1761e-06	2.6547e-06	252.66	70.336	54.301	15.61	2.9729e-06	22.875	0.00042429	0.0004007	0.00011996	913.44	4.0849e-06	4.9751e-06	1021.5	195.4	4.5383e-06	4.6275e-06	252.49	70.46	54.033	15.938	4.5344e-06	23.304	105.135	181.238	179.480	99.649	248.794	247.107	99.704	107.128	235.496	253.548	107.019	114.094	114.103	121.548	220.267	120.791	-8191	255	
51130.438	1	1	0	0	0.1163	0.13127	0.14808	0.10347	0.10108	0.12733	0.02268	0.072555	0.084721	0.16276	0.25217	0.11842	0.35695	0.16452	0.18644	0.2384	-2.2771	-3.3458	-3.2854	-2.9188	-3.6583	-2.9896	-3.2667	-3.5333	-2.9417	-3.5792	-3.4333	-2.6729	-3.7333	-2.9292	-3.0396	-3.6521	106.682	331.525	394.447	438.619	140.777	316.676	339.119	106.988	204.067	273.700	405.283	432.926	142.838	372.732	111.580	438.450	0.00049843	0.0002324	4.9425e-05	922.77	4.9554e-06	2.3619e-06	1030.3	196.78	3.3535e-06	2.523e-06	251.41	70.131	54.197	15.752	2.9589e-06	22.823	0.00040079	0.0004029	0.00010884	912.25	4.4311e-06	4.917e-06	1021.3	195.61	4.6288e-06	4.4501e-06	252.25	70.591	54.016	15.981	4.4038e-06	23.333	109.751	199.058	183.240	99.544	224.973	253.507	99.587	107.331	226.258	239.427	106.807	114.356	114.134	121.230	217.612	120.809	-8191	255	
51130.535	1	1	0	0	0.11895	0.0589	0.050658	0.14465	0.068893	0.070312	0.51005	0.22578	0.033179	0.10548	0.31062	0.084118	0.11915	0.16179	0.13926	0.085066	-2.5729	-3.3625	-3.4833	-2.8792	-3.6708	-3	-3.1521	-3.7271	-2.8979	-3.3417	-3.3958	-2.7479	-3.6354	-3.3667	-2.9	-3.7104	176.234	261.631	123.044	381.684	171.882	408.054	431.837	91.097	295.062	315.726	416.879	159.279	371.264	111.479	234.369	283.409	0.00050498	0.00018292	8.0234e-05	920.94	4.2259e-06	2.3848e-06	1031.5	196.64	4.2774e-06	2.1947e-06	251.71	70.344	53.998	15.68	2.2533e-06	22.985	0.00041125	0.00040511	0.00011531	912.71	4.3559e-06	4.9384e-06	1022.5	195.57	4.6322e-06	5.028e-06	252.38	70.605	54.067	15.986	4.456e-06	23.328	107.512	147.706	201.888	99.746	207.712	208.781	99.695	107.315	220.441	269.839	106.837	114.141	114.321	121.458	228.801	121.042	-8191	255	
51130.656	1	1	0	0	0.22821	0.18597	0.088667	0.2076	0.070221	0.047508	0.14389	0.13159	0.079964	0.21497	0.24045	0.11901	0.19848	0.19793	0.02949	0.25594	-2.6125	-3.2521	-3.5917	-3.0042	-3.5042	-3.3312	-3	-3.6937	-2.8021	-3.2083	-3.6146	-2.5938	-3.3417	-3.25	-2.9042	-3.6896	386.201	373.489	227.253	446.986	179.328	131.621	360.476	125.628	237.977	267.829	102.507	253.016	382.046	150.920	430.991	402.416	0.00047876	0.00025638	7.0262e-05	923.7	3.8737e-06	2.6372e-06	1032	196.2	3.6849e-06	3.0287e-06	252.23	70.097	53.891	15.714	3.5331e-06	22.814	0.0004098	0.00043532	0.00010833	914.99	4.7849e-06	4.5428e-06	1023.7	195.78	4.6763e-06	4.8858e-06	252.57	70.592	53.974	16.023	4.4647e-06	23.355	107.385	158.383	193.668	99.548	222.644	221.020	99.496	107.823	234.341	233.633	106.995	113.474	114.283	121.690	236.015	120.956	-8191	255	
51130.750	1	1	0	0	0.1275	0.13512	0.15748	0.1161	0.12939	0.22853	0.16087	0.31258	0.1715	0.31941	0.17577	0.33282	0.17806	0.087483	0.16447	0.30519	-2.625	-3.0292	-3.5375	-2.9938	-3.3146	-3.55	-2.9562	-3.7375	-3.2229	-3.2583	-3.7188	-2.7313	-3.4188	-3.4646	-2.7625	-3.7083	141.650	380.548	389.541	399.348	407.653	372.555	344.068	370.846	100.089	304.302	362.592	377.620	145.926	381.238	256.143	395.306	0.00049704	0.00037251	8.2803e-05	922.25	3.5646e-06	2.465e-06	1032.3	195.85	4.2436e-06	2.9977e-06	250.56	70.376	53.942	15.627	3.3504e-06	22.788	0.00039686	0.00046074	0.00010641	913.7	4.4521e-06	4.5397e-06	1021.5	195.17	4.7759e-06	5.0372e-06	251.8	70.476	54.005	15.937	4.5381e-06	23.294	109.237	177.092	184.345	99.779	226.760	224.716	99.666	107.328	244.129	230.699	107.057	113.784	113.814	121.825	223.633	120.484	-8191	255	
51130.824	1	1	0	0	0.21213	0.27318	0.24274	0.089248	0.17325	0.09041	0.15393	0.16419	0.040456	0.077065	0.37499	0.10794	0.13792	0.10972	0.25247	0.10075	-2.875	-2.9896	-3.5438	-3.0292	-3.1396	-3.4229	-2.7562	-3.7562	-3.3896	-2.8896	-3.7583	-2.9979	-3.2458	-3.6208	-2.7292	-3.5667	343.683	418.515	419.734	408.088	380.843	166.510	113.869	145.160	239.033	289.607	108.853	105.930	174.483	307.990	429.127	440.784	0.00048765	0.00032219	6.0619e-05	921.2	3.413e-06	2.4061e-06	1034.8	196.39	2.5297e-06	1.8936e-06	251.97	71.011	54.213	15.704	2.0622e-06	22.752	0.00039898	0.0004479	0.00010786	913.95	4.4421e-06	4.5963e-06	1023.4	195.83	4.3719e-06	5.1182e-06	252.28	70.84	54.132	15.998	4.196e-06	23.334	108.493	170.520	190.381	99.440	229.763	260.610	99.627	107.407	237.717	225.362	107.288	113.952	114.343	121.383	240.724	120.621	-8191	255	
51130.941	1	1	0	0	0.12731	0.182	0.090686	0.093143	0.070115	0.11872	0.089575	0.22387	0.086343	0.13934	0.32026	0.046535	0.23046	0.44073	0.17266	0.16299	-2.9688	-2.8375	-3.5875	-3.1188	-3.1208	-3.4813	-3.1312	-3.5646	-3.375	-2.9292	-3.8792	-2.9854	-2.9042	-3.3479	-2.8708	-3.3792	95.682	309.277	163.989	429.536	270.034	125.350	108.107	358.816	368.787	147.980	314.217	381.028	447.944	402.880	414.823	336.058	0.00050822	0.00022046	9.2512e-05	924.69	3.9151e-06	1.9173e-06	1029.3	196.57	4.0706e-06	2.4793e-06	252.48	70.109	54.007	15.737	3.5874e-06	22.829	0.00040121	0.00043805	0.00011302	914.75	4.8657e-06	4.1502e-06	1023	196.19	4.4183e-06	5.0968e-06	252.49	70.471	54.026	16.024	4.7496e-06	23.334	108.220	167.703	200.854	99.846	234.692	229.080	99.656	107.418	232.848	255.449	107.209	113.899	114.411	121.763	231.260	121.342	-8191	255	
51131.039	1	1	0	0	0.30333	0.26384	0.22092	0.17698	0.08434	0.1007	0.14668	0.20298	0.018825	0.14263	0.34232	0.05363	0.11779	0.071596	0.24822	0.086926	-2.9958	-2.6688	-3.4896	-3.2687	-2.8896	-3.6917	-3.15	-3.5812	-3.4583	-2.7875	-3.7208	-3.2521	-2.8438	-3.6896	-3.0542	-3.3021	349.282	105.279	221.504	308.022	180.884	273.749	415.082	100.188	300.014	293.882	323.845	364.779	380.648	227.701	434.380	155.955	0.00049854	0.00023662	6.5257e-05	923.4	3.6452e-06	2.233e-06	1035.4	196.44	3.6343e-06	2.239e-06	251.81	69.737	54.096	15.681	2.4152e-06	22.796	0.00040079	0.00042534	0.00011396	915.92	4.6102e-06	4.7062e-06	1025.9	195.67	4.0698e-06	4.8461e-06	252.8	70.398	54.215	16	4.5431e-06	23.363	107.085	181.506	190.891	99.832	212.646	241.128	99.536	107.277	240.850	245.385	106.918	113.853	113.996	122.061	228.746	121.126	-8191	255	
51131.133	1	1	0	0	0.12474	0.24673	0.11572	0.15111	0.25767	0.10921	0.25946	0.15052	0.21633	0.020061	0.050523	0.065274	0.41963	0.054295	0.036404	0.082755	-3.1625	-2.8271	-3.6333	-3.2083	-2.8875	-3.6958	-3.0438	-3.2438	-3.6333	-2.7104	-3.5542	-3.3729	-2.8521	-3.5	-2.9479	-3.2812	401.992	159.469	418.062	403.875	274.456	383.946	314.378	89.899	420.016	104.050	247.528	157.348	388.585	223.412	444.777	434.995	0.00049935	0.00035293	6.811e-05	928.35	3.4838e-06	2.273e-06	1031	197.23	3.4785e-06	2.7359e-06	253.88	70.548	53.975	15.794	2.6711e-06	22.935	0.00039334	0.00049433	0.00012101	918.84	4.8922e-06	4.555e-06	1027.4	195.83	4.3357e-06	5.5768e-06	254.06	70.853	54.208	16.023	4.5854e-06	23.441	107.963	173.336	203.776	99.522	222.699	232.803	99.722	107.532	229.478	242.443	107.054	114.014	114.303	121.951	227.140	120.616	-8191	255	
51131.230	1	1	0	0	0.14605	0.23921	0.16436	0.17521	0.4421	0.10508	0.094001	0.09746	0.17676	0.029114	0.21752	0.21021	0.086858	0.13686	0.15277	0.10062	-3.2562	-2.7104	-3.5854	-3.4792	-2.9646	-3.8083	-3.0625	-3.0625	-3.6792	-2.7771	-3.2792	-3.3271	-2.8583	-3.6125	-3.1896	-2.9771	178.085	208.494	286.024	272.043	262.793	430.426	447.593	189.258	407.666	440.415	311.895	138.194	109.095	308.082	103.375	281.380	0.00049865	0.00023769	9.3594e-05	932.47	4.1632e-06	1.746e-06	1040.9	197.07	2.6865e-06	3.0231e-06	252.33	70.913	53.835	15.81	2.4874e-06	22.812	0.00040737	0.00044648	0.00012628	920.95	5.1211e-06	4.6512e-06	1032.1	196.32	4.3855e-06	5.4637e-06	253.31	70.761	54.258	16.039	4.828e-06	23.358	107.778	196.595	189.304	99.778	223.132	258.881	99.664	107.582	214.524	236.778	106.957	113.544	114.349	121.573	221.413	120.507	-8191	255	
51131.324	1	1	0	0	0.047572	0.32596	0.17107	0.097449	0.10991	0.091363	0.083743	0.29692	0.1096	0.18093	0.15537	0.022592	0.13486	0.18733	0.26614	0.09229	-3.2313	-2.8958	-3.3083	-3.5771	-2.6833	-3.6708	-3.1667	-2.9562	-3.6104	-2.7667	-3.2062	-3.6167	-2.7042	-3.5375	-3.2167	-2.8812	288.328	189.698	330.254	152.339	270.103	162.507	377.488	338.471	255.961	443.061	358.014	294.693	407.733	430.819	147.442	393.330	0.00050497	0.00023661	8.5005e-05	935.16	3.4788e-06	1.9601e-06	1041	196.64	3.1729e-06	1.9024e-06	254.63	70.664	53.791	15.869	2.1286e-06	22.887	0.00040908	0.00049938	0.00013101	922.53	5.0304e-06	4.8605e-06	1031.3	196.49	4.4443e-06	5.4927e-06	254.24	70.876	54.076	16.027	4.9996e-06	23.38	110.347	187.889	198.091	99.920	229.048	215.438	99.902	107.470	212.984	248.026	107.134	113.926	114.649	121.903	244.260	120.349	-8191	255	
51131.445	1	1	0	0	0.1658	0.15094	0.12697	0.28624	0.30514	0.18928	0.30753	0.16505	0.11241	0.1884	0.10383	0.12838	0.17479	0.2216	0.10756	0.016433	-3.2958	-2.9354	-3.2333	-3.6208	-2.7896	-3.3917	-3.4729	-2.75	-3.6208	-2.9688	-3.2979	-3.5354	-2.8354	-3.5417	-3.3063	-2.9354	120.288	405.020	321.548	110.424	363.833	233.185	393.689	170.837	167.526	155.660	348.971	104.359	410.783	444.811	364.696	259.563	0.00052952	0.00026241	4.7015e-05	927.89	3.0984e-06	3.5183e-06	1036.7	197.27	3.0793e-06	1.3607e-06	253.29	70.362	53.984	15.837	2.1731e-06	22.917	0.00040908	0.0004964	0.00013224	920.61	5.1377e-06	5.4593e-06	1029.3	196.26	4.8969e-06	5.0295e-06	253.57	70.797	53.973	16.04	4.3266e-06	23.414	110.179	156.284	204.585	100.011	220.964	228.415	99.579	107.932	231.381	221.272	106.872	113.996	114.636	122.109	233.826	120.872	-8191	255	
51131.520	1	1	0	0	0.17036	0.24592	0.101	0.19066	0.12146	0.060063	0.3482	0.11776	0.18124	0.089306	0.19377	0.22311	0.17356	0.1082	0.20498	0.23839	-3.3438	-2.9333	-2.9792	-3.8208	-2.9792	-3.2854	-3.5625	-2.7938	-3.6063	-3.0271	-3.1437	-3.5062	-3	-3.4229	-3.3854	-2.9271	99.487	104.156	208.891	442.774	117.266	244.287	410.168	256.629	201.384	293.306	443.997	302.869	410.592	331.099	309.959	375.171	0.00050874	0.00017397	6.8466e-05	927.96	3.5332e-06	2.9254e-06	1041.2	196.82	5.3473e-06	3.1941e-06	253.71	71.148	54.074	15.639	3.0128e-06	22.812	0.00042046	0.00049186	0.00013024	920.7	5.1277e-06	5.163e-06	1029.9	196.4	4.2995e-06	5.2894e-06	253.73	70.919	54.084	15.994	4.3751e-06	23.35	107.537	166.573	184.316	100.029	233.393	227.998	100.064	107.586	220.067	242.329	107.165	113.838	114.512	122.210	217.850	121.143	-8191	255	
51131.613	1	1	0	0	0.19631	0.22378	0.12293	0.20236	0.55104	0.23528	0.10836	0.045898	0.012747	0.081585	0.17539	0.30665	0.131	0.036555	0.075162	0.082182	-3.2417	-3.0375	-2.9229	-3.8604	-2.7729	-2.9854	-3.5667	-2.7917	-3.5062	-3.2625	-2.9292	-3.7021	-2.8979	-3.1229	-3.4583	-2.7271	361.130	122.363	139.766	344.736	381.579	350.532	340.794	438.404	212.941	97.640	89.500	376.003	123.097	100.890	342.169	381.597	0.0004813	0.00027832	4.9019e-05	930.3	2.5959e-06	2.2548e-06	1036.8	196.54	3.7529e-06	2.2927e-06	252.95	70.67	54.253	15.704	2.7638e-06	22.802	0.00040825	0.00044764	0.00014711	920.25	5.2693e-06	5.2134e-06	1027.8	196.03	4.4681e-06	4.7605e-06	253.77	70.768	54.015	15.979	4.3378e-06	23.312	108.446	166.595	203.110	99.727	239.416	241.135	99.824	107.388	231.100	234.049	107.089	114.152	114.264	121.645	224.927	120.553	-8191	255	
51131.734	1	1	0	0	0.11853	0.056897	0.1342	0.12668	0.147	0.24762	0.2245	0.1127	0.10384	0.068213	0.20898	0.29281	0.27084	0.13699	0.099119	0.31462	-3.0583	-3.3333	-2.7167	-3.7875	-2.9167	-3.1083	-3.7854	-2.7417	-3.3937	-3.1958	-2.7083	-3.6688	-2.9896	-3.175	-3.6375	-2.9604	94.164	262.183	154.353	313.017	132.672	269.668	414.540	336.709	125.860	387.270	370.544	126.748	339.440	140.536	207.947	424.400	0.00048747	0.00030445	7.32e-05	930.58	3.4018e-06	1.7128e-06	1037	197.74	3.6504e-06	2.7168e-06	253.96	70.101	53.911	15.685	2.886e-06	22.903	0.00041632	0.00045205	0.00013217	920.49	4.9785e-06	5.4898e-06	1028.3	196.34	4.8109e-06	4.9898e-06	253.3	70.498	54.012	15.959	4.7148e-06	23.266	109.083	179.213	182.519	99.786	226.413	243.882	99.791	107.498	224.028	232.677	106.798	114.053	114.083	121.724	244.017	120.688	-8191	255	
51131.832	1	1	0	0	0.1161	0.20619	0.17118	0.18322	0.21994	0.08309	0.31283	0.18106	0.080381	0.21669	0.19073	0.17859	0.17194	0.09797	0.28189	0.083746	-3.0062	-3.3708	-2.8479	-3.6625	-3.0458	-2.9646	-3.5646	-2.7938	-3.35	-3.4708	-3.0292	-3.6354	-3.2375	-3.0563	-3.6354	-2.9667	398.424	203.810	304.448	98.114	382.140	235.387	410.387	331.334	204.967	157.801	340.993	276.405	446.716	288.813	336.967	385.200	0.00051325	0.00046386	5.0107e-05	930.28	3.2006e-06	2.0336e-06	1035.5	196.01	3.7964e-06	2.7728e-06	250.71	70.349	53.643	15.634	3.3019e-06	22.835	0.00042517	0.00050276	0.00012963	920.56	5.0791e-06	5.4898e-06	1027.7	196.3	4.7645e-06	5.1839e-06	252.68	70.625	53.872	15.953	4.6215e-06	23.295	112.071	198.354	182.837	99.892	220.757	227.304	99.973	107.677	225.864	228.577	107.187	113.547	114.245	121.572	228.639	120.653	-8191	255	
51131.926	1	1	0	0	0.071667	0.38267	0.095226	0.14046	0.29072	0.082058	0.096236	0.084831	0.18959	0.10581	0.045738	0.29292	0.26224	0.09411	0.23546	0.049519	-2.8438	-3.6188	-2.7479	-3.7396	-3.2625	-3	-3.8833	-3.1312	-3.2083	-3.6688	-2.75	-3.4958	-3.3479	-2.9062	-3.75	-3.1437	274.560	394.856	132.482	414.391	100.861	328.007	387.354	191.499	247.663	341.398	118.483	417.378	425.158	438.662	234.714	251.155	0.00050873	0.00022157	6.2362e-05	930.82	3.9654e-06	1.8289e-06	1036.4	196.44	3.4649e-06	2.983e-06	251.61	70.925	54.172	15.722	3.8701e-06	22.748	0.00042725	0.00045931	0.00013475	921.99	4.8004e-06	5.6197e-06	1029.5	196.36	4.9716e-06	5.2115e-06	253.55	70.86	53.998	15.962	4.8653e-06	23.216	107.708	192.958	180.841	99.848	219.410	244.156	99.893	107.706	240.957	250.376	107.381	114.161	114.309	121.988	225.616	121.118	-8191	255	
51132.023	1	1	0	0	0.21886	0.22701	0.2908	0.040467	0.051905	0.086943	0.13928	0.18069	0.092083	0.15996	0.13507	0.069052	0.32727	0.18494	0.17443	0.30445	-2.8458	-3.5583	-2.6646	-3.5187	-3.2625	-2.8458	-3.7667	-3.1437	-3.0687	-3.8146	-2.9542	-3.2708	-3.3729	-2.7562	-3.6417	-3.1688	277.482	264.129	444.857	115.693	89.867	125.264	366.368	407.720	276.904	390.377	216.690	441.629	136.331	404.702	361.853	364.925	0.00051168	0.00019135	6.3081e-05	931.37	3.526e-06	2.9147e-06	1037.7	197.35	2.7536e-06	4.5822e-06	253.81	70.694	53.985	15.86	3.3002e-06	22.905	0.00042947	0.00041808	0.00014732	920.74	4.8933e-06	5.4517e-06	1029.8	196.65	4.9365e-06	5.1901e-06	253.89	70.889	54.036	16.022	4.3926e-06	23.258	103.410	206.021	184.348	99.961	236.024	250.569	99.843	107.555	192.697	243.486	107.240	114.181	114.566	121.730	226.196	120.748	-8191	255	
51132.117	1	1	0	0	0.163	0.31534	0.21365	0.28031	0.14848	0.14033	0.19711	0.16053	0.060012	0.169	0.12888	0.11178	0.21939	0.136	0.14092	0.087644	-2.6437	-3.4292	-2.8583	-3.3479	-3.2938	-2.7271	-3.7542	-3.3812	-2.8917	-3.8083	-3.1937	-3.3875	-3.6604	-2.7938	-3.5458	-3.3896	176.155	239.084	155.381	370.816	347.003	439.495	292.874	244.409	336.618	347.099	428.876	92.778	349.301	253.039	277.552	408.652	0.00051909	0.00030618	7.8653e-05	928.47	3.4918e-06	3.0364e-06	1033.6	197.73	3.9086e-06	3.245e-06	252.77	70.386	54.128	15.735	3.3726e-06	22.717	0.00042792	0.00043143	0.0001345	921.6	4.6202e-06	5.8106e-06	1029.9	196.99	4.7759e-06	4.5709e-06	254.13	70.744	54.155	16.011	4.4473e-06	23.24	108.251	173.761	179.500	100.208	239.635	241.105	99.985	107.594	241.127	237.809	107.468	114.196	114.453	122.362	224.086	120.805	-8191	255	
51132.215	1	1	0	0	0.27266	0.11162	0.11534	0.047196	0.11138	0.30085	0.45355	0.11992	0.11827	0.27366	0.10904	0.22922	0.05535	0.20449	0.14169	0.26692	-2.6417	-3.6958	-2.9979	-3.2021	-3.5354	-2.8667	-3.7146	-3.2188	-2.8479	-3.7729	-3.2938	-3.0896	-3.8104	-2.775	-3.4896	-3.3979	316.415	118.121	327.080	284.828	274.032	94.719	365.881	413.325	319.491	299.602	224.882	416.563	274.327	166.400	143.465	440.469	0.00050574	0.00031001	5.2559e-05	931.25	4.1941e-06	1.236e-06	1037.9	197.54	3.1702e-06	1.9469e-06	252.71	70.776	53.946	15.677	3.1288e-06	22.635	0.00042207	0.00041354	0.00012494	921.07	4.6135e-06	5.635e-06	1030.9	196.89	4.7125e-06	4.8446e-06	253.51	70.935	54.152	16.032	4.1749e-06	23.282	107.679	186.310	187.382	100.062	236.620	248.113	99.918	107.639	218.605	241.372	107.065	114.187	114.352	121.803	229.806	120.810	-8191	255	
51132.336	1	1	0	0	0.064512	0.21909	0.088732	0.31343	0.11327	0.15006	0.20107	0.25434	0.27305	0.066646	0.16055	0.22219	0.14389	0.21858	0.038053	0.14969	-2.3917	-3.6625	-3.0563	-3.1229	-3.7417	-2.8937	-3.5646	-3.5625	-2.9292	-3.5833	-3.1208	-2.9667	-3.7458	-3.0042	-3.2896	-3.4646	286.114	225.076	422.870	348.790	265.679	137.289	368.381	232.325	321.173	251.985	325.786	323.913	148.381	413.775	335.077	380.950	0.00047966	0.00031666	9.3056e-05	930.72	4.4276e-06	2.3747e-06	1036.1	197.81	3.6093e-06	2.363e-06	252.38	70.997	54.026	15.743	2.4285e-06	23.087	0.00043377	0.00040316	0.0001329	919.55	4.535e-06	5.5693e-06	1030.8	197.07	5.0089e-06	4.9791e-06	254.22	71.026	54.252	16.073	4.5194e-06	23.423	107.632	166.982	198.148	100.042	227.592	245.502	99.975	107.383	224.031	241.045	107.277	113.837	114.773	121.527	241.126	121.148	-8191	255	
51132.430	1	1	0	0	0.12184	0.03346	0.13889	0.19496	0.23824	0.18787	0.096934	0.24342	0.030495	0.14582	0.20092	0.12799	0.14401	0.21723	0.24152	0.21723	-2.4333	-3.5917	-3.2542	-2.9146	-3.6896	-2.9708	-3.4125	-3.5792	-2.8042	-3.6354	-3.3542	-2.7854	-3.5938	-3.0292	-3.1958	-3.7146	284.327	344.440	109.584	357.936	270.972	340.008	139.208	348.790	91.017	342.939	213.161	322.455	367.510	134.538	203.539	348.353	0.00048295	0.00024487	6.6031e-05	932.46	3.5341e-06	2.7791e-06	1044.9	198.27	3.2303e-06	1.3979e-06	253.97	70.846	54.874	15.764	3.9053e-06	23.098	0.00041684	0.00042871	0.00012498	922.69	4.556e-06	5.4089e-06	1033.4	197.09	4.777e-06	4.5358e-06	254.4	70.948	54.454	16.094	4.2557e-06	23.5	112.177	185.567	161.621	100.137	222.255	238.511	100.128	107.500	233.036	268.310	106.741	114.371	114.975	121.700	221.350	121.246	-8191	255	
51132.527	1	1	0	0	0.10372	0.1061	0.085953	0.25053	0.1198	0.067562	0.069686	0.061887	0.040395	0.15544	0.12893	0.098965	0.11663	0.052073	0.17504	0.2259	-2.6167	-3.5521	-3.3771	-2.9562	-3.6937	-3.1292	-3.2375	-3.8021	-2.9292	-3.5729	-3.4979	-2.875	-3.5438	-2.9958	-3.1875	-3.7875	324.682	388.618	299.622	370.086	363.296	369.968	151.248	193.810	311.768	136.620	411.922	225.915	168.576	305.939	245.516	257.020	0.00046977	0.00037114	5.4229e-05	930.69	2.4386e-06	2.8357e-06	1041	198.03	3.933e-06	3.388e-06	253.42	70.776	54.454	15.803	2.2951e-06	23.085	0.00041839	0.0004444	0.00012069	923.38	4.5273e-06	5.1248e-06	1033.5	197.31	4.7238e-06	4.9699e-06	254.92	71.177	54.537	16.121	4.5481e-06	23.529	112.939	176.002	212.680	99.954	210.319	241.304	100.022	107.502	234.834	241.913	107.491	114.112	114.721	122.035	249.285	121.206	-8191	255	
51132.621	1	1	0	0	0.20946	0.35673	0.074336	0.20131	0.051823	0.22492	0.095447	0.042335	0.20151	0.047353	0.030526	0.15384	0.15699	0.099796	0.12573	0.1115	-2.575	-3.3125	-3.4292	-2.9917	-3.6792	-3.2417	-3.1667	-3.8271	-2.95	-3.3875	-3.6896	-2.7625	-3.5687	-3.2146	-2.8375	-3.6208	392.218	431.586	242.293	419.011	156.815	177.426	126.511	269.667	111.922	176.155	414.236	373.559	98.263	110.202	447.563	200.912	0.00050853	0.00027375	5.0985e-05	931.25	3.782e-06	2.3094e-06	1048.1	198.51	3.226e-06	1.8667e-06	253.83	70.877	54.038	15.849	2.2391e-06	23.095	0.00043724	0.00043325	0.00011117	923.52	4.7872e-06	5.0392e-06	1035.5	197.62	4.7329e-06	5.0142e-06	254.74	71.081	54.441	16.182	4.5406e-06	23.525	111.516	176.700	188.571	99.867	197.532	256.174	99.875	107.606	228.108	232.883	107.158	114.243	114.786	121.968	252.948	120.962	-8191	255	
51132.742	1	1	0	0	0.12017	0.17825	0.14039	0.13981	0.10162	0.16607	0.14504	0.11454	0.19531	0.24287	0.08966	0.16544	0.034768	0.17809	0.19119	0.24117	-2.5625	-3.2625	-3.4313	-2.7875	-3.5708	-3.3854	-3.0667	-3.8937	-3.0146	-3.1458	-3.5938	-3.0354	-3.5083	-3.35	-2.6896	-3.775	340.881	294.344	292.191	118.811	120.647	278.167	382.595	102.744	157.983	175.488	301.128	102.358	360.939	341.074	390.345	347.255	0.00051182	0.00024778	7.272e-05	930.26	3.4504e-06	2.2592e-06	1045.1	198.39	4.0685e-06	2.3712e-06	253.96	71.175	54.547	15.885	2.9711e-06	23.072	0.00041943	0.00042962	0.00011411	924.11	4.5859e-06	4.7414e-06	1034.6	197.68	4.7487e-06	5.1717e-06	254.45	71.124	54.471	16.157	4.9797e-06	23.556	110.781	175.900	185.402	100.002	233.253	229.977	99.909	107.778	232.172	240.682	107.377	113.966	114.330	122.169	247.720	120.862	-8191	255	
51132.816	1	1	0	0	0.142	0.13223	0.10678	0.037211	0.070101	0.2322	0.32408	0.14182	0.13274	0.074382	0.023883	0.1635	0.31474	0.07397	0.13371	0.11333	-2.5104	-2.8896	-3.5521	-2.9958	-3.3229	-3.3354	-3.0938	-3.5854	-3.0479	-3.05	-3.5979	-2.7542	-3.2875	-3.4917	-2.8333	-3.5792	382.112	293.880	442.440	374.961	198.418	424.909	420.853	421.297	285.053	210.676	416.256	273.454	434.043	332.744	123.069	388.835	0.00050077	0.00042801	6.5963e-05	935.05	3.4717e-06	1.9263e-06	1044.5	198.05	3.8347e-06	1.3429e-06	253.96	71.015	54.494	15.959	2.4482e-06	23.14	0.00041726	0.00049653	0.0001192	925.28	4.859e-06	4.9735e-06	1034.6	197.74	4.6672e-06	5.3246e-06	255.18	71.33	54.672	16.219	4.7098e-06	23.59	107.563	171.594	187.415	100.024	218.226	245.362	99.983	107.985	219.462	283.348	107.129	114.156	114.473	121.777	221.989	120.979	-8191	255	
51132.910	1	1	0	0	0.031646	0.15798	0.33685	0.30799	0.1033	0.15564	0.21736	0.080533	0.070176	0.088612	0.14629	0.090182	0.16509	0.30405	0.17762	0.11911	-2.8312	-2.9042	-3.5792	-2.9896	-3.1917	-3.4229	-2.85	-3.5104	-3.3604	-2.9021	-3.4854	-2.775	-3.15	-3.6146	-2.6771	-3.4833	358.650	97.739	242.669	433.158	403.722	336.166	369.656	408.368	188.941	197.639	410.327	114.816	379.524	447.114	315.701	304.425	0.00052764	0.00026396	6.8018e-05	936.57	2.9145e-06	1.87e-06	1045.3	198.33	3.5681e-06	1.9378e-06	255.83	71.354	54.443	15.996	3.7612e-06	23.122	0.00042807	0.00045724	0.00011375	924.94	4.8137e-06	4.5077e-06	1036.6	197.66	4.5496e-06	5.1167e-06	255.41	71.487	54.682	16.227	4.9822e-06	23.598	105.365	147.416	197.046	99.930	230.611	233.946	99.776	107.537	223.063	243.901	106.919	114.025	114.456	122.109	231.710	121.231	-8191	255	
51133.008	1	1	0	0	0.079764	0.13308	0.10829	0.33702	0.040305	0.19718	0.24113	0.14496	0.045135	0.12076	0.11016	0.18996	0.072253	0.088089	0.14628	0.26354	-2.95	-2.7125	-3.5396	-3.1521	-3.0167	-3.6937	-2.9938	-3.5583	-3.3375	-2.7667	-3.5938	-2.9292	-3.1417	-3.7292	-2.7521	-3.4104	283.066	359.761	141.838	386.475	208.334	367.799	398.568	113.723	195.770	165.364	94.717	387.819	144.518	196.980	444.357	228.612	0.00051764	0.00035565	7.6334e-05	929.15	4.2584e-06	3.2504e-06	1043.6	197.51	3.7046e-06	3.7389e-06	253.33	71.433	54.448	15.883	3.522e-06	22.958	0.00040659	0.00049498	0.00011375	924.25	4.8657e-06	5.1874e-06	1035.6	197.51	4.3188e-06	5.4729e-06	255.17	71.458	54.577	16.19	4.8479e-06	23.592	108.506	169.104	190.990	99.972	229.968	234.770	100.074	107.707	202.574	269.294	107.494	113.882	114.423	122.264	235.666	121.161	-8191	255	
51133.129	1	1	0	0	0.08151	0.27766	0.14097	0.046476	0.1896	0.11774	0.018513	0.069663	0.16073	0.20239	0.037251	0.1816	0.060792	0.16972	0.087565	0.14991	-3.2146	-2.8292	-3.4833	-3.2083	-2.9333	-3.6604	-3.025	-3.3958	-3.5271	-2.9521	-3.5917	-3.1833	-2.8688	-3.6708	-2.9625	-3.3104	311.122	445.908	122.239	395.009	426.153	170.091	381.918	373.346	376.527	93.495	336.229	138.955	369.471	402.122	350.681	198.919	0.00048577	0.00024267	4.7497e-05	937.18	3.2561e-06	2.5874e-06	1043.2	198.94	4.4336e-06	1.9985e-06	256.16	71.512	54.578	15.792	2.7517e-06	22.946	0.00040411	0.00047902	0.00012011	926.76	5.0227e-06	4.5199e-06	1034.4	197.88	4.4511e-06	4.8507e-06	255.8	71.676	54.703	16.145	4.5866e-06	23.561	110.905	186.678	177.430	99.955	227.459	243.770	99.807	107.523	235.591	259.437	107.337	113.968	114.592	122.289	241.579	120.625	-8191	255	
51133.223	1	1	0	0	0.029258	0.16002	0.20104	0.17406	0.33662	0.074171	0.39239	0.1319	0.15907	0.17	0.15249	0.22068	0.31211	0.23135	0.10305	0.052673	-3.1521	-2.8125	-3.5646	-3.3792	-2.6729	-3.7146	-3.0333	-3.4021	-3.3583	-2.8292	-3.5104	-3.4125	-2.7896	-3.8354	-3.0729	-3.1771	170.893	402.633	113.555	440.454	442.866	264.628	399.410	443.841	123.367	222.979	122.599	422.794	122.238	428.990	325.704	414.147	0.00048371	0.0001699	8.8713e-05	932.77	2.334e-06	2.1256e-06	1049.4	199	3.4838e-06	1.9034e-06	254.33	71.321	54.611	15.921	3.3305e-06	23.009	0.00040354	0.00045568	0.00011545	925.78	4.995e-06	4.5642e-06	1037.9	197.98	4.1287e-06	5.2894e-06	255.74	71.509	54.632	16.209	4.7993e-06	23.564	106.587	185.432	182.426	99.914	244.299	247.182	99.697	107.734	235.645	236.043	107.176	114.051	114.421	121.638	235.112	121.424	-8191	255	
51133.320	1	1	0	0	0.38075	0.40589	0.26928	0.20606	0.29672	0.04463	0.23284	0.12152	0.14882	0.051282	0.057605	0.20264	0.091364	0.28155	0.099178	0.11032	-3.3479	-2.7667	-3.4104	-3.5271	-2.8833	-3.7208	-3.0229	-3.1542	-3.3958	-2.75	-3.4333	-3.6104	-2.7417	-3.5125	-3.0104	-3.1667	183.770	129.673	393.861	443.482	136.618	342.341	418.751	254.668	402.202	347.989	422.331	221.409	279.191	426.336	242.520	343.329	0.00053786	0.00023634	0.00010836	939.19	3.3871e-06	2.9738e-06	1047.1	198.53	3.5466e-06	2.6663e-06	254.06	71.309	54.732	16.023	2.7663e-06	23.142	0.00040054	0.00050198	0.00013268	928.65	5.1499e-06	4.8116e-06	1038	197.97	4.1049e-06	5.3506e-06	255.37	71.632	54.737	16.269	4.6638e-06	23.657	108.635	173.668	178.003	99.995	230.449	220.217	99.690	108.091	231.339	270.733	107.125	113.966	114.494	121.837	234.607	120.802	-8191	255	
51133.414	1	1	0	0	0.25197	0.14415	0.060815	0.23482	0.16393	0.13478	0.24397	0.14837	0.18185	0.19948	0.24444	0.23454	0.34078	0.036317	0.16985	0.19417	-3.3729	-2.8479	-3.1688	-3.625	-2.7979	-3.3979	-3.2354	-2.9771	-3.7917	-2.9875	-3.3208	-3.475	-2.8646	-3.575	-3.2667	-2.7708	140.807	269.166	414.839	388.794	298.230	405.728	414.916	250.338	291.942	286.392	194.201	184.377	440.699	105.608	305.791	409.116	0.00053809	0.00029622	6.9264e-05	942.42	3.0676e-06	1.8105e-06	1048.1	198.12	4.4936e-06	3.9161e-06	254.7	71.504	54.86	15.999	2.5826e-06	23.152	0.00041456	0.00046956	0.00012229	931.23	5.015e-06	4.7429e-06	1040.8	198.04	4.4262e-06	5.482e-06	255.67	71.706	54.826	16.245	4.1848e-06	23.667	109.426	170.990	193.166	99.954	218.926	266.345	99.847	107.626	220.659	234.548	107.478	113.961	114.638	121.759	231.649	120.848	-8191	255	
51133.512	1	1	0	0	0.26789	0.18368	0.24298	0.2413	0.18929	0.10962	0.23703	0.23447	0.24214	0.10637	0.25007	0.09947	0.14202	0.16505	0.027787	0.23012	-3.35	-2.9562	-3.1396	-3.7854	-2.675	-3.4938	-3.5875	-2.7229	-3.5604	-3.0563	-3.1708	-3.6958	-2.8521	-3.4396	-3.4167	-3.0417	146.664	122.277	408.028	396.974	283.098	332.110	404.829	149.797	370.081	179.051	173.178	307.356	142.407	117.052	220.650	306.758	0.00050846	0.00016578	5.5376e-05	940.11	3.4799e-06	3.0002e-06	1048.2	197.63	3.4676e-06	2.1842e-06	254.09	71.647	54.8	15.949	2.856e-06	23.148	0.00040271	0.00047397	0.00012207	931.69	4.9873e-06	4.5413e-06	1039.4	198.02	4.6254e-06	5.0861e-06	256.11	71.625	54.805	16.245	4.2582e-06	23.662	109.855	165.386	201.072	99.951	213.631	236.365	99.786	107.557	224.442	213.003	107.550	113.938	114.185	122.211	225.706	121.068	-8191	255	
51133.605	1	1	0	0	0.035139	0.088297	0.079921	0.27093	0.15444	0.052266	0.22272	0.15623	0.12013	0.093389	0.036176	0.11196	0.19835	0.063062	0.12627	0.15088	-3.3854	-3.0771	-2.9917	-3.6896	-2.6917	-3.3708	-3.7062	-2.7792	-3.6646	-3.1708	-3.0208	-3.8979	-2.7938	-3.5521	-3.5438	-2.8271	317.899	378.141	207.407	120.359	192.184	443.026	410.260	93.716	224.130	138.766	172.775	308.852	155.473	274.038	162.082	419.989	0.0005133	0.00024244	8.9269e-05	937.51	3.306e-06	2.6843e-06	1053	198.84	3.059e-06	2.4225e-06	255.27	71.25	55.18	16.044	3.4365e-06	23.261	0.00040799	0.00046113	0.00012381	929.69	4.9364e-06	5.1202e-06	1041.7	198.29	4.0834e-06	4.869e-06	256.28	71.739	54.995	16.289	4.3465e-06	23.704	106.903	168.375	204.176	99.987	238.604	235.466	99.834	107.608	219.487	256.179	107.340	114.108	114.155	121.694	205.596	121.294	-8191	255	
51133.703	1	1	0	0	0.11963	0.1612	0.040113	0.094156	0.13622	0.1197	0.091021	0.069215	0.11983	0.20517	0.20621	0.083422	0.20199	0.09507	0.081432	0.19012	-3.1417	-3.0875	-2.9062	-3.8208	-2.9479	-3.2562	-3.6771	-2.9625	-3.4792	-3.1542	-2.8979	-3.6937	-3.0354	-3.0938	-3.4854	-2.8604	330.191	226.106	89.816	169.783	288.381	104.828	95.538	262.295	443.363	191.804	334.358	166.361	210.867	209.660	240.172	399.952	0.00052479	0.0002204	4.3393e-05	935.94	4.0371e-06	2.2204e-06	1049.2	198.6	3.4825e-06	3.0546e-06	254.85	72.275	54.7	15.92	3.8946e-06	23.083	0.00041363	0.00039344	0.00013028	929.41	4.9044e-06	4.8055e-06	1040.2	198.06	4.4149e-06	5.0158e-06	255.88	71.881	54.919	16.221	4.2806e-06	23.671	109.906	195.122	181.931	99.837	215.279	245.257	99.665	107.775	219.523	238.543	107.235	114.034	114.608	122.372	247.354	121.126	-8191	255	
51133.824	1	1	0	0	0.40328	0.10869	0.094939	0.20194	0.081273	0.17433	0.34268	0.3387	0.24446	0.10001	0.020993	0.14619	0.094753	0.33565	0.18122	0.15548	-3.0687	-3.5062	-2.8479	-3.8396	-3.025	-3.1688	-3.8833	-2.9625	-3.5479	-3.5396	-3.0333	-3.6104	-3.0354	-3.0583	-3.7083	-3.0417	424.891	441.439	191.348	109.613	154.505	127.806	398.648	431.473	245.151	254.538	102.134	121.715	443.305	101.038	228.296	164.645	0.00048658	0.00017213	8.701e-05	940.51	3.6334e-06	1.7004e-06	1052.6	199.46	2.9614e-06	3.5654e-06	255.07	71.272	55.241	16.04	3.1457e-06	23.206	0.00039712	0.00042352	0.00014053	931.18	4.9641e-06	5.2363e-06	1041.7	197.9	4.0053e-06	4.9531e-06	256.25	71.703	54.985	16.279	4.507e-06	23.683	110.289	182.825	184.435	100.266	210.068	236.984	99.912	107.938	225.284	254.824	107.420	114.137	114.348	121.813	241.124	121.213	-8191	255	
51133.922	1	1	0	0	0.14699	0.20849	0.11036	0.16506	0.15703	0.1472	0.07656	0.19803	0.2111	0.084664	0.030286	0.2384	0.19901	0.24389	0.018808	0.20801	-3.1562	-3.4979	-2.8167	-3.8688	-3.0875	-3.1979	-3.7875	-2.9396	-3.2292	-3.7708	-2.7354	-3.6479	-3.2542	-2.8625	-3.7021	-3.0312	163.855	420.416	152.210	386.702	238.472	423.841	91.957	360.832	286.845	159.342	446.416	112.916	409.117	322.584	359.265	139.731	0.00049846	0.00022076	6.8739e-05	941.11	3.5829e-06	2.76e-06	1049.4	200.05	4.3274e-06	2.3062e-06	255.53	71.699	54.43	15.857	3.9409e-06	23.328	0.00042517	0.00040602	0.00012051	931.9	4.7772e-06	5.5509e-06	1043.8	198.4	4.6457e-06	4.4991e-06	255.91	71.788	54.827	16.209	4.5754e-06	23.695	107.571	168.691	184.126	100.208	221.625	234.327	99.867	107.793	237.934	226.462	106.984	114.090	114.555	121.665	232.150	120.942	-8191	255	
51134.016	1	1	0	0	0.17804	0.14812	0.212	0.11094	0.039165	0.018973	0.10562	0.2061	0.23715	0.17498	0.18378	0.15438	0.29234	0.17211	0.12492	0.12707	-2.8833	-3.5292	-2.7438	-3.725	-3.4	-2.9542	-3.75	-3.0125	-3.1979	-3.6167	-2.9479	-3.6354	-3.4562	-3.0958	-3.7375	-3.1	412.829	273.668	193.090	410.908	116.884	430.980	412.882	102.244	365.659	390.373	134.414	428.813	120.503	365.298	436.932	439.738	0.0004891	0.00020942	5.1766e-05	938.86	4.6096e-06	2.5283e-06	1053.3	198.91	3.0607e-06	2.4951e-06	256.44	71.608	54.912	16.091	3.1141e-06	23.278	0.00041498	0.0004291	0.00013148	932.07	5.0824e-06	5.7144e-06	1042.2	197.97	4.7283e-06	4.8354e-06	257.01	71.746	55.009	16.293	4.15e-06	23.696	109.277	185.727	207.141	99.966	212.757	241.428	100.088	107.799	219.770	247.799	107.049	114.214	114.605	122.021	223.941	120.697	-8191	255	
51134.109	1	1	0	0	0.11487	0.076769	0.020437	0.068722	0.091381	0.19558	0.074207	0.18416	0.091707	0.020512	0.21039	0.085424	0.1872	0.15485	0.24768	0.095813	-2.7667	-3.7458	-2.9708	-3.5042	-3.4188	-2.9875	-3.7458	-2.9917	-2.8563	-3.5521	-3.0354	-3.5375	-3.4833	-2.7042	-3.6021	-3.2833	384.545	274.665	280.194	379.283	417.675	207.504	135.890	377.175	210.234	194.326	407.113	282.739	392.853	124.907	357.240	254.761	0.00050759	0.00023942	8.6613e-05	944.04	2.9275e-06	2.0661e-06	1048.3	198.63	4.1104e-06	2.9049e-06	255.2	71.671	55.013	15.975	3.2234e-06	23.06	0.00041612	0.00042339	0.00012436	933.68	4.4786e-06	5.1095e-06	1041.4	197.91	4.5598e-06	4.5556e-06	256.22	71.953	54.93	16.226	4.5505e-06	23.68	106.128	191.774	179.347	100.096	232.901	236.275	100.098	107.582	215.077	248.425	107.010	113.915	114.508	122.182	242.697	120.770	-8191	255	
51134.207	1	1	0	0	0.13447	0.3449	0.033041	0.20581	0.10304	0.071911	0.24679	0.34623	0.11056	0.31162	0.21377	0.15353	0.28432	0.034908	0.069872	0.029884	-2.5875	-3.55	-2.7792	-3.2687	-3.4458	-2.8042	-3.6896	-3.4062	-2.8417	-3.7167	-3.2354	-3.225	-3.575	-2.9188	-3.4417	-3.4708	300.796	403.573	284.606	152.038	233.570	362.516	429.725	418.878	191.017	355.170	363.059	364.536	409.550	259.517	196.845	292.291	0.00049656	0.0002842	7.0681e-05	943.61	3.5298e-06	1.7318e-06	1053.7	198.23	3.6761e-06	3.3738e-06	257.5	72.045	54.896	16.075	2.253e-06	23.156	0.0004229	0.00040148	0.00011971	933.59	4.4808e-06	5.1737e-06	1043.6	198.12	4.4998e-06	4.7375e-06	256.83	72.01	54.963	16.292	4.1127e-06	23.656	110.325	182.533	179.037	100.042	224.898	229.094	99.939	107.593	222.213	252.105	107.413	113.832	114.482	121.900	242.643	121.264	-8191	255	
51134.305	1	1	0	0	0.15667	0.14795	0.21532	0.16077	0.11207	0.078168	0.39838	0.14647	0.12539	0.13219	0.28641	0.17746	0.089887	0.15701	0.31017	0.18902	-2.7125	-3.7104	-3.0271	-3.0896	-3.7333	-2.8583	-3.4708	-3.475	-2.8729	-3.6271	-3.0708	-3.1479	-3.6979	-2.6229	-3.2958	-3.5333	180.759	343.855	383.298	389.354	199.117	199.906	104.698	275.173	417.695	305.952	112.475	218.562	175.516	98.324	206.351	149.681	0.00054346	0.00024227	6.9631e-05	940.85	3.5223e-06	3.5133e-06	1055.1	199.22	3.1814e-06	3.2081e-06	256.34	71.65	54.349	16.045	3.0901e-06	23.286	0.00043423	0.00038566	0.0001261	933.23	4.43e-06	5.3844e-06	1044.2	198.43	4.6491e-06	4.7054e-06	256.27	71.749	54.801	16.244	4.5568e-06	23.707	108.765	185.487	198.904	100.081	221.823	245.033	99.943	107.601	216.640	230.855	107.667	114.097	114.416	121.654	240.527	120.827	-8191	255	
51134.426	1	1	0	0	0.13326	0.10542	0.12849	0.058609	0.17037	0.11967	0.25711	0.011706	0.27498	0.35824	0.22384	0.26391	0.18178	0.21865	0.065119	0.1543	-2.4271	-3.7687	-3.0021	-3.1458	-3.5833	-2.9437	-3.5833	-3.5542	-2.9625	-3.5417	-3.2958	-2.9188	-3.5062	-2.9771	-3.3333	-3.7313	305.828	441.747	378.214	358.311	143.071	416.270	386.508	273.457	239.578	385.128	350.055	415.870	122.758	337.355	262.067	362.807	0.0005395	0.00021614	5.4315e-05	942.57	4.0191e-06	2.4439e-06	1053.4	199.41	3.0225e-06	2.1072e-06	254.92	72.101	54.934	15.941	4.027e-06	23.177	0.00043154	0.00042793	0.00012	934.05	4.5085e-06	5.4517e-06	1045.3	198.69	4.9773e-06	4.3676e-06	256.53	72.067	55.011	16.249	4.6849e-06	23.691	109.423	156.150	216.973	100.025	210.053	234.008	100.178	107.677	227.937	224.767	107.136	114.159	114.903	121.456	227.372	120.674	-8191	255	
51134.520	1	1	0	0	0.19049	0.10656	0.092021	0.45931	0.13864	0.19275	0.06602	0.086812	0.22707	0.084569	0.13533	0.21212	0.19137	0.11074	0.37599	0.10794	-2.3708	-3.3583	-3.3312	-2.9688	-3.65	-2.9896	-3.3542	-3.7979	-2.7438	-3.4833	-3.4958	-2.8771	-3.7479	-2.85	-3.2146	-3.7458	145.295	242.964	357.737	416.211	335.994	273.217	89.975	189.524	114.675	174.262	419.348	350.937	348.841	150.220	391.367	331.893	0.00052933	0.00028005	7.3049e-05	943.45	4.3323e-06	2.982e-06	1056	199.6	3.0329e-06	2.9676e-06	255.95	71.249	55.187	15.986	2.5773e-06	23.322	0.00043858	0.00043429	0.00012254	934.68	4.5439e-06	5.3936e-06	1045.4	198.81	4.5337e-06	5.0158e-06	256.02	71.79	55.059	16.291	4.5555e-06	23.694	110.022	185.295	182.715	100.132	221.493	236.789	99.877	107.715	214.680	240.150	107.016	114.279	114.417	121.848	208.980	121.042	-8191	255	
51134.617	1	1	0	0	0.092285	0.094443	0.12962	0.30972	0.13853	0.14585	0.18667	0.087258	0.067637	0.12487	0.16682	0.22698	0.060825	0.30256	0.039904	0.18198	-2.3354	-3.3688	-3.5042	-2.8333	-3.5667	-3.0604	-3.1312	-3.7313	-2.9188	-3.4104	-3.525	-2.8187	-3.7542	-3.2	-3.1542	-3.8146	154.018	404.162	170.408	95.264	257.028	228.531	389.025	387.752	290.033	195.672	348.247	200.777	204.936	444.884	377.403	445.917	0.00049124	0.00028362	5.3647e-05	941.08	1.8166e-06	2.4764e-06	1057.3	199.39	3.7371e-06	2.2459e-06	255.52	71.497	55.29	15.928	2.0445e-06	23.118	0.00043977	0.00042806	0.00011197	933.33	4.566e-06	5.0713e-06	1045	198.47	4.9128e-06	4.7314e-06	256.47	71.868	55.037	16.242	4.8727e-06	23.741	113.364	197.586	178.940	100.005	219.925	252.778	99.885	107.939	229.118	221.786	106.995	114.010	114.231	121.964	255.999	121.131	-8191	255	
51134.688	1	1	0	0	0.20745	0.20308	0.16856	0.28635	0.18183	0.1023	0.032176	0.11756	0.2227	0.10854	0.34441	0.12281	0.17772	0.10451	0.051646	0.16578	-2.4917	-3.2271	-3.3458	-2.7938	-3.4333	-3.1104	-3.0729	-3.6417	-2.9208	-3.2854	-3.6042	-2.8521	-3.6083	-3.3292	-2.8563	-3.875	296.079	384.358	372.481	106.033	188.166	261.342	327.823	136.594	440.087	402.974	370.425	139.129	190.031	434.039	111.888	214.541	0.00052945	0.00037579	5.9376e-05	942.53	4.3908e-06	3.7585e-06	1052.5	198.93	4.2511e-06	2.5034e-06	254.87	71.582	55.274	16.002	3.7785e-06	23.306	0.00044205	0.00044557	0.00012763	934.23	4.3968e-06	5.4669e-06	1045.3	198.68	4.9693e-06	5.0326e-06	256.27	71.911	55.062	16.255	4.9785e-06	23.727	108.046	181.399	188.095	99.868	214.934	233.523	99.905	107.692	231.876	238.338	107.003	113.970	115.044	121.960	237.086	120.837	-8191	255	
51134.809	1	1	0	0	0.12419	0.29873	0.062685	0.18204	0.098255	0.14529	0.36844	0.10455	0.17212	0.16195	0.25002	0.21969	0.50344	0.17226	0.10446	0.16271	-2.6479	-3.1896	-3.5854	-2.7583	-3.1875	-3.4021	-2.9104	-3.7542	-3.0729	-3.1417	-3.5833	-2.8396	-3.3979	-3.3104	-2.7354	-3.5104	353.375	287.811	320.413	303.115	211.919	239.153	416.637	419.648	245.693	266.017	385.728	325.598	219.360	339.600	372.139	310.857	0.00048327	0.00037244	7.947e-05	941.77	3.7423e-06	2.2248e-06	1051.1	199.02	3.9749e-06	3.3595e-06	254.36	71.521	54.902	16.024	3.5857e-06	23.28	0.00040846	0.00047449	0.00012323	935.27	4.6423e-06	4.914e-06	1045.6	198.66	4.2237e-06	5.401e-06	256.3	71.94	55.048	16.32	5.2658e-06	23.732	110.350	179.602	188.601	99.963	243.716	282.949	100.007	107.534	226.553	241.338	106.885	113.666	114.494	121.920	220.935	120.365	-8191	255	
51134.906	1	1	0	0	0.20001	0.027349	0.10753	0.098803	0.28676	0.074182	0.08866	0.062747	0.096355	0.18535	0.10078	0.16661	0.14264	0.19476	0.23529	0.32038	-2.8271	-3.025	-3.6688	-2.9562	-3.3292	-3.4875	-3.0583	-3.6333	-3.2375	-2.8854	-3.8563	-2.875	-3.4979	-3.3646	-2.9021	-3.6979	212.568	402.019	110.284	402.291	323.987	252.103	365.828	295.997	171.835	130.445	370.519	338.453	363.816	432.347	260.441	382.981	0.00052367	0.0002935	8.537e-05	944.4	3.7601e-06	2.1773e-06	1057.9	199.38	3.4704e-06	2.9609e-06	257.84	71.75	55.136	15.992	3.787e-06	23.109	0.00041472	0.00047967	0.00012301	935.44	4.6644e-06	4.9002e-06	1046.3	198.79	4.5869e-06	5.6578e-06	257.29	71.934	55.127	16.276	4.8491e-06	23.69	113.153	187.811	183.495	100.144	217.597	239.201	99.955	107.791	206.076	225.244	106.966	113.684	114.276	122.166	231.987	120.857	-8191	255	
51135.000	1	1	0	0	0.11536	0.26408	0.18133	0.24541	0.18456	0.19179	0.39213	0.20314	0.14199	0.054589	0.056421	0.10326	0.0339	0.22141	0.15002	0.082839	-2.8875	-2.9667	-3.7062	-3.0875	-3.125	-3.6688	-2.9021	-3.6625	-3.3604	-2.8458	-3.775	-3.1	-3.0333	-3.6833	-2.8667	-3.5083	115.450	244.766	175.233	106.368	126.689	220.184	410.878	160.722	368.879	128.042	380.160	416.539	373.184	217.238	264.429	433.264	0.00052486	0.00023916	8.619e-05	942.76	2.9627e-06	3.2181e-06	1053.6	199.44	3.0632e-06	3.2602e-06	255.33	71.322	55.102	16.017	2.9525e-06	23.296	0.00041984	0.00049134	0.00011131	934.17	4.9077e-06	4.6344e-06	1045.4	199.03	4.5756e-06	5.1748e-06	256.34	71.818	55.223	16.256	4.604e-06	23.743	109.732	154.091	184.181	99.872	214.427	221.222	99.751	107.502	225.769	232.218	106.946	113.949	114.204	122.356	236.533	120.783	-8191	255	
51135.098	1	1	0	0	0.2954	0.16269	0.17928	0.13815	0.14149	0.15154	0.23899	0.13209	0.16687	0.31458	0.11936	0.32075	0.19537	0.063191	0.21944	0.17897	-3.0312	-2.7396	-3.5625	-3.1729	-3.1479	-3.8042	-2.9021	-3.4729	-3.5021	-2.8521	-3.7896	-3.2042	-2.9146	-3.6292	-2.7375	-3.2438	262.777	274.460	136.170	417.910	193.505	431.728	363.660	372.496	393.829	162.878	338.224	117.880	371.346	402.412	304.656	110.223	0.00052779	0.00028559	2.9876e-05	943.29	2.8748e-06	3.1878e-06	1051.7	198.88	3.31e-06	2.9465e-06	255.58	71.515	54.887	16.013	3.7282e-06	23.118	0.00042021	0.00048071	0.00011058	934.52	5.1355e-06	5.1813e-06	1044.7	198.75	4.5462e-06	5.5019e-06	257.01	72.013	55.033	16.269	4.7496e-06	23.712	108.431	189.910	214.698	99.667	221.561	233.859	99.742	107.909	214.945	254.608	107.232	114.193	114.372	121.987	245.400	120.957	-8191	255	
51135.215	1	1	0	0	0.02809	0.22149	0.16137	0.38611	0.15304	0.12949	0.27295	0.14678	0.21047	0.10667	0.078101	0.21014	0.06172	0.22879	0.064939	0.12724	-3.1333	-2.8563	-3.675	-3.2604	-3.0021	-3.5354	-2.9813	-3.5292	-3.3875	-2.7979	-3.5375	-3.2875	-2.8875	-3.5792	-2.9521	-3.2833	281.791	234.155	205.267	364.560	209.866	283.967	308.164	372.784	258.683	145.277	144.053	424.634	261.365	167.634	125.592	129.870	0.00050122	0.00027208	8.8265e-05	942.66	3.4527e-06	3.0096e-06	1053	198.96	4.113e-06	2.8931e-06	255.66	71.575	54.887	15.991	2.5948e-06	23.456	0.00040463	0.00045983	0.00011516	934.02	4.9973e-06	4.6161e-06	1045.6	198.58	4.4523e-06	5.3154e-06	256.74	72.039	55.19	16.251	4.7483e-06	23.787	110.885	179.657	189.807	99.804	211.368	247.507	99.653	107.908	238.627	251.588	107.336	114.269	114.451	121.864	248.631	121.034	-8191	255	
51135.285	1	1	0	0	0.19272	0.083754	0.0012638	0.17593	0.16209	0.30086	0.20967	0.2781	0.19743	0.11667	0.21345	0.16854	0.39021	0.12246	0.111	0.19117	-3.125	-2.8688	-3.5917	-3.3812	-2.9354	-3.6813	-2.9604	-2.9667	-3.5042	-2.9188	-3.5479	-3.3604	-2.9562	-3.7479	-3.0042	-3.0958	339.274	159.105	180.000	321.056	341.526	367.251	132.321	346.573	141.628	423.832	324.203	354.844	443.768	365.615	418.455	415.887	0.00047804	0.00023016	8.2416e-05	943.32	3.7606e-06	2.1644e-06	1051.8	199.62	3.2477e-06	2.7283e-06	256.36	71.913	55.048	16.019	3.6122e-06	23.386	0.00039567	0.00047928	0.00012196	936.19	5.2538e-06	4.3549e-06	1044.5	198.85	4.0438e-06	5.2206e-06	257.29	72.051	55.087	16.284	4.7123e-06	23.782	108.171	181.308	179.622	100.342	231.014	247.798	99.543	107.844	213.685	244.851	107.497	114.060	114.247	122.044	247.115	120.875	-8191	255	
51135.387	1	1	0	0	0.15461	0.11238	0.22437	0.2407	0.17435	0.11867	0.35469	0.16565	0.041928	0.1859	0.12191	0.053052	0.04689	0.19977	0.26993	0.16912	-3.3208	-2.8167	-3.4417	-3.4333	-2.6833	-3.7438	-3.2792	-3.1875	-3.6208	-2.8021	-3.4958	-3.5208	-2.8083	-3.6583	-3.1813	-2.8521	97.405	176.257	225.341	431.304	165.538	269.387	262.547	420.730	360.518	369.430	213.317	385.221	315.447	238.723	155.412	401.590	0.00049855	0.00031299	6.4441e-05	943.29	2.8963e-06	2.2641e-06	1054.7	199.08	3.3474e-06	2.6554e-06	257.16	72.169	54.984	16.11	3.5109e-06	23.446	0.00041084	0.00047643	0.00012254	934.33	4.7783e-06	4.7123e-06	1045.6	198.75	4.123e-06	4.9883e-06	257.15	72.253	55.21	16.33	4.6501e-06	23.832	108.018	189.928	151.997	99.538	230.882	258.143	99.749	107.552	228.808	267.551	107.321	113.954	114.414	122.308	244.925	121.351	-8191	255	
51135.504	1	1	0	0	0.17011	0.23804	0.29194	0.18341	0.079235	0.065401	0.16699	0.13553	0.13904	0.24468	0.29178	0.23107	0.19647	0.010759	0.20504	0.16954	-3.3542	-2.8	-3.2708	-3.5125	-2.7375	-3.65	-3.3312	-2.775	-3.7062	-2.8833	-3.1875	-3.6167	-2.6146	-3.4688	-3.2792	-2.8583	320.208	357.007	382.679	386.553	386.239	359.102	387.678	341.688	108.823	139.721	380.072	413.716	159.448	372.325	413.477	448.382	0.00050797	0.0004003	6.2835e-05	942.18	3.2718e-06	2.7762e-06	1056.4	201.13	2.3301e-06	3.0925e-06	257.96	72.237	54.834	16.202	4.2197e-06	23.34	0.00040204	0.00046152	0.0001188	934.85	4.9154e-06	4.8345e-06	1046.3	199.71	4.3685e-06	5.1686e-06	257.75	72.314	55.14	16.382	4.4635e-06	23.835	107.379	195.946	176.133	99.933	200.916	235.369	99.795	107.769	227.956	227.667	107.131	114.021	114.655	121.952	239.272	120.970	-8191	255	
51135.602	1	1	0	0	0.061091	0.29531	0.083371	0.23928	0.11664	0.19664	0.12288	0.17492	0.23695	0.090361	0.11683	0.13075	0.061351	0.15433	0.10686	0.20756	-3.2146	-2.9292	-3.0938	-3.5563	-2.85	-3.5167	-3.5	-2.7417	-3.5354	-3.1562	-3.1354	-3.7583	-2.9083	-3.5583	-3.3667	-2.9021	252.643	364.323	395.499	394.535	439.086	180.413	302.218	426.561	348.552	359.848	143.666	158.698	106.595	311.628	275.857	251.787	0.00053468	0.00031927	8.334e-05	941.61	3.0314e-06	2.3585e-06	1059.8	200.23	4.5635e-06	2.3335e-06	257.17	71.826	55.172	16.108	3.3873e-06	23.276	0.00039645	0.00044816	0.00012603	934.14	5.0725e-06	4.746e-06	1047.4	199.28	4.3572e-06	5.0846e-06	257.6	72.246	55.127	16.356	4.4896e-06	23.805	109.798	190.132	182.604	99.654	224.405	219.513	99.929	107.919	237.782	254.064	107.243	114.078	114.665	121.993	231.201	121.281	-8191	255	
51135.695	1	1	0	0	0.08911	0.16817	0.14301	0.19831	0.10088	0.1088	0.14003	0.24294	0.10605	0.17938	0.23854	0.020134	0.19879	0.23233	0.15163	0.22954	-3.1729	-3.1042	-2.9062	-3.7729	-2.7208	-3.1729	-3.6396	-2.6813	-3.7771	-3.1604	-3.1146	-3.7313	-2.8125	-3.2833	-3.4375	-2.7021	209.528	165.499	348.503	376.765	149.651	322.936	285.255	350.799	228.031	285.527	314.158	166.368	390.908	185.202	199.528	323.392	0.0005033	0.00027411	0.00010217	945.18	3.3421e-06	2.3369e-06	1052.7	199.11	3.0155e-06	3.0633e-06	256.8	72.183	55.012	15.92	1.8889e-06	23.509	0.00039634	0.00047436	0.0001285	934.73	5.1698e-06	5.0438e-06	1043.9	199.36	4.054e-06	4.9791e-06	257.3	72.423	55.266	16.308	4.3291e-06	23.846	110.403	185.365	180.193	100.032	227.166	217.929	99.539	107.818	222.528	250.267	107.221	113.914	113.783	121.504	214.545	120.907	-8191	255	
51135.816	1	1	0	0	0.23328	0.10727	0.054046	0.13513	0.05408	0.082022	0.059086	0.21552	0.14763	0.25289	0.032588	0.27113	0.20087	0.19073	0.079462	0.20593	-3.1292	-3.2562	-2.6958	-3.7062	-2.8438	-3.2104	-3.6458	-2.8417	-3.6729	-3.1896	-2.9562	-3.7604	-2.9021	-3.1479	-3.5833	-2.9104	288.928	191.439	224.298	325.708	411.952	93.190	114.611	146.215	442.679	137.280	267.726	91.119	109.864	352.481	426.703	343.967	0.00048156	0.00024529	8.9196e-05	944.24	2.9996e-06	2.4352e-06	1054.6	200.25	3.8773e-06	4.3648e-06	256.49	72.311	55.058	16.068	3.2302e-06	23.383	0.00040639	0.00041432	0.00012883	935.23	4.921e-06	5.0056e-06	1045.2	199.75	4.519e-06	5.161e-06	256.91	72.365	55.18	16.339	4.2694e-06	23.858	107.062	165.900	175.438	100.041	220.233	232.284	99.846	107.811	217.667	235.918	106.895	114.044	114.658	122.176	228.689	121.158	-8191	255	
51135.914	1	1	0	0	0.23577	0.16544	0.057786	0.090366	0.062898	0.27085	0.14275	0.36084	0.064166	0.11254	0.13055	0.24407	0.094514	0.21118	0.04651	0.17379	-3.1229	-3.3021	-2.7333	-3.725	-2.8646	-3.125	-3.5875	-2.7625	-3.3833	-3.4062	-2.9062	-3.675	-3.1729	-2.9729	-3.7729	-2.8229	436.772	437.534	240.192	233.666	424.466	115.246	431.242	142.698	396.228	164.219	439.365	339.317	375.995	421.211	441.689	412.390	0.0004771	0.00016419	8.0569e-05	943.21	4.0758e-06	1.9136e-06	1050.2	198.69	2.4912e-06	3.7725e-06	254.49	72.027	54.929	16.075	2.5825e-06	23.437	0.000398	0.00042171	0.00012617	935.32	4.796e-06	4.9033e-06	1044.7	199.04	4.5281e-06	4.8614e-06	256.55	72.181	55.142	16.34	4.2719e-06	23.813	107.972	183.072	172.802	99.963	220.141	258.501	99.727	107.625	244.468	258.930	107.069	113.899	114.137	121.674	219.237	120.557	-8191	255	
51135.984	1	1	0	0	0.1063	0.0014189	0.082545	0.20253	0.052248	0.22706	0.027404	0.1823	0.004923	0.01383	0.19385	0.072096	0.25014	0.28856	0.11511	0.2187	-3.0312	-3.4396	-2.6813	-3.5854	-3.1312	-2.8312	-3.8333	-2.9188	-3.2188	-3.5938	-2.8563	-3.6063	-3.3354	-2.8771	-3.7229	-2.8125	250.856	180.000	375.259	398.286	218.020	306.058	188.588	137.776	304.266	350.147	431.494	305.059	326.368	121.771	263.951	337.180	0.00053518	0.00022976	6.8218e-05	945.76	3.2851e-06	1.8911e-06	1052.2	201.56	4.5717e-06	2.4704e-06	255.97	71.99	54.788	16.062	2.812e-06	23.485	0.00042031	0.0004186	0.0001353	935.39	4.7064e-06	5.6548e-06	1045.1	199.89	4.8528e-06	4.6229e-06	256.65	72.162	55.096	16.343	4.0442e-06	23.837	109.729	166.708	166.206	99.989	206.030	244.883	99.870	107.703	228.842	226.681	106.894	113.917	114.085	121.738	237.718	120.624	-8191	255	
51136.105	1	1	0	0	0.10806	0.26393	0.18976	0.40104	0.11332	0.18799	0.18571	0.32821	0.18757	0.15235	0.17719	0.30688	0.11298	0.097904	0.089161	0.33564	-2.7542	-3.6312	-2.7313	-3.5604	-3.4896	-2.8771	-3.8833	-3.0458	-2.9667	-3.675	-2.7271	-3.5208	-3.3646	-2.8875	-3.55	-3.2604	381.437	137.308	341.647	377.175	382.823	376.727	442.272	403.816	122.837	313.817	314.466	357.124	190.543	221.797	228.264	331.592	0.00050143	0.00036621	9.5328e-05	943.76	3.8855e-06	2.1771e-06	1051.8	199.6	4.2831e-06	3.611e-06	257.74	71.535	54.914	16.045	3.317e-06	23.27	0.0004156	0.00040809	0.00012581	936.07	4.5704e-06	5.4196e-06	1046.6	198.87	4.708e-06	4.6749e-06	257.3	72.061	55.208	16.342	4.1027e-06	23.838	107.063	192.189	180.833	99.978	227.914	253.768	99.919	107.424	220.080	237.514	107.094	114.201	114.432	122.066	223.980	120.747	-8191	255	
51136.199	1	1	0	0	0.2572	0.12368	0.28928	0.11832	0.057123	0.2271	0.27516	0.21449	0.17997	0.21984	0.056062	0.13822	0.17751	0.23038	0.14144	0.26077	-2.7458	-3.6896	-2.6312	-3.5208	-3.3083	-3.0021	-3.6125	-3.1354	-3.0917	-3.7125	-3.0521	-3.4125	-3.5563	-2.9188	-3.7438	-3.1	346.934	144.139	255.569	415.623	321.804	167.220	422.962	438.697	293.425	132.927	155.376	278.177	159.576	441.271	365.046	173.111	0.00051753	0.00021335	0.00010564	944.4	4.4163e-06	1.8066e-06	1059.2	199.65	4.0524e-06	2.3823e-06	255.71	72.155	54.983	16.045	3.4434e-06	23.226	0.00041389	0.00041509	0.00013152	935.11	4.5516e-06	5.2867e-06	1046.4	199.03	4.5473e-06	4.5969e-06	256.95	72.31	55.286	16.338	4.1015e-06	23.752	108.415	170.424	193.363	99.988	216.287	241.119	100.006	107.454	220.130	253.482	106.994	113.945	114.637	121.558	235.362	121.079	-8191	255	
51136.297	1	1	0	0	0.12619	0.23945	0.22803	0.25821	0.099125	0.060886	0.28997	0.14231	0.17376	0.078708	0.19118	0.2413	0.29681	0.15832	0.15386	0.19662	-2.4333	-3.675	-2.8875	-3.3667	-3.6125	-2.8771	-3.6958	-3.3646	-2.7729	-3.7104	-2.8854	-3.1792	-3.5354	-2.9792	-3.5312	-3.4646	327.796	432.367	100.846	402.903	121.124	178.466	332.183	361.215	91.770	442.593	90.053	186.903	124.069	342.233	332.994	169.664	0.00052874	0.00025837	6.0498e-05	941.46	3.8022e-06	2.2343e-06	1054.3	199.68	3.4948e-06	2.4197e-06	257.02	72.376	55.442	16.043	3.7267e-06	23.339	0.00043139	0.00040096	0.00011832	933.08	4.2984e-06	5.195e-06	1046.2	198.98	4.3289e-06	4.5556e-06	257.62	72.426	55.378	16.376	4.5282e-06	23.853	110.859	176.916	178.589	99.819	216.512	249.479	99.810	107.607	218.102	238.285	106.959	113.984	114.235	122.001	223.689	120.765	-8191	255	
51136.391	1	1	0	0	0.14174	0.097577	0.069777	0.18294	0.049347	0.074056	0.10085	0.09644	0.11381	0.094754	0.050737	0.15598	0.084266	0.17162	0.27195	0.16677	-2.4104	-3.7125	-2.8458	-3.2604	-3.5854	-2.7521	-3.45	-3.4646	-2.7604	-3.5938	-3.3021	-3.0354	-3.5958	-2.8333	-3.4208	-3.5	386.195	146.707	196.674	316.397	147.510	248.624	382.495	381.806	114.568	281.190	282.875	128.230	108.120	392.901	299.325	92.577	0.0005212	0.0002939	8.7211e-05	944.41	3.3188e-06	2.0358e-06	1057.3	201	3.1228e-06	3.4004e-06	256.99	72.129	55.529	16.065	3.6136e-06	23.452	0.00043077	0.00038825	0.00011902	934.32	4.2619e-06	4.8987e-06	1045.7	199.7	4.3934e-06	4.256e-06	257.53	72.426	55.327	16.395	4.1599e-06	23.902	105.743	189.085	174.135	100.099	211.087	227.531	99.917	107.320	221.393	241.386	107.254	113.592	113.903	121.728	233.707	120.539	-8191	255	
51136.512	1	1	0	0	0.094826	0.12897	0.21655	0.18512	0.11395	0.21599	0.099279	0.15993	0.21125	0.20528	0.1083	0.10067	0.12892	0.20417	0.22043	0.29324	-2.6229	-3.6937	-3.1562	-3.1813	-3.6646	-2.9562	-3.3167	-3.5333	-2.7542	-3.7521	-3.3958	-2.9875	-3.5687	-2.9167	-3.2292	-3.5312	384.273	231.631	99.694	375.092	327.891	286.247	176.262	355.337	123.764	119.945	190.052	443.047	407.703	112.708	147.481	404.129	0.00052511	0.00028364	6.5732e-05	943.9	4.6648e-06	1.6074e-06	1056.3	200.39	3.3564e-06	2.0212e-06	258.84	72.246	55.64	16.178	3.8102e-06	23.513	0.00042295	0.0004339	0.00012534	935.74	4.3913e-06	5.1126e-06	1045.1	199.63	4.4534e-06	4.2698e-06	258.23	72.487	55.609	16.467	4.2196e-06	23.946	111.972	175.924	171.587	99.988	227.368	245.404	99.625	107.594	233.890	220.220	107.127	114.084	114.789	121.991	238.954	121.006	-8191	255	
51136.586	1	1	0	0	0.37764	0.15688	0.064753	0.26951	0.23996	0.16776	0.062934	0.12367	0.11529	0.093565	0.14336	0.17745	0.080307	0.20473	0.24659	0.11312	-2.5604	-3.5229	-3.3354	-2.9229	-3.6479	-3.0438	-3.2458	-3.6542	-2.7188	-3.5979	-3.4104	-2.9521	-3.6458	-3.1375	-3.0083	-3.5667	364.122	424.500	194.198	414.885	129.121	338.151	342.425	393.324	347.968	371.011	335.094	331.742	317.946	124.778	124.099	164.862	0.00053151	0.00026954	5.492e-05	944.12	4.105e-06	2.058e-06	1055.5	199.2	2.8866e-06	3.6214e-06	256.75	72.037	55.124	16.112	3.0677e-06	23.293	0.00042083	0.00037528	0.00011338	935.94	4.4377e-06	5.0744e-06	1047.2	199.47	4.4443e-06	4.5052e-06	257.55	72.527	55.338	16.419	4.2943e-06	23.82	110.964	194.201	202.382	99.819	220.883	245.029	99.869	107.401	217.387	243.490	106.857	113.830	114.401	121.536	225.239	120.864	-8191	255	
51136.680	1	1	0	0	0.13351	0.12213	0.24258	0.14453	0.23034	0.042259	0.3795	0.167	0.23478	0.25126	0.042086	0.079296	0.2204	0.14137	0.2074	0.10028	-2.5042	-3.2708	-3.425	-2.9938	-3.7188	-3.0458	-3.1167	-3.6875	-2.9313	-3.4917	-3.4521	-2.8417	-3.7958	-3.1604	-2.9771	-3.7458	351.643	351.610	246.910	116.331	147.465	326.141	348.283	415.129	414.153	356.373	429.579	196.870	164.602	219.197	129.203	368.626	0.00051909	0.00020031	7.2193e-05	940.54	4.0887e-06	1.3062e-06	1055.6	200.24	3.6233e-06	1.9096e-06	257.83	72.675	55.414	16.229	3.6116e-06	23.454	0.00041534	0.00039538	0.0001104	934.94	4.3282e-06	4.5153e-06	1047.3	199.52	4.7034e-06	4.9149e-06	257.8	72.555	55.467	16.454	4.461e-06	23.9	110.496	184.924	172.409	100.123	216.570	240.647	99.899	107.451	233.947	266.349	106.893	114.248	114.221	121.595	238.735	120.858	-8191	255	
51136.777	1	1	0	0	0.14755	0.21726	0.26786	0.18022	0.17413	0.1199	0.10377	0.17558	0.076164	0.098199	0.38343	0.32762	0.094654	0.27519	0.13589	0.099332	-2.4854	-3.25	-3.6813	-2.8479	-3.6	-3.3417	-3.0896	-3.6958	-2.8833	-3.3396	-3.4646	-2.7771	-3.5396	-3.2604	-2.7896	-3.6542	119.882	273.415	191.774	320.893	239.544	405.954	317.481	369.712	401.679	231.491	92.058	324.889	277.008	159.148	251.849	432.073	0.00052005	0.00021048	4.5161e-05	945.17	3.7744e-06	2.5694e-06	1057.9	200.18	2.8646e-06	3.8976e-06	257.33	72.231	55.381	16.115	2.2471e-06	23.335	0.00041829	0.0004042	0.00010524	935.74	4.4034e-06	4.584e-06	1047.7	199.79	4.2712e-06	4.7421e-06	257.92	72.492	55.541	16.443	3.9771e-06	23.94	111.777	163.558	190.956	100.062	225.440	260.601	99.854	107.506	229.277	253.001	107.104	113.908	114.450	121.905	213.793	121.105	-8191	255	
51136.898	1	1	0	0	0.17678	0.025904	0.18131	0.15015	0.14351	0.18289	0.089234	0.082687	0.067088	0.18592	0.11637	0.30788	0.25228	0.027863	0.35284	0.16365	-2.6167	-3.2021	-3.675	-2.9875	-3.5896	-3.4146	-2.9688	-3.7271	-2.8979	-3.1458	-3.85	-2.8354	-3.3917	-3.5062	-2.9292	-3.6188	157.225	94.773	160.005	418.149	200.398	125.807	92.593	115.480	219.381	293.535	231.289	109.105	117.446	433.694	147.231	434.289	0.0005431	0.0002685	6.7492e-05	944.62	4.4013e-06	2.8628e-06	1055.1	201.38	3.9977e-06	2.7387e-06	257.06	72.68	55.418	16.221	2.411e-06	23.598	0.00041751	0.00043688	0.00010866	935.81	4.4488e-06	4.7887e-06	1047.7	200	4.5009e-06	4.5984e-06	257.51	72.651	55.578	16.497	4.1139e-06	24.002	105.185	169.909	195.336	100.059	216.033	210.345	100.133	107.506	229.364	256.272	107.154	114.185	114.523	121.786	228.224	120.654	-8191	255	
51136.992	1	1	0	0	0.2265	0.35991	0.27815	0.23737	0.24968	0.21828	0.12243	0.18132	0.080203	0.041786	0.15273	0.16755	0.04567	0.22944	0.1443	0.28467	-2.8792	-2.9979	-3.6271	-2.8688	-3.3208	-3.5708	-3.0208	-3.6729	-3.1042	-2.9042	-3.8521	-2.9437	-3.2479	-3.5792	-2.8187	-3.5146	110.308	314.677	218.705	422.752	209.087	167.283	218.379	236.885	136.836	245.276	414.982	152.464	214.559	406.713	227.664	394.412	0.00052881	0.00029761	6.0071e-05	943.4	3.5747e-06	2.4258e-06	1054.1	201.49	4.7354e-06	2.031e-06	256	72.395	55.506	16.206	2.709e-06	23.495	0.00042259	0.00043286	9.8265e-05	936.12	4.3415e-06	4.5901e-06	1046.3	200.36	4.1739e-06	4.8186e-06	257.75	72.778	55.711	16.411	4.1637e-06	23.913	111.755	176.164	186.079	99.960	209.677	245.153	99.822	107.895	216.939	226.976	106.898	114.227	114.504	122.061	237.506	120.992	-8191	255	
#DATA ENDS
