BOXY.EXE: ISS Imagent and Oximeter Data Acquisition Program Version 0.80
Ascii Record File

#ACQ INFORMATION
2  Detector Channels 
16  External MUX Channels 
1  Auxiliary Channels 
5000  Waveform (CCF) Frequency (Hz)
1  Waveforms Skipped 
30  Waveforms Averaged 
1  Cycles Averaged 
16  Acquisitions per Waveform 
10.0806  Updata Rate (Hz) 

#FILE INFORMATION
TRUE -- External MUX Channel results are PARSED.
FALSE -- AC DC and Phase are NOT grouped.
TRUE -- Companion Program Settings File CREATED.
FALSE -- AC data not excluded
FALSE -- DC data not excluded
FALSE -- Phase data not excluded
FALSE -- Auxillary Chn. data not excluded
Tab delimiters

#CALIBRATION STATE
TRUE -- Waveform Calibration Values APPLIED.


#AUX CALIBRATION VALUES
Val Type	aux-1	

Term	1.0000e+00	
Factor	0.0000e+00	


#WF CALIBRATION VALUES
A = Detector Channel
Val Type	A-AC1	A-AC2	A-AC3	A-AC4	A-AC5	A-AC6	A-AC7	A-AC8	A-AC9	A-AC10	A-AC11	A-AC12	A-AC13	A-AC14	A-AC15	A-AC16	A-DC1	A-DC2	A-DC3	A-DC4	A-DC5	A-DC6	A-DC7	A-DC8	A-DC9	A-DC10	A-DC11	A-DC12	A-DC13	A-DC14	A-DC15	A-DC16	A-Ph1	A-Ph2	A-Ph3	A-Ph4	A-Ph5	A-Ph6	A-Ph7	A-Ph8	A-Ph9	A-Ph10	A-Ph11	A-Ph12	A-Ph13	A-Ph14	A-Ph15	A-Ph16	

Term	0.00000e+00	0.00000e+00	0.00000e+00	0.00000e+00	0.00000e+00	0.00000e+00	0.00000e+00	0.00000e+00	0.00000e+00	0.00000e+00	0.00000e+00	0.00000e+00	0.00000e+00	0.00000e+00	0.00000e+00	0.00000e+00	0.00000e+00	0.00000e+00	0.00000e+00	0.00000e+00	0.00000e+00	0.00000e+00	0.00000e+00	0.00000e+00	0.00000e+00	0.00000e+00	0.00000e+00	0.00000e+00	0.00000e+00	0.00000e+00	0.00000e+00	0.00000e+00	0.00000e+00	0.00000e+00	0.00000e+00	0.00000e+00	0.00000e+00	0.00000e+00	0.00000e+00	0.00000e+00	0.00000e+00	0.00000e+00	0.00000e+00	0.00000e+00	0.00000e+00	0.00000e+00	0.00000e+00	0.00000e+00	
Factor	1.00000e+00	1.00000e+00	1.00000e+00	1.00000e+00	1.00000e+00	1.00000e+00	1.00000e+00	1.00000e+00	1.00000e+00	1.00000e+00	1.00000e+00	1.00000e+00	1.00000e+00	1.00000e+00	1.00000e+00	1.00000e+00	1.00000e+00	1.00000e+00	1.00000e+00	1.00000e+00	1.00000e+00	1.00000e+00	1.00000e+00	1.00000e+00	1.00000e+00	1.00000e+00	1.00000e+00	1.00000e+00	1.00000e+00	1.00000e+00	1.00000e+00	1.00000e+00	X	X	X	X	X	X	X	X	X	X	X	X	X	X	X	X	

B = Detector Channel
Val Type	B-AC1	B-AC2	B-AC3	B-AC4	B-AC5	B-AC6	B-AC7	B-AC8	B-AC9	B-AC10	B-AC11	B-AC12	B-AC13	B-AC14	B-AC15	B-AC16	B-DC1	B-DC2	B-DC3	B-DC4	B-DC5	B-DC6	B-DC7	B-DC8	B-DC9	B-DC10	B-DC11	B-DC12	B-DC13	B-DC14	B-DC15	B-DC16	B-Ph1	B-Ph2	B-Ph3	B-Ph4	B-Ph5	B-Ph6	B-Ph7	B-Ph8	B-Ph9	B-Ph10	B-Ph11	B-Ph12	B-Ph13	B-Ph14	B-Ph15	B-Ph16	

Term	0.00000e+00	0.00000e+00	0.00000e+00	0.00000e+00	0.00000e+00	0.00000e+00	0.00000e+00	0.00000e+00	0.00000e+00	0.00000e+00	0.00000e+00	0.00000e+00	0.00000e+00	0.00000e+00	0.00000e+00	0.00000e+00	0.00000e+00	0.00000e+00	0.00000e+00	0.00000e+00	0.00000e+00	0.00000e+00	0.00000e+00	0.00000e+00	0.00000e+00	0.00000e+00	0.00000e+00	0.00000e+00	0.00000e+00	0.00000e+00	0.00000e+00	0.00000e+00	-1.94746e+02	-1.29429e+02	-1.23296e+02	-1.81177e+02	-8.24941e+01	-6.72532e+01	-1.58393e+02	-1.62015e+02	-8.26879e+01	-6.57740e+01	-1.70238e+02	-1.70284e+02	-1.81041e+02	-1.76563e+02	-7.59332e+01	-1.49301e+02	
Factor	3.81472e-05	1.55800e-04	4.27792e-05	1.56288e-01	1.59967e-06	1.59687e-06	1.72052e-01	5.78622e-02	1.65686e-06	1.77183e-06	8.97467e-02	3.04905e-02	2.59666e-02	9.04681e-03	1.74401e-06	1.28027e-02	2.48459e-05	6.22447e-05	1.74435e-05	8.03579e-02	5.30800e-07	7.33201e-07	8.33309e-02	2.98252e-02	5.43097e-07	7.33792e-07	4.50204e-02	1.52899e-02	1.34928e-02	4.71424e-03	5.97119e-07	6.48029e-03	X	X	X	X	X	X	X	X	X	X	X	X	X	X	X	X	



#DISTANCE SETTINGS
A = Detector Channel
A-1	A-2	A-3	A-4	A-5	A-6	A-7	A-8	A-9	A-10	A-11	A-12	A-13	A-14	A-15	A-16	

2.5000e+00	3.0000e+00	2.5000e+00	3.0000e+00	2.0000e+00	3.0000e+00	1.5000e+00	3.0000e+00	3.0000e+00	3.0000e+00	3.0000e+00	3.0000e+00	3.0000e+00	3.0000e+00	1.5000e+00	3.0000e+00	

B = Detector Channel
B-1	B-2	B-3	B-4	B-5	B-6	B-7	B-8	B-9	B-10	B-11	B-12	B-13	B-14	B-15	B-16	

1.0000e+01	1.0000e+01	1.0000e+01	1.4400e+00	1.0000e+01	1.0000e+01	1.5100e+00	1.9400e+00	1.0000e+01	1.0000e+01	1.9900e+00	2.4900e+00	2.4100e+00	2.9000e+00	1.0000e+01	2.9800e+00	




#DATA BEGINS
time	group	step	mark	flag	A-AC1	A-AC2	A-AC3	A-AC4	A-AC5	A-AC6	A-AC7	A-AC8	A-AC9	A-AC10	A-AC11	A-AC12	A-AC13	A-AC14	A-AC15	A-AC16	A-DC1	A-DC2	A-DC3	A-DC4	A-DC5	A-DC6	A-DC7	A-DC8	A-DC9	A-DC10	A-DC11	A-DC12	A-DC13	A-DC14	A-DC15	A-DC16	A-Ph1	A-Ph2	A-Ph3	A-Ph4	A-Ph5	A-Ph6	A-Ph7	A-Ph8	A-Ph9	A-Ph10	A-Ph11	A-Ph12	A-Ph13	A-Ph14	A-Ph15	A-Ph16	B-AC1	B-AC2	B-AC3	B-AC4	B-AC5	B-AC6	B-AC7	B-AC8	B-AC9	B-AC10	B-AC11	B-AC12	B-AC13	B-AC14	B-AC15	B-AC16	B-DC1	B-DC2	B-DC3	B-DC4	B-DC5	B-DC6	B-DC7	B-DC8	B-DC9	B-DC10	B-DC11	B-DC12	B-DC13	B-DC14	B-DC15	B-DC16	B-Ph1	B-Ph2	B-Ph3	B-Ph4	B-Ph5	B-Ph6	B-Ph7	B-Ph8	B-Ph9	B-Ph10	B-Ph11	B-Ph12	B-Ph13	B-Ph14	B-Ph15	B-Ph16	aux-1	digaux	

51149.812	1	1	0	256	0.15466	0.15739	0.17973	0.2417	0.14405	0.018062	0.22395	0.13496	0.023939	0.1382	0.13317	0.12842	0.0079505	0.081491	0.19508	0.031412	-3.15	-2.7104	-3.5292	-3.2479	-2.7229	-3.5396	-3.1042	-3.2708	-3.7271	-2.6333	-3.7167	-3.1792	-2.8833	-3.7729	-2.9792	-3.3292	201.341	438.569	397.192	366.954	378.828	351.485	422.387	357.751	273.251	182.134	409.541	422.064	410.505	371.931	232.437	154.940	0.0011066	0.0005621	0.00013958	1360.3	6.4435e-06	4.2359e-06	1354.1	376.06	4.7959e-06	6.5514e-06	422.09	139.37	121.52	40.902	5.8102e-06	51.41	0.00083819	0.00085612	0.00021677	1386.4	8.4298e-06	8.7511e-06	1383.1	383.43	7.9292e-06	9.3039e-06	434.12	142.3	124.16	42.241	8.698e-06	53.033	104.437	169.972	172.810	97.218	224.400	250.024	96.826	101.861	220.507	231.849	101.359	105.806	106.085	110.906	217.801	109.799	-8191	255	
51149.887	1	1	0	0	0.033287	0.25397	0.057871	0.26042	0.088555	0.13915	0.21777	0.28209	0.11134	0.12313	0.15456	0.023525	0.31831	0.29846	0.25167	0.18289	-3.0333	-2.6708	-3.4167	-3.4958	-2.8479	-3.4688	-3.325	-3.1729	-3.6271	-2.7938	-3.5083	-3.5187	-2.8375	-3.7417	-2.9313	-2.9875	166.271	332.671	390.188	424.778	230.747	293.022	406.322	390.292	397.773	348.673	372.070	123.495	384.231	384.667	236.277	376.471	0.0010751	0.00053226	0.00016411	1359.6	6.5898e-06	4.4673e-06	1360.2	375.6	7.0078e-06	6.4025e-06	422.62	139.08	121.18	40.818	6.1231e-06	51.339	0.00082499	0.00086442	0.00022836	1385.9	8.4231e-06	8.8427e-06	1383.9	384.1	8.039e-06	9.3085e-06	433.98	142.46	124.06	42.206	8.8336e-06	52.949	105.006	156.651	174.661	97.052	215.740	232.378	96.810	101.692	219.401	238.760	101.610	105.742	106.296	110.715	216.977	109.816	-8191	255	
51149.980	1	1	0	0	0.13695	0.20098	0.088531	0.30175	0.11808	0.15639	0.15391	0.34097	0.30366	0.14988	0.14925	0.30244	0.34732	0.1542	0.18814	0.2947	-3.1896	-2.7521	-3.4	-3.6146	-2.7687	-3.4979	-3.2729	-3.2458	-3.6667	-2.8292	-3.3438	-3.7188	-2.8667	-3.4542	-2.9667	-3.1042	382.732	160.493	164.355	397.873	325.936	306.834	418.093	422.669	360.913	103.665	405.365	125.205	120.727	308.086	294.629	350.333	0.0010813	0.00059471	0.00014721	1357.7	6.7438e-06	4.1194e-06	1360.9	374.8	7.5688e-06	4.9661e-06	422.62	139.16	121.09	40.782	6.2204e-06	51.228	0.00082245	0.00081463	0.0002227	1385.4	8.5116e-06	8.7343e-06	1382.8	383.41	7.919e-06	9.1709e-06	434.39	142.16	123.89	42.149	8.2067e-06	52.954	104.496	163.428	177.450	97.221	218.903	236.111	96.856	101.875	216.157	237.943	101.369	105.623	106.341	111.037	215.412	109.991	-8191	255	
51150.078	1	1	0	0	0.076717	0.14999	0.15505	0.14616	0.20432	0.09684	0.30017	0.069033	0.052737	0.34229	0.078599	0.10596	0.0894	0.29555	0.19321	0.095437	-3.2104	-2.9	-3.1708	-3.7521	-2.7	-3.5687	-3.4854	-2.9479	-3.7542	-2.8729	-3.2229	-3.7	-2.9688	-3.475	-3.3125	-3.0479	105.449	422.551	201.084	384.821	353.170	241.147	395.012	367.220	389.017	384.243	273.945	121.960	422.151	84.584	309.258	99.595	0.0010627	0.00052225	9.953e-05	1359.3	7.2391e-06	4.379e-06	1357.6	375.46	6.5122e-06	5.3308e-06	421.66	139.06	121.52	40.726	5.7899e-06	51.385	0.00081541	0.00082928	0.0002127	1384.8	8.4895e-06	8.8794e-06	1382.6	383.52	7.8014e-06	9.336e-06	433.69	142.2	124.03	42.18	8.2378e-06	52.885	105.195	182.022	184.932	97.287	209.328	232.103	97.196	102.131	216.461	236.957	101.585	105.497	106.170	110.948	230.375	110.000	-8191	255	
51150.199	1	1	0	0	0.1544	0.17349	0.06839	0.26143	0.078731	0.02991	0.39308	0.023764	0.30428	0.098884	0.13865	0.056624	0.07261	0.13833	0.15666	0.10535	-3.3854	-3.0229	-3.1771	-3.5563	-2.8187	-3.3812	-3.475	-2.9021	-3.675	-2.9729	-3	-3.9104	-2.7646	-3.5542	-3.5104	-2.9167	151.930	249.154	358.455	432.419	206.193	263.298	381.519	365.838	173.409	166.214	425.273	222.698	402.342	434.141	111.527	98.273	0.0010737	0.00048598	0.00011663	1361.4	6.9547e-06	4.4322e-06	1355.4	373.59	6.5953e-06	5.1123e-06	423.19	139.28	121.53	40.868	5.9551e-06	51.044	0.00080651	0.00076743	0.0002216	1386.2	8.641e-06	8.8167e-06	1381.1	382.45	7.7731e-06	8.9462e-06	434.08	142.22	123.93	42.152	8.025e-06	52.848	104.855	167.511	180.332	97.256	225.203	230.270	97.129	102.177	217.641	234.637	101.218	105.879	106.371	110.957	222.332	110.071	-8191	255	
51150.293	1	1	0	0	0.13503	0.40958	0.23245	0.17397	0.27978	0.05114	0.28621	0.17112	0.069244	0.24483	0.12011	0.2281	0.18041	0.3049	0.18855	0.18019	-3.1271	-3.0438	-2.9083	-3.85	-2.8146	-3.3583	-3.7625	-2.8937	-3.6312	-3.2729	-3.0729	-3.7354	-2.925	-3.3812	-3.6	-2.9375	217.742	87.403	304.816	432.075	108.698	390.292	353.785	134.970	90.999	269.379	425.124	285.047	433.763	391.140	209.004	335.524	0.0011032	0.00053095	0.0001288	1358.7	6.7953e-06	6.1189e-06	1350.4	374.54	7.348e-06	5.7607e-06	424.19	139.41	120.94	40.846	4.8284e-06	51.235	0.00080827	0.00080244	0.00022157	1383.5	8.4099e-06	8.3341e-06	1379.6	382.56	7.9315e-06	8.8055e-06	433.98	142.29	123.88	42.108	7.9641e-06	52.889	103.745	178.633	181.184	97.552	212.344	240.717	96.907	102.224	214.905	226.446	101.318	105.993	106.250	111.008	225.516	110.102	-8191	255	
51150.391	1	1	0	0	0.10918	0.15949	0.17957	0.19241	0.19667	0.25077	0.22723	0.36639	0.15731	0.323	0.082978	0.096638	0.16471	0.15694	0.13747	0.1183	-3.1562	-3.2333	-2.8521	-3.8333	-2.8792	-3.0833	-3.8229	-2.8958	-3.5333	-3.25	-2.8979	-3.7771	-3.0542	-2.9917	-3.525	-2.875	241.804	400.313	212.188	117.819	302.755	287.827	401.488	400.050	301.933	151.231	176.652	346.727	107.050	392.697	322.823	432.754	0.0010875	0.00055986	0.00013512	1353.1	6.3814e-06	4.9247e-06	1352.7	374.33	7.1446e-06	5.0958e-06	423.19	139.11	120.47	40.914	5.5546e-06	50.996	0.00081665	0.0007909	0.00022302	1381.4	8.3888e-06	8.7724e-06	1379.4	382.48	7.7719e-06	8.5686e-06	433.86	142.2	123.73	42.195	7.7775e-06	52.874	105.049	160.597	170.522	97.578	233.783	230.340	97.205	101.909	228.079	226.252	101.469	105.864	106.438	111.051	226.331	109.975	-8191	255	
51150.484	1	1	0	0	0.089761	0.22503	0.23685	0.20138	0.19808	0.12385	0.17218	0.064258	0.21724	0.29756	0.12599	0.23175	0.18868	0.018969	0.23825	0.28946	-2.9729	-3.3604	-2.7375	-3.8604	-3.2125	-2.9854	-3.7125	-2.9083	-3.2167	-3.5292	-2.8604	-3.7625	-3.1833	-2.9917	-3.7625	-2.8729	321.715	439.653	216.140	84.160	169.928	148.409	370.723	377.459	166.319	376.462	432.596	413.096	379.030	214.078	232.201	361.488	0.0010755	0.00061766	0.00012891	1356.3	6.4347e-06	4.4675e-06	1352	374.73	7.1824e-06	5.7426e-06	422.79	139.62	120.58	40.928	6.3723e-06	51.158	0.0008123	0.00077443	0.00023654	1382.1	8.0593e-06	8.9359e-06	1379.7	382.19	8.0243e-06	8.6282e-06	433.14	142.13	123.59	42.175	8.04e-06	52.861	104.465	173.130	171.207	97.453	217.557	244.363	96.943	102.001	219.436	231.764	101.539	105.842	106.413	111.012	225.634	110.111	-8191	255	
51150.582	1	1	0	0	0.25619	0.10499	0.10953	0.31358	0.044228	0.078509	0.17977	0.11655	0.1296	0.21784	0.085088	0.10243	0.20342	0.22457	0.015049	0.092744	-2.7542	-3.5417	-2.925	-3.7375	-3.2854	-2.8187	-3.7333	-2.8896	-3.2521	-3.4875	-2.9771	-3.7083	-3.4625	-2.8688	-3.5458	-3.1708	147.785	438.439	300.354	392.932	417.128	309.564	400.481	149.790	253.256	410.249	384.892	379.294	303.004	401.233	300.446	376.224	0.0011089	0.00051251	0.00011676	1353	5.7179e-06	4.4542e-06	1350.9	374.03	6.1269e-06	5.5048e-06	422.75	139.18	121.2	40.772	6.6438e-06	51.138	0.000827	0.00075913	0.00022637	1380.4	7.8127e-06	8.5647e-06	1378	382.02	8.4802e-06	8.431e-06	432.98	142.18	123.7	42.09	7.8521e-06	52.833	106.431	169.529	176.295	97.352	228.726	236.629	97.316	101.909	231.426	231.199	101.388	105.890	106.303	110.905	221.064	110.024	-8191	255	
51150.676	1	1	0	0	0.24205	0.16327	0.12475	0.2283	0.15296	0.13435	0.3064	0.17921	0.17354	0.12109	0.050759	0.21871	0.12701	0.16386	0.26924	0.094225	-2.7917	-3.4583	-2.7062	-3.7333	-3.5083	-2.7167	-3.9354	-3.275	-2.9708	-3.6792	-3.1354	-3.6292	-3.4354	-2.9771	-3.7083	-3.0979	201.240	378.195	303.829	408.019	235.270	159.039	350.288	346.152	320.964	321.211	272.852	399.570	238.602	441.207	146.883	125.369	0.0010918	0.00046735	0.00011648	1352.1	5.8816e-06	5.929e-06	1353	372.46	7.5019e-06	4.145e-06	422.55	138.62	120.99	40.752	8.0617e-06	51.162	0.00082913	0.00072658	0.0002219	1378.4	7.8304e-06	9.0902e-06	1377.4	381.1	8.4553e-06	8.5059e-06	432.52	141.81	123.39	42.094	7.9404e-06	52.802	103.981	167.422	176.607	97.333	209.154	242.770	97.082	102.334	219.550	245.133	101.703	106.101	106.128	111.300	224.928	109.883	-8191	255	
51150.773	1	1	0	0	0.14263	0.089679	0.17132	0.31112	0.27431	0.017549	0.11689	0.2499	0.20986	0.17953	0.34685	0.036751	0.31569	0.21593	0.081969	0.22984	-2.5938	-3.7	-2.6854	-3.4708	-3.6375	-2.7354	-3.7542	-3.2042	-2.9833	-3.7396	-3.0208	-3.3833	-3.6	-2.7229	-3.5667	-3.2708	336.425	214.071	303.179	442.387	380.355	230.763	172.537	407.433	157.151	275.041	412.591	229.624	432.469	387.525	116.612	342.785	0.0010948	0.00048648	0.00014797	1351.2	5.6636e-06	4.5949e-06	1356.7	374.24	6.5088e-06	5.451e-06	421.59	138.67	120.74	40.45	6.1611e-06	50.813	0.00082209	0.00077209	0.0002356	1379.8	7.7696e-06	8.7358e-06	1377.3	381.68	8.2981e-06	8.8636e-06	431.95	141.75	123.16	41.881	8.183e-06	52.555	105.880	164.468	179.661	97.496	227.221	224.375	97.411	102.046	225.813	242.051	101.431	105.973	106.488	111.170	222.657	109.980	-8191	255	
51150.895	1	1	0	0	0.32742	0.2343	0.048582	0.37223	0.14559	0.11383	0.11405	0.21082	0.21709	0.30976	0.15459	0.15126	0.11644	0.14775	0.08198	0.34274	-2.3708	-3.6437	-2.9479	-3.4271	-3.6417	-2.7979	-3.6521	-3.3438	-2.9562	-3.7375	-3.1	-3.1542	-3.6271	-2.9875	-3.4229	-3.4917	280.493	235.144	89.924	379.187	152.447	158.305	364.878	350.137	327.181	186.777	433.150	187.246	158.043	424.851	189.136	290.996	0.0010812	0.00050362	0.00011362	1355.2	6.1392e-06	5.2401e-06	1348.3	373.54	5.8645e-06	5.7539e-06	420.96	138.77	120.74	40.502	6.4266e-06	50.895	0.00084067	0.00076587	0.00022782	1378.5	7.7054e-06	9.0688e-06	1374.7	381.64	8.1419e-06	8.4982e-06	431.66	141.61	123.06	41.896	8.2925e-06	52.676	104.196	171.414	172.666	97.515	216.496	236.737	97.355	102.113	228.841	246.145	101.571	105.898	106.414	111.270	231.567	109.969	-8191	255	
51150.988	1	1	0	0	0.23106	0.15811	0.16194	0.27264	0.15833	0.208	0.088429	0.3051	0.11895	0.101	0.46797	0.29782	0.34731	0.26541	0.3676	0.082793	-2.3417	-3.5521	-2.9437	-3.1979	-3.6312	-2.7833	-3.7333	-3.5146	-2.85	-3.675	-3.1708	-3.0792	-3.6146	-3.025	-3.3229	-3.5687	239.319	223.185	278.759	409.943	354.036	104.990	367.758	416.294	202.864	409.293	404.146	356.107	369.319	378.460	242.933	167.212	0.0010611	0.00051149	0.00014043	1351.3	6.0285e-06	4.4799e-06	1345.9	372.8	6.3395e-06	5.722e-06	420.65	138.67	120.48	40.553	7.0442e-06	50.795	0.0008328	0.00073656	0.00021441	1377.1	7.6988e-06	8.6472e-06	1373.1	380.98	8.2811e-06	8.0503e-06	431.5	141.74	123.03	41.912	8.03e-06	52.651	103.892	173.521	166.694	97.582	222.974	234.017	97.473	102.128	232.274	236.756	101.573	106.101	106.564	111.283	236.516	110.267	-8191	255	
51151.086	1	1	0	0	0.15556	0.12689	0.23703	0.10094	0.42417	0.36606	0.15141	0.028991	0.28037	0.084054	0.28425	0.18782	0.10536	0.082868	0.37318	0.196	-2.4625	-3.6792	-3.1708	-3.1479	-3.6104	-3.0792	-3.3438	-3.575	-2.75	-3.6375	-3.2438	-3.025	-3.8125	-3.0229	-3.2708	-3.6583	439.179	350.795	321.129	363.519	148.314	195.490	408.911	93.984	159.531	219.500	389.208	422.913	342.172	94.113	155.924	341.161	0.001073	0.00046257	0.00012974	1348.6	7.0133e-06	4.1385e-06	1354.1	371.81	6.2338e-06	6.176e-06	419.62	138.69	120.39	40.467	4.6576e-06	50.714	0.0008314	0.00075109	0.00021223	1376.5	7.7972e-06	9.2246e-06	1375.5	380.96	8.1317e-06	8.8468e-06	430.66	141.71	123.07	41.878	8.3099e-06	52.659	104.471	159.514	181.657	97.485	214.050	235.166	97.302	102.000	225.993	231.120	101.544	105.961	106.639	111.245	236.466	110.196	-8191	255	
51151.184	1	1	0	0	0.347	0.044924	0.11835	0.2912	0.16473	0.045035	0.12384	0.05522	0.24685	0.20807	0.22785	0.037406	0.061439	0.16104	0.21848	0.12693	-2.3063	-3.4938	-3.1937	-3.1146	-3.6375	-3.0021	-3.1333	-3.5729	-2.7479	-3.6729	-3.2625	-2.8792	-3.6833	-3.1063	-3.1813	-3.7667	154.470	153.034	180.417	393.544	158.853	397.815	105.368	137.808	340.659	185.039	401.138	369.632	117.406	393.636	285.304	378.158	0.0010825	0.00047051	0.00012886	1349.9	6.7056e-06	5.1179e-06	1346.6	372.67	6.7515e-06	5.7322e-06	421.48	138.96	120.63	40.453	5.9609e-06	50.935	0.00082468	0.00078545	0.00021448	1379	7.9399e-06	9.0306e-06	1376.5	381.74	8.4927e-06	9.0929e-06	432.72	142.14	123.59	41.917	8.3895e-06	52.692	105.809	166.452	163.757	97.589	215.312	237.244	97.307	102.151	217.611	248.491	101.604	106.120	106.527	111.292	227.034	110.271	-8191	255	
51151.277	1	1	0	0	0.1762	0.21573	0.086879	0.40743	0.17189	0.22374	0.14232	0.28742	0.11992	0.22065	0.16423	0.11256	0.12435	0.1593	0.26867	0.21525	-2.3333	-3.15	-3.3271	-2.9146	-3.5438	-3.1104	-3.1229	-3.7458	-2.8438	-3.4479	-3.6562	-2.6604	-3.6854	-3.1437	-2.9667	-3.7521	143.040	299.816	86.043	393.429	342.825	154.103	342.310	366.394	326.135	157.465	377.177	84.193	185.128	423.263	341.557	418.745	0.0010663	0.0005627	0.00012936	1356.2	7.1628e-06	5.5687e-06	1357.6	374.35	6.8627e-06	4.73e-06	422.97	138.23	120.74	40.482	5.4973e-06	50.943	0.00085449	0.00082345	0.00023291	1384.6	8.4065e-06	9.8967e-06	1385.9	383.02	8.7631e-06	9.4552e-06	433.54	142.09	123.55	41.942	9.0576e-06	52.775	103.332	175.346	186.234	97.498	229.324	221.707	97.483	101.977	226.131	224.798	101.412	106.090	106.583	111.274	232.595	110.285	-8191	255	
51151.375	1	1	0	0	0.16145	0.20858	0.25603	0.21148	0.24438	0.063674	0.27193	0.20865	0.11638	0.10909	0.22176	0.41187	0.030358	0.28242	0.18341	0.19561	-2.5583	-3.4333	-3.4604	-2.8896	-3.5812	-3.2438	-3.1417	-3.7729	-3.0062	-3.1875	-3.6979	-2.7438	-3.6479	-3.4125	-2.9208	-3.8667	121.238	144.669	356.588	434.560	411.592	103.846	398.934	84.881	296.013	370.975	410.887	365.952	233.483	371.005	367.656	190.940	0.0010497	0.00045975	0.00016096	1352.4	5.2433e-06	4.7027e-06	1349.8	372.81	6.5297e-06	4.816e-06	422.21	138.02	120.57	40.551	6.3349e-06	50.902	0.00085216	0.00081281	0.00023396	1386.4	8.3004e-06	9.2154e-06	1381.8	382.28	8.8876e-06	9.5118e-06	433.21	141.89	123.48	41.95	8.5065e-06	52.666	105.245	163.892	173.683	97.608	215.527	233.334	97.317	102.142	216.915	248.050	101.537	106.086	106.512	111.058	231.019	110.316	-8191	255	
51151.496	1	1	0	0	0.12923	0.17798	0.21626	0.41818	0.081695	0.32092	0.06819	0.17162	0.16001	0.077272	0.32322	0.30178	0.24851	0.16818	0.11008	0.31056	-2.6437	-3.1708	-3.6125	-2.8125	-3.5187	-3.3708	-3.0208	-3.6979	-3.0625	-2.95	-3.6833	-2.7292	-3.3812	-3.4979	-2.6875	-3.6583	423.720	292.914	360.229	430.517	310.641	94.669	345.252	429.763	224.147	167.238	355.861	366.003	334.990	425.296	194.132	330.530	0.0010179	0.00054809	0.00014218	1351.7	6.4635e-06	4.2193e-06	1349.8	372.82	6.9694e-06	5.029e-06	420.4	138.35	120.45	40.53	6.5918e-06	50.817	0.00079709	0.00082461	0.00021423	1380.2	8.2429e-06	8.8061e-06	1379.7	381.27	8.3999e-06	9.365e-06	431.88	141.88	123.36	41.849	8.4132e-06	52.626	104.368	177.829	177.162	97.659	210.023	234.306	97.218	102.286	226.132	229.658	101.738	105.987	107.011	111.367	219.746	110.206	-8191	255	
51151.590	1	1	0	0	0.20606	0.088466	0.18057	0.21689	0.038315	0.17607	0.37571	0.20692	0.33013	0.19406	0.085469	0.32961	0.18654	0.29346	0.022068	0.092214	-2.7083	-2.9229	-3.7417	-3.0083	-3.2938	-3.4917	-2.9896	-3.6271	-3.0167	-2.9458	-3.8333	-3.0604	-3.3104	-3.6104	-2.7812	-3.6625	383.819	198.244	164.823	153.037	404.163	245.484	379.272	402.038	406.166	140.012	405.361	87.388	165.091	393.930	135.789	391.488	0.0010719	0.0004927	0.00016222	1349.4	5.9815e-06	3.9595e-06	1352.6	372.74	7.0605e-06	4.5047e-06	420.55	138.12	120.55	40.473	6.1081e-06	50.792	0.00082126	0.00082137	0.00021862	1380.3	8.3988e-06	8.6075e-06	1380.2	381.79	8.1838e-06	8.7887e-06	432.4	141.83	123.55	41.955	8.6421e-06	52.659	106.307	164.298	176.725	97.440	209.313	235.080	97.374	102.275	227.332	238.772	101.857	106.010	106.793	111.450	224.688	110.224	-8191	255	
51151.684	1	1	0	0	0.073789	0.19764	0.10953	0.16679	0.3449	0.12928	0.11795	0.10543	0.2928	0.091456	0.2887	0.08594	0.20294	0.14136	0.15957	0.045198	-2.7938	-2.9771	-3.5271	-3.0167	-3.2604	-3.7375	-2.8917	-3.6917	-3.375	-2.8104	-3.7458	-3.0896	-3.1583	-3.6292	-2.6479	-3.4688	266.151	389.706	150.428	385.183	423.557	311.328	337.289	301.459	350.381	122.565	384.615	428.505	211.115	374.017	280.262	421.564	0.0010452	0.00042097	0.00014495	1352	5.9263e-06	3.6784e-06	1354	373.25	6.8624e-06	5.5653e-06	419.56	138.8	120.25	40.498	5.3231e-06	50.666	0.00081101	0.00083615	0.00021757	1383.7	8.6819e-06	8.6044e-06	1381.3	382.14	7.9903e-06	9.1862e-06	432.19	142.05	123.56	42.005	8.6047e-06	52.683	107.727	167.975	176.668	97.578	235.197	234.044	97.445	102.291	215.044	224.026	101.623	105.826	106.694	111.271	225.468	110.296	-8191	255	
51151.781	1	1	0	0	0.13034	0.13227	0.32859	0.12929	0.10705	0.20158	0.17754	0.20627	0.14202	0.21091	0.11598	0.28343	0.47085	0.076287	0.16543	0.026027	-3.0083	-2.7188	-3.5958	-3.1604	-3.0667	-3.4854	-2.9979	-3.4813	-3.4917	-2.8	-3.6771	-3.1583	-3.0833	-3.6979	-2.7417	-3.4167	310.256	115.383	439.219	345.464	266.355	418.569	443.789	359.676	258.111	393.260	201.983	380.066	386.893	160.163	249.618	281.751	0.0010798	0.00062897	0.00011935	1351.3	6.6813e-06	5.0777e-06	1350.1	373.08	7.5338e-06	5.7383e-06	421.35	139.03	120.49	40.648	6.0867e-06	51.19	0.00082245	0.00082565	0.00020932	1383	8.3988e-06	8.6548e-06	1380.4	382.55	7.8478e-06	9.0119e-06	433.2	142.17	123.61	42.109	8.6122e-06	52.859	105.867	171.777	172.576	97.593	220.404	226.327	97.268	102.472	223.800	231.014	101.756	106.018	106.525	111.332	235.639	110.220	-8191	255	
51151.855	1	1	0	0	0.2145	0.088244	0.12797	0.12475	0.2402	0.29509	0.21259	0.35419	0.099314	0.15174	0.22705	0.22977	0.38532	0.11737	0.070808	0.14335	-3.1167	-2.7125	-3.5604	-3.1229	-3.0438	-3.6667	-3.1083	-3.4583	-3.4792	-2.8333	-3.7188	-3.0687	-3.1104	-3.6979	-2.7729	-3.2125	154.470	290.279	333.379	176.778	120.374	120.372	386.426	339.575	442.938	111.885	386.358	381.043	420.945	101.603	283.961	234.226	0.0010619	0.0004583	0.00012189	1350.9	6.0637e-06	3.7789e-06	1345.6	372.57	6.3329e-06	4.7205e-06	420.69	138.51	120.09	40.588	5.1624e-06	50.909	0.0008064	0.00080931	0.00019842	1382	8.2617e-06	8.7572e-06	1377.7	382.1	8.0661e-06	9.0333e-06	433.51	142.05	123.63	42.026	8.4281e-06	52.724	103.537	174.877	185.416	97.677	206.145	240.676	97.325	102.306	213.291	246.178	101.614	106.055	106.744	111.300	224.780	110.343	-8191	255	
51151.973	1	1	0	0	0.25024	0.12805	0.1708	0.17804	0.13536	0.17667	0.21542	0.15407	0.058566	0.090858	0.10769	0.22901	0.22175	0.093269	0.11548	0.17633	-3.2104	-2.7354	-3.5833	-3.4396	-2.7687	-3.6021	-2.975	-3.3187	-3.6188	-2.7562	-3.3688	-3.4021	-2.9396	-3.8208	-2.9521	-3.0958	303.263	144.742	339.643	389.576	165.866	197.320	432.222	354.512	422.073	237.666	301.070	376.798	434.521	430.474	418.215	128.759	0.0010726	0.0005937	0.00015954	1350.4	6.2189e-06	4.9032e-06	1348.2	373.57	7.9757e-06	6.1873e-06	419.37	138.58	121.37	40.618	6.441e-06	50.903	0.00082229	0.0008132	0.00022473	1381.8	8.0881e-06	8.7801e-06	1379.7	382.82	7.9326e-06	9.4262e-06	433.28	142.08	124.03	42.16	8.2912e-06	52.794	106.335	163.152	186.247	97.639	228.003	233.618	97.433	102.500	219.605	241.615	101.770	106.103	106.659	111.420	226.350	110.409	-8191	255	
51152.070	1	1	0	0	0.18908	0.16493	0.088571	0.11594	0.12614	0.13104	0.20686	0.12394	0.18631	0.31801	0.10793	0.32801	0.027762	0.24423	0.08404	0.24973	-3.4208	-2.7542	-3.4437	-3.6729	-2.8229	-3.6333	-3.3646	-2.9875	-3.6063	-2.8875	-3.4562	-3.6063	-2.8604	-3.7208	-3.1396	-3.1312	200.664	294.647	247.178	327.713	388.734	114.092	426.428	97.101	139.662	88.272	404.120	349.921	350.118	444.496	122.849	367.103	0.0010697	0.00038173	0.00013359	1353	6.6074e-06	4.4801e-06	1352.1	373.46	5.9506e-06	5.0292e-06	422.09	138.54	120.62	40.641	6.1024e-06	51.234	0.00080723	0.00079557	0.00022426	1384.4	8.37e-06	8.3753e-06	1383.5	382.78	7.8308e-06	9.654e-06	434.72	142.25	124.06	42.193	7.9429e-06	52.927	104.482	163.033	194.347	97.602	217.272	232.199	97.405	102.663	226.491	237.858	101.673	106.086	106.951	111.297	225.450	110.377	-8191	255	
51152.164	1	1	0	0	0.3069	0.017514	0.046905	0.26109	0.13501	0.086844	0.19955	0.24014	0.14591	0.061636	0.22854	0.2715	0.20854	0.093548	0.205	0.16461	-3.3875	-2.7583	-3.25	-3.8583	-2.6833	-3.6292	-3.4521	-3.1312	-3.5812	-2.8625	-3.35	-3.7542	-2.8146	-3.5812	-3.3979	-2.9313	412.804	400.615	392.816	377.148	217.380	181.133	403.049	433.103	108.875	144.989	408.655	431.320	103.248	414.014	385.784	365.278	0.0010533	0.00044302	0.0001579	1353.6	6.6575e-06	4.025e-06	1347.3	374.66	5.6226e-06	6.0138e-06	420.91	138.65	120.78	40.823	5.9828e-06	50.905	0.00080863	0.00079971	0.00021728	1387.7	8.3048e-06	8.6609e-06	1383.5	383.24	7.8636e-06	9.1204e-06	434.36	142.56	124.18	42.235	7.7252e-06	52.942	103.150	172.501	171.539	97.607	214.775	236.195	97.499	102.460	213.648	236.368	102.104	106.228	106.896	111.276	224.669	110.303	-8191	255	
51152.262	1	1	0	0	0.071409	0.14781	0.072695	0.35913	0.16624	0.090912	0.23583	0.11457	0.051435	0.19747	0.071266	0.10904	0.21318	0.21117	0.055897	0.11387	-3.4125	-3.0729	-3.1583	-3.7771	-2.7104	-3.5417	-3.5792	-2.9375	-3.7	-3.0396	-3.0062	-3.5833	-2.9583	-3.6104	-3.3875	-3.0625	423.242	123.549	419.835	427.847	156.805	222.049	124.855	317.756	104.253	367.671	193.855	438.235	260.396	211.081	205.915	286.322	0.001084	0.0004997	0.00013791	1353.1	6.7699e-06	4.2469e-06	1354.9	373.39	7.3373e-06	5.6632e-06	423.31	138.98	121	40.672	6.1586e-06	51.095	0.00082028	0.00080127	0.0002175	1388.5	8.0903e-06	8.5983e-06	1387.1	383.41	7.9507e-06	8.8712e-06	434.9	143	124.18	42.273	8.2328e-06	52.894	104.015	166.905	188.628	97.818	212.288	218.940	97.558	102.454	222.713	225.766	102.039	106.332	106.737	111.631	219.814	110.488	-8191	255	
51152.383	1	1	0	0	0.07546	0.25935	0.098346	0.29417	0.1356	0.11701	0.086358	0.29806	0.13017	0.16751	0.27469	0.13177	0.10348	0.070603	0.028973	0.22882	-3.0938	-2.9146	-2.7771	-3.825	-2.9104	-3.3396	-3.5208	-3.0396	-3.5938	-3.1646	-3.0812	-3.7875	-2.9667	-3.3833	-3.4729	-2.8125	176.054	128.847	85.648	415.626	119.358	211.917	385.103	442.211	204.656	294.056	366.754	356.891	124.702	324.126	386.333	390.916	0.0011104	0.0004093	0.00012698	1353.1	5.9089e-06	5.3302e-06	1347.4	372.71	6.3618e-06	5.7042e-06	421.9	138.78	120.81	40.348	7.0643e-06	50.727	0.0008299	0.00077819	0.00021634	1388.5	8.5171e-06	8.5296e-06	1383.2	382.69	7.7063e-06	8.5349e-06	433.71	142.32	123.69	41.996	7.6593e-06	52.705	105.099	171.748	181.582	97.740	225.556	226.884	97.626	102.564	218.493	234.089	101.832	106.318	106.581	111.566	229.206	110.431	-8191	255	
51152.453	1	1	0	0	0.33542	0.24467	0.16177	0.25243	0.061234	0.080053	0.060587	0.11243	0.3056	0.17503	0.10456	0.08531	0.23495	0.13132	0.17363	0.15582	-3.3	-3.2208	-2.7875	-3.675	-2.8458	-3.0792	-3.8125	-2.8354	-3.5146	-3.3625	-2.9646	-3.6958	-3.0667	-3.2208	-3.65	-2.8583	136.347	240.052	263.123	420.337	133.417	361.257	92.440	404.559	423.281	218.254	372.624	407.149	131.209	397.354	144.639	421.382	0.0011063	0.00059361	0.00013024	1348.7	4.9874e-06	4.1916e-06	1348	372.83	7.0359e-06	4.597e-06	417.51	137.41	119.63	40.015	5.6894e-06	50.197	0.00081908	0.00083045	0.0002296	1380.2	8.3137e-06	9.0566e-06	1379.3	381.93	8.4372e-06	9.0715e-06	431.48	141.29	122.79	41.599	8.4032e-06	52.347	105.084	172.853	183.883	97.912	224.711	239.063	97.472	102.491	226.941	242.826	101.905	106.416	106.758	111.399	243.527	110.373	-8191	255	
51152.574	1	1	0	0	0.16541	0.14126	0.022615	0.16985	0.19627	0.26965	0.14375	0.093894	0.12015	0.091753	0.034231	0.12776	0.31725	0.22106	0.38108	0.16499	-3.0875	-3.25	-2.7167	-3.9083	-2.95	-3.0521	-3.9188	-2.7438	-3.3875	-3.3417	-2.9875	-3.5875	-3.2188	-3.0417	-3.8042	-2.9104	434.265	96.380	174.607	397.938	297.740	433.487	401.964	286.584	388.441	161.621	364.637	259.787	439.492	230.911	184.800	165.086	0.0010596	0.00054391	0.00010532	1349.1	6.9708e-06	3.8838e-06	1348.8	371.69	7.1489e-06	5.443e-06	419.68	137.67	119.7	40.279	5.6943e-06	50.521	0.00082644	0.00082319	0.00023084	1382.5	8.8035e-06	9.6309e-06	1383.4	381.88	8.4621e-06	8.4814e-06	432.5	141.4	123.07	41.813	7.9691e-06	52.508	106.442	165.893	194.058	97.950	219.224	242.067	97.449	102.324	222.646	251.434	101.902	106.260	106.611	111.648	242.604	110.394	-8191	255	
51152.672	1	1	0	0	0.14205	0.15667	0.11732	0.12644	0.29425	0.20469	0.24151	0.34204	0.16476	0.19613	0.11921	0.10044	0.1072	0.047127	0.14861	0.15869	-3.1688	-3.4958	-2.9042	-3.775	-3.0229	-2.7729	-3.9396	-3.0104	-3.1854	-3.3563	-2.9667	-3.6937	-3.2917	-2.9271	-3.5958	-2.8604	139.114	232.976	195.567	435.527	421.656	118.133	419.372	432.628	100.763	199.856	379.428	390.594	263.605	146.481	100.754	384.835	0.0010913	0.00041983	0.00011769	1351.9	6.2459e-06	4.7976e-06	1343.8	370.24	7.2595e-06	4.6421e-06	417.55	138.29	119.53	40.451	6.3647e-06	50.452	0.00084098	0.00075913	0.00022237	1382.4	8.2031e-06	9.1391e-06	1380	381.32	7.841e-06	7.899e-06	432.07	141.8	123.09	41.861	7.6245e-06	52.604	105.293	175.539	186.442	97.822	217.436	237.437	97.440	102.424	222.813	238.204	101.823	106.399	106.549	111.502	226.958	110.726	-8191	255	
51152.766	1	1	0	0	0.12564	0.18087	0.17416	0.15868	0.1253	0.18273	0.34901	0.15125	0.21096	0.094208	0.1718	0.28667	0.32938	0.1969	0.2059	0.23187	-2.7396	-3.5375	-2.7396	-3.6271	-3.3438	-2.725	-3.7938	-3.0812	-3.2083	-3.4771	-2.9646	-3.5479	-3.4104	-2.8083	-3.7104	-3.2333	89.296	353.144	215.237	433.499	121.022	295.346	411.135	366.999	287.733	109.328	420.554	107.943	411.991	302.640	343.033	91.282	0.001071	0.00047887	0.00014385	1351.1	5.9912e-06	3.8251e-06	1347.6	372.11	6.8872e-06	6.0133e-06	420	137.92	119.75	40.337	6.6481e-06	50.421	0.00080516	0.00070998	0.00022037	1383.2	8.1533e-06	8.4975e-06	1380	381.92	8.2291e-06	8.4249e-06	432.74	141.83	123.31	41.875	7.8957e-06	52.614	103.524	178.301	167.165	97.845	223.770	231.838	97.646	102.320	218.885	224.948	101.933	106.233	106.645	111.611	219.226	110.177	-8191	255	
51152.863	1	1	0	0	0.097858	0.10557	0.10047	0.11195	0.24899	0.10863	0.1076	0.042174	0.041956	0.11789	0.13264	0.060945	0.048327	0.095675	0.099395	0.14171	-2.6396	-3.5667	-2.6604	-3.5771	-3.4271	-2.7083	-3.6583	-3.3417	-2.9958	-3.6667	-2.8292	-3.4854	-3.6333	-2.8937	-3.4333	-3.2958	343.413	107.520	231.036	370.866	138.738	185.365	305.127	293.462	265.979	397.638	404.704	171.114	365.184	342.912	156.258	359.667	0.0010633	0.00045785	0.00012945	1344.9	6.5526e-06	5.1868e-06	1346.7	369.47	6.8513e-06	4.5085e-06	419.66	138.03	120.23	40.452	6.0192e-06	50.726	0.00081934	0.00071231	0.00021666	1382.5	7.9874e-06	8.5983e-06	1380.6	381.42	8.091e-06	8.1451e-06	432.65	141.99	123.49	41.944	8.0599e-06	52.665	105.163	169.041	192.317	98.018	213.560	239.524	97.549	102.448	228.545	230.678	101.997	106.512	106.659	111.595	227.132	110.585	-8191	255	
51152.984	1	1	0	0	0.13875	0.073406	0.081739	0.10066	0.058073	0.035119	0.10655	0.17008	0.30274	0.2031	0.33617	0.24018	0.29303	0.21584	0.1663	0.1339	-2.4333	-3.5	-2.7938	-3.5146	-3.5833	-2.7604	-3.8917	-3.3854	-2.8167	-3.6562	-3.0417	-3.2167	-3.5875	-2.8354	-3.4771	-3.3521	290.849	379.367	272.233	374.496	183.437	292.458	333.305	375.794	110.854	110.132	432.811	441.697	316.338	416.774	408.870	351.879	0.001026	0.00058903	0.00013774	1347.4	7.4254e-06	5.4041e-06	1346.5	372.57	7.3629e-06	5.5424e-06	419.96	138.41	120.25	40.444	6.603e-06	50.657	0.00081349	0.0007826	0.00022571	1383.5	7.7475e-06	9.1727e-06	1379.9	381.54	8.0774e-06	7.9418e-06	432.69	141.75	123.42	41.954	7.9529e-06	52.69	105.307	181.517	175.541	97.846	220.338	233.543	97.722	102.437	220.032	239.025	101.866	106.396	106.609	111.410	222.746	110.246	-8191	255	
51153.055	1	1	0	0	0.079888	0.066756	0.16175	0.30085	0.091166	0.27386	0.11798	0.17983	0.074681	0.2	0.2621	0.099531	0.27101	0.28371	0.08861	0.27642	-2.3833	-3.65	-2.8792	-3.3854	-3.6688	-2.6542	-3.6083	-3.3854	-2.6937	-3.625	-3.1292	-2.9958	-3.8479	-2.9271	-3.3875	-3.5771	155.613	147.586	374.218	418.043	358.970	412.560	390.982	242.107	401.586	312.637	410.123	293.578	388.758	431.293	216.694	419.096	0.0010246	0.00051558	0.00013081	1347.6	5.7271e-06	3.8631e-06	1346.4	372.36	6.1603e-06	6.548e-06	420.59	138.29	119.76	40.446	7.0888e-06	50.818	0.00080066	0.00073708	0.00021303	1383.2	7.5893e-06	8.8916e-06	1381.5	381.57	8.0016e-06	8.4952e-06	432.5	141.99	123.38	41.921	8.249e-06	52.607	103.977	177.466	185.370	97.854	217.224	238.690	97.545	102.283	236.333	232.690	101.929	106.450	106.836	111.387	221.841	110.274	-8191	255	
51153.148	1	1	0	0	0.30202	0.22537	0.010885	0.3051	0.17554	0.17965	0.36785	0.11247	0.14652	0.32418	0.15343	0.41947	0.23675	0.26075	0.10216	0.083134	-2.4646	-3.5729	-2.9813	-3.1583	-3.5896	-2.8021	-3.55	-3.6229	-2.7687	-3.6917	-3.2333	-2.9771	-3.5854	-2.9708	-3.3167	-3.4542	222.190	362.475	284.268	390.887	168.302	431.344	359.671	367.865	133.296	239.227	391.850	139.649	401.363	378.267	239.206	237.082	0.0010522	0.00052718	0.0001456	1346.1	6.597e-06	5.1302e-06	1349.6	370.55	6.3029e-06	5.7516e-06	418.19	138.21	119.94	40.619	5.5007e-06	50.585	0.00081665	0.00078506	0.00021528	1381.8	7.617e-06	8.8259e-06	1381.3	381.61	8.4203e-06	8.6817e-06	432.15	141.99	123.36	42.021	8.0885e-06	52.647	105.740	171.326	181.003	97.918	213.823	232.729	97.646	102.493	219.702	235.413	101.906	106.387	106.760	111.350	222.750	110.344	-8191	255	
51153.270	1	1	0	0	0.22041	0.1541	0.24742	0.14597	0.081651	0.070508	0.16318	0.22944	0.046759	0.12306	0.20838	0.04632	0.2367	0.14601	0.089717	0.063072	-2.3646	-3.4625	-3.1083	-2.9708	-3.5667	-2.9771	-3.3729	-3.6875	-2.8083	-3.3583	-3.2354	-2.8812	-3.65	-3.0917	-3.1229	-3.7021	191.367	161.127	218.520	413.228	388.211	253.163	348.290	394.125	404.054	267.653	377.541	424.622	363.523	341.759	136.498	323.313	0.0010613	0.00047152	0.00012181	1351	6.7483e-06	4.2226e-06	1346.5	371.41	6.5049e-06	5.1288e-06	418.8	138.08	120.11	40.422	8.2004e-06	50.823	0.00080661	0.00076003	0.00021521	1383	7.7928e-06	8.5601e-06	1379.7	381.55	7.9632e-06	8.3102e-06	432.06	141.84	123.4	41.955	8.4045e-06	52.634	107.143	159.886	178.904	97.894	213.250	225.325	97.701	102.470	221.767	242.601	101.892	106.164	106.740	111.268	240.597	110.263	-8191	255	
51153.367	1	1	0	0	0.09931	0.24475	0.22014	0.33804	0.28226	0.09678	0.19093	0.043249	0.20498	0.28427	0.40023	0.2376	0.23706	0.27056	0.15268	0.24904	-2.4083	-3.3729	-3.3167	-3.0875	-3.4313	-3.1417	-3.1063	-3.8146	-2.8167	-3.4521	-3.6396	-2.8917	-3.6208	-3.1104	-2.8688	-3.6771	226.543	237.131	401.829	394.035	258.704	352.870	389.652	345.519	354.429	299.579	441.028	101.810	105.030	338.738	125.217	299.437	0.0010969	0.0004392	0.00013608	1351.2	7.4644e-06	4.7192e-06	1350.1	372.05	4.9312e-06	4.9025e-06	420.11	137.83	119.69	40.211	5.9205e-06	50.594	0.00085097	0.00071763	0.0002014	1382.7	7.9399e-06	8.9389e-06	1380.6	381.51	7.9926e-06	8.3545e-06	432.56	141.72	123.29	41.89	8.1059e-06	52.625	105.664	176.639	169.065	97.710	225.004	230.858	97.609	102.439	227.385	237.422	101.923	106.272	106.762	111.425	223.887	110.219	-8191	255	
51153.465	1	1	0	0	0.15297	0.29561	0.13478	0.014547	0.17621	0.098037	0.018825	0.030155	0.13667	0.13651	0.13741	0.37334	0.27315	0.12905	0.26518	0.16318	-2.3625	-3.1312	-3.4771	-2.7458	-3.55	-3.2208	-2.8146	-3.8896	-2.7292	-3.3812	-3.6979	-3.0771	-3.6146	-3.25	-2.8771	-3.8229	410.590	179.280	248.620	116.395	198.735	156.452	98.465	294.377	300.477	400.076	331.447	437.772	433.079	427.942	219.507	320.749	0.0010693	0.00050394	0.00015226	1345.4	5.7101e-06	5.5945e-06	1348.8	372.44	7.3213e-06	5.5138e-06	417.86	137.89	120.07	40.333	5.8526e-06	50.513	0.00082317	0.00076341	0.00019926	1380.3	7.6734e-06	8.5311e-06	1379.7	381.88	8.0955e-06	8.7673e-06	432.06	141.8	123.46	41.921	7.8285e-06	52.628	105.656	164.099	182.836	97.749	218.297	237.069	97.627	102.427	225.165	235.176	101.751	106.585	107.018	111.656	243.506	110.286	-8191	255	
51153.559	1	1	0	0	0.26739	0.051155	0.20732	0.090728	0.12154	0.094748	0.21862	0.052485	0.057759	0.14779	0.22599	0.029893	0.28989	0.23197	0.039238	0.24484	-2.6417	-3.1771	-3.4625	-3.2313	-3.3208	-3.3667	-3.075	-3.6771	-2.8604	-3.1979	-3.6896	-2.825	-3.6604	-3.6312	-2.8688	-3.8542	307.986	344.508	333.151	407.165	257.639	277.464	385.571	255.423	351.447	257.482	143.988	131.504	411.952	433.034	159.113	289.875	0.0011019	0.00051184	0.00015069	1345.6	6.7233e-06	5.9806e-06	1350.1	371.44	8.3654e-06	4.9933e-06	418.07	138.09	119.75	40.344	7.1605e-06	50.758	0.00082757	0.0007848	0.0002091	1380.7	7.7198e-06	8.4288e-06	1379.6	382.04	8.2698e-06	8.382e-06	432.13	141.84	123.47	41.896	8.2763e-06	52.62	104.748	185.538	175.809	97.690	215.480	225.944	97.592	102.536	225.535	234.555	101.832	106.217	106.770	111.474	231.000	110.408	-8191	255	
51153.680	1	1	0	0	0.10435	0.046013	0.13424	0.39256	0.1433	0.20564	0.20871	0.32552	0.059222	0.10109	0.089541	0.28284	0.12418	0.14813	0.16429	0.010856	-2.6	-3.0146	-3.6604	-3.0375	-3.3708	-3.4771	-2.8937	-3.6417	-3.0687	-2.9854	-3.7667	-2.8646	-3.1271	-3.5979	-2.5812	-3.4958	183.382	228.632	383.707	397.941	317.993	234.400	347.782	414.193	438.657	295.549	331.652	176.548	96.997	430.034	234.157	428.254	0.0010567	0.00049853	0.00013582	1345.2	7.9669e-06	3.5286e-06	1344.4	372.49	6.7593e-06	4.8643e-06	418.45	137.52	120.1	40.039	6.19e-06	50.632	0.00081158	0.00074862	0.00020238	1379.8	7.9321e-06	8.5433e-06	1379.7	382.02	7.7719e-06	9.07e-06	431.86	141.64	123.4	41.813	8.3174e-06	52.608	107.092	166.026	174.762	97.709	219.789	234.369	97.752	102.416	227.888	225.622	101.885	106.390	106.798	111.337	225.882	110.382	-8191	255	
51153.750	1	1	0	0	0.16394	0.12668	0.043447	0.27105	0.21271	0.083052	0.16254	0.15477	0.12719	0.33688	0.1333	0.27445	0.11094	0.069042	0.41406	0.078855	-2.7917	-2.8667	-3.6229	-3.1	-3.1604	-3.6333	-2.9854	-3.5458	-3.2896	-2.6125	-3.8063	-2.9604	-3.1958	-3.5958	-2.65	-3.5646	135.533	264.394	292.970	424.239	279.921	283.936	376.054	310.171	90.284	161.248	431.903	441.116	394.425	416.939	199.252	270.213	0.0010323	0.00047129	0.00011938	1341.5	6.811e-06	4.6713e-06	1342.8	371.64	6.0657e-06	5.8586e-06	419.8	138.12	120.35	40.231	5.8843e-06	50.62	0.00078741	0.00076535	0.00020452	1379	7.9697e-06	7.8086e-06	1378.4	381.52	7.6373e-06	9.1021e-06	432.78	141.83	123.4	41.908	8.4318e-06	52.625	106.382	168.587	178.922	97.897	212.715	235.602	97.593	102.573	224.705	225.562	102.015	106.111	106.920	111.447	226.549	110.644	-8191	255	
51153.848	1	1	0	0	0.10466	0.12603	0.13239	0.33009	0.14465	0.16569	0.19158	0.12144	0.11607	0.13111	0.2396	0.071662	0.10682	0.18409	0.070177	0.19491	-2.875	-2.875	-3.5042	-3.1958	-2.9875	-3.625	-2.8312	-3.5521	-3.3167	-2.7	-3.8792	-3.1188	-2.9979	-3.775	-2.7667	-3.5042	260.320	418.302	247.088	406.049	100.986	433.014	333.236	332.682	403.038	104.105	313.502	242.614	120.198	431.471	398.628	341.728	0.0010652	0.0004955	0.00013189	1341.1	6.0765e-06	4.2849e-06	1340.7	371.49	6.8158e-06	5.1439e-06	417.5	137.96	119.95	40.453	6.3041e-06	50.578	0.00081122	0.00081048	0.00019991	1379	7.9775e-06	8.1446e-06	1378.6	381.65	7.9677e-06	8.2873e-06	431.46	141.79	123.44	41.97	8.1631e-06	52.621	102.487	165.316	185.743	97.933	224.262	229.998	97.300	102.477	220.217	232.200	101.684	106.145	106.959	111.544	226.750	110.582	-8191	255	
51153.941	1	1	0	0	0.10466	0.1254	0.053262	0.12105	0.24724	0.11347	0.1764	0.077088	0.19315	0.39464	0.20611	0.11775	0.18789	0.23389	0.098334	0.11918	-3.1125	-2.6521	-3.5187	-3.3708	-2.9542	-3.5146	-2.9437	-3.2562	-3.6396	-2.7979	-3.5042	-3.0312	-3.0271	-3.5458	-2.8333	-3.0917	134.299	325.066	225.556	390.138	372.811	167.461	362.463	196.525	305.714	206.547	118.485	241.354	391.645	431.444	356.169	304.757	0.0010513	0.00055111	0.00013395	1345.5	7.0966e-06	4.2358e-06	1353.2	374.26	6.377e-06	5.0251e-06	421.32	138.56	121.3	40.602	6.1467e-06	50.907	0.00080946	0.00081618	0.00020794	1381.8	8.1113e-06	7.8132e-06	1379.6	382.38	7.5615e-06	9.2626e-06	432.79	142.06	123.72	41.915	8.1594e-06	52.599	105.706	170.880	173.351	98.017	216.590	240.150	96.201	101.176	219.705	239.968	100.348	104.711	105.491	110.056	229.398	108.828	-8191	255	
51154.062	1	1	0	0	0.16047	0.14698	0.26335	0.29062	0.15587	0.093588	0.1046	0.22123	0.16864	0.029473	0.23309	0.22193	0.3233	0.070652	0.20297	0.19346	-3.0958	-2.6604	-3.4708	-3.1729	-2.6896	-3.5458	-3.1229	-3.1354	-3.3521	-2.6771	-3.4167	-3.3937	-2.8875	-3.7104	-2.9521	-3.0563	186.417	160.398	315.884	388.425	397.079	341.115	397.255	368.780	235.545	418.305	395.630	306.769	143.885	344.295	404.169	435.311	0.0010273	0.00047569	0.00011911	1352	6.6404e-06	5.092e-06	1352.7	376.13	6.8804e-06	6.2031e-06	422.89	139.33	120.73	40.689	6.444e-06	50.862	0.00078627	0.00080218	0.00021463	1381.3	8.2462e-06	8.2394e-06	1379.5	382.58	7.7108e-06	9.2978e-06	433.02	142.09	123.42	41.966	8.249e-06	52.581	103.895	176.982	177.826	96.245	214.780	239.929	96.037	100.977	226.394	241.425	100.452	104.580	105.156	110.002	233.078	108.787	-8191	255	
51154.160	1	1	0	0	0.10512	0.17653	0.06192	0.15881	0.091092	0.11801	0.35259	0.28751	0.1396	0.25128	0.051451	0.14322	0.2728	0.16037	0.12923	0.35354	-3.2729	-2.6375	-3.4042	-3.5708	-2.9146	-3.5938	-3.3146	-2.9375	-3.5083	-2.8792	-3.4104	-3.525	-2.7646	-3.6083	-2.95	-2.9042	138.089	392.465	431.810	107.230	272.337	317.514	383.858	383.039	366.641	108.470	126.335	192.682	92.695	405.574	164.822	352.824	0.0010479	0.0005917	0.00016763	1353.9	5.2365e-06	5.2111e-06	1355.8	373.47	5.4944e-06	4.9343e-06	420.21	138.28	120.71	40.569	6.4069e-06	51.212	0.00077995	0.00081035	0.00020209	1382.8	7.9742e-06	8.551e-06	1381	381.88	7.7618e-06	8.6633e-06	432.39	141.78	123.43	41.955	8.2091e-06	52.798	104.422	181.936	177.745	96.094	208.107	219.882	96.098	100.827	219.319	236.913	100.266	104.703	105.069	110.068	227.262	109.227	-8191	255	
51154.254	1	1	0	0	0.040374	0.21554	0.22234	0.13271	0.16158	0.20608	0.37293	0.18253	0.11954	0.11143	0.082646	0.24319	0.33562	0.21477	0.32194	0.14002	-3.1458	-2.7854	-3.2667	-3.3979	-2.7146	-3.4062	-3.3333	-3.0812	-3.4813	-2.9146	-3.2521	-3.6396	-2.8563	-3.575	-3.1021	-3.0771	131.714	419.890	164.715	141.901	130.690	428.744	422.348	391.794	403.610	427.159	423.211	389.808	391.942	402.227	405.545	428.708	0.0010615	0.00046895	0.00014516	1353	6.1744e-06	4.1912e-06	1352.3	374.11	6.4778e-06	5.1449e-06	421.59	138.6	120.79	40.702	6.0909e-06	51.088	0.00078456	0.00080049	0.00021386	1382.5	8.1666e-06	8.5678e-06	1381.3	381.98	7.4461e-06	9.362e-06	432.43	141.69	123.41	41.988	7.8397e-06	52.713	103.842	160.370	179.233	96.210	224.829	230.513	95.990	100.970	223.382	243.564	100.340	104.627	105.199	110.351	222.579	108.572	-8191	255	
51154.352	1	1	0	0	0.099934	0.11331	0.20322	0.12123	0.22321	0.20975	0.12696	0.15876	0.1925	0.057513	0.11099	0.1964	0.29825	0.24459	0.23757	0.10555	-3.2562	-2.9958	-3.0563	-3.6937	-2.6562	-3.2854	-3.4938	-2.8771	-3.675	-2.8875	-2.9542	-3.5958	-2.8354	-3.5021	-3.2542	-2.9042	309.527	104.160	382.950	142.554	328.687	196.919	378.598	432.521	394.213	261.665	437.489	94.725	241.606	97.421	114.176	317.185	0.0010381	0.00055415	0.00016511	1351.8	5.3123e-06	4.5175e-06	1353	374.52	6.5338e-06	5.1001e-06	421.23	138.55	120.56	40.485	5.9994e-06	51.095	0.00078006	0.00075498	0.0002216	1381.3	7.8735e-06	8.5219e-06	1380.6	382.39	7.592e-06	8.9691e-06	432.3	141.85	123.32	41.921	7.9467e-06	52.696	104.596	177.962	179.427	96.208	217.749	229.007	96.065	101.054	228.621	231.841	100.113	104.861	105.156	109.933	232.896	108.818	-8191	255	
51154.449	1	1	0	0	0.088412	0.14436	0.21318	0.10432	0.024339	0.27659	0.13148	0.11641	0.34161	0.044709	0.081592	0.3837	0.013933	0.10437	0.24613	0.073304	-3.3104	-3.0417	-3.0604	-3.7833	-2.5167	-3.3417	-3.6146	-2.775	-3.5271	-3.1292	-2.9021	-3.5979	-2.8271	-3.2083	-3.3875	-2.65	215.867	172.306	294.289	220.081	89.774	234.443	425.361	381.841	209.251	434.189	423.676	91.366	319.367	282.649	115.313	370.236	0.001071	0.00044059	0.00012868	1353.1	4.9489e-06	4.4389e-06	1357	373.84	5.8032e-06	4.3021e-06	423.11	138.41	120.28	40.592	5.8631e-06	50.867	0.00081137	0.00078999	0.00021434	1380.6	7.9454e-06	8.4715e-06	1380.5	382	7.8115e-06	8.6893e-06	433.38	141.85	123.25	42.01	7.3894e-06	52.669	104.732	179.791	178.495	96.311	214.613	234.736	96.114	100.957	211.012	238.077	100.442	104.759	105.350	110.057	231.416	108.772	-8191	255	
51154.543	1	1	0	0	0.097666	0.076614	0.10143	0.22148	0.22998	0.11478	0.21926	0.11888	0.19151	0.24613	0.20583	0.080891	0.21047	0.25562	0.14627	0.18347	-3.2917	-2.9813	-2.9271	-3.9333	-2.7333	-3.1417	-3.7479	-2.9229	-3.4979	-3.3292	-2.725	-3.6813	-2.8792	-3.1208	-3.5062	-2.8312	373.538	229.471	192.550	347.515	97.062	250.566	370.979	350.190	162.100	112.047	412.597	313.785	399.628	409.929	137.357	360.616	0.0010606	0.00050173	0.00014665	1351.2	6.7993e-06	5.4627e-06	1354	373.23	6.2152e-06	5.7526e-06	419.95	139.2	120.18	40.654	7.7879e-06	50.971	0.00079579	0.00078545	0.00021408	1380.4	8.2971e-06	8.6793e-06	1381.7	381.69	7.6984e-06	8.3178e-06	433.08	142.07	123.21	41.99	7.7265e-06	52.633	104.444	166.366	180.682	96.235	222.399	243.215	96.237	100.854	220.811	226.207	100.548	104.985	105.268	109.969	222.966	108.819	-8191	255	
51154.664	1	1	0	0	0.16175	0.14007	0.1255	0.29906	0.14387	0.097795	0.16374	0.020919	0.082486	0.086132	0.086254	0.18941	0.050828	0.17947	0.083613	0.17628	-2.9896	-3.4729	-2.7917	-3.675	-2.9458	-3.1063	-3.7479	-2.8729	-3.3229	-3.2833	-2.7438	-3.7833	-3.0021	-3.1562	-3.6917	-2.8063	214.798	326.202	196.528	435.236	239.800	269.056	385.077	212.794	266.393	167.646	432.048	434.533	164.792	337.187	344.935	383.991	0.0010508	0.0005813	0.00011273	1352.1	6.1182e-06	4.3149e-06	1356.6	375.3	7.1451e-06	5.1665e-06	422.78	138.9	120.49	40.665	5.8615e-06	51.033	0.0007902	0.00076859	0.00021208	1381	8.1002e-06	8.1721e-06	1381.6	381.75	7.8726e-06	8.2628e-06	432.92	141.96	123.33	41.935	7.7016e-06	52.669	106.078	170.192	191.141	96.343	218.279	257.581	96.158	100.983	221.640	231.993	100.371	104.969	105.201	110.039	230.806	108.912	-8191	255	
51154.758	1	1	0	0	0.1278	0.025779	0.043684	0.3571	0.13027	0.1625	0.26724	0.146	0.18206	0.078077	0.14496	0.13731	0.2918	0.13495	0.063642	0.19629	-3.2687	-3.3625	-2.6146	-3.75	-2.975	-2.7604	-3.8	-2.9375	-3.1042	-3.4167	-2.9333	-3.625	-3.2021	-3.1833	-3.6792	-3.0104	402.422	382.928	120.410	411.981	436.184	242.544	315.509	117.238	229.326	298.693	359.053	401.604	313.019	373.479	306.717	374.515	0.0010799	0.00049101	0.00012281	1356.9	6.4289e-06	4.1172e-06	1356.5	372.57	7.3517e-06	5.9983e-06	421.16	138.83	120.31	40.658	6.3172e-06	50.736	0.00081805	0.00073021	0.00021779	1382.9	7.9034e-06	8.4838e-06	1382.3	381.56	8.0424e-06	8.807e-06	432.41	141.85	123.34	41.932	7.4242e-06	52.515	103.732	169.243	168.435	96.294	223.213	215.604	96.141	101.086	229.676	230.403	100.492	104.914	105.215	110.029	218.166	108.946	-8191	255	
51154.855	1	1	0	0	0.15393	0.19575	0.084242	0.36316	0.03762	0.15689	0.15744	0.034906	0.12973	0.082634	0.21642	0.066743	0.093328	0.17048	0.19596	0.0055706	-2.9604	-3.4833	-2.6729	-3.4917	-3.1813	-2.7938	-3.8708	-3.0375	-3.1375	-3.4688	-2.9437	-3.4354	-3.6562	-2.9667	-3.5042	-3.1083	384.746	378.658	327.747	423.253	295.314	360.487	370.716	342.291	409.175	233.624	405.264	403.715	412.245	108.107	224.845	420.816	0.0010367	0.00059282	0.00012095	1355.4	6.0146e-06	5.0249e-06	1354.3	374.2	8.1502e-06	5.3845e-06	423.43	138.9	120.72	40.598	6.4574e-06	50.95	0.00081267	0.00075861	0.0002224	1381.5	7.9532e-06	9.0031e-06	1379.3	382.01	8.0424e-06	8.006e-06	432.66	141.88	123.27	41.872	7.8944e-06	52.665	104.079	171.368	181.360	96.505	214.555	223.772	95.960	101.124	219.655	237.754	100.223	104.929	105.509	110.087	227.195	109.102	-8191	255	
51154.977	1	1	0	0	0.17385	0.16443	0.13398	0.27522	0.16323	0.13117	0.24754	0.30332	0.092504	0.15864	0.12055	0.16418	0.23666	0.21862	0.046538	0.082762	-2.7729	-3.4813	-2.7979	-3.6708	-3.3625	-2.9021	-3.7458	-3.2	-2.8021	-3.4708	-2.8688	-3.4417	-3.375	-2.8812	-3.6	-3.2562	240.955	324.381	280.273	418.367	219.161	87.440	380.079	441.055	411.152	346.343	442.889	432.833	191.757	389.087	331.711	436.937	0.0010547	0.00042181	0.00015801	1352.6	6.9685e-06	5.3384e-06	1355	372.61	6.204e-06	4.3345e-06	422.46	138.64	120.43	40.534	6.082e-06	50.802	0.000802	0.00074616	0.00021783	1381.8	8.1201e-06	8.858e-06	1380.5	381.46	7.54e-06	8.1145e-06	432.39	141.85	123.17	41.912	7.5237e-06	52.654	105.716	171.417	175.892	96.514	214.868	235.150	96.236	101.164	223.040	237.779	100.195	105.099	105.387	109.925	228.428	108.972	-8191	255	
51155.047	1	1	0	0	0.12223	0.032631	0.13578	0.1992	0.083988	0.05546	0.17546	0.082662	0.18889	0.25757	0.036996	0.29669	0.083474	0.31324	0.20443	0.084357	-2.6458	-3.4875	-2.7542	-3.5583	-3.4792	-2.7562	-3.6542	-3.2188	-2.7917	-3.6479	-2.9125	-3.2938	-3.7271	-2.7854	-3.4521	-3.2313	100.360	121.213	217.278	378.278	329.177	115.682	416.510	416.910	373.854	274.189	313.673	203.962	408.922	169.924	400.988	97.530	0.0010608	0.00052173	0.00014422	1357.9	5.4459e-06	5.0401e-06	1353.7	372.87	6.8076e-06	4.7087e-06	421.29	138.47	120.77	40.676	7.335e-06	50.678	0.00080785	0.00071192	0.00022691	1382.5	7.4799e-06	9.22e-06	1380.7	381.46	8.0967e-06	8.2659e-06	432.59	141.86	123.42	41.949	7.8036e-06	52.56	103.299	181.745	172.182	96.452	216.282	238.547	96.397	101.179	221.520	223.722	100.639	104.837	105.455	110.193	226.506	108.971	-8191	255	
51155.141	1	1	0	0	0.24255	0.1405	0.21732	0.20607	0.11409	0.15282	0.29895	0.19209	0.051684	0.08047	0.15351	0.27123	0.20275	0.090436	0.15522	0.23725	-2.4083	-3.6188	-2.9354	-3.3875	-3.6104	-2.8021	-3.6354	-3.3104	-2.6833	-3.5687	-3.0542	-2.9813	-3.5979	-2.8625	-3.2125	-3.4375	439.086	172.114	418.532	421.979	208.492	108.230	377.789	305.866	301.389	240.541	93.161	412.339	415.195	126.634	231.846	375.870	0.0010811	0.0005957	0.00014767	1353.8	6.2818e-06	5.0275e-06	1360.5	374.23	7.392e-06	5.619e-06	422.14	139.36	120.38	40.69	7.7794e-06	50.925	0.00081805	0.00075848	0.00022197	1381.6	7.7187e-06	8.8656e-06	1383.9	382.47	8.1193e-06	8.5319e-06	432.38	142.16	123.5	42.06	8.0686e-06	52.627	104.648	173.347	180.301	96.509	214.794	244.463	96.201	101.085	220.914	239.310	100.402	104.942	105.623	110.094	227.555	109.249	-8191	255	
51155.238	1	1	0	0	0.042953	0.21638	0.20022	0.045304	0.1528	0.12345	0.30283	0.10794	0.1986	0.085466	0.16472	0.24141	0.060674	0.34851	0.054718	0.13096	-2.0875	-3.7438	-2.9792	-3.0646	-3.6396	-2.6479	-3.3438	-3.475	-2.9229	-3.5187	-3.125	-3.0542	-3.675	-2.9771	-3.3729	-3.575	328.297	296.363	119.868	114.640	358.498	144.643	106.466	360.254	347.867	241.130	363.021	386.372	201.099	418.861	320.903	382.279	0.0010841	0.00057224	0.0001314	1358.5	6.6573e-06	3.2826e-06	1357.6	374.25	6.9278e-06	5.0184e-06	421.98	138.77	120.76	40.546	6.5497e-06	51.099	0.00082571	0.00074331	0.00021743	1385.4	7.586e-06	8.8672e-06	1384.7	382.19	8.2641e-06	8.671e-06	433.42	142.01	123.48	41.955	8.0599e-06	52.711	106.249	172.337	177.349	96.582	219.200	249.083	96.301	101.022	211.385	224.250	100.496	105.108	105.512	110.269	223.722	109.103	-8191	255	
51155.359	1	1	0	0	0.077638	0.24906	0.071256	0.1121	0.081528	0.059417	0.30913	0.17601	0.27519	0.17831	0.13185	0.099598	0.18688	0.14464	0.081543	0.11959	-2.4833	-3.5917	-3.1229	-3.1104	-3.5354	-2.9208	-3.4229	-3.6562	-2.6188	-3.5333	-3.3917	-2.7687	-3.6146	-2.9813	-2.9729	-3.6625	155.657	349.388	255.172	114.157	238.310	166.082	340.122	402.606	250.533	198.313	428.595	206.945	396.652	283.882	344.031	104.524	0.0010407	0.00056402	0.00015936	1357.4	5.9195e-06	4.89e-06	1362.6	375.35	8.3732e-06	5.0353e-06	424.78	138.85	120.78	40.64	4.7671e-06	51.052	0.00081474	0.0007363	0.0002159	1386.2	8.0637e-06	9.0841e-06	1387.5	383.39	8.6941e-06	8.5548e-06	433.68	142.03	123.58	42.037	8.2154e-06	52.684	105.210	169.992	179.098	96.766	229.279	236.178	96.242	101.228	206.541	244.100	100.589	105.100	105.552	110.179	215.053	109.226	-8191	255	
51155.453	1	1	0	0	0.22986	0.10031	0.15474	0.1535	0.20247	0.19016	0.21003	0.14238	0.13012	0.39763	0.13405	0.28063	0.18084	0.14889	0.13587	0.13045	-2.3063	-3.3625	-3.2083	-2.9542	-3.5604	-3.0729	-3.3625	-3.775	-2.6792	-3.4042	-3.3937	-2.8312	-3.7917	-2.9771	-2.8521	-3.6562	430.515	336.529	434.978	354.389	258.140	145.207	352.002	141.807	231.959	432.856	101.734	361.083	308.400	442.240	222.546	355.673	0.0010802	0.00045818	0.00014695	1361.4	6.8651e-06	4.6993e-06	1361.2	373.46	6.5723e-06	5.0586e-06	423.1	139.48	121.08	40.81	5.4736e-06	50.899	0.00084176	0.00076496	0.00020162	1386.9	8.0062e-06	8.8366e-06	1386.6	382.41	8.3965e-06	8.5838e-06	433.25	142.23	123.69	42.021	8.0051e-06	52.652	105.868	179.274	170.394	96.596	218.190	236.602	96.504	101.264	221.688	224.057	100.496	104.970	105.774	110.241	238.805	109.232	-8191	255	
51155.551	1	1	0	0	0.22554	0.031422	0.043429	0.1598	0.08334	0.24728	0.43846	0.049527	0.071934	0.082726	0.2169	0.27663	0.25172	0.25246	0.092542	0.2638	-2.3333	-3.1667	-3.2333	-3.0792	-3.625	-3.1937	-3.1229	-3.7687	-2.8896	-3.3312	-3.6771	-2.7875	-3.6542	-3.2604	-2.7458	-3.7646	381.438	378.960	438.904	408.484	101.301	390.747	318.854	439.939	297.929	366.706	112.179	138.945	359.288	349.606	245.501	399.740	0.0010783	0.00055778	0.00012005	1357.6	5.2e-06	5.7802e-06	1359.2	374.11	5.508e-06	5.373e-06	421.96	138.42	120.89	40.666	5.8917e-06	51.096	0.00080982	0.00076392	0.00022019	1386.2	7.628e-06	8.609e-06	1384.6	382.61	8.2426e-06	8.7627e-06	432.56	142.04	123.79	42.058	8.0337e-06	52.772	105.718	164.346	169.281	96.542	214.145	243.669	96.171	101.252	219.399	240.184	100.702	104.854	105.503	110.067	232.814	109.328	-8191	255	
51155.621	1	1	0	0	0.013741	0.177	0.1562	0.085038	0.36538	0.25978	0.39392	0.2402	0.12127	0.18108	0.094221	0.17096	0.015742	0.11363	0.14881	0.37791	-2.5438	-3.1562	-3.5229	-2.9354	-3.5146	-3.2479	-2.9688	-3.7625	-3.0375	-3.1229	-3.7042	-2.5979	-3.5354	-3.3688	-2.7875	-3.675	215.260	202.126	156.048	290.714	362.061	86.012	342.927	104.153	90.141	94.878	173.522	111.885	138.257	382.464	331.690	417.779	0.0010428	0.00039831	0.00016705	1359.1	6.5003e-06	4.6352e-06	1355.6	372.75	6.1753e-06	5.6159e-06	423.14	138.76	120.98	40.716	5.3728e-06	50.997	0.00081707	0.00072606	0.00020456	1386.2	7.8138e-06	8.4685e-06	1382.4	382.13	7.9971e-06	8.6068e-06	433.28	142.07	123.85	42.001	8.1507e-06	52.696	105.168	174.679	188.374	96.388	223.889	233.143	96.383	101.287	225.425	232.216	100.569	104.794	105.716	110.239	214.928	109.389	-8191	255	
51155.742	1	1	0	0	0.21609	0.29164	0.015373	0.32611	0.057682	0.14938	0.18734	0.1474	0.14113	0.040181	0.20458	0.13751	0.1639	0.2786	0.070754	0.12119	-2.6146	-2.8521	-3.4917	-3.0021	-3.3812	-3.2687	-3.0708	-3.7792	-3.0062	-2.8646	-3.8458	-3.0854	-3.3292	-3.6188	-2.8792	-3.4042	429.761	198.031	245.159	371.528	351.344	332.077	410.183	382.943	113.126	93.599	325.958	360.819	388.698	114.971	328.069	106.895	0.0010741	0.00050734	0.00014386	1355.9	7.3946e-06	3.6303e-06	1359.9	374.16	7.5997e-06	3.6324e-06	421.86	138.62	120.65	40.616	7.2136e-06	50.986	0.00081795	0.00077767	0.00020522	1383.3	8.0903e-06	8.1278e-06	1383.8	382.58	7.7731e-06	8.4784e-06	433.26	142.05	123.57	41.948	8.2315e-06	52.714	103.992	171.017	184.636	96.598	214.981	237.210	96.374	101.352	228.503	225.297	100.826	105.386	105.874	110.443	224.432	109.382	-8191	255	
51155.840	1	1	0	0	0.049125	0.16917	0.18909	0.21921	0.085667	0.06379	0.24938	0.20507	0.17675	0.12173	0.17363	0.47473	0.1999	0.16851	0.14917	0.14346	-2.7354	-2.7667	-3.6958	-3.0625	-3.1292	-3.4417	-2.8792	-3.5167	-3.1292	-2.7667	-3.7125	-3.0458	-3.1979	-3.6292	-2.8083	-3.6896	126.415	428.382	306.172	324.865	430.111	210.188	402.134	320.460	440.773	383.617	406.897	389.282	393.773	103.019	393.082	338.050	0.001046	0.00059465	0.00016536	1354.5	5.3071e-06	5.3355e-06	1357.4	374.68	6.8505e-06	5.2169e-06	422.88	139.23	120.41	40.689	6.5382e-06	50.971	0.00079967	0.00077158	0.00020601	1382.1	7.8868e-06	8.6105e-06	1381.8	382.84	8.1035e-06	8.9217e-06	433.25	142	123.21	41.975	8.4642e-06	52.715	104.545	169.380	186.434	96.719	226.381	235.480	96.563	101.687	215.057	239.233	100.839	105.095	105.748	110.434	230.406	109.434	-8191	255	
51155.934	1	1	0	0	0.15741	0.34808	0.33288	0.076037	0.094134	0.017946	0.31225	0.30304	0.054751	0.19258	0.31536	0.12454	0.35245	0.287	0.041769	0.16905	-2.7771	-2.8458	-3.7687	-3.1625	-3.0896	-3.6188	-2.8396	-3.6229	-3.2208	-2.7917	-3.7854	-3.0896	-3.2333	-3.7	-2.8688	-3.4354	363.719	298.703	353.200	384.404	224.051	224.412	352.971	341.890	356.997	379.852	397.024	117.055	330.859	382.470	402.968	373.319	0.0010664	0.00058679	0.00014311	1352.7	6.6501e-06	3.5309e-06	1358.5	373.7	6.7693e-06	3.528e-06	421.75	139.51	121.09	40.431	6.8028e-06	51.063	0.00080909	0.00079336	0.00021139	1382.6	7.9487e-06	8.0958e-06	1382.1	382.36	7.781e-06	8.6114e-06	432.55	142.07	123.58	41.897	8.4467e-06	52.806	104.203	178.098	176.849	96.586	221.134	236.130	96.244	101.353	226.561	232.675	100.740	105.043	105.518	110.261	222.343	109.485	-8191	255	
51156.055	1	1	0	0	0.053379	0.07607	0.078533	0.054315	0.14259	0.17097	0.15678	0.18796	0.10252	0.16759	0.061091	0.14729	0.22395	0.26882	0.09591	0.035937	-3.0375	-2.7292	-3.6125	-3.1375	-2.9604	-3.6063	-2.9896	-3.4813	-3.3854	-2.7875	-3.6271	-3.1396	-2.975	-3.7375	-2.7938	-3.4625	157.657	361.876	180.292	194.273	297.685	190.330	335.164	407.614	294.095	160.651	232.448	414.562	347.250	431.612	238.224	316.682	0.0010405	0.00061642	0.00016041	1358.6	5.9543e-06	3.6833e-06	1362.8	374.79	6.766e-06	5.5016e-06	421.48	138.9	120.56	40.626	5.5868e-06	51.09	0.0008078	0.00079466	0.00021753	1384.7	8.1732e-06	8.0958e-06	1385.4	383.07	8.0016e-06	8.9339e-06	433.07	141.92	123.47	41.98	8.2166e-06	52.713	104.821	172.096	191.134	96.643	228.361	239.708	96.440	101.374	209.610	231.545	100.815	104.905	105.708	110.454	239.156	109.445	-8191	255	
51156.148	1	1	0	0	0.074032	0.18532	0.17761	0.3173	0.24218	0.23383	0.29007	0.17083	0.163	0.14294	0.10319	0.10555	0.16378	0.26408	0.1081	0.26648	-3.0958	-2.7479	-3.525	-3.4604	-2.8312	-3.6917	-2.9813	-3.4854	-3.5521	-2.9188	-3.6	-3.2125	-2.8833	-3.675	-2.9396	-3.0687	419.197	307.395	339.831	403.959	187.905	195.122	397.095	371.958	306.661	270.655	407.790	119.935	225.779	414.050	125.837	382.772	0.0010665	0.0004564	0.00014427	1357.2	6.7837e-06	4.4733e-06	1357.7	374.18	6.8361e-06	4.6846e-06	422.74	139.31	121.32	40.672	6.1198e-06	50.966	0.00081562	0.00078506	0.00021401	1383.2	8.3955e-06	8.2012e-06	1382.2	382.77	7.7414e-06	8.9202e-06	432.93	142.17	123.77	41.999	8.229e-06	52.696	103.823	164.798	175.483	96.729	220.177	230.676	96.591	101.537	221.622	235.720	101.012	105.021	105.857	110.501	223.181	109.631	-8191	255	
51156.223	1	1	0	0	0.16994	0.11793	0.27237	0.065905	0.1496	0.073599	0.2139	0.35873	0.27522	0.24046	0.085688	0.052371	0.15965	0.10154	0.068338	0.26664	-3.3583	-2.6979	-3.4938	-3.4875	-2.7271	-3.575	-3.1188	-3.1021	-3.6271	-2.7042	-3.5521	-3.5542	-2.7604	-3.775	-2.8771	-3.0979	130.562	218.647	311.402	115.255	421.402	246.198	287.001	363.720	147.597	88.808	241.228	126.018	310.233	106.853	163.859	385.854	0.0011167	0.00048524	0.00014265	1359.5	6.689e-06	4.7264e-06	1357.6	374.67	7.3364e-06	5.0061e-06	422.46	139.04	120.72	40.829	7.7976e-06	50.863	0.00081981	0.00081917	0.00021921	1386.9	8.1998e-06	8.4822e-06	1384.3	382.63	7.6226e-06	8.6511e-06	433.88	142.02	123.6	42.027	8.2253e-06	52.673	104.729	167.919	171.241	96.726	219.888	241.121	96.431	101.523	226.171	232.080	100.911	105.052	105.802	110.607	229.533	109.439	-8191	255	
51156.344	1	1	0	0	0.10453	0.096833	0.29841	0.2888	0.26686	0.03324	0.17688	0.16493	0.092538	0.24323	0.082826	0.15277	0.19858	0.14685	0.12053	0.25688	-3.325	-2.6271	-3.3271	-3.5458	-2.7292	-3.6479	-3.325	-2.8333	-3.4708	-2.7771	-3.3833	-3.5354	-2.7875	-3.5729	-3.0771	-2.9625	307.107	397.512	226.757	100.052	263.057	379.704	349.895	83.988	339.322	202.554	428.964	129.335	333.981	97.137	254.220	379.417	0.0010367	0.00052262	0.00010763	1361.1	6.581e-06	4.1155e-06	1358.1	374.47	6.6183e-06	4.5672e-06	422.23	138.53	120.94	40.793	6.1641e-06	50.88	0.00078497	0.00079297	0.00021953	1386.9	8.0051e-06	8.4593e-06	1383.8	382.49	7.6724e-06	8.7444e-06	433.39	141.86	123.62	42.09	8.0238e-06	52.565	106.117	175.668	180.483	96.728	218.720	241.161	96.548	101.486	234.746	225.997	101.070	105.368	105.550	110.464	223.471	109.666	-8191	255	
51156.438	1	1	0	0	0.31311	0.14076	0.23247	0.21308	0.24807	0.082199	0.052817	0.42143	0.13729	0.085938	0.076579	0.24499	0.14972	0.20105	0.094122	0.29122	-3.1083	-2.875	-3.3542	-3.7417	-2.6813	-3.4771	-3.4208	-2.8875	-3.6813	-2.9875	-3.1979	-3.6375	-2.7271	-3.4125	-3.1583	-2.7833	104.678	443.361	194.582	382.243	319.556	207.307	328.959	402.566	431.431	392.289	346.979	339.975	87.118	115.419	419.083	402.779	0.0010988	0.00050602	0.00014926	1356.9	7.339e-06	4.4728e-06	1355.3	373.66	7.0272e-06	4.7419e-06	422.52	139.14	120.56	40.52	6.9912e-06	51.209	0.00081189	0.00078117	0.00021975	1384.5	8.2937e-06	8.3111e-06	1383.1	382.1	7.8591e-06	8.8819e-06	433.32	142.01	123.51	41.93	8.1071e-06	52.788	102.975	171.104	187.397	96.780	214.711	226.663	96.374	101.489	219.662	234.186	100.949	105.158	105.723	110.270	216.623	109.380	-8191	255	
51156.535	1	1	0	0	0.11291	0.32067	0.1597	0.12973	0.3966	0.14179	0.32016	0.12289	0.21229	0.20803	0.10558	0.21937	0.27012	0.20209	0.061722	0.30081	-3.1688	-2.9125	-3.0229	-3.6167	-2.8187	-3.2375	-3.4188	-2.7958	-3.5312	-3	-3.1583	-3.7042	-2.7458	-3.325	-3.2292	-2.7667	256.422	318.206	118.970	410.648	114.815	185.276	405.151	404.349	337.600	153.856	431.914	135.708	387.147	141.056	246.270	340.773	0.0010403	0.00039867	0.00015191	1355.5	6.4651e-06	5.3416e-06	1358.5	374.63	6.2894e-06	4.3316e-06	423.48	138.34	120.79	40.742	4.7482e-06	51.073	0.00078948	0.00078921	0.00021575	1384.6	8.3678e-06	8.884e-06	1383.7	382.92	7.8907e-06	8.7887e-06	433.52	141.72	123.49	41.984	8.0325e-06	52.747	104.089	164.428	184.842	96.709	219.005	234.138	96.357	101.172	223.824	239.138	100.747	105.180	105.613	110.379	225.632	109.230	-8191	255	
51156.656	1	1	0	0	0.20709	0.085969	0.083395	0.1541	0.23761	0.22759	0.089285	0.23016	0.37739	0.17927	0.24815	0.22541	0.071474	0.15716	0.077177	0.09702	-3.1833	-3.2146	-2.7729	-3.8271	-2.9333	-3.3667	-3.6417	-2.9792	-3.4833	-3.1854	-3.0312	-3.7042	-2.9667	-3.2833	-3.5208	-2.8167	276.890	411.414	268.810	426.373	273.780	211.646	378.074	361.638	347.062	177.670	193.657	89.453	438.584	399.515	227.404	136.411	0.0011022	0.00053308	0.00011811	1357.6	8.0555e-06	3.795e-06	1359.5	374.81	7.242e-06	6.422e-06	422.96	139.57	120.89	40.49	6.2584e-06	51.052	0.00082473	0.00079997	0.00021641	1384.2	8.1865e-06	8.3585e-06	1384	382.66	7.9485e-06	8.4356e-06	433.55	142.11	123.55	41.997	8.0574e-06	52.749	104.157	158.537	183.367	96.867	209.994	241.283	96.343	101.296	214.907	239.717	100.906	105.220	105.562	110.291	226.833	109.329	-8191	255	
51156.754	1	1	0	0	0.14746	0.13815	0.084777	0.22066	0.034578	0.12881	0.25593	0.41569	0.14987	0.22045	0.20184	0.15572	0.081023	0.065985	0.15712	0.15268	-3.0729	-3.2292	-2.7979	-3.7083	-2.9688	-3.1396	-3.9688	-2.7125	-3.2229	-3.4646	-3.0083	-3.8396	-3.0375	-3.1729	-3.5542	-2.8354	150.130	237.306	320.977	418.922	187.116	140.707	385.594	436.526	308.359	256.058	396.732	116.427	324.544	363.641	436.457	386.175	0.0010871	0.00045951	0.00012742	1363.5	5.9253e-06	3.934e-06	1361.2	373.65	6.4977e-06	4.8948e-06	423.56	139.76	120.52	40.791	7.2793e-06	50.911	0.00080941	0.00074655	0.00021604	1387.8	8.0494e-06	8.5021e-06	1386.3	382.4	7.7674e-06	8.5303e-06	434	142.42	123.62	42.046	8.076e-06	52.697	104.482	158.345	176.022	96.819	219.580	246.257	96.511	101.439	223.340	224.893	100.995	105.375	105.880	110.474	225.991	109.381	-8191	255	
51156.848	1	1	0	0	0.19676	0.16602	0.21606	0.155	0.19574	0.20195	0.34681	0.2712	0.24726	0.29298	0.13978	0.089033	0.06998	0.30785	0.36214	0.26115	-2.9562	-3.4833	-2.8063	-3.8187	-2.9417	-2.8229	-3.6917	-3.0292	-3.2625	-3.6312	-2.8937	-3.7521	-3.2188	-2.9062	-3.6937	-3.0083	226.556	98.775	303.632	412.827	325.311	302.939	361.947	410.140	344.571	325.200	375.450	168.052	206.081	397.828	186.169	308.145	0.0010517	0.00053454	0.00012962	1359.8	5.9485e-06	4.9051e-06	1357.4	373.85	7.6068e-06	5.9079e-06	421.56	139.39	121.13	40.812	6.7604e-06	50.884	0.00080024	0.00071153	0.00022418	1386.3	7.8768e-06	8.6518e-06	1384.9	382.51	7.9518e-06	8.3209e-06	433.22	142.38	123.82	42.136	7.5884e-06	52.757	103.384	161.154	181.186	96.740	221.333	240.116	96.582	101.368	222.473	237.695	100.738	105.240	105.979	110.382	216.839	109.229	-8191	255	
51156.918	1	1	0	0	0.10672	0.062442	0.25825	0.24153	0.27773	0.16882	0.2709	0.16724	0.097921	0.16538	0.09572	0.10388	0.16107	0.26732	0.29786	0.14406	-2.7771	-3.35	-2.8	-3.6292	-3.1	-2.7021	-3.7562	-3.0312	-3.0729	-3.5062	-2.825	-3.7292	-3.3063	-2.7979	-3.5958	-3.0187	290.220	130.077	195.953	89.757	401.713	175.071	88.018	416.750	368.050	201.299	263.824	395.759	433.644	386.324	276.365	347.374	0.0010719	0.00055361	0.00014832	1358.6	5.4131e-06	4.9995e-06	1358.3	373.85	5.4361e-06	5.8704e-06	422.85	139.05	121.18	40.746	6.3337e-06	51.114	0.00081173	0.00073643	0.00022255	1387.4	7.9167e-06	8.6441e-06	1385.2	382.61	7.8568e-06	8.6037e-06	433.83	142.21	123.81	42.022	7.8646e-06	52.875	104.369	186.663	181.782	96.673	215.738	240.952	96.736	101.271	209.024	235.580	100.823	105.338	105.857	110.496	236.791	109.323	-8191	255	
51157.039	1	1	0	0	0.093284	0.15851	0.30528	0.03276	0.12402	0.22243	0.0072291	0.15107	0.20413	0.090493	0.12826	0.054772	0.07421	0.038957	0.22817	0.18367	-2.75	-3.6146	-2.6479	-3.5583	-3.3854	-2.9354	-3.9167	-2.9875	-2.9729	-3.6458	-2.9604	-3.525	-3.4167	-2.8958	-3.6667	-3.1146	367.867	157.613	390.020	397.475	336.289	236.475	241.480	352.674	411.372	147.872	364.284	370.770	365.118	254.801	136.710	251.283	0.0010723	0.00051443	0.00014073	1361.5	7.1255e-06	5.5584e-06	1351.9	373.72	6.5586e-06	5.8896e-06	424.53	139.46	121.39	41.011	6.0954e-06	50.992	0.00079636	0.00074707	0.00022724	1387.3	7.7773e-06	8.8672e-06	1383.7	382.38	7.8545e-06	8.1069e-06	434.09	142.24	123.81	42.137	7.8733e-06	52.788	104.584	164.993	182.958	97.017	223.865	230.189	96.714	101.567	226.986	240.552	100.969	105.409	105.856	110.651	224.345	109.712	-8191	255	
51157.133	1	1	0	0	0.10089	0.0932	0.2309	0.088487	0.099789	0.22622	0.17608	0.33193	0.27404	0.14072	0.060039	0.22203	0.22631	0.26405	0.11507	0.25768	-2.5187	-3.5458	-2.7521	-3.3354	-3.5938	-2.7125	-3.7104	-3.1333	-2.8521	-3.5167	-2.8104	-3.2938	-3.4125	-3.0125	-3.5604	-3.3917	422.947	429.471	318.793	400.843	334.455	206.322	392.868	398.209	186.474	289.546	348.664	297.406	401.469	378.196	385.557	380.280	0.001071	0.00052357	0.00012196	1361.4	5.6959e-06	5.3305e-06	1359.5	374.95	6.9383e-06	4.7592e-06	423.08	139.71	121.69	40.768	5.1244e-06	50.859	0.00081908	0.00076743	0.0002147	1387.3	7.5595e-06	8.6777e-06	1385.6	382.69	7.8625e-06	8.0778e-06	433.97	142.39	123.96	42.074	7.6307e-06	52.688	106.447	172.848	164.840	97.026	219.699	235.491	96.428	101.450	223.603	229.777	100.801	105.568	105.627	110.417	230.483	109.280	-8191	255	
51157.230	1	1	0	0	0.17121	0.13276	0.087534	0.17623	0.3348	0.17908	0.12777	0.083945	0.24224	0.24292	0.1732	0.11971	0.299	0.29217	0.10899	0.11907	-2.4458	-3.6521	-2.75	-3.2792	-3.5646	-2.9125	-3.9188	-3.4042	-2.8083	-3.6813	-3.0854	-3.0438	-3.6583	-2.8542	-3.425	-3.5812	380.305	134.087	274.799	355.650	174.963	264.807	396.032	395.719	322.275	407.529	351.460	418.479	427.950	304.074	148.957	360.408	0.0010668	0.00051065	0.00013608	1356.6	5.5022e-06	5.2189e-06	1362.5	374.48	7.0969e-06	5.6357e-06	420.74	140.15	121	40.605	5.885e-06	51.065	0.00080635	0.00072437	0.00021877	1385.2	7.502e-06	9.2689e-06	1386	382.91	8.0616e-06	8.457e-06	433.23	142.67	123.91	42.106	7.9977e-06	52.786	105.208	169.928	179.123	96.803	214.243	214.634	96.699	101.695	221.436	241.293	100.967	105.154	105.722	110.354	231.539	109.309	-8191	255	
51157.328	1	1	0	0	0.24649	0.042169	0.2589	0.12859	0.25645	0.12885	0.16869	0.16791	0.27408	0.23042	0.34845	0.08307	0.11833	0.26607	0.13732	0.17902	-2.3229	-3.5167	-2.9604	-3.0458	-3.5833	-2.8812	-3.4042	-3.4167	-2.7542	-3.8042	-3.2583	-3.1083	-3.6417	-2.9708	-3.3792	-3.5875	437.347	364.785	220.055	392.250	238.394	272.993	130.747	360.576	117.008	196.964	418.797	367.924	196.576	376.629	229.225	379.659	0.0010492	0.00041227	0.00015348	1360.1	6.131e-06	5.1698e-06	1361.5	374.5	5.6544e-06	5.6046e-06	423.27	139.04	120.93	40.689	7.6269e-06	50.845	0.00079243	0.00073501	0.00021321	1387.2	7.6103e-06	8.9619e-06	1387.3	382.49	8.1023e-06	8.1833e-06	433.6	142.3	123.56	42.051	8.2228e-06	52.738	106.026	177.303	177.721	96.802	218.904	231.644	96.459	101.261	230.907	219.864	100.668	105.254	105.579	110.581	221.562	109.563	-8191	255	
51157.445	1	1	0	0	0.09108	0.15308	0.28563	0.16035	0.043865	0.038446	0.25786	0.16087	0.1939	0.051358	0.25635	0.31448	0.18517	0.074831	0.067909	0.21911	-2.3187	-3.5125	-3.175	-3.1312	-3.525	-2.8833	-3.3729	-3.6063	-2.5812	-3.3896	-3.2708	-2.9938	-3.5979	-2.9562	-3.1333	-3.6604	188.385	418.012	189.038	424.019	159.170	98.027	401.192	366.854	171.668	269.583	409.910	301.314	397.690	129.921	283.618	104.118	0.0010781	0.00040794	0.0001414	1359.2	6.1692e-06	4.5269e-06	1360.9	375.52	7.4877e-06	5.5568e-06	421.8	139.07	121.14	40.973	7.3082e-06	50.909	0.00082105	0.00074356	0.00021263	1387.1	7.5838e-06	8.7358e-06	1388.2	383.05	8.3015e-06	8.6725e-06	432.93	142.13	123.85	42.124	8.0412e-06	52.77	105.089	167.304	172.576	96.832	213.718	242.001	96.766	101.381	224.107	221.956	100.888	105.459	105.809	110.724	223.448	109.367	-8191	255	
51157.520	1	1	0	0	0.124	0.1065	0.31978	0.16306	0.14215	0.10482	0.20316	0.17474	0.18139	0.20404	0.088916	0.17264	0.19273	0.20096	0.34584	0.049645	-2.2667	-3.3979	-3.2479	-2.9437	-3.6729	-2.825	-3.2687	-3.675	-2.8063	-3.4062	-3.5646	-2.7625	-3.7458	-3.1333	-2.8875	-3.6437	398.017	275.730	109.557	375.762	234.045	300.042	417.459	416.416	350.931	414.592	417.254	416.544	84.547	304.716	146.416	423.584	0.0010029	0.00048334	0.0001045	1365.5	7.6165e-06	3.8513e-06	1359.2	375.87	7.2596e-06	4.7222e-06	422.67	139.63	120.77	40.6	6.6403e-06	51.192	0.00079465	0.00072982	0.00021336	1388.5	7.7054e-06	8.3677e-06	1386.4	383.38	8.2313e-06	8.1833e-06	433.49	142.33	123.73	42.042	8.0238e-06	52.819	105.721	167.766	167.208	96.900	220.588	243.815	96.546	101.522	223.148	215.623	100.865	105.364	105.848	110.297	231.756	109.465	-8191	255	
51157.613	1	1	0	0	0.18447	0.057497	0.090558	0.25996	0.090298	0.1535	0.15238	0.17843	0.10514	0.20369	0.14748	0.23043	0.24487	0.21016	0.2677	0.09221	-2.4646	-3.4271	-3.4062	-2.8875	-3.5333	-3.1604	-3.1354	-3.7979	-2.8583	-3.1833	-3.5479	-2.7792	-3.7875	-3.3708	-2.9375	-3.7562	241.764	380.956	217.627	431.285	404.938	387.030	356.397	362.205	85.930	335.497	406.658	111.340	419.886	127.216	211.336	321.444	0.0010909	0.00050929	0.00014473	1359.5	4.9738e-06	4.5252e-06	1357.7	374.08	5.9207e-06	4.6032e-06	423.55	139.28	120.39	40.586	6.3094e-06	51.091	0.0008357	0.00076198	0.00020758	1386.9	7.8072e-06	8.2287e-06	1384.1	382.64	8.2381e-06	8.7963e-06	433.42	142.13	123.57	42.058	8.137e-06	52.747	103.514	165.566	172.292	96.712	209.863	234.557	96.558	101.249	223.135	230.704	100.824	105.422	105.636	110.060	218.936	109.438	-8191	255	
51157.734	1	1	0	0	0.050389	0.15048	0.1976	0.20329	0.21441	0.16837	0.22226	0.19713	0.10429	0.34591	0.042731	0.30599	0.19162	0.047691	0.18766	0.090043	-2.4896	-3.1583	-3.5125	-2.9167	-3.6562	-2.9292	-2.9437	-3.8458	-2.8312	-3.1979	-3.7687	-2.8646	-3.5604	-3.3187	-2.8292	-3.8333	169.617	102.632	378.174	406.119	165.300	181.005	412.866	405.375	358.645	205.581	317.277	357.512	138.417	221.703	95.142	175.767	0.0010868	0.00050757	0.00012765	1362.7	5.9209e-06	5.6109e-06	1357.7	375.2	6.2244e-06	6.2562e-06	423.73	139.34	120.56	40.875	5.8013e-06	51.072	0.00083948	0.00073669	0.00019882	1387.4	7.5893e-06	8.5204e-06	1385.3	382.98	8.0537e-06	8.6175e-06	434.42	142.41	123.62	42.061	7.9579e-06	52.727	104.339	170.736	163.036	96.682	217.780	226.233	96.471	101.240	227.721	237.368	100.665	105.317	105.881	110.305	228.712	109.561	-8191	255	
51157.832	1	1	0	0	0.061943	0.067439	0.043733	0.25587	0.15791	0.20151	0.2625	0.18046	0.28743	0.1892	0.25867	0.1894	0.30211	0.14103	0.1557	0.21757	-2.7167	-3.025	-3.4417	-2.9354	-3.5042	-3.2896	-2.9542	-3.8521	-2.9542	-3.1396	-3.6042	-2.9542	-3.3458	-3.2708	-2.7208	-3.7667	380.812	105.338	281.797	389.460	147.341	252.760	434.301	423.063	315.367	292.093	93.815	439.380	438.317	273.692	278.416	362.379	0.0010883	0.00053137	0.00015741	1354.5	6.303e-06	3.6743e-06	1362.7	374.95	6.2902e-06	4.8949e-06	423.09	139.24	120.91	40.679	6.4729e-06	51.017	0.00084139	0.00077287	0.00021059	1384.4	7.7298e-06	8.0469e-06	1385.5	382.92	8.1419e-06	8.7596e-06	433.27	142.16	123.82	42.02	8.4791e-06	52.806	105.368	184.908	174.278	96.749	210.701	232.375	96.637	101.357	214.195	227.370	100.617	105.175	105.830	110.431	231.904	109.600	-8191	255	
51157.930	1	1	0	0	0.2473	0.092403	0.10606	0.20101	0.091093	0.15792	0.2877	0.19959	0.37417	0.071807	0.18729	0.25314	0.17356	0.069035	0.12365	0.043153	-2.5229	-2.9313	-3.6729	-3.075	-3.4917	-3.4458	-2.9271	-3.55	-2.9833	-2.9042	-3.6667	-2.9333	-3.2833	-3.6875	-2.6562	-3.6354	145.400	122.359	377.328	381.970	306.027	163.648	386.293	375.192	400.345	385.685	397.561	90.325	380.179	96.433	217.965	248.677	0.0010636	0.00051796	0.00014887	1360	7.4499e-06	3.8848e-06	1360.9	375.74	7.2723e-06	4.0145e-06	424.41	138.74	121.26	40.709	5.1045e-06	51.224	0.00080061	0.00074927	0.00021125	1386.6	8.0427e-06	8.1294e-06	1385.3	383.19	7.9122e-06	8.5487e-06	433.75	142.04	123.79	42.081	8.4045e-06	52.817	105.365	178.793	170.417	96.878	221.099	236.594	96.511	101.547	224.424	232.198	100.928	105.152	105.969	110.305	228.834	109.546	-8191	255	
51158.023	1	1	0	0	0.13949	0.17495	0.18141	0.22201	0.11697	0.15655	0.33993	0.18544	0.29605	0.23674	0.21552	0.17088	0.37081	0.20958	0.25956	0.11503	-2.7313	-2.6875	-3.6417	-3.1437	-3.2146	-3.4604	-2.8542	-3.5354	-3.2792	-2.8625	-3.8333	-3.0208	-2.9979	-3.5875	-2.6729	-3.5042	243.798	357.251	158.550	389.078	250.127	368.271	375.994	405.630	202.515	102.329	110.252	178.232	401.278	227.525	396.155	123.868	0.001089	0.00059482	0.00014516	1357.5	6.9586e-06	5.0204e-06	1365.5	374.96	6.8567e-06	5.4773e-06	424.59	140.04	121.29	40.769	5.6213e-06	51.38	0.00082587	0.00077897	0.0002071	1384.9	8.1909e-06	7.7444e-06	1388.4	383.36	7.9881e-06	9.2259e-06	433.79	142.61	124.01	42.095	8.3049e-06	52.891	104.430	157.181	184.959	96.856	223.386	228.467	96.570	101.572	226.593	237.774	101.240	105.264	105.966	110.329	226.139	109.561	-8191	255	
51158.145	1	1	0	0	0.092786	0.077956	0.1511	0.1612	0.085521	0.13414	0.072432	0.15272	0.10765	0.2848	0.025143	0.22557	0.17039	0.30162	0.084395	0.13554	-3.0083	-2.8125	-3.6854	-3.0563	-2.8792	-3.6104	-2.8771	-3.425	-3.3	-2.7708	-3.7229	-3.1917	-3.0812	-3.6937	-2.8458	-3.3688	172.076	226.698	102.668	416.644	357.599	434.897	190.534	198.934	293.573	443.149	167.660	117.314	166.859	380.256	249.621	341.576	0.0010669	0.00063251	0.00014597	1357.5	5.7198e-06	4.9917e-06	1360.5	375	7.1397e-06	4.5182e-06	423.2	139.54	121.21	40.732	5.8707e-06	51.138	0.00081044	0.00079077	0.00020064	1386	7.7475e-06	7.885e-06	1386.5	382.93	7.7697e-06	9.1357e-06	434.32	142.47	123.76	42.137	7.8123e-06	52.918	104.282	181.952	189.200	96.833	222.602	261.201	96.818	101.747	210.167	252.444	101.127	105.588	106.212	110.803	223.453	110.027	-8191	255	
51158.215	1	1	0	0	0.27584	0.23109	0.089899	0.2328	0.15924	0.055555	0.4066	0.17338	0.11605	0.1399	0.38103	0.070063	0.09645	0.29148	0.14979	0.15722	-3.1104	-2.7313	-3.6375	-3.2438	-2.8708	-3.4708	-3.0667	-3.4562	-3.3979	-2.6542	-3.4146	-3.1208	-2.9458	-3.6854	-2.6771	-3.4979	151.645	226.155	263.762	426.643	200.303	121.007	371.547	426.236	102.153	436.910	357.021	178.159	316.643	436.336	379.470	333.989	0.0010792	0.00047758	0.00014494	1361.2	5.5638e-06	5.4891e-06	1365.9	375.31	7.9123e-06	4.0893e-06	421.85	139.49	121.23	40.628	4.5225e-06	50.686	0.00080692	0.00079505	0.00020402	1387.2	7.9432e-06	7.7536e-06	1387	383.1	7.7188e-06	8.8774e-06	432.69	142.49	123.81	42.038	8.4492e-06	52.588	104.239	174.459	176.243	96.967	226.695	245.356	96.729	101.782	218.071	228.484	101.083	105.658	105.868	110.563	225.627	109.795	-8191	255	
51158.312	1	1	0	0	0.12	0.15373	0.17664	0.29737	0.24902	0.080719	0.20371	0.18371	0.08321	0.14152	0.11503	0.13107	0.2104	0.14406	0.098875	0.1454	-3.0042	-2.6708	-3.4521	-3.4833	-2.7167	-3.5604	-3.275	-3.2167	-3.4938	-2.8771	-3.5333	-3.3833	-2.7354	-3.5896	-3.0187	-3.0938	209.963	350.164	97.710	392.107	145.552	427.594	441.827	396.291	358.886	88.433	165.786	425.502	349.174	396.797	106.598	361.590	0.001086	0.0003819	0.00012152	1361.3	6.8508e-06	5.3426e-06	1359.1	374.33	5.8609e-06	3.6769e-06	420.16	138.72	120.95	40.656	6.2347e-06	51.114	0.00081334	0.00081165	0.00021521	1385.6	8.5647e-06	8.5479e-06	1383.9	382.78	7.9258e-06	9.2412e-06	433.13	141.82	123.7	41.991	8.2863e-06	52.771	104.766	170.488	172.740	96.935	221.471	223.185	96.723	101.807	216.663	244.492	101.104	105.225	106.157	110.739	231.876	109.788	-8191	255	
51158.434	1	1	0	0	0.11108	0.1201	0.17984	0.15299	0.052049	0.30822	0.31251	0.042123	0.20873	0.088834	0.13128	0.071729	0.058576	0.14449	0.14358	0.17542	-3.2125	-2.7854	-3.3688	-3.5604	-2.6875	-3.5083	-3.2021	-3.0271	-3.6583	-2.8146	-3.3125	-3.4333	-2.8104	-3.6875	-3.1042	-3.0833	231.495	322.072	116.867	410.395	93.419	173.276	339.307	391.369	111.761	261.792	241.155	338.081	95.221	355.661	251.319	337.471	0.0010649	0.00050732	0.00011586	1361	6.9595e-06	5.4579e-06	1359.4	375.66	7.3743e-06	5.5174e-06	422.35	139	121.31	40.593	6.5608e-06	51.055	0.00079672	0.00082358	0.00020627	1385.4	8.6189e-06	8.4104e-06	1383.8	382.87	7.8738e-06	9.1693e-06	433.47	142.11	123.68	42.025	8.4057e-06	52.804	104.617	171.692	174.698	97.075	212.188	227.343	96.854	101.854	224.191	235.178	101.048	105.225	106.048	110.769	228.437	109.837	-8191	255	
51158.527	1	1	0	0	0.24518	0.13752	0.071308	0.27108	0.26917	0.037406	0.12048	0.25318	0.056317	0.21256	0.23654	0.05589	0.28311	0.12872	0.1841	0.17841	-3.2292	-2.7479	-3.0333	-3.6271	-2.7687	-3.5125	-3.3125	-3	-3.6167	-2.9979	-3.375	-3.7354	-2.7083	-3.6813	-3.4833	-2.9958	362.906	230.128	415.442	370.592	261.910	97.849	360.325	410.147	104.430	256.668	110.566	228.354	115.223	335.721	113.024	399.870	0.001108	0.00055731	0.00011448	1361.8	7.265e-06	4.7479e-06	1358.4	373.95	6.5397e-06	4.3687e-06	422.11	139.19	120.38	40.836	5.8869e-06	51.291	0.00080982	0.00084445	0.0002151	1386.8	8.683e-06	8.5937e-06	1384.1	382.27	7.635e-06	9.206e-06	433.6	142.22	123.58	42.078	7.9516e-06	52.913	103.414	176.643	183.104	97.054	223.555	220.885	96.924	101.783	218.417	239.789	101.276	105.917	106.100	110.950	228.982	109.944	-8191	255	
51158.625	1	1	0	0	0.28763	0.074748	0.15699	0.20188	0.13051	0.20391	0.20192	0.20744	0.18033	0.095434	0.16382	0.305	0.078101	0.12672	0.34617	0.21758	-3.3479	-3.1521	-3.0958	-3.8292	-2.6771	-3.4729	-3.4938	-3.0833	-3.725	-3.1833	-3.1271	-3.6208	-2.7792	-3.5708	-3.4437	-2.8417	235.100	350.306	370.981	378.935	354.159	289.774	409.807	370.722	223.040	401.248	422.109	419.216	424.210	105.677	394.673	372.899	0.0010497	0.00043394	0.00014037	1356.2	6.8122e-06	3.9163e-06	1358.8	374.38	6.7349e-06	6.1848e-06	421.55	139.81	121.35	40.742	6.3491e-06	51.133	0.00082359	0.00078817	0.00021263	1385.6	8.2617e-06	8.3921e-06	1383.7	382.53	7.5604e-06	8.3912e-06	433.13	142.23	123.77	42.06	7.9765e-06	52.792	104.953	174.901	175.019	97.114	226.872	244.702	97.082	101.915	220.221	242.440	101.239	105.281	106.243	111.002	222.559	109.823	-8191	255	
51158.746	1	1	0	0	0.075566	0.23289	0.15412	0.22629	0.21137	0.23457	0.33297	0.23003	0.04763	0.16666	0.16491	0.093994	0.18098	0.149	0.11218	0.20009	-3.4125	-3.05	-2.9562	-3.6375	-2.5417	-3.2083	-3.6583	-2.8167	-3.4292	-3.125	-2.8875	-3.7479	-3.0604	-3.1813	-3.4313	-2.6896	249.774	286.054	147.036	88.810	324.854	125.949	441.966	162.633	96.170	282.070	329.086	384.983	397.340	275.287	292.543	399.541	0.0010862	0.00042706	0.00015675	1362.8	5.1421e-06	4.8043e-06	1361	373.31	8.0517e-06	5.7189e-06	423.31	139.39	121.39	40.822	7.04e-06	51.244	0.00082752	0.00077158	0.00021982	1386.9	7.9388e-06	8.5219e-06	1385.4	382.53	8.2664e-06	8.9905e-06	433.46	142.2	124.01	42.124	7.7265e-06	52.786	104.132	183.622	181.631	97.285	220.317	235.512	96.919	101.877	223.464	224.854	101.318	105.701	106.446	110.873	227.089	109.970	-8191	255	
51158.816	1	1	0	0	0.12155	0.21765	0.18309	0.18984	0.077859	0.059669	0.11487	0.030293	0.083568	0.17051	0.10468	0.11196	0.22735	0.2013	0.10986	0.13587	-2.8937	-3.2083	-2.975	-3.8854	-2.8354	-3.1833	-3.7167	-2.8521	-3.4083	-3.2792	-2.6937	-3.6396	-3.0042	-3.125	-3.4979	-2.7604	87.256	168.358	268.790	437.208	168.907	356.985	372.113	312.433	253.140	266.373	228.508	412.099	402.082	407.517	431.849	122.496	0.001119	0.00050817	0.00013724	1354.2	6.8731e-06	4.7154e-06	1358	374.84	8.4546e-06	4.5968e-06	424.59	138.96	120.83	40.966	4.3082e-06	51.042	0.0008196	0.0007743	0.00022546	1384.1	8.0604e-06	8.2592e-06	1381.6	382.69	8.125e-06	8.035e-06	433.7	142.18	123.73	42.208	7.5635e-06	52.798	105.008	172.438	173.733	97.396	223.796	220.352	96.988	101.846	222.669	240.359	101.213	105.571	106.087	110.982	227.465	109.782	-8191	255	
51158.910	1	1	0	0	0.29078	0.11887	0.26239	0.35003	0.14052	0.15149	0.27164	0.15695	0.25355	0.088431	0.19419	0.26237	0.09146	0.16009	0.12323	0.22326	-3.0687	-3.2125	-2.9146	-3.6854	-3.0271	-3.0792	-3.8937	-2.7625	-3.4062	-3.2062	-2.8396	-3.6333	-2.9292	-3.0187	-3.6813	-2.9188	297.545	173.051	295.671	416.865	206.186	430.008	393.772	191.794	329.159	130.748	94.339	365.983	388.806	106.963	402.037	289.204	0.0010486	0.00055004	0.0001299	1353.5	6.2578e-06	5.9096e-06	1357.6	374.23	5.4148e-06	5.5927e-06	421.83	139.55	121.17	40.818	5.3852e-06	51.047	0.00080123	0.00072904	0.00022244	1382.2	8.0062e-06	8.6518e-06	1382.6	382.45	7.4755e-06	8.0503e-06	432.88	142.5	123.7	42.204	7.7912e-06	52.91	104.179	168.843	188.870	96.871	218.459	239.691	96.461	101.327	213.558	234.474	100.961	105.362	105.697	110.703	228.383	109.257	-8191	255	
51159.008	1	1	0	0	0.1921	0.19262	0.076909	0.30894	0.26243	0.18677	0.3272	0.39442	0.23069	0.06962	0.17124	0.14953	0.22449	0.020746	0.14958	0.10718	-2.7125	-3.3625	-2.7458	-3.5125	-3.125	-2.9729	-3.7729	-3.1292	-3.2146	-3.3646	-2.7771	-3.6479	-3.2271	-2.9479	-3.5792	-3.0417	413.813	133.956	248.862	426.938	355.828	324.345	353.717	409.872	122.722	137.762	434.322	414.940	404.167	354.625	341.610	395.874	0.0010284	0.00047861	0.00012923	1358.7	6.4172e-06	4.2002e-06	1354.8	374.52	6.4761e-06	4.3091e-06	422.94	139.41	121.18	40.866	6.4988e-06	51.146	0.00078254	0.00071374	0.00022411	1384.9	7.9045e-06	8.4242e-06	1380.9	382.65	7.8941e-06	8.1955e-06	433.43	142.3	123.87	42.148	7.8098e-06	52.843	105.630	170.954	180.814	96.984	221.482	232.977	96.685	101.517	219.833	241.139	100.998	105.495	105.849	110.613	215.220	109.571	-8191	255	
51159.105	1	1	0	0	0.031885	0.11298	0.046362	0.33374	0.33325	0.13981	0.099494	0.14172	0.12729	0.22451	0.25941	0.14881	0.040107	0.029058	0.12602	0.03073	-2.6063	-3.4667	-2.7562	-3.5521	-3.175	-2.7708	-3.7125	-3.0604	-2.9667	-3.4458	-2.9396	-3.5375	-3.2271	-2.85	-3.6375	-3.0458	337.578	284.649	377.446	333.914	168.635	234.750	103.964	374.911	96.844	107.054	221.712	111.594	332.761	324.645	288.610	384.739	0.0011048	0.00050019	0.00017074	1354.3	7.0836e-06	4.9009e-06	1362.8	374.23	6.9268e-06	4.5944e-06	422.58	139.17	121.09	40.788	6.0468e-06	51.057	0.00082442	0.00072178	0.00021463	1384.8	7.8083e-06	8.7083e-06	1384.6	382.21	7.9632e-06	8.194e-06	433.73	142.28	123.91	42.159	7.7588e-06	52.878	104.864	160.600	175.552	97.087	216.407	241.079	96.719	101.520	217.993	233.508	101.245	105.631	105.983	110.593	234.391	109.308	-8191	255	
51159.223	1	1	0	0	0.22442	0.18367	0.34852	0.33368	0.15053	0.050813	0.10755	0.41266	0.23161	0.16844	0.12964	0.14558	0.22389	0.12636	0.047981	0.11924	-2.7083	-3.5875	-2.5458	-3.5292	-3.4708	-2.7792	-3.7625	-3.3563	-3.025	-3.6625	-2.9042	-3.5	-3.4292	-2.9396	-3.5646	-3.1771	223.775	134.879	90.291	367.111	110.150	99.024	326.823	383.204	97.659	391.829	219.952	332.147	374.302	391.028	425.495	130.764	0.0010611	0.00045475	0.00013015	1356.8	6.6385e-06	4.4708e-06	1360.1	374.46	7.205e-06	6.5155e-06	422.31	139.84	121.08	40.816	7.0094e-06	51.36	0.000827	0.00072074	0.00021753	1385	7.5506e-06	8.415e-06	1385.4	382.77	7.7222e-06	8.1252e-06	433.68	142.64	123.89	42.166	7.9728e-06	52.933	104.632	162.455	180.737	97.109	219.782	227.432	96.893	101.463	220.780	234.930	100.876	105.414	105.793	110.456	225.322	109.509	-8191	255	
51159.320	1	1	0	0	0.24194	0.26866	0.14957	0.49813	0.20199	0.17884	0.47978	0.14661	0.082992	0.21163	0.07726	0.048436	0.028014	0.20694	0.16782	0.15566	-2.7396	-3.6229	-2.9604	-3.3896	-3.4437	-2.9333	-3.8042	-3.3937	-2.8458	-3.7229	-3.0417	-3.3646	-3.7625	-2.7604	-3.55	-3.2729	173.888	152.666	231.505	432.477	368.863	268.378	394.773	87.280	373.494	152.559	218.282	223.668	442.600	384.826	157.708	84.382	0.0011198	0.00056543	0.00012536	1357.7	6.2037e-06	4.1552e-06	1362.4	374.66	7.3199e-06	5.879e-06	422.1	139.76	121.36	40.692	5.9199e-06	50.985	0.00083099	0.00072424	0.00020958	1384.8	7.6933e-06	8.5555e-06	1385.4	382.62	7.9326e-06	8.058e-06	433.28	142.43	124.04	42.145	7.9118e-06	52.798	104.033	177.532	168.222	96.823	225.753	241.600	96.526	101.479	217.277	240.124	100.956	105.407	105.935	110.714	231.056	109.577	-8191	255	
51159.414	1	1	0	0	0.089514	0.1449	0.26125	0.11657	0.022707	0.096371	0.24671	0.2364	0.084897	0.15901	0.20582	0.17034	0.025733	0.064034	0.057122	0.087245	-2.425	-3.5208	-2.925	-3.2292	-3.6625	-2.8646	-3.3937	-3.4021	-2.7979	-3.6667	-3.1688	-3.0917	-3.7812	-2.7771	-3.3729	-3.4125	89.384	202.609	253.928	366.352	87.963	335.604	385.414	87.948	143.217	288.543	91.541	424.267	142.305	340.961	227.334	432.903	0.0010513	0.00069243	0.00014861	1359.6	7.222e-06	4.1133e-06	1359.8	374.83	6.9234e-06	5.3431e-06	421.29	138.95	121.08	40.603	6.8386e-06	50.986	0.00081753	0.00078597	0.00020765	1384.9	7.7497e-06	8.5861e-06	1382	381.85	7.9711e-06	7.9601e-06	431.86	142.17	123.64	42.05	8.0536e-06	52.75	104.032	172.204	181.042	97.031	220.000	223.394	96.861	101.319	232.502	226.815	100.878	105.336	105.459	110.097	222.050	108.934	-8191	255	
51159.512	1	1	0	0	0.18846	0.25359	0.0074792	0.098609	0.085045	0.18513	0.20668	0.25488	0.12832	0.11639	0.1894	0.038293	0.2176	0.066809	0.16326	0.20106	-2.3146	-3.4792	-3.0812	-3.1562	-3.6146	-2.9167	-3.4	-3.6417	-2.7458	-3.5396	-3.1854	-2.8896	-3.6021	-2.7708	-3.0958	-3.3937	82.826	368.521	319.547	320.831	280.316	433.349	395.043	347.734	310.091	301.444	203.106	156.144	437.242	412.359	213.333	182.853	0.0010352	0.00050238	0.0001314	1355.4	7.7977e-06	4.27e-06	1352	374.62	8.1742e-06	4.5516e-06	424.02	138.84	120.78	40.52	5.156e-06	50.977	0.00080511	0.00073786	0.00021227	1383	7.4577e-06	8.583e-06	1381.2	382.2	8.3999e-06	8.009e-06	433.23	142.13	123.55	41.977	7.7016e-06	52.735	106.921	179.598	168.934	96.055	218.711	222.760	95.938	100.466	217.244	246.214	100.297	104.659	104.995	109.923	225.638	108.596	-8191	255	
51159.609	1	1	0	0	0.23563	0.21221	0.16126	0.13823	0.13101	0.13444	0.019727	0.13351	0.23367	0.22709	0.29447	0.182	0.058646	0.1866	0.070254	0.15232	-2.4625	-3.7292	-3.0604	-3.1937	-3.4938	-2.8271	-3.2687	-3.5187	-2.7229	-3.5729	-3.4958	-2.8458	-3.6917	-2.9854	-3.0771	-3.6	308.780	137.251	246.655	419.582	255.899	421.868	85.729	417.482	89.746	128.679	355.583	361.748	132.592	111.467	438.503	336.578	0.0010724	0.00040445	9.5531e-05	1354.6	5.9723e-06	3.5208e-06	1358.2	374.17	6.5558e-06	5.5882e-06	420.47	139.36	120.73	40.673	6.8859e-06	51.074	0.00083736	0.00075109	0.00019966	1383.8	7.6037e-06	8.6029e-06	1383.3	382.29	8.0718e-06	8.4417e-06	432.13	142.27	123.61	42.006	8.1258e-06	52.814	103.319	180.690	167.324	96.241	213.574	233.260	95.749	100.695	215.425	234.740	100.039	104.539	104.970	109.693	219.603	108.574	-8191	255	
#DATA ENDS
