BOXY.EXE: ISS Imagent and Oximeter Data Acquisition Program Version 0.80
Ascii Record File

#ACQ INFORMATION
2  Detector Channels 
16  External MUX Channels 
1  Auxiliary Channels 
5000  Waveform (CCF) Frequency (Hz)
1  Waveforms Skipped 
30  Waveforms Averaged 
1  Cycles Averaged 
16  Acquisitions per Waveform 
10.0806  Updata Rate (Hz) 

#FILE INFORMATION
TRUE -- External MUX Channel results are PARSED.
FALSE -- AC DC and Phase are NOT grouped.
TRUE -- Companion Program Settings File CREATED.
FALSE -- AC data not excluded
FALSE -- DC data not excluded
FALSE -- Phase data not excluded
FALSE -- Auxillary Chn. data not excluded
Tab delimiters

#CALIBRATION STATE
TRUE -- Waveform Calibration Values APPLIED.


#AUX CALIBRATION VALUES
Val Type	aux-1	

Term	1.0000e+00	
Factor	0.0000e+00	


#WF CALIBRATION VALUES
A = Detector Channel
Val Type	A-AC1	A-AC2	A-AC3	A-AC4	A-AC5	A-AC6	A-AC7	A-AC8	A-AC9	A-AC10	A-AC11	A-AC12	A-AC13	A-AC14	A-AC15	A-AC16	A-DC1	A-DC2	A-DC3	A-DC4	A-DC5	A-DC6	A-DC7	A-DC8	A-DC9	A-DC10	A-DC11	A-DC12	A-DC13	A-DC14	A-DC15	A-DC16	A-Ph1	A-Ph2	A-Ph3	A-Ph4	A-Ph5	A-Ph6	A-Ph7	A-Ph8	A-Ph9	A-Ph10	A-Ph11	A-Ph12	A-Ph13	A-Ph14	A-Ph15	A-Ph16	

Term	0.00000e+00	0.00000e+00	0.00000e+00	0.00000e+00	0.00000e+00	0.00000e+00	0.00000e+00	0.00000e+00	0.00000e+00	0.00000e+00	0.00000e+00	0.00000e+00	0.00000e+00	0.00000e+00	0.00000e+00	0.00000e+00	0.00000e+00	0.00000e+00	0.00000e+00	0.00000e+00	0.00000e+00	0.00000e+00	0.00000e+00	0.00000e+00	0.00000e+00	0.00000e+00	0.00000e+00	0.00000e+00	0.00000e+00	0.00000e+00	0.00000e+00	0.00000e+00	0.00000e+00	0.00000e+00	0.00000e+00	0.00000e+00	0.00000e+00	0.00000e+00	0.00000e+00	0.00000e+00	0.00000e+00	0.00000e+00	0.00000e+00	0.00000e+00	0.00000e+00	0.00000e+00	0.00000e+00	0.00000e+00	
Factor	1.00000e+00	1.00000e+00	1.00000e+00	1.00000e+00	1.00000e+00	1.00000e+00	1.00000e+00	1.00000e+00	1.00000e+00	1.00000e+00	1.00000e+00	1.00000e+00	1.00000e+00	1.00000e+00	1.00000e+00	1.00000e+00	1.00000e+00	1.00000e+00	1.00000e+00	1.00000e+00	1.00000e+00	1.00000e+00	1.00000e+00	1.00000e+00	1.00000e+00	1.00000e+00	1.00000e+00	1.00000e+00	1.00000e+00	1.00000e+00	1.00000e+00	1.00000e+00	X	X	X	X	X	X	X	X	X	X	X	X	X	X	X	X	

B = Detector Channel
Val Type	B-AC1	B-AC2	B-AC3	B-AC4	B-AC5	B-AC6	B-AC7	B-AC8	B-AC9	B-AC10	B-AC11	B-AC12	B-AC13	B-AC14	B-AC15	B-AC16	B-DC1	B-DC2	B-DC3	B-DC4	B-DC5	B-DC6	B-DC7	B-DC8	B-DC9	B-DC10	B-DC11	B-DC12	B-DC13	B-DC14	B-DC15	B-DC16	B-Ph1	B-Ph2	B-Ph3	B-Ph4	B-Ph5	B-Ph6	B-Ph7	B-Ph8	B-Ph9	B-Ph10	B-Ph11	B-Ph12	B-Ph13	B-Ph14	B-Ph15	B-Ph16	

Term	0.00000e+00	0.00000e+00	0.00000e+00	0.00000e+00	0.00000e+00	0.00000e+00	0.00000e+00	0.00000e+00	0.00000e+00	0.00000e+00	0.00000e+00	0.00000e+00	0.00000e+00	0.00000e+00	0.00000e+00	0.00000e+00	0.00000e+00	0.00000e+00	0.00000e+00	0.00000e+00	0.00000e+00	0.00000e+00	0.00000e+00	0.00000e+00	0.00000e+00	0.00000e+00	0.00000e+00	0.00000e+00	0.00000e+00	0.00000e+00	0.00000e+00	0.00000e+00	-2.21930e+01	-1.30555e+02	-1.19593e+02	-1.81765e+02	-6.15087e+01	-6.84839e+01	-1.57216e+02	-1.62015e+02	-2.86346e+01	-6.79659e+01	-1.71050e+02	-1.71975e+02	-1.82255e+02	-1.76979e+02	-5.58940e+01	-1.49379e+02	
Factor	2.76929e-05	1.60331e-04	5.43878e-05	1.45372e-01	2.66852e-06	1.64523e-06	1.64428e-01	5.20594e-02	1.55519e-06	1.78831e-06	8.49940e-02	3.51328e-02	3.64614e-02	9.18147e-03	1.78014e-06	1.30177e-02	5.70160e-06	6.72933e-06	1.86889e-06	7.47343e-02	7.13936e-08	7.39673e-08	7.93960e-02	2.67438e-02	7.14214e-08	7.41394e-08	4.25018e-02	1.75270e-02	1.88403e-02	4.76276e-03	7.22786e-08	6.54405e-03	X	X	X	X	X	X	X	X	X	X	X	X	X	X	X	X	



#DISTANCE SETTINGS
A = Detector Channel
A-1	A-2	A-3	A-4	A-5	A-6	A-7	A-8	A-9	A-10	A-11	A-12	A-13	A-14	A-15	A-16	

2.5000e+00	3.0000e+00	2.5000e+00	3.0000e+00	2.0000e+00	3.0000e+00	1.5000e+00	3.0000e+00	3.0000e+00	3.0000e+00	3.0000e+00	3.0000e+00	3.0000e+00	3.0000e+00	1.5000e+00	3.0000e+00	

B = Detector Channel
B-1	B-2	B-3	B-4	B-5	B-6	B-7	B-8	B-9	B-10	B-11	B-12	B-13	B-14	B-15	B-16	

1.0000e+01	1.0000e+01	1.0000e+01	1.4400e+00	1.0000e+01	1.0000e+01	1.5100e+00	1.9400e+00	1.0000e+01	1.0000e+01	1.9900e+00	2.4900e+00	2.4100e+00	2.9000e+00	1.0000e+01	2.9800e+00	




#DATA BEGINS
time	group	step	mark	flag	A-AC1	A-AC2	A-AC3	A-AC4	A-AC5	A-AC6	A-AC7	A-AC8	A-AC9	A-AC10	A-AC11	A-AC12	A-AC13	A-AC14	A-AC15	A-AC16	A-DC1	A-DC2	A-DC3	A-DC4	A-DC5	A-DC6	A-DC7	A-DC8	A-DC9	A-DC10	A-DC11	A-DC12	A-DC13	A-DC14	A-DC15	A-DC16	A-Ph1	A-Ph2	A-Ph3	A-Ph4	A-Ph5	A-Ph6	A-Ph7	A-Ph8	A-Ph9	A-Ph10	A-Ph11	A-Ph12	A-Ph13	A-Ph14	A-Ph15	A-Ph16	B-AC1	B-AC2	B-AC3	B-AC4	B-AC5	B-AC6	B-AC7	B-AC8	B-AC9	B-AC10	B-AC11	B-AC12	B-AC13	B-AC14	B-AC15	B-AC16	B-DC1	B-DC2	B-DC3	B-DC4	B-DC5	B-DC6	B-DC7	B-DC8	B-DC9	B-DC10	B-DC11	B-DC12	B-DC13	B-DC14	B-DC15	B-DC16	B-Ph1	B-Ph2	B-Ph3	B-Ph4	B-Ph5	B-Ph6	B-Ph7	B-Ph8	B-Ph9	B-Ph10	B-Ph11	B-Ph12	B-Ph13	B-Ph14	B-Ph15	B-Ph16	aux-1	digaux	

39416.941	1	1	0	256	0.25162	0.066119	0.20676	0.21433	0.10936	0.16856	0.21123	0.14558	0.29288	0.12341	0.2243	0.062336	0.12044	0.16464	0.20502	0.41698	-3.8146	-4.8083	-4.4062	-4.5542	-4.7792	-4.2625	-4.8313	-4.6271	-4.4583	-4.7	-4.4833	-4.3021	-4.8438	-4.2646	-4.5708	-4.6208	-56.972	118.464	15.131	130.654	82.765	33.074	182.199	183.713	-115.433	168.712	138.808	177.913	138.821	82.405	-162.942	172.641	0.00033056	0.00039385	6.241e-05	1176.7	4.4041e-06	3.9769e-06	1232.9	236.94	2.9769e-06	2.7214e-06	295.76	85.012	66.652	19.224	2.8024e-06	26.854	0.0002283	0.00021021	5.7464e-05	1159.5	2.3832e-06	2.3471e-06	1215.4	235.81	2.4349e-06	2.2935e-06	293.88	84.262	66.599	19.411	2.3625e-06	27.117	-47.719	-70.552	-55.643	-156.239	-65.068	-13.584	-156.324	-149.318	22.584	31.850	-149.522	-142.737	-142.878	-135.630	-8.836	-135.955	-8191	255	
39417.035	1	1	0	0	0.11244	0.30236	0.044286	0.20621	0.17449	0.24672	0.047026	0.23453	0.16151	0.07527	0.097209	0.1491	0.096656	0.12741	0.077657	0.22168	-3.8708	-4.6229	-4.3667	-4.3125	-4.7708	-4.3458	-4.6604	-4.6167	-4.1229	-4.6438	-4.6271	-4.3979	-4.8333	-4.3625	-4.4979	-4.6125	42.254	167.866	-56.498	179.581	-157.298	87.098	187.672	143.186	61.093	-117.481	-84.195	-83.778	-164.660	101.401	187.622	68.626	0.00033281	8.1004e-05	8.21e-05	1177.2	3.9845e-06	3.5827e-06	1237.1	238.59	2.8734e-06	1.9859e-06	295.43	84.478	66.168	19.133	1.1198e-06	26.725	0.00023567	0.00021277	6.0789e-05	1161.7	2.4005e-06	2.3656e-06	1219.7	236.34	2.3937e-06	2.2874e-06	293.42	84.096	66.433	19.442	2.3189e-06	27.149	-48.032	-62.696	-70.151	-156.294	-62.192	62.337	-156.060	-149.420	19.472	-7.978	-149.389	-143.144	-142.492	-135.638	69.741	-135.977	-8191	255	
39417.156	1	1	0	0	0.11932	0.19846	0.32726	0.1542	0.12648	0.017434	0.11177	0.16388	0.15823	0.085252	0.10724	0.1832	0.11744	0.1604	0.095444	0.081501	-3.8167	-4.6396	-4.3458	-4.3229	-4.7854	-4.3333	-4.6292	-4.7667	-4.1104	-4.7833	-4.7208	-4.3229	-4.7417	-4.2937	-4.5271	-4.8958	70.015	181.699	143.964	135.443	-133.307	-24.239	108.492	173.467	-78.478	192.045	126.699	59.255	57.582	173.986	-32.996	-64.637	0.00032808	0.00032497	0.00013325	1182.5	6.705e-06	3.557e-06	1241.4	239.49	4.2843e-06	5.5044e-06	294.68	84.084	66.327	19.236	3.5642e-06	26.585	0.00023999	0.00021182	6.0887e-05	1164.9	2.3735e-06	2.3309e-06	1222.6	236.64	2.4564e-06	2.2379e-06	293.89	84.124	66.434	19.444	2.4567e-06	27.074	-54.778	-93.416	-59.274	-156.196	-29.891	-9.117	-156.251	-149.026	-27.220	-1.460	-149.043	-142.850	-142.388	-135.885	-15.603	-135.740	-8191	255	
39417.254	1	1	0	0	0.059421	0.12555	0.091212	0.3396	0.24755	0.12169	0.29665	0.21723	0.27729	0.086647	0.31601	0.14377	0.10746	0.16465	0.075928	0.084822	-3.8104	-4.6333	-4.5188	-4.2688	-4.6438	-4.4208	-4.6125	-4.725	-4.3625	-4.6687	-4.7479	-4.3396	-4.8375	-4.4563	-4.2875	-4.8688	109.916	159.049	177.011	-146.106	-51.194	162.892	181.240	184.945	176.421	-41.989	78.536	-9.856	144.364	-8.388	19.838	-137.855	0.00032685	0.00039835	0.0001184	1184.4	6.0294e-06	3.5888e-06	1237.1	238.96	5.9273e-06	4.0259e-06	295.82	83.61	66.636	19.141	4.575e-06	26.971	0.00024472	0.00022061	6.2066e-05	1167.6	2.5117e-06	2.3853e-06	1222.1	236.86	2.4587e-06	2.2558e-06	294.12	84.033	66.421	19.417	2.3123e-06	27.179	-51.202	-87.243	-1.058	-156.401	-65.782	-17.667	-156.242	-149.124	11.048	-3.021	-149.360	-142.845	-142.796	-135.227	-23.745	-135.877	-8191	255	
39417.348	1	1	0	0	0.17574	0.16315	0.22274	0.24284	0.26748	0.096526	0.22449	0.24994	0.29061	0.064523	0.1096	0.087008	0.17754	0.16989	0.078286	0.14321	-3.9292	-4.5854	-4.675	-4.2583	-4.7542	-4.3896	-4.5854	-4.9875	-4.2875	-4.4667	-4.6792	-4.3833	-4.8375	-4.5771	-4.2604	-5.0333	40.035	-84.942	-28.893	149.940	-159.921	-1.670	158.661	189.204	99.052	47.030	65.895	114.778	-151.538	-155.009	120.086	-100.448	0.00031353	0.00026233	0.00010076	1181.4	1.9381e-06	1.8786e-06	1234	238.48	2.8232e-06	1.1235e-06	294.04	84.385	66.367	19.189	3.5469e-06	26.887	0.00022855	0.00020231	5.3551e-05	1163.8	2.2319e-06	2.0956e-06	1218.8	236.19	2.1107e-06	2.1057e-06	292.8	84.09	66.253	19.373	2.2095e-06	27.094	-45.872	-107.203	-69.681	-156.395	-6.108	-52.513	-156.338	-149.293	-5.678	-60.490	-149.237	-142.812	-142.401	-135.255	-45.867	-136.063	-8191	255	
39417.445	1	1	0	0	0.23746	0.15631	0.10855	0.17128	0.1954	0.077965	0.074782	0.18892	0.27441	0.18987	0.27342	0.084721	0.19079	0.095227	0.18833	0.16231	-4.0042	-4.5479	-4.7521	-4.3938	-4.6042	-4.675	-4.4521	-4.9458	-4.3875	-4.4958	-4.9104	-4.2708	-4.675	-4.6917	-4.25	-4.7833	137.697	44.664	-87.988	169.950	-161.525	70.513	72.706	157.970	97.070	-135.045	-104.720	-65.166	157.667	81.689	-111.819	59.868	0.00034296	0.00022677	8.2829e-05	1175.9	5.9099e-06	1.6454e-06	1232.8	237.04	4.8482e-06	2.9073e-06	295.2	84.035	66.845	19.24	4.5531e-06	26.779	0.00021575	0.00018926	5.3349e-05	1160.9	2.3307e-06	2.2095e-06	1218.7	235.44	2.1981e-06	2.2222e-06	292.92	83.983	66.299	19.346	2.1477e-06	27.097	-51.946	-84.924	-43.837	-156.399	-43.642	-19.941	-156.132	-149.002	-26.810	-50.341	-149.725	-143.122	-142.076	-135.484	-6.979	-136.220	-8191	255	
39417.539	1	1	0	0	0.18732	0.050275	0.22787	0.27128	0.08587	0.14784	0.030971	0.16715	0.094207	0.064756	0.054018	0.11016	0.14282	0.17821	0.1222	0.077283	-4.1458	-4.3583	-4.8104	-4.4583	-4.5458	-4.6271	-4.4833	-4.7604	-4.3875	-4.2521	-4.9229	-4.3229	-4.5625	-4.5292	-4.2521	-4.8104	123.484	-83.123	-79.433	166.219	-40.859	92.332	32.115	-87.399	84.136	13.187	68.960	-151.773	-50.132	43.182	-4.159	-85.348	0.00037413	0.00045434	0.00012897	1175.1	4.7646e-06	3.5773e-06	1228.8	237.65	4.9255e-06	3.7051e-06	292.66	83.754	65.936	19.149	2.4291e-06	26.487	0.00021121	0.00018855	5.1523e-05	1157.3	2.0935e-06	2.0221e-06	1212.4	234.96	2.048e-06	2.0291e-06	290.9	83.577	65.91	19.265	1.989e-06	26.899	-44.303	-84.372	-71.185	-156.170	-21.511	15.322	-156.335	-148.879	6.805	20.941	-149.324	-142.715	-142.502	-135.551	-40.220	-135.879	-8191	255	
39417.637	1	1	0	0	0.063729	0.25206	0.15262	0.10364	0.11248	0.097506	0.26454	0.11246	0.074351	0.21841	0.088437	0.17996	0.17759	0.059503	0.16042	0.19	-4.2042	-4.2229	-4.7917	-4.3833	-4.5188	-4.7958	-4.4292	-4.8187	-4.5021	-4.2104	-4.8375	-4.2667	-4.4187	-4.6708	-4.1375	-4.8417	-165.435	2.381	105.500	133.805	18.558	-135.111	141.556	145.111	94.117	155.375	139.348	166.021	-134.661	-33.391	-101.944	151.331	0.00033743	0.00042144	0.0001173	1167.5	4.9116e-06	3.6193e-06	1226.2	236.75	3.3172e-06	3.0527e-06	293.53	83.612	66.77	19.041	2.2586e-06	26.505	0.00020765	0.00018164	4.9e-05	1152	2.229e-06	2.0883e-06	1209.2	234.63	2.138e-06	2.0878e-06	291.08	83.643	66.217	19.232	2.1122e-06	26.94	-49.376	-123.215	-86.699	-156.210	-37.070	-45.051	-156.240	-148.861	-21.039	-23.010	-149.366	-142.845	-142.364	-135.234	11.680	-136.390	-8191	255	
39417.758	1	1	0	0	0.11895	0.14157	0.11602	0.25703	0.16039	0.060913	0.13074	0.15766	0.12583	0.14245	0.21357	0.084704	0.079037	0.34192	0.13857	0.16082	-4.2625	-4.1771	-4.6271	-4.5437	-4.4688	-4.7542	-4.3521	-4.7312	-4.5521	-4.25	-4.8063	-4.4042	-4.2271	-4.7396	-4.4437	-4.55	53.692	-67.473	-156.523	146.879	-117.138	122.045	69.623	57.730	-29.408	-108.118	23.797	-98.938	8.132	104.645	169.077	58.058	0.00033434	0.00030045	0.00014024	1167.9	4.5911e-06	1.5172e-06	1228.4	236.4	3.4189e-06	2.8877e-06	293.58	83.238	66.223	19.202	2.6742e-06	26.546	0.0002098	0.00019351	5.1628e-05	1154.2	2.2015e-06	2.0637e-06	1210.7	234.92	2.1111e-06	2.1547e-06	291.44	83.308	65.917	19.27	2.039e-06	26.945	-47.093	-92.756	-36.564	-156.370	-50.240	11.232	-156.252	-149.233	2.454	-7.773	-149.523	-142.443	-142.446	-135.425	-23.741	-136.289	-8191	255	
39417.852	1	1	0	0	0.032457	0.17816	0.03969	0.24101	0.094632	0.19639	0.26554	0.20128	0.14925	0.060998	0.25259	0.081821	0.15118	0.17687	0.15259	0.11878	-4.3917	-4.2104	-4.8	-4.4479	-4.2063	-4.7771	-4.4375	-4.7021	-4.7542	-4.225	-4.8292	-4.55	-4.3625	-4.8854	-4.3208	-4.5021	-136.847	-50.392	-73.226	164.772	86.971	117.913	74.552	143.338	-55.571	25.549	104.479	-118.081	-51.467	97.208	-105.181	25.317	0.00032548	0.00018412	0.00011017	1164	5.4517e-06	1.7267e-06	1221.6	235.56	4.14e-06	1.2569e-06	292.46	83.747	66.094	19.205	3.0039e-06	26.666	0.00020487	0.00018253	5.053e-05	1151	2.0756e-06	1.9387e-06	1205.1	233.75	2.0745e-06	1.9665e-06	291.02	83.382	65.591	19.241	2.0438e-06	26.933	-47.948	-68.800	-63.793	-156.184	-24.067	-17.442	-156.432	-148.945	22.080	1.088	-149.134	-142.798	-142.599	-135.308	45.739	-136.079	-8191	255	
39417.949	1	1	0	0	0.22513	0.080983	0.13164	0.25798	0.20205	0.20437	0.24243	0.1399	0.13961	0.16268	0.25774	0.059086	0.055764	0.028194	0.20894	0.16316	-4.3229	-4.1854	-4.5958	-4.6479	-4.3167	-4.825	-4.6667	-4.6125	-4.6583	-4.0958	-4.6396	-4.5042	-4.1958	-4.7396	-4.3333	-4.4833	84.309	164.039	-89.906	140.274	156.169	-47.385	117.819	-166.949	145.036	-97.945	123.157	183.011	48.967	176.913	-123.865	-156.574	0.00028651	0.00039572	0.00010941	1164.7	3.0365e-06	1.6288e-06	1222.8	236.06	3.1715e-06	1.5586e-06	293.11	83.375	65.913	18.983	3.3563e-06	26.608	0.00020432	0.00018396	4.9089e-05	1149.2	2.0944e-06	1.9099e-06	1204.3	233.61	1.9816e-06	1.9662e-06	290.53	83.273	65.699	19.18	1.9816e-06	26.854	-49.400	-89.425	-89.185	-156.048	27.518	-20.121	-156.223	-149.260	-5.366	-1.457	-149.473	-142.823	-142.479	-135.607	7.979	-135.901	-8191	255	
39418.047	1	1	0	0	0.076797	0.20287	0.16041	0.016796	0.17208	0.16839	0.13829	0.20793	0.17364	0.19511	0.12898	0.17016	0.16542	0.13269	0.1796	0.25234	-4.5188	-4.1458	-4.7438	-4.6729	-4.0854	-4.6062	-4.6229	-4.4458	-4.8792	-4.2875	-4.6083	-4.6792	-4.1854	-4.7854	-4.4521	-4.3146	-20.549	-34.403	-144.901	121.509	94.068	85.122	115.701	-152.424	-73.819	-64.157	183.086	4.595	-89.288	100.731	-98.107	63.122	0.00030727	0.00036613	0.00010581	1163.8	8.9768e-07	1.2637e-06	1218.2	235.39	2.8888e-06	3.6124e-06	292.05	83.57	65.896	19.083	1.9624e-06	26.553	0.00019337	0.0001774	4.7703e-05	1147.4	2.05e-06	1.9144e-06	1203	233.28	1.9151e-06	1.8739e-06	289.91	83.223	65.514	19.202	1.9383e-06	26.804	-50.112	-69.151	-84.817	-156.176	-107.611	35.577	-156.241	-148.816	-27.207	-8.140	-149.404	-142.783	-141.814	-135.553	-22.665	-136.224	-8191	255	
39418.164	1	1	0	0	0.2736	0.076824	0.22052	0.067477	0.029974	0.1178	0.32283	0.21703	0.37658	0.075023	0.14049	0.43724	0.14576	0.13149	0.099952	0.08789	-4.3896	-4.1708	-4.4958	-4.7396	-4.2104	-4.9104	-4.6396	-4.4	-4.6208	-4.2833	-4.6292	-4.6042	-4.2521	-4.8896	-4.5083	-4.2479	97.137	-157.815	45.347	-146.843	66.644	178.815	-160.965	111.903	-146.104	59.549	-109.781	124.873	-93.138	41.351	166.348	107.690	0.00032241	0.00042958	9.719e-05	1163.9	5.3191e-06	2.6374e-06	1216.5	234.79	2.024e-06	2.7637e-06	290.45	83.196	66.068	19.155	2.6946e-06	26.399	0.00020134	0.00017976	4.9864e-05	1146.7	2.1009e-06	1.8321e-06	1200.8	232.95	2.044e-06	2.0299e-06	289.61	83.089	65.545	19.222	1.9479e-06	26.785	-51.312	-47.546	-62.913	-156.217	-3.305	-18.160	-156.266	-149.240	-37.029	-46.079	-149.045	-143.005	-142.294	-135.424	-58.292	-135.784	-8191	255	
39418.238	1	1	0	0	0.2715	0.073167	0.062286	0.16397	0.047204	0.037158	0.23002	0.049818	0.15915	0.099954	0.091319	0.25935	0.060838	0.022463	0.14164	0.2797	-4.5396	-4.3438	-4.3229	-4.9125	-4.2188	-4.7083	-4.6354	-4.2646	-4.9396	-4.2958	-4.4979	-4.8479	-4.1542	-4.7	-4.5958	-4.3021	-52.124	101.775	148.769	58.909	-134.305	-49.707	147.561	132.328	180.989	-158.405	128.301	188.824	109.695	180.225	-76.252	152.197	0.00032768	0.00040089	6.3606e-05	1162.6	5.3388e-06	2.5075e-06	1219.6	235.76	2.3616e-06	4.7851e-06	292.78	83.42	66.055	19.078	4.8915e-06	26.387	0.00020249	0.00018661	4.9638e-05	1146.8	2.1229e-06	1.9655e-06	1202.4	233.42	2.002e-06	2.0302e-06	290.38	83.303	65.532	19.155	2.0069e-06	26.85	-46.873	-57.959	-69.653	-156.433	-28.322	-14.027	-156.090	-149.049	8.878	-19.969	-149.482	-142.643	-142.479	-135.399	-20.290	-136.403	-8191	255	
39418.336	1	1	0	0	0.17437	0.082703	0.1935	0.17495	0.17565	0.17778	0.29137	0.080941	0.203	0.12603	0.14772	0.19713	0.1997	0.25763	0.046255	0.2351	-4.5583	-4.3729	-4.3313	-4.9396	-4.2	-4.7208	-4.9271	-4.3646	-4.9	-4.4125	-4.4292	-4.8354	-4.25	-4.6271	-4.8396	-4.2583	167.981	184.920	-140.663	-159.333	29.660	45.586	163.379	-85.124	190.132	-149.949	122.456	-154.084	74.955	-82.592	119.360	133.249	0.00037505	0.00031339	0.00011725	1160.7	5.481e-06	2.1941e-06	1219.9	235.42	4.0113e-06	2.2797e-06	291.27	82.784	66.242	19.129	2.7685e-06	26.454	0.00020172	0.00017712	5.0709e-05	1146.2	2.1088e-06	1.9299e-06	1202	233.03	1.9852e-06	1.9193e-06	289.74	83.119	65.613	19.17	1.8708e-06	26.845	-52.973	-80.091	-41.892	-156.187	-44.619	5.350	-156.186	-149.013	5.307	78.473	-148.943	-142.742	-142.746	-135.718	7.931	-136.232	-8191	255	
39418.430	1	1	0	0	0.10413	0.20691	0.22204	0.17878	0.055512	0.23814	0.088223	0.13752	0.31385	0.30587	0.073027	0.067764	0.087803	0.19604	0.11278	0.12144	-4.4479	-4.4563	-4.3292	-5.0625	-4.2396	-4.3771	-4.9896	-4.2167	-4.6708	-4.4146	-4.2771	-4.9	-4.4125	-4.5104	-4.8083	-4.3979	-50.135	67.889	170.287	114.911	-94.457	-128.170	130.281	152.948	94.798	-1.328	2.817	-70.878	17.050	-90.644	-164.002	-95.770	0.00031711	0.00034639	0.0001322	1160.2	2.6396e-06	5.1884e-06	1216.4	236.07	3.0619e-06	5.0018e-06	291.72	83.561	65.918	18.916	5.1654e-06	26.401	0.00019609	0.00017517	4.9549e-05	1145.6	2.0976e-06	1.8103e-06	1199.5	233.19	1.8839e-06	1.8584e-06	289.42	83.036	65.328	19.156	1.7403e-06	26.694	-50.432	-87.155	-86.326	-156.131	-41.859	-8.695	-156.380	-148.854	32.421	-12.085	-149.066	-142.876	-142.570	-135.421	-20.519	-136.447	-8191	255	
39418.551	1	1	0	0	0.17337	0.038939	0.15388	0.25664	0.25058	0.096025	0.29828	0.036829	0.077587	0.25611	0.24633	0.2255	0.31462	0.080379	0.16238	0.054888	-4.2875	-4.6438	-4.2229	-4.9271	-4.2875	-4.4583	-4.9688	-4.2958	-4.6167	-4.6146	-4.2604	-5.0229	-4.3688	-4.3292	-4.7104	-4.2458	145.000	43.049	26.006	-149.989	49.345	27.807	135.986	20.009	6.290	172.207	122.869	135.616	144.765	-12.015	-87.807	187.027	0.00034471	0.00028216	0.00013002	1152.6	4.9948e-06	3.3187e-06	1199.5	233.7	3.4598e-06	4.8426e-06	290.25	83.673	65.179	18.915	1.8272e-06	26.298	0.00018939	0.00015813	4.3249e-05	1135.5	1.8794e-06	1.7764e-06	1188.6	231.54	1.8897e-06	1.7642e-06	287.41	82.689	65.098	19.12	1.8437e-06	26.687	-48.848	-95.654	-61.303	-156.145	-59.369	6.690	-156.082	-149.026	-12.706	-42.498	-149.157	-142.663	-142.370	-135.269	-40.254	-135.558	-8191	255	
39418.645	1	1	0	0	0.083964	0.045754	0.11291	0.15022	0.12791	0.053853	0.082038	0.11358	0.19767	0.078419	0.096356	0.15043	0.1486	0.11357	0.14579	0.21857	-4.2625	-4.675	-4.1958	-4.8479	-4.4292	-4.4125	-4.9625	-4.3542	-4.4958	-4.7812	-4.3562	-4.8979	-4.3812	-4.3208	-4.7312	-4.3146	-5.881	191.037	149.410	178.681	81.060	-98.473	87.166	-76.913	-66.973	175.982	-89.487	150.495	-56.127	-157.643	-34.441	-21.380	0.00029513	0.00029438	7.6095e-05	1147.9	4.6895e-06	8.0359e-07	1211.7	233.07	1.3837e-06	4.49e-06	290.33	83.007	65.403	18.885	1.5453e-06	26.316	0.00018824	0.00015773	4.6457e-05	1134.3	1.9666e-06	1.7714e-06	1192.2	231.63	1.9925e-06	1.8734e-06	288.27	82.66	65.1	19.073	1.9225e-06	26.62	-52.062	-118.267	-106.037	-156.216	-43.528	4.706	-156.267	-148.839	34.207	-6.042	-149.346	-142.538	-142.527	-135.731	-14.058	-135.542	-8191	255	
39418.742	1	1	0	0	0.14557	0.077619	0.15611	0.31178	0.079661	0.14796	0.1782	0.16136	0.18595	0.18803	0.30451	0.13493	0.049643	0.032108	0.11336	0.1504	-4.1062	-4.75	-4.1125	-4.9146	-4.5583	-4.1792	-5.025	-4.3708	-4.5542	-4.8167	-4.3958	-4.7542	-4.7396	-4.3208	-4.7875	-4.4292	85.424	-52.776	187.427	-126.297	-89.246	79.794	94.992	94.431	-38.314	117.042	136.366	-87.699	93.414	95.347	161.265	128.941	0.00032972	0.00038994	7.7717e-05	1153.4	5.6277e-06	2.0901e-06	1208.7	232.56	2.2151e-06	4.1042e-06	289.91	82.482	65.495	18.827	1.9933e-06	26.375	0.00019671	0.0001743	4.8973e-05	1137.2	2.0651e-06	1.9207e-06	1192.9	231.61	1.9589e-06	1.8399e-06	287.89	82.529	64.947	19.055	1.8839e-06	26.714	-48.062	-46.715	-70.874	-156.292	-54.066	18.910	-156.213	-148.892	-22.300	-29.204	-149.144	-143.005	-142.473	-135.505	16.085	-135.782	-8191	255	
39418.840	1	1	0	0	0.22509	0.17754	0.088505	0.20735	0.041884	0.04822	0.16241	0.24738	0.078272	0.18363	0.1433	0.070596	0.044162	0.24617	0.18898	0.099934	-4.0292	-4.7458	-4.2562	-4.7104	-4.6521	-4.1937	-4.8021	-4.475	-4.3438	-4.9479	-4.2646	-4.6687	-4.5333	-4.1958	-4.6729	-4.4146	-163.276	-27.495	72.560	137.392	160.396	-143.435	-88.857	140.601	-57.403	138.054	93.347	-65.824	50.369	-19.996	-80.522	-114.846	0.00033043	0.00032308	0.00012118	1149.3	4.1011e-06	3.3448e-06	1205.6	233.21	4.6485e-06	2.0944e-06	289.68	82.142	65.447	18.879	2.4643e-06	26.267	0.00019036	0.0001556	4.629e-05	1135.7	1.902e-06	1.8819e-06	1190.7	231.17	1.8366e-06	1.7046e-06	287.52	82.447	64.897	18.989	1.6731e-06	26.592	-52.704	-78.035	-60.674	-156.234	-28.425	-13.409	-156.378	-148.793	-6.332	-6.324	-149.054	-142.837	-142.589	-135.328	11.395	-135.729	-8191	255	
39418.934	1	1	0	0	0.03069	0.14335	0.069236	0.12487	0.10325	0.20132	0.25286	0.18583	0.13815	0.048926	0.22277	0.048175	0.16179	0.13503	0.22912	0.15014	-3.9667	-4.7542	-4.3729	-4.7979	-4.6792	-4.1771	-4.95	-4.525	-4.2083	-4.6813	-4.5146	-4.5229	-4.7375	-4.2562	-4.7271	-4.6958	118.541	5.133	-86.151	148.250	31.770	-20.910	59.974	174.518	-73.676	-21.524	126.901	84.863	22.689	146.578	134.588	12.288	0.0003008	0.00021368	0.00013365	1142.2	5.6642e-06	2.5009e-06	1202.3	230.93	4.752e-06	9.7208e-07	287.19	82.046	64.947	18.697	2.6832e-06	26.272	0.00017673	0.00014814	4.4744e-05	1127	1.8534e-06	1.7173e-06	1185	229.7	1.8439e-06	1.6105e-06	285.81	82.095	64.599	18.921	1.7223e-06	26.576	-44.625	-66.350	-81.211	-156.226	-39.967	-21.703	-156.039	-149.281	14.698	7.545	-149.050	-143.117	-142.428	-135.516	23.696	-136.190	-8191	255	
39419.031	1	1	0	0	0.068699	0.15479	0.074257	0.24334	0.13719	0.26993	0.12454	0.11841	0.2554	0.20203	0.18612	0.19351	0.10325	0.17212	0.11802	0.22607	-3.9625	-4.8542	-4.2521	-4.6417	-4.6708	-4.2	-4.9708	-4.6771	-4.2292	-4.8333	-4.3979	-4.4875	-4.8417	-4.25	-4.5563	-4.65	-158.204	131.684	-144.017	125.377	-84.815	181.999	152.955	160.051	96.526	-87.668	125.365	98.547	5.920	169.914	62.248	176.713	0.00029941	0.00033311	8.8855e-05	1142.4	4.6954e-06	2.7946e-06	1195.6	232.79	3.8955e-06	3.295e-06	288.39	81.853	64.885	18.856	1.7602e-06	26.145	0.00018088	0.00015351	4.3043e-05	1126.5	1.7665e-06	1.6948e-06	1183.2	230.57	1.8265e-06	1.6749e-06	286.3	82.087	64.722	18.98	1.7537e-06	26.598	-49.412	-91.002	-78.627	-156.117	8.368	-45.715	-156.054	-148.993	-37.656	-29.948	-149.267	-142.686	-142.569	-135.470	-73.466	-136.111	-8191	255	
39419.125	1	1	0	0	0.23505	0.23519	0.063885	0.22593	0.18858	0.15729	0.15634	0.11233	0.14797	0.12907	0.15324	0.10773	0.21503	0.099611	0.20849	0.14713	-3.7854	-4.6813	-4.15	-4.4688	-4.8938	-4.1917	-4.7625	-4.7604	-4.2271	-4.7583	-4.4458	-4.2333	-4.9417	-4.3854	-4.6625	-4.7396	117.794	135.068	139.219	120.072	97.390	76.319	127.229	87.181	45.753	-114.715	173.239	71.694	107.981	-57.533	42.060	187.858	0.00031142	0.00040094	0.00010187	1142.3	5.6305e-06	3.5981e-06	1200.7	232.48	3.7769e-06	3.1336e-06	288.15	82.378	64.946	18.817	4.3827e-06	26.278	0.000189	0.00014978	4.4281e-05	1127.2	1.8237e-06	1.7808e-06	1184.7	230.07	1.8324e-06	1.6794e-06	286.71	82.217	64.883	19	1.8299e-06	26.537	-51.735	-66.417	-67.791	-156.102	-7.609	-26.981	-156.093	-149.008	-10.244	-10.174	-149.407	-142.712	-142.481	-135.436	-33.087	-136.087	-8191	255	
39419.246	1	1	0	0	0.17279	0.11721	0.12112	0.15398	0.1761	0.22278	0.089778	0.15894	0.17194	0.12249	0.15294	0.243	0.031416	0.18757	0.24407	0.080271	-3.7958	-4.8083	-4.3375	-4.2792	-4.7417	-4.2958	-4.4479	-4.8083	-4.0667	-4.5521	-4.55	-4.4229	-4.8438	-4.3167	-4.475	-5.0125	30.906	-51.093	72.895	116.720	193.066	137.693	108.743	165.332	135.943	114.665	144.000	75.451	-64.016	-54.856	-104.339	47.309	0.00030864	0.00021807	8.0574e-05	1144.2	3.2603e-06	3.2881e-06	1196.8	232.15	2.3578e-06	2.2224e-06	289.46	82.57	65.073	18.703	4.2287e-06	26.159	0.00019069	0.00015266	4.5009e-05	1126.6	1.8376e-06	1.8285e-06	1182.4	229.95	1.9169e-06	1.8379e-06	286.96	82.283	64.765	18.902	1.8414e-06	26.456	-53.191	-47.330	-88.491	-156.261	-12.453	-32.152	-155.959	-148.759	31.891	-28.343	-149.085	-142.749	-142.646	-135.250	-43.222	-135.948	-8191	255	
39419.340	1	1	0	0	0.1131	0.22972	0.096726	0.21221	0.11765	0.087871	0.21087	0.15126	0.090736	0.12237	0.1105	0.29769	0.022644	0.12683	0.090027	0.15515	-3.875	-4.6438	-4.5833	-4.2812	-4.7917	-4.3542	-4.5417	-4.7896	-4.2729	-4.6438	-4.5667	-4.2271	-4.7375	-4.2771	-4.3479	-4.8479	-123.266	1.004	16.945	157.680	24.472	173.476	108.520	175.723	5.857	63.706	-49.758	-54.292	-105.420	-150.694	113.593	-70.620	0.00034278	0.00024504	0.00010908	1144.5	6.4204e-06	2.8089e-06	1201.8	232.3	3.4133e-06	2.2504e-06	285.31	82.71	64.756	18.839	2.9654e-06	26.315	0.00019173	0.00016351	4.4779e-05	1128.3	1.8934e-06	1.8825e-06	1184.1	230.12	1.8947e-06	1.8365e-06	285.54	82.418	64.751	18.992	1.7472e-06	26.533	-46.727	-50.384	-65.784	-156.254	-22.959	-12.723	-155.984	-148.821	-16.426	3.404	-148.971	-142.683	-142.374	-135.692	-16.290	-136.185	-8191	255	
39419.438	1	1	0	0	0.07526	0.11339	0.24646	0.10037	0.13201	0.31734	0.10569	0.043421	0.11709	0.17476	0.34808	0.13116	0.095107	0.07147	0.074655	0.073336	-3.8667	-4.5583	-4.6417	-4.2458	-4.7562	-4.2979	-4.4354	-4.8812	-4.1792	-4.6188	-4.7521	-4.2	-4.6979	-4.5125	-4.3562	-4.7812	-81.593	61.921	-42.993	181.516	-51.423	145.433	138.187	95.764	110.931	-67.719	134.363	28.990	154.676	186.746	-96.428	-8.856	0.00033025	0.00034001	0.00013191	1141.4	4.7482e-06	2.0236e-06	1201.1	231.13	2.9428e-06	2.7504e-06	289.19	82.219	64.764	18.79	3.1815e-06	26.158	0.00018843	0.00016177	4.4822e-05	1128	1.8937e-06	1.764e-06	1185.6	229.84	1.8922e-06	1.724e-06	286.05	82.179	64.725	18.949	1.7523e-06	26.55	-46.807	-124.220	-56.441	-155.987	-53.066	-34.238	-156.473	-149.006	-19.690	-20.644	-149.218	-142.670	-142.607	-135.324	-13.155	-135.846	-8191	255	
39419.531	1	1	0	0	0.30387	0.14175	0.14133	0.14935	0.12772	0.073458	0.1635	0.21294	0.045358	0.084683	0.1332	0.26599	0.26742	0.1555	0.1738	0.17047	-3.9521	-4.4229	-4.6729	-4.3521	-4.675	-4.4604	-4.4479	-4.8396	-4.3271	-4.375	-4.7729	-4.2208	-4.6687	-4.6208	-4.2875	-4.8667	-88.138	-104.291	81.691	164.112	145.559	93.707	157.259	144.388	35.470	16.724	83.262	106.115	103.518	59.017	47.394	144.900	0.00034232	0.00028899	0.00015709	1147.2	6.5266e-06	2.4774e-06	1198.3	231.63	3.4615e-06	2.6425e-06	288.93	82.021	65.222	18.773	1.9514e-06	26.353	0.00019268	0.00016115	4.3849e-05	1129.1	1.8556e-06	1.6928e-06	1184.4	229.77	1.8607e-06	1.6941e-06	285.99	82.193	64.815	18.959	1.7886e-06	26.563	-45.650	-43.649	-80.454	-156.415	-46.166	-34.960	-156.316	-148.858	1.177	-10.561	-149.229	-142.967	-142.629	-135.491	-27.613	-135.949	-8191	255	
39419.629	1	1	0	0	0.088069	0.17256	0.1253	0.13931	0.032117	0.095236	0.22294	0.12992	0.14029	0.037991	0.10899	0.10675	0.14435	0.082202	0.052164	0.20623	-3.9917	-4.3292	-4.7875	-4.2458	-4.6208	-4.5813	-4.3396	-4.9	-4.3417	-4.3479	-4.8625	-4.2729	-4.5875	-4.6146	-4.2542	-4.7042	147.131	-93.086	87.098	129.746	-14.674	-149.459	184.907	-141.316	-57.176	-154.138	-64.441	-114.049	-117.511	-36.978	82.604	75.972	0.00034076	0.00038145	7.6257e-05	1142.9	6.1365e-06	3.2909e-06	1201.5	233.02	5.0496e-06	4.1416e-06	287.75	82.154	64.885	18.707	1.7327e-06	26.253	0.0001856	0.00016243	4.3206e-05	1127.7	1.8223e-06	1.6717e-06	1185	230.12	1.7443e-06	1.7038e-06	285.74	82.105	64.725	18.928	1.7082e-06	26.569	-50.708	-100.745	-31.111	-156.178	-46.362	-29.258	-155.980	-148.752	-15.032	-42.977	-149.192	-142.551	-142.357	-135.305	-48.296	-136.018	-8191	255	
39419.727	1	1	0	0	0.082048	0.083862	0.030446	0.50133	0.22489	0.23113	0.27782	0.34842	0.0046089	0.090897	0.18247	0.077092	0.15525	0.087941	0.2538	0.034047	-4.125	-4.4542	-4.8604	-4.425	-4.4187	-4.7125	-4.5208	-4.5333	-4.3875	-4.2583	-5.0021	-4.3583	-4.4062	-4.5854	-4.1	-4.8167	91.083	-113.297	178.408	139.631	-42.485	-36.809	153.286	-159.925	67.250	102.227	-156.245	140.885	-102.819	-56.673	106.084	188.581	0.00029521	0.0002532	9.4357e-05	1141.3	2.8975e-06	4.9953e-06	1197.2	233.25	1.6522e-06	3.817e-06	287.44	82.694	64.747	18.841	3.4571e-06	26.008	0.00018256	0.00015175	4.1112e-05	1125	1.7887e-06	1.6535e-06	1182.3	230.07	1.7285e-06	1.6442e-06	285.64	82.211	64.603	18.943	1.7171e-06	26.531	-49.805	-57.265	-75.113	-156.337	-74.184	-33.712	-155.977	-149.050	-8.774	-31.799	-148.945	-142.763	-142.521	-135.823	-42.350	-135.812	-8191	255	
39419.848	1	1	0	0	0.1536	0.21623	0.33175	0.25243	0.15	0.07192	0.11855	0.2602	0.19879	0.17113	0.077273	0.16118	0.12159	0.27781	0.13042	0.059753	-4.1292	-4.1792	-4.8167	-4.4792	-4.3958	-4.775	-4.2292	-4.7042	-4.5854	-4.3167	-4.8313	-4.4896	-4.4437	-4.6458	-4.2979	-4.6208	-53.365	-102.751	-69.294	171.743	-111.233	189.353	148.288	75.738	-55.112	187.311	-79.148	139.090	177.354	155.752	-122.739	168.188	0.00032095	0.00029361	7.9324e-05	1139.8	6.3553e-06	4.1471e-06	1197.4	232.26	1.869e-06	3.6672e-06	287.55	82.251	65.212	18.957	2.9854e-06	26.273	0.00018881	0.00015546	4.0855e-05	1124.8	1.7738e-06	1.6202e-06	1180.7	229.82	1.698e-06	1.6907e-06	285.98	82.239	64.75	19	1.6671e-06	26.578	-50.923	-24.445	-96.377	-156.169	-30.716	-42.836	-156.003	-149.013	12.144	-23.106	-149.288	-143.085	-142.393	-135.706	-9.193	-135.527	-8191	255	
39419.941	1	1	0	0	0.055992	0.060628	0.028079	0.17596	0.17138	0.24178	0.10572	0.12695	0.2217	0.079381	0.060447	0.069191	0.049661	0.13956	0.37669	0.060648	-4.1375	-4.2396	-4.7542	-4.3521	-4.3896	-4.7729	-4.4313	-4.6104	-4.5083	-4.1583	-4.7292	-4.3542	-4.3854	-4.9021	-4.4062	-4.4583	-93.394	79.639	188.703	158.926	-25.279	141.315	74.008	-150.295	-76.894	-126.379	61.841	117.403	121.006	103.641	159.936	40.456	0.00030338	0.00012538	0.00012945	1142.6	4.2928e-06	3.3221e-06	1194.2	231.66	3.2037e-06	4.2008e-06	288.62	82.188	65.018	18.873	3.7628e-06	26.17	0.00018204	0.00014821	4.1988e-05	1124.4	1.7314e-06	1.6442e-06	1180.4	229.78	1.732e-06	1.6899e-06	286.04	82.212	64.731	18.981	1.6769e-06	26.513	-46.116	-109.156	-98.260	-156.179	-30.246	-43.708	-156.037	-148.938	-33.725	-30.609	-149.332	-142.787	-142.426	-135.178	-25.365	-136.408	-8191	255	
39420.039	1	1	0	0	0.05512	0.12241	0.21792	0.10372	0.3422	0.23376	0.041666	0.19777	0.050287	0.14606	0.069685	0.16133	0.044273	0.095422	0.2575	0.31805	-4.3	-4.1583	-4.6708	-4.6917	-4.2542	-4.8917	-4.4229	-4.4833	-4.6417	-4.1813	-4.8021	-4.5437	-4.3125	-4.8562	-4.2146	-4.5188	-76.655	-165.744	111.189	-151.838	-143.049	8.893	184.211	165.037	190.751	133.019	-15.966	-6.693	31.861	10.955	-150.430	-19.169	0.00031667	0.00035048	0.00010536	1141.8	6.8021e-06	2.5238e-06	1197.6	230.83	3.2671e-06	2.2942e-06	286.84	82.402	65.052	18.796	2.7595e-06	26.267	0.00017656	0.00014967	3.9905e-05	1125.3	1.721e-06	1.5772e-06	1181.8	229.41	1.6951e-06	1.6865e-06	285.03	82.161	64.894	18.916	1.7008e-06	26.553	-46.639	-78.149	-24.227	-156.132	-44.457	-7.435	-156.230	-149.086	-6.026	-11.537	-149.046	-142.982	-142.457	-135.395	7.944	-135.951	-8191	255	
39420.109	1	1	0	0	0.26295	0.16857	0.05138	0.037269	0.1219	0.16618	0.031797	0.020251	0.20558	0.062135	0.11673	0.059943	0.19355	0.26187	0.19054	0.19236	-4.1958	-4.0583	-4.6312	-4.7	-4.2042	-4.8604	-4.4812	-4.4542	-4.5729	-4.1229	-4.6417	-4.5125	-4.1833	-4.875	-4.3958	-4.3854	107.646	43.365	173.079	-107.116	191.283	28.644	161.807	36.064	51.898	-38.174	-153.182	-76.908	96.981	-115.959	-13.046	73.762	0.00029868	0.00043166	0.00013617	1134.6	4.1044e-06	7.4788e-07	1197.7	232.13	2.4387e-06	2.6538e-06	287.85	82.643	65.081	18.694	4.5288e-06	26.245	0.00017981	0.00015549	4.1995e-05	1123.4	1.8219e-06	1.6097e-06	1182.4	229.83	1.6913e-06	1.6496e-06	285.97	82.223	64.606	18.951	1.6136e-06	26.512	-48.348	-67.219	-69.202	-156.196	-57.365	-9.271	-156.336	-148.791	-11.689	14.280	-148.860	-142.978	-142.394	-135.420	-6.784	-135.890	-8191	255	
39420.230	1	1	0	0	0.093247	0.078218	0.15121	0.2431	0.18575	0.049367	0.077903	0.07536	0.13587	0.15992	0.2778	0.12063	0.16652	0.18173	0.097872	0.085586	-4.4167	-4.1917	-4.4854	-4.8396	-4.0854	-4.6833	-4.525	-4.3354	-4.625	-4.2042	-4.6021	-4.8667	-4.1833	-4.6062	-4.4958	-4.4437	-153.167	74.025	-112.914	150.026	-145.507	72.898	-63.988	175.328	107.400	139.537	-54.066	-160.090	-161.842	116.664	-116.317	150.886	0.00032443	0.0003077	7.8916e-05	1136.7	3.5027e-06	1.2354e-06	1201.3	231.56	1.8677e-06	2.1138e-06	286.63	82.182	64.65	18.936	3.3703e-06	26.289	0.0001757	0.00014922	4.1532e-05	1122.9	1.8393e-06	1.5908e-06	1181.2	229.35	1.6827e-06	1.7118e-06	285.07	82.121	64.489	18.962	1.6391e-06	26.54	-48.808	-78.298	-96.699	-156.370	-68.353	-3.685	-156.275	-149.202	-1.432	16.807	-149.443	-142.805	-142.510	-135.522	-40.463	-135.746	-8191	255	
39420.324	1	1	0	0	0.20849	0.23072	0.021956	0.34709	0.097818	0.12927	0.22491	0.053294	0.085012	0.055967	0.072435	0.16675	0.30429	0.099993	0.14114	0.061031	-4.4896	-4.2	-4.5792	-4.7937	-4.2479	-4.6	-4.5292	-4.2333	-4.7083	-4.2771	-4.5021	-4.8938	-4.275	-4.7167	-4.4313	-4.3354	127.072	-11.809	58.392	166.483	92.899	-108.490	-15.997	-11.138	-88.936	-38.329	39.502	-107.390	27.312	-31.111	-60.410	-56.383	0.00034762	0.00023894	0.00013673	1138.3	2.7669e-06	3.2781e-06	1196.5	231.73	1.801e-06	6.7284e-07	286.24	82.89	65.066	18.856	3.3138e-06	26.179	0.00016884	0.00014792	4.2221e-05	1123.3	1.7633e-06	1.5968e-06	1180.2	229.37	1.669e-06	1.6448e-06	285.01	82.147	64.644	18.982	1.6115e-06	26.471	-49.240	-77.403	-72.166	-156.162	-55.528	-14.947	-156.303	-148.696	-12.914	-90.394	-149.101	-142.721	-142.580	-135.449	28.439	-135.925	-8191	255	
39420.422	1	1	0	0	0.19144	0.069885	0.070285	0.21225	0.19792	0.038373	0.11444	0.10286	0.15087	0.27183	0.11255	0.099669	0.13686	0.29134	0.12567	0.1699	-4.4479	-4.4271	-4.3104	-4.7812	-4.1854	-4.7083	-4.6417	-4.1604	-4.6813	-4.4167	-4.4	-4.8292	-4.2667	-4.6667	-4.6292	-4.3333	-125.101	-0.583	85.138	174.114	-67.214	150.722	11.891	-67.880	-128.081	4.953	31.718	34.486	142.603	158.640	-132.941	-145.453	0.00034961	0.00030424	0.00011877	1140.3	5.9064e-06	2.5474e-06	1199.9	231.43	1.8907e-06	2.7892e-06	287.44	82.514	65.593	18.769	3.0668e-06	26.106	0.00017352	0.00015009	4.0971e-05	1123.4	1.8183e-06	1.5966e-06	1180	229.55	1.6656e-06	1.6314e-06	285.49	82.269	64.759	18.904	1.5517e-06	26.507	-48.076	-66.985	-46.114	-156.065	-31.012	-32.568	-156.150	-149.039	-8.131	0.596	-148.894	-142.626	-142.880	-135.216	-19.382	-135.891	-8191	255	
39420.520	1	1	0	0	0.16816	0.12977	0.20668	0.19421	0.19834	0.18145	0.32645	0.1275	0.025702	0.18561	0.21971	0.24345	0.06007	0.2733	0.16505	0.054136	-4.4708	-4.4313	-4.2729	-4.9688	-4.2146	-4.5896	-4.6958	-4.1167	-4.7167	-4.4958	-4.375	-4.8542	-4.2708	-4.5292	-4.7167	-4.2937	-86.877	58.059	-20.259	162.157	96.668	86.767	133.660	162.307	186.477	-124.745	-135.230	-162.644	-58.977	169.431	61.513	105.322	0.00030371	0.00026755	4.6291e-05	1131.1	4.3262e-06	1.8393e-06	1195.3	232.14	3.5968e-06	3.8694e-06	287.62	82.77	64.838	18.798	4.7459e-06	26.083	0.00017961	0.00014727	4.2069e-05	1121.1	1.7801e-06	1.6113e-06	1180.1	229.61	1.7315e-06	1.6669e-06	285.88	82.118	64.596	18.893	1.6847e-06	26.52	-44.590	-84.787	-68.969	-156.255	-7.535	-16.452	-156.176	-149.020	15.476	27.849	-149.095	-142.931	-142.744	-135.305	-14.411	-135.738	-8191	255	
39420.637	1	1	0	0	0.06756	0.13808	0.11724	0.26389	0.16635	0.12896	0.276	0.13678	0.16827	0.10542	0.21864	0.17583	0.27296	0.15577	0.038384	0.11742	-4.2146	-4.5042	-4.3604	-4.8042	-4.2812	-4.5375	-4.8812	-4.2937	-4.6625	-4.3979	-4.3583	-4.8938	-4.425	-4.4208	-4.8292	-4.3208	-123.827	-25.573	-78.189	115.857	-19.648	89.137	116.188	113.324	173.270	65.773	-57.545	140.004	178.703	164.561	-21.835	63.411	0.00032673	0.00023604	0.00010507	1136.8	6.0558e-06	2.3485e-06	1196.8	231.06	2.927e-06	2.696e-06	286.29	82.477	65.117	18.795	1.9588e-06	26.26	0.00018087	0.00014367	4.2914e-05	1123	1.7619e-06	1.6227e-06	1179.6	229.06	1.7263e-06	1.5915e-06	284.85	82.151	64.54	18.962	1.6175e-06	26.556	-47.794	-94.870	-57.816	-156.000	-44.050	-14.333	-156.181	-148.908	18.021	-16.044	-148.912	-142.817	-142.633	-135.233	-40.777	-135.996	-8191	255	
39420.711	1	1	0	0	0.10538	0.069249	0.089245	0.29817	0.02725	0.16565	0.14162	0.20281	0.19617	0.027231	0.042358	0.22391	0.23255	0.13933	0.091361	0.083988	-4.1708	-4.525	-4.3958	-4.7479	-4.3229	-4.2958	-4.9938	-4.2896	-4.7375	-4.6083	-4.3458	-4.8708	-4.3208	-4.2771	-4.8917	-4.2458	-30.802	-164.985	19.410	167.291	4.354	52.578	158.150	44.739	146.646	-0.216	116.283	98.472	132.179	-70.627	40.838	129.338	0.00030637	0.00017847	0.00010596	1140.5	6.3463e-06	2.8613e-06	1198.5	231.31	4.1586e-06	3.3474e-06	288.57	82.138	65.198	18.743	3.2375e-06	26.23	0.00017675	0.00014524	4.1474e-05	1123.8	1.7337e-06	1.6254e-06	1181	229.58	1.7333e-06	1.5812e-06	285.68	82.016	64.611	18.97	1.5796e-06	26.479	-52.214	-87.751	-38.395	-156.150	-54.704	-12.587	-156.420	-148.858	1.734	-23.404	-148.797	-143.132	-142.600	-135.384	-9.320	-136.067	-8191	255	
39420.805	1	1	0	0	0.19329	0.13053	0.096099	0.12263	0.062483	0.056646	0.061126	0.092708	0.25785	0.1803	0.25479	0.13949	0.045321	0.06065	0.27114	0.13241	-4.1875	-4.6896	-4.2833	-5.0625	-4.5	-4.45	-5.1	-4.4396	-4.5583	-4.6562	-4.3479	-4.7208	-4.4667	-4.3167	-4.7646	-4.4979	-130.578	-144.493	176.106	157.165	-111.988	-105.873	58.999	188.996	-28.335	-96.827	-143.349	-149.334	-114.672	75.694	-54.088	-1.864	0.00034513	0.00016851	0.00017326	1140	5.1774e-06	2.5816e-06	1197.8	230.44	2.8315e-06	2.9203e-06	287.14	83.056	65.112	18.736	1.348e-06	26.453	0.00017567	0.00014793	4.2186e-05	1123.1	1.793e-06	1.6881e-06	1180.1	229.03	1.7693e-06	1.6034e-06	285.46	82.298	64.828	18.93	1.6603e-06	26.613	-49.118	-67.455	-44.015	-156.296	-70.478	-7.072	-156.120	-148.955	-1.150	-27.111	-149.335	-142.579	-142.143	-135.181	-28.800	-135.799	-8191	255	
39420.926	1	1	0	0	0.27731	0.31328	0.082506	0.12466	0.053663	0.13203	0.097334	0.19206	0.11976	0.072611	0.18888	0.055586	0.14172	0.28525	0.10802	0.091586	-4.1625	-4.6646	-4.2937	-4.6792	-4.5833	-4.2396	-4.9563	-4.3438	-4.4062	-4.8958	-4.2562	-4.7833	-4.5813	-4.1208	-4.9729	-4.5521	64.605	131.758	1.998	107.400	88.374	-22.627	145.891	-1.581	-147.722	74.383	124.756	152.882	-26.618	-125.576	104.728	164.654	0.00035523	0.00057344	0.0001404	1140.8	4.891e-06	1.7787e-06	1197.3	231.38	3.2149e-06	2.991e-06	288.67	83.078	64.951	18.822	3.3212e-06	26.261	0.00018422	0.00014875	4.0111e-05	1124.4	1.7692e-06	1.6831e-06	1180.3	229.39	1.7955e-06	1.5707e-06	286.06	82.277	64.753	18.967	1.6001e-06	26.53	-49.368	-65.844	-89.036	-156.235	28.016	-16.090	-156.098	-149.008	-11.767	17.341	-149.336	-142.670	-142.374	-135.233	-23.759	-136.033	-8191	255	
39421.023	1	1	0	0	0.25124	0.080753	0.23202	0.31855	0.080107	0.023323	0.17407	0.093347	0.065538	0.18142	0.12239	0.35851	0.16574	0.21894	0.11962	0.1645	-4.0792	-4.8375	-4.2396	-4.6833	-4.5188	-4.1479	-4.7438	-4.5396	-4.2083	-4.8187	-4.3021	-4.325	-4.6229	-4.3646	-4.5271	-4.5479	105.358	151.716	45.935	161.582	-61.758	43.449	120.770	128.617	-103.285	140.825	19.073	60.338	-50.464	-55.538	-47.634	177.718	0.00033769	0.00032613	8.01e-05	1140.3	5.1492e-06	3.9675e-06	1198.2	231.08	2.713e-06	2.9426e-06	285.98	83.138	64.628	18.827	2.5187e-06	26.226	0.00017928	0.00013864	3.9706e-05	1123.8	1.6969e-06	1.6578e-06	1180.6	229.64	1.6585e-06	1.6184e-06	285.14	82.51	64.633	18.954	1.591e-06	26.593	-50.154	-68.085	-72.627	-156.242	-39.941	-34.026	-156.119	-148.884	-38.414	-32.764	-149.012	-142.640	-142.475	-135.194	-15.074	-136.181	-8191	255	
39421.117	1	1	0	0	0.15137	0.29128	0.10334	0.093729	0.13617	0.228	0.12266	0.086832	0.029854	0.12553	0.067887	0.099023	0.11587	0.28081	0.20563	0.14436	-4.25	-4.7146	-4.1708	-4.6125	-4.6458	-4.275	-4.8583	-4.7521	-4.1146	-4.8542	-4.4667	-4.5208	-4.8146	-4.1042	-4.7	-4.6312	-149.692	-124.848	-9.175	190.153	-140.014	-78.643	65.618	66.002	150.123	-6.904	35.523	112.798	185.433	173.064	18.332	164.673	0.00032336	0.00018137	0.00011504	1139	4.8946e-06	1.9999e-06	1201.7	231.44	3.72e-06	4.5746e-06	288.67	82.839	65.196	19.041	4.1289e-06	26.228	0.00017473	0.00014475	4.1053e-05	1123.2	1.7146e-06	1.6401e-06	1181.5	229.6	1.6696e-06	1.5591e-06	286.18	82.305	64.93	19.095	1.6193e-06	26.56	-44.422	-131.973	-82.167	-156.253	-63.130	-41.186	-156.503	-148.986	-29.285	-1.188	-149.196	-142.880	-142.791	-135.706	-24.243	-135.941	-8191	255	
39421.238	1	1	0	0	0.1382	0.07403	0.1434	0.13488	0.0022746	0.26167	0.21309	0.085354	0.027026	0.21716	0.13129	0.045826	0.078991	0.034636	0.20712	0.064909	-3.9833	-4.8083	-4.4458	-4.5771	-4.7729	-4.1917	-4.8854	-4.8	-4.0687	-4.8313	-4.3833	-4.2438	-4.7125	-4.2292	-4.6062	-4.6083	-103.707	159.584	77.494	-55.163	-70.631	107.951	86.399	184.537	140.239	-52.563	99.830	81.761	46.310	-57.256	74.204	71.172	0.00032276	0.00022801	0.00010756	1142.6	3.1188e-06	3.3957e-06	1192.4	230.81	3.7084e-06	2.9446e-06	287.02	82.04	65.446	18.907	2.3027e-06	26.186	0.00017676	0.00014011	3.9936e-05	1123.9	1.6708e-06	1.5703e-06	1179.5	229	1.6713e-06	1.6297e-06	286.04	82.304	64.808	19.053	1.6624e-06	26.549	-49.241	-76.952	-99.549	-156.166	-57.198	-17.562	-156.121	-149.217	-18.871	-25.980	-149.137	-142.865	-142.495	-135.320	11.377	-135.935	-8191	255	
39421.336	1	1	0	0	0.179	0.2008	0.22425	0.2404	0.050249	0.10364	0.11319	0.25813	0.23256	0.12534	0.16824	0.21104	0.15779	0.081039	0.18186	0.07865	-3.8521	-4.8958	-4.4396	-4.4729	-4.775	-4.4125	-4.5979	-4.7396	-4.1125	-4.7604	-4.6042	-4.3146	-4.8542	-4.2729	-4.4688	-4.5437	145.916	78.694	82.744	123.473	123.943	166.204	71.426	126.174	105.852	39.329	131.588	17.396	34.978	-13.741	-154.930	-55.663	0.00031702	0.00048555	9.5532e-05	1132.6	3.1229e-06	4.0578e-06	1195.8	231	3.8993e-06	3.6732e-06	286.19	82.463	65.399	18.701	3.1835e-06	26.379	0.00017316	0.00014369	4.0045e-05	1121.5	1.6858e-06	1.6336e-06	1179.4	229.15	1.7285e-06	1.6196e-06	285.43	82.227	64.892	18.923	1.6151e-06	26.596	-55.100	-71.221	-71.342	-156.134	-47.256	25.833	-156.227	-148.939	17.602	-7.366	-149.244	-142.189	-142.753	-135.554	10.460	-135.657	-8191	255	
39421.406	1	1	0	0	0.19673	0.14994	0.070933	0.35548	0.13696	0.031335	0.35893	0.24475	0.10262	0.095396	0.070762	0.14801	0.14	0.018936	0.11052	0.14191	-3.7896	-4.7792	-4.4625	-4.3063	-4.6792	-4.3542	-4.6625	-4.8083	-4.2271	-4.5146	-4.5958	-4.2583	-4.7937	-4.5083	-4.3812	-4.8875	189.649	157.408	-21.146	136.540	-90.012	127.147	109.070	109.404	-10.315	-118.993	2.904	126.088	-157.386	67.701	104.794	23.473	0.00034472	0.00027215	0.00011686	1139.3	7.0017e-06	4.2829e-06	1197	232.52	2.7662e-06	2.6009e-06	288.47	82.272	65.281	18.751	1.5977e-06	26.421	0.00017588	0.00014934	3.9574e-05	1124.7	1.7725e-06	1.5581e-06	1180	229.89	1.6989e-06	1.6096e-06	285.72	82.123	64.725	18.963	1.6373e-06	26.586	-51.566	-94.751	-52.594	-156.034	-44.826	-11.619	-155.917	-148.872	-5.420	-42.686	-149.181	-142.754	-142.637	-135.436	-11.429	-135.936	-8191	255	
39421.527	1	1	0	0	0.049979	0.11334	0.23313	0.3058	0.28029	0.03993	0.11726	0.065429	0.15736	0.084522	0.078458	0.27685	0.15323	0.26012	0.16811	0.10942	-3.95	-4.6771	-4.6104	-4.375	-4.8125	-4.375	-4.6021	-4.7479	-4.2521	-4.6917	-4.5979	-4.1083	-4.7896	-4.5312	-4.3521	-4.9437	23.618	119.434	42.581	-155.941	18.524	138.633	86.686	-131.768	14.563	-36.441	68.573	99.146	-160.211	118.043	-56.921	178.935	0.00034169	0.00029605	0.00015462	1136.1	3.2594e-06	1.1548e-06	1197.6	231.68	2.3081e-06	2.5408e-06	288.71	82.563	65.545	18.868	1.5746e-06	26.381	0.0001753	0.0001464	3.8694e-05	1122.3	1.7053e-06	1.6042e-06	1180	229.94	1.7149e-06	1.5654e-06	286.32	82.282	64.779	19.005	1.6239e-06	26.555	-52.286	-47.638	-72.937	-156.317	-20.299	-35.177	-156.187	-148.971	-23.558	-1.673	-149.340	-142.588	-142.144	-135.475	14.013	-135.891	-8191	255	
39421.621	1	1	0	0	0.057713	0.26591	0.046149	0.30616	0.08388	0.13605	0.18216	0.21163	0.2989	0.088236	0.025703	0.20289	0.052576	0.11077	0.1792	0.12428	-3.85	-4.4938	-4.8104	-4.4062	-4.6729	-4.5062	-4.3792	-4.8187	-4.2479	-4.5687	-4.9292	-4.2896	-4.5854	-4.6042	-4.2292	-4.9167	-89.583	-99.650	137.787	175.621	-49.983	72.982	161.287	156.494	-31.731	-21.228	18.200	131.983	175.991	42.900	-44.077	168.218	0.00028108	0.00027857	0.00012054	1135.7	1.3403e-06	3.3783e-06	1198.3	231.31	2.9793e-06	3.6503e-06	287.85	82.585	64.949	18.914	2.7627e-06	26.235	0.0001687	0.00014743	4.0512e-05	1120.9	1.7054e-06	1.526e-06	1178.7	229.45	1.6912e-06	1.5365e-06	285.81	82.17	64.707	19.002	1.6011e-06	26.589	-53.753	-84.720	-80.635	-156.119	-84.444	-16.617	-156.210	-148.955	-24.489	-10.958	-149.314	-142.741	-142.359	-135.329	-29.769	-136.147	-8191	255	
39421.719	1	1	0	0	0.043664	0.23624	0.0444	0.2259	0.018225	0.24198	0.27051	0.070464	0.18401	0.17878	0.12907	0.087961	0.093215	0.11258	0.24852	0.18001	-3.9542	-4.5021	-4.7229	-4.4042	-4.5813	-4.5938	-4.2958	-4.9083	-4.35	-4.2875	-4.9187	-4.2958	-4.6083	-4.5854	-4.1771	-4.6771	-101.309	181.779	175.291	100.261	182.451	91.916	162.070	-143.074	105.151	-71.189	127.627	121.436	-97.928	-133.157	187.822	173.245	0.00031037	0.00027257	0.00011401	1139.8	1.9562e-06	3.397e-06	1197.7	231.66	3.0137e-06	2.7598e-06	289.89	82.637	64.962	18.754	2.6067e-06	26.402	0.00017288	0.00014111	3.8596e-05	1122	1.6618e-06	1.5441e-06	1180	229.39	1.7117e-06	1.5645e-06	286.64	82.445	64.862	18.962	1.6436e-06	26.621	-49.172	-48.148	-28.151	-156.242	-154.377	-36.859	-156.156	-149.128	-1.486	1.967	-149.418	-142.881	-142.361	-135.261	-43.574	-136.136	-8191	255	
39421.816	1	1	0	0	0.059191	0.14948	0.16646	0.48085	0.094636	0.0823	0.11127	0.26012	0.096981	0.27741	0.14843	0.24495	0.099781	0.18073	0.30153	0.19411	-4.1312	-4.3146	-4.6708	-4.3458	-4.6917	-4.5896	-4.3792	-4.9354	-4.4854	-4.2167	-4.8729	-4.2354	-4.7	-4.8375	-4.0375	-4.7375	187.763	73.307	-113.638	144.412	21.092	13.140	-32.875	113.139	125.412	179.527	-106.428	96.617	-158.898	-124.948	-132.336	114.842	0.00035062	0.00029913	0.00012807	1139.6	4.0762e-06	3.7092e-06	1195.2	231.86	1.9392e-06	3.7422e-06	288.8	82.408	64.911	18.787	2.7518e-06	26.326	0.0001818	0.00015131	4.1797e-05	1122.3	1.7335e-06	1.6408e-06	1178.4	229.43	1.7162e-06	1.729e-06	286.1	82.224	64.757	18.983	1.6853e-06	26.616	-45.053	-114.744	-46.457	-156.190	-43.240	-20.828	-156.282	-148.882	-24.718	-2.096	-149.163	-142.749	-142.119	-135.604	-8.352	-136.155	-8191	255	
39421.934	1	1	0	0	0.17757	0.12456	0.081062	0.13303	0.068701	0.13352	0.17236	0.2395	0.10132	0.069808	0.13793	0.12121	0.28069	0.28952	0.055487	0.12917	-4.1375	-4.2583	-4.9521	-4.325	-4.5625	-4.7	-4.2792	-4.7562	-4.5312	-4.3792	-4.8958	-4.375	-4.5792	-4.8083	-4.2229	-4.6208	38.065	158.007	-89.498	110.276	153.851	48.147	63.479	179.360	-48.347	174.027	2.441	-135.808	-97.607	154.338	4.948	26.512	0.0003274	0.00028925	8.4216e-05	1140.9	5.0345e-06	2.98e-06	1196.9	231.89	3.748e-06	3.7874e-06	287.93	82.597	65.228	18.861	3.2174e-06	26.475	0.00018012	0.00015435	4.1104e-05	1124.3	1.7584e-06	1.5807e-06	1178.9	229.84	1.6504e-06	1.5806e-06	285.93	82.471	64.93	19.026	1.6016e-06	26.639	-52.860	-66.994	-54.028	-156.046	-34.317	16.067	-156.148	-148.753	12.270	-19.925	-149.326	-142.693	-142.362	-135.296	23.114	-136.103	-8191	255	
39422.008	1	1	0	0	0.16297	0.21297	0.13438	0.33021	0.12426	0.25713	0.19302	0.14125	0.10375	0.21437	0.12209	0.22817	0.23911	0.070436	0.15821	0.10831	-4.1521	-4.2188	-4.9021	-4.675	-4.4042	-4.8146	-4.3	-4.5958	-4.6521	-4.0792	-4.8667	-4.4729	-4.4563	-4.9271	-4.1875	-4.6125	-140.653	-99.090	-103.090	165.538	-83.707	-28.376	143.162	108.135	101.987	-65.397	130.179	101.807	-158.018	-111.810	88.522	87.394	0.00034132	0.00038918	0.00010137	1139.2	3.635e-06	3.7177e-06	1197.2	232.74	4.9194e-06	3.7131e-06	287.42	82.786	65.362	18.79	2.6844e-06	26.267	0.00016925	0.00015796	3.7962e-05	1123.4	1.6838e-06	1.5713e-06	1180.1	230.11	1.6396e-06	1.7064e-06	286.18	82.451	64.991	18.984	1.7199e-06	26.563	-51.784	-81.674	-55.666	-156.306	-59.192	-34.194	-156.155	-148.962	-26.924	-24.315	-149.051	-142.661	-142.171	-135.320	-14.990	-136.119	-8191	255	
39422.102	1	1	0	0	0.2436	0.085692	0.23926	0.25047	0.20157	0.097906	0.27368	0.34919	0.15107	0.2407	0.10208	0.18543	0.12635	0.22656	0.18792	0.20169	-4.1562	-4.2812	-4.8521	-4.6021	-4.2167	-4.9417	-4.3979	-4.7771	-4.6604	-4.1312	-4.8917	-4.5479	-4.3542	-4.9146	-4.3167	-4.425	-25.640	-104.824	88.474	77.605	132.480	118.199	158.318	116.064	88.109	126.717	146.341	70.282	167.781	-138.987	101.617	-104.776	0.00034563	0.00028137	0.00013092	1145.7	2.6507e-06	3.2369e-06	1196.5	233.21	2.4097e-06	2.0229e-06	288.41	82.929	65.541	18.896	4.3613e-06	26.484	0.00017641	0.00015895	4.1287e-05	1126.8	1.7419e-06	1.6495e-06	1181.8	230.52	1.6925e-06	1.6671e-06	286.61	82.461	65.005	19.057	1.6913e-06	26.661	-48.842	-88.370	-63.319	-156.315	-30.963	1.401	-156.171	-148.987	-29.107	-16.394	-148.759	-142.779	-142.421	-135.243	-13.668	-135.983	-8191	255	
39422.199	1	1	0	0	0.19482	0.017023	0.22666	0.19521	0.14033	0.10247	0.27081	0.041217	0.18331	0.10381	0.088459	0.19345	0.10844	0.1458	0.043312	0.14918	-4.2375	-4.1687	-4.6021	-4.7354	-4.2458	-4.7146	-4.3958	-4.4062	-4.7333	-4.1687	-4.6917	-4.6937	-4.1208	-4.7729	-4.3187	-4.4437	79.195	-101.684	-35.947	135.084	145.005	112.556	-166.504	-16.548	-30.789	122.931	-163.695	140.323	146.361	-128.144	117.938	-66.022	0.00031775	0.00040937	0.00010086	1139.6	5.0476e-06	3.5396e-06	1195.6	232.09	4.1499e-06	2.0137e-06	286.98	83.081	64.999	18.878	3.5105e-06	26.293	0.00017131	0.00014778	3.9554e-05	1123.6	1.6974e-06	1.5405e-06	1181.2	230.09	1.5808e-06	1.6153e-06	286.11	82.6	64.824	19.066	1.5035e-06	26.673	-50.553	-73.593	-44.299	-155.966	-9.071	-25.395	-155.963	-148.846	4.971	-28.434	-149.289	-142.656	-142.532	-135.161	21.203	-135.813	-8191	255	
39422.320	1	1	0	0	0.089874	0.1672	0.13977	0.10438	0.13498	0.18163	0.016265	0.16488	0.20847	0.40044	0.090658	0.22371	0.018643	0.090594	0.099664	0.092203	-4.3125	-4.1062	-4.6438	-4.6917	-4.225	-4.7292	-4.4979	-4.3583	-4.8583	-4.4021	-4.6104	-4.7562	-4.2292	-4.7604	-4.4896	-4.3812	-52.651	-154.426	-81.492	98.394	-31.649	-8.510	-139.193	136.345	36.322	-160.954	113.680	98.538	110.056	-83.383	-56.663	-13.125	0.00034859	0.00046515	6.0332e-05	1138.7	6.1706e-06	2.619e-06	1195.6	231.35	2.5933e-06	9.9935e-07	288.87	82.713	65.417	18.959	2.5403e-06	26.462	0.00016598	0.00013853	3.5781e-05	1122	1.6202e-06	1.5171e-06	1179.2	229.71	1.5817e-06	1.5268e-06	286.61	82.612	64.871	19.089	1.5037e-06	26.71	-47.570	-82.481	-56.952	-156.046	-56.889	23.073	-156.240	-148.765	-31.810	28.829	-149.074	-142.588	-142.372	-135.378	-13.424	-135.991	-8191	255	
39422.414	1	1	0	0	0.12393	0.31493	0.16014	0.038397	0.076345	0.16801	0.10975	0.080253	0.28194	0.096453	0.13014	0.14562	0.18581	0.159	0.096166	0.071482	-4.3771	-4.175	-4.6354	-4.75	-3.9813	-4.7042	-4.7146	-4.3104	-4.7979	-4.3187	-4.6042	-4.7229	-4.1625	-4.8125	-4.6375	-4.4104	-54.832	186.907	96.494	103.086	-94.141	-67.251	-62.879	-37.332	85.313	85.866	105.352	-152.904	-59.007	189.359	-2.431	-150.815	0.00033057	0.00031108	4.5693e-05	1136.2	4.6552e-06	2.3756e-06	1195.6	233.73	4.229e-06	2.9214e-06	288.72	82.374	65.373	19.016	2.6492e-06	26.352	0.0001638	0.00014377	3.8075e-05	1123.1	1.7172e-06	1.4752e-06	1180.1	230.63	1.6306e-06	1.5863e-06	286.98	82.559	64.971	19.158	1.5242e-06	26.712	-48.020	-105.867	-66.797	-156.194	-22.476	-11.015	-156.283	-148.941	12.016	2.878	-149.105	-142.576	-142.580	-135.698	-23.401	-135.926	-8191	255	
39422.512	1	1	0	0	0.16218	0.27145	0.16673	0.24162	0.25882	0.068049	0.07525	0.1607	0.17251	0.26148	0.19341	0.084766	0.12447	0.13041	0.21211	0.13547	-4.6083	-4.4333	-4.4917	-4.9437	-4.2312	-4.6417	-4.6521	-4.3833	-4.8583	-4.3396	-4.4896	-4.7958	-4.25	-4.5646	-4.475	-4.4021	-80.812	108.282	-17.696	167.292	126.811	-139.904	93.214	163.862	127.848	-134.459	169.040	190.860	84.783	13.327	136.048	-111.518	0.00031934	0.0003265	8.1844e-05	1141.1	3.8241e-06	2.3866e-06	1196.1	232.65	3.0733e-06	3.7825e-06	287.58	83.674	65.197	19	2.2509e-06	26.635	0.00016347	0.00013754	3.7175e-05	1123.4	1.6888e-06	1.4199e-06	1180.7	230.41	1.5131e-06	1.4896e-06	287	83.035	65.123	19.156	1.4502e-06	26.837	-52.656	-96.158	-63.617	-156.065	-31.788	-60.545	-156.279	-148.881	-15.936	-28.945	-149.037	-142.588	-142.616	-135.776	-41.178	-136.230	-8191	255	
39422.605	1	1	0	0	0.24661	0.15704	0.039318	0.16977	0.15705	0.26821	0.43761	0.21148	0.12168	0.31106	0.13753	0.059732	0.12961	0.22815	0.22166	0.10951	-4.4479	-4.3854	-4.4854	-4.9187	-4.1229	-4.5813	-4.6771	-4.2146	-4.6542	-4.2354	-4.5167	-4.8604	-4.2688	-4.6708	-4.7458	-4.2625	-50.644	-129.352	71.603	159.581	96.648	99.781	145.702	94.752	92.368	151.046	-49.827	37.320	140.011	-151.675	181.465	186.963	0.00034618	0.00028908	0.00014432	1140.4	4.3824e-06	2.0486e-06	1199.7	233.14	1.9266e-06	1.3869e-06	288.78	82.501	65.725	18.961	4.8452e-06	26.372	0.00016836	0.00014113	3.7592e-05	1123.5	1.6711e-06	1.4852e-06	1180.2	230.64	1.4804e-06	1.4775e-06	287.37	82.604	65.205	19.166	1.5805e-06	26.707	-51.397	-72.748	-73.331	-156.227	-38.577	-52.818	-156.092	-148.883	-2.259	-48.309	-148.907	-143.117	-142.347	-135.526	-1.890	-135.993	-8191	255	
39422.703	1	1	0	0	0.18102	0.12688	0.074427	0.095275	0.24877	0.060112	0.22693	0.28911	0.25488	0.11499	0.13984	0.088119	0.074051	0.047857	0.12011	0.057216	-4.3917	-4.5396	-4.15	-5.0021	-4.1979	-4.4542	-4.8708	-4.2562	-4.675	-4.4625	-4.2333	-4.85	-4.2167	-4.4688	-4.575	-4.0938	-41.007	-89.925	-89.250	94.943	-49.561	-64.322	100.999	136.193	0.446	82.517	44.130	-130.732	176.763	79.675	22.878	28.785	0.00032028	0.00033994	7.7871e-05	1137.6	4.9947e-06	2.8091e-06	1198.5	232.66	2.2448e-06	1.8713e-06	288.61	82.744	66.01	18.905	3.857e-06	26.409	0.00016939	0.00014	3.9433e-05	1123.2	1.706e-06	1.5576e-06	1182	230.51	1.6422e-06	1.5389e-06	286.74	82.804	65.298	19.143	1.5537e-06	26.783	-50.857	-103.027	-68.257	-155.992	-40.550	-11.881	-156.300	-149.129	-16.984	-16.439	-149.050	-142.476	-142.454	-135.458	-37.528	-136.187	-8191	255	
39422.801	1	1	0	0	0.16579	0.10984	0.07146	0.24011	0.098462	0.19372	0.23194	0.47602	0.070992	0.13805	0.10569	0.22141	0.083698	0.15487	0.052925	0.24265	-4.3562	-4.6292	-4.2229	-4.9354	-4.3313	-4.4646	-5.0417	-4.1458	-4.7562	-4.5646	-4.3083	-4.8812	-4.5271	-4.3938	-4.6687	-4.2396	80.622	-145.692	118.398	121.639	59.905	-45.653	121.192	170.486	10.929	71.314	-73.229	124.848	39.216	-98.026	-21.580	-91.115	0.00035707	0.00033371	7.3361e-05	1142.4	5.3142e-06	1.8309e-06	1200.9	233.96	3.5829e-06	2.9253e-06	289.53	83.25	65.598	18.921	3.3318e-06	26.353	0.00016923	0.00013878	3.8631e-05	1123.5	1.6248e-06	1.4894e-06	1181.7	230.64	1.492e-06	1.4857e-06	287.31	83.118	65.144	19.088	1.5112e-06	26.804	-55.226	-71.296	-55.568	-156.235	-36.546	30.141	-156.091	-148.841	12.513	-23.579	-149.287	-142.764	-142.220	-134.984	16.492	-135.926	-8191	255	
39422.922	1	1	0	0	0.16612	0.26254	0.25608	0.13164	0.050854	0.25323	0.10813	0.14127	0.13761	0.099607	0.23412	0.10213	0.037006	0.26681	0.13207	0.31866	-4.2771	-4.5854	-4.2854	-4.8458	-4.4083	-4.2771	-4.8875	-4.1833	-4.4208	-4.6875	-4.1937	-4.9042	-4.3854	-4.4042	-4.7771	-4.3917	172.312	-14.975	64.733	-140.997	-129.665	119.154	-103.140	-165.363	-37.027	35.283	160.028	-163.264	156.898	68.403	-72.757	105.211	0.00033015	0.00021941	0.00011359	1141.4	7.8205e-06	2.5612e-06	1195.8	232.45	2.0865e-06	4.5628e-06	289.46	83.782	65.848	19.028	2.5995e-06	26.536	0.00016541	0.00013369	3.7276e-05	1124.3	1.6968e-06	1.5712e-06	1179.1	230.57	1.5256e-06	1.5199e-06	287.7	83.095	65.374	19.175	1.5326e-06	26.772	-46.488	-59.453	-20.842	-156.268	-52.636	-6.788	-156.340	-148.902	-15.792	-10.322	-149.129	-142.843	-142.696	-135.192	-20.076	-136.063	-8191	255	
39423.016	1	1	0	0	0.19184	0.083304	0.12292	0.16591	0.081386	0.065717	0.39041	0.1774	0.089302	0.16934	0.024009	0.2129	0.13754	0.0664	0.16019	0.12278	-4.1104	-4.6	-4.1687	-4.7417	-4.3833	-4.2229	-4.9542	-4.4375	-4.3708	-4.7771	-4.1229	-4.7958	-4.6375	-4.2208	-4.8438	-4.4167	-63.056	-30.736	183.135	148.242	21.045	-78.072	144.433	-138.820	21.845	178.545	60.132	-162.456	72.507	119.123	139.808	45.924	0.00031345	0.00038369	8.9001e-05	1137.7	1.8324e-06	2.3946e-06	1207.7	233.58	3.27e-06	4.5474e-06	289.02	83.347	66.046	19.075	3.2556e-06	26.408	0.00016948	0.00013473	3.978e-05	1122.7	1.6989e-06	1.5957e-06	1184	230.99	1.5927e-06	1.4933e-06	287.45	82.863	65.495	19.19	1.5421e-06	26.773	-48.954	-78.482	-66.688	-156.173	-28.348	-11.760	-156.310	-148.796	-20.973	-20.534	-148.909	-142.524	-142.317	-135.434	7.485	-136.312	-8191	255	
39423.113	1	1	0	0	0.18781	0.20873	0.13845	0.085781	0.12468	0.03723	0.23095	0.1058	0.068817	0.15444	0.22243	0.28794	0.16591	0.095562	0.25977	0.061865	-4.0687	-4.8333	-4.2229	-4.7312	-4.525	-4.1833	-4.9771	-4.3688	-4.3104	-4.5792	-4.3104	-4.5833	-4.5729	-4.2875	-4.6875	-4.4437	-75.714	9.723	-147.547	-115.978	-122.476	96.782	150.051	104.617	136.995	-75.154	126.710	128.276	155.798	-19.904	157.809	171.815	0.00032358	0.00031835	0.00010869	1135.3	5.5671e-06	2.953e-06	1201.1	232.2	3.1988e-06	3.6218e-06	288.58	83.064	65.709	19.107	1.444e-06	26.407	0.00017396	0.00013396	3.948e-05	1124.9	1.6858e-06	1.5712e-06	1182.9	230.27	1.6306e-06	1.5952e-06	286.95	83.025	65.251	19.175	1.5447e-06	26.815	-48.067	-68.148	-70.253	-156.222	-55.862	-20.466	-156.239	-149.065	0.016	-48.919	-149.191	-142.397	-142.520	-135.860	-61.325	-136.087	-8191	255	
39423.207	1	1	0	0	0.27369	0.095357	0.22695	0.15844	0.093132	0.10223	0.30704	0.26634	0.15174	0.18932	0.13337	0.11627	0.27844	0.21093	0.12308	0.10208	-3.9646	-4.8625	-4.2167	-4.6375	-4.7	-4.1292	-4.9708	-4.5188	-4.2083	-4.7792	-4.2167	-4.5	-4.7937	-4.1021	-4.6708	-4.525	18.268	81.988	-166.820	189.246	43.655	-146.344	123.920	92.718	-47.435	53.369	-157.928	95.680	172.223	-43.908	-117.274	-126.687	0.00033172	0.00010535	3.3849e-05	1147.5	5.8692e-06	4.9818e-06	1194.6	232.39	2.1914e-06	3.9355e-06	291.7	83.329	65.839	18.948	2.9463e-06	26.552	0.00017437	0.00014454	4.11e-05	1128.1	1.6609e-06	1.6376e-06	1181.4	230.56	1.6323e-06	1.5279e-06	288.38	83.007	65.413	19.158	1.5882e-06	26.797	-46.599	-85.411	27.850	-156.129	-28.457	-31.581	-156.160	-148.952	4.740	-11.720	-148.954	-142.841	-142.398	-135.124	-53.622	-135.704	-8191	255	
39423.301	1	1	0	0	0.099731	0.19757	0.15155	0.22413	0.078856	0.12744	0.20938	0.29664	0.053197	0.067845	0.14107	0.070602	0.26779	0.13789	0.15262	0.13048	-3.8833	-4.7917	-4.1354	-4.5333	-4.5771	-4.2125	-4.7333	-4.7042	-4.2729	-4.8833	-4.275	-4.5167	-4.7375	-4.2854	-4.5312	-4.6729	144.467	-101.726	10.953	179.383	87.216	-146.971	119.189	80.465	71.375	77.708	48.817	50.392	48.518	67.516	-103.005	176.603	0.00029722	0.00029148	0.00010941	1143.3	4.489e-06	3.3496e-06	1200.3	232.82	2.1627e-06	3.0071e-06	289.94	83.499	65.726	19.19	2.3155e-06	26.512	0.00017585	0.00013799	3.9979e-05	1126.2	1.6178e-06	1.6327e-06	1184.1	231.11	1.5934e-06	1.4961e-06	288.02	83.275	65.251	19.18	1.5531e-06	26.804	-45.973	-39.709	-81.265	-156.176	-58.552	-16.802	-156.110	-148.939	-3.752	-61.267	-149.257	-142.785	-142.426	-135.554	9.506	-136.418	-8191	255	
39423.398	1	1	0	0	0.18818	0.13743	0.17954	0.15921	0.17854	0.079542	0.18308	0.1292	0.16894	0.12088	0.14245	0.19793	0.19749	0.06686	0.14616	0.14455	-3.8937	-4.8063	-4.3063	-4.5333	-4.7875	-4.2271	-4.7167	-4.7458	-4.3458	-4.5625	-4.6062	-4.1833	-4.9042	-4.2667	-4.5292	-4.6687	-165.435	-49.971	67.597	-158.528	189.933	62.341	95.282	26.982	-102.689	-110.666	149.242	142.429	-138.593	-126.613	-47.876	183.644	0.00036414	0.00042081	0.00010579	1140.2	4.6628e-06	2.9465e-06	1205.4	232.15	2.7399e-06	3.229e-06	289.67	82.879	65.77	18.988	3.402e-06	26.322	0.00017426	0.00013611	3.9729e-05	1126	1.6336e-06	1.5402e-06	1184.5	230.82	1.7089e-06	1.565e-06	287.74	82.933	65.376	19.17	1.5928e-06	26.751	-54.012	-68.529	-73.807	-156.204	-37.529	-18.032	-156.155	-148.783	0.149	-18.515	-149.410	-142.826	-142.447	-135.712	-25.701	-135.831	-8191	255	
39423.496	1	1	0	0	0.15747	0.29791	0.1883	0.31247	0.034655	0.14774	0.1151	0.093987	0.10758	0.15747	0.041537	0.1421	0.091685	0.076008	0.11725	0.15229	-3.8542	-4.6333	-4.4521	-4.55	-4.8875	-4.3875	-4.6292	-4.7937	-4.1167	-4.6229	-4.5354	-4.3021	-4.7479	-4.3083	-4.2875	-4.7583	-121.150	-7.512	-140.943	138.005	68.753	-67.105	-32.924	-159.732	-71.762	130.728	66.794	-132.225	-111.751	173.924	27.931	-125.082	0.00034501	0.0003368	7.3938e-05	1145.4	4.2905e-06	3.4646e-06	1198.8	233.29	3.5771e-06	2.04e-06	290.05	83.615	66.12	19.007	2.8305e-06	26.519	0.00017588	0.00014282	3.9714e-05	1128.4	1.6996e-06	1.557e-06	1183.9	230.91	1.6963e-06	1.4902e-06	288.28	83.046	65.522	19.204	1.5606e-06	26.851	-53.061	-77.535	-87.182	-156.152	-26.671	-21.627	-156.113	-148.918	31.080	37.366	-149.176	-142.737	-142.549	-135.099	-58.482	-136.282	-8191	255	
39423.590	1	1	0	0	0.14777	0.083694	0.11261	0.20556	0.10312	0.097159	0.23637	0.16313	0.14599	0.14315	0.16924	0.19373	0.17175	0.14525	0.13162	0.074915	-3.9625	-4.6188	-4.4458	-4.3583	-4.6229	-4.2896	-4.4688	-4.9021	-4.3479	-4.5583	-4.8292	-4.3354	-4.85	-4.3438	-4.4375	-4.9354	-26.359	-154.872	-33.900	147.021	-54.849	66.658	85.817	27.246	6.469	-41.262	168.144	74.306	147.563	13.135	-23.238	154.801	0.00031546	0.00035145	5.9463e-05	1145.4	2.7632e-06	4.4655e-06	1201.7	233.75	5.1899e-06	3.0142e-06	290.08	83.44	65.636	19.074	4.5986e-06	26.547	0.00017162	0.00013756	3.8569e-05	1128.6	1.6205e-06	1.5613e-06	1184	231.23	1.6009e-06	1.5007e-06	288.09	83.261	65.432	19.249	1.5236e-06	26.894	-48.176	-105.447	-48.281	-155.981	-67.092	-47.719	-156.022	-149.085	-6.651	18.733	-149.340	-142.924	-142.818	-134.998	-19.931	-135.675	-8191	255	
39423.711	1	1	0	0	0.07965	0.073193	0.06456	0.252	0.1285	0.26552	0.18615	0.20076	0.12653	0.016963	0.12875	0.11492	0.095831	0.12664	0.051047	0.048745	-3.875	-4.4854	-4.7188	-4.4187	-4.7583	-4.4208	-4.5229	-4.9521	-4.1229	-4.55	-4.7229	-4.2854	-4.6354	-4.5146	-4.3208	-4.9229	108.655	-135.361	39.389	-149.298	126.605	-165.015	118.859	191.079	32.350	-165.708	43.238	64.983	-15.122	29.261	34.601	55.966	0.00034645	0.00026637	8.4144e-05	1147.4	2.7905e-06	2.6393e-06	1204.7	234.3	1.9133e-06	9.7515e-07	290.93	84.223	66.323	19.1	1.949e-06	26.859	0.00017313	0.00013881	3.994e-05	1130.6	1.6633e-06	1.5088e-06	1187.4	231.65	1.6555e-06	1.5721e-06	289.32	83.407	65.773	19.252	1.5725e-06	26.965	-52.798	-74.516	-63.586	-156.223	-26.923	-2.005	-156.121	-149.027	13.335	67.257	-149.242	-142.927	-142.677	-135.453	17.895	-136.085	-8191	255	
39423.809	1	1	0	0	0.26864	0.075101	0.22253	0.10943	0.13978	0.11257	0.20188	0.057626	0.14943	0.071882	0.1007	0.2718	0.10942	0.046643	0.10775	0.18891	-4.0958	-4.5229	-4.7625	-4.4083	-4.5896	-4.55	-4.4583	-4.7792	-4.4479	-4.5021	-4.6458	-4.3375	-4.7208	-4.6479	-4.075	-4.8271	-106.495	-149.562	89.542	-143.331	110.147	26.278	117.811	171.579	129.291	-153.722	184.388	161.490	4.367	61.997	169.581	171.796	0.00034532	0.00021251	9.375e-05	1146.6	4.4578e-06	2.8118e-06	1208.8	233.54	3.0445e-06	3.1628e-06	291.7	83.485	65.632	19.097	3.4354e-06	26.674	0.00017138	0.00013267	3.8737e-05	1130.6	1.6776e-06	1.508e-06	1188.1	231.67	1.6175e-06	1.5029e-06	288.87	83.211	65.534	19.272	1.6196e-06	26.973	-51.468	-99.092	-66.758	-156.270	-28.759	-43.581	-156.183	-148.986	-11.433	7.426	-149.349	-142.732	-142.327	-135.845	-39.868	-135.431	-8191	255	
39423.879	1	1	0	0	0.17961	0.19755	0.063985	0.088716	0.13887	0.14506	0.12697	0.17242	0.14606	0.15842	0.21359	0.09723	0.22949	0.16023	0.094872	0.30796	-3.8458	-4.4688	-4.6917	-4.4042	-4.5583	-4.5958	-4.4333	-4.8792	-4.3208	-4.3896	-4.7854	-4.2083	-4.55	-4.6687	-4.2833	-4.8938	-46.021	-59.895	61.144	43.254	-111.106	168.074	175.220	114.802	85.933	162.479	111.088	-154.313	-37.961	-47.451	25.574	68.477	0.00032077	0.00041795	0.00010474	1144.8	5.7474e-06	3.9624e-06	1208.3	235.28	3.5829e-06	2.0604e-06	291.49	82.953	66.168	19.048	2.5028e-06	26.578	0.00017917	0.00013949	3.9165e-05	1130.7	1.6913e-06	1.5211e-06	1189.8	232.53	1.7416e-06	1.6047e-06	289.42	83.157	65.586	19.259	1.6136e-06	26.985	-47.712	-86.624	-53.324	-156.208	-20.823	1.359	-156.262	-148.750	7.079	1.969	-149.129	-142.466	-142.567	-135.592	-32.209	-136.089	-8191	255	
39424.000	1	1	0	0	0.17869	0.024193	0.021342	0.175	0.12872	0.31635	0.19757	0.020091	0.21156	0.022991	0.19626	0.254	0.09924	0.11746	0.15541	0.15296	-3.8875	-4.1562	-4.7854	-4.4104	-4.5625	-4.8146	-4.2271	-4.8104	-4.3625	-4.2271	-4.8854	-4.3875	-4.6083	-4.5625	-4.15	-4.8521	17.310	86.445	-77.418	89.222	26.665	-12.137	175.693	85.776	-119.111	-38.745	-165.103	170.205	158.173	100.626	113.399	179.817	0.00033851	0.00030469	0.00012532	1148.9	4.534e-06	2.5446e-06	1208.7	233.55	3.3048e-06	5.4744e-06	291.65	83.106	66.61	19.069	4.0254e-06	26.704	0.00018095	0.00015507	4.1466e-05	1133.4	1.7584e-06	1.5663e-06	1190.5	232.02	1.708e-06	1.6107e-06	290.06	83.267	65.918	19.275	1.6513e-06	26.953	-50.258	-57.176	-41.332	-156.180	-24.466	-14.655	-156.084	-149.218	28.857	-15.523	-148.894	-142.795	-142.633	-135.391	-10.407	-135.817	-8191	255	
39424.098	1	1	0	0	0.015087	0.14844	0.077931	0.097173	0.16954	0.12461	0.2308	0.18002	0.23479	0.19376	0.20718	0.061291	0.20774	0.14227	0.16222	0.24111	-4.2	-4.2979	-4.8896	-4.575	-4.4708	-4.7917	-4.3562	-4.8	-4.5021	-4.1896	-4.7917	-4.3542	-4.4187	-4.8167	-4.1667	-4.7083	51.430	-128.237	-35.190	35.868	-75.765	-129.048	111.778	190.074	98.916	183.918	-124.629	-22.074	167.566	-144.116	44.640	10.824	0.00033573	0.00015332	0.00012166	1152.2	5.3578e-06	2.802e-06	1211.6	234.07	3.1186e-06	4.3937e-06	290.3	84.137	66.003	19.112	4.5973e-06	26.757	0.0001757	0.00014162	4.0025e-05	1135.2	1.7292e-06	1.5473e-06	1192.6	232.09	1.6373e-06	1.5307e-06	289.52	83.673	65.7	19.303	1.6147e-06	26.988	-51.810	-76.843	-72.605	-156.221	-54.770	6.722	-156.150	-149.162	-0.821	1.853	-149.082	-142.404	-142.271	-135.191	0.460	-136.202	-8191	255	
39424.191	1	1	0	0	0.04026	0.03689	0.1353	0.21561	0.092804	0.075864	0.27664	0.069284	0.09825	0.22728	0.11774	0.11547	0.14242	0.21194	0.2469	0.18536	-4.1896	-4.2375	-4.8292	-4.7125	-4.35	-4.8333	-4.3729	-4.7583	-4.7167	-4.0854	-4.9625	-4.5375	-4.5188	-4.9167	-4.3125	-4.7583	2.335	-101.028	108.071	183.785	101.318	-118.968	130.329	125.779	179.065	-55.437	186.270	-63.703	83.549	147.238	-53.150	93.600	0.00030857	0.00038731	0.00011983	1147.3	5.6527e-06	3.478e-06	1209.7	235.03	2.8081e-06	4.1635e-06	292.35	83.926	66.332	19.184	5.4222e-06	26.712	0.00016782	0.00014273	3.971e-05	1132.1	1.696e-06	1.5186e-06	1191.5	232.51	1.6744e-06	1.6334e-06	290.55	83.519	65.865	19.358	1.6782e-06	27.029	-48.319	-76.392	-80.235	-156.184	-20.266	-8.872	-156.187	-149.015	-36.755	-44.096	-149.299	-142.822	-142.633	-135.728	-3.078	-136.242	-8191	255	
39424.289	1	1	0	0	0.30972	0.0728	0.059626	0.058259	0.1827	0.099392	0.23646	0.091948	0.17356	0.19313	0.29749	0.2667	0.13718	0.28391	0.11351	0.082316	-4.3875	-3.9583	-4.8	-4.5979	-4.4437	-4.9771	-4.4521	-4.7104	-4.7583	-4.2667	-4.9271	-4.5271	-4.3771	-4.9354	-4.3542	-4.4104	-82.365	186.582	-30.059	187.669	63.544	145.956	136.499	-53.558	-30.566	103.940	167.914	156.416	-131.391	178.432	145.987	-113.680	0.00036715	0.00035424	5.9372e-05	1151.2	3.8503e-06	3.0732e-06	1210.2	234.73	3.9705e-06	3.8214e-06	291.54	83.942	65.749	19.171	3.3503e-06	26.656	0.00017493	0.0001496	3.9725e-05	1134.4	1.7637e-06	1.6006e-06	1192.1	232.08	1.7439e-06	1.6396e-06	289.48	83.818	65.649	19.315	1.6077e-06	26.97	-48.379	-88.422	-52.646	-156.093	-83.319	-1.272	-156.404	-149.051	17.308	-4.441	-149.483	-142.716	-142.561	-135.602	-8.025	-136.177	-8191	255	
39424.406	1	1	0	0	0.19923	0.21168	0.071483	0.16599	0.17096	0.066868	0.2204	0.082318	0.1751	0.083825	0.068029	0.089463	0.2672	0.18729	0.12938	0.20213	-4.4417	-4.3063	-4.5938	-4.8146	-4.1542	-4.8292	-4.6521	-4.4563	-4.9479	-4.3313	-4.6917	-4.8	-4.2396	-4.8042	-4.6	-4.3896	14.122	-6.131	45.801	121.939	-3.914	192.302	142.131	97.449	-156.315	188.099	16.605	-146.213	162.104	-23.233	64.877	169.016	0.00032524	0.00028541	0.00012658	1150.9	6.5934e-06	4.0114e-06	1213.5	234.16	3.0762e-06	3.1732e-06	292.67	83.583	65.919	19.284	9.1407e-07	26.598	0.00017781	0.00015009	3.9414e-05	1136	1.7735e-06	1.5525e-06	1192.5	232.12	1.6931e-06	1.646e-06	290.21	83.554	65.668	19.346	1.6451e-06	26.94	-45.793	-73.972	-53.041	-156.182	-39.295	-0.693	-156.199	-148.980	-0.335	-8.621	-149.001	-142.755	-142.434	-135.352	-13.877	-136.061	-8191	255	
39424.504	1	1	0	0	0.20036	0.13604	0.036777	0.031385	0.11788	0.12923	0.19067	0.09908	0.02746	0.2558	0.077998	0.12484	0.22151	0.25806	0.1	0.10985	-4.4958	-4.2896	-4.625	-4.7688	-4.3	-4.9271	-4.5375	-4.5854	-4.8187	-4.2188	-4.7021	-4.7917	-4.1208	-4.775	-4.3896	-4.3063	-2.047	-142.371	-79.694	59.734	-67.600	141.692	134.945	181.975	128.245	63.825	-161.907	95.133	-56.375	-156.660	45.729	167.976	0.00034473	0.00033238	0.000137	1153.8	6.4015e-06	3.0538e-06	1212.6	234.3	3.1282e-06	3.7425e-06	293.38	83.588	66.318	19.231	1.9046e-06	26.847	0.00017344	0.00015285	4.0925e-05	1136.7	1.788e-06	1.6262e-06	1193.1	232.23	1.7521e-06	1.6706e-06	290.43	83.515	65.784	19.324	1.6306e-06	26.983	-47.541	-80.596	-80.180	-156.347	-17.553	-22.872	-156.234	-149.172	-10.414	-20.879	-149.297	-142.515	-142.558	-135.375	-42.630	-136.034	-8191	255	
39424.602	1	1	0	0	0.24512	0.081193	0.077456	0.29066	0.20457	0.269	0.44436	0.19329	0.063666	0.067976	0.15946	0.021581	0.19901	0.2162	0.077235	0.20691	-4.4479	-4.3229	-4.4458	-4.9938	-4.2021	-4.8438	-4.6687	-4.3104	-4.7104	-4.2146	-4.5521	-4.8042	-4.3542	-4.7417	-4.7542	-4.4563	124.015	-129.029	66.426	92.838	-84.307	-153.682	141.894	126.107	95.690	65.184	122.212	165.782	65.314	103.444	-4.867	128.623	0.00031668	0.00026301	5.5315e-05	1149.9	6.1736e-06	2.0318e-06	1210.6	234.89	3.6413e-06	2.5981e-06	292.14	83.753	65.695	19.204	1.6173e-06	26.756	0.00017038	0.00015339	4.2373e-05	1136.2	1.7991e-06	1.6096e-06	1195.1	232.4	1.6873e-06	1.6037e-06	290.33	83.547	65.561	19.34	1.6258e-06	27.032	-48.823	-96.334	-97.375	-156.184	-14.703	-30.204	-156.115	-148.927	-38.962	-2.913	-149.537	-142.507	-142.354	-135.527	-65.281	-135.895	-8191	255	
39424.695	1	1	0	0	0.26904	0.19326	0.053328	0.21782	0.068985	0.057551	0.14946	0.23589	0.057409	0.22278	0.24793	0.15476	0.20145	0.092241	0.22723	0.35303	-4.5229	-4.1104	-4.4833	-4.8146	-4.2646	-4.5813	-4.7854	-4.3458	-4.7542	-4.3417	-4.2917	-4.7896	-4.3208	-4.675	-4.7542	-4.1979	92.498	31.863	-61.536	97.718	-105.390	-4.075	52.147	120.659	103.677	37.535	162.021	0.161	116.389	-20.096	39.832	167.337	0.00033945	0.00031605	9.0517e-05	1157.8	4.6994e-06	3.5175e-06	1215.7	234.93	2.6941e-06	3.5861e-06	292.23	83.781	66.181	19.134	1.4974e-06	26.656	0.0001804	0.00015264	4.2922e-05	1138.8	1.7358e-06	1.6077e-06	1196	232.68	1.718e-06	1.6411e-06	290.05	83.672	66.055	19.342	1.6088e-06	26.959	-49.031	-92.086	-67.094	-156.210	-10.510	-34.479	-156.076	-149.175	-15.474	-38.132	-149.507	-142.712	-142.535	-135.558	-54.174	-136.010	-8191	255	
39424.793	1	1	0	0	0.13368	0.077441	0.12121	0.21935	0.15877	0.11917	0.13782	0.31251	0.078637	0.27886	0.14638	0.27946	0.038251	0.11806	0.11191	0.11731	-4.3958	-4.5375	-4.225	-4.9604	-4.4021	-4.5479	-4.7208	-4.3125	-4.85	-4.4792	-4.3604	-4.8396	-4.4396	-4.5229	-4.6875	-4.2354	-89.531	172.586	-134.379	119.044	167.457	102.740	123.201	-165.808	-29.933	-22.839	136.949	-153.518	2.342	-131.028	191.817	27.444	0.00034689	0.00042439	0.00013772	1153.8	6.21e-06	3.666e-06	1212.4	234.67	4.2445e-06	4.1914e-06	293.06	84.471	66.474	19.111	3.2394e-06	26.451	0.00017728	0.00014827	4.2587e-05	1137.9	1.7826e-06	1.6697e-06	1194.3	232.46	1.6964e-06	1.5738e-06	290.58	83.717	65.873	19.299	1.6178e-06	26.92	-52.267	-91.739	-96.422	-156.242	-23.982	-66.118	-156.385	-149.074	-28.149	-8.553	-149.117	-142.685	-142.216	-135.547	-35.851	-135.948	-8191	255	
39424.887	1	1	0	0	0.22885	0.20823	0.16378	0.43153	0.060218	0.065794	0.28673	0.13374	0.18087	0.22029	0.052501	0.12565	0.067474	0.19803	0.17117	0.11134	-4.2875	-4.4125	-4.3833	-4.85	-4.3812	-4.4958	-4.8958	-4.4104	-4.6604	-4.7021	-4.4187	-4.8021	-4.2875	-4.4208	-4.7729	-4.3375	126.030	-160.913	-148.412	143.911	-127.511	-55.972	126.681	172.525	83.236	136.063	155.359	128.689	130.139	87.655	9.146	98.883	0.00031202	0.00043244	0.00010417	1155.9	6.2795e-06	3.7633e-06	1208.3	235.82	3.5487e-06	3.1557e-06	293.21	83.073	65.99	18.993	1.2777e-06	26.794	0.00017471	0.00015539	4.3031e-05	1138.2	1.7932e-06	1.7069e-06	1194.5	233.18	1.7785e-06	1.6346e-06	290.5	83.381	65.794	19.279	1.7425e-06	26.961	-49.592	-81.250	-35.075	-156.124	-27.659	-15.678	-156.095	-149.073	5.973	-36.007	-148.999	-143.026	-142.454	-135.575	-13.362	-136.211	-8191	255	
39425.008	1	1	0	0	0.13206	0.14239	0.20962	0.26748	0.089793	0.07076	0.052872	0.038989	0.21653	0.07592	0.31979	0.099851	0.3304	0.17931	0.16486	0.13521	-4.3771	-4.6208	-4.3104	-4.8583	-4.2937	-4.3562	-4.9521	-4.3229	-4.5271	-4.6958	-4.2625	-4.7771	-4.4271	-4.2688	-4.775	-4.3562	100.990	146.459	94.442	173.438	-137.952	164.935	-134.182	41.257	178.438	105.035	96.401	90.328	191.465	52.730	32.081	145.129	0.00035119	0.00027069	0.0001048	1151.7	4.8359e-06	3.4837e-06	1212.5	234.26	2.7886e-06	3.4546e-06	292.45	84.048	66.003	19.204	3.5968e-06	26.749	0.00017831	0.00015949	4.1567e-05	1137.9	1.8821e-06	1.6319e-06	1194.5	232.54	1.7732e-06	1.5855e-06	290.86	83.793	65.854	19.335	1.6422e-06	27.037	-51.802	-46.990	-65.483	-156.181	-32.217	-6.377	-156.228	-148.881	19.219	-47.378	-149.214	-142.901	-142.792	-135.753	-10.390	-135.983	-8191	255	
39425.102	1	1	0	0	0.12204	0.05047	0.1695	0.23788	0.17947	0.18794	0.21145	0.12874	0.063936	0.12289	0.036734	0.13602	0.36455	0.27827	0.11471	0.13959	-4.1542	-4.7917	-4.15	-4.8396	-4.45	-4.3938	-5.0146	-4.3458	-4.3896	-4.8042	-4.3729	-4.7875	-4.5208	-4.2958	-4.8	-4.4313	105.260	31.396	96.903	172.915	40.734	-79.302	80.475	-84.405	108.225	190.122	-50.472	31.890	185.249	124.875	-52.370	141.228	0.00030246	0.00022836	8.5458e-05	1154.3	2.9944e-06	3.5416e-06	1210.7	234.49	2.9265e-06	3.2503e-06	291.71	83.685	66.424	19.317	4.2897e-06	26.91	0.00018234	0.0001474	4.2529e-05	1138.1	1.8482e-06	1.6667e-06	1195.2	232.48	1.7522e-06	1.566e-06	290.17	83.595	65.891	19.38	1.7008e-06	27.066	-47.863	-45.368	-100.116	-156.432	-89.552	-19.680	-155.963	-149.031	-20.787	-32.436	-149.364	-142.732	-142.485	-135.474	-18.853	-136.260	-8191	255	
39425.176	1	1	0	0	0.15947	0.055201	0.026467	0.061278	0.10987	0.014283	0.3446	0.22062	0.25992	0.24407	0.20499	0.067909	0.097229	0.032504	0.12199	0.38686	-4.1375	-4.7979	-4.2708	-4.8354	-4.4167	-4.3396	-4.8896	-4.4104	-4.4875	-4.8375	-4.4375	-4.6937	-4.7146	-4.35	-4.8625	-4.4125	45.775	163.020	162.318	-153.244	-50.245	132.678	105.893	97.452	6.042	-67.583	87.886	-151.459	21.675	69.729	-79.416	-158.617	0.00036259	0.00028316	0.00012037	1154.2	3.8303e-06	2.9292e-06	1218.8	235.46	2.444e-06	3.6337e-06	293.52	84.051	66.173	19.276	4.2951e-06	26.621	0.00017964	0.00015032	4.3366e-05	1138.4	1.7874e-06	1.6498e-06	1199	232.83	1.7178e-06	1.6539e-06	291.22	83.715	65.823	19.332	1.648e-06	26.918	-50.607	-106.082	-85.890	-156.080	-74.569	-7.764	-156.113	-149.128	-26.364	-43.810	-149.247	-142.809	-142.770	-135.209	-11.525	-135.892	-8191	255	
39425.273	1	1	0	0	0.034767	0.24847	0.029528	0.13866	0.091808	0.43132	0.24817	0.23229	0.1375	0.13801	0.20385	0.19964	0.014534	0.28083	0.080783	0.19164	-4.1792	-4.7188	-4.0062	-4.8417	-4.7104	-4.075	-4.8625	-4.5667	-4.275	-4.8896	-4.3146	-4.5312	-4.6875	-4.2417	-4.7042	-4.6354	-11.622	-111.324	7.559	89.830	-95.346	177.124	166.608	88.228	-101.758	113.353	126.214	-35.733	-17.570	-157.104	-121.638	-92.836	0.00035541	0.00040364	0.00010768	1155.2	6.9511e-06	2.0427e-06	1216.7	235.05	3.1961e-06	4.1891e-06	292.08	84.203	66.682	19.293	2.5851e-06	26.748	0.0001835	0.00015456	4.2128e-05	1137.9	1.7503e-06	1.6373e-06	1197	232.97	1.7561e-06	1.6606e-06	291.11	83.743	66.137	19.296	1.6443e-06	27.052	-47.036	-79.434	-43.028	-156.050	-34.545	-24.356	-156.020	-149.007	22.197	-7.559	-149.292	-142.735	-142.535	-135.333	-20.592	-136.468	-8191	255	
39425.391	1	1	0	0	0.096042	0.19696	0.19536	0.23827	0.16927	0.18639	0.20603	0.16021	0.048269	0.18096	0.010173	0.15561	0.30045	0.094212	0.08172	0.11771	-3.8854	-4.8896	-4.2438	-4.4896	-4.6813	-4.1979	-4.9146	-4.6417	-4.3271	-4.8792	-4.4354	-4.7521	-4.7917	-4.325	-4.8229	-4.5312	72.779	-165.094	-82.572	100.399	22.473	130.931	91.167	168.725	-72.674	-97.943	-75.380	-137.960	93.113	176.083	-15.625	24.046	0.00034125	5.892e-05	0.00013783	1158	5.4155e-06	4.3571e-06	1208.7	235.03	2.3611e-06	4.5831e-06	292.87	84.62	66.681	19.188	3.9452e-06	26.843	0.00018416	0.00015308	4.1984e-05	1139.5	1.7555e-06	1.6905e-06	1194.3	232.81	1.7647e-06	1.6573e-06	290.57	83.893	66.138	19.336	1.716e-06	27.066	-49.631	-110.102	-68.540	-156.159	-14.901	-34.097	-156.164	-148.953	-28.525	-21.691	-149.361	-142.783	-142.368	-135.401	-40.479	-135.773	-8191	255	
39425.488	1	1	0	0	0.24248	0.079507	0.2026	0.3587	0.15391	0.17638	0.1912	0.16248	0.30705	0.25764	0.065946	0.070669	0.21483	0.18263	0.26163	0.061447	-4.025	-4.8271	-4.3375	-4.6687	-4.7604	-4.3708	-4.825	-4.7937	-4.325	-4.7583	-4.5229	-4.3313	-4.8729	-4.4083	-4.7146	-4.9792	-32.162	22.569	115.558	176.549	175.315	-49.009	110.119	184.934	184.282	-148.052	-114.760	97.000	-9.809	170.806	129.839	182.555	0.00031078	0.00026189	0.00012307	1152.7	6.6317e-06	2.2098e-06	1215	234.41	2.5072e-06	1.9378e-06	292.95	83.915	66.224	19.324	2.2893e-06	26.731	0.00018335	0.00015168	4.2891e-05	1139	1.739e-06	1.7256e-06	1198.4	232.84	1.7573e-06	1.7157e-06	290.83	83.713	65.846	19.385	1.6713e-06	27.043	-51.465	-87.066	-78.998	-156.094	-52.670	-41.628	-156.273	-148.860	-1.189	-52.120	-149.265	-142.903	-142.648	-135.875	21.972	-136.112	-8191	255	
39425.586	1	1	0	0	0.15735	0.22487	0.16819	0.17791	0.084912	0.053903	0.31989	0.2736	0.12782	0.31797	0.12219	0.10605	0.091571	0.29246	0.029518	0.34456	-3.8542	-4.9042	-4.3729	-4.55	-4.8438	-4.1813	-4.7417	-4.8229	-4.1625	-4.7958	-4.6146	-4.4458	-4.8833	-4.2604	-4.6396	-4.9604	-105.351	-134.467	-92.887	-159.750	-149.865	84.858	147.052	-155.129	-30.868	-161.080	103.881	-59.670	174.033	120.128	139.231	-134.658	0.00034835	0.00033405	0.00010241	1156.6	2.3199e-06	2.9035e-06	1215.3	234.7	1.5877e-06	4.5465e-06	292.91	83.63	66.48	19.255	2.0265e-06	26.771	0.00018634	0.00015084	4.3393e-05	1140.6	1.7536e-06	1.7185e-06	1198.3	232.94	1.7614e-06	1.6891e-06	290.98	83.595	65.901	19.331	1.6937e-06	27.02	-50.794	-87.845	-75.759	-156.140	-25.994	32.350	-156.181	-149.355	15.699	-55.212	-148.953	-142.280	-142.502	-135.536	-20.750	-135.944	-8191	255	
39425.680	1	1	0	0	0.15629	0.032107	0.13195	0.17993	0.11141	0.21823	0.0104	0.16621	0.19425	0.133	0.17242	0.13855	0.075164	0.11751	0.16984	0.13664	-3.9	-4.7729	-4.5167	-4.4375	-4.9771	-4.1833	-4.7104	-4.8833	-4.3063	-4.6604	-4.7812	-4.3021	-4.925	-4.3812	-4.5062	-4.8333	147.059	-133.795	114.696	-120.007	-84.385	-48.149	-157.448	160.045	-122.778	99.588	101.471	-157.573	65.742	92.990	17.104	-13.459	0.00034417	0.00049182	6.6917e-05	1160.4	4.2236e-06	3.3021e-06	1212.4	234.7	5.1233e-06	2.2521e-06	293.66	84.684	66.693	19.197	4.3868e-06	26.644	0.00018131	0.00015224	4.2805e-05	1141.1	1.8011e-06	1.6757e-06	1197.8	232.8	1.7428e-06	1.6439e-06	291.08	83.743	66.007	19.34	1.6553e-06	27.003	-45.226	-70.824	-58.520	-156.206	-65.546	-11.912	-156.280	-149.250	-2.399	-63.757	-149.062	-142.756	-142.313	-135.431	-23.834	-135.762	-8191	255	
39425.777	1	1	0	0	0.14864	0.047993	0.039562	0.20206	0.14986	0.13377	0.073714	0.15868	0.092896	0.10783	0.14456	0.083121	0.053894	0.1215	0.070698	0.14967	-3.8875	-4.5062	-4.7792	-4.3021	-4.8042	-4.2396	-4.5542	-4.9062	-4.125	-4.6104	-4.7396	-4.2021	-4.8562	-4.4812	-4.3833	-4.9167	70.110	-121.824	-138.562	-147.870	96.359	-49.038	174.961	145.564	127.583	129.090	161.944	61.753	100.475	-120.048	151.097	-121.450	0.00034906	0.0003806	7.4155e-05	1157.7	2.3097e-06	4.0797e-06	1215	234.62	2.8096e-06	2.6126e-06	292.3	83.729	66.531	19.295	2.0783e-06	26.942	0.00018101	0.00014711	4.3035e-05	1141	1.7941e-06	1.6974e-06	1198.4	233.02	1.7756e-06	1.668e-06	291.14	83.745	66.101	19.395	1.7308e-06	27.053	-48.821	-73.937	-67.514	-156.361	-51.466	-6.580	-156.218	-149.118	-25.721	15.134	-148.986	-143.065	-142.815	-135.762	-47.634	-136.280	-8191	255	
39425.871	1	1	0	0	0.15671	0.086537	0.077942	0.058596	0.091627	0.11108	0.12688	0.025659	0.064481	0.045028	0.0046588	0.086461	0.19769	0.13416	0.071131	0.072866	-3.7479	-4.4771	-4.6146	-4.3063	-4.7292	-4.5021	-4.4313	-4.85	-4.3979	-4.6583	-4.7312	-4.1521	-4.8875	-4.5625	-4.3187	-4.9458	-26.911	-144.174	-67.568	112.568	20.089	100.691	-65.333	-60.715	-9.687	87.116	-58.590	121.673	23.953	97.465	-121.077	164.623	0.00034365	0.00026637	0.00014264	1159.9	5.9361e-06	3.2669e-06	1214.9	235.42	3.7288e-06	5.8798e-06	293.51	84.223	66.463	19.189	3.169e-06	26.812	0.00018563	0.00015484	4.1992e-05	1142	1.8589e-06	1.7079e-06	1199.6	233.35	1.8055e-06	1.7213e-06	291.38	83.695	66.078	19.366	1.7531e-06	27.092	-54.229	-113.053	-62.875	-156.163	-36.434	-4.881	-155.975	-149.020	-4.426	-27.846	-149.304	-142.662	-142.292	-135.669	5.032	-136.158	-8191	255	
39425.969	1	1	0	0	0.17348	0.15823	0.18687	0.26501	0.023916	0.13349	0.088933	0.19921	0.15749	0.24261	0.22886	0.29691	0.12358	0.10132	0.038256	0.10473	-3.9854	-4.4875	-4.7208	-4.3604	-4.7937	-4.6917	-4.2646	-4.7937	-4.3646	-4.5083	-4.7854	-4.1833	-4.8313	-4.6167	-4.3125	-4.95	-158.009	-49.001	127.560	146.946	-88.299	-43.603	33.468	144.315	157.141	175.654	79.412	125.113	174.423	105.017	86.483	-87.381	0.00033483	0.00031178	0.00013752	1159.2	6.3812e-06	3.5751e-06	1216.2	235.47	3.2465e-06	2.1463e-06	294.64	83.681	66.685	19.29	3.7144e-06	27.055	0.0001873	0.00015892	4.2548e-05	1143.8	1.8741e-06	1.7228e-06	1200.2	233.78	1.78e-06	1.7131e-06	292	83.817	66.244	19.435	1.7443e-06	27.103	-51.388	-60.461	-66.423	-156.387	-59.389	-24.232	-156.313	-149.022	19.259	-45.457	-149.056	-142.874	-142.420	-135.460	-1.214	-136.041	-8191	255	
39426.090	1	1	0	0	0.068231	0.13632	0.054341	0.06193	0.11603	0.17036	0.10309	0.097197	0.12509	0.098253	0.13364	0.13424	0.036651	0.16971	0.28911	0.14339	-4.15	-4.3854	-4.8458	-4.35	-4.5229	-4.7625	-4.2521	-4.9688	-4.5563	-4.3833	-4.85	-4.3958	-4.5437	-4.7729	-4.1979	-5.0104	142.452	-105.864	134.745	-157.825	47.507	167.409	130.367	-65.463	135.124	-106.491	99.928	41.433	-162.639	187.156	-44.272	-105.173	0.00029424	0.00023158	8.7724e-05	1158.4	5.6175e-06	3.9895e-06	1221.9	235.27	3.3615e-06	1.5619e-06	292.86	84.087	66.266	19.187	2.9237e-06	26.807	0.00018011	0.00015853	4.3709e-05	1144.7	1.9009e-06	1.661e-06	1201.3	233.51	1.8416e-06	1.7341e-06	290.77	83.845	66.028	19.358	1.7552e-06	27.053	-55.352	-61.271	-72.585	-156.325	-21.839	-11.513	-156.239	-149.196	14.529	-2.559	-149.192	-142.772	-142.854	-135.967	-16.184	-135.899	-8191	255	
39426.184	1	1	0	0	0.10411	0.080011	0.25696	0.038334	0.10667	0.12621	0.16528	0.19652	0.15739	0.08228	0.13644	0.16944	0.037677	0.078618	0.099471	0.23479	-4.1771	-4.2354	-4.8313	-4.3875	-4.425	-4.7958	-4.3333	-4.85	-4.5646	-4.3896	-5.0271	-4.3521	-4.5312	-4.7021	-4.3521	-4.8083	70.179	44.962	-50.672	5.051	-3.641	84.854	137.042	117.804	192.625	69.699	128.202	159.263	-143.000	108.673	6.116	41.838	0.00030357	0.00046281	9.7904e-05	1161.2	5.6763e-06	2.1229e-06	1217.3	236.33	3.1006e-06	2.619e-06	292	84.038	66.061	19.279	2.7764e-06	26.752	0.00018927	0.00016202	4.212e-05	1143.8	1.8708e-06	1.6546e-06	1199.1	233.72	1.7797e-06	1.6583e-06	291.29	83.943	66.11	19.369	1.7844e-06	27.122	-50.863	-73.827	-71.237	-156.164	-38.046	-7.328	-156.325	-149.002	-2.050	-10.603	-149.328	-142.780	-142.641	-135.326	-42.669	-135.994	-8191	255	
39426.281	1	1	0	0	0.18374	0.3172	0.28398	0.36987	0.139	0.16475	0.063462	0.24105	0.19968	0.13599	0.14462	0.091703	0.11251	0.1103	0.081553	0.044409	-4.35	-4.1833	-4.8083	-4.5708	-4.5104	-4.9271	-4.4229	-4.7021	-4.6188	-4.275	-4.925	-4.4854	-4.4646	-4.8438	-4.2458	-4.525	-15.250	-91.458	61.413	158.227	-5.622	115.895	193.016	118.523	-163.422	144.598	154.911	-81.758	17.415	28.294	-143.805	1.351	0.00031507	0.00025362	0.00017187	1160.3	6.4246e-06	3.6426e-06	1217.9	236.13	2.594e-06	2.3147e-06	293.44	84.332	66.028	19.247	5.2841e-06	26.858	0.00017908	0.000157	4.4207e-05	1142.9	1.8268e-06	1.655e-06	1198.6	233.85	1.7454e-06	1.6783e-06	291.3	83.905	66.132	19.376	1.7267e-06	27.075	-48.260	-71.583	-79.534	-156.161	-44.656	-19.921	-156.242	-148.868	-12.931	-56.583	-149.309	-142.981	-142.319	-135.148	-3.375	-135.966	-8191	255	
39426.398	1	1	0	0	0.16415	0.25443	0.23287	0.1974	0.14815	0.1019	0.14789	0.1726	0.1551	0.1283	0.088026	0.071279	0.16942	0.28983	0.053648	0.22307	-4.3042	-4.2229	-4.7792	-4.5208	-4.4979	-5.0062	-4.5292	-4.7271	-4.8271	-4.1188	-4.7958	-4.5604	-4.3271	-4.9104	-4.3521	-4.6604	40.233	18.396	-23.880	149.346	166.241	-106.313	116.432	-147.793	128.045	145.070	26.473	106.216	67.051	-69.325	-121.037	20.024	0.00031928	0.00042169	7.6231e-05	1162.1	4.6749e-06	4.0839e-06	1218.9	236.02	1.6263e-06	3.2127e-06	292.63	84.784	66.889	19.084	2.3237e-06	26.84	0.0001805	0.00015919	4.2081e-05	1145	1.8452e-06	1.6669e-06	1202.2	233.88	1.7948e-06	1.8045e-06	291.51	84.168	66.334	19.394	1.8055e-06	27.121	-47.608	-99.270	-102.727	-156.109	-41.148	-37.610	-156.121	-149.090	13.102	-9.881	-149.107	-142.790	-142.560	-135.522	-9.133	-135.840	-8191	255	
39426.473	1	1	0	0	0.13576	0.0051254	0.13965	0.19152	0.14388	0.15051	0.12071	0.15565	0.13463	0.13013	0.15987	0.092403	0.18414	0.1318	0.29046	0.28524	-4.4083	-4.2438	-4.7625	-4.6396	-4.3917	-4.7542	-4.4333	-4.4646	-4.8229	-4.2	-4.8583	-4.8604	-4.2396	-4.7604	-4.2604	-4.4625	-110.735	31.072	-127.782	175.812	43.492	-105.397	116.974	115.469	-130.917	88.470	-13.380	129.346	-158.423	-56.719	-95.625	117.243	0.00034141	0.00021494	0.00010094	1160.1	8.1611e-06	1.6456e-06	1217.4	235.49	2.1127e-06	3.6073e-06	293.2	84.343	66.672	19.311	1.779e-06	26.496	0.00018761	0.0001646	4.3432e-05	1144.2	1.9382e-06	1.684e-06	1200.7	233.74	1.7674e-06	1.7586e-06	291.51	84.014	66.156	19.413	1.7115e-06	26.99	-48.545	-58.500	-56.038	-156.439	-45.928	-4.745	-156.073	-149.089	-9.384	-37.893	-149.199	-142.878	-142.126	-135.749	17.073	-135.928	-8191	255	
39426.566	1	1	0	0	0.25975	0.18661	0.042415	0.048224	0.12862	0.18756	0.20286	0.097604	0.039731	0.023571	0.1563	0.14834	0.37598	0.099557	0.095863	0.17271	-4.4771	-4.075	-4.4958	-4.8	-4.0833	-4.7979	-4.5437	-4.4396	-4.775	-4.1937	-4.5833	-4.7333	-4.1125	-4.7583	-4.5	-4.3917	36.181	178.157	123.693	47.391	190.861	9.958	101.922	-122.646	95.493	153.903	157.564	-0.407	67.463	156.539	-132.720	114.383	0.00034162	0.00049143	0.00011838	1160.2	4.279e-06	2.7311e-06	1217.4	236.54	4.4042e-06	1.936e-06	293.23	83.666	66.668	19.177	3.7871e-06	26.604	0.00018439	0.00016089	4.1949e-05	1143	1.9264e-06	1.7184e-06	1200.3	233.86	1.7561e-06	1.7305e-06	291.8	83.761	66.182	19.417	1.771e-06	27.06	-48.545	-96.956	-77.852	-156.155	-28.483	-38.565	-156.168	-148.896	-21.250	-9.087	-149.224	-142.768	-142.301	-135.646	-25.511	-135.859	-8191	255	
39426.688	1	1	0	0	0.29097	0.059229	0.21674	0.093971	0.10924	0.052996	0.15787	0.084767	0.18616	0.048728	0.23363	0.24447	0.20057	0.15369	0.23395	0.16807	-4.6083	-4.3042	-4.5208	-4.8854	-4.2521	-4.7729	-4.8063	-4.3229	-4.8104	-4.3854	-4.5687	-4.7375	-4.0875	-4.8208	-4.4625	-4.3292	63.778	170.383	37.239	185.085	176.273	-133.391	160.299	142.677	108.009	-54.005	112.553	-157.863	-115.496	-75.212	-40.874	126.218	0.00032849	0.00029471	0.0001227	1159.8	5.6362e-06	4.9895e-06	1217.4	234.6	2.9854e-06	4.1336e-06	293.41	83.749	66.207	19.116	1.4458e-06	26.774	0.00018701	0.00016571	4.5153e-05	1143.9	1.9459e-06	1.704e-06	1200.8	233.64	1.8576e-06	1.7421e-06	291.62	83.788	66.119	19.33	1.782e-06	27.085	-46.181	-116.916	-103.743	-156.331	-9.131	16.201	-156.132	-149.277	6.107	-4.600	-149.360	-142.818	-142.200	-135.289	-45.567	-135.935	-8191	255	
39426.785	1	1	0	0	0.036115	0.16337	0.059402	0.13	0.23224	0.12872	0.30071	0.33523	0.045329	0.20079	0.030579	0.16269	0.091573	0.12599	0.11857	0.27544	-4.4104	-4.3396	-4.2958	-4.9771	-4.2479	-4.875	-4.6958	-4.2542	-4.7271	-4.3146	-4.5792	-4.8479	-4.3229	-4.8396	-4.8292	-4.2667	-34.802	-40.463	-48.674	140.861	-94.272	168.109	101.527	134.023	-149.489	51.259	58.047	185.408	-129.316	-162.318	150.725	181.527	0.00032116	0.00043997	0.00011582	1160.1	5.3283e-06	3.2809e-06	1218.5	236.29	3.4562e-06	2.2799e-06	294.42	83.978	66.338	19.194	2.5026e-06	26.777	0.00018375	0.00015787	4.3821e-05	1144.4	1.9471e-06	1.7362e-06	1201.1	234.09	1.7832e-06	1.7954e-06	291.62	83.872	66.076	19.424	1.749e-06	27.067	-50.547	-62.401	-67.967	-156.196	-9.984	5.123	-156.119	-148.919	-15.682	-18.469	-149.475	-142.740	-142.384	-135.653	14.437	-135.887	-8191	255	
#DATA ENDS
