BOXY.EXE: ISS Imagent and Oximeter Data Acquisition Program Version 0.80
Ascii Record File

#ACQ INFORMATION
2  Detector Channels 
16  External MUX Channels 
1  Auxiliary Channels 
5000  Waveform (CCF) Frequency (Hz)
1  Waveforms Skipped 
30  Waveforms Averaged 
1  Cycles Averaged 
16  Acquisitions per Waveform 
10.0806  Updata Rate (Hz) 

#FILE INFORMATION
TRUE -- External MUX Channel results are PARSED.
FALSE -- AC DC and Phase are NOT grouped.
TRUE -- Companion Program Settings File CREATED.
FALSE -- AC data not excluded
FALSE -- DC data not excluded
FALSE -- Phase data not excluded
FALSE -- Auxillary Chn. data not excluded
Tab delimiters

#CALIBRATION STATE
TRUE -- Waveform Calibration Values APPLIED.


#AUX CALIBRATION VALUES
Val Type	aux-1	

Term	1.0000e+00	
Factor	0.0000e+00	


#WF CALIBRATION VALUES
A = Detector Channel
Val Type	A-AC1	A-AC2	A-AC3	A-AC4	A-AC5	A-AC6	A-AC7	A-AC8	A-AC9	A-AC10	A-AC11	A-AC12	A-AC13	A-AC14	A-AC15	A-AC16	A-DC1	A-DC2	A-DC3	A-DC4	A-DC5	A-DC6	A-DC7	A-DC8	A-DC9	A-DC10	A-DC11	A-DC12	A-DC13	A-DC14	A-DC15	A-DC16	A-Ph1	A-Ph2	A-Ph3	A-Ph4	A-Ph5	A-Ph6	A-Ph7	A-Ph8	A-Ph9	A-Ph10	A-Ph11	A-Ph12	A-Ph13	A-Ph14	A-Ph15	A-Ph16	

Term	0.00000e+00	0.00000e+00	0.00000e+00	0.00000e+00	0.00000e+00	0.00000e+00	0.00000e+00	0.00000e+00	0.00000e+00	0.00000e+00	0.00000e+00	0.00000e+00	0.00000e+00	0.00000e+00	0.00000e+00	0.00000e+00	0.00000e+00	0.00000e+00	0.00000e+00	0.00000e+00	0.00000e+00	0.00000e+00	0.00000e+00	0.00000e+00	0.00000e+00	0.00000e+00	0.00000e+00	0.00000e+00	0.00000e+00	0.00000e+00	0.00000e+00	0.00000e+00	0.00000e+00	0.00000e+00	0.00000e+00	0.00000e+00	0.00000e+00	0.00000e+00	0.00000e+00	0.00000e+00	0.00000e+00	0.00000e+00	0.00000e+00	0.00000e+00	0.00000e+00	0.00000e+00	0.00000e+00	0.00000e+00	
Factor	1.00000e+00	1.00000e+00	1.00000e+00	1.00000e+00	1.00000e+00	1.00000e+00	1.00000e+00	1.00000e+00	1.00000e+00	1.00000e+00	1.00000e+00	1.00000e+00	1.00000e+00	1.00000e+00	1.00000e+00	1.00000e+00	1.00000e+00	1.00000e+00	1.00000e+00	1.00000e+00	1.00000e+00	1.00000e+00	1.00000e+00	1.00000e+00	1.00000e+00	1.00000e+00	1.00000e+00	1.00000e+00	1.00000e+00	1.00000e+00	1.00000e+00	1.00000e+00	X	X	X	X	X	X	X	X	X	X	X	X	X	X	X	X	

B = Detector Channel
Val Type	B-AC1	B-AC2	B-AC3	B-AC4	B-AC5	B-AC6	B-AC7	B-AC8	B-AC9	B-AC10	B-AC11	B-AC12	B-AC13	B-AC14	B-AC15	B-AC16	B-DC1	B-DC2	B-DC3	B-DC4	B-DC5	B-DC6	B-DC7	B-DC8	B-DC9	B-DC10	B-DC11	B-DC12	B-DC13	B-DC14	B-DC15	B-DC16	B-Ph1	B-Ph2	B-Ph3	B-Ph4	B-Ph5	B-Ph6	B-Ph7	B-Ph8	B-Ph9	B-Ph10	B-Ph11	B-Ph12	B-Ph13	B-Ph14	B-Ph15	B-Ph16	

Term	0.00000e+00	0.00000e+00	0.00000e+00	0.00000e+00	0.00000e+00	0.00000e+00	0.00000e+00	0.00000e+00	0.00000e+00	0.00000e+00	0.00000e+00	0.00000e+00	0.00000e+00	0.00000e+00	0.00000e+00	0.00000e+00	0.00000e+00	0.00000e+00	0.00000e+00	0.00000e+00	0.00000e+00	0.00000e+00	0.00000e+00	0.00000e+00	0.00000e+00	0.00000e+00	0.00000e+00	0.00000e+00	0.00000e+00	0.00000e+00	0.00000e+00	0.00000e+00	-2.21930e+01	-1.30555e+02	-1.19593e+02	-1.81765e+02	-6.15087e+01	-6.84839e+01	-1.57216e+02	-1.62015e+02	-2.86346e+01	-6.79659e+01	-1.71050e+02	-1.71975e+02	-1.82255e+02	-1.76979e+02	-5.58940e+01	-1.49379e+02	
Factor	2.76929e-05	1.60331e-04	5.43878e-05	1.45372e-01	2.66852e-06	1.64523e-06	1.64428e-01	5.20594e-02	1.55519e-06	1.78831e-06	8.49940e-02	3.51328e-02	3.64614e-02	9.18147e-03	1.78014e-06	1.30177e-02	5.70160e-06	6.72933e-06	1.86889e-06	7.47343e-02	7.13936e-08	7.39673e-08	7.93960e-02	2.67438e-02	7.14214e-08	7.41394e-08	4.25018e-02	1.75270e-02	1.88403e-02	4.76276e-03	7.22786e-08	6.54405e-03	X	X	X	X	X	X	X	X	X	X	X	X	X	X	X	X	



#DISTANCE SETTINGS
A = Detector Channel
A-1	A-2	A-3	A-4	A-5	A-6	A-7	A-8	A-9	A-10	A-11	A-12	A-13	A-14	A-15	A-16	

2.5000e+00	3.0000e+00	2.5000e+00	3.0000e+00	2.0000e+00	3.0000e+00	1.5000e+00	3.0000e+00	3.0000e+00	3.0000e+00	3.0000e+00	3.0000e+00	3.0000e+00	3.0000e+00	1.5000e+00	3.0000e+00	

B = Detector Channel
B-1	B-2	B-3	B-4	B-5	B-6	B-7	B-8	B-9	B-10	B-11	B-12	B-13	B-14	B-15	B-16	

1.0000e+01	1.0000e+01	1.0000e+01	1.4400e+00	1.0000e+01	1.0000e+01	1.5100e+00	1.9400e+00	1.0000e+01	1.0000e+01	1.9900e+00	2.4900e+00	2.4100e+00	2.9000e+00	1.0000e+01	2.9800e+00	




#DATA BEGINS
time	group	step	mark	flag	A-AC1	A-AC2	A-AC3	A-AC4	A-AC5	A-AC6	A-AC7	A-AC8	A-AC9	A-AC10	A-AC11	A-AC12	A-AC13	A-AC14	A-AC15	A-AC16	A-DC1	A-DC2	A-DC3	A-DC4	A-DC5	A-DC6	A-DC7	A-DC8	A-DC9	A-DC10	A-DC11	A-DC12	A-DC13	A-DC14	A-DC15	A-DC16	A-Ph1	A-Ph2	A-Ph3	A-Ph4	A-Ph5	A-Ph6	A-Ph7	A-Ph8	A-Ph9	A-Ph10	A-Ph11	A-Ph12	A-Ph13	A-Ph14	A-Ph15	A-Ph16	B-AC1	B-AC2	B-AC3	B-AC4	B-AC5	B-AC6	B-AC7	B-AC8	B-AC9	B-AC10	B-AC11	B-AC12	B-AC13	B-AC14	B-AC15	B-AC16	B-DC1	B-DC2	B-DC3	B-DC4	B-DC5	B-DC6	B-DC7	B-DC8	B-DC9	B-DC10	B-DC11	B-DC12	B-DC13	B-DC14	B-DC15	B-DC16	B-Ph1	B-Ph2	B-Ph3	B-Ph4	B-Ph5	B-Ph6	B-Ph7	B-Ph8	B-Ph9	B-Ph10	B-Ph11	B-Ph12	B-Ph13	B-Ph14	B-Ph15	B-Ph16	aux-1	digaux	

39396.316	1	1	0	768	0.14244	0.20877	0.084622	0.29727	0.15125	0.23384	0.23408	0.044886	0.22722	0.10843	0.24182	0.14312	0.14197	0.14577	0.013804	0.11246	-4.2271	-4.3	-4.7354	-4.7562	-4.625	-4.6937	-4.5	-4.9146	-4.7146	-4.3396	-5.0083	-4.5813	-4.5417	-4.9917	-4.3812	-4.7833	150.868	29.638	-24.421	166.463	177.747	166.025	131.424	-29.632	74.466	28.151	117.757	-147.071	116.649	-15.455	95.475	186.930	0.00065379	0.00062626	0.0002084	1355.1	6.699e-06	4.0378e-06	1355.6	367.84	4.2655e-06	2.5353e-06	420.57	140.44	121.86	41.717	4.5672e-06	51.541	0.00056656	0.00054715	0.00015159	1378.5	6.1535e-06	6.0502e-06	1378.3	374.94	6.0869e-06	6.2223e-06	427.71	143.14	124.61	42.953	6.0369e-06	53.247	-53.851	-67.719	-54.859	-158.208	-38.557	19.742	-158.310	-153.609	-19.361	-6.257	-154.010	-149.940	-149.391	-144.675	-45.569	-145.456	-8191	255	
39396.414	1	1	0	0	0.27459	0.191	0.13215	0.17026	0.059606	0.16852	0.20418	0.13833	0.12824	0.064728	0.2231	0.19329	0.26294	0.04921	0.23342	0.072303	-4.3521	-4.2937	-4.6875	-4.6292	-4.3562	-4.85	-4.575	-4.775	-4.7583	-4.45	-4.8625	-4.7896	-4.4458	-4.8396	-4.4	-4.6438	18.700	-32.046	162.844	77.275	-164.845	-155.945	111.548	-147.664	143.639	-22.378	151.549	-84.741	-140.783	172.233	-51.840	-161.078	0.00070243	0.0006072	0.00013274	1355.8	7.1693e-06	4.0311e-06	1360.9	368.42	3.943e-06	6.5866e-06	418.79	140.18	121.34	41.447	5.4677e-06	51.544	0.00058313	0.00055677	0.00015381	1379.1	6.1528e-06	6.1254e-06	1378.5	374.8	6.103e-06	6.0969e-06	427.84	143.29	124.71	42.878	6.0432e-06	53.143	-50.148	-83.860	-49.162	-158.151	-37.147	-38.354	-158.422	-153.555	-30.935	-34.824	-154.102	-149.866	-149.461	-144.720	4.930	-145.405	-8191	255	
39396.512	1	1	0	0	0.10443	0.28454	0.15278	0.1064	0.18152	0.10613	0.13541	0.32145	0.18904	0.20283	0.11937	0.21348	0.13006	0.10956	0.06898	0.063719	-4.5417	-4.3	-4.9375	-5	-4.3542	-5.0396	-4.6125	-4.7604	-4.6062	-4.375	-4.7083	-4.7083	-4.4542	-5.0167	-4.5958	-4.6042	51.329	64.460	-158.203	20.167	-38.962	-114.722	77.097	142.685	-81.484	173.780	114.964	123.527	102.765	17.691	-51.191	-119.186	0.00068162	0.00051281	0.00020549	1354.4	1.0175e-05	5.1023e-06	1354.5	366.79	6.9599e-06	8.4037e-06	418.11	140.21	122.43	41.701	5.2489e-06	51.556	0.00058206	0.0005544	0.00015305	1379.1	6.1183e-06	6.0568e-06	1375.6	374.29	6.011e-06	6.0468e-06	427.45	143.2	124.79	42.896	6.0856e-06	53.173	-54.170	-68.195	-89.489	-158.234	-50.052	-33.326	-158.475	-153.631	14.986	-7.005	-154.024	-149.806	-149.389	-144.787	-4.907	-145.325	-8191	255	
39396.605	1	1	0	0	0.079209	0.28904	0.14045	0.11251	0.1963	0.26763	0.36303	0.33303	0.14635	0.18584	0.097842	0.099564	0.19309	0.15722	0.056495	0.15769	-4.5437	-4.225	-4.7208	-4.8917	-4.2937	-4.8354	-4.6	-4.6188	-4.8667	-4.4875	-4.8979	-4.8271	-4.4437	-4.9688	-4.4958	-4.4688	-64.573	-115.782	84.050	100.688	59.185	103.108	131.715	117.275	88.379	-74.260	165.032	120.636	-79.929	116.443	41.880	122.014	0.00068782	0.00060334	9.3823e-05	1357	6.0176e-06	5.892e-06	1353.1	367.31	4.6706e-06	6.1257e-06	418.38	140.14	121.72	41.774	2.5973e-06	51.42	0.00056959	0.00054505	0.00015286	1378.5	6.2102e-06	6.03e-06	1377.5	374.85	6.0674e-06	6.0039e-06	427.13	143.36	124.52	42.947	6.1107e-06	53.047	-52.523	-98.207	-73.966	-158.329	-23.140	-39.781	-158.253	-153.802	-16.636	-43.590	-154.049	-149.722	-149.375	-144.560	-27.444	-145.467	-8191	255	
39396.699	1	1	0	0	0.25261	0.32725	0.052945	0.35247	0.13129	0.041002	0.3816	0.1022	0.11809	0.09423	0.037998	0.31086	0.10941	0.29261	0.026657	0.13432	-4.5896	-4.4104	-4.6542	-5.0271	-4.2625	-4.9167	-4.8708	-4.5604	-4.9958	-4.5354	-4.6958	-4.8417	-4.4938	-4.6875	-4.5687	-4.4917	127.660	176.934	125.586	148.106	-45.512	-33.738	130.639	127.312	99.655	120.569	119.860	149.458	49.693	106.505	59.745	-65.104	0.00069402	0.00052354	0.00012754	1352.6	6.6133e-06	3.1937e-06	1357.1	367.07	6.0373e-06	4.9905e-06	418.8	140.74	121.44	41.692	3.3413e-06	51.42	0.00056893	0.00055281	0.00015434	1378	6.0921e-06	5.9049e-06	1377.5	374.4	6.1143e-06	6.1309e-06	427.46	143.59	124.43	42.909	6.1587e-06	53.151	-55.407	-109.158	-51.520	-158.351	-37.323	-35.357	-158.310	-153.439	-28.118	2.507	-154.066	-149.870	-149.327	-144.509	-11.136	-145.345	-8191	255	
39396.797	1	1	0	0	0.17742	0.13811	0.2391	0.53566	0.1304	0.15772	0.26779	0.17484	0.2037	0.16245	0.27893	0.11482	0.13422	0.14716	0.1512	0.13261	-4.5833	-4.3146	-4.5917	-4.9625	-4.2833	-4.7958	-4.8812	-4.5771	-5.0021	-4.4958	-4.725	-5.0604	-4.3958	-4.8667	-4.6125	-4.3979	-52.870	-139.502	22.242	168.727	-138.126	27.114	123.345	155.436	115.422	59.671	173.742	-21.757	171.922	-50.279	-36.284	-157.893	0.00071261	0.00038197	0.00018842	1359.4	9.8166e-06	5.6252e-06	1353.9	367.9	5.4837e-06	4.743e-07	419.07	140.08	121.95	41.844	3.9953e-06	51.373	0.00057869	0.0005612	0.00015581	1380.1	6.205e-06	6.13e-06	1377.1	374.85	6.1027e-06	6.1957e-06	427.79	143.22	124.58	42.994	6.0544e-06	53.08	-52.396	-98.267	-110.420	-158.182	-38.177	-55.956	-158.467	-153.720	4.619	-23.773	-154.126	-149.628	-149.142	-144.685	-18.007	-145.635	-8191	255	
39396.918	1	1	0	0	0.16949	0.16749	0.06898	0.10484	0.10039	0.21456	0.18751	0.29959	0.29605	0.033028	0.258	0.16721	0.022144	0.089616	0.062855	0.12305	-4.5729	-4.4313	-4.1917	-5.0833	-4.3438	-4.725	-5.1292	-4.4208	-4.9104	-4.55	-4.5938	-5.1292	-4.4917	-4.6687	-4.7208	-4.3771	22.452	72.059	-42.320	169.743	85.237	-44.606	-157.854	141.287	-162.509	183.644	137.626	5.343	-83.361	163.508	138.898	68.617	0.00072903	0.00047465	0.00013983	1357.5	7.1316e-06	1.9923e-06	1355.4	366.6	3.2473e-06	3.5874e-06	418.87	140.67	122.36	41.607	7.5727e-06	51.531	0.00056985	0.00056675	0.0001545	1379.1	6.1195e-06	6.0265e-06	1379.1	374.1	6.0253e-06	6.1295e-06	427.62	143.38	124.79	42.944	6.173e-06	53.156	-50.689	-103.674	-88.300	-158.259	-55.141	91.507	-158.516	-153.496	-23.188	-39.474	-154.236	-149.886	-149.414	-144.357	4.678	-145.355	-8191	255	
39397.012	1	1	0	0	0.15026	0.2853	0.21433	0.11701	0.021536	0.2572	0.05111	0.12406	0.15154	0.32102	0.31992	0.092925	0.051938	0.25581	0.23274	0.26529	-4.3396	-4.5208	-4.4667	-5.0167	-4.425	-4.5646	-5.05	-4.4917	-4.8292	-4.6542	-4.4583	-4.9375	-4.4187	-4.7333	-4.9979	-4.4437	84.628	178.454	113.208	171.003	-67.593	80.189	29.112	71.778	-86.600	-24.972	182.599	99.834	-5.323	109.676	137.068	104.627	0.00070521	0.00048082	0.00020476	1357.7	1.0113e-05	4.2447e-06	1358.1	366.13	3.1303e-06	5.1327e-06	417.95	139.86	122.62	41.56	4.4121e-06	51.394	0.00057628	0.00056721	0.00015509	1379.4	6.2144e-06	6.0078e-06	1378.5	374.4	6.1092e-06	6.0711e-06	427.8	143.41	124.84	42.946	6.1158e-06	53.149	-50.323	-91.366	-80.513	-158.221	-18.809	-8.937	-158.477	-153.597	-51.433	-17.093	-153.873	-149.633	-149.472	-144.784	-21.567	-145.381	-8191	255	
39397.109	1	1	0	0	0.22694	0.12371	0.15649	0.098729	0.093613	0.13684	0.12763	0.19222	0.1716	0.22015	0.13501	0.030859	0.20113	0.019747	0.061045	0.049629	-4.6375	-4.5687	-4.3729	-5.2	-4.425	-4.5042	-5.0021	-4.4521	-4.725	-4.7625	-4.4125	-4.875	-4.5125	-4.5687	-5.0604	-4.325	11.073	-148.080	100.212	-104.241	-87.168	4.308	88.264	123.695	49.138	124.143	-154.228	147.700	71.308	121.003	135.063	-117.748	0.00069214	0.00053166	0.0001613	1355.7	6.2041e-06	4.9278e-06	1357.3	367.97	5.1077e-06	3.6412e-06	419.1	140.75	122.13	41.477	8.8777e-06	51.724	0.0005703	0.00055949	0.00015417	1378.8	6.1427e-06	6.0952e-06	1378.2	374.49	6.1211e-06	6.1801e-06	427.56	143.39	124.73	42.947	6.0812e-06	53.198	-49.902	-80.847	-89.223	-158.170	-46.753	-40.852	-158.498	-153.715	-18.003	-16.270	-154.201	-150.002	-149.455	-144.576	-24.009	-145.588	-8191	255	
39397.207	1	1	0	0	0.18257	0.090072	0.056408	0.18429	0.1773	0.16431	0.21832	0.21868	0.18054	0.24363	0.096919	0.27072	0.083108	0.081316	0.19699	0.14965	-4.3562	-4.7	-4.4187	-4.925	-4.4625	-4.3292	-5.1417	-4.5729	-4.6417	-4.7417	-4.6	-4.8792	-4.6062	-4.5	-5.0729	-4.5104	169.538	-136.539	-167.677	163.369	171.275	-56.158	161.679	-158.300	-57.605	109.451	105.764	-139.724	85.557	23.539	-86.816	151.794	0.00059779	0.00036264	0.00015839	1356.8	7.5226e-06	5.9879e-06	1356.8	367.11	7.6507e-06	4.3555e-06	418.81	140.16	122.43	41.804	7.4749e-06	51.294	0.00057154	0.00054934	0.00015344	1380	6.1088e-06	6.1177e-06	1379	374.37	6.0592e-06	6.0329e-06	427.07	143.23	124.88	43.011	6.0341e-06	53.024	-50.396	-49.246	-42.410	-158.158	-59.514	18.694	-158.397	-153.471	-29.338	-69.991	-154.108	-149.661	-149.450	-144.667	-6.562	-145.291	-8191	255	
39397.301	1	1	0	0	0.0536	0.1809	0.16118	0.25602	0.19307	0.12496	0.14164	0.14673	0.046216	0.092486	0.20276	0.10864	0.15462	0.18364	0.16072	0.22296	-4.2625	-4.7104	-4.5167	-4.9604	-4.6687	-4.2479	-5.0375	-4.6188	-4.6896	-4.9333	-4.4167	-4.9208	-4.8438	-4.3667	-4.8938	-4.6125	165.523	-0.431	-11.089	136.375	-96.241	186.732	66.599	129.076	82.710	41.683	184.176	-156.746	188.115	134.661	-167.925	-134.241	0.00069237	0.00030833	0.00012849	1356.6	1.0303e-05	4.2878e-06	1354.6	366.84	4.3433e-06	9.8649e-07	418.7	140.24	121.48	41.622	6.0226e-06	51.645	0.00057616	0.00055011	0.00015449	1380.6	6.0847e-06	6.0932e-06	1377.6	374.44	6.1326e-06	6.068e-06	427.4	143.24	124.45	42.909	6.072e-06	53.165	-47.220	-76.132	-36.285	-158.203	-62.654	-18.003	-158.518	-153.511	-23.258	44.486	-154.150	-149.589	-149.449	-144.678	-22.018	-145.447	-8191	255	
39397.398	1	1	0	0	0.044392	0.21331	0.080896	0.22233	0.11382	0.16191	0.22902	0.35371	0.11112	0.12674	0.22104	0.14691	0.24225	0.052025	0.094161	0.087904	-4.275	-4.8583	-4.2458	-4.8625	-4.6792	-4.3167	-5.2083	-4.6854	-4.3396	-4.8708	-4.3417	-4.7875	-4.8063	-4.3479	-4.8396	-4.4875	31.003	36.067	-19.475	116.800	-128.996	1.916	163.503	133.985	78.772	158.103	-61.356	-90.723	114.474	-13.224	-108.680	39.218	0.00070524	0.00046597	0.00019958	1356.4	5.637e-06	9.0496e-07	1355.7	367.27	5.5922e-06	5.7937e-06	418.88	140.58	121.52	41.655	5.891e-06	51.724	0.00058418	0.00054646	0.00015657	1378.9	6.1779e-06	6.214e-06	1377.3	374.33	6.2657e-06	6.0209e-06	427.54	143.59	124.42	42.929	6.2556e-06	53.228	-54.730	-95.556	-44.080	-158.284	-42.733	16.352	-158.365	-153.555	-14.508	-43.368	-153.932	-149.808	-149.370	-144.696	-37.358	-145.646	-8191	255	
39397.520	1	1	0	0	0.09688	0.095909	0.1006	0.041937	0.016816	0.054562	0.24182	0.046024	0.11602	0.036258	0.31277	0.2568	0.2536	0.15191	0.087708	0.079714	-4.2146	-4.9479	-4.4646	-4.8208	-4.6417	-4.4729	-5.0938	-4.6687	-4.1833	-5.0458	-4.5333	-4.7875	-4.8313	-4.2167	-4.8208	-4.5979	118.710	-142.084	13.694	-117.184	73.975	-97.258	116.905	-42.895	-24.090	78.555	-55.143	145.183	164.494	-112.609	81.704	169.304	0.00074078	0.00068001	0.00022852	1360.8	5.6159e-06	4.5812e-06	1357.9	366.88	4.3862e-06	3.041e-06	418.67	140.69	121.21	41.726	6.0879e-06	51.39	0.00058812	0.00056214	0.00015667	1381	6.092e-06	6.1909e-06	1378.4	374.38	6.1169e-06	6.1326e-06	428.09	143.47	124.52	42.915	6.1542e-06	53.165	-49.590	-77.188	-106.432	-158.166	13.237	-3.798	-158.501	-153.740	-33.828	-63.509	-153.915	-149.649	-149.013	-144.472	-41.448	-145.567	-8191	255	
39397.613	1	1	0	0	0.038322	0.2409	0.12579	0.11133	0.059112	0.05957	0.20395	0.10084	0.086356	0.18543	0.14108	0.068806	0.13582	0.14171	0.21985	0.11751	-4.1188	-4.9583	-4.3521	-4.8208	-4.7229	-4.2521	-5.1125	-4.8292	-4.3083	-4.8604	-4.6625	-4.6417	-5.025	-4.4542	-4.9688	-4.875	-105.370	133.578	-54.745	-2.472	136.392	84.678	62.409	52.461	182.677	-51.026	170.617	-140.415	149.221	-73.464	85.358	133.371	0.00066095	0.00036743	0.00018748	1356.3	7.9184e-06	4.9568e-06	1356.4	367.1	7.385e-06	3.2036e-06	417.6	140.38	122.5	41.852	5.6992e-06	51.585	0.00058481	0.00055724	0.00016109	1380.9	6.0643e-06	6.268e-06	1378.9	375.01	6.2349e-06	6.2964e-06	427.14	143.35	125.12	43.004	6.2098e-06	53.196	-57.355	-70.421	-88.941	-157.958	-47.024	-21.192	-158.502	-153.648	-13.610	-61.640	-153.931	-149.763	-149.370	-144.713	-51.595	-145.678	-8191	255	
39397.711	1	1	0	0	0.050584	0.046889	0.20253	0.3364	0.22788	0.14925	0.39182	0.31704	0.028352	0.17885	0.21888	0.083123	0.12939	0.25727	0.05008	0.12292	-4.0833	-4.8125	-4.3833	-4.7083	-5.0354	-4.3042	-4.825	-4.7604	-4.325	-4.7937	-4.7771	-4.5521	-5.0188	-4.5125	-4.7063	-4.9187	39.766	147.813	-35.078	142.618	95.362	-78.756	89.550	107.702	97.904	-104.226	139.708	-52.030	104.067	89.036	-120.306	-165.656	0.00074471	0.00039851	0.00010373	1355.4	4.5132e-06	3.781e-06	1358.3	366.74	6.2824e-06	6.4911e-06	418.99	140.64	122.16	41.954	6.6717e-06	51.487	0.00058174	0.00057194	0.00015905	1381.6	6.1828e-06	6.3167e-06	1379.5	374.41	6.3134e-06	6.406e-06	427.82	143.51	124.71	43.086	6.3543e-06	53.217	-52.714	-136.875	-138.184	-158.235	-36.952	-17.589	-158.397	-153.550	2.607	8.910	-154.081	-149.757	-149.182	-144.843	-29.719	-145.380	-8191	255	
39397.805	1	1	0	0	0.15208	0.098997	0.058185	0.11099	0.11002	0.20433	0.30894	0.11486	0.080079	0.10879	0.28984	0.23137	0.067259	0.13164	0.1474	0.060805	-3.9354	-4.8438	-4.7104	-4.5896	-4.8146	-4.4437	-4.7354	-5.0312	-4.3438	-4.8771	-4.6438	-4.3021	-4.8458	-4.5833	-4.5854	-4.9563	-84.036	-5.619	38.849	132.351	-116.473	116.825	159.016	175.437	9.663	-27.209	-141.126	-146.732	82.996	-50.943	80.581	116.594	0.00065854	0.00015055	0.00017605	1364	7.9506e-06	6.489e-06	1360.4	366.17	3.483e-06	5.5692e-06	417.98	140.54	122.22	41.638	8.6102e-06	51.461	0.00058951	0.00058611	0.00016311	1386.2	6.188e-06	6.3382e-06	1382.8	374.82	6.3571e-06	6.471e-06	428.18	143.62	124.75	42.967	6.336e-06	53.196	-54.979	-131.312	-69.978	-158.163	-43.154	-16.245	-158.393	-153.725	-27.309	-14.083	-154.055	-149.763	-149.279	-144.711	-12.311	-145.578	-8191	255	
39397.879	1	1	0	0	0.10512	0.17103	0.14529	0.23565	0.13828	0.10235	0.35898	0.19153	0.15372	0.14519	0.042952	0.21106	0.077776	0.096957	0.22729	0.063597	-3.8896	-4.6562	-4.5833	-4.5188	-4.9333	-4.4396	-4.7125	-5.0271	-4.3208	-4.8812	-4.8354	-4.4458	-5.0875	-4.5687	-4.5396	-5.0417	140.303	-74.436	144.611	136.021	80.901	-56.106	119.823	124.966	144.733	-79.145	92.152	146.326	-54.600	144.841	62.168	-146.121	0.00070988	0.00051058	0.00021391	1361.7	3.3356e-06	3.2569e-06	1358.6	367.48	5.583e-06	2.1943e-06	419.35	140.54	122.07	41.738	4.7003e-06	51.407	0.00059572	0.00057687	0.00016221	1384.8	6.2643e-06	6.3282e-06	1383.5	374.86	6.3927e-06	6.4551e-06	428.34	143.85	124.96	43.007	6.2233e-06	53.155	-55.454	-108.591	-105.416	-158.256	-81.668	-23.348	-158.320	-153.616	-1.842	-83.767	-154.052	-149.749	-149.144	-144.675	0.579	-145.280	-8191	255	
39397.996	1	1	0	0	0.16901	0.090944	0.15865	0.25356	0.18614	0.05223	0.053182	0.18556	0.048852	0.13282	0.21196	0.24079	0.035679	0.20762	0.16936	0.05851	-3.9958	-4.7688	-4.7167	-4.5563	-4.7292	-4.625	-4.6479	-5.0292	-4.2375	-4.5896	-4.8646	-4.2854	-4.7875	-4.5979	-4.4	-4.8917	-79.951	-44.110	58.312	122.411	145.476	71.528	-1.141	168.915	64.143	-4.894	96.724	162.570	39.455	-134.147	171.376	-122.171	0.00073643	0.00038558	0.00010721	1362.3	5.8947e-06	4.9628e-06	1364.5	367.71	3.7667e-06	5.8489e-06	419.35	140.95	122.18	41.786	2.7962e-06	51.737	0.0005948	0.00057951	0.00015536	1384.1	6.2023e-06	6.2154e-06	1383.4	375.19	6.2425e-06	6.352e-06	427.61	143.65	124.9	43.046	6.2861e-06	53.305	-52.530	-38.367	-130.658	-158.307	-20.662	8.527	-158.416	-153.751	-23.598	-11.210	-154.270	-149.619	-149.356	-144.594	-38.052	-145.290	-8191	255	
39398.094	1	1	0	0	0.10139	0.22035	0.12619	0.24068	0.27212	0.056757	0.33459	0.21028	0.12037	0.12124	0.3877	0.12498	0.12707	0.24489	0.044779	0.27248	-4.0938	-4.5458	-4.7729	-4.3271	-4.775	-4.625	-4.5729	-4.85	-4.2792	-4.5042	-4.95	-4.4417	-4.9979	-4.7646	-4.2438	-5.0396	-100.570	-57.989	-115.292	85.979	-110.294	-68.148	147.985	141.708	136.004	-83.717	-152.805	-130.935	113.228	48.384	-88.545	122.024	0.00067403	0.00035092	0.00013888	1364.8	4.6902e-06	5.3612e-06	1361.1	368.03	4.8103e-06	1.9255e-07	419.21	140.7	122.53	41.708	2.2776e-06	51.429	0.00059323	0.00057321	0.00015745	1386.5	6.285e-06	6.2603e-06	1383.2	375.67	6.2299e-06	6.2163e-06	427.71	143.54	125.07	43.019	6.1008e-06	53.193	-50.673	-121.418	-80.503	-158.203	-23.295	-10.461	-158.371	-153.741	7.760	-51.132	-153.854	-149.717	-149.266	-144.671	-15.820	-145.230	-8191	255	
39398.191	1	1	0	0	0.24344	0.065626	0.12358	0.17738	0.14207	0.14208	0.23414	0.11783	0.26203	0.075013	0.13502	0.075634	0.1137	0.15295	0.13844	0.18647	-4.1667	-4.6354	-4.7896	-4.5604	-4.8063	-4.7667	-4.5729	-5.0958	-4.4958	-4.4292	-4.9354	-4.4771	-4.6583	-4.7937	-4.3479	-5.0792	140.969	69.092	-84.876	154.924	-60.017	139.487	86.848	18.973	-121.161	124.759	27.883	37.316	167.304	112.731	139.883	-88.485	0.00070165	0.00032838	0.00018774	1361.8	3.8256e-06	3.8244e-06	1362.5	366.88	8.0959e-06	4.3331e-06	417.91	140.61	121.77	41.669	7.8434e-06	51.437	0.00058153	0.00054659	0.00015158	1385.6	6.1461e-06	6.0017e-06	1383.2	374.73	6.0408e-06	6.0621e-06	428.11	143.65	124.75	43.028	6.1663e-06	53.178	-53.125	-115.904	-48.429	-158.132	63.111	-6.203	-158.305	-153.495	-18.546	-36.487	-154.265	-149.863	-149.303	-144.968	-8.446	-145.500	-8191	255	
39398.309	1	1	0	0	0.17348	0.043423	0.070077	0.23636	0.18417	0.27153	0.15456	0.14059	0.065184	0.19074	0.21307	0.16574	0.14066	0.21077	0.084886	0.14789	-4.1562	-4.4375	-4.9271	-4.5542	-4.725	-4.8583	-4.4062	-4.8938	-4.5437	-4.2958	-5.0854	-4.6083	-4.7625	-4.8625	-4.3438	-4.8771	50.500	-128.661	-62.202	165.399	-116.788	132.321	-155.455	43.688	-63.500	-60.352	70.156	141.445	99.809	156.031	60.711	45.436	0.00065513	0.00068025	0.00016375	1360	3.8599e-06	3.4186e-06	1362.1	367.8	2.9833e-06	5.6824e-06	420.1	140.52	122.08	41.551	5.1288e-06	51.518	0.00058313	0.00055609	0.00015575	1383.5	6.2221e-06	6.1083e-06	1384	375.45	6.0799e-06	6.1474e-06	428.35	143.7	124.87	42.996	6.1789e-06	53.184	-52.293	-91.507	-76.097	-158.088	-78.536	-70.063	-158.390	-153.665	-7.940	-1.034	-153.971	-149.712	-149.161	-144.723	-33.968	-145.532	-8191	255	
39398.406	1	1	0	0	0.11449	0.30864	0.18642	0.29969	0.15409	0.17938	0.17753	0.22477	0.12772	0.19346	0.13251	0.035304	0.04125	0.22806	0.10655	0.07083	-4.3583	-4.3583	-4.9229	-4.6854	-4.6312	-4.7917	-4.5062	-5.0021	-4.7979	-4.5062	-4.9938	-4.65	-4.7146	-5.1188	-4.2479	-4.7667	55.915	11.919	-16.160	127.629	155.594	113.007	130.451	121.802	88.353	36.153	177.103	126.647	162.643	-162.100	17.656	22.391	0.00070612	0.00054429	0.00013224	1361.7	1.1261e-05	5.9959e-06	1364	367.22	5.1979e-06	5.4142e-06	419	140.22	122.37	41.755	7.3685e-06	51.715	0.00058255	0.00056393	0.00015611	1384.4	6.1684e-06	6.0299e-06	1384.3	375.04	6.1556e-06	6.1287e-06	428.51	143.49	124.94	42.982	6.1925e-06	53.201	-54.118	-103.836	-93.709	-158.119	-58.391	-28.510	-158.377	-153.640	-12.660	-26.273	-154.059	-149.893	-149.337	-144.497	-7.603	-145.635	-8191	255	
39398.477	1	1	0	0	0.085325	0.10685	0.33411	0.30114	0.074923	0.11124	0.11137	0.15051	0.11041	0.13177	0.12898	0.19405	0.13425	0.1483	0.22732	0.2159	-4.4125	-4.3688	-4.7688	-4.6354	-4.4458	-4.8333	-4.6125	-4.8667	-4.6937	-4.2125	-4.8438	-4.5896	-4.7375	-4.9979	-4.3521	-4.7208	129.808	119.377	-105.581	168.311	120.484	-14.876	56.058	121.987	76.582	-83.183	72.468	159.133	175.553	80.233	-78.685	46.275	0.00071793	0.00023617	0.0001983	1361.4	1.2646e-05	2.9376e-06	1358	368.25	4.1126e-06	3.3557e-06	419.89	140.8	122.57	41.765	7.9812e-06	51.777	0.00059037	0.00056132	0.00015713	1383.5	6.1442e-06	6.1524e-06	1381.9	375.94	6.0681e-06	6.1627e-06	428.84	143.64	124.89	43.077	6.2184e-06	53.319	-54.334	-103.338	-90.443	-158.196	-21.056	-78.028	-158.483	-153.818	39.850	-31.462	-154.193	-149.546	-149.291	-144.548	-30.270	-145.552	-8191	255	
39398.598	1	1	0	0	0.040562	0.070746	0.28267	0.3227	0.12362	0.1625	0.14452	0.21687	0.093327	0.11595	0.13953	0.062446	0.077766	0.2135	0.071894	0.19412	-4.3313	-4.3542	-4.7937	-4.7792	-4.3583	-5.1083	-4.575	-4.8729	-4.8208	-4.3042	-4.9542	-4.7125	-4.45	-4.9917	-4.5	-4.5771	49.139	-154.966	-42.523	139.757	-125.915	-82.983	-150.317	89.153	-134.000	-33.626	146.629	-142.364	-78.654	5.754	35.902	102.230	0.00070623	0.00066325	0.00020042	1365.8	1.6044e-05	1.6105e-06	1362.3	367.58	7.1522e-06	4.5581e-06	419.68	140.63	121.98	41.731	5.822e-06	51.597	0.0005763	0.000567	0.00015733	1384.3	6.0958e-06	6.0684e-06	1380.8	375.23	6.0333e-06	6.1852e-06	428.63	143.63	124.76	43.032	6.064e-06	53.221	-55.865	-113.389	-68.488	-158.327	-31.567	-19.060	-158.395	-153.780	17.523	-17.641	-153.899	-149.712	-149.241	-144.546	-12.102	-145.337	-8191	255	
39398.691	1	1	0	0	0.15821	0.23593	0.10181	0.39492	0.22165	0.10176	0.22203	0.34959	0.1514	0.16381	0.17919	0.016226	0.18542	0.10989	0.04765	0.013888	-4.4938	-4.1771	-4.6333	-4.7083	-4.3187	-4.7812	-4.5521	-4.5917	-4.9042	-4.4042	-4.9458	-4.7188	-4.3021	-4.9271	-4.3729	-4.4833	40.812	45.042	128.529	141.983	36.439	-165.994	68.046	91.348	-18.315	107.344	187.435	-100.696	34.972	92.399	-91.960	-169.374	0.0006786	0.00024837	0.00015835	1361.9	2.8185e-06	1.9519e-06	1361.5	366.82	6.273e-06	6.2423e-06	418.14	141.13	122.29	41.758	5.1922e-06	51.679	0.00057094	0.00056779	0.00015662	1383.8	6.0647e-06	6.0738e-06	1382.7	374.82	6.0796e-06	6.1486e-06	427.78	143.55	124.87	42.985	6.1015e-06	53.208	-53.857	-132.587	-91.098	-158.292	29.203	18.218	-158.395	-153.516	-55.326	-32.781	-154.116	-149.873	-149.498	-144.690	-73.082	-145.652	-8191	255	
39398.789	1	1	0	0	0.051383	0.24509	0.21948	0.24565	0.27449	0.31411	0.075738	0.30931	0.14019	0.18797	0.0295	0.19976	0.095688	0.036107	0.073	0.14041	-4.6417	-4.3333	-4.5417	-4.825	-4.2604	-4.7646	-4.6188	-4.5479	-4.9354	-4.2417	-4.6292	-4.9	-4.275	-5.0042	-4.5646	-4.5104	-77.536	-9.633	42.363	113.275	174.661	-24.824	114.516	140.249	-91.886	-22.745	-99.016	136.954	90.173	-113.092	-42.767	167.322	0.00075563	0.00048177	0.00017998	1362.4	1.0202e-05	1.7268e-06	1362.3	367.02	7.0898e-06	5.0266e-06	419.22	140.34	121.6	41.807	8.3348e-06	51.66	0.00057216	0.0005679	0.00015169	1384.5	6.0878e-06	6.083e-06	1383.8	374.65	6.0681e-06	6.1472e-06	427.95	143.53	124.66	42.991	5.932e-06	53.295	-51.898	-84.975	-66.205	-158.065	-51.747	-3.075	-158.571	-153.577	-8.025	-9.300	-154.230	-149.547	-149.061	-144.842	-30.467	-145.422	-8191	255	
39398.910	1	1	0	0	0.19602	0.081798	0.18836	0.11507	0.17024	0.20719	0.14525	0.31211	0.19218	0.058565	0.16714	0.26746	0.063993	0.16106	0.13594	0.070564	-4.3146	-4.3187	-4.4833	-4.8104	-4.0396	-4.6854	-4.7646	-4.4146	-4.8417	-4.3938	-4.6125	-4.85	-4.2917	-4.8313	-4.5458	-4.3875	34.187	91.491	-74.581	-155.489	134.767	132.516	126.503	127.435	-28.256	60.098	121.126	181.999	171.759	-129.492	47.958	102.263	0.00071489	0.00061398	0.00014069	1358.2	9.9715e-06	4.7823e-06	1358.7	368.23	4.5089e-06	2.438e-06	419.6	140.95	122.49	41.88	8.1309e-06	51.428	0.00056295	0.00055039	0.00015283	1382.6	6.1172e-06	6.0377e-06	1382.4	374.86	6.0375e-06	6.0422e-06	428.27	143.62	124.99	43.094	5.8669e-06	53.17	-51.628	-86.912	-74.695	-158.167	-52.477	2.210	-158.304	-153.323	-13.568	-33.505	-154.260	-149.796	-149.198	-144.636	3.550	-145.491	-8191	255	
39399.008	1	1	0	0	0.25229	0.10752	0.18857	0.17528	0.11719	0.21425	0.28105	0.14077	0.18622	0.082741	0.26384	0.15899	0.16476	0.34897	0.19923	0.15589	-4.4042	-4.325	-4.4812	-4.9792	-4.3958	-4.6188	-4.8292	-4.5167	-4.925	-4.4396	-4.4812	-4.9354	-4.1708	-4.6229	-4.6292	-4.3458	46.164	164.977	-79.059	162.503	157.268	81.300	129.787	53.967	-12.264	-142.502	150.540	-136.577	66.473	-165.451	172.253	42.891	0.00066413	0.00040744	0.00017912	1360.2	7.4057e-06	4.4497e-06	1357.6	367.87	4.9481e-06	3.3275e-06	419.69	139.86	122.59	41.802	4.666e-06	51.523	0.0005682	0.00056055	0.00015474	1384.2	6.0737e-06	6.0283e-06	1381.1	375.14	6.0966e-06	6.0442e-06	428.27	143.2	125.04	43.068	5.9347e-06	53.108	-53.731	-88.076	-77.197	-158.239	-36.198	-57.759	-158.479	-153.654	-17.216	-22.834	-154.266	-149.870	-149.117	-144.566	-27.033	-145.602	-8191	255	
39399.102	1	1	0	0	0.10473	0.16577	0.14059	0.23147	0.10986	0.13692	0.13296	0.062462	0.2098	0.1376	0.2143	0.14538	0.2398	0.16939	0.13679	0.19225	-4.5083	-4.4896	-4.2812	-5.0125	-4.2354	-4.6958	-4.9313	-4.3125	-4.7854	-4.6292	-4.3146	-4.975	-4.3521	-4.6083	-4.8063	-4.375	13.677	-51.005	157.999	-171.127	129.286	156.519	90.768	151.127	165.542	120.415	-145.131	-69.380	130.828	98.225	-42.713	-149.671	0.00071472	0.00061181	0.00018044	1359.8	8.3477e-06	2.6101e-06	1361.5	366.87	5.2904e-06	4.6617e-06	417.72	140.57	122.46	41.788	5.3477e-06	51.558	0.00056701	0.00054785	0.00014919	1383.3	6.0084e-06	5.8468e-06	1382	374.14	5.8802e-06	5.8788e-06	427.28	143.08	124.89	42.961	5.8636e-06	53.232	-48.592	-71.596	-94.961	-158.025	-32.151	-40.953	-158.412	-153.628	-24.289	-91.593	-154.035	-149.881	-149.229	-144.504	-33.619	-145.396	-8191	255	
39399.199	1	1	0	0	0.091583	0.022775	0.045807	0.34125	0.093245	0.093076	0.20861	0.12793	0.011285	0.098292	0.36079	0.064668	0.3596	0.11818	0.092549	0.33291	-4.35	-4.4667	-4.3229	-5.0188	-4.375	-4.4792	-4.8208	-4.325	-4.5604	-4.6542	-4.3688	-4.9563	-4.3854	-4.6146	-4.925	-4.3187	31.881	106.129	55.902	-155.844	102.189	64.236	131.268	134.448	73.406	78.323	112.458	84.373	-169.332	183.171	91.512	144.757	0.00069164	0.00043473	0.00021418	1363.7	9.9918e-06	4.4345e-06	1359.6	367.73	3.7869e-06	3.3022e-06	418.52	140.3	121.99	41.725	5.4112e-06	51.392	0.00056736	0.00054248	0.00015103	1384.4	5.9617e-06	5.8448e-06	1381.4	374.62	5.9126e-06	5.8894e-06	428.01	143.27	124.73	42.959	5.882e-06	53.097	-55.091	-65.267	-41.832	-158.100	-32.571	7.636	-158.308	-153.587	-22.007	-15.987	-154.103	-149.830	-149.203	-144.719	-75.252	-145.217	-8191	255	
39399.297	1	1	0	0	0.10994	0.18062	0.20565	0.30647	0.16637	0.18204	0.26105	0.2784	0.14734	0.21332	0.1485	0.11346	0.071938	0.13612	0.077072	0.16216	-4.3333	-4.5771	-4.2812	-5.0188	-4.4792	-4.2771	-4.8875	-4.4958	-4.6729	-4.6104	-4.3333	-4.9083	-4.6188	-4.4708	-4.7417	-4.3688	-58.399	-0.406	-2.875	123.962	2.333	164.002	150.985	179.715	25.317	-92.458	162.281	-111.617	-78.892	57.055	-79.691	42.304	0.00072385	0.00065941	0.00017342	1358.8	9.776e-06	4.9314e-06	1359.9	368.22	5.2648e-06	3.5107e-06	419.32	140.56	122.32	41.864	4.7076e-06	51.482	0.00056377	0.00053903	0.00015097	1382.9	5.9602e-06	5.9433e-06	1379.7	374.88	5.8807e-06	5.8567e-06	427.31	143.38	124.8	43.001	5.8186e-06	53.167	-50.797	-81.987	-64.353	-158.157	-43.758	-56.838	-158.308	-153.853	-5.072	-24.361	-154.026	-150.018	-149.347	-144.810	-12.347	-145.570	-8191	255	
39399.391	1	1	0	0	0.06404	0.11521	0.059251	0.20315	0.05978	0.40736	0.078616	0.068313	0.13629	0.10124	0.20461	0.039567	0.12006	0.11361	0.125	0.2237	-4.2271	-4.7146	-4.3354	-5.0188	-4.3417	-4.4854	-5.1021	-4.4688	-4.5146	-4.7438	-4.3271	-4.9396	-4.4625	-4.3542	-4.7708	-4.3958	-143.300	110.225	-91.857	156.141	-88.954	137.687	-142.796	-49.179	13.896	-95.817	151.862	11.317	104.324	66.552	-77.299	126.219	0.00072883	0.0003969	7.1387e-05	1358.9	1.1035e-05	4.5501e-06	1358.6	368.1	5.1097e-06	1.8985e-06	417.99	140.53	122.14	41.782	5.3805e-06	51.487	0.00054956	0.00052046	0.00014642	1379.8	5.7725e-06	5.7688e-06	1377.9	374.23	5.7161e-06	5.8047e-06	427.69	143.43	124.53	43.006	5.7853e-06	53.124	-51.846	-94.212	-52.882	-158.282	-22.481	-24.889	-158.457	-153.638	-16.792	42.607	-154.230	-149.656	-149.375	-144.718	-51.846	-145.508	-8191	255	
39399.488	1	1	0	0	0.065847	0.17746	0.066798	0.2998	0.14021	0.12623	0.27786	0.14185	0.21538	0.19252	0.066625	0.22156	0.25458	0.12311	0.17004	0.17009	-4.0875	-4.6708	-4.2312	-4.9396	-4.5687	-4.2688	-5.0083	-4.3667	-4.5667	-4.6792	-4.3104	-4.8187	-4.9292	-4.3208	-4.8104	-4.6354	-146.423	-84.103	-124.786	177.082	130.382	-27.821	134.357	147.327	-87.266	146.725	24.234	81.802	-137.427	149.430	13.369	145.329	0.00074449	0.0002993	0.0001273	1358	3.5629e-06	3.601e-06	1356.5	366.95	3.0268e-06	3.8109e-06	419.59	140.63	121.96	41.803	6.7198e-06	51.455	0.00055728	0.00053593	0.00014964	1378.8	5.8043e-06	5.8594e-06	1377.5	374.52	5.8201e-06	5.895e-06	427.39	143.33	124.61	43.025	5.9181e-06	53.158	-51.364	95.626	-52.149	-158.225	-45.487	0.042	-158.364	-153.709	-23.180	-8.056	-154.176	-149.762	-149.118	-144.578	-8.497	-145.616	-8191	255	
39399.582	1	1	0	0	0.037728	0.21587	0.10741	0.24649	0.083038	0.055933	0.34313	0.27776	0.12109	0.052953	0.34499	0.092584	0.058081	0.21272	0.10463	0.27779	-4.1083	-4.8646	-4.3292	-4.85	-4.6438	-4.3917	-5.1604	-4.5042	-4.5125	-4.7104	-4.4854	-4.4646	-4.8958	-4.2104	-4.8708	-4.7479	69.284	59.643	143.962	170.138	-24.394	-132.163	130.936	150.074	-135.736	119.468	128.607	-88.673	49.984	161.011	43.576	-162.009	0.00066341	0.00062563	0.00014412	1355.6	6.1815e-06	2.5961e-06	1356.4	366.3	7.3207e-06	5.8524e-06	419.11	140.09	121.5	41.686	4.5352e-06	51.429	0.00054759	0.00054049	0.0001501	1378.2	5.9319e-06	5.8705e-06	1377	373.95	5.8124e-06	5.8533e-06	427.41	143.19	124.44	42.877	5.8198e-06	53.095	-51.605	-70.991	-71.957	-158.237	-40.497	-29.558	-158.276	-153.608	0.935	0.486	-154.043	-149.735	-148.987	-144.549	-26.783	-145.674	-8191	255	
39399.703	1	1	0	0	0.29409	0.26777	0.16949	0.056814	0.11608	0.15684	0.29055	0.13029	0.22696	0.18822	0.020603	0.073279	0.071146	0.043021	0.014621	0.2347	-3.9833	-4.8583	-4.2438	-4.7063	-4.6646	-4.3208	-4.9688	-4.6521	-4.2479	-4.9729	-4.4688	-4.6354	-4.8313	-4.4396	-4.6687	-4.6917	-105.554	34.558	-143.612	-168.685	12.869	-54.109	102.736	-129.449	-54.561	55.633	-19.968	-8.826	-137.162	-2.643	-68.212	68.667	0.00068655	0.0006201	0.00018524	1354.9	9.4322e-06	6.0565e-06	1349.1	366.87	7.9561e-06	5.9257e-06	419.74	139.81	121.92	41.767	6.4538e-06	51.58	0.0005582	0.00054681	0.00015244	1377.1	5.8169e-06	6.0046e-06	1375.5	373.45	5.9173e-06	5.7798e-06	427.6	143.08	124.43	42.956	5.7806e-06	53.138	-49.214	-63.493	-59.217	-158.201	-47.702	-15.889	-158.314	-153.614	7.446	-29.881	-154.010	-149.641	-149.510	-144.567	23.268	-145.560	-8191	255	
39399.773	1	1	0	0	0.033219	0.14941	0.15682	0.11735	0.064066	0.18415	0.32479	0.22727	0.11305	0.23064	0.18862	0.20275	0.07828	0.21372	0.11534	0.1222	-3.9375	-4.7583	-4.2333	-4.7542	-4.6604	-4.2896	-4.8063	-4.6854	-4.2375	-4.8063	-4.4187	-4.5542	-4.8438	-4.3125	-4.5563	-4.8	94.039	-32.031	37.627	-170.524	49.161	-93.009	122.473	133.332	84.002	58.020	92.884	-164.970	115.518	172.379	-123.743	64.599	0.00072198	0.00049802	0.00022821	1355.2	4.6906e-06	2.1859e-06	1355.2	367.23	7.5455e-06	5.6133e-06	417.04	140.41	121.87	41.552	4.8465e-06	51.416	0.00056054	0.00053397	0.00015002	1378.2	5.8837e-06	5.8416e-06	1377	373.79	5.8256e-06	5.8592e-06	426.26	143.19	124.22	42.815	5.7388e-06	53.054	-55.127	-60.862	-85.936	-158.107	-33.959	-41.556	-158.383	-153.603	-11.792	7.464	-154.215	-149.822	-149.351	-144.688	-57.483	-145.543	-8191	255	
39399.871	1	1	0	0	0.20532	0.30228	0.18831	0.31236	0.10094	0.22354	0.13111	0.22035	0.13824	0.15112	0.14906	0.17463	0.10839	0.21219	0.19063	0.16416	-3.8812	-4.7104	-4.65	-4.6	-4.8438	-4.2479	-4.925	-4.9563	-4.3187	-4.7854	-4.5167	-4.4875	-4.8417	-4.4313	-4.4771	-4.7812	-16.060	-64.705	-51.871	115.340	69.691	54.144	87.143	-92.306	133.680	-42.041	96.477	118.702	164.851	166.560	102.508	97.253	0.00070341	0.00045358	0.00018847	1352.6	8.8588e-06	3.7728e-06	1353.2	366.24	6.1223e-06	5.3077e-06	417.76	139.64	121.92	41.563	3.9513e-06	51.36	0.0005578	0.00053937	0.00014416	1376.5	5.8941e-06	5.8332e-06	1373.9	373.51	5.9806e-06	5.8879e-06	426.84	142.94	124.36	42.777	5.6913e-06	52.985	-53.021	-73.049	-57.283	-158.222	-62.266	12.151	-158.324	-153.524	13.001	-25.886	-154.193	-149.885	-149.320	-144.740	-14.996	-145.541	-8191	255	
39399.988	1	1	0	0	0.047648	0.14902	0.074105	0.44504	0.046984	0.10582	0.10286	0.18784	0.073414	0.18329	0.14192	0.13834	0.21921	0.16234	0.22789	0.2748	-3.8187	-4.5833	-4.4958	-4.4896	-4.8375	-4.4396	-4.6917	-4.9208	-4.1813	-4.5813	-4.5875	-4.2688	-4.8521	-4.4292	-4.4521	-4.8604	-82.781	169.583	72.664	149.690	-1.437	68.910	170.764	149.889	101.259	158.986	-108.608	-153.344	-85.351	171.342	111.047	70.030	0.00070371	0.00048602	0.00022005	1348.5	7.7348e-06	2.9982e-06	1349.9	367.13	4.0368e-06	6.0237e-06	417.33	140.12	121.78	41.57	7.1348e-06	51.155	0.00055575	0.00053853	0.00014689	1373.4	5.8431e-06	5.846e-06	1372	373.53	5.9548e-06	5.8195e-06	426.73	143.11	124.26	42.824	5.8452e-06	52.958	-54.462	-83.474	-61.971	-158.090	-48.736	-48.849	-158.476	-153.705	-13.019	-48.938	-154.081	-149.776	-149.277	-144.405	-47.762	-145.298	-8191	255	
39400.086	1	1	0	0	0.21408	0.21144	0.32737	0.26948	0.087257	0.12892	0.061354	0.3201	0.037024	0.033469	0.085066	0.1605	0.31046	0.03366	0.16096	0.18298	-3.9271	-4.8021	-4.5521	-4.4896	-4.7958	-4.3854	-4.5687	-4.9854	-4.3042	-4.6146	-4.7729	-4.3125	-4.8229	-4.5667	-4.3583	-4.9938	102.530	28.536	52.608	126.002	-156.692	156.172	109.981	187.516	141.067	-145.424	116.875	-165.329	181.588	-148.112	118.628	155.687	0.00068162	0.00045542	0.00016555	1354.4	7.4779e-06	3.7703e-06	1350.1	366.12	4.2801e-06	4.8865e-06	417.05	140.12	121.97	41.554	4.8561e-06	51.606	0.00056071	0.00053235	0.00014567	1374.5	5.879e-06	5.8419e-06	1373.3	373.55	5.842e-06	5.8118e-06	426.43	142.92	124.39	42.801	5.7818e-06	53.06	-51.605	-71.646	-79.500	-158.139	-20.978	-39.511	-158.420	-153.767	-24.523	2.301	-154.080	-149.776	-149.198	-144.627	-26.547	-145.365	-8191	255	
39400.184	1	1	0	0	0.20516	0.13512	0.15808	0.15853	0.090484	0.21382	0.24834	0.32138	0.12073	0.16225	0.13372	0.099583	0.083524	0.23967	0.08966	0.18211	-4.1146	-4.5458	-4.7396	-4.4313	-4.825	-4.4417	-4.6271	-5.1208	-4.3958	-4.5104	-4.7792	-4.3854	-4.7375	-4.6062	-4.2542	-4.9854	74.300	51.648	-86.119	-159.892	-137.420	183.584	96.398	83.710	47.952	-115.376	183.497	90.664	-55.209	-106.838	70.679	173.294	0.00070745	0.00054561	0.00020252	1353.1	1.2745e-05	3.9762e-06	1351.3	366.27	5.286e-06	5.5488e-06	418.73	139.8	121.29	41.412	1.9486e-06	51.419	0.0005618	0.00053592	0.00015008	1376.2	5.9379e-06	5.9468e-06	1372.2	373.49	5.9385e-06	5.9648e-06	427.03	142.9	124.17	42.74	5.8425e-06	53.061	-48.472	-53.843	-100.264	-158.071	-31.043	-10.433	-158.353	-153.683	-8.673	-26.515	-153.947	-150.037	-149.100	-144.444	-63.368	-145.409	-8191	255	
39400.277	1	1	0	0	0.12589	0.076037	0.15544	0.29233	0.093679	0.26132	0.35075	0.21246	0.045369	0.10697	0.15852	0.11737	0.11905	0.29096	0.15169	0.11525	-4.0708	-4.3708	-4.6583	-4.4167	-4.6958	-4.5729	-4.4437	-5.0167	-4.3083	-4.4563	-4.8271	-4.3313	-4.7833	-4.7729	-4.2125	-4.9354	90.710	-63.376	131.861	147.322	-112.716	166.427	119.967	159.059	-119.331	177.963	23.987	90.091	132.585	121.474	-131.978	58.008	0.00065751	0.00083271	0.00012465	1354.7	1.0587e-05	3.599e-06	1353	365.74	6.4476e-06	7.6155e-06	416.32	139.74	121.4	41.497	6.8342e-06	51.513	0.00056287	0.00054733	0.00015047	1375.2	5.8613e-06	5.9391e-06	1374.2	373.32	6.0289e-06	5.9851e-06	426.55	142.9	124.31	42.78	5.93e-06	53.084	-52.226	-94.948	-67.588	-158.302	-61.708	10.194	-158.278	-153.563	-1.192	-36.016	-153.983	-149.679	-149.116	-144.724	-49.402	-145.616	-8191	255	
39400.375	1	1	0	0	0.056635	0.15055	0.14214	0.23376	0.056647	0.17813	0.10454	0.19683	0.13693	0.12014	0.038917	0.040275	0.12841	0.099529	0.26039	0.29388	-4.0479	-4.375	-4.7562	-4.4604	-4.7083	-4.5396	-4.4583	-4.8625	-4.3708	-4.3104	-4.8438	-4.4833	-4.7375	-4.6458	-4.1896	-4.9458	-156.870	-5.584	-37.644	97.198	-85.389	151.798	102.042	81.111	119.574	-113.657	19.058	66.194	1.057	-97.553	-145.636	137.532	0.00068922	0.00030991	0.00017111	1350.2	9.1575e-06	4.7012e-06	1355.7	366.86	6.6446e-06	7.2015e-06	417.09	140.38	120.99	41.546	4.7054e-06	51.184	0.00055905	0.00055314	0.00015182	1374.8	5.9295e-06	5.9234e-06	1374.2	374.1	5.9497e-06	5.9281e-06	427.39	142.9	124.17	42.808	6.0316e-06	52.976	-51.320	-73.004	-63.252	-158.250	-15.212	-36.060	-158.252	-153.805	-3.376	-34.282	-154.073	-149.617	-149.136	-144.527	-22.468	-145.372	-8191	255	
39400.473	1	1	0	0	0.2824	0.089442	0.12375	0.1775	0.071576	0.057261	0.070163	0.068217	0.088878	0.1127	0.13519	0.0952	0.24943	0.23719	0.15008	0.04514	-4.1396	-4.3708	-4.9187	-4.375	-4.5729	-4.7792	-4.2562	-4.9437	-4.6458	-4.3208	-4.9437	-4.3271	-4.725	-4.7312	-4.2	-4.8271	-57.655	33.895	178.829	124.321	-96.864	-16.582	-138.586	145.077	39.427	67.335	152.348	17.676	-45.297	151.302	18.060	4.110	0.00065692	0.00057688	0.00021411	1351.7	6.9363e-06	5.4148e-06	1351.5	367.64	6.6778e-06	4.6329e-06	417.58	140.07	122.08	41.538	2.3732e-06	51.316	0.00055568	0.00055804	0.00015436	1374.1	5.97e-06	5.9229e-06	1373.6	373.96	6.003e-06	6.0207e-06	427.16	143.09	124.64	42.796	5.918e-06	53.071	-52.979	-54.152	-49.345	-158.013	-65.157	-23.515	-158.453	-153.644	-21.554	-76.971	-154.161	-149.780	-149.037	-144.651	-62.553	-145.574	-8191	255	
39400.594	1	1	0	0	0.15838	0.12577	0.12824	0.22366	0.25809	0.15978	0.18433	0.21796	0.1616	0.11322	0.16077	0.12294	0.13887	0.24559	0.041582	0.14638	-4.2396	-4.2354	-4.7708	-4.5042	-4.4708	-4.7458	-4.2812	-4.75	-4.525	-4.3104	-5.0042	-4.6562	-4.3938	-4.8125	-4.1062	-4.9292	-162.006	-86.609	19.020	-166.772	-76.389	169.294	112.032	120.595	-37.873	-95.852	126.535	78.221	-63.580	91.276	32.610	-103.434	0.00065172	0.00049264	0.00010901	1352.1	1.1203e-05	2.4735e-06	1347.9	366.77	5.2393e-06	6.764e-06	419.38	140.74	121.86	41.687	3.9976e-06	51.478	0.00056327	0.00054751	0.0001511	1374.9	5.949e-06	5.9331e-06	1373.6	374.06	6.0762e-06	5.998e-06	427.22	143.31	124.54	42.887	6.0294e-06	53.012	-53.138	-116.368	-61.321	-158.034	-63.031	4.276	-158.322	-153.634	-36.374	48.270	-154.231	-149.816	-149.346	-144.673	-36.818	-145.653	-8191	255	
39400.688	1	1	0	0	0.11918	0.31636	0.060956	0.19064	0.050444	0.060107	0.13346	0.19718	0.25426	0.070031	0.03947	0.1892	0.1135	0.23073	0.22202	0.21869	-4.2188	-4.2417	-4.8667	-4.7104	-4.1958	-4.8458	-4.4625	-4.7604	-4.7333	-4.0729	-4.9396	-4.6333	-4.3438	-5.0354	-4.3604	-4.7583	131.479	154.255	-146.222	167.149	-161.836	-142.670	82.998	156.578	-104.603	-94.444	-79.451	-109.407	148.903	98.608	30.554	151.594	0.00062378	0.00036598	0.00023466	1350.9	7.7341e-06	7.8478e-06	1352	366.22	3.4289e-06	5.5085e-06	418.14	140.28	121.56	41.657	4.5056e-06	51.546	0.00056138	0.0005575	0.00015214	1375.5	5.9947e-06	6.0317e-06	1375.8	373.9	6.0652e-06	5.979e-06	427.63	143.07	124.31	42.876	5.9532e-06	53.124	-51.020	-92.338	-61.508	-158.226	-44.225	7.640	-158.350	-153.594	-30.641	-11.237	-154.264	-149.854	-149.167	-144.699	-52.872	-145.533	-8191	255	
39400.781	1	1	0	0	0.073982	0.29792	0.15995	0.31135	0.37555	0.23792	0.19673	0.40122	0.19328	0.20662	0.28516	0.027866	0.18096	0.083476	0.032332	0.20926	-4.3688	-3.9875	-4.8271	-4.5813	-4.2646	-4.8417	-4.5729	-4.5354	-4.7354	-4.1917	-4.9583	-4.7104	-4.3229	-4.7375	-4.3562	-4.6438	159.991	-91.439	-22.836	-153.300	175.429	-113.438	126.754	118.467	5.140	144.617	89.655	-17.920	89.549	-52.192	-141.913	108.009	0.00067412	0.00066882	0.00013623	1351	9.1404e-06	5.3278e-06	1354.3	368.27	4.0779e-06	5.8891e-06	418.39	139.52	121.49	41.645	4.8263e-06	51.415	0.00057016	0.00055005	0.00015108	1374.8	6.0384e-06	5.9351e-06	1375.1	374.21	6.0906e-06	6.0885e-06	428.02	142.99	124.55	42.814	5.8668e-06	53.082	-55.435	-99.551	-27.002	-158.247	-65.704	-39.859	-158.241	-153.634	10.785	3.072	-154.067	-149.870	-149.138	-144.778	-33.367	-145.378	-8191	255	
39400.879	1	1	0	0	0.043711	0.07621	0.052322	0.15278	0.12974	0.084929	0.31749	0.11114	0.070277	0.14568	0.17168	0.11536	0.08038	0.2435	0.22329	0.13344	-4.4437	-4.2979	-4.7833	-4.7688	-4.425	-4.8583	-4.5188	-4.5563	-4.7833	-4.3833	-4.6771	-4.7812	-4.2729	-4.9375	-4.5687	-4.3542	114.458	-68.310	-65.934	-167.877	-46.729	27.252	128.952	-111.980	88.874	-123.889	76.252	-71.973	92.896	-160.676	129.626	158.369	0.00070653	0.00063428	0.00011789	1355.2	7.354e-06	3.4471e-06	1352.9	366.81	5.8396e-06	4.1973e-06	417.75	139.93	120.68	41.513	4.132e-06	51.408	0.00056213	0.00054959	0.00015455	1376.3	6.0279e-06	5.9092e-06	1373.5	374.19	6.0826e-06	5.9801e-06	427.09	142.95	123.95	42.777	5.9598e-06	53.041	-53.428	-95.555	-64.530	-158.075	-22.996	-45.605	-158.230	-153.658	-10.014	-39.522	-154.151	-149.836	-149.258	-144.572	-21.100	-145.446	-8191	255	
39401.000	1	1	0	0	0.13323	0.023594	0.19505	0.19907	0.26557	0.034294	0.27202	0.22508	0.24942	0.15549	0.16299	0.14946	0.11833	0.13636	0.14536	0.12654	-4.5417	-4.2917	-4.5563	-4.9812	-4.2312	-4.8604	-4.5646	-4.5417	-4.8833	-4.2896	-4.7063	-4.8063	-4.3938	-4.775	-4.5437	-4.3979	-98.201	109.183	-84.588	180.946	-14.588	173.411	94.322	125.781	-90.999	-124.725	186.070	91.309	94.631	125.773	155.217	176.732	0.00070206	0.00050002	0.00012136	1352.1	1.3287e-05	3.4137e-06	1347.9	366.86	5.9125e-06	2.4933e-06	418.93	139.94	121.21	41.628	5.1958e-06	51.422	0.00057966	0.00055122	0.00015128	1375.1	6.0473e-06	5.9091e-06	1372.1	374.17	6.0189e-06	6.0098e-06	428.07	143	124.12	42.804	5.9997e-06	53.067	-54.455	-88.528	-55.763	-158.243	-42.918	-14.754	-158.247	-153.687	7.644	-17.220	-154.068	-149.591	-149.142	-144.696	-36.203	-145.548	-8191	255	
39401.070	1	1	0	0	0.22411	0.18826	0.095259	0.18581	0.13357	0.016272	0.072495	0.38339	0.376	0.23704	0.078195	0.13748	0.20683	0.13964	0.17757	0.29069	-4.5875	-4.2896	-4.7167	-5.0625	-4.3229	-4.7167	-4.7021	-4.4292	-4.8896	-4.6562	-4.6	-4.8521	-4.2521	-4.6333	-4.5417	-4.3833	80.007	-89.645	-13.564	-157.984	-89.434	20.874	156.461	89.776	97.297	-96.000	-93.356	169.040	172.899	144.617	-34.008	152.527	0.00067955	0.00049897	0.00017913	1352.9	5.9758e-06	4.2177e-06	1350	366.45	5.5328e-06	4.5493e-06	418.78	139.27	121.93	41.627	6.5762e-06	51.376	0.00056444	0.00053313	0.00014872	1375.8	6.0032e-06	5.8801e-06	1374.4	374.13	5.7851e-06	5.8828e-06	427.25	142.73	124.33	42.8	5.8759e-06	53.067	-53.456	-100.278	-107.429	-158.207	-29.303	-48.797	-158.286	-153.550	-19.355	-13.291	-154.102	-149.752	-149.128	-144.769	-23.417	-145.602	-8191	255	
39401.168	1	1	0	0	0.2278	0.16184	0.083754	0.40748	0.072375	0.083327	0.33675	0.26062	0.25227	0.011362	0.16771	0.22917	0.26167	0.17677	0.077009	0.021757	-4.3521	-4.3688	-4.4833	-4.9688	-4.3271	-4.7042	-4.9542	-4.3479	-4.8542	-4.4917	-4.4208	-4.8792	-4.4146	-4.5854	-4.5708	-4.2833	67.169	-141.897	-59.779	140.361	13.555	-58.671	99.948	118.859	54.228	67.366	18.859	138.465	173.044	-110.747	-114.250	-62.434	0.00071753	0.00053922	0.0001592	1347.5	6.1076e-06	5.4831e-06	1352.2	366.43	5.7478e-06	5.3453e-06	417.21	139.68	121.78	41.712	8.3132e-06	51.77	0.00054993	0.00053871	0.00015159	1371.8	5.9465e-06	5.8736e-06	1372.1	373.51	5.9062e-06	5.9081e-06	426.61	142.78	124.24	42.841	5.9771e-06	53.117	-52.849	-93.620	-45.266	-158.137	26.852	14.529	-158.352	-153.645	-15.947	-35.443	-154.151	-149.747	-149.174	-144.652	-15.323	-145.496	-8191	255	
39401.262	1	1	0	0	0.11918	0.32144	0.04958	0.20203	0.21677	0.19361	0.19625	0.36383	0.17717	0.21848	0.32556	0.16805	0.20815	0.15736	0.13352	0.16959	-4.5625	-4.4667	-4.3083	-5.1292	-4.2125	-4.5979	-4.8854	-4.3896	-4.6937	-4.5896	-4.3229	-4.9854	-4.3438	-4.6917	-4.7208	-4.3229	73.695	14.473	-138.515	124.317	-93.116	-43.916	64.026	149.353	-160.025	102.392	166.182	93.324	116.454	155.181	21.198	122.633	0.00069239	0.00065546	0.00014114	1349.2	3.313e-06	5.0196e-06	1352	367.17	4.9103e-06	6.3794e-06	418.43	140.62	121.58	41.559	7.4689e-06	51.499	0.00055272	0.00054213	0.00015089	1374.9	5.8818e-06	5.9027e-06	1372.9	373.94	6.0666e-06	5.8848e-06	426.87	143.29	124.27	42.809	5.9174e-06	53.115	-49.423	-66.332	-40.207	-158.231	-31.520	4.394	-158.423	-153.574	-26.063	17.611	-154.133	-149.847	-149.345	-144.464	-26.188	-145.498	-8191	255	
39401.383	1	1	0	0	0.097652	0.067575	0.1399	0.22476	0.014084	0.10235	0.10963	0.40105	0.067447	0.027946	0.24112	0.15955	0.098017	0.17353	0.049337	0.12613	-4.4062	-4.5479	-4.3729	-5.0062	-4.2229	-4.7604	-5.075	-4.3042	-4.8146	-4.5042	-4.2792	-4.8938	-4.4313	-4.45	-4.8729	-4.2396	69.306	-77.197	91.295	-170.736	38.384	11.866	102.977	146.863	100.723	106.021	136.206	-152.260	72.864	74.853	35.995	117.512	0.00075955	0.000323	0.00015404	1352.7	1.3594e-05	3.3074e-06	1348.7	366.25	7.509e-06	3.1001e-06	418.35	140	121.9	41.407	2.0723e-06	51.629	0.00056044	0.00053868	0.0001508	1374.6	5.9292e-06	5.9527e-06	1372.6	373.8	5.939e-06	5.9074e-06	426.91	143.01	124.37	42.753	5.9556e-06	53.046	-53.553	-63.469	-88.557	-157.975	-31.558	-2.041	-158.497	-153.583	-0.803	-20.741	-154.124	-149.721	-149.229	-144.573	54.254	-145.609	-8191	255	
39401.480	1	1	0	0	0.080374	0.24997	0.18109	0.33255	0.10274	0.24705	0.20851	0.1694	0.21297	0.1363	0.18567	0.20928	0.22367	0.2828	0.18113	0.10159	-4.375	-4.5604	-4.0875	-5.0104	-4.5062	-4.1521	-5.0396	-4.2562	-4.6396	-4.7729	-4.4208	-4.825	-4.4479	-4.3917	-4.8521	-4.4854	125.794	-66.634	79.510	119.019	120.372	-133.264	150.238	130.437	68.921	139.736	-108.312	64.710	-127.259	144.548	-126.319	0.687	0.00068092	0.00036954	0.00013242	1350	5.0473e-06	4.065e-06	1348.9	367.68	5.2695e-06	5.9305e-06	418.36	139.83	121.51	41.628	7.5114e-06	51.254	0.00056841	0.00054209	0.00015298	1374.9	5.8628e-06	5.8446e-06	1371.4	374.06	5.9734e-06	5.9023e-06	427.3	142.83	124.15	42.794	5.8633e-06	52.916	-51.979	-82.481	-79.804	-158.277	-42.326	-22.482	-158.269	-153.617	-18.149	-17.563	-154.148	-149.797	-149.468	-144.478	-47.953	-145.410	-8191	255	
39401.574	1	1	0	0	0.058618	0.124	0.23313	0.34891	0.098777	0.25008	0.22558	0.1162	0.14584	0.24568	0.24866	0.28682	0.096135	0.28834	0.14243	0.2578	-4.2854	-4.775	-4.2354	-4.8542	-4.4646	-4.2479	-4.9812	-4.4896	-4.4187	-4.775	-4.4292	-4.8854	-4.6271	-4.2562	-4.9292	-4.4833	-5.671	43.155	145.792	153.474	-139.720	95.943	91.208	-160.386	63.355	113.293	107.537	148.398	87.382	-169.914	1.062	135.391	0.00073999	0.00040935	0.0001333	1351.3	7.7901e-06	5.0943e-06	1352.5	366.45	6.8168e-06	7.376e-06	417.85	139.49	121.63	41.601	4.2267e-06	51.357	0.00055663	0.00053083	0.00014982	1373.5	5.8556e-06	5.7912e-06	1372	373.55	5.8691e-06	5.8167e-06	426.53	142.78	124.17	42.796	5.6959e-06	52.878	-53.591	-54.560	-24.179	-158.114	-32.155	-51.689	-158.337	-153.521	-32.758	-0.351	-153.946	-149.714	-149.167	-144.630	-30.689	-145.573	-8191	255	
39401.672	1	1	0	0	0.10041	0.31807	0.11776	0.21624	0.056456	0.10031	0.16373	0.065933	0.16425	0.052652	0.068371	0.3406	0.047331	0.095336	0.055688	0.1902	-4.1479	-4.7104	-4.0854	-4.7604	-4.4333	-4.1833	-5.0062	-4.5833	-4.5917	-4.775	-4.4729	-4.5896	-4.825	-4.3333	-4.85	-4.6292	-101.588	11.007	-13.244	177.905	-98.093	111.408	116.169	133.759	80.861	-85.620	117.013	169.286	41.672	-139.146	-2.961	176.301	0.00068673	0.00048501	0.0001283	1348.6	4.6567e-06	2.9547e-06	1349	365.91	7.6737e-06	5.4727e-06	418.08	139.51	121.09	41.65	3.6513e-06	51.27	0.00055486	0.00053645	0.00014674	1373.9	5.8452e-06	5.8329e-06	1372	373.4	5.9179e-06	6.0139e-06	426.81	143.06	124.12	42.862	6.0116e-06	53.005	-55.313	-115.447	-76.359	-158.111	-51.111	18.348	-158.341	-153.494	-10.526	6.797	-154.066	-149.785	-149.307	-144.644	-47.689	-145.573	-8191	255	
39401.770	1	1	0	0	0.15416	0.19159	0.35215	0.16854	0.17891	0.14322	0.25185	0.26445	0.14788	0.3409	0.21404	0.032905	0.16062	0.15475	0.10375	0.18406	-3.8708	-4.8063	-4.3667	-4.7292	-4.7667	-4.2458	-5.0479	-4.6896	-4.4313	-4.8896	-4.2708	-4.7208	-4.7292	-4.3542	-4.7375	-4.7417	3.476	13.380	-49.158	112.120	160.133	-130.250	50.967	153.540	107.705	139.959	-2.092	-153.224	157.638	65.444	-82.010	175.688	0.0006034	0.00069803	0.00017587	1350	7.0757e-06	5.2552e-06	1351.6	366.03	5.1877e-06	3.458e-06	416.08	139.06	121.94	41.627	3.2413e-06	51.413	0.00057583	0.00055762	0.00015664	1375.7	6.1544e-06	6.122e-06	1372.9	373.84	6.1754e-06	6.0067e-06	426.84	142.85	124.48	42.867	6.0431e-06	53.104	-53.864	-85.912	-57.449	-158.228	-27.038	-25.352	-158.247	-153.680	-5.447	-37.937	-153.994	-149.779	-149.366	-144.541	-3.639	-145.508	-8191	255	
39401.863	1	1	0	0	0.070264	0.19092	0.066128	0.1676	0.10862	0.09665	0.24959	0.26559	0.21925	0.1862	0.12458	0.14799	0.1866	0.30943	0.29141	0.19861	-3.9542	-4.7854	-4.3083	-4.8083	-4.8271	-4.2188	-4.8833	-4.7854	-4.2729	-4.8458	-4.6375	-4.5708	-4.7604	-4.2667	-4.6875	-4.6188	120.336	-27.408	-140.131	-124.686	-3.996	-27.438	129.013	159.815	116.406	-42.850	165.925	-137.556	156.899	-129.251	181.150	161.781	0.00067178	0.00018803	0.00016981	1354.9	6.6515e-06	6.2576e-06	1354.4	366.57	4.3927e-06	3.8869e-06	417.95	140.03	121.39	41.666	2.7579e-06	51.415	0.00056376	0.00055087	0.0001518	1376.5	6.1702e-06	6.1171e-06	1375.1	373.61	6.0296e-06	6.0563e-06	427.24	143.05	124.13	42.829	6.0467e-06	53.069	-54.497	-105.734	-67.841	-158.231	-40.511	-23.575	-158.233	-153.512	2.005	-18.561	-154.021	-149.582	-149.072	-144.704	-26.896	-145.513	-8191	255	
39401.961	1	1	0	0	0.07795	0.17219	0.098577	0.10041	0.12068	0.21873	0.32074	0.23076	0.12145	0.20119	0.17231	0.17082	0.33362	0.19161	0.273	0.1294	-3.9875	-4.7937	-4.4187	-4.7312	-4.9979	-4.2292	-4.9396	-4.8583	-4.2917	-4.8417	-4.6042	-4.5917	-4.9458	-4.3729	-4.6833	-4.7729	30.769	-38.983	2.584	-154.777	124.046	-67.490	91.639	100.062	17.777	-148.127	155.698	-138.669	131.490	107.007	145.680	135.709	0.00069009	0.00044467	0.00011524	1357.5	9.9542e-06	3.1122e-06	1353.7	365.84	7.544e-06	3.2615e-06	418.88	140.23	121.61	41.691	5.4425e-06	51.381	0.00057795	0.00056074	0.00015558	1380.5	6.0459e-06	6.1935e-06	1377.2	374.15	6.2581e-06	6.1897e-06	427.74	143.27	124.25	42.862	6.046e-06	53.008	-50.379	-62.182	-98.001	-158.177	-49.716	12.482	-158.389	-153.597	-11.547	-81.236	-154.294	-150.053	-149.156	-144.655	-16.677	-145.533	-8191	255	
39402.078	1	1	0	0	0.041362	0.084747	0.15836	0.1156	0.16815	0.047566	0.29525	0.3439	0.21117	0.040819	0.11537	0.093467	0.4665	0.07615	0.031819	0.19186	-3.9938	-5.0125	-4.5021	-4.6083	-4.8688	-4.375	-4.6333	-5.1083	-4.2917	-4.8875	-4.6417	-4.325	-4.9313	-4.5042	-4.6062	-4.8854	-11.477	150.485	-88.325	89.805	107.665	70.135	116.976	116.904	140.625	54.488	86.854	-153.100	126.365	-146.685	-91.560	100.399	0.00069328	0.00035809	0.00012104	1357.6	6.4455e-06	5.0966e-06	1354	368.3	5.472e-06	5.8391e-06	417.55	140.35	121.34	41.528	4.6208e-06	51.186	0.00058445	0.00055973	0.00015732	1379.8	6.1117e-06	6.1783e-06	1377.6	374.64	6.1305e-06	6.1018e-06	427.48	143.14	124.38	42.838	6.1807e-06	53.061	-50.537	-87.007	-38.258	-158.027	-64.784	-40.765	-158.219	-153.604	-3.091	-46.930	-153.968	-149.620	-149.186	-144.678	-40.531	-145.276	-8191	255	
39402.176	1	1	0	0	0.16287	0.13544	0.13682	0.19746	0.075879	0.069121	0.12038	0.2312	0.18971	0.14816	0.11675	0.16308	0.039794	0.17559	0.19742	0.085039	-3.8167	-4.7083	-4.4167	-4.5521	-4.9646	-4.5479	-4.7042	-4.9583	-4.3396	-4.575	-4.8521	-4.4979	-4.9125	-4.4208	-4.45	-4.8875	26.626	21.871	101.193	174.667	-64.021	128.741	94.625	175.985	87.016	99.334	72.753	-151.477	-97.042	149.244	3.922	135.056	0.00071293	0.00057173	0.00016927	1359.2	7.8138e-06	2.0474e-06	1358.4	367.51	7.4257e-06	2.2934e-06	418.93	140.68	122.02	41.714	7.4548e-06	51.683	0.00058974	0.00055891	0.00015775	1382.2	6.1869e-06	6.1998e-06	1378.4	374.95	6.2162e-06	6.0926e-06	428.19	143.41	124.62	42.934	6.0949e-06	53.203	-52.419	-102.822	-86.502	-158.054	-15.106	11.628	-158.286	-153.528	-38.824	-52.960	-154.230	-149.885	-149.235	-144.528	-52.366	-145.372	-8191	255	
39402.273	1	1	0	0	0.15471	0.24602	0.23275	0.34023	0.1143	0.14236	0.063794	0.37387	0.14753	0.13242	0.13869	0.094025	0.070108	0.10207	0.1975	0.10571	-3.8958	-4.5979	-4.6438	-4.2188	-4.7438	-4.4292	-4.6458	-5.0542	-4.2	-4.5938	-4.7542	-4.2958	-4.9854	-4.4396	-4.3333	-4.8646	177.431	-24.968	100.535	187.330	-23.367	106.491	101.085	153.180	23.909	125.970	177.004	114.325	135.761	37.874	18.548	156.054	0.00070177	0.00047706	0.00011857	1356.2	9.4695e-06	4.7752e-06	1358.7	366.97	4.5824e-06	2.8677e-07	419.96	140.07	121.73	41.683	4.3767e-06	51.35	0.00058756	0.00057389	0.00015833	1380.7	6.038e-06	6.0687e-06	1379.7	374.99	6.0516e-06	6.2339e-06	428.2	143.17	124.7	42.921	6.1947e-06	53.072	-55.839	-67.612	-104.909	-158.163	-41.923	-13.842	-158.237	-153.761	10.130	-77.742	-154.258	-149.678	-149.265	-144.476	-18.950	-145.352	-8191	255	
39402.367	1	1	0	0	0.12766	0.20281	0.27138	0.22777	0.15574	0.27015	0.19559	0.21866	0.14902	0.15444	0.10176	0.22935	0.13995	0.17033	0.092542	0.15409	-3.9854	-4.5604	-4.6625	-4.5625	-4.7917	-4.5479	-4.5208	-4.9417	-4.4	-4.5396	-4.7479	-4.2729	-4.7667	-4.6062	-4.2562	-5.0312	-103.027	13.744	63.827	159.403	62.583	119.432	182.459	91.031	-109.784	97.718	-78.502	133.593	158.943	80.153	-5.553	121.952	0.00069883	0.00040105	0.00019396	1357.5	7.5792e-06	3.5458e-06	1361.9	368.3	5.597e-06	6.3606e-06	419.21	139.79	121.89	41.771	6.2105e-06	51.499	0.0005856	0.00055967	0.00015837	1380.5	6.1751e-06	6.2606e-06	1378.9	375.03	6.2672e-06	6.264e-06	427.81	143.06	124.61	42.897	6.2339e-06	53.035	-52.254	-88.610	-85.946	-158.262	-29.756	-22.492	-158.268	-153.673	-6.643	-18.445	-154.197	-149.742	-149.026	-144.576	-39.428	-145.541	-8191	255	
39402.465	1	1	0	0	0.12785	0.26364	0.043124	0.29871	0.16511	0.18797	0.1544	0.11417	0.15296	0.17065	0.060247	0.036058	0.011519	0.25464	0.063651	0.2786	-4.0625	-4.5854	-4.8313	-4.4458	-4.7792	-4.7125	-4.4437	-4.9021	-4.4375	-4.4021	-4.9875	-4.2125	-4.6229	-4.9	-4.2438	-4.8354	-89.457	-25.625	-165.398	182.252	-153.687	-93.610	174.814	136.783	104.527	47.487	135.175	21.186	139.796	-140.184	143.928	145.587	0.00068046	0.00070344	0.00021555	1358.5	8.1911e-06	4.5032e-06	1357.5	367.07	2.5273e-06	7.578e-06	419.87	140.4	121.58	41.648	6.3418e-06	51.434	0.00059509	0.00056805	0.00015602	1382.4	6.2673e-06	6.2854e-06	1378.8	374.8	6.1599e-06	6.2995e-06	428.18	143.22	124.46	42.932	6.3507e-06	53.133	-52.290	-57.143	-22.785	-158.202	-36.056	-61.595	-158.250	-153.577	-4.268	-28.570	-154.213	-149.954	-149.303	-144.673	4.824	-145.365	-8191	255	
39402.559	1	1	0	0	0.077433	0.10647	0.040142	0.36838	0.089197	0.061332	0.15087	0.18352	0.10631	0.063281	0.18254	0.2002	0.23923	0.11471	0.22093	0.11584	-4.0958	-4.3167	-4.8	-4.5	-4.6438	-4.7562	-4.4208	-4.8583	-4.4417	-4.4271	-4.8708	-4.5104	-4.5875	-4.7917	-4.2375	-4.8521	7.928	147.165	19.600	117.075	-39.995	-9.812	118.198	60.772	-168.041	-29.644	119.748	-163.892	-122.427	134.136	-124.384	14.353	0.00070487	0.0009402	0.00018744	1356.4	1.2215e-05	2.4681e-06	1364.7	367.57	9.5455e-06	4.3624e-06	420.43	140.23	122.18	41.65	6.2703e-06	51.604	0.0005993	0.0005767	0.00015565	1380.5	6.267e-06	6.2029e-06	1380.9	374.99	6.3276e-06	6.4543e-06	429.42	143.35	124.61	42.918	6.3229e-06	53.136	-53.474	-118.734	-65.658	-158.175	-22.760	-39.688	-158.292	-153.639	6.696	-12.745	-154.000	-149.804	-149.123	-144.694	-59.204	-145.243	-8191	255	
39402.680	1	1	0	0	0.32144	0.092344	0.030428	0.30539	0.089223	0.19694	0.38189	0.17785	0.14094	0.12735	0.078211	0.32682	0.20832	0.16349	0.20123	0.16007	-4.2188	-4.3458	-4.7396	-4.4938	-4.4875	-4.7292	-4.3	-4.8063	-4.5646	-4.3313	-4.8667	-4.4187	-4.6125	-4.8604	-4.3271	-4.6792	59.942	-95.622	-141.552	163.047	-145.689	170.113	132.483	155.656	-24.438	-82.100	170.770	104.866	183.312	-7.563	-85.835	136.854	0.00066964	0.00041018	0.00016965	1358.7	6.456e-06	3.0629e-06	1356.3	367.85	5.5652e-06	5.7424e-06	419.58	139.57	122.13	41.706	5.7131e-06	51.477	0.0006095	0.00059747	0.00015962	1382.4	6.4308e-06	6.3344e-06	1378.3	375.2	6.3619e-06	6.4657e-06	428.43	143.37	124.91	42.911	6.3114e-06	53.101	-52.884	-92.635	-78.869	-158.147	-56.492	-61.855	-158.238	-153.749	-16.707	7.350	-154.095	-149.786	-149.356	-144.351	-18.336	-145.500	-8191	255	
39402.773	1	1	0	0	0.13771	0.018745	0.14489	0.2647	0.14665	0.20629	0.25083	0.093691	0.17059	0.047475	0.17109	0.082937	0.03573	0.20163	0.14381	0.15481	-4.3438	-4.1917	-4.775	-4.5792	-4.3458	-4.8958	-4.5833	-4.7104	-4.525	-4.2229	-5.0875	-4.7146	-4.4521	-4.7542	-4.1937	-4.7958	136.514	87.983	-47.453	117.080	-60.030	132.245	98.167	152.628	60.915	110.953	15.655	-148.443	3.858	-138.806	41.663	-41.361	0.00065882	0.00052867	8.6859e-05	1361.6	7.251e-06	4.0833e-06	1359.3	368.05	4.0798e-06	4.1297e-06	420.66	140.43	122.04	41.727	5.5769e-06	51.458	0.00059507	0.00057618	0.00015601	1383.5	6.3876e-06	6.3077e-06	1380.9	375.41	6.3802e-06	6.2917e-06	428.77	143.33	124.61	42.972	6.3168e-06	53.134	-59.048	-57.315	-45.924	-158.259	-50.042	16.364	-158.323	-153.512	-27.799	-28.595	-154.116	-149.661	-149.392	-144.525	-36.501	-145.644	-8191	255	
39402.871	1	1	0	0	0.19238	0.20436	0.10017	0.38047	0.05987	0.072905	0.25839	0.26546	0.10061	0.16109	0.2012	0.18328	0.14161	0.13961	0.17773	0.1883	-4.35	-4.2396	-4.7271	-4.6583	-4.2583	-4.6958	-4.5417	-4.6146	-4.7625	-4.2958	-4.7979	-4.4125	-4.4479	-4.8292	-4.325	-4.5583	-5.508	173.840	18.247	183.986	-132.234	-129.940	143.410	125.026	173.538	-100.938	159.908	131.670	159.084	171.209	-108.835	-89.296	0.00065992	0.00065145	0.0001783	1360.6	5.6186e-06	4.3974e-06	1366.3	366.8	4.2952e-06	5.4027e-06	418.95	140.66	122	41.668	6.6106e-06	51.395	0.0005878	0.00057408	0.00015965	1384.1	6.3853e-06	6.3342e-06	1382.9	374.77	6.3349e-06	6.2259e-06	428.84	143.42	124.63	42.962	6.2684e-06	53.054	-54.516	-65.688	-55.388	-158.343	-58.306	-26.444	-158.438	-153.649	-6.266	-11.654	-154.258	-149.684	-149.184	-144.689	-42.201	-145.454	-8191	255	
39402.941	1	1	0	0	0.26654	0.16375	0.11765	0.22951	0.15497	0.087297	0.26212	0.072855	0.11241	0.070766	0.060272	0.20886	0.28198	0.29074	0.15979	0.19771	-4.3187	-4.2688	-4.6125	-4.6417	-4.2167	-4.8396	-4.5292	-4.7479	-4.7229	-4.15	-4.6833	-4.7312	-4.1562	-4.8	-4.2688	-4.5354	-162.942	144.436	164.961	167.264	-39.199	63.319	161.341	-153.033	-116.207	-105.993	-13.037	180.420	177.284	145.371	-49.986	63.533	0.0006961	0.0001961	0.00026797	1362.1	1.07e-05	3.9948e-06	1356.7	368.44	7.1122e-06	3.8539e-06	419.56	140.25	122.01	41.876	5.5048e-06	51.537	0.0005919	0.00057279	0.00016074	1384.3	6.3298e-06	6.2228e-06	1381.7	375.4	6.3299e-06	6.2697e-06	429.4	143.31	124.69	42.983	6.286e-06	53.145	-46.235	-95.656	-59.069	-158.285	-34.571	-27.253	-158.351	-153.665	-17.091	-27.496	-154.111	-149.773	-149.281	-144.616	-34.937	-145.745	-8191	255	
39403.062	1	1	0	0	0.17158	0.087005	0.24815	0.1371	0.18851	0.20122	0.13359	0.30522	0.022569	0.1761	0.10684	0.31376	0.13766	0.16887	0.14125	0.099666	-4.3729	-4.2667	-4.6729	-4.7917	-4.2708	-4.8313	-4.6687	-4.4354	-4.9062	-4.2125	-4.6833	-4.7688	-4.2	-4.8125	-4.5542	-4.4896	-71.651	104.618	147.094	134.887	39.560	124.981	133.487	93.915	-55.106	43.423	2.512	149.180	-141.029	-115.792	102.563	-27.066	0.00067682	0.00026657	0.00018216	1360.9	7.5252e-06	4.0759e-06	1361.2	369.04	4.7019e-06	5.5122e-06	419.93	140.27	121.64	41.964	4.8389e-06	51.591	0.00058978	0.00056989	0.00015967	1385.1	6.1775e-06	6.2455e-06	1383.8	375.83	6.1891e-06	6.1857e-06	428.78	143.48	124.7	43.023	6.3366e-06	53.231	-54.709	-93.034	-55.690	-158.170	-37.798	-16.143	-158.210	-153.523	-15.941	21.093	-154.260	-149.820	-149.340	-144.764	-18.113	-145.538	-8191	255	
39403.160	1	1	0	0	0.18178	0.15475	0.19633	0.10611	0.37098	0.16098	0.18691	0.14218	0.021908	0.061967	0.16596	0.034676	0.14446	0.14269	0.23832	0.082406	-4.5042	-4.1792	-4.6396	-4.8917	-4.1813	-4.7312	-4.725	-4.4417	-4.8125	-4.4208	-4.6292	-4.7729	-4.2208	-4.6292	-4.5583	-4.2271	-93.423	-72.670	119.025	104.810	-88.528	-149.464	120.506	153.704	100.331	85.782	-141.024	171.357	164.039	167.186	65.813	1.170	0.00068087	0.00023101	0.00019885	1360	7.5188e-06	1.9416e-06	1358.1	367.73	2.1455e-06	2.3593e-06	418.8	140.47	122.42	41.591	8.1615e-06	51.466	0.00058363	0.00056648	0.00015746	1384.9	6.2791e-06	6.2313e-06	1383.4	375.49	6.1413e-06	6.3754e-06	428.86	143.08	124.78	42.943	6.2982e-06	53.086	-52.566	-97.581	-61.776	-158.221	-46.614	-22.001	-158.320	-153.596	-66.747	-34.790	-154.159	-149.781	-149.314	-144.737	-5.925	-145.525	-8191	255	
39403.258	1	1	0	0	0.069067	0.20981	0.052339	0.18511	0.2177	0.15038	0.13646	0.1595	0.184	0.017599	0.13555	0.10649	0.12623	0.11469	0.13171	0.16297	-4.5563	-4.3792	-4.3729	-4.9375	-4.1208	-4.7583	-4.8479	-4.4146	-4.8667	-4.3375	-4.4833	-4.9771	-4.2896	-4.5521	-4.5938	-4.4625	39.639	173.416	-128.559	95.250	101.656	-72.773	94.930	104.811	-94.417	168.311	151.277	8.259	-170.856	-136.375	151.529	-151.878	0.00063687	0.00022882	9.3532e-05	1360.8	7.0663e-06	5.2783e-06	1363.9	368.47	7.1917e-06	5.876e-06	422.21	139.94	122.44	41.706	5.7083e-06	51.469	0.00058375	0.00056985	0.00015837	1385.7	6.428e-06	6.2746e-06	1382.7	375.69	6.3077e-06	6.2018e-06	429.85	143.51	124.81	42.977	6.2635e-06	53.15	-52.429	-66.755	-50.837	-158.208	-48.767	-6.836	-158.415	-153.553	-11.479	-26.799	-154.143	-149.777	-149.249	-144.662	-10.908	-145.413	-8191	255	
39403.352	1	1	0	0	0.10599	0.051629	0.18851	0.16021	0.05816	0.074013	0.25335	0.23519	0.323	0.30655	0.10611	0.22637	0.064783	0.27334	0.17438	0.023879	-4.3917	-4.2688	-4.4417	-4.9771	-4.0813	-4.4521	-4.7875	-4.2854	-4.8208	-4.3187	-4.4812	-4.8542	-4.45	-4.5729	-4.7167	-4.425	119.176	4.301	93.758	177.203	-24.029	114.661	132.175	150.419	113.215	148.880	-56.071	179.691	-122.356	124.144	43.244	-84.297	0.00070416	0.00040364	0.00023541	1359.2	1.1638e-05	4.7653e-06	1362	368	5.0335e-06	5.1439e-06	420.78	140.82	121.78	41.68	4.7419e-06	51.445	0.00058927	0.00058168	0.00016123	1384.1	6.3548e-06	6.3501e-06	1383.3	375.27	6.3726e-06	6.3289e-06	429.25	143.5	124.95	42.935	6.3336e-06	53.161	-55.051	-88.470	-82.136	-158.372	-22.625	-58.202	-158.590	-153.520	-8.472	-50.594	-154.225	-149.782	-149.415	-144.410	-29.949	-145.728	-8191	255	
39403.473	1	1	0	0	0.10244	0.068416	0.27739	0.16304	0.050619	0.20461	0.14153	0.094753	0.032942	0.33363	0.30865	0.085116	0.22091	0.28814	0.074103	0.16661	-4.3187	-4.3896	-4.375	-5.0229	-4.3708	-4.5167	-5.0104	-4.4958	-4.6042	-4.5854	-4.5146	-4.9542	-4.4042	-4.4042	-4.6854	-4.1833	159.997	-96.055	-120.886	177.177	-88.681	-117.676	111.909	-134.545	57.125	6.176	166.671	141.262	105.744	-122.994	103.458	126.573	0.00068416	0.0004476	0.00011399	1362.9	5.8124e-06	6.0687e-06	1361.7	367.58	6.7719e-06	4.4315e-06	418.31	140.46	121.76	41.695	7.0248e-06	51.387	0.00058938	0.00057913	0.00016008	1386.6	6.2791e-06	6.217e-06	1384	375.17	6.3342e-06	6.281e-06	429.09	143.42	124.77	42.948	6.2001e-06	53.086	-48.867	-95.938	-92.784	-158.221	-1.722	-15.323	-158.641	-153.687	-1.258	-44.603	-154.263	-149.562	-149.137	-144.674	-45.996	-145.344	-8191	255	
39403.543	1	1	0	0	0.11546	0.16156	0.029437	0.099959	0.067085	0.32394	0.2519	0.11283	0.29356	0.20582	0.17934	0.11114	0.038784	0.26723	0.055338	0.08665	-4.3063	-4.5229	-4.3625	-5.0146	-4.4917	-4.3333	-4.7417	-4.2875	-4.6104	-4.6937	-4.3167	-4.7979	-4.4896	-4.4792	-4.7167	-4.2979	93.599	-150.225	49.442	130.491	-11.417	80.072	137.195	-140.534	8.695	-26.486	131.552	26.081	-149.758	115.616	63.401	137.993	0.00065905	0.00072626	0.00013414	1362.2	7.4579e-06	7.8156e-06	1359.9	369.14	3.772e-06	2.6063e-06	419.52	140.81	121.9	41.622	5.6104e-06	51.594	0.00058561	0.00058154	0.00015995	1385.7	6.3426e-06	6.286e-06	1382.9	375.61	6.1897e-06	6.1622e-06	429.31	143.62	124.61	42.897	6.1807e-06	53.106	-51.110	-54.337	-50.769	-158.074	-44.781	-19.563	-158.372	-153.837	-6.536	12.063	-154.009	-149.710	-149.082	-144.740	-41.713	-145.529	-8191	255	
39403.641	1	1	0	0	0.13413	0.1096	0.18579	0.15884	0.24124	0.079046	0.26197	0.086974	0.15713	0.17759	0.11505	0.2211	0.31565	0.26792	0.12552	0.084467	-4.3479	-4.7167	-4.0771	-5.0312	-4.5458	-4.3688	-4.9563	-4.4646	-4.4458	-4.7396	-4.2688	-4.7667	-4.675	-4.2729	-4.7583	-4.2854	11.888	-141.671	91.425	29.733	-54.996	90.843	142.513	156.453	138.230	-160.359	-146.392	-161.567	132.325	164.705	-82.080	185.553	0.00063852	0.00024127	0.00015072	1361.9	4.9895e-06	4.1626e-06	1363.7	368.36	8.7366e-06	4.1315e-06	420.76	140.09	123.02	41.695	6.5633e-06	51.526	0.00058751	0.00055793	0.0001593	1384.2	6.2675e-06	6.2262e-06	1383.4	375.47	6.2053e-06	6.1848e-06	429.07	143.24	125.05	42.923	6.226e-06	53.137	-54.537	-94.297	-63.064	-158.204	-90.058	-29.313	-158.363	-153.539	-16.753	-33.697	-154.145	-149.683	-149.444	-144.656	-25.350	-145.407	-8191	255	
39403.762	1	1	0	0	0.15701	0.12096	0.14636	0.32483	0.19121	0.156	0.33089	0.21745	0.21432	0.2656	0.12896	0.20765	0.089133	0.2547	0.043328	0.14348	-4.2333	-4.7688	-4.1	-4.8375	-4.5583	-4.3042	-4.9104	-4.6292	-4.5083	-4.7646	-4.2104	-4.7417	-4.6646	-4.3958	-4.7854	-4.2021	79.238	76.884	118.945	164.077	89.928	-165.567	110.345	90.257	-7.218	-13.569	108.469	-169.243	-122.650	-141.081	172.199	119.682	0.00068259	0.00052011	0.00021297	1363.7	1.2397e-05	5.3458e-06	1362.1	366.5	6.3796e-06	5.9983e-06	420.83	140.95	122.37	41.564	2.7403e-06	51.553	0.00059101	0.00056864	0.00015804	1385.7	6.2416e-06	6.1727e-06	1384.3	375.08	6.1794e-06	6.2186e-06	428.98	143.63	124.72	42.91	6.2906e-06	53.16	-50.788	-55.932	-92.190	-158.177	-17.437	-7.477	-158.307	-153.479	-5.237	-40.109	-154.083	-149.950	-149.279	-144.506	-51.925	-145.749	-8191	255	
39403.855	1	1	0	0	0.17275	0.0037089	0.11754	0.21744	0.038155	0.077946	0.28889	0.26044	0.24509	0.090638	0.25052	0.15718	0.27738	0.18561	0.065002	0.22338	-4.1813	-4.7333	-4.1917	-4.7312	-4.6979	-4.2771	-4.925	-4.4979	-4.3896	-4.8854	-4.4771	-4.8292	-4.6792	-4.2375	-4.7083	-4.5729	26.279	24.092	88.819	151.865	-31.090	-22.483	116.571	149.588	-100.424	-45.196	95.280	130.510	139.906	175.138	-109.177	126.534	0.00067891	0.0006056	8.6051e-05	1363.5	8.4585e-06	4.779e-06	1362.6	367.97	7.6805e-06	4.0479e-06	421.02	140.62	121.67	41.769	6.6829e-06	51.531	0.000585	0.00056531	0.00015988	1385.3	6.2779e-06	6.2231e-06	1384.2	375.12	6.302e-06	6.0584e-06	428.99	143.74	124.65	43.008	6.2896e-06	53.128	-53.513	-62.544	-68.685	-158.238	-53.983	-58.322	-158.429	-153.651	19.170	-11.567	-153.917	-149.858	-149.082	-144.586	-9.531	-145.398	-8191	255	
39403.953	1	1	0	0	0.052329	0.24739	0.28175	0.25004	0.1642	0.13752	0.17639	0.3829	0.15325	0.15102	0.11047	0.081577	0.094311	0.095575	0.3052	0.23328	-3.9604	-4.9146	-4.1833	-4.6625	-4.75	-4.3313	-5.0125	-4.6521	-4.3167	-4.8479	-4.5271	-4.4979	-4.7271	-4.3208	-4.7312	-4.6062	31.938	-47.977	-39.100	186.703	37.403	-35.430	125.349	-131.876	41.493	164.679	77.004	-9.762	82.368	-127.603	-146.740	115.494	0.00069599	0.00046979	0.0002028	1360.7	6.8141e-06	4.9994e-06	1362.5	368.15	6.1303e-06	2.1026e-06	422.22	140.58	121.62	41.766	3.3852e-06	51.494	0.00058664	0.00056462	0.00016142	1384.2	6.2374e-06	6.278e-06	1383.1	375.63	6.3095e-06	6.2044e-06	429.37	143.65	124.71	42.917	6.3393e-06	53.27	-50.573	-69.017	-53.376	-158.311	-7.408	-41.074	-158.439	-153.529	21.674	-47.928	-154.028	-149.872	-149.151	-144.768	-65.827	-145.415	-8191	255	
39404.070	1	1	0	0	0.085836	0.10901	0.15525	0.12147	0.14673	0.26385	0.10355	0.19739	0.020412	0.068888	0.14627	0.17015	0.24724	0.31487	0.13391	0.042974	-4.0208	-4.8979	-4.3333	-4.7292	-4.6521	-4.1271	-4.8021	-4.7292	-4.2917	-4.8542	-4.525	-4.5437	-4.9625	-4.3875	-4.6375	-4.6312	124.372	122.505	4.852	171.569	-125.052	-95.790	150.407	106.525	91.853	-66.617	157.148	-117.112	133.881	184.437	47.846	97.936	0.00062946	0.00037842	0.00015063	1359.7	7.4517e-06	7.4271e-07	1364.3	367.02	8.0686e-06	2.8585e-06	419.87	140.01	122.12	41.667	7.5933e-06	51.464	0.00058153	0.00057475	0.00015939	1386.3	6.195e-06	6.3028e-06	1384.5	375.13	6.1884e-06	6.3556e-06	429.53	143.57	124.69	42.883	6.2035e-06	53.101	-46.478	-96.484	-33.678	-158.180	-45.886	-3.185	-158.338	-153.553	-9.347	-27.512	-154.014	-149.719	-149.445	-144.340	-25.406	-145.517	-8191	255	
39404.168	1	1	0	0	0.18681	0.12876	0.16905	0.28192	0.18316	0.12329	0.273	0.26778	0.24345	0.010629	0.18098	0.27335	0.24764	0.22986	0.17303	0.076364	-3.8667	-4.8146	-4.4062	-4.4979	-4.7125	-4.3	-4.9187	-4.8	-4.3396	-4.7937	-4.6708	-4.4437	-4.8604	-4.4521	-4.6354	-4.6917	-142.584	-56.206	136.271	137.995	-133.645	-5.580	124.133	150.984	21.559	-136.519	-156.344	3.071	168.270	-127.939	87.862	169.332	0.00066498	0.00056812	0.0002562	1360.9	6.8108e-06	6.6835e-06	1359.8	367.95	3.3773e-06	6.0038e-06	419.27	140.48	121.84	41.65	5.4635e-06	51.53	0.00059008	0.00057045	0.00015812	1384.7	6.119e-06	6.39e-06	1382.9	375.31	6.2806e-06	6.2754e-06	429.17	143.54	124.86	42.889	6.1726e-06	53.144	-52.051	-102.521	-66.520	-158.264	-40.269	25.353	-158.427	-153.769	8.986	-71.378	-153.958	-149.934	-149.377	-144.698	-15.845	-145.376	-8191	255	
39404.238	1	1	0	0	0.074052	0.12361	0.12052	0.18978	0.22825	0.28777	0.12041	0.27356	0.10405	0.20285	0.23871	0.21491	0.16184	0.070269	0.25247	0.15729	-3.8146	-4.7771	-4.2562	-4.5667	-4.7021	-4.3146	-4.7667	-4.9375	-4.1896	-4.5687	-4.7375	-4.4375	-4.8979	-4.4417	-4.5771	-4.7646	18.459	-51.652	-76.354	-163.654	124.227	-36.077	182.972	88.780	18.169	-77.543	176.460	136.102	-57.179	135.091	-54.694	65.552	0.00068378	0.00041591	0.00021292	1364	7.9711e-06	2.2981e-07	1361.3	368.08	5.4092e-06	5.6012e-06	419.82	140.35	121.71	41.658	7.5649e-06	51.496	0.00058586	0.00056571	0.00015703	1386.2	6.2342e-06	6.2401e-06	1383.4	375.51	6.3306e-06	6.2254e-06	429.22	143.62	124.72	42.953	6.1952e-06	53.204	-51.783	-76.303	-75.089	-158.034	-53.343	-27.630	-158.542	-153.624	-8.096	-18.422	-154.069	-149.797	-149.328	-144.486	-44.271	-145.624	-8191	255	
39404.359	1	1	0	0	0.036441	0.16361	0.015591	0.18145	0.011836	0.085521	0.15274	0.10297	0.21389	0.23641	0.12436	0.1913	0.064088	0.1122	0.036736	0.073564	-3.8208	-4.7104	-4.5625	-4.2292	-4.8229	-4.325	-4.5896	-4.8958	-4.2708	-4.8958	-4.9083	-4.3354	-4.9812	-4.6208	-4.4563	-4.8729	4.179	148.667	-81.644	-168.657	-100.265	158.955	149.634	159.839	89.639	-61.089	54.774	152.010	184.578	141.293	-153.864	59.476	0.00064306	0.00056581	0.00018465	1363.8	8.2452e-06	3.592e-06	1368.4	368.55	3.6529e-06	6.1742e-06	419.66	140.39	122.69	41.76	3.3019e-06	51.397	0.0005972	0.00057495	0.00015954	1387.1	6.2255e-06	6.4103e-06	1385.8	375.65	6.2979e-06	6.3255e-06	429.1	143.38	125.13	43.027	6.2917e-06	53.191	-55.444	-86.332	-96.499	-158.121	-21.362	-46.028	-158.436	-153.603	-14.370	-19.214	-154.300	-149.565	-149.277	-144.824	-36.102	-145.458	-8191	255	
39404.457	1	1	0	0	0.24858	0.056197	0.13362	0.16691	0.040239	0.20609	0.49124	0.11729	0.13798	0.14175	0.26368	0.205	0.18108	0.13116	0.30468	0.13897	-3.9667	-4.5563	-4.7375	-4.5271	-4.8042	-4.5375	-4.4708	-4.975	-4.4854	-4.5896	-4.9083	-4.2167	-4.7771	-4.6542	-4.3646	-5.0583	183.942	161.226	29.497	164.008	40.686	-41.768	115.645	143.962	-167.579	-164.211	-65.228	-132.373	187.549	129.833	83.838	89.083	0.00074029	0.00069963	0.00011216	1362.9	7.7069e-06	5.374e-06	1365.5	368.31	4.8237e-06	2.4257e-06	421.71	140.79	121.96	41.806	9.5721e-06	51.654	0.00060034	0.00057592	0.00015723	1387.2	6.295e-06	6.2878e-06	1386.8	375.53	6.4261e-06	6.3074e-06	429.44	143.67	124.47	43.017	6.175e-06	53.19	-52.267	-91.089	-79.025	-158.186	-56.437	-21.708	-158.476	-153.583	0.379	40.166	-154.230	-149.863	-149.223	-144.642	-12.058	-145.642	-8191	255	
39404.555	1	1	0	0	0.16146	0.15599	0.093063	0.064949	0.12443	0.19529	0.27452	0.19857	0.13446	0.16435	0.2664	0.17268	0.16186	0.18777	0.11683	0.14468	-3.9938	-4.3021	-4.6792	-4.3	-4.5979	-4.5917	-4.5521	-4.9417	-4.2208	-4.4667	-4.7625	-4.2708	-4.8562	-4.6958	-4.1729	-4.8271	25.266	-96.275	82.837	-146.058	-6.872	16.980	148.766	108.972	-91.813	141.161	153.649	101.959	-168.081	171.920	140.520	99.176	0.00067735	0.00052264	0.00010471	1361.1	5.2591e-06	4.1856e-06	1365.8	368.06	7.4005e-06	5.0971e-06	420.99	140.09	122.06	41.829	2.2529e-06	51.472	0.00059771	0.0005717	0.00015641	1386.6	6.213e-06	6.2333e-06	1385.7	375.37	6.4294e-06	6.2688e-06	429.66	143.52	124.86	42.949	6.2137e-06	53.091	-49.039	-78.055	-75.006	-158.153	-63.918	-19.784	-158.318	-153.505	-21.735	16.152	-154.150	-149.912	-149.115	-144.384	-13.911	-145.396	-8191	255	
39404.648	1	1	0	0	0.10018	0.12282	0.31816	0.037435	0.10852	0.15829	0.1846	0.19393	0.26289	0.33988	0.33047	0.39274	0.18461	0.11561	0.34333	0.090723	-3.9521	-4.3646	-4.7562	-4.3771	-4.8104	-4.6896	-4.4021	-4.9146	-4.4938	-4.4187	-4.8271	-4.3396	-4.6167	-4.5417	-4.1562	-4.8271	53.329	-60.525	-58.771	-138.849	-130.264	1.260	160.012	180.803	106.921	-66.522	183.290	150.417	164.950	-80.044	-146.452	-28.260	0.00067395	0.00050793	0.0002243	1363.9	9.2015e-06	5.4388e-06	1364.6	367.94	4.1233e-06	6.2624e-06	421.05	140.36	121.85	41.808	4.3815e-06	51.522	0.00059331	0.00058221	0.0001602	1388.1	6.4181e-06	6.1992e-06	1385.7	375.4	6.3232e-06	6.4098e-06	429.48	143.41	124.88	43.017	6.3409e-06	53.165	-47.082	-49.872	-80.633	-158.169	-29.753	-15.432	-158.484	-153.755	16.765	-35.794	-153.981	-149.866	-149.156	-144.720	-48.168	-145.296	-8191	255	
39404.742	1	1	0	0	0.055424	0.10791	0.26556	0.19717	0.18558	0.17426	0.13533	0.13024	0.13398	0.14571	0.23866	0.13201	0.16791	0.18972	0.20399	0.18222	-4.1021	-4.2354	-4.6042	-4.4479	-4.4292	-4.6521	-4.5083	-4.7458	-4.4563	-4.2625	-4.925	-4.2625	-4.5625	-4.6604	-4.1521	-4.7021	25.466	116.735	31.171	165.454	-152.324	-70.530	157.378	107.309	17.137	110.610	145.135	-64.352	-134.776	163.291	120.609	170.773	0.00072779	0.00040981	0.00015411	1366.9	1.2736e-05	3.6601e-06	1361.6	368.8	1.0401e-05	3.2649e-06	419.06	140.52	121.65	41.665	7.9827e-06	51.478	0.00059596	0.00056916	0.00016178	1387.8	6.3961e-06	6.2133e-06	1384.5	375.72	6.326e-06	6.3134e-06	428.6	143.69	124.75	42.999	6.4072e-06	53.15	-46.615	-43.856	-67.698	-158.086	-38.703	-36.627	-158.330	-153.732	-20.359	-31.952	-154.379	-149.802	-149.321	-144.751	-12.720	-145.443	-8191	255	
39404.840	1	1	0	0	0.21442	0.038216	0.067068	0.13182	0.18906	0.16958	0.087933	0.10451	0.29239	0.19705	0.18666	0.115	0.1993	0.23618	0.037366	0.17818	-4.2208	-4.2667	-4.8688	-4.5229	-4.5854	-4.7667	-4.4208	-4.8396	-4.5833	-4.2333	-4.9958	-4.3604	-4.425	-4.8729	-4.3875	-4.7708	-138.969	157.603	136.174	166.810	62.995	-111.826	94.077	141.728	113.744	-3.745	74.833	160.412	174.043	128.309	-107.392	135.549	0.00068972	0.00051406	0.00014292	1365.6	4.118e-06	4.6957e-06	1362.1	369.12	7.781e-06	6.2265e-06	417.74	140.71	122.4	41.709	6.7511e-06	51.595	0.00059102	0.00058094	0.00016041	1387.5	6.3356e-06	6.263e-06	1385.4	375.88	6.2889e-06	6.4393e-06	428.73	143.63	125.08	42.961	6.4319e-06	53.167	-49.050	-83.998	-55.604	-158.073	-45.194	-31.589	-158.410	-153.617	-23.590	0.260	-154.159	-149.805	-149.312	-144.613	-31.536	-145.476	-8191	255	
39404.938	1	1	0	0	0.22777	0.068744	0.12937	0.092611	0.17365	0.11915	0.18187	0.22944	0.20592	0.042895	0.211	0.1274	0.13029	0.15177	0.092399	0.11673	-4.3063	-4.1292	-4.7271	-4.6312	-4.3521	-4.7688	-4.5729	-4.7729	-4.6729	-4.2771	-4.9667	-4.5229	-4.4125	-5.075	-4.2562	-4.6667	80.594	58.295	-149.252	-138.078	-62.751	145.139	109.864	181.729	97.283	-135.385	160.971	95.498	92.163	145.133	48.474	-149.642	0.00068131	0.00026098	0.00025038	1361.3	5.1093e-06	3.5911e-06	1363.6	370.14	7.17e-06	4.733e-06	419.98	140.69	122.21	41.613	3.8057e-06	51.479	0.00058779	0.00059158	0.00016107	1386.3	6.3203e-06	6.2655e-06	1385.3	376.55	6.2744e-06	6.4161e-06	429.63	143.63	124.76	42.99	6.4391e-06	53.221	-56.616	-36.319	-88.272	-158.165	-53.641	-27.305	-158.560	-153.645	-11.767	-16.108	-153.961	-149.736	-149.458	-144.617	-37.028	-145.778	-8191	255	
39405.031	1	1	0	0	0.1433	0.095183	0.029854	0.017067	0.064769	0.22051	0.097788	0.15454	0.053274	0.031678	0.15914	0.084366	0.085262	0.16549	0.051264	0.053519	-4.3479	-4.1917	-4.6917	-4.6125	-4.2875	-4.9187	-4.4354	-4.7292	-4.6312	-4.2312	-4.8521	-4.5396	-4.3417	-4.9333	-4.2917	-4.3917	48.154	109.637	92.679	66.791	165.642	-20.778	113.381	145.882	86.544	17.369	105.197	-156.513	-38.617	157.015	167.793	123.679	0.00077197	0.00057106	0.00013593	1364.6	5.231e-06	7.0418e-06	1365.9	368.92	7.2257e-06	4.3017e-06	419.25	141.14	122.03	41.759	8.6955e-06	51.705	0.00059596	0.00058523	0.0001614	1388.9	6.4507e-06	6.3324e-06	1387.4	375.81	6.2387e-06	6.4758e-06	429.65	143.53	124.97	43.074	6.5003e-06	53.248	-51.528	-94.244	-104.851	-158.141	-2.448	-22.607	-158.513	-153.588	-1.303	-2.396	-153.923	-149.952	-149.286	-144.753	-6.194	-145.533	-8191	255	
39405.152	1	1	0	0	0.213	0.21773	0.25429	0.25376	0.12779	0.17963	0.1411	0.18471	0.042819	0.10631	0.16475	0.22773	0.27052	0.18734	0.13552	0.20962	-4.3542	-4.0938	-4.5208	-4.6479	-4.2104	-4.6646	-4.4708	-4.6625	-4.7042	-4.2729	-4.6917	-4.7625	-4.1833	-4.8375	-4.4208	-4.5375	85.474	120.759	-111.919	98.880	147.464	116.150	107.228	154.499	89.361	113.335	143.094	10.723	-166.615	171.327	-61.893	16.040	0.00067229	0.00025328	0.00014717	1367.9	8.4942e-06	4.6393e-06	1363.4	367.76	6.4292e-06	5.5469e-06	420.22	140.37	122.11	41.693	5.0298e-06	51.437	0.00059294	0.00058083	0.00016169	1389.2	6.3509e-06	6.3596e-06	1385.3	375.73	6.3065e-06	6.4626e-06	429.23	143.49	124.85	43.043	6.2604e-06	53.207	-51.500	-74.896	-89.161	-158.150	-26.577	-30.955	-158.263	-153.544	-15.424	-35.452	-154.224	-150.172	-149.341	-144.733	-3.335	-145.470	-8191	255	
39405.250	1	1	0	0	0.071664	0.32626	0.13396	0.16961	0.060496	0.16463	0.13617	0.15624	0.047049	0.1514	0.10338	0.099178	0.2136	0.2304	0.15708	0.10514	-4.5042	-4.2375	-4.5312	-4.7667	-4.1396	-4.8854	-4.5062	-4.3646	-4.8083	-4.2771	-4.6375	-4.6937	-4.2979	-4.75	-4.3833	-4.3854	12.234	108.905	67.056	-148.464	-31.503	-110.043	147.556	74.780	-5.499	-63.559	136.099	-59.027	133.086	-170.298	-135.489	-84.795	0.0006638	0.00051882	0.00019904	1363.4	8.1418e-06	5.0037e-06	1362	368.78	5.8187e-06	6.2222e-06	419.85	140.46	121.92	41.824	2.6479e-06	51.539	0.00060051	0.0005948	0.00016034	1387.5	6.3936e-06	6.3096e-06	1386	375.98	6.411e-06	6.395e-06	429.01	143.41	124.98	43.062	6.3763e-06	53.203	-51.404	-114.147	-80.177	-158.257	-9.797	-5.874	-158.369	-153.435	-5.383	-10.449	-154.031	-149.865	-149.199	-144.672	42.029	-145.595	-8191	255	
39405.344	1	1	0	0	0.16228	0.22185	0.16349	0.26558	0.11416	0.23348	0.12239	0.21623	0.23866	0.15574	0.27348	0.13505	0.2091	0.35688	0.12198	0.192	-4.4437	-4.2375	-4.5125	-4.9104	-4.3271	-4.8792	-4.7167	-4.3958	-4.8583	-4.3021	-4.5417	-4.8313	-4.2625	-4.6354	-4.45	-4.3375	104.904	-99.944	-88.008	134.991	-80.168	-29.102	133.466	96.511	38.880	-67.790	151.319	-168.444	146.926	130.254	69.295	133.692	0.0007108	0.00020884	0.00012544	1367.6	7.7072e-06	3.4741e-06	1364	368.96	4.4396e-06	2.9839e-06	421.03	140.26	121.89	41.672	7.8192e-06	51.641	0.00059697	0.00057579	0.00016073	1390.3	6.479e-06	6.4692e-06	1387.3	375.86	6.4443e-06	6.5272e-06	429.64	143.6	125.01	42.997	6.2831e-06	53.29	-53.344	-36.089	-61.635	-158.039	-36.862	11.274	-158.468	-153.526	-4.769	-29.824	-154.090	-149.870	-149.417	-144.780	-37.894	-145.897	-8191	255	
39405.441	1	1	0	0	0.04389	0.12533	0.08208	0.25632	0.13385	0.13333	0.066197	0.14583	0.11973	0.04545	0.15989	0.10076	0.15991	0.19103	0.17227	0.22942	-4.4958	-4.4646	-4.4125	-4.8729	-4.0479	-4.5563	-4.9083	-4.3083	-4.6813	-4.4	-4.4417	-4.8729	-4.1479	-4.6188	-4.6146	-4.225	187.623	105.327	40.174	137.901	73.384	161.312	121.293	161.453	98.978	5.976	94.015	-52.223	105.367	166.228	113.911	-144.772	0.00070086	0.00064149	0.00023301	1368	7.7129e-06	5.7952e-06	1361.3	368.72	4.8346e-06	3.19e-06	422.71	140.12	122	41.777	3.3616e-06	51.605	0.00060385	0.0005844	0.0001599	1389.8	6.4415e-06	6.2472e-06	1386.7	376.44	6.4223e-06	6.426e-06	429.91	143.56	124.97	43.016	6.4245e-06	53.262	-53.448	-88.203	-73.094	-158.090	-29.708	-31.237	-158.424	-153.542	-27.311	5.983	-154.248	-149.835	-149.249	-144.355	-43.440	-145.605	-8191	255	
39405.535	1	1	0	0	0.067608	0.029459	0.22445	0.20151	0.070956	0.084733	0.22584	0.20174	0.1007	0.34215	0.33652	0.27877	0.060617	0.15311	0.29906	0.2343	-4.4333	-4.3021	-4.4812	-4.9604	-4.2021	-4.5437	-4.8354	-4.1833	-4.6708	-4.5312	-4.3229	-4.9062	-4.0437	-4.4812	-4.6542	-4.2354	57.107	-20.437	-18.224	-116.050	-114.280	77.977	86.929	119.917	175.037	114.748	153.174	-101.142	83.738	187.209	-156.710	115.088	0.00070363	0.00055236	0.0001079	1367.5	1.0735e-05	4.6241e-06	1371.2	369.45	4.3796e-06	8.0494e-06	419.95	140.49	122.74	41.824	5.7772e-06	51.737	0.00060738	0.00059655	0.00016503	1390.7	6.66e-06	6.603e-06	1390.4	376.74	6.63e-06	6.5255e-06	429.94	143.85	125.3	43.03	6.4469e-06	53.357	-51.364	-56.390	-56.377	-158.142	-46.858	-10.674	-158.430	-153.619	-10.100	-30.499	-153.805	-149.716	-149.324	-144.507	-27.893	-145.589	-8191	255	
39405.633	1	1	0	0	0.2574	0.15619	0.059839	0.60748	0.20742	0.15951	0.22933	0.13055	0.10273	0.09047	0.18088	0.063938	0.27801	0.078549	0.39009	0.16223	-4.4125	-4.5979	-4.2854	-5.1104	-4.4104	-4.3896	-4.8833	-4.2625	-4.7063	-4.5583	-4.2438	-4.8688	-4.3625	-4.55	-4.725	-4.3208	-59.252	-58.698	-107.118	138.341	89.545	45.335	122.344	-103.423	121.638	-129.575	156.543	-93.499	-164.443	86.305	-4.993	127.178	0.00071799	0.00058245	0.00011179	1369	1.2915e-05	3.7995e-06	1365.8	369.5	6.1139e-06	2.4038e-06	421.82	140.94	121.93	41.927	7.1167e-06	51.512	0.00060953	0.00059654	0.00016735	1391	6.5646e-06	6.5882e-06	1388	376.8	6.6164e-06	6.7975e-06	430.49	144.19	125.03	43.16	6.7585e-06	53.25	-50.537	-136.802	-55.142	-158.224	-40.953	-25.883	-158.273	-153.560	-41.855	-24.766	-154.111	-149.760	-149.224	-144.718	0.650	-145.334	-8191	255	
39405.754	1	1	0	0	0.1308	0.041888	0.21354	0.30988	0.248	0.14019	0.076007	0.25905	0.09609	0.0061967	0.18774	0.17547	0.061495	0.25003	0.12617	0.20246	-4.1062	-4.7104	-4.2521	-5.1312	-4.2958	-4.3729	-4.9583	-4.3104	-4.6937	-4.8271	-4.3375	-4.7875	-4.5208	-4.3354	-4.7812	-4.1917	41.576	-141.104	80.412	-152.503	-101.996	-29.510	156.715	142.691	137.283	150.068	171.203	167.377	-66.701	182.423	115.470	-170.433	0.00068349	0.00040683	9.1498e-05	1368.9	1.2578e-05	3.3742e-06	1367.9	369.1	4.6705e-06	6.8698e-06	419.62	141.02	122.55	41.848	4.9184e-06	51.577	0.00062144	0.00060578	0.00017484	1394	6.6307e-06	6.6096e-06	1390.2	376.66	6.5822e-06	6.5779e-06	429.82	144	125.13	43.149	6.6057e-06	53.284	-47.725	-85.555	-69.912	-158.213	-24.566	-52.910	-158.577	-153.638	-10.768	-35.041	-154.079	-150.003	-149.257	-144.672	-6.369	-145.322	-8191	255	
39405.848	1	1	0	0	0.08046	0.045063	0.24863	0.31642	0.19814	0.23525	0.22252	0.18249	0.040342	0.074614	0.13972	0.30139	0.19925	0.10793	0.17898	0.079376	-4.1417	-4.6333	-4.2792	-4.95	-4.45	-4.3542	-5.075	-4.3438	-4.3708	-4.7625	-4.2417	-4.6708	-4.5208	-4.3063	-4.6687	-4.4458	-65.467	171.044	-73.707	150.374	104.907	-100.081	82.803	104.167	-92.489	-74.661	188.019	151.134	-152.362	138.433	-92.493	61.589	0.0007	0.00027688	0.00018942	1371.7	7.8884e-06	1.3578e-06	1370.1	369.75	4.8807e-06	2.6708e-06	421.76	140.65	122.02	41.878	2.0842e-06	51.656	0.00061083	0.00059433	0.00017082	1394.9	6.7683e-06	6.8734e-06	1392.8	376.81	6.7804e-06	6.7881e-06	430.69	143.89	125.38	43.149	6.7958e-06	53.368	-50.895	-80.788	-84.376	-158.160	-19.319	59.248	-158.596	-153.696	-1.770	-48.088	-154.059	-149.753	-149.255	-144.657	-73.149	-145.636	-8191	255	
39405.945	1	1	0	0	0.14545	0.15827	0.12547	0.42371	0.082593	0.10575	0.12884	0.214	0.10945	0.13693	0.16	0.20435	0.046639	0.33683	0.092145	0.072987	-4.0854	-4.8146	-4.1708	-4.9542	-4.3979	-4.2104	-4.85	-4.4021	-4.4458	-4.8125	-4.2729	-4.7688	-4.575	-4.3104	-4.8021	-4.6521	118.612	144.393	-36.277	166.812	-31.922	-55.944	61.837	138.897	146.668	20.704	182.562	-110.072	0.050	184.405	-74.142	-148.273	0.00066976	0.00068094	8.1198e-05	1373.8	6.3077e-06	2.8525e-06	1373.2	370.41	5.7678e-06	1.0361e-05	422.59	141.14	122.73	41.872	4.2323e-06	51.533	0.00063293	0.00063343	0.00018292	1397.4	6.9781e-06	7.1442e-06	1394.3	377.53	6.9608e-06	7.1097e-06	431.62	144.22	125.51	43.179	6.9321e-06	53.31	-49.594	-77.127	-100.141	-158.155	-33.098	-55.554	-158.522	-153.709	-16.690	-45.232	-154.176	-149.826	-149.426	-144.737	-11.602	-145.534	-8191	255	
39406.039	1	1	0	0	0.10373	0.090509	0.059146	0.15739	0.13027	0.21047	0.18703	0.22419	0.16232	0.29542	0.15094	0.123	0.064265	0.15349	0.12224	0.12462	-4.0104	-4.8146	-4.2271	-4.9021	-4.6229	-4.15	-5.0375	-4.5396	-4.2417	-4.9812	-4.3	-4.6188	-4.7771	-4.3104	-4.7625	-4.6229	-23.347	45.851	-89.815	186.506	-91.863	162.509	132.604	153.462	-104.838	25.565	62.863	109.936	-123.471	166.650	-31.944	-157.162	0.00066275	0.0006233	0.00020623	1379.2	1.4159e-06	4.1636e-06	1374.4	370.62	6.1908e-06	4.9281e-06	422.51	140.78	122.65	42.024	4.7711e-06	51.715	0.0006416	0.00063972	0.00017742	1400.7	6.972e-06	6.9736e-06	1396	377.9	7.0042e-06	6.9398e-06	431.87	144.31	125.59	43.162	6.7879e-06	53.431	-49.277	-94.930	-64.190	-158.211	-49.493	-9.085	-158.426	-153.720	-6.181	-17.491	-154.227	-149.885	-149.172	-144.554	-22.275	-145.318	-8191	255	
39406.137	1	1	0	0	0.16879	0.040707	0.27364	0.20596	0.17107	0.27867	0.3209	0.31654	0.14522	0.141	0.1008	0.19538	0.13443	0.060089	0.18387	0.20828	-3.9437	-4.8042	-4.275	-4.7146	-4.6792	-4.0771	-4.9667	-4.8229	-4.4083	-4.7354	-4.425	-4.6042	-4.8167	-4.3333	-4.6604	-4.6604	-125.508	187.429	127.521	-171.255	26.293	-150.570	-161.432	108.460	107.547	115.059	124.027	174.750	-137.883	164.491	-98.294	141.056	0.000664	0.00062428	0.00016048	1372.8	9.3842e-06	2.402e-06	1370.7	370.91	4.0026e-06	6.3273e-06	422.34	141.64	122.46	41.729	5.9313e-06	51.718	0.0006301	0.00063537	0.00017342	1399.3	6.8649e-06	6.9827e-06	1395.5	378.2	6.9094e-06	6.9583e-06	432.73	144.69	125.5	43.151	6.8549e-06	53.398	-54.297	-76.700	-65.205	-158.189	-17.352	-34.235	-158.174	-153.657	7.838	-25.000	-154.184	-149.805	-149.376	-144.787	-27.016	-145.532	-8191	255	
#DATA ENDS
