BOXY.EXE: ISS Imagent and Oximeter Data Acquisition Program Version 0.80
Ascii Record File

#ACQ INFORMATION
2  Detector Channels 
16  External MUX Channels 
1  Auxiliary Channels 
5000  Waveform (CCF) Frequency (Hz)
1  Waveforms Skipped 
30  Waveforms Averaged 
1  Cycles Averaged 
16  Acquisitions per Waveform 
10.0806  Updata Rate (Hz) 

#FILE INFORMATION
TRUE -- External MUX Channel results are PARSED.
FALSE -- AC DC and Phase are NOT grouped.
TRUE -- Companion Program Settings File CREATED.
FALSE -- AC data not excluded
FALSE -- DC data not excluded
FALSE -- Phase data not excluded
FALSE -- Auxillary Chn. data not excluded
Tab delimiters

#CALIBRATION STATE
TRUE -- Waveform Calibration Values APPLIED.


#AUX CALIBRATION VALUES
Val Type	aux-1	

Term	1.0000e+00	
Factor	0.0000e+00	


#WF CALIBRATION VALUES
A = Detector Channel
Val Type	A-AC1	A-AC2	A-AC3	A-AC4	A-AC5	A-AC6	A-AC7	A-AC8	A-AC9	A-AC10	A-AC11	A-AC12	A-AC13	A-AC14	A-AC15	A-AC16	A-DC1	A-DC2	A-DC3	A-DC4	A-DC5	A-DC6	A-DC7	A-DC8	A-DC9	A-DC10	A-DC11	A-DC12	A-DC13	A-DC14	A-DC15	A-DC16	A-Ph1	A-Ph2	A-Ph3	A-Ph4	A-Ph5	A-Ph6	A-Ph7	A-Ph8	A-Ph9	A-Ph10	A-Ph11	A-Ph12	A-Ph13	A-Ph14	A-Ph15	A-Ph16	

Term	0.00000e+00	0.00000e+00	0.00000e+00	0.00000e+00	0.00000e+00	0.00000e+00	0.00000e+00	0.00000e+00	0.00000e+00	0.00000e+00	0.00000e+00	0.00000e+00	0.00000e+00	0.00000e+00	0.00000e+00	0.00000e+00	0.00000e+00	0.00000e+00	0.00000e+00	0.00000e+00	0.00000e+00	0.00000e+00	0.00000e+00	0.00000e+00	0.00000e+00	0.00000e+00	0.00000e+00	0.00000e+00	0.00000e+00	0.00000e+00	0.00000e+00	0.00000e+00	0.00000e+00	0.00000e+00	0.00000e+00	0.00000e+00	0.00000e+00	0.00000e+00	0.00000e+00	0.00000e+00	0.00000e+00	0.00000e+00	0.00000e+00	0.00000e+00	0.00000e+00	0.00000e+00	0.00000e+00	0.00000e+00	
Factor	1.00000e+00	1.00000e+00	1.00000e+00	1.00000e+00	1.00000e+00	1.00000e+00	1.00000e+00	1.00000e+00	1.00000e+00	1.00000e+00	1.00000e+00	1.00000e+00	1.00000e+00	1.00000e+00	1.00000e+00	1.00000e+00	1.00000e+00	1.00000e+00	1.00000e+00	1.00000e+00	1.00000e+00	1.00000e+00	1.00000e+00	1.00000e+00	1.00000e+00	1.00000e+00	1.00000e+00	1.00000e+00	1.00000e+00	1.00000e+00	1.00000e+00	1.00000e+00	X	X	X	X	X	X	X	X	X	X	X	X	X	X	X	X	

B = Detector Channel
Val Type	B-AC1	B-AC2	B-AC3	B-AC4	B-AC5	B-AC6	B-AC7	B-AC8	B-AC9	B-AC10	B-AC11	B-AC12	B-AC13	B-AC14	B-AC15	B-AC16	B-DC1	B-DC2	B-DC3	B-DC4	B-DC5	B-DC6	B-DC7	B-DC8	B-DC9	B-DC10	B-DC11	B-DC12	B-DC13	B-DC14	B-DC15	B-DC16	B-Ph1	B-Ph2	B-Ph3	B-Ph4	B-Ph5	B-Ph6	B-Ph7	B-Ph8	B-Ph9	B-Ph10	B-Ph11	B-Ph12	B-Ph13	B-Ph14	B-Ph15	B-Ph16	

Term	0.00000e+00	0.00000e+00	0.00000e+00	0.00000e+00	0.00000e+00	0.00000e+00	0.00000e+00	0.00000e+00	0.00000e+00	0.00000e+00	0.00000e+00	0.00000e+00	0.00000e+00	0.00000e+00	0.00000e+00	0.00000e+00	0.00000e+00	0.00000e+00	0.00000e+00	0.00000e+00	0.00000e+00	0.00000e+00	0.00000e+00	0.00000e+00	0.00000e+00	0.00000e+00	0.00000e+00	0.00000e+00	0.00000e+00	0.00000e+00	0.00000e+00	0.00000e+00	-2.21930e+01	-1.30555e+02	-1.19593e+02	-1.81765e+02	-6.15087e+01	-6.84839e+01	-1.57216e+02	-1.62015e+02	-2.86346e+01	-6.79659e+01	-1.71050e+02	-1.71975e+02	-1.82255e+02	-1.76979e+02	-5.58940e+01	-1.49379e+02	
Factor	2.76929e-05	1.60331e-04	5.43878e-05	1.45372e-01	2.66852e-06	1.64523e-06	1.64428e-01	5.20594e-02	1.55519e-06	1.78831e-06	8.49940e-02	3.51328e-02	3.64614e-02	9.18147e-03	1.78014e-06	1.30177e-02	5.70160e-06	6.72933e-06	1.86889e-06	7.47343e-02	7.13936e-08	7.39673e-08	7.93960e-02	2.67438e-02	7.14214e-08	7.41394e-08	4.25018e-02	1.75270e-02	1.88403e-02	4.76276e-03	7.22786e-08	6.54405e-03	X	X	X	X	X	X	X	X	X	X	X	X	X	X	X	X	



#DISTANCE SETTINGS
A = Detector Channel
A-1	A-2	A-3	A-4	A-5	A-6	A-7	A-8	A-9	A-10	A-11	A-12	A-13	A-14	A-15	A-16	

2.5000e+00	3.0000e+00	2.5000e+00	3.0000e+00	2.0000e+00	3.0000e+00	1.5000e+00	3.0000e+00	3.0000e+00	3.0000e+00	3.0000e+00	3.0000e+00	3.0000e+00	3.0000e+00	1.5000e+00	3.0000e+00	

B = Detector Channel
B-1	B-2	B-3	B-4	B-5	B-6	B-7	B-8	B-9	B-10	B-11	B-12	B-13	B-14	B-15	B-16	

1.0000e+01	1.0000e+01	1.0000e+01	1.4400e+00	1.0000e+01	1.0000e+01	1.5100e+00	1.9400e+00	1.0000e+01	1.0000e+01	1.9900e+00	2.4900e+00	2.4100e+00	2.9000e+00	1.0000e+01	2.9800e+00	




#DATA BEGINS
time	group	step	mark	flag	A-AC1	A-AC2	A-AC3	A-AC4	A-AC5	A-AC6	A-AC7	A-AC8	A-AC9	A-AC10	A-AC11	A-AC12	A-AC13	A-AC14	A-AC15	A-AC16	A-DC1	A-DC2	A-DC3	A-DC4	A-DC5	A-DC6	A-DC7	A-DC8	A-DC9	A-DC10	A-DC11	A-DC12	A-DC13	A-DC14	A-DC15	A-DC16	A-Ph1	A-Ph2	A-Ph3	A-Ph4	A-Ph5	A-Ph6	A-Ph7	A-Ph8	A-Ph9	A-Ph10	A-Ph11	A-Ph12	A-Ph13	A-Ph14	A-Ph15	A-Ph16	B-AC1	B-AC2	B-AC3	B-AC4	B-AC5	B-AC6	B-AC7	B-AC8	B-AC9	B-AC10	B-AC11	B-AC12	B-AC13	B-AC14	B-AC15	B-AC16	B-DC1	B-DC2	B-DC3	B-DC4	B-DC5	B-DC6	B-DC7	B-DC8	B-DC9	B-DC10	B-DC11	B-DC12	B-DC13	B-DC14	B-DC15	B-DC16	B-Ph1	B-Ph2	B-Ph3	B-Ph4	B-Ph5	B-Ph6	B-Ph7	B-Ph8	B-Ph9	B-Ph10	B-Ph11	B-Ph12	B-Ph13	B-Ph14	B-Ph15	B-Ph16	aux-1	digaux	

40104.293	1	1	0	256	0.14208	0.11862	0.16442	0.14767	0.052136	0.23927	0.25732	0.064863	0.18028	0.087685	0.33491	0.1194	0.37861	0.33878	0.17371	0.090775	-3.9729	-4.7083	-4.1937	-4.5479	-4.7333	-4.075	-4.8125	-4.4958	-4.2854	-4.8375	-4.2979	-4.5	-4.6958	-4.2604	-4.5021	-4.5563	117.287	200.412	107.395	211.253	39.223	118.203	116.870	149.286	-48.369	233.129	141.596	37.379	207.227	187.983	-114.701	130.155	0.00048323	0.00041442	0.00017049	822.76	5.943e-06	5.2378e-06	791.43	287.41	2.8415e-06	3.6311e-06	301.17	123.66	120.74	50.175	3.9267e-06	57.111	0.00034346	9.9762e-05	2.8232e-05	815.91	1.2134e-06	1.2035e-06	788.16	288.16	1.3824e-06	1.2392e-06	301.83	124.36	121.23	50.78	1.4642e-06	57.546	-49.188	-31.108	-30.758	-108.348	35.954	38.750	-109.230	-102.206	37.625	24.972	-104.819	-99.739	-97.024	-92.547	26.875	-96.440	-8191	255	
40104.391	1	1	0	0	0.20398	0.14838	0.10798	0.28713	0.26553	0.055217	0.29143	0.25234	0.23739	0.17971	0.16639	0.13435	0.19432	0.31968	0.12707	0.33177	-3.9021	-4.6667	-4.2417	-4.4479	-4.9833	-4.1646	-4.8021	-4.7646	-4.1813	-4.6417	-4.4563	-4.2542	-4.9563	-4.2167	-4.5917	-4.6542	187.169	23.776	-86.212	170.304	161.015	206.193	197.177	214.536	11.792	3.281	25.956	47.834	211.949	207.775	213.261	238.774	0.00043897	0.00016142	0.00011696	814.4	5.3583e-06	2.3252e-06	794.48	287.09	3.5339e-06	5.35e-06	300.32	121.33	119.47	48.454	3.9678e-06	54.765	0.00024967	0.00023505	3.8028e-05	812.11	1.6324e-06	1.7197e-06	791.48	288.07	2.1379e-06	2.0903e-06	300.27	121.67	119.78	49.097	2.824e-06	55.327	-47.798	159.578	-16.113	-107.822	9.811	14.308	-109.221	-102.195	26.865	37.434	-104.865	-99.415	-97.335	-92.461	24.084	-96.259	-8191	255	
40104.488	1	1	0	0	0.24947	0.07354	0.24228	0.22281	0.098918	0.13725	0.072298	0.18286	0.1637	0.10329	0.29635	0.14171	0.16454	0.26572	0.18837	0.069882	-3.6979	-4.7125	-4.0979	-4.425	-4.7625	-4.0333	-4.75	-4.6854	-4.1708	-4.7604	-4.6	-4.4125	-4.7896	-4.175	-4.4646	-4.9604	-42.782	-9.064	128.325	219.920	95.269	-11.785	-43.182	148.561	-110.648	34.342	187.868	190.403	-97.662	144.192	-19.710	130.634	0.00042945	4.5682e-05	0.00017725	808.32	3.8014e-06	3.0727e-06	784.49	285.06	3.551e-06	5.5677e-06	292.77	115.76	115.07	47.575	3.1469e-06	53.623	0.00033561	0.00051625	8.7534e-05	808.99	3.8129e-06	4.0323e-06	784.14	286.47	4.8135e-06	4.9204e-06	294.22	117.63	116.94	48.227	4.9954e-06	54.134	-49.508	-52.529	-32.773	-108.176	55.536	25.061	-109.202	-102.199	44.625	11.146	-104.776	-99.633	-97.423	-92.423	56.437	-96.122	-8191	255	
40104.559	1	1	0	0	0.15327	0.10282	0.13203	0.20515	0.30354	0.15138	0.12359	0.15239	0.071737	0.13171	0.13093	0.018118	0.11104	0.17993	0.038185	0.25459	-3.8604	-4.5875	-4.4812	-4.3125	-4.7708	-4.2667	-4.5	-4.8667	-4.2208	-4.7667	-4.5396	-4.2521	-4.925	-4.4646	-4.4167	-4.7875	174.819	122.308	36.149	178.590	-37.998	11.024	-105.222	-79.879	-110.070	215.170	-7.508	-21.732	22.204	-115.321	-71.573	-81.550	0.00039237	8.7673e-05	4.6507e-05	799.72	8.2798e-06	3.72e-06	774.2	281.07	4.9335e-06	4.052e-06	287.79	113.17	113.1	47.123	5.7656e-06	53.368	0.00046356	0.0006265	0.00012711	799.97	5.2726e-06	5.4018e-06	774.27	283.11	6.2195e-06	6.331e-06	289.64	114.9	114.78	48.249	7.0095e-06	54.248	-53.986	198.195	148.820	-107.885	24.826	-2.869	-109.073	-102.224	32.804	42.629	-104.762	-99.387	-96.959	-92.182	-20.799	-96.352	-8191	255	
40104.680	1	1	0	0	0.091942	0.24923	0.098409	0.18059	0.23323	0.11628	0.14373	0.19956	0.095667	0.1581	0.081988	0.11152	0.080618	0.17923	0.14785	0.043583	-3.7583	-4.5813	-4.4563	-4.2833	-4.8042	-4.3479	-4.5	-4.6708	-4.1833	-4.4938	-4.6521	-4.2229	-4.7937	-4.2688	-4.1875	-4.825	152.322	40.778	137.921	226.260	165.259	32.988	202.709	146.173	59.419	219.446	148.567	118.581	137.985	111.238	67.671	-93.178	0.00042125	0.00016833	0.00018925	786.75	7.2417e-07	2.9078e-06	758.79	276.92	3.7325e-06	1.8175e-06	281.72	110.04	110.21	46.173	2.1714e-06	52.331	0.0006432	0.00086943	0.00019016	790.94	7.7658e-06	8.2125e-06	764.73	278.84	8.6917e-06	8.8521e-06	285.95	112.28	112.62	47.297	9.3849e-06	53.319	-51.508	-33.553	-15.787	-107.725	35.451	16.250	-108.941	-102.309	40.103	-45.564	-104.531	-99.700	-96.966	-92.272	-74.936	-96.516	-8191	255	
40104.773	1	1	0	0	0.056272	0.1441	0.22113	0.17859	0.12239	0.12884	0.15151	0.23649	0.093489	0.23785	0.11941	0.25911	0.15249	0.18977	0.050718	0.31922	-3.75	-4.35	-4.6417	-4.2979	-4.6333	-4.5938	-4.1979	-4.9979	-4.1917	-4.3146	-4.6958	-4.2875	-4.7792	-4.4354	-4.2146	-4.8271	-105.258	146.804	164.785	201.075	-76.043	-82.111	179.901	220.643	-61.439	-28.319	106.984	124.149	-30.707	-105.230	-40.508	-95.017	0.0003921	0.00037048	1.6929e-05	779.88	3.8058e-06	3.2438e-06	747.01	271.56	3.8182e-06	6.3113e-06	277.72	107.48	105.65	45.254	3.929e-06	51.377	0.00081338	0.001048	0.00024364	785.43	9.3088e-06	9.5556e-06	757.44	275.02	9.5673e-06	9.9789e-06	281.8	109.41	109.13	46.21	9.4902e-06	52.332	-53.067	-108.750	74.781	-107.955	33.296	71.937	-109.096	-102.199	48.416	-14.624	-104.759	-99.640	-96.681	-92.289	11.238	-96.244	-8191	255	
40104.871	1	1	0	0	0.18062	0.046568	0.13803	0.012787	0.21469	0.13108	0.14067	0.18286	0.038994	0.26539	0.1747	0.15466	0.072525	0.2127	0.13103	0.28924	-4.0771	-4.3646	-4.5333	-4.2354	-4.6062	-4.4667	-4.1271	-4.9042	-4.3271	-4.3396	-4.5271	-4.2792	-4.7521	-4.6292	-4.1208	-4.7604	78.272	-13.367	166.787	224.091	164.304	-36.168	124.060	198.267	96.854	63.390	98.336	51.456	194.429	203.333	71.750	163.113	0.00042999	0.00059373	0.00024517	766.99	5.6231e-06	4.3309e-06	742.38	266.68	2.0611e-06	5.3277e-06	274.08	106.33	104.56	45.091	7.5679e-06	51.403	0.00078879	0.0010362	0.00022594	770.29	8.5869e-06	8.916e-06	745	269.98	8.9299e-06	9.1727e-06	277.92	108.09	107.66	46.087	9.5966e-06	52.323	-60.825	198.433	-24.006	-108.007	-34.805	6.274	-108.963	-102.310	-6.875	58.790	-104.635	-99.635	-96.651	-91.872	23.399	-96.474	-8191	255	
40104.969	1	1	0	0	0.072831	0.025342	0.086967	0.10338	0.31826	0.13544	0.11348	0.26973	0.12452	0.32403	0.19602	0.19927	0.14475	0.12527	0.10653	0.10071	-4.0146	-4.3354	-4.75	-4.2396	-4.4208	-4.6833	-4.2583	-4.9333	-4.225	-4.3063	-4.7458	-4.1458	-4.4437	-4.5708	-4.0708	-4.6583	-32.734	221.459	215.925	225.764	32.333	-53.797	-73.201	197.969	-70.961	191.453	116.772	175.908	-96.192	-58.991	57.475	134.997	0.00040712	0.0005127	0.00015831	770.48	4.9308e-06	6.6937e-06	744.19	269.87	5.2959e-07	3.6123e-06	276.94	107.07	106.77	46.078	5.245e-06	52.459	0.00082395	0.0010643	0.00024689	774.45	9.9639e-06	1.036e-05	749.55	273.54	1.0629e-05	1.1012e-05	280.79	109.84	110.18	47.259	1.2058e-05	53.792	-45.078	-96.211	-14.286	-107.913	55.961	6.436	-109.027	-102.015	99.097	-27.373	-104.743	-99.467	-96.707	-92.293	7.860	-96.000	-8191	255	
40105.086	1	1	0	0	0.037621	0.23436	0.14267	0.32079	0.15204	0.12784	0.046761	0.18198	0.17499	0.13089	0.10676	0.35657	0.17574	0.45729	0.18013	0.18634	-4.025	-4.2146	-4.6604	-4.1521	-4.4625	-4.6062	-4.2667	-4.8875	-4.3542	-4.1125	-4.8313	-4.2896	-4.3854	-4.8271	-4.2604	-4.7625	28.904	23.497	82.291	198.124	186.962	-62.917	215.590	-114.360	153.962	235.640	149.628	179.255	6.270	194.281	100.625	181.470	0.00052024	0.00074801	3.8436e-05	790.01	6.3588e-06	3.824e-06	765.05	278.17	3.0648e-06	5.7109e-06	283.05	109.31	108.15	46.846	6.597e-06	53.173	0.0010609	0.0013441	0.00032743	800.77	1.2645e-05	1.2937e-05	774.37	283.36	1.2894e-05	1.3524e-05	290.36	112.23	112.84	48.279	1.4317e-05	54.72	-42.381	-8.615	-103.665	-108.041	29.244	10.603	-109.311	-102.098	96.479	36.084	-104.506	-99.248	-96.750	-92.150	26.635	-96.359	-8191	255	
40105.156	1	1	0	0	0.17914	0.18007	0.14324	0.35722	0.044033	0.17415	0.17046	0.081396	0.081208	0.11029	0.11354	0.21014	0.086215	0.18285	0.20986	0.22665	-4.1792	-4.0375	-4.7625	-4.3958	-4.375	-4.8292	-4.1687	-4.6729	-4.525	-4.2	-4.8208	-4.2542	-4.4833	-4.8771	-4.1875	-4.6104	106.018	154.690	-79.460	201.774	24.931	5.840	226.414	134.116	51.613	164.394	-18.233	169.339	25.102	208.889	77.861	229.593	0.00053326	0.0010893	0.00018045	803.37	8.404e-06	1.8384e-06	781.42	285.61	4.5394e-06	1.8567e-06	291.68	111.33	111.43	48.278	4.9006e-06	55.155	0.0012407	0.0014265	0.00041626	816.66	1.5468e-05	1.6027e-05	795.04	291.77	1.6247e-05	1.6987e-05	299.89	115.85	116.53	50.032	1.8298e-05	57.179	-55.334	-49.134	190.478	-107.805	43.777	-18.358	-109.216	-102.101	47.645	-33.934	-104.730	-99.394	-96.605	-92.221	-45.941	-96.290	-8191	255	
40105.254	1	1	0	0	0.09453	0.051273	0.25538	0.13212	0.12447	0.11407	0.1694	0.30834	0.086159	0.15718	0.0792	0.15349	0.2798	0.10653	0.045335	0.13619	-4.35	-4.0729	-4.6167	-4.5312	-4.3458	-4.6292	-4.4208	-4.5625	-4.7542	-4.125	-4.8313	-4.6292	-4.2146	-4.7667	-4.1438	-4.5708	-22.756	33.785	138.010	-111.058	-24.517	-58.884	209.484	153.917	-104.081	210.253	234.037	119.887	181.858	-98.773	220.435	-1.076	0.00044694	0.00081095	0.00036155	835.29	6.1429e-06	3.7044e-06	810.99	293.3	3.192e-06	1.0142e-05	298.91	114.42	114.17	49.566	3.6123e-06	56.84	0.0015878	0.0017715	0.00055721	852.69	1.9067e-05	1.9636e-05	824.6	301.21	1.8886e-05	1.9402e-05	308.26	119.3	119.21	51.307	1.8705e-05	58.806	-58.733	-31.401	-106.260	-107.808	138.329	-9.468	-108.958	-101.856	66.655	48.674	-104.475	-99.491	-96.874	-92.479	14.842	-96.580	-8191	255	
40105.375	1	1	0	0	0.12762	0.20233	0.14083	0.068459	0.052332	0.11311	0.33621	0.047461	0.225	0.089553	0.11973	0.1174	0.0585	0.013837	0.091472	0.31843	-4.3562	-4.0687	-4.5521	-4.6521	-4.2063	-4.7	-4.3771	-4.4917	-4.6396	-4.1458	-4.6125	-4.6	-4.1708	-4.9292	-4.2646	-4.3146	193.705	197.840	172.203	76.476	228.212	45.122	158.765	146.341	47.868	89.765	178.593	183.859	72.909	179.718	193.168	190.723	0.00035949	0.0010193	0.00013523	836.94	1.1155e-05	6.4268e-06	806.7	291.81	1.655e-06	2.6908e-06	297.26	114.45	113.28	49.112	4.0125e-06	56.754	0.0015615	0.0016971	0.00052677	851.97	1.7998e-05	1.8179e-05	821.6	299.79	1.7324e-05	1.7531e-05	305.89	118.81	117.5	50.932	1.6605e-05	58.49	-52.782	-54.958	-92.336	-107.904	38.361	15.490	-108.989	-102.063	86.266	38.251	-104.660	-99.239	-96.561	-92.474	10.798	-96.239	-8191	255	
40105.473	1	1	0	0	0.1774	0.052691	0.05032	0.21909	0.30157	0.18022	0.047676	0.14136	0.12832	0.25068	0.15121	0.12908	0.13663	0.057626	0.046376	0.11378	-4.3521	-4.1813	-4.5104	-4.7312	-4.1917	-4.9313	-4.3354	-4.4187	-4.825	-4.15	-4.5687	-4.7688	-4.3271	-4.7167	-4.4479	-4.3438	-56.486	228.493	60.774	-85.244	-69.013	-98.917	-102.075	210.640	148.064	-59.734	67.729	131.033	4.630	-116.769	-0.689	141.167	0.0005349	0.00083819	0.00011317	821.63	4.1723e-06	8.8236e-06	792.65	286.81	3.8258e-06	4.7725e-06	294.59	113.63	112.48	48.637	7.8241e-06	56.12	0.0013799	0.0015068	0.00047935	833.89	1.5428e-05	1.5566e-05	801.82	293.29	1.4772e-05	1.4985e-05	300.36	117.37	116.29	50.438	1.4845e-05	57.837	-53.806	-53.861	-89.899	-107.981	-20.241	39.098	-109.460	-102.032	35.323	28.870	-104.590	-99.577	-97.020	-92.395	55.472	-96.471	-8191	255	
40105.566	1	1	0	0	0.062083	0.079516	0.025543	0.17292	0.069731	0.11757	0.16787	0.25734	0.047654	0.2412	0.10168	0.13433	0.16305	0.1033	0.20722	0.091746	-4.4521	-4.1188	-4.5771	-4.6708	-4.1188	-4.725	-4.7021	-4.3146	-4.7979	-4.1813	-4.625	-4.7104	-4.0854	-4.8979	-4.3667	-4.3396	122.173	-60.289	-93.510	173.517	58.560	170.048	118.174	146.569	167.389	150.705	49.711	-103.986	115.473	210.384	-118.778	75.138	0.00038561	0.00097672	0.00030458	819.95	5.5622e-06	6.4286e-06	790.73	289.74	3.3874e-06	6.1349e-06	295.07	112.02	111.56	48.11	3.3611e-06	55.433	0.001204	0.0013371	0.00042408	830.29	1.3983e-05	1.4265e-05	799.47	294.49	1.3822e-05	1.3672e-05	300.2	115.3	115.02	49.658	1.2771e-05	56.914	-49.742	10.213	-115.845	-108.016	46.370	42.877	-109.203	-101.796	31.036	-39.203	-104.665	-99.425	-96.970	-92.421	89.101	-96.124	-8191	255	
40105.688	1	1	0	0	0.15114	0.20619	0.10387	0.13322	0.20897	0.02082	0.021244	0.17132	0.18297	0.15771	0.12959	0.25021	0.086815	0.25472	0.19782	0.12767	-4.3667	-4.2542	-4.3375	-4.6937	-4.2104	-4.7396	-4.6792	-4.1729	-4.6021	-4.0854	-4.3583	-4.7979	-4.3333	-4.5479	-4.5062	-4.2396	95.572	4.440	-14.348	131.434	50.231	17.968	-115.149	224.075	206.408	119.522	188.971	192.877	179.655	-110.456	-92.967	-99.729	0.0005041	0.00026585	0.0003083	826.31	5.6533e-06	7.4556e-06	789.27	288.39	4.4324e-06	1.3189e-06	293.95	110.39	110.93	47.321	8.3676e-06	54.806	0.0010125	0.0011277	0.00037098	831.83	1.1366e-05	1.1677e-05	796.54	292.68	1.2368e-05	1.1098e-05	298.37	113.35	113.46	48.695	1.015e-05	55.944	-54.112	-115.975	-59.234	-107.898	34.790	52.412	-109.035	-102.067	129.357	92.094	-104.890	-99.330	-96.822	-92.219	55.580	-96.259	-8191	255	
40105.781	1	1	0	0	0.10046	0.1767	0.13129	0.25725	0.060723	0.034488	0.23966	0.042324	0.1296	0.11968	0.17151	0.22558	0.19803	0.26153	0.079905	0.18659	-4.3521	-4.3333	-4.3125	-4.8396	-4.1979	-4.5875	-4.7958	-4.3104	-4.7333	-4.4396	-4.3583	-4.9292	-4.2958	-4.6542	-4.6208	-4.2375	186.121	84.407	237.171	206.165	-92.634	31.788	179.250	71.319	124.216	83.884	135.557	-92.134	-78.592	-87.242	104.671	210.326	0.00041802	0.00037295	0.00026226	822.21	6.718e-06	5.653e-06	792.89	288.33	5.6831e-06	1.1509e-06	294.63	110.82	109.86	46.712	7.6515e-07	54.326	0.00084327	0.00090009	0.00029387	828.02	8.8034e-06	9.0189e-06	794.24	291.01	1.0347e-05	8.3798e-06	297.06	112.51	111.89	47.94	7.7839e-06	55.37	-56.041	-51.968	-70.994	-107.984	-11.679	42.646	-109.384	-102.205	70.721	64.556	-104.574	-99.493	-96.976	-92.420	169.247	-96.209	-8191	255	
40105.855	1	1	0	0	0.15162	0.076302	0.095383	0.17737	0.14994	0.13607	0.2166	0.21943	0.23533	0.24452	0.20223	0.066611	0.21979	0.2945	0.082871	0.12373	-4.4292	-4.4979	-4.2604	-4.725	-4.1042	-4.5125	-4.7333	-4.2937	-4.5896	-4.4979	-4.2646	-4.725	-4.3896	-4.5708	-4.8042	-4.3646	76.714	229.262	-68.275	-91.757	101.015	-73.989	143.626	-73.746	113.509	229.251	213.550	107.282	98.300	161.039	-73.736	173.157	0.0004916	0.00033903	0.00016527	827.73	1.0637e-05	3.9056e-06	801.26	290.39	1.0556e-05	8.6092e-06	294.74	110.74	109.99	46.466	1.8386e-06	54.373	0.00068399	0.00069399	0.00022922	832.18	7.3787e-06	7.4339e-06	800.8	292.86	9.064e-06	7.1492e-06	297.88	112.34	111.94	47.601	6.616e-06	55.12	-59.556	-30.599	-55.953	-108.208	18.093	20.759	-109.472	-102.304	64.086	14.155	-104.611	-99.525	-96.861	-92.340	94.338	-96.485	-8191	255	
40105.973	1	1	0	0	0.1276	0.22383	0.10531	0.16396	0.24875	0.18272	0.21939	0.21345	0.079258	0.20376	0.28539	0.25256	0.1213	0.069144	0.11988	0.31408	-4.2354	-4.5479	-4.1396	-4.875	-4.1687	-4.3875	-4.8562	-4.2729	-4.5188	-4.5938	-4.2625	-4.8229	-4.4167	-4.4417	-4.7063	-4.2479	-30.737	-112.890	-105.287	-27.493	167.974	199.761	198.914	148.528	-80.347	-67.157	176.209	227.994	185.718	36.711	72.747	153.007	0.00048174	0.0004851	0.00033241	841.27	4.9381e-06	3.9027e-06	802.59	294.68	6.5755e-06	8.0328e-06	299.03	111.82	112.44	46.392	4.7768e-06	54.057	0.00059298	0.00060347	0.00016586	842.13	6.3185e-06	6.3882e-06	803.53	296.33	8.3002e-06	6.1492e-06	301.17	112.75	113.72	47.411	5.7568e-06	54.758	-53.030	-11.279	-31.806	-108.214	20.166	-21.395	-109.211	-102.363	101.974	36.093	-104.652	-99.883	-97.143	-92.515	34.053	-96.530	-8191	255	
40106.070	1	1	0	0	0.11316	0.096244	0.15324	0.035946	0.073591	0.17213	0.24004	0.098527	0.13343	0.24922	0.21029	0.069279	0.16319	0.1058	0.22201	0.19051	-4.2604	-4.5458	-4.0292	-4.8479	-4.3833	-4.2396	-4.9938	-4.4896	-4.5167	-4.6438	-4.2875	-4.7688	-4.6104	-4.4208	-4.8625	-4.3167	-47.893	227.531	-50.670	227.221	-56.052	51.093	204.421	54.623	169.997	131.163	187.937	80.086	197.858	-118.241	191.807	190.774	0.0003995	0.00046652	7.9311e-05	845.74	5.6658e-06	4.8967e-06	808.69	293.66	3.0115e-06	5.1076e-06	300.79	111.07	111.57	46.009	3.4835e-06	53.884	0.00052411	0.0005026	0.00013531	848.74	5.127e-06	5.1393e-06	807.12	296.47	6.7242e-06	4.8926e-06	301.61	112.35	112.56	46.966	5.2799e-06	54.508	-52.427	-75.259	67.730	-107.970	21.960	56.143	-109.359	-102.210	77.692	5.433	-104.864	-99.653	-96.919	-92.486	-74.814	-96.289	-8191	255	
40106.168	1	1	0	0	0.21918	0.035824	0.14603	0.051075	0.1617	0.015271	0.075097	0.1315	0.011545	0.18511	0.18414	0.10396	0.15888	0.14015	0.089412	0.20959	-4.0625	-4.5437	-4.1188	-4.6854	-4.4667	-4.1771	-4.8562	-4.3479	-4.2979	-4.8125	-4.3604	-4.65	-4.7625	-4.2917	-4.7125	-4.3146	-92.011	86.812	-17.065	194.371	91.813	204.823	9.175	167.092	-103.115	76.551	83.555	96.754	190.383	238.440	-112.320	161.349	0.00042825	0.00063818	0.00015148	846.94	6.0006e-06	1.9584e-06	810.34	294.54	8.438e-06	3.9873e-06	299.48	111.47	112.09	45.106	2.6997e-06	53.15	0.00045349	0.00042838	0.00011794	848.78	4.7826e-06	4.6553e-06	810.99	295.6	7.17e-06	4.8381e-06	301.48	112.2	113.01	46.013	6.8604e-06	53.829	-52.238	-19.443	-33.420	-108.347	29.094	11.010	-109.345	-102.455	90.726	9.395	-104.682	-99.930	-97.032	-92.556	206.808	-96.358	-8191	255	
40106.262	1	1	0	0	0.19462	0.11982	0.18615	0.31552	0.10659	0.058001	0.080969	0.12563	0.16248	0.098701	0.17484	0.27325	0.086456	0.31126	0.10178	0.15721	-4.0396	-4.5458	-4.2312	-4.7125	-4.6813	-4.1792	-4.7875	-4.6146	-4.3187	-4.7792	-4.2729	-4.6021	-4.6604	-4.1708	-4.7417	-4.5667	-119.762	39.023	-104.684	216.387	185.778	227.257	-61.394	-111.473	34.773	-7.105	185.628	153.091	14.768	175.116	-97.602	-62.552	0.00044439	0.00051637	0.00027812	843.18	1.073e-05	4.9416e-06	805.92	292.26	5.3131e-06	3.7168e-06	299.16	111.89	112.8	44.537	3.5452e-06	52.467	0.0004792	0.0004613	0.00013026	846.59	5.1194e-06	5.0987e-06	808.35	293.93	6.9112e-06	5.1601e-06	301.48	112.84	113.84	45.399	7.6132e-06	53.344	-47.223	-37.399	-42.674	-108.252	63.946	10.085	-109.349	-102.248	85.014	30.764	-104.895	-99.750	-96.910	-92.289	238.824	-96.154	-8191	255	
40106.383	1	1	0	0	0.1841	0.30949	0.13397	0.24664	0.14828	0.14907	0.23676	0.17291	0.018256	0.084759	0.10923	0.046388	0.082787	0.12471	0.12697	0.15136	-3.9	-4.7	-4.1792	-4.4812	-4.6771	-4.1021	-4.7458	-4.6625	-4.325	-4.8021	-4.2146	-4.4375	-4.6813	-4.2375	-4.5771	-4.7708	185.722	-9.015	20.193	163.356	-25.230	196.132	85.486	-76.554	191.489	79.340	-64.707	63.598	186.221	74.970	104.387	131.972	0.00047982	0.00043527	0.00014614	843.66	1.6708e-06	6.4316e-06	815.7	293.32	5.39e-06	1.1484e-06	299.55	110.87	111.7	44.512	1.7879e-06	52.369	0.00049296	0.00047304	0.00013179	845.39	5.0038e-06	5.0313e-06	810.44	294.18	6.2683e-06	5.4173e-06	300.87	112.11	112.83	45.22	6.6307e-06	53.014	-50.459	-76.702	-16.762	-108.422	21.922	46.330	-109.258	-102.512	78.353	-118.151	-104.778	-99.742	-96.985	-92.372	79.844	-96.562	-8191	255	
40106.453	1	1	0	0	0.10877	0.065242	0.095866	0.1011	0.20936	0.19912	0.32245	0.14342	0.21284	0.1184	0.066667	0.22576	0.050647	0.074545	0.2882	0.19906	-4.0375	-4.8583	-4.1438	-4.4417	-4.6208	-4.2271	-4.7792	-4.5792	-4.1354	-4.7542	-4.4104	-4.4938	-4.7188	-4.3313	-4.5646	-4.7188	81.156	-29.194	-51.332	199.275	-42.009	156.104	86.492	-24.073	172.192	120.341	154.153	-99.137	23.336	141.751	187.867	102.653	0.00039907	0.00031791	0.0002135	842.13	5.287e-06	3.8824e-06	807.57	290.77	6.0894e-06	2.9093e-06	295.2	110.04	111.51	43.94	1.8365e-06	51.766	0.00043641	0.00041771	0.00011725	844.94	4.4199e-06	4.5649e-06	807.17	292.21	4.5958e-06	6.424e-06	298.26	110.8	112.23	44.724	6.9877e-06	52.48	-50.521	-23.742	-27.333	-108.475	18.030	10.991	-109.559	-102.528	33.456	-36.637	-105.171	-99.577	-97.487	-92.514	-96.218	-96.376	-8191	255	
40106.551	1	1	0	0	0.18189	0.15283	0.26805	0.29693	0.21271	0.13337	0.22803	0.16835	0.21928	0.11924	0.11013	0.034613	0.083533	0.31849	0.23004	0.10506	-3.7104	-4.7167	-4.2667	-4.4104	-4.7063	-4.1312	-4.7042	-4.7792	-4.2417	-4.8229	-4.4917	-4.5625	-4.95	-4.2812	-4.4812	-4.8521	-12.117	140.302	-48.952	-75.095	59.756	-91.933	166.143	70.856	-108.695	-63.467	90.188	-115.096	-44.132	157.154	118.210	-101.472	0.00040669	0.00042891	0.00012705	842.14	5.5487e-06	3.5126e-06	810.95	292.49	3.2678e-07	8.8413e-06	300.44	111.71	113.74	44.842	5.1669e-06	53.217	0.00044518	0.00042629	0.00012153	842.45	4.6721e-06	4.6704e-06	806.71	294.21	4.7837e-06	7.2337e-06	302.58	112.86	114.63	45.58	6.8333e-06	53.639	-52.745	-20.568	-2.107	-108.141	34.229	84.920	-109.366	-102.427	157.006	88.002	-104.995	-100.046	-97.249	-92.205	-19.465	-96.263	-8191	255	
40106.648	1	1	0	0	0.21204	0.12096	0.14323	0.20648	0.14769	0.14735	0.27019	0.41144	0.14863	0.0825	0.080097	0.083556	0.19768	0.084081	0.10198	0.15109	-3.6521	-4.5188	-4.4854	-4.3187	-4.8583	-4.3854	-4.4208	-4.9146	-4.125	-4.6917	-4.5208	-4.2125	-4.9333	-4.3375	-4.3542	-4.8146	122.718	37.387	-103.568	130.287	95.935	105.140	187.023	183.638	177.910	56.476	-66.890	222.859	169.652	-87.738	151.498	129.961	0.00043248	0.00058671	3.799e-05	853.39	5.3857e-06	4.384e-06	823.5	298.75	4.1546e-06	7.1488e-06	306.95	113.1	114.27	45.177	5.7561e-06	53.702	0.00044992	0.00043152	0.00011763	855.7	5.2843e-06	4.5582e-06	821.6	300.36	4.3774e-06	6.3124e-06	306.89	114.02	115.26	45.999	6.1592e-06	54.304	-52.233	-9.254	-29.330	-108.318	14.878	39.768	-109.253	-102.462	69.239	69.035	-104.953	-99.702	-97.392	-92.538	-92.250	-96.351	-8191	255	
40106.770	1	1	0	0	0.11529	0.08936	0.14747	0.23715	0.06715	0.15134	0.024954	0.093064	0.26099	0.19358	0.28355	0.16789	0.086207	0.32038	0.31469	0.16772	-3.8688	-4.5437	-4.4771	-4.1625	-4.6583	-4.3104	-4.4896	-4.8271	-4.2063	-4.5437	-4.675	-4.3021	-4.7937	-4.475	-4.2646	-4.8812	190.639	121.156	90.233	89.749	92.823	-55.356	187.990	-72.862	-88.629	-80.105	234.066	180.962	109.419	206.953	218.933	-74.963	0.00042438	0.00067798	0.00011209	864.92	4.0425e-06	6.6487e-06	836.14	297.77	3.9581e-06	3.7436e-06	307.32	112.8	113.72	45.434	1.3575e-06	54.453	0.00035546	0.00032273	8.4882e-05	862.62	4.8455e-06	3.1097e-06	831.37	299.32	2.8743e-06	4.9794e-06	307.69	113.88	114.48	46.103	4.2357e-06	54.916	-50.620	-50.907	-18.828	-108.455	-5.553	37.909	-109.260	-102.619	46.963	75.394	-104.996	-99.759	-97.181	-92.491	-96.122	-96.586	-8191	255	
40106.863	1	1	0	0	0.13136	0.1082	0.091252	0.14667	0.058479	0.21555	0.21957	0.063046	0.086539	0.049011	0.12788	0.27513	0.14777	0.082275	0.12112	0.1004	-4.0521	-4.5771	-4.4875	-4.4062	-4.6312	-4.6729	-4.3542	-4.9	-4.3187	-4.4854	-4.7625	-4.2458	-4.7958	-4.4292	-4.1958	-4.8354	212.650	161.554	30.932	142.441	194.569	-63.999	140.588	59.182	232.512	227.569	170.581	214.953	110.628	131.217	197.983	-110.847	0.00043306	0.00041255	0.00012681	878.72	1.2687e-05	4.4604e-06	846.51	301.19	3.6658e-06	7.0638e-06	309.71	114.36	115.37	46.003	7.9162e-06	54.692	0.00025219	0.00018886	5.2006e-05	876.86	4.3989e-06	2.0611e-06	841.76	302.24	2.2157e-06	3.926e-06	309.7	114.62	115.49	46.592	3.2616e-06	55.426	-49.858	-16.565	-26.162	-108.575	13.105	21.844	-109.517	-102.695	41.082	83.392	-104.965	-99.852	-97.423	-92.665	14.505	-96.356	-8191	255	
40106.961	1	1	0	0	0.12119	0.092347	0.17634	0.017418	0.0204	0.09172	0.17389	0.090456	0.21735	0.15852	0.14645	0.15793	0.10551	0.20562	0.091434	0.27798	-3.9688	-4.5396	-4.7021	-4.2667	-4.5563	-4.6	-4.3521	-4.7104	-4.1354	-4.2854	-4.8083	-4.1479	-4.5979	-4.6229	-4.0813	-4.9	31.520	229.194	-113.191	138.061	69.722	49.098	95.800	118.709	-10.135	-2.251	102.877	218.320	206.988	214.377	98.362	187.933	0.00047583	0.00062487	0.00014665	880.9	1.6736e-05	4.4473e-06	843.61	302.51	4.6747e-06	2.8834e-06	308.17	114.26	115.26	46.256	3.2145e-06	54.83	0.00025888	0.0002063	5.5887e-05	879.38	4.3242e-06	2.4967e-06	840.28	303.67	2.735e-06	5.1766e-06	309.49	114.93	115.97	46.799	3.1116e-06	55.413	-50.505	-37.758	-30.668	-108.408	21.020	28.772	-109.639	-102.519	27.649	62.098	-104.994	-100.190	-97.090	-92.451	-1.981	-96.380	-8191	255	
40107.059	1	1	0	0	0.15825	0.11415	0.095579	0.34064	0.081468	0.21549	0.14322	0.33397	0.13203	0.094171	0.075907	0.16953	0.10481	0.074035	0.097803	0.092618	-4.0312	-4.2271	-4.6813	-4.3812	-4.5687	-4.6229	-4.2063	-4.8938	-4.4208	-4.2542	-4.8625	-4.25	-4.5563	-4.8146	-4.0687	-4.8083	-96.015	24.071	125.500	234.229	-118.935	137.582	228.489	187.327	112.174	-1.804	-61.333	191.514	168.464	202.857	7.704	139.135	0.00042011	0.00043955	0.00018802	878.46	1.233e-05	3.7485e-06	841.43	304.02	2.3542e-06	4.4892e-06	309.29	115.13	115.18	46.242	4.2348e-06	54.704	0.00033723	0.00029999	8.3068e-05	877.22	5.6243e-06	3.38e-06	837.04	305.03	3.3503e-06	5.262e-06	310.07	115.15	116.06	46.937	3.482e-06	55.533	-54.630	-44.400	-19.586	-108.300	14.361	32.008	-109.472	-102.539	47.257	107.831	-104.800	-99.834	-97.228	-92.482	15.358	-96.321	-8191	255	
40107.152	1	1	0	0	0.094998	0.1286	0.3322	0.22585	0.055664	0.23778	0.012521	0.22572	0.04816	0.21365	0.22971	0.3162	0.18036	0.24524	0.083746	0.16383	-3.9813	-4.2042	-4.9646	-4.3958	-4.3833	-4.5521	-4.3396	-4.7125	-4.4354	-4.3583	-4.9396	-4.425	-4.5	-4.6979	-4.1271	-4.7375	-8.410	56.710	222.836	125.837	19.111	101.782	-54.207	-89.555	-77.307	119.638	219.603	190.649	180.055	212.644	229.187	183.609	0.0004743	0.00051978	0.00015359	870.42	1.1959e-05	5.2156e-06	831.62	299.14	3.5634e-06	3.8724e-06	305.14	112.25	113.85	45.58	3.249e-06	54.012	0.00035421	0.00032863	8.9866e-05	868.07	5.5314e-06	3.5541e-06	828.11	300.61	3.7728e-06	4.7964e-06	306.34	113.32	114.33	46.093	3.7463e-06	54.868	-53.200	-21.349	-29.854	-108.369	50.520	7.794	-109.528	-102.335	52.737	48.496	-104.981	-99.969	-97.076	-92.370	9.588	-96.335	-8191	255	
40107.246	1	1	0	0	0.22163	0.13389	0.14307	0.22169	0.10435	0.13204	0.14895	0.2279	0.13273	0.064615	0.041674	0.19971	0.10917	0.20253	0.18162	0.042098	-4.2354	-4.1562	-4.6562	-4.4896	-4.2958	-4.825	-4.1854	-4.4938	-4.5042	-4.175	-4.8812	-4.4479	-4.3729	-4.7958	-4.0708	-4.5708	-117.015	-111.492	128.465	141.043	-108.494	156.123	238.012	179.889	68.789	-69.890	71.311	203.526	210.365	178.306	37.429	41.081	0.00044672	0.00051119	0.00013162	858.5	1.3204e-05	3.6211e-06	824.76	297.32	2.1137e-06	7.3917e-06	304.22	113.09	113.27	45.071	3.4429e-06	54.135	0.00037133	0.00033477	9.5006e-05	858.52	6.0521e-06	3.6492e-06	822.64	298.27	3.8547e-06	3.7528e-06	306.03	113.41	113.81	45.804	3.8347e-06	54.862	-50.497	-25.783	-21.758	-108.229	21.566	55.185	-109.409	-102.418	36.669	41.727	-104.833	-99.811	-97.471	-92.470	26.329	-96.560	-8191	255	
40107.367	1	1	0	0	0.2398	0.23743	0.057274	0.14375	0.019933	0.15468	0.16431	0.23851	0.2055	0.060749	0.14342	0.17145	0.088501	0.15309	0.18608	0.27523	-4.4104	-4.1021	-4.6333	-4.525	-4.1854	-4.9354	-4.5083	-4.6125	-4.7438	-4.2625	-4.7146	-4.65	-4.2042	-4.7854	-4.1646	-4.4187	95.826	213.462	139.617	-107.702	-69.842	-112.207	172.548	153.824	104.397	20.533	187.916	204.135	182.486	192.103	-37.983	153.600	0.00045543	0.00051089	0.00010813	857.82	1.1134e-05	5.1061e-06	820.92	296.31	2.5771e-06	3.6646e-06	302.23	112.54	112.36	45.317	5.3159e-06	54.477	0.00036715	0.00034269	9.652e-05	855.57	5.4632e-06	3.5521e-06	820.6	296.83	3.4964e-06	3.5965e-06	304.04	112.79	113.09	46.026	3.5867e-06	54.923	-47.375	-25.439	-11.458	-108.549	51.816	21.973	-109.634	-102.464	69.005	4.550	-104.836	-100.105	-97.149	-92.683	21.461	-96.426	-8191	255	
40107.465	1	1	0	0	0.20255	0.28294	0.067231	0.22853	0.16872	0.18332	0.23912	0.16119	0.17203	0.17808	0.27531	0.10931	0.05242	0.1806	0.15717	0.25355	-4.3146	-4.0979	-4.7063	-4.5417	-4.0021	-4.7875	-4.4042	-4.3938	-4.8646	-4.0292	-4.7063	-4.4979	-4.1208	-4.7333	-4.4396	-4.5458	80.620	32.810	38.130	196.173	174.892	-84.786	89.888	224.716	190.249	97.973	190.066	237.886	150.752	-40.312	93.288	-116.631	0.00044129	0.00056999	0.00016804	857.37	1.3693e-05	1.7544e-06	822.84	293.69	3.1091e-06	4.1289e-06	300.11	111.36	111.43	45.075	3.7484e-06	54.074	0.00034788	0.0003221	8.7382e-05	855.31	4.2893e-06	4.5644e-06	818.85	294.79	3.3721e-06	3.4172e-06	301.62	111.59	111.93	45.73	3.3837e-06	54.728	-51.140	-40.081	1.108	-108.454	33.990	27.373	-109.461	-102.598	70.727	41.012	-104.625	-99.600	-97.076	-92.429	29.862	-96.123	-8191	255	
40107.559	1	1	0	0	0.12761	0.21847	0.074017	0.18551	0.13369	0.066976	0.031052	0.21032	0.13743	0.2126	0.20457	0.091025	0.051619	0.095783	0.185	0.18265	-4.5188	-4.0771	-4.525	-4.5667	-4.2542	-4.7833	-4.4708	-4.4771	-4.6729	-4.225	-4.5958	-4.7021	-4.1229	-4.7521	-4.3125	-4.4375	65.958	154.610	4.654	-88.959	17.774	-106.745	24.376	90.494	-62.940	-61.497	130.774	52.437	23.381	123.001	-88.606	205.251	0.00045965	0.00041078	0.00015136	848.73	5.5216e-06	9.6795e-06	816.61	287.68	3.7364e-06	2.9507e-06	294.02	108.58	109.17	44.48	2.5311e-06	53.143	0.00033806	0.00031709	8.8402e-05	847.76	3.4641e-06	5.2669e-06	812.65	288.73	3.3769e-06	3.342e-06	295.73	109.48	109.27	45.066	3.4742e-06	53.917	-54.429	-47.094	-40.848	-108.541	67.640	36.867	-109.753	-102.523	46.962	71.739	-105.002	-99.423	-97.013	-92.680	34.680	-96.579	-8191	255	
40107.656	1	1	0	0	0.16377	0.12955	0.12417	0.02351	0.10668	0.064504	0.14931	0.28572	0.11334	0.12378	0.18221	0.11542	0.13655	0.18164	0.099027	0.24685	-4.4875	-4.2875	-4.45	-4.7271	-4.0875	-4.4979	-4.475	-4.2312	-4.7562	-4.3021	-4.5792	-4.7812	-4.1646	-4.6937	-4.6312	-4.4458	-95.584	107.046	178.157	108.516	91.005	-78.684	209.324	230.928	31.945	-6.071	-70.837	159.493	-73.025	99.651	161.543	191.274	0.0003863	0.00067298	0.0001688	838.45	6.3353e-06	1.1495e-05	809.69	284.09	3.9991e-06	3.5114e-06	293.8	109.26	108.06	44.139	2.6655e-06	53.336	0.00034099	0.00031497	8.7448e-05	838.98	3.3739e-06	5.6623e-06	805.44	285.4	3.3458e-06	3.3811e-06	294.38	109.64	108.81	44.896	3.2208e-06	53.88	-52.117	-26.053	-23.208	-108.324	32.075	39.051	-109.272	-102.775	-13.042	24.452	-104.916	-100.045	-97.180	-92.277	34.177	-96.488	-8191	255	
40107.754	1	1	0	0	0.15526	0.18857	0.15247	0.18095	0.13635	0.20743	0.345	0.11696	0.3349	0.042848	0.1694	0.43405	0.2759	0.084241	0.21472	0.15172	-4.4187	-4.2	-4.5125	-4.7583	-4.2438	-4.5875	-4.7021	-4.3354	-4.7229	-4.3354	-4.35	-4.7792	-4.2583	-4.6771	-4.5604	-4.2021	-2.211	-86.667	133.736	-78.552	189.181	168.235	-117.048	-111.119	-57.860	215.336	147.448	225.938	-110.695	-95.935	214.347	154.154	0.00052075	0.0005485	0.00014362	839.98	3.453e-06	5.0044e-06	807.26	281.67	3.3842e-06	7.6983e-06	292.19	109	107.44	43.884	4.7558e-06	53.056	0.00041315	0.00029151	8.1374e-05	837.47	3.183e-06	4.9538e-06	805.54	283.5	3.0963e-06	3.034e-06	293.6	109.39	108.38	44.604	2.9434e-06	53.503	-52.508	-45.230	17.903	-108.517	77.807	42.042	-109.416	-102.577	44.403	45.526	-104.795	-99.608	-96.886	-92.351	36.516	-96.608	-8191	255	
40107.848	1	1	0	0	0.23374	0.084897	0.18102	0.078007	0.21829	0.14077	0.19631	0.10274	0.072386	0.19463	0.16003	0.12782	0.26283	0.052263	0.091966	0.1509	-4.4187	-4.475	-4.3604	-4.9104	-4.1583	-4.5208	-4.7625	-4.1937	-4.8	-4.3938	-4.2979	-4.8063	-4.1937	-4.5042	-4.6625	-4.3083	-109.291	223.971	-72.637	171.141	11.714	110.738	193.665	154.850	189.120	-76.922	195.889	209.149	-115.040	91.666	-68.418	219.400	0.0004888	0.00032759	9.4738e-05	837.95	7.3538e-06	8.637e-06	807.97	280.26	1.453e-06	5.5574e-06	287.08	107.42	106.31	43.399	3.5552e-06	52.048	0.00043997	0.00025876	7.2988e-05	837.63	2.8969e-06	5.0574e-06	802.54	281.15	2.8905e-06	2.8595e-06	288.85	107.93	107.17	43.994	3.0371e-06	52.531	-50.315	-23.257	-52.612	-108.277	38.441	50.173	-109.456	-102.261	9.223	4.059	-105.023	-99.798	-97.162	-92.839	7.149	-96.276	-8191	255	
40107.945	1	1	0	0	0.10225	0.1802	0.31069	0.2029	0.051898	0.21288	0.23591	0.058415	0.19911	0.02953	0.21765	0.12754	0.071149	0.13103	0.099444	0.08942	-4.2812	-4.5292	-4.2083	-5.0271	-4.3021	-4.5292	-4.7417	-4.1917	-4.7083	-4.4083	-4.3208	-4.7667	-4.2625	-4.3271	-4.7688	-4.2396	-44.892	156.132	223.257	166.520	-118.740	-89.725	188.523	-30.394	-85.784	-90.495	171.241	159.817	88.179	-102.567	204.447	167.781	0.000443	0.00036079	0.00014036	832.09	6.5029e-06	4.8856e-06	795.64	275.75	2.3564e-06	4.128e-06	284.19	105.49	105.29	42.684	3.7229e-06	51.183	0.00050005	0.00029034	8.0253e-05	828.07	3.36e-06	5.194e-06	793.28	276.73	3.6406e-06	3.6141e-06	284.43	106.63	105.9	43.363	3.9155e-06	51.872	-48.240	-47.203	-16.006	-108.381	7.562	52.342	-109.351	-102.506	44.767	16.552	-104.772	-99.595	-97.300	-92.481	34.692	-96.313	-8191	255	
40108.039	1	1	0	0	0.15198	0.10888	0.066396	0.39487	0.23326	0.081195	0.30007	0.12344	0.072037	0.12659	0.101	0.069346	0.093512	0.287	0.10309	0.15789	-4.2438	-4.4354	-4.1042	-4.8479	-4.3771	-4.3479	-4.8313	-4.1562	-4.4833	-4.5917	-4.2771	-4.8125	-4.4354	-4.4896	-4.8083	-4.3042	-105.320	-101.600	-37.404	197.833	231.273	-25.231	189.244	214.121	209.497	175.849	-110.108	-54.726	103.486	208.877	111.926	25.105	0.00048985	0.00048378	0.00014935	815.51	9.6183e-07	7.6286e-06	783.96	274.05	3.813e-06	6.1632e-06	280.77	104.84	103.94	42.626	4.3502e-06	51.349	0.00053582	0.00036917	0.00010332	818.08	4.1872e-06	6.5034e-06	785.26	275.33	4.6108e-06	4.4958e-06	283.35	106.61	105.31	43.415	4.8097e-06	51.882	-47.152	-46.679	45.382	-108.447	0.889	50.969	-109.579	-102.341	1.811	30.139	-104.809	-99.905	-96.767	-92.366	45.688	-96.385	-8191	255	
40108.160	1	1	0	0	0.28197	0.10024	0.10332	0.161	0.28552	0.12894	0.096662	0.2781	0.11195	0.1641	0.21165	0.15027	0.030548	0.098847	0.087623	0.22205	-4.1562	-4.6375	-4.1042	-4.7042	-4.4521	-4.3063	-4.9396	-4.2229	-4.4396	-4.7354	-4.0521	-4.6083	-4.4354	-4.2729	-4.9021	-4.3271	-55.600	137.754	-59.038	207.269	28.854	58.240	11.113	172.868	236.215	-76.628	15.356	193.910	166.466	165.384	-93.776	179.405	0.00047432	0.00044251	0.00017342	813.92	3.5517e-06	7.9172e-06	783.15	273.21	2.8559e-06	5.0271e-06	281.48	105.8	104.34	42.518	5.8383e-06	51.387	0.00063801	0.00044395	0.00012849	811.7	4.9354e-06	6.5994e-06	781.47	274.54	5.1028e-06	5.1379e-06	282.51	107.08	105.04	43.391	5.1011e-06	52.098	-41.055	-6.501	-28.432	-108.545	2.428	46.181	-109.356	-102.299	82.580	29.200	-104.841	-99.836	-96.964	-92.448	54.253	-96.350	-8191	255	
40108.258	1	1	0	0	0.24593	0.061433	0.14629	0.2838	0.1441	0.20361	0.064114	0.31764	0.10807	0.21914	0.13765	0.11262	0.044176	0.09095	0.16122	0.070347	-4.0687	-4.7063	-4.2583	-4.7708	-4.4625	-4.3146	-4.7937	-4.3417	-4.4	-4.6625	-4.3562	-4.5583	-4.55	-4.3979	-4.7104	-4.3938	44.623	35.034	-111.109	-114.138	147.984	184.705	58.463	165.546	124.861	232.825	-86.251	216.787	124.212	168.283	224.110	145.089	0.00048347	0.00025571	7.7995e-05	800.32	2.6548e-06	6.8708e-06	777.63	270.11	1.8913e-06	4.4015e-06	277.48	104.11	102.99	42.295	4.8344e-06	50.607	0.00060601	0.00045656	0.00012808	802.04	5.002e-06	5.6018e-06	777.19	271.42	5.155e-06	5.1195e-06	279.91	105.8	104.36	42.988	5.3855e-06	51.257	-41.842	-25.174	-5.809	-108.346	-2.460	32.152	-109.504	-102.454	55.277	19.305	-104.708	-99.754	-97.615	-92.321	31.312	-96.339	-8191	255	
40108.328	1	1	0	0	0.037388	0.17456	0.20828	0.2959	0.1802	0.17765	0.17006	0.12922	0.17939	0.11884	0.25856	0.36721	0.22158	0.21689	0.12919	0.17183	-4.0646	-4.7063	-4.1042	-4.6312	-4.4917	-4.2083	-4.825	-4.4333	-4.2312	-4.8667	-4.3125	-4.6813	-4.6875	-4.2188	-4.6979	-4.5292	230.065	-89.061	-0.508	216.865	162.632	29.321	206.931	-82.650	211.727	110.382	151.266	146.021	-90.934	170.132	-116.446	110.642	0.00039035	0.00026284	0.00012674	790.61	3.8053e-06	3.0494e-06	764.79	266.26	2.9349e-06	2.2902e-06	271.78	103.31	102.07	41.656	3.9764e-06	50.074	0.0006655	0.000492	0.00014128	790.9	5.3681e-06	5.5475e-06	765.46	267.37	5.5102e-06	5.522e-06	275.21	104.69	103.35	42.496	5.6097e-06	50.785	-41.638	-31.669	10.177	-108.335	-0.005	2.349	-109.209	-102.401	68.760	-3.720	-104.802	-99.957	-97.096	-92.355	9.986	-96.569	-8191	255	
40108.449	1	1	0	0	0.12249	0.32296	0.10752	0.093384	0.16553	0.13614	0.20257	0.15568	0.22498	0.15656	0.072257	0.10934	0.26072	0.10027	0.18993	0.044648	-3.9396	-4.7354	-4.0854	-4.7063	-4.6375	-4.2583	-4.7875	-4.6062	-4.2417	-4.6979	-4.3667	-4.6	-4.6854	-4.2312	-4.6708	-4.5875	183.847	117.524	-115.211	155.875	-1.588	161.802	190.060	-98.519	144.928	207.389	-89.780	-79.058	235.734	-118.385	-43.509	146.295	0.00038836	0.00056355	7.8265e-05	786.36	7.7223e-06	3.1608e-06	763.93	266.25	2.7096e-06	7.4472e-06	274.36	103.38	102.35	41.998	3.4433e-06	50.449	0.00062778	0.00051402	0.00014486	787.71	5.5419e-06	5.8063e-06	764.86	268.24	5.7493e-06	5.9625e-06	276.96	105.27	104.16	42.882	5.9954e-06	51.095	-35.019	-37.417	-35.373	-108.082	43.942	96.453	-109.508	-102.582	33.583	69.092	-104.584	-99.563	-97.241	-92.475	-8.869	-96.514	-8191	255	
40108.543	1	1	0	0	0.067615	0.13693	0.1627	0.21068	0.15726	0.1431	0.24164	0.13471	0.1727	0.27018	0.088692	0.041184	0.049667	0.23348	0.13759	0.23392	-4.0917	-4.8333	-4.3375	-4.3708	-4.8042	-4.1417	-4.6396	-4.75	-4.1479	-4.7667	-4.5437	-4.5229	-4.8458	-4.3083	-4.5938	-4.6917	-103.731	140.847	-5.268	99.665	222.535	-34.186	-85.533	94.009	84.087	119.845	210.862	213.228	-60.394	216.626	-61.311	161.997	0.00038117	0.00051487	3.9492e-05	789.25	9.6892e-06	1.6951e-06	763.15	268.23	1.1722e-06	3.6651e-06	274.4	103.4	102.63	41.797	7.1367e-06	50.142	0.00057763	0.00069489	0.00015336	790.52	6.1067e-06	6.2213e-06	765.56	269.54	6.0231e-06	6.197e-06	277.55	105.08	103.88	42.751	6.0493e-06	51.009	-37.117	-35.304	63.800	-108.147	-9.880	-13.432	-109.582	-102.535	70.379	11.124	-104.727	-99.671	-97.003	-92.342	57.999	-96.396	-8191	255	
40108.641	1	1	0	0	0.079642	0.172	0.22149	0.17916	0.17214	0.018189	0.10115	0.16525	0.14624	0.06323	0.12293	0.25852	0.2594	0.2521	0.24015	0.18551	-3.7333	-4.7417	-4.5188	-4.5125	-4.7104	-4.2417	-4.55	-4.7812	-4.2458	-4.7438	-4.4125	-4.3229	-4.6979	-4.2771	-4.5729	-4.7583	-75.410	-40.006	64.805	-66.896	51.860	-44.922	-51.949	-30.700	-83.456	84.055	-4.276	145.878	221.131	191.303	62.893	221.141	0.00039976	0.00080106	0.00019136	784.65	2.5876e-06	3.9311e-06	762.64	266.81	1.547e-06	2.0827e-06	275.96	102.64	101.73	41.703	1.9108e-06	50.155	0.00055976	0.00074718	0.00015962	788.05	6.1684e-06	6.4321e-06	765.04	268.91	6.2607e-06	6.3445e-06	277.83	104.65	103.55	42.521	6.2217e-06	50.846	-58.160	-59.126	-17.238	-108.157	-48.248	37.551	-109.268	-102.230	63.621	63.856	-104.790	-99.866	-97.231	-92.218	15.837	-96.447	-8191	255	
40108.738	1	1	0	0	0.07252	0.020422	0.12265	0.32074	0.17532	0.12128	0.18266	0.20381	0.065564	0.17377	0.052582	0.10095	0.29472	0.062507	0.4688	0.21287	-3.7917	-4.7625	-4.5375	-4.2688	-4.6625	-4.3625	-4.5854	-4.7896	-4.0271	-4.8562	-4.4104	-4.0979	-4.8292	-4.3625	-4.0958	-4.8417	193.762	213.138	-71.850	211.408	215.783	141.025	177.955	-104.289	-117.744	25.002	-11.595	34.038	-79.040	-84.012	-56.081	-101.080	0.00041075	0.0010373	0.00014424	784.42	7.263e-06	5.5941e-06	763.84	267.32	3.9653e-06	3.9592e-06	275.5	103.22	102.41	42.23	2.9189e-06	50.413	0.00056573	0.00077041	0.00015304	786.89	6.1388e-06	6.1576e-06	764.21	269.36	5.9562e-06	5.944e-06	277.18	104.72	104.16	42.94	5.4102e-06	51.073	-52.831	-51.598	-24.561	-108.262	-2.908	7.838	-109.437	-102.491	18.170	33.777	-104.595	-99.540	-97.119	-92.359	-4.567	-96.664	-8191	255	
40108.855	1	1	0	0	0.082358	0.079746	0.14197	0.27298	0.079485	0.073835	0.019433	0.25194	0.13403	0.28231	0.057132	0.086111	0.113	0.072084	0.22973	0.24215	-3.6813	-4.4604	-4.5958	-4.1458	-4.6875	-4.1813	-4.5542	-4.8146	-4.1312	-4.5375	-4.7063	-4.1271	-4.625	-4.3708	-4.2	-4.8854	130.912	-25.422	-31.351	209.286	55.031	89.992	204.577	-115.617	222.432	161.598	112.121	-91.979	-66.087	169.636	-26.911	79.717	0.00042277	0.000468	0.00016662	788.63	2.0595e-06	3.1247e-06	763.1	267.13	2.9313e-06	3.189e-06	272.8	103.25	101.79	42.325	4.23e-06	50.716	0.00049315	0.00063394	0.00013028	790.13	5.0863e-06	5.006e-06	764.4	268.41	4.9653e-06	4.7366e-06	275.35	104.36	103.74	42.967	4.4314e-06	51.272	-54.421	-48.215	-14.743	-108.138	71.066	3.485	-109.152	-102.336	8.969	42.514	-104.827	-99.811	-96.854	-92.340	46.798	-96.417	-8191	255	
40108.953	1	1	0	0	0.078421	0.027015	0.16058	0.14062	0.090201	0.020219	0.25355	0.050213	0.18923	0.16358	0.21765	0.11585	0.13549	0.14866	0.16499	0.11936	-3.75	-4.5792	-4.5563	-4.1792	-4.7021	-4.3542	-4.4604	-4.8688	-4.225	-4.4104	-4.7167	-4.1958	-4.5958	-4.4313	-4.0979	-4.675	-117.989	48.596	237.175	165.172	122.994	79.480	187.011	133.580	55.532	2.453	138.544	182.894	-20.666	138.756	-81.490	85.164	0.00040494	0.00067253	0.00019219	790.97	4.1267e-06	3.0768e-06	766.7	265.91	2.953e-06	5.9583e-06	275.15	103.92	102.38	42.454	1.76e-06	51.232	0.00041452	0.00058544	0.00010604	791.47	4.0675e-06	3.8303e-06	766.85	267.1	3.6583e-06	3.6331e-06	275.91	104.94	103.86	43.133	3.4612e-06	51.844	-42.593	-13.302	-26.471	-108.306	-14.185	24.962	-109.335	-102.229	4.976	0.522	-104.923	-99.684	-96.846	-92.330	39.215	-96.365	-8191	255	
40109.047	1	1	0	0	0.11825	0.15302	0.075762	0.18847	0.14205	0.24607	0.10499	0.15197	0.21222	0.14048	0.25025	0.044659	0.073716	0.15953	0.15062	0.21877	-3.9813	-4.4396	-4.4875	-4.4125	-4.5729	-4.5521	-4.1958	-4.8333	-4.3625	-4.3458	-4.7688	-4.2146	-4.6667	-4.5354	-4.1229	-4.7958	47.651	169.986	27.994	-107.944	-58.867	202.650	160.469	149.483	187.553	55.379	201.016	-29.773	165.176	239.289	60.796	234.485	0.00041176	0.00091699	0.00011046	799.45	5.4536e-06	5.6321e-06	779.26	267.36	3.3986e-06	3.0622e-06	277.83	104.93	103.09	42.876	4.767e-06	51.786	0.00034673	0.00046758	8.3091e-05	800.27	3.2322e-06	3.2715e-06	774.2	269.49	3.2948e-06	3.1324e-06	277.79	105.91	104.37	43.519	3.456e-06	52.245	-61.013	-39.670	-36.495	-108.284	43.428	45.179	-109.426	-102.410	59.434	8.107	-104.845	-99.487	-96.934	-92.315	52.995	-95.960	-8191	255	
40109.145	1	1	0	0	0.11407	0.16427	0.1764	0.41108	0.20872	0.10124	0.15543	0.070757	0.17424	0.22486	0.12663	0.14611	0.24612	0.20715	0.075689	0.31656	-3.9833	-4.2896	-4.6792	-4.2542	-4.5542	-4.6104	-4.3479	-4.7354	-4.3958	-4.3938	-4.8583	-4.1604	-4.4	-4.6125	-4.125	-4.6729	153.299	117.832	222.017	-114.669	38.479	-52.218	165.508	202.403	108.684	-85.204	-113.702	-32.454	207.143	191.686	73.345	174.161	0.00042498	0.0010053	0.00014127	806.43	1.1864e-05	4.1303e-06	780.51	267.8	2.2515e-06	5.2027e-06	277.04	105.22	102.29	42.689	3.5986e-06	51.125	0.00034793	0.00052632	9.1498e-05	804.33	3.6908e-06	3.6722e-06	775.57	270.15	3.9185e-06	4.0114e-06	277.76	105.63	104.01	43.473	4.5885e-06	51.849	-48.163	-38.038	2.899	-108.388	48.802	31.041	-109.508	-102.435	48.783	47.538	-104.938	-99.549	-96.933	-92.527	-13.644	-96.377	-8191	255	
40109.238	1	1	0	0	0.35144	0.072909	0.16492	0.12886	0.14117	0.082554	0.18482	0.27409	0.1762	0.1664	0.24533	0.34726	0.23706	0.20382	0.21079	0.16135	-4.1667	-4.3729	-4.7375	-4.4187	-4.4542	-4.6375	-4.2479	-4.6083	-4.4292	-4.3146	-4.7875	-4.2104	-4.2771	-4.8729	-4.1083	-4.775	212.229	-21.680	155.359	-77.557	-21.364	153.811	178.994	217.268	-27.406	213.902	-46.767	100.650	167.061	182.235	197.535	136.937	0.00039341	0.00073655	0.00018916	798.73	9.033e-06	4.5753e-06	768.03	266.5	1.1804e-06	3.655e-06	273.81	103.47	101.93	42.303	1.3769e-06	50.743	0.00043779	0.00054432	0.00012486	797.84	4.8942e-06	4.9093e-06	766.77	269.8	5.0733e-06	5.2573e-06	275.91	104.75	103.59	43.173	5.487e-06	51.386	-54.624	-59.933	-21.109	-108.235	11.745	37.472	-109.349	-102.080	48.497	85.574	-104.834	-99.437	-96.861	-92.388	135.931	-96.522	-8191	255	
40109.336	1	1	0	0	0.10967	0.21621	0.04657	0.26898	0.095955	0.086754	0.085719	0.11468	0.10793	0.019744	0.46803	0.20194	0.13367	0.26272	0.05423	0.22187	-4.0604	-4.1833	-4.5979	-4.5229	-4.2333	-4.8396	-4.3292	-4.8313	-4.5042	-4.1979	-4.8208	-4.4042	-4.4875	-4.7083	-4.1813	-4.6771	171.383	131.946	-79.998	167.778	148.736	58.804	136.973	209.796	-32.569	-59.564	-104.779	172.636	167.959	207.942	-105.921	164.510	0.00038946	0.00083794	0.00016677	793.8	3.485e-06	3.4257e-06	758.9	265.21	1.8058e-06	3.1339e-06	272.03	103.79	101.82	42.599	5.4199e-06	50.839	0.00049522	0.00052587	0.00017922	791.36	5.2861e-06	5.252e-06	760.46	267.69	5.1181e-06	5.203e-06	273.74	104.75	103.54	43.309	5.0991e-06	51.494	-51.653	-20.798	-57.113	-108.286	18.408	-8.230	-109.161	-102.288	49.335	39.477	-104.526	-99.805	-97.286	-92.441	46.567	-96.311	-8191	255	
40109.457	1	1	0	0	0.20289	0.229	0.21553	0.20249	0.082498	0.054669	0.13884	0.15875	0.12842	0.19364	0.16257	0.08312	0.09836	0.17347	0.089288	0.11958	-4.4125	-4.0938	-4.75	-4.5375	-4.3	-4.7854	-4.2396	-4.6188	-4.6646	-4.3313	-4.6354	-4.55	-4.2708	-4.9104	-4.3438	-4.5104	164.915	-102.304	45.017	210.897	188.964	58.212	175.392	191.660	154.649	84.353	162.767	101.797	-58.643	-109.701	-86.655	146.608	0.00038419	0.00048897	0.00025506	789.9	2.5623e-06	4.0016e-06	758.38	263.93	6.3474e-06	2.3871e-06	272.2	104.11	101.85	42.373	3.4622e-06	50.958	0.00047433	0.00047348	0.00017531	789.3	5.0542e-06	5.0253e-06	758.58	266.32	4.9886e-06	5.1606e-06	273.2	104.82	102.98	43.19	5.1712e-06	51.602	-52.133	-67.989	-21.967	-108.131	118.322	-3.836	-109.792	-102.354	3.642	26.203	-104.922	-99.537	-96.690	-92.485	76.617	-96.525	-8191	255	
40109.555	1	1	0	0	0.1418	0.21917	0.076996	0.28292	0.15478	0.13814	0.27173	0.17288	0.16944	0.097917	0.36523	0.14657	0.06782	0.094094	0.12331	0.30119	-4.4125	-4.0667	-4.6167	-4.5542	-4.2312	-4.7625	-4.2854	-4.4625	-4.7438	-4.1312	-4.6958	-4.6208	-4.2562	-4.7875	-4.1521	-4.3479	-60.009	-50.382	110.091	206.312	0.514	-87.152	143.835	169.476	59.033	47.104	180.841	183.046	206.890	175.514	101.656	166.393	0.00043257	0.00039198	0.00027073	785.77	3.5764e-06	2.4637e-06	757.56	264.16	1.7707e-06	3.3002e-06	272.31	104.51	101.88	42.662	4.8304e-06	51.07	0.00048582	0.00048382	0.0001916	788.07	5.3197e-06	5.3921e-06	758.89	266.21	5.2466e-06	5.3964e-06	273.99	105.47	103.21	43.617	5.3055e-06	51.87	-57.719	33.279	-14.593	-108.364	59.193	59.835	-109.396	-102.184	25.354	1.158	-104.548	-99.478	-97.002	-92.294	-17.748	-96.388	-8191	255	
40109.625	1	1	0	0	0.22179	0.11234	0.069738	0.20783	0.036364	0.19166	0.27033	0.15479	0.20286	0.049169	0.12138	0.19978	0.10231	0.014247	0.18074	0.147	-4.4688	-4.2604	-4.5333	-4.7625	-4.0146	-4.7292	-4.4479	-4.3354	-4.7562	-4.1729	-4.6625	-4.5896	-4.225	-4.7729	-4.3812	-4.1813	72.519	148.863	153.656	142.813	-120.108	-73.730	220.595	207.505	87.469	127.940	19.297	-112.266	118.207	172.306	208.529	221.197	0.00042711	0.00057704	0.00020847	787.84	1.0831e-06	5.2525e-06	762.46	264.63	5.7406e-06	6.1482e-06	271.92	104.75	102.02	42.909	3.207e-06	51.022	0.00048862	0.0004844	0.00017961	789.56	5.2085e-06	5.2298e-06	760.64	266.9	5.0571e-06	5.0503e-06	273.72	105.54	103.24	43.772	4.6478e-06	51.737	-57.289	-30.453	-3.048	-108.295	72.920	50.220	-109.248	-102.288	27.406	2.502	-104.535	-99.626	-96.734	-92.333	-17.954	-96.337	-8191	255	
40109.723	1	1	0	0	0.11202	0.14508	0.063127	0.17414	0.14924	0.13775	0.13543	0.16301	0.076363	0.14241	0.014203	0.21494	0.098529	0.058188	0.070778	0.1442	-4.5312	-4.1833	-4.3604	-4.6333	-4.1083	-4.8125	-4.6083	-4.2083	-4.7542	-4.1958	-4.3562	-4.7854	-4.1792	-4.6667	-4.6229	-4.3375	161.693	167.737	-17.077	192.435	3.173	160.719	98.403	144.012	145.822	-116.636	237.901	209.697	205.590	71.440	147.758	199.810	0.000422	0.00042102	0.00019979	792.23	7.1563e-06	4.3227e-06	759.62	261.04	4.0523e-06	3.8561e-06	269.08	104.29	101.5	42.597	2.3789e-06	50.754	0.00042842	0.00041116	0.00016422	790.07	4.2571e-06	4.2372e-06	758.81	263.43	4.5927e-06	4.0122e-06	269.93	104.67	102.3	43.402	3.7199e-06	51.269	-51.360	-64.024	2.101	-108.261	7.045	13.450	-109.112	-102.122	-56.911	32.194	-104.685	-99.750	-96.994	-92.374	49.173	-96.353	-8191	255	
40109.840	1	1	0	0	0.10466	0.056827	0.15499	0.21147	0.10503	0.2332	0.028074	0.044941	0.19473	0.16118	0.096309	0.13557	0.1279	0.05892	0.14363	0.13972	-4.3708	-4.1188	-4.3417	-4.7771	-4.1979	-4.6562	-4.6083	-4.225	-4.675	-4.375	-4.35	-4.7771	-4.1813	-4.6062	-4.7063	-4.2542	225.646	164.771	230.997	223.610	-76.794	-103.418	214.644	181.410	-85.442	-23.663	137.608	222.999	17.292	131.299	185.630	65.134	0.00040682	0.00018393	0.00022137	792.95	6.9532e-06	4.3711e-06	759.21	260.47	3.1139e-06	2.8618e-06	267.56	104	100.53	42.18	3.6045e-06	50.864	0.00036401	0.00033296	0.00013521	790.62	3.6051e-06	3.6469e-06	758.06	260.92	5.4609e-06	3.6424e-06	268.18	104.34	101.56	43.041	4.0806e-06	51.183	-50.133	47.437	-7.101	-108.251	26.866	24.942	-109.627	-102.328	-26.013	39.484	-104.588	-99.642	-97.274	-92.567	39.420	-96.322	-8191	255	
40109.938	1	1	0	0	0.22519	0.19964	0.1198	0.168	0.11046	0.15358	0.29134	0.17134	0.0618	0.1237	0.11364	0.36342	0.18496	0.04637	0.065541	0.10851	-4.4938	-4.4979	-4.2208	-4.9563	-4.2688	-4.65	-4.7104	-4.275	-4.6687	-4.5292	-4.3313	-4.6813	-4.1271	-4.5875	-4.7	-4.3479	216.375	73.444	56.904	-111.767	159.056	-86.032	93.867	209.468	212.358	115.378	-117.182	176.281	78.218	163.659	33.645	53.002	0.00039831	0.00025398	0.00030196	786.73	6.0506e-06	3.217e-06	756.26	259.36	1.7233e-06	3.2447e-06	267	103.33	100.95	42.348	2.0944e-06	50.46	0.00040054	0.00038523	0.00016448	787.34	4.5977e-06	4.3809e-06	754.93	261.14	6.3516e-06	4.6305e-06	268.83	104.21	101.91	43.148	4.718e-06	51.005	-50.162	0.318	-14.466	-108.376	32.462	2.796	-109.530	-102.324	-8.031	15.487	-104.694	-99.837	-96.836	-92.390	44.522	-96.279	-8191	255	
40110.031	1	1	0	0	0.18012	0.2328	0.065722	0.18816	0.13734	0.2239	0.097966	0.30029	0.056294	0.19538	0.1255	0.17438	0.11933	0.17212	0.043473	0.11663	-4.2417	-4.3729	-4.1521	-4.9771	-4.1687	-4.4625	-4.6708	-4.2167	-4.55	-4.5312	-4.3042	-4.6729	-4.2188	-4.3417	-4.6917	-4.1729	195.804	237.347	236.086	179.220	162.816	125.484	138.022	229.775	195.713	230.327	168.609	128.563	-24.159	157.928	107.781	-104.692	0.00039821	0.00062144	0.00031205	783.01	7.0228e-06	2.4623e-06	749.53	258.39	1.3932e-06	2.3551e-06	267.39	103.27	99.796	41.825	7.0993e-06	49.71	0.0004371	0.00042556	0.00014507	783.23	4.8289e-06	4.8077e-06	752	259.88	7.0125e-06	4.9059e-06	268.2	103.63	101.14	42.709	5.2393e-06	50.362	-48.842	-47.822	-31.421	-108.287	33.556	13.535	-109.255	-102.276	77.771	20.552	-104.816	-99.562	-96.793	-92.483	5.481	-96.420	-8191	255	
40110.129	1	1	0	0	0.13585	0.08822	0.012072	0.17874	0.063874	0.24239	0.073364	0.072916	0.20423	0.13676	0.14188	0.10992	0.078813	0.19735	0.14353	0.093334	-4.2354	-4.4083	-4.025	-4.7875	-4.3979	-4.2208	-4.7979	-4.2438	-4.5104	-4.5417	-4.2063	-4.7875	-4.4187	-4.3688	-4.9021	-4.2833	-39.311	-109.360	222.447	224.755	-11.671	159.058	58.507	100.052	123.245	99.466	8.886	13.641	-93.276	-93.121	-14.668	90.338	0.00041922	0.00033423	8.6754e-05	775.65	1.0248e-06	1.1957e-06	740.75	255.38	2.2631e-06	7.7673e-06	263.2	101.16	98.867	41.468	2.0554e-06	48.917	0.00049087	0.00049235	0.00013857	778.47	5.4375e-06	5.7248e-06	741.95	257.81	7.4912e-06	5.9494e-06	266.05	102.34	100.33	42.412	5.8732e-06	49.706	-49.896	-42.867	89.889	-108.369	-14.316	94.838	-109.301	-102.042	41.558	18.505	-104.855	-99.597	-96.887	-92.192	102.866	-96.337	-8191	255	
40110.223	1	1	0	0	0.075115	0.18209	0.057665	0.08964	0.084602	0.090099	0.23143	0.23597	0.15428	0.19414	0.27927	0.12054	0.088786	0.13549	0.026978	0.20493	-4.0958	-4.5083	-4.2	-4.7208	-4.3917	-4.1813	-4.6937	-4.3125	-4.4354	-4.6229	-4.2854	-4.6271	-4.4792	-4.2562	-4.7583	-4.2625	-45.399	81.491	133.534	-103.634	202.567	54.892	232.576	172.616	0.081	175.136	-96.437	146.624	-87.009	-1.431	106.402	-99.596	0.00040489	0.00027525	0.00021317	769.54	1.1484e-05	2.0484e-06	736.78	254.52	3.8178e-07	4.1421e-06	260.58	99.653	97.515	40.777	6.7369e-06	48.356	0.00053339	0.00053107	0.00015421	770.88	5.9148e-06	6.0205e-06	736.5	255.96	7.8535e-06	5.9999e-06	263.07	101.06	98.85	41.686	6.6236e-06	49.038	-53.264	-41.592	-0.232	-108.170	1.399	-30.945	-109.408	-102.146	64.040	43.684	-104.742	-99.522	-96.972	-92.192	-24.117	-96.064	-8191	255	
40110.320	1	1	0	0	0.19884	0.11247	0.11947	0.12567	0.10537	0.21062	0.10906	0.16714	0.20638	0.11214	0.30035	0.094513	0.20854	0.19317	0.14158	0.11671	-3.9771	-4.5188	-4.0292	-4.7021	-4.4771	-4.2708	-4.8167	-4.3229	-4.3604	-4.5729	-4.225	-4.625	-4.4167	-4.1479	-4.5167	-4.3187	101.025	203.097	107.904	176.470	-69.630	-48.202	153.434	125.925	194.114	231.216	217.881	-81.735	79.951	128.079	178.181	141.316	0.00042078	0.0001864	0.00012727	754.54	4.7426e-06	3.0118e-06	725.26	248.87	1.4596e-06	2.71e-06	259.38	99.045	97.343	40.284	5.0353e-06	48.211	0.00054474	0.00055368	0.00015354	759.79	5.886e-06	5.9078e-06	729.62	251.96	7.44e-06	6.0464e-06	261.03	100.6	98.48	41.132	7.6582e-06	48.692	-49.314	-80.283	-40.389	-108.171	29.504	51.498	-109.149	-102.393	91.482	0.847	-104.598	-99.688	-96.878	-92.226	26.063	-96.182	-8191	255	
40110.418	1	1	0	0	0.087093	0.13731	0.073991	0.052035	0.08706	0.32685	0.17046	0.13657	0.19479	0.14606	0.10341	0.092292	0.27925	0.11496	0.29543	0.38251	-3.9354	-4.7833	-4.1896	-4.6042	-4.5833	-4.0708	-4.7229	-4.3229	-4.1	-4.675	-4.0729	-4.6354	-4.5271	-4.0875	-4.7229	-4.5667	64.162	-85.241	224.372	-63.562	-70.339	205.117	192.554	146.160	-85.190	120.145	19.896	-22.144	169.538	180.706	44.357	169.963	0.00036864	0.00051382	0.00018845	759.43	4.8727e-06	4.8076e-06	732.94	248.48	4.9867e-06	4.2208e-06	259.04	99.56	97.068	40.167	6.6546e-06	47.892	0.00051165	0.00051454	0.00013984	761.91	5.4356e-06	5.5645e-06	732.15	250.61	7.4009e-06	5.5586e-06	260.4	100.7	98.051	41.041	7.0006e-06	48.598	-53.160	-19.922	-31.010	-108.348	22.727	42.724	-109.418	-102.122	-30.034	37.905	-104.248	-99.452	-96.660	-92.291	48.863	-96.497	-8191	255	
40110.535	1	1	0	0	0.18109	0.10232	0.043086	0.18655	0.11932	0.15664	0.066955	0.23094	0.047178	0.18021	0.062448	0.16392	0.15684	0.10576	0.26109	0.097231	-3.8667	-4.7188	-4.2729	-4.5875	-4.6375	-4.2854	-4.7812	-4.5687	-4.3396	-4.8583	-4.3396	-4.4062	-4.6438	-4.1729	-4.5875	-4.6333	-96.770	19.360	44.516	186.096	-113.264	-91.914	36.437	205.244	202.587	111.232	134.325	-103.597	-44.970	239.713	-27.481	154.626	0.00035242	0.00064113	0.00024212	761.33	6.0505e-06	3.5724e-06	731.25	248.6	3.3979e-06	3.663e-06	257.56	99.364	96.237	39.975	4.0944e-06	47.765	0.0004983	0.00048283	0.00013308	763.95	5.0956e-06	5.1694e-06	731.07	249.11	5.8439e-06	5.6165e-06	258.38	100.49	97.343	40.71	6.9211e-06	48.4	-51.394	-33.934	-18.170	-108.238	99.864	19.174	-109.397	-102.218	9.468	214.570	-104.830	-99.473	-96.574	-92.110	61.924	-96.167	-8191	255	
40110.633	1	1	0	0	0.19282	0.1211	0.12124	0.2243	0.08972	0.015038	0.061402	0.28348	0.15519	0.12933	0.20466	0.10245	0.12777	0.085093	0.13119	0.061088	-3.8229	-4.7688	-4.3375	-4.4542	-4.6646	-4.125	-4.5854	-4.6833	-4.0938	-4.7958	-4.3729	-4.3792	-4.8333	-4.3979	-4.2458	-4.6792	68.344	-45.660	-45.986	189.117	-12.745	14.386	191.508	233.834	-13.733	89.437	-78.427	204.616	-20.006	-69.360	-33.774	226.488	0.00043424	0.00055324	0.00018759	763.66	5.9909e-06	3.5256e-07	731.93	246.92	6.0171e-06	2.8048e-06	257.03	100.17	97.34	40.567	4.8211e-06	48.009	0.00046295	0.00045046	0.00012706	765.16	4.9195e-06	4.9409e-06	731.14	249.13	4.8046e-06	6.8499e-06	258.34	100.98	98.231	41.188	6.3692e-06	48.799	-50.408	-23.420	-52.707	-108.340	41.011	194.071	-109.300	-102.071	38.777	-86.370	-104.544	-99.498	-96.527	-92.237	16.790	-96.237	-8191	255	
40110.730	1	1	0	0	0.12071	0.2374	0.080231	0.30487	0.10846	0.24572	0.086789	0.12003	0.099494	0.079468	0.14838	0.073707	0.14222	0.074017	0.18169	0.10372	-3.7854	-4.5479	-4.3021	-4.3896	-4.6667	-4.2708	-4.4833	-4.6583	-4.1604	-4.5563	-4.5583	-4.3292	-4.7688	-4.5125	-4.3438	-4.5188	137.807	188.407	16.906	232.195	17.392	-66.661	28.115	195.365	54.322	-64.292	166.721	176.127	208.107	-74.862	27.131	-111.744	0.00042085	0.00049581	0.00017567	766.77	2.3981e-06	4.8171e-06	735.52	248.45	2.9525e-06	2.9454e-06	256.34	99.944	97.202	40.229	1.0083e-05	48.183	0.00043666	0.0004197	0.0001156	770.38	4.6025e-06	4.6116e-06	734.84	249.54	4.5668e-06	6.2183e-06	258.02	101.05	98.097	41.091	6.5046e-06	48.825	-52.459	-50.744	-7.640	-108.128	11.216	13.109	-109.462	-102.240	62.154	-64.010	-104.615	-99.261	-96.890	-92.017	42.366	-96.130	-8191	255	
40110.848	1	1	0	0	0.15025	0.090563	0.17186	0.16408	0.074019	0.23242	0.30765	0.026787	0.012471	0.31658	0.19534	0.084842	0.17187	0.19698	0.15476	0.041128	-3.7687	-4.6083	-4.4667	-4.2146	-4.8521	-4.2417	-4.4708	-4.8375	-4.0375	-4.5979	-4.4646	-4.2812	-4.8146	-4.3792	-4.3917	-4.8021	174.915	-113.763	-45.083	145.358	124.436	-42.078	-101.873	199.575	124.822	-38.805	-116.809	187.081	-107.015	-62.549	-80.823	-61.608	0.00039289	0.00036976	0.00012488	765.6	4.4071e-06	4.4373e-06	735.65	248.16	2.0761e-06	3.9842e-06	256.48	101.51	97.897	40.75	1.0439e-05	48.758	0.0004196	0.00039239	0.00011164	766.26	4.9779e-06	4.2785e-06	735.16	249.08	4.3707e-06	6.4387e-06	258.6	102.18	98.688	41.539	5.9845e-06	49.474	-48.728	-15.937	-32.397	-108.395	115.955	37.341	-109.472	-102.276	50.597	-33.134	-104.386	-99.333	-96.635	-92.506	53.269	-96.051	-8191	255	
40110.922	1	1	0	0	0.10319	0.2441	0.070462	0.12246	0.14127	0.10521	0.18812	0.33715	0.15473	0.12014	0.23334	0.1302	0.048369	0.20217	0.25116	0.085104	-4.0042	-4.5312	-4.5938	-4.2396	-4.7833	-4.3333	-4.3187	-4.8708	-4.2479	-4.6146	-4.7	-4.0437	-4.7458	-4.4208	-4.1438	-5.0104	91.246	194.057	154.581	-110.669	105.263	-96.219	210.798	169.609	196.921	192.359	82.402	-103.920	59.692	203.256	42.055	229.777	0.00040402	0.00045704	0.00013488	771.26	2.8307e-06	2.5071e-06	736.65	248.92	1.8419e-07	4.2375e-06	257.85	102.56	98.233	41.201	8.2558e-06	49.629	0.00040919	0.00038876	0.00010736	770.16	6.2801e-06	4.2291e-06	739.5	249.92	4.2903e-06	6.0112e-06	259.68	103.12	99.208	41.916	6.2983e-06	50.048	-43.994	-25.200	-20.831	-107.994	109.687	56.891	-109.402	-102.316	6.857	-29.754	-104.921	-99.323	-96.959	-92.171	19.095	-96.366	-8191	255	
40111.016	1	1	0	0	0.22602	0.195	0.11475	0.1452	0.10632	0.21734	0.21137	0.14903	0.13194	0.057306	0.24905	0.18643	0.06221	0.11936	0.20842	0.16956	-3.7646	-4.3292	-4.7771	-4.2188	-4.7896	-4.5396	-4.2417	-4.8812	-4.3292	-4.5333	-4.6542	-4.2479	-4.5792	-4.5312	-4.1646	-4.8271	-44.581	203.758	-3.343	-91.269	-112.322	187.803	176.309	-67.471	-91.177	112.394	72.176	86.213	-46.415	-110.172	92.663	194.680	0.00041333	0.00042865	0.00021225	774.27	5.9944e-06	3.7797e-06	746.8	248.61	1.6361e-06	5.6944e-06	259.63	102.91	99.424	41.318	5.7672e-06	49.228	0.00039185	0.00037238	9.7965e-05	774.45	5.6691e-06	3.7754e-06	743.2	250.27	3.5781e-06	5.8374e-06	260.41	103.42	99.875	42.005	4.1635e-06	49.963	-45.441	-55.160	-4.915	-108.094	170.031	23.170	-109.440	-101.991	49.658	-37.357	-104.753	-99.658	-96.999	-92.375	27.882	-96.185	-8191	255	
40111.137	1	1	0	0	0.11771	0.13462	0.20725	0.17849	0.20274	0.082964	0.0702	0.20405	0.12714	0.12822	0.10214	0.12311	0.24457	0.23769	0.19702	0.15412	-3.9896	-4.475	-4.85	-4.2854	-4.5896	-4.5104	-4.3562	-4.7771	-4.2063	-4.2833	-4.8063	-4.2542	-4.7042	-4.5563	-3.9979	-4.85	98.261	-110.974	-65.654	-109.891	-53.735	81.139	27.177	170.340	-31.754	183.255	239.259	236.845	206.894	-107.613	-64.655	233.012	0.00038204	0.00016659	0.0001663	779.17	7.437e-06	3.0364e-06	747.77	248.23	3.6289e-06	6.3223e-06	259.05	103.49	99.617	41.546	5.1723e-06	50.279	0.00033451	0.00030954	8.3317e-05	778.14	5.2259e-06	3.1408e-06	743.1	248.74	2.9677e-06	4.7492e-06	259.24	104.01	100.25	42.301	2.5728e-06	50.751	-49.655	-51.233	-41.138	-108.044	118.345	36.842	-109.202	-102.125	28.367	-6.543	-104.616	-99.195	-96.726	-92.396	-4.166	-96.403	-8191	255	
40111.234	1	1	0	0	0.15972	0.086302	0.15949	0.22486	0.046042	0.10749	0.056725	0.077866	0.2515	0.12114	0.17841	0.06987	0.13245	0.12254	0.13711	0.36074	-4.0333	-4.3	-4.7688	-4.1917	-4.4917	-4.7125	-4.3708	-4.7167	-4.3812	-4.2521	-4.8292	-4.1271	-4.5479	-4.6583	-4.1042	-4.7063	107.551	-80.247	-107.303	235.313	220.004	-117.164	212.761	177.757	86.032	69.229	211.114	-86.782	206.269	-66.431	49.251	181.551	0.00041777	0.00035191	0.00013309	788.07	6.0509e-06	2.556e-06	754.87	250.59	3.6042e-06	3.8376e-06	262.41	105.65	100.8	42.046	3.8818e-06	50.809	0.00027878	0.00023202	5.8815e-05	785.57	4.1962e-06	2.3113e-06	752.06	251.74	2.3847e-06	4.3537e-06	262.18	105.6	101.32	42.824	2.3361e-06	51.265	-50.836	-17.387	-42.237	-108.266	96.196	17.394	-109.511	-102.274	51.100	-6.212	-104.746	-99.577	-96.734	-92.285	40.931	-96.401	-8191	255	
40111.328	1	1	0	0	0.21313	0.31396	0.074177	0.13871	0.23876	0.071568	0.21904	0.08771	0.18021	0.042872	0.20975	0.18015	0.14618	0.16219	0.16052	0.11263	-3.8187	-4.0729	-4.7125	-4.3875	-4.5958	-4.6917	-4.2625	-4.7937	-4.5208	-4.2458	-4.7771	-4.2792	-4.4292	-4.8604	-4.1771	-4.6	-17.613	-71.995	-98.943	182.545	-119.944	-58.916	-68.246	180.921	229.110	42.703	-94.772	-87.810	152.514	-69.196	-44.197	86.677	0.00043642	0.00029159	0.00016624	788.87	6.9953e-06	3.1507e-06	756.24	249.58	3.2399e-06	7.7637e-06	261.39	104.77	99.543	41.636	2.9839e-06	50.135	0.00025361	0.00020869	5.6619e-05	785.38	4.5045e-06	2.2327e-06	752.08	250.19	2.4203e-06	2.9742e-06	261.79	105.27	100.61	42.313	2.6936e-06	50.712	-55.360	-39.903	-14.986	-108.313	83.425	19.587	-109.537	-102.221	21.919	22.235	-104.940	-99.540	-96.501	-92.314	61.548	-96.110	-8191	255	
40111.426	1	1	0	0	0.28906	0.15454	0.17776	0.05888	0.068478	0.13151	0.14583	0.27589	0.1549	0.22609	0.13815	0.056753	0.2548	0.203	0.11315	0.21493	-4.15	-4.1896	-4.7562	-4.3792	-4.2792	-4.8688	-4.3292	-4.6937	-4.5896	-4.2229	-4.7979	-4.4917	-4.4604	-4.8917	-4.1479	-4.6583	199.641	-55.704	76.586	93.067	56.357	-80.988	199.266	143.979	190.577	94.260	-58.609	-102.801	-16.857	23.634	214.787	-115.788	0.00039837	0.00049979	0.00011232	780.28	2.3145e-06	3.7895e-06	751.14	245.18	1.6896e-06	3.5132e-06	258.31	103.12	98.339	40.951	3.25e-06	48.554	0.00028162	0.00026082	6.9005e-05	778.58	4.5316e-06	2.8578e-06	747.29	246.56	3.0359e-06	3.095e-06	259.58	103.32	99.078	41.445	3.1778e-06	49.249	-51.072	-37.688	-35.572	-108.163	-68.201	36.877	-109.347	-102.103	17.767	33.870	-104.829	-99.513	-96.707	-92.404	20.595	-96.155	-8191	255	
40111.520	1	1	0	0	0.089299	0.041346	0.098282	0.17518	0.12282	0.15681	0.16336	0.12675	0.12832	0.13212	0.24655	0.055913	0.20479	0.30515	0.071482	0.15955	-4.1396	-3.9958	-4.6521	-4.5417	-4.2104	-4.7188	-4.2812	-4.5646	-4.5875	-4.2312	-4.7063	-4.4417	-4.35	-5.05	-4.1583	-4.3604	221.191	83.007	103.709	-80.085	125.201	33.397	116.282	237.671	80.759	213.283	188.432	12.815	-64.236	205.836	94.922	195.330	0.0004065	0.0002164	0.00016518	768.93	5.0451e-06	5.0465e-06	736.14	240.33	2.6083e-06	2.7806e-06	252.23	100.46	96.274	39.726	2.9078e-06	47.18	0.00032332	0.00029734	8.2624e-05	768.2	5.3426e-06	3.341e-06	733.38	242.35	3.4465e-06	3.4481e-06	254.14	101.05	97.343	40.383	3.6567e-06	47.955	-52.159	-30.404	-32.210	-108.129	85.083	18.655	-109.440	-102.158	38.807	-19.727	-104.955	-99.793	-97.009	-92.365	40.639	-96.226	-8191	255	
40111.617	1	1	0	0	0.1826	0.13818	0.092361	0.024701	0.15182	0.087088	0.35741	0.12688	0.050855	0.23228	0.13464	0.1736	0.11388	0.23426	0.15043	0.15231	-4.3625	-4	-4.5563	-4.5354	-4.0437	-4.8333	-4.3938	-4.4542	-4.7229	-4.1125	-4.6458	-4.6146	-4.2771	-4.9583	-4.2937	-4.4688	141.146	47.232	52.611	154.602	-19.001	2.853	157.779	154.529	48.351	237.867	110.077	127.605	138.062	-54.557	153.267	32.779	0.00034634	0.00033134	0.00017713	758.48	6.3499e-06	2.4857e-06	721.53	235.19	3.954e-06	3.0011e-06	248.67	98.313	94.263	38.368	3.5228e-06	45.821	0.00035358	0.00034373	9.3612e-05	757.23	4.4176e-06	4.862e-06	722.19	236.68	4.0902e-06	4.1719e-06	249.62	98.971	95.394	39.175	4.3652e-06	46.637	-49.220	-29.612	-23.322	-108.224	46.269	211.191	-109.487	-102.048	-28.973	-33.306	-104.957	-99.657	-96.987	-92.135	23.973	-96.430	-8191	255	
40111.715	1	1	0	0	0.096108	0.20755	0.091002	0.20783	0.064951	0.20671	0.095772	0.30574	0.13425	0.13386	0.29962	0.23116	0.33422	0.16007	0.16301	0.23957	-4.5354	-4.0667	-4.35	-4.7208	-4.2104	-4.8375	-4.5375	-4.3271	-4.6917	-4.1958	-4.5521	-4.7104	-4.1875	-4.9812	-4.5062	-4.3417	48.994	169.326	-36.710	193.847	-104.945	-73.534	215.218	150.861	131.562	225.611	210.661	-86.956	184.367	-45.015	142.199	212.199	0.00041374	0.00030298	0.00019655	741.14	7.2518e-06	1.242e-06	713.44	231.15	2.0259e-06	2.2789e-06	245.23	97.77	93.844	38.281	3.7963e-06	45.898	0.00041318	0.0004094	0.00011149	742.07	4.4993e-06	6.6629e-06	712.87	232.95	4.4873e-06	4.5135e-06	247.22	98.481	94.669	38.937	4.5334e-06	46.587	-50.827	-6.924	-9.109	-108.243	-20.739	101.676	-109.224	-101.939	84.793	-42.307	-104.769	-99.879	-96.928	-92.119	-6.208	-95.895	-8191	255	
40111.809	1	1	0	0	0.22566	0.10389	0.26381	0.21322	0.13292	0.18864	0.22526	0.12079	0.21819	0.13202	0.12224	0.1766	0.2172	0.098415	0.10825	0.37694	-4.3792	-4.0604	-4.3646	-4.5563	-4.2396	-4.7646	-4.5583	-4.1667	-4.7521	-4.2271	-4.4958	-4.5687	-4.1417	-4.7771	-4.4479	-4.3083	164.841	-68.346	217.833	162.067	-95.969	-38.285	216.312	181.334	172.705	39.029	-11.754	-19.197	184.493	216.624	-0.552	130.006	0.00038675	0.00039333	8.969e-05	739.65	1.032e-06	3.4951e-06	713.07	231.31	3.7362e-06	3.8573e-06	245.06	98.936	94.48	38.398	4.5861e-06	45.905	0.00042058	0.00040234	0.00011065	739.66	4.3395e-06	6.1556e-06	713.62	232.58	4.4121e-06	4.4816e-06	247.97	99.556	95.701	39.205	4.8454e-06	46.55	-56.171	28.419	-4.617	-108.393	-119.167	77.307	-109.397	-102.263	94.265	-21.235	-104.738	-99.415	-96.836	-92.130	4.091	-96.087	-8191	255	
40111.930	1	1	0	0	0.098734	0.11257	0.065095	0.33612	0.13004	0.088142	0.20285	0.24138	0.11464	0.078042	0.17067	0.35212	0.082637	0.10424	0.19128	0.0933	-4.4229	-4.2125	-4.3146	-4.7146	-4.05	-4.5333	-4.6188	-4.1521	-4.8604	-4.3083	-4.3688	-4.7208	-4.3208	-4.8	-4.5188	-4.0417	144.897	-22.198	50.088	-110.047	73.441	174.858	143.000	104.702	112.069	104.343	179.670	206.875	-106.433	47.984	159.239	0.655	0.00035306	0.00061115	0.0001602	733.56	7.8524e-06	1.791e-06	710.05	233.07	2.3032e-06	2.9457e-06	250.53	98.766	95.812	38.875	6.0511e-06	46.021	0.00053337	0.000467	0.00013176	734.2	5.288e-06	7.7832e-06	709.8	235.01	5.8893e-06	6.1085e-06	252.52	100.82	97.907	39.86	6.6793e-06	46.895	-58.108	-66.851	-42.617	-108.097	41.988	-35.846	-109.608	-102.319	36.666	-8.254	-104.820	-99.695	-96.849	-91.922	-28.159	-96.115	-8191	255	
40112.023	1	1	0	0	0.28228	0.17192	0.18904	0.079076	0.10109	0.095613	0.24203	0.15006	0.1702	0.114	0.23271	0.25309	0.09128	0.085715	0.089376	0.16217	-4.35	-4.1521	-4.2958	-4.8708	-4.2125	-4.4167	-4.7812	-4.1708	-4.7312	-4.4313	-4.2667	-4.9417	-4.2417	-4.5771	-4.4875	-4.2917	125.435	174.000	126.248	156.081	-8.171	-59.243	151.156	216.845	237.288	62.357	-98.439	132.497	154.864	87.278	138.699	142.558	0.0003574	0.00034643	0.00011315	735.21	3.3235e-06	4.2803e-06	711.9	243.11	1.5787e-06	3.6045e-06	257.38	102.42	99.347	40.293	5.1307e-06	47.127	0.00076122	0.00062996	0.00018198	737.53	6.9328e-06	8.9581e-06	713.67	244.97	7.0436e-06	7.4176e-06	261.06	103.55	101.34	41.291	7.4232e-06	47.881	-62.535	-24.657	-45.987	-108.126	73.192	-115.511	-109.332	-102.107	54.345	18.921	-104.798	-99.570	-97.051	-92.046	26.228	-96.138	-8191	255	
40112.121	1	1	0	0	0.12952	0.099545	0.19171	0.24057	0.093885	0.30125	0.29579	0.18521	0.12782	0.11306	0.076153	0.061933	0.048653	0.17244	0.14631	0.19325	-4.2271	-4.4208	-4.2188	-4.7896	-4.1562	-4.4333	-4.7479	-4.2646	-4.5667	-4.4187	-4.1375	-4.8896	-4.3708	-4.2333	-4.5083	-4.1583	108.814	1.369	-91.156	185.016	121.165	72.622	236.478	176.473	170.408	125.083	150.717	-91.413	225.295	165.788	-106.445	-74.077	0.00027807	0.00061926	0.00011494	728.55	4.6942e-06	3.5042e-06	706.95	244.36	1.2504e-06	4.2391e-06	259.97	103.8	100.74	41.101	2.6372e-06	47.397	0.00075773	0.00064432	0.0001749	732.55	6.5978e-06	8.7924e-06	708.86	246.58	6.2427e-06	6.2092e-06	262.22	105.14	102.28	41.959	6.1756e-06	48.147	-45.246	-33.091	-6.922	-108.023	71.808	114.344	-109.132	-102.223	24.701	41.534	-104.582	-99.919	-97.019	-92.190	68.105	-96.295	-8191	255	
40112.219	1	1	0	0	0.15228	0.15158	0.2495	0.10533	0.19656	0.21654	0.23	0.20442	0.084044	0.15604	0.17201	0.27235	0.011723	0.036673	0.105	0.14699	-4.2229	-4.5146	-4.0854	-4.7333	-4.2875	-4.3812	-4.8771	-4.1479	-4.6312	-4.5771	-4.1792	-4.7604	-4.2937	-4.3125	-4.6854	-4.2208	173.634	194.966	192.194	152.331	-54.982	35.743	138.494	198.923	13.938	147.136	202.023	168.962	166.718	75.038	218.761	35.772	0.00031658	0.00053803	0.00014734	726.47	4.7059e-06	8.905e-07	706.57	246.4	3.6378e-06	5.2103e-06	261.48	103.91	100.73	40.652	6.0772e-06	46.85	0.00073283	0.00057196	0.00015411	726.89	6.1894e-06	7.8971e-06	707.75	248.39	6.386e-06	6.4538e-06	264.34	105.42	102.49	41.512	6.5514e-06	47.627	-50.786	-37.316	-71.850	-107.999	30.524	-104.843	-109.583	-102.058	49.864	52.593	-104.625	-99.513	-97.226	-92.245	39.800	-95.936	-8191	255	
40112.312	1	1	0	0	0.057987	0.1067	0.099787	0.38567	0.05959	0.15898	0.062934	0.071558	0.12478	0.20863	0.11852	0.074711	0.2033	0.3232	0.052	0.065126	-4.1979	-4.4958	-4.1333	-4.7667	-4.3125	-4.4062	-4.8708	-4.3063	-4.4979	-4.5542	-4.1458	-4.6979	-4.4854	-4.3292	-4.6479	-4.2646	236.250	13.416	174.224	157.910	145.870	-108.085	214.629	168.116	52.707	-75.819	99.172	167.247	154.391	218.372	160.225	12.065	0.00033251	0.00063653	0.00011475	722.2	5.2949e-06	7.7369e-06	708.25	248.21	2.9873e-06	3.7585e-06	262.89	103.33	100.71	40.321	4.5338e-06	46.209	0.00074629	0.00062775	0.00017536	724.79	7.1334e-06	9.0277e-06	709.18	249.96	7.5085e-06	7.4819e-06	265.63	105.13	102.67	41.168	7.4131e-06	47.032	-56.199	-43.965	-14.371	-107.932	15.619	-19.148	-109.380	-102.243	79.810	37.942	-104.679	-99.580	-96.957	-92.050	33.677	-96.130	-8191	255	
40112.410	1	1	0	0	0.10792	0.082752	0.10219	0.21956	0.092365	0.10774	0.035366	0.17235	0.31498	0.083033	0.18145	0.34213	0.25946	0.30798	0.33328	0.35706	-4.0437	-4.7375	-4.0813	-4.6208	-4.4875	-4.2396	-4.7604	-4.3667	-4.3875	-4.6542	-4.2167	-4.4542	-4.6083	-4.3021	-4.6937	-4.3021	140.552	153.900	177.973	206.938	37.039	-62.809	104.672	152.181	239.656	66.386	-116.819	207.767	154.154	-108.793	-81.093	205.241	0.00031663	0.00023623	6.2916e-05	720.56	7.2475e-06	5.2914e-06	704.7	248.93	6.0352e-06	6.2404e-06	263.76	104.41	102.72	41.24	3.2192e-06	47.166	0.0008295	0.00068039	0.00019166	723.6	7.5429e-06	8.0899e-06	711.29	251.91	7.7922e-06	7.9763e-06	267.88	106.63	104.9	42.25	8.3292e-06	48.109	-50.223	22.899	-9.989	-107.889	-23.409	38.683	-109.166	-102.240	38.375	44.093	-104.931	-99.821	-97.207	-92.050	-18.860	-96.336	-8191	255	
40112.531	1	1	0	0	0.22984	0.20433	0.030734	0.17295	0.15157	0.15448	0.21541	0.11138	0.15429	0.036093	0.16356	0.1895	0.17475	0.08546	0.31539	0.10078	-3.8688	-4.6813	-4.0333	-4.5875	-4.4354	-4.125	-4.8708	-4.5542	-4.2688	-4.6937	-4.3313	-4.4396	-4.5792	-4.1562	-4.7229	-4.4437	83.886	218.339	99.472	187.017	-102.593	57.248	211.209	-21.532	-63.818	-105.626	65.473	29.849	177.121	-65.555	99.288	-53.385	0.00030704	0.00052124	0.00018035	725.98	7.4698e-06	4.1676e-06	713.99	252.54	4.2021e-06	3.925e-06	262.37	104.07	102.22	41.371	8.8331e-06	46.924	0.00087589	0.00076749	0.00022325	730.36	8.6569e-06	9.1231e-06	720.83	254.4	9.4736e-06	9.7461e-06	268.07	106.78	105.19	42.458	1.0646e-05	48.062	-51.501	10.749	-37.048	-107.715	-26.508	38.891	-109.310	-102.117	58.558	16.646	-104.682	-99.446	-97.166	-92.203	52.017	-95.930	-8191	255	
40112.625	1	1	0	0	0.077503	0.16345	0.16588	0.19733	0.04306	0.17162	0.28682	0.24081	0.14461	0.20531	0.16133	0.11385	0.16476	0.083029	0.061649	0.21071	-3.9396	-4.6833	-4.2167	-4.475	-4.6604	-4.1188	-4.7292	-4.4292	-4.1417	-4.775	-4.225	-4.5229	-4.7354	-4.0833	-4.6188	-4.5625	234.112	188.024	111.770	121.996	-77.028	59.844	190.414	182.460	3.924	-70.536	217.247	122.935	-91.259	57.119	200.761	194.863	0.00031663	0.00016391	7.5362e-05	729.04	9.1463e-06	6.2521e-06	711.9	246.47	1.6976e-06	5.2948e-06	262.21	104.28	103.13	41.787	4.4354e-06	47.311	0.0010436	0.0010233	0.00028094	734.95	1.0858e-05	1.1164e-05	720.23	250.8	1.0797e-05	1.0992e-05	266.9	107.32	105.89	42.772	1.0439e-05	48.423	-51.422	15.785	-92.019	-107.932	6.603	68.923	-109.214	-102.057	11.964	83.594	-104.536	-99.556	-96.746	-92.007	35.496	-95.912	-8191	255	
40112.723	1	1	0	0	0.25437	0.067175	0.14561	0.1178	0.1615	0.1067	0.094105	0.18027	0.091571	0.12623	0.024005	0.28747	0.20155	0.22291	0.15283	0.080995	-3.8042	-4.8375	-4.2833	-4.35	-4.5729	-4.1625	-4.6979	-4.6083	-4.2375	-4.7937	-4.4896	-4.4021	-4.6375	-4.1438	-4.4688	-4.7125	17.752	-97.292	57.672	135.821	0.152	105.405	170.397	217.499	203.346	-46.485	121.653	-86.477	-119.714	193.912	86.036	80.797	0.00034426	0.00017293	9.2422e-05	724.13	4.1679e-06	5.3737e-06	711.27	250.51	6.9112e-07	4.9728e-06	265.61	106.57	105.15	42.38	5.5273e-06	48.084	0.00087338	0.0010192	0.00025319	731.29	9.4803e-06	9.7356e-06	719.39	253.33	8.7353e-06	8.6059e-06	269.24	108.93	107.24	43.212	7.6529e-06	48.84	-41.315	-83.004	-24.479	-107.564	-32.423	-20.422	-109.035	-101.911	107.963	29.831	-104.327	-99.808	-96.969	-92.159	41.740	-95.903	-8191	255	
40112.820	1	1	0	0	0.22968	0.070835	0.15254	0.33096	0.066391	0.066639	0.11245	0.20196	0.31744	0.11321	0.076321	0.034111	0.12241	0.14531	0.26468	0.21678	-3.7812	-4.7479	-4.3167	-4.1875	-4.7854	-4.2937	-4.6188	-4.7625	-4.1146	-4.5375	-4.4583	-4.1625	-4.6125	-4.35	-4.425	-4.7021	-87.733	-67.497	150.857	213.620	85.854	197.275	185.134	81.640	14.982	19.918	102.686	210.157	225.073	-22.467	65.530	221.576	0.0004055	0.0003234	0.00016445	710.4	5.992e-06	2.235e-06	695.02	250.8	4.1426e-06	2.0598e-06	263.27	105.77	103.48	41.176	5.0814e-06	46.735	0.00063366	0.00084004	0.00017681	714.47	6.358e-06	6.4663e-06	699.29	252.28	5.7378e-06	5.6718e-06	266.38	106.82	104.99	41.974	4.5703e-06	47.373	-57.860	16.717	-15.975	-107.886	86.827	-38.050	-108.906	-102.158	-1.354	-27.359	-104.384	-99.364	-97.130	-92.032	9.221	-96.113	-8191	255	
40112.914	1	1	0	0	0.10562	0.15556	0.30917	0.051536	0.10446	0.17285	0.17606	0.23579	0.099966	0.10813	0.061679	0.08296	0.065264	0.12749	0.10448	0.066069	-3.6813	-4.7229	-4.5333	-4.3396	-4.6375	-4.15	-4.5146	-4.7188	-4.1562	-4.4708	-4.6542	-4.2083	-4.8729	-4.3208	-4.4875	-4.7833	75.159	158.108	-75.271	-30.414	-48.664	-81.480	66.973	210.095	-41.192	84.114	111.193	229.532	72.734	-113.758	-79.178	181.982	0.00040058	0.00035436	9.6468e-05	697.06	4.2809e-06	5.259e-06	676.62	247.21	2.5191e-06	3.58e-06	262.83	105.44	102.78	41.694	1.7162e-06	47.573	0.00039362	0.0005091	9.7279e-05	695.97	3.4824e-06	3.3692e-06	679.83	248.28	2.9757e-06	2.8009e-06	264.16	105.87	104.41	42.13	2.6106e-06	47.889	-50.709	-4.208	-12.738	-107.649	55.073	43.674	-108.858	-101.934	70.405	52.436	-104.692	-99.572	-96.992	-92.117	18.876	-96.208	-8191	255	
40113.008	1	1	0	0	0.089441	0.18505	0.076735	0.022196	0.22511	0.069166	0.19588	0.16742	0.10851	0.17876	0.088645	0.08771	0.10015	0.045133	0.4815	0.18168	-3.7729	-4.4938	-4.4792	-4.1875	-4.7312	-4.3521	-4.3187	-4.7583	-4.1979	-4.3562	-4.7	-4.1896	-4.6375	-4.3313	-4.0437	-4.7375	-60.389	14.877	73.816	130.786	53.288	216.064	166.357	170.048	163.480	-104.653	52.212	-21.925	-71.590	70.364	47.150	207.880	0.00036236	0.00020104	9.1489e-05	703.33	2.0883e-06	3.661e-06	685.74	257.89	8.5755e-07	4.4174e-06	276.13	109.12	107	42.48	2.1214e-06	48.968	0.00025568	0.00039019	5.82e-05	700.29	2.1736e-06	2.2011e-06	684.75	257.87	2.2057e-06	2.0802e-06	275.39	109.27	108.19	43.12	2.1647e-06	49.319	-54.796	49.644	-42.974	-107.771	-9.527	20.797	-108.978	-102.052	55.195	15.625	-104.724	-99.552	-96.922	-92.097	55.496	-95.899	-8191	255	
40113.105	1	1	0	0	0.14659	0.15239	0.12909	0.15034	0.036613	0.11309	0.12552	0.16007	0.15738	0.11254	0.022383	0.15166	0.065348	0.091263	0.23995	0.062721	-3.7958	-4.2812	-4.7208	-4.1708	-4.5563	-4.4375	-4.3208	-4.7917	-4.2333	-4.4729	-4.6542	-4.1333	-4.6271	-4.5146	-4.1833	-4.8396	-6.059	119.914	80.692	174.278	7.745	-77.893	41.442	201.598	239.925	164.249	36.812	121.886	111.339	174.813	124.430	-82.580	0.00040311	0.00021744	0.00010525	715.21	5.6368e-06	4.5353e-06	701.58	276.86	3.4066e-06	4.0386e-06	292.97	112.14	109.94	43.726	3.1684e-06	50.172	0.0002359	0.00033048	5.169e-05	715.08	2.1208e-06	2.125e-06	700.88	277.01	2.2801e-06	2.2347e-06	292.38	112.85	111.11	44.335	2.4088e-06	50.764	-53.630	17.500	-17.197	-107.721	-5.881	22.610	-108.947	-101.827	52.318	47.201	-104.821	-99.560	-96.685	-92.223	18.435	-96.034	-8191	255	
40113.227	1	1	0	0	0.046145	0.023065	0.25596	0.16074	0.040275	0.088699	0.20426	0.14559	0.16093	0.21045	0.43592	0.030308	0.14198	0.01879	0.21153	0.003589	-3.8	-4.3771	-4.7375	-3.9875	-4.4354	-4.6167	-4.3854	-4.7333	-4.1854	-4.2708	-4.7646	-4.1042	-4.65	-4.6687	-4.1333	-4.7917	53.331	-16.468	20.267	-52.409	64.591	139.007	-113.757	70.862	-72.103	215.466	127.195	27.582	50.394	221.121	162.658	120.296	0.00041861	0.00027337	0.00011939	730.61	6.5138e-06	7.1151e-06	715.47	285.95	5.4898e-06	3.5574e-06	296.26	110.87	108.81	42.864	2.1919e-06	49.416	0.00026425	0.00039235	6.2358e-05	730.08	2.6045e-06	2.6326e-06	712.56	286.88	2.9873e-06	3.101e-06	296.05	112.08	110.24	43.564	3.7329e-06	50.066	-55.033	33.434	-25.750	-107.871	23.277	24.566	-109.244	-102.017	27.381	54.200	-104.537	-99.913	-97.031	-92.105	-30.595	-96.125	-8191	255	
40113.320	1	1	0	0	0.081751	0.15553	0.29405	0.14754	0.084519	0.18022	0.24521	0.31491	0.10815	0.15297	0.13943	0.10824	0.24379	0.04665	0.086017	0.23438	-4.0437	-4.2438	-4.575	-4.2292	-4.35	-4.3958	-4.375	-4.525	-4.3792	-4.2771	-4.8375	-3.9562	-4.4979	-4.7479	-4.2667	-4.5854	0.878	-32.634	-109.105	217.895	133.158	157.686	214.127	202.553	92.625	-107.452	212.428	223.837	163.202	-23.939	-91.410	-92.336	0.0004276	0.00019481	0.00020612	748.95	5.3539e-06	3.1866e-06	729.04	287.58	5.0704e-06	2.9811e-06	295.13	110.08	108.42	42.354	2.9263e-06	49.139	0.0003826	0.00051027	0.00010299	747.53	4.3508e-06	4.3887e-06	726.87	289.12	4.8084e-06	4.8821e-06	296.28	111.66	110.22	43.39	5.3539e-06	49.84	-50.238	20.186	-36.288	-107.843	53.318	14.822	-109.073	-102.121	14.360	10.811	-104.587	-99.596	-97.056	-92.137	54.418	-96.373	-8191	255	
40113.395	1	1	0	0	0.15929	0.23433	0.089807	0.16759	0.17479	0.16856	0.12017	0.11033	0.13953	0.14	0.13213	0.15554	0.26817	0.13643	0.25285	0.055193	-3.9167	-4.2937	-4.625	-4.1333	-4.4208	-4.6146	-4.2312	-4.4875	-4.3562	-4.1729	-4.8333	-4.3667	-4.4833	-4.7167	-4.0583	-4.6958	232.360	111.001	201.812	-75.532	-99.233	33.278	-74.015	-102.269	123.144	-113.968	139.721	-113.453	233.666	194.470	193.908	231.064	0.00040654	0.00067277	6.2523e-05	761.98	3.1208e-06	3.7389e-06	735.66	287.9	8.2192e-07	5.1446e-06	293.82	109.99	108.56	42.639	3.4852e-06	49.125	0.00050123	0.0006124	0.0001523	764.71	5.6283e-06	5.6506e-06	735.86	290.71	5.6563e-06	5.7952e-06	295.65	111.41	110.55	43.398	6.0449e-06	49.834	-52.099	-1.916	100.577	-107.923	26.805	72.403	-109.023	-101.974	-3.677	14.409	-104.761	-99.842	-96.938	-92.125	104.649	-96.225	-8191	255	
40113.488	1	1	0	0	0.14282	0.14122	0.022937	0.092672	0.082252	0.034909	0.22672	0.12163	0.10514	0.08466	0.19117	0.23843	0.047522	0.28367	0.18612	0.29251	-3.925	-4.0333	-4.6729	-4.3042	-4.3354	-4.6438	-4.2167	-4.6396	-4.4979	-4.1021	-4.7896	-4.2271	-4.2958	-4.8771	-4.2625	-4.4354	6.814	-93.095	191.885	166.186	-59.078	-96.949	158.769	167.645	192.466	190.975	-101.980	-20.328	-28.281	222.787	74.169	187.753	0.0003988	0.00024617	0.00015167	776.35	4.5368e-06	2.9765e-06	744.12	289.32	3.0019e-06	7.1414e-06	295.03	109.97	108.6	42.336	3.2717e-06	48.948	0.00055727	0.00055863	0.00019075	777.11	6.3201e-06	6.6413e-06	746.23	292.43	7.0195e-06	7.3182e-06	297.91	111.83	110.99	43.497	9.2795e-06	49.919	-56.920	-2.986	-64.537	-107.734	20.966	25.900	-109.101	-102.170	12.125	68.575	-104.803	-99.919	-96.925	-92.038	91.614	-95.759	-8191	255	
40113.609	1	1	0	0	0.0046827	0.18238	0.20361	0.077153	0.090097	0.23428	0.073418	0.12136	0.17297	0.083697	0.1688	0.12419	0.097737	0.081031	0.33141	0.23224	-4.2979	-4.1042	-4.6396	-4.3562	-4.2021	-4.7583	-4.2479	-4.4	-4.5854	-4.1125	-4.6604	-4.325	-4.15	-4.7958	-4.3583	-4.4542	-30.354	106.822	-81.260	-50.606	32.617	87.223	175.336	-120.084	186.246	-19.873	197.315	-74.423	10.477	2.541	105.250	138.021	0.00038721	0.00026338	0.00013449	782.32	3.5834e-06	3.0861e-06	747.58	283	2.4321e-06	3.1685e-06	289.46	107.44	105.91	41.216	4.7039e-06	47.728	0.00086118	0.00097313	0.00033619	789.09	1.1584e-05	1.1803e-05	757.05	288.18	1.1843e-05	1.2663e-05	294.93	110.6	109.42	42.604	1.2696e-05	49.084	-47.295	19.904	115.152	-107.678	69.698	-6.783	-109.064	-102.141	-9.856	52.466	-104.685	-99.608	-96.824	-92.000	91.071	-95.833	-8191	255	
40113.707	1	1	0	0	0.092917	0.34849	0.086684	0.10829	0.058837	0.090042	0.30235	0.29458	0.19351	0.1904	0.14261	0.1179	0.13629	0.24801	0.19622	0.22198	-4.2417	-3.8958	-4.6167	-4.6479	-4.2354	-4.6917	-4.2896	-4.6375	-4.7979	-4.1625	-4.7771	-4.5833	-4.1562	-4.8562	-4.3125	-4.3667	115.287	-2.402	185.558	-101.542	-79.162	-1.792	193.352	160.515	47.246	177.725	141.369	180.916	155.375	172.305	169.251	75.233	0.00036406	0.0005796	0.0001111	762.36	9.1582e-06	6.5968e-06	737.91	283.16	3.1334e-06	1.3764e-06	291	108.26	106.03	41.147	1.0035e-05	47.463	0.0010589	0.0011714	0.00037174	771.34	1.2609e-05	1.3096e-05	747.84	288.21	1.2905e-05	1.3451e-05	295.51	111.21	109.3	42.606	1.4004e-05	48.918	-60.283	-46.493	21.670	-107.649	22.846	16.838	-109.142	-101.995	39.515	-37.914	-104.710	-99.627	-96.949	-92.111	61.281	-96.136	-8191	255	
40113.805	1	1	0	0	0.16674	0.082952	0.12236	0.091749	0.14633	0.034482	0.16354	0.2085	0.088184	0.16775	0.17938	0.16138	0.010524	0.045832	0.15819	0.12433	-4.4417	-4.1625	-4.5583	-4.7625	-3.9313	-4.5625	-4.3729	-4.475	-4.6604	-4.2229	-4.6583	-4.5375	-4.2708	-4.6562	-4.3271	-4.35	5.466	15.338	191.214	-3.765	-42.163	50.871	90.803	-112.683	218.464	-64.816	97.106	164.217	-96.604	98.301	156.650	230.478	0.00040915	0.00014554	0.00018418	740.13	6.1701e-06	2.2359e-06	712.52	266.49	5.3877e-06	1.2513e-05	273	102.51	100.3	38.701	6.0634e-06	44.925	0.0011978	0.001399	0.0004468	750	1.5496e-05	1.632e-05	724.8	272.2	1.6491e-05	1.742e-05	280.79	105.99	104.53	40.512	1.8311e-05	46.645	-62.829	-98.577	8.218	-107.716	45.865	29.341	-108.877	-102.290	65.564	56.835	-104.888	-99.541	-97.266	-92.027	-3.146	-96.065	-8191	255	
40113.898	1	1	0	0	0.0788	0.049773	0.14312	0.22618	0.086512	0.13604	0.1292	0.19701	0.29376	0.29405	0.13035	0.12903	0.18715	0.052917	0.052721	0.027172	-4.4458	-4.1083	-4.4542	-4.5771	-4.1021	-4.6521	-4.5312	-4.3938	-4.5125	-4.0125	-4.4792	-4.7125	-4.2375	-4.7438	-4.5729	-4.1667	44.371	155.128	-69.130	177.882	-34.544	118.695	200.513	220.868	110.080	153.263	180.888	220.048	200.700	-64.317	-115.008	-18.347	0.00030462	0.00084485	0.00018492	704.54	1.0095e-05	3.6728e-06	689.32	262.78	2.8362e-06	3.5133e-06	272.66	103	102.24	39.474	2.9813e-06	46.04	0.0015008	0.0017441	0.00051132	721.92	1.7968e-05	1.8397e-05	702.35	268.17	1.7026e-05	1.6772e-05	280.74	106.64	105.6	41.097	1.4443e-05	47.406	-53.165	-27.127	-36.132	-107.609	73.297	51.912	-108.848	-102.072	-40.812	-11.680	-104.666	-99.577	-96.738	-91.792	112.722	-96.192	-8191	255	
40114.020	1	1	0	0	0.12435	0.1216	0.071437	0.19187	0.1495	0.059888	0.11603	0.18396	0.10722	0.36363	0.15766	0.043411	0.21018	0.17352	0.19421	0.21234	-4.3542	-4.1333	-4.3187	-4.6521	-4.0583	-4.4625	-4.6646	-4.2167	-4.6396	-4.3313	-4.3021	-4.7354	-4.4042	-4.5958	-4.55	-4.2438	92.445	-94.461	-116.682	180.042	-0.596	-79.977	185.673	214.525	102.434	0.885	192.845	155.734	35.366	203.887	122.071	-115.881	0.0003966	0.0007349	8.8274e-05	685.08	6.1258e-06	4.6245e-06	671.52	266.73	6.6657e-06	1.8899e-06	271.91	101.74	100.22	38.537	4.5677e-06	44.464	0.0011545	0.0012478	0.00038303	694.14	1.2285e-05	1.2487e-05	677.56	270.28	1.2883e-05	1.1772e-05	277.87	104.42	103.08	39.879	1.1353e-05	45.869	-42.697	-64.519	196.597	-107.802	105.728	7.664	-108.729	-102.173	82.419	86.414	-104.560	-99.767	-97.091	-91.834	-44.304	-96.175	-8191	255	
40114.090	1	1	0	0	0.11917	0.20048	0.19951	0.20283	0.17762	0.063054	0.088447	0.19711	0.12001	0.15848	0.082366	0.25324	0.091481	0.092714	0.0944	0.21363	-4.5375	-4.1708	-4.2292	-4.6021	-4.1646	-4.5437	-4.6562	-4.1979	-4.825	-4.3917	-4.225	-4.675	-4.2875	-4.6375	-4.6875	-4.2771	3.943	204.757	239.409	185.770	39.187	-76.715	-48.429	127.638	169.552	126.175	213.253	92.381	197.672	131.242	165.297	-116.348	0.00028098	0.00021625	7.5835e-05	679.78	2.0791e-06	3.7354e-06	664.65	262.26	7.5185e-06	3.3917e-06	269.19	99.066	97.46	37.527	3.2113e-06	43.715	0.00098689	0.0010619	0.00032991	684.45	1.1308e-05	1.1525e-05	671.9	266.36	1.332e-05	1.169e-05	274.69	102.16	100.64	38.784	1.1316e-05	44.831	-59.211	-29.920	37.677	-107.762	110.091	51.143	-108.992	-101.956	20.252	-3.780	-104.627	-99.634	-97.019	-91.982	216.444	-96.004	-8191	255	
#DATA ENDS
