BOXY.EXE: ISS Imagent and Oximeter Data Acquisition Program Version 0.80
Ascii Record File

#ACQ INFORMATION
2  Detector Channels 
16  External MUX Channels 
1  Auxiliary Channels 
5000  Waveform (CCF) Frequency (Hz)
1  Waveforms Skipped 
30  Waveforms Averaged 
1  Cycles Averaged 
16  Acquisitions per Waveform 
10.0806  Updata Rate (Hz) 

#FILE INFORMATION
TRUE -- External MUX Channel results are PARSED.
FALSE -- AC DC and Phase are NOT grouped.
TRUE -- Companion Program Settings File CREATED.
FALSE -- AC data not excluded
FALSE -- DC data not excluded
FALSE -- Phase data not excluded
FALSE -- Auxillary Chn. data not excluded
Tab delimiters

#CALIBRATION STATE
TRUE -- Waveform Calibration Values APPLIED.


#AUX CALIBRATION VALUES
Val Type	aux-1	

Term	1.0000e+00	
Factor	0.0000e+00	


#WF CALIBRATION VALUES
A = Detector Channel
Val Type	A-AC1	A-AC2	A-AC3	A-AC4	A-AC5	A-AC6	A-AC7	A-AC8	A-AC9	A-AC10	A-AC11	A-AC12	A-AC13	A-AC14	A-AC15	A-AC16	A-DC1	A-DC2	A-DC3	A-DC4	A-DC5	A-DC6	A-DC7	A-DC8	A-DC9	A-DC10	A-DC11	A-DC12	A-DC13	A-DC14	A-DC15	A-DC16	A-Ph1	A-Ph2	A-Ph3	A-Ph4	A-Ph5	A-Ph6	A-Ph7	A-Ph8	A-Ph9	A-Ph10	A-Ph11	A-Ph12	A-Ph13	A-Ph14	A-Ph15	A-Ph16	

Term	0.00000e+00	0.00000e+00	0.00000e+00	0.00000e+00	0.00000e+00	0.00000e+00	0.00000e+00	0.00000e+00	0.00000e+00	0.00000e+00	0.00000e+00	0.00000e+00	0.00000e+00	0.00000e+00	0.00000e+00	0.00000e+00	0.00000e+00	0.00000e+00	0.00000e+00	0.00000e+00	0.00000e+00	0.00000e+00	0.00000e+00	0.00000e+00	0.00000e+00	0.00000e+00	0.00000e+00	0.00000e+00	0.00000e+00	0.00000e+00	0.00000e+00	0.00000e+00	0.00000e+00	0.00000e+00	0.00000e+00	0.00000e+00	0.00000e+00	0.00000e+00	0.00000e+00	0.00000e+00	0.00000e+00	0.00000e+00	0.00000e+00	0.00000e+00	0.00000e+00	0.00000e+00	0.00000e+00	0.00000e+00	
Factor	1.00000e+00	1.00000e+00	1.00000e+00	1.00000e+00	1.00000e+00	1.00000e+00	1.00000e+00	1.00000e+00	1.00000e+00	1.00000e+00	1.00000e+00	1.00000e+00	1.00000e+00	1.00000e+00	1.00000e+00	1.00000e+00	1.00000e+00	1.00000e+00	1.00000e+00	1.00000e+00	1.00000e+00	1.00000e+00	1.00000e+00	1.00000e+00	1.00000e+00	1.00000e+00	1.00000e+00	1.00000e+00	1.00000e+00	1.00000e+00	1.00000e+00	1.00000e+00	X	X	X	X	X	X	X	X	X	X	X	X	X	X	X	X	

B = Detector Channel
Val Type	B-AC1	B-AC2	B-AC3	B-AC4	B-AC5	B-AC6	B-AC7	B-AC8	B-AC9	B-AC10	B-AC11	B-AC12	B-AC13	B-AC14	B-AC15	B-AC16	B-DC1	B-DC2	B-DC3	B-DC4	B-DC5	B-DC6	B-DC7	B-DC8	B-DC9	B-DC10	B-DC11	B-DC12	B-DC13	B-DC14	B-DC15	B-DC16	B-Ph1	B-Ph2	B-Ph3	B-Ph4	B-Ph5	B-Ph6	B-Ph7	B-Ph8	B-Ph9	B-Ph10	B-Ph11	B-Ph12	B-Ph13	B-Ph14	B-Ph15	B-Ph16	

Term	0.00000e+00	0.00000e+00	0.00000e+00	0.00000e+00	0.00000e+00	0.00000e+00	0.00000e+00	0.00000e+00	0.00000e+00	0.00000e+00	0.00000e+00	0.00000e+00	0.00000e+00	0.00000e+00	0.00000e+00	0.00000e+00	0.00000e+00	0.00000e+00	0.00000e+00	0.00000e+00	0.00000e+00	0.00000e+00	0.00000e+00	0.00000e+00	0.00000e+00	0.00000e+00	0.00000e+00	0.00000e+00	0.00000e+00	0.00000e+00	0.00000e+00	0.00000e+00	-2.21930e+01	-1.30555e+02	-1.19593e+02	-1.81765e+02	-6.15087e+01	-6.84839e+01	-1.57216e+02	-1.62015e+02	-2.86346e+01	-6.79659e+01	-1.71050e+02	-1.71975e+02	-1.82255e+02	-1.76979e+02	-5.58940e+01	-1.49379e+02	
Factor	2.76929e-05	1.60331e-04	5.43878e-05	1.45372e-01	2.66852e-06	1.64523e-06	1.64428e-01	5.20594e-02	1.55519e-06	1.78831e-06	8.49940e-02	3.51328e-02	3.64614e-02	9.18147e-03	1.78014e-06	1.30177e-02	5.70160e-06	6.72933e-06	1.86889e-06	7.47343e-02	7.13936e-08	7.39673e-08	7.93960e-02	2.67438e-02	7.14214e-08	7.41394e-08	4.25018e-02	1.75270e-02	1.88403e-02	4.76276e-03	7.22786e-08	6.54405e-03	X	X	X	X	X	X	X	X	X	X	X	X	X	X	X	X	



#DISTANCE SETTINGS
A = Detector Channel
A-1	A-2	A-3	A-4	A-5	A-6	A-7	A-8	A-9	A-10	A-11	A-12	A-13	A-14	A-15	A-16	

2.5000e+00	3.0000e+00	2.5000e+00	3.0000e+00	2.0000e+00	3.0000e+00	1.5000e+00	3.0000e+00	3.0000e+00	3.0000e+00	3.0000e+00	3.0000e+00	3.0000e+00	3.0000e+00	1.5000e+00	3.0000e+00	

B = Detector Channel
B-1	B-2	B-3	B-4	B-5	B-6	B-7	B-8	B-9	B-10	B-11	B-12	B-13	B-14	B-15	B-16	

1.0000e+01	1.0000e+01	1.0000e+01	1.4400e+00	1.0000e+01	1.0000e+01	1.5100e+00	1.9400e+00	1.0000e+01	1.0000e+01	1.9900e+00	2.4900e+00	2.4100e+00	2.9000e+00	1.0000e+01	2.9800e+00	




#DATA BEGINS
time	group	step	mark	flag	A-AC1	A-AC2	A-AC3	A-AC4	A-AC5	A-AC6	A-AC7	A-AC8	A-AC9	A-AC10	A-AC11	A-AC12	A-AC13	A-AC14	A-AC15	A-AC16	A-DC1	A-DC2	A-DC3	A-DC4	A-DC5	A-DC6	A-DC7	A-DC8	A-DC9	A-DC10	A-DC11	A-DC12	A-DC13	A-DC14	A-DC15	A-DC16	A-Ph1	A-Ph2	A-Ph3	A-Ph4	A-Ph5	A-Ph6	A-Ph7	A-Ph8	A-Ph9	A-Ph10	A-Ph11	A-Ph12	A-Ph13	A-Ph14	A-Ph15	A-Ph16	B-AC1	B-AC2	B-AC3	B-AC4	B-AC5	B-AC6	B-AC7	B-AC8	B-AC9	B-AC10	B-AC11	B-AC12	B-AC13	B-AC14	B-AC15	B-AC16	B-DC1	B-DC2	B-DC3	B-DC4	B-DC5	B-DC6	B-DC7	B-DC8	B-DC9	B-DC10	B-DC11	B-DC12	B-DC13	B-DC14	B-DC15	B-DC16	B-Ph1	B-Ph2	B-Ph3	B-Ph4	B-Ph5	B-Ph6	B-Ph7	B-Ph8	B-Ph9	B-Ph10	B-Ph11	B-Ph12	B-Ph13	B-Ph14	B-Ph15	B-Ph16	aux-1	digaux	

39451.371	1	1	0	256	0.12874	0.048331	0.072205	0.24813	0.12994	0.10999	0.32872	0.20033	0.12352	0.16366	0.067572	0.14655	0.31797	0.19784	0.22388	0.1734	-4.025	-4.3979	-4.5771	-4.3771	-4.5667	-4.675	-4.2125	-4.7625	-4.3688	-4.2104	-4.775	-4.2063	-4.8	-4.5875	-4.2625	-4.7875	69.171	-144.384	-155.305	172.400	-166.641	-143.594	133.121	80.064	-99.958	100.073	-126.980	18.653	-160.360	157.490	144.884	133.515	0.00033634	0.00018544	0.00012603	1118.3	6.9279e-06	3.2256e-06	1191	238.23	3.8218e-06	3.1369e-06	297.86	86.412	67.654	19.528	3.2827e-06	27.117	0.00011398	7.1401e-05	1.8237e-05	1104.5	8.6223e-07	6.9437e-07	1170.9	236.02	9.1509e-07	7.7537e-07	294.83	86.214	66.808	19.675	8.0892e-07	27.442	-50.314	-100.578	-69.675	-155.929	-43.995	6.898	-155.884	-148.993	-5.546	-28.553	-149.314	-143.102	-142.309	-135.402	-3.537	-136.031	-8191	255	
39451.488	1	1	0	0	0.17204	0.034426	0.10835	0.14994	0.21157	0.088162	0.078726	0.26798	0.18444	0.14996	0.18558	0.0612	0.23731	0.019084	0.054067	0.21286	-3.9708	-4.3167	-4.6854	-4.4646	-4.5542	-4.6125	-4.2625	-4.8542	-4.4604	-4.1667	-4.8458	-4.2396	-4.5083	-4.8229	-4.2417	-4.7688	96.971	108.118	-70.221	166.721	-149.090	-71.224	44.140	139.409	-15.475	-142.733	-122.727	127.321	161.086	-14.978	81.784	160.221	0.00033216	0.00025159	7.7179e-05	1116.7	3.9111e-06	2.2742e-06	1182.9	237.46	4.6261e-06	2.3687e-06	295.28	86.884	67.816	19.481	3.5878e-06	27.139	0.00011054	6.7125e-05	1.8541e-05	1102.2	9.2574e-07	7.3859e-07	1167.4	235.34	9.0437e-07	7.4417e-07	294.03	85.989	66.833	19.629	8.4491e-07	27.271	-48.753	-83.854	-63.700	-155.664	-15.247	-24.065	-156.055	-149.033	-11.278	-17.864	-149.104	-142.853	-142.256	-135.484	-17.020	-136.233	-8191	255	
39451.586	1	1	0	0	0.14779	0.043447	0.090354	0.32499	0.058709	0.11107	0.22394	0.29314	0.18685	0.16475	0.22869	0.15473	0.10959	0.21487	0.084793	0.12342	-4.1208	-4.1854	-4.8771	-4.575	-4.5375	-4.6813	-4.3271	-4.6875	-4.6062	-4.3667	-4.8938	-4.4375	-4.4437	-4.6292	-4.1083	-4.6271	191.294	72.663	141.701	87.099	14.857	23.171	127.607	42.291	8.144	131.191	64.654	-81.317	66.488	162.776	134.349	-116.359	0.00034863	0.00038329	0.00010386	1113.4	6.2308e-06	2.0882e-06	1181.5	237.19	2.5142e-06	2.0074e-06	295.22	85.948	66.626	19.339	3.6121e-06	26.867	0.00011166	7.0321e-05	1.958e-05	1098.2	9.6813e-07	7.0577e-07	1163.9	234.36	9.0601e-07	8.1476e-07	292.7	85.231	66.238	19.427	9.077e-07	27.122	-46.708	-68.883	-81.691	-156.088	-34.155	-40.112	-155.880	-149.121	15.216	26.128	-149.226	-142.965	-142.452	-135.573	-17.788	-136.453	-8191	255	
39451.680	1	1	0	0	0.21902	0.35955	0.15371	0.34199	0.12624	0.16319	0.18766	0.1967	0.23547	0.24745	0.31781	0.13696	0.30496	0.12684	0.20317	0.11425	-4.2646	-4.2396	-4.8229	-4.5771	-4.4062	-4.7625	-4.3854	-4.5938	-4.6312	-4.2708	-4.8646	-4.4917	-4.3375	-4.7479	-4.2729	-4.5896	113.644	109.946	13.986	124.795	32.008	52.846	104.507	79.383	164.742	-165.464	67.892	97.844	140.869	146.566	153.555	-156.313	0.00032542	0.00048304	0.00010388	1109.9	6.1332e-06	2.8358e-06	1172.7	235.3	3.2501e-06	2.7429e-06	293.88	85.66	66.017	19.161	4.5293e-06	26.62	0.00011264	7.7121e-05	1.9401e-05	1093.8	9.8166e-07	7.725e-07	1156.7	233.2	8.9068e-07	7.6642e-07	291.12	84.74	65.78	19.246	8.7578e-07	26.857	-46.043	-77.767	-75.563	-155.955	-34.126	-47.295	-156.013	-148.812	-26.140	0.685	-149.217	-142.620	-142.412	-135.478	-26.593	-136.245	-8191	255	
39451.801	1	1	0	0	0.2438	0.35974	0.16148	0.17331	0.20502	0.087293	0.18902	0.25914	0.1957	0.11525	0.16419	0.0097387	0.17802	0.076111	0.0090632	0.37117	-4.3667	-4.1875	-4.6271	-4.6229	-4.3604	-4.8625	-4.3396	-4.6979	-4.6875	-4.0542	-4.8625	-4.575	-4.3292	-4.9187	-4.3146	-4.45	-75.862	116.883	-29.607	116.555	-137.783	-24.373	139.588	101.633	169.244	124.965	-71.399	-80.994	-17.625	171.330	95.920	32.366	0.00035041	0.00030184	0.0001226	1102.6	4.0187e-06	2.9578e-06	1167.2	233.5	3.6162e-06	2.2046e-06	291.8	84.543	66.365	18.98	3.9429e-06	26.5	0.00011313	7.5649e-05	1.9662e-05	1085.4	9.6367e-07	7.6587e-07	1148.9	231.1	8.4664e-07	7.8248e-07	289.25	84.111	65.551	19.177	8.0184e-07	26.771	-50.843	-73.175	-57.235	-155.886	-31.737	-43.234	-155.827	-148.981	5.668	-33.185	-149.063	-142.695	-142.327	-135.829	-27.216	-136.279	-8191	255	
39451.871	1	1	0	0	0.22004	0.17945	0.077343	0.2325	0.06916	0.071247	0.0269	0.12672	0.22778	0.10071	0.15436	0.10909	0.12843	0.18541	0.074959	0.33054	-4.45	-4.175	-4.4979	-4.7917	-4.2167	-4.8896	-4.4333	-4.4021	-4.7146	-4.1854	-4.6583	-4.5604	-4.3729	-4.9	-4.3542	-4.3167	-121.598	87.485	-46.871	153.668	150.358	-22.494	73.170	32.001	101.354	151.058	141.977	-150.931	186.436	93.790	136.172	179.739	0.00033182	0.00025312	8.2084e-05	1098.5	3.0862e-06	2.7578e-06	1164	232.09	3.8369e-06	3.1739e-06	291.22	84.503	65.73	18.969	2.8391e-06	26.427	0.00011232	7.4611e-05	1.8767e-05	1080.5	9.534e-07	7.312e-07	1145.3	230.36	8.4872e-07	7.9391e-07	288.15	83.809	65.27	19.043	8.4686e-07	26.671	-51.541	-79.989	-41.941	-156.138	-13.311	9.361	-155.978	-148.887	-7.847	-25.857	-149.246	-142.419	-142.215	-135.486	-0.839	-136.077	-8191	255	
39451.969	1	1	0	0	0.27156	0.083429	0.16186	0.17399	0.052032	0.12349	0.22483	0.015553	0.20194	0.094588	0.12449	0.045881	0.12453	0.123	0.1758	0.0834	-4.3771	-4.2854	-4.5229	-4.7792	-4.2229	-4.8083	-4.6604	-4.4083	-4.7208	-4.2146	-4.6125	-4.675	-4.3042	-4.7354	-4.4458	-4.3104	26.099	-65.680	0.890	128.602	-5.428	86.151	152.702	-155.731	13.847	4.929	136.057	130.398	-6.192	-17.316	128.330	73.290	0.00034257	0.00020578	6.3639e-05	1090.8	6.8968e-06	2.8791e-06	1159.2	233.48	4.3265e-06	4.1259e-06	290.91	84.645	65.861	18.96	3.4931e-06	26.294	0.00011101	7.1962e-05	2.0791e-05	1076.2	9.6738e-07	7.5955e-07	1141.7	230.28	9.1598e-07	7.9808e-07	288.01	83.785	65.052	19.008	8.1871e-07	26.571	-45.912	-56.898	-84.470	-156.120	-30.420	3.757	-155.842	-149.102	-11.732	-8.233	-148.981	-142.513	-142.111	-134.844	13.184	-135.840	-8191	255	
39452.090	1	1	0	0	0.15304	0.14484	0.14265	0.27773	0.070187	0.074463	0.3529	0.2046	0.1843	0.11529	0.082651	0.1754	0.041134	0.13857	0.13237	0.1877	-4.5042	-4.2125	-4.4729	-4.8333	-4.0896	-4.6083	-4.6229	-4.1083	-4.8146	-4.2063	-4.4187	-4.5896	-4.1062	-4.7208	-4.4563	-4.2333	190.942	-137.105	-109.965	82.664	-57.749	-57.533	134.523	-32.993	40.890	64.536	-8.419	145.149	-5.000	-78.177	114.909	-80.428	0.00032376	0.00010659	9.1341e-05	1093.4	4.0167e-06	2.4661e-06	1158.5	232.83	3.286e-06	3.8207e-06	289.96	84.056	65.584	18.98	3.0826e-06	26.586	0.00011125	7.3574e-05	1.9795e-05	1074.8	1.0086e-06	7.7851e-07	1138.3	229.81	8.459e-07	7.729e-07	287.31	83.603	65.18	19.035	7.773e-07	26.66	-46.983	-92.176	-65.347	-155.899	-29.875	-11.995	-155.983	-148.972	-20.264	-25.905	-148.953	-142.699	-142.391	-135.680	-58.268	-136.086	-8191	255	
39452.184	1	1	0	0	0.051861	0.27452	0.16976	0.098381	0.14512	0.086566	0.27972	0.23545	0.096843	0.12838	0.056919	0.29004	0.18152	0.22855	0.12255	0.09593	-4.4646	-4.3833	-4.4146	-4.8708	-4.1167	-4.5479	-4.7854	-4.3542	-4.7667	-4.4688	-4.3458	-4.8792	-4.3562	-4.675	-4.6833	-4.1646	-71.172	27.752	127.371	127.187	3.470	37.325	133.699	-120.531	177.637	151.566	146.400	114.395	-77.661	136.375	88.700	186.176	0.00030258	0.00019402	0.00011094	1088.3	6.2127e-06	2.6314e-06	1158.6	231.67	2.9869e-06	3.2669e-06	291.1	83.871	66.112	18.891	3.0381e-06	26.379	0.0001099	6.4882e-05	1.8763e-05	1072.8	8.774e-07	6.6971e-07	1138.8	229.62	7.6376e-07	7.2703e-07	287.93	83.819	65.273	19.076	7.0969e-07	26.758	-50.882	-103.401	-70.388	-155.900	-49.019	-33.729	-155.951	-148.792	-13.816	-25.019	-148.720	-142.681	-142.380	-135.257	-17.299	-135.656	-8191	255	
39452.281	1	1	0	0	0.21108	0.10329	0.27392	0.06327	0.12931	0.15813	0.21332	0.18206	0.1823	0.10074	0.030459	0.17128	0.09923	0.30952	0.077135	0.21313	-4.2542	-4.4354	-4.2979	-5.0646	-4.0708	-4.5062	-4.7792	-4.3646	-4.6854	-4.4333	-4.1979	-4.7646	-4.2542	-4.4958	-4.6354	-4.1958	-120.752	40.192	-109.714	-12.952	153.780	-134.842	97.242	-130.032	-36.965	146.188	83.494	4.656	43.646	155.390	67.934	86.760	0.00034433	0.00025029	9.4632e-05	1088.7	3.383e-06	2.6929e-06	1156.5	232.42	3.0303e-06	2.6321e-06	290.75	84.436	65.612	19.188	2.6802e-06	26.501	0.00010562	6.3396e-05	1.8e-05	1072.1	8.9078e-07	6.9837e-07	1137.6	230.02	7.8296e-07	6.5397e-07	287.23	83.795	65.242	19.187	6.9704e-07	26.866	-53.304	-88.916	-64.378	-155.818	-53.150	-13.076	-155.921	-148.828	-13.387	-18.081	-148.790	-142.788	-142.547	-135.583	-16.571	-136.025	-8191	255	
39452.402	1	1	0	0	0.080756	0.17029	0.17407	0.247	0.038534	0.074805	0.40185	0.15384	0.17511	0.10026	0.027133	0.29981	0.088262	0.2089	0.13672	0.21922	-4.3646	-4.4667	-4.0958	-4.9688	-4.2958	-4.3208	-4.8771	-4.35	-4.5854	-4.5458	-4.3521	-4.7208	-4.3667	-4.4187	-4.7292	-4.2167	1.187	104.265	120.686	106.927	-121.571	-63.141	149.159	184.480	119.212	124.530	-97.067	-156.887	106.307	-145.369	-44.651	157.171	0.00029454	0.00027859	8.1194e-05	1088.8	5.1888e-06	2.1886e-06	1156.4	232.4	3.8635e-06	2.8815e-06	290.51	84.68	66.058	19.043	3.7939e-06	26.737	0.00010295	5.9358e-05	1.6913e-05	1074.8	8.2132e-07	6.503e-07	1139.6	230.53	7.9218e-07	6.4331e-07	288.11	84.185	65.438	19.17	6.7927e-07	26.842	-48.581	-77.415	-52.115	-156.096	-40.533	-34.674	-156.031	-148.898	-11.194	-30.746	-148.708	-142.512	-142.181	-135.693	-2.111	-136.101	-8191	255	
39452.473	1	1	0	0	0.09606	0.23987	0.11766	0.11913	0.090474	0.18608	0.28247	0.12295	0.19058	0.07414	0.12147	0.074735	0.083646	0.085626	0.1153	0.10958	-4.3083	-4.5583	-4.1167	-4.9688	-4.2667	-4.2854	-4.9229	-4.0208	-4.4313	-4.6104	-4.2438	-4.7833	-4.4146	-4.3875	-4.8042	-4.3104	-5.046	149.561	-9.524	-142.297	111.949	-129.657	116.514	90.114	107.406	141.924	129.263	16.966	30.971	-148.891	44.337	192.062	0.00032359	0.00024365	4.4534e-05	1093	3.8945e-06	3.8883e-06	1151	232.24	2.9912e-06	3.5115e-06	291.08	84.798	65.996	18.978	3.1876e-06	26.641	0.00010497	6.2344e-05	1.8506e-05	1075.9	8.5643e-07	7.3813e-07	1137.6	230.42	8.3325e-07	7.2379e-07	288.42	83.985	65.311	19.091	7.3227e-07	26.764	-48.706	-100.690	-94.713	-155.874	-28.292	-0.684	-155.898	-148.987	-11.357	-0.934	-149.035	-142.691	-142.290	-135.306	-20.833	-136.035	-8191	255	
39452.570	1	1	0	0	0.029078	0.09454	0.29326	0.37544	0.1874	0.14963	0.17266	0.13925	0.051929	0.084332	0.1545	0.1902	0.21837	0.18171	0.089639	0.21842	-4.0083	-4.6875	-4.125	-4.8854	-4.5104	-4.3625	-5.0667	-4.4875	-4.5729	-4.65	-4.0917	-4.6771	-4.65	-4.3354	-4.8354	-4.3542	-98.347	-96.147	114.948	124.866	-90.690	-42.032	167.412	137.374	-39.666	-118.593	-46.428	102.814	143.589	64.900	52.544	121.580	0.00030674	0.00025723	6.321e-05	1089.6	5.2805e-06	2.6254e-06	1153.4	232.76	3.4367e-06	1.808e-06	290.6	84.587	66.082	19.014	3.1455e-06	26.531	0.00010363	5.9583e-05	1.761e-05	1074.7	8.1656e-07	6.8096e-07	1138.6	230.38	7.3921e-07	6.3281e-07	288.4	84.057	65.326	19.132	7.2971e-07	26.747	-44.363	-70.468	-82.480	-155.967	-10.955	-14.306	-156.063	-148.947	-10.811	-1.867	-149.010	-142.955	-142.727	-135.630	-27.983	-135.827	-8191	255	
39452.664	1	1	0	0	0.039198	0.17121	0.075866	0.2623	0.26162	0.16942	0.10679	0.31575	0.18225	0.16993	0.10961	0.13483	0.14906	0.0064035	0.23012	0.04991	-4.1208	-4.6271	-4.15	-4.8021	-4.5083	-4.3458	-4.9812	-4.3604	-4.3229	-4.9167	-4.1083	-4.7479	-4.6646	-4.2021	-4.7188	-4.7042	77.497	-107.919	191.465	113.239	100.203	-63.279	133.157	-127.137	100.364	-35.462	167.342	25.678	-56.804	-160.551	150.770	-1.084	0.00032888	0.00016465	0.00011481	1088.2	3.3948e-06	2.724e-06	1151.9	232.99	4.7098e-06	3.7625e-06	292.55	83.884	66.079	18.915	3.7249e-06	26.465	0.00010505	5.8559e-05	1.8525e-05	1073.3	8.0303e-07	7.0623e-07	1137.6	230.22	8.3697e-07	6.8023e-07	288.78	83.639	65.204	19.088	7.2791e-07	26.673	-48.605	-69.431	-70.769	-156.100	-52.806	10.471	-156.014	-149.017	18.031	-16.186	-149.354	-142.804	-142.253	-135.124	-10.033	-135.660	-8191	255	
39452.785	1	1	0	0	0.12658	0.20952	0.13498	0.15694	0.094369	0.28465	0.40322	0.54007	0.13145	0.1523	0.090641	0.22954	0.21884	0.14601	0.2535	0.20954	-4.0792	-4.8146	-4.2042	-4.8438	-4.6687	-4.2208	-4.9833	-4.575	-4.4271	-4.9104	-4.3229	-4.4	-4.775	-4.1104	-4.6875	-4.6021	-94.411	-49.837	70.329	-148.195	27.171	-13.324	110.132	112.634	96.616	65.693	2.462	155.028	115.312	31.769	-97.438	-149.034	0.00035327	0.0001511	7.3749e-05	1085.7	3.9944e-06	2.536e-06	1151.2	231.22	3.9262e-06	3.2049e-06	289.19	83.479	65.258	18.985	2.3675e-06	26.427	0.00011183	6.4111e-05	1.8253e-05	1072.5	8.5836e-07	7.4106e-07	1136	228.76	8.5482e-07	6.9274e-07	286.65	83.386	64.885	19.029	7.5953e-07	26.628	-43.645	-59.527	-66.976	-155.891	-45.414	-10.247	-156.014	-148.760	0.381	-1.193	-148.906	-142.540	-142.304	-135.817	23.936	-136.049	-8191	255	
39452.883	1	1	0	0	0.083463	0.027128	0.038892	0.0919	0.16872	0.08596	0.24754	0.10699	0.077505	0.15256	0.28227	0.21069	0.08402	0.13516	0.12438	0.11957	-4.0125	-4.8688	-4.3958	-4.6083	-4.7021	-4.0771	-4.7771	-4.5833	-4.2125	-4.7312	-4.3812	-4.5896	-4.8292	-4.1312	-4.6229	-4.6375	-95.881	-33.091	13.528	-160.473	110.107	-128.966	130.371	-126.308	99.324	-143.438	88.574	182.113	130.678	164.182	166.303	135.379	0.00033937	0.00024	0.00012434	1086.2	3.5702e-06	1.2941e-06	1158.2	231.8	3.5344e-06	2.5453e-06	290.46	83.641	65.619	19.07	4.1418e-06	26.339	0.00010749	6.1419e-05	1.923e-05	1071.6	8.2118e-07	7.3181e-07	1137.1	229.33	8.6836e-07	6.8208e-07	287.13	83.484	65.048	19.061	7.0803e-07	26.652	-49.170	-83.222	-44.895	-156.017	-62.829	-2.450	-156.022	-148.694	-5.428	-23.319	-149.113	-142.339	-142.426	-135.881	-11.657	-136.177	-8191	255	
39452.977	1	1	0	0	0.17284	0.17242	0.18278	0.21579	0.1175	0.084326	0.16365	0.20447	0.3308	0.28961	0.094538	0.18188	0.22308	0.097342	0.15537	0.27366	-3.9938	-4.6687	-4.3562	-4.5146	-4.8833	-4.1438	-4.8688	-4.6937	-4.25	-4.7979	-4.4417	-4.3125	-4.8	-4.2021	-4.5958	-4.7542	0.758	133.745	-139.564	154.296	129.204	-94.433	187.167	135.178	-148.819	-57.372	117.261	-155.010	174.632	21.459	86.656	146.372	0.00033009	0.00025027	7.806e-05	1090.5	5.3637e-06	3.12e-06	1153.1	232.17	2.729e-06	1.7028e-06	288.44	84.418	65.647	18.94	2.6775e-06	26.536	0.00010566	6.3228e-05	1.7914e-05	1073.2	8.0199e-07	7.6541e-07	1136.5	229.52	8.6762e-07	6.4687e-07	287.26	83.898	65.107	19.088	7.3031e-07	26.713	-50.901	-85.941	-94.348	-155.843	-39.730	-36.183	-155.878	-148.908	-25.333	-71.637	-149.351	-142.633	-142.339	-135.780	-30.236	-135.954	-8191	255	
39453.074	1	1	0	0	0.31024	0.099694	0.15931	0.16574	0.21422	0.068491	0.18439	0.27848	0.14768	0.0039411	0.10553	0.04687	0.076844	0.10255	0.25952	0.052462	-3.7667	-4.6813	-4.375	-4.3917	-4.8479	-4.1271	-4.5813	-4.6604	-4.2896	-4.6458	-4.5896	-4.2937	-4.8833	-4.3792	-4.3333	-4.6875	60.908	-102.084	175.331	113.308	-20.582	145.819	130.768	-161.832	-116.845	150.058	129.113	183.656	-151.841	-96.901	136.915	-129.490	0.00033513	0.00025039	7.8984e-05	1090	5.0671e-06	3.4331e-06	1156	231.69	4.2973e-06	3.651e-06	289.57	84.087	65.75	19.105	3.5837e-06	26.464	0.00010858	6.6929e-05	1.8401e-05	1072.9	8.3739e-07	6.9483e-07	1137.1	229.87	8.7566e-07	6.9799e-07	287.7	83.668	65.172	19.132	7.0381e-07	26.7	-50.109	-77.240	-95.832	-155.679	-48.420	-7.365	-155.820	-148.788	-18.301	-27.487	-149.215	-142.759	-142.481	-135.718	-22.026	-136.178	-8191	255	
39453.172	1	1	0	0	0.27437	0.036664	0.17913	0.20449	0.076053	0.34653	0.10484	0.090431	0.31469	0.050422	0.3087	0.26938	0.12236	0.21925	0.019517	0.10759	-3.7771	-4.6854	-4.4	-4.4396	-4.7583	-4.2667	-4.5271	-4.7104	-4.2063	-4.8104	-4.5938	-4.2729	-4.7917	-4.3646	-4.3958	-4.7354	145.870	174.434	2.272	-138.330	-90.991	7.849	39.390	-107.272	-120.190	117.245	-165.097	133.925	-81.965	103.694	-38.762	-72.848	0.00035371	0.00025714	0.00012673	1086	6.87e-06	1.0898e-06	1156	230.9	3.0332e-06	2.4176e-06	290.38	84.675	65.669	19.037	3.8394e-06	26.488	0.00010859	6.4055e-05	1.7832e-05	1074.1	8.4706e-07	6.5399e-07	1137.3	229.46	8.1525e-07	6.4409e-07	287.04	83.914	65.244	19.128	7.1782e-07	26.655	-52.967	-102.520	-71.939	-155.829	-19.406	0.307	-155.910	-148.721	-9.756	-56.984	-149.282	-142.679	-141.986	-135.390	-13.089	-136.011	-8191	255	
39453.266	1	1	0	0	0.16111	0.13744	0.16301	0.21179	0.059759	0.22444	0.077633	0.27389	0.059051	0.08062	0.13888	0.15955	0.16996	0.25822	0.018612	0.061341	-3.825	-4.6062	-4.4812	-4.1125	-4.6875	-4.6625	-4.4812	-4.9229	-4.1479	-4.6667	-4.7875	-4.1167	-4.7042	-4.4167	-4.3708	-4.9458	31.914	103.771	-60.439	165.162	-149.560	-2.900	-145.704	137.986	165.393	166.049	-164.962	164.966	97.503	86.924	18.977	-95.770	0.00033476	0.0002715	0.00012338	1085.3	6.1796e-06	2.7986e-06	1153.6	233.83	2.8201e-06	2.5975e-06	289.64	84.369	66.157	19.007	3.0993e-06	26.377	0.00010624	6.1209e-05	1.6945e-05	1071.2	8.237e-07	6.6601e-07	1136.8	229.94	8.4128e-07	6.8965e-07	287.33	83.778	65.269	19.099	7.3092e-07	26.653	-53.841	-64.546	-60.467	-156.241	-36.003	-15.698	-155.787	-149.070	-16.676	-29.581	-148.739	-142.484	-142.465	-135.545	-22.405	-136.028	-8191	255	
39453.363	1	1	0	0	0.13601	0.046195	0.034346	0.30788	0.066474	0.24771	0.0407	0.18269	0.023613	0.074776	0.10252	0.066019	0.074471	0.42127	0.06778	0.21742	-3.8875	-4.3688	-4.725	-4.2063	-4.7229	-4.5271	-4.3042	-4.8958	-4.2896	-4.5229	-4.7646	-4.2042	-4.5146	-4.3875	-4.1646	-4.6604	-32.850	-37.782	5.434	149.634	-116.979	140.628	-119.044	164.397	-39.877	53.005	166.853	-122.550	102.799	90.733	79.572	59.264	0.00032943	0.00027109	0.00011472	1086.7	5.3533e-06	2.0009e-06	1152.5	231.27	3.8453e-06	1.3826e-06	289.64	84.885	65.436	19.067	2.0648e-06	26.404	0.00010908	6.463e-05	1.8023e-05	1072	8.7844e-07	6.825e-07	1137.1	229.43	8.7833e-07	7.139e-07	287.08	83.831	64.928	19.097	7.526e-07	26.615	-49.756	-95.569	-65.602	-155.887	-59.714	0.235	-155.869	-148.486	-17.733	3.976	-149.239	-142.943	-142.234	-135.464	-38.596	-136.013	-8191	255	
39453.480	1	1	0	0	0.13781	0.16401	0.16378	0.17916	0.13102	0.16772	0.23368	0.28909	0.1817	0.2078	0.11665	0.094287	0.25851	0.2198	0.040781	0.04248	-3.9979	-4.3083	-4.6604	-4.4062	-4.6813	-4.5104	-4.325	-4.8479	-4.4646	-4.35	-4.8313	-4.2208	-4.6	-4.6479	-4.0708	-4.6562	139.112	22.702	190.465	-148.704	130.055	154.482	-62.844	128.015	-24.271	84.389	-166.648	160.343	76.040	82.351	-148.983	-70.430	0.00031133	0.00028734	6.5961e-05	1083.3	4.6229e-06	3.527e-06	1153.3	232.3	2.767e-06	2.3991e-06	288.61	84.304	65.692	19.036	2.3014e-06	26.504	0.0001036	6.4391e-05	1.717e-05	1070.9	8.7338e-07	7.0962e-07	1135.5	229.48	8.27e-07	6.9042e-07	286.86	83.655	65.208	19.119	7.2866e-07	26.685	-51.372	-73.223	-46.186	-156.009	-8.398	18.680	-155.861	-148.812	3.289	-20.019	-148.979	-142.502	-142.377	-135.567	-14.980	-136.125	-8191	255	
39453.578	1	1	0	0	0.15205	0.072067	0.18678	0.34622	0.24052	0.053906	0.28071	0.22453	0.061273	0.10582	0.045072	0.16808	0.13328	0.1231	0.085988	0.12579	-4.0062	-4.3021	-4.6937	-4.3792	-4.4146	-4.5646	-4.2875	-4.8042	-4.3208	-4.2792	-4.8292	-4.3812	-4.5833	-4.6854	-4.1229	-4.7646	82.896	120.168	-152.986	161.462	-3.772	-65.714	-158.836	-162.397	-5.719	7.804	-53.097	157.129	-164.993	56.927	27.451	-104.950	0.00033018	0.00030697	6.4899e-05	1086.4	2.9969e-06	3.2935e-06	1152.1	232.61	3.2106e-06	1.8513e-06	290.99	84.073	65.749	18.968	2.8653e-06	26.474	0.00010772	6.6354e-05	1.5765e-05	1071.6	8.9421e-07	7.2087e-07	1136.3	229.9	8.4322e-07	7.1653e-07	287.53	83.804	65.169	19.041	7.8181e-07	26.711	-46.625	-75.975	-67.353	-156.069	-61.914	-28.927	-155.891	-148.817	-3.622	0.152	-149.082	-142.596	-142.742	-135.307	-11.556	-136.121	-8191	255	
39453.676	1	1	0	0	0.18224	0.34274	0.17054	0.051047	0.28603	0.12204	0.063338	0.11892	0.15427	0.14538	0.12556	0.21398	0.1703	0.2182	0.24741	0.1055	-4.15	-4.1521	-4.8604	-4.4396	-4.4062	-4.7729	-4.3479	-4.625	-4.3729	-4.2167	-4.9375	-4.4542	-4.2312	-4.7458	-4.0875	-4.6292	136.835	-68.355	149.598	35.402	181.874	125.937	-159.575	83.087	192.500	-149.587	130.067	139.915	13.807	-153.157	-28.066	12.689	0.00032251	0.00035887	9.7389e-05	1087.7	4.4451e-06	3.6551e-06	1153.1	232.83	2.5063e-06	1.9528e-06	291.73	84.427	66.626	18.844	3.2895e-06	26.477	0.00010359	6.6789e-05	1.7283e-05	1071.7	8.4155e-07	6.6648e-07	1137.1	229.99	8.1182e-07	7.0602e-07	287.94	84.016	65.685	19.048	7.7007e-07	26.738	-49.680	-83.513	-77.278	-156.151	-38.717	1.129	-155.944	-149.026	3.667	-22.833	-148.766	-142.789	-142.611	-135.476	-2.916	-135.875	-8191	255	
39453.770	1	1	0	0	0.10784	0.30543	0.14716	0.41474	0.13389	0.14549	0.2298	0.14915	0.031719	0.092618	0.13668	0.057381	0.2693	0.21932	0.11534	0.16345	-4.2812	-4.1333	-4.8167	-4.5042	-4.4604	-4.9083	-4.3	-4.7125	-4.6062	-4.1854	-4.8896	-4.4688	-4.2771	-4.7458	-4.2229	-4.4979	46.236	78.610	26.095	167.323	-45.765	-15.038	155.721	-133.258	-32.966	101.724	80.691	-78.253	80.650	116.074	35.844	178.134	0.00035615	0.00019483	0.0001182	1090.2	5.2133e-06	2.6205e-06	1153.3	232.88	2.9496e-06	2.2934e-06	290.2	83.654	65.606	19.023	2.9463e-06	26.266	0.00010386	6.6368e-05	1.7022e-05	1073.2	8.5211e-07	6.4459e-07	1136.9	229.74	7.7329e-07	7.7908e-07	287.39	83.601	65.185	19.108	7.7474e-07	26.662	-48.231	-79.336	-76.695	-155.995	-33.467	-10.859	-156.013	-148.710	13.628	-31.332	-148.752	-142.713	-142.148	-135.520	-28.684	-136.134	-8191	255	
39453.867	1	1	0	0	0.1084	0.092289	0.19592	0.22933	0.23966	0.10066	0.30306	0.038944	0.20622	0.17767	0.29846	0.089746	0.19746	0.15427	0.13766	0.10925	-4.375	-4.0521	-4.6708	-4.4875	-4.2958	-4.8729	-4.4229	-4.5167	-4.6188	-4.0083	-4.7625	-4.5542	-4.2917	-4.7312	-4.3708	-4.4958	11.515	11.674	51.539	167.099	-110.876	63.190	95.446	-61.485	-149.385	50.966	165.976	-156.630	156.886	-102.999	44.674	-102.134	0.00034084	4.1294e-05	0.0001052	1085.8	5.8625e-06	2.5451e-06	1159.1	232.11	3.8904e-06	4.3329e-06	289.54	84.39	65.748	18.983	4.2531e-06	26.567	0.0001105	6.5401e-05	1.6913e-05	1070.6	8.7219e-07	7.0007e-07	1138.9	229.83	8.1197e-07	7.1436e-07	287.31	83.813	65.067	19.088	7.7263e-07	26.73	-49.287	-34.169	-75.142	-155.773	-22.860	8.348	-156.019	-148.629	0.185	-22.988	-148.798	-143.170	-142.313	-135.370	-31.077	-135.987	-8191	255	
39453.961	1	1	0	0	0.16312	0.087973	0.064604	0.37854	0.24299	0.091689	0.28256	0.15214	0.26746	0.18582	0.07033	0.15762	0.064292	0.2363	0.020744	0.11539	-4.2917	-4.3167	-4.475	-4.6271	-4.2542	-4.8083	-4.5146	-4.5083	-4.7167	-4.1687	-4.8354	-4.6104	-4.1979	-4.6729	-4.2896	-4.5208	183.464	-139.620	87.468	143.694	123.164	181.476	67.289	-110.882	48.709	0.734	58.476	20.874	-132.130	-148.039	21.974	158.652	0.00032695	0.00032397	8.7272e-05	1085.4	4.3252e-06	2.1578e-06	1154.8	232.83	2.9828e-06	3.3523e-06	289.51	84.332	65.664	18.914	1.7533e-06	26.419	0.00010389	6.8765e-05	1.7731e-05	1071.6	9.0982e-07	6.5292e-07	1136.6	229.88	7.8102e-07	7.3568e-07	286.94	83.876	65.027	19.051	7.6721e-07	26.724	-50.782	-77.125	-73.903	-155.924	-62.872	-19.831	-156.058	-149.129	4.453	-7.074	-149.093	-142.621	-142.278	-135.397	-0.210	-136.027	-8191	255	
39454.082	1	1	0	0	0.053136	0.16379	0.12253	0.15354	0.14627	0.23051	0.092434	0.11319	0.16148	0.12069	0.23445	0.20272	0.091123	0.26233	0.17102	0.0538	-4.4125	-4.1396	-4.4833	-4.675	-4.0896	-4.7812	-4.4958	-4.4646	-4.5146	-4.1771	-4.5229	-4.7125	-4.225	-4.7063	-4.4417	-4.3375	-25.594	-116.937	180.957	160.533	-98.067	-93.421	-56.834	131.561	-98.483	176.676	97.648	9.058	-91.273	-99.759	-165.736	153.656	0.00034129	0.00030209	4.3786e-05	1087.3	6.3118e-06	3.4286e-06	1150.9	231.99	3.3222e-06	3.3714e-06	290.69	84.372	66.027	18.956	3.2515e-06	26.526	0.00010509	6.7307e-05	1.6968e-05	1071.2	9.1339e-07	6.6755e-07	1135.8	229.73	8.2477e-07	7.6549e-07	287.35	83.548	65.199	19.068	7.9296e-07	26.635	-50.809	-66.499	-80.688	-155.974	-39.190	-6.492	-156.006	-148.604	1.106	-34.393	-149.309	-142.508	-142.589	-135.604	-18.173	-135.752	-8191	255	
39454.180	1	1	0	0	0.15303	0.2019	0.066588	0.29587	0.12444	0.19062	0.32109	0.02768	0.046443	0.087057	0.030385	0.080042	0.19957	0.042338	0.082501	0.033104	-4.45	-4.1875	-4.3792	-4.8562	-4.0979	-4.8458	-4.6229	-4.2937	-4.8354	-4.2417	-4.6104	-4.8333	-4.15	-4.6979	-4.5104	-4.0687	160.535	1.074	-51.027	107.672	188.091	145.348	119.176	171.619	-82.991	110.205	-139.418	65.092	-19.833	-148.260	-59.770	180.809	0.00031948	0.00026824	0.00012671	1085.6	5.6701e-06	1.8237e-06	1150.6	231.77	2.1466e-06	2.2897e-06	287.58	84.171	65.347	18.875	2.1323e-06	26.502	0.00010533	6.9564e-05	1.9561e-05	1069.3	9.2856e-07	7.0007e-07	1135.7	229.62	7.9903e-07	7.5236e-07	286.42	83.605	64.969	19.042	8.1268e-07	26.69	-52.123	-66.642	-67.659	-156.001	-30.699	-40.608	-155.885	-148.918	20.422	-16.180	-148.846	-142.751	-142.166	-135.009	8.558	-136.097	-8191	255	
39454.273	1	1	0	0	0.1519	0.16216	0.12054	0.3552	0.27972	0.21621	0.12104	0.41348	0.0091412	0.099311	0.093526	0.13712	0.16951	0.02577	0.081218	0.080182	-4.5375	-4.1771	-4.4437	-4.9146	-4.2208	-4.5458	-4.7312	-4.1312	-4.8271	-4.1479	-4.3688	-4.8667	-4.3438	-4.5312	-4.6438	-4.3313	-132.482	-42.698	-41.766	60.476	-166.005	36.560	42.584	135.798	79.467	185.104	66.922	-146.336	134.422	-108.536	50.889	-83.032	0.00030625	0.00030819	8.3408e-05	1085.4	4.9073e-06	3.3198e-06	1153.2	231.15	3.6997e-06	2.9305e-06	291.29	84.312	66.108	18.949	2.6467e-06	26.352	0.00010021	6.5849e-05	1.8833e-05	1070.7	9.0194e-07	7.0562e-07	1136.9	229.11	8.331e-07	7.2147e-07	287.67	83.644	65.219	19.048	7.2354e-07	26.621	-51.412	-66.282	-71.874	-155.903	-70.477	-12.995	-156.059	-148.743	-13.895	-33.079	-149.012	-142.549	-142.415	-135.375	-0.693	-136.129	-8191	255	
39454.348	1	1	0	0	0.1785	0.06293	0.10277	0.15436	0.077241	0.14848	0.26822	0.06318	0.02669	0.18986	0.11582	0.17774	0.047698	0.12061	0.17864	0.21746	-4.2958	-4.4167	-4.2708	-4.8625	-4.2562	-4.4354	-4.8688	-4.3812	-4.575	-4.2708	-4.2917	-4.85	-4.2625	-4.5229	-4.7708	-4.1438	26.898	-13.315	-36.789	159.656	-18.941	-146.963	114.625	38.580	-136.037	47.672	176.068	-76.917	59.880	126.028	133.042	5.229	0.00031748	0.00025648	5.5186e-05	1086.9	5.0387e-06	2.1249e-06	1150.7	232.43	4.5794e-06	1.3407e-06	288.95	84.361	65.686	18.944	2.1029e-06	26.332	0.00010689	6.7237e-05	1.8848e-05	1071	8.9807e-07	7.0947e-07	1134.6	229.29	7.9218e-07	7.4155e-07	287.07	83.747	65.139	19.038	7.0155e-07	26.716	-51.566	-87.869	-78.195	-155.826	-16.240	-1.424	-156.077	-148.652	0.839	-28.474	-148.863	-142.279	-142.252	-135.374	4.432	-135.993	-8191	255	
39454.465	1	1	0	0	0.2065	0.087441	0.02118	0.1281	0.24391	0.14166	0.11598	0.1854	0.078423	0.087092	0.20217	0.33977	0.30067	0.10731	0.12868	0.13088	-4.4313	-4.3875	-4.1	-4.9104	-4.4104	-4.4521	-4.8875	-4.2104	-4.4854	-4.4229	-4.2333	-4.7042	-4.2583	-4.5167	-4.7229	-4.2083	-108.485	-33.486	136.860	-132.322	121.096	101.447	-82.338	157.824	18.923	178.980	147.417	171.015	115.660	-143.777	41.087	-109.638	0.00033667	0.00028273	9.0207e-05	1087.7	3.2289e-06	3.2156e-06	1157.1	232.67	3.157e-06	2.7573e-06	289.85	84.668	65.922	19.035	2.7416e-06	26.472	0.00010518	6.6873e-05	1.958e-05	1071	9.299e-07	6.9005e-07	1137.7	229.88	8.5497e-07	6.8054e-07	287.08	83.849	65.348	19.067	7.2655e-07	26.645	-53.527	-81.591	-50.271	-156.013	-15.576	-18.144	-155.932	-148.779	3.249	-40.908	-149.201	-142.602	-142.343	-135.769	-14.574	-135.592	-8191	255	
39454.562	1	1	0	0	0.053917	0.26872	0.10466	0.11949	0.14758	0.1374	0.38461	0.25915	0.14693	0.066253	0.29584	0.31899	0.1681	0.067765	0.2694	0.20294	-4.3187	-4.4729	-4.1271	-4.8354	-4.475	-4.3438	-4.9104	-4.2333	-4.6583	-4.6042	-4.2646	-4.8562	-4.3458	-4.4708	-4.7979	-4.1687	-163.789	63.520	-32.114	115.704	178.579	-59.557	141.120	157.323	-54.442	-32.603	132.976	163.452	-99.505	179.027	56.514	82.494	0.00034265	0.00032086	0.00010195	1088.3	5.1901e-06	3.79e-06	1155.8	230.66	3.6875e-06	3.0612e-06	289.22	83.913	66.204	19.047	3.1642e-06	26.395	0.00010284	6.1854e-05	1.7906e-05	1072.7	9.363e-07	7.4198e-07	1137.7	229.37	8.5349e-07	7.3367e-07	286.65	83.744	65.156	19.075	7.3287e-07	26.609	-45.863	-78.273	-77.410	-155.995	-40.672	-6.156	-156.033	-148.653	2.135	-3.837	-148.909	-142.824	-142.210	-135.393	-7.133	-136.128	-8191	255	
39454.656	1	1	0	0	0.032171	0.23673	0.18104	0.15621	0.24168	0.42393	0.07961	0.079968	0.20026	0.077532	0.22444	0.21158	0.15321	0.062097	0.21383	0.07145	-4.3104	-4.7104	-4.0396	-4.7271	-4.4354	-4.4625	-4.9062	-4.2396	-4.3292	-4.8146	-4.3938	-4.75	-4.4688	-4.1396	-4.8604	-4.4125	-66.982	68.163	128.668	153.959	-139.525	154.873	145.396	138.082	-51.667	-146.062	60.854	57.173	-137.951	95.679	-24.804	100.428	0.00035083	0.00025162	0.00013409	1087.2	5.8533e-06	2.2688e-06	1156.2	231.87	3.3714e-06	1.981e-06	289.28	84.277	65.668	19.024	3.0756e-06	26.5	0.00010633	6.4966e-05	1.9713e-05	1072	8.4869e-07	7.1502e-07	1137	229.13	8.7075e-07	7.1406e-07	287.19	83.728	65.004	19.073	7.5998e-07	26.707	-49.912	-57.955	-59.960	-155.756	-19.711	-29.622	-155.897	-148.933	0.828	-57.526	-148.622	-142.945	-142.341	-135.553	-23.991	-135.992	-8191	255	
39454.754	1	1	0	0	0.13189	0.091307	0.041325	0.11232	0.092491	0.099213	0.18123	0.20408	0.25403	0.11541	0.11322	0.13326	0.12188	0.095049	0.20746	0.42305	-4.1062	-4.7333	-4.0583	-4.8313	-4.5917	-4.1417	-4.9187	-4.4396	-4.4729	-4.6917	-4.2646	-4.5229	-4.5479	-4.1854	-4.7104	-4.4	183.351	100.557	-28.871	-154.122	-117.597	-28.688	126.902	135.667	9.991	-12.741	20.865	-105.165	48.843	-55.985	-134.271	147.239	0.00033762	0.0002854	8.758e-05	1090.1	4.2471e-06	2.1922e-06	1151.4	232.44	3.8435e-06	3.7669e-06	289.19	84.724	65.62	19.047	3.2474e-06	26.399	0.00010685	6.1952e-05	1.8101e-05	1072.3	8.7457e-07	7.1194e-07	1136.3	229.58	8.7982e-07	7.051e-07	287.04	83.678	65.068	19.055	7.008e-07	26.643	-50.424	-68.592	-81.743	-155.926	-25.705	-10.973	-155.885	-148.724	-12.251	15.593	-148.943	-142.533	-142.230	-135.448	-9.747	-135.930	-8191	255	
39454.875	1	1	0	0	0.26602	0.095143	0.19656	0.10964	0.087787	0.02339	0.29959	0.19049	0.25268	0.13126	0.18207	0.096606	0.045621	0.17956	0.1424	0.16332	-3.9917	-4.7125	-4.1979	-4.5208	-4.4875	-4.1208	-4.8667	-4.6271	-4.1604	-4.8229	-4.1833	-4.4146	-4.5625	-4.1562	-4.7021	-4.4187	-39.811	154.191	11.153	105.577	106.644	45.751	112.320	76.157	-150.522	12.082	125.760	-107.638	137.725	105.796	-13.136	179.101	0.0003409	0.00026595	7.0759e-05	1086.4	3.2359e-06	3.5422e-06	1149.7	231.81	2.9405e-06	1.7439e-06	289.93	83.9	65.028	18.858	3.9886e-06	26.513	0.0001043	6.1966e-05	1.8708e-05	1070.9	8.1002e-07	6.7757e-07	1136.1	229.2	8.1465e-07	6.7065e-07	287.28	83.61	64.77	19.057	7.2429e-07	26.695	-48.036	-78.225	-64.166	-155.860	-7.619	-25.211	-155.920	-148.856	-2.236	-71.626	-149.189	-142.933	-142.578	-135.372	-14.950	-136.297	-8191	255	
39454.973	1	1	0	0	0.14071	0.10863	0.086189	0.20596	0.10153	0.10741	0.10738	0.23048	0.21043	0.10248	0.083291	0.050697	0.044914	0.1492	0.12364	0.18671	-3.9646	-4.6042	-4.3292	-4.55	-4.5875	-4.1562	-4.7521	-4.3729	-4.1021	-4.8187	-4.1771	-4.4313	-4.6875	-4.1667	-4.4333	-4.5458	-93.221	-29.840	-78.298	70.408	132.427	65.831	142.184	-1.035	172.808	-4.293	149.076	-6.027	-162.889	107.178	89.023	-49.301	0.00030228	0.00034968	0.00012576	1086.7	3.6672e-06	3.2507e-06	1157.9	231.62	3.3548e-06	2.126e-06	288.91	84.682	65.747	19.029	1.9644e-06	26.584	0.00010208	6.0914e-05	1.9962e-05	1072.6	8.2817e-07	7.0685e-07	1137	229.15	8.2001e-07	6.5938e-07	286.86	83.971	65.169	19.144	7.2489e-07	26.71	-48.697	-69.887	-73.872	-155.715	-50.853	-25.596	-155.754	-149.027	-11.563	-27.644	-149.249	-142.806	-142.566	-136.000	3.270	-136.174	-8191	255	
39455.043	1	1	0	0	0.050266	0.20803	0.18741	0.22705	0.21965	0.17239	0.064736	0.28228	0.14186	0.19364	0.11299	0.12403	0.17396	0.12585	0.16311	0.50327	-3.8125	-4.7625	-4.1396	-4.4146	-4.7271	-4.0437	-4.6167	-4.7021	-4.1833	-4.6479	-4.2458	-4.3021	-4.6937	-4.2042	-4.4625	-4.675	-124.705	-10.498	-34.862	-160.528	-27.988	171.024	55.611	87.757	-125.208	114.669	60.110	-150.409	168.415	89.848	-45.646	154.762	0.00031306	0.0001898	7.5184e-05	1086.6	4.3517e-06	2.4576e-06	1153	232.82	3.0304e-06	3.53e-06	290.66	84.382	66.072	19.231	1.9574e-06	26.524	0.00010648	5.4367e-05	1.6259e-05	1072.5	7.7938e-07	7.3413e-07	1136.7	229.59	7.8206e-07	6.912e-07	287.11	84.005	65.367	19.204	7.0667e-07	26.761	-46.384	-106.648	-59.698	-155.970	-46.946	-31.523	-156.022	-148.781	-18.874	-20.800	-149.069	-142.538	-142.388	-135.396	-6.229	-136.240	-8191	255	
39455.164	1	1	0	0	0.16091	0.10952	0.074025	0.1687	0.096306	0.25908	0.055789	0.20039	0.16656	0.078729	0.17154	0.078979	0.22289	0.18517	0.21412	0.14991	-3.8	-4.6937	-4.3875	-4.4542	-4.6792	-4.3	-4.7854	-4.6854	-4.225	-4.65	-4.5646	-4.3208	-4.7125	-4.3375	-4.4292	-4.8812	-150.358	63.240	75.574	107.942	-57.452	55.377	144.287	110.077	83.405	53.129	63.733	-155.919	-20.530	7.395	-94.975	74.997	0.00032091	0.00018583	0.0001018	1088.9	4.2695e-06	1.8181e-06	1154	232.19	2.8833e-06	3.447e-06	291.12	84.552	65.632	19.108	3.0928e-06	26.502	0.00010625	5.605e-05	1.6793e-05	1071.7	8.2579e-07	7.1918e-07	1136.2	229.45	8.4426e-07	6.5582e-07	287.72	83.934	65.159	19.105	7.2098e-07	26.734	-50.059	-64.961	-50.797	-155.928	-24.748	-19.014	-155.937	-148.915	0.925	0.321	-148.821	-142.957	-142.479	-135.728	-43.115	-135.960	-8191	255	
39455.258	1	1	0	0	0.064882	0.082723	0.1992	0.080749	0.079126	0.16193	0.11918	0.12771	0.15694	0.19259	0.31731	0.10853	0.096747	0.19206	0.065298	0.076027	-3.7458	-4.6458	-4.4729	-4.2583	-4.8583	-4.2438	-4.5833	-4.9208	-4.1833	-4.6271	-4.6625	-4.1229	-4.8292	-4.3646	-4.2979	-4.7292	-51.243	-91.762	154.902	179.362	164.771	150.229	98.916	120.243	140.680	19.490	161.730	-127.417	113.618	184.008	172.276	57.154	0.00031428	0.00016871	5.1306e-05	1087.2	5.2886e-06	2.8825e-06	1152.3	232.28	3.4435e-06	3.0723e-06	289.03	84	66.641	18.949	1.5375e-06	26.425	0.00010207	5.9428e-05	1.8307e-05	1071.5	8.0943e-07	6.6093e-07	1136.6	229.7	8.3176e-07	6.481e-07	287.37	83.906	65.502	19.119	7.4658e-07	26.74	-46.544	-69.935	-36.396	-156.150	-48.342	-29.748	-155.719	-148.757	5.661	-34.383	-149.236	-142.627	-142.002	-135.711	10.754	-136.326	-8191	255	
39455.355	1	1	0	0	0.17839	0.18805	0.12055	0.15817	0.21908	0.23197	0.24319	0.11406	0.1129	0.11249	0.10646	0.14159	0.18569	0.12481	0.30289	0.19801	-3.9938	-4.5792	-4.5625	-4.2521	-4.7042	-4.4771	-4.5625	-4.9208	-4.3417	-4.6458	-4.6458	-4.3187	-4.8021	-4.3854	-4.2208	-4.6646	40.960	53.530	-33.396	146.585	-126.315	74.909	79.458	122.175	111.490	-59.506	66.963	-130.545	-158.382	-37.300	162.008	95.345	0.00034693	0.0002908	5.4658e-05	1088.4	5.8507e-06	2.1252e-06	1153.9	233.07	3.4416e-06	1.7905e-06	291.12	83.923	65.515	18.923	3.1208e-06	26.395	0.00010544	6.4924e-05	1.6026e-05	1072.1	8.1552e-07	6.2271e-07	1137.3	230.17	8.3295e-07	6.566e-07	287.2	83.595	65.289	19.07	7.3709e-07	26.659	-51.171	-89.927	-80.986	-156.054	-13.322	-5.672	-155.942	-148.714	-6.802	-20.108	-148.987	-142.747	-142.706	-135.812	0.508	-136.048	-8191	255	
39455.453	1	1	0	0	0.1268	0.063535	0.10861	0.16874	0.12295	0.27541	0.22435	0.12976	0.20783	0.27271	0.15864	0.057481	0.15055	0.06885	0.05948	0.12447	-3.9042	-4.4708	-4.6542	-4.3	-4.7396	-4.4479	-4.3125	-4.8646	-4.2625	-4.4938	-4.6896	-4.2104	-4.6583	-4.5396	-4.1438	-4.7917	-128.311	176.309	-34.724	163.617	159.488	-150.010	112.220	80.420	161.202	173.456	88.599	-135.943	186.131	80.550	142.187	-109.607	0.00035319	0.00028826	0.00016685	1087.7	2.6668e-06	3.9019e-06	1156.8	232.42	3.663e-06	1.9387e-06	290.07	84.083	65.741	18.931	3.4887e-06	26.537	0.00010683	6.5078e-05	1.6929e-05	1071.2	8.0675e-07	6.9283e-07	1136.2	229.32	8.2016e-07	6.7776e-07	287.45	83.875	65.188	19.07	7.3092e-07	26.692	-50.219	-60.477	-75.488	-156.138	-14.135	-21.740	-155.762	-148.872	-27.071	-16.927	-149.091	-142.797	-142.505	-135.534	-1.795	-136.107	-8191	255	
39455.570	1	1	0	0	0.026993	0.19618	0.2121	0.075311	0.25626	0.22259	0.065438	0.11719	0.042701	0.059323	0.21946	0.29661	0.063558	0.073488	0.12112	0.084997	-3.9417	-4.4917	-4.7104	-4.2896	-4.6438	-4.6312	-4.3479	-5	-4.2604	-4.3771	-4.7396	-4.1396	-4.6333	-4.5333	-4.3396	-4.8146	116.060	-106.752	-22.027	83.234	175.362	-25.822	77.599	151.197	-64.712	-149.112	118.084	72.051	105.542	38.896	176.425	-154.504	0.00030056	0.00013131	0.00010278	1086.2	4.8232e-06	2.3691e-06	1149.8	231.79	2.589e-06	2.8939e-06	290.65	83.863	66.14	18.945	2.6891e-06	26.331	0.00010787	6.0676e-05	1.622e-05	1070.4	8.5271e-07	6.3843e-07	1134.7	229.35	8.1629e-07	6.5706e-07	286.59	83.852	65.13	19.048	7.5019e-07	26.718	-52.304	-81.118	-78.305	-155.999	-36.878	-11.500	-155.753	-148.514	10.668	5.307	-149.099	-142.458	-142.638	-135.914	-2.845	-135.862	-8191	255	
39455.641	1	1	0	0	0.23096	0.16722	0.2737	0.11055	0.15965	0.10692	0.087602	0.15642	0.047825	0.19439	0.14878	0.18715	0.18233	0.17323	0.25157	0.078549	-4.1354	-4.2521	-4.7604	-4.3979	-4.4854	-4.6979	-4.1438	-4.6875	-4.2896	-4.2792	-4.75	-4.2438	-4.5917	-4.6792	-4.1813	-4.7937	-13.061	121.793	-152.581	162.739	-69.563	125.069	131.085	164.060	121.187	21.266	81.419	14.059	99.043	121.115	-3.184	-151.702	0.00031074	0.00033836	7.2889e-05	1089.5	4.1976e-06	2.2788e-06	1156.9	230.69	3.2166e-06	3.8122e-06	289.62	84.045	65.563	18.965	3.4446e-06	26.478	0.00010304	6.5653e-05	1.6088e-05	1070.2	8.9777e-07	6.8034e-07	1136.2	229.23	8.3251e-07	6.9289e-07	286.98	83.591	65.01	19.083	7.794e-07	26.658	-53.895	-62.539	-61.910	-155.850	-22.072	31.618	-156.009	-148.854	9.240	-20.108	-148.858	-142.228	-142.592	-135.569	-21.331	-136.209	-8191	255	
39455.762	1	1	0	0	0.16788	0.23824	0.13437	0.29447	0.26805	0.020637	0.052834	0.32279	0.12844	0.087159	0.16717	0.084537	0.21097	0.077242	0.29661	0.083193	-4.2167	-4.2625	-4.8562	-4.3938	-4.4563	-4.6479	-4.3021	-4.7854	-4.5521	-4.0021	-4.7958	-4.3604	-4.4396	-4.6583	-4.075	-4.525	67.766	150.957	98.328	126.809	139.288	-79.237	60.421	116.683	6.210	76.653	-82.147	83.271	153.100	172.016	-154.767	-37.391	0.00032865	0.00023802	8.7085e-05	1083	4.7937e-06	1.6768e-06	1156	230.56	2.8184e-06	3.081e-06	288.96	84.229	65.725	18.936	2.6643e-06	26.284	0.00010631	6.4447e-05	1.615e-05	1068.6	8.591e-07	6.8666e-07	1136.2	229.1	8.4218e-07	7.3877e-07	286.45	83.695	65.075	19.028	8.0018e-07	26.548	-47.893	-90.147	-77.694	-155.913	-41.007	-18.893	-155.980	-148.596	0.377	-26.127	-149.197	-142.727	-142.083	-135.495	-19.454	-135.660	-8191	255	
39455.859	1	1	0	0	0.099145	0.10345	0.24273	0.3461	0.18543	0.10257	0.21095	0.21823	0.11035	0.28433	0.10934	0.21675	0.070705	0.16903	0.12611	0.044276	-4.1417	-4.1021	-4.6625	-4.4167	-4.3812	-4.7375	-4.4542	-4.6417	-4.6	-4.2833	-4.7354	-4.6021	-4.3583	-4.8354	-4.125	-4.6062	-53.765	133.351	132.854	192.300	-115.850	-60.497	91.449	33.459	90.674	-53.245	182.771	36.151	143.744	133.231	-1.387	-52.175	0.00032299	0.00041491	0.00010392	1086	3.9731e-06	3.5506e-06	1154.6	231.68	3.7467e-06	2.4723e-06	289.6	83.689	65.367	18.984	3.7318e-06	26.339	0.00010382	6.7335e-05	1.696e-05	1070	9.1711e-07	7.0331e-07	1136.1	229.26	8.0542e-07	7.0015e-07	286.21	83.525	64.953	19.018	7.797e-07	26.554	-48.535	-62.568	-59.750	-156.009	-20.334	-20.750	-155.784	-149.016	-2.184	7.313	-148.786	-142.657	-142.701	-135.883	-7.460	-136.120	-8191	255	
39455.953	1	1	0	0	0.11567	0.085413	0.082962	0.060883	0.13482	0.15029	0.33308	0.23201	0.14424	0.15111	0.061269	0.12663	0.081191	0.19736	0.22948	0.18215	-4.3708	-4.1354	-4.8688	-4.7042	-4.3458	-4.7333	-4.5375	-4.5583	-4.6292	-4.2417	-4.6708	-4.4625	-4.1854	-4.8187	-4.4375	-4.3	-31.223	150.198	77.023	154.648	8.129	-16.644	139.974	132.952	170.608	109.604	181.514	102.014	-140.126	186.857	-93.063	82.008	0.00031784	0.00026157	0.0001105	1082.3	4.2791e-06	1.8294e-06	1149.7	231.62	2.2502e-06	2.7395e-06	288.58	84	65.55	18.825	3.153e-06	26.485	0.00010281	6.9088e-05	1.7587e-05	1069.6	9.0953e-07	6.7172e-07	1134.5	229.14	8.267e-07	7.3274e-07	286.46	83.501	65.003	18.971	7.535e-07	26.638	-50.439	-52.577	-90.683	-155.892	-38.058	-29.285	-155.757	-148.895	-11.343	-21.907	-149.127	-142.596	-142.477	-135.959	-5.176	-136.301	-8191	255	
39456.051	1	1	0	0	0.33341	0.22798	0.10239	0.12057	0.23153	0.054725	0.21113	0.23885	0.20286	0.092478	0.20318	0.22962	0.2086	0.13478	0.16302	0.11086	-4.3292	-4.0521	-4.5896	-4.5	-4.0833	-4.8646	-4.5188	-4.5458	-4.5042	-4.2667	-4.775	-4.5833	-4.175	-4.9271	-4.3896	-4.3708	0.198	101.568	68.026	183.019	67.808	39.966	90.472	139.914	4.635	147.889	-21.716	129.993	-158.205	-4.844	-153.751	-103.739	0.00032847	0.00028109	4.7106e-05	1087.6	3.2882e-06	3.5151e-06	1153	232.04	2.1825e-06	1.6295e-06	289.02	84.007	65.862	18.929	2.6306e-06	26.197	0.00010483	6.7882e-05	1.8553e-05	1071.9	9.0893e-07	6.6416e-07	1137.4	229.11	7.8906e-07	7.0988e-07	286.48	83.506	65.031	19.027	7.392e-07	26.571	-50.243	-70.741	-61.682	-156.040	-14.101	-13.950	-155.708	-148.573	-17.094	-29.668	-149.391	-142.592	-142.027	-135.449	63.113	-135.842	-8191	255	
39456.172	1	1	0	0	0.27099	0.21334	0.10678	0.25371	0.1417	0.13124	0.21841	0.11402	0.16353	0.18066	0.14587	0.14558	0.13697	0.13926	0.10582	0.1029	-4.3333	-4.1771	-4.5083	-4.725	-4.1333	-4.8375	-4.5896	-4.3292	-4.8792	-4.0854	-4.7021	-4.7083	-4.2167	-4.6146	-4.5062	-4.25	68.923	-0.353	-63.411	-152.699	60.713	-10.185	86.483	142.269	-30.212	12.847	-95.618	142.910	-135.387	-160.021	-22.972	154.571	0.00033357	0.00034632	0.00011908	1091.7	4.2348e-06	2.2304e-06	1154	232.24	3.819e-06	2.8324e-06	289.63	83.356	65.704	18.853	3.3922e-06	26.444	0.00010895	6.6326e-05	1.8062e-05	1073	8.6505e-07	6.7048e-07	1136.9	229.47	7.9947e-07	6.9506e-07	286.75	83.429	64.901	19.003	7.6224e-07	26.683	-49.565	-72.305	-71.255	-155.904	-53.021	-22.630	-156.014	-148.884	5.818	10.755	-149.080	-142.625	-142.375	-135.672	-18.378	-136.235	-8191	255	
39456.266	1	1	0	0	0.12177	0.26709	0.27768	0.098568	0.15546	0.22538	0.12385	0.11761	0.19857	0.14784	0.2826	0.14751	0.14434	0.21605	0.22684	0.1623	-4.3604	-4.3562	-4.5521	-4.7458	-4.2146	-4.6417	-4.6104	-4.325	-4.6062	-4.2875	-4.525	-4.75	-4.1979	-4.7729	-4.4417	-4.2521	-58.987	135.100	-40.888	165.377	-90.595	-93.369	182.769	91.733	91.044	-72.763	115.435	-84.829	189.989	143.275	23.781	22.646	0.0003296	0.00019834	0.00013592	1088.6	3.414e-06	1.3207e-06	1157.5	231.68	3.5367e-06	2.3809e-06	289.65	84.523	65.917	18.891	3.325e-06	26.438	0.00010451	6.7658e-05	1.7124e-05	1071.7	8.3307e-07	6.7942e-07	1136.4	228.73	7.6302e-07	7.1699e-07	286.56	83.738	65.071	19.009	7.3107e-07	26.628	-49.514	-89.986	-55.372	-155.922	-64.508	15.329	-155.723	-148.606	9.179	-51.729	-148.616	-142.731	-142.715	-135.549	-6.495	-136.041	-8191	255	
39456.340	1	1	0	0	0.31929	0.11252	0.13232	0.24123	0.15909	0.13232	0.2727	0.30975	0.21504	0.14247	0.056957	0.16361	0.23535	0.11681	0.068519	0.056928	-4.3896	-4.2875	-4.6104	-4.9333	-4.0792	-4.7833	-4.6333	-4.3292	-4.8938	-4.35	-4.4313	-4.7979	-4.3354	-4.5958	-4.5437	-4.2042	-19.731	163.815	-23.036	163.832	127.695	109.307	145.249	169.588	104.156	40.948	104.136	-155.126	-152.383	-120.915	-98.563	-147.020	0.00034276	0.00037858	5.7562e-05	1085.1	5.5701e-06	2.0588e-06	1150.3	231.31	3.9276e-06	1.6408e-06	289.49	84.314	65.58	18.95	4.9641e-06	26.42	0.0001048	6.8849e-05	1.8381e-05	1069.9	8.7978e-07	6.8959e-07	1134.7	229.13	7.6287e-07	7.0046e-07	286.67	83.728	64.959	19.037	7.0773e-07	26.625	-49.914	-84.336	-52.917	-155.800	-29.643	10.560	-155.854	-148.823	-14.149	-43.617	-149.074	-142.741	-141.952	-135.455	-21.328	-136.171	-8191	255	
39456.434	1	1	0	0	0.016604	0.13112	0.10117	0.073636	0.040752	0.16246	0.18605	0.11942	0.11553	0.1222	0.24516	0.021677	0.1151	0.14976	0.073276	0.24404	-4.3979	-4.4542	-4.35	-4.8875	-4.2896	-4.5146	-4.7625	-4.325	-4.6646	-4.4896	-4.3646	-4.8458	-4.5	-4.4729	-4.5417	-4.3063	48.242	-64.249	-147.812	-165.546	113.328	170.470	115.409	-88.147	99.535	-61.831	167.463	125.246	109.539	139.508	95.075	63.474	0.00032279	0.00031324	6.9343e-05	1086	5.2158e-06	2.9414e-06	1153.6	231.75	3.3612e-06	2.4287e-06	288.27	84.073	65.44	18.835	1.8757e-06	26.225	0.00010573	6.8233e-05	1.8187e-05	1070.9	8.4215e-07	6.7603e-07	1134.1	229.13	7.7507e-07	7.383e-07	285.79	83.411	64.845	18.914	6.9658e-07	26.589	-51.675	-75.485	-77.267	-156.037	-41.677	-16.452	-155.964	-148.404	13.212	-55.385	-149.289	-142.668	-142.146	-135.610	-34.683	-135.833	-8191	255	
39456.531	1	1	0	0	0.11336	0.17058	0.14411	0.25913	0.061868	0.13666	0.28968	0.10047	0.0068045	0.16334	0.21536	0.16267	0.080429	0.05323	0.068633	0.070246	-4.2333	-4.5667	-4.3042	-4.9542	-4.3604	-4.3271	-4.8313	-4.3771	-4.6417	-4.4812	-4.0396	-4.95	-4.1312	-4.4437	-4.6458	-4.3708	150.148	73.349	131.746	183.585	-39.884	16.219	97.922	148.114	-71.442	1.461	0.471	76.739	-62.479	-153.591	31.422	-144.401	0.00032385	0.00024268	0.00014563	1086.8	3.4034e-06	1.5063e-06	1150.2	231.35	3.9575e-06	2.8359e-06	290.82	83.514	65.298	18.966	2.3123e-06	26.478	0.00010552	6.6662e-05	1.8264e-05	1069.8	8.6818e-07	7.5293e-07	1133.5	228.97	8.4471e-07	7.3691e-07	286.67	83.219	64.751	18.948	7.6329e-07	26.579	-52.409	-92.370	-66.482	-156.108	-33.917	11.322	-155.908	-148.876	-17.032	32.270	-148.951	-142.564	-142.247	-135.492	-17.887	-135.660	-8191	255	
39456.652	1	1	0	0	0.054473	0.094093	0.29244	0.1745	0.18278	0.11271	0.051565	0.25036	0.20814	0.023663	0.098916	0.14992	0.1348	0.12758	0.16257	0.10212	-4.2312	-4.7875	-4.2521	-4.9146	-4.4292	-4.4604	-4.9667	-4.3167	-4.45	-4.6021	-4.2479	-4.7729	-4.4167	-4.4396	-4.9437	-4.2604	56.852	1.606	65.053	-137.226	-49.174	11.470	86.188	107.219	74.388	-88.800	88.082	143.276	-123.187	181.986	16.735	-20.829	0.0003421	0.00027509	8.387e-05	1085.3	5.1976e-06	1.8547e-06	1147.3	230.24	4.1373e-06	2.1395e-06	287.84	84.097	64.897	18.9	3.4144e-06	26.297	0.00010682	6.6564e-05	1.7832e-05	1069	8.8469e-07	7.1147e-07	1132.8	228.01	8.5096e-07	7.0927e-07	285.49	83.569	64.629	18.956	7.0291e-07	26.445	-49.862	-107.699	-73.433	-156.002	-27.780	11.836	-155.954	-148.912	16.427	20.462	-149.182	-142.912	-142.656	-135.303	-11.696	-135.892	-8191	255	
39456.746	1	1	0	0	0.21213	0.084717	0.017657	0.25072	0.28314	0.19601	0.10856	0.21696	0.17125	0.21656	0.22911	0.16035	0.024824	0.15608	0.018664	0.12211	-4.1604	-4.5813	-4.1542	-4.8771	-4.475	-4.3667	-4.7729	-4.4437	-4.5604	-4.8875	-4.0979	-4.8646	-4.4854	-4.2354	-4.8583	-4.3896	150.397	-77.298	-46.380	133.543	146.262	-123.386	160.482	103.992	-5.126	-82.434	165.175	64.411	-158.755	-31.756	26.223	100.048	0.00032075	0.00034814	0.00011936	1083.1	3.5322e-06	2.642e-06	1148.7	229.52	3.3458e-06	3.5178e-06	287.61	82.61	63.952	18.419	4.0611e-06	25.636	0.00010668	6.8751e-05	1.9604e-05	1068.1	9.9802e-07	7.6094e-07	1131.2	227.3	9.4499e-07	8.3592e-07	283.67	81.868	63.583	18.505	9.8073e-07	25.954	-49.146	-68.638	-58.803	-155.768	-33.186	-32.180	-155.745	-148.711	0.775	-39.376	-149.272	-142.448	-141.942	-135.294	-18.928	-135.646	-8191	255	
39456.844	1	1	0	0	0.20848	0.22349	0.15076	0.35563	0.079543	0.15689	0.28465	0.25595	0.027221	0.22522	0.051467	0.16903	0.20289	0.10119	0.059911	0.20186	-4.1958	-4.7958	-4.1146	-4.7417	-4.4458	-4.3021	-4.9667	-4.35	-4.2208	-4.7708	-4.375	-4.5583	-4.6146	-4.3438	-4.7375	-4.4396	157.843	-68.275	-162.366	179.393	-128.634	177.518	117.696	154.517	67.510	188.404	-127.890	-127.281	173.720	-36.604	24.054	13.827	0.00031452	0.00016523	0.00011704	1076.9	4.4662e-06	3.2676e-06	1139	225.45	2.9343e-06	2.668e-06	281.48	81.494	63.987	18.282	3.9992e-06	25.636	0.00012451	8.4383e-05	2.5121e-05	1060.8	1.116e-06	9.4046e-07	1121.3	222.84	1.0358e-06	8.5616e-07	280.12	81.122	63.394	18.469	9.8058e-07	25.936	-49.180	-72.078	-44.819	-156.007	-51.488	-22.055	-155.834	-149.156	-35.469	-0.372	-149.450	-142.546	-142.488	-135.408	-3.832	-135.738	-8191	255	
39456.938	1	1	0	0	0.2167	0.039269	0.12949	0.12364	0.21883	0.1013	0.16077	0.11526	0.048338	0.24855	0.2486	0.1897	0.284	0.30329	0.058748	0.093167	-3.9896	-4.7	-4.2979	-4.6604	-4.6917	-4.1646	-4.825	-4.4042	-4.3208	-4.6729	-4.2604	-4.5833	-4.6625	-4.1687	-4.7896	-4.4583	5.442	-22.331	1.627	-72.514	74.642	-24.975	147.553	11.794	-87.661	162.517	100.139	170.510	151.515	153.245	-159.243	151.667	0.00032034	0.0002722	6.7381e-05	1074.5	3.8494e-06	2.9478e-06	1143.6	225.53	4.8008e-06	3.8369e-06	282.42	81.385	64.044	18.302	3.3419e-06	25.748	0.00012236	8.4047e-05	2.5164e-05	1061	1.0612e-06	9.4355e-07	1124.5	223.58	1.1011e-06	9.3292e-07	280.7	81.214	63.525	18.434	9.7365e-07	25.94	-47.753	-81.948	-70.822	-155.872	-39.423	-45.201	-155.934	-148.562	-13.447	-39.259	-149.066	-142.866	-142.627	-135.164	-28.388	-135.981	-8191	255	
39457.035	1	1	0	0	0.15305	0.25671	0.14978	0.13582	0.13419	0.13897	0.1795	0.23965	0.14673	0.11751	0.18946	0.12488	0.036659	0.026753	0.12658	0.23717	-4	-4.8333	-4.3187	-4.7	-4.7	-4.2667	-4.5833	-4.5396	-4.1625	-4.6896	-4.3042	-4.4104	-4.6917	-4.125	-4.7667	-4.6375	-132.070	-159.215	157.080	-118.082	-3.776	-149.526	113.749	158.393	-78.508	143.186	185.566	128.037	146.261	-31.755	-65.221	167.465	0.00034074	0.00030528	0.00011998	1081.2	4.8648e-06	3.7077e-06	1140.1	225.37	3.509e-06	2.7414e-06	283.28	81.108	63.476	18.122	3.7416e-06	25.596	0.00013167	8.486e-05	2.6476e-05	1064.3	1.1036e-06	1.0221e-06	1124.3	223.42	1.1213e-06	9.9501e-07	280.68	81.185	63.113	18.334	1.039e-06	25.846	-47.223	-60.760	-57.496	-155.974	-21.555	-1.307	-156.103	-148.743	-13.849	16.448	-149.119	-142.796	-142.559	-135.406	-35.047	-135.933	-8191	255	
39457.133	1	1	0	0	0.21948	0.10541	0.31831	0.14543	0.12276	0.09106	0.11828	0.16648	0.15554	0.065355	0.10393	0.082277	0.14346	0.23223	0.094558	0.032652	-3.8875	-4.8021	-4.3646	-4.4	-4.6625	-4.1583	-4.6542	-4.6542	-4.0396	-4.7792	-4.4646	-4.325	-4.7396	-4.3646	-4.6854	-4.5667	142.263	-60.150	7.627	111.926	-21.705	121.577	-68.233	148.330	-34.917	20.869	-17.328	133.991	149.655	142.306	-153.879	149.605	0.00028967	0.00028549	0.00010459	1078.7	4.6654e-06	2.5327e-06	1135.9	224.64	2.327e-06	3.0601e-06	281.34	80.697	63.469	18.129	1.5661e-06	25.391	0.00012988	9.5739e-05	2.6246e-05	1062.4	1.2464e-06	1.1171e-06	1123	222.05	1.1707e-06	1.1139e-06	278.62	80.524	63.075	18.282	1.1691e-06	25.659	-49.837	-79.766	-49.479	-156.157	-32.843	-11.014	-155.842	-148.822	13.580	-25.224	-149.291	-142.206	-142.382	-134.983	36.626	-135.533	-8191	255	
39457.254	1	1	0	0	0.11033	0.12776	0.26417	0.17682	0.054648	0.15268	0.1282	0.13583	0.036881	0.14246	0.05667	0.036402	0.22287	0.10086	0.35456	0.22634	-3.9146	-4.5813	-4.4292	-4.4667	-4.7917	-4.2188	-4.5979	-4.7792	-4.2583	-4.6521	-4.7438	-4.2104	-4.7812	-4.2792	-4.4688	-4.6438	-90.059	-26.497	79.332	-124.300	113.746	-96.917	-53.453	154.724	-140.993	-155.524	-57.168	-122.809	10.625	135.067	21.475	137.566	0.00028874	0.00023699	0.00011188	1075	5.383e-06	3.8831e-06	1132.2	221.43	4.2789e-06	2.1855e-06	279.34	80.44	62.874	17.98	1.7728e-06	25.333	0.00013914	0.00010672	2.9684e-05	1060.1	1.3261e-06	1.2521e-06	1118.7	219.89	1.3115e-06	1.1614e-06	276.13	79.807	62.344	18.094	1.2504e-06	25.493	-53.973	-63.307	-72.298	-156.234	-19.322	-11.751	-155.816	-148.452	3.269	7.774	-148.996	-142.520	-141.835	-135.242	11.217	-136.081	-8191	255	
39457.348	1	1	0	0	0.062288	0.23683	0.21905	0.22458	0.2291	0.23457	0.20783	0.166	0.11505	0.19538	0.12996	0.37604	0.012182	0.29978	0.16371	0.19529	-3.8708	-4.5521	-4.5521	-4.4208	-4.7146	-4.4062	-4.7208	-4.8458	-4.1542	-4.5021	-4.6396	-4.2292	-4.7646	-4.3896	-4.3604	-4.7375	-119.711	20.827	76.010	123.087	-119.500	180.275	-7.275	129.647	7.546	-105.180	-73.533	6.521	-15.346	-103.408	189.461	118.254	0.00034945	0.00031238	0.00010005	1075.6	2.1879e-06	1.3068e-06	1142.4	220.58	2.9204e-06	2.1911e-06	275.47	80.352	62.579	17.871	4.2925e-06	25.04	0.00014989	0.00011649	3.2114e-05	1060.5	1.4344e-06	1.2929e-06	1122.1	218.38	1.4058e-06	1.2703e-06	273.85	79.521	62.18	17.947	1.4752e-06	25.307	-47.211	-90.884	-56.395	-155.791	-17.491	13.944	-155.724	-148.835	-18.228	50.125	-148.992	-142.553	-142.163	-135.213	-16.973	-135.948	-8191	255	
39457.445	1	1	0	0	0.034676	0.12226	0.077941	0.17006	0.21581	0.045628	0.29288	0.17033	0.19127	0.19579	0.33759	0.073517	0.11437	0.12384	0.22865	0.070558	-3.8	-4.5167	-4.5687	-4.2917	-4.7854	-4.3896	-4.3958	-4.7063	-4.2646	-4.5271	-4.7688	-4.1479	-4.7083	-4.2708	-4.2812	-4.7479	19.576	-88.924	-151.350	-151.597	-0.380	-81.511	123.557	36.825	54.216	45.612	165.949	133.272	-157.977	-116.341	34.679	-131.825	0.00029952	0.00034177	4.4139e-05	1076.5	4.9451e-06	4.1768e-06	1138.2	219.84	3.6345e-06	2.2578e-06	275.79	79.357	62.216	17.757	2.0832e-06	24.976	0.00015324	0.00011865	3.2834e-05	1060.6	1.5104e-06	1.3915e-06	1119.9	217.7	1.49e-06	1.3935e-06	273.67	79.062	62.066	17.897	1.4103e-06	25.279	-44.370	-71.918	-95.227	-155.949	-39.679	-18.155	-155.966	-148.537	12.308	1.729	-148.833	-142.325	-142.148	-135.083	-30.108	-135.632	-8191	255	
39457.539	1	1	0	0	0.086329	0.042067	0.088044	0.081282	0.29777	0.11108	0.064187	0.0938	0.10703	0.11099	0.22248	0.15623	0.14126	0.11599	0.15605	0.21743	-3.8854	-4.5312	-4.6917	-4.1792	-4.6562	-4.4458	-4.5375	-4.8708	-4.3479	-4.4958	-4.6896	-4.3042	-4.6	-4.425	-4.1979	-4.7937	120.963	-88.533	32.620	158.898	-15.303	-45.346	-106.057	103.462	-99.778	-94.920	185.056	171.428	161.399	-150.991	150.162	83.123	0.00030534	0.00030048	7.5287e-05	1075	3.7765e-06	2.4783e-06	1134.3	220.36	3.9553e-06	4.8384e-06	272.96	79.314	61.745	17.723	1.8807e-06	25.104	0.00015757	0.00012969	3.5388e-05	1060.8	1.5809e-06	1.4189e-06	1119.9	217.56	1.4576e-06	1.3863e-06	272.21	79.104	61.65	17.872	1.4796e-06	25.296	-49.227	-77.100	-78.456	-155.829	-59.599	-0.095	-155.875	-148.699	13.893	-18.059	-149.091	-142.632	-142.012	-134.982	38.911	-136.002	-8191	255	
39457.637	1	1	0	0	0.16944	0.1171	0.064117	0.21362	0.17328	0.1299	0.13715	0.20474	0.27829	0.29092	0.17733	0.16312	0.17018	0.29812	0.14791	0.046753	-3.9146	-4.55	-4.7562	-4.35	-4.7146	-4.5625	-4.4583	-4.8771	-4.3583	-4.4729	-4.9208	-4.2208	-4.65	-4.7021	-4.1208	-4.8521	46.710	-0.274	148.250	183.472	-61.254	104.984	115.496	174.401	107.802	148.045	90.775	187.878	47.311	94.672	126.762	60.176	0.0003153	0.00028031	8.1135e-05	1073.4	3.7772e-06	1.6115e-06	1133.2	219.1	6.3124e-06	3.3686e-06	273.48	78.552	61.588	17.693	1.4166e-06	24.791	0.00016271	0.00014014	3.8678e-05	1059.8	1.5994e-06	1.4667e-06	1117.7	217.24	1.5839e-06	1.604e-06	271.19	78.33	61.435	17.832	1.605e-06	25.021	-52.510	-88.830	-99.013	-156.131	-66.948	-16.004	-155.999	-148.807	-32.041	34.868	-149.082	-142.547	-141.723	-135.019	-26.024	-135.573	-8191	255	
39457.730	1	1	0	0	0.11708	0.12369	0.13358	0.22164	0.024456	0.34453	0.078835	0.1532	0.24898	0.094074	0.15407	0.14617	0.21486	0.25271	0.18212	0.095729	-3.9604	-4.4333	-4.8208	-4.2958	-4.6438	-4.6229	-4.3125	-4.7979	-4.4604	-4.2583	-4.9708	-4.3854	-4.5125	-4.7125	-4.0813	-4.725	63.501	159.667	-48.109	157.951	28.124	115.256	-123.806	-115.886	-20.446	87.367	101.110	167.544	-114.382	-138.399	25.813	105.643	0.00029399	0.00017064	0.00011403	1078.4	4.114e-06	2.7361e-06	1139.9	218.57	2.2932e-06	1.8675e-06	273.82	78.449	62.184	17.589	1.2379e-06	24.953	0.00017542	0.00014237	4.1077e-05	1061.5	1.7707e-06	1.5886e-06	1121.9	217.02	1.7299e-06	1.5957e-06	271.67	78.393	61.626	17.776	1.7228e-06	25.126	-51.333	-96.914	-66.420	-156.009	-17.584	-43.572	-156.070	-148.794	4.059	-43.701	-148.802	-142.395	-142.129	-134.993	-37.150	-135.674	-8191	255	
39457.852	1	1	0	0	0.049097	0.23065	0.068097	0.20225	0.13084	0.034752	0.23808	0.043441	0.11621	0.041693	0.039055	0.083106	0.077035	0.13093	0.076406	0.30684	-4.2438	-4.2167	-4.7438	-4.3854	-4.5062	-4.7854	-4.3771	-4.8542	-4.5083	-4.2396	-4.7583	-4.4167	-4.5292	-4.8792	-4.1542	-4.7063	82.639	-130.433	-112.013	134.356	-9.183	-113.127	60.946	67.991	51.322	154.237	66.850	64.685	51.151	-141.851	180.989	3.958	0.00032554	0.00042022	9.5913e-05	1073.7	2.576e-06	2.4196e-06	1137	218.2	3.9301e-06	1.0245e-06	274.22	78.529	61.966	17.747	2.9229e-06	24.837	0.00017673	0.00015779	4.2603e-05	1061.4	1.8409e-06	1.7399e-06	1122	217.6	1.8251e-06	1.8379e-06	272.89	78.301	61.699	17.848	1.8582e-06	25.139	-48.628	-76.516	-47.611	-156.008	-56.364	20.483	-155.763	-148.640	0.998	85.865	-148.757	-142.640	-142.327	-135.361	-10.294	-135.333	-8191	255	
39457.949	1	1	0	0	0.068299	0.20793	0.067623	0.14383	0.1438	0.36167	0.23625	0.079456	0.13104	0.16122	0.1018	0.29569	0.023669	0.14224	0.14831	0.085955	-4.1229	-4.1312	-4.7896	-4.5188	-4.4146	-4.8292	-4.2438	-4.6458	-4.5333	-4.2083	-5.0479	-4.2021	-4.3208	-4.7812	-4.1646	-4.7104	-55.727	-150.346	164.508	135.469	-145.666	101.967	110.404	66.172	-96.710	140.801	53.319	65.288	-130.828	182.301	-104.635	-115.982	0.00030278	0.00040892	0.00011172	1079.7	3.8253e-06	3.0118e-06	1136.8	220.75	3.3994e-06	4.7705e-06	273.84	78.453	62.502	17.714	2.0093e-06	24.855	0.00017796	0.00016023	4.1883e-05	1065.7	1.9483e-06	1.7373e-06	1123.4	218.18	1.7702e-06	1.7976e-06	272.51	78.566	61.807	17.876	1.8297e-06	25.185	-47.659	-93.626	-68.120	-155.728	-45.101	-21.952	-156.028	-148.711	-20.891	-41.542	-149.063	-142.757	-142.188	-134.949	-5.842	-135.823	-8191	255	
39458.043	1	1	0	0	0.16403	0.17768	0.037416	0.06567	0.25331	0.21006	0.26029	0.22565	0.29126	0.20411	0.059499	0.10165	0.0061135	0.19205	0.23544	0.17538	-4.3021	-4.1062	-4.7063	-4.5167	-4.3375	-4.9917	-4.3771	-4.6208	-4.6208	-4.1438	-4.6521	-4.475	-4.4104	-4.9167	-4.1604	-4.4083	147.833	107.027	-34.435	155.190	-124.194	49.697	160.084	-166.267	154.436	109.915	-4.713	115.533	-15.561	84.884	81.805	182.334	0.00025904	0.00036031	7.6052e-05	1082	6.4077e-06	4.6048e-06	1142.1	219.54	3.4352e-06	3.4428e-06	274.57	79.079	61.648	17.719	1.2172e-06	24.828	0.00018579	0.00016739	4.5585e-05	1065.6	1.9275e-06	1.8019e-06	1126	217.74	1.8224e-06	1.8799e-06	272.9	78.668	61.526	17.871	1.8189e-06	25.141	-49.417	-84.212	-53.808	-155.930	-44.656	-25.490	-155.985	-149.100	18.875	-31.031	-149.048	-142.281	-142.334	-135.116	-26.979	-135.485	-8191	255	
39458.141	1	1	0	0	0.27901	0.095412	0.11537	0.21803	0.12198	0.065119	0.11333	0.18893	0.14818	0.0098916	0.090205	0.17945	0.24827	0.014331	0.046743	0.16581	-4.4667	-4.1813	-4.6958	-4.5062	-4.1375	-4.8667	-4.5042	-4.55	-4.675	-4.1083	-4.5875	-4.6062	-4.2708	-4.7958	-4.1667	-4.4583	82.240	8.398	148.691	-148.730	73.450	41.138	108.288	-159.736	26.547	4.253	85.008	-155.396	163.667	18.204	-76.557	-163.854	0.00031774	0.0003496	0.00015707	1083.4	4.6045e-06	2.1817e-06	1142.9	221.03	3.359e-06	3.5595e-06	273.78	79.163	61.786	17.83	4.8877e-06	24.896	0.00019542	0.00017444	4.6068e-05	1067.8	1.9328e-06	1.8298e-06	1128.1	218.74	1.92e-06	1.839e-06	272.86	78.621	61.87	17.937	1.8294e-06	25.238	-47.391	-80.624	-59.214	-156.187	-53.634	-13.923	-156.092	-148.706	-4.446	-23.017	-148.848	-142.504	-142.109	-135.424	-19.890	-135.710	-8191	255	
39458.211	1	1	0	0	0.14701	0.15017	0.086308	0.25629	0.03624	0.2276	0.22503	0.030207	0.18931	0.053159	0.093527	0.055604	0.16696	0.09693	0.041304	0.15093	-4.3562	-4.0479	-4.5458	-4.7854	-4.0708	-4.8042	-4.3708	-4.4812	-4.7083	-4.2312	-4.6104	-4.7042	-4.2438	-4.7146	-4.3146	-4.3812	-136.533	68.000	-164.008	134.983	104.890	183.538	131.270	84.961	169.805	38.282	152.788	41.743	184.051	-111.964	-83.466	-97.670	0.00030702	0.00034109	9.9374e-05	1088.4	6.8786e-06	3.6263e-06	1146.5	221.62	2.6385e-06	4.3044e-06	275.97	78.509	61.436	17.689	4.1745e-06	24.953	0.00018319	0.00017137	4.6387e-05	1070.8	1.9538e-06	1.7997e-06	1128.9	218.75	1.8666e-06	1.878e-06	273.44	78.663	61.702	17.929	1.7214e-06	25.246	-56.611	-98.675	-39.630	-155.969	-51.754	-21.205	-155.933	-148.898	-9.522	-3.119	-149.056	-142.461	-142.443	-134.948	-8.432	-135.721	-8191	255	
39458.332	1	1	0	0	0.13049	0.22817	0.052169	0.14663	0.2602	0.12597	0.11739	0.12057	0.24473	0.095902	0.27015	0.066735	0.069926	0.15618	0.17654	0.12993	-4.4042	-4.0917	-4.5333	-4.6	-4.1583	-4.5917	-4.6062	-4.2812	-4.8333	-4.2146	-4.5188	-4.6917	-4.3021	-4.6583	-4.3854	-4.3938	162.893	12.943	87.724	-149.367	51.023	-166.289	-10.696	134.196	110.689	-158.918	130.319	72.652	-112.079	105.795	-19.772	-157.759	0.000354	0.00014731	8.4153e-05	1082.3	1.8802e-06	3.3902e-06	1144.8	220.83	3.3061e-06	2.0695e-06	274.61	78.474	62.391	17.725	4.7779e-06	25.188	0.00018635	0.00016166	4.3339e-05	1068.9	1.9061e-06	1.7324e-06	1126.3	218.49	1.7604e-06	1.7149e-06	273.11	78.857	61.913	17.922	1.7378e-06	25.298	-46.271	-92.355	-53.648	-155.999	-86.549	-19.143	-155.774	-148.645	5.366	-24.681	-149.010	-142.490	-142.392	-135.247	-20.711	-135.675	-8191	255	
39458.426	1	1	0	0	0.22779	0.088131	0.12869	0.041105	0.14063	0.079213	0.096136	0.23918	0.10195	0.11754	0.070229	0.18757	0.11412	0.0086913	0.22672	0.18927	-4.6375	-4.2375	-4.3438	-4.7396	-4.1479	-4.6771	-4.7688	-4.1917	-4.8	-4.4313	-4.4563	-4.7521	-4.0437	-4.625	-4.5417	-4.1188	94.541	34.112	-124.096	26.271	-104.112	33.113	44.918	56.868	-92.151	-53.869	-78.598	96.524	-126.577	94.959	62.776	-68.532	0.0003346	0.00029387	4.7951e-05	1089.7	4.9631e-06	2.8495e-06	1145.2	219.77	3.6622e-06	2.7186e-06	274.42	79.11	62.554	17.817	5.8566e-06	24.915	0.00017327	0.00015747	4.1162e-05	1069.8	1.8537e-06	1.6766e-06	1126.8	218.18	1.6469e-06	1.6763e-06	273.06	78.843	62.054	17.91	1.7126e-06	25.285	-54.444	-67.823	-34.664	-155.927	-39.584	-12.794	-156.018	-148.808	12.060	-29.672	-148.888	-142.345	-142.230	-135.271	0.485	-135.868	-8191	255	
39458.523	1	1	0	0	0.15212	0.041589	0.068628	0.16976	0.10393	0.13472	0.069493	0.11391	0.18341	0.046589	0.30471	0.20652	0.048771	0.19087	0.20043	0.10332	-4.3458	-4.4646	-4.1458	-4.8583	-4.2667	-4.6208	-4.8167	-4.2188	-4.7146	-4.4083	-4.4021	-4.8333	-4.3479	-4.4667	-4.6521	-4.2646	146.589	148.139	-2.377	-107.714	55.892	31.192	110.324	114.013	-109.310	-75.526	178.670	70.605	-80.874	184.356	117.923	101.638	0.00029674	0.00017318	0.0001015	1079.3	9.6238e-07	3.6474e-06	1143	220	4.2462e-06	2.7149e-06	275.02	79.406	61.899	17.74	3.5532e-06	24.995	0.00016832	0.00014094	3.9924e-05	1066.6	1.7184e-06	1.58e-06	1126.7	218.32	1.6604e-06	1.5977e-06	272.66	78.896	61.832	17.867	1.6886e-06	25.269	-48.625	-56.239	-86.644	-156.115	-60.153	-14.027	-155.792	-148.726	-20.627	-9.530	-149.371	-142.544	-142.543	-134.804	-15.402	-135.954	-8191	255	
39458.645	1	1	0	0	0.051807	0.18305	0.031288	0.080941	0.12703	0.12663	0.23372	0.14602	0.0452	0.26077	0.15973	0.25086	0.16477	0.16889	0.24817	0.16088	-4.4938	-4.5646	-4.1375	-4.8854	-4.2583	-4.4396	-4.925	-4.2458	-4.7021	-4.7667	-4.35	-4.8812	-4.325	-4.3021	-4.7271	-4.1771	-36.584	-147.102	-103.015	128.969	37.855	-161.130	102.762	148.802	27.489	140.797	100.843	189.209	124.191	44.076	-25.593	-140.112	0.0003016	0.00027572	0.00011848	1080.5	6.9765e-06	1.6845e-06	1138.5	221.06	3.0237e-06	3.3648e-06	275.19	79.153	62.128	17.709	3.3713e-06	24.977	0.00017367	0.00014732	4.0897e-05	1065.5	1.8112e-06	1.5978e-06	1123.4	218.1	1.8157e-06	1.6476e-06	272.8	78.74	61.853	17.852	1.6728e-06	25.224	-48.837	-54.423	-86.837	-155.969	-36.248	-29.194	-156.023	-148.802	-14.683	-31.230	-148.961	-142.482	-142.462	-134.903	-27.274	-135.204	-8191	255	
39458.738	1	1	0	0	0.22987	0.16477	0.15213	0.15895	0.060875	0.093057	0.1925	0.2469	0.18987	0.059449	0.13817	0.26809	0.14097	0.14343	0.085501	0.13516	-4.1729	-4.6042	-4.3021	-4.9583	-4.2417	-4.3958	-4.8958	-4.1979	-4.4708	-4.4479	-4.1771	-4.6333	-4.4583	-4.3417	-4.7937	-4.25	-58.744	19.113	44.437	-12.079	27.158	-135.991	115.675	116.912	110.748	-60.650	152.737	17.731	-117.033	-132.171	-85.053	10.824	0.00030526	0.00047355	7.7167e-05	1076.3	3.3775e-06	4.1532e-06	1142.5	220.48	2.3463e-06	1.3526e-06	274.01	78.211	62.332	17.706	1.8913e-06	24.926	0.00017051	0.00015539	4.1077e-05	1065.1	1.7927e-06	1.6831e-06	1124.9	218.3	1.673e-06	1.6434e-06	272.92	78.676	61.825	17.922	1.5936e-06	25.237	-47.290	-85.924	-60.540	-156.170	-31.992	-34.617	-155.995	-148.717	-38.976	-9.240	-149.002	-142.531	-142.368	-134.763	-28.243	-135.577	-8191	255	
39458.812	1	1	0	0	0.16807	0.1993	0.18169	0.11061	0.030778	0.088421	0.24111	0.13706	0.11784	0.099808	0.10045	0.062822	0.10739	0.27153	0.21931	0.19532	-4.0479	-4.7292	-4.1875	-4.7917	-4.4042	-4.3313	-4.9208	-4.3375	-4.6042	-4.8521	-4.1937	-4.6604	-4.4375	-4.3938	-4.7583	-4.3812	-146.633	75.968	-50.697	143.072	-162.545	-120.825	145.694	-156.156	169.076	-60.449	63.314	188.293	-7.517	177.002	-5.353	-96.100	0.00029125	0.00030199	9.2803e-05	1082.2	3.5843e-06	3.4904e-06	1143.2	220.55	2.0882e-06	2.8968e-06	275.39	79.116	62.036	17.621	3.7213e-06	24.946	0.00017684	0.00015096	4.177e-05	1066.9	1.8141e-06	1.6091e-06	1125.3	218.18	1.6972e-06	1.5736e-06	272.98	78.711	61.846	17.866	1.647e-06	25.254	-55.283	-125.161	-73.422	-156.027	22.444	-35.010	-155.951	-148.780	-26.948	-24.898	-149.002	-142.666	-141.886	-134.981	-22.121	-135.819	-8191	255	
39458.934	1	1	0	0	0.2634	0.21821	0.11951	0.12867	0.09963	0.20874	0.12005	0.29311	0.099509	0.28022	0.092793	0.21854	0.18927	0.22565	0.026272	0.16324	-4.0042	-4.7458	-4.0604	-4.8063	-4.6188	-4.2583	-4.8979	-4.4229	-4.3958	-4.7917	-4.3333	-4.6312	-4.6271	-4.1625	-4.8042	-4.4146	-27.464	42.598	-63.297	128.384	-50.978	-33.842	25.217	106.788	-153.250	174.536	67.647	-100.563	162.191	-155.793	118.313	139.203	0.00029746	0.00027208	5.4882e-05	1080.4	5.8243e-06	1.6619e-06	1140.5	219.86	1.5032e-06	3.8651e-06	275.27	78.431	61.86	17.928	3.0644e-06	24.93	0.00017196	0.00014956	4.1762e-05	1066.7	1.7209e-06	1.6331e-06	1125.1	218.44	1.7259e-06	1.581e-06	273.23	78.64	61.793	17.98	1.5978e-06	25.219	-47.116	-78.924	-56.571	-155.986	-35.049	-37.150	-156.049	-148.800	-30.592	-25.951	-148.970	-142.201	-142.272	-134.801	-27.119	-135.943	-8191	255	
39459.027	1	1	0	0	0.15295	0.10826	0.11885	0.19349	0.11184	0.11151	0.16968	0.3766	0.25446	0.19181	0.20772	0.24197	0.28323	0.096648	0.36681	0.16555	-4.0813	-4.6354	-4.0875	-4.675	-4.5625	-4.0875	-4.925	-4.4729	-4.1937	-4.8021	-4.3042	-4.6062	-4.55	-4.2812	-4.5604	-4.4542	-132.516	-54.929	113.542	-119.022	120.424	168.736	111.768	99.297	-145.207	-69.940	175.048	-24.061	70.468	-77.222	-57.411	122.079	0.00032147	0.00026598	0.00010955	1078.1	1.3904e-06	2.2074e-06	1143	219.46	4.2258e-06	9.6626e-07	274.93	78.832	62.275	17.822	3.298e-06	25.186	0.000173	0.00014577	4.272e-05	1066.2	1.7222e-06	1.6179e-06	1125.1	218.34	1.7027e-06	1.5392e-06	272.82	78.81	61.831	17.936	1.577e-06	25.368	-48.490	-55.572	-66.425	-155.959	-37.274	-32.164	-155.940	-148.872	5.495	22.862	-149.054	-142.745	-142.178	-134.642	-15.665	-135.802	-8191	255	
39459.125	1	1	0	0	0.088066	0.21007	0.24976	0.099772	0.039855	0.085024	0.083	0.026239	0.07872	0.13719	0.15628	0.042704	0.06289	0.16579	0.12881	0.15132	-3.9188	-4.7396	-4.2396	-4.6604	-4.625	-4.1458	-4.8938	-4.5583	-3.9938	-4.8	-4.2188	-4.5104	-4.725	-4.1458	-4.6917	-4.6062	59.057	-155.967	-47.901	172.431	116.895	37.005	106.969	61.955	127.881	-100.339	-154.947	-98.905	-70.862	148.268	-62.670	-96.792	0.00029608	0.00023788	0.00012127	1083.1	4.0213e-06	3.6683e-06	1139.5	221.52	3.0917e-06	5.3031e-06	275.17	79.24	61.899	17.765	5.1052e-06	25.118	0.00017148	0.00013942	3.987e-05	1066.1	1.6452e-06	1.5435e-06	1125.9	218.67	1.6437e-06	1.4649e-06	272.48	78.899	61.771	17.961	1.5135e-06	25.361	-48.487	-74.331	-59.496	-155.711	18.758	-28.925	-155.841	-148.936	27.118	-8.344	-149.121	-142.726	-142.529	-135.110	-4.852	-135.707	-8191	255	
39459.246	1	1	0	0	0.12386	0.09164	0.22265	0.20447	0.10479	0.0851	0.32827	0.073159	0.23566	0.019123	0.093711	0.2005	0.059918	0.18677	0.13727	0.22598	-3.9271	-4.7479	-4.3833	-4.5125	-4.6937	-4.1979	-4.7417	-4.7292	-4.1521	-4.7417	-4.475	-4.4187	-4.7542	-4.2667	-4.475	-4.7188	81.366	34.241	181.834	116.003	150.707	5.421	118.047	-1.950	-103.843	71.374	52.681	-146.716	-101.594	180.730	188.812	176.214	0.00029164	0.00023449	6.7691e-05	1081.1	2.1804e-06	3.2702e-06	1138.8	219.95	4.5668e-06	4.6017e-06	274.34	79.083	62.474	17.881	2.0851e-06	25.017	0.00016879	0.00013854	3.9504e-05	1067	1.663e-06	1.6017e-06	1124.8	218.17	1.6665e-06	1.4984e-06	272.98	78.961	61.973	18.035	1.5218e-06	25.293	-51.771	-49.816	-25.621	-156.209	-45.704	2.130	-156.165	-148.977	11.363	-70.624	-149.091	-142.407	-142.547	-135.174	-115.785	-135.679	-8191	255	
39459.340	1	1	0	0	0.071407	0.32845	0.0698	0.31837	0.25325	0.13407	0.25815	0.22016	0.22498	0.073696	0.13784	0.1594	0.067095	0.032774	0.017609	0.069436	-3.8833	-4.6458	-4.4271	-4.4292	-4.8938	-4.4875	-4.5396	-4.7792	-4.1083	-4.6167	-4.6104	-4.1292	-4.8125	-4.2562	-4.5125	-4.6771	187.806	-4.366	14.827	171.485	32.521	-33.085	122.515	24.611	112.571	130.972	115.213	101.328	63.887	76.388	38.709	153.791	0.00032076	0.00034447	8.8059e-05	1080	6.958e-06	2.8055e-06	1143.8	220.27	5.1457e-06	7.9099e-07	273.8	79.16	61.804	17.743	2.7328e-06	24.994	0.00017263	0.00013698	3.9753e-05	1065.5	1.6809e-06	1.5626e-06	1126.1	218	1.6899e-06	1.5427e-06	272.62	79.041	61.641	17.947	1.5224e-06	25.309	-50.736	-99.490	-75.641	-155.915	-63.639	-21.754	-155.990	-148.639	-7.160	79.731	-149.015	-142.327	-142.302	-134.869	18.591	-135.878	-8191	255	
39459.438	1	1	0	0	0.098825	0.12796	0.18475	0.044451	0.098363	0.089525	0.050521	0.093041	0.10511	0.15074	0.35195	0.2662	0.082986	0.32272	0.044115	0.18746	-3.8521	-4.6833	-4.4146	-4.4917	-4.725	-4.3021	-4.4812	-4.8333	-4.0563	-4.6792	-4.6896	-4.1875	-4.8771	-4.3146	-4.4792	-4.8646	-4.510	89.323	188.940	-66.964	43.744	-36.176	-21.123	78.071	-111.878	-60.797	139.390	-156.989	-162.841	139.945	91.975	170.904	0.00027989	0.00019183	4.6863e-05	1076	4.3714e-06	2.4969e-06	1139.7	221.23	3.1871e-06	3.15e-06	274.18	79.5	61.873	17.682	2.1157e-06	25.128	0.00016942	0.00014171	3.8098e-05	1064.2	1.7224e-06	1.541e-06	1125.4	218.67	1.682e-06	1.548e-06	273.25	79.052	61.834	17.944	1.5758e-06	25.321	-50.152	-53.201	-17.433	-156.203	-4.649	-4.661	-155.819	-148.713	-37.491	8.582	-149.069	-142.545	-142.198	-135.101	-75.877	-135.589	-8191	255	
39459.508	1	1	0	0	0.1604	0.042441	0.19519	0.01827	0.15247	0.08596	0.47273	0.10562	0.11167	0.21944	0.10381	0.061476	0.23327	0.16946	0.026622	0.24446	-3.9542	-4.7146	-4.4854	-4.3688	-4.7812	-4.3542	-4.5896	-4.5417	-4.2125	-4.6604	-4.6813	-4.1979	-4.7271	-4.3875	-4.45	-4.8354	-113.563	-48.526	-140.939	-127.213	-82.017	34.822	184.611	80.077	160.774	179.670	19.447	-114.287	-88.987	-144.986	-105.069	88.591	0.00031349	0.00034378	0.00013378	1076.1	2.7792e-06	1.4475e-06	1135.8	220.55	1.7414e-06	2.7665e-06	276.31	79.68	61.891	17.829	3.5985e-06	25.084	0.00017264	0.00014509	4.1369e-05	1065.3	1.645e-06	1.6054e-06	1123.7	218.62	1.6353e-06	1.628e-06	273.46	79.274	61.831	17.979	1.6308e-06	25.37	-47.701	-50.533	-71.374	-155.834	-26.035	-6.783	-156.047	-148.680	0.298	-22.753	-149.232	-142.705	-142.195	-135.010	25.451	-135.799	-8191	255	
39459.629	1	1	0	0	0.28866	0.1045	0.12126	0.11955	0.27438	0.13646	0.29313	0.090862	0.15919	0.23172	0.18583	0.14832	0.097317	0.15087	0.14204	0.19911	-3.9917	-4.5312	-4.5708	-4.2229	-4.7208	-4.3292	-4.4	-4.8625	-4.3625	-4.5542	-4.7229	-4.1479	-4.7167	-4.5542	-4.2625	-4.75	-90.268	87.983	132.847	158.090	192.017	43.229	156.240	48.190	100.880	68.023	187.292	12.512	-160.906	171.556	-25.356	101.069	0.00031139	0.00018704	8.4941e-05	1080.1	6.7442e-06	2.589e-06	1138.1	220.24	2.4076e-06	1.5338e-06	276.88	79.729	62.272	17.867	2.8217e-06	25.028	0.00016947	0.00014664	3.9367e-05	1066.7	1.6957e-06	1.5775e-06	1125.2	218.42	1.6672e-06	1.5659e-06	273.61	79.066	61.963	17.985	1.6139e-06	25.355	-49.555	-65.806	-55.852	-156.011	-14.277	-37.008	-156.047	-148.757	31.957	-61.432	-149.205	-142.333	-142.434	-135.436	19.890	-135.823	-8191	255	
39459.723	1	1	0	0	0.18321	0.23568	0.14767	0.13158	0.1138	0.028061	0.16052	0.16472	0.21643	0.19409	0.083731	0.16535	0.18292	0.070778	0.1367	0.060689	-4.0125	-4.55	-4.5917	-4.2583	-4.7208	-4.5312	-4.4229	-4.8208	-4.3708	-4.4896	-4.8021	-4.2896	-4.5458	-4.5771	-4.2333	-4.9	151.293	66.428	-30.246	102.785	-34.222	-30.215	172.142	176.632	-140.525	172.957	143.067	101.839	-90.850	130.604	86.562	69.273	0.00030301	0.00029234	9.29e-05	1082.4	5.7869e-06	2.5637e-06	1141.5	220.56	4.1255e-06	1.352e-06	275.92	79.155	62.497	17.831	1.7647e-06	25.169	0.00016864	0.00015117	3.8916e-05	1067.4	1.6574e-06	1.572e-06	1125.1	218.28	1.6297e-06	1.598e-06	273.57	78.983	62.057	17.97	1.5648e-06	25.449	-48.456	-87.066	-67.482	-156.215	-76.346	-15.785	-156.068	-148.701	1.129	-0.417	-149.079	-142.522	-142.057	-135.494	-13.953	-135.598	-8191	255	
39459.820	1	1	0	0	0.049564	0.04882	0.12035	0.10139	0.20765	0.20348	0.16917	0.15605	0.16618	0.080723	0.13464	0.15476	0.14404	0.1236	0.19278	0.19707	-3.875	-4.2292	-4.6438	-4.2875	-4.5208	-4.6646	-4.3333	-4.625	-4.4271	-4.2396	-4.6917	-4.2479	-4.7562	-4.6833	-4.2292	-4.7333	147.371	160.434	-111.174	114.959	-77.174	-34.644	124.179	151.696	-20.657	180.191	44.623	132.708	124.380	118.525	166.890	181.472	0.00029156	0.0004566	6.2667e-05	1081.3	4.8545e-06	3.084e-06	1141.9	220.62	2.9598e-06	1.2766e-06	275.13	79.506	62.167	17.829	3.7105e-06	25.115	0.00017245	0.00014321	3.9846e-05	1067.1	1.6862e-06	1.5877e-06	1126.2	218.55	1.708e-06	1.5616e-06	273.47	79.124	62.028	17.947	1.6467e-06	25.294	-47.360	-102.779	-95.117	-156.124	-44.577	-15.232	-156.029	-148.671	12.540	10.177	-148.783	-142.426	-142.155	-135.281	-29.408	-136.000	-8191	255	
39459.914	1	1	0	0	0.012029	0.12922	0.077366	0.09311	0.2001	0.14867	0.21557	0.014738	0.17685	0.19364	0.23834	0.16581	0.20085	0.065094	0.16347	0.23735	-4.2625	-4.2521	-4.8771	-4.3083	-4.4833	-4.7167	-4.2688	-4.7958	-4.2917	-4.4208	-4.8521	-4.4292	-4.5396	-4.8375	-4.1229	-4.6875	28.890	-51.928	-61.172	110.471	190.889	-57.601	167.391	-114.288	182.710	-64.137	73.052	-18.544	121.011	-43.715	-123.947	18.646	0.00032946	0.00030638	8.9797e-05	1081.7	3.7528e-06	1.4514e-06	1142.4	221.23	4.2919e-06	1.2751e-06	275.63	79.577	62.425	17.818	2.1635e-06	25.066	0.00017534	0.00014997	3.9796e-05	1066.7	1.7191e-06	1.5656e-06	1125.7	218.78	1.6693e-06	1.5659e-06	273.8	79.33	62.079	17.994	1.5865e-06	25.316	-52.027	-86.085	-77.332	-156.158	-40.298	-19.420	-155.797	-148.777	-1.515	45.303	-149.083	-142.675	-142.232	-135.486	-26.607	-135.556	-8191	255	
39460.035	1	1	0	0	0.14985	0.014434	0.12881	0.14616	0.14354	0.16002	0.19958	0.089463	0.056742	0.18195	0.22292	0.12321	0.082747	0.18346	0.090275	0.069647	-4.3521	-4.2729	-4.7937	-4.5208	-4.6271	-4.7417	-4.4042	-4.9542	-4.625	-4.2875	-4.8625	-4.4375	-4.4521	-4.7458	-4.2604	-4.6896	181.555	-7.336	-100.028	168.086	-48.016	79.653	145.506	-9.293	-0.643	26.569	81.226	185.649	52.894	125.544	31.978	-107.625	0.00028946	0.00029842	5.289e-05	1078.1	3.5075e-06	2.186e-06	1141.6	221.03	2.7896e-06	4.4503e-06	274.23	79.428	62.258	17.86	3.0904e-06	25.151	0.00017116	0.00014994	4.0045e-05	1066.8	1.725e-06	1.6507e-06	1126.3	218.7	1.6595e-06	1.621e-06	272.76	79.034	62.12	17.98	1.6332e-06	25.384	-45.830	-71.310	-51.196	-155.999	-56.539	-63.107	-156.069	-148.616	39.427	11.559	-149.105	-142.358	-142.611	-135.119	-13.469	-135.808	-8191	255	
39460.109	1	1	0	0	0.33024	0.068964	0.1489	0.03076	0.2896	0.14016	0.21844	0.20655	0.23329	0.15366	0.22376	0.18888	0.16021	0.18188	0.19944	0.32111	-4.3021	-4.225	-4.7167	-4.5521	-4.3042	-4.8646	-4.4313	-4.8083	-4.8396	-4.2208	-4.8229	-4.4688	-4.3604	-4.8375	-4.2771	-4.6	98.319	19.389	-4.341	-128.636	-111.530	-53.658	159.534	85.865	-93.612	151.754	-121.544	-68.338	-105.163	129.170	-152.003	-100.195	0.00036283	0.00020038	7.1884e-05	1080.4	1.7034e-06	1.5536e-06	1143.1	220.83	2.2291e-06	3.3577e-06	274.84	79.152	61.985	17.916	1.8477e-06	25.153	0.00017928	0.00014614	4.1038e-05	1066.3	1.6871e-06	1.5726e-06	1127.1	218.64	1.6409e-06	1.6402e-06	273.06	79.027	62.147	18.043	1.6577e-06	25.383	-53.636	-35.726	-64.502	-155.898	-2.561	-12.613	-155.796	-148.966	-28.634	-1.360	-149.246	-142.542	-142.717	-135.050	-64.333	-135.565	-8191	255	
39460.203	1	1	0	0	0.13146	0.1225	0.055334	0.055086	0.025353	0.18741	0.27149	0.22784	0.17655	0.19975	0.10006	0.060104	0.051347	0.082359	0.037303	0.21539	-4.3833	-4.0542	-4.6917	-4.6646	-4.1646	-4.8104	-4.5938	-4.5354	-4.7333	-4.2646	-4.7083	-4.6354	-4.1771	-4.7729	-4.3417	-4.3854	-105.424	-99.742	68.965	-52.928	-52.728	-116.309	146.708	159.676	23.871	126.841	-56.246	178.034	126.348	169.000	98.787	186.689	0.00028746	0.00035741	0.00010194	1081.3	3.5335e-06	2.2057e-06	1142.8	219.83	1.9289e-06	2.0571e-06	275.3	79.092	62.082	17.831	4.6973e-06	25.022	0.00016973	0.00015158	4.1279e-05	1066.2	1.8054e-06	1.5909e-06	1126.7	218.45	1.7196e-06	1.6227e-06	273.56	79.126	61.914	17.968	1.6608e-06	25.364	-47.346	-72.672	-84.827	-156.084	-35.989	-17.800	-155.968	-148.427	-24.532	-22.045	-148.864	-142.674	-142.336	-135.714	18.507	-135.782	-8191	255	
39460.324	1	1	0	0	0.021294	0.0515	0.084342	0.079162	0.14647	0.16017	0.18998	0.22268	0.10038	0.062565	0.10948	0.069399	0.42543	0.058259	0.0743	0.21167	-4.5813	-4.4	-4.2854	-4.5771	-4.1958	-4.9042	-4.5354	-4.3562	-4.8313	-4.4146	-4.6687	-4.6	-4.0708	-4.6479	-4.1958	-4.4229	-76.938	69.028	130.021	25.230	-148.189	53.045	113.507	156.464	137.330	13.144	171.279	183.762	-148.199	-136.119	-134.186	175.480	0.00030993	0.00017227	0.00010894	1087	5.2199e-06	3.4488e-06	1142.3	221.27	3.4181e-06	3.132e-06	276.56	79.293	61.884	17.83	1.9835e-06	25.032	0.00017165	0.00015009	4.1213e-05	1068.2	1.7215e-06	1.6086e-06	1125.1	218.88	1.7376e-06	1.6391e-06	273.34	79.002	61.91	18.005	1.6094e-06	25.381	-52.391	-73.506	-76.291	-156.077	-23.233	-24.464	-156.067	-148.662	15.261	-7.949	-149.101	-142.321	-142.684	-135.281	-24.213	-135.554	-8191	255	
39460.422	1	1	0	0	0.22698	0.27581	0.054514	0.15973	0.23565	0.24474	0.27733	0.34086	0.027899	0.16682	0.39463	0.16586	0.26195	0.14069	0.10712	0.28072	-4.4896	-4.3125	-4.5771	-4.8479	-4.0958	-4.6438	-4.575	-4.3771	-4.775	-4.3229	-4.6813	-4.7271	-4.2937	-4.6958	-4.4146	-4.3438	14.232	-30.409	48.449	-120.342	-144.458	-144.004	139.545	-35.771	-36.984	-95.934	156.144	-125.656	116.107	-142.586	-96.019	174.424	0.00031071	0.00025392	0.00015139	1084.2	5.1914e-06	2.4471e-06	1147.2	221.11	2.7735e-06	3.3875e-06	275.1	79.322	62.313	17.959	2.354e-06	24.926	0.00016865	0.00015284	4.1988e-05	1068.3	1.7541e-06	1.5758e-06	1127	218.8	1.7155e-06	1.63e-06	273.57	78.999	62.072	18.01	1.6903e-06	25.314	-50.664	-80.040	-51.284	-155.953	-29.592	-33.643	-156.178	-148.747	-21.896	-15.620	-149.022	-142.370	-142.021	-135.064	11.558	-136.055	-8191	255	
39460.516	1	1	0	0	0.069579	0.1697	0.10787	0.034114	0.19549	0.12089	0.25852	0.14562	0.16913	0.18673	0.21602	0.26152	0.075304	0.037903	0.2162	0.27358	-4.5312	-4.2188	-4.3396	-4.8438	-3.9708	-4.7542	-4.6208	-4.2771	-4.8	-4.4833	-4.4021	-4.7104	-4.3521	-4.45	-4.5563	-4.1521	161.881	74.303	94.236	101.890	185.193	124.258	80.887	-34.844	59.740	-140.424	142.844	171.723	14.999	84.710	46.897	130.232	0.00029212	0.00023104	3.2729e-05	1080.9	5.2609e-06	3.9279e-06	1142.6	219.86	3.2853e-06	2.4972e-06	275.76	78.393	62.126	17.773	1.2965e-06	25.08	0.00017202	0.00015602	4.0862e-05	1067.5	1.7993e-06	1.5687e-06	1127.4	218.56	1.6793e-06	1.5966e-06	273.64	79.098	62.062	17.992	1.6219e-06	25.401	-47.392	-39.319	-55.978	-155.957	-80.294	-15.977	-156.027	-148.953	-32.686	5.378	-149.043	-142.428	-142.106	-135.242	-92.874	-136.079	-8191	255	
39460.613	1	1	0	0	0.14748	0.029156	0.042243	0.085769	0.16461	0.071032	0.12556	0.15277	0.026632	0.023793	0.13473	0.082464	0.23913	0.10662	0.071087	0.19203	-4.4542	-4.4979	-4.1729	-4.8333	-4.3479	-4.5667	-4.7604	-4.2083	-4.7063	-4.2729	-4.225	-4.7167	-4.35	-4.5229	-4.6562	-4.275	-153.979	-137.750	-37.649	-139.688	-24.775	64.317	140.829	-53.698	-83.134	-121.186	-160.850	157.240	-98.387	-5.189	-135.918	170.616	0.00029791	0.00040092	4.1142e-05	1089.3	4.2077e-06	1.9962e-06	1147.6	220.22	3.0397e-06	2.7894e-06	273.93	79.812	62.044	17.771	1.861e-06	25.107	0.00016665	0.00014499	3.964e-05	1070.5	1.7618e-06	1.5535e-06	1128.2	218.69	1.6195e-06	1.5935e-06	273.61	79.246	62.012	18.006	1.5864e-06	25.451	-52.066	-98.169	-87.353	-155.887	-28.945	-0.720	-155.906	-148.568	-2.652	1.179	-148.860	-142.809	-142.176	-135.163	28.769	-135.644	-8191	255	
39460.707	1	1	0	0	0.22757	0.17461	0.12402	0.0018752	0.060186	0.071492	0.2063	0.052004	0.33348	0.038369	0.064414	0.080853	0.22661	0.070478	0.20957	0.083187	-4.5229	-4.425	-4.3354	-4.9375	-4.1562	-4.5604	-4.9104	-4.2708	-4.5646	-4.5271	-4.4729	-5.025	-4.1958	-4.3562	-4.6604	-4.4313	26.244	52.459	-140.438	180.000	-1.235	-27.956	129.093	143.784	45.747	38.154	10.314	187.893	77.567	-14.797	56.398	11.591	0.000316	0.00030742	7.6016e-05	1085.3	4.0339e-06	3.0044e-06	1146.2	221.54	3.7958e-06	1.777e-06	274.99	79.129	62.331	17.87	3.4427e-06	25.23	0.00016851	0.00014817	4.0255e-05	1068.3	1.7313e-06	1.4909e-06	1126.2	219.23	1.673e-06	1.535e-06	273.21	78.959	61.909	18.008	1.6282e-06	25.356	-51.894	-65.962	-64.823	-155.965	-21.590	10.729	-155.819	-149.108	-12.888	-1.031	-148.955	-142.521	-142.633	-135.165	-19.727	-135.531	-8191	255	
39460.805	1	1	0	0	0.14488	0.15198	0.12752	0.18693	0.16499	0.011273	0.32007	0.18621	0.10027	0.12236	0.13379	0.071435	0.23248	0.14367	0.067409	0.033958	-4.1813	-4.4625	-4.2979	-4.9979	-4.1937	-4.5062	-4.7646	-4.1854	-4.825	-4.6438	-4.1771	-4.8583	-4.2562	-4.2958	-4.6833	-4.2104	55.918	-93.802	35.911	77.668	82.568	18.058	157.925	99.184	-115.243	-3.520	-46.043	182.891	-9.656	-101.422	180.755	121.900	0.00029285	0.00033649	7.6498e-05	1085.2	3.5157e-06	2.928e-06	1144.2	219.71	4.6357e-06	2.5094e-06	275.88	78.729	61.825	17.946	3.2912e-06	25.157	0.00016973	0.00014321	4.14e-05	1068.3	1.6969e-06	1.6362e-06	1127.6	218.91	1.6416e-06	1.5778e-06	273.96	78.901	62.016	18.025	1.6198e-06	25.407	-48.178	-77.756	-90.009	-156.226	-15.914	-43.563	-155.934	-148.567	-10.706	32.585	-148.717	-142.650	-141.938	-134.952	-18.586	-135.630	-8191	255	
39460.926	1	1	0	0	0.11842	0.11057	0.39011	0.36056	0.26219	0.12982	0.19093	0.14379	0.04302	0.072392	0.034717	0.43275	0.23199	0.24941	0.080389	0.12208	-4.2937	-4.6083	-4.1813	-4.75	-4.4083	-4.2083	-4.9292	-4.4396	-4.5354	-4.8938	-4.1729	-4.8542	-4.4083	-4.4083	-4.8271	-4.2646	-70.853	-4.158	-40.045	176.981	-164.908	46.085	95.142	134.938	109.279	-19.206	49.803	16.228	-156.767	161.545	147.650	169.387	0.00031392	0.00023455	5.4537e-05	1082	2.3946e-06	2.9878e-06	1142.6	220.85	3.0971e-06	2.9738e-06	275.96	79.385	62.268	17.813	3.7891e-06	25.226	0.00017234	0.00014572	4.1871e-05	1067.6	1.8016e-06	1.664e-06	1128.5	219	1.7181e-06	1.5948e-06	273.71	79.106	62.215	18.021	1.6064e-06	25.403	-51.679	-112.376	-18.514	-156.022	18.702	-19.460	-155.907	-148.707	-7.161	-58.609	-148.786	-142.570	-142.767	-135.530	-2.641	-135.652	-8191	255	
39461.020	1	1	0	0	0.17135	0.020183	0.10966	0.15088	0.15701	0.0588	0.215	0.078443	0.057571	0.11113	0.11663	0.048233	0.096588	0.096896	0.10415	0.23618	-4.2896	-4.6521	-4.0875	-4.8917	-4.4417	-4.2812	-4.9646	-4.2021	-4.4458	-4.6646	-4.2667	-4.6083	-4.5729	-4.2688	-4.6875	-4.3604	-57.310	122.816	12.959	7.644	46.887	-115.077	127.408	139.240	-40.669	26.007	157.006	-112.255	-105.745	98.490	-52.771	-93.847	0.0003141	0.00027335	4.7125e-05	1086.5	4.4735e-06	2.7683e-06	1143.7	220.36	4.0469e-06	1.9906e-06	275.82	79.595	62.628	17.796	2.9476e-06	25.009	0.00017503	0.00014503	4.2003e-05	1069.6	1.7947e-06	1.6424e-06	1127.9	219.13	1.7244e-06	1.5776e-06	273.78	79.355	62.133	18.043	1.6454e-06	25.368	-47.273	-59.946	-22.278	-156.026	-48.650	-60.005	-155.970	-148.746	-12.762	-20.660	-148.775	-142.506	-142.124	-135.161	-32.233	-136.045	-8191	255	
39461.117	1	1	0	0	0.17653	0.051371	0.060919	0.16051	0.13387	0.12808	0.12725	0.42166	0.077735	0.063492	0.28457	0.18067	0.23248	0.18296	0.04051	0.050987	-3.9417	-4.7562	-4.2854	-4.7104	-4.4854	-4.1	-4.7833	-4.4292	-4.3812	-4.7	-4.2542	-4.6146	-4.6958	-4.1958	-4.5375	-4.4521	-28.118	-71.721	69.533	167.795	-75.388	-143.603	-45.037	122.323	-96.724	136.680	192.295	-155.364	154.569	56.424	44.071	133.777	0.00029882	0.00019448	6.4589e-05	1083	3.6477e-06	1.589e-06	1143.1	220.3	2.0721e-06	3.398e-06	275.18	79.516	62.191	17.889	4.9086e-06	25.154	0.00017004	0.00014324	4.0395e-05	1069.4	1.7375e-06	1.6851e-06	1126.7	218.99	1.6589e-06	1.5728e-06	273.76	79.154	62.102	18.024	1.5278e-06	25.396	-50.385	-47.180	-107.368	-155.978	-32.547	-101.476	-155.913	-148.759	-16.470	-6.170	-149.262	-142.722	-142.306	-135.293	-28.888	-135.775	-8191	255	
39461.215	1	1	0	0	0.12425	0.088457	0.022839	0.18234	0.1139	0.097565	0.060144	0.15091	0.13213	0.16995	0.14108	0.08307	0.07309	0.17333	0.2535	0.32215	-4.0271	-4.7063	-4.1188	-4.6333	-4.5083	-4.1083	-4.9208	-4.4708	-4.2583	-4.8833	-4.4417	-4.4125	-4.5896	-4.2063	-4.6479	-4.6146	141.573	-120.669	138.433	160.483	-57.361	178.302	-147.107	116.192	107.745	-26.580	153.963	-37.078	-132.917	27.990	87.056	115.550	0.00032294	0.00029714	8.1942e-05	1086.6	5.4147e-06	2.4008e-06	1146.5	221.12	2.7703e-06	2.2333e-06	274.95	79.105	62.247	17.911	1.6871e-06	25.069	0.00017417	0.00015008	4.0827e-05	1070.5	1.6953e-06	1.5707e-06	1128.5	218.82	1.6994e-06	1.6088e-06	273.56	79.271	62.095	18.057	1.5597e-06	25.449	-50.217	-84.527	-43.882	-156.036	-43.365	-40.001	-156.075	-148.795	-20.382	-44.254	-148.974	-142.628	-142.326	-135.259	-44.017	-135.693	-8191	255	
#DATA ENDS
