BOXY.EXE: ISS Imagent and Oximeter Data Acquisition Program Version 0.80
Ascii Record File

#ACQ INFORMATION
2  Detector Channels 
16  External MUX Channels 
1  Auxiliary Channels 
5000  Waveform (CCF) Frequency (Hz)
1  Waveforms Skipped 
30  Waveforms Averaged 
1  Cycles Averaged 
16  Acquisitions per Waveform 
10.0806  Updata Rate (Hz) 

#FILE INFORMATION
TRUE -- External MUX Channel results are PARSED.
FALSE -- AC DC and Phase are NOT grouped.
TRUE -- Companion Program Settings File CREATED.
FALSE -- AC data not excluded
FALSE -- DC data not excluded
FALSE -- Phase data not excluded
FALSE -- Auxillary Chn. data not excluded
Tab delimiters

#CALIBRATION STATE
TRUE -- Waveform Calibration Values APPLIED.


#AUX CALIBRATION VALUES
Val Type	aux-1	

Term	1.0000e+00	
Factor	0.0000e+00	


#WF CALIBRATION VALUES
A = Detector Channel
Val Type	A-AC1	A-AC2	A-AC3	A-AC4	A-AC5	A-AC6	A-AC7	A-AC8	A-AC9	A-AC10	A-AC11	A-AC12	A-AC13	A-AC14	A-AC15	A-AC16	A-DC1	A-DC2	A-DC3	A-DC4	A-DC5	A-DC6	A-DC7	A-DC8	A-DC9	A-DC10	A-DC11	A-DC12	A-DC13	A-DC14	A-DC15	A-DC16	A-Ph1	A-Ph2	A-Ph3	A-Ph4	A-Ph5	A-Ph6	A-Ph7	A-Ph8	A-Ph9	A-Ph10	A-Ph11	A-Ph12	A-Ph13	A-Ph14	A-Ph15	A-Ph16	

Term	0.00000e+00	0.00000e+00	0.00000e+00	0.00000e+00	0.00000e+00	0.00000e+00	0.00000e+00	0.00000e+00	0.00000e+00	0.00000e+00	0.00000e+00	0.00000e+00	0.00000e+00	0.00000e+00	0.00000e+00	0.00000e+00	0.00000e+00	0.00000e+00	0.00000e+00	0.00000e+00	0.00000e+00	0.00000e+00	0.00000e+00	0.00000e+00	0.00000e+00	0.00000e+00	0.00000e+00	0.00000e+00	0.00000e+00	0.00000e+00	0.00000e+00	0.00000e+00	0.00000e+00	0.00000e+00	0.00000e+00	0.00000e+00	0.00000e+00	0.00000e+00	0.00000e+00	0.00000e+00	0.00000e+00	0.00000e+00	0.00000e+00	0.00000e+00	0.00000e+00	0.00000e+00	0.00000e+00	0.00000e+00	
Factor	1.00000e+00	1.00000e+00	1.00000e+00	1.00000e+00	1.00000e+00	1.00000e+00	1.00000e+00	1.00000e+00	1.00000e+00	1.00000e+00	1.00000e+00	1.00000e+00	1.00000e+00	1.00000e+00	1.00000e+00	1.00000e+00	1.00000e+00	1.00000e+00	1.00000e+00	1.00000e+00	1.00000e+00	1.00000e+00	1.00000e+00	1.00000e+00	1.00000e+00	1.00000e+00	1.00000e+00	1.00000e+00	1.00000e+00	1.00000e+00	1.00000e+00	1.00000e+00	X	X	X	X	X	X	X	X	X	X	X	X	X	X	X	X	

B = Detector Channel
Val Type	B-AC1	B-AC2	B-AC3	B-AC4	B-AC5	B-AC6	B-AC7	B-AC8	B-AC9	B-AC10	B-AC11	B-AC12	B-AC13	B-AC14	B-AC15	B-AC16	B-DC1	B-DC2	B-DC3	B-DC4	B-DC5	B-DC6	B-DC7	B-DC8	B-DC9	B-DC10	B-DC11	B-DC12	B-DC13	B-DC14	B-DC15	B-DC16	B-Ph1	B-Ph2	B-Ph3	B-Ph4	B-Ph5	B-Ph6	B-Ph7	B-Ph8	B-Ph9	B-Ph10	B-Ph11	B-Ph12	B-Ph13	B-Ph14	B-Ph15	B-Ph16	

Term	0.00000e+00	0.00000e+00	0.00000e+00	0.00000e+00	0.00000e+00	0.00000e+00	0.00000e+00	0.00000e+00	0.00000e+00	0.00000e+00	0.00000e+00	0.00000e+00	0.00000e+00	0.00000e+00	0.00000e+00	0.00000e+00	0.00000e+00	0.00000e+00	0.00000e+00	0.00000e+00	0.00000e+00	0.00000e+00	0.00000e+00	0.00000e+00	0.00000e+00	0.00000e+00	0.00000e+00	0.00000e+00	0.00000e+00	0.00000e+00	0.00000e+00	0.00000e+00	-2.21930e+01	-1.30555e+02	-1.19593e+02	-1.81765e+02	-6.15087e+01	-6.84839e+01	-1.57216e+02	-1.62015e+02	-2.86346e+01	-6.79659e+01	-1.71050e+02	-1.71975e+02	-1.82255e+02	-1.76979e+02	-5.58940e+01	-1.49379e+02	
Factor	2.76929e-05	1.60331e-04	5.43878e-05	1.45372e-01	2.66852e-06	1.64523e-06	1.64428e-01	5.20594e-02	1.55519e-06	1.78831e-06	8.49940e-02	3.51328e-02	3.64614e-02	9.18147e-03	1.78014e-06	1.30177e-02	5.70160e-06	6.72933e-06	1.86889e-06	7.47343e-02	7.13936e-08	7.39673e-08	7.93960e-02	2.67438e-02	7.14214e-08	7.41394e-08	4.25018e-02	1.75270e-02	1.88403e-02	4.76276e-03	7.22786e-08	6.54405e-03	X	X	X	X	X	X	X	X	X	X	X	X	X	X	X	X	



#DISTANCE SETTINGS
A = Detector Channel
A-1	A-2	A-3	A-4	A-5	A-6	A-7	A-8	A-9	A-10	A-11	A-12	A-13	A-14	A-15	A-16	

2.5000e+00	3.0000e+00	2.5000e+00	3.0000e+00	2.0000e+00	3.0000e+00	1.5000e+00	3.0000e+00	3.0000e+00	3.0000e+00	3.0000e+00	3.0000e+00	3.0000e+00	3.0000e+00	1.5000e+00	3.0000e+00	

B = Detector Channel
B-1	B-2	B-3	B-4	B-5	B-6	B-7	B-8	B-9	B-10	B-11	B-12	B-13	B-14	B-15	B-16	

1.0000e+01	1.0000e+01	1.0000e+01	1.4400e+00	1.0000e+01	1.0000e+01	1.5100e+00	1.9400e+00	1.0000e+01	1.0000e+01	1.9900e+00	2.4900e+00	2.4100e+00	2.9000e+00	1.0000e+01	2.9800e+00	




#DATA BEGINS
time	group	step	mark	flag	A-AC1	A-AC2	A-AC3	A-AC4	A-AC5	A-AC6	A-AC7	A-AC8	A-AC9	A-AC10	A-AC11	A-AC12	A-AC13	A-AC14	A-AC15	A-AC16	A-DC1	A-DC2	A-DC3	A-DC4	A-DC5	A-DC6	A-DC7	A-DC8	A-DC9	A-DC10	A-DC11	A-DC12	A-DC13	A-DC14	A-DC15	A-DC16	A-Ph1	A-Ph2	A-Ph3	A-Ph4	A-Ph5	A-Ph6	A-Ph7	A-Ph8	A-Ph9	A-Ph10	A-Ph11	A-Ph12	A-Ph13	A-Ph14	A-Ph15	A-Ph16	B-AC1	B-AC2	B-AC3	B-AC4	B-AC5	B-AC6	B-AC7	B-AC8	B-AC9	B-AC10	B-AC11	B-AC12	B-AC13	B-AC14	B-AC15	B-AC16	B-DC1	B-DC2	B-DC3	B-DC4	B-DC5	B-DC6	B-DC7	B-DC8	B-DC9	B-DC10	B-DC11	B-DC12	B-DC13	B-DC14	B-DC15	B-DC16	B-Ph1	B-Ph2	B-Ph3	B-Ph4	B-Ph5	B-Ph6	B-Ph7	B-Ph8	B-Ph9	B-Ph10	B-Ph11	B-Ph12	B-Ph13	B-Ph14	B-Ph15	B-Ph16	aux-1	digaux	

40212.586	1	1	0	768	0.14931	0.23932	0.12189	0.20575	0.21813	0.24541	0.044719	0.15274	0.31856	0.2841	0.16848	0.20557	0.054115	0.20367	0.18518	0.22615	-4.3979	-4.5583	-4.2333	-4.9646	-4.4354	-4.4938	-4.8104	-4.2188	-4.8042	-4.6708	-4.2292	-4.8208	-4.425	-4.5458	-4.7208	-4.2688	57.970	11.412	31.097	103.258	174.008	-19.331	118.729	-154.253	-123.727	30.702	160.272	-123.871	13.738	155.564	-0.892	166.760	0.00057146	0.00072864	0.0001709	419.68	3.9054e-06	1.9806e-06	452.4	166.31	3.7732e-06	5.2202e-06	200.23	97.028	74.948	34.992	4.6985e-06	49.078	0.00080141	0.00057802	0.00015982	426.58	6.0683e-06	6.7412e-06	459.4	169.53	6.0658e-06	6.3133e-06	203.87	99.379	76.881	36.119	6.1024e-06	50.27	-55.638	-82.133	-28.797	-147.764	-57.114	-72.380	-149.258	-141.611	-51.235	-3.477	-144.252	-139.612	-136.736	-132.178	-0.473	-135.953	-8191	255	
40212.684	1	1	0	0	0.18567	0.040222	0.13643	0.22516	0.072126	0.171	0.13399	0.11408	0.1466	0.12143	0.091925	0.16378	0.11035	0.33294	0.062376	0.22797	-4.3625	-4.625	-4.2562	-4.8333	-4.2979	-4.3542	-5.0292	-4.3292	-4.6375	-4.5979	-4.3458	-4.8292	-4.4521	-4.5042	-4.9688	-4.5167	-61.225	-153.941	60.038	112.715	54.475	-49.723	99.578	138.577	195.388	146.505	-78.035	-75.151	171.226	165.567	-98.581	-132.036	0.00053361	0.00044514	0.00013947	421.32	1.1557e-05	5.2278e-06	452.07	166.44	1.3546e-06	3.3179e-06	199.58	96.987	74.94	34.945	3.7147e-06	48.929	0.00076369	0.00056697	0.00015494	426.88	5.8871e-06	6.1151e-06	458.94	169.68	6.0439e-06	6.1045e-06	203.77	99.041	76.605	36.009	5.997e-06	49.953	-63.962	-40.286	-51.802	-148.155	-11.314	-39.375	-149.287	-141.286	-78.717	-44.413	-144.303	-139.247	-137.143	-132.170	-45.524	-135.756	-8191	255	
40212.777	1	1	0	0	0.081543	0.15701	0.30757	0.21564	0.19059	0.082622	0.11649	0.050787	0.13075	0.16802	0.083681	0.15321	0.20546	0.18758	0.12144	0.12129	-4.0729	-4.6729	-4.275	-4.5875	-4.3896	-4.2188	-4.8167	-4.4167	-4.5521	-4.7417	-4.1667	-4.8979	-4.4854	-4.35	-4.9125	-4.2792	-65.992	-51.489	192.676	93.535	38.766	74.969	-155.058	-9.594	-16.445	-105.429	-142.020	-140.176	85.619	-144.922	148.672	76.729	0.00058376	0.00038537	8.9105e-05	418.32	2.8738e-06	4.3815e-06	447.35	165.51	2.0834e-06	2.0403e-06	198.53	96.166	74.318	34.679	1.8255e-06	48.81	0.00073704	0.00058319	0.00015352	424.89	5.9773e-06	6.155e-06	456.97	168.76	5.9528e-06	6.0995e-06	203.37	98.914	76.336	35.808	5.9704e-06	49.913	-52.316	122.381	-53.780	-147.930	11.601	-35.734	-149.144	-141.937	6.794	-18.550	-144.256	-138.998	-137.200	-132.416	-21.422	-135.962	-8191	255	
40212.875	1	1	0	0	0.13719	0.094188	0.18141	0.10266	0.23979	0.11753	0.11987	0.13908	0.046799	0.24005	0.16634	0.16765	0.13602	0.057062	0.10241	0.26635	-4.1229	-4.6792	-4.2396	-4.6979	-4.5271	-4.2354	-4.8792	-4.3333	-4.4542	-4.8313	-4.2188	-4.7729	-4.6021	-4.2208	-4.8812	-4.5125	8.569	96.156	9.510	-127.761	-85.646	82.231	80.019	67.683	167.885	156.205	159.096	159.480	-94.890	50.590	31.236	160.994	0.0005644	0.00020359	0.00013908	417.15	4.1189e-06	1.6783e-06	449.61	166.57	4.6248e-06	3.8885e-06	200.73	96.908	75.502	34.738	2.3235e-06	49.26	0.00058268	0.00071816	0.0001485	423.7	5.7162e-06	5.8667e-06	456.85	169.22	5.6777e-06	5.7957e-06	204.01	99.278	76.722	35.923	5.4162e-06	50.371	-53.746	-101.949	-85.805	-147.723	-20.769	-18.524	-149.203	-141.825	5.774	-36.687	-144.140	-139.366	-136.840	-132.150	-8.042	-135.907	-8191	255	
40212.969	1	1	0	0	0.23354	0.19217	0.18754	0.072347	0.1262	0.13368	0.18302	0.25369	0.12944	0.076056	0.15323	0.13374	0.16101	0.039823	0.23227	0.17398	-4.0167	-4.6958	-4.1417	-4.575	-4.5792	-4.2937	-4.8729	-4.375	-4.3562	-4.7896	-4.4292	-4.6146	-4.6937	-4.3083	-4.6708	-4.5333	-109.496	78.144	145.255	-20.742	99.688	185.727	141.009	158.606	180.469	100.341	-92.011	116.107	195.777	144.129	10.490	132.849	0.00061655	0.00021936	5.9579e-05	419.18	4.4954e-06	4.5458e-06	452.62	168.91	2.9176e-06	4.9398e-06	203.29	98.434	75.469	35.365	4.9043e-06	49.688	0.00051955	0.00074499	0.00012842	425.05	5.067e-06	5.0732e-06	457.96	170.95	4.9502e-06	5.0466e-06	206.98	100.14	77.333	36.357	4.8653e-06	50.743	-56.392	153.828	-50.885	-148.062	-42.068	7.949	-149.660	-141.394	60.421	12.039	-144.367	-139.154	-136.887	-132.341	-16.605	-135.785	-8191	255	
40213.066	1	1	0	0	0.03552	0.17058	0.13989	0.20019	0.050221	0.1115	0.099754	0.15653	0.17324	0.1134	0.26352	0.0090779	0.17066	0.14872	0.23646	0.25787	-3.95	-4.7333	-4.2438	-4.4563	-4.9146	-4.1729	-4.7375	-4.6854	-4.3521	-4.7875	-4.5083	-4.5208	-4.7042	-4.1813	-4.6542	-4.5333	122.321	-61.576	157.929	125.932	-59.269	-30.979	156.266	104.911	-128.911	-64.909	146.952	-151.247	-106.076	154.887	13.676	111.188	0.00064201	0.00047597	0.00012208	420.65	8.7322e-06	3.7717e-06	446.85	168.6	5.3539e-06	2.4913e-06	203.35	98.662	75.837	35.152	2.1759e-06	49.201	0.00047941	0.00069448	0.00012501	426.23	4.8029e-06	4.9526e-06	456.38	171.3	5.0169e-06	4.9727e-06	206.1	100.01	77.909	36.265	5.2245e-06	50.446	-51.838	59.396	-65.161	-148.032	-1.089	-1.434	-149.157	-141.584	6.644	35.098	-144.159	-139.380	-137.083	-132.475	7.113	-136.183	-8191	255	
40213.188	1	1	0	0	0.29704	0.11578	0.15143	0.27601	0.19181	0.13291	0.1997	0.13449	0.058394	0.12087	0.13164	0.16848	0.25293	0.2428	0.17522	0.18026	-3.8417	-4.8417	-4.45	-4.5833	-4.7438	-4.1875	-4.7146	-4.6083	-4.1521	-4.8375	-4.6062	-4.3917	-4.925	-4.2833	-4.6146	-4.6937	131.669	-108.051	-40.687	126.441	-11.050	-93.153	187.000	-98.802	176.154	176.683	-72.880	134.619	188.030	-137.519	191.293	132.265	0.00058138	0.00040674	2.7698e-05	418.77	3.3116e-06	1.1723e-06	449.87	167.39	2.8679e-06	2.9052e-06	202.03	98.428	75.626	35.003	3.5564e-06	49.374	0.00049814	0.00072759	0.00013311	424.76	5.0621e-06	5.1433e-06	456.9	170.61	5.0513e-06	5.1343e-06	205.4	99.541	77.912	36.155	5.1714e-06	50.54	-56.890	100.410	81.138	-147.858	-37.405	3.843	-149.262	-141.650	-6.953	-5.609	-144.028	-139.177	-136.338	-132.161	-4.866	-136.109	-8191	255	
40213.281	1	1	0	0	0.31066	0.044618	0.1123	0.28497	0.10769	0.11451	0.15045	0.16331	0.18166	0.083214	0.1287	0.28984	0.20589	0.14014	0.076048	0.47533	-3.8021	-4.7417	-4.5771	-4.2771	-4.7958	-4.2875	-4.5021	-4.8667	-3.9292	-4.6562	-4.5792	-4.2354	-4.8229	-4.3417	-4.2229	-4.65	41.896	84.677	169.514	191.991	150.472	-91.912	-106.945	134.678	180.601	128.443	36.557	160.049	180.987	169.703	-43.976	126.242	0.00061544	0.00021707	9.4799e-05	420.66	5.9928e-06	2.2197e-06	449.02	168.06	4.2403e-06	3.0084e-06	203.84	98.617	76.085	35.311	3.437e-06	49.706	0.00048825	0.0006967	0.00012862	424.72	4.8063e-06	5.046e-06	455.21	171.01	4.8483e-06	4.8747e-06	207.51	100.19	78.416	36.384	4.8896e-06	50.874	-51.649	151.462	-82.922	-147.947	8.995	-50.197	-149.278	-141.893	-7.910	-18.233	-143.985	-139.297	-136.703	-132.185	-19.180	-136.266	-8191	255	
40213.379	1	1	0	0	0.10061	0.12868	0.15172	0.06292	0.16453	0.039986	0.098893	0.14079	0.096368	0.18195	0.17276	0.15605	0.028815	0.094681	0.066429	0.073573	-3.8937	-4.7083	-4.5375	-4.2708	-4.8208	-4.3167	-4.5896	-4.6708	-4.2146	-4.5687	-4.5208	-4.2188	-4.6604	-4.4187	-4.3313	-4.8083	-109.811	65.229	-107.637	86.336	-45.491	118.469	197.580	66.484	-13.761	-112.622	-137.019	175.503	-36.265	45.965	190.558	-78.287	0.00062499	0.00040498	4.3532e-05	419.39	3.0997e-06	3.9703e-06	449.42	170.39	2.6902e-06	4.215e-06	207.06	100.72	76.673	35.505	1.3759e-06	50.141	0.00045393	0.00069414	0.00012072	425.51	4.5333e-06	4.661e-06	452.98	173.53	4.5208e-06	4.7814e-06	210	101.57	78.988	36.593	4.7321e-06	51.369	-54.680	77.973	-54.051	-148.069	6.700	-40.867	-149.239	-142.014	-38.687	-51.344	-144.227	-139.386	-136.609	-132.338	39.323	-135.816	-8191	255	
40213.473	1	1	0	0	0.14758	0.24072	0.25608	0.18838	0.12497	0.18752	0.14134	0.19279	0.017228	0.20407	0.25734	0.18645	0.19495	0.17621	0.08113	0.19648	-3.7438	-4.5854	-4.6479	-4.2167	-4.675	-4.5479	-4.4042	-4.8187	-4.1583	-4.5542	-4.5625	-4.2167	-4.7125	-4.65	-4.2375	-4.8521	93.347	-40.841	42.649	135.394	-151.364	7.016	-92.401	131.096	-146.352	164.727	198.334	116.508	57.481	152.795	26.535	174.388	0.00066974	0.00018932	0.00020567	421.22	6.2198e-06	2.3052e-06	449.85	171.11	1.089e-06	4.1661e-06	207.47	99.949	76.157	35.51	1.5826e-06	49.906	0.00046368	0.00068102	0.00012166	425.47	4.6053e-06	4.8532e-06	453.48	174.19	4.8412e-06	4.9466e-06	210.37	101.52	78.981	36.459	4.86e-06	51.089	-49.965	109.300	-97.356	-147.839	-9.913	4.847	-149.141	-141.674	17.900	-66.951	-144.113	-139.517	-136.443	-132.279	55.926	-135.753	-8191	255	
40213.570	1	1	0	0	0.31087	0.1166	0.33385	0.055666	0.23444	0.091502	0.22963	0.11121	0.17321	0.23835	0.14949	0.25313	0.077717	0.2421	0.20638	0.21665	-3.85	-4.45	-4.5563	-4.1625	-4.6937	-4.2896	-4.1708	-4.7854	-4.0979	-4.3729	-4.5583	-4.1396	-4.4938	-4.5333	-4.1542	-4.8646	-43.315	127.378	-96.409	-65.670	-98.995	-153.139	125.464	158.772	8.705	-92.394	132.510	-17.100	-89.695	132.798	-150.922	-121.177	0.00063846	0.00030194	0.00018969	419.37	2.4295e-06	3.9539e-06	446.61	169.33	2.1308e-06	5.3461e-06	204.34	98.535	76.523	35.296	3.083e-06	49.619	0.00048237	0.00062827	0.00014545	425.75	4.9813e-06	5.1612e-06	452.26	172.94	5.0897e-06	5.1623e-06	208.07	100.22	78.631	36.296	5.0322e-06	50.648	-54.490	-50.022	-153.066	-147.922	-74.376	-38.934	-149.072	-141.604	0.595	-31.133	-144.291	-139.187	-136.778	-132.278	-50.226	-135.916	-8191	255	
40213.664	1	1	0	0	0.044181	0.10956	0.11944	0.15195	0.18419	0.21274	0.1063	0.19002	0.13003	0.26094	0.11884	0.45592	0.073082	0.11472	0.14276	0.26384	-4.0271	-4.3583	-4.5958	-4.1937	-4.4771	-4.5729	-4.0958	-4.7063	-4.2292	-4.1646	-4.8583	-4.2562	-4.3812	-4.5792	-4.1021	-4.6312	-89.197	-49.834	-11.825	134.367	138.796	80.808	-125.744	161.589	-101.975	5.379	94.397	155.802	-156.055	66.746	53.936	128.613	0.00066097	0.00023102	0.00014892	422.93	6.2863e-06	2.6789e-06	447.06	169.49	2.832e-06	4.5697e-06	206.06	99.385	75.913	35.256	4.126e-06	49.853	0.00049081	0.00046431	0.00018559	426.32	5.0605e-06	5.0473e-06	452.24	172.54	4.9526e-06	4.9409e-06	208.63	100.2	78.183	36.315	4.8017e-06	50.866	-55.720	-111.691	176.876	-147.935	6.364	-2.024	-149.125	-141.711	-3.942	-4.759	-144.480	-138.800	-136.774	-132.269	10.836	-135.780	-8191	255	
40213.785	1	1	0	0	0.096794	0.0032117	0.27784	0.13818	0.12666	0.094928	0.15209	0.12642	0.10496	0.042779	0.29945	0.24705	0.084332	0.33467	0.2108	0.11941	-3.9354	-4.1958	-4.6188	-4.2188	-4.3854	-4.5396	-4.1646	-4.7312	-4.1958	-4.2708	-4.7854	-4.1375	-4.5333	-4.6562	-4.0375	-4.5188	127.061	123.032	152.026	194.768	-50.382	82.105	129.995	169.127	108.966	-31.833	126.746	-155.626	-107.922	187.650	130.127	149.282	0.00057928	0.00025873	0.00018582	420.77	5.1009e-06	3.3401e-06	452.09	169.26	1.845e-06	5.4182e-06	204.9	99.973	76.101	35.398	2.0966e-06	49.832	0.00047107	0.00043828	0.00019548	426.05	4.7441e-06	4.798e-06	453.23	172.98	4.7654e-06	4.7533e-06	208.94	101.01	78.228	36.468	4.6163e-06	51.123	-48.682	-74.945	184.099	-147.937	-41.261	-2.355	-149.171	-141.860	50.580	-23.608	-144.423	-139.460	-136.539	-132.268	-15.756	-135.954	-8191	255	
40213.883	1	1	0	0	0.16497	0.057657	0.020632	0.14668	0.24806	0.2082	0.13848	0.14706	0.14693	0.14715	0.14723	0.051197	0.026652	0.14457	0.10477	0.18139	-3.9167	-4.1417	-4.8042	-4.2271	-4.2625	-4.5813	-4.0708	-4.5896	-4.4313	-4.1021	-4.7354	-4.2083	-4.4729	-4.7729	-4.1667	-4.5208	-48.041	-159.247	29.639	195.795	-25.426	-31.723	-43.007	188.446	-126.146	-1.219	151.685	-71.087	-28.871	-152.809	81.556	-108.733	0.0006544	0.00022572	8.208e-05	423.08	5.7055e-06	2.0889e-06	450.46	170.28	3.3761e-06	4.2683e-06	208.91	100.01	76.316	35.356	3.4065e-06	50.11	0.00046171	0.00042609	0.00018343	427.72	4.6401e-06	4.6653e-06	455.03	174.15	4.5357e-06	4.5662e-06	210.79	101.1	78.012	36.62	4.4968e-06	51.235	-53.332	-113.481	184.088	-147.968	0.358	-32.385	-149.233	-141.704	51.523	-16.172	-144.391	-139.395	-136.859	-132.288	-0.337	-135.826	-8191	255	
40213.980	1	1	0	0	0.3211	0.094198	0.076696	0.21136	0.23515	0.15176	0.15978	0.11061	0.054263	0.14169	0.16964	0.10091	0.20262	0.075159	0.13343	0.15379	-4.2188	-4.0042	-4.7021	-4.2646	-4.3292	-4.6896	-4.1208	-4.6167	-4.5042	-3.9583	-4.7833	-4.4104	-4.2729	-4.7125	-4.2875	-4.4771	101.742	157.757	-146.944	180.225	99.294	35.300	-48.897	138.486	118.854	-60.474	-5.035	-102.130	174.146	111.524	104.400	147.468	0.00057102	0.00042613	0.00019303	424.12	4.1043e-06	5.856e-06	451.94	170.35	3.0747e-06	2.7204e-06	207.21	99.269	75.824	35.42	2.0697e-06	49.866	0.00045801	0.00041607	0.00018908	428.25	4.4691e-06	4.5712e-06	454.97	173.93	4.4211e-06	4.4871e-06	210.23	100.79	77.622	36.576	4.546e-06	50.948	-52.792	-107.239	-143.045	-147.668	-14.604	-34.011	-149.160	-141.846	38.578	-9.652	-144.107	-139.208	-136.977	-132.363	-7.004	-136.010	-8191	255	
40214.074	1	1	0	0	0.15319	0.20516	0.15873	0.16055	0.28534	0.12411	0.24262	0.15721	0.12244	0.048784	0.12864	0.19146	0.3284	0.08399	0.077336	0.092457	-4.2229	-4.0854	-4.6292	-4.3083	-4.1896	-4.6354	-4.1875	-4.4917	-4.6188	-4.1625	-4.7458	-4.3167	-4.1	-4.7562	-4.0354	-4.4313	93.463	-112.944	141.217	-34.479	46.554	122.118	127.393	-131.896	-41.530	117.569	197.644	156.443	145.761	-117.688	176.993	82.167	0.0006463	7.8516e-05	0.00025558	424.57	5.3458e-06	4.8882e-06	451.35	170.48	5.2779e-06	1.5979e-06	205.98	98.598	75.321	35.074	3.317e-06	49.301	0.00044964	0.00040498	0.00018723	428.88	4.4652e-06	4.6422e-06	455.78	173.25	5.6627e-06	4.7165e-06	208.85	99.947	77.066	36.283	4.9609e-06	50.515	-54.281	34.447	-131.885	-147.889	7.461	30.080	-149.125	-141.730	-7.647	24.059	-144.048	-139.476	-137.253	-132.198	-40.232	-136.014	-8191	255	
40214.148	1	1	0	0	0.047647	0.15877	0.16817	0.18836	0.075471	0.23338	0.20967	0.13317	0.22911	0.058959	0.26271	0.047547	0.1029	0.030986	0.14219	0.24097	-4.1917	-4.0042	-4.5375	-4.4875	-4.125	-4.6813	-4.2562	-4.3729	-4.6292	-4.0646	-4.4833	-4.5708	-4.125	-4.7833	-4.2396	-4.3542	-145.070	-20.838	5.991	103.226	121.312	79.366	-136.010	114.478	-121.173	91.891	144.819	146.412	159.820	119.793	-76.488	52.600	0.00073071	0.00034717	0.00014551	425.87	4.3314e-06	3.3543e-06	455.28	167.99	3.6138e-06	1.6783e-06	202.54	97.367	74.412	34.741	1.0415e-06	48.683	0.00048334	0.00045085	0.00020511	428.96	4.923e-06	5.1609e-06	458.25	171.05	7.5958e-06	5.4196e-06	206.58	98.781	76.268	35.871	5.7165e-06	49.979	-52.163	-57.734	191.306	-147.958	-50.500	-3.209	-149.137	-141.955	16.102	57.272	-144.461	-139.522	-137.115	-131.995	47.534	-135.942	-8191	255	
40214.266	1	1	0	0	0.21731	0.066825	0.29661	0.13938	0.27214	0.23204	0.12129	0.14147	0.26259	0.14185	0.077293	0.089681	0.26374	0.25948	0.17926	0.18568	-4.2625	-4.0375	-4.4208	-4.4396	-4.1021	-4.5583	-4.4271	-4.1292	-4.6271	-4.0437	-4.3333	-4.6708	-4.0896	-4.5813	-4.4187	-4.1979	-11.312	-54.343	187.709	132.590	195.925	-109.664	163.719	156.950	-13.725	-145.507	110.130	4.223	-151.431	-140.743	-46.383	89.393	0.000595	0.00038468	0.00027173	418.47	6.3235e-06	2.7472e-06	451.17	167.18	8.497e-06	5.5434e-06	201.6	96.638	74.335	34.308	3.4205e-06	48.959	0.00051788	0.00051181	0.00021139	425.32	5.4054e-06	5.796e-06	456.29	169.51	8.1779e-06	5.7001e-06	205.28	98.63	75.873	35.737	5.4859e-06	50.045	-55.369	-42.662	196.679	-147.674	-38.902	-19.004	-149.273	-141.660	29.514	3.497	-144.576	-139.474	-136.842	-132.349	5.044	-135.851	-8191	255	
40214.363	1	1	0	0	0.12054	0.04892	0.097173	0.057643	0.10164	0.2265	0.2357	0.21568	0.20154	0.070383	0.26125	0.16024	0.32201	0.21771	0.061951	0.20423	-4.2604	-4.1833	-4.4146	-4.7021	-4.0854	-4.6292	-4.5979	-4.3292	-4.5896	-4.1667	-4.3417	-4.6771	-4.0833	-4.6625	-4.4542	-4.0875	47.446	-64.885	-128.016	107.778	-105.028	-36.872	123.490	-81.828	18.042	159.637	-158.830	-31.645	183.523	110.236	156.550	79.922	0.00061689	0.00040313	9.9697e-05	421.74	8.1633e-06	4.1001e-06	451.71	167.46	6.4676e-06	4.1531e-06	205.08	97.764	75.032	34.857	3.5415e-06	49.322	0.00050415	0.00049846	0.0001717	427.81	4.9297e-06	5.0862e-06	456.65	170.16	7.1125e-06	4.7284e-06	207.32	99.413	76.518	36.064	4.4614e-06	50.559	-54.689	-118.506	-3.858	-147.989	-17.271	1.894	-149.267	-141.358	28.865	-60.955	-144.429	-139.123	-136.742	-132.027	1.887	-136.051	-8191	255	
40214.461	1	1	0	0	0.15113	0.18144	0.12921	0.087405	0.19058	0.18745	0.039538	0.24916	0.20336	0.1025	0.2465	0.35431	0.23829	0.079957	0.11575	0.15948	-4.3208	-4.3187	-4.2271	-4.7312	-4.0687	-4.6167	-4.55	-4.1521	-4.6271	-4.2875	-4.1937	-4.7958	-4.2688	-4.5521	-4.5083	-4.1417	192.194	106.542	-43.114	114.104	91.619	156.538	118.458	-124.059	-63.557	19.208	122.406	154.536	-60.024	148.109	150.034	-129.591	0.0006493	0.00044536	0.00016897	423.94	5.8581e-07	4.6558e-06	452.86	168.48	4.0573e-06	4.0056e-06	203.94	97.157	74.515	34.776	3.6726e-06	49.37	0.00044433	0.00042183	0.00011445	429.23	4.3987e-06	4.6216e-06	456.59	170.92	7.2647e-06	4.6536e-06	206.94	98.999	76.193	35.876	4.6541e-06	50.234	-50.493	-24.441	-60.821	-148.067	43.947	6.601	-149.244	-141.745	36.603	-28.445	-144.149	-139.271	-136.646	-132.025	-21.687	-136.034	-8191	255	
40214.578	1	1	0	0	0.12513	0.33488	0.088577	0.14335	0.16105	0.25848	0.11964	0.062868	0.28924	0.2031	0.10973	0.11108	0.16368	0.26815	0.14015	0.16808	-4.3625	-4.225	-4.2312	-4.8021	-4.0646	-4.4187	-4.6	-4.2063	-4.4812	-4.4083	-4.1292	-4.7188	-4.2167	-4.3667	-4.5375	-4.0146	84.925	142.340	-117.115	47.882	107.004	-150.547	65.584	15.668	197.752	-80.881	92.717	-25.237	58.555	-145.205	6.136	-157.461	0.00068941	0.00031232	7.6883e-05	421.69	9.6968e-06	3.2089e-06	448.83	167.11	8.2244e-06	4.6846e-06	202.24	97.1	74.245	34.517	2.881e-06	48.653	0.00047197	0.00044363	0.00012007	428.45	4.8326e-06	4.9145e-06	454.46	169.66	7.3653e-06	4.9576e-06	205.27	98.414	75.732	35.631	5.8404e-06	49.886	-52.455	-86.874	-80.064	-147.815	-30.505	3.765	-149.514	-141.631	42.264	2.363	-144.072	-139.326	-137.205	-132.424	-100.443	-136.034	-8191	255	
40214.676	1	1	0	0	0.034724	0.056772	0.17428	0.035583	0.023116	0.13219	0.20368	0.065539	0.14203	0.27892	0.057658	0.13442	0.19461	0.17334	0.063509	0.12391	-4.2583	-4.3562	-4.0708	-4.7562	-4.1292	-4.2292	-4.6458	-4.0729	-4.5188	-4.5396	-4.2625	-4.7479	-4.2292	-4.4625	-4.6062	-4.2708	-96.328	-140.061	-51.587	121.343	98.970	191.277	162.695	70.772	91.543	-1.413	-130.845	-76.779	186.672	175.291	50.029	71.758	0.00058279	0.00033147	0.00022919	421.78	7.7009e-06	3.1752e-06	453.69	166.35	9.0217e-06	5.6213e-06	202.78	96.509	74.11	34.307	2.4611e-06	48.532	0.00047224	0.00044091	0.00011894	428.15	4.6153e-06	4.7846e-06	456.48	169.16	7.3475e-06	4.6161e-06	204.85	98.113	75.455	35.434	7.1738e-06	49.841	-54.895	-58.849	-41.634	-147.942	3.025	26.052	-149.424	-141.595	37.783	-59.846	-144.474	-139.462	-137.104	-132.408	-147.982	-136.060	-8191	255	
40214.746	1	1	0	0	0.060665	0.16604	0.12739	0.12922	0.097426	0.17537	0.28453	0.20472	0.1351	0.070599	0.25122	0.051569	0.20911	0.12182	0.073048	0.16264	-4.3292	-4.4771	-4.0979	-4.6979	-4.2208	-4.1167	-4.7958	-4.0979	-4.4625	-4.6208	-4.1896	-4.5021	-4.2875	-4.3771	-4.6708	-4.2771	73.585	129.801	38.545	-36.174	-155.945	49.209	165.452	-159.370	-52.031	13.968	130.883	118.195	184.772	51.880	101.064	-97.028	0.00059426	0.00040162	0.00013739	419.73	9.964e-06	6.8136e-07	453.91	166.75	1.0607e-05	4.6095e-06	202.4	97.075	74.727	34.806	1.2522e-06	49.206	0.0004655	0.00042796	0.00011553	428.39	4.7028e-06	4.6163e-06	456.28	169.25	7.1112e-06	4.5401e-06	205.85	98.533	75.915	35.653	7.2102e-06	50.227	-52.132	-83.560	-38.353	-147.762	-44.666	41.812	-149.464	-141.700	41.232	-42.887	-143.887	-139.346	-136.591	-132.196	101.661	-136.107	-8191	255	
40214.867	1	1	0	0	0.063378	0.13086	0.075373	0.037436	0.092243	0.26621	0.08004	0.27597	0.077492	0.024007	0.14152	0.15725	0.083299	0.17914	0.043703	0.21068	-4.1125	-4.6625	-4.0479	-4.5667	-4.3125	-4.3146	-4.6937	-4.2375	-4.3896	-4.5625	-3.9	-4.6021	-4.4479	-4.0938	-4.7438	-4.2229	58.300	3.964	-83.165	111.463	101.791	177.529	-103.620	-147.040	-147.985	175.161	167.751	-154.759	78.757	156.822	88.849	113.063	0.00067779	0.00034539	6.5017e-05	422.42	6.7723e-06	6.4057e-06	456.74	167.69	9.2466e-06	4.7006e-06	204.38	97.959	74.047	34.787	5.2055e-06	48.981	0.00044731	0.00039442	0.0001123	429.89	4.2478e-06	4.3938e-06	458.3	169.92	5.4264e-06	5.6834e-06	206.92	98.976	75.678	35.573	7.1904e-06	50.188	-51.159	-67.159	-110.346	-148.270	-8.355	-23.883	-149.228	-141.668	20.986	-74.903	-144.379	-139.671	-136.805	-132.107	-131.771	-136.124	-8191	255	
40214.965	1	1	0	0	0.17864	0.2445	0.25207	0.15235	0.14277	0.14146	0.056937	0.026189	0.15194	0.070038	0.11109	0.097139	0.09189	0.097706	0.12611	0.32475	-3.9708	-4.6479	-4.1125	-4.5563	-4.4021	-4.1312	-4.7792	-4.2896	-4.2875	-4.7021	-4.2104	-4.4354	-4.575	-4.1354	-4.4583	-4.2833	-77.387	102.545	136.729	127.653	-10.804	-129.626	-67.588	46.798	78.484	181.200	179.646	147.060	88.211	141.444	-75.580	189.936	0.00058019	0.00029781	0.00010005	423.93	8.7702e-06	7.5671e-07	451.97	167.51	6.5161e-07	8.2924e-06	202.97	97.088	73.915	34.43	1.9846e-06	48.762	0.00044458	0.00041343	0.00011637	430.6	4.4337e-06	4.4986e-06	456.79	169.82	4.5547e-06	7.0945e-06	206.21	98.551	75.472	35.386	7.3334e-06	49.863	-55.461	-63.322	-85.278	-148.008	-0.334	-29.796	-149.246	-141.648	-11.144	24.771	-144.481	-139.317	-136.986	-132.126	-153.693	-135.998	-8191	255	
40215.059	1	1	0	0	0.3045	0.138	0.19195	0.30147	0.12824	0.070934	0.097097	0.030846	0.16605	0.17471	0.060991	0.18019	0.1444	0.31536	0.08634	0.11659	-3.9188	-4.7021	-4.1833	-4.5167	-4.6438	-4.1021	-4.7771	-4.5125	-4.2604	-4.8167	-4.1854	-4.5229	-4.6479	-4.1917	-4.5104	-4.4021	39.420	122.483	124.432	131.888	-6.648	140.761	111.118	-119.346	102.484	-97.199	169.089	113.618	80.370	162.180	-157.450	74.777	0.00057995	0.00018713	0.00010172	420.74	5.1101e-06	3.7967e-06	452.73	167.05	2.9803e-06	6.2427e-06	202.11	96.776	73.829	34.438	5.8032e-06	49.01	0.00044958	0.00042972	0.00012084	427.5	4.4664e-06	4.6431e-06	456.07	169.43	4.6226e-06	7.3143e-06	204.91	98.085	75.287	35.278	7.225e-06	49.941	-49.803	-21.279	-37.548	-148.041	14.775	-38.704	-149.322	-141.834	-10.425	29.626	-144.401	-139.192	-137.071	-132.284	160.744	-135.950	-8191	255	
40215.180	1	1	0	0	0.068027	0.084385	0.26665	0.04362	0.14437	0.17578	0.2138	0.10365	0.18072	0.086279	0.065998	0.025959	0.097188	0.27493	0.097422	0.17568	-3.8771	-4.8187	-4.2646	-4.5875	-4.8583	-3.95	-4.7271	-4.4	-3.9833	-4.7667	-4.3333	-4.475	-4.7125	-4.1271	-4.4104	-4.4771	121.426	4.950	105.716	-124.832	78.391	124.665	-149.156	-59.953	-87.306	82.717	52.059	-32.422	72.667	11.058	-98.526	142.841	0.00052366	0.00059946	0.00017117	420.55	8.8619e-06	2.6023e-06	450.38	165.86	4.6251e-06	6.1363e-06	202.01	96.846	72.992	34.382	1.3416e-06	48.747	0.00044356	0.00042637	0.00011817	424.99	5.8532e-06	4.7487e-06	454.45	168.77	4.5015e-06	7.3902e-06	205.23	98.045	75.049	35.286	7.5632e-06	49.804	-53.921	-56.727	-91.504	-147.936	-49.256	-38.481	-149.471	-141.904	-1.264	50.870	-144.090	-139.168	-136.695	-132.388	-159.879	-135.864	-8191	255	
40215.277	1	1	0	0	0.096426	0.1569	0.24696	0.1219	0.21899	0.15643	0.34637	0.2084	0.13681	0.19574	0.042903	0.2024	0.098257	0.16013	0.12529	0.36949	-3.7708	-4.6125	-4.3625	-4.2375	-4.5563	-4.2	-4.6854	-4.5375	-3.9417	-4.5687	-4.2812	-4.325	-4.8729	-4.3729	-4.3625	-4.7188	138.321	-101.070	-100.280	-158.502	12.874	118.879	124.609	-149.158	110.482	-65.067	75.628	195.673	-17.901	173.525	-122.569	179.387	0.00060728	0.00010481	0.00015582	418.51	1.2031e-05	3.7811e-06	449.84	165.54	3.3357e-06	7.8633e-06	203.31	97.419	74	34.311	4.6596e-06	49.288	0.0004601	0.00045235	0.00012602	423.41	7.2668e-06	4.8632e-06	455.09	168.37	4.5351e-06	7.636e-06	205.83	98.688	75.452	35.342	6.8665e-06	50.24	-52.561	-49.366	-38.105	-147.963	-54.263	16.874	-149.327	-141.751	-7.206	39.945	-144.573	-139.388	-137.133	-132.373	29.064	-135.935	-8191	255	
40215.371	1	1	0	0	0.21871	0.13152	0.15616	0.1019	0.14001	0.11663	0.25435	0.22262	0.16991	0.044748	0.11589	0.0060355	0.042114	0.10601	0.13192	0.092679	-3.7313	-4.5417	-4.3187	-4.3417	-4.6625	-4.2646	-4.5146	-4.7812	-4.0375	-4.5208	-4.5167	-4.2188	-4.6833	-4.2854	-4.3979	-4.6312	109.260	137.213	145.138	117.047	-132.653	46.902	182.652	117.763	-101.429	-47.709	180.640	192.979	-39.799	160.538	161.590	8.150	0.00059406	0.00026946	0.00012598	419.22	1.3311e-05	3.3837e-06	449.52	166.97	4.0003e-06	9.0137e-06	204.15	97.891	74.26	34.367	3.2009e-06	48.879	0.00043557	0.00041929	0.00011305	423.73	7.0736e-06	4.471e-06	453.99	169.73	4.435e-06	7.1912e-06	207.17	99.197	75.752	35.418	5.4481e-06	50.239	-51.402	-60.173	-10.898	-147.832	-39.997	-34.157	-149.214	-141.674	-25.770	25.068	-144.292	-139.302	-136.509	-132.299	-11.122	-136.072	-8191	255	
40215.441	1	1	0	0	0.38234	0.11607	0.17058	0.1555	0.23179	0.045165	0.25234	0.23946	0.096811	0.072357	0.17181	0.16502	0.28776	0.029441	0.2068	0.016683	-3.75	-4.5917	-4.45	-4.2375	-4.6687	-4.2479	-4.3812	-4.7229	-4.1167	-4.5792	-4.4187	-4.0521	-4.8479	-4.3729	-4.0708	-4.6583	185.604	55.927	-133.073	-152.424	-125.906	-118.310	192.130	68.496	-111.922	-83.109	41.030	-136.819	101.095	-143.696	-11.903	-59.382	0.00056451	0.00028201	0.00012468	416.91	8.1061e-06	4.1086e-06	451.38	166.52	3.2459e-06	8.2937e-06	203.79	98.063	74.448	34.219	2.9883e-06	48.896	0.0004598	0.00041519	0.00011366	421.89	6.9926e-06	4.6103e-06	452.91	169.16	4.6724e-06	7.3826e-06	206.41	99.085	75.831	35.35	4.3367e-06	50.291	-53.445	-35.332	-99.754	-148.066	-38.327	-83.986	-149.036	-141.945	17.230	66.412	-144.399	-139.262	-136.828	-132.379	-10.701	-135.922	-8191	255	
40215.562	1	1	0	0	0.094589	0.10057	0.20146	0.19199	0.26362	0.17605	0.2487	0.084021	0.13417	0.12596	0.032474	0.16407	0.1083	0.017301	0.25578	0.17228	-3.7667	-4.5417	-4.4771	-4.175	-4.5396	-4.4292	-4.2021	-4.7208	-4.1333	-4.5312	-4.6708	-4.2604	-4.6021	-4.25	-4.2292	-4.9396	-113.826	-147.096	81.582	169.685	190.759	-95.041	172.727	75.373	194.730	74.566	10.753	104.075	-25.296	-118.453	-51.430	159.056	0.00064462	0.00043111	9.0512e-05	422.63	1.4194e-05	2.5351e-06	451.26	166.74	4.4211e-06	7.8877e-06	203.12	97.529	74.24	34.16	3.5229e-06	48.688	0.00044446	0.0004211	0.00011023	425.75	7.0767e-06	4.377e-06	454.38	169.55	4.4692e-06	6.7817e-06	206.74	98.82	75.536	35.212	4.4156e-06	50.107	-51.887	-73.624	-86.156	-148.118	-37.793	-28.980	-149.335	-141.885	-2.432	15.201	-144.250	-139.200	-137.135	-132.197	-49.780	-136.157	-8191	255	
40215.660	1	1	0	0	0.28077	0.21416	0.23246	0.13026	0.02986	0.17062	0.13084	0.18166	0.15836	0.20375	0.092593	0.25593	0.33082	0.22849	0.048338	0.14689	-3.8021	-4.4271	-4.5687	-4.0333	-4.6562	-4.4083	-4.2542	-4.8562	-4.2729	-4.4458	-4.7042	-4.05	-4.5958	-4.5604	-4.0458	-4.6583	147.589	157.898	-54.808	151.782	-21.129	190.350	-83.321	165.797	-149.659	111.361	31.135	138.736	-131.257	92.665	-7.561	168.167	0.00065665	0.00049788	6.0119e-05	419.32	1.0675e-05	3.7754e-06	450.41	165.56	2.9617e-06	1.0929e-05	203.38	97.425	73.428	33.854	4.3176e-06	48.596	0.00044196	0.00041816	0.0001145	424.85	7.1657e-06	4.6382e-06	454.98	168.45	4.6928e-06	5.4165e-06	207.03	98.345	75.016	35.024	4.7355e-06	50.02	-53.709	-41.117	-83.790	-147.791	-33.143	20.383	-149.263	-142.027	-19.929	47.042	-144.256	-139.453	-136.740	-132.409	-37.854	-135.930	-8191	255	
40215.754	1	1	0	0	0.18846	0.16694	0.15605	0.068284	0.14186	0.33413	0.052521	0.14116	0.12592	0.18692	0.36388	0.24562	0.14505	0.062759	0.37109	0.25168	-3.8833	-4.2479	-4.8229	-4.3708	-4.6042	-4.4917	-4.1521	-4.6375	-4.2917	-4.1312	-4.9104	-4.1167	-4.6792	-4.5729	-4.0354	-4.825	-129.955	-77.272	-30.774	106.762	190.228	-133.344	170.891	-31.994	114.207	140.120	121.648	166.176	-137.242	111.832	25.341	49.949	0.00063709	0.0001372	6.8466e-05	419.82	1.6464e-05	4.72e-06	451.88	166.22	8.4127e-07	1.8229e-06	203.83	97.793	73.788	34.483	1.5811e-06	48.909	0.00046545	0.00043072	0.00011936	423.85	7.4322e-06	4.6414e-06	455.85	168.8	4.4192e-06	4.5206e-06	207.95	98.896	75.379	35.269	4.3917e-06	50.426	-54.705	-102.588	-80.301	-148.098	-4.776	-37.421	-149.478	-141.962	-22.008	-53.458	-144.529	-139.366	-137.178	-132.292	7.284	-135.795	-8191	255	
40215.852	1	1	0	0	0.10627	0.25311	0.2315	0.072926	0.10657	0.10626	0.005775	0.12825	0.11441	0.059235	0.066199	0.088009	0.10778	0.15235	0.2713	0.078675	-3.8958	-4.05	-4.7208	-4.2104	-4.5958	-4.6646	-4.0437	-4.7354	-4.4604	-4.1021	-4.8396	-4.2	-4.4187	-4.7	-3.8917	-4.7729	64.571	92.240	29.612	-93.124	4.747	11.253	41.839	-24.909	-114.856	62.209	173.857	-140.590	107.578	-117.528	3.709	177.759	0.0006721	0.00013841	0.00011813	423.81	1.7614e-05	5.272e-06	453.42	168.67	5.1366e-06	3.3879e-06	205.34	97.825	73.695	34.417	4.1203e-06	49.027	0.00043059	0.00039095	0.0001078	425.99	6.4016e-06	4.2023e-06	456.73	170.46	4.1085e-06	4.1819e-06	210.3	99.164	75.561	35.304	4.1342e-06	50.362	-52.882	-55.519	-27.909	-147.864	-8.098	-41.945	-149.141	-142.077	13.916	35.740	-144.603	-139.581	-136.973	-132.327	9.138	-135.989	-8191	255	
40215.973	1	1	0	0	0.24083	0.1087	0.23197	0.26346	0.12708	0.22568	0.3853	0.0068474	0.055022	0.090087	0.18217	0.1675	0.045685	0.040968	0.12274	0.072946	-4.1583	-4.2063	-4.7542	-4.2708	-4.5417	-4.5792	-4.1646	-4.5667	-4.4958	-4.0813	-4.9146	-4.225	-4.3562	-4.7021	-4.0687	-4.65	111.375	-127.755	-24.132	156.499	-98.846	195.489	172.547	-133.496	-54.713	130.579	29.268	112.061	-4.141	4.839	58.066	175.519	0.00062051	0.00022837	9.8538e-05	420.63	1.293e-05	2.4532e-07	451.35	166.85	3.3734e-06	5.4959e-06	205.43	97.504	74.163	34.408	3.4713e-06	49.162	0.00040537	0.00037212	0.00010359	425.08	4.6074e-06	5.8121e-06	455.56	169.51	4.014e-06	4.12e-06	208.77	99.073	75.425	35.239	4.2566e-06	50.32	-55.390	-73.922	-72.522	-147.643	11.145	140.062	-149.048	-141.681	1.902	34.043	-144.475	-139.303	-136.735	-132.263	-25.721	-135.903	-8191	255	
40216.043	1	1	0	0	0.15265	0.19	0.13578	0.13644	0.045002	0.055235	0.26731	0.039372	0.22981	0.10373	0.079335	0.042971	0.30267	0.13935	0.10608	0.17788	-4.25	-4.0375	-4.7	-4.5333	-4.1417	-4.6896	-4.1917	-4.4125	-4.5458	-4.1229	-4.6792	-4.3229	-4.2542	-4.7292	-4.1438	-4.5312	167.751	-1.526	70.448	107.546	-46.452	16.274	182.816	155.530	138.343	61.039	126.321	-27.368	185.412	84.004	113.787	52.113	0.00059236	0.00036537	0.00014472	420.33	3.3103e-06	8.3507e-06	452.33	167.69	4.1585e-06	3.7446e-06	204.33	97.125	73.765	34	2.9959e-06	48.974	0.00041736	0.00037942	0.00011206	424.98	4.0281e-06	6.6897e-06	455.4	169.56	4.0521e-06	4.3233e-06	208.61	98.597	75.183	35.094	4.3915e-06	50.125	-50.120	-68.765	-90.398	-147.830	-45.267	-13.130	-149.293	-141.947	23.418	-11.802	-144.024	-139.387	-136.877	-132.398	-42.705	-135.945	-8191	255	
40216.141	1	1	0	0	0.17039	0.098936	0.13112	0.21504	0.091595	0.30193	0.033609	0.015497	0.14604	0.17995	0.11708	0.34078	0.21928	0.28148	0.25045	0.18403	-4.3542	-4.1896	-4.525	-4.5167	-4.2167	-4.8417	-4.3854	-4.5625	-4.7104	-4.1646	-4.5333	-4.5062	-4.2375	-4.7458	-4.1562	-4.575	185.278	-10.230	-118.188	-137.007	128.043	135.636	-158.083	11.741	191.077	26.610	108.917	193.452	94.808	130.824	-124.421	118.602	0.00067035	0.00039159	0.00013197	422.15	6.8696e-06	1.0031e-05	451.33	167.98	3.6365e-06	2.114e-06	205.78	97.745	73.724	34.241	3.7566e-06	49.181	0.00042991	0.00039238	0.00011012	425.26	4.1938e-06	7.0739e-06	455.81	169.52	4.0058e-06	4.2922e-06	209.64	99.185	75.418	35.143	4.3101e-06	50.174	-57.151	-117.028	-55.988	-147.734	-56.388	-12.834	-149.193	-141.654	11.147	19.785	-144.080	-139.344	-136.981	-132.317	-60.939	-135.979	-8191	255	
40216.262	1	1	0	0	0.10616	0.20536	0.014477	0.10948	0.022557	0.18133	0.10463	0.29452	0.20543	0.16232	0.079398	0.17073	0.069944	0.1439	0.02669	0.056546	-4.4167	-4.125	-4.5292	-4.4604	-4.2	-4.725	-4.3396	-4.3187	-4.7229	-4.1583	-4.6167	-4.5396	-4.2188	-4.8229	-4.2208	-4.4167	143.636	-79.397	-59.636	-42.249	-66.362	141.584	111.023	-103.572	-3.219	-63.409	163.052	108.619	91.752	2.621	163.238	-95.895	0.00066148	0.00053194	0.00015614	421.19	6.3948e-06	6.0566e-06	453.85	167.65	3.1803e-06	3.9896e-06	203.66	98.43	74.1	34.271	4.9201e-06	49.176	0.00056179	0.00039295	0.00010833	425.34	4.1634e-06	6.8885e-06	456.53	169.92	4.1207e-06	4.2951e-06	209.99	99.425	75.646	35.275	4.2893e-06	50.232	-59.106	-76.038	-64.242	-148.353	-31.466	6.367	-149.424	-141.758	8.801	-55.259	-144.506	-139.663	-137.060	-132.156	-24.067	-135.915	-8191	255	
40216.355	1	1	0	0	0.11325	0.058499	0.12195	0.19983	0.24611	0.18274	0.098554	0.060511	0.31282	0.20382	0.13183	0.054048	0.12303	0.13863	0.1622	0.086273	-4.5625	-4.0854	-4.6271	-4.6188	-4.1458	-4.7979	-4.5229	-4.2625	-4.8583	-4.2063	-4.6229	-4.85	-4.1937	-4.6854	-4.3521	-4.1687	-27.355	-159.406	-114.799	-27.119	133.653	92.208	100.427	187.928	-74.491	-108.246	-24.188	-126.971	171.435	193.161	9.286	98.853	0.00067613	0.0004524	0.00014454	418.59	7.6251e-06	8.3096e-06	453.87	167.04	3.871e-06	1.887e-06	205.72	97.473	73.936	34.141	4.6817e-06	48.921	0.00063889	0.00039575	0.00010717	424.42	4.1835e-06	7.1491e-06	457.15	169.73	4.2781e-06	4.5066e-06	209.21	99.166	75.428	35.102	4.2967e-06	49.916	-53.408	-48.309	-59.474	-148.057	0.620	4.637	-148.999	-141.891	17.124	-48.499	-144.668	-139.399	-137.097	-132.526	-37.250	-135.970	-8191	255	
40216.449	1	1	0	0	0.1724	0.083944	0.085814	0.061002	0.17471	0.096481	0.1118	0.23635	0.086289	0.097762	0.34597	0.23221	0.20229	0.071294	0.091219	0.19187	-4.3292	-4.3333	-4.2708	-4.7312	-4.2	-4.6	-4.5375	-4.2146	-4.6771	-4.2771	-4.2604	-4.6792	-4.3187	-4.4938	-4.4688	-3.9917	190.635	-150.563	-100.748	-109.817	196.415	-138.515	152.447	-147.448	105.417	-44.927	111.348	185.329	169.673	-152.005	-58.825	-138.871	0.00076467	0.00046919	3.3247e-05	423.55	6.7768e-06	9.7725e-06	450.65	166.94	4.6423e-06	6.0122e-06	204.4	97.323	73.779	34.132	5.3352e-06	48.439	0.00065432	0.00040215	0.00011183	425.62	4.4343e-06	7.0637e-06	455.16	169.15	4.4095e-06	4.4127e-06	206.98	99.151	75.085	34.984	4.2757e-06	49.721	-56.798	-52.774	58.047	-147.729	-30.676	-9.209	-149.615	-142.102	-17.830	-9.755	-144.100	-139.443	-136.837	-132.287	-19.656	-136.188	-8191	255	
40216.547	1	1	0	0	0.1081	0.25698	0.061694	0.10047	0.067455	0.094589	0.16222	0.18308	0.12854	0.16684	0.14685	0.12135	0.19498	0.083565	0.14668	0.076275	-4.4229	-4.2354	-4.3479	-4.8083	-4.1542	-4.6813	-4.6813	-4.3396	-4.6792	-4.3479	-4.4354	-4.8313	-4.2271	-4.4437	-4.7375	-4.2667	-64.208	-55.766	5.610	127.181	58.795	-113.357	-63.973	-147.902	-127.802	-85.351	-53.086	-113.442	156.172	-74.326	184.877	67.464	0.00070479	0.00036795	0.00010093	420.6	6.1677e-06	8.3567e-06	452.74	165.43	3.5761e-06	4.0199e-06	205.43	96.917	73.597	33.889	1.0332e-06	48.621	0.00064239	0.00039669	0.00010941	424.49	4.3867e-06	7.1186e-06	455.21	168.54	4.3204e-06	4.3721e-06	207.12	99.265	74.874	34.94	4.1867e-06	49.837	-55.271	-55.982	-76.638	-147.874	1.040	14.540	-149.400	-141.687	4.681	-46.952	-144.114	-139.627	-137.139	-132.486	-13.007	-135.916	-8191	255	
40216.645	1	1	0	0	0.27685	0.069577	0.30656	0.11821	0.26642	0.028731	0.030553	0.10533	0.17206	0.080462	0.04106	0.12728	0.24423	0.37266	0.15782	0.22092	-4.3271	-4.4437	-4.1083	-4.7958	-4.2604	-4.5583	-4.8021	-4.1833	-4.7063	-4.4896	-4.3583	-4.7417	-4.225	-4.4646	-4.7063	-4.0521	-97.212	168.615	-59.436	107.909	191.142	191.277	-21.087	73.328	100.881	-22.175	13.577	10.663	-149.128	119.677	-60.896	-154.855	0.00066968	0.00029213	0.00012788	419.25	5.7155e-06	1.0654e-05	451.19	166.39	4.0598e-06	3.1396e-06	204.71	96.811	73.326	34.021	5.0302e-06	49.021	0.00065374	0.00039107	0.0001058	424.13	4.2414e-06	6.0738e-06	455.84	169.01	4.16e-06	4.2332e-06	207.14	99.329	74.884	34.92	4.351e-06	49.93	-51.259	-54.861	-93.974	-148.131	4.362	29.119	-149.393	-141.806	-29.801	-37.682	-144.196	-139.089	-137.133	-132.317	-42.810	-135.934	-8191	255	
40216.738	1	1	0	0	0.24575	0.070802	0.1742	0.13519	0.11305	0.065392	0.10077	0.18722	0.12641	0.022049	0.0378	0.24955	0.055521	0.18352	0.18418	0.073931	-4.2521	-4.425	-4.1771	-4.7188	-4.2771	-4.3667	-4.65	-4.2229	-4.4875	-4.6813	-4.1333	-4.8458	-4.4271	-4.4667	-4.7604	-4.1937	44.042	56.895	82.310	-134.208	127.016	96.101	5.770	5.763	-130.926	152.751	89.677	41.672	182.952	121.913	82.158	181.800	0.00067212	0.00011018	0.00014715	420.24	5.3627e-06	6.5057e-06	454.08	166.32	5.6946e-06	2.4193e-06	204.2	97.232	73.711	33.866	2.2695e-06	48.978	0.00062915	0.00038143	0.00010802	425.13	4.1713e-06	4.4252e-06	460.08	169	4.1475e-06	4.2103e-06	207.33	99.46	74.945	34.913	4.3646e-06	50.091	-49.447	-59.933	-98.728	-148.079	22.414	2.681	-149.793	-142.040	-9.683	33.906	-144.599	-139.156	-136.900	-132.300	-5.683	-136.007	-8191	255	
40216.859	1	1	0	0	0.013477	0.052158	0.087852	0.10553	0.059246	0.039969	0.1118	0.18895	0.10889	0.19649	0.12527	0.17058	0.066348	0.17986	0.36937	0.12406	-4.1958	-4.4396	-4.1438	-4.8479	-4.2937	-4.0646	-4.7021	-4.2292	-4.5792	-4.6312	-4.1979	-4.7521	-4.525	-4.2292	-4.7292	-4.3396	-32.429	-43.485	-69.240	137.850	145.432	-76.684	117.498	145.222	-117.937	-113.671	185.486	-77.200	-70.450	145.279	-144.319	-158.369	0.00071492	0.00025914	5.0258e-05	418.89	3.0909e-06	5.1069e-06	454.82	165.8	2.5817e-06	2.6288e-06	205.11	98.12	73.434	33.976	4.6858e-06	48.908	0.0006516	0.00038579	0.0001094	424.83	4.0678e-06	4.2263e-06	460.66	169.06	4.0932e-06	4.2468e-06	208.04	99.81	75.041	35.001	4.3671e-06	50.026	-53.847	-87.734	-55.689	-148.107	-15.565	17.431	-149.221	-141.786	-1.135	-60.533	-144.087	-139.394	-137.014	-132.331	-11.194	-135.767	-8191	255	
40216.957	1	1	0	0	0.074353	0.074845	0.019933	0.14524	0.15707	0.23906	0.25109	0.14802	0.27862	0.083692	0.078536	0.26274	0.17436	0.31889	0.083848	0.19368	-4.1667	-4.5687	-4.15	-4.5229	-4.4167	-4.1771	-4.7271	-4.4062	-4.4812	-4.5771	-4.0375	-4.8021	-4.5229	-4.225	-4.4792	-4.3229	-82.407	-146.649	-150.105	-43.886	161.332	-78.902	163.993	78.242	-31.674	8.866	-92.498	-86.325	-57.620	54.082	14.294	190.575	0.00063819	0.00020597	0.00011487	420.75	6.552e-06	2.7314e-06	450.96	166.18	4.1247e-06	2.9343e-06	205.41	97.628	73.694	34.007	2.2875e-06	48.802	0.00055769	0.00042323	0.00011056	424.57	4.0327e-06	4.2876e-06	458.97	168.81	4.2177e-06	4.3012e-06	207.52	99.202	74.756	34.801	4.3854e-06	49.78	-50.705	-137.889	-65.590	-147.837	-17.906	-47.102	-149.253	-141.922	-41.959	-3.153	-144.636	-139.403	-136.786	-132.422	-15.584	-135.800	-8191	255	
40217.051	1	1	0	0	0.20243	0.17548	0.14086	0.29549	0.034288	0.19501	0.26379	0.27062	0.23532	0.12009	0.11142	0.29244	0.24777	0.20323	0.03566	0.22298	-3.9875	-4.6646	-4.075	-4.5896	-4.5917	-4.1813	-4.9417	-4.1104	-4.3063	-4.8187	-4.1646	-4.65	-4.5875	-4.2708	-4.5583	-4.3292	67.983	-148.361	71.198	100.811	147.951	90.399	170.416	94.764	-123.154	58.247	-3.774	189.384	33.353	196.474	13.650	154.104	0.00060316	0.00061955	0.00019175	418.21	9.0424e-06	3.0296e-06	452.26	165.93	2.5267e-06	1.7812e-07	203.57	96.778	73.768	33.815	3.3095e-06	48.649	0.00042783	0.00059741	0.00011246	423.47	4.0522e-06	4.2932e-06	458.74	168.67	4.2514e-06	4.2976e-06	207.24	99.175	74.808	34.791	4.2747e-06	49.756	-44.445	-109.220	-61.675	-147.898	-20.231	15.190	-149.508	-141.613	24.179	-21.382	-144.559	-139.515	-137.149	-132.319	40.807	-135.905	-8191	255	
40217.148	1	1	0	0	0.14137	0.16816	0.10443	0.19422	0.077805	0.23822	0.14158	0.066662	0.15787	0.18642	0.14911	0.21756	0.2156	0.21123	0.14879	0.13488	-3.7812	-4.8812	-4.1	-4.4771	-4.725	-4.0604	-4.7688	-4.3521	-4.1833	-4.7292	-4.2917	-4.3521	-4.6292	-4.0958	-4.6896	-4.5292	150.823	15.400	178.321	194.299	83.193	-135.065	-34.262	146.426	-62.821	195.236	-115.899	167.077	191.812	-79.622	88.717	146.801	0.00058674	0.00063578	5.9536e-05	421.04	4.1429e-06	2.9319e-06	455.44	165.4	4.7164e-06	1.8841e-06	205.21	97.646	73.599	33.896	7.9845e-06	48.718	0.00042905	0.00064244	0.00011067	423.93	4.0821e-06	4.312e-06	459.61	168.32	4.2247e-06	4.3575e-06	207.79	99.09	75.098	34.801	4.3e-06	49.826	-51.992	-117.954	-75.151	-148.017	-24.781	1.157	-149.076	-141.782	-3.953	35.355	-144.492	-139.192	-137.126	-132.426	-6.662	-135.923	-8191	255	
40217.266	1	1	0	0	0.053089	0.11642	0.23398	0.20367	0.11132	0.25941	0.23432	0.31979	0.11341	0.078338	0.24894	0.15736	0.19094	0.089029	0.25117	0.37889	-3.9146	-4.725	-4.2688	-4.4104	-4.6542	-4.25	-4.7771	-4.3646	-4.0646	-4.7771	-4.4437	-4.3146	-4.6958	-4.1813	-4.5062	-4.6604	-14.670	151.324	173.437	-114.067	196.704	27.212	168.839	140.426	-117.122	-20.410	-148.312	-11.785	-150.045	-70.625	48.082	124.236	0.00061628	0.00068614	0.00013649	419.1	3.9185e-06	3.1726e-06	453.13	166.45	3.4709e-06	4.6268e-06	206.49	97.39	73.459	33.769	3.6574e-06	48.981	0.00043028	0.00064439	0.00010708	424.27	4.1982e-06	4.3556e-06	459.41	168.93	4.3484e-06	4.3793e-06	208.61	98.841	75.618	34.793	4.27e-06	50.058	-54.060	-106.095	-52.959	-148.020	-32.421	-4.581	-149.364	-141.856	32.783	29.858	-144.451	-139.300	-136.847	-132.133	10.250	-136.104	-8191	255	
40217.340	1	1	0	0	0.14347	0.081884	0.15513	0.39283	0.096278	0.22253	0.081067	0.37651	0.18528	0.12856	0.25647	0.098754	0.23297	0.25382	0.20472	0.21435	-3.7208	-4.7271	-4.2979	-4.2833	-4.5479	-4.1625	-4.6	-4.6771	-4.2146	-4.725	-4.3729	-4.2583	-4.7562	-4.2229	-4.3958	-4.6479	140.368	-11.632	-21.493	169.800	122.666	67.057	188.624	199.136	-50.584	-122.982	167.833	-121.102	64.727	8.415	65.538	155.131	0.00059966	0.00040153	0.00012673	419.66	5.455e-06	1.3477e-06	456.6	165.76	4.4837e-06	4.4033e-06	206.07	97.751	73.05	33.919	2.706e-06	49.035	0.00043989	0.00065572	0.00011125	424.37	4.3791e-06	4.4576e-06	461.38	168.78	4.5192e-06	4.5137e-06	208.44	98.826	75.407	34.77	4.4627e-06	49.943	-54.434	-94.989	-90.660	-147.793	-10.907	-34.515	-149.264	-141.743	-3.348	6.802	-144.209	-139.153	-137.324	-132.277	24.283	-136.117	-8191	255	
40217.434	1	1	0	0	0.20892	0.18396	0.024545	0.17671	0.090511	0.040452	0.2033	0.19722	0.035996	0.10174	0.17196	0.2223	0.11634	0.30114	0.088577	0.1332	-3.6063	-4.6042	-4.3583	-4.1875	-4.8063	-4.275	-4.4979	-4.6875	-4.0625	-4.5521	-4.4167	-4.1687	-4.6813	-4.3187	-4.4375	-4.6646	12.807	-143.888	44.932	-40.125	-129.722	-137.823	150.014	125.532	88.515	-88.725	154.400	11.334	167.492	108.108	-41.448	98.399	0.0006317	0.0011635	4.4424e-05	419.85	7.2811e-06	4.4888e-06	453.18	165.04	3.4754e-06	2.9292e-06	203.08	96.578	72.521	33.473	3.3175e-06	48.46	0.00046113	0.00068535	0.0001145	423.73	4.6123e-06	4.6883e-06	458.1	168.02	4.7212e-06	4.599e-06	206.34	97.954	75.031	34.51	4.5858e-06	49.491	-50.207	-92.658	6.084	-147.941	-9.720	19.846	-149.269	-141.926	-6.475	20.403	-144.488	-139.224	-137.185	-132.506	-32.084	-136.242	-8191	255	
40217.531	1	1	0	0	0.25868	0.055307	0.20453	0.13146	0.089253	0.22179	0.10826	0.19324	0.04557	0.066357	0.11535	0.08224	0.14601	0.1331	0.13696	0.20845	-3.7646	-4.4187	-4.4167	-4.0396	-4.7188	-4.4667	-4.4396	-4.7812	-4.2063	-4.4729	-4.5062	-4.0437	-4.4979	-4.3667	-4.1312	-4.7333	-120.521	-125.295	29.896	-154.962	-33.959	69.684	153.307	155.718	155.335	-48.788	-143.973	144.695	-88.097	190.765	-95.912	146.522	0.00062493	0.00066201	5.6813e-05	420.21	3.7854e-06	3.084e-06	455.12	165.36	1.5002e-06	3.7141e-06	202.67	96.211	72.653	33.586	2.6552e-06	48.397	0.00046342	0.0006702	0.0001147	423.59	4.6175e-06	4.5994e-06	456.49	168.31	4.6906e-06	4.5869e-06	205.15	97.527	74.633	34.397	4.712e-06	49.282	-56.273	-105.463	-62.101	-148.011	-6.830	-4.023	-149.138	-141.730	-39.964	-21.087	-144.443	-139.291	-137.105	-132.514	-36.268	-136.206	-8191	255	
40217.652	1	1	0	0	0.071254	0.17069	0.19051	0.1548	0.14891	0.051933	0.11512	0.23424	0.18114	0.21025	0.10859	0.17761	0.13859	0.26542	0.11638	0.21141	-3.8792	-4.475	-4.5583	-4.1042	-4.6833	-4.4458	-4.2833	-4.8229	-4.25	-4.5417	-4.5896	-4.1562	-4.7583	-4.6333	-4.1813	-4.8313	126.446	-72.564	136.430	165.078	-94.507	132.736	176.814	159.885	53.098	42.337	193.347	93.912	158.327	163.070	127.964	-146.603	0.00064015	0.00072554	0.00014329	419.06	4.817e-06	3.9414e-06	451.72	163.42	1.6246e-06	3.8198e-06	201.08	95.976	71.739	33.36	1.0313e-06	47.931	0.00046792	0.0006791	0.00012219	423.31	4.7883e-06	4.7512e-06	456.09	167.27	4.8565e-06	4.7639e-06	204.45	97.103	74.282	34.265	5.0441e-06	49.079	-51.847	-98.572	-60.526	-148.092	-65.556	-15.044	-149.220	-141.816	-7.087	-34.870	-144.529	-139.431	-137.336	-132.388	-53.310	-136.095	-8191	255	
40217.746	1	1	0	0	0.19456	0.11772	0.13738	0.13756	0.10481	0.11549	0.23076	0.26093	0.093965	0.14514	0.20723	0.09798	0.082747	0.25358	0.13666	0.25267	-3.8958	-4.4354	-4.5833	-4.2229	-4.7833	-4.4167	-4.2771	-4.6562	-4.3292	-4.3562	-4.6333	-4.1146	-4.5917	-4.5458	-4.2208	-4.8583	-35.097	-108.922	166.205	-113.480	119.537	55.189	-9.428	176.808	129.595	-105.839	153.784	-51.277	128.729	111.302	-96.180	144.963	0.00056182	0.00049721	0.00013436	415.2	7.3624e-06	3.7716e-06	451.6	163.07	4.3662e-06	3.0152e-06	201.67	95.791	71.91	33.311	1.7763e-06	47.751	0.00046549	0.00056866	0.00015006	420.62	4.8711e-06	4.9899e-06	455.86	166.83	4.9672e-06	5.0643e-06	204.39	97.11	74.034	34.192	5.2277e-06	48.897	-51.519	-67.695	-115.203	-147.982	-25.512	-17.170	-149.447	-141.962	50.558	-46.857	-144.533	-139.206	-137.107	-132.495	21.228	-135.892	-8191	255	
40217.844	1	1	0	0	0.038185	0.011542	0.11132	0.13839	0.09634	0.22104	0.27023	0.015229	0.11631	0.17232	0.18336	0.17317	0.15007	0.15528	0.28018	0.057213	-3.9625	-4.3042	-4.8792	-4.3917	-4.5771	-4.5792	-4.1625	-4.6729	-4.3771	-4.2958	-4.7542	-4.2021	-4.6	-4.6708	-4.0208	-4.7396	-91.177	-125.601	52.746	61.327	139.194	-124.634	125.126	-38.610	-33.566	43.951	-20.971	101.758	144.441	174.509	-90.464	195.862	0.00058974	0.00035972	0.00013648	415.96	4.5294e-06	1.8384e-06	452.73	162.45	2.3511e-06	1.0944e-06	201.09	95.714	71.613	33.093	4.6494e-06	48.254	0.00048516	0.00046089	0.00020143	421.18	5.0211e-06	5.1846e-06	455.81	166.42	4.9833e-06	5.1918e-06	204.09	97.05	73.945	34.078	5.0855e-06	49.268	-56.176	-75.009	-109.583	-148.022	10.737	-49.846	-149.295	-141.751	-6.730	-31.297	-144.363	-139.454	-137.295	-132.317	-57.481	-135.849	-8191	255	
40217.941	1	1	0	0	0.19986	0.060489	0.19939	0.22782	0.073746	0.037447	0.22187	0.19361	0.11349	0.16252	0.057435	0.13662	0.17134	0.34256	0.19745	0.14269	-4.0875	-4.1625	-4.6396	-4.2479	-4.3875	-4.6312	-4.2729	-4.6958	-4.3583	-4.2771	-4.8	-4.3938	-4.5687	-4.7479	-4.1062	-4.7812	-143.867	-49.391	-59.610	179.492	184.402	196.764	161.689	-110.840	-123.273	179.027	126.628	-112.495	-150.399	192.109	-4.688	-47.441	0.00056785	0.00034276	0.00028508	415.27	7.0843e-06	2.6241e-06	452.18	162.83	3.0421e-06	2.5448e-06	201.12	95.645	72.229	33.136	7.4009e-06	48.063	0.00046942	0.00046274	0.00018981	420.95	4.6862e-06	4.8442e-06	455.71	166.81	4.7073e-06	4.9684e-06	204.66	97.23	73.917	34.235	4.7827e-06	49.194	-51.188	-92.217	-40.426	-147.870	-47.517	-46.663	-149.293	-141.845	-15.131	-42.522	-144.584	-139.353	-136.799	-132.446	17.051	-135.675	-8191	255	
40218.035	1	1	0	0	0.13289	0.16114	0.31797	0.13298	0.10454	0.14779	0.1007	0.15846	0.1505	0.059463	0.071401	0.10557	0.19167	0.092019	0.056372	0.12545	-4.1104	-3.9958	-4.7937	-4.1896	-4.5042	-4.5708	-4.2542	-4.6229	-4.5521	-4.2021	-4.9604	-4.4104	-4.2146	-4.8167	-4.1562	-4.55	184.922	83.940	148.765	59.114	-98.866	139.606	-24.032	-13.491	-156.299	28.788	161.806	-11.280	80.004	-121.217	-54.242	-5.663	0.00058282	0.00056193	0.00034072	416.2	1.0106e-05	1.9046e-06	448.86	162.98	4.0954e-06	5.4945e-06	200.88	95.316	71.779	33.058	3.6045e-06	47.947	0.00045094	0.00044538	0.00019257	420.21	4.575e-06	4.804e-06	454.17	166.73	4.7419e-06	4.9562e-06	204.32	96.908	73.298	34.247	4.8131e-06	48.971	-51.860	-53.373	-64.692	-148.294	34.714	-38.092	-149.393	-141.682	10.912	-10.561	-143.953	-139.495	-136.767	-132.396	40.111	-135.965	-8191	255	
40218.133	1	1	0	0	0.13129	0.090605	0.11513	0.091	0.18098	0.13965	0.35283	0.17686	0.12375	0.24078	0.13379	0.19454	0.24421	0.17498	0.12534	0.14644	-4.1729	-4.0646	-4.6687	-4.2729	-4.35	-4.6917	-4.2312	-4.6417	-4.5	-4.0375	-4.5813	-4.4958	-4.2521	-4.8854	-4.2083	-4.5667	-65.304	-59.568	131.974	167.847	187.782	60.102	150.082	114.455	-47.414	88.816	140.484	122.421	162.129	130.229	145.264	124.234	0.00061233	0.00035552	0.00023648	416.9	6.6916e-06	3.4679e-06	450.59	162.91	4.2422e-06	5.5037e-06	199.97	95.617	71.71	33.211	2.8493e-06	47.99	0.00046265	0.00043634	0.00018122	420.2	4.6784e-06	4.8493e-06	455.34	166.53	4.7278e-06	4.8954e-06	203.43	96.819	73.249	34.246	4.6844e-06	49.029	-55.653	-139.434	-55.211	-148.254	-41.770	-2.790	-149.268	-141.880	15.626	5.222	-144.267	-139.244	-137.306	-132.444	-8.877	-136.067	-8191	255	
40218.230	1	1	0	0	0.11065	0.12491	0.088166	0.10924	0.21509	0.18463	0.039899	0.19383	0.20322	0.14696	0.046964	0.25691	0.028371	0.08184	0.20105	0.12415	-4.3562	-4.1917	-4.6125	-4.5292	-4.3792	-4.7771	-4.2771	-4.5875	-4.7583	-4.2125	-4.7792	-4.4708	-4.1854	-4.8458	-4.4104	-4.425	-69.133	-86.856	-108.931	5.051	-138.477	-57.041	177.354	57.733	64.829	174.475	-72.372	199.147	-31.967	-157.859	-124.496	138.507	0.00065142	0.00047058	0.00026264	415.79	2.5512e-06	5.8001e-06	450.74	163.64	4.6585e-06	3.9918e-06	201.01	96.094	71.825	33.138	3.3292e-06	48.104	0.00046605	0.00045081	0.0001842	419.72	4.8162e-06	4.7285e-06	455.53	166.21	5.7561e-06	4.8382e-06	204.35	97.173	73.458	34.253	4.7092e-06	49.142	-55.254	-57.762	-42.037	-148.016	-5.231	-40.197	-149.040	-141.510	-113.679	-9.318	-144.468	-139.258	-137.085	-132.293	-33.408	-136.208	-8191	255	
40218.348	1	1	0	0	0.16043	0.081385	0.41456	0.10435	0.22744	0.18151	0.17392	0.13228	0.21928	0.11314	0.20545	0.11802	0.11254	0.060724	0.12675	0.12044	-4.3833	-4.0687	-4.4125	-4.4563	-4.2812	-4.8063	-4.3229	-4.2667	-4.7188	-4.2229	-4.5583	-4.5396	-4.2458	-4.7625	-4.2917	-4.3792	-99.603	135.587	53.273	-134.923	-157.044	-98.139	104.423	-138.089	-91.168	168.087	144.866	79.482	-81.069	-49.303	-82.080	121.594	0.00060719	0.00048249	0.00030123	415.87	1.7535e-06	3.2774e-06	451.48	164.9	1.7503e-06	3.2075e-06	203.5	96.439	72.823	33.298	2.0325e-06	48.565	0.00045814	0.00042534	0.0001798	420.3	4.572e-06	4.6259e-06	455.35	167.07	7.2725e-06	4.6442e-06	206.5	97.935	73.926	34.438	4.4516e-06	49.618	-55.984	-53.041	-48.148	-148.312	-65.574	6.052	-149.477	-141.737	113.050	-9.143	-144.384	-139.476	-136.933	-132.155	14.588	-135.893	-8191	255	
40218.445	1	1	0	0	0.21944	0.16933	0.12325	0.074344	0.13353	0.041301	0.24176	0.19593	0.020762	0.14109	0.34097	0.11869	0.22492	0.23611	0.19058	0.18204	-4.3625	-4.275	-4.3458	-4.5708	-4.0521	-4.6375	-4.5271	-4.4104	-4.7063	-4.1542	-4.4167	-4.6125	-4.2792	-4.6854	-4.5333	-4.3208	157.956	198.310	112.297	131.233	115.412	187.906	108.409	-116.076	-129.015	99.351	182.530	20.828	185.206	-137.299	-104.646	111.313	0.00060622	0.00061858	0.00037815	417.47	5.9193e-06	1.7532e-06	452.58	165.04	2.7034e-06	2.7979e-06	205.33	97.04	72.353	33.462	2.3892e-06	48.537	0.00044669	0.00041753	0.00018193	421.73	4.5786e-06	4.6037e-06	456.24	167.15	7.2253e-06	4.5824e-06	207.51	98.289	74.144	34.479	4.7264e-06	49.639	-58.109	-82.922	-41.869	-148.124	-25.138	-48.267	-149.719	-141.920	178.031	16.001	-144.021	-139.484	-137.018	-132.646	-10.348	-135.930	-8191	255	
40218.539	1	1	0	0	0.14793	0.04223	0.13439	0.047221	0.039243	0.08242	0.24006	0.030649	0.30861	0.1298	0.28746	0.068639	0.11402	0.28238	0.25945	0.10134	-4.4521	-4.2063	-4.4313	-4.5479	-4.1458	-4.7396	-4.6	-4.3396	-4.7292	-4.3063	-4.3771	-4.8292	-4.2208	-4.6438	-4.5104	-4.3229	-153.174	179.647	158.990	-29.888	72.980	43.274	154.534	122.583	-119.064	156.973	103.491	-104.463	104.742	184.390	161.370	147.497	0.00061115	0.00021517	0.00027328	416.08	3.4618e-06	3.0102e-06	452.3	164.55	1.3589e-06	3.7422e-06	203.14	96.578	71.893	33.146	5.957e-06	48.307	0.00045844	0.00041408	0.00014254	423.5	4.6577e-06	4.7393e-06	456.44	167.23	7.3185e-06	4.6071e-06	206.4	97.784	73.623	34.305	4.7323e-06	49.278	-52.349	-102.309	-52.987	-148.198	61.308	-25.983	-149.474	-141.922	172.280	4.554	-144.255	-139.357	-137.268	-132.585	-55.608	-136.059	-8191	255	
40218.637	1	1	0	0	0.021183	0.1076	0.087866	0.020443	0.1618	0.099965	0.13112	0.070316	0.18015	0.083499	0.11213	0.14676	0.10614	0.17384	0.064559	0.14516	-4.4792	-4.2208	-4.4271	-4.8354	-4.1583	-4.5	-4.5854	-4.2042	-4.5854	-4.4667	-4.2583	-4.75	-4.3313	-4.4812	-4.6333	-4.1687	-32.323	-128.526	-110.441	-53.372	-12.977	85.253	80.762	152.974	-20.889	-18.477	-24.821	51.498	-144.025	-134.397	139.302	99.487	0.0006105	0.00031634	0.0001217	417.95	5.7663e-06	3.3555e-06	450.74	164.34	4.6115e-06	1.6714e-06	202.87	95.57	72.005	33.105	1.6695e-06	47.755	0.00046312	0.00042228	0.00012176	424.78	4.6534e-06	4.7569e-06	455.38	166.64	7.0481e-06	4.7386e-06	205.56	97.289	73.271	34.136	4.8e-06	48.892	-55.063	-85.985	-82.952	-147.842	-21.529	-6.176	-148.983	-141.980	-123.357	-159.066	-144.409	-139.441	-136.880	-132.420	-17.552	-135.995	-8191	255	
40218.730	1	1	0	0	0.29745	0.11379	0.20891	0.2547	0.19853	0.10862	0.12839	0.08158	0.19304	0.03997	0.24452	0.081713	0.085585	0.19699	0.11007	0.1259	-4.225	-4.3729	-4.1875	-4.8708	-4.1292	-4.425	-4.4875	-3.9646	-4.5354	-4.6271	-4.2542	-4.7188	-4.2708	-4.4854	-4.6333	-4.1542	136.908	-157.511	-75.754	39.600	33.789	61.291	111.794	182.453	146.078	111.640	171.965	-85.823	65.000	-147.037	194.934	-134.125	0.00067548	0.00018804	0.00011898	416.58	3.9742e-06	4.0326e-06	453.12	163.55	1.5654e-06	1.1568e-06	201.96	95.853	71.638	32.969	3.3352e-06	47.84	0.0004622	0.00044123	0.00012389	423.59	4.7227e-06	4.8869e-06	455.27	166.31	7.3421e-06	4.8252e-06	205.13	96.934	73.072	33.97	6.1155e-06	48.893	-51.554	-75.529	-60.933	-147.899	-19.340	-31.459	-149.524	-141.926	141.357	-20.205	-144.392	-139.596	-136.951	-132.582	-89.424	-136.069	-8191	255	
40218.828	1	1	0	0	0.2265	0.30764	0.18077	0.039503	0.10009	0.10778	0.10278	0.089042	0.080721	0.027932	0.20837	0.098023	0.014514	0.17844	0.14073	0.13898	-4.2625	-4.4792	-4.1708	-4.8	-4.2646	-4.2688	-4.625	-4.0958	-4.5833	-4.4187	-4.2063	-4.7542	-4.2042	-4.2937	-4.6958	-4.1833	-114.172	34.752	57.076	-27.558	43.127	131.006	-134.562	-130.334	-81.336	-3.899	-77.998	38.486	154.413	82.555	-113.560	-125.739	0.00062166	0.00065216	0.00018783	416.12	5.5746e-06	3.673e-06	452.01	164.08	2.3885e-06	9.438e-07	201.67	95.35	71.192	32.935	8.2458e-06	47.936	0.00046646	0.00044972	0.00012894	423.78	4.814e-06	4.9751e-06	455.75	166.3	7.2137e-06	4.9327e-06	204.77	96.662	73.012	33.899	7.5204e-06	48.881	-55.931	-76.337	-24.812	-147.699	-0.360	4.829	-149.161	-141.808	184.517	-89.370	-144.194	-139.424	-136.892	-132.169	-68.289	-135.788	-8191	255	
40218.949	1	1	0	0	0.098404	0.1978	0.20344	0.1852	0.15748	0.19811	0.19866	0.077926	0.1621	0.16349	0.080492	0.06643	0.15216	0.12811	0.30735	0.18125	-4.1687	-4.4542	-4.1833	-4.8354	-4.425	-4.2229	-4.8604	-4.15	-4.4104	-4.7146	-4.1479	-4.7188	-4.3646	-4.475	-4.6833	-4.25	59.120	169.517	40.235	21.108	49.435	179.514	-128.722	-65.360	195.982	179.230	42.286	-136.184	-139.393	-126.431	-49.547	129.442	0.00063908	9.74e-05	0.00013895	417.05	8.2413e-06	4.1292e-06	449.74	164.18	9.3573e-07	4.1242e-06	201.09	95.863	71.784	32.986	5.8525e-06	47.594	0.00046397	0.00043837	0.00011954	423.5	4.5399e-06	4.7911e-06	454.25	165.99	6.9018e-06	4.7923e-06	205.05	96.74	73.273	33.9	6.9862e-06	48.801	-52.145	57.252	-47.025	-147.936	-3.203	19.950	-148.950	-141.766	78.071	-18.069	-144.366	-139.566	-137.158	-132.638	-16.111	-136.149	-8191	255	
40219.047	1	1	0	0	0.22905	0.30226	0.10169	0.095581	0.16423	0.19479	0.053208	0.17971	0.082607	0.1388	0.11218	0.12271	0.069337	0.22284	0.15758	0.02875	-4.2333	-4.6396	-4.125	-4.6521	-4.2333	-4.2021	-4.625	-4.3104	-4.2292	-4.6396	-4.1979	-4.6188	-4.7208	-4.3021	-4.6854	-4.1583	151.256	132.483	44.040	-153.235	187.604	195.025	-53.939	-119.905	183.924	-138.138	-96.013	129.919	-132.429	-122.761	86.414	61.838	0.00054477	0.00049565	0.00018059	415.71	3.7258e-06	2.444e-06	451.11	164.73	3.7387e-06	5.0638e-06	203.43	95.656	71.597	33.102	1.1016e-05	47.733	0.00044411	0.00042163	0.00011817	423.25	4.4022e-06	4.6811e-06	454.06	166.8	5.2202e-06	6.0257e-06	205.4	97.005	73.083	33.945	7.1318e-06	48.822	-53.801	-86.721	-15.460	-148.099	-65.045	32.904	-149.380	-141.976	52.956	174.194	-144.264	-139.493	-137.269	-132.356	-36.310	-136.005	-8191	255	
40219.141	1	1	0	0	0.04591	0.065673	0.072658	0.081876	0.19918	0.13496	0.070953	0.10023	0.12044	0.1659	0.01885	0.03652	0.2654	0.12733	0.15993	0.13548	-3.9583	-4.6729	-4.0167	-4.5312	-4.6333	-4.1937	-4.7792	-4.3187	-4.3438	-4.7125	-4.2937	-4.6083	-4.6771	-4.1333	-4.7167	-4.4604	138.405	-31.615	-93.151	40.445	78.873	183.790	-59.218	188.645	138.633	66.969	-102.174	66.935	199.202	110.374	184.866	-121.710	0.00059375	0.00056756	0.00011433	416.05	2.9039e-06	3.9984e-06	450.33	163.68	3.1633e-06	5.1125e-06	202.82	95.58	71.547	32.974	8.7922e-06	47.626	0.00045981	0.00043993	0.00012038	422.69	4.7985e-06	4.8288e-06	454.23	166.16	4.8284e-06	7.5645e-06	205.74	96.886	73.076	33.827	7.2559e-06	48.749	-50.797	-96.166	-98.792	-148.131	-74.022	-41.443	-149.298	-141.862	26.895	199.565	-144.401	-139.469	-137.082	-132.369	-19.065	-135.888	-8191	255	
40219.215	1	1	0	0	0.15833	0.10208	0.19406	0.33015	0.19594	0.21769	0.078001	0.091483	0.20307	0.037879	0.19561	0.20048	0.21045	0.053543	0.17114	0.12979	-3.8958	-4.7958	-4.0938	-4.5708	-4.6646	-4.0687	-4.6667	-4.3146	-4.1625	-4.9563	-4.2604	-4.5458	-4.6667	-4.1479	-4.7229	-4.5021	180.469	-94.604	62.663	-157.060	-58.323	159.926	185.292	186.964	-28.924	5.199	157.440	124.346	144.868	-155.198	86.274	102.025	0.00057628	0.0004683	0.00014019	417.06	4.0045e-06	3.3712e-06	453.18	163.74	4.9104e-06	4.7568e-06	202.75	95.335	70.986	32.923	7.9023e-06	47.602	0.00047048	0.00046229	0.00012075	422.93	4.8386e-06	5.0023e-06	454.97	166.34	4.87e-06	7.3644e-06	205.53	96.671	72.994	33.864	7.3565e-06	48.834	-51.155	-66.902	-75.569	-147.750	-17.831	-0.767	-149.239	-141.874	-28.454	-89.846	-144.798	-139.616	-137.046	-132.603	-30.431	-135.847	-8191	255	
40219.332	1	1	0	0	0.21573	0.38167	0.14382	0.38223	0.21366	0.16327	0.11244	0.16544	0.12654	0.091709	0.10152	0.097939	0.096496	0.12278	0.20458	0.092452	-3.8875	-4.7042	-4.25	-4.4521	-4.7333	-4.1771	-4.6979	-4.5917	-4.2125	-4.7896	-4.3833	-4.5375	-4.875	-4.2063	-4.5917	-4.6958	112.831	-154.670	-106.097	168.928	40.831	-56.092	64.563	-104.134	25.201	164.963	65.309	51.948	189.710	101.934	66.247	-135.187	0.00059561	0.00026719	9.8551e-06	415.58	7.4963e-06	2.3231e-06	450.62	163.94	4.6334e-06	1.6752e-06	202.64	95.793	71.503	33.037	1.0496e-05	48.175	0.00048179	0.00044628	0.00012187	421.48	6.2812e-06	4.8549e-06	455.24	166.39	4.8407e-06	7.5698e-06	205.9	97.25	73.154	33.978	7.3446e-06	49.179	-53.456	-72.485	-17.683	-147.853	75.447	17.747	-149.383	-141.838	-5.711	139.347	-144.302	-139.388	-137.048	-132.638	-18.475	-135.982	-8191	255	
40219.430	1	1	0	0	0.072069	0.21972	0.082752	0.14175	0.07812	0.22569	0.10632	0.23982	0.044025	0.048349	0.14036	0.14277	0.20493	0.081819	0.12417	0.26991	-3.8354	-4.9021	-4.3396	-4.5104	-4.7271	-4.25	-4.6208	-4.5833	-4.0146	-4.5792	-4.4958	-4.2083	-4.5833	-4.1771	-4.5083	-4.6875	164.849	-72.366	-120.219	-150.750	42.817	127.294	-21.961	-154.489	17.418	49.250	167.736	66.274	70.266	-77.602	-71.681	160.861	0.00057674	0.00039009	1.0676e-05	417.55	1.0709e-05	3.9263e-06	456.12	163.38	6.5634e-06	3.856e-06	202.68	96.464	72.114	33.178	8.7424e-06	48.113	0.00046982	0.00043721	0.00011934	422.55	7.3043e-06	4.6844e-06	458.19	166.58	4.8037e-06	7.3501e-06	206.73	97.31	73.218	33.978	7.0029e-06	49.127	-46.119	-55.928	-13.607	-147.765	40.985	-68.356	-149.417	-141.872	7.990	-123.058	-144.808	-139.462	-136.725	-132.152	6.157	-135.854	-8191	255	
40219.523	1	1	0	0	0.1424	0.25283	0.20418	0.21253	0.14678	0.094732	0.16191	0.063415	0.26782	0.24404	0.15282	0.070497	0.2121	0.037655	0.1237	0.055831	-3.7396	-4.7125	-4.2937	-4.2542	-4.6771	-4.2021	-4.4771	-4.6729	-4.1333	-4.6667	-4.6042	-4.1542	-4.7854	-4.3021	-4.4542	-4.6833	26.552	29.792	137.955	197.684	52.724	135.224	157.020	89.627	-32.494	-83.555	89.016	-16.250	-7.971	-63.972	194.207	77.064	0.00052466	0.00040372	7.902e-05	418.29	9.1619e-06	1.0314e-06	454.13	163.08	3.9351e-06	5.5491e-06	201.64	95.487	71.347	32.872	8.1071e-06	47.951	0.00046801	0.0004519	0.00012678	422.09	7.1557e-06	4.8899e-06	456.54	165.75	4.8824e-06	7.656e-06	204.97	96.522	72.827	33.787	5.6016e-06	48.973	-55.803	-67.226	-57.926	-148.019	66.085	-30.023	-149.207	-142.332	-37.616	-149.021	-144.070	-139.519	-137.482	-132.641	19.981	-135.838	-8191	255	
40219.621	1	1	0	0	0.15486	0.10721	0.11203	0.14762	0.16489	0.12595	0.25871	0.094187	0.22446	0.14401	0.10526	0.06342	0.047604	0.16243	0.33929	0.24952	-3.7604	-4.3938	-4.4458	-4.1833	-4.5167	-4.2771	-4.3438	-4.7458	-4.225	-4.4292	-4.5813	-4.1896	-4.7396	-4.2917	-4.1979	-4.6604	-5.136	153.342	-105.437	-127.399	165.911	-46.925	96.393	168.602	-96.477	-36.405	117.638	115.650	-54.427	139.824	-32.388	197.174	0.0006289	0.00055403	0.00010577	415.95	8.0908e-06	3.4395e-06	451.72	162.68	4.8401e-06	6.3324e-06	201.49	94.76	71.019	32.709	2.2481e-06	47.937	0.00046914	0.0004499	0.00012654	420.49	7.366e-06	4.961e-06	456.62	165.31	4.8404e-06	7.5665e-06	204.55	96.176	72.533	33.707	5.0133e-06	49.1	-54.690	-76.600	-87.791	-147.922	72.432	-42.268	-149.556	-141.843	-2.715	-133.227	-144.226	-139.434	-136.933	-132.241	20.883	-136.096	-8191	255	
40219.742	1	1	0	0	0.12425	0.083705	0.28059	0.15148	0.056454	0.055189	0.1824	0.18354	0.21226	0.13789	0.080255	0.084433	0.13672	0.090453	0.13441	0.14667	-3.7354	-4.55	-4.5542	-4.0208	-4.6937	-4.4563	-4.2979	-4.7792	-4.2229	-4.4187	-4.7063	-4.3042	-4.6396	-4.525	-4.1792	-4.9208	1.775	10.765	93.860	151.387	97.485	36.792	173.437	51.616	77.197	-78.867	199.910	82.377	-85.783	98.759	-116.394	-156.244	0.00056953	0.00020706	5.5738e-05	416.72	3.4974e-06	2.6363e-06	451	162.09	1.9417e-06	5.1728e-06	201.76	94.654	71.056	32.68	3.0105e-06	47.736	0.00047275	0.00045709	0.00012721	420.7	7.2631e-06	4.9791e-06	455.36	165.36	4.8315e-06	7.0729e-06	204.64	96.372	72.6	33.713	4.933e-06	49.007	-54.991	-4.511	-94.444	-148.189	87.205	11.185	-149.574	-141.930	-46.045	1.883	-144.513	-139.428	-137.229	-132.419	39.315	-136.201	-8191	255	
40219.812	1	1	0	0	0.1556	0.051846	0.14649	0.14854	0.10073	0.19516	0.1351	0.052015	0.020606	0.10799	0.05809	0.14053	0.14209	0.11017	0.10048	0.096279	-3.8854	-4.4187	-4.75	-4.1937	-4.6438	-4.7167	-4.3833	-4.7125	-3.9917	-4.5146	-4.7875	-4.0667	-4.6333	-4.6854	-3.9729	-4.6208	31.880	88.121	50.635	162.259	79.793	-30.805	-63.113	104.760	-24.898	128.642	145.052	75.240	-157.598	180.526	-128.756	-111.772	0.00061404	0.00045215	9.0833e-05	417.09	1.2191e-05	5.2576e-06	451.3	163.22	2.1069e-06	2.3984e-06	202.77	95.604	71.217	32.949	3.2075e-06	48.017	0.0004686	0.00046118	0.0001252	421.22	7.3186e-06	4.8803e-06	456.49	165.92	4.8906e-06	5.2997e-06	206.3	96.767	72.766	33.84	4.805e-06	49.31	-54.514	-62.627	-99.880	-147.907	79.453	6.158	-148.838	-141.862	29.787	-20.769	-144.255	-139.484	-136.887	-132.345	-27.029	-135.892	-8191	255	
40219.910	1	1	0	0	0.017891	0.18791	0.13407	0.17038	0.29527	0.018121	0.18868	0.24865	0.099462	0.18227	0.064555	0.22425	0.28003	0.1331	0.14675	0.12452	-4.0875	-4.3854	-4.6167	-4.1896	-4.4729	-4.6854	-4.1729	-4.7792	-4.3021	-4.3021	-4.7958	-4.3125	-4.4833	-4.8083	-4.2604	-4.8	-21.025	-13.571	153.223	146.454	-103.574	137.427	117.325	93.296	28.542	99.299	117.833	-121.414	17.639	193.788	19.391	162.739	0.00060744	0.00039553	0.00011292	417	9.6825e-07	3.4135e-06	455.72	164.45	3.9404e-06	2.6382e-06	204.39	96.049	71.877	33.088	3.0985e-06	48.32	0.00047148	0.00044791	0.00012053	421.57	7.1429e-06	4.8193e-06	458.5	166.79	4.6378e-06	4.887e-06	208.41	97.383	73.136	33.907	4.727e-06	49.478	-49.801	-97.489	-21.288	-147.745	-63.232	-31.935	-149.724	-142.067	-2.433	-74.680	-144.341	-139.390	-137.136	-132.305	-35.373	-136.022	-8191	255	
40220.031	1	1	0	0	0.043935	0.14337	0.17117	0.068128	0.091664	0.11838	0.17405	0.0090542	0.036797	0.1136	0.080041	0.14351	0.30945	0.16658	0.24126	0.20866	-4.0729	-4.3458	-4.8042	-4.2396	-4.2729	-4.6104	-4.1354	-4.5917	-4.4917	-4.1937	-4.7792	-4.2375	-4.4896	-4.7125	-4.1062	-4.6167	-34.634	140.418	-38.901	-114.590	17.962	106.526	-102.808	-95.618	-80.406	151.508	-64.220	-131.202	-84.802	101.865	98.267	157.947	0.00060086	0.00044375	8.0148e-05	416.06	1.3089e-05	1.8545e-06	454.72	164.49	6.095e-06	2.123e-06	203.46	95.142	71.229	33.046	1.9992e-06	47.947	0.00046077	0.00044006	0.00011804	421.92	6.6374e-06	4.9401e-06	457.07	166.67	4.7425e-06	4.6373e-06	208.27	96.863	72.913	33.897	4.6424e-06	49.376	-50.918	-90.272	-35.986	-148.104	49.596	45.370	-149.279	-141.367	32.799	10.943	-144.487	-139.488	-137.145	-132.441	-32.435	-135.904	-8191	255	
40220.125	1	1	0	0	0.18517	0.051275	0.23591	0.12783	0.35806	0.17755	0.12755	0.076793	0.1658	0.054187	0.19566	0.0775	0.20756	0.079246	0.12428	0.15016	-4.2812	-4.2271	-4.7104	-4.3667	-4.2875	-4.8167	-4.1979	-4.6146	-4.6813	-4.2417	-4.7	-4.3271	-4.1333	-4.7333	-4.1396	-4.6229	40.187	181.570	-136.386	-132.489	76.402	58.152	83.773	-12.729	-108.733	110.554	106.773	79.062	131.327	103.441	-124.770	-44.482	0.00059535	0.00032631	7.212e-05	417.45	5.9201e-06	1.5638e-06	450.56	164.03	2.6751e-06	3.7119e-06	203.6	96.302	71.986	32.911	1.2243e-06	48.164	0.0004548	0.00042647	0.00011663	421.54	4.8848e-06	6.5607e-06	455.18	166.66	4.6309e-06	4.7157e-06	208.37	97.392	73.363	33.868	4.5293e-06	49.429	-52.971	-81.310	-51.606	-148.091	46.617	167.834	-149.315	-141.877	-22.430	-71.553	-144.581	-139.167	-136.930	-132.512	33.862	-135.920	-8191	255	
40220.223	1	1	0	0	0.16472	0.20228	0.23522	0.15881	0.17215	0.071802	0.18625	0.033905	0.16481	0.054354	0.12162	0.05166	0.093225	0.097497	0.24995	0.23281	-4.0771	-4.1813	-4.525	-4.3146	-4.3729	-4.6062	-4.2417	-4.625	-4.5312	-4.0104	-4.6271	-4.5312	-4.1958	-4.7312	-4.3	-4.4375	152.698	156.759	-14.125	111.396	28.381	-69.922	142.103	31.004	175.058	-40.628	-156.433	-47.447	81.224	-49.334	-33.538	-148.900	0.00059232	0.00040933	3.7503e-05	419.89	6.5952e-06	6.5572e-06	453.71	165.44	1.6928e-06	1.788e-06	207.47	97.491	72.878	33.216	3.4824e-06	48.696	0.00043822	0.00040149	0.00011266	422.59	4.3497e-06	6.8355e-06	456.03	168.41	3.9334e-06	3.9632e-06	211.9	98.464	74.056	34.16	3.7214e-06	49.989	-54.808	-27.448	135.886	-148.225	4.358	113.657	-149.388	-141.747	39.374	15.984	-144.561	-139.348	-137.330	-132.481	-16.793	-135.823	-8191	255	
40220.340	1	1	0	0	0.1616	0.12147	0.1172	0.28429	0.11374	0.18832	0.1031	0.065843	0.2743	0.1054	0.03001	0.1748	0.076772	0.23158	0.29312	0.26036	-4.2562	-4.2271	-4.6	-4.4958	-4.0875	-4.6438	-4.1854	-4.4208	-4.7583	-4.0417	-4.7708	-4.725	-4.0938	-4.7729	-4.1854	-4.4396	-65.333	-122.195	-59.067	132.597	140.686	134.005	35.661	-129.596	67.198	-57.252	17.518	111.256	-60.306	182.706	133.347	-102.426	0.00059118	0.00036607	0.00015772	422.06	4.9388e-06	5.4864e-06	456.78	168.67	3.2385e-06	9.1579e-08	211.51	98.675	73.008	33.64	4.3087e-06	48.973	0.00039909	0.00032905	9.3246e-05	425.84	3.6009e-06	6.1069e-06	458.4	171.12	3.5819e-06	3.485e-06	215.85	99.737	74.59	34.452	3.6046e-06	50.058	-54.933	-100.405	-82.713	-148.024	13.599	90.312	-149.039	-141.966	-16.362	12.953	-144.026	-139.555	-137.416	-132.197	-22.779	-135.887	-8191	255	
40220.438	1	1	0	0	0.086282	0.46111	0.18216	0.044183	0.10356	0.086807	0.21623	0.24383	0.11135	0.27741	0.22582	0.32241	0.050218	0.26995	0.14578	0.17043	-4.3729	-4.1562	-4.6375	-4.6312	-4.2146	-4.6583	-4.2208	-4.2792	-4.8208	-4.1438	-4.4583	-4.6021	-4.3187	-4.8354	-4.2854	-4.1729	-95.135	-100.298	-61.615	-27.169	-0.435	-137.669	-151.870	-131.018	-99.616	114.360	119.655	69.528	37.505	-82.889	104.464	-26.109	0.00065162	0.00037849	0.00012002	423.06	3.6582e-06	3.9429e-06	458.63	167.93	2.2503e-06	2.5822e-06	210.47	97.171	73.083	33.38	4.1917e-06	48.666	0.00054428	0.00034457	9.6742e-05	425.56	3.7363e-06	6.4885e-06	459.71	170.29	3.8498e-06	4.0043e-06	213.83	98.651	74.246	34.256	4.0565e-06	49.73	-57.107	-94.737	-55.349	-147.820	4.817	119.077	-149.270	-141.820	-42.094	-19.380	-144.155	-139.359	-136.997	-132.251	-10.434	-135.745	-8191	255	
40220.508	1	1	0	0	0.017985	0.15377	0.16251	0.15354	0.26836	0.39328	0.07386	0.19524	0.084489	0.079909	0.03873	0.040513	0.14504	0.1921	0.061337	0.18115	-4.3187	-4.0667	-4.5333	-4.8354	-4.0437	-4.7271	-4.5521	-4.125	-4.7896	-4.2917	-4.4646	-4.7583	-4.1667	-4.7292	-4.3771	-4.3396	100.274	-77.842	144.869	-106.416	-124.780	169.487	74.946	18.006	126.347	-76.106	53.093	49.945	123.580	-156.304	-111.028	-141.476	0.00049905	0.00036328	8.8778e-05	424.95	5.469e-06	2.9113e-06	461.48	166.61	3.8016e-06	2.3519e-06	206.86	95.749	71.488	32.876	1.8112e-06	47.888	0.00061203	0.00037031	0.00010506	429.33	3.8609e-06	6.5823e-06	465.71	169.23	3.8562e-06	3.9397e-06	209.63	97.05	72.721	33.763	3.8499e-06	48.881	-43.031	-93.615	-92.000	-147.942	-11.704	-87.124	-149.298	-141.775	25.023	-13.447	-144.809	-139.312	-137.145	-132.334	16.476	-136.223	-8191	255	
40220.605	1	1	0	0	0.1188	0.17627	0.020147	0.079335	0.05795	0.20086	0.20601	0.022077	0.22434	0.18564	0.15126	0.1783	0.072836	0.099915	0.15235	0.010476	-4.3042	-4.1583	-4.375	-4.6708	-4.1312	-4.65	-4.5021	-4.1937	-4.8292	-4.3104	-4.175	-4.8854	-4.1687	-4.6229	-4.5208	-4.2562	-79.366	195.843	153.335	32.178	-158.905	-96.169	140.094	193.994	-131.663	102.110	89.216	113.444	-94.526	-11.056	135.485	-103.898	0.00056345	0.00038618	5.5226e-05	427.27	5.1951e-06	3.1985e-06	465.03	165.71	3.3961e-06	3.163e-06	202.69	94.277	70.779	32.506	1.7214e-06	47.565	0.00056796	0.00034763	9.6902e-05	431.08	3.606e-06	6.2096e-06	468.85	168.37	3.6557e-06	3.7596e-06	205.69	95.633	71.681	33.319	3.9184e-06	48.313	-48.569	-52.614	-149.542	-147.979	9.815	76.333	-149.102	-141.918	-12.312	-2.269	-144.353	-139.702	-137.095	-132.493	-40.296	-136.118	-8191	255	
40220.727	1	1	0	0	0.23326	0.13032	0.2001	0.22113	0.33548	0.18213	0.15025	0.044582	0.073497	0.15804	0.28328	0.17602	0.17341	0.32658	0.078702	0.19827	-4.4479	-4.3542	-4.2958	-4.7708	-4.1333	-4.5	-4.5646	-4.0792	-4.8729	-4.4521	-4.2833	-4.7604	-4.2083	-4.3688	-4.6125	-4.1438	-74.384	-77.672	85.120	160.655	-146.157	186.805	-49.282	191.685	-135.429	137.840	-75.265	106.715	90.148	167.086	-115.210	113.641	0.00050523	0.00031058	3.6181e-05	422.58	4.2542e-06	2.7114e-06	466.83	164.52	3.1742e-06	2.666e-06	201.69	93.014	70.115	32.25	3.4747e-06	47.28	0.0005913	0.00036047	9.9911e-05	427.43	3.8985e-06	6.4412e-06	468.02	166.71	3.912e-06	4.0676e-06	204.53	95.18	71.495	33.193	3.9023e-06	48.314	-45.142	-37.134	-15.164	-148.314	2.691	-96.298	-149.464	-141.962	-9.986	3.291	-144.698	-138.999	-136.747	-132.477	-20.145	-135.645	-8191	255	
40220.820	1	1	0	0	0.11144	0.19187	0.093182	0.17243	0.10799	0.077007	0.10626	0.21541	0.25328	0.10366	0.29363	0.21336	0.058412	0.15787	0.1307	0.1079	-4.425	-4.3771	-4.2833	-4.8917	-4.3208	-4.3729	-4.6292	-4.1896	-4.6458	-4.4437	-4.2958	-4.7812	-4.2583	-4.4938	-4.7083	-4.2104	95.707	159.792	-93.156	-147.149	-121.647	-20.378	-2.062	115.209	197.914	137.655	-151.531	27.146	-117.470	-62.165	175.991	146.613	0.00054887	0.00052283	7.928e-05	423.35	5.979e-06	4.3558e-06	462.1	165.4	3.6168e-06	4.1909e-06	203.24	94.286	70.335	32.496	3.3079e-06	47.576	0.00057897	0.00034932	9.8673e-05	427.3	3.7369e-06	5.4688e-06	467	166.82	3.6749e-06	3.7593e-06	205.8	96.1	71.449	33.346	3.4831e-06	48.469	-46.089	-40.697	-62.916	-147.846	-18.845	19.791	-149.353	-141.951	20.908	-12.412	-144.586	-139.520	-137.151	-132.297	-6.802	-135.957	-8191	255	
40220.918	1	1	0	0	0.10852	0.10166	0.15243	0.047081	0.13716	0.10394	0.13748	0.24609	0.15744	0.12972	0.15781	0.25662	0.10971	0.34441	0.052622	0.065001	-4.2875	-4.5625	-4.075	-4.7271	-4.2063	-4.2917	-4.8042	-4.1146	-4.6021	-4.5917	-4.1958	-4.6708	-4.2917	-4.2562	-4.6062	-4.1896	-65.495	-119.544	-115.059	22.053	178.523	-4.922	95.154	140.283	8.585	-147.516	-45.721	59.699	-24.614	138.512	175.942	80.761	0.00047008	0.0007259	8.6679e-05	424.65	2.361e-06	2.4158e-06	464.63	165.83	3.6456e-06	2.4088e-07	206.39	95.179	70.888	32.645	4.9496e-06	47.879	0.00057213	0.00032228	8.6934e-05	428.01	3.4888e-06	3.4909e-06	468.66	167.86	3.4212e-06	3.4093e-06	207.93	96.666	71.831	33.518	3.2381e-06	48.855	-51.907	-47.422	-53.180	-148.112	-1.555	-9.483	-149.361	-141.972	-16.008	-25.819	-144.339	-139.073	-137.157	-132.205	-4.931	-135.962	-8191	255	
40221.016	1	1	0	0	0.088298	0.12017	0.077968	0.16416	0.18638	0.080447	0.19954	0.066677	0.1057	0.15662	0.19647	0.064878	0.24411	0.20586	0.18437	0.15905	-4.2583	-4.5229	-4.2729	-4.7729	-4.5896	-4.2688	-4.7063	-4.2042	-4.4604	-4.6375	-4.0437	-4.6708	-4.5938	-4.2771	-4.9313	-4.2104	-152.943	156.316	-72.396	-158.143	93.158	-93.890	80.752	91.928	47.426	71.757	113.120	194.849	-111.331	167.435	-6.422	52.435	0.00053606	0.0002365	0.00016871	426	7.27e-06	3.8195e-06	465.78	165.88	2.1398e-06	3.8729e-06	205.6	94.728	70.086	32.61	3.1425e-06	47.434	0.00053757	0.00029106	8.3029e-05	429.23	3.3112e-06	3.2641e-06	468.38	168.06	3.4168e-06	3.4272e-06	207.64	96.33	71.662	33.402	3.5617e-06	48.483	-51.391	-70.282	-68.847	-148.064	-9.423	-25.632	-149.484	-141.815	-8.671	-29.171	-144.362	-139.599	-136.934	-132.493	-10.243	-135.633	-8191	255	
40221.109	1	1	0	0	0.17571	0.22618	0.091645	0.13205	0.24574	0.11654	0.066476	0.21565	0.12328	0.28309	0.21781	0.12085	0.11434	0.13659	0.053431	0.19408	-4.15	-4.6771	-3.9646	-4.5792	-4.5458	-4.2125	-4.8958	-4.3604	-4.3521	-4.8167	-4.4125	-4.9083	-4.5583	-4.1354	-4.9021	-4.4104	-158.611	-134.177	-14.937	82.283	13.671	-146.781	-67.552	-144.392	12.375	89.016	-159.390	65.603	99.146	55.105	138.360	133.099	0.00049777	0.00015219	0.00011396	424.31	4.6972e-06	2.8511e-06	464.04	165.32	3.7876e-06	5.9732e-07	204.26	93.97	69.804	32.244	4.2877e-06	47.028	0.00049116	0.000401	9.0598e-05	428.56	3.6644e-06	3.7454e-06	468.45	167.58	3.7938e-06	3.6572e-06	205.99	95.68	71.427	33.093	3.9579e-06	48.017	-43.208	12.375	-86.551	-148.339	4.410	-2.604	-148.974	-141.926	-4.504	-60.470	-144.431	-139.208	-137.080	-132.701	-37.253	-136.013	-8191	255	
40221.207	1	1	0	0	0.070661	0.25341	0.09207	0.041257	0.22367	0.097576	0.13904	0.16621	0.22687	0.034814	0.094286	0.1167	0.10502	0.29121	0.051651	0.28137	-4.0271	-4.7438	-4.1479	-4.7833	-4.7417	-4.2708	-4.85	-4.3458	-4.3125	-4.7375	-4.1833	-4.6562	-4.7167	-4.1542	-4.575	-4.5458	-146.196	-39.800	-120.106	8.435	119.131	13.951	46.588	146.272	-152.904	39.616	19.106	153.252	93.478	158.461	-134.384	182.290	0.00061169	0.00023909	7.7712e-05	423.59	2.7671e-06	2.9071e-06	465.67	163.35	5.0082e-06	4.265e-06	201.13	92.848	68.894	31.812	1.847e-06	46.926	0.00041704	0.00055705	0.000105	427.79	4.1652e-06	4.1969e-06	470.42	165.63	4.3941e-06	4.3605e-06	203.47	94.364	70.433	32.746	4.4106e-06	47.692	-51.841	-17.628	-104.492	-148.110	-11.731	24.011	-149.346	-142.078	28.251	36.023	-144.594	-139.116	-136.988	-132.295	15.249	-135.699	-8191	255	
40221.301	1	1	0	0	0.22703	0.08583	0.037068	0.067174	0.23018	0.34866	0.10098	0.10052	0.13886	0.10786	0.040302	0.13268	0.25026	0.073893	0.10327	0.19545	-4.0583	-4.8458	-4.0917	-4.5854	-4.6917	-4.1667	-4.7063	-4.4042	-4.1604	-4.7812	-4.3396	-4.3979	-4.7375	-4.3021	-4.5604	-4.6937	190.037	24.513	-42.090	67.384	70.138	178.244	153.398	98.081	97.510	-77.712	-13.903	-65.142	184.902	53.489	115.631	-140.328	0.0005959	0.00041449	6.853e-05	422.59	8.4032e-06	2.9933e-06	461.67	162.38	3.8732e-06	2.0053e-06	200.76	91.804	68.74	31.656	3.3916e-06	46.564	0.0004161	0.00061618	0.00011011	426.38	4.2173e-06	4.2878e-06	468.62	164.73	4.2778e-06	4.3165e-06	203.01	93.492	70.388	32.507	4.5489e-06	47.42	-54.519	-38.473	-72.528	-148.410	-40.090	-21.644	-149.368	-142.418	3.011	-57.145	-144.639	-139.010	-137.209	-132.253	-70.748	-135.686	-8191	255	
40221.422	1	1	0	0	0.070299	0.021971	0.13273	0.21615	0.10213	0.082033	0.23424	0.23536	0.18286	0.043732	0.19854	0.08568	0.053599	0.17739	0.16537	0.1551	-3.8625	-4.8458	-4.3833	-4.3	-4.7771	-4.1083	-4.5104	-4.6625	-4.3771	-4.7771	-4.3479	-4.3542	-4.7958	-4.1708	-4.6062	-4.5708	-110.760	59.211	-117.983	118.541	87.564	-151.084	77.878	-58.439	155.821	-81.836	124.279	194.517	-101.111	-113.359	-143.083	183.241	0.00057481	0.00046453	0.00012936	419.54	5.853e-06	3.0849e-06	462.89	162.45	3.1389e-06	3.2738e-06	201.02	92.142	69.27	31.731	3.522e-06	46.722	0.00043014	0.00062402	0.00011285	424.29	4.1872e-06	4.2613e-06	467.51	164.78	4.0735e-06	4.1952e-06	203.38	93.715	70.886	32.668	4.1897e-06	47.772	-54.983	-14.591	-51.010	-148.083	2.842	-7.578	-149.474	-141.974	26.845	-26.214	-144.457	-139.179	-137.119	-132.455	4.091	-135.795	-8191	255	
40221.516	1	1	0	0	0.27618	0.099237	0.12945	0.21739	0.28442	0.14532	0.34131	0.041704	0.24657	0.20679	0.23994	0.063261	0.1073	0.059593	0.13305	0.1048	-3.8521	-4.675	-4.3354	-4.3646	-4.7854	-4.3562	-4.4646	-4.6896	-4.1687	-4.7396	-4.5687	-4.4396	-4.8313	-4.3562	-4.4187	-4.8438	140.295	140.586	117.430	194.838	36.320	116.260	49.219	-69.020	5.083	-19.220	92.629	169.722	148.475	-44.536	-60.123	116.554	0.00058477	0.0009066	6.9044e-05	418.6	4.468e-06	1.8237e-06	458.37	162.83	2.8884e-06	2.9315e-06	201.98	93.158	69.364	31.965	3.2356e-06	46.951	0.00040819	0.00061223	0.00010585	423.33	3.8911e-06	4.1812e-06	464.94	165.22	4.0137e-06	4.0395e-06	204.4	94.199	71.365	32.845	4.0804e-06	47.837	-54.426	0.642	-34.971	-148.207	-54.786	1.251	-148.979	-141.747	39.092	-26.656	-144.221	-139.382	-137.536	-132.236	-73.943	-135.987	-8191	255	
40221.613	1	1	0	0	0.12231	0.041508	0.11662	0.32479	0.21067	0.19311	0.14721	0.10809	0.18281	0.1281	0.0959	0.19854	0.22135	0.11057	0.16166	0.15632	-3.9167	-4.7667	-4.5958	-4.2083	-4.6813	-4.2083	-4.5396	-4.6021	-4.0375	-4.4583	-4.5167	-4.1312	-4.8479	-4.3708	-4.175	-4.7896	151.571	-77.810	-27.118	86.644	118.591	-105.046	192.124	148.307	45.499	-159.325	145.080	93.923	108.682	-78.828	-37.271	169.759	0.00059105	0.00050347	9.5895e-05	419.89	7.1834e-06	3.3986e-06	456.22	164.67	3.3931e-06	7.1892e-06	202.64	93.687	69.843	32.03	5.3818e-06	47.075	0.000398	0.00060056	0.0001034	422.81	3.9015e-06	4.0778e-06	460.48	166.55	3.9579e-06	4.0372e-06	205.71	94.854	71.724	32.998	3.9496e-06	48.075	-52.553	12.493	-45.943	-147.951	-6.937	-20.959	-149.031	-142.309	-1.522	-28.265	-144.653	-139.486	-137.170	-132.443	-34.120	-135.694	-8191	255	
40221.711	1	1	0	0	0.15861	0.089704	0.18725	0.059644	0.14684	0.26973	0.16015	0.23038	0.14274	0.10052	0.30771	0.16041	0.030892	0.33618	0.15828	0.081436	-3.775	-4.5083	-4.55	-4.2583	-4.6896	-4.3479	-4.1958	-4.8333	-4.2833	-4.9354	-4.625	-4.1271	-4.7646	-4.3708	-4.3854	-4.8438	-13.239	24.525	-108.433	47.783	29.901	-62.035	121.684	154.582	196.951	126.302	87.937	-36.536	-115.764	169.986	-38.065	-62.430	0.00061842	0.00033661	7.2494e-05	419.74	5.904e-06	4.7241e-06	457	164.12	4.2286e-06	3.8861e-06	203.47	93.858	70.154	32.213	4.5456e-06	47.238	0.00039821	0.00061303	0.00010158	423.13	3.9943e-06	4.0884e-06	458.59	166.99	4.1887e-06	4.2917e-06	205.89	95.23	72.066	33.067	4.0872e-06	48.177	-56.351	33.588	-88.913	-147.981	-4.110	-19.201	-149.354	-142.089	13.856	-30.320	-144.445	-139.210	-136.959	-132.375	-16.958	-135.992	-8191	255	
40221.805	1	1	0	0	0.27638	0.092149	0.12395	0.24594	0.020402	0.22601	0.080718	0.25742	0.074174	0.35123	0.16009	0.14461	0.16985	0.10548	0.11362	0.1282	-3.8937	-4.4083	-4.5292	-4.1021	-4.5917	-4.4354	-4.2271	-4.9042	-4.2646	-4.4437	-4.6833	-4.1562	-4.6583	-4.4667	-4.0958	-4.6792	67.839	43.404	47.346	-125.289	124.894	118.099	-67.830	117.075	13.499	187.202	164.043	146.049	143.931	90.770	170.308	-107.228	0.00052193	0.00073769	0.00014038	419.75	2.605e-06	3.3111e-06	456.91	164.04	4.6221e-06	6.3748e-06	206.28	94.166	70.524	32.11	3.5039e-06	47.195	0.0004215	0.00062947	0.00010456	423.37	4.1828e-06	4.2403e-06	459.3	167.11	4.2514e-06	4.2179e-06	206.65	95.355	72.216	33.072	4.0849e-06	48.306	-54.001	-2.528	-46.154	-147.705	-5.777	20.279	-149.328	-141.914	29.030	-37.876	-144.391	-138.948	-136.875	-132.273	-34.406	-136.019	-8191	255	
40221.902	1	1	0	0	0.14223	0.032806	0.23099	0.05722	0.16998	0.063169	0.17274	0.31449	0.16442	0.10447	0.21041	0.28185	0.16681	0.15144	0.049481	0.091421	-3.7562	-4.4229	-4.6062	-4.0833	-4.6104	-4.4458	-4.0833	-4.8167	-4.2833	-4.2771	-4.6875	-4.2667	-4.6083	-4.6667	-4.2	-4.8521	-20.198	-62.793	8.415	-152.183	133.172	-79.322	106.586	136.263	153.340	42.731	156.314	146.158	-152.369	-139.060	99.642	192.148	0.00058126	0.00050321	0.00011822	419.23	4.405e-06	2.0732e-06	454.82	164.45	5.4463e-06	4.8069e-06	202.94	93.674	70.027	32.179	2.789e-06	46.841	0.0004204	0.00048353	0.00013123	423.44	4.2426e-06	4.2285e-06	460.17	166.93	4.2628e-06	4.1995e-06	205.93	95.147	71.926	32.975	4.2218e-06	48.012	-53.315	0.025	139.374	-148.213	-56.024	-21.374	-149.378	-141.962	-13.699	2.344	-144.432	-139.568	-137.069	-132.276	27.904	-136.280	-8191	255	
40222.023	1	1	0	0	0.32161	0.10762	0.21808	0.18277	0.36403	0.060312	0.075251	0.1096	0.14538	0.028564	0.18147	0.15285	0.16599	0.19346	0.10436	0.17555	-3.9625	-4.2688	-4.7	-4.2521	-4.4458	-4.7083	-4.1917	-4.5813	-4.3896	-4.3354	-4.7229	-4.2604	-4.6875	-4.7104	-4.1958	-4.7167	138.651	-54.340	129.894	142.048	-98.181	-40.861	121.847	41.780	124.244	-118.957	-145.810	35.458	-25.925	-92.995	76.753	198.708	0.00063242	0.00049824	0.00011216	416.84	5.0043e-06	2.3724e-06	457.63	162.6	4.5232e-06	4.3005e-06	202.08	93.494	69.354	31.953	3.0788e-06	46.775	0.0004344	0.00040362	0.00016793	422.35	4.3268e-06	4.2739e-06	459.4	165.97	4.3438e-06	4.4111e-06	204.44	94.647	71.445	32.832	4.3763e-06	47.735	-49.927	-81.443	19.852	-148.168	-19.515	-42.884	-149.333	-142.181	3.863	-32.713	-144.161	-139.154	-136.744	-132.392	42.637	-135.616	-8191	255	
40222.117	1	1	0	0	0.10643	0.2221	0.17989	0.19149	0.19879	0.089338	0.17777	0.10072	0.079936	0.20943	0.14142	0.091511	0.089015	0.14375	0.22725	0.16795	-4.0875	-4.1562	-4.5521	-4.3479	-4.5208	-4.6188	-4.0292	-4.6875	-4.3458	-4.175	-4.95	-4.2583	-4.4417	-4.6917	-4.0104	-4.6354	-102.318	115.453	187.508	-42.428	-76.514	-15.350	122.034	141.342	89.400	30.586	109.865	159.747	38.700	182.066	-36.006	129.797	0.00052382	0.00048686	0.00011743	416.13	6.7577e-06	3.7421e-06	455.28	162.55	4.9829e-06	1.7072e-06	201.32	93.039	69.303	31.925	5.7695e-06	46.846	0.00042185	0.0003994	0.00017476	422.33	4.336e-06	4.293e-06	458.11	165.8	4.3119e-06	4.3909e-06	203.99	94.437	71.127	32.847	4.4993e-06	47.73	-48.546	-87.492	47.835	-147.948	-8.829	-85.796	-149.545	-141.792	25.764	-50.336	-144.593	-139.568	-137.000	-132.654	-14.673	-135.844	-8191	255	
40222.215	1	1	0	0	0.13382	0.14208	0.28995	0.055291	0.078414	0.13648	0.13096	0.12696	0.15715	0.19398	0.22926	0.19125	0.022967	0.073783	0.28648	0.30227	-4.2542	-4.1375	-4.7625	-4.3375	-4.4292	-4.7396	-4.1917	-4.6813	-4.7083	-4.1729	-4.8708	-4.4688	-4.2771	-4.725	-4.2542	-4.7458	29.324	-92.155	10.610	-100.619	131.856	160.607	153.141	190.144	-111.603	42.312	166.828	135.269	-133.316	-107.873	167.622	-158.775	0.00059592	0.0003243	0.0001613	418.18	3.6496e-06	5.1079e-06	454.6	162.11	3.974e-06	2.7228e-06	200.88	92.777	68.952	31.828	5.0019e-06	46.652	0.00042773	0.00039099	0.00017626	422.7	4.2899e-06	4.2695e-06	458.29	165.68	4.3438e-06	4.5219e-06	204	94.396	70.749	32.871	4.5682e-06	47.763	-53.947	-77.518	55.867	-147.908	-7.876	-22.091	-149.445	-142.008	24.896	-16.784	-144.379	-139.579	-137.049	-132.266	-16.790	-135.896	-8191	255	
40222.309	1	1	0	0	0.13495	0.18585	0.11874	0.014888	0.11862	0.11666	0.18665	0.2375	0.031404	0.14947	0.091439	0.061929	0.069687	0.18096	0.057815	0.21672	-4.2042	-4.075	-4.4792	-4.4187	-4.3688	-4.6021	-4.2875	-4.5104	-4.6417	-3.9979	-4.7438	-4.2438	-4.2667	-4.8042	-4.1146	-4.475	117.711	-36.165	56.688	-117.956	56.928	-86.677	118.765	157.176	59.417	36.460	9.786	109.416	122.541	75.950	114.856	6.586	0.00061596	0.00026228	0.00018427	417.94	6.4168e-06	4.7496e-06	454.25	162.75	4.3845e-06	4.1928e-06	201.31	93.153	69.478	31.931	3.1378e-06	46.944	0.00043482	0.00041938	0.00018272	422.13	4.4398e-06	4.6106e-06	458.36	165.85	4.4534e-06	4.5956e-06	204.32	94.731	70.83	32.978	4.6022e-06	47.949	-53.103	-87.176	45.920	-147.934	-16.690	-34.350	-149.271	-141.953	-26.128	3.718	-144.073	-139.610	-136.950	-132.502	-58.307	-136.061	-8191	255	
40222.406	1	1	0	0	0.15788	0.024786	0.06967	0.19975	0.10507	0.058261	0.045946	0.089982	0.10025	0.061155	0.12587	0.15731	0.15588	0.10404	0.11082	0.09533	-4.2646	-4.1167	-4.5979	-4.6	-4.3458	-4.7917	-4.3979	-4.3438	-4.6042	-4.0729	-4.6813	-4.3729	-4.1021	-4.7	-4.1458	-4.3375	79.702	65.970	109.788	115.012	164.490	-118.302	-38.888	113.837	-7.248	-43.946	170.652	123.369	-85.621	199.044	119.161	5.673	0.00060813	0.00037671	6.0658e-05	416.83	3.8099e-06	3.4968e-06	455.1	162.53	7.3334e-06	5.6892e-06	202.78	93.742	69.242	31.809	5.9534e-06	46.792	0.00044198	0.00042027	0.00018226	421.73	4.3703e-06	4.6271e-06	458.28	165.31	5.7055e-06	4.5463e-06	205.61	94.87	70.954	32.926	4.6297e-06	47.839	-55.812	-101.658	-134.777	-147.950	9.924	-31.174	-149.233	-141.912	-14.742	-39.442	-144.331	-139.504	-137.101	-132.395	1.029	-135.932	-8191	255	
#DATA ENDS
