BOXY.EXE: ISS Imagent and Oximeter Data Acquisition Program Version 0.80
Ascii Record File

#ACQ INFORMATION
2  Detector Channels 
16  External MUX Channels 
1  Auxiliary Channels 
5000  Waveform (CCF) Frequency (Hz)
1  Waveforms Skipped 
30  Waveforms Averaged 
1  Cycles Averaged 
16  Acquisitions per Waveform 
10.0806  Updata Rate (Hz) 

#FILE INFORMATION
TRUE -- External MUX Channel results are PARSED.
FALSE -- AC DC and Phase are NOT grouped.
TRUE -- Companion Program Settings File CREATED.
FALSE -- AC data not excluded
FALSE -- DC data not excluded
FALSE -- Phase data not excluded
FALSE -- Auxillary Chn. data not excluded
Tab delimiters

#CALIBRATION STATE
TRUE -- Waveform Calibration Values APPLIED.


#AUX CALIBRATION VALUES
Val Type	aux-1	

Term	1.0000e+00	
Factor	0.0000e+00	


#WF CALIBRATION VALUES
A = Detector Channel
Val Type	A-AC1	A-AC2	A-AC3	A-AC4	A-AC5	A-AC6	A-AC7	A-AC8	A-AC9	A-AC10	A-AC11	A-AC12	A-AC13	A-AC14	A-AC15	A-AC16	A-DC1	A-DC2	A-DC3	A-DC4	A-DC5	A-DC6	A-DC7	A-DC8	A-DC9	A-DC10	A-DC11	A-DC12	A-DC13	A-DC14	A-DC15	A-DC16	A-Ph1	A-Ph2	A-Ph3	A-Ph4	A-Ph5	A-Ph6	A-Ph7	A-Ph8	A-Ph9	A-Ph10	A-Ph11	A-Ph12	A-Ph13	A-Ph14	A-Ph15	A-Ph16	

Term	0.00000e+00	0.00000e+00	0.00000e+00	0.00000e+00	0.00000e+00	0.00000e+00	0.00000e+00	0.00000e+00	0.00000e+00	0.00000e+00	0.00000e+00	0.00000e+00	0.00000e+00	0.00000e+00	0.00000e+00	0.00000e+00	0.00000e+00	0.00000e+00	0.00000e+00	0.00000e+00	0.00000e+00	0.00000e+00	0.00000e+00	0.00000e+00	0.00000e+00	0.00000e+00	0.00000e+00	0.00000e+00	0.00000e+00	0.00000e+00	0.00000e+00	0.00000e+00	0.00000e+00	0.00000e+00	0.00000e+00	0.00000e+00	0.00000e+00	0.00000e+00	0.00000e+00	0.00000e+00	0.00000e+00	0.00000e+00	0.00000e+00	0.00000e+00	0.00000e+00	0.00000e+00	0.00000e+00	0.00000e+00	
Factor	1.00000e+00	1.00000e+00	1.00000e+00	1.00000e+00	1.00000e+00	1.00000e+00	1.00000e+00	1.00000e+00	1.00000e+00	1.00000e+00	1.00000e+00	1.00000e+00	1.00000e+00	1.00000e+00	1.00000e+00	1.00000e+00	1.00000e+00	1.00000e+00	1.00000e+00	1.00000e+00	1.00000e+00	1.00000e+00	1.00000e+00	1.00000e+00	1.00000e+00	1.00000e+00	1.00000e+00	1.00000e+00	1.00000e+00	1.00000e+00	1.00000e+00	1.00000e+00	X	X	X	X	X	X	X	X	X	X	X	X	X	X	X	X	

B = Detector Channel
Val Type	B-AC1	B-AC2	B-AC3	B-AC4	B-AC5	B-AC6	B-AC7	B-AC8	B-AC9	B-AC10	B-AC11	B-AC12	B-AC13	B-AC14	B-AC15	B-AC16	B-DC1	B-DC2	B-DC3	B-DC4	B-DC5	B-DC6	B-DC7	B-DC8	B-DC9	B-DC10	B-DC11	B-DC12	B-DC13	B-DC14	B-DC15	B-DC16	B-Ph1	B-Ph2	B-Ph3	B-Ph4	B-Ph5	B-Ph6	B-Ph7	B-Ph8	B-Ph9	B-Ph10	B-Ph11	B-Ph12	B-Ph13	B-Ph14	B-Ph15	B-Ph16	

Term	0.00000e+00	0.00000e+00	0.00000e+00	0.00000e+00	0.00000e+00	0.00000e+00	0.00000e+00	0.00000e+00	0.00000e+00	0.00000e+00	0.00000e+00	0.00000e+00	0.00000e+00	0.00000e+00	0.00000e+00	0.00000e+00	0.00000e+00	0.00000e+00	0.00000e+00	0.00000e+00	0.00000e+00	0.00000e+00	0.00000e+00	0.00000e+00	0.00000e+00	0.00000e+00	0.00000e+00	0.00000e+00	0.00000e+00	0.00000e+00	0.00000e+00	0.00000e+00	-2.21930e+01	-1.30555e+02	-1.19593e+02	-1.81765e+02	-6.15087e+01	-6.84839e+01	-1.57216e+02	-1.62015e+02	-2.86346e+01	-6.79659e+01	-1.71050e+02	-1.71975e+02	-1.82255e+02	-1.76979e+02	-5.58940e+01	-1.49379e+02	
Factor	2.76929e-05	1.60331e-04	5.43878e-05	1.45372e-01	2.66852e-06	1.64523e-06	1.64428e-01	5.20594e-02	1.55519e-06	1.78831e-06	8.49940e-02	3.51328e-02	3.64614e-02	9.18147e-03	1.78014e-06	1.30177e-02	5.70160e-06	6.72933e-06	1.86889e-06	7.47343e-02	7.13936e-08	7.39673e-08	7.93960e-02	2.67438e-02	7.14214e-08	7.41394e-08	4.25018e-02	1.75270e-02	1.88403e-02	4.76276e-03	7.22786e-08	6.54405e-03	X	X	X	X	X	X	X	X	X	X	X	X	X	X	X	X	



#DISTANCE SETTINGS
A = Detector Channel
A-1	A-2	A-3	A-4	A-5	A-6	A-7	A-8	A-9	A-10	A-11	A-12	A-13	A-14	A-15	A-16	

2.5000e+00	3.0000e+00	2.5000e+00	3.0000e+00	2.0000e+00	3.0000e+00	1.5000e+00	3.0000e+00	3.0000e+00	3.0000e+00	3.0000e+00	3.0000e+00	3.0000e+00	3.0000e+00	1.5000e+00	3.0000e+00	

B = Detector Channel
B-1	B-2	B-3	B-4	B-5	B-6	B-7	B-8	B-9	B-10	B-11	B-12	B-13	B-14	B-15	B-16	

1.0000e+01	1.0000e+01	1.0000e+01	1.4400e+00	1.0000e+01	1.0000e+01	1.5100e+00	1.9400e+00	1.0000e+01	1.0000e+01	1.9900e+00	2.4900e+00	2.4100e+00	2.9000e+00	1.0000e+01	2.9800e+00	




#DATA BEGINS
time	group	step	mark	flag	A-AC1	A-AC2	A-AC3	A-AC4	A-AC5	A-AC6	A-AC7	A-AC8	A-AC9	A-AC10	A-AC11	A-AC12	A-AC13	A-AC14	A-AC15	A-AC16	A-DC1	A-DC2	A-DC3	A-DC4	A-DC5	A-DC6	A-DC7	A-DC8	A-DC9	A-DC10	A-DC11	A-DC12	A-DC13	A-DC14	A-DC15	A-DC16	A-Ph1	A-Ph2	A-Ph3	A-Ph4	A-Ph5	A-Ph6	A-Ph7	A-Ph8	A-Ph9	A-Ph10	A-Ph11	A-Ph12	A-Ph13	A-Ph14	A-Ph15	A-Ph16	B-AC1	B-AC2	B-AC3	B-AC4	B-AC5	B-AC6	B-AC7	B-AC8	B-AC9	B-AC10	B-AC11	B-AC12	B-AC13	B-AC14	B-AC15	B-AC16	B-DC1	B-DC2	B-DC3	B-DC4	B-DC5	B-DC6	B-DC7	B-DC8	B-DC9	B-DC10	B-DC11	B-DC12	B-DC13	B-DC14	B-DC15	B-DC16	B-Ph1	B-Ph2	B-Ph3	B-Ph4	B-Ph5	B-Ph6	B-Ph7	B-Ph8	B-Ph9	B-Ph10	B-Ph11	B-Ph12	B-Ph13	B-Ph14	B-Ph15	B-Ph16	aux-1	digaux	

39851.316	1	1	0	768	0.14956	0.16465	0.16661	0.13322	0.13468	0.069964	0.22035	0.18428	0.19871	0.07925	0.19412	0.18869	0.088304	0.15139	0.085501	0.17656	-4.325	-4.3771	-4.3667	-4.7937	-4.0875	-4.3604	-4.7375	-4.1271	-4.4292	-4.5062	-4.2875	-4.7312	-4.3771	-4.4833	-4.7292	-4.3104	313.744	164.060	266.927	404.374	491.531	273.959	450.090	405.921	357.552	383.480	168.766	438.840	168.727	478.631	383.360	188.169	0.00074414	0.00055448	0.0001571	926.24	1.4239e-05	2.4552e-06	820.57	346.09	7.5574e-06	5.0225e-06	321.98	119.28	120.33	43.193	7.2853e-06	46.533	0.00029266	0.00022238	6.4695e-05	928.92	2.606e-06	2.4358e-06	816.51	346.66	2.5453e-06	2.5269e-06	323.47	118.72	120.13	43.835	2.3977e-06	46.934	295.645	225.584	235.803	157.403	299.900	302.804	156.155	161.916	327.771	299.235	160.087	164.529	166.599	171.296	276.129	167.954	-8191	255	
39851.410	1	1	0	0	0.051148	0.17316	0.050426	0.16644	0.19708	0.19123	0.25518	0.074919	0.10303	0.2264	0.089364	0.058445	0.27426	0.28802	0.085942	0.12707	-4.2542	-4.5396	-4.2667	-4.8167	-4.2271	-4.3417	-4.7646	-4.2833	-4.6521	-4.5938	-4.3958	-4.8146	-4.3562	-4.5062	-4.6292	-4.2583	304.042	174.429	397.506	459.750	397.711	193.488	451.139	382.224	325.182	224.360	340.406	432.869	147.242	462.035	298.121	364.852	0.00078144	0.00042113	0.00013103	929.78	5.3368e-06	5.3513e-06	821.31	346.58	5.2972e-06	2.7753e-06	323.3	119.97	121.43	43.223	5.9372e-06	46.403	0.00029062	0.00022023	6.1381e-05	931.46	2.5525e-06	2.4092e-06	818.4	347.8	2.5469e-06	2.5104e-06	323.96	119.57	121.31	43.898	2.613e-06	46.992	298.592	228.106	223.132	157.627	270.053	294.089	156.503	162.237	326.975	275.131	160.242	164.693	166.777	171.163	292.884	168.025	-8191	255	
39851.508	1	1	0	0	0.18673	0.16209	0.23658	0.23982	0.092842	0.22091	0.20593	0.08294	0.12608	0.095177	0.14431	0.10681	0.024029	0.02202	0.17099	0.14443	-4.2917	-4.4292	-4.2688	-4.7104	-4.2937	-4.2917	-4.8396	-4.3187	-4.3521	-4.6604	-4.1854	-4.9229	-4.4271	-4.2229	-4.7771	-4.2479	452.219	255.302	375.624	441.610	241.672	193.672	414.413	329.376	176.671	176.685	154.579	361.054	292.494	322.809	455.292	266.257	0.00076301	0.00051272	0.00016834	937.41	1.0244e-05	2.71e-06	823.93	345.31	5.9861e-06	2.5138e-06	319.49	119.71	121.29	42.764	5.6307e-06	45.606	0.00030856	0.00023438	6.3227e-05	938.82	2.7506e-06	2.6673e-06	821.91	345.78	2.8289e-06	2.7668e-06	320.06	119.56	121.32	43.366	2.9378e-06	46.247	295.926	229.163	232.553	157.292	298.381	294.733	156.417	162.176	315.129	298.226	159.966	164.427	166.534	171.143	298.110	168.021	-8191	255	
39851.605	1	1	0	0	0.086234	0.22444	0.096668	0.1066	0.22686	0.22277	0.11431	0.20219	0.034136	0.043747	0.068818	0.058476	0.29849	0.082741	0.16239	0.14902	-4.2667	-4.5854	-4.0333	-4.8167	-4.4313	-4.1521	-4.7688	-4.4062	-4.3792	-4.7292	-4.1833	-4.7188	-4.6062	-4.2375	-4.8167	-4.5042	296.149	496.925	460.762	298.116	219.942	368.186	218.492	420.877	175.351	305.286	470.850	361.935	170.650	448.366	196.642	239.260	0.00073277	0.00037756	0.00015802	937.12	7.6566e-06	4.8424e-06	824.42	337.87	5.7604e-06	4.1111e-06	314.8	119.74	120.21	42.647	7.1492e-06	45.637	0.00033356	0.00026844	7.4253e-05	940.61	3.127e-06	2.9533e-06	822.59	339.65	3.1269e-06	3.0312e-06	316.55	119.3	120.63	43.366	3.0556e-06	46.291	296.328	232.407	247.437	157.427	296.098	299.655	156.461	162.144	310.512	303.534	160.251	164.378	166.285	171.112	297.222	168.330	-8191	255	
39851.699	1	1	0	0	0.11371	0.070844	0.2225	0.13394	0.040447	0.072547	0.17153	0.089466	0.038155	0.09428	0.2939	0.099427	0.23081	0.10011	0.14065	0.27311	-3.9688	-4.7979	-4.1396	-4.6125	-4.5521	-4.1396	-4.7292	-4.5062	-4.375	-4.8313	-4.3021	-4.6542	-4.6604	-4.2354	-4.6458	-4.3771	447.060	259.837	328.146	440.910	303.864	187.800	406.607	459.334	347.240	153.185	464.011	404.706	154.260	344.923	497.000	149.731	0.00075597	0.00039345	0.00011812	934.59	9.0644e-06	4.1188e-06	821.93	334.31	7.4384e-06	4.6888e-06	312.54	118.61	119.89	42.829	4.7225e-06	45.85	0.00036004	0.00028513	8.1476e-05	938.99	3.4375e-06	3.2775e-06	820.36	336.1	3.3852e-06	3.249e-06	313.83	118.51	120.11	43.537	3.2988e-06	46.573	298.008	252.460	240.400	157.421	264.815	271.699	156.338	162.078	336.471	294.596	159.985	164.784	166.711	171.121	306.887	168.116	-8191	255	
39851.797	1	1	0	0	0.19201	0.15477	0.12542	0.23062	0.25866	0.16196	0.26042	0.083346	0.079818	0.13753	0.13487	0.1679	0.28439	0.22347	0.18244	0.23415	-3.9896	-4.6687	-4.2646	-4.5917	-4.6021	-4.3792	-4.8208	-4.5542	-4.2438	-4.7625	-4.1542	-4.5917	-4.6	-4.1813	-4.5792	-4.5771	337.362	327.564	448.845	455.731	346.811	205.031	468.340	190.062	233.342	182.413	445.070	147.932	480.363	481.698	363.521	390.643	0.00076353	0.0003415	0.00011411	930.72	8.9384e-06	4.7189e-06	814.98	331.45	6.2711e-06	2.7686e-06	308.51	117.11	118.27	42.764	4.7336e-06	45.554	0.00036537	0.00030161	8.7534e-05	934.01	3.5689e-06	3.6128e-06	814.45	333.2	3.7957e-06	3.7369e-06	309.68	117.29	118.93	43.456	4.2733e-06	46.36	299.138	223.218	261.233	157.385	289.877	305.351	156.299	162.205	318.595	312.861	159.904	164.768	166.356	171.351	315.965	168.126	-8191	255	
39851.918	1	1	0	0	0.2169	0.2351	0.11316	0.14962	0.10958	0.12681	0.18207	0.11281	0.033301	0.088304	0.15493	0.23415	0.070425	0.16242	0.11669	0.17261	-3.9271	-4.6979	-4.3146	-4.5375	-4.7438	-4.1646	-4.7292	-4.7688	-4.0813	-4.7917	-4.3	-4.3729	-4.725	-4.0729	-4.6042	-4.7	412.588	425.302	438.809	428.761	178.165	262.090	460.102	406.647	222.454	332.392	451.890	156.869	330.004	202.732	336.999	358.433	0.00068904	0.00045286	8.7491e-05	926.62	4.8933e-06	3.1348e-06	809.67	325.64	7.7555e-06	2.2956e-06	302.85	115.39	118	42.647	5.7863e-06	45.623	0.0004467	0.00040167	0.00011438	930.59	4.6242e-06	4.8163e-06	809.6	328.6	4.9187e-06	5.0566e-06	305.66	116.26	118.62	43.484	5.3617e-06	46.471	298.373	243.432	197.091	157.352	292.708	326.811	156.321	162.129	338.918	356.252	160.332	164.474	166.801	171.048	317.646	168.165	-8191	255	
39852.016	1	1	0	0	0.17454	0.088388	0.15359	0.19747	0.03678	0.09582	0.22232	0.16251	0.046986	0.1211	0.032651	0.022578	0.35284	0.24637	0.10669	0.18426	-3.8625	-4.8313	-4.3812	-4.3438	-4.5208	-4.1833	-4.6937	-4.875	-4.0375	-4.6917	-4.4979	-4.2854	-4.8333	-4.2708	-4.6083	-4.6687	283.531	318.044	434.075	326.199	399.573	278.303	358.925	416.898	167.583	191.323	150.042	212.921	391.559	152.765	370.700	371.927	0.00077316	0.00019484	0.00011766	919.69	6.573e-06	2.7713e-06	802.48	323.72	5.6704e-06	2.9977e-06	301.66	115.55	117.19	42.655	5.6629e-06	45.813	0.00051349	0.00048318	0.00013444	924.03	5.2651e-06	5.4059e-06	803.94	325.72	5.0656e-06	5.1794e-06	304.99	115.83	117.81	43.451	5.1261e-06	46.518	297.343	206.734	307.968	157.738	274.032	271.984	156.196	162.072	333.829	318.835	160.273	164.583	166.491	171.420	305.891	168.309	-8191	255	
39852.109	1	1	0	0	0.11258	0.12153	0.16876	0.050751	0.12816	0.13282	0.22218	0.26547	0.071013	0.32441	0.12323	0.12904	0.15799	0.26207	0.16314	0.086774	-3.8792	-4.6625	-4.3896	-4.3417	-4.7479	-4.1438	-4.5938	-4.7479	-4.1667	-4.5062	-4.4437	-4.3708	-4.7271	-4.3479	-4.3896	-4.8	392.629	377.714	467.294	401.413	321.302	407.944	481.612	471.185	166.201	315.873	413.507	397.938	443.614	432.924	486.085	389.084	0.00078558	0.00061538	0.00010969	916.44	1.009e-05	4.7756e-06	808.09	323.38	5.331e-06	1.3794e-06	303.63	115.64	116.89	42.359	5.1431e-06	45.655	0.00049594	0.00044774	0.00012548	922.48	4.6488e-06	4.9093e-06	805.94	325.95	4.5055e-06	4.5866e-06	305.72	115.84	117.32	43.116	4.4397e-06	46.287	296.528	249.039	266.909	157.347	302.983	317.637	156.457	162.262	332.279	335.225	160.057	164.964	166.378	171.058	277.905	168.232	-8191	255	
39852.207	1	1	0	0	0.27784	0.072834	0.30202	0.079303	0.090418	0.16975	0.16025	0.23381	0.21233	0.24879	0.18793	0.090065	0.12592	0.26483	0.13819	0.090284	-3.8021	-4.6667	-4.5042	-4.325	-4.7167	-4.4042	-4.5792	-4.9125	-4.0938	-4.6333	-4.6354	-4.3229	-4.7188	-4.4333	-4.3042	-4.7729	257.701	504.049	418.553	474.650	295.554	411.642	484.630	439.922	174.615	393.003	478.675	213.500	337.239	495.997	162.049	180.262	0.00074309	0.00053152	0.00010846	920.27	7.4746e-06	3.6081e-06	804.54	329.84	6.4109e-06	4.8083e-06	307.86	115.91	117.74	42.5	5.173e-06	46.029	0.00044153	0.0003932	0.00010727	924.38	4.0592e-06	4.2208e-06	804.97	330.66	3.9737e-06	4.0072e-06	308.75	116.39	118.14	43.399	3.8905e-06	46.501	298.566	265.856	220.797	157.423	301.393	315.193	156.309	162.499	323.826	285.142	160.195	164.600	166.542	171.088	286.338	168.572	-8191	255	
39852.301	1	1	0	0	0.18709	0.16751	0.13199	0.11649	0.31745	0.10271	0.057411	0.12775	0.085002	0.078323	0.28895	0.055047	0.17968	0.24486	0.14889	0.16735	-3.8312	-4.5771	-4.4792	-4.2146	-4.7958	-4.35	-4.2646	-4.825	-4.0667	-4.4	-4.5667	-4.05	-4.9917	-4.3812	-4.225	-4.8562	253.415	468.977	437.501	436.665	336.436	292.305	246.883	475.507	197.084	265.862	391.521	439.558	472.222	451.465	336.504	414.381	0.00070286	0.00055007	0.00019566	919.59	6.0619e-06	2.895e-06	801.64	330.15	5.2567e-06	5.0614e-06	307.88	116.29	117.57	42.839	5.7479e-06	45.869	0.00041321	0.00036149	9.923e-05	923.38	3.9371e-06	4.0716e-06	804.03	332.52	3.9814e-06	3.8684e-06	308.88	116.39	118.05	43.363	3.8442e-06	46.48	293.340	228.694	230.536	157.455	287.491	280.069	156.070	162.141	301.279	296.019	160.226	164.679	166.378	171.282	298.284	168.086	-8191	255	
39852.395	1	1	0	0	0.030572	0.13061	0.1519	0.19939	0.094432	0.066496	0.14158	0.2112	0.091508	0.079055	0.22106	0.15342	0.079165	0.15065	0.11556	0.24926	-3.7979	-4.4896	-4.4729	-4.2	-4.5437	-4.3979	-4.3417	-5.0708	-4.3104	-4.4396	-4.8063	-4.2583	-4.7104	-4.5604	-4.2729	-4.8833	273.904	306.290	186.523	502.124	154.287	494.207	361.744	485.873	488.065	221.240	435.148	408.817	149.842	462.246	416.348	477.870	0.00077087	0.00063845	0.00011524	919.99	6.8231e-06	3.8887e-06	805.2	330.36	8.0771e-06	5.4808e-06	306.58	116.39	117.88	42.532	6.6931e-06	46.37	0.00041906	0.00034938	9.5286e-05	923.26	3.8887e-06	4.0334e-06	805.43	332.41	3.8556e-06	3.7989e-06	309.14	116.61	118.05	43.3	3.6151e-06	46.918	295.917	237.993	217.879	157.367	311.301	323.391	156.434	162.297	313.352	300.338	160.295	164.463	166.525	171.142	310.376	168.263	-8191	255	
39852.516	1	1	0	0	0.23594	0.0074661	0.11954	0.15212	0.18491	0.039609	0.17075	0.1734	0.29738	0.079332	0.35571	0.28416	0.094487	0.062115	0.1957	0.065784	-3.8833	-4.2333	-4.7396	-4.3167	-4.7104	-4.5188	-4.3604	-4.75	-4.1833	-4.35	-4.8604	-4.4187	-4.7167	-4.5687	-4.2771	-4.7646	390.518	186.701	156.886	459.009	180.184	153.751	392.316	146.511	308.529	211.287	498.549	422.383	175.643	203.021	308.796	361.275	0.00070713	0.00034773	7.8987e-05	922.7	6.9794e-06	3.6188e-06	811.17	332.09	6.2046e-06	6.1897e-06	309.84	116.73	117.34	42.441	5.9836e-06	46.129	0.00038511	0.00033533	9.0182e-05	924.59	3.7239e-06	3.7435e-06	809.86	333.6	3.7919e-06	3.7272e-06	311.38	116.83	117.97	43.255	3.8323e-06	46.817	295.716	245.147	263.199	157.450	307.095	282.576	156.240	162.038	361.649	294.599	160.508	164.866	166.657	171.065	314.218	168.154	-8191	255	
39852.613	1	1	0	0	0.11861	0.11426	0.030314	0.26477	0.057411	0.16344	0.045277	0.10622	0.16554	0.21353	0.13657	0.16746	0.22276	0.14597	0.15183	0.10765	-4.0479	-4.3042	-4.5833	-4.4625	-4.5146	-4.5354	-4.2646	-4.8229	-4.5917	-4.25	-4.7396	-4.3396	-4.5771	-4.6583	-4.1813	-4.6771	491.901	480.850	356.277	423.688	351.226	355.762	192.313	421.201	461.078	161.739	482.870	356.957	169.245	233.486	160.300	466.191	0.00077873	0.00022702	0.00010531	919.63	5.5096e-06	3.0103e-06	808.15	330.01	4.8332e-06	4.5854e-06	309.52	115.96	117.62	42.701	5.514e-06	46.164	0.00041063	0.00034966	9.6189e-05	923.96	3.9296e-06	3.7515e-06	809.55	332.69	3.9963e-06	3.9532e-06	310.75	116.23	117.92	43.344	3.9765e-06	46.804	294.149	219.859	238.489	157.386	283.452	301.410	156.264	162.141	276.651	314.983	160.044	164.487	166.503	171.249	323.432	168.046	-8191	255	
39852.711	1	1	0	0	0.062675	0.22701	0.063942	0.24156	0.076566	0.13339	0.2771	0.18045	0.070853	0.20643	0.11203	0.035449	0.087459	0.22302	0.20971	0.075345	-4.0542	-4.1229	-4.7458	-4.4187	-4.4771	-4.5979	-4.2167	-4.9208	-4.4563	-4.1333	-4.8063	-4.3271	-4.4563	-4.7625	-4.1062	-4.4979	396.213	180.381	482.009	453.422	360.402	248.314	461.209	217.048	157.277	466.802	291.769	152.179	464.016	168.905	253.431	152.234	0.00071751	0.00053122	0.00014163	917.28	9.4506e-06	5.1633e-06	805.39	331.23	6.1851e-06	7.4848e-06	308.06	116.65	117.81	42.892	3.5067e-06	46.398	0.00041606	0.0003481	9.5991e-05	922.33	3.8611e-06	3.7044e-06	804.16	333.02	3.759e-06	3.7519e-06	310.83	116.52	118.05	43.63	3.761e-06	46.963	292.891	216.473	264.718	157.274	313.546	304.896	156.383	162.221	307.444	289.493	159.959	164.588	166.558	171.127	332.964	168.282	-8191	255	
39852.805	1	1	0	0	0.033955	0.04951	0.29644	0.20758	0.24552	0.045968	0.24187	0.18888	0.12423	0.11356	0.2126	0.29885	0.2572	0.10507	0.19219	0.1344	-4.1792	-4.1708	-4.7292	-4.4125	-4.3208	-4.75	-4.3979	-4.6687	-4.4417	-4.2542	-4.9021	-4.3875	-4.4062	-4.8417	-4.1729	-4.575	191.731	383.452	428.926	169.735	277.630	427.092	419.777	462.605	401.486	329.047	207.912	433.685	400.637	363.138	432.404	145.729	0.00072739	0.0004049	6.0023e-05	919.05	8.8353e-06	5.6865e-06	803.9	333.75	6.6119e-06	5.2244e-06	310.14	116.19	117.88	42.641	3.3865e-06	46.176	0.00038835	0.00034132	9.4702e-05	920.57	3.7569e-06	3.7044e-06	804.17	335.44	3.8321e-06	3.7802e-06	312.54	116.82	118.4	43.428	3.8796e-06	46.711	295.274	234.229	200.844	157.407	281.685	287.091	156.156	162.129	322.374	290.351	159.946	164.600	166.468	171.360	316.481	168.492	-8191	255	
39852.879	1	1	0	0	0.28807	0.23503	0.17707	0.12574	0.22022	0.16529	0.1778	0.10924	0.12045	0.2426	0.12973	0.25861	0.14655	0.18356	0.11736	0.12113	-4.2542	-4.0896	-4.5625	-4.6458	-4.2667	-4.7396	-4.3438	-4.5208	-4.6458	-4.0646	-4.6833	-4.4604	-4.1958	-4.7417	-4.1	-4.4646	242.705	399.958	297.673	441.736	402.403	448.741	158.819	456.060	408.950	452.826	206.214	469.511	430.245	220.341	299.549	283.302	0.00073609	0.00057959	0.00018896	919.65	8.2608e-06	5.0319e-06	806.81	332.66	4.7772e-06	6.4394e-06	312.28	117	118.63	42.85	4.3497e-06	46.443	0.00038779	0.00035124	9.4858e-05	920.36	3.7192e-06	3.5632e-06	806.94	335.19	3.59e-06	3.6823e-06	313.41	117.22	118.52	43.578	3.6346e-06	47.19	296.110	218.698	226.748	157.541	283.557	294.530	156.259	162.067	316.930	286.686	160.175	164.686	166.457	171.267	254.625	168.307	-8191	255	
39852.996	1	1	0	0	0.075756	0.079548	0.26823	0.043427	0.053656	0.26578	0.046953	0.088727	0.1018	0.19736	0.13212	0.090222	0.080687	0.1684	0.12432	0.21895	-4.3458	-3.9958	-4.4938	-4.6167	-4.025	-4.6417	-4.1687	-4.5437	-4.6833	-4.1333	-4.7333	-4.5792	-4.2646	-4.7667	-4.2063	-4.4187	266.486	500.796	315.211	484.141	290.526	464.378	222.835	385.237	402.394	498.195	489.579	165.857	411.998	471.461	258.655	385.390	0.00070182	0.0003914	0.00010275	918.48	8.161e-06	2.1769e-06	809.72	335.6	4.8409e-06	4.9924e-06	316.63	118.51	118.95	43.413	5.1112e-06	47.064	0.00038039	0.00033333	9.0018e-05	921.33	3.4257e-06	3.441e-06	808.88	337.97	3.3876e-06	3.4255e-06	318	118.46	119.43	44.071	3.5249e-06	47.621	299.694	232.491	220.260	157.218	267.181	253.680	156.352	162.236	319.215	305.006	160.116	164.543	166.803	171.309	295.211	168.224	-8191	255	
39853.094	1	1	0	0	0.1829	0.058532	0.067232	0.17685	0.18053	0.21118	0.1434	0.19253	0.17532	0.11129	0.14801	0.15184	0.11376	0.057877	0.063537	0.27405	-4.4042	-3.8833	-4.4396	-4.5979	-4.275	-4.7646	-4.4375	-4.3396	-4.6375	-4.0792	-4.5917	-4.6771	-4.0625	-4.7646	-4.3	-4.1708	393.818	309.867	482.138	437.469	405.644	402.690	457.131	486.485	244.989	378.642	194.709	236.568	156.424	410.165	481.397	336.723	0.0007645	0.00044913	0.00015394	918.49	8.8633e-06	5.2525e-06	808.08	337.24	5.1695e-06	3.2858e-06	314.77	117.5	119.31	43.827	4.5127e-06	46.917	0.00037353	0.00032857	8.9169e-05	921.44	3.519e-06	3.5013e-06	805.64	337.8	3.3976e-06	3.447e-06	316.35	117.68	119.24	44.33	3.5198e-06	47.761	299.224	212.603	251.057	157.404	302.738	295.044	156.307	162.242	308.791	278.464	160.238	164.474	166.449	171.249	298.236	168.402	-8191	255	
39853.191	1	1	0	0	0.11826	0.13772	0.24638	0.10957	0.23613	0.15908	0.10278	0.26062	0.17675	0.14541	0.11384	0.20774	0.45487	0.17098	0.12691	0.25157	-4.1937	-4.3812	-4.3875	-4.9208	-4.1521	-4.7208	-4.5687	-4.2625	-4.6729	-4.2625	-4.5312	-4.6875	-4.2604	-4.6646	-4.5	-4.1792	220.424	173.858	174.348	399.679	385.855	226.710	244.613	424.932	268.543	455.063	164.192	162.127	381.576	193.418	274.908	416.227	0.00070784	0.00046391	0.00010793	916.33	1.1638e-05	5.6818e-06	802.32	336.95	7.2746e-06	7.309e-06	315.8	118	119.12	43.658	4.0913e-06	47.469	0.00037821	0.00033994	8.922e-05	919.49	3.5823e-06	3.4731e-06	802.18	338.75	3.579e-06	3.7096e-06	317.84	117.94	119.3	44.474	3.6073e-06	48.039	295.171	227.192	238.470	157.238	291.226	291.640	156.505	162.287	318.213	305.264	160.276	165.022	166.673	171.243	283.849	168.194	-8191	255	
39853.312	1	1	0	0	0.040545	0.1168	0.1162	0.30706	0.20119	0.05336	0.21087	0.14765	0.17976	0.079491	0.1561	0.22067	0.17228	0.35031	0.14826	0.09157	-4.5708	-4.225	-4.2542	-4.8292	-4.0896	-4.6583	-4.6438	-4.1646	-4.675	-4.1729	-4.2646	-4.8063	-4.2708	-4.625	-4.4167	-4.0583	419.660	418.332	276.462	458.245	345.854	392.225	464.899	445.842	299.670	499.351	503.454	397.768	366.330	493.318	286.635	408.885	0.00079245	0.00061173	0.00010608	911.98	7.1851e-06	4.2413e-06	802	337.25	8.0432e-06	3.1929e-06	316.73	118.34	118.65	44.082	6.0077e-06	48.087	0.00039048	0.00034579	9.3927e-05	916.72	3.7565e-06	3.6816e-06	803.12	338.3	3.6215e-06	3.6219e-06	318.55	118.49	119.39	44.827	3.4278e-06	48.708	298.978	240.811	270.100	157.572	290.313	319.276	156.276	162.145	315.479	275.659	160.231	164.964	166.772	171.367	295.284	168.451	-8191	255	
39853.406	1	1	0	0	0.22046	0.028836	0.067595	0.10619	0.21657	0.12614	0.11574	0.2387	0.13811	0.060802	0.090465	0.12015	0.07626	0.041062	0.042695	0.22526	-4.3812	-4.325	-4.1625	-4.7417	-3.9771	-4.4542	-4.6708	-4.0542	-4.5979	-4.4917	-4.1958	-4.7562	-4.4042	-4.5042	-4.5708	-4.1021	227.223	358.772	313.048	187.539	360.065	203.948	472.192	487.032	299.564	151.599	221.687	502.094	441.927	230.806	470.704	453.975	0.00080738	0.00056608	0.00014708	912.89	7.3296e-06	3.934e-06	805.16	340.55	4.8865e-06	3.3832e-06	320.24	119.45	119.39	44.201	6.2163e-06	48.331	0.0003786	0.00031971	8.5758e-05	916.58	3.3909e-06	3.2653e-06	806.1	341.59	3.3336e-06	3.285e-06	322.25	119.43	119.8	45.047	3.3762e-06	49.008	297.750	247.679	242.752	157.530	258.984	288.951	156.356	162.224	345.128	315.446	160.282	164.879	166.697	171.260	287.477	168.466	-8191	255	
39853.480	1	1	0	0	0.070488	0.21548	0.10015	0.14401	0.12829	0.15326	0.048745	0.17574	0.2619	0.14708	0.17486	0.2583	0.1832	0.11788	0.044961	0.13268	-4.2625	-4.5417	-4.2646	-4.9062	-4.1333	-4.5021	-4.6792	-4.1417	-4.5583	-4.4354	-4.3354	-4.9125	-4.3854	-4.5021	-4.6583	-4.1833	487.118	174.993	238.669	408.187	272.085	424.248	144.526	448.917	305.455	180.368	490.472	168.799	436.020	477.277	290.706	169.724	0.0008184	0.00064219	0.00020914	916.07	6.5537e-06	3.7438e-06	803.45	338.79	8.8328e-06	5.3561e-06	318.69	118.55	119.13	44.733	7.5285e-06	48.711	0.00037976	0.00031656	8.5564e-05	917.48	3.4568e-06	3.3543e-06	803.76	340.93	3.5505e-06	3.4595e-06	320.65	119.04	119.69	45.365	3.5126e-06	49.191	297.802	243.577	247.674	157.521	274.430	312.026	156.427	162.167	330.625	303.969	160.134	164.811	166.569	171.308	294.615	168.101	-8191	255	
39853.598	1	1	0	0	0.30644	0.1857	0.1146	0.079895	0.097685	0.089376	0.11926	0.1568	0.32173	0.12057	0.30762	0.039043	0.26564	0.1274	0.20438	0.10462	-4.1271	-4.5229	-4.2312	-4.5667	-4.4521	-4.2458	-4.7792	-4.3708	-4.5229	-4.6062	-4.3083	-4.95	-4.4542	-4.1875	-4.675	-4.2021	158.917	404.048	174.359	147.539	439.222	255.299	372.059	499.106	252.871	494.022	445.962	308.552	435.734	437.997	373.821	260.607	0.00074997	0.00048874	0.00019979	905.25	9.6285e-06	7.0265e-06	796.5	338.79	5.141e-06	2.4817e-06	318.38	119.77	119.42	45.084	5.341e-06	49.201	0.000375	0.00031971	8.9485e-05	910.42	3.5854e-06	3.4937e-06	797.23	340.6	3.6092e-06	3.3494e-06	321.1	119.63	120.13	45.848	3.473e-06	49.892	297.562	225.574	249.838	157.498	306.301	296.200	156.534	162.426	310.543	307.907	160.241	164.685	166.658	171.130	312.352	168.228	-8191	255	
39853.695	1	1	0	0	0.071572	0.23667	0.23762	0.37455	0.062717	0.089137	0.16979	0.31744	0.016024	0.22935	0.076069	0.06805	0.11768	0.17978	0.038611	0.1059	-4.0875	-4.4604	-3.9896	-4.7271	-4.3729	-4.2083	-4.7312	-4.2479	-4.5083	-4.6479	-4.2229	-4.5833	-4.3708	-4.3375	-4.8812	-4.3104	465.393	253.010	233.865	456.399	502.617	347.996	465.907	457.007	157.026	315.124	177.207	354.318	503.276	186.917	381.685	482.357	0.00081047	0.00050615	0.00022418	903.79	1.1638e-05	3.4127e-06	798.68	341.3	5.3676e-06	5.3006e-06	322.37	120.28	120.28	45.785	6.5513e-06	50.096	0.00038549	0.00031101	9.2486e-05	905.85	3.563e-06	3.4746e-06	798.37	342.16	3.623e-06	3.46e-06	323.92	120.32	120.47	46.351	3.5665e-06	50.536	296.344	224.440	226.035	157.308	289.394	262.184	156.222	162.486	308.409	277.362	160.437	164.755	166.858	171.325	304.147	168.265	-8191	255	
39853.789	1	1	0	0	0.14382	0.24207	0.10959	0.11393	0.18104	0.21279	0.13257	0.19226	0.20036	0.051664	0.21492	0.14853	0.19944	0.11227	0.11952	0.21961	-4.2667	-4.6646	-4.1604	-4.7458	-4.5354	-4.0896	-4.8646	-4.4333	-4.1354	-4.6687	-4.2188	-4.5604	-4.5271	-4.3958	-4.8521	-4.4917	329.600	431.722	265.182	433.520	207.414	194.748	397.165	464.230	294.977	227.453	475.310	493.779	481.914	445.168	310.022	421.640	0.00082178	0.000399	0.00018199	900.19	9.9966e-06	3.7294e-06	800.77	339.36	3.8994e-06	3.3475e-06	320.94	120.6	119.79	45.488	5.9123e-06	49.721	0.00039075	0.00031796	9.4056e-05	905.06	3.6326e-06	3.5557e-06	798.73	341.16	3.6066e-06	3.5984e-06	323.52	120.17	120.05	46.139	3.605e-06	50.378	297.773	207.672	233.772	157.641	298.857	292.221	156.413	162.374	298.950	284.828	160.344	164.956	166.548	171.388	298.190	168.660	-8191	255	
39853.910	1	1	0	0	0.19129	0.10767	0.25454	0.19899	0.15518	0.082473	0.20207	0.26253	0.19484	0.11029	0.35387	0.057857	0.045622	0.060145	0.064635	0.25602	-3.9792	-4.6479	-4.2271	-4.5083	-4.5604	-4.2312	-4.6271	-4.5771	-4.3583	-4.6604	-4.2562	-4.4979	-4.65	-4.0896	-4.7875	-4.3458	447.535	483.615	446.129	469.406	238.509	185.143	405.610	468.171	345.373	271.287	421.829	476.992	269.666	157.817	216.697	377.165	0.00081242	0.00051281	0.00016362	901.63	1.0296e-05	3.6966e-06	800.42	340.38	8.213e-06	4.2384e-06	321.45	119.21	119.04	44.862	6.365e-06	49.199	0.00037903	0.00031361	9.3549e-05	905.57	3.4327e-06	3.5988e-06	800.16	341.89	3.6706e-06	3.6194e-06	323.79	119.5	119.38	45.779	3.7942e-06	49.79	299.906	213.271	232.282	157.385	300.791	298.498	156.571	162.139	313.601	296.506	160.181	164.827	166.860	171.289	277.345	168.274	-8191	255	
39854.008	1	1	0	0	0.19313	0.12299	0.070095	0.16426	0.10002	0.20974	0.15001	0.043489	0.18448	0.099143	0.097287	0.21133	0.074524	0.011468	0.16556	0.14602	-3.9208	-4.7583	-4.2146	-4.6021	-4.6312	-4.1458	-4.7646	-4.55	-4.1562	-4.75	-4.2792	-4.5	-4.5271	-4.2729	-4.7417	-4.6729	262.505	484.528	467.618	499.817	175.363	341.983	452.355	414.051	287.661	295.693	370.779	373.625	393.571	503.253	434.960	169.701	0.00080062	0.00059173	0.00018179	897.81	7.0531e-06	4.4785e-06	794.79	336.77	5.6376e-06	6.3707e-06	318.98	118.46	118.67	45.009	6.1437e-06	49.396	0.00040426	0.00034594	0.00010162	901.37	3.7467e-06	3.8312e-06	792.71	338.9	3.899e-06	3.9397e-06	320.61	118.78	119.2	45.813	3.9956e-06	49.894	296.274	200.007	231.780	157.458	279.784	286.059	156.602	162.548	334.850	290.267	160.472	164.726	166.710	171.351	288.520	168.465	-8191	255	
39854.102	1	1	0	0	0.27602	0.073654	0.24449	0.10052	0.291	0.1783	0.097449	0.095473	0.14534	0.26015	0.11358	0.22999	0.36914	0.20689	0.19931	0.22682	-3.9833	-4.7042	-4.15	-4.4896	-4.5896	-4.0646	-4.6229	-4.5167	-4.1479	-4.8229	-4.325	-4.3042	-4.8042	-4.3146	-4.5146	-4.6542	349.563	327.664	204.037	240.879	359.647	419.207	459.707	148.315	359.243	486.343	168.832	174.426	419.483	160.368	503.652	489.917	0.00076033	0.0005611	5.5889e-05	892.65	8.5568e-06	4.683e-06	790.07	336.03	6.0815e-06	7.462e-06	319.07	118.9	118.42	45.092	7.885e-06	48.934	0.00041895	0.00036805	0.00010514	897.58	3.8951e-06	3.9714e-06	790	338.46	3.8819e-06	3.7609e-06	321.21	118.92	118.85	45.78	3.6469e-06	49.633	297.134	199.069	223.694	157.589	298.398	314.780	156.448	162.243	312.257	293.912	160.409	164.787	166.688	171.277	309.806	167.928	-8191	255	
39854.176	1	1	0	0	0.18041	0.055409	0.11669	0.1074	0.23479	0.042674	0.33074	0.052927	0.030317	0.049457	0.090182	0.30677	0.15635	0.041778	0.24989	0.17124	-3.65	-4.5938	-4.2667	-4.3583	-4.6917	-4.2521	-4.4833	-4.6542	-4.1771	-4.5687	-4.4542	-4.2937	-4.7167	-4.2396	-4.5042	-4.7396	167.344	246.792	365.144	196.893	308.740	446.832	398.581	481.083	404.420	285.484	449.575	166.708	497.969	238.219	378.761	304.168	0.00078835	0.00057198	0.00013911	891.85	8.166e-06	3.0729e-06	792.98	336.14	7.9269e-06	6.0101e-06	322.95	117.98	117.84	44.082	3.8192e-06	48.308	0.00039145	0.00032669	9.1716e-05	898.26	3.5285e-06	3.5104e-06	793.05	338.49	3.6263e-06	3.3542e-06	323.13	118.38	118.22	44.731	3.3631e-06	48.754	299.371	244.309	223.373	157.645	274.712	336.291	156.349	162.393	329.718	313.909	160.212	164.702	166.686	171.133	278.699	168.307	-8191	255	
39854.293	1	1	0	0	0.038211	0.19027	0.23509	0.28157	0.061469	0.28968	0.32003	0.21781	0.20055	0.12561	0.11526	0.16273	0.13453	0.10906	0.17826	0.17106	-3.75	-4.5583	-4.2708	-4.2604	-4.5792	-4.2375	-4.5917	-4.8375	-4.1354	-4.5312	-4.4688	-4.1583	-4.7229	-4.2188	-4.3854	-4.7271	189.415	363.290	192.631	496.671	326.034	306.900	147.808	485.871	386.188	350.218	314.798	210.835	157.539	374.821	232.619	474.129	0.00082159	0.00039914	0.00014978	896.69	5.7503e-06	2.6688e-06	795.83	338.51	6.3862e-06	3.7621e-06	321.66	118	117.64	43.811	6.5142e-06	47.393	0.00037942	0.00031066	8.6187e-05	901.33	3.472e-06	3.4467e-06	797.55	338.98	3.6502e-06	3.3981e-06	322.98	118.33	117.72	44.339	3.4239e-06	48.21	299.245	218.633	235.406	157.484	274.080	332.114	156.368	162.119	327.903	317.425	160.189	164.717	166.340	171.358	306.506	168.319	-8191	255	
39854.391	1	1	0	0	0.11524	0.068908	0.11122	0.18333	0.11309	0.29857	0.23044	0.11155	0.20907	0.15375	0.22655	0.26441	0.050275	0.1659	0.25882	0.14043	-3.5854	-4.525	-4.3896	-4.1917	-4.5917	-4.3104	-4.2708	-4.875	-4.2646	-4.5542	-4.5375	-4.0625	-4.7667	-4.3187	-4.3125	-4.8063	436.047	155.625	214.157	167.681	375.950	182.869	315.734	456.228	353.256	490.276	484.591	297.390	150.640	423.699	180.115	482.647	0.00077733	0.00031491	0.0001579	891.96	1.1352e-05	5.7782e-06	791.03	337.29	5.8156e-06	3.2608e-06	320.29	117.68	117.47	43.796	4.9364e-06	47.939	0.00037241	0.00031444	8.2398e-05	897.54	3.3497e-06	3.2154e-06	791.66	338.07	3.508e-06	3.3231e-06	321.67	117.59	117.71	44.602	3.4569e-06	48.578	299.036	229.569	251.217	157.426	305.761	287.827	156.431	162.286	311.330	270.787	160.003	164.693	166.779	171.446	308.595	168.476	-8191	255	
39854.484	1	1	0	0	0.10303	0.091101	0.19603	0.32515	0.067701	0.044267	0.39279	0.2266	0.12913	0.25487	0.12824	0.18477	0.26029	0.28691	0.18759	0.080167	-3.8312	-4.3938	-4.6708	-4.2375	-4.6813	-4.3708	-4.1687	-4.8229	-4.1813	-4.4458	-4.6062	-4.0083	-4.6479	-4.5542	-4.275	-4.9104	159.434	149.049	393.951	456.760	219.053	213.309	406.689	448.088	233.742	300.900	391.655	464.767	472.650	407.396	323.311	423.837	0.00079439	0.0004524	0.00010258	890.69	6.9229e-06	9.5538e-07	790.17	337.02	7.3777e-06	5.3417e-06	320.37	118.12	118.41	44.3	4.5329e-06	48.327	0.0003836	0.00032183	8.7779e-05	893.7	3.5927e-06	3.4911e-06	788.61	337.98	3.9075e-06	3.6311e-06	321.88	118.53	118.2	45.005	3.6337e-06	48.846	296.313	228.001	251.554	157.442	298.633	365.914	156.482	162.125	300.499	285.209	160.456	164.839	166.874	171.070	279.224	168.380	-8191	255	
39854.582	1	1	0	0	0.25264	0.024382	0.16265	0.29005	0.12426	0.18223	0.30351	0.06983	0.14888	0.010117	0.25995	0.17457	0.094112	0.295	0.21066	0.12416	-3.85	-4.3875	-4.5896	-4.2021	-4.4688	-4.425	-4.3083	-4.7354	-4.1646	-4.3333	-4.7771	-4.0854	-4.6687	-4.6438	-4.0062	-4.8708	210.260	286.847	201.546	448.273	394.585	325.852	352.275	415.813	400.809	299.353	412.320	428.954	383.212	495.566	452.223	271.264	0.00078846	0.00038743	0.00018033	885.97	1.0182e-05	4.3502e-06	787.23	334.86	4.5453e-06	3.5664e-06	320	116.68	116.24	43.541	5.5246e-06	47.136	0.00039864	0.00033026	9.3078e-05	889.01	3.6992e-06	3.6683e-06	786.78	336.24	3.8322e-06	3.6634e-06	321.06	117.15	116.84	44.012	3.7842e-06	47.954	296.200	207.223	228.539	157.462	261.350	287.173	156.536	162.392	306.573	300.696	160.522	164.826	166.785	171.419	346.582	168.434	-8191	255	
39854.703	1	1	0	0	0.025392	0.10265	0.15782	0.18621	0.081486	0.14874	0.081912	0.17768	0.15986	0.27919	0.10646	0.098749	0.22399	0.14191	0.29951	0.12179	-3.9229	-4.2333	-4.6333	-4.3812	-4.4875	-4.5125	-4.2354	-4.8688	-4.2417	-4.2833	-4.6813	-4.4396	-4.5646	-4.5771	-4.1146	-4.8083	391.118	439.094	167.667	435.008	164.876	419.841	471.736	492.979	153.860	424.008	502.435	210.126	156.585	410.079	346.114	460.737	0.00075516	0.00050637	0.00017848	887.27	8.451e-06	2.5086e-06	783.59	332.03	6.2568e-06	4.6043e-06	317.81	117.28	116.64	43.968	9.3336e-06	48.289	0.0003877	0.00032862	9.073e-05	889.77	3.7633e-06	3.7984e-06	787.24	334.7	4.3411e-06	4.3925e-06	320.41	117.72	117.29	44.754	5.5545e-06	49.087	296.480	251.734	253.436	157.555	297.253	337.019	156.579	162.234	314.069	284.504	160.061	164.922	166.872	171.131	303.615	168.221	-8191	255	
39854.773	1	1	0	0	0.17098	0.0498	0.16734	0.14453	0.085294	0.12655	0.13806	0.14388	0.2089	0.15115	0.11683	0.32889	0.23705	0.21424	0.19105	0.072025	-4.1687	-4.2688	-4.7333	-4.3146	-4.3938	-4.4979	-4.2	-4.625	-4.5104	-4.1917	-4.7688	-4.1604	-4.5229	-4.6354	-4.1458	-4.6062	271.699	253.097	360.368	181.198	237.005	313.208	479.125	169.283	303.048	189.678	157.437	445.466	445.876	167.951	239.010	157.818	0.00075224	0.00046066	0.0001345	880.43	1.671e-05	2.7431e-06	780.97	333.41	6.8162e-06	5.3287e-06	318.08	120.27	119.63	46.562	9.8208e-06	50.325	0.00053831	0.00052179	0.0001462	886.76	5.6719e-06	5.9664e-06	785.02	335.77	6.8109e-06	7.2704e-06	322.16	121.13	121.18	47.62	8.354e-06	51.501	295.045	237.221	220.643	157.599	289.842	272.354	156.672	162.317	318.494	303.497	160.331	165.044	166.586	171.170	326.470	168.160	-8191	255	
39854.871	1	1	0	0	0.14289	0.075063	0.16374	0.3895	0.16555	0.15301	0.29469	0.2464	0.1293	0.097147	0.30409	0.16769	0.19823	0.31098	0.037153	0.053423	-4.0563	-3.9479	-4.5771	-4.425	-4.3812	-4.6625	-4.1937	-4.7937	-4.5292	-3.9396	-4.7833	-4.2771	-4.1729	-4.7979	-4.1479	-4.6438	167.648	197.253	412.572	484.201	156.435	423.435	167.545	482.088	404.601	177.444	371.343	434.360	269.561	454.018	206.993	342.945	0.00079721	0.00044752	8.138e-05	874.17	9.3933e-06	2.1651e-06	774.35	329.73	5.8561e-06	6.7944e-06	318.69	120.88	121.26	48.32	7.947e-06	52.822	0.00074882	0.00075663	0.00020796	881.18	7.7761e-06	7.8507e-06	777.95	333.47	7.0578e-06	7.3359e-06	321.88	122.05	122.21	49.258	6.5505e-06	53.751	293.925	217.622	250.773	157.407	298.155	291.009	156.555	162.356	312.139	265.101	160.288	164.770	166.677	171.434	270.182	168.239	-8191	255	
39854.992	1	1	0	0	0.23668	0.047034	0.050947	0.30998	0.063519	0.19233	0.14864	0.34437	0.11991	0.1328	0.098806	0.24043	0.090036	0.097554	0.12202	0.10486	-4.1937	-4.2063	-4.7562	-4.4083	-4.1937	-4.7542	-4.3688	-4.6687	-4.5813	-3.9542	-4.7875	-4.375	-4.2583	-4.8104	-4.0667	-4.6354	360.773	491.312	344.587	456.635	188.628	343.270	427.234	423.124	417.969	483.440	361.367	457.592	447.955	464.557	242.111	147.152	0.00086229	0.00047629	9.9699e-05	860.82	8.4779e-06	4.5255e-06	770.9	333.44	5.2241e-06	4.4788e-06	323.87	122.72	121.9	49.24	6.6244e-06	53.808	0.00061443	0.00059194	0.00016105	870.18	5.9865e-06	6.1535e-06	774.38	336.97	5.9109e-06	6.1562e-06	326.95	123.7	122.7	50.162	5.6674e-06	54.554	295.092	294.360	273.380	157.702	267.445	327.447	156.338	162.442	301.702	288.073	160.355	164.960	166.740	171.003	285.360	168.135	-8191	255	
39855.086	1	1	0	0	0.17058	0.11697	0.15276	0.31766	0.3497	0.07281	0.059877	0.3376	0.081296	0.0077527	0.10611	0.11932	0.15203	0.12888	0.129	0.10835	-4.3396	-4.1062	-4.6417	-4.4604	-4.2542	-4.675	-4.3562	-4.4792	-4.65	-4.0604	-4.6604	-4.4958	-4.2833	-4.8562	-4.2688	-4.4167	164.124	337.815	297.443	152.509	194.448	332.754	319.939	423.973	230.326	419.385	439.785	316.029	427.834	214.257	356.677	493.909	0.00084253	0.00059071	0.00019787	862.22	3.8125e-06	5.8929e-06	771.8	334.45	3.4936e-06	8.3611e-06	322.11	122.58	119.74	48.042	5.1024e-06	52.473	0.00054218	0.00050345	0.00013799	869.02	5.4925e-06	5.4409e-06	774.1	336.22	5.4582e-06	5.5603e-06	325.34	122.17	120.49	48.941	5.6179e-06	53.477	295.179	242.579	251.301	157.617	253.772	310.435	156.526	162.608	315.576	299.772	160.459	164.735	166.891	171.183	287.771	168.102	-8191	255	
39855.184	1	1	0	0	0.060419	0.10872	0.15113	0.24904	0.14148	0.11183	0.10352	0.19788	0.15668	0.088802	0.26579	0.096461	0.15823	0.13068	0.19763	0.074013	-4.4333	-4.1771	-4.5125	-4.525	-4.1396	-4.7354	-4.4313	-4.3313	-4.6375	-4.1875	-4.6833	-4.6583	-4.2167	-4.9271	-4.2438	-4.3104	171.978	416.418	209.534	501.020	412.078	453.220	320.299	475.305	397.426	177.748	168.183	380.627	438.582	173.458	464.652	330.929	0.0008055	0.00019518	8.839e-05	867.28	7.7735e-06	4.1643e-06	771.77	330.27	6.4713e-06	2.6271e-06	319.15	120.32	117.7	46.667	6.5553e-06	50.721	0.00056243	0.00053821	0.00014695	871.47	6.0518e-06	5.8534e-06	774.36	333.03	6.0309e-06	6.1159e-06	322.02	120.71	118.97	47.557	6.1301e-06	51.571	298.604	243.951	268.299	157.660	300.139	282.601	156.436	162.350	323.147	311.711	160.209	164.994	166.437	171.432	284.460	168.471	-8191	255	
39855.277	1	1	0	0	0.21352	0.16013	0.076348	0.42884	0.17945	0.076208	0.28364	0.25291	0.18701	0.14714	0.17972	0.13366	0.077663	0.24212	0.094148	0.027428	-4.3771	-4.1479	-4.5146	-4.5437	-4.1458	-4.8104	-4.3562	-4.2833	-4.6354	-4.2854	-4.6229	-4.6646	-4.2896	-4.5479	-4.4125	-4.2771	221.412	234.063	178.150	474.211	455.100	419.576	504.101	476.686	478.172	478.862	364.996	473.625	165.618	438.197	466.205	462.698	0.00084039	0.00041474	0.00027542	866.79	6.3584e-06	3.5721e-06	765.27	325.25	4.8647e-06	5.6217e-06	310.82	115.93	114.52	43.895	4.8337e-06	47.733	0.0006018	0.00057089	0.00016157	870.94	6.5458e-06	6.476e-06	769.39	328.12	6.6795e-06	6.6923e-06	314.6	116.26	115.49	44.714	6.3897e-06	48.598	300.187	211.225	215.242	157.616	289.617	259.462	156.478	162.548	315.259	300.414	160.227	164.836	166.783	171.403	311.519	168.470	-8191	255	
39855.375	1	1	0	0	0.063719	0.14395	0.12573	0.12823	0.064507	0.29272	0.14337	0.28246	0.10469	0.38539	0.13414	0.21789	0.23826	0.16773	0.0069735	0.13217	-4.3125	-4.2063	-4.1958	-4.6792	-4.0312	-4.6	-4.5854	-4.0833	-4.5042	-4.3688	-4.5062	-4.65	-3.9917	-4.5938	-4.4375	-4.1625	211.611	350.707	294.228	389.982	308.810	344.800	466.930	478.442	147.028	243.864	149.890	466.358	166.997	403.822	453.764	376.896	0.0008154	0.0003575	0.00010333	862.17	8.8275e-06	5.3129e-06	768.95	323.32	5.9846e-06	6.8454e-06	313.01	116.47	115.54	44.471	5.4776e-06	48.587	0.00060191	0.00053885	0.00014992	867.51	5.7738e-06	5.5673e-06	768.85	327.11	5.2216e-06	5.0696e-06	315.59	116.92	115.78	45.242	4.4534e-06	49.515	298.973	213.513	260.935	157.446	305.884	314.642	156.488	162.339	329.939	283.263	160.313	164.615	166.843	171.317	289.070	168.336	-8191	255	
39855.469	1	1	0	0	0.13818	0.079887	0.22931	0.06167	0.10985	0.1547	0.40485	0.15189	0.22153	0.16243	0.059727	0.10836	0.17136	0.13955	0.084186	0.1918	-4.4938	-4.1375	-4.3625	-4.8958	-4.1042	-4.3604	-4.5104	-4.2458	-4.5437	-4.3333	-4.2042	-4.7646	-4.1979	-4.3833	-4.5958	-4.2688	409.408	275.445	356.761	447.873	491.313	358.512	475.428	454.493	412.882	416.052	448.522	362.490	145.368	145.745	180.586	462.870	0.00078271	0.00048673	0.00012246	870.32	8.4653e-06	4.5853e-06	780.06	329.92	3.789e-06	3.5988e-06	316.46	118.58	115.86	44.439	5.5921e-06	48.708	0.00044393	0.00037732	0.00010424	873.29	3.9586e-06	3.6902e-06	779.66	331.78	3.6117e-06	3.5193e-06	320.51	118.63	116.61	45.123	3.3534e-06	49.278	295.432	235.409	216.389	157.402	272.445	283.989	156.388	162.292	343.627	283.309	160.465	164.968	166.806	171.338	297.893	168.437	-8191	255	
39855.590	1	1	0	0	0.29627	0.13869	0.26591	0.16334	0.092447	0.2767	0.22351	0.23429	0.10284	0.052928	0.17439	0.28929	0.30499	0.16968	0.15654	0.29436	-4.1937	-4.2917	-4.1417	-4.8479	-4.1604	-4.2333	-4.8	-4.2542	-4.5604	-4.4021	-4.3313	-4.7458	-4.2833	-4.4521	-4.7146	-4.1833	256.888	478.625	329.508	189.276	339.923	364.563	444.177	409.333	243.183	316.128	462.415	303.490	145.611	467.832	483.291	390.668	0.00075418	0.00055612	0.00015035	876.58	6.7745e-06	6.0605e-06	789.51	330.19	5.4533e-06	4.6533e-06	317.44	116.31	114.22	42.204	4.1657e-06	46.256	0.00035793	0.0002898	8.3045e-05	881.65	3.3943e-06	3.1032e-06	788.42	330.9	3.2604e-06	3.2079e-06	318.92	116.33	114.12	42.989	3.2554e-06	46.886	297.960	212.164	241.868	157.322	292.889	302.357	156.425	162.092	318.411	285.086	160.319	164.689	166.801	171.254	317.875	168.281	-8191	255	
39855.688	1	1	0	0	0.088068	0.13131	0.30812	0.12562	0.18823	0.05954	0.0094938	0.16815	0.0092267	0.08027	0.016319	0.058993	0.055624	0.099762	0.20432	0.22662	-4.1146	-4.6438	-4.1188	-4.7521	-4.3042	-4.3354	-4.7708	-4.3104	-4.5521	-4.5188	-4.2479	-4.8938	-4.4167	-4.3875	-4.6167	-4.2063	360.845	163.095	409.022	497.717	419.845	297.934	248.437	404.026	210.182	293.233	170.439	366.102	461.189	244.451	407.431	436.692	0.00070748	0.00043952	0.00010003	881.49	9.4191e-06	1.3598e-06	782.5	325.56	5.7696e-06	3.361e-06	313.14	114.03	112.66	41.609	5.0971e-06	45.291	0.00034233	0.00029078	8.2013e-05	884.64	3.3748e-06	3.2234e-06	783.49	327.37	3.3491e-06	3.3877e-06	314.18	114.03	112.8	42.293	3.6008e-06	46.144	296.327	257.648	260.094	157.248	276.677	302.200	156.504	162.254	303.237	297.006	160.458	164.650	166.898	171.636	280.249	168.624	-8191	255	
39855.781	1	1	0	0	0.18315	0.096529	0.2306	0.22683	0.13377	0.24917	0.029842	0.14225	0.1199	0.13843	0.041961	0.096933	0.13562	0.24936	0.20546	0.1564	-4.2771	-4.425	-4.1458	-4.7604	-4.3396	-4.3896	-5.0333	-4.2937	-4.5938	-4.5854	-4.1833	-4.6813	-4.4417	-4.3792	-4.6979	-4.325	311.282	482.948	215.176	468.665	313.873	171.682	276.745	320.273	374.748	206.559	460.838	202.286	477.031	488.910	381.884	429.086	0.00072547	0.00035624	7.5858e-05	876.23	5.8556e-06	4.716e-06	778.79	324.33	6.8744e-06	5.4396e-06	311.98	114.05	112.29	42.025	7.0521e-06	46.025	0.00037508	0.00032964	9.0372e-05	879.2	3.5825e-06	3.5179e-06	778.88	326.22	3.3282e-06	3.4452e-06	313.31	114.32	112.79	42.736	3.5022e-06	46.789	296.318	228.851	261.039	157.402	297.756	266.836	156.217	162.061	310.156	286.936	160.346	165.083	166.983	171.256	305.565	168.554	-8191	255	
39855.879	1	1	0	0	0.13211	0.083849	0.10053	0.24484	0.10741	0.10142	0.12405	0.20723	0.088228	0.16606	0.16752	0.11356	0.32277	0.13917	0.049174	0.24925	-4.2063	-4.5354	-4.125	-4.8083	-4.3917	-4.3688	-4.8146	-4.3896	-4.4104	-4.6229	-4.2146	-4.6438	-4.5292	-4.2375	-4.6833	-4.2854	273.441	200.955	339.398	479.683	251.497	373.244	160.800	356.146	147.101	473.106	438.477	337.902	496.312	482.124	147.142	455.848	0.00077368	0.00056543	0.00016412	874.29	8.0113e-06	5.7448e-06	780.05	324.33	6.4329e-06	5.6196e-06	312.17	113.96	111.08	41.597	4.5244e-06	45.746	0.00037445	0.00032096	9.0372e-05	879.33	3.5984e-06	3.686e-06	779.73	325.79	3.8856e-06	3.8719e-06	312.82	113.72	111.87	42.465	4.385e-06	46.34	297.691	246.542	236.275	157.366	310.021	288.685	156.430	162.344	321.555	280.475	160.439	164.906	166.720	171.619	311.779	168.510	-8191	255	
39856.000	1	1	0	0	0.071881	0.1219	0.42953	0.090181	0.13589	0.16026	0.27879	0.13016	0.10715	0.16801	0.068757	0.095229	0.31439	0.14265	0.16405	0.21299	-3.8667	-4.7083	-4.1	-4.6604	-4.6312	-4.1667	-4.8979	-4.4833	-4.2396	-4.7438	-4.175	-4.5875	-4.5521	-4.0896	-4.6312	-4.4583	440.165	245.931	482.311	420.011	182.004	292.318	194.533	497.810	308.031	273.181	393.573	500.409	492.886	475.063	187.884	463.391	0.00071958	0.00035144	0.00014486	870.42	8.862e-06	4.5226e-06	772.44	322.51	4.6236e-06	6.0311e-06	307.63	113.1	111.51	42.057	6.6228e-06	46.112	0.00045492	0.00043515	0.00012117	877.34	4.8867e-06	5.1672e-06	775.76	324.21	5.2133e-06	5.2573e-06	311.1	113.47	112.39	42.734	5.0484e-06	46.94	299.594	257.099	260.455	157.427	260.137	305.215	156.616	162.189	318.673	271.522	160.262	164.922	166.824	171.344	284.751	168.466	-8191	255	
39856.070	1	1	0	0	0.18563	0.1442	0.096284	0.2719	0.2128	0.19954	0.13118	0.14845	0.12657	0.20964	0.21042	0.15273	0.11043	0.12622	0.13066	0.18951	-3.7146	-4.8688	-4.1021	-4.5417	-4.6687	-4.0979	-4.6396	-4.6646	-4.1937	-4.7479	-4.3417	-4.5792	-4.7208	-4.1708	-4.6188	-4.6208	250.620	417.052	347.854	160.963	370.834	387.716	229.470	166.814	234.057	325.820	398.959	489.643	463.342	459.130	451.081	382.916	0.00070826	0.00043512	0.00015139	869.11	6.8838e-06	7.7913e-06	773.69	321.17	4.1117e-06	4.6826e-06	307.6	111.89	110.05	40.845	4.5519e-06	44.571	0.00048743	0.00043774	0.00011971	873.77	4.5632e-06	4.6222e-06	775.43	322.69	4.4281e-06	4.1356e-06	308.97	112.1	110.41	41.75	3.8019e-06	45.391	294.288	229.253	257.380	157.339	323.443	311.699	156.453	161.950	313.307	267.590	159.888	165.044	166.555	171.506	281.785	168.677	-8191	255	
39856.168	1	1	0	0	0.20568	0.064086	0.03786	0.24662	0.10599	0.11422	0.23519	0.032008	0.09954	0.096428	0.088062	0.18957	0.19015	0.062569	0.16617	0.19658	-3.7687	-4.7812	-4.1813	-4.525	-4.7021	-4.0958	-4.8187	-4.5312	-4.2	-4.8229	-4.1979	-4.4396	-4.6937	-4.175	-4.6625	-4.6667	262.006	484.375	440.400	464.268	250.105	262.654	425.157	495.722	306.206	458.751	479.187	443.190	433.301	446.128	208.738	494.756	0.0007187	0.00027828	9.105e-05	873.59	6.7528e-06	4.2058e-06	774.98	317.34	5.2381e-06	4.7094e-06	301.85	108.31	107.18	39.109	4.9134e-06	42.548	0.00039645	0.00034964	9.3479e-05	875.6	3.6982e-06	3.7449e-06	773.65	318.55	3.7423e-06	3.627e-06	303.27	108.76	107.46	39.719	3.6212e-06	43.294	298.365	218.321	194.791	157.286	299.926	300.726	156.318	162.196	335.476	306.363	160.131	165.157	166.874	171.514	280.811	168.370	-8191	255	
39856.262	1	1	0	0	0.030175	0.049756	0.19967	0.16856	0.090466	0.098021	0.31444	0.11387	0.32052	0.076218	0.18074	0.088513	0.15881	0.22458	0.10488	0.12222	-3.8708	-4.6583	-4.2833	-4.5479	-4.65	-4.1854	-4.5104	-4.6583	-4.2854	-4.6417	-4.5062	-4.2688	-4.8458	-4.3708	-4.4812	-4.6292	494.538	386.659	438.563	423.770	274.003	263.699	489.135	401.960	437.982	202.291	314.455	316.878	147.363	450.731	199.290	466.748	0.00070287	0.00062753	0.00011045	875.06	6.2074e-06	2.7076e-06	773.47	316.75	6.3503e-06	2.0909e-06	301.65	108.6	106.62	39.145	3.7118e-06	42.967	0.00039089	0.00032922	9.2409e-05	877.77	3.7235e-06	3.8383e-06	772.88	317.66	3.9829e-06	3.9444e-06	303.28	108.52	107.47	39.86	4.2132e-06	43.78	298.678	230.904	264.074	157.323	264.321	295.250	156.581	162.164	308.543	358.349	160.461	164.828	166.890	171.527	293.652	168.637	-8191	255	
39856.383	1	1	0	0	0.15526	0.043525	0.13429	0.099756	0.13696	0.25791	0.17792	0.2583	0.2578	0.16032	0.074702	0.051179	0.21444	0.15144	0.039904	0.22401	-3.7354	-4.4104	-4.2646	-4.0854	-4.6958	-4.1292	-4.475	-4.6687	-4.0146	-4.6271	-4.5667	-4.2167	-4.7812	-4.2937	-4.3792	-4.7417	300.415	502.868	469.516	417.486	294.687	239.165	422.794	435.229	162.848	454.319	496.254	274.028	296.895	429.749	496.684	174.498	0.00067508	0.00074417	0.00012702	871.28	8.0673e-06	2.9418e-06	768.8	316.74	6.1225e-06	3.7379e-06	303.06	110.64	108.89	40.796	4.0604e-06	45.198	0.00044275	0.00040198	0.00011317	875.92	4.4508e-06	4.5693e-06	770.83	318.48	4.934e-06	4.8893e-06	305.19	110.51	109.39	41.507	5.031e-06	45.79	296.645	205.287	261.357	157.341	319.860	256.777	156.435	162.153	297.059	288.618	160.433	164.955	166.846	171.531	292.411	168.375	-8191	255	
39856.480	1	1	0	0	0.14797	0.23436	0.25167	0.18967	0.18649	0.073364	0.10679	0.1397	0.2138	0.075139	0.091431	0.097327	0.061339	0.12715	0.086962	0.053346	-3.6688	-4.6562	-4.4938	-4.2375	-4.8625	-4.3042	-4.4083	-4.9542	-4.2396	-4.4854	-4.5708	-4.1521	-4.7542	-4.4354	-4.3583	-4.8875	212.842	251.227	197.845	442.439	363.562	189.103	352.211	180.421	409.206	171.615	149.442	478.395	275.893	461.861	459.448	174.449	0.00075706	0.00022703	0.00017434	868.72	6.4676e-06	3.9869e-06	772.07	320.07	3.9386e-06	5.5285e-06	307.56	112.1	110.53	42.329	4.2883e-06	46.902	0.00049686	0.00043907	0.00012221	874.4	4.6827e-06	4.4927e-06	771.63	321.38	4.2639e-06	4.2182e-06	309.79	112.53	111.14	43.129	4.2179e-06	47.612	297.033	231.425	269.613	157.322	313.139	261.547	156.296	162.090	313.871	314.973	160.033	164.856	166.710	171.100	301.002	168.319	-8191	255	
39856.574	1	1	0	0	0.25708	0.1798	0.12847	0.3184	0.12012	0.25395	0.38961	0.13433	0.22613	0.073865	0.18428	0.028208	0.042856	0.24442	0.22996	0.058924	-3.7062	-4.4333	-4.5542	-4.3313	-4.8063	-4.4646	-4.3708	-4.95	-4.1583	-4.5604	-4.825	-4.1458	-4.8125	-4.4375	-4.2438	-4.8063	442.949	237.316	358.215	418.821	298.063	347.367	458.785	306.322	227.127	217.449	426.516	364.674	149.866	459.509	234.427	474.170	0.00078916	0.00050795	8.3364e-05	871.94	3.756e-06	4.6958e-06	775.5	322.7	5.5152e-06	4.7742e-06	308.88	113.26	112.55	43.681	5.3295e-06	48.17	0.00043744	0.00037405	0.00010541	876.53	4.0613e-06	4.3149e-06	774.86	324.75	4.3563e-06	4.3483e-06	311.15	113.74	112.82	44.531	4.5945e-06	48.895	292.729	225.241	203.879	157.363	284.932	315.440	156.493	162.164	317.420	310.074	160.303	164.781	166.815	171.410	321.110	168.390	-8191	255	
39856.672	1	1	0	0	0.21744	0.24074	0.18223	0.13597	0.20984	0.084203	0.040339	0.22241	0.26516	0.1683	0.17097	0.05149	0.10138	0.15636	0.18366	0.12997	-3.8125	-4.4729	-4.5542	-4.3042	-4.7542	-4.4146	-4.25	-4.8646	-4.2438	-4.2625	-4.6521	-4.2312	-4.7063	-4.3854	-4.2375	-4.9229	436.906	195.944	248.665	429.713	370.948	297.703	432.931	445.765	251.109	236.629	467.943	170.130	162.408	234.395	326.549	420.938	0.0007856	0.00030428	0.00016837	873.85	6.7216e-06	6.8459e-06	774.75	325.9	3.1987e-06	3.155e-06	310.73	116.2	114.74	45.173	7.6066e-06	49.594	0.00046213	0.00041711	0.00011692	877.68	4.4597e-06	4.608e-06	772.86	328.39	4.4798e-06	4.4928e-06	314.2	116.22	115.06	45.935	4.8238e-06	50.26	295.287	192.966	196.058	157.402	327.052	273.037	156.381	162.273	296.877	297.644	160.389	164.876	166.636	171.333	283.534	168.516	-8191	255	
39856.766	1	1	0	0	0.24655	0.027655	0.0925	0.073874	0.051672	0.1035	0.043249	0.14102	0.14799	0.079969	0.11798	0.040169	0.10642	0.2516	0.16161	0.20588	-3.9104	-4.3333	-4.7208	-4.2812	-4.5104	-4.4375	-4.1979	-4.8146	-4.3562	-4.2604	-4.8313	-4.2979	-4.7312	-4.6188	-4.0563	-4.7417	474.837	353.921	422.648	432.425	197.384	447.163	227.332	175.127	277.682	259.621	398.724	194.295	468.183	237.899	355.883	413.369	0.00081772	0.00048859	0.00014043	876.1	1.3489e-05	6.8379e-06	775.69	325.95	5.9251e-06	6.5889e-06	312.64	115.31	113.8	44.566	5.8524e-06	49.137	0.00050179	0.00044951	0.00012504	879.79	4.8451e-06	5.0096e-06	775.5	328.31	4.7631e-06	4.793e-06	314.83	115.52	114.42	45.525	4.4183e-06	49.882	298.007	201.828	261.695	157.425	271.127	285.304	156.243	162.050	329.749	262.103	160.277	164.848	166.723	171.473	305.171	168.300	-8191	255	
39856.863	1	1	0	0	0.14739	0.073153	0.30409	0.05308	0.1145	0.16484	0.046665	0.074374	0.0236	0.039687	0.11093	0.11433	0.045522	0.098223	0.17613	0.2172	-4.0333	-4.3396	-4.5417	-4.2688	-4.4187	-4.7292	-4.2688	-4.7812	-4.35	-4.2542	-4.85	-4.2604	-4.4479	-4.825	-4.1417	-4.7729	287.294	211.968	177.413	362.825	334.102	296.296	381.801	175.269	313.514	160.698	450.307	165.880	343.040	492.838	424.944	428.063	0.00077272	0.00041977	0.00010126	874.3	5.9111e-06	4.1368e-06	778.05	325.13	6.0507e-06	6.2646e-06	311.89	114.45	113.11	43.978	5.8734e-06	48.343	0.00046188	0.00040098	0.00010754	879.92	4.2812e-06	4.2824e-06	777.85	327.45	4.2936e-06	4.3236e-06	314.12	114.98	113.84	44.771	4.1628e-06	49.108	295.628	211.401	241.594	157.424	274.156	287.529	156.306	162.167	290.979	313.510	160.221	164.850	166.795	171.264	310.354	168.386	-8191	255	
39856.961	1	1	0	0	0.26814	0.18426	0.067407	0.1543	0.1453	0.098228	0.032968	0.22491	0.26576	0.15072	0.3958	0.21935	0.23913	0.39709	0.15714	0.24281	-4.05	-4.0521	-4.7708	-4.3146	-4.4542	-4.625	-4.1708	-4.6125	-4.4479	-4.2083	-4.8792	-4.3271	-4.3396	-4.7042	-4.1083	-4.6917	243.487	389.814	214.668	488.323	482.596	455.302	422.420	445.400	270.659	154.858	415.443	182.598	488.896	490.215	465.710	388.327	0.00074301	0.00048887	0.00018925	877.96	1.0542e-05	1.5316e-06	774.87	325.62	3.8158e-06	4.1461e-06	309.92	113.81	113.2	44.031	4.3556e-06	48.329	0.00043205	0.00038504	0.00010273	881.48	4.2134e-06	4.1742e-06	775.15	327.41	4.4155e-06	4.4153e-06	312.46	114.15	113.71	44.646	4.6144e-06	48.742	294.567	241.185	225.524	157.608	280.403	324.656	156.223	162.356	328.383	266.189	160.355	164.758	166.818	171.380	313.670	168.024	-8191	255	
39857.078	1	1	0	0	0.33265	0.11216	0.098151	0.21504	0.11477	0.07012	0.23777	0.047742	0.23083	0.039661	0.18641	0.20706	0.090301	0.21672	0.24337	0.042164	-4.1458	-4.0521	-4.5708	-4.525	-4.3375	-4.6937	-4.1354	-4.8167	-4.6771	-4.0958	-4.725	-4.2812	-4.2229	-4.7958	-4.1854	-4.6125	205.744	453.050	324.326	250.787	220.335	473.865	415.968	317.345	322.684	485.156	472.856	405.148	172.739	174.090	206.177	151.306	0.00076435	0.00030865	0.00018545	874.38	5.3449e-06	4.8596e-06	769.33	324.87	2.8356e-06	4.5725e-06	307.64	114.09	113.98	44.623	7.1367e-06	48.767	0.0004721	0.00043153	0.00011419	878.46	4.6547e-06	4.6085e-06	770.8	326.89	4.6366e-06	4.6248e-06	311.26	114.69	114.56	45.354	4.4638e-06	49.391	296.277	232.939	243.966	157.359	274.932	309.784	156.346	162.256	329.923	337.925	160.149	164.898	166.800	171.357	263.843	168.413	-8191	255	
39857.176	1	1	0	0	0.21093	0.047006	0.22582	0.31333	0.11765	0.056005	0.26163	0.24843	0.20491	0.12776	0.15898	0.18097	0.19588	0.18637	0.23766	0.1159	-4.3979	-4.0958	-4.6667	-4.5125	-4.2979	-4.6708	-4.2688	-4.5583	-4.6021	-4.1229	-4.7917	-4.2188	-4.2104	-4.8229	-4.2875	-4.5396	323.616	399.301	258.929	148.338	169.982	460.527	446.781	380.677	381.141	486.695	410.849	500.970	177.571	353.260	287.812	161.557	0.00077102	0.00052588	0.00021373	879.07	6.7056e-06	4.0498e-06	775.55	329.38	5.1678e-06	4.8713e-06	314.5	115.79	115.17	45.065	5.3665e-06	48.855	0.00045196	0.00040818	0.00010834	881.86	4.4048e-06	4.1659e-06	775.21	331.48	4.3487e-06	4.3611e-06	315.77	116.18	116.06	45.758	4.3363e-06	49.571	294.579	230.786	215.456	157.321	291.862	313.316	156.452	162.118	326.944	287.511	159.929	164.929	166.492	171.262	317.769	168.127	-8191	255	
39857.273	1	1	0	0	0.12258	0.16967	0.036995	0.22097	0.081517	0.18782	0.25816	0.19624	0.29723	0.077315	0.15715	0.13285	0.043252	0.25167	0.16655	0.13585	-4.2812	-4.1354	-4.6875	-4.4583	-4.0667	-4.7208	-4.3521	-4.5458	-4.7312	-4.0021	-4.7146	-4.5375	-4.1958	-4.8688	-4.3625	-4.4583	198.512	380.487	236.031	168.581	171.855	161.320	172.074	429.467	255.136	396.508	284.104	187.111	374.720	481.888	321.960	273.646	0.00073113	0.00045077	0.00014031	889.12	1.0751e-05	4.7586e-06	782.13	329.92	3.805e-06	5.1917e-06	312.79	115.25	114.46	43.58	5.8725e-06	47.319	0.00044973	0.0004078	0.00011204	891.23	4.4298e-06	4.3713e-06	784.11	331.89	4.3638e-06	4.4329e-06	314.27	115.12	115.02	44.286	4.6368e-06	48.032	296.058	248.659	226.324	157.438	286.534	331.682	156.426	162.175	331.949	275.822	160.094	164.712	166.525	171.307	306.962	168.141	-8191	255	
39857.367	1	1	0	0	0.13687	0.21851	0.20301	0.085464	0.023828	0.13511	0.037209	0.13883	0.2122	0.17861	0.27515	0.044008	0.19862	0.19825	0.033223	0.11706	-4.3562	-4.1813	-4.5208	-4.5062	-4.0958	-4.7583	-4.35	-4.5188	-4.8229	-4.3771	-4.6708	-4.6167	-4.4062	-4.8875	-4.4875	-4.3333	410.471	415.969	331.324	464.272	288.934	202.701	324.148	368.351	209.172	498.114	168.287	497.907	483.415	477.012	167.931	429.003	0.00070029	0.00049185	0.00015512	893.2	2.8209e-06	2.753e-06	788.44	326.68	3.6725e-06	4.7113e-06	309.4	113.91	113.29	42.603	7.6817e-06	46.581	0.00046119	0.00043966	0.00012205	897.24	4.7026e-06	4.7028e-06	788.11	329.1	4.7468e-06	4.6981e-06	311.12	114.31	114.2	43.388	4.4927e-06	47.299	296.522	253.102	257.293	157.389	284.485	309.644	156.523	162.283	301.068	274.374	160.301	164.799	166.672	171.230	302.468	168.253	-8191	255	
39857.465	1	1	0	0	0.042133	0.14994	0.23679	0.099565	0.21222	0.0486	0.078427	0.18181	0.16741	0.072873	0.19909	0.082043	0.10633	0.19064	0.046516	0.24255	-4.4521	-4.0813	-4.3396	-4.6229	-4.1167	-4.6333	-4.6021	-4.3771	-4.7083	-4.2604	-4.4917	-4.7271	-3.9333	-4.6208	-4.4313	-4.2833	371.449	244.931	292.197	467.387	270.457	387.291	156.126	447.758	282.729	357.389	488.688	287.352	216.783	498.827	442.424	445.902	0.00073387	0.00043801	0.00017633	894.55	7.6742e-06	2.9486e-06	783.68	326.85	4.8551e-06	4.4836e-06	308.03	114.1	114.23	42.987	7.0388e-06	47.004	0.000448	0.00040857	0.00011095	897.38	4.1463e-06	4.1228e-06	785.97	328.59	4.0383e-06	4.0415e-06	310.55	114.28	114.54	43.689	3.9898e-06	47.65	300.442	224.711	219.962	157.186	278.408	329.632	156.432	162.082	326.135	302.315	160.134	164.906	166.590	171.400	299.479	168.179	-8191	255	
39857.559	1	1	0	0	0.11758	0.039524	0.22804	0.3771	0.17179	0.1942	0.26146	0.27297	0.14568	0.1428	0.069711	0.11392	0.15661	0.25491	0.055975	0.04821	-4.3833	-4.3063	-4.1854	-4.7	-4.0875	-4.5042	-4.5167	-4.2188	-4.7375	-4.1354	-4.4646	-4.7646	-4.2208	-4.525	-4.5271	-4.1396	334.494	269.739	330.955	454.080	160.309	351.052	415.067	464.756	168.655	150.405	161.112	487.190	421.929	147.015	290.798	464.774	0.00075373	0.00044688	7.5935e-05	898.12	5.9067e-06	6.6525e-06	789.88	330.12	6.2956e-06	5.8191e-06	310.57	115.82	115.87	42.821	6.1287e-06	47.194	0.00040636	0.00036399	9.6594e-05	902.34	3.7479e-06	3.7637e-06	790.65	331.44	3.8667e-06	3.9692e-06	313.13	115.72	115.97	43.655	4.0017e-06	47.627	297.105	215.519	286.675	157.319	286.165	292.154	156.212	162.358	331.068	285.888	160.082	164.347	166.357	171.410	291.390	168.279	-8191	255	
39857.680	1	1	0	0	0.25054	0.25184	0.13724	0.34934	0.17543	0.11031	0.33694	0.28246	0.063267	0.041626	0.072457	0.070612	0.105	0.07345	0.043156	0.14524	-4.2896	-4.4146	-4.2833	-4.9229	-4.2562	-4.6333	-4.75	-4.2063	-4.6979	-4.4021	-4.3458	-4.8146	-4.1312	-4.5604	-4.5917	-4.2167	348.208	267.041	502.248	389.323	463.522	362.052	401.253	498.241	356.347	189.753	224.342	382.496	488.382	242.249	322.042	424.196	0.00079111	0.00032003	0.0001312	905.95	7.4003e-06	4.8583e-06	800.04	329.2	5.0406e-06	6.8747e-06	312.75	116.86	117.24	43.041	5.4222e-06	47.364	0.00042129	0.00038302	0.00010876	911.71	4.2017e-06	4.2973e-06	801.2	331.15	4.2341e-06	4.1796e-06	313.77	117.39	117.95	43.884	3.9953e-06	48.017	298.538	222.904	269.940	157.361	267.305	273.246	156.561	162.103	307.424	288.785	160.120	164.637	166.448	171.021	311.978	168.053	-8191	255	
39857.777	1	1	0	0	0.15018	0.10809	0.17443	0.13503	0.131	0.26412	0.16966	0.34031	0.10793	0.07704	0.041338	0.16359	0.22508	0.049787	0.077562	0.22629	-4.3604	-4.4125	-4.2458	-4.7667	-4.1958	-4.4146	-4.8333	-4.2417	-4.6854	-4.4563	-4.3167	-4.9625	-4.3375	-4.3146	-4.7021	-4.3167	347.167	161.701	259.054	488.714	273.026	433.544	371.348	412.359	234.434	279.066	260.447	495.122	498.641	338.037	410.600	440.005	0.0008179	0.00056547	0.00018115	918.27	1.3638e-05	3.5207e-06	807.85	328.84	6.966e-06	2.3088e-06	315.63	121.05	120.8	43.778	5.7299e-06	48.127	0.00042217	0.00036673	0.0001	920.36	3.9148e-06	3.8004e-06	807.2	330.9	3.7623e-06	3.5914e-06	317.7	121.31	121.44	44.502	3.5328e-06	48.789	302.809	238.690	248.304	157.401	273.060	271.562	156.395	162.277	293.141	278.870	160.483	164.474	166.378	171.142	281.268	168.303	-8191	255	
39857.871	1	1	0	0	0.28924	0.047549	0.19527	0.15762	0.15581	0.18622	0.11366	0.15779	0.12912	0.12631	0.092771	0.060024	0.32718	0.22589	0.13651	0.27245	-4.0792	-4.6687	-4.1062	-5.0229	-4.3271	-4.2083	-4.9292	-4.35	-4.5208	-4.5667	-4.1771	-4.7229	-4.4375	-4.45	-4.7896	-4.4604	411.928	210.616	200.701	175.418	170.903	162.842	413.151	174.449	446.605	205.214	440.595	463.875	421.089	460.313	202.010	485.872	0.00079681	0.00040339	0.00015084	921.51	7.431e-06	5.7056e-06	811.04	326.8	7.1577e-06	6.1584e-06	311.17	120.22	120.57	42.917	4.3379e-06	46.318	0.0003976	0.00033387	9.5948e-05	925.79	3.8252e-06	3.6928e-06	811.39	328.49	3.9081e-06	3.823e-06	312.57	120.89	121.27	43.397	3.7738e-06	46.942	296.555	240.029	208.173	157.432	269.102	294.532	156.532	162.341	301.532	262.267	160.100	164.574	166.562	170.975	287.007	168.186	-8191	255	
39857.941	1	1	0	0	0.17002	0.059104	0.14719	0.24629	0.228	0.12509	0.2368	0.44914	0.18615	0.21083	0.14822	0.15805	0.16693	0.33566	0.24425	0.14177	-4.2917	-4.7167	-4.1104	-4.6771	-4.4125	-4.1604	-4.9042	-4.3542	-4.4563	-4.7604	-4.1667	-4.5563	-4.4292	-4.2521	-4.9083	-4.3292	317.280	295.257	438.812	489.451	406.993	468.838	441.842	486.507	453.093	191.521	234.362	442.652	406.017	490.035	448.969	399.208	0.000726	0.00042433	0.00020021	923.04	6.9288e-06	7.8936e-07	806.07	319.06	5.1287e-06	3.983e-06	303.04	117.48	117.82	40.79	3.5591e-06	44.455	0.00040446	0.00033338	9.4468e-05	926.53	3.6594e-06	3.5749e-06	806.94	320.85	3.6106e-06	3.4751e-06	305.76	117.96	118.2	41.451	3.5005e-06	45.069	294.991	259.784	237.726	157.271	301.012	231.080	156.423	162.167	337.642	299.651	160.019	164.462	166.599	171.354	317.162	168.346	-8191	255	
39858.062	1	1	0	0	0.13675	0.10902	0.10683	0.18446	0.19851	0.27356	0.16348	0.10605	0.1512	0.15298	0.30023	0.34567	0.29494	0.078841	0.17986	0.014887	-3.8917	-4.5667	-4.2042	-4.8	-4.3875	-4.1729	-4.7792	-4.3792	-4.4083	-4.7021	-4.1333	-4.6458	-4.5208	-4.3833	-4.6354	-4.4417	424.216	318.665	365.043	484.400	301.525	379.471	469.675	176.407	302.869	198.912	449.331	308.086	409.635	498.029	438.785	500.195	0.00073251	0.00033709	0.00020706	920.15	9.9012e-06	4.0517e-06	809.48	313.34	5.5197e-06	5.3268e-06	300.02	115.31	114.7	39.218	7.903e-06	43.303	0.00036978	0.00030132	8.9068e-05	922.65	3.5248e-06	3.515e-06	808.07	314.45	3.6818e-06	3.5023e-06	300.44	115.6	115.05	39.858	3.6347e-06	43.739	295.349	252.565	193.010	157.392	286.776	299.433	156.240	161.927	316.015	296.647	160.522	164.685	166.351	171.293	309.367	168.658	-8191	255	
39858.160	1	1	0	0	0.15928	0.19373	0.13754	0.089941	0.031446	0.20427	0.027779	0.18327	0.21343	0.11603	0.073028	0.16445	0.094314	0.17993	0.053567	0.11165	-4.0042	-4.6333	-4.1958	-4.5312	-4.4375	-4.0938	-4.8208	-4.65	-4.1854	-4.7125	-4.3125	-4.6062	-4.8208	-4.2521	-4.675	-4.3896	411.358	401.651	383.444	478.548	414.473	375.604	413.108	498.982	492.580	290.272	213.786	345.571	390.082	407.675	345.883	384.371	0.00066479	0.00051949	0.00012593	922.45	9.2773e-06	5.4075e-06	807.31	309.16	4.8985e-06	3.2623e-06	297.17	115.64	115.31	39.537	4.5613e-06	43.609	0.00037852	0.00032902	9.8895e-05	924.6	3.7568e-06	3.8304e-06	810.1	311.49	4.0009e-06	3.7885e-06	298.89	115.94	115.73	40.098	3.9125e-06	44.217	292.347	230.548	234.488	157.310	297.438	269.293	156.324	162.187	325.437	296.164	160.015	164.943	166.582	171.126	281.868	168.456	-8191	255	
39858.258	1	1	0	0	0.1249	0.073642	0.064805	0.12634	0.035182	0.096673	0.3076	0.10811	0.12404	0.094173	0.14788	0.10588	0.22744	0.048813	0.11933	0.088254	-3.8417	-4.7521	-4.2604	-4.4375	-4.6458	-4.1021	-4.7333	-4.3938	-4.2521	-4.6042	-4.2646	-4.3729	-4.675	-4.1875	-4.675	-4.3792	499.796	376.204	271.509	472.583	243.976	184.010	450.768	437.749	335.676	398.375	211.231	414.003	428.183	436.660	146.620	476.834	0.00067411	0.00045376	7.6564e-05	917.51	8.9874e-06	4.6145e-06	813.47	309.73	6.6798e-06	4.1977e-06	300.88	117.38	117.12	40.18	6.0916e-06	44.291	0.00040686	0.00034959	0.00010141	924.32	3.9173e-06	3.905e-06	812.97	312.52	4.0569e-06	3.9458e-06	302.05	117.74	117.53	40.944	4.3117e-06	44.918	299.441	185.059	245.001	157.341	290.471	303.918	156.340	162.213	308.227	271.733	160.218	164.825	166.495	171.457	283.105	168.468	-8191	255	
39858.352	1	1	0	0	0.25698	0.21473	0.073214	0.36065	0.17827	0.061524	0.030054	0.42784	0.083895	0.062947	0.12845	0.10955	0.26831	0.13536	0.11465	0.26247	-3.7646	-4.625	-4.2646	-4.45	-4.6813	-4.175	-4.6354	-4.5938	-3.9771	-4.7	-4.4271	-4.2271	-4.6813	-4.1583	-4.525	-4.5729	467.452	392.129	228.308	498.211	427.885	348.519	372.967	457.733	363.654	463.320	354.965	495.560	398.487	484.752	204.838	494.270	0.00074564	0.00043871	0.0002021	921.59	6.7679e-06	5.7975e-06	809.42	311.04	3.8742e-06	3.4665e-06	301.79	117.19	118.18	40.232	5.9954e-06	44.146	0.00043457	0.00039887	0.00011466	927.1	4.3821e-06	4.4877e-06	809.36	313	4.7178e-06	4.6577e-06	302.05	118.13	118.67	40.979	4.7735e-06	44.888	299.345	228.688	241.365	157.347	307.915	279.844	156.246	162.263	327.326	292.847	159.981	164.642	166.544	171.215	306.979	168.568	-8191	255	
39858.473	1	1	0	0	0.26605	0.13791	0.084093	0.13651	0.22552	0.13135	0.18172	0.1069	0.25269	0.14072	0.077025	0.20007	0.32973	0.15167	0.11232	0.27545	-3.8292	-4.6687	-4.4938	-4.4042	-4.7	-4.2312	-4.5771	-4.6771	-4.1479	-4.7417	-4.4437	-4.2021	-4.7125	-4.225	-4.4812	-4.6333	251.623	216.661	448.322	181.303	226.225	413.424	240.881	491.690	360.769	476.322	367.424	496.922	413.254	416.492	461.599	402.907	0.00071286	0.00035979	0.00016428	922.2	4.6416e-06	1.5587e-06	810.07	312.25	4.463e-06	5.7174e-06	302.33	118.8	118.85	39.92	4.1932e-06	43.85	0.00046229	0.00043037	0.00012179	927.54	4.5375e-06	4.7698e-06	810.91	314.18	4.593e-06	4.6187e-06	304	118.8	119.4	40.571	4.3174e-06	44.512	298.221	190.423	235.836	157.423	273.212	281.212	156.174	162.135	314.413	262.149	159.896	164.450	166.382	171.285	261.618	168.338	-8191	255	
39858.543	1	1	0	0	0.23342	0.093695	0.099352	0.17909	0.15534	0.16886	0.23384	0.15645	0.17139	0.20453	0.24822	0.34539	0.22125	0.058517	0.2606	0.1824	-3.825	-4.7708	-4.4563	-4.3521	-4.7042	-4.3146	-4.4375	-4.7188	-3.9604	-4.6958	-4.3375	-4.2604	-4.6917	-4.3063	-4.3896	-4.6708	489.320	317.050	429.327	374.947	393.431	198.466	339.929	406.553	175.883	231.701	372.480	483.945	192.096	405.572	337.851	182.320	0.00071512	0.00016268	0.00018047	929.01	9.8179e-06	2.55e-06	815.46	311.65	7.4648e-06	3.6566e-06	302.5	119.45	118.24	39.244	9.0468e-06	43.154	0.00042777	0.00038751	0.00010552	931.62	4.0793e-06	4.0546e-06	815	313.28	4.2207e-06	4.0336e-06	304.11	119.49	119.22	39.937	4.1568e-06	43.823	295.204	261.613	220.281	157.298	274.157	324.989	156.327	162.325	307.772	308.349	160.090	164.699	166.352	170.890	275.649	168.233	-8191	255	
39858.641	1	1	0	0	0.055707	0.20785	0.13602	0.27607	0.25309	0.23623	0.2032	0.04928	0.15873	0.17538	0.090206	0.020366	0.13438	0.2199	0.13827	0.072319	-3.7958	-4.5521	-4.425	-4.2896	-4.7688	-4.4104	-4.3917	-4.7375	-4.0917	-4.4479	-4.6375	-4.0583	-4.825	-4.1958	-4.2438	-4.7917	316.019	152.219	443.455	381.353	491.607	399.692	436.953	401.784	261.966	220.876	412.150	198.091	403.399	487.156	306.747	189.404	0.00066447	0.00025334	0.00011021	929.07	3.8278e-06	1.8103e-06	819.17	309.54	5.5134e-06	5.1359e-06	301.23	119.4	119.04	38.642	3.5073e-06	42.359	0.00041103	0.00037623	0.00010102	933.31	4.0514e-06	3.9566e-06	818.54	310.95	4.0491e-06	3.9438e-06	303.62	119.17	119.08	39.28	3.8942e-06	43.129	294.002	260.082	250.987	157.440	276.382	298.224	156.390	162.086	316.207	281.808	159.887	164.526	166.265	171.012	254.425	168.307	-8191	255	
39858.762	1	1	0	0	0.21087	0.16135	0.090453	0.1743	0.10441	0.10579	0.087369	0.20834	0.04651	0.094378	0.11776	0.21483	0.34007	0.1769	0.11797	0.14553	-3.8771	-4.6333	-4.4625	-4.3313	-4.5437	-4.325	-4.2833	-4.7646	-4.2729	-4.3354	-4.6792	-4.075	-4.6542	-4.475	-4.2042	-4.7188	173.993	485.319	308.943	436.746	255.133	384.170	450.523	464.912	284.365	377.152	227.026	458.091	410.336	180.804	181.074	479.747	0.00071298	0.00030663	0.00011778	928.37	1.0346e-05	4.0003e-06	814.07	308.94	3.3892e-06	4.657e-06	300.24	118.59	118.42	38.59	4.7356e-06	42.637	0.0004106	0.00036549	9.8105e-05	932.11	3.9327e-06	3.8982e-06	815.44	310.18	4.1506e-06	3.9522e-06	301.39	118.63	119.03	39.194	3.9902e-06	43.08	295.062	217.334	226.062	157.123	301.721	296.283	155.940	161.988	327.311	284.807	160.057	164.385	166.186	171.347	291.306	168.128	-8191	255	
39858.855	1	1	0	0	0.2349	0.094335	0.15263	0.29457	0.31035	0.081134	0.28908	0.33221	0.098474	0.024005	0.20475	0.26834	0.13944	0.10169	0.083734	0.11802	-3.9167	-4.3542	-4.5542	-4.2854	-4.6062	-4.5104	-4.4479	-4.8542	-4.1542	-4.3604	-4.5875	-4.1375	-4.5708	-4.4542	-4.0771	-4.6896	324.905	414.492	331.882	401.888	156.548	454.008	475.494	486.235	309.264	193.503	160.322	450.684	243.797	176.473	417.833	168.326	0.00062765	0.00029644	8.2601e-05	928.09	1.0073e-05	5.2096e-06	814.01	307.27	3.4779e-06	6.5812e-06	299.26	117.66	118.51	38.372	4.9163e-06	42.235	0.00041267	0.00037597	0.00010275	930.61	4.1792e-06	4.2189e-06	814.03	309.31	4.5317e-06	4.3616e-06	301.2	118.11	119.03	39.055	4.6837e-06	42.89	298.329	220.500	235.512	157.264	287.418	279.376	156.424	162.378	301.648	296.058	160.008	164.617	166.464	171.212	315.425	168.430	-8191	255	
39858.953	1	1	0	0	0.093389	0.067947	0.2509	0.1651	0.16528	0.10649	0.052236	0.32448	0.25451	0.075779	0.2772	0.11529	0.1866	0.18971	0.12455	0.096742	-3.9146	-4.2667	-4.7958	-4.1542	-4.4354	-4.5563	-4.1333	-4.7312	-4.1167	-4.1979	-4.7458	-4.1854	-4.4854	-4.6854	-4.1646	-4.7729	238.018	252.825	229.714	289.104	476.682	356.644	413.714	178.206	371.639	420.331	501.501	153.351	465.825	495.354	214.935	206.457	0.00066032	0.0003004	0.00010639	923.23	5.4228e-06	4.2253e-06	810.08	306.81	5.3606e-06	4.3527e-06	300.93	117.96	118.83	38.194	2.9956e-06	42.269	0.00046972	0.0004393	0.00012166	927.61	5.0823e-06	4.851e-06	812.35	308.94	5.1255e-06	4.9975e-06	302.21	118.1	119.04	38.918	5.0437e-06	42.894	295.936	260.537	227.236	157.358	269.882	265.329	156.275	161.955	319.768	212.515	159.910	164.523	166.214	171.209	317.041	168.277	-8191	255	
39859.074	1	1	0	0	0.11859	0.25253	0.25197	0.18404	0.10938	0.17451	0.10967	0.12094	0.079591	0.20906	0.05782	0.070888	0.13544	0.22437	0.21231	0.20853	-4.1062	-4.0542	-4.65	-4.2688	-4.4396	-4.6667	-4.15	-4.6979	-4.6083	-4.1021	-4.9333	-4.3187	-4.4542	-4.7	-4.15	-4.4604	303.110	497.892	196.939	481.102	313.634	209.239	417.404	196.553	393.164	273.192	247.010	226.065	493.131	201.283	339.197	456.569	0.00065058	0.0007406	0.00017324	922.36	7.1688e-06	3.2325e-06	815.12	307.48	5.5024e-06	5.0182e-06	300.98	118.72	118.45	38.167	4.5046e-06	42.448	0.00048524	0.00045302	0.00012483	927.34	4.944e-06	4.7826e-06	813.93	309.29	4.7668e-06	4.9436e-06	303.3	119.06	119.41	38.932	5.0782e-06	43.123	299.377	214.578	256.308	157.342	275.508	289.345	156.412	162.128	310.589	290.436	160.253	164.539	166.536	171.157	296.820	168.455	-8191	255	
39859.168	1	1	0	0	0.17685	0.16279	0.21167	0.15721	0.18939	0.15026	0.22086	0.21942	0.022516	0.34468	0.25081	0.11392	0.07589	0.087406	0.14581	0.12485	-4.1521	-4.1833	-4.6979	-4.3438	-4.275	-4.6542	-4.1083	-4.8083	-4.4167	-4.0958	-4.8646	-4.3417	-4.5083	-4.9396	-4.0271	-4.6979	476.327	391.579	365.696	498.108	373.350	148.794	419.283	458.388	396.623	189.132	497.303	175.351	501.456	209.700	463.913	155.473	0.00071291	0.00033974	0.00010882	924.71	5.8002e-06	4.4555e-06	812.83	309.71	4.938e-06	4.9376e-06	303.75	119.38	119.86	38.785	5.9024e-06	42.905	0.00047227	0.00044951	0.00012511	928.45	4.9904e-06	4.8914e-06	814.87	311.23	5.1398e-06	5.3138e-06	305.2	119.98	120.57	39.604	5.6787e-06	43.656	297.203	201.893	246.878	157.366	294.662	279.537	156.237	162.293	338.029	289.084	159.899	164.701	166.618	171.636	302.870	168.168	-8191	255	
39859.242	1	1	0	0	0.11542	0.11297	0.060459	0.26276	0.13971	0.057579	0.16911	0.22846	0.072473	0.16107	0.024572	0.15628	0.17522	0.14271	0.16349	0.19024	-4.1542	-4.0875	-4.7625	-4.4708	-4.2333	-4.7	-4.3333	-4.5729	-4.5479	-3.9813	-4.5917	-4.4	-4.2562	-4.8229	-4.1687	-4.4167	163.896	219.397	362.654	475.368	278.702	273.682	454.598	473.677	151.872	450.976	325.856	465.382	491.973	435.073	404.812	485.798	0.00072608	0.0004526	0.00021285	920.24	8.0807e-06	4.4994e-06	810.22	307.59	4.3258e-06	4.1574e-06	302.5	118.07	119.38	38.342	8.761e-06	42.188	0.00052579	0.00052828	0.00015212	927.13	6.0084e-06	6.0203e-06	811.97	310.91	6.1116e-06	6.3811e-06	304.97	118.71	120.3	39.046	6.461e-06	43.106	297.724	230.737	234.825	157.488	244.493	270.578	156.293	162.204	297.182	265.216	160.007	164.642	166.469	171.211	274.877	168.358	-8191	255	
39859.336	1	1	0	0	0.31649	0.15849	0.18009	0.31027	0.20217	0.080939	0.20301	0.31431	0.24183	0.12803	0.15492	0.079528	0.070993	0.17606	0.17462	0.25706	-4.2521	-4.1167	-4.5229	-4.6417	-4.1292	-4.6771	-4.4479	-4.4979	-4.6708	-4.1146	-4.875	-4.4333	-4.1354	-4.8417	-4.2417	-4.4437	164.701	202.264	344.866	485.337	366.334	300.671	413.055	427.391	184.050	244.748	184.582	411.472	473.468	192.806	263.113	449.374	0.00067366	0.00028917	0.00026145	915.64	8.8242e-06	3.7204e-06	804.28	307.76	6.3615e-06	2.13e-06	302.52	118.3	119.13	38.388	7.5275e-06	42.436	0.00057083	0.00057799	0.00015953	921.24	6.1989e-06	6.0949e-06	806.51	310.15	5.903e-06	6.2269e-06	304.1	118.89	120.1	39.165	6.1012e-06	43.139	298.661	259.886	234.158	157.351	281.936	319.572	156.476	162.217	285.339	322.149	159.876	164.807	166.514	171.086	301.852	168.464	-8191	255	
39859.457	1	1	0	0	0.10786	0.13226	0.11534	0.27345	0.21692	0.080359	0.25263	0.1164	0.13145	0.11381	0.21222	0.073256	0.15654	0.024749	0.18865	0.081081	-4.3812	-4.0604	-4.6438	-4.5542	-3.9938	-4.7271	-4.4208	-4.5062	-4.6708	-4.1438	-4.6146	-4.5354	-4.0708	-4.7875	-4.1354	-4.4271	250.438	222.536	192.280	418.878	291.913	208.164	155.734	155.562	148.024	309.339	491.880	187.098	494.659	205.323	243.133	495.049	0.00067271	0.00028036	9.9624e-05	917.03	1.247e-05	4.8729e-06	806.6	306.36	6.7633e-06	2.7821e-06	303.11	118.35	119.31	38.567	5.5351e-06	42.788	0.00056458	0.00056835	0.00015314	920.85	5.9626e-06	5.9625e-06	808.52	309.35	5.8624e-06	6.1188e-06	304.63	119.37	120.31	39.373	5.8306e-06	43.664	295.321	230.333	254.201	157.284	275.785	290.931	156.353	162.411	319.769	354.931	160.226	164.765	166.498	171.380	335.590	168.459	-8191	255	
39859.551	1	1	0	0	0.30201	0.14734	0.10188	0.33638	0.241	0.17286	0.2067	0.14878	0.16407	0.23629	0.10128	0.174	0.12858	0.39871	0.12399	0.14619	-4.2667	-4.2438	-4.5625	-4.6792	-4.0375	-4.8333	-4.4375	-4.3896	-4.6396	-4.125	-4.4958	-4.65	-4.15	-4.7417	-4.4292	-4.1542	285.398	494.813	254.797	463.778	170.755	380.022	444.076	442.352	465.892	157.029	144.392	164.316	435.616	417.758	334.982	226.705	0.00068538	0.00041775	0.00011952	917.15	7.5296e-06	3.6625e-06	811.04	308.51	4.8697e-06	5.8051e-06	305.61	120.58	120.83	39.266	7.067e-06	43.902	0.00053504	0.0005349	0.00014303	921.46	5.7161e-06	5.7374e-06	811.75	310.34	5.4622e-06	5.6032e-06	307.48	121.05	121.62	40.166	5.3774e-06	44.512	294.259	217.250	260.029	157.372	283.181	267.100	156.404	162.326	306.802	295.320	159.996	164.502	166.283	171.356	292.434	168.406	-8191	255	
39859.648	1	1	0	0	0.25058	0.3079	0.29776	0.15592	0.20285	0.25289	0.10441	0.10444	0.086218	0.064056	0.23993	0.2372	0.19586	0.10939	0.28761	0.22463	-4.5938	-4.075	-4.3938	-4.6958	-4.1417	-4.6083	-4.45	-4.4458	-4.7104	-4.2083	-4.3979	-4.7333	-4.2875	-4.7083	-4.4729	-4.3479	274.359	336.641	203.251	463.542	368.447	393.695	437.308	167.032	359.518	329.812	382.507	437.561	153.977	455.506	310.841	459.020	0.00072067	0.00032613	0.00021619	914.25	7.4845e-06	4.7656e-06	809.04	306.86	4.3765e-06	5.4724e-06	302.82	120.21	120.22	39.076	7.5016e-06	43.371	0.00053074	0.00051154	0.00013927	922.39	5.7659e-06	5.597e-06	810.51	309.82	5.6823e-06	5.8155e-06	305.78	120.44	121.01	39.972	5.7799e-06	44.26	294.557	214.114	214.677	157.431	263.974	336.410	156.328	162.134	296.538	313.132	160.014	164.698	166.537	171.336	288.940	168.364	-8191	255	
39859.742	1	1	0	0	0.079545	0.20275	0.10376	0.13932	0.12772	0.14257	0.070883	0.30322	0.25263	0.28213	0.075633	0.08255	0.17977	0.3416	0.088741	0.12809	-4.3375	-4.1375	-4.4792	-4.8854	-4.1396	-4.4396	-4.6292	-4.2854	-4.5854	-4.2333	-4.1687	-4.6417	-4.1833	-4.575	-4.4812	-4.2812	353.107	239.106	376.623	484.779	375.475	172.643	182.691	428.063	440.214	499.532	203.823	302.879	499.586	462.603	442.666	377.501	0.00071777	0.00042708	0.00013816	914.92	9.0892e-06	9.5746e-07	807.92	307.37	7.2822e-06	4.3311e-06	303.7	120.82	120.48	39.6	3.9897e-06	43.771	0.00055111	0.00052472	0.00014326	921.26	5.9157e-06	5.7214e-06	809.81	309.83	5.8677e-06	5.8989e-06	306.58	121.04	121.42	40.277	5.5383e-06	44.688	295.751	212.975	249.170	157.366	311.194	458.006	156.197	162.251	316.233	331.263	160.206	164.482	166.621	171.415	311.744	168.543	-8191	255	
39859.840	1	1	0	0	0.18589	0.15221	0.01092	0.22982	0.11073	0.074902	0.02849	0.21534	0.090066	0.037671	0.26289	0.03849	0.1674	0.14461	0.14844	0.2882	-4.4146	-4.3208	-4.1208	-4.8812	-4.2833	-4.4292	-4.6687	-4.2188	-4.5479	-4.3688	-4.2	-4.7417	-4.3146	-4.4938	-4.7	-4.1646	262.216	313.939	351.811	408.241	467.856	293.018	380.805	458.875	324.715	225.976	415.693	453.075	311.274	427.134	314.571	418.481	0.00068043	0.00018573	9.2392e-05	915.18	5.2606e-06	7.6555e-06	813.58	306.98	7.8817e-06	2.4325e-06	305.88	121.37	121.99	40.154	5.5954e-06	44.604	0.00054141	0.00051394	0.00014134	921.25	5.7888e-06	5.6325e-06	813.09	310.15	5.4465e-06	5.165e-06	308.27	122.1	122.44	40.868	4.9988e-06	45.456	301.750	226.740	198.853	157.321	287.016	302.009	156.229	162.395	308.735	275.145	160.309	164.886	166.506	171.197	291.313	168.354	-8191	255	
39859.938	1	1	0	0	0.13919	0.072973	0.11299	0.20272	0.094931	0.13544	0.33974	0.24146	0.065362	0.3322	0.31814	0.10052	0.060741	0.16756	0.10833	0.069326	-4.1604	-4.5604	-4.1062	-4.8125	-4.1604	-4.3292	-4.8604	-4.1458	-4.4333	-4.3792	-4.2583	-4.8167	-4.3125	-4.4229	-4.5354	-4.2125	229.890	492.748	339.727	498.373	178.318	314.483	444.020	178.364	186.365	383.011	436.604	372.496	159.753	197.843	154.927	318.413	0.00073468	0.00033835	0.00016527	921.41	5.9599e-06	3.0105e-06	817.65	309.74	5.4059e-06	4.7322e-06	307.07	122.89	122.37	40.697	5.9869e-06	45.155	0.00049642	0.00045482	0.00012625	922.96	4.994e-06	4.8017e-06	815.52	311.71	4.9068e-06	4.7479e-06	309.87	123.54	123.22	41.376	4.9053e-06	46.007	297.294	260.802	240.157	157.405	247.253	325.011	156.307	162.360	319.634	290.759	160.264	164.687	166.639	171.284	285.530	168.337	-8191	255	
39860.031	1	1	0	0	0.21913	0.21372	0.053561	0.2637	0.17096	0.29242	0.28397	0.12884	0.15111	0.23724	0.17135	0.27821	0.29118	0.10225	0.13501	0.10152	-4.1958	-4.4271	-4.0021	-4.7708	-4.2438	-4.1417	-4.7417	-4.2021	-4.5521	-4.4396	-4.1458	-4.7896	-4.3104	-4.3542	-4.6521	-4.1333	377.887	402.609	481.862	416.371	485.744	158.967	440.851	147.605	368.468	343.243	431.623	417.099	158.189	254.669	167.125	461.014	0.00076241	0.00060029	0.00022933	924.68	1.0433e-05	5.9357e-06	812.05	308.97	4.6352e-06	4.1723e-06	305.96	122.62	123.22	40.571	6.0102e-06	45.283	0.0004829	0.00045515	0.00012695	926.25	4.9748e-06	5.0607e-06	815.69	311.53	4.9302e-06	4.9479e-06	309.74	123.31	123.69	41.512	4.9954e-06	45.962	293.293	248.207	256.519	157.408	299.306	284.934	156.318	162.281	319.219	285.685	160.046	164.483	166.539	171.158	306.089	168.218	-8191	255	
39860.152	1	1	0	0	0.12451	0.16135	0.072908	0.13333	0.11096	0.12538	0.10882	0.5444	0.11271	0.048318	0.13082	0.052535	0.098853	0.16862	0.0034627	0.26988	-4.1146	-4.6708	-3.9792	-4.7333	-4.5292	-4.1521	-4.8875	-4.4333	-4.4271	-4.6208	-4.2167	-4.7438	-4.3104	-4.3208	-4.7792	-4.25	225.991	475.289	327.824	380.410	472.168	255.119	461.242	459.335	473.811	300.497	416.413	162.172	270.216	455.935	379.864	361.964	0.00075476	0.00037497	0.0001921	911.67	1.0082e-05	3.8208e-06	810.22	310.28	5.6271e-06	5.5949e-07	305.69	122.91	122.21	40.623	6.4805e-06	44.91	0.000475	0.00043926	0.00012617	920.83	4.8478e-06	5.0766e-06	813	311.59	5.0453e-06	5.0001e-06	308.27	122.73	122.8	41.386	5.2656e-06	45.741	302.213	163.974	201.770	157.383	277.929	307.960	156.521	162.246	314.610	272.514	160.006	164.393	166.659	171.177	303.178	168.303	-8191	255	
39860.250	1	1	0	0	0.29051	0.17212	0.12523	0.041918	0.15813	0.054208	0.22035	0.084242	0.024537	0.20981	0.26266	0.031404	0.18053	0.23961	0.11557	0.14199	-4.0771	-4.7167	-4.1687	-4.6687	-4.4	-4.1271	-4.8187	-4.3521	-4.2333	-4.6646	-4.1771	-4.6937	-4.5354	-4.2333	-4.6396	-4.2875	347.401	163.256	208.360	376.876	247.983	365.700	494.954	379.570	184.383	427.097	459.010	193.938	499.026	454.810	272.449	458.205	0.00070857	0.0001279	0.0001377	918.32	5.4501e-06	4.9518e-06	815.11	308.65	6.3848e-06	6.7203e-06	305.59	122.38	121.59	40.5	5.0416e-06	44.999	0.00050091	0.00046751	0.00013337	921.87	5.132e-06	5.3565e-06	814.84	310.84	5.1544e-06	5.2159e-06	308.54	123.07	122.37	41.253	5.2566e-06	45.804	295.143	241.714	240.025	157.294	290.235	307.553	156.218	162.264	319.467	262.080	160.359	164.668	166.343	171.318	277.145	168.423	-8191	255	
39860.344	1	1	0	0	0.18944	0.17762	0.11458	0.15504	0.084986	0.063917	0.18499	0.05693	0.067738	0.019878	0.15877	0.082169	0.074589	0.13896	0.15902	0.23038	-3.8375	-4.6229	-4.1875	-4.4812	-4.5208	-3.9833	-4.6438	-4.3688	-4.1146	-4.7479	-4.2167	-4.5625	-4.6562	-4.1458	-4.5667	-4.55	356.368	457.150	443.230	452.051	152.178	470.683	385.638	234.801	502.791	450.141	477.295	173.029	456.290	408.154	454.691	305.120	0.00070346	0.00023526	0.00017064	915.53	8.0174e-06	4.0624e-06	815.03	308.86	8.6671e-06	4.5702e-06	305.77	122.57	121.73	40.244	5.3077e-06	44.754	0.00050159	0.00048286	0.00012934	920.47	5.0881e-06	5.2776e-06	816.1	311.11	5.0657e-06	5.1152e-06	308.65	122.95	122.51	40.976	5.1172e-06	45.576	298.031	171.528	218.100	157.478	284.395	271.590	156.308	162.225	334.182	328.252	160.297	164.506	166.454	171.284	277.420	168.048	-8191	255	
39860.441	1	1	0	0	0.19717	0.19406	0.12201	0.11838	0.097159	0.2007	0.28538	0.21766	0.16423	0.13858	0.1929	0.23758	0.24294	0.21455	0.11029	0.10186	-3.95	-4.8042	-4.2562	-4.6937	-4.6042	-4.2312	-4.7688	-4.7896	-4.2063	-4.7292	-4.2063	-4.5062	-4.6875	-4.1083	-4.7271	-4.5437	347.327	216.708	297.390	472.726	324.164	301.201	361.217	154.959	188.758	444.517	427.751	436.438	433.900	361.405	275.309	494.608	0.00070509	0.0006989	7.2839e-05	918.09	7.0439e-06	5.7178e-06	816.34	308.24	3.9421e-06	8.4787e-06	307.16	122.91	121.03	40.184	4.0942e-06	44.579	0.00048864	0.000464	0.00012908	921.07	4.8905e-06	5.0102e-06	816.97	310.14	4.7526e-06	4.8344e-06	308.41	123.04	121.66	40.892	4.6635e-06	45.312	298.559	243.700	269.238	157.307	314.527	294.217	156.258	162.075	299.466	297.538	160.311	164.481	166.461	171.134	353.970	168.284	-8191	255	
39860.535	1	1	0	0	0.20729	0.059928	0.14607	0.2702	0.035998	0.084396	0.10448	0.055732	0.01758	0.10839	0.18889	0.19116	0.29535	0.23367	0.12298	0.15807	-3.8417	-4.7979	-4.3021	-4.5125	-4.7271	-4.2125	-4.7792	-4.5375	-3.9875	-4.8542	-4.3229	-4.4417	-4.8646	-4.15	-4.5813	-4.6458	380.809	493.518	445.294	473.432	384.011	352.045	402.112	299.353	405.290	144.719	182.831	416.670	414.757	386.271	482.641	363.097	0.0006815	0.00048295	8.9082e-05	912.73	5.3978e-06	5.3884e-06	813.43	306.26	6.0079e-06	4.5792e-06	301.88	120.91	120.15	39.574	7.1954e-06	43.894	0.00047137	0.00043704	0.00011897	917.79	4.7344e-06	4.9601e-06	813.9	308.37	4.8217e-06	4.8274e-06	304.64	121.55	120.58	40.223	4.7032e-06	44.611	296.361	225.041	272.236	157.344	323.525	267.188	156.084	162.151	316.269	268.669	160.367	164.626	166.504	171.224	305.607	168.608	-8191	255	
39860.633	1	1	0	0	0.015255	0.087529	0.16214	0.21465	0.095048	0.23613	0.11578	0.25282	0.10025	0.092523	0.095133	0.1708	0.065242	0.13265	0.14371	0.057374	-3.75	-4.7208	-4.2854	-4.3396	-4.7458	-4.1875	-4.6521	-4.5583	-4.0792	-4.6083	-4.4646	-4.2167	-4.9	-4.2375	-4.3125	-4.6146	375.389	233.175	502.357	427.701	241.035	477.556	466.125	468.954	280.771	336.797	500.330	497.678	360.097	503.650	317.748	263.014	0.00072072	0.00036247	0.00014154	910.69	1.0053e-05	5.3556e-06	809.19	304.01	6.3984e-06	6.3159e-06	300.95	121.19	119.03	39.321	6.2255e-06	43.585	0.00047272	0.00043138	0.00011805	911.47	4.672e-06	4.8344e-06	810.26	306.25	4.8081e-06	4.5406e-06	302.66	121.21	119.46	39.919	4.4712e-06	44.375	299.072	253.275	216.003	157.305	301.944	340.192	156.283	162.248	302.633	263.917	160.028	164.734	166.627	171.037	274.874	168.241	-8191	255	
39860.754	1	1	0	0	0.26759	0.19742	0.068918	0.053092	0.064932	0.21116	0.30467	0.048311	0.1085	0.044115	0.23317	0.145	0.080035	0.25182	0.074736	0.28148	-3.6375	-4.5437	-4.4812	-4.3354	-4.7208	-4.1333	-4.5542	-4.8063	-3.975	-4.5563	-4.5938	-4.0938	-4.6312	-4.3083	-4.3104	-4.7417	255.824	335.021	490.144	197.852	252.376	155.045	428.242	446.710	416.319	316.997	475.420	175.296	455.395	490.141	413.911	476.883	0.00062429	0.00038454	0.00017346	908.06	3.4533e-06	2.8046e-06	813.6	303.49	6.0567e-06	6.1611e-06	298.67	120.24	117.73	38.356	6.1746e-06	42.881	0.00045107	0.00039427	0.00010597	911.43	4.2452e-06	4.3305e-06	812.13	304.84	4.2204e-06	4.0945e-06	301.2	120.2	117.89	38.977	4.1297e-06	43.556	295.840	264.436	245.725	157.451	292.460	296.916	156.331	162.394	315.169	279.886	160.469	164.632	166.464	171.542	312.265	168.056	-8191	255	
39860.848	1	1	0	0	0.23032	0.17418	0.23044	0.24218	0.32476	0.20819	0.27308	0.31882	0.055656	0.13668	0.10737	0.071949	0.10496	0.31858	0.23012	0.083996	-3.9021	-4.4646	-4.6062	-4.2312	-4.6208	-4.2958	-4.3667	-4.7792	-4.0458	-4.6813	-4.625	-4.1146	-4.6292	-4.4042	-4.3396	-4.7208	333.754	340.671	358.067	484.872	261.057	270.293	454.814	406.729	399.651	271.195	485.411	381.825	174.185	471.174	263.924	387.107	0.00074806	0.00038961	6.4493e-05	912.18	4.7035e-06	5.5822e-06	821.98	302.85	4.1911e-06	3.9836e-06	301.81	120.25	117.42	38.24	5.5387e-06	43.256	0.0004293	0.00036044	9.9304e-05	915.58	3.9329e-06	3.9941e-06	820.95	304.8	4.0023e-06	3.8139e-06	303.2	120.24	118.07	38.855	3.9095e-06	43.82	298.701	205.468	259.174	157.348	273.700	277.768	156.388	162.133	311.648	280.990	160.037	164.472	166.314	171.419	298.192	168.489	-8191	255	
39860.945	1	1	0	0	0.12024	0.16847	0.097423	0.10504	0.24703	0.10756	0.24947	0.15307	0.24465	0.073063	0.13196	0.18415	0.19056	0.077126	0.057636	0.16778	-3.8854	-4.3625	-4.7042	-4.1667	-4.6937	-4.4667	-4.3229	-4.7792	-4.1625	-4.5729	-4.85	-4.1833	-4.5833	-4.5458	-4.1854	-4.6917	487.144	246.644	347.473	361.034	344.716	359.850	453.940	461.499	233.339	382.496	345.501	439.427	251.873	397.469	335.789	152.487	0.00077665	0.00050874	6.9968e-05	915.87	7.8565e-06	1.6462e-06	819.64	305.93	5.2367e-06	5.2899e-06	302.13	120.49	118.78	38.448	5.5376e-06	43.481	0.00041717	0.00035984	9.5967e-05	918.68	3.8576e-06	3.7488e-06	821.09	307.53	3.7754e-06	3.7511e-06	303.83	120.87	118.97	39.121	4.1104e-06	44.089	296.364	237.119	236.090	157.291	277.495	276.344	156.289	162.532	306.795	278.093	160.295	164.633	166.364	171.679	310.970	168.328	-8191	255	
39861.039	1	1	0	0	0.16388	0.29016	0.10646	0.29304	0.30217	0.16333	0.057644	0.15789	0.13152	0.095569	0.10752	0.074394	0.12414	0.15038	0.20225	0.16706	-3.7562	-4.3625	-4.6062	-4.2417	-4.5312	-4.5542	-4.2167	-4.8458	-4.1521	-4.2542	-4.6375	-4.1271	-4.6896	-4.4375	-4.0583	-4.8292	229.197	409.229	402.925	442.285	303.197	197.554	367.047	458.953	459.152	183.645	467.271	199.411	437.163	392.692	376.472	443.322	0.00070149	0.00033489	0.00011979	918.54	5.8554e-06	3.3769e-06	824.98	309.29	5.4579e-06	5.3252e-06	305.54	121.68	119.06	38.622	8.438e-06	43.521	0.00040064	0.00035609	0.00010141	921.91	3.9858e-06	3.8468e-06	824.97	311.27	4.0887e-06	4.0842e-06	307.29	121.36	119.59	39.363	4.3164e-06	44.16	295.556	184.115	239.275	157.305	308.905	266.914	156.207	162.297	316.351	280.408	160.101	164.503	166.116	171.260	295.011	168.668	-8191	255	
39861.137	1	1	0	0	0.077588	0.20534	0.11162	0.10478	0.061827	0.12206	0.27819	0.2414	0.083899	0.025609	0.12086	0.13896	0.25276	0.33141	0.2319	0.088048	-3.8729	-4.2354	-4.6479	-4.3542	-4.5687	-4.4854	-4.1792	-4.8021	-4.275	-4.1271	-4.8	-4.0875	-4.5667	-4.7396	-4.05	-4.8625	468.044	366.429	456.494	274.717	256.724	360.158	444.212	416.426	159.542	309.814	457.107	447.046	452.997	475.249	274.465	424.922	0.00070617	0.00039745	0.00013532	920.83	5.8338e-06	4.2668e-06	826.01	311.37	4.9775e-06	2.9068e-06	307.77	121.23	119.82	38.912	3.7387e-06	43.964	0.00041721	0.00038841	0.00010745	925.08	4.203e-06	4.2206e-06	826.56	313.18	4.2092e-06	4.3662e-06	310.08	121.54	120.31	39.655	4.3506e-06	44.622	297.083	223.456	229.524	157.320	323.803	256.053	156.367	162.106	324.404	284.216	160.105	164.773	166.512	171.352	300.658	168.436	-8191	255	
#DATA ENDS
