BOXY.EXE: ISS Imagent and Oximeter Data Acquisition Program Version 0.80
Ascii Record File

#ACQ INFORMATION
2  Detector Channels 
16  External MUX Channels 
1  Auxiliary Channels 
5000  Waveform (CCF) Frequency (Hz)
1  Waveforms Skipped 
30  Waveforms Averaged 
1  Cycles Averaged 
16  Acquisitions per Waveform 
10.0806  Updata Rate (Hz) 

#FILE INFORMATION
TRUE -- External MUX Channel results are PARSED.
FALSE -- AC DC and Phase are NOT grouped.
TRUE -- Companion Program Settings File CREATED.
FALSE -- AC data not excluded
FALSE -- DC data not excluded
FALSE -- Phase data not excluded
FALSE -- Auxillary Chn. data not excluded
Tab delimiters

#CALIBRATION STATE
TRUE -- Waveform Calibration Values APPLIED.


#AUX CALIBRATION VALUES
Val Type	aux-1	

Term	1.0000e+00	
Factor	0.0000e+00	


#WF CALIBRATION VALUES
A = Detector Channel
Val Type	A-AC1	A-AC2	A-AC3	A-AC4	A-AC5	A-AC6	A-AC7	A-AC8	A-AC9	A-AC10	A-AC11	A-AC12	A-AC13	A-AC14	A-AC15	A-AC16	A-DC1	A-DC2	A-DC3	A-DC4	A-DC5	A-DC6	A-DC7	A-DC8	A-DC9	A-DC10	A-DC11	A-DC12	A-DC13	A-DC14	A-DC15	A-DC16	A-Ph1	A-Ph2	A-Ph3	A-Ph4	A-Ph5	A-Ph6	A-Ph7	A-Ph8	A-Ph9	A-Ph10	A-Ph11	A-Ph12	A-Ph13	A-Ph14	A-Ph15	A-Ph16	

Term	0.00000e+00	0.00000e+00	0.00000e+00	0.00000e+00	0.00000e+00	0.00000e+00	0.00000e+00	0.00000e+00	0.00000e+00	0.00000e+00	0.00000e+00	0.00000e+00	0.00000e+00	0.00000e+00	0.00000e+00	0.00000e+00	0.00000e+00	0.00000e+00	0.00000e+00	0.00000e+00	0.00000e+00	0.00000e+00	0.00000e+00	0.00000e+00	0.00000e+00	0.00000e+00	0.00000e+00	0.00000e+00	0.00000e+00	0.00000e+00	0.00000e+00	0.00000e+00	0.00000e+00	0.00000e+00	0.00000e+00	0.00000e+00	0.00000e+00	0.00000e+00	0.00000e+00	0.00000e+00	0.00000e+00	0.00000e+00	0.00000e+00	0.00000e+00	0.00000e+00	0.00000e+00	0.00000e+00	0.00000e+00	
Factor	1.00000e+00	1.00000e+00	1.00000e+00	1.00000e+00	1.00000e+00	1.00000e+00	1.00000e+00	1.00000e+00	1.00000e+00	1.00000e+00	1.00000e+00	1.00000e+00	1.00000e+00	1.00000e+00	1.00000e+00	1.00000e+00	1.00000e+00	1.00000e+00	1.00000e+00	1.00000e+00	1.00000e+00	1.00000e+00	1.00000e+00	1.00000e+00	1.00000e+00	1.00000e+00	1.00000e+00	1.00000e+00	1.00000e+00	1.00000e+00	1.00000e+00	1.00000e+00	X	X	X	X	X	X	X	X	X	X	X	X	X	X	X	X	

B = Detector Channel
Val Type	B-AC1	B-AC2	B-AC3	B-AC4	B-AC5	B-AC6	B-AC7	B-AC8	B-AC9	B-AC10	B-AC11	B-AC12	B-AC13	B-AC14	B-AC15	B-AC16	B-DC1	B-DC2	B-DC3	B-DC4	B-DC5	B-DC6	B-DC7	B-DC8	B-DC9	B-DC10	B-DC11	B-DC12	B-DC13	B-DC14	B-DC15	B-DC16	B-Ph1	B-Ph2	B-Ph3	B-Ph4	B-Ph5	B-Ph6	B-Ph7	B-Ph8	B-Ph9	B-Ph10	B-Ph11	B-Ph12	B-Ph13	B-Ph14	B-Ph15	B-Ph16	

Term	0.00000e+00	0.00000e+00	0.00000e+00	0.00000e+00	0.00000e+00	0.00000e+00	0.00000e+00	0.00000e+00	0.00000e+00	0.00000e+00	0.00000e+00	0.00000e+00	0.00000e+00	0.00000e+00	0.00000e+00	0.00000e+00	0.00000e+00	0.00000e+00	0.00000e+00	0.00000e+00	0.00000e+00	0.00000e+00	0.00000e+00	0.00000e+00	0.00000e+00	0.00000e+00	0.00000e+00	0.00000e+00	0.00000e+00	0.00000e+00	0.00000e+00	0.00000e+00	-2.21930e+01	-1.30555e+02	-1.19593e+02	-1.81765e+02	-6.15087e+01	-6.84839e+01	-1.57216e+02	-1.62015e+02	-2.86346e+01	-6.79659e+01	-1.71050e+02	-1.71975e+02	-1.82255e+02	-1.76979e+02	-5.58940e+01	-1.49379e+02	
Factor	2.76929e-05	1.60331e-04	5.43878e-05	1.45372e-01	2.66852e-06	1.64523e-06	1.64428e-01	5.20594e-02	1.55519e-06	1.78831e-06	8.49940e-02	3.51328e-02	3.64614e-02	9.18147e-03	1.78014e-06	1.30177e-02	5.70160e-06	6.72933e-06	1.86889e-06	7.47343e-02	7.13936e-08	7.39673e-08	7.93960e-02	2.67438e-02	7.14214e-08	7.41394e-08	4.25018e-02	1.75270e-02	1.88403e-02	4.76276e-03	7.22786e-08	6.54405e-03	X	X	X	X	X	X	X	X	X	X	X	X	X	X	X	X	



#DISTANCE SETTINGS
A = Detector Channel
A-1	A-2	A-3	A-4	A-5	A-6	A-7	A-8	A-9	A-10	A-11	A-12	A-13	A-14	A-15	A-16	

2.5000e+00	3.0000e+00	2.5000e+00	3.0000e+00	2.0000e+00	3.0000e+00	1.5000e+00	3.0000e+00	3.0000e+00	3.0000e+00	3.0000e+00	3.0000e+00	3.0000e+00	3.0000e+00	1.5000e+00	3.0000e+00	

B = Detector Channel
B-1	B-2	B-3	B-4	B-5	B-6	B-7	B-8	B-9	B-10	B-11	B-12	B-13	B-14	B-15	B-16	

1.0000e+01	1.0000e+01	1.0000e+01	1.4400e+00	1.0000e+01	1.0000e+01	1.5100e+00	1.9400e+00	1.0000e+01	1.0000e+01	1.9900e+00	2.4900e+00	2.4100e+00	2.9000e+00	1.0000e+01	2.9800e+00	




#DATA BEGINS
time	group	step	mark	flag	A-AC1	A-AC2	A-AC3	A-AC4	A-AC5	A-AC6	A-AC7	A-AC8	A-AC9	A-AC10	A-AC11	A-AC12	A-AC13	A-AC14	A-AC15	A-AC16	A-DC1	A-DC2	A-DC3	A-DC4	A-DC5	A-DC6	A-DC7	A-DC8	A-DC9	A-DC10	A-DC11	A-DC12	A-DC13	A-DC14	A-DC15	A-DC16	A-Ph1	A-Ph2	A-Ph3	A-Ph4	A-Ph5	A-Ph6	A-Ph7	A-Ph8	A-Ph9	A-Ph10	A-Ph11	A-Ph12	A-Ph13	A-Ph14	A-Ph15	A-Ph16	B-AC1	B-AC2	B-AC3	B-AC4	B-AC5	B-AC6	B-AC7	B-AC8	B-AC9	B-AC10	B-AC11	B-AC12	B-AC13	B-AC14	B-AC15	B-AC16	B-DC1	B-DC2	B-DC3	B-DC4	B-DC5	B-DC6	B-DC7	B-DC8	B-DC9	B-DC10	B-DC11	B-DC12	B-DC13	B-DC14	B-DC15	B-DC16	B-Ph1	B-Ph2	B-Ph3	B-Ph4	B-Ph5	B-Ph6	B-Ph7	B-Ph8	B-Ph9	B-Ph10	B-Ph11	B-Ph12	B-Ph13	B-Ph14	B-Ph15	B-Ph16	aux-1	digaux	

39433.938	1	1	0	256	0.1994	0.18589	0.063706	0.22549	0.13189	0.31695	0.14079	0.23783	0.0019742	0.26767	0.19301	0.17887	0.18647	0.23579	0.16371	0.1665	-3.8417	-4.8292	-4.1625	-4.6375	-4.6958	-4.2042	-4.7292	-4.6479	-4.1458	-4.9021	-4.3063	-4.5479	-4.8625	-4.3208	-4.5604	-4.6854	-72.969	46.936	50.810	-170.406	9.586	115.604	105.588	82.236	180.000	-87.275	180.605	145.410	-151.893	86.575	167.300	107.875	0.00069772	0.00044091	0.00022264	1398.4	8.7992e-06	4.4908e-06	1389.3	371.62	5.7806e-06	6.2254e-06	422.43	142.34	123.58	41.573	3.7646e-06	50.981	0.00028266	0.00020595	5.8029e-05	1417.8	2.4684e-06	2.2839e-06	1404.6	377.57	2.424e-06	2.2801e-06	428.2	144.14	125.47	42.63	2.2759e-06	52.227	-53.793	-69.746	-82.600	-158.368	-29.924	-22.735	-158.439	-153.718	-12.305	-35.250	-154.177	-149.864	-149.199	-144.634	-21.422	-145.022	-8191	255	
39434.035	1	1	0	0	0.057115	0.10658	0.16329	0.22246	0.23022	0.14696	0.18285	0.12083	0.23374	0.053834	0.36218	0.16567	0.24009	0.0913	0.079976	0.056872	-3.8854	-4.8521	-4.2937	-4.4604	-4.6687	-4.1521	-4.7604	-4.6271	-4.25	-4.5958	-4.5104	-4.3542	-4.7875	-4.3708	-4.7458	-4.7083	-66.293	59.934	176.171	187.476	-126.004	-121.247	143.382	185.048	-65.860	-92.107	163.977	-154.967	109.461	89.226	55.971	180.998	0.00068077	0.00039055	0.00018365	1398.4	6.9131e-06	5.4532e-06	1388.9	371.31	4.5353e-06	3.587e-06	420.9	141.77	123.36	41.605	5.26e-06	50.995	0.00026919	0.00019906	5.688e-05	1416.2	2.4336e-06	2.2951e-06	1404.9	377.37	2.4054e-06	2.2124e-06	426.87	143.82	125.32	42.582	2.3051e-06	52.214	-51.951	-94.654	-105.567	-158.131	-23.513	-24.251	-158.413	-153.472	-16.382	-31.331	-153.925	-149.704	-149.176	-144.613	-14.197	-145.207	-8191	255	
39434.105	1	1	0	0	0.127	0.12976	0.043662	0.19379	0.18937	0.17468	0.30018	0.17214	0.19013	0.10624	0.18892	0.18175	0.11569	0.071093	0.17312	0.099994	-3.7354	-4.6833	-4.3729	-4.5396	-4.5729	-4.2375	-4.6375	-4.7917	-4.1646	-4.7458	-4.6583	-4.3396	-4.8667	-4.4021	-4.2958	-4.8396	-72.345	160.520	179.300	134.527	-16.031	-134.352	169.091	173.672	38.150	4.089	131.555	-78.250	121.775	96.912	45.559	-154.265	0.00070207	0.00041396	9.232e-05	1396.7	8.1134e-06	3.3869e-06	1384.1	372.09	4.2734e-06	5.1726e-06	419.78	142.04	123.64	41.678	6.4232e-06	50.913	0.00028045	0.00021133	5.8792e-05	1414.8	2.3517e-06	2.2537e-06	1402.5	377.4	2.4155e-06	2.2254e-06	427.07	143.95	125.5	42.626	2.2936e-06	52.251	-54.367	-109.422	-69.279	-157.990	-16.205	-22.339	-158.390	-153.711	-20.344	-9.593	-153.945	-149.738	-149.233	-144.409	-23.601	-145.326	-8191	255	
39434.203	1	1	0	0	0.1718	0.098356	0.1983	0.065712	0.17924	0.086327	0.16062	0.33443	0.23489	0.082642	0.093004	0.16407	0.01317	0.22687	0.10393	0.12672	-3.7292	-4.5917	-4.5563	-4.5854	-4.8583	-4.2833	-4.5292	-4.8979	-4.1958	-4.575	-4.7583	-4.4396	-4.7833	-4.5	-4.3229	-4.8812	-93.275	57.114	-3.070	-21.767	-125.130	9.207	145.279	107.463	114.989	48.101	139.050	-141.635	89.465	155.760	76.374	-8.660	0.00067989	0.0005396	0.00014311	1391	5.138e-06	4.2875e-06	1381.6	371.97	5.0789e-06	6.3934e-06	419.73	141.97	123.48	41.625	6.836e-06	51.095	0.00027836	0.00020136	5.5288e-05	1412.1	2.3814e-06	2.1907e-06	1401.7	377.41	2.3105e-06	2.1766e-06	427.06	143.84	125.34	42.686	2.2446e-06	52.26	-51.787	-88.721	-75.414	-158.191	-18.715	-56.480	-158.532	-153.516	-6.461	-12.584	-153.916	-149.641	-149.312	-144.730	-38.256	-145.398	-8191	255	
39434.324	1	1	0	0	0.23545	0.082869	0.032039	0.10785	0.079367	0.15937	0.09864	0.24341	0.074448	0.049512	0.18808	0.16371	0.18626	0.25662	0.074972	0.079861	-3.8229	-4.6229	-4.5833	-4.3125	-4.8146	-4.4458	-4.475	-5.0146	-4.2146	-4.5708	-4.9229	-4.1646	-4.8229	-4.6771	-4.3292	-5.0021	132.885	-167.882	78.516	96.835	-90.607	104.137	100.838	78.425	37.856	-32.708	-155.950	45.481	34.730	183.533	109.976	-128.509	0.00068085	0.0004439	0.0001109	1391.3	8.9304e-06	3.2985e-06	1386	371.49	4.2835e-06	5.5239e-06	422.69	141.16	124.23	41.64	4.7145e-06	50.883	0.000271	0.00018915	5.3984e-05	1413.1	2.2546e-06	2.1429e-06	1402.8	377.44	2.3548e-06	2.176e-06	427.21	143.76	125.25	42.585	2.2438e-06	52.225	-51.853	-91.602	-103.532	-158.276	-26.076	-43.818	-158.292	-153.466	-22.012	-18.606	-154.083	-149.764	-149.096	-144.603	-33.166	-145.432	-8191	255	
39434.418	1	1	0	0	0.20655	0.20934	0.16862	0.32402	0.15513	0.12046	0.087503	0.23386	0.076802	0.11115	0.28851	0.038773	0.083686	0.10974	0.32396	0.43321	-3.875	-4.5042	-4.6896	-4.4125	-4.7	-4.4729	-4.3771	-5.0312	-4.2583	-4.525	-4.9583	-4.3375	-4.6542	-4.7042	-4.2271	-4.8646	92.098	-102.298	76.347	-165.814	85.250	85.500	31.915	129.073	-18.695	-113.159	-166.495	127.127	185.990	118.710	-171.022	125.166	0.00066292	0.00037387	0.00015179	1393.7	7.1301e-06	3.6821e-06	1386.4	370.99	5.2181e-06	5.3481e-06	420.79	142.04	123.28	41.546	4.231e-06	50.653	0.00027631	0.00019969	5.5241e-05	1413.6	2.3964e-06	2.2552e-06	1403.1	377.83	2.3097e-06	2.2291e-06	427.34	143.71	125.27	42.549	2.2577e-06	52.038	-53.719	-72.658	-63.100	-158.126	-42.286	-19.556	-158.432	-153.555	-23.020	-32.919	-154.050	-149.515	-149.113	-144.551	-38.967	-145.567	-8191	255	
39434.516	1	1	0	0	0.08725	0.2096	0.1724	0.067632	0.17542	0.065529	0.34264	0.17485	0.1477	0.1157	0.20834	0.11306	0.13094	0.19994	0.19035	0.16512	-3.9875	-4.3521	-4.9042	-4.3063	-4.7396	-4.5146	-4.3458	-4.9792	-4.3917	-4.4021	-4.9646	-4.3812	-4.7708	-4.5771	-4.3375	-4.9104	92.255	-112.981	28.699	-36.479	124.423	-43.866	156.316	129.813	97.844	-60.406	-8.902	122.863	139.908	-121.384	151.529	124.042	0.00068439	0.00041152	0.0001781	1399.2	5.9114e-06	3.5959e-06	1387.5	370.8	7.4052e-06	2.2185e-06	420.1	141.56	124.07	41.563	4.8498e-06	50.802	0.0002826	0.00020759	5.6608e-05	1416.4	2.3773e-06	2.2808e-06	1403.4	377.21	2.4658e-06	2.3502e-06	426.93	143.57	125.26	42.492	2.3995e-06	52.117	-50.140	-91.852	-75.951	-158.274	-52.741	-41.768	-158.429	-153.423	-11.246	-27.537	-154.209	-149.523	-149.181	-144.583	-27.851	-145.041	-8191	255	
39434.637	1	1	0	0	0.23372	0.078903	0.05122	0.33293	0.087643	0.23876	0.1993	0.26723	0.47006	0.14298	0.05085	0.12529	0.081548	0.39175	0.16547	0.32284	-3.9458	-4.2354	-4.9062	-4.5083	-4.4333	-4.6979	-4.4875	-4.7792	-4.3187	-4.2958	-4.875	-4.4	-4.5208	-4.6354	-4.0729	-4.8688	-122.204	-73.095	-171.017	133.914	-135.440	-96.267	132.472	187.039	115.321	-70.084	7.684	-150.615	21.546	-151.258	55.965	154.126	0.00068608	0.00052611	0.00011467	1394.8	5.9032e-06	3.1892e-06	1382.8	371.34	6.4904e-06	5.2544e-06	421.68	140.94	123.23	41.467	5.9741e-06	50.74	0.00028389	0.00022168	6.0147e-05	1415	2.52e-06	2.2702e-06	1401.7	377.09	2.4127e-06	2.2918e-06	427.17	143.57	125.07	42.491	2.3924e-06	52.048	-51.995	-102.676	-54.916	-158.035	-23.333	-32.022	-158.449	-153.739	-13.605	-21.574	-154.145	-149.692	-149.335	-144.599	-25.507	-145.471	-8191	255	
39434.707	1	1	0	0	0.1344	0.10573	0.036276	0.2653	0.17874	0.13477	0.26413	0.12951	0.24086	0.20166	0.26696	0.21594	0.18719	0.12931	0.30816	0.026731	-4.0896	-4.1937	-4.8063	-4.5729	-4.4042	-4.6458	-4.4125	-4.75	-4.45	-4.2375	-4.9	-4.4083	-4.3708	-4.8729	-4.1813	-4.7	102.394	-3.619	56.353	174.418	44.304	64.967	124.553	156.110	70.134	-102.157	135.967	-1.422	150.195	-39.124	-41.830	21.784	0.00070868	0.00036358	0.00012687	1386.6	8.7833e-06	4.6291e-06	1380.2	369.55	5.8865e-06	3.7819e-06	420.09	141.19	123.08	41.553	3.6728e-06	50.837	0.00027964	0.00021687	5.6713e-05	1409.1	2.4118e-06	2.2065e-06	1399	376.37	2.3627e-06	2.266e-06	426.49	143.52	124.88	42.494	2.32e-06	52.042	-52.792	-46.478	-61.339	-158.204	-38.617	-20.558	-158.441	-153.574	-17.373	-25.528	-153.915	-149.712	-149.129	-144.609	-18.446	-145.223	-8191	255	
39434.805	1	1	0	0	0.2094	0.19626	0.19554	0.17397	0.11432	0.077971	0.20957	0.28216	0.033272	0.080439	0.21684	0.12846	0.016181	0.22076	0.17246	0.17391	-4.2875	-4.3354	-4.9042	-4.5604	-4.3354	-4.8979	-4.4229	-4.7417	-4.5437	-4.0354	-4.8688	-4.3833	-4.1771	-4.9396	-4.1521	-4.8	147.144	-143.162	-153.141	158.871	122.182	-168.370	109.314	110.936	-34.298	-145.342	-132.475	156.174	-102.382	147.444	9.656	120.961	0.00067965	0.00064983	0.00014987	1390.1	6.847e-06	4.3686e-06	1380.8	371.57	6.4712e-06	4.218e-06	419.26	140.93	123.05	41.4	6.5394e-06	50.756	0.00026516	0.00020187	5.6008e-05	1410	2.3126e-06	2.0557e-06	1396.7	376.62	2.2816e-06	2.1703e-06	425.75	143.27	124.74	42.45	2.1912e-06	52.07	-52.942	-97.033	-80.611	-158.219	-41.132	-7.810	-158.285	-153.569	-17.845	-39.521	-154.184	-149.570	-149.158	-144.603	-23.520	-145.267	-8191	255	
39434.922	1	1	0	0	0.1134	0.10644	0.083971	0.13043	0.17992	0.1213	0.22719	0.22967	0.17002	0.031798	0.19684	0.24445	0.18363	0.13636	0.093812	0.16552	-4.2333	-4.2271	-4.6687	-4.6208	-4.1125	-4.7896	-4.4104	-4.7417	-4.7396	-4.0917	-4.7812	-4.5188	-4.4333	-4.8521	-4.2333	-4.4187	179.635	49.643	-87.709	73.615	52.882	-20.293	42.771	104.617	87.756	62.386	46.410	-162.353	-122.827	168.445	-37.821	182.808	0.00068932	0.00053775	0.00015862	1390.4	5.7892e-06	4.0677e-06	1377.2	370.22	3.8359e-06	7.1593e-06	418.78	140.69	123.33	41.407	6.0644e-06	50.744	0.00026889	0.00020554	5.2749e-05	1408.8	2.4384e-06	2.1418e-06	1396.5	376.61	2.3347e-06	2.3026e-06	425.76	143.28	125.04	42.405	2.1928e-06	51.977	-52.490	-90.945	-81.749	-158.210	-25.871	-13.598	-158.532	-153.608	-0.484	-30.646	-154.036	-149.675	-149.177	-144.380	-28.795	-145.492	-8191	255	
39435.020	1	1	0	0	0.13495	0.046647	0.05504	0.039226	0.14732	0.1049	0.1804	0.16695	0.18597	0.16562	0.11355	0.28793	0.11668	0.10573	0.02706	0.27913	-4.2812	-4.1667	-4.6146	-4.7125	-4.1896	-4.775	-4.3521	-4.5979	-4.7354	-4.1208	-4.7375	-4.6708	-4.275	-5.0437	-4.4292	-4.4458	-90.332	-104.026	77.193	137.897	129.534	68.046	112.943	79.860	178.054	23.657	-149.333	-111.786	129.865	152.930	-59.135	68.128	0.00067894	0.00055106	0.00016048	1388.9	1.0441e-05	3.8299e-06	1380.6	370.23	4.771e-06	5.2037e-06	418.78	141.64	123.56	41.44	5.4753e-06	50.62	0.00027059	0.0002101	5.5463e-05	1408.8	2.3837e-06	2.1699e-06	1398.3	376.4	2.3048e-06	2.1854e-06	426.04	143.57	125.02	42.443	2.2009e-06	51.938	-50.772	-97.501	-55.696	-158.152	-46.017	-30.967	-158.252	-153.618	-1.854	-47.703	-153.967	-149.921	-149.022	-144.364	-6.016	-145.329	-8191	255	
39435.113	1	1	0	0	0.12859	0.025458	0.22122	0.21909	0.13916	0.19329	0.049974	0.14099	0.26322	0.21325	0.087854	0.17439	0.15275	0.15684	0.062228	0.27168	-4.6208	-4.0563	-4.5917	-4.8063	-4.3042	-4.675	-4.8042	-4.3917	-4.7396	-4.3333	-4.5188	-4.6937	-4.1646	-4.7292	-4.475	-4.2458	-61.845	-99.377	-97.861	-163.905	-152.701	-30.578	-163.918	174.401	-157.678	-130.825	148.486	-155.342	-129.839	183.666	-22.087	112.095	0.00066181	0.00050618	0.00010102	1388.6	6.4209e-06	3.9734e-06	1377.4	371.58	5.4596e-06	1.7732e-06	420.33	140.98	123.01	41.482	4.6487e-06	50.793	0.00026237	0.00020288	5.6308e-05	1408.2	2.3549e-06	2.096e-06	1395.4	376.29	2.312e-06	2.2477e-06	427.02	143.37	124.83	42.451	2.2977e-06	52.08	-54.353	-78.319	-76.532	-158.301	-51.101	-25.179	-158.385	-153.667	-16.636	-58.236	-154.067	-149.921	-149.272	-144.510	-9.128	-145.411	-8191	255	
39435.234	1	1	0	0	0.15352	0.053204	0.10392	0.14149	0.14277	0.16211	0.13599	0.1724	0.081098	0.19065	0.30848	0.073955	0.15544	0.068675	0.3927	0.35357	-4.4292	-4.2792	-4.2854	-4.9333	-4.2812	-4.7333	-4.7104	-4.3104	-4.7396	-4.2667	-4.7667	-4.7063	-4.2917	-4.7396	-4.5312	-4.3146	143.413	-91.022	-101.136	126.519	88.656	56.517	170.562	56.747	172.368	53.158	-96.227	99.679	-133.136	123.998	68.118	-92.896	0.00065776	0.00047318	0.00014396	1397.3	6.7748e-06	2.8497e-06	1380.2	371.39	5.0189e-06	3.2678e-06	420.16	140.85	122.76	41.513	6.2992e-06	50.753	0.00027838	0.00020607	5.9501e-05	1411.5	2.5336e-06	2.2711e-06	1399.9	377.41	2.524e-06	2.3519e-06	426.96	143.3	124.93	42.476	2.5186e-06	52.095	-49.785	-76.771	-71.603	-158.100	-39.350	-33.633	-158.526	-153.613	-10.369	-21.633	-153.910	-149.584	-149.153	-144.606	-38.990	-145.564	-8191	255	
39435.309	1	1	0	0	0.061651	0.17783	0.078822	0.13079	0.13339	0.08074	0.075927	0.27878	0.17276	0.07799	0.10803	0.13426	0.041336	0.051235	0.2265	0.13267	-4.5062	-4.1813	-4.5	-5.0167	-4.1625	-4.6396	-4.7521	-4.3208	-4.6604	-4.3771	-4.5167	-4.8667	-4.3104	-4.8125	-4.7125	-4.2333	-60.317	-114.585	7.448	165.149	165.699	104.624	170.492	95.298	-66.432	55.731	-143.056	55.702	166.901	116.953	-141.761	80.812	0.00066925	0.00049525	0.00018345	1394.1	8.4305e-06	6.1956e-06	1388.3	372.2	5.8917e-06	3.7288e-06	420.48	141.41	123	41.539	3.8068e-06	50.662	0.00028532	0.00022173	6.1989e-05	1414	2.616e-06	2.3688e-06	1403.5	377.05	2.4881e-06	2.3839e-06	427.25	143.63	125.1	42.403	2.4149e-06	52.026	-55.013	-89.569	-82.761	-158.283	-33.621	-4.604	-158.408	-153.633	-5.049	-23.705	-154.105	-149.848	-149.338	-144.621	-1.141	-145.393	-8191	255	
39435.402	1	1	0	0	0.14712	0.12779	0.032181	0.18823	0.077557	0.091534	0.17237	0.12007	0.12597	0.083604	0.11531	0.2234	0.2337	0.097011	0.26731	0.1177	-4.3604	-4.4229	-4.3167	-5.0333	-4.0604	-4.525	-4.8146	-4.3417	-4.8063	-4.5125	-4.4229	-4.9062	-4.4042	-4.5771	-4.8417	-4.1833	133.380	6.985	-114.166	145.938	-106.328	63.317	68.135	133.695	80.096	86.085	70.339	180.052	-167.364	82.277	181.542	71.363	0.0006827	0.00049484	0.00022876	1394.1	8.2547e-06	3.4135e-06	1388.1	371.01	6.9114e-06	3.887e-06	420.46	141.33	123	41.453	5.3152e-06	50.686	0.00028133	0.00021465	6.0404e-05	1414	2.5055e-06	2.2964e-06	1401.3	377.08	2.4987e-06	2.2806e-06	426.73	143.64	125.07	42.545	2.3784e-06	52.095	-50.997	-73.581	-65.192	-158.182	-32.919	-5.658	-158.490	-153.566	-6.128	-40.003	-154.076	-149.966	-149.170	-144.470	-12.322	-145.507	-8191	255	
39435.500	1	1	0	0	0.10149	0.13713	0.17959	0.29586	0.18309	0.18307	0.17992	0.1809	0.12267	0.14003	0.1517	0.2475	0.25371	0.16313	0.10144	0.082294	-4.2729	-4.4771	-4.1542	-5.075	-4.2167	-4.4583	-4.8917	-4.3354	-4.6813	-4.5771	-4.3	-4.8625	-4.4479	-4.4812	-4.8125	-4.3229	87.800	162.838	106.739	144.330	84.647	49.186	137.910	150.340	-138.929	67.283	180.411	170.540	123.688	-63.523	-125.559	71.951	0.00071653	0.00039576	0.0001486	1394.6	7.5561e-06	2.9678e-06	1386.4	372.07	7.4766e-06	5.3212e-06	420.42	141.64	123.11	41.531	4.9314e-06	50.849	0.00028672	0.00022009	5.98e-05	1414.4	2.527e-06	2.313e-06	1401.8	377.28	2.4657e-06	2.3844e-06	427.01	143.5	125.09	42.476	2.35e-06	52.05	-51.867	-93.734	-70.670	-158.196	-46.882	-7.532	-158.603	-153.533	-18.754	-59.965	-154.153	-149.632	-149.403	-144.450	-25.761	-145.151	-8191	255	
39435.617	1	1	0	0	0.091281	0.085074	0.28369	0.23757	0.37336	0.10458	0.27504	0.12734	0.094325	0.074624	0.28971	0.16612	0.20465	0.34468	0.015239	0.21099	-4.3542	-4.6042	-4.2354	-5.0542	-4.5042	-4.3375	-4.9208	-4.1958	-4.5104	-4.8208	-4.2688	-4.8792	-4.4458	-4.3979	-4.825	-4.4563	-109.891	133.402	122.660	130.564	-147.057	11.267	152.882	133.102	86.743	-37.319	125.423	-152.545	-27.370	157.199	-103.994	163.454	0.00067806	0.00050977	0.00015421	1395	5.8235e-06	6.2428e-06	1383.2	370.64	6.7442e-06	4.6233e-06	420.4	141.34	122.83	41.516	4.9717e-06	50.654	0.00028236	0.0002164	5.8278e-05	1413.7	2.4723e-06	2.342e-06	1402.3	376.9	2.4834e-06	2.3893e-06	427.31	143.44	124.95	42.436	2.4911e-06	51.955	-50.477	-83.813	-82.336	-158.266	-60.340	-6.319	-158.365	-153.465	-26.109	-25.017	-154.108	-149.564	-149.224	-144.613	10.686	-145.493	-8191	255	
39435.715	1	1	0	0	0.10011	0.1862	0.027767	0.33653	0.14211	0.10527	0.28106	0.096535	0.021281	0.23879	0.035653	0.26891	0.21906	0.15379	0.080291	0.1643	-4.2146	-4.6792	-4.3875	-4.8542	-4.3979	-4.3688	-4.9708	-4.4437	-4.5104	-4.6625	-4.3938	-4.7688	-4.5646	-4.2896	-4.9688	-4.3542	-108.119	-139.919	167.872	135.927	169.899	-9.168	162.772	-170.949	176.086	42.107	27.549	152.627	150.266	178.075	-41.962	141.045	0.0006788	0.00062487	0.00015304	1396.1	9.257e-06	4.8982e-06	1380.1	371.65	3.8047e-06	5.2695e-06	419.89	141.1	123.75	41.556	5.8133e-06	50.705	0.00028468	0.00021734	5.9929e-05	1414.2	2.5203e-06	2.3246e-06	1400.1	377.4	2.4312e-06	2.2887e-06	426.57	143.23	125.22	42.488	2.4003e-06	51.975	-52.209	-75.686	-76.588	-158.194	-40.589	-3.936	-158.517	-153.883	2.304	-30.228	-154.218	-149.660	-149.431	-144.492	-14.284	-145.281	-8191	255	
39435.812	1	1	0	0	0.13144	0.20828	0.0083443	0.23387	0.20248	0.18146	0.31029	0.065245	0.053326	0.21293	0.42049	0.15263	0.099727	0.10343	0.17591	0.16847	-4.0875	-4.7562	-4.0229	-4.9396	-4.5667	-4.2458	-4.8479	-4.5	-4.5437	-4.7417	-4.3187	-4.6479	-4.5771	-4.2979	-4.7646	-4.4333	-28.007	-21.501	-55.484	116.591	-84.264	122.950	140.511	143.372	107.769	159.705	182.021	174.447	-146.261	170.431	-28.702	36.074	0.0006992	0.00053617	0.00015559	1396.1	5.7551e-06	4.144e-06	1379.6	370.72	4.3387e-06	5.29e-06	418.48	141.91	122.98	41.42	5.4193e-06	50.756	0.00028211	0.00020777	6.1066e-05	1412.6	2.5239e-06	2.3181e-06	1400.1	377.22	2.4852e-06	2.3152e-06	426.2	143.54	124.85	42.44	2.3098e-06	52.116	-50.614	-81.546	-79.147	-158.205	-46.456	-37.981	-158.389	-153.579	-19.649	-35.041	-153.967	-149.818	-148.948	-144.528	-19.539	-145.175	-8191	255	
39435.906	1	1	0	0	0.031347	0.029884	0.23354	0.29454	0.15589	0.18297	0.21378	0.18548	0.28007	0.12812	0.15678	0.23183	0.32286	0.19921	0.16867	0.18725	-4.0125	-4.7125	-4.125	-4.8458	-4.575	-4.4771	-4.9458	-4.4083	-4.2667	-4.8875	-4.3146	-4.6958	-4.7729	-4.2521	-4.7583	-4.5479	-70.526	139.627	131.933	-155.567	111.814	-130.527	93.946	148.794	186.198	188.254	-125.928	-116.997	115.147	156.018	40.821	168.962	0.00064446	0.00057906	0.0001491	1394.5	8.5543e-06	4.5685e-06	1385.6	370.53	5.7763e-06	3.9394e-06	421.34	141.28	123.16	41.511	7.4077e-06	50.801	0.00028613	0.00020562	6.003e-05	1413.5	2.4769e-06	2.2788e-06	1402.2	376.96	2.502e-06	2.2254e-06	426.87	143.15	124.78	42.436	2.4474e-06	52.048	-52.882	-79.937	-69.624	-158.011	-38.710	-36.377	-158.220	-153.658	-8.953	-13.191	-154.112	-149.747	-149.266	-144.794	-14.225	-145.287	-8191	255	
39436.004	1	1	0	0	0.34579	0.17483	0.1889	0.16409	0.072077	0.10852	0.11477	0.35696	0.19543	0.18152	0.38876	0.030554	0.20823	0.14191	0.041169	0.15873	-4.075	-4.8917	-4.1813	-4.7542	-4.6021	-4.2042	-4.9229	-4.5729	-4.0708	-4.9021	-4.4458	-4.6021	-4.9229	-4.2438	-4.55	-4.7542	10.344	164.307	-116.370	-166.885	-37.168	22.025	111.891	162.732	-31.926	-63.382	134.969	73.694	183.069	145.728	-87.588	20.990	0.00070539	0.00050422	0.00018914	1392.1	7.5153e-06	5.2769e-06	1382	371.03	6.3506e-06	4.9589e-06	420.68	141.22	123.55	41.472	3.5117e-06	51.077	0.00028058	0.00021103	5.7507e-05	1411.8	2.4356e-06	2.3472e-06	1401.1	377.09	2.481e-06	2.2273e-06	427.34	143.44	125.04	42.496	2.3492e-06	52.189	-52.858	-80.088	-76.323	-158.223	-35.698	-38.973	-158.436	-153.560	-26.355	-14.493	-153.877	-149.966	-149.296	-144.564	-50.517	-145.380	-8191	255	
39436.098	1	1	0	0	0.29255	0.30308	0.28745	0.11402	0.15014	0.19889	0.18559	0.14845	0.15109	0.11756	0.20902	0.22213	0.065635	0.15163	0.20082	0.16113	-3.675	-4.7292	-4.2396	-4.5625	-4.7	-4.2562	-4.8708	-4.8125	-4.1646	-4.7604	-4.35	-4.4292	-4.7396	-4.3354	-4.5208	-4.7396	160.339	-1.689	147.119	-166.247	177.054	-35.416	118.405	123.309	9.370	105.841	150.038	143.808	-49.604	157.136	135.697	72.129	0.00071207	0.00029393	0.00018589	1394	7.2497e-06	4.2205e-06	1388.2	370.48	4.2807e-06	4.7246e-06	418.87	141.79	123.52	41.541	3.897e-06	50.996	0.00028162	0.00020959	5.8718e-05	1414.2	2.4525e-06	2.3295e-06	1403.8	377.14	2.4877e-06	2.2745e-06	426.18	143.45	125.09	42.543	2.3587e-06	52.064	-50.561	-74.333	-43.868	-158.353	-58.865	-19.175	-158.502	-153.762	-12.989	-6.103	-154.138	-149.651	-149.302	-144.552	-12.685	-145.419	-8191	255	
39436.195	1	1	0	0	0.083114	0.19428	0.18999	0.11218	0.091042	0.06822	0.078112	0.2573	0.12585	0.069564	0.048879	0.12787	0.18706	0.22827	0.15691	0.047563	-3.8604	-4.6792	-4.4417	-4.5125	-4.8083	-4.3021	-4.7	-4.7833	-4.0667	-4.6167	-4.5958	-4.2854	-4.7271	-4.3146	-4.3604	-4.8396	0.067	-143.159	82.228	-97.241	175.567	166.895	97.627	40.220	-126.450	180.243	133.058	87.878	119.207	146.958	137.804	-67.650	0.00065651	0.0004976	0.00024198	1394.6	7.6673e-06	3.5495e-06	1383.3	371.31	8.2453e-06	4.9422e-06	418.66	141.19	123.88	41.486	5.064e-06	50.687	0.00028304	0.00021256	5.8924e-05	1413.6	2.4201e-06	2.279e-06	1400.8	377.09	2.4079e-06	2.2455e-06	426.21	143.36	124.9	42.495	2.3462e-06	52.004	-52.820	-91.935	-76.001	-158.157	-19.126	-47.241	-158.558	-153.549	-6.597	-27.611	-154.173	-149.659	-149.155	-144.466	-4.991	-145.528	-8191	255	
39436.316	1	1	0	0	0.084058	0.19716	0.046794	0.2048	0.16754	0.14771	0.14456	0.20212	0.039624	0.14265	0.064511	0.14087	0.26698	0.17781	0.14134	0.10608	-3.7604	-4.6479	-4.3333	-4.4708	-4.7521	-4.2729	-4.6562	-4.8167	-4.2063	-4.7604	-4.6542	-4.3083	-4.7604	-4.3771	-4.325	-4.9479	120.037	-121.735	-92.136	170.203	-151.511	-89.989	140.330	49.373	30.608	-141.752	67.186	30.973	158.196	140.055	78.582	46.015	0.0006651	0.00040548	0.00012836	1390.9	8.9019e-06	5.3682e-06	1387	370.74	6.2937e-06	2.5745e-06	420.33	141.61	123.61	41.473	4.9872e-06	50.616	0.00027868	0.00020203	5.9267e-05	1411.2	2.3756e-06	2.2696e-06	1402.1	377.19	2.4562e-06	2.2739e-06	426.65	143.42	125.13	42.383	2.346e-06	51.974	-52.382	-98.427	-65.671	-158.307	-29.487	-1.121	-158.427	-153.551	8.074	-36.143	-153.910	-149.728	-149.086	-144.511	-19.152	-145.407	-8191	255	
39436.410	1	1	0	0	0.15645	0.090507	0.14378	0.16901	0.091559	0.10068	0.39515	0.11028	0.12773	0.07905	0.14514	0.090807	0.22392	0.24068	0.17208	0.17291	-3.8229	-4.5896	-4.4187	-4.3521	-4.7604	-4.4229	-4.6125	-4.8063	-4.1229	-4.4354	-4.9167	-4.1604	-4.7833	-4.5167	-4.1937	-4.7896	161.060	91.069	163.194	167.801	138.023	-60.695	114.759	167.589	-83.535	18.956	-29.192	25.044	-102.438	48.973	-94.138	158.192	0.00071927	0.0003577	0.00018039	1390.8	1.0955e-05	4.1406e-06	1385.4	370.26	5.1061e-06	6.2556e-06	421.24	141.02	123.52	41.206	6.444e-06	50.827	0.00028452	0.00021576	5.6635e-05	1412.6	2.4423e-06	2.2276e-06	1401.3	376.68	2.4329e-06	2.2693e-06	426.49	143.28	125.16	42.379	2.3691e-06	52.075	-52.503	-84.569	-56.669	-158.055	-32.590	-23.914	-158.338	-153.589	-0.480	-32.561	-154.109	-149.668	-149.001	-144.319	-6.744	-145.179	-8191	255	
39436.508	1	1	0	0	0.21991	0.32041	0.056613	0.16827	0.055145	0.22819	0.29448	0.18903	0.19325	0.10701	0.079844	0.17285	0.096675	0.10252	0.041291	0.10415	-3.8417	-4.5896	-4.525	-4.3854	-4.5958	-4.525	-4.3812	-5.0667	-4.3313	-4.4854	-4.8125	-4.1208	-4.725	-4.4854	-4.2375	-4.8333	-143.691	-67.561	38.999	131.610	13.091	22.063	81.619	151.437	-12.789	-119.984	178.905	-114.677	132.371	144.790	-136.322	-163.615	0.00066462	0.00056635	0.00022463	1388.8	8.8779e-06	5.6555e-06	1383.9	370.32	4.0905e-06	5.8102e-06	421.56	141.2	122.92	41.51	4.5413e-06	50.746	0.0002688	0.00020757	5.704e-05	1410.8	2.4714e-06	2.2475e-06	1400.6	376.7	2.3989e-06	2.2534e-06	427.14	143.2	124.83	42.489	2.3146e-06	52.001	-54.594	-96.217	-75.725	-158.180	-53.784	-33.076	-158.249	-153.720	-8.393	-12.938	-154.087	-149.455	-149.028	-144.847	2.475	-145.437	-8191	255	
39436.605	1	1	0	0	0.21634	0.17382	0.11265	0.04687	0.01531	0.1103	0.19918	0.21499	0.018023	0.16494	0.16946	0.10061	0.19123	0.15617	0.11409	0.20142	-3.9833	-4.4854	-4.6687	-4.4062	-4.5813	-4.6333	-4.5146	-4.9229	-4.2417	-4.4979	-4.8604	-4.3562	-4.7562	-4.6917	-4.2104	-4.8625	145.878	86.985	15.621	-118.503	-86.881	-116.424	113.603	136.704	-82.115	-106.966	-170.568	51.909	-95.897	127.462	90.112	84.462	0.00067176	0.00029723	0.00016896	1393.1	7.8807e-06	3.5035e-06	1382.3	369.81	4.8982e-06	3.0266e-06	420.33	141.62	122.88	41.36	4.6921e-06	50.919	0.00027264	0.00020209	5.4766e-05	1410	2.3789e-06	2.1315e-06	1399.3	376.43	2.3594e-06	2.2135e-06	426.19	143.13	124.74	42.427	2.2762e-06	51.997	-52.587	-79.300	-51.288	-158.278	-26.701	-33.128	-158.384	-153.635	-11.677	-44.266	-154.304	-149.789	-149.356	-144.493	-22.565	-145.395	-8191	255	
39436.699	1	1	0	0	0.14493	0.05231	0.12411	0.068294	0.15591	0.288	0.35552	0.061704	0.05403	0.057517	0.22473	0.21173	0.1804	0.14412	0.13281	0.11624	-4.0396	-4.1417	-4.7042	-4.5271	-4.7104	-4.5792	-4.4542	-4.875	-4.4542	-4.2354	-4.9042	-4.4688	-4.5729	-4.8229	-3.9521	-4.8583	-134.887	-149.044	1.061	28.098	57.263	-149.328	128.942	80.560	124.832	91.636	107.904	168.190	12.305	165.821	127.480	183.196	0.00067249	0.00055667	0.00017177	1387.1	6.0735e-06	4.0517e-06	1381.2	369.48	5.2725e-06	4.101e-06	419.05	141.03	122.9	41.492	4.5458e-06	50.879	0.00026997	0.00020073	5.5393e-05	1407.7	2.3243e-06	2.0899e-06	1396.9	376.52	2.3545e-06	2.188e-06	425.79	143.13	124.7	42.419	2.2369e-06	52.01	-53.457	-91.741	-97.593	-158.260	-54.021	-0.625	-158.381	-153.583	-21.604	-31.211	-153.956	-149.321	-149.003	-144.499	-14.455	-145.529	-8191	255	
39436.797	1	1	0	0	0.042774	0.029835	0.3203	0.19499	0.12363	0.13308	0.37167	0.26149	0.13774	0.096592	0.092928	0.090532	0.11356	0.15647	0.13053	0.12898	-4.05	-4.3333	-4.7917	-4.4583	-4.5625	-4.7208	-4.2917	-4.7125	-4.6104	-4.2229	-4.9479	-4.4417	-4.6083	-4.6104	-4.2646	-4.7188	159.001	-133.638	182.425	160.457	180.849	-20.681	175.545	90.999	162.247	-64.550	183.151	107.271	45.312	116.967	12.531	-8.093	0.00067413	0.00061278	0.00016821	1388.2	8.0702e-06	3.9874e-06	1382.5	370.78	4.6427e-06	3.8684e-06	418.77	141.1	123.23	41.552	3.7893e-06	50.678	0.00026707	0.00019791	5.5136e-05	1407.5	2.3707e-06	2.1842e-06	1397.6	376.44	2.2947e-06	2.2328e-06	426.14	142.93	124.93	42.453	2.218e-06	51.978	-53.950	-92.811	-75.963	-158.267	-34.903	-30.364	-158.437	-153.670	-1.157	-29.312	-154.046	-149.640	-149.165	-144.766	-5.894	-145.508	-8191	255	
39436.914	1	1	0	0	0.043167	0.30003	0.16355	0.29013	0.12954	0.066012	0.34943	0.24346	0.041023	0.22876	0.11138	0.20228	0.38269	0.15514	0.06795	0.22916	-4.1771	-4.2104	-4.5813	-4.5167	-4.1687	-4.8812	-4.3729	-4.8146	-4.6125	-4.2354	-4.8938	-4.4521	-4.4271	-5.0167	-4.0708	-4.7104	-150.468	-137.293	87.080	172.296	-133.024	-20.882	102.612	-108.982	-52.280	129.776	124.439	127.683	-97.206	-116.573	85.265	146.539	0.00068857	0.00032061	0.00018345	1388.5	7.8243e-06	3.7918e-06	1383	371.71	7.2486e-06	5.6686e-06	420.53	140.9	122.52	41.521	2.7836e-06	50.696	0.00026401	0.00020104	5.477e-05	1407.6	2.2998e-06	2.0873e-06	1397.4	376.75	2.249e-06	2.0988e-06	426.29	143.01	124.63	42.432	2.1837e-06	51.941	-52.343	-96.071	-66.957	-158.389	-34.069	-19.288	-158.229	-153.621	-3.744	-17.796	-154.156	-149.580	-149.317	-144.610	-56.935	-145.333	-8191	255	
39437.012	1	1	0	0	0.10462	0.072423	0.17933	0.12043	0.006907	0.066366	0.08861	0.34075	0.11258	0.27925	0.19031	0.3321	0.11579	0.19302	0.19796	0.219	-4.3688	-4.0521	-4.8271	-4.6438	-4.4313	-4.8479	-4.4208	-4.5938	-4.8104	-4.2625	-5	-4.5854	-4.4021	-4.7521	-4.2333	-4.6354	174.814	122.756	-28.484	117.591	113.693	-13.640	132.254	146.497	70.622	-106.546	144.988	177.937	160.587	-74.920	8.133	-82.983	0.00064519	0.00045544	0.00010223	1391.4	7.4233e-06	6.4719e-06	1379	370.05	7.7069e-06	5.2199e-06	418.34	140.87	123.12	41.341	4.9493e-06	50.661	0.00026564	0.00019703	5.4459e-05	1408.1	2.3317e-06	2.0096e-06	1396.4	375.99	2.1956e-06	2.1247e-06	425.84	143.15	124.83	42.351	2.2217e-06	51.985	-52.344	-82.561	-100.611	-158.123	-9.134	-35.119	-158.477	-153.758	-8.591	-36.456	-154.017	-149.857	-149.066	-144.288	-50.172	-145.683	-8191	255	
39437.109	1	1	0	0	0.23927	0.12349	0.038108	0.25117	0.05511	0.21369	0.21714	0.053665	0.098543	0.30807	0.13354	0.1158	0.16485	0.12899	0.10989	0.37204	-4.4542	-4.2604	-4.7896	-4.5813	-4.0875	-4.6375	-4.5292	-4.6479	-4.7417	-4.2542	-4.8313	-4.6312	-4.325	-4.9583	-4.475	-4.3812	94.699	38.822	69.051	90.319	187.063	57.138	109.329	94.412	126.864	-87.906	-151.703	-108.280	64.048	-27.721	142.031	151.338	0.00064087	0.0004221	0.00017255	1386.7	9.7783e-06	4.706e-06	1378.6	370.46	5.113e-06	4.0016e-06	418.47	140.97	122.66	41.262	4.1059e-06	50.87	0.00026606	0.00019351	5.2566e-05	1407	2.2618e-06	2.0259e-06	1395.7	376.55	2.1751e-06	2.1259e-06	425.55	142.84	124.6	42.377	2.1098e-06	52.033	-53.625	-74.464	-69.039	-158.345	-24.416	-32.048	-158.168	-153.592	-17.859	-22.953	-154.007	-149.837	-149.054	-144.459	-22.541	-145.397	-8191	255	
39437.203	1	1	0	0	0.092246	0.15511	0.004091	0.053496	0.32988	0.16189	0.20841	0.079022	0.055352	0.28634	0.16067	0.18255	0.19196	0.077874	0.20512	0.25039	-4.3521	-4.1771	-4.65	-4.6854	-4.1896	-4.6833	-4.5042	-4.4104	-4.8104	-4.2604	-4.8063	-4.775	-4.2125	-4.8354	-4.5396	-4.3979	-49.320	-22.497	-85.028	25.611	187.635	102.316	126.399	-150.374	-78.713	7.881	170.649	-130.544	32.027	33.991	61.972	64.441	0.00069726	0.00037539	0.00016787	1381.9	8.8225e-06	3.961e-06	1378.3	371.46	5.9037e-06	5.0383e-06	419.91	140.94	123.56	41.362	5.0761e-06	50.826	0.00026077	0.00019209	5.1387e-05	1403.8	2.2194e-06	2.0534e-06	1396.6	376.22	2.26e-06	2.0154e-06	426.15	143.1	124.85	42.346	2.095e-06	52.023	-53.116	-103.699	-68.061	-158.246	-38.566	-19.992	-158.256	-153.679	-9.062	-32.285	-154.168	-149.537	-149.112	-144.632	12.320	-145.379	-8191	255	
39437.277	1	1	0	0	0.055161	0.12687	0.10172	0.17242	0.17496	0.027752	0.14898	0.24264	0.055981	0.050315	0.34823	0.12797	0.13794	0.06161	0.15315	0.16778	-4.6146	-4.2521	-4.7167	-4.9521	-4.1667	-4.75	-4.6833	-4.3271	-4.825	-4.3625	-4.65	-4.7937	-4.3354	-4.7729	-4.5125	-4.2229	162.997	139.844	-19.491	181.696	-69.610	83.689	47.583	182.330	121.567	102.478	110.596	87.514	57.985	-135.660	-109.737	62.258	0.0006634	0.00038372	0.00012007	1386.3	8.2307e-06	4.9274e-06	1373.7	369.92	6.0744e-06	4.0169e-06	419.26	141.49	123.3	41.484	4.9971e-06	50.519	0.00025947	0.00018671	5.2788e-05	1406	2.2587e-06	2.0273e-06	1393.1	375.82	2.1706e-06	2.0679e-06	425.29	143.26	124.69	42.461	2.1197e-06	51.909	-53.106	-102.074	-66.341	-158.229	-29.921	-19.650	-158.358	-153.627	-11.249	-25.943	-153.979	-149.689	-149.186	-144.594	-25.560	-145.233	-8191	255	
39437.395	1	1	0	0	0.19436	0.22707	0.13523	0.35154	0.093543	0.026296	0.20392	0.050102	0.067896	0.25705	0.1922	0.14962	0.032654	0.1931	0.13168	0.042202	-4.5042	-4.2375	-4.4458	-4.9646	-4.1562	-4.6458	-4.6604	-4.4812	-4.7833	-4.4021	-4.4417	-4.8792	-4.2958	-4.7396	-4.5354	-4.25	-126.153	146.561	-92.482	97.770	-22.681	52.735	138.786	113.502	-86.812	128.686	-102.403	113.212	123.570	-151.257	22.449	66.332	0.00068681	0.00057438	0.00013749	1384.5	9.5737e-06	5.4393e-06	1373.9	370.52	6.5759e-06	6.2248e-06	418.21	140.78	123.14	41.508	6.1749e-06	50.55	0.00025951	0.00018963	5.2668e-05	1404.3	2.3234e-06	2.0494e-06	1392.1	375.7	2.1972e-06	2.1377e-06	425.34	142.97	124.67	42.343	2.1029e-06	51.909	-52.471	-93.092	-71.705	-158.326	-52.206	-30.622	-158.398	-153.545	-20.146	-19.020	-154.221	-149.707	-149.208	-144.350	-31.933	-145.384	-8191	255	
39437.492	1	1	0	0	0.14527	0.037942	0.11409	0.049538	0.28513	0.14049	0.23901	0.2911	0.13429	0.071847	0.077185	0.028129	0.21072	0.064194	0.053079	0.074992	-4.4792	-4.4021	-4.1687	-4.9375	-4.1646	-4.65	-4.8417	-4.3146	-4.8125	-4.4062	-4.5375	-4.7812	-4.4917	-4.6312	-4.7375	-4.2542	135.599	-131.070	169.451	182.816	68.214	21.111	145.820	121.845	-116.502	-73.351	-37.912	98.318	74.990	-87.064	-20.030	183.536	0.00071186	0.00037573	0.00019543	1384.8	8.7544e-06	5.3998e-06	1373	370.63	5.0484e-06	5.5923e-06	419.66	140.74	122.83	41.504	4.327e-06	50.764	0.00026168	0.00019222	5.3855e-05	1403.7	2.2712e-06	2.1073e-06	1391.9	375.66	2.2544e-06	2.1137e-06	425.77	142.81	124.45	42.419	2.15e-06	51.957	-52.654	-71.739	-82.849	-158.146	-30.447	-20.661	-158.472	-153.605	-12.488	-4.143	-153.894	-149.878	-149.227	-144.701	-21.577	-145.481	-8191	255	
39437.590	1	1	0	0	0.097346	0.17718	0.15322	0.27822	0.1999	0.077969	0.20698	0.5626	0.29651	0.13624	0.1283	0.10148	0.20794	0.1564	0.095866	0.045615	-4.5938	-4.4583	-4.1562	-4.9479	-4.1958	-4.5375	-4.9604	-4.4021	-4.8042	-4.5771	-4.2688	-4.8521	-4.3771	-4.5229	-4.6646	-4.3812	-20.462	-48.725	129.996	149.402	-12.618	104.783	154.254	135.129	7.345	-98.406	116.398	47.088	168.116	165.634	95.672	-57.854	0.00072496	0.00051752	0.00015093	1384.6	7.1015e-06	4.9759e-06	1377.1	370.06	6.0266e-06	3.823e-06	418.68	141.04	122.91	41.32	6.5366e-06	50.88	0.00026039	0.00019244	5.3567e-05	1404	2.2682e-06	1.9766e-06	1392	375.98	2.1761e-06	1.995e-06	424.97	143.05	124.55	42.325	2.0354e-06	51.995	-52.776	-100.126	-69.553	-158.113	-51.902	-20.964	-158.576	-153.666	-17.758	11.077	-153.787	-149.683	-149.030	-144.539	-25.239	-145.363	-8191	255	
39437.684	1	1	0	0	0.1131	0.061763	0.23889	0.30579	0.11248	0.15499	0.17964	0.35519	0.1561	0.23641	0.031149	0.14219	0.20075	0.086906	0.18357	0.20291	-4.3042	-4.6979	-4.1687	-4.9396	-4.2896	-4.4167	-5.1542	-4.2292	-4.7458	-4.5771	-4.1854	-5.075	-4.3521	-4.4271	-4.7	-4.4396	186.098	23.143	-64.889	128.269	-14.136	73.962	-150.306	140.674	49.337	59.156	134.823	94.575	141.557	-71.945	101.630	60.074	0.00066835	0.00072128	8.4541e-05	1383.1	6.3834e-06	3.7232e-06	1371	368.99	4.0825e-06	5.5157e-06	417.97	140.91	122.65	41.317	4.2507e-06	50.526	0.00025566	0.0001841	5.2407e-05	1402.1	2.218e-06	2.0198e-06	1389.5	374.87	2.256e-06	1.9724e-06	424.06	142.87	124.38	42.365	2.1285e-06	51.839	-49.879	-78.652	-90.933	-158.198	-38.743	-25.678	-158.443	-153.568	-23.410	-30.434	-153.997	-149.629	-149.361	-144.456	-22.728	-145.332	-8191	255	
39437.805	1	1	0	0	0.093335	0.015182	0.16837	0.33897	0.21612	0.32277	0.14036	0.185	0.32783	0.15072	0.16326	0.27161	0.14687	0.31284	0.19754	0.3973	-4.4	-4.4812	-4.1062	-4.8313	-4.3833	-4.4104	-5.0729	-4.4875	-4.5042	-4.8187	-4.4062	-4.75	-4.7479	-4.3271	-4.8938	-4.3708	105.710	-1.292	184.707	126.678	136.984	0.172	155.872	-156.301	174.567	-137.523	108.545	-139.978	-15.560	147.911	-76.937	98.514	0.0006466	0.00038886	7.9889e-05	1381.5	9.0612e-06	4.3263e-06	1377.2	370.02	6.3947e-06	5.4941e-06	420.48	140.85	123.26	41.523	3.938e-06	50.629	0.00025847	0.0001943	5.3224e-05	1402.7	2.2949e-06	2.0774e-06	1391	375.85	2.2065e-06	2.0518e-06	425.26	143	124.69	42.483	2.0503e-06	51.855	-51.843	-93.028	-73.914	-158.126	-57.132	-24.438	-158.334	-153.566	1.035	-19.687	-153.998	-149.650	-148.987	-144.507	-21.873	-145.099	-8191	255	
39437.879	1	1	0	0	0.15406	0.13724	0.077515	0.30192	0.26616	0.14103	0.21068	0.17879	0.10588	0.045285	0.097054	0.17184	0.13208	0.18776	0.12327	0.26728	-4.1125	-4.6542	-4.1583	-4.8833	-4.5896	-4.1583	-5.175	-4.3958	-4.6125	-4.6188	-4.3125	-4.8417	-4.7312	-4.3021	-4.7438	-4.4187	30.153	-74.008	-2.711	147.980	-102.941	152.838	131.309	92.834	-108.388	98.695	165.827	173.485	142.283	128.929	158.057	46.285	0.00067762	0.00050928	0.00016833	1389.4	8.5062e-06	3.3197e-06	1377.4	369.24	5.0503e-06	4.6303e-06	418.53	140.84	122.45	41.386	4.3446e-06	50.684	0.00026293	0.00018215	5.2866e-05	1403.6	2.2291e-06	2.1316e-06	1392	374.88	2.1794e-06	2.0056e-06	424.89	142.94	124.35	42.363	2.0857e-06	51.927	-53.301	-100.257	-63.452	-158.331	-28.700	-39.275	-158.414	-153.620	-3.986	13.281	-154.124	-149.949	-149.239	-144.659	-9.240	-145.546	-8191	255	
39437.996	1	1	0	0	0.084811	0.094852	0.031744	0.25555	0.13707	0.23249	0.18334	0.33599	0.18088	0.18414	0.12292	0.3344	0.2228	0.11198	0.076955	0.051699	-4.0687	-4.7396	-4.1312	-4.8667	-4.4896	-4.3833	-4.8938	-4.4583	-4.4125	-4.8396	-4.1875	-4.8104	-4.9167	-4.1854	-4.7021	-4.6542	-92.050	166.289	91.670	138.118	24.966	-40.986	121.691	96.049	9.507	140.981	-144.083	160.369	-158.770	-166.363	89.782	66.754	0.00065252	0.00029832	0.00019573	1384.6	7.4568e-06	4.569e-06	1373.5	368.97	4.9459e-06	6.0641e-06	417.18	140.67	122.75	41.581	4.3382e-06	50.757	0.00026251	0.00018991	5.4435e-05	1403.4	2.184e-06	2.0833e-06	1390	375.28	2.1386e-06	2.0354e-06	424.34	142.78	124.18	42.49	2.0733e-06	51.918	-51.699	-110.330	-77.915	-158.175	-29.111	-16.134	-158.527	-153.496	5.800	-14.769	-153.941	-149.724	-149.205	-144.323	-14.831	-145.230	-8191	255	
39438.094	1	1	0	0	0.099719	0.24967	0.074904	0.3766	0.069864	0.1391	0.20691	0.27328	0.025731	0.054391	0.10538	0.13083	0.05757	0.056992	0.078686	0.056939	-3.9896	-4.6458	-4.25	-4.7333	-4.7188	-4.1604	-4.7958	-4.5813	-4.2271	-4.9208	-4.4021	-4.4667	-4.6729	-4.4604	-4.5896	-4.5104	81.745	163.181	118.293	136.777	-148.827	-37.743	92.615	144.900	-160.796	-65.190	94.751	-64.725	96.434	-37.860	-43.698	84.118	0.0006551	0.0005391	0.00013165	1380.5	1.1226e-05	3.4916e-06	1374.1	369.63	4.5421e-06	4.9352e-06	416.56	140.54	122.47	41.369	4.0399e-06	50.56	0.00026157	0.00018682	5.2492e-05	1399.7	2.1699e-06	2.0541e-06	1390.5	375.44	2.2464e-06	2.0896e-06	424.68	142.78	124.2	42.375	2.1202e-06	51.827	-52.475	-85.322	-70.459	-158.220	-47.852	-14.053	-158.230	-153.481	-3.375	-13.911	-154.115	-149.867	-149.309	-144.412	-4.885	-145.422	-8191	255	
39438.188	1	1	0	0	0.12894	0.44651	0.11505	0.22171	0.14721	0.054494	0.17545	0.21092	0.2915	0.23888	0.18739	0.25452	0.16598	0.20235	0.062819	0.32189	-3.95	-4.7729	-4.2542	-4.6521	-4.6625	-4.1896	-5.0458	-4.6229	-4.3146	-4.9229	-4.6104	-4.5417	-4.8625	-4.2583	-4.8083	-4.7396	-57.162	29.275	-51.749	150.501	-128.469	-102.911	159.974	46.776	-156.047	-83.405	-8.233	146.177	-134.028	83.460	64.947	136.360	0.00066289	0.00036943	0.00019482	1386.2	5.9854e-06	4.8657e-06	1374.1	369.67	5.5765e-06	6.1794e-06	417.69	140.76	122.06	41.233	5.1467e-06	50.708	0.00026306	0.0001867	5.2414e-05	1400.5	2.208e-06	2.0903e-06	1391.5	375.39	2.2282e-06	2.0405e-06	424.44	142.63	124.14	42.246	2.1519e-06	51.855	-53.358	-101.614	-79.749	-158.226	-56.051	-1.041	-158.160	-153.362	-14.697	-29.791	-153.996	-149.700	-149.221	-144.524	-31.045	-145.508	-8191	255	
39438.285	1	1	0	0	0.1265	0.16438	0.14807	0.14322	0.35766	0.10995	0.16665	0.058014	0.099249	0.076699	0.021344	0.14744	0.13754	0.20697	0.2221	0.078422	-4.0292	-4.8688	-4.4292	-4.5792	-4.7562	-4.4375	-4.8729	-4.7604	-4.1333	-4.7667	-4.5625	-4.3646	-4.9229	-4.4417	-4.6042	-4.7771	179.683	169.457	73.343	140.399	-107.857	56.809	167.839	-134.764	158.312	-63.560	96.459	-119.518	164.651	77.074	-3.609	119.456	0.00068686	0.00041353	0.00016244	1380.3	7.8011e-06	5.0228e-06	1369	369.47	6.2249e-06	2.7165e-06	417.92	140.64	121.97	41.329	6.5714e-06	50.642	0.00025824	0.00018532	5.2769e-05	1399.4	2.1672e-06	2.0623e-06	1388.1	374.77	2.1773e-06	2.0237e-06	423.96	142.31	124.02	42.274	2.0858e-06	51.799	-53.235	-84.297	-87.972	-158.149	-46.749	-28.596	-158.365	-153.545	-18.249	-22.379	-153.869	-149.604	-149.272	-144.537	-31.476	-145.345	-8191	255	
39438.406	1	1	0	0	0.36926	0.3452	0.056124	0.0746	0.044791	0.057232	0.20056	0.21269	0.17016	0.28737	0.10461	0.2288	0.11802	0.20843	0.19974	0.082861	-3.8458	-4.7396	-4.4583	-4.4688	-4.7063	-4.2438	-4.6188	-4.8833	-4.2729	-4.8542	-4.7271	-4.2958	-4.8521	-4.2833	-4.5375	-4.9146	-83.792	74.703	-62.196	162.022	-159.572	34.566	137.278	182.135	144.363	140.639	139.666	98.708	-97.511	104.236	146.413	165.237	0.0006932	0.00053682	0.00015428	1379	8.124e-06	4.4598e-06	1368.7	369.3	5.501e-06	4.5595e-06	416.93	140.85	123.05	41.278	5.3465e-06	50.555	0.0002616	0.00019162	5.1939e-05	1397.6	2.1671e-06	2.0142e-06	1386.4	374.94	2.2269e-06	2.1173e-06	424.1	142.55	124.24	42.177	2.1012e-06	51.811	-54.539	-83.467	-73.905	-158.185	-36.798	-19.712	-158.325	-153.605	-2.782	-38.037	-153.963	-149.574	-149.113	-144.567	-19.406	-145.131	-8191	255	
39438.477	1	1	0	0	0.22798	0.040714	0.14249	0.2553	0.21306	0.046171	0.25426	0.16607	0.12154	0.098221	0.19412	0.36972	0.23829	0.13485	0.10276	0.17873	-3.9062	-4.5854	-4.6833	-4.5104	-4.8729	-4.5333	-4.4583	-4.9938	-4.1687	-4.7271	-4.8167	-4.2458	-4.7708	-4.4833	-4.2	-4.7854	-143.588	25.851	134.985	82.618	-22.570	-65.937	172.784	183.585	121.576	-110.656	122.306	90.165	-100.380	-166.372	-24.034	179.133	0.00065086	0.00049439	0.00014769	1378.4	1.0813e-05	4.4448e-06	1370.9	368.41	6.0433e-06	4.4733e-06	417.62	140.31	122.46	41.223	6.5966e-06	50.559	0.00026358	0.00019305	5.2492e-05	1398.8	2.2241e-06	2.0722e-06	1389.1	374.54	2.2658e-06	2.1184e-06	423.9	142.54	124.16	42.216	2.155e-06	51.811	-54.171	-78.006	-69.081	-158.199	-26.229	-31.332	-158.333	-153.710	-6.097	-35.324	-153.987	-149.535	-149.258	-144.684	-19.153	-145.467	-8191	255	
39438.598	1	1	0	0	0.14096	0.18174	0.1973	0.26796	0.015541	0.086399	0.16957	0.17167	0.20121	0.44429	0.16643	0.20422	0.076422	0.13556	0.14885	0.13816	-3.8208	-4.4292	-4.825	-4.4458	-4.75	-4.4729	-4.3604	-5.0458	-4.2292	-4.3562	-4.7937	-4.2854	-4.8042	-4.5437	-4.2917	-4.7792	185.631	56.066	90.492	124.302	120.428	104.209	112.890	175.643	-124.673	-90.886	-144.397	-129.860	-164.718	-146.179	64.440	-156.397	0.00068977	0.00053455	0.0002246	1382.4	5.2387e-06	3.9131e-06	1370.4	369.3	4.1657e-06	5.4941e-06	417.57	140.62	122.07	41.09	4.5733e-06	50.773	0.00026372	0.00018751	5.2344e-05	1398	2.186e-06	2.0584e-06	1386.5	374.89	2.2907e-06	2.0296e-06	423.74	142.42	123.93	42.174	2.1787e-06	51.861	-52.403	-89.622	-83.354	-158.194	-42.794	-22.591	-158.363	-153.622	-9.477	-21.548	-154.068	-149.564	-149.041	-144.582	-26.929	-145.322	-8191	255	
39438.695	1	1	0	0	0.23429	0.11181	0.12696	0.2946	0.056201	0.31985	0.22485	0.096556	0.087277	0.11725	0.3025	0.049473	0.04449	0.11488	0.071136	0.24912	-4.0104	-4.5375	-4.5354	-4.4125	-4.7104	-4.5896	-4.4167	-4.9333	-4.4542	-4.55	-4.9104	-4.3167	-4.7937	-4.6396	-4.1875	-4.8688	50.036	-7.143	-94.822	127.209	27.456	64.569	82.393	131.517	183.055	35.143	151.804	40.989	87.505	62.813	180.190	-145.224	0.00067346	0.00049387	0.00018522	1378.6	9.724e-06	3.8588e-06	1367.3	368.86	3.6976e-06	5.2649e-06	417.31	140.61	122.81	41.253	5.0005e-06	50.415	0.00026884	0.00018977	5.1608e-05	1398.3	2.2855e-06	2.1426e-06	1387	375.03	2.2623e-06	2.1239e-06	424.15	142.38	124.24	42.221	2.2311e-06	51.695	-53.628	-80.238	-65.916	-158.361	-33.336	-10.834	-158.364	-153.654	-9.276	-39.572	-154.036	-149.810	-149.273	-144.620	-59.158	-145.523	-8191	255	
39438.789	1	1	0	0	0.12322	0.14794	0.1912	0.21488	0.082572	0.26697	0.19282	0.28131	0.047275	0.021125	0.20528	0.14515	0.18541	0.10901	0.089112	0.046246	-3.8479	-4.2625	-4.6438	-4.4479	-4.5104	-4.6729	-4.3438	-4.9354	-4.3792	-4.4437	-5.05	-4.3646	-4.5687	-4.7188	-4.1458	-4.7667	100.134	106.357	-7.431	165.204	-149.640	-65.772	122.674	80.278	86.106	86.351	-129.393	-104.469	75.785	-128.348	67.724	8.925	0.0007004	0.00051567	0.00012291	1380.6	4.0958e-06	5.0647e-06	1371.1	368.74	6.6359e-06	4.5826e-06	420	140.41	122.68	41.24	5.4037e-06	50.58	0.00026745	0.0001965	5.44e-05	1397.8	2.2636e-06	2.0683e-06	1386.9	374.38	2.2202e-06	2.0981e-06	424.67	142.35	123.96	42.181	2.1738e-06	51.761	-49.177	-72.565	-83.336	-158.376	-63.046	-29.949	-158.540	-153.534	-10.858	-37.161	-154.301	-149.788	-149.352	-144.603	-31.506	-145.222	-8191	255	
39438.883	1	1	0	0	0.082906	0.096103	0.21848	0.2915	0.11698	0.15131	0.28016	0.40718	0.30449	0.13162	0.21746	0.05142	0.056888	0.18915	0.18659	0.19067	-4.0396	-4.3625	-4.9208	-4.3667	-4.4021	-4.6771	-4.3708	-5.0312	-4.5312	-4.2833	-4.9583	-4.4167	-4.5687	-4.8812	-4.2625	-4.7979	-134.045	12.518	45.456	102.655	-153.597	0.027	156.578	129.407	86.855	-27.892	161.577	-139.596	-69.311	-107.003	161.389	78.411	0.00066896	0.00034618	0.00011131	1376.1	8.2034e-06	3.7652e-06	1376.7	369.45	5.4422e-06	4.7638e-06	416.86	140.33	122.61	41.041	4.3139e-06	50.444	0.00026603	0.00018695	5.3174e-05	1397.4	2.3429e-06	2.0478e-06	1388.1	374.42	2.2648e-06	2.1009e-06	423.69	142.51	124.11	42.136	2.1625e-06	51.761	-52.936	-85.056	-83.072	-158.479	-12.381	-27.759	-158.556	-153.694	-16.827	-32.627	-153.974	-149.981	-149.148	-144.488	-20.020	-145.341	-8191	255	
39438.980	1	1	0	0	0.16126	0.20503	0.064968	0.41785	0.036845	0.095126	0.10414	0.10967	0.14011	0.118	0.091134	0.089391	0.14172	0.039316	0.1514	0.23062	-4.2979	-4.1708	-4.8271	-4.4771	-4.2958	-4.8021	-4.4229	-4.7625	-4.3646	-4.3208	-4.975	-4.4521	-4.5479	-4.9	-4.1375	-4.6312	-89.374	83.902	10.188	142.181	29.665	114.666	-126.095	-152.577	118.035	-87.264	-155.709	-49.146	153.106	53.912	-55.879	144.520	0.00067535	0.0003724	0.00014789	1374.4	4.4218e-06	5.4327e-06	1368.2	368.58	4.718e-06	5.1934e-06	417.1	140.93	122.85	41.231	5.3464e-06	50.688	0.00026315	0.0001919	4.9755e-05	1396.3	2.2731e-06	2.0236e-06	1385.3	374.57	2.1447e-06	2.0759e-06	423.91	142.41	124.33	42.222	2.1885e-06	51.817	-52.642	-60.250	-72.156	-158.124	-43.974	-20.002	-158.291	-153.484	-13.482	-17.345	-154.121	-149.825	-149.420	-144.547	-8.109	-145.597	-8191	255	
39439.102	1	1	0	0	0.10336	0.081515	0.076674	0.27494	0.11015	0.19913	0.04758	0.26503	0.063319	0.21108	0.11564	0.23208	0.10002	0.19495	0.22209	0.13587	-4.3229	-4.2521	-4.6208	-4.6354	-4.2667	-4.8458	-4.4479	-4.5396	-4.7167	-4.2562	-5	-4.5583	-4.4271	-4.9	-4.3688	-4.5333	12.484	-48.949	-103.136	115.255	170.955	57.263	-152.527	101.820	158.447	-96.463	186.062	9.198	-170.264	-100.938	80.532	118.951	0.00066799	0.00049308	0.00018061	1377.8	9.334e-06	3.501e-06	1369.2	369.4	5.8457e-06	5.7422e-06	419.16	140.32	122.14	41.443	5.4446e-06	50.717	0.00026139	0.00019128	5.1387e-05	1396	2.2064e-06	2.0279e-06	1385.6	374.87	2.2196e-06	2.0835e-06	424.56	142.3	124.09	42.268	2.1459e-06	51.92	-51.032	-103.749	-83.509	-158.117	-42.449	-45.252	-158.425	-153.405	-18.041	-28.330	-154.033	-149.872	-149.089	-144.628	-18.501	-145.624	-8191	255	
39439.172	1	1	0	0	0.090532	0.14714	0.13219	0.031412	0.092966	0.039035	0.16129	0.23632	0.19561	0.065798	0.20309	0.12895	0.22916	0.095576	0.099167	0.11496	-4.4917	-4.0729	-4.5312	-4.6146	-4.2417	-4.8375	-4.5833	-4.4896	-4.7167	-4.0792	-4.8187	-4.6021	-4.1917	-4.8833	-4.1354	-4.4875	120.168	9.226	188.176	-125.004	8.462	148.812	155.618	96.993	29.352	-6.341	-146.667	172.277	178.187	-13.099	73.939	130.868	0.00068288	0.00057063	0.00015928	1380.2	4.9619e-06	3.5263e-06	1376.4	370.85	6.6575e-06	3.1303e-06	416.6	141.16	123.45	41.42	5.8119e-06	50.685	0.00026216	0.00019148	5.2076e-05	1398.8	2.2145e-06	1.9557e-06	1390.3	375.6	2.1459e-06	2.0859e-06	424.23	142.83	124.82	42.423	2.1429e-06	51.927	-51.503	-80.195	-76.065	-158.334	-19.261	-35.907	-158.460	-153.656	-11.875	-16.436	-154.080	-149.717	-149.319	-144.476	-22.036	-145.421	-8191	255	
39439.270	1	1	0	0	0.23255	0.18081	0.054294	0.13547	0.086747	0.16704	0.28513	0.43052	0.065555	0.066628	0.14104	0.15962	0.2378	0.20194	0.22189	0.1439	-4.4	-4.2229	-4.6479	-4.7042	-4.1438	-4.7583	-4.5042	-4.6271	-4.7271	-4.3146	-4.7333	-4.7604	-4.1729	-4.9542	-4.1854	-4.4521	23.230	-104.035	-36.099	138.210	167.149	34.634	172.959	162.018	-22.175	-153.102	187.256	-10.315	-160.250	-155.796	-77.522	-4.674	0.00068143	0.00030092	0.00020632	1388.9	7.5007e-06	4.1276e-06	1379.3	371.16	6.076e-06	3.7297e-06	420.4	141.41	123.88	41.528	5.0577e-06	50.811	0.0002633	0.00019486	5.3781e-05	1405	2.295e-06	2.1207e-06	1395.5	376.72	2.2496e-06	2.2356e-06	426.43	143.38	125.39	42.539	2.2766e-06	52.125	-51.255	-80.488	-63.282	-158.163	-21.403	-39.054	-158.264	-153.567	-3.142	-37.028	-153.928	-149.726	-149.130	-144.609	-30.188	-145.561	-8191	255	
39439.363	1	1	0	0	0.16851	0.12359	0.14359	0.29201	0.15561	0.32121	0.37271	0.1815	0.25409	0.063119	0.24474	0.10363	0.1217	0.26655	0.13527	0.092661	-4.6667	-4.2937	-4.4708	-4.6958	-4.2604	-4.7	-4.6042	-4.4729	-4.7937	-4.3562	-4.5833	-4.8292	-4.2271	-4.8125	-4.3229	-4.4375	177.240	154.257	-122.680	90.907	-133.909	166.627	130.497	-96.985	-47.144	5.416	142.854	126.527	85.759	-148.090	186.900	162.475	0.00067981	0.00042771	0.00016085	1396.4	1.0002e-05	3.2089e-06	1394.1	371.7	6.2723e-06	4.2743e-06	421.87	142.13	124.42	41.782	5.3474e-06	51.271	0.00027471	0.00021025	5.7998e-05	1416.8	2.4686e-06	2.2015e-06	1407.5	378.22	2.4282e-06	2.3389e-06	427.78	144.06	125.7	42.744	2.3662e-06	52.468	-52.676	-84.564	-52.140	-158.368	-48.472	-33.158	-158.394	-153.747	1.191	6.910	-154.149	-149.857	-149.343	-144.492	-12.399	-145.540	-8191	255	
39439.484	1	1	0	0	0.18051	0.31021	0.16544	0.18077	0.10211	0.039675	0.17239	0.25739	0.16332	0.12916	0.45129	0.11617	0.2046	0.1274	0.13912	0.036712	-4.5083	-4.2792	-4.3938	-4.825	-4.15	-4.7104	-4.775	-4.3729	-4.7354	-4.5	-4.3812	-4.7438	-4.1979	-4.6667	-4.4833	-4.3604	160.195	-140.840	162.384	134.350	48.586	-155.294	182.166	132.269	-19.348	2.556	79.021	179.407	92.801	166.074	135.784	123.379	0.0007113	0.0007605	0.00014103	1403.2	6.0473e-06	4.2385e-06	1396.9	372.81	5.1124e-06	4.2636e-06	423.07	142.33	124.13	41.792	5.7384e-06	51.214	0.00028516	0.00020836	5.7928e-05	1422.3	2.5596e-06	2.289e-06	1415.8	379.43	2.514e-06	2.3491e-06	429.04	144.63	125.93	42.811	2.4941e-06	52.474	-52.502	-96.068	-56.077	-158.351	-24.043	-29.728	-158.411	-153.539	9.700	-39.731	-154.190	-149.854	-149.546	-144.711	-38.175	-145.324	-8191	255	
39439.582	1	1	0	0	0.10595	0.16356	0.1743	0.23337	0.037939	0.21568	0.11782	0.12498	0.23498	0.034757	0.1618	0.1081	0.13295	0.227	0.22841	0.21145	-4.4896	-4.3354	-4.15	-5.0604	-4.1875	-4.6583	-4.7583	-4.175	-4.7396	-4.5083	-4.3958	-4.9521	-4.5479	-4.4833	-4.6729	-4.3542	-64.182	152.528	-118.230	164.851	-22.649	89.985	11.332	114.928	130.431	-24.959	93.585	-132.984	-65.331	26.966	-61.367	131.690	0.00069992	0.00052554	0.00012703	1411.3	8.235e-06	5.1932e-06	1406.2	373.82	5.0347e-06	5.8784e-06	424.33	142.94	124.5	41.88	6.7541e-06	51.279	0.00028816	0.00022016	6.0968e-05	1429.1	2.599e-06	2.4534e-06	1421.6	380.24	2.5518e-06	2.4718e-06	430.17	144.96	126.31	42.985	2.5082e-06	52.575	-53.078	-77.161	-94.553	-158.274	-47.235	-24.238	-158.361	-153.658	-17.254	-41.343	-154.177	-149.558	-149.323	-144.468	-22.751	-145.571	-8191	255	
39439.680	1	1	0	0	0.19769	0.046952	0.18564	0.21807	0.20764	0.13572	0.067252	0.20634	0.1143	0.26134	0.12896	0.083458	0.25427	0.11954	0.080952	0.10733	-4.3708	-4.4104	-4.3063	-5.1062	-4.2937	-4.3688	-4.9542	-4.2604	-4.6687	-4.5125	-4.3083	-4.8708	-4.3667	-4.4875	-4.6417	-4.2562	-54.906	163.678	128.901	142.891	75.304	-49.584	117.771	76.024	-29.494	163.153	54.134	93.761	127.538	-132.788	107.455	-126.772	0.00070538	0.00053785	0.00017824	1411.4	5.3995e-06	6.4259e-06	1405.4	374	4.9802e-06	4.4343e-06	424.07	142.56	124.26	42.039	6.0006e-06	51.338	0.000301	0.00023017	6.348e-05	1433	2.5775e-06	2.4087e-06	1425.1	381.22	2.6221e-06	2.4617e-06	430.89	145.05	126.49	43.007	2.5002e-06	52.695	-53.544	-99.757	-70.300	-158.267	-67.542	-36.602	-158.339	-153.626	18.305	-41.123	-153.925	-149.716	-149.088	-144.729	-42.863	-145.493	-8191	255	
39439.773	1	1	0	0	0.10186	0.055383	0.081975	0.18453	0.2403	0.058406	0.20104	0.25401	0.15226	0.073933	0.29881	0.093456	0.11834	0.46735	0.067816	0.10277	-4.3271	-4.6125	-4.1562	-4.9917	-4.4083	-4.4417	-5.0104	-4.4646	-4.6562	-4.6792	-4.5	-4.8854	-4.4563	-4.3292	-4.7688	-4.2	-141.018	-87.651	-28.208	159.349	15.630	-95.029	127.324	158.531	-162.649	6.250	76.319	-158.692	138.202	-21.187	59.665	-113.420	0.00070331	0.0005538	5.8921e-05	1412.5	7.2386e-06	5.8865e-06	1409.7	375.36	5.2063e-06	6.3917e-06	426.18	143.18	124.69	41.953	5.0513e-06	51.299	0.00029221	0.00022304	6.4406e-05	1434.7	2.5328e-06	2.4371e-06	1425.5	381.51	2.5713e-06	2.4338e-06	432.37	145.23	126.73	43.058	2.4561e-06	52.775	-54.136	-84.221	-91.233	-158.284	-60.367	-18.576	-158.538	-153.650	1.579	-13.523	-154.009	-149.918	-149.019	-144.700	-20.182	-145.606	-8191	255	
39439.867	1	1	0	0	0.1527	0.087992	0.22233	0.20171	0.17565	0.20693	0.24815	0.31182	0.13822	0.060749	0.055055	0.15675	0.14645	0.22462	0.10909	0.2244	-4.1854	-4.6583	-4.1375	-5.0062	-4.3979	-4.5271	-5.2229	-4.4333	-4.5792	-4.5979	-4.3875	-4.9354	-4.6625	-4.3625	-4.9917	-4.3333	87.608	-144.485	-48.295	-137.646	156.836	126.469	175.817	146.181	187.415	185.867	128.988	158.140	-66.040	158.670	142.523	-167.052	0.00071053	0.00052513	0.00014214	1423.6	1.083e-05	3.9552e-06	1411.3	375.57	4.1571e-06	5.3574e-06	424.36	143.52	124.87	42.297	3.5106e-06	51.438	0.00029083	0.00022124	6.1284e-05	1437.8	2.5837e-06	2.4519e-06	1425.2	381.85	2.5353e-06	2.3904e-06	431.85	145.39	127.03	43.198	2.4825e-06	52.729	-52.465	-90.691	-80.548	-158.318	-24.247	4.096	-158.405	-153.687	4.780	-12.948	-153.871	-149.869	-149.138	-144.570	-39.268	-145.411	-8191	255	
39439.965	1	1	0	0	0.15107	0.20562	0.18737	0.079117	0.079333	0.050908	0.12339	0.16596	0.18391	0.045587	0.10445	0.44152	0.097858	0.29497	0.23249	0.25938	-4.2667	-4.7438	-4.2333	-4.7146	-4.4271	-4.3625	-5.0271	-4.5437	-4.625	-4.7083	-4.2833	-4.8438	-4.5583	-4.1333	-4.7979	-4.5125	-28.273	-68.803	-49.534	141.341	7.604	36.210	99.456	-170.965	16.076	157.108	-164.388	172.842	79.216	147.159	-150.608	135.822	0.00071826	0.00054568	0.00022525	1419.1	9.6695e-06	5.5839e-06	1407.3	375.03	4.8581e-06	4.7709e-06	425.95	143.34	125.01	42.149	4.1132e-06	51.374	0.00029158	0.00022215	6.3795e-05	1437.2	2.6438e-06	2.4643e-06	1426	381.4	2.5512e-06	2.4577e-06	432.16	145.45	126.86	43.163	2.5647e-06	52.79	-50.922	-77.168	-51.689	-158.335	-42.333	-29.690	-158.273	-153.547	-1.019	-28.931	-154.131	-149.666	-149.241	-144.664	-22.854	-145.365	-8191	255	
39440.086	1	1	0	0	0.12242	0.11528	0.41343	0.20421	0.29046	0.050766	0.28158	0.10958	0.16047	0.081417	0.039276	0.1211	0.25374	0.18891	0.091847	0.32344	-4.1583	-4.7937	-4.0542	-4.8292	-4.6271	-4.2271	-5.0604	-4.4688	-4.3438	-4.8917	-4.0854	-4.75	-4.7854	-4.2562	-4.6708	-4.4854	-45.656	-167.227	-153.301	123.443	158.791	-159.005	110.628	-118.603	186.141	167.633	12.407	-68.305	96.111	-158.294	2.320	118.447	0.00070137	0.00065587	0.00014462	1417	6.0907e-06	4.5771e-06	1407.3	374.91	5.2822e-06	4.8145e-06	426.19	143.19	125.15	42.077	5.4791e-06	51.647	0.00029828	0.00022493	6.4056e-05	1438.4	2.6417e-06	2.4741e-06	1427.2	381.55	2.6457e-06	2.4321e-06	432.62	145.27	126.83	43.123	2.5218e-06	52.819	-52.478	-78.934	-70.788	-158.150	-58.540	-29.728	-158.479	-153.632	-20.068	-13.252	-153.979	-149.745	-149.275	-144.811	-17.317	-145.407	-8191	255	
39440.180	1	1	0	0	0.38298	0.12446	0.10016	0.34586	0.18245	0.33517	0.15675	0.28592	0.11246	0.10203	0.11047	0.096372	0.23063	0.07997	0.056771	0.070392	-4.0875	-4.8625	-4.0938	-4.8	-4.6979	-4.2271	-4.9208	-4.7396	-4.4125	-4.8625	-4.6125	-4.5771	-4.8792	-4.325	-4.8438	-4.6292	179.777	-5.520	-124.761	146.305	151.231	38.731	110.848	110.774	-88.956	-55.571	106.645	-164.725	166.998	-70.586	107.327	156.653	0.00067137	0.00056864	0.00011627	1416.1	5.7496e-06	2.2457e-06	1410.3	376.29	5.8731e-06	5.0525e-06	426.08	143.14	125.19	42.161	4.438e-06	51.445	0.00029356	0.00022831	6.3671e-05	1437.8	2.6234e-06	2.518e-06	1428.9	382.18	2.5619e-06	2.4222e-06	432.07	145.55	126.83	43.167	2.5091e-06	52.776	-51.881	-83.554	-74.480	-158.339	-30.790	-4.428	-158.447	-153.537	-24.014	-37.500	-154.053	-149.906	-149.360	-144.682	-36.553	-145.487	-8191	255	
39440.277	1	1	0	0	0.12335	0.25459	0.17564	0.36526	0.22246	0.17755	0.46383	0.16482	0.077262	0.17473	0.24666	0.21479	0.25427	0.24747	0.14614	0.20514	-4	-4.6979	-4.3625	-4.7792	-4.7167	-4.2708	-4.7021	-4.675	-4.2458	-4.8562	-4.3667	-4.5021	-4.9771	-4.2229	-4.6542	-4.7646	-148.575	74.976	-162.738	166.457	144.317	-97.007	61.309	158.091	105.754	-55.943	125.672	165.468	140.436	134.960	-24.534	143.550	0.00069259	0.00051973	0.00021872	1419.9	6.867e-06	4.4527e-06	1409.5	374.56	6.3448e-06	4.0468e-06	424.94	143.63	125.38	42.238	4.627e-06	51.345	0.00029827	0.00022796	6.3873e-05	1439.7	2.635e-06	2.4608e-06	1430.4	380.94	2.6674e-06	2.4508e-06	432.82	145.69	127.09	43.223	2.5185e-06	52.667	-50.944	-81.993	-66.826	-158.279	-41.522	-10.487	-158.390	-153.774	-6.482	0.646	-154.091	-149.933	-149.502	-144.796	-21.422	-145.433	-8191	255	
39440.398	1	1	0	0	0.10759	0.18231	0.1362	0.14585	0.071212	0.1359	0.199	0.091725	0.25214	0.21959	0.19201	0.25628	0.27761	0.31766	0.13135	0.25937	-3.975	-4.7583	-4.3583	-4.5833	-4.9333	-4.3021	-4.7333	-4.75	-4.1146	-4.9021	-4.4958	-4.5437	-4.8313	-4.2542	-4.5792	-4.6562	42.462	36.215	-129.782	172.060	132.736	8.136	92.632	119.526	-122.159	136.904	160.490	123.953	161.608	174.497	-85.413	175.214	0.00071666	0.00034243	0.00017884	1420.6	5.6076e-06	4.5334e-06	1410.7	375.84	5.4043e-06	5.5349e-06	424.89	143.39	125.11	42.145	4.2441e-06	51.498	0.00030083	0.00022462	6.1015e-05	1440.6	2.6197e-06	2.4594e-06	1428.1	382	2.5844e-06	2.4834e-06	432.52	145.55	127.05	43.195	2.5413e-06	52.773	-51.856	-95.994	-73.688	-158.375	-49.952	-12.874	-158.420	-153.653	-3.326	-11.591	-153.970	-149.860	-149.361	-144.554	-26.982	-145.449	-8191	255	
39440.469	1	1	0	0	0.096266	0.12974	0.21457	0.24104	0.040216	0.019572	0.32093	0.16178	0.2111	0.042453	0.18423	0.16255	0.11915	0.18999	0.10549	0.14688	-3.8104	-4.6771	-4.5208	-4.4812	-4.8313	-4.4062	-4.6583	-5.0188	-4.1208	-4.5271	-4.6542	-4.3208	-4.775	-4.1708	-4.4604	-4.6646	-25.307	170.654	56.270	-170.342	2.457	131.001	164.617	123.853	-71.388	157.472	157.599	-167.318	-131.072	162.129	-53.065	18.452	0.00069866	0.00050062	0.00011658	1415.6	8.4524e-06	3.6295e-06	1411.4	375.8	5.5789e-06	6.9049e-06	426.39	143.16	125.12	42.151	4.1184e-06	51.536	0.00029812	0.00022182	5.9384e-05	1437.3	2.5784e-06	2.42e-06	1427.6	381.79	2.6279e-06	2.3918e-06	432.35	145.47	126.95	43.187	2.3987e-06	52.811	-52.387	-83.247	-67.980	-158.331	-33.905	-14.466	-158.322	-153.870	-1.462	-24.419	-154.188	-149.692	-149.406	-144.554	-42.115	-145.483	-8191	255	
39440.566	1	1	0	0	0.11661	0.059123	0.15404	0.1905	0.1227	0.082271	0.38849	0.26137	0.24438	0.11834	0.13416	0.11873	0.040304	0.15727	0.15864	0.1195	-4.0312	-4.5542	-4.5417	-4.4062	-4.9875	-4.55	-4.5875	-4.7958	-4.2104	-4.6708	-4.9333	-4.2396	-4.9	-4.4583	-4.3333	-5	-153.496	8.315	96.702	101.922	-90.346	156.326	166.017	167.148	71.530	-124.853	144.316	183.208	24.787	14.333	16.144	54.604	0.00068042	0.00053269	0.00020528	1419.3	9.6262e-06	5.4172e-06	1407.8	375.27	5.1035e-06	3.8421e-06	424.62	143.4	125.19	42.233	3.401e-06	51.854	0.0002901	0.00021932	6.1105e-05	1439.2	2.5635e-06	2.483e-06	1427.4	381.22	2.5993e-06	2.4072e-06	432.33	145.6	126.92	43.191	2.5388e-06	52.911	-51.530	-87.204	-50.224	-158.228	-38.296	-15.105	-158.228	-153.683	-28.710	-10.525	-154.232	-149.855	-148.822	-144.737	-20.893	-145.525	-8191	255	
39440.660	1	1	0	0	0.23798	0.16713	0.18713	0.19172	0.23651	0.16446	0.32239	0.21179	0.097102	0.11948	0.25085	0.058997	0.084345	0.13375	0.17917	0.045864	-3.8979	-4.5062	-4.6521	-4.3979	-4.5417	-4.4333	-4.5062	-4.9458	-4.2104	-4.6083	-4.9125	-4.3771	-4.8812	-4.5042	-4.3917	-4.95	8.654	84.579	-91.692	-147.844	-75.133	-16.063	-149.905	69.418	86.623	-88.440	135.685	63.528	-148.365	-161.180	24.123	-168.572	0.00067462	0.00035097	0.0001568	1416.8	8.519e-06	3.7034e-06	1404.4	374.95	6.503e-06	7.0071e-06	425.85	143.43	124.51	42.209	3.8919e-06	51.707	0.00029477	0.00022096	6.0143e-05	1437.5	2.5781e-06	2.3711e-06	1426.3	381.52	2.6014e-06	2.4454e-06	431.86	145.54	126.76	43.11	2.5127e-06	52.777	-50.156	-74.886	-69.844	-158.226	-36.492	-20.921	-158.442	-153.718	-8.329	-3.461	-154.230	-149.727	-149.355	-144.634	-14.831	-145.370	-8191	255	
39440.781	1	1	0	0	0.10438	0.039545	0.071189	0.21522	0.095985	0.15641	0.13362	0.17023	0.17509	0.14069	0.29109	0.13722	0.09832	0.18572	0.098705	0.19367	-3.9979	-4.6021	-4.7708	-4.3688	-4.7458	-4.4458	-4.4062	-5.0437	-4.325	-4.4437	-4.9604	-4.3479	-4.6417	-4.6438	-4.2271	-4.8208	146.599	-75.398	-125.422	170.817	-36.068	-52.433	79.486	169.668	-18.638	30.873	129.963	80.180	-113.752	161.889	3.960	17.639	0.00072968	0.00047149	0.00016728	1420.2	8.9837e-06	4.334e-06	1411.5	376.16	5.8974e-06	6.1809e-06	425.01	142.9	125.44	42.07	3.3283e-06	51.72	0.00029423	0.00022427	6.0209e-05	1440.1	2.5743e-06	2.3888e-06	1427.8	381.62	2.5408e-06	2.3911e-06	432.54	145.38	127.09	43.146	2.4838e-06	52.845	-52.225	-90.719	-95.950	-158.163	-39.899	-25.787	-158.407	-153.857	-7.894	0.474	-154.253	-149.759	-149.306	-144.551	5.348	-145.534	-8191	255	
39440.879	1	1	0	0	0.1888	0.038272	0.17791	0.36656	0.10718	0.16333	0.24774	0.30857	0.14461	0.28095	0.20983	0.21194	0.063647	0.14415	0.096389	0.051305	-4.1396	-4.45	-4.9375	-4.3896	-4.5312	-4.5917	-4.525	-4.9229	-4.3042	-4.3542	-4.8708	-4.2604	-4.5563	-4.8104	-4.2562	-4.9229	-40.876	-74.952	-129.741	160.497	182.978	167.851	135.704	160.830	-65.558	-139.613	-159.340	100.880	-13.572	116.825	34.464	-28.633	0.00070211	0.00048878	0.00018428	1421.1	8.2265e-06	5.9577e-06	1411.2	375.75	6.1557e-06	5.4627e-06	424.59	142.94	125.56	42.137	3.043e-06	51.396	0.0002962	0.00022941	6.3418e-05	1439.6	2.5577e-06	2.4422e-06	1427.6	381.55	2.5712e-06	2.5121e-06	432.04	145.51	127.07	43.173	2.4152e-06	52.848	-52.714	-91.409	-78.315	-158.272	-36.489	-12.742	-158.552	-153.863	-7.266	-22.266	-154.191	-149.944	-148.949	-144.530	-24.151	-145.328	-8191	255	
39440.973	1	1	0	0	0.1601	0.053182	0.14878	0.3488	0.063789	0.10431	0.13256	0.27783	0.50409	0.025048	0.12144	0.19195	0.2405	0.23812	0.17759	0.15262	-4.0604	-4.3187	-4.7979	-4.4479	-4.6479	-4.6979	-4.4313	-4.9646	-4.6479	-4.3708	-4.9771	-4.4583	-4.4688	-4.9313	-4.0437	-4.8583	-62.976	-98.744	25.760	161.763	-42.913	6.041	170.455	-130.042	-129.462	-30.680	53.476	163.195	185.174	149.685	-57.449	174.062	0.00065297	0.00050713	0.00015147	1419.5	7.9313e-06	4.6464e-06	1410.4	377.02	6.7024e-06	3.6225e-06	425.41	143.5	125.24	42.019	3.8856e-06	51.589	0.00028862	0.00022968	6.0832e-05	1439.2	2.5617e-06	2.3921e-06	1429.4	382.16	2.6048e-06	2.4502e-06	433.01	145.67	127.01	43.136	2.5569e-06	52.834	-51.748	-86.264	-108.675	-158.257	-42.550	-36.936	-158.544	-153.656	-10.950	-26.409	-153.867	-149.780	-149.196	-144.563	-37.477	-145.557	-8191	255	
39441.047	1	1	0	0	0.089773	0.19579	0.17398	0.040867	0.15709	0.30146	0.23353	0.33988	0.028512	0.16943	0.23227	0.46687	0.10931	0.12742	0.27051	0.069833	-4.3583	-4.2625	-4.8208	-4.4062	-4.5021	-4.7083	-4.3646	-4.8792	-4.5646	-4.3042	-4.8688	-4.4917	-4.3854	-4.8333	-4.1917	-4.6979	-59.338	153.873	-24.855	-170.552	-61.103	161.903	183.889	170.708	-70.972	-26.786	-165.576	-160.528	-38.541	-88.997	-47.664	168.805	0.00069446	0.00054554	0.00012031	1419.6	9.832e-06	3.4984e-06	1413.9	374.76	5.6531e-06	4.2271e-06	426.58	143.46	125.3	42.118	3.9285e-06	51.57	0.00029379	0.00022494	6.2105e-05	1440	2.6491e-06	2.458e-06	1431.4	381.51	2.6277e-06	2.4858e-06	433.68	145.55	126.89	43.151	2.5742e-06	52.86	-52.411	-75.629	-62.360	-158.201	-42.414	-68.114	-158.582	-153.731	-8.376	-26.224	-153.977	-149.831	-149.348	-144.680	-12.297	-145.388	-8191	255	
39441.164	1	1	0	0	0.047382	0.21021	0.28559	0.10154	0.11214	0.093764	0.097347	0.0046873	0.086857	0.10614	0.2266	0.15856	0.17945	0.24809	0.21795	0.094033	-4.2167	-4.3292	-4.7917	-4.6125	-4.3979	-4.8354	-4.4229	-4.7688	-4.7083	-4.3271	-5.0021	-4.6021	-4.3958	-5.0375	-4.3104	-4.6625	123.807	-126.383	117.658	-169.922	-155.037	-105.916	54.724	-13.116	-7.605	-46.642	128.577	171.828	-118.977	55.607	-8.189	-102.607	0.00072554	0.00057465	0.00017714	1426.2	8.9482e-06	6.0578e-06	1409.5	375.55	7.9535e-06	3.5891e-06	425.51	143.13	125.82	42.249	4.7918e-06	51.621	0.0003021	0.00023033	6.2775e-05	1442.5	2.6486e-06	2.4662e-06	1430.5	381.79	2.5881e-06	2.5214e-06	432.72	145.41	127.07	43.21	2.5645e-06	52.809	-52.923	-63.712	-83.755	-158.294	-57.641	-23.052	-158.548	-153.567	-20.684	-3.804	-154.313	-149.873	-149.591	-144.650	-52.441	-145.267	-8191	255	
39441.262	1	1	0	0	0.23694	0.23802	0.082463	0.10613	0.19388	0.094729	0.30679	0.17547	0.15441	0.18943	0.12212	0.085472	0.11991	0.22715	0.13831	0.16314	-4.3604	-4.0583	-4.7354	-4.7167	-4.2646	-4.8313	-4.4979	-4.7688	-4.5292	-4.3313	-4.8792	-4.6083	-4.3125	-4.8688	-4.3521	-4.6375	-51.811	165.002	96.240	176.090	-4.495	-91.617	127.714	172.674	142.795	141.082	8.217	118.412	-69.501	124.895	68.130	179.728	0.00070547	0.00039862	0.00017469	1422	1.0205e-05	7.057e-06	1410.4	376.64	4.4442e-06	5.3281e-06	426.57	144.02	125.31	42.157	4.497e-06	51.528	0.0002972	0.00023333	6.1451e-05	1441.8	2.6917e-06	2.3893e-06	1430.3	381.96	2.584e-06	2.518e-06	433.29	145.55	127	43.183	2.5514e-06	52.812	-51.115	-89.751	-83.626	-158.409	-36.544	-30.595	-158.239	-153.751	2.595	-19.299	-154.273	-149.771	-149.335	-144.680	-46.126	-145.178	-8191	255	
39441.359	1	1	0	0	0.057502	0.20526	0.069886	0.29063	0.10481	0.050928	0.19955	0.16796	0.11614	0.10695	0.17661	0.15901	0.10153	0.229	0.0071854	0.061943	-4.3	-4.2521	-4.6146	-4.7208	-4.2542	-4.7562	-4.6687	-4.5646	-4.7312	-4.2896	-4.5521	-4.6583	-4.1667	-4.8979	-4.2917	-4.2375	36.717	-64.788	-131.697	151.719	7.291	87.634	87.811	162.781	68.078	-102.777	-122.266	175.122	180.026	-85.565	116.651	-146.302	0.00070583	0.0005185	0.00012565	1419.9	1.0072e-05	5.4731e-06	1410.3	376.69	6.6371e-06	4.151e-06	427.43	143.01	125.21	42.208	5.9795e-06	51.374	0.00029543	0.00022427	6.1899e-05	1438.8	2.6615e-06	2.4261e-06	1429.3	382.17	2.6151e-06	2.4526e-06	433.3	145.6	127	43.135	2.4311e-06	52.831	-51.555	-72.474	-111.848	-158.308	-14.926	-33.409	-158.543	-153.541	-6.010	-12.125	-154.145	-149.806	-149.031	-144.467	-31.708	-145.506	-8191	255	
39441.477	1	1	0	0	0.23721	0.12115	0.062225	0.35667	0.20129	0.10273	0.11394	0.30756	0.1	0.056381	0.11965	0.26709	0.11323	0.10591	0.21546	0.11066	-4.4583	-4.2104	-4.7417	-4.85	-4.0146	-4.7875	-4.4917	-4.4542	-4.7104	-4.3083	-4.6583	-4.7979	-4.1312	-4.7792	-4.4271	-4.5229	-43.107	-152.143	-47.980	128.888	-77.856	92.009	94.158	168.429	-96.645	-118.671	-137.570	59.873	85.341	-81.709	11.431	128.224	0.00072591	0.00039257	0.00012381	1416.2	7.9622e-06	6.9535e-06	1409.2	375.65	5.5396e-06	4.7693e-06	426.2	142.97	124.93	42.179	6.6565e-06	51.393	0.0002855	0.00021534	6.1128e-05	1439.2	2.583e-06	2.3625e-06	1428.8	381.73	2.4669e-06	2.3402e-06	432.8	145.23	126.77	43.083	2.4329e-06	52.738	-49.979	-100.372	-64.770	-158.216	-52.578	-24.793	-158.267	-153.705	2.194	-14.593	-154.132	-149.913	-149.446	-144.535	-22.804	-145.435	-8191	255	
39441.574	1	1	0	0	0.13445	0.24877	0.20973	0.098566	0.1565	0.070911	0.081839	0.24407	0.10133	0.17567	0.08284	0.25965	0.06678	0.15723	0.11233	0.1636	-4.3729	-4.3167	-4.4625	-4.7917	-4.2562	-4.6896	-4.6625	-4.3979	-4.8	-4.2708	-4.6583	-4.7792	-4.2167	-4.7667	-4.5521	-4.2729	80.934	57.563	-104.483	109.656	-50.718	153.025	156.999	151.951	46.974	127.182	64.126	48.419	-95.701	-140.732	175.922	-27.681	0.00070064	0.00049471	0.00010191	1418.2	9.8635e-06	5.1513e-06	1407.5	375.69	4.7804e-06	4.8721e-06	424.8	142.85	124.78	42.261	5.3696e-06	51.386	0.00027736	0.00022053	6.01e-05	1436.6	2.5104e-06	2.3323e-06	1426.7	381.46	2.394e-06	2.3226e-06	432.08	145.17	126.85	43.13	2.3772e-06	52.763	-54.455	-95.608	-31.868	-158.253	-40.662	-37.912	-158.432	-153.906	-11.831	-20.597	-154.169	-149.904	-149.147	-144.507	-46.357	-145.232	-8191	255	
39441.645	1	1	0	0	0.12799	0.039222	0.088522	0.22514	0.23581	0.27409	0.15664	0.20946	0.10185	0.11832	0.13974	0.32007	0.22792	0.22751	0.12068	0.19348	-4.6292	-4.1917	-4.3646	-5.0354	-3.9688	-4.6375	-4.8271	-4.35	-4.575	-4.425	-4.5542	-4.875	-4.2458	-4.7083	-4.7583	-4.3854	119.010	-47.461	184.411	145.306	-126.624	-112.580	121.729	135.916	185.357	79.049	119.525	166.730	-165.353	153.722	-87.602	160.863	0.00069579	0.00030997	0.00012783	1415.2	8.3444e-06	5.3363e-06	1409.8	375	5.9018e-06	3.3937e-06	426.94	142.64	124.95	42.191	3.9343e-06	51.291	0.00027975	0.00021346	5.7741e-05	1435	2.512e-06	2.2988e-06	1425.3	380.56	2.4081e-06	2.3419e-06	432.37	145.13	126.61	43.135	2.3263e-06	52.714	-52.070	-97.429	-86.918	-158.327	-39.898	-23.200	-158.341	-153.684	-18.657	-2.229	-154.190	-149.379	-149.511	-144.777	-14.524	-145.356	-8191	255	
39441.766	1	1	0	0	0.047772	0.13209	0.10237	0.16	0.2369	0.1572	0.24732	0.14908	0.23505	0.21327	0.14226	0.15704	0.19566	0.087106	0.19386	0.33925	-4.4313	-4.5021	-4.3021	-5.0521	-4.225	-4.6354	-4.925	-4.2417	-4.7292	-4.4396	-4.5167	-4.8104	-4.2417	-4.5979	-4.6521	-4.3021	114.099	-120.661	-2.715	132.244	-103.554	-127.878	107.721	-156.228	68.291	158.097	180.124	175.033	135.434	5.744	29.147	119.762	0.00073336	0.00034358	0.00015027	1417.7	5.679e-06	5.1571e-06	1406.1	375.31	6.8466e-06	4.0622e-06	424.81	142.72	125.03	41.988	5.4147e-06	51.448	0.00028729	0.00021485	5.9255e-05	1435.5	2.4623e-06	2.3486e-06	1423.3	380.86	2.4044e-06	2.3167e-06	431.45	144.89	126.64	43.032	2.3429e-06	52.773	-51.685	-101.674	-93.019	-158.155	-42.539	-15.088	-158.311	-153.759	-4.644	-1.273	-153.962	-149.852	-149.261	-144.596	-29.957	-145.601	-8191	255	
39441.859	1	1	0	0	0.11573	0.2358	0.42008	0.21565	0.036515	0.18045	0.29287	0.13552	0.079596	0.15578	0.059309	0.080349	0.11327	0.13822	0.13149	0.11159	-4.2167	-4.6042	-4.1188	-5.0667	-4.45	-4.4854	-4.85	-4.2542	-4.6354	-4.7354	-4.275	-4.8604	-4.4313	-4.6021	-4.8167	-4.225	126.799	155.949	167.308	168.784	-67.885	113.249	109.317	123.394	-66.432	142.410	140.863	24.521	156.899	-103.759	122.675	98.291	0.00070554	0.00065863	0.00021748	1413.5	9.5151e-06	6.8782e-06	1403.9	375.29	4.936e-06	4.2192e-06	425.47	142.72	125.11	42.087	6.7929e-06	51.539	0.00028192	0.00020869	6.0809e-05	1431.4	2.4607e-06	2.2733e-06	1423.5	380.93	2.4679e-06	2.2789e-06	431.6	145.08	126.94	43.056	2.3896e-06	52.765	-51.184	-87.923	-89.794	-158.284	-38.890	-23.214	-158.393	-153.459	-14.863	-30.681	-153.968	-149.687	-149.038	-144.526	-27.780	-145.433	-8191	255	
39441.957	1	1	0	0	0.119	0.07193	0.08547	0.20194	0.13626	0.15548	0.19881	0.17356	0.15391	0.064401	0.16733	0.17626	0.25874	0.10356	0.32913	0.01054	-4.3333	-4.6708	-4.1917	-4.9479	-4.4979	-4.3979	-5	-4.425	-4.4979	-4.6896	-4.2396	-4.7521	-4.5792	-4.45	-4.7625	-4.2708	97.343	38.126	-84.076	136.047	138.780	-146.348	80.829	117.822	177.743	-85.832	176.380	165.674	143.289	-42.478	-84.276	-128.115	0.0007216	0.00048163	0.0001402	1416.7	8.6922e-06	3.7332e-06	1410.5	376.83	5.319e-06	6.3885e-06	425.86	143.22	124.87	42.081	5.7538e-06	51.528	0.00028936	0.00021255	6.0104e-05	1435.8	2.5382e-06	2.3787e-06	1426.6	381.56	2.5676e-06	2.4055e-06	432.19	145.12	126.55	43.096	2.4174e-06	52.732	-52.252	-81.948	-75.803	-158.355	-65.506	-30.197	-158.430	-153.793	-17.127	-13.341	-154.112	-149.601	-149.484	-144.656	-34.631	-145.332	-8191	255	
39442.078	1	1	0	0	0.10497	0.13316	0.12123	0.13062	0.047755	0.11636	0.13769	0.14693	0.22904	0.1687	0.28251	0.28641	0.36602	0.14791	0.090625	0.14171	-4.1104	-4.7208	-4.0854	-4.7396	-4.4667	-4.2729	-4.9896	-4.4417	-4.5021	-4.5771	-4.1792	-4.7354	-4.6208	-4.2979	-4.8812	-4.3229	108.042	-95.307	-156.916	138.284	-12.485	40.204	14.500	-161.054	-115.188	179.769	150.796	127.959	-104.797	-134.762	-156.587	123.451	0.00070747	0.00039638	0.00016454	1417	8.6783e-06	4.4306e-06	1409	375.27	4.66e-06	6.9534e-06	424.9	142.97	124.95	42.013	6.431e-06	51.522	0.00029015	0.00022295	6.17e-05	1435.6	2.5873e-06	2.3919e-06	1427.2	381.07	2.5829e-06	2.3726e-06	431.86	145.16	126.69	43.059	2.4755e-06	52.721	-55.033	-68.969	-90.462	-158.290	-30.791	-16.035	-158.628	-153.734	-0.756	-20.553	-154.097	-149.805	-149.124	-144.740	-25.191	-145.365	-8191	255	
39442.176	1	1	0	0	0.040436	0.16185	0.40522	0.13455	0.17496	0.11239	0.22424	0.22729	0.1607	0.13012	0.13763	0.0029597	0.25608	0.20992	0.16542	0.076962	-4.1479	-4.8354	-4.3271	-4.8792	-4.5146	-4.3354	-5.0062	-4.4625	-4.3708	-4.9646	-4.4167	-4.7771	-4.6708	-4.2167	-4.8042	-4.4917	-13.854	-24.403	95.186	99.193	119.193	-78.915	113.011	168.381	-127.923	-167.978	161.847	128.004	88.480	159.146	55.040	89.660	0.0006371	0.00035426	0.00012547	1417	5.4969e-06	4.1568e-06	1407.4	375.5	5.1773e-06	3.5309e-06	425.91	143.22	124.95	42.139	3.8918e-06	51.346	0.00028665	0.0002212	6.4009e-05	1436.9	2.5517e-06	2.4391e-06	1425.6	380.87	2.5611e-06	2.416e-06	433.08	145.56	126.75	43.134	2.4665e-06	52.8	-51.960	-77.645	-53.984	-158.313	-60.564	-26.434	-158.446	-153.713	4.164	6.300	-153.933	-149.774	-149.475	-144.468	-43.126	-145.412	-8191	255	
39442.270	1	1	0	0	0.16533	0.16793	0.048817	0.33144	0.16901	0.1761	0.3236	0.16173	0.17689	0.11409	0.087189	0.16696	0.16061	0.18553	0.027657	0.33322	-3.9396	-4.7937	-4.2396	-4.7979	-4.6021	-4.0771	-5.0604	-4.5146	-4.2083	-4.8542	-4.4771	-4.6958	-4.7125	-4.2438	-4.8104	-4.5917	179.031	-19.432	40.982	-166.556	187.429	78.208	119.481	-155.700	-2.695	-147.432	43.773	135.258	-152.603	160.664	30.779	111.801	0.00068192	0.0003681	0.00016928	1416.7	1.1896e-05	2.297e-06	1409.2	374.79	7.1163e-06	5.6349e-06	424.17	143.43	125.49	42.237	4.3743e-06	51.598	0.00028012	0.00021835	6.1934e-05	1436.4	2.5189e-06	2.3924e-06	1425.8	380.88	2.525e-06	2.3312e-06	432.71	145.47	126.78	43.142	2.4758e-06	52.819	-52.038	-104.034	-70.704	-158.198	-26.815	-15.243	-158.555	-153.598	-12.491	-27.494	-154.004	-149.631	-149.292	-144.710	-24.440	-145.371	-8191	255	
39442.344	1	1	0	0	0.26497	0.28982	0.28254	0.24816	0.099339	0.073665	0.25938	0.22275	0.14479	0.17726	0.15541	0.019319	0.042135	0.18606	0.11227	0.12626	-3.7833	-4.8417	-4.2958	-4.5854	-4.7562	-4.1875	-4.8229	-4.8167	-4.3542	-4.9688	-4.4292	-4.4958	-4.8583	-4.2812	-4.7542	-4.7792	164.876	127.204	119.833	65.184	-17.498	160.955	166.069	-131.826	153.258	30.123	87.763	-168.377	144.501	-101.889	-49.583	163.223	0.00070837	0.00063467	6.6237e-05	1418.2	8.1415e-06	6.0146e-06	1407.9	375.47	5.535e-06	4.1669e-06	423.7	142.81	124.58	42.052	5.1232e-06	51.637	0.00029127	0.00021274	6.1e-05	1436.7	2.5044e-06	2.3269e-06	1426.2	381.17	2.5057e-06	2.3393e-06	431.6	145.04	126.52	43.1	2.4388e-06	52.854	-51.983	-90.632	-88.124	-158.341	-45.119	-7.782	-158.409	-153.766	-29.697	-38.039	-154.003	-149.860	-149.277	-144.535	-39.523	-145.483	-8191	255	
39442.438	1	1	0	0	0.22376	0.024365	0.14167	0.31	0.043203	0.19703	0.12413	0.059382	0.16032	0.062659	0.19708	0.11232	0.20436	0.16057	0.12393	0.12961	-3.8563	-4.775	-4.3917	-4.5437	-4.75	-4.35	-4.6917	-4.8208	-4.0646	-4.6771	-4.5687	-4.2104	-4.9625	-4.3167	-4.6729	-4.825	-130.109	156.393	161.230	146.561	-47.982	-0.392	137.898	-143.370	40.031	9.107	144.858	-144.445	-123.233	159.739	169.548	160.352	0.00067312	0.00040876	0.00013831	1414.6	9.0481e-06	4.1482e-06	1407.7	374.06	6.6285e-06	3.9442e-06	425.25	142.92	124.73	42.042	3.4433e-06	51.611	0.00028039	0.00021259	6.2292e-05	1434.9	2.4957e-06	2.4284e-06	1426.8	380.86	2.5575e-06	2.2982e-06	432.04	145.23	126.65	43.143	2.3808e-06	52.86	-53.197	-70.520	-84.389	-158.346	-17.864	-30.550	-158.473	-153.760	-27.436	-40.886	-154.228	-149.822	-149.279	-144.689	-25.843	-145.406	-8191	255	
39442.559	1	1	0	0	0.081956	0.045645	0.24298	0.31032	0.10778	0.26533	0.16769	0.1859	0.15932	0.21493	0.070728	0.28077	0.18696	0.070678	0.060988	0.13179	-3.7292	-4.6542	-4.4292	-4.4979	-4.8875	-4.2729	-4.7771	-4.7646	-4.0083	-4.6292	-4.5958	-4.1042	-4.8667	-4.5583	-4.3875	-4.7854	-116.268	-86.514	23.871	144.308	43.541	51.750	109.826	47.026	118.080	12.594	-16.920	116.915	105.923	152.942	-137.281	-134.801	0.0007005	0.0005113	0.00011169	1415.2	1.014e-05	2.8667e-06	1406.2	374.9	6.3302e-06	6.4512e-06	425.54	143.3	125.03	42.204	3.8802e-06	51.568	0.00028611	0.00021426	6.1042e-05	1436.4	2.5055e-06	2.313e-06	1425.5	380.79	2.5337e-06	2.3658e-06	432.19	145.17	126.68	43.107	2.4353e-06	52.776	-50.578	-63.925	-53.323	-158.196	-31.881	-15.832	-158.509	-153.716	-7.457	-26.999	-153.914	-149.717	-149.276	-144.592	-20.895	-145.572	-8191	255	
39442.656	1	1	0	0	0.11993	0.036288	0.083175	0.3134	0.15883	0.25028	0.28884	0.26785	0.063673	0.11986	0.12553	0.050643	0.1477	0.14119	0.0091721	0.11212	-3.8333	-4.7042	-4.5896	-4.35	-4.6583	-4.2417	-4.6729	-4.875	-4.1333	-4.6792	-4.6354	-4.4458	-4.7937	-4.6	-4.3417	-4.8438	-22.518	168.616	-67.004	167.209	-54.608	110.455	97.439	132.396	12.555	116.769	-84.394	10.300	-149.974	-40.307	-9.227	24.257	0.00068235	0.00053577	7.0948e-05	1416.6	6.8235e-06	4.7454e-06	1406.9	374.71	5.0569e-06	4.2891e-06	425.25	142.86	124.69	41.987	8.404e-06	51.517	0.00029255	0.00022263	5.9921e-05	1435.8	2.5099e-06	2.2888e-06	1424.8	380.69	2.5463e-06	2.2784e-06	432.48	145.05	126.51	43.093	2.4034e-06	52.788	-51.534	-101.297	-73.951	-158.203	-58.171	-4.671	-158.295	-153.785	-11.341	-35.663	-154.130	-149.676	-149.249	-144.805	-26.150	-145.502	-8191	255	
39442.750	1	1	0	0	0.041415	0.070653	0.16638	0.09181	0.09472	0.29457	0.26287	0.43844	0.099906	0.09508	0.093162	0.19387	0.11389	0.092492	0.091482	0.11313	-3.7333	-4.575	-4.6271	-4.35	-4.6687	-4.4083	-4.4875	-4.8521	-4.2188	-4.5229	-4.7667	-4.3708	-4.7458	-4.4708	-4.3167	-4.75	-151.381	55.905	73.292	-92.237	96.077	75.790	137.524	144.367	95.844	83.304	-136.811	124.389	35.135	172.751	-108.645	-65.605	0.00066074	0.00045876	0.00012497	1416.1	7.1402e-06	4.6882e-06	1406.1	374.36	4.3841e-06	3.7686e-06	424.71	142.65	125.2	42.082	5.399e-06	51.561	0.00028547	0.0002181	5.9345e-05	1435.6	2.5129e-06	2.3592e-06	1425.2	380.78	2.5076e-06	2.315e-06	432.16	145.3	126.75	43.049	2.4661e-06	52.774	-54.569	-82.773	-66.552	-158.228	-44.503	-16.782	-158.337	-153.615	3.283	-7.630	-154.243	-150.006	-149.133	-144.685	-4.485	-145.577	-8191	255	
39442.871	1	1	0	0	0.16567	0.18507	0.23758	0.27869	0.17223	0.13719	0.075197	0.2391	0.071335	0.17899	0.15701	0.24109	0.16266	0.30582	0.19471	0.06572	-4.0271	-4.5479	-4.525	-4.2042	-4.6646	-4.5792	-4.5021	-4.875	-4.1917	-4.4417	-4.8292	-4.2542	-4.8438	-4.7458	-4.2771	-4.8313	102.804	-114.862	-119.222	145.308	138.576	-160.343	100.334	145.690	184.273	-66.624	121.252	124.832	84.094	180.689	-2.488	152.195	0.00068291	0.00058702	0.00018654	1420.4	7.1275e-06	4.6826e-06	1408	375.54	4.8723e-06	3.3626e-06	423.85	143.12	125.13	41.95	3.8178e-06	51.44	0.0002883	0.00021779	6.2623e-05	1436.5	2.5553e-06	2.3592e-06	1426.3	381.11	2.6122e-06	2.401e-06	432.29	145.28	126.61	43.049	2.5236e-06	52.805	-53.587	-87.606	-85.972	-158.337	-33.243	-19.376	-158.437	-153.716	-5.932	-18.668	-154.185	-149.638	-149.180	-144.481	-43.041	-145.348	-8191	255	
39442.941	1	1	0	0	0.14911	0.12573	0.15422	0.13044	0.16921	0.16337	0.21523	0.16461	0.09992	0.18219	0.15651	0.23073	0.15297	0.080418	0.23492	0.16869	-4.0271	-4.5771	-4.8417	-4.5104	-4.7458	-4.8438	-4.4292	-5.0417	-4.3625	-4.4521	-4.95	-4.2979	-4.5042	-4.7104	-4.3875	-4.9812	168.450	-146.682	-25.102	126.522	-36.488	15.759	157.888	105.021	-122.031	125.434	67.585	155.232	170.302	81.207	-117.793	-117.828	0.0006402	0.00056496	0.000192	1414.3	7.2037e-06	5.037e-06	1409	375.09	6.8941e-06	5.0129e-06	426.05	143.32	125.32	42.12	6.6916e-06	51.552	0.00029205	0.00022473	5.9255e-05	1435.7	2.5449e-06	2.4224e-06	1426.8	381.16	2.5627e-06	2.4611e-06	432.33	145.41	126.78	43.092	2.4932e-06	52.788	-54.240	-87.601	-69.919	-158.278	-9.123	-17.489	-158.387	-153.713	-6.692	-34.494	-153.986	-149.782	-149.390	-144.710	-24.504	-145.446	-8191	255	
39443.039	1	1	0	0	0.31525	0.21829	0.083758	0.3116	0.12403	0.073432	0.16677	0.051492	0.1427	0.08432	0.23533	0.25364	0.2419	0.097684	0.11168	0.18623	-4.025	-4.4292	-4.8063	-4.4417	-4.5896	-4.6687	-4.3604	-4.8438	-4.3229	-4.2229	-4.9729	-4.4292	-4.5917	-4.9646	-4.2292	-4.7875	-154.647	23.222	-157.459	-164.563	122.599	101.714	94.967	-35.573	31.364	-148.354	54.899	113.008	133.774	-137.649	176.259	140.580	0.00067861	0.00058922	0.00015114	1419.7	7.5492e-06	4.9363e-06	1411.9	374.97	7.2053e-06	4.4304e-06	426.89	143.61	125.53	42.054	6.318e-06	51.647	0.0002965	0.00022389	6.1155e-05	1438.3	2.5904e-06	2.4768e-06	1428.6	381.41	2.5947e-06	2.4934e-06	433.3	145.13	126.86	43.131	2.5504e-06	52.869	-55.171	-72.559	-88.313	-158.308	-40.068	-21.181	-158.453	-153.732	-14.522	-38.787	-153.825	-149.649	-149.238	-144.624	-38.999	-145.209	-8191	255	
39443.156	1	1	0	0	0.14807	0.20788	0.11254	0.24579	0.097538	0.071727	0.061033	0.28187	0.1446	0.049609	0.0632	0.10096	0.051504	0.13697	0.048686	0.11842	-4.1813	-4.1958	-4.8333	-4.4354	-4.5792	-4.7688	-4.3438	-4.7917	-4.7333	-4.2042	-4.8854	-4.3958	-4.5417	-4.8021	-4.2292	-4.8396	144.463	-136.589	83.032	136.155	56.806	-27.726	22.135	168.018	-106.187	-148.674	-87.929	-69.888	-14.846	187.723	81.318	97.910	0.00070869	0.00048084	0.00024126	1419.6	7.2352e-06	3.1308e-06	1411.8	375.46	6.4743e-06	4.6236e-06	426.21	142.73	125.63	41.956	6.2163e-06	51.417	0.00029944	0.00022895	6.2623e-05	1438.6	2.6133e-06	2.4203e-06	1427.6	381.16	2.6229e-06	2.4993e-06	432.49	145.18	126.93	43.136	2.4772e-06	52.724	-53.302	-77.113	-63.753	-158.277	-61.751	-26.317	-158.352	-153.624	-20.527	-16.834	-154.141	-149.877	-149.240	-144.416	-27.468	-145.363	-8191	255	
39443.254	1	1	0	0	0.11611	0.15894	0.26085	0.22906	0.20354	0.15915	0.39009	0.22081	0.04765	0.12735	0.15008	0.21167	0.0025612	0.049058	0.27146	0.14511	-4.2333	-4.2167	-4.7375	-4.5208	-4.4313	-4.7625	-4.4729	-4.6104	-4.4542	-4.0604	-4.9167	-4.4208	-4.1583	-4.7771	-4.1417	-4.6792	23.413	-115.448	-68.281	178.022	5.427	73.902	169.866	174.872	11.023	47.704	160.759	99.530	158.890	65.255	160.165	56.710	0.00070455	0.00038348	0.00019249	1419.7	6.1524e-06	3.0316e-06	1403.6	373.99	3.6604e-06	3.0754e-06	424.3	143.26	124.81	42.065	5.3568e-06	51.402	0.00029266	0.00022918	6.2814e-05	1437.2	2.6071e-06	2.3435e-06	1426.4	380.79	2.5228e-06	2.5152e-06	431.74	145.16	126.4	43.059	2.4841e-06	52.756	-54.198	-99.609	-82.090	-158.293	-38.721	-30.654	-158.413	-153.617	-2.759	-20.205	-154.154	-149.709	-149.397	-144.472	-19.409	-145.290	-8191	255	
39443.352	1	1	0	0	0.08417	0.31476	0.30789	0.15767	0.35134	0.13541	0.16675	0.10947	0.057562	0.2901	0.11052	0.35832	0.18905	0.42188	0.22091	0.18034	-4.375	-4.1208	-4.6792	-4.525	-4.0917	-4.9396	-4.4917	-4.7167	-4.7312	-4.3063	-4.7646	-4.475	-4.2708	-4.8313	-4.2354	-4.5375	99.247	153.279	-121.823	134.751	170.278	139.411	109.999	-158.491	-142.804	-161.611	55.481	169.574	-161.864	168.134	25.333	111.017	0.00071873	0.00053881	0.00014065	1415.5	8.9217e-06	3.2115e-06	1407.4	374.91	6.0805e-06	5.1702e-06	423.98	142.51	125.18	41.96	7.0454e-06	51.337	0.00029399	0.00022623	6.1229e-05	1436.1	2.5859e-06	2.3388e-06	1426	380.79	2.4652e-06	2.3689e-06	431.82	145.05	126.72	43.034	2.4683e-06	52.812	-52.884	-97.725	-80.861	-158.331	-40.997	-36.101	-158.299	-153.675	-25.929	-20.368	-154.182	-149.730	-149.269	-144.790	-31.834	-145.510	-8191	255	
39443.445	1	1	0	0	0.032245	0.10449	0.21192	0.21671	0.20787	0.21803	0.29956	0.26899	0.17267	0.027833	0.22873	0.060393	0.034571	0.28925	0.1234	0.20591	-4.5521	-4.1146	-4.6625	-4.6813	-4.0792	-4.8542	-4.5604	-4.4729	-4.8208	-4.2396	-4.6646	-4.7458	-4.2375	-4.7729	-4.3479	-4.3313	-112.924	-122.525	120.026	114.361	9.441	-165.378	141.527	179.973	181.746	-1.671	-154.453	35.525	139.910	112.986	11.946	73.227	0.00069754	0.00051883	0.00018011	1416.9	6.671e-06	5.0252e-06	1410.5	374.15	4.6292e-06	2.3205e-06	424.27	142.65	125.11	42.012	5.3419e-06	51.248	0.00028044	0.00021751	6.0914e-05	1434.8	2.454e-06	2.2945e-06	1426.8	380.19	2.4731e-06	2.3427e-06	431.54	145.05	126.89	43.026	2.4582e-06	52.678	-52.912	-89.914	-58.521	-158.321	-29.094	-43.236	-158.504	-153.739	-1.001	-22.797	-154.083	-149.661	-149.226	-144.540	-15.153	-145.650	-8191	255	
39443.566	1	1	0	0	0.033102	0.10182	0.069423	0.36766	0.21976	0.16973	0.12555	0.093836	0.14828	0.11194	0.11964	0.1959	0.19479	0.053321	0.099614	0.082994	-4.4688	-4.2229	-4.4125	-4.8417	-4.2042	-4.6125	-4.6583	-4.3729	-4.8042	-4.2375	-4.5437	-4.7604	-4.1792	-4.75	-4.5625	-4.2417	-145.387	-72.115	168.455	159.275	-20.625	94.427	-150.321	79.109	44.634	-12.852	51.583	-162.186	94.559	-164.070	119.015	147.757	0.00070321	0.00058939	0.00016607	1416.9	8.0824e-06	4.315e-06	1414.3	375.25	7.4883e-06	5.3882e-06	424.6	143.18	124.7	42.048	4.2018e-06	51.435	0.00028665	0.00022125	5.973e-05	1435.1	2.5238e-06	2.3878e-06	1427.7	380.53	2.4825e-06	2.3596e-06	431.69	145.02	126.68	43.034	2.3798e-06	52.736	-51.333	-101.866	-81.991	-158.311	-30.250	-33.207	-158.473	-153.613	-16.926	-27.266	-154.275	-149.582	-149.337	-144.410	-31.606	-145.480	-8191	255	
39443.641	1	1	0	0	0.25534	0.25045	0.15042	0.23546	0.16602	0.18523	0.3222	0.22156	0.19742	0.1665	0.13813	0.088963	0.20128	0.11327	0.18517	0.23043	-4.5896	-4.1917	-4.5896	-4.9187	-3.9917	-4.7875	-4.7917	-4.4521	-4.8417	-4.1896	-4.4833	-4.9	-4.1542	-4.575	-4.5167	-4.2396	60.883	-2.148	-86.489	126.509	-43.142	125.259	143.187	110.757	-26.515	-38.526	107.906	-51.677	143.515	15.354	-167.651	132.045	0.0006868	0.00062908	0.00018123	1415.3	7.7073e-06	4.4605e-06	1412	374.84	5.6278e-06	6.4386e-06	425.17	143.05	124.77	42.136	6.5743e-06	51.367	0.00028254	0.00022473	6.1739e-05	1435.1	2.6288e-06	2.344e-06	1426.3	380.76	2.5423e-06	2.3399e-06	432.47	145.1	126.45	43.15	2.4304e-06	52.788	-53.605	-91.495	-83.735	-158.263	-52.989	-23.781	-158.511	-153.778	-2.235	-16.375	-153.881	-149.472	-149.229	-144.435	-21.583	-145.664	-8191	255	
39443.734	1	1	0	0	0.26218	0.27261	0.085514	0.14589	0.14906	0.16605	0.18793	0.081275	0.22597	0.13064	0.21779	0.16908	0.18834	0.13532	0.054032	0.29612	-4.4354	-4.2562	-4.5229	-4.9646	-4.1146	-4.7271	-4.9167	-4.4458	-4.7146	-4.3333	-4.5417	-4.6208	-4.3562	-4.5604	-4.8021	-4.2229	140.281	-148.091	180.525	128.040	88.256	-165.981	18.369	114.878	112.884	-51.513	164.907	161.754	71.749	-134.013	31.319	15.827	0.00068136	0.00032954	0.0001735	1416.4	9.3066e-06	3.8812e-06	1410.3	374.62	5.1473e-06	4.9641e-06	425.85	142.94	125.06	42.017	5.0114e-06	51.553	0.00029233	0.00022456	6.1187e-05	1436.6	2.6112e-06	2.4485e-06	1427.3	380.95	2.5341e-06	2.4454e-06	432.54	145.29	126.93	43.063	2.4409e-06	52.816	-51.830	-70.282	-73.844	-158.166	-34.615	-27.417	-158.352	-153.708	0.944	-20.111	-154.097	-149.851	-149.282	-144.659	-18.569	-145.486	-8191	255	
#DATA ENDS
