BOXY.EXE: ISS Imagent and Oximeter Data Acquisition Program Version 0.80
Ascii Record File

#ACQ INFORMATION
2  Detector Channels 
16  External MUX Channels 
1  Auxiliary Channels 
5000  Waveform (CCF) Frequency (Hz)
1  Waveforms Skipped 
30  Waveforms Averaged 
1  Cycles Averaged 
16  Acquisitions per Waveform 
10.0806  Updata Rate (Hz) 

#FILE INFORMATION
TRUE -- External MUX Channel results are PARSED.
FALSE -- AC DC and Phase are NOT grouped.
TRUE -- Companion Program Settings File CREATED.
FALSE -- AC data not excluded
FALSE -- DC data not excluded
FALSE -- Phase data not excluded
FALSE -- Auxillary Chn. data not excluded
Tab delimiters

#CALIBRATION STATE
TRUE -- Waveform Calibration Values APPLIED.


#AUX CALIBRATION VALUES
Val Type	aux-1	

Term	1.0000e+00	
Factor	0.0000e+00	


#WF CALIBRATION VALUES
A = Detector Channel
Val Type	A-AC1	A-AC2	A-AC3	A-AC4	A-AC5	A-AC6	A-AC7	A-AC8	A-AC9	A-AC10	A-AC11	A-AC12	A-AC13	A-AC14	A-AC15	A-AC16	A-DC1	A-DC2	A-DC3	A-DC4	A-DC5	A-DC6	A-DC7	A-DC8	A-DC9	A-DC10	A-DC11	A-DC12	A-DC13	A-DC14	A-DC15	A-DC16	A-Ph1	A-Ph2	A-Ph3	A-Ph4	A-Ph5	A-Ph6	A-Ph7	A-Ph8	A-Ph9	A-Ph10	A-Ph11	A-Ph12	A-Ph13	A-Ph14	A-Ph15	A-Ph16	

Term	0.00000e+00	0.00000e+00	0.00000e+00	0.00000e+00	0.00000e+00	0.00000e+00	0.00000e+00	0.00000e+00	0.00000e+00	0.00000e+00	0.00000e+00	0.00000e+00	0.00000e+00	0.00000e+00	0.00000e+00	0.00000e+00	0.00000e+00	0.00000e+00	0.00000e+00	0.00000e+00	0.00000e+00	0.00000e+00	0.00000e+00	0.00000e+00	0.00000e+00	0.00000e+00	0.00000e+00	0.00000e+00	0.00000e+00	0.00000e+00	0.00000e+00	0.00000e+00	0.00000e+00	0.00000e+00	0.00000e+00	0.00000e+00	0.00000e+00	0.00000e+00	0.00000e+00	0.00000e+00	0.00000e+00	0.00000e+00	0.00000e+00	0.00000e+00	0.00000e+00	0.00000e+00	0.00000e+00	0.00000e+00	
Factor	1.00000e+00	1.00000e+00	1.00000e+00	1.00000e+00	1.00000e+00	1.00000e+00	1.00000e+00	1.00000e+00	1.00000e+00	1.00000e+00	1.00000e+00	1.00000e+00	1.00000e+00	1.00000e+00	1.00000e+00	1.00000e+00	1.00000e+00	1.00000e+00	1.00000e+00	1.00000e+00	1.00000e+00	1.00000e+00	1.00000e+00	1.00000e+00	1.00000e+00	1.00000e+00	1.00000e+00	1.00000e+00	1.00000e+00	1.00000e+00	1.00000e+00	1.00000e+00	X	X	X	X	X	X	X	X	X	X	X	X	X	X	X	X	

B = Detector Channel
Val Type	B-AC1	B-AC2	B-AC3	B-AC4	B-AC5	B-AC6	B-AC7	B-AC8	B-AC9	B-AC10	B-AC11	B-AC12	B-AC13	B-AC14	B-AC15	B-AC16	B-DC1	B-DC2	B-DC3	B-DC4	B-DC5	B-DC6	B-DC7	B-DC8	B-DC9	B-DC10	B-DC11	B-DC12	B-DC13	B-DC14	B-DC15	B-DC16	B-Ph1	B-Ph2	B-Ph3	B-Ph4	B-Ph5	B-Ph6	B-Ph7	B-Ph8	B-Ph9	B-Ph10	B-Ph11	B-Ph12	B-Ph13	B-Ph14	B-Ph15	B-Ph16	

Term	0.00000e+00	0.00000e+00	0.00000e+00	0.00000e+00	0.00000e+00	0.00000e+00	0.00000e+00	0.00000e+00	0.00000e+00	0.00000e+00	0.00000e+00	0.00000e+00	0.00000e+00	0.00000e+00	0.00000e+00	0.00000e+00	0.00000e+00	0.00000e+00	0.00000e+00	0.00000e+00	0.00000e+00	0.00000e+00	0.00000e+00	0.00000e+00	0.00000e+00	0.00000e+00	0.00000e+00	0.00000e+00	0.00000e+00	0.00000e+00	0.00000e+00	0.00000e+00	-9.05658e+01	-1.26898e+02	-1.24483e+02	-1.83724e+02	-5.37553e+01	-6.73461e+01	-1.56230e+02	-1.61923e+02	-5.40194e+01	-7.09364e+01	-1.72497e+02	-1.69782e+02	-1.82572e+02	-1.76840e+02	-5.89923e+01	-1.49992e+02	
Factor	1.56069e-05	1.51563e-04	3.89356e-05	2.00537e-01	1.34946e-06	1.72342e-06	1.58949e-01	5.10371e-02	1.12946e-06	1.86802e-06	8.89495e-02	2.57654e-02	2.29960e-02	7.58840e-03	1.36366e-06	1.13387e-02	1.08764e-05	1.96114e-05	5.47076e-06	1.05810e-01	1.98849e-07	2.17421e-07	7.90648e-02	2.72056e-02	1.94852e-07	2.18053e-07	4.58390e-02	1.33896e-02	1.23890e-02	4.07640e-03	2.02936e-07	5.89380e-03	X	X	X	X	X	X	X	X	X	X	X	X	X	X	X	X	



#DISTANCE SETTINGS
A = Detector Channel
A-1	A-2	A-3	A-4	A-5	A-6	A-7	A-8	A-9	A-10	A-11	A-12	A-13	A-14	A-15	A-16	

1.0000e+01	1.0000e+01	1.0000e+01	1.4500e+00	1.0000e+01	1.0000e+01	1.5100e+00	1.9500e+00	1.0000e+01	1.0000e+01	2.0100e+00	2.5000e+00	2.4400e+00	2.9500e+00	1.0000e+01	3.0100e+00	

B = Detector Channel
B-1	B-2	B-3	B-4	B-5	B-6	B-7	B-8	B-9	B-10	B-11	B-12	B-13	B-14	B-15	B-16	

1.0000e+01	1.0000e+01	1.0000e+01	1.4500e+00	1.0000e+01	1.0000e+01	1.5100e+00	1.9500e+00	1.0000e+01	1.0000e+01	2.0100e+00	2.5000e+00	2.4400e+00	2.9500e+00	1.0000e+01	3.0100e+00	




#DATA BEGINS
time	group	step	mark	flag	A-AC1	A-AC2	A-AC3	A-AC4	A-AC5	A-AC6	A-AC7	A-AC8	A-AC9	A-AC10	A-AC11	A-AC12	A-AC13	A-AC14	A-AC15	A-AC16	A-DC1	A-DC2	A-DC3	A-DC4	A-DC5	A-DC6	A-DC7	A-DC8	A-DC9	A-DC10	A-DC11	A-DC12	A-DC13	A-DC14	A-DC15	A-DC16	A-Ph1	A-Ph2	A-Ph3	A-Ph4	A-Ph5	A-Ph6	A-Ph7	A-Ph8	A-Ph9	A-Ph10	A-Ph11	A-Ph12	A-Ph13	A-Ph14	A-Ph15	A-Ph16	B-AC1	B-AC2	B-AC3	B-AC4	B-AC5	B-AC6	B-AC7	B-AC8	B-AC9	B-AC10	B-AC11	B-AC12	B-AC13	B-AC14	B-AC15	B-AC16	B-DC1	B-DC2	B-DC3	B-DC4	B-DC5	B-DC6	B-DC7	B-DC8	B-DC9	B-DC10	B-DC11	B-DC12	B-DC13	B-DC14	B-DC15	B-DC16	B-Ph1	B-Ph2	B-Ph3	B-Ph4	B-Ph5	B-Ph6	B-Ph7	B-Ph8	B-Ph9	B-Ph10	B-Ph11	B-Ph12	B-Ph13	B-Ph14	B-Ph15	B-Ph16	aux-1	digaux	

1027.591	1	1	0	256	0.2019	0.16679	0.15752	0.11883	0.113	0.27171	0.30016	0.18961	0.18277	0.32357	0.21208	0.0076422	0.19291	0.10242	0.068839	0.15112	-2.8458	-3.8021	-3.0542	-3.7	-3.5	-2.8646	-3.6937	-3.1729	-3.0729	-3.7188	-3.1083	-3.4771	-3.6188	-3.0062	-3.6312	-3.2604	268.439	350.345	471.899	416.681	510.953	195.184	504.378	456.259	500.278	438.683	523.409	423.563	523.616	474.293	421.483	250.935	0.0001672	0.00015753	9.2333e-05	492.62	3.4934e-06	2.8573e-06	372.05	143	1.8812e-06	4.3556e-06	120.34	44.094	47.023	19.269	1.2881e-06	19.507	0.00078355	0.0012386	0.00036015	493.83	1.3336e-05	1.4282e-05	372.76	143.6	1.3241e-05	1.4166e-05	122.22	45.116	47.908	19.505	1.3663e-05	20.029	236.762	326.623	301.501	183.791	375.708	344.219	182.227	188.908	310.603	310.204	187.200	191.181	193.622	198.141	303.191	193.780	-8191	255	
1027.710	1	1	0	0	0.15352	0.13264	0.098594	0.14569	0.075957	0.079411	0.10711	0.20061	0.16891	0.20172	0.05614	0.13286	0.17325	0.1776	0.15867	0.19028	-2.6875	-3.6625	-3.0833	-3.3646	-3.7125	-3.0646	-3.7104	-3.4313	-3.0083	-4.0062	-2.9354	-3.2042	-3.5521	-3.0375	-3.6396	-3.5542	345.266	480.586	436.971	322.784	520.460	385.681	503.581	509.272	309.222	396.260	195.696	226.683	193.725	260.214	407.512	467.343	0.00018493	0.00040499	0.00011521	494.53	3.3755e-06	1.2272e-06	374.51	142.6	9.84e-07	5.9937e-06	120.22	44.686	47.272	19.221	3.4376e-06	19.873	0.00082951	0.0012978	0.00036596	491.33	1.3255e-05	1.4797e-05	373.69	144.18	1.3124e-05	1.4122e-05	122.43	45.411	48.079	19.546	1.3532e-05	20.143	251.136	300.772	295.950	183.363	270.826	340.455	182.203	189.253	486.686	291.637	187.053	190.953	193.757	197.840	331.261	193.546	-8191	255	
1027.806	1	1	0	0	0.16859	0.15303	0.16854	0.29328	0.26944	0.15876	0.26424	0.1903	0.09497	0.07894	0.12858	0.36911	0.12264	0.23387	0.15364	0.10319	-2.6625	-3.7	-3.2021	-3.3375	-3.7604	-3	-3.6167	-3.6562	-2.9729	-3.8167	-3.2875	-3.2583	-3.8083	-3.1	-3.5	-3.5979	522.671	442.161	449.590	444.219	271.821	334.112	453.731	228.059	387.118	519.213	380.310	192.705	342.043	396.988	425.124	345.758	0.00017165	0.00040563	9.1672e-05	494.19	2.9084e-06	4.251e-06	374.59	142.85	2.7634e-06	2.8599e-06	120.88	44.633	47.062	19.371	3.2944e-06	19.624	0.00082445	0.0013059	0.00036749	494.41	1.3761e-05	1.5009e-05	374.5	144.07	1.4235e-05	1.5125e-05	122.47	45.202	47.977	19.549	1.4146e-05	19.997	238.541	215.021	274.880	183.667	360.236	305.975	182.665	189.018	306.778	235.179	186.240	191.737	193.926	197.798	344.527	194.084	-8191	255	
1027.902	1	1	0	0	0.082338	0.16205	0.16333	0.31885	0.16145	0.18479	0.15768	0.11959	0.18209	0.065905	0.21712	0.10515	0.13344	0.26122	0.23857	0.10024	-2.5187	-3.8917	-3.0417	-3.1083	-3.7562	-2.9813	-3.3771	-3.6708	-2.9208	-3.6833	-3.4479	-3.0021	-3.9062	-3.0938	-3.4667	-3.6646	298.194	374.471	440.261	492.218	480.863	398.734	237.204	459.427	452.474	185.020	501.985	222.822	489.433	276.901	437.506	247.376	0.00018542	0.00018769	0.00013213	490.66	4.1902e-06	6.1525e-07	370.72	142.61	2.3567e-06	1.2113e-06	119.35	44.361	47.405	19.429	4.6605e-06	19.639	0.00087217	0.0013456	0.00038666	492.09	1.3503e-05	1.4648e-05	371.4	143.67	1.3635e-05	1.4714e-05	121.57	44.992	48.055	19.619	1.3906e-05	20.144	237.755	200.475	262.792	183.765	354.171	477.764	182.531	189.455	343.554	257.779	186.795	190.455	193.950	197.740	267.012	193.739	-8191	255	
1027.998	1	1	0	0	0.21223	0.17134	0.20229	0.10648	0.04923	0.11462	0.041961	0.18794	0.024388	0.17038	0.12416	0.071757	0.21955	0.18592	0.15186	0.13464	-2.2896	-3.5292	-3.5062	-3.0667	-3.7667	-3.1104	-3.4646	-3.7229	-2.925	-3.7333	-3.4313	-2.9729	-3.7438	-3.1479	-3.2438	-3.7208	455.938	511.543	367.659	461.598	392.721	423.423	466.584	190.251	436.691	527.768	279.019	265.057	388.316	325.401	345.171	464.005	0.00018526	7.669e-05	0.00013538	497.69	1.2344e-06	4.8434e-06	371.58	144.2	4.2912e-06	1.76e-06	120.66	44.301	47.752	19.628	2.9781e-06	20.082	0.00083116	0.0013313	0.00036559	494.13	1.3213e-05	1.5017e-05	370.98	144.46	1.3906e-05	1.5082e-05	122	45.338	48.511	19.88	1.4238e-05	20.357	235.725	260.718	241.781	183.837	285.359	352.473	182.151	189.416	299.795	444.313	186.586	190.903	194.205	197.702	297.155	194.169	-8191	255	
1028.119	1	1	0	0	0.10079	0.27977	0.24311	0.19854	0.080322	0.17205	0.24381	0.17487	0.21418	0.1022	0.17208	0.20489	0.19942	0.36268	0.16886	0.04801	-2.5417	-3.4333	-3.5271	-2.9729	-3.7729	-3.2021	-3.0771	-3.9437	-2.9667	-3.6	-3.5375	-3.0125	-3.4854	-3.2042	-3.0458	-3.8458	243.168	400.271	468.292	485.584	289.435	338.431	183.440	178.431	506.585	361.442	199.845	502.164	370.778	182.897	341.611	449.533	0.00016185	0.00019472	0.00011996	492.14	2.4399e-06	4.0118e-06	368.73	143.4	3.792e-06	2.5583e-06	120.36	45.445	48.28	19.771	2.1343e-06	20.216	0.00085475	0.0013439	0.00036922	493.18	1.3794e-05	1.4614e-05	371.97	144.15	1.3387e-05	1.5106e-05	122.74	45.798	48.816	20.062	1.3928e-05	20.583	238.144	323.376	269.512	183.765	341.120	318.005	182.609	189.353	370.033	283.301	186.330	190.987	193.310	197.452	332.479	193.816	-8191	255	
1028.190	1	1	0	0	0.11952	0.20718	0.23689	0.20661	0.059789	0.31516	0.31657	0.13785	0.11793	0.075681	0.17371	0.17928	0.11283	0.1982	0.041572	0.22771	-2.6354	-3.4688	-3.6021	-2.8354	-3.7479	-3.4167	-3.1333	-3.825	-3.1708	-3.3917	-3.7208	-2.8792	-3.5458	-3.4104	-2.9542	-3.8396	391.838	270.424	525.995	497.520	428.915	526.695	517.995	268.845	251.993	395.554	246.289	247.622	495.141	421.722	419.728	299.527	0.00018447	0.00035713	2.6261e-05	494.81	3.8752e-06	5.7681e-06	373.13	144.34	1.6774e-06	9.3873e-07	122.44	45.721	47.82	19.947	1.5902e-06	20.291	0.00084367	0.0013627	0.00037137	494.35	1.3848e-05	1.4802e-05	374.01	145.08	1.3474e-05	1.4942e-05	123.63	46.252	48.889	20.201	1.3791e-05	20.683	226.184	494.160	367.831	183.498	350.811	255.641	182.673	189.442	305.390	228.829	186.587	190.685	194.105	197.246	307.284	193.762	-8191	255	
1028.287	1	1	0	0	0.081879	0.06092	0.25636	0.19252	0.13584	0.10874	0.38055	0.11795	0.038021	0.10295	0.3631	0.26394	0.048884	0.18502	0.085229	0.052555	-2.5729	-3.1979	-3.6813	-3.0354	-3.6979	-3.4271	-2.9917	-3.8042	-3.1958	-3.125	-3.7229	-2.8771	-3.5083	-3.4479	-2.8479	-3.8708	274.330	217.338	345.579	495.821	414.200	326.927	459.682	516.547	357.890	530.914	514.754	440.066	249.201	441.712	481.602	413.398	0.00016818	0.00048726	4.8859e-05	496.23	2.8373e-06	1.5533e-06	373.12	144.35	2.5482e-06	2.9698e-06	122.34	45.033	48.019	20.009	3.7548e-06	20.223	0.00082989	0.0013373	0.0003704	494.78	1.352e-05	1.478e-05	371.94	145.04	1.3628e-05	1.4787e-05	122.95	45.926	48.867	20.249	1.428e-05	20.588	248.740	243.983	369.823	183.614	316.884	220.129	182.331	189.518	251.332	298.390	186.489	190.908	193.974	197.161	345.689	194.036	-8191	255	
1028.407	1	1	0	0	0.12845	0.10555	0.13597	0.24562	0.31427	0.084477	0.24902	0.047581	0.14656	0.25225	0.12597	0.13904	0.1604	0.19082	0.23902	0.17903	-2.8354	-3.0042	-3.8	-2.9667	-3.4542	-3.6063	-2.8563	-3.7333	-3.2979	-3.0563	-3.8438	-3.0229	-3.3937	-3.7625	-2.7083	-3.5479	218.954	354.916	177.829	484.346	482.064	231.746	413.389	344.086	181.200	525.310	454.008	232.689	481.903	449.239	286.168	477.761	0.00020623	0.00026248	5.8292e-05	494.27	3.2209e-06	1.6895e-06	373.7	145.05	1.6852e-06	2.775e-06	121.2	45.258	48.212	19.83	2.506e-06	20.293	0.00087868	0.0013669	0.00037692	493.44	1.4118e-05	1.518e-05	371.93	145.29	1.4202e-05	1.5949e-05	122.79	45.987	49.085	20.22	1.5197e-05	20.671	234.846	237.096	297.246	183.772	326.282	261.500	182.532	189.461	349.830	426.241	187.279	191.453	193.588	197.658	392.274	193.687	-8191	255	
1028.502	1	1	0	0	0.027593	0.37538	0.062982	0.1111	0.27649	0.059429	0.081667	0.27792	0.12525	0.1372	0.22756	0.126	0.14761	0.065218	0.21631	0.21263	-2.8646	-3.0563	-3.8583	-3.1083	-3.1375	-3.7021	-3.1792	-3.5896	-3.5708	-3.1708	-3.7875	-3.1917	-3.3854	-3.6333	-2.925	-3.5854	464.095	428.049	460.337	178.475	430.243	186.899	471.736	492.678	374.900	488.966	221.874	385.160	253.877	251.667	400.965	185.653	0.00015582	0.000127	7.934e-05	493.26	3.976e-06	4.4799e-06	369.26	144.54	1.704e-06	5.6287e-06	121.55	45.272	48.05	20.065	2.9678e-06	20.484	0.00085858	0.0013882	0.00038045	493.33	1.4202e-05	1.5601e-05	371.84	145.32	1.3985e-05	1.5087e-05	123.46	46.083	49.058	20.359	1.4608e-05	20.833	240.706	296.761	334.902	183.340	325.830	343.098	182.725	189.644	329.104	330.871	186.549	190.801	193.597	197.873	304.615	193.757	-8191	255	
1028.598	1	1	0	0	0.10883	0.068389	0.19245	0.10696	0.036015	0.15389	0.12321	0.024617	0.080397	0.122	0.25939	0.29775	0.13425	0.27636	0.14377	0.15194	-3.15	-2.975	-3.7562	-3.1688	-3.1521	-3.7188	-2.9458	-3.5312	-3.4167	-2.95	-3.7542	-3.2521	-3.0438	-3.8479	-3.1437	-3.4688	473.082	363.396	297.786	472.383	385.973	178.358	470.250	466.359	522.680	171.920	226.827	517.984	396.014	510.814	348.324	427.532	0.00015863	0.00050964	4.5563e-05	493.52	4.9461e-06	2.1169e-06	372.2	145	1.9316e-06	6.0607e-06	121.85	45.989	48.894	20.072	1.6453e-06	20.919	0.00087102	0.0014335	0.00039391	492.82	1.4376e-05	1.6047e-05	373.91	145.78	1.4451e-05	1.6278e-05	123.83	46.678	49.506	20.44	1.6074e-05	21.068	242.704	229.872	341.426	183.828	334.558	264.423	182.749	189.394	309.764	344.323	186.835	191.151	193.500	197.760	323.636	194.017	-8191	255	
1028.694	1	1	0	0	0.21895	0.21288	0.14285	0.20149	0.073276	0.21233	0.12881	0.14109	0.12051	0.38105	0.023996	0.14863	0.14234	0.31939	0.16752	0.26925	-3.3104	-3.0167	-3.7792	-3.1396	-2.9979	-3.7417	-3.0833	-3.4604	-3.6937	-2.9896	-3.6688	-3.3542	-3.0312	-3.8229	-2.9646	-3.3604	193.042	227.226	384.429	523.494	270.062	341.781	275.184	456.737	476.973	405.488	341.639	523.950	402.953	460.746	210.051	334.028	0.00019634	0.00018152	8.0402e-05	495.27	1.2633e-06	2.8044e-06	370.45	144.36	2.6204e-06	1.3495e-06	122.33	45.115	48.251	19.92	3.4872e-06	20.111	0.00094634	0.0015437	0.00043432	494.97	1.6386e-05	1.7144e-05	372.84	146.22	1.5595e-05	1.7296e-05	124.12	45.903	49.203	20.322	1.6066e-05	20.637	234.528	247.545	256.423	183.757	388.660	374.140	182.342	189.232	310.711	313.712	187.134	191.130	193.206	197.502	305.010	194.107	-8191	255	
1028.790	1	1	0	0	0.074786	0.16201	0.17439	0.10893	0.42297	0.083952	0.14539	0.01804	0.088951	0.10232	0.088384	0.22654	0.13144	0.16808	0.031349	0.13266	-3.2792	-3.0062	-3.5146	-3.4875	-2.9729	-3.8104	-3.0625	-3.4792	-3.6375	-3.1021	-3.425	-3.3292	-3.0979	-3.6792	-3.1562	-3.2146	233.920	238.338	311.346	505.079	331.505	249.446	468.747	346.361	389.157	515.820	213.539	400.138	479.522	458.855	510.467	373.866	0.00020544	0.00041253	4.8334e-05	492.55	3.9115e-06	1.2533e-06	369.88	145.47	1.7549e-06	4.7605e-06	120.24	45.368	48.294	20.015	3.0844e-06	20.364	0.00092841	0.0015902	0.00041093	492.26	1.5854e-05	1.6466e-05	370.24	145.86	1.5068e-05	1.704e-05	123.22	45.959	49.206	20.412	1.6615e-05	20.738	235.654	243.177	182.698	183.535	378.591	225.245	182.415	189.416	266.361	349.483	187.140	191.464	194.334	198.435	343.884	193.933	-8191	255	
1028.886	1	1	0	0	0.15284	0.10881	0.10228	0.2097	0.29942	0.25768	0.12518	0.13201	0.049212	0.29338	0.12402	0.20288	0.034613	0.1174	0.16462	0.043397	-3.3292	-2.9292	-3.6083	-3.6312	-2.9333	-3.7062	-3.3583	-3.1917	-3.7958	-3.1042	-3.5625	-3.7375	-2.9417	-3.6083	-3.3625	-3.1813	479.960	390.075	365.837	478.479	500.271	395.567	230.694	497.413	438.482	437.039	184.455	403.269	387.068	398.687	434.869	304.688	0.00022449	0.00045113	8.072e-05	492.26	4.2069e-06	4.3023e-06	371.04	144.01	2.8254e-06	2.2902e-07	121.56	44.507	48.56	20	6.3684e-06	20.309	0.00099431	0.0015964	0.00045266	492.23	1.6618e-05	1.8341e-05	372.66	145.87	1.7125e-05	1.8735e-05	123.99	45.762	49.305	20.298	1.8574e-05	20.671	234.564	219.122	212.879	184.451	318.092	313.043	182.705	189.907	257.819	501.710	186.985	191.150	193.638	198.032	294.972	193.924	-8191	255	
1028.982	1	1	0	0	0.15428	0.099414	0.053884	0.32532	0.10866	0.16827	0.19855	0.23485	0.12884	0.12927	0.096348	0.23873	0.077414	0.18203	0.024814	0.32548	-3.3667	-3.0479	-3.2042	-3.7021	-2.9375	-3.7167	-3.4333	-3.0938	-3.7687	-3.1542	-3.3979	-3.675	-2.925	-3.6667	-3.3583	-3.0917	508.166	206.898	380.294	479.713	185.713	390.141	525.700	467.742	332.331	364.627	479.353	201.940	321.067	210.859	341.810	351.345	0.00021853	0.00054466	4.0525e-05	492.79	1.7984e-06	5.3616e-06	370.8	143.98	3.7817e-06	4.7653e-06	121.68	45.143	48.429	19.922	3.8843e-06	20.237	0.001087	0.0018192	0.00052333	494.17	1.9085e-05	2.0524e-05	373.84	146.29	1.8849e-05	2.0546e-05	124.91	46.018	49.524	20.276	1.8654e-05	20.708	246.919	253.321	307.079	184.052	240.737	341.392	183.173	189.712	329.339	498.738	186.712	190.405	193.707	197.547	402.268	193.169	-8191	255	
1029.078	1	1	0	0	0.24404	0.023928	0.13667	0.25255	0.3413	0.23685	0.11068	0.1386	0.050488	0.28572	0.33609	0.10348	0.054022	0.1467	0.1405	0.081403	-3.275	-3.0125	-3.1896	-3.6604	-2.8875	-3.5021	-3.7188	-3.0229	-3.7396	-3.3458	-3.0896	-3.6458	-3.05	-3.5708	-3.4646	-2.8625	502.725	434.094	347.618	307.919	329.050	180.829	466.334	487.940	265.746	320.405	380.709	438.066	505.930	320.735	342.704	503.376	0.0002066	0.0004295	5.2766e-05	492.83	2.8951e-06	2.7368e-06	368.74	145.14	5.0324e-06	6.2207e-06	122.91	44.703	48.299	19.913	3.0023e-06	20.072	0.0011026	0.0018277	0.00050979	494.88	1.8647e-05	2.022e-05	373.32	146.9	1.809e-05	2.0414e-05	124.87	45.526	49.197	20.223	1.9015e-05	20.495	238.659	214.462	312.170	183.253	474.463	310.553	182.081	189.166	285.259	366.157	186.544	190.651	193.681	197.463	324.562	192.930	-8191	255	
1029.197	1	1	0	0	0.18989	0.18266	0.24535	0.29499	0.12112	0.1729	0.16977	0.23099	0.097265	0.13927	0.12397	0.11244	0.20966	0.030335	0.15246	0.12249	-3.4708	-3.3187	-3.1312	-3.8229	-2.9521	-3.4708	-3.8167	-3.0812	-3.6958	-3.4437	-3.2042	-3.8229	-2.9437	-3.3604	-3.55	-3.1042	291.833	194.031	322.901	425.943	301.485	337.849	450.086	496.463	426.379	486.890	425.819	460.054	423.285	317.038	245.616	415.350	0.00017434	0.0003194	0.00017135	490.27	2.1154e-06	6.5683e-06	370.83	145.05	3.2337e-06	2.3041e-06	119.53	44.567	47.593	19.661	4.134e-06	19.879	0.0011156	0.0017841	0.00051859	492.9	1.8449e-05	1.9866e-05	371.29	146.29	1.8169e-05	2.0135e-05	122.99	45.249	48.766	20.047	1.8468e-05	20.335	237.795	314.948	270.349	183.411	280.518	301.126	182.314	188.753	351.791	318.507	186.547	190.482	193.592	197.384	345.571	193.484	-8191	255	
1029.294	1	1	0	0	0.11912	0.17861	0.12677	0.099861	0.059773	0.26666	0.13439	0.10508	0.19376	0.097142	0.24366	0.35093	0.045273	0.15569	0.015947	0.071281	-3.2562	-3.3208	-2.9813	-3.8396	-3.1271	-3.325	-3.9042	-2.8896	-3.5021	-3.4396	-3.075	-3.575	-3.1437	-3.2	-3.7729	-2.9833	525.121	255.254	500.095	187.175	279.802	325.623	407.500	363.617	284.351	502.073	502.906	274.870	520.030	387.950	479.562	243.439	0.00019156	0.00017559	6.0859e-05	493.23	4.0664e-06	4.3606e-06	370.41	145.06	3.8173e-06	4.4056e-06	121.03	44.361	48.07	19.829	3.0215e-06	19.985	0.0011047	0.0017488	0.00050274	493.04	1.8596e-05	2.0071e-05	371.7	146.47	1.7847e-05	1.9584e-05	123.83	45.251	48.977	20.199	1.7973e-05	20.467	223.169	475.429	264.346	183.703	310.799	389.252	182.400	189.238	303.653	302.051	186.463	191.051	193.152	197.515	365.727	192.916	-8191	255	
1029.390	1	1	0	0	0.088594	0.10073	0.14526	0.16336	0.18425	0.10585	0.19619	0.32251	0.080191	0.29535	0.055245	0.11734	0.19518	0.080559	0.1292	0.1734	-3.0854	-3.5583	-3.0146	-3.8271	-3.1125	-3.2833	-3.8917	-2.9771	-3.6312	-3.6562	-3.0042	-3.6979	-3.3958	-3.2438	-3.7667	-3.0875	459.795	455.126	271.383	522.391	312.901	468.227	490.838	214.841	395.609	452.775	389.437	509.572	456.712	448.314	474.414	451.297	0.00021982	0.00019467	0.00013012	489.95	4.6196e-07	3.1031e-06	370.92	144.68	4.0412e-06	5.9669e-06	121.56	44.654	48.215	20.005	3.3148e-06	20.198	0.0010647	0.0017482	0.00047276	494	1.7418e-05	1.9081e-05	371.68	146.23	1.709e-05	1.9135e-05	124.15	45.72	49.32	20.326	1.7384e-05	20.683	228.078	290.198	298.452	183.453	499.669	321.172	181.881	189.239	253.799	270.913	186.505	190.827	193.199	197.595	329.301	193.252	-8191	255	
1029.486	1	1	0	0	0.073006	0.13757	0.012238	0.079984	0.12802	0.17112	0.13948	0.20015	0.18001	0.077582	0.14676	0.15445	0.099467	0.084715	0.073921	0.071194	-3.1271	-3.6042	-3.0396	-3.7062	-3.4479	-3.0083	-3.8979	-3.0604	-3.3125	-3.6729	-2.9479	-3.6667	-3.5396	-3.0479	-3.7833	-3.2812	204.406	261.889	405.681	405.560	470.050	410.761	182.512	191.847	403.532	504.967	407.247	349.457	234.050	499.303	417.187	264.400	0.00021055	0.00036535	2.5885e-05	493.49	1.1564e-06	3.5832e-06	370.78	145.79	2.8838e-06	2.3863e-06	121.98	45.141	48.624	19.83	2.2034e-06	20.323	0.0010335	0.0016734	0.00047895	494.11	1.7568e-05	1.8783e-05	373.5	146.76	1.7748e-05	1.9283e-05	124.51	45.951	49.564	20.286	1.8126e-05	20.666	230.392	281.697	185.128	183.503	276.269	349.295	181.966	189.354	248.201	496.856	186.894	191.216	193.841	197.697	333.511	193.617	-8191	255	
1029.582	1	1	0	0	0.081847	0.19547	0.1437	0.12606	0.12655	0.15845	0.16572	0.20023	0.074913	0.22611	0.26477	0.24453	0.016986	0.068631	0.16212	0.19414	-2.8229	-3.7604	-2.8729	-3.7083	-3.6521	-3.225	-3.8958	-3.2938	-3.1375	-3.7438	-3.1458	-3.6708	-3.4979	-2.9125	-3.6437	-3.2604	217.526	304.155	326.498	294.768	482.942	488.794	236.280	483.663	243.065	434.682	524.923	238.611	528.855	181.699	430.041	196.061	0.00020458	0.00039337	8.163e-05	496.37	2.9403e-06	9.5079e-07	368.46	144.13	3.8745e-06	7.4284e-06	121.51	44.174	48.336	20.076	1.2505e-06	20.003	0.0010916	0.0017435	0.00048513	496.5	1.7628e-05	1.9376e-05	371.72	146.62	1.7412e-05	1.8931e-05	123.88	45.486	49.25	20.29	1.8592e-05	20.437	243.217	225.481	253.704	183.194	335.297	357.632	182.424	189.700	332.539	286.002	187.064	191.172	193.672	197.424	190.484	193.669	-8191	255	
1029.678	1	1	0	0	0.10255	0.12504	0.064666	0.27939	0.084041	0.35216	0.13141	0.13664	0.20855	0.25628	0.12014	0.014072	0.16245	0.24882	0.048512	0.16146	-2.9604	-3.6854	-3.0271	-3.5604	-3.7979	-3.0542	-3.7667	-3.3937	-3.2438	-3.7083	-3.1688	-3.4917	-3.5312	-2.875	-3.7917	-3.5833	460.590	253.523	298.277	419.234	214.888	426.178	185.761	459.773	241.020	286.096	244.722	470.203	202.382	201.980	204.658	518.603	0.00017743	0.00013178	0.0001922	493.65	5.0667e-06	5.8566e-06	369.65	144.92	9.8582e-07	5.7653e-06	119.62	44.221	48.188	19.798	3.0336e-06	20.086	0.0010844	0.0017675	0.00048684	496.06	1.8203e-05	2.0007e-05	371.85	146.98	1.8429e-05	2.002e-05	123.93	45.406	49.333	20.164	1.9253e-05	20.542	233.104	422.083	281.674	183.765	336.235	322.690	182.751	189.035	324.182	305.069	186.859	191.075	194.064	197.834	294.933	193.432	-8191	255	
1029.799	1	1	0	0	0.14654	0.24823	0.050192	0.28584	0.16823	0.13797	0.14377	0.048753	0.040165	0.33775	0.051654	0.17308	0.17537	0.098571	0.33628	0.098583	-2.6021	-3.8729	-3.1312	-3.4667	-3.7208	-2.8979	-3.625	-3.5	-3.0062	-3.8958	-3.1208	-3.3083	-3.7958	-3.0292	-3.6937	-3.75	318.733	357.467	265.674	199.135	422.542	323.230	369.051	479.763	287.435	287.437	186.663	217.226	530.036	200.546	179.858	341.050	0.00018357	0.00023963	3.611e-05	495.06	3.54e-06	5.6137e-06	371.58	146.12	2.9416e-06	5.1144e-06	122.55	44.66	47.855	19.678	4.2688e-06	20.049	0.0011373	0.0018804	0.00052629	497.54	1.9198e-05	2.1212e-05	373.88	147.61	1.9818e-05	2.139e-05	124.83	45.561	49.447	20.136	2.0623e-05	20.556	226.492	420.409	299.638	183.992	346.309	272.077	182.712	189.194	251.563	292.316	187.310	191.062	194.045	197.554	301.821	193.590	-8191	255	
1029.893	1	1	0	0	0.059189	0.041328	0.17771	0.14189	0.032864	0.21485	0.12679	0.10144	0.05162	0.2408	0.17639	0.17064	0.19263	0.099547	0.10628	0.14871	-2.6979	-3.7062	-3.1292	-3.3583	-3.7792	-2.8688	-3.5042	-3.5521	-2.9646	-3.7375	-3.2604	-3.2958	-3.8187	-3.0375	-3.3375	-3.6979	510.094	404.567	282.174	429.698	235.250	245.466	305.662	345.491	261.580	388.578	408.120	216.512	505.636	245.902	389.451	418.683	0.00024522	0.00013242	0.00015234	494.04	3.0517e-06	5.8703e-06	375.96	147.19	2.9267e-06	3.4585e-06	123.1	44.258	48.754	19.8	2.5408e-06	19.881	0.0012056	0.0020188	0.00056442	500.28	2.0549e-05	2.2422e-05	378.07	148.97	2.06e-05	2.2595e-05	125.98	45.622	49.636	20.243	2.1565e-05	20.494	242.355	352.706	238.650	183.916	361.431	222.616	182.567	189.412	352.289	273.543	186.560	190.958	193.731	197.717	363.669	194.076	-8191	255	
1029.989	1	1	0	0	0.087134	0.14685	0.17526	0.24529	0.11587	0.059675	0.18488	0.1052	0.21867	0.086284	0.11045	0.04673	0.2507	0.17308	0.074938	0.071821	-2.5833	-3.6937	-3.4875	-3.1021	-3.8563	-3.1646	-3.3875	-3.6708	-2.8583	-3.7604	-3.4125	-3.2729	-3.7562	-3.0229	-3.1958	-3.7729	390.520	462.363	386.654	485.698	421.161	322.283	412.548	401.399	440.358	172.167	328.218	236.636	530.490	481.878	524.268	340.108	0.00017495	0.00037333	0.00015581	497.55	6.4567e-06	2.6741e-06	372.18	147.97	1.8791e-06	2.567e-06	120.85	43.727	48.027	19.595	5.6632e-06	19.495	0.0012502	0.0020212	0.00056168	500.04	2.0471e-05	2.2022e-05	374.94	148.53	1.964e-05	2.142e-05	123.89	44.846	49.104	20.029	2.0069e-05	20.191	243.315	409.523	279.606	184.129	315.336	202.894	182.599	189.467	335.583	222.658	187.118	191.004	193.597	197.703	296.573	193.605	-8191	255	
1030.063	1	1	0	0	0.15668	0.06843	0.15391	0.13397	0.098022	0.24836	0.1133	0.15234	0.20166	0.046852	0.4738	0.26812	0.13768	0.077591	0.12702	0.079625	-2.6792	-3.5125	-3.4583	-3.0125	-3.7979	-3.1125	-3.3063	-3.6979	-3.2333	-3.7479	-3.6104	-2.9688	-3.8063	-3.075	-3.3417	-3.8875	321.401	289.684	416.289	426.789	188.292	234.234	275.419	358.777	206.239	366.336	494.653	442.238	208.033	480.421	402.179	313.195	0.00023335	0.00075184	9.8194e-05	493.66	2.9861e-06	5.999e-06	372.73	146.47	2.923e-06	2.6909e-06	121.05	43.518	47.679	19.486	2.2861e-06	19.76	0.0011853	0.0019701	0.00053711	497.25	1.9684e-05	2.1361e-05	373.6	147.88	1.9486e-05	2.1318e-05	123.81	44.759	48.809	19.877	2.0348e-05	20.19	235.521	304.934	293.765	183.581	269.058	469.218	182.628	189.411	268.438	474.093	186.519	191.147	193.798	197.963	310.228	194.122	-8191	255	
1030.182	1	1	0	0	0.12161	0.28031	0.24557	0.1168	0.13014	0.082346	0.050129	0.14714	0.055873	0.042429	0.1149	0.18475	0.13793	0.1514	0.32672	0.020497	-2.6083	-3.5812	-3.6875	-3.0312	-3.8271	-3.3812	-2.9458	-3.7229	-2.9896	-3.3937	-3.7229	-2.875	-3.6146	-3.2313	-2.975	-3.8458	267.853	348.721	463.637	301.311	518.130	464.427	356.507	195.112	527.004	194.443	420.089	273.215	369.719	234.778	403.569	371.219	0.00019327	0.00038597	6.4005e-05	494.27	1.0326e-06	1.3192e-06	370.57	146.81	3.5372e-06	6.5713e-06	121.21	43.896	48.521	19.631	4.6319e-06	19.625	0.0011802	0.0019362	0.00054856	497.5	1.9901e-05	2.1113e-05	372.46	148.1	1.9884e-05	2.1714e-05	124.19	44.983	49.354	19.958	2.1098e-05	20.323	235.370	264.858	312.030	184.195	186.807	306.329	182.612	189.556	389.106	386.026	186.798	190.983	193.648	197.764	443.171	194.412	-8191	255	
1030.278	1	1	0	0	0.1238	0.15773	0.21205	0.16999	0.12477	0.21478	0.10253	0.13803	0.077904	0.17306	0.095454	0.25896	0.17026	0.28455	0.11356	0.10734	-2.7938	-3.2	-3.5854	-2.975	-3.7479	-3.4437	-3.1667	-3.7625	-2.9938	-3.1354	-3.6354	-3.0375	-3.6417	-3.5604	-3.1375	-3.8583	199.091	283.567	512.737	460.117	411.171	494.967	473.900	490.761	522.448	398.108	525.889	294.283	234.588	522.545	348.535	450.202	0.00018838	0.00060997	0.00010444	493.98	2.8257e-06	2.9428e-06	373.09	147.23	2.1401e-06	5.2706e-06	122.06	43.83	48.145	19.761	2.8429e-06	19.87	0.0011997	0.0020277	0.00056551	498.51	2.0505e-05	2.2934e-05	375.45	148.71	2.107e-05	2.3701e-05	125.64	45.267	49.518	20.139	2.3527e-05	20.529	231.594	266.557	296.409	183.991	349.494	217.043	182.413	189.640	300.881	290.808	186.921	191.322	193.371	197.887	295.861	194.356	-8191	255	
1030.374	1	1	0	0	0.047829	0.21337	0.022393	0.098788	0.045654	0.15937	0.10176	0.11093	0.35564	0.023239	0.15611	0.055317	0.099698	0.19789	0.068112	0.090257	-2.6875	-3.3646	-3.5625	-2.9896	-3.2854	-3.525	-3.0417	-3.6437	-3.2542	-3.1229	-3.8271	-2.8458	-3.5333	-3.6792	-2.9521	-3.65	367.966	211.168	437.646	408.732	343.807	354.099	339.068	394.488	439.326	320.611	184.142	463.463	489.706	444.664	362.437	518.105	0.00022298	0.00029851	8.9122e-05	497.43	2.0854e-06	4.242e-06	377.28	147.7	2.0484e-06	1.3296e-06	121.82	43.372	47.9	19.464	3.9912e-06	19.629	0.0013687	0.002275	0.00062909	501.71	2.3699e-05	2.6099e-05	379.4	149.91	2.3322e-05	2.6511e-05	126.04	44.739	49.246	19.9	2.3995e-05	20.123	229.608	221.231	232.690	183.610	276.104	287.447	182.499	189.919	265.634	483.318	187.248	191.051	194.245	197.429	349.511	193.803	-8191	255	
1030.470	1	1	0	0	0.11296	0.31424	0.06867	0.1533	0.13369	0.073136	0.17895	0.29896	0.15426	0.15259	0.10013	0.38051	0.10971	0.032605	0.059595	0.15945	-2.95	-2.9917	-3.7146	-2.9208	-3.4729	-3.6083	-2.9167	-3.5854	-3.3312	-3.1562	-3.8125	-3.2188	-3.4083	-3.6604	-3.0021	-3.6458	421.841	260.280	393.420	219.446	507.390	359.796	415.093	483.336	191.448	246.609	284.878	186.296	335.615	271.785	239.389	204.057	0.00013785	0.00020949	3.8175e-05	495.09	2.5979e-06	1.825e-06	375.98	146.48	3.9256e-06	2.9691e-06	120.11	42.598	47.551	19.499	3.5863e-06	19.401	0.0013459	0.0022579	0.00061327	500.41	2.2748e-05	2.4461e-05	376.07	148.53	2.1533e-05	2.4448e-05	123.95	44.182	48.98	19.854	2.3295e-05	19.951	231.866	219.472	336.581	183.853	473.605	286.922	183.091	189.681	322.321	336.949	187.323	191.435	193.917	198.040	291.517	193.965	-8191	255	
1030.591	1	1	0	0	0.025832	0.050775	0.14775	0.17552	0.072067	0.26087	0.11166	0.10533	0.16347	0.18016	0.048728	0.16536	0.13549	0.13274	0.056309	0.2202	-3.2271	-3.1063	-3.7146	-3.0083	-3.1896	-3.7271	-3	-3.7042	-3.4646	-3.0104	-3.8354	-3.25	-3.1813	-3.9125	-2.9854	-3.475	287.919	378.878	227.608	471.019	358.377	438.612	309.087	217.002	408.548	330.837	454.900	237.599	249.058	481.348	182.645	201.792	0.00021027	0.00021593	0.0001426	494.55	3.3254e-06	2.1642e-06	372.73	147.56	2.884e-06	1.6339e-06	120.65	43.554	47.785	19.534	3.9452e-06	19.706	0.0013325	0.0022636	0.00061984	500.34	2.2682e-05	2.4677e-05	375.99	149.03	2.2658e-05	2.529e-05	125.02	44.631	49.266	20.029	2.3605e-05	20.299	236.899	212.863	269.692	183.636	414.519	194.060	182.470	189.235	320.572	397.601	186.799	190.254	193.275	197.861	307.109	193.530	-8191	255	
1030.687	1	1	0	0	0.086002	0.16072	0.19176	0.14971	0.061948	0.087633	0.20972	0.10541	0.23618	0.11587	0.090983	0.20482	0.05309	0.071734	0.17151	0.17599	-3.2104	-2.9146	-3.6729	-3.1292	-3.2375	-3.6521	-2.9729	-3.4729	-3.45	-2.9167	-3.7583	-3.425	-2.9979	-3.7667	-3.1229	-3.3917	439.349	261.834	199.644	404.903	461.034	306.045	467.879	522.574	464.430	188.769	208.484	457.977	406.750	430.076	403.896	336.379	0.00019928	0.0002584	7.0974e-05	497.56	1.881e-06	5.2357e-06	374.6	147.59	1.7459e-06	4.8356e-06	121.48	43.99	48.311	19.791	2.8577e-06	19.884	0.0013588	0.0022561	0.00062378	501.73	2.3367e-05	2.5068e-05	378.41	149.38	2.2682e-05	2.4754e-05	125.82	45.045	49.645	20.239	2.3152e-05	20.518	217.645	356.570	259.712	183.976	402.859	211.641	182.716	189.630	313.239	346.895	187.568	191.088	194.089	197.660	352.171	194.125	-8191	255	
1030.758	1	1	0	0	0.13188	0.05901	0.17431	0.15532	0.14926	0.069385	0.19015	0.078115	0.10561	0.3461	0.28595	0.16787	0.21889	0.21473	0.17739	0.069585	-3.3063	-2.7938	-3.5979	-3.3292	-2.9479	-3.8958	-3.3583	-3.2458	-3.8167	-2.9083	-3.625	-3.3438	-3.1063	-3.6458	-3.2208	-3.4104	255.672	354.010	329.789	508.462	463.217	215.701	398.318	455.060	371.584	301.450	395.310	351.352	511.660	515.889	296.502	481.867	0.0001926	0.00034416	5.6495e-05	494.35	2.3967e-06	2.362e-06	373.79	147.35	2.604e-06	2.3956e-06	122.91	43.793	48.695	19.827	1.4456e-06	19.743	0.0013141	0.0022421	0.00061059	501.06	2.3134e-05	2.5042e-05	377.28	149.89	2.2857e-05	2.5849e-05	125.99	45.126	49.729	20.225	2.4394e-05	20.385	234.039	176.010	330.141	184.020	428.780	318.291	182.453	189.663	244.756	249.186	186.277	190.724	193.915	197.716	247.958	193.541	-8191	255	
1030.879	1	1	0	0	0.074235	0.1423	0.093359	0.030705	0.34897	0.11087	0.2007	0.22702	0.097668	0.14061	0.075651	0.29341	0.20148	0.16994	0.18905	0.096128	-3.4292	-3.0625	-3.5271	-3.5563	-3.0438	-3.7229	-3.2667	-2.8479	-3.725	-2.9625	-3.4958	-3.3854	-2.8417	-3.7146	-3.2417	-3.1167	527.631	181.095	308.929	173.325	194.824	225.843	269.395	503.830	344.713	385.343	511.158	415.211	234.171	487.389	184.150	338.207	0.00018339	0.00046972	3.707e-05	496.38	2.1731e-06	5.3455e-06	372.12	148.74	2.3219e-06	5.6664e-06	122.15	43.218	48.117	19.649	2.4765e-06	19.496	0.0013963	0.002359	0.00064298	501.86	2.4115e-05	2.6203e-05	376.98	149.85	2.3523e-05	2.6085e-05	125.67	44.509	49.464	20.035	2.4996e-05	20.137	235.415	305.326	351.117	184.023	292.115	352.541	182.618	189.911	255.852	359.415	186.838	190.649	193.796	197.417	216.917	193.840	-8191	255	
1030.974	1	1	0	0	0.15695	0.18767	0.164	0.09434	0.067774	0.15086	0.087906	0.16976	0.088687	0.11124	0.16513	0.17092	0.16461	0.17648	0.22912	0.087846	-3.2562	-2.9542	-3.3771	-3.5396	-2.9083	-3.6708	-3.3354	-3.1354	-3.8625	-3.075	-3.3937	-3.7083	-3.0042	-3.7875	-3.4854	-3.0271	298.449	362.007	341.543	254.662	456.963	290.522	474.676	186.922	414.216	185.063	210.582	281.418	461.712	410.653	320.115	363.933	0.00018763	0.00020575	2.5972e-05	498.64	2.4072e-06	3.939e-06	380.33	148.85	4.6528e-06	5.1276e-06	121.06	43.078	48.208	19.482	6.804e-06	19.436	0.0014383	0.0024326	0.00068	503.61	2.5371e-05	2.7584e-05	381.32	150.74	2.4705e-05	2.7953e-05	126.09	44.558	49.472	20.028	2.6308e-05	20.2	231.936	295.497	268.090	183.622	353.167	338.930	182.057	189.388	302.424	401.340	186.952	191.539	193.913	198.164	279.670	193.821	-8191	255	
1031.071	1	1	0	0	0.066846	0.27261	0.19844	0.16075	0.26172	0.23162	0.24557	0.13526	0.12432	0.12714	0.090468	0.36872	0.18845	0.13009	0.11583	0.042672	-3.3646	-3.0542	-3.1625	-3.7438	-2.8417	-3.5479	-3.3104	-2.9271	-3.7417	-3.0896	-3.1229	-3.8542	-3.0542	-3.4479	-3.6125	-3.0333	440.331	357.168	385.479	192.219	385.514	209.301	512.136	183.017	303.845	503.516	390.630	442.699	181.321	174.438	253.579	252.112	0.00020728	0.0005426	2.5371e-05	502.37	4.3298e-06	6.0277e-06	376.59	148.59	4.235e-06	4.348e-06	122.6	43.083	47.911	19.451	1.5464e-06	19.705	0.0014801	0.0024985	0.00071257	507.14	2.5957e-05	2.7852e-05	380.92	150.7	2.4499e-05	2.7505e-05	126.21	44.507	49.227	19.919	2.4241e-05	20.166	240.960	327.914	401.996	183.800	291.693	296.804	182.516	189.835	397.810	292.442	186.798	191.407	193.994	197.604	340.055	193.514	-8191	255	
1031.190	1	1	0	0	0.19778	0.20352	0.12431	0.16899	0.24522	0.14999	0.17962	0.19751	0.067865	0.20625	0.17722	0.31346	0.15861	0.032017	0.17175	0.1701	-3.4479	-3.2854	-2.9917	-3.7104	-2.8292	-3.4146	-3.6083	-2.9146	-3.6458	-3.4021	-3.0021	-3.85	-3.025	-3.4396	-3.7354	-3.0375	181.121	276.099	420.158	513.871	432.088	310.821	345.075	471.128	502.160	461.396	475.568	512.610	395.663	215.371	394.374	428.124	0.00024206	0.00028806	0.00012099	499.45	2.7296e-06	4.7136e-06	375.49	148.73	3.5194e-06	3.951e-06	121.56	43.21	48.169	19.601	4.7213e-06	19.473	0.0013784	0.0023342	0.00065002	504.02	2.3274e-05	2.533e-05	379.8	150.1	2.2838e-05	2.4848e-05	125.99	44.646	49.432	20.013	2.3926e-05	20.112	238.165	504.661	207.692	183.692	374.622	387.853	182.156	189.056	250.761	410.674	187.130	191.493	193.514	197.298	287.102	193.363	-8191	255	
1031.286	1	1	0	0	0.14952	0.11925	0.07685	0.10057	0.099858	0.12433	0.32806	0.3311	0.23852	0.077092	0.25937	0.082564	0.11535	0.063633	0.15865	0.17583	-3.4125	-3.2833	-3.0062	-3.8146	-3.0917	-3.3729	-3.7667	-2.9417	-3.6208	-3.4458	-2.8542	-3.5062	-3.2	-3.1604	-3.5812	-3.0771	273.343	467.399	367.544	478.447	476.287	280.970	465.686	469.234	283.889	425.011	180.986	521.133	269.487	528.660	355.234	438.449	0.00023251	0.00043413	5.2585e-05	499	1.8039e-06	3.2127e-06	373.89	147.53	4.1367e-06	7.352e-06	120.13	42.826	47.924	19.401	4.1363e-06	19.481	0.001359	0.002304	0.00063963	503.25	2.289e-05	2.4996e-05	377.71	149.52	2.2216e-05	2.4999e-05	124.34	44.224	49.09	19.9	2.2969e-05	19.973	233.166	269.776	192.616	183.517	205.664	285.154	182.401	188.857	253.948	303.651	186.451	190.222	193.235	197.183	281.693	193.313	-8191	255	
1031.358	1	1	0	0	0.11805	0.17506	0.078576	0.073563	0.19714	0.064312	0.24127	0.21373	0.13939	0.047828	0.3935	0.36184	0.12376	0.13851	0.27184	0.15074	-3.1958	-3.4	-2.8667	-3.725	-3.0812	-3.2	-3.75	-2.8667	-3.425	-3.4854	-2.9938	-3.7812	-3.2458	-3.0333	-3.8812	-2.8604	488.581	366.098	332.778	271.046	387.107	177.073	470.124	237.392	452.379	211.372	171.540	530.286	285.693	528.471	269.360	459.038	0.00019741	0.0003553	6.2731e-05	495.09	2.9681e-06	4.1346e-06	368.91	147.24	1.8075e-06	2.0817e-06	120.47	43.007	47.814	19.579	1.4211e-06	19.502	0.0013283	0.0021851	0.00061172	500.61	2.2491e-05	2.4772e-05	373.78	148.85	2.2659e-05	2.4799e-05	124.05	44.413	49.413	20.033	2.3781e-05	20.154	233.445	339.148	376.764	183.530	278.315	271.584	182.370	189.137	365.547	432.525	186.930	190.546	193.438	197.195	420.380	193.190	-8191	255	
1031.479	1	1	0	0	0.17424	0.27034	0.16654	0.19752	0.076954	0.29779	0.05284	0.34962	0.065424	0.27125	0.19045	0.23115	0.24889	0.16411	0.11053	0.14471	-2.9562	-3.6333	-2.8396	-3.6771	-3.3875	-3.0917	-3.8937	-3.1937	-3.4104	-3.8542	-3.0521	-3.5229	-3.5521	-3.0208	-3.675	-2.9875	400.113	305.131	206.243	228.924	509.636	454.149	332.145	512.861	456.290	525.951	448.369	325.783	519.461	197.478	281.211	452.498	0.00025543	0.00030662	1.3343e-05	497.53	1.3849e-06	1.4975e-06	374.92	147.31	1.3977e-06	9.4466e-07	122.15	42.994	48.45	19.444	2.4945e-06	19.581	0.0013995	0.0022677	0.00064881	502.58	2.3856e-05	2.6177e-05	379.01	150.19	2.3938e-05	2.5883e-05	125.49	44.436	49.558	20.057	2.451e-05	20.175	243.798	276.006	205.504	183.268	408.463	335.814	182.005	189.103	289.272	376.158	186.255	190.391	193.511	197.458	410.435	193.343	-8191	255	
1031.575	1	1	0	0	0.17476	0.18874	0.088964	0.1188	0.036102	0.18485	0.16632	0.11711	0.12424	0.21326	0.19911	0.19578	0.15798	0.063295	0.14587	0.17831	-2.9688	-3.5896	-2.8375	-3.6042	-3.5062	-2.8812	-3.8812	-3.1208	-3.1021	-3.7771	-2.975	-3.4188	-3.6104	-2.8812	-3.7938	-3.1813	499.702	510.086	234.772	173.599	230.474	212.149	418.501	471.523	507.720	440.334	483.224	500.008	480.095	412.304	376.186	452.140	0.00017034	0.00029037	4.0785e-05	501.35	3.0873e-06	2.799e-06	377.66	149.3	6.1174e-07	4.5271e-06	123.36	43.99	48.734	19.681	1.0081e-06	19.494	0.0013995	0.0023353	0.00066334	506.54	2.4318e-05	2.5678e-05	381.96	151.25	2.37e-05	2.5971e-05	126.66	44.94	49.829	20.09	2.4476e-05	20.245	255.396	255.215	220.126	183.573	294.670	386.587	182.329	189.195	328.936	309.504	186.450	190.892	193.262	197.408	401.313	193.679	-8191	255	
1031.671	1	1	0	0	0.2034	0.20568	0.11436	0.059627	0.34963	0.14195	0.13024	0.20311	0.12221	0.21718	0.072537	0.10689	0.18419	0.22783	0.23679	0.12136	-2.7542	-3.7542	-2.9521	-3.4958	-3.4979	-2.7583	-3.7083	-3.3146	-3.1479	-3.7479	-2.975	-3.4313	-3.6458	-2.95	-3.65	-3.3187	414.597	426.024	293.177	263.267	309.272	402.506	184.383	412.371	488.844	388.373	249.094	452.643	410.641	522.484	369.172	235.702	0.00020621	0.00077869	0.00013631	502.3	2.0395e-06	5.2168e-06	377.62	148.84	1.5143e-06	4.1093e-06	121.6	43.449	48.303	19.54	4.3446e-06	19.417	0.0014087	0.0023453	0.00065765	507.75	2.4127e-05	2.6758e-05	382.18	151.2	2.4397e-05	2.7044e-05	126.13	44.611	49.623	20.027	2.581e-05	20.043	237.677	213.374	260.371	183.423	308.665	279.648	181.917	188.806	340.107	374.640	186.495	191.114	193.453	197.176	226.234	193.563	-8191	255	
1031.767	1	1	0	0	0.095714	0.15449	0.081933	0.14565	0.21993	0.16386	0.14713	0.37861	0.070897	0.063175	0.14162	0.12849	0.36229	0.18993	0.073869	0.040644	-2.7375	-3.65	-2.9938	-3.2646	-3.6417	-2.9313	-3.7	-3.3125	-2.9854	-3.7562	-3.1958	-3.4417	-3.8	-3.0375	-3.6042	-3.2979	403.230	222.939	370.707	258.388	466.695	243.663	189.040	472.401	501.797	183.258	238.906	264.332	520.725	453.374	199.247	303.799	0.00019429	0.00010574	1.8877e-05	499.45	2.8013e-06	2.3229e-06	380.56	148.56	3.5416e-06	4.9268e-06	120.22	42.242	47.894	19.285	1.918e-06	19.156	0.0015103	0.0025503	0.00070219	507.66	2.5694e-05	2.8436e-05	382.97	151.23	2.5829e-05	2.7768e-05	124.96	43.851	49.223	19.757	2.4989e-05	19.879	232.913	389.218	461.123	183.343	310.985	334.549	182.218	188.913	270.033	218.183	186.659	190.168	193.127	197.382	182.413	194.061	-8191	255	
1031.886	1	1	0	0	0.23605	0.26681	0.14663	0.056663	0.21872	0.28624	0.16951	0.32525	0.16845	0.04319	0.22168	0.15585	0.058868	0.099458	0.18588	0.10716	-2.5333	-3.8354	-2.9583	-3.3	-3.725	-3.1167	-3.6583	-3.6375	-3.0396	-3.7833	-3.1479	-3.2625	-3.8187	-3.1562	-3.4646	-3.5729	509.661	312.874	201.688	309.210	389.320	279.687	500.865	456.884	183.984	338.325	482.293	194.975	418.800	412.636	376.088	429.969	0.00020432	0.00024385	0.0001069	499.06	5.0808e-06	3.2036e-06	374.78	148.49	2.4514e-06	3.3942e-06	120.2	42.72	47.571	19.452	3.1219e-06	19.511	0.0014229	0.0024038	0.00066981	505.45	2.3753e-05	2.5962e-05	378.75	150.1	2.3472e-05	2.4893e-05	124.36	44.064	49.074	19.931	2.3769e-05	20.027	235.773	321.588	234.295	183.785	266.179	404.128	182.219	189.150	309.709	489.259	186.241	190.997	193.503	197.475	331.738	193.365	-8191	255	
1031.982	1	1	0	0	0.092495	0.24719	0.218	0.21018	0.23079	0.15546	0.12273	0.31504	0.06003	0.19025	0.217	0.18247	0.31805	0.17407	0.2011	0.034973	-2.65	-3.8458	-3.2938	-3.1188	-3.8042	-3.0354	-3.4	-3.5646	-3.1271	-3.5958	-3.2188	-3.0083	-3.7125	-3.0229	-3.3771	-3.6146	400.470	210.988	380.178	515.983	481.421	380.569	182.860	239.298	453.251	233.301	179.398	385.614	449.266	498.823	342.742	376.136	0.00017331	0.00048955	2.7885e-05	500.45	1.732e-06	2.3908e-06	373.93	149.09	2.5792e-06	4.3466e-06	121.5	43.72	48.165	19.672	2.5998e-06	19.684	0.0013618	0.0022318	0.00063701	505.22	2.279e-05	2.4201e-05	377.77	150.68	2.2466e-05	2.5395e-05	125.14	44.919	49.517	20.137	2.3343e-05	20.283	236.319	281.279	247.176	183.377	366.272	369.969	181.852	188.945	309.796	309.442	186.639	190.086	193.380	197.284	397.672	193.384	-8191	255	
1032.054	1	1	0	0	0.12759	0.2499	0.22495	0.19669	0.13017	0.20213	0.092775	0.1236	0.22061	0.18902	0.045429	0.23969	0.1443	0.010631	0.2146	0.087263	-2.4833	-3.6229	-3.3875	-3.125	-3.6875	-3.0083	-3.525	-3.6146	-3.0312	-3.7125	-3.3812	-2.9688	-3.5917	-3.2687	-3.2812	-3.8187	262.920	226.817	415.909	479.724	298.850	466.839	384.040	490.893	474.650	418.044	400.094	351.811	212.420	449.731	179.101	384.915	0.00024727	0.00066063	8.763e-05	502.06	4.5056e-06	6.1316e-06	377.33	149.02	1.7174e-06	5.1559e-06	121.31	43.165	48.253	19.516	4.5452e-06	19.619	0.0013418	0.002266	0.00063152	505.92	2.2968e-05	2.5303e-05	379.55	151.17	2.3045e-05	2.5847e-05	125.14	44.55	49.638	20.079	2.4693e-05	20.203	232.604	281.368	283.642	183.983	302.354	311.339	182.438	189.073	293.160	351.916	186.336	190.976	193.654	197.234	254.941	193.910	-8191	255	
1032.152	1	1	0	0	0.0064609	0.088442	0.058014	0.19273	0.17635	0.02687	0.16365	0.28449	0.11887	0.15955	0.11974	0.11806	0.1307	0.29285	0.19223	0.098601	-2.5854	-3.4833	-3.4875	-2.8333	-3.7833	-3.0458	-3.1271	-3.6375	-2.7687	-3.3688	-3.5042	-2.9479	-3.7667	-3.1542	-2.95	-3.8625	327.532	369.100	470.165	517.149	288.519	194.779	416.976	209.243	391.863	228.059	354.581	462.763	278.401	198.431	369.169	183.267	0.0001918	0.00017216	5.226e-05	500.61	2.1258e-06	5.4325e-06	371.04	149.52	3.8533e-06	5.184e-06	120.42	43.123	48.371	19.411	4.1611e-06	19.467	0.0013947	0.0022979	0.00064285	505.08	2.3358e-05	2.4954e-05	376.37	150.46	2.2675e-05	2.503e-05	124.15	44.192	49.547	19.931	2.3196e-05	20.038	231.998	194.072	376.408	183.963	341.513	352.615	182.343	189.075	299.430	389.657	186.509	190.536	193.314	197.214	300.266	193.586	-8191	255	
1032.271	1	1	0	0	0.16539	0.24042	0.11962	0.07854	0.065773	0.10582	0.23522	0.21273	0.12403	0.045997	0.11373	0.11957	0.15207	0.097265	0.11981	0.10011	-2.7271	-3.2208	-3.5479	-2.9313	-3.7271	-3.3521	-2.9646	-3.8792	-3.0417	-3.4021	-3.625	-2.9354	-3.6917	-3.4021	-3.0667	-3.7333	451.743	361.936	408.913	494.928	486.207	225.806	330.229	219.047	490.233	329.199	260.450	181.713	484.750	220.807	460.293	422.594	0.00019651	0.00029284	3.6525e-05	499.61	4.2347e-06	3.8115e-06	373.87	147.22	2.1617e-06	4.9297e-06	121.23	42.732	48.033	19.565	2.3565e-06	19.54	0.0013542	0.0022558	0.00061415	503.78	2.2942e-05	2.4482e-05	377.6	150.04	2.2331e-05	2.5142e-05	124.89	44.263	49.483	19.967	2.3997e-05	20.08	248.214	189.082	227.796	183.788	373.146	240.502	182.241	188.949	309.154	333.385	186.691	190.313	193.584	197.731	241.164	193.685	-8191	255	
1032.367	1	1	0	0	0.045475	0.2556	0.13046	0.1501	0.073656	0.083797	0.18011	0.33204	0.19801	0.14392	0.14677	0.11219	0.060097	0.25566	0.074692	0.2133	-2.7542	-3.1917	-3.7542	-2.9708	-3.5229	-3.4	-3.0521	-3.7146	-2.9125	-3.1771	-3.8708	-2.9146	-3.4646	-3.6	-2.9521	-3.7208	337.217	524.071	326.694	397.760	371.284	209.066	499.090	484.833	239.173	494.883	453.814	477.773	491.236	522.478	390.809	477.266	0.00016211	0.00038015	4.7774e-05	505.12	1.3909e-06	3.7949e-06	378.55	148.83	1.5459e-06	5.465e-06	120.51	43.456	48.869	19.632	6.1848e-06	19.611	0.0014012	0.0023788	0.00067208	508.92	2.4399e-05	2.676e-05	381.4	151.37	2.4617e-05	2.6709e-05	125.32	44.582	50.001	20.069	2.4915e-05	20.197	233.483	524.117	299.391	183.744	327.516	254.916	182.275	189.053	354.243	296.800	187.184	191.013	193.280	197.196	251.626	193.376	-8191	255	
1032.463	1	1	0	0	0.29223	0.18217	0.083553	0.26141	0.12891	0.12145	0.22765	0.11336	0.050722	0.34391	0.20272	0.15345	0.16086	0.41474	0.40675	0.14001	-2.7521	-3.2	-3.6396	-2.8104	-3.475	-3.5062	-2.8479	-3.7667	-3.2104	-3.1875	-3.7188	-2.9813	-3.3521	-3.5875	-2.8875	-3.6813	297.384	193.541	515.342	448.241	407.963	243.433	406.369	416.070	420.528	401.929	443.943	394.917	213.093	212.297	307.033	256.326	0.00022562	0.00045157	0.00010976	505.05	1.6633e-06	3.4267e-06	376.3	148.85	1.6805e-06	2.1707e-06	121.16	43.022	48.76	19.523	3.6414e-06	19.246	0.0013988	0.0023974	0.00065292	508.72	2.4001e-05	2.6095e-05	381.42	151.02	2.3463e-05	2.6313e-05	125.62	44.556	49.714	20.04	2.404e-05	20.07	231.598	278.378	180.153	183.210	305.345	359.629	182.163	189.219	234.525	323.892	186.873	191.018	193.585	197.314	294.588	192.951	-8191	255	
1032.559	1	1	0	0	0.20695	0.13592	0.15259	0.1959	0.10804	0.22271	0.12237	0.12404	0.40354	0.10394	0.10264	0.15358	0.089392	0.21433	0.12883	0.24452	-3.1521	-2.9333	-3.8458	-3.0667	-3.2396	-3.85	-3	-3.6542	-3.5187	-2.8958	-3.7875	-2.8771	-3.2917	-3.6083	-2.8125	-3.5896	368.078	458.334	195.874	201.894	392.957	250.475	211.757	171.363	305.254	198.146	305.634	470.900	338.550	185.937	341.068	415.793	0.00018764	0.00030801	0.00012688	499.36	3.9352e-06	2.4288e-06	370.55	149.72	2.7059e-06	3.2536e-06	120.66	42.364	48.322	19.479	2.2944e-06	19.324	0.001371	0.0023433	0.00063892	505.07	2.3296e-05	2.5243e-05	376.46	150.77	2.3059e-05	2.5416e-05	124.06	44.014	49.493	19.927	2.3487e-05	19.879	242.044	337.449	248.225	183.244	252.547	511.710	182.058	189.158	265.392	289.366	186.907	190.660	193.313	197.538	333.748	193.600	-8191	255	
1032.655	1	1	0	0	0.12899	0.10481	0.15889	0.075241	0.25007	0.12696	0.10271	0.36986	0.25514	0.17294	0.38237	0.1918	0.10102	0.19235	0.22276	0.040452	-3.1312	-2.9188	-3.8375	-3.125	-3.0687	-3.8583	-3.1063	-3.4896	-3.475	-2.9292	-3.5604	-3.3125	-3.1667	-3.7438	-2.8167	-3.175	478.308	326.358	387.572	237.177	285.516	358.843	393.267	346.421	206.246	488.923	452.782	503.638	250.335	506.565	360.081	186.404	0.00021826	0.00050236	5.2642e-05	499.82	3.0611e-06	1.1922e-06	372.06	149.44	2.3332e-06	1.6033e-06	121.7	42.642	48.2	19.537	4.5065e-06	19.56	0.0013219	0.0022223	0.00062412	505.46	2.2496e-05	2.4754e-05	376.35	150.83	2.222e-05	2.5085e-05	124.14	44.07	49.584	19.965	2.353e-05	20.01	245.628	291.656	280.975	183.311	272.359	334.135	182.121	188.955	271.890	215.691	187.000	190.710	193.372	197.358	321.889	193.478	-8191	255	
1032.751	1	1	0	0	0.17265	0.33275	0.16767	0.21376	0.11107	0.22735	0.21364	0.10814	0.17413	0.1234	0.21956	0.082404	0.24668	0.28475	0.15449	0.053523	-3.2083	-2.9729	-3.6354	-3.2833	-2.8833	-3.6583	-3.1083	-3.2583	-3.5333	-2.9833	-3.5938	-3.2687	-3.0458	-3.6625	-3.0042	-3.1937	394.021	248.303	207.163	406.904	376.731	522.810	282.976	495.966	389.234	339.264	524.848	325.108	203.052	466.488	465.288	468.245	0.0002021	0.0001952	6.311e-05	501.36	2.7148e-06	4.7524e-07	373.93	148.77	3.7541e-06	3.0685e-06	120.58	42.693	48.61	19.555	4.6022e-06	19.704	0.0013175	0.0022464	0.00061002	505.93	2.2382e-05	2.4184e-05	376.24	150.36	2.1313e-05	2.4021e-05	124.09	44.319	49.736	20.04	2.2323e-05	20.169	244.195	247.530	452.676	183.746	342.008	196.180	182.389	189.185	250.169	239.876	186.671	190.312	193.636	197.576	325.950	193.432	-8191	255	
1032.872	1	1	0	0	0.19417	0.18748	0.09325	0.26164	0.03037	0.36391	0.17442	0.22294	0.30926	0.068472	0.38637	0.086059	0.060794	0.26485	0.052171	0.14189	-3.4354	-2.7896	-3.5854	-3.4437	-2.9521	-3.6979	-2.9771	-3.3	-3.7438	-2.9771	-3.5479	-3.4146	-3.0604	-3.6771	-3.1813	-3.175	262.831	466.038	481.754	204.477	259.713	453.590	192.370	454.598	299.440	308.124	356.141	521.599	288.269	465.698	342.203	245.846	0.00016705	0.00013936	4.867e-05	500.95	4.2989e-06	4.2605e-06	373.57	149.55	2.2861e-06	6.0065e-06	122.22	43.807	48.221	19.817	3.643e-06	19.731	0.0012762	0.0021696	0.00059733	505.15	2.2156e-05	2.3278e-05	377.86	151.14	2.1095e-05	2.4139e-05	125.64	44.824	49.853	20.219	2.1934e-05	20.271	228.624	282.878	292.674	183.497	289.090	254.046	182.420	189.478	356.672	294.334	186.886	190.588	193.380	197.784	296.854	193.582	-8191	255	
1032.966	1	1	0	0	0.40142	0.10682	0.067893	0.26072	0.085408	0.10677	0.21801	0.15623	0.06274	0.14083	0.10033	0.036064	0.092267	0.086028	0.15171	0.073726	-3.2229	-3.0375	-3.35	-3.4729	-2.9938	-3.6146	-3.45	-2.8937	-3.8812	-2.9979	-3.2625	-3.6979	-2.875	-3.6917	-3.3896	-3.1854	257.203	426.320	408.277	250.470	460.083	440.081	482.534	508.623	432.023	513.180	318.965	512.048	203.714	491.854	201.443	485.496	0.00018684	0.00038241	7.4881e-05	506.22	2.8439e-06	1.9726e-06	372.53	148.74	3.9787e-06	4.2594e-07	121.33	43.375	48.28	19.672	2.1817e-06	19.425	0.0012607	0.0021349	0.00058662	506.95	2.1749e-05	2.3547e-05	378.04	151.08	2.2383e-05	2.391e-05	124.92	44.634	49.84	20.071	2.312e-05	20.092	236.656	316.099	276.249	183.904	380.872	353.610	182.061	189.175	345.982	251.661	186.466	190.997	193.735	196.929	272.859	193.602	-8191	255	
1033.063	1	1	0	0	0.089797	0.11087	0.12145	0.041086	0.16082	0.1503	0.1162	0.18383	0.17543	0.18145	0.048333	0.14952	0.21375	0.065077	0.18881	0.28363	-3.3729	-3.0479	-3.3604	-3.7125	-2.9292	-3.5438	-3.4417	-2.8542	-3.7458	-3.075	-3.2021	-3.6562	-3.0167	-3.7208	-3.3833	-2.8917	208.978	222.113	253.265	444.738	426.382	198.418	465.635	498.573	487.803	303.051	209.839	507.897	364.251	445.974	364.683	481.793	0.00015306	0.00033793	7.151e-05	502.17	3.9263e-06	2.0048e-06	375.57	149.36	2.122e-06	1.2368e-06	122.34	42.946	48.312	19.645	4.9185e-06	19.368	0.0013559	0.0022593	0.00063023	507.29	2.306e-05	2.4649e-05	379.8	151.56	2.2635e-05	2.565e-05	125.07	44.272	49.696	20.014	2.3531e-05	19.929	222.392	261.656	311.763	183.453	259.941	415.043	182.325	189.177	356.328	457.442	186.374	190.893	193.681	197.338	260.213	193.274	-8191	255	
1033.159	1	1	0	0	0.17424	0.234	0.22361	0.27852	0.13323	0.10557	0.29067	0.16559	0.13558	0.23345	0.083376	0.048317	0.21359	0.10549	0.11549	0.059079	-3.4396	-3.1479	-3.1875	-3.7042	-3.0125	-3.6688	-3.5687	-2.9333	-3.8354	-3.2396	-3.2208	-3.75	-3.1208	-3.5667	-3.6688	-2.9604	467.136	425.033	510.000	382.445	415.292	383.448	434.874	492.874	255.708	177.544	203.425	338.590	181.311	494.038	458.043	482.302	0.00017025	0.0002133	0.000191	504.62	4.423e-06	3.2338e-06	377.19	149.3	2.5083e-06	5.135e-06	120.07	42.929	48.807	19.562	1.5893e-06	19.518	0.0013297	0.0022312	0.00064109	508.02	2.3685e-05	2.4939e-05	380.55	151.43	2.3121e-05	2.612e-05	125.22	44.184	49.95	20.028	2.4498e-05	20.154	236.516	268.034	255.744	183.738	353.669	364.438	182.204	189.282	332.319	282.955	186.306	189.989	193.330	197.646	416.397	193.671	-8191	255	
1033.255	1	1	0	0	0.18081	0.075289	0.12744	0.12304	0.23314	0.14253	0.16693	0.074401	0.21036	0.25677	0.13254	0.2463	0.088389	0.21483	0.039526	0.26282	-3.3396	-3.2667	-3.3083	-3.8187	-3.0417	-3.5563	-3.6417	-3.0854	-3.7062	-3.2854	-3.1417	-3.7604	-3.2917	-3.4792	-3.7625	-2.9854	299.190	518.607	284.836	447.732	380.470	270.343	385.936	203.177	218.790	320.318	391.684	344.934	432.854	439.297	416.291	405.683	0.00018154	0.00055006	6.3476e-05	506.46	4.0732e-06	4.0248e-06	378.81	149.4	1.5438e-06	6.8453e-06	120.3	43.49	48.441	19.669	1.2945e-06	19.481	0.0014008	0.0023565	0.00065749	510.37	2.4077e-05	2.6226e-05	383.87	152.34	2.3693e-05	2.6248e-05	126.01	44.624	49.87	20.096	2.4797e-05	20.121	237.364	298.579	222.446	183.676	351.684	292.292	182.219	189.136	315.817	325.962	187.232	191.191	193.254	197.539	506.583	193.482	-8191	255	
1033.351	1	1	0	0	0.24194	0.10058	0.060794	0.30186	0.14421	0.15392	0.11095	0.1449	0.11736	0.18533	0.23076	0.081168	0.1537	0.098713	0.060033	0.17066	-3.1937	-3.375	-2.9938	-3.8083	-3.0687	-3.2146	-3.6729	-3.0438	-3.5438	-3.6396	-3.0563	-3.8729	-3.375	-3.3104	-3.8292	-2.9875	275.153	317.663	500.140	486.423	407.234	323.251	502.293	488.636	250.506	316.526	354.638	415.001	462.385	310.174	482.224	267.472	0.00016244	0.0004743	6.4098e-05	511.1	6.6814e-06	4.3999e-06	380.51	151.25	4.6639e-06	2.5728e-06	121.19	42.378	48.236	19.635	3.1724e-06	19.272	0.0014137	0.00239	0.00066706	512.33	2.4199e-05	2.5925e-05	384.62	152.93	2.37e-05	2.5707e-05	126	44.002	49.594	19.993	2.466e-05	19.909	242.503	197.439	255.621	183.343	401.659	336.552	182.311	188.741	308.939	316.628	186.298	190.404	193.625	197.608	374.496	193.563	-8191	255	
1033.447	1	1	0	0	0.32923	0.17903	0.29581	0.25147	0.16313	0.05869	0.17819	0.088972	0.30341	0.10362	0.07203	0.081691	0.36869	0.24717	0.397	0.33187	-3.2229	-3.4104	-2.9	-3.75	-3.0979	-3.3146	-4.0479	-2.8771	-3.5354	-3.5438	-3.0396	-3.7083	-3.3083	-3.3	-3.8667	-3.1021	339.315	446.066	410.700	467.709	371.556	267.702	437.599	477.487	367.778	188.430	315.897	370.779	260.782	420.356	458.254	401.430	0.00023353	0.00030591	7.0025e-05	510.46	3.2676e-06	8.7945e-07	376.91	150.01	1.4482e-06	5.2936e-06	119.96	42.493	48.363	19.409	3.1439e-06	19.132	0.0014137	0.0023731	0.000664	512.2	2.4202e-05	2.624e-05	381.15	151.92	2.3484e-05	2.6427e-05	124.75	43.858	49.549	19.885	2.4885e-05	19.716	234.329	515.736	281.408	183.313	348.172	388.816	181.986	188.759	341.263	300.754	186.445	190.709	193.410	197.467	206.724	193.701	-8191	255	
1033.568	1	1	0	0	0.18068	0.14394	0.14821	0.073579	0.13583	0.19912	0.1174	0.15034	0.20208	0.17708	0.16777	0.1682	0.15109	0.17415	0.12632	0.10989	-3.0667	-3.5708	-2.9	-3.75	-3.1771	-2.9229	-3.8458	-3.2021	-3.2458	-3.7167	-3.0542	-3.7208	-3.5312	-3.1813	-3.7938	-3.1167	273.167	499.726	318.951	475.206	480.100	382.010	337.424	415.195	452.001	295.501	178.314	429.850	362.346	171.234	345.315	513.756	0.0002478	0.00038919	0.00010558	505.55	5.301e-06	2.2638e-06	379.35	149.73	8.2873e-07	3.6098e-06	120	42.538	47.96	19.358	3.4468e-06	19.07	0.0014016	0.0023706	0.00067058	510.45	2.4115e-05	2.5768e-05	382.9	152.12	2.4106e-05	2.6525e-05	124.89	43.789	49.389	19.75	2.4583e-05	19.698	232.317	526.501	527.593	183.552	310.189	301.505	182.296	189.167	273.535	350.358	186.899	190.723	193.521	197.278	347.490	192.862	-8191	255	
1033.664	1	1	0	0	0.23947	0.17188	0.24397	0.29027	0.23466	0.029578	0.03462	0.14334	0.23306	0.079983	0.019792	0.20692	0.14245	0.27788	0.12444	0.18729	-3.0083	-3.6167	-2.9729	-3.4708	-3.475	-3.1708	-3.6542	-3.2	-3.35	-3.6458	-2.8063	-3.5187	-3.6167	-3.0042	-3.7854	-3.4104	486.069	514.631	355.718	280.489	250.093	311.602	315.323	467.083	340.607	197.594	234.797	477.860	281.154	467.186	307.632	522.295	0.00021585	0.00021463	2.7319e-05	508.5	1.1894e-06	2.4358e-06	378.33	151.06	2.3941e-06	2.3802e-06	121.16	42.741	48.182	19.186	5.1109e-06	19.082	0.0014302	0.0023301	0.00065501	513.78	2.424e-05	2.6099e-05	382.85	152.43	2.3539e-05	2.5082e-05	125.01	43.868	49.428	19.708	2.3022e-05	19.707	234.778	491.591	497.365	183.430	456.096	345.581	182.199	189.116	356.309	198.787	186.511	190.668	193.284	197.822	272.500	193.849	-8191	255	
1033.760	1	1	0	0	0.0888	0.33102	0.14769	0.15529	0.1724	0.097804	0.29464	0.16518	0.12264	0.056833	0.061573	0.3543	0.046151	0.11304	0.054706	0.10642	-2.8479	-3.7229	-3.0062	-3.55	-3.6146	-2.8417	-3.8083	-3.3333	-3.1562	-3.6917	-3.0687	-3.2062	-3.5729	-3.075	-3.5979	-3.4813	308.687	251.711	388.746	241.996	512.021	440.273	481.190	401.863	329.542	241.356	437.616	469.806	354.175	308.979	312.824	378.908	0.00021909	0.00046948	0.0001335	511.07	3.7037e-06	5.1299e-06	383.39	150.43	9.646e-07	6.6973e-06	122.21	42.462	48.025	19.129	5.8066e-06	19.099	0.0013417	0.0022592	0.00062051	513.24	2.2728e-05	2.4704e-05	384.32	152.34	2.2716e-05	2.4953e-05	125.41	43.734	49.334	19.621	2.3152e-05	19.581	233.480	329.119	283.554	183.645	380.624	346.754	182.132	189.395	276.390	357.563	186.699	191.270	192.982	197.725	327.270	193.803	-8191	255	
1033.856	1	1	0	0	0.11442	0.074151	0.16333	0.19955	0.15094	0.15191	0.27757	0.14199	0.17341	0.16125	0.11518	0.11416	0.012976	0.09831	0.11081	0.1501	-2.7062	-3.8021	-3.0708	-3.1646	-3.675	-3.0208	-3.4646	-3.5312	-2.9208	-3.7458	-3.2479	-3.225	-3.6625	-3.1	-3.55	-3.7313	489.675	446.251	462.187	441.326	359.611	196.210	490.683	507.316	282.943	480.936	201.619	204.408	453.930	427.297	243.993	205.330	0.00017324	0.00026841	4.3593e-05	510.08	6.0505e-07	5.8594e-06	379.15	150.45	9.9204e-07	3.4461e-06	121.41	41.755	48.137	19.066	1.9975e-06	18.894	0.0013363	0.0022203	0.00061694	514.27	2.2573e-05	2.5096e-05	383.04	151.92	2.2829e-05	2.5346e-05	124.87	43.323	49.452	19.592	2.4737e-05	19.509	241.652	280.506	182.202	183.888	401.868	369.055	182.781	189.353	358.645	413.146	186.884	191.031	193.858	197.502	323.532	193.710	-8191	255	
1033.951	1	1	0	0	0.19185	0.18898	0.091154	0.19688	0.1694	0.032129	0.11386	0.15018	0.047971	0.090749	0.16892	0.071307	0.19147	0.22729	0.029632	0.072177	-2.4667	-3.6604	-2.9646	-3.1896	-3.7708	-3.0729	-3.3812	-3.7521	-2.9854	-3.7708	-3.1437	-3.15	-3.5896	-2.9938	-3.3563	-3.6625	429.718	443.455	322.851	495.755	193.836	270.394	328.691	281.503	381.922	513.947	405.355	530.799	229.848	467.256	281.454	191.486	0.00020578	0.00061993	0.00020895	509.98	9.5326e-07	3.8037e-06	391.33	153.72	2.4642e-06	3.9881e-06	122.61	42.304	48.411	19.036	1.6348e-06	18.673	0.001428	0.0024373	0.00068738	518.92	2.5313e-05	2.8115e-05	395.27	155.74	2.638e-05	2.8587e-05	127.86	43.765	49.887	19.495	2.7113e-05	19.266	227.134	221.183	273.445	183.529	357.696	317.505	182.579	188.883	387.093	301.150	186.512	191.006	193.306	197.628	187.961	193.755	-8191	255	
1034.047	1	1	0	0	0.20077	0.21393	0.14229	0.34598	0.10555	0.1551	0.076852	0.16057	0.013295	0.13146	0.11973	0.20289	0.083481	0.024102	0.17076	0.059492	-2.5667	-3.4375	-3.2917	-3.2458	-3.7687	-3.0979	-3.4292	-3.5479	-2.8917	-3.6167	-3.2979	-2.975	-3.7875	-3.1521	-3.2979	-3.7062	235.369	469.238	472.417	444.382	486.779	187.898	226.087	330.821	493.517	413.533	422.751	517.525	450.278	530.813	269.523	513.286	0.00017476	0.00032628	0.00014913	519.9	1.9242e-06	3.4051e-06	388.87	152.65	2.8367e-06	3.4545e-06	122.7	41.655	47.761	18.744	2.4624e-06	18.461	0.0015088	0.0025007	0.00070401	525.32	2.5984e-05	2.7819e-05	394.51	154.6	2.4646e-05	2.7498e-05	126.34	42.981	49.118	19.27	2.5353e-05	19.182	215.062	185.268	236.306	183.770	435.574	378.836	182.213	189.018	274.851	219.123	186.749	190.906	193.564	197.705	248.598	193.353	-8191	255	
1034.143	1	1	0	0	0.2049	0.12824	0.36766	0.16765	0.19129	0.17401	0.19183	0.071485	0.16922	0.3179	0.34809	0.18412	0.18178	0.30181	0.18496	0.13918	-2.4688	-3.6333	-3.3208	-2.9167	-3.6729	-3.2229	-3.2854	-3.6292	-2.8479	-3.4333	-3.6021	-2.9542	-3.6688	-3.1167	-3.0083	-3.6958	311.958	484.218	428.891	176.121	314.836	304.170	495.468	198.714	466.814	277.895	508.855	407.953	429.311	179.170	180.216	354.358	0.00013218	8.3785e-06	0.00015786	516.06	1.563e-06	2.0738e-06	387.1	150.82	7.8938e-07	5.7915e-06	121.39	41.791	47.768	19.091	5.524e-06	18.798	0.0014283	0.0023919	0.00065518	519.61	2.4202e-05	2.7125e-05	390.68	153.03	2.3967e-05	2.5948e-05	125.75	43.109	49.189	19.465	2.4764e-05	19.462	237.958	527.582	273.211	183.755	283.301	211.775	182.089	189.348	305.932	193.207	185.752	191.126	193.191	197.255	355.627	194.041	-8191	255	
1034.241	1	1	0	0	0.08034	0.14891	0.057032	0.27302	0.34042	0.11099	0.025773	0.2936	0.13188	0.17052	0.16957	0.04061	0.11055	0.3931	0.27804	0.24211	-2.5542	-3.5312	-3.575	-2.9437	-3.6562	-3.2958	-3.025	-3.6146	-3.1188	-3.425	-3.6833	-2.9292	-3.5521	-3.3854	-3.1125	-3.8146	409.649	303.674	225.415	172.192	496.763	418.506	301.015	191.232	369.682	484.758	429.259	303.606	225.968	462.485	337.589	483.169	0.00015959	0.00015068	0.00011706	514.97	2.9536e-06	3.5844e-06	384.09	150.38	6.3083e-07	4.5764e-06	120.93	41.28	48.007	18.824	2.9447e-06	18.634	0.0014116	0.0023789	0.0006755	518.58	2.4325e-05	2.6235e-05	388.31	152.58	2.4254e-05	2.6736e-05	125.2	42.706	49.206	19.328	2.5071e-05	19.27	241.831	239.252	222.903	183.395	513.218	405.918	182.586	189.170	467.515	329.994	186.986	190.444	193.612	197.720	313.177	193.653	-8191	255	
1034.360	1	1	0	0	0.38995	0.10314	0.068663	0.10679	0.18047	0.10707	0.033561	0.3453	0.07475	0.071259	0.13531	0.16767	0.07209	0.21151	0.058151	0.14537	-2.8146	-3.2667	-3.5146	-2.9917	-3.5396	-3.5062	-2.9604	-3.6896	-3.2292	-3.3104	-3.7021	-2.9875	-3.475	-3.6042	-2.7417	-3.8646	377.777	465.992	193.404	186.745	435.445	193.789	431.807	210.357	350.331	282.051	445.787	485.724	226.478	494.597	318.140	226.958	0.00017455	0.00022857	5.0791e-05	519.12	2.1059e-06	9.8103e-07	385.31	151.81	2.6e-06	1.618e-06	121.71	41.33	47.566	18.739	2.7413e-06	18.567	0.0014165	0.0023562	0.00066526	520.6	2.4079e-05	2.6504e-05	389.11	152.89	2.3584e-05	2.5829e-05	125.01	42.698	49	19.305	2.4493e-05	19.221	243.238	355.078	374.060	183.375	387.859	331.358	182.327	189.326	278.980	439.340	186.706	190.483	193.549	197.413	370.676	193.509	-8191	255	
1034.456	1	1	0	0	0.29606	0.097466	0.13717	0.17317	0.070826	0.18364	0.20322	0.27098	0.1474	0.031744	0.09247	0.24505	0.20084	0.079328	0.096882	0.036024	-2.7979	-3.1625	-3.4604	-3.1417	-3.4938	-3.5604	-3.0104	-3.8271	-3.2667	-2.9792	-3.8354	-2.9729	-3.4	-3.6688	-3	-3.7708	385.135	326.528	383.272	458.997	454.190	375.460	442.558	354.653	369.871	447.215	365.386	489.513	307.559	489.432	349.183	241.280	0.00017106	0.00023856	3.7631e-05	514.11	5.6899e-06	3.5553e-06	384.82	149.82	2.3864e-06	8.6066e-07	120.61	41.816	47.562	18.952	5.9662e-06	18.824	0.0014023	0.0023023	0.00065174	518.87	2.3949e-05	2.5676e-05	388.84	152.83	2.3068e-05	2.5758e-05	125.01	42.842	49.23	19.405	2.3868e-05	19.378	216.685	324.690	248.496	183.375	267.011	321.620	182.583	189.224	291.567	428.316	186.415	190.719	193.295	197.896	277.672	194.045	-8191	255	
1034.552	1	1	0	0	0.08771	0.030665	0.064225	0.13039	0.15401	0.030665	0.23629	0.12652	0.26526	0.21932	0.17489	0.14282	0.20099	0.12375	0.14429	0.10438	-2.9188	-3.1188	-3.8083	-3.1479	-3.425	-3.7625	-2.9604	-3.8479	-3.7062	-3.1937	-3.7375	-3.1354	-3.3979	-3.8792	-2.9292	-3.6167	176.636	201.953	526.906	338.424	277.475	412.850	424.194	466.268	509.641	437.990	275.500	440.211	316.099	228.335	278.714	311.266	0.00020824	0.00029666	0.00011543	514.11	1.6858e-06	1.2327e-06	386.54	151.6	4.3197e-06	6.8301e-06	121.82	42.3	47.931	19.051	4.9588e-06	19.017	0.0013563	0.0023138	0.00064256	517.74	2.3527e-05	2.5517e-05	389.25	152.99	2.2875e-05	2.5589e-05	125.51	43.398	49.296	19.597	2.4124e-05	19.535	229.962	329.592	309.264	183.835	375.503	290.327	182.534	189.356	367.960	273.643	187.411	190.666	193.643	197.717	259.434	193.826	-8191	255	
1034.648	1	1	0	0	0.22829	0.046766	0.14253	0.087346	0.12068	0.053892	0.25382	0.29443	0.18336	0.14171	0.20433	0.059237	0.15331	0.090779	0.10566	0.27444	-3.0479	-2.9167	-3.7	-3.1146	-3.1854	-3.7333	-3.0792	-3.7958	-3.5563	-2.9396	-3.8521	-3.1917	-3.1542	-3.7521	-2.85	-3.4354	325.852	189.490	186.036	462.117	313.074	289.017	491.927	209.178	357.901	216.071	254.677	272.273	507.184	517.132	431.405	196.649	0.00021176	0.00056327	7.1979e-05	515.14	6.3795e-06	4.5311e-06	386.73	152.33	1.5243e-06	4.114e-06	121.68	41.941	47.937	18.963	5.4346e-06	18.732	0.0014095	0.0023224	0.00064156	518.73	2.3749e-05	2.515e-05	389.47	153.7	2.2997e-05	2.488e-05	125.34	43.107	49.149	19.521	2.3649e-05	19.36	235.130	340.022	242.346	183.879	305.303	287.815	182.665	189.660	325.882	287.468	187.012	190.748	193.972	197.585	350.075	194.008	-8191	255	
1034.744	1	1	0	0	0.24455	0.17479	0.12894	0.14189	0.12172	0.070621	0.14975	0.15697	0.049525	0.12978	0.30942	0.2011	0.050797	0.15435	0.055847	0.09332	-3.2083	-2.9271	-3.8417	-3.1312	-3.1188	-3.7208	-3.1083	-3.5792	-3.6688	-3.0687	-3.7771	-3.3896	-3.2313	-4	-2.9562	-3.4021	447.801	268.682	322.523	321.654	524.507	203.731	199.423	204.810	287.754	435.633	460.727	204.053	364.775	195.826	425.962	422.740	0.00017561	0.00033973	4.3366e-05	513.71	1.284e-06	6.4244e-06	383.45	150.52	3.8523e-06	9.7166e-06	120.82	41.591	48.144	18.933	4.9448e-06	18.855	0.0013439	0.0022612	0.00062617	518.5	2.3204e-05	2.501e-05	386.37	152.64	2.2861e-05	2.4755e-05	124.49	42.725	49.363	19.414	2.3485e-05	19.359	234.561	359.348	293.639	183.990	281.644	316.186	182.465	189.383	309.664	298.000	186.924	191.306	193.878	198.190	361.769	194.204	-8191	255	
1034.841	1	1	0	0	0.11312	0.1672	0.11848	0.35328	0.044673	0.15427	0.23748	0.095686	0.19885	0.17738	0.12959	0.034993	0.26138	0.047349	0.20915	0.15058	-3.3438	-3.1292	-3.5667	-3.3563	-3.1271	-3.6688	-3.2208	-3.3854	-3.7167	-3.0542	-3.775	-3.4521	-3.0417	-3.6896	-3.1521	-3.2146	217.868	512.786	402.258	230.296	401.769	420.514	487.675	376.588	374.041	277.135	443.460	363.160	197.212	278.408	523.029	245.243	0.00019315	0.00037536	3.784e-05	510.77	3.2513e-06	1.7498e-06	386.3	150.93	3.3755e-06	6.7781e-06	123.09	41.694	47.942	19.063	3.7954e-06	18.709	0.0013593	0.0022741	0.00063546	517.69	2.4084e-05	2.5908e-05	389.45	153.29	2.3582e-05	2.6301e-05	125.77	43.065	49.279	19.417	2.494e-05	19.387	234.171	266.523	361.378	183.931	311.209	388.424	182.442	189.468	273.043	337.499	187.186	190.698	193.656	197.835	207.161	193.845	-8191	255	
1034.961	1	1	0	0	0.090724	0.07138	0.096767	0.23669	0.20939	0.11129	0.12289	0.1921	0.073872	0.15461	0.17238	0.2191	0.10362	0.15428	0.091636	0.069373	-3.3	-3.0042	-3.4896	-3.5771	-2.8271	-3.7667	-3.3021	-3.225	-3.7646	-2.8771	-3.5271	-3.6479	-3.0479	-3.7313	-3.2062	-3.1542	266.959	482.879	494.678	188.507	264.809	351.851	500.533	510.485	221.339	376.470	268.243	503.939	205.305	446.434	458.680	423.585	0.00018218	0.00050839	0.00011572	516.7	4.1564e-06	6.2103e-06	389.75	152.01	2.9837e-06	3.7839e-06	122.15	41.788	48.044	18.791	3.1261e-06	18.917	0.0014043	0.0023564	0.00065297	519.18	2.4105e-05	2.5786e-05	392.25	154.01	2.3148e-05	2.5887e-05	125.81	42.826	49.239	19.355	2.3787e-05	19.428	231.890	249.852	267.719	183.608	374.895	197.204	182.620	189.493	327.932	331.418	187.577	191.190	193.813	198.208	309.297	193.869	-8191	255	
1035.056	1	1	0	0	0.15563	0.16614	0.049015	0.16569	0.23672	0.18827	0.1396	0.17625	0.080365	0.035353	0.14234	0.17467	0.47018	0.15139	0.22708	0.20083	-3.3563	-3.0625	-3.2792	-3.7583	-2.8667	-3.6229	-3.2083	-3.1333	-3.7812	-3.2104	-3.2958	-3.8292	-2.8604	-3.6104	-3.4562	-2.9938	457.167	451.043	503.040	204.557	385.191	440.568	515.705	443.228	447.504	203.536	481.375	175.481	465.905	445.173	173.472	288.699	0.00019333	0.00055222	8.9056e-05	514.77	1.6975e-06	3.1773e-06	384.45	151.12	4.8881e-06	7.6086e-07	122.51	41.646	48.149	19.019	3.7772e-06	18.648	0.001315	0.0022762	0.00063677	518.07	2.3247e-05	2.5379e-05	389.82	153.31	2.2826e-05	2.5499e-05	125.59	42.88	49.166	19.435	2.3882e-05	19.217	246.627	294.822	321.504	184.424	417.714	375.953	182.575	189.803	288.941	220.574	187.602	191.227	193.817	197.737	393.259	193.969	-8191	255	
1035.152	1	1	0	0	0.11873	0.14113	0.03275	0.14246	0.10049	0.20456	0.28422	0.33102	0.068278	0.22573	0.17798	0.20463	0.087215	0.15646	0.09598	0.084301	-3.2917	-3.1646	-3.225	-3.7562	-2.9542	-3.6833	-3.5104	-2.9562	-3.7687	-3.0938	-3.2104	-3.7792	-3.1042	-3.475	-3.4396	-2.8771	475.030	282.282	457.713	195.445	330.091	215.238	494.946	175.924	455.116	219.942	493.876	410.925	182.859	194.254	321.276	367.551	0.00016661	0.00018719	0.00013358	512.43	3.9326e-06	1.1494e-05	383.72	151.39	1.2177e-06	2.4572e-06	122.08	41.215	47.993	18.863	5.7414e-07	18.482	0.0013451	0.0023537	0.00065441	518	2.3994e-05	2.5467e-05	387.71	153.63	2.3474e-05	2.6399e-05	125.41	42.823	49.194	19.359	2.422e-05	19.21	241.741	293.645	283.890	183.939	306.990	326.268	182.612	189.248	310.337	317.138	186.778	190.264	193.900	197.495	266.793	193.465	-8191	255	
1035.248	1	1	0	0	0.11824	0.31778	0.084679	0.065601	0.067881	0.24298	0.22244	0.11121	0.20764	0.11913	0.075724	0.15469	0.040751	0.099856	0.17431	0.10762	-3.2479	-3.0375	-3.2104	-3.6833	-2.9458	-3.3396	-3.6146	-2.9021	-3.6854	-3.3208	-3.0292	-3.8479	-2.7604	-3.3771	-3.6521	-2.9208	398.645	337.216	253.758	252.113	359.829	512.844	466.225	496.790	429.700	210.918	357.521	202.376	238.901	289.408	409.666	520.222	0.0001817	0.00026883	4.4645e-05	516.69	1.0541e-06	3.5423e-06	385.48	151.09	4.2066e-06	7.6001e-07	122.13	41.419	48.207	18.965	2.848e-06	18.7	0.0014059	0.0023655	0.00066075	520.34	2.4129e-05	2.6291e-05	391.36	153.85	2.3928e-05	2.6684e-05	125.74	42.863	49.507	19.469	2.5364e-05	19.344	228.658	272.988	414.350	183.573	384.040	323.121	182.418	189.589	309.261	442.406	186.325	190.865	193.564	197.200	294.512	193.628	-8191	255	
1035.344	1	1	0	0	0.11588	0.089037	0.24342	0.10826	0.168	0.091522	0.24165	0.04001	0.28178	0.24491	0.16965	0.18127	0.17716	0.084227	0.070677	0.2543	-3.1854	-3.3396	-2.9521	-3.6	-3.2708	-3.3563	-3.75	-2.9417	-3.6229	-3.4437	-3.0042	-3.8688	-3.2583	-3.3396	-3.775	-2.9208	492.244	341.984	299.232	173.553	527.580	432.736	506.119	528.489	458.574	356.929	300.001	470.370	218.550	467.237	237.695	447.974	0.00022341	0.0002937	7.0239e-05	517.91	3.3751e-06	1.4237e-06	389.54	152.9	2.149e-06	7.6778e-06	123.38	41.646	48.468	19.123	2.0902e-06	18.842	0.0014261	0.0024454	0.00067389	521.76	2.4469e-05	2.6885e-05	393.45	155.12	2.3758e-05	2.7038e-05	126.68	43.187	49.533	19.587	2.4913e-05	19.407	227.734	236.420	297.147	183.446	347.380	361.194	182.213	189.127	410.475	353.529	186.559	190.885	193.299	197.736	313.849	193.364	-8191	255	
1035.440	1	1	0	0	0.049829	0.03294	0.22067	0.19302	0.090998	0.094211	0.22552	0.39205	0.21676	0.17389	0.062504	0.17081	0.19378	0.10274	0.20875	0.11265	-3.1479	-3.5771	-2.9125	-3.9208	-3.1125	-3.2042	-3.8354	-2.8896	-3.4833	-3.7708	-2.8312	-3.7646	-3.3479	-3.2083	-3.6583	-2.8979	395.507	317.805	490.364	491.379	202.321	180.428	189.943	508.537	283.495	399.409	172.902	511.204	381.725	220.512	190.464	411.072	0.00014522	0.00022693	4.2916e-05	518.37	2.8213e-06	3.5797e-06	391.34	152.55	2.901e-06	3.8608e-06	123.23	41.456	48.196	18.912	3.5774e-06	18.697	0.0014083	0.002414	0.00067461	524.21	2.4543e-05	2.6525e-05	395.88	154.87	2.344e-05	2.6597e-05	126.93	43.028	49.568	19.496	2.4233e-05	19.289	247.967	310.274	456.564	183.299	393.036	380.487	182.376	189.243	317.059	308.069	186.587	190.382	193.074	197.539	420.418	193.672	-8191	255	
1035.536	1	1	0	0	0.19546	0.15539	0.18595	0.15543	0.11674	0.2076	0.12921	0.21717	0.11916	0.053647	0.23821	0.37008	0.12411	0.13696	0.13933	0.051366	-3.0229	-3.4667	-3.0187	-3.7625	-3.2042	-3.05	-3.8854	-3.1042	-3.4688	-3.6312	-2.9729	-3.7188	-3.4583	-3.2354	-3.7896	-3.0187	477.558	318.754	177.356	501.486	347.350	354.049	193.980	498.471	455.434	350.416	425.800	437.343	215.348	211.930	404.030	400.537	0.00018453	0.00011475	6.2351e-05	520.16	2.0075e-06	2.0627e-06	389.94	153.1	2.1003e-06	2.3099e-06	122.38	41.127	48.037	18.847	4.5084e-07	18.263	0.0013959	0.0024173	0.00066669	525.03	2.4248e-05	2.6712e-05	395.16	155.06	2.4325e-05	2.6675e-05	126.04	42.585	49.544	19.382	2.5338e-05	19.014	238.659	368.672	226.794	183.692	271.061	346.596	182.256	189.005	379.377	330.460	186.522	190.628	192.967	197.479	260.233	193.810	-8191	255	
1035.657	1	1	0	0	0.026958	0.22843	0.19344	0.064679	0.16973	0.088382	0.032088	0.24492	0.13997	0.053198	0.16712	0.21912	0.070476	0.047307	0.16959	0.16281	-2.9958	-3.6771	-3.025	-3.6937	-3.4604	-2.9479	-3.8354	-3.2708	-3.2979	-3.8792	-2.95	-3.5312	-3.5375	-2.7833	-3.7729	-3.2417	351.145	417.990	454.223	264.633	354.538	240.429	231.187	457.793	261.965	278.196	251.009	275.449	442.654	183.748	315.302	371.226	0.00020255	0.00050067	8.0863e-05	521.55	1.9442e-06	5.5548e-06	391.12	154.11	1.1784e-06	6.1505e-06	122.13	41.4	48.293	19.011	5.392e-06	18.612	0.0014434	0.0024463	0.0006865	525.52	2.519e-05	2.7637e-05	396.99	155.89	2.5509e-05	2.8533e-05	126.75	43.018	49.794	19.52	2.6472e-05	19.29	242.185	174.403	338.578	183.453	234.825	353.959	182.265	188.815	231.333	331.437	186.501	190.059	193.053	197.239	375.693	193.608	-8191	255	
1035.753	1	1	0	0	0.19555	0.12662	0.12504	0.15086	0.11013	0.058081	0.19722	0.29425	0.16591	0.19382	0.15191	0.12997	0.108	0.12561	0.21716	0.23022	-2.8958	-3.8083	-3.0292	-3.6104	-3.5563	-3.0104	-3.8458	-3.2604	-3.0396	-3.8792	-2.9708	-3.475	-3.75	-2.9021	-3.8479	-3.3771	472.728	493.669	348.373	233.703	253.603	244.207	502.809	492.761	319.767	310.924	218.537	178.661	423.323	214.262	228.425	469.333	0.00018667	0.00055621	7.0084e-05	522.16	2.9105e-06	1.1618e-06	400.47	154.36	2.4407e-07	5.4603e-06	124.1	41.617	48.551	18.954	5.0205e-06	18.637	0.0015335	0.0026288	0.00072937	528.45	2.6434e-05	2.93e-05	403.35	156.94	2.6337e-05	2.9033e-05	128.66	43.306	50.031	19.505	2.6699e-05	19.336	244.530	303.606	247.275	183.213	345.067	270.146	182.458	189.027	357.445	300.049	185.955	190.734	193.366	197.565	302.881	193.697	-8191	255	
1035.825	1	1	0	0	0.28703	0.22547	0.0075327	0.29721	0.34902	0.15627	0.17874	0.038192	0.1364	0.22392	0.038381	0.041469	0.23267	0.081318	0.13353	0.38839	-2.7167	-3.9104	-2.9354	-3.3812	-3.6813	-3.0521	-3.7104	-3.4333	-2.8104	-3.7083	-3.0667	-3.3063	-3.7021	-2.9542	-3.6729	-3.4646	267.114	303.811	272.307	453.049	478.871	373.296	471.549	324.389	280.007	296.294	444.245	183.415	338.629	424.165	414.235	200.419	0.00019857	7.4807e-05	0.00011856	524.58	3.3695e-06	1.6576e-06	397.25	154.15	3.3505e-06	1.5307e-06	122.6	41.686	48.077	18.768	3.0646e-06	18.493	0.0015498	0.0026333	0.00072344	532.11	2.6507e-05	2.8358e-05	403.07	156.33	2.5685e-05	2.754e-05	127.72	42.868	49.731	19.355	2.4814e-05	19.114	240.723	382.951	316.301	183.437	230.020	266.695	182.203	188.868	351.709	301.773	186.705	190.695	193.009	197.280	446.910	193.253	-8191	255	
1035.921	1	1	0	0	0.28896	0.1249	0.12482	0.161	0.2473	0.14969	0.13254	0.1233	0.24002	0.10535	0.068741	0.15692	0.072839	0.32787	0.016661	0.073296	-2.6688	-3.7042	-3.3187	-3.3292	-3.6542	-3.0062	-3.375	-3.5042	-3.0812	-3.8312	-3.3292	-3.1958	-3.8271	-3.0125	-3.4604	-3.6292	343.240	508.239	463.063	438.255	504.972	511.633	431.303	420.044	450.932	273.857	217.932	414.890	361.007	493.036	173.423	488.303	0.00018239	0.00071143	5.4341e-05	519.84	2.2749e-06	6.5978e-06	387.62	151.09	4.6008e-07	2.2872e-06	119.35	40.338	47.206	18.659	2.0038e-06	18.323	0.0014081	0.0023192	0.00065382	524.57	2.344e-05	2.537e-05	390.86	153.25	2.2995e-05	2.4343e-05	122.65	41.908	48.587	19.138	2.3e-05	18.89	243.389	263.414	412.521	183.597	361.618	324.588	182.382	188.711	501.152	223.209	185.831	190.532	192.999	197.365	299.719	193.323	-8191	255	
1036.042	1	1	0	0	0.019861	0.048693	0.07067	0.30825	0.24362	0.15087	0.0815	0.21027	0.029519	0.12208	0.10197	0.13394	0.17813	0.28592	0.065607	0.15056	-2.6271	-3.5521	-3.225	-3.2146	-3.7271	-3.1271	-3.4042	-3.6083	-2.8937	-3.7292	-3.2958	-3.0021	-3.7958	-3.1063	-3.2812	-3.6396	354.930	336.315	278.232	514.252	292.621	529.719	342.208	402.405	248.143	200.627	438.230	185.915	282.969	303.691	484.744	481.830	0.00019092	0.00036566	9.1729e-05	515.49	2.1852e-06	2.3043e-06	381.91	149.56	4.5692e-06	5.9944e-06	119	41.149	47.864	18.905	1.8183e-06	18.308	0.0012993	0.0022057	0.00059926	519.05	2.2527e-05	2.4314e-05	385.3	152.21	2.2009e-05	2.5342e-05	122.91	42.27	49.025	19.375	2.3373e-05	19.028	234.729	257.156	336.377	183.996	300.124	273.161	181.988	189.238	317.671	454.820	186.313	190.763	193.393	197.221	333.843	193.332	-8191	255	
1036.136	1	1	0	0	0.14532	0.21065	0.20162	0.25112	0.050931	0.12317	0.080346	0.087789	0.14086	0.10301	0.11968	0.24465	0.24126	0.16155	0.15092	0.084342	-2.6479	-3.625	-3.3688	-2.8	-3.7833	-3.125	-3.2146	-3.5875	-3.0146	-3.5938	-3.5333	-3.1208	-3.7396	-3.2729	-3.1312	-3.6854	465.835	367.405	404.686	518.766	478.918	488.408	336.462	437.650	279.448	520.652	275.604	413.927	448.123	350.581	470.688	264.497	0.00020012	0.00023323	3.352e-05	517.86	2.836e-06	3.4636e-06	384.79	151.04	1.4718e-06	1.4936e-06	121.7	41.327	48.208	18.965	3.25e-06	18.625	0.0013498	0.0022794	0.00064147	521.83	2.3199e-05	2.5581e-05	389.59	153.26	2.2757e-05	2.5162e-05	124.4	42.607	49.482	19.455	2.3921e-05	19.24	231.124	377.992	241.805	183.579	308.338	300.328	181.937	188.992	247.186	485.799	186.137	190.717	193.311	197.242	354.920	193.479	-8191	255	
1036.232	1	1	0	0	0.092637	0.092206	0.13277	0.17955	0.15956	0.086882	0.29643	0.23498	0.037484	0.035019	0.052591	0.25461	0.18038	0.16502	0.19933	0.10225	-2.4875	-3.3438	-3.4167	-3.025	-3.6688	-3.0479	-3.1771	-3.8063	-3.0208	-3.4292	-3.6354	-3.0187	-3.6854	-3.3563	-3.0792	-3.7646	247.249	386.822	440.307	255.547	312.615	306.748	348.794	195.082	190.488	278.287	323.390	433.249	268.097	462.065	203.645	486.876	0.00018564	0.00028951	0.00013987	519.07	2.2747e-06	1.5278e-06	386.91	152.36	9.3794e-07	2.1104e-06	120.86	41.344	48.419	19.037	4.2071e-06	18.552	0.0013433	0.0022895	0.00063236	523.29	2.3097e-05	2.5228e-05	391.95	154.16	2.3082e-05	2.4891e-05	125.58	42.888	49.5	19.535	2.4122e-05	19.256	233.107	268.075	273.781	183.898	514.278	504.516	182.522	188.842	292.665	301.525	185.810	190.754	193.335	196.909	453.590	194.025	-8191	255	
1036.353	1	1	0	0	0.12424	0.12312	0.10917	0.041392	0.084231	0.15926	0.1355	0.18112	0.17455	0.22056	0.23508	0.15631	0.020577	0.16227	0.046332	0.062051	-2.6646	-3.2729	-3.5958	-3.1188	-3.6521	-3.3042	-3.0854	-3.7604	-3.2708	-3.2229	-3.6437	-2.8104	-3.6271	-3.5083	-2.9021	-3.8917	525.161	362.016	338.437	186.838	362.849	288.858	412.093	431.813	318.102	176.209	261.243	517.391	466.921	474.673	415.623	520.131	0.00017548	0.00028529	0.00010236	519.01	6.4145e-06	5.4836e-06	386.49	151.78	3.4484e-06	7.602e-06	120.09	41.071	48.635	18.96	4.2282e-06	18.502	0.0013655	0.0022986	0.00064746	524.76	2.3881e-05	2.56e-05	392.64	154.25	2.334e-05	2.6106e-05	124.63	42.533	49.637	19.447	2.4671e-05	19.139	232.411	181.110	312.607	183.642	367.471	349.844	182.131	189.257	263.515	301.518	186.723	190.156	193.404	197.457	414.670	193.386	-8191	255	
1036.424	1	1	0	0	0.14781	0.10396	0.27032	0.26762	0.10363	0.21813	0.22786	0.19462	0.26418	0.048846	0.10917	0.10692	0.08778	0.13415	0.068635	0.16821	-2.7917	-3.1771	-3.6063	-3.1458	-3.6292	-3.6729	-3.0104	-3.8042	-3.3333	-3.3	-3.6937	-2.9292	-3.4417	-3.4021	-2.8937	-3.8542	273.297	341.838	219.452	458.921	392.416	457.581	499.899	468.703	531.289	318.198	424.619	310.512	350.352	452.255	426.864	457.715	0.00019149	0.00039312	0.00014359	521.14	5.309e-07	4.3604e-06	385.56	151.66	1.8704e-06	4.8131e-06	120.22	41.044	47.936	18.924	1.2913e-06	18.467	0.0014264	0.0023885	0.00066779	524.77	2.4151e-05	2.6489e-05	389.65	153.56	2.3261e-05	2.563e-05	124.2	42.202	49.253	19.38	2.4277e-05	19.197	233.829	283.707	262.949	183.707	348.059	246.785	182.203	189.396	278.050	377.318	186.335	190.764	193.561	197.007	316.134	193.147	-8191	255	
1036.521	1	1	0	0	0.21281	0.045015	0.14853	0.033126	0.085012	0.12552	0.25134	0.074282	0.29303	0.13983	0.19097	0.086255	0.076691	0.14923	0.062524	0.16496	-2.8187	-3.2229	-3.7208	-3.025	-3.3979	-3.6021	-3.0375	-3.7188	-3.2979	-3.1562	-3.6833	-3.0125	-3.4313	-3.6917	-2.975	-3.6333	407.851	249.691	512.727	192.610	262.687	341.376	448.984	330.225	194.737	222.357	523.994	368.895	383.114	322.598	325.880	225.948	0.00018962	0.00021126	0.00010382	516.3	2.1147e-06	8.0167e-06	389.8	152.81	3.4579e-06	2.9722e-06	121.2	41.375	48.192	19.085	4.3617e-06	18.516	0.001429	0.0024325	0.00067627	523.94	2.5132e-05	2.7489e-05	393.86	155.03	2.5277e-05	2.7769e-05	126.61	42.886	49.975	19.655	2.7184e-05	19.375	232.599	298.646	279.682	183.601	383.685	323.379	182.018	188.960	326.387	469.486	186.491	189.884	193.302	197.069	319.992	193.645	-8191	255	
1036.641	1	1	0	0	0.25992	0.079408	0.22393	0.043389	0.14064	0.11744	0.20007	0.081643	0.14361	0.02464	0.15787	0.23058	0.11247	0.24464	0.41317	0.15186	-2.9938	-3.0604	-3.75	-3.0354	-3.2208	-3.5208	-3.0083	-3.7	-3.4437	-3.0083	-3.7438	-3.1979	-3.1667	-3.7625	-2.9792	-3.5354	207.653	518.752	443.493	472.313	331.564	393.140	499.081	211.082	175.590	191.077	461.150	283.304	516.186	201.785	305.145	468.980	0.00016925	0.00045281	0.0001947	524.15	1.0843e-06	5.4885e-06	396.14	154.24	1.9024e-06	2.0493e-06	124.43	41.455	48.705	19.052	6.5997e-06	18.611	0.0015448	0.0026188	0.0007263	532	2.7263e-05	2.9101e-05	403.06	156.96	2.5788e-05	2.8905e-05	128.68	43.253	50.326	19.667	2.6943e-05	19.42	238.879	279.248	221.395	183.257	515.265	351.794	182.195	188.908	179.800	244.571	186.362	190.390	193.345	197.247	302.523	193.299	-8191	255	
1036.737	1	1	0	0	0.1679	0.30656	0.24336	0.098308	0.22492	0.059356	0.14284	0.13861	0.053958	0.18419	0.16547	0.13443	0.22943	0.025468	0.23157	0.23427	-3.1625	-2.9646	-3.6979	-3.2812	-3.1083	-3.6771	-3.0396	-3.4167	-3.3333	-3.0292	-3.7896	-3.2875	-3.1625	-3.7729	-2.9	-3.4938	292.553	476.444	359.306	448.883	198.459	431.589	510.186	176.483	292.882	349.801	451.706	530.118	480.655	220.739	177.773	501.595	0.00015842	0.00025229	8.3915e-05	525.33	2.1758e-06	3.9336e-06	400.8	154.9	1.9676e-06	4.8944e-06	122.13	41.414	47.965	18.815	1.2995e-06	18.017	0.0015249	0.0026038	0.0007138	533.56	2.6295e-05	2.8823e-05	404.1	157.81	2.5888e-05	2.9082e-05	128.37	43.141	50.117	19.555	2.7891e-05	19.033	233.850	206.481	233.321	183.265	213.690	250.432	182.094	189.220	334.312	327.872	186.038	190.542	193.008	197.370	260.525	192.980	-8191	255	
1036.833	1	1	0	0	0.16322	0.28766	0.089897	0.13384	0.19013	0.18698	0.22779	0.030129	0.17504	0.25225	0.065548	0.14169	0.069359	0.39719	0.14028	0.098393	-3.2583	-2.9271	-3.5583	-3.3125	-2.975	-3.7854	-3.0208	-3.225	-3.6229	-3.0146	-3.6042	-3.3187	-2.9896	-3.9125	-3.2125	-3.1375	448.824	173.095	508.384	199.922	450.277	498.393	175.385	511.512	178.533	358.438	247.617	455.344	330.614	450.693	464.135	406.314	0.00017025	0.00037763	0.00015719	527.95	1.1529e-06	4.8149e-06	400.97	155.71	1.9681e-07	4.0137e-06	122.65	41.076	48.427	18.667	3.4889e-06	18.156	0.0015559	0.00265	0.00073323	538.58	2.7585e-05	2.9413e-05	405.74	158.07	2.6633e-05	2.9282e-05	127.48	42.436	49.766	19.188	2.6191e-05	18.786	228.432	336.674	213.194	183.587	337.490	334.935	182.265	188.926	380.005	251.489	186.164	189.783	192.984	197.824	285.314	193.144	-8191	255	
1036.954	1	1	0	0	0.10332	0.25444	0.10435	0.24364	0.1193	0.077382	0.26924	0.087724	0.18576	0.078416	0.099547	0.15075	0.15319	0.094297	0.19483	0.052337	-3.3604	-3.1167	-3.6312	-3.4188	-2.9875	-3.6417	-3.2188	-3.2083	-3.7125	-2.8854	-3.5938	-3.5396	-2.8771	-3.6646	-3.0938	-3.1042	498.381	481.847	210.648	497.497	470.208	336.708	482.468	219.940	355.534	513.755	471.759	526.834	463.048	240.584	339.937	229.746	0.00016676	0.00019922	8.0815e-05	524.59	1.6948e-06	3.9522e-06	393.14	152.89	2.8157e-06	4.867e-06	120.56	40.459	47.917	18.759	3.57e-06	18.203	0.0014624	0.0025298	0.00069245	533.32	2.5684e-05	2.7715e-05	399.71	156.05	2.5068e-05	2.7561e-05	125.96	42.192	49.554	19.282	2.6572e-05	18.881	231.834	178.140	294.648	183.288	251.417	327.724	182.210	189.159	280.646	334.398	186.682	190.688	193.365	197.225	306.563	193.757	-8191	255	
1037.048	1	1	0	0	0.13002	0.062253	0.12097	0.1408	0.098155	0.096745	0.089945	0.12421	0.11929	0.20089	0.074641	0.23568	0.16486	0.15179	0.17824	0.10607	-3.5438	-3.0229	-3.3792	-3.6417	-2.9375	-3.7729	-3.4083	-3	-3.9104	-3.0938	-3.4604	-3.5708	-3.0438	-3.6542	-3.3708	-3.0271	209.217	369.530	248.925	420.056	360.084	328.871	390.420	312.140	488.531	522.545	395.310	529.894	401.054	518.270	482.937	382.162	0.00019509	0.0003424	0.00016393	528.62	2.4322e-06	3.2271e-06	399.97	155.59	2.5314e-06	5.1671e-06	123.44	41.02	47.767	18.661	4.1729e-06	18.196	0.0015403	0.0026088	0.0007325	537.34	2.6971e-05	2.8902e-05	404.06	157.46	2.611e-05	2.9187e-05	127.53	42.712	49.756	19.345	2.6417e-05	19.046	229.744	259.075	518.760	183.130	270.576	409.496	182.142	188.492	277.565	322.283	186.835	190.155	193.033	196.791	238.627	193.398	-8191	255	
1037.120	1	1	0	0	0.11279	0.066103	0.20583	0.36708	0.16232	0.15878	0.24403	0.29085	0.14117	0.15714	0.21388	0.13209	0.10888	0.2421	0.12907	0.067409	-3.3729	-3.0458	-3.2	-3.7729	-3.0625	-3.6708	-3.6021	-3.1688	-3.7542	-2.9708	-3.1729	-3.7188	-2.8563	-3.5354	-3.3771	-2.9813	239.857	326.125	433.973	527.092	423.483	523.451	360.456	440.102	423.636	355.489	455.802	471.781	306.571	400.260	369.829	381.668	0.00012996	0.00041329	7.6438e-05	527.18	5.0908e-06	1.5941e-06	394.67	154.2	3.7756e-06	9.6636e-07	122.78	40.922	47.589	18.623	1.128e-06	17.9	0.0014761	0.0025578	0.0007065	536.11	2.6381e-05	2.7721e-05	402.99	157.17	2.5429e-05	2.8128e-05	127.2	42.466	49.584	19.314	2.5675e-05	18.908	217.144	225.081	529.354	183.092	275.308	263.799	182.387	188.961	387.757	205.439	185.934	190.444	192.992	197.162	351.760	193.458	-8191	255	
1037.216	1	1	0	0	0.2907	0.069333	0.25096	0.069445	0.13893	0.1243	0.025037	0.22313	0.14908	0.12792	0.035503	0.19391	0.19832	0.21623	0.15492	0.21236	-3.4146	-3.0479	-3.1667	-3.875	-2.9188	-3.6417	-3.6167	-2.7854	-3.6875	-3.2021	-3.1312	-3.7229	-3.1646	-3.4896	-3.5792	-2.8104	246.491	361.289	175.208	346.337	349.433	446.005	255.680	176.526	260.405	405.779	272.254	508.655	490.073	421.089	491.710	349.079	0.00021038	0.00032592	5.4399e-05	526.83	8.8462e-06	7.924e-06	389.81	151.72	2.7341e-06	7.5792e-06	120.11	40.419	48.117	18.704	6.5102e-07	18.151	0.0014766	0.0025319	0.00070007	533.96	2.5764e-05	2.8229e-05	397.84	155.72	2.5873e-05	2.8314e-05	125.83	42.004	49.697	19.261	2.68e-05	18.79	224.762	334.165	473.361	183.382	293.225	323.435	182.078	189.001	263.405	279.483	186.580	190.410	193.318	197.597	291.160	193.562	-8191	255	
1037.314	1	1	0	0	0.045785	0.29602	0.14056	0.21924	0.31214	0.10283	0.22083	0.22877	0.1681	0.19376	0.22111	0.1405	0.27636	0.14708	0.030405	0.14827	-3.4833	-3.1688	-2.9021	-3.6896	-2.9792	-3.3167	-3.7042	-2.9771	-3.6979	-3.3333	-3.0646	-3.8167	-3.1146	-3.35	-3.7375	-3.0438	386.260	384.556	420.750	523.720	224.551	181.891	475.721	208.662	333.695	490.598	202.153	199.323	506.196	465.116	178.366	495.838	0.0001948	0.00033869	0.00010609	532.82	2.7139e-07	2.7072e-06	395.54	153.21	2.6718e-06	1.2969e-06	122.63	40.428	48.224	18.588	6.1077e-06	17.997	0.0015217	0.0026302	0.00072715	537.4	2.6589e-05	2.9218e-05	401.22	156.26	2.6179e-05	2.9102e-05	127.05	42.114	49.756	19.205	2.7589e-05	18.8	250.503	510.736	298.847	183.581	202.739	252.771	182.152	188.906	403.141	346.327	186.404	190.048	192.923	197.425	423.470	193.771	-8191	255	
1037.433	1	1	0	0	0.020669	0.14886	0.1101	0.22802	0.38761	0.21502	0.2436	0.090516	0.12222	0.19663	0.28861	0.081853	0.2607	0.26655	0.080479	0.056884	-3.1646	-3.3854	-3.0375	-3.9458	-3.1646	-3.1333	-3.7438	-3.1208	-3.4208	-3.6042	-2.9833	-3.8167	-3.0896	-3.325	-3.7479	-2.9167	365.691	179.971	266.744	190.261	497.999	171.400	307.825	351.827	195.821	187.830	408.008	281.575	520.912	381.060	356.748	523.145	0.00018485	0.0003447	0.00014394	535.74	2.6527e-06	1.0258e-06	398.28	155.49	1.5282e-06	8.141e-06	122.34	40.311	47.812	18.732	1.3452e-06	18.102	0.0015792	0.002669	0.00074662	539.88	2.712e-05	2.9304e-05	403.65	157.05	2.6739e-05	2.9436e-05	126.6	42.121	49.545	19.202	2.7694e-05	18.842	238.946	252.395	261.533	183.506	179.731	258.295	182.542	189.146	265.037	280.526	185.839	190.412	193.029	197.068	508.106	193.853	-8191	255	
#DATA ENDS
