BOXY.EXE: ISS Imagent and Oximeter Data Acquisition Program Version 0.80
Ascii Record File

#ACQ INFORMATION
2  Detector Channels 
16  External MUX Channels 
1  Auxiliary Channels 
5000  Waveform (CCF) Frequency (Hz)
1  Waveforms Skipped 
30  Waveforms Averaged 
1  Cycles Averaged 
16  Acquisitions per Waveform 
10.0806  Updata Rate (Hz) 

#FILE INFORMATION
TRUE -- External MUX Channel results are PARSED.
FALSE -- AC DC and Phase are NOT grouped.
TRUE -- Companion Program Settings File CREATED.
FALSE -- AC data not excluded
FALSE -- DC data not excluded
FALSE -- Phase data not excluded
FALSE -- Auxillary Chn. data not excluded
Tab delimiters

#CALIBRATION STATE
TRUE -- Waveform Calibration Values APPLIED.


#AUX CALIBRATION VALUES
Val Type	aux-1	

Term	1.0000e+00	
Factor	0.0000e+00	


#WF CALIBRATION VALUES
A = Detector Channel
Val Type	A-AC1	A-AC2	A-AC3	A-AC4	A-AC5	A-AC6	A-AC7	A-AC8	A-AC9	A-AC10	A-AC11	A-AC12	A-AC13	A-AC14	A-AC15	A-AC16	A-DC1	A-DC2	A-DC3	A-DC4	A-DC5	A-DC6	A-DC7	A-DC8	A-DC9	A-DC10	A-DC11	A-DC12	A-DC13	A-DC14	A-DC15	A-DC16	A-Ph1	A-Ph2	A-Ph3	A-Ph4	A-Ph5	A-Ph6	A-Ph7	A-Ph8	A-Ph9	A-Ph10	A-Ph11	A-Ph12	A-Ph13	A-Ph14	A-Ph15	A-Ph16	

Term	0.00000e+00	0.00000e+00	0.00000e+00	0.00000e+00	0.00000e+00	0.00000e+00	0.00000e+00	0.00000e+00	0.00000e+00	0.00000e+00	0.00000e+00	0.00000e+00	0.00000e+00	0.00000e+00	0.00000e+00	0.00000e+00	0.00000e+00	0.00000e+00	0.00000e+00	0.00000e+00	0.00000e+00	0.00000e+00	0.00000e+00	0.00000e+00	0.00000e+00	0.00000e+00	0.00000e+00	0.00000e+00	0.00000e+00	0.00000e+00	0.00000e+00	0.00000e+00	0.00000e+00	0.00000e+00	0.00000e+00	0.00000e+00	0.00000e+00	0.00000e+00	0.00000e+00	0.00000e+00	0.00000e+00	0.00000e+00	0.00000e+00	0.00000e+00	0.00000e+00	0.00000e+00	0.00000e+00	0.00000e+00	
Factor	1.00000e+00	1.00000e+00	1.00000e+00	1.00000e+00	1.00000e+00	1.00000e+00	1.00000e+00	1.00000e+00	1.00000e+00	1.00000e+00	1.00000e+00	1.00000e+00	1.00000e+00	1.00000e+00	1.00000e+00	1.00000e+00	1.00000e+00	1.00000e+00	1.00000e+00	1.00000e+00	1.00000e+00	1.00000e+00	1.00000e+00	1.00000e+00	1.00000e+00	1.00000e+00	1.00000e+00	1.00000e+00	1.00000e+00	1.00000e+00	1.00000e+00	1.00000e+00	X	X	X	X	X	X	X	X	X	X	X	X	X	X	X	X	

B = Detector Channel
Val Type	B-AC1	B-AC2	B-AC3	B-AC4	B-AC5	B-AC6	B-AC7	B-AC8	B-AC9	B-AC10	B-AC11	B-AC12	B-AC13	B-AC14	B-AC15	B-AC16	B-DC1	B-DC2	B-DC3	B-DC4	B-DC5	B-DC6	B-DC7	B-DC8	B-DC9	B-DC10	B-DC11	B-DC12	B-DC13	B-DC14	B-DC15	B-DC16	B-Ph1	B-Ph2	B-Ph3	B-Ph4	B-Ph5	B-Ph6	B-Ph7	B-Ph8	B-Ph9	B-Ph10	B-Ph11	B-Ph12	B-Ph13	B-Ph14	B-Ph15	B-Ph16	

Term	0.00000e+00	0.00000e+00	0.00000e+00	0.00000e+00	0.00000e+00	0.00000e+00	0.00000e+00	0.00000e+00	0.00000e+00	0.00000e+00	0.00000e+00	0.00000e+00	0.00000e+00	0.00000e+00	0.00000e+00	0.00000e+00	0.00000e+00	0.00000e+00	0.00000e+00	0.00000e+00	0.00000e+00	0.00000e+00	0.00000e+00	0.00000e+00	0.00000e+00	0.00000e+00	0.00000e+00	0.00000e+00	0.00000e+00	0.00000e+00	0.00000e+00	0.00000e+00	-9.05658e+01	-1.26898e+02	-1.24483e+02	-1.83724e+02	-5.37553e+01	-6.73461e+01	-1.56230e+02	-1.61923e+02	-5.40194e+01	-7.09364e+01	-1.72497e+02	-1.69782e+02	-1.82572e+02	-1.76840e+02	-5.89923e+01	-1.49992e+02	
Factor	1.56069e-05	1.51563e-04	3.89356e-05	2.00537e-01	1.34946e-06	1.72342e-06	1.58949e-01	5.10371e-02	1.12946e-06	1.86802e-06	8.89495e-02	2.57654e-02	2.29960e-02	7.58840e-03	1.36366e-06	1.13387e-02	1.08764e-05	1.96114e-05	5.47076e-06	1.05810e-01	1.98849e-07	2.17421e-07	7.90648e-02	2.72056e-02	1.94852e-07	2.18053e-07	4.58390e-02	1.33896e-02	1.23890e-02	4.07640e-03	2.02936e-07	5.89380e-03	X	X	X	X	X	X	X	X	X	X	X	X	X	X	X	X	



#DISTANCE SETTINGS
A = Detector Channel
A-1	A-2	A-3	A-4	A-5	A-6	A-7	A-8	A-9	A-10	A-11	A-12	A-13	A-14	A-15	A-16	

1.0000e+01	1.0000e+01	1.0000e+01	1.4500e+00	1.0000e+01	1.0000e+01	1.5100e+00	1.9500e+00	1.0000e+01	1.0000e+01	2.0100e+00	2.5000e+00	2.4400e+00	2.9500e+00	1.0000e+01	3.0100e+00	

B = Detector Channel
B-1	B-2	B-3	B-4	B-5	B-6	B-7	B-8	B-9	B-10	B-11	B-12	B-13	B-14	B-15	B-16	

1.0000e+01	1.0000e+01	1.0000e+01	1.4500e+00	1.0000e+01	1.0000e+01	1.5100e+00	1.9500e+00	1.0000e+01	1.0000e+01	2.0100e+00	2.5000e+00	2.4400e+00	2.9500e+00	1.0000e+01	3.0100e+00	




#DATA BEGINS
time	group	step	mark	flag	A-AC1	A-AC2	A-AC3	A-AC4	A-AC5	A-AC6	A-AC7	A-AC8	A-AC9	A-AC10	A-AC11	A-AC12	A-AC13	A-AC14	A-AC15	A-AC16	A-DC1	A-DC2	A-DC3	A-DC4	A-DC5	A-DC6	A-DC7	A-DC8	A-DC9	A-DC10	A-DC11	A-DC12	A-DC13	A-DC14	A-DC15	A-DC16	A-Ph1	A-Ph2	A-Ph3	A-Ph4	A-Ph5	A-Ph6	A-Ph7	A-Ph8	A-Ph9	A-Ph10	A-Ph11	A-Ph12	A-Ph13	A-Ph14	A-Ph15	A-Ph16	B-AC1	B-AC2	B-AC3	B-AC4	B-AC5	B-AC6	B-AC7	B-AC8	B-AC9	B-AC10	B-AC11	B-AC12	B-AC13	B-AC14	B-AC15	B-AC16	B-DC1	B-DC2	B-DC3	B-DC4	B-DC5	B-DC6	B-DC7	B-DC8	B-DC9	B-DC10	B-DC11	B-DC12	B-DC13	B-DC14	B-DC15	B-DC16	B-Ph1	B-Ph2	B-Ph3	B-Ph4	B-Ph5	B-Ph6	B-Ph7	B-Ph8	B-Ph9	B-Ph10	B-Ph11	B-Ph12	B-Ph13	B-Ph14	B-Ph15	B-Ph16	aux-1	digaux	

749.696	1	1	0	256	0.19189	0.097554	0.16654	0.31324	0.12152	0.048818	0.2228	0.17366	0.041173	0.10599	0.14813	0.21827	0.055724	0.20536	0.044077	0.26448	-2.5208	-3.2625	-3.3625	-2.9667	-3.4313	-3.2333	-2.8479	-3.6625	-3.0917	-3.2167	-3.5438	-2.9583	-3.5938	-3.3271	-2.925	-3.6771	96.273	209.093	284.543	432.370	419.108	428.910	364.696	306.469	328.157	219.078	155.411	90.089	320.664	172.831	427.314	111.422	0.00024102	0.00024615	8.3229e-05	964.56	2.2575e-06	3.6356e-06	1103.3	207.04	3.3365e-06	2.7994e-06	265.2	76.883	56.522	15.745	1.7798e-06	23.431	0.00028784	0.00030794	8.3269e-05	953.29	3.4322e-06	3.0937e-06	1091.8	206.21	3.2699e-06	3.2154e-06	265.15	77.633	57.033	15.962	3.2914e-06	23.899	212.542	200.326	185.212	91.924	280.106	243.492	92.471	99.863	268.871	211.348	99.372	106.230	107.066	114.162	187.003	113.640	-8191	255	
749.792	1	1	0	0	0.20725	0.16183	0.18891	0.14131	0.25288	0.10002	0.17561	0.19622	0.20921	0.04947	0.19501	0.15295	0.11997	0.15574	0.12475	0.16926	-2.4021	-3.1167	-3.5625	-2.7667	-3.5438	-3.4042	-3.1104	-3.7458	-3.0417	-3.1729	-3.4313	-2.8021	-3.3979	-3.3833	-2.6521	-3.6167	418.971	260.988	196.473	440.427	183.676	232.675	346.990	420.182	258.703	373.743	356.870	197.568	195.553	235.938	202.421	286.641	0.00021876	0.00028256	4.901e-05	966.37	2.3471e-06	2.5042e-06	1105.5	207.4	1.736e-06	4.6436e-06	266.69	77.091	56.548	15.726	2.6712e-06	23.623	0.00028106	0.00028653	7.7434e-05	952.23	3.2491e-06	3.004e-06	1091.4	206.24	3.3608e-06	3.2363e-06	265.68	77.695	56.971	15.936	3.1979e-06	23.908	210.130	175.991	183.350	92.067	276.122	251.141	92.318	100.108	261.738	262.847	99.297	106.170	106.988	114.074	249.957	113.556	-8191	255	
749.863	1	1	0	0	0.059748	0.07543	0.092685	0.25772	0.22847	0.050347	0.21762	0.23772	0.073261	0.089258	0.18062	0.20019	0.126	0.1693	0.061972	0.077853	-2.7938	-2.8854	-3.6208	-2.9292	-3.3833	-3.5104	-2.9938	-3.5771	-3.0729	-3.1396	-3.8146	-3.05	-3.2479	-3.5958	-2.7562	-3.6396	146.276	178.110	422.473	117.764	349.061	254.038	353.587	325.062	82.554	125.858	145.457	326.039	331.684	246.838	205.422	337.427	0.00024609	0.00027536	0.00010966	965.56	3.7739e-06	1.8822e-06	1100.5	206.88	2.3387e-06	2.1527e-06	265.71	77.414	56.734	15.665	3.6304e-06	23.494	0.00028551	0.00030148	8.2346e-05	952.26	3.1617e-06	3.0534e-06	1089.3	206.29	3.2764e-06	3.3721e-06	265.37	77.745	57.027	15.969	3.1214e-06	23.858	215.124	172.301	184.852	92.049	255.567	249.063	92.260	99.863	285.921	220.505	99.195	106.216	107.574	114.074	224.552	113.329	-8191	255	
749.960	1	1	0	0	0.027003	0.056603	0.15348	0.16249	0.19918	0.18173	0.35073	0.23393	0.18425	0.078978	0.075995	0.067167	0.11772	0.095304	0.26836	0.01584	-2.8187	-2.8688	-3.5521	-3.0292	-3.0792	-3.6229	-2.9333	-3.6146	-3.4771	-2.9229	-3.6562	-3.0708	-3.3542	-3.6229	-3.0167	-3.5938	111.113	381.634	346.661	401.053	211.676	306.585	418.867	390.570	275.663	405.573	248.472	135.877	438.220	358.105	295.841	245.636	0.00022246	0.00036029	8.7608e-05	969.24	2.6241e-06	3.5116e-06	1101.6	205.95	2.5842e-06	2.4447e-06	265.99	77.083	56.894	15.783	2.6739e-06	23.336	0.00027316	0.00030316	8.1754e-05	954.68	3.3804e-06	3.226e-06	1090.3	205.9	3.1331e-06	3.3612e-06	265.57	77.474	56.956	15.917	3.2267e-06	23.835	209.848	161.687	180.379	91.974	242.043	227.324	92.191	99.854	275.121	229.053	99.317	106.023	107.379	114.138	236.041	113.549	-8191	255	
750.080	1	1	0	0	0.26214	0.085794	0.2013	0.20237	0.20971	0.058449	0.27694	0.21027	0.18736	0.33751	0.084519	0.16147	0.22988	0.10097	0.056332	0.097406	-2.9375	-2.6542	-3.6125	-3.1146	-2.9688	-3.675	-3.0687	-3.5021	-3.3458	-2.7167	-3.7562	-3.275	-2.9562	-3.6917	-2.9813	-3.3854	437.615	346.914	242.625	113.495	201.025	214.639	399.122	369.470	331.318	396.268	222.963	140.019	137.555	274.197	422.212	103.317	0.00023596	0.00027748	6.946e-05	961.92	2.3082e-06	2.727e-06	1102.8	207.32	1.6259e-06	1.5348e-06	265.83	77.191	56.247	15.594	2.3513e-06	23.348	0.00028698	0.00029973	8.0796e-05	949.69	3.3133e-06	3.2033e-06	1088.9	206.38	3.1318e-06	3.3698e-06	264.88	77.415	56.808	15.903	3.3324e-06	23.809	208.596	166.160	146.383	92.039	258.256	251.416	92.115	100.145	233.648	221.019	99.568	106.386	107.149	114.202	264.539	112.896	-8191	255	
750.176	1	1	0	0	0.091849	0.12914	0.20388	0.078704	0.14766	0.14441	0.50832	0.20811	0.13693	0.38837	0.13535	0.16954	0.15538	0.13128	0.068407	0.098198	-2.9021	-2.8521	-3.5125	-3.1333	-2.9771	-3.8271	-2.8937	-3.3563	-3.3833	-2.8583	-3.6188	-3.3458	-2.9938	-3.6437	-2.9062	-3.0771	99.086	253.775	225.635	243.397	384.992	425.201	389.934	345.225	153.392	188.905	149.777	87.539	327.792	426.086	327.144	358.390	0.00022571	0.00031003	6.1221e-05	961.22	2.4345e-06	2.6028e-06	1105.6	206.71	2.9489e-06	4.5029e-06	262.91	77.284	56.932	15.759	5.025e-06	23.505	0.00027504	0.00031513	8.0055e-05	949.57	3.3866e-06	3.1938e-06	1089.7	205.72	3.2004e-06	3.2208e-06	264.07	77.642	57.035	15.942	3.1789e-06	23.832	213.618	166.544	173.158	91.975	260.243	194.634	92.328	100.062	250.852	248.681	99.500	106.396	107.016	114.129	251.041	113.612	-8191	255	
750.273	1	1	0	0	0.18352	0.31919	0.070369	0.08931	0.16922	0.27878	0.22349	0.13013	0.2311	0.22493	0.22982	0.14356	0.058411	0.093711	0.12703	0.20052	-3.3083	-2.8063	-3.4458	-3.475	-2.9125	-3.6896	-3.2646	-3.3063	-3.5917	-2.9604	-3.4146	-3.525	-2.8708	-3.6271	-3.1521	-3.0687	116.506	121.993	215.065	284.165	224.004	306.372	409.119	305.697	279.519	121.105	350.932	90.457	216.901	145.674	154.257	384.411	0.00022045	0.00018803	3.9912e-05	965.59	3.6505e-06	6.2671e-07	1099.9	206.94	2.3447e-06	3.4782e-06	264.1	76.9	56.396	15.591	3.027e-06	23.246	0.00026303	0.00029532	7.8938e-05	949.92	3.4086e-06	2.9678e-06	1088.4	205.75	3.187e-06	3.314e-06	264.21	77.6	56.958	15.891	3.1252e-06	23.728	205.689	184.631	131.658	92.242	251.450	250.561	92.377	100.264	268.351	240.009	99.676	106.615	107.058	114.388	244.900	113.397	-8191	255	
750.391	1	1	0	0	0.20784	0.13572	0.046896	0.25095	0.13058	0.12798	0.33975	0.18564	0.085206	0.24563	0.11845	0.42073	0.24644	0.25596	0.085164	0.094959	-3.2646	-2.7646	-3.4313	-3.4604	-2.9562	-3.4417	-3.2979	-3.15	-3.6688	-2.9292	-3.3604	-3.5396	-2.8854	-3.5583	-3.2479	-3.1021	261.476	153.529	410.096	333.842	201.974	88.638	391.086	336.726	380.128	197.757	429.154	359.902	372.993	330.869	371.315	345.210	0.00021285	0.0002311	6.786e-05	957.46	3.8157e-06	3.9175e-06	1099.1	205.55	2.4105e-06	2.9886e-06	264.29	76.755	56.23	15.668	1.8412e-06	23.278	0.00026647	0.00030606	7.854e-05	947.46	3.3274e-06	3.2455e-06	1086.4	205.14	3.1489e-06	3.2181e-06	264.33	77.436	56.772	15.918	2.9958e-06	23.748	209.190	142.715	152.975	92.175	247.001	241.562	92.293	100.111	221.892	249.350	99.488	106.400	107.479	114.145	249.940	113.574	-8191	255	
750.488	1	1	0	0	0.14675	0.14913	0.12793	0.35816	0.13531	0.2116	0.30643	0.0095905	0.1211	0.054646	0.084749	0.28219	0.076273	0.092791	0.063275	0.15617	-3.3396	-3.0833	-3.1667	-3.6396	-2.6354	-3.5604	-3.5792	-2.9083	-3.6979	-2.9437	-3.2667	-3.6229	-2.9479	-3.5312	-3.3479	-3.1312	229.485	115.148	207.913	347.481	327.927	410.946	426.061	165.768	401.117	206.996	413.638	432.258	397.589	88.730	207.165	395.741	0.00022658	0.00029871	7.9929e-05	959.16	4.0131e-06	3.0588e-06	1094.8	206.13	2.6878e-06	4.371e-06	265.65	77.186	56.302	15.602	2.8175e-06	23.318	0.00027211	0.00029879	7.985e-05	948.08	3.3659e-06	3.0511e-06	1084.9	205.02	2.9276e-06	3.3271e-06	264.45	77.332	56.731	15.899	3.088e-06	23.734	207.538	231.204	176.812	92.343	232.367	254.533	92.354	100.292	252.518	270.338	99.680	106.453	107.665	114.412	222.645	113.317	-8191	255	
750.559	1	1	0	0	0.20302	0.085706	0.27538	0.12103	0.10047	0.10184	0.18904	0.026542	0.19417	0.09248	0.10171	0.11129	0.17196	0.18876	0.32212	0.091237	-3.3125	-3.0479	-3.0271	-3.7313	-2.9	-3.5042	-3.7708	-2.8771	-3.5292	-2.9625	-3.1792	-3.6875	-2.9125	-3.4021	-3.5604	-2.8521	86.599	199.816	327.583	427.900	154.898	116.076	414.226	313.646	190.651	325.506	244.286	273.546	331.942	192.193	109.949	347.154	0.00022779	0.00029281	0.00010362	960.37	2.7223e-06	2.5431e-06	1096.5	206.01	2.3706e-06	2.9705e-06	264.14	77.445	56.359	15.599	1.7455e-06	23.374	0.0002747	0.00029879	8.5697e-05	948.11	3.5196e-06	3.2713e-06	1084	205.02	3.1964e-06	3.1686e-06	263.71	77.431	56.729	15.872	2.981e-06	23.697	213.427	169.458	179.991	92.352	280.458	223.445	92.414	100.100	243.771	261.713	99.749	106.635	107.001	114.647	283.108	113.761	-8191	255	
750.680	1	1	0	0	0.082265	0.27436	0.11911	0.24769	0.083072	0.13876	0.085562	0.14569	0.043995	0.10625	0.066488	0.22747	0.10143	0.24527	0.2629	0.11	-3.1292	-3.1646	-3.0896	-3.9917	-2.9833	-3.3312	-3.725	-2.9458	-3.6437	-3.3292	-3.1063	-3.7313	-2.8979	-3.175	-3.5583	-2.8937	228.096	203.763	322.982	411.458	408.454	313.061	118.201	412.735	92.951	122.578	191.215	330.968	437.428	436.475	124.467	323.719	0.00021324	0.00031087	8.4874e-05	961.12	2.6779e-06	2.9692e-06	1093.9	205.78	2.8095e-06	2.5237e-06	264.84	77.282	56.633	15.885	2.9679e-06	23.271	0.0002727	0.00029458	8.4717e-05	947.34	3.5544e-06	3.1721e-06	1083.3	204.92	3.1891e-06	3.3476e-06	263.55	77.466	56.86	15.932	3.0436e-06	23.691	207.539	164.683	202.787	92.454	241.110	236.844	92.377	100.173	247.989	237.730	99.903	106.442	107.261	114.448	230.401	113.366	-8191	255	
750.776	1	1	0	0	0.088916	0.25388	0.13076	0.053086	0.091214	0.33226	0.17718	0.17237	0.053065	0.10144	0.43956	0.048651	0.04747	0.12386	0.094462	0.12005	-3.2	-3.4125	-3.0417	-3.6042	-3.1167	-2.9896	-3.6604	-2.7875	-3.375	-3.25	-2.8937	-3.6271	-3.0833	-2.9083	-3.5854	-2.9917	406.767	124.492	267.227	264.455	293.666	402.197	389.717	394.102	252.087	407.665	363.073	362.558	98.584	201.998	424.777	440.111	0.00022471	0.00029567	9.9626e-05	960.43	1.795e-06	3.2675e-06	1096.3	205.68	2.5923e-06	3.0838e-06	264.93	76.787	56.615	15.692	9.6104e-07	23.262	0.00027436	0.00028964	8.1138e-05	947.13	3.5884e-06	3.2794e-06	1085.3	204.9	3.293e-06	3.15e-06	264.1	77.481	56.882	15.932	2.9971e-06	23.669	205.185	187.601	172.992	92.304	268.046	237.080	92.565	100.191	242.873	246.395	99.878	106.819	106.935	114.767	192.734	113.631	-8191	255	
750.872	1	1	0	0	0.049676	0.23992	0.13958	0.16989	0.19978	0.045414	0.075974	0.15711	0.17244	0.29042	0.20715	0.15841	0.047215	0.010231	0.28201	0.14203	-2.9333	-3.3729	-2.8042	-3.6875	-3.1042	-3.1063	-3.8688	-2.8937	-3.2146	-3.4979	-2.7729	-3.7042	-3.1646	-2.7771	-3.5438	-3.0792	283.514	145.897	276.126	96.469	123.338	337.619	414.835	377.566	382.312	359.962	90.453	349.050	84.276	216.883	277.974	363.474	0.00023102	0.00026234	6.2188e-05	965.35	2.0735e-06	2.8037e-06	1095.7	205.01	3.0287e-06	2.8017e-06	264.86	76.828	56.538	15.697	3.8404e-06	23.296	0.00027397	0.00027579	8.238e-05	948.63	3.2205e-06	3.1367e-06	1084	204.41	3.0628e-06	2.9424e-06	264.02	77.237	56.915	15.88	3.0284e-06	23.697	207.285	204.122	206.180	92.730	258.435	217.438	92.667	99.682	250.483	248.998	99.598	106.305	107.210	114.743	253.890	113.569	-8191	255	
750.993	1	1	0	0	0.33149	0.16488	0.13842	0.053918	0.036163	0.21447	0.35022	0.2998	0.09348	0.090224	0.1452	0.15235	0.25033	0.092881	0.20618	0.12203	-2.9146	-3.5354	-2.7167	-3.5792	-3.175	-3.0708	-3.7417	-2.9958	-2.9479	-3.5438	-2.8438	-3.5146	-3.525	-2.8438	-3.6437	-3.0458	320.475	342.262	175.842	434.258	116.140	152.491	381.110	419.533	114.343	416.919	127.327	393.859	382.489	425.782	417.585	413.511	0.00022869	0.00041433	7.5537e-05	962.49	3.1949e-06	2.307e-06	1095.9	206.25	2.2241e-06	2.7175e-06	265.55	76.961	56.706	15.575	4.0572e-06	23.218	0.0002693	0.00029544	8.1925e-05	948.04	3.2984e-06	3.3447e-06	1084.6	205.06	3.1672e-06	2.9937e-06	264.47	77.418	56.967	15.872	3.0229e-06	23.745	208.354	163.946	126.573	92.436	273.722	253.271	92.548	99.946	246.360	259.179	99.460	106.669	107.078	114.595	244.009	113.326	-8191	255	
751.089	1	1	0	0	0.14916	0.37712	0.20905	0.11377	0.12736	0.15076	0.32467	0.14735	0.20184	0.14061	0.13065	0.054889	0.094206	0.11327	0.064201	0.24806	-2.7188	-3.45	-2.7375	-3.4708	-3.3542	-2.7875	-3.5563	-3.0187	-3.1417	-3.6875	-3.0521	-3.2896	-3.6521	-2.9229	-3.4958	-3.1479	86.106	86.462	100.555	84.556	301.906	195.709	318.494	336.419	287.668	352.172	216.264	136.417	377.242	260.872	92.521	350.430	0.00022934	0.00032728	6.5587e-05	962.9	3.688e-06	3.1448e-06	1100.6	205.12	2.4994e-06	9.3479e-07	262.25	77.051	56.458	15.746	2.9027e-06	23.299	0.00027424	0.00028812	8.1264e-05	949.77	3.0788e-06	3.0566e-06	1085.4	204.96	3.1314e-06	3.0309e-06	263.37	77.527	56.878	15.932	2.943e-06	23.72	204.870	152.597	179.351	92.577	248.927	257.166	92.489	100.167	227.111	272.012	99.693	106.899	106.964	114.398	256.123	114.060	-8191	255	
751.161	1	1	0	0	0.22746	0.086491	0.21223	0.12619	0.13627	0.1271	0.37174	0.14275	0.20466	0.12532	0.095479	0.07766	0.1177	0.29905	0.060047	0.10643	-2.5271	-3.6229	-2.8042	-3.3771	-3.5	-2.7271	-3.7833	-3.1625	-2.9938	-3.8438	-3.1083	-3.4938	-3.4708	-2.7875	-3.5604	-3.2438	163.301	295.639	240.010	123.616	397.855	376.872	357.797	404.602	417.880	267.028	336.857	392.638	399.038	358.753	316.039	213.941	0.00024231	0.00034341	4.3188e-05	963.86	3.475e-06	7.1734e-07	1105.4	205.07	1.8983e-06	2.6545e-06	265.31	76.978	56.429	15.707	2.4534e-06	23.485	0.00029253	0.0002822	8.1742e-05	951.46	3.223e-06	3.3075e-06	1087.6	205.03	3.1359e-06	2.941e-06	264.04	77.484	56.759	15.918	3.033e-06	23.76	209.063	156.630	175.843	92.384	234.602	264.089	92.755	99.980	252.905	228.476	99.613	106.613	107.588	114.640	242.969	113.773	-8191	255	
751.257	1	1	0	0	0.23248	0.16928	0.22042	0.14844	0.056734	0.13358	0.21025	0.28329	0.16071	0.27027	0.031216	0.15617	0.20595	0.056833	0.18117	0.072529	-2.5729	-3.6813	-3.0521	-3.2687	-3.5021	-2.9188	-3.7479	-3.4208	-2.975	-3.7562	-3.0854	-3.2521	-3.8104	-2.9854	-3.5458	-3.5708	138.722	218.678	377.105	151.476	260.033	138.045	399.901	385.005	85.750	92.236	333.758	103.854	93.647	142.027	199.393	308.539	0.0002363	0.00029566	8.1168e-05	963.73	3.3286e-06	4.6652e-06	1099.1	205.14	2.8142e-06	1.6428e-06	262.42	76.68	55.933	15.671	2.2558e-06	23.372	0.00027748	0.00027309	8.1127e-05	950.72	3.165e-06	3.2024e-06	1084.9	204.31	3.1777e-06	3.0641e-06	263.23	77.252	56.599	15.881	2.9739e-06	23.711	210.662	119.654	178.316	92.565	244.799	257.957	92.557	100.016	237.481	172.108	99.892	106.749	107.358	115.154	242.171	113.434	-8191	255	
751.353	1	1	0	0	0.071722	0.058013	0.035626	0.30989	0.15518	0.10044	0.30741	0.16706	0.24155	0.13863	0.22145	0.060014	0.49094	0.17029	0.19182	0.26393	-2.475	-3.5021	-3.075	-3.1354	-3.7417	-2.9833	-3.4562	-3.4667	-2.8479	-3.7313	-3.275	-3.1458	-3.6333	-3.1167	-3.3667	-3.5958	150.581	337.847	265.019	404.310	213.213	425.202	391.165	388.173	103.663	112.465	354.445	239.162	421.688	389.010	151.503	163.582	0.0002345	0.00025165	0.00011532	962.53	2.0354e-06	2.2005e-06	1095.9	204.19	3.5386e-06	2.891e-06	263.24	76.877	56.383	15.524	2.5744e-06	23.325	0.00026849	0.00027252	7.8334e-05	946.97	3.0672e-06	3.1191e-06	1082.4	203.74	3.1911e-06	3.1736e-06	262.58	77.124	56.661	15.803	3.1628e-06	23.638	211.178	164.726	181.195	92.461	233.994	250.494	92.758	100.491	261.545	262.577	99.587	106.673	107.400	114.591	230.551	113.827	-8191	255	
751.472	1	1	0	0	0.18337	0.07627	0.23428	0.085363	0.20153	0.044057	0.16793	0.29523	0.23579	0.09156	0.1443	0.25448	0.22857	0.094783	0.012965	0.039565	-2.5417	-3.3833	-3.4021	-3.0375	-3.7396	-2.9604	-3.4375	-3.6	-2.8417	-3.6813	-3.4104	-2.8646	-3.8187	-2.9604	-3.1875	-3.7021	184.414	328.869	404.781	289.171	373.204	195.474	394.994	94.214	337.563	320.349	87.551	387.003	435.012	363.917	391.684	112.929	0.00022735	0.00036201	0.00010206	956.85	2.9215e-06	4.0094e-06	1097.2	204.35	2.5301e-06	3.5499e-06	262.13	76.652	56.562	15.406	2.917e-06	23.203	0.00028344	0.00027403	7.8243e-05	944.44	3.0751e-06	3.0973e-06	1078.9	203.31	3.2118e-06	3.2222e-06	261.95	77.154	56.689	15.761	3.0275e-06	23.63	208.606	182.174	179.778	92.858	235.738	219.610	92.822	100.220	255.230	210.988	99.618	107.234	108.023	114.741	268.326	114.334	-8191	255	
751.568	1	1	0	0	0.04435	0.057429	0.22755	0.20031	0.25163	0.063856	0.21973	0.23976	0.055823	0.30599	0.36632	0.13594	0.31147	0.21827	0.30902	0.030165	-2.6583	-3.4208	-3.5187	-2.9375	-3.7792	-3.1896	-3.2583	-3.8896	-2.7083	-3.4437	-3.65	-2.9604	-3.6625	-3.0354	-3.0146	-3.6042	274.856	169.755	246.891	417.679	214.867	341.583	272.441	89.835	338.909	309.507	102.639	138.682	374.953	366.410	378.709	358.272	0.00021628	0.0003626	9.3941e-05	956.6	2.4442e-06	3.4648e-06	1096.1	204.56	3.8339e-06	3.2449e-06	262.54	76.772	56.294	15.642	3.4901e-06	23.19	0.00027735	0.00029389	7.2556e-05	942.6	3.1016e-06	3.1952e-06	1078.2	203.62	3.1647e-06	3.1454e-06	261.38	76.94	56.591	15.838	3.0449e-06	23.557	216.088	182.517	168.945	92.894	251.422	229.346	93.304	101.136	260.886	261.596	100.679	107.879	108.279	115.156	245.130	113.872	-8191	255	
751.664	1	1	0	0	0.16482	0.13263	0.10383	0.12451	0.20813	0.11827	0.19641	0.19954	0.18965	0.23284	0.24948	0.20087	0.19643	0.15318	0.092555	0.097923	-2.5083	-3.4104	-3.3708	-2.9667	-3.6813	-3.2167	-3.1042	-3.7521	-2.8917	-3.3271	-3.8104	-2.8146	-3.7583	-3.35	-2.9562	-3.675	304.917	267.786	283.852	176.167	287.656	107.125	326.409	346.398	273.678	86.594	83.027	102.301	440.886	380.544	235.518	159.089	0.00021237	0.00025149	6.3601e-05	953.47	3.0963e-06	3.8815e-06	1086	205	2.9109e-06	2.4663e-06	262.77	76.33	56.338	15.529	2.6383e-06	23.285	0.00027162	0.00030385	7.7753e-05	940.75	3.1654e-06	2.9832e-06	1075.7	203.07	3.1395e-06	3.0786e-06	261.78	76.9	56.631	15.825	3.1907e-06	23.61	210.809	188.920	210.403	92.438	243.583	261.945	92.867	100.789	257.610	238.169	99.996	107.454	107.588	114.878	236.644	114.356	-8191	255	
751.785	1	1	0	0	0.19567	0.14193	0.28973	0.059188	0.036853	0.06928	0.30424	0.13226	0.15642	0.16623	0.072492	0.23623	0.05964	0.092345	0.083825	0.15042	-2.775	-3.3271	-3.6417	-2.9229	-3.4167	-3.4292	-2.8063	-3.7687	-2.9979	-3.1688	-3.7562	-2.9667	-3.6208	-3.3979	-2.8979	-3.7146	220.292	280.529	368.787	177.813	366.996	405.855	366.922	146.821	286.071	146.297	175.094	83.948	265.062	228.180	307.390	102.524	0.00023954	0.00032047	5.2281e-05	952.76	2.5946e-06	1.9977e-06	1091.6	204.21	2.8828e-06	4.1026e-06	263.48	76.316	56.578	15.715	2.8786e-06	23.252	0.0002812	0.00028526	7.8904e-05	941.15	3.0635e-06	2.9429e-06	1075.9	203.44	3.0929e-06	3.1227e-06	261.58	76.852	56.759	15.861	3.1971e-06	23.652	212.020	167.394	168.701	93.020	256.755	197.154	93.499	100.694	246.027	209.745	100.355	107.153	108.298	115.730	245.641	114.310	-8191	255	
751.856	1	1	0	0	0.23871	0.31399	0.12919	0.10935	0.14518	0.073143	0.30401	0.24292	0.038916	0.25772	0.16108	0.36092	0.15542	0.10889	0.12086	0.11213	-2.6417	-3.2521	-3.5708	-2.9771	-3.5729	-3.3896	-2.8979	-3.7646	-3.1792	-2.8812	-3.7146	-2.9125	-3.4375	-3.6583	-2.7354	-3.5521	140.727	245.321	137.554	415.617	146.681	425.582	336.454	418.760	354.779	145.386	284.054	395.723	363.559	198.920	438.148	385.660	0.00022163	0.00028729	4.3604e-05	954.58	3.1806e-06	2.2085e-06	1095.1	204.82	3.5194e-06	3.7816e-06	260.45	76.497	55.867	15.654	4.4139e-06	23.208	0.00027619	0.00027816	7.4334e-05	941.31	3.1207e-06	2.7776e-06	1080.5	203.31	3.1262e-06	3.2004e-06	261.46	77.105	56.592	15.835	2.9946e-06	23.75	207.180	188.196	153.344	92.423	226.157	238.648	92.496	100.338	250.318	238.790	100.012	106.349	107.337	114.386	257.426	113.816	-8191	255	
751.953	1	1	0	0	0.2447	0.059889	0.11179	0.058634	0.097871	0.25759	0.11862	0.15951	0.16475	0.020948	0.039566	0.11802	0.14992	0.1562	0.099464	0.074957	-3.0062	-3.0333	-3.6188	-3.1083	-3.3167	-3.4896	-3.0646	-3.5896	-3.2271	-2.8729	-3.6708	-3.2188	-3.2167	-3.4625	-2.7208	-3.5396	164.503	278.716	193.650	313.600	256.110	238.581	236.252	366.301	441.889	320.076	196.300	348.912	301.101	371.887	103.325	98.868	0.00023272	0.00037096	7.2417e-05	955.39	3.8376e-06	1.9897e-06	1090.7	203.57	2.3494e-06	3.3737e-06	259.96	76.4	56.085	15.498	2.8915e-06	23.238	0.00028233	0.0003012	7.6454e-05	941.02	3.189e-06	3.0158e-06	1077.5	203.23	3.0048e-06	3.229e-06	261.07	77.032	56.565	15.775	3.0753e-06	23.676	208.385	175.440	176.873	92.372	254.827	232.925	92.472	100.244	283.795	219.287	99.615	106.947	107.626	114.729	244.610	113.403	-8191	255	
752.073	1	1	0	0	0.17314	0.15381	0.10153	0.22438	0.21045	0.20193	0.17569	0.23209	0.10434	0.17311	0.20043	0.040112	0.21211	0.20402	0.24017	0.043171	-2.9542	-3.0292	-3.6	-2.9333	-2.9833	-3.6458	-2.8667	-3.3563	-3.4354	-2.8563	-3.7938	-3.1833	-3.1271	-3.6917	-2.8896	-3.3458	290.566	304.140	158.024	421.591	331.065	366.344	382.281	378.167	158.196	369.900	427.241	243.503	408.755	93.542	98.086	379.876	0.0002255	0.00025262	5.3128e-05	953.88	3.839e-06	1.9415e-06	1088.2	203.67	2.108e-06	1.2455e-06	262.09	76.748	56.356	15.579	1.8835e-06	23.354	0.00027762	0.00029511	7.7833e-05	938.81	3.2251e-06	2.8364e-06	1076.7	203.37	3.0559e-06	3.1559e-06	262.1	77.122	56.463	15.808	3.0669e-06	23.657	208.481	153.728	168.683	92.480	231.552	256.838	92.442	100.433	269.303	292.412	99.551	107.204	107.504	114.783	283.198	114.064	-8191	255	
752.169	1	1	0	0	0.16999	0.1324	0.086721	0.32347	0.066467	0.094808	0.11087	0.085657	0.23371	0.15741	0.2355	0.15719	0.059501	0.22635	0.19765	0.4189	-3.1208	-2.8542	-3.7104	-3.2292	-3.0417	-3.6333	-2.9604	-3.35	-3.4854	-2.8542	-3.7917	-3.4	-3.025	-3.6354	-3.1083	-3.2792	383.076	221.693	233.798	422.817	141.003	120.591	165.850	246.904	403.190	197.850	363.023	182.604	175.189	338.313	159.586	93.878	0.0002244	0.00023592	6.2257e-05	954.53	2.6071e-06	4.108e-06	1088.2	203.56	2.4713e-06	3.096e-06	260.75	76.578	56.605	15.6	3.2099e-06	23.363	0.00027014	0.00028951	7.8813e-05	939.36	3.2462e-06	2.865e-06	1073.2	202.94	2.9971e-06	3.2186e-06	260.45	76.914	56.657	15.806	3.3032e-06	23.713	207.243	183.530	174.564	92.219	237.463	228.150	92.531	100.589	251.869	255.520	99.834	106.530	107.570	114.413	222.322	113.431	-8191	255	
752.264	1	1	0	0	0.083453	0.03946	0.1435	0.164	0.15652	0.2218	0.17841	0.30182	0.12116	0.14113	0.16807	0.22698	0.0096278	0.12009	0.19895	0.16893	-3.2167	-2.825	-3.4833	-3.3771	-3.0542	-3.5896	-3.2646	-3.2646	-3.5833	-2.8146	-3.4604	-3.3563	-2.8	-3.7	-2.9896	-3.2146	388.970	165.798	124.336	113.404	159.955	124.794	427.965	418.493	425.320	111.772	383.017	95.720	105.401	380.746	157.938	86.693	0.00022293	0.00034752	8.3352e-05	953	3.2353e-06	4.1274e-06	1089.2	203.96	2.4182e-06	3.5984e-06	261.31	76.966	56.463	15.558	3.3287e-06	23.423	0.00026001	0.00027517	8.1845e-05	937.82	3.3411e-06	2.9334e-06	1075.2	203.03	2.9812e-06	3.2027e-06	260.88	77.083	56.594	15.809	3.0571e-06	23.708	211.515	164.283	170.681	92.350	258.632	205.802	92.391	100.441	260.222	235.806	99.929	106.882	107.331	114.509	256.180	113.475	-8191	255	
752.362	1	1	0	0	0.15626	0.04794	0.12491	0.17872	0.12245	0.15234	0.14194	0.041155	0.24849	0.10282	0.27393	0.10874	0.20646	0.014254	0.057394	0.057761	-3.2812	-3.0333	-3.4771	-3.3979	-2.8021	-3.6146	-3.4604	-3.0854	-3.5938	-2.9833	-3.5292	-3.35	-2.8646	-3.6667	-3.2729	-2.8875	323.668	366.485	145.883	302.200	98.824	374.598	109.630	363.706	323.735	301.341	351.381	100.782	428.284	217.464	130.483	112.213	0.00022094	0.00026864	0.00013113	953.03	3.5187e-06	1.3778e-06	1083.6	203.72	2.1345e-06	2.9782e-06	261.65	76.448	56.033	15.723	2.9833e-06	23.226	0.0002698	0.00028968	8.1423e-05	938.54	3.1973e-06	2.9764e-06	1072.6	202.9	3.0397e-06	3.2245e-06	260.95	76.893	56.459	15.836	2.9646e-06	23.637	208.337	188.297	171.939	92.315	240.729	243.234	92.645	100.685	245.825	253.233	99.825	106.491	107.965	114.516	230.589	113.637	-8191	255	
752.456	1	1	0	0	0.14117	0.10604	0.07735	0.16506	0.25897	0.32286	0.21079	0.15105	0.037929	0.090722	0.085751	0.18614	0.27786	0.13309	0.029067	0.35962	-3.2313	-2.7958	-3.2979	-3.6562	-2.8667	-3.5229	-3.325	-3.1167	-3.6063	-2.8958	-3.2833	-3.4292	-3.0021	-3.5417	-3.3729	-3.0396	378.501	191.149	370.276	401.296	316.146	220.727	329.211	326.379	203.538	309.094	83.707	346.993	180.580	177.053	157.262	412.126	0.00022348	9.703e-05	9.7513e-05	951.71	3.9729e-06	2.5058e-06	1087	202.82	2.8849e-06	3.0127e-06	260.64	76.401	56.117	15.684	3.595e-06	23.235	0.00025958	0.00028155	8.4535e-05	938.92	3.3639e-06	2.8944e-06	1073.8	202.83	3.0661e-06	3.1309e-06	261.4	76.959	56.492	15.849	3.0533e-06	23.551	210.472	155.530	198.517	92.377	268.945	251.134	92.726	100.161	247.297	208.636	99.740	106.866	107.519	114.303	250.506	113.699	-8191	255	
752.552	1	1	0	0	0.11123	0.27107	0.10217	0.07128	0.094523	0.062343	0.066766	0.066816	0.11656	0.12595	0.040681	0.13284	0.15463	0.080249	0.082557	0.023711	-3.2375	-2.9125	-3.0896	-3.7458	-2.8333	-3.5958	-3.5479	-2.8958	-3.5542	-3.0458	-3.1437	-3.6771	-2.8708	-3.4042	-3.3187	-2.8312	262.049	294.129	277.488	314.487	271.568	86.044	342.070	307.929	114.746	98.416	142.631	387.351	117.224	103.646	303.162	298.854	0.00020769	0.00040351	6.4108e-05	954.73	2.5546e-06	2.6805e-06	1085.5	202.33	3.5033e-06	2.2393e-06	262.04	76.81	56.327	15.497	2.9743e-06	23.277	0.00025816	0.00029442	7.9748e-05	940.18	3.3378e-06	2.9424e-06	1075	202.72	3.0872e-06	3.0832e-06	261.36	76.905	56.482	15.794	2.9755e-06	23.64	210.035	165.501	191.874	92.388	281.168	274.861	92.638	100.424	243.345	214.422	99.676	107.012	107.645	114.282	235.972	113.951	-8191	255	
752.673	1	1	0	0	0.15999	0.032504	0.14292	0.018555	0.11962	0.17073	0.074874	0.23278	0.085338	0.19898	0.1439	0.099788	0.24885	0.070555	0.051842	0.24388	-3.2729	-3.0708	-2.9604	-3.7042	-2.9479	-3.4979	-3.6229	-2.8104	-3.6354	-3.1063	-2.9042	-3.7042	-3.0833	-3.3	-3.6333	-2.7875	87.244	193.970	298.549	284.388	171.502	332.876	428.918	144.643	190.434	260.537	318.437	387.431	150.498	439.113	266.544	435.655	0.00023637	0.00036026	8.9811e-05	948.67	1.779e-06	2.5352e-06	1088.5	203.53	2.795e-06	2.8998e-06	262.14	76.926	56.093	15.559	3.1953e-06	23.287	0.00026631	0.00028449	7.7103e-05	937.86	3.182e-06	3.0792e-06	1076.2	202.92	2.9816e-06	3.0809e-06	261.19	76.922	56.324	15.813	2.9531e-06	23.59	204.518	171.435	207.250	92.351	249.644	215.581	92.855	100.583	242.167	215.970	99.764	106.625	107.334	114.743	229.059	113.964	-8191	255	
752.769	1	1	0	0	0.21305	0.079058	0.21539	0.10637	0.12542	0.12803	0.12796	0.037356	0.10082	0.087178	0.26752	0.26008	0.2422	0.31438	0.26237	0.029346	-3.2938	-3.1375	-2.8312	-3.725	-2.9875	-3.2896	-3.6979	-2.7792	-3.6333	-3.3979	-2.9542	-3.5479	-3.0021	-3.1167	-3.6854	-2.7771	118.796	348.799	438.868	163.464	185.172	189.587	386.031	130.614	363.968	177.100	91.028	403.305	120.574	331.215	127.325	266.194	0.00023134	0.00016579	0.0001091	950.21	3.3983e-06	2.3189e-06	1088	203.09	2.0088e-06	3.2046e-06	263.47	76.545	56.038	15.642	1.3889e-06	23.092	0.00026248	0.00026537	8.4922e-05	939.09	3.2255e-06	3.1358e-06	1074.9	202.48	3.0714e-06	2.9887e-06	261.51	76.935	56.526	15.853	2.9328e-06	23.586	212.806	173.668	199.857	92.640	236.129	231.644	92.553	100.435	224.593	221.143	100.238	106.567	107.273	114.910	196.543	113.895	-8191	255	
752.865	1	1	0	0	0.15207	0.11372	0.17431	0.075817	0.2097	0.041201	0.38053	0.21782	0.24812	0.053541	0.084554	0.24508	0.10449	0.15336	0.21658	0.085588	-2.9917	-3.2875	-2.9667	-3.6792	-3.0312	-3.2271	-3.7604	-2.9146	-3.3792	-3.4188	-2.8833	-3.6958	-3.1104	-3.0146	-3.5292	-2.9354	175.084	132.555	180.790	192.243	382.214	194.410	320.698	430.458	125.503	375.491	425.115	111.509	284.510	110.884	357.866	398.088	0.00023559	0.00027079	8.6026e-05	951.83	3.793e-06	2.8643e-06	1080.2	203.44	2.2965e-06	3.9205e-06	260.16	76.725	56.344	15.522	2.3619e-06	23.12	0.00026312	0.00028044	8.3828e-05	935.89	3.2599e-06	3.105e-06	1070.8	202.88	3.0442e-06	2.9342e-06	260.58	76.926	56.4	15.802	2.8715e-06	23.512	212.407	152.396	158.245	92.677	234.916	242.772	92.373	100.289	234.809	223.569	100.179	106.856	107.356	114.706	221.341	113.906	-8191	255	
752.961	1	1	0	0	0.10591	0.20989	0.039773	0.25341	0.10029	0.05699	0.15354	0.22145	0.036397	0.12569	0.16429	0.28387	0.15183	0.14681	0.071105	0.30688	-3.0708	-3.4604	-2.775	-3.6354	-3.2167	-2.8125	-3.975	-3.2229	-3.1437	-3.5021	-2.7771	-3.5312	-3.2625	-2.9333	-3.6437	-2.9625	250.796	177.828	134.532	346.608	440.239	193.732	372.065	123.426	242.211	437.600	325.491	380.740	385.970	232.459	86.728	408.137	0.00021882	0.00030463	8.2043e-05	946.9	2.9142e-06	2.7334e-06	1082.9	203.08	2.4762e-06	1.9349e-06	260.92	76.392	56.276	15.569	3.0675e-06	23.16	0.00026235	0.0002643	8.0112e-05	933.44	3.2996e-06	3.2581e-06	1071.2	201.96	3.0437e-06	2.9242e-06	260.13	76.731	56.462	15.787	3.0495e-06	23.624	212.070	192.801	193.701	92.758	266.863	213.672	93.006	100.574	251.147	215.508	99.601	106.638	107.482	114.885	258.447	114.030	-8191	255	
753.033	1	1	0	0	0.23239	0.26279	0.28463	0.073583	0.27914	0.37597	0.089002	0.30061	0.091156	0.26335	0.13615	0.1859	0.17666	0.052435	0.057342	0.15825	-2.9042	-3.6208	-2.8604	-3.6333	-3.3771	-3.0292	-3.7458	-3.1396	-3.1083	-3.6417	-2.9083	-3.6354	-3.3521	-2.8958	-3.6854	-3.1271	440.509	128.860	159.302	367.315	201.739	252.472	428.144	357.524	270.304	360.096	280.201	366.160	369.577	333.522	267.302	349.292	0.00022015	0.00029635	6.8494e-05	946.26	1.9474e-06	2.775e-06	1084.2	202.87	2.4609e-06	3.5235e-06	260.55	76.607	56.079	15.725	2.318e-06	23.13	0.00028353	0.0002746	7.9884e-05	933.92	3.1555e-06	3.1594e-06	1070.7	202.28	3.0722e-06	3.1104e-06	260.33	76.687	56.367	15.842	2.8825e-06	23.524	209.038	185.607	193.835	92.785	230.961	265.870	92.890	100.491	266.863	268.261	100.066	106.968	107.468	114.919	237.142	113.899	-8191	255	
753.154	1	1	0	0	0.24845	0.26996	0.26535	0.35813	0.0674	0.12784	0.21607	0.17105	0.17752	0.2504	0.15473	0.31692	0.052416	0.42184	0.10199	0.26185	-2.6125	-3.6875	-2.9625	-3.6417	-3.3812	-2.7146	-3.7396	-3.1063	-3.1667	-3.6146	-3.1063	-3.1354	-3.4792	-2.8792	-3.625	-3.1375	204.291	126.422	340.642	291.948	296.232	329.231	372.178	380.207	431.307	300.643	146.159	92.561	360.741	357.891	310.030	409.184	0.00023448	0.00021773	5.6467e-05	950.83	3.76e-06	3.4241e-06	1083.8	203.01	2.874e-06	4.533e-06	260.37	76.051	55.984	15.455	2.4467e-06	23.051	0.00027821	0.000261	8.3383e-05	935.63	3.1509e-06	3.0946e-06	1069.5	202.12	3.023e-06	2.9823e-06	259.76	76.564	56.346	15.711	2.8369e-06	23.557	212.932	164.222	156.564	92.664	227.178	215.888	92.787	100.790	261.741	233.598	99.985	106.975	107.835	114.965	250.968	113.770	-8191	255	
753.248	1	1	0	0	0.095941	0.088351	0.23011	0.2043	0.08069	0.1357	0.2176	0.19677	0.13693	0.11913	0.11078	0.083789	0.01721	0.32634	0.21689	0.22113	-2.6042	-3.5896	-2.7896	-3.3625	-3.4688	-2.8937	-3.7687	-3.3438	-2.925	-3.7292	-3.0875	-3.2271	-3.675	-2.9333	-3.5604	-3.5042	364.528	119.330	394.570	215.157	232.171	360.998	390.648	411.330	416.325	399.922	423.201	129.541	440.014	87.234	198.807	387.331	0.00021721	7.4284e-05	8.0825e-05	943.64	3.3313e-06	2.386e-06	1088.4	202.91	1.6272e-06	2.974e-06	260.84	76.342	55.77	15.581	3.101e-06	23.285	0.00026953	0.00027293	8.1423e-05	932.81	3.0196e-06	3.1938e-06	1071.7	202.13	3.2167e-06	2.986e-06	260.04	76.733	56.282	15.776	2.9916e-06	23.573	211.397	145.285	163.659	92.855	251.187	257.884	92.875	100.361	271.791	229.940	99.993	107.067	107.673	114.695	241.750	114.053	-8191	255	
753.344	1	1	0	0	0.21639	0.15947	0.19809	0.13659	0.077636	0.16138	0.070231	0.15405	0.057515	0.14058	0.26511	0.10106	0.25972	0.2357	0.036495	0.059005	-2.6125	-3.7958	-3.0417	-3.2458	-3.5687	-2.7667	-3.5729	-3.6229	-2.8563	-3.6021	-3.15	-3.0979	-3.6646	-2.8646	-3.4167	-3.5312	322.684	177.129	160.815	365.144	318.237	439.051	360.729	372.092	139.416	284.070	423.430	173.843	414.038	418.249	397.875	373.641	0.00022443	0.00022009	5.6635e-05	942.56	4.5849e-06	1.3329e-06	1084.4	202.33	2.2332e-06	2.0238e-06	261.69	76.155	56.314	15.566	3.5435e-06	23.247	0.00027293	0.00026271	8.3247e-05	932.96	2.95e-06	2.9239e-06	1069.2	202.09	3.0669e-06	2.9428e-06	260.69	76.629	56.376	15.766	2.9591e-06	23.546	211.330	219.690	142.789	92.832	254.760	188.619	92.646	100.662	264.265	268.401	99.913	106.743	107.534	114.757	233.907	113.887	-8191	255	
753.442	1	1	0	0	0.12104	0.08826	0.22542	0.11863	0.2756	0.093906	0.19904	0.14663	0.054054	0.21058	0.22573	0.17964	0.10501	0.15858	0.14457	0.050327	-2.4437	-3.475	-3.2271	-3.0833	-3.5854	-2.9396	-3.2729	-3.5583	-2.9688	-3.5396	-3.4562	-2.9083	-3.7792	-3.0792	-3.4	-3.5792	225.369	379.457	242.717	134.072	165.630	115.217	135.359	418.974	401.285	148.517	419.922	412.676	428.339	125.148	412.639	123.685	0.00023049	0.00033581	6.6443e-05	945.68	2.4842e-06	1.9154e-06	1078.3	202.97	3.4801e-06	1.5764e-06	259.5	76.125	55.831	15.591	2.9368e-06	23.363	0.00027003	0.00027015	8.0694e-05	932.33	3.0387e-06	3.2491e-06	1067.7	202.16	3.0279e-06	3.0146e-06	259.12	76.609	56.168	15.735	3.1235e-06	23.596	206.797	163.312	192.401	92.633	247.419	242.372	93.090	100.631	244.581	230.619	100.282	107.559	108.322	115.924	255.781	114.916	-8191	255	
753.561	1	1	0	0	0.11132	0.1959	0.1092	0.30353	0.073309	0.12855	0.34341	0.31587	0.094094	0.033557	0.07521	0.20038	0.091375	0.18376	0.10788	0.18594	-2.4208	-3.6437	-3.275	-2.85	-3.6771	-3.2021	-3.3563	-3.8375	-2.9104	-3.6521	-3.4042	-2.8917	-3.7958	-3.0583	-3.1063	-3.8417	430.805	332.407	128.574	439.504	157.304	155.001	433.903	388.222	132.323	147.427	88.828	87.907	297.241	334.955	182.422	362.438	0.00022658	0.00044136	5.6508e-05	947.89	1.93e-06	4.0636e-06	1076.5	201.33	2.6979e-06	3.1952e-06	261.47	75.566	55.895	15.483	2.0643e-06	23.149	0.00027048	0.00026827	8.213e-05	932.07	3.0109e-06	3.062e-06	1066.3	201.73	3.2069e-06	3.0046e-06	259.8	76.393	56.226	15.709	2.9899e-06	23.593	209.141	174.955	158.207	93.342	246.591	248.435	93.981	101.280	256.513	223.594	100.881	107.988	108.463	115.770	277.106	114.741	-8191	255	
753.657	1	1	0	0	0.085859	0.070209	0.056436	0.27609	0.11396	0.30168	0.26984	0.043376	0.18464	0.15774	0.24629	0.071708	0.16348	0.29265	0.1554	0.18152	-2.475	-3.3854	-3.5	-2.9375	-3.5687	-3.2229	-3.3438	-3.7583	-2.9417	-3.45	-3.7042	-2.8833	-3.5125	-3.2708	-3.0396	-3.8604	307.293	246.947	125.772	395.794	317.088	114.327	333.187	429.781	229.067	307.905	206.756	121.487	156.803	97.731	142.031	293.006	0.0002215	0.00016459	0.00011389	945.79	3.7316e-06	3.3204e-06	1076.7	202.27	3.026e-06	3.0969e-06	261.2	75.978	56.218	15.526	2.5976e-06	23.322	0.00028396	0.00026586	7.1952e-05	931.66	2.9691e-06	3.0212e-06	1066.1	201.75	3.1266e-06	2.8788e-06	259.85	76.49	56.276	15.737	2.9007e-06	23.522	204.213	122.198	196.188	93.021	256.329	215.459	93.564	100.964	262.912	245.747	100.033	107.079	107.840	114.572	254.897	113.380	-8191	255	
753.753	1	1	0	0	0.13273	0.12299	0.071003	0.25849	0.16815	0.1435	0.038977	0.15835	0.096437	0.086137	0.21198	0.17723	0.27064	0.16739	0.13356	0.065134	-2.6229	-3.2604	-3.4458	-2.95	-3.4958	-3.2646	-3.1896	-3.6958	-2.8708	-3.3396	-3.4917	-2.9917	-3.5146	-3.4833	-2.7396	-3.7354	292.665	300.053	135.122	422.741	436.500	315.825	277.929	361.267	256.011	117.758	365.396	118.169	402.525	433.759	165.489	162.912	0.0002365	0.00020281	7.8329e-05	944.78	3.1097e-06	2.882e-06	1078.6	202.52	2.3779e-06	2.4462e-06	261.5	75.503	56.07	15.523	3.044e-06	23.159	0.00028025	0.00026153	7.2966e-05	932.16	2.8999e-06	3.0086e-06	1066.3	201.34	2.9812e-06	3.0132e-06	259.9	76.444	56.158	15.734	3.1062e-06	23.504	207.849	150.427	184.050	92.354	266.698	220.017	92.807	100.286	265.887	253.353	99.424	106.505	107.601	115.228	271.550	114.264	-8191	255	
753.849	1	1	0	0	0.26202	0.044748	0.15421	0.12555	0.16858	0.066133	0.14608	0.10223	0.18928	0.044934	0.13746	0.11156	0.37043	0.14407	0.15615	0.087241	-2.6917	-3.1937	-3.6479	-2.8146	-3.4417	-3.3896	-2.9708	-3.6896	-3.0417	-3.1562	-3.7167	-2.85	-3.5083	-3.3625	-2.7958	-3.6583	249.612	399.916	442.162	157.287	146.580	122.926	397.767	349.757	395.100	261.683	183.375	166.507	363.027	398.842	357.431	257.154	0.00023851	0.00023183	6.0968e-05	944.93	3.6614e-06	3.2739e-06	1080.7	202.99	2.8293e-06	3.4591e-06	260.68	76.622	56.01	15.513	2.0297e-06	23.05	0.00026973	0.00026745	7.6545e-05	930.84	3.112e-06	2.9456e-06	1067.3	202.26	2.9751e-06	3.0714e-06	259.3	76.718	56.195	15.766	3.055e-06	23.518	210.092	175.689	162.703	92.989	231.692	238.488	92.806	100.380	271.594	249.462	99.917	106.915	107.792	115.087	254.530	114.252	-8191	255	
753.945	1	1	0	0	0.058493	0.40814	0.1546	0.14557	0.26851	0.11246	0.29953	0.12871	0.057328	0.039319	0.23863	0.18087	0.04371	0.089291	0.20546	0.020286	-2.8104	-3.1229	-3.7396	-2.9667	-3.4062	-3.55	-3.0479	-3.6021	-3.1937	-3.0812	-3.7833	-2.8771	-3.2854	-3.5771	-2.8271	-3.6167	403.543	280.720	406.097	221.019	313.338	305.891	382.045	401.872	380.552	225.925	103.698	200.052	103.929	332.042	148.901	349.229	0.00022421	0.00020803	8.8794e-05	944.96	2.1096e-06	2.4518e-06	1081.7	203.39	2.4661e-06	3.1062e-06	261.68	76.183	55.702	15.583	3.0958e-06	23.094	0.00027195	0.00028151	7.4083e-05	931.45	3.158e-06	3.1055e-06	1068.2	202.28	2.9212e-06	3.0459e-06	260.44	76.697	56.088	15.809	3.0686e-06	23.564	214.822	207.066	188.390	92.370	261.284	231.315	93.269	100.758	269.934	231.120	99.786	107.106	107.729	114.442	229.495	113.174	-8191	255	
754.042	1	1	0	0	0.20282	0.11628	0.23799	0.22826	0.33052	0.1278	0.15758	0.0056568	0.066315	0.37518	0.29349	0.081288	0.17064	0.057216	0.050647	0.17154	-2.8667	-2.9708	-3.6104	-3.0167	-3.1917	-3.6458	-3.0417	-3.425	-3.2771	-2.8229	-3.5896	-3.0729	-3.2375	-3.6521	-2.8354	-3.5146	318.055	172.668	391.345	398.563	189.550	161.492	356.725	291.499	368.904	425.848	371.003	112.617	148.991	167.093	286.508	148.184	0.00021391	0.00026261	0.00013229	944.73	2.6965e-06	3.7821e-06	1081.7	203.72	2.8854e-06	4.7895e-06	260.21	75.887	56.132	15.525	2.1326e-06	23.03	0.00026572	0.00027354	7.5132e-05	933.53	3.0672e-06	3.014e-06	1069	202.13	2.9707e-06	3.2921e-06	260.1	76.609	56.181	15.733	3.1666e-06	23.518	211.992	164.966	178.897	92.016	254.065	245.259	92.277	99.997	266.773	230.211	99.348	106.515	107.260	114.206	239.536	113.039	-8191	255	
754.162	1	1	0	0	0.21612	0.17324	0.17935	0.23377	0.23972	0.16471	0.071431	0.24445	0.15803	0.28473	0.15465	0.046213	0.1324	0.050203	0.084889	0.16388	-2.8958	-2.7354	-3.6958	-3.1813	-3.0938	-3.725	-3.0979	-3.4917	-3.4917	-3	-3.6208	-3.2042	-3.0271	-3.5208	-2.9542	-3.4542	195.433	185.946	202.162	432.046	387.030	398.193	242.652	322.399	311.456	159.346	413.393	290.173	184.300	381.194	119.156	399.360	0.00020579	0.0002458	7.9858e-05	941.13	3.5541e-06	1.9444e-06	1082.5	201.65	2.5184e-06	2.9677e-06	260.33	76.394	56.34	15.448	2.5427e-06	23.179	0.00024814	0.00028735	7.7001e-05	931.48	3.1157e-06	2.9162e-06	1069.7	201.7	3.1018e-06	3.1277e-06	260.28	76.704	56.345	15.743	2.9096e-06	23.597	209.721	184.074	182.584	92.255	255.115	269.838	92.527	100.146	244.360	206.395	99.430	105.948	106.866	114.466	218.725	113.373	-8191	255	
754.257	1	1	0	0	0.20557	0.2407	0.13721	0.10496	0.18253	0.28873	0.37133	0.25731	0.069279	0.15449	0.21812	0.084913	0.12493	0.077039	0.11992	0.21349	-3.0062	-2.7687	-3.5438	-3.3292	-2.95	-3.5625	-3.0521	-3.3333	-3.6396	-2.7979	-3.7396	-3.3563	-2.9125	-3.6604	-2.9437	-3.0958	385.872	358.658	200.704	172.169	425.341	306.484	417.638	419.424	267.732	190.286	278.580	418.023	436.879	324.830	368.708	256.887	0.00022447	0.00027283	4.3961e-05	943.62	2.9598e-06	2.8275e-06	1079.2	203.55	2.2699e-06	2.7405e-06	262.15	75.925	55.795	15.573	2.8862e-06	23.197	0.00026926	0.00029384	7.8084e-05	930.64	3.0739e-06	2.9442e-06	1066.1	201.97	2.9751e-06	3.1222e-06	260.35	76.289	56.209	15.78	3.0445e-06	23.473	215.075	172.521	184.374	91.973	252.495	236.758	92.327	100.426	268.925	227.013	99.617	106.582	106.951	114.266	271.149	113.381	-8191	255	
754.330	1	1	0	0	0.11689	0.098435	0.1277	0.1111	0.010782	0.037092	0.094921	0.15948	0.10031	0.11725	0.040031	0.22328	0.27034	0.25386	0.27239	0.16677	-3.0625	-2.8812	-3.375	-3.4958	-2.7125	-3.5167	-3.2229	-3.2167	-3.6104	-2.975	-3.45	-3.4792	-2.9521	-3.5896	-3.0438	-2.9479	274.784	314.234	405.549	376.504	189.683	128.779	232.208	338.306	280.393	330.875	413.468	106.294	209.810	102.478	130.034	137.789	0.00024104	0.00024762	4.9449e-05	941.88	2.8798e-06	2.0875e-06	1081.4	202.37	2.9553e-06	3.2545e-06	259.16	75.814	55.882	15.551	2.6835e-06	23.222	0.00026473	0.00026623	7.3377e-05	929.67	3.1828e-06	2.9787e-06	1067.1	202.17	3.1213e-06	3.07e-06	259.49	76.637	56.057	15.795	2.9696e-06	23.541	213.587	191.705	200.212	91.919	228.437	237.224	92.233	100.495	229.963	198.331	99.615	106.693	107.351	114.464	219.099	113.863	-8191	255	
754.449	1	1	0	0	0.22612	0.19941	0.18714	0.036572	0.26467	0.17304	0.2406	0.25658	0.092986	0.051417	0.081553	0.027276	0.1076	0.089031	0.17054	0.13285	-3.1854	-2.925	-3.2771	-3.6188	-2.7875	-3.6667	-3.2583	-3.15	-3.6708	-2.9188	-3.4062	-3.4292	-2.8208	-3.6	-3.1958	-3.0417	363.667	155.711	171.989	97.336	339.264	130.283	369.773	347.872	87.980	423.380	348.033	128.088	139.781	165.633	261.642	166.538	0.00023439	0.00027497	8.7049e-05	943.19	3.139e-06	2.136e-06	1082.7	202.62	3.6323e-06	3.8423e-06	261.74	76.032	55.697	15.592	2.9559e-06	23.155	0.00027753	0.0002849	7.5827e-05	930.42	3.1667e-06	2.821e-06	1067.1	202.13	3.1505e-06	3.2186e-06	259.59	76.488	56.22	15.785	2.9658e-06	23.569	208.816	162.842	177.467	92.059	247.356	259.185	92.348	100.344	247.943	242.381	99.896	106.539	107.105	114.990	227.571	113.811	-8191	255	
754.545	1	1	0	0	0.19585	0.0523	0.14878	0.17676	0.17046	0.16172	0.13007	0.23053	0.10849	0.15223	0.19406	0.22269	0.12911	0.24387	0.41414	0.06014	-3.2542	-2.9708	-3.1083	-3.75	-2.8396	-3.4625	-3.35	-2.8417	-3.7771	-3	-3.2542	-3.6875	-2.8	-3.6292	-3.4396	-3.05	244.197	401.631	137.901	124.641	240.269	307.808	388.944	388.137	314.463	120.303	304.016	87.408	226.212	169.980	316.799	359.773	0.00019799	0.0002278	9.4311e-05	945.08	3.001e-06	3.2181e-06	1083.9	202.93	1.7343e-06	3.3522e-06	261.3	75.97	56.288	15.63	2.7586e-06	23.074	0.0002543	0.00027991	7.7138e-05	932.32	3.1149e-06	2.8917e-06	1067.7	202.14	2.8789e-06	3.0555e-06	260.25	76.404	56.371	15.817	2.962e-06	23.527	209.223	129.567	193.351	92.184	261.992	210.043	92.643	100.259	241.382	232.824	99.783	106.734	106.790	115.161	234.896	113.837	-8191	255	
754.641	1	1	0	0	0.096728	0.086536	0.25836	0.14353	0.11529	0.2179	0.11565	0.27241	0.095345	0.20515	0.13968	0.15724	0.17639	0.06714	0.15789	0.19317	-3.2625	-2.9437	-2.9437	-3.7271	-2.7479	-3.3792	-3.5083	-2.8396	-3.6354	-2.9542	-3.0604	-3.6583	-2.9375	-3.4188	-3.4479	-3.0187	275.762	120.893	147.140	364.924	178.524	273.902	135.939	435.284	145.474	398.812	324.412	390.823	237.178	407.864	340.845	151.139	0.00021416	0.00024108	9.367e-05	943.2	3.2106e-06	2.2101e-06	1078.6	203.3	2.7327e-06	2.342e-06	259.42	76.496	55.882	15.481	2.3654e-06	23.206	0.00026153	0.00028057	8.1548e-05	930.82	3.2089e-06	3.067e-06	1066.1	202.13	2.9731e-06	2.8533e-06	259.19	76.656	56.313	15.797	2.869e-06	23.575	212.876	166.001	190.730	92.465	259.195	204.064	92.668	100.299	242.840	199.430	99.247	106.493	107.261	114.604	229.802	113.591	-8191	255	
754.737	1	1	0	0	0.23899	0.25083	0.25388	0.20008	0.30948	0.19877	0.19088	0.20694	0.14878	0.13147	0.3014	0.16938	0.1466	0.26075	0.12996	0.08063	-3.1667	-3.0146	-2.9917	-3.7646	-3.0021	-3.3708	-3.6208	-2.9125	-3.4542	-3.2375	-2.9896	-3.6312	-3.1375	-3.2458	-3.6042	-3.0021	403.643	199.537	275.133	427.891	379.256	351.631	406.456	259.460	304.954	261.940	413.411	157.176	147.710	266.108	223.933	288.796	0.00021546	0.0002787	5.6303e-05	950.44	2.3787e-06	2.1098e-06	1080.2	202.87	2.432e-06	2.1368e-06	259.65	75.74	56.195	15.597	2.658e-06	23.256	0.00026421	0.00026929	7.6864e-05	935.32	3.0693e-06	2.9637e-06	1068.1	202.01	3.0178e-06	3.0559e-06	259.33	76.37	56.329	15.781	2.7713e-06	23.535	205.457	171.714	162.476	92.202	257.425	244.358	92.344	100.125	259.084	211.845	99.850	106.674	106.940	114.423	250.475	113.489	-8191	255	
754.858	1	1	0	0	0.11688	0.12381	0.17915	0.22999	0.1681	0.088077	0.16019	0.25887	0.17738	0.34716	0.11929	0.12261	0.30176	0.035413	0.35769	0.18363	-3.2208	-3.2917	-2.9062	-3.8312	-2.8083	-3.225	-3.7375	-2.7417	-3.4688	-3.4625	-2.7354	-3.6063	-3.1354	-3.0854	-3.4813	-2.7188	86.648	165.130	170.494	416.014	310.130	288.882	354.047	375.868	252.665	158.531	247.737	204.642	386.930	138.569	361.600	143.057	0.0002183	0.00023512	7.0725e-05	942.65	2.454e-06	3.4115e-06	1080.7	203.36	2.1811e-06	2.0617e-06	260.13	75.672	55.819	15.49	2.9382e-06	23.051	0.00026307	0.00026063	7.7217e-05	932.63	3.0706e-06	3.1367e-06	1068.1	201.74	2.9707e-06	2.9901e-06	259.5	76.456	56.19	15.735	2.6695e-06	23.485	211.296	171.731	161.897	92.534	251.502	259.978	92.558	100.137	259.572	223.583	99.610	106.536	106.808	113.952	226.583	113.568	-8191	255	
754.954	1	1	0	0	0.11377	0.19576	0.14813	0.099479	0.14168	0.12172	0.15442	0.25102	0.084689	0.19846	0.068161	0.14513	0.30804	0.26421	0.30425	0.18067	-3.1479	-3.4104	-2.6312	-3.7625	-3.1312	-2.9229	-3.7896	-3.1583	-3.225	-3.4104	-2.8583	-3.4667	-3.1333	-3.0333	-3.7958	-2.9042	190.974	406.015	351.821	412.683	345.957	135.522	406.215	372.843	358.277	104.160	352.496	340.569	368.082	257.880	180.802	202.564	0.00021884	0.00018947	7.0936e-05	948.03	3.0527e-06	3.3178e-06	1084.1	202.73	3.9102e-06	2.0782e-06	260.24	76.266	55.988	15.474	2.9001e-06	23.068	0.00027005	0.00026953	8.2643e-05	933.54	3.2044e-06	2.985e-06	1068.5	201.97	3.0856e-06	2.9905e-06	259.33	76.647	56.166	15.73	2.9083e-06	23.525	210.445	168.318	180.234	92.142	245.232	223.765	92.589	100.290	254.224	253.007	99.415	106.343	107.039	114.345	219.810	114.008	-8191	255	
755.026	1	1	0	0	0.13111	0.2264	0.13515	0.062787	0.17494	0.10815	0.10884	0.24192	0.13056	0.18852	0.077971	0.10508	0.045546	0.20945	0.1224	0.079133	-2.8563	-3.4	-2.9833	-3.5417	-3.3438	-2.9458	-3.7	-3.1208	-3.2479	-3.7604	-2.9917	-3.425	-3.1583	-2.8458	-3.5646	-3.0062	360.604	128.081	353.926	297.045	116.138	204.584	328.052	371.992	254.705	249.626	168.669	426.238	392.272	151.726	432.216	251.455	0.00022103	0.00022233	1.778e-05	942.04	2.7906e-06	1.6585e-06	1083.3	202.06	2.8315e-06	1.9166e-06	260.15	75.634	55.249	15.322	2.7314e-06	23.017	0.00025877	0.00026749	7.7696e-05	930.48	3.0958e-06	3.1059e-06	1066	201.41	2.8903e-06	2.9051e-06	259.22	76.256	56.02	15.657	2.8178e-06	23.471	207.101	175.410	182.607	92.504	222.666	249.846	92.398	100.124	254.954	154.643	99.599	106.580	107.044	114.791	245.129	113.298	-8191	255	
755.122	1	1	0	0	0.14304	0.24308	0.067886	0.17864	0.1858	0.11802	0.12215	0.2896	0.16014	0.12275	0.14177	0.19116	0.26993	0.16787	0.25081	0.19026	-2.8083	-3.5667	-2.7479	-3.4396	-3.4125	-3.0438	-3.775	-3.1958	-3.1271	-3.5604	-3.0187	-3.3292	-3.3438	-2.9021	-3.6104	-3.2896	115.080	180.285	208.295	434.853	297.186	101.596	401.979	427.947	179.565	144.140	361.374	120.563	99.471	396.243	257.744	83.359	0.00021202	0.00018234	3.404e-05	943.07	3.7548e-06	3.2559e-06	1081	200.65	2.9663e-06	2.9741e-06	259	75.975	55.447	15.612	2.2002e-06	23.224	0.00025405	0.00026623	7.9201e-05	930.01	2.9956e-06	2.9651e-06	1067.2	200.92	2.9991e-06	2.9851e-06	259.42	76.416	56.184	15.785	2.8796e-06	23.531	207.687	156.767	183.538	92.776	241.500	246.729	92.762	100.230	246.925	204.162	99.529	106.814	106.926	114.360	252.385	113.214	-8191	255	
755.241	1	1	0	0	0.28052	0.14906	0.18747	0.1218	0.14392	0.16167	0.50128	0.023973	0.072232	0.089248	0.18032	0.13657	0.038932	0.038872	0.21853	0.14703	-2.7292	-3.7729	-2.7854	-3.4167	-3.5292	-2.7229	-3.8604	-3.1542	-3.025	-3.6458	-3.1771	-3.2604	-3.6229	-2.8438	-3.6083	-3.2792	86.880	345.370	291.926	403.279	257.319	275.014	368.191	123.079	267.764	142.454	395.666	397.145	369.702	89.674	82.346	235.326	0.00022784	0.00024849	8.3909e-05	941.14	3.9657e-06	2.3766e-06	1076.8	201.96	2.4139e-06	4.5843e-06	260.07	76.056	55.991	15.437	3.3233e-06	23.085	0.00027871	0.00027419	7.8277e-05	930.38	2.9061e-06	3.139e-06	1067.9	201.32	3.0389e-06	3.0119e-06	259.21	76.582	56.112	15.706	2.9975e-06	23.455	204.980	164.756	183.399	92.601	262.395	263.193	92.767	100.356	254.382	226.197	99.772	106.783	107.270	114.837	238.909	113.773	-8191	255	
755.337	1	1	0	0	0.20834	0.057917	0.26385	0.33127	0.27768	0.098583	0.092357	0.22502	0.15264	0.044997	0.28107	0.10712	0.17405	0.14142	0.10303	0.20879	-2.5708	-3.6479	-3.0708	-3.3563	-3.4979	-2.9729	-3.9271	-3.6083	-2.7667	-3.5625	-3.1708	-3.4021	-3.7542	-2.8021	-3.3521	-3.5812	374.618	405.712	436.138	396.909	398.969	339.543	190.463	201.511	124.685	357.287	277.400	395.244	430.978	320.876	139.402	116.025	0.00020767	0.00031026	9.8871e-05	947.65	3.7327e-06	2.2854e-06	1079.1	202.81	1.6886e-06	3.6653e-06	261.28	76.034	56.166	15.493	2.937e-06	23.319	0.00026502	0.00027905	7.5212e-05	931.75	3.0208e-06	3.0878e-06	1067.3	201.72	3.1444e-06	2.767e-06	259.27	76.493	56.224	15.76	2.9282e-06	23.545	207.177	168.689	191.609	92.593	257.164	190.679	92.660	100.517	267.857	241.318	99.770	107.159	107.675	114.694	249.340	113.686	-8191	255	
755.433	1	1	0	0	0.06451	0.21039	0.1198	0.19061	0.073375	0.1651	0.14218	0.093963	0.054264	0.069199	0.18296	0.072484	0.074856	0.17268	0.28121	0.21324	-2.6083	-3.6292	-2.9667	-3.3	-3.5875	-3.0083	-3.5521	-3.5146	-2.8375	-3.6417	-3.2021	-2.9792	-3.5938	-2.9688	-3.4417	-3.6104	241.558	296.394	387.537	233.342	223.154	256.214	342.843	302.975	157.271	101.840	321.078	340.383	174.447	390.933	191.466	265.827	0.00023541	0.00023334	4.501e-05	946.59	2.271e-06	6.9735e-07	1080.5	201.54	1.7154e-06	2.7761e-06	259.22	76.273	55.828	15.435	2.8758e-06	23.167	0.00026314	0.00026643	7.8927e-05	932.42	3.0188e-06	3.0865e-06	1067.3	201.66	3.1213e-06	2.8306e-06	259	76.604	56.2	15.73	3.0018e-06	23.59	208.975	165.102	196.047	92.481	225.001	226.927	92.696	100.324	255.002	258.889	99.748	107.252	107.319	114.744	279.050	113.959	-8191	255	
755.554	1	1	0	0	0.17373	0.36265	0.095185	0.092529	0.2773	0.12399	0.19272	0.33455	0.29912	0.12102	0.11052	0.33534	0.22003	0.071347	0.075293	0.14039	-2.6083	-3.575	-3.1896	-3.0312	-3.7687	-3.0333	-3.3292	-3.6312	-2.725	-3.3604	-3.3875	-2.9146	-3.6542	-3.1271	-3.2896	-3.6729	149.943	364.065	341.666	250.666	359.682	148.111	91.870	418.085	429.005	153.979	327.530	401.293	371.361	364.201	251.917	412.997	0.00020913	0.00025868	4.7521e-05	945.1	1.9564e-06	4.1352e-06	1083.1	202.39	4.3413e-06	3.997e-06	259.84	75.913	55.84	15.537	2.4712e-06	23.265	0.00026899	0.00028048	7.3388e-05	932.92	3.0192e-06	3.1662e-06	1068.8	201.38	3.0056e-06	3.0055e-06	258.88	76.396	56.219	15.745	3.0263e-06	23.574	207.673	171.039	232.746	92.808	259.504	219.509	92.894	100.274	240.408	240.531	99.491	107.012	107.555	114.331	268.972	113.805	-8191	255	
755.625	1	1	0	0	0.34013	0.10533	0.12123	0.29007	0.25235	0.10028	0.076348	0.10239	0.10829	0.2911	0.20011	0.31843	0.11376	0.07282	0.08192	0.08206	-2.4062	-3.4667	-3.3563	-2.9354	-3.8167	-3.0125	-3.2292	-3.875	-2.9083	-3.5083	-3.7021	-3.0812	-3.8583	-3.1583	-2.8625	-3.7	125.167	419.427	433.053	396.199	96.220	435.510	294.185	166.619	417.625	318.165	442.024	409.826	288.112	293.383	120.754	370.130	0.00021335	0.00026251	3.8768e-05	946.11	2.7582e-06	3.0463e-06	1088.6	202.07	1.8707e-06	5.2141e-06	260.19	76.46	55.929	15.511	2.1736e-06	23.276	0.00026903	0.00026815	7.4949e-05	929.84	3.1331e-06	3.1268e-06	1070.1	201.94	3.0624e-06	2.9855e-06	259.5	76.693	56.232	15.718	2.9717e-06	23.541	210.992	210.171	155.871	92.686	222.982	193.840	92.877	100.473	276.737	233.424	99.938	106.638	107.451	115.013	248.762	113.188	-8191	255	
755.722	1	1	0	0	0.2172	0.057307	0.22368	0.45419	0.15462	0.085827	0.31504	0.18504	0.25945	0.22222	0.17814	0.25524	0.13906	0.045705	0.19418	0.067679	-2.7396	-3.2604	-3.4167	-3.0542	-3.5396	-3.2167	-3.0208	-3.7812	-2.7708	-3.3583	-3.5792	-2.7646	-3.5771	-3.2875	-2.8792	-3.625	83.367	435.267	421.278	422.485	334.665	344.474	322.159	94.488	374.684	224.609	412.501	126.967	375.248	381.579	311.214	414.270	0.00020515	0.00030682	5.4163e-05	947.31	2.3856e-06	2.5203e-06	1078.9	201.54	3.1774e-06	3.0071e-06	262.33	76.013	56.021	15.602	4.2844e-06	23.071	0.00026733	0.00027199	7.2955e-05	933.73	3.0059e-06	2.9515e-06	1068.2	201.49	3.0657e-06	2.9764e-06	259.92	76.702	56.298	15.759	3.0068e-06	23.561	209.791	159.812	221.070	92.542	238.869	239.431	92.735	100.586	251.866	235.961	99.750	107.082	107.425	114.807	242.141	114.033	-8191	255	
755.842	1	1	0	0	0.27597	0.14658	0.19833	0.12065	0.29783	0.088252	0.28532	0.093024	0.08517	0.20325	0.099894	0.038157	0.13532	0.18338	0.11403	0.2088	-2.6708	-3.1979	-3.5146	-3.0417	-3.5458	-3.4458	-3.0667	-3.5563	-3.1292	-3.2604	-3.5917	-3.0167	-3.5146	-3.4354	-2.8	-3.6708	84.762	105.934	404.008	107.129	316.603	347.510	372.561	332.123	133.304	365.023	419.367	366.661	346.436	383.462	386.865	442.127	0.00021907	0.00036584	7.2e-05	943.7	2.8838e-06	2.3569e-06	1081.5	202.74	2.7855e-06	4.6942e-06	259.4	76.666	55.75	15.509	1.82e-06	23.196	0.00026332	0.00026998	7.4117e-05	931.71	3.0018e-06	2.9805e-06	1068.9	202.05	2.9053e-06	3.1372e-06	259.48	76.684	56.141	15.758	2.9607e-06	23.587	205.686	166.132	164.529	92.598	239.626	249.509	92.998	100.722	237.395	231.974	99.939	107.039	107.828	114.746	231.657	114.430	-8191	255	
755.938	1	1	0	0	0.086933	0.33932	0.11301	0.24077	0.16999	0.24032	0.12504	0.28537	0.33122	0.063963	0.054037	0.19429	0.14185	0.11205	0.22745	0.19526	-2.6583	-3.0625	-3.6125	-2.7667	-3.3229	-3.4562	-2.9437	-3.5979	-3.1542	-3.275	-3.825	-2.8708	-3.3229	-3.5604	-2.6646	-3.7583	127.592	340.676	186.524	400.639	428.683	283.030	389.589	366.941	412.742	299.775	97.436	427.982	359.986	118.266	158.025	375.511	0.00021353	0.00021059	4.8985e-05	949.66	4.5716e-06	3.6551e-06	1077.3	202.63	3.0676e-06	2.66e-06	261.01	76.06	56.268	15.508	2.5772e-06	23.049	0.00025759	0.00029229	7.8038e-05	933.55	3.1621e-06	2.9986e-06	1064.6	202.17	3.0429e-06	3.1659e-06	260.09	76.64	56.345	15.761	3.2119e-06	23.486	211.044	156.982	201.543	92.923	271.082	237.345	93.439	100.831	252.970	202.820	99.851	107.480	107.957	114.791	245.639	114.440	-8191	255	
756.035	1	1	0	0	0.14571	0.13794	0.20608	0.14893	0.098485	0.09289	0.17561	0.12715	0.092104	0.27895	0.14252	0.18574	0.041032	0.2018	0.13306	0.1177	-2.8375	-2.925	-3.6354	-3.0292	-3.1896	-3.5187	-3.0187	-3.5792	-3.2562	-3.0208	-3.8604	-3.0187	-3.2417	-3.5146	-2.7833	-3.5	120.467	328.396	437.790	188.040	422.034	264.331	358.513	406.331	202.119	119.988	166.708	396.730	101.051	108.742	201.706	390.496	0.00021279	0.00024586	7.2074e-05	947.82	3.1819e-06	1.8114e-06	1082.1	202.71	2.4583e-06	2.9903e-06	260.08	76.082	56.203	15.441	2.0252e-06	23.157	0.00026688	0.000282	7.3479e-05	932.43	2.9968e-06	2.87e-06	1068.5	201.87	2.9402e-06	2.986e-06	259.77	76.714	56.417	15.71	3.0305e-06	23.58	211.968	174.915	156.965	92.949	241.354	210.410	92.991	100.593	233.396	241.422	100.225	107.120	107.917	115.159	273.388	114.645	-8191	255	
756.153	1	1	0	0	0.2416	0.0085427	0.22503	0.35931	0.17907	0.073453	0.23236	0.18103	0.14111	0.12994	0.29338	0.16982	0.15643	0.11975	0.13851	0.21888	-2.9083	-2.9437	-3.7479	-3.1104	-3.0854	-3.4729	-3.0958	-3.5729	-3.3104	-2.8646	-3.8917	-3.0792	-3.075	-3.6417	-3.0292	-3.3333	270.213	254.750	368.421	422.938	331.804	352.086	348.969	350.921	107.071	149.195	352.645	404.233	404.428	440.505	429.488	240.647	0.00022966	0.00023946	5.5233e-05	942.05	3.8431e-06	2.5407e-06	1081.3	203.57	1.8026e-06	2.573e-06	261.1	76.304	55.765	15.495	2.2049e-06	23.11	0.00026658	0.00027272	7.4391e-05	930.94	3.0146e-06	2.821e-06	1068.2	202.34	2.79e-06	2.9542e-06	259.75	76.712	56.165	15.729	3.0702e-06	23.584	212.607	176.220	176.367	92.832	266.273	270.570	93.194	100.942	225.594	235.200	100.107	107.004	108.080	115.306	216.314	114.846	-8191	255	
756.227	1	1	0	0	0.13038	0.073569	0.09919	0.09142	0.11615	0.20423	0.16871	0.13195	0.16521	0.086192	0.13837	0.15682	0.1233	0.069214	0.10801	0.069365	-3.1813	-2.8167	-3.5812	-3.2521	-3.05	-3.6146	-3.1396	-3.3063	-3.5208	-2.9188	-3.7375	-3.4271	-3.0875	-3.6958	-3.1708	-3.3375	268.845	115.668	323.788	123.718	311.611	121.082	244.516	400.359	249.346	100.735	435.143	130.236	103.147	229.877	164.946	344.469	0.00022407	0.0002637	0.00010238	941.97	3.9245e-06	3.3704e-06	1083.7	202.78	2.0665e-06	4.4784e-06	261.06	76.091	56.225	15.517	2.3432e-06	23.092	0.00026557	0.00028792	7.3092e-05	931.04	3.2727e-06	3.0489e-06	1067.2	201.91	2.9082e-06	3.1045e-06	260.2	76.468	56.387	15.728	2.9992e-06	23.557	209.835	195.497	170.862	92.838	244.537	233.020	93.434	101.155	247.273	232.412	100.233	107.493	107.993	115.400	248.715	114.384	-8191	255	
756.321	1	1	0	0	0.13867	0.22913	0.18699	0.32022	0.11999	0.1274	0.08241	0.25202	0.17994	0.2723	0.16501	0.063709	0.1338	0.23574	0.078768	0.13164	-3.4062	-3.0896	-3.4917	-3.4104	-2.9625	-3.7625	-3.2958	-3.2062	-3.6208	-2.9896	-3.5292	-3.525	-3.0021	-3.85	-3.0604	-3.2083	419.197	403.913	230.722	412.105	147.274	321.280	441.975	95.248	434.832	301.859	428.527	158.650	174.171	127.826	410.390	415.721	0.00022515	0.00031813	5.9799e-05	948.96	3.5445e-06	2.4544e-06	1081.5	202.65	2.1264e-06	3.8317e-06	260.41	75.785	56.03	15.56	1.6526e-06	23.137	0.00026099	0.0002786	7.5873e-05	932.92	3.2085e-06	2.8437e-06	1067.8	201.79	2.7998e-06	3.0627e-06	259.57	76.578	56.293	15.757	2.9485e-06	23.522	208.100	168.609	177.198	93.149	264.812	238.306	93.195	101.245	250.186	226.893	100.539	107.312	107.996	115.310	272.968	114.263	-8191	255	
756.417	1	1	0	0	0.19261	0.14439	0.18897	0.2064	0.32494	0.19109	0.059003	0.31423	0.17993	0.22778	0.17721	0.1618	0.10549	0.15952	0.19261	0.17903	-3.375	-2.8292	-3.4167	-3.55	-2.8312	-3.5062	-3.2125	-3.1479	-3.6292	-3.0292	-3.625	-3.5521	-2.8208	-3.7167	-3.1833	-3.1479	306.512	113.848	217.915	393.144	147.219	362.402	135.828	386.846	148.759	352.469	359.134	257.640	255.544	93.012	167.895	220.111	0.00022565	0.00021986	8.544e-05	941.68	1.8959e-06	2.9942e-06	1078	202.63	3.4162e-06	2.5473e-06	259.78	76.139	56.041	15.606	3.9558e-06	22.876	0.0002662	0.000284	7.438e-05	932.64	3.2934e-06	2.889e-06	1066.7	201.77	3.0535e-06	2.8579e-06	259.56	76.742	56.227	15.738	2.9717e-06	23.498	210.342	151.023	174.340	92.972	264.397	239.191	93.053	100.917	240.390	252.581	100.162	107.122	107.780	114.991	268.686	114.008	-8191	255	
756.538	1	1	0	0	0.1844	0.12074	0.045758	0.16449	0.20094	0.03345	0.20446	0.074565	0.17454	0.099858	0.30536	0.10943	0.2494	0.12132	0.12988	0.19889	-3.4813	-2.8354	-3.2875	-3.6229	-2.7958	-3.5563	-3.3312	-3.0979	-3.675	-3.1396	-3.05	-3.8021	-2.8812	-3.7562	-3.1188	-3.0292	304.552	432.166	116.608	138.508	415.980	420.417	91.753	363.840	95.087	397.726	431.693	361.000	382.452	226.142	240.857	250.687	0.00023062	0.00027303	6.5875e-05	946.55	2.9969e-06	3.3637e-06	1079.7	203.74	2.8265e-06	1.8767e-06	260.6	76.258	56.032	15.556	3.4741e-06	23.275	0.00025591	0.00027166	8.2688e-05	931.79	3.2574e-06	2.9578e-06	1068.2	202.11	2.8919e-06	2.9514e-06	259.28	76.469	56.325	15.761	2.9392e-06	23.548	212.750	133.863	165.967	93.088	244.259	235.826	93.085	100.928	247.184	196.289	100.563	107.121	107.621	115.314	265.055	114.382	-8191	255	
756.634	1	1	0	0	0.19523	0.20392	0.069462	0.12405	0.17681	0.17996	0.13879	0.097789	0.13892	0.17399	0.21139	0.29309	0.27822	0.23621	0.19155	0.1009	-3.3958	-2.9688	-3.1646	-3.5792	-2.7958	-3.5187	-3.6896	-3.0125	-3.5479	-2.9562	-3.225	-3.6625	-3.0146	-3.5187	-3.4667	-2.9188	132.926	100.791	189.217	426.729	121.779	413.919	311.692	288.695	272.269	137.808	125.277	83.803	439.978	393.009	207.833	220.170	0.00021883	0.00019181	8.0078e-05	945.36	3.5216e-06	1.0262e-06	1084.3	202.45	2.2011e-06	2.1576e-06	260.58	76.465	56.198	15.568	2.4368e-06	23.161	0.00026176	0.00028269	7.9315e-05	931.99	3.2027e-06	2.7721e-06	1068	202.05	2.9967e-06	3.0991e-06	259.19	76.604	56.225	15.785	2.8952e-06	23.531	214.115	163.547	191.816	93.006	247.266	251.117	93.319	101.225	227.395	232.584	100.351	107.347	107.634	114.895	256.989	113.958	-8191	255	
756.730	1	1	0	0	0.0247	0.15469	0.15423	0.10954	0.19541	0.18557	0.12307	0.22792	0.12404	0.096538	0.17971	0.10287	0.087634	0.19557	0.29764	0.16007	-3.3604	-3.1375	-3.0354	-3.7646	-2.925	-3.45	-3.7375	-2.8063	-3.5875	-3.35	-3.1	-3.7333	-3.0771	-3.4083	-3.5229	-2.8729	397.885	398.227	235.296	137.403	327.632	400.207	274.830	430.752	312.973	193.426	100.783	365.210	120.721	436.190	369.710	317.361	0.00022429	0.00017891	4.6506e-05	944.8	3.0799e-06	4.3468e-06	1082.2	201.87	2.28e-06	2.0231e-06	260.58	75.788	55.981	15.62	3.2974e-06	23.156	0.00026167	0.00025544	7.7115e-05	931.69	3.0701e-06	3.1771e-06	1067	201.75	2.9954e-06	3.1018e-06	259.84	76.545	56.214	15.8	2.7231e-06	23.594	206.805	220.890	177.092	92.637	248.683	221.268	92.905	100.695	258.469	248.785	100.173	107.200	107.555	115.080	265.989	114.029	-8191	255	
756.826	1	1	0	0	0.10452	0.12443	0.18673	0.19601	0.080646	0.11754	0.33506	0.31923	0.038331	0.040886	0.20776	0.070096	0.07822	0.078946	0.21032	0.23432	-3.3667	-3.35	-3.125	-3.6937	-2.9833	-3.3479	-3.8271	-3.025	-3.7521	-3.225	-3.0354	-3.6604	-3.2333	-3.0771	-3.4813	-2.7375	210.453	291.278	342.371	412.471	296.809	363.327	384.269	376.431	113.109	334.825	409.200	410.166	263.067	180.236	336.044	139.720	0.00021493	9.6472e-05	4.7329e-05	945.44	2.8704e-06	3.1298e-06	1086.2	202.17	2.2026e-06	3.0377e-06	259.83	76.385	55.78	15.483	1.895e-06	23.197	0.00025544	0.00026909	7.748e-05	932.73	3.1074e-06	3.0018e-06	1068.9	201.44	3.0738e-06	2.896e-06	259.54	76.715	56.213	15.745	2.9164e-06	23.529	214.172	131.362	160.830	92.600	259.704	233.751	92.823	100.603	245.088	227.206	99.982	106.943	107.168	114.838	214.237	113.632	-8191	255	
756.923	1	1	0	0	0.10553	0.1394	0.10644	0.3161	0.17778	0.18084	0.06429	0.10113	0.13124	0.053848	0.14027	0.13429	0.08423	0.1209	0.26346	0.1138	-3.1208	-3.3958	-2.7354	-3.7188	-3.4	-3.2417	-3.7979	-2.9417	-3.4271	-3.4062	-2.8958	-3.6208	-3.1917	-3.1021	-3.6417	-3.0292	316.187	439.611	248.937	433.747	316.140	420.116	392.853	329.769	358.722	306.395	84.230	303.842	325.833	333.934	290.880	131.348	0.00022344	0.00023291	7.175e-05	945.99	2.0356e-06	1.9465e-06	1082.1	202.82	2.7815e-06	3.6752e-06	259.69	75.909	55.687	15.539	2.6732e-06	23.015	0.00026609	0.00025748	7.8597e-05	932.86	3.0681e-06	3.1594e-06	1067.3	201.9	2.9999e-06	3.01e-06	259.33	76.578	56.086	15.784	2.7354e-06	23.497	213.256	148.532	165.904	92.402	276.810	232.138	92.596	100.247	253.699	221.209	99.637	106.801	107.397	114.708	251.028	113.511	-8191	255	
757.019	1	1	0	0	0.059144	0.2013	0.11168	0.10091	0.16851	0.27684	0.2139	0.19344	0.10436	0.20046	0.19708	0.25887	0.21329	0.15121	0.10532	0.13217	-2.8958	-3.5479	-2.8563	-3.6125	-3.4208	-2.8646	-3.8583	-2.9042	-3.2417	-3.5292	-2.9083	-3.5479	-3.3	-2.9646	-3.5729	-3.0125	215.466	329.916	228.661	428.230	121.234	240.628	343.240	414.736	130.631	156.745	194.049	299.173	439.942	386.313	128.109	95.901	0.00021666	0.00021989	4.7362e-05	945.53	2.2316e-06	2.0187e-06	1085.1	202.39	2.8943e-06	4.1586e-06	260.52	76.131	55.583	15.528	4.2345e-06	23.163	0.00026015	0.00027705	7.822e-05	933.06	2.9744e-06	2.8613e-06	1069.6	202.01	2.9155e-06	2.9255e-06	259.65	76.559	56.119	15.788	2.7549e-06	23.566	209.850	160.654	212.183	92.113	237.081	208.430	92.765	100.306	251.329	254.035	99.766	107.114	107.214	114.409	247.404	113.509	-8191	255	
757.115	1	1	0	0	0.1265	0.2103	0.24431	0.21518	0.12908	0.048023	0.15061	0.30901	0.080731	0.17683	0.13188	0.22619	0.072814	0.13896	0.2137	0.14778	-2.9042	-3.5187	-2.8292	-3.475	-3.4125	-2.9417	-3.7604	-3.1875	-3.2146	-3.6708	-2.9354	-3.5812	-3.4125	-2.8979	-3.5563	-3.0583	129.299	223.158	255.098	105.088	285.938	253.197	353.244	383.762	170.484	97.564	192.517	194.548	113.305	348.012	340.438	329.423	0.00021869	0.00015925	5.7788e-05	948.06	2.0182e-06	2.6268e-06	1079.3	201.26	2.5731e-06	2.935e-06	258.39	76.007	56.063	15.556	3.2094e-06	23.186	0.000264	0.00026406	7.569e-05	934.73	2.9686e-06	3.1734e-06	1066.6	201.82	2.9548e-06	2.8792e-06	259.06	76.584	56.202	15.761	2.9126e-06	23.542	210.339	153.044	144.434	92.499	239.377	224.236	92.800	100.436	276.080	262.120	99.565	106.683	107.183	114.549	240.393	113.467	-8191	255	
757.236	1	1	0	0	0.30043	0.16739	0.09252	0.12	0.059011	0.084767	0.2231	0.23566	0.3155	0.17886	0.22431	0.24368	0.032083	0.3295	0.14199	0.18926	-2.7438	-3.7792	-2.9062	-3.5812	-3.2521	-2.7083	-3.8	-3.2438	-3.0833	-3.7188	-3.0646	-3.3979	-3.625	-3.0396	-3.6542	-3.275	282.072	110.055	357.803	102.739	178.503	285.168	87.873	380.942	232.420	176.215	98.886	240.747	204.939	281.690	334.968	97.998	0.00023863	0.00025195	9.3195e-05	946.65	2.9827e-06	3.6926e-06	1083.6	202.25	2.6503e-06	3.3211e-06	259.57	76.525	56.307	15.6	1.8986e-06	23.204	0.00027397	0.0002643	7.6089e-05	932.53	3.0378e-06	3.2314e-06	1068.9	201.84	2.9654e-06	2.9001e-06	259.3	76.759	56.278	15.785	2.8343e-06	23.613	209.292	156.603	181.008	92.172	263.494	226.411	92.595	100.386	254.254	218.617	99.740	106.851	107.125	114.232	236.251	113.893	-8191	255	
757.332	1	1	0	0	0.18173	0.13443	0.12193	0.19316	0.13925	0.15331	0.12719	0.13307	0.072377	0.20282	0.20273	0.013202	0.16274	0.14205	0.066254	0.049194	-2.5187	-3.5438	-2.7917	-3.2125	-3.5458	-2.7875	-3.7583	-3.3479	-2.7542	-3.6042	-3.1813	-3.1292	-3.4583	-2.8937	-3.4167	-3.4313	367.646	204.185	309.663	115.221	365.631	412.564	432.605	427.061	432.581	395.010	102.842	381.662	417.003	345.768	399.645	342.929	0.00022127	0.00034609	7.4705e-05	949.2	2.751e-06	2.0973e-06	1081.6	202.66	2.2122e-06	4.342e-06	259.96	76.436	56.338	15.477	3.4759e-06	23.315	0.00026935	0.00027145	7.5941e-05	934.36	3.0349e-06	3.2196e-06	1067.7	201.79	2.9155e-06	2.901e-06	259.47	76.631	56.271	15.708	2.9024e-06	23.607	206.588	176.383	229.603	92.724	263.986	228.892	92.940	100.424	261.137	232.033	99.865	107.267	107.422	114.411	240.342	114.103	-8191	255	
757.426	1	1	0	0	0.048327	0.18497	0.12555	0.21074	0.22195	0.14202	0.1024	0.079565	0.22167	0.14959	0.10995	0.087162	0.25271	0.07032	0.10046	0.18457	-2.4333	-3.7042	-2.8563	-3.1146	-3.5917	-2.8333	-3.5375	-3.6333	-2.7354	-3.625	-3.0396	-3.1	-3.8396	-3.0896	-3.2875	-3.5187	235.053	108.028	256.897	434.464	255.550	214.437	375.977	100.013	411.008	164.473	101.592	99.042	176.175	265.523	235.749	381.179	0.00021782	0.00018744	3.7833e-05	944.35	3.1862e-06	2.034e-06	1080.4	201.92	3.5394e-06	3.8391e-06	259.06	75.328	55.942	15.444	3.184e-06	23.04	0.00027279	0.00027174	7.6705e-05	931.52	2.9007e-06	2.9963e-06	1066.4	201.18	3.0884e-06	2.8778e-06	258.4	76.357	56.269	15.74	2.8842e-06	23.502	212.393	163.956	179.295	92.790	232.282	203.447	92.739	100.438	244.740	241.749	99.880	107.105	107.569	114.693	235.269	114.122	-8191	255	
757.522	1	1	0	0	0.13794	0.11119	0.21569	0.083061	0.050884	0.21605	0.2266	0.30363	0.22821	0.1987	0.15794	0.29497	0.3015	0.3207	0.17962	0.14179	-2.5563	-3.6604	-3.1208	-2.8583	-3.6021	-2.9417	-3.3438	-3.6042	-2.875	-3.6083	-3.4083	-2.8375	-3.7188	-2.9042	-3.2604	-3.6792	145.645	387.404	313.773	120.405	89.184	152.049	396.553	116.795	405.464	87.048	105.242	103.893	151.917	85.692	206.705	122.315	0.00024397	0.00031431	5.0725e-05	946.7	3.2285e-06	2.5438e-06	1077.9	201.48	1.896e-06	3.6217e-06	259.29	75.884	55.828	15.457	4.264e-06	23.212	0.00026876	0.00026774	7.5667e-05	932.98	3.037e-06	3.0747e-06	1067	201.35	3.0466e-06	2.8919e-06	258.38	76.515	56.173	15.713	3.0039e-06	23.554	212.717	174.486	183.763	92.630	242.612	237.426	92.655	100.171	263.574	243.483	99.915	106.945	107.676	115.029	267.589	113.789	-8191	255	
757.618	1	1	0	0	0.24618	0.10404	0.032238	0.22318	0.081743	0.26116	0.22993	0.087708	0.11474	0.1684	0.11103	0.2726	0.13913	0.2917	0.14037	0.13762	-2.4083	-3.5104	-3.2833	-2.7958	-3.6625	-3.1688	-3.3958	-3.7417	-2.8479	-3.3708	-3.4667	-2.9625	-3.8604	-3.0979	-2.9875	-3.5854	269.298	218.257	234.752	406.646	234.250	433.068	95.067	375.833	222.832	215.317	82.389	357.024	265.612	130.887	258.187	407.932	0.00020088	0.00014408	0.00010379	944.13	3.3679e-06	3.6126e-06	1081	203.08	2.7571e-06	1.3235e-06	259.58	76.175	55.873	15.479	3.4961e-06	23.147	0.00026339	0.00027002	7.4539e-05	933.15	2.9894e-06	3.0951e-06	1066.9	201.61	3.142e-06	2.9401e-06	258.53	76.653	56.209	15.727	2.9633e-06	23.512	208.874	127.887	166.666	92.912	234.652	215.628	92.789	100.273	250.499	160.120	100.087	107.003	107.695	115.157	277.085	113.895	-8191	255	
757.715	1	1	0	0	0.095879	0.11945	0.19872	0.02704	0.037359	0.081298	0.27721	0.26224	0.16887	0.22368	0.15166	0.26291	0.25924	0.15229	0.16411	0.26719	-2.6083	-3.4896	-3.4583	-2.9854	-3.6417	-3.1208	-3.0563	-3.7896	-2.9042	-3.4625	-3.6896	-2.8771	-3.5625	-3.3708	-2.9813	-3.7646	303.018	397.203	311.540	256.016	203.944	427.857	392.101	94.119	193.487	232.971	342.000	366.038	377.743	383.445	281.711	377.045	0.00021407	0.00033509	5.6296e-05	947.08	2.8283e-06	2.757e-06	1078.9	202.54	1.9953e-06	3.2239e-06	257.96	76.08	55.727	15.554	2.2734e-06	23.05	0.00026876	0.00026639	7.0516e-05	931.5	2.955e-06	2.9904e-06	1067.9	201.28	3.0109e-06	2.9651e-06	258.79	76.506	56.005	15.728	2.9227e-06	23.452	207.795	167.724	159.633	92.907	231.476	211.910	93.206	100.476	251.963	252.907	100.002	107.311	107.828	114.884	242.778	113.767	-8191	255	
757.835	1	1	0	0	0.048024	0.043401	0.090148	0.077729	0.30413	0.21769	0.10174	0.18762	0.17424	0.21146	0.079572	0.19031	0.14948	0.058059	0.043113	0.097388	-2.7625	-3.4292	-3.6646	-3.0479	-3.5792	-3.3979	-3.2125	-3.8375	-3.1292	-3.2583	-3.8063	-2.8167	-3.5896	-3.3583	-2.925	-3.7229	237.720	342.837	418.849	383.880	172.587	193.106	394.948	357.247	403.784	401.407	215.157	423.296	252.928	334.998	422.697	145.080	0.00022164	0.00023624	9.8027e-05	940.33	1.4682e-06	2.1309e-06	1078.8	202.51	2.9618e-06	3.3921e-06	259.51	75.94	55.782	15.526	2.2172e-06	23.202	0.00027674	0.00027248	7.1621e-05	928.32	2.8609e-06	2.7735e-06	1066.7	201.37	2.9309e-06	3.055e-06	258.34	76.479	56.049	15.715	3.1197e-06	23.516	207.409	178.731	180.626	93.062	222.971	228.434	93.037	100.691	247.506	243.207	100.138	106.953	108.124	114.815	270.755	113.970	-8191	255	
757.931	1	1	0	0	0.21263	0.054007	0.23351	0.33185	0.29371	0.1069	0.30665	0.092597	0.23985	0.13658	0.31648	0.14702	0.16842	0.3177	0.14738	0.23581	-2.7313	-3.2188	-3.7708	-2.8396	-3.4729	-3.6396	-3.0875	-3.825	-3.1021	-3.2104	-3.8583	-3.025	-3.3917	-3.4625	-2.9396	-3.5542	152.119	97.534	171.675	390.016	327.301	351.848	439.506	205.072	377.853	370.379	381.883	344.838	373.140	347.001	207.362	396.178	0.00021772	0.00039649	7.9241e-05	944.84	2.4253e-06	2.4567e-06	1080.9	201.98	3.0171e-06	2.9058e-06	260.67	76.173	55.772	15.464	3.1579e-06	23.075	0.00026332	0.00026802	7.5177e-05	929.16	3.0034e-06	3.0806e-06	1065.6	201.21	3.0502e-06	2.9469e-06	259.41	76.486	56.092	15.694	3.0022e-06	23.438	206.011	183.706	193.514	93.032	270.119	251.503	93.430	100.967	252.399	225.789	99.884	106.989	107.752	114.625	212.460	114.512	-8191	255	
758.027	1	1	0	0	0.24359	0.053571	0.24558	0.14331	0.20987	0.042947	0.34348	0.1968	0.17985	0.2194	0.14175	0.27714	0.20808	0.2044	0.070148	0.13153	-2.8	-3.1104	-3.6521	-3.1375	-3.3438	-3.6417	-3.0771	-3.7521	-3.0979	-2.9958	-3.8021	-2.8479	-3.2562	-3.6729	-2.8812	-3.725	437.279	317.546	307.096	262.295	315.242	358.983	348.546	243.826	226.302	321.273	151.738	404.588	363.541	360.414	362.153	367.095	0.00022872	0.00020203	0.00011115	939.24	3.2789e-06	2.1496e-06	1076.1	201.58	2.2831e-06	2.3559e-06	260.28	76.17	55.504	15.438	2.8336e-06	23.149	0.00026724	0.00028163	7.316e-05	929.5	3.0399e-06	2.9216e-06	1065.3	200.97	3.0949e-06	2.9751e-06	258.92	76.425	56.021	15.671	2.9392e-06	23.517	210.897	183.147	143.779	92.967	241.749	239.946	93.028	100.526	286.372	207.935	100.275	107.163	107.885	115.222	234.465	114.180	-8191	255	
758.122	1	1	0	0	0.040219	0.01431	0.018341	0.3292	0.11041	0.04268	0.20488	0.25406	0.16401	0.098245	0.040684	0.21101	0.20181	0.10675	0.36403	0.048063	-2.7625	-2.8604	-3.5354	-3.1437	-3.1521	-3.7208	-2.9833	-3.6208	-3.3396	-2.9062	-3.7729	-3.0958	-3.2562	-3.5917	-2.8396	-3.475	95.614	200.199	358.133	324.944	209.805	287.001	248.849	358.072	136.827	308.132	271.692	385.186	307.964	412.841	433.053	388.827	0.00023559	0.00033923	7.4363e-05	943.31	3.6087e-06	2.9592e-06	1079.7	203.07	2.636e-06	3.0024e-06	258.73	75.915	55.901	15.543	3.641e-06	23.026	0.00026563	0.00028212	7.5941e-05	930.51	3.1016e-06	2.9035e-06	1064.5	201.78	3.0295e-06	3.2067e-06	258.33	76.263	56.172	15.74	3.0204e-06	23.459	211.496	189.458	156.575	92.770	247.013	198.064	93.070	101.041	221.996	209.023	99.998	106.683	108.022	114.453	259.631	114.412	-8191	255	
758.195	1	1	0	0	0.19606	0.24218	0.15468	0.08553	0.14465	0.1813	0.11122	0.12136	0.15785	0.094918	0.16444	0.12022	0.25422	0.13616	0.23062	0.18761	-3.0458	-2.8688	-3.6833	-3.1854	-3.1229	-3.7875	-3.125	-3.5854	-3.4771	-2.8625	-3.6854	-3.2938	-3.0854	-3.7521	-3.0292	-3.4271	338.037	396.098	379.179	95.316	341.445	153.608	352.615	430.784	434.272	387.472	176.726	397.611	232.896	132.630	403.479	380.325	0.00022302	0.00031425	7.3467e-05	942.59	3.8557e-06	4.0251e-06	1080.4	201.84	2.5323e-06	2.8423e-06	258.08	75.909	55.826	15.557	3.5662e-06	23.077	0.00026452	0.00028097	6.957e-05	930.18	3.0411e-06	2.8763e-06	1064.4	201.47	2.9106e-06	3.0986e-06	258.3	76.288	56.18	15.752	3.1096e-06	23.447	208.113	191.553	196.349	92.811	226.530	239.080	93.057	100.932	243.515	211.651	100.103	106.957	107.410	115.375	244.025	113.978	-8191	255	
758.314	1	1	0	0	0.12276	0.29749	0.29252	0.243	0.12778	0.06381	0.06269	0.27572	0.11214	0.14271	0.20066	0.21028	0.16046	0.24428	0.13831	0.28866	-3.0833	-2.9292	-3.6146	-3.2229	-2.8708	-3.7125	-3.0479	-3.1958	-3.5958	-3.0438	-3.6167	-3.4562	-3.0479	-3.6979	-2.9771	-3.3812	147.289	405.528	262.148	360.546	414.013	173.069	333.813	341.439	207.876	127.122	317.998	418.928	388.841	377.559	209.918	160.747	0.00024242	0.00027569	5.0618e-05	947.2	2.6972e-06	4.8126e-06	1080.9	202.91	2.9756e-06	4.4727e-06	260.32	75.537	56.127	15.441	1.2598e-06	23.093	0.0002616	0.00029074	7.4106e-05	931.37	3.0863e-06	2.831e-06	1066.3	201.79	2.7913e-06	3.1322e-06	258.86	76.339	56.223	15.688	2.9734e-06	23.519	208.165	157.067	167.002	92.739	269.715	226.482	92.683	100.359	243.708	215.251	99.745	107.327	107.564	114.842	276.551	114.195	-8191	255	
758.410	1	1	0	0	0.14532	0.035094	0.099189	0.12192	0.13365	0.064438	0.096712	0.23534	0.13574	0.068531	0.128	0.16831	0.12485	0.079631	0.17972	0.097651	-3.1583	-2.8396	-3.4771	-3.6292	-3.0458	-3.6167	-3.2333	-3.0625	-3.5646	-2.9125	-3.4333	-3.5104	-2.7958	-3.675	-3.2104	-2.9875	193.437	183.262	409.515	193.991	150.678	323.900	345.859	200.704	360.755	334.762	265.074	84.683	155.505	326.473	289.943	343.845	0.00022338	0.00015798	8.7055e-05	945.28	3.464e-06	3.2453e-06	1078.6	201.7	2.2586e-06	2.3673e-06	260.44	76.09	56.478	15.4	2.8797e-06	23.051	0.00025453	0.00027607	7.5462e-05	930.59	3.1099e-06	3.0181e-06	1064.4	201.23	2.9577e-06	3.1522e-06	258.93	76.539	56.232	15.695	2.9865e-06	23.511	212.162	187.824	172.809	92.615	251.975	257.969	92.760	100.571	231.531	253.809	99.815	107.299	107.558	114.652	211.234	113.845	-8191	255	
758.506	1	1	0	0	0.091002	0.36545	0.15205	0.044372	0.091041	0.214	0.17421	0.17027	0.28988	0.19079	0.12397	0.07512	0.11357	0.044186	0.24503	0.14206	-3.3021	-2.8292	-3.2021	-3.5917	-2.9875	-3.625	-3.175	-3.1792	-3.6875	-2.9396	-3.3833	-3.5667	-3.0938	-3.5792	-3.1896	-2.7687	221.740	427.840	400.454	359.049	412.467	189.690	391.519	344.666	420.943	430.882	88.262	388.206	187.297	379.560	149.620	346.605	0.00020988	0.00033938	6.0078e-05	945.84	2.4204e-06	3.2972e-06	1079.6	202.66	2.9388e-06	3.4926e-06	260.01	75.869	55.528	15.538	3.1871e-06	23.199	0.00026038	0.00027129	7.4664e-05	932.35	3.0573e-06	2.7812e-06	1065.9	201.43	2.9134e-06	2.8715e-06	258.88	76.475	55.99	15.727	2.8491e-06	23.512	206.596	170.537	190.806	92.639	253.867	213.495	92.929	100.450	254.678	272.384	100.106	106.906	107.899	115.207	241.404	114.195	-8191	255	
758.603	1	1	0	0	0.24784	0.23081	0.20314	0.26368	0.1473	0.12655	0.18457	0.21294	0.13432	0.068335	0.1433	0.10326	0.1289	0.023544	0.17689	0.27454	-3.3604	-2.8833	-3.1437	-3.6042	-2.825	-3.4708	-3.4396	-2.8792	-3.625	-3.0896	-3.2792	-3.5896	-2.8479	-3.6063	-3.3563	-2.8896	155.609	349.013	94.869	421.520	137.991	144.280	122.675	309.844	404.196	259.535	291.761	398.479	144.820	109.482	409.115	86.907	0.00022109	0.00046648	4.9967e-05	943.37	4.0936e-06	1.3341e-06	1082.7	203.75	2.6124e-06	2.3354e-06	259.85	75.853	55.978	15.524	3.4628e-06	22.885	0.00025972	0.00029601	8.0204e-05	930.19	3.1567e-06	2.7785e-06	1067.1	201.79	3.0559e-06	2.8801e-06	258.56	76.342	56.265	15.697	3.1463e-06	23.408	207.371	189.243	196.682	92.835	250.895	184.261	93.219	100.930	250.223	210.630	99.885	107.213	107.690	115.328	245.453	114.106	-8191	255	
758.723	1	1	0	0	0.12124	0.10762	0.12203	0.14449	0.10289	0.15297	0.16798	0.15136	0.11154	0.22909	0.10434	0.20301	0.26951	0.090759	0.27504	0.13748	-3.3479	-2.9042	-3.0521	-3.5896	-2.7542	-3.5979	-3.7792	-3.0729	-3.4313	-3.0938	-3.0396	-3.7083	-3.0229	-3.325	-3.5333	-3.0646	415.546	243.031	102.172	92.121	439.211	110.882	400.992	356.225	235.752	235.343	267.861	365.836	126.048	302.996	153.408	381.577	0.00021454	0.00026199	8.6895e-05	939.14	3.3569e-06	3.2771e-06	1076.6	202.65	3.0778e-06	2.3354e-06	258.75	75.772	55.725	15.465	3.5297e-06	23.101	0.00026044	0.0002688	7.8619e-05	929.9	3.1567e-06	2.923e-06	1064.4	201.22	2.8619e-06	3.0314e-06	258.19	76.318	56.117	15.716	2.8994e-06	23.451	209.193	177.097	170.431	92.669	247.607	216.572	92.839	100.614	242.261	257.677	99.888	107.375	108.152	115.381	244.970	114.083	-8191	255	
758.795	1	1	0	0	0.1132	0.14542	0.13955	0.077844	0.015089	0.099271	0.11483	0.28429	0.15654	0.28487	0.12386	0.19222	0.14907	0.075055	0.21308	0.15631	-3.3146	-3.1854	-2.9437	-3.7958	-3.0208	-3.1625	-3.8979	-2.8937	-3.6458	-3.4188	-2.9875	-3.7542	-3.1646	-3.3312	-3.7104	-2.9292	207.470	336.599	322.388	335.756	239.957	94.544	418.484	104.152	233.848	139.386	363.384	104.072	278.776	396.393	242.677	420.717	0.00023314	4.357e-05	8.6293e-05	939.53	2.2972e-06	2.9021e-06	1077.8	202.27	2.2767e-06	1.4302e-06	259.26	76.079	55.454	15.387	1.7372e-06	23.028	0.00025897	0.00026459	7.7331e-05	928.79	3.1306e-06	3.0131e-06	1065.4	201.47	2.8968e-06	2.7756e-06	258.89	76.421	56.059	15.678	2.721e-06	23.461	209.355	171.723	169.386	92.866	265.984	245.287	93.354	100.919	246.928	258.236	100.091	107.501	107.725	114.610	281.189	114.174	-8191	255	
758.916	1	1	0	0	0.11358	0.11633	0.23426	0.12086	0.076409	0.097496	0.053799	0.16644	0.10787	0.18467	0.2109	0.17048	0.11109	0.35388	0.041857	0.17459	-3.1958	-3.2208	-2.9042	-3.7833	-3.1667	-3.1729	-3.725	-3.0062	-3.4437	-3.3688	-2.8375	-3.575	-3.1542	-3.125	-3.5687	-3.0146	116.021	328.255	174.511	387.144	434.267	304.951	239.055	181.652	145.229	329.556	443.389	237.585	100.010	443.243	157.750	430.636	0.00024397	0.00037094	6.9501e-05	948.79	2.7081e-06	3.1773e-06	1071.1	202.82	2.4806e-06	3.5795e-06	259.22	75.86	55.926	15.411	3.5867e-06	23.125	0.00026606	0.0002601	7.9736e-05	931.46	3.1393e-06	3.1123e-06	1064.2	201.66	3.0218e-06	2.7965e-06	258.24	76.225	56.036	15.732	2.913e-06	23.483	204.696	160.127	209.497	93.191	259.103	232.033	93.225	101.682	227.252	251.922	100.436	107.405	108.345	115.882	266.409	114.297	-8191	255	
759.012	1	1	0	0	0.2385	0.22378	0.17176	0.26561	0.15694	0.18315	0.1488	0.12323	0.19136	0.20112	0.2103	0.21802	0.14635	0.11741	0.11672	0.072029	-2.9771	-3.5917	-2.7542	-3.8167	-3.1479	-2.8937	-3.8604	-2.9979	-3.1063	-3.4354	-2.9354	-3.6167	-3.2458	-2.8229	-3.5771	-2.8854	190.149	169.011	207.283	432.711	129.052	406.390	381.336	379.954	355.940	280.695	102.410	442.085	245.640	342.042	395.154	180.988	0.00021161	0.00041027	7.4084e-05	946.75	3.9372e-06	3.0895e-06	1081.2	201.46	3.4924e-06	2.8397e-06	259.34	75.901	55.978	15.503	2.232e-06	23.313	0.00025795	0.00026667	8.0591e-05	932.84	3.1344e-06	3.0507e-06	1065.3	201.07	3.0032e-06	2.9296e-06	258.55	76.437	55.999	15.722	2.8741e-06	23.538	210.150	168.945	178.720	92.961	240.340	226.389	92.771	100.720	254.215	212.098	100.068	107.140	107.785	114.465	221.093	113.892	-8191	255	
759.108	1	1	0	0	0.013049	0.1783	0.26473	0.094449	0.1724	0.080602	0.17436	0.17761	0.26859	0.12627	0.095217	0.090178	0.29757	0.086273	0.14237	0.15665	-2.9125	-3.4292	-2.7604	-3.6167	-3.1458	-3.0333	-3.7521	-3.1729	-3.2188	-3.7938	-2.9813	-3.4354	-3.3812	-2.8063	-3.6021	-3.025	269.881	356.319	221.206	313.532	162.676	341.142	344.896	104.990	428.218	106.011	108.720	412.876	417.509	143.167	438.433	437.133	0.0002179	0.00024298	0.00010047	940.77	3.1076e-06	2.6144e-06	1080.1	202.88	1.7102e-06	3.196e-06	258.61	75.63	56.01	15.5	2.8365e-06	23.163	0.00026047	0.00027987	7.9349e-05	929.55	3.0362e-06	3.139e-06	1065.9	201.09	2.9309e-06	2.817e-06	258.33	76.457	56.033	15.716	3.0119e-06	23.475	210.524	171.408	174.292	93.352	261.645	263.063	93.233	100.650	233.742	238.373	100.786	107.853	107.813	114.849	251.562	113.610	-8191	255	
759.204	1	1	0	0	0.087624	0.13198	0.089799	0.22078	0.23838	0.11422	0.20017	0.084416	0.24488	0.17822	0.26373	0.19996	0.14172	0.12553	0.22984	0.13134	-2.6021	-3.5938	-2.8646	-3.4875	-3.4354	-2.9104	-3.8063	-3.2104	-2.95	-3.7792	-2.8708	-3.5187	-3.425	-2.6771	-3.6833	-3.0792	256.832	222.354	134.506	362.829	393.087	200.850	373.303	220.783	304.442	299.817	118.496	292.191	421.970	221.833	393.486	309.364	0.00021881	0.00040565	6.9805e-05	945.82	2.8957e-06	1.5823e-06	1076.2	202.42	2.8859e-06	4.6088e-06	258.37	75.518	55.749	15.435	1.9321e-06	23.183	0.00025446	0.00026014	7.5439e-05	930.91	2.8556e-06	3.1259e-06	1065.4	201.53	3.0437e-06	2.9819e-06	257.78	76.255	56.045	15.704	2.6876e-06	23.534	206.470	163.006	170.280	92.495	253.668	227.746	92.461	99.972	274.786	250.664	99.408	106.230	106.836	114.020	261.646	112.913	-8191	255	
759.323	1	1	0	0	0.15009	0.051643	0.28157	0.13765	0.048974	0.075069	0.23659	0.1549	0.083525	0.015019	0.2587	0.097333	0.063914	0.18728	0.14451	0.13636	-2.5771	-3.5083	-2.7792	-3.3979	-3.8292	-2.9854	-3.6896	-3.25	-2.9292	-3.7208	-3.0167	-3.1354	-3.5708	-2.7396	-3.575	-3.4708	387.243	430.176	439.885	102.593	283.916	274.427	412.349	286.229	384.559	375.142	328.452	103.961	356.032	309.903	385.641	180.049	0.00021716	0.0003252	6.965e-05	939.63	3.7656e-06	4.0334e-06	1076.4	201.72	2.1354e-06	2.4917e-06	257.84	75.754	55.618	15.563	3.2031e-06	23.018	0.00026726	0.00025801	7.9486e-05	930.06	2.9918e-06	3.1404e-06	1064.6	201.36	3.0255e-06	2.9678e-06	257.89	76.563	56.038	15.759	2.8419e-06	23.496	214.226	178.275	155.045	92.254	247.255	244.373	92.348	99.919	251.592	224.088	99.533	106.904	107.023	114.255	238.262	113.152	-8191	255	
759.395	1	1	0	0	0.11684	0.097035	0.20522	0.21043	0.085113	0.27102	0.11905	0.076422	0.17764	0.17366	0.17246	0.041983	0.22688	0.12723	0.23648	0.2796	-2.4896	-3.5396	-3.125	-3.1937	-3.6604	-3.0271	-3.525	-3.4979	-2.8083	-3.5104	-3.1	-2.9833	-3.7313	-2.8604	-3.4	-3.3229	416.558	358.401	315.437	341.931	372.703	99.732	371.069	417.140	126.054	385.611	95.117	424.016	122.610	394.760	94.116	420.518	0.00022356	0.00030168	9.0456e-05	942.11	3.5103e-06	2.1605e-06	1081.2	201.61	1.6141e-06	3.3165e-06	257.85	76.56	55.516	15.421	2.0657e-06	23.144	0.00026686	0.00027999	7.5086e-05	930.74	2.9807e-06	3.0824e-06	1066.7	200.91	3.0839e-06	2.8147e-06	257.62	76.445	55.955	15.691	2.9857e-06	23.48	211.023	173.092	214.349	92.053	255.868	242.233	92.469	99.628	219.370	236.627	99.307	106.511	106.757	114.284	250.211	113.233	-8191	255	
759.515	1	1	0	0	0.23174	0.27426	0.11088	0.033509	0.22666	0.085911	0.23908	0.11675	0.21012	0.35474	0.045573	0.13945	0.092917	0.2384	0.15707	0.20351	-2.4875	-3.3479	-3.0646	-2.8688	-3.7271	-3.0687	-3.4437	-3.5583	-2.8104	-3.5938	-3.1271	-3.0125	-3.8354	-3.0938	-3.1854	-3.5583	294.571	87.947	366.964	222.660	435.736	183.762	380.424	82.857	353.771	117.101	391.723	398.589	423.391	361.652	417.148	387.046	0.00022457	0.00034209	8.7939e-05	942.01	2.0195e-06	2.6882e-06	1075.1	201	2.9166e-06	3.1719e-06	256.55	75.4	55.621	15.366	2.9293e-06	23.056	0.00027692	0.00026222	7.5132e-05	929.61	2.7938e-06	3.0575e-06	1064.4	200.8	3.1485e-06	2.8715e-06	257.9	76.19	55.976	15.675	2.9142e-06	23.421	211.063	146.527	188.243	92.204	238.190	245.985	92.632	100.132	257.465	228.388	99.110	106.516	107.219	114.392	277.693	113.257	-8191	255	
#DATA ENDS
