BOXY.EXE: ISS Imagent and Oximeter Data Acquisition Program Version 0.80
Ascii Record File

#ACQ INFORMATION
2  Detector Channels 
16  External MUX Channels 
1  Auxiliary Channels 
5000  Waveform (CCF) Frequency (Hz)
1  Waveforms Skipped 
30  Waveforms Averaged 
1  Cycles Averaged 
16  Acquisitions per Waveform 
10.0806  Updata Rate (Hz) 

#FILE INFORMATION
TRUE -- External MUX Channel results are PARSED.
FALSE -- AC DC and Phase are NOT grouped.
TRUE -- Companion Program Settings File CREATED.
FALSE -- AC data not excluded
FALSE -- DC data not excluded
FALSE -- Phase data not excluded
FALSE -- Auxillary Chn. data not excluded
Tab delimiters

#CALIBRATION STATE
TRUE -- Waveform Calibration Values APPLIED.


#AUX CALIBRATION VALUES
Val Type	aux-1	

Term	1.0000e+00	
Factor	0.0000e+00	


#WF CALIBRATION VALUES
A = Detector Channel
Val Type	A-AC1	A-AC2	A-AC3	A-AC4	A-AC5	A-AC6	A-AC7	A-AC8	A-AC9	A-AC10	A-AC11	A-AC12	A-AC13	A-AC14	A-AC15	A-AC16	A-DC1	A-DC2	A-DC3	A-DC4	A-DC5	A-DC6	A-DC7	A-DC8	A-DC9	A-DC10	A-DC11	A-DC12	A-DC13	A-DC14	A-DC15	A-DC16	A-Ph1	A-Ph2	A-Ph3	A-Ph4	A-Ph5	A-Ph6	A-Ph7	A-Ph8	A-Ph9	A-Ph10	A-Ph11	A-Ph12	A-Ph13	A-Ph14	A-Ph15	A-Ph16	

Term	0.00000e+00	0.00000e+00	0.00000e+00	0.00000e+00	0.00000e+00	0.00000e+00	0.00000e+00	0.00000e+00	0.00000e+00	0.00000e+00	0.00000e+00	0.00000e+00	0.00000e+00	0.00000e+00	0.00000e+00	0.00000e+00	0.00000e+00	0.00000e+00	0.00000e+00	0.00000e+00	0.00000e+00	0.00000e+00	0.00000e+00	0.00000e+00	0.00000e+00	0.00000e+00	0.00000e+00	0.00000e+00	0.00000e+00	0.00000e+00	0.00000e+00	0.00000e+00	0.00000e+00	0.00000e+00	0.00000e+00	0.00000e+00	0.00000e+00	0.00000e+00	0.00000e+00	0.00000e+00	0.00000e+00	0.00000e+00	0.00000e+00	0.00000e+00	0.00000e+00	0.00000e+00	0.00000e+00	0.00000e+00	
Factor	1.00000e+00	1.00000e+00	1.00000e+00	1.00000e+00	1.00000e+00	1.00000e+00	1.00000e+00	1.00000e+00	1.00000e+00	1.00000e+00	1.00000e+00	1.00000e+00	1.00000e+00	1.00000e+00	1.00000e+00	1.00000e+00	1.00000e+00	1.00000e+00	1.00000e+00	1.00000e+00	1.00000e+00	1.00000e+00	1.00000e+00	1.00000e+00	1.00000e+00	1.00000e+00	1.00000e+00	1.00000e+00	1.00000e+00	1.00000e+00	1.00000e+00	1.00000e+00	X	X	X	X	X	X	X	X	X	X	X	X	X	X	X	X	

B = Detector Channel
Val Type	B-AC1	B-AC2	B-AC3	B-AC4	B-AC5	B-AC6	B-AC7	B-AC8	B-AC9	B-AC10	B-AC11	B-AC12	B-AC13	B-AC14	B-AC15	B-AC16	B-DC1	B-DC2	B-DC3	B-DC4	B-DC5	B-DC6	B-DC7	B-DC8	B-DC9	B-DC10	B-DC11	B-DC12	B-DC13	B-DC14	B-DC15	B-DC16	B-Ph1	B-Ph2	B-Ph3	B-Ph4	B-Ph5	B-Ph6	B-Ph7	B-Ph8	B-Ph9	B-Ph10	B-Ph11	B-Ph12	B-Ph13	B-Ph14	B-Ph15	B-Ph16	

Term	0.00000e+00	0.00000e+00	0.00000e+00	0.00000e+00	0.00000e+00	0.00000e+00	0.00000e+00	0.00000e+00	0.00000e+00	0.00000e+00	0.00000e+00	0.00000e+00	0.00000e+00	0.00000e+00	0.00000e+00	0.00000e+00	0.00000e+00	0.00000e+00	0.00000e+00	0.00000e+00	0.00000e+00	0.00000e+00	0.00000e+00	0.00000e+00	0.00000e+00	0.00000e+00	0.00000e+00	0.00000e+00	0.00000e+00	0.00000e+00	0.00000e+00	0.00000e+00	-9.05658e+01	-1.26898e+02	-1.24483e+02	-1.83724e+02	-5.37553e+01	-6.73461e+01	-1.56230e+02	-1.61923e+02	-5.40194e+01	-7.09364e+01	-1.72497e+02	-1.69782e+02	-1.82572e+02	-1.76840e+02	-5.89923e+01	-1.49992e+02	
Factor	1.56069e-05	1.51563e-04	3.89356e-05	2.00537e-01	1.34946e-06	1.72342e-06	1.58949e-01	5.10371e-02	1.12946e-06	1.86802e-06	8.89495e-02	2.57654e-02	2.29960e-02	7.58840e-03	1.36366e-06	1.13387e-02	1.08764e-05	1.96114e-05	5.47076e-06	1.05810e-01	1.98849e-07	2.17421e-07	7.90648e-02	2.72056e-02	1.94852e-07	2.18053e-07	4.58390e-02	1.33896e-02	1.23890e-02	4.07640e-03	2.02936e-07	5.89380e-03	X	X	X	X	X	X	X	X	X	X	X	X	X	X	X	X	



#DISTANCE SETTINGS
A = Detector Channel
A-1	A-2	A-3	A-4	A-5	A-6	A-7	A-8	A-9	A-10	A-11	A-12	A-13	A-14	A-15	A-16	

1.0000e+01	1.0000e+01	1.0000e+01	1.4500e+00	1.0000e+01	1.0000e+01	1.5100e+00	1.9500e+00	1.0000e+01	1.0000e+01	2.0100e+00	2.5000e+00	2.4400e+00	2.9500e+00	1.0000e+01	3.0100e+00	

B = Detector Channel
B-1	B-2	B-3	B-4	B-5	B-6	B-7	B-8	B-9	B-10	B-11	B-12	B-13	B-14	B-15	B-16	

1.0000e+01	1.0000e+01	1.0000e+01	1.4500e+00	1.0000e+01	1.0000e+01	1.5100e+00	1.9500e+00	1.0000e+01	1.0000e+01	2.0100e+00	2.5000e+00	2.4400e+00	2.9500e+00	1.0000e+01	3.0100e+00	




#DATA BEGINS
time	group	step	mark	flag	A-AC1	A-AC2	A-AC3	A-AC4	A-AC5	A-AC6	A-AC7	A-AC8	A-AC9	A-AC10	A-AC11	A-AC12	A-AC13	A-AC14	A-AC15	A-AC16	A-DC1	A-DC2	A-DC3	A-DC4	A-DC5	A-DC6	A-DC7	A-DC8	A-DC9	A-DC10	A-DC11	A-DC12	A-DC13	A-DC14	A-DC15	A-DC16	A-Ph1	A-Ph2	A-Ph3	A-Ph4	A-Ph5	A-Ph6	A-Ph7	A-Ph8	A-Ph9	A-Ph10	A-Ph11	A-Ph12	A-Ph13	A-Ph14	A-Ph15	A-Ph16	B-AC1	B-AC2	B-AC3	B-AC4	B-AC5	B-AC6	B-AC7	B-AC8	B-AC9	B-AC10	B-AC11	B-AC12	B-AC13	B-AC14	B-AC15	B-AC16	B-DC1	B-DC2	B-DC3	B-DC4	B-DC5	B-DC6	B-DC7	B-DC8	B-DC9	B-DC10	B-DC11	B-DC12	B-DC13	B-DC14	B-DC15	B-DC16	B-Ph1	B-Ph2	B-Ph3	B-Ph4	B-Ph5	B-Ph6	B-Ph7	B-Ph8	B-Ph9	B-Ph10	B-Ph11	B-Ph12	B-Ph13	B-Ph14	B-Ph15	B-Ph16	aux-1	digaux	

713.370	1	1	0	256	0.16055	0.24012	0.17562	0.18693	0.33026	0.048217	0.31882	0.062525	0.17703	0.31853	0.34573	0.15846	0.059516	0.24307	0.21436	0.30319	-3.0542	-2.9625	-3.5667	-3.0104	-3.2042	-3.5167	-3.0396	-3.5271	-3.3771	-2.9625	-3.7854	-3.1667	-3.1979	-3.5958	-2.8604	-3.5375	199.275	281.282	336.685	433.207	293.819	367.011	324.287	414.891	83.390	109.058	380.340	344.969	93.613	388.233	221.354	355.089	0.00023887	0.000207	0.00010907	988.61	2.7933e-06	3.2561e-06	1116.7	208.88	2.9601e-06	4.0629e-06	260.81	76.511	56.825	16.219	1.6583e-06	24.055	0.00021646	0.00017814	4.4268e-05	973.39	2.2064e-06	1.5075e-06	1101	208.18	1.8129e-06	1.8743e-06	259.45	77.136	57.313	16.382	1.9862e-06	24.373	207.194	200.632	149.435	91.234	252.525	239.586	91.853	99.474	259.362	242.448	99.084	105.854	106.699	113.603	242.970	113.201	-8191	255	
713.466	1	1	0	0	0.16489	0.24973	0.18753	0.11433	0.1367	0.13384	0.58461	0.11235	0.23805	0.16828	0.12953	0.15927	0.24566	0.25846	0.11387	0.26354	-2.9938	-2.8583	-3.6542	-3.1396	-3.0792	-3.6771	-3.1688	-3.5229	-3.3271	-2.9458	-3.8146	-3.1875	-3.0875	-3.7354	-2.9854	-3.4	343.874	348.199	279.845	238.008	236.187	177.705	435.023	364.851	408.748	324.322	140.637	84.256	352.274	153.854	377.049	363.932	0.00022527	0.0002329	5.9502e-05	981.09	3.2653e-06	3.7815e-06	1113.6	208.12	2.4204e-06	2.5734e-06	261.17	76.981	57.422	16.17	2.7529e-06	23.907	0.00020278	0.0001718	4.2262e-05	970.38	1.9603e-06	1.7711e-06	1099	207.3	1.8694e-06	1.793e-06	259.54	77.066	57.282	16.329	1.9406e-06	24.302	206.955	178.335	156.126	91.516	234.389	207.703	91.859	99.536	242.451	219.733	99.288	105.929	106.530	113.562	256.534	113.234	-8191	255	
713.562	1	1	0	0	0.33377	0.066367	0.10653	0.28756	0.24242	0.18252	0.17592	0.28164	0.091733	0.19386	0.32955	0.17759	0.058287	0.038129	0.17397	0.2943	-3.1375	-2.85	-3.5396	-3.2271	-2.9208	-3.6	-3.0812	-3.1708	-3.5583	-2.7042	-3.6604	-3.3542	-2.9917	-3.7479	-3.1146	-3.3667	301.715	300.925	177.541	146.176	197.792	145.684	420.613	346.387	125.552	406.362	419.820	381.218	422.004	275.545	389.173	342.624	0.00023888	0.00023069	9.7209e-06	983.44	3.6125e-06	2.7553e-06	1111.2	208.27	2.9219e-06	3.0711e-06	260.74	76.572	56.999	16.037	2.4811e-06	24.009	0.00021062	0.00018602	4.3322e-05	969.87	1.9988e-06	1.6741e-06	1096.3	206.92	1.8332e-06	1.8148e-06	259.13	76.921	57.303	16.315	1.9025e-06	24.304	210.196	185.779	161.269	91.942	240.554	221.494	91.677	99.916	244.454	209.601	98.995	106.173	106.623	113.665	230.220	112.934	-8191	255	
713.659	1	1	0	0	0.1516	0.41399	0.1449	0.21944	0.18905	0.11458	0.37053	0.058277	0.18837	0.35545	0.13737	0.23894	0.17277	0.045403	0.097458	0.24286	-3.3417	-2.7979	-3.4562	-3.4146	-2.8333	-3.7583	-3.2333	-3.3104	-3.6667	-2.8396	-3.4104	-3.2958	-2.9583	-3.6312	-3.1604	-3.0021	418.665	407.363	245.916	372.787	414.312	106.462	439.728	232.436	160.592	223.818	284.131	123.164	320.200	366.308	426.194	326.882	0.00023849	0.0002311	0.00010705	981.59	3.3199e-06	3.2493e-06	1115.4	207.84	2.4639e-06	2.1721e-06	258.96	76.766	56.783	16.197	3.4923e-06	23.99	0.00021055	0.00017217	4.4325e-05	967.63	2.0635e-06	1.6995e-06	1097.2	207.05	1.8093e-06	1.8453e-06	258.42	76.978	57.069	16.328	1.8163e-06	24.313	207.127	153.121	171.876	91.506	240.957	239.372	91.802	99.515	246.154	201.547	99.211	106.115	106.436	113.540	237.013	112.750	-8191	255	
713.755	1	1	0	0	0.28415	0.26985	0.18979	0.096278	0.040306	0.016546	0.29916	0.23199	0.12017	0.17219	0.099821	0.29531	0.23427	0.22177	0.070112	0.12508	-3.225	-2.8771	-3.4042	-3.5167	-2.9333	-3.6792	-3.3312	-3.1063	-3.7396	-2.7917	-3.4875	-3.5042	-2.9062	-3.4313	-3.125	-3.1167	157.090	94.620	193.768	148.421	318.498	270.624	436.619	164.450	178.648	126.825	193.788	145.555	329.007	372.958	255.796	266.823	0.00023028	0.00019031	4.4991e-05	988.18	2.2744e-06	4.5802e-06	1112.3	208.72	2.7044e-06	7.1741e-07	261.24	76.421	57.231	16.134	2.8573e-06	23.968	0.00019704	0.00018615	4.388e-05	971.57	2.0498e-06	1.6886e-06	1097	207.35	1.8284e-06	1.8012e-06	259.17	76.917	57.33	16.379	1.7634e-06	24.346	213.898	188.111	196.742	91.837	220.423	248.806	91.676	99.647	276.032	255.556	99.442	106.001	106.293	113.931	261.333	113.588	-8191	255	
713.851	1	1	0	0	0.12028	0.14681	0.2604	0.11557	0.12188	0.2513	0.32578	0.3015	0.090032	0.054531	0.18015	0.074494	0.19842	0.14991	0.081376	0.041162	-3.225	-2.7938	-3.2646	-3.5875	-2.6875	-3.6083	-3.6396	-3	-3.6646	-2.9917	-3.3563	-3.5563	-2.9104	-3.4208	-3.4771	-2.9625	391.521	381.374	154.648	232.465	232.775	353.622	338.334	83.880	270.326	246.020	82.687	119.166	374.379	98.838	182.969	243.306	0.00022355	0.00030781	7.7669e-05	982.74	2.9934e-06	3.0176e-06	1116.3	207.54	3.8e-06	4.2667e-06	260.98	77.088	57.14	16.158	2.5934e-06	24.044	0.00019911	0.00016911	4.5977e-05	970.78	2.095e-06	1.7077e-06	1099.3	207.15	1.9538e-06	1.9652e-06	259.45	77.167	57.349	16.342	1.9093e-06	24.337	210.004	176.074	175.135	91.627	260.464	244.196	91.638	99.337	252.821	245.220	99.189	106.079	106.489	114.138	238.431	112.787	-8191	255	
713.947	1	1	0	0	0.12176	0.10206	0.078017	0.12176	0.14703	0.12117	0.29929	0.27865	0.21875	0.054682	0.26711	0.12916	0.14049	0.086235	0.093417	0.16955	-3.2917	-3.0646	-3.1	-3.8167	-2.8063	-3.4375	-3.4646	-3.0833	-3.6667	-3.1583	-3.15	-3.6271	-2.9562	-3.7042	-3.3438	-2.8104	351.038	341.441	241.895	308.309	214.885	190.342	379.063	307.537	110.129	389.453	335.000	227.601	225.536	318.707	313.851	397.794	0.00024051	0.00025763	5.4326e-05	981.26	3.152e-06	3.9682e-06	1107.4	207.82	2.4343e-06	3.5075e-06	258.47	76.264	56.582	16.04	2.2981e-06	23.872	0.00021132	0.00018034	4.8485e-05	969.06	2.1032e-06	1.8349e-06	1095.8	207.06	1.8905e-06	1.6845e-06	258.21	76.635	56.961	16.285	1.8116e-06	24.255	209.390	163.503	173.488	91.496	242.070	241.951	91.901	99.403	249.062	265.438	99.160	105.915	106.324	113.936	219.213	113.029	-8191	255	
714.068	1	1	0	0	0.17078	0.19243	0.095634	0.23364	0.24047	0.24217	0.31405	0.14721	0.10936	0.0859	0.068944	0.045671	0.18895	0.058578	0.28206	0.25909	-3.3042	-3.2021	-3.0417	-3.7438	-2.8333	-3.2854	-3.7062	-2.9188	-3.4708	-3.1979	-2.9979	-3.725	-2.9396	-3.4146	-3.6146	-2.9021	389.899	324.739	188.030	406.345	116.148	138.598	388.755	356.546	382.472	91.644	90.540	320.459	418.592	423.680	208.446	410.589	0.00020911	0.00034383	6.798e-05	982.66	2.6373e-06	3.3285e-06	1107.1	207.77	2.2472e-06	1.0812e-06	259.25	76.866	56.938	16.073	3.2755e-06	24.091	0.00019936	0.0001647	4.6171e-05	968.89	2.0593e-06	1.6995e-06	1094.4	206.78	1.8215e-06	1.6858e-06	258.25	76.964	57.192	16.308	1.667e-06	24.345	207.903	183.031	189.896	91.662	222.093	235.477	91.919	99.437	243.645	240.210	99.207	105.897	106.875	113.927	235.081	112.874	-8191	255	
714.162	1	1	0	0	0.2576	0.27305	0.23566	0.18404	0.057132	0.13337	0.11694	0.23482	0.030564	0.1202	0.084667	0.13199	0.032652	0.19342	0.037526	0.21075	-3.1833	-3.3146	-2.8854	-3.6667	-2.9333	-3.05	-3.9062	-2.8063	-3.6125	-3.2812	-2.9458	-3.6688	-3.0312	-2.9333	-3.6167	-2.9333	436.262	129.676	381.420	416.565	183.500	208.695	396.352	437.363	435.900	346.145	128.120	220.103	363.949	309.309	101.535	339.277	0.00026151	0.00037642	6.8184e-05	982.31	3.405e-06	2.4252e-06	1110.5	206.97	2.361e-06	2.2795e-06	259.35	76.326	56.625	16.087	2.5678e-06	23.812	0.00022052	0.00015824	4.9499e-05	968.34	2.0593e-06	1.8028e-06	1095.3	206.68	1.8012e-06	1.6381e-06	258.43	76.692	56.903	16.304	1.6713e-06	24.199	209.405	192.332	171.451	91.604	255.678	233.854	91.771	99.509	290.812	264.323	99.403	106.247	106.868	114.076	233.937	112.789	-8191	255	
714.258	1	1	0	0	0.039931	0.048649	0.18626	0.033369	0.37594	0.16888	0.23329	0.074199	0.066072	0.16405	0.052326	0.12673	0.089336	0.16817	0.088901	0.13144	-2.8667	-3.4688	-3.0083	-3.6792	-3.2438	-3.0583	-3.8354	-2.9875	-3.2917	-3.4958	-2.8125	-3.5083	-3.1479	-2.9854	-3.7458	-2.9667	252.431	403.723	232.810	388.961	121.825	309.765	435.949	222.860	346.120	257.035	198.069	105.156	349.341	323.731	381.392	399.301	0.00024319	0.00032417	6.5454e-05	983.79	2.4376e-06	2.9613e-06	1110.1	207.06	2.3321e-06	3.2894e-06	258.67	76.216	57.086	16.147	2.4244e-06	23.858	0.00020849	0.000164	4.4325e-05	967.68	1.974e-06	1.8617e-06	1095.7	206.57	1.8844e-06	1.7467e-06	258.28	76.794	56.997	16.338	1.5816e-06	24.246	208.009	186.894	182.386	91.828	243.895	251.252	91.987	99.502	248.237	232.807	99.409	106.035	106.615	113.919	271.633	112.696	-8191	255	
714.354	1	1	0	0	0.35655	0.084832	0.22367	0.10951	0.1847	0.088168	0.37446	0.1134	0.090477	0.10005	0.15612	0.19784	0.27093	0.18334	0.029179	0.10631	-2.9729	-3.5438	-2.6479	-3.6688	-3.1188	-2.8792	-3.7917	-3.0938	-3.2083	-3.5938	-3.0458	-3.4562	-3.3958	-2.8063	-3.5646	-3.2167	151.187	345.320	125.053	133.252	243.647	295.158	386.985	134.396	358.532	393.153	337.193	310.517	288.122	114.724	282.850	419.033	0.0002266	0.00030706	7.5698e-05	978.81	3.2048e-06	2.4694e-06	1109.9	207.78	3.1115e-06	3.6287e-06	259.32	76.024	56.927	16.03	4.0646e-06	24.056	0.0002084	0.00014884	4.7995e-05	966.08	1.9897e-06	1.9165e-06	1094	206.67	1.9668e-06	1.6763e-06	257.69	76.522	56.965	16.287	1.7854e-06	24.234	210.186	185.973	164.153	91.663	258.360	197.939	92.207	99.363	238.772	263.354	99.434	106.106	106.424	114.272	243.305	113.041	-8191	255	
714.450	1	1	0	0	0.19415	0.2778	0.093868	0.077029	0.11194	0.18075	0.035359	0.089307	0.084212	0.17098	0.10883	0.27574	0.12065	0.080833	0.20775	0.084826	-2.8521	-3.6896	-2.7417	-3.725	-3.4104	-2.9417	-3.9271	-3.0021	-3.2021	-3.5125	-2.8542	-3.3042	-3.4188	-2.8333	-3.4729	-3.2313	426.529	113.706	313.129	257.718	411.302	209.109	296.720	306.083	435.488	255.870	95.121	367.140	349.155	233.889	357.354	165.468	0.0002371	0.00028259	8.7916e-05	976.66	3.1124e-06	3.184e-06	1106.8	207.44	3.149e-06	2.3196e-06	258.76	76.025	56.46	16.029	2.1456e-06	23.74	0.00021087	0.00016327	4.6171e-05	964.58	1.9674e-06	1.882e-06	1094.4	206.54	2.0025e-06	1.5654e-06	257.59	76.442	56.883	16.22	1.7905e-06	24.17	209.478	196.740	174.762	92.089	240.108	249.987	92.078	99.413	238.179	249.427	98.912	106.539	106.681	114.039	247.534	113.413	-8191	255	
714.547	1	1	0	0	0.11531	0.24818	0.18627	0.088149	0.23496	0.21443	0.11169	0.10483	0.15754	0.089716	0.039325	0.20183	0.12106	0.020935	0.18566	0.032366	-2.65	-3.7313	-2.9708	-3.4229	-3.3833	-2.9708	-3.6729	-3.2917	-2.9979	-3.7271	-2.9729	-3.4688	-3.6958	-2.9479	-3.8021	-3.4083	384.235	278.317	244.217	434.847	411.243	88.942	133.325	394.660	94.609	170.832	436.246	412.729	429.771	402.777	129.066	186.825	0.00022717	0.00027474	6.0035e-05	976.33	4.8148e-06	2.7385e-06	1107.6	206.54	2.9381e-06	3.3039e-06	258.23	76.331	57.103	16.028	2.868e-06	23.743	0.00020785	0.00015938	4.7698e-05	965.33	1.9947e-06	1.8866e-06	1092.4	206.2	1.9668e-06	1.6995e-06	257.52	76.467	57.05	16.25	1.6789e-06	24.142	210.694	179.477	187.995	91.866	243.895	239.294	91.970	99.527	263.666	219.966	99.119	105.896	106.827	114.073	237.175	112.337	-8191	255	
714.667	1	1	0	0	0.33805	0.095613	0.19125	0.18784	0.069441	0.17841	0.22356	0.21344	0.066076	0.22783	0.18361	0.21583	0.38102	0.2154	0.13693	0.058677	-2.625	-3.5875	-2.9479	-3.3438	-3.5938	-2.8167	-3.7729	-3.2667	-2.9354	-3.6521	-3.0479	-3.1188	-3.8229	-2.9042	-3.4542	-3.4354	165.265	147.868	112.129	436.473	139.328	323.610	378.708	135.710	408.305	340.723	153.623	177.679	415.424	82.509	388.241	396.617	0.00023112	0.00025642	7.1483e-05	980.57	4.02e-06	2.1398e-06	1102.7	206.77	2.2119e-06	2.8883e-06	257.79	75.832	56.57	15.963	2.3897e-06	23.737	0.00020087	0.00016715	4.5202e-05	964.18	1.9355e-06	1.7765e-06	1089.4	205.75	2.0192e-06	1.53e-06	257.47	76.317	56.797	16.268	1.7588e-06	24.165	211.738	169.454	171.731	91.897	255.258	227.369	92.132	99.741	252.763	228.075	99.289	106.414	106.696	114.264	242.256	113.149	-8191	255	
714.763	1	1	0	0	0.19644	0.13304	0.25294	0.42181	0.098482	0.11895	0.15073	0.1775	0.21923	0.35377	0.12706	0.11588	0.21331	0.3324	0.14273	0.15497	-2.4	-3.6833	-3.0312	-3.1167	-3.7042	-2.9854	-3.6875	-3.6083	-2.95	-3.8167	-3.125	-3.0438	-3.6458	-2.9562	-3.3708	-3.6229	151.128	408.613	193.158	390.470	373.243	297.685	317.595	133.312	389.212	325.556	170.951	122.377	341.437	85.262	317.014	202.485	0.00024205	0.00015907	6.7149e-05	980.62	2.2977e-06	1.2131e-06	1105.3	207.12	2.5559e-06	3.6365e-06	258.36	76.362	56.68	15.966	3.1162e-06	23.722	0.00021918	0.00015383	4.5145e-05	966.51	1.7979e-06	1.8037e-06	1091.2	206.28	1.9359e-06	1.5632e-06	257.03	76.414	56.997	16.209	1.7102e-06	24.181	209.350	185.888	174.539	91.594	268.733	262.129	92.108	99.494	284.119	215.924	99.141	105.993	106.862	113.951	248.032	113.304	-8191	255	
714.860	1	1	0	0	0.30813	0.092604	0.23205	0.053616	0.29055	0.2486	0.27183	0.091852	0.28603	0.15243	0.11368	0.042332	0.093574	0.10208	0.18379	0.36297	-2.5958	-3.6646	-3.2375	-2.9125	-3.6271	-2.9708	-3.3021	-3.575	-2.8167	-3.5563	-3.3812	-2.9917	-3.5896	-2.9708	-3.1333	-3.3958	404.465	167.752	287.176	284.872	133.810	413.508	326.038	417.008	317.760	255.193	102.892	192.450	200.176	438.786	161.748	361.751	0.00023359	0.00024916	3.0416e-05	979.91	3.0306e-06	3.0013e-06	1105.8	207.81	2.8221e-06	3.452e-06	257.93	75.86	56.928	15.956	1.7286e-06	23.752	0.00021936	0.00016069	4.5692e-05	963.92	1.7528e-06	1.8345e-06	1091.6	206.07	1.9749e-06	1.5895e-06	257.31	76.299	56.865	16.191	1.8632e-06	24.135	211.691	158.354	202.457	91.939	253.850	232.074	91.970	99.533	265.157	223.316	99.291	106.423	106.985	114.165	262.410	113.488	-8191	255	
714.931	1	1	0	0	0.099216	0.15508	0.15749	0.12749	0.11085	0.037802	0.12319	0.087035	0.091126	0.13737	0.14802	0.13642	0.22146	0.28337	0.05552	0.034075	-2.5333	-3.3958	-3.2083	-3.0271	-3.6625	-3.1188	-3.1917	-3.6708	-2.8187	-3.5729	-3.5958	-2.8542	-3.8187	-3.0333	-2.9521	-3.7812	137.962	187.268	255.751	401.318	381.784	390.137	384.847	398.214	296.930	140.411	377.915	384.521	428.895	374.981	406.461	222.004	0.00023965	0.00024753	5.5591e-05	980.13	3.1323e-06	2.6771e-06	1107.4	206.96	1.797e-06	3.8428e-06	258.86	76.152	56.664	15.867	1.6375e-06	23.711	0.00021524	0.0001508	4.2216e-05	964	1.7445e-06	1.757e-06	1091.2	205.67	1.8726e-06	1.6949e-06	257.37	76.305	56.678	16.194	1.881e-06	24.1	211.582	170.702	159.351	92.261	258.357	261.444	92.194	99.493	249.618	199.907	99.229	106.526	106.700	114.539	262.128	112.919	-8191	255	
715.052	1	1	0	0	0.062285	0.35162	0.094159	0.089337	0.25537	0.097885	0.12886	0.045302	0.32681	0.043868	0.22195	0.14966	0.19724	0.225	0.35543	0.17873	-2.5896	-3.5042	-3.4479	-3.0812	-3.5833	-3.1292	-3.125	-3.7604	-2.9667	-3.1937	-3.6958	-2.9938	-3.6542	-3.3208	-2.875	-3.775	91.603	313.944	252.949	397.016	341.061	101.712	259.931	353.008	166.072	266.651	441.264	400.072	98.950	436.359	274.914	359.774	0.00023609	0.00029051	0.0001074	978	1.8206e-06	1.5876e-06	1104.7	206.3	1.8692e-06	3.1773e-06	255.03	76.009	56.45	15.833	2.3189e-06	23.66	0.00021288	0.00015293	4.502e-05	962.66	1.8551e-06	1.6705e-06	1087	205.47	2.0378e-06	1.7412e-06	255.59	76.204	56.743	16.118	1.8091e-06	24.031	210.151	180.173	193.147	91.798	247.901	242.131	92.240	99.928	260.991	212.414	99.464	106.327	107.039	114.510	265.394	113.454	-8191	255	
715.146	1	1	0	0	0.36414	0.049576	0.099391	0.32276	0.23598	0.12565	0.11847	0.27952	0.2212	0.040977	0.17821	0.11378	0.27609	0.19241	0.10871	0.19186	-2.5667	-3.1063	-3.7917	-3.1167	-3.625	-3.2771	-3.0792	-3.725	-3.1792	-3.1208	-3.7479	-2.9458	-3.4188	-3.3479	-2.9271	-3.7167	111.957	248.654	315.032	334.829	240.083	189.985	308.862	100.940	386.903	206.672	355.055	89.757	366.323	374.211	313.266	146.652	0.00022623	0.00025727	3.8111e-05	970.73	3.3652e-06	3.4175e-06	1101.9	206.74	3.502e-06	4.2961e-06	256.58	75.456	56.158	15.912	2.1139e-06	23.769	0.00021605	0.00014917	3.9412e-05	960.45	2.0162e-06	1.8331e-06	1087.2	205.68	1.9367e-06	1.7908e-06	255.76	76.062	56.518	16.15	1.7909e-06	24.081	215.470	164.841	170.129	91.833	242.497	252.076	92.350	100.032	251.574	223.287	99.378	106.838	106.872	114.155	215.011	112.625	-8191	255	
715.242	1	1	0	0	0.2568	0.15182	0.17131	0.11297	0.14799	0.2001	0.26392	0.33214	0.38522	0.18254	0.3411	0.32463	0.20637	0.16856	0.19435	0.070387	-2.6271	-3.1979	-3.625	-2.9188	-3.4271	-3.4562	-3.1521	-3.7375	-3.2146	-2.9771	-3.7104	-2.9042	-3.4938	-3.6479	-2.8479	-3.6021	118.071	285.414	112.732	414.673	92.771	98.305	418.081	332.247	417.328	375.252	348.049	170.073	360.743	435.465	355.360	292.754	0.00022704	0.0002392	7.1926e-05	972.65	2.9567e-06	3.9997e-06	1097.8	206.96	2.265e-06	2.3262e-06	256.4	75.761	56.043	15.914	2.4975e-06	23.537	0.00020661	0.00016465	4.0552e-05	958.23	2.022e-06	1.555e-06	1085.4	205.35	1.8925e-06	1.7935e-06	255.2	76.009	56.321	16.109	1.8391e-06	24.028	215.900	187.113	186.925	92.075	253.083	210.661	92.211	99.962	249.978	235.447	99.500	106.497	107.093	114.021	228.447	113.658	-8191	255	
715.339	1	1	0	0	0.18718	0.35836	0.089062	0.26064	0.32008	0.13195	0.22465	0.025533	0.015441	0.12071	0.070727	0.10176	0.05717	0.26606	0.01965	0.081695	-2.9062	-2.8625	-3.7687	-3.0208	-3.1833	-3.6479	-2.9875	-3.5542	-3.3104	-3.0854	-3.825	-3.0792	-3.1542	-3.6125	-2.9062	-3.5687	268.893	166.071	202.083	275.996	360.343	245.554	411.358	162.689	193.207	345.121	409.619	422.158	339.565	138.800	386.640	367.533	0.00022125	0.00037665	7.5653e-05	972.17	2.3582e-06	2.0673e-06	1096	206.02	3.0934e-06	3.5469e-06	255.62	75.701	55.937	15.805	3.5476e-06	23.686	0.00020201	0.00016196	4.3162e-05	959.13	1.8742e-06	1.6882e-06	1083.4	204.96	1.7683e-06	1.7272e-06	254.66	75.953	56.352	16.093	1.8383e-06	24.035	206.445	156.563	168.138	92.099	247.538	251.395	92.272	100.076	242.761	199.685	99.772	106.287	107.341	114.352	247.132	113.433	-8191	255	
715.459	1	1	0	0	0.13008	0.18834	0.42987	0.059531	0.164	0.079159	0.14185	0.11005	0.23046	0.091611	0.26377	0.14673	0.19193	0.35649	0.065554	0.073188	-2.8604	-2.9688	-3.7396	-3.1229	-3.2104	-3.5729	-3.0583	-3.6667	-3.3792	-2.8979	-3.675	-3.0708	-3.1375	-3.5687	-2.9125	-3.5729	355.260	250.378	205.825	97.558	323.293	148.884	335.580	425.918	382.916	437.598	305.366	329.807	235.523	433.600	360.499	160.477	0.00023874	0.00027932	8.6203e-05	970.98	3.3249e-06	4.5674e-06	1102.3	205.79	2.5312e-06	3.6702e-06	254.98	75.022	56.187	15.914	1.8709e-06	23.579	0.00019967	0.00017013	4.2991e-05	958.48	1.9475e-06	1.8327e-06	1084.4	204.66	1.7983e-06	1.8712e-06	255.41	75.614	56.422	16.073	1.8928e-06	23.919	209.290	170.370	184.447	92.289	253.873	243.495	92.566	100.066	240.687	255.568	99.415	106.650	106.788	114.175	245.464	113.644	-8191	255	
715.555	1	1	0	0	0.14226	0.28228	0.033756	0.23288	0.28016	0.067197	0.31214	0.22821	0.24904	0.29998	0.16433	0.19278	0.22539	0.12064	0.12918	0.2068	-3.3312	-2.8646	-3.6437	-3.2208	-3.0229	-3.6271	-2.9604	-3.5833	-3.4437	-2.9354	-3.725	-3.2417	-3.2062	-3.7917	-3.1354	-3.4125	341.362	111.343	395.045	92.955	123.791	424.794	373.769	368.732	186.611	194.151	90.097	82.272	163.019	262.513	196.204	255.572	0.00022513	0.0003287	8.6489e-05	972.73	2.8622e-06	1.8536e-06	1098.8	205.17	2.4821e-06	1.249e-06	255.41	74.695	55.81	15.913	3.2073e-06	23.4	0.00020071	0.00016972	4.1224e-05	958.19	2.0829e-06	1.6474e-06	1083.3	204.48	1.9209e-06	1.9198e-06	254.83	75.564	56.223	16.097	2.0742e-06	23.846	209.833	165.233	175.936	91.977	235.805	215.028	92.464	100.150	255.022	285.137	99.778	106.235	107.030	114.129	256.930	113.800	-8191	255	
715.627	1	1	0	0	0.062477	0.1624	0.13173	0.11412	0.24046	0.15017	0.088799	0.17277	0.26344	0.27021	0.20328	0.16715	0.13173	0.14976	0.10461	0.1268	-3.3	-2.8042	-3.6375	-3.4771	-2.9417	-3.8729	-3.1458	-3.3604	-3.7917	-2.6875	-3.5375	-3.4417	-3.0917	-3.7104	-3.0521	-3.2229	341.229	156.108	423.403	317.239	393.731	119.817	377.740	401.563	186.756	396.753	313.040	426.415	299.906	378.908	200.686	375.170	0.00021911	0.00033206	4.2663e-05	971.86	3.0761e-06	3.8117e-06	1091.7	205.58	2.6181e-06	4.0806e-06	255.39	75.185	56.05	15.869	2.0392e-06	23.286	0.00019999	0.00017466	4.0723e-05	959.12	2.172e-06	1.6868e-06	1082.9	204.85	1.9818e-06	1.9025e-06	255.14	75.628	56.339	16.058	1.76e-06	23.756	216.598	177.910	192.369	92.133	241.248	241.633	92.462	99.969	247.141	254.640	99.345	106.602	106.898	114.108	238.283	113.331	-8191	255	
715.748	1	1	0	0	0.22469	0.10868	0.13266	0.13415	0.24683	0.1941	0.1012	0.24579	0.13324	0.091723	0.20439	0.27159	0.20998	0.18107	0.18688	0.19013	-3.3792	-3.0083	-3.4479	-3.6583	-2.9	-3.7979	-3.3063	-3.2917	-3.7271	-3.1792	-3.6458	-3.5375	-2.9083	-3.6771	-3.3	-3.0938	394.241	330.364	146.916	233.202	126.437	199.624	336.293	408.132	83.119	411.786	291.542	431.042	348.907	111.786	164.348	208.204	0.00023414	0.00022886	8.1277e-05	974.89	3.0725e-06	3.6001e-06	1096.1	203.86	3.188e-06	2.6412e-06	255.28	74.946	55.846	15.762	2.1386e-06	23.574	0.0002062	0.00017372	4.1749e-05	959.93	2.1322e-06	1.671e-06	1084	204.34	1.8259e-06	1.7789e-06	254.47	75.448	56.138	16.036	1.8742e-06	23.849	204.439	163.587	180.024	91.992	256.016	216.918	92.124	99.579	254.053	218.098	99.544	106.090	106.986	114.141	264.868	113.056	-8191	255	
715.844	1	1	0	0	0.15869	0.0091781	0.12866	0.2573	0.12284	0.16911	0.099378	0.2195	0.093166	0.073013	0.15944	0.051714	0.26747	0.091161	0.23125	0.04095	-3.2104	-2.7958	-3.375	-3.6083	-2.7167	-3.7062	-3.3417	-3.1229	-3.6042	-2.9	-3.2667	-3.5917	-2.8792	-3.6021	-3.3063	-2.9813	380.580	351.380	357.616	439.652	355.193	273.146	282.744	395.827	324.471	258.723	212.254	400.401	132.296	102.396	95.728	357.184	0.00023641	0.00027384	8.3077e-05	975.96	2.8491e-06	2.6439e-06	1098.9	206.27	1.8503e-06	2.1428e-06	255.71	75.07	56.038	15.845	2.9121e-06	23.53	0.000198	0.00017483	4.3675e-05	958.54	2.1074e-06	1.6773e-06	1083.7	204.64	1.7894e-06	1.8089e-06	254.8	75.583	56.246	16.072	1.763e-06	23.888	209.173	162.495	195.867	91.778	259.092	230.745	92.052	99.881	269.713	227.282	99.264	106.307	106.808	114.072	255.311	113.202	-8191	255	
715.940	1	1	0	0	0.20479	0.13797	0.084488	0.19196	0.31203	0.23285	0.19502	0.043047	0.023252	0.079295	0.27787	0.28554	0.24923	0.19256	0.25585	0.42121	-3.4813	-2.7812	-3.0812	-3.7313	-2.7583	-3.4292	-3.4271	-2.9271	-3.6917	-3.0521	-3.1771	-3.7271	-3.1083	-3.3458	-3.3229	-2.9729	242.694	278.959	89.329	393.315	286.600	442.065	382.176	400.460	154.229	348.272	378.263	128.990	383.595	114.375	142.404	109.790	0.00023865	0.00024176	7.9695e-05	975.63	3.8367e-06	2.462e-06	1098.8	205.04	2.3348e-06	3.6496e-06	255.74	75.54	56.142	15.977	2.5524e-06	23.404	0.00020019	0.00016306	4.551e-05	959.04	2.0502e-06	1.5826e-06	1083.5	204.57	1.8487e-06	1.8366e-06	255.11	75.783	56.166	16.083	1.7376e-06	23.834	209.620	165.436	189.250	92.134	249.950	238.631	92.105	100.205	259.673	222.826	99.532	106.755	106.874	113.874	238.279	113.690	-8191	255	
716.036	1	1	0	0	0.18412	0.28287	0.30661	0.094158	0.17992	0.30372	0.21924	0.18559	0.075865	0.017517	0.29406	0.22072	0.26501	0.22549	0.11952	0.32183	-3.1479	-2.9646	-3.0583	-3.6479	-2.8042	-3.4042	-3.5583	-3.1125	-3.6729	-3.1375	-2.9396	-3.7792	-2.9521	-3.2938	-3.7146	-2.8583	407.164	308.684	388.220	397.979	357.588	161.918	370.787	390.502	350.906	122.712	373.241	98.300	89.907	213.607	210.072	293.750	0.00021966	0.0003344	7.7592e-05	969.88	3.6735e-06	2.7907e-06	1101	205.06	1.8777e-06	2.4778e-06	256.39	75.111	56.142	15.822	2.794e-06	23.487	0.00020661	0.00016625	4.1829e-05	957.32	2.0751e-06	1.6134e-06	1083.6	204.4	1.7435e-06	1.6168e-06	255.12	75.553	56.302	16.06	1.5766e-06	23.758	206.887	175.439	173.639	92.412	258.744	226.228	92.429	100.114	257.808	219.721	99.861	106.596	107.624	114.638	261.743	113.196	-8191	255	
716.157	1	1	0	0	0.12318	0.084283	0.11767	0.18901	0.035621	0.047378	0.35242	0.095255	0.066382	0.056847	0.14199	0.28481	0.10896	0.11027	0.21471	0.15464	-3.2188	-3.1813	-2.8812	-3.7333	-2.8271	-3.2125	-3.6333	-3.0312	-3.6271	-3.1917	-3.1188	-3.5812	-2.9917	-3.2896	-3.5583	-2.8646	86.664	175.717	234.914	390.095	179.809	312.261	353.693	266.634	174.179	289.798	86.477	386.066	441.106	371.267	149.209	380.714	0.0002152	0.00025024	8.9649e-05	970.47	3.1317e-06	2.7254e-06	1102.5	205.94	2.5861e-06	2.195e-06	255.61	74.916	56.067	15.804	2.0994e-06	23.451	0.00019324	0.00016212	4.3618e-05	956.89	2.0747e-06	1.7108e-06	1085.3	204.06	1.8982e-06	1.7244e-06	255.21	75.435	56.199	16.043	1.7799e-06	23.803	205.128	169.556	179.118	92.068	257.292	210.640	92.396	100.148	241.566	256.752	99.700	106.993	107.275	114.954	251.055	113.092	-8191	255	
716.228	1	1	0	0	0.24972	0.11779	0.059414	0.14612	0.085974	0.17433	0.15638	0.076598	0.073068	0.1209	0.23314	0.14904	0.43059	0.22692	0.12139	0.051765	-3.0125	-3.375	-2.9417	-3.7521	-3.3104	-3.0687	-3.7521	-3.1125	-3.3229	-3.55	-2.8187	-3.7875	-3.1063	-3.0062	-3.5354	-2.9792	295.763	329.989	376.250	108.304	431.415	380.646	418.512	400.350	314.622	247.376	346.267	428.245	393.037	277.087	326.591	241.084	0.00022954	0.00021632	0.00010297	967.08	2.8442e-06	2.5842e-06	1091.2	204.57	1.8244e-06	2.6642e-06	254.48	74.945	55.865	15.897	3.4072e-06	23.252	0.00019639	0.00016514	4.6809e-05	955.06	2.0225e-06	1.7412e-06	1081.2	204.13	1.8462e-06	1.6554e-06	253.02	75.409	56.025	16.019	1.7584e-06	23.7	211.302	175.221	190.872	92.168	242.673	237.211	92.187	99.769	248.059	224.562	99.492	106.498	106.908	114.124	248.375	113.098	-8191	255	
716.347	1	1	0	0	0.14698	0.11818	0.080429	0.097233	0.18271	0.21657	0.35839	0.29465	0.13524	0.1232	0.28457	0.18428	0.29701	0.054092	0.073929	0.044821	-2.9375	-3.5812	-2.7771	-3.7083	-3.1708	-3.0312	-3.8083	-2.95	-3.3625	-3.7333	-2.8667	-3.5375	-3.2542	-2.7792	-3.5292	-3.125	166.103	228.873	222.103	312.556	180.268	83.150	432.710	291.420	163.148	226.084	328.344	107.298	82.840	85.847	152.392	169.484	0.00022366	0.00029393	8.6497e-05	963.71	3.21e-06	3.4103e-07	1089.6	204.06	3.8692e-06	3.7116e-06	254.08	74.91	55.821	15.905	3.2226e-06	23.362	0.00019983	0.00015101	4.6057e-05	951.51	1.9031e-06	1.8961e-06	1078.4	203.23	1.8543e-06	1.609e-06	253.83	75.314	55.805	16.004	1.6954e-06	23.7	210.447	191.938	198.621	92.024	251.123	213.951	92.225	99.861	245.258	236.168	99.255	106.303	107.336	113.963	231.669	113.789	-8191	255	
716.443	1	1	0	0	0.058523	0.27729	0.19095	0.16772	0.14788	0.025516	0.31835	0.27493	0.22925	0.12742	0.24068	0.20063	0.29269	0.087866	0.16232	0.074217	-2.6375	-3.6063	-2.8563	-3.4042	-3.2667	-2.825	-3.7792	-3.1375	-3.0917	-3.8292	-3.0062	-3.5917	-3.5729	-2.9896	-3.7604	-3.1667	201.220	96.589	184.693	89.322	321.835	145.452	340.184	430.934	427.741	312.865	135.889	97.931	410.418	111.572	137.537	245.605	0.00022253	0.00024583	0.00011408	961.74	2.1711e-06	3.345e-06	1093.7	204.08	3.3541e-06	2.2303e-06	255.34	75.162	55.743	15.803	1.7644e-06	23.394	0.0002018	0.00014868	4.339e-05	949.25	1.8895e-06	1.8766e-06	1077.7	202.99	1.9286e-06	1.5041e-06	253.98	75.452	55.945	16.003	1.6252e-06	23.624	208.184	167.984	179.578	92.188	232.261	222.687	92.287	100.259	254.638	225.742	99.742	107.134	107.298	114.567	238.349	113.567	-8191	255	
716.540	1	1	0	0	0.14917	0.42475	0.20799	0.03967	0.19398	0.13963	0.32942	0.19078	0.30714	0.052251	0.1554	0.17236	0.12768	0.1946	0.053402	0.24189	-2.7125	-3.5729	-2.9354	-3.5146	-3.4	-2.8042	-3.6312	-3.2708	-3.3333	-3.6083	-3.1958	-3.5312	-3.5312	-2.9521	-3.6979	-3.2417	318.420	239.880	156.175	344.435	376.843	264.135	363.902	332.777	423.093	234.787	382.091	389.511	402.838	328.283	431.691	435.725	0.00020366	0.00011064	5.1552e-05	965.33	3.0068e-06	2.9737e-06	1092.4	204.05	2.5309e-06	1.4719e-06	253.99	74.693	55.818	15.867	2.0946e-06	23.291	0.00019442	0.00015023	4.4119e-05	951.38	1.9259e-06	1.7901e-06	1076.8	203.27	2.0317e-06	1.5704e-06	253.17	75.334	55.98	16.008	1.6603e-06	23.724	209.911	140.337	186.679	92.422	246.721	228.812	92.705	100.019	260.110	243.634	99.100	106.262	106.433	114.533	246.736	113.169	-8191	255	
716.636	1	1	0	0	0.11925	0.25714	0.037754	0.075483	0.28418	0.30748	0.094105	0.14709	0.046095	0.093717	0.051847	0.17199	0.20954	0.23907	0.11383	0.22714	-2.6979	-3.7167	-2.925	-3.3688	-3.5229	-2.8	-3.7208	-3.3146	-2.8729	-3.7042	-3.2146	-3.2	-3.5708	-2.8771	-3.5375	-3.3875	263.248	299.121	177.910	377.813	323.388	354.689	323.966	139.215	388.710	364.659	327.104	404.169	406.844	130.296	246.425	90.591	0.00022631	0.00031401	9.6983e-05	963.15	2.753e-06	4.2812e-06	1090.2	204.88	2.539e-06	2.7818e-06	254.41	74.6	55.927	15.907	2.1251e-06	23.3	0.00019704	0.00014651	4.5179e-05	949.42	1.7548e-06	1.9423e-06	1076.3	203.55	1.9132e-06	1.6649e-06	253.72	75.238	55.874	16.025	1.6738e-06	23.664	210.813	182.162	173.574	92.290	265.898	228.949	92.340	99.895	257.246	226.005	99.959	106.803	107.278	114.854	240.667	113.600	-8191	255	
716.756	1	1	0	0	0.27229	0.059147	0.17524	0.042082	0.041564	0.05635	0.38137	0.38006	0.016592	0.26204	0.09229	0.099561	0.11976	0.31377	0.13005	0.20295	-2.5604	-3.5979	-3.0708	-3.2958	-3.5958	-2.8833	-3.6875	-3.6292	-2.6958	-3.6958	-3.2083	-3.1979	-3.7021	-3.0854	-3.4167	-3.4646	131.665	293.678	257.649	120.972	102.465	245.564	352.424	349.238	219.341	85.864	171.013	191.412	441.035	136.584	124.007	143.051	0.00023311	8.1651e-05	6.085e-05	964.38	2.4484e-06	3.1567e-06	1089.7	203.36	3.7612e-06	2.7888e-06	253.56	75.057	55.511	15.764	2.1558e-06	23.518	0.00021649	0.00013855	4.7003e-05	949.68	1.8452e-06	1.6221e-06	1074.8	202.89	1.9323e-06	1.6795e-06	253.39	75.221	55.739	15.99	1.7173e-06	23.716	204.412	147.958	162.000	92.196	246.750	234.185	92.209	99.424	235.247	219.391	99.341	106.704	107.295	114.081	242.590	113.128	-8191	255	
716.852	1	1	0	0	0.2302	0.036966	0.23395	0.3486	0.18047	0.23685	0.32255	0.14768	0.1395	0.12884	0.10976	0.10045	0.17909	0.15993	0.081948	0.11343	-2.5187	-3.7604	-3.1	-3.1458	-3.6354	-3.025	-3.3479	-3.675	-2.9292	-3.6271	-3.4229	-3.1542	-3.8063	-3.0104	-3.2062	-3.5542	208.898	268.060	235.703	369.765	226.646	395.605	430.810	414.580	163.599	191.241	87.303	306.060	328.418	425.823	405.280	383.856	0.00021727	0.00027997	8.2695e-05	960.88	3.3147e-06	2.5807e-06	1088.8	204.72	2.788e-06	2.5047e-06	252.49	74.233	55.45	15.738	2.3358e-06	23.327	0.000212	0.00015853	4.4279e-05	948.48	2.0055e-06	1.7145e-06	1074.3	202.74	2.0419e-06	1.6518e-06	252.79	74.821	55.814	15.91	1.7254e-06	23.573	206.682	171.841	186.184	92.328	246.495	227.708	92.715	100.129	258.987	223.548	98.858	106.745	106.817	114.603	229.486	113.383	-8191	255	
716.924	1	1	0	0	0.02797	0.044171	0.12858	0.11892	0.13864	0.14498	0.075539	0.18225	0.18709	0.1667	0.18082	0.1933	0.15277	0.053542	0.16598	0.39831	-2.3292	-3.4833	-3.1583	-3.0104	-3.7875	-3.1021	-3.4896	-3.8208	-2.9021	-3.4125	-3.4188	-3.0208	-3.8417	-3.0812	-3.1208	-3.5479	226.032	165.551	281.672	416.146	133.983	246.462	304.074	376.915	400.036	358.142	389.894	410.668	238.228	140.626	98.500	381.207	0.00021985	0.00027868	0.0001097	962.03	2.9408e-06	4.1623e-06	1093.5	203.11	2.2586e-06	3.3673e-06	253.67	74.351	55.311	15.737	2.263e-06	23.133	0.00020099	0.00016196	4.3367e-05	947.81	1.8331e-06	1.9124e-06	1075.1	202.5	1.9591e-06	1.8035e-06	253.3	74.961	55.624	15.883	1.7376e-06	23.478	206.531	215.372	161.225	92.100	259.663	259.817	92.601	99.957	249.592	242.954	99.692	106.030	106.465	113.819	264.954	113.335	-8191	255	
717.020	1	1	0	0	0.10216	0.17182	0.19529	0.23443	0.11291	0.089033	0.13719	0.2102	0.10952	0.29607	0.10294	0.37764	0.056899	0.23552	0.037041	0.044948	-2.4688	-3.3396	-3.4313	-2.8917	-3.65	-3.3021	-3.2313	-3.8521	-2.9604	-3.3875	-3.4667	-2.8458	-3.625	-3.3021	-2.8312	-3.7188	432.160	384.979	317.623	298.286	192.452	210.851	414.027	390.439	251.196	243.270	339.755	324.521	276.844	86.873	311.504	104.614	0.00020682	0.00017391	7.6922e-05	958.27	2.7464e-06	2.3369e-06	1092.9	203.1	3.4207e-06	2.7031e-06	254.06	74.664	55.594	15.651	2.6251e-06	23.145	0.00020158	0.00016228	4.2854e-05	946.11	1.8961e-06	1.6968e-06	1076.9	202.79	1.8884e-06	1.7967e-06	252.61	74.998	55.759	15.85	1.8416e-06	23.478	206.195	128.690	164.434	91.698	242.788	233.399	92.174	99.883	260.941	231.122	99.130	106.264	107.119	114.250	277.646	112.997	-8191	255	
717.139	1	1	0	0	0.18231	0.092403	0.065456	0.23845	0.19404	0.096419	0.27214	0.13471	0.1716	0.13143	0.025809	0.19169	0.16249	0.066038	0.17535	0.072494	-2.5187	-3.2646	-3.4208	-2.7625	-3.4417	-3.5	-3.1833	-3.7562	-2.8167	-3.2417	-3.4792	-2.8021	-3.5104	-3.3937	-2.9292	-3.6375	82.889	247.977	371.985	392.727	265.986	265.890	225.768	422.396	272.718	389.624	237.202	440.367	338.908	209.675	303.103	387.351	0.00021691	0.00027591	7.6374e-05	960.39	4.4372e-06	2.0919e-06	1085.3	202.48	1.7315e-06	2.1721e-06	254.09	74.014	55.151	15.723	3.4152e-06	23.263	0.00020235	0.00017029	4.331e-05	945.99	1.8721e-06	1.6778e-06	1074.4	202.46	1.9453e-06	1.7749e-06	253.16	74.855	55.501	15.89	1.9283e-06	23.463	211.054	172.994	173.389	92.071	248.484	220.434	92.191	100.009	237.690	200.467	99.813	106.761	107.028	114.218	242.618	113.700	-8191	255	
717.235	1	1	0	0	0.11374	0.049861	0.097939	0.20524	0.066879	0.18695	0.081991	0.1706	0.10032	0.063522	0.15801	0.11204	0.095759	0.21839	0.087869	0.17741	-2.6646	-3.1021	-3.6042	-2.9271	-3.3438	-3.2542	-2.9771	-3.6521	-3.0979	-3.0833	-3.6417	-2.9667	-3.6437	-3.3104	-2.7521	-3.7042	243.951	133.495	180.359	439.857	319.179	376.136	101.353	120.891	407.875	95.600	387.367	216.192	267.906	283.243	248.594	420.885	0.00022228	0.00019094	5.8582e-05	956.33	2.635e-06	2.6063e-06	1087.1	204.83	1.4236e-06	1.864e-06	255.77	74.722	55.464	15.649	2.0787e-06	23.066	0.00020162	0.00016269	3.9515e-05	945.33	1.7619e-06	1.5582e-06	1071.3	202.93	1.7971e-06	1.8021e-06	252.75	74.963	55.609	15.844	1.908e-06	23.402	213.838	167.669	180.088	92.109	265.503	240.295	92.306	99.782	250.487	260.361	99.495	106.798	107.032	114.605	252.297	113.592	-8191	255	
717.331	1	1	0	0	0.27627	0.33906	0.16774	0.24862	0.23607	0.14318	0.17677	0.26875	0.22416	0.23817	0.16128	0.10019	0.026295	0.12682	0.11076	0.19496	-2.6854	-2.9417	-3.55	-3.0062	-3.3438	-3.5167	-3.1875	-3.4729	-3.175	-3.0229	-3.5958	-3.0438	-3.3292	-3.5167	-2.7646	-3.6167	166.819	308.695	145.090	412.423	101.237	115.032	376.151	389.632	324.478	409.877	263.529	377.710	87.693	157.810	330.527	248.521	0.00021248	0.00015514	6.9439e-05	964.22	2.686e-06	3.149e-06	1083.8	204.29	1.9379e-06	3.6964e-06	253.11	74.291	55.589	15.466	2.1249e-06	23.25	0.00019691	0.00016396	4.4313e-05	945.3	1.9752e-06	1.6057e-06	1070	202.65	1.7687e-06	1.7113e-06	252.39	74.748	55.637	15.764	1.8273e-06	23.486	212.347	179.866	202.369	92.785	246.232	245.047	92.028	100.105	251.025	232.107	99.466	106.696	107.341	114.427	233.546	114.042	-8191	255	
717.428	1	1	0	0	0.1635	0.17359	0.0076517	0.055302	0.15122	0.20651	0.21196	0.12489	0.035615	0.20799	0.13101	0.25755	0.053238	0.37698	0.1752	0.11107	-2.8104	-2.9833	-3.6688	-3.0271	-3.2458	-3.6937	-2.9938	-3.6312	-3.4313	-2.8063	-3.6833	-3.0042	-2.975	-3.6188	-2.8854	-3.6292	139.516	336.452	316.436	242.972	372.821	322.565	340.136	378.743	370.353	366.315	337.388	426.839	97.165	101.724	211.589	297.459	0.00022851	0.00033182	7.9736e-05	960.94	2.5347e-06	2.8718e-06	1089	203.06	1.9233e-06	2.3889e-06	253.9	74.863	55.372	15.633	1.9667e-06	23.118	0.00020176	0.00018043	4.1019e-05	944.37	2.0386e-06	1.6266e-06	1071.8	202.31	1.7654e-06	1.8271e-06	253.17	74.993	55.543	15.782	1.8412e-06	23.435	212.577	175.651	178.719	92.536	236.427	210.806	92.337	100.097	253.436	243.798	99.395	106.158	106.782	114.549	244.256	114.729	-8191	255	
717.524	1	1	0	0	0.12788	0.1729	0.12489	0.22684	0.049585	0.53769	0.21055	0.29908	0.1012	0.17081	0.034117	0.29053	0.084215	0.078804	0.16111	0.098743	-3.0083	-2.7042	-3.5625	-3.1688	-3.0812	-3.7	-3.0771	-3.4646	-3.3667	-3.0271	-3.6729	-3.1271	-3.1729	-3.7313	-2.7354	-3.2812	363.781	295.502	300.214	328.298	379.743	158.846	389.161	426.252	280.116	386.994	214.730	424.127	292.557	100.308	191.493	142.100	0.00021676	0.00026269	7.1254e-05	957.13	4.1736e-06	1.66e-06	1082.9	203.44	2.128e-06	3.0161e-06	253.47	74.357	55.391	15.649	2.7392e-06	22.974	0.00019584	0.00016952	4.3766e-05	942.01	1.9835e-06	1.5786e-06	1071.1	202.31	1.819e-06	1.8189e-06	252.45	74.818	55.51	15.846	1.6818e-06	23.327	211.771	158.589	162.360	92.696	260.325	242.745	92.368	99.529	229.261	234.511	99.711	106.450	107.055	114.473	218.110	114.078	-8191	255	
717.620	1	1	0	0	0.2469	0.13305	0.16126	0.25579	0.15155	0.036402	0.28726	0.19126	0.2072	0.15215	0.28451	0.065917	0.02976	0.08202	0.22883	0.022771	-3.0146	-2.7417	-3.4625	-3.0917	-2.7438	-3.7542	-3.0438	-3.2313	-3.6708	-2.8625	-3.5854	-3.3875	-2.9833	-3.6813	-3.0167	-3.3354	421.627	173.383	436.720	393.296	339.488	103.496	405.953	93.140	266.798	228.565	132.026	321.690	408.009	377.886	149.284	303.301	0.00022822	0.00027472	7.9073e-05	964.43	2.1207e-06	3.5957e-06	1084.9	203.55	3.0794e-06	3.6825e-06	252.48	74.405	55.571	15.605	1.6304e-06	23.246	0.00019994	0.00016841	4.1304e-05	947.8	1.9226e-06	1.6406e-06	1070.4	202.42	1.9445e-06	1.8248e-06	251.92	74.775	55.554	15.801	1.829e-06	23.446	208.149	164.877	162.645	92.853	234.585	230.040	92.749	100.218	242.499	218.553	99.690	106.579	107.040	114.325	271.027	114.304	-8191	255	
717.716	1	1	0	0	0.23528	0.059768	0.082139	0.21253	0.061476	0.16255	0.083125	0.36762	0.062644	0.029654	0.12226	0.096423	0.16617	0.094988	0.16993	0.023201	-3.1458	-2.7562	-3.5542	-3.5583	-2.8438	-3.8104	-3.2354	-3.1958	-3.6458	-2.7958	-3.4688	-3.5	-2.8896	-3.7146	-3.0542	-3.0521	283.707	243.491	296.502	416.944	296.435	249.028	375.138	380.110	177.457	91.849	376.013	397.206	330.456	388.094	99.997	134.981	0.00023256	0.00033586	6.7598e-05	959.16	3.7783e-06	2.3923e-06	1088.7	203.44	2.0922e-06	3.6141e-06	253.97	74.247	55.58	15.628	3.0992e-06	23.096	0.00020851	0.00017062	4.5214e-05	945.11	2.1575e-06	1.5845e-06	1071.9	202.71	1.8962e-06	1.7072e-06	252.69	74.832	55.647	15.802	1.7951e-06	23.423	209.972	177.547	201.644	92.672	242.860	188.315	92.803	100.361	245.109	226.781	100.216	106.595	107.989	114.891	251.118	114.055	-8191	255	
717.837	1	1	0	0	0.18251	0.14123	0.2192	0.10945	0.057375	0.22518	0.1798	0.18839	0.21986	0.12354	0.25238	0.22377	0.16709	0.18688	0.040419	0.13261	-3.3104	-2.9354	-3.3208	-3.4625	-2.7479	-3.6542	-3.3667	-2.9104	-3.6667	-3.0417	-3.3187	-3.5333	-2.9104	-3.6333	-3.3187	-2.8792	327.228	174.870	306.469	401.827	384.374	272.005	81.872	326.082	405.482	86.476	414.150	387.078	441.264	414.258	187.398	113.095	0.00020387	0.00015883	5.6958e-05	959.25	3.0255e-06	1.3258e-06	1085.7	204.02	2.6275e-06	2.1177e-06	253.78	74.604	55.273	15.614	2.2288e-06	23	0.00019188	0.00018455	4.2649e-05	945.57	2.027e-06	1.7018e-06	1073.4	202.66	1.7715e-06	1.7667e-06	252.99	74.834	55.364	15.841	1.7858e-06	23.362	210.489	181.082	172.594	92.032	258.365	205.714	92.308	99.911	253.669	199.655	99.557	106.314	107.055	114.676	232.251	113.549	-8191	255	
717.933	1	1	0	0	0.12183	0.064472	0.18217	0.28103	0.11166	0.13153	0.21515	0.097024	0.1148	0.071692	0.067531	0.10535	0.023634	0.058172	0.044822	0.095986	-3.3833	-2.8458	-3.25	-3.6792	-2.75	-3.3417	-3.5167	-2.9083	-3.6083	-3.1375	-3.1417	-3.55	-2.9396	-3.6104	-3.4188	-3.0438	338.187	98.476	374.390	112.953	173.230	438.710	350.505	362.498	250.002	282.943	404.843	396.566	297.540	435.297	164.014	326.404	0.00022131	0.00018781	7.2707e-05	959.9	2.0866e-06	2.1564e-06	1085.2	204.16	2.06e-06	3.0243e-06	253.71	74.783	55.161	15.684	2.1312e-06	22.972	0.00019344	0.0001736	4.4005e-05	945.62	2.0419e-06	1.7068e-06	1071.1	202.49	1.7029e-06	1.7839e-06	252.83	74.828	55.554	15.831	1.87e-06	23.351	208.615	178.131	168.232	91.837	202.282	213.426	92.077	99.589	227.602	230.389	99.966	106.295	106.922	114.623	233.904	113.100	-8191	255	
718.029	1	1	0	0	0.027777	0.14957	0.19788	0.246	0.34175	0.051384	0.094361	0.27721	0.11809	0.11323	0.17102	0.26781	0.057338	0.085801	0.088971	0.097066	-3.2562	-2.9375	-3.05	-3.6688	-2.9458	-3.4042	-3.6083	-3.0438	-3.6063	-3.2208	-2.9521	-3.6937	-2.7792	-3.4813	-3.5083	-2.8542	282.648	181.537	336.584	418.153	296.663	212.505	330.488	347.842	437.449	365.131	190.308	391.336	307.980	95.939	150.919	268.560	0.00022454	0.0003715	5.4275e-05	956.87	2.7342e-06	3.233e-06	1086.6	203.84	2.6221e-06	3.1797e-06	254.48	74.929	55.369	15.631	2.5227e-06	23.165	0.00020382	0.0001792	4.5065e-05	945.16	2.0312e-06	1.7403e-06	1072.8	202.78	1.8109e-06	1.7558e-06	252.88	75.15	55.673	15.78	1.7038e-06	23.422	211.165	187.952	206.096	91.902	272.667	203.518	92.122	99.778	255.989	251.557	99.650	106.875	106.894	114.049	239.727	113.042	-8191	255	
718.125	1	1	0	0	0.11593	0.27841	0.25447	0.081703	0.27268	0.038667	0.35213	0.17777	0.09918	0.19321	0.38263	0.056856	0.088046	0.10711	0.21416	0.019247	-3.3771	-3.4354	-3.2042	-3.6917	-3.0083	-3.2792	-3.6875	-2.9479	-3.6458	-3.1667	-2.9688	-3.825	-3.0208	-3.4125	-3.7708	-2.975	141.089	278.389	165.710	427.184	128.569	345.658	418.935	262.330	290.414	114.945	318.515	359.720	386.111	142.012	302.206	282.768	0.0002206	0.00026836	6.5155e-05	961.23	3.2254e-06	3.3993e-06	1085.7	203.33	2.2245e-06	1.7305e-06	254.53	74.393	55.567	15.608	2.5518e-06	23.044	0.0002086	0.00015902	4.6775e-05	946.52	2.0332e-06	1.5727e-06	1072.9	202.55	1.981e-06	1.7299e-06	252.64	74.823	55.656	15.795	1.7089e-06	23.351	210.840	195.432	179.917	92.190	242.323	257.670	92.057	99.913	293.950	239.172	99.623	106.948	106.707	114.622	237.454	113.095	-8191	255	
718.220	1	1	0	0	0.2044	0.31903	0.098649	0.061716	0.25024	0.07536	0.26112	0.2934	0.1244	0.096372	0.19455	0.15874	0.083581	0.088625	0.10459	0.092942	-3.1708	-3.2479	-2.8542	-3.8021	-3.1417	-3.1312	-3.7313	-2.9688	-3.4479	-3.45	-2.9479	-3.7583	-3.075	-3.2375	-3.6	-3.1229	235.032	412.298	284.314	150.268	184.865	336.242	369.233	348.897	176.975	393.083	151.783	384.411	173.467	182.232	255.008	322.444	0.00022086	0.00028479	7.8205e-05	965.25	2.0226e-06	2.5218e-06	1090.5	204.13	3.085e-06	4.9998e-06	252.67	74.366	55.71	15.683	3.0628e-06	23.09	0.00019854	0.00016751	4.3755e-05	950.35	1.9185e-06	1.7403e-06	1074.6	202.81	1.9542e-06	1.8943e-06	252.22	74.903	55.778	15.833	1.7097e-06	23.404	210.106	168.040	160.329	92.120	242.693	215.453	92.188	99.893	261.830	241.964	99.234	106.808	106.963	114.244	240.358	113.397	-8191	255	
718.316	1	1	0	0	0.18079	0.042917	0.0694	0.21199	0.15525	0.099971	0.12184	0.13443	0.074659	0.049872	0.081263	0.3298	0.10928	0.14903	0.2843	0.14891	-3.2021	-3.4229	-2.7229	-3.7188	-3.2583	-3.0292	-4.0042	-2.9479	-3.4104	-3.4813	-2.8917	-3.5896	-3.2875	-3.025	-3.6937	-2.8167	227.957	405.230	353.425	342.316	147.132	325.433	164.578	89.700	403.607	91.352	162.621	196.399	128.413	271.787	329.128	390.767	0.00020691	0.00018155	4.1536e-05	957.72	2.8436e-06	2.6724e-06	1088.1	202.23	2.4953e-06	2.5397e-06	252.01	74.098	54.903	15.624	1.9145e-06	22.764	0.00019154	0.00014521	4.9168e-05	948.44	1.964e-06	1.748e-06	1073.6	202.01	1.8332e-06	1.8171e-06	252.3	74.878	55.448	15.761	1.6518e-06	23.221	207.894	187.434	168.592	92.033	240.156	231.964	92.164	99.219	253.147	203.345	99.344	106.317	106.868	113.526	257.025	113.592	-8191	255	
718.436	1	1	0	0	0.17664	0.12159	0.21661	0.35086	0.11537	0.066804	0.24193	0.10712	0.096569	0.1038	0.19303	0.20122	0.34135	0.11173	0.14973	0.061181	-3.0604	-3.5958	-2.6333	-3.5958	-3.2792	-3.0812	-3.7938	-2.9521	-3.3688	-3.6667	-3.1042	-3.6646	-3.3958	-2.9104	-3.8104	-3.1479	433.047	306.997	220.482	436.786	281.758	148.126	365.313	317.037	423.073	289.438	101.488	433.924	93.464	85.442	355.086	190.440	0.00024884	0.00029939	3.3334e-05	960.34	3.7585e-06	1.5643e-06	1086.9	203.48	3.3354e-06	2.6247e-06	254.54	74.247	55.271	15.565	2.4142e-06	22.946	0.00020357	0.00015836	4.7846e-05	947.73	1.94e-06	1.8422e-06	1073.8	202.8	2.0963e-06	1.6022e-06	252.62	74.939	55.623	15.777	1.7343e-06	23.262	210.988	192.366	139.384	91.703	245.935	187.665	91.973	99.426	244.935	237.241	99.072	106.098	106.755	114.225	255.505	112.642	-8191	255	
718.532	1	1	0	0	0.07935	0.049647	0.25531	0.19452	0.1047	0.092121	0.1344	0.11199	0.059154	0.20485	0.056414	0.21044	0.17622	0.067076	0.1503	0.074608	-2.8417	-3.5104	-2.8688	-3.5146	-3.2917	-2.9792	-3.7438	-3.0833	-2.9708	-3.7062	-2.9938	-3.625	-3.425	-2.7729	-3.6146	-3.2667	300.821	430.279	200.424	183.238	305.732	208.116	358.224	395.616	174.898	344.821	314.332	97.634	87.542	134.661	101.166	408.218	0.00021986	0.00032103	6.2729e-05	964.2	3.6368e-06	1.8641e-06	1089.3	203.37	2.761e-06	2.7288e-06	252.99	74.483	55.142	15.665	2.2722e-06	22.847	0.00020452	0.00015407	4.9111e-05	949.93	1.8949e-06	1.8743e-06	1076	202.67	1.9327e-06	1.7753e-06	252.91	74.827	55.516	15.797	1.6937e-06	23.265	206.914	181.669	186.547	91.615	248.168	243.062	92.079	99.587	228.236	236.811	99.320	106.582	106.602	113.625	249.561	112.972	-8191	255	
718.629	1	1	0	0	0.15765	0.10766	0.15688	0.1841	0.035996	0.24347	0.1758	0.31697	0.1427	0.097119	0.066825	0.26986	0.049097	0.11878	0.25545	0.24277	-2.6375	-3.7812	-2.9021	-3.5104	-3.5583	-2.9542	-3.8979	-3.2979	-2.9667	-3.7458	-3.0146	-3.3458	-3.5479	-2.9313	-3.6542	-3.3708	114.884	329.910	100.649	364.017	85.801	183.710	302.590	379.592	232.955	229.154	290.756	412.042	134.636	160.816	279.211	357.487	0.00022421	0.00013868	8.5304e-05	961.96	3.0138e-06	3.6472e-06	1083.6	203.32	2.8071e-06	2.6417e-06	254.06	74.234	55.252	15.577	2.4567e-06	22.951	0.00020595	0.00015456	4.8086e-05	949.01	1.9309e-06	1.8843e-06	1073.8	202.44	2.0756e-06	1.7181e-06	252.21	74.873	55.696	15.753	1.7905e-06	23.239	203.506	154.504	190.835	91.715	250.848	224.225	91.965	99.660	248.745	245.747	99.013	105.975	106.842	114.098	235.741	112.563	-8191	255	
718.725	1	1	0	0	0.20726	0.053944	0.15971	0.057223	0.2893	0.11074	0.21217	0.22967	0.050309	0.089226	0.24861	0.031228	0.086829	0.2325	0.12033	0.063942	-2.6292	-3.6229	-3.0125	-3.3271	-3.6083	-2.8271	-3.6458	-3.4625	-2.9854	-3.6854	-3.3354	-3.2229	-3.7313	-2.7417	-3.2375	-3.7729	360.814	184.192	118.855	122.368	101.959	107.702	310.793	423.848	318.185	229.907	117.797	361.583	331.707	205.329	135.182	430.098	0.00023069	0.00032074	6.8689e-05	966.67	2.8047e-06	2.7933e-06	1089.6	203.27	3.2815e-06	3.8238e-06	253.75	74.656	55.071	15.408	3.5439e-06	22.734	0.00020579	0.00016894	4.7174e-05	949.83	1.8895e-06	1.9699e-06	1075.4	202.24	2.0232e-06	1.7821e-06	252.41	74.947	55.333	15.753	1.9025e-06	23.229	208.270	176.007	185.774	91.717	240.759	221.907	91.931	99.278	244.197	193.499	98.729	106.235	106.804	114.213	239.285	113.149	-8191	255	
718.796	1	1	0	0	0.16662	0.11619	0.32682	0.24531	0.10839	0.099501	0.20292	0.075062	0.21386	0.24536	0.24408	0.08707	0.12463	0.14207	0.12467	0.11908	-2.5187	-3.5479	-3.1813	-3.2042	-3.6354	-2.8688	-3.5042	-3.4938	-2.7687	-3.5167	-3.3729	-3.1	-3.7542	-2.9896	-3.3021	-3.6646	157.576	381.118	371.286	359.930	341.474	243.010	397.236	196.202	115.587	173.968	153.426	201.158	235.027	330.086	366.528	94.858	0.00021505	0.00015425	8.8889e-05	968.55	3.2623e-06	3.4404e-06	1087	203.94	2.1636e-06	1.7761e-06	253.16	74.897	55.458	15.54	1.6484e-06	22.957	0.0002064	0.00015366	4.4758e-05	951.34	1.8157e-06	1.9079e-06	1076.7	202.82	2.1283e-06	1.7222e-06	253.38	75.035	55.611	15.743	1.7947e-06	23.32	210.623	190.009	169.577	91.614	266.115	215.279	92.175	99.406	244.542	233.491	98.900	106.269	106.562	113.729	252.789	112.992	-8191	255	
718.917	1	1	0	0	0.038709	0.19968	0.12622	0.32686	0.018979	0.093953	0.16136	0.32306	0.15082	0.29434	0.13639	0.20279	0.29318	0.053489	0.16313	0.056646	-2.5812	-3.6562	-3.2188	-2.975	-3.5229	-3.0042	-3.3542	-3.7042	-2.7	-3.5646	-3.4208	-2.9708	-3.7646	-3.1271	-3.075	-3.6875	90.545	278.538	258.018	432.145	123.840	293.472	399.686	359.207	421.797	409.115	406.628	297.238	396.025	430.051	207.027	193.543	0.00023202	0.00037886	8.3899e-05	962.28	2.8781e-06	2.4959e-06	1093.3	203.39	3.0105e-06	2.4276e-06	253.87	74.07	55.568	15.525	2.322e-06	22.887	0.00021028	0.00016514	4.7299e-05	951.44	1.812e-06	1.9101e-06	1076.5	203.31	2.0699e-06	1.6726e-06	253.34	74.845	55.632	15.766	1.8505e-06	23.255	208.968	160.630	178.876	91.846	265.544	224.479	91.819	99.528	226.155	221.359	99.033	105.970	106.694	113.787	238.401	113.004	-8191	255	
719.013	1	1	0	0	0.11603	0.13947	0.16826	0.038796	0.082511	0.1662	0.30789	0.077779	0.17582	0.04525	0.064973	0.15448	0.2269	0.13672	0.11833	0.14802	-2.4708	-3.4583	-3.4646	-2.9208	-3.6667	-3.0125	-3.2938	-3.7583	-3.0229	-3.3271	-3.5354	-2.8896	-3.6854	-3.2396	-2.9875	-3.7687	416.049	270.336	343.169	322.468	134.792	414.566	315.252	429.857	194.692	399.005	430.314	357.360	313.782	425.780	221.567	84.261	0.00021616	0.00013465	5.3653e-05	965.08	2.0495e-06	2.9297e-06	1093.9	204.28	2.2438e-06	3.5752e-06	253.46	74.74	55.703	15.595	2.7703e-06	23.112	0.00020794	0.00016441	4.6707e-05	952	1.9247e-06	1.8775e-06	1079	202.92	2.0029e-06	1.7108e-06	252.94	75.175	55.653	15.767	1.8247e-06	23.377	208.836	416.047	169.436	91.797	262.903	236.245	91.896	99.402	263.108	223.359	98.908	105.879	106.638	113.890	236.160	112.688	-8191	255	
719.109	1	1	0	0	0.18175	0.050593	0.022858	0.3179	0.095478	0.19888	0.13345	0.036249	0.28866	0.14176	0.028008	0.14289	0.034139	0.15972	0.20118	0.28173	-2.5125	-3.2104	-3.4917	-2.8104	-3.5875	-3.2167	-3.0875	-3.6896	-2.9583	-3.3187	-3.5146	-2.6521	-3.6021	-3.3521	-2.8812	-3.7104	248.330	156.522	181.742	426.762	425.059	375.964	389.231	254.691	404.080	376.348	262.438	120.091	403.511	338.427	312.347	377.267	0.00023205	0.00023342	6.0163e-05	964.52	3.1604e-06	2.679e-06	1093.5	204.3	2.9915e-06	4.3186e-06	254.66	74.835	55.792	15.601	2.1956e-06	22.921	0.00022025	0.00016563	4.4268e-05	952.71	2.0109e-06	1.728e-06	1079.6	203.2	2.0756e-06	1.8821e-06	253.06	75.088	55.83	15.758	1.8979e-06	23.347	210.046	152.108	196.883	91.766	227.254	230.540	92.023	99.743	242.932	217.506	98.949	106.549	106.654	114.141	253.430	112.745	-8191	255	
719.228	1	1	0	0	0.24867	0.27897	0.089961	0.42384	0.17593	0.065145	0.24228	0.26944	0.094681	0.21161	0.060147	0.10947	0.037768	0.070987	0.030784	0.11013	-2.5646	-3.3333	-3.5625	-3.0625	-3.5521	-3.3583	-3.1833	-3.8292	-3.1042	-3.2646	-3.6833	-2.7938	-3.5896	-3.45	-2.9458	-3.7667	171.062	317.694	131.171	395.934	108.434	252.871	406.553	359.102	374.163	123.261	124.487	83.584	93.784	168.505	239.697	435.512	0.00022272	0.00040577	8.0677e-05	972.51	3.3943e-06	1.8537e-06	1092.8	204.11	2.701e-06	4.0255e-06	254.46	74.623	55.301	15.579	2.5603e-06	22.765	0.00020763	0.00017303	4.2524e-05	953.32	2.0175e-06	1.5908e-06	1078.2	203.32	2.0053e-06	1.9375e-06	253.85	75.012	55.792	15.776	1.9681e-06	23.264	209.406	172.193	179.421	91.521	232.292	232.887	92.143	99.473	247.368	246.173	99.174	106.106	106.429	113.670	257.236	113.152	-8191	255	
719.324	1	1	0	0	0.071355	0.061044	0.11377	0.11334	0.12251	0.16053	0.27587	0.23533	0.22496	0.28078	0.10202	0.30601	0.02834	0.19228	0.22391	0.24515	-2.7687	-2.975	-3.7271	-3.1042	-3.2583	-3.3354	-2.9417	-3.7208	-3.0729	-2.95	-3.6188	-3.075	-3.3312	-3.4667	-2.775	-3.5458	110.526	268.509	142.310	340.718	280.787	406.242	387.202	296.231	121.437	118.329	427.165	413.077	268.119	403.203	395.100	349.872	0.00021289	0.00022108	6.8613e-05	961.37	3.8894e-06	2.8181e-06	1092.9	204.44	1.8869e-06	2.8554e-06	254.53	75.011	55.659	15.559	2.4397e-06	22.802	0.00019532	0.0001698	4.3618e-05	950.38	2.1128e-06	1.7756e-06	1078	203.68	1.8349e-06	1.8689e-06	253.1	74.827	55.69	15.718	1.9215e-06	23.197	211.618	187.181	193.122	91.743	240.372	225.812	92.009	99.525	264.258	243.384	98.798	105.947	107.218	113.949	236.625	113.265	-8191	255	
719.398	1	1	0	0	0.050301	0.10167	0.11467	0.37309	0.36389	0.22096	0.28773	0.1501	0.11403	0.07372	0.1144	0.12873	0.0426	0.12166	0.18739	0.056877	-2.7771	-3.0083	-3.7167	-3.25	-3.2562	-3.5312	-2.9458	-3.7375	-3.1667	-2.8688	-3.7771	-3.0812	-3.3125	-3.6333	-2.8375	-3.5604	355.126	319.568	214.481	413.826	188.894	158.483	359.597	432.038	365.221	119.450	97.147	351.621	320.786	362.138	122.831	299.597	0.00020478	0.000261	4.5714e-05	969.87	2.0763e-06	3.2194e-06	1091.6	203.61	2.4348e-06	2.3491e-06	255.07	74.428	55.443	15.512	3.134e-06	22.942	0.00020536	0.00016719	4.5601e-05	951.21	2.0722e-06	1.6198e-06	1077.4	202.9	1.8418e-06	1.759e-06	252.92	74.843	55.707	15.712	1.9321e-06	23.256	208.348	180.729	171.738	91.643	258.217	211.794	91.787	99.285	272.677	254.083	99.348	106.419	107.116	113.485	228.648	113.419	-8191	255	
719.517	1	1	0	0	0.206	0.10512	0.033501	0.38607	0.17051	0.10997	0.22906	0.29367	0.15055	0.26056	0.1515	0.030943	0.053035	0.2347	0.32877	0.034594	-2.8396	-2.9875	-3.675	-3.0354	-3.2438	-3.6354	-2.8021	-3.6625	-3.4688	-2.9979	-3.7542	-3.1458	-3.0792	-3.6521	-2.775	-3.6021	407.664	81.866	326.404	441.699	110.708	402.932	376.970	269.133	380.845	97.613	378.653	366.174	178.975	423.626	381.924	356.795	0.00020948	0.00025958	9.1885e-05	961.77	3.2852e-06	5.022e-06	1087.9	205.23	2.7092e-06	4.1864e-06	254.37	74.537	55.154	15.573	1.5863e-06	22.834	0.00020355	0.00016935	4.3561e-05	949.22	2.0332e-06	1.6148e-06	1076.2	203.2	1.8353e-06	1.9429e-06	253.25	74.715	55.561	15.769	1.8108e-06	23.243	208.055	169.058	179.064	91.799	228.805	209.299	92.093	99.870	250.750	253.523	99.045	105.977	106.972	114.277	239.240	113.047	-8191	255	
719.613	1	1	0	0	0.23718	0.064931	0.046954	0.11613	0.12038	0.11079	0.3651	0.12852	0.22534	0.1354	0.036378	0.059725	0.1974	0.10356	0.015656	0.086975	-3.0687	-2.8479	-3.5687	-3.1708	-2.9979	-3.6708	-2.975	-3.4708	-3.5583	-2.8875	-3.6021	-3.1208	-2.9854	-3.8479	-2.9792	-3.4521	238.007	343.711	180.080	430.310	180.833	387.331	410.818	367.391	412.432	195.264	429.252	230.017	125.751	90.210	184.952	297.992	0.00021562	0.00021423	4.5284e-05	965.38	3.6571e-06	2.5529e-06	1086.8	203.39	2.261e-06	3.3922e-06	255.05	74.376	55.205	15.595	2.2282e-06	23.102	0.00020282	0.00017283	4.6764e-05	949.86	2.0556e-06	1.5636e-06	1073.8	202.67	1.8568e-06	1.8984e-06	253.36	74.681	55.597	15.744	1.7157e-06	23.332	210.392	181.979	159.033	91.792	236.529	198.594	91.896	99.594	243.891	236.297	99.288	106.308	106.904	113.902	253.745	113.389	-8191	255	
719.709	1	1	0	0	0.072459	0.22473	0.19732	0.16929	0.46358	0.18889	0.12948	0.094091	0.13954	0.072999	0.2176	0.22466	0.15489	0.073665	0.096125	0.17008	-3.3354	-2.7979	-3.4813	-3.3458	-3.0438	-3.625	-3.0417	-3.225	-3.6958	-2.8625	-3.675	-3.4604	-3.0333	-3.7562	-3.0604	-3.1896	193.531	428.400	314.715	363.265	368.073	395.463	149.715	228.378	304.586	92.953	371.251	438.525	391.967	273.648	104.100	335.069	0.00024071	0.00023962	5.5557e-05	965.51	4.1484e-06	2.3993e-06	1090.3	205.62	3.225e-06	2.8992e-06	255.34	74.594	55.232	15.5	3.0593e-06	22.828	0.00020486	0.00018378	4.4416e-05	948.87	2.0266e-06	1.6415e-06	1075.9	203.23	1.8442e-06	1.9189e-06	252.84	74.828	55.498	15.706	1.8319e-06	23.184	211.403	182.133	189.366	91.869	262.813	235.319	92.212	99.550	253.564	239.354	99.266	106.113	107.115	113.683	233.138	112.811	-8191	255	
719.830	1	1	0	0	0.016171	0.1721	0.11921	0.14655	0.081623	0.17127	0.10117	0.072464	0.075195	0.15262	0.16128	0.13215	0.31576	0.23699	0.1896	0.17259	-3.4	-2.7708	-3.4333	-3.575	-2.9667	-3.6437	-3.2958	-3.075	-3.8104	-2.8667	-3.4771	-3.4604	-2.8917	-3.6729	-3.1417	-3.075	313.997	151.951	175.018	400.222	351.836	414.573	373.490	290.867	190.788	111.459	173.053	236.981	262.341	210.560	241.538	84.424	0.00022971	0.00015007	8.9451e-05	960.86	2.7788e-06	1.2711e-06	1089.7	202.97	2.6897e-06	2.8632e-06	253.69	73.927	55.344	15.571	2.8699e-06	22.829	0.0002023	0.0001792	4.8006e-05	946.26	2.015e-06	1.6243e-06	1074	202.43	1.8592e-06	1.9389e-06	252.58	74.813	55.632	15.702	1.8729e-06	23.215	212.777	182.680	159.538	91.910	237.074	209.933	91.985	99.916	226.346	219.395	99.292	106.204	107.434	114.158	238.875	112.745	-8191	255	
719.926	1	1	0	0	0.19284	0.12596	0.34266	0.065235	0.17	0.095162	0.45491	0.24581	0.20137	0.36988	0.064463	0.096775	0.1265	0.042202	0.23266	0.028967	-3.3	-2.9625	-3.0646	-3.5854	-2.8396	-3.4729	-3.3	-2.9792	-3.6292	-3.1271	-3.2646	-3.6271	-2.9604	-3.6875	-3.35	-3.0167	412.625	420.577	296.996	83.078	235.142	162.577	352.179	348.495	403.106	226.237	218.449	293.471	171.614	232.935	104.131	116.582	0.00022979	0.00033006	9.0859e-05	961.31	2.1682e-06	1.6441e-06	1085	203.21	3.0934e-06	3.8994e-06	252.75	74.5	55.438	15.503	1.8654e-06	23.008	0.00019945	0.00017654	4.4609e-05	947.5	2.0535e-06	1.5238e-06	1072.1	202.52	1.7707e-06	1.9389e-06	253.12	74.579	55.538	15.745	1.7588e-06	23.244	206.384	178.313	192.564	91.610	244.392	210.734	92.208	99.627	250.577	234.737	99.104	106.437	107.203	114.101	208.333	113.441	-8191	255	
720.022	1	1	0	0	0.054697	0.2756	0.020412	0.21132	0.33019	0.30856	0.23411	0.035615	0.052372	0.22148	0.27987	0.27275	0.084836	0.23082	0.12423	0.39241	-3.3187	-3.1021	-3.1021	-3.8271	-2.8937	-3.3958	-3.5833	-2.8396	-3.5479	-3.1667	-3.0458	-3.6042	-3.0104	-3.5229	-3.5187	-3.025	158.385	380.635	335.605	311.791	203.475	332.461	417.627	424.460	424.652	86.571	388.873	382.186	386.390	424.908	101.038	359.079	0.00021401	0.00027096	7.5891e-05	960.42	2.6593e-06	2.2596e-06	1090.3	202.93	2.332e-06	2.3241e-06	254.27	74.66	55.384	15.414	2.1968e-06	23.095	0.00019548	0.00017761	4.8097e-05	949.07	2.0457e-06	1.6687e-06	1075	202.45	1.9676e-06	1.6408e-06	252.19	74.833	55.54	15.68	1.7672e-06	23.267	209.435	171.914	198.512	92.043	268.633	236.394	92.239	99.759	257.758	226.024	99.353	106.569	107.132	114.328	243.397	112.996	-8191	255	
720.094	1	1	0	0	0.043944	0.22156	0.39151	0.071098	0.27518	0.010357	0.18983	0.18022	0.14521	0.051785	0.36664	0.16461	0.10284	0.20272	0.03844	0.14828	-3.2812	-3.1917	-3.1688	-3.7938	-3.0208	-3.2604	-3.6958	-2.9292	-3.7	-3.4625	-3.2062	-3.7083	-2.9458	-3.3333	-3.4688	-2.8396	435.284	379.136	101.369	182.486	255.195	436.959	357.796	397.801	351.511	403.691	396.227	181.483	391.599	405.074	281.984	267.208	0.00022271	0.00030527	5.4454e-05	962.45	3.2758e-06	2.3965e-06	1087.4	204.1	2.5934e-06	3.0057e-06	252.76	74.119	55.727	15.565	1.9305e-06	22.906	0.00019598	0.00016572	4.698e-05	947.28	1.9997e-06	1.7557e-06	1072.9	202.53	1.7894e-06	1.8012e-06	251.83	74.629	55.592	15.718	1.7169e-06	23.265	212.610	194.416	155.426	91.934	254.585	249.175	91.966	99.858	255.459	244.163	98.935	106.479	107.066	114.061	253.103	113.156	-8191	255	
720.212	1	1	0	0	0.11274	0.1998	0.099486	0.18743	0.24528	0.29666	0.092294	0.10394	0.21618	0.14954	0.15039	0.079514	0.15502	0.17882	0.15303	0.31602	-3.3083	-3.2812	-2.8479	-3.8354	-3.0354	-3.3458	-3.9375	-2.9167	-3.4417	-3.275	-2.9062	-3.5729	-3.0667	-3.0104	-3.5792	-2.8625	304.915	361.694	341.788	86.423	290.612	336.202	390.367	394.462	128.814	151.579	87.372	314.099	382.446	99.992	157.684	319.773	0.00021363	0.00016497	5.8794e-05	961.12	2.8806e-06	3.075e-06	1089.6	203.54	1.6333e-06	1.8398e-06	251.7	74.31	55.526	15.442	2.5793e-06	23.057	0.00019861	0.00016674	4.6273e-05	948.77	2.0593e-06	1.7597e-06	1073.9	202.59	1.8478e-06	1.6617e-06	251.77	74.729	55.549	15.703	1.7381e-06	23.257	212.547	177.374	209.188	92.454	218.683	233.111	92.267	99.615	234.898	231.304	99.268	106.460	107.457	114.182	242.007	113.325	-8191	255	
720.309	1	1	0	0	0.35598	0.12268	0.16281	0.080806	0.12374	0.16608	0.23522	0.1285	0.10782	0.33592	0.26312	0.14192	0.094652	0.082107	0.070589	0.076922	-3.0438	-3.3375	-2.8167	-3.6521	-3.1	-3.2354	-3.7917	-2.7917	-3.3688	-3.5875	-2.8688	-3.6813	-3.0271	-3.2708	-3.6583	-2.9167	131.586	421.257	138.303	338.560	389.620	238.347	344.015	366.170	210.381	165.587	89.107	96.856	100.067	223.273	141.979	270.525	0.00022836	0.00027552	4.5535e-05	961.52	3.2712e-06	2.0827e-06	1087.9	203.33	2.6927e-06	4.8186e-06	252.09	74.383	55.45	15.401	2.958e-06	22.907	0.00020266	0.0001582	4.7995e-05	948.27	1.9404e-06	1.8399e-06	1072.9	202.35	1.8608e-06	1.8385e-06	252.09	74.679	55.386	15.625	1.6653e-06	23.213	205.707	170.032	182.368	92.256	236.339	220.573	92.592	99.943	242.157	233.522	99.211	106.477	107.075	114.589	251.400	113.589	-8191	255	
720.405	1	1	0	0	0.082977	0.33171	0.07736	0.20586	0.034963	0.16491	0.0031353	0.24017	0.20226	0.016324	0.33721	0.098895	0.33984	0.14308	0.098101	0.18425	-3.1354	-3.5375	-2.8312	-3.6896	-3.2875	-3.0542	-3.7062	-2.9896	-3.3125	-3.6167	-2.9708	-3.5667	-3.2687	-3.0104	-3.725	-3.1562	330.180	105.764	350.449	369.984	100.218	409.958	197.562	392.418	272.056	198.193	278.029	425.943	427.155	380.195	118.219	319.218	0.00022812	0.00028325	8.3359e-05	963.35	2.4226e-06	4.2751e-06	1089	202.52	2.7911e-06	2.1669e-06	252.98	74.476	55.287	15.561	2.507e-06	22.884	0.00020964	0.00015138	4.9396e-05	947.51	1.9309e-06	1.7851e-06	1073.2	202.25	1.914e-06	1.8253e-06	251.99	74.568	55.498	15.705	1.6163e-06	23.281	209.434	183.208	189.339	92.299	242.383	245.644	92.376	99.675	255.872	250.005	99.555	106.630	107.144	114.530	236.518	113.211	-8191	255	
720.501	1	1	0	0	0.16317	0.028681	0.11238	0.040686	0.045019	0.14764	0.13093	0.10584	0.2835	0.15947	0.16957	0.16425	0.20998	0.16955	0.13117	0.23267	-2.8333	-3.5292	-3.0917	-3.6854	-3.325	-2.9104	-3.8667	-3.1188	-3.0979	-3.8396	-2.9	-3.4604	-3.6167	-2.8458	-3.7771	-3.1354	283.224	308.912	378.951	314.269	234.476	297.500	354.739	336.125	334.062	289.493	271.488	385.548	433.452	330.062	106.838	354.749	0.00022919	0.0003751	6.1187e-05	963.88	2.2995e-06	1.7061e-06	1086.9	203.84	2.2044e-06	3.3843e-06	253.28	74.515	55.191	15.515	2.3344e-06	22.832	0.00021424	0.00014606	4.6114e-05	949.86	2.0618e-06	1.6642e-06	1074.2	202.31	2.0062e-06	1.5782e-06	252.1	74.588	55.378	15.695	1.7545e-06	23.215	211.117	176.948	208.103	92.059	245.544	180.299	92.462	100.024	249.359	224.356	99.929	106.560	106.987	114.183	255.059	113.068	-8191	255	
720.622	1	1	0	0	0.092138	0.10517	0.22392	0.13554	0.16109	0.20648	0.35187	0.045697	0.082472	0.036648	0.1615	0.1747	0.054543	0.098125	0.13403	0.12357	-2.7708	-3.7271	-2.925	-3.5271	-3.4625	-3.0062	-3.7833	-3.2667	-3.1521	-3.6042	-2.8146	-3.3729	-3.5771	-2.8625	-3.5417	-3.3354	422.382	236.268	322.678	414.857	418.574	242.754	393.654	91.611	143.595	239.494	436.359	99.527	109.907	406.675	440.290	107.676	0.00020766	0.00037088	9.6703e-05	961.24	3.4829e-06	2.5492e-06	1087.3	204.32	2.6919e-06	3.4071e-06	251.31	74.23	55.665	15.441	1.7827e-06	22.829	0.00020411	0.00014566	4.8576e-05	948.64	1.8684e-06	1.762e-06	1073.7	202.69	1.9177e-06	1.6567e-06	251.86	74.485	55.712	15.67	1.6552e-06	23.191	209.931	164.448	165.654	92.215	241.308	232.501	92.501	99.931	252.530	241.651	99.583	106.668	107.266	114.444	229.196	113.328	-8191	255	
720.693	1	1	0	0	0.061105	0.10312	0.017444	0.34364	0.17024	0.13068	0.4099	0.0391	0.069854	0.23777	0.13474	0.060516	0.15917	0.29117	0.2228	0.1392	-2.6562	-3.7208	-2.8812	-3.3167	-3.6125	-3.0021	-3.7208	-3.425	-2.8458	-3.7729	-3.0625	-3.2188	-3.5896	-2.8792	-3.4729	-3.3438	144.128	388.108	395.184	394.676	142.057	116.384	411.881	330.926	283.364	393.509	200.502	327.625	168.852	192.521	351.258	180.399	0.00021653	0.00025092	6.6002e-05	967.72	3.1568e-06	1.1807e-06	1091.9	203.29	1.8665e-06	3.0703e-06	255.25	74.249	54.862	15.609	1.7546e-06	22.822	0.0002062	0.00015366	5.0194e-05	950.28	1.9007e-06	1.7575e-06	1073.3	202.09	2.0829e-06	1.7281e-06	252.77	74.768	55.389	15.75	1.6501e-06	23.183	211.690	172.431	185.441	92.381	278.551	216.951	92.577	99.838	239.292	254.152	99.779	106.569	107.083	114.934	259.492	113.542	-8191	255	
720.789	1	1	0	0	0.14749	0.10218	0.095854	0.23982	0.22885	0.22194	0.16093	0.16935	0.033466	0.17451	0.21769	0.18596	0.10795	0.24051	0.18431	0.029428	-2.3271	-3.7229	-2.8979	-3.0583	-3.6646	-2.8625	-3.5229	-3.5708	-2.7417	-3.7625	-3.3083	-3.125	-3.5062	-2.9792	-3.4396	-3.4792	169.238	325.703	161.950	377.401	147.495	339.609	399.825	256.167	256.732	351.228	90.039	424.263	392.304	368.259	288.732	100.890	0.00021461	0.00022155	6.355e-05	959.35	3.2462e-06	3.0881e-06	1090.4	203.01	2.6075e-06	3.9192e-06	252.16	74.268	55.407	15.573	2.2903e-06	22.851	0.00020758	0.00015771	4.5498e-05	948.42	1.9172e-06	1.8304e-06	1076.6	202.24	1.9984e-06	1.7412e-06	251.61	74.5	55.51	15.711	1.8869e-06	23.182	212.034	152.375	177.850	92.541	236.844	239.467	92.545	100.151	261.023	199.977	99.577	106.702	107.656	114.424	243.369	113.640	-8191	255	
720.910	1	1	0	0	0.13367	0.17657	0.22521	0.11594	0.06837	0.20397	0.48955	0.28568	0.17899	0.20928	0.1197	0.25028	0.064952	0.048421	0.02726	0.16902	-2.4479	-3.5938	-3.1521	-3.0583	-3.5667	-2.9083	-3.5938	-3.7396	-2.9667	-3.8625	-3.4583	-2.95	-3.7167	-3	-3.2042	-3.5458	361.824	215.178	230.959	324.143	116.192	95.552	363.187	439.543	429.323	277.191	137.207	423.751	393.405	318.378	94.555	440.408	0.00020662	0.00023162	6.4515e-05	961.65	3.2176e-06	1.7039e-06	1084.9	203.43	2.8503e-06	2.0003e-06	254.69	74.401	55.354	15.47	2.3432e-06	22.759	0.00020457	0.00014128	4.4495e-05	946.81	1.7751e-06	1.7231e-06	1073.2	202	1.8742e-06	1.6881e-06	252.62	74.596	55.395	15.698	1.6975e-06	23.135	209.022	192.660	176.721	92.677	224.131	205.759	92.792	100.076	254.674	213.787	99.651	107.164	107.313	114.990	277.529	113.446	-8191	255	
721.006	1	1	0	0	0.1659	0.21123	0.0487	0.2198	0.1821	0.084602	0.097539	0.090504	0.11093	0.18585	0.21739	0.12481	0.038385	0.047154	0.23102	0.29957	-2.3333	-3.4708	-3.375	-2.9583	-3.6354	-3.0125	-3.3792	-3.6542	-2.8229	-3.5375	-3.3854	-3.025	-3.6729	-3.2917	-3.0604	-3.7979	312.580	168.865	319.929	393.781	402.846	286.376	89.981	418.597	266.685	304.743	405.981	228.170	164.119	224.470	96.607	382.950	0.00022203	0.0001945	6.2541e-05	961.7	3.361e-06	2.1659e-06	1079.8	203.04	2.9624e-06	3.2722e-06	253.37	74.252	55.338	15.482	3.4069e-06	22.974	0.00020538	0.00015787	4.2558e-05	948.87	1.8986e-06	1.825e-06	1070.4	202.21	2.0581e-06	1.6904e-06	251.67	74.583	55.512	15.658	1.8962e-06	23.261	211.705	159.172	168.366	91.873	237.403	224.243	92.557	100.036	249.228	237.224	99.762	106.573	107.494	114.417	255.978	113.723	-8191	255	
721.102	1	1	0	0	0.069229	0.030768	0.21566	0.13253	0.23052	0.23113	0.039594	0.33554	0.11321	0.034858	0.15561	0.21786	0.14266	0.08687	0.20582	0.087551	-2.4896	-3.4167	-3.5708	-2.9542	-3.4979	-3.1792	-3.3	-3.7521	-2.8792	-3.3583	-3.45	-2.8333	-3.6229	-3.1917	-3.0042	-3.7917	321.512	208.379	191.969	421.706	209.650	134.547	411.313	387.158	237.766	241.801	282.968	430.015	129.364	330.900	139.533	133.224	0.00022829	0.00027954	5.5051e-05	963.45	2.7223e-06	2.8198e-06	1090.5	203.93	3.3084e-06	2.4562e-06	252.28	74.041	55.388	15.534	2.2409e-06	22.918	0.00021705	0.00015473	4.396e-05	947.84	1.8592e-06	1.8078e-06	1072.5	202.37	2.0236e-06	1.5972e-06	251.75	74.54	55.566	15.71	1.815e-06	23.267	209.203	140.453	186.587	92.278	252.507	258.874	92.660	100.021	234.329	229.302	99.544	106.674	107.668	114.245	229.432	113.314	-8191	255	
721.198	1	1	0	0	0.11768	0.19992	0.12214	0.2317	0.13265	0.29319	0.26861	0.22241	0.091162	0.18142	0.036481	0.1041	0.097821	0.092042	0.155	0.16946	-2.6813	-3.3688	-3.6312	-2.8396	-3.6437	-3.3958	-3.1604	-3.925	-3.2062	-3.0229	-3.6604	-2.9875	-3.5542	-3.1917	-3.0479	-3.625	336.025	211.801	386.703	146.155	330.142	344.555	369.779	400.805	305.289	316.388	176.690	103.136	405.002	434.547	209.364	268.229	0.00021371	0.00020735	7.8545e-05	958.66	3.1554e-06	1.7687e-06	1082.1	202.45	1.5928e-06	2.3645e-06	252.53	73.606	55.15	15.501	2.6609e-06	22.611	0.00020969	0.00016302	4.2763e-05	947.09	1.9214e-06	1.7226e-06	1071.5	201.99	1.9846e-06	1.8335e-06	251.91	74.527	55.446	15.688	1.9465e-06	23.149	208.195	168.757	178.730	92.227	239.110	235.789	92.309	100.276	244.950	228.129	99.796	106.788	107.164	114.408	254.250	113.596	-8191	255	
721.293	1	1	0	0	0.094233	0.018523	0.30773	0.13453	0.061952	0.1459	0.066456	0.027925	0.052757	0.17237	0.20663	0.11772	0.1693	0.047327	0.076664	0.32044	-2.6979	-3.1708	-3.6792	-2.9208	-3.3688	-3.4917	-3.1562	-3.6521	-2.9771	-3.3979	-3.7354	-2.8792	-3.45	-3.5917	-2.8312	-3.7313	143.441	378.239	198.723	111.216	136.784	189.156	85.594	376.081	376.246	333.324	98.375	160.143	397.186	353.354	95.488	404.467	0.00021608	0.00041245	9.642e-05	962.04	3.7103e-06	3.3251e-06	1085.6	201.76	2.6919e-06	2.2755e-06	253.52	74.31	55.184	15.606	2.7432e-06	22.88	0.00020275	0.00017716	4.2056e-05	947.8	1.9703e-06	1.6624e-06	1070.3	202.18	2.0236e-06	1.9148e-06	251.99	74.55	55.493	15.686	1.7956e-06	23.179	211.065	179.395	170.774	92.390	254.526	239.522	92.451	100.071	248.182	228.616	99.760	106.586	107.336	114.245	245.163	113.448	-8191	255	
721.389	1	1	0	0	0.07221	0.1417	0.23388	0.057215	0.068922	0.20406	0.34778	0.18911	0.18772	0.043935	0.23544	0.046324	0.14502	0.19808	0.069707	0.24399	-2.8708	-2.9625	-3.625	-2.9	-3.4375	-3.5604	-3.0104	-3.7021	-3.3375	-3.1083	-3.7458	-2.9167	-3.2958	-3.6354	-2.9437	-3.675	267.691	436.628	370.238	264.910	181.922	105.307	379.874	403.203	316.754	122.190	82.454	200.120	299.186	99.043	133.602	376.656	0.00022506	0.00030763	8.4065e-05	960.11	3.3524e-06	2.3184e-06	1083.3	203.68	3.062e-06	3.4046e-06	253.85	74.197	55.356	15.482	1.562e-06	22.75	0.00020463	0.00015223	4.1703e-05	947.18	2.0436e-06	1.6438e-06	1070.3	202.41	1.9725e-06	1.8198e-06	252.19	74.495	55.402	15.7	1.8827e-06	23.142	207.016	146.434	169.633	92.550	253.119	237.626	92.580	100.220	254.920	205.097	99.724	106.691	107.643	114.692	257.479	113.613	-8191	255	
721.510	1	1	0	0	0.12575	0.22421	0.15399	0.17737	0.19993	0.094812	0.27504	0.068047	0.088182	0.066191	0.17122	0.14767	0.2055	0.32913	0.062687	0.16584	-2.9542	-2.7938	-3.6562	-2.95	-3.3292	-3.8417	-2.9625	-3.7125	-3.3167	-3.0062	-3.8271	-3.2354	-3.1729	-3.7042	-2.9396	-3.6042	168.772	296.655	285.363	429.793	208.965	98.573	405.314	437.638	249.278	225.812	127.755	385.369	189.595	275.999	89.257	386.045	0.00021603	0.00021442	6.1113e-05	958.72	1.9025e-06	1.8668e-06	1084.9	201.99	2.7351e-06	2.4116e-06	252.95	74.121	55.057	15.308	2.4772e-06	23.002	0.00019616	0.00017438	4.3002e-05	946.19	2.0266e-06	1.5813e-06	1071.4	201.93	1.8694e-06	1.9538e-06	251.86	74.605	55.391	15.613	1.8818e-06	23.208	208.753	161.083	209.138	92.239	264.187	223.486	92.754	100.446	237.961	226.240	99.733	106.748	107.494	114.769	250.914	113.863	-8191	255	
721.606	1	1	0	0	0.35965	0.034713	0.099143	0.053318	0.17766	0.31685	0.32896	0.17894	0.44387	0.10089	0.017118	0.34251	0.24854	0.082273	0.21073	0.30992	-3.0458	-2.8812	-3.5333	-3.1875	-2.9229	-3.8229	-2.9208	-3.4271	-3.6042	-3.0542	-3.5604	-3.2521	-3.2771	-3.8375	-2.7792	-3.2938	163.551	181.545	320.679	368.045	116.361	330.677	372.232	426.991	342.839	333.122	330.487	84.448	109.550	407.778	143.186	384.166	0.00022622	0.00036328	3.4286e-05	957.84	2.7103e-06	2.7239e-06	1090.1	203.66	3.0578e-06	3.2118e-06	253.03	74.413	55.536	15.509	2.4368e-06	22.864	0.00019994	0.00016637	4.2558e-05	946.89	2.0734e-06	1.7697e-06	1071.6	202.38	1.8389e-06	1.9111e-06	252.25	74.574	55.524	15.701	1.864e-06	23.236	208.587	178.036	165.052	92.472	250.540	208.847	92.937	100.539	240.369	213.224	99.876	106.902	107.278	115.056	223.610	114.126	-8191	255	
721.702	1	1	0	0	0.15211	0.27188	0.13495	0.085218	0.17988	0.036677	0.25303	0.12643	0.056069	0.25965	0.11926	0.15356	0.15241	0.17657	0.037238	0.30159	-3.1188	-3.0167	-3.7875	-3.2896	-2.8854	-3.6958	-3.1917	-3.4	-3.6667	-2.9625	-3.675	-3.45	-3.0396	-3.7708	-3.0479	-3.2167	113.545	332.764	436.129	280.921	430.108	94.000	426.382	388.355	379.427	269.709	120.897	373.641	384.404	292.384	354.626	402.060	0.00021408	0.00025176	8.081e-05	960.81	2.2123e-06	2.62e-06	1084.1	203.36	2.6725e-06	1.862e-06	253.91	74.424	55.393	15.5	2.9573e-06	22.975	0.00019596	0.00016931	4.6251e-05	948.61	2.0631e-06	1.6017e-06	1071.9	201.97	1.8836e-06	1.8121e-06	252.73	74.526	55.452	15.667	1.9101e-06	23.232	209.410	207.052	165.730	92.209	233.900	262.215	92.454	100.408	258.028	207.178	99.540	106.636	107.989	114.801	261.423	113.817	-8191	255	
721.798	1	1	0	0	0.25033	0.22734	0.14632	0.053491	0.19592	0.19981	0.27421	0.42646	0.14171	0.17017	0.12613	0.30465	0.15378	0.077779	0.21704	0.16636	-3.3417	-2.7583	-3.6604	-3.5417	-2.9521	-3.7	-3.0458	-3.2354	-3.5729	-2.8563	-3.5583	-3.5042	-3.0979	-3.5479	-3.1188	-3.15	436.140	96.832	296.241	267.772	330.693	132.871	401.212	424.303	196.650	360.851	432.765	396.126	388.789	148.318	422.386	228.255	0.0002213	0.00028399	8.5462e-05	963.55	3.3834e-06	3.0263e-06	1084.9	204.97	2.0977e-06	3.6907e-06	254.33	74.158	55.264	15.434	2.0021e-06	22.989	0.0001931	0.00015979	4.6513e-05	948	1.9703e-06	1.685e-06	1072.1	202.96	1.776e-06	1.8516e-06	252.74	74.441	55.369	15.67	1.8361e-06	23.265	210.867	182.178	165.076	92.693	250.087	229.672	93.444	101.160	254.157	224.372	99.699	106.734	107.827	114.132	248.085	113.132	-8191	255	
721.919	1	1	0	0	0.10758	0.2952	0.10269	0.39185	0.13644	0.19041	0.23389	0.075735	0.11502	0.164	0.11647	0.24459	0.076653	0.29671	0.23108	0.25308	-3.5229	-2.8917	-3.45	-3.475	-2.9875	-3.7208	-3.4125	-3.0229	-3.7917	-3.1562	-3.3667	-3.4771	-2.9042	-3.5708	-3.3063	-3.0312	119.946	420.830	86.447	418.468	291.596	331.757	409.542	340.694	358.756	310.863	162.042	354.959	89.318	386.944	91.369	384.040	0.00022046	0.00024299	6.7755e-05	963.01	1.8353e-06	2.7414e-06	1087.4	204.42	2.7106e-06	3.7528e-06	253.66	73.742	55.48	15.349	2.6345e-06	22.858	0.00019813	0.00016008	4.233e-05	948.19	2.0258e-06	1.6347e-06	1072.6	202.82	1.938e-06	1.8675e-06	252.16	74.494	55.469	15.661	1.7761e-06	23.197	209.229	174.620	177.444	92.342	268.682	234.110	92.409	100.528	257.141	189.830	99.270	106.530	107.281	114.541	248.219	113.787	-8191	255	
721.990	1	1	0	0	0.19457	0.1607	0.185	0.35382	0.10641	0.12784	0.23466	0.25619	0.094944	0.084135	0.09016	0.17345	0.14353	0.12616	0.12912	0.29249	-3.2729	-2.8604	-3.2583	-3.6729	-2.8812	-3.5333	-3.5687	-3.0167	-3.725	-3.1354	-3.2021	-3.5729	-3.0396	-3.5104	-3.3896	-2.9625	289.735	342.990	221.669	392.770	193.799	423.993	370.008	391.829	107.425	305.605	360.409	432.414	145.320	366.139	255.264	421.073	0.00022263	0.00020216	4.5213e-05	961.6	2.0931e-06	2.4241e-06	1085.1	203.87	3.038e-06	2.7621e-06	252.85	74.202	54.809	15.519	2.4176e-06	22.946	0.00020105	0.00017679	4.5783e-05	946.71	1.9346e-06	1.7729e-06	1071.9	202.71	1.8499e-06	1.9266e-06	251.57	74.543	55.291	15.661	1.7693e-06	23.172	211.196	170.489	150.025	92.349	266.605	201.603	92.770	101.536	258.270	239.757	100.394	107.692	107.508	115.132	243.599	113.764	-8191	255	
722.087	1	1	0	0	0.15624	0.098192	0.1021	0.20052	0.084747	0.05999	0.13476	0.29145	0.094921	0.10733	0.090233	0.13545	0.24898	0.055268	0.16895	0.21931	-3.1979	-2.975	-3.1021	-3.8125	-3.0021	-3.5333	-3.5021	-2.8854	-3.6729	-3.0396	-3.0979	-3.6583	-2.9292	-3.3271	-3.7833	-2.9562	415.240	98.111	356.007	413.118	420.977	313.249	351.492	401.213	232.661	347.645	408.872	442.589	342.317	322.734	145.266	251.909	0.00022603	0.00035386	4.2967e-05	963.31	3.7534e-06	3.1444e-06	1083	204.05	3.1403e-06	3.1256e-06	255.64	74.364	54.588	15.428	1.9198e-06	22.719	0.00020473	0.00016077	4.4986e-05	946.97	2.0249e-06	1.7833e-06	1071.7	202.26	1.8182e-06	1.8521e-06	252.04	74.574	55.072	15.645	1.7228e-06	23.121	209.808	168.028	175.725	92.663	260.597	227.201	93.160	100.821	240.638	221.812	100.662	107.616	107.835	115.344	245.784	114.161	-8191	255	
722.183	1	1	0	0	0.097025	0.049906	0.087438	0.35921	0.12923	0.1461	0.21562	0.11226	0.16477	0.20437	0.13743	0.12391	0.073105	0.25007	0.057503	0.2066	-3.5396	-3.2333	-3.0354	-3.9	-3.0938	-3.4688	-3.725	-2.7729	-3.7021	-3.2875	-2.8896	-3.6437	-2.9833	-3.3333	-3.6542	-2.8458	110.745	90.072	352.927	337.406	203.229	364.530	335.815	385.019	132.383	200.080	378.313	83.019	247.620	323.667	384.043	378.289	0.00023817	0.0003196	5.9572e-05	959.81	3.1348e-06	1.4758e-06	1082.4	203.25	2.7343e-06	5.7329e-06	253.41	73.908	55.442	15.452	2.8516e-06	22.772	0.00019553	0.00015003	4.8097e-05	946.62	2.0809e-06	1.7511e-06	1070.4	202.26	1.7598e-06	1.7685e-06	251.97	74.451	55.472	15.648	1.725e-06	23.135	212.636	187.061	194.647	92.378	264.620	238.859	92.313	100.068	260.992	222.402	99.361	106.284	106.829	114.471	251.036	113.262	-8191	255	
722.302	1	1	0	0	0.043864	0.23219	0.058096	0.29987	0.10473	0.17787	0.13336	0.10387	0.084134	0.065128	0.40643	0.053197	0.16621	0.096011	0.21368	0.029854	-3.2396	-3.4188	-2.775	-3.7292	-2.9792	-3.1688	-3.7062	-2.9167	-3.4854	-3.5958	-2.8229	-3.5708	-3.1875	-3.3063	-3.7917	-2.9813	123.637	82.254	290.501	391.880	144.956	168.121	297.341	352.069	205.028	326.222	398.954	118.948	120.741	441.741	391.145	411.384	0.00023863	0.00030128	9.9637e-05	958.65	2.205e-06	1.5797e-06	1081.5	201.72	2.797e-06	2.7498e-06	253.86	74.4	54.443	15.562	1.6493e-06	22.756	0.00020303	0.00015166	4.4894e-05	946.1	2.0175e-06	1.6814e-06	1069.2	201.91	1.8316e-06	1.6349e-06	252.27	74.505	55.063	15.673	1.6218e-06	23.132	209.686	169.040	184.086	92.299	254.731	248.611	91.894	99.921	239.217	220.327	99.862	106.526	106.909	114.298	216.385	113.269	-8191	255	
722.398	1	1	0	0	0.23522	0.12631	0.17822	0.18916	0.11237	0.30381	0.15371	0.18059	0.10741	0.12537	0.10901	0.0736	0.18002	0.28485	0.057033	0.11821	-2.9229	-3.4104	-2.8396	-3.7708	-3.1604	-3.075	-3.875	-2.7146	-3.1417	-3.5667	-2.8896	-3.7396	-3.1188	-3.0896	-3.6833	-2.9125	196.626	162.613	392.021	282.869	129.379	225.107	294.184	405.175	133.077	382.346	317.817	372.188	350.418	333.362	422.450	438.370	0.00021877	0.0001854	7.0268e-05	959.09	2.1897e-06	2.1571e-06	1090.8	201.76	3.4506e-06	3.633e-06	252.71	74.436	55.067	15.45	2.88e-06	22.861	0.00020101	0.00016588	4.6479e-05	944.78	1.9475e-06	1.733e-06	1071.7	201.69	2.0017e-06	1.754e-06	251.49	74.487	55.141	15.626	1.7507e-06	23.081	211.363	210.439	176.060	92.093	258.243	265.397	92.205	99.773	246.061	221.806	100.013	106.639	107.125	114.471	246.781	113.391	-8191	255	
722.494	1	1	0	0	0.2602	0.10576	0.23952	0.14537	0.12826	0.093567	0.20395	0.20893	0.13839	0.21625	0.11687	0.11472	0.097061	0.26473	0.11484	0.25166	-2.9625	-3.6292	-2.9146	-3.7125	-3.4167	-2.8083	-3.9229	-2.975	-3.1771	-3.4854	-3.0271	-3.6813	-3.3333	-3.0375	-3.6167	-3.0521	388.206	364.592	222.769	94.771	294.379	359.424	346.213	421.146	336.577	156.058	153.813	294.681	95.325	414.902	102.939	132.749	0.00021959	0.00031322	8.5696e-05	958.09	1.9444e-06	2.9654e-06	1081.7	202.97	2.2683e-06	3.6261e-06	250.51	74.033	55.039	15.555	3.0244e-06	22.744	0.00020606	0.00015697	4.8815e-05	946.31	1.8824e-06	1.8037e-06	1069.6	201.45	1.8917e-06	1.6749e-06	251.12	74.338	55.362	15.631	1.7245e-06	23.094	209.160	168.776	182.765	92.130	232.198	213.323	92.120	99.885	243.585	252.153	99.371	106.455	107.131	113.797	248.397	113.510	-8191	255	
722.590	1	1	0	0	0.21966	0.23579	0.10908	0.03999	0.16511	0.16591	0.0065394	0.20162	0.19034	0.29187	0.20115	0.18489	0.076951	0.038105	0.15309	0.21297	-2.8167	-3.7146	-2.8292	-3.4729	-3.4292	-2.8625	-3.9083	-3.0271	-3.0312	-3.775	-3.0521	-3.2958	-3.5667	-2.9125	-3.6208	-3.3417	179.660	335.550	377.548	268.429	339.044	331.919	377.764	432.136	394.644	158.497	231.874	372.782	263.740	418.167	195.658	348.718	0.00020992	0.00031224	5.9384e-05	958.48	2.456e-06	2.4672e-06	1085.7	202.26	1.9357e-06	3.2397e-06	251.91	74.131	54.729	15.476	2.2268e-06	22.708	0.00021447	0.00015187	4.9898e-05	946.06	1.9259e-06	1.9704e-06	1071.4	201.72	1.8925e-06	1.6899e-06	251.82	74.41	55.188	15.639	1.7465e-06	23.099	208.642	190.148	213.760	91.967	225.254	239.068	92.440	99.740	260.228	263.786	99.781	106.583	107.128	114.614	258.919	113.214	-8191	255	
722.686	1	1	0	0	0.11787	0.13228	0.077375	0.13775	0.13665	0.096375	0.092363	0.10354	0.19819	0.23945	0.03169	0.0070962	0.19465	0.079128	0.22743	0.063202	-2.6437	-3.7062	-3.025	-3.3896	-3.4562	-3.0667	-3.7521	-3.5375	-3.0438	-3.7271	-3.1896	-3.3083	-3.7146	-2.8604	-3.4771	-3.3187	255.328	109.170	107.033	345.284	393.684	272.249	330.407	115.535	210.414	364.926	212.211	407.215	244.549	97.092	156.203	181.557	0.00023342	0.00014995	7.7321e-05	961.72	2.7639e-06	2.4463e-06	1085.7	201.5	2.2414e-06	3.4971e-06	252.87	74.018	55.468	15.393	2.2462e-06	22.858	0.00021078	0.00015052	4.4268e-05	948.45	1.9508e-06	1.8653e-06	1072.3	201.74	1.981e-06	1.7526e-06	251.15	74.265	55.393	15.614	1.8137e-06	23.091	211.538	191.747	177.248	92.124	247.041	258.203	92.234	99.644	246.449	235.760	99.646	106.653	107.494	114.448	248.762	113.026	-8191	255	
722.782	1	1	0	0	0.19192	0.32328	0.16561	0.22559	0.13814	0.13864	0.18122	0.32785	0.1842	0.066503	0.084252	0.11325	0.079458	0.23467	0.073619	0.17198	-2.5604	-3.5958	-3.0625	-3.2521	-3.5667	-2.7479	-3.5542	-3.2562	-2.8792	-3.6604	-3.1292	-3.0417	-3.8042	-2.8979	-3.4125	-3.4625	86.428	278.187	435.082	385.173	84.010	421.710	163.214	262.721	148.054	173.046	317.976	404.357	197.404	346.798	277.505	112.146	0.00022968	0.00027155	4.9255e-05	963.37	4.3976e-06	2.8679e-06	1083.4	202.38	2.2211e-06	2.5329e-06	254.41	73.62	55.273	15.372	2.6643e-06	22.931	0.00021775	0.00015505	5.0035e-05	948.01	1.9495e-06	1.9047e-06	1069	201.52	2.1263e-06	1.7026e-06	251.97	74.274	55.324	15.633	1.7964e-06	23.139	205.362	182.620	182.795	91.992	236.023	223.979	92.352	99.676	239.512	232.584	99.407	106.278	107.515	114.401	253.821	112.942	-8191	255	
722.878	1	1	0	0	0.089573	0.20915	0.25274	0.23981	0.27379	0.12349	0.14893	0.10537	0.12285	0.11357	0.10462	0.19707	0.21965	0.25071	0.38592	0.34557	-2.4188	-3.6333	-3.225	-3.0375	-3.6854	-2.9396	-3.4979	-3.5187	-2.8771	-3.5542	-3.2667	-3.1208	-3.6229	-2.9333	-3.1417	-3.4396	408.737	224.394	329.635	379.657	407.551	294.470	351.973	369.738	424.985	173.557	411.739	112.126	118.465	316.969	167.668	373.228	0.00020956	0.00048735	6.1681e-05	962.71	3.3925e-06	2.8876e-06	1086.5	203.31	2.4463e-06	3.461e-06	253.31	74.285	55.179	15.448	2.752e-06	22.713	0.00021209	0.00016008	5.0263e-05	948.44	1.8526e-06	1.7036e-06	1071.2	202.09	2.0715e-06	1.764e-06	251.2	74.398	55.351	15.625	1.7727e-06	23.095	212.047	177.359	203.528	92.157	257.037	219.256	92.101	99.817	248.934	233.689	99.027	106.486	107.313	114.021	251.921	113.299	-8191	255	
722.999	1	1	0	0	0.19127	0.11348	0.39264	0.09506	0.10303	0.031901	0.39543	0.32588	0.2441	0.073026	0.22473	0.25945	0.051955	0.099541	0.09025	0.063426	-2.4896	-3.5604	-3.2083	-2.9458	-3.7625	-2.9896	-3.3104	-3.7625	-2.8187	-3.5375	-3.475	-2.9542	-3.6146	-3.2167	-3.1708	-3.7271	400.956	369.808	439.870	93.412	325.497	290.965	385.077	331.666	438.003	97.570	301.522	361.488	407.323	356.410	335.532	374.317	0.00020998	0.00032111	4.6612e-05	961.99	4.2985e-06	3.1281e-06	1085.6	203.24	2.5225e-06	3.3044e-06	253.11	73.646	54.765	15.563	1.714e-06	22.756	0.000196	0.00015893	4.2068e-05	946.26	2.0233e-06	1.7208e-06	1070.1	201.97	1.9461e-06	1.7303e-06	251.72	74.3	55.177	15.666	1.8374e-06	23.089	208.061	193.019	186.129	92.139	232.756	212.340	92.169	99.948	243.580	215.635	99.574	106.791	107.607	114.337	242.917	112.981	-8191	255	
723.093	1	1	0	0	0.27281	0.11735	0.1667	0.14499	0.037322	0.14365	0.13926	0.18873	0.10151	0.1141	0.014165	0.24925	0.021668	0.090813	0.097987	0.083415	-2.5333	-3.5417	-3.3667	-2.8354	-3.6271	-3.1021	-3.2104	-3.5375	-2.9271	-3.4583	-3.4979	-2.8958	-3.5604	-3.125	-3.1688	-3.7854	360.707	138.237	287.122	231.204	233.432	174.250	393.039	297.137	283.748	416.435	350.742	314.377	353.881	286.615	289.746	241.375	0.00021409	0.0003457	6.1075e-05	957.85	1.9222e-06	3.7823e-06	1084.9	202.91	2.2981e-06	4.9061e-06	251.53	73.847	54.471	15.396	2.8935e-06	23.025	0.00020423	0.00015763	4.7664e-05	944.85	1.8543e-06	1.7919e-06	1070.3	201.91	2.1283e-06	1.8189e-06	251.49	74.33	55.069	15.61	1.9566e-06	23.181	211.378	160.861	175.336	92.025	259.136	239.068	92.305	99.947	264.905	209.143	99.139	106.917	107.552	114.179	243.301	113.215	-8191	255	
723.191	1	1	0	0	0.24311	0.1378	0.16882	0.19907	0.15033	0.10608	0.26021	0.16862	0.25938	0.099517	0.14435	0.21548	0.11692	0.23637	0.058584	0.095591	-2.5521	-3.2417	-3.4	-2.9167	-3.5271	-3.3333	-3.2042	-3.7708	-2.8729	-3.2562	-3.7479	-2.9417	-3.6063	-3.3833	-2.8417	-3.7021	307.983	350.401	265.419	97.560	378.633	148.280	314.920	423.775	101.576	299.695	331.919	348.984	197.709	409.816	384.444	331.992	0.00021436	0.00035096	8.5091e-05	959.86	3.0251e-06	1.9932e-06	1087.3	202.6	2.4356e-06	4.0249e-06	253.65	73.802	55.319	15.316	2.1816e-06	22.793	0.00020359	0.00016735	4.6011e-05	946.25	1.7536e-06	1.7099e-06	1072.2	201.69	1.9964e-06	1.6454e-06	252.09	74.407	55.284	15.59	1.941e-06	23.194	210.347	175.380	162.539	92.286	252.643	220.766	92.259	100.125	233.150	226.399	99.390	106.623	106.985	114.195	232.007	113.140	-8191	255	
#DATA ENDS
