BOXY.EXE: ISS Imagent and Oximeter Data Acquisition Program Version 0.80
Ascii Record File

#ACQ INFORMATION
2  Detector Channels 
16  External MUX Channels 
1  Auxiliary Channels 
5000  Waveform (CCF) Frequency (Hz)
1  Waveforms Skipped 
30  Waveforms Averaged 
1  Cycles Averaged 
16  Acquisitions per Waveform 
10.0806  Updata Rate (Hz) 

#FILE INFORMATION
TRUE -- External MUX Channel results are PARSED.
FALSE -- AC DC and Phase are NOT grouped.
TRUE -- Companion Program Settings File CREATED.
FALSE -- AC data not excluded
FALSE -- DC data not excluded
FALSE -- Phase data not excluded
FALSE -- Auxillary Chn. data not excluded
Tab delimiters

#CALIBRATION STATE
TRUE -- Waveform Calibration Values APPLIED.


#AUX CALIBRATION VALUES
Val Type	aux-1	

Term	1.0000e+00	
Factor	0.0000e+00	


#WF CALIBRATION VALUES
A = Detector Channel
Val Type	A-AC1	A-AC2	A-AC3	A-AC4	A-AC5	A-AC6	A-AC7	A-AC8	A-AC9	A-AC10	A-AC11	A-AC12	A-AC13	A-AC14	A-AC15	A-AC16	A-DC1	A-DC2	A-DC3	A-DC4	A-DC5	A-DC6	A-DC7	A-DC8	A-DC9	A-DC10	A-DC11	A-DC12	A-DC13	A-DC14	A-DC15	A-DC16	A-Ph1	A-Ph2	A-Ph3	A-Ph4	A-Ph5	A-Ph6	A-Ph7	A-Ph8	A-Ph9	A-Ph10	A-Ph11	A-Ph12	A-Ph13	A-Ph14	A-Ph15	A-Ph16	

Term	0.00000e+00	0.00000e+00	0.00000e+00	0.00000e+00	0.00000e+00	0.00000e+00	0.00000e+00	0.00000e+00	0.00000e+00	0.00000e+00	0.00000e+00	0.00000e+00	0.00000e+00	0.00000e+00	0.00000e+00	0.00000e+00	0.00000e+00	0.00000e+00	0.00000e+00	0.00000e+00	0.00000e+00	0.00000e+00	0.00000e+00	0.00000e+00	0.00000e+00	0.00000e+00	0.00000e+00	0.00000e+00	0.00000e+00	0.00000e+00	0.00000e+00	0.00000e+00	0.00000e+00	0.00000e+00	0.00000e+00	0.00000e+00	0.00000e+00	0.00000e+00	0.00000e+00	0.00000e+00	0.00000e+00	0.00000e+00	0.00000e+00	0.00000e+00	0.00000e+00	0.00000e+00	0.00000e+00	0.00000e+00	
Factor	1.00000e+00	1.00000e+00	1.00000e+00	1.00000e+00	1.00000e+00	1.00000e+00	1.00000e+00	1.00000e+00	1.00000e+00	1.00000e+00	1.00000e+00	1.00000e+00	1.00000e+00	1.00000e+00	1.00000e+00	1.00000e+00	1.00000e+00	1.00000e+00	1.00000e+00	1.00000e+00	1.00000e+00	1.00000e+00	1.00000e+00	1.00000e+00	1.00000e+00	1.00000e+00	1.00000e+00	1.00000e+00	1.00000e+00	1.00000e+00	1.00000e+00	1.00000e+00	X	X	X	X	X	X	X	X	X	X	X	X	X	X	X	X	

B = Detector Channel
Val Type	B-AC1	B-AC2	B-AC3	B-AC4	B-AC5	B-AC6	B-AC7	B-AC8	B-AC9	B-AC10	B-AC11	B-AC12	B-AC13	B-AC14	B-AC15	B-AC16	B-DC1	B-DC2	B-DC3	B-DC4	B-DC5	B-DC6	B-DC7	B-DC8	B-DC9	B-DC10	B-DC11	B-DC12	B-DC13	B-DC14	B-DC15	B-DC16	B-Ph1	B-Ph2	B-Ph3	B-Ph4	B-Ph5	B-Ph6	B-Ph7	B-Ph8	B-Ph9	B-Ph10	B-Ph11	B-Ph12	B-Ph13	B-Ph14	B-Ph15	B-Ph16	

Term	0.00000e+00	0.00000e+00	0.00000e+00	0.00000e+00	0.00000e+00	0.00000e+00	0.00000e+00	0.00000e+00	0.00000e+00	0.00000e+00	0.00000e+00	0.00000e+00	0.00000e+00	0.00000e+00	0.00000e+00	0.00000e+00	0.00000e+00	0.00000e+00	0.00000e+00	0.00000e+00	0.00000e+00	0.00000e+00	0.00000e+00	0.00000e+00	0.00000e+00	0.00000e+00	0.00000e+00	0.00000e+00	0.00000e+00	0.00000e+00	0.00000e+00	0.00000e+00	-9.05658e+01	-1.26898e+02	-1.24483e+02	-1.83724e+02	-5.37553e+01	-6.73461e+01	-1.56230e+02	-1.61923e+02	-5.40194e+01	-7.09364e+01	-1.72497e+02	-1.69782e+02	-1.82572e+02	-1.76840e+02	-5.89923e+01	-1.49992e+02	
Factor	1.56069e-05	1.51563e-04	3.89356e-05	2.00537e-01	1.34946e-06	1.72342e-06	1.58949e-01	5.10371e-02	1.12946e-06	1.86802e-06	8.89495e-02	2.57654e-02	2.29960e-02	7.58840e-03	1.36366e-06	1.13387e-02	1.08764e-05	1.96114e-05	5.47076e-06	1.05810e-01	1.98849e-07	2.17421e-07	7.90648e-02	2.72056e-02	1.94852e-07	2.18053e-07	4.58390e-02	1.33896e-02	1.23890e-02	4.07640e-03	2.02936e-07	5.89380e-03	X	X	X	X	X	X	X	X	X	X	X	X	X	X	X	X	



#DISTANCE SETTINGS
A = Detector Channel
A-1	A-2	A-3	A-4	A-5	A-6	A-7	A-8	A-9	A-10	A-11	A-12	A-13	A-14	A-15	A-16	

1.0000e+01	1.0000e+01	1.0000e+01	1.4500e+00	1.0000e+01	1.0000e+01	1.5100e+00	1.9500e+00	1.0000e+01	1.0000e+01	2.0100e+00	2.5000e+00	2.4400e+00	2.9500e+00	1.0000e+01	3.0100e+00	

B = Detector Channel
B-1	B-2	B-3	B-4	B-5	B-6	B-7	B-8	B-9	B-10	B-11	B-12	B-13	B-14	B-15	B-16	

1.0000e+01	1.0000e+01	1.0000e+01	1.4500e+00	1.0000e+01	1.0000e+01	1.5100e+00	1.9500e+00	1.0000e+01	1.0000e+01	2.0100e+00	2.5000e+00	2.4400e+00	2.9500e+00	1.0000e+01	3.0100e+00	




#DATA BEGINS
time	group	step	mark	flag	A-AC1	A-AC2	A-AC3	A-AC4	A-AC5	A-AC6	A-AC7	A-AC8	A-AC9	A-AC10	A-AC11	A-AC12	A-AC13	A-AC14	A-AC15	A-AC16	A-DC1	A-DC2	A-DC3	A-DC4	A-DC5	A-DC6	A-DC7	A-DC8	A-DC9	A-DC10	A-DC11	A-DC12	A-DC13	A-DC14	A-DC15	A-DC16	A-Ph1	A-Ph2	A-Ph3	A-Ph4	A-Ph5	A-Ph6	A-Ph7	A-Ph8	A-Ph9	A-Ph10	A-Ph11	A-Ph12	A-Ph13	A-Ph14	A-Ph15	A-Ph16	B-AC1	B-AC2	B-AC3	B-AC4	B-AC5	B-AC6	B-AC7	B-AC8	B-AC9	B-AC10	B-AC11	B-AC12	B-AC13	B-AC14	B-AC15	B-AC16	B-DC1	B-DC2	B-DC3	B-DC4	B-DC5	B-DC6	B-DC7	B-DC8	B-DC9	B-DC10	B-DC11	B-DC12	B-DC13	B-DC14	B-DC15	B-DC16	B-Ph1	B-Ph2	B-Ph3	B-Ph4	B-Ph5	B-Ph6	B-Ph7	B-Ph8	B-Ph9	B-Ph10	B-Ph11	B-Ph12	B-Ph13	B-Ph14	B-Ph15	B-Ph16	aux-1	digaux	

994.265	1	1	0	768	0.13271	0.21928	0.30821	0.083731	0.10779	0.18777	0.23862	0.24178	0.23683	0.16626	0.15389	0.074906	0.27743	0.14052	0.39082	0.21678	-3.4208	-3.0812	-3.1042	-3.8708	-3.1354	-3.5375	-3.7354	-3.1833	-3.8333	-3.3792	-3.2417	-4.0687	-3.1708	-3.4208	-3.6917	-3.2	405.050	393.151	284.932	206.893	363.567	473.343	521.606	181.364	299.341	329.163	273.023	482.843	191.292	496.466	391.151	502.591	0.0002137	0.00084856	0.00012905	554.51	3.9369e-06	7.1789e-06	446.34	158.8	3.2079e-07	7.3901e-06	140.21	49.272	51.818	20.124	3.2601e-06	21.429	0.0029025	0.0051951	0.0014707	573.93	5.5574e-05	6.2569e-05	463.44	165.72	5.8973e-05	6.552e-05	151.66	53.276	55.274	21.372	5.6481e-05	22.957	224.079	255.339	263.394	183.155	286.171	276.436	182.322	189.253	529.055	176.363	186.767	190.495	193.252	197.396	272.614	193.763	-8191	255	
994.361	1	1	0	0	0.13358	0.080751	0.2314	0.080432	0.14656	0.31094	0.10482	0.30472	0.15599	0.070942	0.28135	0.14389	0.30613	0.10666	0.15929	0.077238	-3.5021	-3.2854	-3.0938	-3.85	-3.1958	-3.2792	-3.8604	-3.1146	-3.6625	-3.5042	-3.1542	-3.8583	-3.2229	-3.3021	-3.6479	-3.0396	420.650	312.855	411.089	361.056	372.784	325.548	370.618	194.116	519.014	519.710	255.568	388.306	485.878	455.623	174.882	290.840	0.00023472	0.00046257	3.4983e-05	548.82	1.4204e-06	2.9363e-06	441.86	161.46	4.2189e-06	1.0031e-05	142.62	51.205	52.935	20.795	2.7037e-06	22.278	0.0029363	0.0048947	0.001329	566.58	4.4864e-05	4.8532e-05	455.08	165.69	4.0373e-05	4.4061e-05	150.32	53.889	55.314	21.658	4.0392e-05	23.477	227.319	251.467	265.106	183.485	322.411	350.950	182.677	189.202	246.717	214.601	186.997	191.036	193.332	197.219	508.030	193.579	-8191	255	
994.457	1	1	0	0	0.10977	0.060035	0.13028	0.16664	0.13059	0.15037	0.14064	0.093606	0.20211	0.29376	0.12013	0.21037	0.19268	0.026374	0.080535	0.10778	-3.3542	-3.5958	-3.0958	-3.9521	-3.2729	-3.1521	-3.9042	-3.0167	-3.5125	-3.4792	-3.0021	-3.8396	-3.3208	-3.0125	-3.8688	-3.2104	188.788	396.704	432.454	227.117	205.931	264.698	349.955	459.426	328.168	364.885	413.185	411.248	436.785	399.560	176.202	182.809	0.00023468	0.00048441	4.5223e-05	549.9	5.6187e-06	8.2942e-06	444.4	160.81	4.2711e-06	9.9139e-06	143.07	52.282	53.217	21.278	1.737e-06	22.596	0.0023302	0.0040652	0.0011864	565.46	4.3944e-05	4.8906e-05	455.49	166.27	4.5711e-05	5.3103e-05	153.23	55.567	56.463	22.343	5.5384e-05	24.198	232.883	276.900	215.997	183.573	340.656	255.168	182.696	189.329	306.526	430.167	187.193	191.064	193.735	197.356	320.298	193.912	-8191	255	
994.554	1	1	0	0	0.070582	0.18448	0.036123	0.19626	0.14513	0.079651	0.18758	0.32422	0.16314	0.21348	0.091182	0.27042	0.13457	0.22121	0.14691	0.086743	-3.0042	-3.7104	-2.9313	-3.7542	-3.3937	-3.0604	-3.8292	-3.1771	-3.3354	-3.6167	-2.9229	-3.5958	-3.6042	-2.9979	-3.7292	-3.375	353.843	253.311	437.362	364.507	252.878	334.870	489.439	449.160	515.790	469.055	250.667	184.415	504.756	515.909	387.438	499.289	0.00017885	0.00029352	0.00011553	555.71	1.8746e-06	4.737e-06	448.87	160.81	2.5989e-06	4.3032e-06	142.56	50.353	51.734	20.007	3.3705e-06	21.349	0.0030672	0.0054648	0.0015208	576.91	5.9393e-05	6.6322e-05	470.42	168.17	6.0212e-05	6.4588e-05	153.37	53.587	54.576	21.109	5.0882e-05	22.798	243.180	378.985	265.312	184.057	341.985	257.243	182.647	189.137	500.313	339.060	186.472	191.447	193.441	198.021	389.061	194.312	-8191	255	
994.650	1	1	0	0	0.11165	0.20086	0.22745	0.21123	0.14845	0.070062	0.20439	0.10573	0.19362	0.23208	0.078667	0.23401	0.14228	0.20837	0.26692	0.14698	-3.0812	-3.6583	-2.8854	-3.6917	-3.5146	-3.1104	-3.8729	-3.1729	-3.2188	-3.6854	-3.0604	-3.5458	-3.5438	-3.0708	-3.7104	-3.1208	530.338	355.703	341.059	361.767	392.461	243.039	201.729	434.149	450.879	304.930	288.507	427.310	523.230	310.007	221.436	227.072	0.00015775	7.4585e-05	8.6768e-05	559.73	3.2314e-06	1.5273e-06	447.73	159.95	4.2458e-06	1.7985e-06	140.92	49.436	51.302	19.894	9.4841e-07	21.34	0.0026583	0.004313	0.0011346	575.38	3.6432e-05	3.8293e-05	458.48	163.41	3.063e-05	3.3686e-05	145.74	51.15	52.872	20.44	2.6428e-05	22.007	249.294	196.117	277.089	183.985	197.952	484.693	182.928	189.400	265.175	368.490	186.796	191.592	194.143	198.139	173.747	194.062	-8191	255	
994.746	1	1	0	0	0.2373	0.11743	0.081191	0.15356	0.19705	0.1608	0.065415	0.14023	0.30602	0.086895	0.17031	0.19729	0.20245	0.072226	0.13093	0.32107	-2.8604	-3.8521	-3.1271	-3.6125	-3.5458	-3.2396	-3.7542	-3.4062	-3.1604	-3.825	-3.1604	-3.5271	-3.675	-3.0396	-3.6021	-3.2938	230.568	297.201	366.199	176.729	370.036	394.905	257.203	434.836	185.282	424.007	317.257	499.836	255.808	441.998	345.309	353.075	0.00021719	0.00039973	0.0001401	568.48	3.0002e-06	3.15e-06	455.55	165.67	1.0065e-06	2.7108e-06	149.9	53.584	53.872	21.11	3.129e-06	23.179	0.0014162	0.0022145	0.00058841	569.55	1.8752e-05	1.8899e-05	457.13	166.44	1.5644e-05	1.6252e-05	150.66	54.337	54.991	21.381	1.4811e-05	23.67	224.476	232.162	238.988	184.184	299.081	279.343	182.995	189.587	290.388	282.915	187.102	191.483	194.129	198.130	366.481	193.995	-8191	255	
994.866	1	1	0	0	0.19612	0.1113	0.037659	0.075848	0.23737	0.27379	0.22512	0.12914	0.16917	0.1507	0.25583	0.34806	0.21746	0.29614	0.022256	0.18096	-2.8021	-3.8979	-2.9458	-3.3292	-3.6958	-2.9542	-3.675	-3.3083	-2.9292	-3.7646	-3.0542	-3.4688	-3.7208	-3.0042	-3.8021	-3.5729	253.456	369.507	498.671	424.173	427.800	240.306	174.227	217.092	482.178	507.740	203.626	530.826	434.143	441.970	217.774	463.272	0.00016778	0.00031399	4.7894e-05	581.41	1.1889e-06	4.1653e-06	482.29	171.37	3.4873e-06	1.525e-06	164.04	60.257	58.636	23.276	3.2954e-06	26.151	0.00088257	0.0013602	0.00037515	577.33	1.3528e-05	1.4796e-05	480.87	172.81	1.3771e-05	1.4302e-05	164.43	61.238	59.387	23.51	1.3946e-05	26.374	235.283	253.865	239.781	184.031	504.367	295.551	182.488	189.538	289.112	262.287	186.937	191.137	194.142	197.606	266.909	193.346	-8191	255	
994.961	1	1	0	0	0.12982	0.21588	0.027959	0.15166	0.077993	0.21504	0.17059	0.083703	0.14515	0.074986	0.083871	0.13345	0.12586	0.4538	0.082006	0.13341	-2.5521	-3.8583	-3.0333	-3.3542	-3.7646	-3.15	-3.6562	-3.4417	-3.0479	-3.8937	-3.4708	-3.2062	-3.7771	-3.225	-3.6167	-3.6688	287.262	513.064	449.368	527.564	434.836	286.992	395.995	440.515	174.560	203.448	513.824	277.385	232.912	473.793	221.755	512.857	0.00026943	0.00028654	7.2058e-05	589.29	4.3403e-06	6.0872e-06	503.82	176.04	3.2137e-06	3.0741e-06	170.36	64.366	60.338	24.003	2.2581e-06	27.056	0.0009104	0.0013784	0.00039215	586.97	1.4573e-05	1.6208e-05	503.54	176.76	1.4458e-05	1.5991e-05	171.39	64.874	61.311	24.323	1.4662e-05	27.333	238.406	289.714	308.781	183.731	333.280	260.648	182.625	189.382	393.447	189.764	187.164	191.227	194.023	197.764	320.631	194.070	-8191	255	
995.057	1	1	0	0	0.10422	0.11254	0.24899	0.15899	0.09432	0.17403	0.10184	0.16885	0.35242	0.068713	0.1892	0.066444	0.081666	0.068605	0.20308	0.36141	-2.5604	-3.7667	-3.3833	-3.2354	-3.8875	-2.8854	-3.4958	-3.8729	-3	-3.7417	-3.2979	-3.0979	-3.8	-3.2292	-3.3771	-3.5958	225.075	183.767	379.672	179.675	287.537	520.186	491.393	511.437	175.949	306.299	455.068	229.961	384.683	342.793	208.502	515.938	0.00027187	8.8888e-05	5.3466e-05	592.85	1.8557e-06	5.788e-06	514.28	175.52	1.5379e-06	2.605e-06	169.3	62.109	58.851	22.866	1.0314e-06	25.801	0.00091912	0.0013933	0.00039079	589.47	1.3922e-05	1.5048e-05	510.19	175.95	1.3619e-05	1.468e-05	170.26	62.942	59.457	23.169	1.3655e-05	26.209	234.989	223.579	284.308	183.887	335.464	308.137	183.038	189.730	324.196	346.780	187.119	191.333	193.676	197.875	247.207	193.991	-8191	255	
995.153	1	1	0	0	0.22582	0.18373	0.15819	0.13501	0.18137	0.11843	0.11765	0.18605	0.12715	0.13733	0.09543	0.27024	0.037619	0.090155	0.086275	0.24909	-2.5521	-3.625	-3.3354	-3.0583	-3.7979	-3.025	-3.3271	-3.8604	-2.8708	-3.6708	-3.5375	-3.1458	-3.8812	-3.2021	-3.1833	-3.8958	277.821	519.787	234.506	178.616	492.068	251.614	405.002	464.964	416.012	276.744	441.837	485.991	249.368	464.504	254.086	238.198	0.00026997	0.00036161	4.1784e-05	590.08	3.3766e-07	1.8277e-06	512.59	172.98	2.314e-06	1.2284e-06	169.78	62.642	58.33	23.056	1.6891e-06	26.763	0.00085257	0.0013087	0.0003521	586.13	1.3317e-05	1.4127e-05	510.75	173.79	1.335e-05	1.4397e-05	170.58	63.08	59.139	23.268	1.3308e-05	26.809	235.831	326.171	265.664	184.023	358.469	243.644	182.912	189.199	310.896	347.825	187.177	191.161	193.506	197.655	346.078	193.609	-8191	255	
995.249	1	1	0	0	0.27984	0.20922	0.036493	0.19878	0.10571	0.14247	0.058358	0.1195	0.03642	0.25227	0.21926	0.19135	0.15089	0.25728	0.23488	0.12111	-2.6729	-3.5417	-3.525	-2.9188	-3.6958	-3.2479	-3.1562	-3.775	-3.0021	-3.5667	-3.7292	-3.0583	-3.9354	-3.3438	-2.9854	-3.7542	442.216	357.736	474.605	505.951	282.898	203.218	270.831	433.934	453.644	175.397	435.660	206.741	295.791	198.188	315.771	205.279	0.00027152	0.00035109	3.5705e-05	597.32	1.8061e-06	2.6139e-06	521.46	176.41	1.3604e-06	5.8281e-06	173.53	65.226	60.739	24.382	3.1523e-06	28.257	0.00080608	0.0012606	0.00034123	591.81	1.2752e-05	1.3697e-05	518.29	177.31	1.2188e-05	1.3949e-05	174.11	65.626	61.418	24.77	1.3467e-05	28.558	235.327	242.279	277.569	183.678	322.383	340.263	182.581	189.972	254.143	293.344	186.782	191.104	193.576	197.951	267.709	193.690	-8191	255	
995.345	1	1	0	0	0.17002	0.1399	0.10031	0.10052	0.15797	0.10137	0.092693	0.16378	0.24651	0.047662	0.14469	0.099724	0.12872	0.085676	0.23064	0.10962	-2.775	-3.4208	-3.5479	-3.0542	-3.6354	-3.4813	-3.0333	-3.8833	-3.1917	-3.4729	-3.6375	-3.0938	-3.6646	-3.5563	-2.9875	-3.8771	426.541	504.746	478.480	486.568	333.333	255.895	312.158	439.653	223.411	431.937	500.954	453.337	235.955	426.553	430.804	508.868	0.00025524	0.00026321	3.8021e-05	589.63	1.3065e-06	5.0966e-06	524.16	177.56	1.8374e-06	1.7842e-06	173.39	65.119	60.595	24.132	2.6279e-06	27.834	0.0008463	0.0012595	0.00034768	591.02	1.2581e-05	1.3696e-05	522.35	178.03	1.255e-05	1.3756e-05	175.5	65.922	61.341	24.495	1.285e-05	28.079	229.204	269.268	353.620	183.461	350.262	283.198	182.726	189.067	321.960	321.010	186.672	190.812	193.600	197.392	331.239	193.312	-8191	255	
995.466	1	1	0	0	0.15631	0.099663	0.20219	0.11004	0.18956	0.10958	0.15947	0.019782	0.082281	0.1736	0.24431	0.28744	0.2977	0.03515	0.11182	0.14191	-2.6708	-3.275	-3.8	-3.0271	-3.5604	-3.5438	-2.8917	-3.8104	-3.1604	-3.2854	-3.7729	-3.0271	-3.5625	-3.6125	-3.0854	-3.7438	386.292	505.873	389.059	416.126	350.686	296.698	522.229	402.393	187.728	479.157	191.907	222.534	464.494	431.618	339.055	204.693	0.00025832	0.00029204	0.00010965	595.46	5.0585e-06	4.34e-06	527.95	176.43	3.9854e-06	3.1531e-06	173.09	64.511	59.636	23.741	2.5375e-06	27.096	0.00080488	0.0012134	0.00033996	591.93	1.25e-05	1.3597e-05	524.5	176.87	1.201e-05	1.3435e-05	175	65.062	60.435	23.963	1.2845e-05	27.524	235.463	216.210	228.593	183.315	334.576	314.786	182.911	189.466	308.803	364.785	186.851	191.081	193.673	197.614	348.080	193.961	-8191	255	
995.562	1	1	0	0	0.23065	0.146	0.092368	0.23673	0.18289	0.050217	0.23498	0.16917	0.16224	0.11034	0.020962	0.13709	0.15446	0.30706	0.068265	0.052999	-2.7625	-3.3167	-3.9479	-3.2146	-3.3708	-3.7229	-3.1229	-3.7313	-3.4313	-3.1917	-3.8979	-3.0958	-3.4688	-3.8667	-2.9708	-3.7917	507.321	481.820	514.991	516.561	244.509	334.553	171.747	529.927	450.319	286.852	478.762	347.285	494.364	506.871	392.182	270.983	0.0002141	0.00035799	4.385e-05	591.39	6.6735e-06	3.5726e-06	517.08	175	3.1587e-06	2.3058e-06	171.58	64.61	59.908	24.034	5.0441e-07	27.588	0.0007947	0.0012242	0.00034867	588.94	1.2572e-05	1.3508e-05	514.81	176.07	1.2518e-05	1.3639e-05	173.42	65.292	60.583	24.347	1.2575e-05	27.967	237.735	240.631	247.042	183.886	341.038	329.746	182.802	189.276	361.231	351.472	186.980	190.477	193.372	197.577	199.625	193.783	-8191	255	
995.658	1	1	0	0	0.06402	0.13517	0.09295	0.14117	0.19485	0.10309	0.36726	0.18159	0.1144	0.22372	0.19629	0.15413	0.44633	0.14257	0.13758	0.10526	-3.1083	-3.25	-3.7229	-3.0646	-3.3354	-3.75	-2.9896	-3.6854	-3.4646	-3.0542	-3.9083	-3.2208	-3.275	-3.8563	-3	-3.7542	437.269	371.996	196.992	175.950	307.377	280.149	529.328	504.983	242.506	336.151	314.762	411.618	456.908	251.906	330.103	471.479	0.00027224	0.00018065	1.5008e-05	593.7	4.5047e-06	1.9302e-06	523.39	176.62	3.1367e-06	2.3991e-06	173.43	64.574	59.549	24.154	1.8175e-06	27.463	0.00080306	0.0012113	0.00033151	588.43	1.2246e-05	1.3033e-05	520.2	177.09	1.1917e-05	1.3273e-05	174.48	65.082	60.42	24.338	1.2299e-05	27.811	238.024	238.843	206.064	183.772	364.524	296.410	182.771	189.470	332.314	348.809	187.156	190.837	193.794	197.509	323.462	193.950	-8191	255	
995.755	1	1	0	0	0.073623	0.073273	0.087851	0.41383	0.14418	0.079089	0.066417	0.14965	0.244	0.050011	0.025432	0.14485	0.17156	0.2104	0.07058	0.16407	-3.3667	-3.1125	-3.7625	-3.3104	-3.2958	-3.8625	-3.1208	-3.7479	-3.5875	-3.125	-3.8542	-3.3896	-3.2729	-3.9062	-3.0833	-3.6792	216.365	443.021	219.380	473.655	418.160	461.219	356.410	475.016	454.551	293.341	283.943	245.942	233.561	176.236	304.068	491.285	0.00028824	0.00031851	4.7469e-05	595.73	3.6519e-06	7.6586e-07	527.37	176.4	3.9332e-06	1.5118e-06	174.19	64.54	59.874	23.744	5.4717e-06	27.261	0.00080193	0.0011819	0.00032356	592.43	1.2049e-05	1.3021e-05	521.71	176.6	1.1723e-05	1.3108e-05	174.13	64.722	60.22	23.913	1.202e-05	27.518	229.067	249.389	260.994	184.028	278.458	320.802	182.595	189.898	317.877	227.264	186.857	191.483	193.904	197.529	313.318	194.217	-8191	255	
995.826	1	1	0	0	0.18371	0.0463	0.090075	0.31858	0.22826	0.21938	0.24889	0.13131	0.22812	0.21918	0.066347	0.32373	0.10791	0.18956	0.099381	0.18154	-3.0979	-2.9938	-3.5771	-3.2667	-3.1937	-3.9396	-3.1896	-3.4313	-3.7	-3.1583	-3.7812	-3.4688	-3.2167	-3.7938	-3.1188	-3.5479	454.747	204.026	263.487	171.720	433.731	420.796	467.178	520.133	283.715	248.217	249.893	499.893	247.847	389.776	298.227	412.811	0.00025265	0.00010013	9.4953e-05	596.86	4.8822e-06	4.3333e-06	527.09	176.19	2.3401e-06	5.9841e-06	175.23	64.27	59.095	23.315	1.6944e-06	27.001	0.00076545	0.0011594	0.00031782	595.23	1.1575e-05	1.2284e-05	523.67	176.84	1.1627e-05	1.3e-05	174.78	64.362	59.737	23.654	1.18e-05	27.273	237.005	402.372	219.205	184.248	312.995	322.872	182.805	189.691	310.797	278.063	186.673	191.175	194.027	197.837	401.988	194.105	-8191	255	
995.945	1	1	0	0	0.1002	0.13492	0.21365	0.29742	0.29192	0.048006	0.26522	0.1181	0.1838	0.09661	0.085503	0.027278	0.13151	0.058115	0.035683	0.11143	-3.4375	-3.0167	-3.7229	-3.5167	-3.1979	-3.9208	-3.1771	-3.2521	-3.7979	-3.0417	-3.5854	-3.5646	-3.0271	-3.9708	-3.2958	-3.3917	250.783	173.929	318.607	498.501	324.776	371.659	502.035	380.270	248.447	525.613	477.854	404.700	531.242	439.733	502.144	528.393	0.00027851	0.00035916	0.00010213	596.82	1.4536e-06	5.5594e-06	519.61	175.59	3.8051e-06	3.8492e-06	173.05	63.827	58.834	23.373	1.4916e-06	26.734	0.0007604	0.0011552	0.00031199	592.48	1.1917e-05	1.2377e-05	521.01	175.91	1.1525e-05	1.274e-05	173.56	64.31	59.548	23.606	1.2219e-05	27.057	236.421	217.971	271.761	183.207	342.251	322.422	182.809	189.798	305.549	360.832	187.212	190.857	194.046	197.717	251.211	194.094	-8191	255	
996.041	1	1	0	0	0.26891	0.2635	0.27807	0.22865	0.22633	0.11323	0.061698	0.093478	0.21231	0.086665	0.28169	0.23293	0.098902	0.13254	0.23197	0.22034	-3.4542	-2.9917	-3.5375	-3.6854	-3.0854	-3.8979	-3.3563	-3.2104	-3.8958	-3	-3.5271	-3.7229	-2.8583	-3.7104	-3.3312	-3.3104	298.306	212.828	391.361	213.660	456.344	410.897	320.064	425.683	470.247	276.382	356.587	517.657	215.623	246.333	195.122	518.318	0.00026033	0.00024837	9.2851e-05	591.17	1.3021e-06	2.6822e-06	520.79	177.24	1.5879e-07	5.5608e-06	173.77	63.318	58.855	23.472	3.6985e-06	27.227	0.00077109	0.0011682	0.00032118	590.75	1.1875e-05	1.2744e-05	519.86	176.62	1.154e-05	1.2803e-05	174.42	64.113	59.61	23.643	1.1656e-05	27.334	229.173	339.432	232.966	184.281	308.390	392.907	182.712	189.569	184.957	305.959	187.527	191.405	193.641	197.658	334.840	194.657	-8191	255	
996.137	1	1	0	0	0.092867	0.13468	0.18425	0.38683	0.11691	0.055041	0.23072	0.0056614	0.0912	0.26231	0.074335	0.098758	0.21064	0.14809	0.14704	0.038021	-3.5187	-3.2771	-3.3417	-3.6479	-2.9833	-3.7854	-3.5958	-3.2313	-3.8021	-3.2125	-3.2771	-3.8292	-2.9729	-3.6125	-3.4208	-3.0021	473.054	508.430	352.424	189.320	500.680	202.428	310.200	389.663	250.592	386.479	194.460	390.075	249.636	279.964	427.845	330.919	0.00025769	0.00054623	1.3887e-05	597	2.6173e-06	3.3803e-06	526.57	176.37	2.2653e-06	4.926e-06	174.55	63.893	59.551	23.422	4.5491e-06	27.171	0.00076017	0.0011489	0.00031037	592.86	1.2006e-05	1.2566e-05	524.3	176.33	1.1762e-05	1.2845e-05	174.92	64.609	59.941	23.661	1.1926e-05	27.481	237.832	280.291	406.082	183.740	296.200	343.924	182.574	189.604	312.600	333.724	187.281	191.293	193.971	198.045	336.070	194.134	-8191	255	
996.234	1	1	0	0	0.10849	0.071695	0.10864	0.30494	0.020716	0.070971	0.10404	0.1724	0.23889	0.089498	0.082591	0.096982	0.24371	0.057512	0.13583	0.10556	-3.4437	-3.3229	-3.3063	-3.9062	-3.0625	-3.7104	-3.6104	-2.9979	-3.9229	-3.2146	-3.2958	-3.7542	-2.9062	-3.5687	-3.6188	-3.0958	196.161	337.067	469.193	249.489	233.158	225.220	386.630	179.785	420.371	389.016	192.793	480.180	262.413	334.633	172.196	380.782	0.00022899	0.00023274	8.8085e-05	596.73	2.0645e-06	2.1578e-06	528.42	175.79	2.9026e-06	2.0116e-06	174.38	64.579	59.409	23.215	4.7307e-06	26.956	0.00075938	0.0011394	0.00031215	595.43	1.1793e-05	1.2139e-05	526.43	176.45	1.1594e-05	1.2781e-05	175.54	64.812	59.632	23.531	1.2039e-05	27.261	242.073	259.109	275.688	183.930	236.500	437.908	183.024	189.806	287.899	369.555	187.636	191.712	194.452	198.323	281.204	194.235	-8191	255	
996.354	1	1	0	0	0.1727	0.050246	0.15492	0.31843	0.031366	0.11365	0.089112	0.10841	0.080198	0.031285	0.28599	0.10564	0.13403	0.21622	0.15772	0.086143	-3.4604	-3.25	-3.125	-3.9125	-3.0708	-3.4958	-3.725	-2.8833	-3.8771	-3.4104	-3.2208	-3.7458	-3.2104	-3.2313	-3.6312	-2.9854	508.940	201.797	197.025	200.049	412.382	212.800	506.935	460.197	337.464	430.648	477.151	275.002	466.688	411.273	279.764	475.193	0.00025588	0.00041684	7.8929e-05	594.07	1.6834e-06	1.5301e-06	528.34	173.26	4.1428e-06	1.0488e-06	173.63	62.775	58.102	22.816	2.7109e-06	26.274	0.00073894	0.0011075	0.00032274	592.73	1.1834e-05	1.2419e-05	524.79	174.67	1.1145e-05	1.2533e-05	172.92	63.265	58.642	22.986	1.1624e-05	26.574	225.108	265.803	220.396	183.884	354.318	284.967	182.373	189.562	315.965	358.866	187.100	190.832	194.102	197.843	316.818	193.712	-8191	255	
996.426	1	1	0	0	0.092069	0.17923	0.14629	0.23128	0.18597	0.076799	0.05373	0.21151	0.20659	0.24934	0.27985	0.11181	0.054895	0.22957	0.21203	0.12084	-3.4104	-3.5438	-3.1146	-3.9208	-3.3208	-3.3063	-3.7896	-2.9333	-3.625	-3.4667	-3.0208	-3.8667	-3.1417	-3.2062	-3.8625	-2.9708	224.206	386.589	474.475	179.659	448.203	366.863	431.695	316.915	424.864	333.396	183.314	480.325	498.290	506.753	376.205	202.527	0.00028688	0.00036635	0.00017301	591.59	2.8399e-06	1.4299e-06	521.88	173.25	2.6473e-06	3.9433e-06	170.09	62.071	57.178	22.577	5.9965e-06	26.137	0.00074098	0.0011048	0.00030533	590.13	1.1247e-05	1.2431e-05	517.48	173.26	1.1327e-05	1.2213e-05	170.98	62.54	57.962	22.729	1.1388e-05	26.259	230.563	240.345	241.923	184.014	358.177	334.426	182.901	189.587	324.026	273.215	187.421	191.424	193.772	198.570	338.989	194.104	-8191	255	
996.546	1	1	0	0	0.18549	0.26917	0.19126	0.17622	0.13483	0.16493	0.12521	0.13063	0.16053	0.1057	0.16477	0.1028	0.11508	0.23032	0.045552	0.15158	-3.3708	-3.5271	-2.8688	-3.9479	-3.15	-3.3792	-3.8438	-2.9875	-3.5917	-3.8354	-2.9417	-3.9542	-3.3292	-3.2687	-3.8063	-3.1604	452.667	280.048	417.766	474.931	437.455	254.582	474.443	464.327	280.698	263.045	181.359	256.489	435.666	514.424	290.388	484.750	0.00026997	0.00037488	0.00011096	592.03	1.0485e-06	4.1916e-06	517.39	171.93	2.8409e-06	5.3552e-06	168.03	61.897	56.826	22.17	1.348e-06	25.722	0.0007328	0.001117	0.00031716	587	1.1313e-05	1.232e-05	514.9	172.42	1.1545e-05	1.2061e-05	169.33	62.175	57.555	22.435	1.1063e-05	25.986	243.254	248.829	288.788	183.850	231.679	320.655	183.042	189.891	317.070	304.891	187.505	191.241	194.642	198.217	218.912	194.751	-8191	255	
996.643	1	1	0	0	0.14563	0.050603	0.29634	0.18643	0.12397	0.17021	0.19095	0.084748	0.20387	0.18601	0.095398	0.20979	0.1374	0.32992	0.0546	0.21714	-3.0479	-3.8167	-3.0354	-3.8208	-3.3396	-3.175	-3.9562	-3.0917	-3.3021	-3.7042	-2.9938	-3.8667	-3.3833	-2.9833	-3.7979	-3.0125	525.160	503.475	462.416	206.592	503.086	372.215	464.859	365.714	233.003	390.009	453.994	312.037	194.812	242.020	404.870	193.169	0.00026344	0.00020918	2.4825e-05	587.96	1.7813e-06	1.1869e-06	515.72	171.53	3.6572e-06	4.3494e-06	168.89	61.223	56.381	22.142	3.2829e-06	25.546	0.00074	0.0010883	0.00030578	586.25	1.1148e-05	1.2175e-05	513.12	171.73	1.0986e-05	1.1976e-05	168.74	61.667	57.08	22.365	1.1332e-05	25.75	230.385	187.741	291.889	184.612	293.214	395.533	183.148	189.986	314.777	279.638	187.217	191.518	194.086	198.602	285.467	194.899	-8191	255	
996.739	1	1	0	0	0.14716	0.33261	0.13644	0.045312	0.085925	0.22799	0.44147	0.033348	0.17299	0.086827	0.12328	0.10848	0.02076	0.11949	0.12228	0.14261	-2.8979	-3.8396	-3.0771	-3.7229	-3.5417	-3.0396	-3.8083	-3.3167	-3.2083	-3.6562	-3.0396	-3.3854	-3.6	-2.9979	-3.8542	-3.3396	249.184	461.178	249.199	228.277	489.387	415.359	478.326	426.768	341.049	187.025	487.834	356.200	311.564	515.063	314.726	508.419	0.00022737	0.00013026	3.9561e-05	588.43	3.5355e-06	5.0266e-06	510.26	170	3.5001e-06	3.3722e-06	165.38	60.493	55.63	21.725	2.0794e-06	25.081	0.00073878	0.0010902	0.00030903	585.57	1.1627e-05	1.224e-05	509.21	169.98	1.0934e-05	1.1791e-05	165.72	60.672	56.349	21.964	1.128e-05	25.343	232.860	235.316	245.451	184.245	317.336	306.820	183.363	189.945	323.068	367.033	187.802	191.279	193.995	198.431	350.816	194.379	-8191	255	
996.835	1	1	0	0	0.11	0.048353	0.076098	0.088595	0.04701	0.21352	0.1149	0.33553	0.096835	0.050187	0.12985	0.21775	0.16639	0.18125	0.18452	0.085134	-2.7354	-3.7562	-3.0667	-3.6042	-3.925	-3.0542	-3.9771	-3.2396	-3.2354	-3.7604	-2.9875	-3.4333	-3.7083	-3.2062	-3.7896	-3.5146	188.210	298.340	346.514	485.128	219.327	457.305	363.914	466.271	236.329	521.687	286.562	455.408	470.967	472.092	517.872	445.249	0.00025795	0.00038342	6.0076e-05	579.87	3.2318e-06	3.519e-06	503.43	169.22	4.735e-06	2.0929e-06	163.76	59.611	55.457	21.515	3.2053e-06	24.909	0.0007192	0.0010394	0.00030547	579.44	1.107e-05	1.2177e-05	501.26	168.9	1.1251e-05	1.235e-05	164.35	59.917	55.972	21.823	1.1024e-05	25.113	240.860	246.254	262.060	184.635	325.000	290.068	183.852	190.255	349.575	364.311	186.996	191.725	194.147	197.721	274.723	194.040	-8191	255	
996.954	1	1	0	0	0.22425	0.089508	0.22572	0.24355	0.19405	0.14991	0.14119	0.10679	0.12345	0.029716	0.080668	0.16524	0.1735	0.090208	0.30197	0.25037	-2.6479	-3.825	-3.1813	-3.5812	-3.6625	-2.9167	-3.7875	-3.5625	-3.0396	-3.9667	-3.0979	-3.3729	-3.8208	-3.1083	-3.7833	-3.5708	479.114	439.262	497.926	504.315	528.634	343.111	394.455	183.500	212.867	178.903	463.398	350.246	428.653	484.090	350.285	448.665	0.0002619	0.00056526	0.00010343	581.51	2.3505e-06	1.5384e-06	503.42	167.2	6.7232e-07	2.6167e-07	163.59	59.612	56.051	21.974	2.3775e-06	25.133	0.0007086	0.0010339	0.00029546	578.63	1.0864e-05	1.18e-05	499.78	168.55	1.0929e-05	1.1443e-05	164.13	60.212	56.411	22.136	1.1591e-05	25.472	235.853	282.242	264.374	184.048	313.421	367.323	183.180	189.647	335.942	312.407	187.578	191.316	194.205	198.046	342.726	193.982	-8191	255	
997.050	1	1	0	0	0.19731	0.042167	0.26374	0.075878	0.12649	0.13546	0.24247	0.069568	0.04948	0.16092	0.31348	0.16563	0.20505	0.17469	0.029107	0.24636	-2.7604	-3.6875	-3.2208	-3.2292	-3.8479	-2.9708	-3.7667	-3.6167	-3.0583	-3.7562	-3.2979	-3.2146	-3.8	-3.1229	-3.5229	-3.6188	184.424	258.074	172.115	492.666	250.744	441.490	319.672	258.402	396.181	203.491	427.974	485.920	459.601	509.672	327.790	469.667	0.00025967	0.00028232	0.00011756	578.73	2.3994e-06	4.9138e-06	502.47	167.28	1.9816e-06	4.6795e-06	163.99	59.808	55.853	21.871	3.3432e-06	25.3	0.00072795	0.001074	0.00030197	576.59	1.082e-05	1.2139e-05	499.31	168.3	1.0966e-05	1.1796e-05	164.24	60.473	56.396	22.196	1.123e-05	25.591	238.287	302.208	306.793	184.202	312.549	366.012	183.326	189.821	354.070	274.733	187.219	191.350	193.725	197.515	278.481	193.616	-8191	255	
997.122	1	1	0	0	0.049486	0.10718	0.24173	0.15457	0.2031	0.22892	0.050787	0.22362	0.093888	0.12798	0.18725	0.11232	0.24285	0.27294	0.26632	0.10011	-2.5958	-3.6937	-3.3479	-3.1646	-3.7875	-3.0167	-3.5646	-3.7229	-2.7875	-3.8688	-3.3396	-3.0792	-3.8875	-3.2	-3.2896	-3.8292	391.520	262.227	342.945	366.262	280.164	517.314	361.671	180.462	349.386	333.283	179.778	467.234	475.802	416.589	387.577	252.615	0.00027998	0.00021097	5.7374e-05	578.48	2.6687e-06	1.9684e-06	501.82	167.99	2.1457e-06	4.2533e-06	164.2	59.636	55.269	21.744	4.1803e-06	24.954	0.00073144	0.0010614	0.00030112	575.34	1.0873e-05	1.1907e-05	498.31	168.03	1.088e-05	1.2135e-05	163.39	60.009	55.96	21.993	1.1207e-05	25.297	234.942	250.461	223.807	183.737	310.294	361.642	182.740	188.896	337.629	349.254	186.680	191.117	193.493	197.803	286.849	194.012	-8191	255	
997.242	1	1	0	0	0.062591	0.0072799	0.24202	0.11138	0.1179	0.11097	0.16497	0.28198	0.12231	0.05995	0.18529	0.34444	0.15518	0.26309	0.22462	0.12509	-2.5687	-3.5875	-3.4	-3.0229	-3.825	-3.0625	-3.3229	-3.8542	-2.8021	-3.7104	-3.6562	-3.0833	-3.7708	-3.1854	-3.3229	-3.8875	459.155	171.618	527.355	218.012	461.004	174.848	252.277	412.633	365.763	401.385	526.725	191.846	432.088	506.903	486.113	424.817	0.00022352	0.00040965	6.3485e-05	572.94	3.8235e-06	3.0143e-06	493.27	165.23	2.5946e-06	2.7357e-06	160.57	58.204	54.649	21.37	1.098e-06	24.487	0.00071059	0.0010594	0.00029401	569.84	1.0706e-05	1.1979e-05	491.42	165.66	1.1097e-05	1.1563e-05	160.93	58.639	55.192	21.653	1.1107e-05	24.668	232.292	273.553	299.849	184.200	331.263	355.081	183.040	189.523	309.987	305.548	187.050	191.259	193.907	198.084	332.947	194.588	-8191	255	
997.338	1	1	0	0	0.23305	0.03877	0.11507	0.1216	0.15756	0.10484	0.19882	0.077931	0.099053	0.13479	0.12844	0.060137	0.013221	0.23592	0.040802	0.23716	-2.8458	-3.5042	-3.4813	-3.0646	-3.5917	-3.3417	-3.2792	-3.8375	-2.9062	-3.4729	-3.5542	-2.9562	-3.7854	-3.3646	-3.0521	-3.7438	435.300	498.531	380.516	519.247	458.506	332.977	516.198	423.137	368.269	463.242	250.943	261.934	301.630	497.419	206.246	493.292	0.00024113	0.00053034	0.00012469	569.42	3.0662e-06	3.8154e-06	486.12	163.97	1.1853e-06	2.3161e-06	158.36	57.293	54.578	21.579	1.2832e-06	24.459	0.00070524	0.0010493	0.00029329	566.99	1.0649e-05	1.1634e-05	485.59	164.94	1.092e-05	1.154e-05	159.25	58.121	54.992	21.709	1.1481e-05	24.714	231.731	247.487	285.177	183.988	306.705	325.962	182.986	189.282	323.024	359.733	187.459	191.531	194.037	197.973	373.896	194.150	-8191	255	
997.435	1	1	0	0	0.066279	0.28525	0.2083	0.12255	0.099655	0.26747	0.19312	0.13504	0.14033	0.074244	0.15272	0.10661	0.22328	0.22056	0.17121	0.098162	-2.7062	-3.2729	-3.7646	-3.0104	-3.7208	-3.3563	-3.0646	-3.7438	-3.0833	-3.3187	-3.575	-3.1375	-3.6479	-3.4479	-3.0167	-3.775	497.187	191.668	416.955	434.385	347.149	444.527	460.674	424.187	275.339	196.678	448.295	276.026	298.076	448.362	287.274	457.293	0.00022437	0.00029681	0.00013355	568.79	3.4479e-06	4.2774e-06	486.51	165.46	2.534e-06	4.6877e-06	158.86	58.484	54.39	21.498	3.0437e-06	24.768	0.00071562	0.0010799	0.00029647	565.29	1.0918e-05	1.1412e-05	484.84	165.15	1.0982e-05	1.162e-05	159.26	58.436	54.953	21.692	1.1222e-05	24.867	227.611	283.601	230.512	184.182	298.341	396.650	182.781	189.737	341.291	319.082	186.835	191.483	193.546	197.479	300.911	193.896	-8191	255	
997.531	1	1	0	0	0.12138	0.077678	0.11665	0.16353	0.097015	0.21293	0.21503	0.058769	0.037239	0.092076	0.2206	0.12314	0.19632	0.23054	0.13752	0.24521	-2.8917	-3.2542	-3.7833	-3.0146	-3.6875	-3.3958	-3.0687	-3.7854	-3.2438	-3.3875	-3.7667	-3.0542	-3.6833	-3.4208	-2.9604	-3.7313	219.593	492.273	201.293	381.536	267.451	502.877	479.931	195.154	251.130	515.607	483.025	403.836	437.291	173.429	453.121	262.302	0.00021873	0.00037339	9.2214e-05	568.23	5.0858e-06	3.4845e-06	483.91	163.59	3.1401e-06	5.3963e-06	156.63	57.735	54.123	21.223	3.3942e-06	24.378	0.00071442	0.0010743	0.00028994	564.44	1.0863e-05	1.1867e-05	482.92	164.1	1.0504e-05	1.163e-05	158.38	58.126	54.744	21.507	1.1098e-05	24.737	234.207	217.675	252.985	184.176	300.536	289.875	182.956	189.757	337.952	330.115	187.858	191.573	194.439	197.941	247.031	193.726	-8191	255	
997.651	1	1	0	0	0.13166	0.17728	0.097188	0.27181	0.27112	0.12041	0.18009	0.31318	0.016386	0.31936	0.1908	0.28305	0.10579	0.080718	0.27897	0.090024	-2.8958	-3.0896	-3.8	-3.0667	-3.5042	-3.7188	-2.8417	-3.8438	-3.4458	-3.0667	-3.9313	-3.2646	-3.5917	-3.7375	-2.9521	-3.7292	280.474	438.230	416.656	427.474	192.720	495.424	255.785	175.408	276.159	286.490	314.801	516.255	207.891	478.699	336.782	485.176	0.00028541	0.00014447	2.1303e-05	567.13	4.8304e-06	3.5426e-06	481.7	164.83	3.8095e-06	2.3913e-06	156.42	57.329	53.51	21.223	2.5135e-06	23.954	0.00068936	0.0010294	0.00029013	564.27	1.0817e-05	1.1695e-05	479.61	164.08	1.0282e-05	1.1339e-05	156.67	57.435	54.327	21.395	1.1142e-05	24.331	241.026	294.541	210.486	184.375	297.832	331.253	183.464	190.024	345.716	247.931	187.680	191.851	194.628	198.057	341.257	194.561	-8191	255	
997.723	1	1	0	0	0.16026	0.10435	0.095584	0.18967	0.21353	0.095679	0.053378	0.27001	0.13069	0.11549	0.053959	0.094701	0.12819	0.13035	0.096514	0.22657	-2.9417	-3.1354	-3.6333	-3.2687	-3.4479	-3.8312	-2.9646	-3.675	-3.5771	-3.0312	-3.9646	-3.1708	-3.4042	-3.9083	-2.9938	-3.7146	211.131	366.781	339.429	462.143	369.543	497.484	523.941	484.283	213.595	245.801	418.274	500.007	275.312	423.936	505.168	516.302	0.00024489	0.00014608	8.7235e-05	562.79	1.9596e-06	1.6702e-06	476.75	164.08	2.0279e-06	2.4347e-06	155.63	56.713	53.401	21.132	1.6541e-06	24.021	0.00069713	0.0010638	0.00028227	559.5	1.0888e-05	1.1337e-05	474.31	163.45	1.0281e-05	1.1534e-05	155.89	57.119	54.28	21.415	1.092e-05	24.308	237.542	261.098	259.463	184.436	353.845	340.640	183.287	190.266	280.639	287.613	187.153	191.911	194.342	198.294	344.918	195.077	-8191	255	
997.819	1	1	0	0	0.20066	0.21466	0.12265	0.069701	0.066145	0.23168	0.085865	0.10288	0.19744	0.19633	0.18818	0.035298	0.11419	0.24073	0.22472	0.19912	-3.1437	-2.8708	-3.7458	-3.3229	-3.0583	-3.9646	-2.8833	-3.625	-3.5187	-2.9979	-3.7812	-3.3021	-3.0667	-3.8021	-3.1396	-3.6271	523.995	307.058	288.361	464.951	504.624	296.546	519.211	510.665	245.528	225.592	180.511	458.301	227.058	322.382	508.917	520.444	0.00019927	0.00017871	7.3886e-05	562.53	3.3118e-06	1.2646e-06	476.73	162.88	1.9512e-06	2.5213e-06	154.84	56.901	53.72	21.216	3.9495e-06	24.235	0.00068474	0.0010361	0.00028628	559.72	1.0556e-05	1.0906e-05	474.24	163.29	1.0259e-05	1.1701e-05	156.12	57.196	54.245	21.429	1.106e-05	24.45	238.008	269.093	273.980	184.361	352.635	394.418	183.340	189.856	320.806	302.000	187.051	190.942	194.046	198.029	266.281	194.221	-8191	255	
997.915	1	1	0	0	0.020355	0.092976	0.097548	0.4147	0.2654	0.047482	0.15222	0.10826	0.018693	0.03644	0.090294	0.15237	0.035378	0.045252	0.0768	0.16181	-3.3417	-3.0104	-3.7896	-3.5667	-3.125	-3.9813	-3.1229	-3.3958	-3.5292	-2.8875	-3.7021	-3.425	-3.1292	-3.8667	-3.0708	-3.3708	358.330	404.157	179.151	448.323	405.638	243.694	520.701	296.345	405.092	208.928	203.448	187.621	412.416	458.327	350.497	431.655	0.00023534	0.00023772	5.0445e-05	560.33	3.1178e-06	4.9552e-06	478.51	162.66	3.5022e-06	2.4494e-06	155.83	57.008	53.738	21.339	3.8569e-06	24.157	0.00069545	0.0010283	0.00028083	558.38	1.0537e-05	1.143e-05	475.5	163.06	1.039e-05	1.1586e-05	156.57	57.53	54.262	21.534	1.0697e-05	24.554	237.731	240.886	350.233	183.908	361.040	313.861	182.875	189.490	369.356	363.600	187.155	190.871	193.931	198.091	284.895	194.139	-8191	255	
998.034	1	1	0	0	0.15274	0.17933	0.2497	0.23267	0.22145	0.19138	0.26252	0.033738	0.23111	0.24565	0.16743	0.12512	0.14831	0.19957	0.14807	0.25446	-3.3854	-2.9125	-3.6437	-3.5	-3.1667	-3.9521	-3.2729	-3.2604	-3.7854	-3.0771	-3.6833	-3.6083	-3.0229	-3.9104	-3.1917	-3.2625	457.578	190.759	473.352	511.835	485.151	456.699	351.747	179.897	429.253	436.240	231.190	189.978	483.108	480.562	243.321	510.544	0.00022563	0.00022379	0.00010129	561.91	1.7468e-06	3.1176e-06	471.63	162.9	3.4694e-06	1.9536e-06	154.66	56.693	53.846	21.149	2.583e-06	24.042	0.0006938	0.001053	0.0002875	558.94	1.073e-05	1.0966e-05	474.16	162.61	1.0285e-05	1.1607e-05	155.34	57.17	54.29	21.341	1.0858e-05	24.264	237.234	323.667	241.075	183.623	339.759	300.809	183.081	189.612	280.084	283.414	187.678	191.407	194.292	197.938	366.943	194.249	-8191	255	
998.130	1	1	0	0	0.16127	0.079539	0.085332	0.30002	0.29751	0.15062	0.2256	0.1263	0.18417	0.20721	0.30328	0.18064	0.32635	0.0605	0.26606	0.22424	-3.3833	-3.0646	-3.6104	-3.5375	-2.8875	-3.8479	-3.2062	-3.125	-3.7458	-2.9271	-3.5792	-3.4583	-2.85	-3.7104	-3.2521	-3.1604	467.207	325.374	433.742	511.794	184.888	357.222	285.513	178.784	482.193	385.296	510.643	172.980	497.626	309.059	175.093	480.889	0.00022263	0.00017764	2.8754e-05	559.15	3.4514e-06	5.5704e-06	472.36	162.26	1.7385e-06	1.0339e-06	152.8	56.493	53.165	20.974	1.7229e-06	23.858	0.00067787	0.0010415	0.00029457	555.41	1.0777e-05	1.1215e-05	469.76	162.03	1.0401e-05	1.1852e-05	154.08	56.518	53.828	21.225	1.1132e-05	24.135	231.569	430.707	249.898	183.828	282.791	297.337	182.433	189.693	311.181	185.290	186.780	190.522	193.536	197.476	293.508	194.192	-8191	255	
998.226	1	1	0	0	0.077838	0.037255	0.036314	0.19401	0.1012	0.075822	0.048373	0.2347	0.17395	0.23457	0.077146	0.16354	0.076718	0.037939	0.13651	0.2045	-3.4521	-3.1125	-3.35	-3.7021	-2.9188	-3.6833	-3.3958	-3.0958	-3.7896	-3.2125	-3.2854	-3.7458	-2.925	-3.3833	-3.6667	-3.0938	288.674	491.344	184.472	482.923	506.253	177.941	431.022	212.830	292.763	230.049	325.409	430.836	175.427	410.892	455.787	489.212	0.00024964	0.00027194	4.2087e-05	555.64	4.2751e-06	1.0072e-06	472.58	162.45	2.3222e-06	1.0723e-06	154.01	56.197	53.485	20.996	1.1028e-06	23.838	0.00068542	0.0010149	0.00029821	555	1.053e-05	1.1384e-05	469.53	161.96	1.0364e-05	1.1451e-05	154.38	56.598	53.79	21.264	1.0747e-05	24.19	237.610	311.669	259.171	183.839	310.236	302.794	183.017	189.722	329.879	303.975	187.165	190.845	194.053	197.516	285.034	193.764	-8191	255	
998.323	1	1	0	0	0.056176	0.17301	0.01889	0.077707	0.1143	0.17896	0.12637	0.34496	0.13454	0.1999	0.14349	0.11732	0.15246	0.11467	0.1879	0.064518	-3.4375	-3.0875	-3.3146	-3.7667	-2.9167	-3.675	-3.7188	-2.9813	-3.6917	-3.1875	-3.1542	-3.9188	-3.0958	-3.6021	-3.5917	-3.0062	484.634	324.485	398.448	244.944	438.331	446.844	503.167	509.813	307.698	288.094	365.298	418.871	398.343	276.406	295.960	224.844	0.00023968	0.00038695	5.4261e-05	556.69	1.4305e-06	2.8515e-06	469.34	159.52	2.556e-06	2.1866e-06	152.05	56.408	53.35	21.091	1.7895e-06	23.942	0.00067975	0.0010316	0.00027217	554.23	1.0469e-05	1.1565e-05	467.9	160.93	1.0267e-05	1.1306e-05	153.48	56.79	53.986	21.297	1.1004e-05	24.266	240.871	201.965	308.374	184.352	338.340	349.911	182.982	189.841	287.712	409.659	187.471	191.071	194.180	197.772	321.343	194.533	-8191	255	
998.419	1	1	0	0	0.12139	0.12696	0.097164	0.48379	0.32753	0.30512	0.053393	0.16884	0.23625	0.11293	0.086056	0.20856	0.22944	0.043995	0.173	0.28782	-3.4458	-3.3333	-3.2	-3.6896	-3.0625	-3.5187	-3.6583	-3.0812	-3.5646	-3.2917	-3.0792	-3.7083	-3.2	-3.475	-3.7833	-3.1333	211.378	333.300	309.924	530.915	469.644	400.192	383.409	180.972	444.113	515.818	251.335	420.962	386.199	502.964	367.327	467.617	0.00022868	0.00040461	6.3399e-05	553.22	1.3816e-06	4.6579e-07	471.16	161.28	1.4679e-06	6.3807e-06	153.26	56.117	53.432	20.99	2.3383e-06	23.903	0.00067773	0.0010557	0.00029021	553.56	1.0889e-05	1.1721e-05	468.54	161.23	1.0237e-05	1.149e-05	154.93	56.534	53.83	21.186	1.084e-05	24.134	236.292	234.521	244.730	184.086	360.747	335.592	182.634	189.670	300.548	301.921	186.845	190.788	193.715	197.990	359.162	194.049	-8191	255	
998.515	1	1	0	0	0.18695	0.19763	0.13628	0.14762	0.12662	0.20281	0.23433	0.42289	0.032578	0.14492	0.012006	0.22412	0.17352	0.12895	0.099454	0.15442	-3.3458	-3.5833	-3.1937	-3.9104	-3.0354	-3.4	-3.8937	-3.1729	-3.7104	-3.6167	-3.0375	-3.875	-3.2167	-3.15	-3.6167	-3.0667	252.213	223.719	279.398	494.271	445.364	214.330	454.582	470.807	517.243	402.929	493.107	202.325	173.106	209.876	300.763	420.875	0.00024716	0.0004933	2.5492e-05	553.01	3.8506e-06	1.7107e-06	465.74	160.42	7.9432e-07	1.5278e-06	150.57	55.374	53.22	20.733	1.8395e-06	23.449	0.00067658	0.0010475	0.00028554	552.5	1.0814e-05	1.1518e-05	464.61	160.42	1.0321e-05	1.1491e-05	151.8	55.811	53.49	20.974	1.0673e-05	23.74	231.906	254.378	263.129	183.871	366.316	292.026	183.087	189.864	282.789	291.691	187.147	191.150	193.573	197.658	274.506	193.995	-8191	255	
998.636	1	1	0	0	0.17048	0.10421	0.023132	0.1853	0.16135	0.20053	0.27591	0.10105	0.10678	0.19767	0.17677	0.090671	0.11468	0.18936	0.055875	0.075383	-3.2583	-3.5062	-3.0875	-3.8125	-3.2938	-3.0229	-3.8646	-3.1167	-3.5354	-3.7062	-3.0458	-3.6729	-3.2229	-3.275	-3.7396	-3.0292	299.055	418.125	223.518	441.606	305.970	524.680	497.221	231.516	320.489	278.673	513.288	344.688	486.875	372.204	206.134	470.855	0.00023437	0.00032889	8.4525e-05	549.38	1.3325e-06	3.7488e-06	462.85	159.02	3.2343e-06	4.0647e-06	149.91	55.052	52.63	20.761	1.1994e-06	23.362	0.00068866	0.0010327	0.00028739	549.38	1.0688e-05	1.1803e-05	461.4	159.42	1.0557e-05	1.1452e-05	150.67	55.49	53.13	20.97	1.0781e-05	23.652	240.295	238.638	259.271	184.263	297.273	373.795	182.922	189.510	300.962	257.083	187.032	191.374	194.116	198.076	302.889	193.817	-8191	255	
998.732	1	1	0	0	0.061231	0.15668	0.1707	0.16447	0.07926	0.24902	0.13431	0.055958	0.025188	0.20411	0.17049	0.27201	0.12146	0.097129	0.024539	0.0067569	-3.2354	-3.5375	-2.9083	-3.7333	-3.4521	-3.2479	-3.9229	-3.0229	-3.2208	-3.7521	-2.95	-3.6917	-3.5312	-2.9688	-3.7333	-3.0542	283.465	220.045	491.862	486.539	441.886	174.044	406.597	370.828	480.891	357.556	313.686	488.731	513.266	412.321	334.107	313.866	0.00019934	0.00030871	5.5747e-05	548.01	3.2716e-06	2.095e-06	460.1	158.17	1.8366e-06	9.1868e-07	151.08	55.212	52.453	20.85	3.0191e-06	23.438	0.00068875	0.0010664	0.00028474	545.75	1.0696e-05	1.1544e-05	458.48	158.67	1.0604e-05	1.1305e-05	150.85	55.537	53.115	21.016	1.0931e-05	23.657	231.125	240.918	253.093	183.533	357.818	279.901	182.795	189.201	306.960	262.873	186.600	190.856	193.777	197.572	331.466	193.941	-8191	255	
998.828	1	1	0	0	0.084435	0.23798	0.069529	0.15012	0.15074	0.1463	0.24607	0.31209	0.064417	0.12537	0.28933	0.22665	0.1481	0.073903	0.08291	0.24443	-2.9562	-3.7812	-2.975	-3.6688	-3.5667	-3.1771	-3.7333	-3.1979	-3.1854	-3.7812	-2.9375	-3.4167	-3.6708	-3.0208	-3.7562	-3.1646	262.157	351.711	441.780	344.088	308.886	323.080	527.620	461.814	393.926	485.069	440.583	359.395	340.573	205.660	216.641	366.336	0.00023872	0.00022315	7.9085e-05	545.94	1.7705e-06	3.1019e-06	457.69	158.52	2.2958e-06	2.4342e-06	150.61	55.511	52.746	20.996	2.3003e-06	23.532	0.0007069	0.0010267	0.00029767	544.42	1.0892e-05	1.1444e-05	456.93	158.58	1.0544e-05	1.1384e-05	151.09	55.789	53.169	21.187	1.1063e-05	23.852	237.120	230.901	292.943	184.187	399.909	210.239	182.648	189.530	278.754	232.045	186.949	191.207	194.098	197.452	369.097	193.524	-8191	255	
998.947	1	1	0	0	0.18768	0.096136	0.066165	0.10627	0.13573	0.032988	0.21045	0.16503	0.08857	0.19996	0.094789	0.32737	0.10822	0.082782	0.066349	0.19703	-2.7146	-3.6521	-2.7708	-3.3354	-3.4813	-2.9188	-3.7271	-3.3937	-3.0729	-3.7146	-2.9125	-3.2646	-3.7021	-2.95	-3.6542	-3.3563	299.136	373.699	204.082	336.322	487.209	521.284	377.401	407.495	524.739	370.025	280.578	464.509	293.668	516.082	299.522	359.470	0.00024885	0.0003304	9.1132e-05	544.93	2.6291e-06	4.2742e-06	453.99	157.67	1.6965e-06	2.5622e-06	148.14	54.385	51.991	20.686	1.8616e-06	23.294	0.00070638	0.00104	0.00030048	542.22	1.0886e-05	1.1631e-05	452.74	157.92	1.0754e-05	1.1565e-05	149.31	54.905	52.784	20.898	1.1103e-05	23.494	234.279	296.949	294.984	183.885	305.612	354.604	182.625	188.977	341.046	304.319	186.237	190.859	193.152	197.483	297.904	193.413	-8191	255	
999.018	1	1	0	0	0.098568	0.11681	0.15894	0.013368	0.1292	0.12134	0.044294	0.094791	0.12726	0.166	0.15804	0.28175	0.083764	0.015477	0.072637	0.37535	-2.7542	-3.6458	-3.0333	-3.2833	-3.9771	-3.0729	-3.8063	-3.3625	-3.1667	-3.7375	-3.0938	-3.3458	-3.6437	-3.0125	-3.4521	-3.4813	485.735	181.781	368.094	498.294	335.979	509.889	490.560	290.048	395.543	188.153	445.203	172.609	349.484	304.589	328.086	195.167	0.00021576	0.00026519	8.5109e-05	539.38	3.1511e-06	4.9688e-06	452.63	156.81	2.048e-06	2.7706e-06	148.4	53.981	52.145	20.718	3.2871e-06	23.128	0.00070728	0.0010378	0.00029247	537.97	1.0425e-05	1.1598e-05	449.73	157.05	1.0574e-05	1.1295e-05	148.46	54.457	52.685	20.907	1.0743e-05	23.497	234.681	231.389	254.445	183.953	316.008	302.668	183.331	189.479	322.158	425.301	186.932	191.021	193.816	197.690	320.939	193.710	-8191	255	
999.115	1	1	0	0	0.082085	0.0699	0.087172	0.17047	0.082683	0.21039	0.084095	0.1713	0.13441	0.18563	0.26663	0.34721	0.1573	0.13758	0.29188	0.23444	-2.4229	-3.6271	-2.9396	-3.2062	-3.6229	-3.0187	-3.6729	-3.5167	-2.9688	-3.6458	-3.3021	-3.1271	-3.6333	-3.1396	-3.3021	-3.6813	357.608	270.358	251.021	417.975	274.301	424.933	474.154	500.187	399.302	405.811	235.844	195.473	321.780	186.320	215.238	252.051	0.00023233	0.00013865	0.0001003	540.24	2.453e-06	5.053e-06	453.61	156.63	2.6306e-06	3.9863e-06	147.69	54.765	52.719	20.74	2.303e-06	23.503	0.00070493	0.001059	0.0002892	538.55	1.0479e-05	1.164e-05	451.06	157.43	1.0565e-05	1.1376e-05	148.99	55.068	53.05	20.931	1.0887e-05	23.742	238.735	315.647	259.155	183.996	333.019	306.650	183.092	189.599	215.052	276.911	187.649	191.043	194.190	197.646	310.198	194.118	-8191	255	
999.211	1	1	0	0	0.12379	0.035987	0.23744	0.10399	0.19741	0.11796	0.13048	0.088375	0.20268	0.078823	0.23577	0.14932	0.21878	0.23627	0.18102	0.1938	-2.5708	-3.4542	-3.25	-3.2771	-3.7458	-3.1354	-3.3708	-3.8063	-2.8542	-3.6521	-3.3688	-3.2167	-3.7687	-3.0708	-3.2354	-3.8229	338.882	444.990	217.275	223.044	340.021	330.209	446.819	332.498	491.928	388.688	262.858	343.642	513.459	295.069	274.595	418.390	0.00025928	0.00033218	2.4335e-05	543.28	9.3857e-07	3.9345e-06	456.29	159.07	2.7976e-06	2.6554e-06	148.58	55.123	52.516	20.74	1.6563e-06	23.375	0.0006957	0.0010258	0.00028297	540.78	1.0698e-05	1.1475e-05	453.82	158.15	1.0603e-05	1.1259e-05	149.63	55.396	53.034	20.992	1.099e-05	23.753	235.041	250.054	245.846	183.837	330.586	322.205	182.549	189.108	321.140	345.277	186.954	191.752	193.969	197.711	478.020	193.935	-8191	255	
999.331	1	1	0	0	0.059986	0.21126	0.16807	0.12766	0.083559	0.11586	0.10172	0.27465	0.21638	0.11419	0.27844	0.24035	0.30789	0.091485	0.13241	0.15799	-2.5729	-3.4333	-3.3646	-3.2229	-3.6437	-3.1396	-3.2479	-3.7021	-3.0354	-3.5875	-3.5708	-3.0792	-3.8958	-3.1562	-3.0146	-3.6896	279.333	203.974	486.952	191.265	360.286	282.816	371.962	499.246	432.632	279.894	467.685	252.324	254.372	493.877	241.257	181.487	0.00022359	0.000417	2.1578e-05	543.85	1.1398e-06	4.2167e-06	458.71	157.75	1.2059e-06	2.2279e-06	148.7	54.852	52.51	20.781	1.6894e-06	23.4	0.00068215	0.0010162	0.00028565	541.94	1.0619e-05	1.1456e-05	455.75	158.15	1.0601e-05	1.1511e-05	149.71	55.209	53.008	21.018	1.0832e-05	23.687	232.704	251.044	357.957	183.897	278.019	273.733	182.876	189.742	315.792	323.525	186.963	190.940	193.885	197.616	330.507	193.877	-8191	255	
999.427	1	1	0	0	0.14455	0.25441	0.24707	0.14797	0.15816	0.23176	0.14726	0.01668	0.20849	0.22873	0.33187	0.11947	0.36726	0.12897	0.10568	0.099909	-2.6312	-3.5438	-3.5563	-3.0479	-3.8771	-3.2938	-3.1625	-3.8875	-2.9333	-3.4583	-3.4979	-2.9188	-3.7604	-3.3604	-3.2375	-3.8271	458.436	352.668	514.971	284.376	452.406	427.743	463.358	428.639	260.973	357.479	458.055	174.920	527.896	478.021	460.798	181.405	0.00020516	0.00022978	7.7764e-05	542.17	1.0148e-06	4.7069e-06	454.56	157.58	4.0989e-06	5.5971e-06	146.87	53.937	51.695	20.697	2.858e-06	23.138	0.00068886	0.0010238	0.0002848	540.02	1.0407e-05	1.1753e-05	450.28	157.45	1.0478e-05	1.1564e-05	147.8	54.521	52.474	20.88	1.0822e-05	23.443	231.034	279.681	327.632	183.864	238.106	281.289	182.376	189.501	292.821	308.075	186.758	190.967	194.304	198.236	294.710	194.059	-8191	255	
999.524	1	1	0	0	0.2164	0.11277	0.32996	0.024492	0.14418	0.16025	0.046138	0.13043	0.11629	0.16865	0.037956	0.23312	0.14375	0.13985	0.21603	0.14669	-2.7042	-3.3729	-3.5208	-2.9917	-3.6521	-3.5479	-3.0479	-3.7104	-3.1562	-3.3021	-3.6875	-2.8667	-3.625	-3.6146	-3.0167	-3.8917	318.894	428.155	234.359	206.798	403.271	382.653	501.492	309.457	383.418	436.384	276.344	438.696	234.535	493.409	492.634	247.650	0.0002373	0.00033938	9.0008e-05	535.98	2.8593e-06	7.3756e-07	451.03	156.77	3.3968e-06	2.5902e-06	147.99	53.778	51.804	20.858	2.2485e-06	23.351	0.00069466	0.0010423	0.00028202	534.75	1.0538e-05	1.1323e-05	447.58	157.04	1.0601e-05	1.1673e-05	147.88	54.253	52.425	20.963	1.109e-05	23.647	235.639	269.062	271.479	183.944	307.122	379.968	182.925	189.550	291.758	333.020	186.731	190.971	193.889	197.968	306.833	194.257	-8191	255	
999.595	1	1	0	0	0.044472	0.058833	0.10358	0.10915	0.29857	0.32551	0.10478	0.1443	0.11921	0.22872	0.067966	0.29136	0.22093	0.08894	0.16839	0.14978	-2.7875	-3.2208	-3.9188	-2.9917	-3.5729	-3.5542	-3.0958	-3.7729	-3.1021	-3.3208	-3.9	-2.9479	-3.5104	-3.6562	-2.9833	-3.8042	290.094	192.694	232.894	185.349	254.882	436.361	234.896	377.630	522.102	271.313	287.138	408.155	190.536	391.973	271.035	204.737	0.0002022	0.00034934	5.3845e-05	536.13	3.2613e-06	2.8372e-06	448.15	156.72	1.5318e-06	9.6244e-08	148.11	54.555	52.59	20.921	2.4274e-06	23.849	0.00068589	0.001062	0.00029302	535.46	1.0691e-05	1.141e-05	448.21	156.99	1.0367e-05	1.1292e-05	148.56	55.145	53.051	21.206	1.1005e-05	24.061	228.810	324.074	327.355	184.260	341.899	294.011	182.894	189.798	290.378	395.101	187.195	190.906	194.281	198.084	326.696	194.245	-8191	255	
999.716	1	1	0	0	0.23766	0.18126	0.12228	0.21872	0.17041	0.045023	0.1834	0.15079	0.13187	0.25103	0.094943	0.20731	0.073017	0.15046	0.09259	0.22782	-2.6521	-2.9333	-3.7667	-2.9792	-3.2167	-3.6125	-3.0563	-3.7625	-3.4458	-3.0771	-3.7854	-2.9979	-3.3375	-3.7229	-2.9625	-3.6729	410.122	503.759	191.477	180.715	469.642	295.595	468.961	383.204	425.724	271.580	209.026	480.672	214.128	177.334	478.373	497.577	0.00023136	0.00022863	2.6253e-05	538.84	3.3406e-06	4.807e-06	448.31	157.18	3.5845e-06	2.5383e-06	147.74	54.54	52.754	20.929	8.9924e-07	23.646	0.00070511	0.0010466	0.00029504	536.88	1.0753e-05	1.1451e-05	449.68	157.35	1.0231e-05	1.1587e-05	148.63	55.087	52.918	21.14	1.0878e-05	23.838	232.237	294.479	291.612	184.315	403.934	260.857	183.127	189.649	343.102	270.486	187.167	191.242	194.154	197.954	257.142	194.500	-8191	255	
999.812	1	1	0	0	0.36109	0.25781	0.16662	0.19607	0.17638	0.12016	0.21253	0.067228	0.080575	0.27135	0.12317	0.036649	0.063992	0.25655	0.23342	0.10402	-3.0104	-3.025	-3.8187	-3.2313	-3.1562	-3.6229	-3.0583	-3.6188	-3.45	-2.9625	-3.6979	-3.25	-3.175	-3.65	-2.9521	-3.5312	273.055	224.158	317.331	440.783	192.697	257.343	438.038	187.007	499.567	445.569	472.949	508.028	188.306	483.197	422.094	187.164	0.00023825	0.00040217	7.3593e-05	539.02	1.5722e-06	2.8604e-06	448.38	156.5	3.2165e-06	5.7353e-06	146.56	53.965	51.875	20.775	2.7558e-06	23.319	0.00067903	0.0010393	0.00027744	536.83	1.0562e-05	1.1324e-05	446.01	156.83	1.0675e-05	1.159e-05	147.4	54.39	52.367	20.935	1.104e-05	23.597	240.400	263.132	211.783	183.779	284.224	285.862	183.033	189.747	275.297	344.473	187.582	191.299	194.030	198.141	322.814	193.928	-8191	255	
999.908	1	1	0	0	0.10636	0.36511	0.1644	0.17429	0.19911	0.21814	0.20153	0.10743	0.11905	0.069741	0.0086175	0.10544	0.10178	0.016783	0.11971	0.042789	-2.9625	-2.9771	-3.5812	-3.2042	-3.0479	-3.6437	-3.0292	-3.5438	-3.575	-2.8438	-3.7042	-3.3438	-3.2625	-3.8563	-2.9562	-3.4958	518.518	492.699	478.174	483.674	328.804	245.274	434.987	300.686	182.094	466.463	514.217	407.881	513.119	315.187	349.796	517.313	0.00021488	0.00026901	6.6209e-05	537.66	5.004e-06	8.0264e-07	447.03	156.3	1.6813e-06	3.0502e-06	146.77	53.517	51.857	20.726	5.0516e-06	23.254	0.00069312	0.0010249	0.00026956	533.65	1.0832e-05	1.0756e-05	444.68	156.2	1.0578e-05	1.1673e-05	146.66	54.034	52.323	20.94	1.0995e-05	23.522	237.189	282.298	526.706	184.563	355.598	512.823	182.830	189.499	254.725	362.065	187.486	191.032	193.888	197.620	285.161	193.900	-8191	255	
1000.027	1	1	0	0	0.065709	0.21194	0.016727	0.049165	0.10679	0.097987	0.18822	0.1237	0.064109	0.21581	0.23867	0.21071	0.16511	0.36034	0.12067	0.092311	-3.2	-2.8937	-3.6104	-3.2812	-2.9292	-3.8854	-3.2146	-3.2458	-3.5438	-2.9083	-3.5833	-3.4146	-2.9479	-3.8958	-2.8563	-3.1375	395.560	414.666	523.765	335.996	269.777	298.737	253.261	271.198	198.180	291.886	511.304	185.033	311.408	253.180	357.903	460.477	0.00023355	0.00044056	8.0339e-05	535.52	4.3771e-06	3.4248e-06	443.56	155.22	2.9853e-06	5.1938e-06	144.78	53.453	51.28	20.645	1.3634e-06	23.223	0.00068277	0.0010593	0.00028492	532.75	1.0556e-05	1.1054e-05	440.94	155.83	1.0486e-05	1.176e-05	145.71	53.983	51.984	20.843	1.0986e-05	23.484	233.385	308.727	214.489	184.134	322.588	345.390	183.335	190.015	312.025	305.143	187.275	191.744	194.272	198.076	415.325	194.553	-8191	255	
1000.123	1	1	0	0	0.16591	0.075543	0.27171	0.15416	0.30202	0.16058	0.1473	0.031265	0.21183	0.21401	0.26908	0.14208	0.34521	0.057807	0.035738	0.26064	-3.2729	-2.7375	-3.5646	-3.5354	-3.0021	-3.875	-3.1979	-3.2083	-3.6729	-3.0438	-3.5438	-3.475	-2.8812	-3.9708	-3.2271	-3.2313	301.384	449.838	454.739	246.281	322.235	515.506	235.284	389.448	319.681	507.709	525.997	428.861	499.527	518.838	429.442	298.591	0.00021684	0.00019129	6.1992e-05	530.16	2.9847e-06	1.4741e-06	442.47	155.91	3.9912e-06	5.8848e-06	144.62	53.589	51.463	20.502	2.0205e-06	23.308	0.00068426	0.0010553	0.00027956	529.57	1.0659e-05	1.1372e-05	441.55	155.78	1.0516e-05	1.1553e-05	145.97	53.89	51.785	20.775	1.0858e-05	23.507	231.455	333.440	259.647	184.228	348.095	503.408	182.916	189.658	289.642	326.798	187.545	191.487	194.085	198.422	323.591	194.182	-8191	255	
1000.219	1	1	0	0	0.18229	0.27111	0.19682	0.18049	0.086758	0.20512	0.10674	0.25645	0.060939	0.16116	0.080057	0.11807	0.12902	0.16876	0.11252	0.11995	-3.3604	-2.9896	-3.3125	-3.6208	-2.9688	-3.6958	-3.2729	-3.3042	-3.7208	-3.0208	-3.5146	-3.5229	-2.8125	-3.8979	-3.2896	-3.0979	218.332	390.220	519.256	303.510	383.517	346.991	513.013	420.328	433.159	306.584	234.087	430.090	210.787	517.611	490.946	210.960	0.00022321	0.00021607	2.702e-05	534.63	2.2162e-06	4.7085e-06	442.32	153.8	1.8586e-06	1.8568e-06	142.9	53.448	51.094	20.38	3.946e-06	22.918	0.00068664	0.0010028	0.00028707	531.81	1.0864e-05	1.1366e-05	440.1	154.98	1.0218e-05	1.1445e-05	145.06	53.527	51.652	20.568	1.0791e-05	23.123	226.835	195.105	462.715	184.143	352.043	291.033	183.095	190.181	298.726	362.942	186.554	190.932	193.916	197.968	295.616	193.863	-8191	255	
1000.316	1	1	0	0	0.193	0.32511	0.23621	0.093521	0.17201	0.39927	0.13584	0.25506	0.039571	0.22232	0.055856	0.14422	0.11273	0.16611	0.045213	0.14393	-3.325	-2.8125	-3.1562	-3.7125	-2.9979	-3.6271	-3.4958	-3.0958	-3.7354	-3.1	-3.1437	-3.8812	-2.8292	-3.4667	-3.3458	-3.0896	242.552	284.997	386.042	497.677	253.994	233.750	380.389	524.551	417.400	530.892	274.110	516.466	497.048	472.777	375.597	212.374	0.00020001	0.00020745	9.7557e-05	530.65	2.6443e-06	4.7962e-06	441.04	154.71	1.9678e-06	1.9412e-06	145.11	53.266	51.47	20.371	1.9762e-06	23.091	0.0006585	0.0010167	0.00029027	529.88	1.0428e-05	1.1314e-05	440.43	155.1	1.0054e-05	1.1304e-05	145.31	53.683	51.756	20.566	1.0721e-05	23.261	240.494	274.184	235.346	184.065	317.945	298.115	183.092	189.615	266.153	308.811	187.143	190.607	193.878	197.889	381.154	194.139	-8191	255	
1000.412	1	1	0	0	0.0094687	0.06084	0.24916	0.39087	0.087593	0.19429	0.18112	0.090957	0.16639	0.25652	0.3225	0.19193	0.12809	0.082653	0.11251	0.15364	-3.3729	-3.1271	-3.3667	-3.8854	-3.0646	-3.3979	-3.5687	-2.8958	-3.6396	-3.375	-3.1604	-3.7188	-3.1813	-3.6	-3.5125	-2.7646	202.321	397.893	299.551	501.459	491.400	510.681	171.581	522.843	308.842	263.076	436.762	432.499	488.976	483.779	251.661	407.100	0.00024976	0.00043123	6.1063e-05	534.42	1.1067e-06	4.2033e-06	449.27	154.57	1.8302e-06	1.1178e-06	146.5	53.437	51.254	20.44	1.2339e-06	23.123	0.00067205	0.0010204	0.00028446	532.36	1.0541e-05	1.1421e-05	445.53	155.29	1.043e-05	1.1311e-05	146.91	53.728	51.574	20.609	1.0672e-05	23.26	239.168	244.468	228.214	184.007	436.769	320.411	183.221	189.613	366.406	348.954	187.376	191.477	193.979	198.010	259.269	193.924	-8191	255	
1000.508	1	1	0	0	0.10191	0.1374	0.37544	0.12968	0.067347	0.019466	0.14852	0.27118	0.091206	0.15502	0.16327	0.27661	0.30251	0.16205	0.16646	0.12387	-3.2583	-3.3479	-3.0062	-3.8708	-3.0125	-3.4062	-3.5833	-2.8854	-3.5104	-3.4146	-3.0896	-3.8042	-2.9437	-3.2083	-3.7	-2.9792	209.423	339.493	357.864	258.865	314.129	433.462	433.706	469.445	343.868	509.563	271.216	312.798	423.872	193.905	230.007	412.902	0.0002262	0.00032242	2.2131e-05	539.31	9.7236e-07	6.3213e-06	449.21	154.82	2.6443e-06	1.6652e-06	144.29	53.333	50.877	20.355	2.015e-06	22.954	0.00067776	0.0010275	0.0002884	534.1	1.0698e-05	1.147e-05	446.2	154.94	1.0469e-05	1.1627e-05	146.07	53.692	51.588	20.503	1.0849e-05	23.176	237.448	306.277	528.333	183.843	176.955	281.029	182.992	189.965	319.526	325.613	186.985	190.968	194.038	198.364	315.531	194.143	-8191	255	
1000.628	1	1	0	0	0.12121	0.13273	0.31667	0.061927	0.036191	0.21002	0.10758	0.10628	0.12262	0.15188	0.20392	0.1707	0.044731	0.21049	0.21284	0.22288	-3.1979	-3.4458	-2.9604	-3.7917	-3.0708	-3.3104	-3.7979	-2.925	-3.5354	-3.4604	-3.0563	-3.9771	-3.3	-3.2188	-3.6625	-3.0187	262.597	241.148	510.314	510.581	434.098	334.781	222.803	447.320	518.497	244.384	202.859	505.466	504.822	245.751	178.804	203.332	0.00026674	0.00030808	5.4766e-05	534.22	1.6025e-06	9.6274e-07	444.6	154.23	2.3573e-06	4.6336e-06	143.65	53.045	50.949	20.172	1.9473e-06	22.845	0.00069724	0.001022	0.0002905	531.07	1.051e-05	1.1527e-05	444.2	154.76	1.0319e-05	1.0961e-05	144.69	53.428	51.397	20.409	1.0985e-05	22.994	234.542	275.495	276.923	184.430	292.987	382.664	183.100	190.031	285.402	236.918	187.320	191.472	194.338	198.381	280.858	194.245	-8191	255	
1000.725	1	1	0	0	0.1455	0.13014	0.12471	0.082471	0.1353	0.18246	0.26452	0.38419	0.10195	0.21732	0.18711	0.13879	0.073701	0.07527	0.077444	0.11651	-3.1375	-3.6625	-2.9396	-3.65	-3.0812	-3.2271	-3.7542	-3.0875	-3.3708	-3.7333	-3.0229	-3.7062	-3.4313	-3.0938	-3.7021	-3.025	175.519	331.225	483.663	329.560	504.992	431.866	511.222	443.957	306.099	413.308	204.877	221.788	262.880	386.756	351.036	403.101	0.00018523	0.00023073	7.7082e-05	534.67	3.4376e-06	1.4718e-06	444.81	154.1	3.5446e-06	1.6308e-06	143.32	52.638	50.478	19.975	2.0573e-06	22.53	0.00068116	0.0010761	0.0002892	529.32	1.0428e-05	1.142e-05	440.59	153.95	1.0423e-05	1.106e-05	144.19	52.847	50.962	20.211	1.0548e-05	22.785	230.799	249.446	274.942	184.134	339.126	303.546	182.669	189.784	321.869	258.215	186.608	190.963	194.011	198.168	331.185	193.824	-8191	255	
1000.821	1	1	0	0	0.052582	0.11646	0.074886	0.055067	0.13358	0.15501	0.139	0.059055	0.05341	0.23813	0.18257	0.14911	0.32608	0.094609	0.042806	0.23237	-2.9813	-3.6271	-2.9854	-3.6458	-3.4792	-3.1688	-3.9208	-3.175	-3.2083	-3.5625	-3.1146	-3.75	-3.3646	-2.9021	-3.7771	-3.3937	179.850	450.535	526.718	308.868	517.466	300.761	228.977	275.030	316.787	328.447	498.784	400.397	185.008	362.790	365.933	179.335	0.00021008	0.00041005	2.2727e-05	532.64	3.5845e-06	1.9036e-06	440.18	153.18	2.4981e-06	1.1437e-06	142.51	52.426	50.466	19.962	2.1445e-06	22.73	0.00066097	0.0010179	0.00028573	528.66	1.0469e-05	1.1299e-05	438.98	153.4	1.0388e-05	1.1263e-05	143.98	52.796	50.907	20.187	1.0588e-05	22.775	223.694	280.025	286.609	184.130	302.401	302.754	182.923	189.816	275.388	404.517	187.134	191.585	193.280	197.898	197.813	194.163	-8191	255	
1000.892	1	1	0	0	0.22528	0.18343	0.19586	0.11503	0.072715	0.059012	0.081114	0.086181	0.17338	0.22509	0.066853	0.13057	0.13318	0.31164	0.12569	0.13191	-2.7667	-3.7042	-3.0021	-3.4958	-3.3083	-3	-3.7146	-3.2062	-3.1896	-3.7208	-3.2062	-3.4708	-3.6562	-2.8646	-3.7021	-3.375	257.659	217.110	322.714	294.437	327.090	531.486	501.812	401.459	510.005	454.085	326.394	404.598	404.578	466.003	422.514	437.707	0.00018958	0.00026587	9.6044e-05	530.41	2.9954e-06	2.248e-06	439.94	153.88	4.432e-06	1.5994e-06	145.92	52.817	50.506	20.049	3.497e-06	22.714	0.00068906	0.0009876	0.00029395	528.38	1.0484e-05	1.1475e-05	439.03	153.8	1.0281e-05	1.115e-05	145.2	53.149	51.055	20.339	1.0586e-05	23.047	234.920	262.363	233.592	184.167	319.119	365.993	183.204	190.153	279.617	318.584	187.321	191.623	194.085	197.592	328.852	193.839	-8191	255	
1001.011	1	1	0	0	0.12615	0.04014	0.11908	0.13934	0.20259	0.056697	0.243	0.19846	0.17496	0.21656	0.12205	0.19302	0.1439	0.2569	0.24198	0.073837	-2.6229	-3.6813	-2.8292	-3.4896	-3.5708	-2.9562	-3.6625	-3.2833	-2.8146	-3.7417	-3.1333	-3.2375	-3.6229	-3.0792	-3.5021	-3.3083	390.857	269.914	297.863	483.973	376.724	470.097	183.264	497.793	306.850	241.411	505.615	484.140	340.339	287.107	296.781	189.257	0.00019923	0.00011317	1.9531e-05	531.13	3.9592e-06	3.451e-06	443.23	153.78	1.8816e-06	3.807e-06	144.36	52.676	50.436	20.167	2.2513e-06	22.625	0.00067248	0.00099279	0.00029299	529.08	1.0525e-05	1.1502e-05	440.33	153.67	1.0371e-05	1.1217e-05	144.9	53.14	50.976	20.288	1.0738e-05	22.855	233.874	314.440	255.919	184.594	294.628	366.427	183.091	189.587	368.928	282.909	186.712	191.319	194.313	197.966	353.212	194.000	-8191	255	
1001.108	1	1	0	0	0.24681	0.32268	0.14363	0.16923	0.25901	0.26182	0.075001	0.32489	0.25354	0.12131	0.27083	0.047734	0.1025	0.15504	0.12332	0.2685	-2.7375	-3.7292	-3.0854	-3.4646	-3.7667	-2.9875	-3.6937	-3.5125	-2.9938	-3.7833	-3.1917	-3.1562	-3.7313	-2.9417	-3.4271	-3.5125	329.768	305.619	288.815	359.883	283.210	259.489	175.902	441.487	328.502	205.631	512.968	427.405	348.719	448.985	327.578	401.284	0.00022502	0.00017629	8.9953e-05	532.21	2.2207e-06	1.5211e-06	441.66	152.77	2.9936e-06	2.1048e-06	142.48	52.017	49.954	19.684	2.978e-06	22.276	0.0006771	0.0009923	0.00028641	526.77	1.038e-05	1.1715e-05	438.17	152.75	1.0264e-05	1.1222e-05	143.23	52.337	50.585	19.996	1.0755e-05	22.525	235.205	203.349	282.499	183.748	315.574	303.622	182.677	189.676	332.333	364.681	187.615	191.423	194.140	197.690	284.678	193.816	-8191	255	
1001.204	1	1	0	0	0.20481	0.073955	0.22519	0.11763	0.15086	0.10328	0.12053	0.1586	0.071953	0.19373	0.15279	0.25816	0.13473	0.018422	0.17639	0.1611	-2.4708	-3.6354	-3.2271	-3.175	-3.5563	-3.0958	-3.6604	-3.6688	-2.9479	-3.5812	-3.2958	-3.1667	-3.6979	-2.9771	-3.4229	-3.6896	270.239	384.556	481.933	369.674	355.890	504.729	530.742	398.950	320.633	290.892	362.341	277.726	251.555	399.322	187.362	427.335	0.00022003	0.00020831	7.3138e-05	526.84	9.0192e-07	1.2338e-06	438.71	152.07	2.5081e-06	2.2443e-06	142.32	51.753	50.293	19.829	2.4673e-06	22.509	0.00067304	0.0010274	0.0002692	524.86	1.0482e-05	1.0809e-05	436.61	152.47	1.0408e-05	1.1046e-05	142.84	52.215	50.572	20.068	1.0584e-05	22.601	240.065	231.953	210.426	183.942	262.093	296.977	183.085	189.588	303.361	390.729	186.927	191.532	193.745	197.863	322.318	193.793	-8191	255	
1001.300	1	1	0	0	0.071492	0.059835	0.064611	0.15455	0.16913	0.24642	0.04998	0.13185	0.067492	0.12535	0.16983	0.16584	0.089763	0.17716	0.079606	0.25269	-2.4896	-3.725	-3.3104	-3.1875	-3.6146	-2.9854	-3.3521	-3.6917	-2.9521	-3.6792	-3.3208	-3.0083	-3.7375	-3.1125	-3.2021	-3.6708	447.365	298.844	403.479	232.192	353.478	325.825	381.556	340.060	506.672	283.155	250.999	507.117	450.587	495.642	488.653	423.491	0.00021946	0.00013203	0.00013258	526.59	1.9001e-06	5.5345e-06	437.41	152.62	2.7755e-06	2.7614e-06	142.52	52.066	50.39	19.809	6.5162e-07	22.509	0.00068091	0.00098502	0.00028472	525.03	1.026e-05	1.1073e-05	435.94	152.56	1.0471e-05	1.1338e-05	143.21	52.375	50.592	20.096	1.0951e-05	22.753	235.237	242.310	251.787	184.230	374.446	342.187	183.283	189.798	310.896	334.753	187.575	191.406	194.518	197.789	449.356	193.977	-8191	255	
1001.396	1	1	0	0	0.17153	0.15337	0.1599	0.051329	0.24596	0.22201	0.33936	0.09292	0.13628	0.13602	0.18296	0.20862	0.16375	0.24578	0.15424	0.074831	-2.4979	-3.6375	-3.4833	-2.9833	-3.8	-3.1312	-3.2062	-3.8771	-3.0708	-3.6417	-3.6292	-2.825	-3.8521	-3.0833	-3.3354	-3.8896	230.660	285.904	262.788	363.139	296.969	221.271	417.039	486.585	380.249	233.846	365.742	398.186	173.638	490.557	493.049	492.469	0.00024072	0.00017776	0.00015906	526.74	3.8671e-06	3.0379e-06	437.77	152.09	3.3797e-06	3.0152e-06	142.76	52.14	49.956	19.797	1.7748e-06	22.224	0.00069285	0.0010067	0.00028916	524.81	1.0619e-05	1.0956e-05	436.95	152.49	1.0277e-05	1.1171e-05	143.74	52.408	50.638	20.023	1.0856e-05	22.671	233.157	290.784	280.250	184.251	327.291	222.868	183.362	189.542	315.808	321.140	186.853	190.905	193.751	197.602	461.486	193.415	-8191	255	
1001.492	1	1	0	0	0.17089	0.22758	0.10918	0.10838	0.23817	0.25843	0.2875	0.07766	0.083609	0.10281	0.044835	0.13619	0.18797	0.059263	0.10906	0.14965	-2.5458	-3.5021	-3.4771	-2.9271	-3.7229	-3.3646	-3.0479	-3.8708	-3.0958	-3.4021	-3.5104	-2.8854	-3.5583	-3.2625	-2.9771	-3.775	378.789	171.575	493.727	444.735	185.560	402.406	180.626	481.822	387.136	403.045	193.761	387.940	520.092	468.184	404.129	315.181	0.00020145	0.0001262	8.0642e-05	527.44	4.1468e-06	2.4732e-06	437.48	152.45	2.9939e-06	3.5913e-06	140.42	51.712	49.632	19.823	3.032e-06	22.007	0.00066702	0.0010405	0.00028264	525.33	1.0213e-05	1.1199e-05	435.49	152.28	1.0194e-05	1.103e-05	142.53	52.035	50.175	19.923	1.0731e-05	22.368	234.446	285.180	244.449	184.022	312.379	414.627	182.956	189.552	292.029	321.316	187.069	190.849	193.888	197.507	288.894	193.827	-8191	255	
1001.588	1	1	0	0	0.025459	0.094524	0.26442	0.18607	0.1668	0.26972	0.13722	0.086558	0.18062	0.042058	0.16365	0.088825	0.16311	0.057635	0.02908	0.043346	-2.6896	-3.4271	-3.6083	-2.8812	-3.5812	-3.4167	-3.0479	-3.7729	-3.1063	-3.2313	-3.6833	-2.9833	-3.5354	-3.4854	-2.8542	-3.9208	491.744	508.450	372.211	198.339	363.923	502.606	450.836	241.862	323.971	202.220	481.287	353.853	528.200	510.551	179.244	470.658	0.00022228	0.00035678	6.8025e-05	527.63	1.3863e-06	9.9953e-07	437.09	152.28	3.5767e-06	3.828e-06	141.88	51.32	49.683	19.74	2.8614e-06	22.15	0.00066244	0.0010268	0.00028188	525.53	1.0278e-05	1.1404e-05	434.13	151.89	1.0457e-05	1.1032e-05	142.21	51.605	50.189	19.936	1.0723e-05	22.351	230.694	217.307	266.295	183.617	314.350	362.771	182.846	189.807	317.357	401.424	187.017	191.109	193.989	197.719	319.462	193.254	-8191	255	
1001.709	1	1	0	0	0.26437	0.098618	0.067505	0.22832	0.22168	0.15809	0.26233	0.06872	0.27594	0.078206	0.11055	0.26082	0.14156	0.13619	0.17161	0.30136	-2.8063	-3.2	-3.6375	-2.9875	-3.5396	-3.6917	-2.9833	-3.6688	-3.1375	-3.0292	-3.8396	-3.0625	-3.4208	-3.75	-2.975	-3.7917	334.924	205.297	225.182	224.456	316.421	401.126	320.667	208.088	235.307	289.781	176.365	259.642	202.802	488.540	242.549	489.762	0.00023104	0.00041789	3.1438e-05	522.41	2.5763e-06	1.4607e-06	433.63	151.87	1.2405e-06	2.0515e-06	139.11	50.899	49.58	19.619	1.921e-06	21.982	0.00067884	0.0010112	0.00028727	521.73	1.0234e-05	1.1138e-05	431.63	151.31	1.0621e-05	1.115e-05	140.51	51.047	49.709	19.756	1.0503e-05	22.269	235.580	282.653	205.072	183.564	290.111	312.015	182.427	189.606	203.024	293.327	187.724	190.855	194.141	198.173	241.644	194.440	-8191	255	
1001.805	1	1	0	0	0.033303	0.30496	0.14778	0.14033	0.12945	0.032666	0.16978	0.058859	0.051911	0.17872	0.11336	0.23456	0.087342	0.062387	0.11451	0.16917	-3.0646	-3.1042	-3.7667	-3.2646	-3.4229	-3.7104	-2.8646	-3.8	-3.3667	-2.9833	-3.9562	-3.1042	-3.3833	-3.7146	-2.9667	-3.7708	524.910	478.240	406.462	436.166	469.633	178.168	268.195	373.997	401.151	197.427	467.663	232.750	190.130	238.989	487.197	500.205	0.00022983	0.00034769	6.5097e-05	523.78	3.8206e-06	3.2826e-07	431.54	150.4	2.8983e-06	2.8581e-06	138.49	50.291	49	19.517	1.9929e-06	21.913	0.00066258	0.0010112	0.00028283	520.97	1.0594e-05	1.1112e-05	431.65	150.81	1.018e-05	1.1241e-05	140.54	50.893	49.475	19.76	1.0584e-05	22.296	233.624	263.857	267.794	183.907	341.514	346.473	183.030	189.548	355.452	270.257	187.469	191.518	194.532	197.779	409.236	194.178	-8191	255	
1001.901	1	1	0	0	0.075141	0.19231	0.19502	0.15496	0.17504	0.041776	0.31649	0.3321	0.24982	0.052341	0.13138	0.17064	0.096361	0.05614	0.27146	0.2745	-3.1271	-2.9583	-3.7104	-3.1271	-3.2938	-3.7958	-3.0021	-3.6104	-3.6229	-3.0833	-3.6604	-3.2792	-3.2583	-3.8063	-3.0146	-3.5979	527.671	491.358	437.353	331.884	315.977	498.664	439.629	469.983	282.185	285.031	376.177	525.001	361.576	457.339	420.135	377.774	0.00019673	0.0001581	7.1701e-05	525.37	7.0124e-07	3.3674e-06	433	150.65	2.7998e-06	1.424e-06	139.09	49.925	48.528	19.54	2.532e-06	22.108	0.00064998	0.0010319	0.00027525	520.61	1.0597e-05	1.1126e-05	431.12	150.96	1.0546e-05	1.1472e-05	139.72	50.182	49.164	19.733	1.0748e-05	22.189	234.927	269.110	211.069	184.125	292.914	260.070	182.894	189.462	322.993	386.329	186.891	190.471	193.780	197.755	250.254	193.475	-8191	255	
1001.997	1	1	0	0	0.19823	0.25616	0.14884	0.049601	0.058023	0.067349	0.23678	0.31293	0.04778	0.057792	0.23015	0.22567	0.34515	0.17393	0.015723	0.15558	-3.1354	-2.9646	-3.7812	-3.1896	-3.0438	-3.9604	-3.15	-3.4646	-3.4854	-3.2188	-3.5833	-3.2062	-3	-3.6271	-3.0125	-3.3021	298.952	245.621	481.057	325.416	187.209	326.468	182.582	456.038	412.033	482.316	515.043	244.101	398.627	411.450	456.158	211.515	0.00022247	0.00023502	7.3413e-05	520.78	3.38e-06	4.7979e-06	428.54	149.49	3.0006e-06	1.9418e-06	137.97	48.86	47.887	19.473	1.1703e-06	21.879	0.00066566	0.0010236	0.0002823	518.41	1.0561e-05	1.1136e-05	426.62	149.66	1.0416e-05	1.1132e-05	138.2	49.194	48.613	19.646	1.0523e-05	22.024	237.864	374.286	332.024	183.584	326.099	340.829	182.780	189.580	334.963	175.611	187.746	191.039	194.105	198.100	343.153	194.333	-8191	255	
1002.116	1	1	0	0	0.26276	0.10223	0.27069	0.045467	0.37807	0.098719	0.14013	0.32644	0.12271	0.11212	0.084396	0.36034	0.38481	0.17871	0.12505	0.089453	-3.1458	-2.8187	-3.5583	-3.3604	-3.0062	-3.8187	-3.0604	-3.4	-3.8479	-3.0292	-3.6354	-3.5062	-2.9417	-3.6958	-3.0083	-3.3854	523.613	199.061	442.695	407.523	446.992	383.914	185.952	445.350	344.161	372.855	180.738	222.411	494.875	486.572	322.014	302.093	0.00022381	0.00044762	0.00011225	520.58	2.6464e-06	4.2673e-06	427.51	149.18	3.1659e-06	2.7248e-06	136.51	48.359	47.758	19.362	1.4783e-06	21.844	0.0006534	0.0010288	0.0002847	517.05	1.064e-05	1.1186e-05	425.5	149.13	1.0282e-05	1.1634e-05	136.83	48.798	48.358	19.649	1.0655e-05	21.975	238.212	237.792	261.035	184.140	315.401	334.037	183.264	190.146	297.846	350.820	187.935	191.502	194.404	197.990	347.211	194.561	-8191	255	
1002.188	1	1	0	0	0.20267	0.11295	0.2349	0.17329	0.11833	0.031164	0.19125	0.17584	0.18785	0.15798	0.029139	0.0079159	0.34632	0.11479	0.10644	0.10361	-3.4042	-2.8979	-3.5625	-3.6021	-3.0938	-3.8917	-3.2417	-3.0938	-3.75	-2.9542	-3.4542	-3.5208	-2.8896	-3.675	-3.4146	-3.1646	203.039	313.923	239.941	471.956	481.956	342.939	525.072	171.898	374.992	287.859	488.796	331.625	477.901	194.243	212.261	254.509	0.00018999	0.00044093	1.9433e-05	522.31	3.8541e-07	1.2616e-06	425.7	148.63	3.9544e-06	3.1648e-06	136.51	48.645	48.151	19.57	2.6008e-06	22.175	0.00069165	0.0010601	0.00028935	517.44	1.0863e-05	1.1477e-05	424.28	149.23	1.069e-05	1.1901e-05	136.82	49.134	48.471	19.778	1.1568e-05	22.38	230.949	252.163	255.761	184.369	365.369	346.929	183.317	189.877	315.873	308.093	187.315	191.241	194.069	198.059	331.065	194.564	-8191	255	
1002.309	1	1	0	0	0.003854	0.16858	0.26866	0.087718	0.20232	0.28746	0.056878	0.11481	0.029928	0.22881	0.13606	0.30676	0.18663	0.29376	0.38013	0.1665	-3.4354	-2.9688	-3.4625	-3.5708	-2.825	-3.65	-3.3646	-3.0417	-3.8063	-3.1625	-3.4292	-3.7833	-3.1625	-3.7271	-3.4271	-3.0167	306.688	260.497	277.915	423.396	428.828	406.178	182.866	530.048	456.513	435.444	399.288	283.978	334.355	472.099	422.832	319.592	0.00020994	0.00026455	9.8345e-05	522.98	2.8255e-06	4.0223e-06	429.56	149.38	4.1532e-06	5.9662e-06	136.33	49.37	48.67	19.982	2.2886e-06	22.475	0.00071816	0.0011026	0.00030976	519.6	1.1364e-05	1.213e-05	426.56	150.14	1.1707e-05	1.3075e-05	137.78	49.653	48.993	20.189	1.213e-05	22.689	236.160	320.334	286.658	184.482	329.533	310.125	183.132	190.229	295.127	313.681	187.407	191.259	194.242	198.130	319.761	194.350	-8191	255	
1002.405	1	1	0	0	0.19346	0.1121	0.16691	0.008676	0.10325	0.23405	0.14608	0.058038	0.26929	0.2379	0.28421	0.13201	0.062778	0.014225	0.34538	0.18521	-3.4667	-3.0604	-3.1437	-3.7667	-2.9083	-3.575	-3.4667	-3.0812	-3.7958	-3.2062	-3.1688	-3.7521	-3.0563	-3.4708	-3.5792	-3.0229	254.209	249.350	419.560	416.738	366.082	399.981	383.540	198.419	432.315	256.251	399.691	527.830	187.305	442.981	488.456	322.208	0.00023394	0.00052985	4.9073e-05	520.67	2.2184e-06	1.2731e-06	427.02	149.94	1.732e-06	2.5863e-06	135.88	48.943	48.63	19.963	3.5394e-06	22.257	0.00077236	0.0011993	0.00033716	519.57	1.2274e-05	1.3245e-05	425.94	150.45	1.1952e-05	1.3489e-05	136.61	49.344	48.971	20.245	1.2557e-05	22.52	236.854	323.645	254.114	184.640	306.443	341.037	182.787	189.878	339.904	343.902	187.363	191.625	194.565	198.216	330.901	194.664	-8191	255	
1002.501	1	1	0	0	0.39307	0.076044	0.080159	0.14709	0.073621	0.16988	0.18074	0.34191	0.22578	0.33148	0.061073	0.16745	0.1103	0.17115	0.25376	0.19651	-3.4958	-3.2562	-3.2188	-3.6479	-3.0583	-3.6729	-3.5104	-2.9	-3.8625	-3.3208	-3.2917	-3.9729	-3.0021	-3.5375	-3.6229	-2.9062	372.295	460.417	201.162	188.624	490.098	509.415	526.636	180.556	432.460	417.235	398.711	231.551	301.072	197.420	183.246	263.781	0.00018943	0.00036673	3.0703e-05	524.64	2.8695e-07	2.0548e-06	421.62	149.19	2.4946e-06	5.4896e-06	134.69	47.519	47.887	19.699	2.9534e-06	21.901	0.00076545	0.0011788	0.00033985	520.38	1.2291e-05	1.3174e-05	422.35	149.64	1.2419e-05	1.3697e-05	135.74	48.258	48.387	20.035	1.2742e-05	22.205	227.907	242.170	399.607	184.647	521.828	372.951	183.044	190.036	280.560	378.449	187.896	191.888	194.151	198.067	285.744	194.060	-8191	255	
1002.597	1	1	0	0	0.28104	0.25147	0.042813	0.23117	0.080053	0.10985	0.15503	0.078315	0.11825	0.14787	0.23616	0.069862	0.13276	0.21177	0.13939	0.18961	-3.4	-3.3521	-3.0396	-3.7521	-3.1271	-3.3563	-3.7854	-2.9271	-3.6958	-3.4167	-3.1167	-3.8354	-3.2208	-3.3083	-3.6521	-2.8896	251.318	215.864	390.206	439.519	486.955	332.482	470.467	321.965	279.717	278.265	475.888	203.846	471.131	178.656	310.008	398.625	0.00020594	0.00029249	2.0399e-05	518.96	3.5075e-06	3.1513e-06	424.51	149.06	1.9011e-06	1.8508e-06	134.27	47.442	47.273	19.316	3.1485e-06	21.671	0.0007819	0.0012477	0.00034685	517.48	1.2858e-05	1.369e-05	422.81	148.88	1.219e-05	1.3405e-05	134.87	47.877	47.967	19.757	1.2798e-05	22.113	239.288	376.348	262.474	184.049	267.521	339.810	183.464	190.046	284.362	286.987	187.789	191.195	193.384	198.489	320.664	193.939	-8191	255	
1002.718	1	1	0	0	0.25662	0.13009	0.1794	0.32253	0.11608	0.098325	0.19717	0.11107	0.11717	0.084681	0.10082	0.16912	0.037163	0.19781	0.11075	0.11795	-3.3688	-3.3896	-2.9104	-3.7625	-3.3167	-3.1625	-3.7583	-3.1188	-3.5375	-3.5417	-3.0646	-3.8	-3.2417	-3.2438	-3.7687	-2.9375	253.497	173.581	389.382	489.949	468.832	514.683	447.991	494.571	233.078	221.594	508.689	352.242	380.655	195.151	381.162	506.369	0.00025492	0.00027438	9.1963e-05	520.42	3.1441e-06	4.5835e-07	422.55	147.79	3.4579e-06	2.5949e-06	134.21	47.149	47.37	19.586	2.0634e-06	21.821	0.00078142	0.001247	0.00034289	517.57	1.2704e-05	1.3826e-05	422.86	148.06	1.2157e-05	1.3812e-05	135.3	47.736	47.873	19.813	1.2467e-05	22.227	232.083	221.678	293.020	184.326	310.527	445.830	183.168	189.745	350.665	219.228	187.451	191.545	194.456	197.883	310.722	194.772	-8191	255	
1002.789	1	1	0	0	0.30274	0.10872	0.18359	0.15169	0.21403	0.10952	0.16501	0.16734	0.04296	0.2962	0.091975	0.26092	0.15149	0.048492	0.1716	0.15772	-3.2229	-3.55	-2.9125	-3.8	-3.3875	-3.3063	-3.8896	-3.05	-3.4813	-3.7292	-2.8542	-3.6833	-3.15	-3.2375	-3.7708	-2.9854	349.972	465.519	407.544	506.720	405.276	343.053	314.555	446.100	186.419	280.625	432.501	189.346	415.009	454.677	339.640	339.621	0.00017783	0.00057154	4.1989e-05	518.4	2.2881e-06	7.5951e-07	425.93	148.28	1.1554e-06	8.2154e-06	133.92	46.577	47.051	19.477	2.168e-06	21.772	0.00077195	0.0012339	0.00035017	517.39	1.2477e-05	1.3754e-05	424.04	148.57	1.245e-05	1.3462e-05	134.34	47.281	47.647	19.687	1.2481e-05	21.969	234.884	240.801	304.763	184.864	267.024	405.923	183.651	189.811	353.175	336.094	188.181	191.124	194.064	198.152	329.431	194.155	-8191	255	
1002.885	1	1	0	0	0.12395	0.1506	0.23833	0.062046	0.31315	0.1834	0.18394	0.23251	0.080083	0.15272	0.12746	0.19847	0.16587	0.068905	0.1427	0.23114	-2.9729	-3.6688	-3	-3.6854	-3.3583	-3.0563	-3.8083	-3.1125	-3.4271	-3.7083	-2.9417	-3.4979	-3.5563	-3.0167	-3.7833	-3.1188	293.513	344.402	234.852	413.361	518.037	418.520	194.751	423.249	352.020	211.021	524.472	380.616	210.511	275.034	307.402	422.129	0.00026935	0.00060052	0.00012255	518.19	4.3099e-06	4.1851e-06	424.57	146.71	1.6518e-06	3.2327e-06	132.71	46.608	46.819	19.493	5.5046e-06	21.821	0.00078645	0.0012008	0.00032999	516.19	1.2469e-05	1.3236e-05	420.71	147.83	1.2082e-05	1.3066e-05	133.79	47.217	47.507	19.721	1.2198e-05	21.907	234.602	338.704	298.258	184.588	359.985	262.190	183.442	189.706	257.183	385.859	187.847	191.975	193.988	198.173	302.095	194.080	-8191	255	
1002.982	1	1	0	0	0.17499	0.075358	0.08403	0.096154	0.058663	0.28817	0.11132	0.1436	0.046269	0.081509	0.20801	0.094487	0.16144	0.17446	0.30326	0.11445	-2.9271	-3.8438	-3.0771	-3.4646	-3.5625	-3.0187	-3.7708	-3.2562	-3.2062	-3.7604	-2.8625	-3.4813	-3.4583	-2.8542	-3.7229	-3.2854	507.061	270.643	192.514	472.299	175.719	302.316	392.174	480.792	483.535	482.751	488.219	282.250	389.093	458.563	422.792	441.025	0.00020178	4.6169e-05	0.0001148	517.18	3.0299e-06	7.7183e-07	422.74	146.52	2.2059e-06	1.4726e-06	131.99	46.034	46.587	19.187	4.509e-06	21.415	0.00077612	0.001152	0.0003236	515.8	1.2216e-05	1.3324e-05	421.91	147.55	1.2018e-05	1.2982e-05	133.76	46.837	47.11	19.503	1.2225e-05	21.664	239.274	369.154	179.322	184.532	330.296	522.384	183.508	189.597	345.043	411.127	187.361	191.510	193.931	198.358	325.813	194.085	-8191	255	
1003.078	1	1	0	0	0.23945	0.061688	0.136	0.11542	0.015664	0.054015	0.088377	0.18163	0.22111	0.17424	0.27608	0.20594	0.18746	0.061305	0.22342	0.041692	-2.7188	-3.6813	-2.9813	-3.3729	-3.5958	-2.9729	-3.6833	-3.4	-3.175	-3.7812	-3.1208	-3.1958	-3.5542	-2.8875	-3.4437	-3.4729	391.064	193.978	275.984	317.818	502.471	392.033	338.366	435.009	420.705	333.978	498.218	419.038	233.741	409.161	413.343	357.751	0.00022016	0.00029026	2.9358e-05	518.55	1.9792e-06	4.9606e-06	421.1	146.44	1.946e-06	1.8231e-06	130.13	44.754	45.594	18.667	3.0304e-06	20.511	0.00077206	0.0011951	0.0003345	516.46	1.2427e-05	1.3453e-05	421.33	147.04	1.2818e-05	1.3924e-05	131.98	45.561	46.165	18.856	1.4077e-05	20.91	241.020	233.805	295.345	184.457	426.776	315.093	182.801	189.683	365.403	232.315	186.332	191.465	193.794	198.212	304.770	193.993	-8191	255	
1003.197	1	1	0	0	0.11391	0.28145	0.33151	0.10556	0.087102	0.35033	0.2399	0.24939	0.080427	0.16094	0.37659	0.098702	0.12211	0.1402	0.12669	0.34145	-2.6583	-3.6646	-3.0708	-3.1104	-3.7417	-2.9646	-3.6937	-3.5229	-2.9562	-3.6542	-3.2438	-2.9521	-3.8396	-2.9875	-3.5354	-3.3771	396.943	186.494	220.465	463.914	524.140	296.148	413.265	360.884	293.757	369.401	498.150	322.184	261.978	492.915	508.720	399.012	0.00021667	0.00035693	0.00012518	520.78	4.1134e-07	3.2331e-06	426.05	145.35	3.2877e-06	4.4823e-06	128.93	43.244	45.037	17.831	4.2506e-06	19.535	0.00087222	0.0013945	0.00038601	521.07	1.4124e-05	1.5788e-05	425.3	145.99	1.4701e-05	1.5787e-05	130.74	44.099	45.535	18.062	1.4927e-05	20.004	235.660	173.062	270.275	184.524	179.523	352.221	183.485	190.096	277.672	304.747	187.294	191.469	194.401	197.994	307.591	193.966	-8191	255	
1003.293	1	1	0	0	0.23364	0.078703	0.11863	0.18139	0.065736	0.056533	0.17569	0.22476	0.1158	0.046445	0.040829	0.1538	0.12095	0.16674	0.24384	0.23703	-2.7146	-3.5438	-3.2229	-3.1208	-3.8146	-3.0021	-3.4896	-3.6229	-2.8146	-3.7792	-3.5125	-2.9104	-3.8375	-2.8354	-3.3458	-3.7125	303.792	261.838	221.819	489.819	481.483	448.509	414.216	276.535	210.035	384.416	213.797	448.778	185.512	524.147	215.217	415.780	0.00021254	0.00021996	8.7556e-05	522.92	3.3136e-06	3.5138e-06	423.28	144.34	2.5635e-06	5.2558e-07	127.83	42.934	44.444	17.465	5.2162e-06	19.335	0.00087931	0.0013721	0.00038939	521.91	1.4047e-05	1.5312e-05	423.89	145.34	1.4111e-05	1.4809e-05	129.58	43.623	45.038	17.786	1.363e-05	19.708	234.132	327.133	304.108	184.636	342.504	303.915	183.236	189.918	329.613	393.781	187.140	190.863	193.699	197.933	298.036	194.260	-8191	255	
1003.389	1	1	0	0	0.023437	0.24917	0.081647	0.34772	0.31612	0.065436	0.17913	0.0764	0.18286	0.12347	0.058923	0.18685	0.042396	0.20115	0.10765	0.21297	-2.6167	-3.5833	-3.3167	-3.0917	-3.7313	-3.1021	-3.4104	-3.6396	-2.8354	-3.4854	-3.4521	-2.9979	-3.5875	-3.1813	-3.1917	-3.6833	373.960	492.117	277.473	172.772	379.251	232.801	402.463	296.678	397.950	527.370	333.906	248.600	390.780	185.628	216.602	207.149	0.00019882	0.00038195	6.7605e-05	517.94	1.3506e-06	3.7617e-06	423.7	144.03	1.2797e-06	3.7508e-06	128.45	42.568	43.637	17.246	2.7538e-06	18.99	0.00082151	0.0012986	0.00036254	518.64	1.333e-05	1.4719e-05	422.46	144.85	1.317e-05	1.43e-05	129.11	42.95	44.327	17.417	1.3472e-05	19.317	229.735	229.983	344.633	184.183	308.578	345.390	183.219	189.484	380.097	328.336	187.484	191.291	193.973	198.201	306.521	194.588	-8191	255	
1003.485	1	1	0	0	0.15644	0.083817	0.041822	0.17657	0.13864	0.12803	0.19371	0.11685	0.25383	0.13415	0.22384	0.11525	0.26936	0.15469	0.1211	0.20983	-2.6063	-3.5042	-3.5792	-2.8771	-3.7958	-3.2604	-3.4021	-3.8187	-3.05	-3.4417	-3.5458	-3.0396	-3.7042	-3.2333	-3.0333	-3.8896	171.992	520.138	324.533	350.789	484.863	512.355	172.693	369.600	186.600	351.176	488.237	282.730	509.822	492.024	437.633	207.371	0.00017363	0.00026464	0.00010216	517.28	2.3761e-06	2.5705e-06	421.62	143.9	2.0086e-06	2.2466e-06	127.94	42.748	43.852	17.27	1.6649e-06	19.273	0.0008015	0.0012738	0.0003453	516.36	1.2911e-05	1.3737e-05	422.31	144.4	1.2424e-05	1.3873e-05	128.98	43.326	44.268	17.371	1.2827e-05	19.607	228.786	477.213	233.195	184.105	423.242	461.771	183.523	189.981	289.201	246.007	187.416	191.618	194.380	198.084	293.114	194.306	-8191	255	
1003.581	1	1	0	0	0.17358	0.16219	0.0097476	0.068416	0.28225	0.074384	0.097021	0.035885	0.21087	0.10834	0.096692	0.25205	0.11343	0.084333	0.23822	0.2	-2.8625	-3.3563	-3.5604	-2.9708	-3.5687	-3.2667	-3.1958	-3.7771	-3.0542	-3.3542	-3.6854	-3.0792	-3.7521	-3.4333	-2.7271	-3.8458	380.769	190.082	277.224	193.934	354.829	456.892	426.446	527.031	436.386	328.081	181.403	387.642	178.829	385.230	440.770	188.259	0.00017365	0.00038028	6.178e-05	518.56	5.092e-06	4.3568e-06	424.04	144.55	2.4271e-06	2.5655e-06	128.53	42.989	44.466	17.757	1.764e-06	19.579	0.00076792	0.001215	0.00032982	516.42	1.2027e-05	1.3119e-05	423.14	145.37	1.2121e-05	1.3137e-05	129.87	43.872	44.808	17.784	1.2439e-05	20.03	233.845	255.772	213.608	184.714	316.097	300.368	183.585	190.189	358.234	266.599	187.729	191.538	194.079	198.431	242.631	194.585	-8191	255	
1003.677	1	1	0	0	0.18411	0.096974	0.069612	0.063045	0.18886	0.11193	0.15729	0.21414	0.12414	0.12956	0.20684	0.063146	0.12399	0.2106	0.14339	0.23394	-2.8438	-3.1708	-3.6896	-2.9729	-3.6042	-3.5771	-2.9854	-3.8542	-3.0917	-3.3042	-3.5604	-2.9958	-3.5	-3.5229	-3.1125	-3.7667	263.856	247.576	267.303	456.091	449.810	515.931	470.355	407.011	485.027	243.977	195.164	369.106	480.232	435.539	463.009	525.508	0.00020781	0.00036799	9.9125e-05	519.33	2.3206e-06	2.3979e-06	423.73	145.18	2.2262e-06	2.8087e-06	129.72	44.206	44.641	17.744	1.1564e-06	20.061	0.00075602	0.0011796	0.00032088	517.88	1.193e-05	1.2808e-05	423.15	145.16	1.1635e-05	1.2991e-05	130.38	44.555	45.118	17.962	1.2616e-05	20.263	241.968	325.493	203.714	184.743	353.345	361.531	183.785	190.507	361.814	325.913	187.840	192.118	194.912	198.805	453.466	194.745	-8191	255	
1003.798	1	1	0	0	0.18972	0.082777	0.14715	0.20618	0.12946	0.11591	0.1972	0.1209	0.055295	0.14677	0.095876	0.071249	0.1234	0.15951	0.11559	0.066591	-2.7833	-3.2083	-3.8438	-3.05	-3.6104	-3.6854	-3.0396	-3.6854	-3.3604	-3.2687	-3.725	-3.0312	-3.4188	-3.5417	-2.925	-3.6667	223.913	444.004	463.983	505.356	207.919	373.840	442.297	461.898	266.755	396.953	289.926	215.185	267.456	362.285	395.584	359.220	0.0002059	0.00026573	8.291e-05	513.41	3.3173e-06	1.5095e-06	425.99	145.75	1.5342e-06	3.2615e-06	130.52	45.052	45.516	18.117	1.1468e-06	20.186	0.00073749	0.0011471	0.00032657	515.09	1.2337e-05	1.3058e-05	423.72	145.44	1.2047e-05	1.2997e-05	131.46	45.484	45.697	18.255	1.2437e-05	20.651	234.770	307.642	264.350	185.184	356.686	511.199	183.361	189.884	315.406	249.313	187.689	191.520	194.440	198.654	275.009	194.995	-8191	255	
1003.892	1	1	0	0	0.095503	0.19651	0.06534	0.039718	0.17159	0.23451	0.10153	0.20077	0.14356	0.10225	0.081363	0.29745	0.051209	0.24469	0.045723	0.05053	-3.0021	-3.1021	-3.8042	-3.1729	-3.3521	-3.5687	-2.9208	-3.6604	-3.3708	-3.0229	-3.7896	-3.2938	-3.2792	-3.8875	-2.9271	-3.7875	365.089	252.474	292.594	505.589	351.228	257.487	327.652	512.563	440.268	302.866	257.810	333.932	463.003	503.358	368.543	246.367	0.00020119	0.00032	7.622e-05	518.42	3.8016e-06	7.2762e-06	424.18	146.38	3.5536e-06	4.7211e-06	131.31	45.361	45.538	18.299	5.2295e-06	20.768	0.00075817	0.0011893	0.00032406	516.77	1.2448e-05	1.3073e-05	423	146.32	1.2429e-05	1.3434e-05	132.55	46.124	46.319	18.488	1.2992e-05	21.031	236.913	243.705	285.637	184.377	316.342	258.623	183.271	189.881	297.646	284.914	187.615	191.178	194.412	198.526	329.836	194.864	-8191	255	
1003.989	1	1	0	0	0.22377	0.10282	0.19084	0.16603	0.02317	0.11606	0.31603	0.016211	0.15568	0.19626	0.35008	0.20481	0.06976	0.085519	0.12916	0.19994	-3.2083	-3.0125	-3.725	-3.1521	-3.475	-3.7146	-3.0438	-3.6271	-3.5917	-3.1646	-3.7146	-3.3521	-3.3792	-3.8625	-2.9833	-3.5542	365.735	275.510	435.764	243.782	508.323	309.074	197.137	289.914	523.622	353.221	363.004	507.507	301.362	284.604	480.471	218.302	0.00023344	0.00030034	9.0842e-05	515.4	2.4071e-06	3.98e-06	427.96	146.51	1.0256e-06	3.4387e-06	132.49	46.758	46.472	18.44	1.3859e-06	20.838	0.00078337	0.0012392	0.00033701	517.98	1.2799e-05	1.343e-05	426.91	147.09	1.2122e-05	1.3943e-05	133.66	47.249	46.822	18.651	1.3173e-05	21.127	241.544	298.109	210.587	184.395	241.977	324.875	183.755	189.974	345.389	414.718	187.926	192.295	194.604	198.452	273.438	194.703	-8191	255	
1004.085	1	1	0	0	0.13116	0.14073	0.1137	0.31058	0.091513	0.047387	0.16735	0.10638	0.261	0.17681	0.24681	0.17012	0.042384	0.20765	0.082809	0.185	-3.4562	-2.9396	-3.7229	-3.2938	-3.1271	-3.8042	-2.9708	-3.5667	-3.6083	-3.0187	-3.6042	-3.3833	-3.0958	-3.9708	-3.0979	-3.3208	312.003	404.521	466.796	465.452	284.935	228.142	201.897	417.570	413.561	413.127	513.690	225.630	389.903	312.431	237.330	447.324	0.00020613	0.0001333	0.0001128	519.57	4.7195e-06	1.2998e-06	427.77	145.61	3.4269e-06	3.2503e-06	132.02	46.428	45.907	18.283	1.5389e-06	20.635	0.00079042	0.0012398	0.0003389	518.06	1.2875e-05	1.3603e-05	425.51	146.9	1.2846e-05	1.4215e-05	132.91	46.943	46.525	18.514	1.2914e-05	21.057	232.368	202.512	284.590	184.749	424.125	397.804	183.666	190.278	326.461	341.869	187.967	191.781	194.845	199.049	281.224	195.159	-8191	255	
#DATA ENDS
