BOXY.EXE: ISS Imagent and Oximeter Data Acquisition Program Version 0.80
Ascii Record File

#ACQ INFORMATION
2  Detector Channels 
16  External MUX Channels 
1  Auxiliary Channels 
5000  Waveform (CCF) Frequency (Hz)
1  Waveforms Skipped 
30  Waveforms Averaged 
1  Cycles Averaged 
16  Acquisitions per Waveform 
10.0806  Updata Rate (Hz) 

#FILE INFORMATION
TRUE -- External MUX Channel results are PARSED.
FALSE -- AC DC and Phase are NOT grouped.
TRUE -- Companion Program Settings File CREATED.
FALSE -- AC data not excluded
FALSE -- DC data not excluded
FALSE -- Phase data not excluded
FALSE -- Auxillary Chn. data not excluded
Tab delimiters

#CALIBRATION STATE
TRUE -- Waveform Calibration Values APPLIED.


#AUX CALIBRATION VALUES
Val Type	aux-1	

Term	1.0000e+00	
Factor	0.0000e+00	


#WF CALIBRATION VALUES
A = Detector Channel
Val Type	A-AC1	A-AC2	A-AC3	A-AC4	A-AC5	A-AC6	A-AC7	A-AC8	A-AC9	A-AC10	A-AC11	A-AC12	A-AC13	A-AC14	A-AC15	A-AC16	A-DC1	A-DC2	A-DC3	A-DC4	A-DC5	A-DC6	A-DC7	A-DC8	A-DC9	A-DC10	A-DC11	A-DC12	A-DC13	A-DC14	A-DC15	A-DC16	A-Ph1	A-Ph2	A-Ph3	A-Ph4	A-Ph5	A-Ph6	A-Ph7	A-Ph8	A-Ph9	A-Ph10	A-Ph11	A-Ph12	A-Ph13	A-Ph14	A-Ph15	A-Ph16	

Term	0.00000e+00	0.00000e+00	0.00000e+00	0.00000e+00	0.00000e+00	0.00000e+00	0.00000e+00	0.00000e+00	0.00000e+00	0.00000e+00	0.00000e+00	0.00000e+00	0.00000e+00	0.00000e+00	0.00000e+00	0.00000e+00	0.00000e+00	0.00000e+00	0.00000e+00	0.00000e+00	0.00000e+00	0.00000e+00	0.00000e+00	0.00000e+00	0.00000e+00	0.00000e+00	0.00000e+00	0.00000e+00	0.00000e+00	0.00000e+00	0.00000e+00	0.00000e+00	0.00000e+00	0.00000e+00	0.00000e+00	0.00000e+00	0.00000e+00	0.00000e+00	0.00000e+00	0.00000e+00	0.00000e+00	0.00000e+00	0.00000e+00	0.00000e+00	0.00000e+00	0.00000e+00	0.00000e+00	0.00000e+00	
Factor	1.00000e+00	1.00000e+00	1.00000e+00	1.00000e+00	1.00000e+00	1.00000e+00	1.00000e+00	1.00000e+00	1.00000e+00	1.00000e+00	1.00000e+00	1.00000e+00	1.00000e+00	1.00000e+00	1.00000e+00	1.00000e+00	1.00000e+00	1.00000e+00	1.00000e+00	1.00000e+00	1.00000e+00	1.00000e+00	1.00000e+00	1.00000e+00	1.00000e+00	1.00000e+00	1.00000e+00	1.00000e+00	1.00000e+00	1.00000e+00	1.00000e+00	1.00000e+00	X	X	X	X	X	X	X	X	X	X	X	X	X	X	X	X	

B = Detector Channel
Val Type	B-AC1	B-AC2	B-AC3	B-AC4	B-AC5	B-AC6	B-AC7	B-AC8	B-AC9	B-AC10	B-AC11	B-AC12	B-AC13	B-AC14	B-AC15	B-AC16	B-DC1	B-DC2	B-DC3	B-DC4	B-DC5	B-DC6	B-DC7	B-DC8	B-DC9	B-DC10	B-DC11	B-DC12	B-DC13	B-DC14	B-DC15	B-DC16	B-Ph1	B-Ph2	B-Ph3	B-Ph4	B-Ph5	B-Ph6	B-Ph7	B-Ph8	B-Ph9	B-Ph10	B-Ph11	B-Ph12	B-Ph13	B-Ph14	B-Ph15	B-Ph16	

Term	0.00000e+00	0.00000e+00	0.00000e+00	0.00000e+00	0.00000e+00	0.00000e+00	0.00000e+00	0.00000e+00	0.00000e+00	0.00000e+00	0.00000e+00	0.00000e+00	0.00000e+00	0.00000e+00	0.00000e+00	0.00000e+00	0.00000e+00	0.00000e+00	0.00000e+00	0.00000e+00	0.00000e+00	0.00000e+00	0.00000e+00	0.00000e+00	0.00000e+00	0.00000e+00	0.00000e+00	0.00000e+00	0.00000e+00	0.00000e+00	0.00000e+00	0.00000e+00	-9.05658e+01	-1.26898e+02	-1.24483e+02	-1.83724e+02	-5.37553e+01	-6.73461e+01	-1.56230e+02	-1.61923e+02	-5.40194e+01	-7.09364e+01	-1.72497e+02	-1.69782e+02	-1.82572e+02	-1.76840e+02	-5.89923e+01	-1.49992e+02	
Factor	1.56069e-05	1.51563e-04	3.89356e-05	2.00537e-01	1.34946e-06	1.72342e-06	1.58949e-01	5.10371e-02	1.12946e-06	1.86802e-06	8.89495e-02	2.57654e-02	2.29960e-02	7.58840e-03	1.36366e-06	1.13387e-02	1.08764e-05	1.96114e-05	5.47076e-06	1.05810e-01	1.98849e-07	2.17421e-07	7.90648e-02	2.72056e-02	1.94852e-07	2.18053e-07	4.58390e-02	1.33896e-02	1.23890e-02	4.07640e-03	2.02936e-07	5.89380e-03	X	X	X	X	X	X	X	X	X	X	X	X	X	X	X	X	



#DISTANCE SETTINGS
A = Detector Channel
A-1	A-2	A-3	A-4	A-5	A-6	A-7	A-8	A-9	A-10	A-11	A-12	A-13	A-14	A-15	A-16	

1.0000e+01	1.0000e+01	1.0000e+01	1.4500e+00	1.0000e+01	1.0000e+01	1.5100e+00	1.9500e+00	1.0000e+01	1.0000e+01	2.0100e+00	2.5000e+00	2.4400e+00	2.9500e+00	1.0000e+01	3.0100e+00	

B = Detector Channel
B-1	B-2	B-3	B-4	B-5	B-6	B-7	B-8	B-9	B-10	B-11	B-12	B-13	B-14	B-15	B-16	

1.0000e+01	1.0000e+01	1.0000e+01	1.4500e+00	1.0000e+01	1.0000e+01	1.5100e+00	1.9500e+00	1.0000e+01	1.0000e+01	2.0100e+00	2.5000e+00	2.4400e+00	2.9500e+00	1.0000e+01	3.0100e+00	




#DATA BEGINS
time	group	step	mark	flag	A-AC1	A-AC2	A-AC3	A-AC4	A-AC5	A-AC6	A-AC7	A-AC8	A-AC9	A-AC10	A-AC11	A-AC12	A-AC13	A-AC14	A-AC15	A-AC16	A-DC1	A-DC2	A-DC3	A-DC4	A-DC5	A-DC6	A-DC7	A-DC8	A-DC9	A-DC10	A-DC11	A-DC12	A-DC13	A-DC14	A-DC15	A-DC16	A-Ph1	A-Ph2	A-Ph3	A-Ph4	A-Ph5	A-Ph6	A-Ph7	A-Ph8	A-Ph9	A-Ph10	A-Ph11	A-Ph12	A-Ph13	A-Ph14	A-Ph15	A-Ph16	B-AC1	B-AC2	B-AC3	B-AC4	B-AC5	B-AC6	B-AC7	B-AC8	B-AC9	B-AC10	B-AC11	B-AC12	B-AC13	B-AC14	B-AC15	B-AC16	B-DC1	B-DC2	B-DC3	B-DC4	B-DC5	B-DC6	B-DC7	B-DC8	B-DC9	B-DC10	B-DC11	B-DC12	B-DC13	B-DC14	B-DC15	B-DC16	B-Ph1	B-Ph2	B-Ph3	B-Ph4	B-Ph5	B-Ph6	B-Ph7	B-Ph8	B-Ph9	B-Ph10	B-Ph11	B-Ph12	B-Ph13	B-Ph14	B-Ph15	B-Ph16	aux-1	digaux	

934.155	1	1	0	768	0.063638	0.053473	0.25738	0.11093	0.078145	0.053776	0.067963	0.28789	0.12318	0.069085	0.20702	0.14941	0.23226	0.09938	0.11012	0.025918	-3.0646	-3.8438	-2.9396	-3.825	-3.4417	-3.1188	-3.7792	-3.0958	-3.3354	-3.7083	-3.1479	-3.8187	-3.4604	-3.1625	-3.8146	-3.1979	63.837	94.213	-28.012	104.494	165.617	5.506	50.396	153.758	6.859	46.589	41.168	128.813	-4.583	-80.693	-62.014	-52.149	0.00015243	0.00031769	0.00022399	635.45	3.4375e-06	5.4001e-06	548.76	194.49	3.7995e-06	7.9918e-06	183.12	67.677	69.095	26.465	5.8348e-06	27.897	0.0039484	0.0068888	0.001907	658.82	7.0043e-05	7.6072e-05	567.02	202.03	6.9928e-05	7.704e-05	195.7	71.793	73.183	27.893	7.6277e-05	29.677	-104.958	203.402	-26.636	-113.739	-19.592	-36.572	-114.875	-108.514	26.641	-119.752	-110.929	-107.335	-104.319	-100.719	-122.883	-104.508	-8191	255	
934.252	1	1	0	0	0.025977	0.12364	0.2549	0.27388	0.14708	0.17877	0.029667	0.10806	0.10717	0.096742	0.17818	0.20368	0.1588	0.15349	0.25208	0.27215	-3.0458	-3.7104	-2.9583	-3.8438	-3.5187	-3.0083	-3.8625	-3.1771	-3.2562	-3.9854	-3.0708	-3.6271	-3.6958	-3.0208	-3.8167	-3.2479	-5.387	163.375	200.675	109.436	-72.142	197.865	-65.047	143.837	-63.175	-1.826	202.301	229.610	105.240	-11.474	215.997	148.286	0.0001593	0.00097242	0.00010929	639.07	7.079e-06	6.8182e-06	549.12	194.48	8.7373e-06	1.4336e-05	180.96	67.244	69.326	26.521	3.5795e-06	27.447	0.0042542	0.0076252	0.0021593	664.62	8.1403e-05	9.1662e-05	570.81	203.24	8.5488e-05	9.7515e-05	198.39	72.573	74.422	28.211	9.7323e-05	30.098	-114.684	9.913	95.454	-114.219	87.074	68.018	-114.715	-108.431	-20.054	-11.249	-110.990	-107.396	-104.540	-100.634	224.655	-104.652	-8191	255	
934.348	1	1	0	0	0.047949	0.20217	0.13858	0.22187	0.21552	0.059918	0.13769	0.13345	0.16382	0.22605	0.26053	0.027592	0.18319	0.064465	0.15079	0.085747	-2.8063	-3.8688	-2.9021	-3.5312	-3.6146	-3.0167	-3.8708	-3.4333	-3.1833	-3.8604	-3.1813	-3.2854	-3.7646	-2.8458	-3.6958	-3.3333	6.027	-77.020	80.038	225.421	-12.734	231.543	189.849	-79.104	152.779	18.293	152.464	223.550	166.041	-18.713	30.404	184.008	0.00019203	0.000365	6.4502e-05	638.19	7.2465e-06	5.7385e-06	550.09	196.35	6.9625e-06	8.8363e-06	182.44	68.393	70.514	27.157	1.7116e-06	28.271	0.0054929	0.0097455	0.0027635	676.8	0.00010209	0.00011335	580.66	208.18	0.00010699	0.00011912	205.2	75.023	76.844	29.136	0.00011571	31.361	-99.099	-17.271	-15.553	-113.592	179.627	118.587	-114.834	-108.183	43.941	65.583	-111.206	-107.509	-104.524	-100.814	77.979	-104.354	-8191	255	
934.444	1	1	0	0	0.32752	0.12965	0.27253	0.1114	0.12921	0.050685	0.20883	0.23298	0.05103	0.059323	0.078823	0.1823	0.1505	0.18102	0.090763	0.091757	-2.8396	-3.8083	-3.0521	-3.45	-3.7604	-3.0125	-3.8021	-3.3729	-3.1292	-3.8458	-3.0271	-3.475	-3.6542	-3.0958	-3.5896	-3.6292	-31.840	-115.998	110.745	171.535	153.278	-110.600	210.401	63.317	213.106	-76.556	152.161	94.607	87.326	-7.425	62.540	151.940	0.00018717	0.0011105	0.00024082	645.51	4.8114e-06	8.3706e-06	554.82	199.27	2.349e-06	9.7275e-06	187.37	69.457	71.821	27.601	1.081e-05	28.436	0.0064474	0.011692	0.003286	695.59	0.00012624	0.00014168	598.91	216.17	0.00014158	0.00016355	218.84	79.739	81.912	30.952	0.00018548	33.881	-111.827	-74.101	-78.815	-113.510	168.977	108.781	-114.750	-108.785	137.067	18.655	-111.055	-107.479	-104.528	-100.876	-16.303	-104.512	-8191	255	
934.540	1	1	0	0	0.18275	0.12661	0.21928	0.054654	0.23231	0.23715	0.11866	0.1883	0.16181	0.031744	0.1333	0.26049	0.26575	0.20172	0.060096	0.16497	-2.7104	-3.7625	-3.275	-3.3271	-3.675	-3.1688	-3.6604	-3.5417	-3.1167	-3.8	-3.4021	-3.3	-3.8292	-3.2396	-3.4646	-3.6333	99.321	-101.977	89.474	173.198	216.577	19.552	152.777	-110.331	175.401	91.011	164.803	232.666	-88.299	140.499	3.281	-30.864	0.00021159	0.00058386	0.00021762	661.98	8.7634e-07	1.537e-05	576.9	207.23	5.8597e-06	7.3838e-06	194.41	70.631	73.278	27.309	5.1182e-06	27.666	0.010716	0.019916	0.0057329	764.17	0.00022846	0.00026027	664.33	239.94	0.00026066	0.00030095	257.22	89.855	91.895	33.567	0.00033717	37.515	-82.021	-85.369	87.162	-113.884	-23.304	60.208	-114.920	-108.430	-56.341	81.565	-110.683	-107.401	-105.005	-100.940	226.521	-104.311	-8191	255	
934.636	1	1	0	0	0.058034	0.13645	0.032997	0.11317	0.16127	0.013764	0.16013	0.12225	0.2143	0.17401	0.17958	0.14451	0.11613	0.20592	0.094604	0.39744	-2.6021	-3.8167	-3.3292	-3.1583	-3.8312	-3.125	-3.6458	-3.7687	-3.0333	-3.7313	-3.6396	-3.1667	-3.8708	-3.3083	-3.3958	-3.8	27.722	-75.602	70.764	173.708	131.197	91.353	-106.981	32.242	-43.533	117.371	94.886	23.397	-67.952	221.703	-119.587	52.266	0.00017304	0.0016789	0.00040812	693.13	2.5669e-05	3.2259e-06	601.09	224.37	4.9552e-06	1.1258e-05	208.73	71.83	77.765	26.173	2.9175e-06	26.463	0.019192	0.03535	0.010179	879.92	0.00039037	0.00043697	750.89	279.42	0.00041073	0.00046531	304.98	100.66	104.46	34.903	0.00044534	39.033	-84.073	-15.285	-22.645	-114.072	48.569	-113.787	-114.923	-108.867	51.445	-39.293	-111.428	-107.832	-105.206	-100.788	-107.092	-104.178	-8191	255	
934.757	1	1	0	0	0.050712	0.17754	0.13228	0.33381	0.085166	0.25213	0.082809	0.043296	0.15672	0.2567	0.13136	0.1587	0.057176	0.053902	0.14031	0.15834	-2.6917	-3.7229	-3.3083	-3.1604	-3.7979	-3.0771	-3.3979	-3.8333	-3.1	-3.6792	-3.5687	-3.1292	-3.8958	-3.2542	-3.3021	-3.9792	-38.535	-95.289	86.585	96.441	157.657	161.232	109.999	121.612	-3.628	220.592	5.656	66.387	116.269	-38.297	49.510	177.491	0.00021996	0.0004638	0.00040428	694.12	1.6582e-05	2.4575e-05	597.39	219.89	4.5597e-06	1.6894e-05	202.54	72.352	77.551	25.08	3.6607e-06	24.982	0.024034	0.043049	0.011966	911.52	0.00043328	0.00047236	758.58	277.79	0.00042212	0.0004711	296.84	100.69	103.08	33.322	0.00040887	36.464	-102.767	218.767	129.892	-113.673	113.422	-58.296	-114.726	-109.084	-55.178	-10.390	-110.910	-107.876	-105.629	-100.721	-29.325	-104.150	-8191	255	
934.851	1	1	0	0	0.10321	0.025267	0.19082	0.099683	0.1167	0.39772	0.23507	0.23568	0.059686	0.1007	0.049134	0.26621	0.21418	0.18286	0.27126	0.21298	-2.7021	-3.5687	-3.5375	-2.9021	-3.8146	-3.3979	-3.325	-3.8688	-3.0792	-3.5333	-3.7375	-3.1125	-3.9354	-3.4229	-3.0354	-3.9667	76.210	222.134	42.907	-72.857	104.633	174.347	-62.327	103.606	25.212	-119.861	-76.586	230.594	-90.118	-93.970	217.604	211.503	0.00014644	0.0011724	0.00047922	690.77	3.2645e-06	8.8948e-06	589.72	207.54	3.9632e-06	6.5372e-06	185.33	61.953	66.275	22.058	2.548e-06	22.523	0.021007	0.036876	0.010012	862.06	0.00033923	0.00035872	701.48	245.77	0.0002776	0.00029624	241.89	77.971	80.041	26.459	0.00022073	28.45	-51.802	195.909	-71.209	-113.814	-15.077	-2.513	-114.374	-108.757	104.711	71.482	-110.930	-107.292	-104.390	-100.270	-30.495	-103.320	-8191	255	
934.947	1	1	0	0	0.057757	0.29603	0.19449	0.33692	0.011629	0.065065	0.09149	0.12979	0.049719	0.13268	0.064754	0.17484	0.1815	0.012837	0.24838	0.084045	-2.7896	-3.5458	-3.6688	-3.2021	-3.6437	-3.4604	-3.3312	-3.8833	-3.1437	-3.4771	-3.8521	-3.0729	-3.7292	-3.4813	-3.3875	-3.9667	116.619	-94.177	-107.375	-21.293	68.227	18.336	50.255	180.284	78.110	-8.392	-117.437	-50.079	53.976	97.807	-85.571	-71.033	7.1402e-05	0.00070789	7.3011e-05	664.59	5.4251e-06	1.2047e-05	574.45	192.29	9.6043e-06	1.1011e-05	171.42	54.607	59.261	19.73	1.1765e-05	20.388	0.011199	0.019616	0.0053202	751.45	0.00018306	0.00019331	631.3	210.39	0.00015045	0.00015773	199.03	63.15	66.144	21.888	0.0001143	23.405	-90.680	193.822	229.253	-113.672	3.649	-119.161	-114.558	-108.159	19.701	42.155	-110.769	-106.697	-103.419	-99.774	-98.726	-102.580	-8191	255	
935.044	1	1	0	0	0.075954	0.12023	0.17892	0.31219	0.090826	0.025365	0.20298	0.1055	0.15365	0.2019	0.14877	0.16597	0.11955	0.082808	0.048318	0.18024	-2.9625	-3.3187	-3.8854	-3.2438	-3.6042	-3.5979	-3.1458	-3.8979	-3.0771	-3.3396	-4.0292	-3.1042	-3.6562	-3.7646	-3.0458	-3.7771	39.911	187.297	113.760	194.288	105.999	-59.829	145.968	74.281	107.899	-125.516	165.294	231.594	135.262	89.109	-87.182	203.994	0.0001243	0.00031628	0.00027607	706.29	2.6484e-06	3.4667e-06	595.71	189.81	1.7597e-06	5.2483e-06	167.25	53.875	58.239	20.132	4.365e-06	21.385	0.0057304	0.0097998	0.0026647	741.35	9.0422e-05	9.2126e-05	618.9	197.08	6.6624e-05	6.8428e-05	177.18	56.839	61.03	20.881	4.6412e-05	22.482	-93.237	97.258	-19.671	-113.426	22.809	-62.708	-114.435	-107.738	8.650	-49.951	-110.036	-105.967	-103.372	-98.835	-32.405	-102.536	-8191	255	
935.140	1	1	0	0	0.20166	0.080897	0.13732	0.27029	0.25789	0.11177	0.078041	0.1043	0.16331	0.25332	0.29267	0.45935	0.15705	0.032669	0.077662	0.029573	-3.0125	-3.1063	-3.9437	-3.0771	-3.5438	-3.5625	-3.0854	-3.8375	-3.4188	-3.0583	-4.0208	-3.1125	-3.3354	-3.625	-3.0812	-3.6	-4.922	-121.881	170.593	-106.082	-103.772	11.160	-54.655	225.403	7.401	12.624	93.994	-105.277	-85.065	217.508	-90.566	216.398	0.00011108	2.7017e-05	9.9323e-06	695.89	1.4299e-06	3.534e-06	581.76	189.98	3.0854e-06	2.0224e-06	166.52	55.079	58.45	21.583	2.0798e-06	23.798	0.002191	0.0034914	0.00088169	697.86	2.8807e-05	2.8634e-05	579.76	189.59	2.1396e-05	2.3587e-05	168.18	55.987	59.406	21.8	2.1493e-05	24.076	209.743	12.560	34.297	-113.487	56.641	117.747	-114.524	-107.827	31.876	82.299	-109.963	-106.008	-103.140	-98.810	-122.652	-102.546	-8191	255	
935.236	1	1	0	0	0.051726	0.27549	0.019705	0.42825	0.15513	0.095728	0.076601	0.075917	0.13341	0.22675	0.18169	0.34637	0.14431	0.23324	0.025528	0.038516	-3.1375	-3.175	-3.9458	-3.0729	-3.2958	-3.7854	-3.1	-3.5604	-3.5458	-3.1437	-3.8625	-3.2583	-3.3104	-3.5854	-2.9729	-3.7333	67.823	-65.592	-55.071	-109.353	115.855	102.440	-57.424	138.402	71.262	-87.333	47.995	49.048	223.130	214.057	-66.518	-6.544	0.00013123	0.00036901	8.4456e-05	668.14	1.2914e-06	5.5148e-06	563.24	194.57	1.9815e-06	1.702e-06	177.51	62.915	65.557	26.345	2.274e-06	29.725	0.0012708	0.0022066	0.00061698	665.79	2.1817e-05	2.2614e-05	556	193.91	1.7371e-05	1.8087e-05	176.9	63.422	66.018	26.353	1.4098e-05	29.833	-102.013	-33.516	21.887	-113.135	13.261	-11.519	-114.627	-107.613	14.059	-22.036	-110.224	-106.208	-103.279	-99.573	27.636	-102.980	-8191	255	
935.332	1	1	0	0	0.17834	0.18111	0.12683	0.11392	0.082653	0.067373	0.10961	0.23868	0.10273	0.11381	0.14355	0.12481	0.11055	0.15494	0.053464	0.24563	-3.3042	-3.0542	-3.7375	-3.2125	-3.2208	-4.0208	-3.1417	-3.575	-3.5583	-3.0667	-3.7729	-3.3646	-3.0396	-4.025	-2.8792	-3.6292	-84.091	217.132	38.935	166.934	-70.981	-38.386	176.872	165.459	206.678	229.848	109.099	173.296	-92.437	-85.950	-54.690	133.282	0.00014187	0.00023404	2.2374e-05	672.57	3.3167e-06	3.8284e-06	576.33	212.04	3.9651e-07	6.2159e-06	198.9	74.857	75.86	31.44	3.4464e-06	35.213	0.00084013	0.0013104	0.00036728	664.42	1.3717e-05	1.4781e-05	570.52	211.45	1.3987e-05	1.5862e-05	198.57	75.414	75.901	31.534	1.5636e-05	35.087	-117.677	-18.362	-38.103	-113.460	103.282	8.944	-114.183	-107.576	29.401	36.232	-110.335	-106.326	-103.510	-99.677	-45.924	-103.159	-8191	255	
935.453	1	1	0	0	0.32355	0.13703	0.15193	0.12207	0.1237	0.22075	0.101	0.18058	0.20807	0.19455	0.14432	0.24412	0.10415	0.36713	0.088746	0.1503	-3.2354	-2.9688	-3.5771	-3.325	-3.1083	-3.7896	-3.1188	-3.6479	-3.6854	-3.1063	-3.8021	-3.4167	-3.1437	-3.7458	-3.1458	-3.3521	163.233	54.545	-12.229	161.001	100.760	57.143	156.528	214.908	35.447	65.583	170.916	184.692	-94.157	-56.369	130.259	229.071	0.00017445	0.00039937	4.4881e-05	705.76	5.7444e-06	4.2246e-06	595.03	220.19	3.3526e-06	5.9593e-06	202.11	77.852	78.115	33.456	4.4177e-06	37.021	0.00095288	0.0015321	0.00042696	698.25	1.6451e-05	1.7504e-05	590.06	219.47	1.7703e-05	1.9831e-05	202.36	78.035	78.988	33.463	2.1535e-05	37.209	-120.250	-62.815	64.247	-113.118	11.082	-1.897	-114.518	-107.902	5.307	39.035	-110.395	-106.764	-103.703	-99.602	-88.136	-103.296	-8191	255	
935.549	1	1	0	0	0.20643	0.073778	0.14841	0.28684	0.1503	0.19191	0.14471	0.10108	0.13923	0.30559	0.11269	0.082536	0.20676	0.13669	0.10123	0.50177	-3.375	-3.0833	-3.7125	-3.6042	-3.0667	-3.8563	-3.3958	-3.4792	-3.9146	-3.0208	-3.7375	-3.6333	-2.9979	-3.9479	-3.2917	-3.3167	147.765	-56.387	-14.988	168.958	-55.456	110.335	195.791	157.717	44.153	0.583	-25.212	-30.510	127.023	202.231	12.836	223.970	0.00017474	0.00032445	4.3105e-05	738.16	2.4515e-06	7.4497e-06	615	230.26	5.493e-06	2.8747e-06	208.58	79.639	80.181	34.053	1.0898e-06	37.271	0.0013108	0.0021559	0.00059613	733.83	2.3104e-05	2.5316e-05	611.68	229.36	2.379e-05	2.6057e-05	209	80.543	81.431	34.302	2.6222e-05	37.677	227.482	-31.473	192.688	-113.304	70.493	31.378	-114.712	-107.946	18.194	-14.655	-109.906	-106.481	-103.752	-99.589	135.119	-103.232	-8191	255	
935.643	1	1	0	0	0.057254	0.11427	0.19858	0.26931	0.13721	0.16727	0.20056	0.37551	0.16596	0.12543	0.22103	0.16395	0.1096	0.1247	0.026247	0.071841	-3.5146	-2.9708	-3.5375	-3.6437	-3.0187	-3.8354	-3.3396	-3.3146	-3.8292	-2.95	-3.4896	-3.4938	-2.9979	-3.6375	-3.3167	-3.3187	-14.893	52.166	168.780	167.611	71.613	62.064	103.591	192.257	-93.947	-64.946	144.362	191.071	142.286	72.178	35.883	104.361	0.00023905	0.00078355	7.2519e-05	755.62	3.3209e-06	7.0499e-06	625.35	230.14	5.4584e-06	1.7329e-06	209.3	79.415	80.462	33.823	3.4352e-06	37.135	0.0016064	0.0027049	0.00077749	754.24	2.952e-05	3.2209e-05	626.46	231.66	3.0481e-05	3.4305e-05	211.61	81.203	81.829	34.247	3.2314e-05	37.554	-104.754	-56.747	224.836	-113.320	59.561	27.365	-114.195	-107.784	-40.668	-107.585	-110.325	-105.954	-103.545	-99.551	122.448	-103.034	-8191	255	
935.741	1	1	0	0	0.043211	0.29162	0.38032	0.21452	0.14398	0.05584	0.22991	0.29624	0.19328	0.21222	0.087034	0.11005	0.181	0.17683	0.31318	0.4499	-3.5146	-3.2542	-3.4	-3.675	-3.1271	-3.7792	-3.5833	-3.2104	-3.7979	-3.1104	-3.3042	-3.725	-3.05	-3.65	-3.5208	-3.0729	190.493	-88.720	-1.335	-36.300	129.203	24.199	102.816	136.665	156.215	60.133	-104.675	121.390	-63.198	191.293	1.668	155.364	0.00020853	0.00025086	0.00010242	749.18	2.5843e-06	1.0493e-05	625.82	230.01	3.2224e-06	5.527e-06	206.9	79.284	79.834	33.651	4.9749e-06	37.202	0.0018187	0.0029994	0.000824	750.4	2.9566e-05	3.2206e-05	624.13	230.25	2.9643e-05	3.3185e-05	209.96	80.687	81.35	33.991	3.142e-05	37.523	-122.517	-34.020	231.649	-113.415	37.901	2.142	-114.572	-108.149	15.424	18.233	-110.297	-106.561	-103.915	-99.855	71.807	-102.938	-8191	255	
935.835	1	1	0	0	0.16304	0.13327	0.090455	0.092057	0.13312	0.1197	0.26561	0.14528	0.097274	0.22124	0.1887	0.25212	0.1849	0.20225	0.38877	0.047006	-3.5271	-3.2625	-3.35	-3.8688	-3.0854	-3.7562	-3.7375	-3.2938	-3.7146	-3.2458	-3.3792	-3.7792	-3.1208	-3.6958	-3.7687	-3.2125	93.504	43.765	-114.082	-78.963	-46.198	-85.471	135.137	144.869	34.012	-54.794	212.885	88.384	-87.783	-17.071	-23.919	-76.962	0.00020105	0.00070815	0.00013124	745.14	3.5285e-06	5.226e-06	616.33	228.17	5.5859e-07	1.1998e-06	204.54	78.211	79.877	33.439	1.7535e-06	36.68	0.0018203	0.0030696	0.00084143	744.84	3.1471e-05	3.3263e-05	617.8	229.12	3.0669e-05	3.3921e-05	208.78	80.019	80.984	33.811	3.2336e-05	37.253	-124.976	-40.685	-36.639	-113.869	5.682	-41.744	-114.569	-108.262	-29.760	0.548	-110.691	-106.485	-103.647	-99.432	185.203	-103.603	-8191	255	
935.932	1	1	0	0	0.067597	0.1875	0.1128	0.10378	0.039458	0.057913	0.26601	0.28771	0.24489	0.14519	0.050462	0.16338	0.098513	0.094014	0.073447	0.17398	-3.4979	-3.2438	-3.3146	-3.8458	-3.1021	-3.4125	-3.6625	-3.0979	-3.8042	-3.4083	-3.05	-3.8438	-3.2854	-3.6896	-3.7104	-2.9667	-12.286	232.414	42.792	157.401	-98.951	213.817	139.709	156.758	116.170	148.261	-10.108	110.102	158.380	143.616	65.894	83.194	0.00018526	0.00073353	0.00013386	745.16	2.2725e-06	8.087e-06	617.29	226.86	5.2174e-06	8.0788e-06	203.92	78.693	79.36	33.471	4.5172e-06	36.993	0.0018416	0.0031546	0.00089392	745.4	3.2562e-05	3.6114e-05	615.21	227.9	3.2332e-05	3.6173e-05	207.76	80.285	81.093	33.974	3.5133e-05	37.627	224.797	-38.344	-41.461	-113.470	15.723	98.973	-114.627	-107.979	-44.340	-8.325	-110.601	-106.395	-103.713	-99.647	-4.786	-103.491	-8191	255	
936.028	1	1	0	0	0.080896	0.094187	0.20715	0.11997	0.17837	0.24401	0.051858	0.099775	0.22421	0.17769	0.10661	0.12903	0.25089	0.15993	0.18312	0.18027	-3.1875	-3.5167	-3.0083	-3.9604	-3.1646	-3.2958	-3.8104	-2.9583	-3.6125	-3.4896	-2.9646	-3.7229	-3.1854	-3.15	-3.7542	-3.0604	-72.403	-13.009	-41.890	214.862	229.981	-125.250	-41.857	150.251	219.789	-2.823	31.884	39.234	72.529	233.907	2.117	98.276	0.00011197	0.00074748	0.00012166	743.86	3.9185e-06	2.7131e-06	620.17	227.97	2.469e-06	2.004e-06	206.2	80.164	81.125	34.58	4.7755e-06	38.647	0.002017	0.0034496	0.00096092	745.49	3.6064e-05	3.9892e-05	618.98	230.66	3.6709e-05	4.0396e-05	211.53	81.916	82.554	35.14	3.8787e-05	39.23	-118.958	-50.346	-54.885	-113.702	105.965	130.892	-114.554	-107.980	19.086	25.231	-110.420	-106.629	-103.753	-99.685	83.282	-103.384	-8191	255	
936.124	1	1	0	0	0.017896	0.18826	0.13333	0.05651	0.080679	0.064032	0.34962	0.2056	0.29264	0.15934	0.20747	0.26316	0.27428	0.3105	0.04596	0.27691	-3.2479	-3.5854	-2.9896	-3.5917	-3.2646	-3.2646	-3.8104	-3.0812	-3.5646	-3.6271	-3.1875	-3.6042	-3.4396	-3.1937	-3.9271	-3.1458	-35.305	-74.343	-108.165	-122.056	65.774	186.721	190.924	170.595	-75.363	148.473	169.156	-93.982	155.019	-109.820	-103.258	140.584	0.00021443	0.00031575	8.7164e-05	752.16	5.2073e-06	4.2445e-06	623.73	231.76	1.0674e-06	1.6326e-06	210.26	82.235	82.559	35.891	2.8301e-06	39.93	0.0021535	0.0037455	0.0010492	754.44	3.8804e-05	4.2733e-05	624.77	234.02	3.9409e-05	4.4431e-05	216.05	84.507	84.367	36.381	4.3669e-05	40.813	-124.184	-38.475	-57.688	-113.062	40.414	164.004	-114.295	-108.055	53.254	-37.046	-110.440	-106.303	-103.822	-99.756	10.656	-103.404	-8191	255	
936.245	1	1	0	0	0.075316	0.10809	0.063203	0.30318	0.038262	0.25217	0.13322	0.33599	0.12277	0.28971	0.081958	0.26252	0.22738	0.34694	0.16932	0.21838	-3.0062	-3.7812	-2.7375	-3.7438	-3.375	-3.1562	-3.9271	-3.0458	-3.2792	-3.6479	-3.075	-3.6479	-3.5646	-3.2188	-3.7333	-3.2938	86.440	-106.597	-110.116	132.564	-41.589	-46.712	174.102	216.161	197.709	197.981	139.384	204.431	157.577	199.751	91.167	147.691	0.00023579	0.00072705	3.7018e-05	752.82	2.3784e-06	3.0311e-06	622	232.13	3.183e-06	1.0056e-05	211.92	83.594	83.121	36.665	6.4543e-06	40.997	0.0024631	0.0042766	0.0012061	759.38	4.3052e-05	4.7026e-05	628.88	235.1	4.1842e-05	4.6395e-05	217.47	85.57	85.289	37.306	4.2981e-05	41.689	-109.843	57.599	24.818	-113.525	28.440	120.234	-113.874	-108.030	108.290	-0.772	-110.126	-106.104	-103.801	-99.345	100.777	-103.395	-8191	255	
936.316	1	1	0	0	0.10592	0.046716	0.21837	0.37209	0.1169	0.035969	0.087016	0.20795	0.081608	0.089504	0.16066	0.098702	0.38181	0.13595	0.017825	0.27348	-2.9	-3.7458	-2.9521	-3.7667	-3.4188	-3.1188	-3.8646	-3.2771	-3.3937	-3.9646	-3.1188	-3.7125	-3.6813	-3.0229	-3.9354	-3.4167	-99.254	-96.940	164.039	232.690	179.363	198.544	-32.811	127.956	75.569	-38.782	172.625	152.539	202.919	185.254	54.311	109.380	0.00028759	0.00048671	8.9627e-05	756.95	5.5797e-06	7.488e-06	627.42	236.02	3.0075e-06	7.3314e-06	214.3	84.38	83.444	37.139	4.9439e-06	41.251	0.0025642	0.0043923	0.0012549	763.99	4.822e-05	5.4425e-05	634.09	238.57	5.1505e-05	5.8023e-05	220.47	87.185	86.441	38.054	5.6276e-05	42.683	-107.345	36.751	-67.725	-112.900	-35.170	29.722	-114.211	-107.606	-66.713	52.288	-110.086	-105.842	-103.834	-99.360	-29.005	-103.355	-8191	255	
936.437	1	1	0	0	0.18599	0.053174	0.15194	0.26019	0.1625	0.16144	0.20606	0.19846	0.21464	0.24776	0.2238	0.1534	0.12315	0.2458	0.14059	0.072623	-2.7396	-3.6979	-3.0104	-3.4979	-3.6	-2.975	-3.825	-3.4667	-3.1604	-3.8917	-3.2208	-3.45	-3.575	-2.9354	-3.7854	-3.575	211.970	183.601	-120.643	163.310	131.365	6.692	116.765	201.905	182.841	204.676	64.488	-112.016	224.348	183.287	69.824	145.528	0.00022645	0.00095725	0.00023301	753.12	1.8594e-06	4.4401e-06	625.12	233.69	4.9355e-06	5.2806e-06	212.16	83.933	83.937	37.034	4.4155e-06	41.326	0.0031279	0.0053399	0.001482	764.49	5.2097e-05	5.6409e-05	631.11	237.39	5.0049e-05	5.4766e-05	219.48	86.8	86.008	37.801	5.195e-05	42.372	-108.348	-10.180	-25.059	-113.089	66.269	184.831	-113.814	-107.596	24.518	-2.756	-109.944	-106.074	-103.399	-99.094	-4.075	-103.060	-8191	255	
936.533	1	1	0	0	0.089415	0.20702	0.15843	0.21227	0.17275	0.18165	0.14709	0.18265	0.2726	0.062674	0.015522	0.22375	0.041884	0.15299	0.090083	0.19064	-2.7083	-3.9604	-3.1979	-3.4562	-3.5687	-2.9854	-3.9979	-3.5875	-3.0521	-3.7812	-3.1667	-3.2396	-3.9625	-3.1437	-3.6708	-3.5979	-94.688	187.815	180.338	151.068	89.833	189.338	198.792	140.895	101.816	6.762	87.710	-63.633	135.569	80.460	234.523	134.366	0.00021799	0.00063508	0.0001686	749.41	6.4668e-06	1.1553e-05	622.36	232.34	1.582e-06	5.4735e-06	211.5	83.8	83.058	36.732	1.4219e-06	41.351	0.0029313	0.0051934	0.0014696	760.59	5.3881e-05	5.9661e-05	631.62	236.37	5.3984e-05	6.0656e-05	219.87	86.601	85.784	37.614	5.5572e-05	42.381	-119.349	-94.491	20.664	-112.757	33.614	22.217	-113.509	-106.963	-52.759	64.716	-110.097	-105.474	-102.941	-98.939	5.374	-102.698	-8191	255	
936.629	1	1	0	0	0.13777	0.08665	0.038491	0.01541	0.34819	0.15648	0.17994	0.064691	0.2465	0.14784	0.11407	0.14079	0.21292	0.23599	0.061146	0.31829	-2.7729	-3.7521	-3.2479	-3.3875	-3.7667	-3.0958	-3.5417	-3.7396	-3.0667	-3.8792	-3.3271	-3.1729	-3.8563	-3.1521	-3.6271	-3.8187	133.371	48.825	-38.280	56.072	18.046	-64.848	179.461	-66.571	77.760	69.160	28.971	203.904	133.365	163.897	-36.961	157.286	0.00025498	0.00059642	5.5265e-05	744.08	7.258e-06	5.1373e-06	615.24	229.86	7.0778e-06	1.007e-05	208.62	83.222	82.241	36.685	7.8264e-07	40.756	0.003145	0.0054143	0.0014903	758.54	5.5441e-05	5.9833e-05	625.65	234.86	5.4222e-05	5.9851e-05	217.7	85.782	85.368	37.54	5.742e-05	42.001	-112.365	-13.627	-9.199	-113.283	16.033	-6.592	-114.119	-108.054	68.251	20.748	-110.733	-106.181	-103.816	-99.986	66.766	-103.534	-8191	255	
936.725	1	1	0	0	0.062974	0.16564	0.22046	0.11962	0.19591	0.12413	0.060554	0.23349	0.16745	0.16098	0.36946	0.091801	0.098677	0.069667	0.25513	0.17175	-2.5563	-3.8167	-3.2333	-3.0438	-3.7875	-3.0917	-3.5292	-3.6875	-2.9771	-3.8375	-3.5271	-3.0292	-3.5354	-3.1375	-3.3583	-3.7917	123.613	195.577	103.651	168.647	105.009	118.571	0.280	150.456	68.605	80.930	160.416	196.349	176.244	-19.607	-14.753	-64.879	0.00025468	0.00014662	5.451e-05	736.44	6.1061e-06	6.3778e-06	609.87	230.38	5.814e-06	8.7968e-06	208.42	82.251	81.747	36.307	5.2342e-06	40.433	0.0032281	0.0056298	0.0015772	751.34	5.7406e-05	6.256e-05	620.06	234.21	5.6767e-05	6.3683e-05	216.91	85.464	84.867	37.271	6.2877e-05	41.759	-124.533	31.951	136.881	-113.200	-20.828	-115.128	-114.194	-107.929	-72.358	-53.888	-110.520	-106.171	-103.689	-99.708	-90.661	-103.649	-8191	255	
936.844	1	1	0	0	0.068674	0.29303	0.10842	0.095915	0.068804	0.18358	0.10886	0.26875	0.071886	0.28493	0.062045	0.20155	0.16203	0.10774	0.32157	0.18795	-2.6542	-3.5104	-3.4292	-3.1542	-3.9271	-3.4146	-3.4208	-3.7042	-3	-3.5729	-3.7479	-3.0271	-3.8208	-3.1875	-3.1583	-3.7729	-116.742	198.203	-114.348	102.803	80.842	183.252	-119.213	206.858	-64.289	192.600	-67.642	213.779	61.237	180.975	-76.153	65.508	0.00022425	8.7601e-05	0.00023201	734.86	5.9753e-06	6.1193e-06	603.07	227.39	6.0336e-06	2.9058e-06	208.45	81.645	80.975	36.045	4.6112e-06	40.024	0.0034633	0.0059371	0.0016318	747.93	5.6553e-05	6.2781e-05	614.93	231.64	5.7159e-05	6.3506e-05	216.28	84.714	83.932	36.865	5.9507e-05	41.354	-113.976	207.044	-7.141	-113.149	14.268	23.095	-114.233	-107.768	27.636	3.263	-110.106	-106.024	-103.328	-99.967	197.674	-103.089	-8191	255	
936.940	1	1	0	0	0.2064	0.10065	0.084712	0.24924	0.21226	0.19246	0.19406	0.29956	0.090621	0.14722	0.11388	0.18048	0.054283	0.017743	0.066978	0.32627	-2.6625	-3.4583	-3.7125	-3.0438	-3.7021	-3.1979	-3.2125	-3.9375	-3.2542	-3.6104	-3.6708	-3.0917	-3.9146	-3.4542	-3.1146	-3.9354	-101.723	-79.841	-26.957	150.714	75.425	104.001	127.792	130.894	213.222	9.839	-111.107	213.215	188.775	-31.027	81.668	185.405	0.00027038	0.00055528	0.00025228	723.69	1.9556e-06	1.1237e-05	599.22	226.25	1.0303e-06	9.3434e-06	206.82	81.477	80.508	35.506	8.9523e-06	39.55	0.0033127	0.0057251	0.0016029	738.84	5.6986e-05	6.1952e-05	610.98	230.61	5.4714e-05	6.064e-05	214.93	84.31	83.257	36.396	5.7594e-05	40.802	-108.628	-80.405	-61.722	-112.931	-28.688	-34.353	-114.326	-107.905	23.706	28.399	-110.390	-106.286	-103.442	-99.590	61.604	-103.434	-8191	255	
937.012	1	1	0	0	0.066627	0.09508	0.14171	0.12015	0.080446	0.14753	0.21108	0.18934	0.14423	0.25614	0.36979	0.082588	0.14786	0.088708	0.18296	0.19145	-2.6917	-3.4396	-3.7125	-3.1542	-3.7521	-3.4688	-3.1271	-4.0542	-3.1979	-3.3771	-3.8854	-2.8646	-3.6208	-3.7354	-3.1	-3.8979	-6.659	72.968	71.858	-25.499	105.351	107.099	196.763	13.389	42.559	74.002	158.366	-83.930	125.580	-73.129	-23.389	-111.117	0.00023136	0.00052363	0.00018578	723.88	8.304e-07	9.4762e-07	593.62	224.84	4.8685e-07	8.0117e-06	203.27	79.863	78.656	34.929	8.899e-06	39.066	0.0032065	0.0055193	0.0015439	735.79	5.6921e-05	6.2551e-05	605.2	228.9	5.5841e-05	6.3434e-05	211.87	82.888	82.024	35.809	5.7789e-05	40.096	232.927	11.787	-31.731	-113.070	195.799	-23.571	-114.666	-107.609	69.729	2.206	-110.055	-106.072	-103.593	-99.652	-33.927	-103.053	-8191	255	
937.133	1	1	0	0	0.069	0.20732	0.14645	0.12288	0.099473	0.10768	0.30621	0.14943	0.29055	0.20747	0.078052	0.35849	0.21278	0.033622	0.17453	0.27808	-2.8354	-3.1979	-3.6583	-3.0646	-3.5312	-3.5438	-3.0187	-3.9062	-3.1813	-3.2771	-3.7313	-3.1354	-3.5604	-3.8417	-2.9375	-3.775	2.958	152.282	89.944	210.330	-42.590	44.719	-112.029	160.516	150.210	34.302	1.953	187.588	-27.910	-101.206	152.404	-11.538	0.00021003	0.00030508	0.00012054	717.32	6.7845e-06	1.0209e-05	589.1	222.97	2.1031e-06	9.4547e-06	201.14	79.103	79.232	35.031	3.0032e-06	39.177	0.0032115	0.0055835	0.0015325	728.37	5.59e-05	6.0376e-05	597.11	226.79	5.304e-05	5.928e-05	210.05	82.214	82.049	35.887	5.7353e-05	40.455	-122.298	37.447	21.479	-112.889	108.335	119.688	-114.026	-107.564	40.616	41.304	-110.510	-106.165	-103.187	-99.549	78.056	-102.772	-8191	255	
937.229	1	1	0	0	0.078943	0.095922	0.052931	0.084861	0.31004	0.1852	0.19911	0.02219	0.063184	0.16498	0.087656	0.066678	0.097289	0.10849	0.058755	0.0089031	-3.0479	-3.0229	-3.9833	-3.2104	-3.4292	-3.8333	-3.2292	-3.8146	-3.3896	-3.1021	-3.7438	-3.3167	-3.5917	-3.8187	-2.9646	-3.6042	-101.504	-124.714	231.105	-24.094	37.727	200.775	83.785	-124.635	34.141	176.467	179.801	233.414	112.094	-1.162	169.177	24.191	0.00027197	0.00026995	0.00026667	716.88	5.9229e-06	4.5989e-06	591.29	223.36	7.0895e-06	1.0399e-05	201.93	79.968	79.071	35.256	5.5389e-06	39.265	0.0032755	0.0056098	0.0015823	727.42	5.6509e-05	6.0773e-05	598.74	227.64	5.4189e-05	6.0367e-05	210.85	82.72	82.225	36.021	5.6255e-05	40.428	-119.693	7.623	-62.236	-113.075	95.536	-47.624	-114.018	-107.507	36.337	54.394	-109.997	-105.995	-103.131	-99.402	-10.143	-103.165	-8191	255	
937.325	1	1	0	0	0.12079	0.16365	0.18996	0.3563	0.26683	0.18529	0.012869	0.12576	0.093419	0.278	0.060264	0.28518	0.20486	0.061774	0.18599	0.083137	-3.075	-3.2	-3.7292	-3.0812	-3.3104	-3.7708	-3.125	-3.7208	-3.5083	-3.1604	-3.7562	-3.2812	-3.225	-3.9125	-2.9333	-3.7271	231.691	-28.043	100.845	152.510	-97.684	-78.926	42.217	125.311	44.393	122.666	-50.660	-74.695	-102.330	-105.640	143.217	205.252	0.00016884	0.00022082	0.00012995	713.22	4.508e-06	4.4216e-06	590.92	223.22	6.6389e-06	1.6693e-05	203.49	79.886	79.327	35.109	3.7639e-06	39.363	0.0031949	0.00554	0.0015246	726.96	5.7148e-05	6.2517e-05	599.83	227.75	5.6824e-05	6.3151e-05	211.88	83.054	82.255	36.07	5.8954e-05	40.599	-117.169	-34.300	127.916	-112.417	-19.089	37.213	-113.984	-107.480	43.951	9.366	-110.180	-106.203	-103.560	-99.814	65.885	-103.145	-8191	255	
937.421	1	1	0	0	0.12816	0.38282	0.059424	0.25975	0.20817	0.10266	0.13416	0.22231	0.18833	0.12955	0.36317	0.24943	0.37479	0.19966	0.20666	0.19433	-3.3396	-2.9562	-3.7812	-3.1417	-3.0146	-3.7854	-3.0083	-3.5146	-3.5604	-3.0854	-3.7687	-3.4125	-3.075	-3.9167	-3.0021	-3.3812	20.497	192.546	69.955	209.448	106.548	-19.741	-119.137	-63.857	129.523	226.388	199.205	202.343	197.815	-45.932	4.855	112.822	0.00019837	0.0009501	0.00015154	709.37	9.4691e-06	1.0048e-05	587.29	219.91	5.1219e-06	6.5348e-06	201.16	78.995	78.902	34.69	8.1246e-06	38.644	0.0032637	0.0056529	0.0015807	722.19	5.7997e-05	6.3746e-05	595.71	225.42	5.6458e-05	6.3587e-05	209.62	82.162	81.494	35.647	5.8513e-05	39.909	-120.280	-90.441	-118.156	-112.504	34.734	-46.705	-113.826	-107.207	-35.341	183.706	-110.655	-106.188	-103.024	-99.209	51.290	-102.960	-8191	255	
937.540	1	1	0	0	0.19542	0.37709	0.094679	0.19736	0.063917	0.12915	0.057942	0.59293	0.14074	0.052054	0.072875	0.060484	0.10405	0.25341	0.13703	0.074057	-3.2271	-3.0146	-3.6104	-3.5083	-2.95	-3.8521	-3.075	-3.375	-3.5417	-3.0604	-3.7375	-3.5563	-2.9667	-3.8688	-3.1813	-3.4417	-111.736	-16.548	93.045	-51.526	-12.620	191.025	-90.492	224.420	88.503	139.741	46.465	160.515	219.892	209.152	-97.979	-73.333	0.00020087	0.00050104	0.00011959	699.43	3.6289e-06	7.8609e-06	578.92	219.46	9.3967e-07	7.0787e-06	198.47	78.866	78.325	34.745	6.1421e-06	38.836	0.0032074	0.0055803	0.001548	715.92	5.6278e-05	6.0995e-05	588.16	223.74	5.4753e-05	6.0275e-05	207.54	81.585	80.95	35.557	5.5212e-05	39.897	224.892	-76.524	-49.896	-113.064	33.157	7.119	-114.331	-107.981	35.968	5.567	-110.438	-106.425	-103.455	-99.605	-52.731	-103.465	-8191	255	
937.613	1	1	0	0	0.15847	0.12494	0.21335	0.031362	0.12928	0.16338	0.081513	0.033321	0.041283	0.2089	0.19782	0.23359	0.25283	0.15245	0.22912	0.18478	-3.2708	-3.0708	-3.5729	-3.5042	-3.0625	-3.6354	-3.025	-3.3417	-3.7313	-2.8521	-3.4604	-3.5771	-2.9771	-3.6958	-3.2604	-3.2583	98.202	136.883	226.450	225.180	77.313	-1.247	134.372	156.711	-105.500	46.541	112.363	208.348	220.879	227.484	-52.198	168.789	0.00020889	0.00034251	6.4041e-05	699.08	3.208e-06	5.4409e-06	574.76	218.92	2.3474e-06	1.088e-05	198.39	78.456	77.637	34.618	3.2839e-06	38.506	0.0030186	0.0051951	0.0014743	712.32	5.4759e-05	5.8744e-05	587.72	222.85	5.3422e-05	6.0361e-05	207.94	81.351	80.425	35.445	5.8792e-05	39.77	-124.756	66.955	29.312	-113.143	126.963	-39.782	-114.207	-107.849	136.786	-21.269	-109.953	-105.968	-103.377	-99.673	62.253	-103.178	-8191	255	
937.710	1	1	0	0	0.13938	0.065291	0.12957	0.1462	0.17539	0.12742	0.28776	0.20714	0.082144	0.093063	0.1936	0.17358	0.14405	0.2048	0.25729	0.16931	-3.4292	-3.0896	-3.3375	-3.8021	-2.9021	-3.7271	-3.3771	-3.0979	-3.7542	-3.0667	-3.4521	-3.6271	-3.0312	-3.7667	-3.3229	-2.9875	112.341	-1.771	-38.494	-122.545	196.033	109.540	101.460	109.679	179.292	-52.141	162.711	165.646	188.635	-98.287	-6.898	113.552	0.00027535	0.00037564	0.00023528	697.01	7.4452e-06	1.1379e-05	570.69	215.64	6.4407e-06	1.2581e-05	198.37	77.351	77.021	34.107	4.0212e-06	37.964	0.0033221	0.0058292	0.0016159	712.08	5.9138e-05	6.4685e-05	585.4	220.78	5.7245e-05	6.3698e-05	207.17	80.696	79.788	35.013	5.9009e-05	39.278	231.458	18.253	-74.141	-113.064	-70.452	-27.327	-114.018	-107.965	80.076	16.818	-110.445	-106.306	-103.548	-99.361	91.912	-103.277	-8191	255	
937.806	1	1	0	0	0.13724	0.31072	0.07533	0.20902	0.21438	0.15969	0.062649	0.062631	0.31276	0.2203	0.24373	0.042046	0.13299	0.14724	0.20623	0.10673	-3.4813	-3.125	-3.3208	-3.8583	-3.05	-3.6792	-3.5833	-3.0938	-3.6667	-3.0354	-3.2958	-3.75	-2.9042	-3.7354	-3.5167	-2.9958	122.020	99.081	-94.022	162.807	142.615	-19.146	-94.961	-117.863	-11.561	189.972	57.569	123.682	222.947	125.355	-48.450	62.834	0.00023878	0.00037755	0.00013495	687.86	5.5499e-06	6.2287e-06	568.43	213.24	2.0929e-06	3.5305e-06	195.06	75.613	75.242	33.198	5.1985e-06	36.954	0.0033135	0.0057439	0.0016086	704.01	5.7945e-05	6.2222e-05	579.54	217.81	5.5472e-05	6.2498e-05	203.56	78.833	77.973	34.056	5.7341e-05	38.044	-117.435	200.663	-13.240	-113.080	38.702	-47.496	-113.897	-107.417	25.284	139.199	-109.575	-105.859	-102.494	-99.375	2.412	-103.258	-8191	255	
937.925	1	1	0	0	0.096955	0.10816	0.076045	0.13344	0.03449	0.09788	0.10718	0.31675	0.14816	0.47613	0.037682	0.043389	0.15853	0.097275	0.17535	0.26922	-3.4188	-3.1854	-3.2271	-3.8438	-2.9167	-3.5187	-3.8208	-3.0167	-3.6146	-3.1896	-3.2208	-3.8937	-2.9062	-3.6375	-3.5479	-2.9688	224.726	198.538	101.243	145.561	-28.861	189.683	152.566	153.109	50.044	-102.494	-88.704	174.050	-88.408	-70.418	171.957	213.242	0.00029038	0.00024625	0.00010113	679.53	8.4178e-06	1.6331e-05	561.44	210.49	4.1259e-06	3.1695e-06	192.13	73.813	73.478	32.338	7.1608e-06	35.783	0.0032005	0.0055466	0.0015487	694.31	5.5226e-05	6.0675e-05	572.5	214.9	5.3999e-05	6.1285e-05	200.16	77.007	76.575	33.226	5.888e-05	37.056	-123.363	89.344	-0.505	-113.602	-26.186	50.810	-114.393	-107.796	-103.241	107.288	-110.816	-106.338	-103.718	-99.808	-19.643	-103.623	-8191	255	
938.021	1	1	0	0	0.063168	0.25944	0.15503	0.25152	0.058827	0.10057	0.12905	0.060642	0.19561	0.033379	0.19027	0.18309	0.18677	0.11527	0.079792	0.11161	-3.4688	-3.3271	-3.0667	-3.9062	-3.0667	-3.2708	-3.7583	-3.2562	-3.8312	-3.4437	-3.0208	-3.6875	-3.1583	-3.5042	-3.6417	-3.1104	-91.299	-5.862	-71.071	73.243	-3.475	45.818	-107.784	-77.266	-13.877	106.193	-113.042	161.471	225.983	-60.342	103.702	169.201	0.00025869	0.00058868	8.0726e-05	680.03	5.6744e-06	5.0463e-06	561.81	208.32	4.7721e-06	2.4124e-06	188.4	73.74	73.582	32.569	4.1449e-06	36.218	0.0032513	0.0056668	0.0015648	693.09	5.6533e-05	6.1194e-05	571.24	212.83	5.3383e-05	5.8659e-05	198.82	76.431	76.06	33.311	5.3625e-05	37.132	-106.290	-29.550	-88.477	-112.863	5.233	52.706	-114.123	-107.867	230.877	-29.392	-110.053	-106.297	-103.302	-99.338	162.752	-103.272	-8191	255	
938.117	1	1	0	0	0.19549	0.14554	0.21781	0.13652	0.07519	0.097342	0.27358	0.10192	0.17377	0.10879	0.25278	0.081214	0.23045	0.19649	0.12779	0.13017	-3.2167	-3.5187	-3.0771	-3.7729	-3.0875	-3.3	-3.6958	-3.0625	-3.5438	-3.5708	-2.9375	-3.8042	-3.1896	-3.2958	-3.7812	-3.0333	14.096	161.072	57.183	-86.478	223.814	-116.889	-106.821	224.726	200.417	-44.521	83.925	111.063	165.892	-109.285	-25.868	-112.156	0.00016257	0.00019887	0.00015989	679	2.8345e-06	9.0339e-07	561.69	210.77	4.6738e-06	8.0416e-06	192.82	74.267	73.48	32.788	1.3825e-06	36.717	0.0029194	0.0050571	0.0014177	687.01	5.0966e-05	5.5424e-05	569.09	213.4	4.8807e-05	5.5065e-05	199.21	77.093	76.334	33.584	5.0847e-05	37.649	-116.933	-16.880	-66.201	-112.530	63.641	51.501	-113.554	-106.948	198.978	43.429	-110.541	-106.350	-103.324	-99.710	81.536	-103.222	-8191	255	
938.213	1	1	0	0	0.067018	0.0035583	0.07864	0.050641	0.029648	0.33631	0.055934	0.064488	0.080423	0.073599	0.063143	0.2554	0.23508	0.089875	0.19342	0.11538	-3.2292	-3.5583	-3.0083	-3.8042	-3.3792	-2.9021	-3.9917	-3.2042	-3.5021	-3.7875	-2.9771	-3.8104	-3.4646	-2.9917	-3.6813	-3.1125	125.592	10.222	98.694	65.158	81.102	-42.152	176.156	215.691	-110.387	-99.858	42.066	-30.181	-20.074	-124.431	120.782	201.469	0.0001871	0.00065547	5.6913e-05	678.73	6.2088e-06	2.278e-06	560.52	208.25	3.4313e-06	7.1846e-06	190.93	73.617	73.478	32.647	4.9817e-06	36.187	0.0028529	0.0048688	0.0014007	687.18	5.0802e-05	5.569e-05	568.86	211.78	5.0493e-05	5.7044e-05	198.58	76.493	76.118	33.38	5.4202e-05	37.244	-121.833	-40.518	59.167	-112.502	-45.554	16.551	-113.539	-107.277	74.880	47.796	-110.035	-106.305	-104.161	-99.766	-84.045	-103.875	-8191	255	
938.309	1	1	0	0	0.18745	0.27712	0.057861	0.14775	0.028204	0.24503	0.21308	0.17411	0.16043	0.29476	0.18689	0.17674	0.010554	0.14678	0.23485	0.048131	-3.0229	-3.6125	-2.8958	-3.775	-3.5062	-3.1208	-3.9562	-3.0083	-3.2417	-3.7271	-3.0438	-3.6354	-3.5083	-2.9813	-3.95	-3.2646	223.865	159.705	171.710	34.785	-14.616	53.756	-115.769	125.735	97.240	71.988	139.275	-30.007	160.546	-61.962	23.920	132.975	0.00019568	0.00088956	0.00022212	673.47	3.9743e-06	5.5444e-06	558.04	205.22	5.1377e-06	4.041e-06	188.91	72.507	71.877	32.315	5.7523e-06	35.578	0.0030425	0.005224	0.0014486	682.55	5.2183e-05	5.6612e-05	564.41	209.85	5.1419e-05	5.8082e-05	197.04	75.779	75.044	33.08	5.6184e-05	36.815	-118.196	-31.496	-43.706	-113.173	56.043	134.651	-114.050	-108.035	16.326	-88.954	-110.313	-106.447	-103.775	-100.057	-29.800	-103.724	-8191	255	
938.405	1	1	0	0	0.16806	0.088798	0.049617	0.20186	0.10883	0.15115	0.18305	0.10746	0.13834	0.10087	0.22028	0.077023	0.26344	0.1246	0.098228	0.14186	-2.8292	-3.6667	-3.0292	-3.625	-3.8417	-2.9479	-3.8563	-3.3104	-3.2	-3.8125	-3.0458	-3.5896	-3.5917	-2.9229	-3.8458	-3.1667	-38.931	-35.213	115.294	51.020	209.615	120.740	135.655	178.825	140.139	162.807	158.474	-103.130	206.237	57.208	93.344	-84.621	0.00029773	0.0007806	9.8612e-05	664.92	8.3809e-06	5.9887e-06	553.8	204.56	4.4149e-06	1.401e-06	188.2	71.884	72.007	31.678	2.4105e-06	34.963	0.0031304	0.0054521	0.0015338	680.9	5.6077e-05	6.1866e-05	563.95	209.62	5.6485e-05	6.3313e-05	196.59	75.457	74.993	32.646	6.1136e-05	36.374	-107.479	-53.287	152.425	-113.134	42.609	-80.293	-113.937	-107.892	39.972	25.850	-110.162	-105.876	-103.520	-99.905	-7.687	-103.656	-8191	255	
938.526	1	1	0	0	0.068739	0.3242	0.16287	0.1194	0.088693	0.16623	0.1404	0.24162	0.15318	0.16056	0.062389	0.24916	0.13534	0.24295	0.10623	0.14834	-2.6771	-3.8479	-3.1458	-3.3	-3.6292	-3.0312	-3.6583	-3.3542	-3.1146	-3.8063	-3.3063	-3.4938	-3.7687	-2.9938	-3.5708	-3.3896	66.455	-58.944	-24.609	-122.906	6.508	214.047	96.559	153.877	105.822	211.944	166.283	143.802	-125.134	153.716	78.406	73.362	0.00024284	0.000591	5.5707e-05	665.42	1.2975e-06	1.1482e-05	552.62	202.05	3.5184e-06	1.5803e-06	185.51	71.26	70.905	31.009	4.172e-06	34.356	0.0034596	0.0060157	0.0016747	681.92	6.1393e-05	6.7246e-05	564.89	208.22	6.0417e-05	6.7328e-05	196.32	74.638	74.019	32.079	6.2489e-05	35.896	-93.558	4.448	128.075	-113.026	160.627	26.021	-114.093	-108.214	31.787	-40.823	-110.825	-106.143	-103.731	-100.036	14.940	-103.437	-8191	255	
938.622	1	1	0	0	0.29627	0.15792	0.19629	0.066875	0.085985	0.37453	0.064877	0.33148	0.10403	0.21737	0.22346	0.20627	0.19096	0.16117	0.18424	0.12173	-2.7062	-3.75	-3.1917	-3.4292	-3.7375	-2.9562	-3.6021	-3.5146	-2.8458	-3.6583	-3.0875	-3.2083	-3.7313	-2.9104	-3.6208	-3.7188	233.252	42.235	31.504	26.572	19.346	162.536	45.474	159.374	200.047	229.278	-103.007	215.173	-111.711	200.622	10.378	193.661	0.00019222	0.00081135	0.00033364	662.3	9.0096e-06	9.0634e-06	547	200.56	5.7038e-06	4.2891e-06	183.48	69.611	69.154	30.326	2.5218e-06	33.098	0.0035382	0.0062102	0.0017406	680.52	6.4622e-05	7.0765e-05	561.37	206.67	6.3601e-05	7.0241e-05	195.48	73.373	72.797	31.354	6.6755e-05	34.777	-106.811	-61.702	-4.195	-113.151	50.800	19.637	-114.060	-108.059	83.961	-0.652	-110.451	-106.141	-103.569	-99.876	33.727	-103.499	-8191	255	
938.716	1	1	0	0	0.24486	0.20376	0.21656	0.1444	0.28908	0.072036	0.30253	0.17087	0.061106	0.27028	0.08061	0.12661	0.16405	0.11411	0.19034	0.16471	-2.7521	-3.6875	-3.15	-3.2458	-3.8563	-2.9583	-3.6229	-3.6271	-2.9979	-3.6667	-3.5417	-3.25	-3.8583	-3.1937	-3.4896	-3.675	229.465	-37.092	-43.158	136.153	-83.128	-68.150	127.717	-59.388	232.079	120.403	179.535	210.498	213.477	-114.152	180.400	83.849	0.00021066	0.00027301	0.00012349	658.81	1.0268e-05	3.3029e-06	545.06	198.5	5.9823e-06	2.9074e-06	180.5	68.354	69.311	29.998	3.4416e-06	32.744	0.0036717	0.0064391	0.0017969	676.19	6.6358e-05	7.2658e-05	558.46	204.98	6.4785e-05	7.2507e-05	192.93	72.207	72.377	30.995	6.6338e-05	34.505	-108.853	-44.325	-99.448	-113.105	45.895	78.814	-114.683	-107.767	-3.920	-112.097	-109.946	-106.146	-103.126	-99.817	-29.309	-103.738	-8191	255	
938.837	1	1	0	0	0.069784	0.22481	0.03298	0.40751	0.14173	0.10485	0.25191	0.33971	0.096328	0.16871	0.02446	0.32346	0.24646	0.31934	0.037907	0.12042	-2.6208	-3.7938	-3.2833	-3.1396	-3.8958	-3.1063	-3.3125	-3.8104	-2.975	-3.7	-3.525	-3.0979	-3.8125	-3.1021	-3.3271	-3.7646	37.284	208.633	-90.376	211.456	168.239	-86.934	187.085	135.882	72.125	94.218	5.765	125.598	186.137	132.628	-60.449	226.020	0.00024075	0.00098315	6.7522e-05	656.05	7.5286e-06	7.2843e-06	539.22	199.41	4.8724e-06	8.1365e-06	181.88	68.66	68.829	29.755	9.8759e-06	32.949	0.0036603	0.0063706	0.0017904	673.99	6.4852e-05	7.1117e-05	556.32	204.55	6.4692e-05	7.1507e-05	192.55	72.338	72.239	30.906	6.7372e-05	34.551	-120.516	-39.958	-71.652	-113.280	-15.630	15.061	-114.139	-107.842	-14.225	-57.605	-110.025	-105.896	-103.532	-99.921	133.034	-103.623	-8191	255	
938.909	1	1	0	0	0.060384	0.2629	0.24036	0.20934	0.20578	0.056712	0.17479	0.14612	0.15648	0.14196	0.20886	0.12127	0.070992	0.18724	0.10141	0.051456	-2.5229	-3.6521	-3.6396	-3.0167	-3.9604	-3.3833	-3.3854	-3.7271	-3.0438	-3.6896	-3.6396	-3.1312	-3.7708	-3.4313	-3.3167	-3.85	224.135	52.234	-10.771	58.058	-34.921	59.003	212.519	77.215	119.807	135.242	44.127	12.696	-101.463	-100.761	170.412	92.990	0.0002234	0.00040337	0.00010078	655.06	3.2004e-06	7.6799e-06	542	197.2	5.6828e-07	9.9988e-06	179.74	68.182	68.287	29.84	7.2572e-06	33.101	0.0037365	0.006498	0.0018182	672.88	6.6129e-05	7.3274e-05	557.84	204.09	6.677e-05	7.5374e-05	193.17	72.252	72.04	30.909	7.1742e-05	34.664	-101.796	-43.297	-110.734	-113.206	-58.505	-26.595	-114.207	-107.794	117.378	-4.507	-110.489	-106.257	-103.225	-99.470	13.750	-103.432	-8191	255	
939.005	1	1	0	0	0.20199	0.17155	0.074247	0.2525	0.10151	0.026439	0.14915	0.17985	0.19743	0.10674	0.11718	0.12262	0.3334	0.045648	0.052302	0.26877	-2.4271	-3.5083	-3.4021	-3.1229	-3.8125	-3.2354	-3.15	-3.7938	-3.0479	-3.4542	-3.7396	-3.0375	-3.7062	-3.5312	-3.1437	-3.9708	55.256	-93.737	-24.801	220.600	91.456	-61.702	130.310	198.506	-40.082	-97.148	87.196	123.116	-123.181	176.259	168.019	-106.083	0.00017538	8.6523e-05	0.00015246	655.56	1.5556e-06	6.7642e-06	542.5	196.78	2.2008e-06	5.2103e-06	180.29	68.35	68.183	29.816	5.4685e-06	33.014	0.003948	0.0069292	0.0019027	674.39	6.8576e-05	7.347e-05	555.98	203.77	6.4186e-05	7.1649e-05	192.35	72.15	71.829	31.056	6.6976e-05	34.671	233.542	157.207	-98.941	-112.764	-80.759	128.133	-114.290	-107.564	-49.099	-12.610	-110.220	-105.708	-103.317	-100.062	-18.038	-103.234	-8191	255	
939.101	1	1	0	0	0.07051	0.020912	0.17997	0.42417	0.19319	0.093324	0.066454	0.23059	0.039454	0.17908	0.31866	0.26169	0.21763	0.2828	0.23187	0.14552	-2.8417	-3.2771	-3.6604	-3.1042	-3.4708	-3.4875	-3.0812	-3.9354	-3.3146	-3.3812	-3.9	-3.0646	-3.6854	-3.5729	-3.1604	-3.9271	-107.005	-24.532	162.874	161.909	-41.836	-75.812	177.858	188.702	-2.906	-19.803	-103.880	228.961	-6.684	162.156	232.262	174.420	0.0002499	0.00070547	8.8112e-05	652.31	9.0978e-06	1.0449e-05	537.74	197.61	5.2055e-06	5.4084e-06	182.24	68.51	67.573	29.907	3.994e-06	33.222	0.0036769	0.0065125	0.0018119	671.04	6.6448e-05	7.2307e-05	552.84	203.4	6.4344e-05	7.2714e-05	192.42	71.837	71.822	31	6.8258e-05	34.715	-111.451	-116.799	-25.002	-113.262	98.219	-44.742	-113.858	-107.882	17.188	46.961	-109.941	-106.032	-103.481	-99.925	121.361	-103.342	-8191	255	
939.222	1	1	0	0	0.10911	0.020903	0.13071	0.19525	0.039384	0.10106	0.088593	0.23986	0.017854	0.094356	0.06058	0.11959	0.20278	0.081358	0.085522	0.01122	-3.0208	-3.4042	-3.8063	-3.1813	-3.6083	-3.5062	-3.1167	-3.9396	-3.25	-2.9792	-3.7292	-3.1333	-3.6229	-3.6125	-3.1063	-3.7146	9.474	116.257	102.843	-56.150	35.817	17.622	-110.369	211.465	53.847	-31.105	220.965	128.041	223.493	-103.130	50.639	-18.081	0.00018089	0.00067529	0.00011872	651.6	3.6998e-06	8.3698e-06	539.11	197.33	3.3877e-06	9.6423e-06	178.73	68.624	68.714	29.816	5.768e-06	32.848	0.0037789	0.0066018	0.0018299	670.75	6.6612e-05	7.3394e-05	553.47	203.56	6.5358e-05	7.3331e-05	191.69	72.11	72.022	30.977	6.8997e-05	34.62	-114.923	112.954	-74.055	-113.015	24.666	-5.988	-114.058	-107.583	153.950	-21.733	-110.310	-106.281	-103.127	-99.793	-1.992	-103.279	-8191	255	
939.318	1	1	0	0	0.16174	0.12748	0.059788	0.021521	0.13123	0.18619	0.28379	0.14638	0.1021	0.18191	0.27919	0.1187	0.029833	0.14226	0.17483	0.19518	-3.0521	-3.1667	-3.8208	-2.9875	-3.4708	-3.7479	-2.9958	-3.8312	-3.2958	-3.05	-3.8063	-3.3104	-3.4646	-3.8292	-3.0875	-3.6146	169.819	225.090	64.241	7.247	-3.136	58.229	160.037	25.338	107.341	-95.816	56.494	90.830	186.621	224.137	176.091	187.828	0.0002017	0.0009156	0.00023295	650.71	8.6966e-06	2.7462e-06	540.8	198.47	5.7642e-06	1.4616e-05	181.12	68.687	68.653	29.912	2.8605e-06	33.422	0.0038396	0.0067815	0.0018678	670.11	6.866e-05	7.3912e-05	555.63	203.78	6.5924e-05	7.3853e-05	192.34	72.254	72.254	31.064	6.8438e-05	34.89	-102.935	127.953	-81.006	-113.119	-30.347	36.863	-114.327	-107.888	-11.599	9.619	-110.524	-106.149	-103.495	-99.675	10.858	-103.675	-8191	255	
939.414	1	1	0	0	0.0358	0.06764	0.15262	0.039227	0.11255	0.17538	0.062474	0.2258	0.33914	0.12092	0.16425	0.16522	0.23626	0.24859	0.23074	0.25523	-3.0375	-3.0833	-3.575	-3.1646	-3.2625	-3.9229	-3.1979	-3.8104	-3.6646	-3.1833	-3.6521	-3.3625	-3.1542	-3.8646	-3.0917	-3.5729	101.349	-76.368	-21.396	230.987	-96.009	169.870	-0.378	154.500	50.064	-110.992	48.383	-41.563	-73.409	30.586	108.560	101.522	0.00020863	0.00040138	0.00010438	649.41	5.1684e-06	1.0473e-05	541.16	197.26	2.7754e-06	1.0486e-05	182.21	68.784	68.327	29.965	2.4526e-06	33.321	0.0037215	0.0064989	0.0018106	669.89	6.5819e-05	7.047e-05	555.9	203.47	6.43e-05	7.0741e-05	192.77	72.454	71.998	31.01	6.6081e-05	34.767	-106.960	-42.649	-66.625	-113.026	-10.261	-9.960	-114.270	-107.923	-10.791	-5.821	-110.291	-106.154	-103.361	-100.048	163.790	-103.335	-8191	255	
939.486	1	1	0	0	0.10503	0.045862	0.044583	0.239	0.24135	0.057766	0.25097	0.17364	0.11571	0.085196	0.1967	0.020751	0.11715	0.12713	0.082928	0.15547	-3.1229	-2.8875	-3.8125	-3.3063	-3.0771	-3.6146	-3.1021	-3.5729	-3.7083	-3.0708	-3.7521	-3.4062	-3.2667	-3.8271	-3	-3.45	49.007	88.787	31.867	-124.940	130.121	140.206	204.974	167.389	-4.875	192.499	-114.045	12.456	69.645	111.901	-100.684	26.542	0.00017151	0.00085474	3.4602e-05	649	7.7535e-06	5.1464e-06	537.79	197.15	8.7739e-06	2.8174e-06	180.36	68.301	68.079	29.939	6.6606e-06	33.015	0.0036375	0.006353	0.0017595	669.49	6.4857e-05	7.078e-05	553.34	203.21	6.5199e-05	7.1495e-05	191.34	71.971	71.85	30.962	6.6762e-05	34.545	221.509	216.602	21.765	-113.484	92.650	-42.820	-114.520	-107.554	22.791	47.159	-110.552	-106.397	-103.335	-100.072	35.241	-103.189	-8191	255	
939.606	1	1	0	0	0.22704	0.24256	0.021724	0.14537	0.20019	0.15055	0.16667	0.25336	0.18197	0.10315	0.13837	0.26654	0.20837	0.23879	0.25894	0.23734	-3.1979	-2.8563	-3.5896	-3.3958	-3.1188	-3.8083	-3.325	-3.4938	-3.6979	-2.9333	-3.7229	-3.5042	-3.1	-3.6104	-3.3375	-3.3729	9.854	53.171	-53.990	160.459	187.649	-104.183	196.460	111.478	-115.050	76.499	178.836	148.021	85.253	184.163	-109.427	219.918	0.00020076	0.00093326	0.00022581	648.55	5.2175e-06	7.0707e-06	538.42	196.46	1.1891e-06	6.7996e-06	182.06	67.852	67.894	29.67	4.225e-06	32.806	0.003677	0.006514	0.0018163	668.92	6.6519e-05	7.293e-05	553.55	202.64	6.623e-05	7.4744e-05	193.08	71.922	71.654	30.828	6.9977e-05	34.462	-123.664	60.002	-83.613	-113.115	-55.171	113.920	-114.154	-107.578	102.895	71.739	-109.938	-105.861	-103.223	-99.573	-21.654	-103.290	-8191	255	
939.702	1	1	0	0	0.26008	0.17218	0.107	0.07457	0.056949	0.26319	0.13278	0.043142	0.047471	0.1033	0.18553	0.079826	0.13903	0.31054	0.20053	0.14609	-3.3521	-3.0042	-3.5104	-3.5312	-3	-3.7417	-3.3563	-3.2188	-3.8854	-2.9854	-3.5604	-3.6333	-3.1104	-3.7562	-3.3187	-3.2771	74.278	123.979	-3.631	29.502	203.796	33.524	-98.680	-86.638	-91.285	48.419	-108.688	29.632	229.603	139.029	-29.002	-29.948	0.00017656	0.0010012	0.00024974	647.76	3.2245e-06	8.6557e-06	539.02	197.33	4.1324e-06	6.1075e-06	180.96	68.201	67.852	29.785	1.3571e-06	33.127	0.0037908	0.0065972	0.0018351	668.02	6.643e-05	7.2309e-05	553.99	202.74	6.4273e-05	7.1743e-05	192.65	71.935	71.351	30.826	6.5893e-05	34.533	231.497	-110.738	-28.030	-112.921	-35.319	2.220	-113.993	-107.311	-11.277	-5.125	-109.651	-106.093	-103.549	-99.694	-19.494	-103.431	-8191	255	
939.799	1	1	0	0	0.14641	0.052358	0.28925	0.18649	0.21523	0.31574	0.094732	0.002985	0.23136	0.032814	0.12903	0.1155	0.043569	0.15385	0.2146	0.075055	-3.3354	-2.9958	-3.1375	-3.4875	-2.9958	-3.7375	-3.2667	-3.275	-3.8833	-3.2167	-3.4062	-3.6917	-2.8917	-3.6833	-3.5417	-3.1646	201.023	-17.024	192.537	205.359	61.389	-11.298	46.501	170.345	217.119	133.036	188.684	198.287	77.915	20.317	164.545	-117.656	0.00015829	0.00072663	9.2339e-05	650.8	5.1959e-06	9.4772e-06	540.22	196.87	2.9371e-06	1.1301e-05	181.64	68.013	67.466	29.68	9.4323e-07	33.208	0.0036173	0.0062952	0.0017644	667.28	6.3192e-05	6.9438e-05	555.87	202.67	6.1898e-05	6.921e-05	192.49	71.908	71.32	30.752	6.4949e-05	34.431	-103.170	230.752	-61.556	-113.143	58.037	-60.338	-114.413	-107.581	41.555	-22.018	-109.962	-105.821	-103.167	-99.731	123.239	-103.125	-8191	255	
939.917	1	1	0	0	0.08905	0.17238	0.1394	0.029729	0.21028	0.26727	0.12507	0.10989	0.18305	0.098248	0.04054	0.15819	0.35441	0.20352	0.1551	0.23471	-3.4271	-3.0125	-3.4333	-3.8625	-3.1042	-3.5771	-3.5708	-2.9917	-3.9896	-3.0521	-3.1021	-3.6958	-3.1188	-3.6521	-3.475	-2.975	40.376	137.583	-46.422	44.430	190.608	16.116	171.179	212.228	192.415	198.636	194.753	-113.529	177.595	-72.329	229.486	179.741	0.00018867	0.0010253	7.2645e-05	649.88	4.7537e-06	7.4989e-06	540.31	195.71	5.1109e-06	2.4618e-06	178.94	67.309	67.273	29.556	7.0043e-06	32.543	0.00354	0.0061257	0.001726	664.85	6.1557e-05	6.6673e-05	552.86	201.39	5.931e-05	6.6372e-05	189.94	70.818	70.778	30.38	6.0432e-05	33.96	-117.962	-101.396	-12.294	-113.342	16.021	114.191	-113.923	-107.615	-0.667	70.691	-109.640	-105.814	-103.456	-99.474	-18.595	-103.027	-8191	255	
940.014	1	1	0	0	0.21995	0.1279	0.04624	0.132	0.22541	0.27881	0.15177	0.21526	0.078678	0.1363	0.092389	0.055273	0.024239	0.10617	0.20013	0.1059	-3.5167	-3.325	-3.1708	-3.8354	-3.1208	-3.5604	-3.55	-2.9208	-3.5958	-3.2125	-3.0938	-3.8646	-3.075	-3.4437	-3.8271	-3.0146	25.197	-14.786	165.105	228.387	59.115	-100.910	159.965	-84.423	-123.462	-73.987	224.996	204.485	-20.449	185.961	172.508	121.256	0.00015702	0.00030073	0.00010147	649.95	2.3614e-06	1.2798e-06	536.97	198.16	5.121e-06	1.0045e-05	182.33	68.734	68.157	30.077	2.3959e-06	33.326	0.0033061	0.0057758	0.0016185	663.75	5.8015e-05	6.3234e-05	550.4	202.16	5.6175e-05	6.2008e-05	191.55	71.475	71.262	30.893	5.6594e-05	34.635	-121.730	-84.089	-9.776	-112.952	30.099	230.936	-113.914	-107.047	-122.879	17.624	-109.697	-105.573	-102.788	-99.115	97.711	-103.050	-8191	255	
940.110	1	1	0	0	0.17804	0.10312	0.2077	0.12456	0.25089	0.16869	0.23012	0.19708	0.070186	0.068998	0.32043	0.1098	0.058022	0.46629	0.39441	0.14608	-3.3958	-3.4417	-3.2604	-3.7812	-3.0417	-3.5625	-3.9188	-3.0979	-3.8063	-3.5354	-3.0708	-3.7479	-3.225	-3.2833	-3.7792	-2.9042	171.816	101.757	86.164	170.191	126.358	-53.203	-37.200	74.255	177.445	224.003	164.012	205.010	-113.244	-118.120	83.237	208.779	0.00012923	0.00012189	0.00021768	650.54	5.5975e-06	4.5045e-06	543.59	199.45	2.7121e-06	4.7255e-06	182.54	69.043	68.377	30.136	2.2288e-06	33.737	0.0031399	0.0054683	0.0015161	664.92	5.5728e-05	6.1262e-05	553.57	203.5	5.4529e-05	6.0276e-05	192.04	71.967	71.429	30.986	5.629e-05	34.903	210.063	-52.165	33.689	-112.243	-7.825	-4.222	-113.932	-107.479	49.616	104.911	-109.667	-105.613	-102.932	-99.298	220.149	-102.845	-8191	255	
940.206	1	1	0	0	0.073207	0.11902	0.19561	0.0927	0.15453	0.30969	0.17315	0.38478	0.14047	0.062442	0.2329	0.016072	0.049165	0.30076	0.22008	0.21824	-3.1146	-3.4396	-3.0125	-3.775	-3.0104	-3.1958	-3.6854	-2.8646	-3.5333	-3.5312	-2.9396	-3.7229	-3.3667	-3.2979	-3.8146	-3.15	27.678	14.186	160.403	-32.227	-72.492	54.507	-24.773	199.434	88.305	162.005	144.927	-91.154	-103.505	-116.429	182.383	31.168	0.00021629	0.00032177	0.00053463	653.21	9.614e-07	4.3184e-06	546.58	199.5	5.044e-06	2.73e-06	184.49	69.396	68.658	30.434	6.7478e-06	34.191	0.0030918	0.0055041	0.0015205	665.43	5.4486e-05	5.9159e-05	556.93	203.62	5.3225e-05	5.8949e-05	192.61	72.597	71.843	31.3	5.4759e-05	35.266	-121.907	-109.492	-66.473	-112.909	126.395	21.470	-113.914	-106.888	5.629	71.331	-109.244	-105.135	-102.825	-98.897	187.629	-102.754	-8191	255	
940.302	1	1	0	0	0.18484	0.062154	0.05728	0.16512	0.10995	0.15932	0.092859	0.18189	0.11207	0.10775	0.26543	0.086772	0.12093	0.08428	0.22473	0.24579	-3.1521	-3.6229	-2.8521	-3.7833	-3.2938	-3.225	-3.9188	-3.0229	-3.4396	-3.7667	-3.1354	-3.8125	-3.2979	-3.175	-3.8729	-3.2146	230.579	31.637	-64.694	-35.139	37.081	146.200	-110.888	184.794	122.072	198.379	-33.022	199.564	234.303	205.646	187.027	-104.674	0.00022865	0.0010252	0.00013325	648.76	3.9119e-06	2.1331e-06	549.8	198.87	4.2767e-06	4.5601e-06	183.17	68.831	68.511	30.006	5.2456e-06	33.213	0.0030322	0.00529	0.0014641	663.86	5.4132e-05	5.8647e-05	556.18	203.46	5.3756e-05	5.9428e-05	191.91	71.879	71.605	30.956	5.6389e-05	34.487	-89.228	51.701	-63.910	-112.282	33.991	153.428	-113.555	-106.945	45.025	-8.907	-109.584	-105.417	-103.037	-99.399	58.355	-103.233	-8191	255	
940.398	1	1	0	0	0.33126	0.14721	0.011464	0.14128	0.15492	0.16244	0.044952	0.23806	0.08981	0.1325	0.27457	0.27938	0.13059	0.11494	0.037862	0.15081	-2.925	-3.7292	-2.9583	-3.6188	-3.5729	-3.0604	-3.7542	-3.0917	-3.2104	-3.7687	-3.0083	-3.5812	-3.5479	-2.9458	-3.8542	-3.1937	141.397	-2.852	188.903	46.293	-41.987	226.407	135.063	101.783	17.429	-33.036	109.228	205.878	231.965	-124.298	207.695	-13.835	0.00018868	0.00057335	4.2946e-05	653.6	2.2164e-06	2.9726e-06	542.13	197.16	3.9956e-06	9.5512e-06	181.42	67.944	68.427	29.675	1.7561e-06	32.932	0.0031891	0.0055006	0.0015296	666.59	5.6255e-05	6.1408e-05	553.31	202.35	5.5461e-05	6.2682e-05	190.75	71.26	71.13	30.586	5.8723e-05	34.3	234.265	103.344	35.219	-112.790	-29.191	-31.889	-113.602	-107.192	147.501	13.073	-109.531	-105.563	-103.441	-99.719	171.202	-103.035	-8191	255	
940.519	1	1	0	0	0.09536	0.12213	0.13733	0.17243	0.25274	0.18094	0.17903	0.11983	0.19393	0.088398	0.11879	0.12505	0.25082	0.1236	0.29694	0.042237	-2.8875	-3.8354	-3.0312	-3.4625	-3.3708	-3.1021	-3.75	-3.4688	-3.2229	-3.7833	-3.2458	-3.5042	-3.6583	-3.1021	-3.7104	-3.4542	162.845	99.536	58.697	228.806	172.850	139.046	165.691	67.969	168.756	112.831	184.480	135.595	145.240	220.656	11.818	-19.222	0.00016594	0.00010887	0.00014589	650.29	2.154e-06	6.6075e-07	541.07	197.7	6.0404e-06	1.6236e-06	181.57	67.759	68.03	29.623	2.0328e-06	33.234	0.0032794	0.0057022	0.0016075	666.21	5.846e-05	6.3202e-05	552.8	202.39	5.6762e-05	6.2847e-05	190.83	71.184	70.987	30.56	5.9699e-05	34.379	-118.874	-83.480	-93.643	-112.606	193.797	15.961	-113.696	-106.964	26.420	74.711	-109.372	-105.100	-102.597	-98.980	67.726	-102.851	-8191	255	
940.613	1	1	0	0	0.1354	0.17166	0.047788	0.2316	0.20595	0.19087	0.19782	0.24495	0.14903	0.22237	0.17925	0.051828	0.064012	0.22483	0.02734	0.14511	-2.6208	-3.9083	-3.1688	-3.5708	-3.7625	-3.0771	-3.7521	-3.4146	-3.1458	-3.8271	-3.15	-3.2313	-3.9	-3.1188	-3.7771	-3.5812	51.145	-108.170	-112.872	-119.628	-34.561	-78.911	152.016	121.897	94.983	76.609	224.820	166.061	167.811	164.978	121.259	-83.731	0.00015305	0.00063356	0.00014561	649.3	1.5937e-06	7.1329e-06	538.95	197.46	7.157e-06	8.4489e-06	181.75	68.818	68.149	29.949	6.4525e-06	33.627	0.0033489	0.0056759	0.0015898	664.22	5.7722e-05	6.2474e-05	553.3	202.15	5.6261e-05	6.2644e-05	192	71.866	71.19	30.915	5.7123e-05	34.847	-124.446	14.551	4.888	-112.513	78.261	-13.455	-114.517	-107.073	1.286	5.425	-109.657	-105.707	-103.170	-99.377	-2.264	-102.681	-8191	255	
940.709	1	1	0	0	0.075376	0.077534	0.11149	0.18035	0.025574	0.18491	0.22362	0.12858	0.075176	0.1975	0.037841	0.2439	0.022993	0.05722	0.14298	0.072424	-2.6271	-3.85	-3.3375	-3.3625	-3.9333	-3.1	-3.7479	-3.6458	-2.95	-3.9938	-3.3021	-3.3	-3.875	-3.0938	-3.6333	-3.6771	36.773	-35.553	222.776	-85.345	177.498	101.487	101.457	-91.639	177.811	231.095	11.057	168.022	222.702	-55.733	28.252	12.840	0.00014237	0.00049591	0.00024301	650.61	2.169e-06	1.1606e-05	547.42	198.25	2.9967e-06	6.3394e-06	182.71	68.919	68.665	30.001	5.5519e-06	33.356	0.003152	0.0054541	0.0015138	664.26	5.561e-05	6.0939e-05	556.47	202.7	5.4085e-05	6.0107e-05	192.01	71.988	71.33	30.825	5.6562e-05	34.45	224.588	-59.474	-42.695	-112.366	126.866	-8.769	-113.780	-107.133	20.013	175.994	-109.472	-105.333	-103.337	-99.278	-79.775	-102.654	-8191	255	
940.783	1	1	0	0	0.15022	0.32624	0.12099	0.050883	0.1372	0.081391	0.14578	0.032954	0.28899	0.23313	0.2994	0.14161	0.21659	0.14024	0.11732	0.040274	-2.5667	-3.7708	-3.2812	-3.1188	-3.7396	-3.1292	-3.4813	-3.7625	-3.0625	-3.8083	-3.2438	-3.1937	-3.9271	-3.2062	-3.5271	-3.8167	141.491	137.624	182.520	-81.452	152.238	-103.843	208.885	29.076	95.747	-14.502	146.350	163.219	-35.896	99.886	10.762	-105.813	0.00017978	0.00049711	8.5161e-05	649.73	9.5835e-06	1.0019e-05	539.54	196.09	7.4832e-06	7.1217e-06	180.7	67.526	67.084	29.327	5.7893e-06	32.413	0.0032239	0.0056038	0.0015594	664.16	5.6631e-05	6.1485e-05	551.82	201.4	5.4958e-05	6.2001e-05	190.12	70.713	70.354	30.167	5.9608e-05	33.789	-121.882	233.633	207.990	-112.636	21.556	46.339	-113.467	-107.495	-20.289	231.739	-109.741	-105.591	-102.903	-99.701	-0.633	-103.210	-8191	255	
940.902	1	1	0	0	0.26868	0.08628	0.08751	0.17889	0.067764	0.1597	0.25439	0.29818	0.17416	0.14782	0.16069	0.051181	0.059858	0.34789	0.056791	0.12807	-2.6625	-3.7458	-3.3979	-3.1063	-3.7271	-3.1542	-3.4396	-3.7062	-3.0687	-3.5625	-3.6458	-3.1625	-4.0437	-3.3875	-3.3646	-3.8583	-5.210	58.195	119.229	198.356	176.172	13.104	204.460	119.410	-99.687	-10.026	88.071	-57.835	2.197	230.164	106.870	-13.814	0.00019861	0.00024319	0.00012933	647.25	6.2385e-06	8.2075e-07	538.07	195.64	6.4441e-06	2.1165e-06	180.36	67.422	66.996	29.167	4.7647e-06	32.339	0.003329	0.0057553	0.0016059	661.04	5.8887e-05	6.3771e-05	550.04	200.71	5.7771e-05	6.3348e-05	189.9	70.442	69.896	30.01	5.8765e-05	33.638	-112.187	-5.627	-118.090	-112.750	181.308	64.957	-114.169	-107.496	92.926	-33.612	-109.811	-105.439	-103.125	-99.826	68.665	-103.017	-8191	255	
940.998	1	1	0	0	0.16352	0.17314	0.3124	0.13035	0.13343	0.069803	0.26469	0.23801	0.21765	0.073204	0.36478	0.23368	0.032306	0.12302	0.32305	0.21093	-2.8083	-3.6875	-3.6604	-3.0208	-3.8375	-3.5125	-3.3396	-3.8	-3.1854	-3.7062	-3.6104	-2.8958	-3.7979	-3.25	-3.3083	-3.9417	46.276	172.634	-122.378	-103.701	-109.165	73.701	-93.418	210.606	-2.089	154.019	28.266	89.620	231.948	-98.663	-101.021	196.684	0.0001415	0.00025979	9.6449e-05	648.32	3.79e-06	1.4792e-05	538.34	195.89	2.679e-06	2.5452e-06	179.51	66.848	66.843	28.937	5.6954e-06	32.402	0.0032786	0.0057076	0.0015947	660.31	5.867e-05	6.4832e-05	551.83	200.56	5.938e-05	6.5781e-05	189.99	70.398	70.022	29.878	6.175e-05	33.714	227.985	144.589	213.275	-112.478	92.314	31.581	-113.783	-107.820	161.087	12.910	-110.407	-105.982	-103.565	-99.784	75.899	-103.367	-8191	255	
941.094	1	1	0	0	0.25652	0.10159	0.29784	0.24388	0.12898	0.11081	0.15709	0.19298	0.13614	0.10288	0.11521	0.17407	0.1867	0.16169	0.1528	0.18149	-2.7083	-3.55	-3.6063	-3.1896	-3.6833	-3.4688	-3.325	-3.8396	-3.05	-3.4604	-3.8021	-3.1	-3.7708	-3.6688	-3.1583	-4.0833	217.392	78.150	231.816	152.862	-13.864	-87.791	174.246	-121.166	33.514	205.105	164.109	30.810	211.729	-34.255	-117.583	-94.855	0.00022807	0.00014306	5.744e-05	643.7	3.9242e-06	8.77e-06	542.66	195.05	3.679e-06	1.4272e-05	179.35	67.492	66.941	28.819	6.4983e-06	32.306	0.0033626	0.0059167	0.0016291	661.3	5.9459e-05	6.4815e-05	553.42	200.42	5.7502e-05	6.4299e-05	190.05	70.489	69.882	29.895	6.0342e-05	33.627	-108.004	107.226	-23.055	-113.020	95.541	73.312	-113.930	-107.684	24.206	18.742	-110.425	-105.721	-103.561	-99.881	33.896	-103.627	-8191	255	
941.190	1	1	0	0	0.12827	0.22234	0.17223	0.21907	0.17265	0.032893	0.1588	0.21511	0.081243	0.10897	0.16321	0.16355	0.074644	0.1609	0.054129	0.1307	-2.9083	-3.2646	-3.5208	-3.0979	-3.6646	-3.5042	-3.1521	-3.8854	-3.3812	-3.1542	-3.7917	-3.0583	-3.7104	-3.5292	-3.0062	-3.7958	-58.750	-35.269	7.843	217.158	58.203	147.054	99.106	216.103	84.660	83.598	144.735	186.060	-22.216	49.111	154.128	123.111	0.00015143	0.00067518	0.00010263	640.78	2.3267e-06	4.7163e-06	538.06	194.33	6.9547e-06	1.7493e-06	178.17	66.448	66.587	28.639	5.9044e-06	32.093	0.0032742	0.0056833	0.0015814	657.58	5.6083e-05	6.2035e-05	547.86	199.19	5.6061e-05	6.1575e-05	188.06	69.511	69.363	29.55	5.6899e-05	33.237	-114.623	-79.576	-116.472	-113.407	101.802	7.798	-114.235	-107.467	-11.728	204.319	-110.393	-106.084	-103.218	-99.851	-33.075	-103.139	-8191	255	
941.286	1	1	0	0	0.19448	0.15828	0.13786	0.047374	0.13248	0.13189	0.060223	0.19425	0.16179	0.11555	0.091709	0.12761	0.10374	0.18245	0.086719	0.13248	-3.0208	-3.0896	-3.7729	-3.075	-3.4938	-3.6146	-3.1458	-3.8667	-3.5083	-3.1917	-3.9583	-3.0854	-3.5229	-3.8167	-3.0938	-3.9021	-66.429	5.182	214.028	72.060	-24.279	57.208	-39.274	175.083	231.040	108.501	171.511	154.921	-115.398	198.593	216.333	121.057	0.0002135	0.00011657	5.2236e-05	644.02	8.0795e-06	6.2531e-06	537.81	195.42	2.4189e-06	6.6946e-06	178.03	66.404	66.258	28.481	5.7621e-06	32.042	0.0030939	0.0053288	0.0014893	655.75	5.361e-05	5.6846e-05	545.74	198.8	5.1321e-05	5.809e-05	187.34	69.238	68.985	29.419	5.4706e-05	33.041	-115.658	39.236	127.396	-112.899	17.842	25.252	-113.778	-107.104	177.517	51.373	-109.359	-106.136	-103.231	-99.682	18.107	-103.773	-8191	255	
941.382	1	1	0	0	0.14086	0.096914	0.14772	0.098695	0.096244	0.073614	0.42927	0.028726	0.13803	0.21933	0.07183	0.15793	0.20333	0.26849	0.21836	0.13607	-2.9125	-3.2396	-3.9792	-3.1937	-3.4188	-3.7583	-2.9688	-3.7417	-3.4	-3.0667	-3.8958	-3.0938	-3.3187	-3.8563	-3.125	-3.7438	115.239	-63.173	230.962	-33.466	-77.716	-109.331	153.035	-64.183	89.405	204.202	-1.605	221.778	-105.223	195.721	110.131	170.920	0.00024422	0.0004439	0.00010556	643.14	5.6271e-06	8.9432e-06	535.52	194.04	5.6002e-06	2.9765e-06	178.01	66.753	66.263	28.753	6.772e-06	32.106	0.0029993	0.0052001	0.0014386	654.6	5.1966e-05	5.5922e-05	545.94	198.76	5.0668e-05	5.6321e-05	187.03	69.283	69.035	29.518	5.2013e-05	33.207	-108.160	-32.899	-50.271	-113.055	8.418	-85.815	-114.140	-107.563	55.888	218.976	-110.145	-106.289	-102.973	-99.557	65.139	-103.157	-8191	255	
941.479	1	1	0	0	0.17235	0.16491	0.099192	0.12805	0.27184	0.11612	0.12871	0.070643	0.12694	0.31527	0.092346	0.1689	0.10113	0.20471	0.069173	0.12183	-3.0771	-2.9646	-3.9104	-3.0604	-3.2875	-3.8958	-3.0521	-3.5625	-3.7875	-3.0167	-3.9208	-3.4125	-3.4458	-3.9125	-3.05	-3.7083	-31.728	-46.817	-78.769	-48.410	-70.676	151.452	37.506	-100.220	-99.202	66.224	-80.580	202.427	143.841	193.012	-43.328	213.192	0.00012674	0.00089342	0.00017897	640.24	4.4224e-06	3.839e-06	537.93	195.27	4.3243e-06	4.7242e-06	180.21	67.389	66.885	28.993	5.4579e-06	32.375	0.0028705	0.0050114	0.0013897	654.52	4.9721e-05	5.3214e-05	547.38	199.15	4.6673e-05	5.1986e-05	187.95	69.893	69.399	29.723	4.8205e-05	33.473	-124.700	-15.280	-91.753	-113.155	173.757	194.423	-114.225	-107.652	71.797	131.147	-110.188	-106.379	-103.104	-99.674	43.501	-102.938	-8191	255	
941.599	1	1	0	0	0.17365	0.050236	0.13121	0.12066	0.067603	0.14045	0.064672	0.18249	0.065041	0.28547	0.10609	0.091575	0.14465	0.053723	0.18929	0.21055	-3.2333	-2.9958	-3.7562	-3.4083	-3.4062	-3.9	-3.1792	-3.6896	-3.875	-3.0292	-3.75	-3.5583	-3.2167	-3.8542	-3.2167	-3.525	86.801	220.455	-98.486	-9.016	191.411	219.568	37.487	156.127	-69.766	177.709	-65.607	4.946	34.815	99.404	-112.489	164.121	0.00019597	0.00033153	0.00012923	647.89	4.1436e-06	2.254e-06	539.74	195.39	1.7346e-06	6.0956e-06	180.3	66.975	66.87	28.835	4.9457e-06	32.021	0.0027009	0.0045718	0.0012795	655.58	4.6186e-05	4.9692e-05	546.94	198.94	4.4196e-05	4.8469e-05	186.57	69.095	69.101	29.517	4.499e-05	32.999	-122.920	-114.372	-0.016	-113.065	37.846	26.052	-114.164	-107.471	40.484	229.064	-110.115	-105.977	-102.956	-99.459	26.572	-103.351	-8191	255	
941.694	1	1	0	0	0.20898	0.10507	0.2881	0.042494	0.10402	0.2075	0.34722	0.16138	0.03315	0.11297	0.19989	0.25075	0.08665	0.17947	0.29839	0.15155	-3.4875	-2.925	-3.7458	-3.5833	-3.1083	-3.7583	-3.3083	-3.3292	-3.9021	-3.0458	-3.7083	-3.4146	-2.925	-3.9271	-3.3937	-3.2729	227.738	81.872	-79.757	172.200	-28.677	-47.390	119.335	108.467	26.245	54.726	177.689	9.971	178.000	202.946	180.924	194.653	0.00021137	0.00066645	8.7316e-05	643.42	6.6339e-06	3.0447e-06	536.09	194.54	2.9506e-06	4.9208e-06	177.01	66.781	66.409	28.624	5.5266e-06	31.79	0.0025148	0.0043541	0.0012147	653.84	4.4166e-05	4.7648e-05	542.36	197.58	4.1944e-05	4.6716e-05	184.88	68.774	68.756	29.282	4.4796e-05	32.699	220.595	-4.172	97.906	-113.340	34.229	68.200	-114.225	-107.422	-4.194	51.765	-110.196	-105.900	-102.893	-99.632	-18.209	-103.356	-8191	255	
941.790	1	1	0	0	0.090113	0.1776	0.25014	0.1272	0.18651	0.15889	0.10715	0.027069	0.11902	0.22194	0.10429	0.15169	0.23683	0.17255	0.16648	0.23763	-3.5187	-3.1521	-3.6125	-3.7667	-3.0958	-3.7417	-3.2917	-3.3333	-3.8208	-3.1479	-3.6562	-3.6854	-2.9896	-3.8771	-3.3958	-3.1375	132.139	-91.314	-52.764	126.163	43.601	158.888	125.280	155.524	44.331	42.152	11.885	163.972	32.309	182.839	45.513	64.660	0.00018077	0.00085117	0.00014984	642	2.8764e-06	4.3089e-06	535.47	195.44	3.6032e-06	4.5112e-06	180.03	66.764	66.273	28.765	3.2551e-06	32.177	0.0024625	0.0043043	0.0011709	650.77	4.3149e-05	4.676e-05	542.18	197.91	4.1891e-05	4.6881e-05	185.47	68.972	68.678	29.511	4.3513e-05	33.135	-115.946	17.836	-77.665	-113.259	32.361	107.727	-114.032	-107.421	-68.043	53.031	-109.698	-106.236	-103.382	-99.556	-12.849	-102.980	-8191	255	
941.888	1	1	0	0	0.40265	0.20586	0.032425	0.086604	0.091288	0.10843	0.19922	0.12038	0.065099	0.089626	0.26323	0.091603	0.10854	0.37729	0.33424	0.092702	-3.4938	-3.1562	-3.5271	-3.8063	-3.1833	-3.675	-3.5896	-3.2292	-3.8625	-3.1729	-3.4229	-3.7375	-3.0271	-3.6354	-3.4313	-3.0521	-107.119	177.730	166.894	-27.020	-65.061	180.198	76.001	102.659	-47.558	89.771	229.599	-87.601	35.464	-109.190	-115.721	-91.780	0.0002456	0.00029532	0.00011911	645.12	9.5313e-07	6.8024e-06	540.65	195.22	6.5663e-06	1.0226e-05	179.29	67.313	67.168	28.963	3.0934e-06	32.083	0.0024689	0.0041616	0.0011811	652.94	4.2911e-05	4.549e-05	546.05	198.37	4.1236e-05	4.6233e-05	185.86	69.333	69.111	29.556	4.332e-05	33.119	-110.191	157.522	10.455	-113.070	94.081	2.454	-114.005	-107.105	-2.344	48.597	-109.732	-106.201	-103.120	-99.608	65.154	-103.052	-8191	255	
942.007	1	1	0	0	0.07365	0.13279	0.14299	0.10953	0.20836	0.15583	0.23163	0.28442	0.096737	0.13348	0.03801	0.15221	0.089629	0.024264	0.13331	0.32377	-3.4396	-2.9917	-3.3771	-3.7583	-2.9333	-3.6146	-3.6063	-3.025	-3.8042	-3.1875	-3.3208	-3.8875	-2.9646	-3.5875	-3.4479	-2.9125	110.696	14.908	-36.836	-83.658	94.891	-76.854	68.015	212.244	31.938	-22.591	-108.304	159.365	197.640	196.010	-47.823	185.406	0.00014148	0.00085711	1.5378e-05	642.89	3.5162e-06	8.5402e-06	543.47	195.27	5.1551e-06	5.9425e-06	178.34	66.501	66.585	28.786	5.8221e-06	32.215	0.0024368	0.0042022	0.0011699	650.58	4.2651e-05	4.6796e-05	546.28	198.28	4.1085e-05	4.5666e-05	185.77	69.16	68.871	29.396	4.3107e-05	32.998	-108.168	-76.059	134.463	-113.380	-38.822	19.717	-114.509	-107.733	27.804	139.015	-109.706	-106.495	-103.861	-99.651	-22.955	-103.591	-8191	255	
942.078	1	1	0	0	0.30202	0.017008	0.16992	0.17551	0.19113	0.038648	0.2482	0.16165	0.10939	0.1602	0.24056	0.33269	0.19953	0.057616	0.087453	0.088787	-3.3792	-3.2292	-3.3167	-3.7687	-2.9417	-3.4396	-3.7271	-2.9938	-3.7583	-3.4479	-3.0542	-3.7396	-3.1146	-3.4583	-3.7375	-3.1208	222.960	-113.399	28.189	-122.672	14.905	159.334	156.538	105.030	178.774	98.722	221.365	183.823	-100.219	-11.574	67.429	159.658	0.00016366	0.00026328	3.0711e-05	647	4.708e-06	7.6559e-06	534.88	194.45	5.6571e-06	7.0036e-06	179.32	65.981	66.202	28.883	2.0337e-06	31.878	0.002361	0.004124	0.0011305	651.68	4.1526e-05	4.4557e-05	542.12	197.32	3.9468e-05	4.4019e-05	184.29	68.464	68.565	29.429	4.1181e-05	32.671	-119.803	55.629	-91.048	-113.364	-38.550	-5.949	-114.419	-107.905	-57.198	-35.098	-110.474	-106.166	-103.966	-99.626	233.844	-103.859	-8191	255	
942.199	1	1	0	0	0.12475	0.14427	0.16976	0.049879	0.11879	0.18977	0.1172	0.097346	0.15973	0.16863	0.29925	0.19703	0.14132	0.2514	0.20276	0.15066	-3.5	-3.3521	-3.0646	-3.9292	-3.1396	-3.3646	-3.8063	-3.0833	-3.7333	-3.4917	-3.1271	-3.8312	-3.2125	-3.4625	-3.9062	-3.0479	114.717	138.139	83.539	177.518	33.258	112.902	195.560	-80.737	47.284	122.592	184.280	162.583	-103.628	69.671	40.451	86.802	0.000249	0.00012421	0.00010989	642.59	3.3153e-06	9.9511e-06	534.71	195.3	4.9469e-06	3.6319e-06	178.45	66.532	66.826	28.72	4.9866e-06	32.182	0.0023114	0.0039897	0.0011097	650.14	4.0216e-05	4.3402e-05	540.44	197.39	3.9002e-05	4.3126e-05	184.09	68.73	68.665	29.393	4.0849e-05	32.885	-109.942	200.598	-52.114	-113.159	-15.796	-20.528	-114.390	-107.759	-21.996	64.674	-109.925	-106.355	-103.637	-99.815	99.172	-103.534	-8191	255	
942.295	1	1	0	0	0.20039	0.15	0.058631	0.21109	0.084403	0.14438	0.11869	0.027618	0.15897	0.16532	0.14676	0.13639	0.19452	0.18248	0.10555	0.19149	-3.3875	-3.6437	-2.9604	-3.8187	-3.2812	-3.3125	-3.8354	-3.0771	-3.4958	-3.8146	-3.15	-3.8646	-3.1021	-3.1458	-3.775	-3.1167	145.647	-117.562	121.419	116.568	84.681	165.045	-124.265	224.757	116.127	77.815	-19.297	-77.282	9.558	-39.772	-13.795	222.572	0.00015691	0.00041138	0.00020315	642.07	3.4322e-06	8.4033e-06	535.14	195.04	3.9405e-06	3.4566e-06	178.45	67.355	66.816	29.239	4.9555e-06	32.285	0.0022409	0.0038719	0.0010939	647.41	4.0105e-05	4.3424e-05	540.78	198.05	3.9459e-05	4.3583e-05	184.93	69.273	69.159	29.711	3.9808e-05	33.29	-114.637	-45.375	-81.954	-113.466	139.547	55.457	-114.477	-108.183	-42.068	13.630	-110.285	-106.479	-104.176	-99.938	-20.594	-103.711	-8191	255	
942.391	1	1	0	0	0.094484	0.25844	0.086722	0.03396	0.17174	0.14872	0.011144	0.12764	0.17528	0.12332	0.13186	0.10546	0.18433	0.1303	0.1662	0.15179	-3.1188	-3.5292	-2.9771	-3.9542	-3.3604	-3.0646	-3.85	-3.1688	-3.4979	-3.6437	-2.9146	-3.7354	-3.35	-3.1292	-3.8292	-3.15	227.533	-25.250	-34.386	119.497	142.376	139.844	-7.692	99.787	112.492	-3.795	31.879	-121.063	194.905	158.583	128.117	-21.266	0.0002272	0.00031739	0.00014739	642.17	4.4449e-06	2.8739e-06	538.27	195.86	1.9719e-06	1.7848e-06	180.41	68.139	67.672	29.514	1.2918e-06	33.089	0.0022134	0.0037763	0.0010362	648.77	3.8479e-05	4.2675e-05	542.91	198.73	3.8437e-05	4.3264e-05	186.44	70.36	69.748	30.167	3.9617e-05	33.828	-109.311	-61.470	-21.231	-113.395	31.981	-31.708	-114.471	-107.773	182.348	-24.952	-110.302	-106.282	-103.834	-99.969	75.748	-103.734	-8191	255	
942.487	1	1	0	0	0.023418	0.10332	0.075942	0.15968	0.21642	0.17791	0.2739	0.24646	0.1656	0.14566	0.20324	0.1948	0.16814	0.21367	0.10832	0.14738	-2.9646	-3.7979	-2.9833	-3.825	-3.4646	-3.0083	-3.8125	-3.2458	-3.1771	-3.7833	-2.9167	-3.6708	-3.5521	-3.0625	-3.8146	-3.2188	56.631	-50.777	143.629	211.381	122.993	-8.824	45.970	145.205	207.054	-73.742	209.399	210.838	150.197	125.162	-78.591	130.272	0.00020163	0.00056045	0.00011634	645.58	4.5701e-06	4.8203e-06	537.63	196.1	2.9446e-06	8.3965e-06	180.96	69.027	67.731	29.632	4.1344e-06	32.797	0.0022738	0.0038748	0.0010902	652.29	3.9626e-05	4.3118e-05	543.92	198.79	4.0145e-05	4.3726e-05	186.99	70.889	70.09	30.258	4.206e-05	33.779	-111.704	-23.722	-37.960	-113.208	27.466	-8.719	-114.571	-107.681	-121.223	84.666	-110.000	-106.249	-103.174	-99.854	-25.723	-103.521	-8191	255	
942.583	1	1	0	0	0.089724	0.11033	0.18298	0.029585	0.061229	0.18946	0.22011	0.2702	0.095277	0.18458	0.23674	0.048734	0.049489	0.080919	0.057142	0.30968	-2.8083	-3.725	-3.0687	-3.5708	-3.6562	-3.0292	-3.9854	-3.3875	-3.1271	-3.925	-3.2125	-3.4917	-3.6937	-3.1208	-3.8021	-3.4375	113.614	69.996	93.110	38.656	116.234	-87.770	-113.756	221.805	-65.862	108.520	136.046	159.594	9.851	122.079	97.673	131.889	0.0001719	0.00060101	0.00020358	649.13	3.7749e-06	2.4589e-06	537.78	194.97	5.9278e-06	8.805e-06	179.69	68.433	68.212	29.389	4.0312e-06	32.857	0.0023937	0.0040685	0.0011525	652.02	4.1709e-05	4.5089e-05	542.46	198.61	4.1049e-05	4.6232e-05	186.47	70.547	70.271	30.165	4.4201e-05	33.711	220.753	-0.757	23.139	-113.107	2.758	57.297	-114.401	-107.960	-84.847	35.812	-109.607	-106.029	-103.603	-100.277	44.065	-103.888	-8191	255	
942.680	1	1	0	0	0.067574	0.23264	0.29348	0.14755	0.14874	0.24863	0.15669	0.17905	0.24873	0.071808	0.30732	0.18358	0.10837	0.12511	0.13687	0.13632	-2.8375	-3.7438	-3.1875	-3.4042	-3.6958	-3.1437	-3.6354	-3.5896	-2.9542	-3.8937	-3.4271	-3.3063	-3.7896	-3.0708	-3.7562	-3.6396	62.385	110.700	-40.713	225.951	-21.957	76.697	93.129	194.669	-81.458	-2.097	167.217	228.535	174.039	172.589	-48.526	196.446	0.00018397	0.00052834	0.00026007	642.51	3.0268e-06	7.9218e-06	535.61	196.6	2.0211e-06	7.8849e-06	179.73	68.836	67.997	29.465	9.5979e-06	32.545	0.0024377	0.0042719	0.0011786	651.59	4.3976e-05	4.7546e-05	543.86	199.12	4.2563e-05	4.7939e-05	187.2	70.708	70.268	30.155	4.5479e-05	33.566	226.802	-74.034	-46.940	-113.206	42.297	-48.447	-114.203	-107.476	90.003	4.054	-109.821	-105.911	-103.091	-99.755	21.769	-103.400	-8191	255	
942.776	1	1	0	0	0.25154	0.20425	0.17866	0.011045	0.2217	0.060697	0.14872	0.10742	0.073525	0.12126	0.18803	0.050635	0.14078	0.07539	0.062753	0.11817	-2.8	-3.9437	-3.1583	-3.2771	-3.8438	-2.8979	-3.8333	-3.7417	-3.0729	-3.8417	-3.3729	-3.2458	-4.0396	-3.0958	-3.6375	-3.7125	-40.895	24.942	169.837	-10.561	161.215	150.858	219.071	189.582	-14.511	96.719	199.941	48.375	-62.039	-52.078	133.352	-64.992	0.00018706	8.7186e-05	6.5511e-05	641.33	1.3917e-06	5.1317e-06	534.89	195.63	2.418e-06	8.7269e-06	180.13	68.193	67.89	29.43	3.7488e-06	33.06	0.0025455	0.0043916	0.0012376	650.75	4.5097e-05	4.9102e-05	543.75	199.29	4.3936e-05	4.9153e-05	187.09	70.773	70.276	30.104	4.5387e-05	33.834	232.696	-97.349	20.925	-113.287	-0.761	7.490	-114.182	-107.623	-1.629	16.809	-110.357	-105.588	-103.346	-99.614	-46.528	-103.300	-8191	255	
942.870	1	1	0	0	0.32307	0.13181	0.3735	0.14289	0.17964	0.024544	0.30073	0.13497	0.26774	0.044993	0.1526	0.35217	0.091748	0.21154	0.14287	0.17095	-2.6813	-3.9229	-3.4771	-3.1542	-3.8917	-3.1979	-3.5354	-3.7375	-3.0208	-3.8	-3.5062	-3.3646	-4.0125	-3.1875	-3.5042	-3.8125	232.082	207.388	3.955	114.724	186.958	-117.936	140.752	161.894	78.576	105.407	-41.151	-31.065	204.108	208.199	88.795	136.922	0.00023767	0.00081991	0.00017973	640.86	4.2263e-06	1.0522e-05	541.58	195.71	1.0485e-06	5.3515e-06	182.2	68.919	67.716	29.472	3.2003e-06	32.842	0.0024861	0.0043354	0.0012069	651.75	4.3733e-05	4.7001e-05	546.53	198.68	4.2933e-05	4.7597e-05	188.4	71.208	70.202	30.059	4.5828e-05	33.638	-124.166	-22.449	-24.849	-113.161	24.552	-24.030	-114.148	-107.750	-111.014	12.825	-110.243	-105.984	-103.316	-99.884	-80.663	-103.552	-8191	255	
942.968	1	1	0	0	0.28448	0.1111	0.2421	0.10263	0.07406	0.22154	0.15546	0.12939	0.30828	0.13734	0.14082	0.14878	0.074208	0.11634	0.3914	0.13526	-2.5875	-3.5583	-3.6229	-3.0417	-3.9208	-3.2	-3.3812	-3.9208	-3.1437	-3.5354	-3.5687	-3.0854	-3.9583	-3.3292	-3.3917	-3.9062	54.655	55.432	-65.459	29.785	211.423	195.066	-91.321	-117.183	44.135	231.438	78.678	83.086	-124.944	207.789	78.167	118.411	0.00015543	0.00041175	0.00011332	647.42	4.87e-06	7.6386e-06	532.69	195.88	3.1135e-06	6.6311e-06	179.62	67.782	67.423	29.263	5.1829e-06	32.217	0.0025497	0.0043427	0.0012129	652.19	4.3956e-05	4.8564e-05	543.32	198.75	4.3406e-05	4.8333e-05	185.67	70.187	69.847	29.891	4.6326e-05	33.271	-122.805	-1.344	-70.333	-113.029	-16.643	-89.669	-114.368	-107.586	-124.149	-7.166	-110.452	-106.098	-103.463	-100.094	29.712	-103.549	-8191	255	
943.087	1	1	0	0	0.20707	0.025059	0.1154	0.37756	0.20478	0.10296	0.15191	0.060171	0.40912	0.085426	0.14553	0.21248	0.2535	0.063987	0.071608	0.20891	-2.8042	-3.7521	-3.5146	-3.0271	-3.8688	-3.2979	-3.1688	-3.9083	-3.0792	-3.5792	-3.8021	-3.1396	-3.6937	-3.6688	-3.1396	-3.8167	-69.832	-9.032	115.777	231.815	-34.301	12.022	178.188	84.588	-42.648	190.863	213.837	171.668	133.004	-99.819	104.858	152.911	0.00019159	0.0010937	0.00032242	640.42	7.2834e-06	5.5835e-06	535.33	194.85	2.5482e-06	8.1093e-07	180.36	67.905	68.071	29.379	8.4616e-06	32.564	0.002555	0.0043721	0.0012161	650.84	4.4104e-05	4.8308e-05	541.73	197.91	4.3184e-05	4.8985e-05	186.26	70.141	69.938	29.99	4.6088e-05	33.55	-114.226	-6.407	-16.151	-112.945	23.457	-74.964	-113.739	-107.561	-102.077	29.388	-109.576	-104.689	-103.051	-99.738	35.004	-103.546	-8191	255	
943.183	1	1	0	0	0.15303	0.13947	0.042132	0.12285	0.14728	0.096237	0.08221	0.23121	0.12975	0.27957	0.16199	0.16648	0.14697	0.15433	0.12676	0.31126	-2.8396	-3.4042	-3.7687	-3.0333	-3.6562	-3.3563	-3.1937	-4.0312	-3.125	-3.5729	-3.85	-2.975	-3.7375	-3.5271	-3.0292	-3.8917	61.892	129.976	-89.312	-75.720	17.782	-40.871	152.288	-29.889	-17.996	194.775	195.344	199.646	-13.954	218.667	19.349	230.561	0.00015679	0.00018182	0.00015053	642.78	2.6759e-06	5.029e-06	535.08	194.61	9.8577e-07	2.7528e-06	181.1	68.408	68.002	29.566	2.3351e-06	32.995	0.0025643	0.004512	0.0012518	652.15	4.6269e-05	5.0105e-05	542.5	198.62	4.4788e-05	4.9827e-05	186.95	70.609	70.212	30.216	4.6951e-05	33.898	-118.868	-21.286	-41.074	-112.570	62.629	217.833	-113.558	-106.797	44.654	-26.357	-109.220	-104.911	-102.048	-98.598	-30.410	-102.504	-8191	255	
943.279	1	1	0	0	0.12776	0.16278	0.12533	0.14274	0.25558	0.044157	0.18175	0.088149	0.21943	0.18499	0.13847	0.084793	0.054902	0.081892	0.15923	0.22632	-2.775	-3.275	-3.8812	-2.9313	-3.8146	-3.6813	-2.9979	-4.0188	-3.4417	-3.3896	-3.85	-3.1562	-3.6542	-3.6833	-2.9958	-3.7229	168.891	148.067	-71.442	-74.588	-62.966	-90.816	-116.719	163.241	161.568	-88.811	63.771	57.698	-55.919	-106.185	179.058	158.722	0.00015005	0.00059367	0.00024483	642.09	7.0293e-06	1.531e-06	535.92	196.65	6.8067e-06	3.5633e-06	180.58	68.532	68.567	29.745	6.7728e-06	33.037	0.0025682	0.0045465	0.0012445	651.27	4.541e-05	4.9458e-05	545.76	199.31	4.3784e-05	4.9078e-05	187.7	70.95	70.599	30.323	4.6051e-05	34.025	-114.747	-25.468	44.580	-112.124	48.401	-41.789	-113.616	-106.440	-21.470	47.250	-109.653	-105.645	-102.238	-98.594	38.422	-103.630	-8191	255	
943.375	1	1	0	0	0.15795	0.13064	0.24829	0.21482	0.12939	0.11489	0.070256	0.11758	0.091539	0.11878	0.10436	0.14061	0.18486	0.015498	0.15032	0.11656	-2.9875	-3.1813	-3.8333	-3.1146	-3.4958	-3.5896	-3.125	-3.7854	-3.3604	-3.1104	-3.7667	-3.0896	-3.4333	-3.6333	-2.9604	-3.7687	168.057	37.181	95.638	193.162	181.398	-48.009	192.628	206.063	-64.232	92.321	125.909	207.532	-48.714	200.758	225.565	70.499	0.00014244	0.00061285	0.00021742	645.88	2.4e-06	7.3571e-06	538.16	196.21	8.5216e-07	2.9698e-06	180.24	68.179	67.398	29.337	1.8808e-06	32.843	0.0025928	0.004476	0.0012545	654.65	4.5435e-05	4.9156e-05	545.49	199.16	4.4488e-05	5.0283e-05	187.36	70.885	70.181	30.137	4.6488e-05	33.718	-110.271	-42.171	-23.576	-113.478	-57.922	97.235	-114.306	-107.832	-14.736	-19.449	-110.133	-106.187	-103.650	-100.057	93.768	-103.679	-8191	255	
943.472	1	1	0	0	0.14551	0.11411	0.14667	0.17681	0.19054	0.15052	0.15702	0.21943	0.10096	0.18629	0.13138	0.19005	0.12168	0.40706	0.16974	0.22552	-3.0167	-3.0979	-3.6625	-3.1875	-3.1396	-3.6729	-3.1125	-3.7875	-3.6188	-3.0521	-3.8479	-3.1875	-3.3583	-3.8375	-3.1208	-3.6646	81.051	-6.777	179.563	182.445	66.492	-107.283	144.615	224.068	125.658	107.489	199.475	50.124	102.995	127.939	132.619	-42.751	0.00016087	0.00026132	8.6318e-05	641.39	6.9317e-06	7.2908e-06	532.51	194.96	3.4007e-06	2.0568e-06	179.81	67.449	67.922	29.274	3.238e-06	32.522	0.0025948	0.0045493	0.0012631	650.76	4.5491e-05	4.9403e-05	541.57	198.43	4.3993e-05	4.8807e-05	186.76	70.267	70.222	30.073	4.6466e-05	33.61	-105.001	-83.578	-38.362	-113.274	-24.157	94.912	-114.484	-108.019	58.130	67.586	-110.349	-106.497	-103.844	-100.199	81.813	-103.631	-8191	255	
943.568	1	1	0	0	0.31207	0.27713	0.14924	0.11747	0.24634	0.19025	0.12362	0.16244	0.091218	0.12193	0.097244	0.23618	0.12734	0.27178	0.20564	0.1354	-3.1562	-3.0021	-3.8208	-3.1792	-3.1458	-3.7375	-3.1	-3.6063	-3.5563	-2.9833	-3.6792	-3.225	-3.2708	-3.7271	-3.0396	-3.5187	38.691	-110.101	33.862	-41.230	79.067	46.238	206.816	122.413	-24.919	108.386	219.404	-50.240	172.253	-103.963	-20.586	-109.858	0.0001458	0.00031637	0.00010318	637.31	6.4743e-06	4.3406e-06	535.52	193.92	9.6233e-07	6.2705e-06	180.12	68.172	67.582	29.254	7.0793e-06	32.499	0.0025794	0.0044255	0.0012365	648.19	4.5204e-05	4.8485e-05	542	198.01	4.4835e-05	5.0591e-05	186.68	70.463	69.894	30.025	4.7024e-05	33.499	232.003	-1.707	-44.815	-113.197	27.418	-0.630	-114.568	-107.992	109.054	13.081	-110.159	-106.473	-103.803	-100.368	56.446	-103.530	-8191	255	
943.688	1	1	0	0	0.18234	0.14416	0.042255	0.07805	0.072525	0.19678	0.33388	0.27301	0.17706	0.13067	0.045348	0.16753	0.065877	0.31789	0.21194	0.1239	-3.2313	-2.9708	-3.8	-3.3271	-3.1917	-3.8479	-2.9792	-3.4167	-3.6729	-2.8771	-3.6958	-3.3063	-3.1354	-3.8146	-3.1125	-3.2938	125.092	175.942	-25.858	116.601	3.877	94.685	93.947	107.107	72.569	74.530	221.173	231.960	136.867	206.626	-51.342	196.173	0.00021099	0.00069731	0.00017168	638.71	2.4387e-06	6.044e-06	532.34	194.82	5.7546e-06	2.0663e-06	179.74	67.867	67.425	29.315	6.561e-06	32.953	0.0026665	0.0045378	0.0012829	649.32	4.7391e-05	5.0359e-05	541.77	198.67	4.646e-05	5.1472e-05	187.57	70.699	70.225	30.111	4.7996e-05	33.884	-107.703	-46.670	-33.747	-113.616	17.189	40.010	-114.638	-108.160	4.873	-66.055	-110.178	-106.616	-103.876	-100.130	-0.682	-103.800	-8191	255	
943.783	1	1	0	0	0.027406	0.12632	0.11818	0.13238	0.29991	0.11357	0.078686	0.11811	0.080168	0.17686	0.046558	0.20705	0.16058	0.16325	0.086671	0.085015	-3.3312	-2.975	-3.6188	-3.45	-3.1354	-3.7646	-3.3563	-3.4125	-3.8771	-3.1729	-3.6	-3.6562	-3.1542	-3.8708	-3.175	-3.2708	59.052	-9.213	188.764	144.698	133.597	116.561	132.971	214.694	94.193	-78.158	75.322	-27.145	79.393	227.449	-122.005	-75.066	0.0001849	0.00024425	0.00016818	643.56	6.9875e-06	1.729e-06	535.76	195.39	2.8384e-06	8.1304e-06	180.47	68.706	68.232	30.01	4.1482e-06	33.428	0.0026575	0.0046558	0.0012937	651.61	4.7344e-05	5.1552e-05	544.72	199.23	4.648e-05	5.1476e-05	188.79	71.804	70.919	30.764	4.8397e-05	34.546	-117.490	41.770	45.870	-113.567	43.889	-99.390	-114.169	-108.096	-42.255	79.460	-110.586	-106.536	-103.615	-100.039	20.950	-103.839	-8191	255	
943.879	1	1	0	0	0.067982	0.34178	0.072433	0.11605	0.1059	0.046504	0.30828	0.24249	0.11966	0.19434	0.19646	0.11492	0.12575	0.21296	0.22682	0.18664	-3.45	-2.9813	-3.4729	-3.4979	-2.9979	-3.6646	-3.3167	-3.3187	-3.6125	-3.0938	-3.5271	-3.7708	-3.1354	-3.6979	-3.425	-3.2292	212.882	7.124	202.041	229.345	183.192	204.348	110.956	104.294	-113.376	167.794	166.469	226.535	-66.555	74.835	93.954	227.996	0.0002027	0.00012945	7.518e-05	636.97	5.2028e-06	7.8134e-06	532.08	195.08	7.0892e-06	9.2267e-06	181.11	68.769	68.583	29.918	1.4661e-06	32.842	0.0027246	0.0046427	0.0012904	651.65	4.7323e-05	5.1167e-05	543.56	199.92	4.5899e-05	5.1498e-05	188.69	71.609	71.233	30.718	4.7896e-05	34.233	225.989	-18.341	-112.606	-113.594	-29.260	13.402	-115.122	-107.883	-6.424	8.813	-111.248	-107.023	-103.987	-100.384	143.024	-104.226	-8191	255	
943.975	1	1	0	0	0.045793	0.11252	0.19066	0.098298	0.18092	0.22002	0.20389	0.14699	0.16388	0.10335	0.13291	0.067153	0.30122	0.14762	0.17006	0.088936	-3.4708	-3.0479	-3.4	-3.8083	-3.0292	-3.7562	-3.575	-3.1625	-3.7854	-3.0104	-3.2958	-3.6354	-3.0687	-3.8563	-3.6104	-3.0604	68.925	-87.944	47.870	197.951	-27.482	-15.232	48.875	230.184	-18.339	91.969	180.338	182.312	98.843	57.608	94.322	86.657	0.00016724	0.00023414	3.5775e-05	633.09	2.2637e-06	8.4755e-06	533.51	195.78	3.3294e-06	4.7304e-06	179.82	68.322	68.203	29.899	1.7443e-06	33.141	0.0027081	0.0045773	0.0012972	651.3	4.8067e-05	5.1974e-05	541.89	199.93	4.6933e-05	5.2639e-05	188.56	71.533	71.125	30.756	4.9463e-05	34.268	-124.453	-34.016	-56.650	-113.869	43.635	68.896	-114.902	-107.974	65.911	-120.557	-110.437	-106.615	-103.926	-100.157	194.488	-103.822	-8191	255	
#DATA ENDS
