BOXY.EXE: ISS Imagent and Oximeter Data Acquisition Program Version 0.80
Ascii Record File

#ACQ INFORMATION
2  Detector Channels 
16  External MUX Channels 
1  Auxiliary Channels 
5000  Waveform (CCF) Frequency (Hz)
1  Waveforms Skipped 
30  Waveforms Averaged 
1  Cycles Averaged 
16  Acquisitions per Waveform 
10.0806  Updata Rate (Hz) 

#FILE INFORMATION
TRUE -- External MUX Channel results are PARSED.
FALSE -- AC DC and Phase are NOT grouped.
TRUE -- Companion Program Settings File CREATED.
FALSE -- AC data not excluded
FALSE -- DC data not excluded
FALSE -- Phase data not excluded
FALSE -- Auxillary Chn. data not excluded
Tab delimiters

#CALIBRATION STATE
TRUE -- Waveform Calibration Values APPLIED.


#AUX CALIBRATION VALUES
Val Type	aux-1	

Term	1.0000e+00	
Factor	0.0000e+00	


#WF CALIBRATION VALUES
A = Detector Channel
Val Type	A-AC1	A-AC2	A-AC3	A-AC4	A-AC5	A-AC6	A-AC7	A-AC8	A-AC9	A-AC10	A-AC11	A-AC12	A-AC13	A-AC14	A-AC15	A-AC16	A-DC1	A-DC2	A-DC3	A-DC4	A-DC5	A-DC6	A-DC7	A-DC8	A-DC9	A-DC10	A-DC11	A-DC12	A-DC13	A-DC14	A-DC15	A-DC16	A-Ph1	A-Ph2	A-Ph3	A-Ph4	A-Ph5	A-Ph6	A-Ph7	A-Ph8	A-Ph9	A-Ph10	A-Ph11	A-Ph12	A-Ph13	A-Ph14	A-Ph15	A-Ph16	

Term	0.00000e+00	0.00000e+00	0.00000e+00	0.00000e+00	0.00000e+00	0.00000e+00	0.00000e+00	0.00000e+00	0.00000e+00	0.00000e+00	0.00000e+00	0.00000e+00	0.00000e+00	0.00000e+00	0.00000e+00	0.00000e+00	0.00000e+00	0.00000e+00	0.00000e+00	0.00000e+00	0.00000e+00	0.00000e+00	0.00000e+00	0.00000e+00	0.00000e+00	0.00000e+00	0.00000e+00	0.00000e+00	0.00000e+00	0.00000e+00	0.00000e+00	0.00000e+00	0.00000e+00	0.00000e+00	0.00000e+00	0.00000e+00	0.00000e+00	0.00000e+00	0.00000e+00	0.00000e+00	0.00000e+00	0.00000e+00	0.00000e+00	0.00000e+00	0.00000e+00	0.00000e+00	0.00000e+00	0.00000e+00	
Factor	1.00000e+00	1.00000e+00	1.00000e+00	1.00000e+00	1.00000e+00	1.00000e+00	1.00000e+00	1.00000e+00	1.00000e+00	1.00000e+00	1.00000e+00	1.00000e+00	1.00000e+00	1.00000e+00	1.00000e+00	1.00000e+00	1.00000e+00	1.00000e+00	1.00000e+00	1.00000e+00	1.00000e+00	1.00000e+00	1.00000e+00	1.00000e+00	1.00000e+00	1.00000e+00	1.00000e+00	1.00000e+00	1.00000e+00	1.00000e+00	1.00000e+00	1.00000e+00	X	X	X	X	X	X	X	X	X	X	X	X	X	X	X	X	

B = Detector Channel
Val Type	B-AC1	B-AC2	B-AC3	B-AC4	B-AC5	B-AC6	B-AC7	B-AC8	B-AC9	B-AC10	B-AC11	B-AC12	B-AC13	B-AC14	B-AC15	B-AC16	B-DC1	B-DC2	B-DC3	B-DC4	B-DC5	B-DC6	B-DC7	B-DC8	B-DC9	B-DC10	B-DC11	B-DC12	B-DC13	B-DC14	B-DC15	B-DC16	B-Ph1	B-Ph2	B-Ph3	B-Ph4	B-Ph5	B-Ph6	B-Ph7	B-Ph8	B-Ph9	B-Ph10	B-Ph11	B-Ph12	B-Ph13	B-Ph14	B-Ph15	B-Ph16	

Term	0.00000e+00	0.00000e+00	0.00000e+00	0.00000e+00	0.00000e+00	0.00000e+00	0.00000e+00	0.00000e+00	0.00000e+00	0.00000e+00	0.00000e+00	0.00000e+00	0.00000e+00	0.00000e+00	0.00000e+00	0.00000e+00	0.00000e+00	0.00000e+00	0.00000e+00	0.00000e+00	0.00000e+00	0.00000e+00	0.00000e+00	0.00000e+00	0.00000e+00	0.00000e+00	0.00000e+00	0.00000e+00	0.00000e+00	0.00000e+00	0.00000e+00	0.00000e+00	-4.94537e+01	-1.32809e+02	-1.23513e+02	-1.81272e+02	-4.96041e+01	-6.63140e+01	-1.58454e+02	-1.62015e+02	-4.15339e+01	-6.63104e+01	-1.70397e+02	-1.70056e+02	-1.81304e+02	-1.76553e+02	-5.05393e+01	-1.49279e+02	
Factor	1.87085e-05	1.43766e-04	4.24095e-05	1.53419e-01	1.53692e-06	1.72329e-06	1.65314e-01	5.65315e-02	1.29581e-06	1.63815e-06	8.74246e-02	2.87404e-02	2.54357e-02	8.54675e-03	1.52938e-06	1.21105e-02	1.62134e-05	3.95395e-05	1.11172e-05	7.86664e-02	3.62932e-07	4.53557e-07	7.97313e-02	2.91212e-02	3.67586e-07	4.50120e-07	4.36910e-02	1.44261e-02	1.32318e-02	4.45127e-03	3.92718e-07	6.10433e-03	X	X	X	X	X	X	X	X	X	X	X	X	X	X	X	X	



#DISTANCE SETTINGS
A = Detector Channel
A-1	A-2	A-3	A-4	A-5	A-6	A-7	A-8	A-9	A-10	A-11	A-12	A-13	A-14	A-15	A-16	

2.5000e+00	3.0000e+00	2.5000e+00	3.0000e+00	2.0000e+00	3.0000e+00	1.5000e+00	3.0000e+00	3.0000e+00	3.0000e+00	3.0000e+00	3.0000e+00	3.0000e+00	3.0000e+00	1.5000e+00	3.0000e+00	

B = Detector Channel
B-1	B-2	B-3	B-4	B-5	B-6	B-7	B-8	B-9	B-10	B-11	B-12	B-13	B-14	B-15	B-16	

1.0000e+01	1.0000e+01	1.0000e+01	1.4400e+00	1.0000e+01	1.0000e+01	1.5100e+00	1.9400e+00	1.0000e+01	1.0000e+01	1.9900e+00	2.4900e+00	2.4100e+00	2.9000e+00	1.0000e+01	2.9800e+00	




#DATA BEGINS
time	group	step	mark	flag	A-AC1	A-AC2	A-AC3	A-AC4	A-AC5	A-AC6	A-AC7	A-AC8	A-AC9	A-AC10	A-AC11	A-AC12	A-AC13	A-AC14	A-AC15	A-AC16	A-DC1	A-DC2	A-DC3	A-DC4	A-DC5	A-DC6	A-DC7	A-DC8	A-DC9	A-DC10	A-DC11	A-DC12	A-DC13	A-DC14	A-DC15	A-DC16	A-Ph1	A-Ph2	A-Ph3	A-Ph4	A-Ph5	A-Ph6	A-Ph7	A-Ph8	A-Ph9	A-Ph10	A-Ph11	A-Ph12	A-Ph13	A-Ph14	A-Ph15	A-Ph16	B-AC1	B-AC2	B-AC3	B-AC4	B-AC5	B-AC6	B-AC7	B-AC8	B-AC9	B-AC10	B-AC11	B-AC12	B-AC13	B-AC14	B-AC15	B-AC16	B-DC1	B-DC2	B-DC3	B-DC4	B-DC5	B-DC6	B-DC7	B-DC8	B-DC9	B-DC10	B-DC11	B-DC12	B-DC13	B-DC14	B-DC15	B-DC16	B-Ph1	B-Ph2	B-Ph3	B-Ph4	B-Ph5	B-Ph6	B-Ph7	B-Ph8	B-Ph9	B-Ph10	B-Ph11	B-Ph12	B-Ph13	B-Ph14	B-Ph15	B-Ph16	aux-1	digaux	

30008.342	1	1	0	256	0.31905	0.17016	0.12047	0.14354	0.13593	0.051118	0.15507	0.073896	0.1198	0.36904	0.17062	0.11963	0.055885	0.19385	0.31172	0.14487	-2.2333	-2.6479	-3.1833	-2.6167	-3.0229	-3.1021	-2.625	-3.3208	-2.7104	-2.5375	-3.3812	-2.6125	-2.8708	-3.1375	-2.4333	-3.3187	343.628	262.389	277.905	180.969	290.693	205.326	490.110	479.424	477.837	284.896	260.968	236.231	474.788	367.364	174.804	164.114	0.00030026	0.00025803	8.2207e-05	1115.6	3.4046e-06	1.9378e-06	1189.7	230.17	2.2892e-06	4.1418e-06	285.62	77.185	61.259	17.64	4.4055e-06	24.723	0.00046022	0.00069194	0.00019147	1099.9	6.9577e-06	7.6887e-06	1176	227.86	6.7651e-06	7.8715e-06	284.13	77.424	61.404	17.947	7.4158e-06	25.116	274.793	243.588	269.679	174.574	327.628	316.326	174.440	182.021	314.841	308.336	181.881	188.727	189.508	196.134	336.484	195.612	-8191	255	
30008.412	1	1	0	0	0.12277	0.37271	0.15336	0.16839	0.099519	0.066003	0.11586	0.29018	0.14974	0.15816	0.20722	0.10796	0.31731	0.22525	0.1517	0.04716	-2.4604	-2.4208	-3.1146	-2.5208	-2.9333	-3.1625	-2.7229	-3.0042	-3.0042	-2.6813	-3.3896	-2.6354	-2.7958	-3.1125	-2.3292	-3.225	178.022	476.015	274.015	440.858	413.019	397.451	436.015	227.087	438.922	490.549	433.029	213.082	251.133	273.796	354.883	472.408	0.00026869	0.00040749	0.00011962	1112.6	3.5231e-06	1.3759e-06	1191.7	229.06	3.4761e-06	2.3151e-06	285.16	77.519	61.314	17.762	1.6681e-06	24.594	0.00045296	0.00067975	0.00018322	1100.3	6.7468e-06	7.2871e-06	1177.1	227.82	7.027e-06	7.9109e-06	284.46	77.565	61.51	17.994	7.3226e-06	25.081	277.039	269.432	243.858	174.549	317.882	337.696	174.786	182.211	331.758	306.057	181.969	188.805	189.139	196.497	343.492	195.604	-8191	255	
30008.510	1	1	0	0	0.12444	0.1794	0.27307	0.44158	0.13795	0.25276	0.39147	0.091552	0.19289	0.18465	0.29321	0.27611	0.23937	0.23284	0.052125	0.31008	-2.4562	-2.4688	-3.0208	-2.6708	-2.7125	-3.1688	-2.6188	-3.0979	-3.0729	-2.4208	-3.4604	-2.6813	-2.7354	-3.1646	-2.3125	-2.9229	390.968	448.863	452.815	439.694	286.341	491.342	444.426	442.769	447.718	410.125	428.316	453.354	454.881	407.919	248.571	496.518	0.00029017	0.00025963	0.00010394	1117.6	4.3997e-06	3.0863e-06	1199	228.28	3.444e-06	3.2407e-06	285.4	77.428	61.5	17.71	3.3678e-06	24.624	0.00045148	0.0007029	0.00018779	1100.3	7.2072e-06	7.5489e-06	1179.9	227.64	7.0194e-06	8.1219e-06	285.13	77.526	61.616	17.967	7.0714e-06	25.059	278.202	235.225	249.505	174.606	300.872	296.553	174.414	182.004	324.220	317.360	181.832	188.570	188.916	196.301	314.405	195.946	-8191	255	
30008.605	1	1	0	0	0.18641	0.050604	0.076884	0.085261	0.11124	0.099474	0.41451	0.20269	0.177	0.2443	0.2346	0.10865	0.08271	0.34027	0.12959	0.10683	-2.6625	-2.2771	-3.0896	-2.9604	-2.6375	-3.275	-2.4792	-3.0542	-3.2562	-2.5958	-3.0312	-2.925	-2.4	-3.4833	-2.5604	-2.8937	426.935	371.611	499.220	468.144	259.737	431.699	461.243	461.680	317.322	421.751	486.229	212.051	225.187	172.347	459.105	427.945	0.00028475	0.00029551	6.9156e-05	1114.8	2.2004e-06	1.9349e-06	1194.5	228.35	2.8653e-06	2.4531e-06	284.72	77.406	61.569	17.685	3.0123e-06	24.706	0.00046762	0.00072687	0.00019307	1101.7	7.462e-06	7.6802e-06	1180.3	227.5	6.7636e-06	7.7402e-06	284.81	77.591	61.646	17.997	7.0313e-06	25.145	280.566	247.473	239.321	174.450	333.934	304.765	174.412	181.672	328.122	297.372	181.932	188.570	189.584	196.382	326.892	195.553	-8191	255	
30008.727	1	1	0	0	0.42936	0.11697	0.19355	0.22024	0.22217	0.16571	0.11547	0.20855	0.12222	0.27035	0.13121	0.22925	0.15703	0.13734	0.24948	0.15346	-2.8208	-2.4167	-3.1333	-3.1625	-2.5292	-3.3229	-2.7396	-2.7875	-3.2438	-2.6083	-2.9521	-2.9292	-2.4083	-3.25	-2.4854	-2.7542	412.937	471.750	260.983	503.688	500.042	274.303	226.417	437.894	308.771	393.892	479.356	495.580	362.390	341.375	215.375	444.571	0.00026741	0.00035118	4.0395e-05	1114.3	3.6278e-06	4.1611e-06	1195.6	229.5	3.2557e-06	2.1804e-06	285.8	77.554	61.673	17.827	3.9153e-06	24.698	0.00045519	0.00071954	0.00018179	1101.7	7.0061e-06	7.3542e-06	1179.7	227.94	6.8708e-06	7.9653e-06	285.23	77.663	61.67	18.031	6.7638e-06	25.172	278.274	250.522	245.958	174.586	312.948	325.542	174.514	182.019	321.885	298.161	181.561	188.564	189.307	196.360	344.571	195.727	-8191	255	
30008.822	1	1	0	0	0.40081	0.33373	0.067816	0.27547	0.14634	0.039622	0.18033	0.24094	0.093081	0.16337	0.025342	0.046695	0.23853	0.15777	0.2294	0.12357	-2.8417	-2.4979	-3.0187	-3.0854	-2.55	-3.2417	-2.8771	-2.6063	-3.2771	-2.6312	-3.0708	-3.0687	-2.475	-3.3333	-2.6771	-2.6479	475.776	335.113	440.903	505.864	489.232	320.774	169.533	460.670	259.756	278.782	295.168	213.617	173.701	513.289	259.115	209.560	0.00030047	0.00017706	9.7113e-05	1118.3	4.3436e-06	3.3099e-06	1200.9	230.5	2.5149e-06	2.8925e-06	286.45	77.744	61.709	17.801	3.7923e-06	24.782	0.00045131	0.00067472	0.00018888	1105.2	7.0999e-06	7.685e-06	1184	228.34	6.5752e-06	7.653e-06	285.92	77.82	61.903	18.088	6.9601e-06	25.186	281.706	319.072	248.219	174.510	324.458	341.783	174.567	182.028	334.808	292.114	181.573	188.978	188.931	196.206	329.718	195.584	-8191	255	
30008.918	1	1	0	0	0.1164	0.15535	0.037047	0.1848	0.058085	0.31222	0.17022	0.24755	0.16983	0.1167	0.084842	0.069304	0.1025	0.24974	0.15231	0.095402	-2.9396	-2.4208	-2.8875	-3.1375	-2.2771	-3.2104	-2.8958	-2.4792	-3.3375	-2.5042	-3.0417	-3.3458	-2.3896	-3.1604	-2.9229	-2.5167	460.068	230.373	492.472	388.674	325.547	510.530	394.396	510.540	259.035	380.877	365.659	436.891	222.053	479.416	170.446	291.101	0.0002834	0.00023936	6.1306e-05	1117.2	2.8602e-06	2.0049e-06	1202.1	230.19	3.1128e-06	2.7133e-06	286.2	77.728	61.765	17.779	1.1124e-06	24.707	0.00043239	0.00069301	0.00018246	1104.3	6.9796e-06	7.5045e-06	1184	228.63	6.8042e-06	7.4279e-06	285.86	77.988	61.768	18.024	6.5199e-06	25.251	270.416	248.324	268.566	174.323	315.442	273.995	174.400	182.072	306.123	302.897	181.525	188.617	188.994	195.865	343.112	195.585	-8191	255	
30009.014	1	1	0	0	0.16627	0.20472	0.15532	0.25437	0.076876	0.08971	0.096791	0.35002	0.061664	0.30876	0.19461	0.08137	0.21368	0.066221	0.25798	0.24615	-3.0521	-2.6562	-2.6562	-3.3021	-2.35	-3.0896	-3.2313	-2.6604	-3.2	-2.9604	-2.9062	-3.3646	-2.4104	-3.0771	-3.0354	-2.4792	410.469	265.436	413.043	191.448	235.866	440.184	487.367	454.198	434.107	177.731	446.309	449.459	194.216	499.228	438.243	425.281	0.00027743	0.00025295	9.2834e-05	1122.3	4.57e-06	2.1674e-06	1200	229.88	3.0756e-06	2.9616e-06	285.64	77.506	61.648	17.834	4.3506e-06	24.703	0.00043367	0.00067835	0.00018649	1105.8	7.0938e-06	7.2569e-06	1185.4	228.43	6.6786e-06	7.4692e-06	285.92	78.053	61.782	18.098	7.0215e-06	25.177	275.243	225.701	271.600	174.265	322.010	312.057	174.484	182.093	333.139	285.632	182.129	188.470	189.207	196.993	326.717	195.705	-8191	255	
30009.111	1	1	0	0	0.19254	0.15179	0.07469	0.33033	0.19148	0.28019	0.10757	0.10808	0.25031	0.21709	0.26331	0.28867	0.11828	0.1252	0.23218	0.1308	-2.7104	-2.8063	-2.6708	-3.3792	-2.3271	-2.9146	-3.3187	-2.525	-3.1042	-2.8563	-2.6625	-3.3	-2.6708	-2.9417	-3.1875	-2.5896	406.152	169.821	200.818	172.541	342.823	356.206	415.534	219.146	194.025	298.818	435.206	234.241	468.631	181.783	399.801	391.016	0.00028705	0.00019087	7.717e-05	1120.6	3.3912e-06	2.8441e-06	1197.5	229.28	3.2441e-06	3.6759e-06	287.45	77.573	61.487	17.653	3.8989e-06	24.832	0.00045529	0.00070759	0.00019846	1106.2	7.0613e-06	7.4459e-06	1183.4	227.76	6.9481e-06	7.593e-06	285.95	78.008	61.793	18.078	6.8857e-06	25.237	276.768	252.105	248.255	174.456	341.384	330.966	174.483	182.314	325.556	332.263	181.680	188.895	189.225	196.425	316.072	195.564	-8191	255	
30009.207	1	1	0	0	0.11831	0.2102	0.1911	0.13975	0.22795	0.11136	0.16515	0.05398	0.21686	0.12129	0.29801	0.12726	0.19346	0.17125	0.062481	0.22385	-2.8542	-2.7229	-2.5792	-3.4146	-2.6333	-2.8229	-3.325	-2.4146	-3.0479	-2.9792	-2.4333	-3.3958	-2.525	-2.8042	-3.3854	-2.5312	287.162	470.358	206.775	449.454	171.754	428.552	450.183	452.610	410.396	171.634	474.850	328.493	416.844	284.546	518.969	494.164	0.0002515	0.0001808	0.00010879	1120.1	3.2051e-06	3.3414e-06	1201.8	228.33	3.602e-06	3.5393e-06	287.44	77.475	61.35	17.778	3.1603e-06	24.619	0.00044239	0.00069375	0.0001914	1107.5	7.2208e-06	8.0043e-06	1185.4	227.64	6.9719e-06	7.5592e-06	286.67	77.703	61.79	18.064	6.9634e-06	25.201	276.815	242.065	286.208	173.936	303.929	301.900	174.010	181.492	319.015	321.339	181.295	188.099	188.631	196.284	345.525	195.162	-8191	255	
30009.303	1	1	0	0	0.19479	0.21217	0.12675	0.018072	0.16485	0.16783	0.28655	0.18915	0.069361	0.25615	0.29488	0.2057	0.061675	0.048206	0.15726	0.26509	-2.8063	-2.8937	-2.4583	-3.45	-2.7208	-2.6958	-3.4208	-2.4521	-2.975	-2.9542	-2.5229	-3.2562	-2.9229	-2.6979	-3.2521	-2.4667	431.565	322.208	308.081	465.583	458.268	265.784	456.397	426.828	256.103	200.969	393.072	453.323	199.759	262.630	165.233	190.068	0.00026678	9.3638e-05	8.2153e-05	1122.9	5.0489e-06	3.931e-06	1201	228.93	3.2119e-06	3.462e-06	285.93	77.697	61.617	17.77	4.6168e-06	24.64	0.00044752	0.00066986	0.00019175	1106.1	7.3834e-06	7.8087e-06	1185.7	227.68	7.0691e-06	7.562e-06	286.08	77.871	61.94	18.056	7.3177e-06	25.2	274.469	237.841	282.163	173.835	332.684	338.528	173.883	181.688	334.640	297.506	181.153	188.296	188.826	195.975	310.788	195.232	-8191	255	
30009.422	1	1	0	0	0.045985	0.046621	0.13664	0.24444	0.12639	0.13682	0.2832	0.27778	0.037918	0.17419	0.22509	0.24033	0.066537	0.18871	0.24518	0.25297	-2.6292	-3	-2.4458	-3.2229	-2.8458	-2.5729	-3.4604	-2.6375	-2.7208	-3.1292	-2.4667	-3.1521	-2.9667	-2.3229	-3.225	-2.5542	373.145	378.205	369.503	505.727	233.559	253.323	457.187	267.492	325.111	449.705	236.837	187.151	452.931	229.066	296.729	391.110	0.00028679	0.00027331	0.00012052	1119.3	3.4686e-06	2.1498e-06	1197.4	229.73	3.1859e-06	3.3944e-06	287.1	78.004	62.083	17.7	4.0372e-06	24.635	0.00046688	0.00069169	0.00019694	1106.6	7.1218e-06	7.8012e-06	1184.4	228.19	7.0921e-06	7.3463e-06	286.31	78.095	61.809	18.033	7.001e-06	25.169	278.445	239.211	271.587	174.398	283.875	337.987	173.851	181.588	285.049	294.236	181.264	188.190	188.699	196.501	313.892	195.142	-8191	255	
30009.518	1	1	0	0	0.19917	0.08162	0.095758	0.25059	0.20276	0.20039	0.21207	0.1642	0.20502	0.31166	0.12125	0.24966	0.063758	0.060572	0.066564	0.15127	-2.2042	-2.9729	-2.4333	-3.0479	-2.8979	-2.3271	-3.4354	-2.7125	-2.8479	-3.3583	-2.6937	-3.1208	-2.9896	-2.4667	-3.3604	-2.725	305.926	511.480	481.448	486.931	223.344	317.223	455.376	418.926	263.815	201.375	236.974	294.144	509.070	399.865	452.828	297.723	0.00026625	0.00016548	8.5569e-05	1117.2	4.4333e-06	2.9775e-06	1199.1	228.26	3.4217e-06	8.291e-07	285.39	77.39	61.91	17.704	2.6933e-06	24.731	0.00045918	0.00067645	0.00020108	1106.2	7.3773e-06	8.2774e-06	1184.9	227.68	7.1901e-06	7.5264e-06	285.42	77.842	61.889	18.023	7.0043e-06	25.221	277.372	264.156	258.732	174.045	312.941	310.307	174.076	181.668	322.673	386.558	181.242	188.295	188.567	196.083	297.378	195.402	-8191	255	
30009.613	1	1	0	0	0.36581	0.1302	0.25758	0.23548	0.1637	0.13613	0.052621	0.25911	0.11312	0.053748	0.32483	0.28974	0.16198	0.15939	0.07301	0.24445	-2.3937	-3.3104	-2.5062	-3.2896	-3.0187	-2.4313	-3.2208	-2.9021	-2.625	-3.3375	-2.5125	-3.0729	-3.1979	-2.4792	-3.2271	-2.925	487.595	264.635	469.262	459.593	331.768	345.605	363.605	163.759	273.987	446.259	469.922	487.352	415.551	223.477	167.502	494.864	0.00028708	0.00020768	5.2339e-05	1119.5	3.157e-06	1.968e-06	1199.1	229.43	3.3853e-06	1.7201e-06	284.26	77.132	61.661	17.76	2.9382e-06	24.653	0.00048252	0.00068568	0.00020453	1105.6	7.2276e-06	8.1631e-06	1184.2	228.2	7.2039e-06	8.0684e-06	285.11	77.813	61.776	18.046	7.3013e-06	25.126	274.389	249.811	279.725	174.186	308.622	323.204	173.886	181.664	308.963	344.971	180.863	187.702	188.461	196.176	316.108	195.274	-8191	255	
30009.711	1	1	0	0	0.029461	0.12007	0.047381	0.16659	0.004464	0.22675	0.20574	0.2187	0.069769	0.12886	0.13758	0.079604	0.061641	0.1064	0.12067	0.099915	-2.2375	-3.2521	-2.5021	-2.8812	-3.3688	-2.3688	-3.1646	-2.8	-2.6771	-3.4333	-2.6458	-2.9125	-3.1917	-2.6458	-3.0958	-3.0583	190.852	436.336	344.074	375.631	361.114	355.617	358.230	173.490	426.613	520.689	517.931	208.392	174.686	175.991	429.242	395.604	0.00026723	0.0002997	6.6878e-05	1119.7	2.5637e-06	2.651e-06	1196.1	230.37	1.2698e-07	1.8968e-06	285.91	76.957	61.179	17.893	2.5228e-06	24.618	0.0004532	0.00066682	0.00020428	1106.5	7.2995e-06	8.2642e-06	1184	228.34	7.3341e-06	7.4157e-06	285.98	77.72	61.734	18.104	6.5011e-06	25.152	275.266	242.966	270.610	174.275	305.659	308.957	174.137	181.787	323.089	324.032	180.970	188.369	189.007	196.028	319.752	195.327	-8191	255	
30009.807	1	1	0	0	0.096351	0.38483	0.25575	0.31964	0.1749	0.1636	0.31967	0.13899	0.056863	0.11872	0.088141	0.25815	0.20868	0.15388	0.41067	0.057408	-2.0375	-3.4917	-2.8187	-2.7146	-3.2687	-2.5646	-3.4	-3.2229	-2.5354	-3.3208	-2.9208	-2.9833	-3.3333	-2.6792	-2.9688	-3.0833	401.159	457.610	483.751	485.239	221.022	213.957	509.520	408.581	440.085	220.250	315.592	412.634	254.814	505.664	492.726	391.127	0.00028112	0.00036804	8.8005e-05	1121.6	2.2307e-06	2.5699e-06	1200.5	229.88	3.6119e-06	1.8965e-06	288.22	77.632	61.424	17.717	3.1832e-06	24.712	0.00046228	0.00067991	0.00018915	1107.1	6.836e-06	7.5649e-06	1185.4	228.17	7.0622e-06	6.9966e-06	286.4	77.999	61.793	18.043	7.1876e-06	25.187	280.116	275.389	264.690	174.033	307.707	277.447	174.177	181.570	330.567	353.396	181.105	188.020	188.889	196.117	338.088	195.065	-8191	255	
30009.902	1	1	0	0	0.24819	0.10345	0.27962	0.32755	0.15326	0.083028	0.24098	0.3536	0.15667	0.23984	0.30629	0.15607	0.06403	0.23114	0.27563	0.27781	-2.1729	-3.2062	-2.7458	-2.8333	-3.4417	-2.6437	-3.2396	-3.3417	-2.5938	-3.2542	-2.8958	-2.5875	-3.3708	-2.7646	-2.8396	-3.1646	180.845	262.823	367.008	501.597	339.228	198.071	453.627	506.949	287.515	296.446	506.057	448.206	393.197	492.021	469.460	444.939	0.0002799	0.00025108	7.8825e-05	1125.8	5.4335e-06	3.3267e-06	1202.9	229.42	2.8553e-06	5.2793e-06	286.16	77.537	61.863	17.868	3.2813e-06	24.921	0.00046607	0.00067308	0.00018573	1108.6	7.0038e-06	7.5546e-06	1185.6	228.26	6.9612e-06	7.8837e-06	286.04	78.028	61.894	18.128	6.9855e-06	25.239	277.220	245.216	260.439	174.447	313.281	287.447	174.254	181.631	334.777	309.958	181.305	188.017	188.816	195.987	316.837	195.312	-8191	255	
30010.023	1	1	0	0	0.2373	0.15139	0.067748	0.28684	0.047084	0.14162	0.28938	0.061914	0.17829	0.23485	0.070144	0.10081	0.12023	0.071075	0.20543	0.12224	-2.2583	-3.1937	-2.8729	-2.575	-3.2729	-2.6937	-2.9021	-3.3521	-2.475	-3.0687	-3.1312	-2.5542	-3.4458	-2.925	-2.8125	-3.2458	186.429	197.701	211.048	180.605	179.168	267.581	478.059	285.630	441.470	270.329	450.703	297.636	485.228	266.680	418.912	191.765	0.00029883	0.00026861	0.00011071	1122.3	3.1338e-06	3.1593e-06	1201.9	230.02	2.7472e-06	1.0562e-06	287.07	77.75	61.744	17.704	1.3443e-06	24.673	0.00046968	0.00065537	0.00019916	1108.1	6.842e-06	7.7275e-06	1185.9	228.48	7.2322e-06	7.637e-06	286.16	77.896	61.931	18.054	6.8701e-06	25.165	276.388	268.683	248.059	173.976	295.509	321.243	174.318	182.038	289.149	295.613	181.158	188.669	188.901	196.095	334.099	195.412	-8191	255	
30010.119	1	1	0	0	0.0027268	0.12806	0.14202	0.37618	0.33877	0.10704	0.38812	0.16254	0.15936	0.072216	0.10445	0.050056	0.078181	0.051705	0.18495	0.16565	-2.2208	-3.2208	-3.1458	-2.5563	-3.2729	-2.7375	-2.7958	-3.375	-2.5021	-3.0792	-3.3958	-2.4542	-3.225	-2.85	-2.6271	-3.3896	329.363	352.174	252.789	506.502	211.070	266.207	476.805	282.087	465.718	518.677	364.728	365.456	201.157	365.686	492.030	453.178	0.00026652	0.00033104	0.0001157	1122.4	3.6547e-06	3.1178e-06	1202.9	230	2.6699e-06	2.9996e-06	286.61	77.045	61.798	17.717	4.4152e-06	24.807	0.00046789	0.00070998	0.0001989	1109.6	7.2798e-06	7.6368e-06	1187.8	228.13	7.05e-06	8.0131e-06	286.42	77.817	61.95	18.026	7.5369e-06	25.181	277.061	244.649	254.880	174.579	323.139	310.120	174.535	182.136	320.841	328.809	181.790	188.652	189.261	196.156	325.713	195.536	-8191	255	
30010.215	1	1	0	0	0.15603	0.082814	0.12647	0.25659	0.16527	0.034884	0.39255	0.28529	0.10245	0.02444	0.22579	0.083719	0.20058	0.38756	0.15295	0.13891	-2.1958	-3.0104	-3.1354	-2.4958	-3.2125	-2.625	-2.7146	-3.4521	-2.7021	-2.8063	-3.1042	-2.7542	-3.2125	-3.0375	-2.5229	-3.3792	271.981	441.052	469.349	516.113	339.657	177.238	177.946	415.437	199.517	285.023	449.177	207.955	513.958	418.074	340.945	228.642	0.00028597	0.00033198	9.843e-05	1124.8	3.3259e-06	2.3372e-06	1207.1	231.34	3.0676e-06	2.8794e-06	287.04	77.356	61.85	17.642	2.2466e-06	24.805	0.00048022	0.00074095	0.00019013	1110.5	7.4582e-06	7.9325e-06	1189.9	228.91	6.9665e-06	7.9606e-06	286.42	77.923	62.053	18.036	7.4854e-06	25.25	273.635	252.683	258.908	174.705	320.496	299.308	174.688	182.576	323.215	326.315	181.883	189.277	189.673	197.113	291.492	196.192	-8191	255	
30010.287	1	1	0	0	0.22851	0.13826	0.23911	0.16489	0.21696	0.086127	0.20613	0.20556	0.17291	0.17332	0.28263	0.092928	0.20868	0.029431	0.21151	0.062823	-2.4313	-2.8187	-3.4125	-2.6979	-3.225	-3.1667	-2.6583	-3.3333	-2.7271	-2.8021	-3.3979	-2.6813	-3.0521	-3.2479	-2.4875	-3.3958	382.928	453.042	336.614	401.207	515.213	428.337	402.206	389.931	206.469	520.772	424.613	428.589	212.307	337.144	312.402	456.578	0.00026144	0.00019519	5.5447e-05	1121.9	2.5827e-06	2.0109e-06	1207.5	229.94	2.7946e-06	3.5414e-06	285.9	77.369	61.105	17.792	2.4631e-06	24.683	0.0004588	0.00069664	0.00018846	1110	7.2065e-06	7.89e-06	1190.5	228.72	7.1702e-06	7.9577e-06	286.16	77.952	61.868	18.072	7.3888e-06	25.187	277.057	288.776	264.696	174.809	330.559	294.805	174.758	182.341	295.207	330.051	181.708	188.702	189.161	196.146	327.376	195.934	-8191	255	
30010.406	1	1	0	0	0.20702	0.075651	0.2635	0.29925	0.16888	0.15241	0.34323	0.20838	0.12845	0.14526	0.069491	0.24336	0.093624	0.1607	0.18927	0.12691	-2.4729	-2.5354	-3.4542	-2.7104	-3.0625	-3.3688	-2.5187	-3.2083	-2.8708	-2.5563	-3.3917	-2.6437	-3.0042	-3.3333	-2.5604	-3.2313	338.467	505.018	321.938	491.427	428.860	312.121	469.961	519.964	296.258	479.588	232.834	480.029	250.206	323.426	449.557	215.119	0.00028149	0.00029423	6.6813e-05	1123.9	4.3676e-06	2.6692e-06	1205.9	229.48	3.0469e-06	3.9957e-06	288.03	77.559	61.462	17.756	2.7297e-06	24.849	0.00046411	0.0007169	0.00019948	1111.6	7.3622e-06	8.0223e-06	1189.6	228.43	7.1281e-06	7.8658e-06	287.26	78.02	61.954	18.088	7.5819e-06	25.293	278.609	243.612	258.395	174.025	305.718	303.144	173.930	181.251	305.902	296.922	180.977	188.295	188.944	196.338	291.189	195.206	-8191	255	
30010.502	1	1	0	0	0.159	0.22969	0.15383	0.16685	0.4545	0.069685	0.17465	0.047057	0.21117	0.13575	0.20539	0.2675	0.15819	0.13061	0.23172	0.29991	-2.5312	-2.6063	-3.3125	-2.6458	-2.7979	-3.2375	-2.5875	-3.2	-2.9167	-2.5458	-3.4292	-2.7333	-2.775	-3.3375	-2.5458	-3.2562	430.448	227.164	515.797	499.578	309.632	270.938	490.096	483.967	169.237	241.456	175.033	522.376	408.748	224.085	218.034	336.894	0.00028339	0.00026224	9.0748e-05	1126	3.9706e-06	2.1801e-06	1208	230.51	3.6125e-06	3.0399e-06	287.67	77.549	61.782	17.674	2.6452e-06	24.749	0.00045485	0.00072975	0.00018681	1112	7.4983e-06	7.8418e-06	1191.2	228.99	7.1626e-06	7.9437e-06	286.64	78.003	62.018	18.107	7.2825e-06	25.282	278.928	251.006	274.211	174.179	315.530	332.026	174.142	181.770	299.039	338.950	181.428	188.570	188.776	196.454	307.937	195.933	-8191	255	
30010.598	1	1	0	0	0.3123	0.20088	0.1804	0.055442	0.14596	0.10917	0.085979	0.19061	0.18703	0.091871	0.22053	0.20384	0.16005	0.16661	0.27484	0.16517	-2.9229	-2.525	-3.3792	-2.9854	-2.6042	-3.4375	-2.7625	-3.1437	-3.1292	-2.5958	-3.4729	-2.8083	-2.7521	-3.3812	-2.6542	-3.0979	372.487	254.069	365.007	167.420	263.635	495.203	466.038	191.957	213.877	507.926	505.855	459.082	497.648	223.339	215.387	363.982	0.00027277	0.0001786	0.0001013	1124	2.5101e-06	2.7601e-06	1208.6	230.43	2.0572e-06	4.9196e-06	287.89	78.313	61.878	17.88	1.9385e-06	24.881	0.00044306	0.00072983	0.00020363	1111	7.5308e-06	7.941e-06	1191.4	229.1	7.0814e-06	8.3479e-06	286.96	78.245	61.958	18.143	7.4649e-06	25.224	277.852	246.141	236.420	174.410	328.831	297.794	174.969	182.361	323.560	304.791	182.204	189.143	189.682	197.039	338.069	196.296	-8191	255	
30010.693	1	1	0	0	0.076716	0.18088	0.12356	0.084954	0.093515	0.22491	0.10842	0.15089	0.16611	0.17283	0.047727	0.30937	0.43402	0.21987	0.43865	0.053879	-2.9062	-2.4896	-3.1937	-3.0125	-2.5167	-3.3688	-2.9562	-2.8542	-3.4167	-2.4354	-3.2271	-3.0396	-2.4271	-3.4458	-2.8458	-3.0521	451.176	176.656	413.428	395.859	265.154	349.512	509.803	486.369	252.163	289.761	505.296	482.973	165.753	407.350	350.396	347.421	0.00028774	0.00029608	8.2173e-05	1121	3.7944e-06	2.5274e-06	1203.3	230.24	2.9703e-06	2.9489e-06	288.28	78	61.756	17.837	2.8367e-06	24.832	0.00046093	0.00070141	0.00019068	1110.7	7.4431e-06	7.7388e-06	1189	229.15	7.0477e-06	7.9699e-06	287.22	78.077	62.022	18.113	7.3627e-06	25.302	275.629	269.591	277.116	174.865	324.962	309.888	175.236	182.862	355.802	348.746	182.139	188.763	189.393	197.103	314.538	196.106	-8191	255	
30010.814	1	1	0	0	0.11362	0.069229	0.11193	0.16492	0.28946	0.076251	0.1847	0.18418	0.32074	0.063719	0.11157	0.18168	0.095965	0.22154	0.11488	0.066421	-2.9979	-2.4729	-3.0375	-3.0625	-2.4792	-3.5396	-2.8854	-2.7687	-3.2604	-2.3563	-3.0687	-3.3167	-2.5542	-3.2979	-2.7354	-2.5625	426.416	348.037	400.818	499.524	167.449	459.441	468.284	364.045	454.191	363.520	402.597	422.789	165.199	187.079	357.468	311.063	0.00028497	9.2935e-05	7.419e-05	1125.7	4.3821e-06	2.6104e-06	1210.7	230.01	3.1378e-06	3.5556e-06	287.64	77.779	61.49	17.898	2.0668e-06	24.833	0.00044556	0.0007286	0.00019029	1113	7.4e-06	7.4374e-06	1191.7	228.33	6.9366e-06	7.8002e-06	287.13	78.096	61.955	18.155	7.1499e-06	25.271	273.050	239.592	278.942	174.849	305.424	319.279	174.675	182.408	323.683	316.446	182.085	189.334	189.446	196.885	349.354	196.047	-8191	255	
30010.910	1	1	0	0	0.067293	0.048712	0.051813	0.18752	0.35385	0.13919	0.25812	0.13634	0.1673	0.11249	0.13816	0.26238	0.11554	0.23787	0.18004	0.049618	-2.9958	-2.6604	-2.9042	-3.1875	-2.4042	-3.0979	-2.9562	-2.4667	-3.325	-2.5062	-2.9792	-3.2625	-2.4375	-3.2708	-2.9854	-2.5354	190.004	337.557	294.058	464.179	265.736	476.146	431.405	449.924	423.028	231.900	258.931	227.088	356.198	481.768	190.361	354.688	0.00028294	0.00024242	5.509e-05	1125.2	3.3796e-06	4.7388e-06	1205	229.97	3.3565e-06	2.729e-06	287.42	77.854	62.035	17.911	4.0519e-06	24.811	0.00045337	0.00072423	0.00018719	1112.5	7.7289e-06	7.6991e-06	1191.1	228.72	7.2644e-06	7.9653e-06	287.1	78.151	62.046	18.178	7.2628e-06	25.247	274.622	246.388	267.186	174.751	305.404	292.383	174.903	182.471	336.078	316.796	182.236	189.001	189.291	196.887	311.894	195.902	-8191	255	
30010.982	1	1	0	0	0.13287	0.14632	0.12215	0.26146	0.19206	0.11493	0.28957	0.29806	0.036404	0.23399	0.4091	0.23752	0.24717	0.057979	0.020921	0.062468	-3.0875	-2.5	-2.9708	-3.4625	-2.4188	-3.3083	-3.1854	-2.6063	-3.5104	-2.6708	-2.8167	-3.3146	-2.5667	-3.3292	-2.9542	-2.4771	296.456	318.664	382.778	461.146	239.221	387.642	436.629	499.858	432.579	172.250	186.407	243.509	481.772	171.218	258.933	469.098	0.00028535	0.00029734	8.0025e-05	1127.2	3.572e-06	1.4794e-06	1206.9	229.65	3.5532e-06	2.1961e-06	287.35	78.034	62.04	17.88	2.4727e-06	24.79	0.00046245	0.00070776	0.00020083	1111.5	7.3123e-06	7.3665e-06	1191	228.4	6.9719e-06	7.6417e-06	287.04	78.167	62.199	18.138	7.0747e-06	25.205	277.700	247.164	232.450	174.817	314.474	375.950	174.716	182.628	316.720	327.130	182.293	189.087	189.896	197.119	326.649	196.024	-8191	255	
30011.104	1	1	0	0	0.17281	0.15114	0.056407	0.1098	0.098748	0.071052	0.1322	0.15675	0.21936	0.31218	0.064561	0.22932	0.13222	0.1001	0.040817	0.14342	-3.1208	-2.6208	-2.6146	-3.3979	-2.4146	-3.1188	-3.25	-2.4792	-3.2396	-2.8271	-2.6208	-3.5062	-2.4833	-2.8521	-3.2687	-2.7417	243.429	278.964	258.162	485.789	199.975	352.339	167.995	409.774	477.521	328.000	491.475	201.342	379.292	269.348	387.973	285.200	0.00027898	0.00018839	0.00011055	1127.2	2.2193e-06	2.6603e-06	1207	229.9	3.012e-06	3.8208e-06	286.02	77.72	61.621	17.871	3.4478e-06	24.711	0.00045614	0.00067654	0.00019221	1112.1	7.1324e-06	7.4931e-06	1191.1	228.52	6.6717e-06	7.6286e-06	287.04	78.277	62.094	18.144	6.9356e-06	25.23	277.025	277.421	271.022	174.990	299.328	310.713	174.645	182.541	328.100	328.872	182.176	188.525	189.139	196.612	325.597	196.021	-8191	255	
30011.199	1	1	0	0	0.20332	0.086554	0.11326	0.15743	0.1009	0.17665	0.20871	0.18934	0.043645	0.44184	0.18085	0.11251	0.15963	0.13613	0.021996	0.14455	-2.8688	-2.6833	-2.4583	-3.1937	-2.6583	-2.8604	-3.4	-2.5604	-3.1125	-2.9813	-2.5542	-3.2542	-2.5833	-2.9437	-3.0146	-2.5083	310.622	283.379	506.907	489.571	370.263	481.787	428.654	443.162	179.120	383.508	350.037	415.709	324.388	232.844	476.709	351.987	0.00028857	0.00013153	7.1669e-05	1125.6	4.0527e-06	2.1822e-06	1204.8	229.38	4.3167e-06	2.3311e-06	287.1	77.772	61.583	17.882	2.3609e-06	24.788	0.00045016	0.00070677	0.00019001	1113.5	7.298e-06	7.9628e-06	1191.4	228.81	6.8899e-06	7.8949e-06	287.2	78.305	62.132	18.15	6.7294e-06	25.251	274.780	270.716	273.806	174.075	310.938	275.137	173.848	181.685	313.097	310.646	181.065	188.060	188.812	196.128	344.278	195.050	-8191	255	
30011.295	1	1	0	0	0.34114	0.24105	0.20483	0.063709	0.065114	0.2004	0.21112	0.30165	0.035593	0.10747	0.014695	0.02789	0.14234	0.10997	0.10352	0.090374	-2.8625	-2.9646	-2.4521	-3.35	-2.7396	-2.7188	-3.4625	-2.5458	-3.1667	-3.1792	-2.4125	-3.2687	-2.6646	-2.7458	-3.1042	-2.4771	304.501	282.133	420.463	441.239	358.471	415.878	487.401	395.940	474.030	198.885	361.384	207.763	172.001	430.662	497.701	388.071	0.00028663	0.00027051	5.5559e-05	1126.7	3.7234e-06	4.272e-06	1212.2	230.92	2.9117e-06	3.0365e-06	288.32	78.031	61.975	17.769	1.9455e-06	24.933	0.00043857	0.00068593	0.0001955	1113.5	7.3199e-06	7.7492e-06	1193.3	228.96	6.8915e-06	7.5958e-06	287.35	78.218	62.102	18.142	6.9217e-06	25.352	276.770	228.949	203.770	173.789	309.979	318.147	174.077	181.522	336.010	325.808	181.036	188.288	188.449	196.096	337.907	195.570	-8191	255	
30011.393	1	1	0	0	0.25114	0.10958	0.088486	0.16387	0.24554	0.11649	0.063823	0.25746	0.1541	0.20478	0.20751	0.16466	0.17261	0.10727	0.21011	0.10778	-2.6	-3.2521	-2.3271	-3.4208	-2.8542	-2.7188	-3.5458	-2.5833	-2.8646	-3.2958	-2.5333	-3.1146	-2.8979	-2.6	-3.3208	-2.5563	421.797	226.774	505.441	502.547	514.883	431.325	509.892	473.168	518.381	265.533	471.739	488.781	397.540	456.610	393.167	501.326	0.00026029	0.00027854	6.1251e-05	1123	3.2894e-06	2.907e-06	1203.7	230.47	3.1644e-06	2.2197e-06	287.35	77.723	61.999	17.823	2.7769e-06	24.898	0.00046664	0.00067645	0.00019749	1110.8	6.9668e-06	7.5101e-06	1191.6	228.92	6.7766e-06	7.7317e-06	287.53	78.282	62.196	18.188	6.6672e-06	25.328	277.873	253.435	273.214	173.937	331.995	317.143	174.123	181.531	319.870	299.787	181.145	187.967	188.537	196.200	315.475	194.771	-8191	255	
30011.512	1	1	0	0	0.094011	0.16452	0.03719	0.13252	0.12264	0.31759	0.26334	0.088847	0.14735	0.10453	0.2281	0.21086	0.19556	0.10601	0.053673	0.090087	-2.4562	-3.2229	-2.5479	-3.3104	-2.9875	-2.5375	-3.4104	-2.7292	-2.6771	-3.2208	-2.45	-3.2396	-2.8583	-2.5833	-3.3063	-2.5896	318.192	321.450	323.052	392.406	368.610	367.789	451.207	438.613	336.555	351.401	445.885	376.891	446.467	329.155	350.496	430.870	0.00028996	0.00025091	6.6783e-05	1130.1	2.6589e-06	3.1314e-06	1208.3	230.18	4.7144e-06	1.7871e-06	288.21	78.187	61.794	18.005	2.6175e-06	24.924	0.00045198	0.00063065	0.00019534	1114.6	7.028e-06	7.5933e-06	1192.4	228.94	7.0668e-06	7.2422e-06	288.16	78.316	62.2	18.244	6.6967e-06	25.372	278.007	236.108	279.904	174.162	321.309	312.614	174.124	181.675	320.286	314.399	181.171	188.146	188.491	196.323	339.638	195.101	-8191	255	
30011.582	1	1	0	0	0.23578	0.1874	0.21439	0.21235	0.14169	0.29763	0.27193	0.29623	0.21156	0.090324	0.12909	0.19557	0.19282	0.28373	0.23097	0.14313	-2.4167	-3.1583	-2.4417	-3.175	-2.9729	-2.4917	-3.6146	-2.925	-2.625	-3.3042	-2.6	-2.9125	-3.1583	-2.5625	-3.3354	-2.7917	373.919	495.831	495.501	462.474	349.898	254.974	459.620	473.050	256.840	324.618	205.882	449.348	248.480	340.711	380.650	448.543	0.0002959	0.00024525	5.6035e-05	1128.4	3.293e-06	2.8524e-06	1205.5	229.79	4.0228e-06	2.5741e-06	290.47	77.988	62.203	17.918	3.1103e-06	24.801	0.00045431	0.00065504	0.0001882	1113.9	6.7127e-06	7.9032e-06	1192.2	228.77	6.9696e-06	7.5461e-06	288.46	78.395	62.44	18.213	6.5249e-06	25.371	276.375	281.572	258.768	173.982	325.338	297.415	174.021	181.682	307.225	338.847	181.359	188.264	188.533	195.872	349.440	194.905	-8191	255	
30011.703	1	1	0	0	0.070708	0.15346	0.11196	0.16271	0.38271	0.23784	0.19365	0.079732	0.16772	0.11273	0.22705	0.25785	0.10115	0.12361	0.062447	0.25155	-2.2188	-3.25	-2.3229	-3.1437	-3.1167	-2.45	-3.3792	-2.8792	-2.3896	-3.3708	-2.7854	-2.8896	-3.35	-2.55	-3.0729	-2.8875	295.946	221.599	292.446	424.453	167.119	511.300	408.577	302.140	434.185	318.502	515.320	522.304	333.112	202.907	500.191	442.068	0.00029563	0.00025242	4.9635e-05	1131.3	2.6048e-06	2.9227e-06	1207.7	230.2	4.3306e-06	3.9531e-06	288.23	77.5	62.216	17.838	2.6646e-06	24.94	0.00046813	0.00064326	0.00019582	1116.3	6.4315e-06	7.341e-06	1194.2	229.02	7.0063e-06	7.0275e-06	287.94	78.323	62.442	18.199	6.4512e-06	25.388	276.794	256.943	229.133	174.154	329.774	305.367	173.907	181.436	315.526	329.397	180.828	187.896	188.420	195.976	328.290	194.971	-8191	255	
30011.799	1	1	0	0	0.15272	0.2213	0.18028	0.17633	0.34405	0.048599	0.0053161	0.048192	0.17373	0.15595	0.23682	0.039047	0.10651	0.11807	0.41313	0.14031	-2.1542	-3.2375	-2.7354	-3.0333	-3.1396	-2.5521	-3.1271	-3.0708	-2.4	-3.3229	-3.0417	-2.8438	-3.3208	-2.5792	-3.1375	-2.9979	354.354	474.697	379.921	164.782	223.250	350.763	376.037	280.026	399.153	428.133	409.345	497.490	230.289	470.671	239.284	507.362	0.00027864	0.00027788	7.2984e-05	1132.6	3.7333e-06	4.0598e-06	1211.9	229.98	3.112e-06	2.7488e-06	287.19	77.914	62.057	17.907	1.5813e-06	24.86	0.00043604	0.00065685	0.00018596	1117.3	6.9842e-06	7.5602e-06	1196	229.21	6.8049e-06	7.5517e-06	287.64	78.408	62.293	18.236	6.5707e-06	25.356	277.164	262.231	246.179	173.843	321.152	307.320	173.716	181.488	323.209	334.807	181.123	188.225	188.634	195.997	296.690	194.835	-8191	255	
30011.895	1	1	0	0	0.26435	0.33724	0.13231	0.22144	0.066876	0.28568	0.26828	0.13657	0.46545	0.061549	0.20129	0.17813	0.20073	0.075615	0.16079	0.10614	-2.1688	-3.2708	-2.8146	-2.8417	-3.2375	-2.5292	-3.1188	-3.2375	-2.425	-3.2833	-2.8208	-2.6	-3.2313	-2.5438	-2.9188	-3.2458	171.481	324.397	440.777	487.209	249.628	332.470	361.441	225.854	463.963	304.655	485.160	490.642	473.512	456.444	313.100	408.426	0.00029385	0.00041065	0.00010643	1128.8	3.5257e-06	2.1316e-06	1202.1	231.66	2.9322e-06	2.3342e-06	288.04	78.114	62.081	17.967	4.2957e-06	24.818	0.00046255	0.0006398	0.0001839	1115.7	6.6061e-06	7.5772e-06	1192.8	229.69	6.7383e-06	7.5329e-06	289.32	78.307	62.294	18.218	6.92e-06	25.33	273.919	248.020	264.923	173.990	311.080	320.504	173.845	181.274	315.704	311.906	180.997	188.318	188.173	195.827	328.261	195.248	-8191	255	
30011.992	1	1	0	0	0.09982	0.13692	0.18379	0.22173	0.069338	0.15201	0.34714	0.39848	0.25596	0.097315	0.20126	0.17532	0.12625	0.11478	0.068017	0.12678	-2.1229	-3.1646	-2.8125	-2.5542	-3.175	-2.7125	-2.9292	-3.2062	-2.4292	-3.1854	-2.9958	-2.6167	-3.2875	-2.7271	-2.5354	-3.2771	265.193	405.614	214.559	477.231	372.979	166.141	510.085	460.271	361.410	473.453	315.028	202.773	522.713	515.403	429.577	443.377	0.00028317	0.00038046	0.00010279	1130.3	3.3038e-06	5.5761e-06	1210.1	229.06	2.7557e-06	1.9951e-06	288.37	77.651	62.154	17.967	2.9577e-06	24.8	0.00046543	0.00068107	0.00018068	1115	7.0401e-06	7.4761e-06	1194.6	228.92	6.9749e-06	7.3538e-06	288.04	78.336	62.254	18.202	6.8988e-06	25.322	274.259	243.418	242.976	174.206	306.266	320.515	174.090	181.629	321.541	319.147	181.352	187.964	188.795	196.091	321.701	195.459	-8191	255	
30012.088	1	1	0	0	0.081035	0.16983	0.13047	0.027952	0.11159	0.12509	0.17693	0.11987	0.14574	0.16846	0.21259	0.14258	0.28034	0.091404	0.15701	0.12389	-2.0292	-3.1021	-3.0333	-2.6875	-3.4062	-2.8167	-2.975	-3.4875	-2.5854	-3.0979	-3.1875	-2.3812	-3.275	-2.8646	-2.65	-3.4354	441.192	394.665	299.879	175.327	173.593	277.403	502.275	177.789	331.371	418.544	234.997	287.571	212.738	184.907	520.737	448.016	0.00028289	0.00025856	9.9532e-05	1127.6	2.645e-06	1.0258e-06	1205.2	230.38	2.5357e-06	2.9321e-06	289.06	77.789	61.923	17.898	3.8699e-06	25.057	0.0004607	0.00066352	0.00017771	1113.6	6.8708e-06	7.5338e-06	1192.1	228.98	7.1136e-06	7.6005e-06	288.32	78.393	62.185	18.136	7.451e-06	25.387	274.633	233.798	261.541	174.335	294.286	271.267	174.481	182.130	319.999	303.557	181.587	188.527	189.176	196.359	304.962	194.991	-8191	255	
30012.207	1	1	0	0	0.17798	0.020021	0.24882	0.14567	0.095352	0.28378	0.17763	0.47763	0.05366	0.17186	0.18647	0.24649	0.29256	0.15692	0.30901	0.27207	-2.1542	-2.9229	-3.2313	-2.5104	-3.275	-2.9354	-2.7042	-3.3563	-2.5438	-2.9813	-3.4417	-2.6104	-3.2479	-2.9083	-2.5896	-3.3958	501.595	189.591	455.187	448.424	229.191	210.991	358.417	470.770	504.320	504.337	442.092	447.920	194.925	421.406	186.667	443.604	0.00027571	0.00023206	5.3113e-05	1123.1	3.3002e-06	3.304e-06	1208.2	229.02	2.1175e-06	4.2253e-06	288.79	78.276	61.848	17.903	3.1702e-06	24.763	0.00046536	0.00066575	0.00018946	1112.6	6.8587e-06	7.6481e-06	1192.7	228.32	6.991e-06	7.562e-06	288.28	78.453	62.256	18.161	7.1205e-06	25.344	278.543	272.016	255.215	173.945	311.509	327.123	173.726	181.422	330.812	344.386	180.992	188.020	188.022	195.855	333.444	195.355	-8191	255	
30012.279	1	1	0	0	0.298	0.18392	0.14501	0.33599	0.065405	0.31878	0.153	0.051483	0.32752	0.23839	0.16662	0.13185	0.048316	0.045798	0.15319	0.21481	-2.4125	-2.7729	-3.2375	-2.5604	-3.1875	-2.7729	-2.6417	-3.3104	-2.6396	-2.85	-3.3875	-2.5396	-3.025	-3.2062	-2.4313	-3.3937	303.750	332.557	376.104	468.348	478.531	242.712	468.004	424.558	276.118	351.513	425.816	242.205	415.106	299.670	206.664	453.583	0.00030061	0.00035012	8.9071e-05	1126.3	1.908e-06	3.2439e-06	1208	230.79	2.962e-06	2.7561e-06	288.36	77.843	62.116	17.698	4.4942e-06	24.884	0.0004581	0.00064944	0.00018128	1113	6.8473e-06	7.4468e-06	1192.9	229.58	6.785e-06	7.4636e-06	288.27	78.394	62.428	18.16	7.3389e-06	25.352	275.180	264.126	257.857	173.927	315.600	306.792	174.131	181.480	320.318	305.521	180.823	188.119	188.417	195.336	305.931	194.921	-8191	255	
30012.373	1	1	0	0	0.28213	0.34326	0.062689	0.22523	0.13569	0.12968	0.12008	0.13978	0.13105	0.19594	0.21359	0.10414	0.26454	0.3098	0.13746	0.05099	-2.4375	-2.7104	-3.4208	-2.6958	-3.075	-3.3667	-2.8625	-3.3229	-2.7458	-2.4396	-3.4062	-2.6	-2.9333	-3.2188	-2.4958	-3.1708	421.486	509.282	426.719	178.081	380.002	264.897	454.704	185.347	271.707	246.072	483.172	459.287	256.297	396.423	517.774	368.896	0.00026673	0.00031127	9.2979e-05	1128	3.6213e-06	2.6948e-06	1210.8	230.82	3.6408e-06	3.5295e-06	288.92	78.159	61.729	17.839	2.5295e-06	25.042	0.00045556	0.0007015	0.00017762	1115.5	7.0938e-06	7.4308e-06	1192.3	229.35	6.7666e-06	7.8321e-06	288.01	78.27	62.134	18.194	7.19e-06	25.375	277.466	237.282	240.700	173.940	312.426	335.040	174.008	181.332	337.706	319.563	180.790	188.049	188.478	196.087	307.026	194.885	-8191	255	
30012.473	1	1	0	0	0.082997	0.1696	0.22143	0.27984	0.0699	0.21652	0.19507	0.084051	0.28677	0.2119	0.28556	0.16709	0.16879	0.15808	0.2758	0.21316	-2.4917	-2.4271	-3.2583	-2.7583	-2.8312	-3.2562	-2.6229	-3.4708	-3.025	-2.6146	-3.2021	-2.6437	-2.6792	-3.3021	-2.4208	-3.0687	522.728	514.483	507.310	503.329	165.710	412.449	499.202	485.312	398.196	400.512	478.983	169.272	192.879	446.509	396.631	229.244	0.00029275	0.00026305	9.9226e-05	1126.3	4.0289e-06	3.1145e-06	1206.5	230.42	3.2758e-06	3.1331e-06	290.01	77.929	62.211	17.967	2.8973e-06	24.958	0.00045614	0.00070973	0.0001889	1114.9	7.2291e-06	7.6472e-06	1192.2	229.47	6.9389e-06	7.954e-06	288.8	78.337	62.351	18.234	6.9323e-06	25.387	279.350	235.323	258.766	173.894	307.286	300.423	173.713	181.478	302.872	293.193	180.995	187.928	188.284	195.815	338.735	195.056	-8191	255	
30012.592	1	1	0	0	0.23184	0.14589	0.21418	0.069324	0.23391	0.12064	0.10316	0.14673	0.1795	0.1029	0.071766	0.32884	0.094708	0.18845	0.091298	0.041383	-2.7938	-2.3	-3.3208	-2.7208	-2.6562	-3.3667	-2.6833	-3.0958	-3.0646	-2.2917	-3.5854	-2.6375	-2.6	-3.4958	-2.5146	-3.1396	193.052	357.400	215.883	248.462	515.221	355.593	185.448	402.934	311.645	229.320	499.615	418.880	170.576	522.737	444.093	180.612	0.00026578	0.00024554	9.2998e-05	1124.4	3.087e-06	1.4056e-06	1205.4	230.86	2.9145e-06	2.5868e-06	290.44	78.238	61.653	17.859	3.7066e-06	24.919	0.00044144	0.00068156	0.00018508	1113.2	7.1271e-06	7.1331e-06	1192.5	229.27	6.8034e-06	7.4907e-06	288.35	78.367	62.155	18.173	6.9454e-06	25.363	276.070	261.284	260.293	173.919	312.427	327.699	173.858	181.270	318.622	332.339	181.524	188.085	188.262	196.025	308.589	195.183	-8191	255	
30012.688	1	1	0	0	0.098995	0.064414	0.029687	0.18492	0.16915	0.14698	0.35421	0.1844	0.14025	0.035975	0.062077	0.15232	0.18559	0.24526	0.20055	0.1666	-2.7208	-2.4167	-3.0312	-2.9479	-2.5833	-3.15	-2.7375	-2.9104	-3.3021	-2.5458	-3.175	-2.8104	-2.7521	-3.3667	-2.5979	-2.7687	485.191	501.226	226.718	196.617	357.971	508.764	443.917	440.697	475.558	211.909	329.270	510.119	281.457	510.012	514.469	507.636	0.00026454	0.00032152	5.3001e-05	1128.6	3.9316e-06	3.5219e-06	1205.2	231.13	2.3769e-06	2.1606e-06	290.03	78.391	62.021	17.864	2.8827e-06	24.878	0.00045485	0.00068131	0.00019277	1113.7	7.3668e-06	7.3391e-06	1191.2	229.33	6.8815e-06	8.059e-06	288.21	78.424	62.303	18.159	7.3692e-06	25.37	276.027	234.075	237.899	173.958	320.042	342.879	173.875	181.170	330.683	304.177	180.924	187.882	188.640	195.713	337.425	194.695	-8191	255	
30012.783	1	1	0	0	0.11581	0.20898	0.057534	0.15555	0.12486	0.23566	0.13151	0.22744	0.20057	0.14865	0.18118	0.20325	0.18384	0.14141	0.23371	0.065912	-2.9042	-2.5396	-2.9813	-3.1063	-2.5125	-3.275	-2.9521	-2.575	-3.0646	-2.4833	-3.1625	-3.0687	-2.55	-3.3479	-2.5792	-2.5458	362.332	260.091	270.188	203.077	453.873	393.442	243.922	481.342	439.005	410.160	477.813	432.903	362.373	222.008	413.375	457.136	0.00030001	0.00028763	9.312e-05	1131.8	3.184e-06	2.0414e-06	1206.3	229.5	4.287e-06	3.2616e-06	289.22	77.863	62.091	17.837	2.0222e-06	24.923	0.00045296	0.00071245	0.00019619	1115.9	7.5104e-06	7.4591e-06	1192.5	229.24	6.628e-06	7.7064e-06	288.46	78.239	62.176	18.171	6.9871e-06	25.379	278.900	246.815	289.113	173.903	326.412	295.283	173.823	181.725	323.230	305.467	181.105	187.738	188.591	195.887	337.008	195.346	-8191	255	
30012.881	1	1	0	0	0.086474	0.28212	0.25808	0.15505	0.23324	0.2728	0.22835	0.2633	0.24273	0.16404	0.094099	0.18803	0.18651	0.11976	0.057871	0.16551	-2.9854	-2.5854	-2.6813	-3.0396	-2.2917	-3.1875	-2.6979	-2.625	-3.1333	-2.5312	-3.0104	-3.2167	-2.3875	-3.325	-2.9583	-2.7562	178.638	411.764	402.242	414.831	379.776	254.471	507.861	342.190	186.279	289.058	476.379	181.938	373.872	502.063	340.400	380.758	0.0002605	0.00034237	7.4488e-05	1126	3.6866e-06	3.3347e-06	1202.7	230.2	3.5937e-06	2.8357e-06	288.03	77.663	62.061	17.941	3.5064e-06	25.039	0.00043982	0.00070183	0.00019663	1113	7.4983e-06	7.6679e-06	1191.1	229.38	7.0707e-06	7.7205e-06	288.12	78.353	62.094	18.185	6.9151e-06	25.399	276.094	265.221	252.537	173.770	296.167	311.232	173.836	181.532	334.760	336.548	181.223	188.151	188.495	196.077	316.133	195.180	-8191	255	
30012.977	1	1	0	0	0.025662	0.19104	0.24817	0.097591	0.33358	0.16231	0.10206	0.22732	0.064879	0.044862	0.13892	0.09252	0.050081	0.14342	0.16094	0.13076	-2.8417	-2.475	-2.7604	-3.1875	-2.3771	-3.2396	-3.0729	-2.6271	-3.3042	-2.5875	-2.8208	-3.0167	-2.4604	-3.3083	-2.8625	-2.6104	289.278	317.204	269.848	429.252	517.324	168.074	495.245	376.215	392.881	225.871	467.003	439.135	464.749	191.186	243.169	182.217	0.00028362	0.00038711	0.00010652	1131.8	3.7663e-06	2.6247e-06	1205.1	230.85	1.8253e-06	2.3978e-06	288.59	78.095	61.488	17.992	1.3184e-06	24.945	0.00044847	0.00070067	0.00019689	1114.4	7.1452e-06	7.6283e-06	1191.5	229.58	6.9864e-06	7.9052e-06	288.37	78.409	62.107	18.192	7.028e-06	25.398	277.805	246.509	258.558	173.917	327.549	336.778	173.755	181.566	274.994	298.388	181.060	187.695	188.832	195.925	304.570	194.938	-8191	255	
30013.072	1	1	0	0	0.11009	0.11726	0.2162	0.3028	0.093227	0.11554	0.29993	0.23088	0.1855	0.20455	0.12219	0.36128	0.18198	0.18517	0.17808	0.35443	-3.0062	-2.5	-2.6271	-3.2792	-2.45	-3.0271	-3.1396	-2.5	-3.2812	-2.5563	-2.8	-3.4333	-2.525	-2.9125	-3.1396	-2.5229	310.694	379.464	517.652	498.563	224.099	444.039	492.988	183.879	379.164	369.975	329.491	505.875	515.558	378.151	376.199	434.083	0.00026968	0.00023714	0.00012073	1126.1	4.2227e-06	2.0818e-06	1207.3	230.21	2.9846e-06	2.6649e-06	288.37	77.989	61.834	17.93	3.451e-06	24.824	0.00043861	0.00071797	0.00019696	1114	7.5452e-06	7.7038e-06	1192.8	228.67	7.1166e-06	7.6652e-06	287.9	78.312	62.143	18.157	7.2178e-06	25.356	278.361	228.932	286.534	174.051	335.327	295.644	173.708	181.345	339.015	318.166	181.025	187.765	188.627	195.926	311.899	195.032	-8191	255	
30013.193	1	1	0	0	0.078355	0.33447	0.15652	0.28289	0.15715	0.20899	0.24413	0.14815	0.11927	0.28764	0.050885	0.16575	0.051077	0.15383	0.039379	0.17255	-2.8667	-2.6417	-2.5479	-3.4333	-2.5021	-2.9292	-2.9896	-2.6021	-3.1208	-2.9625	-2.725	-3.3542	-2.6458	-2.7979	-3.3688	-2.4188	226.610	441.485	339.801	478.793	209.365	400.359	453.498	499.741	219.182	163.796	204.593	418.104	234.481	377.741	443.810	458.045	0.00026831	0.00030462	6.8705e-05	1125.6	4.9108e-06	2.851e-06	1206.6	230.2	3.5071e-06	2.6587e-06	288.33	77.765	62.174	17.945	3.5137e-06	24.891	0.0004454	0.00067645	0.00018867	1113.5	7.1074e-06	7.7076e-06	1190.9	228.98	7.1718e-06	7.7196e-06	287.92	78.205	62.257	18.21	6.6918e-06	25.345	276.536	271.495	274.612	174.072	309.685	300.371	174.043	181.666	348.086	315.123	181.185	188.122	188.935	196.528	313.685	195.434	-8191	255	
30013.287	1	1	0	0	0.16574	0.085215	0.18352	0.2237	0.18234	0.13702	0.28102	0.10775	0.10702	0.12323	0.21295	0.21965	0.056698	0.19727	0.19133	0.043605	-2.8583	-3.0146	-2.2625	-3.3521	-2.5854	-2.7833	-3.5542	-2.6042	-3.1813	-3.0146	-2.4875	-3.0729	-2.7271	-2.6562	-3.1896	-2.4667	466.993	355.569	442.173	190.919	374.056	390.058	427.237	336.498	294.659	169.331	287.258	177.011	226.657	472.434	380.014	501.929	0.00028428	0.00026013	0.00010388	1124.5	3.2005e-06	1.3658e-06	1209	229.76	4.3401e-06	2.7883e-06	287.87	77.895	62.245	18.1	2.8865e-06	24.858	0.00045249	0.00069804	0.0001965	1113.5	7.3176e-06	8.2538e-06	1192.7	228.99	7.0446e-06	7.563e-06	288.11	78.175	62.183	18.215	6.8938e-06	25.32	280.456	257.498	242.920	174.187	314.547	310.785	174.464	181.919	300.712	278.595	181.868	188.832	188.618	196.487	319.186	195.632	-8191	255	
30013.383	1	1	0	0	0.13656	0.11537	0.25672	0.12309	0.10719	0.089057	0.091221	0.019977	0.088124	0.23572	0.18047	0.095255	0.2109	0.22856	0.082596	0.11476	-2.6312	-2.8646	-2.3479	-3.3042	-2.6771	-2.5375	-3.3729	-2.475	-2.9188	-3.0771	-2.625	-3.2292	-2.9042	-2.5896	-3.2812	-2.2896	386.928	394.879	239.836	395.948	423.945	267.214	489.364	432.499	374.948	464.561	523.512	233.599	188.849	361.564	470.174	398.179	0.00028834	0.00017942	6.7328e-05	1128.6	3.8418e-06	2.1044e-06	1204.7	229.33	3.1033e-06	2.3786e-06	288.69	78.064	61.443	17.884	3.9369e-06	24.846	0.00046502	0.00067563	0.00020263	1113.2	7.2042e-06	7.8891e-06	1191.3	228.89	6.8248e-06	7.7552e-06	288.39	78.234	62.031	18.179	7.0427e-06	25.37	273.230	251.343	263.333	174.688	299.481	326.072	174.221	182.051	313.732	327.860	181.803	188.677	189.050	196.722	343.316	196.120	-8191	255	
30013.479	1	1	0	0	0.033994	0.067651	0.16357	0.079848	0.19987	0.056185	0.049504	0.19288	0.15474	0.12579	0.1486	0.29419	0.24426	0.16418	0.17331	0.24692	-2.3563	-3.1813	-2.3063	-3.2083	-3.1229	-2.5167	-3.3187	-2.6646	-2.9792	-3.1146	-2.3583	-3.0542	-2.9	-2.25	-3.1583	-2.6125	518.754	449.331	342.245	188.102	223.648	264.222	433.962	460.471	253.914	422.284	307.795	186.707	191.732	334.756	504.026	448.296	0.00027998	0.00022543	6.0958e-05	1130.6	4.0332e-06	3.0545e-06	1208.3	230.54	4.4689e-06	2.8069e-06	289.08	77.468	62.017	17.812	3.8228e-06	24.908	0.00044783	0.00067876	0.0002006	1114.3	7.2783e-06	8.4173e-06	1193	229.22	7.3303e-06	7.4945e-06	288.54	78.302	62.206	18.17	6.7531e-06	25.34	280.266	214.595	269.465	174.634	320.783	310.164	174.619	182.058	320.672	321.347	181.780	188.852	189.172	196.280	320.788	195.971	-8191	255	
30013.574	1	1	0	0	0.2019	0.18238	0.14864	0.29569	0.15848	0.07182	0.060502	0.083348	0.10824	0.21811	0.49248	0.094575	0.25641	0.20783	0.10189	0.13134	-2.2833	-3.3708	-2.2646	-3.2188	-3.025	-2.4604	-3.3187	-2.7854	-2.7271	-3.2021	-2.4417	-2.9375	-2.9833	-2.4083	-3.1021	-2.7958	372.899	362.507	399.958	197.331	471.059	215.362	458.652	490.758	467.949	171.563	453.848	318.483	368.357	488.998	373.747	479.309	0.00027406	0.00022847	4.4145e-05	1130.4	3.8361e-06	2.1704e-06	1208.5	230.42	2.0218e-06	3.5185e-06	289.29	77.372	61.84	17.839	2.1195e-06	24.797	0.0004663	0.00064524	0.00020358	1116.2	7.1029e-06	8.1168e-06	1192.4	229.32	6.9933e-06	7.9915e-06	288.32	78.152	62.137	18.169	7.2358e-06	25.277	277.936	254.157	247.861	174.894	313.493	317.074	174.354	182.080	314.946	327.000	181.392	188.444	188.821	195.815	271.743	195.229	-8191	255	
30013.672	1	1	0	0	0.11002	0.1305	0.14858	0.17476	0.080657	0.27511	0.3461	0.083512	0.33723	0.17469	0.093253	0.19274	0.077969	0.10924	0.19069	0.054658	-2.0542	-3.2062	-2.2979	-2.9625	-2.95	-2.3021	-3.4229	-2.8625	-2.55	-3.3208	-2.7833	-2.9542	-3.0563	-2.5729	-3.0417	-2.9042	445.255	167.836	224.424	499.096	257.964	516.362	428.767	257.641	354.669	436.002	392.996	449.594	421.806	457.144	327.621	175.380	0.0002866	0.00025294	7.2203e-05	1125.2	2.6297e-06	1.4228e-06	1203.8	229.99	3.4027e-06	2.5155e-06	289.89	78.227	61.794	17.863	3.5392e-06	24.915	0.0004533	0.00065561	0.00019381	1113.7	7.3101e-06	7.8324e-06	1191	228.81	7.1518e-06	7.4064e-06	288.52	78.484	62.172	18.143	7.172e-06	25.327	274.789	266.683	236.557	174.106	280.271	331.880	174.673	182.021	320.218	299.255	182.154	188.985	189.379	196.757	327.221	196.044	-8191	255	
30013.768	1	1	0	0	0.15298	0.10772	0.25871	0.021915	0.037743	0.20816	0.21198	0.13063	0.053613	0.05754	0.27127	0.27911	0.24316	0.05886	0.29312	0.013605	-2.1771	-3.3625	-2.5417	-2.9208	-3.2708	-2.4375	-3.3375	-3.2771	-2.4417	-3.4375	-2.7792	-2.8771	-3.3417	-2.3917	-3.1917	-3.1146	181.022	430.250	233.753	228.298	311.084	223.811	516.637	372.209	511.744	208.684	477.817	221.930	472.813	435.944	302.417	210.579	0.00029036	0.00022929	5.2377e-05	1134.2	3.3085e-06	3.1245e-06	1209.8	231.44	2.3016e-06	2.3585e-06	287.39	78.89	62.352	18.022	2.9441e-06	24.806	0.00046911	0.00068865	0.0001958	1116.5	6.808e-06	8.1272e-06	1193.7	229.38	7.2774e-06	7.1541e-06	287.82	78.651	62.204	18.18	7.0722e-06	25.32	278.355	264.493	227.938	174.962	318.666	323.585	174.824	182.183	341.526	314.797	181.991	188.810	189.167	196.533	338.994	196.120	-8191	255	
30013.889	1	1	0	0	0.23552	0.16738	0.22338	0.20651	0.21824	0.16208	0.23037	0.2605	0.27007	0.2818	0.1917	0.4192	0.17683	0.070758	0.24571	0.35696	-2.0438	-3.2604	-2.8208	-2.7562	-3.2604	-2.4938	-3.0062	-3.1083	-2.3583	-3.3417	-2.8063	-2.5438	-3.3208	-2.5583	-2.7646	-3.1375	504.147	234.565	249.430	166.753	204.626	434.512	467.154	471.107	459.267	211.851	484.602	168.951	476.629	328.881	375.416	464.080	0.00027009	0.0003593	0.00012059	1128.6	2.9278e-06	2.2544e-06	1212.7	231.51	2.1062e-06	4.2615e-06	288.47	78.034	61.983	17.823	3.8084e-06	24.705	0.00046603	0.00066402	0.0002021	1113.8	6.7248e-06	7.7662e-06	1192.7	229.48	7.0194e-06	7.306e-06	288.1	78.353	62.143	18.127	7.3365e-06	25.278	278.624	265.756	258.980	175.063	293.272	343.066	174.777	182.535	315.810	311.346	181.199	188.652	189.445	196.685	310.726	195.880	-8191	255	
30013.984	1	1	0	0	0.063404	0.14223	0.14609	0.1665	0.044659	0.20612	0.32498	0.10864	0.21374	0.22125	0.2078	0.25079	0.2529	0.058063	0.18569	0.19072	-1.8792	-3.2396	-2.7812	-2.6854	-3.3396	-2.6979	-2.8958	-3.1208	-2.375	-3.1521	-3.0333	-2.4375	-3.3958	-2.6146	-2.6063	-3.275	413.328	269.430	416.006	166.816	269.550	232.799	436.315	260.048	418.638	433.487	184.409	166.357	518.402	176.860	360.082	418.727	0.00029557	0.00031576	0.00010188	1127.8	4.1368e-06	2.4694e-06	1204.7	230.64	2.5897e-06	3.6311e-06	289.98	78.323	61.968	17.762	3.5221e-06	24.895	0.00045762	0.00066426	0.00018487	1114.2	6.8624e-06	7.9779e-06	1193	229.46	6.8953e-06	7.4495e-06	288.04	78.367	62.052	18.116	7.2146e-06	25.344	274.064	240.557	268.227	174.879	316.264	337.557	174.788	182.229	336.345	346.057	181.832	188.822	189.330	196.774	344.101	196.018	-8191	255	
30014.080	1	1	0	0	0.04096	0.050767	0.30296	0.11017	0.067987	0.15512	0.19461	0.2869	0.31471	0.12009	0.15009	0.089578	0.096987	0.12916	0.050028	0.16671	-1.9562	-3.0521	-3.1583	-2.5479	-3.1875	-2.6625	-2.8604	-3.2792	-2.4125	-3.1208	-3.0687	-2.6021	-3.4396	-2.8333	-2.8	-3.4813	434.664	173.357	175.637	512.058	179.345	299.463	177.545	418.753	174.907	259.614	323.921	402.016	486.599	463.558	300.971	411.208	0.00027905	0.00028796	7.051e-05	1127.1	2.6258e-06	3.2075e-06	1205.9	230.31	2.0034e-06	4.9279e-06	289.16	77.759	62.02	17.884	2.8127e-06	25.01	0.00046742	0.00071171	0.00018781	1112.7	6.9721e-06	7.787e-06	1191	228.53	7.2414e-06	7.8855e-06	288.31	78.093	62.183	18.157	7.3127e-06	25.303	278.782	267.242	289.607	174.787	310.366	316.266	174.495	181.953	331.948	310.678	181.633	188.130	189.174	196.248	335.482	195.518	-8191	255	
30014.152	1	1	0	0	0.2606	0.15699	0.20086	0.22195	0.049374	0.18204	0.31119	0.086678	0.14073	0.10618	0.056759	0.20005	0.19184	0.17468	0.098075	0.098731	-2.0646	-2.9188	-3.0938	-2.5438	-3.2042	-2.7833	-2.675	-3.3354	-2.5812	-2.8771	-3.2896	-2.4146	-3.3	-3	-2.4667	-3.2438	169.799	330.632	277.225	497.696	367.289	283.510	211.634	398.375	406.119	522.122	352.717	518.801	433.166	449.463	409.235	469.957	0.00027172	0.00024103	6.2978e-05	1127.4	3.5233e-06	3.2964e-06	1215.3	229.86	2.0529e-06	2.1865e-06	288.17	77.887	61.994	17.867	1.7528e-06	24.83	0.00046897	0.00071064	0.00019675	1113	7.3902e-06	8.1839e-06	1194.3	229.06	7.3908e-06	7.9634e-06	288.09	78.155	62.105	18.162	7.172e-06	25.323	276.978	264.811	264.352	174.448	326.985	330.168	174.270	182.235	322.963	328.302	181.438	188.552	189.073	196.481	279.554	195.684	-8191	255	
30014.271	1	1	0	0	0.16577	0.18812	0.060989	0.1316	0.091634	0.23741	0.2	0.046915	0.1894	0.13696	0.26251	0.0777	0.22922	0.20382	0.22835	0.21137	-2.3125	-2.7667	-3.2458	-2.575	-3.1479	-3.0771	-2.7646	-3.1333	-2.7229	-2.6958	-3.3271	-2.4896	-3.1562	-3.0479	-2.3125	-3.3542	339.387	347.232	210.842	192.363	439.726	444.050	404.852	241.484	520.768	199.516	416.077	459.444	420.067	468.373	457.177	274.988	0.00028282	0.00017356	6.4822e-05	1123.9	3.0441e-06	3.8829e-06	1207.2	230.5	3.2547e-06	3.1346e-06	288.77	78.024	61.689	17.868	3.3063e-06	24.648	0.000471	0.00071912	0.00019724	1111.8	7.4409e-06	8.2538e-06	1190.9	228.98	7.2843e-06	8.0853e-06	287.65	78.179	62.067	18.138	7.469e-06	25.234	279.366	245.647	264.487	174.110	321.767	319.945	174.458	182.160	319.628	291.023	181.682	188.160	188.928	196.268	324.936	194.843	-8191	255	
30014.367	1	1	0	0	0.13821	0.1813	0.19235	0.18642	0.1526	0.03879	0.27324	0.10381	0.10544	0.10388	0.045775	0.073727	0.13241	0.24671	0.061484	0.32102	-2.2917	-2.4083	-3.2333	-2.55	-2.9375	-2.9313	-2.4917	-3.1562	-2.7604	-2.6312	-3.2313	-2.2021	-2.9333	-3.0771	-2.4833	-3.1396	266.837	462.245	521.751	413.445	346.692	353.158	465.354	203.663	479.161	280.332	406.764	224.530	499.320	205.857	441.541	343.422	0.00029612	0.00030786	9.7744e-05	1125.4	3.144e-06	3.5272e-06	1207.3	228.87	4.1714e-06	2.9605e-06	289.19	77.9	61.967	17.929	1.4988e-06	24.875	0.00045847	0.00070265	0.00018431	1113.2	7.6503e-06	8.1527e-06	1191.4	228.79	7.4551e-06	8.0609e-06	288.4	77.954	62.05	18.135	7.2407e-06	25.274	273.363	222.076	264.464	173.650	332.684	335.910	173.594	180.973	314.678	322.406	180.944	187.430	188.695	195.481	294.572	194.427	-8191	255	
30014.465	1	1	0	0	0.12475	0.2369	0.10091	0.12574	0.027869	0.1101	0.4255	0.088978	0.19189	0.17953	0.096093	0.19396	0.27709	0.17072	0.32373	0.16576	-2.5938	-2.4542	-3.2667	-2.4813	-2.7687	-3.1771	-2.5083	-3.2625	-2.9104	-2.4208	-3.2	-2.6479	-2.7854	-3.1813	-2.425	-3.0438	306.754	438.151	168.065	452.162	504.622	504.262	477.987	502.380	485.028	518.002	501.537	168.625	166.426	366.289	294.662	222.222	0.00027659	0.00031262	6.756e-05	1122.9	3.6361e-06	4.4791e-06	1206.4	230.2	2.9832e-06	1.4144e-06	286.59	77.6	62.113	17.823	1.8199e-06	24.797	0.00045843	0.00071212	0.00019293	1112.2	7.1664e-06	8.0516e-06	1190.5	229	7.099e-06	8.3169e-06	287.35	78.123	62.222	18.138	7.6629e-06	25.31	277.423	251.964	257.720	173.764	307.500	296.539	173.686	181.142	315.461	263.135	180.659	187.689	188.051	195.557	305.325	194.978	-8191	255	
30014.584	1	1	0	0	0.31133	0.055851	0.2126	0.29951	0.16495	0.075033	0.20837	0.20574	0.13097	0.26364	0.16631	0.20887	0.23548	0.15436	0.029851	0.2654	-2.6167	-2.3438	-3.2042	-2.625	-2.4917	-3.2542	-2.675	-3.0958	-2.8792	-2.3604	-3.1562	-2.9042	-2.4229	-3.3333	-2.4833	-3.0146	482.264	288.095	463.729	436.693	345.503	375.955	407.034	380.450	347.984	441.290	272.557	184.965	521.159	405.535	335.908	427.971	0.00026315	0.00026799	0.00010173	1126	2.5136e-06	3.4929e-06	1206.8	230.53	3.6088e-06	3.0048e-06	287.52	78.195	61.922	17.867	2.6891e-06	24.744	0.00044881	0.00072431	0.00019189	1112.4	7.6707e-06	7.8182e-06	1190.8	228.84	7.2767e-06	8.2785e-06	288.04	78.32	62.156	18.147	7.5836e-06	25.194	276.028	271.899	264.750	173.843	280.119	291.066	173.517	181.046	296.103	312.358	180.426	187.702	188.340	195.418	324.185	194.922	-8191	255	
30014.680	1	1	0	0	0.21829	0.15654	0.12659	0.17012	0.17903	0.16598	0.31494	0.19259	0.079498	0.10499	0.18683	0.041928	0.059257	0.09144	0.14109	0.11358	-2.8167	-2.4771	-3.0979	-2.9125	-2.4708	-3.4292	-2.6979	-3.0292	-3.1208	-2.2625	-3.2625	-2.8937	-2.5021	-3.225	-2.5687	-2.8729	236.164	165.283	224.346	480.208	296.951	507.066	428.965	398.729	417.313	437.041	197.982	350.355	423.165	194.141	229.880	341.787	0.00028792	0.00019891	8.8128e-05	1122.1	2.5072e-06	3.961e-06	1198.5	229.55	3.0776e-06	3.2868e-06	285.68	77.466	61.502	17.708	2.115e-06	24.93	0.00047279	0.00076212	0.00019789	1110.7	7.5943e-06	8.0478e-06	1189.8	228.46	7.7492e-06	8.3844e-06	288.08	78.078	61.984	18.1	7.6637e-06	25.251	276.744	276.879	277.672	173.533	340.056	320.917	173.610	181.199	319.974	330.425	180.887	187.597	188.306	195.777	325.558	194.742	-8191	255	
30014.752	1	1	0	0	0.14305	0.16739	0.38515	0.060606	0.11591	0.09081	0.38002	0.069886	0.039676	0.15339	0.18828	0.15907	0.26762	0.14324	0.2226	0.2449	-2.7812	-2.3708	-3.0646	-2.9667	-2.3417	-3.2188	-2.825	-2.8729	-3.4104	-2.4188	-3.1104	-3.0958	-2.3688	-3.3104	-2.5125	-2.6458	394.331	478.305	199.870	392.279	221.253	379.967	508.863	371.839	264.297	242.623	225.318	204.987	488.138	460.493	234.704	519.760	0.00027861	0.00023004	6.3637e-05	1125.8	3.1427e-06	2.1238e-06	1202.1	230.62	2.2785e-06	3.9e-06	287.39	77.683	61.536	17.914	2.427e-06	24.736	0.00047525	0.00073222	0.00020164	1112.6	7.5006e-06	8.1035e-06	1190.1	229.21	7.5102e-06	8.3722e-06	287.65	78.019	61.977	18.095	8.0311e-06	25.285	273.729	257.328	254.441	173.622	342.879	282.009	173.618	181.325	299.491	282.564	180.853	187.839	188.289	195.703	334.208	194.897	-8191	255	
30014.873	1	1	0	0	0.20112	0.23819	0.21388	0.080532	0.21771	0.30111	0.10695	0.2584	0.075128	0.10756	0.11431	0.3798	0.20429	0.1409	0.10522	0.11824	-2.8542	-2.3229	-2.9833	-3.0917	-2.4521	-3.3271	-2.8688	-2.6792	-3.2833	-2.5771	-3.1521	-3.225	-2.5354	-3.1354	-2.8563	-2.4396	366.424	403.061	165.374	401.233	405.320	290.008	378.703	469.014	377.862	520.635	506.996	459.987	283.624	478.470	298.744	290.872	0.00025452	0.00028594	7.9021e-05	1126.5	3.4927e-06	2.7772e-06	1208.6	230.37	3.4806e-06	3.2083e-06	288.13	77.91	61.646	17.782	1.8416e-06	24.703	0.00046725	0.00076913	0.00021407	1114.3	8.1138e-06	8.6752e-06	1193	229.19	7.3594e-06	8.4782e-06	288.22	78.1	61.968	18.138	7.5844e-06	25.21	277.604	229.970	252.185	173.719	316.350	297.139	173.658	181.638	333.940	315.513	180.862	187.434	188.571	195.917	308.802	195.009	-8191	255	
30014.969	1	1	0	0	0.15548	0.18402	0.081486	0.31156	0.20704	0.19538	0.28346	0.27249	0.039202	0.23959	0.26032	0.12845	0.15178	0.084349	0.20991	0.17872	-2.9833	-2.6583	-2.7458	-3.3479	-2.3271	-3.1562	-2.8438	-2.5521	-3.1792	-2.575	-2.7667	-3.0917	-2.4958	-3.0375	-2.7792	-2.5979	509.691	464.430	420.142	494.695	517.630	463.708	503.868	411.817	293.101	462.598	483.838	316.368	507.663	516.192	392.550	374.611	0.00028787	9.9678e-05	9.4704e-05	1128.8	3.1316e-06	2.6546e-06	1206.1	230.18	3.7595e-06	3.472e-06	288.75	77.444	61.656	17.796	3.0326e-06	24.996	0.0004811	0.00080611	0.00021938	1113.2	7.893e-06	8.6251e-06	1192.9	228.68	7.5263e-06	8.9236e-06	287.76	78.079	62.059	18.119	7.9141e-06	25.365	277.466	520.949	263.795	173.532	347.676	305.448	173.747	180.960	314.544	305.807	180.687	187.874	188.091	195.514	306.938	195.009	-8191	255	
30015.064	1	1	0	0	0.38554	0.0438	0.052038	0.39768	0.28197	0.22246	0.21791	0.19493	0.30915	0.1106	0.14258	0.12587	0.1913	0.21716	0.19965	0.19557	-3.0625	-2.7042	-2.5625	-3.4167	-2.3771	-2.9646	-3.1271	-2.2083	-3.1521	-2.6771	-2.6875	-3.3625	-2.5104	-2.9333	-3.0792	-2.3937	224.196	433.882	478.651	500.415	333.893	250.258	436.091	233.172	309.622	177.508	440.962	241.598	461.010	194.548	343.846	494.759	0.0002523	0.00025823	8.1562e-05	1131.7	3.6301e-06	2.9529e-06	1211.2	229.7	3.9537e-06	2.3713e-06	287.78	77.76	61.957	17.811	4.5224e-06	24.798	0.0004708	0.00077942	0.00022658	1116.1	8.3361e-06	8.6998e-06	1196.1	228.88	8.0739e-06	9.1975e-06	287.99	78.238	62.085	18.147	8.4844e-06	25.259	280.763	242.956	290.906	173.674	321.317	323.838	173.342	181.202	336.947	315.302	180.578	187.376	188.032	195.476	336.894	194.577	-8191	255	
30015.186	1	1	0	0	0.14419	0.28272	0.16432	0.20959	0.13519	0.18572	0.24514	0.14578	0.28769	0.17817	0.19935	0.31546	0.15113	0.17565	0.161	0.31975	-2.7438	-2.7896	-2.4792	-3.3812	-2.2354	-2.8521	-3.1729	-2.4583	-3.1417	-2.6854	-2.5	-3.2833	-2.4521	-2.925	-3.2313	-2.4729	448.010	495.458	512.973	467.520	503.263	320.808	417.521	403.408	184.581	222.994	502.582	509.483	289.337	163.822	330.217	469.888	0.00028418	0.00040911	7.232e-05	1132	5.7593e-06	1.8382e-06	1216.2	230	3.2546e-06	2.936e-06	290.43	78.1	62.105	17.812	2.6741e-06	24.776	0.00050788	0.0008655	0.00023717	1118	9.3077e-06	9.4491e-06	1201.5	229.45	9.1031e-06	1.0196e-05	289.43	78.338	62.364	18.154	9.1021e-06	25.306	275.574	238.420	238.439	173.631	310.289	376.263	173.529	181.089	310.081	299.937	180.845	187.552	188.323	195.383	321.144	194.796	-8191	255	
30015.279	1	1	0	0	0.21169	0.24941	0.068738	0.33934	0.29055	0.13367	0.2117	0.48548	0.34952	0.19495	0.086478	0.19769	0.10912	0.12058	0.30883	0.080193	-2.7812	-2.8833	-2.4042	-3.4042	-2.4479	-2.7417	-3.4146	-2.4479	-2.9604	-2.9521	-2.4458	-3.125	-2.7208	-2.7875	-3.2271	-2.5604	346.266	407.325	270.826	508.513	418.504	306.820	491.688	497.179	208.888	476.343	347.643	452.911	407.166	395.896	185.141	366.760	0.00026906	0.00026313	0.00010478	1140.8	3.7716e-06	2.508e-06	1221	231.08	3.3894e-06	2.5348e-06	290.21	78.095	62.136	17.961	2.3499e-06	24.941	0.00052582	0.00088255	0.00025838	1126.9	9.2003e-06	1.0656e-05	1207.6	230.3	8.7945e-06	9.8182e-06	289.81	78.661	62.423	18.234	9.2379e-06	25.371	277.999	238.840	271.383	173.638	307.505	316.613	173.362	180.743	303.465	277.650	180.652	187.457	187.923	195.386	338.728	194.520	-8191	255	
30015.377	1	1	0	0	0.22638	0.15702	0.12625	0.15539	0.38587	0.16264	0.2838	0.15392	0.37113	0.20607	0.28361	0.18789	0.20569	0.30811	0.10677	0.11356	-2.7646	-3.0042	-2.5062	-3.2687	-2.6104	-2.65	-3.4354	-2.4458	-2.8854	-2.9062	-2.3625	-3.25	-2.8354	-2.5104	-3.2	-2.6021	176.597	439.946	389.873	432.549	394.165	288.769	461.681	450.236	203.416	234.260	479.910	514.961	283.681	259.446	431.564	507.271	0.00028325	0.00025052	4.3303e-05	1137.9	5.1765e-06	2.3339e-06	1219.6	231.61	3.5816e-06	2.8795e-06	290.16	78.464	62.543	17.945	3.1745e-06	24.874	0.00056314	0.00095018	0.00026429	1128.6	9.5247e-06	1.0668e-05	1209.7	231.15	9.4194e-06	1.0425e-05	290.48	78.717	62.566	18.262	9.5447e-06	25.428	273.566	253.512	262.200	173.572	322.219	305.759	173.483	181.112	332.248	312.276	180.599	187.534	188.172	195.518	312.554	194.224	-8191	255	
30015.447	1	1	0	0	0.19049	0.20065	0.092039	0.19949	0.070794	0.23223	0.15218	0.29464	0.037732	0.27644	0.19592	0.11577	0.10488	0.075795	0.14524	0.14214	-2.4188	-3.175	-2.2833	-3.3083	-2.9854	-2.5396	-3.3521	-2.7333	-2.9083	-3.15	-2.2708	-3.0104	-3.0396	-2.5062	-3.2625	-2.5479	341.031	384.945	470.385	501.266	389.522	498.488	445.475	378.075	319.276	321.300	506.862	366.405	358.244	506.997	377.584	505.952	0.00029493	0.00037826	0.00014458	1143.2	2.1803e-06	2.8e-06	1225	231.95	2.7433e-06	3.8948e-06	293.84	78.32	61.791	17.902	3.1604e-06	24.946	0.00054507	0.00085315	0.00026019	1132.9	9.4226e-06	1.0302e-05	1213.2	231	8.9231e-06	1.0123e-05	291.91	78.913	62.417	18.206	9.5651e-06	25.462	275.747	233.763	282.736	173.458	320.707	307.944	173.700	181.001	310.705	324.712	180.619	187.628	187.472	195.514	304.074	194.625	-8191	255	
30015.568	1	1	0	0	0.16828	0.22431	0.111	0.084318	0.13719	0.19492	0.068496	0.15459	0.1017	0.095884	0.16709	0.12229	0.11512	0.055037	0.17683	0.11803	-2.3917	-3.2687	-2.3854	-3.1792	-3.0146	-2.4958	-3.1708	-2.7104	-2.6875	-3.3125	-2.5938	-2.8604	-3.2125	-2.4688	-3.4167	-2.6833	376.853	394.985	207.978	191.730	345.440	286.764	383.019	490.812	395.321	423.418	502.350	209.378	377.218	219.216	343.870	418.596	0.00027184	0.00020018	0.00012242	1147.6	3.3146e-06	3.361e-06	1235.9	232.25	4.2997e-06	3.0454e-06	293.17	78.679	62.447	17.937	2.389e-06	24.978	0.00057162	0.00094532	0.00026364	1135.8	9.5852e-06	1.081e-05	1218.8	232	9.3635e-06	1.0602e-05	292.39	79.18	62.668	18.315	1.0021e-05	25.475	279.271	243.898	251.281	173.548	315.402	333.610	173.536	181.368	334.146	359.562	180.893	187.216	188.230	195.462	293.819	194.427	-8191	255	
30015.664	1	1	0	0	0.22563	0.10689	0.28688	0.10913	0.23941	0.11467	0.058309	0.30341	0.28427	0.073775	0.33238	0.17992	0.19999	0.093721	0.19253	0.21271	-2.1708	-3.225	-2.4271	-3.1063	-3.1646	-2.45	-3.3937	-2.825	-2.6271	-3.3438	-2.6021	-2.8958	-3.2083	-2.5792	-3.2313	-2.8896	232.502	270.110	352.983	503.691	225.300	269.270	380.107	460.488	204.260	394.159	503.328	299.395	435.864	503.658	371.194	490.290	0.00028552	0.0003385	3.012e-05	1153.9	4.3139e-06	2.5181e-06	1232.6	233.13	2.8223e-06	1.7786e-06	292.03	78.82	62.755	17.961	2.6902e-06	25.058	0.000593	0.00096386	0.00027642	1138.2	1.0119e-05	1.1723e-05	1218.5	232.41	1.0184e-05	1.1436e-05	291.79	79.225	63.022	18.32	1.0296e-05	25.565	273.356	265.839	286.136	173.501	346.109	319.031	173.575	181.009	341.974	313.696	180.600	187.412	188.248	195.412	272.595	194.564	-8191	255	
30015.762	1	1	0	0	0.22744	0.15238	0.27007	0.10722	0.17963	0.17093	0.1858	0.34591	0.18989	0.17864	0.21443	0.15441	0.17507	0.044786	0.40107	0.18654	-2.1104	-3.1708	-2.6396	-3.0958	-3.025	-2.5646	-3.1979	-3.0896	-2.5854	-3.2417	-2.6937	-2.7271	-3.3375	-2.3146	-2.9625	-3.1188	340.766	454.423	278.235	440.324	282.553	505.183	380.095	399.644	267.705	317.485	487.824	371.955	485.642	240.955	379.026	498.902	0.00027294	0.00018129	5.4048e-05	1158	3.9634e-06	3.7595e-06	1234.9	233.45	3.0799e-06	3.5369e-06	293.99	78.632	62.766	18.101	4.9729e-06	25.166	0.00060756	0.0010295	0.00029009	1142.3	1.0412e-05	1.1814e-05	1222.6	232.6	1.0289e-05	1.1385e-05	293.38	79.338	63.136	18.399	1.06e-05	25.657	274.799	225.412	225.608	173.573	309.140	321.526	173.537	181.160	325.065	308.201	180.381	187.535	188.090	195.591	347.259	194.609	-8191	255	
30015.857	1	1	0	0	0.074271	0.18426	0.062017	0.2246	0.12038	0.33005	0.27696	0.092021	0.16597	0.1277	0.082422	0.12897	0.13692	0.041426	0.14852	0.053177	-1.9083	-3.3042	-2.6125	-2.7417	-3.1625	-2.5104	-3.2083	-3.2896	-2.3937	-3.3375	-2.7833	-2.6458	-3.3854	-2.4896	-2.9521	-3.0479	460.568	311.620	458.283	188.049	274.282	410.732	512.692	332.512	381.070	411.080	300.329	505.202	239.028	424.272	290.696	391.753	0.00028267	0.00020612	5.9271e-05	1160.7	4.7739e-06	8.1863e-07	1241	233.29	3.1409e-06	3.3724e-06	294.2	79.035	62.583	17.923	2.6472e-06	25.101	0.00061023	0.0010375	0.00029067	1146.3	1.0443e-05	1.2411e-05	1225	233.15	1.0503e-05	1.169e-05	293.02	79.368	63.083	18.351	1.0642e-05	25.648	274.406	258.952	266.732	173.472	316.931	317.385	173.556	181.081	338.781	307.263	180.486	187.615	188.011	195.230	326.644	194.365	-8191	255	
30015.977	1	1	0	0	0.50255	0.16377	0.13538	0.054569	0.062576	0.33636	0.14802	0.18294	0.15331	0.19267	0.23589	0.061224	0.27929	0.13012	0.11757	0.1235	-1.9229	-3.0125	-2.5979	-2.6458	-3.2125	-2.6063	-3.0125	-3.3063	-2.2812	-3.1813	-2.8625	-2.4479	-3.4021	-2.6792	-2.6479	-3.3458	183.145	479.280	333.250	498.506	259.322	495.560	464.994	428.976	440.556	439.909	353.026	501.540	455.719	202.489	260.107	368.760	0.00030415	0.00029355	0.00011686	1159.6	4.5746e-06	3.8485e-06	1233.5	234.4	4.3212e-06	3.2752e-06	294.1	78.815	62.905	18.052	3.0124e-06	25.241	0.00062847	0.0010492	0.00030033	1146.8	1.0331e-05	1.2199e-05	1224.5	233.53	1.0775e-05	1.1692e-05	294.12	79.504	63.213	18.408	1.1173e-05	25.709	279.431	262.549	253.682	173.478	331.679	292.714	173.509	181.397	327.290	362.427	180.401	187.735	188.271	195.216	328.717	194.377	-8191	255	
30016.049	1	1	0	0	0.084136	0.20408	0.079387	0.20013	0.29101	0.12034	0.10705	0.07909	0.32727	0.17113	0.21081	0.10667	0.23234	0.23843	0.15397	0.17873	-2.0479	-3.0104	-2.9771	-2.6208	-3.2896	-2.7458	-2.9396	-3.35	-2.3708	-3.2521	-3.1292	-2.4771	-3.2958	-2.6167	-2.6896	-3.1458	282.622	265.579	212.987	484.568	515.355	328.452	297.441	408.803	260.758	389.597	210.598	370.470	477.508	459.735	181.347	199.884	0.00025243	0.0003523	4.347e-05	1164.7	4.2507e-06	3.6542e-06	1241.7	235.07	3.2601e-06	2.7734e-06	294.94	79.186	62.796	18.003	1.6281e-06	25.085	0.00060614	0.0010622	0.00030023	1149.9	1.051e-05	1.2333e-05	1230	234.18	1.0769e-05	1.1964e-05	294.46	79.537	63.234	18.415	1.0954e-05	25.654	280.001	259.647	254.627	173.493	305.075	305.817	173.340	180.941	304.315	324.623	180.728	187.749	188.213	195.469	347.540	195.165	-8191	255	
30016.145	1	1	0	0	0.36679	0.22322	0.034418	0.1014	0.20575	0.013111	0.23212	0.16784	0.36953	0.27452	0.14983	0.23161	0.31011	0.24049	0.35959	0.15171	-2.05	-3.0771	-3.0438	-2.5687	-3.4042	-2.9604	-2.7292	-3.4542	-2.5208	-2.8146	-3.1146	-2.3896	-3.1979	-2.8417	-2.5187	-3.3458	484.921	378.309	349.574	191.804	308.385	367.170	431.710	476.752	461.733	319.497	471.221	469.109	484.224	465.520	327.516	477.997	0.00027484	0.00023562	2.5472e-05	1166.6	3.3625e-06	2.0992e-06	1248.1	235.72	2.7193e-06	3.1273e-06	295.23	79.291	63.294	17.978	3.9429e-06	25.131	0.00061601	0.0010452	0.00029092	1150.9	1.0794e-05	1.2351e-05	1230.6	234.25	1.0735e-05	1.2245e-05	294.63	79.662	63.422	18.429	1.1212e-05	25.734	274.064	259.744	254.166	173.477	330.144	272.777	173.631	181.014	290.803	348.746	180.727	187.581	188.035	195.149	304.396	194.561	-8191	255	
30016.266	1	1	0	0	0.14292	0.20546	0.20318	0.070203	0.19581	0.19035	0.098388	0.0061027	0.1584	0.13424	0.25704	0.27118	0.20836	0.051323	0.099387	0.25042	-1.9708	-2.7	-3.2125	-2.5292	-3.0438	-2.7958	-2.6292	-3.2792	-2.5375	-2.825	-3.3417	-2.4062	-3.1396	-3.1917	-2.3125	-3.275	240.082	500.272	383.410	190.844	306.982	200.371	418.633	503.678	295.654	262.478	372.020	449.987	184.651	307.424	522.318	499.997	0.00029839	0.00026079	2.0468e-05	1162.3	3.4888e-06	4.8243e-06	1245.2	235.54	2.2486e-06	1.895e-06	293.8	79.396	63.076	18.067	1.7805e-06	25.166	0.00061749	0.001091	0.00029643	1150.3	1.0438e-05	1.218e-05	1231.8	234.6	1.0635e-05	1.162e-05	294.37	79.752	63.321	18.478	1.11e-05	25.673	277.144	259.549	231.731	173.534	297.124	303.322	173.518	181.100	278.750	311.144	180.637	187.838	187.989	195.130	284.985	194.912	-8191	255	
30016.359	1	1	0	0	0.12724	0.18202	0.085428	0.27725	0.029258	0.18817	0.021016	0.2321	0.26206	0.28988	0.17514	0.31586	0.07755	0.020402	0.045142	0.036657	-2.0812	-2.4333	-3.3771	-2.5896	-3	-3.1583	-2.6875	-3.4229	-2.6583	-2.45	-3.4208	-2.5854	-2.9375	-2.9167	-2.4854	-3.2771	427.635	483.163	470.210	409.170	218.173	252.576	516.562	163.724	355.049	238.325	492.034	183.431	483.030	515.495	291.707	259.634	0.00031715	0.00018237	9.458e-05	1163.6	2.1091e-06	3.7261e-06	1243.1	236.89	3.2772e-06	3.0124e-06	295.07	79.292	62.904	18.081	3.9606e-06	25.185	0.0006258	0.0010928	0.00029898	1151.7	1.0746e-05	1.2162e-05	1231.5	234.8	1.0446e-05	1.2494e-05	295.03	79.642	63.475	18.462	1.0981e-05	25.665	273.139	276.321	240.145	173.802	337.591	290.896	173.593	181.030	328.300	294.464	180.525	187.639	188.119	195.425	307.804	194.843	-8191	255	
30016.455	1	1	0	0	0.054542	0.042684	0.18567	0.15911	0.18149	0.24314	0.3595	0.14622	0.18797	0.17441	0.22677	0.084622	0.18608	0.10838	0.34799	0.12795	-2.4083	-2.5333	-3.2812	-2.7104	-2.9104	-3.2167	-2.4771	-3.1312	-3.1	-2.3812	-3.3521	-2.5979	-2.7812	-3.2792	-2.3292	-3.0792	380.728	408.104	265.454	436.851	317.708	382.162	395.187	487.603	205.480	249.332	468.291	163.623	253.543	417.415	223.417	207.716	0.00028282	0.00032921	9.9131e-05	1162	2.6663e-06	6.0894e-06	1240.8	236.26	2.3692e-06	2.5116e-06	292.73	79.49	62.908	18.121	1.989e-06	25.217	0.00061871	0.0011104	0.00030019	1150.4	1.0973e-05	1.2464e-05	1229.9	234.83	1.0849e-05	1.2082e-05	294.14	79.708	63.412	18.467	1.1135e-05	25.703	277.259	264.418	221.610	173.356	337.041	299.484	173.635	181.295	354.070	316.086	180.602	187.768	188.221	195.192	307.325	194.689	-8191	255	
30016.553	1	1	0	0	0.12577	0.13692	0.17401	0.14737	0.1559	0.2062	0.44012	0.15283	0.24083	0.054628	0.14199	0.038337	0.15268	0.20369	0.17042	0.21997	-2.6625	-2.3229	-3.3792	-2.6021	-2.5854	-3.2292	-2.6396	-3.0854	-2.8708	-2.3312	-3.3167	-2.7458	-2.8021	-3.3542	-2.3042	-3.0583	474.140	485.766	289.298	516.008	344.679	454.586	482.804	418.214	505.622	234.205	395.923	288.923	283.983	497.061	468.717	518.452	0.00027864	0.00037043	6.6371e-05	1165.4	4.6216e-06	2.6877e-06	1244.1	235.89	3.5949e-06	3.3554e-06	292.17	79.045	63.347	18.057	3.9306e-06	25.108	0.00060118	0.0010744	0.00030373	1150.8	1.061e-05	1.1696e-05	1232	234.47	1.0056e-05	1.2002e-05	294.34	79.686	63.427	18.443	1.1251e-05	25.712	273.820	266.393	258.859	173.524	322.797	339.774	173.529	181.206	327.218	342.351	180.477	187.559	188.293	195.438	316.423	194.983	-8191	255	
30016.648	1	1	0	0	0.034489	0.10884	0.15123	0.36289	0.069374	0.20149	0.11345	0.045904	0.022596	0.14133	0.18309	0.40494	0.31188	0.33051	0.12519	0.15846	-2.6375	-2.4062	-3.0833	-2.7208	-2.7021	-3.2417	-2.7771	-3.0458	-3.2292	-2.3479	-3.3125	-2.8063	-2.5146	-3.4375	-2.5271	-2.8563	197.365	230.729	387.079	518.299	372.082	397.621	180.254	433.898	206.505	285.342	523.157	520.512	475.466	465.712	220.044	506.581	0.00030569	0.00042627	7.0422e-05	1165	3.5071e-06	2.7451e-06	1247.3	236.55	4.4647e-06	2.2268e-06	294.38	79.219	63.102	18.165	3.0284e-06	25.114	0.00061303	0.0010752	0.00030077	1151	1.0817e-05	1.197e-05	1232.3	234.65	1.0348e-05	1.2245e-05	294.97	79.82	63.259	18.483	1.1205e-05	25.721	274.909	275.169	270.806	173.489	308.248	358.807	173.440	181.187	328.027	337.646	180.816	187.644	188.229	195.744	306.706	194.526	-8191	255	
30016.744	1	1	0	0	0.035891	0.30445	0.17579	0.18789	0.26677	0.097787	0.20776	0.098329	0.073149	0.21588	0.0818	0.15642	0.29323	0.11919	0.094016	0.040135	-2.7125	-2.4167	-2.9917	-3.0083	-2.5271	-3.2812	-2.7083	-2.6854	-3.2521	-2.45	-3.3083	-2.8917	-2.6146	-3.2646	-2.6229	-2.7208	433.991	225.998	424.557	214.168	422.434	247.227	480.838	435.405	291.063	193.213	221.571	463.659	430.181	508.499	291.139	425.375	0.00028453	0.00044175	0.00010409	1165.4	3.6144e-06	2.5258e-06	1246.4	236.38	3.4363e-06	3.09e-06	294.58	79.071	63.331	18.298	1.9411e-06	25.062	0.00059483	0.0011076	0.00029379	1151.9	1.0614e-05	1.1765e-05	1232.8	235.02	1.0322e-05	1.1719e-05	294.85	79.673	63.506	18.502	1.0922e-05	25.722	276.396	228.670	268.778	173.536	310.045	294.106	173.366	181.134	325.509	323.967	180.744	187.567	188.004	195.484	308.966	194.993	-8191	255	
30016.865	1	1	0	0	0.27425	0.20003	0.063988	0.15277	0.22907	0.20524	0.18075	0.18743	0.043803	0.19366	0.052353	0.18578	0.08854	0.088424	0.18668	0.14171	-2.8979	-2.1021	-3.0646	-3.1292	-2.4021	-3.2375	-2.8375	-2.9188	-3.3208	-2.4396	-2.9521	-2.9604	-2.4542	-3.2667	-2.75	-2.7042	292.644	520.796	324.833	167.814	333.413	320.173	451.492	464.256	427.671	278.707	511.842	342.951	421.188	455.790	252.776	245.795	0.00030967	0.00036482	6.7881e-05	1166	3.5958e-06	2.2447e-06	1242.1	235.98	2.2532e-06	1.9658e-06	295.29	79.664	62.993	18.05	3.476e-06	25.008	0.00059733	0.0011041	0.00029004	1152.6	1.0954e-05	1.2262e-05	1231.4	234.85	1.0359e-05	1.1582e-05	294.93	79.918	63.346	18.478	1.0775e-05	25.719	274.435	277.746	245.144	173.514	318.609	318.399	173.372	181.529	357.598	312.168	180.786	187.677	188.247	195.489	369.059	195.092	-8191	255	
30016.963	1	1	0	0	0.17512	0.17156	0.15027	0.17118	0.13231	0.30985	0.39791	0.14696	0.096387	0.29189	0.073507	0.02916	0.02168	0.10117	0.18691	0.13338	-2.95	-2.4292	-3.0333	-3.2521	-2.4833	-3.2188	-2.9396	-2.7792	-3.1708	-2.6646	-3.0896	-3.2521	-2.3458	-3.2729	-2.8917	-2.5354	336.541	416.780	392.498	448.059	292.567	340.000	495.676	188.932	211.196	368.630	183.221	190.918	297.759	168.270	403.688	213.003	0.00028999	0.0001636	9.636e-05	1165.1	2.735e-06	3.9554e-06	1246.6	234.7	2.7604e-06	2.5866e-06	293.21	78.894	62.92	18.111	4.225e-06	25.098	0.00061087	0.0010805	0.00031506	1152	1.0984e-05	1.1385e-05	1232.6	233.91	1.0531e-05	1.2426e-05	294.89	79.551	63.467	18.499	1.0733e-05	25.704	275.379	256.272	281.615	173.524	292.624	310.228	173.470	181.390	339.766	304.523	180.649	187.972	187.887	195.232	332.130	194.683	-8191	255	
30017.059	1	1	0	0	0.17466	0.094215	0.22347	0.21027	0.05215	0.23828	0.29608	0.2098	0.23826	0.075653	0.30597	0.030598	0.22035	0.10979	0.16843	0.08752	-2.8583	-2.4667	-2.6583	-3.4333	-2.3063	-3.1271	-3.05	-2.4292	-3.2854	-2.5563	-2.85	-3.4271	-2.5458	-3.0854	-2.9896	-2.3479	390.844	379.871	399.359	501.039	200.780	369.749	498.434	508.665	443.026	373.627	438.396	334.715	443.935	472.502	500.776	319.126	0.00028942	0.00017313	7.8487e-05	1165.1	4.5561e-06	1.6205e-06	1244.6	236.62	4.9324e-06	3.295e-06	296.05	78.632	63.265	18.221	3.3457e-06	25.166	0.00060233	0.0010195	0.00029924	1155.3	1.0756e-05	1.1636e-05	1231.8	234.86	1.0344e-05	1.2087e-05	295.07	79.681	63.381	18.492	1.0451e-05	25.746	274.630	245.435	274.861	173.558	312.091	317.219	173.310	181.123	314.886	311.999	181.047	187.820	188.398	195.517	314.371	195.163	-8191	255	
30017.154	1	1	0	0	0.025685	0.091202	0.17173	0.19788	0.21758	0.089473	0.13325	0.22533	0.2191	0.23477	0.34067	0.21891	0.020414	0.042749	0.1489	0.10049	-2.8396	-2.4313	-2.6583	-3.4458	-2.5021	-3.0312	-3.3312	-2.55	-3.1937	-2.7562	-2.6271	-3.3792	-2.5917	-2.9083	-3.1583	-2.5604	183.266	451.320	182.617	177.613	180.727	420.141	389.813	403.702	205.484	491.068	491.156	425.692	318.688	203.107	299.270	338.429	0.00028839	0.00039422	3.572e-05	1162.4	2.2318e-06	3.7997e-06	1245	236.13	3.8775e-06	1.6703e-06	295.55	79.496	63.186	18.114	3.2203e-06	25.214	0.00060094	0.0010844	0.00029122	1153.1	1.0688e-05	1.1895e-05	1233.8	234.64	1.0197e-05	1.1897e-05	294.99	79.987	63.447	18.522	1.0502e-05	25.736	275.098	265.741	269.011	173.645	316.959	289.649	173.757	181.522	322.710	251.064	180.896	187.807	188.335	195.479	300.965	195.049	-8191	255	
30017.273	1	1	0	0	0.099253	0.042236	0.10894	0.19433	0.19209	0.25479	0.16765	0.12146	0.15856	0.15709	0.11813	0.079287	0.09579	0.22743	0.24078	0.16104	-2.7521	-2.9479	-2.4813	-3.4062	-2.6937	-2.9396	-3.5667	-2.6437	-3.1396	-2.8479	-2.4062	-3.2958	-2.6021	-2.7458	-3.1458	-2.5062	283.601	330.691	307.454	182.890	355.361	352.940	458.789	422.574	420.676	335.537	426.661	447.704	281.633	515.466	518.421	425.839	0.00028051	0.00032108	3.5884e-05	1163	2.6288e-06	3.2518e-06	1244.7	237.13	3.5128e-06	3.7122e-06	295.02	79.186	63	18.151	2.346e-06	25.381	0.00059848	0.0010366	0.00029625	1153.3	1.0727e-05	1.2023e-05	1232.8	235.42	1.0395e-05	1.1607e-05	295.27	79.754	63.441	18.516	1.0695e-05	25.75	278.553	234.990	254.674	173.775	319.105	331.299	173.516	181.090	309.036	327.149	180.882	187.943	188.781	195.705	335.695	195.339	-8191	255	
30017.346	1	1	0	0	0.036797	0.11848	0.24447	0.33976	0.22009	0.061252	0.16017	0.21715	0.074585	0.37708	0.13584	0.082413	0.094776	0.33924	0.062583	0.072717	-2.8375	-3.0646	-2.4062	-3.4646	-2.6875	-2.7188	-3.2833	-2.3417	-2.9062	-3.1312	-2.3958	-3.05	-2.8542	-2.5333	-3.2812	-2.5187	195.021	254.838	261.526	463.872	513.460	245.486	436.017	222.810	383.871	279.124	265.202	344.244	271.831	482.101	467.809	387.281	0.00027279	0.00025411	7.4942e-05	1165.4	3.826e-06	2.0709e-06	1248.7	236.25	3.5571e-06	3.3629e-06	294.71	79.113	63.271	18.133	3.5842e-06	25.254	0.00060641	0.0010136	0.0002963	1154.2	1.0433e-05	1.2218e-05	1234.1	235.12	1.0393e-05	1.215e-05	295.49	79.932	63.509	18.504	1.0134e-05	25.73	278.411	275.689	253.773	173.912	300.615	321.615	173.775	181.296	327.752	324.368	180.931	187.776	188.354	195.740	321.609	194.779	-8191	255	
30017.441	1	1	0	0	0.15366	0.12207	0.2569	0.17868	0.07178	0.075424	0.16671	0.22596	0.18411	0.13009	0.029173	0.20096	0.13927	0.1922	0.14754	0.207	-2.7896	-3.1896	-2.2292	-3.2542	-2.7438	-2.6542	-3.4292	-2.6375	-2.9979	-2.9958	-2.1875	-3.1458	-2.825	-2.5187	-3.2479	-2.4979	376.992	197.473	256.495	199.913	488.205	251.854	412.583	514.106	381.035	222.857	403.248	417.085	394.714	384.914	238.623	245.062	0.00030354	0.00026325	6.4639e-05	1166.6	2.6693e-06	1.9005e-06	1243.5	235.72	3.5473e-06	2.1472e-06	294.34	79.512	63.194	18.182	3.5494e-06	25.407	0.00061614	0.0010293	0.00029613	1154.2	1.0489e-05	1.2016e-05	1232.9	235.01	1.0728e-05	1.1986e-05	295.22	79.822	63.558	18.466	1.0582e-05	25.773	279.218	245.431	303.660	174.081	309.969	327.677	173.482	181.069	328.680	329.967	180.866	188.307	188.317	195.870	309.906	195.097	-8191	255	
30017.537	1	1	0	0	0.22229	0.22439	0.17267	0.20899	0.075403	0.11761	0.30122	0.30968	0.16564	0.05992	0.20407	0.26597	0.2552	0.11769	0.12263	0.32	-2.3854	-3.0354	-2.2958	-3.1625	-2.7854	-2.3125	-3.2979	-2.7354	-2.5938	-3.1896	-2.7104	-3.0125	-3.1208	-2.3729	-3.1917	-2.4625	361.261	371.265	430.225	416.552	412.542	254.356	458.592	394.759	464.443	502.360	305.262	465.604	462.770	417.889	445.665	277.400	0.00028585	0.00033958	7.2883e-05	1167.3	2.6516e-06	2.1122e-06	1248.8	234.91	4.1275e-06	1.2319e-06	294.21	79.295	62.808	18.082	4.1887e-06	25.245	0.00060831	0.0010644	0.00030144	1153.5	1.0685e-05	1.2712e-05	1235.5	234.31	1.021e-05	1.1641e-05	294.89	79.856	63.543	18.472	1.0832e-05	25.711	275.998	220.329	274.104	173.886	343.155	316.331	173.510	181.290	321.133	282.186	181.223	188.566	188.295	196.333	321.887	194.776	-8191	255	
30017.633	1	1	0	0	0.10866	0.28548	0.18109	0.23563	0.079639	0.16127	0.4802	0.14073	0.073891	0.10108	0.31673	0.13644	0.079647	0.1202	0.30316	0.11768	-2.1771	-3.2042	-2.4104	-3.0417	-3.2958	-2.4021	-3.4979	-2.9375	-2.5458	-3.2354	-2.5687	-2.8979	-3.2146	-2.4729	-3.1437	-2.9021	230.452	276.776	238.495	461.562	463.918	485.115	173.745	492.709	475.745	317.213	479.097	168.250	245.975	203.909	382.227	521.762	0.00028978	0.00021952	8.7828e-05	1171.2	3.8636e-06	3.2501e-06	1245.9	236.12	3.062e-06	3.3268e-06	294.88	78.887	63.022	18.092	2.408e-06	25.227	0.00061091	0.0010169	0.00028983	1156.3	1.0366e-05	1.2081e-05	1235.1	234.9	1.0396e-05	1.1336e-05	295.13	79.76	63.419	18.545	1.056e-05	25.725	278.031	235.351	267.848	174.311	305.460	335.303	173.718	181.107	298.498	307.922	180.508	187.422	188.346	195.411	316.598	194.513	-8191	255	
30017.754	1	1	0	0	0.284	0.20779	0.11395	0.26506	0.19257	0.080714	0.30759	0.10277	0.34088	0.26809	0.20167	0.16867	0.14334	0.15348	0.035253	0.14815	-2.2292	-3.2979	-2.5042	-3.1562	-3.2625	-2.4021	-3.4021	-2.8625	-2.7146	-3.2708	-2.7375	-2.7667	-3.1292	-2.4854	-3.1104	-3.0271	426.378	327.388	228.180	459.360	327.608	163.729	390.339	378.561	436.866	302.792	504.726	173.435	505.851	272.647	389.421	425.583	0.00032334	0.00017957	3.5374e-05	1170.1	7.2466e-06	2.9542e-06	1247.3	236.05	2.8976e-06	3.755e-06	295.21	79.277	63.023	18.2	3.7549e-06	25.167	0.00063209	0.0010533	0.00029803	1154.2	1.0494e-05	1.2562e-05	1234.5	235.24	1.041e-05	1.1629e-05	296.03	79.765	63.441	18.547	1.0682e-05	25.725	279.893	202.002	235.238	173.530	295.776	275.080	173.690	181.051	319.665	308.274	180.790	187.663	188.064	195.470	308.848	194.727	-8191	255	
30017.850	1	1	0	0	0.15288	0.20526	0.12689	0.24985	0.11246	0.091224	0.14104	0.071287	0.2001	0.3321	0.31663	0.29778	0.11865	0.16168	0.10448	0.17173	-2.0187	-3.1583	-2.6208	-2.6833	-3.2396	-2.5271	-3.2646	-3.225	-2.4104	-3.3063	-2.9521	-2.8104	-3.2104	-2.5	-3.15	-3.1292	397.316	221.173	205.173	513.216	287.064	260.418	212.572	500.913	259.972	168.852	266.857	377.288	206.552	312.528	250.363	430.832	0.00028343	0.00025104	9.7479e-05	1170.3	4.2801e-06	4.0937e-06	1252	234.9	3.9787e-06	1.226e-06	296.4	79.36	63.829	18.22	1.5109e-06	25.218	0.00060689	0.001011	0.00028974	1156.6	1.0395e-05	1.1898e-05	1236	234.96	1.0507e-05	1.1567e-05	295.88	79.96	63.613	18.552	1.0103e-05	25.738	273.802	261.003	243.482	173.464	326.102	308.599	173.329	180.801	333.099	301.330	180.629	188.068	188.431	195.583	359.101	194.803	-8191	255	
30017.945	1	1	0	0	0.30052	0.10757	0.39612	0.14732	0.1261	0.18163	0.14326	0.21958	0.029653	0.18156	0.22049	0.054689	0.21467	0.092384	0.1639	0.14741	-1.8396	-3.2104	-2.7667	-2.8042	-3.1833	-2.5083	-2.9854	-3.1979	-2.4229	-3.025	-2.9688	-2.4562	-3.2042	-2.6854	-2.9062	-3.3083	516.477	259.170	483.332	510.897	282.150	194.745	427.640	377.792	476.817	316.051	474.165	238.850	473.496	422.742	168.751	259.783	0.00029584	0.00037399	4.1256e-05	1169.1	3.0098e-06	3.8639e-06	1250.9	236.02	2.3375e-06	2.118e-06	294.3	79.247	62.852	18.148	4.125e-06	25.462	0.00062952	0.0010111	0.00029942	1156.2	1.0469e-05	1.1726e-05	1236	235.11	1.049e-05	1.1623e-05	295.4	79.869	63.394	18.495	1.0759e-05	25.817	281.181	256.350	270.685	173.685	352.826	327.941	173.703	181.075	335.131	318.725	180.643	187.687	188.299	195.788	349.320	194.759	-8191	255	
30018.043	1	1	0	0	0.085165	0.17801	0.1796	0.15805	0.074627	0.20835	0.46635	0.29465	0.27548	0.12137	0.10693	0.13159	0.079607	0.10246	0.066563	0.22184	-1.9083	-2.9708	-2.9729	-2.5792	-2.9938	-2.5542	-2.8812	-3.2896	-2.4938	-3.0187	-3.0792	-2.5625	-3.3521	-2.5833	-2.75	-3.3479	464.580	347.717	323.741	511.828	306.236	301.370	459.585	183.875	296.560	276.201	469.749	416.644	178.209	474.579	486.026	511.417	0.0002444	0.0003398	0.00011912	1167.8	3.316e-06	3.0272e-06	1244	235.54	4.2735e-06	1.3831e-06	294.74	79.197	63.085	18.084	3.9325e-06	25.227	0.00058665	0.0010209	0.00027682	1155	1.0466e-05	1.1771e-05	1234.4	234.97	1.0725e-05	1.1606e-05	295.39	79.747	63.673	18.492	1.0328e-05	25.749	278.704	258.531	246.203	173.425	327.194	269.731	173.637	181.282	339.815	371.488	180.893	188.035	188.195	195.606	320.373	194.917	-8191	255	
30018.139	1	1	0	0	0.16169	0.35009	0.16879	0.19594	0.18203	0.055643	0.21103	0.016534	0.11518	0.15244	0.057806	0.18915	0.28936	0.14169	0.18952	0.10375	-2.0604	-2.9979	-2.9417	-2.4042	-3.3792	-2.8083	-2.7521	-3.2812	-2.4458	-2.9021	-3.2625	-2.625	-3.1813	-2.7375	-2.5521	-3.2396	287.736	442.556	451.142	464.506	257.909	516.008	418.966	299.191	252.287	384.469	403.111	475.412	505.639	399.722	320.676	390.925	0.00026536	0.00028395	0.00012848	1167.6	3.7838e-06	4.0116e-06	1252.3	235.9	4.3073e-06	2.1728e-06	294.69	79.773	63.676	18.191	2.9782e-06	25.427	0.00058733	0.0010717	0.00029127	1154	1.0006e-05	1.1424e-05	1236.5	235.02	1.0262e-05	1.1329e-05	295.11	80.053	63.733	18.504	1.0112e-05	25.846	275.483	257.988	269.739	173.767	281.403	307.177	173.803	181.498	307.239	317.306	181.215	187.697	188.354	195.645	336.485	194.878	-8191	255	
#DATA ENDS
