BOXY.EXE: ISS Imagent and Oximeter Data Acquisition Program Version 0.80
Ascii Record File

#ACQ INFORMATION
2  Detector Channels 
16  External MUX Channels 
1  Auxiliary Channels 
5000  Waveform (CCF) Frequency (Hz)
1  Waveforms Skipped 
30  Waveforms Averaged 
1  Cycles Averaged 
16  Acquisitions per Waveform 
10.0806  Updata Rate (Hz) 

#FILE INFORMATION
TRUE -- External MUX Channel results are PARSED.
FALSE -- AC DC and Phase are NOT grouped.
TRUE -- Companion Program Settings File CREATED.
FALSE -- AC data not excluded
FALSE -- DC data not excluded
FALSE -- Phase data not excluded
FALSE -- Auxillary Chn. data not excluded
Tab delimiters

#CALIBRATION STATE
TRUE -- Waveform Calibration Values APPLIED.


#AUX CALIBRATION VALUES
Val Type	aux-1	

Term	1.0000e+00	
Factor	0.0000e+00	


#WF CALIBRATION VALUES
A = Detector Channel
Val Type	A-AC1	A-AC2	A-AC3	A-AC4	A-AC5	A-AC6	A-AC7	A-AC8	A-AC9	A-AC10	A-AC11	A-AC12	A-AC13	A-AC14	A-AC15	A-AC16	A-DC1	A-DC2	A-DC3	A-DC4	A-DC5	A-DC6	A-DC7	A-DC8	A-DC9	A-DC10	A-DC11	A-DC12	A-DC13	A-DC14	A-DC15	A-DC16	A-Ph1	A-Ph2	A-Ph3	A-Ph4	A-Ph5	A-Ph6	A-Ph7	A-Ph8	A-Ph9	A-Ph10	A-Ph11	A-Ph12	A-Ph13	A-Ph14	A-Ph15	A-Ph16	

Term	0.00000e+00	0.00000e+00	0.00000e+00	0.00000e+00	0.00000e+00	0.00000e+00	0.00000e+00	0.00000e+00	0.00000e+00	0.00000e+00	0.00000e+00	0.00000e+00	0.00000e+00	0.00000e+00	0.00000e+00	0.00000e+00	0.00000e+00	0.00000e+00	0.00000e+00	0.00000e+00	0.00000e+00	0.00000e+00	0.00000e+00	0.00000e+00	0.00000e+00	0.00000e+00	0.00000e+00	0.00000e+00	0.00000e+00	0.00000e+00	0.00000e+00	0.00000e+00	0.00000e+00	0.00000e+00	0.00000e+00	0.00000e+00	0.00000e+00	0.00000e+00	0.00000e+00	0.00000e+00	0.00000e+00	0.00000e+00	0.00000e+00	0.00000e+00	0.00000e+00	0.00000e+00	0.00000e+00	0.00000e+00	
Factor	1.00000e+00	1.00000e+00	1.00000e+00	1.00000e+00	1.00000e+00	1.00000e+00	1.00000e+00	1.00000e+00	1.00000e+00	1.00000e+00	1.00000e+00	1.00000e+00	1.00000e+00	1.00000e+00	1.00000e+00	1.00000e+00	1.00000e+00	1.00000e+00	1.00000e+00	1.00000e+00	1.00000e+00	1.00000e+00	1.00000e+00	1.00000e+00	1.00000e+00	1.00000e+00	1.00000e+00	1.00000e+00	1.00000e+00	1.00000e+00	1.00000e+00	1.00000e+00	X	X	X	X	X	X	X	X	X	X	X	X	X	X	X	X	

B = Detector Channel
Val Type	B-AC1	B-AC2	B-AC3	B-AC4	B-AC5	B-AC6	B-AC7	B-AC8	B-AC9	B-AC10	B-AC11	B-AC12	B-AC13	B-AC14	B-AC15	B-AC16	B-DC1	B-DC2	B-DC3	B-DC4	B-DC5	B-DC6	B-DC7	B-DC8	B-DC9	B-DC10	B-DC11	B-DC12	B-DC13	B-DC14	B-DC15	B-DC16	B-Ph1	B-Ph2	B-Ph3	B-Ph4	B-Ph5	B-Ph6	B-Ph7	B-Ph8	B-Ph9	B-Ph10	B-Ph11	B-Ph12	B-Ph13	B-Ph14	B-Ph15	B-Ph16	

Term	0.00000e+00	0.00000e+00	0.00000e+00	0.00000e+00	0.00000e+00	0.00000e+00	0.00000e+00	0.00000e+00	0.00000e+00	0.00000e+00	0.00000e+00	0.00000e+00	0.00000e+00	0.00000e+00	0.00000e+00	0.00000e+00	0.00000e+00	0.00000e+00	0.00000e+00	0.00000e+00	0.00000e+00	0.00000e+00	0.00000e+00	0.00000e+00	0.00000e+00	0.00000e+00	0.00000e+00	0.00000e+00	0.00000e+00	0.00000e+00	0.00000e+00	0.00000e+00	-2.84052e+01	-1.28238e+02	-1.23055e+02	-1.81347e+02	-4.90151e+01	-6.44906e+01	-1.58583e+02	-1.62015e+02	-3.30316e+01	-6.71694e+01	-1.70474e+02	-1.69975e+02	-1.81443e+02	-1.76799e+02	-5.34590e+01	-1.49645e+02	
Factor	2.60320e-05	1.63302e-04	4.34181e-05	1.49363e-01	1.92631e-06	1.64092e-06	1.64229e-01	5.54761e-02	1.53204e-06	1.58752e-06	8.65546e-02	3.10973e-02	2.68888e-02	9.37520e-03	1.83265e-06	1.32400e-02	1.49363e-05	2.69560e-05	7.46987e-06	7.68193e-02	2.59114e-07	3.03878e-07	7.93361e-02	2.86037e-02	2.60344e-07	3.00301e-07	4.33358e-02	1.55925e-02	1.39820e-02	4.88742e-03	2.77576e-07	6.67928e-03	X	X	X	X	X	X	X	X	X	X	X	X	X	X	X	X	



#DISTANCE SETTINGS
A = Detector Channel
A-1	A-2	A-3	A-4	A-5	A-6	A-7	A-8	A-9	A-10	A-11	A-12	A-13	A-14	A-15	A-16	

2.5000e+00	3.0000e+00	2.5000e+00	3.0000e+00	2.0000e+00	3.0000e+00	1.5000e+00	3.0000e+00	3.0000e+00	3.0000e+00	3.0000e+00	3.0000e+00	3.0000e+00	3.0000e+00	1.5000e+00	3.0000e+00	

B = Detector Channel
B-1	B-2	B-3	B-4	B-5	B-6	B-7	B-8	B-9	B-10	B-11	B-12	B-13	B-14	B-15	B-16	

1.0000e+01	1.0000e+01	1.0000e+01	1.4400e+00	1.0000e+01	1.0000e+01	1.5100e+00	1.9400e+00	1.0000e+01	1.0000e+01	1.9900e+00	2.4900e+00	2.4100e+00	2.9000e+00	1.0000e+01	2.9800e+00	




#DATA BEGINS
time	group	step	mark	flag	A-AC1	A-AC2	A-AC3	A-AC4	A-AC5	A-AC6	A-AC7	A-AC8	A-AC9	A-AC10	A-AC11	A-AC12	A-AC13	A-AC14	A-AC15	A-AC16	A-DC1	A-DC2	A-DC3	A-DC4	A-DC5	A-DC6	A-DC7	A-DC8	A-DC9	A-DC10	A-DC11	A-DC12	A-DC13	A-DC14	A-DC15	A-DC16	A-Ph1	A-Ph2	A-Ph3	A-Ph4	A-Ph5	A-Ph6	A-Ph7	A-Ph8	A-Ph9	A-Ph10	A-Ph11	A-Ph12	A-Ph13	A-Ph14	A-Ph15	A-Ph16	B-AC1	B-AC2	B-AC3	B-AC4	B-AC5	B-AC6	B-AC7	B-AC8	B-AC9	B-AC10	B-AC11	B-AC12	B-AC13	B-AC14	B-AC15	B-AC16	B-DC1	B-DC2	B-DC3	B-DC4	B-DC5	B-DC6	B-DC7	B-DC8	B-DC9	B-DC10	B-DC11	B-DC12	B-DC13	B-DC14	B-DC15	B-DC16	B-Ph1	B-Ph2	B-Ph3	B-Ph4	B-Ph5	B-Ph6	B-Ph7	B-Ph8	B-Ph9	B-Ph10	B-Ph11	B-Ph12	B-Ph13	B-Ph14	B-Ph15	B-Ph16	aux-1	digaux	

38373.758	1	1	0	768	0.18268	0.1407	0.14936	0.14337	0.1881	0.27041	0.14466	0.12692	0.10909	0.12719	0.27678	0.1272	0.4187	0.066096	0.10182	0.24782	-2.4292	-2.85	-3.1208	-2.8375	-3.0979	-2.8792	-2.8542	-3.6167	-2.8125	-2.8583	-3.2812	-2.725	-3.3896	-3.1896	-2.5229	-3.4333	40.023	247.527	267.132	315.008	11.190	74.298	294.162	-32.846	123.135	255.428	292.045	206.356	293.401	76.183	136.524	247.076	0.00024986	0.00048546	0.00013303	1358	5.9059e-06	4.0182e-06	1363.1	365.8	3.0623e-06	2.7343e-06	419.27	139.61	121.85	41.745	4.8743e-06	51.843	0.00049327	0.00056085	0.0001472	1375.9	5.9764e-06	5.8864e-06	1376.5	372.85	5.9055e-06	5.8552e-06	426.88	142.89	124.36	42.933	6.2616e-06	53.117	242.657	61.233	69.557	-24.513	147.761	113.294	-24.326	-19.556	167.377	122.910	-20.393	-15.580	-14.971	-10.839	126.860	-11.456	-8191	255	
38373.855	1	1	0	0	0.1813	0.19316	0.20215	0.41116	0.20856	0.15294	0.27248	0.23311	0.21109	0.038692	0.15279	0.19283	0.2295	0.22186	0.12968	0.032403	-2.3958	-2.7354	-3.2542	-2.625	-3.0396	-3.0208	-2.6833	-3.6271	-2.9375	-2.7333	-3.4708	-2.5687	-3.1146	-3.3563	-2.4854	-3.3937	191.125	101.889	65.106	281.090	119.388	206.417	250.600	272.744	37.548	59.965	213.488	271.385	-6.675	-30.406	72.842	310.092	0.00026791	0.00047405	0.00012983	1364	5.6001e-06	4.8145e-06	1362.3	366.84	2.8802e-06	6.0018e-06	419.23	139.33	121.72	41.753	5.331e-06	51.889	0.00049713	0.00054743	0.00015237	1378.3	6.0654e-06	6.1333e-06	1375.3	373.92	5.9434e-06	5.9966e-06	426.32	143.03	124.49	42.913	6.187e-06	53.109	232.724	52.812	80.961	-24.373	163.272	91.292	-24.531	-19.836	157.324	115.516	-20.408	-15.786	-15.276	-11.004	128.568	-11.946	-8191	255	
38373.949	1	1	0	0	0.2886	0.19935	0.12747	0.23481	0.11906	0.18869	0.31238	0.13929	0.19805	0.23175	0.17561	0.28455	0.09313	0.44658	0.29739	0.25978	-2.5979	-2.5167	-3.3458	-2.7313	-3.0208	-3.2375	-2.7625	-3.5292	-2.9021	-2.6021	-3.6979	-2.9208	-3.0333	-3.5417	-2.5396	-3.3625	91.330	201.411	147.400	315.830	246.520	173.014	222.289	232.798	-32.495	145.746	264.998	-22.065	299.881	-35.273	185.168	88.205	0.0002515	0.00053839	0.00016955	1360.1	5.6917e-06	5.2827e-06	1364.1	368.24	2.2199e-06	4.7747e-06	419.79	139.89	122.16	41.784	5.9559e-06	51.979	0.00049399	0.00056765	0.0001552	1376.1	5.9224e-06	6.12e-06	1377.6	374.23	5.8295e-06	5.9341e-06	427.36	143.01	124.57	42.892	6.2183e-06	53.277	236.067	56.168	67.576	-24.550	124.235	109.154	-24.567	-19.754	165.126	107.700	-20.420	-15.732	-15.075	-11.038	134.684	-11.822	-8191	255	
38374.047	1	1	0	0	0.2217	0.14575	0.11105	0.14466	0.086389	0.072687	0.42005	0.23376	0.10976	0.23362	0.14634	0.023135	0.36556	0.14046	0.062078	0.035062	-2.9479	-2.5812	-3.3979	-2.9062	-2.7271	-3.4021	-2.8125	-3.1813	-3.0187	-2.6188	-3.5417	-2.7625	-2.9271	-3.3187	-2.6729	-3.1521	288.895	180.567	-3.257	272.836	188.440	255.216	247.298	192.440	137.015	-8.208	270.295	279.495	-35.856	257.441	320.874	105.786	0.00026384	0.00061294	0.00016545	1360	6.0796e-06	4.2632e-06	1362.2	365.99	3.964e-06	3.3874e-06	420.39	140.03	121.39	41.793	6.4432e-06	52.1	0.00049629	0.0005809	0.00015439	1377.7	6.0681e-06	5.9117e-06	1374.8	373.57	5.7981e-06	6.2212e-06	427.52	143.11	124.33	42.914	6.1437e-06	53.244	235.584	66.612	55.371	-24.572	139.025	114.506	-24.588	-19.902	163.576	87.171	-20.746	-15.856	-15.298	-11.182	138.155	-11.761	-8191	255	
38374.145	1	1	0	0	0.20606	0.077629	0.15059	0.21549	0.25514	0.16144	0.10009	0.27137	0.16203	0.33765	0.19557	0.12512	0.06676	0.24748	0.1624	0.23622	-2.5938	-2.4479	-3.3292	-3.025	-2.6104	-3.3187	-2.9042	-3.1667	-3.2896	-2.6354	-3.475	-2.8917	-2.6354	-3.5187	-2.525	-3.1271	145.960	12.426	117.590	301.442	200.102	53.936	-10.296	-19.111	-37.034	109.060	269.547	225.211	48.401	-27.735	40.559	149.883	0.00024123	0.00066922	0.00012971	1358.2	4.4664e-06	4.6852e-06	1365.7	366.98	4.4067e-06	5.444e-06	418.89	139.87	121.62	41.801	4.6223e-06	52.269	0.00048733	0.00056844	0.00015214	1377.2	6.0649e-06	6.0934e-06	1377.8	374.29	6.0893e-06	6.1368e-06	426.91	143.08	124.37	42.988	6.1524e-06	53.209	241.845	41.549	48.518	-24.575	127.180	98.049	-24.544	-19.557	165.692	101.787	-20.790	-16.059	-15.216	-11.269	146.567	-11.980	-8191	255	
38374.238	1	1	0	0	0.17889	0.13888	0.1838	0.42044	0.13533	0.2004	0.15147	0.12353	0.047767	0.28056	0.44171	0.064121	0.14617	0.11286	0.074062	0.097728	-2.8104	-2.2542	-3.1333	-3.0542	-2.6417	-3.3583	-3.0146	-3.0167	-3.4083	-2.7104	-3.1625	-3.1521	-2.6042	-3.4667	-2.8979	-2.9521	231.183	-25.420	308.011	315.940	302.153	93.455	294.236	251.788	304.723	148.765	269.132	159.782	300.622	253.412	191.049	14.724	0.00026007	0.00055723	0.00015855	1363.2	4.3832e-06	4.2477e-06	1356.9	365.69	3.7515e-06	4.7655e-06	420.83	140.07	122.25	41.732	4.4068e-06	52.049	0.00049305	0.00057484	0.00015752	1378	6.0406e-06	6.018e-06	1377.7	374	5.9684e-06	6.3482e-06	427.94	143.29	124.51	42.905	6.0992e-06	53.215	240.794	62.560	74.847	-24.889	166.712	112.425	-24.664	-19.846	178.311	96.927	-20.467	-15.396	-15.214	-10.870	133.293	-11.526	-8191	255	
38374.359	1	1	0	0	0.19622	0.07944	0.050749	0.033635	0.32967	0.19625	0.16827	0.066989	0.17144	0.20613	0.25462	0.12678	0.072027	0.10736	0.22528	0.28697	-3.0125	-2.4083	-3.1562	-3.3979	-2.5042	-3.4375	-2.9688	-2.8229	-3.3229	-2.4896	-3.1458	-3.0812	-2.6083	-3.3333	-2.7792	-2.7542	284.596	179.165	184.725	-13.703	88.268	298.390	315.748	41.692	95.209	235.140	317.445	281.342	308.419	210.595	38.023	264.015	0.0002665	0.0004794	0.00015229	1364.6	6.1164e-06	5.0131e-06	1364.5	367.62	3.91e-06	4.2099e-06	419.63	140.19	121.85	41.927	4.8335e-06	51.762	0.00050591	0.000585	0.0001508	1379.5	6.202e-06	6.0263e-06	1378.4	374.15	6.047e-06	6.3288e-06	427.09	143.23	124.47	42.984	6.2547e-06	53.081	238.233	48.686	61.713	-24.668	145.009	111.164	-24.474	-19.744	162.949	101.604	-20.525	-15.785	-14.950	-10.849	124.362	-11.595	-8191	255	
38374.457	1	1	0	0	0.14539	0.10569	0.14693	0.38657	0.080506	0.11218	0.34736	0.18512	0.26551	0.2976	0.18799	0.17458	0.14887	0.14705	0.18768	0.15255	-2.9813	-2.475	-2.9146	-3.4104	-2.6229	-3.3271	-3.0646	-2.75	-3.5187	-2.5187	-3.1625	-3.4292	-2.6125	-3.3667	-3.0667	-2.6083	101.550	162.667	132.406	306.667	-29.186	53.938	254.030	226.325	158.767	28.661	-27.500	230.717	296.468	72.427	273.022	300.982	0.00027214	0.00048821	0.0001286	1359.6	3.8219e-06	6.0554e-06	1363.7	367.6	2.5374e-06	3.9942e-06	421.13	139.93	121.43	41.825	4.3272e-06	51.999	0.000484	0.0005663	0.00015584	1377.7	6.1038e-06	6.0351e-06	1377	374.28	5.7748e-06	6.0761e-06	427.83	143.3	124.35	42.945	5.8603e-06	53.195	238.596	51.303	77.049	-24.678	151.619	124.433	-24.490	-19.901	163.037	105.188	-20.456	-15.661	-15.244	-11.035	145.764	-11.696	-8191	255	
38374.551	1	1	0	0	0.18797	0.13748	0.072092	0.35092	0.10649	0.16318	0.29293	0.30986	0.076565	0.071738	0.14375	0.1426	0.34095	0.21686	0.072059	0.20126	-3.0375	-2.7333	-2.7083	-3.4854	-2.5542	-3.0438	-3.2854	-2.5979	-3.4313	-2.8604	-2.9667	-3.3292	-2.7521	-3.0958	-3.0938	-2.6208	159.421	232.039	153.943	-14.053	311.457	22.481	286.954	293.933	296.275	278.268	-29.211	228.447	204.264	288.366	108.520	312.414	0.00024364	0.00042747	0.00012215	1359.4	5.2675e-06	4.984e-06	1362.8	368.21	3.3335e-06	4.8193e-06	422.74	140	121.98	41.862	5.4584e-06	51.757	0.00048739	0.0005622	0.00016454	1378.7	6.3154e-06	6.1985e-06	1376.6	374.37	5.8599e-06	6.1906e-06	428.6	143.07	124.52	42.949	6.0685e-06	53.024	242.496	48.184	57.710	-24.490	147.043	112.770	-24.572	-19.484	191.573	102.121	-20.666	-15.278	-14.930	-10.485	138.983	-11.565	-8191	255	
38374.648	1	1	0	0	0.12907	0.13698	0.12572	0.35756	0.036045	0.046961	0.32595	0.3504	0.165	0.16626	0.15131	0.16035	0.21722	0.24805	0.23566	0.18927	-3.0062	-2.7208	-2.7104	-3.6542	-2.3917	-3.1312	-3.4979	-2.5896	-3.4542	-2.8896	-2.7167	-3.525	-2.5583	-3.0062	-3.1688	-2.5271	170.493	226.874	117.381	254.320	156.159	166.896	274.229	255.695	66.304	174.168	241.992	263.143	149.004	249.155	93.009	178.708	0.00028892	0.00047068	0.00012143	1360.2	5.2964e-06	4.9048e-06	1362.3	367.27	4.8633e-06	3.5294e-06	420.36	140.22	121.8	41.756	4.832e-06	52.051	0.0004966	0.00056108	0.0001562	1377.9	6.0255e-06	6.1079e-06	1376.6	373.95	5.97e-06	5.9923e-06	428.33	143.31	124.53	43.016	5.9679e-06	53.226	240.624	53.871	64.139	-24.425	155.496	102.539	-24.525	-19.691	164.865	90.944	-20.457	-15.871	-15.419	-11.090	117.297	-11.684	-8191	255	
38374.742	1	1	0	0	0.12209	0.2186	0.096653	0.084512	0.18979	0.095647	0.39451	0.23453	0.15647	0.18591	0.074817	0.22549	0.2632	0.24009	0.13103	0.10115	-2.8563	-2.9417	-2.5917	-3.6188	-2.5917	-2.9708	-3.3646	-2.6229	-3.2167	-3.1646	-2.6063	-3.6021	-2.7604	-2.8063	-3.3333	-2.5646	12.393	180.646	255.441	283.585	7.343	187.834	261.472	231.741	194.661	145.887	219.092	244.696	-26.711	280.385	128.867	69.154	0.00025383	0.00049585	0.00014186	1365.5	6.2854e-06	4.8541e-06	1360.8	367.61	2.2891e-06	4.9525e-06	421.07	140.5	121.92	41.748	4.3888e-06	52.095	0.00048481	0.00054732	0.00015072	1378.9	6.249e-06	6.17e-06	1376.6	374.09	6.0118e-06	6.1718e-06	427.12	143.49	124.43	42.964	6.0326e-06	53.227	241.264	46.147	46.328	-24.630	152.352	117.275	-24.554	-19.680	171.985	107.334	-20.075	-15.340	-15.103	-10.808	136.503	-11.528	-8191	255	
38374.840	1	1	0	0	0.17248	0.023927	0.12918	0.23061	0.27953	0.048657	0.2178	0.19906	0.086452	0.18497	0.060186	0.31584	0.14278	0.24035	0.095379	0.26099	-2.7812	-3.0646	-2.4396	-3.5125	-2.8896	-2.8354	-3.5312	-2.6437	-3.2417	-3.0479	-2.7104	-3.3958	-2.8937	-2.8667	-3.3812	-2.6604	100.591	262.992	-22.938	290.495	299.990	196.539	303.141	251.949	160.552	122.317	26.183	268.309	21.739	277.035	-1.915	320.322	0.00024337	0.00048543	0.00015281	1360.8	4.0328e-06	5.3147e-06	1365.3	366.42	3.4423e-06	3.1469e-06	420.45	140.3	121.84	41.777	4.0674e-06	51.965	0.00049231	0.00053143	0.00015313	1377.5	6.2344e-06	6.0402e-06	1377.3	374.05	5.9532e-06	5.8953e-06	426.86	143.51	124.43	42.992	6.0951e-06	53.16	236.670	52.488	52.817	-24.503	139.845	122.333	-24.480	-19.618	150.982	100.253	-20.443	-15.319	-15.071	-10.815	116.483	-11.913	-8191	255	
38374.934	1	1	0	0	0.15345	0.089801	0.22735	0.23035	0.13532	0.099235	0.20442	0.17796	0.13051	0.26901	0.16574	0.17007	0.24731	0.1319	0.18416	0.2005	-2.8458	-3.1688	-2.4771	-3.375	-2.9917	-2.7667	-3.6479	-2.8333	-3.0021	-3.1292	-2.5812	-3.5208	-2.9604	-2.7313	-3.5521	-2.7542	-11.878	193.782	-1.603	286.485	265.905	186.121	302.742	186.327	310.594	214.722	298.627	230.289	172.242	2.486	161.283	218.163	0.00025993	0.00054925	0.00014529	1362.6	6.0394e-06	4.8126e-06	1363.3	367.37	3.0443e-06	3.8704e-06	418.9	140.35	122.18	41.85	4.9153e-06	51.993	0.0004891	0.0005471	0.00015126	1378.5	6.2193e-06	6.2257e-06	1376.6	373.39	6.0302e-06	6.0642e-06	426.9	143.19	124.38	42.947	5.9476e-06	53.179	235.918	39.743	58.317	-24.752	135.566	113.873	-24.750	-19.752	180.831	116.563	-20.256	-15.433	-15.150	-10.864	136.680	-11.735	-8191	255	
38375.055	1	1	0	0	0.14276	0.091376	0.19238	0.18501	0.054651	0.20434	0.13611	0.15646	0.21103	0.15621	0.17159	0.054421	0.046329	0.16859	0.10995	0.2939	-2.6146	-3.1958	-2.4938	-3.4188	-3.05	-2.6146	-3.4229	-2.9729	-2.8417	-3.3292	-2.6354	-3.2896	-3.1417	-2.6813	-3.4375	-2.7521	103.158	195.001	80.652	38.181	278.838	144.843	270.956	295.909	31.443	130.055	106.276	101.056	282.600	312.239	286.079	240.151	0.00028825	0.00046572	0.00011088	1362.2	5.1449e-06	4.1158e-06	1362.5	366.39	2.8193e-06	2.8015e-06	419.65	140.27	121.9	41.807	5.753e-06	52.014	0.00049125	0.00054373	0.00015855	1377.3	5.9742e-06	6.1839e-06	1375.6	373.53	5.8659e-06	5.8133e-06	427.15	143.17	124.39	42.998	5.9927e-06	53.181	240.289	57.549	46.846	-24.194	144.031	118.469	-24.225	-19.463	177.820	114.743	-20.211	-15.241	-14.949	-10.690	158.737	-11.379	-8191	255	
38375.152	1	1	0	0	0.2773	0.32466	0.13451	0.2231	0.071273	0.028344	0.18031	0.27681	0.20084	0.06918	0.10294	0.361	0.16737	0.14144	0.023083	0.21508	-2.4292	-3.325	-2.5583	-3.2479	-2.9854	-2.5771	-3.4062	-3.0979	-2.6375	-3.3354	-2.5875	-3.0396	-3.2042	-2.6167	-3.475	-2.9562	83.439	182.491	0.054	270.327	278.942	215.459	165.435	284.143	91.178	-20.195	230.229	286.760	81.377	307.342	196.779	200.557	0.0002808	0.00033887	0.00014396	1359.4	6.9419e-06	6.2892e-06	1360	366.61	4.0009e-06	3.1663e-06	419.66	140.29	121.71	41.775	6.5011e-06	51.76	0.00050177	0.00055024	0.00015635	1374.9	5.7318e-06	6.289e-06	1374.8	373.62	5.95e-06	5.7752e-06	427.1	143.18	124.33	42.876	5.8696e-06	53.06	237.653	65.225	53.196	-24.240	141.165	121.443	-24.344	-19.738	150.764	133.838	-20.670	-15.663	-15.450	-11.010	126.826	-11.873	-8191	255	
38375.246	1	1	0	0	0.058049	0.17066	0.033072	0.33154	0.082691	0.080161	0.3052	0.28847	0.22986	0.26977	0.088797	0.14247	0.23768	0.17577	0.24743	0.038575	-2.2	-3.4625	-2.7042	-3.2771	-3.225	-2.5854	-3.4979	-3.125	-2.7188	-3.3854	-2.8458	-3.025	-3.6042	-2.6312	-3.1375	-3.1604	292.941	7.271	68.293	266.565	205.749	21.269	-17.356	227.644	138.894	97.326	234.449	-14.109	281.280	-13.308	284.602	140.922	0.00027785	0.00053289	0.00011037	1357.3	5.051e-06	4.1899e-06	1359	367.01	3.201e-06	4.2113e-06	419.31	139.96	121.54	41.753	4.0803e-06	51.595	0.00049965	0.00055024	0.00015699	1375	5.7313e-06	6.2289e-06	1375.4	373.18	5.9912e-06	6.0686e-06	426.68	143.09	124.33	42.925	6.0153e-06	53.001	242.054	36.538	77.682	-24.763	152.629	98.198	-24.703	-19.974	174.337	109.386	-20.287	-15.515	-15.442	-11.084	121.908	-11.766	-8191	255	
38375.320	1	1	0	0	0.38309	0.15619	0.10264	0.26421	0.29852	0.20598	0.16604	0.066037	0.29165	0.10755	0.075989	0.094652	0.1406	0.25987	0.1227	0.35455	-2.2271	-3.45	-2.8271	-3.1813	-3.35	-2.6562	-3.3563	-3.3375	-2.3812	-3.4042	-2.8917	-2.8479	-3.5042	-2.575	-3.2917	-3.2396	-21.121	308.610	297.698	283.525	188.719	143.718	295.467	252.141	233.455	66.443	315.145	19.985	79.645	-31.493	134.177	225.466	0.00028679	0.00056993	0.00015963	1362.7	5.1932e-06	3.7385e-06	1362.3	367.21	4.9328e-06	4.8441e-06	419.69	139.72	121.87	41.767	5.452e-06	52.063	0.00049791	0.00054794	0.0001613	1379.7	5.938e-06	6.5011e-06	1377.1	373.67	6.2504e-06	6.1918e-06	427.1	143	124.39	42.859	6.2709e-06	53.178	242.768	50.421	63.610	-24.458	134.588	96.550	-24.444	-19.638	135.298	108.260	-20.559	-15.620	-15.426	-11.232	144.899	-11.998	-8191	255	
38375.441	1	1	0	0	0.24952	0.192	0.077064	0.20371	0.085848	0.088173	0.49355	0.15889	0.13269	0.070624	0.18664	0.12718	0.32305	0.14987	0.088523	0.10595	-2.3229	-3.2667	-2.8792	-3.0979	-3.3688	-2.6604	-3.3354	-3.1937	-2.5625	-3.3708	-3.1125	-2.8104	-3.5146	-2.5604	-2.975	-3.3271	23.063	80.776	179.872	291.266	-11.288	291.717	224.864	268.203	168.458	81.864	-17.469	111.937	309.006	49.744	-26.125	6.201	0.00028845	0.00063495	0.00015018	1360.1	4.6839e-06	4.6479e-06	1368.1	367.96	3.7868e-06	4.991e-06	420.84	140.03	121.73	41.784	8.2623e-06	51.877	0.00051341	0.00057355	0.00015887	1378	6.134e-06	6.5384e-06	1380.6	374.64	6.207e-06	6.0417e-06	427.51	142.98	124.58	42.967	6.1425e-06	53.06	241.779	40.485	72.873	-24.894	138.905	111.739	-24.714	-19.961	160.912	104.006	-21.044	-15.773	-15.429	-11.513	135.793	-12.237	-8191	255	
38375.535	1	1	0	0	0.18196	0.071146	0.061998	0.41866	0.14529	0.31117	0.24063	0.32171	0.13005	0.16765	0.21278	0.39135	0.43024	0.12506	0.14643	0.14146	-2.3125	-3.3021	-2.8187	-2.8563	-3.2562	-2.5667	-3.0563	-3.4083	-2.4562	-3.2292	-3.1667	-2.6021	-3.5354	-3.0104	-2.9208	-3.3375	305.005	63.911	232.257	280.152	285.080	201.578	236.098	240.654	55.643	83.937	294.832	315.038	-20.423	115.632	212.817	107.601	0.00027554	0.00070776	0.00011889	1363.8	5.1383e-06	2.8775e-06	1363.2	367.06	3.5266e-06	4.6337e-06	421.46	139.88	121.42	41.845	5.0545e-06	51.922	0.00051285	0.00056057	0.00015512	1379	6.1302e-06	6.2877e-06	1379.2	373.68	6.1756e-06	6.1042e-06	427.04	143.23	124.55	42.95	6.2836e-06	53.091	233.593	60.224	64.167	-24.907	151.877	103.315	-24.897	-20.189	166.032	120.501	-20.884	-15.959	-15.500	-11.511	140.616	-12.148	-8191	255	
38375.633	1	1	0	0	0.094864	0.13195	0.32302	0.056227	0.091573	0.27321	0.18797	0.2711	0.20192	0.12545	0.20998	0.18309	0.14665	0.23783	0.16445	0.15337	-2.1521	-3.2667	-3.0458	-2.7771	-3.1729	-2.9021	-3.0708	-3.5292	-2.6917	-3.2271	-3.3458	-2.6604	-3.5167	-3.0438	-2.8708	-3.5333	24.251	7.254	313.085	96.071	160.084	104.340	246.769	-5.303	162.293	172.249	314.513	257.207	274.115	294.299	-12.840	319.999	0.00025079	0.00057785	0.00014095	1359.6	6.7142e-06	4.9251e-06	1366.3	366.2	3.3822e-06	5.5962e-06	420.55	139.89	121.19	41.776	6.3283e-06	51.914	0.00050367	0.0005672	0.00015372	1378.5	6.2231e-06	6.1687e-06	1379.7	373.82	6.4929e-06	6.0554e-06	427.31	143.05	124.24	42.858	6.3397e-06	53.116	245.374	37.880	54.930	-24.934	148.737	131.925	-24.955	-20.273	182.020	119.064	-21.067	-16.039	-15.349	-11.460	133.868	-11.944	-8191	255	
38375.727	1	1	0	0	0.13202	0.16336	0.12631	0.24916	0.029463	0.10375	0.11374	0.048352	0.2418	0.056944	0.37799	0.32098	0.10296	0.084914	0.20003	0.21522	-2.2542	-2.875	-3.1958	-2.6792	-3.3792	-2.9542	-2.8354	-3.5958	-2.6646	-3.0146	-3.4125	-2.4958	-3.3979	-3.1021	-2.6896	-3.4333	0.567	-35.027	134.929	75.831	125.245	308.459	-29.485	37.168	110.435	116.349	275.242	283.574	254.839	272.258	116.572	148.223	0.00024137	0.00047995	0.00015899	1356.2	3.3708e-06	4.6358e-06	1363.3	367.82	4.392e-06	6.0019e-06	419.85	139.48	121.89	41.715	4.9993e-06	51.972	0.00050771	0.0005458	0.00015347	1376.5	6.1437e-06	6.3289e-06	1377.9	374.39	6.2304e-06	6.0661e-06	427	142.9	124.51	42.883	6.235e-06	53.151	237.991	58.458	58.715	-25.094	168.546	107.712	-24.698	-20.019	162.624	118.951	-20.982	-15.695	-15.473	-11.387	149.875	-12.051	-8191	255	
38375.848	1	1	0	0	0.2752	0.14786	0.16758	0.29359	0.36874	0.26211	0.275	0.18791	0.12974	0.21114	0.18922	0.1061	0.16503	0.2046	0.097314	0.073784	-2.2375	-2.8333	-3.3125	-2.6583	-3.3479	-2.925	-2.7938	-3.6167	-2.7687	-2.8125	-3.5146	-2.4792	-3.3979	-3.25	-2.4458	-3.4729	237.003	169.310	252.498	273.603	227.892	228.318	273.217	-0.299	26.149	-18.590	307.706	179.964	239.875	-8.388	159.705	3.359	0.00023718	0.00039157	0.00011002	1360.7	6.0439e-06	4.6659e-06	1362.9	367.06	3.0779e-06	6.0687e-06	420.96	139.66	121.24	41.709	4.8876e-06	52.013	0.00050836	0.00056057	0.00015553	1379.7	6.1944e-06	6.0927e-06	1377.7	373.95	6.1246e-06	6.1211e-06	427.17	142.98	124.18	42.846	6.183e-06	53.144	239.563	24.862	56.415	-24.932	143.041	114.417	-24.851	-19.983	165.548	108.939	-20.821	-15.877	-15.550	-11.272	131.950	-11.750	-8191	255	
38375.922	1	1	0	0	0.13109	0.22589	0.16087	0.19815	0.052763	0.29074	0.38169	0.13243	0.15576	0.073812	0.17873	0.28391	0.1337	0.2568	0.32526	0.092009	-2.4229	-2.6417	-3.4229	-2.5687	-3.0458	-3.0833	-2.8354	-3.2958	-2.8646	-2.7146	-3.4833	-2.6188	-2.9979	-3.2667	-2.4688	-3.325	188.380	152.774	195.736	-6.965	254.440	74.562	231.830	-10.195	73.740	316.434	-32.156	159.098	4.649	4.144	123.502	277.759	0.0002747	0.00036433	0.00017335	1360	5.0554e-06	4.3689e-06	1362.4	366.6	3.8171e-06	5.142e-06	419.75	139.58	121.28	41.669	6.7969e-06	51.961	0.00050917	0.00055496	0.00015095	1377.9	6.215e-06	6.2016e-06	1377.2	373.61	6.1268e-06	6.4371e-06	427.26	143.1	124.3	42.863	6.2241e-06	53.161	239.733	45.872	60.071	-24.798	145.766	136.067	-24.857	-20.106	146.795	114.598	-20.392	-15.659	-15.313	-11.146	133.632	-12.060	-8191	255	
38376.039	1	1	0	0	0.13673	0.12384	0.1459	0.2705	0.1664	0.14245	0.011943	0.14905	0.1904	0.10614	0.26413	0.16244	0.2992	0.24148	0.10046	0.057761	-2.5354	-2.5	-3.3271	-2.8208	-3.0625	-3.2	-2.5708	-3.3063	-2.9604	-2.6917	-3.45	-2.9417	-2.9021	-3.4313	-2.4083	-3.2271	240.929	122.849	315.640	-6.238	294.510	242.608	251.615	263.452	-4.000	49.383	-26.421	269.840	262.182	309.177	164.863	72.319	0.00023817	0.00059857	0.00013767	1364.8	3.4942e-06	5.3465e-06	1363.9	365.82	4.2538e-06	4.1058e-06	419.37	140.13	121.16	41.786	4.0966e-06	51.804	0.00049483	0.00057753	0.00015058	1378.6	6.1626e-06	6.1358e-06	1377.5	373.52	6.2591e-06	6.2938e-06	427.1	143.2	124.23	42.87	6.3218e-06	53.116	242.205	43.398	68.772	-24.856	131.042	115.790	-24.686	-19.979	172.105	118.326	-20.808	-15.696	-15.471	-11.252	121.728	-11.687	-8191	255	
38376.137	1	1	0	0	0.18997	0.11455	0.10493	0.19505	0.13092	0.12762	0.19758	0.1954	0.26574	0.1016	0.20648	0.22611	0.10146	0.010653	0.088403	0.07078	-2.7917	-2.3771	-3.2792	-2.9562	-2.6625	-3.4458	-2.7271	-3.3604	-3.1292	-2.4938	-3.4771	-2.9042	-2.8417	-3.3187	-2.6583	-3.2188	74.253	234.623	223.532	228.712	109.399	219.443	258.301	253.370	111.230	311.415	293.854	140.173	-21.220	283.604	174.924	-12.633	0.00026115	0.00053184	0.00012253	1362.5	5.6494e-06	4.2839e-06	1362.2	366.33	3.6011e-06	5.6377e-06	421.29	139.61	121.88	41.724	5.8564e-06	51.744	0.00049436	0.00057585	0.00015621	1378.3	6.4498e-06	5.9877e-06	1377.2	374	5.9814e-06	6.4659e-06	427.82	143.01	124.64	42.903	6.3733e-06	53.104	235.587	43.095	46.478	-24.904	148.599	130.674	-24.719	-20.026	146.391	120.121	-20.731	-15.656	-15.268	-11.111	142.501	-11.897	-8191	255	
38376.230	1	1	0	0	0.13603	0.14855	0.10404	0.27759	0.068965	0.36717	0.31297	0.20635	0.037188	0.14575	0.23328	0.23723	0.1252	0.15676	0.12705	0.17692	-2.7375	-2.4271	-3.2708	-3.0729	-2.6562	-3.3792	-2.8542	-3.1188	-3.1813	-2.55	-3.4562	-2.9896	-2.5021	-3.45	-2.5687	-2.9792	113.273	-3.560	132.496	-6.812	249.944	189.843	261.418	288.271	119.511	195.225	180.879	222.563	296.947	280.792	205.619	9.956	0.00027468	0.00056539	0.00011054	1365.1	4.0412e-06	6.0935e-06	1365.7	368.13	4.1584e-06	5.314e-06	421.13	139.93	121.52	41.729	4.6707e-06	51.936	0.00051474	0.00057383	0.00015393	1379.6	6.2193e-06	6.0681e-06	1377.7	374.32	6.047e-06	6.5603e-06	427.35	142.9	124.27	42.917	6.227e-06	53.143	237.391	63.954	62.904	-24.891	168.965	107.773	-24.719	-19.705	150.150	102.838	-20.453	-15.407	-15.095	-10.936	133.181	-11.591	-8191	255	
38376.328	1	1	0	0	0.17003	0.38884	0.087588	0.34535	0.18879	0.12842	0.23907	0.09635	0.15372	0.14589	0.19923	0.042628	0.23233	0.066311	0.069802	0.09661	-2.8625	-2.2417	-3.1521	-2.9437	-2.4896	-3.4708	-2.8625	-2.8688	-3.4562	-2.4625	-3.2438	-3.1375	-2.4875	-3.4229	-2.6458	-2.8312	62.934	212.086	101.897	292.480	283.006	-29.120	141.641	320.454	285.376	10.840	242.738	308.844	-19.153	252.542	266.284	-30.194	0.00026205	0.00054898	0.00017072	1362.4	4.6924e-06	3.687e-06	1357.4	366.92	2.7731e-06	4.9489e-06	417.86	139.52	121.44	41.673	4.4679e-06	51.832	0.00048353	0.00058697	0.00015466	1376.9	6.1577e-06	6.0997e-06	1375.3	373.92	5.9977e-06	6.3188e-06	426.83	142.84	124.17	42.879	6.2478e-06	53.064	237.626	37.995	67.236	-24.826	133.367	109.705	-24.603	-19.504	185.652	116.682	-20.357	-15.544	-14.883	-10.854	146.009	-11.951	-8191	255	
38376.449	1	1	0	0	0.1602	0.27196	0.39938	0.3345	0.15312	0.15421	0.14748	0.12728	0.20883	0.35197	0.096628	0.24444	0.19398	0.10878	0.1191	0.11668	-3.0771	-2.3625	-3.0062	-3.0833	-2.4125	-3.1958	-2.8271	-2.9604	-3.3417	-2.5625	-3.2854	-3.2083	-2.5792	-3.3958	-2.7458	-2.5438	33.388	247.956	225.877	267.716	198.650	13.441	-36.164	-16.926	1.127	305.239	48.619	281.729	259.422	26.262	-3.000	28.324	0.00027568	0.00047041	0.00013269	1362	7.3739e-06	4.8056e-06	1363.6	367.05	3.2459e-06	5.35e-06	420.79	140.21	121.45	42.019	4.9952e-06	51.768	0.00050059	0.00058023	0.00015799	1376.2	6.1259e-06	6.1434e-06	1377.8	373.65	6.1138e-06	6.4815e-06	427	143.01	124.38	42.922	6.2969e-06	53.121	236.480	46.915	62.666	-24.401	158.243	98.081	-24.484	-19.581	146.989	141.168	-20.397	-15.641	-15.179	-10.783	130.169	-11.817	-8191	255	
38376.543	1	1	0	0	0.072676	0.085001	0.17199	0.041565	0.17386	0.29425	0.19126	0.18098	0.20314	0.022938	0.12049	0.24229	0.24801	0.22558	0.13842	0.1924	-3.0271	-2.6833	-3.0187	-3.4583	-2.4729	-3.1271	-3.1542	-2.8187	-3.3958	-2.7604	-3.2354	-3.4	-2.5979	-3.3979	-2.8604	-2.6813	1.311	69.064	17.343	-25.131	100.182	120.641	290.629	297.271	230.841	212.414	241.410	307.192	280.188	294.969	222.155	226.113	0.00024848	0.00049588	0.00017542	1363.7	4.6133e-06	4.811e-06	1368.1	367.66	4.046e-06	4.2194e-06	419.8	139.28	121.61	41.857	6.218e-06	52.01	0.00049355	0.00057781	0.00015775	1379.2	6.5599e-06	6.2732e-06	1379.8	374.35	6.1132e-06	6.4033e-06	427.63	143.04	124.51	43.009	6.3721e-06	53.241	243.936	41.537	64.531	-24.515	140.165	118.769	-24.435	-19.544	149.653	106.472	-20.288	-15.463	-15.245	-11.246	125.803	-12.077	-8191	255	
38376.617	1	1	0	0	0.16188	0.044649	0.22928	0.19665	0.11653	0.064225	0.19028	0.45696	0.16501	0.20035	0.043794	0.21991	0.16876	0.12823	0.23526	0.18558	-2.9604	-2.7062	-2.9854	-3.3667	-2.3708	-3.2313	-3.2125	-2.6312	-3.3333	-2.9396	-3.0125	-3.3146	-2.6854	-3.0687	-3.2021	-2.5208	312.239	38.610	10.354	239.061	304.855	130.748	218.685	255.075	245.764	108.614	42.207	-12.648	249.277	314.598	316.668	-25.927	0.00022799	0.00054112	0.00014775	1364.9	5.1774e-06	4.279e-06	1365.3	367.63	3.325e-06	5.0664e-06	420.33	139.88	121.41	41.834	4.7385e-06	51.827	0.00048509	0.0005772	0.00016177	1380.9	6.432e-06	6.1637e-06	1381.3	374.6	5.9456e-06	6.4289e-06	427.96	143.2	124.32	42.989	6.4097e-06	53.146	242.827	47.547	70.016	-25.160	142.926	113.970	-25.139	-20.061	171.468	114.131	-20.632	-15.878	-15.456	-11.047	152.686	-12.317	-8191	255	
38376.734	1	1	0	0	0.06555	0.26444	0.32347	0.17895	0.082279	0.072898	0.24103	0.2343	0.08578	0.17508	0.17661	0.020992	0.16787	0.16613	0.13794	0.12283	-3.0375	-2.9125	-2.6625	-3.4396	-2.4792	-3.1125	-3.3625	-2.6104	-3.3146	-2.7792	-2.7667	-3.4375	-2.6021	-3.0604	-3.2958	-2.5458	81.764	228.898	68.701	260.972	305.400	103.110	251.959	215.558	-6.269	11.603	221.517	216.695	308.291	280.869	49.027	178.749	0.0002574	0.0005328	0.00016817	1364.2	6.0145e-06	4.978e-06	1368.2	367.11	3.395e-06	4.7284e-06	420.78	140.13	121.54	41.837	4.7756e-06	51.942	0.00050696	0.00059017	0.0001653	1382.2	6.4649e-06	6.3992e-06	1380.3	374.35	6.1886e-06	6.3132e-06	427.86	143.28	124.42	42.888	6.3594e-06	53.147	241.531	47.726	71.535	-24.963	147.366	99.651	-24.931	-19.983	166.006	109.999	-20.924	-15.949	-15.523	-11.289	129.684	-12.110	-8191	255	
38376.832	1	1	0	0	0.24814	0.10031	0.073785	0.22931	0.29059	0.14938	0.152	0.073044	0.17423	0.23692	0.29383	0.060291	0.13937	0.083202	0.12942	0.12703	-2.8604	-2.825	-2.8146	-3.5646	-2.5042	-2.9792	-3.5333	-2.4917	-3.2104	-2.9646	-2.7458	-3.4229	-2.7375	-2.7	-3.3667	-2.5354	-16.788	198.245	241.023	-11.828	279.747	71.294	290.747	12.187	308.240	57.641	286.574	245.993	267.730	318.017	315.789	118.730	0.0002432	0.00054539	0.00015525	1363.3	5.6577e-06	5.7513e-06	1372.2	367.62	3.4067e-06	4.5818e-06	421.15	140.44	121.41	41.819	4.4225e-06	52.041	0.00049614	0.00058242	0.00016641	1383.3	6.4773e-06	6.6043e-06	1383	374.9	6.1376e-06	6.4321e-06	428.12	143.3	124.25	42.99	6.5115e-06	53.234	237.098	42.107	68.607	-24.761	143.284	128.329	-25.007	-20.261	155.293	121.991	-20.746	-15.774	-15.561	-11.080	126.769	-12.029	-8191	255	
38376.926	1	1	0	0	0.26466	0.16228	0.23062	0.22884	0.19344	0.089791	0.28626	0.18285	0.15724	0.19196	0.14603	0.30421	0.2883	0.10356	0.093731	0.1028	-2.7771	-3.1667	-2.4521	-3.4292	-2.8146	-2.7833	-3.4688	-2.8021	-3.0187	-3.2167	-2.5563	-3.4854	-2.7625	-2.6813	-3.1333	-2.4542	60.268	165.113	53.264	304.906	-5.657	124.982	-23.668	304.546	147.580	66.730	-13.509	266.239	217.289	33.154	247.022	292.974	0.00026573	0.0004927	0.00013097	1367.9	6.5677e-06	4.8359e-06	1368.2	366.91	2.8483e-06	5.4492e-06	421.47	139.77	121.5	41.966	4.728e-06	52.068	0.00050952	0.00058876	0.0001669	1384.4	6.4708e-06	6.5213e-06	1383.2	374.5	6.4283e-06	6.3789e-06	428.74	143.37	124.66	43.003	6.279e-06	53.203	240.476	44.556	50.196	-24.965	135.210	114.711	-24.735	-20.002	148.140	110.505	-20.758	-15.708	-15.497	-11.119	120.312	-11.676	-8191	255	
38377.023	1	1	0	0	0.12463	0.1534	0.24278	0.35342	0.14503	0.05922	0.35164	0.24743	0.24968	0.14065	0.07514	0.14948	0.13052	0.11817	0.07742	0.11722	-2.5646	-3.0312	-2.4854	-3.475	-2.8208	-2.7438	-3.5333	-2.7292	-3.1104	-3.3917	-2.6937	-3.3458	-2.8625	-2.5312	-3.3479	-2.6958	224.639	279.859	29.503	316.378	98.193	22.723	204.298	275.171	229.387	200.299	111.869	303.850	59.104	282.078	308.279	313.227	0.00021706	0.00065758	0.00014649	1367.9	4.9896e-06	5.0604e-06	1368.3	369.42	3.5348e-06	4.6961e-06	420.32	140.18	122.25	41.954	5.3473e-06	51.926	0.00051232	0.00058949	0.00016932	1385.1	6.4633e-06	6.6486e-06	1383.7	375.16	6.1365e-06	6.3745e-06	428.08	143.42	124.79	43.016	6.246e-06	53.16	243.439	62.504	57.690	-24.686	128.886	117.127	-24.796	-19.775	175.449	96.068	-20.800	-15.558	-15.464	-10.935	134.438	-11.797	-8191	255	
38377.145	1	1	0	0	0.072646	0.26719	0.18543	0.32615	0.10764	0.1719	0.10256	0.16567	0.19526	0.13836	0.23784	0.30673	0.19439	0.29721	0.10283	0.32986	-2.6292	-3.2458	-2.3833	-3.3812	-2.8396	-2.5646	-3.5042	-2.9333	-2.8812	-3.2292	-2.7521	-3.2229	-3.1771	-2.5146	-3.2687	-2.8208	212.767	62.840	-35.230	239.899	128.057	157.209	196.348	285.303	292.889	-26.827	321.666	301.708	63.295	271.284	143.385	-10.246	0.00027053	0.00053075	9.5735e-05	1367.9	4.8395e-06	4.3619e-06	1368.5	369.11	2.2493e-06	5.5697e-06	421.78	140.53	121.54	41.898	4.1935e-06	52.002	0.00051356	0.00060213	0.00016913	1384.8	6.3677e-06	6.5815e-06	1383.5	375.19	6.43e-06	6.5178e-06	428.79	143.54	124.59	43.02	6.3293e-06	53.239	233.654	72.188	57.794	-24.656	144.336	106.510	-24.715	-19.885	164.793	106.112	-20.465	-15.823	-15.157	-11.076	133.607	-11.888	-8191	255	
38377.215	1	1	0	0	0.12264	0.2322	0.38619	0.55607	0.066311	0.18055	0.20171	0.32483	0.11152	0.17094	0.054633	0.25261	0.083122	0.034771	0.12839	0.074022	-2.3479	-3.1083	-2.3438	-3.3271	-3.1021	-2.625	-3.5479	-3.0479	-2.5396	-3.2875	-2.6937	-3.1146	-3.375	-2.4813	-3.3896	-3.0354	1.819	86.652	-3.379	262.409	319.912	134.519	273.889	308.076	190.815	225.661	306.250	226.502	271.107	301.362	231.977	129.593	0.0002603	0.00055192	0.00020162	1365.5	5.1441e-06	6.3942e-06	1365.5	368.33	3.5335e-06	4.8105e-06	422.59	140.36	122.25	41.898	4.2884e-06	52.013	0.00052377	0.00057349	0.00017363	1384.9	6.3683e-06	6.5903e-06	1382.7	375.17	6.514e-06	6.3389e-06	428.41	143.63	124.81	43.062	6.2807e-06	53.155	239.497	62.207	51.304	-24.560	139.772	109.791	-24.522	-19.649	166.980	135.152	-20.542	-15.374	-15.122	-10.539	156.972	-11.514	-8191	255	
38377.312	1	1	0	0	0.23317	0.11017	0.11274	0.44957	0.18001	0.16884	0.29365	0.19158	0.19829	0.32517	0.20037	0.086217	0.3307	0.14743	0.1528	0.29283	-2.1958	-3.3583	-2.4458	-3.0625	-3.2021	-2.6042	-3.3583	-3	-2.6188	-3.3625	-2.7438	-3.0542	-3.3667	-2.5604	-3.0229	-3.0312	121.136	-21.451	200.211	-9.376	227.761	202.418	253.920	235.090	204.282	232.024	254.097	278.909	251.036	239.194	206.294	272.703	0.00028142	0.00050847	0.00018057	1368.6	5.4314e-06	3.6951e-06	1371.2	368.7	4.967e-06	4.6088e-06	421.2	140.07	121.68	41.781	5.5202e-06	51.801	0.00052626	0.00059769	0.00016961	1386.1	6.3353e-06	6.6809e-06	1384	375.37	6.5271e-06	6.2331e-06	427.96	143.41	124.47	42.939	6.312e-06	53.149	237.682	72.768	58.237	-24.033	135.465	108.862	-24.090	-19.264	160.430	122.753	-19.886	-15.220	-15.049	-10.983	123.167	-11.532	-8191	255	
38377.406	1	1	0	0	0.101	0.23046	0.21463	0.2869	0.12272	0.27361	0.28677	0.099249	0.054497	0.086586	0.20234	0.14494	0.14791	0.22427	0.13798	0.16182	-2.3	-3.375	-2.6333	-2.9521	-3.1875	-2.4792	-3.45	-3.3146	-2.6042	-3.3208	-2.7562	-3.0083	-3.4813	-2.5167	-3.3229	-3.3854	304.307	48.366	28.607	-15.935	-4.615	-33.391	188.234	-1.380	164.643	225.008	178.413	207.826	234.340	298.569	11.453	-5.671	0.00027388	0.00063788	0.00015726	1368.3	4.265e-06	4.231e-06	1372	368.86	3.0974e-06	3.9523e-06	421.9	139.99	121.4	41.996	6.1383e-06	51.761	0.00052364	0.0005727	0.00016703	1384.6	6.2857e-06	6.6695e-06	1384.2	375.04	6.495e-06	6.4627e-06	428.63	143.47	124.46	42.959	6.5311e-06	53.159	240.801	49.864	61.715	-24.373	157.313	114.337	-24.287	-19.494	144.508	114.182	-20.215	-15.376	-15.322	-10.705	115.593	-11.465	-8191	255	
38377.527	1	1	0	0	0.23824	0.062401	0.12951	0.25263	0.086331	0.15429	0.15007	0.20029	0.12509	0.11491	0.22624	0.13445	0.18335	0.28194	0.18535	0.080889	-2.0708	-3.4437	-2.7708	-2.8604	-3.4979	-2.6833	-3.3375	-3.1625	-2.4896	-3.2833	-2.7854	-2.6437	-3.5521	-2.5583	-3.1333	-3.3271	54.807	167.502	158.270	291.505	3.090	126.332	320.085	315.718	233.268	220.386	321.665	231.050	269.335	317.361	23.468	212.349	0.00028343	0.00063897	0.00014168	1368.2	6.3137e-06	4.2657e-06	1373.7	368.33	2.4632e-06	4.8568e-06	420.58	139.72	122.18	41.769	5.2211e-06	52.108	0.00053503	0.00058349	0.00016133	1385.2	6.3067e-06	6.8987e-06	1383.9	374.56	6.3638e-06	6.494e-06	428.68	143.24	124.67	42.961	6.4357e-06	53.17	237.821	48.289	60.049	-24.207	127.244	90.129	-24.231	-19.730	160.280	116.889	-20.774	-15.870	-15.472	-11.034	133.334	-11.981	-8191	255	
38377.625	1	1	0	0	0.25075	0.029926	0.40222	0.39253	0.10987	0.19217	0.11253	0.24782	0.19308	0.16425	0.17844	0.14699	0.1267	0.21669	0.10095	0.069876	-2.0042	-3.3396	-2.8187	-2.7667	-3.5583	-2.5354	-3.0083	-3.3354	-2.475	-3.1708	-3.0833	-2.7708	-3.3646	-2.7208	-2.8	-3.5583	95.430	192.885	5.819	306.384	175.074	320.086	246.235	306.004	186.962	56.461	279.195	229.856	314.932	-27.068	44.868	82.126	0.00026915	0.0003633	0.00018212	1367.7	4.9102e-06	6.6048e-06	1370.7	367.29	2.6697e-06	4.5038e-06	420.71	140.68	121.2	41.806	5.0424e-06	51.96	0.00051773	0.00058096	0.00016873	1384.7	6.3888e-06	6.9069e-06	1383.9	374.97	6.3584e-06	6.3019e-06	428.36	143.62	124.38	42.922	6.5473e-06	53.14	237.874	48.395	44.581	-24.617	146.534	103.541	-24.568	-19.963	165.929	119.465	-20.569	-15.491	-15.293	-11.199	122.637	-11.879	-8191	255	
38377.723	1	1	0	0	0.29544	0.17902	0.2187	0.12556	0.095974	0.18103	0.18408	0.24383	0.21325	0.10638	0.16511	0.27222	0.074483	0.18995	0.30102	0.23496	-2.0729	-3.1604	-2.8396	-2.7146	-3.4167	-2.7938	-2.9479	-3.5917	-2.4104	-3.2062	-3.2646	-2.6917	-3.4292	-2.7833	-2.6854	-3.4062	41.805	314.135	144.651	298.629	240.608	189.856	252.540	136.168	153.660	225.300	22.191	247.734	227.572	132.682	57.037	307.798	0.00025337	0.00055222	9.5882e-05	1365.1	5.2291e-06	4.7236e-06	1366.8	367.54	3.6002e-06	5.0355e-06	421.03	139.95	121.64	41.697	4.2983e-06	52.072	0.00051537	0.00058568	0.00016329	1383	6.4962e-06	6.4492e-06	1382.1	374.64	6.5732e-06	6.4358e-06	428.07	143.48	124.53	42.855	6.4571e-06	53.186	233.497	59.537	49.489	-24.678	131.574	123.112	-24.744	-19.902	183.263	103.675	-20.766	-15.587	-15.232	-10.988	115.180	-11.701	-8191	255	
38377.816	1	1	0	0	0.13599	0.10296	0.062211	0.24897	0.058159	0.19089	0.26418	0.18053	0.30363	0.08865	0.2775	0.096042	0.10582	0.18101	0.11531	0.21179	-2.1104	-3.0833	-3.2208	-2.6208	-3.3083	-2.9417	-2.7896	-3.4167	-2.6542	-2.9292	-3.2417	-2.4792	-3.3688	-3.0167	-2.4792	-3.5083	280.831	259.304	180.037	271.231	-25.478	85.083	205.709	295.498	243.068	168.175	294.393	-5.567	228.637	3.822	127.425	-7.512	0.00025396	0.00048585	0.00013385	1367.5	6.1466e-06	4.9161e-06	1367.5	368.22	4.223e-06	4.8223e-06	420.14	139.48	121.96	41.784	5.2057e-06	52.199	0.00051944	0.00059859	0.00016385	1383.5	6.4131e-06	6.7081e-06	1383	374.88	6.4354e-06	6.4108e-06	427.7	143.2	124.39	42.898	6.5201e-06	53.169	238.858	46.235	58.391	-24.366	136.538	110.931	-24.155	-19.410	159.791	111.820	-20.408	-15.200	-14.887	-10.526	119.187	-11.859	-8191	255	
38377.910	1	1	0	0	0.26145	0.059408	0.11416	0.4059	0.071107	0.13852	0.29695	0.11178	0.029353	0.20025	0.32549	0.14675	0.20124	0.23739	0.23102	0.11821	-2.2667	-2.9	-3.3063	-2.6375	-3.1896	-3.0271	-2.5646	-3.4583	-2.8521	-2.8125	-3.4729	-2.6167	-3.0646	-3.0604	-2.3812	-3.5354	320.059	289.758	126.910	292.219	-22.458	-32.765	270.492	159.008	217.150	288.920	152.251	-15.735	-26.124	314.901	266.931	214.066	0.00026607	0.00060025	0.0001337	1363.4	4.9691e-06	6.0876e-06	1365.2	369.56	3.4813e-06	5.0288e-06	420.01	140.13	122.01	41.873	4.4793e-06	51.876	0.00050426	0.00060236	0.00016217	1382.3	6.1993e-06	6.6454e-06	1381.3	375.03	6.443e-06	6.7793e-06	427.86	143.4	124.6	42.941	6.704e-06	53.122	243.739	44.812	55.767	-24.447	131.495	123.811	-24.341	-19.463	148.178	115.128	-20.414	-15.350	-14.823	-10.640	129.717	-11.731	-8191	255	
38378.008	1	1	0	0	0.20937	0.14458	0.11571	0.16399	0.20089	0.27513	0.30541	0.1908	0.20557	0.22395	0.10468	0.20684	0.27614	0.1494	0.15535	0.33796	-2.3167	-2.575	-3.3229	-2.5542	-3.2229	-3.1562	-2.7083	-3.5083	-2.7104	-2.6937	-3.3771	-2.6875	-3.15	-3.3375	-2.4958	-3.4437	270.984	13.935	-29.998	202.361	287.640	-25.294	212.235	240.168	67.019	247.570	53.422	280.344	296.888	240.917	167.176	282.373	0.00027097	0.00053903	0.00013551	1365.2	4.4873e-06	4.4326e-06	1367.6	367.74	3.8355e-06	3.6709e-06	422.5	140.31	122.07	41.666	6.2199e-06	51.884	0.00052168	0.00060073	0.00016158	1383.2	6.4471e-06	6.5175e-06	1382.5	374.69	6.3302e-06	6.5541e-06	428.47	143.34	124.6	42.887	6.7139e-06	53.093	237.211	55.445	57.188	-24.880	146.749	110.326	-24.555	-19.997	162.741	110.458	-20.642	-15.657	-15.099	-11.112	123.985	-12.020	-8191	255	
38378.129	1	1	0	0	0.1862	0.1723	0.15032	0.2225	0.22972	0.13678	0.31055	0.31456	0.29404	0.22721	0.29205	0.46947	0.22932	0.091356	0.15893	0.13233	-2.3521	-2.5458	-3.4229	-2.825	-2.9208	-3.3042	-2.6979	-3.2292	-2.9125	-2.5667	-3.4271	-2.5917	-3.0417	-3.5167	-2.4208	-3.3354	-11.748	287.252	320.441	-28.848	250.414	158.756	222.526	184.680	98.538	155.043	-16.815	251.399	299.715	262.205	6.315	204.301	0.00026404	0.00057914	0.00011211	1369.2	3.9575e-06	4.4773e-06	1369	367.45	4.8565e-06	6.1806e-06	421.51	140.33	121.15	41.954	4.5066e-06	51.891	0.00051331	0.00061589	0.0001637	1384.1	6.3164e-06	6.3821e-06	1384.5	374.8	6.4159e-06	6.5503e-06	428.57	143.25	124.31	42.971	6.5762e-06	53.185	240.605	46.789	50.181	-25.172	144.040	95.069	-25.123	-20.126	176.397	112.896	-20.926	-16.181	-15.504	-11.504	136.237	-11.997	-8191	255	
38378.227	1	1	0	0	0.28039	0.28297	0.088685	0.35432	0.20954	0.22617	0.29383	0.34812	0.090997	0.13873	0.14369	0.070109	0.3034	0.12323	0.1065	0.082274	-2.6958	-2.4708	-3.4646	-2.8438	-2.8396	-3.25	-2.6625	-3.3646	-3.1021	-2.6063	-3.5208	-2.8542	-2.6771	-3.4938	-2.4792	-3.35	133.521	114.389	319.344	258.460	234.824	169.548	269.830	277.583	239.288	242.172	259.467	240.747	260.718	302.659	227.294	319.300	0.00027119	0.00058724	0.00016347	1368.4	5.7194e-06	4.6822e-06	1366.6	368.72	2.9664e-06	5.148e-06	420.89	139.64	122.07	41.909	5.411e-06	51.808	0.00051477	0.00060398	0.00016343	1385.5	6.5254e-06	6.4929e-06	1380.5	375.21	6.2081e-06	6.8049e-06	428.01	143.1	124.57	42.944	6.523e-06	53.13	235.130	55.973	54.884	-25.108	153.844	115.886	-25.092	-20.300	164.844	108.179	-20.899	-16.246	-15.714	-11.379	133.600	-12.370	-8191	255	
38378.320	1	1	0	0	0.15219	0.049631	0.099553	0.11372	0.083042	0.19371	0.11451	0.14427	0.1542	0.16376	0.27537	0.28354	0.24628	0.20432	0.17181	0.12737	-2.8958	-2.5062	-3.375	-3.1167	-2.6542	-3.3187	-2.7604	-3.1958	-3.075	-2.7208	-3.5	-2.9437	-2.7792	-3.3583	-2.6875	-3.0146	162.275	180.053	1.077	270.591	57.851	241.691	280.873	194.850	169.653	90.715	274.875	240.974	303.113	321.400	43.667	296.310	0.0002704	0.00045297	0.00014103	1366.5	7.2423e-06	4.6924e-06	1371.8	368.34	2.7776e-06	3.4959e-06	420.37	139.87	121.31	41.82	4.7689e-06	51.885	0.00052427	0.00062858	0.00016003	1385	6.6042e-06	6.5657e-06	1382.4	375.45	6.3437e-06	6.7418e-06	428.28	143.29	124.45	42.895	6.6011e-06	53.143	240.671	49.882	62.489	-24.981	145.960	105.644	-25.232	-20.211	153.993	134.153	-21.056	-15.922	-15.767	-11.605	117.366	-12.088	-8191	255	
38378.441	1	1	0	0	0.081878	0.19722	0.26127	0.3265	0.16918	0.13169	0.33038	0.12364	0.19925	0.1058	0.21441	0.22225	0.13873	0.089456	0.39167	0.15847	-2.85	-2.5604	-3.2208	-3.1417	-2.575	-3.3979	-2.8563	-2.9542	-3.4271	-2.6479	-3.3	-3.125	-2.7354	-3.6667	-2.8125	-3.0146	22.902	53.509	58.293	307.676	269.312	190.961	258.067	160.079	272.467	-29.451	212.019	67.517	-21.599	0.779	151.131	288.124	0.00025018	0.00051566	0.00015435	1366	5.5714e-06	5.9413e-06	1369.9	369.42	2.508e-06	3.7846e-06	420.2	140.06	121.69	41.784	4.6151e-06	51.756	0.0005112	0.00062678	0.00016961	1383.2	6.6517e-06	6.5441e-06	1383.6	375.18	6.27e-06	6.5885e-06	427.84	143.14	124.63	42.919	6.6636e-06	53.074	243.960	40.112	70.784	-25.314	134.714	102.409	-24.957	-20.194	150.484	111.717	-20.783	-16.174	-15.683	-11.670	137.031	-11.974	-8191	255	
38378.512	1	1	0	0	0.14574	0.13377	0.22582	0.2561	0.030035	0.050899	0.27236	0.20293	0.1048	0.072336	0.18913	0.19161	0.17126	0.16901	0.26729	0.22709	-3	-2.5187	-3.1437	-3.2854	-2.4375	-3.4375	-2.9854	-2.775	-3.4021	-2.7062	-3.2938	-3.3292	-2.7625	-3.4146	-2.975	-2.875	0.651	52.021	65.199	301.672	195.810	184.243	252.861	240.691	162.641	221.624	258.918	258.487	63.068	303.274	269.516	314.086	0.00024416	0.00041004	0.00013915	1366.4	6.1415e-06	4.7728e-06	1368	368.45	3.999e-06	4.0082e-06	420.9	140.14	121.48	41.634	5.3986e-06	51.751	0.0005093	0.00060022	0.00016851	1385.7	6.8698e-06	6.5055e-06	1383.7	375.37	6.3047e-06	6.7624e-06	427.86	143.13	124.44	42.871	6.5514e-06	53.015	240.515	59.657	66.677	-25.325	148.128	108.786	-25.008	-20.355	153.576	111.570	-20.723	-16.116	-15.623	-11.313	118.585	-12.196	-8191	255	
38378.609	1	1	0	0	0.17284	0.25441	0.073476	0.2295	0.17806	0.0052926	0.32007	0.10276	0.4064	0.17479	0.2534	0.082326	0.36789	0.033572	0.19394	0.12964	-3.1437	-2.5729	-3.1167	-3.2708	-2.5646	-3.3583	-3.1604	-2.7729	-3.3583	-2.7521	-3.1146	-3.5375	-2.5604	-3.3542	-2.9854	-2.7687	-24.681	216.863	148.352	318.448	102.393	259.774	290.699	256.222	178.678	289.262	277.759	246.974	307.282	71.592	213.748	-36.350	0.00026192	0.00046389	9.762e-05	1366.7	3.5663e-06	3.3928e-06	1365.5	366.97	3.6201e-06	6.0287e-06	420.23	139.88	120.83	41.743	4.444e-06	51.744	0.00051565	0.00060471	0.00016675	1384.9	6.6554e-06	6.4777e-06	1383.8	374.82	6.4343e-06	6.6642e-06	427.95	142.96	124.28	42.891	6.4745e-06	53.068	237.428	59.184	60.209	-25.193	172.918	111.507	-25.083	-20.293	164.245	101.790	-20.899	-16.038	-15.611	-11.428	106.268	-12.192	-8191	255	
38378.703	1	1	0	0	0.063884	0.19879	0.18325	0.29005	0.20194	0.027176	0.44553	0.11785	0.23995	0.096867	0.17707	0.25181	0.17036	0.15725	0.086331	0.11038	-3.2396	-2.8521	-2.8688	-3.4125	-2.4938	-3.1958	-3.2417	-2.5729	-3.5687	-2.55	-2.9813	-3.4646	-2.6604	-3.1375	-3.125	-2.4896	61.980	84.523	186.852	269.412	72.928	169.737	268.450	267.437	51.305	-9.356	273.132	290.370	237.693	240.547	18.968	255.311	0.00025735	0.00054165	0.00014011	1368.3	6.6004e-06	4.6244e-06	1373.4	369.25	3.5466e-07	3.9408e-06	420.65	139.48	121.64	41.737	6.5248e-06	51.813	0.00051453	0.0006169	0.00017308	1385.4	6.7116e-06	6.5473e-06	1385.5	375.15	6.398e-06	6.6955e-06	429.02	143.16	124.55	42.856	6.5514e-06	53.035	242.073	49.367	57.933	-25.115	147.482	113.998	-25.037	-20.086	148.898	134.713	-20.937	-15.899	-15.481	-11.374	130.337	-12.143	-8191	255	
38378.824	1	1	0	0	0.16551	0.20934	0.20792	0.11623	0.14155	0.067641	0.073232	0.27043	0.14928	0.13658	0.28782	0.078602	0.072289	0.13254	0.083216	0.1502	-3.0271	-2.7938	-2.5833	-3.6229	-2.5854	-2.9979	-3.2646	-2.7271	-3.3812	-2.9208	-2.825	-3.5312	-2.6646	-2.9854	-3.1875	-2.6417	57.283	108.137	273.781	251.192	5.077	284.670	63.600	165.520	182.913	122.209	275.575	189.343	198.051	317.932	207.359	288.749	0.00024436	0.00066202	0.00019627	1367.6	4.4556e-06	6.0701e-06	1369.5	367.78	3.394e-06	5.1639e-06	421.28	140.47	122.23	41.728	5.2666e-06	51.9	0.00052006	0.00062285	0.00016874	1386.4	6.5955e-06	6.7391e-06	1385.7	374.91	6.4408e-06	6.7824e-06	428.5	143.51	124.61	42.889	6.704e-06	53.11	243.691	50.638	51.687	-25.010	139.499	121.801	-25.226	-20.258	177.903	108.178	-20.850	-16.072	-15.816	-11.324	130.976	-12.097	-8191	255	
38378.922	1	1	0	0	0.15613	0.036244	0.047135	0.12532	0.22231	0.22342	0.065004	0.1354	0.084945	0.22694	0.15125	0.096269	0.22713	0.096034	0.19042	0.25205	-2.9021	-2.8937	-2.5458	-3.4875	-2.6792	-3.1208	-3.4104	-2.7583	-3.2812	-2.9479	-2.6208	-3.525	-2.8187	-3.0729	-3.5062	-2.5417	248.779	321.832	313.821	-17.124	137.982	288.570	66.581	145.198	142.067	55.618	-16.916	160.507	290.164	95.312	114.373	18.477	0.00022383	0.00048795	0.00013738	1370.2	4.4706e-06	4.6676e-06	1371.6	368.63	3.2902e-06	5.8638e-06	421.39	140.22	121.63	41.778	3.4702e-06	51.973	0.00052237	0.00062134	0.00017473	1388.7	6.7569e-06	6.7303e-06	1385.7	375.35	6.5439e-06	6.6392e-06	428.63	143.34	124.52	42.892	6.3993e-06	53.168	239.846	27.791	58.611	-25.088	146.496	131.321	-25.041	-19.991	162.034	110.520	-21.009	-15.871	-15.573	-11.346	143.595	-12.110	-8191	255	
38379.016	1	1	0	0	0.093362	0.11107	0.040308	0.20058	0.20903	0.036081	0.31224	0.17939	0.011134	0.24467	0.19869	0.15236	0.17646	0.10117	0.16125	0.12205	-2.7812	-2.9896	-2.5271	-3.675	-2.5646	-2.9542	-3.4979	-2.5958	-3.1854	-3.0563	-2.5396	-3.4583	-2.8125	-2.7979	-3.4167	-2.525	269.064	245.657	299.006	300.259	115.054	216.212	260.494	-34.288	87.609	111.347	285.193	48.875	265.650	-22.635	130.984	159.971	0.00025277	0.00061619	0.00011339	1367.9	3.4862e-06	4.5533e-06	1374.5	368.89	3.6116e-06	4.0083e-06	421.07	140.11	121.49	41.674	6.122e-06	51.897	0.00053802	0.00062549	0.00017142	1386.9	6.7618e-06	6.8132e-06	1387	374.91	6.3524e-06	6.6223e-06	427.63	143.25	124.42	42.841	6.2935e-06	53.094	235.391	41.904	84.859	-24.991	140.762	92.627	-25.014	-20.204	169.256	117.281	-20.828	-16.237	-15.501	-11.428	129.517	-12.397	-8191	255	
38379.090	1	1	0	0	0.11082	0.27475	0.12548	0.3752	0.16602	0.18622	0.26969	0.072802	0.10255	0.24438	0.12517	0.073548	0.18063	0.28073	0.14872	0.22669	-2.6708	-3.1625	-2.5917	-3.6146	-2.7167	-2.7333	-3.6229	-2.8333	-2.9771	-3.1562	-2.5021	-3.2938	-2.8833	-2.775	-3.3292	-2.6667	87.363	198.847	206.755	246.095	34.650	278.378	219.892	27.864	52.736	49.597	249.498	283.118	36.376	-37.669	271.468	256.035	0.00024892	0.00059351	0.00010898	1368.4	3.3203e-06	4.6563e-06	1368.7	368.6	4.2838e-06	3.9055e-06	422.42	140.23	121.34	41.646	5.1422e-06	51.869	0.00051646	0.00059753	0.00016859	1386.6	6.5864e-06	6.6347e-06	1383.8	375.07	6.1512e-06	6.327e-06	428.46	143.32	124.55	42.844	6.4721e-06	53.096	238.161	37.784	63.263	-25.139	140.021	107.114	-25.245	-20.340	154.653	102.027	-21.223	-16.075	-15.671	-11.386	135.815	-12.343	-8191	255	
38379.211	1	1	0	0	0.14796	0.22318	0.15183	0.24741	0.20512	0.13015	0.039868	0.27246	0.098919	0.020983	0.069031	0.22119	0.20521	0.01753	0.063962	0.33779	-2.5812	-3.2833	-2.5271	-3.3104	-2.8812	-2.725	-3.6354	-2.6979	-2.9083	-3.2979	-2.7438	-3.4271	-3.1833	-2.6229	-3.3604	-2.8271	241.141	3.959	222.680	-26.136	265.165	180.141	265.291	305.019	100.091	211.165	239.515	290.395	248.867	276.537	30.563	198.063	0.00026011	0.00066961	8.7122e-05	1364.2	5.1269e-06	4.8893e-06	1366.7	368.07	4.1376e-06	3.6606e-06	421.14	139.52	121.07	41.761	4.4424e-06	51.535	0.00050774	0.00058214	0.00016817	1384.1	6.2252e-06	6.6739e-06	1382.2	374.37	6.2689e-06	6.2738e-06	427.98	142.94	124.13	42.825	6.2935e-06	52.94	244.629	50.733	74.492	-24.925	141.043	116.477	-25.075	-20.122	158.655	117.404	-20.967	-16.091	-15.731	-11.363	136.412	-12.228	-8191	255	
38379.305	1	1	0	0	0.32477	0.16837	0.11478	0.16706	0.25499	0.33318	0.28622	0.1605	0.17702	0.20168	0.041592	0.12888	0.14201	0.12597	0.12737	0.23697	-2.3	-3.35	-2.6354	-3.2188	-2.9896	-2.6354	-3.4333	-2.9167	-2.7083	-3.4458	-2.7	-3.0646	-3.0938	-2.5625	-3.3292	-2.9354	34.560	-1.314	-2.275	255.519	202.996	34.472	284.700	250.060	23.241	102.628	202.946	264.001	272.111	305.611	133.075	316.458	0.00025826	0.00055471	0.00012254	1366	6.1321e-06	2.9385e-06	1362.9	367.67	3.7417e-06	4.4582e-06	420.84	139.77	121.54	41.798	5.9205e-06	51.62	0.00051191	0.00057669	0.00016476	1380.9	6.1993e-06	6.6119e-06	1379.5	374.03	6.1729e-06	6.1712e-06	427.57	142.91	124.4	42.826	6.2547e-06	52.885	242.660	52.118	67.075	-25.072	141.249	107.422	-25.085	-20.198	163.206	123.268	-20.908	-16.198	-15.566	-11.433	138.183	-12.429	-8191	255	
38379.402	1	1	0	0	0.047564	0.17593	0.31598	0.087115	0.12363	0.13572	0.083377	0.19897	0.084668	0.14538	0.060466	0.22339	0.41582	0.32359	0.14538	0.064365	-2.3667	-3.1667	-2.5396	-3.2562	-3.2021	-2.5896	-3.3667	-2.9958	-2.6437	-3.3792	-2.6063	-3.0104	-3.3479	-2.4375	-3.3	-3.0875	51.436	10.381	271.867	164.603	214.117	111.711	212.791	318.457	-30.918	157.845	-31.906	235.891	267.679	30.010	81.783	-2.454	0.00025025	0.00051162	0.00015477	1363	4.1042e-06	6.4076e-06	1369.9	368.61	3.7028e-06	4.2098e-06	420.78	139.38	121.46	41.73	5.2015e-06	51.782	0.00050687	0.00059904	0.00016675	1382.3	6.0595e-06	6.7056e-06	1382	374.61	6.3546e-06	6.2369e-06	427.63	142.93	124.28	42.831	6.523e-06	53.051	235.047	40.952	34.995	-25.090	142.871	116.317	-25.037	-20.400	150.186	91.862	-20.951	-16.137	-15.812	-11.432	142.386	-12.078	-8191	255	
38379.523	1	1	0	0	0.14356	0.23281	0.16112	0.16982	0.11723	0.20319	0.13324	0.24942	0.16328	0.16173	0.071784	0.10871	0.14245	0.3531	0.22452	0.1438	-2.2375	-3.1917	-2.6354	-3.1771	-3.2896	-2.4625	-3.3937	-3.2771	-2.6604	-3.4792	-2.9188	-3.0187	-3.2396	-2.6437	-3.2479	-3.1562	54.311	30.745	39.137	270.968	265.533	-4.882	-25.314	265.542	196.716	273.837	100.257	45.132	202.627	51.977	-21.491	41.625	0.00027137	0.00057896	0.00013738	1363.5	6.0075e-06	5.0125e-06	1367.9	368.17	3.0218e-06	5.4273e-06	420.08	139.83	121.41	41.667	5.5785e-06	51.95	0.00052249	0.00058203	0.00017061	1384	6.3602e-06	6.8613e-06	1381.7	374.22	6.5292e-06	6.3726e-06	427.56	143.16	124.17	42.871	6.3877e-06	53.062	236.221	47.879	48.397	-24.971	125.415	113.849	-24.974	-20.370	169.809	113.936	-21.154	-16.083	-15.757	-11.478	120.504	-12.356	-8191	255	
38379.617	1	1	0	0	0.050007	0.32654	0.16507	0.024788	0.32725	0.074202	0.068726	0.012978	0.3244	0.28073	0.26816	0.20108	0.1717	0.083932	0.016573	0.23286	-2.1458	-3.3583	-2.8229	-2.8333	-3.4271	-2.625	-3.2479	-3.2771	-2.4813	-3.2229	-2.9208	-2.6813	-3.3604	-2.4708	-2.9938	-3.3063	19.558	35.198	69.483	297.345	39.497	287.158	11.010	275.049	219.746	217.536	-11.635	264.575	188.526	27.096	283.061	244.560	0.00026865	0.00044718	0.00014417	1366.6	5.2786e-06	4.3479e-06	1362.7	367.72	4.7656e-06	4.9821e-06	420.06	139.99	121.73	41.651	5.0006e-06	51.838	0.00053481	0.00059545	0.00016356	1382.9	6.2311e-06	6.629e-06	1381.1	373.99	6.5683e-06	6.2894e-06	427.67	142.93	124.32	42.821	6.3883e-06	53.017	243.476	59.238	50.850	-24.891	158.566	122.937	-25.167	-20.430	154.605	105.898	-20.832	-15.895	-15.562	-11.540	129.774	-12.087	-8191	255	
38379.711	1	1	0	0	0.11435	0.079883	0.24713	0.36788	0.23431	0.25171	0.23051	0.093979	0.023355	0.08907	0.065588	0.22992	0.18557	0.16259	0.22712	0.17117	-2.0125	-3.2708	-2.7896	-2.8021	-3.3604	-2.7979	-3.0604	-3.5229	-2.6229	-3.2708	-3.2104	-2.675	-3.5563	-2.9271	-3.0125	-3.4771	57.211	226.345	285.688	267.309	282.629	168.143	251.552	55.245	279.228	38.504	308.283	312.734	299.907	-12.749	-13.854	144.348	0.00028966	0.00049297	0.00014939	1367.5	5.4767e-06	5.8953e-06	1367.9	367.44	3.2471e-06	4.3221e-06	420.05	140.32	121.58	41.541	5.6394e-06	51.838	0.00052688	0.00057989	0.00016311	1383.2	6.2317e-06	6.7404e-06	1381.9	374.15	6.4674e-06	6.2744e-06	427.44	143.31	124.34	42.799	6.4733e-06	53.017	240.585	72.961	60.164	-25.117	148.543	120.174	-24.943	-20.164	127.514	128.446	-20.834	-15.876	-15.765	-11.320	139.827	-12.214	-8191	255	
38379.809	1	1	0	0	0.22749	0.24539	0.17715	0.27009	0.14732	0.15976	0.26941	0.16149	0.12347	0.10708	0.025709	0.14146	0.24104	0.095548	0.12112	0.24457	-2.0438	-3.2313	-3.2208	-2.7938	-3.3583	-2.9229	-2.9792	-3.4646	-2.4625	-3.2479	-3.15	-2.675	-3.5083	-2.775	-2.7458	-3.4688	107.976	110.258	209.706	277.890	149.753	217.372	296.515	283.275	244.520	316.792	80.163	59.212	-17.409	263.453	59.007	237.528	0.00026565	0.00040357	0.00013405	1363.7	4.2213e-06	3.9092e-06	1368.2	367.59	3.0496e-06	4.9472e-06	421.95	139.47	121.33	41.642	4.9264e-06	51.582	0.00052651	0.00058714	0.00016256	1382.1	6.1448e-06	6.389e-06	1380.4	373.78	6.4072e-06	6.3107e-06	427.61	142.83	124.33	42.843	6.4727e-06	52.998	236.888	34.558	54.577	-24.991	150.985	107.672	-24.951	-20.335	142.275	111.266	-20.934	-16.130	-15.694	-11.346	130.347	-12.381	-8191	255	
38379.906	1	1	0	0	0.0796	0.20368	0.039823	0.25423	0.10281	0.19915	0.23051	0.073991	0.2034	0.27866	0.078134	0.20196	0.11899	0.23822	0.14826	0.27404	-2.1729	-3.0354	-3.1479	-2.7271	-3.3021	-2.8187	-2.85	-3.3646	-2.5792	-3.025	-3.2771	-2.3854	-3.4021	-3.0479	-2.7104	-3.5521	264.489	170.390	301.375	-34.094	80.501	270.794	14.685	200.057	-33.771	246.610	246.845	288.405	-5.912	282.071	115.963	271.883	0.00026642	0.00042352	0.00013044	1366.1	6.6116e-06	3.9929e-06	1366.3	368.14	3.4322e-06	4.4703e-06	419.18	139.89	121.46	41.739	6.6729e-06	51.633	0.00051515	0.00058994	0.00016094	1382.6	6.188e-06	6.1086e-06	1380.7	374.48	6.3372e-06	6.3877e-06	427.35	142.94	124.35	42.845	6.5797e-06	52.975	233.155	42.023	48.995	-24.948	125.443	116.261	-25.155	-20.259	165.079	115.563	-20.956	-16.006	-15.323	-11.242	126.307	-12.254	-8191	255	
38380.000	1	1	0	0	0.11134	0.16212	0.16709	0.29588	0.33097	0.1256	0.22334	0.092823	0.12595	0.053614	0.19158	0.39795	0.14787	0.28128	0.094044	0.12834	-2.3521	-2.8375	-3.2354	-2.6292	-3.2667	-3.0938	-2.6688	-3.5167	-2.5646	-2.8688	-3.4604	-2.6	-3.3042	-3.0333	-2.5417	-3.3937	135.393	265.832	7.576	289.664	314.829	-14.495	231.064	22.112	-27.490	63.282	271.676	6.905	302.385	298.147	134.513	265.967	0.00027533	0.00040038	0.00015934	1361.6	3.5275e-06	5.3915e-06	1367.6	368.63	2.6977e-06	4.3612e-06	418.2	139.66	121.37	41.581	5.7413e-06	51.942	0.00052103	0.00056125	0.00015984	1382.2	6.1432e-06	6.2738e-06	1381.3	374.33	6.3247e-06	6.3945e-06	427.06	142.81	124.42	42.841	6.5259e-06	53.095	238.707	42.536	42.663	-25.051	144.439	125.563	-24.989	-20.058	150.149	97.601	-20.964	-16.160	-15.715	-11.479	136.771	-12.454	-8191	255	
38380.121	1	1	0	0	0.22477	0.18151	0.12547	0.40067	0.053755	0.13165	0.2027	0.033132	0.1305	0.21713	0.064258	0.11106	0.24482	0.029246	0.071565	0.25395	-2.3625	-2.7458	-3.0458	-2.7313	-3.1333	-3.0917	-2.7208	-3.525	-2.8042	-2.7292	-3.4437	-2.6354	-3.1208	-3.0979	-2.4583	-3.3896	-33.110	298.477	117.231	309.084	258.268	-2.839	5.242	121.883	211.641	167.894	223.530	292.210	294.231	112.876	245.210	303.716	0.00025277	0.00043559	0.00014754	1362.7	4.8327e-06	3.7914e-06	1368	368.19	1.7319e-06	4.2003e-06	420.94	140.07	121.43	41.662	3.8714e-06	51.901	0.00051782	0.00059421	0.00016504	1382.2	6.412e-06	6.1067e-06	1380.5	374.72	6.4066e-06	6.2338e-06	427.9	142.98	124.29	42.787	6.4733e-06	53.127	243.344	51.392	56.729	-25.003	135.271	108.644	-24.797	-20.186	167.033	106.644	-21.021	-16.109	-15.497	-11.588	119.023	-12.434	-8191	255	
38380.219	1	1	0	0	0.33182	0.22194	0.11493	0.33174	0.20866	0.011284	0.12902	0.036584	0.065894	0.14213	0.28964	0.070804	0.32585	0.017303	0.25594	0.21874	-2.3354	-2.7417	-3.2562	-2.8063	-2.9979	-3.3563	-2.7812	-3.3958	-2.8208	-2.6917	-3.5667	-2.7208	-3.1104	-3.3958	-2.4	-3.3333	65.736	161.778	128.886	290.649	194.208	59.577	225.925	274.456	-10.269	-14.000	263.023	299.842	239.444	157.716	-35.411	186.933	0.00024695	0.00052843	0.00010578	1368	6.0037e-06	5.0141e-06	1362.3	366.28	4.3405e-06	3.8437e-06	420.41	139.78	121.36	41.718	5.4063e-06	52.07	0.00050591	0.00060544	0.00015522	1384	6.4104e-06	6.3099e-06	1381.4	373.79	6.4104e-06	6.6679e-06	427.47	143.04	124.33	42.873	6.6034e-06	53.176	245.317	70.245	59.369	-24.976	139.444	112.035	-24.935	-20.400	160.419	106.663	-21.239	-15.954	-15.415	-11.516	150.122	-12.174	-8191	255	
38380.312	1	1	0	0	0.3711	0.082146	0.14116	0.18877	0.22166	0.11832	0.13135	0.2526	0.13169	0.14283	0.29874	0.10026	0.037861	0.066466	0.090214	0.12541	-2.5687	-2.4104	-3.3417	-2.9896	-2.8479	-3.2917	-2.6958	-3.4042	-3.1063	-2.5521	-3.4292	-2.8896	-2.7479	-3.4458	-2.4396	-3.0125	251.924	-4.217	-13.002	228.681	-35.551	203.565	302.649	311.648	297.914	70.383	255.463	116.185	278.912	134.985	101.435	3.603	0.00026451	0.0005299	0.00013271	1365.3	6.2271e-06	4.0801e-06	1365.3	367.15	3.3224e-06	3.3634e-06	420.12	139.35	121.23	41.585	5.951e-06	51.912	0.00049872	0.00059028	0.00016412	1382.8	6.3953e-06	6.4276e-06	1381.1	374.5	6.0834e-06	6.6623e-06	427.73	142.88	124.33	42.848	6.5398e-06	53.028	236.684	44.787	63.566	-25.114	135.862	125.519	-24.895	-19.995	156.861	109.747	-20.996	-15.727	-15.568	-11.302	128.085	-12.239	-8191	255	
38380.387	1	1	0	0	0.30221	0.16251	0.21001	0.13094	0.22472	0.072742	0.28681	0.044037	0.08874	0.18632	0.17265	0.13652	0.21867	0.2421	0.14862	0.16266	-2.6125	-2.4271	-3.4646	-2.8604	-2.7229	-3.225	-2.6063	-3.2875	-3.1625	-2.4729	-3.4	-2.9896	-2.7333	-3.3896	-2.4167	-3.0625	44.177	125.549	143.482	-19.614	98.216	-3.421	275.113	275.911	311.957	255.296	223.846	290.037	-16.770	-30.604	37.104	153.120	0.00025444	0.00055327	0.00011209	1366.9	4.4205e-06	5.5069e-06	1365.1	367.38	3.7092e-06	3.9353e-06	421.75	139.52	121.35	41.686	4.8149e-06	51.61	0.00050538	0.00061173	0.00016446	1384.3	6.4314e-06	6.4359e-06	1381.4	374.1	6.1262e-06	6.7149e-06	428.61	142.98	124.18	42.791	6.678e-06	52.94	242.844	50.311	69.894	-25.066	152.331	100.193	-24.999	-19.992	137.443	110.186	-20.652	-16.153	-15.497	-11.485	140.953	-11.938	-8191	255	
38380.480	1	1	0	0	0.22348	0.16913	0.16885	0.31431	0.14315	0.052535	0.41184	0.29394	0.10164	0.23457	0.26536	0.28995	0.024395	0.10523	0.086324	0.15729	-2.7062	-2.5083	-3.0354	-3.1312	-2.3958	-3.3438	-2.9	-3.0729	-3.2604	-2.5042	-3.425	-3.05	-2.6875	-3.5062	-2.7667	-3.025	212.586	237.560	111.474	304.186	90.951	231.312	270.271	320.288	98.638	118.959	294.680	317.192	83.671	219.098	51.971	273.575	0.00029683	0.00075422	0.00012589	1364.9	6.9225e-06	5.1403e-06	1367.9	368.08	3.1922e-06	5.0372e-06	419.83	139.9	120.99	41.657	5.9315e-06	51.883	0.00050591	0.00060909	0.00016216	1382.9	6.6306e-06	6.4701e-06	1381.2	374.68	6.4159e-06	6.5572e-06	427.61	142.89	124.28	42.807	6.7584e-06	53.042	241.091	52.198	55.344	-25.011	155.505	121.382	-25.003	-20.242	169.949	122.325	-20.807	-15.805	-15.522	-11.790	127.830	-12.291	-8191	255	
38380.602	1	1	0	0	0.095301	0.30872	0.33579	0.14466	0.10472	0.13679	0.29724	0.22073	0.10297	0.2025	0.1056	0.22932	0.028611	0.042204	0.1715	0.116	-2.9125	-2.4729	-3.1667	-3.1937	-2.4729	-3.2229	-2.8771	-2.925	-3.2625	-2.4333	-3.2417	-3.125	-2.65	-3.3688	-2.7708	-2.6979	251.840	166.193	14.960	-33.308	139.461	312.735	240.898	255.291	201.750	159.777	212.757	14.931	257.072	61.844	296.721	280.024	0.00023661	0.00074058	0.00014443	1366.7	4.3891e-06	4.7448e-06	1364.4	369.22	3.7888e-06	2.7493e-06	420.51	139.97	121.53	41.655	3.9003e-06	51.821	0.00050332	0.00059556	0.00016761	1384.4	6.6803e-06	6.5372e-06	1381.1	375.05	6.206e-06	6.7455e-06	426.98	142.91	124.46	42.817	6.4484e-06	53.07	242.943	38.716	57.044	-25.041	101.738	110.834	-24.901	-20.188	164.014	136.446	-20.855	-16.029	-15.780	-11.540	134.149	-12.035	-8191	255	
38380.699	1	1	0	0	0.13084	0.35589	0.12898	0.169	0.14631	0.15165	0.1569	0.31734	0.061076	0.21114	0.11453	0.18382	0.22082	0.14833	0.067268	0.17939	-2.8333	-2.5438	-3.1604	-3.2708	-2.5396	-3.3208	-3.0396	-2.7417	-3.1688	-2.5146	-3.0125	-3.0917	-2.5938	-3.3479	-2.8667	-2.5771	142.858	315.671	297.627	245.441	-4.611	4.829	293.876	-23.406	215.743	243.228	185.475	300.298	301.087	152.141	2.596	290.241	0.00022376	0.00057426	0.00016719	1365.8	5.5643e-06	5.5636e-06	1365.6	367.04	3.9516e-06	4.1358e-06	420.04	139.95	121.73	41.71	3.309e-06	51.856	0.00049959	0.00060769	0.00016227	1382.6	6.3926e-06	6.4112e-06	1380.6	374.32	6.3182e-06	6.3126e-06	427.66	143.08	124.55	42.826	6.5647e-06	53.055	244.928	60.481	34.356	-25.076	111.679	112.499	-25.218	-20.059	171.381	117.221	-20.947	-15.998	-15.698	-11.273	138.558	-12.092	-8191	255	
38380.793	1	1	0	0	0.15351	0.23431	0.057282	0.059082	0.18247	0.093189	0.13751	0.2663	0.28667	0.36892	0.08541	0.15528	0.14789	0.30864	0.16776	0.17401	-2.8563	-2.6292	-2.8958	-3.6021	-2.6583	-3.1208	-3.1771	-2.525	-3.4542	-2.5687	-2.9854	-3.375	-2.5896	-3.3125	-2.9458	-2.6417	223.612	231.855	260.095	309.717	119.073	179.400	321.089	288.240	212.902	320.545	211.728	271.599	279.000	299.937	125.535	145.134	0.00027188	0.00060121	9.6352e-05	1363.3	4.9833e-06	5.3083e-06	1365.8	366.65	3.3169e-06	4.6359e-06	419.82	139.97	121.54	41.828	3.1013e-06	51.743	0.00050528	0.00062353	0.00016364	1381.9	6.5232e-06	6.5239e-06	1381	373.68	6.3746e-06	6.5416e-06	427.04	142.95	124.29	42.861	6.3727e-06	52.972	242.034	42.641	56.095	-24.893	127.511	113.806	-25.112	-19.978	153.673	109.662	-20.927	-16.328	-15.500	-11.367	153.193	-11.898	-8191	255	
38380.891	1	1	0	0	0.14695	0.042456	0.33017	0.16502	0.21538	0.21876	0.22058	0.21329	0.23891	0.064282	0.18416	0.13786	0.029908	0.17786	0.070357	0.20156	-2.9729	-2.675	-2.75	-3.5708	-2.5125	-2.9729	-3.3146	-2.6458	-3.1896	-2.7208	-2.6688	-3.4979	-2.7792	-3.1375	-3.1146	-2.6375	271.803	92.890	302.078	319.079	-6.921	206.110	219.706	-34.222	267.200	18.823	259.224	296.383	-26.795	187.223	32.887	310.734	0.00028097	0.00046755	0.00018662	1367.9	6.2246e-06	4.4279e-06	1369.2	367.62	3.3701e-06	5.7761e-06	420.23	139.4	121.29	41.458	6.2411e-06	51.677	0.00049978	0.00060185	0.00016997	1382.1	6.5464e-06	6.3074e-06	1380.8	373.98	6.3546e-06	6.581e-06	428	142.85	124.33	42.79	6.3692e-06	52.936	234.177	59.038	76.275	-24.906	147.672	126.641	-24.905	-20.049	150.505	107.558	-20.817	-16.048	-15.438	-11.316	130.451	-12.198	-8191	255	
38380.984	1	1	0	0	0.027562	0.02813	0.26507	0.35307	0.06046	0.19165	0.15678	0.42578	0.076352	0.1048	0.10384	0.039235	0.14612	0.1449	0.1653	0.09788	-3.05	-2.7917	-2.4604	-3.5542	-2.6521	-3.0125	-3.4854	-2.6646	-3.3042	-2.8521	-2.8083	-3.3083	-2.7604	-2.8896	-3.3021	-2.7062	-35.814	108.497	231.246	315.662	239.447	201.188	280.570	236.766	-7.008	41.017	154.561	-35.817	244.424	66.383	306.206	155.296	0.00026247	0.00049724	0.00013198	1369.1	5.5227e-06	3.5258e-06	1369.8	367.77	3.7017e-06	5.0265e-06	421.76	139.47	121.43	41.795	4.9619e-06	51.845	0.00049573	0.00058584	0.0001701	1385.7	6.4098e-06	6.3732e-06	1384.4	374.54	6.1902e-06	6.5453e-06	428.74	142.86	124.29	42.856	6.3085e-06	52.995	243.272	47.310	76.539	-24.800	159.638	122.891	-25.044	-20.007	172.977	123.048	-20.843	-16.073	-15.609	-11.568	145.403	-12.022	-8191	255	
38381.082	1	1	0	0	0.08807	0.18002	0.14737	0.13731	0.15412	0.19814	0.21292	0.17704	0.2334	0.18964	0.15278	0.22298	0.16349	0.11798	0.093102	0.16841	-2.7604	-3.0292	-2.475	-3.4521	-2.6771	-3.0292	-3.6625	-2.5833	-3.0708	-2.925	-2.6458	-3.3229	-2.7104	-2.8021	-3.1854	-2.5792	313.608	60.899	156.401	258.514	179.359	105.952	279.337	226.115	168.323	145.904	215.828	317.629	276.323	242.244	318.404	-36.445	0.00025118	0.00058452	0.00014827	1364.4	7.0164e-06	3.8424e-06	1374.1	369.04	2.6871e-06	4.0218e-06	421.37	140.25	121.87	41.755	4.8459e-06	51.787	0.00050457	0.00058236	0.00016731	1383.6	6.5788e-06	6.3017e-06	1383.6	374.51	6.5097e-06	6.4452e-06	427.94	143.16	124.22	42.874	6.4987e-06	52.997	240.954	60.528	45.691	-25.060	153.799	110.339	-25.028	-19.892	168.214	103.416	-20.795	-15.981	-15.505	-11.012	113.514	-12.052	-8191	255	
38381.203	1	1	0	0	0.17791	0.16507	0.30655	0.14941	0.11802	0.10205	0.21032	0.10585	0.13749	0.11299	0.21724	0.068957	0.24578	0.027068	0.17122	0.09953	-2.9167	-3.1792	-2.4917	-3.4708	-2.7271	-2.5187	-3.5208	-2.5917	-3.2042	-3.1542	-2.7042	-3.4417	-2.8208	-2.6333	-3.2667	-2.5875	120.030	202.140	223.231	21.126	-34.262	23.415	243.641	276.253	250.423	68.283	317.954	240.525	283.414	287.353	67.640	227.667	0.00026127	0.0005165	0.00015699	1369.9	5.0393e-06	5.3488e-06	1366.5	368.01	5.4076e-06	5.7029e-06	419.14	139.98	121.41	41.723	4.0011e-06	51.82	0.00050846	0.00058472	0.00016256	1384	6.4563e-06	6.7682e-06	1383.6	374.27	6.4305e-06	6.3313e-06	427.41	142.94	124.22	42.816	6.1495e-06	52.978	237.009	61.097	33.341	-24.866	146.067	111.581	-24.848	-20.094	172.297	102.590	-20.691	-15.870	-15.645	-11.346	140.815	-11.897	-8191	255	
38381.297	1	1	0	0	0.21834	0.013503	0.026363	0.13776	0.34254	0.16584	0.12195	0.13198	0.18725	0.13404	0.29672	0.050786	0.09306	0.06747	0.24201	0.12525	-2.6375	-3.1771	-2.4146	-3.45	-2.8042	-2.5979	-3.6042	-2.8771	-2.8458	-3.3771	-2.6542	-3.3458	-3.1458	-2.8583	-3.4646	-2.8563	131.931	120.742	265.615	242.923	115.428	34.646	258.657	280.378	105.089	-11.287	306.578	270.158	302.958	205.035	186.657	156.287	0.00026262	0.00044472	0.00015174	1366.4	6.6128e-06	3.7384e-06	1366.9	367.23	3.9821e-06	3.6611e-06	420.5	139.22	121.75	41.608	3.3141e-06	51.86	0.00051138	0.0005731	0.00017078	1384.2	6.3855e-06	6.5473e-06	1380.6	374.53	6.3849e-06	6.3282e-06	427.58	142.72	124.35	42.781	6.3571e-06	52.983	241.961	45.780	53.968	-24.880	156.039	125.574	-24.981	-19.969	175.666	124.630	-20.812	-15.699	-15.677	-11.272	134.397	-12.052	-8191	255	
38381.395	1	1	0	0	0.17932	0.17	0.1389	0.19169	0.21237	0.15067	0.32582	0.21032	0.19729	0.047948	0.079875	0.25241	0.07629	0.09397	0.15427	0.24366	-2.4437	-3.3083	-2.4958	-3.4167	-2.9062	-2.7313	-3.5979	-2.7458	-2.7667	-3.225	-2.5979	-3.1229	-3.1479	-2.4562	-3.3292	-2.8646	301.339	74.830	28.037	247.858	97.575	142.867	245.702	36.355	277.472	301.860	209.974	-32.913	267.296	98.593	160.784	6.619	0.00024903	0.00050206	0.00014349	1370	4.6167e-06	5.715e-06	1366.2	367.55	3.9567e-06	3.3439e-06	419.44	139.5	121.23	41.752	4.9404e-06	51.583	0.00052859	0.00059612	0.00016536	1384.7	6.2975e-06	6.5619e-06	1380.4	374.85	6.4864e-06	6.0123e-06	426.82	142.9	124.17	42.835	6.1483e-06	52.876	235.314	59.880	57.912	-25.048	128.461	120.225	-24.894	-20.269	156.361	103.323	-20.998	-16.083	-15.348	-11.031	145.402	-12.059	-8191	255	
38381.488	1	1	0	0	0.036779	0.073118	0.1346	0.073531	0.18568	0.21583	0.18391	0.086737	0.095252	0.031943	0.15368	0.23858	0.20547	0.29088	0.21142	0.30459	-2.4688	-3.3312	-2.3625	-3.3896	-3.075	-2.5104	-3.5625	-2.9854	-2.4417	-3.3667	-2.6854	-3.2333	-3.1521	-2.3625	-3.2104	-2.8187	275.939	24.593	-7.269	311.428	-9.853	219.086	227.963	175.744	170.531	36.914	6.708	-1.569	207.591	251.090	113.472	297.366	0.00026755	0.00064741	0.00012819	1369.2	6.023e-06	5.6352e-06	1361.9	368.18	2.7416e-06	6.62e-06	422.34	139.4	121.85	41.714	5.8624e-06	51.576	0.00051474	0.0005955	0.00016857	1384	6.3083e-06	6.6777e-06	1379.3	374.51	6.3383e-06	6.2851e-06	427.56	142.91	124.14	42.806	6.3738e-06	52.968	243.521	45.820	67.355	-24.779	140.238	130.164	-24.827	-20.101	159.720	98.273	-20.693	-15.578	-15.171	-11.257	115.100	-11.957	-8191	255	
38381.609	1	1	0	0	0.17852	0.16269	0.1233	0.22025	0.1448	0.11388	0.10733	0.2239	0.046946	0.24238	0.11918	0.10629	0.14669	0.34755	0.077267	0.089327	-2.3083	-3.2208	-2.6562	-3.0438	-3.1667	-2.4458	-3.375	-3.0958	-2.6458	-3.4708	-2.9562	-2.9167	-3.4021	-2.5896	-3.2104	-3.0896	-17.714	302.607	205.383	300.151	112.607	48.251	-8.482	266.170	56.126	-7.376	297.310	67.938	21.672	305.170	216.684	207.138	0.00026702	0.00051531	0.00013105	1364.1	3.5146e-06	4.1769e-06	1367.3	368.39	4.1248e-06	3.3497e-06	419.78	139.11	121.63	41.599	8.3664e-06	51.984	0.00052038	0.00059051	0.0001649	1382.1	6.3764e-06	6.7524e-06	1381.7	374.23	6.4533e-06	6.4571e-06	426.51	142.92	124.22	42.835	6.4704e-06	53.016	234.653	35.392	61.750	-24.937	127.419	113.981	-24.795	-20.036	155.966	107.726	-20.935	-15.678	-15.457	-11.240	144.753	-12.277	-8191	255	
38381.684	1	1	0	0	0.19697	0.18441	0.28236	0.26295	0.26817	0.074037	0.13973	0.1069	0.16691	0.13267	0.080971	0.15218	0.31465	0.22912	0.18548	0.019379	-2.1562	-3.1333	-2.5396	-2.9521	-3.3042	-2.5646	-3.3521	-3.2521	-2.5792	-3.2729	-2.9562	-2.6625	-3.3125	-2.2604	-3.0396	-3.2562	178.356	316.407	283.974	-25.927	64.470	241.263	-9.754	309.696	52.438	136.061	112.454	243.373	315.163	10.779	154.188	209.809	0.00024209	0.00052911	0.00013201	1365.4	4.01e-06	3.1174e-06	1369	366.32	4.6942e-06	5.4772e-06	420.43	139.52	121.6	41.806	2.1548e-06	51.896	0.00051972	0.00057349	0.00016371	1382.4	6.2733e-06	6.4327e-06	1381.5	373.76	6.4424e-06	6.2763e-06	427.09	142.9	124.32	42.842	6.4305e-06	52.937	238.184	47.168	57.741	-24.865	142.756	119.612	-24.869	-20.322	159.365	114.318	-20.805	-15.996	-15.706	-11.595	158.426	-12.091	-8191	255	
38381.801	1	1	0	0	0.29022	0.1599	0.16429	0.32236	0.13459	0.037805	0.28975	0.12735	0.10761	0.060565	0.014956	0.10118	0.093944	0.21049	0.031831	0.047894	-2.1042	-3.2458	-2.6896	-2.6958	-3.1667	-2.6604	-3.1854	-3.4458	-2.5292	-3.1292	-3.0625	-2.7042	-3.3979	-2.7812	-2.8854	-3.3729	119.656	316.922	318.860	229.243	-3.364	239.550	264.761	187.210	237.757	314.241	319.206	265.028	75.536	286.964	148.568	127.007	0.0002415	0.00055012	0.00015928	1363.8	5.2144e-06	2.9028e-06	1370.5	367.49	2.8877e-06	2.8509e-06	418.44	139.63	121.15	41.441	5.6402e-06	51.683	0.00050874	0.0005991	0.00016617	1382.6	6.2608e-06	6.6163e-06	1380.3	373.99	6.1219e-06	6.2675e-06	426.36	143	124.07	42.688	6.4768e-06	52.947	238.741	54.825	48.881	-24.859	151.050	97.669	-24.729	-20.209	127.087	111.509	-21.062	-16.063	-15.587	-11.391	127.530	-11.876	-8191	255	
38381.898	1	1	0	0	0.2244	0.10242	0.20567	0.1367	0.13724	0.13357	0.35588	0.20593	0.24705	0.33346	0.26568	0.34007	0.16313	0.10611	0.19209	0.17978	-2.1063	-2.9938	-2.9167	-2.8458	-3.4646	-2.7396	-2.9729	-3.4833	-2.4458	-3.0417	-3.1521	-2.5875	-3.5958	-2.725	-2.5917	-3.4271	159.531	-16.351	182.991	233.910	280.858	101.496	217.122	225.587	299.205	20.172	247.586	-30.137	57.502	-13.213	17.147	2.798	0.00027896	0.00051266	0.00010381	1362.8	5.2036e-06	6.5262e-06	1364.5	367	3.1756e-06	4.7507e-06	420.19	139.31	121.04	41.717	4.385e-06	51.763	0.00052031	0.00056293	0.00016311	1380.3	6.2948e-06	6.4859e-06	1379.4	373.68	6.2965e-06	6.0492e-06	427.06	142.79	124.05	42.762	6.2004e-06	52.926	237.148	49.634	39.791	-24.901	146.363	111.704	-24.865	-20.086	145.223	118.840	-20.980	-15.750	-15.440	-11.473	149.856	-12.171	-8191	255	
38381.992	1	1	0	0	0.15999	0.13343	0.26389	0.19699	0.30299	0.10697	0.031742	0.069112	0.13603	0.32598	0.08649	0.024333	0.16681	0.2364	0.11508	0.127	-2.1208	-3.1042	-2.9729	-2.7667	-3.3354	-2.9396	-3.0396	-3.4625	-2.6604	-3.0583	-3.3708	-2.4313	-3.4813	-3.0146	-2.4833	-3.4604	108.110	58.490	161.956	278.159	185.860	170.984	64.823	212.483	-26.313	192.987	232.100	93.263	312.270	299.532	84.789	86.628	0.00026594	0.00055445	0.00014859	1359.9	4.3691e-06	4.8131e-06	1364.3	367.58	4.0655e-06	4.0806e-06	419.23	139.47	121.55	41.598	4.9817e-06	51.633	0.00051089	0.00056956	0.0001557	1379.1	5.992e-06	6.1997e-06	1377.8	373.83	5.9565e-06	6.058e-06	426.26	142.81	124.08	42.793	6.3339e-06	52.883	242.417	68.329	58.316	-24.764	140.815	105.684	-24.844	-19.866	179.107	111.922	-20.775	-15.825	-15.380	-11.205	138.168	-11.928	-8191	255	
38382.090	1	1	0	0	0.16838	0.2677	0.1235	0.456	0.2589	0.15157	0.32096	0.22455	0.20086	0.1294	0.13748	0.15777	0.21121	0.067919	0.1093	0.02948	-2.3	-3	-3.2812	-2.7167	-3.2042	-2.9354	-2.6813	-3.5708	-2.7583	-3.0563	-3.4042	-2.7333	-3.4229	-2.8521	-2.3646	-3.3896	15.118	195.239	144.732	274.325	-26.710	189.352	291.539	10.728	260.330	108.725	129.036	250.660	276.751	32.626	-12.423	288.106	0.00026888	0.00044284	0.00015646	1361.6	5.194e-06	5.9654e-06	1365.9	367.12	3.9159e-06	4.8777e-06	419.96	139.73	121.88	41.624	5.7072e-06	51.732	0.00051966	0.00058759	0.00015737	1380.3	6.2376e-06	6.3504e-06	1380.2	373.58	6.2672e-06	6.3589e-06	426.55	142.96	124.29	42.773	6.3524e-06	52.931	240.164	56.264	71.872	-24.801	160.345	113.203	-24.795	-19.873	171.093	121.486	-21.030	-15.784	-15.111	-11.217	124.440	-12.059	-8191	255	
38382.188	1	1	0	0	0.054014	0.12658	0.19714	0.092407	0.047562	0.30464	0.16977	0.15111	0.15252	0.12278	0.25366	0.20052	0.08174	0.17399	0.21327	0.27191	-2.3354	-2.8812	-3.2687	-2.6229	-3.0833	-2.8979	-2.7125	-3.4875	-2.5396	-2.8896	-3.4208	-2.6	-3.3333	-3.2	-2.275	-3.3354	258.082	236.225	-29.531	192.352	-4.502	-17.186	38.225	-34.978	263.584	135.976	286.659	67.952	236.089	241.392	295.076	213.456	0.00025744	0.00041685	0.00013841	1362.8	5.995e-06	4.769e-06	1360.8	365.45	3.0748e-06	5.1619e-06	419.82	139.77	121.01	41.749	3.5157e-06	51.793	0.00052	0.0005585	0.00015749	1379.6	6.1793e-06	6.1738e-06	1378.3	373.44	6.3763e-06	6.3007e-06	426.7	142.87	123.95	42.792	6.3831e-06	53.017	241.541	47.287	52.805	-24.692	128.763	119.271	-24.960	-20.040	129.098	111.988	-20.792	-15.957	-15.232	-11.377	129.695	-11.870	-8191	255	
38382.281	1	1	0	0	0.10795	0.081808	0.048831	0.15243	0.21631	0.074553	0.21325	0.16917	0.16609	0.1325	0.20763	0.059896	0.080389	0.25422	0.19397	0.20795	-2.4667	-2.475	-3.4188	-2.6104	-2.9375	-2.9625	-2.6292	-3.5396	-2.8083	-2.6667	-3.5125	-2.6625	-3.1042	-3.3271	-2.5771	-3.3812	40.631	221.876	237.391	115.371	81.311	-4.179	283.537	304.131	146.364	216.314	245.038	224.818	320.620	286.161	270.234	238.972	0.00030297	0.00048825	0.00015054	1361.6	6.7264e-06	6.0149e-06	1365	367.85	3.6878e-06	4.7926e-06	421.71	138.97	121.32	41.646	3.9062e-06	51.785	0.00051502	0.00060404	0.00015993	1380.1	6.3137e-06	6.4777e-06	1377.6	374.1	6.2776e-06	6.235e-06	427.46	142.57	124.19	42.705	6.3669e-06	52.952	237.148	65.150	47.180	-24.922	151.136	115.185	-24.665	-19.942	156.128	95.877	-20.896	-15.602	-15.545	-11.049	138.086	-11.889	-8191	255	
38382.379	1	1	0	0	0.13761	0.086467	0.2204	0.30131	0.051958	0.11921	0.13769	0.18103	0.09169	0.29265	0.29743	0.10883	0.21159	0.13601	0.080271	0.18178	-2.5896	-2.5917	-3.2062	-2.7667	-2.9875	-3.3271	-2.6854	-3.2958	-2.9167	-2.6583	-3.3375	-2.8417	-2.9854	-3.3708	-2.4021	-3.3708	43.744	131.284	304.909	284.373	144.479	78.954	-29.900	154.052	174.828	86.304	308.337	-9.461	119.403	81.081	179.816	305.318	0.00026979	0.00048158	0.00012929	1363.8	5.1678e-06	4.8249e-06	1364.2	367.92	3.2491e-06	3.9934e-06	419.05	139.24	121.44	41.558	4.7975e-06	51.655	0.00050155	0.00059303	0.00016043	1379.6	6.1863e-06	6.4327e-06	1377.6	373.8	6.0774e-06	6.3332e-06	426.64	142.61	124.14	42.715	6.3582e-06	52.94	240.909	55.325	44.956	-24.969	136.679	104.856	-24.811	-19.907	192.792	114.001	-20.841	-15.798	-15.406	-10.974	126.817	-11.769	-8191	255	
38382.473	1	1	0	0	0.16748	0.033939	0.14728	0.1196	0.10302	0.27643	0.16812	0.19346	0.15089	0.18511	0.35675	0.07502	0.30023	0.26002	0.1661	0.13053	-2.5583	-2.5583	-3.2687	-2.8187	-2.7458	-3.3563	-2.6792	-3.2958	-3.0667	-2.6	-3.2917	-2.7729	-2.6417	-3.5833	-2.6104	-3.0458	162.555	-0.912	34.640	241.346	233.617	178.943	283.240	245.273	8.516	261.472	281.149	-0.620	290.559	191.919	115.781	177.978	0.00024661	0.00045183	0.00012026	1362.4	5.6299e-06	4.6363e-06	1360.4	367.16	2.9683e-06	5.1014e-06	419.89	139.59	121.29	41.589	4.1122e-06	51.91	0.00050118	0.00059651	0.0001571	1379.4	6.3661e-06	6.2624e-06	1378.3	373.45	6.1669e-06	6.5353e-06	426.95	142.74	124.04	42.705	6.2391e-06	53.08	233.282	72.314	69.510	-24.801	148.579	115.524	-24.825	-19.752	147.046	124.560	-20.906	-15.759	-15.156	-11.145	131.356	-11.807	-8191	255	
38382.570	1	1	0	0	0.041841	0.16562	0.07282	0.31728	0.11208	0.14654	0.24642	0.054234	0.22768	0.24224	0.15091	0.09397	0.30836	0.23601	0.27974	0.13365	-2.7917	-2.4208	-3.3312	-3.1604	-2.5187	-3.4854	-2.6458	-3.0563	-3.2458	-2.5208	-3.4229	-2.9437	-2.7062	-3.4667	-2.6146	-2.9938	101.109	87.125	254.155	-13.076	279.898	236.212	257.752	223.441	154.070	288.449	215.461	-27.871	257.177	12.355	227.174	1.711	0.00026335	0.00047486	0.0001339	1364.9	5.8914e-06	6.116e-06	1363.5	367.08	4.6948e-06	4.6914e-06	419.8	139.53	121.44	41.672	5.3227e-06	51.627	0.00050382	0.00058989	0.00015674	1378.8	6.2311e-06	6.0408e-06	1377.6	373.74	6.0969e-06	6.3933e-06	426.65	142.55	124.09	42.782	6.3478e-06	52.979	242.176	47.283	48.550	-24.749	165.501	92.360	-24.589	-19.841	147.267	103.905	-20.623	-15.904	-15.245	-10.963	134.619	-12.104	-8191	255	
38382.688	1	1	0	0	0.068023	0.067873	0.044295	0.2841	0.068845	0.068435	0.32427	0.30223	0.17081	0.27786	0.16003	0.15914	0.17382	0.15451	0.15788	0.14737	-2.8771	-2.5125	-3.2208	-3.0354	-2.7167	-3.4062	-2.9833	-2.9938	-3.3375	-2.5958	-3.3021	-3.2458	-2.6104	-3.5146	-2.6688	-2.8583	127.132	11.270	178.579	-15.115	225.573	11.845	304.442	228.602	236.663	15.084	250.722	215.333	-27.982	262.437	207.120	-20.816	0.00024514	0.00052606	0.00014923	1359.6	3.6172e-06	3.973e-06	1366.8	366.59	3.5328e-06	4.8434e-06	419.48	139.39	121.47	41.494	5.4397e-06	51.786	0.00050024	0.00060797	0.0001541	1379.3	6.4141e-06	6.2175e-06	1379.2	373.48	6.0774e-06	6.3683e-06	426.87	142.77	124.1	42.727	6.3299e-06	52.846	241.128	57.610	74.224	-24.671	159.924	120.365	-24.816	-19.721	160.521	102.808	-20.511	-15.468	-15.229	-11.007	148.386	-11.743	-8191	255	
38382.785	1	1	0	0	0.1382	0.20426	0.14721	0.34777	0.30258	0.10662	0.18781	0.22655	0.075069	0.19148	0.14183	0.16284	0.29819	0.2573	0.089782	0.035538	-2.9125	-2.4437	-2.9375	-3.3021	-2.5062	-3.5104	-3.0583	-2.9208	-3.4146	-2.4479	-3.1813	-3.3312	-2.5271	-3.3438	-2.7896	-2.55	81.695	-32.241	135.159	316.430	-31.698	80.507	-25.372	266.989	217.996	-9.034	225.252	57.499	224.111	296.878	313.740	129.833	0.00026394	0.00049536	0.00014878	1359.3	5.6592e-06	3.5883e-06	1360.5	365.84	3.5815e-06	5.2972e-06	421.11	139.56	121.55	41.734	4.9869e-06	51.818	0.0004971	0.00059674	0.00015849	1376.4	6.4492e-06	6.1497e-06	1375.7	373.11	6.0405e-06	6.591e-06	427.54	142.57	124.11	42.799	6.2582e-06	52.937	237.328	68.814	66.561	-24.835	141.573	108.396	-24.794	-19.765	151.494	127.157	-20.687	-15.749	-15.327	-11.167	119.232	-11.751	-8191	255	
38382.883	1	1	0	0	0.063465	0.2841	0.28386	0.29953	0.10053	0.16555	0.21518	0.30357	0.12237	0.2779	0.39284	0.29572	0.15777	0.11884	0.20642	0.28603	-3.1292	-2.4917	-2.9604	-3.5438	-2.5646	-3.2646	-3.1104	-2.6417	-3.3083	-2.7667	-2.8417	-3.4083	-2.6458	-3.3229	-3.0917	-2.8021	240.962	-6.858	58.583	267.122	74.622	48.785	226.283	266.093	222.691	140.884	272.561	264.288	-19.896	289.625	151.924	287.946	0.00025507	0.00053467	0.00016182	1361.6	2.5574e-06	4.1501e-06	1364.6	366.95	3.0547e-06	3.2834e-06	419.95	139.21	121.14	41.346	5.2608e-06	51.539	0.00049844	0.00059247	0.00015911	1378.8	6.3083e-06	6.3491e-06	1377.2	373.49	6.0275e-06	6.4396e-06	426.93	142.65	123.89	42.688	6.2113e-06	52.915	241.112	50.643	66.207	-24.736	131.523	126.740	-24.734	-19.794	156.217	111.551	-20.625	-15.647	-15.092	-11.045	153.858	-11.734	-8191	255	
38382.977	1	1	0	0	0.089721	0.1775	0.099188	0.27689	0.13305	0.11253	0.27099	0.2433	0.05174	0.040668	0.41488	0.053692	0.047603	0.20199	0.098747	0.026037	-3.0812	-2.6458	-2.7583	-3.5771	-2.4958	-3.3	-3.2375	-2.5167	-3.3667	-2.8729	-2.9271	-3.3104	-2.725	-3.25	-3.2229	-2.7229	72.849	19.322	137.279	272.022	-5.605	153.016	226.157	-3.317	181.303	241.985	192.718	191.089	186.801	-24.410	91.389	85.268	0.00023206	0.00048725	7.7979e-05	1363.1	3.7407e-06	4.9721e-06	1362.5	367.27	3.6222e-06	4.6435e-06	419.5	139.26	121.48	41.727	4.7918e-06	51.69	0.00050933	0.00055967	0.000163	1379.4	6.3758e-06	6.2004e-06	1377.6	373.33	5.9586e-06	6.1161e-06	426.74	142.67	123.96	42.761	6.2882e-06	52.91	236.485	45.820	34.536	-24.771	166.404	115.690	-24.822	-19.888	152.552	111.030	-20.430	-15.578	-15.296	-11.260	146.554	-11.764	-8191	255	
38383.074	1	1	0	0	0.24895	0.1453	0.27277	0.14043	0.23571	0.053982	0.16766	0.11455	0.1323	0.11834	0.16572	0.065331	0.13209	0.16325	0.18462	0.25325	-2.975	-2.9625	-2.6646	-3.5667	-2.5167	-2.9792	-3.3625	-2.5875	-3.3333	-2.9729	-2.7062	-3.4958	-2.7458	-3.1583	-3.2938	-2.5833	141.877	131.663	158.100	262.326	263.469	294.901	271.551	304.039	86.163	265.772	135.722	243.421	129.224	314.518	210.965	315.208	0.00022257	0.00063733	0.00011904	1359	4.9397e-06	4.605e-06	1363	366.59	3.1425e-06	4.7404e-06	421.71	139.62	121.33	41.563	3.4557e-06	51.943	0.00050149	0.00057826	0.00016096	1377.8	6.1588e-06	6.1643e-06	1376.8	373.64	6.0769e-06	6.2488e-06	427.64	142.72	124.05	42.799	6.2131e-06	53.025	237.109	59.417	44.694	-24.880	149.453	121.332	-24.636	-19.866	146.682	113.168	-20.633	-15.624	-15.402	-11.028	150.751	-12.128	-8191	255	
38383.172	1	1	0	0	0.16814	0.14203	0.1937	0.38474	0.28704	0.14974	0.16872	0.34223	0.14609	0.025057	0.21602	0.16122	0.13755	0.070706	0.19921	0.14916	-2.8667	-2.9042	-2.5083	-3.45	-2.6396	-2.775	-3.3417	-2.5958	-3.2021	-3.0458	-2.6917	-3.525	-2.8583	-2.8521	-3.2771	-2.5687	50.321	278.946	136.776	293.578	18.696	89.616	292.774	244.748	277.781	-1.584	275.343	309.977	308.513	304.188	5.656	235.451	0.00027764	0.00045812	0.00017183	1360.1	6.5028e-06	5.0628e-06	1362.1	366.95	3.7198e-06	3.75e-06	420.69	140.33	121.2	41.491	5.2637e-06	51.763	0.00049841	0.00056894	0.00016325	1379.9	6.2733e-06	6.3377e-06	1375.6	373.38	5.9771e-06	6.2951e-06	426.49	142.96	123.96	42.702	6.1587e-06	52.991	240.291	59.619	47.519	-24.809	160.783	121.675	-24.926	-20.020	174.910	98.483	-20.664	-15.637	-15.301	-11.053	126.768	-12.009	-8191	255	
38383.289	1	1	0	0	0.12539	0.13483	0.17061	0.12835	0.053833	0.069786	0.22441	0.38061	0.12659	0.013452	0.14781	0.10299	0.17976	0.27475	0.035723	0.040965	-2.9354	-3.1312	-2.4854	-3.5938	-2.5542	-2.6979	-3.5417	-2.5375	-3.0708	-3.1667	-2.6604	-3.5187	-2.9813	-2.7146	-3.2938	-2.7	-5.635	135.984	2.266	7.375	-3.691	203.458	-4.133	212.984	273.909	22.713	302.881	12.084	196.719	239.795	310.211	214.478	0.00026957	0.00032986	0.00011666	1359.2	4.8151e-06	5.9319e-06	1366.6	366.61	3.7706e-06	4.728e-06	419.66	140.06	121.45	41.63	5.5036e-06	51.744	0.00050314	0.00055619	0.00016348	1380.5	6.4028e-06	6.453e-06	1377.9	373.29	6.1235e-06	5.9478e-06	426.7	142.82	123.89	42.735	6.0546e-06	52.971	237.245	57.044	71.259	-24.918	155.171	115.990	-24.707	-19.798	184.599	115.978	-20.594	-15.704	-14.979	-10.982	142.952	-11.987	-8191	255	
38383.387	1	1	0	0	0.1844	0.27018	0.23072	0.088066	0.23556	0.14633	0.38249	0.2413	0.091558	0.13805	0.31699	0.25999	0.11726	0.19278	0.35534	0.16916	-2.6542	-3.2042	-2.5271	-3.5167	-3.0521	-2.6	-3.5563	-2.5833	-3.0646	-3.2562	-2.5042	-3.3438	-2.9813	-2.6542	-3.2938	-2.7687	280.172	203.692	-21.720	257.329	33.166	196.645	288.101	124.343	233.296	-11.992	315.303	18.498	321.390	197.212	229.650	320.535	0.00024569	0.00058461	0.00017218	1361.2	5.4464e-06	5.0803e-06	1356.8	367.42	4.0329e-06	5.0012e-06	419.96	138.77	120.73	41.531	4.4837e-06	51.661	0.00049554	0.00057821	0.00016569	1378.3	6.215e-06	6.3669e-06	1375.7	373.6	5.8854e-06	6.2794e-06	426.68	142.6	123.83	42.705	5.9471e-06	53.002	240.057	52.916	53.997	-24.827	145.503	101.711	-24.685	-19.964	186.905	96.723	-20.830	-15.573	-15.285	-10.925	135.047	-12.094	-8191	255	
38383.484	1	1	0	0	0.23231	0.04523	0.095724	0.22848	0.089484	0.1757	0.27372	0.11686	0.10664	0.055041	0.12655	0.052507	0.39172	0.18866	0.086316	0.33257	-2.5896	-3.2417	-2.4646	-3.4042	-2.975	-2.6188	-3.6917	-2.8146	-2.8667	-3.4583	-2.7208	-3.2625	-3.1333	-2.3729	-3.3417	-2.8479	114.112	292.058	130.528	320.632	55.780	249.774	273.153	274.674	-17.807	284.548	277.019	204.181	272.323	245.500	79.393	275.721	0.00026917	0.00056436	0.00010937	1361.5	4.8271e-06	4.779e-06	1358.5	366.54	4.2793e-06	2.7727e-06	421.31	139.08	120.95	41.744	4.1869e-06	51.859	0.00050721	0.00057798	0.00016443	1379	6.1993e-06	6.408e-06	1375.8	373.09	6.1984e-06	6.382e-06	427.38	142.65	123.88	42.791	6.0575e-06	52.989	233.014	59.268	59.410	-24.826	151.736	114.911	-24.489	-19.922	150.582	111.321	-20.492	-15.769	-15.400	-11.385	136.973	-12.154	-8191	255	
38383.578	1	1	0	0	0.3131	0.17452	0.18325	0.36043	0.075883	0.17505	0.2736	0.26652	0.062168	0.2901	0.19933	0.10656	0.087375	0.11914	0.09636	0.11775	-2.5292	-3.2687	-2.3438	-3.3458	-3.0708	-2.5375	-3.5458	-2.8021	-2.7104	-3.5104	-2.5938	-3.0917	-3.3542	-2.5062	-3.3854	-2.975	91.670	94.881	204.901	320.677	115.871	3.323	-13.018	254.461	188.756	-18.090	320.962	67.098	112.386	-17.692	260.464	188.192	0.00025198	0.00049734	0.00013327	1360.5	4.2433e-06	5.2877e-06	1365.5	366.94	2.1114e-06	5.7397e-06	417.28	139.86	120.96	41.607	5.2237e-06	51.589	0.00049657	0.00055176	0.00015855	1379.5	6.2403e-06	6.2409e-06	1378.2	373.01	6.2732e-06	6.1343e-06	425.89	142.82	124.03	42.721	6.2281e-06	52.887	237.960	45.108	61.321	-24.813	130.831	88.434	-24.986	-20.163	155.783	124.485	-20.780	-15.757	-15.485	-11.183	138.766	-12.103	-8191	255	
#DATA ENDS
