BOXY.EXE: ISS Imagent and Oximeter Data Acquisition Program Version 0.80
Ascii Record File

#ACQ INFORMATION
2  Detector Channels 
16  External MUX Channels 
1  Auxiliary Channels 
5000  Waveform (CCF) Frequency (Hz)
1  Waveforms Skipped 
30  Waveforms Averaged 
1  Cycles Averaged 
16  Acquisitions per Waveform 
10.0806  Updata Rate (Hz) 

#FILE INFORMATION
TRUE -- External MUX Channel results are PARSED.
FALSE -- AC DC and Phase are NOT grouped.
TRUE -- Companion Program Settings File CREATED.
FALSE -- AC data not excluded
FALSE -- DC data not excluded
FALSE -- Phase data not excluded
FALSE -- Auxillary Chn. data not excluded
Tab delimiters

#CALIBRATION STATE
TRUE -- Waveform Calibration Values APPLIED.


#AUX CALIBRATION VALUES
Val Type	aux-1	

Term	1.0000e+00	
Factor	0.0000e+00	


#WF CALIBRATION VALUES
A = Detector Channel
Val Type	A-AC1	A-AC2	A-AC3	A-AC4	A-AC5	A-AC6	A-AC7	A-AC8	A-AC9	A-AC10	A-AC11	A-AC12	A-AC13	A-AC14	A-AC15	A-AC16	A-DC1	A-DC2	A-DC3	A-DC4	A-DC5	A-DC6	A-DC7	A-DC8	A-DC9	A-DC10	A-DC11	A-DC12	A-DC13	A-DC14	A-DC15	A-DC16	A-Ph1	A-Ph2	A-Ph3	A-Ph4	A-Ph5	A-Ph6	A-Ph7	A-Ph8	A-Ph9	A-Ph10	A-Ph11	A-Ph12	A-Ph13	A-Ph14	A-Ph15	A-Ph16	

Term	0.00000e+00	0.00000e+00	0.00000e+00	0.00000e+00	0.00000e+00	0.00000e+00	0.00000e+00	0.00000e+00	0.00000e+00	0.00000e+00	0.00000e+00	0.00000e+00	0.00000e+00	0.00000e+00	0.00000e+00	0.00000e+00	0.00000e+00	0.00000e+00	0.00000e+00	0.00000e+00	0.00000e+00	0.00000e+00	0.00000e+00	0.00000e+00	0.00000e+00	0.00000e+00	0.00000e+00	0.00000e+00	0.00000e+00	0.00000e+00	0.00000e+00	0.00000e+00	0.00000e+00	0.00000e+00	0.00000e+00	0.00000e+00	0.00000e+00	0.00000e+00	0.00000e+00	0.00000e+00	0.00000e+00	0.00000e+00	0.00000e+00	0.00000e+00	0.00000e+00	0.00000e+00	0.00000e+00	0.00000e+00	
Factor	1.00000e+00	1.00000e+00	1.00000e+00	1.00000e+00	1.00000e+00	1.00000e+00	1.00000e+00	1.00000e+00	1.00000e+00	1.00000e+00	1.00000e+00	1.00000e+00	1.00000e+00	1.00000e+00	1.00000e+00	1.00000e+00	1.00000e+00	1.00000e+00	1.00000e+00	1.00000e+00	1.00000e+00	1.00000e+00	1.00000e+00	1.00000e+00	1.00000e+00	1.00000e+00	1.00000e+00	1.00000e+00	1.00000e+00	1.00000e+00	1.00000e+00	1.00000e+00	X	X	X	X	X	X	X	X	X	X	X	X	X	X	X	X	

B = Detector Channel
Val Type	B-AC1	B-AC2	B-AC3	B-AC4	B-AC5	B-AC6	B-AC7	B-AC8	B-AC9	B-AC10	B-AC11	B-AC12	B-AC13	B-AC14	B-AC15	B-AC16	B-DC1	B-DC2	B-DC3	B-DC4	B-DC5	B-DC6	B-DC7	B-DC8	B-DC9	B-DC10	B-DC11	B-DC12	B-DC13	B-DC14	B-DC15	B-DC16	B-Ph1	B-Ph2	B-Ph3	B-Ph4	B-Ph5	B-Ph6	B-Ph7	B-Ph8	B-Ph9	B-Ph10	B-Ph11	B-Ph12	B-Ph13	B-Ph14	B-Ph15	B-Ph16	

Term	0.00000e+00	0.00000e+00	0.00000e+00	0.00000e+00	0.00000e+00	0.00000e+00	0.00000e+00	0.00000e+00	0.00000e+00	0.00000e+00	0.00000e+00	0.00000e+00	0.00000e+00	0.00000e+00	0.00000e+00	0.00000e+00	0.00000e+00	0.00000e+00	0.00000e+00	0.00000e+00	0.00000e+00	0.00000e+00	0.00000e+00	0.00000e+00	0.00000e+00	0.00000e+00	0.00000e+00	0.00000e+00	0.00000e+00	0.00000e+00	0.00000e+00	0.00000e+00	3.93809e+01	-1.35513e+02	-1.20447e+02	-1.81240e+02	-7.85219e+01	-7.47019e+01	-1.58626e+02	-1.62015e+02	-5.65340e+01	-5.00405e+01	-1.70688e+02	-1.70278e+02	-1.81580e+02	-1.76849e+02	-6.47987e+01	-1.49735e+02	
Factor	5.53176e-05	1.26363e-04	4.27249e-05	1.50898e-01	1.79254e-06	1.71641e-06	1.67100e-01	5.77427e-02	1.84540e-06	1.76233e-06	8.93845e-02	3.21730e-02	2.77149e-02	9.69283e-03	1.86848e-06	1.36558e-02	2.80053e-06	2.98581e-06	8.32439e-07	7.51783e-02	3.22743e-08	3.29146e-08	7.82239e-02	2.87223e-02	3.23872e-08	3.29341e-08	4.30267e-02	1.54540e-02	1.37928e-02	4.84484e-03	3.26102e-08	6.61196e-03	X	X	X	X	X	X	X	X	X	X	X	X	X	X	X	X	



#DISTANCE SETTINGS
A = Detector Channel
A-1	A-2	A-3	A-4	A-5	A-6	A-7	A-8	A-9	A-10	A-11	A-12	A-13	A-14	A-15	A-16	

2.5000e+00	3.0000e+00	2.5000e+00	3.0000e+00	2.0000e+00	3.0000e+00	1.5000e+00	3.0000e+00	3.0000e+00	3.0000e+00	3.0000e+00	3.0000e+00	3.0000e+00	3.0000e+00	1.5000e+00	3.0000e+00	

B = Detector Channel
B-1	B-2	B-3	B-4	B-5	B-6	B-7	B-8	B-9	B-10	B-11	B-12	B-13	B-14	B-15	B-16	

1.0000e+01	1.0000e+01	1.0000e+01	1.4400e+00	1.0000e+01	1.0000e+01	1.5100e+00	1.9400e+00	1.0000e+01	1.0000e+01	1.9900e+00	2.4900e+00	2.4100e+00	2.9000e+00	1.0000e+01	2.9800e+00	




#DATA BEGINS
time	group	step	mark	flag	A-AC1	A-AC2	A-AC3	A-AC4	A-AC5	A-AC6	A-AC7	A-AC8	A-AC9	A-AC10	A-AC11	A-AC12	A-AC13	A-AC14	A-AC15	A-AC16	A-DC1	A-DC2	A-DC3	A-DC4	A-DC5	A-DC6	A-DC7	A-DC8	A-DC9	A-DC10	A-DC11	A-DC12	A-DC13	A-DC14	A-DC15	A-DC16	A-Ph1	A-Ph2	A-Ph3	A-Ph4	A-Ph5	A-Ph6	A-Ph7	A-Ph8	A-Ph9	A-Ph10	A-Ph11	A-Ph12	A-Ph13	A-Ph14	A-Ph15	A-Ph16	B-AC1	B-AC2	B-AC3	B-AC4	B-AC5	B-AC6	B-AC7	B-AC8	B-AC9	B-AC10	B-AC11	B-AC12	B-AC13	B-AC14	B-AC15	B-AC16	B-DC1	B-DC2	B-DC3	B-DC4	B-DC5	B-DC6	B-DC7	B-DC8	B-DC9	B-DC10	B-DC11	B-DC12	B-DC13	B-DC14	B-DC15	B-DC16	B-Ph1	B-Ph2	B-Ph3	B-Ph4	B-Ph5	B-Ph6	B-Ph7	B-Ph8	B-Ph9	B-Ph10	B-Ph11	B-Ph12	B-Ph13	B-Ph14	B-Ph15	B-Ph16	aux-1	digaux	

45808.301	1	1	0	768	0.29409	0.42106	0.030488	0.24544	0.063765	0.19524	0.30234	0.23369	0.11561	0.041041	0.098757	0.19277	0.093091	0.1141	0.062012	0.086439	-2.5312	-2.4396	-3.2396	-2.7458	-2.8958	-3.325	-2.7333	-3.275	-3.1271	-2.4833	-3.2125	-2.4813	-2.8646	-3.3521	-2.2667	-3.0042	-60.902	-11.263	224.036	201.839	275.397	-6.601	211.310	240.572	180.617	46.017	255.607	-74.599	102.848	76.422	187.321	248.972	0.00024484	0.00039055	5.2656e-05	1122.3	8.4663e-07	3.1602e-06	1229.8	240.25	3.2341e-06	3.0968e-06	304.8	85.997	66.855	19.262	3.2447e-06	27.233	0.00037386	0.00037956	0.00010571	1099.8	4.1306e-06	4.0812e-06	1206.4	238.46	4.0164e-06	4.0559e-06	302.05	86.102	67.067	19.767	3.9023e-06	27.686	-28.308	6.168	-6.566	-71.562	65.743	116.942	-71.424	-64.173	81.416	145.350	-64.728	-57.682	-57.100	-50.547	100.974	-50.828	-8191	255	
45808.398	1	1	0	0	0.11409	0.1611	0.10943	0.11456	0.22881	0.11089	0.26339	0.26088	0.17946	0.1451	0.17912	0.20527	0.10762	0.17387	0.24366	0.0062933	-2.7292	-2.5792	-3.375	-2.7479	-2.6958	-3.3729	-2.6396	-3.0687	-3.0438	-2.4042	-3.3292	-2.7208	-2.6458	-3.3021	-2.5354	-2.95	137.421	-64.816	158.767	185.130	230.384	-23.825	203.153	-71.545	143.498	84.736	188.202	-72.956	190.754	109.035	-77.732	-24.869	0.00023088	0.00052369	0.00010875	1120.1	4.3954e-06	3.166e-06	1231.8	239.55	3.6955e-06	6.7461e-06	306.3	85.373	66.879	19.35	7.9305e-06	27.103	0.00035713	0.00036563	0.00010063	1097.7	3.9843e-06	3.9727e-06	1206.3	237.84	4.056e-06	4.0862e-06	302.41	85.96	67.127	19.785	4.1466e-06	27.734	-51.523	-21.609	24.131	-71.482	-12.870	30.166	-71.398	-63.933	138.440	66.997	-64.444	-57.863	-57.569	-50.302	105.925	-50.915	-8191	255	
45808.492	1	1	0	0	0.221	0.21483	0.16791	0.1501	0.27329	0.061769	0.24698	0.27875	0.17701	0.10417	0.28376	0.034059	0.33938	0.09014	0.075892	0.26472	-2.8417	-2.3271	-3.2958	-2.825	-2.5229	-3.2938	-2.7708	-3.2167	-3.3167	-2.6125	-3.3021	-2.9292	-2.5917	-3.4458	-2.6271	-2.9938	-42.757	239.596	105.748	-55.738	-18.498	151.334	258.711	241.995	-75.480	190.877	-17.320	51.076	263.087	95.927	238.564	208.077	0.00023762	0.00011145	0.00017226	1122.5	9.7492e-07	6.1157e-06	1230.9	240.51	5.5883e-06	3.979e-06	304.58	85.861	67.241	19.48	1.401e-06	27.208	0.00038028	0.00038639	0.00010771	1100.3	4.2997e-06	4.2681e-06	1207.6	238.73	4.3203e-06	4.3717e-06	302.64	86.352	67.527	19.898	4.2809e-06	27.773	-40.025	4.611	15.880	-71.577	133.570	-6.229	-71.352	-64.075	100.661	137.575	-64.375	-58.045	-57.611	-50.419	2.115	-51.148	-8191	255	
45808.590	1	1	0	0	0.034581	0.087078	0.2515	0.31358	0.32321	0.036431	0.11423	0.24167	0.14489	0.17672	0.14654	0.081381	0.047836	0.10353	0.049036	0.32787	-2.9792	-2.4229	-3.125	-3.1229	-2.4313	-3.5	-2.7479	-2.8312	-3.1813	-2.3646	-3.2062	-3.2562	-2.6667	-3.3646	-2.7438	-2.7771	-4.335	-31.472	-24.634	-48.098	199.253	34.100	216.663	234.819	61.112	-22.119	225.085	-45.509	159.953	79.361	-68.259	234.210	0.00015325	0.00023897	8.655e-05	1118.9	2.8398e-06	3.8178e-06	1228.7	240.63	1.2787e-06	2.4658e-06	304.97	85.695	66.571	19.431	3.8514e-06	27.082	0.00038854	0.00039307	0.00010887	1099.8	4.275e-06	4.325e-06	1205.5	238.52	4.1632e-06	4.2274e-06	302.64	86.047	66.949	19.785	4.171e-06	27.661	-35.336	7.120	88.122	-71.321	-41.118	62.726	-71.436	-63.980	50.268	77.700	-64.347	-57.761	-57.418	-50.462	65.195	-50.792	-8191	255	
45808.688	1	1	0	0	0.095792	0.11491	0.045633	0.13271	0.042914	0.15049	0.42826	0.19809	0.1709	0.25442	0.076299	0.11805	0.14269	0.22728	0.24212	0.1608	-2.9667	-2.4104	-3.025	-3.2896	-2.4792	-3.4313	-2.9229	-2.8354	-3.3271	-2.5438	-3.0563	-3.3625	-2.4604	-3.3438	-2.75	-2.475	275.243	140.132	275.631	-66.865	195.164	230.505	213.005	126.463	203.481	40.983	152.761	193.774	-59.184	245.515	62.149	-27.035	0.00022332	0.00037558	7.9114e-05	1122.8	2.7649e-06	4.1348e-06	1230.5	239.27	1.7972e-06	2.7414e-06	302.49	85.835	66.998	19.435	3.8403e-06	26.949	0.00037722	0.00038967	0.00010728	1100.8	4.2964e-06	4.2177e-06	1206.1	238.14	4.2242e-06	4.319e-06	301.98	86.061	66.997	19.77	4.2723e-06	27.649	-17.895	11.437	-2.630	-71.663	14.314	-15.779	-71.464	-63.727	-60.877	89.826	-64.523	-57.611	-57.162	-50.103	92.237	-50.898	-8191	255	
45808.781	1	1	0	0	0.24296	0.14031	0.14656	0.10331	0.30383	0.12009	0.28252	0.23614	0.2684	0.14026	0.090449	0.098683	0.067163	0.1732	0.05419	0.23457	-3.0396	-2.4979	-2.7521	-3.2	-2.2125	-3.1854	-3.1479	-2.5042	-3.2458	-2.725	-2.9917	-3.2458	-2.4854	-3.2083	-2.875	-2.4104	111.419	242.702	91.647	-58.592	126.601	84.838	210.408	162.613	158.803	175.214	159.985	69.157	-1.980	-69.863	30.180	-69.096	8.2096e-05	0.00028073	0.00016904	1118	4.1275e-06	2.119e-06	1230.9	239.96	3.3032e-06	2.689e-06	305.87	85.011	66.695	19.411	3.9975e-06	27.056	0.00038273	0.00039592	0.00010898	1099.3	4.2776e-06	4.2864e-06	1207.5	238.18	4.1336e-06	4.3064e-06	302.56	85.639	66.705	19.745	4.1929e-06	27.538	-59.962	27.172	-2.721	-71.485	243.118	74.622	-71.342	-64.268	40.957	79.627	-64.488	-57.361	-56.967	-50.082	89.532	-50.586	-8191	255	
45808.902	1	1	0	0	0.12099	0.24519	0.12841	0.11947	0.17976	0.14363	0.21339	0.12949	0.12371	0.072734	0.20857	0.13343	0.15668	0.36251	0.08291	0.13622	-2.9958	-2.7062	-2.8167	-3.375	-2.4708	-3.1292	-3.4104	-2.5875	-3.4271	-2.6875	-2.7979	-3.3417	-2.4188	-3.1917	-3.1562	-2.5396	-10.029	218.525	50.047	-1.787	200.492	122.665	228.593	69.330	88.719	0.841	40.093	26.942	129.323	-10.459	243.503	124.521	0.00017019	0.00028289	1.0594e-05	1117.1	1.309e-06	3.7129e-06	1227.2	240.13	3.6612e-06	3.0771e-06	303.89	85.036	66.513	19.195	4.4187e-06	27.012	0.00038342	0.00039115	0.00010687	1100.2	4.2277e-06	4.1882e-06	1205.3	238.27	4.191e-06	4.1863e-06	301.79	85.556	66.674	19.616	4.1282e-06	27.426	28.973	-5.981	-3.337	-71.444	176.027	41.004	-71.473	-63.832	82.752	-9.368	-64.266	-57.816	-57.570	-50.164	55.651	-50.839	-8191	255	
45808.996	1	1	0	0	0.10013	0.17224	0.17313	0.38065	0.3261	0.085547	0.15927	0.29192	0.14522	0.17132	0.027678	0.13049	0.18414	0.073539	0.1554	0.20281	-2.9833	-2.7208	-2.7604	-3.6229	-2.4083	-2.9938	-3.3146	-2.4771	-3.2458	-2.9875	-2.6542	-3.4979	-2.5771	-2.8833	-3.125	-2.5083	-18.635	-42.155	-58.335	257.625	276.815	138.897	210.960	102.355	188.353	-27.967	276.119	152.249	267.694	212.848	18.570	222.448	0.00026135	0.00013014	0.0001246	1118.3	2.1461e-06	3.1661e-06	1224.7	237.54	2.0793e-06	3.1958e-06	303.22	84.882	66.145	19.21	3.6011e-06	26.929	0.00036672	0.00037385	0.00010409	1098.3	4.1062e-06	4.1819e-06	1202.8	236.46	4.0479e-06	4.0005e-06	300.53	85.265	66.473	19.546	4.0432e-06	27.314	-35.910	-39.809	29.749	-71.447	86.764	22.348	-71.325	-64.067	245.809	64.989	-64.216	-57.273	-57.576	-50.458	43.491	-50.726	-8191	255	
45809.094	1	1	0	0	0.28748	0.12571	0.18649	0.25001	0.20013	0.066003	0.31639	0.15163	0.064937	0.27263	0.035566	0.16859	0.16691	0.04108	0.25018	0.18018	-2.8792	-2.8271	-2.6021	-3.4437	-2.6333	-2.8187	-3.3792	-2.475	-3.1042	-3.0146	-2.6042	-3.4604	-2.625	-2.8708	-3.1042	-2.5687	209.504	125.663	175.718	265.297	209.503	239.527	253.686	203.006	-64.396	89.145	259.631	208.366	250.142	118.281	237.058	67.604	0.00019554	3.0541e-05	0.00012882	1114.4	5.0965e-06	3.8853e-06	1224.7	239.33	3.9961e-06	4.3164e-06	304.14	84.539	65.85	19.113	2.2807e-06	26.839	0.00037789	0.00037338	0.00010577	1095.7	4.1658e-06	4.0862e-06	1203.4	236.96	4.0688e-06	4.1363e-06	300.97	85.15	66.248	19.46	4.0136e-06	27.276	-60.744	-64.013	34.669	-71.529	91.101	74.514	-71.500	-64.016	26.432	41.502	-64.392	-57.793	-57.194	-50.528	80.202	-51.006	-8191	255	
45809.191	1	1	0	0	0.16201	0.11164	0.23196	0.20134	0.1691	0.074212	0.23561	0.27542	0.15795	0.17635	0.26051	0.15082	0.11351	0.16444	0.14126	0.069318	-2.7542	-3.125	-2.6479	-3.5771	-2.7292	-2.7292	-3.5417	-2.4917	-3.0375	-3.2958	-2.575	-3.3563	-2.9354	-2.6354	-3.3417	-2.5938	32.385	164.024	-59.729	107.732	92.141	94.486	204.644	167.563	242.522	116.965	208.978	222.653	180.874	161.020	-65.199	42.472	0.00015761	0.00037949	2.61e-05	1115.6	2.0696e-06	4.7388e-06	1228.6	239.19	1.3447e-06	5.667e-06	303.62	84.27	65.384	18.973	1.7908e-06	26.686	0.00035765	0.0003672	0.0001008	1095.1	3.9432e-06	4.0041e-06	1202.3	236.39	3.9086e-06	3.9288e-06	300.41	84.644	65.873	19.357	3.8144e-06	27.15	-49.579	62.079	-62.193	-71.153	192.572	82.071	-71.348	-63.805	261.710	168.859	-64.128	-57.583	-56.675	-50.005	231.816	-50.353	-8191	255	
45809.285	1	1	0	0	0.20229	0.20893	0.31875	0.12038	0.05059	0.1739	0.44101	0.30658	0.28142	0.096923	0.21528	0.16846	0.25664	0.10863	0.10483	0.12801	-2.5938	-3.2021	-2.6479	-3.425	-2.9271	-2.6583	-3.4542	-2.5104	-2.7687	-3.3979	-2.5333	-3.3688	-2.9542	-2.4375	-3.3812	-2.7271	-21.386	-4.615	19.933	182.042	232.826	-66.459	250.093	165.878	196.472	84.309	132.968	276.115	10.464	-39.275	101.829	14.101	0.00017834	0.0001327	0.00011546	1116.2	1.173e-06	4.163e-06	1221.6	237.2	3.2723e-06	4.9074e-06	301.91	83.906	65.529	19.071	3.5174e-06	26.594	0.0003463	0.00034814	9.8171e-05	1095.9	3.8557e-06	3.7926e-06	1198.2	235.6	3.7231e-06	3.7163e-06	298.7	84.326	65.751	19.31	3.693e-06	26.986	-22.696	51.542	-4.194	-71.505	30.038	88.933	-71.179	-63.935	80.703	186.629	-64.218	-57.460	-57.267	-50.272	56.878	-50.762	-8191	255	
45809.383	1	1	0	0	0.20731	0.25653	0.33921	0.021046	0.27293	0.058241	0.20826	0.36613	0.19492	0.041749	0.25804	0.10601	0.30655	0.17984	0.20809	0.22173	-2.4958	-3.2313	-2.5708	-3.4333	-2.8625	-2.6208	-3.5687	-2.6771	-2.7687	-3.2938	-2.6354	-3.05	-3.1104	-2.5208	-3.3896	-2.7167	229.057	42.845	227.716	-60.388	264.220	67.650	252.314	189.316	65.552	-65.187	203.712	-51.700	233.667	116.601	209.179	193.899	0.00015885	0.00039795	6.7694e-05	1116.5	3.8081e-06	1.9166e-06	1221.6	236.6	2.563e-06	3.3994e-06	299.72	84.52	66.132	19.021	3.1236e-06	26.621	0.00033067	0.00033137	9.3179e-05	1094.1	3.6572e-06	3.6729e-06	1197.5	235.09	3.6159e-06	3.6395e-06	298.3	84.417	65.732	19.283	3.7263e-06	26.99	-5.760	-41.614	-32.619	-71.185	83.738	15.071	-71.107	-63.891	-80.477	103.547	-64.190	-57.138	-57.358	-50.016	19.151	-50.838	-8191	255	
45809.504	1	1	0	0	0.026304	0.27835	0.070521	0.23922	0.1026	0.064939	0.40635	0.29608	0.15754	0.26962	0.058778	0.2844	0.24741	0.20172	0.032506	0.058677	-2.2583	-3.1729	-2.4646	-3.1208	-3.0771	-2.4229	-3.3354	-2.9875	-2.5187	-3.3396	-2.6312	-2.7396	-3.0833	-2.1917	-3.3896	-2.8771	211.421	26.822	20.812	240.813	-1.263	-76.000	195.031	-63.738	-65.291	147.190	181.698	80.268	186.756	-17.367	54.241	32.788	0.00013902	0.00017606	7.6209e-05	1122.2	2.2974e-06	3.7005e-06	1224.3	236.8	2.4325e-06	4.1337e-06	300.44	84.566	65.373	18.89	3.4166e-06	26.614	0.0003373	0.00034078	9.5443e-05	1094.8	3.7461e-06	3.751e-06	1198.8	235.19	3.791e-06	3.7128e-06	298.91	84.566	65.882	19.301	3.725e-06	27.011	-42.683	109.048	9.846	-71.339	35.191	-11.990	-71.077	-64.029	251.198	66.104	-64.594	-57.248	-57.321	-50.008	124.350	-50.793	-8191	255	
45809.598	1	1	0	0	0.30344	0.20745	0.12544	0.14904	0.28043	0.033349	0.10292	0.15865	0.31426	0.12802	0.1817	0.080457	0.24163	0.095818	0.20091	0.18249	-2.0771	-3.2854	-2.4833	-3.2271	-3.2396	-2.4146	-3.3875	-3.0229	-2.5521	-3.225	-2.5271	-2.8292	-3.2167	-2.6167	-3.3167	-3.0563	95.485	74.063	188.625	181.672	244.259	-25.245	224.489	-8.527	-57.515	102.306	29.480	264.793	180.834	201.779	229.826	114.152	0.00025166	0.00012253	5.1974e-05	1116.6	2.2326e-06	6.2216e-06	1222.7	237.26	2.8632e-06	1.4382e-06	301.61	84.228	65.441	19.05	6.4416e-06	26.688	0.0003424	0.00034219	9.5276e-05	1095.2	3.7845e-06	3.7867e-06	1198.5	235.56	3.7147e-06	3.7898e-06	299.22	84.659	65.795	19.325	3.7334e-06	27.04	-10.790	-63.150	275.374	-71.192	29.714	85.869	-71.035	-64.022	30.156	120.215	-64.030	-57.100	-57.239	-50.046	53.550	-50.741	-8191	255	
45809.695	1	1	0	0	0.22194	0.083349	0.052547	0.042088	0.12266	0.096539	0.26518	0.13359	0.05241	0.20248	0.2498	0.041548	0.14558	0.12034	0.078224	0.24076	-2.1625	-3.3458	-2.7292	-2.9396	-3.4938	-2.5062	-3.2167	-3.0833	-2.2958	-3.25	-2.8542	-2.8083	-3.475	-2.4604	-3.0271	-3.25	70.615	32.010	-76.410	156.311	265.916	-25.004	193.386	223.008	40.814	65.507	227.273	-6.882	-49.036	34.368	103.710	272.443	0.00016419	0.00026446	6.3822e-05	1115.4	3.2955e-06	3.746e-06	1223.9	236.29	2.9819e-06	2.1481e-06	301.03	84.367	65.611	18.951	5.8695e-06	26.627	0.00034037	0.00034626	9.7328e-05	1094.1	3.8052e-06	3.8733e-06	1199.1	235.02	3.8543e-06	3.8796e-06	299.08	84.618	65.916	19.286	3.8237e-06	27.032	-26.248	74.035	9.410	-71.486	41.697	94.661	-71.184	-63.931	92.090	114.119	-64.318	-57.455	-57.079	-49.646	63.154	-50.496	-8191	255	
45809.789	1	1	0	0	0.044383	0.203	0.1705	0.25064	0.073098	0.17614	0.38823	0.33059	0.084395	0.11314	0.10959	0.078991	0.38993	0.10993	0.21359	0.091941	-2.2354	-3.2125	-2.775	-2.8042	-3.2333	-2.5458	-3.1146	-3.1729	-2.4979	-3.2646	-2.7896	-2.5896	-3.5271	-2.7125	-2.9083	-3.2958	-58.120	90.716	136.859	172.270	-48.952	148.404	249.797	278.102	27.812	45.643	-72.138	-80.831	96.261	116.061	233.314	216.125	0.00022176	0.00041081	0.00017214	1113.8	3.2699e-06	6.7037e-06	1227	237.94	3.4692e-06	2.5074e-06	302.15	84.562	65.653	18.959	3.3608e-06	26.744	0.00034243	0.00034681	9.7801e-05	1092.8	3.7975e-06	3.8627e-06	1199.4	235.5	3.7815e-06	3.7841e-06	298.9	84.53	65.779	19.308	3.8267e-06	27.088	16.730	17.092	11.301	-71.403	54.774	27.626	-70.960	-63.743	59.886	131.820	-64.281	-57.311	-57.045	-50.276	108.832	-50.522	-8191	255	
45809.863	1	1	0	0	0.40089	0.13603	0.20442	0.20968	0.169	0.13604	0.261	0.15351	0.27724	0.068728	0.070679	0.1269	0.045514	0.16958	0.1932	0.088394	-2.0812	-3.2479	-2.8375	-2.4896	-3.4667	-2.8708	-3.0167	-3.2833	-2.4437	-3.2521	-3.1813	-2.4042	-3.4167	-2.6833	-2.9042	-3.3958	242.800	43.635	251.630	20.394	-36.451	13.760	262.402	275.884	151.205	-76.941	-73.259	-76.047	160.860	159.094	179.831	212.675	0.00022651	5.9158e-05	0.00011961	1116.2	5.7033e-06	2.2539e-06	1222.2	237.03	1.979e-06	7.8745e-06	301.37	83.971	66.002	18.896	2.8081e-06	26.715	0.00034755	0.00034505	9.5568e-05	1093.7	3.7545e-06	3.7503e-06	1198	235.07	3.6643e-06	3.7028e-06	298.65	84.214	65.784	19.21	3.6934e-06	26.972	6.824	-14.305	30.374	-71.153	55.500	1.701	-71.121	-63.609	75.297	102.831	-64.559	-57.417	-57.146	-49.895	57.029	-50.519	-8191	255	
45809.980	1	1	0	0	0.14392	0.090943	0.1724	0.12426	0.0665	0.099389	0.26684	0.45159	0.13097	0.17577	0.15293	0.15364	0.28089	0.062696	0.23867	0.050968	-2.0438	-2.9833	-3.1396	-2.4771	-3.2354	-2.7667	-2.7917	-3.4313	-2.5	-3.0375	-3.4437	-2.6167	-3.2917	-2.8271	-2.5687	-3.2375	229.307	-56.079	158.208	-69.155	211.493	48.726	187.470	259.112	10.217	-63.812	-73.667	60.908	259.231	214.171	240.230	-69.859	0.00016378	0.00019938	8.9607e-05	1115.1	7.4498e-06	6.2542e-06	1224.6	236.36	3.0659e-06	3.9347e-06	302.07	83.847	65.937	18.992	3.7232e-06	26.301	0.0003354	0.00033495	9.4279e-05	1093	3.7298e-06	3.7259e-06	1197.9	235.05	3.7774e-06	3.7637e-06	298.6	84.523	65.963	19.241	3.7806e-06	26.911	-20.141	7.751	1.886	-71.451	72.514	147.184	-71.120	-63.880	87.273	221.554	-63.988	-57.336	-57.061	-50.424	-3.642	-50.597	-8191	255	
45810.078	1	1	0	0	0.1006	0.054899	0.076972	0.17047	0.19394	0.089092	0.20833	0.22108	0.25872	0.37175	0.16076	0.11551	0.19541	0.064364	0.15474	0.063396	-2.2646	-2.9021	-3.2188	-2.7646	-3.3396	-2.8479	-2.8042	-3.3354	-2.6625	-3.025	-3.1271	-2.3937	-3.1979	-2.9833	-2.5979	-3.35	193.497	222.278	-23.974	-76.269	265.928	78.164	250.796	-34.851	175.507	255.979	230.582	136.377	201.472	179.863	152.457	188.591	0.00014277	0.00011548	0.0001231	1113.4	1.7954e-06	2.9117e-06	1224.9	237.83	1.8419e-06	5.6154e-06	301.02	83.887	65.524	18.907	4.7656e-06	26.549	0.00034511	0.0003516	9.7761e-05	1093.2	3.8338e-06	3.8848e-06	1200.6	235.11	3.7979e-06	3.8291e-06	298.57	84.263	65.834	19.235	3.8179e-06	26.969	-73.281	-38.125	2.696	-71.014	75.074	74.135	-71.143	-63.757	111.159	83.669	-63.945	-57.153	-56.907	-50.141	99.074	-50.904	-8191	255	
45810.176	1	1	0	0	0.24602	0.13812	0.068415	0.32524	0.14875	0.13154	0.16093	0.16271	0.076422	0.27428	0.088768	0.12113	0.081456	0.13548	0.39356	0.12537	-2.2313	-2.8417	-3.2375	-2.5708	-3.1521	-3.1333	-2.6125	-3.2625	-2.6708	-2.7625	-3.2458	-2.4313	-3.0792	-3.2042	-2.4708	-3.2896	110.496	59.456	40.470	225.458	-25.944	-75.027	240.499	221.534	-44.710	62.838	2.472	58.182	226.183	68.435	-14.079	133.123	0.00010332	0.00031344	0.00010725	1112.1	2.8127e-06	6.5249e-06	1222	236.22	1.7852e-06	5.3129e-06	301.07	83.803	65.961	18.849	1.9604e-06	26.634	0.00033829	0.00034568	9.5035e-05	1092	3.6936e-06	3.674e-06	1196.6	235.13	3.7104e-06	3.7195e-06	298.11	84.077	65.775	19.207	3.7205e-06	26.954	-43.552	-16.574	15.122	-71.124	20.364	86.150	-71.093	-63.995	-1.824	119.627	-64.214	-57.430	-57.073	-50.065	108.406	-50.613	-8191	255	
45810.297	1	1	0	0	0.16907	0.20596	0.41115	0.22255	0.24806	0.2672	0.13183	0.23979	0.10787	0.22146	0.11143	0.24808	0.043639	0.069544	0.2545	0.19391	-2.3604	-2.5104	-3.4167	-2.6	-3.0271	-3.2021	-2.7646	-3.3937	-2.8438	-2.5854	-3.4	-2.5812	-3.0438	-3.3771	-2.4042	-3.2375	-2.600	227.916	147.350	255.845	-56.078	193.987	144.481	158.624	202.265	201.382	163.807	166.018	255.574	105.280	253.885	245.399	0.00020972	0.00032686	3.0061e-05	1116.4	3.8473e-06	6.1996e-07	1218.9	237.15	1.4411e-06	5.0212e-06	300.85	83.851	65.965	18.954	2.0736e-06	26.578	0.00033475	0.00033722	9.2945e-05	1094.2	3.6753e-06	3.633e-06	1197.1	234.85	3.7544e-06	3.7683e-06	298.48	84.396	65.822	19.264	3.8697e-06	26.949	15.268	27.944	39.266	-71.270	95.323	118.025	-71.090	-63.710	37.820	32.525	-64.264	-57.815	-57.176	-49.864	111.170	-50.450	-8191	255	
45810.391	1	1	0	0	0.037046	0.084375	0.30886	0.14335	0.05937	0.18936	0.1656	0.097842	0.12227	0.11583	0.15131	0.23783	0.27721	0.27852	0.11496	0.28982	-2.7083	-2.5583	-3.3	-2.7771	-2.8417	-3.1104	-2.8042	-3.4313	-2.9375	-2.7104	-3.5958	-2.6625	-2.9375	-3.4708	-2.4896	-3.1437	72.838	96.369	-43.094	242.769	254.702	274.237	222.858	162.400	241.880	165.100	273.733	146.174	266.338	220.711	68.069	-39.011	0.0002198	0.00038769	0.00010969	1109	4.1093e-06	4.6907e-06	1218.5	236.84	4.9768e-06	5.4721e-06	302.13	83.934	65.263	18.88	7.0266e-07	26.64	0.00035642	0.00036321	0.00010057	1091.4	4.0984e-06	4.0793e-06	1198.6	235.43	4.1543e-06	4.1187e-06	299.53	84.681	65.798	19.307	4.0888e-06	27.072	-6.899	28.436	14.958	-71.437	113.120	146.299	-71.022	-63.580	71.646	92.182	-64.262	-57.516	-56.947	-50.069	102.309	-50.533	-8191	255	
45810.465	1	1	0	0	0.18421	0.14975	0.13781	0.25844	0.075122	0.11906	0.13588	0.12392	0.21111	0.14735	0.077819	0.27363	0.15943	0.092435	0.088318	0.16465	-2.7375	-2.3375	-3.4458	-2.9229	-2.6937	-3.325	-2.7292	-3.15	-3.1188	-2.5167	-3.4375	-2.9354	-2.7646	-3.3729	-2.5729	-3.1208	145.527	15.680	230.422	221.411	144.104	51.625	118.833	221.771	194.975	113.226	201.544	269.115	-47.639	199.664	-29.544	271.713	0.00021605	0.00036495	0.00013923	1116.1	3.8007e-06	2.4402e-06	1219.4	236.93	1.1181e-06	1.6503e-06	301.59	83.829	65.531	18.959	7.9064e-06	26.65	0.00035836	0.00036599	9.9509e-05	1094.1	3.8958e-06	3.8863e-06	1197.2	235.45	3.8568e-06	3.8965e-06	298.36	84.345	65.695	19.276	3.9112e-06	26.982	-52.575	-28.661	12.592	-71.269	2.314	206.230	-71.122	-63.835	118.183	132.676	-63.968	-57.356	-57.100	-49.768	35.026	-50.499	-8191	255	
45810.586	1	1	0	0	0.13736	0.087815	0.12467	0.3315	0.090959	0.12604	0.31582	0.097006	0.084961	0.21296	0.26929	0.10638	0.28812	0.11155	0.20524	0.19586	-2.9042	-2.5312	-3.2062	-2.9625	-2.5125	-3.5021	-2.6729	-3.0417	-3.2208	-2.5646	-3.2792	-3.1125	-2.5417	-3.2708	-2.7771	-2.9708	-12.605	56.675	274.838	132.305	146.292	109.925	214.178	-20.389	132.369	15.822	194.166	-58.003	232.987	252.926	161.853	-54.689	0.00013012	0.00056958	5.8144e-05	1117.1	2.4534e-06	2.9304e-06	1220.6	237.6	4.9724e-06	4.1405e-06	302.46	84.355	66.291	19.018	5.5475e-06	26.593	0.0003457	0.00035148	9.6598e-05	1094.4	3.8441e-06	3.8108e-06	1197.1	235.05	3.7244e-06	3.8201e-06	298.95	84.322	65.747	19.242	3.6152e-06	26.952	-6.334	-12.437	102.615	-71.291	21.055	109.744	-71.002	-63.729	108.671	101.731	-64.116	-57.244	-56.744	-49.611	4.755	-50.833	-8191	255	
45810.680	1	1	0	0	0.16213	0.16466	0.16732	0.22423	0.12609	0.05765	0.24378	0.19003	0.24613	0.099306	0.16907	0.16294	0.26305	0.08028	0.33038	0.15105	-2.8979	-2.6625	-3.2375	-3.0729	-2.2979	-3.4792	-2.9042	-2.9417	-3.3729	-2.3812	-3.2042	-3.1396	-2.4688	-3.4562	-2.5208	-2.8646	277.877	69.085	216.061	267.146	239.629	119.119	207.805	-76.211	182.912	260.435	247.592	196.341	223.937	191.854	228.299	172.420	0.00015993	0.00037915	0.00010028	1114.4	1.5814e-06	4.3424e-06	1216.7	236.99	4.9969e-06	5.3883e-06	300.25	83.681	64.905	18.858	4.1183e-06	26.511	0.00032036	0.00032412	8.8802e-05	1092.6	3.41e-06	3.4057e-06	1193.4	234.35	3.3273e-06	3.3544e-06	297.15	83.74	65.159	19.101	3.269e-06	26.814	-29.923	6.936	19.013	-71.199	-10.618	68.058	-71.031	-63.825	180.526	65.880	-64.033	-57.561	-57.069	-50.195	51.379	-50.256	-8191	255	
45810.777	1	1	0	0	0.12435	0.12342	0.097547	0.099007	0.1239	0.25638	0.33962	0.15584	0.27786	0.060187	0.077581	0.32838	0.34714	0.2532	0.25016	0.37933	-3.1917	-2.3812	-2.9896	-3.1958	-2.5125	-3.2625	-2.7979	-2.7292	-3.2042	-2.6604	-3.0563	-3.3792	-2.6188	-3.2375	-2.9313	-2.8104	119.997	80.060	70.847	255.773	67.035	190.110	262.126	-81.168	170.878	-31.401	131.849	-19.963	239.644	85.831	261.280	140.828	0.00018142	0.00059752	5.7372e-05	1107.7	4.0025e-06	8.4187e-07	1218.8	235.07	3.5795e-06	9.476e-06	300.53	83.134	65.357	18.842	2.1411e-06	26.412	0.00029889	0.00030076	8.3643e-05	1086.4	3.2732e-06	3.2796e-06	1193.2	233.27	3.2668e-06	3.3014e-06	296.85	83.542	65.28	19.079	3.2632e-06	26.688	-28.669	32.699	-42.462	-71.178	46.721	51.163	-70.969	-63.783	-28.824	105.049	-64.044	-57.261	-56.962	-49.747	98.236	-50.446	-8191	255	
45810.895	1	1	0	0	0.11358	0.29781	0.13246	0.19651	0.038726	0.14278	0.20091	0.15705	0.22326	0.1279	0.021811	0.21689	0.22413	0.20382	0.12389	0.032655	-3.0479	-2.6083	-2.9062	-3.3854	-2.5479	-3.325	-3.1458	-2.6104	-3.3063	-2.6813	-2.9875	-3.2417	-2.5146	-3.3187	-2.9479	-2.5479	-36.178	-2.538	9.496	-70.330	-79.256	12.881	204.077	204.492	32.266	-56.418	-31.458	196.768	34.092	226.312	215.454	82.028	0.00016187	0.00022519	0.00014075	1108.2	3.1972e-06	1.1692e-06	1215.4	234.63	2.4969e-06	5.5115e-06	301.62	83.262	65.027	18.857	2.4779e-06	26.312	0.00029557	0.00030057	8.0979e-05	1086	3.2972e-06	3.311e-06	1190.7	233.14	3.2914e-06	3.3353e-06	296.85	83.61	65.143	19.087	3.3042e-06	26.749	-11.085	62.023	-4.325	-71.161	118.845	102.206	-70.966	-63.764	107.315	97.410	-63.822	-57.232	-56.980	-49.763	222.639	-50.296	-8191	255	
45810.992	1	1	0	0	0.24219	0.14866	0.18568	0.063012	0.184	0.11791	0.10867	0.049002	0.12038	0.31967	0.33011	0.12972	0.089749	0.12933	0.11654	0.16128	-2.9771	-2.6583	-2.6833	-3.4979	-2.5062	-3.1729	-3.3958	-2.4542	-3.2292	-2.8812	-2.7958	-3.3167	-2.7917	-3.025	-3.1292	-2.5312	272.009	43.230	275.993	-21.026	-11.174	17.768	-79.525	212.206	-61.842	111.369	-62.919	56.491	240.655	-40.570	-49.350	-57.977	0.00023806	0.0002487	4.4687e-05	1110.2	2.7464e-06	4.0369e-06	1219.1	236.42	2.0445e-06	3.8016e-06	300.99	83.936	65.394	18.78	2.9632e-06	26.453	0.0002962	0.00030422	8.5015e-05	1086.4	3.3559e-06	3.369e-06	1191.4	233.78	3.395e-06	3.4073e-06	297.06	83.864	65.411	19.103	3.3648e-06	26.809	1.112	-22.803	6.331	-71.034	99.431	4.518	-71.087	-63.706	32.760	95.450	-63.673	-57.492	-56.755	-49.686	-16.884	-50.410	-8191	255	
45811.086	1	1	0	0	0.23552	0.18448	0.27483	0.13499	0.082207	0.32721	0.1031	0.18083	0.15571	0.16763	0.47331	0.36169	0.075918	0.098597	0.073724	0.18546	-3.1729	-2.8104	-2.6042	-3.4083	-2.5229	-3.1042	-3.3917	-2.5875	-3.2292	-3.0604	-2.725	-3.4771	-2.6375	-3.0438	-3.3917	-2.5938	-72.436	97.290	158.049	-14.807	77.550	-37.297	175.538	227.960	112.842	22.086	159.263	249.137	239.291	255.634	88.378	172.844	0.00012971	0.00026061	0.00012216	1110.4	1.5081e-06	4.9328e-06	1216.5	235.93	9.0197e-07	4.2559e-06	300.64	83.592	65.384	18.858	4.6377e-06	26.728	0.00030346	0.00030052	8.3721e-05	1088.5	3.339e-06	3.2668e-06	1193.1	233.73	3.2015e-06	3.1707e-06	296.87	83.8	65.123	19.085	3.1873e-06	26.804	-24.393	-11.337	41.981	-70.984	152.434	44.832	-70.986	-63.736	-1.634	77.178	-63.933	-56.998	-57.129	-49.525	79.961	-50.030	-8191	255	
45811.160	1	1	0	0	0.10885	0.13599	0.37824	0.17474	0.21367	0.27614	0.38217	0.087264	0.19426	0.16242	0.19591	0.096451	0.055692	0.29943	0.088708	0.24533	-2.8333	-2.9125	-2.4625	-3.3604	-2.7792	-2.9104	-3.45	-2.4667	-3.1312	-3.0104	-2.4375	-3.3979	-2.7062	-2.6021	-3.2896	-2.4229	148.473	60.412	217.399	141.215	-70.826	-53.609	246.904	268.724	271.914	150.831	275.982	270.938	192.711	259.433	-56.930	228.522	0.00019694	0.00024188	7.5228e-05	1110.5	2.2233e-06	2.5109e-06	1216.5	234.96	3.1528e-06	3.0285e-06	301.36	83.788	64.987	18.771	6.3376e-06	26.48	0.00028878	0.00028338	8.0769e-05	1087.1	3.2125e-06	3.0868e-06	1191.1	232.71	3.1445e-06	3.0905e-06	296.82	83.657	65.058	19.072	2.9998e-06	26.724	-27.659	13.513	60.285	-71.101	60.806	37.332	-70.951	-63.903	25.902	83.383	-63.966	-57.140	-56.902	-49.507	128.536	-50.497	-8191	255	
45811.277	1	1	0	0	0.25165	0.21427	0.49416	0.25267	0.23548	0.077208	0.27288	0.15747	0.10108	0.27482	0.15083	0.049626	0.21446	0.27407	0.11865	0.1145	-2.675	-3.0521	-2.35	-3.425	-2.7021	-2.5417	-3.4583	-2.6688	-2.9167	-3.2917	-2.5479	-3.2938	-2.9375	-2.5792	-3.4625	-2.7854	247.983	18.705	177.118	231.508	190.674	-59.148	242.850	249.434	271.591	4.678	-35.131	199.622	-66.460	182.712	233.335	277.272	0.00025471	0.00029129	0.00011448	1108.2	2.5539e-06	3.5107e-06	1214.4	234.78	2.6605e-06	2.9632e-06	301.92	83.612	65.319	18.931	4.0592e-06	26.454	0.0002753	0.00027822	7.6824e-05	1085.2	3.1259e-06	3.1348e-06	1190.5	233.05	3.1267e-06	3.116e-06	296.84	83.683	65.168	19.114	3.2401e-06	26.781	-40.376	-56.032	20.403	-70.924	152.110	17.237	-70.710	-63.552	104.411	33.886	-63.956	-56.857	-56.933	-49.834	85.654	-50.365	-8191	255	
45811.375	1	1	0	0	0.068369	0.1902	0.48703	0.22827	0.21643	0.22048	0.19421	0.069325	0.13519	0.20773	0.069843	0.13086	0.1899	0.0090163	0.27906	0.2062	-2.5687	-3.1667	-2.7687	-3.3104	-2.8875	-2.6896	-3.5521	-2.625	-3.0563	-3.3563	-2.5458	-3.4583	-3.1479	-2.4896	-3.4896	-2.7104	138.859	104.875	192.764	249.531	-80.365	-40.612	184.623	-72.611	167.475	-77.757	109.049	276.259	48.791	50.995	16.238	12.946	0.0002856	0.00012672	0.00015475	1111.7	6.49e-06	4.7884e-06	1215.4	236.73	3.3225e-06	4.8286e-06	300.65	83.815	65.289	18.856	5.2479e-06	26.43	0.00029762	0.00029642	8.4224e-05	1088.2	3.3144e-06	3.3456e-06	1192.1	233.58	3.3476e-06	3.2546e-06	296.63	83.796	65.093	19.101	3.1779e-06	26.757	-43.820	-69.150	11.229	-70.951	116.345	103.182	-70.734	-63.736	52.725	108.056	-64.073	-56.891	-57.002	-49.899	92.440	-50.494	-8191	255	
45811.473	1	1	0	0	0.22472	0.1113	0.17638	0.17503	0.18466	0.12302	0.20923	0.26996	0.11425	0.12327	0.09395	0.28519	0.22158	0.11959	0.22426	0.0096318	-2.3417	-3.2583	-2.3479	-3.2875	-3.075	-2.6292	-3.6083	-2.8875	-2.8708	-3.5354	-2.7125	-3.2188	-3.0646	-2.5208	-3.3438	-2.8604	215.710	172.377	-43.588	-74.599	-31.908	176.968	244.824	273.315	37.885	82.148	-49.965	209.929	151.355	214.444	86.231	248.958	0.00016515	0.00022917	0.00017786	1109.5	1.5147e-06	2.4114e-06	1217.2	235.07	5.6615e-06	2.8634e-06	299.44	83.701	65.414	18.764	2.6691e-06	26.416	0.0002849	0.00028723	8.0618e-05	1087.6	3.1775e-06	3.1485e-06	1191.3	232.84	3.1502e-06	3.107e-06	295.8	83.65	65.2	19.03	3.1335e-06	26.716	-23.883	90.178	-0.804	-70.905	47.503	173.967	-70.862	-63.792	78.939	-31.622	-64.008	-57.029	-57.186	-49.429	-44.542	-50.442	-8191	255	
45811.566	1	1	0	0	0.20607	0.080576	0.17494	0.25177	0.19264	0.068677	0.22259	0.2793	0.17742	0.16174	0.22097	0.26295	0.036391	0.1645	0.054321	0.27485	-2.1854	-3.3729	-2.5583	-3.1875	-3.3021	-2.5396	-3.4271	-2.9688	-2.5604	-3.425	-2.8021	-3.1125	-3.1792	-2.5021	-3.1875	-3.0687	22.901	191.509	269.939	-62.858	-80.070	258.672	119.603	137.308	88.160	216.694	-48.781	190.758	-3.825	-54.328	-63.759	250.426	0.00019277	0.00027526	0.0001705	1106.1	7.4184e-07	1.4873e-06	1213.9	234.9	1.4853e-06	5.5708e-06	300.16	83.539	65.209	18.886	3.7305e-06	26.358	0.00028967	0.00028847	7.9158e-05	1084	3.1521e-06	3.223e-06	1190.1	232.53	3.201e-06	3.1523e-06	295.86	83.683	65.069	19.052	3.1152e-06	26.715	-32.737	12.183	-31.159	-71.045	144.830	105.888	-70.858	-63.190	61.920	88.037	-63.804	-57.191	-56.595	-49.711	54.682	-50.257	-8191	255	
45811.688	1	1	0	0	0.02313	0.075765	0.22147	0.13239	0.19181	0.28469	0.099543	0.10788	0.11467	0.042072	0.05144	0.10752	0.074192	0.064432	0.09178	0.20064	-2.1937	-3.4396	-2.7313	-2.8667	-3.1958	-2.3667	-3.3604	-3.1292	-2.425	-3.2583	-2.7375	-2.8375	-3.2125	-2.5021	-3.1312	-3.1021	160.110	158.577	205.999	270.533	199.895	100.423	242.311	111.441	-72.828	51.318	142.261	-63.563	-79.312	172.803	198.928	249.431	0.00015858	0.00031256	3.9863e-05	1115.5	1.9157e-06	3.2606e-06	1213.3	234.93	3.7411e-06	3.9368e-06	297.11	84.015	65.075	18.939	2.9706e-06	26.403	0.00028973	0.00028388	8.1581e-05	1086.9	3.1731e-06	3.1357e-06	1188.9	232.56	3.1698e-06	3.1921e-06	295.26	83.632	64.974	19.123	3.1729e-06	26.676	-51.871	105.148	256.878	-70.754	83.534	29.694	-70.813	-63.619	53.980	113.911	-63.944	-56.808	-56.700	-49.424	7.414	-49.981	-8191	255	
45811.762	1	1	0	0	0.12975	0.25505	0.07147	0.17605	0.13922	0.02919	0.097335	0.17648	0.044188	0.063471	0.21303	0.092564	0.28064	0.074502	0.15402	0.077357	-2.2062	-3.4875	-2.7479	-2.7896	-3.1437	-2.4813	-3.2542	-3.1146	-2.4146	-3.4479	-2.7583	-2.5917	-3.4083	-2.4792	-2.9604	-3.25	47.439	-70.604	48.149	215.442	141.913	212.010	249.565	167.270	212.476	233.810	138.179	247.069	-78.913	-65.157	-1.890	128.631	0.00021252	0.0002791	2.0454e-05	1107.1	4.0139e-06	3.4422e-06	1212.9	234.25	2.6027e-06	3.3621e-06	298.34	83.399	65.459	18.912	3.5917e-06	26.455	0.00028588	0.00028294	7.9616e-05	1086	3.1211e-06	3.0884e-06	1188.6	232.51	3.0919e-06	3.0677e-06	295.41	83.643	65.006	19.058	3.0656e-06	26.699	-30.023	40.930	24.016	-70.722	89.260	63.609	-70.626	-63.632	79.366	55.796	-63.804	-56.861	-56.613	-49.406	69.670	-50.489	-8191	255	
45811.855	1	1	0	0	0.18051	0.23477	0.13739	0.23028	0.17459	0.12076	0.16487	0.10141	0.17181	0.19362	0.023836	0.18787	0.18931	0.23102	0.25062	0.12602	-2.175	-3.3229	-2.9083	-2.675	-3.3979	-2.6333	-3.0167	-3.3771	-2.4917	-3.2625	-3.0646	-2.5854	-3.3167	-2.7125	-2.8542	-3.3771	159.825	78.175	167.141	251.661	-4.278	193.742	-73.866	243.333	67.576	132.343	171.567	278.030	253.514	274.449	122.588	188.134	0.00019437	0.00053729	5.4407e-05	1106.4	3.6352e-06	2.5063e-06	1218.4	234.73	9.0768e-07	1.7235e-06	300.33	83.602	65.375	18.783	4.6823e-06	26.456	0.00028151	0.00028356	7.8305e-05	1085.4	3.0918e-06	3.1042e-06	1191.5	232.66	3.1237e-06	3.0545e-06	295.81	83.593	65.111	19.041	3.0881e-06	26.683	-10.048	-14.265	157.865	-70.754	45.380	103.730	-70.825	-63.345	77.643	58.318	-63.650	-56.914	-56.773	-49.798	83.053	-50.442	-8191	255	
45811.977	1	1	0	0	0.36053	0.050215	0.1929	0.071597	0.11043	0.29217	0.20071	0.30343	0.12332	0.25928	0.1301	0.076727	0.30097	0.080955	0.20679	0.078076	-2.1917	-3.2854	-2.8979	-2.4854	-3.3104	-2.6458	-2.9229	-3.3021	-2.6104	-3.1479	-3.225	-2.3979	-3.4625	-2.8583	-2.7167	-3.5583	260.964	197.847	63.796	207.908	270.733	-2.441	224.235	257.291	-46.278	44.441	174.877	35.016	-25.509	-76.831	243.574	4.002	0.00014633	0.00026486	6.4998e-05	1113.3	1.9506e-06	2.7259e-06	1216.2	235.48	1.6508e-06	4.4811e-07	299.61	83.555	65.494	18.799	2.4111e-06	26.247	0.00029256	0.00027892	7.9834e-05	1086.7	3.1642e-06	3.1852e-06	1191.5	232.69	3.186e-06	3.2092e-06	295.88	83.604	65.112	19.061	3.2288e-06	26.681	-34.707	40.528	36.507	-71.072	29.743	100.963	-70.620	-63.319	100.638	205.132	-63.793	-57.204	-56.864	-49.703	-38.471	-50.311	-8191	255	
45812.070	1	1	0	0	0.051622	0.13335	0.11303	0.24772	0.24307	0.17341	0.42205	0.16994	0.37169	0.28778	0.083218	0.14901	0.22337	0.18458	0.10948	0.10481	-2.0521	-3.2083	-3.15	-2.6896	-3.1937	-2.8958	-2.8208	-3.35	-2.3792	-3.0271	-3.4604	-2.55	-3.4542	-2.8354	-2.6958	-3.4125	19.239	-35.443	41.349	-73.111	-41.427	206.439	213.509	79.939	59.682	233.078	149.325	260.473	-66.033	218.491	150.427	198.353	0.00024224	0.00026003	3.0957e-05	1109.5	4.1313e-06	2.2001e-06	1219.9	235.48	3.189e-06	1.7989e-06	299.08	83.511	65.279	18.766	3.3695e-06	26.43	0.00028895	0.00028652	7.9885e-05	1085.5	3.1787e-06	3.1615e-06	1193.2	233.34	3.2318e-06	3.1712e-06	296.14	83.607	65.042	19.067	3.2178e-06	26.725	-39.506	2.609	167.092	-70.804	20.002	32.867	-70.641	-63.499	93.719	68.310	-63.579	-57.020	-56.425	-49.715	117.685	-50.178	-8191	255	
45812.168	1	1	0	0	0.15992	0.13085	0.25654	0.217	0.26847	0.30838	0.25172	0.14013	0.25736	0.25989	0.29921	0.095083	0.083481	0.16001	0.12429	0.14518	-2.2729	-2.9021	-3.2062	-2.6271	-3.2333	-2.8312	-2.6	-3.3729	-2.6542	-2.9542	-3.4	-2.4604	-3.3438	-3.1104	-2.4354	-3.4458	72.187	190.260	188.480	225.061	211.582	-14.123	164.354	182.346	104.593	-61.545	224.889	-40.894	179.984	274.951	-76.374	109.225	0.000236	0.00028453	4.491e-05	1107.8	9.6019e-07	4.2254e-06	1218	236.16	2.3828e-06	3.6643e-06	301	83.806	65.099	18.874	2.4797e-06	26.427	0.00029836	0.00029172	8.2153e-05	1086.6	3.2812e-06	3.2509e-06	1192.4	233.53	3.2688e-06	3.2983e-06	296.53	83.768	65.031	19.106	3.2851e-06	26.799	10.329	23.297	8.658	-70.936	40.650	42.080	-70.708	-63.488	144.431	153.218	-63.904	-56.672	-56.329	-49.782	-42.090	-49.858	-8191	255	
45812.266	1	1	0	0	0.080627	0.1004	0.35229	0.097829	0.18254	0.38517	0.1637	0.059994	0.15946	0.11833	0.15221	0.10646	0.24545	0.17007	0.15258	0.20313	-2.35	-2.5854	-3.2812	-2.6708	-3.1688	-3.0417	-2.7667	-3.4792	-2.7917	-2.7125	-3.4	-2.625	-3.0104	-3.1979	-2.5583	-3.4437	-17.507	142.377	54.496	234.347	87.983	93.420	154.606	237.399	-53.868	257.595	228.524	139.060	274.980	229.981	221.043	-27.195	0.00024622	0.00023013	7.9572e-05	1107.1	5.9782e-06	2.9312e-06	1217	235.49	2.1416e-06	2.2509e-06	300.51	83.416	65.492	18.756	3.7883e-06	26.498	0.00029766	0.00029522	8.2245e-05	1087.3	3.2574e-06	3.252e-06	1191.4	232.92	3.283e-06	3.2446e-06	296.83	83.613	65.185	19.083	3.2817e-06	26.779	-26.708	-66.964	59.288	-70.860	60.076	114.863	-70.506	-63.162	12.705	128.357	-63.789	-56.897	-56.347	-49.483	106.776	-50.221	-8191	255	
45812.359	1	1	0	0	0.18569	0.11405	0.15162	0.27284	0.12886	0.14877	0.24699	0.078	0.19836	0.15572	0.25418	0.23408	0.018858	0.083178	0.095635	0.18588	-2.4646	-2.7083	-3.3229	-2.8812	-3.0042	-3.0271	-2.725	-3.2708	-2.7958	-2.5167	-3.5812	-2.7042	-3.0167	-3.2021	-2.4562	-3.4062	-49.955	212.481	235.782	210.595	-7.089	64.798	260.980	86.481	197.424	157.419	180.860	-2.600	194.501	277.903	125.953	240.298	0.00013951	6.84e-05	7.2649e-05	1107.3	3.8056e-06	8.8544e-06	1220.7	235.7	3.0443e-06	5.3083e-06	301.48	83.679	65.441	18.815	1.9213e-06	26.4	0.00029343	0.00029813	8.285e-05	1085.1	3.3006e-06	3.2109e-06	1191.2	233.42	3.2427e-06	3.2894e-06	297	83.615	65.176	19.084	3.2565e-06	26.798	-19.535	117.867	-13.787	-70.659	163.478	73.846	-70.650	-63.382	-7.997	80.313	-63.662	-56.816	-56.735	-49.322	76.199	-50.068	-8191	255	
45812.457	1	1	0	0	0.12962	0.10942	0.09872	0.2439	0.194	0.19695	0.35315	0.07177	0.10137	0.10073	0.14864	0.20445	0.063653	0.075838	0.19805	0.11154	-2.7125	-2.525	-3.3042	-2.9167	-2.8167	-3.4208	-2.6354	-3.2292	-3.0583	-2.6104	-3.4	-2.6271	-2.9104	-3.4042	-2.4917	-3.0646	140.936	48.519	161.617	243.352	254.373	175.253	240.317	184.265	111.997	244.531	31.856	220.246	-1.096	57.206	119.387	161.125	0.00016314	0.00023387	5.5891e-05	1109.6	2.7908e-06	3.0615e-06	1212.6	234.5	7.5278e-06	2.775e-06	299.22	83.282	65.069	18.843	5.6015e-06	26.403	0.0002932	0.00029708	8.2956e-05	1087	3.2561e-06	3.2112e-06	1191.1	232.81	3.2061e-06	3.1562e-06	296.21	83.475	65.054	19.069	3.128e-06	26.781	-8.826	-2.485	234.220	-70.902	275.065	85.014	-70.725	-63.398	65.653	168.179	-63.561	-57.173	-56.454	-49.732	27.495	-49.901	-8191	255	
45812.574	1	1	0	0	0.089656	0.065777	0.30991	0.23017	0.2098	0.13299	0.14772	0.31341	0.071829	0.18596	0.19499	0.078501	0.083965	0.13133	0.19413	0.042902	-2.6917	-2.525	-3.425	-2.9104	-2.6771	-3.3833	-2.6125	-3.0812	-3.1208	-2.4042	-3.3167	-2.8438	-2.6896	-3.2875	-2.5083	-2.9333	218.174	101.592	-47.360	-51.242	225.655	47.277	160.698	208.174	-4.014	207.029	-53.650	47.168	276.924	-68.930	132.856	112.839	0.00013218	0.00034033	0.00019528	1106.5	1.2421e-06	3.3923e-06	1215.8	234.25	1.4757e-06	5.1931e-06	296.93	83.695	64.592	18.769	5.361e-06	26.304	0.00028487	0.00028875	8.0641e-05	1084.7	3.1114e-06	3.1257e-06	1190.5	232.16	3.0493e-06	3.0718e-06	295.01	83.375	64.701	18.977	3.0681e-06	26.664	-44.472	-1.714	8.941	-70.864	101.279	78.642	-70.573	-63.029	68.320	79.781	-63.714	-57.010	-56.731	-49.065	54.535	-50.083	-8191	255	
45812.672	1	1	0	0	0.28668	0.43095	0.18826	0.23938	0.27517	0.10032	0.14581	0.20848	0.12702	0.23447	0.058209	0.11766	0.1172	0.063317	0.040895	0.20565	-2.7687	-2.3146	-3.3354	-3.1437	-2.6188	-3.375	-2.8375	-2.9375	-3.3021	-2.6167	-3.2917	-2.9167	-2.8417	-3.4458	-2.5042	-2.9062	130.324	86.852	-7.325	-51.082	-11.028	-27.930	115.660	-44.875	248.493	119.502	244.011	208.284	78.708	259.801	10.332	247.967	0.00022596	0.00018236	0.00015119	1102.7	2.455e-06	3.038e-06	1204.2	233.94	4.4819e-06	6.3691e-06	298.88	82.78	64.322	18.628	4.3446e-06	26.383	0.00027682	0.00027519	7.7117e-05	1079.4	3.0349e-06	3.017e-06	1182.6	231.31	2.95e-06	2.9864e-06	294.14	82.886	64.592	18.905	2.8655e-06	26.603	-22.104	19.012	1.462	-70.840	61.152	16.957	-70.692	-63.025	77.189	84.059	-63.582	-56.771	-56.553	-49.473	128.704	-49.989	-8191	255	
45812.770	1	1	0	0	0.17428	0.27943	0.25867	0.19649	0.064953	0.076277	0.08668	0.16531	0.27208	0.21262	0.15635	0.33765	0.28301	0.11572	0.11572	0.13053	-2.8875	-2.4688	-3.0729	-3.1854	-2.5792	-3.2917	-3.0208	-2.7271	-3.4042	-2.6292	-3.0292	-3.1104	-2.4333	-3.1958	-2.825	-2.8729	11.229	38.972	7.959	15.478	52.079	251.918	228.158	201.877	1.808	186.714	197.731	6.363	47.784	113.207	45.276	32.932	0.00023185	0.00017083	0.00011979	1100.7	1.3657e-06	5.3305e-06	1204.3	233.39	6.6406e-06	3.0344e-06	294.73	82.153	64.613	18.659	2.1001e-06	26.216	0.0002568	0.00025558	6.9413e-05	1077	2.7542e-06	2.6661e-06	1178.5	230.52	2.6728e-06	2.6792e-06	292.61	82.368	64.118	18.844	2.6198e-06	26.439	-1.865	-19.049	37.038	-70.831	91.588	73.492	-70.777	-63.518	86.792	41.302	-63.433	-57.015	-56.591	-49.003	52.386	-50.111	-8191	255	
45812.863	1	1	0	0	0.092015	0.11011	0.14158	0.19918	0.0946	0.0578	0.39349	0.27194	0.27824	0.14127	0.074742	0.098594	0.046973	0.17933	0.056875	0.078551	-2.9896	-2.4437	-2.9688	-3.4125	-2.3021	-3.1583	-2.8354	-2.5479	-3.3417	-2.5375	-3.1479	-3.0854	-2.7021	-3.3021	-2.9188	-2.5812	51.876	-77.305	133.659	209.954	212.133	250.440	190.893	200.278	-59.418	-67.595	-1.372	98.304	-1.274	239.710	190.821	176.153	0.00014363	0.00029052	0.0001337	1094.6	1.3743e-06	4.4369e-06	1199.8	231.1	2.3197e-06	6.3052e-06	295.9	82.61	64.273	18.636	1.7375e-06	26.06	0.000243	0.00024344	6.6543e-05	1072	2.6593e-06	2.6325e-06	1175.3	229.08	2.6302e-06	2.6503e-06	292.05	82.481	64.055	18.824	2.6722e-06	26.436	-6.780	3.328	15.498	-70.619	-51.256	35.522	-70.577	-63.431	125.129	104.735	-63.597	-56.978	-55.916	-49.109	91.436	-49.983	-8191	255	
45812.984	1	1	0	0	0.13268	0.0029216	0.17543	0.20292	0.10333	0.13444	0.16645	0.35335	0.10866	0.15526	0.11236	0.26751	0.075787	0.099856	0.0074867	0.3596	-3.0229	-2.6937	-2.8187	-3.4354	-2.3292	-3.2604	-3.2521	-2.6667	-3.3563	-2.7208	-2.9167	-3.225	-2.5	-3.2812	-3.1604	-2.5146	184.445	91.879	262.617	255.864	-72.240	-64.325	-60.699	233.684	-11.354	51.090	9.961	-30.146	-66.639	187.036	-70.349	3.759	0.00031248	0.00010665	6.9602e-05	1092.7	4.3707e-06	5.6217e-06	1192.9	231.2	2.2307e-06	1.3972e-06	295.97	82.534	63.834	18.481	1.1272e-06	26.181	0.00024238	0.00024442	6.7811e-05	1070.1	2.7168e-06	2.6646e-06	1171.1	228.93	2.631e-06	2.6681e-06	292.02	82.439	63.986	18.782	2.7313e-06	26.414	-29.382	127.594	-13.235	-70.882	90.015	22.177	-70.653	-63.267	143.322	2.265	-63.636	-56.923	-56.229	-49.089	173.117	-50.126	-8191	255	
45813.055	1	1	0	0	0.1297	0.078069	0.1448	0.21998	0.11627	0.14167	0.28242	0.30905	0.15979	0.1988	0.21429	0.10276	0.12644	0.12965	0.12769	0.11004	-3	-2.6417	-2.7021	-3.5187	-2.4437	-3.0146	-3.3479	-2.4708	-3.3083	-2.8812	-2.9	-3.5354	-2.3208	-2.9271	-3.1792	-2.5271	91.245	205.857	-36.133	110.306	111.127	234.814	188.221	197.719	-17.144	215.924	221.006	-52.737	278.175	235.232	179.241	256.019	0.00024113	0.00043752	0.00015646	1089.2	2.6506e-06	3.641e-06	1196.3	232.3	2.1222e-06	2.2977e-06	294.47	82.404	64.261	18.722	2.7548e-06	26.205	0.00025174	0.00025613	7.1208e-05	1068.5	2.8586e-06	2.8232e-06	1173.5	229.35	2.8084e-06	2.8045e-06	291.11	82.641	64.032	18.878	2.7378e-06	26.403	5.672	-14.777	24.265	-70.843	86.867	17.712	-70.817	-63.278	118.618	47.443	-63.346	-56.502	-56.585	-49.148	37.255	-50.058	-8191	255	
45813.152	1	1	0	0	0.095779	0.052457	0.18767	0.26628	0.17043	0.090777	0.14359	0.085339	0.24519	0.25136	0.13408	0.10374	0.18748	0.24775	0.18125	0.22445	-2.95	-2.8229	-2.5792	-3.5854	-2.7104	-3.0146	-3.35	-2.6292	-3.2542	-2.9396	-2.7083	-3.6542	-2.5896	-3.0187	-3.2375	-2.55	264.952	218.864	68.453	261.168	251.619	-64.954	269.309	15.461	-8.589	77.449	150.541	-35.520	199.819	233.695	41.874	-4.553	0.0001977	0.00027111	0.00011033	1093	1.8408e-06	5.9434e-06	1198.3	231.82	2.3055e-06	3.7919e-06	296.09	82.235	63.924	18.601	3.4449e-06	26.171	0.00025207	0.0002503	6.9264e-05	1071.9	2.6974e-06	2.6642e-06	1174.4	229.12	2.6266e-06	2.6001e-06	291.75	82.236	63.951	18.752	2.5982e-06	26.401	-32.354	-38.416	-8.746	-70.857	-21.191	27.690	-70.450	-63.099	5.218	109.726	-63.507	-56.707	-56.105	-49.344	72.746	-50.261	-8191	255	
45813.246	1	1	0	0	0.0938	0.17489	0.15786	0.31153	0.20035	0.22213	0.36053	0.29234	0.057915	0.14167	0.13135	0.2519	0.1234	0.17388	0.10651	0.1759	-2.8583	-2.9771	-2.4917	-3.5021	-2.625	-2.7854	-3.3771	-2.6417	-3.2083	-3.15	-2.5521	-3.2646	-2.5542	-2.7542	-3.4042	-2.7188	27.562	93.437	160.882	240.596	-75.901	59.432	236.559	216.629	277.889	119.036	-79.673	-67.494	92.481	139.340	-11.464	127.971	0.00013707	8.9002e-05	5.9687e-05	1086.8	1.2331e-06	5.0874e-06	1193	231.24	1.7727e-06	1.3718e-06	295.8	81.919	64.086	18.614	6.5464e-06	25.953	0.00024373	0.00024442	6.7918e-05	1068.3	2.6932e-06	2.6461e-06	1173.2	229	2.7155e-06	2.7401e-06	291.37	82.249	63.939	18.812	2.7018e-06	26.37	-21.482	32.711	-24.693	-70.733	186.288	93.558	-70.548	-63.269	63.406	264.485	-63.552	-56.537	-56.263	-49.015	53.363	-49.986	-8191	255	
45813.344	1	1	0	0	0.2205	0.063647	0.14459	0.26112	0.13881	0.30389	0.24245	0.11385	0.30734	0.086156	0.34002	0.037734	0.10237	0.12673	0.15413	0.15229	-2.7979	-3.0917	-2.3958	-3.4396	-2.8521	-2.6375	-3.4083	-2.5292	-2.9646	-3.2167	-2.4208	-3.2938	-2.8458	-2.5146	-3.3229	-2.6146	256.710	250.464	135.585	193.686	106.660	128.247	-60.889	168.803	-65.907	68.922	-74.065	251.391	76.641	270.063	257.933	180.349	0.00014522	0.00036134	6.4215e-05	1084.8	1.3245e-06	4.3108e-06	1193.1	230.71	3.1926e-06	4.1664e-06	294.85	82.291	63.749	18.544	3.7552e-06	25.864	0.0002483	0.00024354	6.9762e-05	1067.9	2.741e-06	2.729e-06	1172.7	228.98	2.7103e-06	2.7173e-06	291.47	82.47	63.809	18.799	2.7148e-06	26.354	-17.878	1.978	-38.854	-70.643	195.359	-9.480	-70.473	-62.924	58.718	30.620	-63.322	-56.724	-56.388	-48.990	75.652	-49.680	-8191	255	
45813.465	1	1	0	0	0.24904	0.22363	0.16279	0.27528	0.1543	0.20914	0.40716	0.29635	0.12647	0.091939	0.071352	0.11308	0.37525	0.17075	0.11029	0.0723	-2.3667	-3.25	-2.375	-3.3146	-2.9938	-2.5458	-3.4083	-2.8542	-2.8708	-3.2	-2.4771	-3.1542	-2.9083	-2.725	-3.3167	-2.8	7.979	-34.435	-47.638	228.815	-66.639	234.457	276.697	159.233	215.646	224.566	273.069	244.266	233.465	230.386	127.193	169.340	0.00027919	0.00022714	5.1904e-05	1088.8	2.9262e-06	3.3813e-06	1196.2	229.82	3.8012e-06	1.3166e-06	293.79	82.278	63.792	18.57	3.7271e-06	26.102	0.00025217	0.00024084	6.8648e-05	1068.3	2.6798e-06	2.6763e-06	1174	228.64	2.6883e-06	2.5623e-06	290.97	82.316	63.817	18.775	2.6227e-06	26.383	-23.101	40.487	17.977	-70.537	92.668	129.194	-70.458	-63.120	83.843	24.473	-63.548	-56.538	-56.927	-49.479	99.386	-49.913	-8191	255	
45813.562	1	1	0	0	0.028642	0.192	0.1898	0.24597	0.22255	0.1506	0.30729	0.24271	0.077608	0.18375	0.23719	0.36691	0.21071	0.25522	0.11609	0.22918	-2.4458	-3.2521	-2.2229	-3.3187	-3.225	-2.5396	-3.3771	-2.8833	-2.6146	-3.4646	-2.5646	-3.0125	-3.3125	-2.4083	-3.3729	-3.0187	105.124	209.026	256.436	261.929	82.665	-1.690	240.777	121.330	258.636	-40.942	87.935	189.992	267.330	114.694	273.777	-12.967	0.00020799	0.0003771	5.324e-05	1092.2	3.9396e-06	5.3849e-06	1195	231.47	1.7925e-06	4.844e-06	295.43	81.738	63.95	18.589	2.7139e-06	26.006	0.0002452	0.00024149	6.7263e-05	1070.8	2.6593e-06	2.727e-06	1172.4	228.88	2.6677e-06	2.5838e-06	291.55	82.148	63.759	18.753	2.7043e-06	26.368	-21.277	-11.426	20.248	-70.600	78.775	77.986	-70.553	-63.065	93.301	101.260	-63.659	-56.463	-56.351	-49.420	64.539	-50.375	-8191	255	
45813.656	1	1	0	0	0.12301	0.01895	0.096956	0.22837	0.050379	0.14816	0.16218	0.25597	0.21003	0.092714	0.076815	0.15295	0.079125	0.18844	0.096796	0.12658	-2.3458	-3.35	-2.3958	-3.0333	-3.3479	-2.2979	-3.3625	-3.0146	-2.6625	-3.1917	-2.6833	-2.8417	-3.4167	-2.3312	-3.225	-2.9583	10.321	195.467	-10.283	222.650	132.671	-6.647	227.067	230.183	232.769	149.607	124.869	247.305	-57.739	110.138	275.650	212.145	0.00017587	0.00031974	6.95e-05	1086.1	4.8007e-06	7.9384e-06	1190.5	230.28	3.5342e-06	1.8272e-06	294.11	82.664	63.921	18.514	2.7483e-06	26.117	0.00024814	0.00024428	6.8475e-05	1067.6	2.6734e-06	2.7345e-06	1173.3	228.47	2.7052e-06	2.6943e-06	291.31	82.411	63.887	18.786	2.6595e-06	26.38	-21.640	-12.548	55.902	-70.708	66.335	45.507	-70.572	-63.153	136.588	83.155	-63.604	-56.612	-56.307	-49.471	39.875	-50.105	-8191	255	
45813.754	1	1	0	0	0.20642	0.078649	0.20528	0.23716	0.13144	0.16647	0.25762	0.29348	0.21765	0.20493	0.19044	0.051748	0.043073	0.2228	0.19048	0.13219	-2.1063	-3.3812	-2.6646	-2.8979	-3.2708	-2.3083	-3.3312	-2.9562	-2.6125	-3.4125	-2.7167	-2.8708	-3.275	-2.6312	-2.9958	-3.2083	-31.297	197.678	260.682	275.303	-31.553	-62.774	234.361	194.547	242.719	-6.393	-28.939	-76.144	278.225	-41.539	262.926	-41.573	0.00026622	0.0001622	0.00014561	1085.7	2.9351e-06	2.9723e-06	1190.9	231.07	3.9925e-06	3.7079e-06	293.36	82.035	64.215	18.611	6.7091e-06	26.156	0.00025065	0.00023872	6.852e-05	1067.3	2.687e-06	2.7063e-06	1171.4	228.68	2.6909e-06	2.6511e-06	290.59	82.39	64.017	18.808	2.6766e-06	26.339	-2.060	-35.195	-19.246	-70.659	117.444	80.737	-70.752	-63.162	132.186	105.404	-63.809	-56.589	-56.170	-49.528	105.303	-49.981	-8191	255	
45813.848	1	1	0	0	0.050106	0.20639	0.20451	0.15931	0.26935	0.17866	0.14058	0.12295	0.19175	0.16628	0.10804	0.012824	0.14504	0.14384	0.18675	0.10931	-2.1063	-3.2562	-2.7292	-2.9125	-3.3417	-2.5667	-3.2792	-3.3771	-2.5438	-3.3312	-2.9792	-2.7792	-3.3563	-2.5833	-2.9708	-3.2687	34.157	-20.992	255.569	215.408	126.279	118.361	146.599	-36.190	262.064	8.174	0.767	241.820	4.681	187.277	262.645	159.214	0.00026699	0.00019102	5.1053e-05	1085.1	3.7541e-06	3.4603e-06	1193.1	230.56	5.677e-06	4.2789e-06	293.78	81.872	64.161	18.65	4.063e-06	26.01	0.00025002	0.00024314	6.8751e-05	1067.8	2.7024e-06	2.6266e-06	1171.9	228.8	2.6531e-06	2.6712e-06	290.93	82.293	64.015	18.832	2.659e-06	26.337	-10.512	-21.166	46.835	-70.577	21.599	59.839	-70.507	-63.351	30.705	67.789	-63.565	-56.535	-56.245	-49.484	29.157	-49.707	-8191	255	
45813.945	1	1	0	0	0.2888	0.015852	0.1313	0.061114	0.081066	0.23735	0.1323	0.11883	0.095408	0.10617	0.094199	0.18612	0.16711	0.091417	0.16885	0.076854	-2.3021	-3.1854	-2.95	-2.7229	-3.3104	-2.6479	-3.075	-3.4417	-2.5938	-3.1625	-2.9979	-2.6583	-3.5375	-2.7875	-2.9646	-3.4167	17.564	266.196	138.453	247.208	129.507	268.267	196.803	250.493	27.514	121.431	215.471	143.704	-29.811	202.812	-79.155	247.505	0.00022197	0.0002395	0.00012603	1085.7	4.5894e-06	1.2333e-06	1187.7	231.44	2.7308e-06	2.8276e-06	294.93	82.658	64.345	18.424	3.9956e-06	26.194	0.00024561	0.00024612	6.7568e-05	1067.2	2.6716e-06	2.7038e-06	1170.6	228.92	2.762e-06	2.6725e-06	290.93	82.479	64.062	18.769	2.7511e-06	26.41	-29.957	37.447	1.615	-70.539	39.665	39.841	-70.182	-63.213	63.919	11.983	-63.638	-57.101	-56.355	-49.097	23.454	-50.036	-8191	255	
45814.062	1	1	0	0	0.33519	0.17463	0.21986	0.22024	0.094472	0.076921	0.18599	0.29347	0.24553	0.15292	0.14396	0.21569	0.17064	0.10178	0.24244	0.23406	-2.1208	-3.1354	-2.975	-2.6771	-3.4062	-2.8229	-2.9917	-3.3937	-2.5854	-3.1562	-3.1458	-2.6125	-3.3625	-2.7375	-2.6667	-3.4271	75.330	10.566	86.570	-33.362	138.273	49.767	-78.784	267.815	-69.432	272.507	-64.451	272.347	66.830	135.572	-39.905	210.886	0.00018942	0.00026974	9.3566e-06	1088.3	1.8664e-06	3.6988e-06	1194.9	230.99	1.6412e-06	8.2286e-06	294.12	82.074	64.22	18.787	5.3931e-07	26.077	0.00025118	0.0002541	7.0169e-05	1067.3	2.8169e-06	2.8092e-06	1171.8	228.87	2.8586e-06	2.8476e-06	291.48	82.604	64.146	18.893	2.9241e-06	26.465	-38.750	20.317	-39.313	-70.561	-73.662	66.219	-70.782	-62.975	240.609	90.060	-63.715	-56.862	-56.490	-49.748	132.983	-49.962	-8191	255	
45814.160	1	1	0	0	0.087953	0.045868	0.09732	0.21238	0.20408	0.19811	0.12748	0.24116	0.1903	0.064068	0.13514	0.25875	0.2741	0.15431	0.25529	0.019769	-2.1562	-3.1	-2.8958	-2.7021	-3.2938	-2.7646	-2.825	-3.4542	-2.5417	-3.0229	-3.4771	-2.5062	-3.1708	-2.9292	-2.7833	-3.5375	154.874	-48.120	-52.994	223.276	263.185	-6.761	32.044	57.381	-79.153	95.923	212.326	187.048	24.506	124.025	-63.103	220.673	8.7024e-05	0.00029665	0.00014157	1092.2	1.9975e-06	2.9926e-06	1198.9	232.56	4.8519e-06	2.2334e-06	294.85	82.969	64.517	18.767	7.3013e-06	26.437	0.00027065	0.00026599	7.5176e-05	1072.9	2.9676e-06	2.9491e-06	1178.3	230.27	3.0215e-06	3.0063e-06	292.32	82.9	64.326	18.959	3.0587e-06	26.653	6.322	28.675	5.245	-70.742	185.057	50.267	-70.607	-63.325	43.160	101.600	-63.643	-57.016	-56.471	-49.595	76.070	-49.807	-8191	255	
45814.258	1	1	0	0	0.090245	0.18085	0.090817	0.11267	0.11409	0.03918	0.35828	0.24945	0.04479	0.21035	0.21974	0.050644	0.15774	0.23792	0.11156	0.2118	-2.2021	-2.8458	-3.2396	-2.7062	-3.2333	-3.0771	-2.8292	-3.3167	-2.6	-2.7542	-3.4396	-2.5292	-3.1229	-3.1146	-2.5312	-3.4729	54.603	200.649	31.155	263.648	-62.985	65.898	133.550	-31.801	255.286	62.325	211.444	-71.018	255.654	244.772	260.790	-20.011	0.00023471	0.00040294	0.00011875	1095.1	3.3664e-06	3.103e-06	1199.4	231.55	3.0404e-06	3.568e-06	296.15	82.645	64.52	18.57	3.7934e-06	26.264	0.00028001	0.00028045	7.8539e-05	1074.8	3.1418e-06	3.1401e-06	1180.3	230.43	3.1111e-06	3.0887e-06	293.88	82.882	64.535	18.875	3.084e-06	26.62	-10.341	54.958	-15.569	-70.580	8.043	114.801	-70.333	-63.351	31.711	116.573	-63.547	-56.584	-56.929	-49.252	38.634	-49.922	-8191	255	
45814.352	1	1	0	0	0.22214	0.23289	0.16637	0.37213	0.22348	0.1489	0.057763	0.13476	0.24726	0.22571	0.21655	0.35359	0.17094	0.16964	0.10887	0.21539	-2.4917	-2.8021	-3.4042	-2.7583	-3.2417	-3.1333	-2.5667	-3.3146	-2.8208	-2.7188	-3.3458	-2.6854	-3.3187	-3.1854	-2.5271	-3.3292	-16.100	-22.968	105.309	166.765	162.250	148.008	112.406	255.685	187.995	168.454	256.606	265.133	263.253	0.148	170.073	212.572	0.00025159	0.00020652	7.5212e-05	1090	4.4103e-06	2.8217e-06	1198	232.51	1.2135e-06	2.4366e-06	296.14	82	64.412	18.71	3.7719e-06	26.277	0.00027962	0.00028388	7.9826e-05	1074.2	3.1368e-06	3.1819e-06	1178.2	230.89	3.2591e-06	3.226e-06	293.8	82.839	64.54	18.989	3.2953e-06	26.645	7.702	-28.971	68.344	-70.780	54.904	-23.772	-70.430	-63.170	98.570	127.090	-63.631	-56.872	-56.651	-49.041	68.750	-49.802	-8191	255	
45814.449	1	1	0	0	0.27532	0.048842	0.18501	0.23869	0.21887	0.17431	0.17617	0.015046	0.14518	0.14962	0.39676	0.17661	0.40159	0.067023	0.070145	0.29558	-2.5729	-2.6125	-3.3771	-2.6083	-3.0708	-3.2292	-2.6021	-3.35	-2.9188	-2.6396	-3.4083	-2.6083	-2.9042	-3.1625	-2.3854	-3.1625	-24.118	4.935	124.270	157.262	244.108	29.907	227.697	244.472	31.563	174.622	247.828	4.068	-30.178	-6.648	55.798	197.091	0.00020576	0.00029057	4.2451e-05	1095	1.0507e-06	9.7665e-07	1202.6	232.67	5.0282e-06	2.5428e-06	298.49	82.436	64.498	18.678	4.0426e-06	26.337	0.000297	0.0002996	8.4264e-05	1075.8	3.343e-06	3.2999e-06	1182.1	231.34	3.3375e-06	3.4052e-06	294.64	82.935	64.73	19	3.2809e-06	26.755	9.200	-20.372	76.009	-70.841	197.822	-36.850	-70.498	-62.951	104.914	166.305	-63.431	-56.844	-56.364	-49.189	76.389	-49.618	-8191	255	
45814.547	1	1	0	0	0.14802	0.14393	0.094985	0.14286	0.12327	0.17565	0.13535	0.19206	0.061884	0.3383	0.34945	0.28165	0.1514	0.28048	0.20333	0.13844	-2.8083	-2.5208	-3.2125	-2.7167	-2.8229	-3.4229	-2.5917	-3.1229	-3.1667	-2.4104	-3.4813	-2.6729	-2.9375	-3.3625	-2.4396	-3.0875	8.312	167.655	163.246	211.448	216.407	12.953	142.466	200.102	-52.418	217.175	214.126	241.966	271.831	-43.014	200.241	-68.443	0.00014832	0.00018775	8.5199e-05	1093.4	1.2291e-06	5.754e-06	1203.2	231.61	4.1174e-06	3.719e-06	297.29	83.201	64.6	18.722	7.1527e-06	26.3	0.00029234	0.00029387	8.1256e-05	1074.6	3.2277e-06	3.1695e-06	1183.1	230.7	3.1866e-06	3.2183e-06	294.08	83.147	64.524	18.981	3.1317e-06	26.687	-39.176	-13.297	44.105	-70.745	-68.619	30.671	-70.612	-63.284	118.943	83.369	-63.732	-57.340	-56.640	-49.788	44.966	-50.066	-8191	255	
45814.641	1	1	0	0	0.13431	0.15653	0.11857	0.40877	0.16606	0.099852	0.16004	0.19701	0.22413	0.046503	0.19184	0.19484	0.14457	0.12057	0.10932	0.06422	-2.9167	-2.3	-3.2625	-2.9542	-2.7583	-3.3458	-2.6625	-3.0333	-3.05	-2.4771	-3.2667	-2.8271	-2.6854	-3.5229	-2.8125	-3.075	68.024	271.680	-36.452	219.004	-71.477	-30.368	-72.506	232.402	195.550	27.289	221.448	-32.140	176.709	-9.101	80.182	216.350	0.00017708	0.00030409	7.1369e-05	1099	2.7189e-06	1.6305e-06	1199.3	233.82	1.377e-06	2.5833e-06	296.22	82.691	64.662	18.692	2.7179e-06	26.397	0.00028416	0.00028111	7.7311e-05	1076.8	3.0812e-06	3.0972e-06	1180.2	231.51	3.1279e-06	3.1681e-06	294.15	83.085	64.593	18.936	3.1338e-06	26.702	3.760	-0.628	228.053	-70.675	112.085	77.312	-70.683	-63.167	9.207	51.353	-63.368	-56.853	-56.572	-49.278	59.388	-49.723	-8191	255	
45814.762	1	1	0	0	0.19413	0.1675	0.073205	0.092206	0.097612	0.085474	0.27208	0.25288	0.070993	0.079024	0.1037	0.26597	0.2358	0.19352	0.094371	0.086966	-2.9292	-2.4979	-3.2646	-3.0917	-2.5812	-3.2521	-2.8125	-3.0438	-3.2292	-2.3917	-3.2354	-3	-2.5604	-3.3271	-2.8104	-2.7625	8.123	-5.135	226.809	276.150	63.294	34.569	189.492	226.429	157.290	23.934	165.619	272.958	241.877	130.485	210.464	-69.606	9.757e-05	0.00012316	2.8322e-05	1096.4	2.9767e-06	4.6899e-06	1201.3	234.25	1.0122e-06	3.7351e-06	296.25	82.868	64.26	18.683	4.1301e-06	26.534	0.00028454	0.00028816	7.9664e-05	1075.8	3.1778e-06	3.1795e-06	1179.8	231.43	3.1511e-06	3.1927e-06	294.13	83.124	64.518	18.956	3.0891e-06	26.672	-31.855	-66.751	24.443	-70.734	83.455	92.260	-70.462	-63.161	274.430	101.127	-63.643	-56.740	-56.615	-49.275	112.475	-49.985	-8191	255	
45814.855	1	1	0	0	0.11623	0.044277	0.043367	0.31144	0.15139	0.15723	0.20173	0.069556	0.11621	0.23057	0.15414	0.078178	0.093845	0.074184	0.27665	0.10752	-2.8729	-2.3979	-3.1208	-3.2479	-2.5542	-3.2417	-2.7917	-3.0229	-3.3583	-2.5604	-3.0187	-3.125	-2.5687	-3.4333	-2.7208	-2.6271	193.862	-53.616	44.065	211.626	204.121	63.283	242.303	126.144	-77.325	256.518	71.793	93.159	-58.458	225.626	137.405	61.576	0.0002157	0.00033775	0.000179	1094.1	4.1066e-06	4.4809e-06	1200.7	232.44	4.3471e-06	3.0945e-06	297.25	82.206	64.559	18.693	1.0201e-06	26.238	0.00028391	0.00028582	7.8502e-05	1073.6	3.145e-06	3.1086e-06	1179.4	231.2	3.1362e-06	3.1455e-06	293.86	82.889	64.606	18.944	3.1821e-06	26.636	-25.817	13.841	-23.416	-70.788	42.604	65.543	-70.499	-63.169	184.123	67.023	-63.611	-56.790	-56.400	-49.434	181.068	-49.802	-8191	255	
45814.930	1	1	0	0	0.22871	0.11502	0.099733	0.20545	0.14222	0.32321	0.075291	0.15385	0.11502	0.10364	0.25038	0.1004	0.1272	0.31067	0.16559	0.26638	-2.9729	-2.4062	-2.7583	-3.2812	-2.3688	-3.4583	-3.0583	-2.6979	-3.2917	-2.6646	-2.9979	-3.1937	-2.6542	-3.1688	-2.8688	-2.6375	-22.668	131.761	149.259	204.798	76.311	164.393	147.048	208.676	62.513	85.936	-46.725	213.919	205.902	163.038	117.952	-45.525	9.1724e-05	0.00057167	0.00010737	1097.3	2.1007e-06	2.5657e-06	1203.1	231.25	7.1557e-07	2.6792e-06	297.47	82.539	64.693	18.651	6.6585e-06	26.331	0.00028326	0.00028624	8.0573e-05	1075.6	3.1753e-06	3.1012e-06	1179.6	230.56	3.0982e-06	3.102e-06	293.64	82.979	64.637	18.977	3.0437e-06	26.624	-11.062	28.980	-11.360	-70.537	59.860	62.115	-70.633	-63.042	21.983	75.427	-63.487	-56.562	-56.564	-49.354	112.735	-49.876	-8191	255	
45815.027	1	1	0	0	0.19294	0.093809	0.11962	0.28982	0.055408	0.074312	0.17017	0.14315	0.064406	0.18789	0.34642	0.14847	0.29662	0.10758	0.044236	0.14519	-3.0646	-2.5229	-2.8	-3.4271	-2.3771	-3.1208	-3.0083	-2.575	-3.35	-2.675	-2.6833	-3.2833	-2.5146	-3.2125	-3.1958	-2.4688	220.680	130.547	-64.811	210.798	245.645	254.795	180.668	-45.423	202.824	-26.753	227.508	254.276	182.953	196.523	-16.114	102.646	0.00014615	0.00040556	1.5267e-05	1094.4	1.0865e-06	4.5642e-06	1202.3	232.64	4.136e-06	2.2987e-06	295.62	82.773	64.451	18.687	5.0957e-06	26.249	0.00028231	0.00027909	7.9397e-05	1074.2	3.0948e-06	3.087e-06	1179.8	230.67	3.1403e-06	3.1389e-06	293.73	83.07	64.578	18.973	3.072e-06	26.625	33.712	-11.598	145.134	-70.537	235.812	69.338	-70.613	-62.928	77.327	130.095	-63.797	-56.638	-56.508	-49.277	73.160	-49.867	-8191	255	
45815.145	1	1	0	0	0.21659	0.036895	0.074107	0.09667	0.24699	0.065792	0.079162	0.20885	0.043039	0.021437	0.12873	0.14984	0.2184	0.2288	0.069408	0.27483	-2.9875	-2.8167	-2.7104	-3.4542	-2.675	-3.0812	-3.3979	-2.6146	-3.2875	-2.8521	-2.675	-3.4354	-2.7583	-3.0417	-3.2938	-2.55	-77.001	206.270	108.869	250.658	150.657	-73.903	-61.139	101.541	-59.134	5.994	236.420	273.509	152.570	76.996	206.175	-22.438	0.00035263	0.00018874	3.1749e-05	1095.5	4.5527e-06	3.2978e-07	1197.3	231.95	2.7052e-06	5.1146e-06	296.09	82.263	63.972	18.652	2.2688e-06	26.242	0.00028176	0.00028244	7.9479e-05	1074.4	3.2003e-06	3.1095e-06	1177.1	231.04	3.1154e-06	3.1604e-06	293.51	82.96	64.437	18.976	3.168e-06	26.734	-31.001	-7.295	36.027	-70.454	76.993	-16.872	-70.637	-63.189	131.551	113.206	-63.694	-57.015	-56.597	-49.366	40.762	-49.965	-8191	255	
45815.242	1	1	0	0	0.19102	0.12404	0.057324	0.068076	0.11865	0.21714	0.027284	0.11112	0.088829	0.114	0.2515	0.17991	0.096354	0.073137	0.18639	0.20723	-2.9167	-3.0375	-2.4542	-3.4729	-2.6937	-2.9875	-3.3187	-2.5396	-3.2104	-2.8146	-2.8729	-3.4313	-2.6396	-2.7958	-3.3833	-2.4521	95.022	39.978	230.653	181.522	92.759	94.121	261.999	201.952	86.703	206.098	36.755	166.456	247.943	232.122	159.622	171.845	2.4783e-05	8.3281e-05	6.4944e-05	1095.9	2.1308e-06	1.3652e-06	1195	231.4	3.2049e-06	4.0236e-06	295.65	82.033	64.268	18.706	4.2046e-06	26.303	0.00028423	0.0002836	7.9883e-05	1075.2	3.1719e-06	3.1442e-06	1178.2	230.45	3.1288e-06	3.0751e-06	293.25	82.692	64.48	18.961	3.12e-06	26.652	7.117	137.940	-11.595	-70.756	223.996	66.913	-70.614	-63.200	85.295	128.311	-63.710	-56.637	-56.396	-49.279	-7.603	-49.929	-8191	255	
45815.336	1	1	0	0	0.10964	0.068277	0.1426	0.074575	0.1096	0.028967	0.12579	0.36108	0.020292	0.18864	0.1301	0.13767	0.16683	0.12868	0.036016	0.16688	-2.975	-2.8312	-2.5417	-3.5333	-2.6521	-2.7479	-3.5854	-2.4771	-2.9417	-3.1479	-2.6292	-3.3375	-3.0042	-2.4229	-3.2812	-2.5646	50.212	-43.293	42.791	221.583	163.733	69.994	162.635	178.682	144.961	144.244	71.898	216.526	152.644	150.100	265.662	-46.382	0.00018277	1.8196e-05	5.4599e-05	1095.6	4.1782e-06	3.8984e-06	1192.2	232.42	4.0999e-06	5.2482e-06	296.12	82.387	63.973	18.722	4.5547e-06	26.144	0.0002853	0.00028227	8.2233e-05	1076.4	3.1459e-06	3.0962e-06	1178.4	231.1	3.1023e-06	3.1157e-06	293.84	82.974	64.388	18.938	3.1003e-06	26.612	-20.326	79.596	28.566	-70.635	91.211	44.472	-70.596	-63.272	152.749	111.116	-63.894	-56.404	-56.479	-49.383	63.037	-50.319	-8191	255	
45815.457	1	1	0	0	0.26155	0.23026	0.24285	0.057683	0.18441	0.2257	0.021722	0.14041	0.12536	0.10245	0.094084	0.25637	0.02675	0.29309	0.11261	0.18757	-2.5938	-3.0667	-2.3521	-3.4458	-2.8271	-2.6688	-3.6417	-2.6229	-3.1646	-3.2062	-2.4979	-3.1937	-2.9333	-2.7229	-3.3937	-2.5417	145.695	26.834	106.790	-79.898	230.467	-13.418	173.384	269.814	-12.074	173.038	132.831	196.882	78.237	7.526	56.579	-58.941	0.00029397	0.000257	5.9472e-05	1096.7	2.3495e-06	6.5046e-06	1196.5	231.4	2.2442e-06	2.9301e-06	296.19	82.299	64.267	18.7	4.1828e-06	26.065	0.00028074	0.00028246	7.9605e-05	1077.1	3.1528e-06	3.1071e-06	1180	230.28	3.1267e-06	3.0662e-06	293.31	82.842	64.491	18.976	3.0629e-06	26.599	-32.445	6.312	-49.085	-70.729	58.993	75.694	-70.649	-63.319	129.531	130.129	-63.461	-56.905	-56.344	-48.788	117.534	-50.032	-8191	255	
45815.527	1	1	0	0	0.16322	0.19693	0.18778	0.1205	0.13166	0.082624	0.10962	0.10892	0.28824	0.25904	0.12485	0.11685	0.076838	0.066079	0.061648	0.10277	-2.55	-3.0771	-2.5125	-3.3625	-3.0438	-2.3625	-3.5375	-2.7438	-2.9333	-3.3563	-2.5938	-3.4208	-3.1021	-2.5229	-3.2375	-2.8979	164.216	38.641	190.209	164.057	-28.580	197.604	216.108	266.851	149.236	-17.655	210.229	-30.194	247.309	230.822	131.188	179.219	0.00017799	0.00034495	0.00010688	1089.2	3.0794e-06	5.2576e-06	1197.7	232.21	5.064e-06	5.0838e-06	294.38	82.646	64.345	18.636	6.788e-06	26.17	0.00027958	0.00027996	7.8315e-05	1075	3.1239e-06	3.1143e-06	1177.2	230.58	3.0222e-06	3.0282e-06	293.23	82.926	64.552	18.913	3.0121e-06	26.565	-45.612	3.514	15.490	-70.457	-15.735	85.903	-70.563	-63.221	182.063	136.761	-63.531	-56.267	-56.333	-48.951	47.790	-50.135	-8191	255	
45815.625	1	1	0	0	0.14049	0.21024	0.1824	0.21778	0.19051	0.068267	0.2982	0.21659	0.10921	0.077666	0.14541	0.17712	0.33102	0.11069	0.10549	0.17541	-2.2667	-3.2271	-2.5125	-3.3292	-3.2375	-2.5333	-3.6458	-3.0438	-2.6896	-3.525	-2.8292	-3.1312	-3.3729	-2.6792	-3.2562	-2.9979	28.341	126.472	-70.687	255.158	-11.397	178.320	202.140	250.857	146.809	230.655	237.273	242.005	252.352	110.092	248.613	40.577	0.0001732	0.00029923	7.4045e-05	1090.5	2.7064e-06	2.6974e-06	1193.5	232.21	2.6406e-06	4.4432e-06	295.73	83.006	64.318	18.63	2.6411e-06	26.204	0.0002751	0.00027945	7.7512e-05	1073.4	3.0483e-06	2.999e-06	1175.8	230.19	2.9771e-06	2.904e-06	293.18	83.133	64.39	18.898	2.9418e-06	26.581	-19.668	55.202	7.492	-70.447	77.326	82.958	-70.363	-63.269	150.139	70.770	-63.669	-56.471	-56.259	-49.049	145.056	-50.036	-8191	255	
45815.746	1	1	0	0	0.15726	0.08058	0.15271	0.1753	0.21429	0.083114	0.2148	0.1745	0.15557	0.19907	0.057317	0.10408	0.12247	0.24501	0.014775	0.15665	-2.1333	-3.225	-2.4333	-2.9208	-3.1813	-2.6021	-3.2938	-3.0125	-2.7792	-3.2875	-2.6396	-3.0104	-3.3375	-2.4396	-3.175	-2.9625	137.376	152.821	237.969	270.544	19.652	79.756	223.206	139.589	228.413	180.111	226.777	154.582	96.177	237.283	235.437	258.024	0.00018389	0.00044356	8.575e-05	1089.3	5.9891e-07	3.8618e-06	1193	229.9	7.3671e-07	3.9733e-06	293.99	81.639	63.709	18.611	5.2157e-07	26.099	0.00027049	0.0002668	7.3735e-05	1071.4	2.8659e-06	2.9247e-06	1174.1	229.17	2.8393e-06	2.8662e-06	291.89	82.512	63.981	18.893	2.9176e-06	26.444	-6.530	7.624	34.142	-70.472	213.864	65.102	-70.238	-63.003	86.588	112.061	-63.580	-56.443	-56.462	-49.133	22.935	-49.986	-8191	255	
45815.844	1	1	0	0	0.14717	0.015674	0.043219	0.34303	0.15427	0.14027	0.084246	0.22942	0.19984	0.071446	0.030487	0.10922	0.065674	0.25766	0.074225	0.18067	-2.2562	-3.5604	-2.5604	-2.8125	-3.3083	-2.5375	-3.4479	-3.0687	-2.4208	-3.4521	-2.7771	-2.7479	-3.4	-2.4042	-3.0708	-3.3417	105.125	-2.234	209.072	-69.544	9.455	-23.989	235.008	275.185	126.434	102.111	-58.873	-72.232	245.012	-37.502	123.692	186.110	0.00013466	0.00014473	0.00010233	1086.5	3.7717e-07	2.9802e-06	1190.8	230.12	3.3427e-06	4.817e-06	293.27	82.257	63.748	18.523	5.3355e-06	25.957	0.00026704	0.00026215	7.4124e-05	1068.4	2.9189e-06	2.9717e-06	1173	229.02	2.9433e-06	2.9166e-06	291.4	82.65	64.081	18.843	2.9095e-06	26.454	-14.947	-13.828	63.725	-70.495	93.166	54.597	-70.412	-62.812	174.960	81.866	-63.340	-56.568	-56.065	-49.409	53.792	-49.894	-8191	255	
45815.938	1	1	0	0	0.058747	0.26492	0.13417	0.19404	0.24344	0.15883	0.18115	0.37426	0.23048	0.081349	0.20252	0.14823	0.10982	0.29213	0.30737	0.058099	-2.1542	-3.4083	-2.8896	-2.8438	-3.3458	-2.5292	-3.2	-3.2375	-2.4125	-3.2313	-2.8896	-2.5396	-3.3646	-2.5563	-2.8542	-3.3187	114.865	63.977	-1.172	-27.477	-44.823	85.769	204.859	136.575	-58.670	177.207	216.746	257.015	184.209	239.845	14.444	271.466	0.00021776	0.00030825	9.6768e-05	1083.7	3.213e-06	3.3178e-06	1186.6	230.84	2.6445e-06	3.2499e-06	292.96	81.469	63.545	18.573	4.1143e-06	26.116	0.00026844	0.00026628	7.3374e-05	1068.8	2.9512e-06	2.9046e-06	1171.8	229.56	2.9128e-06	2.823e-06	291.48	82.411	64.038	18.881	2.8459e-06	26.461	-30.735	-8.790	1.824	-70.535	55.341	37.324	-70.156	-62.967	121.355	141.606	-63.252	-56.405	-56.358	-49.293	67.305	-49.842	-8191	255	
45816.059	1	1	0	0	0.098058	0.10014	0.13113	0.2603	0.059277	0.084695	0.22709	0.15636	0.12767	0.25871	0.2004	0.41396	0.16765	0.1547	0.056109	0.16318	-2.2104	-3.0354	-3.0312	-2.6458	-3.4479	-2.7208	-2.9708	-3.3708	-2.5646	-3.225	-2.9292	-2.525	-3.4125	-2.6854	-2.7583	-3.4417	-63.845	208.661	239.929	-68.669	204.744	-9.680	213.896	-80.473	63.751	-51.003	35.488	235.481	269.448	-70.688	203.852	214.684	8.5658e-05	0.00050842	4.6978e-05	1083.6	3.4502e-06	4.706e-06	1185.3	228.18	4.4957e-06	3.922e-06	292.63	81.731	63.66	18.511	4.3492e-06	25.893	0.00025756	0.00025284	6.9327e-05	1067.6	2.6947e-06	2.7046e-06	1168.6	228.17	2.7188e-06	2.6941e-06	290.8	82.302	63.796	18.764	2.7332e-06	26.324	-20.406	-1.739	-1.232	-70.710	85.931	85.508	-70.220	-63.079	87.332	111.850	-63.588	-56.675	-56.272	-48.974	274.160	-49.617	-8191	255	
45816.152	1	1	0	0	0.019071	0.137	0.10172	0.24757	0.21082	0.17957	0.15682	0.062054	0.1281	0.16221	0.15494	0.26329	0.13825	0.062554	0.11575	0.13161	-2.275	-3.1562	-3.075	-2.5438	-3.4479	-2.9917	-2.8854	-3.5354	-2.4271	-3.0146	-3.1937	-2.6333	-3.2792	-2.925	-2.6375	-3.4854	-74.742	144.393	144.127	238.967	108.453	125.697	125.804	108.882	59.390	-70.983	203.210	221.124	-73.213	12.459	114.337	179.158	0.00013949	0.00016104	1.5304e-05	1082.4	1.4578e-06	2.4032e-06	1180.3	229.14	2.4219e-06	3.72e-06	293.5	82.165	63.544	18.409	4.404e-06	25.909	0.00024955	0.00024295	6.7937e-05	1064	2.6924e-06	2.6969e-06	1165.3	228.03	2.7035e-06	2.6963e-06	290.16	82.158	63.732	18.735	2.7145e-06	26.368	-24.747	-77.877	77.482	-70.591	77.356	73.034	-70.196	-62.729	140.112	31.198	-63.343	-56.507	-56.233	-48.811	112.298	-49.652	-8191	255	
45816.227	1	1	0	0	0.11457	0.36831	0.13106	0.13447	0.21044	0.17133	0.22829	0.030519	0.1071	0.14977	0.19921	0.17897	0.14621	0.073898	0.062158	0.17235	-2.2	-2.9146	-3.2438	-2.5583	-3.2521	-2.8375	-2.7313	-3.5604	-2.5875	-2.9896	-3.4104	-2.4896	-3.3021	-3.025	-2.5917	-3.2604	-13.262	-10.188	216.887	-77.856	62.944	181.489	263.077	-44.127	-50.211	85.386	-4.406	268.604	-40.649	129.526	208.010	13.234	0.00027655	0.00046665	2.8005e-05	1078.5	6.5838e-06	4.5243e-06	1178.8	229.25	4.6625e-06	2.6983e-06	293.79	81.673	63.701	18.511	4.7417e-06	25.847	0.0002468	0.00024851	6.8824e-05	1062.7	2.7265e-06	2.6508e-06	1165.6	228.28	2.7191e-06	2.7107e-06	290.77	82.063	63.733	18.746	2.6736e-06	26.329	-33.591	-18.626	64.211	-70.394	78.197	49.041	-70.205	-62.676	103.486	74.402	-63.537	-56.318	-56.102	-49.173	78.978	-49.332	-8191	255	
45816.320	1	1	0	0	0.10652	0.058746	0.33384	0.042665	0.16758	0.21026	0.15215	0.13764	0.027021	0.085877	0.15478	0.19348	0.086323	0.28083	0.087823	0.098155	-2.2938	-2.8521	-3.1958	-2.6417	-3.0979	-3.0917	-2.7979	-3.4417	-2.6375	-2.7292	-3.4208	-2.5979	-3.2958	-3.0896	-2.5646	-3.4292	125.945	210.355	117.233	231.674	5.624	181.345	263.461	271.955	-14.109	129.893	274.528	165.062	202.301	204.613	-4.262	-59.967	0.00015986	0.00034469	0.0001047	1073.1	4.002e-07	2.0586e-06	1179.3	228.52	1.7877e-06	1.1739e-06	291.02	81.087	63.631	18.237	4.7593e-06	25.954	0.00024202	0.00023737	6.4729e-05	1059.4	2.5741e-06	2.5789e-06	1163.2	227.49	2.6274e-06	2.619e-06	289.73	81.811	63.639	18.672	2.6194e-06	26.278	-8.504	-3.466	46.281	-70.420	127.751	126.033	-70.279	-63.077	101.178	95.181	-63.116	-56.548	-56.235	-49.089	69.075	-49.433	-8191	255	
45816.441	1	1	0	0	0.10453	0.12946	0.13809	0.28777	0.17584	0.13018	0.38668	0.098155	0.41286	0.18449	0.20749	0.17336	0.2665	0.19014	0.20332	0.26949	-2.3625	-2.7479	-3.3604	-2.6813	-3.1667	-3	-2.5917	-3.3771	-2.9313	-2.6625	-3.3333	-2.6625	-2.8667	-3.2313	-2.4833	-3.375	55.168	-69.411	179.685	249.597	254.429	55.498	238.950	216.463	137.541	154.019	226.003	213.971	244.783	156.089	260.599	194.713	0.00024197	0.00025728	0.00012088	1073.2	3.3392e-06	3.1627e-06	1176.9	227.51	3.7038e-06	2.2212e-06	289.95	80.947	63.14	18.283	1.4496e-06	25.936	0.0002376	0.00023685	6.4811e-05	1058.5	2.5959e-06	2.5644e-06	1162.8	227.37	2.6155e-06	2.5571e-06	289.23	81.786	63.575	18.678	2.5882e-06	26.296	-7.811	4.888	66.815	-70.504	66.538	18.709	-70.201	-62.876	66.960	112.437	-63.519	-56.693	-56.178	-48.873	-8.240	-49.507	-8191	255	
45816.539	1	1	0	0	0.14676	0.16831	0.058416	0.18819	0.31644	0.055896	0.32853	0.20468	0.048858	0.061455	0.24823	0.14437	0.10806	0.089903	0.17745	0.11693	-2.3708	-2.4979	-3.4625	-2.7521	-2.8542	-3.225	-2.5458	-3.2229	-2.9646	-2.4833	-3.5458	-2.6979	-2.8833	-3.3708	-2.3854	-3.0146	14.057	258.814	208.053	229.281	-36.635	247.516	213.635	264.128	260.679	193.742	199.660	44.733	42.108	8.797	123.436	250.106	0.0002386	0.00024792	5.1395e-05	1068.4	1.6705e-06	5.1163e-06	1173.2	228.07	2.7379e-06	4.8839e-06	290.76	81.663	63.005	18.304	2.9556e-06	25.817	0.00023499	0.00024201	6.5419e-05	1057.7	2.5413e-06	2.5363e-06	1160.3	227.09	2.5699e-06	2.6009e-06	288.98	81.769	63.462	18.697	2.5692e-06	26.232	-26.015	-12.624	-57.724	-70.358	-17.711	75.353	-70.469	-62.689	77.979	95.579	-63.141	-56.420	-56.015	-49.261	84.177	-49.333	-8191	255	
45816.633	1	1	0	0	0.17659	0.12034	0.24898	0.23647	0.12304	0.067973	0.13262	0.21267	0.061089	0.16284	0.22716	0.1478	0.081923	0.079081	0.15986	0.11747	-2.85	-2.5938	-3.2812	-2.7354	-2.7208	-3.2646	-2.625	-3.2875	-3.1917	-2.5354	-3.2125	-2.8688	-2.7188	-3.4083	-2.5312	-2.9938	26.915	263.216	64.460	163.234	-25.165	84.067	235.316	-52.030	-13.251	250.411	251.336	188.125	187.577	196.839	-67.716	266.647	0.00012747	0.00016983	5.5027e-05	1070.6	4.2895e-06	2.3998e-06	1177.2	228.08	3.004e-06	3.0494e-06	290.17	80.774	63.008	18.254	5.5978e-06	25.777	0.00023378	0.00023292	6.3657e-05	1057.7	2.5612e-06	2.496e-06	1160.4	226.98	2.5002e-06	2.5816e-06	288.9	81.724	63.455	18.645	2.4837e-06	26.225	-29.593	-22.219	23.914	-70.168	62.636	55.197	-70.301	-63.130	116.144	38.856	-63.186	-56.442	-56.077	-48.881	63.310	-49.931	-8191	255	
45816.730	1	1	0	0	0.23361	0.18982	0.20896	0.21642	0.26238	0.049224	0.39181	0.0080523	0.16519	0.16381	0.08379	0.16291	0.24234	0.18177	0.22506	0.14025	-2.9333	-2.4688	-3.2458	-3.0208	-2.5	-3.4813	-2.6063	-3.0438	-3.1	-2.3958	-3.4479	-2.8604	-2.3333	-3.3146	-2.6292	-2.8958	277.799	235.410	275.356	209.873	4.396	224.903	256.205	139.811	249.550	143.246	132.203	-77.303	188.948	-3.324	126.224	-49.289	0.00021032	0.00018681	2.7307e-05	1065.7	6.7777e-07	4.4281e-06	1175	226.64	1.12e-06	3.0793e-06	289.92	80.456	62.794	18.235	1.8805e-06	25.778	0.00022877	0.00023098	6.3522e-05	1055.6	2.5708e-06	2.4553e-06	1159.5	226.53	2.5221e-06	2.5402e-06	288.63	81.551	63.468	18.587	2.5477e-06	26.227	-13.780	-16.767	-18.975	-70.486	173.059	72.627	-70.212	-62.683	48.366	27.736	-62.961	-56.346	-56.008	-48.684	6.607	-49.559	-8191	255	
45816.824	1	1	0	0	0.21982	0.21638	0.068251	0.19533	0.073967	0.041564	0.19834	0.24815	0.055202	0.24774	0.12933	0.24606	0.12451	0.08886	0.14898	0.10712	-2.9583	-2.5146	-3.1	-3.0917	-2.3937	-3.4375	-2.8104	-2.6813	-3.3187	-2.45	-3.3146	-3.1167	-2.3896	-3.2	-2.8292	-2.8208	105.147	92.752	139.953	204.316	73.071	233.745	165.532	-40.567	152.384	229.112	197.506	251.728	240.439	-15.041	42.015	-78.077	0.00028824	8.3153e-05	0.00016804	1066.1	2.4264e-06	1.549e-06	1171.5	226.84	3.5368e-06	3.561e-06	288.54	80.493	62.746	18.355	2.6341e-06	25.72	0.00023232	0.00022822	6.4316e-05	1055.5	2.5298e-06	2.4996e-06	1158.7	226.43	2.5664e-06	2.5993e-06	288.51	81.419	63.404	18.67	2.5172e-06	26.22	-0.437	-53.073	-41.620	-70.454	34.301	83.944	-70.377	-62.798	149.499	87.237	-63.144	-56.379	-56.048	-48.762	136.141	-49.509	-8191	255	
45816.922	1	1	0	0	0.079263	0.22555	0.088618	0.21964	0.2403	0.095095	0.21173	0.19934	0.029632	0.14606	0.22545	0.077113	0.0854	0.12501	0.17423	0.17336	-3.15	-2.45	-3.1146	-3.3187	-2.3771	-3.3917	-3.0563	-2.8083	-3.4271	-2.5667	-3.3208	-3.1021	-2.5646	-3.2333	-3.0167	-2.7854	238.628	14.734	99.927	228.973	-25.320	179.279	210.177	25.907	-80.507	132.941	249.382	275.809	233.971	-62.687	95.070	-64.221	0.00014984	0.00024612	5.0515e-05	1070	1.5388e-06	4.1499e-06	1169.1	226.5	1.4773e-06	3.7201e-06	289.7	80.76	62.69	18.22	1.4502e-06	25.66	0.00023502	0.0002297	6.3987e-05	1056.9	2.6314e-06	2.5073e-06	1157.8	226.21	2.5532e-06	2.5326e-06	288.92	81.773	63.368	18.637	2.4816e-06	26.214	-18.787	27.478	18.762	-70.247	99.648	71.781	-70.093	-62.770	158.343	100.587	-63.304	-56.380	-55.727	-49.115	238.346	-49.699	-8191	255	
45817.020	1	1	0	0	0.17562	0.050105	0.31964	0.11647	0.28768	0.13237	0.24556	0.32075	0.027985	0.20607	0.25276	0.21379	0.13132	0.13565	0.063856	0.17972	-2.9667	-2.5375	-2.8167	-3.3604	-2.3167	-3.3167	-2.9833	-2.7104	-3.2896	-2.6417	-2.9646	-3.3771	-2.6354	-3.1854	-3.1458	-2.75	150.309	164.199	91.342	-62.100	44.681	260.130	155.150	203.750	156.758	42.531	83.274	232.829	-1.547	127.417	157.908	162.955	0.00025134	0.00028093	0.00010003	1067.5	3.505e-06	2.5804e-06	1165	225.71	2.8359e-06	4.0415e-06	289.72	81.135	62.704	18.23	5.2086e-06	25.779	0.00023541	0.00023009	6.485e-05	1056	2.5271e-06	2.485e-06	1157.7	226.07	2.4727e-06	2.4876e-06	288.9	81.461	63.201	18.647	2.5216e-06	26.247	-33.570	-29.756	76.080	-70.250	127.087	52.209	-70.125	-62.803	49.781	83.233	-63.005	-56.145	-56.316	-48.456	102.024	-49.546	-8191	255	
45817.137	1	1	0	0	0.083763	0.18787	0.19117	0.20615	0.17497	0.21028	0.13187	0.039495	0.18313	0.14133	0.2978	0.12508	0.18862	0.22553	0.074454	0.20798	-3.0021	-2.7104	-2.7208	-3.3	-2.5583	-3.2292	-2.9229	-2.4083	-3.3771	-2.9188	-2.5396	-3.3917	-2.6333	-3.1937	-3.0958	-2.5771	-50.018	146.019	212.616	237.302	120.510	245.942	181.979	150.195	79.374	99.168	243.654	54.587	128.882	-63.589	260.937	225.278	0.0002939	0.00025163	9.5759e-05	1068.2	2.4713e-06	4.7569e-06	1174	226.78	2.6757e-06	1.7511e-06	291.13	81.342	62.958	18.398	4.3467e-06	26.107	0.00023087	0.00022519	6.3246e-05	1056.6	2.5553e-06	2.4842e-06	1158	226.66	2.5393e-06	2.5671e-06	288.93	81.65	63.34	18.675	2.507e-06	26.277	-25.336	54.777	-20.295	-70.627	73.191	22.653	-70.434	-63.075	39.074	96.967	-63.449	-56.545	-56.048	-49.165	99.004	-49.928	-8191	255	
45817.234	1	1	0	0	0.32363	0.097867	0.16417	0.094382	0.20445	0.07021	0.16798	0.20645	0.10486	0.15663	0.089552	0.070921	0.30792	0.090384	0.16406	0.33799	-3.0708	-2.8833	-2.6479	-3.5083	-2.5938	-2.9437	-3.3896	-2.5917	-3.2146	-2.8812	-2.8771	-3.3438	-2.6063	-2.8417	-3.2438	-2.55	-47.737	191.693	263.829	5.895	6.632	-73.363	192.284	220.904	271.530	-35.096	-43.069	195.151	-0.208	59.223	-74.247	201.717	0.00018355	0.00041808	7.7589e-05	1071.6	4.1382e-06	1.9458e-06	1177.5	227.66	4.0733e-06	2.4996e-06	290.38	81.469	63.192	18.432	1.7198e-06	25.678	0.0002374	0.00023862	6.6222e-05	1056.3	2.6266e-06	2.617e-06	1160	226.28	2.5759e-06	2.5726e-06	288.54	81.648	63.33	18.684	2.5752e-06	26.253	12.936	0.825	13.776	-70.452	78.439	110.432	-70.483	-62.936	-44.137	76.282	-63.697	-56.454	-56.465	-49.211	88.335	-49.875	-8191	255	
45817.328	1	1	0	0	0.15248	0.17555	0.15695	0.26441	0.22993	0.1317	0.3135	0.019444	0.12476	0.28833	0.1113	0.098677	0.1269	0.1701	0.23372	0.28551	-2.8146	-2.9229	-2.4688	-3.5604	-2.6917	-2.9146	-3.475	-2.5646	-3.15	-3.0667	-2.7062	-3.425	-2.6917	-2.7667	-3.3312	-2.5062	-78.050	236.756	-15.118	226.583	150.297	-39.278	233.649	252.037	140.342	-0.105	157.817	32.557	150.060	69.163	213.095	209.777	0.0002545	0.00043954	8.7584e-05	1069.4	1.9226e-06	7.1585e-06	1175.5	227.49	5.3159e-06	4.9109e-06	288.44	81.571	63.432	18.36	1.7854e-06	25.84	0.00023111	0.00023421	6.442e-05	1055.4	2.5843e-06	2.559e-06	1159.9	226.61	2.5661e-06	2.5125e-06	287.91	81.629	63.423	18.657	2.6e-06	26.216	-30.162	53.559	27.233	-70.524	18.637	58.665	-70.470	-62.825	92.684	82.940	-63.252	-56.552	-56.074	-49.283	65.474	-49.812	-8191	255	
45817.426	1	1	0	0	0.066487	0.072113	0.10369	0.22261	0.028717	0.22242	0.14357	0.08709	0.17877	0.13894	0.16295	0.19252	0.039258	0.11037	0.29097	0.30026	-2.7292	-2.9417	-2.5083	-3.55	-2.8521	-2.7313	-3.4146	-2.4771	-3.0854	-3.2396	-2.3667	-3.3937	-3.0083	-2.7917	-3.4188	-2.6146	147.654	158.422	271.297	210.794	27.797	66.589	175.914	-57.230	269.063	114.633	37.275	163.414	163.888	38.483	87.310	150.050	0.00019027	0.00022712	0.00012201	1071.9	5.513e-06	1.0143e-06	1174.4	227.51	2.5554e-06	4.5084e-06	290.58	81.074	63.242	18.42	1.0994e-06	25.707	0.00023394	0.00023533	6.5664e-05	1058.2	2.6007e-06	2.5612e-06	1160.2	226.18	2.5465e-06	2.5039e-06	288.47	81.723	63.364	18.675	2.4627e-06	26.14	-7.845	47.575	35.969	-70.468	65.363	-15.357	-70.507	-63.032	66.466	43.943	-63.441	-56.512	-56.582	-49.068	83.689	-49.433	-8191	255	
45817.523	1	1	0	0	0.096118	0.030627	0.056882	0.1237	0.26229	0.077763	0.11724	0.10277	0.17442	0.21777	0.043059	0.17222	0.14875	0.18385	0.1682	0.29297	-2.6688	-3.2979	-2.3063	-3.2833	-3.0125	-2.7229	-3.3208	-2.7417	-2.8625	-3.2167	-2.5979	-3.2188	-3.0542	-2.4854	-3.3021	-2.7875	108.914	229.542	234.064	177.751	-60.710	94.272	227.543	132.554	229.609	12.399	-13.107	235.513	-22.356	128.474	-33.485	-39.184	0.00024495	0.00023875	6.6951e-05	1070.3	2.8639e-06	3.3696e-06	1172.2	226.76	3.7244e-06	3.8007e-06	291.39	81.397	63.226	18.287	4.8646e-06	26.054	0.00022992	0.00022943	6.4429e-05	1055.5	2.484e-06	2.5173e-06	1158.3	226.36	2.5566e-06	2.5042e-06	288.65	81.608	63.379	18.639	2.542e-06	26.176	-23.831	39.700	26.496	-70.468	81.402	-15.125	-70.433	-62.854	41.461	144.635	-63.633	-56.403	-56.146	-48.860	89.132	-50.147	-8191	255	
45817.617	1	1	0	0	0.13478	0.12836	0.27617	0.14965	0.14025	0.06863	0.31552	0.2727	0.066931	0.10379	0.2389	0.24546	0.14146	0.10423	0.13043	0.14804	-2.3833	-3.1937	-2.4875	-3.2417	-2.975	-2.5375	-3.3958	-2.7313	-2.6521	-3.3479	-2.625	-2.9938	-3.0354	-2.3271	-3.4458	-2.8521	130.242	35.782	43.851	-15.318	-18.616	27.194	181.488	243.052	47.586	250.436	-78.997	166.173	-68.773	253.641	266.621	209.064	0.00028232	0.00032445	7.4451e-05	1076.6	1.7934e-06	3.5984e-06	1183.3	228.41	3.9083e-06	1.1046e-06	292.15	81.843	63.428	18.476	7.2547e-06	25.952	0.00023443	0.00023014	6.4956e-05	1055.9	2.5894e-06	2.5987e-06	1161.6	226.99	2.6176e-06	2.5964e-06	288.72	81.746	63.414	18.682	2.5744e-06	26.242	-28.261	-19.885	36.353	-70.585	36.158	27.186	-70.569	-63.337	56.030	143.169	-63.579	-56.399	-56.085	-49.431	100.321	-50.066	-8191	255	
45817.738	1	1	0	0	0.23031	0.12649	0.11045	0.094244	0.14621	0.076906	0.1825	0.23333	0.29616	0.21041	0.17355	0.17663	0.13241	0.36849	0.12606	0.30148	-2.3312	-3.1458	-2.6083	-2.9917	-3.2292	-2.5542	-3.4104	-2.9396	-2.5042	-3.3271	-2.8375	-2.9208	-3.3146	-2.5083	-3.2812	-2.8583	82.714	13.026	59.485	128.425	-11.330	145.692	155.870	213.523	95.173	231.359	128.713	-12.775	38.350	269.227	43.464	84.124	0.00019354	0.0002933	0.00016727	1072.4	2.5969e-06	2.3108e-06	1179.9	228.93	4.1676e-06	3.0655e-06	290.23	81.585	63.558	18.575	2.9715e-06	26.019	0.00023791	0.00023408	6.6052e-05	1055.9	2.6355e-06	2.6215e-06	1159.7	226.58	2.6233e-06	2.5411e-06	288.35	81.669	63.511	18.667	2.5941e-06	26.285	-28.535	1.138	14.483	-70.521	34.862	50.691	-70.543	-63.130	31.831	24.215	-63.515	-56.652	-56.325	-49.366	98.977	-49.510	-8191	255	
45817.836	1	1	0	0	0.2973	0.28405	0.29059	0.23445	0.10737	0.16574	0.099839	0.10654	0.1929	0.056073	0.12929	0.12974	0.081642	0.17906	0.11114	0.057477	-2.0208	-3.325	-2.6021	-3.0208	-3.1917	-2.4125	-3.2979	-3.1562	-2.45	-3.2604	-2.8458	-2.9125	-3.2771	-2.3312	-3.125	-3.0896	-74.626	-30.201	8.919	-74.590	-72.080	65.126	260.381	61.314	-22.587	117.479	233.497	113.321	242.051	-7.722	124.281	215.006	0.00011477	0.00016006	0.00015133	1075	2.4503e-06	3.8756e-06	1181.2	228.74	3.5521e-06	4.7455e-06	292.03	81.407	63.061	18.433	3.7395e-06	25.925	0.00023985	0.00023494	6.6869e-05	1057.3	2.6095e-06	2.5921e-06	1160.7	226.89	2.6144e-06	2.5684e-06	288.63	81.579	63.311	18.682	2.553e-06	26.273	-1.792	14.895	23.833	-70.688	30.031	61.222	-70.218	-62.920	133.436	85.296	-63.377	-56.615	-56.381	-49.256	87.166	-49.686	-8191	255	
45817.930	1	1	0	0	0.18011	0.38378	0.08749	0.246	0.11896	0.031786	0.11103	0.19559	0.059746	0.20191	0.17792	0.2123	0.096595	0.11335	0.30045	0.089365	-2.1104	-3.2208	-2.5333	-2.9125	-3.3812	-2.4521	-3.3375	-3.0479	-2.5229	-3.2979	-2.6542	-2.6437	-3.2521	-2.5854	-3.0333	-3.1104	91.728	111.227	60.982	-62.935	-8.539	146.227	135.063	269.361	277.835	178.307	-54.751	178.071	270.675	160.379	21.260	130.447	0.00021522	0.0003917	0.00010839	1074.4	4.5202e-06	4.0473e-06	1177.1	226.94	1.6848e-06	3.5237e-06	292.14	81.364	63.506	18.39	3.2104e-06	25.93	0.00023972	0.00023334	6.5633e-05	1056.8	2.6086e-06	2.6216e-06	1158.8	226.26	2.5819e-06	2.5653e-06	289.1	81.698	63.459	18.67	2.5843e-06	26.273	-43.173	39.206	29.220	-70.630	72.776	66.138	-70.466	-63.104	66.649	52.599	-63.347	-56.668	-56.163	-49.327	80.822	-49.953	-8191	255	
45818.027	1	1	0	0	0.3091	0.21733	0.19227	0.13289	0.17231	0.17635	0.15715	0.17954	0.060705	0.020841	0.20991	0.059629	0.042131	0.14109	0.15337	0.14903	-1.9917	-3.2229	-2.9	-2.6854	-3.4125	-2.5604	-3.0354	-3.2938	-2.5625	-3.2812	-2.9	-2.5687	-3.3667	-2.7292	-2.9062	-3.2708	266.874	260.320	233.663	251.915	72.758	240.329	192.119	263.914	-77.666	72.223	155.867	217.998	190.019	0.163	-32.284	29.805	0.00015734	0.0002065	8.5134e-05	1073.2	1.1698e-06	5.2287e-06	1183.2	227.28	1.462e-06	1.9297e-06	292.1	81.563	63.503	18.331	6.4332e-06	26.033	0.00023778	0.00022939	6.6181e-05	1057.5	2.578e-06	2.5941e-06	1159.7	226.4	2.6428e-06	2.5625e-06	288.91	81.829	63.439	18.644	2.5539e-06	26.343	-19.358	-28.647	108.814	-70.524	153.943	112.884	-70.366	-63.124	74.461	99.608	-63.737	-56.835	-56.337	-49.277	84.037	-50.029	-8191	255	
45818.121	1	1	0	0	0.054916	0.37254	0.085237	0.081626	0.25439	0.072016	0.2355	0.44085	0.14636	0.05324	0.3141	0.18349	0.14729	0.11613	0.035501	0.2759	-2.2438	-3.2938	-2.9854	-2.6875	-3.2729	-2.7812	-3	-3.3812	-2.525	-3.1604	-3.1604	-2.5396	-3.3229	-2.7229	-2.6604	-3.4583	101.800	64.601	189.555	203.923	-66.794	-42.553	168.564	239.971	166.179	102.839	185.545	-78.288	163.695	111.280	109.337	259.076	0.00019216	0.00032811	0.00010499	1074.4	3.4382e-06	3.7218e-06	1174.6	227.99	8.1842e-07	4.6004e-06	290.44	80.883	63.362	18.283	4.2623e-06	25.977	0.00024314	0.00023666	6.5026e-05	1056.8	2.6295e-06	2.5929e-06	1159	226.76	2.656e-06	2.6553e-06	288.84	81.665	63.439	18.64	2.6626e-06	26.273	-10.640	-26.379	-28.168	-70.518	86.677	59.044	-70.524	-63.017	-75.461	41.401	-63.582	-56.427	-56.351	-49.542	160.757	-49.764	-8191	255	
#DATA ENDS
