BOXY.EXE: ISS Imagent and Oximeter Data Acquisition Program Version 0.80
Ascii Record File

#ACQ INFORMATION
2  Detector Channels 
16  External MUX Channels 
1  Auxiliary Channels 
5000  Waveform (CCF) Frequency (Hz)
1  Waveforms Skipped 
30  Waveforms Averaged 
1  Cycles Averaged 
16  Acquisitions per Waveform 
10.0806  Updata Rate (Hz) 

#FILE INFORMATION
TRUE -- External MUX Channel results are PARSED.
FALSE -- AC DC and Phase are NOT grouped.
TRUE -- Companion Program Settings File CREATED.
FALSE -- AC data not excluded
FALSE -- DC data not excluded
FALSE -- Phase data not excluded
FALSE -- Auxillary Chn. data not excluded
Tab delimiters

#CALIBRATION STATE
TRUE -- Waveform Calibration Values APPLIED.


#AUX CALIBRATION VALUES
Val Type	aux-1	

Term	1.0000e+00	
Factor	0.0000e+00	


#WF CALIBRATION VALUES
A = Detector Channel
Val Type	A-AC1	A-AC2	A-AC3	A-AC4	A-AC5	A-AC6	A-AC7	A-AC8	A-AC9	A-AC10	A-AC11	A-AC12	A-AC13	A-AC14	A-AC15	A-AC16	A-DC1	A-DC2	A-DC3	A-DC4	A-DC5	A-DC6	A-DC7	A-DC8	A-DC9	A-DC10	A-DC11	A-DC12	A-DC13	A-DC14	A-DC15	A-DC16	A-Ph1	A-Ph2	A-Ph3	A-Ph4	A-Ph5	A-Ph6	A-Ph7	A-Ph8	A-Ph9	A-Ph10	A-Ph11	A-Ph12	A-Ph13	A-Ph14	A-Ph15	A-Ph16	

Term	0.00000e+00	0.00000e+00	0.00000e+00	0.00000e+00	0.00000e+00	0.00000e+00	0.00000e+00	0.00000e+00	0.00000e+00	0.00000e+00	0.00000e+00	0.00000e+00	0.00000e+00	0.00000e+00	0.00000e+00	0.00000e+00	0.00000e+00	0.00000e+00	0.00000e+00	0.00000e+00	0.00000e+00	0.00000e+00	0.00000e+00	0.00000e+00	0.00000e+00	0.00000e+00	0.00000e+00	0.00000e+00	0.00000e+00	0.00000e+00	0.00000e+00	0.00000e+00	0.00000e+00	0.00000e+00	0.00000e+00	0.00000e+00	0.00000e+00	0.00000e+00	0.00000e+00	0.00000e+00	0.00000e+00	0.00000e+00	0.00000e+00	0.00000e+00	0.00000e+00	0.00000e+00	0.00000e+00	0.00000e+00	
Factor	1.00000e+00	1.00000e+00	1.00000e+00	1.00000e+00	1.00000e+00	1.00000e+00	1.00000e+00	1.00000e+00	1.00000e+00	1.00000e+00	1.00000e+00	1.00000e+00	1.00000e+00	1.00000e+00	1.00000e+00	1.00000e+00	1.00000e+00	1.00000e+00	1.00000e+00	1.00000e+00	1.00000e+00	1.00000e+00	1.00000e+00	1.00000e+00	1.00000e+00	1.00000e+00	1.00000e+00	1.00000e+00	1.00000e+00	1.00000e+00	1.00000e+00	1.00000e+00	X	X	X	X	X	X	X	X	X	X	X	X	X	X	X	X	

B = Detector Channel
Val Type	B-AC1	B-AC2	B-AC3	B-AC4	B-AC5	B-AC6	B-AC7	B-AC8	B-AC9	B-AC10	B-AC11	B-AC12	B-AC13	B-AC14	B-AC15	B-AC16	B-DC1	B-DC2	B-DC3	B-DC4	B-DC5	B-DC6	B-DC7	B-DC8	B-DC9	B-DC10	B-DC11	B-DC12	B-DC13	B-DC14	B-DC15	B-DC16	B-Ph1	B-Ph2	B-Ph3	B-Ph4	B-Ph5	B-Ph6	B-Ph7	B-Ph8	B-Ph9	B-Ph10	B-Ph11	B-Ph12	B-Ph13	B-Ph14	B-Ph15	B-Ph16	

Term	0.00000e+00	0.00000e+00	0.00000e+00	0.00000e+00	0.00000e+00	0.00000e+00	0.00000e+00	0.00000e+00	0.00000e+00	0.00000e+00	0.00000e+00	0.00000e+00	0.00000e+00	0.00000e+00	0.00000e+00	0.00000e+00	0.00000e+00	0.00000e+00	0.00000e+00	0.00000e+00	0.00000e+00	0.00000e+00	0.00000e+00	0.00000e+00	0.00000e+00	0.00000e+00	0.00000e+00	0.00000e+00	0.00000e+00	0.00000e+00	0.00000e+00	0.00000e+00	-5.39519e+01	-1.20249e+02	-1.18298e+02	-1.81389e+02	-4.31425e+01	-6.62439e+01	-1.58480e+02	-1.62015e+02	-4.06269e+01	-6.41590e+01	-1.70493e+02	-1.69859e+02	-1.80780e+02	-1.76520e+02	-5.86099e+01	-1.49332e+02	
Factor	1.98062e-05	1.68167e-04	4.94974e-05	1.66526e-01	1.74080e-06	1.74117e-06	1.86734e-01	6.19479e-02	1.34097e-06	1.65747e-06	9.69286e-02	3.24366e-02	2.70990e-02	9.71051e-03	1.63304e-06	1.37319e-02	6.23419e-06	7.90621e-06	2.20416e-06	8.30113e-02	8.34494e-08	8.73136e-08	8.74601e-02	3.09545e-02	8.37774e-08	8.70958e-08	4.68922e-02	1.57875e-02	1.36570e-02	4.89657e-03	8.48302e-08	6.69651e-03	X	X	X	X	X	X	X	X	X	X	X	X	X	X	X	X	



#DISTANCE SETTINGS
A = Detector Channel
A-1	A-2	A-3	A-4	A-5	A-6	A-7	A-8	A-9	A-10	A-11	A-12	A-13	A-14	A-15	A-16	

2.5000e+00	3.0000e+00	2.5000e+00	3.0000e+00	2.0000e+00	3.0000e+00	1.5000e+00	3.0000e+00	3.0000e+00	3.0000e+00	3.0000e+00	3.0000e+00	3.0000e+00	3.0000e+00	1.5000e+00	3.0000e+00	

B = Detector Channel
B-1	B-2	B-3	B-4	B-5	B-6	B-7	B-8	B-9	B-10	B-11	B-12	B-13	B-14	B-15	B-16	

1.0000e+01	1.0000e+01	1.0000e+01	1.4400e+00	1.0000e+01	1.0000e+01	1.5100e+00	1.9400e+00	1.0000e+01	1.0000e+01	1.9900e+00	2.4900e+00	2.4100e+00	2.9000e+00	1.0000e+01	2.9800e+00	




#DATA BEGINS
time	group	step	mark	flag	A-AC1	A-AC2	A-AC3	A-AC4	A-AC5	A-AC6	A-AC7	A-AC8	A-AC9	A-AC10	A-AC11	A-AC12	A-AC13	A-AC14	A-AC15	A-AC16	A-DC1	A-DC2	A-DC3	A-DC4	A-DC5	A-DC6	A-DC7	A-DC8	A-DC9	A-DC10	A-DC11	A-DC12	A-DC13	A-DC14	A-DC15	A-DC16	A-Ph1	A-Ph2	A-Ph3	A-Ph4	A-Ph5	A-Ph6	A-Ph7	A-Ph8	A-Ph9	A-Ph10	A-Ph11	A-Ph12	A-Ph13	A-Ph14	A-Ph15	A-Ph16	B-AC1	B-AC2	B-AC3	B-AC4	B-AC5	B-AC6	B-AC7	B-AC8	B-AC9	B-AC10	B-AC11	B-AC12	B-AC13	B-AC14	B-AC15	B-AC16	B-DC1	B-DC2	B-DC3	B-DC4	B-DC5	B-DC6	B-DC7	B-DC8	B-DC9	B-DC10	B-DC11	B-DC12	B-DC13	B-DC14	B-DC15	B-DC16	B-Ph1	B-Ph2	B-Ph3	B-Ph4	B-Ph5	B-Ph6	B-Ph7	B-Ph8	B-Ph9	B-Ph10	B-Ph11	B-Ph12	B-Ph13	B-Ph14	B-Ph15	B-Ph16	aux-1	digaux	

46136.707	1	1	0	512	0.078846	0.20503	0.12679	0.075473	0.26424	0.071931	0.36664	0.13651	0.30861	0.20268	0.20636	0.24981	0.42214	0.25763	0.19169	0.16505	-2.2271	-3.2229	-2.9938	-2.7458	-3.5563	-2.8542	-3.0479	-3.6896	-2.5333	-3.1437	-3.4813	-2.7208	-3.4521	-3.0083	-2.9708	-3.5042	423.783	337.586	256.873	506.797	210.127	333.846	455.913	286.105	462.532	189.143	465.373	525.418	494.752	172.900	395.594	202.134	0.0010987	0.00086441	0.00038719	1029.1	6.3712e-06	8.5047e-06	960.6	415.41	6.1843e-06	6.4627e-06	430.8	185.42	168.76	82.428	8.3701e-06	103.22	0.00098973	0.00097582	0.00026683	976.02	1.0521e-05	1.0509e-05	910.21	394.33	1.0233e-05	1.0171e-05	410.4	176.71	161.31	79.26	1.0313e-05	99.071	268.812	244.438	273.422	178.802	356.164	297.243	177.767	183.967	365.909	293.248	181.958	186.282	188.063	192.729	304.052	189.965	-8191	255	
46136.801	1	1	0	0	0.16374	0.077535	0.17773	0.21523	0.21965	0.31333	0.19886	0.22316	0.06213	0.075461	0.31712	0.11273	0.17502	0.18961	0.12687	0.14881	-2.1604	-3.1562	-3.0875	-2.7083	-3.4271	-2.9188	-2.9583	-3.6583	-2.6646	-2.9917	-3.1958	-2.5771	-3.4729	-3.0208	-2.5563	-3.7062	283.278	246.565	230.778	509.662	475.435	464.746	362.583	467.805	245.968	454.755	430.034	456.676	167.270	508.655	401.097	503.419	0.001048	0.00090821	0.00012844	1032.7	7.8045e-06	7.946e-06	965.41	415.45	6.8514e-06	5.2451e-06	434.61	186.09	170.29	83.123	6.9787e-06	104.39	0.00096992	0.00092751	0.00026129	978.53	1.0275e-05	1.0066e-05	913.77	395.38	9.8774e-06	9.9616e-06	413.3	177.72	162.67	80.042	1.0109e-05	100.08	270.707	269.567	286.039	179.007	347.350	293.987	177.707	183.958	329.347	318.701	181.834	186.180	187.888	192.940	312.654	190.141	-8191	255	
46136.898	1	1	0	0	0.17562	0.14883	0.065758	0.21939	0.052176	0.21703	0.2009	0.24161	0.018244	0.05376	0.079419	0.1666	0.26238	0.11537	0.12865	0.082424	-2.3479	-3.0125	-3.3771	-2.6896	-3.2083	-3.0312	-2.8042	-3.5979	-2.975	-2.9042	-3.55	-2.7646	-3.3958	-3.3667	-2.6188	-3.4771	192.189	467.534	412.310	187.589	294.232	489.058	336.867	506.411	376.111	445.772	393.434	419.568	198.565	497.429	237.797	397.471	0.0010365	0.00096726	0.00022554	1033.9	1.3042e-05	7.7746e-06	971.85	417.68	4.9856e-06	3.397e-08	436.79	188.32	170.49	84.084	1.0723e-05	106	0.00097312	0.00092689	0.00025493	982.18	9.9588e-06	1.013e-05	921.14	398.22	9.9194e-06	1.033e-05	416.35	179.83	163.49	80.82	1.0219e-05	101.46	269.063	272.953	275.155	178.954	341.678	338.383	177.989	184.141	314.300	192.298	181.678	186.340	187.917	192.807	311.310	189.938	-8191	255	
46136.992	1	1	0	0	0.089609	0.13435	0.14414	0.1952	0.097257	0.29353	0.26326	0.20787	0.1634	0.26459	0.23914	0.15076	0.28717	0.41232	0.065949	0.18186	-2.3333	-2.8958	-3.3271	-2.7938	-3.2271	-3.3354	-2.7062	-3.5146	-2.8854	-2.8875	-3.4792	-2.6437	-3.3354	-3.3438	-2.5271	-3.6562	347.579	353.587	452.598	524.304	396.454	478.347	172.980	474.928	462.016	312.385	450.205	186.306	481.627	503.359	464.890	494.697	0.0011725	0.0010632	0.00031323	1042.1	1.2591e-05	9.9736e-06	975.42	418.96	9.1639e-06	8.708e-06	439.88	186.8	171.76	83.614	1.1142e-05	104.68	0.0009956	0.0009417	0.00025444	985.97	1.0062e-05	1.0208e-05	922.76	398.66	9.9819e-06	1.0346e-05	417.12	179.03	163.85	80.479	1.0069e-05	100.39	272.511	260.574	270.350	178.993	315.531	308.213	177.809	183.975	329.197	281.643	181.631	186.440	188.149	192.714	306.147	190.048	-8191	255	
46137.090	1	1	0	0	0.13865	0.21271	0.12668	0.1103	0.18911	0.073526	0.095592	0.34526	0.22314	0.058631	0.36029	0.21598	0.12469	0.2085	0.2333	0.09859	-2.5458	-2.7729	-3.4562	-2.675	-3.0625	-3.4167	-2.8625	-3.5229	-3.1833	-2.6792	-3.7396	-2.8375	-3.2396	-3.6146	-2.6979	-3.5021	469.591	510.918	303.654	481.275	449.154	175.709	303.197	437.396	260.415	375.891	511.749	516.181	386.980	487.593	417.663	189.265	0.0010993	0.00084779	0.00019393	1030.4	1.4245e-05	2.8749e-06	971.14	417.27	1.2102e-05	6.7868e-06	432.5	185.1	169.95	82.998	9.7231e-06	103.76	0.00096507	0.00092539	0.00026199	979.36	9.9345e-06	1.0222e-05	915.57	397.12	1.0186e-05	1.0148e-05	412.17	176.86	162.71	80.009	1.0146e-05	99.528	266.158	257.654	274.072	178.900	327.441	295.547	177.629	183.809	329.325	340.824	181.768	186.426	188.451	192.894	302.005	190.082	-8191	255	
46137.188	1	1	0	0	0.090956	0.16501	0.17032	0.48143	0.12695	0.020762	0.29942	0.14746	0.038662	0.10159	0.23835	0.37528	0.12321	0.25663	0.12649	0.21794	-2.6437	-2.7521	-3.5312	-2.9146	-2.8875	-3.6854	-2.7771	-3.5833	-3.0729	-2.6854	-3.5583	-2.9833	-3.0812	-3.6667	-2.7	-3.3521	343.882	479.373	512.432	174.746	224.696	462.951	453.309	507.868	269.481	349.233	512.892	523.419	476.215	509.084	408.044	495.999	0.001085	0.00056828	0.0002704	1034.3	9.3914e-06	7.3193e-06	965.4	415.27	2.577e-06	1.2131e-05	432.39	185.05	170.19	83.477	8.1154e-06	103.62	0.0009621	0.00092038	0.00026032	980.07	9.9293e-06	9.8364e-06	915.39	396.88	9.9208e-06	1.0057e-05	411.3	177.2	162.56	80.217	9.9497e-06	99.572	269.394	211.171	266.556	178.697	297.671	336.359	177.632	184.016	303.142	326.806	181.653	186.177	188.010	192.821	300.799	189.971	-8191	255	
46137.305	1	1	0	0	0.15146	0.28056	0.29549	0.23166	0.21374	0.1584	0.23541	0.1823	0.077911	0.2736	0.27959	0.1621	0.089199	0.25828	0.14976	0.20117	-2.8937	-2.5396	-3.4021	-2.9104	-2.7583	-3.3875	-2.6625	-3.2146	-3.3542	-2.5958	-3.3625	-2.8354	-2.9479	-3.5125	-2.6979	-3.2333	237.244	502.364	314.801	471.246	489.823	253.030	490.544	475.870	350.405	198.790	227.065	426.261	168.282	501.226	178.874	443.974	0.0010705	0.00064713	0.00030741	1032.4	1.1642e-05	8.3143e-06	970.31	417.49	8.3944e-06	9.4676e-06	435.44	184.96	169.99	83.569	1.0948e-05	104.28	0.00095223	0.00092196	0.00025994	982.36	9.8816e-06	1.0227e-05	919.12	398.18	9.8032e-06	9.9708e-06	414.2	177.43	162.68	80.49	1.0114e-05	100.18	268.642	295.240	259.861	179.029	332.301	300.058	177.857	184.153	344.800	324.150	182.073	186.373	188.204	192.964	328.382	190.139	-8191	255	
46137.402	1	1	0	0	0.06219	0.039361	0.072254	0.22637	0.19467	0.18523	0.12112	0.22333	0.24433	0.16112	0.20299	0.32574	0.13396	0.18975	0.22732	0.1833	-2.9	-2.6208	-3.2646	-3.1896	-2.8375	-3.4542	-2.7875	-3.025	-3.3812	-2.6479	-3.4021	-3.0396	-2.6437	-3.6479	-2.6042	-3.1208	431.213	193.956	313.625	433.789	497.593	515.303	500.389	450.134	242.893	367.922	447.458	461.445	401.408	514.058	213.999	482.621	0.0011306	0.0009855	0.00032571	1040.6	7.6046e-06	5.372e-06	969.27	417.31	7.0888e-06	6.3876e-06	432.04	185.08	171.44	83.583	6.9908e-06	104.01	0.00096774	0.00093731	0.00025359	985.65	9.8475e-06	1.0025e-05	918.88	398.09	1.0015e-05	1.0355e-05	411.96	176.73	163.31	80.542	1.0209e-05	99.918	266.579	283.129	243.959	178.845	313.812	283.272	177.795	184.151	306.031	312.412	182.154	186.114	188.344	192.837	300.096	190.216	-8191	255	
46137.496	1	1	0	0	0.12997	0.044494	0.075737	0.10509	0.22013	0.23605	0.25362	0.21825	0.20774	0.10833	0.15826	0.22629	0.16889	0.20558	0.21362	0.16668	-3.1583	-2.5792	-3.1896	-3.2396	-2.5792	-3.3688	-2.9979	-2.8667	-3.3479	-2.5292	-3.0625	-3.0563	-2.7146	-3.5958	-2.8542	-2.9125	272.001	411.839	409.924	264.964	352.642	426.778	451.391	463.774	237.356	229.461	172.435	198.874	482.447	179.550	481.480	446.409	0.0010607	0.00061039	0.00024975	1038.1	9.3047e-06	7.7582e-06	963.45	418.7	7.3023e-06	6.939e-06	434.32	186.23	171.54	84.925	1.0542e-05	105.43	0.00097214	0.00094347	0.0002568	985.68	1.0127e-05	1.0311e-05	914.72	399.37	1.04e-05	1.0594e-05	413.62	178.1	164.76	82	1.0694e-05	101.15	268.545	247.420	262.322	178.613	334.634	288.402	177.522	184.201	310.955	343.712	182.060	186.179	188.263	192.762	313.906	190.103	-8191	255	
46137.594	1	1	0	0	0.14536	0.083049	0.1413	0.17406	0.2331	0.21882	0.20587	0.35156	0.11383	0.15096	0.18612	0.17691	0.20981	0.17427	0.24887	0.23294	-3.1437	-2.5687	-3.1354	-3.3625	-2.7708	-3.2833	-3.1521	-2.8312	-3.3396	-2.5396	-3.1708	-3.4083	-2.6146	-3.5875	-2.9354	-2.8521	211.427	495.858	422.106	483.399	399.411	429.193	351.659	452.305	452.987	334.478	471.466	482.012	452.700	207.136	304.681	452.592	0.0010651	0.0010634	0.00039396	1038.6	3.1831e-06	8.5145e-06	959.85	420.08	6.4951e-06	4.3419e-06	429.06	184.83	171.15	85.117	5.2481e-06	105.1	0.0010161	0.00098432	0.00027241	984.72	1.0533e-05	1.071e-05	911.02	400.08	1.0388e-05	1.0743e-05	410.48	177.33	164.14	81.987	1.0438e-05	101.02	268.639	269.724	264.168	178.800	353.684	290.453	177.654	184.156	331.526	339.194	182.130	186.636	187.998	192.995	333.135	190.026	-8191	255	
46137.715	1	1	0	0	0.13981	0.18702	0.18206	0.43123	0.089502	0.13839	0.26455	0.48224	0.12775	0.34223	0.069429	0.23823	0.22414	0.37973	0.18084	0.089482	-3.1688	-2.5812	-3.0062	-3.6292	-2.7146	-3.4479	-3.0938	-2.8458	-3.525	-2.7229	-2.9979	-3.4688	-2.6562	-3.5083	-3.1229	-2.6792	508.492	439.513	298.826	507.154	184.105	371.259	463.158	173.990	307.491	392.446	206.709	503.851	367.184	464.435	200.381	214.119	0.0011006	0.00083576	0.00023712	1037.1	1.6062e-05	8.4916e-06	966.73	418.39	1.0676e-05	9.3499e-06	433.81	185.48	171.77	84.721	1.0372e-05	105.28	0.00098156	0.00095887	0.00026693	989.19	1.0044e-05	1.0445e-05	916.33	399.96	1.0092e-05	1.0412e-05	413.74	178.47	164.58	82.084	1.0419e-05	101.71	269.837	287.885	265.464	179.029	331.331	281.825	177.783	184.062	339.765	304.792	181.801	186.304	188.182	193.017	306.828	189.946	-8191	255	
46137.785	1	1	0	0	0.20759	0.10497	0.075973	0.21436	0.27165	0.13344	0.1391	0.26462	0.089674	0.28323	0.26666	0.19019	0.19294	0.21969	0.17061	0.32746	-2.9708	-2.775	-2.7104	-3.425	-2.5042	-3.0917	-3.3771	-2.7521	-3.3958	-2.8729	-2.8937	-3.625	-2.6479	-3.2875	-3.1937	-2.7687	465.959	266.479	466.423	274.034	416.081	247.615	389.562	466.100	456.153	320.101	395.168	426.025	511.271	465.735	306.320	447.267	0.0011017	0.00069553	0.0002567	1045.1	6.9907e-06	1.0808e-05	968.86	420.08	6.7074e-06	1.1579e-05	431.84	185.58	172.4	85.311	1.2577e-05	105.38	0.0009852	0.00094435	0.00025914	992.77	1.0004e-05	1.0265e-05	918.06	401.13	1.0049e-05	1.0137e-05	412.98	178.24	165.37	82.345	9.9393e-06	101.39	271.811	280.937	226.805	178.792	309.259	343.096	177.635	184.187	349.180	306.098	182.311	186.200	188.559	192.950	296.280	190.138	-8191	255	
46137.906	1	1	0	0	0.12195	0.10643	0.089291	0.047569	0.3653	0.031682	0.2178	0.084568	0.20253	0.035163	0.21104	0.099078	0.22615	0.23917	0.12449	0.20832	-2.9833	-2.7729	-2.6125	-3.4375	-2.6771	-3.1375	-3.3229	-2.5833	-3.1375	-2.9646	-2.65	-3.4958	-2.625	-3.2667	-3.25	-2.8	449.728	179.996	517.250	216.226	311.180	461.951	515.823	225.025	325.626	257.870	225.184	377.445	430.737	477.052	330.461	492.010	0.0011116	0.0010624	0.00031254	1042.6	6.78e-06	7.6274e-06	966.15	420	1.0461e-05	5.5305e-06	430.67	185.71	172.33	85.265	1.0444e-05	104.86	0.00097721	0.00093679	0.00025829	993.03	9.7643e-06	1.0015e-05	920.31	401.47	9.6611e-06	9.7493e-06	412.7	177.8	165.14	82.339	9.7624e-06	100.97	269.161	257.859	246.062	178.974	312.812	313.535	177.753	183.992	345.190	365.237	182.031	186.149	188.040	193.061	313.403	189.959	-8191	255	
46138.004	1	1	0	0	0.1764	0.30547	0.1861	0.33261	0.18673	0.27378	0.44038	0.30195	0.30314	0.084381	0.11143	0.2442	0.076285	0.31797	0.20143	0.085047	-3.0438	-3.1021	-2.4542	-3.6271	-2.6792	-2.9146	-3.4938	-2.5896	-3.2062	-3.1229	-2.5792	-3.4437	-2.9875	-2.9396	-3.3771	-2.6813	386.030	218.585	487.540	517.009	437.691	497.052	429.063	481.712	456.045	288.079	457.444	468.158	487.795	515.443	464.714	447.411	0.0011242	0.00049077	0.00031961	1047.6	1.1974e-05	7.7888e-06	968.56	418.93	9.4394e-06	9.5234e-06	434.18	186.33	172.76	85.599	9.6738e-06	105.6	0.00095286	0.00089688	0.00024968	994.18	9.6885e-06	9.9761e-06	921.31	401.21	9.7341e-06	9.6268e-06	414.63	178.28	165.3	82.544	9.888e-06	101.67	271.836	261.942	248.880	178.957	353.366	322.445	177.863	184.183	328.046	292.586	181.935	186.353	188.357	192.855	313.618	190.000	-8191	255	
46138.098	1	1	0	0	0.091294	0.052901	0.2392	0.27629	0.092778	0.076157	0.22342	0.33619	0.15294	0.020546	0.2794	0.15023	0.18445	0.3607	0.12763	0.35167	-2.9333	-3.0979	-2.7	-3.5062	-2.7833	-2.7562	-3.4625	-2.8708	-3.0792	-3.1854	-2.6458	-3.375	-3	-2.8917	-3.3792	-2.9625	347.191	278.924	433.397	493.740	473.737	449.809	483.436	441.534	191.058	354.723	441.508	477.835	477.505	510.877	260.259	455.297	0.0011126	0.0010695	0.00010285	1044.9	1.1661e-05	6.3604e-06	969.21	420.18	9.7313e-06	6.2275e-06	434.56	186.85	172.99	85.556	1.1081e-05	105.65	0.00095995	0.0009036	0.00024845	996.25	9.6219e-06	9.7507e-06	924.19	403.28	9.7632e-06	9.7549e-06	414.87	179.12	165.64	82.663	9.7007e-06	101.93	271.050	271.410	191.117	178.936	340.313	253.075	177.898	183.875	313.922	279.194	182.002	186.240	188.084	192.987	322.766	189.839	-8191	255	
46138.195	1	1	0	0	0.10823	0.17628	0.41676	0.066682	0.067284	0.04577	0.1147	0.23838	0.16584	0.11248	0.31952	0.13806	0.052743	0.14486	0.038137	0.16291	-2.5042	-3.3375	-2.5104	-3.2583	-3.0167	-2.6458	-3.5854	-2.9062	-2.8333	-3.3104	-2.5729	-3.3354	-3.2	-2.9104	-3.5292	-2.9667	354.445	347.664	211.546	512.274	441.844	272.152	366.996	448.197	336.097	494.228	477.615	495.525	220.114	171.058	169.062	468.288	0.0011066	0.00039222	0.00027379	1045.4	1.0567e-05	6.941e-06	967.17	420.16	1.0037e-05	5.3621e-06	432.14	186	172.42	85.351	9.0806e-06	104.47	0.00096178	0.00090185	0.00025435	996.8	9.7003e-06	9.8466e-06	922.26	402.36	9.8538e-06	9.8177e-06	412.5	178.31	165.71	82.477	9.8269e-06	100.96	266.050	254.590	260.331	178.894	307.768	301.108	177.916	184.057	321.425	348.498	182.129	186.289	188.031	192.924	301.445	190.022	-8191	255	
46138.289	1	1	0	0	0.18693	0.19257	0.08757	0.03655	0.11698	0.1079	0.22027	0.027544	0.1316	0.16745	0.087165	0.14427	0.10396	0.25759	0.29809	0.33277	-2.3375	-3.3521	-2.5854	-3.4146	-3.1042	-2.5583	-3.5958	-2.9208	-2.8417	-3.4771	-2.7771	-3.0375	-3.1396	-2.7604	-3.2521	-2.8521	194.242	268.355	230.572	186.321	317.009	495.313	504.858	318.597	349.400	397.263	420.570	472.301	453.387	479.818	404.757	360.193	0.0011234	0.00083853	0.00027409	1050.8	5.1033e-06	8.402e-06	966.36	420.63	6.4602e-06	8.7363e-06	430.13	184.86	172.2	85.146	7.6407e-06	104.61	0.00095626	0.0009023	0.0002553	999.06	9.7512e-06	9.8419e-06	919.29	402.23	9.902e-06	9.9046e-06	412.31	177.89	165.23	82.268	9.7843e-06	100.76	270.093	224.919	263.768	179.033	344.687	281.731	177.835	184.222	284.204	326.726	182.057	186.209	188.265	193.059	329.122	190.086	-8191	255	
46138.387	1	1	0	0	0.27058	0.14459	0.13389	0.092758	0.069175	0.2651	0.012146	0.33917	0.080984	0.18667	0.23429	0.093988	0.26165	0.059176	0.1208	0.19457	-2.3438	-3.2938	-2.6021	-3.3542	-3.3083	-2.4875	-3.5021	-3.0854	-2.6083	-3.4021	-2.7542	-3.1688	-3.3458	-2.7292	-3.4229	-3.2125	285.694	229.616	253.357	180.651	508.828	335.882	365.766	184.501	424.863	169.184	514.064	448.751	330.975	175.008	207.527	423.638	0.0010816	0.00078395	0.00014138	1043.7	1.1403e-05	9.5959e-06	969.45	419.88	8.4867e-06	2.9846e-06	431.17	184.5	171.87	85.298	5.8429e-06	104.68	0.00096118	0.0008949	0.00025333	994.65	9.6054e-06	9.9805e-06	921.84	401.55	9.7131e-06	9.905e-06	412.91	177.42	165.1	82.373	9.8205e-06	101.08	271.066	223.929	293.449	179.071	294.767	292.510	177.864	184.161	325.924	280.653	181.965	186.392	188.287	192.964	282.731	189.942	-8191	255	
46138.480	1	1	0	0	0.11918	0.033158	0.10911	0.15276	0.16469	0.13306	0.19745	0.20569	0.29891	0.15946	0.3474	0.040013	0.11342	0.35641	0.047057	0.20867	-2.4729	-3.2125	-2.4354	-3.0833	-3.575	-2.6	-3.3104	-3.1771	-2.6875	-3.5333	-2.8625	-2.8438	-3.5729	-2.7729	-3.2146	-3.4646	316.998	481.947	285.153	248.542	476.767	524.382	413.343	452.821	209.040	295.934	467.532	392.828	166.849	439.986	243.554	493.184	0.0011335	0.00083858	0.00030826	1054.7	8.627e-06	5.6292e-06	977.26	422.74	7.6427e-06	7.074e-06	433.47	186.61	173.25	85.413	1.1586e-05	104.58	0.00095501	0.00091623	0.00025523	999.12	9.68e-06	1.0142e-05	925.46	403.18	9.9215e-06	9.9378e-06	414.4	178.25	165.54	82.374	9.9817e-06	100.81	268.423	290.227	244.830	178.876	338.331	352.748	178.049	184.305	314.500	276.665	181.925	186.274	188.017	192.776	295.564	189.831	-8191	255	
46138.578	1	1	0	0	0.26224	0.057985	0.096318	0.17132	0.03856	0.14413	0.060925	0.12588	0.19963	0.1051	0.24626	0.15788	0.06943	0.2022	0.14434	0.2291	-2.1229	-3.4021	-2.9771	-2.8479	-3.3292	-2.6771	-3.225	-3.2646	-2.6437	-3.375	-3.0729	-2.775	-3.6312	-2.9396	-2.8438	-3.4229	368.983	356.372	182.011	331.126	501.840	245.032	467.347	441.109	470.317	497.614	332.915	491.521	342.650	358.544	288.501	496.570	0.0011143	0.0010765	0.00031157	1048.3	5.1004e-06	5.4751e-06	966.43	421.79	6.5201e-06	7.5699e-06	432.95	184.71	172.33	84.666	3.542e-06	103.84	0.00097151	0.00091203	0.00025228	995.91	9.6794e-06	1.0064e-05	919.45	402.1	9.8273e-06	9.7936e-06	410.96	176.29	164.63	81.804	9.8847e-06	99.638	269.391	268.473	272.992	178.934	311.513	289.003	177.671	184.228	328.892	299.108	181.934	186.225	188.019	192.866	327.361	189.938	-8191	255	
46138.676	1	1	0	0	0.26385	0.070962	0.15418	0.091447	0.088114	0.28939	0.23174	0.22395	0.19372	0.073313	0.16863	0.11466	0.1965	0.24677	0.16181	0.48126	-2.1896	-3.2542	-2.825	-2.7625	-3.5792	-2.7083	-3.2292	-3.475	-2.7562	-3.3479	-3.3333	-2.8083	-3.4271	-2.9062	-2.8833	-3.7604	356.004	183.954	429.159	496.768	519.255	219.588	486.545	466.416	228.183	209.195	469.741	474.633	335.706	492.109	343.502	494.528	0.0010766	0.0010225	0.00022255	1046.6	9.1662e-06	6.5963e-06	962.18	421.04	6.168e-06	6.8866e-06	428.93	183.24	171.63	85.171	1.2067e-05	103.98	0.00094762	0.00089744	0.00025187	994.44	9.5882e-06	9.9488e-06	915.12	401.1	9.6553e-06	9.9875e-06	408.77	175.69	164.41	81.692	1.0004e-05	99.592	269.980	249.954	296.069	179.121	279.418	321.091	177.811	184.201	326.346	350.382	182.153	186.318	188.099	193.034	278.290	189.936	-8191	255	
46138.797	1	1	0	0	0.45592	0.22199	0.15909	0.20053	0.034007	0.22107	0.14859	0.15511	0.16837	0.12496	0.19232	0.36497	0.17129	0.23114	0.1366	0.38453	-2.1875	-3.2729	-3.0187	-2.7229	-3.3854	-2.7458	-2.9917	-3.6188	-2.6417	-3.1583	-3.2271	-2.7062	-3.5208	-3.0667	-2.8312	-3.6562	500.199	422.736	251.488	444.207	394.353	435.482	309.814	499.936	183.953	258.384	252.213	525.263	467.489	186.047	298.617	474.113	0.001045	0.00062577	0.00020299	1044	6.1526e-06	1.1632e-05	966.03	420.36	6.6493e-06	8.021e-06	430.06	183.31	172.73	85.201	5.0365e-06	104.04	0.00094352	0.00090496	0.00025268	993.09	9.7424e-06	9.8985e-06	917.02	401.42	9.9725e-06	1.0108e-05	410.12	175.97	165	82.038	9.8953e-06	100.13	269.988	249.799	265.910	178.951	323.191	323.003	177.539	184.214	295.710	334.692	181.685	186.444	188.221	192.939	290.090	189.889	-8191	255	
46138.891	1	1	0	0	0.19313	0.077594	0.18714	0.18947	0.17351	0.27035	0.023975	0.17339	0.1969	0.12619	0.070165	0.025887	0.20723	0.30596	0.19124	0.31228	-2.3083	-2.9104	-3.1667	-2.7438	-3.3875	-2.8458	-2.9688	-3.65	-2.75	-3.15	-3.3542	-2.7812	-3.4542	-3.1333	-2.6813	-3.6208	240.337	475.202	463.397	470.820	313.295	409.956	431.675	393.463	383.377	282.863	367.257	396.979	465.199	507.140	172.489	512.954	0.0011114	0.00056555	0.0002785	1053	8.1259e-06	6.4536e-06	969.51	423.98	1.989e-06	6.4225e-06	435.22	184.91	172.09	85.491	5.7084e-06	104.39	0.00095992	0.00091643	0.00025057	998.76	9.6996e-06	9.927e-06	921.44	403.57	9.8742e-06	9.9418e-06	413.86	177.34	165.2	82.259	9.9163e-06	100.29	269.433	322.959	241.615	178.924	328.676	313.384	177.741	183.913	310.961	330.276	181.886	186.478	188.074	193.123	299.618	189.911	-8191	255	
46138.988	1	1	0	0	0.10682	0.15918	0.1842	0.24143	0.055231	0.053596	0.13855	0.29334	0.13141	0.092207	0.041387	0.15499	0.27125	0.093572	0.097631	0.30536	-2.3792	-3.0812	-3.2396	-2.5375	-3.1437	-2.9896	-2.8417	-3.5958	-2.7333	-2.9792	-3.4417	-2.6458	-3.3875	-3.225	-2.6375	-3.5563	289.465	223.895	366.877	517.179	218.180	504.133	243.620	468.318	174.473	239.852	393.474	225.982	176.264	506.837	324.100	513.703	0.0011	0.00065517	0.00024147	1054	1.1365e-05	7.6308e-06	968.5	421.72	7.1405e-06	1.0042e-05	429.39	183.17	171.93	84.857	7.308e-06	103	0.00094513	0.00091196	0.00024788	999.58	9.438e-06	9.8661e-06	917.51	402.62	9.6649e-06	9.965e-06	409.6	175.38	164.69	81.753	9.9131e-06	99.555	269.737	261.443	285.168	178.896	344.863	342.959	177.824	184.294	322.600	329.279	181.713	186.307	188.207	192.927	289.573	190.236	-8191	255	
46139.082	1	1	0	0	0.26375	0.097272	0.055681	0.33609	0.10193	0.29848	0.024716	0.27406	0.28868	0.21814	0.2259	0.35116	0.13258	0.25252	0.37551	0.12342	-2.1958	-2.9313	-3.4062	-2.7188	-3.1458	-3.1104	-2.6208	-3.6813	-2.8312	-2.6979	-3.6229	-2.6458	-3.2646	-3.425	-2.5917	-3.7396	355.012	389.233	439.548	525.054	327.383	454.227	418.615	500.470	381.609	278.212	390.892	489.667	307.365	436.781	294.826	474.911	0.00112	0.00053041	0.00020111	1049.7	9.866e-06	1.1289e-05	969.23	420.87	1.006e-05	1.1083e-05	428.84	183.13	172.49	84.896	8.339e-06	103.55	0.00095156	0.0009019	0.00024876	998.22	9.4414e-06	9.7702e-06	916.51	402.5	9.7234e-06	9.6832e-06	410.75	175.46	164.97	81.801	9.9209e-06	99.716	271.260	254.891	246.763	178.818	329.670	323.517	177.754	184.073	334.807	318.766	181.730	186.196	188.136	192.891	305.453	190.203	-8191	255	
46139.180	1	1	0	0	0.047526	0.15215	0.11515	0.45551	0.15239	0.042743	0.14552	0.024422	0.11101	0.073627	0.20455	0.2824	0.10387	0.26735	0.17784	0.14918	-2.475	-2.6688	-3.3729	-2.6542	-3.1146	-3.3208	-2.775	-3.3542	-3.1646	-2.5438	-3.5604	-3.0521	-3.1417	-3.4271	-2.4854	-3.4104	478.476	400.871	337.119	493.035	384.604	239.708	498.119	476.825	330.815	202.143	206.398	502.365	484.536	486.021	207.940	459.557	0.0011417	0.0001784	0.0002086	1048.4	8.1368e-06	1.0136e-05	963.15	421.03	9.5338e-06	7.707e-06	429.67	183.67	172.43	84.969	1.0883e-05	104.27	0.00094084	0.00089474	0.00025248	995.85	9.7961e-06	9.8714e-06	918.29	403	9.6759e-06	1.0101e-05	410.54	176.2	165.24	82.18	9.9571e-06	100.28	271.025	167.169	275.129	179.024	317.337	279.465	177.749	184.279	315.539	297.722	181.850	186.189	188.225	192.790	333.437	190.069	-8191	255	
46139.277	1	1	0	0	0.093322	0.12348	0.16269	0.14821	0.13997	0.017859	0.40739	0.17589	0.098111	0.14568	0.17613	0.18132	0.38394	0.31081	0.15051	0.27485	-2.9021	-2.7	-3.2396	-2.8396	-2.7521	-3.3479	-2.5771	-3.2375	-3.1125	-2.6208	-3.5563	-2.9771	-3.1729	-3.5729	-2.6562	-3.4042	269.622	176.466	337.271	187.302	482.626	271.328	505.239	214.999	345.002	424.494	463.493	220.582	495.680	498.325	431.736	449.447	0.0010816	0.0006118	0.00025342	1048.2	7.7144e-06	8.5209e-06	969.95	423.73	9.5453e-06	1.0093e-05	427.98	182.86	171.69	84.951	8.2377e-06	103.9	0.00095731	0.00092628	0.00025093	997.01	9.7648e-06	9.8408e-06	920.86	403.46	9.8505e-06	1.0011e-05	410.56	175.79	165.06	82.26	9.941e-06	99.999	271.843	257.406	278.311	178.879	335.247	323.582	177.881	184.112	310.893	320.311	181.839	186.387	188.184	193.031	279.533	190.198	-8191	255	
46139.395	1	1	0	0	0.13038	0.32035	0.090313	0.23759	0.24129	0.11272	0.25076	0.11086	0.18847	0.046399	0.32357	0.19388	0.20691	0.20888	0.17767	0.33774	-2.7646	-2.5771	-3.2354	-2.8563	-2.5083	-3.5	-2.7375	-3.3417	-3.3563	-2.6271	-3.4458	-3.0604	-2.7708	-3.7042	-2.5375	-3.0479	431.902	181.940	288.928	166.919	229.211	482.721	421.549	463.777	386.570	520.880	168.277	203.504	200.030	471.810	281.476	502.867	0.0011317	0.00058613	0.00029564	1045.7	5.6425e-06	9.6151e-06	954.56	419.92	6.1979e-06	1.2194e-05	426.68	181.87	171.33	84.695	1.213e-05	102.66	0.00094187	0.00090732	0.00025135	995.34	9.6354e-06	9.9236e-06	909.26	402.06	9.4693e-06	9.8587e-06	408.18	174.52	164.79	81.926	9.6888e-06	98.739	268.903	280.381	274.818	179.000	346.897	312.459	177.989	184.381	328.719	295.054	182.028	186.364	188.283	193.084	316.851	190.247	-8191	255	
46139.492	1	1	0	0	0.042243	0.11634	0.10658	0.25552	0.32279	0.042812	0.28789	0.24848	0.2605	0.050987	0.0088409	0.11198	0.39503	0.30247	0.28573	0.37685	-2.9542	-2.5312	-3.3583	-3.1375	-2.6104	-3.425	-2.8458	-3.0896	-3.2708	-2.6167	-3.3917	-3.2208	-2.6521	-3.6188	-2.7188	-2.9104	178.854	318.830	439.033	469.907	227.361	212.598	448.282	449.476	348.213	238.781	442.518	375.962	423.735	415.916	226.048	470.342	0.0010279	0.0010536	0.00019896	1044.9	8.7123e-06	5.8188e-06	961.83	420.73	4.6075e-06	1.0442e-05	426.18	182.94	171.5	84.518	1.1172e-05	102.22	0.00093017	0.00088413	0.00024416	995.48	9.4668e-06	9.3207e-06	912.55	402.14	9.1642e-06	9.3249e-06	407.55	174.54	164.39	81.748	9.3274e-06	98.604	270.703	289.514	263.126	178.840	346.261	298.695	177.746	184.195	357.647	313.078	181.858	186.031	188.260	193.182	309.255	190.085	-8191	255	
46139.586	1	1	0	0	0.11246	0.11537	0.10698	0.29953	0.13613	0.10885	0.2562	0.095102	0.13011	0.051884	0.23646	0.041108	0.10387	0.16798	0.26779	0.25812	-2.8833	-2.5458	-3.1375	-3.0417	-2.6917	-3.2938	-2.9354	-2.9875	-3.3646	-2.4125	-3.3604	-3.3146	-2.7833	-3.3688	-2.8979	-3.0271	342.252	291.618	375.254	178.181	475.074	478.248	475.613	176.157	226.994	358.636	425.968	261.409	184.192	429.589	488.618	472.856	0.0011032	0.00073178	0.00018689	1049.9	6.7688e-06	7.3719e-06	964.42	420.1	8.1665e-06	6.2357e-06	425.86	181.36	171.23	83.625	1.4448e-05	102.22	0.00090854	0.00085349	0.00023335	996.02	8.9722e-06	9.2545e-06	914.16	401.98	8.7767e-06	9.1398e-06	407.56	173.95	163.73	80.815	9.1675e-06	97.93	272.567	267.551	299.802	178.729	330.392	363.017	177.775	184.518	347.949	326.361	182.059	186.234	188.268	193.210	301.720	190.439	-8191	255	
46139.684	1	1	0	0	0.16605	0.11023	0.14867	0.26236	0.14214	0.095334	0.26884	0.35055	0.085696	0.18246	0.17187	0.20698	0.13699	0.41089	0.047742	0.21458	-3.1833	-2.7396	-3.2042	-3.4583	-2.3479	-3.4188	-3.0438	-2.7396	-3.5708	-2.6437	-3.0271	-3.3792	-2.8875	-3.5958	-3.2292	-2.8312	186.407	504.968	500.596	181.250	450.995	349.406	486.296	498.079	195.292	383.986	199.293	506.697	212.993	510.924	210.082	432.881	0.0011037	0.00066088	0.00023606	1040.4	8.2495e-06	7.4714e-06	961.07	418.34	9.1642e-06	3.9667e-06	423.93	179.43	168.97	82.251	1.0448e-05	99.522	0.00088368	0.00085186	0.00023367	993.17	9.1047e-06	9.1969e-06	914.43	400.14	8.9122e-06	9.2039e-06	406.48	172.19	162.11	79.682	9.2758e-06	95.92	270.362	270.072	276.538	178.979	286.590	299.928	178.045	184.299	327.995	338.808	181.797	186.604	188.034	193.182	313.034	190.311	-8191	255	
46139.777	1	1	0	0	0.17144	0.30695	0.11058	0.25231	0.20821	0.25545	0.36873	0.25422	0.16101	0.22098	0.1025	0.16859	0.25144	0.09791	0.18256	0.096423	-3.1375	-2.7708	-3.0208	-3.4333	-2.4688	-3.1479	-3.1667	-2.6437	-3.3896	-2.7979	-3.1625	-3.3563	-2.8104	-3.3688	-3.1625	-2.7417	346.062	220.264	256.788	482.863	211.040	189.196	457.831	482.433	390.833	345.520	224.764	410.055	385.791	498.449	293.161	469.519	0.0010016	0.0011457	0.00028912	1037.1	1.1796e-05	8.1142e-06	956.26	415.05	5.7723e-06	5.3719e-06	420.45	177.43	166.63	81.145	6.0751e-06	97.525	0.00088727	0.00085889	0.00024229	987.8	9.4148e-06	9.6069e-06	906.06	396.62	9.4752e-06	9.6834e-06	401.88	170.2	160.56	78.33	9.8947e-06	93.923	268.492	249.914	261.881	179.071	325.763	333.023	178.022	184.294	356.806	294.514	182.185	186.228	188.124	193.402	306.263	190.208	-8191	255	
46139.875	1	1	0	0	0.10232	0.064685	0.11887	0.25636	0.056673	0.041619	0.21358	0.30142	0.10472	0.27913	0.067845	0.17892	0.42507	0.074763	0.15791	0.24855	-3.0938	-2.9333	-2.7333	-3.5979	-2.8542	-3.0917	-3.3375	-2.8	-3.35	-2.9104	-2.8354	-3.5958	-2.7167	-3.2208	-3.1688	-2.8208	450.097	337.858	250.988	519.331	324.842	199.239	485.785	448.646	471.320	168.450	200.059	259.499	478.020	448.267	452.541	437.593	0.00098343	0.0008705	0.00029556	1025.9	7.8558e-06	7.9157e-06	947.05	411.94	5.9891e-06	8.8536e-06	420.62	175.88	166.33	80.195	5.1131e-06	96.919	0.00092801	0.00090882	0.00025269	980.04	9.7949e-06	1.0275e-05	900.53	394.69	1.0171e-05	1.0128e-05	402	169.8	160.25	77.96	1.0109e-05	93.573	267.875	267.880	275.084	179.061	313.226	333.195	178.003	184.243	317.915	286.633	182.197	186.522	188.309	193.612	243.522	190.357	-8191	255	
46139.973	1	1	0	0	0.22152	0.33615	0.16241	0.1949	0.053799	0.24385	0.051765	0.088084	0.030605	0.2934	0.27155	0.24519	0.26982	0.11587	0.14094	0.17255	-3.0646	-2.9625	-2.6417	-3.6688	-2.6979	-3.0771	-3.4042	-2.6104	-3.1271	-3.1437	-2.8917	-3.525	-2.8583	-3.15	-3.4583	-2.6792	338.562	251.959	309.475	519.179	427.412	230.672	224.824	437.697	326.297	187.422	389.826	431.371	224.246	224.527	344.032	420.566	0.0010218	0.00053176	0.00027017	1030.6	2.3133e-06	6.3956e-06	947.12	413.77	1.2375e-05	6.9239e-06	418.7	177.45	167.9	81.386	7.0085e-06	98.037	0.00096108	0.0009495	0.00026359	981.27	1.0136e-05	1.0412e-05	903.65	395.52	1.0209e-05	1.0279e-05	402.83	171.06	161.26	78.69	1.026e-05	94.604	269.780	241.098	276.095	179.146	371.526	347.277	177.823	184.275	339.764	318.387	182.376	186.276	188.408	193.360	299.847	190.397	-8191	255	
46140.090	1	1	0	0	0.27236	0.25223	0.13493	0.27319	0.1513	0.094787	0.3019	0.1146	0.17495	0.20135	0.17618	0.30117	0.12639	0.11295	0.22381	0.33594	-2.7938	-2.9562	-2.5271	-3.575	-2.8812	-2.8458	-3.5583	-2.8063	-3.3146	-3.2313	-2.8958	-3.5917	-2.9354	-2.9625	-3.3583	-2.6333	453.135	433.248	166.705	525.559	338.908	464.562	451.833	515.509	443.381	385.149	477.747	520.181	478.300	390.145	385.537	455.122	0.0010043	0.00035983	0.00032771	1028	6.3417e-06	8.1244e-06	942.44	411.45	5.8308e-06	7.7735e-06	420.15	177.84	167.56	80.94	7.951e-06	96.741	0.00097412	0.00093567	0.00026504	981.86	1.0196e-05	1.0431e-05	902.11	395.24	1.0156e-05	1.0496e-05	403.4	171.17	161.09	78.436	1.0361e-05	93.829	269.416	306.811	261.244	178.977	322.115	321.566	177.654	184.323	360.600	339.581	181.877	186.574	188.765	193.585	317.829	190.423	-8191	255	
46140.188	1	1	0	0	0.18193	0.10658	0.20286	0.26477	0.16954	0.21066	0.142	0.51917	0.030734	0.044181	0.28049	0.023793	0.24727	0.30988	0.14799	0.13552	-2.75	-3.4688	-2.6	-3.4188	-2.9604	-2.6833	-3.6312	-2.6167	-2.9417	-3.2521	-2.7479	-3.4458	-3.1667	-3.0021	-3.4146	-2.7604	487.903	374.002	321.490	504.103	525.571	380.517	491.723	471.319	213.760	305.551	498.911	423.120	497.231	482.026	258.740	453.151	0.00096327	0.001023	0.00017786	1025.8	1.0999e-05	1.2214e-05	943.62	411.21	9.4897e-06	1.117e-05	419.25	177.17	166.89	80.453	5.7702e-06	96.799	0.00097182	0.00096278	0.00027046	978.53	1.0369e-05	1.0744e-05	900.68	394.1	1.0341e-05	1.062e-05	402.36	170.47	160.78	78.138	1.0557e-05	93.71	268.720	255.649	232.922	179.236	324.361	336.582	177.993	184.535	308.117	299.349	182.354	186.810	188.622	193.565	310.890	190.522	-8191	255	
46140.258	1	1	0	0	0.15232	0.20173	0.26013	0.096679	0.073303	0.32341	0.26794	0.11419	0.23892	0.044223	0.39887	0.27343	0.43032	0.23214	0.10014	0.23333	-2.5583	-3.2833	-2.6292	-3.3542	-3	-2.5021	-3.6021	-2.9542	-2.8542	-3.3958	-2.6104	-3.2562	-3.3854	-2.8646	-3.575	-2.9333	275.738	339.871	519.948	261.085	230.461	267.494	409.321	506.930	295.508	459.308	438.343	484.637	503.731	444.679	483.923	502.064	0.0010344	0.00083323	0.00037222	1026.2	9.0316e-06	9.4799e-06	945.11	411.21	1.0905e-05	7.1627e-06	420.77	177.42	167.75	81.559	1.2155e-05	97.811	0.00098908	0.0009455	0.00026941	979.95	1.0148e-05	1.0625e-05	901.32	395.61	1.0376e-05	1.0614e-05	403.68	171.45	161.5	79.042	1.0487e-05	94.466	272.433	237.993	272.825	179.300	351.718	294.051	177.844	184.215	319.206	338.655	181.762	186.399	188.372	193.248	297.778	190.355	-8191	255	
46140.355	1	1	0	0	0.14618	0.2161	0.14021	0.20777	0.13502	0.35629	0.050204	0.25085	0.23946	0.14338	0.088298	0.18742	0.35817	0.14565	0.2029	0.11303	-2.4667	-3.2812	-2.5771	-3.1042	-3.075	-2.5333	-3.55	-2.9375	-2.7333	-3.5417	-2.6771	-3.1708	-3.3563	-2.6875	-3.2062	-3.1958	522.399	168.445	368.321	460.419	502.165	408.077	500.786	473.103	229.343	300.578	435.530	466.796	179.804	475.285	437.112	421.026	0.0010589	0.0014349	0.00029511	1026.2	8.834e-06	5.9888e-06	946.1	413.4	6.5976e-06	7.0786e-06	419.32	178.52	167.56	81.914	6.5639e-06	98.16	0.00098795	0.00096083	0.00027176	981.01	1.0149e-05	1.0525e-05	903.35	396.67	1.0474e-05	1.0686e-05	403.46	171.54	161.82	79.456	1.066e-05	94.747	268.659	244.140	242.738	179.046	292.126	300.116	177.892	184.689	332.904	288.743	182.300	186.660	188.160	193.599	306.543	190.316	-8191	255	
46140.477	1	1	0	0	0.092316	0.16693	0.30585	0.12164	0.21551	0.09793	0.078542	0.058156	0.11412	0.099572	0.34912	0.15008	0.11734	0.17982	0.12895	0.18797	-2.4813	-3.3792	-2.5687	-3.2875	-3.2	-2.6937	-3.3979	-2.9729	-2.6458	-3.3729	-2.7458	-3.125	-3.5146	-2.7896	-3.2646	-3.4313	478.758	289.204	442.485	484.187	448.506	388.139	444.502	434.585	361.092	460.918	465.661	167.698	466.499	455.280	312.152	505.690	0.00099102	0.0012922	0.00021656	1030	5.255e-06	3.5386e-06	944.17	413.28	8.9387e-06	8.1865e-06	420.89	178.47	168.7	82.029	7.0774e-06	98.1	0.0010029	0.0009768	0.000274	982.6	1.0378e-05	1.0724e-05	903.12	396.98	1.0514e-05	1.0645e-05	403.59	172.14	162.41	79.704	1.0587e-05	95.022	269.636	263.491	290.330	179.310	350.744	279.001	178.325	184.562	346.111	397.337	182.049	186.750	188.437	193.284	324.378	190.105	-8191	255	
46140.570	1	1	0	0	0.092691	0.31688	0.028038	0.21034	0.20165	0.22886	0.30761	0.20755	0.11761	0.061894	0.28813	0.24733	0.10885	0.17665	0.43339	0.36384	-2.3542	-3.4604	-2.6271	-2.9896	-3.3937	-2.5646	-3.4021	-3.3229	-2.5333	-3.5229	-2.9396	-2.9771	-3.5271	-2.7729	-3.1833	-3.1833	515.359	247.014	234.568	412.583	212.524	355.776	462.286	505.131	354.475	326.321	222.275	412.047	225.036	476.838	202.535	458.631	0.0010083	0.00068708	0.0002711	1028	5.0728e-06	5.1966e-06	942.59	414.48	7.0681e-06	6.1644e-06	421.89	179.1	168.74	82.16	8.6907e-06	98.698	0.00098653	0.00095726	0.00026804	983.32	1.0334e-05	1.0744e-05	903.84	397.68	1.0523e-05	1.0759e-05	404.58	172.36	162.61	79.618	1.0812e-05	95.326	269.738	300.810	266.020	179.356	353.793	280.804	178.283	184.431	318.359	309.213	182.022	186.508	188.521	193.632	327.705	190.258	-8191	255	
46140.668	1	1	0	0	0.23383	0.23653	0.029966	0.25278	0.073929	0.24624	0.09153	0.2963	0.18261	0.10862	0.096117	0.23972	0.27695	0.36844	0.041563	0.15344	-2.0271	-3.3812	-2.9333	-2.8917	-3.1729	-2.6479	-3.05	-3.275	-2.6958	-3.375	-3.0646	-2.7188	-3.4854	-2.7729	-3.0792	-3.5167	429.283	321.673	300.408	440.070	200.953	381.486	228.316	470.670	341.341	371.045	497.299	500.127	447.557	475.301	317.137	471.293	0.00097945	0.00099827	0.00029134	1024	9.0284e-06	7.1877e-06	947.54	413.21	7.468e-06	5.1984e-06	422.4	179.64	168.78	82.191	7.1713e-06	98.999	0.0009999	0.00098574	0.00027603	982.2	1.0577e-05	1.0786e-05	906.66	397.18	1.0804e-05	1.1013e-05	405.27	173.06	162.75	79.815	1.0791e-05	95.8	269.561	267.464	244.133	179.354	321.285	317.317	178.040	184.344	316.067	317.557	182.145	186.679	188.567	193.297	290.107	190.543	-8191	255	
46140.789	1	1	0	0	0.23358	0.17664	0.16939	0.26889	0.20769	0.24828	0.26942	0.28659	0.14384	0.28954	0.16167	0.15983	0.27553	0.31484	0.13238	0.33887	-2.3917	-3.2979	-2.9146	-2.7354	-3.3583	-2.725	-3.1125	-3.4792	-2.5042	-3.1562	-3.0354	-2.7313	-3.7896	-2.9	-2.9708	-3.4583	443.864	269.414	339.735	496.815	384.393	462.922	520.011	465.188	396.803	426.349	371.993	467.859	420.251	187.480	382.183	508.565	0.0010734	0.00070391	0.00022589	1027.5	6.4494e-06	6.1016e-06	945.4	411.75	9.8385e-06	3.978e-06	422.04	179.08	168.82	82.137	3.6613e-06	97.862	0.0010326	0.0010184	0.00027996	982.65	1.0831e-05	1.1161e-05	903.44	398.18	1.0951e-05	1.12e-05	405.19	173.03	163.12	79.904	1.1128e-05	94.759	272.036	268.822	294.108	179.226	366.422	321.823	178.410	184.643	316.187	256.522	182.102	186.415	188.514	193.572	300.545	190.452	-8191	255	
46140.883	1	1	0	0	0.1371	0.10761	0.031406	0.080581	0.14756	0.16682	0.19272	0.15867	0.14644	0.10211	0.15798	0.21336	0.22966	0.17245	0.11525	0.25187	-2.2188	-3.4	-3.0229	-2.725	-3.3875	-2.9083	-2.9958	-3.5542	-2.6688	-3.3625	-3.3208	-2.7875	-3.4875	-2.9979	-2.8604	-3.5667	375.026	474.741	393.077	483.638	520.198	215.280	396.970	471.985	350.028	348.444	202.355	509.168	212.983	221.578	504.853	414.923	0.0010389	0.0011171	0.00013322	1017.6	5.0837e-06	6.8497e-06	943.61	412.94	6.6738e-06	1.3642e-05	420.67	178.23	168.64	81.917	9.8542e-06	98.027	0.001021	0.0010115	0.00028523	978.73	1.0709e-05	1.1168e-05	899.97	397.81	1.0873e-05	1.111e-05	403.65	171.92	163.14	79.748	1.1009e-05	94.66	273.234	249.322	280.993	179.325	364.930	319.930	178.159	184.311	333.689	328.470	182.086	186.712	188.408	193.259	309.976	190.347	-8191	255	
46140.957	1	1	0	0	0.26609	0.069201	0.064765	0.26113	0.18758	0.21091	0.10977	0.30756	0.13826	0.099588	0.36728	0.29231	0.14332	0.27928	0.11825	0.11989	-2.3542	-2.9896	-3.1104	-2.7	-3.1688	-3.0271	-2.8563	-3.6021	-2.7021	-3.1813	-3.4688	-2.5375	-3.3854	-3.1146	-2.7354	-3.7229	189.124	384.290	473.493	488.645	227.244	461.556	410.197	387.539	378.246	440.714	489.169	490.954	523.465	496.533	314.669	459.381	0.0009962	0.00078792	0.00021482	1027	7.0857e-06	7.2978e-06	941.67	413.54	4.0451e-06	1.1705e-05	419.62	178.68	169.23	82.413	8.5819e-06	98.539	0.0010155	0.00099241	0.00027988	980.54	1.0598e-05	1.1199e-05	900.25	398.69	1.0689e-05	1.0848e-05	404.56	172.25	163.47	80.141	1.0904e-05	95.301	266.604	274.387	227.743	179.391	306.617	308.333	178.239	184.532	298.501	311.548	182.189	186.698	188.668	193.422	318.011	190.601	-8191	255	
46141.074	1	1	0	0	0.36711	0.042658	0.1753	0.24875	0.095544	0.17491	0.2384	0.33622	0.18866	0.061709	0.38726	0.31684	0.34916	0.11366	0.049102	0.30103	-2.2771	-2.8708	-3.3563	-2.6562	-3.4521	-3.1646	-2.7667	-3.4667	-2.7354	-2.8271	-3.6083	-2.6542	-3.2979	-3.4667	-2.6875	-3.3958	481.419	195.073	455.131	361.995	487.299	509.238	488.943	417.051	511.373	402.263	440.538	514.893	517.460	515.047	336.937	495.303	0.0010562	0.0013213	0.00039414	1024.1	4.2435e-06	8.7563e-06	942.62	415.44	4.4645e-06	1.575e-06	420.87	179.03	169.62	82.766	9.2316e-06	98.947	0.0010292	0.00099318	0.00027237	981.78	1.0483e-05	1.1052e-05	902.22	400.16	1.0891e-05	1.0911e-05	406.14	173.35	164.1	80.294	1.0812e-05	95.543	272.164	268.085	274.322	179.319	376.731	300.961	177.887	184.410	332.148	341.161	181.948	186.224	188.643	193.423	320.434	190.363	-8191	255	
46141.172	1	1	0	0	0.21989	0.11829	0.27255	0.2131	0.15954	0.16492	0.35729	0.36232	0.18432	0.16972	0.22614	0.075077	0.33952	0.26901	0.19483	0.037606	-2.4854	-2.8312	-3.5729	-2.7208	-3.0792	-3.0687	-2.5812	-3.4729	-2.7958	-2.775	-3.6312	-2.6125	-3.125	-3.5896	-2.525	-3.4667	413.489	374.528	355.277	511.794	507.280	371.672	438.149	508.341	392.697	355.232	518.045	168.690	511.809	489.804	319.008	180.716	0.0011183	0.00060031	0.00020419	1026.9	9.9166e-06	4.2542e-06	941.58	415.28	5.6967e-06	4.9746e-06	418.8	177.65	169.4	82.281	1.0593e-05	96.943	0.0010214	0.0010046	0.00027805	982.86	1.0716e-05	1.1079e-05	896.22	398.81	1.0702e-05	1.1138e-05	403.24	171.49	163.32	80.034	1.0823e-05	94.444	269.098	275.913	283.745	179.446	291.052	322.065	177.950	184.455	315.343	325.096	182.348	186.547	188.657	193.315	301.032	190.627	-8191	255	
46141.266	1	1	0	0	0.091739	0.32007	0.11934	0.16452	0.20753	0.35682	0.13353	0.27351	0.2419	0.22596	0.081959	0.050007	0.18296	0.17225	0.032169	0.21832	-2.6813	-2.6	-3.3146	-2.8354	-2.9646	-3.2562	-2.825	-3.4083	-2.9979	-2.7062	-3.475	-2.8625	-3.1063	-3.5646	-2.5792	-3.3812	232.206	181.420	506.047	174.330	437.243	387.470	171.508	503.093	482.437	519.114	498.316	176.525	515.164	511.627	503.500	479.295	0.00097904	0.00080553	0.00026563	1019.8	1.2833e-05	9.6699e-06	932.86	411.65	3.9102e-06	9.6895e-06	415.82	178.17	168.79	82.545	8.9695e-06	97.58	0.0010113	0.001007	0.00028439	978.08	1.0676e-05	1.0996e-05	894.23	397.5	1.0929e-05	1.1079e-05	401.94	172.11	163.5	80.265	1.1162e-05	94.706	267.718	224.155	254.805	179.495	354.130	299.830	178.283	184.887	356.966	324.440	182.311	186.590	188.497	193.504	335.746	190.299	-8191	255	
46141.387	1	1	0	0	0.13905	0.244	0.1323	0.19274	0.21102	0.085372	0.088718	0.27862	0.24048	0.098326	0.15827	0.12061	0.11203	0.26893	0.064761	0.07835	-2.6	-2.3708	-3.3	-2.8667	-2.8333	-3.5229	-2.6583	-3.2812	-3.1208	-2.8063	-3.4125	-2.8792	-2.8063	-3.5125	-2.5708	-3.3292	420.560	517.694	217.757	373.218	239.100	484.024	475.268	177.282	270.623	375.095	433.147	430.385	181.912	491.316	455.561	184.404	0.0010821	0.00057799	0.00016391	1016.5	7.5329e-06	7.065e-06	928.76	413.32	6.6896e-06	3.6329e-06	415.55	176.77	168.43	82.378	8.3394e-06	98.061	0.0010289	0.0010349	0.00028011	975.42	1.0961e-05	1.1003e-05	890.61	398.1	1.0812e-05	1.1059e-05	400.36	171	163.15	80.132	1.0964e-05	94.96	269.628	293.744	266.815	179.230	368.104	318.519	178.187	184.641	295.681	272.340	182.076	186.780	188.595	193.690	316.142	190.591	-8191	255	
46141.484	1	1	0	0	0.069684	0.27009	0.16191	0.23313	0.20057	0.079564	0.27347	0.20759	0.23505	0.14047	0.026917	0.18322	0.14377	0.10612	0.027191	0.20327	-2.9062	-2.5854	-3.4729	-2.9437	-2.6146	-3.3354	-2.7687	-3.1354	-3.1292	-2.5583	-3.4458	-3.1312	-2.9688	-3.5438	-2.6896	-3.1063	227.883	209.852	509.386	497.264	194.050	170.172	436.129	506.349	194.438	349.730	249.710	518.923	523.791	447.985	447.548	510.579	0.0010674	0.0010263	0.00022863	1017.3	9.9698e-06	5.9083e-06	926.01	412.68	1.0896e-05	8.13e-06	419.48	177.91	168.95	82.802	8.9571e-06	98.074	0.001017	0.0010012	0.0002804	975.49	1.0757e-05	1.0877e-05	889.36	397.39	1.0757e-05	1.1343e-05	402.16	171.65	163.46	80.448	1.1129e-05	95.192	273.024	294.401	306.165	179.204	318.515	318.927	178.076	184.764	357.760	298.361	182.250	186.595	188.390	193.510	286.016	190.373	-8191	255	
46141.555	1	1	0	0	0.34331	0.19123	0.078156	0.37187	0.11617	0.12048	0.096086	0.16245	0.10249	0.071426	0.10881	0.10999	0.25248	0.086377	0.27793	0.07707	-3.0104	-2.6542	-3.2979	-3.0292	-2.7333	-3.4854	-2.8604	-3.1542	-3.2354	-2.5292	-3.3937	-3.1188	-2.7875	-3.6146	-2.7167	-2.9854	323.302	335.563	472.465	500.293	402.381	421.555	470.716	477.419	523.575	220.525	297.928	246.236	227.557	477.521	168.352	463.819	0.0010168	0.00048948	0.00021761	1020.8	9.9239e-07	7.5505e-06	924.17	412.74	8.6438e-06	1.025e-05	412.05	176.21	167.65	82.764	1.0661e-05	98.647	0.0010275	0.0010057	0.00027777	975.77	1.0587e-05	1.1023e-05	884.69	396.78	1.0585e-05	1.0861e-05	398.98	170.32	162.96	80.605	1.1108e-05	95.712	270.326	254.631	253.600	179.274	313.548	317.452	178.053	184.770	341.423	297.089	182.153	186.464	188.548	193.661	328.824	190.722	-8191	255	
46141.652	1	1	0	0	0.19917	0.04587	0.24579	0.15164	0.12288	0.10362	0.014828	0.2073	0.22419	0.19471	0.17977	0.23657	0.12059	0.22167	0.10877	0.1159	-2.9771	-2.5917	-3.0958	-3.2438	-2.6333	-3.4146	-3.0812	-2.6896	-3.2875	-2.7333	-3.1208	-3.3833	-2.7375	-3.525	-2.7292	-2.9688	317.578	514.227	442.707	286.961	293.569	408.470	217.966	481.773	311.586	248.583	361.892	490.401	402.744	496.334	524.348	437.574	0.0010603	0.00040024	0.00023173	1015	1.1721e-05	8.063e-06	934.11	417.11	6.1477e-06	1.4545e-05	424.24	182.95	173.46	85.507	6.0583e-06	102.41	0.0010127	0.00099231	0.00027707	975.7	1.0623e-05	1.1006e-05	895.48	402.13	1.062e-05	1.0909e-05	408.52	176.43	167.27	83.18	1.1143e-05	99.584	268.595	258.958	255.720	179.140	322.041	352.800	178.185	184.993	312.478	308.441	182.142	186.768	188.704	193.458	315.650	190.638	-8191	255	
46141.773	1	1	0	0	0.23618	0.29993	0.18022	0.077218	0.22555	0.14731	0.10494	0.14429	0.060112	0.0049515	0.25608	0.10996	0.12727	0.23832	0.20283	0.21657	-3.1292	-2.7354	-3.0438	-3.3604	-2.5083	-3.2896	-2.9896	-2.9375	-3.3312	-2.6708	-3.0396	-3.3979	-2.7229	-3.3187	-3.0042	-2.6479	465.548	358.360	232.646	314.051	351.923	355.191	382.186	442.901	190.574	252.946	476.913	411.756	505.588	204.444	383.200	173.412	0.0010156	0.00082279	0.00026119	1020.1	1.2291e-05	8.7246e-06	948.27	422	7.4911e-06	5.7344e-06	434.31	186.92	174.97	86.881	4.777e-06	104.35	0.0010303	0.0010189	0.00028964	983.15	1.1066e-05	1.1392e-05	912.2	407.59	1.1422e-05	1.1692e-05	418.05	180.86	169.69	84.461	1.1496e-05	100.99	265.329	233.878	269.473	179.488	345.358	308.368	178.147	184.544	346.540	288.897	182.223	186.774	188.435	193.330	314.064	190.420	-8191	255	
46141.867	1	1	0	0	0.20747	0.12645	0.091192	0.21071	0.23578	0.29467	0.19037	0.32716	0.22976	0.049267	0.36673	0.26654	0.29088	0.036849	0.043747	0.19387	-3.1396	-2.8271	-2.8646	-3.475	-2.5146	-3.3187	-3.1396	-2.6813	-3.3542	-2.9729	-3.0271	-3.4833	-2.6771	-3.3812	-3.2396	-2.7438	211.669	204.690	304.884	491.252	470.670	301.957	470.689	494.604	465.973	430.998	482.394	221.185	498.482	258.457	243.770	445.675	0.0010342	0.00059261	0.00026204	1026.1	1.1941e-05	8.6683e-06	954.82	422.2	7.9056e-06	6.0068e-06	434.01	185.2	173.61	85.501	1.2156e-05	102.77	0.0010775	0.0010603	0.00029207	987.53	1.1065e-05	1.1534e-05	916.2	408.03	1.1282e-05	1.1649e-05	417.11	179.06	168.43	83.367	1.1312e-05	99.916	270.329	229.094	277.472	179.419	306.897	324.800	178.418	184.895	323.390	357.481	182.607	186.596	188.329	193.634	301.135	190.620	-8191	255	
46141.965	1	1	0	0	0.19021	0.15587	0.044128	0.37486	0.020736	0.21412	0.19552	0.17082	0.24978	0.22072	0.42174	0.16913	0.42645	0.16603	0.27573	0.19109	-3.1729	-2.7812	-2.7	-3.6813	-2.7083	-3.1167	-3.4896	-2.7188	-3.4958	-2.9208	-3.0187	-3.5812	-2.8521	-3.1958	-3.3937	-2.7	203.740	308.195	252.156	515.211	240.370	277.787	379.084	501.950	324.323	489.069	473.878	188.458	500.119	503.643	507.797	439.569	0.0010465	0.0007174	0.00024577	1028.6	1.2464e-05	7.875e-06	942.29	419.46	2.9425e-06	1.8895e-06	430.35	184.79	173.79	85.366	7.9048e-06	102.1	0.0010548	0.0010424	0.00029429	984.46	1.1241e-05	1.1394e-05	905.65	405.38	1.1292e-05	1.143e-05	414.35	177.98	168.01	83.159	1.1482e-05	99.267	268.161	302.101	283.979	179.319	340.029	264.756	178.275	184.753	347.555	234.538	182.257	186.560	188.645	193.647	279.488	190.309	-8191	255	
46142.062	1	1	0	0	0.239	0.12707	0.06501	0.30905	0.096001	0.07397	0.1858	0.14786	0.23349	0.14617	0.21786	0.055551	0.19462	0.47853	0.17666	0.36863	-2.8688	-2.8729	-2.4604	-3.6208	-2.625	-3.0896	-3.4479	-2.7229	-3.2292	-3.075	-2.5938	-3.6479	-2.9583	-2.925	-3.4104	-2.6417	191.370	270.308	219.012	191.282	327.815	218.368	491.024	488.787	244.033	460.189	459.999	251.295	519.119	504.135	419.019	461.079	0.0011251	0.00071444	0.0002705	1030.5	9.9919e-06	2.3935e-06	944.93	421.99	6.3625e-06	1.0741e-05	429.37	184.88	174.07	85.699	8.2743e-06	102.2	0.0010643	0.0010611	0.00029599	985.66	1.1101e-05	1.1525e-05	907.96	406.8	1.1487e-05	1.1401e-05	414.18	178.38	168.48	83.239	1.1253e-05	99.18	267.490	232.900	264.036	179.547	325.074	284.216	178.235	184.622	362.794	314.631	182.256	186.521	188.525	193.554	318.127	190.419	-8191	255	
46142.180	1	1	0	0	0.2794	0.075548	0.032298	0.085012	0.10082	0.2222	0.1557	0.13242	0.137	0.12814	0.031535	0.10053	0.3108	0.28125	0.075236	0.41412	-2.7792	-2.9792	-2.5687	-3.4542	-2.9125	-2.6354	-3.5792	-2.6479	-3.2458	-3.1792	-2.6813	-3.5979	-3.1188	-3	-3.375	-2.85	255.853	400.701	298.940	398.582	252.890	314.714	509.616	489.342	276.563	474.040	280.884	213.844	508.912	466.381	412.260	471.121	0.0010885	0.00073168	0.00032171	1024.5	7.6253e-06	4.782e-06	941.88	420.22	9.2903e-06	2.9646e-06	427.61	182.63	174.01	85.103	7.7858e-06	101.86	0.0010639	0.0010483	0.00029364	983.87	1.138e-05	1.1606e-05	904.63	405.46	1.1388e-05	1.1588e-05	412.62	177.21	167.86	82.872	1.1622e-05	98.934	268.219	265.193	258.874	179.532	367.509	296.305	178.044	184.451	308.943	343.944	182.267	186.904	188.648	193.661	291.570	190.633	-8191	255	
46142.250	1	1	0	0	0.13708	0.040936	0.22392	0.52797	0.16846	0.069156	0.26153	0.36823	0.21033	0.034105	0.24811	0.14212	0.30787	0.14057	0.098941	0.17952	-2.85	-3.4917	-2.4437	-3.4896	-2.9688	-2.6917	-3.5187	-2.6646	-3.0229	-3.3937	-2.7438	-3.4417	-3.1229	-2.6229	-3.6125	-2.9771	442.080	335.881	311.989	487.486	390.407	425.432	413.763	463.023	239.821	331.294	199.435	435.073	470.111	506.492	229.084	480.936	0.0011233	0.0011061	0.00022401	1020.8	5.6571e-06	5.4757e-06	935.76	421.65	9.5207e-06	8.7871e-06	427.37	183.55	173.21	85.188	4.0213e-06	101.2	0.0010808	0.0010697	0.00029834	980	1.1407e-05	1.1813e-05	898.64	405.12	1.1507e-05	1.1659e-05	412.31	177.46	167.77	82.89	1.1877e-05	98.578	270.171	239.682	247.415	179.637	333.956	343.147	178.379	184.677	319.141	327.996	182.331	186.664	188.611	193.480	309.329	190.530	-8191	255	
46142.348	1	1	0	0	0.21654	0.15657	0.10275	0.18975	0.10418	0.26358	0.13535	0.20549	0.10188	0.082955	0.18592	0.20233	0.20038	0.18305	0.0081752	0.060215	-2.5583	-3.2125	-2.4125	-3.2917	-3.0604	-2.7375	-3.4396	-2.9917	-2.8563	-3.4771	-2.6688	-3.3646	-3.2333	-2.6042	-3.4042	-2.8417	516.498	350.762	223.904	484.487	207.739	427.753	520.304	202.463	264.522	421.762	172.359	194.989	368.106	198.875	510.729	202.656	0.0010902	0.00040049	0.00033189	1015.2	9.6804e-06	9.9901e-06	925.09	416.37	7.3168e-06	5.3358e-06	423.4	182.23	172.19	84.504	6.7843e-06	100.8	0.0010695	0.0010656	0.0003041	977.69	1.1311e-05	1.1669e-05	891.2	403.29	1.1406e-05	1.1553e-05	409.03	176.18	167.13	82.458	1.148e-05	97.893	270.888	191.951	265.064	179.585	374.943	286.504	178.070	184.690	317.273	306.379	182.417	186.553	188.713	193.666	327.401	190.500	-8191	255	
46142.469	1	1	0	0	0.15227	0.2399	0.21264	0.12974	0.41448	0.23156	0.18431	0.15985	0.15969	0.058967	0.29151	0.16062	0.10029	0.11909	0.048664	0.14173	-2.5271	-3.3312	-2.5708	-3.2417	-3.1479	-2.6125	-3.3208	-3.0167	-2.7354	-3.3771	-2.7042	-3.1583	-3.2833	-2.5604	-3.3604	-3.0896	260.056	508.723	277.561	430.519	383.761	279.493	190.526	477.992	209.158	252.432	373.950	466.170	208.737	211.392	235.056	189.690	0.0010878	0.00097259	0.00021545	1012.6	1.1468e-05	9.1507e-06	926.45	417.81	8.0239e-06	5.1809e-06	424.6	181.67	172.33	84.808	7.879e-06	100.89	0.0010762	0.0010446	0.00029578	976.83	1.1183e-05	1.1558e-05	894.01	403.94	1.1316e-05	1.1463e-05	409.48	176.01	166.9	82.503	1.1279e-05	98.016	270.537	286.262	281.964	179.400	322.916	337.310	177.957	184.354	313.854	337.500	182.334	186.730	188.842	193.676	326.300	190.529	-8191	255	
46142.562	1	1	0	0	0.18976	0.092671	0.15148	0.23441	0.35259	0.17212	0.21886	0.065007	0.17527	0.11542	0.22711	0.13542	0.12421	0.075588	0.17235	0.24369	-2.3042	-3.2292	-2.7	-3.0146	-3.2687	-2.5104	-3.3479	-3.175	-2.775	-3.5146	-2.6667	-3.1104	-3.5354	-2.7771	-3.3708	-3.3167	375.154	174.537	378.030	207.622	307.613	473.650	503.649	238.637	331.819	222.533	494.476	519.991	215.018	420.708	217.029	456.631	0.0011114	0.0006113	0.00023751	1017.1	1.0488e-05	1.0368e-05	930.97	417.83	6.1874e-06	6.0275e-06	420.81	181.6	172.21	84.228	6.3893e-06	101.2	0.0010521	0.0010331	0.00029182	976.98	1.0797e-05	1.1415e-05	893.59	403.82	1.1138e-05	1.1195e-05	408.4	176.1	166.73	82.369	1.1325e-05	98.32	269.173	252.653	247.017	179.408	342.173	322.047	178.348	184.573	338.535	346.714	182.293	186.857	188.904	193.342	299.710	190.401	-8191	255	
46142.660	1	1	0	0	0.11035	0.21979	0.17829	0.21813	0.19836	0.24817	0.13635	0.20851	0.18712	0.12815	0.13916	0.14749	0.3192	0.077628	0.062224	0.29813	-2.1729	-3.2833	-2.5292	-2.8063	-3.4437	-2.5229	-3.4083	-3.3479	-2.7229	-3.4292	-2.8312	-2.6896	-3.6562	-2.5896	-2.8458	-3.2917	173.388	435.384	334.696	341.288	316.045	181.352	431.954	462.519	316.576	387.204	458.409	409.566	188.314	496.320	250.249	167.158	0.0010764	0.0007529	0.00022049	1020.5	7.2623e-06	1.3074e-05	933.29	418.24	7.1861e-06	8.1709e-06	422.86	182.96	172.18	84.933	9.4317e-06	100.93	0.0010569	0.0010121	0.00028135	979.46	1.0634e-05	1.0913e-05	896.36	403.53	1.1013e-05	1.1068e-05	408.47	176.54	167.07	82.886	1.1078e-05	98.188	270.806	307.516	246.660	179.626	330.864	321.876	178.298	184.712	306.328	307.763	182.604	186.966	188.891	193.729	292.435	190.446	-8191	255	
46142.758	1	1	0	0	0.017403	0.2112	0.16151	0.20234	0.18597	0.065463	0.038875	0.24757	0.036266	0.17046	0.092774	0.15514	0.21046	0.17654	0.10946	0.23102	-2.1229	-3.4229	-2.7	-2.775	-3.6104	-2.5417	-3.0646	-3.2458	-2.3688	-3.1875	-3.0938	-2.8479	-3.4625	-2.8438	-2.7375	-3.5687	359.240	435.411	400.758	475.199	199.409	371.431	290.762	518.911	360.793	192.483	398.977	442.195	375.272	174.641	463.138	427.025	0.0010235	0.00089271	0.00017878	1010.7	9.4877e-06	6.1979e-06	928.32	416.94	8.7287e-06	5.4002e-06	421.89	182.27	172.53	84.685	1.0369e-05	101.5	0.0010307	0.0010125	0.00028259	976.9	1.0718e-05	1.1196e-05	894.69	403.52	1.0881e-05	1.1233e-05	408.32	176.16	167.12	82.692	1.1023e-05	97.913	271.239	252.803	241.651	179.468	323.731	276.850	178.003	184.736	346.198	323.803	182.245	186.711	188.671	193.458	332.483	190.521	-8191	255	
46142.852	1	1	0	0	0.12474	0.10264	0.034321	0.11919	0.1551	0.083249	0.081441	0.32223	0.15404	0.094443	0.22869	0.20188	0.20406	0.074803	0.24062	0.18348	-2.2208	-3.1854	-3.0375	-2.7896	-3.2812	-2.8125	-2.925	-3.4896	-2.375	-3.3167	-3.0146	-2.7708	-3.3646	-2.8312	-2.8896	-3.5021	269.135	371.040	256.137	365.455	398.930	292.330	474.832	495.357	297.969	241.669	516.555	485.795	451.543	471.424	489.560	414.142	0.0011171	0.00088367	0.00019744	1018.9	8.9005e-06	9.8881e-06	929.78	418.3	5.7471e-06	1.0551e-05	423.81	181.84	172.26	84.882	1.4128e-05	101.65	0.0010313	0.00098249	0.000276	978.62	1.0617e-05	1.0892e-05	893.68	403.58	1.051e-05	1.1036e-05	408.61	176.06	167.67	82.915	1.0823e-05	98.519	269.539	272.300	241.980	179.159	326.339	312.729	178.208	184.699	316.864	322.787	182.111	186.682	188.654	193.535	320.023	190.294	-8191	255	
46142.949	1	1	0	0	0.31561	0.061586	0.19056	0.22128	0.21027	0.039303	0.27089	0.08182	0.040797	0.074721	0.22555	0.21115	0.29355	0.32402	0.11298	0.086654	-2.1063	-3.1375	-3.1458	-2.65	-3.3375	-2.875	-2.8479	-3.6917	-2.5563	-3.1792	-3.4125	-2.6896	-3.5896	-3.1229	-2.7438	-3.6458	366.287	236.597	413.090	239.032	399.396	430.678	494.542	432.464	219.728	428.006	524.218	489.346	420.761	519.207	250.714	208.157	0.0010764	0.0010161	0.00033206	1019	1.2168e-05	7.5445e-06	935.67	420.38	7.888e-06	7.4846e-06	424.82	183.33	173.97	85.876	1.0635e-05	102.61	0.0010218	0.00098393	0.00027558	980.24	1.056e-05	1.0979e-05	898.8	405.3	1.0824e-05	1.0896e-05	410.98	177.79	168.77	83.535	1.0763e-05	99.555	269.994	275.098	280.704	179.334	333.928	299.744	178.376	184.679	338.030	335.724	182.161	186.764	188.523	193.458	359.834	190.519	-8191	255	
46143.070	1	1	0	0	0.27783	0.2097	0.14385	0.28643	0.10241	0.077134	0.041479	0.20389	0.15211	0.19073	0.12028	0.079057	0.31722	0.39431	0.1612	0.24283	-2.3104	-3.1833	-3.1333	-2.6125	-3.4896	-2.9125	-2.6792	-3.6104	-2.7021	-3.1042	-3.5979	-2.8417	-3.3896	-3.2104	-2.5833	-3.5438	423.082	434.091	526.120	214.460	249.057	270.929	523.798	480.979	363.518	232.582	452.551	239.961	495.906	463.268	312.676	473.876	0.0011128	0.00069389	0.00034167	1027.7	7.083e-06	7.1175e-06	941.31	423.16	3.4289e-06	9.4045e-06	426.17	183.82	174.6	85.889	1.0962e-05	101.46	0.0010194	0.0010072	0.00027593	984.25	1.058e-05	1.0678e-05	901.49	407.13	1.0428e-05	1.0811e-05	412.26	177.93	169.04	83.696	1.07e-05	98.74	269.481	258.267	256.891	179.728	332.757	310.159	178.324	184.525	270.281	303.645	182.248	186.725	188.363	193.610	301.154	190.633	-8191	255	
46143.164	1	1	0	0	0.20033	0.22412	0.088057	0.1836	0.42105	0.17662	0.12231	0.33089	0.16368	0.22294	0.20214	0.12285	0.14627	0.32114	0.17011	0.19092	-2.4292	-2.9646	-3.1063	-2.7562	-3.2854	-3.3625	-2.7333	-3.6063	-2.7208	-2.7604	-3.4625	-2.8187	-3.3688	-3.4354	-2.8187	-3.6042	204.031	415.591	178.318	486.625	290.098	445.907	445.246	220.577	277.097	268.050	443.565	314.777	452.068	486.559	192.346	488.045	0.0011087	0.000847	0.00031888	1019.1	7.5357e-06	6.8483e-06	942.12	419.31	7.4591e-06	8.2841e-06	427.73	183.23	173.83	85.876	5.3138e-06	102.34	0.0010119	0.00096767	0.00026901	980.93	1.0528e-05	1.0673e-05	901.09	405.12	1.0543e-05	1.0775e-05	411	177.42	168.83	83.607	1.0894e-05	99.227	269.115	274.104	271.871	179.427	320.922	358.445	178.242	184.760	299.648	303.960	182.331	186.770	188.817	193.499	327.537	190.728	-8191	255	
46143.262	1	1	0	0	0.074645	0.28701	0.28715	0.071675	0.14704	0.1743	0.18533	0.36819	0.45677	0.023105	0.12481	0.12582	0.017779	0.39678	0.1548	0.11314	-2.5854	-2.65	-3.45	-2.8542	-3.1063	-3.2979	-2.675	-3.45	-2.7958	-2.9292	-3.6479	-2.9562	-3.1354	-3.5042	-2.5271	-3.5646	330.271	286.867	290.533	175.511	241.270	223.111	455.194	177.597	362.203	368.975	451.420	511.041	466.857	498.239	329.342	200.888	0.0011156	0.0010784	0.00032466	1021.4	6.5324e-06	9.19e-06	943.6	421.33	6.1646e-06	7.2241e-06	427.36	184.27	175.02	85.911	6.232e-06	102.45	0.0010206	0.00097978	0.00027241	983.85	1.0481e-05	1.0787e-05	903.07	406.22	1.0652e-05	1.087e-05	412.8	178.46	169.28	83.736	1.0537e-05	99.316	270.239	242.119	243.192	179.305	304.235	303.984	178.003	184.606	333.684	310.327	182.215	186.757	188.729	193.674	287.455	190.503	-8191	255	
46143.355	1	1	0	0	0.27894	0.22899	0.21633	0.23907	0.1298	0.16744	0.13794	0.029559	0.43395	0.18884	0.23923	0.27961	0.29872	0.24753	0.082039	0.020794	-2.9	-2.5875	-3.5479	-2.7917	-2.9146	-3.2458	-2.5854	-3.5208	-3.1229	-2.5917	-3.6104	-2.8104	-3.0583	-3.5771	-2.5354	-3.4021	473.052	224.991	410.317	198.860	415.552	302.069	497.926	215.167	402.857	473.617	181.486	493.125	503.574	517.470	523.377	307.451	0.001123	0.00069472	0.00025868	1024.9	7.5806e-06	4.1898e-06	944.56	420.14	6.6817e-06	8.8481e-06	427.32	184.46	174.14	85.935	7.6193e-06	101.99	0.0010015	0.0009683	0.00026977	983.98	1.0424e-05	1.0653e-05	905.4	406.57	1.0426e-05	1.0599e-05	412.69	178.1	168.95	83.766	1.0569e-05	99.331	267.012	249.446	280.449	179.547	326.224	308.562	178.337	184.914	312.097	339.936	182.111	186.944	188.677	193.626	364.748	190.728	-8191	255	
46143.453	1	1	0	0	0.034689	0.09985	0.083	0.084223	0.17447	0.13016	0.28872	0.29845	0.22873	0.14912	0.12677	0.14271	0.13353	0.21959	0.11762	0.11127	-2.7812	-2.4708	-3.3542	-2.9021	-2.7667	-3.4229	-2.8146	-3.1875	-3.2542	-2.7042	-3.4958	-3.0458	-2.8708	-3.4896	-2.6875	-3.2667	178.931	247.583	515.887	389.821	400.226	470.561	505.516	427.044	420.675	203.523	181.870	485.027	510.140	472.670	343.812	498.526	0.0010451	0.00087097	0.00026007	1022.7	6.5166e-06	1.1472e-05	937.72	419.18	7.4179e-06	1.184e-05	423.99	182	173.37	85.606	6.2609e-06	100.92	0.00099677	0.00096087	0.00027381	985.01	1.0304e-05	1.0593e-05	899.24	405.11	1.0539e-05	1.0743e-05	410.06	176.23	168.26	83.404	1.0919e-05	98.069	271.175	282.993	231.231	179.373	321.572	322.415	178.202	184.565	341.170	326.200	182.597	186.833	188.458	193.765	272.908	190.669	-8191	255	
46143.547	1	1	0	0	0.11838	0.11462	0.12166	0.18463	0.10008	0.24638	0.2582	0.2476	0.089096	0.11727	0.09529	0.14679	0.16861	0.15413	0.39591	0.40031	-2.85	-2.5458	-3.3896	-3.1375	-2.6437	-3.475	-2.7833	-3.0125	-3.5	-2.5896	-3.4333	-3.1542	-2.9292	-3.5812	-2.6583	-3.0604	472.830	228.590	500.918	487.914	367.748	512.474	455.424	518.743	172.616	357.364	226.500	186.118	489.974	235.025	440.149	461.368	0.0010028	0.00080629	0.00015329	1025.7	1.1075e-05	9.8804e-06	934.2	420.01	9.5898e-06	1.0981e-05	426.29	183.74	174.68	85.857	1.1779e-05	102.15	0.0010044	0.0010014	0.0002777	984.14	1.0516e-05	1.063e-05	897.89	406.4	1.0474e-05	1.072e-05	410.88	178.07	169.18	83.876	1.0802e-05	99.273	267.234	252.350	239.450	179.316	326.654	345.322	178.257	184.772	318.534	340.734	182.559	186.815	188.390	193.482	321.194	190.569	-8191	255	
46143.645	1	1	0	0	0.25395	0.11262	0.03504	0.31598	0.023528	0.056792	0.20083	0.33071	0.11151	0.15033	0.105	0.019843	0.12405	0.12878	0.1249	0.009881	-3.1125	-2.5771	-3.4792	-3.4125	-2.7313	-3.6375	-3.0583	-2.8708	-3.4042	-2.9375	-3.3646	-3.3708	-2.6229	-3.5104	-3.0375	-2.9	449.933	169.452	491.336	449.554	381.248	344.828	510.247	455.747	260.015	515.610	439.454	341.345	327.250	189.365	344.299	521.450	0.001128	0.00062927	0.00010239	1027.4	1.218e-05	8.8654e-06	944.39	424.87	9.9182e-06	7.2669e-06	431.16	186.41	176.97	87.428	8.4688e-06	103.68	0.0010155	0.00098992	0.00027441	987.93	1.0549e-05	1.0941e-05	905.04	408.8	1.0434e-05	1.0874e-05	415.67	180.23	170.88	84.988	1.0762e-05	100.67	267.241	272.397	213.818	179.579	319.992	291.206	178.194	184.971	325.680	354.350	182.537	186.508	188.770	193.727	297.839	190.437	-8191	255	
46143.742	1	1	0	0	0.14119	0.22906	0.24612	0.14004	0.11121	0.12192	0.16992	0.20611	0.11791	0.099793	0.1272	0.23543	0.17597	0.20015	0.057677	0.29585	-2.9667	-2.5875	-2.9813	-3.3375	-2.5667	-3.4417	-3.0187	-2.7917	-3.45	-2.5167	-3.2333	-3.4604	-2.8542	-3.5854	-3.025	-2.925	440.020	329.952	519.075	182.826	243.348	261.642	372.847	487.307	440.651	451.734	518.190	389.912	499.155	465.619	512.133	422.319	0.0011059	0.00067744	0.00013934	1033.3	5.5381e-06	2.3485e-06	949.77	426.35	5.2374e-06	6.0087e-06	432.4	187.75	177.41	87.523	9.7516e-06	104	0.0010232	0.0010064	0.00027643	994.41	1.0518e-05	1.0708e-05	911.46	411.91	1.0676e-05	1.093e-05	417.68	181.2	171.79	85.451	1.0799e-05	101.21	269.628	260.276	311.908	179.269	334.991	333.483	178.314	184.987	329.288	327.889	182.503	186.504	188.627	193.694	316.790	190.780	-8191	255	
46143.859	1	1	0	0	0.12776	0.24464	0.1291	0.20863	0.13882	0.17202	0.35135	0.43699	0.05823	0.18634	0.076882	0.093536	0.30695	0.13856	0.15371	0.13275	-3.1917	-2.6854	-3.175	-3.4646	-2.5479	-3.1437	-3.225	-2.85	-3.5604	-2.8792	-3.0479	-3.3312	-2.8	-3.4479	-3.0396	-2.8375	518.348	348.712	363.958	453.119	525.420	337.277	506.907	467.585	364.366	382.371	495.964	439.253	478.865	375.608	278.794	496.468	0.0010383	0.0011051	0.00018982	1031.6	7.0087e-06	9.1708e-06	946.39	425.38	1.0451e-05	1.1402e-05	428.61	185.24	177.04	87.26	1.3647e-05	102.78	0.0010258	0.00098854	0.0002715	992.24	1.0452e-05	1.0749e-05	906.83	410.96	1.0338e-05	1.09e-05	414.42	179.38	171.36	85.203	1.0313e-05	100.02	270.335	260.016	244.447	179.411	339.183	298.830	178.080	184.898	334.218	317.891	182.393	186.830	188.618	193.594	305.292	190.485	-8191	255	
46143.957	1	1	0	0	0.24236	0.14251	0.16091	0.25385	0.16644	0.11591	0.035598	0.27348	0.088146	0.14048	0.034221	0.24674	0.1563	0.23762	0.12186	0.23236	-3.2125	-2.9396	-2.625	-3.6229	-2.7229	-3.2604	-3.2042	-2.8312	-3.3812	-2.8042	-2.9	-3.4917	-2.6708	-3.2125	-3.0646	-2.8833	430.739	209.038	199.441	186.546	283.369	330.080	497.032	435.786	522.489	461.818	467.582	177.735	510.572	228.355	322.620	410.354	0.0010922	0.0006352	0.00014167	1033.7	1.0159e-05	1.0144e-05	942.62	424.27	8.6472e-06	6.4528e-06	428.08	184.15	175.46	87.043	1.1677e-05	102.89	0.0010081	0.00096176	0.00026916	991.97	1.0258e-05	1.0569e-05	905.57	410.38	1.0482e-05	1.053e-05	414.32	178.87	170.64	84.907	1.0521e-05	100.04	272.006	266.293	232.489	179.418	328.847	290.487	177.969	184.608	328.453	289.461	182.297	186.634	188.291	193.687	310.002	190.582	-8191	255	
46144.051	1	1	0	0	0.21304	0.11007	0.21722	0.10451	0.19352	0.035701	0.12353	0.29104	0.13401	0.10082	0.26824	0.079307	0.3512	0.13269	0.12116	0.38425	-3.0062	-2.7979	-2.6375	-3.5271	-2.6208	-2.9979	-3.3063	-2.6542	-3.2083	-2.8604	-2.8771	-3.675	-2.8396	-3.2021	-3.3958	-2.8583	476.002	435.826	312.293	433.358	440.613	494.792	202.805	458.129	226.268	357.981	504.267	317.391	523.666	496.264	511.357	513.388	0.0011069	0.00092595	0.00020648	1036.6	1.1382e-05	3.7353e-06	943.33	422.76	1.0255e-05	6.0078e-06	427.73	185.41	175.87	87.017	5.6662e-06	102.95	0.0010063	0.00096639	0.00027294	993.2	1.0679e-05	1.0731e-05	905.4	409.65	1.0618e-05	1.0815e-05	414.21	179.5	170.66	84.76	1.0724e-05	100.03	269.006	236.603	272.625	179.234	346.515	224.587	178.216	184.807	356.341	336.881	182.666	186.853	188.863	193.771	308.138	190.337	-8191	255	
46144.148	1	1	0	0	0.277	0.042295	0.060927	0.50009	0.11873	0.31372	0.1895	0.25517	0.10302	0.30297	0.20194	0.38427	0.016891	0.18507	0.13438	0.33748	-2.8917	-3.1083	-2.5833	-3.2687	-2.6583	-2.9875	-3.4208	-2.5854	-3.3875	-3.1292	-2.7188	-3.6854	-2.9292	-3.0521	-3.325	-2.7896	334.462	481.785	413.440	485.974	206.472	170.860	441.097	404.002	338.306	462.120	251.385	167.662	333.628	185.890	370.543	520.071	0.0011108	0.0013097	0.0002781	1031.1	1.2235e-05	8.661e-06	942.32	424.52	7.5399e-06	8.5071e-06	430.31	184.84	175.69	87.138	8.3902e-06	102.34	0.0010084	0.00098842	0.000276	992.71	1.0573e-05	1.0641e-05	906.21	410.64	1.0572e-05	1.0587e-05	415.14	179.34	170.51	84.831	1.048e-05	99.583	266.285	261.602	291.188	179.622	342.955	346.381	178.358	184.760	327.653	341.378	182.797	186.993	188.579	193.744	343.309	190.426	-8191	255	
46144.242	1	1	0	0	0.10835	0.14043	0.20216	0.034524	0.17236	0.19765	0.27234	0.028354	0.081332	0.22202	0.037549	0.15923	0.3445	0.15883	0.21367	0.14866	-2.8979	-3.1396	-2.6104	-3.6667	-2.8042	-2.7771	-3.5417	-2.7458	-3.0563	-3.2146	-2.5979	-3.2604	-2.9958	-2.8312	-3.3542	-2.8	328.078	337.072	419.821	285.551	451.643	419.467	413.530	361.022	399.820	420.536	445.325	350.951	474.726	487.472	210.617	473.350	0.0010979	0.00064625	0.00028063	1031.4	1.2424e-05	6.9055e-06	941.01	422.79	5.2649e-06	7.9731e-06	428.66	184.28	175.16	86.558	4.2261e-06	102.13	0.0010292	0.00097383	0.00027737	992.52	1.068e-05	1.0737e-05	902.75	408.14	1.0532e-05	1.0834e-05	412.08	178.39	169.87	84.49	1.0751e-05	98.925	268.744	240.445	244.239	179.811	344.714	319.164	178.335	184.497	332.924	257.619	182.448	186.877	188.618	193.583	302.302	190.466	-8191	255	
46144.340	1	1	0	0	0.18327	0.04052	0.32387	0.2278	0.19755	0.094965	0.082937	0.018558	0.085055	0.1151	0.15815	0.21995	0.13425	0.12198	0.16118	0.38599	-2.5396	-3.1875	-2.5542	-3.4604	-2.9188	-2.8875	-3.6667	-2.9021	-3.0125	-3.4583	-2.7687	-3.3771	-3.2542	-2.6813	-3.4021	-2.8625	260.002	324.273	344.132	508.598	280.234	265.020	389.222	170.001	388.331	367.634	194.996	430.575	166.796	492.038	414.195	465.982	0.001081	9.1351e-05	0.00020562	1029.5	1.107e-05	5.4935e-06	938.1	421.53	8.1041e-06	4.5323e-06	425.66	183.9	175.03	86.912	5.3524e-06	101.6	0.0010088	0.00097337	0.00028047	990.28	1.0626e-05	1.0811e-05	900.88	407.82	1.0603e-05	1.0638e-05	411.99	178.32	169.76	84.561	1.0794e-05	99.087	265.666	329.834	194.525	179.462	342.183	261.738	178.511	184.546	334.099	267.474	182.165	186.959	188.595	193.571	317.948	190.460	-8191	255	
46144.438	1	1	0	0	0.082227	0.049374	0.05207	0.10233	0.11108	0.15098	0.2698	0.26013	0.055745	0.060236	0.14918	0.15467	0.12582	0.1499	0.22011	0.36529	-2.5146	-3.575	-2.5062	-3.3021	-3.1625	-2.5667	-3.5438	-2.975	-2.8396	-3.3563	-2.7375	-3.1771	-3.3771	-2.7875	-3.3375	-3.1604	372.475	296.096	401.602	191.053	426.104	377.729	480.818	218.752	460.723	523.855	415.866	517.298	400.610	479.891	362.758	454.905	0.00098773	0.00095806	0.00021229	1030.9	9.0338e-06	2.252e-06	942.89	424.01	8.9588e-06	8.6158e-06	428	184.35	175.62	86.856	7.0062e-06	102.6	0.0010119	0.00098562	0.00027968	991.46	1.0491e-05	1.0929e-05	904.15	408.96	1.0608e-05	1.0751e-05	413.63	179.07	170.4	84.79	1.0887e-05	99.705	270.608	271.536	279.500	179.478	393.923	391.695	178.379	184.525	317.271	355.727	182.591	186.821	188.593	193.594	329.061	190.670	-8191	255	
46144.559	1	1	0	0	0.090075	0.070463	0.079506	0.24156	0.15843	0.14606	0.04766	0.21585	0.14032	0.062605	0.1967	0.26341	0.14425	0.23917	0.002406	0.11863	-2.3875	-3.3833	-2.8375	-3.2687	-3.3104	-2.6333	-3.4	-3.2521	-2.8208	-3.5604	-2.9458	-3.1271	-3.4396	-2.9417	-3.4167	-3.2604	263.484	212.379	450.060	508.723	499.270	494.338	308.348	502.895	391.920	266.474	214.042	171.250	182.038	208.740	333.971	269.872	0.0010857	0.0011138	0.00030635	1037.3	7.061e-06	6.4679e-06	950.12	423.69	9.352e-06	7.5843e-06	431.81	184.89	175.72	87.2	1.0943e-05	102.96	0.0010141	0.00099409	0.00027655	994.46	1.0511e-05	1.0765e-05	908.78	410.75	1.0599e-05	1.0852e-05	415.55	179.58	170.34	85.118	1.0745e-05	100.05	267.958	260.050	253.426	179.225	353.890	328.892	177.989	184.555	322.028	344.174	182.430	186.999	188.885	193.602	325.855	190.108	-8191	255	
46144.652	1	1	0	0	0.53588	0.18366	0.15151	0.30482	0.1124	0.20552	0.31175	0.33554	0.18538	0.072069	0.2802	0.10625	0.25286	0.21802	0.14686	0.17926	-2.3	-3.3375	-2.7125	-3.1104	-3.3583	-2.6854	-3.3625	-3.1958	-2.6875	-3.3479	-2.8688	-2.8729	-3.6542	-2.7687	-3.1104	-3.1667	516.234	519.673	232.234	488.214	324.436	278.585	461.652	490.138	307.883	504.886	454.335	474.737	496.657	167.460	351.542	323.949	0.0010991	0.00081611	4.5105e-05	1035.3	5.3817e-06	6.3711e-06	941.76	424.9	8.9139e-06	2.6093e-06	429.46	184.4	174.68	87.334	8.0911e-06	102.88	0.0010161	0.00099264	0.00027425	995.06	1.0398e-05	1.0871e-05	905.11	410.6	1.0652e-05	1.0869e-05	413.71	178.72	170.09	84.895	1.0659e-05	99.637	271.838	268.363	313.550	179.701	333.755	356.869	178.247	184.815	336.916	343.690	181.974	186.649	188.666	193.598	305.900	190.226	-8191	255	
46144.750	1	1	0	0	0.091109	0.069601	0.069493	0.13893	0.060121	0.23718	0.1816	0.29153	0.079324	0.08371	0.14552	0.024347	0.16586	0.067403	0.077919	0.080585	-2.2521	-3.3854	-2.7625	-2.9208	-3.3292	-2.7438	-3.1896	-3.5146	-2.525	-3.3396	-3.1333	-2.9042	-3.5312	-2.9813	-3.1312	-3.3583	245.793	490.671	174.070	493.216	390.517	397.398	462.821	385.136	488.075	283.473	209.374	406.005	299.982	213.420	460.391	388.461	0.0010929	0.00092659	0.00012639	1034.8	8.409e-06	7.1793e-06	945.86	425.13	4.713e-06	7.5579e-06	429.72	184.73	176.32	86.667	6.6046e-06	102.38	0.0010215	0.00099136	0.00026789	994.29	1.0242e-05	1.0779e-05	905.53	409.3	1.0637e-05	1.0742e-05	413.67	178.76	170.32	84.546	1.0941e-05	99.649	271.611	246.961	270.400	179.448	334.045	331.457	177.858	184.486	333.211	313.752	182.204	186.943	188.807	193.406	296.008	190.333	-8191	255	
46144.844	1	1	0	0	0.11109	0.06562	0.11629	0.080301	0.19951	0.24258	0.14095	0.087818	0.059828	0.19933	0.25046	0.16476	0.12238	0.1162	0.28557	0.17887	-2.2896	-3.4021	-2.8667	-2.6063	-3.5833	-2.7333	-3.1583	-3.5	-2.6937	-3.2562	-3.0479	-2.6729	-3.5062	-2.9479	-3.1104	-3.5625	380.800	382.059	337.841	439.240	484.648	402.349	384.901	523.215	445.815	499.893	519.306	170.249	174.980	507.736	493.227	439.664	0.0010914	0.0010474	1.41e-05	1032	5.2497e-06	1.0065e-05	945.97	424.1	8.7265e-06	7.2394e-06	431.83	185.78	176.75	87.233	1.0301e-05	103.23	0.0010212	0.00097548	0.000277	994	1.0388e-05	1.106e-05	907.46	409.61	1.0826e-05	1.1078e-05	415.73	179.61	170.75	84.956	1.0817e-05	100.35	267.824	267.565	378.937	179.656	376.134	309.741	178.418	184.550	342.459	308.085	182.303	186.607	188.626	193.627	293.041	190.380	-8191	255	
46144.941	1	1	0	0	0.10324	0.027808	0.036949	0.10502	0.18922	0.13155	0.1852	0.10309	0.040731	0.022127	0.123	0.15481	0.13472	0.36812	0.22034	0.14008	-2.2438	-3.3417	-3.1312	-2.775	-3.2896	-2.9417	-2.9042	-3.4958	-2.6625	-3.1188	-3.2313	-2.7042	-3.5729	-3.2292	-2.6708	-3.6583	320.465	174.057	405.541	464.763	284.321	233.006	372.740	464.368	403.016	289.833	515.458	167.619	484.742	436.508	271.238	512.447	0.0010191	0.001335	0.00025822	1034.9	5.2378e-06	1.1692e-05	946.51	425.9	5.7914e-06	7.4923e-06	430.79	185.3	177.13	87.156	1.0033e-05	103.31	0.0010233	0.0009986	0.0002739	995.56	1.0463e-05	1.0787e-05	912.26	411.59	1.0747e-05	1.1156e-05	416.07	179.98	170.94	85.093	1.1066e-05	100.32	268.158	296.476	280.738	179.433	357.475	312.199	178.180	184.590	317.675	316.451	182.287	186.545	188.561	193.459	321.845	190.328	-8191	255	
46145.039	1	1	0	0	0.18693	0.040319	0.13173	0.25391	0.28085	0.071866	0.33466	0.36067	0.41708	0.12758	0.18409	0.23169	0.016892	0.21145	0.10042	0.094514	-2.2417	-3.0458	-3.1979	-2.6312	-3.2458	-2.9854	-2.7062	-3.7167	-2.6604	-3.1458	-3.2562	-2.7167	-3.4479	-3.0646	-2.6562	-3.4854	392.037	483.145	345.283	196.028	274.810	250.743	413.500	492.217	487.288	394.472	508.943	420.402	411.710	485.985	234.314	469.654	0.0011464	0.00097041	0.0002082	1038.9	8.009e-06	1.0016e-05	946.65	426.14	6.8663e-06	6.1034e-06	430.25	185.7	176.43	86.911	6.5694e-06	103.42	0.0010491	0.0009989	0.00027756	997.73	1.063e-05	1.0967e-05	908.24	411.5	1.0729e-05	1.1022e-05	414.41	179.54	171.05	84.984	1.09e-05	100.31	267.199	227.542	247.962	179.713	323.506	327.217	178.637	184.890	336.203	301.168	182.404	186.645	188.671	193.559	346.267	190.549	-8191	255	
46145.133	1	1	0	0	0.11784	0.24719	0.10208	0.13352	0.2559	0.05177	0.12303	0.28516	0.26572	0.17499	0.18374	0.2571	0.069674	0.5023	0.14795	0.11729	-2.1667	-2.9688	-3.3417	-2.7354	-3.2958	-2.8729	-2.9104	-3.3708	-2.6167	-2.8917	-3.55	-2.7771	-3.4146	-3.3979	-2.7646	-3.4437	503.928	236.507	199.549	471.214	343.632	278.794	234.296	173.826	480.508	445.491	428.963	519.485	182.333	522.376	201.426	447.356	0.001116	0.00068946	0.00016395	1033.2	9.3377e-06	6.8971e-06	945.62	426.88	6.6926e-06	5.9748e-06	430.68	186.9	177.43	87.645	9.8283e-06	103.84	0.001017	0.00097941	0.00027694	994.72	1.0527e-05	1.0829e-05	909.07	411.7	1.0698e-05	1.0933e-05	415.46	180.16	171.93	85.51	1.0688e-05	101.05	270.661	259.599	281.218	179.435	329.962	329.095	178.289	184.646	330.145	278.318	182.396	186.886	188.865	193.447	315.743	190.387	-8191	255	
46145.254	1	1	0	0	0.2124	0.090809	0.12045	0.081739	0.20848	0.10122	0.17753	0.19418	0.35874	0.23152	0.34956	0.19776	0.33034	0.17854	0.22572	0.13925	-2.4437	-2.8896	-3.4396	-2.7458	-3.1354	-3.2812	-2.8729	-3.5875	-2.8458	-2.8937	-3.5854	-2.8042	-3.1688	-3.4437	-2.55	-3.5625	285.821	197.172	323.556	234.064	515.543	276.681	491.306	442.825	307.423	352.402	500.082	444.732	193.914	475.249	337.701	442.547	0.0010689	0.00083847	0.00022941	1033.2	7.2999e-06	6.3125e-06	953.31	427.5	5.7124e-06	7.4249e-06	431.92	186.47	177.39	87.757	3.6485e-06	104.75	0.0010171	0.00099653	0.0002744	995.6	1.0641e-05	1.0898e-05	913.55	412.66	1.086e-05	1.0703e-05	417.59	181.03	172	85.559	1.0884e-05	101.78	269.402	272.412	243.451	179.421	293.937	327.242	178.313	184.745	305.785	269.528	182.212	186.837	188.821	193.551	299.157	190.547	-8191	255	
46145.348	1	1	0	0	0.089506	0.25985	0.42255	0.27502	0.10341	0.09879	0.22195	0.052647	0.25663	0.14753	0.25575	0.20006	0.054591	0.26389	0.14545	0.25409	-2.6146	-2.7562	-3.4979	-2.8292	-2.9667	-3.3	-2.7062	-3.4938	-2.8167	-2.6562	-3.6562	-2.7458	-2.9125	-3.4333	-2.6437	-3.4771	504.366	192.253	516.547	469.934	270.215	229.260	405.709	450.534	236.289	352.775	482.361	451.183	207.452	513.471	192.405	216.215	0.0010154	0.00090803	0.00019176	1034.2	9.0226e-06	3.9598e-06	948.75	428.57	7.2874e-06	6.2227e-06	434.47	185.82	176.71	88.081	1.0938e-05	103.55	0.0010272	0.0010057	0.00028381	998.51	1.0782e-05	1.096e-05	914.35	413.34	1.0833e-05	1.1234e-05	418.46	180.69	171.46	85.328	1.1057e-05	100.81	268.969	236.911	285.315	179.591	328.702	312.053	178.479	184.803	302.879	282.177	182.607	187.036	188.761	193.424	321.009	190.504	-8191	255	
46145.422	1	1	0	0	0.059447	0.21829	0.076098	0.12612	0.16758	0.28539	0.19396	0.051699	0.24734	0.16873	0.11446	0.14508	0.085741	0.045825	0.12463	0.27978	-2.8458	-2.5583	-3.3187	-3.0542	-2.8854	-3.3063	-2.9646	-3.5083	-3.1021	-2.6667	-3.4396	-2.9146	-2.9792	-3.6188	-2.5417	-3.1312	412.973	525.396	209.336	481.176	276.350	415.889	206.914	185.559	441.981	243.541	486.863	172.728	260.164	272.989	170.856	441.621	0.0011313	0.00084817	0.00035805	1038.4	4.6108e-06	8.9139e-06	946.02	426.53	7.1486e-06	7.8158e-06	431.49	184.96	175.77	86.662	6.8198e-06	103.23	0.0010457	0.0010132	0.00028813	997.29	1.0885e-05	1.1154e-05	908.96	410.9	1.1008e-05	1.1098e-05	415.11	179.14	170.51	84.563	1.112e-05	100.13	268.397	251.251	261.633	179.567	321.066	325.057	178.443	184.694	302.196	340.981	182.483	186.627	188.706	193.492	320.070	190.484	-8191	255	
46145.516	1	1	0	0	0.13726	0.24905	0.070542	0.23541	0.16395	0.11268	0.17492	0.12028	0.083488	0.20168	0.23117	0.18923	0.21264	0.13445	0.093845	0.19254	-2.8438	-2.475	-3.2438	-2.9229	-2.7062	-3.4062	-2.6458	-3.3375	-3.1542	-2.4708	-3.6354	-3	-2.7521	-3.5812	-2.8417	-3.3979	207.027	420.606	384.980	525.744	510.873	485.461	451.356	297.599	526.325	337.061	408.362	253.922	520.880	470.600	191.966	465.499	0.0011604	0.0010814	0.00020193	1035.8	1.0765e-05	4.9188e-06	947.75	425.05	7.2471e-06	7.7879e-06	429.49	184.79	175.44	86.671	1.0494e-05	102.73	0.0010393	0.0010047	0.00028476	996.07	1.1023e-05	1.1019e-05	909.64	410.88	1.088e-05	1.1156e-05	415.79	179.69	170.42	84.635	1.1101e-05	100.23	271.566	236.393	277.740	179.463	340.537	338.576	178.180	184.879	341.480	326.631	182.605	186.798	188.852	193.744	304.662	190.644	-8191	255	
46145.637	1	1	0	0	0.13625	0.15522	0.18165	0.10047	0.051963	0.051076	0.34837	0.2559	0.10159	0.10596	0.16282	0.29052	0.10943	0.2371	0.10502	0.34841	-3.075	-2.4833	-3.3646	-3	-2.7333	-3.3979	-2.9729	-3.1667	-3.3688	-2.6667	-3.1562	-3.2938	-2.8146	-3.5771	-2.6937	-3.3667	493.714	274.346	175.416	171.680	393.658	219.771	449.663	470.065	306.313	368.547	195.327	459.195	345.121	483.024	292.195	465.115	0.0010329	0.00069553	0.00026147	1034.7	6.7394e-06	7.4755e-07	948.37	425.41	6.2899e-06	3.3466e-06	431.89	186.46	175.92	87.103	9.6672e-06	103.06	0.0010478	0.0010133	0.00028295	996.25	1.0785e-05	1.114e-05	911.11	411.09	1.0752e-05	1.1216e-05	416.88	179.99	170.64	84.669	1.1231e-05	100.31	269.246	270.239	254.668	179.336	322.798	500.127	178.258	184.667	324.698	318.089	182.513	186.975	188.621	193.598	300.631	190.532	-8191	255	
46145.734	1	1	0	0	0.1993	0.20584	0.14013	0.27604	0.078328	0.084568	0.04933	0.24574	0.13682	0.10201	0.049526	0.098547	0.24917	0.30067	0.28085	0.29493	-2.9833	-2.5521	-3.0104	-3.1688	-2.6312	-3.3333	-2.8146	-2.9167	-3.4208	-2.5687	-3.3688	-3.5292	-2.5979	-3.6167	-2.7438	-3.0438	220.013	289.146	212.014	496.731	495.465	325.109	472.252	477.457	225.965	477.729	462.626	262.986	509.576	180.124	454.070	448.621	0.0010938	0.00085382	0.00019865	1032.8	5.3771e-06	6.2236e-06	946.05	423.89	5.9812e-06	9.882e-06	430.1	184.87	175.6	86.559	8.6569e-06	102.39	0.0010364	0.001025	0.00028469	996.21	1.087e-05	1.1152e-05	910.41	410.17	1.1003e-05	1.1222e-05	414.53	178.53	170.23	84.472	1.1071e-05	99.678	268.941	227.689	272.267	179.514	326.454	253.142	178.264	184.650	310.547	321.104	182.562	186.614	188.549	193.588	327.416	190.609	-8191	255	
46145.828	1	1	0	0	0.1972	0.017234	0.23723	0.20467	0.14328	0.13024	0.25033	0.24874	0.072093	0.22659	0.032366	0.21089	0.27998	0.09004	0.13774	0.11754	-3.3063	-2.725	-3.1333	-3.4729	-2.5396	-3.2583	-3.0146	-2.8854	-3.425	-2.7229	-3.1583	-3.4396	-2.7396	-3.3646	-2.9938	-2.7854	328.210	414.511	396.584	521.967	312.899	324.905	487.448	485.351	315.502	362.051	480.974	510.326	489.331	518.128	173.551	463.432	0.0010326	0.00089826	0.00015536	1034.2	7.469e-06	4.7892e-06	944.32	424.49	7.872e-06	4.2063e-06	428.51	185.21	176.15	86.802	6.853e-06	103.04	0.001039	0.0010273	0.00028877	994.87	1.065e-05	1.109e-05	906.14	410.49	1.0899e-05	1.1199e-05	414.61	179.33	170.84	84.564	1.1073e-05	99.875	267.309	262.415	302.158	179.492	318.861	281.959	177.869	184.845	308.131	376.628	182.778	186.767	188.820	193.681	288.415	190.645	-8191	255	
46145.949	1	1	0	0	0.15877	0.09787	0.16974	0.15417	0.15688	0.23548	0.11319	0.15982	0.17513	0.12518	0.18726	0.20453	0.26557	0.13465	0.22761	0.157	-3.0521	-2.6458	-2.9313	-3.525	-2.7	-3.2771	-3.4188	-2.9042	-3.4625	-2.775	-2.9333	-3.5375	-2.8438	-3.4604	-3.2958	-2.7896	457.455	438.819	486.607	516.068	359.064	177.912	517.554	205.968	351.135	452.894	467.275	450.964	469.741	483.251	301.876	189.928	0.0011083	0.00035813	0.00029831	1032.5	5.6627e-06	8.8697e-06	945.64	423.53	9.808e-06	3.9454e-06	430.9	184.19	175.57	86.795	2.5891e-06	103.11	0.0010363	0.001007	0.00028338	997.36	1.0753e-05	1.1069e-05	907.69	410.54	1.0709e-05	1.1177e-05	415.41	178.95	170.4	84.754	1.0979e-05	100.26	268.190	246.989	252.208	179.727	297.438	351.512	178.180	184.651	334.881	344.224	182.658	186.502	188.772	193.575	340.431	190.659	-8191	255	
46146.023	1	1	0	0	0.1381	0.19838	0.14608	0.22176	0.090132	0.16954	0.26928	0.27831	0.084907	0.31987	0.18248	0.2512	0.2183	0.06541	0.13152	0.28104	-3.1042	-2.8937	-3.0229	-3.4521	-2.6521	-3.175	-3.4292	-2.7125	-3.3625	-2.7583	-2.7646	-3.5771	-2.7125	-3.2542	-3.5229	-3.0292	522.777	444.123	252.073	502.395	256.772	300.382	497.501	391.426	452.385	432.106	170.697	499.594	456.404	247.492	191.468	168.794	0.0010716	0.00034472	0.00021723	1037.1	8.612e-06	8.3437e-06	944.35	424.6	7.2366e-06	1.9353e-06	428.54	185.31	176.37	86.991	2.0798e-06	103.49	0.001031	0.0010124	0.00028256	998.06	1.0893e-05	1.1114e-05	910.19	410.98	1.09e-05	1.113e-05	416.09	179.39	170.62	84.877	1.1178e-05	100.89	269.133	333.168	265.426	179.365	318.823	315.530	178.307	184.777	289.461	365.795	182.050	186.939	188.550	193.595	312.499	190.415	-8191	255	
46146.117	1	1	0	0	0.038929	0.17064	0.21489	0.20338	0.06581	0.14296	0.1354	0.25	0.2251	0.035838	0.029776	0.15249	0.28707	0.073273	0.15634	0.22132	-3.1042	-2.9813	-2.8187	-3.5417	-2.4771	-3.1	-3.4646	-2.65	-3.2396	-3.1854	-2.8104	-3.4792	-2.9313	-2.9896	-3.425	-2.8688	520.117	497.965	288.409	525.175	268.606	341.198	394.983	455.025	275.434	519.742	282.040	487.192	417.961	480.565	241.870	507.556	0.0010665	0.00077228	0.00017799	1045.3	4.7125e-06	7.0172e-06	944.43	424.98	4.9458e-06	8.5335e-06	427.74	186.02	176.68	87.169	5.8576e-06	103.41	0.0010324	0.00099378	0.00028368	1002.3	1.0841e-05	1.1032e-05	909.29	411.14	1.0906e-05	1.0835e-05	415.04	179.84	171	85.144	1.0749e-05	100.38	268.655	277.538	263.421	179.377	295.012	332.799	178.271	184.942	336.898	318.456	182.539	186.571	188.798	193.638	293.262	190.341	-8191	255	
46146.238	1	1	0	0	0.26852	0.029902	0.2825	0.27967	0.23252	0.031789	0.30834	0.21996	0.19818	0.22113	0.20448	0.24803	0.36576	0.26883	0.095562	0.41756	-2.8083	-2.8646	-2.7146	-3.4729	-2.7854	-2.825	-3.5062	-2.7521	-3.1146	-3.0625	-2.9375	-3.5563	-3.0771	-3.1292	-3.3646	-2.7833	437.061	508.989	249.371	454.579	407.948	362.906	476.832	192.293	462.940	484.402	519.722	482.499	453.442	488.578	470.883	432.421	0.0010838	0.00075277	0.00026383	1040.3	1.1601e-05	7.9008e-06	946.46	426.06	9.4726e-06	7.9656e-06	428.16	184.24	176.6	86.999	1.161e-05	103.23	0.0010357	0.0009964	0.0002834	999.64	1.073e-05	1.0984e-05	907.14	410.89	1.0798e-05	1.0713e-05	414.17	178.59	170.9	84.872	1.0793e-05	100.43	266.098	261.432	243.444	179.576	362.870	288.164	178.200	184.723	321.136	317.564	182.594	186.687	188.464	193.764	311.578	190.630	-8191	255	
46146.332	1	1	0	0	0.061985	0.16936	0.19162	0.15265	0.045767	0.054136	0.26358	0.087729	0.16874	0.27377	0.24338	0.14129	0.10435	0.29592	0.085645	0.15138	-2.7979	-3.1479	-2.4667	-3.5312	-2.9625	-2.7854	-3.5812	-2.8271	-3.1354	-3.2792	-2.7083	-3.4667	-3.1104	-2.7292	-3.5083	-2.9	291.981	388.053	176.815	427.863	225.308	183.860	170.950	513.102	514.907	425.444	465.816	503.059	396.049	433.141	332.738	446.496	0.0010595	0.0011919	0.00031549	1034.3	6.8862e-06	9.6653e-06	944.67	422.68	8.6758e-06	3.5683e-06	430.73	183.58	175.46	86.895	7.5114e-06	103.98	0.0010202	0.00098251	0.0002793	999.1	1.0654e-05	1.0828e-05	908.6	410.49	1.0777e-05	1.0839e-05	415.18	179.01	170.3	84.803	1.0915e-05	100.87	266.070	264.568	267.227	179.308	327.733	325.307	178.290	184.689	330.912	352.785	182.547	186.746	188.739	193.417	314.643	190.400	-8191	255	
46146.430	1	1	0	0	0.082339	0.20106	0.0215	0.14403	0.093697	0.051189	0.19489	0.25252	0.15889	0.10958	0.18722	0.12115	0.2731	0.096902	0.06261	0.29466	-2.6792	-3.4229	-2.4896	-3.4313	-3.1167	-2.4854	-3.6417	-2.8625	-2.8312	-3.6104	-2.6312	-3.3458	-3.375	-2.8	-3.4688	-3.2562	323.545	199.262	399.972	511.570	182.096	416.189	395.353	488.898	341.001	247.522	490.803	175.442	401.067	471.626	404.233	500.062	0.001117	0.0011503	0.00017984	1034.2	1.093e-05	8.7072e-06	953.45	425.71	8.6947e-06	1.0957e-05	431	186.29	175.91	87.436	8.8661e-06	104.27	0.0010289	0.00099277	0.0002737	998.49	1.0574e-05	1.0819e-05	911.48	411.2	1.0769e-05	1.0849e-05	415.62	180.27	170.68	85.179	1.1106e-05	101.42	270.367	251.258	226.096	179.680	323.651	335.669	178.072	184.640	317.386	305.976	182.401	186.835	188.660	193.463	305.755	190.496	-8191	255	
46146.551	1	1	0	0	0.15271	0.3117	0.034216	0.042433	0.10241	0.23799	0.1564	0.37768	0.10172	0.13423	0.16617	0.18244	0.078367	0.44018	0.12083	0.057488	-2.475	-3.6104	-2.55	-3.4062	-3.1771	-2.4729	-3.5729	-3.0979	-2.8042	-3.3875	-2.8396	-3.2542	-3.275	-2.5708	-3.2521	-3.2812	235.313	199.697	187.390	249.221	458.276	244.722	372.428	468.773	435.835	226.138	418.966	432.672	509.330	471.085	354.091	241.836	0.0011508	0.0011148	0.00032527	1037.6	8.683e-06	1.1193e-05	945.09	425.29	3.3219e-06	7.1203e-06	428.19	183.46	176.75	87.191	6.3698e-06	103.05	0.0010366	0.0010056	0.00028453	999.38	1.0888e-05	1.1181e-05	908.03	410.71	1.0764e-05	1.1002e-05	414.53	178.8	170.64	84.96	1.1279e-05	100.22	269.365	273.822	233.454	179.366	335.730	328.926	178.080	184.567	346.427	329.418	182.147	186.733	188.680	193.512	308.293	190.447	-8191	255	
#DATA ENDS
