BOXY.EXE: ISS Imagent and Oximeter Data Acquisition Program Version 0.80
Ascii Record File

#ACQ INFORMATION
2  Detector Channels 
16  External MUX Channels 
1  Auxiliary Channels 
5000  Waveform (CCF) Frequency (Hz)
1  Waveforms Skipped 
30  Waveforms Averaged 
1  Cycles Averaged 
16  Acquisitions per Waveform 
10.0806  Updata Rate (Hz) 

#FILE INFORMATION
TRUE -- External MUX Channel results are PARSED.
FALSE -- AC DC and Phase are NOT grouped.
TRUE -- Companion Program Settings File CREATED.
FALSE -- AC data not excluded
FALSE -- DC data not excluded
FALSE -- Phase data not excluded
FALSE -- Auxillary Chn. data not excluded
Tab delimiters

#CALIBRATION STATE
TRUE -- Waveform Calibration Values APPLIED.


#AUX CALIBRATION VALUES
Val Type	aux-1	

Term	1.0000e+00	
Factor	0.0000e+00	


#WF CALIBRATION VALUES
A = Detector Channel
Val Type	A-AC1	A-AC2	A-AC3	A-AC4	A-AC5	A-AC6	A-AC7	A-AC8	A-AC9	A-AC10	A-AC11	A-AC12	A-AC13	A-AC14	A-AC15	A-AC16	A-DC1	A-DC2	A-DC3	A-DC4	A-DC5	A-DC6	A-DC7	A-DC8	A-DC9	A-DC10	A-DC11	A-DC12	A-DC13	A-DC14	A-DC15	A-DC16	A-Ph1	A-Ph2	A-Ph3	A-Ph4	A-Ph5	A-Ph6	A-Ph7	A-Ph8	A-Ph9	A-Ph10	A-Ph11	A-Ph12	A-Ph13	A-Ph14	A-Ph15	A-Ph16	

Term	0.00000e+00	0.00000e+00	0.00000e+00	0.00000e+00	0.00000e+00	0.00000e+00	0.00000e+00	0.00000e+00	0.00000e+00	0.00000e+00	0.00000e+00	0.00000e+00	0.00000e+00	0.00000e+00	0.00000e+00	0.00000e+00	0.00000e+00	0.00000e+00	0.00000e+00	0.00000e+00	0.00000e+00	0.00000e+00	0.00000e+00	0.00000e+00	0.00000e+00	0.00000e+00	0.00000e+00	0.00000e+00	0.00000e+00	0.00000e+00	0.00000e+00	0.00000e+00	0.00000e+00	0.00000e+00	0.00000e+00	0.00000e+00	0.00000e+00	0.00000e+00	0.00000e+00	0.00000e+00	0.00000e+00	0.00000e+00	0.00000e+00	0.00000e+00	0.00000e+00	0.00000e+00	0.00000e+00	0.00000e+00	
Factor	1.00000e+00	1.00000e+00	1.00000e+00	1.00000e+00	1.00000e+00	1.00000e+00	1.00000e+00	1.00000e+00	1.00000e+00	1.00000e+00	1.00000e+00	1.00000e+00	1.00000e+00	1.00000e+00	1.00000e+00	1.00000e+00	1.00000e+00	1.00000e+00	1.00000e+00	1.00000e+00	1.00000e+00	1.00000e+00	1.00000e+00	1.00000e+00	1.00000e+00	1.00000e+00	1.00000e+00	1.00000e+00	1.00000e+00	1.00000e+00	1.00000e+00	1.00000e+00	X	X	X	X	X	X	X	X	X	X	X	X	X	X	X	X	

B = Detector Channel
Val Type	B-AC1	B-AC2	B-AC3	B-AC4	B-AC5	B-AC6	B-AC7	B-AC8	B-AC9	B-AC10	B-AC11	B-AC12	B-AC13	B-AC14	B-AC15	B-AC16	B-DC1	B-DC2	B-DC3	B-DC4	B-DC5	B-DC6	B-DC7	B-DC8	B-DC9	B-DC10	B-DC11	B-DC12	B-DC13	B-DC14	B-DC15	B-DC16	B-Ph1	B-Ph2	B-Ph3	B-Ph4	B-Ph5	B-Ph6	B-Ph7	B-Ph8	B-Ph9	B-Ph10	B-Ph11	B-Ph12	B-Ph13	B-Ph14	B-Ph15	B-Ph16	

Term	0.00000e+00	0.00000e+00	0.00000e+00	0.00000e+00	0.00000e+00	0.00000e+00	0.00000e+00	0.00000e+00	0.00000e+00	0.00000e+00	0.00000e+00	0.00000e+00	0.00000e+00	0.00000e+00	0.00000e+00	0.00000e+00	0.00000e+00	0.00000e+00	0.00000e+00	0.00000e+00	0.00000e+00	0.00000e+00	0.00000e+00	0.00000e+00	0.00000e+00	0.00000e+00	0.00000e+00	0.00000e+00	0.00000e+00	0.00000e+00	0.00000e+00	0.00000e+00	-4.94537e+01	-1.32809e+02	-1.23513e+02	-1.81272e+02	-4.96041e+01	-6.63140e+01	-1.58454e+02	-1.62015e+02	-4.15339e+01	-6.63104e+01	-1.70397e+02	-1.70056e+02	-1.81304e+02	-1.76553e+02	-5.05393e+01	-1.49279e+02	
Factor	1.87085e-05	1.43766e-04	4.24095e-05	1.53419e-01	1.53692e-06	1.72329e-06	1.65314e-01	5.65315e-02	1.29581e-06	1.63815e-06	8.74246e-02	2.87404e-02	2.54357e-02	8.54675e-03	1.52938e-06	1.21105e-02	1.62134e-05	3.95395e-05	1.11172e-05	7.86664e-02	3.62932e-07	4.53557e-07	7.97313e-02	2.91212e-02	3.67586e-07	4.50120e-07	4.36910e-02	1.44261e-02	1.32318e-02	4.45127e-03	3.92718e-07	6.10433e-03	X	X	X	X	X	X	X	X	X	X	X	X	X	X	X	X	



#DISTANCE SETTINGS
A = Detector Channel
A-1	A-2	A-3	A-4	A-5	A-6	A-7	A-8	A-9	A-10	A-11	A-12	A-13	A-14	A-15	A-16	

2.5000e+00	3.0000e+00	2.5000e+00	3.0000e+00	2.0000e+00	3.0000e+00	1.5000e+00	3.0000e+00	3.0000e+00	3.0000e+00	3.0000e+00	3.0000e+00	3.0000e+00	3.0000e+00	1.5000e+00	3.0000e+00	

B = Detector Channel
B-1	B-2	B-3	B-4	B-5	B-6	B-7	B-8	B-9	B-10	B-11	B-12	B-13	B-14	B-15	B-16	

1.0000e+01	1.0000e+01	1.0000e+01	1.4400e+00	1.0000e+01	1.0000e+01	1.5100e+00	1.9400e+00	1.0000e+01	1.0000e+01	1.9900e+00	2.4900e+00	2.4100e+00	2.9000e+00	1.0000e+01	2.9800e+00	




#DATA BEGINS
time	group	step	mark	flag	A-AC1	A-AC2	A-AC3	A-AC4	A-AC5	A-AC6	A-AC7	A-AC8	A-AC9	A-AC10	A-AC11	A-AC12	A-AC13	A-AC14	A-AC15	A-AC16	A-DC1	A-DC2	A-DC3	A-DC4	A-DC5	A-DC6	A-DC7	A-DC8	A-DC9	A-DC10	A-DC11	A-DC12	A-DC13	A-DC14	A-DC15	A-DC16	A-Ph1	A-Ph2	A-Ph3	A-Ph4	A-Ph5	A-Ph6	A-Ph7	A-Ph8	A-Ph9	A-Ph10	A-Ph11	A-Ph12	A-Ph13	A-Ph14	A-Ph15	A-Ph16	B-AC1	B-AC2	B-AC3	B-AC4	B-AC5	B-AC6	B-AC7	B-AC8	B-AC9	B-AC10	B-AC11	B-AC12	B-AC13	B-AC14	B-AC15	B-AC16	B-DC1	B-DC2	B-DC3	B-DC4	B-DC5	B-DC6	B-DC7	B-DC8	B-DC9	B-DC10	B-DC11	B-DC12	B-DC13	B-DC14	B-DC15	B-DC16	B-Ph1	B-Ph2	B-Ph3	B-Ph4	B-Ph5	B-Ph6	B-Ph7	B-Ph8	B-Ph9	B-Ph10	B-Ph11	B-Ph12	B-Ph13	B-Ph14	B-Ph15	B-Ph16	aux-1	digaux	

29978.045	1	1	0	256	0.15277	0.23953	0.22988	0.23787	0.1116	0.14101	0.28073	0.1806	0.29084	0.18819	0.12346	0.18991	0.22898	0.16684	0.16444	0.3504	-2.7354	-2.4833	-3.3292	-3.0312	-2.6896	-3.5438	-2.875	-3.1333	-3.1312	-2.5	-3.4062	-2.9667	-2.7313	-3.3479	-2.5458	-3.0375	440.573	225.997	354.371	456.568	481.330	345.753	480.664	396.152	500.276	446.712	342.951	217.325	422.177	416.222	174.707	423.265	0.00058544	0.00027411	0.00011609	1453.5	5.2139e-06	4.3621e-06	1434.1	379.79	4.644e-06	4.8555e-06	430.86	137.3	120.61	40.406	7.1744e-06	50.253	0.0015742	0.0030372	0.00082566	1480.4	2.8241e-05	3.3779e-05	1462.6	388.72	2.8437e-05	3.42e-05	442.94	141.24	124.24	41.933	3.0769e-05	52.169	274.645	232.010	244.853	171.800	332.533	328.992	171.571	176.473	320.241	315.012	175.969	180.516	181.058	185.616	321.088	184.745	-8191	255	
29978.141	1	1	0	0	0.15955	0.19581	0.054478	0.27656	0.067698	0.22267	0.33054	0.29152	0.21453	0.1593	0.21564	0.40465	0.10767	0.1995	0.22911	0.088548	-2.8354	-2.3104	-3.175	-3.025	-2.5292	-3.3417	-2.8771	-2.8438	-3.2042	-2.5333	-3.0354	-3.1104	-2.4854	-3.3187	-2.6958	-3.1146	443.970	293.471	438.247	479.645	295.557	398.095	445.168	405.150	347.694	251.515	407.983	445.141	385.574	181.007	309.942	353.776	0.00056591	0.00074171	0.00018157	1457.4	4.8432e-06	7.1197e-06	1439.3	379.38	5.3812e-06	2.5514e-06	432.33	137.85	121.05	40.298	4.121e-06	50.341	0.0015731	0.0030259	0.00084481	1481.5	2.8914e-05	3.4129e-05	1462.8	388.32	2.8267e-05	3.4096e-05	443.44	141.48	124.27	41.864	3.0373e-05	52.111	274.223	229.868	263.375	171.859	294.441	301.163	171.696	176.544	338.807	331.211	175.969	180.625	181.146	185.990	331.459	185.020	-8191	255	
29978.260	1	1	0	0	0.25413	0.074246	0.16658	0.29424	0.20517	0.099101	0.10113	0.19724	0.27766	0.21586	0.1138	0.21583	0.27904	0.069782	0.059605	0.13864	-3.0521	-2.4958	-3.0708	-3.25	-2.2729	-3.3979	-2.9396	-2.7292	-3.2396	-2.4396	-3.1583	-3.1458	-2.6312	-3.3958	-2.9146	-2.6708	161.551	333.080	376.982	169.278	228.575	391.404	443.971	421.901	487.752	250.503	384.602	243.570	487.850	468.641	230.006	425.205	0.00063053	0.00052392	0.00013999	1451.5	8.5483e-06	2.6318e-06	1434.3	379.73	7.9782e-06	7.3416e-06	432.03	137.6	120.48	40.292	6.7308e-06	50.057	0.0015886	0.0030303	0.00084859	1480.3	2.8756e-05	3.5292e-05	1459.5	388.26	2.9075e-05	3.5733e-05	442.6	141.21	124.15	41.747	3.2146e-05	52.012	273.998	253.622	245.238	171.933	292.833	279.539	171.724	176.677	317.373	318.166	176.172	180.667	181.473	186.001	329.388	185.755	-8191	255	
29978.355	1	1	0	0	0.15655	0.11839	0.05572	0.26067	0.12057	0.11773	0.52623	0.32058	0.27799	0.19127	0.072174	0.23265	0.12127	0.18437	0.27001	0.11519	-2.9333	-2.6188	-2.9688	-3.4542	-2.4688	-3.4396	-3.0854	-2.8021	-3.4042	-2.6479	-3.0021	-3.3812	-2.5396	-3.1667	-2.9542	-2.5875	449.523	463.422	491.443	175.756	313.340	222.545	488.953	390.366	382.650	433.367	286.866	457.687	363.416	225.888	240.690	411.244	0.00061607	0.00031775	0.00010918	1446.6	6.3031e-06	5.5553e-06	1437	378.26	6.8125e-06	5.3059e-06	430.25	136.39	120.4	40.03	3.654e-06	50.156	0.0016664	0.003251	0.00091592	1476.4	3.0536e-05	3.7318e-05	1461.2	387.75	3.0549e-05	3.6384e-05	442.19	141.1	123.8	41.743	3.2315e-05	51.953	271.999	186.469	278.121	172.414	288.104	311.866	172.559	177.485	312.255	338.093	177.328	181.914	182.601	186.698	281.519	185.539	-8191	255	
29978.451	1	1	0	0	0.13199	0.079469	0.23502	0.3119	0.11126	0.26442	0.11438	0.30527	0.12405	0.22769	0.080403	0.16917	0.09795	0.17931	0.11731	0.10953	-2.9562	-2.7604	-2.8104	-3.4979	-2.6729	-3.1771	-3.1854	-2.6688	-3.2979	-2.7021	-2.9375	-3.4375	-2.5292	-2.9771	-3.0479	-2.4208	477.215	342.883	173.466	485.781	218.706	316.040	431.030	503.768	294.490	465.642	331.311	238.616	202.717	481.061	329.833	470.478	0.000606	0.00059739	0.00019216	1448.3	7.6767e-06	7.4023e-06	1431.6	379.4	5.8695e-06	6.2913e-06	431.15	137.29	120.29	40.157	6.2505e-06	50.101	0.0016622	0.0032121	0.00090315	1477.9	3.0475e-05	3.6267e-05	1457.7	387.88	2.9545e-05	3.5376e-05	442.3	141.24	123.92	41.815	3.1187e-05	51.957	274.013	220.387	257.651	172.468	309.012	292.262	172.290	177.139	315.735	300.243	176.593	181.017	181.664	186.375	296.710	185.418	-8191	255	
29978.547	1	1	0	0	0.14214	0.11239	0.11166	0.20547	0.20876	0.0024535	0.3915	0.2901	0.30695	0.13692	0.09018	0.22341	0.073145	0.10042	0.097178	0.17018	-2.8563	-2.6604	-2.6917	-3.55	-2.5812	-3.0125	-3.4938	-2.7854	-3.1312	-2.7979	-2.7458	-3.4479	-2.7271	-3.0146	-3.0604	-2.6312	391.691	427.791	491.608	412.552	271.239	364.849	440.744	440.711	465.572	189.649	425.633	511.908	418.139	505.485	383.689	485.897	0.00055425	0.00056527	0.00010396	1450.1	5.9326e-06	7.893e-06	1432	378.75	5.5371e-06	4.285e-06	430.24	137.27	120.7	40.193	5.1235e-06	50.096	0.0016073	0.003153	0.00086783	1477.5	2.951e-05	3.5674e-05	1459.5	387.97	2.9942e-05	3.4655e-05	442.44	141.16	123.96	41.794	3.1442e-05	51.973	275.303	269.427	254.978	172.414	302.422	353.101	172.192	177.186	328.077	283.288	176.673	181.000	181.703	186.299	304.896	185.684	-8191	255	
29978.643	1	1	0	0	0.24148	0.16437	0.19432	0.26948	0.10873	0.273	0.1237	0.15149	0.088769	0.085433	0.24151	0.094997	0.17663	0.18026	0.10815	0.10504	-2.9875	-3.0104	-2.6833	-3.6125	-2.4313	-2.8354	-3.5542	-2.5375	-3.2125	-2.9562	-2.7104	-3.3854	-2.6958	-2.8125	-3.4146	-2.5938	350.398	492.549	250.993	488.894	373.849	216.038	440.084	466.272	392.726	173.986	250.384	267.119	504.616	221.093	429.466	367.810	0.00056758	0.00040096	0.00013613	1450.6	6.8024e-06	6.6498e-06	1432.1	379.85	4.3524e-06	6.7807e-06	430.28	137.25	120.53	40.258	4.102e-06	49.958	0.0016499	0.0031739	0.00088467	1478.8	3.0452e-05	3.6236e-05	1460.1	388.48	3.0599e-05	3.6098e-05	442.01	141.25	124.01	41.82	3.2236e-05	51.991	274.476	241.949	263.002	172.711	327.888	298.628	171.297	176.336	304.634	327.042	175.924	180.110	181.067	185.919	324.565	184.504	-8191	255	
29978.738	1	1	0	0	0.29326	0.3026	0.093972	0.14605	0.043283	0.17187	0.091226	0.15461	0.13797	0.17011	0.079665	0.13539	0.31292	0.12632	0.083181	0.17208	-2.8937	-3.1729	-2.4813	-3.2375	-2.5979	-2.6875	-3.6792	-2.7146	-3.0208	-3.1688	-2.625	-3.4521	-3.0458	-2.6979	-3.5438	-2.6312	473.665	512.710	223.129	407.072	160.105	490.859	389.397	463.151	334.118	274.298	511.893	465.514	425.249	165.678	419.818	209.461	0.00053231	0.00052912	0.00014418	1451.8	4.5739e-06	4.5246e-06	1436.6	378.5	6.4642e-06	5.5704e-06	430.01	136.97	120.45	40.249	4.4227e-06	50.2	0.0016978	0.0032446	0.00092757	1479.6	3.1519e-05	3.7604e-05	1463.9	388	3.1437e-05	3.7059e-05	442.31	141.06	124.03	41.78	3.2938e-05	52.033	272.645	238.483	242.655	171.865	275.601	357.743	171.388	176.418	329.671	304.711	175.900	180.277	180.989	185.600	306.312	184.739	-8191	255	
29978.859	1	1	0	0	0.13678	0.12139	0.034035	0.13469	0.36535	0.21318	0.13438	0.059518	0.33183	0.13072	0.13176	0.40905	0.062699	0.060927	0.043754	0.079051	-2.7625	-3.2812	-2.4604	-3.4208	-2.6875	-2.7729	-3.5083	-2.6	-2.8646	-3.3271	-2.35	-3.2	-2.9979	-2.6167	-3.2896	-2.6875	415.525	398.684	414.713	450.942	187.817	431.426	483.619	439.494	181.032	286.592	213.032	447.204	225.366	181.427	484.804	439.202	0.00060674	0.00062156	0.00015928	1456.8	5.6926e-06	3.6085e-06	1436.6	377.03	7.7353e-06	5.2477e-06	429.31	137.52	120.3	40.261	5.3588e-06	50.084	0.001729	0.0032665	0.00091557	1481.7	3.0544e-05	3.7041e-05	1463.7	387.63	3.0871e-05	3.5058e-05	442.02	141.37	123.95	41.884	3.2459e-05	51.945	274.248	233.701	271.151	171.572	318.110	327.537	171.560	176.468	323.513	316.116	175.834	180.165	180.850	185.537	299.212	184.672	-8191	255	
29978.955	1	1	0	0	0.2012	0.054779	0.15243	0.47069	0.19691	0.09729	0.3669	0.11456	0.16656	0.031087	0.15396	0.27905	0.18001	0.34456	0.36921	0.12605	-2.5354	-3.1854	-2.4896	-3.3312	-2.9729	-2.6083	-3.5917	-2.7667	-2.6792	-3.25	-2.5333	-3.3271	-3.2313	-2.4875	-3.4625	-2.8729	439.319	400.360	249.794	458.759	253.448	185.538	443.088	513.873	228.018	448.004	380.436	499.228	461.673	492.561	260.994	488.520	0.0005749	0.00042366	0.00020137	1452.6	6.857e-06	3.8039e-06	1439.2	379.18	7.0042e-06	3.7897e-06	430.29	137.65	120.85	40.37	7.2712e-06	50.106	0.001641	0.0030856	0.00088847	1481.1	2.9805e-05	3.6232e-05	1464.2	388.51	3.0706e-05	3.5277e-05	442.56	141.5	124.04	41.871	3.175e-05	51.976	272.702	253.467	269.321	171.903	310.884	290.721	171.610	176.485	320.396	299.872	176.026	180.404	180.751	185.499	317.585	184.457	-8191	255	
29979.053	1	1	0	0	0.17956	0.14973	0.094757	0.29944	0.031424	0.051411	0.19766	0.14512	0.11981	0.10543	0.23371	0.24442	0.15644	0.169	0.061267	0.070671	-2.4083	-3.2896	-2.5208	-3.1312	-3.2458	-2.5542	-3.4208	-2.8646	-2.6729	-3.4125	-2.6771	-2.9792	-3.2896	-2.3583	-3.3583	-2.8979	312.113	447.326	405.304	479.951	239.540	392.433	472.932	469.330	246.754	161.300	384.243	469.199	166.832	162.436	485.615	392.067	0.00059738	0.0005252	0.00020571	1455	8.1882e-06	6.6495e-06	1438.1	378.93	6.0124e-06	5.2669e-06	431.42	137.1	119.81	40.244	4.0015e-06	49.95	0.0016581	0.003126	0.00089417	1481.9	3.0811e-05	3.6698e-05	1462.3	388.13	3.0864e-05	3.5346e-05	442.63	141.14	123.75	41.775	3.2547e-05	51.958	271.366	265.817	252.229	171.802	354.072	314.726	171.483	176.459	310.706	308.421	175.749	180.437	180.771	185.539	332.236	184.528	-8191	255	
29979.148	1	1	0	0	0.13157	0.30819	0.15749	0.24969	0.11104	0.12309	0.39166	0.23822	0.35477	0.1483	0.3402	0.12436	0.15159	0.36451	0.071723	0.21218	-2.1562	-3.2854	-2.6688	-3.075	-3.2188	-2.4958	-3.275	-3.1562	-2.5833	-3.3729	-2.7188	-2.8021	-3.2875	-2.4771	-2.9562	-3.2083	390.741	268.441	358.255	492.101	241.955	508.783	464.935	477.550	404.607	203.474	430.737	403.711	419.920	488.627	233.801	433.001	0.000554	0.00062929	0.00018214	1450.9	6.8906e-06	8.4119e-06	1438	378.62	3.9608e-06	3.3016e-06	426.87	137.31	120.36	40.243	6.6141e-06	50.037	0.0016725	0.0030984	0.00090542	1479.5	3.0388e-05	3.6415e-05	1464.1	388.09	3.0422e-05	3.5951e-05	442.08	141.28	124.04	41.823	3.2013e-05	52.011	274.057	247.948	250.960	171.813	317.334	332.729	171.678	176.410	308.221	291.567	175.686	180.377	180.599	185.682	338.369	184.613	-8191	255	
29979.242	1	1	0	0	0.18501	0.091763	0.11653	0.3449	0.3038	0.27886	0.21364	0.16123	0.21946	0.27442	0.1786	0.028352	0.13369	0.087041	0.11276	0.056622	-2.2771	-3.325	-2.5979	-2.9667	-3.2979	-2.5021	-3.3708	-3.1729	-2.5604	-3.2604	-3.0083	-2.8438	-3.4125	-2.6521	-3.0625	-3.3833	429.634	506.876	233.646	463.219	219.592	325.959	504.692	380.458	167.291	280.375	194.941	246.749	473.331	486.432	197.666	352.000	0.00060603	0.00033477	0.00014099	1451.2	8.4721e-06	3.4401e-06	1439.6	379.63	7.2325e-06	4.5115e-06	431.25	137.47	120.9	40.341	4.603e-06	50.184	0.0016444	0.0031232	0.00087293	1481.3	2.9639e-05	3.6728e-05	1464.3	388.31	2.9338e-05	3.4741e-05	443.58	141.41	124.32	41.921	3.1299e-05	52.156	272.362	234.581	257.214	171.737	318.443	317.673	171.511	176.370	310.208	311.795	175.672	180.233	180.965	185.368	316.487	184.561	-8191	255	
29979.340	1	1	0	0	0.27732	0.3139	0.22258	0.5024	0.12764	0.1082	0.1999	0.098143	0.14809	0.1234	0.11313	0.17783	0.19578	0.17144	0.24394	0.066917	-2.0958	-3.2354	-2.7188	-2.8979	-3.25	-2.6896	-3.2062	-3.3917	-2.3708	-3.2562	-2.9667	-2.6354	-3.4813	-2.6917	-2.8958	-3.3125	430.735	161.597	268.075	495.161	432.827	169.615	431.939	461.911	515.310	273.397	283.462	452.874	299.878	452.897	409.687	272.176	0.00061739	0.00049997	0.00021698	1452.6	5.7888e-06	3.7694e-06	1441	379.53	6.649e-06	6.6221e-06	433.48	137.82	120.78	40.457	5.7464e-06	50.422	0.0015983	0.0030413	0.00086042	1481.5	2.8786e-05	3.4986e-05	1465.5	388.48	2.9519e-05	3.4255e-05	444.05	141.7	124.52	42.017	3.0671e-05	52.271	268.821	251.907	216.578	171.734	306.098	303.566	171.679	176.328	310.333	288.629	175.724	180.559	181.104	185.583	309.983	184.583	-8191	255	
29979.436	1	1	0	0	0.12154	0.093883	0.24183	0.26726	0.1328	0.11554	0.25601	0.079129	0.10599	0.14577	0.087773	0.11011	0.12872	0.0089944	0.036577	0.29047	-2.1958	-3.0792	-2.9	-2.7396	-3.3104	-2.6104	-2.9083	-3.5396	-2.4646	-3.2375	-3.2021	-2.6292	-3.3063	-2.7104	-2.6125	-3.3083	213.937	323.415	174.712	454.838	473.144	361.823	437.336	181.149	393.645	470.152	392.393	508.663	333.752	323.981	300.884	180.618	0.00056781	0.00049038	0.00011339	1456.6	4.1197e-06	5.158e-06	1441.7	379.45	5.4587e-06	2.6684e-06	432.93	137.38	121.37	40.553	7.3455e-06	50.359	0.0015892	0.0030368	0.0008406	1484.2	2.8557e-05	3.4589e-05	1468.6	389.14	2.8809e-05	3.4706e-05	444.06	141.79	124.55	42.091	3.0597e-05	52.307	273.050	220.237	224.553	171.782	330.149	332.801	171.533	176.379	328.664	371.825	175.742	180.641	180.864	185.489	317.954	184.569	-8191	255	
29979.531	1	1	0	0	0.16462	0.1047	0.047072	0.40394	0.050609	0.15142	0.28715	0.20446	0.18644	0.14	0.18894	0.15817	0.35462	0.023236	0.042069	0.053935	-2.1083	-3.075	-3.1146	-2.5958	-3.425	-2.7354	-2.8479	-3.4104	-2.3771	-3.0083	-3.2604	-2.4646	-3.5104	-2.9958	-2.6479	-3.4625	214.570	475.269	462.945	479.379	382.578	177.644	438.512	424.865	368.123	304.146	428.824	491.492	457.418	439.071	410.617	391.175	0.0006098	0.00052439	0.0001057	1456.5	5.2759e-06	4.6225e-06	1442.7	380.67	7.1585e-06	3.7889e-06	432.78	137.81	121.13	40.542	4.6168e-06	50.39	0.0016235	0.0029669	0.00085132	1484.7	2.835e-05	3.4583e-05	1469.7	389.36	2.8604e-05	3.458e-05	444.14	141.78	124.41	42.133	3.0378e-05	52.298	272.456	246.246	269.901	171.819	327.200	330.993	171.541	176.279	335.014	320.709	175.788	180.541	180.936	185.294	333.997	184.684	-8191	255	
29979.652	1	1	0	0	0.28844	0.07145	0.092147	0.33715	0.15898	0.10139	0.23334	0.21027	0.10965	0.025314	0.24426	0.19703	0.23908	0.082378	0.16127	0.31273	-2.25	-3.0812	-3.3667	-2.5396	-3.2687	-2.9771	-2.8563	-3.3375	-2.5125	-2.8458	-3.3125	-2.5687	-3.3875	-3.1479	-2.6063	-3.4813	268.845	179.189	450.104	470.451	314.682	224.860	406.694	454.072	324.485	412.453	170.087	367.753	491.798	477.572	270.113	464.419	0.00060249	0.00054645	0.00025946	1462.3	6.3619e-06	6.0945e-06	1445.2	381.01	6.6363e-06	5.3879e-06	432.53	137.93	120.6	40.511	6.3857e-06	50.426	0.0016113	0.0029659	0.00082841	1487.9	2.8277e-05	3.3943e-05	1469.4	390.15	2.9247e-05	3.441e-05	444.4	141.81	124.66	42.122	3.0971e-05	52.31	271.784	276.949	254.107	171.768	309.834	305.411	171.382	176.378	331.324	298.359	175.861	180.343	180.898	185.372	296.611	184.743	-8191	255	
29979.748	1	1	0	0	0.11939	0.26345	0.20836	0.24232	0.1939	0.087649	0.17172	0.032028	0.31133	0.13921	0.12338	0.15477	0.09228	0.17533	0.055783	0.19989	-2.3563	-2.7313	-3.2625	-2.7667	-3.0958	-2.9333	-2.8708	-3.5583	-2.8417	-2.7417	-3.4229	-2.4062	-3.0208	-3.1917	-2.3833	-3.2521	428.104	307.212	479.630	487.812	421.057	461.462	477.323	224.453	318.608	175.784	218.663	243.889	473.808	167.404	403.480	164.193	0.00057448	0.00060353	0.0001569	1457.4	7.6062e-06	6.7446e-06	1440.5	381.21	6.3238e-06	6.4146e-06	431.97	138.16	121.33	40.669	4.0423e-06	50.472	0.0016294	0.0030723	0.00085345	1487.9	2.9703e-05	3.5087e-05	1469.5	390.22	2.9841e-05	3.4821e-05	444.72	142.06	124.74	42.12	3.1805e-05	52.447	273.986	223.842	241.118	171.667	305.299	297.409	171.599	176.243	323.499	324.769	175.736	180.194	180.944	185.472	313.382	184.910	-8191	255	
29979.820	1	1	0	0	0.12352	0.14144	0.093468	0.16972	0.1523	0.36302	0.26071	0.29861	0.11447	0.10846	0.23647	0.10343	0.10389	0.061917	0.042385	0.15326	-2.6104	-2.7687	-3.3292	-2.7208	-3.0792	-3.2292	-2.7229	-3.3937	-2.7667	-2.7	-3.5792	-2.6271	-3.1	-3.3208	-2.4958	-3.3625	372.719	300.074	226.405	166.010	202.110	200.784	485.766	437.723	244.328	283.231	445.472	193.924	413.896	405.057	311.256	448.616	0.00060522	0.00048492	0.00014003	1467.9	5.7001e-06	5.2922e-06	1448.1	381	6.6589e-06	5.037e-06	434.17	139	121.5	40.819	7.452e-06	50.598	0.0016461	0.0030805	0.00087645	1492.2	2.9406e-05	3.4345e-05	1473.2	391.09	2.9625e-05	3.5275e-05	445.98	142.63	125.13	42.235	3.1333e-05	52.591	272.142	241.792	269.455	171.699	314.581	298.615	171.654	176.575	319.688	305.478	175.662	180.341	181.120	185.484	304.360	184.846	-8191	255	
29979.939	1	1	0	0	0.12711	0.17982	0.11887	0.19987	0.10963	0.10922	0.32042	0.26409	0.18916	0.082735	0.061297	0.051874	0.13826	0.26366	0.1616	0.23074	-2.6354	-2.4167	-3.3083	-2.8063	-2.6917	-3.4583	-2.6583	-3.1354	-2.9708	-2.5333	-3.4729	-2.7229	-2.9229	-3.4854	-2.6	-3.1875	227.386	360.521	422.058	198.594	238.430	411.213	476.541	189.961	303.787	342.463	271.346	441.057	503.673	447.748	172.106	372.718	0.0005885	0.0003628	0.0001198	1464.8	7.3432e-06	6.0859e-06	1451.5	382.06	5.4036e-06	4.6155e-06	435.1	138.46	121.71	40.823	8.5939e-06	50.565	0.0016601	0.003174	0.00089672	1492.6	3.0222e-05	3.5717e-05	1476.6	391.9	2.933e-05	3.4753e-05	447.3	142.61	125.2	42.398	3.196e-05	52.595	272.136	222.411	234.964	171.809	307.475	347.632	171.518	176.435	309.549	308.556	175.912	180.527	181.048	185.353	334.883	184.864	-8191	255	
29980.037	1	1	0	0	0.15366	0.07641	0.14595	0.066411	0.27903	0.060833	0.23786	0.16161	0.16299	0.17118	0.18862	0.11733	0.1963	0.17895	0.31045	0.13718	-2.6396	-2.5167	-3.4938	-2.9979	-2.5875	-3.3333	-2.6813	-3.0917	-3.1271	-2.6	-3.3729	-2.9833	-2.7458	-3.4042	-2.5083	-3.0792	213.126	344.838	305.277	303.792	288.665	395.701	339.875	425.444	223.929	419.204	454.153	239.497	434.729	510.008	396.367	424.526	0.0005837	0.00027662	0.00011554	1469.5	5.7349e-06	6.2445e-06	1450.1	382.3	6.3431e-06	4.9422e-06	435.38	139.08	121.72	40.768	5.5374e-06	50.689	0.0016398	0.0031197	0.00087928	1495.7	3.0331e-05	3.5983e-05	1477.1	391.92	3.0415e-05	3.6526e-05	447.89	142.83	125.4	42.304	3.2506e-05	52.605	273.407	235.782	242.335	171.766	310.388	316.545	171.669	176.560	311.190	296.162	175.672	180.430	181.111	185.615	317.641	184.775	-8191	255	
29980.133	1	1	0	0	0.03937	0.065526	0.10473	0.18864	0.20438	0.1287	0.096783	0.070867	0.086651	0.053261	0.068954	0.29192	0.42028	0.13298	0.17564	0.14192	-2.8312	-2.4229	-3.3458	-3.1375	-2.6375	-3.3771	-2.7771	-3.0438	-3.25	-2.7125	-3.2354	-3.1167	-2.6979	-3.4229	-2.6292	-2.8708	295.440	380.083	208.019	516.171	173.197	513.707	470.047	386.834	441.533	172.302	448.147	475.939	206.165	459.189	225.527	203.892	0.00057985	0.00054	0.00021382	1469.3	5.5206e-06	2.758e-06	1453.3	381.9	5.096e-06	3.7361e-06	435.31	138.44	121.5	40.613	7.8495e-06	50.743	0.0016523	0.003237	0.00089933	1497.9	3.0597e-05	3.6908e-05	1480.6	392.13	3.0757e-05	3.6653e-05	448.23	142.55	125.14	42.232	3.2423e-05	52.603	269.261	281.909	251.040	171.772	299.854	293.638	171.522	176.532	311.788	318.667	175.926	180.358	181.079	185.694	326.069	184.856	-8191	255	
29980.229	1	1	0	0	0.1791	0.22127	0.1534	0.14356	0.15114	0.14713	0.25465	0.11709	0.013642	0.19394	0.22986	0.23473	0.24023	0.17206	0.22952	0.20808	-2.8	-2.4313	-3.1417	-3.3063	-2.4479	-3.3937	-2.8833	-2.7625	-3.2188	-2.5708	-3.1708	-3.2167	-2.7229	-3.4417	-2.6667	-2.7438	382.770	168.451	209.909	484.916	250.655	304.644	444.600	416.946	389.850	243.788	340.379	177.257	501.238	475.132	456.682	416.192	0.00055574	0.00060244	0.00021502	1467.5	4.3563e-06	6.8503e-06	1452.5	382.47	4.3026e-06	6.6303e-06	437.49	139.15	121.73	40.78	8.2369e-06	50.501	0.001668	0.0032403	0.0009089	1497.2	3.0671e-05	3.6125e-05	1479.9	392.61	2.998e-05	3.6449e-05	448.33	142.85	125.32	42.386	3.2893e-05	52.519	272.672	244.125	279.038	171.707	297.266	290.763	171.534	176.562	307.150	295.454	175.972	180.453	181.201	185.916	332.785	184.733	-8191	255	
29980.348	1	1	0	0	0.12589	0.22946	0.037256	0.25492	0.3069	0.048667	0.43725	0.16649	0.26689	0.19513	0.18937	0.14557	0.11448	0.24975	0.14457	0.5401	-2.975	-2.6688	-3.0875	-3.1917	-2.4604	-3.2667	-3.0146	-2.8083	-3.3667	-2.55	-3.0021	-3.2583	-2.6854	-3.2958	-2.9271	-2.7083	209.410	319.484	175.533	490.757	448.336	347.718	472.649	417.397	495.360	231.050	484.072	474.133	164.917	271.017	415.185	471.889	0.00057264	0.00046894	0.00019728	1469.1	6.4656e-06	4.0684e-06	1453.8	384.82	3.218e-06	4.3637e-06	435.04	139.16	121.66	40.813	5.1856e-06	50.651	0.001684	0.0032562	0.00090748	1497.4	3.0451e-05	3.6201e-05	1480.9	392.42	2.9428e-05	3.583e-05	447.57	142.77	125.34	42.347	3.2119e-05	52.554	273.981	236.726	255.575	171.705	281.130	298.623	171.736	176.577	316.759	317.159	175.987	180.180	181.070	185.615	336.411	184.942	-8191	255	
29980.443	1	1	0	0	0.13145	0.61789	0.021423	0.23506	0.2132	0.13849	0.15495	0.16523	0.1773	0.026518	0.015706	0.054064	0.24513	0.14604	0.1242	0.091216	-2.8854	-2.6229	-2.9896	-3.6125	-2.4062	-3.2833	-3.2417	-2.7833	-3.3896	-2.8187	-3.0458	-3.4229	-2.6146	-3.1833	-3.0146	-2.6417	274.571	515.605	258.880	489.766	226.239	258.748	445.012	359.827	423.644	206.952	325.190	514.876	447.094	393.113	298.621	224.135	0.00058089	0.0004841	0.00014559	1469.2	5.6622e-06	2.116e-06	1451.6	382.88	7.2476e-06	7.2354e-06	435.94	138.74	122.21	40.835	4.5806e-06	50.665	0.0016512	0.0032055	0.00089132	1497.8	3.0528e-05	3.6013e-05	1480.6	392.36	2.9971e-05	3.5849e-05	448.1	142.73	125.42	42.413	3.1665e-05	52.63	273.871	237.118	241.335	171.766	298.544	344.260	171.711	176.607	322.311	302.223	175.789	180.567	181.299	185.942	293.263	185.177	-8191	255	
29980.539	1	1	0	0	0.19092	0.13981	0.067464	0.31009	0.0264	0.22167	0.22813	0.37025	0.033832	0.099309	0.10434	0.11055	0.12414	0.21114	0.31742	0.21707	-2.8208	-2.6833	-2.8104	-3.5083	-2.6646	-3.075	-3.3958	-2.6437	-3.4313	-2.7625	-2.8271	-3.5604	-2.7562	-3.2146	-3.2729	-2.5792	201.253	394.978	423.713	464.658	281.353	197.105	453.110	416.785	396.455	442.073	277.478	461.294	158.915	424.175	350.515	406.929	0.00058657	0.00055694	9.7143e-05	1467.4	6.6254e-06	2.5958e-06	1458.4	383.06	6.5907e-06	6.6838e-06	436.84	138.54	121.42	40.901	4.3716e-06	50.692	0.0016335	0.0031711	0.00090619	1498.1	3.0315e-05	3.6509e-05	1484.2	392.67	3.0881e-05	3.7002e-05	448.27	142.61	125.23	42.37	3.2349e-05	52.596	276.399	250.390	209.926	172.445	324.324	274.514	171.689	176.872	314.057	307.395	176.232	180.597	180.837	186.033	312.597	185.370	-8191	255	
29980.637	1	1	0	0	0.1857	0.14746	0.09637	0.26016	0.14373	0.088507	0.18814	0.13218	0.13551	0.063562	0.27157	0.19603	0.44403	0.15932	0.17484	0.29068	-2.925	-2.9542	-2.5729	-3.5042	-2.5708	-3.1542	-3.4562	-2.6271	-3.2792	-3.025	-2.8042	-3.6979	-2.8	-3.0792	-3.1625	-2.6396	185.049	443.017	464.472	422.911	429.161	480.146	477.295	467.764	352.993	204.440	434.892	514.098	183.525	197.914	246.497	499.265	0.00062234	0.0004852	0.00010872	1473.3	4.02e-06	1.0261e-05	1456.8	384.14	5.3555e-06	7.6635e-06	436.37	138.61	121.92	40.798	5.7033e-06	50.571	0.0017099	0.0032672	0.0009221	1501.4	3.204e-05	3.7283e-05	1485.2	393.2	3.2209e-05	3.8289e-05	449.25	143.08	125.47	42.313	3.4053e-05	52.534	276.364	226.199	249.515	172.132	340.437	285.462	172.068	176.583	310.763	323.794	176.200	180.736	181.888	186.514	299.522	185.338	-8191	255	
29980.732	1	1	0	0	0.11622	0.19555	0.16245	0.16457	0.057457	0.20164	0.14973	0.23757	0.32901	0.10996	0.053955	0.2381	0.017935	0.23365	0.17571	0.25495	-2.7979	-2.8021	-2.525	-3.4333	-2.8583	-2.7604	-3.3333	-2.5708	-3.2313	-3.0938	-2.5354	-3.4125	-2.7396	-2.8667	-3.4833	-2.5896	240.284	419.979	289.733	452.592	164.512	338.348	447.921	484.073	461.033	478.905	161.288	166.908	375.092	488.456	402.861	510.874	0.000616	0.00054292	0.00020389	1479.8	5.1628e-06	5.6551e-06	1456.6	383.9	6.8266e-06	2.8357e-06	436.78	139.17	122.26	40.809	5.15e-06	50.694	0.0017899	0.0034278	0.00097595	1506.4	3.2451e-05	4.0005e-05	1488.3	393.79	3.3031e-05	3.9503e-05	449.55	143.37	125.7	42.391	3.501e-05	52.716	272.985	249.496	229.254	172.268	294.371	318.931	172.294	176.993	306.244	307.357	176.581	181.061	181.597	186.331	315.476	185.617	-8191	255	
29980.828	1	1	0	0	0.08337	0.17366	0.062939	0.083142	0.152	0.051908	0.18309	0.12897	0.12759	0.088225	0.095257	0.10965	0.07184	0.18201	0.060338	0.15371	-2.6396	-2.8958	-2.4667	-3.4042	-2.8354	-2.7771	-3.6437	-2.4583	-2.95	-3.1417	-2.675	-3.3604	-3.0417	-2.5187	-3.2062	-2.6646	517.364	163.071	454.580	159.130	464.831	349.033	488.387	474.634	290.990	185.967	431.095	224.796	354.350	206.099	469.917	169.875	0.00062982	0.00072768	0.00017835	1481.1	4.5634e-06	8.3284e-06	1464.5	384.8	7.9973e-06	4.8102e-06	438.7	139.89	121.98	40.829	5.5626e-06	50.73	0.0017909	0.0034802	0.00099244	1507.2	3.3233e-05	4.0556e-05	1491.7	393.92	3.3366e-05	3.8876e-05	449.82	143.63	125.84	42.449	3.5072e-05	52.771	277.046	273.655	232.436	172.386	306.066	318.190	171.910	176.744	312.765	294.911	176.563	181.453	181.708	186.321	340.534	185.436	-8191	255	
29980.949	1	1	0	0	0.20648	0.11922	0.092241	0.15273	0.020335	0.063426	0.12274	0.15068	0.11337	0.20257	0.36177	0.31112	0.13283	0.23919	0.15208	0.13862	-2.4979	-3.05	-2.4708	-3.4562	-2.9542	-2.5083	-3.5354	-2.6917	-2.8146	-3.1125	-2.5729	-3.3479	-3.1167	-2.4625	-3.2125	-2.7542	267.946	336.204	293.897	373.552	211.468	191.658	438.518	163.430	269.673	275.163	242.443	409.805	388.622	489.161	404.760	396.129	0.00061008	0.00033448	0.00016714	1484.1	3.9879e-06	4.4477e-06	1462	385.01	6.7827e-06	3.6984e-06	437.7	139.58	122.14	40.825	5.1762e-06	50.636	0.001783	0.0034064	0.00097935	1512.1	3.2891e-05	4.0449e-05	1491.6	394.37	3.3407e-05	3.9813e-05	449.71	143.57	125.87	42.52	3.5156e-05	52.727	274.433	267.878	225.967	172.501	312.658	295.416	172.258	176.563	298.053	299.738	176.099	180.573	181.157	185.639	315.573	184.979	-8191	255	
29981.045	1	1	0	0	0.27177	0.23174	0.059535	0.11501	0.090803	0.10427	0.18753	0.17457	0.010945	0.11174	0.17255	0.1514	0.16086	0.096261	0.1845	0.41511	-2.2917	-3.1583	-2.3771	-3.2875	-2.9292	-2.4229	-3.475	-2.8187	-2.825	-3.3875	-2.6396	-3.1417	-3.3104	-2.525	-3.3312	-2.9125	233.268	273.324	245.066	158.603	384.692	177.544	425.348	462.879	505.129	275.903	172.648	419.976	334.868	497.374	163.437	435.050	0.00061217	0.0004878	0.00018094	1485.7	9.9392e-06	4.689e-06	1469.3	386.53	7.1201e-06	5.9201e-06	438.17	140.09	122.09	41.095	8.0307e-06	50.529	0.0017668	0.0034852	0.0009693	1511.8	3.2781e-05	3.9387e-05	1494.5	395.01	3.3541e-05	3.8439e-05	450.32	143.74	125.99	42.567	3.5017e-05	52.679	269.129	253.729	262.264	171.958	337.616	324.311	171.836	176.559	289.820	325.028	176.294	181.027	181.044	185.975	282.213	185.312	-8191	255	
29981.117	1	1	0	0	0.13664	0.24257	0.060393	0.30634	0.066205	0.40686	0.13497	0.22962	0.14239	0.042333	0.2529	0.22936	0.26953	0.31489	0.17034	0.15383	-2.4313	-3.2313	-2.4396	-3.0167	-3.125	-2.3937	-3.3146	-3.0729	-2.6229	-3.4313	-2.6417	-2.9437	-3.1771	-2.6125	-3.1646	-2.9333	230.493	509.977	359.833	497.175	509.263	172.708	477.367	216.087	390.786	298.950	418.160	394.293	510.705	493.046	170.897	431.548	0.00056813	0.00083673	0.00010547	1485.3	4.4603e-06	7.6101e-06	1468.6	386.08	3.9205e-06	4.6815e-06	438.47	140.23	122.45	41.07	6.0136e-06	50.782	0.0017888	0.0034605	0.00098174	1513.2	3.2314e-05	3.9347e-05	1498	395.31	3.1934e-05	3.8271e-05	450.74	143.95	126.15	42.594	3.425e-05	52.818	273.632	261.063	252.136	172.186	349.945	298.639	172.136	177.004	308.585	281.139	176.487	181.383	181.990	186.187	336.612	185.673	-8191	255	
29981.213	1	1	0	0	0.11263	0.10387	0.18814	0.29143	0.14192	0.15771	0.204	0.2713	0.15576	0.028552	0.053057	0.21838	0.23682	0.077335	0.16872	0.3066	-2.1521	-3.4083	-2.7583	-2.9813	-3.0958	-2.45	-3.1979	-3.0333	-2.5417	-3.3563	-2.8542	-2.7271	-3.4146	-2.4167	-3.0438	-3.025	464.356	421.691	418.782	456.223	462.491	297.764	440.231	458.669	467.590	187.482	178.337	457.484	473.975	449.639	197.825	495.718	0.00057114	0.000469	3.3825e-05	1487.3	5.6367e-06	3.9824e-06	1469.2	387.79	6.0049e-06	5.7872e-06	439.68	140.6	122.45	41.046	6.5562e-06	50.896	0.0017334	0.0032988	0.0009448	1513.4	3.169e-05	3.8054e-05	1496.8	396.24	3.1823e-05	3.7401e-05	451.28	144.12	126.36	42.65	3.3826e-05	52.88	274.998	232.425	228.928	172.675	324.504	337.563	172.399	177.343	320.318	291.123	176.744	181.192	181.718	186.308	309.786	185.859	-8191	255	
29981.332	1	1	0	0	0.14342	0.11496	0.068466	0.080415	0.24113	0.2229	0.32853	0.2518	0.27742	0.1166	0.19376	0.17046	0.20722	0.26784	0.22458	0.13126	-1.9792	-3.2229	-2.65	-3.1375	-3.3979	-2.4479	-3.2	-3.1583	-2.3875	-3.2729	-3.0438	-2.9271	-3.4458	-2.4792	-3.1167	-3.075	170.998	251.825	468.012	506.344	507.427	241.703	450.369	466.089	481.047	396.171	395.313	503.300	186.716	169.305	481.129	505.307	0.00060314	0.00053499	0.00012711	1482.6	7.317e-06	5.971e-06	1472.1	386.81	5.2797e-06	1.8683e-06	440.09	140.82	122.56	41.233	5.2096e-06	51.051	0.0017428	0.0033235	0.00093945	1513.2	3.1566e-05	3.8417e-05	1497.3	396.15	3.1708e-05	3.7303e-05	451.27	144.31	126.2	42.663	3.3681e-05	52.867	275.616	260.610	239.901	172.555	302.100	293.112	172.339	177.102	303.063	346.002	176.551	181.528	181.915	186.036	330.006	185.284	-8191	255	
29981.428	1	1	0	0	0.24955	0.1153	0.29269	0.12231	0.21505	0.153	0.042055	0.17298	0.15269	0.15702	0.20919	0.20601	0.241	0.11544	0.32848	0.10194	-2.1396	-3.3937	-2.9271	-2.6604	-3.5854	-2.4708	-3.1354	-3.3604	-2.3958	-3.2458	-2.8792	-2.5062	-3.3021	-2.7479	-2.7146	-3.2313	186.023	386.334	317.310	426.201	225.257	368.204	436.450	480.584	495.087	377.662	489.907	487.048	435.645	485.711	286.400	470.815	0.00057023	0.00060127	0.00017161	1482.9	5.438e-06	1.4484e-06	1470.4	386.46	5.3747e-06	3.7839e-06	437.96	139.89	122.42	40.911	7.6628e-06	50.888	0.0017542	0.0033144	0.00094463	1512.3	3.1676e-05	3.8889e-05	1496.4	395.49	3.2563e-05	3.7924e-05	450.48	143.92	126.16	42.535	3.4071e-05	52.879	272.698	255.414	237.788	172.329	299.789	517.068	172.125	176.923	301.730	314.055	176.145	180.858	181.482	185.670	318.311	185.003	-8191	255	
29981.523	1	1	0	0	0.069091	0.14057	0.19492	0.40184	0.076662	0.19543	0.33449	0.06829	0.24711	0.050523	0.038691	0.17797	0.27609	0.16931	0.32093	0.29605	-2.0625	-3.0792	-2.9167	-2.6917	-3.3271	-2.5687	-3.1271	-3.4292	-2.3396	-3.1167	-3.2313	-2.4708	-3.4125	-2.8979	-2.5958	-3.4896	257.885	191.620	299.539	478.442	279.812	240.355	176.266	355.083	162.850	310.994	435.058	297.032	514.129	475.039	449.977	489.800	0.00059022	0.00044166	0.00013965	1484.6	7.8262e-06	4.5136e-06	1465.9	386.12	5.2446e-06	5.0801e-06	439.67	139.84	123.09	40.981	8.8526e-06	50.898	0.0017246	0.003306	0.00094419	1511.6	3.1146e-05	3.7793e-05	1495.7	396.33	3.1533e-05	3.7281e-05	450.99	143.9	126.47	42.568	3.3375e-05	52.846	276.673	250.865	247.113	172.113	287.998	323.541	171.920	176.860	324.778	297.080	176.189	180.896	181.368	185.945	303.685	185.057	-8191	255	
29981.619	1	1	0	0	0.17845	0.17089	0.13146	0.46475	0.073771	0.14827	0.30324	0.16916	0.10145	0.19838	0.022053	0.048335	0.15553	0.27336	0.30331	0.27136	-2.1667	-3.0771	-3.0646	-2.7687	-3.2792	-2.8146	-2.775	-3.5646	-2.4333	-2.9833	-3.4104	-2.7771	-3.1208	-2.7833	-2.6125	-3.4167	194.222	270.524	189.815	474.646	241.999	517.941	439.138	162.629	473.243	301.141	221.194	167.910	479.359	161.062	227.274	510.533	0.00063089	0.00054373	0.00020714	1484.6	7.0948e-06	2.8589e-06	1471.8	387.43	8.106e-06	5.2351e-06	439.58	140.38	122.18	41.078	5.3657e-06	50.986	0.0017103	0.0032885	0.00090528	1511.4	3.0993e-05	3.764e-05	1496.5	395.6	3.1888e-05	3.736e-05	451.29	144.07	126.22	42.635	3.2961e-05	52.842	273.855	232.951	250.914	172.118	305.883	291.305	172.065	176.841	321.127	319.249	176.226	180.863	181.720	185.980	323.176	185.379	-8191	255	
29981.717	1	1	0	0	0.0797	0.17164	0.056171	0.29926	0.26902	0.056222	0.38449	0.41571	0.25143	0.21989	0.23338	0.24587	0.1581	0.14168	0.2134	0.095791	-2.2458	-2.7479	-3.2417	-2.5896	-3.2646	-2.9604	-2.7958	-3.5062	-2.5938	-3.0271	-3.4771	-2.6083	-3.2646	-3.0521	-2.5187	-3.4125	257.807	292.347	460.745	492.028	442.675	296.081	469.511	482.872	449.016	178.203	488.569	439.541	168.040	432.906	375.416	427.506	0.00057954	0.00043184	0.00012925	1484.3	7.1309e-06	3.7519e-06	1463.6	387.46	5.4515e-06	5.0647e-06	438.29	139.83	122.43	41.279	4.5244e-06	50.919	0.0017025	0.0032699	0.00090563	1512.6	3.0847e-05	3.6295e-05	1493.1	396.49	3.0723e-05	3.648e-05	450.99	143.83	126.21	42.652	3.3113e-05	52.841	277.128	259.172	269.542	172.385	311.602	323.580	172.405	177.156	327.061	289.467	176.373	180.893	181.955	186.300	312.594	185.356	-8191	255	
29981.812	1	1	0	0	0.33815	0.21724	0.17788	0.29908	0.11263	0.33418	0.18749	0.060774	0.11036	0.12178	0.20134	0.27693	0.27822	0.16467	0.17268	0.044031	-2.1583	-2.6125	-3.0687	-2.7146	-2.9083	-3.2167	-2.6417	-3.4688	-2.8042	-2.6833	-3.3417	-2.8333	-3.0125	-3.2917	-2.2521	-3.3292	516.629	209.618	335.380	459.330	306.972	448.092	432.832	401.609	299.031	428.064	487.588	367.233	429.754	469.607	473.016	470.558	0.00058778	0.00033391	0.00017176	1482.2	6.2802e-06	2.7815e-06	1470.2	386.34	7.2506e-06	4.6699e-06	437.71	140.02	123.02	41.118	8.619e-06	50.993	0.0017299	0.0032399	0.00091135	1510.2	3.0787e-05	3.6751e-05	1496	396.44	3.1395e-05	3.6077e-05	450.75	143.85	126.45	42.629	3.2175e-05	52.873	276.242	244.035	241.728	172.191	300.028	362.480	172.242	176.942	312.679	296.873	176.513	181.011	181.569	186.053	345.376	185.302	-8191	255	
29981.908	1	1	0	0	0.19146	0.2129	0.31493	0.18664	0.18014	0.10055	0.21042	0.26481	0.17788	0.1102	0.059454	0.1983	0.26922	0.14151	0.13861	0.21569	-2.45	-2.5833	-3.2583	-2.8271	-2.9125	-3.3646	-2.7792	-3.4604	-2.9604	-2.4542	-3.3563	-2.6729	-2.9375	-3.3833	-2.5646	-3.1292	444.176	351.413	248.466	292.708	345.686	481.069	440.312	471.352	258.552	321.407	165.451	438.417	398.333	497.367	456.009	513.713	0.00058911	0.00053477	0.00011751	1482.1	6.1175e-06	6.6865e-06	1463.8	387.44	6.7166e-06	1.766e-06	440	139.58	122.48	41.227	3.7722e-06	51.048	0.0016738	0.0032183	0.00089755	1510	3.0197e-05	3.6147e-05	1493.9	396.4	3.0496e-05	3.5365e-05	451.17	143.9	126.38	42.622	3.217e-05	52.899	270.674	240.784	232.855	172.217	293.327	317.048	172.039	177.060	322.908	338.416	176.240	180.900	181.519	186.294	339.666	185.276	-8191	255	
29982.029	1	1	0	0	0.13764	0.21753	0.12954	0.26402	0.17366	0.051666	0.16998	0.049127	0.17387	0.17299	0.13679	0.36709	0.08276	0.21172	0.14523	0.08316	-2.7167	-2.4604	-3.3083	-2.8458	-2.7896	-3.2	-2.6521	-3.1708	-2.9458	-2.4854	-3.3354	-2.8187	-2.9396	-3.3146	-2.4792	-3.05	469.253	352.936	232.386	178.635	203.814	327.584	460.668	330.070	402.331	285.308	308.159	429.135	264.640	468.256	497.156	466.840	0.0006044	0.00034122	0.00017467	1480.5	8.0489e-06	5.8577e-06	1465.7	388.22	6.2841e-06	5.156e-06	441.49	139.51	123.47	41.111	5.9424e-06	50.956	0.0016586	0.0031407	0.00090357	1511.2	3.0216e-05	3.5982e-05	1493.5	396.39	3.0069e-05	3.6061e-05	452.08	143.92	126.62	42.691	3.2307e-05	52.941	274.060	243.545	251.442	172.251	297.999	318.487	172.062	177.056	327.026	311.074	176.757	180.923	181.567	186.167	317.440	185.148	-8191	255	
29982.127	1	1	0	0	0.10359	0.092566	0.071874	0.45061	0.011468	0.065387	0.40934	0.079562	0.22166	0.18283	0.049788	0.18649	0.052847	0.10662	0.28179	0.076466	-2.7104	-2.4667	-3.2646	-2.9917	-2.575	-3.3312	-2.825	-3.1542	-3.2188	-2.5	-3.4458	-2.9708	-2.7333	-3.4437	-2.5333	-3.025	505.394	235.771	474.117	171.781	340.361	168.161	510.672	294.085	513.927	372.442	228.073	494.296	399.552	502.670	378.547	489.426	0.00059696	0.00033483	0.00018533	1485.9	6.862e-06	2.9067e-06	1473.5	386.63	5.1954e-06	6.2579e-06	438.79	140.14	122.42	41.032	4.6027e-06	50.984	0.0016616	0.0032212	0.00089896	1511.7	3.0575e-05	3.6649e-05	1495.6	396.06	3.0945e-05	3.6676e-05	451.4	143.82	126.26	42.586	3.2812e-05	52.897	274.492	213.754	243.118	172.255	310.207	337.520	171.971	176.846	332.129	333.168	176.447	180.933	181.596	186.167	322.267	185.517	-8191	255	
29982.223	1	1	0	0	0.1915	0.15673	0.19688	0.25265	0.12546	0.14256	0.21706	0.028752	0.29553	0.17119	0.09682	0.14661	0.25941	0.22997	0.11371	0.29101	-3.0125	-2.525	-3.2646	-3.15	-2.7562	-3.3292	-2.8812	-2.8167	-3.3146	-2.6167	-3.2979	-3.1896	-2.6562	-3.4917	-2.7562	-2.9771	402.340	244.647	244.919	480.183	478.495	191.329	457.755	515.041	494.631	267.271	413.126	380.740	394.900	502.682	407.720	496.111	0.00058517	0.00043711	0.00014611	1480.9	6.9999e-06	7.5542e-06	1471.9	386.41	8.2258e-06	7.5803e-06	437.66	139.94	122.78	41.027	5.4228e-06	51.111	0.0017124	0.0033085	0.0009114	1509.7	3.0806e-05	3.6829e-05	1494.3	396.17	3.1112e-05	3.6593e-05	450.55	143.72	126.25	42.549	3.2392e-05	52.907	272.362	241.096	236.931	172.365	309.567	319.452	172.025	177.008	322.032	281.955	176.229	180.956	181.631	186.329	313.394	185.167	-8191	255	
29982.342	1	1	0	0	0.26031	0.35245	0.078534	0.19804	0.12538	0.015512	0.31955	0.23717	0.078272	0.17736	0.041729	0.15719	0.29627	0.070448	0.29358	0.17174	-2.8417	-2.6063	-3.0958	-3.2812	-2.5563	-3.3458	-3.0292	-2.8292	-3.3979	-2.6042	-3.1542	-3.2167	-2.625	-3.3729	-2.8083	-2.9646	208.315	313.394	392.130	429.153	213.545	308.933	479.018	508.213	387.291	356.173	443.546	420.558	160.024	294.587	331.377	489.092	0.00060056	0.00045898	0.00018659	1482.5	5.9351e-06	5.2845e-06	1467.9	387.73	5.666e-06	5.6432e-06	439.22	139.95	122.76	41.15	7.7607e-06	50.851	0.0016293	0.0032806	0.00089421	1510.6	3.0539e-05	3.582e-05	1492.7	396.69	3.0142e-05	3.582e-05	451.39	143.78	126.22	42.593	3.088e-05	52.835	273.800	210.615	238.148	172.437	304.861	313.355	172.048	177.035	301.822	309.340	176.587	180.740	181.629	186.260	328.854	185.404	-8191	255	
29982.412	1	1	0	0	0.19852	0.14406	0.11005	0.12013	0.094298	0.338	0.41619	0.16611	0.048743	0.23399	0.052954	0.27092	0.12127	0.28736	0.11659	0.094104	-3.0563	-2.6417	-3.0792	-3.5229	-2.3917	-3.1854	-3.1042	-2.7562	-3.4104	-2.7313	-3.225	-3.3563	-2.5083	-3.3625	-3.1208	-2.7625	469.795	191.510	211.560	188.910	454.864	232.522	453.970	198.185	415.862	327.128	171.384	201.008	207.060	506.437	260.077	165.914	0.00057099	0.00073442	0.00013901	1482.8	6.0723e-06	6.0323e-06	1465.2	387.01	5.8142e-06	4.8992e-06	439.99	139.92	122.77	41.123	8.1447e-06	51.059	0.0016098	0.0030706	0.00086533	1510.3	2.905e-05	3.5259e-05	1492.5	396.43	2.9267e-05	3.4414e-05	450.76	143.95	126.35	42.629	3.0313e-05	52.911	271.783	245.580	248.704	172.214	311.996	268.959	172.059	177.004	318.269	332.139	176.733	181.039	181.356	186.159	305.293	185.463	-8191	255	
29982.508	1	1	0	0	0.026098	0.098402	0.081452	0.35459	0.070247	0.18218	0.048109	0.15135	0.16232	0.26959	0.17556	0.033443	0.24342	0.17192	0.069748	0.24428	-3.0292	-2.7458	-2.9062	-3.4271	-2.3187	-3.2604	-3.1312	-2.775	-3.2708	-2.7021	-2.8625	-3.4125	-2.6354	-3.2542	-3.0812	-2.6312	351.270	512.754	379.618	469.225	454.830	349.763	177.918	297.655	252.410	372.934	509.431	457.912	469.370	460.972	188.893	337.196	0.00058936	0.00057026	0.00015587	1481.5	5.3851e-06	7.1408e-06	1469.5	386.43	5.1491e-06	3.3108e-06	440.77	139.29	122.2	41.038	5.1118e-06	50.946	0.001608	0.0030378	0.00086234	1509.9	2.9123e-05	3.4382e-05	1495.4	395.89	2.9483e-05	3.4746e-05	451.66	143.65	126.06	42.514	3.1156e-05	52.835	271.821	259.715	234.270	172.318	333.471	293.668	172.208	176.891	302.680	324.505	175.564	180.397	181.007	185.633	336.197	184.762	-8191	255	
29982.629	1	1	0	0	0.16813	0.082764	0.057385	0.18187	0.32411	0.33519	0.027457	0.26375	0.051542	0.16785	0.12598	0.086708	0.12634	0.16624	0.072614	0.11937	-2.8646	-2.7833	-2.5854	-3.5979	-2.6354	-3.1646	-3.4125	-2.5417	-3.275	-2.8958	-2.6604	-3.4708	-2.5312	-3.0854	-3.1437	-2.5583	395.954	182.816	475.073	471.417	346.213	263.685	262.025	493.782	329.524	234.597	160.625	327.953	339.281	512.890	471.184	417.137	0.00059037	0.00028702	0.00013159	1484.6	5.165e-06	2.1758e-06	1467.9	385.8	4.9365e-06	4.404e-06	438.07	139.21	122.87	40.994	6.6998e-06	50.731	0.0016417	0.0031441	0.00088518	1511.9	2.9983e-05	3.6082e-05	1494.7	396.01	3.055e-05	3.6119e-05	451.26	143.74	126.46	42.609	3.2173e-05	52.824	273.611	273.543	220.796	171.635	324.382	266.389	171.276	176.202	320.692	320.140	175.826	180.420	180.848	185.551	316.714	184.651	-8191	255	
29982.725	1	1	0	0	0.1263	0.18758	0.091296	0.3278	0.079215	0.22931	0.3684	0.28381	0.20045	0.19275	0.094532	0.11143	0.22125	0.13239	0.12509	0.18037	-2.8667	-2.7958	-2.6167	-3.6792	-2.6208	-2.9667	-3.5396	-2.6937	-3.3854	-2.8167	-2.7396	-3.4146	-2.5729	-2.8729	-3.2687	-2.5521	493.291	315.854	358.894	466.736	449.212	469.011	445.471	178.128	266.070	366.839	198.780	355.811	371.359	414.427	346.025	194.535	0.00061043	0.00053754	0.00016145	1485.6	3.6237e-06	5.481e-06	1470.1	387.78	6.3302e-06	4.8757e-06	440.32	140.13	123.19	41.348	4.7727e-06	50.87	0.0016739	0.0032403	0.00089143	1514	2.9878e-05	3.6411e-05	1495.8	396.92	3.0392e-05	3.519e-05	451.17	144.08	126.5	42.722	3.1142e-05	52.904	271.854	264.068	253.724	171.546	320.487	303.709	171.392	176.429	301.433	289.450	176.031	180.429	180.944	185.811	305.269	185.100	-8191	255	
29982.820	1	1	0	0	0.097567	0.11049	0.10988	0.41377	0.17695	0.073788	0.14824	0.31835	0.056025	0.17875	0.051504	0.12559	0.2682	0.12999	0.091941	0.17909	-2.9479	-3.0833	-2.6979	-3.5542	-2.8125	-2.7479	-3.5438	-2.7188	-3.0167	-3.0125	-2.8292	-3.475	-2.8896	-2.8	-3.3896	-2.4792	428.264	180.058	385.840	468.644	390.912	402.672	451.295	458.561	437.244	244.183	484.828	222.154	443.622	320.190	369.348	300.248	0.00058891	0.00044009	0.00011542	1484.4	3.9985e-06	4.3635e-06	1464.9	388.08	4.916e-06	3.0251e-06	438.44	139.45	123.04	41.123	7.9802e-06	51.013	0.0016484	0.0030787	0.00087661	1513.4	3.0049e-05	3.5834e-05	1494.2	396.17	2.9938e-05	3.5859e-05	451.16	143.7	126.3	42.571	3.2046e-05	52.915	274.503	225.460	197.398	171.858	272.293	294.075	171.719	176.276	296.917	340.586	175.832	180.450	181.248	185.703	333.454	184.881	-8191	255	
29982.918	1	1	0	0	0.054466	0.018376	0.41102	0.46018	0.26293	0.14287	0.16081	0.13697	0.13397	0.16215	0.088294	0.30672	0.11024	0.23563	0.15836	0.13295	-2.825	-3.2292	-2.3417	-3.4729	-2.8104	-2.6542	-3.4521	-2.7417	-2.95	-3.1104	-2.7083	-3.3542	-2.9979	-2.5687	-3.2875	-2.6312	383.317	360.109	173.807	501.589	164.831	264.124	390.496	360.723	179.162	280.282	235.386	471.481	407.706	208.210	283.189	478.834	0.00057606	0.00057069	8.7177e-05	1484.2	5.8772e-06	5.0349e-06	1464.8	385.88	4.3654e-06	8.918e-06	439.08	139.8	122.31	40.984	7.9855e-06	50.767	0.0017177	0.0032722	0.00089966	1511.5	3.0999e-05	3.7126e-05	1493.2	395.75	3.113e-05	3.6924e-05	451.13	143.83	126.06	42.503	3.2358e-05	52.749	272.875	245.181	233.145	172.097	315.051	332.990	171.751	176.325	318.834	311.794	176.306	181.050	181.116	186.000	322.473	185.033	-8191	255	
29983.014	1	1	0	0	0.099982	0.097029	0.073906	0.21658	0.1227	0.20794	0.43155	0.27907	0.24145	0.10288	0.18145	0.10617	0.14694	0.21598	0.21089	0.18748	-2.5104	-3.2042	-2.5708	-3.4458	-3.1125	-2.5917	-3.5333	-2.8375	-2.5312	-3.3333	-2.6375	-3.2562	-3.0625	-2.6	-3.2	-2.9188	221.444	418.167	184.148	504.151	238.901	174.439	453.093	160.027	210.247	403.123	441.294	485.505	508.900	500.645	224.796	466.777	0.00061434	0.00054172	0.00010144	1480.6	4.8097e-06	7.2164e-06	1476.1	387.09	6.9655e-06	4.1531e-06	439.01	139.64	122.47	41.112	5.615e-06	50.702	0.0016943	0.0032224	0.00091251	1510.5	3.0395e-05	3.6603e-05	1495.1	395.87	3.1432e-05	3.6284e-05	451.08	143.73	126.06	42.525	3.1724e-05	52.741	273.829	276.484	234.795	172.817	324.223	335.307	172.260	177.413	313.976	297.022	176.577	181.161	181.790	186.444	317.031	185.431	-8191	255	
29983.109	1	1	0	0	0.097242	0.16643	0.053795	0.19796	0.12932	0.017683	0.16455	0.26118	0.17806	0.11065	0.15315	0.084413	0.12763	0.31383	0.15861	0.26263	-2.4333	-3.2708	-2.5479	-3.2729	-3.1	-2.5229	-3.6271	-2.825	-2.7125	-3.2979	-2.5979	-3.1104	-3.3521	-2.6063	-3.3271	-2.85	437.213	322.582	165.262	160.195	306.162	417.349	475.143	438.495	497.142	347.578	476.820	380.200	163.483	476.690	367.025	496.237	0.0005892	0.00046485	0.00018097	1484.6	6.0631e-06	2.2849e-06	1466.9	385.78	6.0228e-06	7.7204e-06	439.26	139.4	122.51	40.908	7.4291e-06	50.823	0.0016979	0.0031666	0.00089373	1510.2	2.9946e-05	3.6355e-05	1491.8	395.75	3.0992e-05	3.5973e-05	451.11	143.36	126.11	42.485	3.2671e-05	52.775	273.317	233.792	286.855	172.473	279.853	318.021	172.238	176.953	326.847	307.235	176.801	181.055	181.751	186.346	309.568	185.182	-8191	255	
29983.205	1	1	0	0	0.29002	0.15817	0.084457	0.07783	0.069724	0.2105	0.18151	0.12404	0.11456	0.18321	0.011998	0.054505	0.034102	0.094108	0.27837	0.22507	-2.2604	-3.2	-2.5542	-3.0563	-3.2583	-2.4333	-3.3875	-3.1896	-2.4667	-3.3792	-2.8125	-2.9854	-3.3583	-2.6312	-3.2479	-2.8917	303.800	296.772	234.802	189.606	425.610	325.207	173.422	461.781	460.775	197.317	238.814	429.917	426.480	413.869	437.231	417.664	0.00060428	0.00050605	0.00014917	1483.3	5.8675e-06	6.7357e-06	1467.1	386.21	6.5695e-06	7.5343e-06	437.23	139.86	122.54	40.897	5.8817e-06	50.835	0.0017057	0.0032464	0.00092548	1510.6	3.1241e-05	3.7509e-05	1494.2	395.31	3.1235e-05	3.6438e-05	450.16	143.72	125.99	42.504	3.2826e-05	52.84	271.854	279.068	253.495	172.508	301.317	326.524	172.228	176.846	329.329	297.242	176.424	180.990	181.683	186.132	279.099	185.166	-8191	255	
29983.303	1	1	0	0	0.18902	0.10972	0.18706	0.21078	0.097555	0.083553	0.23957	0.098013	0.18757	0.040639	0.10667	0.19637	0.29649	0.30479	0.25602	0.14449	-2.0729	-3.325	-2.6729	-2.8187	-3.3646	-2.3937	-3.3375	-3.1688	-2.3542	-3.3417	-2.8229	-2.7625	-3.3583	-2.5479	-2.9667	-3.1208	257.303	502.722	309.500	511.690	436.973	498.925	463.445	178.957	369.545	345.246	512.258	395.522	250.575	182.308	505.521	353.536	0.00064424	0.00074237	0.0001106	1481	7.1866e-06	3.9367e-06	1467.8	386.42	6.652e-06	6.6364e-06	437.93	140.22	122.96	40.934	5.3983e-06	50.868	0.0017062	0.0032011	0.00089683	1510.2	3.0306e-05	3.6709e-05	1493.6	395.6	3.0605e-05	3.5072e-05	451.26	143.86	126.19	42.48	3.1926e-05	52.77	274.142	248.253	264.951	172.517	316.086	319.951	172.168	176.978	325.086	294.152	176.334	181.015	181.737	186.112	318.284	185.225	-8191	255	
29983.422	1	1	0	0	0.03617	0.23264	0.17105	0.38236	0.1097	0.057618	0.17005	0.32337	0.068758	0.21575	0.22857	0.15577	0.36805	0.17787	0.11328	0.040672	-1.9896	-3.3292	-2.8604	-2.7958	-3.2271	-2.5854	-3.3375	-3.3688	-2.4854	-3.1417	-2.9208	-2.6083	-3.4125	-2.6333	-2.975	-3.3229	257.618	325.799	323.865	199.402	287.898	378.087	475.244	486.606	461.128	416.174	454.768	456.779	430.099	496.463	402.798	434.260	0.00057773	0.00054011	0.00025231	1481.9	5.4118e-06	5.6168e-06	1470.9	386.99	5.7947e-06	4.006e-06	438.22	140.1	122.03	41.055	4.0597e-06	50.971	0.0016955	0.0031674	0.00089102	1510.1	3.051e-05	3.6463e-05	1496.6	396.4	3.0137e-05	3.598e-05	450.82	143.97	126.17	42.576	3.2457e-05	52.846	273.144	229.476	256.814	172.326	307.951	283.674	172.172	177.046	318.138	289.594	176.388	181.211	181.642	186.025	337.778	185.538	-8191	255	
29983.518	1	1	0	0	0.12325	0.23231	0.20298	0.12461	0.12129	0.10198	0.31681	0.16756	0.06692	0.18637	0.15004	0.049877	0.2057	0.14178	0.18786	0.28644	-2.1125	-3.1688	-2.9917	-2.7792	-3.2083	-2.7104	-2.9271	-3.2583	-2.5479	-3.1292	-3.0917	-2.7583	-3.2646	-2.7729	-2.9854	-3.3854	508.580	417.214	258.957	456.388	197.410	511.804	436.949	401.572	446.226	469.565	180.214	289.999	483.165	173.009	350.552	466.797	0.00059245	0.00036531	0.00016184	1485.2	6.5109e-06	3.603e-06	1471.4	387.83	7.767e-06	5.0195e-06	437.04	139.5	123.28	41.124	7.7539e-06	50.984	0.0016766	0.0031959	0.00091719	1513.3	3.0178e-05	3.6671e-05	1496.1	396.71	3.0895e-05	3.715e-05	451.25	143.82	126.46	42.573	3.2904e-05	52.832	274.472	207.418	240.855	172.281	315.329	324.038	172.293	177.059	306.727	319.176	176.612	181.133	181.698	186.164	300.335	185.351	-8191	255	
29983.613	1	1	0	0	0.17978	0.026083	0.17049	0.53428	0.03361	0.24559	0.14903	0.32975	0.092206	0.043219	0.029283	0.22744	0.18027	0.17317	0.24464	0.15717	-2.0375	-2.9521	-3.1417	-2.5979	-3.425	-2.6979	-2.9521	-3.5167	-2.4354	-2.9167	-3.3021	-2.5312	-3.3208	-2.925	-2.6542	-3.4604	419.040	469.704	465.450	465.946	263.246	276.786	506.964	457.394	304.898	333.474	502.386	501.656	197.138	173.519	436.393	163.994	0.00057152	0.00040894	0.00011756	1486.1	5.9503e-06	5.4429e-06	1466.3	387.51	5.8275e-06	4.7117e-06	439.88	139.91	122.87	40.945	2.7318e-06	50.628	0.0016923	0.0032467	0.00091629	1512.9	3.0616e-05	3.7297e-05	1494.6	396.22	3.0942e-05	3.6445e-05	450.79	143.83	126.31	42.469	3.2744e-05	52.745	271.321	227.431	236.768	172.317	332.286	302.787	172.317	177.094	324.501	319.407	176.429	180.992	181.597	186.069	336.562	185.293	-8191	255	
29983.709	1	1	0	0	0.16547	0.11951	0.11318	0.17808	0.10863	0.15504	0.34539	0.30741	0.079385	0.29828	0.11271	0.36513	0.18264	0.23325	0.1454	0.22182	-2.1063	-3.0042	-3.1271	-2.6667	-3.2292	-2.9583	-2.8229	-3.3646	-2.7062	-2.9708	-3.3417	-2.5479	-3.2792	-3.0854	-2.5104	-3.45	237.716	174.585	279.146	171.460	272.666	173.335	485.585	495.996	475.149	281.903	230.704	451.156	175.898	163.474	179.815	464.701	0.00060756	0.00032728	0.00010607	1484.1	6.1059e-06	5.0424e-06	1469.7	386.11	5.9599e-06	7.0513e-06	439.6	140.09	122.36	40.94	4.9027e-06	50.93	0.0016802	0.0032694	0.0009022	1511	3.0296e-05	3.6778e-05	1494.5	395.8	3.1111e-05	3.5921e-05	451.2	143.68	126.02	42.499	3.2748e-05	52.737	272.125	254.100	247.571	172.345	321.971	302.580	172.258	176.975	338.848	319.417	176.531	181.096	181.635	186.325	349.051	185.458	-8191	255	
29983.807	1	1	0	0	0.22112	0.091293	0.08399	0.47365	0.20941	0.10425	0.27254	0.34333	0.26034	0.17101	0.23709	0.25486	0.067141	0.23032	0.20966	0.12349	-2.4042	-2.7854	-3.3771	-2.6437	-3.1833	-2.9875	-2.7958	-3.5271	-2.6708	-2.7229	-3.5417	-2.5021	-3.2792	-3.3375	-2.525	-3.4104	312.621	257.275	299.683	496.432	405.709	426.582	424.038	514.276	199.957	180.868	493.817	350.978	293.383	444.942	374.013	419.316	0.0006039	0.00051759	0.00014781	1480	3.8959e-06	5.8332e-06	1469.2	387.39	6.3479e-06	6.6431e-06	438.63	139.78	122.21	40.967	6.5526e-06	50.964	0.0017166	0.0032551	0.00089678	1508.5	3.1428e-05	3.7427e-05	1495.1	396.32	3.1448e-05	3.7112e-05	451.32	143.87	126.16	42.524	3.2579e-05	52.878	272.541	295.545	261.295	172.445	335.228	305.568	172.392	177.178	327.663	300.066	176.316	181.000	181.866	186.519	355.904	185.797	-8191	255	
29983.902	1	1	0	0	0.073088	0.22616	0.20733	0.37774	0.093112	0.18168	0.28217	0.19003	0.1532	0.11223	0.36698	0.17155	0.23189	0.11487	0.16157	0.1921	-2.4229	-2.7208	-3.4688	-2.7562	-3.0375	-3.2562	-2.7687	-3.5	-2.8042	-2.5896	-3.4833	-2.6979	-3.0458	-3.2438	-2.5771	-3.3479	465.813	163.603	257.816	517.786	380.801	395.068	469.818	463.168	508.530	261.829	169.330	464.988	438.840	281.164	251.289	512.422	0.00061904	0.000481	0.0001051	1482	6.7572e-06	4.8007e-06	1472.1	388.09	4.7778e-06	5.3877e-06	438.85	139.9	122.44	40.818	7.1263e-06	50.891	0.0016959	0.0032585	0.00090489	1511.7	3.0879e-05	3.7091e-05	1494.6	396.51	3.1568e-05	3.6375e-05	451.13	143.92	126.05	42.521	3.2352e-05	52.792	272.866	267.872	286.105	172.628	324.384	317.023	172.398	177.337	312.256	326.060	176.774	181.232	181.901	186.373	313.898	185.603	-8191	255	
29984.021	1	1	0	0	0.21322	0.10935	0.086972	0.31207	0.15298	0.22095	0.17447	0.079643	0.041971	0.083451	0.021412	0.21588	0.19607	0.21822	0.28086	0.33682	-2.6667	-2.4771	-3.4313	-2.9062	-2.9896	-3.2146	-2.6312	-3.2188	-3.0938	-2.5042	-3.3354	-2.75	-2.8458	-3.2333	-2.5792	-3.225	303.147	279.977	262.190	453.309	256.257	485.392	493.761	446.595	190.009	303.019	318.780	343.240	489.611	514.593	274.776	493.755	0.00060788	0.00076316	0.00015435	1481.5	3.9957e-06	2.1482e-06	1465	386.74	6.8274e-06	6.0865e-06	440.51	139.79	122	41.097	6.2282e-06	51.059	0.0016781	0.0032588	0.00088754	1511.4	3.0436e-05	3.6577e-05	1493.3	396.3	3.0685e-05	3.6297e-05	451.21	143.65	126.3	42.509	3.2732e-05	52.877	273.581	233.990	258.332	172.426	305.851	300.704	172.247	177.095	330.386	337.818	176.594	181.045	181.825	186.295	291.412	185.612	-8191	255	
29984.119	1	1	0	0	0.17635	0.19596	0.092653	0.14078	0.083884	0.19802	0.15323	0.22055	0.093128	0.11242	0.062338	0.13918	0.22567	0.21104	0.12581	0.17811	-2.8042	-2.525	-3.2854	-2.9062	-2.8625	-3.4125	-2.6896	-3.1125	-3.1917	-2.5375	-3.4042	-3.0687	-2.9042	-3.2979	-2.5333	-3.1021	285.899	256.921	180.190	188.005	240.617	426.124	483.482	434.633	450.900	271.285	444.090	452.169	495.360	503.242	492.292	255.730	0.00058447	0.00042329	0.00013184	1485.8	3.8932e-06	6.2067e-06	1468.7	387.17	5.7759e-06	7.4475e-06	441.35	139.74	122.55	40.786	7.2181e-06	50.864	0.0016706	0.0032288	0.00088507	1511.4	3.0292e-05	3.6225e-05	1494.2	396.44	3.1303e-05	3.6858e-05	451.74	143.81	126.12	42.487	3.2502e-05	52.773	272.942	215.218	228.294	172.576	320.616	324.223	172.421	177.215	281.372	296.062	176.255	181.013	181.865	186.368	309.897	185.442	-8191	255	
29984.213	1	1	0	0	0.22971	0.11184	0.10863	0.45181	0.23714	0.082532	0.20724	0.15922	0.042113	0.072209	0.29672	0.20485	0.10261	0.073896	0.44816	0.22606	-2.7812	-2.5354	-3.3292	-3.0271	-2.6583	-3.4313	-2.9167	-3.1125	-3.2	-2.4479	-3.4167	-3.1708	-2.7625	-3.5604	-2.5938	-3.1125	351.176	465.421	507.073	187.604	415.903	499.395	450.974	491.993	272.820	206.795	486.121	447.998	513.718	364.982	492.509	462.770	0.00058499	0.00037855	8.5236e-05	1485.9	6.5201e-06	7.5393e-06	1465.6	387.72	6.5917e-06	2.891e-06	438.65	139.79	122.24	41.097	5.3313e-06	50.855	0.0016621	0.0031531	0.00090042	1511.1	3.0001e-05	3.5411e-05	1493.6	396.85	3.0163e-05	3.5928e-05	450.9	143.72	126.08	42.518	3.2241e-05	52.832	271.672	251.375	285.149	172.369	299.150	299.671	172.106	177.019	317.247	302.358	176.596	181.051	181.723	186.293	308.411	185.487	-8191	255	
29984.285	1	1	0	0	0.19586	0.042042	0.047434	0.43515	0.26603	0.11589	0.219	0.57147	0.18673	0.26676	0.24468	0.39885	0.15401	0.10923	0.1854	0.10677	-2.9271	-2.4333	-3.1604	-3.1896	-2.4021	-3.1771	-2.8937	-2.9521	-3.25	-2.5708	-3.0604	-3.1917	-2.5396	-3.5563	-2.7812	-2.7812	170.267	364.925	466.101	428.155	188.354	391.295	459.397	446.205	265.042	483.300	173.151	506.388	168.303	471.265	379.899	374.901	0.00055224	0.00049955	0.00013302	1482.1	5.7312e-06	5.5906e-06	1466.8	388.11	6.7454e-06	3.6253e-06	438.67	139.23	122.38	41.075	5.7568e-06	50.852	0.0016337	0.0031454	0.00088933	1509.8	2.9906e-05	3.6862e-05	1492.1	396.68	3.0629e-05	3.6096e-05	451.46	143.48	126.14	42.53	3.257e-05	52.703	273.701	219.485	245.936	172.489	334.380	319.280	172.277	177.211	325.549	345.693	176.517	180.919	181.414	186.202	322.954	185.208	-8191	255	
29984.404	1	1	0	0	0.16383	0.071436	0.086811	0.29568	0.16522	0.21491	0.31848	0.31977	0.31199	0.31502	0.17596	0.32416	0.095305	0.093276	0.093283	0.28092	-2.7979	-2.4313	-2.9437	-3.4562	-2.6083	-3.175	-3.0917	-2.7958	-3.3104	-2.6312	-3.1271	-3.3354	-2.4583	-3.2687	-2.9292	-2.5812	354.202	309.038	456.874	485.465	492.508	187.315	428.046	427.432	387.147	362.725	431.498	284.927	455.277	165.723	325.228	443.254	0.00059456	0.00041851	0.00015775	1486.2	7.8846e-06	4.6442e-06	1472.3	386.95	5.4326e-06	5.4449e-06	440.12	139.71	122.48	40.888	5.6731e-06	50.646	0.0016518	0.0032338	0.00088738	1513	3.0824e-05	3.6245e-05	1494.6	396.25	3.0131e-05	3.5564e-05	451.52	143.74	126.16	42.522	3.1842e-05	52.755	272.301	207.187	251.553	172.306	318.911	335.752	172.174	177.239	321.164	306.505	176.353	181.262	181.633	186.188	293.768	185.702	-8191	255	
29984.502	1	1	0	0	0.16574	0.045932	0.31227	0.1156	0.07312	0.12311	0.20639	0.17253	0.16716	0.12409	0.16103	0.19452	0.17347	0.098123	0.1106	0.058582	-2.8646	-2.3417	-2.9583	-3.5583	-2.5521	-3.2104	-3.2625	-2.7333	-3.3354	-2.7396	-2.9958	-3.3604	-2.65	-3.1229	-2.9979	-2.7208	233.445	272.722	471.555	466.248	266.343	319.708	443.192	484.285	387.916	195.822	280.511	403.581	272.602	497.730	167.776	398.302	0.00059603	0.0003375	0.00016632	1484.4	5.9425e-06	4.2222e-06	1466.4	388.37	4.7703e-06	1.5978e-06	439.59	139.8	122.45	40.962	5.1622e-06	50.969	0.0016517	0.0031553	0.00087814	1510.4	2.9821e-05	3.5087e-05	1494	396.78	3.0311e-05	3.5762e-05	451.34	143.89	126.07	42.565	3.1525e-05	52.883	271.951	257.661	243.929	172.444	292.820	286.989	172.159	176.971	320.130	343.680	176.384	181.025	181.678	186.185	298.982	185.480	-8191	255	
29984.598	1	1	0	0	0.27423	0.094122	0.15801	0.17524	0.079089	0.049524	0.26157	0.26285	0.24487	0.32177	0.11214	0.26014	0.21597	0.30215	0.12162	0.18633	-3.0771	-2.6667	-2.7458	-3.4375	-2.4729	-3.1021	-3.3542	-2.8625	-3.1125	-2.8021	-2.8792	-3.3688	-2.4562	-3.1375	-3.1437	-2.5021	233.841	418.275	314.272	464.093	253.944	216.101	437.121	166.641	158.970	451.582	472.657	181.751	164.375	451.197	474.936	388.672	0.00061848	0.00036786	0.00010982	1483.2	3.4479e-06	4.9845e-06	1470.2	387.23	3.1749e-06	6.1204e-06	439.16	140.21	122.54	41.045	2.2632e-06	50.85	0.0016666	0.003188	0.00088187	1509.8	2.983e-05	3.553e-05	1493.7	396.31	2.967e-05	3.5528e-05	450.61	144.05	126.15	42.557	3.1407e-05	52.866	275.020	249.116	221.535	172.428	328.208	322.000	172.145	176.897	333.478	296.627	176.495	181.035	181.721	186.310	282.306	185.630	-8191	255	
29984.719	1	1	0	0	0.24753	0.090926	0.13425	0.14771	0.12198	0.194	0.15186	0.012996	0.065643	0.19905	0.1791	0.25997	0.22783	0.022482	0.17525	0.14279	-2.9854	-2.6792	-2.625	-3.4021	-2.5729	-2.8667	-3.2687	-2.5146	-3.225	-2.95	-2.7125	-3.2229	-2.6188	-3	-3.3292	-2.4688	281.465	453.253	244.153	236.585	413.936	422.674	429.779	390.158	285.308	435.724	437.711	216.552	489.673	403.801	274.001	204.080	0.0006118	0.00049186	0.00013258	1481.4	7.0438e-06	5.9668e-06	1468.6	386.22	6.5756e-06	4.8555e-06	436.93	139.82	122.61	41.091	7.7291e-06	50.819	0.0016263	0.0031845	0.00087265	1509.9	3.0264e-05	3.5766e-05	1492.5	395.88	2.982e-05	3.5611e-05	450.4	143.81	126.27	42.575	3.2492e-05	52.776	273.850	243.290	261.150	172.429	306.724	306.926	172.226	177.059	300.944	319.060	176.526	181.173	181.725	186.052	310.200	185.418	-8191	255	
29984.814	1	1	0	0	0.040583	0.16069	0.16397	0.22887	0.12288	0.14182	0.27777	0.22888	0.11874	0.17236	0.21721	0.18054	0.21569	0.10667	0.24418	0.14559	-2.7438	-2.9417	-2.4188	-3.5167	-2.5667	-2.7438	-3.6083	-2.4667	-3.0021	-3.0271	-2.5896	-3.35	-2.6875	-2.9479	-3.2896	-2.6208	480.541	357.909	301.196	492.443	313.054	373.708	479.686	463.029	188.257	238.352	438.293	511.654	211.840	366.370	486.269	411.873	0.00060612	0.00050139	0.00016854	1482.8	5.3427e-06	6.6869e-06	1462.2	388.12	6.0676e-06	6e-06	440.67	139.29	122.55	40.785	5.2579e-06	50.804	0.0016784	0.0032248	0.00089597	1512.8	3.052e-05	3.6219e-05	1493.1	396.73	3.0777e-05	3.5736e-05	451.25	143.74	126.26	42.504	3.2324e-05	52.759	275.763	237.094	262.977	172.510	293.449	318.212	172.145	176.974	324.442	300.446	176.379	181.152	181.396	186.555	329.956	185.458	-8191	255	
29984.887	1	1	0	0	0.13579	0.18296	0.064269	0.34386	0.016315	0.2469	0.068222	0.23749	0.24526	0.068157	0.061228	0.13437	0.15407	0.20578	0.35085	0.099809	-2.7896	-3.2083	-2.4292	-3.5229	-2.7125	-2.6417	-3.5917	-2.7	-3.0542	-3.1437	-2.4396	-3.4167	-2.9083	-2.7771	-3.4333	-2.675	229.164	444.890	360.642	495.802	410.837	335.326	304.058	458.237	462.324	267.851	196.347	166.888	497.379	191.279	362.407	376.881	0.00057174	0.00074798	0.00018445	1484.7	6.5881e-06	4.9834e-06	1468.5	387.16	5.5166e-06	7.4431e-06	438.42	140.24	122.4	40.982	4.3878e-06	50.638	0.0016744	0.0032179	0.00091608	1511.4	3.0218e-05	3.6688e-05	1495.5	396.51	3.1087e-05	3.6854e-05	450.46	143.86	126.04	42.473	3.2484e-05	52.702	275.182	229.009	244.889	172.405	310.438	277.783	172.314	177.054	313.881	304.936	176.561	181.216	181.618	186.147	319.586	185.543	-8191	255	
29984.982	1	1	0	0	0.075225	0.14581	0.21543	0.063907	0.10904	0.15741	0.32751	0.11599	0.17592	0.25305	0.27214	0.20053	0.10837	0.17935	0.17284	0.15425	-2.6188	-3.1437	-2.5083	-3.3937	-3.0833	-2.7188	-3.4938	-2.9104	-2.9688	-3.125	-2.7792	-3.2917	-3.1312	-2.7417	-3.2	-2.85	340.270	332.292	489.383	185.189	459.131	223.326	482.007	205.036	169.646	273.481	464.549	286.562	198.797	446.155	394.758	176.942	0.00057883	0.00064477	0.00013293	1484.7	7.7622e-06	6.3747e-06	1470.2	387.16	3.4014e-06	1.6792e-06	438.3	139.44	122.47	40.883	4.6361e-06	50.891	0.0016801	0.0032117	0.00091761	1511.8	3.0743e-05	3.6995e-05	1495.5	396.1	3.1531e-05	3.6346e-05	451	143.64	125.94	42.484	3.3006e-05	52.704	271.133	239.922	270.038	172.467	308.768	296.800	172.343	177.013	295.261	308.737	176.687	181.162	181.507	186.308	334.140	185.295	-8191	255	
29985.104	1	1	0	0	0.063551	0.14153	0.25189	0.2013	0.16003	0.1362	0.21145	0.048947	0.24675	0.21111	0.22305	0.14212	0.18066	0.1736	0.2799	0.15832	-2.5583	-3.3187	-2.4	-3.3833	-3.125	-2.5542	-3.6208	-2.8187	-2.7646	-3.5375	-2.5042	-3.2729	-3.1542	-2.4188	-3.2229	-3.0229	238.160	435.585	462.116	245.446	291.741	234.916	439.203	360.128	268.963	514.859	218.164	261.542	159.456	480.222	397.786	468.252	0.00059447	0.00035573	0.00014272	1484.5	6.0402e-06	6.0431e-06	1464.5	385.51	7.1162e-06	7.1375e-06	438.66	139.16	122.55	40.794	3.8912e-06	50.72	0.0017022	0.0032178	0.00090978	1509.8	3.1471e-05	3.7259e-05	1491.5	395.57	3.1597e-05	3.6625e-05	450.2	143.35	125.93	42.378	3.3096e-05	52.602	272.721	228.068	276.617	172.583	317.524	292.204	172.308	176.997	320.237	311.203	176.505	181.208	181.521	186.511	299.448	185.404	-8191	255	
29985.199	1	1	0	0	0.20537	0.32124	0.13679	0.30241	0.24781	0.087778	0.4129	0.18173	0.31482	0.084591	0.15718	0.12042	0.23103	0.1924	0.24486	0.27677	-2.3479	-3.3063	-2.4521	-3.0958	-3.0708	-2.5604	-3.4813	-3.0146	-2.5125	-3.3958	-2.4875	-3.1875	-3.2625	-2.5229	-3.2062	-2.85	270.137	513.455	424.572	189.182	271.623	461.625	429.367	492.365	457.078	191.984	503.934	451.850	181.638	271.289	258.302	462.780	0.00055381	0.00052909	0.0002034	1484	8.2139e-06	7.9546e-07	1467.7	386.71	8.3242e-06	3.973e-06	437.67	139.47	121.84	40.925	3.6491e-06	50.467	0.0017182	0.0031806	0.00092907	1511.1	3.0955e-05	3.7371e-05	1493.8	395.5	3.1134e-05	3.6127e-05	450.11	143.59	125.92	42.479	3.2844e-05	52.679	273.210	226.630	273.302	172.550	306.306	363.331	172.183	176.983	322.921	310.824	176.649	181.262	181.676	186.377	326.885	185.579	-8191	255	
29985.293	1	1	0	0	0.16622	0.20083	0.055937	0.24431	0.093626	0.31176	0.13448	0.32963	0.10303	0.16612	0.14222	0.24896	0.30871	0.34631	0.089181	0.029583	-2.2854	-3.3229	-2.5021	-2.925	-3.3354	-2.4542	-3.4042	-3.0438	-2.4729	-3.3708	-2.6625	-2.8417	-3.3229	-2.5458	-3.0021	-3.1542	378.374	471.806	318.745	410.674	241.329	454.287	442.965	505.892	337.561	297.687	320.113	499.695	231.892	458.241	345.620	429.325	0.00061802	0.00057576	0.00010274	1483.6	7.7265e-06	3.297e-06	1473.8	387.02	6.6164e-06	5.4406e-06	439.15	140.09	122.05	40.859	4.277e-06	50.781	0.0016834	0.0032291	0.00090999	1511.1	3.0669e-05	3.6626e-05	1496.8	396.12	3.0419e-05	3.5872e-05	450.61	143.61	125.82	42.406	3.2012e-05	52.737	273.033	221.022	230.077	172.591	294.639	320.061	172.538	177.204	325.851	281.674	176.589	180.945	182.105	186.347	311.951	185.423	-8191	255	
29985.391	1	1	0	0	0.11251	0.11783	0.23414	0.26144	0.17419	0.062086	0.021542	0.12747	0.24203	0.098028	0.19561	0.10148	0.059211	0.29087	0.055243	0.13607	-2.1458	-3.2458	-2.625	-2.8646	-3.3833	-2.5979	-3.175	-3.2396	-2.3229	-3.3063	-2.9042	-2.7521	-3.4813	-2.7021	-3.0187	-3.3458	464.331	493.962	441.590	179.242	414.895	347.477	391.202	469.838	160.983	172.593	359.395	487.731	454.164	472.606	432.146	223.229	0.00063604	0.00024035	7.655e-05	1482.2	7.2651e-06	4.9788e-06	1468.5	386.88	5.9428e-06	9.4156e-06	440.31	139.61	122.26	40.722	5.6021e-06	50.736	0.0016984	0.003208	0.00090339	1511.1	3.07e-05	3.6654e-05	1493.6	395.34	3.1212e-05	3.6808e-05	450.5	143.43	125.9	42.373	3.3091e-05	52.689	274.786	241.275	229.185	172.550	312.647	288.112	172.372	177.039	324.945	320.134	176.810	181.310	181.755	186.368	317.278	185.742	-8191	255	
29985.510	1	1	0	0	0.43554	0.085618	0.05811	0.20326	0.13326	0.12701	0.23769	0.33695	0.15314	0.28922	0.23949	0.16346	0.13826	0.20025	0.085416	0.2645	-2.1417	-3.1979	-2.9333	-2.6688	-3.3875	-2.7125	-3.0292	-3.4167	-2.6333	-3.2125	-3.1417	-2.7167	-3.4521	-2.65	-2.9271	-3.3063	513.875	360.579	468.618	477.407	285.498	226.044	436.469	450.107	468.858	179.913	483.556	175.835	394.429	386.338	286.328	438.706	0.00060095	0.00037241	0.00011933	1481.7	6.0841e-06	8.2089e-06	1469.4	385.31	5.5037e-06	3.3616e-06	438.48	138.93	122.64	40.885	3.5925e-06	50.869	0.0016892	0.0032846	0.0009233	1509.2	3.1114e-05	3.8301e-05	1493.2	395.26	3.1534e-05	3.6966e-05	449.36	143.37	125.91	42.406	3.3147e-05	52.699	273.371	253.399	253.276	172.369	342.468	290.193	172.241	177.034	335.418	344.234	176.340	181.358	181.821	186.530	298.558	185.240	-8191	255	
29985.582	1	1	0	0	0.23035	0.29682	0.25532	0.32694	0.061582	0.052093	0.10252	0.081017	0.1559	0.09958	0.11297	0.054424	0.09241	0.010375	0.057977	0.18999	-2.2125	-3.2646	-2.9417	-2.9833	-3.4542	-2.8563	-3.0583	-3.4042	-2.4292	-3.2021	-3.0104	-2.4958	-3.3688	-2.8625	-2.7146	-3.3979	309.096	227.504	350.403	174.654	323.466	396.674	324.446	462.655	515.859	413.714	363.104	306.829	446.456	283.282	220.029	376.916	0.00057104	0.00065726	0.00016764	1482.6	6.1309e-06	5.3304e-06	1462.4	385.44	6.0858e-06	5.6221e-06	438.18	139.64	121.86	40.884	7.2727e-06	50.809	0.0017184	0.0032953	0.00092442	1508.6	3.1305e-05	3.7723e-05	1491.2	395.4	3.2005e-05	3.7428e-05	449.88	143.33	125.73	42.347	3.3323e-05	52.689	273.276	259.001	235.615	172.438	341.964	297.074	172.392	177.154	311.027	328.791	176.651	181.265	181.848	186.559	322.031	185.432	-8191	255	
29985.701	1	1	0	0	0.1975	0.064617	0.21685	0.10889	0.11197	0.20187	0.4271	0.25857	0.10007	0.015809	0.068672	0.11456	0.12999	0.20116	0.078907	0.073755	-2.2958	-3.075	-3.125	-2.7	-3.3667	-2.9021	-2.7083	-3.5083	-2.5729	-3.1417	-3.3125	-2.6896	-3.3125	-2.825	-2.6708	-3.5104	230.320	179.936	212.968	451.839	384.287	488.512	497.582	290.588	228.121	179.472	416.748	163.386	440.031	487.199	251.383	176.944	0.00056208	0.00047757	0.00011983	1480.3	5.7905e-06	3.4352e-06	1462.6	386.62	5.6438e-06	1.1172e-05	438.4	139.95	122.9	40.843	5.4689e-06	50.822	0.0017199	0.0032848	0.00091573	1508.2	3.0867e-05	3.7489e-05	1493.4	395.43	3.1106e-05	3.6934e-05	450.67	143.62	126.14	42.409	3.3204e-05	52.629	272.471	219.047	223.944	172.521	317.163	306.672	172.300	177.104	320.563	343.563	176.550	180.982	181.800	186.020	305.087	185.554	-8191	255	
29985.799	1	1	0	0	0.2059	0.14241	0.13936	0.33216	0.073933	0.18706	0.12197	0.15672	0.075971	0.21934	0.18831	0.18926	0.070827	0.2415	0.34152	0.17194	-2.2583	-2.9333	-3.1479	-2.7625	-3.2125	-3.0062	-2.8125	-3.5187	-2.6583	-2.8	-3.4437	-2.6167	-3.1958	-3.05	-2.375	-3.4188	433.697	204.465	447.445	503.803	379.296	250.952	430.112	460.740	442.488	385.351	415.971	491.432	385.057	441.528	166.751	398.768	0.00060624	0.00058804	0.00010698	1480.5	8.8501e-06	5.477e-06	1470.2	386.96	6.8266e-06	8.3028e-06	440.13	139.45	121.76	40.915	5.5011e-06	50.874	0.0017241	0.0033473	0.00090105	1509.2	3.1104e-05	3.7378e-05	1494.5	396.06	3.0755e-05	3.6749e-05	450.66	143.56	125.66	42.47	3.2909e-05	52.762	273.140	250.680	254.493	172.593	317.530	319.135	172.478	177.029	313.325	314.645	176.388	180.930	181.871	186.098	324.399	185.463	-8191	255	
29985.895	1	1	0	0	0.32654	0.29564	0.09488	0.18496	0.028481	0.19616	0.19867	0.16127	0.14146	0.13897	0.13633	0.25547	0.15309	0.21881	0.21494	0.31954	-2.2479	-2.7958	-3.2521	-2.7438	-2.9604	-3.1562	-2.5896	-3.4958	-2.7167	-2.7375	-3.3771	-2.6167	-3.1562	-3.3167	-2.4479	-3.4083	194.280	354.031	373.734	189.010	389.748	215.163	454.942	339.733	392.490	409.126	517.378	421.829	505.827	172.643	182.098	471.826	0.00058025	0.00060379	0.00011315	1480.8	7.9973e-06	6.7782e-06	1466.8	386.03	5.0193e-06	4.3566e-06	437.32	138.95	122.29	40.703	6.5409e-06	50.86	0.0017025	0.0032712	0.00090054	1508.6	3.0909e-05	3.7373e-05	1492.1	396.15	3.1081e-05	3.7171e-05	449.93	143.24	125.9	42.37	3.3358e-05	52.679	271.872	262.087	285.128	172.429	313.550	323.804	172.474	177.380	329.150	355.081	176.868	181.046	181.955	186.185	344.231	185.513	-8191	255	
29985.990	1	1	0	0	0.14754	0.11955	0.21307	0.22195	0.39922	0.10865	0.27264	0.26428	0.11552	0.092019	0.14804	0.19429	0.34163	0.13708	0.1133	0.34013	-2.6854	-2.6292	-3.3104	-2.7521	-2.8771	-3.2417	-2.7833	-3.3625	-2.8854	-2.4667	-3.3979	-2.6667	-2.9042	-3.3021	-2.3875	-3.2979	392.828	445.402	489.298	479.809	182.746	236.913	513.804	433.051	354.845	318.263	496.166	466.676	432.465	501.032	365.401	440.467	0.00059486	0.00041172	0.00012862	1478.5	5.948e-06	3.6267e-06	1464.9	386.54	5.9491e-06	5.9429e-06	439.92	139.46	121.79	40.908	7.0819e-06	50.591	0.0017131	0.003302	0.00091047	1509.4	3.1369e-05	3.7331e-05	1491.8	395.51	3.1522e-05	3.6899e-05	450.69	143.35	125.83	42.414	3.2962e-05	52.652	273.797	238.103	237.886	172.441	328.511	308.891	172.503	177.219	305.397	298.277	176.697	181.276	182.010	186.229	313.430	185.473	-8191	255	
29986.111	1	1	0	0	0.18381	0.19566	0.1021	0.26324	0.40272	0.174	0.22718	0.16194	0.16267	0.12706	0.33954	0.082037	0.057025	0.21447	0.089722	0.23771	-2.4646	-2.4729	-3.1875	-2.7812	-2.6604	-3.2021	-2.7417	-3.1646	-3.0542	-2.6854	-3.325	-2.8063	-2.7167	-3.3896	-2.4896	-3.2146	188.722	352.211	182.111	468.000	282.701	337.700	518.574	403.686	404.811	274.711	417.466	326.485	372.333	458.872	316.945	176.213	0.00057707	0.00050423	0.00013334	1479.9	4.7616e-06	4.7284e-06	1468	384.96	6.3761e-06	4.1495e-06	438.97	139.77	122.82	40.814	4.3433e-06	50.904	0.0017169	0.0032824	0.00090843	1508	3.113e-05	3.7338e-05	1493.5	394.93	3.1899e-05	3.7339e-05	450.58	143.54	125.96	42.383	3.2799e-05	52.743	274.731	228.783	242.952	172.481	299.075	300.056	172.258	177.282	299.336	293.884	176.567	180.858	181.933	186.261	303.390	185.329	-8191	255	
29986.184	1	1	0	0	0.11352	0.25224	0.087785	0.32097	0.058034	0.12481	0.1762	0.14561	0.27709	0.17721	0.19245	0.37908	0.15968	0.019565	0.20511	0.10437	-2.7438	-2.4771	-3.2625	-2.9	-2.7271	-3.4271	-2.7167	-3.0542	-3.1375	-2.5042	-3.4542	-2.7729	-2.6167	-3.4417	-2.6208	-3.0479	445.959	287.005	513.478	487.116	485.235	490.054	442.747	420.784	288.951	160.398	448.032	432.589	492.852	464.662	364.520	423.615	0.00061053	0.00036222	0.00010447	1485.5	5.5469e-06	5.1671e-06	1468.5	386.54	6.3837e-06	7.3233e-06	439.95	138.94	122.16	40.654	4.0991e-06	50.906	0.0016984	0.0033	0.00089722	1510.5	3.1058e-05	3.6958e-05	1493.8	395.64	3.1553e-05	3.6987e-05	451.12	143.32	125.95	42.355	3.3128e-05	52.742	270.629	246.333	249.189	172.390	299.502	266.640	172.157	177.083	329.071	318.473	176.753	181.014	181.571	186.363	301.532	185.257	-8191	255	
29986.279	1	1	0	0	0.21728	0.24478	0.14389	0.1249	0.13717	0.055575	0.37335	0.12851	0.14176	0.13266	0.15372	0.024212	0.049805	0.35718	0.21605	0.090803	-2.9458	-2.5438	-3.1771	-2.8937	-2.7562	-3.4083	-2.9917	-3	-3.1917	-2.5563	-3.4146	-3.2604	-2.6	-3.2229	-2.6333	-3.0583	185.212	432.062	202.390	447.895	372.903	446.362	478.720	468.926	161.392	353.585	459.986	464.791	391.956	186.888	414.880	403.849	0.00059061	0.00062968	0.00017689	1478.7	4.6007e-06	4.2981e-06	1470.7	385.88	6.956e-06	5.2373e-06	438.5	139.62	121.76	40.881	6.6545e-06	50.78	0.0016951	0.0032282	0.00091436	1508.4	3.1258e-05	3.6418e-05	1494.2	395.79	3.1133e-05	3.7388e-05	450.65	143.43	125.88	42.409	3.3174e-05	52.612	276.942	244.347	258.416	172.349	291.539	312.360	172.150	176.931	320.426	310.461	176.535	180.647	181.622	185.909	300.049	185.473	-8191	255	
29986.375	1	1	0	0	0.021634	0.15937	0.25903	0.26344	0.070792	0.29321	0.26851	0.048363	0.26536	0.097217	0.30418	0.23637	0.33315	0.08537	0.1276	0.19626	-2.9333	-2.4938	-3.125	-3.125	-2.4083	-3.325	-2.9604	-3.0687	-3.35	-2.7125	-3.2229	-3.1167	-2.6604	-3.5375	-2.7292	-2.7375	463.474	248.359	197.144	169.464	220.107	428.534	177.040	285.180	477.552	378.739	171.156	387.778	444.543	493.232	393.031	363.136	0.0005867	0.00062528	0.000217	1480.7	8.3074e-06	7.7545e-06	1467.1	384.71	8.0423e-06	3.9332e-06	439.87	139.54	122.48	40.913	4.0943e-06	50.862	0.0016999	0.0033268	0.00092198	1507.7	3.1638e-05	3.7023e-05	1493.3	395.12	3.1407e-05	3.7464e-05	450.54	143.46	125.96	42.447	3.2887e-05	52.686	274.148	221.711	254.593	172.333	298.630	308.103	171.977	177.008	322.966	318.224	176.407	180.983	181.641	186.172	343.193	185.338	-8191	255	
29986.494	1	1	0	0	0.034236	0.12834	0.077496	0.37379	0.13676	0.088455	0.30253	0.12054	0.047782	0.083894	0.13667	0.030394	0.13275	0.073855	0.034082	0.16393	-3.0958	-2.3854	-2.9833	-3.65	-2.4521	-3.3854	-3.0792	-2.8563	-3.3333	-2.6521	-3.0938	-3.2771	-2.7375	-3.1854	-3.0458	-2.7938	269.833	388.441	268.260	443.332	336.111	262.106	415.591	478.010	465.023	399.064	164.652	283.170	462.473	452.077	314.709	159.792	0.00061639	0.00051061	8.7602e-05	1480.9	4.4266e-06	6.9625e-06	1464.8	386.15	6.9955e-06	6.0172e-06	438.8	139.15	122.33	40.857	6.1939e-06	50.534	0.0016756	0.0032217	0.00092601	1508.2	3.0604e-05	3.7114e-05	1491.7	395.53	3.0524e-05	3.7022e-05	450.38	143.38	125.89	42.412	3.3105e-05	52.636	274.397	245.198	230.196	172.208	329.833	300.693	172.113	177.118	326.753	317.876	176.793	180.843	181.346	186.254	317.682	185.480	-8191	255	
29986.590	1	1	0	0	0.17468	0.29436	0.29971	0.053605	0.16273	0.22179	0.091531	0.1089	0.10631	0.13399	0.12312	0.09738	0.17746	0.25307	0.045957	0.18334	-3.0438	-2.8688	-2.8229	-3.5833	-2.4313	-3.4125	-3.1333	-2.8	-3.2938	-2.6437	-3.0187	-3.4271	-2.7812	-3.1146	-3.1188	-2.7396	434.492	464.779	362.149	421.175	491.623	315.028	406.128	331.583	476.546	302.631	497.316	181.795	409.131	490.932	183.889	341.322	0.00058647	0.00047802	0.00016744	1482	6.7993e-06	4.9437e-06	1469.5	386.58	8.0168e-06	4.51e-06	438.57	139.75	122.15	40.91	1.6793e-06	50.814	0.0016912	0.0032885	0.00091649	1509.3	3.0861e-05	3.7044e-05	1493.5	395.73	3.1394e-05	3.679e-05	450.42	143.53	125.87	42.445	3.2556e-05	52.644	271.391	197.651	260.096	172.523	297.632	268.244	172.058	177.106	317.911	284.680	176.582	181.026	181.827	186.412	301.251	185.486	-8191	255	
29986.688	1	1	0	0	0.34592	0.12007	0.10022	0.29211	0.25464	0.063302	0.32368	0.23921	0.18788	0.21453	0.31652	0.13757	0.09049	0.083037	0.16848	0.20229	-3.0417	-2.7354	-2.6333	-3.5396	-2.5667	-3.2125	-3.3833	-2.5042	-3.4125	-2.8812	-2.7208	-3.3667	-2.7083	-3.0646	-3.1146	-2.5854	469.196	330.401	419.697	493.760	455.748	255.036	446.476	464.372	248.605	285.720	174.650	308.406	389.355	452.855	228.480	457.205	0.00063356	0.0003061	0.00018724	1483.6	4.6776e-06	5.1569e-06	1466.3	385.6	5.8397e-06	6.2092e-06	439.59	139.22	121.93	40.807	5.7644e-06	50.729	0.0016897	0.0032296	0.00091714	1510.8	3.1298e-05	3.6551e-05	1492.8	395.61	3.0668e-05	3.7216e-05	450.84	143.31	125.7	42.373	3.3174e-05	52.543	270.892	235.205	262.473	172.410	322.288	335.394	172.110	177.160	323.426	299.212	176.863	181.057	181.826	186.354	322.552	185.298	-8191	255	
29986.783	1	1	0	0	0.072239	0.05949	0.093758	0.1734	0.054761	0.061326	0.37812	0.19345	0.089408	0.070658	0.204	0.14732	0.059778	0.24408	0.14012	0.17071	-3.125	-2.8375	-2.525	-3.675	-2.5229	-2.9979	-3.5208	-2.7854	-3.3167	-2.9562	-2.5667	-3.3146	-2.7396	-2.8396	-3.3167	-2.6	209.018	349.192	271.786	430.601	481.762	389.598	459.369	408.463	172.658	312.321	498.918	489.420	421.708	485.722	312.232	436.918	0.00058852	0.00067998	9.5381e-05	1479.9	7.9294e-06	5.6514e-06	1466.2	385.12	5.1623e-06	4.9665e-06	437.73	139.63	122.19	40.898	5.2079e-06	50.664	0.0016918	0.0033154	0.00093884	1509.3	3.1773e-05	3.8322e-05	1491.9	394.76	3.1104e-05	3.8068e-05	449.95	143.34	125.6	42.328	3.3604e-05	52.563	273.487	253.333	237.958	172.319	290.133	319.809	172.017	176.980	331.819	307.239	176.343	181.216	181.583	186.261	329.357	185.329	-8191	255	
29986.877	1	1	0	0	0.096586	0.058973	0.14647	0.13405	0.21067	0.10892	0.221	0.14736	0.16225	0.094279	0.27584	0.084327	0.2328	0.25942	0.036644	0.22193	-2.675	-3.1042	-2.6167	-3.5187	-2.5687	-2.6542	-3.4958	-2.4875	-3.175	-3.0979	-2.6104	-3.4688	-2.7062	-2.9729	-3.4229	-2.7687	380.138	409.317	432.545	454.016	406.746	472.025	488.208	450.784	384.849	330.591	449.502	383.562	411.866	159.462	210.055	397.077	0.0005847	0.00065332	0.00016119	1479.4	5.9081e-06	5.3638e-06	1464.3	386.52	5.8587e-06	4.4305e-06	438.34	139.54	121.87	40.945	7.7923e-06	50.653	0.0017117	0.0033397	0.00094287	1508.7	3.1992e-05	3.7685e-05	1491.8	395.17	3.1748e-05	3.7158e-05	450.25	143.45	125.58	42.362	3.2185e-05	52.576	276.701	240.451	236.428	172.269	309.652	299.703	172.003	176.746	311.138	292.572	176.430	180.787	181.568	186.117	316.125	185.165	-8191	255	
29986.973	1	1	0	0	0.044305	0.13507	0.28454	0.32129	0.19603	0.17509	0.33811	0.1386	0.079126	0.13777	0.28601	0.13302	0.24137	0.086585	0.064594	0.16921	-2.6813	-3.1583	-2.5104	-3.5938	-2.9667	-2.7458	-3.575	-2.8521	-3.0167	-3.3167	-2.4417	-3.4521	-2.8729	-2.7521	-3.3875	-2.7167	398.458	515.471	420.549	461.804	324.452	403.866	505.021	511.200	484.434	202.421	453.173	339.420	442.814	165.145	246.266	510.677	0.00064647	0.00029916	0.00024873	1483.6	5.4416e-06	5.3435e-06	1467	385.83	6.0556e-06	4.4527e-06	438.48	139.3	121.55	40.855	5.165e-06	50.77	0.0016905	0.0032179	0.00091853	1508.9	3.1348e-05	3.715e-05	1492.3	395.05	3.1086e-05	3.6989e-05	450.3	143.29	125.63	42.406	3.2637e-05	52.606	273.358	242.476	241.609	172.162	290.860	298.037	172.174	176.865	317.560	320.601	176.430	181.076	181.650	186.408	324.862	185.179	-8191	255	
29987.094	1	1	0	0	0.2749	0.21695	0.10981	0.26256	0.069869	0.031323	0.2728	0.19995	0.2379	0.036658	0.1746	0.23044	0.3677	0.13308	0.16617	0.15721	-2.5854	-3.2958	-2.4854	-3.5167	-3.0646	-2.7521	-3.5625	-2.7917	-2.8896	-3.2604	-2.6375	-3.3083	-2.9833	-2.6125	-3.2083	-2.7729	246.052	333.365	458.381	513.465	179.190	286.850	496.740	484.493	320.698	228.841	476.614	498.916	489.464	472.230	216.134	426.175	0.00059493	0.00055652	0.00012928	1482	5.0995e-06	4.9668e-06	1469.9	384.62	6.244e-06	5.4989e-06	437.29	139.28	122.34	40.903	4.7955e-06	50.727	0.0017021	0.003194	0.00090533	1509.1	3.0536e-05	3.6243e-05	1493.3	394.75	3.0288e-05	3.5959e-05	449.76	143.19	125.87	42.354	3.2251e-05	52.643	272.992	221.156	265.524	172.461	316.161	301.162	172.011	176.936	301.003	313.113	176.455	181.421	181.559	186.348	298.282	185.320	-8191	255	
29987.189	1	1	0	0	0.16601	0.069886	0.16346	0.26693	0.050291	0.076465	0.24963	0.2382	0.048207	0.19753	0.18246	0.1537	0.092215	0.26978	0.16051	0.12274	-2.4437	-3.3083	-2.4604	-3.4104	-3.1708	-2.4208	-3.5125	-2.9542	-2.7708	-3.4	-2.6333	-3.2333	-3.0292	-2.6167	-3.4	-3.0104	226.425	242.472	409.859	181.118	181.578	320.526	500.552	480.949	232.395	388.001	164.765	484.216	225.590	270.661	489.045	453.803	0.00061689	0.00049173	0.00022927	1480.7	7.9386e-06	3.5334e-06	1462.3	385.41	7.1647e-06	5.1591e-06	437.52	139.63	122.09	40.791	5.3305e-06	50.783	0.0016932	0.0032105	0.00090589	1509.3	3.0166e-05	3.7526e-05	1490.9	395.06	3.1165e-05	3.6622e-05	450.07	143.4	125.69	42.397	3.2697e-05	52.703	272.159	250.398	238.309	172.300	316.991	250.578	171.962	176.799	302.058	316.698	176.544	181.171	181.543	186.207	310.519	185.343	-8191	255	
29987.285	1	1	0	0	0.35219	0.11611	0.26344	0.17239	0.081265	0.084226	0.29417	0.19356	0.12478	0.21397	0.040956	0.27595	0.27226	0.13698	0.073587	0.34095	-2.2958	-3.3167	-2.575	-3.1854	-3.3312	-2.4708	-3.3937	-3.2521	-2.6063	-3.4771	-2.7729	-2.9667	-3.5229	-2.6604	-3.3104	-3.2896	263.032	243.725	427.721	492.697	167.445	502.868	457.784	471.495	412.110	463.801	175.270	450.886	204.088	350.961	442.844	503.806	0.00057473	0.00042528	0.00012358	1481.9	6.8763e-06	6.2933e-06	1468.7	386.83	5.1213e-06	3.8647e-06	437.33	139.35	122.15	40.967	5.0113e-06	50.836	0.0017028	0.0032272	0.00091573	1509.5	3.0717e-05	3.7517e-05	1493.2	395.31	3.1025e-05	3.6748e-05	449.54	143.19	125.72	42.396	3.3165e-05	52.61	275.065	250.803	258.978	172.407	295.928	323.808	172.132	176.788	339.484	311.712	176.530	180.794	181.520	186.218	314.986	185.561	-8191	255	
29987.383	1	1	0	0	0.079037	0.069163	0.11242	0.37354	0.11166	0.31613	0.18428	0.20836	0.038612	0.14113	0.11942	0.22133	0.39497	0.20154	0.074548	0.21553	-2.1667	-3.4042	-2.7021	-3.2333	-3.4042	-2.6375	-3.3417	-3.2896	-2.5542	-3.3438	-2.8625	-2.9146	-3.4062	-2.7125	-3.1021	-3.2438	403.914	315.615	455.538	477.082	318.041	490.837	462.344	476.605	170.910	445.433	427.937	438.060	489.565	175.264	169.013	423.029	0.00058938	0.00059391	0.00010953	1479.7	2.9939e-06	7.0681e-06	1466.9	385.1	6.4539e-06	6.0629e-06	436.75	139.4	122.38	40.773	4.8826e-06	50.57	0.0017099	0.0032684	0.00091948	1510.4	3.0827e-05	3.7526e-05	1494	394.76	3.2029e-05	3.6535e-05	449.54	143.17	125.66	42.258	3.3245e-05	52.48	275.611	232.729	260.305	172.509	289.344	308.927	172.193	176.899	312.813	308.718	176.632	181.097	181.729	186.321	301.265	185.426	-8191	255	
29987.479	1	1	0	0	0.132	0.19108	0.2876	0.41375	0.17572	0.23899	0.30003	0.20056	0.14377	0.13822	0.18516	0.081759	0.13945	0.062863	0.16668	0.14348	-2.2479	-3.1792	-2.8187	-2.9667	-3.2375	-2.5167	-3.1979	-3.3271	-2.7104	-3.4646	-2.9542	-2.7875	-3.5479	-2.5146	-3.1583	-3.5208	278.009	496.733	474.498	495.282	380.997	452.257	467.859	328.763	361.768	364.404	489.806	178.442	394.041	400.398	331.381	461.019	0.00058909	0.000441	0.00012421	1483	6.2246e-06	3.8218e-06	1464.4	385.14	7.7096e-06	5.2385e-06	438.37	139.59	122.09	40.804	6.0835e-06	50.637	0.0017396	0.0032387	0.00092404	1509.3	3.1391e-05	3.7797e-05	1492.6	394.73	3.1622e-05	3.6922e-05	449.66	143.27	125.58	42.326	3.3183e-05	52.542	275.259	240.676	255.916	172.225	322.480	318.916	172.250	177.073	325.376	319.903	176.323	181.340	181.694	186.167	313.479	185.304	-8191	255	
29987.574	1	1	0	0	0.19672	0.14771	0.13261	0.40965	0.043023	0.17034	0.14753	0.14031	0.20104	0.1412	0.16353	0.11527	0.19567	0.2641	0.18768	0.023459	-2.0917	-3.3187	-2.8521	-2.8312	-3.5021	-2.5458	-3.1083	-3.325	-2.5896	-3.4146	-2.9938	-2.6521	-3.5229	-2.7667	-2.7438	-3.4417	217.056	510.427	233.584	471.055	505.854	381.025	433.938	491.634	213.869	296.899	422.152	326.606	516.258	491.668	361.783	345.029	0.00063433	0.00053989	0.00018667	1481.2	8.2897e-06	5.9878e-06	1470.3	385.54	8.3149e-06	7.6243e-06	437.77	139.39	121.76	40.722	4.4763e-06	50.535	0.0017183	0.0032648	0.00089338	1509.9	3.0959e-05	3.7148e-05	1494.8	394.74	3.1325e-05	3.6706e-05	449.95	143.34	125.59	42.267	3.2811e-05	52.545	276.215	243.465	250.751	172.320	319.675	313.337	172.184	176.976	300.389	329.496	176.344	180.842	181.582	185.968	327.832	185.194	-8191	255	
29987.695	1	1	0	0	0.094327	0.15877	0.27357	0.22735	0.12047	0.15354	0.29097	0.13108	0.25465	0.34762	0.090488	0.20289	0.083183	0.19746	0.070081	0.18855	-2.2313	-3.0604	-2.8479	-2.825	-3.3333	-2.6583	-2.8458	-3.4708	-2.4833	-3.1458	-3.2438	-2.4375	-3.3063	-2.8979	-2.6854	-3.6	367.193	398.062	266.496	218.491	361.734	517.127	454.059	171.064	514.346	254.974	513.061	502.711	501.276	340.196	422.038	391.505	0.00063343	0.00035072	0.00022311	1478.9	5.4134e-06	3.4125e-06	1464.9	385.95	5.4373e-06	5.5401e-06	438.24	139.47	121.65	40.64	6.6136e-06	50.475	0.0016898	0.0032495	0.00090635	1509.4	3.0427e-05	3.6406e-05	1492.8	395.29	3.1293e-05	3.6111e-05	449.6	143.15	125.44	42.274	3.3073e-05	52.626	274.047	245.655	246.016	172.478	315.977	275.382	172.132	176.933	305.789	314.451	176.443	181.384	181.720	186.049	309.390	185.454	-8191	255	
29987.789	1	1	0	0	0.14202	0.11652	0.22507	0.083432	0.039082	0.17593	0.16181	0.46331	0.17532	0.11069	0.28485	0.17676	0.025179	0.13303	0.16085	0.32393	-2.1875	-3.1167	-3.1813	-2.8146	-3.475	-2.9583	-2.8604	-3.5208	-2.4396	-3.0271	-3.2833	-2.5146	-3.3312	-3.0062	-2.4979	-3.2958	219.407	227.659	385.079	471.087	323.470	374.437	442.169	495.628	475.431	214.544	408.381	362.330	442.459	161.297	200.443	412.829	0.00059556	0.00064602	0.0001627	1484.7	5.9353e-06	5.4039e-06	1467.4	384.62	4.1992e-06	5.2207e-06	438.11	139.17	122.25	40.714	6.5353e-06	50.686	0.0016592	0.0032331	0.00091024	1510.6	3.0931e-05	3.6404e-05	1492.1	394.85	3.0677e-05	3.6364e-05	449.65	143.14	125.64	42.286	3.2295e-05	52.705	273.923	222.159	281.573	172.617	321.705	293.981	172.356	177.046	315.777	338.519	176.315	181.111	181.668	186.053	335.746	185.415	-8191	255	
29987.887	1	1	0	0	0.15879	0.082031	0.17074	0.37505	0.065628	0.10553	0.26298	0.084625	0.14459	0.13985	0.18572	0.33032	0.071639	0.19237	0.18015	0.063637	-2.2583	-2.9542	-3.3521	-2.5333	-3.2542	-3.0771	-2.8083	-3.5292	-2.6167	-2.7417	-3.4354	-2.4979	-3.4542	-3.2062	-2.5563	-3.3917	443.172	461.406	169.526	493.936	242.194	482.518	414.054	342.405	296.458	249.446	384.431	433.361	376.056	400.149	503.092	345.616	0.00056101	0.00070546	0.00019098	1481.7	5.5982e-06	6.3942e-06	1468.6	386.5	6.1455e-06	4.7322e-06	438.24	138.95	121.97	40.729	7.184e-06	50.724	0.0016833	0.0031838	0.0008985	1508	3.0838e-05	3.7495e-05	1491.7	395.38	3.0549e-05	3.6339e-05	450.15	143.06	125.8	42.331	3.2951e-05	52.604	272.480	258.379	262.733	172.358	314.370	278.761	172.353	177.186	298.987	336.049	176.617	180.916	181.786	186.133	332.411	185.526	-8191	255	
#DATA ENDS
