BOXY.EXE: ISS Imagent and Oximeter Data Acquisition Program Version 0.80
Ascii Record File

#ACQ INFORMATION
2  Detector Channels 
16  External MUX Channels 
1  Auxiliary Channels 
5000  Waveform (CCF) Frequency (Hz)
1  Waveforms Skipped 
30  Waveforms Averaged 
1  Cycles Averaged 
16  Acquisitions per Waveform 
10.0806  Updata Rate (Hz) 

#FILE INFORMATION
TRUE -- External MUX Channel results are PARSED.
FALSE -- AC DC and Phase are NOT grouped.
TRUE -- Companion Program Settings File CREATED.
FALSE -- AC data not excluded
FALSE -- DC data not excluded
FALSE -- Phase data not excluded
FALSE -- Auxillary Chn. data not excluded
Tab delimiters

#CALIBRATION STATE
TRUE -- Waveform Calibration Values APPLIED.


#AUX CALIBRATION VALUES
Val Type	aux-1	

Term	1.0000e+00	
Factor	0.0000e+00	


#WF CALIBRATION VALUES
A = Detector Channel
Val Type	A-AC1	A-AC2	A-AC3	A-AC4	A-AC5	A-AC6	A-AC7	A-AC8	A-AC9	A-AC10	A-AC11	A-AC12	A-AC13	A-AC14	A-AC15	A-AC16	A-DC1	A-DC2	A-DC3	A-DC4	A-DC5	A-DC6	A-DC7	A-DC8	A-DC9	A-DC10	A-DC11	A-DC12	A-DC13	A-DC14	A-DC15	A-DC16	A-Ph1	A-Ph2	A-Ph3	A-Ph4	A-Ph5	A-Ph6	A-Ph7	A-Ph8	A-Ph9	A-Ph10	A-Ph11	A-Ph12	A-Ph13	A-Ph14	A-Ph15	A-Ph16	

Term	0.00000e+00	0.00000e+00	0.00000e+00	0.00000e+00	0.00000e+00	0.00000e+00	0.00000e+00	0.00000e+00	0.00000e+00	0.00000e+00	0.00000e+00	0.00000e+00	0.00000e+00	0.00000e+00	0.00000e+00	0.00000e+00	0.00000e+00	0.00000e+00	0.00000e+00	0.00000e+00	0.00000e+00	0.00000e+00	0.00000e+00	0.00000e+00	0.00000e+00	0.00000e+00	0.00000e+00	0.00000e+00	0.00000e+00	0.00000e+00	0.00000e+00	0.00000e+00	0.00000e+00	0.00000e+00	0.00000e+00	0.00000e+00	0.00000e+00	0.00000e+00	0.00000e+00	0.00000e+00	0.00000e+00	0.00000e+00	0.00000e+00	0.00000e+00	0.00000e+00	0.00000e+00	0.00000e+00	0.00000e+00	
Factor	1.00000e+00	1.00000e+00	1.00000e+00	1.00000e+00	1.00000e+00	1.00000e+00	1.00000e+00	1.00000e+00	1.00000e+00	1.00000e+00	1.00000e+00	1.00000e+00	1.00000e+00	1.00000e+00	1.00000e+00	1.00000e+00	1.00000e+00	1.00000e+00	1.00000e+00	1.00000e+00	1.00000e+00	1.00000e+00	1.00000e+00	1.00000e+00	1.00000e+00	1.00000e+00	1.00000e+00	1.00000e+00	1.00000e+00	1.00000e+00	1.00000e+00	1.00000e+00	X	X	X	X	X	X	X	X	X	X	X	X	X	X	X	X	

B = Detector Channel
Val Type	B-AC1	B-AC2	B-AC3	B-AC4	B-AC5	B-AC6	B-AC7	B-AC8	B-AC9	B-AC10	B-AC11	B-AC12	B-AC13	B-AC14	B-AC15	B-AC16	B-DC1	B-DC2	B-DC3	B-DC4	B-DC5	B-DC6	B-DC7	B-DC8	B-DC9	B-DC10	B-DC11	B-DC12	B-DC13	B-DC14	B-DC15	B-DC16	B-Ph1	B-Ph2	B-Ph3	B-Ph4	B-Ph5	B-Ph6	B-Ph7	B-Ph8	B-Ph9	B-Ph10	B-Ph11	B-Ph12	B-Ph13	B-Ph14	B-Ph15	B-Ph16	

Term	0.00000e+00	0.00000e+00	0.00000e+00	0.00000e+00	0.00000e+00	0.00000e+00	0.00000e+00	0.00000e+00	0.00000e+00	0.00000e+00	0.00000e+00	0.00000e+00	0.00000e+00	0.00000e+00	0.00000e+00	0.00000e+00	0.00000e+00	0.00000e+00	0.00000e+00	0.00000e+00	0.00000e+00	0.00000e+00	0.00000e+00	0.00000e+00	0.00000e+00	0.00000e+00	0.00000e+00	0.00000e+00	0.00000e+00	0.00000e+00	0.00000e+00	0.00000e+00	2.93197e+01	-1.46832e+02	-1.39121e+02	-1.81086e+02	-9.40388e+01	-8.26987e+01	-1.58451e+02	-1.62015e+02	-4.88284e+01	-7.25510e+01	-1.70463e+02	-1.70388e+02	-1.82301e+02	-1.76731e+02	-5.84013e+01	-1.49945e+02	
Factor	5.48794e-05	1.85628e-04	4.36060e-05	1.70858e-01	1.72188e-06	1.61827e-06	1.82640e-01	6.30764e-02	2.27960e-06	1.44727e-06	1.00929e-01	3.45204e-02	2.99637e-02	1.05836e-02	1.66694e-06	1.51637e-02	2.09266e-06	2.19092e-06	6.07507e-07	8.53818e-02	2.38634e-08	2.39635e-08	8.56573e-02	3.13960e-02	2.38440e-08	2.39852e-08	4.84051e-02	1.65146e-02	1.48863e-02	5.27694e-03	2.38470e-08	7.29755e-03	X	X	X	X	X	X	X	X	X	X	X	X	X	X	X	X	



#DISTANCE SETTINGS
A = Detector Channel
A-1	A-2	A-3	A-4	A-5	A-6	A-7	A-8	A-9	A-10	A-11	A-12	A-13	A-14	A-15	A-16	

2.5000e+00	3.0000e+00	2.5000e+00	3.0000e+00	2.0000e+00	3.0000e+00	1.5000e+00	3.0000e+00	3.0000e+00	3.0000e+00	3.0000e+00	3.0000e+00	3.0000e+00	3.0000e+00	1.5000e+00	3.0000e+00	

B = Detector Channel
B-1	B-2	B-3	B-4	B-5	B-6	B-7	B-8	B-9	B-10	B-11	B-12	B-13	B-14	B-15	B-16	

1.0000e+01	1.0000e+01	1.0000e+01	1.4400e+00	1.0000e+01	1.0000e+01	1.5100e+00	1.9400e+00	1.0000e+01	1.0000e+01	1.9900e+00	2.4900e+00	2.4100e+00	2.9000e+00	1.0000e+01	2.9800e+00	




#DATA BEGINS
time	group	step	mark	flag	A-AC1	A-AC2	A-AC3	A-AC4	A-AC5	A-AC6	A-AC7	A-AC8	A-AC9	A-AC10	A-AC11	A-AC12	A-AC13	A-AC14	A-AC15	A-AC16	A-DC1	A-DC2	A-DC3	A-DC4	A-DC5	A-DC6	A-DC7	A-DC8	A-DC9	A-DC10	A-DC11	A-DC12	A-DC13	A-DC14	A-DC15	A-DC16	A-Ph1	A-Ph2	A-Ph3	A-Ph4	A-Ph5	A-Ph6	A-Ph7	A-Ph8	A-Ph9	A-Ph10	A-Ph11	A-Ph12	A-Ph13	A-Ph14	A-Ph15	A-Ph16	B-AC1	B-AC2	B-AC3	B-AC4	B-AC5	B-AC6	B-AC7	B-AC8	B-AC9	B-AC10	B-AC11	B-AC12	B-AC13	B-AC14	B-AC15	B-AC16	B-DC1	B-DC2	B-DC3	B-DC4	B-DC5	B-DC6	B-DC7	B-DC8	B-DC9	B-DC10	B-DC11	B-DC12	B-DC13	B-DC14	B-DC15	B-DC16	B-Ph1	B-Ph2	B-Ph3	B-Ph4	B-Ph5	B-Ph6	B-Ph7	B-Ph8	B-Ph9	B-Ph10	B-Ph11	B-Ph12	B-Ph13	B-Ph14	B-Ph15	B-Ph16	aux-1	digaux	

1895.369	1	1	0	768	0.05058	0.13475	0.4625	0.48524	0.31344	0.27965	0.25996	0.3079	0.1755	0.093818	0.17462	0.14312	0.1001	0.23723	0.01451	0.2071	0.50625	-0.65833	-0.15	-0.51458	-0.84167	-0.01875	-0.7625	-0.58542	-0.17708	-0.82708	-0.36875	-0.28333	-0.88542	-0.035417	-0.53333	-0.68958	149.799	115.779	-49.926	211.676	162.542	-64.279	234.482	-99.856	232.593	140.085	-117.694	-23.664	-78.272	122.789	36.035	152.558	0.0007225	0.000476	0.00014927	1413.6	5.5429e-06	1.9046e-06	1407.5	381.15	7.6554e-06	3.1267e-06	431.4	147.27	128.15	44.174	6.3115e-06	54.159	0.00030707	0.0003305	9.7824e-05	1420.3	3.3527e-06	3.6169e-06	1419.6	384.58	3.2408e-06	3.6813e-06	433.81	148.5	129.1	44.885	3.6724e-06	54.953	-2.662	-36.939	-67.315	-107.544	-59.689	25.813	-107.668	-103.201	13.432	-16.348	-103.520	-99.346	-98.769	-94.165	10.726	-94.805	-8191	255	
1895.466	1	1	0	0	0.31121	0.40594	0.20247	0.16475	0.10952	0.28309	0.064257	0.11999	0.15663	0.13536	0.089221	0.26578	0.094822	0.12062	0.21346	0.19945	0.20833	-0.78333	-0.22708	-0.34583	-1.1042	0.052083	-0.7625	-0.9125	0.11458	-0.80208	-0.57292	-0.32292	-1.125	-0.1125	-0.39792	-0.83333	-15.017	140.715	181.311	99.962	-47.777	-73.559	217.250	-91.068	59.014	-20.456	108.036	-80.049	64.530	73.308	202.110	-92.430	0.00074497	0.00028977	0.0001305	1406.2	4.1134e-06	3.8352e-06	1407.6	381.81	9.5508e-06	5.6647e-06	428.75	146.89	128.21	44.071	6.2485e-06	54.168	0.00031253	0.0003463	9.4189e-05	1417.9	3.3552e-06	3.84e-06	1416	384.58	3.3416e-06	3.8418e-06	433.53	148.43	128.94	44.838	3.4766e-06	54.772	-1.605	-22.823	-34.958	-107.463	32.871	55.001	-107.708	-103.130	20.440	-14.930	-103.817	-99.344	-98.881	-94.358	12.561	-95.179	-8191	255	
1895.562	1	1	0	0	0.10244	0.18379	0.18742	0.11159	0.15104	0.1957	0.065225	0.31302	0.27162	0.23655	0.22013	0.053573	0.30215	0.17096	0.13734	0.23942	0.26042	-0.68125	-0.23958	-0.029167	-0.87292	-0.1375	-0.59792	-0.7125	0.020833	-0.62292	-0.73125	-0.039583	-1.0229	-0.22917	-0.31667	-0.81458	40.562	225.915	-37.746	196.575	107.740	8.221	146.104	-107.808	107.088	-1.430	167.653	107.607	168.775	75.956	-4.067	-89.118	0.00079004	0.00070431	0.00026472	1407.5	2.779e-06	6.6404e-06	1404.3	382.4	3.5704e-06	4.2527e-06	427.94	147.79	128.35	44.218	4.3255e-06	54.13	0.00032659	0.00035008	8.9669e-05	1415.4	3.5433e-06	3.8466e-06	1415.6	384.88	3.5498e-06	3.7914e-06	433.54	148.62	129.36	44.846	3.4157e-06	54.789	-5.245	-35.136	-27.147	-107.546	8.483	43.202	-108.005	-103.152	-17.335	16.969	-103.727	-99.244	-99.157	-94.052	73.446	-95.056	-8191	255	
1895.658	1	1	0	0	0.14694	0.28521	0.13745	0.21149	0.19632	0.1514	0.18827	0.27462	0.084819	0.081766	0.025786	0.17202	0.17167	0.15068	0.24734	0.35979	0.34792	-0.76667	-0.53333	-0.23333	-0.9	-0.23125	-0.43333	-1.1521	-0.0875	-0.68542	-0.8125	-0.027083	-0.77917	-0.42917	-0.14583	-1.0229	99.082	61.517	194.409	166.752	-60.166	60.068	141.207	204.009	167.007	135.303	137.933	-91.346	128.586	85.083	-30.754	-84.615	0.00080428	0.00080746	0.00019957	1411.3	7.7019e-07	1.7029e-06	1408.2	382.28	6.9879e-06	4.1344e-06	431.56	147.53	127.55	44.095	5.8755e-06	53.903	0.00034674	0.00034013	8.8734e-05	1417.7	3.7285e-06	3.7241e-06	1417.4	384.69	3.7141e-06	3.5898e-06	433.92	148.56	129.22	44.854	3.2446e-06	54.791	-0.109	-71.358	-41.507	-107.764	-59.251	82.861	-107.655	-103.154	-12.174	34.941	-103.691	-99.410	-98.693	-94.409	23.660	-95.100	-8191	255	
1895.752	1	1	0	0	0.05177	0.10912	0.2995	0.32319	0.18474	0.1451	0.37674	0.11204	0.11994	0.1067	0.077479	0.089961	0.057585	0.1411	0.2718	0.17841	0.097917	-0.53333	-0.70417	-0.20208	-0.70625	-0.24375	-0.48125	-1.0771	-0.23333	-0.54583	-0.825	-0.047917	-0.75	-0.58958	-0.0875	-1.0021	202.301	-75.884	-57.029	189.343	-101.466	-71.165	161.542	150.137	112.776	-114.973	-36.768	-67.963	159.001	218.974	124.905	183.496	0.0006975	0.00046537	0.00020592	1412.2	5.4469e-06	3.5016e-06	1404.9	380.76	4.8402e-06	1.9428e-06	431.39	147.62	128.06	44.217	4.6906e-06	54.322	0.00035736	0.00032497	8.4671e-05	1418	3.7464e-06	3.5155e-06	1416.5	384.44	3.8057e-06	3.3991e-06	433.4	148.81	129.33	44.786	3.1869e-06	54.975	2.684	-52.379	-36.833	-107.544	16.127	-28.060	-107.773	-103.041	45.888	31.406	-103.681	-99.370	-98.831	-94.288	37.622	-94.891	-8191	255	
1895.850	1	1	0	0	0.07412	0.34999	0.15603	0.24661	0.28174	0.33467	0.42584	0.38035	0.18361	0.22869	0.27864	0.033111	0.20724	0.09327	0.14204	0.1802	0.20208	-0.26458	-0.84375	-0.13333	-0.60625	-0.62708	-0.10625	-0.85417	-0.15	-0.26042	-1.1354	-0.035417	-0.61458	-0.68958	-0.033333	-0.97708	-28.116	162.448	222.770	-106.223	18.406	180.989	168.158	-118.270	235.824	55.039	154.501	215.702	-105.757	202.745	148.648	108.271	0.00078957	0.00049034	0.0001148	1409	4.306e-06	1.2657e-07	1402.9	381.45	3.7257e-06	6.3612e-06	429.98	146.73	128.29	44.002	3.968e-06	54.084	0.00036349	0.00031221	8.3706e-05	1417.5	3.8254e-06	3.4877e-06	1416	384.79	3.8667e-06	3.3506e-06	432.75	148.52	129.39	44.692	3.1935e-06	54.926	4.894	-71.533	-51.952	-107.643	-12.430	102.695	-107.731	-103.092	-26.358	-2.795	-103.772	-99.468	-98.707	-94.126	22.873	-95.024	-8191	255	
1895.969	1	1	0	0	0.29303	0.34538	0.086747	0.20127	0.1763	0.11946	0.20551	0.064825	0.09813	0.044087	0.19433	0.0044423	0.2123	0.12349	0.27627	0.2066	0.12083	-0.025	-0.75625	-0.0020833	-0.40417	-0.65625	-0.047917	-1.0146	-0.4375	-0.18958	-0.90417	-0.12083	-0.7375	-0.66667	0.1625	-0.88958	81.383	214.037	100.681	-101.108	204.670	-31.295	145.192	-95.718	126.299	171.905	80.526	236.746	202.533	110.501	238.361	233.780	0.00066984	0.00052206	0.00019195	1410.4	7.1795e-06	4.4176e-06	1403.3	380.53	6.5384e-06	2.9399e-06	430.19	147.58	128.46	44.407	5.3251e-07	54.199	0.00035834	0.00030237	8.3209e-05	1421.2	3.6455e-06	3.3702e-06	1414.8	384.84	3.6876e-06	3.2151e-06	433.21	149.01	129.25	44.815	3.261e-06	54.949	1.590	-20.965	-35.864	-107.562	-12.328	10.340	-108.008	-103.150	69.326	0.102	-103.481	-99.317	-98.765	-94.362	125.566	-95.113	-8191	255	
1896.065	1	1	0	0	0.21378	0.20148	0.243	0.024856	0.16092	0.19541	0.26436	0.21165	0.12165	0.27967	0.22321	0.26271	0.13046	0.1839	0.048433	0.15515	-0.064583	-0.25417	-0.88125	-0.24375	-0.4125	-0.76458	-0.041667	-1.0604	-0.42917	-0.033333	-1.0708	0.022917	-0.52083	-0.88542	0.05625	-0.99375	115.003	137.408	-85.761	168.364	-48.927	133.156	177.864	194.860	166.982	109.105	22.225	134.170	79.648	115.408	95.211	106.944	0.00077868	0.00072848	0.00019037	1409.4	4.1196e-06	7.1161e-06	1410.2	380.47	7.2528e-06	3.9043e-06	430.74	147.75	128.09	44.288	1.8554e-06	54.064	0.00034139	0.00029119	8.5664e-05	1420.2	3.513e-06	3.3534e-06	1417.4	385.12	3.5868e-06	3.1566e-06	433.39	148.99	129.07	44.847	3.4762e-06	54.968	5.888	-35.768	-22.013	-107.567	-74.782	-21.478	-107.896	-103.015	15.656	12.096	-103.562	-99.373	-99.011	-94.284	-13.997	-94.809	-8191	255	
1896.161	1	1	0	0	0.12419	0.11535	0.24155	0.44769	0.31082	0.12687	0.21973	0.25149	0.11542	0.20137	0.22228	0.051608	0.048192	0.17149	0.359	0.14025	-0.18333	-0.10625	-0.99583	-0.25625	-0.29167	-0.93125	-0.091667	-0.91042	-0.71875	0.10417	-0.9125	-0.43958	-0.325	-0.90417	0.05	-0.56667	0.152	109.933	208.667	162.701	129.521	94.140	163.478	206.813	89.839	76.433	42.217	237.818	-74.815	175.131	-4.963	17.861	0.00078126	0.00046983	0.00014968	1406.3	2.2522e-06	4.3545e-06	1406.9	381.95	4.5627e-06	2.6974e-06	430.77	147.95	127.72	44.063	4.444e-06	54.086	0.00033621	0.00029493	9.1315e-05	1419.7	3.4437e-06	3.2799e-06	1419.5	385.22	3.5686e-06	3.1908e-06	434.33	148.82	129.09	44.736	3.7416e-06	54.823	-5.374	-53.250	-38.200	-107.738	-33.074	23.446	-107.858	-103.099	15.760	92.408	-103.580	-99.367	-98.846	-94.502	59.945	-95.106	-8191	255	
1896.257	1	1	0	0	0.3169	0.13046	0.19928	0.17278	0.008074	0.10075	0.19526	0.43451	0.14116	0.16837	0.27768	0.17383	0.17593	0.25972	0.22363	0.15457	-0.25208	0.0125	-0.69375	-0.40417	-0.08125	-1	-0.35417	-0.69792	-0.75625	-0.054167	-0.87917	-0.47292	-0.0125	-0.86458	-0.24375	-0.73125	-61.316	183.598	224.380	91.615	144.385	219.714	156.099	174.957	-2.153	97.906	112.490	64.510	-85.639	211.029	124.629	-111.595	0.00069879	0.00052157	0.00014555	1411.5	3.2759e-06	1.8254e-06	1406.1	381.33	7.1129e-06	2.8122e-06	430.92	147.46	127.8	44.356	1.7037e-06	54.309	0.00033148	0.0002956	9.5243e-05	1420	3.3374e-06	3.3064e-06	1418.7	384.33	3.4586e-06	3.247e-06	434.69	148.74	128.88	44.759	3.8757e-06	54.858	1.033	-41.869	-34.545	-107.752	7.068	59.392	-108.003	-103.065	35.356	-17.969	-103.548	-99.381	-98.840	-94.391	-38.535	-95.020	-8191	255	
1896.354	1	1	0	0	0.45914	0.11962	0.18637	0.40653	0.38915	0.40225	0.17128	0.039082	0.17395	0.23634	0.30328	0.13101	0.13904	0.31661	0.13467	0.15144	-0.48333	0.14167	-0.89375	-0.71667	0.052083	-0.87083	-0.18542	-0.70417	-1.0042	0.19583	-0.93333	-0.62708	-0.12083	-1.0479	-0.35	-0.4375	-64.131	82.837	-78.580	198.488	154.536	212.085	147.164	-86.393	-102.824	213.178	209.427	139.378	-100.006	213.412	-111.311	-106.177	0.00078153	0.00015524	8.282e-05	1410.4	4.8373e-06	1.5212e-06	1406.5	381.21	2.5238e-06	3.746e-06	430.21	147.99	127.66	44.235	1.5467e-06	54.241	0.00032373	0.00030483	9.6056e-05	1420.1	3.2429e-06	3.4474e-06	1419.9	385.12	3.3457e-06	3.4452e-06	434.32	148.9	128.88	44.895	3.8027e-06	54.917	3.740	-53.165	-47.186	-107.653	-53.953	142.484	-107.868	-102.939	-18.182	-13.566	-103.624	-99.281	-98.883	-94.326	15.381	-95.003	-8191	255	
1896.450	1	1	0	0	0.11715	0.2237	0.14054	0.1953	0.2368	0.045574	0.21933	0.11199	0.075051	0.067305	0.1447	0.15593	0.18905	0.082021	0.32381	0.27405	-0.53333	-0.047917	-0.60625	-0.88542	0.16042	-0.79792	-0.51458	-0.375	-0.76875	-0.070833	-0.73958	-0.85625	-0.11458	-0.90625	-0.12708	-0.27083	-25.548	-26.833	23.651	72.703	174.886	162.045	207.450	-103.156	198.486	176.265	176.337	186.731	10.533	-108.852	191.583	-116.603	0.00091145	0.00014347	0.00015684	1407.2	1.6934e-06	3.3269e-06	1411.7	381.41	4.083e-06	2.432e-06	429.76	147.24	127.87	44.372	4.7178e-06	54.407	0.00031808	0.00032488	9.3984e-05	1420.1	3.1569e-06	3.6514e-06	1421.3	384.92	3.324e-06	3.671e-06	433.7	148.88	129.07	44.936	3.6885e-06	54.951	-2.162	-15.537	-36.359	-107.624	-10.485	-18.384	-107.805	-103.100	-15.469	77.309	-103.573	-99.350	-98.997	-94.356	50.452	-94.870	-8191	255	
1896.570	1	1	0	0	0.030071	0.13397	0.25971	0.40626	0.20079	0.22474	0.14433	0.16237	0.24332	0.34682	0.20627	0.20985	0.24471	0.068877	0.13414	0.24195	-0.53333	-0.047917	-0.31875	-0.95208	-0.0041667	-0.78333	-0.75417	-0.40208	-0.93542	-0.091667	-0.425	-0.83958	-0.16875	-0.66667	-0.33958	-0.066667	-80.825	18.104	-119.762	233.193	-69.583	186.686	227.826	177.496	-104.000	76.963	196.564	-55.617	85.064	-1.912	114.931	84.068	0.00071602	0.00048263	0.00022874	1412.7	3.7834e-06	3.6915e-06	1413.7	380.94	1.0577e-05	6.0382e-06	432.87	147.52	127.99	44.479	3.6076e-06	54.495	0.00031317	0.00033997	8.848e-05	1420.3	3.216e-06	3.7154e-06	1420.3	384.34	3.3706e-06	3.7295e-06	433.49	148.87	129.32	45.072	3.4766e-06	54.875	-1.481	-32.801	-35.521	-107.637	-44.020	13.525	-107.958	-103.072	-50.055	17.012	-103.496	-99.213	-98.875	-94.221	30.118	-95.319	-8191	255	
1896.665	1	1	0	0	0.11843	0.042138	0.010095	0.2625	0.17992	0.053729	0.23414	0.14445	0.021763	0.14466	0.28296	0.23778	0.36396	0.27645	0.23973	0.12316	-0.44167	-0.10625	-0.29167	-0.96458	0.11042	-0.71875	-0.78125	-0.12708	-1.0292	-0.42917	-0.25	-0.85208	-0.18542	-0.67708	-0.44792	-0.095833	203.279	214.974	-9.993	164.390	98.951	30.919	152.154	-110.190	196.187	232.301	101.791	-113.489	202.020	150.293	23.060	-58.973	0.00065745	0.00061788	0.00019112	1406.8	3.5339e-06	4.8672e-06	1404.5	381.51	4.906e-06	4.4998e-06	431.28	147.61	128.49	44.35	2.2748e-06	54.192	0.00032314	0.00034417	8.4405e-05	1419.2	3.4053e-06	3.6666e-06	1419.1	384.23	3.5355e-06	3.7627e-06	433.38	149	129.63	45.007	3.3217e-06	54.82	-1.247	-34.536	-33.398	-107.552	-18.804	8.924	-107.994	-103.051	-13.648	1.163	-103.508	-99.400	-99.048	-94.475	23.293	-95.009	-8191	255	
1896.761	1	1	0	0	0.070067	0.17262	0.13579	0.34851	0.19853	0.24446	0.48504	0.14757	0.24483	0.22536	0.13534	0.41855	0.087672	0.032601	0.1225	0.24114	-0.65	-0.34583	-0.25417	-0.94792	-0.00625	-0.54792	-0.775	-0.125	-0.95417	-0.28125	-0.17708	-0.91042	-0.10208	-0.56667	-0.66042	-0.0041667	22.232	143.649	-103.297	189.440	-19.978	-82.307	205.916	125.756	237.803	-71.848	-35.593	207.750	238.068	49.214	-31.931	221.089	0.00082235	0.00081156	8.4926e-05	1414.5	2.4984e-06	6.0937e-06	1413.1	383.17	8.6979e-06	8.136e-06	433.45	148.29	128.46	44.568	4.0325e-06	54.694	0.00033553	0.00033064	8.0606e-05	1421.3	3.5336e-06	3.4513e-06	1422.6	386.08	3.6021e-06	3.5478e-06	434.67	149.7	129.93	45.083	3.2635e-06	55.101	-0.612	-36.358	-51.028	-107.662	-66.748	-14.752	-107.977	-103.136	-14.517	34.139	-103.617	-99.422	-98.895	-94.462	58.790	-95.310	-8191	255	
1896.857	1	1	0	0	0.14247	0.089184	0.10207	0.23372	0.24561	0.36609	0.20055	0.23157	0.12219	0.21644	0.19792	0.23905	0.061518	0.1173	0.1845	0.12239	-0.37708	-0.12708	0.097917	-1.0083	0.060417	-0.38333	-0.92708	-0.085417	-0.51667	-0.35625	-0.027083	-1.1917	-0.075	-0.39583	-0.73542	-0.10208	-97.604	139.824	-81.317	167.956	55.814	104.768	161.345	207.345	7.382	-93.242	224.923	211.099	26.038	184.960	-67.880	160.093	0.0006836	0.0010265	0.00012217	1417.2	7.9157e-06	2.8384e-06	1412.4	383.16	4.8577e-06	3.1076e-06	433.94	148.16	128.95	44.391	3.0789e-06	54.567	0.00035103	0.00031968	7.7447e-05	1425.3	3.7266e-06	3.2943e-06	1422.8	386.36	3.674e-06	3.3704e-06	434.61	149.58	130.32	45.045	3.1474e-06	55.233	-9.618	-48.326	-48.945	-107.693	-30.664	-39.075	-107.886	-103.121	4.085	65.203	-103.437	-99.289	-99.101	-94.273	32.654	-95.021	-8191	255	
1896.930	1	1	0	0	0.10077	0.11446	0.15051	0.15388	0.294	0.079548	0.33651	0.43126	0.14475	0.034911	0.11404	0.12929	0.15055	0.11506	0.20732	0.34892	-0.41042	-0.50208	-0.064583	-1.225	-0.06875	-0.31667	-0.87292	0.052083	-0.46667	-0.59375	-0.066667	-0.77292	-0.44583	-0.35833	-0.69375	0.0041667	-38.693	133.966	-96.309	8.815	20.468	-76.701	159.644	227.173	-106.746	-3.790	134.916	191.469	178.249	-36.973	-40.657	-103.590	0.00074731	0.00068416	0.00011949	1415.6	4.083e-06	5.0883e-06	1414.1	383.69	1.0367e-05	5.4861e-06	433.12	149.12	129.53	44.695	5.7372e-06	54.527	0.00033917	0.00029952	7.6318e-05	1426.2	3.651e-06	3.0777e-06	1423.8	387.12	3.5121e-06	3.2055e-06	434.9	150.51	130.73	45.201	3.0276e-06	55.38	3.459	-64.351	-24.117	-107.523	-31.483	28.813	-107.985	-103.254	10.520	42.031	-103.448	-99.410	-98.743	-94.335	64.776	-95.134	-8191	255	
1897.049	1	1	0	0	0.15763	0.25682	0.27442	0.43932	0.11666	0.21905	0.25258	0.23763	0.12297	0.14243	0.1219	0.21445	0.11174	0.24626	0.19521	0.2324	-0.26667	-0.54583	0.033333	-1.0854	-0.17917	-0.033333	-1.0271	-0.033333	-0.48958	-0.62083	-0.11667	-0.66875	-0.59167	-0.13125	-0.96458	-0.27708	-10.344	229.436	-9.107	218.106	58.950	101.231	118.911	152.437	204.929	134.251	167.938	202.064	202.167	214.608	55.414	76.127	0.00074472	0.00040195	0.00014733	1416.1	2.8292e-06	6.4765e-06	1413.5	385.35	9.5578e-06	4.4196e-06	434.13	148.91	129.19	44.898	3.5316e-06	54.673	0.00032577	0.00028829	7.438e-05	1427.6	3.4904e-06	3.0155e-06	1424	387.61	3.3495e-06	3.1368e-06	434.79	150.52	130.45	45.2	3.1489e-06	55.405	-4.940	-59.275	-39.947	-107.632	-5.553	29.303	-107.921	-103.263	33.859	28.767	-103.409	-99.311	-98.899	-94.313	54.585	-95.089	-8191	255	
1897.146	1	1	0	0	0.28839	0.050498	0.081663	0.16189	0.091566	0.040848	0.21981	0.34551	0.36995	0.073906	0.15726	0.20955	0.2142	0.18778	0.1919	0.18929	0.075	-0.73333	-0.039583	-0.85833	-0.3875	-0.025	-1.1042	-0.039583	-0.44792	-0.82917	-0.15417	-0.81875	-0.55833	0.11458	-0.9125	-0.2	220.372	200.128	-9.014	193.715	-23.849	209.932	-104.881	237.106	233.963	14.467	208.917	75.274	144.720	175.363	-110.608	133.587	0.0006507	0.00063113	7.9197e-05	1419.3	3.6063e-06	6.7555e-06	1412.7	383.13	7.6168e-06	4.692e-06	432.91	148.61	129.55	44.776	4.108e-06	54.748	0.00031172	0.00028784	7.8722e-05	1428.5	3.3729e-06	2.98e-06	1423.5	387.44	3.2471e-06	3.0858e-06	435.7	150.43	130.49	45.182	3.3105e-06	55.466	-0.549	-15.610	-57.296	-107.495	-27.575	-24.123	-107.800	-103.152	6.222	37.892	-103.650	-99.361	-99.003	-94.164	-5.823	-95.059	-8191	255	
1897.242	1	1	0	0	0.29714	0.061186	0.20093	0.30803	0.1622	0.049464	0.302	0.37387	0.40681	0.23316	0.066364	0.16164	0.11952	0.30081	0.32462	0.066858	-0.10833	-0.78542	0.0020833	-0.79375	-0.50625	0.10833	-0.88958	-0.30625	-0.047917	-0.775	-0.18333	-0.51458	-0.60833	0.0875	-0.68542	-0.31042	52.499	106.894	-22.651	198.025	27.015	8.811	164.490	133.990	146.484	107.840	120.337	-47.065	84.352	168.649	23.615	96.354	0.00067031	0.00062503	0.00014688	1420	5.9076e-06	3.1009e-06	1420	384.77	9.4488e-06	4.8597e-06	435.48	149.88	130.46	45.098	1.4121e-06	55.061	0.00030196	0.00027953	8.3437e-05	1430.5	3.2245e-06	2.9002e-06	1428	388.01	3.0841e-06	2.9969e-06	437.18	151.03	131.11	45.472	3.3597e-06	55.626	-5.115	-97.424	-33.237	-107.575	5.796	24.968	-107.825	-103.295	16.746	20.606	-103.607	-99.188	-98.905	-94.202	-11.733	-95.047	-8191	255	
1897.362	1	1	0	0	0.16291	0.35418	0.18524	0.35081	0.090511	0.18267	0.1795	0.052022	0.1251	0.23021	0.11088	0.36261	0.14566	0.24346	0.22631	0.2214	0.18333	-0.83958	0.10625	-0.66875	-0.68542	0.066667	-1.0417	-0.45208	0.054167	-0.92917	-0.16875	-0.48333	-0.82292	-0.047917	-0.69792	-0.46875	86.442	-93.997	189.405	-110.418	178.441	-113.957	92.698	224.394	197.063	101.589	125.734	-86.162	97.102	-93.117	129.475	131.501	0.00080387	0.00042439	5.9511e-05	1418.7	6.3426e-06	6.845e-06	1416.4	383.28	5.2613e-06	5.6074e-06	431.66	148.77	129.2	44.608	3.1156e-06	54.878	0.00028994	0.00027582	8.7252e-05	1429.3	3.1423e-06	2.9679e-06	1428.4	387.16	3.0212e-06	3.0978e-06	435.87	150.2	130.46	45.206	3.6283e-06	55.408	1.561	-79.812	-1.726	-107.552	7.739	8.736	-107.700	-103.013	-15.073	27.244	-103.964	-99.406	-99.005	-94.249	36.736	-95.226	-8191	255	
1897.458	1	1	0	0	0.14288	0.13455	0.20349	0.23978	0.42891	0.1858	0.25625	0.1889	0.21895	0.10208	0.0721	0.14984	0.12495	0.11141	0.24575	0.066097	0.24167	-0.99583	-0.11667	-0.60208	-0.82083	0.18542	-0.76458	-0.50833	0.12292	-0.79583	-0.058333	-0.30625	-0.93333	-0.13333	-0.49583	-0.68125	207.507	211.223	-83.737	231.866	7.101	121.316	164.443	199.820	-109.638	7.724	-108.733	219.560	238.464	112.184	102.840	114.773	0.00072062	0.00073947	0.00014718	1418.4	4.064e-06	5.4576e-06	1418.1	384.21	4.2052e-06	2.9356e-06	432.89	149.08	129.32	44.414	2.8946e-06	54.4	0.00029656	0.00030589	9.4341e-05	1428.2	3.3296e-06	3.3388e-06	1429.3	387.11	3.2082e-06	3.4812e-06	436.51	150.01	130.07	45.139	3.6885e-06	55.187	-1.171	-93.240	-56.524	-107.581	-53.973	34.914	-107.834	-103.261	-30.040	54.101	-103.825	-99.473	-98.969	-94.291	35.247	-95.229	-8191	255	
1897.530	1	1	0	0	0.34677	0.13402	0.17571	0.15146	0.086387	0.27459	0.13593	0.092284	0.38654	0.20694	0.087779	0.28733	0.30095	0.15196	0.11389	0.15455	0.55625	-0.8375	-0.17083	-0.50833	-0.89583	0.35208	-0.95	-0.78333	0.029167	-0.80417	-0.40417	-0.23958	-0.74375	-0.0041667	-0.45417	-0.61458	216.673	211.528	-76.253	-83.050	144.451	-21.100	144.089	227.255	124.184	126.430	-49.418	-103.320	-101.486	167.495	130.756	162.387	0.00072942	0.00041457	0.00021381	1417.5	6.7561e-06	2.8764e-06	1415.2	383.72	2.5422e-06	2.8781e-06	433.24	149.54	129.46	44.749	2.2914e-06	54.688	0.00029744	0.00032819	9.2033e-05	1427.4	3.2472e-06	3.5299e-06	1429.4	386.86	3.1197e-06	3.6158e-06	436.21	150.35	130.41	45.33	3.4458e-06	55.282	1.835	-49.303	-39.558	-107.631	-4.835	-8.641	-107.736	-103.005	8.457	7.466	-103.605	-99.450	-99.078	-94.284	11.317	-94.994	-8191	255	
1897.651	1	1	0	0	0.21546	0.066914	0.1122	0.23386	0.25645	0.057701	0.26124	0.065467	0.30949	0.18394	0.58422	0.19386	0.12869	0.17817	0.20939	0.10823	0.43542	-0.70833	-0.18333	-0.26875	-0.83333	0.0020833	-0.65417	-0.6625	0.15208	-0.75625	-0.57708	0.035417	-0.81875	-0.10417	-0.22083	-0.825	62.217	-110.207	221.284	197.065	-13.156	-85.591	128.124	201.065	-10.024	-11.421	199.386	-18.382	176.474	57.999	-11.700	-49.077	0.00086028	0.00056983	6.7181e-05	1419.7	5.7037e-06	8.2697e-06	1414.3	382.94	1.1195e-06	3.7569e-06	432.16	148.62	129.3	44.491	8.1336e-06	54.485	0.00030236	0.00033416	8.8919e-05	1428.8	3.3005e-06	3.6859e-06	1427.6	386.88	3.2861e-06	3.7222e-06	435.33	150	130.34	45.198	3.4694e-06	55.137	-2.265	-31.116	-12.356	-107.572	17.758	7.382	-107.743	-103.190	-105.553	58.854	-103.770	-99.199	-99.013	-94.270	67.382	-95.051	-8191	255	
1897.745	1	1	0	0	0.14053	0.17291	0.096813	0.12015	0.18434	0.097874	0.14497	0.39113	0.14941	0.10415	0.16304	0.097984	0.25648	0.083483	0.1649	0.084262	0.61875	-0.69792	-0.34792	-0.15	-0.77083	-0.041667	-0.43333	-0.8875	0.18333	-0.58125	-0.71042	-0.020833	-0.9875	-0.30417	-0.00625	-0.875	-44.333	54.205	226.342	161.384	178.739	212.368	218.677	214.341	112.905	48.629	113.493	77.156	-97.930	128.311	-52.791	49.038	0.00073528	0.00082839	0.00013087	1419.7	4.0547e-06	5.2563e-06	1417	384.01	6.0562e-06	4.2247e-06	431.79	148.61	128.99	44.521	4.886e-06	54.638	0.00033346	0.00034796	8.9315e-05	1430	3.5899e-06	3.8183e-06	1429.9	386.77	3.6091e-06	3.7359e-06	434.76	149.77	130.45	45.22	3.3168e-06	55.218	-6.621	-58.003	-38.256	-107.530	-7.022	14.803	-107.690	-103.128	-12.379	47.160	-103.647	-99.291	-98.978	-94.331	41.135	-95.273	-8191	255	
1897.841	1	1	0	0	0.037279	0.33376	0.12538	0.078769	0.34055	0.25143	0.046367	0.27806	0.082235	0.076049	0.22256	0.19461	0.20546	0.22394	0.23457	0.11888	0.21667	-0.43333	-0.48542	-0.041667	-0.72917	-0.15833	-0.22708	-1.0542	-0.17083	-0.35833	-0.75	-0.08125	-0.76667	-0.5625	-0.0041667	-0.92083	-111.189	19.261	196.378	78.869	-98.106	184.541	145.568	-120.400	45.581	69.894	201.925	189.311	202.940	-78.109	-55.114	-1.677	0.00071177	0.00081205	0.00012376	1426.6	1.4713e-06	6.2356e-06	1419.2	384.11	6.5296e-06	3.193e-06	433.43	148.52	129.41	44.616	8.1277e-06	54.701	0.00035345	0.00033153	8.6898e-05	1432	3.7281e-06	3.6636e-06	1430.7	387.17	3.7357e-06	3.5245e-06	435.36	149.83	130.5	45.205	3.1817e-06	55.204	-3.056	-72.865	-19.274	-107.714	164.722	-9.481	-107.784	-103.056	11.012	60.560	-103.632	-99.463	-99.139	-94.493	33.900	-95.240	-8191	255	
1897.962	1	1	0	0	0.20288	0.23401	0.14038	0.066561	0.10003	0.30603	0.12728	0.12957	0.10704	0.088871	0.28374	0.36595	0.34149	0.23249	0.20692	0.34791	0.22708	-0.52708	-0.73125	-0.047917	-0.60208	-0.41042	-0.27708	-0.96875	-0.066667	-0.24375	-0.80208	0.079167	-0.78125	-0.72917	0.020833	-0.95625	-73.871	-54.649	151.397	46.118	46.409	-45.468	126.082	106.730	-41.263	97.663	133.744	192.089	205.413	118.229	177.633	188.201	0.00087264	0.00058003	5.4349e-05	1421.8	3.6343e-06	7.3307e-06	1416.7	383.39	6.8381e-06	5.3832e-06	431.88	148.19	129.05	44.419	4.2572e-06	54.494	0.00035708	0.0003154	8.6012e-05	1430.6	3.8199e-06	3.5186e-06	1428.4	386.78	3.9233e-06	3.4144e-06	434.51	149.39	130.29	45.076	3.1469e-06	55.19	1.044	-83.949	-51.663	-107.714	23.608	13.811	-107.680	-103.193	3.684	29.661	-103.649	-99.439	-98.942	-94.396	13.496	-95.039	-8191	255	
1898.058	1	1	0	0	0.11046	0.17445	0.18021	0.34547	0.20244	0.15769	0.43582	0.24881	0.236	0.11433	0.072247	0.19444	0.15128	0.30317	0.14635	0.36862	0.25208	-0.1625	-0.69375	-0.24375	-0.38333	-0.61667	-0.21458	-0.70208	-0.09375	-0.16875	-0.98125	-0.1125	-0.61042	-0.90833	0.047917	-0.83333	-69.863	-52.371	111.659	185.832	168.014	160.968	171.619	196.809	224.570	-93.186	141.242	132.297	-64.613	148.647	12.939	-99.082	0.00079151	0.00050403	7.4162e-05	1419	3.2966e-06	2.2848e-06	1420.4	383.45	3.3272e-06	4.5769e-06	432.78	148.02	129.02	44.308	4.3177e-06	54.651	0.00036925	0.00031486	8.4674e-05	1431.4	3.859e-06	3.5671e-06	1430.9	386.92	3.8912e-06	3.3891e-06	434.71	149.86	130.34	45.045	3.2443e-06	55.21	2.058	-42.202	-56.557	-107.622	17.594	36.769	-107.799	-103.250	-11.446	58.344	-103.564	-99.258	-98.901	-94.179	-12.618	-94.975	-8191	255	
1898.154	1	1	0	0	0.24488	0.12216	0.17315	0.33827	0.078827	0.16978	0.042176	0.34285	0.10419	0.11222	0.19538	0.29937	0.13559	0.059329	0.30068	0.27799	0.0125	-0.11458	-0.81875	-0.19167	-0.42292	-0.66875	-0.22292	-1.0229	-0.39167	0.0041667	-0.92917	-0.047917	-0.59167	-0.9	0.0041667	-0.66042	-48.495	-76.180	93.393	187.792	-42.416	-6.340	179.873	-97.218	207.450	4.851	156.975	136.272	114.451	-103.616	19.940	-117.193	0.00084039	0.00059011	0.00018695	1419.3	4.4922e-06	3.6776e-06	1418.6	382.53	1.0319e-05	5.9594e-06	431.84	148.82	129.04	44.489	1.586e-06	54.423	0.00036214	0.00030583	8.6234e-05	1431.8	3.7138e-06	3.4765e-06	1429.9	386.76	3.752e-06	3.2955e-06	435.27	150.29	130.37	45.071	3.3708e-06	55.255	-2.471	-32.069	-52.194	-107.571	10.417	10.911	-107.867	-103.077	34.063	29.149	-103.522	-99.277	-98.904	-94.454	-16.841	-95.029	-8191	255	
1898.226	1	1	0	0	0.085023	0.19146	0.1912	0.24909	0.053925	0.078493	0.11445	0.048538	0.18375	0.10837	0.15797	0.24601	0.41449	0.29025	0.28932	0.17762	0.045833	-0.0625	-0.69792	-0.14583	-0.10208	-0.69375	0.0083333	-0.81875	-0.42917	-0.016667	-0.72292	-0.025	-0.24375	-0.75833	0.041667	-0.62292	-86.148	20.379	216.676	223.910	37.167	9.837	173.202	56.932	131.814	145.364	211.933	-105.048	-107.043	119.982	123.399	-42.602	0.00075477	0.00046484	9.8978e-05	1420.3	7.0364e-06	4.2761e-06	1414	383.55	9.5531e-06	5.354e-06	434.11	148.39	129.34	44.471	2.5011e-06	54.647	0.00034549	0.00029962	8.9064e-05	1431.7	3.5337e-06	3.3458e-06	1429.3	387.09	3.6251e-06	3.1531e-06	435.85	149.79	130.15	44.997	3.5703e-06	55.263	9.411	-66.671	228.167	-107.602	-13.955	34.930	-107.825	-103.023	21.530	25.471	-103.604	-99.311	-98.729	-94.388	8.506	-94.995	-8191	255	
1898.347	1	1	0	0	0.089818	0.3224	0.25118	0.22661	0.1044	0.25066	0.030013	0.27772	0.11882	0.065165	0.11928	0.10466	0.26323	0.37791	0.34775	0.21582	-0.18333	0.035417	-0.80833	-0.38125	-0.097917	-0.75208	-0.10208	-0.52917	-0.67292	0.039583	-0.97083	-0.52083	-0.25208	-0.86875	-0.12708	-0.70625	53.606	206.758	-110.267	184.729	153.421	-61.129	-36.311	177.661	-51.606	-61.845	-0.849	118.318	235.907	236.377	76.399	119.401	0.00077095	0.00038995	0.00011697	1423.8	6.0827e-06	4.0645e-06	1419.8	382.2	1.087e-05	3.7253e-06	430.67	148.77	128.79	44.49	4.9837e-06	54.409	0.00034092	0.00029447	9.4353e-05	1434.6	3.4467e-06	3.3488e-06	1434.2	386.86	3.5653e-06	3.2533e-06	435.99	150.03	130.01	45.194	3.8525e-06	55.263	-2.522	-7.986	235.810	-107.675	-38.204	-18.779	-107.934	-103.051	0.941	55.766	-103.551	-99.598	-98.846	-94.325	-21.157	-95.150	-8191	255	
1898.443	1	1	0	0	0.20704	0.050953	0.2169	0.10891	0.15541	0.21704	0.15804	0.086249	0.069899	0.061676	0.316	0.2783	0.16173	0.083517	0.17184	0.2126	-0.41875	0.11458	-0.53125	-0.52083	-0.1	-0.69167	-0.11667	-0.52917	-0.71042	0.058333	-0.81667	-0.38333	0.033333	-0.95	0.066667	-0.50208	-4.800	-104.362	35.754	165.245	-23.653	-66.741	172.155	-61.133	0.981	3.561	-113.469	228.735	114.720	43.260	-0.855	185.208	0.00082453	0.00027382	0.00015115	1425	4.7364e-06	1.3599e-06	1421.4	385.6	2.7819e-06	1.9343e-06	432.55	149.45	129.2	44.677	2.5257e-06	54.746	0.00033598	0.0003024	9.8288e-05	1435.9	3.3451e-06	3.3623e-06	1433.3	387.6	3.4569e-06	3.2883e-06	436.87	150.3	130.12	45.184	3.9094e-06	55.334	6.463	189.028	-19.993	-107.576	-20.788	-55.565	-107.816	-103.092	199.490	26.553	-103.547	-99.301	-98.932	-94.297	47.234	-94.977	-8191	255	
1898.539	1	1	0	0	0.16773	0.18334	0.18419	0.25711	0.25879	0.30728	0.21576	0.24444	0.17254	0.22723	0.34089	0.27068	0.35957	0.044144	0.17662	0.033154	-0.47917	0.01875	-0.47083	-0.5125	0.13333	-0.75	-0.28333	-0.35625	-0.78958	0.21667	-0.57708	-0.74792	-0.079167	-0.98958	-0.23542	-0.11042	-73.772	173.278	-116.090	199.869	-9.180	130.076	132.695	186.955	125.096	46.083	139.486	236.317	238.609	76.077	-19.152	218.440	0.00077156	0.00025314	0.0002435	1423.5	2.132e-06	4.2021e-06	1420	384.16	1.2137e-05	6.9019e-06	432.51	148.71	129	44.725	5.9331e-06	54.694	0.00032388	0.00031779	9.691e-05	1435.6	3.2679e-06	3.5684e-06	1434.3	387.36	3.3634e-06	3.5622e-06	436.21	150.15	130.24	45.318	3.8614e-06	55.314	1.027	-44.755	-36.978	-107.778	-33.565	50.955	-107.833	-103.096	8.559	37.632	-103.678	-99.500	-99.144	-94.326	-14.682	-94.968	-8191	255	
1898.635	1	1	0	0	0.058289	0.26805	0.10867	0.11203	0.10947	0.21176	0.14256	0.07888	0.21747	0.065132	0.23227	0.046987	0.20548	0.33189	0.1852	0.1352	-0.50833	0.11458	-0.45	-0.70417	-0.060417	-0.89167	-0.58542	-0.12083	-0.77708	0.16667	-0.52292	-0.55	-0.08125	-0.86875	-0.3375	-0.22708	-21.182	79.320	-49.342	236.030	221.968	219.479	186.624	-77.167	-66.530	-57.027	156.998	19.581	-100.967	167.669	20.824	178.292	0.00077122	0.00016089	0.00022914	1418.8	2.1296e-06	2.2141e-06	1422.6	385.36	6.7956e-06	4.479e-06	435.22	149.19	129.23	44.696	5.9414e-06	54.765	0.0003194	0.00033321	9.4295e-05	1434.5	3.2256e-06	3.7297e-06	1434.9	387.18	3.3147e-06	3.7026e-06	436.04	150.4	130.33	45.376	3.6817e-06	55.342	-7.172	-70.050	-56.301	-107.676	-69.703	-93.991	-107.758	-103.035	9.454	-2.475	-103.562	-99.357	-98.919	-94.121	3.078	-95.132	-8191	255	
1898.754	1	1	0	0	0.32492	0.49386	0.073414	0.25293	0.10272	0.22562	0.14228	0.38043	0.058991	0.17924	0.30776	0.13178	0.27976	0.30592	0.19231	0.2348	-0.4375	0.10833	-0.32083	-0.8	0.016667	-0.89375	-0.46667	-0.0375	-0.65	0.060417	-0.44792	-0.8375	0.054167	-0.67292	-0.40833	0.05625	-46.277	64.228	-3.694	210.751	117.843	188.262	157.367	178.462	179.369	112.717	183.116	195.042	206.945	182.846	72.170	162.364	0.0008586	0.00014437	0.00017224	1422.7	3.8515e-06	1.0599e-05	1421.6	383.61	4.0257e-06	3.9564e-06	433.41	149.19	128.95	44.684	2.6562e-06	54.533	0.00031948	0.00034888	8.9772e-05	1434.2	3.3577e-06	3.8169e-06	1433	386.33	3.429e-06	3.8579e-06	435.67	150.12	130.17	45.315	3.5967e-06	55.212	4.759	-100.913	-33.662	-107.678	6.231	-7.277	-108.034	-102.930	-8.461	25.525	-103.547	-99.542	-98.791	-93.986	35.240	-95.079	-8191	255	
1898.826	1	1	0	0	0.10939	0.1888	0.14923	0.26356	0.052584	0.083241	0.074304	0.20351	0.12016	0.14433	0.36013	0.052321	0.17318	0.17915	0.11437	0.078881	-0.45208	-0.072917	-0.21667	-1.0667	0.10208	-0.4625	-0.51458	-0.1375	-0.77917	-0.26042	-0.40625	-0.90833	-0.054167	-0.72292	-0.52917	-0.0041667	-45.066	60.440	161.765	225.023	107.846	47.551	194.291	203.284	-73.593	27.895	215.281	26.654	83.452	-82.033	108.984	-47.477	0.00084922	0.00044858	0.00012943	1422.6	4.0146e-06	6.1829e-06	1423	383.35	3.1096e-06	5.2585e-06	432.82	148.9	129.47	44.626	6.1308e-06	54.608	0.00034061	0.00035397	8.6498e-05	1435.2	3.5703e-06	3.7465e-06	1432.7	386.7	3.6195e-06	3.8414e-06	435.89	150.07	130.54	45.295	3.5096e-06	55.276	-8.328	-90.855	-42.416	-107.663	0.289	20.858	-107.959	-103.152	137.649	35.350	-103.833	-99.568	-98.937	-94.361	14.636	-95.139	-8191	255	
1898.923	1	1	0	0	0.11925	0.13077	0.2981	0.24479	0.12457	0.080886	0.24887	0.05972	0.23242	0.15276	0.15202	0.16932	0.22091	0.25096	0.24316	0.19415	-0.52708	-0.10625	-0.09375	-0.975	0.01875	-0.53958	-0.93333	0.029167	-0.64167	-0.20833	-0.1875	-0.93958	-0.039583	-0.39792	-0.53542	-0.14792	89.069	-23.584	216.529	194.206	84.577	192.449	175.693	114.299	-24.230	143.371	215.930	173.821	-84.998	193.101	-51.979	161.377	0.00068715	0.00072782	0.00013376	1425.4	1.7701e-06	7.1637e-06	1421.4	383.01	6.6838e-06	6.018e-06	432.41	149.03	129.07	44.719	4.1163e-06	54.68	0.00035488	0.00034073	8.3465e-05	1434.2	3.7798e-06	3.5773e-06	1432.7	386.1	3.7366e-06	3.7119e-06	435.19	150.06	130.51	45.217	3.436e-06	55.256	0.149	-70.685	-57.923	-107.672	-4.066	-3.663	-107.843	-102.926	-55.320	47.733	-103.620	-99.467	-98.888	-94.082	82.073	-95.149	-8191	255	
1899.042	1	1	0	0	0.1962	0.45315	0.28257	0.3304	0.10696	0.18895	0.13067	0.057529	0.10931	0.14422	0.096115	0.2377	0.19377	0.2728	0.24019	0.21701	-0.39583	-0.275	0.079167	-0.8625	-0.027083	-0.26042	-0.99375	0.060417	-0.82917	-0.40417	0.0125	-0.7875	-0.20833	-0.29375	-0.85208	-0.09375	104.563	-24.614	-87.091	236.716	77.391	-87.349	-113.380	229.873	-59.139	-32.280	-82.852	-90.905	213.176	136.283	-55.771	90.673	0.00080522	0.00079818	0.00011629	1426.3	9.0644e-07	6.2764e-06	1422.8	383.08	5.0621e-06	4.1765e-06	433	148.99	129.22	44.637	7.9999e-06	54.767	0.00036025	0.0003354	8.2306e-05	1434.7	3.9018e-06	3.494e-06	1432.4	386.96	3.835e-06	3.5812e-06	435.07	150.12	130.41	45.199	3.3762e-06	55.31	3.151	-56.361	-54.186	-107.668	66.738	-12.825	-107.850	-103.010	91.964	25.555	-103.708	-99.208	-98.860	-94.236	59.207	-95.363	-8191	255	
1899.138	1	1	0	0	0.055395	0.13277	0.18443	0.091825	0.14941	0.12644	0.22136	0.1435	0.18603	0.17612	0.12933	0.21899	0.11629	0.20435	0.10508	0.3562	-0.31042	-0.47917	0.022917	-1.2333	-0.097917	0	-0.92292	-0.10625	-0.48125	-0.55625	-0.15833	-0.84167	-0.375	-0.19375	-0.66875	0.01875	-116.018	-103.595	225.345	-62.061	-18.248	151.976	209.245	-93.907	131.090	37.078	73.374	-110.751	155.901	36.027	155.243	-82.112	0.00072026	0.0008818	0.00017592	1423.7	5.1931e-06	8.1079e-06	1422.5	381.57	7.9021e-06	2.6387e-06	432.38	149.29	129.06	44.604	2.4218e-06	54.723	0.00036153	0.00032496	8.2306e-05	1434.1	3.8993e-06	3.381e-06	1432.1	386.31	3.7574e-06	3.4825e-06	434.51	150.5	130.49	45.18	3.3497e-06	55.454	0.720	-43.601	-25.749	-107.718	-15.523	23.973	-108.024	-103.249	12.292	50.800	-103.947	-99.346	-98.951	-94.157	24.128	-95.079	-8191	255	
1899.235	1	1	0	0	0.40895	0.074108	0.095049	0.050358	0.083933	0.072692	0.29681	0.36468	0.2388	0.086043	0.3283	0.23988	0.13724	0.22763	0.27863	0.20233	-0.12708	-0.69375	0.12083	-1.0562	-0.43958	-0.016667	-1.0438	-0.19583	-0.58542	-0.59583	0.0875	-0.81042	-0.39167	-0.11667	-0.81875	-0.24583	132.105	-34.629	-118.456	34.650	-95.375	-33.503	206.636	145.064	103.560	92.725	179.374	226.205	-39.570	-47.653	224.724	90.659	0.00071416	0.00080445	0.0001359	1423.7	4.2796e-06	1.7935e-06	1420.6	382.52	9.4287e-06	4.3454e-06	431.87	148.61	129.16	44.574	3.5002e-06	54.603	0.00034969	0.0003201	8.2255e-05	1435.2	3.8493e-06	3.2755e-06	1432.7	386.92	3.6684e-06	3.4939e-06	434.43	150.4	130.41	45.145	3.506e-06	55.388	-1.811	-69.792	-43.045	-107.673	26.189	-44.406	-107.934	-103.163	16.427	5.428	-103.748	-99.364	-98.943	-94.235	53.659	-94.924	-8191	255	
1899.331	1	1	0	0	0.17197	0.36343	0.093684	0.31403	0.091929	0.3225	0.28011	0.0972	0.20353	0.13088	0.28797	0.077952	0.1414	0.11536	0.12933	0.26851	0.029167	-0.79792	0.0083333	-0.9875	-0.46458	0.035417	-1.1292	-0.43333	-0.25625	-0.60208	-0.13542	-0.76458	-0.50625	-0.075	-0.77083	-0.28333	130.965	38.925	27.230	208.588	-10.366	-110.454	167.336	187.077	178.239	-77.918	61.493	237.507	194.727	89.809	-45.490	131.662	0.00076696	0.00091804	0.0001127	1427	2.4187e-06	3.5329e-06	1420.7	383.04	9.9296e-06	5.7797e-06	432.76	148.48	129.29	44.665	2.0936e-06	54.668	0.00034029	0.00031689	8.6692e-05	1436.5	3.645e-06	3.2629e-06	1432.4	386.9	3.5059e-06	3.4105e-06	435.24	150.3	130.29	45.146	3.6575e-06	55.384	-0.352	-36.817	-21.776	-107.650	21.971	56.918	-107.737	-103.210	-10.496	32.387	-103.657	-99.327	-99.078	-94.434	8.422	-95.067	-8191	255	
1899.427	1	1	0	0	0.17509	0.202	0.12515	0.17495	0.20638	0.059573	0.15212	0.25614	0.17736	0.18564	0.13445	0.12045	0.099297	0.10998	0.093203	0.047523	0.37708	-0.81042	0.10417	-0.74167	-0.41042	0.17917	-0.97292	-0.38125	-0.00625	-0.63333	-0.12292	-0.5875	-0.87083	0.14792	-0.74583	-0.32292	-63.844	141.665	-3.251	-106.575	82.776	-38.888	201.275	134.505	185.143	231.104	178.423	-115.241	182.619	-62.010	121.120	183.224	0.00074759	0.00079845	0.0001011	1424.8	8.0105e-06	3.136e-06	1423	381.84	7.5935e-06	4.0799e-06	431.51	148.89	129.06	44.657	5.0229e-06	54.691	0.00033198	0.00031105	9.3926e-05	1434.8	3.5975e-06	3.1921e-06	1433.1	386.74	3.4225e-06	3.3638e-06	435.77	150.49	130.31	45.142	3.843e-06	55.345	5.021	-53.252	-2.078	-107.499	29.732	31.073	-107.904	-103.295	16.660	19.547	-103.633	-99.290	-98.939	-94.158	40.911	-95.118	-8191	255	
1899.523	1	1	0	0	0.1064	0.04187	0.16194	0.12107	0.32114	0.083748	0.10178	0.23392	0.13153	0.1588	0.37273	0.10446	0.081701	0.1325	0.14687	0.13076	0.2	-0.77292	0.26875	-0.66042	-0.58958	0.095833	-0.99167	-0.47083	0.22083	-0.66042	-0.13542	-0.39167	-0.7625	0	-0.43333	-0.56875	-11.583	94.321	187.767	-36.077	35.406	-105.227	191.543	147.995	-30.193	-80.310	159.638	-80.178	-19.914	145.982	-62.838	77.851	0.00079905	0.00071084	0.00016613	1423	3.0159e-06	5.8615e-06	1423.6	383.34	8.1614e-06	2.8915e-06	431.52	149.2	129.07	44.688	3.5852e-06	54.74	0.00032045	0.000309	9.8457e-05	1435.1	3.5015e-06	3.348e-06	1434.7	386.79	3.3659e-06	3.4765e-06	435.89	150.48	130.49	45.192	3.8844e-06	55.419	4.686	-48.154	-26.508	-107.517	15.361	23.646	-107.875	-103.327	3.624	1.001	-103.658	-99.554	-98.963	-94.308	59.790	-95.300	-8191	255	
1899.644	1	1	0	0	0.33864	0.17877	0.13916	0.36491	0.056217	0.25876	0.2412	0.12484	0.11814	0.12173	0.16469	0.2271	0.21229	0.25629	0.19025	0.21748	0.39792	-0.675	-0.085417	-0.44583	-0.79792	-0.035417	-0.98958	-0.59583	0.083333	-0.66875	-0.28333	-0.070833	-0.78958	-0.12292	-0.56875	-0.60208	25.306	127.062	101.907	-111.184	129.797	-102.803	170.374	158.262	73.153	75.966	-40.069	105.632	-118.674	135.275	-52.418	149.706	0.00080533	0.00071674	0.00017647	1422.5	4.4239e-06	1.7737e-06	1424.5	383.91	9.8831e-06	2.5782e-06	434.02	149.57	129.15	44.546	2.6018e-06	54.638	0.0003156	0.00032186	0.00010061	1435.1	3.4477e-06	3.5748e-06	1435.6	387.07	3.2994e-06	3.7278e-06	436.5	150.48	130.46	45.217	3.8106e-06	55.34	-6.587	-61.554	-56.081	-107.629	-48.658	13.613	-107.905	-103.320	20.572	152.946	-103.619	-99.321	-98.993	-94.281	25.362	-95.108	-8191	255	
1899.738	1	1	0	0	0.097639	0.22982	0.07623	0.1622	0.17322	0.040123	0.083016	0.27635	0.07881	0.26683	0.2189	0.063644	0.03379	0.34841	0.27126	0.14903	0.62292	-0.98125	0.0020833	-0.325	-0.75833	0.077083	-0.63333	-0.85625	0.12083	-0.83542	-0.35625	-0.014583	-0.97708	-0.0125	-0.17917	-0.57708	111.491	137.064	45.151	225.265	-95.476	-39.677	185.961	153.989	168.640	198.634	172.982	199.131	-32.645	-35.468	-60.154	-94.684	0.00077347	0.00030809	0.00016699	1425.2	3.6923e-06	5.7718e-06	1423.2	382.8	6.6412e-06	6.0235e-06	432.56	148.92	128.94	44.769	4.6516e-06	54.562	0.00031534	0.000344	9.8116e-05	1435.5	3.4267e-06	3.8221e-06	1435.7	386.8	3.3017e-06	3.7646e-06	435.91	150.22	130.38	45.33	3.6143e-06	55.351	-3.160	-74.665	-64.513	-107.653	-26.336	16.905	-107.745	-103.397	14.774	14.621	-103.605	-99.239	-98.675	-94.314	18.923	-95.136	-8191	255	
1899.834	1	1	0	0	0.14124	0.21757	0.099611	0.36382	0.27722	0.26592	0.1769	0.20877	0.038512	0.13212	0.10886	0.24584	0.03916	0.27406	0.20466	0.081365	0.50208	-0.73125	-0.26667	-0.23125	-0.575	0.039583	-0.46042	-0.94583	0.01875	-0.90625	-0.37292	-0.095833	-0.97292	-0.28125	-0.32917	-0.9	146.190	-41.791	90.240	162.995	79.154	98.943	174.696	90.891	-78.184	-65.841	157.978	213.551	96.296	-108.282	-73.156	146.109	0.00084808	0.00050722	0.00019328	1421.3	2.5166e-06	5.4437e-06	1419.7	383.92	2.7985e-06	2.7288e-06	432.02	148.9	128.92	44.514	2.3716e-06	54.732	0.00031893	0.00035172	9.2931e-05	1433	3.4609e-06	3.9041e-06	1434.2	386.97	3.4499e-06	3.8471e-06	435.34	150.09	130.49	45.3	3.4418e-06	55.399	2.932	-92.154	-77.663	-107.842	80.035	-41.599	-107.853	-103.265	-66.029	38.031	-103.915	-99.381	-99.074	-94.317	30.037	-95.140	-8191	255	
1899.930	1	1	0	0	0.3193	0.1567	0.17214	0.23873	0.22619	0.15269	0.30132	0.37582	0.15795	0.16069	0.22287	0.15702	0.16817	0.12448	0.092247	0.10566	0.31458	-0.75833	-0.36042	-0.18333	-0.77292	-0.12083	-0.41042	-0.90833	0.1625	-0.61042	-0.57708	0.11875	-0.91667	-0.32292	-0.025	-0.91875	30.600	21.251	-85.669	170.435	-70.516	-33.947	182.097	157.651	-90.041	190.210	163.223	-111.728	-9.575	-62.327	11.912	-32.556	0.00081519	0.00032142	0.0001761	1425.2	1.702e-06	3.2752e-06	1424.5	385.56	5.2542e-06	6.4094e-06	432.12	149.21	129.62	44.729	8.0909e-06	54.832	0.00033476	0.00035073	9.1311e-05	1433.9	3.7048e-06	3.9461e-06	1434.9	386.88	3.749e-06	3.8028e-06	435.4	150.15	130.94	45.308	3.3831e-06	55.322	-4.167	-66.879	-46.844	-107.656	11.427	92.621	-107.962	-102.983	25.763	-15.460	-103.694	-99.312	-98.881	-94.462	37.009	-95.157	-8191	255	
1900.051	1	1	0	0	0.19311	0.1232	0.3136	0.15914	0.090758	0.065265	0.43514	0.11491	0.068852	0.1059	0.12249	0.1061	0.16731	0.10028	0.073876	0.21159	0.43125	-0.54375	-0.64167	-0.36042	-0.78333	-0.18542	-0.38542	-0.9625	-0.10417	-0.52917	-0.81042	0.2375	-0.91667	-0.45833	0.05625	-0.71458	85.501	217.257	210.902	205.674	170.718	-51.135	171.889	135.799	55.620	20.512	-21.047	-95.795	118.524	-1.783	-112.179	226.051	0.00087239	0.00076641	0.00013925	1426.1	5.2756e-07	4.1518e-06	1423.3	384.08	3.9732e-06	4.4821e-06	432.13	149.2	129.37	44.668	3.6792e-06	54.952	0.00036152	0.00033909	8.9258e-05	1435.1	3.8242e-06	3.7534e-06	1435.8	387.27	3.8617e-06	3.5638e-06	435.05	150.27	130.87	45.275	3.2996e-06	55.434	-2.699	-31.709	-23.687	-107.587	-8.140	-2.234	-107.963	-103.016	11.447	22.286	-103.775	-99.343	-98.804	-94.419	26.444	-95.326	-8191	255	
1900.123	1	1	0	0	0.060745	0.10211	0.15233	0.24864	0.044721	0.15077	0.19367	0.15275	0.1702	0.17398	0.20288	0.22037	0.02872	0.2786	0.2953	0.19343	0.31667	-0.39167	-0.70625	-0.1375	-0.65833	-0.42083	-0.29375	-0.93333	-0.077083	-0.16875	-0.68542	-0.066667	-0.79583	-0.44375	-0.05	-0.86875	29.140	-64.784	-60.014	221.242	177.518	163.678	142.193	-76.914	223.509	160.536	222.564	161.612	190.738	110.855	-3.956	-82.750	0.0007845	0.00046002	0.00018364	1424.6	5.3998e-06	8.141e-06	1424.9	383.41	2.0686e-06	7.6283e-06	431.43	149.01	129.02	44.808	2.7001e-06	54.505	0.00037048	0.0003227	8.8023e-05	1435.4	3.9519e-06	3.6443e-06	1434.9	387.23	3.9482e-06	3.4474e-06	434.62	150.19	130.61	45.265	3.263e-06	55.383	2.804	-16.411	-38.824	-107.597	35.408	17.453	-108.032	-103.378	-71.948	34.931	-103.599	-99.503	-98.751	-94.304	3.092	-95.001	-8191	255	
1900.219	1	1	0	0	0.2232	0.23701	0.12215	0.35408	0.26923	0.23768	0.33536	0.39397	0.14962	0.063713	0.15704	0.12167	0.11438	0.19811	0.10033	0.070931	0.31667	-0.0041667	-0.675	-0.12917	-0.47292	-0.49792	-0.014583	-0.71667	-0.033333	-0.26042	-0.97917	-0.18333	-0.54375	-0.78542	0.054167	-0.90208	-91.985	-40.229	-118.500	142.202	-25.923	-15.339	118.788	161.218	190.830	-88.776	198.559	198.609	-90.956	234.509	-114.642	163.253	0.00072985	0.00051059	0.000133	1423.7	3.9708e-06	2.9895e-06	1426.3	382.74	7.8088e-06	6.6656e-06	433.04	148.51	129	44.668	4.2022e-06	54.94	0.00037285	0.00031825	8.5928e-05	1437.3	3.8756e-06	3.5462e-06	1434.9	386.82	3.8893e-06	3.3483e-06	434.57	150.17	130.58	45.145	3.2685e-06	55.422	7.164	-50.426	-42.818	-107.547	-1.718	33.260	-107.956	-102.936	21.191	25.599	-103.689	-99.284	-98.907	-94.478	-30.438	-95.260	-8191	255	
1900.315	1	1	0	0	0.014733	0.077697	0.21688	0.12774	0.061972	0.11698	0.17677	0.35751	0.10135	0.12663	0.32533	0.13395	0.067182	0.10677	0.0023146	0.21908	0.15625	-0.20208	-0.8375	-0.089583	-0.3625	-0.7625	-0.25417	-0.8375	-0.40417	0.0125	-0.83542	0.052083	-0.6	-0.85	0.04375	-0.8125	34.659	-58.000	106.039	73.775	70.904	69.243	111.331	231.695	139.169	111.256	171.567	48.736	230.980	-52.753	-71.994	197.176	0.00082028	0.00065255	0.0001965	1420.2	6.3466e-06	6.3799e-06	1423.1	383.34	3.006e-06	2.7111e-06	432.29	148.77	128.72	44.593	3.3932e-06	54.562	0.00036182	0.0003063	8.6715e-05	1435.6	3.7037e-06	3.4368e-06	1432	387.44	3.7675e-06	3.2995e-06	435.18	150.26	130.15	45.117	3.3981e-06	55.392	-1.735	-70.094	-49.835	-107.778	32.022	27.079	-107.804	-102.926	31.840	6.440	-103.640	-99.594	-98.888	-94.466	45.477	-95.268	-8191	255	
1900.436	1	1	0	0	0.098878	0.28537	0.19703	0.21688	0.12047	0.30364	0.34675	0.11438	0.10448	0.086462	0.1463	0.30813	0.17267	0.23064	0.25676	0.062273	-0.22292	-0.066667	-0.80208	-0.21667	-0.28542	-0.63125	-0.12708	-0.79167	-0.5125	0.22083	-1.0083	-0.15	-0.32708	-0.775	-0.05625	-0.63542	90.564	-39.646	173.317	150.505	149.826	63.954	201.413	209.535	63.265	-13.075	-111.014	192.784	-119.607	212.549	47.907	75.811	0.00061372	0.00043254	0.00010023	1423.5	4.3249e-06	4.0096e-06	1422.5	382.95	6.0697e-06	3.5789e-06	432.01	148.98	128.47	44.527	2.9232e-06	54.76	0.0003553	0.00029911	9.0345e-05	1436.4	3.4726e-06	3.4113e-06	1434.2	386.82	3.6135e-06	3.228e-06	434.78	150.25	130.13	45.155	3.6393e-06	55.436	-10.189	-50.862	-87.679	-107.831	-41.241	50.221	-107.837	-103.028	-8.397	-42.996	-103.536	-99.496	-98.899	-94.206	-0.881	-95.173	-8191	255	
1900.532	1	1	0	0	0.3102	0.1303	0.24561	0.43832	0.20219	0.10456	0.33237	0.15645	0.26007	0.11924	0.25658	0.15168	0.27528	0.099574	0.15089	0.24297	-0.05625	-0.066667	-0.7125	-0.25833	-0.28958	-0.78542	-0.10833	-0.76458	-0.5	0.04375	-0.95833	-0.54792	0.033333	-0.94167	0.09375	-0.56667	130.504	-94.938	-113.715	226.573	208.522	199.972	200.442	176.428	150.499	191.488	189.316	213.173	65.637	134.996	-37.192	194.758	0.00089	0.00052018	0.00024243	1429.5	6.8183e-06	3.2424e-06	1422.9	383.85	6.9155e-06	8.3447e-06	432.77	148.58	128.8	44.555	2.0508e-06	54.6	0.00033959	0.0002977	9.5705e-05	1437.4	3.4522e-06	3.371e-06	1436.1	387.47	3.5726e-06	3.2817e-06	436.41	150.14	130.19	45.17	3.9987e-06	55.304	4.081	-59.168	-38.691	-107.785	-14.757	-53.905	-108.000	-103.014	34.903	7.861	-103.773	-99.616	-98.851	-94.272	-37.831	-94.968	-8191	255	
1900.626	1	1	0	0	0.23506	0.10691	0.1427	0.34094	0.11572	0.24941	0.10358	0.088037	0.12735	0.084935	0.13973	0.053795	0.17268	0.32932	0.22772	0.060873	-0.35417	0.03125	-0.79375	-0.54792	0.083333	-1.0187	-0.25417	-0.55	-0.7	-0.014583	-0.98958	-0.44583	-0.12708	-0.925	-0.19375	-0.23125	202.569	-71.453	-52.119	-117.510	-107.585	132.910	-0.846	221.032	-9.920	86.351	225.684	15.286	117.412	192.119	202.921	-111.130	0.00065603	0.00052373	0.0002	1422.6	4.6411e-06	2.7234e-06	1428.6	381.77	1.1218e-05	2.6453e-06	433.53	148.8	129.06	44.251	3.4856e-06	54.586	0.00034202	0.00030855	0.00010096	1437.4	3.4367e-06	3.5039e-06	1437.9	386.54	3.5819e-06	3.4516e-06	436.56	149.92	130.07	45.077	4.0182e-06	55.273	0.896	-46.032	-51.271	-107.765	-42.521	44.608	-108.136	-103.214	20.928	63.031	-103.625	-99.296	-98.885	-94.194	-8.505	-95.114	-8191	255	
1900.724	1	1	0	0	0.23703	0.24617	0.14285	0.19323	0.13535	0.043521	0.18973	0.28123	0.20845	0.38169	0.23086	0.18868	0.047434	0.13916	0.33174	0.10701	-0.42083	0.085417	-0.46458	-0.66458	0.029167	-0.76458	-0.54375	-0.42708	-0.68333	-0.035417	-0.67708	-0.63125	-0.0375	-0.86667	-0.091667	-0.27083	-47.932	186.048	65.020	164.707	23.510	234.051	108.881	225.126	-0.205	-113.800	164.917	198.773	26.491	-26.657	123.821	225.524	0.00065131	0.00020023	8.2866e-05	1429.6	1.4678e-06	3.7146e-06	1422.8	383.92	1.2746e-06	5.6893e-06	431.67	148.23	128.63	44.282	5.0808e-06	54.308	0.00033673	0.00033004	0.00010013	1437.5	3.3588e-06	3.7171e-06	1435.9	386.37	3.4678e-06	3.7141e-06	435.61	149.78	129.75	45.098	3.9844e-06	54.985	-9.870	-18.516	-11.509	-107.849	13.399	9.773	-107.897	-103.099	34.684	23.765	-103.597	-99.437	-99.105	-94.221	68.687	-94.984	-8191	255	
1900.818	1	1	0	0	0.23563	0.068796	0.1623	0.2589	0.12321	0.28767	0.16869	0.25692	0.33398	0.18666	0.18961	0.20209	0.21163	0.22803	0.10145	0.2961	-0.52292	0.12083	-0.46042	-0.86042	0.18958	-0.65417	-0.50417	-0.35417	-0.85208	-0.027083	-0.56667	-0.64583	0.1	-1.0187	-0.28333	-0.089583	-66.962	172.637	-71.977	176.523	69.449	88.373	130.214	197.815	142.382	136.981	1.959	142.470	133.541	182.781	-103.166	176.923	0.00076159	0.0004745	8.6059e-05	1421.9	2.3916e-06	1.868e-06	1421.2	383.14	1.0321e-05	2.7164e-06	431.92	147.51	128.52	44.366	6.8552e-06	54.148	0.00033338	0.00035172	9.6152e-05	1434.1	3.3619e-06	3.9317e-06	1432.8	385.99	3.5246e-06	3.9212e-06	434.78	149.2	129.51	45.037	3.8694e-06	54.955	5.083	210.962	-33.559	-107.521	-18.423	233.644	-107.938	-103.075	28.466	97.711	-103.596	-99.445	-99.060	-94.312	49.450	-94.985	-8191	255	
1900.915	1	1	0	0	0.10763	0.26744	0.1603	0.21944	0.15195	0.38762	0.27291	0.11116	0.1771	0.072094	0.35839	0.18386	0.19065	0.23009	0.20827	0.11246	-0.35	0.010417	-0.19167	-0.95625	0.11042	-0.71458	-0.59375	-0.039583	-0.80208	0.14583	-0.46458	-0.91042	0.054167	-0.72083	-0.48958	-0.17292	131.257	88.823	202.911	-95.003	-80.236	28.691	171.471	-94.474	48.975	103.740	-120.171	174.875	24.749	-78.008	170.563	213.453	0.00075169	0.00040359	0.00016235	1422.3	3.7385e-06	5.052e-06	1415.9	381.53	2.0486e-06	3.2071e-06	430.36	147.33	128.27	44.231	6.0694e-06	53.814	0.00034282	0.00037383	9.5862e-05	1433.3	3.5903e-06	4.1124e-06	1430.5	384.66	3.7298e-06	4.1472e-06	433.83	148.9	129.59	44.984	3.7683e-06	54.752	-6.217	-56.313	-68.641	-107.788	-61.360	27.058	-107.945	-103.112	31.808	1.810	-103.685	-99.232	-98.833	-94.064	11.035	-95.069	-8191	255	
1901.011	1	1	0	0	0.15064	0.045581	0.10081	0.41948	0.018528	0.20351	0.37014	0.040958	0.059503	0.28491	0.10714	0.17098	0.11284	0.050879	0.12578	0.083462	-0.50208	-0.14792	-0.3125	-0.96042	0.020833	-0.5625	-0.69583	-0.28125	-0.69375	-0.2	-0.4	-0.90208	-0.10417	-0.75833	-0.59792	-0.16667	145.744	147.977	89.612	225.423	188.681	89.685	150.768	-52.160	-37.871	215.518	127.193	52.353	-62.584	80.868	158.842	-76.898	0.00073978	0.00079369	0.00015679	1420.1	6.4824e-06	5.4314e-06	1420.7	381.92	5.7401e-06	3.9271e-06	433.02	148.19	128.03	44.329	7.5802e-06	54.154	0.00036544	0.00037883	9.1739e-05	1433.8	3.8212e-06	4.0082e-06	1431.8	384.9	3.9024e-06	4.0712e-06	434.67	149.24	129.51	45.029	3.6573e-06	54.878	-2.909	-54.414	-71.495	-107.732	-49.210	-17.470	-108.092	-103.233	19.633	-14.227	-103.662	-99.540	-98.958	-94.183	16.905	-95.087	-8191	255	
1901.131	1	1	0	0	0.060998	0.18171	0.020561	0.36205	0.13478	0.078727	0.26686	0.23533	0.11793	0.2242	0.19051	0.25416	0.10709	0.24943	0.1229	0.051697	-0.44375	-0.38542	-0.125	-0.94583	0.00625	-0.45208	-1.075	-0.075	-0.85625	-0.35	-0.33125	-1.0646	-0.18333	-0.46667	-0.72083	-0.066667	-115.142	-86.641	2.430	206.426	40.663	-27.042	235.561	127.488	-30.984	211.958	-78.453	163.796	-19.222	94.728	84.945	-104.141	0.00079597	0.00087852	0.00014282	1425.1	7.4341e-06	4.0911e-06	1421.8	379.42	5.0621e-06	9.6526e-06	431.08	147.07	127.67	44.226	5.6787e-06	54.253	0.00037485	0.00036009	8.9134e-05	1435.2	4.0568e-06	3.835e-06	1433.6	384.16	4.0961e-06	3.8898e-06	434	149.04	129.83	44.9	3.616e-06	54.954	-9.314	-48.562	-26.275	-107.681	-41.572	18.876	-107.950	-103.178	3.865	-1.031	-103.861	-99.375	-98.854	-94.177	32.166	-95.109	-8191	255	
1901.228	1	1	0	0	0.13265	0.25653	0.096685	0.19687	0.16585	0.16159	0.49424	0.18062	0.060098	0.1471	0.069989	0.2569	0.17861	0.18643	0.076282	0.025911	-0.36875	-0.4125	-0.17708	-1.0187	-0.097917	-0.42917	-0.85417	-0.16042	-0.625	-0.54792	-0.041667	-0.79375	-0.15625	-0.35	-0.61875	0.11667	171.528	-96.643	-79.691	-35.054	83.012	1.360	182.229	194.281	106.644	100.568	139.626	-106.638	165.681	80.852	220.671	-25.323	0.00092698	0.00078016	0.00014019	1424.1	1.6281e-06	6.7551e-06	1422.8	382.01	9.651e-06	7.2961e-06	431.83	147.82	128.19	44.221	5.4365e-06	54.101	0.00038782	0.00035262	8.7067e-05	1435.5	4.1661e-06	3.6542e-06	1433	385.05	4.0751e-06	3.7552e-06	433.69	149.16	129.9	44.913	3.5435e-06	54.908	-1.715	-57.744	-32.539	-107.776	50.417	3.047	-107.938	-102.986	25.589	16.141	-103.697	-99.416	-98.925	-94.044	10.778	-94.920	-8191	255	
1901.324	1	1	0	0	0.084589	0.35984	0.11195	0.3353	0.26974	0.2268	0.1252	0.33102	0.136	0.23281	0.086666	0.21764	0.19442	0.043124	0.15103	0.22248	-0.14375	-0.46042	0.1375	-1.0667	-0.31042	-0.23125	-1.1458	-0.13542	-0.5625	-0.64583	-0.095833	-0.8375	-0.45	-0.14792	-0.84375	-0.20625	166.422	105.559	134.158	145.053	201.414	-120.782	155.716	162.285	236.827	200.097	40.023	-59.409	169.873	87.789	-11.564	-3.306	0.00059846	0.00056525	0.00010354	1419.6	3.3059e-06	4.6177e-06	1421	382.13	8.3351e-06	5.9189e-06	429.95	148.73	128.26	44.13	5.2734e-06	54.139	0.00038151	0.00034403	8.4859e-05	1433.4	4.1444e-06	3.6175e-06	1432.2	385.76	3.9529e-06	3.7174e-06	433.52	149.54	129.5	44.837	3.5842e-06	55.066	1.406	-59.852	25.223	-107.674	-5.849	20.134	-107.852	-103.162	51.996	-8.322	-103.842	-99.372	-99.139	-94.309	18.721	-95.033	-8191	255	
1901.420	1	1	0	0	0.043512	0.060043	0.39393	0.22854	0.14298	0.091447	0.1764	0.24827	0.2666	0.13504	0.205	0.056726	0.23897	0.23775	0.10383	0.11323	-0.13125	-0.72083	0.2125	-1.0125	-0.022917	-0.027083	-1.2104	-0.26458	-0.40833	-0.86875	-0.18958	-0.73958	-0.41042	0.016667	-0.87708	-0.072917	135.937	227.109	201.362	233.335	162.449	96.428	139.558	141.099	44.562	97.884	176.392	100.311	56.968	238.561	121.363	50.085	0.00075297	0.00072122	0.00015416	1422.1	4.8953e-06	3.2701e-06	1417.1	380.84	1.3752e-06	4.9019e-06	430.75	147.83	128.06	44.132	3.1932e-06	54.24	0.00037157	0.0003366	8.7808e-05	1433.9	3.9723e-06	3.5058e-06	1430.5	385.18	3.8182e-06	3.6333e-06	433.37	149.59	129.52	44.845	3.6967e-06	55.069	2.034	-52.600	-35.623	-107.669	-19.138	17.464	-107.743	-103.295	28.606	20.166	-103.483	-99.314	-99.167	-94.102	-48.731	-95.156	-8191	255	
1901.516	1	1	0	0	0.26651	0.17064	0.077653	0.3762	0.1389	0.17598	0.39965	0.24363	0.10277	0.15035	0.12369	0.41533	0.16034	0.082349	0.36236	0.23813	0.05625	-0.74583	0	-0.85417	-0.34583	-0.029167	-1.0833	-0.2	-0.12083	-0.56875	-0.095833	-0.64792	-0.71042	0.020833	-0.99792	-0.22708	48.108	26.379	188.173	230.833	-32.927	-22.802	148.614	129.819	-59.251	-49.454	229.286	233.182	190.053	107.284	161.350	-22.197	0.00066187	0.00058794	0.00010174	1421.2	4.1081e-06	6.1463e-06	1420.6	381.86	2.9425e-06	3.6435e-06	430.32	146.93	128.54	44.248	2.3326e-06	54.263	0.00035695	0.00032979	9.3508e-05	1434.6	3.8573e-06	3.4293e-06	1431.3	385.53	3.666e-06	3.5453e-06	433.81	149.19	129.47	44.795	3.9345e-06	55.099	-0.833	-9.231	-26.750	-107.623	-34.086	61.514	-107.834	-102.979	4.655	10.343	-103.637	-99.286	-98.869	-94.283	31.143	-95.236	-8191	255	
1901.610	1	1	0	0	0.24757	0.11989	0.17511	0.13053	0.081362	0.10513	0.40996	0.063641	0.053399	0.29944	0.075668	0.26611	0.096632	0.22592	0.19254	0.37935	0.14167	-0.82083	0.11458	-0.94792	-0.61875	-0.1375	-0.99375	-0.5	-0.19792	-0.91458	-0.30625	-0.71875	-0.6625	-0.06875	-0.93125	-0.40833	-47.558	159.800	-58.204	213.825	113.920	39.447	192.502	235.255	-37.345	180.089	224.065	220.072	208.020	-39.366	180.093	44.811	0.00067166	0.00032871	0.00018437	1429.2	3.8388e-06	3.5476e-06	1422.5	383.39	6.4787e-06	6.367e-06	430.84	148.27	128.24	44.181	5.5998e-06	54.205	0.0003469	0.0003364	0.00010066	1437.6	3.8314e-06	3.473e-06	1434.8	385.44	3.6574e-06	3.5971e-06	434.76	149.44	129.58	44.787	4.2125e-06	55.076	-1.331	-46.697	-61.346	-107.590	-12.524	-9.275	-107.736	-103.138	13.414	28.469	-103.666	-99.313	-98.810	-94.346	9.917	-95.217	-8191	255	
1901.731	1	1	0	0	0.21328	0.084761	0.091548	0.23474	0.068475	0.29477	0.21945	0.082802	0.21474	0.071551	0.17663	0.059821	0.21585	0.21926	0.082084	0.18287	0.29375	-0.80833	-0.10833	-0.81667	-0.65	0.022917	-0.8625	-0.6375	0.089583	-0.70625	-0.29792	-0.61667	-0.88125	0.058333	-0.82708	-0.73958	-13.345	-25.026	105.890	152.692	155.709	173.635	166.014	-120.808	5.980	96.229	204.000	136.461	122.885	229.952	-60.083	174.284	0.00068257	0.00051492	0.00020849	1424.1	4.158e-06	6.0979e-06	1423.4	379.85	2.1387e-06	2.5749e-06	430.46	148.11	128.48	44.12	5.7578e-06	53.931	0.00034563	0.00034316	0.00010785	1437.2	3.8412e-06	3.6238e-06	1435.3	384.7	3.5837e-06	3.8058e-06	434.81	149.24	129.57	44.802	4.2176e-06	54.937	-4.420	-65.366	-41.039	-107.793	-49.361	-14.670	-107.716	-103.146	74.563	10.209	-103.801	-99.311	-98.708	-94.127	0.181	-95.250	-8191	255	
1901.827	1	1	0	0	0.15931	0.13957	0.055311	0.24889	0.26244	0.075452	0.24825	0.1304	0.25206	0.080538	0.12282	0.17636	0.19465	0.22421	0.13694	0.37838	0.25833	-0.64583	-0.14583	-0.54375	-0.71042	0.097917	-0.88125	-0.71042	-0.12708	-0.84375	-0.40417	-0.22708	-0.90208	0.041667	-0.39167	-0.75417	-32.335	64.971	-6.058	226.122	-26.339	213.070	226.763	-27.835	-11.532	50.543	141.760	119.589	-104.013	75.864	209.768	202.908	0.00078634	0.00052475	0.00021903	1422.4	7.4508e-06	3.488e-06	1423.1	379.66	3.7184e-06	4.3522e-06	430.42	147.4	127.86	44.272	6.6249e-06	53.887	0.00033689	0.00035618	0.00010901	1434	3.7111e-06	3.9084e-06	1435.8	384.53	3.5449e-06	4.0484e-06	434.89	149.04	129.45	44.886	4.0932e-06	54.865	-1.163	-42.897	-49.985	-107.398	20.244	-11.390	-107.811	-103.106	-6.313	-13.433	-103.568	-99.247	-98.715	-94.372	12.721	-95.102	-8191	255	
1901.923	1	1	0	0	0.10461	0.13194	0.23385	0.34527	0.098031	0.24327	0.11224	0.14105	0.19005	0.19876	0.20203	0.26407	0.3144	0.28948	0.03572	0.21258	0.30208	-0.72708	-0.275	-0.10417	-0.86667	-0.11667	-0.43125	-0.71875	0.15625	-0.73542	-0.42083	-0.23958	-0.9875	-0.025	-0.48333	-0.83958	-60.560	-45.881	-33.312	232.760	155.448	-82.703	154.460	164.792	50.310	162.313	179.846	-10.762	113.142	181.290	156.869	-100.126	0.00075304	0.00034013	0.00020348	1424	4.3554e-06	2.1303e-06	1416.2	380.65	7.8896e-06	2.9948e-06	429.35	147.37	127.9	44.109	4.0046e-06	54.067	0.00033496	0.00037758	0.00010595	1434.1	3.6904e-06	4.1619e-06	1431.5	384.09	3.6015e-06	4.1953e-06	433.95	148.9	129.33	44.93	3.9093e-06	54.866	-5.143	-37.124	-24.150	-107.495	-49.742	13.562	-107.594	-103.077	1.164	-22.005	-103.655	-99.232	-98.800	-94.256	56.331	-94.948	-8191	255	
1901.995	1	1	0	0	0.22145	0.05915	0.34587	0.31784	0.082813	0.22935	0.26309	0.45356	0.07118	0.19695	0.51548	0.19268	0.31028	0.20233	0.18516	0.23537	0.41875	-0.65625	-0.41875	-0.22917	-0.90208	-0.19375	-0.66667	-0.91458	0.039583	-0.75625	-0.62292	-0.2	-0.92917	-0.25208	-0.52708	-0.90833	194.388	-5.607	-103.631	216.928	-61.464	11.857	160.255	213.067	166.120	227.696	-102.145	216.769	140.675	154.669	152.573	123.245	0.00080823	0.00067714	0.00020423	1422.3	1.8124e-06	5.0086e-06	1421.5	379.36	5.8756e-06	3.7192e-06	431.82	147.78	128.17	44.323	6.7802e-06	54.189	0.00034844	0.00038499	0.00010087	1432.1	3.8158e-06	4.2322e-06	1431.6	384.6	3.7904e-06	4.2113e-06	433.72	148.86	129.68	44.97	3.7687e-06	54.844	-1.666	-40.071	-70.943	-107.572	95.267	27.125	-107.666	-102.977	-21.389	16.297	-103.688	-99.020	-98.839	-94.119	32.774	-95.191	-8191	255	
1902.116	1	1	0	0	0.12487	0.20441	0.08414	0.20844	0.1805	0.24629	0.15207	0.30102	0.28171	0.18551	0.20669	0.086579	0.034743	0.16487	0.086666	0.32738	0.45833	-0.725	-0.53958	-0.1625	-0.7625	-0.325	-0.5375	-0.87292	-0.0041667	-0.61042	-0.875	-0.17292	-0.9	-0.25417	-0.32292	-0.85625	161.078	137.292	133.014	214.991	-26.183	170.193	165.356	166.092	171.275	-17.788	191.643	68.864	194.487	163.133	62.461	201.415	0.00086091	0.00081032	0.00016889	1421.5	6.6168e-07	5.6978e-06	1415.1	381.34	9.0153e-06	8.5418e-06	430.31	147.74	128.39	44.148	5.8714e-06	54.27	0.00037072	0.00038032	9.8059e-05	1432.8	4.0424e-06	4.1936e-06	1430.2	384.52	4.1064e-06	4.1271e-06	433.58	148.84	129.79	44.896	3.7018e-06	54.937	-7.920	-55.360	-42.130	-107.612	-11.333	43.308	-107.772	-103.157	0.782	13.395	-103.650	-99.207	-98.934	-94.572	57.152	-95.084	-8191	255	
1902.212	1	1	0	0	0.20537	0.073383	0.075196	0.068709	0.090162	0.19697	0.38947	0.027995	0.096775	0.18935	0.1854	0.26542	0.20554	0.075941	0.23139	0.19488	0.3	-0.4625	-0.56458	0	-0.55208	-0.24167	-0.3625	-1	0.14792	-0.36458	-0.79167	0.10208	-0.84167	-0.52083	0.025	-0.79792	170.628	-97.135	9.326	57.354	186.959	142.257	154.502	56.716	-21.031	187.060	177.456	-57.790	113.307	-62.827	-51.564	236.399	0.0008192	0.0010508	4.9401e-05	1416.9	3.6232e-06	4.7428e-06	1421.5	381.62	9.1445e-06	5.3612e-06	430.36	147.65	127.89	44.227	1.3006e-06	54.091	0.00039197	0.00037174	9.5933e-05	1433.7	4.2724e-06	4.0709e-06	1432.9	384.84	4.2758e-06	3.9133e-06	433.27	149.02	129.68	44.911	3.6067e-06	54.911	-4.346	-36.762	-39.586	-107.623	1.470	20.004	-107.777	-103.059	-12.510	5.915	-103.765	-99.194	-99.046	-94.437	97.833	-95.060	-8191	255	
1902.308	1	1	0	0	0.47749	0.082283	0.28897	0.17018	0.080104	0.32631	0.23769	0.21927	0.081721	0.55586	0.1877	0.067469	0.34979	0.064716	0.21095	0.25479	0.21667	-0.21667	-0.6375	-0.20417	-0.525	-0.41667	-0.175	-1.0458	-0.045833	-0.24583	-0.89792	-0.020833	-0.92292	-0.55	0.14792	-0.93542	-119.929	-56.480	189.001	189.516	180.365	-92.513	102.399	56.962	99.971	-80.707	-87.656	213.561	191.498	191.952	27.289	-118.865	0.00079501	0.0008417	0.00011288	1420.4	2.1167e-06	2.804e-06	1422.8	382.09	4.5053e-06	7.694e-06	429.44	147.58	128.41	44.108	3.8828e-06	54.146	0.00040367	0.00034968	9.4007e-05	1432.4	4.3103e-06	3.9288e-06	1432.3	385.33	4.351e-06	3.7906e-06	433.2	149.09	129.83	44.833	3.5834e-06	54.98	1.183	-52.785	-94.248	-107.453	-38.253	-33.003	-107.837	-102.902	8.503	-11.162	-103.678	-99.206	-98.762	-94.412	4.009	-95.024	-8191	255	
1902.404	1	1	0	0	0.055315	0.12921	0.045347	0.15939	0.23563	0.15204	0.065363	0.10543	0.22649	0.096959	0.22277	0.13844	0.22507	0.28114	0.27926	0.39111	0.28542	-0.15625	-0.73542	-0.14792	-0.48542	-0.70833	-0.24583	-0.78542	-0.125	-0.010417	-1.0458	-0.10833	-0.7	-0.85417	0.21875	-0.71875	-45.504	228.862	-108.209	4.673	90.503	-70.727	114.632	-110.667	69.170	123.445	229.842	-120.648	187.102	172.849	67.161	172.236	0.00076426	0.00015128	0.00012065	1421.5	4.2787e-06	2.8132e-06	1419.1	380.42	3.3384e-06	1.9033e-06	430.87	147.56	128.43	44.167	3.6974e-06	54.122	0.00040275	0.00034515	9.4963e-05	1435.2	4.1906e-06	3.8851e-06	1430.4	385.78	4.2519e-06	3.6787e-06	433.45	149.3	129.66	44.787	3.6244e-06	54.999	-2.666	-9.214	-61.519	-107.679	-39.764	-60.370	-107.910	-102.970	155.855	90.037	-103.882	-99.456	-98.841	-94.348	59.089	-95.039	-8191	255	
1902.523	1	1	0	0	0.27572	0.1002	0.10426	0.10576	0.042838	0.12696	0.26018	0.22247	0.10019	0.10637	0.22127	0.14971	0.28256	0.30102	0.096573	0.17364	0.095833	0.045833	-0.575	-0.22708	-0.17083	-0.825	0.014583	-0.96667	-0.30208	0.0375	-1	-0.089583	-0.55625	-0.93958	0.077083	-0.77292	-85.262	-71.789	-19.902	186.962	28.827	-40.647	178.371	124.113	-55.828	47.548	-77.864	-106.067	-116.450	238.426	175.778	-100.977	0.00073064	0.00067015	0.00019179	1419.6	5.4894e-06	3.222e-06	1420	380.18	1.387e-05	1.2701e-06	429.74	147.16	128.42	44.094	1.0894e-06	54.31	0.00039413	0.0003389	9.4875e-05	1433	3.9913e-06	3.8199e-06	1431.6	384.82	4.0989e-06	3.6258e-06	433.58	149.44	129.64	44.764	3.7325e-06	55.087	2.368	-57.659	-76.294	-107.601	-24.858	13.985	-107.783	-103.246	62.508	-92.877	-103.641	-99.446	-98.785	-94.258	-42.683	-94.948	-8191	255	
1902.596	1	1	0	0	0.16499	0.24877	0.25653	0.28647	0.31879	0.16765	0.028108	0.27879	0.29038	0.11495	0.21287	0.2359	0.073731	0.20352	0.11105	0.043216	-0.0020833	0.13125	-0.81042	-0.30417	-0.35625	-0.89375	0.022917	-0.64792	-0.33125	0.033333	-0.82292	-0.15	-0.22708	-0.80625	0.025	-0.56667	126.351	-72.281	58.463	192.297	132.305	103.508	110.757	186.196	121.002	-111.793	43.808	191.139	172.984	-75.205	33.402	177.706	0.0008585	0.00044944	9.4435e-05	1426.6	7.2448e-06	4.0661e-06	1418.9	382.36	8.1322e-06	3.1894e-06	432.02	147.45	127.94	44.275	1.4361e-06	54.336	0.00037703	0.00033075	9.8979e-05	1435.7	3.8267e-06	3.6905e-06	1432.9	385.88	3.9112e-06	3.5376e-06	435.26	149.45	129.55	44.841	4.0274e-06	55.082	-4.000	-81.442	34.217	-107.618	-3.958	2.937	-107.790	-103.241	-9.919	-17.309	-103.735	-99.247	-98.667	-94.249	23.934	-95.029	-8191	255	
1902.693	1	1	0	0	0.075762	0.38292	0.30653	0.36025	0.07863	0.07289	0.19924	0.21274	0.27469	0.08019	0.051164	0.29428	0.2219	0.43004	0.13953	0.089309	-0.2375	0.21875	-1.025	-0.19792	-0.085417	-0.88125	-0.23542	-0.775	-0.58333	0.20833	-1.1688	-0.38333	-0.18333	-0.88333	-0.089583	-0.44792	-112.721	111.045	-67.348	191.605	133.132	195.464	104.059	198.949	190.239	59.260	194.577	-41.191	222.030	230.835	71.293	-101.107	0.00077232	0.00016882	7.5176e-05	1424.6	5.8624e-06	4.0311e-06	1424.2	380.68	8.32e-06	6.4958e-06	430.48	147.76	128.24	44.242	3.6131e-06	54.262	0.00035976	0.00032418	0.00010471	1437.5	3.7465e-06	3.6634e-06	1434.3	385.05	3.7928e-06	3.54e-06	435.32	149.54	129.65	44.86	4.2356e-06	55.053	-2.454	-3.666	-34.413	-107.667	-19.629	22.932	-107.794	-103.205	-21.281	7.864	-103.695	-99.558	-99.050	-94.400	-22.327	-94.821	-8191	255	
1902.811	1	1	0	0	0.20266	0.15437	0.21004	0.33388	0.087431	0.22547	0.065332	0.13989	0.21603	0.09937	0.16688	0.21385	0.18185	0.21805	0.3395	0.053729	-0.4375	-0.085417	-0.77083	-0.55833	0.175	-0.81875	-0.19167	-0.53125	-0.61667	0.079167	-0.73542	-0.68542	-0.14792	-0.89583	-0.13333	-0.225	64.946	122.795	92.208	183.869	237.150	237.299	217.195	210.656	-28.426	-93.387	230.084	109.618	-57.576	92.064	216.674	191.572	0.00061805	0.00052206	8.5732e-05	1427.3	6.9821e-06	2.4256e-06	1421.2	382.28	2.1961e-06	1.1295e-06	431.17	147.02	128.27	44.292	4.2194e-06	54.042	0.00036339	0.00033544	0.00010794	1437.9	3.6518e-06	3.7411e-06	1436.9	385.65	3.8491e-06	3.807e-06	435.5	149.27	129.57	44.907	4.3582e-06	54.894	5.803	-60.638	-21.800	-107.640	13.746	32.960	-107.853	-102.845	8.358	-22.409	-103.516	-99.710	-98.855	-94.242	25.984	-94.876	-8191	255	
1902.908	1	1	0	0	0.23234	0.10647	0.18381	0.17031	0.15465	0.30248	0.18085	0.11524	0.073378	0.11869	0.35247	0.14549	0.3367	0.25901	0.091424	0.1372	-0.55417	0.014583	-0.7	-0.6375	-0.12083	-0.83542	-0.37708	-0.17292	-0.94583	0.0125	-0.70625	-0.69167	0.033333	-1.0271	-0.18333	-0.21458	172.291	-4.447	86.041	195.981	153.751	42.937	147.274	158.774	16.430	234.580	-118.915	227.036	231.794	220.685	115.183	99.169	0.00076817	5.4427e-05	0.00020281	1422	4.3048e-06	2.287e-06	1421.5	382.42	4.0523e-06	2.6517e-06	431.21	147.89	128.46	44.318	6.0737e-06	54.332	0.00035689	0.00035806	0.00010679	1434.8	3.5962e-06	3.9527e-06	1435	385.36	3.6511e-06	3.9551e-06	434.85	149.33	129.6	44.974	4.0702e-06	55.002	1.621	42.523	-47.280	-107.587	6.426	179.072	-107.910	-103.036	-33.163	66.756	-103.499	-99.215	-98.818	-94.261	31.642	-95.290	-8191	255	
1903.004	1	1	0	0	0.11048	0.059333	0.15422	0.35384	0.1664	0.10824	0.13881	0.061522	0.20385	0.022765	0.17892	0.02819	0.21633	0.12219	0.14649	0.13338	-0.52083	0.14167	-0.72708	-0.85	0.0041667	-0.77083	-0.4625	-0.23542	-0.61042	0.09375	-0.35833	-0.82083	-0.060417	-0.9	-0.23542	-0.13333	15.989	146.220	-26.929	180.973	-105.289	89.078	171.578	160.739	213.529	15.970	216.551	143.489	192.429	15.692	96.025	-54.693	0.00081578	0.00039002	6.3699e-05	1422.4	2.0915e-06	4.6405e-06	1421.6	382.48	4.3814e-06	4.7449e-06	432.34	147.47	128.09	44.374	4.7535e-06	54.225	0.00033766	0.00036255	9.8973e-05	1434.3	3.4847e-06	4.0252e-06	1434.4	385.23	3.6673e-06	4.077e-06	434.96	149.35	129.68	45	3.9399e-06	54.863	1.108	-98.356	-53.042	-107.592	13.717	11.958	-107.908	-103.101	-25.603	30.689	-103.680	-99.352	-98.808	-94.114	22.303	-95.133	-8191	255	
1903.124	1	1	0	0	0.018412	0.076306	0.054812	0.095998	0.15785	0.084126	0.31563	0.17251	0.30036	0.12297	0.23694	0.075443	0.10955	0.12857	0.24695	0.25871	-0.47708	0.060417	-0.25	-0.75	0.13958	-0.64792	-0.55417	0.091667	-0.83542	-0.17708	-0.49167	-0.81458	0.17917	-0.68542	-0.44167	-0.089583	141.078	179.776	208.660	129.712	198.268	140.118	146.084	184.575	-8.480	11.048	-117.879	88.415	200.022	-96.650	143.750	124.909	0.00079252	0.0004519	0.00014298	1424.2	1.4582e-06	5.0738e-06	1418	381.61	4.9776e-06	4.442e-06	431.19	147.26	127.66	44.298	8.0181e-06	54.037	0.00035495	0.00038444	9.6759e-05	1435.5	3.7355e-06	4.173e-06	1434.3	384.68	3.8771e-06	4.2863e-06	434.25	148.97	129.31	44.964	3.9362e-06	54.725	-3.883	-53.639	-29.369	-107.747	-22.155	5.180	-107.756	-103.184	-58.867	7.382	-103.516	-99.312	-99.064	-94.289	9.978	-94.905	-8191	255	
1903.220	1	1	0	0	0.20732	0.12148	0.12095	0.37892	0.25723	0.097221	0.24787	0.31439	0.098983	0.12241	0.10847	0.23465	0.3482	0.052273	0.144	0.14689	-0.29583	-0.077083	-0.0875	-0.76458	0.089583	-0.38542	-0.68125	-0.035417	-0.8125	-0.29583	-0.25417	-0.90417	-0.20625	-0.5875	-0.60625	-0.064583	185.907	178.751	-69.710	233.289	208.292	-75.349	230.198	224.566	163.639	25.211	94.190	141.680	152.508	46.736	229.667	47.153	0.00072296	0.0015121	9.474e-05	1421	1.5345e-07	7.7469e-06	1418.6	380.25	5.141e-06	3.7812e-06	429.63	147.61	128.35	44.105	3.9978e-06	53.86	0.00038001	0.00038972	9.5272e-05	1432.5	4.0525e-06	4.1696e-06	1432.5	384.6	4.08e-06	4.1581e-06	433.41	148.69	129.62	44.895	3.7732e-06	54.783	-3.996	-39.379	-69.725	-107.600	-11.969	17.618	-107.794	-103.322	-39.448	17.389	-103.532	-99.377	-98.887	-94.044	-4.076	-95.099	-8191	255	
1903.292	1	1	0	0	0.088988	0.21126	0.29178	0.1773	0.17264	0.27341	0.33822	0.12464	0.26594	0.1698	0.19098	0.12733	0.12368	0.26674	0.11141	0.11117	-0.39375	-0.29167	-0.066667	-1.1979	0.10625	-0.42708	-0.85833	-0.085417	-0.55417	-0.24792	-0.1375	-0.97708	-0.14792	-0.5125	-0.58958	-0.13125	-41.397	235.089	-109.418	142.421	-103.118	26.004	171.572	-90.832	169.547	-84.664	-102.701	194.055	-114.682	196.672	13.211	203.956	0.00073265	0.0012234	8.609e-05	1427.2	5.39e-06	3.6745e-06	1413.8	381.31	4.0465e-06	9.1834e-06	429.36	147.57	127.76	44.218	5.8081e-06	54.01	0.00038998	0.00037275	9.2363e-05	1434.5	4.2211e-06	3.8918e-06	1431.1	384.15	4.1815e-06	3.9962e-06	433.46	149.08	129.73	44.837	3.732e-06	54.77	-0.168	-44.552	-58.320	-107.639	-15.631	-5.350	-107.966	-102.945	-26.547	-15.841	-103.700	-99.471	-98.941	-94.181	51.142	-95.065	-8191	255	
1903.413	1	1	0	0	0.2194	0.10542	0.14526	0.23688	0.041505	0.075629	0.35059	0.27524	0.19858	0.23924	0.11635	0.29394	0.14615	0.25217	0.19145	0.040377	-0.22292	-0.39375	0.016667	-0.94375	-0.1	-0.20208	-1.0479	0.0041667	-0.7625	-0.39583	-0.089583	-0.95	-0.070833	-0.16458	-0.78542	-0.15625	55.584	-90.684	-88.192	207.459	195.634	-86.157	188.335	209.924	77.900	-28.972	-26.481	-47.744	85.265	215.122	102.407	-65.607	0.00076253	0.00083945	0.00017763	1422.7	4.8984e-06	3.7825e-06	1419.3	380.38	9.2122e-06	3.5594e-06	429.79	147.44	127.7	44.207	4.1256e-06	53.943	0.00040206	0.00036271	9.0214e-05	1435.9	4.2909e-06	3.7649e-06	1432.2	384.82	4.2621e-06	3.8924e-06	433.07	148.97	129.58	44.829	3.6783e-06	54.758	2.393	-86.582	-45.262	-107.622	40.567	-1.570	-108.097	-103.127	36.385	70.078	-103.765	-99.277	-99.019	-94.390	56.822	-95.075	-8191	255	
1903.509	1	1	0	0	0.040327	0.16074	0.21261	0.43441	0.18609	0.13989	0.40039	0.10733	0.095179	0.24848	0.19244	0.36141	0.21338	0.18315	0.18153	0.1825	-0.14167	-0.4	0.10833	-0.84583	-0.40417	-0.072917	-0.99375	-0.0375	-0.52917	-0.73542	0.052083	-0.97292	-0.38958	-0.30417	-0.59792	-0.01875	-7.082	81.691	103.808	160.581	-24.922	221.913	150.991	138.278	-96.492	-19.549	-64.452	210.048	228.036	135.659	88.560	-94.217	0.00082807	0.00047891	0.00019101	1420.6	4.2689e-06	4.6411e-06	1418	381.32	7.181e-06	5.8424e-06	429.29	147.35	128.13	44.149	3.0663e-06	53.859	0.00039784	0.00035513	8.9225e-05	1436.1	4.1752e-06	3.6562e-06	1431.8	384.87	4.0538e-06	3.7564e-06	432.61	149.35	129.65	44.705	3.6269e-06	54.841	3.834	-53.208	-55.746	-107.592	-6.516	-3.679	-107.746	-103.114	0.608	69.813	-103.708	-99.093	-98.845	-94.047	-13.394	-95.189	-8191	255	
1903.605	1	1	0	0	0.12816	0.13483	0.12224	0.22886	0.18626	0.13489	0.17604	0.1503	0.23668	0.074715	0.14312	0.17424	0.33439	0.51728	0.091816	0.23673	-0.175	-0.71667	0.14792	-0.90208	-0.27083	0.05	-1.0854	-0.21875	-0.33125	-0.61667	-0.060417	-0.80833	-0.53125	-0.12292	-0.84167	-0.072917	-43.092	21.038	-7.645	235.372	13.690	235.841	-48.329	91.467	-1.117	181.398	191.683	229.354	236.100	-94.131	-75.663	166.347	0.00072402	0.00020592	0.00020447	1425.7	3.3191e-06	3.7367e-06	1415.1	380.13	2.7986e-06	6.5427e-06	430.17	146.69	128.19	44.033	4.0393e-06	53.958	0.0003707	0.00034318	9.0064e-05	1436	3.9792e-06	3.5318e-06	1429.2	384.54	3.8547e-06	3.6988e-06	432.97	149.06	129.38	44.662	3.7969e-06	54.948	-2.409	-68.810	-58.675	-107.759	-26.548	-4.073	-107.734	-103.032	66.726	32.833	-103.744	-99.329	-98.893	-94.190	-15.158	-94.974	-8191	255	
1903.699	1	1	0	0	0.12114	0.18816	0.23375	0.3646	0.12368	0.13653	0.35305	0.18982	0.13671	0.29307	0.27981	0.22476	0.59239	0.36281	0.18266	0.086126	0.13958	-0.75	0.18542	-0.82708	-0.55	-0.066667	-1.1208	-0.1625	-0.25417	-0.75417	-0.14792	-0.61875	-0.65	-0.077083	-0.77708	-0.29583	132.131	9.381	-14.032	-97.914	227.147	129.926	177.805	157.254	-17.992	146.522	225.408	143.258	154.109	206.423	-4.518	-1.362	0.00065998	0.00068294	0.00018106	1420.4	6.9696e-06	8.4134e-06	1422	380.12	4.8913e-06	4.127e-06	429.06	147.73	127.73	44.121	1.9363e-06	53.813	0.00036237	0.00033652	9.6402e-05	1434.9	3.9024e-06	3.4814e-06	1432.6	384.46	3.6971e-06	3.6102e-06	433.13	148.89	129.02	44.662	4.039e-06	54.776	4.467	-53.058	33.895	-107.617	40.914	23.021	-107.798	-103.128	36.487	7.176	-103.596	-99.397	-98.915	-94.247	-27.669	-95.319	-8191	255	
1903.820	1	1	0	0	0.031761	0.13918	0.21647	0.52958	0.26907	0.28918	0.30641	0.24051	0.12166	0.14459	0.16613	0.096799	0.18137	0.098405	0.06415	0.23787	0.11875	-0.83125	0.2	-0.73333	-0.64583	0.14583	-0.93958	-0.42083	-0.12292	-0.68542	-0.2625	-0.47083	-0.8	0.070833	-0.84792	-0.49583	-65.870	182.361	-78.941	191.242	28.622	106.791	185.139	135.520	-93.936	218.320	235.256	217.736	227.089	-47.779	-45.547	72.005	0.00072027	0.00039105	0.00013293	1414.6	1.588e-06	1.6101e-06	1415.2	379.14	5.1783e-06	3.3036e-06	430.63	147.16	127.72	43.954	2.152e-06	53.869	0.00035402	0.00033275	0.00010498	1430.1	3.8858e-06	3.5066e-06	1430.3	383.71	3.7075e-06	3.6968e-06	433.63	148.62	128.97	44.56	4.2418e-06	54.724	0.694	-16.751	-47.448	-107.636	20.213	24.734	-107.819	-102.989	64.628	13.082	-103.655	-99.164	-98.928	-94.163	62.859	-95.089	-8191	255	
1903.892	1	1	0	0	0.2251	0.26955	0.12948	0.10374	0.14261	0.099243	0.23121	0.28478	0.17234	0.12478	0.031565	0.12682	0.11886	0.13777	0.1031	0.11597	0.36667	-0.87708	-0.033333	-0.3875	-0.81042	0.13542	-0.80625	-0.5375	0.041667	-0.88542	-0.064583	-0.24375	-0.87292	-0.16875	-0.78958	-0.58958	-75.089	62.194	174.317	178.853	-92.594	182.274	154.656	129.118	204.971	51.280	131.541	129.145	146.108	68.284	226.083	115.397	0.00076305	0.00042314	7.455e-05	1418.6	4.1976e-06	3.3669e-06	1418.9	379.68	9.2641e-06	5.1963e-06	429.89	147.2	128.01	43.982	7.1995e-06	53.801	0.00034567	0.00034398	0.00010928	1432.3	3.8095e-06	3.6978e-06	1431.1	383.99	3.594e-06	3.8287e-06	434.13	148.46	128.99	44.663	4.2438e-06	54.737	-3.567	-48.479	-40.365	-107.794	4.165	3.294	-107.935	-103.091	9.499	37.320	-103.580	-99.131	-98.980	-94.360	14.678	-94.916	-8191	255	
1903.988	1	1	0	0	0.2324	0.053926	0.11102	0.12667	0.11884	0.10197	0.23479	0.32344	0.34713	0.037336	0.13052	0.18874	0.18556	0.049026	0.10287	0.24866	0.24792	-0.81458	0.027083	-0.44792	-0.6375	0.05625	-0.7625	-0.72083	-0.18125	-0.74583	-0.23333	-0.24792	-0.9375	0.025	-0.53958	-0.71875	143.596	232.650	235.475	233.004	83.963	87.792	147.956	158.555	-65.702	-24.931	184.004	176.970	230.817	120.865	-3.345	228.883	0.00070449	0.0003527	0.00018747	1425.1	4.8917e-06	2.9745e-06	1420	380.81	6.7191e-06	1.3047e-06	429.65	146.64	127.85	43.847	6.3443e-06	53.915	0.00034123	0.00036081	0.00010821	1431.9	3.713e-06	3.9547e-06	1433.2	383.69	3.6057e-06	4.114e-06	433.57	148.24	129.04	44.682	4.1442e-06	54.604	7.843	-84.582	-50.227	-107.570	43.024	-94.371	-107.590	-103.126	18.907	63.394	-103.702	-99.236	-98.992	-94.117	5.992	-95.004	-8191	255	
1904.084	1	1	0	0	0.18217	0.14539	0.12674	0.40608	0.054618	0.15396	0.19108	0.26308	0.028346	0.19456	0.11959	0.28329	0.24336	0.34812	0.0461	0.31596	0.475	-0.86458	-0.41875	-0.28958	-0.7	-0.03125	-0.575	-0.93125	0.072917	-0.83958	-0.48125	-0.175	-0.86458	-0.25833	-0.33958	-0.76042	-89.512	51.568	-93.189	217.943	143.658	-47.422	207.466	205.758	52.315	145.086	-108.953	187.342	202.190	164.529	86.677	213.110	0.00072416	0.00069081	6.647e-05	1418.7	4.727e-06	2.7761e-06	1412.9	378.5	7.3481e-06	3.4225e-06	429.7	146.36	127.51	43.886	2.8011e-06	53.862	0.00034324	0.00038711	0.00010666	1428.4	3.8007e-06	4.3118e-06	1425.4	382.96	3.7366e-06	4.3334e-06	432.92	147.83	128.71	44.657	4.0557e-06	54.629	-3.167	-67.525	-102.872	-107.527	-70.308	48.491	-107.900	-103.013	-42.166	37.742	-103.606	-99.190	-98.684	-94.434	14.393	-95.115	-8191	255	
1904.205	1	1	0	0	0.10956	0.34482	0.17362	0.25595	0.10487	0.19215	0.17296	0.12914	0.18654	0.11026	0.10039	0.1709	0.24546	0.17245	0.14821	0.28963	0.35625	-0.61458	-0.41667	-0.23333	-0.87292	-0.10417	-0.60625	-0.93125	-0.083333	-0.87708	-0.65208	0.0041667	-0.9	-0.21042	-0.20208	-0.92917	38.428	31.404	222.724	176.907	-101.993	102.725	110.856	225.488	13.976	153.853	117.874	42.795	-110.371	12.882	210.972	-106.053	0.00081853	0.00010488	0.00017808	1415.4	5.4106e-06	1.1365e-06	1418.9	379.34	7.1227e-06	5.0018e-06	427.97	147.46	127.75	44.014	3.9902e-06	53.576	0.00036061	0.00040474	0.00010448	1427.8	4.0367e-06	4.4226e-06	1429.8	382.99	3.9832e-06	4.3592e-06	432.4	148.15	129.05	44.732	3.8574e-06	54.548	-4.357	-56.194	8.241	-107.615	-40.368	25.282	-107.831	-103.218	-10.680	33.883	-103.572	-99.293	-98.813	-94.292	13.816	-94.878	-8191	255	
1904.301	1	1	0	0	0.12936	0.095392	0.075774	0.14804	0.43829	0.045507	0.12849	0.17698	0.11763	0.0096509	0.072276	0.24199	0.32072	0.30307	0.10334	0.10579	0.41875	-0.6	-0.58125	-0.2	-0.70625	-0.060417	-0.26042	-1.0167	0.025	-0.62917	-0.78958	0.016667	-1.0021	-0.3375	-0.083333	-1.0125	220.040	91.970	238.266	-111.248	-24.273	173.466	224.300	153.449	129.729	-26.027	9.836	141.092	208.490	153.155	-38.812	120.071	0.00073756	0.00037438	0.00017008	1419.4	4.6124e-06	2.2231e-06	1415.3	380.85	4.9802e-06	8.9153e-06	429.81	147.03	127.06	43.906	4.5454e-06	53.919	0.00038153	0.00039158	0.00010162	1428.8	4.1702e-06	4.2946e-06	1428.7	383.84	4.1447e-06	4.1078e-06	433.04	148.33	129.18	44.711	3.7439e-06	54.63	1.877	-25.713	-17.071	-107.631	-47.068	44.396	-107.655	-103.174	122.811	56.200	-103.545	-99.064	-98.792	-94.242	15.140	-94.953	-8191	255	
1904.397	1	1	0	0	0.16681	0.1885	0.23207	0.20309	0.11657	0.15077	0.15146	0.24493	0.16635	0.16523	0.41897	0.28179	0.4118	0.040254	0.11804	0.10157	0.4875	-0.38958	-0.65	-0.16667	-0.76875	-0.17292	-0.083333	-1.0854	-0.0041667	-0.25208	-0.90625	0.016667	-0.86875	-0.425	-0.10208	-1.0688	-44.360	64.272	230.816	135.729	39.166	112.358	183.598	211.419	118.820	-95.438	191.102	-103.742	208.675	136.078	-116.431	-81.700	0.00083874	0.00049132	0.00014542	1414.2	3.3155e-06	6.7874e-06	1411.7	380.14	4.1934e-06	5.8155e-06	428.89	147.11	127.26	43.919	4.8524e-06	53.812	0.00040021	0.00037224	9.6887e-05	1427.7	4.3303e-06	4.0699e-06	1427.4	383.76	4.3337e-06	3.8926e-06	432.53	148.19	129.19	44.658	3.5953e-06	54.624	0.843	-105.789	-43.982	-107.490	-10.288	3.586	-107.746	-103.123	-57.428	9.255	-103.661	-99.316	-98.770	-94.242	39.231	-94.947	-8191	255	
1904.493	1	1	0	0	0.14218	0.17233	0.16794	0.29571	0.11428	0.26044	0.31228	0.055336	0.19837	0.12027	0.088256	0.099217	0.47883	0.15868	0.26827	0.32675	0.11042	-0.38125	-0.66042	-0.083333	-0.575	-0.64167	-0.19792	-1.0312	-0.0875	-0.31667	-0.71458	-0.08125	-0.59583	-0.56875	-0.025	-0.95208	171.961	-88.382	14.806	-111.229	157.566	-102.105	200.135	131.656	-6.054	23.804	234.310	-23.901	-64.153	-39.076	161.432	75.531	0.0007204	0.00085215	0.00018386	1416.3	6.0311e-06	6.6349e-06	1417.9	378.38	1.0729e-05	8.1093e-06	428.62	146.73	127.53	44.008	2.2113e-06	53.853	0.00041349	0.0003573	9.5853e-05	1428.6	4.3269e-06	3.9845e-06	1426.2	382.73	4.4021e-06	3.8493e-06	431.44	148.12	128.99	44.619	3.587e-06	54.637	-0.110	-55.196	0.781	-107.650	-12.515	36.733	-107.724	-102.967	38.816	12.466	-103.557	-99.025	-98.780	-94.000	89.040	-95.209	-8191	255	
1904.589	1	1	0	0	0.19519	0.13076	0.15074	0.14892	0.10921	0.053898	0.25601	0.22253	0.26362	0.17567	0.11592	0.087506	0.25201	0.17481	0.093782	0.14445	0.11458	-0.14792	-0.76875	-0.066667	-0.59375	-0.7	0.029167	-0.85	-0.22917	-0.21042	-0.93125	-0.13333	-0.45417	-0.6625	0.089583	-0.9375	-109.199	218.180	-94.398	189.446	-68.381	-58.021	224.859	-84.101	36.579	237.500	66.101	-30.282	149.594	144.773	22.695	61.711	0.00076023	0.00039032	0.00013116	1409.6	4.0028e-06	6.2896e-06	1412.4	377.69	2.2238e-06	2.8406e-06	429.53	146.04	127.38	43.566	4.2859e-06	53.847	0.00040387	0.00034843	9.3993e-05	1425.5	4.2191e-06	3.8885e-06	1422.5	382.4	4.2146e-06	3.6707e-06	431.62	147.96	128.72	44.48	3.571e-06	54.754	0.020	-70.819	-30.945	-107.703	69.100	27.878	-107.719	-103.031	4.826	88.949	-103.274	-99.568	-98.716	-94.321	-31.497	-95.005	-8191	255	
1904.684	1	1	0	0	0.30588	0.11533	0.19397	0.18503	0.18712	0.26878	0.32706	0.34872	0.1996	0.306	0.24175	0.13037	0.20287	0.18178	0.073488	0.21947	-0.03125	0.19583	-0.80625	-0.24792	-0.52292	-0.74792	-0.052083	-0.86042	-0.43542	-0.060417	-0.90833	-0.21458	-0.39375	-0.76875	0.19375	-0.7375	76.013	231.820	-60.884	185.046	-120.651	109.253	223.022	186.767	231.661	141.660	239.070	130.131	-110.115	181.235	214.406	234.295	0.00078218	0.00052463	9.2127e-05	1411.1	1.914e-06	3.8214e-06	1408.9	378.58	5.9051e-06	6.6176e-06	428.29	146.1	127.1	43.753	1.2844e-06	53.675	0.00038215	0.00033413	9.4825e-05	1425.4	3.9361e-06	3.7699e-06	1423.7	382.49	4.1312e-06	3.6106e-06	431.64	148.07	128.33	44.427	3.8732e-06	54.631	-3.808	-54.965	-24.946	-107.653	29.618	27.522	-107.651	-102.871	44.319	7.133	-103.754	-99.351	-98.733	-94.237	6.095	-94.918	-8191	255	
1904.804	1	1	0	0	0.1721	0.32162	0.18664	0.24855	0.1122	0.21731	0.18791	0.27887	0.21627	0.074454	0.12481	0.12705	0.13388	0.20228	0.093107	0.408	0.03125	0.08125	-0.64375	0.0020833	-0.16042	-0.64583	-0.14375	-0.69583	-0.46458	0.04375	-0.94583	-0.43958	-0.28333	-0.87708	-0.095833	-0.6125	156.839	20.062	86.682	170.988	53.431	219.207	120.657	199.068	92.422	-50.232	220.434	139.560	-108.922	191.098	31.679	199.154	0.00074918	0.00057727	0.00019262	1410.2	4.9846e-06	6.367e-06	1406.8	378.74	6.7249e-06	2.6281e-06	427.27	146.2	126.73	43.669	4.0196e-06	53.591	0.00037816	0.00033283	0.00010345	1425	3.9254e-06	3.8397e-06	1421.8	383.09	4.071e-06	3.6304e-06	432.2	148.1	128.44	44.414	4.1832e-06	54.566	1.025	-66.086	-13.183	-107.599	1.707	14.909	-107.842	-103.126	10.590	50.313	-103.402	-99.330	-98.595	-94.228	46.969	-94.988	-8191	255	
1904.900	1	1	0	0	0.045543	0.24826	0.12933	0.27946	0.33913	0.24363	0.41631	0.4705	0.14839	0.15153	0.42702	0.36856	0.28815	0.15971	0.2945	0.13483	-0.34792	-0.15208	-0.71458	-0.33333	0.0020833	-0.82917	-0.21667	-0.4125	-0.60833	0.2	-0.71667	-0.50625	-0.27917	-1.0479	0.058333	-0.55	17.827	223.694	-4.700	163.789	121.233	89.677	-118.156	167.346	25.486	157.251	190.134	179.593	236.271	-116.411	-71.231	55.976	0.00077093	0.00046866	5.1428e-05	1413	1.3834e-06	7.0536e-06	1407.7	378.19	5.5806e-06	4.0234e-06	430.97	146.77	127.47	43.982	3.0102e-06	53.552	0.00037415	0.00033262	0.00010795	1425.6	3.8176e-06	3.8111e-06	1423.8	383.04	3.9481e-06	3.6689e-06	433.98	148.47	128.71	44.564	4.3408e-06	54.657	-3.277	-63.043	72.824	-107.585	198.429	8.920	-107.844	-102.925	-24.760	22.196	-103.562	-99.051	-98.526	-94.267	26.162	-94.893	-8191	255	
1904.997	1	1	0	0	0.15242	0.21796	0.12692	0.3446	0.051585	0.16399	0.17446	0.15993	0.18476	0.16229	0.14728	0.2066	0.38768	0.074566	0.25963	0.093941	-0.53125	0.1	-0.68958	-0.50833	-0.125	-0.87917	-0.22917	-0.15417	-0.75	-0.077083	-0.77292	-0.68958	-0.089583	-0.79167	-0.1625	-0.49792	24.206	49.028	81.278	171.271	209.504	228.670	232.141	226.204	-42.580	-20.031	161.676	109.475	218.313	7.550	192.672	-101.890	0.00081608	0.00073023	0.00021551	1414.7	6.2835e-06	2.7209e-06	1411.7	378.88	2.9849e-06	2.5044e-06	428.76	146.96	127.39	43.855	3.1301e-06	53.775	0.00036346	0.00033865	0.0001084	1426.8	3.6636e-06	3.8826e-06	1427.1	383.09	3.8776e-06	3.8493e-06	432.9	148.38	128.73	44.621	4.4122e-06	54.605	1.312	-34.716	-79.062	-107.622	-15.400	105.938	-107.838	-103.078	45.302	10.806	-103.556	-99.380	-98.848	-94.214	-13.669	-95.063	-8191	255	
1905.093	1	1	0	0	0.17036	0.056431	0.11175	0.32952	0.1219	0.1473	0.19024	0.35356	0.14456	0.2775	0.28848	0.1502	0.13873	0.1988	0.15081	0.30007	-0.4625	0.054167	-0.57917	-0.75417	0.075	-0.82292	-0.4	-0.52083	-0.71667	-0.014583	-0.54583	-0.68542	-0.2	-0.83125	-0.077083	-0.15833	154.715	71.008	34.032	207.583	182.728	-83.048	-89.835	219.472	171.290	-49.284	163.916	39.604	-115.671	223.916	225.787	228.282	0.00076523	0.00035472	0.0001979	1413.1	3.8924e-06	5.9508e-06	1411.6	378.06	7.4436e-06	1.2771e-06	428.25	146.37	127.39	43.669	6.4457e-06	53.634	0.00036385	0.00036661	0.00011013	1427	3.7095e-06	4.1713e-06	1426.9	382.22	3.8689e-06	4.2251e-06	433.2	147.99	128.6	44.632	4.3468e-06	54.546	-2.430	42.090	-39.639	-107.564	31.236	16.862	-107.869	-103.004	-3.263	13.961	-103.492	-99.443	-98.906	-94.227	80.093	-94.826	-8191	255	
1905.189	1	1	0	0	0.19402	0.22402	0.25925	0.28205	0.16803	0.044046	0.49672	0.26494	0.24099	0.19094	0.20999	0.10977	0.080759	0.19528	0.032543	0.37334	-0.40625	0.15625	-0.57083	-0.82708	0.16667	-0.775	-0.45833	-0.13542	-0.69167	-0.025	-0.63125	-0.69792	-0.0020833	-0.90417	-0.37083	-0.31875	-44.591	-77.883	196.667	158.547	-42.371	197.950	200.940	206.470	-108.895	172.253	207.384	178.598	207.799	203.038	100.626	218.293	0.00070236	0.00056669	0.00019536	1414	5.588e-06	3.8254e-06	1410.2	378.88	1.1267e-05	4.0695e-06	428.45	146.76	126.74	43.862	6.7352e-06	53.722	0.00036672	0.00040177	0.00010676	1426.9	3.8318e-06	4.4129e-06	1425.2	382.5	3.9227e-06	4.4129e-06	432.06	148.03	128.44	44.68	4.2454e-06	54.425	-9.507	-44.290	-23.746	-107.634	-48.338	-3.446	-107.996	-102.968	-10.801	59.761	-103.479	-99.442	-98.773	-94.024	43.105	-94.787	-8191	255	
#DATA ENDS
