BOXY.EXE: ISS Imagent and Oximeter Data Acquisition Program Version 0.80
Ascii Record File

#ACQ INFORMATION
2  Detector Channels 
16  External MUX Channels 
1  Auxiliary Channels 
5000  Waveform (CCF) Frequency (Hz)
1  Waveforms Skipped 
30  Waveforms Averaged 
1  Cycles Averaged 
16  Acquisitions per Waveform 
10.0806  Updata Rate (Hz) 

#FILE INFORMATION
TRUE -- External MUX Channel results are PARSED.
FALSE -- AC DC and Phase are NOT grouped.
TRUE -- Companion Program Settings File CREATED.
FALSE -- AC data not excluded
FALSE -- DC data not excluded
FALSE -- Phase data not excluded
FALSE -- Auxillary Chn. data not excluded
Tab delimiters

#CALIBRATION STATE
TRUE -- Waveform Calibration Values APPLIED.


#AUX CALIBRATION VALUES
Val Type	aux-1	

Term	1.0000e+00	
Factor	0.0000e+00	


#WF CALIBRATION VALUES
A = Detector Channel
Val Type	A-AC1	A-AC2	A-AC3	A-AC4	A-AC5	A-AC6	A-AC7	A-AC8	A-AC9	A-AC10	A-AC11	A-AC12	A-AC13	A-AC14	A-AC15	A-AC16	A-DC1	A-DC2	A-DC3	A-DC4	A-DC5	A-DC6	A-DC7	A-DC8	A-DC9	A-DC10	A-DC11	A-DC12	A-DC13	A-DC14	A-DC15	A-DC16	A-Ph1	A-Ph2	A-Ph3	A-Ph4	A-Ph5	A-Ph6	A-Ph7	A-Ph8	A-Ph9	A-Ph10	A-Ph11	A-Ph12	A-Ph13	A-Ph14	A-Ph15	A-Ph16	

Term	0.00000e+00	0.00000e+00	0.00000e+00	0.00000e+00	0.00000e+00	0.00000e+00	0.00000e+00	0.00000e+00	0.00000e+00	0.00000e+00	0.00000e+00	0.00000e+00	0.00000e+00	0.00000e+00	0.00000e+00	0.00000e+00	0.00000e+00	0.00000e+00	0.00000e+00	0.00000e+00	0.00000e+00	0.00000e+00	0.00000e+00	0.00000e+00	0.00000e+00	0.00000e+00	0.00000e+00	0.00000e+00	0.00000e+00	0.00000e+00	0.00000e+00	0.00000e+00	0.00000e+00	0.00000e+00	0.00000e+00	0.00000e+00	0.00000e+00	0.00000e+00	0.00000e+00	0.00000e+00	0.00000e+00	0.00000e+00	0.00000e+00	0.00000e+00	0.00000e+00	0.00000e+00	0.00000e+00	0.00000e+00	
Factor	1.00000e+00	1.00000e+00	1.00000e+00	1.00000e+00	1.00000e+00	1.00000e+00	1.00000e+00	1.00000e+00	1.00000e+00	1.00000e+00	1.00000e+00	1.00000e+00	1.00000e+00	1.00000e+00	1.00000e+00	1.00000e+00	1.00000e+00	1.00000e+00	1.00000e+00	1.00000e+00	1.00000e+00	1.00000e+00	1.00000e+00	1.00000e+00	1.00000e+00	1.00000e+00	1.00000e+00	1.00000e+00	1.00000e+00	1.00000e+00	1.00000e+00	1.00000e+00	X	X	X	X	X	X	X	X	X	X	X	X	X	X	X	X	

B = Detector Channel
Val Type	B-AC1	B-AC2	B-AC3	B-AC4	B-AC5	B-AC6	B-AC7	B-AC8	B-AC9	B-AC10	B-AC11	B-AC12	B-AC13	B-AC14	B-AC15	B-AC16	B-DC1	B-DC2	B-DC3	B-DC4	B-DC5	B-DC6	B-DC7	B-DC8	B-DC9	B-DC10	B-DC11	B-DC12	B-DC13	B-DC14	B-DC15	B-DC16	B-Ph1	B-Ph2	B-Ph3	B-Ph4	B-Ph5	B-Ph6	B-Ph7	B-Ph8	B-Ph9	B-Ph10	B-Ph11	B-Ph12	B-Ph13	B-Ph14	B-Ph15	B-Ph16	

Term	0.00000e+00	0.00000e+00	0.00000e+00	0.00000e+00	0.00000e+00	0.00000e+00	0.00000e+00	0.00000e+00	0.00000e+00	0.00000e+00	0.00000e+00	0.00000e+00	0.00000e+00	0.00000e+00	0.00000e+00	0.00000e+00	0.00000e+00	0.00000e+00	0.00000e+00	0.00000e+00	0.00000e+00	0.00000e+00	0.00000e+00	0.00000e+00	0.00000e+00	0.00000e+00	0.00000e+00	0.00000e+00	0.00000e+00	0.00000e+00	0.00000e+00	0.00000e+00	-2.84052e+01	-1.28238e+02	-1.23055e+02	-1.81347e+02	-4.90151e+01	-6.44906e+01	-1.58583e+02	-1.62015e+02	-3.30316e+01	-6.71694e+01	-1.70474e+02	-1.69975e+02	-1.81443e+02	-1.76799e+02	-5.34590e+01	-1.49645e+02	
Factor	2.60320e-05	1.63302e-04	4.34181e-05	1.49363e-01	1.92631e-06	1.64092e-06	1.64229e-01	5.54761e-02	1.53204e-06	1.58752e-06	8.65546e-02	3.10973e-02	2.68888e-02	9.37520e-03	1.83265e-06	1.32400e-02	1.49363e-05	2.69560e-05	7.46987e-06	7.68193e-02	2.59114e-07	3.03878e-07	7.93361e-02	2.86037e-02	2.60344e-07	3.00301e-07	4.33358e-02	1.55925e-02	1.39820e-02	4.88742e-03	2.77576e-07	6.67928e-03	X	X	X	X	X	X	X	X	X	X	X	X	X	X	X	X	



#DISTANCE SETTINGS
A = Detector Channel
A-1	A-2	A-3	A-4	A-5	A-6	A-7	A-8	A-9	A-10	A-11	A-12	A-13	A-14	A-15	A-16	

2.5000e+00	3.0000e+00	2.5000e+00	3.0000e+00	2.0000e+00	3.0000e+00	1.5000e+00	3.0000e+00	3.0000e+00	3.0000e+00	3.0000e+00	3.0000e+00	3.0000e+00	3.0000e+00	1.5000e+00	3.0000e+00	

B = Detector Channel
B-1	B-2	B-3	B-4	B-5	B-6	B-7	B-8	B-9	B-10	B-11	B-12	B-13	B-14	B-15	B-16	

1.0000e+01	1.0000e+01	1.0000e+01	1.4400e+00	1.0000e+01	1.0000e+01	1.5100e+00	1.9400e+00	1.0000e+01	1.0000e+01	1.9900e+00	2.4900e+00	2.4100e+00	2.9000e+00	1.0000e+01	2.9800e+00	




#DATA BEGINS
time	group	step	mark	flag	A-AC1	A-AC2	A-AC3	A-AC4	A-AC5	A-AC6	A-AC7	A-AC8	A-AC9	A-AC10	A-AC11	A-AC12	A-AC13	A-AC14	A-AC15	A-AC16	A-DC1	A-DC2	A-DC3	A-DC4	A-DC5	A-DC6	A-DC7	A-DC8	A-DC9	A-DC10	A-DC11	A-DC12	A-DC13	A-DC14	A-DC15	A-DC16	A-Ph1	A-Ph2	A-Ph3	A-Ph4	A-Ph5	A-Ph6	A-Ph7	A-Ph8	A-Ph9	A-Ph10	A-Ph11	A-Ph12	A-Ph13	A-Ph14	A-Ph15	A-Ph16	B-AC1	B-AC2	B-AC3	B-AC4	B-AC5	B-AC6	B-AC7	B-AC8	B-AC9	B-AC10	B-AC11	B-AC12	B-AC13	B-AC14	B-AC15	B-AC16	B-DC1	B-DC2	B-DC3	B-DC4	B-DC5	B-DC6	B-DC7	B-DC8	B-DC9	B-DC10	B-DC11	B-DC12	B-DC13	B-DC14	B-DC15	B-DC16	B-Ph1	B-Ph2	B-Ph3	B-Ph4	B-Ph5	B-Ph6	B-Ph7	B-Ph8	B-Ph9	B-Ph10	B-Ph11	B-Ph12	B-Ph13	B-Ph14	B-Ph15	B-Ph16	aux-1	digaux	

38913.164	1	1	0	768	0.068947	0.26689	0.10294	0.11017	0.32007	0.26516	0.21117	0.14438	0.062641	0.10621	0.044358	0.20243	0.29901	0.063318	0.22968	0.10516	-2.6292	-2.1625	-2.9979	-2.9792	-2.0687	-3.1875	-2.6271	-2.5771	-3.1813	-2.2708	-2.7875	-2.9479	-2.2604	-3.2417	-2.7125	-2.5875	166.577	104.120	243.291	-70.983	169.522	252.879	98.449	160.802	257.794	219.782	184.994	-71.085	181.542	261.193	-64.808	-42.858	0.00010932	0.0012095	0.00028784	900.31	1.4021e-05	1.2139e-05	689.09	315.57	9.4444e-06	1.4838e-05	255.45	84.97	113.56	43.599	3.1359e-05	35.222	0.046815	0.084451	0.023668	1160.2	0.00083619	0.00099299	965.44	419.35	0.00089464	0.0010658	416.94	144.89	169.51	63.653	0.0010709	62.112	-67.123	247.272	-23.328	-71.705	-28.269	52.226	-73.030	-66.508	24.067	84.197	-69.133	-64.708	-62.199	-57.743	-44.820	-61.313	-8191	255	
38913.258	1	1	0	0	0.1414	0.10785	0.22232	0.19268	0.25884	0.10149	0.06224	0.18279	0.045558	0.10636	0.25445	0.12681	0.18677	0.1432	0.18332	0.10817	-2.7708	-2.4	-2.6604	-2.9958	-2.1479	-3.1312	-2.7104	-2.4583	-3.075	-2.2792	-2.7083	-2.95	-2.2583	-2.9875	-2.5521	-2.1958	119.762	73.783	-63.227	270.480	158.372	151.714	263.600	-68.011	90.248	146.634	118.770	42.801	145.760	-72.732	11.892	151.709	0.00018318	0.0017948	0.00021363	897.11	2.0396e-05	8.0508e-06	689.13	313.67	1.1023e-05	2.6079e-06	251.73	83.018	111.76	42.352	9.14e-06	34.254	0.05811	0.1049	0.028922	1206.7	0.00098531	0.0011451	993.27	425.64	0.00093031	0.0010559	405.5	138.15	162.44	60.026	0.00090963	56.624	-62.358	-39.047	-12.145	-71.764	199.203	147.989	-72.932	-66.445	234.620	10.119	-69.417	-64.904	-62.069	-57.950	46.749	-61.373	-8191	255	
38913.355	1	1	0	0	0.18509	0.30933	0.21672	0.36946	0.12248	0.13135	0.24301	0.23451	0.13426	0.11394	0.065313	0.10882	0.26363	0.1006	0.10026	0.055425	-2.6875	-2.3438	-2.4104	-2.9521	-2.1792	-2.775	-2.8896	-2.325	-2.9604	-2.4958	-2.5396	-3.0792	-2.3229	-3.0958	-2.8708	-2.2417	239.183	169.212	171.236	232.284	55.619	92.307	188.021	200.535	139.785	197.472	254.585	164.082	224.860	-83.204	64.776	166.566	2.3591e-05	0.00080923	0.0004002	901.84	1.5157e-05	1.2809e-05	686.88	315.05	1.3185e-05	1.1796e-05	249.91	83.003	112.82	42.61	5.8826e-06	34.915	0.047339	0.08404	0.022938	1148.6	0.00077223	0.00089831	927.54	403.06	0.00072833	0.00082622	371.58	126.19	151.73	56.349	0.0006819	51.781	71.487	-75.952	55.287	-71.649	68.948	253.872	-73.326	-66.468	-2.341	13.969	-69.587	-65.047	-62.311	-57.885	256.024	-61.193	-8191	255	
38913.449	1	1	0	0	0.34965	0.047794	0.083525	0.192	0.18875	0.063024	0.15063	0.30986	0.29485	0.17876	0.22095	0.16202	0.24502	0.40685	0.30884	0.1382	-2.6708	-2.3021	-2.5229	-3.1896	-2.0729	-2.8979	-2.8542	-2.1604	-2.9771	-2.5687	-2.4875	-3.0979	-2.3479	-2.7875	-2.7146	-2.2104	151.485	274.723	32.871	232.133	91.149	102.122	208.724	271.640	179.235	110.965	204.666	186.054	268.677	246.916	11.777	-32.805	0.00013837	0.00040936	0.00030657	893.46	1.8105e-05	2.2016e-06	684.26	315.91	9.8187e-06	5.9076e-06	255.52	87.087	117.23	45.424	7.3977e-06	38.168	0.035297	0.062262	0.017011	1082.4	0.00057779	0.00067202	866.26	383.82	0.00055303	0.00062962	349.79	121.12	147.69	56.587	0.00054179	51.994	-64.975	202.781	121.755	-71.666	127.155	-78.390	-73.348	-66.346	91.585	116.297	-69.594	-65.052	-62.557	-57.890	191.406	-61.256	-8191	255	
38913.547	1	1	0	0	0.15193	0.22427	0.1427	0.39693	0.16919	0.26335	0.21668	0.16332	0.091976	0.17663	0.11459	0.12983	0.091726	0.045378	0.22387	0.22312	-2.5833	-2.4375	-2.2146	-3.0521	-2.2458	-2.7833	-2.9833	-2.1333	-3	-2.6021	-2.2021	-3.1625	-2.3937	-2.5604	-3.0917	-2.1458	-45.310	-72.901	183.140	254.278	-65.194	147.013	149.700	191.584	114.041	19.816	-49.887	-39.153	161.016	62.160	262.200	109.047	0.00014022	0.00059355	0.00039683	887.41	1.7524e-05	1.3611e-05	688.06	318.27	7.4031e-06	2.0062e-05	260.84	90.505	119.08	47.235	1.3129e-05	39.038	0.02857	0.050059	0.013624	1036.8	0.00045646	0.00052819	830.6	372.09	0.00043213	0.00049521	335.56	118.25	145.26	56.925	0.00047201	51.568	-64.220	-56.659	26.711	-71.804	17.026	30.547	-72.512	-66.215	70.260	-54.336	-69.419	-64.723	-61.927	-57.975	58.294	-61.259	-8191	255	
38913.645	1	1	0	0	0.17861	0.09907	0.12947	0.1899	0.11391	0.11508	0.10974	0.10686	0.033888	0.097033	0.092152	0.35192	0.29218	0.1994	0.15461	0.16932	-2.6979	-2.7667	-2.0771	-3.1813	-2.2896	-2.6063	-3.0625	-2.2542	-2.85	-2.9688	-2.575	-3.0062	-2.6083	-2.4896	-3.1271	-2.2333	198.517	-56.911	-75.307	166.862	202.526	169.116	138.225	18.425	110.413	47.841	129.594	234.734	197.912	217.316	52.555	-3.762	0.00019638	0.00092775	0.00030496	883.52	1.2505e-05	1.6052e-05	679.99	317.82	6.4803e-06	1.2799e-05	262.62	91.619	119.43	47.522	9.6219e-06	39.004	0.026128	0.047216	0.013092	1029.6	0.00045779	0.00053778	830.8	374.94	0.00045352	0.00052444	342.47	120.68	146.74	57.501	0.00048469	51.88	-16.011	42.607	135.301	-71.730	33.032	68.520	-73.473	-66.617	77.432	79.352	-69.633	-64.926	-62.642	-58.699	133.302	-61.809	-8191	255	
38913.762	1	1	0	0	0.099913	0.20453	0.44495	0.053705	0.13834	0.13972	0.23391	0.24703	0.25399	0.17125	0.078091	0.089425	0.18413	0.32627	0.096782	0.077141	-2.4042	-2.7667	-2.2208	-3.1229	-2.4375	-2.3688	-3.2	-2.2875	-2.7562	-3.0292	-2.2583	-3.0521	-2.5938	-2.5583	-3.1063	-2.3708	-79.255	223.211	177.661	-9.278	66.584	174.987	234.685	199.585	271.270	132.086	-0.730	132.287	247.419	251.319	-24.145	17.900	0.00024933	0.00025813	0.00050189	882.85	1.7083e-05	4.3384e-06	682.64	319.12	1.6802e-05	1.372e-05	261.58	90.677	119.41	47.507	1.2381e-05	39.252	0.026528	0.047691	0.013349	1035.6	0.00046939	0.00054984	839.14	377.29	0.00047708	0.00055046	347.55	122.61	149.05	58.46	0.00053899	53.365	-37.283	117.152	-16.058	-71.944	168.717	250.928	-73.398	-66.879	158.371	38.658	-69.632	-65.230	-62.658	-58.554	78.650	-61.899	-8191	255	
38913.859	1	1	0	0	0.27649	0.20583	0.20144	0.21987	0.18249	0.050079	0.2839	0.29969	0.11981	0.21135	0.18611	0.19424	0.16913	0.2365	0.11166	0.071576	-2.2625	-2.8521	-2.1417	-3.275	-2.5792	-2.2687	-3.1229	-2.5917	-2.5042	-2.8146	-2.1958	-3.0458	-2.8458	-2.2354	-3.0708	-2.4729	-37.386	-75.556	-79.366	273.970	35.095	146.565	177.317	214.533	124.358	-23.352	166.262	131.535	-45.052	-29.547	70.658	165.510	0.00015075	0.0019601	0.00032488	885.7	2.0561e-05	5.4486e-06	687.67	318.84	8.0437e-06	7.4394e-06	260.86	90.26	119.03	47.168	1.2479e-05	38.679	0.029706	0.053377	0.014923	1054.9	0.00052847	0.00063029	863.58	386.98	0.00056959	0.00067302	366.34	129.37	155.72	60.482	0.00069092	56.614	-20.942	53.036	83.630	-72.029	1.128	123.543	-73.179	-66.769	97.829	232.737	-70.054	-65.471	-62.640	-58.493	209.494	-62.032	-8191	255	
38913.953	1	1	0	0	0.4202	0.0946	0.044387	0.36103	0.10428	0.13643	0.24959	0.22065	0.049445	0.11088	0.10574	0.17616	0.20527	0.043818	0.16032	0.22291	-1.9375	-2.8542	-2.15	-3.0833	-2.9083	-2.3417	-3.3	-2.6042	-2.3479	-2.9854	-2.3583	-2.85	-2.9896	-2.1854	-2.9771	-2.5125	78.604	160.897	238.595	240.625	194.421	-10.133	195.145	207.068	-57.882	200.489	80.149	47.753	218.766	110.185	244.034	242.409	0.00029219	0.0019252	6.2959e-05	882.57	3.1593e-05	1.3253e-05	684.16	317.83	4.1567e-06	1.575e-05	258.78	87.891	117.31	45.738	1.8899e-05	36.875	0.038019	0.068897	0.019293	1099.6	0.00068436	0.0008206	916.23	406.24	0.00076692	0.00092048	401.45	141.68	167.25	64.349	0.00098559	62.488	-70.401	71.883	99.252	-72.065	132.317	78.805	-73.735	-66.982	-37.217	45.267	-69.729	-65.422	-63.034	-58.837	271.212	-61.964	-8191	255	
38914.051	1	1	0	0	0.032522	0.31535	0.39502	0.082931	0.15025	0.2866	0.199	0.33434	0.095987	0.01824	0.27576	0.12351	0.064575	0.060227	0.13105	0.16415	-2.0271	-3.0396	-2.2104	-2.8812	-2.9083	-2.0917	-3.0292	-2.6813	-2.3375	-3.0187	-2.4417	-2.6813	-3.1083	-2.2271	-3.0521	-2.8125	252.443	269.819	235.818	10.362	229.436	79.581	-36.556	-74.225	94.524	32.756	185.595	-2.935	223.593	-57.476	168.966	22.494	0.00010908	0.00087638	0.00032065	885.83	1.9632e-05	5.9327e-06	682.29	312.77	2.3232e-05	1.9914e-05	253.87	85.41	113.48	44.173	9.2084e-06	35.677	0.055138	0.10146	0.028604	1199.7	0.0010164	0.0012081	1015.4	438.68	0.0010946	0.0013087	455.56	160.84	184.98	70.377	0.001428	72.31	164.344	158.493	146.025	-72.181	153.579	-65.925	-73.552	-66.925	126.119	213.270	-70.049	-65.547	-62.971	-58.590	-58.951	-62.214	-8191	255	
38914.148	1	1	0	0	0.27729	0.1045	0.30481	0.16799	0.1256	0.098482	0.066647	0.16816	0.21834	0.069166	0.12536	0.13958	0.097239	0.36148	0.19494	0.11542	-2.0042	-2.9958	-2.4229	-2.7646	-3.2333	-2.2938	-3.2167	-2.9979	-2.3271	-3.0604	-2.5167	-2.7396	-3.1917	-2.375	-2.9313	-2.9417	33.801	130.075	-29.765	227.730	56.441	232.264	-7.685	166.613	61.732	201.775	11.275	221.839	159.029	216.038	273.616	142.878	0.00021073	0.0024341	0.00026262	883.58	3.1083e-05	1.738e-05	683.93	308.79	2.8418e-05	1.5915e-05	251.11	83.211	111.41	43.096	1.638e-05	35.086	0.081142	0.15093	0.043101	1358.6	0.0015559	0.0018748	1199	501.63	0.0016953	0.0019977	548.84	192.72	211.8	78.956	0.0019391	82.921	233.477	98.341	26.727	-72.294	225.592	17.116	-73.317	-67.321	196.545	273.699	-69.674	-65.309	-62.889	-58.428	207.212	-61.807	-8191	255	
38914.242	1	1	0	0	0.17639	0.13694	0.17387	0.13898	0.14623	0.17376	0.085527	0.61063	0.21081	0.083519	0.14127	0.11815	0.15915	0.3702	0.051391	0.20527	-1.9458	-3.0333	-2.4979	-2.7083	-2.9896	-2.2625	-2.9042	-3.0521	-2.075	-3.0375	-2.6729	-2.6229	-3.3	-2.35	-2.7375	-3.0292	214.108	146.543	151.068	-71.737	243.649	-69.842	136.248	220.471	-51.340	30.585	59.415	93.567	66.385	251.602	55.353	117.811	0.0005977	0.0016236	0.00033841	881.88	2.2642e-05	2.3553e-05	679.65	306.85	7.3189e-06	1.6826e-05	249.19	84.444	112.16	44.115	1.7519e-05	36.16	0.10434	0.18803	0.052058	1439.2	0.0017836	0.0020942	1242.3	510.48	0.0017404	0.0019868	537.11	186.16	203.03	75.554	0.0016416	75.809	-75.638	149.660	269.376	-72.312	169.514	138.823	-73.741	-67.252	-17.341	-2.891	-69.868	-65.600	-62.917	-58.805	26.498	-62.168	-8191	255	
38914.340	1	1	0	0	0.15906	0.17122	0.18863	0.05026	0.032708	0.19557	0.051613	0.22493	0.060719	0.31729	0.058977	0.09409	0.26831	0.076849	0.13666	0.32448	-1.6313	-2.9396	-2.5646	-2.4375	-3.0104	-2.3042	-2.7792	-2.8979	-2.3229	-3.0958	-2.6833	-2.2229	-3.1562	-2.3438	-2.5146	-3.1354	232.453	-43.949	266.598	192.999	177.860	-74.159	156.352	267.391	195.832	-28.480	-4.085	140.802	201.725	127.796	173.384	-54.527	0.00044625	0.0010897	0.00020167	873.47	2.1956e-05	1.0518e-05	670.46	307.89	1.0103e-05	4.0635e-06	249.57	85.946	114.32	45.145	1.9979e-05	37.092	0.083921	0.1487	0.040145	1296.6	0.0013217	0.0015226	1075.3	453.3	0.0012257	0.0013938	454.24	159.25	180.82	68.792	0.0012175	67.34	185.038	230.130	-35.822	-72.104	36.480	-51.389	-73.594	-66.918	255.439	203.360	-69.797	-65.637	-62.879	-58.635	40.361	-62.075	-8191	255	
38914.457	1	1	0	0	0.19571	0.029267	0.1066	0.10919	0.071925	0.22566	0.13877	0.067952	0.2422	0.062089	0.23146	0.18075	0.13763	0.068217	0.13908	0.1179	-1.8979	-2.825	-2.6167	-2.3958	-2.9604	-2.4417	-2.725	-3.1937	-2.1354	-2.8979	-2.8271	-2.1625	-3.1375	-2.6625	-2.6021	-3.175	7.834	228.554	99.147	2.533	214.997	222.426	245.751	132.597	228.476	-5.607	139.679	252.013	56.215	231.427	55.251	211.769	0.00044322	0.0014425	0.00033375	870.05	2.638e-05	1.3646e-05	665.92	307.93	8.5739e-06	1.358e-05	253.84	87.511	115.24	45.83	1.612e-05	37.746	0.064695	0.11619	0.031815	1208.4	0.001087	0.001266	1006.1	433.01	0.0010543	0.0012104	429	150.62	173.22	66.529	0.0010748	64.388	-73.666	82.898	4.065	-72.096	221.980	41.483	-73.287	-67.176	63.492	-4.401	-70.133	-65.299	-62.832	-58.809	204.283	-62.104	-8191	255	
38914.555	1	1	0	0	0.06594	0.18064	0.20719	0.24996	0.10763	0.035289	0.021385	0.23555	0.10124	0.15045	0.16533	0.12457	0.42252	0.06608	0.14389	0.082886	-1.8042	-2.725	-2.7792	-2.4437	-3.125	-2.6542	-2.4708	-3.1417	-2.3417	-2.7729	-2.9417	-2.3229	-3.1792	-2.8	-2.4437	-3.1688	-59.465	42.104	136.016	-83.842	-74.047	185.411	215.348	-29.523	180.379	-69.684	139.188	150.047	219.843	67.064	113.020	31.628	0.00013278	0.00088772	0.00034044	867.53	1.3911e-05	1.5513e-05	666.28	308.51	1.5114e-05	1.0477e-05	250.44	86.898	114.24	45.582	2.2718e-06	37.052	0.057984	0.1048	0.029004	1184.3	0.0010235	0.0012086	998.45	432.33	0.0010634	0.0012368	435.67	153.67	176.69	67.629	0.0011657	66.373	89.971	87.911	22.804	-72.295	17.208	98.382	-73.471	-66.950	251.781	128.843	-69.995	-65.808	-62.594	-58.806	268.580	-62.076	-8191	255	
38914.648	1	1	0	0	0.22033	0.15161	0.0919	0.26371	0.21946	0.19128	0.27438	0.18654	0.23745	0.18422	0.26121	0.085087	0.2503	0.16822	0.15264	0.24122	-1.9708	-2.7417	-2.925	-2.3479	-2.9875	-2.6375	-2.4375	-3.2812	-2.4188	-2.675	-3.1625	-2.2604	-3.0333	-2.7396	-2.1979	-3.1396	37.961	-2.625	-75.279	223.009	-79.351	272.245	171.184	257.479	167.796	190.388	164.269	-23.077	244.173	-10.438	195.012	162.595	9.1041e-05	0.0013444	0.00036893	870.98	4.3324e-06	1.1438e-05	671.84	311.04	1.8378e-05	1.8042e-05	250.29	86.048	114.33	45.368	1.0712e-05	37.065	0.06382	0.11476	0.031606	1212.5	0.0010919	0.0012825	1019.3	438.76	0.0011029	0.0012751	442.74	156.03	179.37	68.433	0.0012078	67.348	103.753	-55.898	-46.580	-72.235	187.498	68.486	-73.660	-67.067	1.123	1.687	-69.805	-65.886	-62.724	-58.910	237.806	-61.976	-8191	255	
38914.723	1	1	0	0	0.081851	0.22436	0.12761	0.12096	0.21919	0.088133	0.14995	0.10234	0.12393	0.13913	0.13312	0.25735	0.23041	0.10427	0.33819	0.18486	-2.0167	-2.5771	-3.0333	-2.3333	-2.7729	-2.8375	-2.2438	-3.4	-2.4604	-2.6188	-2.9083	-2.225	-3.025	-2.9021	-2.1813	-3.0812	134.881	155.630	55.363	208.574	262.558	239.159	-44.847	-73.823	95.260	222.136	153.586	192.335	42.313	270.504	68.394	173.459	0.0002799	0.0034215	0.00020066	869.76	2.0802e-05	1.0259e-05	669.18	308.25	2.3308e-05	2.803e-05	250.64	85.963	114.03	45.178	1.44e-05	36.422	0.065672	0.11851	0.032884	1229.6	0.001145	0.0013339	1030.4	441.45	0.0011342	0.0013128	445.51	156.68	179.67	68.725	0.0012547	68.248	266.806	232.238	233.875	-72.246	-56.709	48.335	-73.403	-66.834	170.939	17.880	-69.992	-65.819	-62.678	-58.687	-36.496	-61.987	-8191	255	
38914.844	1	1	0	0	0.077097	0.23154	0.16459	0.043478	0.056976	0.1344	0.22086	0.22909	0.14941	0.18405	0.037464	0.040437	0.12547	0.26992	0.25567	0.24635	-2.1167	-2.375	-2.9771	-2.2188	-2.7208	-3	-2.3812	-3.0708	-2.6167	-2.5229	-3.1979	-2.525	-2.8875	-2.8833	-2.1521	-3.0458	274.458	65.832	120.383	210.795	108.705	222.053	202.459	198.596	144.961	29.527	105.163	170.737	9.067	232.958	77.096	172.867	0.00015139	0.00073737	0.00055509	869.19	3.5888e-05	1.301e-05	664.94	306.79	4.0822e-06	3.4986e-05	247.03	83.942	112.85	44.216	1.0951e-05	35.588	0.068496	0.1236	0.034292	1240.9	0.0011954	0.0014016	1044.7	448.36	0.0012224	0.0014224	459.83	161.6	183.94	69.787	0.0013793	70.602	0.610	39.332	271.448	-72.382	249.960	-67.091	-73.994	-66.919	-3.399	49.688	-69.930	-65.705	-62.902	-58.554	-7.471	-62.531	-8191	255	
38914.938	1	1	0	0	0.16148	0.30381	0.015268	0.12377	0.047625	0.081696	0.16637	0.10717	0.084354	0.16381	0.02078	0.072102	0.16811	0.16498	0.10258	0.24866	-2.325	-2.2438	-3.0917	-2.3458	-2.8021	-2.8979	-2.2938	-3.0271	-2.7	-2.3563	-3.2646	-2.2854	-2.8646	-3.1063	-2.2583	-2.8271	224.114	7.842	99.994	-31.810	-35.993	-17.114	197.639	172.980	-74.591	22.975	176.239	260.216	251.861	28.035	241.937	43.816	0.00044014	0.0017096	0.00037446	873.65	5.1095e-06	1.9956e-05	666.87	305.61	2.521e-06	1.9572e-05	245.66	83.692	112.05	43.812	1.242e-05	35.244	0.076884	0.14003	0.039204	1299.6	0.0013915	0.001643	1113.4	470.63	0.0014104	0.0016254	486.74	169.89	190.97	71.929	0.0015152	72.955	-77.141	14.213	-0.192	-72.540	63.214	64.182	-73.582	-67.286	32.014	272.745	-69.742	-65.068	-63.022	-58.509	268.261	-62.482	-8191	255	
38915.035	1	1	0	0	0.15573	0.087981	0.23135	0.18576	0.042283	0.1811	0.1236	0.066948	0.27952	0.10494	0.13471	0.17504	0.36156	0.064003	0.099345	0.43939	-2.3167	-2.325	-2.9313	-2.5875	-2.2062	-2.9938	-2.1312	-2.9521	-2.9854	-2.0271	-3.1896	-2.4208	-2.5604	-3.2313	-2.25	-2.6875	30.975	-57.606	84.123	251.238	127.708	210.912	-13.113	-52.159	157.986	67.012	187.327	220.708	-18.390	139.668	127.529	111.216	0.0003595	0.003312	0.00049478	869.73	1.5771e-06	1.0113e-05	667.16	304.36	3.4131e-06	6.2265e-06	244.67	83.131	111.95	43.71	1.1873e-05	35.199	0.081337	0.14635	0.040685	1312.4	0.001414	0.001666	1119	470.35	0.0014175	0.0016324	485.5	168.95	189.6	71.389	0.0014713	72.012	-0.535	24.314	51.057	-72.332	219.139	179.654	-73.559	-67.029	124.680	237.080	-70.099	-65.328	-62.622	-58.679	52.871	-61.761	-8191	255	
38915.156	1	1	0	0	0.049191	0.41841	0.24039	0.16347	0.16037	0.081731	0.22821	0.21706	0.11337	0.036312	0.30737	0.15847	0.15918	0.16742	0.10251	0.10549	-2.3792	-2.1792	-3.0458	-2.7604	-2.6146	-3.1208	-2.4271	-2.7521	-2.9875	-2.3104	-3.1333	-2.6896	-2.3854	-2.9792	-2.3271	-2.8354	166.244	143.094	-23.886	227.651	251.105	258.807	198.407	228.302	-44.174	125.777	246.841	154.667	215.297	200.527	245.599	-41.282	0.00023682	0.0016871	0.00072179	869.22	6.0812e-06	2.0418e-05	660.95	303.23	1.3179e-05	3.6986e-05	242.55	82.477	111.73	43.728	2.363e-05	34.873	0.079537	0.14351	0.039879	1295.6	0.0013596	0.0015849	1086.8	459.72	0.0013286	0.001524	469.1	163.52	184.95	69.891	0.0013978	69.437	214.507	164.910	163.609	-72.572	181.180	9.619	-73.594	-67.124	109.376	115.430	-69.730	-65.531	-62.640	-58.616	-57.471	-62.221	-8191	255	
38915.254	1	1	0	0	0.18127	0.22537	0.18181	0.19889	0.13628	0.1299	0.15594	0.077059	0.098967	0.035748	0.13438	0.077135	0.14503	0.059142	0.43686	0.096936	-2.6896	-2.0417	-2.9917	-2.7875	-2.1854	-3.2979	-2.4813	-2.5792	-2.9667	-2.3	-3.0292	-2.9354	-2.1583	-3.2458	-2.3708	-2.6125	75.684	-34.577	235.088	199.162	171.898	-15.499	170.674	39.902	70.490	232.661	258.005	-83.742	145.223	141.678	71.931	168.976	0.00021658	0.00047295	0.00018813	868.65	7.1448e-06	7.1627e-06	662.71	304.82	1.076e-05	6.1644e-06	242.72	82.8	111.52	44.219	2.9866e-05	35.639	0.074266	0.13314	0.036467	1256	0.0012234	0.0014282	1044.3	443	0.0011659	0.00133	438.48	152.85	175.32	66.613	0.0011888	65.013	-5.593	76.493	23.901	-72.325	33.763	53.878	-73.735	-66.837	84.510	57.995	-69.880	-65.723	-62.914	-58.778	87.143	-62.301	-8191	255	
38915.324	1	1	0	0	0.13626	0.075304	0.095523	0.1044	0.076926	0.2713	0.28691	0.30926	0.14926	0.090963	0.11662	0.23522	0.1589	0.16936	0.14903	0.13965	-2.7229	-2.1583	-2.5938	-2.8625	-2.1771	-3.1729	-2.4583	-2.4521	-3.2292	-2.1146	-3.0312	-2.9417	-2.3104	-3.0625	-2.7292	-2.3125	45.182	-31.859	191.386	190.335	152.821	109.286	273.657	-70.622	268.043	-44.436	158.562	30.202	239.715	273.853	34.178	212.992	0.00038164	0.00059212	0.00054299	869.56	2.2093e-06	5.8797e-06	665.49	305.87	1.1842e-05	6.6187e-06	245.52	83.822	112.88	44.311	3.8717e-06	35.927	0.063805	0.11546	0.032055	1214.9	0.0010992	0.0012951	1012.7	434.84	0.0011045	0.0012824	436.07	152.9	176.6	67.257	0.0012086	66.127	-42.134	250.435	58.886	-72.140	44.418	98.720	-73.766	-67.124	22.054	-70.232	-69.853	-65.421	-62.770	-58.541	83.498	-62.037	-8191	255	
38915.445	1	1	0	0	0.023785	0.043962	0.069041	0.1381	0.24076	0.070892	0.061048	0.15747	0.27305	0.1626	0.41866	0.18395	0.17968	0.21004	0.39812	0.2934	-2.6354	-2.4188	-2.6437	-3.1063	-2.1875	-2.9313	-2.7833	-2.4271	-3.1729	-2.5687	-2.6875	-2.8875	-2.4437	-3.1208	-2.75	-2.2083	68.500	-78.510	-80.254	271.873	117.877	-7.611	213.560	217.668	200.380	-61.240	234.392	267.556	-11.899	258.727	99.702	-26.233	0.00015172	0.00055385	0.00018704	874.15	2.6031e-05	7.4708e-06	664.82	306.58	5.7847e-06	5.6068e-06	246.45	83.334	113.18	44.463	2.8931e-06	35.835	0.066243	0.12053	0.033514	1231.2	0.0011419	0.0013365	1023.2	437.28	0.0011095	0.0012806	434.57	151.61	175.19	66.64	0.0011541	64.656	196.081	77.995	163.803	-72.435	241.998	-43.961	-73.586	-67.050	157.534	190.069	-69.576	-65.564	-62.875	-58.482	136.570	-61.776	-8191	255	
38915.539	1	1	0	0	0.37825	0.14773	0.065934	0.10544	0.085148	0.19553	0.083044	0.25551	0.23011	0.098857	0.071853	0.20875	0.049466	0.30206	0.2527	0.19641	-2.7375	-2.5271	-2.4771	-3.2042	-2.4625	-3.0958	-2.9313	-2.3979	-3.05	-2.5604	-2.6625	-3.1958	-2.35	-2.8875	-2.7521	-2.2854	248.037	91.664	174.369	-40.311	134.879	187.312	263.139	186.520	231.355	53.975	259.515	210.527	266.559	260.751	109.870	97.703	0.00035181	0.0014341	0.0006437	874.54	6.8892e-06	1.183e-06	665.1	306.84	4.1596e-05	1.9852e-05	244.85	83.453	112.9	44.663	3.4135e-06	36.144	0.062133	0.11194	0.030939	1207.1	0.0010629	0.0012472	1000.1	431.61	0.00105	0.0012075	423.02	147.3	171.46	65.436	0.0010708	62.657	237.405	238.493	-34.306	-72.308	154.926	3.374	-74.185	-67.028	236.736	165.635	-70.096	-65.464	-62.610	-58.647	179.500	-61.680	-8191	255	
38915.633	1	1	0	0	0.12617	0.19395	0.077654	0.15652	0.36684	0.15638	0.17569	0.28274	0.29766	0.091648	0.050319	0.17787	0.18476	0.065877	0.24316	0.2704	-2.6792	-2.4938	-2.4875	-3.2583	-2.2938	-2.7833	-3.1458	-2.4604	-3.0625	-2.6167	-2.5167	-3.1312	-2.3146	-2.85	-3.1604	-2.3375	248.301	195.654	54.209	249.976	-55.470	196.281	176.841	227.486	-59.120	168.661	-55.818	-34.534	181.424	-23.591	99.427	244.456	0.00028037	0.00011674	0.00028317	867.13	1.4441e-05	9.9597e-06	662.73	307.39	1.3349e-05	1.4286e-05	246.6	83.588	113.09	44.926	1.2033e-05	35.94	0.056491	0.10091	0.02776	1170.5	0.00096059	0.001133	970.48	421.16	0.00098076	0.0011407	418.43	147.71	172.68	66.338	0.0011375	64.763	-83.299	74.091	-35.226	-72.296	160.844	94.413	-73.724	-66.914	199.000	81.545	-69.907	-65.274	-63.037	-58.701	99.252	-61.777	-8191	255	
38915.754	1	1	0	0	0.066789	0.23787	0.1256	0.14802	0.15794	0.26431	0.05722	0.25517	0.24908	0.11309	0.10314	0.18041	0.11529	0.21724	0.17144	0.023532	-2.7042	-2.7021	-2.3958	-3.3042	-2.3708	-2.7729	-3.0458	-2.3333	-2.9542	-2.7667	-2.3708	-3.1125	-2.4521	-2.6813	-3.1083	-2.3708	76.283	109.502	112.105	10.314	-5.934	259.196	65.908	-66.128	-64.530	137.694	244.924	212.420	249.529	30.648	10.869	209.134	0.00010005	0.0014299	0.00016929	869.49	9.5048e-06	9.3703e-06	664.71	307.35	1.9661e-05	1.9313e-05	245.11	83.692	113.19	44.829	8.823e-06	36.259	0.062439	0.11254	0.031266	1212	0.0010917	0.0012914	1015.4	436.59	0.0011169	0.0012863	435.38	151.42	173.56	65.607	0.0010463	61.759	-0.902	-30.159	173.554	-72.225	227.592	65.486	-73.695	-67.130	-77.478	10.468	-69.933	-65.486	-62.897	-58.832	175.880	-62.017	-8191	255	
38915.852	1	1	0	0	0.027846	0.40843	0.086222	0.42307	0.32471	0.19197	0.13523	0.16103	0.43607	0.13781	0.12286	0.14566	0.18252	0.15238	0.1372	0.16628	-2.3854	-2.9333	-2.2146	-3.0792	-2.6188	-2.4896	-3.1375	-2.3875	-2.8792	-2.7042	-2.5	-3.1708	-2.5417	-2.5396	-3.1	-2.325	107.760	116.655	-49.509	203.528	-8.167	55.830	5.095	253.946	194.467	202.110	127.343	134.040	231.774	-61.624	67.440	87.528	0.00034261	0.0020429	0.00025373	874.76	9.4697e-06	2.4334e-06	670.83	310.44	1.3745e-05	1.6416e-05	249.64	86.347	115.57	46.192	2.4099e-05	37.182	0.052693	0.091182	0.024463	1137.1	0.00080634	0.00093253	918.99	402.91	0.00077099	0.00088352	382.77	134.54	160.35	62.171	0.0008229	58.08	239.001	6.332	213.528	-72.114	270.255	169.057	-73.398	-66.891	160.171	19.224	-69.655	-65.262	-62.801	-58.593	105.190	-62.423	-8191	255	
38915.945	1	1	0	0	0.13031	0.3114	0.083346	0.42302	0.18977	0.075699	0.3693	0.14842	0.15594	0.043308	0.076762	0.25806	0.16707	0.13936	0.13082	0.13942	-2.4229	-2.7646	-2.2333	-3.2583	-2.6604	-2.2896	-3.0812	-2.4354	-2.6229	-3.1917	-2.2646	-3.1333	-2.7333	-2.5646	-3.1417	-2.3917	39.856	144.214	274.013	178.724	264.687	100.972	195.520	-42.303	152.903	154.203	10.451	202.072	-42.631	-35.848	264.256	263.245	0.00041414	0.00098492	0.0004548	873.67	1.8847e-05	1.7471e-05	668.48	308.55	6.1684e-06	1.4142e-05	249.25	86.307	115.33	46.383	4.6867e-06	37.179	0.044248	0.079799	0.022295	1119.7	0.00078484	0.00092614	921.53	405.67	0.00081526	0.00094773	392.21	138.63	163.72	63.511	0.00090709	60.661	-57.326	-3.029	-9.216	-72.329	-10.584	62.701	-73.637	-67.127	0.554	194.873	-69.656	-65.516	-62.556	-58.722	-42.883	-62.111	-8191	255	
38916.020	1	1	0	0	0.077415	0.30428	0.15421	0.15811	0.039007	0.069608	0.060893	0.41938	0.066779	0.20482	0.20172	0.10814	0.063281	0.058605	0.13958	0.36753	-2.2438	-3.0625	-2.1625	-3.0875	-2.7125	-2.3417	-3.1083	-2.5083	-2.7417	-3.025	-2.2667	-2.975	-2.7354	-2.2146	-3.0687	-2.5667	256.220	215.477	56.401	92.460	185.536	-62.306	-48.549	222.620	52.512	251.493	-76.287	217.200	224.537	-44.125	181.437	204.333	0.00042834	0.0014156	0.00052267	867.82	8.5056e-06	1.1609e-05	670.65	306.87	1.2585e-05	1.552e-05	250.08	86.182	114.4	45.965	1.008e-05	37.209	0.050122	0.09108	0.025494	1148.5	0.00089647	0.0010579	957.51	416.66	0.00093142	0.0010811	411.98	145.19	168.71	65.161	0.0010035	62.301	-62.581	131.300	-23.173	-72.532	81.051	117.497	-73.552	-67.075	31.211	131.690	-69.878	-65.697	-62.839	-58.827	252.484	-62.205	-8191	255	
38916.141	1	1	0	0	0.10248	0.11432	0.32662	0.27171	0.1667	0.09725	0.073608	0.16695	0.15064	0.14247	0.17393	0.18843	0.1073	0.25897	0.16008	0.18641	-2.1771	-3.1	-2.1646	-3.0021	-2.8042	-2.375	-3.0521	-2.7583	-2.3208	-3.2042	-2.4729	-2.8646	-2.9625	-2.4188	-3.1188	-2.7333	-4.633	122.501	130.431	-76.402	262.359	118.315	212.010	235.256	226.287	230.226	196.877	38.646	99.106	-69.252	196.839	221.625	8.3444e-05	0.0026279	0.00045703	868.69	1.1343e-05	1.1081e-05	668.74	309.42	9.1162e-06	4.316e-06	252.05	86.846	116.06	46.319	1.8204e-05	38.383	0.053029	0.094442	0.025961	1150.6	0.00088516	0.0010332	948.2	412.2	0.0008561	0.00098194	398.07	140.09	164.53	63.695	0.00088168	60.219	57.945	-20.458	163.774	-72.181	-32.896	107.011	-73.456	-66.888	-67.824	136.252	-69.650	-65.806	-62.823	-58.713	-19.878	-62.229	-8191	255	
38916.234	1	1	0	0	0.22194	0.016002	0.16571	0.16681	0.11516	0.13983	0.13019	0.057009	0.13991	0.14111	0.27735	0.05381	0.18543	0.20168	0.34461	0.2008	-2.15	-3.1792	-2.3875	-2.7896	-2.8958	-2.1854	-3.0729	-2.4708	-2.2875	-3.125	-2.3833	-2.7208	-3.125	-2.0646	-3.0187	-2.7979	-26.127	86.097	256.295	230.994	171.259	-32.549	96.051	229.760	-42.112	1.841	-57.349	36.799	220.058	-78.975	112.394	118.640	0.00015456	0.0014971	0.00050655	868.96	1.3857e-05	1.9573e-05	668.61	310.93	2.5818e-05	1.0239e-05	254.87	88.423	117.93	47.467	1.5959e-05	38.702	0.046596	0.083627	0.023082	1118.7	0.00077765	0.00089853	910.54	400.04	0.00073442	0.00084165	379.58	133.96	159.33	62.342	0.00074924	57.651	-7.433	161.034	240.118	-72.192	134.978	35.597	-73.654	-66.998	0.493	66.827	-69.608	-65.271	-62.672	-58.580	67.700	-61.750	-8191	255	
38916.332	1	1	0	0	0.17838	0.25576	0.13719	0.41519	0.022408	0.030345	0.071613	0.11368	0.028398	0.12209	0.33735	0.085793	0.12967	0.1866	0.055397	0.13671	-1.7896	-3.0229	-2.3375	-2.4229	-3	-2.1979	-3.05	-2.9083	-2.1958	-3.0708	-2.4437	-2.4917	-3.0104	-2.2104	-2.9958	-3.1375	203.377	224.282	172.661	154.910	6.445	260.585	200.012	267.418	202.415	55.529	195.452	252.684	159.454	196.931	193.121	225.224	0.00025545	0.0010165	0.00040149	869.97	1.2145e-05	7.5699e-06	669.46	312.2	1.1914e-05	1.1578e-05	254.64	88.304	118.08	47.369	1.8186e-05	38.786	0.040012	0.071817	0.019867	1089.5	0.0006832	0.00079948	889.02	394.04	0.00068416	0.00079312	373.63	132.3	157.91	62.044	0.00073643	57.649	-65.938	-4.201	207.362	-72.059	130.045	29.686	-73.526	-67.034	116.008	200.819	-69.857	-65.490	-62.977	-58.617	85.018	-62.056	-8191	255	
38916.430	1	1	0	0	0.16614	0.051987	0.19116	0.15651	0.063775	0.1475	0.25321	0.18578	0.07311	0.1743	0.1995	0.23653	0.15022	0.28817	0.20439	0.21737	-1.9542	-3.0646	-2.5083	-2.3083	-2.8521	-2.3292	-2.9083	-3.0271	-2.1021	-2.9854	-2.5792	-2.4708	-3.0646	-2.4479	-2.7792	-3.0062	2.995	144.544	38.791	-76.799	196.478	28.664	173.329	207.181	103.224	220.682	-38.639	222.329	-74.758	-81.112	-32.513	91.268	0.0001601	0.0013798	0.00034882	871.07	1.4415e-05	1.2149e-05	667.16	311.15	4.6094e-06	9.5513e-06	254.87	89.61	117.68	47.293	2.8251e-05	38.909	0.039883	0.071878	0.019976	1089.5	0.00069519	0.00081991	893.86	395.47	0.00070866	0.00082441	378.58	134.41	159.43	62.528	0.00076869	58.48	241.028	-65.678	-6.962	-72.141	142.918	-19.779	-73.481	-67.059	-48.991	-18.704	-69.859	-65.160	-62.896	-58.747	79.703	-62.041	-8191	255	
38916.547	1	1	0	0	0.38785	0.10885	0.1979	0.14337	0.2111	0.21396	0.046175	0.16467	0.25445	0.083628	0.33234	0.25988	0.29167	0.34942	0.28643	0.089026	-1.8833	-2.9188	-2.5479	-2.2354	-3.0167	-2.2313	-2.7375	-3.0375	-2.3	-2.8854	-2.8167	-2.1396	-3.0521	-2.3333	-2.6167	-3.1229	250.559	51.458	201.888	-61.182	198.901	186.649	167.030	68.656	90.003	153.978	-4.251	237.437	236.028	255.204	-10.430	1.522	0.00028781	0.0010864	8.1133e-05	873.19	1.6692e-05	1.4025e-05	672.76	311.85	4.1814e-06	9.2887e-06	256.12	89.953	117.56	47.432	1.7727e-05	38.701	0.041707	0.076264	0.021193	1106.4	0.00074189	0.00087645	910.23	400.91	0.0007403	0.0008507	381.93	135.43	160.64	62.822	0.0007844	58.716	-41.464	114.729	-16.018	-72.260	24.202	-15.666	-73.689	-67.059	-10.683	-82.561	-69.885	-65.378	-62.852	-58.707	95.132	-61.898	-8191	255	
38916.617	1	1	0	0	0.25513	0.19576	0.17721	0.065437	0.19226	0.09968	0.1016	0.097682	0.10241	0.12106	0.079126	0.38129	0.089989	0.051597	0.19812	0.072759	-1.7958	-2.7667	-2.5812	-2.4062	-2.8646	-2.4417	-2.65	-3.1333	-2.1188	-2.8563	-2.8729	-2.2667	-3.1583	-2.5771	-2.3271	-3.1708	262.385	-40.152	-32.866	-71.426	210.801	-70.134	134.792	207.315	-56.509	45.892	-33.467	-35.676	86.064	144.058	156.744	48.087	0.00049722	0.0025801	0.00014781	877.73	1.0016e-05	1.6704e-05	675.97	313.25	2.5983e-05	1.3109e-05	254.13	88.864	117.76	47.251	1.9338e-05	38.394	0.042301	0.076165	0.021026	1105.3	0.00072322	0.00084945	905.72	399.92	0.00072353	0.00082919	377.98	133.54	159.49	62.395	0.00076508	58.157	-68.507	8.886	211.493	-72.250	55.177	-48.478	-73.491	-66.792	144.401	89.289	-69.717	-65.382	-62.872	-58.851	147.650	-61.908	-8191	255	
38916.719	1	1	0	0	0.32212	0.085641	0.165	0.19561	0.047828	0.27267	0.2295	0.16904	0.17525	0.12535	0.18912	0.074965	0.26951	0.15405	0.15598	0.23421	-1.9438	-2.7438	-2.8875	-2.4042	-2.9333	-2.4833	-2.5271	-3.1833	-2.3958	-2.6979	-2.9542	-2.1917	-3.1188	-2.8271	-2.2812	-3.0479	175.331	87.194	107.608	218.258	257.997	111.363	204.966	251.030	164.569	9.821	-59.853	6.692	100.443	47.468	113.882	219.024	0.00017812	0.00090798	0.00035679	872.58	2.1836e-05	1.2653e-05	671.97	312.35	1.5035e-05	1.9008e-05	253.3	88.05	116.9	47.249	2.4315e-05	38.373	0.04197	0.076206	0.021189	1108	0.00074688	0.00087385	909.56	401.3	0.00074202	0.00085524	381.42	134.37	159.51	62.327	0.00078115	58.258	4.903	13.153	-65.361	-72.165	76.998	39.482	-73.621	-67.087	140.065	19.762	-69.664	-65.539	-62.474	-58.925	114.513	-62.010	-8191	255	
38916.836	1	1	0	0	0.23555	0.31647	0.11581	0.21628	0.23723	0.19159	0.14469	0.19999	0.13265	0.21554	0.20599	0.35975	0.10402	0.26908	0.27439	0.09812	-1.9917	-2.6458	-2.9375	-2.2083	-2.8583	-2.6188	-2.5	-3.0938	-2.3604	-2.4125	-3.0917	-2.2542	-3.0729	-2.7896	-2.2208	-3.1688	254.470	177.836	-83.982	45.529	149.730	-16.609	249.602	184.876	-77.780	2.368	-28.314	264.197	67.372	260.210	248.431	197.403	0.00039826	0.00076048	0.00031715	872.87	8.3796e-06	1.2507e-05	674.39	312.96	7.2046e-06	1.2701e-05	253.17	87.347	116.18	46.344	9.5279e-06	37.58	0.042972	0.077981	0.021736	1117.5	0.00077193	0.00091303	923.94	405.87	0.00078757	0.00090837	388.02	136.3	161.28	62.404	0.00081581	58.295	230.317	-46.058	176.289	-72.058	69.018	69.947	-73.475	-66.723	-74.204	218.146	-69.824	-65.650	-62.766	-58.849	-28.525	-62.018	-8191	255	
38916.934	1	1	0	0	0.13702	0.07253	0.11561	0.29432	0.23645	0.079984	0.13905	0.35781	0.34647	0.20733	0.39674	0.12592	0.31277	0.23954	0.072528	0.098767	-2.0396	-2.3958	-3.0167	-2.3438	-2.9	-2.85	-2.2417	-3.0438	-2.2458	-2.4625	-3.1125	-2.2896	-2.6375	-2.925	-2.0938	-2.8792	-2.674	132.305	188.369	222.514	214.956	118.309	215.464	-58.716	-63.869	14.246	235.486	126.570	-77.239	255.856	236.405	185.152	0.0003252	0.0027548	0.00021978	880.28	9.8241e-06	1.1446e-05	678.69	313.56	4.2612e-06	1.5027e-05	253.92	87.596	116.62	46.728	1.4319e-05	37.949	0.043844	0.078512	0.021755	1122.3	0.00075919	0.00088816	921.51	405.73	0.00076614	0.00088073	386.22	135.4	160.91	62.27	0.00079136	57.939	175.587	-50.090	100.047	-72.181	267.315	14.224	-73.329	-67.024	-78.521	77.758	-70.081	-65.401	-62.662	-58.955	37.607	-61.858	-8191	255	
38917.027	1	1	0	0	0.31128	0.17136	0.062764	0.049474	0.21792	0.28866	0.18694	0.22225	0.26391	0.39296	0.10418	0.060051	0.22677	0.045095	0.22648	0.03859	-2.0479	-2.2875	-3.0833	-2.3042	-2.6437	-2.9542	-2.2562	-3.05	-2.6125	-2.1333	-3.2729	-2.4646	-2.5854	-3.1542	-2.1458	-3	262.650	212.288	196.069	274.625	-39.044	273.168	236.573	201.813	15.111	189.467	233.982	170.901	-71.129	63.047	-17.387	205.635	0.00014566	0.00055324	0.0003789	883.77	2.5712e-05	1.2919e-05	680.11	315.99	1.1708e-05	1.5791e-05	253.7	87.755	118.26	46.911	1.7572e-05	38.028	0.041946	0.074281	0.020247	1106	0.00068602	0.00079509	895.78	396.28	0.00067131	0.00077526	371.17	130.62	157.72	61.094	0.00072853	56.712	-56.426	212.910	14.604	-72.292	125.978	130.270	-73.392	-66.996	158.228	142.225	-69.829	-65.572	-62.582	-58.617	177.662	-61.894	-8191	255	
38917.125	1	1	0	0	0.32274	0.12767	0.1309	0.18416	0.18337	0.16312	0.15998	0.062535	0.18855	0.11321	0.040878	0.21734	0.037904	0.07599	0.11241	0.14592	-2.1958	-2.0833	-2.9521	-2.3542	-2.7479	-2.9125	-2.3208	-2.9458	-2.9021	-2.2333	-3.0146	-2.5396	-2.6292	-3.0375	-2.075	-3.0312	156.274	114.533	85.527	274.351	249.006	82.502	215.300	54.208	-80.523	20.470	161.499	49.892	162.206	21.880	222.969	23.708	0.00038533	0.0001745	0.00020924	878.08	1.2856e-05	2.0149e-06	680.77	315.33	1.3553e-05	9.9718e-06	251.83	87.706	116.94	46.651	1.0011e-05	37.641	0.039685	0.071997	0.020142	1106.5	0.00070138	0.00082577	906.16	401.63	0.00071778	0.00083846	381.54	134.8	160.66	62.566	0.00082599	58.974	-33.829	213.507	74.866	-72.216	251.781	-10.379	-73.590	-66.806	240.544	-57.032	-69.593	-65.406	-62.890	-58.620	233.057	-61.759	-8191	255	
38917.219	1	1	0	0	0.29408	0.13498	0.20096	0.12848	0.21092	0.06393	0.28208	0.16657	0.2465	0.1166	0.13535	0.14033	0.12965	0.10536	0.13785	0.18828	-2.3625	-2.3083	-2.9833	-2.5271	-2.4625	-3.1437	-2.2958	-2.9979	-2.7562	-2.275	-2.9771	-2.5312	-2.4542	-3.3104	-2.2646	-2.7375	201.195	237.519	260.463	-34.195	161.114	228.992	214.564	255.108	67.863	-15.475	256.585	199.129	133.030	273.751	20.203	197.619	0.00026253	0.0031318	0.00066209	880.14	1.8041e-05	2.3373e-05	680.84	313.14	1.3919e-05	1.1963e-05	253.87	87.093	116.38	46.049	1.0222e-05	37.608	0.045744	0.083863	0.023777	1144.5	0.0008491	0.0010124	958.1	418.45	0.00089671	0.0010487	412.4	145.21	170.32	65.658	0.0010382	63.765	238.272	-48.256	102.064	-72.440	158.269	99.104	-73.519	-66.894	-26.713	-42.465	-69.926	-65.144	-62.723	-58.559	139.760	-61.981	-8191	255	
38917.316	1	1	0	0	0.098017	0.1943	0.31643	0.33808	0.46323	0.043071	0.093886	0.063383	0.055744	0.21373	0.14588	0.21463	0.14427	0.18697	0.20532	0.21899	-2.5792	-2.1104	-2.9062	-2.7792	-2.3854	-3.1417	-2.3167	-2.8917	-3.1167	-2.1854	-2.9708	-2.6646	-2.3375	-3.2833	-2.45	-2.6292	49.633	-34.711	-79.345	235.877	168.813	-51.565	256.306	-25.037	28.253	-73.870	-53.354	187.209	-40.907	-35.590	-78.676	32.874	0.00037472	0.00077695	0.0002807	883.78	4.3521e-06	8.6607e-06	679.23	314.47	2.6733e-05	1.9267e-05	253.59	85.595	115.25	46.058	2.0366e-05	36.517	0.056776	0.10358	0.028994	1200.5	0.00102	0.0012067	1010.7	437.09	0.0010594	0.0012407	438.63	153.91	178.09	68.294	0.0011928	66.825	241.806	270.837	41.471	-72.437	86.674	170.412	-73.746	-67.046	232.473	14.896	-69.658	-65.491	-62.651	-58.786	-15.138	-61.716	-8191	255	
38917.438	1	1	0	0	0.075862	0.30308	0.088437	0.10177	0.27509	0.053606	0.090841	0.24086	0.16838	0.020657	0.1333	0.13697	0.068323	0.20529	0.24614	0.088926	-2.6312	-2.1396	-2.8333	-2.9167	-2.3646	-3.3104	-2.5	-2.6417	-3.0187	-2.1688	-2.9042	-2.7833	-2.3438	-3.1937	-2.5333	-2.2396	102.658	-37.618	-24.830	-33.838	188.453	225.194	80.152	227.848	-80.501	161.405	86.049	19.871	237.752	228.478	266.731	248.337	0.00010384	0.0022904	0.00040813	879.14	6.6036e-06	1.6522e-06	676.46	311.41	7.944e-06	1.4896e-05	250.12	85.036	114.34	45.829	1.2026e-05	36.595	0.064574	0.11751	0.032844	1238.9	0.0011433	0.0013514	1045.6	447.68	0.0011717	0.0013621	452.38	157.91	180.71	69.139	0.001233	67.463	11.835	-23.345	174.012	-72.180	156.134	252.846	-73.478	-67.245	174.500	138.451	-69.603	-65.928	-62.781	-58.522	229.510	-61.963	-8191	255	
38917.531	1	1	0	0	0.21365	0.21531	0.17824	0.085949	0.24121	0.066516	0.085526	0.10599	0.14614	0.30909	0.083866	0.20369	0.37367	0.053054	0.18701	0.15541	-2.8167	-2.175	-2.7938	-2.9479	-2.15	-3.025	-2.6229	-2.6083	-2.9792	-2.3063	-2.75	-2.8917	-2.2917	-3.2438	-2.6583	-2.3583	-16.894	-37.005	9.226	244.456	194.011	-57.733	54.126	-5.942	99.843	-56.224	148.983	65.809	242.381	37.733	-42.023	251.473	0.00019996	0.0029298	6.9243e-05	878.74	1.119e-05	1.0637e-05	674.53	309.02	2.2921e-06	1.7165e-05	249.4	85.119	114.41	45.45	6.5003e-06	36.835	0.06609	0.11912	0.032896	1233.5	0.0011311	0.0013351	1031.4	442.15	0.0011311	0.0013043	443.12	154.73	177.38	67.909	0.0011756	65.777	33.858	30.976	-50.165	-72.418	15.042	110.137	-73.807	-67.063	271.650	12.378	-69.725	-65.400	-62.975	-58.672	128.996	-61.998	-8191	255	
38917.629	1	1	0	0	0.12426	0.18332	0.10177	0.19023	0.049475	0.081119	0.21636	0.080965	0.017933	0.15641	0.18828	0.22498	0.26571	0.41309	0.024386	0.22418	-2.7292	-2.3208	-2.7979	-2.9271	-2.1875	-3.0292	-2.7917	-2.3563	-3.1083	-2.325	-2.5521	-3.0583	-2.2729	-2.9708	-2.6854	-2.2188	45.869	81.809	-52.259	171.153	64.955	148.526	56.732	156.360	222.974	88.070	260.531	249.982	183.142	190.224	225.838	-61.893	0.00010976	0.0016884	0.0001964	876.85	3.6575e-05	1.2243e-05	673.48	310.22	1.6832e-05	1.9938e-05	249.17	85.024	113.38	44.808	9.5256e-06	36.419	0.062089	0.11154	0.030656	1206.1	0.0010516	0.0012306	1003.2	431.61	0.0010437	0.001208	429.87	150.34	174.48	66.669	0.0011513	65.363	-55.371	52.132	-62.945	-72.415	39.759	204.722	-73.628	-67.138	246.306	4.624	-69.907	-66.073	-62.722	-58.683	149.892	-62.046	-8191	255	
38917.723	1	1	0	0	0.271	0.049783	0.12636	0.10559	0.21224	0.38585	0.16931	0.31402	0.21283	0.077475	0.11366	0.31912	0.14542	0.21834	0.30837	0.11012	-2.5312	-2.3979	-2.3417	-3.1917	-2.3083	-2.7104	-2.8833	-2.3083	-2.9479	-2.4813	-2.4188	-3.0896	-2.1104	-2.8167	-2.9729	-2.1354	256.385	57.342	145.876	206.143	-10.364	263.507	-68.216	248.219	222.020	192.364	233.982	227.359	191.562	-69.821	103.519	7.091	0.00023881	0.0025034	0.00031848	885.6	1.2376e-05	1.4714e-05	678.21	312.09	7.857e-06	1.9847e-05	249.87	84.679	113.5	44.817	4.7661e-06	35.896	0.063414	0.11521	0.032103	1233.4	0.0011238	0.0013319	1043.2	446.37	0.0011652	0.0013457	449.54	156.85	179.81	68.098	0.0012305	66.449	183.872	-41.965	94.771	-72.641	105.999	72.101	-73.815	-67.085	119.392	-39.940	-69.908	-65.583	-62.727	-58.798	57.365	-61.818	-8191	255	
38917.844	1	1	0	0	0.21405	0.048844	0.176	0.083907	0.21314	0.17693	0.15467	0.053737	0.17117	0.13181	0.078844	0.026078	0.085308	0.41115	0.27815	0.20786	-2.5271	-2.5312	-2.25	-3.1542	-2.2458	-2.8833	-2.9979	-2.2021	-2.9688	-2.575	-2.2479	-3.0563	-2.3854	-2.7125	-2.9437	-2.2896	-33.513	241.417	-7.919	242.183	40.306	0.330	247.561	-52.162	-21.732	271.420	231.278	109.436	9.516	262.323	170.549	205.491	0.00032487	0.001962	0.00047224	885.08	1.4773e-05	2.3606e-05	678.54	311.52	1.4818e-05	1.2256e-05	248.37	83.957	113.41	44.039	8.354e-06	35.442	0.066003	0.11866	0.032758	1241.2	0.0011308	0.0013215	1031.8	441.53	0.0011082	0.001274	437.95	152.09	175.72	66.292	0.0011604	64.417	262.050	94.673	127.948	-72.259	175.214	-70.958	-73.879	-67.162	72.120	150.636	-70.111	-65.600	-62.743	-58.482	162.680	-61.741	-8191	255	
38917.914	1	1	0	0	0.14681	0.07251	0.21581	0.27761	0.059156	0.042486	0.20482	0.10097	0.08845	0.19093	0.26743	0.24121	0.076015	0.15498	0.24426	0.2531	-2.575	-2.4958	-2.2521	-3.1083	-2.3187	-2.5312	-3.0667	-2.1917	-2.9	-2.7896	-2.2417	-3.0604	-2.3187	-2.5208	-3.2042	-2.2062	233.251	192.721	11.766	-59.651	252.255	-73.936	193.775	229.231	-39.196	29.519	-62.457	257.782	200.568	-48.568	-70.574	-62.821	0.00034957	0.0011854	0.00016791	887.8	7.8172e-06	2.8545e-06	672.91	310.78	1.0907e-05	5.4532e-06	249.45	85.388	114.6	44.823	8.0595e-06	36.37	0.062267	0.1115	0.030724	1215.2	0.0010343	0.0011938	993.1	427.96	0.00096782	0.0010966	411.18	142.28	165.94	62.809	0.00091676	59.316	-28.279	8.465	44.176	-72.366	-58.658	99.747	-73.689	-67.337	-32.184	224.710	-69.851	-65.241	-62.875	-58.469	149.386	-61.841	-8191	255	
38918.012	1	1	0	0	0.15754	0.15283	0.18996	0.31541	0.21424	0.2953	0.26291	0.16321	0.21404	0.30506	0.29542	0.20882	0.1952	0.096994	0.22017	0.013402	-2.4437	-2.8396	-2.1292	-3.1375	-2.4417	-2.6104	-3.1646	-2.4396	-2.8958	-3.0042	-2.2729	-3.1604	-2.6396	-2.3229	-3.1917	-2.3354	253.681	134.478	124.505	210.976	31.607	117.228	224.317	191.277	259.126	28.532	148.258	238.306	264.684	-37.835	168.295	164.795	0.00038912	0.0010029	0.00025731	879.18	1.3311e-05	5.8472e-06	674.38	312.03	3.8966e-06	1.1226e-05	254.02	87.867	116.63	46.594	2.8863e-05	38.154	0.048295	0.085345	0.023299	1130	0.00078008	0.00090175	918.51	402.46	0.00075013	0.00086008	381.5	134.07	158.95	61.683	0.00076123	57.337	-81.814	-68.748	-8.528	-72.467	-27.616	255.591	-73.698	-67.144	136.075	265.322	-70.304	-65.743	-62.696	-58.598	253.982	-61.792	-8191	255	
38918.109	1	1	0	0	0.16152	0.24773	0.047444	0.12634	0.16919	0.23469	0.24443	0.3227	0.17991	0.085112	0.28754	0.23829	0.20853	0.26191	0.067088	0.15088	-2.1771	-2.8937	-2.2958	-2.9938	-2.6604	-2.2708	-3.1792	-2.2313	-2.7083	-3.1792	-2.3021	-3.1188	-2.8958	-2.4813	-3.0687	-2.4479	96.947	102.160	227.372	273.108	70.899	237.675	255.902	231.348	-66.978	-53.324	60.200	213.766	27.259	-32.069	-18.900	188.110	0.00016182	0.00038263	0.00021774	879.35	1.3233e-05	1.5871e-05	678.58	314.82	5.6428e-06	1.6381e-05	258.19	89.887	119.07	47.857	5.6494e-06	39.246	0.03957	0.069538	0.018846	1082.5	0.00062623	0.00071816	870.32	387.01	0.00057533	0.00065094	355.69	125.56	151.52	59.461	0.0005697	53.844	40.785	-59.697	-48.886	-72.332	134.456	70.588	-73.449	-66.912	151.762	28.361	-69.822	-65.226	-63.015	-58.619	-21.667	-61.896	-8191	255	
38918.230	1	1	0	0	0.086522	0.35688	0.065488	0.14518	0.29132	0.077754	0.036936	0.19266	0.13562	0.1224	0.25217	0.29261	0.078101	0.27267	0.22264	0.26694	-2.1125	-3.0417	-2.0979	-2.8438	-2.6729	-2.3167	-3.1625	-2.5708	-2.4583	-3.0104	-2.1688	-2.8542	-2.8	-2.1688	-2.8729	-2.5458	201.807	97.950	51.994	127.898	163.057	-34.555	112.390	245.166	-41.304	52.783	102.085	98.650	273.187	211.521	236.700	41.144	0.0001565	0.00067461	0.00029882	873.99	6.8319e-06	8.9604e-06	677.97	315.92	8.0936e-06	7.082e-06	259.28	89.527	118.71	47.557	6.3193e-06	38.602	0.030504	0.054313	0.015055	1044.6	0.00051975	0.00060783	846.46	380.83	0.00053097	0.00061256	352.27	124.44	151.01	59.368	0.00059691	54.315	6.748	48.140	200.387	-72.300	25.071	228.942	-73.450	-66.978	81.773	110.569	-69.601	-65.226	-63.035	-58.594	140.724	-61.840	-8191	255	
38918.324	1	1	0	0	0.25528	0.21888	0.21333	0.1913	0.164	0.11918	0.12444	0.086921	0.11477	0.079418	0.16662	0.044965	0.017226	0.18538	0.12983	0.1652	-2.0312	-3.2	-2.15	-2.9083	-3.0333	-2.0833	-3.0542	-2.6063	-2.3875	-2.9958	-2.3812	-2.7104	-2.9375	-2.1625	-2.9042	-2.5792	259.441	103.363	35.292	48.666	49.822	-18.710	-85.057	167.152	31.024	149.159	150.160	-19.966	44.029	-30.785	217.889	194.989	8.4443e-05	0.00075208	0.00020189	878.11	1.7703e-05	1.883e-05	680.92	314.7	2.1363e-05	9.3502e-06	255.4	87.852	116.45	45.793	1.5324e-05	37.085	0.032757	0.05978	0.016847	1069.5	0.00060089	0.00071695	881.02	391.93	0.00064838	0.00076377	371.94	130.26	156.37	60.318	0.00073866	56.111	8.221	210.975	47.076	-72.130	189.066	62.863	-73.289	-67.086	111.595	249.714	-69.839	-65.374	-63.001	-58.534	-38.275	-61.784	-8191	255	
38918.422	1	1	0	0	0.19202	0.1832	0.087201	0.11435	0.29181	0.15921	0.14784	0.39129	0.04433	0.23379	0.14921	0.086985	0.23925	0.2014	0.12888	0.088816	-1.9188	-3.0083	-2.3104	-2.7708	-3.0083	-2.0604	-3.0542	-2.7979	-2.3708	-3.1896	-2.4021	-2.5792	-3.1229	-2.3312	-2.9083	-2.9792	-5.890	126.973	34.058	258.207	260.872	-37.620	247.812	205.345	141.471	134.980	227.848	160.072	61.753	-80.325	22.682	190.465	0.00019825	0.0001762	0.00031889	888.39	4.331e-06	2.3979e-05	683.2	315.9	1.8683e-05	2.0935e-05	254.48	86.785	116.13	45.301	1.28e-05	36.734	0.040197	0.07276	0.02041	1115.1	0.00071833	0.00085455	922.07	406.42	0.00076291	0.00089668	390.71	136.2	161.77	61.666	0.0008439	58.006	232.641	272.717	-23.207	-72.278	154.447	100.849	-73.522	-67.534	25.045	25.097	-70.490	-65.330	-62.782	-58.744	266.930	-61.747	-8191	255	
38918.516	1	1	0	0	0.10951	0.14747	0.24856	0.072901	0.039179	0.14705	0.071254	0.10347	0.18077	0.1377	0.28416	0.21701	0.16285	0.23416	0.16617	0.11456	-1.7833	-2.9521	-2.4188	-2.4708	-3.0375	-2.4188	-2.8729	-3.0271	-2.2687	-2.9521	-2.6083	-2.4938	-3.1688	-2.2938	-2.8542	-3.0708	-49.697	55.704	58.411	13.497	-19.455	130.992	21.867	178.122	181.238	222.291	166.801	219.508	80.498	250.424	167.088	24.435	0.00023957	0.00098205	0.00029482	890.14	1.3444e-05	1.5268e-05	684.19	315.84	1.039e-05	8.0964e-06	253.73	86.58	115.75	45.298	9.2682e-06	36.11	0.045371	0.081255	0.022558	1135.3	0.00077621	0.00091619	935.23	410.18	0.00080147	0.00093605	394.69	137.7	163.45	62.486	0.00090117	59.207	270.142	273.705	-42.657	-72.264	235.261	9.901	-73.579	-67.067	21.709	123.606	-69.708	-65.316	-62.690	-58.687	264.516	-61.993	-8191	255	
38918.613	1	1	0	0	0.070674	0.2069	0.060259	0.28253	0.2278	0.043078	0.076212	0.24036	0.27618	0.13369	0.19928	0.27897	0.10227	0.19633	0.047297	0.13558	-1.8312	-3.15	-2.5646	-2.675	-3.1312	-2.1979	-2.7875	-3.0396	-2.2938	-2.9875	-2.6437	-2.3542	-3.0583	-2.4333	-2.7646	-3.0938	34.517	-6.894	55.499	270.942	-73.263	13.560	228.723	200.407	80.201	2.127	-55.123	-46.618	199.999	249.586	133.480	-45.717	2.4944e-05	0.0017889	0.00042712	884.26	9.9574e-06	2.2521e-06	684.91	312.69	8.891e-06	9.8809e-06	252.99	85.72	115.44	45.217	1.0445e-06	36.466	0.048834	0.088568	0.024666	1155.9	0.00086295	0.0010252	962.94	419.33	0.00090588	0.0010592	411	143.63	168.59	64.429	0.0010109	62.119	263.303	-44.675	227.897	-72.381	62.233	202.415	-73.492	-67.119	-18.761	8.848	-70.118	-65.552	-62.764	-58.850	155.922	-62.021	-8191	255	
38918.707	1	1	0	0	0.17786	0.082118	0.12447	0.25476	0.29297	0.075509	0.14885	0.055611	0.11888	0.22123	0.22471	0.132	0.19397	0.19578	0.1596	0.16276	-1.9	-3.0687	-2.6875	-2.2458	-2.9708	-2.2	-2.7708	-3.1396	-2.25	-3.1021	-2.8063	-2.3063	-3.1083	-2.3875	-2.6083	-3.0812	152.383	227.610	-61.100	253.517	104.687	31.080	209.465	16.180	170.352	171.553	240.864	-72.827	195.061	-65.722	148.725	157.163	0.00013693	0.0010455	0.00052417	882.54	2.0805e-06	1.3322e-05	678.26	312.17	9.3419e-06	1.533e-05	251.78	86.144	115.11	45.548	1.9902e-05	36.877	0.055392	0.10088	0.028002	1190.2	0.00099051	0.0011764	997.32	431.02	0.0010112	0.0011795	427.72	150.05	174.18	66.389	0.0010812	63.973	197.514	18.293	197.207	-72.235	161.985	-1.893	-73.632	-67.134	227.388	55.762	-69.922	-65.195	-62.725	-58.682	29.130	-61.648	-8191	255	
38918.805	1	1	0	0	0.13556	0.14971	0.083321	0.1156	0.10675	0.33343	0.21507	0.13054	0.12955	0.10984	0.27471	0.099071	0.2785	0.37135	0.055661	0.30231	-1.7437	-2.8583	-2.7583	-2.25	-3.0083	-2.3875	-2.6771	-3.1792	-1.95	-2.7708	-2.8521	-2.1937	-3.0396	-2.6229	-2.2583	-3.0521	216.919	22.603	185.920	55.029	28.652	183.158	239.810	129.342	195.000	42.430	234.951	213.264	210.639	182.637	166.336	-83.677	0.00022961	0.0023595	0.00077925	882.2	1.1871e-05	2.0415e-05	675.92	314.02	2.1207e-05	6.3268e-06	253.48	86.554	116.28	46.425	1.1621e-05	37.422	0.057733	0.10368	0.028522	1187.9	0.00097137	0.0011322	983.25	427.03	0.00095841	0.0011043	417.39	146.45	171.79	66.049	0.0010305	63.391	-28.579	273.269	9.551	-72.329	165.972	32.424	-73.538	-67.160	186.763	58.839	-69.928	-65.557	-62.851	-58.807	-84.392	-61.890	-8191	255	
38918.926	1	1	0	0	0.16306	0.25195	0.17451	0.14961	0.062561	0.13562	0.17039	0.12458	0.27036	0.14662	0.27571	0.072592	0.054785	0.12176	0.076712	0.038551	-1.9583	-2.65	-2.9792	-2.1188	-2.9729	-2.4604	-2.3646	-3.1521	-2.0938	-2.6	-3.0708	-2.2146	-3.0292	-2.8479	-2.1521	-3.0687	161.763	71.355	-20.204	-67.211	28.893	-48.486	208.808	-58.354	89.836	93.734	247.254	182.812	1.947	-33.695	-46.252	125.771	0.00043024	0.001043	0.00065894	877.92	2.5145e-05	8.0992e-06	673.51	311.17	2.2267e-05	1.6667e-05	251.75	85.747	115.85	45.708	2.9151e-05	36.687	0.056065	0.10117	0.028072	1185.4	0.00098607	0.0011613	991.26	430.36	0.0010202	0.0011944	429.28	151.41	176.26	67.596	0.0011606	66.039	-48.024	94.124	-67.986	-72.435	-28.207	82.299	-73.398	-67.147	241.699	-53.753	-69.866	-65.107	-62.588	-58.911	33.958	-62.269	-8191	255	
38919.020	1	1	0	0	0.40299	0.11457	0.21371	0.048006	0.14895	0.1359	0.12156	0.18986	0.20485	0.28246	0.17145	0.12713	0.098088	0.051416	0.20773	0.27616	-1.9021	-2.7375	-2.9917	-2.2083	-2.8583	-2.6583	-2.4458	-3.1667	-2.4146	-2.6063	-2.9771	-2.3729	-2.8271	-2.9542	-2.25	-3.1375	79.060	150.900	14.749	-68.147	228.997	55.234	148.708	-69.059	-24.940	59.255	111.418	-42.841	132.262	-77.670	23.570	-55.299	0.00041746	0.0021888	0.00036172	877.69	6.1423e-06	5.489e-06	679.44	311.25	1.322e-05	1.69e-05	247.2	84.403	113.52	44.569	1.6389e-05	35.834	0.064055	0.11635	0.032538	1237.2	0.0011577	0.0013699	1049.8	450.7	0.0012065	0.0014024	456.46	159.93	183.22	69.163	0.0013044	68.068	-65.430	242.316	-10.692	-72.402	36.180	-74.954	-73.693	-67.109	113.140	142.540	-70.320	-65.411	-62.770	-58.599	67.070	-61.772	-8191	255	
38919.117	1	1	0	0	0.16089	0.29361	0.053473	0.15152	0.12155	0.13263	0.24549	0.18658	0.19212	0.1274	0.16617	0.09814	0.13944	0.070525	0.046459	0.20746	-2.0083	-2.5167	-2.9521	-2.2812	-2.7271	-2.7458	-2.1604	-3.0375	-2.6208	-2.225	-3.1604	-2.4688	-2.8958	-2.9583	-2.1937	-2.8917	230.068	-77.025	17.097	-84.178	177.973	219.493	97.098	259.897	219.928	97.865	172.988	-59.252	211.252	229.300	166.093	225.195	0.000184	0.001282	0.00046271	888.63	1.9962e-05	1.4568e-05	676.94	311.11	3.7017e-05	1.6125e-05	248.17	83.408	112.73	44.101	7.9785e-06	35.509	0.070306	0.12661	0.035269	1269.4	0.0012404	0.0014624	1072.4	457.41	0.0012591	0.0014565	465.12	162.18	184.78	69.563	0.0013519	69.143	60.766	16.798	-22.174	-72.200	259.975	121.987	-73.839	-67.211	111.903	43.241	-69.824	-65.881	-62.938	-58.670	-23.843	-61.843	-8191	255	
38919.215	1	1	0	0	0.098698	0.073421	0.10515	0.13358	0.16261	0.11774	0.18639	0.17164	0.22419	0.21184	0.1572	0.1279	0.31998	0.36921	0.14668	0.06057	-2.3167	-2.3604	-3.1646	-2.4375	-2.775	-2.9917	-2.2104	-3.0625	-2.675	-2.275	-3.1562	-2.3729	-2.6646	-3.0958	-2.1167	-2.9354	137.764	180.263	-75.132	-54.404	162.939	254.391	211.141	-67.238	-49.315	138.379	144.545	152.748	105.672	216.286	27.839	20.319	0.00022787	0.0013207	0.00016077	883.47	1.4731e-05	1.1274e-05	680.05	310.01	2.3185e-05	1.967e-05	244.81	81.832	111.92	43.786	1.5661e-05	34.807	0.072769	0.13102	0.03639	1278.6	0.0012611	0.0014704	1072.3	455.64	0.0012379	0.0014209	456.2	158.43	181.26	68.069	0.001288	66.791	-22.414	73.570	267.523	-72.540	95.903	175.243	-73.449	-67.064	114.959	-58.632	-70.130	-65.759	-62.968	-58.347	-15.942	-61.898	-8191	255	
38919.309	1	1	0	0	0.12368	0.071968	0.061415	0.27237	0.18861	0.073183	0.082617	0.21871	0.17794	0.1686	0.34557	0.17956	0.12242	0.26153	0.24661	0.25283	-2.3	-2.2125	-2.9354	-2.4437	-2.4958	-3.0083	-2.2771	-2.7792	-2.9	-2.3458	-3.2667	-2.5021	-2.3979	-3.0667	-2.0854	-2.8312	1.984	-51.272	204.051	211.529	-61.403	81.488	123.519	-64.089	84.588	228.817	271.696	211.547	176.780	209.435	-43.511	169.601	0.00026162	0.00061033	0.00013329	874.94	1.9821e-05	1.6574e-05	670.77	307.88	2.0289e-05	1.6354e-05	244.63	81.994	111.82	43.651	2.1853e-05	34.773	0.068916	0.12407	0.034398	1250.3	0.0011868	0.0013932	1047	447.51	0.0011894	0.0013735	447.97	155.59	178.68	67.357	0.0012649	66.255	264.534	9.169	275.057	-72.543	265.046	-23.021	-73.714	-66.941	-7.137	268.572	-70.046	-65.394	-62.770	-58.577	113.142	-61.414	-8191	255	
38919.406	1	1	0	0	0.15386	0.076718	0.29055	0.27059	0.1936	0.13207	0.16586	0.32786	0.15768	0.053016	0.509	0.10821	0.31568	0.14286	0.13615	0.19602	-2.4	-2.0687	-3.0771	-2.7042	-2.3042	-3.0938	-2.3292	-2.7479	-2.9229	-2.2979	-2.9917	-2.6917	-2.3375	-3.0833	-2.2125	-2.7167	97.145	162.386	243.472	228.214	247.073	247.908	103.220	243.008	225.850	187.492	217.427	-45.848	269.367	231.666	47.286	-67.368	0.00052629	0.0021703	0.00051122	874.78	1.1018e-05	1.0229e-05	669.65	305.8	2.3616e-05	2.0688e-05	241.79	81.612	111.58	43.383	1.6187e-05	34.9	0.068152	0.1228	0.034178	1243.6	0.0011725	0.0013781	1042	445.22	0.0011834	0.0013689	446.59	155.51	178.81	67.579	0.0012809	66.774	-32.531	52.694	-30.983	-72.212	-39.400	-68.444	-73.645	-66.863	-16.294	112.705	-69.902	-65.492	-63.048	-58.878	111.271	-61.770	-8191	255	
38919.523	1	1	0	0	0.1494	0.07877	0.13033	0.14507	0.13144	0.038339	0.13278	0.3501	0.19777	0.22044	0.1596	0.2613	0.22596	0.12271	0.13161	0.30966	-2.5375	-2.1271	-2.8417	-2.7625	-2.3271	-2.9396	-2.4479	-2.7083	-2.9062	-2.3479	-3.0521	-2.7958	-2.3542	-3.2021	-2.3521	-2.2125	-43.633	63.968	45.124	212.488	-32.891	3.079	109.285	265.129	6.874	270.985	14.830	-47.410	-42.916	-40.545	54.459	188.072	0.00016829	0.00027525	0.00015593	873.33	1.629e-05	2.856e-05	666.49	305.88	1.5849e-05	1.0953e-05	242.89	81.781	111.78	43.782	1.5782e-05	34.874	0.069192	0.12519	0.034899	1253.5	0.0012101	0.0014246	1051.6	448.77	0.0012232	0.0014148	453.3	157.87	181.07	68.553	0.0013154	67.549	72.995	2.251	-57.144	-72.297	-78.773	-32.371	-73.582	-67.077	-43.895	-17.914	-69.731	-65.623	-63.134	-58.534	136.379	-61.978	-8191	255	
38919.621	1	1	0	0	0.062545	0.25229	0.15529	0.13223	0.30034	0.084605	0.25661	0.36116	0.1782	0.05711	0.14088	0.2637	0.20925	0.16141	0.12968	0.2559	-2.7479	-1.9917	-2.7604	-2.8583	-2.2833	-3.0417	-2.5125	-2.4604	-2.9958	-2.2562	-3.0104	-2.7167	-2.325	-3.0875	-2.4896	-2.475	254.194	26.601	112.166	218.423	-25.731	141.072	269.701	258.548	69.198	270.092	-82.657	251.821	238.447	273.745	244.315	62.820	6.5608e-05	0.0011418	0.00058949	872.84	1.2059e-05	1.6913e-05	662.35	305.47	2.2695e-05	1.7353e-05	243.97	82.05	111.93	43.767	3.0471e-05	34.603	0.07068	0.12828	0.035705	1259.6	0.0012277	0.0014391	1051.4	449.04	0.001226	0.0014234	453.58	157.57	180.82	68.434	0.0013086	67.323	12.556	-57.330	-41.793	-72.214	15.412	44.885	-73.724	-67.002	252.956	-42.869	-69.891	-65.918	-62.937	-58.607	27.222	-62.032	-8191	255	
38919.715	1	1	0	0	0.14603	0.34343	0.044159	0.079773	0.21061	0.23063	0.12984	0.3323	0.18535	0.0989	0.033617	0.079569	0.10507	0.12257	0.24759	0.14448	-2.65	-2.1833	-2.6979	-3.1	-2.0458	-3.0354	-2.7021	-2.3625	-3.0667	-2.1937	-2.7667	-2.9562	-2.2417	-3.3771	-2.6771	-2.4271	-80.546	209.456	265.163	-13.085	104.302	-9.248	264.925	-74.518	-72.818	249.397	20.129	210.686	-29.560	-32.205	234.218	29.723	0.00030128	0.0012285	0.00095787	870.74	3.0971e-05	2.3193e-05	658.79	305.59	1.5625e-05	4.2185e-06	241.26	81.967	110.83	43.695	1.2573e-05	34.676	0.070976	0.12893	0.035757	1254.6	0.0012364	0.001459	1054.9	448.98	0.0012368	0.0014345	454.17	158.43	181.27	68.543	0.0013232	67.52	147.029	95.519	247.869	-72.489	-37.866	180.870	-73.580	-67.077	79.461	83.659	-69.880	-65.820	-62.905	-58.650	-28.821	-62.076	-8191	255	
38919.789	1	1	0	0	0.24203	0.12256	0.14213	0.20835	0.19525	0.17369	0.132	0.16531	0.16738	0.083693	0.10825	0.30726	0.37876	0.089929	0.11168	0.14158	-2.725	-2.075	-2.5917	-3.0042	-2.2583	-2.9396	-2.8083	-2.3833	-3.2062	-2.4354	-2.4979	-3.1583	-2.2625	-2.9917	-2.8771	-2.5896	210.950	111.410	101.022	246.750	23.706	59.834	126.114	189.579	105.063	257.491	264.688	268.131	258.308	170.988	-37.152	246.056	0.00015972	0.0010007	0.00082549	868.97	1.4832e-05	1.0775e-05	660.82	303.76	1.4555e-05	1.6097e-05	242.71	81.652	110.91	43.803	1.3575e-05	34.655	0.071335	0.12857	0.035455	1250	0.001219	0.0014355	1050.1	447.51	0.0012337	0.0014372	457.02	159.56	182.75	69.14	0.0013485	68.307	-65.826	246.217	-61.058	-72.368	55.935	245.008	-73.902	-66.970	92.760	28.367	-69.912	-65.299	-62.854	-58.482	31.632	-61.802	-8191	255	
38919.883	1	1	0	0	0.077836	0.022328	0.17284	0.07674	0.15838	0.16846	0.016374	0.22006	0.18821	0.33679	0.33543	0.092998	0.037871	0.13359	0.15174	0.15967	-2.7146	-2.4458	-2.3667	-3.1875	-2.325	-2.7917	-3.0812	-2.3417	-3.1771	-2.4083	-2.5979	-3.1125	-2.2604	-2.8083	-2.9771	-2.2083	91.529	241.542	106.756	-37.688	165.050	120.369	-33.879	216.255	140.326	36.908	254.146	190.435	272.482	254.033	116.248	-10.076	0.00031188	0.0019709	0.00010362	873.99	1.6536e-05	1.0241e-05	665.46	306.55	2.0071e-05	5.7795e-06	245.76	82.027	111.54	43.935	8.269e-06	35.12	0.073021	0.131	0.036274	1264.8	0.001252	0.0014661	1058.7	451.96	0.001249	0.0014415	456.29	158.85	181.45	68.502	0.0012791	66.972	-67.809	44.351	128.692	-72.480	43.316	-7.266	-73.776	-67.327	218.692	161.806	-69.844	-65.667	-62.669	-58.387	114.245	-62.188	-8191	255	
38920.004	1	1	0	0	0.13325	0.038583	0.27718	0.12727	0.23527	0.077716	0.24449	0.37666	0.27838	0.23054	0.0825	0.11877	0.088344	0.2651	0.33182	0.26703	-2.5646	-2.4208	-2.5375	-3.25	-2.3958	-2.85	-3.0229	-2.2917	-2.9396	-2.6813	-2.5458	-3.2917	-2.3312	-2.7458	-2.8583	-2.2062	265.639	94.693	179.237	-78.735	48.486	225.389	225.399	215.260	104.216	114.788	221.816	257.459	131.405	251.819	267.019	145.078	0.0003697	0.0020143	0.00029659	874.92	1.1493e-05	2.0862e-05	665.14	306.35	5.9576e-06	2.8455e-05	241.74	82.459	112.23	44.2	2.854e-06	35.022	0.068983	0.12361	0.034186	1244.6	0.0011865	0.0013956	1044.3	446.85	0.0012065	0.0013817	446.52	156.24	179.36	68.075	0.0012652	66.666	-36.311	149.107	253.672	-72.347	197.880	32.552	-73.854	-66.854	-83.048	46.379	-69.841	-65.765	-62.700	-58.722	265.860	-62.157	-8191	255	
38920.102	1	1	0	0	0.10281	0.11268	0.03243	0.26556	0.20322	0.29088	0.24573	0.31342	0.089378	0.189	0.065962	0.13053	0.16514	0.097171	0.14889	0.097583	-2.5979	-2.8646	-2.1813	-3.025	-2.3583	-2.525	-3.0771	-2.2479	-2.8792	-2.7875	-2.3187	-3.1312	-2.5458	-2.5854	-3.1229	-2.1917	0.485	80.383	92.857	185.158	211.182	3.190	206.467	182.975	89.297	200.307	124.321	-22.948	256.466	208.777	-84.079	47.267	0.00024651	0.0014162	0.00054145	872.78	3.0903e-05	2.9753e-06	659.23	305.59	3.7575e-06	1.4162e-05	241.53	82.431	111.68	43.863	1.1002e-05	34.739	0.068381	0.12268	0.034039	1241.9	0.0011937	0.0014043	1038.3	444.3	0.0011817	0.001355	442.66	154.53	177.9	67.39	0.0012442	66.147	238.714	174.948	-30.309	-72.656	228.223	230.020	-73.603	-66.891	250.877	81.341	-69.406	-65.701	-62.595	-58.497	222.780	-62.255	-8191	255	
38920.195	1	1	0	0	0.091183	0.14422	0.10941	0.28219	0.05601	0.1379	0.12825	0.25923	0.075569	0.06251	0.061836	0.14329	0.095553	0.19335	0.13121	0.11051	-2.375	-2.7687	-2.1562	-3.1896	-2.6063	-2.275	-3.1937	-2.3104	-2.6875	-2.8979	-2.2687	-2.9125	-2.6417	-2.3083	-2.9833	-2.4021	177.674	-76.792	274.019	204.870	214.153	-39.788	261.066	-77.488	-66.618	-27.419	-26.368	157.795	-3.524	242.419	99.989	253.422	0.00025406	0.0013178	0.00041701	869.42	2.488e-05	1.4588e-05	662.26	305.69	9.5146e-06	1.9234e-05	243.29	82.858	112.02	44.21	1.2395e-05	35.419	0.06809	0.12272	0.034221	1244.1	0.0011904	0.0013897	1036.7	442.95	0.0011676	0.0013314	439.01	153.34	175.95	66.652	0.0011681	64.491	254.472	15.452	59.060	-72.567	74.085	48.539	-73.562	-66.984	32.611	23.010	-69.686	-65.492	-62.818	-58.491	73.273	-61.773	-8191	255	
38920.316	1	1	0	0	0.10055	0.11821	0.095878	0.28711	0.025098	0.34205	0.26318	0.20883	0.28262	0.15233	0.14499	0.25516	0.2321	0.21493	0.14385	0.35791	-2.3208	-2.8854	-2.0458	-3.1979	-2.4479	-2.4417	-3.3396	-2.2562	-2.6167	-3.1125	-2.2667	-3.0375	-2.8583	-2.3875	-3.1646	-2.2958	-25.065	270.454	97.021	244.515	227.006	90.447	101.854	-59.597	245.930	124.748	2.375	-77.289	-58.202	196.470	-46.838	-61.561	0.00035069	0.00088014	0.00025368	876.23	1.664e-05	1.8288e-05	668.02	307.65	1.5207e-05	9.9252e-06	246.3	83.414	111.97	44.509	2.2958e-05	35.415	0.062715	0.11304	0.03146	1219.6	0.0011034	0.0013021	1025	441.04	0.0011442	0.0013289	444.11	155.53	178.68	68.075	0.0012473	66.814	272.219	5.598	17.700	-72.382	188.270	117.671	-73.784	-67.124	109.133	56.286	-69.888	-65.507	-62.518	-58.632	217.864	-61.815	-8191	255	
38920.391	1	1	0	0	0.098611	0.083437	0.17338	0.21176	0.094714	0.21415	0.050107	0.2796	0.18138	0.060418	0.11614	0.04467	0.30766	0.059893	0.18178	0.17275	-2.2438	-3.025	-2.2292	-2.9104	-2.7833	-2.2146	-2.9375	-2.4521	-2.5354	-3.0979	-2.3083	-2.8187	-3.0021	-2.225	-3.1542	-2.5563	96.539	58.504	49.921	-82.694	192.232	41.482	260.300	-66.078	-71.606	-76.606	255.249	241.339	259.279	125.860	208.561	-28.594	0.00028429	0.0025524	0.00049668	873.78	1.8594e-05	1.7205e-05	665.43	308.86	2.4804e-05	1.9108e-05	243.32	82.429	111.42	43.935	1.7723e-05	34.875	0.067525	0.12267	0.034351	1252.4	0.0012033	0.0014291	1056.5	452.95	0.0012438	0.0014485	458.88	160.45	183.26	69.4	0.0013688	69.102	255.042	1.989	255.266	-72.247	-63.772	114.728	-73.428	-67.131	-21.571	-17.068	-69.928	-65.610	-62.673	-58.455	257.051	-61.612	-8191	255	
38920.484	1	1	0	0	0.081656	0.33658	0.19261	0.17389	0.13867	0.085859	0.30001	0.36612	0.24949	0.24846	0.20994	0.1622	0.073401	0.14052	0.10652	0.18739	-2.0854	-2.8688	-2.3479	-2.8229	-2.8396	-2.3667	-2.9354	-2.8021	-2.5229	-3.1083	-2.5208	-2.7771	-2.9562	-2.2542	-3.2208	-2.7458	31.814	33.144	230.030	250.410	-84.448	20.050	-84.808	201.546	143.472	2.470	-67.516	-79.220	256.076	205.749	40.583	72.059	0.00011457	0.0011204	0.00025028	876.44	1.814e-05	3.3135e-05	668.3	305.91	1.6824e-05	1.5813e-05	243.11	82.022	111.72	43.798	5.7091e-06	34.81	0.074629	0.13487	0.037797	1285.5	0.0013077	0.0015433	1081.8	458.68	0.0012967	0.0014984	464.58	161.85	184.41	69.578	0.0013758	69.099	255.827	153.489	-41.010	-72.267	139.130	36.638	-73.745	-67.049	41.859	-12.830	-69.704	-65.414	-62.674	-58.555	6.255	-61.880	-8191	255	
38920.605	1	1	0	0	0.098024	0.2443	0.054847	0.1679	0.030745	0.20849	0.074721	0.1535	0.17058	0.21857	0.048471	0.13794	0.046088	0.28569	0.12584	0.076094	-1.8	-3.1521	-2.2104	-2.6833	-3.125	-2.15	-2.9313	-2.9333	-2.2958	-3.1729	-2.5292	-2.75	-3.1479	-2.225	-2.9188	-3.0042	-56.107	179.045	218.469	222.450	138.206	73.834	182.509	183.107	226.556	258.044	-42.854	156.478	243.633	206.798	256.045	30.388	0.00046235	0.0029038	0.00049439	871.25	2.0752e-05	2.2204e-06	669.64	306.37	9.0079e-06	1.6117e-05	245.61	82.778	111.59	43.955	2.7807e-05	35.204	0.074177	0.13422	0.037333	1279.5	0.0012944	0.0015266	1081.1	458.51	0.0013012	0.0015088	469.6	164.02	186.51	70.52	0.0014228	70.65	259.033	265.114	184.395	-72.238	259.651	8.015	-73.642	-67.154	-80.356	204.648	-69.898	-65.310	-62.912	-58.486	35.306	-61.408	-8191	255	
38920.699	1	1	0	0	0.11628	0.23736	0.12436	0.45118	0.18121	0.075739	0.2692	0.28844	0.087793	0.088251	0.12593	0.069435	0.23977	0.21942	0.30863	0.26473	-1.9042	-2.9938	-2.3417	-2.4271	-3.1229	-2.2708	-2.9104	-2.8667	-2.3396	-3.1646	-2.6458	-2.5771	-3.0563	-2.3396	-2.8688	-2.9958	125.447	31.062	200.309	269.161	-34.689	-12.515	-81.248	239.276	-39.465	102.971	58.929	73.744	218.940	-74.321	-34.653	195.486	0.00011882	0.00027951	0.00022342	884.24	2.6569e-05	1.6867e-05	675.15	308.62	1.8809e-05	1.5201e-05	244.91	80.947	111.41	43.018	2.3984e-05	33.732	0.07798	0.1429	0.040014	1316.6	0.001413	0.0016895	1138.1	482.06	0.0015266	0.0018034	514.99	180.43	202.98	76.188	0.0018019	79.001	-40.879	246.836	113.734	-72.022	-30.963	253.794	-74.003	-67.185	0.248	27.041	-70.104	-65.395	-62.953	-58.589	142.761	-62.241	-8191	255	
38920.797	1	1	0	0	0.13869	0.16714	0.067052	0.17254	0.016731	0.35493	0.1137	0.2987	0.013769	0.10916	0.061705	0.18736	0.08625	0.14598	0.15694	0.12446	-1.9146	-2.8917	-2.6437	-2.3708	-3.1188	-2.3396	-2.7417	-3.1188	-2.3125	-2.9792	-2.7583	-2.3542	-3.1875	-2.4313	-2.5646	-2.9854	253.172	161.073	8.513	272.066	-60.635	102.358	-74.143	167.489	138.163	-80.272	144.794	173.515	178.702	240.929	-74.306	187.747	0.00023186	0.0023514	0.00081445	883.71	2.2349e-05	1.6957e-05	679.04	307.65	3.4034e-06	6.6075e-06	240.65	78.651	109.38	41.753	1.212e-05	32.939	0.099772	0.18389	0.051823	1457.7	0.0018722	0.0022463	1288.3	533.97	0.0019925	0.0023341	586.9	204.17	224.23	82.583	0.0022233	87.688	113.632	113.798	-68.710	-72.242	74.757	37.402	-73.902	-67.367	17.831	-83.345	-70.186	-65.741	-62.731	-58.512	70.159	-61.693	-8191	255	
38920.918	1	1	0	0	0.077392	0.37304	0.25893	0.31057	0.040381	0.22008	0.16319	0.026519	0.21253	0.16167	0.12604	0.30628	0.25726	0.15017	0.24666	0.24256	-1.8354	-2.7396	-2.6625	-2.5354	-3.0979	-2.4625	-2.6833	-3.0979	-2.1688	-2.9938	-2.9437	-2.3229	-3.0729	-2.4458	-2.5167	-3.1521	-48.580	30.270	-18.997	212.838	213.750	39.682	144.032	1.899	185.401	246.091	216.222	177.573	264.768	75.529	215.165	260.519	0.00013886	0.0033059	0.0012478	894.8	2.6736e-05	3.3546e-05	682.14	308.83	2.958e-06	1.7814e-05	243.21	77.533	108.72	41.467	1.5083e-05	32.809	0.12149	0.22081	0.06133	1555.4	0.0021515	0.0025445	1365.8	559.74	0.0021977	0.002539	611.45	210.52	227.76	83.259	0.0022341	87.142	145.734	197.234	-63.800	-72.434	-19.312	44.250	-73.768	-67.361	210.309	150.198	-70.127	-65.718	-62.634	-58.683	185.207	-62.121	-8191	255	
38921.016	1	1	0	0	0.21631	0.19255	0.25429	0.13743	0.18192	0.35175	0.10851	0.091837	0.16946	0.073181	0.12192	0.19489	0.24544	0.046655	0.20614	0.088051	-1.7479	-2.8688	-2.7188	-2.4646	-2.9521	-2.6104	-2.5125	-3.1083	-2.2167	-2.7042	-2.7667	-2.2854	-3.0167	-2.6354	-2.2667	-3.1854	201.291	227.286	235.219	130.078	142.454	114.120	178.219	272.623	155.791	114.474	181.209	31.770	258.447	-54.169	136.656	19.359	0.00058537	0.003689	0.00082527	889.69	1.4643e-05	1.0332e-05	678.3	305.8	2.3135e-05	2.4024e-05	243.86	78.907	109.24	42.262	1.3751e-05	33.34	0.11856	0.2165	0.059415	1521.4	0.0020281	0.0023767	1316.5	539.51	0.0020144	0.0023232	581.24	200.7	219.69	80.868	0.0020822	84.271	-42.929	-23.400	84.386	-72.552	266.227	273.139	-73.727	-67.199	-64.017	27.429	-69.911	-65.866	-62.745	-58.590	170.030	-61.951	-8191	255	
38921.086	1	1	0	0	0.11941	0.14054	0.22786	0.16105	0.12749	0.18219	0.12946	0.19612	0.12085	0.19533	0.10684	0.15049	0.078578	0.16053	0.20525	0.06283	-1.8458	-2.7792	-2.8229	-2.425	-2.8229	-2.7792	-2.5667	-3.125	-2.3271	-2.9083	-3.0667	-2.15	-2.8833	-2.725	-2.3208	-3.2375	131.883	-2.703	219.803	251.147	50.327	-83.034	-43.440	179.682	224.499	-24.950	83.368	182.277	-12.815	195.967	122.471	245.510	3.7262e-05	0.00088665	0.00025612	892.45	1.9552e-05	1.9498e-05	677.2	309.59	8.6778e-06	2.2145e-05	241.79	79.07	109.66	42.47	2.6395e-05	33.243	0.11067	0.19717	0.054012	1468.3	0.0018667	0.0021821	1264.4	522.57	0.0018452	0.0021182	552.61	191.59	211.57	78.233	0.001936	81.03	-70.047	2.052	-49.129	-72.486	168.932	225.408	-73.655	-66.961	262.586	23.996	-69.642	-65.658	-62.631	-58.624	163.355	-61.768	-8191	255	
38921.180	1	1	0	0	0.088392	0.24146	0.060112	0.095198	0.026501	0.086156	0.12624	0.30553	0.16207	0.29129	0.11003	0.23455	0.16132	0.10593	0.18003	0.12442	-1.9312	-2.4458	-2.9708	-2.3167	-2.9333	-2.9708	-2.3354	-3.1896	-2.4542	-2.5417	-2.9729	-2.2229	-2.9854	-2.8417	-2.2458	-3.2208	85.136	-78.433	-60.381	218.549	42.617	265.484	261.357	255.048	75.768	-22.935	108.411	163.771	214.475	240.277	239.965	-26.888	0.00030463	0.0031828	0.00074156	887.35	2.1195e-05	9.264e-06	675.98	310.33	5.4749e-06	1.9179e-05	242.63	79.832	110.17	42.335	3.2897e-05	33.559	0.10497	0.18874	0.052211	1449.5	0.0017908	0.0020839	1226.5	509.18	0.0016974	0.0019142	518.25	178.18	198.95	73.475	0.0016522	74.596	202.401	64.987	64.776	-72.579	9.313	191.121	-73.686	-66.997	81.287	15.747	-70.376	-65.630	-62.191	-58.416	213.924	-61.755	-8191	255	
38921.301	1	1	0	0	0.052666	0.29568	0.42243	0.14252	0.065229	0.14444	0.18331	0.081623	0.229	0.11991	0.20209	0.23719	0.27485	0.094655	0.04115	0.16709	-2.225	-2.3333	-3.0896	-2.5187	-2.7	-2.8646	-2.2042	-3.2354	-2.5208	-2.3688	-3.1729	-2.4146	-2.8125	-2.9813	-1.9312	-3.0333	34.584	262.488	81.433	227.587	259.263	11.998	-29.005	99.864	217.363	-75.576	-58.534	-5.144	228.772	-3.161	105.911	164.834	0.00037599	0.0033584	0.00013694	883.78	3.9367e-05	1.8256e-05	671.7	307.51	7.8506e-06	1.5344e-05	241.94	79.868	111.02	43.023	2.1479e-05	34.361	0.090008	0.16175	0.044861	1367.7	0.0015704	0.0018485	1173.4	495.03	0.0016385	0.0019038	525.22	183.18	204.29	75.882	0.0017593	77.772	205.005	38.331	11.687	-72.437	99.956	35.007	-73.862	-67.103	-31.440	159.760	-70.182	-65.412	-62.743	-58.445	206.904	-61.990	-8191	255	
38921.398	1	1	0	0	0.13815	0.091175	0.12004	0.17118	0.16123	0.1739	0.099679	0.11618	0.15277	0.047902	0.26665	0.099264	0.14085	0.062323	0.23373	0.17725	-2.2229	-2.3812	-3.0938	-2.3375	-2.6083	-2.9771	-2.1708	-3.2	-2.7771	-2.1771	-3.0479	-2.4042	-2.3917	-3.0958	-2.1521	-2.8	-82.378	10.294	155.229	83.468	55.845	-29.849	-73.409	155.344	-84.716	-54.743	144.134	165.588	252.843	-53.034	156.014	242.949	0.00029626	0.00089482	2.2021e-05	872.78	7.3515e-06	1.4794e-05	670.32	307.99	5.0344e-06	1.497e-05	243.34	82.362	113.12	43.807	1.686e-05	35.104	0.093536	0.16632	0.045651	1359.5	0.0015382	0.0017805	1144.1	483.18	0.0014967	0.0017211	500.19	174.56	196.15	73.634	0.0015847	74.73	201.491	169.903	266.595	-72.211	220.579	-59.413	-73.826	-67.022	105.030	176.143	-69.764	-65.142	-62.524	-58.654	244.306	-61.937	-8191	255	
38921.492	1	1	0	0	0.092595	0.25391	0.089714	0.29512	0.13095	0.15559	0.15274	0.039358	0.42828	0.059272	0.27695	0.21504	0.10537	0.14811	0.15264	0.15628	-2.3167	-2.0104	-3.0729	-2.4875	-2.3979	-3.0187	-2.3021	-2.8458	-2.8083	-2.2687	-3.1063	-2.5021	-2.4792	-3.0417	-2.3604	-2.8521	-75.889	119.613	186.517	222.631	150.045	47.610	131.033	256.335	152.436	203.959	256.618	190.955	34.864	269.149	-53.170	181.000	0.00035279	0.00033208	0.00039933	875.59	2.3466e-05	6.0429e-06	669.35	309.17	2.8711e-05	1.7963e-05	245.78	82.504	112.45	43.981	2.5025e-05	34.775	0.08522	0.15396	0.042876	1336.8	0.0014921	0.0017604	1146.5	486.28	0.0015274	0.0017781	512.17	179.37	201.06	75.745	0.0017017	77.282	193.698	140.272	51.456	-72.339	208.769	16.245	-73.448	-67.053	165.144	-62.516	-69.989	-65.385	-62.919	-58.406	151.351	-62.228	-8191	255	
38921.590	1	1	0	0	0.2082	0.37597	0.31219	0.36747	0.26181	0.26685	0.14822	0.12036	0.19244	0.093227	0.2525	0.070116	0.1454	0.25351	0.31696	0.099494	-2.4958	-2.2042	-3.0521	-2.8063	-2.2583	-3.1688	-2.4021	-2.6208	-2.8312	-2.4333	-2.9167	-2.5458	-2.3646	-3.1354	-2.3187	-2.5625	178.979	-40.273	124.682	164.915	263.502	7.322	230.629	225.921	205.793	181.827	132.991	145.562	90.218	69.291	44.388	140.534	0.00015876	0.0017629	0.00055347	881.85	1.6291e-05	2.8463e-05	670.06	309.24	8.5034e-06	2.0102e-05	243.01	79.647	110.46	42.864	2.5633e-05	34.098	0.092628	0.16894	0.047539	1394.5	0.0016824	0.0020062	1217.6	512.26	0.0017747	0.0020871	556.58	195.45	216.58	80.831	0.00206	84.886	212.031	-83.844	-55.492	-72.528	195.614	265.804	-73.658	-66.799	17.640	-25.853	-70.148	-65.616	-63.037	-58.641	33.695	-61.468	-8191	255	
38921.684	1	1	0	0	0.029418	0.10348	0.18953	0.21407	0.162	0.13057	0.082717	0.076325	0.15859	0.10931	0.23472	0.053347	0.17519	0.18494	0.15278	0.35737	-2.6021	-2.2583	-3.0396	-2.8229	-2.425	-3.0521	-2.7	-2.6417	-3	-2.2396	-3.1104	-2.6729	-2.5479	-3.0333	-2.5083	-2.6104	77.631	262.423	209.700	142.300	119.819	62.433	215.151	215.124	-77.518	-28.167	-46.156	123.273	223.002	265.661	-25.414	266.117	0.00011098	0.003711	0.00023123	879.37	4.1372e-06	1.5462e-05	667.59	308.78	9.8958e-06	6.4865e-06	242.28	80.412	109.53	42.848	2.1607e-05	33.834	0.11118	0.20103	0.05577	1475.5	0.0019096	0.0022449	1276.7	528.49	0.0019116	0.0022192	571.27	197.58	217.13	80.759	0.0020498	84.629	-64.814	185.966	-62.073	-72.742	124.028	264.887	-74.014	-67.257	238.564	272.088	-69.979	-65.688	-62.870	-58.289	174.378	-61.743	-8191	255	
38921.781	1	1	0	0	0.071186	0.14208	0.073296	0.44767	0.29048	0.33168	0.17751	0.42358	0.15898	0.23492	0.14244	0.21078	0.22137	0.26325	0.09427	0.22957	-2.4917	-2.3354	-2.8167	-2.9729	-2.2146	-3.1354	-2.6125	-2.4375	-3.0458	-2.4188	-2.6771	-2.8875	-2.4021	-3.1833	-2.4208	-2.6	209.121	84.197	91.456	-70.673	172.805	-80.619	24.831	227.326	204.693	12.728	-81.432	253.831	191.489	212.864	-55.708	151.764	0.00028402	0.00092821	0.00064987	887.57	2.7773e-05	1.109e-05	675.88	306.85	3.454e-05	2.1056e-05	242.64	80.348	111.22	42.986	2.8557e-05	34.029	0.11059	0.20002	0.055233	1469.5	0.0018913	0.0022139	1264.2	521.69	0.0018454	0.002133	557.96	193.67	214.01	79.777	0.0019798	83.116	203.601	22.095	97.647	-72.489	264.379	19.469	-73.455	-67.222	-71.980	38.526	-70.260	-65.704	-62.837	-58.617	13.424	-61.872	-8191	255	
38921.879	1	1	0	0	0.16398	0.12969	0.055305	0.19846	0.11309	0.084046	0.19753	0.32372	0.10282	0.10012	0.22129	0.1168	0.036139	0.14652	0.16268	0.44278	-2.7417	-2.2167	-2.7021	-3.1146	-2.3146	-3.0417	-2.7396	-2.4604	-3.2021	-2.2021	-2.5646	-3.0625	-2.325	-3.1521	-2.8729	-2.5417	200.233	2.850	177.875	274.642	219.383	-68.388	8.167	224.570	157.209	55.038	227.188	146.183	39.947	49.175	1.883	218.472	0.00038049	0.0016216	0.00081752	882.81	3.5593e-05	1.3967e-05	672.26	310.46	1.0786e-05	5.0532e-06	242.41	80.219	110.84	42.915	1.3732e-05	33.735	0.1074	0.19479	0.05411	1465.7	0.0018808	0.0022249	1266.3	526.18	0.0018772	0.0021609	559.82	193.77	213.8	79.154	0.0019355	81.237	252.078	14.298	262.820	-71.915	238.232	130.067	-73.990	-67.112	14.148	79.134	-69.679	-65.729	-62.820	-58.653	240.995	-61.808	-8191	255	
38921.996	1	1	0	0	0.19601	0.15766	0.4367	0.08849	0.16081	0.1649	0.30427	0.34756	0.11267	0.11415	0.33312	0.15303	0.20772	0.24359	0.086604	0.22476	-2.8792	-2.3167	-2.5396	-3.1458	-2.1729	-2.9375	-2.975	-2.3354	-3.0542	-2.4625	-2.6562	-3.0042	-2.3	-2.9625	-2.6854	-2.3208	-72.181	-11.758	268.287	258.807	91.407	-52.888	171.230	223.643	-18.778	52.787	230.858	62.531	226.666	252.977	88.287	77.878	0.00029755	0.0028741	0.00054619	881.1	2.297e-05	1.4431e-05	670.48	307.12	8.0718e-06	2.3688e-05	239.99	80.223	111.04	42.959	1.0217e-05	34.175	0.10276	0.18398	0.05049	1416.4	0.0017145	0.0019944	1196	498.77	0.0016478	0.0019007	520.66	180.92	202.61	75.47	0.0017294	76.588	-58.198	23.538	71.899	-72.480	239.804	203.176	-73.848	-67.240	244.382	-31.188	-70.090	-65.352	-62.485	-58.488	208.189	-62.138	-8191	255	
38922.094	1	1	0	0	0.12517	0.29202	0.048668	0.19554	0.25077	0.19574	0.25609	0.16104	0.15739	0.05752	0.11227	0.11078	0.11742	0.15394	0.099236	0.21324	-2.7479	-2.5563	-2.3396	-3.2354	-2.3688	-2.8917	-2.9854	-2.2646	-2.85	-2.6542	-2.2354	-3.0896	-2.475	-2.8917	-3.075	-2.1917	35.709	229.497	230.878	12.361	65.458	191.262	-42.577	182.543	189.757	-2.705	213.610	241.677	12.969	5.191	202.422	154.019	0.00014271	0.00048499	0.0001654	880.94	2.3346e-05	1.612e-05	667.8	308.02	1.8644e-05	2.4455e-05	243.49	80.233	109.86	42.729	5.1443e-06	33.803	0.093837	0.16983	0.047197	1388.3	0.0016439	0.0019374	1189.2	499.11	0.0016607	0.0019139	524.03	182.24	203.71	75.882	0.0017841	78.131	-79.509	190.409	8.827	-72.356	176.505	104.904	-73.908	-66.725	-38.416	84.645	-69.953	-65.578	-62.723	-58.428	127.794	-61.697	-8191	255	
38922.191	1	1	0	0	0.046324	0.079754	0.2815	0.34919	0.16312	0.17402	0.23865	0.24841	0.051763	0.14795	0.21982	0.26489	0.29919	0.12022	0.2399	0.19514	-2.6292	-2.6604	-2.425	-3.1771	-2.2896	-2.6521	-3.0792	-2.3771	-2.9396	-2.7812	-2.4583	-3.1854	-2.4313	-2.7292	-2.9979	-2.2604	4.679	104.315	261.932	168.979	265.205	76.551	208.152	217.121	-79.772	110.837	213.220	222.524	-11.174	-40.066	-66.906	208.110	0.00017391	0.00097704	0.00038346	879.17	2.3983e-05	1.0601e-05	672.47	309.45	7.4678e-06	1.8666e-05	243.1	79.495	109.68	42.867	1.8963e-05	33.235	0.097907	0.17734	0.049661	1418	0.0017446	0.0020576	1224.4	512.59	0.0017776	0.0020586	547.19	190.4	210.86	78.124	0.0018998	80.259	-78.868	159.267	-22.047	-72.467	22.669	169.288	-73.696	-66.904	-65.414	224.257	-70.252	-65.249	-62.439	-58.514	-16.521	-62.130	-8191	255	
38922.285	1	1	0	0	0.14601	0.09076	0.14631	0.44938	0.096459	0.086144	0.16293	0.31441	0.23913	0.17135	0.2383	0.10989	0.0607	0.32035	0.22128	0.29413	-2.5479	-2.6917	-2.1979	-3.0896	-2.3417	-2.3479	-3.0083	-2.3625	-2.7729	-2.8979	-2.2646	-3.2229	-2.5292	-2.5104	-2.9479	-2.3021	69.064	265.229	10.329	166.925	-63.239	68.436	196.992	253.063	-38.038	269.587	153.493	-34.870	-59.838	-76.346	238.750	-46.926	0.0002356	0.0013543	0.00026222	882.88	5.4892e-06	8.7169e-06	665.33	307.46	1.8967e-05	9.0523e-06	239.74	79.704	110.2	42.721	1.5616e-05	33.857	0.10151	0.18068	0.049324	1408.8	0.0016886	0.0019618	1187.9	497.19	0.0016384	0.0018654	513.13	178.12	199.23	73.887	0.0016446	73.975	-26.253	24.509	-18.058	-72.280	242.110	-72.065	-73.889	-67.248	229.912	-12.305	-70.100	-65.217	-62.660	-58.620	200.046	-61.818	-8191	255	
38922.383	1	1	0	0	0.19718	0.10752	0.048701	0.070504	0.12354	0.18399	0.11658	0.39436	0.14418	0.069072	0.1981	0.14933	0.41222	0.18744	0.046557	0.37117	-2.4062	-2.9062	-2.2417	-2.9792	-2.4458	-2.1667	-3.2167	-2.275	-2.6	-2.9104	-2.1667	-2.9188	-2.8479	-2.3375	-2.9958	-2.3042	65.714	38.328	-32.239	239.769	145.026	-62.756	183.495	229.371	26.077	64.007	115.555	261.673	94.571	217.533	-76.140	193.408	0.00011811	0.00043244	0.00017943	874.83	1.2006e-05	5.8978e-06	662.76	304.52	1.0748e-05	1.5429e-05	239.98	81.173	110.37	43.303	7.2682e-06	34.535	0.086613	0.1539	0.042093	1324.5	0.00142	0.0016314	1092.6	462.83	0.00133	0.0015087	460	159.92	181.98	68.438	0.0013191	67.191	170.997	137.938	34.089	-72.331	-58.579	92.411	-73.765	-67.080	11.385	188.302	-70.001	-65.464	-62.677	-58.754	-14.445	-62.069	-8191	255	
38922.480	1	1	0	0	0.11413	0.17253	0.041478	0.19973	0.16481	0.15364	0.17982	0.17503	0.24051	0.042033	0.32466	0.14073	0.20016	0.22673	0.068538	0.051932	-2.3208	-3.075	-2.0167	-3.0917	-2.75	-2.2604	-3.1583	-2.3875	-2.7562	-3.0563	-2.2083	-3.0292	-2.8854	-2.2979	-3.2229	-2.5771	195.080	46.859	-9.851	265.816	192.237	-60.580	176.124	150.089	93.164	176.570	263.555	-6.692	263.641	171.432	76.359	0.283	0.00019627	0.0006041	0.00051236	869.85	1.7347e-05	1.1974e-05	659.43	307.21	1.2665e-05	1.0491e-05	242.1	81.031	111.62	43.626	1.5931e-05	34.647	0.070661	0.12667	0.035099	1250.3	0.0012073	0.0014155	1041.9	448.97	0.0012144	0.0014045	450.83	157.68	181.11	68.536	0.0013185	67.541	251.679	92.093	-4.080	-72.528	82.098	-17.791	-73.668	-66.922	71.557	149.731	-70.192	-65.361	-62.773	-58.366	251.487	-62.158	-8191	255	
38922.598	1	1	0	0	0.11446	0.14035	0.038919	0.10655	0.12757	0.061516	0.22126	0.17702	0.20395	0.056621	0.067903	0.16503	0.25261	0.16225	0.056845	0.1204	-2.1333	-2.9521	-2.0917	-2.9104	-2.8146	-2.2333	-3.1854	-2.6646	-2.3146	-3.1437	-2.2188	-2.8	-2.9875	-2.2667	-2.8833	-2.4188	-82.162	148.972	169.125	264.113	26.150	206.993	170.464	212.767	52.204	51.477	-16.834	256.591	271.977	166.546	179.624	252.385	0.00015396	0.00075257	0.00080992	873.4	3.7703e-05	2.3859e-06	662.09	307.66	1.3451e-05	1.1784e-05	241.8	81.936	111.88	44.154	2.0946e-05	34.996	0.070647	0.12674	0.035133	1251	0.001198	0.0014014	1041	447.79	0.001195	0.0013824	447.92	156.13	179.71	68.076	0.0012613	66.121	-0.663	156.205	156.321	-72.416	159.393	182.368	-73.503	-67.037	240.100	181.091	-70.022	-65.203	-62.822	-58.702	129.619	-62.180	-8191	255	
38922.695	1	1	0	0	0.099602	0.19123	0.067387	0.11889	0.0085922	0.16115	0.36313	0.23757	0.20753	0.091627	0.12226	0.03854	0.19321	0.047197	0.14526	0.22387	-1.9958	-3.0125	-2.2354	-2.775	-2.9729	-2.1729	-2.9792	-2.6479	-2.1479	-3.0917	-2.3083	-2.5375	-2.9167	-2.2521	-3.025	-2.8354	199.772	-3.171	139.562	-58.276	89.260	217.083	123.121	236.451	117.237	252.934	137.920	-2.566	244.568	180.752	91.570	-55.240	0.00012933	0.00045719	0.00047146	869.42	8.5039e-06	1.24e-05	656.21	307.2	1.2827e-05	1.3194e-05	242.16	81.834	112.71	44.53	4.3953e-06	35.075	0.066744	0.1193	0.032784	1219.3	0.0011042	0.0012904	1005	435.06	0.0010927	0.0012713	430.95	151.23	176.03	67.29	0.0012221	65.789	258.277	-51.578	32.231	-72.201	112.162	-12.361	-73.588	-66.879	47.101	100.162	-69.729	-65.236	-62.593	-58.726	-33.863	-61.769	-8191	255	
38922.789	1	1	0	0	0.1288	0.18375	0.12784	0.27651	0.22376	0.12681	0.38723	0.14093	0.21902	0.10669	0.068567	0.15751	0.32281	0.23275	0.11211	0.32099	-1.8667	-3.0312	-2.4062	-2.6479	-3.0479	-2.1188	-2.9437	-2.9604	-2.1562	-3.1188	-2.4396	-2.3396	-3.175	-2.3125	-2.6917	-2.7104	-80.417	51.543	167.638	-53.816	107.106	137.071	198.323	225.608	-9.543	101.436	204.215	142.544	-49.632	-75.497	165.741	178.163	4.4781e-05	0.0010799	0.0007372	865.58	3.1983e-05	3.3609e-05	655.34	304.67	1.8412e-05	5.3745e-06	240.61	82.074	112.32	44.104	3.2321e-06	34.805	0.066943	0.12165	0.033877	1230.5	0.0011759	0.0013803	1027.5	441.96	0.0011722	0.0013616	443.03	155.12	179.4	68.003	0.0012802	66.663	31.054	98.752	12.000	-72.056	32.701	138.048	-73.678	-66.847	-19.584	88.727	-69.847	-65.976	-62.917	-58.733	1.535	-61.765	-8191	255	
38922.887	1	1	0	0	0.14618	0.1675	0.070212	0.08379	0.029534	0.05794	0.094631	0.17884	0.21979	0.057326	0.20793	0.032405	0.074781	0.25083	0.070699	0.22457	-1.8271	-2.8354	-2.3979	-2.5646	-2.9229	-2.1667	-2.7917	-2.9104	-2.1312	-3.0875	-2.7479	-2.4562	-3.1667	-2.3167	-2.6688	-2.9	-50.201	236.384	192.417	153.302	-74.388	272.303	209.401	220.011	173.766	24.447	-52.686	30.682	27.530	225.949	222.209	40.894	0.00023748	0.0017448	0.00061328	869.37	1.353e-05	2.9047e-05	661.4	307.43	9.2405e-06	1.4878e-05	241.57	81.358	112.41	43.987	2.4062e-06	35.128	0.069433	0.12604	0.035112	1247.3	0.0012123	0.0014291	1047.1	450.28	0.0012274	0.0014208	450.93	156.94	180.71	68.345	0.0012765	66.746	58.871	245.917	230.850	-72.106	198.202	213.152	-73.662	-66.893	36.560	114.302	-70.078	-65.809	-62.889	-58.624	214.857	-62.246	-8191	255	
38922.980	1	1	0	0	0.15822	0.31022	0.23022	0.090729	0.18859	0.087131	0.085562	0.1576	0.066125	0.12415	0.14278	0.068736	0.13503	0.31621	0.2733	0.21967	-1.8333	-2.9458	-2.3521	-2.3083	-3.05	-2.3	-2.6562	-3.0375	-2.0187	-2.6437	-2.6125	-2.2146	-3.1792	-2.4437	-2.4437	-2.9604	163.512	-3.435	-8.917	19.405	15.731	239.681	-33.897	249.085	127.826	133.100	-24.689	-29.207	-42.789	269.610	-45.687	129.514	0.00024292	0.00206	0.00050908	868.51	4.9909e-06	8.3044e-06	659.66	308.62	1.5429e-05	7.1075e-06	243.99	82.8	113.69	45.067	1.0203e-05	35.915	0.067719	0.12101	0.033059	1223.2	0.0011234	0.0013112	1011.1	437.53	0.0010948	0.0012613	429.27	149.82	174.4	66.547	0.0011277	63.925	-32.716	41.226	-43.024	-72.277	122.107	174.981	-73.687	-66.996	16.514	248.438	-70.097	-65.248	-62.420	-58.586	24.887	-62.220	-8191	255	
#DATA ENDS
