BOXY.EXE: ISS Imagent and Oximeter Data Acquisition Program Version 0.80
Ascii Record File

#ACQ INFORMATION
2  Detector Channels 
16  External MUX Channels 
1  Auxiliary Channels 
5000  Waveform (CCF) Frequency (Hz)
1  Waveforms Skipped 
30  Waveforms Averaged 
1  Cycles Averaged 
16  Acquisitions per Waveform 
10.0806  Updata Rate (Hz) 

#FILE INFORMATION
TRUE -- External MUX Channel results are PARSED.
FALSE -- AC DC and Phase are NOT grouped.
TRUE -- Companion Program Settings File CREATED.
FALSE -- AC data not excluded
FALSE -- DC data not excluded
FALSE -- Phase data not excluded
FALSE -- Auxillary Chn. data not excluded
Tab delimiters

#CALIBRATION STATE
TRUE -- Waveform Calibration Values APPLIED.


#AUX CALIBRATION VALUES
Val Type	aux-1	

Term	1.0000e+00	
Factor	0.0000e+00	


#WF CALIBRATION VALUES
A = Detector Channel
Val Type	A-AC1	A-AC2	A-AC3	A-AC4	A-AC5	A-AC6	A-AC7	A-AC8	A-AC9	A-AC10	A-AC11	A-AC12	A-AC13	A-AC14	A-AC15	A-AC16	A-DC1	A-DC2	A-DC3	A-DC4	A-DC5	A-DC6	A-DC7	A-DC8	A-DC9	A-DC10	A-DC11	A-DC12	A-DC13	A-DC14	A-DC15	A-DC16	A-Ph1	A-Ph2	A-Ph3	A-Ph4	A-Ph5	A-Ph6	A-Ph7	A-Ph8	A-Ph9	A-Ph10	A-Ph11	A-Ph12	A-Ph13	A-Ph14	A-Ph15	A-Ph16	

Term	0.00000e+00	0.00000e+00	0.00000e+00	0.00000e+00	0.00000e+00	0.00000e+00	0.00000e+00	0.00000e+00	0.00000e+00	0.00000e+00	0.00000e+00	0.00000e+00	0.00000e+00	0.00000e+00	0.00000e+00	0.00000e+00	0.00000e+00	0.00000e+00	0.00000e+00	0.00000e+00	0.00000e+00	0.00000e+00	0.00000e+00	0.00000e+00	0.00000e+00	0.00000e+00	0.00000e+00	0.00000e+00	0.00000e+00	0.00000e+00	0.00000e+00	0.00000e+00	0.00000e+00	0.00000e+00	0.00000e+00	0.00000e+00	0.00000e+00	0.00000e+00	0.00000e+00	0.00000e+00	0.00000e+00	0.00000e+00	0.00000e+00	0.00000e+00	0.00000e+00	0.00000e+00	0.00000e+00	0.00000e+00	
Factor	1.00000e+00	1.00000e+00	1.00000e+00	1.00000e+00	1.00000e+00	1.00000e+00	1.00000e+00	1.00000e+00	1.00000e+00	1.00000e+00	1.00000e+00	1.00000e+00	1.00000e+00	1.00000e+00	1.00000e+00	1.00000e+00	1.00000e+00	1.00000e+00	1.00000e+00	1.00000e+00	1.00000e+00	1.00000e+00	1.00000e+00	1.00000e+00	1.00000e+00	1.00000e+00	1.00000e+00	1.00000e+00	1.00000e+00	1.00000e+00	1.00000e+00	1.00000e+00	X	X	X	X	X	X	X	X	X	X	X	X	X	X	X	X	

B = Detector Channel
Val Type	B-AC1	B-AC2	B-AC3	B-AC4	B-AC5	B-AC6	B-AC7	B-AC8	B-AC9	B-AC10	B-AC11	B-AC12	B-AC13	B-AC14	B-AC15	B-AC16	B-DC1	B-DC2	B-DC3	B-DC4	B-DC5	B-DC6	B-DC7	B-DC8	B-DC9	B-DC10	B-DC11	B-DC12	B-DC13	B-DC14	B-DC15	B-DC16	B-Ph1	B-Ph2	B-Ph3	B-Ph4	B-Ph5	B-Ph6	B-Ph7	B-Ph8	B-Ph9	B-Ph10	B-Ph11	B-Ph12	B-Ph13	B-Ph14	B-Ph15	B-Ph16	

Term	0.00000e+00	0.00000e+00	0.00000e+00	0.00000e+00	0.00000e+00	0.00000e+00	0.00000e+00	0.00000e+00	0.00000e+00	0.00000e+00	0.00000e+00	0.00000e+00	0.00000e+00	0.00000e+00	0.00000e+00	0.00000e+00	0.00000e+00	0.00000e+00	0.00000e+00	0.00000e+00	0.00000e+00	0.00000e+00	0.00000e+00	0.00000e+00	0.00000e+00	0.00000e+00	0.00000e+00	0.00000e+00	0.00000e+00	0.00000e+00	0.00000e+00	0.00000e+00	-7.31775e+01	-1.39643e+02	-1.29191e+02	-1.81468e+02	-5.28782e+01	-5.94017e+01	-1.58511e+02	-1.62015e+02	-4.34400e+01	-6.62646e+01	-1.70593e+02	-1.70390e+02	-1.81289e+02	-1.76543e+02	-5.19673e+01	-1.49467e+02	
Factor	1.51461e-05	1.38994e-04	3.70494e-05	1.65114e-01	1.30890e-06	1.55113e-06	1.66376e-01	5.64345e-02	1.01830e-06	1.34470e-06	8.78816e-02	2.83681e-02	2.52299e-02	8.59329e-03	1.27316e-06	1.18647e-02	5.15675e-06	6.63635e-06	1.85623e-06	8.53049e-02	7.07640e-08	7.33048e-08	8.10045e-02	2.92832e-02	7.07680e-08	7.32667e-08	4.41605e-02	1.43478e-02	1.32282e-02	4.49219e-03	7.21484e-08	6.00703e-03	X	X	X	X	X	X	X	X	X	X	X	X	X	X	X	X	



#DISTANCE SETTINGS
A = Detector Channel
A-1	A-2	A-3	A-4	A-5	A-6	A-7	A-8	A-9	A-10	A-11	A-12	A-13	A-14	A-15	A-16	

2.5000e+00	3.0000e+00	2.5000e+00	3.0000e+00	2.0000e+00	3.0000e+00	1.5000e+00	3.0000e+00	3.0000e+00	3.0000e+00	3.0000e+00	3.0000e+00	3.0000e+00	3.0000e+00	1.5000e+00	3.0000e+00	

B = Detector Channel
B-1	B-2	B-3	B-4	B-5	B-6	B-7	B-8	B-9	B-10	B-11	B-12	B-13	B-14	B-15	B-16	

1.0000e+01	1.0000e+01	1.0000e+01	1.4400e+00	1.0000e+01	1.0000e+01	1.5100e+00	1.9400e+00	1.0000e+01	1.0000e+01	1.9900e+00	2.4900e+00	2.4100e+00	2.9000e+00	1.0000e+01	2.9800e+00	




#DATA BEGINS
time	group	step	mark	flag	A-AC1	A-AC2	A-AC3	A-AC4	A-AC5	A-AC6	A-AC7	A-AC8	A-AC9	A-AC10	A-AC11	A-AC12	A-AC13	A-AC14	A-AC15	A-AC16	A-DC1	A-DC2	A-DC3	A-DC4	A-DC5	A-DC6	A-DC7	A-DC8	A-DC9	A-DC10	A-DC11	A-DC12	A-DC13	A-DC14	A-DC15	A-DC16	A-Ph1	A-Ph2	A-Ph3	A-Ph4	A-Ph5	A-Ph6	A-Ph7	A-Ph8	A-Ph9	A-Ph10	A-Ph11	A-Ph12	A-Ph13	A-Ph14	A-Ph15	A-Ph16	B-AC1	B-AC2	B-AC3	B-AC4	B-AC5	B-AC6	B-AC7	B-AC8	B-AC9	B-AC10	B-AC11	B-AC12	B-AC13	B-AC14	B-AC15	B-AC16	B-DC1	B-DC2	B-DC3	B-DC4	B-DC5	B-DC6	B-DC7	B-DC8	B-DC9	B-DC10	B-DC11	B-DC12	B-DC13	B-DC14	B-DC15	B-DC16	B-Ph1	B-Ph2	B-Ph3	B-Ph4	B-Ph5	B-Ph6	B-Ph7	B-Ph8	B-Ph9	B-Ph10	B-Ph11	B-Ph12	B-Ph13	B-Ph14	B-Ph15	B-Ph16	aux-1	digaux	

9910.428	1	1	0	256	0.13182	0.17539	0.22058	0.11359	0.31227	0.19106	0.025698	0.36159	0.14515	0.28339	0.21254	0.3532	0.06475	0.18355	0.23056	0.090014	-2.9333	-2.2833	-2.7396	-3.2479	-2.1104	-3.1167	-3.0312	-2.4792	-3.3312	-2.4625	-2.6021	-3.2292	-2.4458	-3.1813	-2.7604	-2.3312	-61.880	35.493	122.661	275.293	260.968	22.645	61.802	264.077	218.600	41.812	16.718	244.214	260.061	147.728	121.661	56.769	0.00028533	0.0018127	0.00031922	986.48	5.659e-06	9.7379e-06	838.66	366.94	2.0421e-06	1.1683e-05	361.49	136.62	130.99	51.401	4.0533e-06	59.694	0.0099073	0.013371	0.0035679	1198	0.00013562	0.00014668	1038.5	441.8	0.00013561	0.00014487	464.38	172.1	165.6	63.797	0.0001341	74.497	226.969	-10.882	-16.281	-69.518	176.907	-9.058	-70.367	-64.243	232.657	56.315	-66.122	-61.675	-60.115	-54.820	66.659	-57.425	-8191	255	
9910.500	1	1	0	0	0.12863	0.062542	0.2539	0.21502	0.16612	0.16626	0.10179	0.066422	0.10021	0.14147	0.34948	0.25157	0.14079	0.04257	0.06335	0.1852	-2.7625	-2.6375	-2.4604	-3.2	-2.3833	-2.8729	-3.1437	-2.3479	-3.0604	-2.7417	-2.4062	-3.475	-2.4833	-2.7375	-3.1063	-2.3708	15.702	50.752	70.473	197.024	121.746	98.343	131.677	241.742	203.380	-48.111	233.183	216.572	-23.458	253.097	36.997	204.186	0.00024004	0.00086051	0.00017021	983.89	5.7751e-06	1.3831e-05	837.67	364.67	2.6663e-06	1.0792e-05	360.72	135.86	131.04	51.105	8.2235e-06	59.838	0.009907	0.012691	0.0033774	1188.7	0.00013346	0.00013772	1027.9	438.19	0.00013231	0.00013577	457.76	170.54	164.38	62.912	0.00012468	73.811	231.391	-44.660	38.317	-69.362	193.660	81.260	-70.219	-64.179	-42.983	42.368	-66.026	-61.548	-60.177	-54.910	35.043	-57.282	-8191	255	
9910.596	1	1	0	0	0.15061	0.26921	0.094039	0.062246	0.096881	0.061126	0.21612	0.17732	0.17204	0.037487	0.17808	0.19029	0.12079	0.20723	0.11278	0.28452	-2.5729	-2.6312	-2.4437	-3.5708	-2.5062	-2.7333	-3.1771	-2.4104	-3.1417	-2.7896	-2.3229	-3.4521	-2.7042	-2.8875	-3.1729	-2.225	185.217	232.849	64.403	244.990	-80.569	151.334	205.366	182.246	3.680	267.339	-45.199	231.648	-76.343	-9.694	177.578	-79.629	0.00027741	0.0022128	0.00031859	984.67	9.2449e-06	1.6058e-05	839.03	364.39	7.0313e-06	8.2661e-06	361.22	136.14	130.51	51.077	8.0607e-06	59.592	0.0095253	0.011824	0.0031521	1183.1	0.00012893	0.00012809	1020.2	436.56	0.00012789	0.00012723	454.04	170.27	163.33	62.356	0.00011912	73.892	226.996	56.766	226.012	-69.297	48.072	117.703	-70.210	-64.163	115.132	93.242	-66.050	-61.722	-60.263	-54.979	68.929	-57.376	-8191	255	
9910.717	1	1	0	0	0.22039	0.11482	0.17151	0.25014	0.091609	0.20102	0.041498	0.1248	0.16925	0.1149	0.1263	0.22558	0.20482	0.23581	0.11338	0.055298	-2.5583	-3.0438	-2.2062	-3.3833	-2.6042	-2.6437	-3.425	-2.5042	-2.8875	-2.8187	-2.4396	-3.2896	-2.5792	-2.7958	-3.2792	-2.625	177.512	83.857	109.085	208.692	209.359	164.453	-23.745	-72.431	231.638	103.293	239.820	239.924	20.805	246.630	100.597	127.543	0.00022362	0.0012336	0.00019419	987.05	6.2548e-06	1.2363e-05	839.41	365.62	6.2951e-06	7.7399e-06	358.07	136.1	129.91	50.692	8.7353e-06	59.242	0.0093104	0.011331	0.0030485	1188.9	0.0001259	0.00012388	1017.5	437.78	0.00012546	0.00012436	450.62	170.28	162.29	61.923	0.00011894	73.735	233.485	-45.255	25.890	-69.183	-14.887	-14.214	-69.882	-64.034	87.455	-3.749	-66.076	-61.678	-59.955	-54.846	136.108	-57.707	-8191	255	
9910.811	1	1	0	0	0.15621	0.1768	0.1694	0.30344	0.13391	0.072186	0.168	0.21793	0.098197	0.24509	0.29014	0.22459	0.24292	0.034796	0.24783	0.22678	-2.5	-2.9792	-2.1854	-3.3354	-2.5958	-2.45	-3.4083	-2.5792	-2.8292	-3.0542	-2.3812	-3.1958	-2.8396	-2.375	-3.05	-2.4646	207.344	124.783	-47.788	-40.072	115.501	149.596	206.089	233.793	30.526	-77.186	224.821	272.696	130.781	-14.776	193.989	217.166	0.00020673	0.00057505	7.3337e-05	987.74	1.7107e-06	3.6895e-06	841.6	365.56	5.7156e-06	2.6257e-06	355.23	135.07	129.84	50.551	8.8806e-06	59.042	0.0092395	0.011259	0.0030587	1194.3	0.00012509	0.00012335	1016.3	439.02	0.0001239	0.00012372	449.25	170.05	161.48	61.61	0.00012094	73.521	249.434	-59.144	22.772	-69.297	155.281	-81.496	-69.887	-64.026	-22.910	46.007	-66.136	-61.496	-59.984	-54.882	142.192	-57.130	-8191	255	
9910.907	1	1	0	0	0.20067	0.059263	0.018698	0.2118	0.056743	0.47044	0.21852	0.17979	0.14004	0.14023	0.070895	0.295	0.20611	0.21315	0.056908	0.15831	-2.4979	-3.0458	-2.4875	-3.3333	-2.7333	-2.5792	-3.3729	-2.5729	-2.6208	-3.2396	-2.2792	-2.9625	-3.1771	-2.5333	-3.2833	-2.45	273.573	176.833	28.214	179.524	143.468	20.044	216.254	232.213	31.233	242.228	171.911	210.534	269.869	244.346	78.917	-77.417	0.00013938	0.00092871	0.00013745	990.6	8.1856e-06	1.6016e-05	836.91	364.82	1.0523e-06	3.6654e-06	356.75	134.89	129.56	50.818	4.9121e-06	59.026	0.0090512	0.011083	0.0031313	1194.2	0.00012214	0.00012112	1016.8	438.7	0.00012218	0.00012218	452.36	170.05	161.23	61.561	0.00012651	73.731	219.046	-40.451	68.104	-69.334	90.259	68.733	-69.847	-63.927	9.861	-37.121	-65.902	-61.529	-59.877	-54.876	233.079	-57.193	-8191	255	
9911.004	1	1	0	0	0.1649	0.050042	0.2787	0.28685	0.086918	0.30131	0.34863	0.15929	0.10363	0.12183	0.15347	0.028802	0.12813	0.14767	0.16629	0.19654	-2.2354	-3.2	-2.5979	-3.2958	-3.0021	-2.2313	-3.3729	-2.725	-2.4729	-3.2438	-2.3312	-3.1021	-3.1562	-2.4958	-3.2812	-2.8042	-34.971	-50.913	204.191	-47.987	229.936	91.668	186.133	-79.670	263.488	-54.761	192.425	89.718	-72.163	87.888	133.292	137.620	0.00025707	0.0013861	0.00012924	991.31	5.2831e-06	6.5135e-06	837.65	364.26	5.6955e-06	3.6001e-06	359.39	135.86	130.07	50.915	9.2042e-06	59.788	0.0089649	0.01106	0.0032724	1193.8	0.00012266	0.00012175	1025.7	438.97	0.00012129	0.00012252	457.7	170.6	161.67	61.931	0.00013122	74.233	250.011	-7.144	193.121	-69.099	80.296	41.060	-69.763	-64.026	-53.793	41.831	-65.863	-61.313	-59.785	-54.783	102.604	-57.216	-8191	255	
9911.124	1	1	0	0	0.14301	0.13975	0.177	0.21774	0.16757	0.20079	0.041762	0.16481	0.2156	0.14478	0.27273	0.21262	0.27638	0.34832	0.10961	0.28028	-2.2875	-3.3104	-2.3417	-2.8208	-3.2917	-2.3083	-3.3625	-2.9479	-2.3625	-3.3479	-2.5438	-3.0167	-3.2021	-2.4271	-3.3479	-2.8542	150.890	82.592	176.228	242.591	-65.961	117.122	183.351	255.033	-79.302	-62.569	226.061	213.321	225.881	226.702	237.847	247.842	0.00018885	0.00085521	0.00024751	989.25	1.0867e-05	8.2119e-06	833.79	365.16	3.3363e-06	6.7512e-06	360.98	136.75	130.58	50.703	5.4562e-06	59.25	0.0089501	0.011224	0.0033869	1192.9	0.00012141	0.00012412	1031.7	438.5	0.00011997	0.0001253	460.65	170.71	161.55	62.086	0.00013266	73.664	241.248	105.405	99.055	-69.020	118.844	211.607	-69.653	-63.915	100.908	-56.162	-65.995	-61.630	-59.786	-54.542	123.398	-57.173	-8191	255	
9911.196	1	1	0	0	0.10914	0.25631	0.087955	0.11052	0.090915	0.067808	0.37764	0.28304	0.19986	0.16403	0.24307	0.33555	0.26697	0.14949	0.14961	0.15915	-2.0604	-3.1354	-2.5042	-2.8229	-3.1458	-2.3167	-3.075	-3.0146	-2.3146	-3.5	-2.5438	-2.7792	-3.2167	-2.5229	-2.9667	-2.8208	261.079	47.402	-16.928	120.521	124.565	17.127	104.182	181.093	204.326	165.436	-69.188	263.309	210.946	266.694	60.865	250.712	0.00025638	0.00044135	0.00023211	992.46	3.6911e-06	5.0197e-06	837.18	364.63	1.0505e-05	4.4232e-06	358.94	135.14	129.86	50.905	8.951e-06	59.313	0.0087858	0.011543	0.003426	1188.4	0.00011971	0.00012763	1029.5	437.47	0.0001187	0.00012881	458.71	169.35	161.04	62.31	0.00013074	73.38	205.876	17.082	58.150	-69.212	183.274	250.663	-69.790	-63.789	43.251	196.296	-66.299	-61.450	-59.803	-54.705	45.553	-57.238	-8191	255	
9911.292	1	1	0	0	0.026928	0.21161	0.24234	0.17322	0.15493	0.15814	0.10376	0.14968	0.1096	0.17958	0.096211	0.09541	0.28514	0.27636	0.23475	0.16679	-2.0271	-3.1583	-2.5187	-2.7562	-3.1208	-2.3979	-3.0833	-3.0625	-2.3271	-3.3479	-2.7625	-2.5812	-3.3833	-2.6083	-2.8333	-3.0521	82.430	-0.426	168.607	4.553	232.244	-22.807	69.376	174.016	124.455	172.252	190.958	224.604	-20.164	171.246	255.495	251.516	0.00015173	0.0014911	0.00033105	987.07	6.7156e-06	5.4474e-06	834.89	363.54	3.7939e-06	4.8255e-06	359.74	135.43	129.51	50.824	7.6907e-06	59.266	0.0086832	0.011866	0.0033484	1184.3	0.00011821	0.0001315	1025.8	436.27	0.00011838	0.0001329	457.11	168.85	160.79	62.403	0.00012799	73.178	263.095	-33.939	10.178	-69.278	33.390	-76.257	-70.046	-63.875	90.354	29.824	-66.094	-61.692	-59.469	-54.715	114.836	-57.285	-8191	255	
9911.388	1	1	0	0	0.10202	0.06902	0.25486	0.2422	0.22164	0.060082	0.39394	0.15419	0.1029	0.23296	0.11885	0.14807	0.18474	0.085659	0.28578	0.17702	-1.8958	-3.2021	-2.8146	-2.6208	-3.1229	-2.675	-2.9042	-3.3	-2.3812	-3.1333	-3.1312	-2.5083	-3.1604	-2.8604	-2.5104	-3.525	95.175	180.012	58.744	271.894	-40.251	-78.114	204.447	259.163	38.194	269.300	238.634	188.592	276.512	-30.260	56.767	-3.369	0.00019331	0.00094532	6.5495e-05	985	1.0383e-05	7.9743e-06	836.29	364.17	1.0168e-05	1.0407e-05	360.89	135.87	129.99	50.718	3.101e-06	59.392	0.0087624	0.012108	0.0032937	1181.2	0.00012004	0.00013351	1023.2	435.16	0.00012081	0.00013421	457.61	169.09	161.85	62.587	0.0001259	73.219	202.960	-24.070	-26.323	-69.267	-60.099	128.238	-69.968	-63.802	203.119	38.234	-65.959	-61.570	-59.875	-54.664	134.350	-57.184	-8191	255	
9911.509	1	1	0	0	0.28396	0.19093	0.079897	0.28692	0.05853	0.12828	0.13997	0.22077	0.14359	0.11847	0.36368	0.083476	0.23745	0.10552	0.21675	0.069353	-2.1	-3.1021	-2.9854	-2.45	-3.1083	-2.6937	-2.7687	-3.3312	-2.2229	-2.9146	-3.0687	-2.5104	-3.3667	-2.8292	-2.4896	-3.2708	211.475	-57.696	115.554	-44.390	195.360	107.598	143.652	119.391	-54.862	54.859	217.334	261.226	235.644	-37.656	28.476	253.467	0.00030365	0.00049849	0.00011862	985.36	6.9508e-07	1.1796e-05	837.72	364.92	4.2168e-06	3.2518e-06	358.09	135.31	129.97	50.698	6.5222e-06	59.118	0.0090931	0.012199	0.0032498	1181.8	0.00012429	0.00013365	1022.9	436	0.00012502	0.00013364	455.06	168.35	162.53	62.382	0.00012438	73.088	209.126	-35.891	-30.750	-69.333	12.871	35.221	-69.788	-64.023	142.899	-15.578	-66.012	-61.706	-59.923	-54.909	85.147	-57.212	-8191	255	
9911.605	1	1	0	0	0.14954	0.1494	0.1824	0.23517	0.075181	0.12104	0.19601	0.25501	0.33807	0.1684	0.12883	0.11586	0.13695	0.20485	0.020263	0.43682	-2.0083	-2.9	-3.0146	-2.4083	-3.2562	-2.5438	-2.7104	-3.3396	-2.4292	-2.825	-3.2479	-2.3458	-3.1667	-2.9729	-2.5167	-3.1792	-49.282	250.028	87.022	-46.156	-59.688	-45.865	-38.167	237.824	243.099	133.210	114.874	122.236	4.925	173.027	87.339	253.279	0.00032497	0.0010173	0.00033153	986.13	1.5244e-05	1.3609e-05	835.11	361.97	8.1647e-06	6.5538e-06	360.38	135	130.19	50.808	1.6878e-06	59.522	0.0093308	0.011983	0.0031827	1181.3	0.00012843	0.00013138	1017.7	435.32	0.0001284	0.00013089	455.01	168.76	163.21	62.267	0.00012267	73.248	220.473	-32.558	34.035	-69.262	168.063	59.269	-70.043	-63.931	152.824	16.714	-66.086	-61.687	-59.862	-54.857	246.362	-57.129	-8191	255	
9911.701	1	1	0	0	0.25429	0.16483	0.19674	0.22582	0.15208	0.09585	0.13358	0.3375	0.055444	0.071097	0.16537	0.048041	0.042402	0.17424	0.075299	0.1864	-2.2812	-2.7333	-3.1125	-2.3979	-3.1583	-3.1458	-2.5938	-3.3812	-2.7188	-2.3792	-3.2188	-2.3146	-3.1396	-3.1604	-2.2438	-3.3458	100.629	239.559	59.546	231.074	172.067	-70.350	207.680	266.347	114.290	82.512	80.598	18.446	213.886	-73.383	-37.603	157.966	0.00031798	0.0007867	0.00014872	992.54	1.3263e-05	1.2723e-05	837.53	365.99	8.9176e-06	1.3264e-05	360.58	135.96	130.27	50.697	5.8158e-06	59.337	0.0095554	0.011798	0.0031651	1184.9	0.00012964	0.00012905	1017.8	437.54	0.00013001	0.00012793	453.93	170.29	163.71	62.269	0.00012083	73.948	216.862	-46.837	-77.125	-69.253	63.210	67.166	-69.853	-64.083	39.473	108.753	-66.147	-61.587	-59.818	-54.908	20.179	-57.333	-8191	255	
9911.797	1	1	0	0	0.4073	0.14361	0.068742	0.37969	0.12954	0.25914	0.16354	0.26957	0.24826	0.26695	0.23117	0.2907	0.36696	0.38623	0.19462	0.06868	-2.3229	-2.6	-3.2604	-2.4958	-3.0312	-2.9042	-2.575	-3.2812	-2.5771	-2.6771	-3.4208	-2.3146	-3.1792	-3.2646	-2.3083	-3.3833	26.263	3.727	-11.771	276.858	105.858	229.106	119.810	161.685	120.778	-15.253	87.649	261.408	-78.889	-67.946	58.061	30.317	0.00014462	0.00057765	5.5847e-05	988.61	9.6962e-06	6.2658e-06	840.46	364.71	1.2203e-05	1.5468e-05	360.3	136.91	130.97	50.92	8.045e-06	59.644	0.0095082	0.011503	0.0031214	1191.7	0.00012844	0.0001267	1018.1	439.48	0.00012786	0.00012578	453.73	171.84	163.55	62.327	0.00012084	74.651	208.687	-14.351	-41.010	-69.027	18.588	99.845	-69.812	-63.811	134.138	57.440	-66.158	-61.380	-59.539	-54.875	77.896	-57.013	-8191	255	
9911.892	1	1	0	0	0.16447	0.24416	0.22653	0.11954	0.26785	0.18183	0.20283	0.18869	0.16593	0.19385	0.16231	0.4404	0.18417	0.21545	0.064882	0.036189	-2.2792	-2.5104	-3.2	-2.5458	-2.9021	-3.1917	-2.6188	-3.4375	-2.6083	-2.6917	-3.3688	-2.3812	-3.0396	-3.3333	-2.3104	-3.2583	9.983	170.108	175.061	134.773	261.389	273.461	208.849	251.503	90.989	32.938	106.616	248.076	206.504	-48.061	-15.502	177.587	0.00012211	0.001036	0.00028848	989.47	1.0823e-05	1.076e-05	840.74	366.51	6.6643e-06	4.9985e-06	361.19	137.21	130.86	51.238	4.2886e-06	59.742	0.0093834	0.011357	0.0031394	1195.4	0.00012666	0.00012651	1020.2	441.4	0.00012603	0.00012387	455.45	172	163.01	62.274	0.00012268	74.53	215.544	251.035	125.674	-68.932	28.931	61.760	-69.770	-63.872	1.611	101.713	-65.916	-61.343	-59.877	-54.753	-46.334	-57.057	-8191	255	
9911.990	1	1	0	0	0.25169	0.18327	0.30013	0.2352	0.26205	0.13392	0.18173	0.098424	0.15344	0.17979	0.051843	0.093102	0.1039	0.12688	0.41871	0.17533	-2.6021	-2.1271	-3.375	-2.6833	-2.7	-3.1562	-2.6167	-3.0792	-2.9688	-2.3208	-3.4833	-2.6271	-2.6292	-3.3417	-2.2479	-3.1437	130.153	79.911	32.677	-62.525	172.141	-73.635	197.721	-68.462	-35.817	24.497	79.194	1.403	106.813	227.245	135.811	243.419	9.5118e-05	0.0012179	0.00012742	995.75	2.9698e-06	8.14e-06	839.54	366.32	7.6275e-06	1.269e-05	361.66	136.39	131.29	51.028	3.938e-06	59.745	0.0091942	0.01121	0.0032182	1196.6	0.00012321	0.00012363	1021.1	440.66	0.00012332	0.00012194	457.5	171.46	162.12	61.894	0.00012705	74.236	249.928	0.492	176.021	-69.040	-41.069	95.196	-69.818	-63.713	146.940	142.418	-66.027	-61.441	-59.606	-54.551	208.408	-56.875	-8191	255	
9912.108	1	1	0	0	0.10126	0.10326	0.046243	0.074325	0.068633	0.25231	0.30663	0.31902	0.20509	0.14315	0.11832	0.11365	0.19021	0.32099	0.1107	0.19643	-2.7146	-2.3083	-3.2667	-2.675	-2.3792	-3.3417	-2.4833	-2.8604	-3.2917	-2.2562	-3.1646	-2.9188	-2.7667	-3.4833	-2.3708	-2.9229	203.813	237.725	121.414	-19.305	222.608	86.991	197.634	-69.329	69.090	69.788	145.660	124.160	258.815	-67.553	173.539	262.736	0.00013932	0.0010566	0.00016539	994.3	8.1663e-06	1.1377e-05	835.87	365.48	1.0237e-05	3.4372e-06	361.61	136.63	130.76	51.02	5.199e-06	59.873	0.0089811	0.011005	0.0033063	1193.9	0.00012131	0.00012251	1025.2	439.04	0.00012164	0.00012219	460.3	171.36	161.77	62.07	0.000131	74.268	-76.737	35.863	237.424	-69.100	21.405	59.143	-69.630	-63.675	58.397	231.848	-65.748	-61.326	-59.641	-54.700	215.287	-56.766	-8191	255	
9912.205	1	1	0	0	0.058024	0.20562	0.10451	0.14898	0.14746	0.16033	0.12019	0.22287	0.16138	0.26236	0.072343	0.28416	0.23352	0.13186	0.2576	0.44625	-2.8563	-2.3271	-3.0479	-2.975	-2.4083	-3.3	-2.6083	-2.9625	-3.3	-2.1667	-3.1854	-2.8729	-2.3479	-3.3604	-2.5896	-2.7333	216.610	224.091	109.805	-71.231	264.685	60.823	203.876	170.962	41.811	5.521	221.498	238.560	194.131	-28.857	147.769	253.490	0.00017162	0.0011298	0.00016867	992.9	6.6332e-06	1.1946e-05	841.22	365.13	3.4811e-06	5.6414e-06	363.69	137.55	131	51.359	8.4262e-06	60.364	0.008879	0.011148	0.0033925	1191.4	0.00012002	0.00012506	1032	438.63	0.00012035	0.00012495	463.23	171.81	162.15	62.629	0.00013258	74.568	260.417	142.245	70.086	-68.910	26.466	194.142	-69.537	-63.647	120.570	242.043	-65.851	-61.401	-59.574	-54.558	132.534	-57.089	-8191	255	
9912.301	1	1	0	0	0.099326	0.31712	0.064932	0.055489	0.035947	0.10977	0.020255	0.2127	0.12862	0.078146	0.25528	0.23102	0.13023	0.20347	0.04674	0.14604	-2.7604	-2.4896	-2.8438	-3.0938	-2.2375	-3	-2.6458	-2.9104	-3.1854	-2.4354	-2.9938	-2.9437	-2.3271	-3.4188	-2.6229	-2.5646	-15.128	-81.744	-35.364	2.039	42.933	27.793	81.365	227.221	-20.047	88.620	211.547	-66.703	201.529	1.207	145.899	89.573	0.0001224	0.00069922	0.00012043	986.17	3.2737e-06	1.6188e-05	843.15	366.76	1.0223e-05	4.5215e-06	365.21	138.67	131.28	51.64	8.7663e-06	60.88	0.0088362	0.011599	0.0034355	1188.2	0.00011937	0.00013036	1035.3	439.62	0.00012127	0.00013249	466.95	173.15	163.09	63.505	0.00013255	75.14	183.345	199.175	47.436	-69.098	24.011	224.529	-69.862	-63.780	99.135	213.413	-65.887	-61.491	-59.875	-54.795	93.633	-57.080	-8191	255	
9912.397	1	1	0	0	0.16845	0.11678	0.012937	0.45853	0.17176	0.37672	0.30213	0.20711	0.13116	0.10079	0.12791	0.098219	0.32124	0.24355	0.13133	0.15812	-2.9521	-2.5104	-2.5917	-3.2146	-2.3354	-2.9688	-2.9292	-2.6667	-3.0146	-2.4104	-3.1458	-3.1146	-2.3479	-3.2458	-2.8146	-2.525	198.368	104.965	-12.029	211.812	36.722	90.195	195.352	245.241	55.538	-32.514	235.261	-21.754	223.627	221.785	-76.559	188.704	0.00019426	0.00067188	1.3747e-05	978.27	1.6591e-05	6.8306e-06	840.08	367.02	8.7508e-06	1.0109e-05	369.87	141.26	133.16	52.594	9.5041e-06	61.754	0.0088106	0.011996	0.0033762	1176.5	0.00011892	0.00013374	1028.3	439.05	0.00012052	0.00013524	468.62	175.7	165.13	64.619	0.00013065	76.148	266.985	-9.865	-37.732	-69.318	-5.578	-7.771	-70.028	-63.974	172.027	232.846	-65.717	-61.614	-59.963	-54.850	45.994	-57.401	-8191	255	
9912.493	1	1	0	0	0.25474	0.26467	0.1598	0.040673	0.18404	0.025063	0.088959	0.068784	0.050918	0.24546	0.33607	0.25559	0.25379	0.11587	0.16287	0.11884	-2.7333	-2.5	-2.7438	-3.1292	-2.0833	-3.1396	-2.8729	-2.4271	-3.1	-2.65	-2.8646	-3.2625	-2.3604	-3.3104	-2.7687	-2.4271	241.886	104.116	5.975	-39.846	89.411	139.377	21.486	2.110	127.541	86.965	229.809	-72.092	274.622	-52.035	-46.999	172.484	0.00026668	0.00036651	8.3377e-05	971.97	5.8207e-06	1.3278e-05	838.84	368.24	1.021e-05	1.3242e-05	370.21	141.31	133.44	52.367	1.5663e-05	61.472	0.0090481	0.012414	0.0033466	1172.8	0.00012283	0.00013783	1028	439.13	0.00012384	0.0001365	467.6	175.4	165.84	64.377	0.00012782	75.458	228.234	113.574	15.382	-69.382	256.754	129.970	-69.837	-63.882	218.958	40.657	-65.805	-61.541	-59.993	-54.899	112.055	-57.036	-8191	255	
9912.589	1	1	0	0	0.084193	0.17182	0.043311	0.033835	0.079794	0.21684	0.13213	0.1955	0.11134	0.16238	0.1743	0.0057693	0.1682	0.20122	0.07429	0.33084	-2.9896	-2.5958	-2.5729	-3.3979	-2.3354	-2.8542	-2.9562	-2.4583	-3.3958	-2.4479	-2.6458	-3.3979	-2.5354	-2.8979	-2.9229	-2.4229	165.586	122.516	269.240	25.379	-77.586	-40.108	193.504	176.669	-6.490	126.077	-68.996	192.782	191.947	277.765	-69.295	198.498	0.00031646	0.0011279	0.00038092	986.15	7.7695e-06	6.7723e-06	846.73	368.6	6.9661e-06	6.4192e-06	365.58	137.99	130.97	51.231	6.8379e-06	59.856	0.0093085	0.012428	0.0032961	1183.2	0.000128	0.00013653	1033.1	439.53	0.00013003	0.00013681	463.19	171.74	164.57	63.206	0.00012798	74.054	232.724	-3.784	276.432	-69.274	238.395	180.411	-69.699	-63.603	241.167	93.143	-65.914	-61.543	-59.938	-54.827	-57.355	-57.510	-8191	255	
9912.685	1	1	0	0	0.042776	0.14594	0.23627	0.31962	0.11762	0.46064	0.16452	0.20215	0.033502	0.15919	0.16017	0.24281	0.37667	0.22866	0.20822	0.19526	-2.8292	-2.6521	-2.3812	-3.3979	-2.4583	-2.8625	-3.1937	-2.6833	-3.1854	-2.6792	-2.3229	-3.1771	-2.3708	-2.8229	-3.2188	-2.3833	70.521	-5.367	-11.923	-48.765	73.029	2.912	269.103	231.583	207.309	25.484	100.483	186.105	231.852	211.014	183.747	237.429	0.00027308	0.0010862	0.0001714	989.09	6.0443e-06	1.2252e-05	843.02	365.36	1.6099e-06	2.1932e-05	365.7	137.89	131.26	51.394	5.6497e-06	60.07	0.0097165	0.012308	0.0032755	1186.8	0.00013226	0.00013466	1028.4	438.11	0.00013268	0.00013372	460.21	172.1	165.05	63.038	0.00012585	74.344	239.079	266.412	-53.582	-69.269	110.426	65.654	-69.878	-63.967	137.836	27.971	-66.090	-61.614	-59.833	-54.768	1.709	-57.409	-8191	255	
9912.804	1	1	0	0	0.10891	0.27754	0.012851	0.086449	0.023968	0.097683	0.099422	0.43012	0.30691	0.088519	0.3654	0.17359	0.27562	0.11865	0.17537	0.19246	-2.8167	-2.9792	-2.3979	-3.1729	-2.5229	-2.8521	-3.2875	-2.3458	-3.0042	-3.0292	-2.325	-3.1542	-2.65	-2.7646	-3.0708	-2.5583	45.294	181.657	276.865	175.078	-16.072	131.549	1.751	234.301	104.406	26.443	256.119	263.704	242.597	222.874	181.642	-80.761	0.00017332	0.00049645	0.00026591	987.46	1.4694e-06	1.8257e-05	840.4	366.91	9.6609e-06	8.1451e-06	363.46	137.46	130.95	50.997	7.6947e-06	59.595	0.0097878	0.011933	0.0032042	1187.4	0.00013305	0.0001308	1022.3	440.35	0.00013214	0.00012911	457.12	172.11	164.08	62.371	0.00012213	74.071	216.682	54.127	-0.211	-69.125	138.116	52.360	-69.904	-63.974	144.018	21.569	-65.820	-61.612	-60.027	-54.865	53.633	-57.316	-8191	255	
9912.900	1	1	0	0	0.20765	0.2063	0.11464	0.35386	0.17039	0.076517	0.3515	0.23275	0.26799	0.1662	0.15814	0.21605	0.060751	0.093038	0.16932	0.075449	-2.7667	-3.1583	-1.9937	-3.2625	-2.8396	-2.4646	-3.2021	-2.3771	-2.9083	-3.0396	-2.4062	-3.2021	-2.6396	-2.4708	-3.2542	-2.4938	27.996	-25.084	-45.739	244.858	-80.175	132.797	-56.075	253.178	-62.367	164.011	-39.409	181.534	52.577	127.085	125.746	95.971	0.00014979	0.0013042	7.0775e-05	989.07	6.4665e-06	7.5537e-06	842.35	366.27	6.6198e-06	8.0797e-06	362.05	136.68	130.11	50.852	6.436e-06	59.857	0.0096086	0.011662	0.003145	1192	0.00013073	0.00012798	1022.7	440.79	0.00012978	0.00012844	456.78	172.57	163.64	62.275	0.00012351	74.661	238.457	42.232	268.424	-69.008	92.775	103.950	-69.791	-63.702	89.375	39.583	-65.957	-61.926	-59.930	-54.892	-2.384	-57.180	-8191	255	
9912.997	1	1	0	0	0.11431	0.28366	0.19673	0.28286	0.28657	0.11954	0.21851	0.43148	0.3271	0.25991	0.12765	0.159	0.30761	0.071418	0.30127	0.13229	-2.3979	-3.0625	-2.3917	-3.2708	-2.6042	-2.3229	-3.3667	-2.5083	-2.7792	-3.15	-2.4229	-3.1813	-2.8479	-2.2104	-3.3646	-2.7	194.530	-53.634	104.871	253.023	212.342	-65.207	205.321	259.352	-51.216	197.073	139.110	-46.181	275.968	207.299	225.492	222.351	0.00020917	0.0010764	0.00024034	990.56	1.9603e-05	1.3056e-05	841.09	365.6	5.4483e-06	7.5588e-06	363.01	138.84	131.84	51.372	5.8219e-06	60.23	0.0094632	0.011557	0.0031752	1197.9	0.00012773	0.00012643	1024.1	441.58	0.00012664	0.00012609	458.98	174.22	164.02	62.424	0.00012492	75.083	223.800	-68.888	57.053	-69.083	71.420	76.154	-69.741	-63.844	43.361	56.486	-65.918	-61.528	-59.927	-54.977	276.160	-57.380	-8191	255	
9913.070	1	1	0	0	0.031953	0.29376	0.10378	0.21767	0.11642	0.17643	0.1895	0.11518	0.12954	0.26897	0.15953	0.23018	0.13095	0.065462	0.17823	0.35415	-2.3667	-3.1729	-2.3042	-3.1604	-2.8063	-2.475	-3.2917	-2.5354	-2.5917	-3.3375	-2.5375	-3.0687	-3.1063	-2.4479	-3.1813	-2.7833	223.335	267.590	70.230	233.564	253.096	164.533	101.737	177.614	15.416	211.699	273.230	-52.467	207.552	224.689	5.132	265.529	0.00021208	0.0011864	0.00023121	987.32	9.7249e-06	1.1924e-05	842.19	365.89	6.4767e-06	6.7774e-06	358.6	136.9	130.54	50.696	1.0756e-05	59.207	0.009153	0.011293	0.0032401	1196	0.00012401	0.00012311	1026.7	440.42	0.00012311	0.0001234	457.74	171.72	162.19	61.819	0.00012926	73.91	250.317	-36.460	17.304	-69.113	54.870	44.949	-70.096	-63.981	180.867	17.999	-66.101	-61.581	-59.929	-54.849	187.146	-57.154	-8191	255	
9913.189	1	1	0	0	0.238	0.30253	0.067657	0.26058	0.22208	0.32372	0.32471	0.21028	0.20918	0.11074	0.078593	0.12563	0.33804	0.23983	0.23162	0.2679	-2.4104	-3.1437	-2.1854	-3.1521	-3.1667	-2.4917	-3.2042	-2.8771	-2.5062	-3.2875	-2.5312	-2.9521	-3	-2.3979	-3.3292	-2.7229	-41.268	112.110	272.092	21.487	121.221	13.656	262.657	225.440	125.754	2.224	-80.955	222.143	-40.256	255.399	142.883	128.643	0.00025213	0.00091545	4.7183e-05	988.51	2.9809e-06	1.3014e-05	836.22	364.38	2.6107e-06	1.3882e-05	361.72	136.6	130.53	50.745	1.1158e-05	59.152	0.0090032	0.011193	0.0033583	1193.3	0.00012193	0.00012215	1026.5	437.53	0.0001208	0.00012265	460.15	171.01	161.62	61.756	0.0001314	73.574	210.756	-80.854	7.602	-69.103	21.690	144.112	-69.839	-63.881	-78.126	117.973	-66.222	-61.700	-59.766	-54.700	143.049	-57.379	-8191	255	
9913.285	1	1	0	0	0.024892	0.26841	0.22937	0.14674	0.11927	0.046954	0.093774	0.25721	0.1047	0.18602	0.199	0.23711	0.21979	0.23848	0.28615	0.16293	-2.0229	-3.25	-2.4229	-2.9875	-3.2438	-2.2083	-3.0771	-3.1042	-2.2875	-3.0333	-2.7188	-2.8563	-3.3604	-2.2958	-3.1021	-2.9479	193.505	218.166	237.425	249.790	151.082	201.258	119.814	231.741	0.737	-24.960	263.833	128.984	207.129	196.978	83.985	152.563	0.00013579	0.0012165	6.2396e-05	986.75	1.7912e-06	5.1024e-06	842.62	364	1.2417e-06	3.1236e-06	362.81	136.41	130.55	51.022	1.0343e-05	59.446	0.0087927	0.011194	0.0033788	1186.7	0.00011956	0.00012425	1030.4	436.65	0.00011852	0.00012551	461.02	170.55	161.14	62.118	0.00013093	73.614	257.173	14.551	-32.608	-68.940	3.428	159.013	-69.802	-63.835	-53.840	-23.500	-66.180	-61.617	-59.773	-54.746	-78.536	-57.238	-8191	255	
9913.381	1	1	0	0	0.24698	0.13395	0.046524	0.338	0.13704	0.077996	0.14563	0.13602	0.059407	0.12771	0.21025	0.17816	0.02313	0.17589	0.13526	0.15382	-1.9813	-3.2417	-2.5	-2.85	-3.25	-2.2604	-3.2354	-2.8917	-2.0542	-3.1729	-2.7333	-2.75	-3.3146	-2.4938	-2.8625	-3.0479	124.818	55.112	66.488	-77.751	244.697	107.065	-80.553	229.650	163.694	68.812	-76.966	219.383	59.178	-70.542	14.960	102.573	0.00011739	0.00049019	0.00016802	987.16	6.4573e-06	2.9238e-06	841.61	365.3	2.7027e-06	1.1332e-05	360.41	136.74	129.9	50.919	5.9481e-06	59.328	0.0086726	0.011595	0.0033998	1186	0.0001183	0.00012885	1033.7	437.04	0.00011723	0.00013037	459.48	170.18	160.97	62.332	0.00012916	73.274	232.624	94.562	-9.920	-69.313	69.691	146.877	-69.698	-64.069	111.212	108.009	-66.358	-61.517	-59.955	-55.072	16.173	-57.500	-8191	255	
9913.477	1	1	0	0	0.22449	0.24131	0.2053	0.24561	0.092518	0.20853	0.09598	0.27756	0.23993	0.19392	0.17177	0.10184	0.29855	0.12061	0.16153	0.079466	-2.0854	-3.0979	-2.7021	-2.6792	-3.1063	-2.3917	-3.1312	-3.0958	-2.3167	-3.1063	-2.9333	-2.5042	-3.4021	-2.5167	-2.65	-3.2604	-3.896	259.725	237.854	268.112	-5.920	139.148	131.628	193.238	24.547	49.753	269.432	154.627	-69.914	240.052	52.715	263.662	0.00025462	0.00013684	0.00022516	988.62	1.5252e-05	9.4535e-06	839.81	363.89	3.5664e-06	3.9921e-06	359.04	135.85	129.28	50.643	7.4789e-06	58.744	0.0086232	0.011956	0.0033332	1184.9	0.00011829	0.00013222	1025.2	434.7	0.00011809	0.00013262	454.79	168.43	160.55	62.171	0.00012636	72.539	213.512	160.406	7.192	-69.319	234.311	179.688	-70.025	-63.999	238.250	253.142	-66.076	-61.598	-59.854	-55.240	84.427	-57.325	-8191	255	
9913.598	1	1	0	0	0.12547	0.099073	0.18144	0.36093	0.14044	0.037051	0.21283	0.15463	0.12448	0.10589	0.065346	0.1757	0.16549	0.12837	0.33566	0.28739	-1.8854	-2.9729	-2.7125	-2.6063	-3.2125	-2.4229	-2.8	-3.1958	-2.2229	-3.0187	-3.0208	-2.3063	-3.4938	-2.7458	-2.5646	-3.25	96.803	158.269	233.608	215.116	9.653	64.875	-53.369	255.246	9.923	198.302	264.686	-40.042	253.020	266.368	17.202	-79.681	0.00032158	0.0014324	0.0001182	990.48	2.214e-06	6.8761e-06	838.88	362.47	6.1979e-06	1.2834e-05	357	134.16	129.55	50.437	9.0131e-06	58.419	0.0087587	0.012066	0.0032232	1180.6	0.00012038	0.00013312	1020.1	432.48	0.00012037	0.00013257	451.2	167.29	160.94	61.977	0.00012325	72.154	223.936	2.685	0.592	-69.355	256.545	51.642	-70.058	-64.051	231.064	160.868	-65.981	-61.861	-59.816	-54.904	42.189	-57.435	-8191	255	
9913.670	1	1	0	0	0.19619	0.082856	0.050256	0.071375	0.15582	0.23099	0.15965	0.10275	0.10203	0.42278	0.37282	0.22247	0.18709	0.27838	0.11123	0.23898	-1.9813	-2.8542	-2.9813	-2.5104	-3.1583	-2.6437	-2.8479	-3.3667	-1.9667	-2.7229	-3.2521	-2.1562	-3.2417	-2.9104	-2.5312	-3.2104	250.917	187.970	104.195	128.948	15.286	276.552	230.552	138.299	244.840	226.288	258.490	182.615	235.548	130.567	68.215	193.183	0.00025675	0.00060076	0.00019667	992.97	2.0462e-06	1.4642e-05	836.35	363.11	4.2241e-06	9.8878e-06	357.12	134.11	128.59	50.231	6.8057e-06	58.398	0.0090745	0.01195	0.0031838	1181.3	0.00012398	0.00013003	1017.9	432	0.00012415	0.00012981	449.66	166.6	160.89	61.557	0.00012098	72.067	214.213	277.178	-48.991	-69.397	191.749	2.449	-70.115	-64.385	-29.124	80.377	-66.275	-61.560	-59.868	-55.413	-59.029	-57.447	-8191	255	
9913.790	1	1	0	0	0.1915	0.10929	0.090783	0.030991	0.38012	0.065118	0.20673	0.14023	0.13293	0.21778	0.19389	0.049878	0.18481	0.032974	0.054444	0.0031327	-2.1021	-2.8729	-3.1146	-2.4417	-3.1688	-2.775	-2.5167	-3.4542	-2.5479	-2.7542	-3.1875	-2.3604	-3.2146	-2.7854	-2.4042	-3.4	9.212	42.627	240.044	224.579	179.408	259.833	189.520	269.663	46.005	245.657	172.453	255.842	263.795	201.891	131.958	70.403	0.00016707	0.0001772	0.00019121	987.41	1.0777e-05	6.8069e-06	838.56	362.84	3.2417e-06	8.1729e-06	355.61	134.57	128.89	50.13	9.769e-06	58.22	0.0092604	0.011686	0.0031306	1181.7	0.0001278	0.00012886	1017.1	432.78	0.00012764	0.00012725	448.56	167.17	161.64	61.375	0.00011869	72.204	234.702	175.667	27.972	-69.519	135.377	104.581	-70.261	-64.315	69.376	62.573	-66.185	-61.863	-60.121	-55.279	80.177	-57.584	-8191	255	
9913.885	1	1	0	0	0.10354	0.24621	0.081364	0.023172	0.11742	0.1484	0.20655	0.31049	0.21361	0.18604	0.40196	0.20169	0.1226	0.14076	0.22054	0.23703	-2.1792	-2.5438	-3.2646	-2.5229	-2.8854	-2.8375	-2.5375	-3.3083	-2.3896	-2.5104	-3.2188	-2.3292	-3.1333	-2.9458	-2.1021	-3.2979	148.742	120.522	-51.570	75.567	204.603	97.758	204.641	249.086	105.514	-63.224	-20.906	-40.606	245.502	37.780	-63.863	-79.915	0.0002519	0.00042967	0.00027984	988.31	6.2731e-06	1.2141e-05	837.62	361.81	7.4666e-06	1.5064e-05	354.72	133.68	129.16	50.088	8.6626e-06	57.991	0.0094189	0.011451	0.0030891	1184.2	0.00012761	0.00012599	1009.8	433.61	0.00012704	0.00012456	445.8	167.31	161.23	61.176	0.00011815	72.3	249.888	-25.076	-2.818	-69.314	56.417	11.672	-70.116	-64.107	43.197	59.529	-66.256	-61.990	-60.077	-55.193	95.517	-57.436	-8191	255	
9913.981	1	1	0	0	0.16411	0.21985	0.28771	0.27338	0.144	0.25106	0.38133	0.35725	0.14147	0.13787	0.028982	0.081075	0.39636	0.096495	0.22583	0.16882	-2.2479	-2.5167	-3.0687	-2.4833	-2.9729	-3.1562	-2.3542	-3.1125	-2.8438	-2.5687	-3.3229	-2.2708	-2.875	-3.0625	-2.2146	-3.2396	82.710	229.771	-58.766	200.357	-16.337	118.842	277.572	220.099	258.891	153.950	-9.226	163.733	178.180	-31.427	16.196	27.712	0.0001428	0.0015323	0.0002013	987.72	1.0763e-05	1.0806e-05	834.64	362.65	4.8263e-06	4.5975e-06	354.52	134.24	128.89	50.27	9.0307e-06	58.445	0.0092956	0.011294	0.0030851	1190.7	0.00012572	0.00012448	1010.2	435.11	0.0001254	0.00012373	446.27	168.64	160.87	61.273	0.00011964	72.879	250.475	-22.838	-46.301	-69.462	54.352	71.439	-70.133	-63.914	209.815	75.145	-66.102	-61.921	-60.039	-55.106	202.604	-57.410	-8191	255	
9914.077	1	1	0	0	0.2031	0.23426	0.27671	0.12445	0.22183	0.23227	0.4153	0.0357	0.15136	0.18275	0.28681	0.27634	0.19327	0.10505	0.23511	0.1416	-2.3438	-2.1021	-3.2396	-2.5062	-2.5583	-2.9208	-2.4667	-3.3104	-2.6437	-2.3812	-3.3563	-2.4313	-2.6271	-3.35	-2.2562	-3.1917	-36.568	194.008	189.994	112.520	221.089	73.901	247.020	118.481	151.426	196.991	253.135	270.368	250.072	-62.154	196.773	200.157	0.00015933	0.0013337	0.00029816	987.76	1.0052e-05	8.2619e-06	836.27	364.14	4.7035e-06	8.9707e-06	355.98	135.47	130.15	50.611	4.3455e-06	58.728	0.0091318	0.011067	0.0031019	1193.3	0.00012357	0.00012345	1015.6	436.72	0.00012341	0.0001226	450.18	169.82	160.99	61.351	0.0001234	73.276	260.843	-17.897	83.445	-69.392	94.784	94.571	-69.949	-63.520	19.868	99.920	-66.175	-61.829	-59.748	-55.188	224.578	-57.291	-8191	255	
9914.198	1	1	0	0	0.21041	0.23997	0.13325	0.25353	0.2542	0.054505	0.12266	0.22233	0.046009	0.06614	0.1498	0.10291	0.11929	0.22316	0.11334	0.35483	-2.5062	-2.3104	-3.2396	-2.7854	-2.5875	-3.0271	-2.3187	-3.2771	-3.0417	-2.1542	-3.2167	-2.6833	-2.6854	-3.2687	-2.3688	-3.1271	146.815	8.602	201.103	247.422	-60.862	22.931	178.045	249.815	224.330	27.141	126.491	193.139	203.909	253.113	173.631	169.797	4.3812e-05	0.001115	0.00016845	991.83	1.6667e-05	1.0251e-05	841.1	364.12	6.8601e-06	8.7895e-06	358.08	134.8	129.59	50.457	9.8847e-06	58.941	0.0090818	0.011031	0.0032343	1194.6	0.00012196	0.0001226	1023.5	437.21	0.00012282	0.00012184	454.25	169.4	160.85	61.433	0.00012967	73.125	254.080	1.315	127.023	-69.152	72.164	99.997	-69.951	-63.640	-5.030	45.372	-66.277	-61.799	-59.836	-54.880	201.274	-57.345	-8191	255	
9914.294	1	1	0	0	0.058048	0.22739	0.094098	0.29712	0.14412	0.29394	0.14193	0.11331	0.11313	0.057063	0.090428	0.072857	0.12782	0.11514	0.21647	0.18426	-2.7083	-2.1312	-3.2167	-2.5417	-2.4646	-3.2458	-2.4167	-2.9646	-3.0625	-2.4333	-3.3708	-2.8021	-2.575	-3.2188	-2.5375	-2.7042	80.781	51.675	81.737	-71.227	220.281	24.434	72.237	52.810	-60.743	-0.254	138.453	-23.215	219.653	180.712	-52.300	206.963	8.157e-05	0.0011868	0.00026878	995.73	7.694e-06	1.2403e-05	834.73	364.29	2.2124e-06	4.5068e-06	356	134.56	129.61	50.528	7.4555e-06	58.845	0.0089893	0.011123	0.0033865	1194.9	0.00012136	0.00012394	1025.4	436.49	0.00012203	0.00012426	456.6	169.03	160.75	61.701	0.00013354	72.987	254.987	-30.037	95.543	-69.130	-41.180	112.943	-69.912	-63.967	45.398	-27.877	-65.880	-61.647	-59.850	-55.083	97.118	-57.354	-8191	255	
9914.365	1	1	0	0	0.085093	0.093289	0.11481	0.11816	0.020393	0.24506	0.14534	0.14556	0.18381	0.11177	0.25121	0.27953	0.22589	0.03983	0.078174	0.12926	-2.8458	-2.4437	-3.0687	-2.7917	-2.2917	-3.1771	-2.4708	-2.7271	-3.2854	-2.1229	-3.15	-3.0125	-2.2271	-3.3438	-2.6292	-2.8187	129.554	-27.683	245.106	184.817	-38.479	91.210	209.378	86.898	-55.604	162.457	216.255	-37.287	-44.343	195.157	61.069	217.232	0.00021179	0.00028215	6.8679e-05	987.64	7.4627e-06	1.2273e-05	839.58	364.14	1.0835e-05	1.4609e-05	358.56	135.44	130.53	50.726	9.9338e-06	58.769	0.0089456	0.011419	0.0034561	1188.7	0.00012099	0.0001276	1030.2	435.44	0.00012027	0.00012824	457.79	169.32	160.89	62.177	0.00013332	72.935	237.143	275.977	0.987	-69.291	-27.636	131.143	-69.973	-63.779	15.193	161.898	-65.912	-61.661	-59.691	-54.827	-2.794	-57.313	-8191	255	
9914.486	1	1	0	0	0.11105	0.076394	0.12807	0.097694	0.034978	0.27969	0.13457	0.40813	0.13865	0.14035	0.16052	0.10387	0.12882	0.11484	0.10221	0.13674	-2.7229	-2.1458	-2.9292	-2.9667	-2.1958	-3.2958	-2.7521	-2.8729	-3.125	-2.2958	-3.0208	-3.2292	-2.2771	-3.3833	-2.6104	-2.4458	-25.395	-25.049	174.664	-40.991	-81.277	219.222	254.282	263.400	-6.860	21.064	191.059	0.247	-48.395	275.361	18.439	-30.479	0.00016002	0.00019277	0.00065314	986.85	9.2429e-06	7.0608e-06	840.58	363.43	8.0261e-06	9.3977e-06	357.7	135.56	129.54	50.703	2.5971e-06	58.746	0.0088414	0.01187	0.0034289	1187.9	0.00011946	0.00013202	1029.2	434.71	0.00012029	0.00013342	456.49	169.13	160.36	62.378	0.00013192	72.651	242.258	9.915	-44.998	-69.056	130.972	165.517	-69.742	-63.893	101.822	-3.293	-66.085	-61.554	-59.848	-54.713	-68.172	-57.073	-8191	255	
9914.582	1	1	0	0	0.19085	0.20993	0.24765	0.052606	0.031841	0.18469	0.09103	0.20004	0.047222	0.22165	0.14582	0.19731	0.19762	0.28381	0.10775	0.18724	-2.725	-2.5667	-3.1042	-3.1958	-2.2896	-3.2313	-2.5979	-2.4542	-3.3688	-2.4708	-2.9042	-3.3	-2.4167	-3.1958	-2.9333	-2.6396	-3.009	71.576	233.047	182.812	69.631	109.775	214.498	-36.930	199.633	182.182	206.104	214.039	161.140	226.063	272.981	242.839	0.00028064	0.00072477	0.00031267	991.82	5.1709e-06	5.8441e-06	836.79	362.68	7.0129e-06	5.2027e-06	357.62	134.37	129.51	50.568	1.2237e-05	58.356	0.0088829	0.012301	0.0033712	1188.7	0.00012055	0.00013655	1026.7	433.59	0.00012222	0.00013688	454.16	168.02	160.62	62.273	0.00012984	72.227	236.292	29.095	-33.712	-69.120	-27.861	7.804	-69.867	-63.816	-65.781	175.747	-65.641	-61.617	-59.632	-54.751	30.124	-57.137	-8191	255	
9914.678	1	1	0	0	0.23172	0.14694	0.030835	0.29543	0.23693	0.092277	0.06232	0.40638	0.23358	0.13193	0.047297	0.16705	0.17246	0.045882	0.26237	0.52141	-3.0438	-2.45	-2.8604	-3.2396	-2.4333	-3.0938	-3.0083	-2.3688	-3.1875	-2.6875	-2.5896	-3.2708	-2.1854	-2.8771	-2.9167	-2.4875	229.885	22.231	239.876	219.067	215.601	58.634	-5.440	244.216	-22.331	45.121	278.074	165.320	-76.742	-61.020	220.349	-31.260	0.00025464	0.00078609	0.00037033	988.79	5.4507e-06	2.0749e-05	837.8	362.26	1.1549e-05	1.4431e-05	354.83	134.05	129.35	50.48	6.8963e-06	58.266	0.0091715	0.012431	0.0033175	1184.9	0.00012458	0.00013738	1021.7	432.42	0.00012609	0.00013734	450.77	167.09	161.33	62.163	0.00012741	71.952	212.633	65.346	-45.234	-69.170	142.416	103.960	-69.674	-63.859	-56.354	50.448	-65.860	-61.446	-59.731	-54.753	42.245	-57.218	-8191	255	
9914.774	1	1	0	0	0.2189	0.11774	0.23359	0.25594	0.12334	0.15604	0.05464	0.19728	0.085158	0.1994	0.15934	0.27438	0.27296	0.188	0.20211	0.017448	-2.9583	-2.5958	-2.4	-3.6646	-2.3729	-2.9021	-3.1167	-2.5646	-3.2313	-2.9271	-2.675	-3.3688	-2.475	-3.0229	-3.0979	-2.5187	219.489	-55.517	227.256	126.782	217.119	196.604	1.885	213.602	-42.026	-48.870	34.429	-26.112	114.504	99.300	49.579	244.490	8.0967e-05	0.0010786	0.00023605	991.91	1.2659e-05	1.125e-05	835.6	363.25	1.7795e-06	1.4093e-05	355.12	134.34	129.34	50.475	9.147e-06	58.427	0.0094988	0.012319	0.0032646	1183.6	0.00012922	0.00013521	1018.7	431.89	0.00013055	0.00013455	448.86	167.32	162.03	62.019	0.00012713	72.319	236.527	-16.297	-11.559	-69.008	169.516	14.050	-69.962	-63.577	139.500	-9.476	-66.100	-61.580	-59.683	-54.808	103.632	-57.104	-8191	255	
9914.893	1	1	0	0	0.16704	0.19283	0.21587	0.10231	0.22491	0.094706	0.11636	0.11089	0.11742	0.10931	0.081736	0.20132	0.077902	0.18674	0.24473	0.02969	-2.8958	-2.7896	-2.3396	-3.4792	-2.6312	-2.6271	-3.2604	-2.475	-3.2812	-2.9313	-2.5104	-3.4167	-2.5521	-2.7375	-3.1667	-2.4625	-48.595	163.096	80.514	163.030	273.220	-11.648	-8.756	37.877	-19.433	103.285	-11.299	198.472	63.388	169.778	1.403	51.769	0.00021928	0.0012924	0.00022396	993.64	6.1999e-06	1.6804e-05	838.22	360.88	1.9124e-06	1.4863e-05	356.18	134.64	129.38	50.777	1.0448e-05	58.843	0.0098115	0.012212	0.0032784	1189	0.00013535	0.00013548	1023	434.23	0.00013784	0.00013725	451.77	169.96	164.01	62.516	0.00013268	73.816	227.183	-20.513	-6.368	-69.019	174.790	68.889	-69.826	-63.697	21.376	20.919	-65.694	-61.444	-59.696	-54.760	35.999	-57.142	-8191	255	
9914.967	1	1	0	0	0.17521	0.25231	0.077714	0.088825	0.1885	0.1002	0.079472	0.31852	0.10439	0.18304	0.13773	0.34913	0.25998	0.10096	0.1309	0.12161	-2.8208	-2.8625	-2.2417	-3.1021	-2.4813	-2.6271	-3.3854	-2.475	-2.7646	-2.9125	-2.4688	-3.4583	-2.7708	-2.5958	-3.075	-2.3354	265.519	248.432	193.694	166.846	-47.553	186.678	256.041	217.815	29.929	216.564	275.223	-67.367	222.692	241.088	-36.326	239.820	0.00030067	0.00083015	0.00033393	991.69	1.1718e-05	7.7524e-06	837.24	360.35	1.2318e-05	4.7361e-06	353.27	134.71	129.27	50.692	9.5565e-06	58.375	0.010446	0.012801	0.0034463	1205.7	0.00014378	0.00014268	1030.2	439.38	0.00014462	0.0001426	455.41	172.15	164.81	62.651	0.00013497	74.125	257.656	101.804	-58.717	-69.040	68.256	37.487	-69.781	-63.621	-16.332	50.401	-66.154	-61.468	-59.794	-54.826	57.964	-57.394	-8191	255	
9915.061	1	1	0	0	0.27888	0.12468	0.20981	0.099535	0.080602	0.23697	0.19819	0.20859	0.18213	0.24873	0.29923	0.17792	0.39826	0.17731	0.13437	0.30722	-2.7479	-3.0875	-2.5021	-3.2812	-2.4875	-2.35	-3.3021	-2.6583	-2.9604	-2.9	-2.375	-3.175	-2.85	-2.5729	-3.0375	-2.4625	100.900	43.449	-81.709	222.738	244.091	84.778	275.003	188.392	75.591	65.215	233.478	252.110	238.871	268.951	-10.893	-78.690	0.00017128	0.0015251	0.00021147	984.56	9.859e-06	1.0406e-05	832.34	360.12	2.8691e-06	5.645e-06	352.65	134.02	128.62	50.519	1.0985e-05	58.233	0.01044	0.012671	0.0034367	1208.3	0.00014016	0.00013805	1025.7	439.36	0.00013853	0.00013739	451.64	171.38	163.14	62.123	0.00013308	73.824	193.487	-53.824	-73.614	-69.428	48.782	48.545	-69.901	-63.876	-46.904	64.434	-66.037	-61.395	-59.639	-54.945	249.518	-57.030	-8191	255	
9915.157	1	1	0	0	0.13563	0.049993	0.20333	0.089285	0.10249	0.37984	0.1017	0.046188	0.17265	0.1121	0.27584	0.10933	0.25186	0.12233	0.2355	0.13778	-2.2771	-3.1646	-2.3521	-3.4313	-2.9062	-2.4292	-3.2292	-2.4854	-2.775	-3.3271	-2.5146	-3.1375	-2.9646	-2.5563	-3.3292	-2.675	33.486	12.972	239.533	181.438	249.412	185.048	106.513	262.099	70.984	256.927	60.431	273.080	244.229	242.654	188.455	264.602	0.00018968	0.0011819	0.00024763	991.89	4.3663e-06	5.8859e-06	834.29	359.62	9.1375e-06	3.0998e-06	352.92	133.93	128.96	50.296	6.4734e-06	58.614	0.0099287	0.012211	0.0034079	1209.4	0.00013408	0.00013223	1026.5	437.88	0.00013245	0.0001325	452.65	171.07	162.21	61.848	0.00013414	73.956	225.870	-23.412	22.775	-69.054	67.413	131.140	-69.714	-63.637	-23.224	3.358	-66.068	-61.514	-59.483	-54.865	-17.336	-57.468	-8191	255	
9915.278	1	1	0	0	0.16004	0.158	0.22702	0.18305	0.16994	0.19517	0.11112	0.19324	0.47322	0.095783	0.023359	0.28919	0.16693	0.13039	0.090646	0.17802	-2.2771	-3.2687	-2.1667	-3.1729	-2.9313	-2.3146	-3.3667	-2.6854	-2.5833	-3.1208	-2.5812	-3.15	-3.3104	-2.3417	-3.1208	-2.675	-79.650	-7.076	223.373	-33.598	118.111	138.209	91.900	219.108	174.268	140.338	261.202	208.106	227.024	-72.295	154.102	18.722	0.00021949	0.00091505	0.00015635	991.06	7.7113e-06	7.8026e-06	835.86	361.89	5.2204e-06	2.0792e-06	353.51	135.12	129.08	50.56	1.2703e-05	58.883	0.0095619	0.011872	0.0034631	1204.6	0.00013063	0.00013064	1033.5	438.8	0.00013006	0.00013127	457.77	171.79	162.36	62.073	0.00013908	74.011	255.547	13.158	123.467	-69.309	16.840	119.865	-69.590	-63.717	209.772	235.217	-65.741	-61.632	-59.798	-55.000	-66.510	-57.601	-8191	255	
9915.374	1	1	0	0	0.042909	0.18351	0.097877	0.23028	0.17811	0.13732	0.037876	0.084787	0.090394	0.1166	0.0467	0.20816	0.29946	0.08016	0.29096	0.20706	-2.0771	-3.3042	-2.2625	-3.1021	-3.2521	-2.2396	-3.2271	-2.7542	-2.2979	-3.2562	-2.675	-2.9979	-3.2062	-2.5833	-3.0646	-2.7792	199.812	-62.728	214.748	276.824	165.810	-30.142	182.471	-46.528	56.127	224.208	135.927	208.971	244.205	223.287	146.729	-52.352	0.00018403	0.00051243	0.00030503	991.47	9.6405e-06	1.3806e-05	834.39	359.51	5.5147e-06	4.812e-06	352.48	134.09	128.38	50.409	7.4112e-06	58.41	0.0095125	0.011972	0.0036137	1202.2	0.00013028	0.00013204	1035.6	437.37	0.00012881	0.00013346	458.66	170.33	161.67	62.121	0.00014268	73.389	259.621	90.216	-44.712	-69.168	133.216	53.529	-70.192	-63.915	92.105	253.331	-65.998	-61.777	-60.009	-54.915	212.492	-57.346	-8191	255	
9915.470	1	1	0	0	0.16055	0.069993	0.12872	0.10559	0.15187	0.095463	0.2486	0.25016	0.020761	0.072179	0.14708	0.099198	0.37812	0.17036	0.17151	0.32862	-1.8708	-3.0771	-2.6854	-2.8667	-3.2729	-2.3083	-3.075	-2.8354	-2.5	-3.1917	-2.7833	-2.6292	-3.3479	-2.3	-2.975	-3.0979	36.457	29.664	35.213	250.920	221.331	149.605	220.818	189.144	52.994	226.890	1.179	219.655	248.566	185.270	-36.323	155.305	0.00028568	0.00051046	0.0004012	987.14	3.7282e-06	1.1271e-05	833.48	359.57	5.4136e-06	1.0248e-05	352.53	133.42	128.26	50.316	8.6406e-06	58.197	0.0094639	0.012344	0.0037011	1198.4	0.00013047	0.00013776	1038.1	436.5	0.00012903	0.00014019	459.5	170.02	161.73	62.556	0.00014457	73.531	230.798	230.538	-49.317	-69.384	71.694	169.524	-70.047	-64.083	123.484	172.359	-66.053	-61.754	-59.732	-55.193	113.657	-57.338	-8191	255	
9915.591	1	1	0	0	0.17239	0.29636	0.16911	0.19968	0.088696	0.19541	0.27435	0.25313	0.07092	0.13531	0.019287	0.35204	0.051222	0.37223	0.15539	0.16011	-2.0646	-3.125	-2.5021	-2.7396	-3.0667	-2.2542	-3.1104	-3.1229	-2.3	-3.3625	-2.925	-2.5125	-3.3708	-2.4833	-2.7375	-3.225	251.306	89.830	-63.407	234.855	-38.940	253.565	220.822	226.674	21.029	-62.332	187.242	-57.996	10.700	248.607	42.126	-80.454	0.00017048	0.0004056	0.00034711	985.07	7.0394e-06	1.8412e-05	836.23	360.07	3.5174e-06	5.2691e-06	353.38	134.61	128.24	50.268	1.3327e-05	58.238	0.0095666	0.01302	0.00373	1198.8	0.00013113	0.00014448	1039.7	436.65	0.00013138	0.00014675	458.97	170.51	162.34	62.959	0.00014256	73.561	242.325	186.132	-21.723	-69.023	85.099	122.595	-69.962	-63.867	118.865	253.222	-66.145	-61.350	-59.691	-54.952	37.162	-57.620	-8191	255	
9915.663	1	1	0	0	0.16575	0.23019	0.11564	0.044267	0.15462	0.32829	0.063647	0.094161	0.13166	0.14628	0.18574	0.1638	0.086162	0.07529	0.18181	0.10618	-1.9688	-3.2812	-2.9167	-2.5854	-3.325	-2.4729	-2.8292	-3.2854	-2.1646	-2.9354	-2.8479	-2.5167	-3.3208	-2.5625	-2.7667	-3.2104	85.919	-43.835	189.586	272.051	44.377	184.662	243.892	-46.064	99.412	2.475	53.907	156.771	54.653	44.132	-74.178	139.853	0.00025324	0.00085712	0.00033718	984.04	8.0025e-06	8.3086e-07	834.83	359.9	8.6839e-06	7.7963e-06	352.63	134.4	128.91	50.361	1.233e-06	58.701	0.0096485	0.013352	0.0036676	1197.4	0.00013234	0.00014809	1035.8	436.62	0.00013478	0.00015202	460.36	171.57	164.3	63.783	0.0001501	74.601	216.893	27.812	-41.630	-69.174	162.449	256.602	-69.967	-63.902	42.074	223.684	-66.232	-61.447	-59.830	-54.924	68.592	-57.119	-8191	255	
9915.759	1	1	0	0	0.24759	0.14414	0.095032	0.16852	0.2876	0.17908	0.14309	0.3096	0.10581	0.20004	0.082555	0.20605	0.14921	0.032607	0.21261	0.38001	-1.6917	-2.7896	-2.8187	-2.4292	-3.1854	-2.4396	-2.7375	-3.1771	-2.3187	-3.1	-3.0354	-2.2979	-3.1021	-2.6208	-2.7208	-3.4375	220.441	6.896	69.391	223.822	30.487	-28.374	-10.518	261.366	-35.149	2.777	115.543	45.258	197.550	37.700	-46.404	213.247	0.00027444	0.00050689	0.00044943	988.22	6.7432e-06	2.0153e-05	832.41	358.75	7.804e-06	4.325e-06	350.16	133.09	128.95	50.271	1.4309e-05	57.914	0.01096	0.014924	0.0040389	1222.1	0.00015863	0.00017277	1060.6	445.26	0.00016447	0.00017714	472.68	175.05	169.4	64.763	0.00016894	75.536	227.933	127.810	45.247	-69.181	194.349	145.349	-69.905	-63.769	2.329	-10.954	-66.075	-61.478	-59.766	-55.158	-67.897	-57.280	-8191	255	
9915.879	1	1	0	0	0.030785	0.19796	0.075464	0.076028	0.077055	0.081441	0.11135	0.10575	0.12121	0.15437	0.1027	0.13869	0.092604	0.026749	0.18467	0.056113	-2.0917	-2.7562	-2.9042	-2.2708	-3.1646	-2.7771	-2.5687	-3.375	-2.5333	-3.0479	-3.3708	-2.4167	-3.2458	-2.7687	-2.3979	-3.5729	242.001	128.800	6.708	-80.499	87.589	163.479	70.420	218.948	-9.563	178.935	255.022	85.097	250.968	47.608	76.382	238.640	0.00020201	0.00072411	0.00047944	985.62	5.7673e-06	6.3476e-06	830.99	357.63	5.6123e-06	6.4575e-06	348.88	133.44	128.21	50.172	1.6515e-06	57.903	0.012525	0.016089	0.0042478	1220.2	0.0001536	0.00014894	1021	428.88	0.00012998	0.00013321	444.28	166.1	161.18	61.677	0.00012224	71.979	260.783	17.151	26.745	-69.102	96.123	-6.461	-69.972	-63.921	271.889	23.869	-65.991	-61.633	-59.654	-54.942	160.902	-57.388	-8191	255	
9915.974	1	1	0	0	0.22974	0.24386	0.0507	0.32271	0.31502	0.11651	0.27195	0.25916	0.20552	0.11835	0.32961	0.40719	0.14252	0.11254	0.14535	0.095761	-2.1396	-2.7521	-3.0771	-2.3812	-3.2479	-2.9229	-2.5208	-3.3229	-2.325	-2.7792	-3.3479	-2.5042	-3.0187	-2.9292	-2.3312	-3.2875	174.371	-51.156	29.784	136.744	86.120	75.765	208.920	186.153	86.549	8.259	191.859	-55.503	151.517	184.298	-7.635	-62.191	0.0002552	0.00074192	0.00049625	987.18	1.8398e-06	1.2929e-05	831.83	358.54	4.1936e-06	1.1735e-05	350.74	133.11	128.51	50.237	8.0058e-06	58.057	0.0097875	0.012263	0.0034066	1196.9	0.00014714	0.00014991	1036.7	439.7	0.00015384	0.00015211	457.62	171.16	164.94	62.497	0.00013252	73.068	250.970	-38.710	29.386	-68.942	107.911	67.204	-69.900	-63.775	195.594	75.669	-65.948	-61.728	-59.677	-54.974	150.094	-57.088	-8191	255	
9916.070	1	1	0	0	0.10515	0.091731	0.14606	0.28542	0.04824	0.10936	0.049973	0.222	0.22957	0.33949	0.11178	0.063267	0.15247	0.17242	0.057223	0.40825	-1.9458	-2.6917	-3.3063	-2.375	-2.8604	-2.9146	-2.4479	-3.4396	-2.6917	-2.5521	-3.3417	-2.5438	-3.0479	-3.0542	-2.5396	-3.3875	199.398	-2.042	54.400	264.944	228.672	218.043	106.522	239.270	175.134	-2.555	-9.274	-27.605	212.425	151.294	162.216	-14.304	0.00012175	0.00077857	0.00036017	987.69	7.156e-06	1.0629e-05	833.61	358.25	4.6327e-06	6.8943e-06	350.15	133.3	128.21	50.128	1.2854e-05	58.242	0.010083	0.012082	0.003256	1195.1	0.00013363	0.00013158	1014.2	433.31	0.00013235	0.00012933	444.91	168.88	162.29	61.972	0.00013132	73.972	198.811	243.557	29.328	-68.799	24.478	174.628	-69.917	-63.603	63.657	-52.004	-65.838	-61.783	-59.924	-55.017	-61.244	-57.060	-8191	255	
9916.190	1	1	0	0	0.17556	0.14807	0.10289	0.12793	0.067304	0.32451	0.41471	0.068385	0.097142	0.12023	0.20341	0.31479	0.16266	0.21457	0.075504	0.3459	-2.075	-2.3104	-3.1937	-2.4604	-2.7146	-3.1	-2.375	-3.2604	-2.7333	-2.4417	-3.2938	-2.525	-2.8604	-3.2146	-2.4729	-3.2396	-6.501	-41.438	265.595	239.923	213.986	77.292	-75.734	-8.307	215.369	242.496	193.076	221.546	138.666	186.216	273.639	244.637	0.0003474	0.0011441	5.1887e-05	986.15	2.337e-06	1.1065e-05	834.67	358.75	5.3846e-06	1.459e-05	348.54	132.68	128.27	50.014	2.0059e-06	58.169	0.010604	0.013073	0.0036448	1218.1	0.00014773	0.00014687	1034.3	441.54	0.00014619	0.00014333	452.92	171.08	162.75	61.979	0.0001338	73.558	250.833	250.944	-57.069	-68.914	-79.592	91.488	-69.697	-63.432	56.840	36.922	-65.924	-61.497	-59.470	-54.820	84.371	-57.088	-8191	255	
9916.262	1	1	0	0	0.10143	0.21091	0.083358	0.14023	0.10102	0.12374	0.13901	0.23137	0.082698	0.057593	0.1769	0.18094	0.14834	0.076794	0.093626	0.31756	-2.5292	-2.2562	-3.2188	-2.6854	-2.8042	-3.1396	-2.5062	-3.2125	-3.0438	-2.1542	-3.2896	-2.6813	-2.7208	-3.3521	-2.3812	-3.2125	-54.735	198.052	19.948	-43.290	151.773	108.838	-42.733	81.259	76.659	201.852	61.845	222.998	-45.853	201.400	269.309	178.336	0.00028308	0.0011458	0.00037125	991.8	1.7522e-06	1.0412e-05	830.38	358.95	5.0682e-06	6.3269e-06	347.65	132.51	128.25	50.213	5.9771e-06	58.082	0.009892	0.012104	0.0034809	1210.3	0.00013568	0.00013714	1028.6	438.81	0.00013718	0.00013636	453.28	170.83	162.14	62.048	0.00013941	73.908	264.584	-74.571	108.041	-69.083	-4.336	67.917	-69.659	-63.646	145.051	82.825	-65.569	-61.596	-59.565	-54.754	164.505	-57.060	-8191	255	
9916.358	1	1	0	0	0.32984	0.17192	0.087065	0.26643	0.16369	0.17992	0.20681	0.11492	0.24717	0.14795	0.058305	0.096029	0.22808	0.1568	0.26875	0.245	-2.5542	-2.2646	-3.4146	-2.8646	-2.5125	-3.1292	-2.5312	-3.0958	-2.8646	-2.3292	-3.4708	-2.9437	-2.4771	-3.2896	-2.3146	-2.8771	110.346	32.525	277.376	192.306	-47.089	23.064	193.747	247.293	239.075	162.202	-35.075	234.534	248.476	-9.202	46.000	252.182	8.1324e-05	0.0005687	0.00025729	987.15	6.136e-06	1.7803e-05	832.08	358.53	7.2134e-06	6.729e-06	349.04	133.43	128.36	50.302	5.0154e-06	58.208	0.0099309	0.012131	0.0036153	1206.5	0.00013258	0.00013394	1032.5	436.35	0.00013311	0.00013355	455.38	170.26	162.01	62.117	0.00014471	73.788	-48.639	-62.286	275.854	-69.183	-23.077	64.359	-70.155	-63.751	96.247	-70.463	-65.751	-61.466	-59.612	-54.890	-11.601	-57.203	-8191	255	
9916.454	1	1	0	0	0.10832	0.2998	0.10677	0.048538	0.14067	0.20027	0.16801	0.28126	0.12521	0.044303	0.058662	0.23948	0.21008	0.16614	0.1188	0.19164	-2.6979	-2.1396	-3.0958	-2.6708	-2.6458	-3.3604	-2.5771	-2.7667	-3.1583	-2.5021	-3.1667	-2.8083	-2.5542	-3.4313	-2.4271	-2.7	176.544	-72.292	226.987	114.720	-47.238	252.112	273.388	225.380	277.614	239.313	259.080	-32.262	187.569	253.588	-49.151	232.507	0.00022993	0.00025631	0.00019129	991.32	3.9596e-06	3.367e-06	834	358.08	6.2656e-06	1.4515e-05	348.9	132.83	128.41	50.319	1.0245e-05	58.102	0.009924	0.012396	0.0037889	1209	0.00013547	0.00014011	1044.2	437.17	0.00013602	0.00014011	458.53	170.11	161.82	62.354	0.00014817	73.457	211.553	127.074	26.374	-69.180	219.246	159.774	-69.509	-63.656	153.860	234.837	-65.683	-61.381	-59.686	-54.634	156.017	-57.048	-8191	255	
9916.551	1	1	0	0	0.28626	0.11698	0.050946	0.21654	0.05212	0.19387	0.088483	0.063688	0.02617	0.2818	0.10803	0.17282	0.059002	0.10181	0.16385	0.3795	-2.7854	-2.3	-2.9542	-2.775	-2.3417	-3.3125	-2.7687	-2.8854	-3.1188	-2.2812	-2.9167	-2.8792	-2.4604	-3.3875	-2.6875	-2.6667	145.641	86.181	34.479	113.116	-51.914	17.606	-13.346	-22.150	144.738	53.026	252.652	185.740	128.942	-41.896	-78.107	216.940	0.0002529	0.0013982	0.00036542	990.38	5.4125e-06	7.1754e-06	832.74	357.44	1.0891e-05	1.7106e-05	347.59	132.26	128.47	50.319	9.2679e-06	57.85	0.0098789	0.012824	0.0038241	1204.7	0.00013307	0.00014419	1039	434.9	0.00013346	0.0001444	456.9	169.2	161.57	62.663	0.0001479	73.157	255.902	36.658	-16.895	-69.400	110.995	56.542	-70.021	-63.824	25.534	246.571	-65.994	-61.424	-59.690	-54.562	128.861	-57.156	-8191	255	
9916.671	1	1	0	0	0.12266	0.22624	0.25698	0.39895	0.18075	0.16862	0.16412	0.31677	0.27329	0.10412	0.2401	0.30858	0.061079	0.16577	0.19971	0.18858	-2.7458	-2.0896	-2.9562	-3.2083	-2.3688	-2.9396	-2.7271	-2.6333	-3.1833	-2.3063	-2.9521	-3.275	-2.35	-3.0417	-2.7562	-2.5792	274.705	23.573	-36.372	225.700	-24.370	-45.283	72.529	254.250	221.057	70.285	-50.451	235.410	102.744	216.330	32.562	218.649	0.00028819	0.002152	0.00050003	991.6	1.4098e-05	1.1215e-05	829.7	356.01	5.1109e-06	6.0472e-06	348.52	132.72	128.03	50.131	1.82e-05	57.953	0.0099391	0.013535	0.003842	1206.5	0.00013635	0.00015277	1041.6	435.77	0.00013906	0.00015523	459.12	170.1	162.97	63.409	0.00015296	73.646	228.537	78.374	21.540	-68.988	253.773	87.553	-69.767	-63.315	20.811	210.201	-65.590	-61.514	-59.537	-54.754	34.358	-57.131	-8191	255	
9916.767	1	1	0	0	0.14639	0.24682	0.15972	0.1646	0.27513	0.23992	0.037453	0.095749	0.20145	0.043625	0.1115	0.011328	0.12816	0.24004	0.063388	0.23621	-2.9604	-2.1458	-2.6271	-3.2562	-2.3979	-3.1167	-2.7438	-2.6604	-3.2104	-2.4417	-2.8708	-3.2125	-2.3021	-3.0917	-2.9875	-2.5521	214.919	-24.157	144.937	-57.326	53.458	-66.348	48.382	210.944	175.900	70.496	232.563	119.772	19.601	188.159	169.779	216.640	0.00020476	0.00056338	0.00019209	988.5	5.1044e-06	4.3446e-06	833.43	358.11	1.0252e-05	7.2115e-06	350.15	133.06	128.1	50.577	2.0436e-06	58.274	0.010547	0.014572	0.0039715	1215.7	0.00014597	0.00016326	1046.8	439.26	0.00014973	0.00016483	461.93	171.37	165.01	63.971	0.00015519	74.218	260.509	208.400	21.263	-69.148	214.344	-8.174	-69.707	-63.612	53.559	30.740	-65.812	-61.714	-59.721	-54.991	172.946	-57.096	-8191	255	
9916.839	1	1	0	0	0.08737	0.058152	0.29359	0.33397	0.10511	0.2107	0.28785	0.056521	0.11944	0.041936	0.18551	0.18081	0.052635	0.15717	0.11324	0.28873	-2.7812	-2.4313	-2.725	-3.1708	-2.2542	-2.9938	-3.2146	-2.3063	-3.0771	-2.6167	-2.6646	-3.35	-2.4542	-3.2375	-3.075	-2.3167	1.262	-16.803	198.367	235.775	134.467	-20.233	245.723	-63.973	162.656	-22.972	202.166	221.728	149.928	249.350	31.047	222.682	0.00018105	0.00033711	0.00022372	988.7	2.3594e-06	1.8173e-05	834.34	356.87	6.7661e-06	1.0518e-05	351.49	133	128.57	50.361	1.2574e-05	58.163	0.011177	0.01488	0.0039662	1215.8	0.00015354	0.00016476	1049.4	439.18	0.00015584	0.00016444	462.8	171.69	166.5	64.023	0.00015401	74.17	191.865	245.191	-2.898	-68.789	214.775	25.033	-70.188	-63.527	226.954	36.910	-65.610	-61.391	-59.417	-54.882	65.493	-57.061	-8191	255	
9916.960	1	1	0	0	0.10886	0.097059	0.14411	0.2965	0.11915	0.21841	0.16886	0.21707	0.22788	0.19467	0.080753	0.1836	0.32866	0.11147	0.10032	0.26364	-2.7229	-2.8271	-2.5271	-3.3417	-2.4	-2.8458	-3.1	-2.7292	-3.2792	-2.8312	-2.5146	-3.1396	-2.7083	-2.8625	-3.0771	-2.2687	24.966	249.487	-20.115	181.943	120.437	141.851	138.019	256.550	188.338	20.034	-72.645	180.521	253.476	231.257	5.798	225.906	0.00025806	0.0016086	0.00036847	984.5	2.8399e-06	1.7619e-06	834.13	355.48	7.8266e-06	1.4907e-06	348.71	133.64	128.03	50.658	1.4602e-05	58.081	0.011579	0.014804	0.0039482	1215.1	0.00015697	0.00016102	1044.8	438.16	0.0001583	0.00015961	458.07	171.89	166.53	63.842	0.00014985	74.341	243.147	-10.144	-27.406	-68.947	243.642	176.722	-69.861	-63.501	71.896	74.513	-65.685	-61.217	-59.513	-54.678	19.798	-56.985	-8191	255	
9917.054	1	1	0	0	0.091451	0.11054	0.28796	0.1032	0.3434	0.15139	0.07517	0.097611	0.082888	0.097583	0.13307	0.1135	0.22114	0.27698	0.13293	0.20786	-2.75	-2.7375	-2.3646	-3.3396	-2.4	-2.4979	-3.2646	-2.4583	-2.9896	-2.7396	-2.6125	-3.3187	-2.5104	-2.8292	-3.1854	-2.3937	-23.728	144.514	-23.982	213.124	254.882	99.502	-40.589	115.794	156.848	27.299	-13.465	-40.026	269.935	240.218	74.746	156.683	0.00015778	0.00064025	0.00034037	986.28	1.031e-05	1.3965e-05	831.96	356.32	4.3327e-06	4.8461e-06	348.69	133.03	129.09	50.775	5.5214e-06	58.34	0.011544	0.014233	0.0038139	1213.7	0.00015671	0.00015499	1037.5	438.37	0.00015616	0.00015419	455.36	172.1	166.41	63.546	0.00014451	74.493	174.850	-12.429	31.678	-68.833	185.830	52.393	-69.486	-63.406	31.373	213.746	-65.402	-61.492	-59.537	-54.834	61.313	-56.826	-8191	255	
9917.150	1	1	0	0	0.2079	0.16563	0.10366	0.1732	0.073765	0.16033	0.22724	0.16038	0.053916	0.12736	0.20175	0.067371	0.20174	0.2644	0.253	0.16647	-2.6083	-3.1104	-2.1083	-3.3583	-2.4938	-2.6125	-3.2792	-2.2104	-2.7979	-3.0667	-2.4646	-3.125	-2.7104	-2.6271	-3.2896	-2.5875	-3.927	261.868	42.860	230.788	240.725	255.498	249.839	117.308	-39.892	104.300	249.127	82.753	139.694	-57.394	207.160	258.917	0.0002236	0.0002319	0.00021513	982.18	8.5382e-06	1.916e-05	828.16	356.31	7.621e-06	6.7971e-06	347.24	133.61	128.5	50.955	3.4631e-06	58.528	0.011158	0.013561	0.0036504	1211.9	0.00015149	0.00014983	1033.5	439.56	0.00015213	0.00015138	454.86	173.58	166.07	63.668	0.00014707	75.376	204.597	107.115	12.799	-68.776	61.618	94.133	-69.669	-63.552	82.007	184.209	-65.988	-61.554	-59.607	-54.816	-0.733	-57.275	-8191	255	
9917.271	1	1	0	0	0.046179	0.23682	0.16487	0.24686	0.12836	0.15171	0.040192	0.17746	0.15151	0.12471	0.15607	0.1487	0.077322	0.16676	0.17232	0.15391	-2.3958	-3.0833	-2.3979	-3.2333	-2.7542	-2.5125	-3.2687	-2.3979	-2.8042	-3.0375	-2.2958	-3.2938	-2.8917	-2.3937	-3.0875	-2.5812	247.595	54.631	21.307	275.578	46.146	-67.040	-55.675	226.658	28.715	180.354	-55.914	202.435	123.784	-9.889	29.849	210.545	8.158e-05	0.0013277	0.00033664	986.8	4.3603e-06	1.4414e-05	830.75	356.36	4.8484e-06	8.9987e-06	348.95	134.07	129.01	50.891	1.4219e-05	58.577	0.011252	0.013906	0.0038112	1225.4	0.00015369	0.00015179	1040.6	442.84	0.00015238	0.00015265	457.98	174.56	166.16	63.714	0.00015155	75.64	238.860	31.794	-46.609	-69.210	148.558	180.183	-69.647	-63.835	-64.795	-32.273	-65.758	-61.682	-59.651	-54.891	121.666	-57.249	-8191	255	
9917.367	1	1	0	0	0.071052	0.1542	0.15919	0.038867	0.2593	0.1209	0.14608	0.0036052	0.0083806	0.121	0.20032	0.30249	0.11297	0.18625	0.17459	0.17986	-2.3208	-3.1104	-2.35	-3.3063	-2.7562	-2.5125	-3.3688	-2.5875	-2.3771	-3.1	-2.5646	-2.9688	-2.9417	-2.3292	-3.2479	-2.7812	-4.618	126.404	-4.609	-66.522	138.978	131.956	65.969	233.610	42.536	5.767	176.690	121.103	12.537	227.896	-41.413	219.363	0.00022304	0.0012596	0.00018657	981.48	1.1002e-05	9.2386e-06	828.73	356.26	6.2402e-06	1.2041e-05	347.15	134.19	128.77	51.346	7.0236e-06	58.911	0.01102	0.013656	0.0038995	1221	0.00014925	0.00014846	1040.8	441.52	0.00014767	0.00014831	459.67	173.8	165.43	63.757	0.00015221	75.467	235.717	35.179	86.419	-68.897	6.636	103.227	-69.690	-63.742	66.821	82.742	-65.891	-61.765	-59.944	-54.822	198.805	-57.264	-8191	255	
9917.463	1	1	0	0	0.15458	0.13527	0.29256	0.20002	0.22154	0.10271	0.29071	0.050561	0.18896	0.19811	0.24252	0.14506	0.31383	0.032604	0.073891	0.096697	-2.0687	-3.1604	-2.2938	-2.8875	-3.2021	-2.3438	-3.3729	-2.8021	-2.5021	-3.2354	-2.5271	-3.125	-3.2125	-2.2396	-3.0979	-2.6688	-73.723	29.183	143.599	-53.408	72.687	49.434	-73.622	216.065	216.063	-21.942	257.094	-57.767	241.303	-29.583	-25.450	262.333	0.00027234	0.0004842	0.00014833	983.15	7.6821e-06	7.6497e-06	827.59	356.18	7.6156e-06	1.1467e-05	348.02	134.22	129.4	51.237	7.9123e-06	59.001	0.010674	0.013259	0.0039287	1212.4	0.00014393	0.00014413	1041.6	438.92	0.00014139	0.00014293	458.85	172.8	164.28	63.424	0.00015118	74.805	215.291	-29.086	8.085	-69.083	107.737	14.815	-69.647	-63.812	98.084	115.737	-66.041	-61.360	-59.859	-54.549	99.629	-57.262	-8191	255	
9917.559	1	1	0	0	0.10816	0.24103	0.28483	0.24957	0.13413	0.10601	0.12771	0.13793	0.13222	0.23843	0.17441	0.22074	0.19058	0.2419	0.10834	0.2396	-2.0625	-3.2313	-2.3833	-2.875	-3.2562	-2.3042	-3.2667	-2.8604	-2.1625	-3.3333	-2.7667	-2.9437	-3.1896	-2.2979	-3.0438	-2.85	227.162	64.160	134.272	232.062	-53.179	-75.474	222.940	137.724	99.999	202.613	-23.516	184.428	265.011	20.149	197.111	228.356	0.00011101	0.00092109	0.00039757	985.85	3.871e-06	5.3857e-06	825.4	357.75	2.3448e-06	2.4123e-06	348.65	134.81	128.48	51.187	1.1858e-05	58.922	0.01015	0.01289	0.0038836	1204.6	0.0001375	0.00014261	1041.9	436.63	0.00013647	0.00014334	458.95	171.31	163.18	63.418	0.00014966	74.343	228.036	22.468	-53.394	-68.799	143.974	176.603	-69.811	-63.729	36.449	19.504	-66.108	-61.613	-59.492	-54.813	94.494	-57.113	-8191	255	
9917.655	1	1	0	0	0.10252	0.084062	0.12877	0.19625	0.18455	0.1316	0.13131	0.057292	0.1972	0.069518	0.09683	0.19976	0.27962	0.33945	0.030731	0.24497	-1.9833	-3.0854	-2.4917	-2.8646	-3.0938	-2.2125	-3.2229	-2.9625	-2.3917	-3.2458	-2.7771	-2.6042	-3.2313	-2.3292	-3.075	-3.0646	237.315	5.319	-71.540	224.432	55.133	41.901	266.222	149.375	15.256	101.051	277.148	-48.483	239.614	-77.091	-63.140	250.485	0.00012956	0.0007032	0.00026637	980.88	7.3504e-06	6.0514e-06	828.83	357.01	8.7785e-06	2.5911e-06	348.03	133.64	128.77	50.801	8.3962e-06	58.331	0.0098441	0.013067	0.0038306	1198.1	0.00013351	0.00014444	1038.6	434.23	0.0001318	0.00014586	455.99	169.82	162.06	63.246	0.00014524	73.429	267.401	92.373	-24.835	-68.728	56.324	-20.743	-70.030	-63.757	41.551	-60.643	-65.806	-61.326	-59.635	-54.612	29.294	-57.107	-8191	255	
9917.752	1	1	0	0	0.16371	0.053897	0.26464	0.37829	0.11259	0.066825	0.18433	0.21473	0.13171	0.083704	0.13723	0.051232	0.15545	0.27382	0.13447	0.18797	-1.8271	-3.2833	-2.5583	-2.4562	-3.2812	-2.2812	-2.8542	-3.0771	-2.1958	-3.2646	-2.8625	-2.3604	-3.1646	-2.5396	-2.7938	-3.3375	-79.153	-33.304	262.241	239.027	258.155	-42.535	210.934	193.346	157.181	-33.979	189.863	33.467	259.686	247.639	219.020	238.837	0.00023868	0.00083625	0.00071548	982.88	1.2324e-05	1.6527e-05	826.65	355.6	1.534e-05	1.3635e-05	345.46	133.09	128.63	50.626	1.3602e-06	58.076	0.0097407	0.013386	0.0037395	1196.1	0.00013255	0.00014805	1031.5	432.19	0.00013213	0.00014925	451.86	168.59	162.2	63.296	0.00014167	73.183	203.621	58.842	16.549	-68.913	32.965	-35.633	-69.512	-63.544	6.609	156.695	-65.645	-61.376	-59.567	-54.701	-29.829	-57.105	-8191	255	
9917.870	1	1	0	0	0.02498	0.089007	0.14686	0.097343	0.25095	0.1109	0.19147	0.30578	0.031421	0.18455	0.029865	0.33952	0.12326	0.23104	0.054359	0.049049	-1.8125	-3.0104	-2.8417	-2.6417	-3.5167	-2.5125	-2.7521	-3.0812	-2.3583	-3.0083	-2.8708	-2.1312	-3.1854	-2.7979	-2.4542	-3.1646	223.931	266.728	273.491	277.821	42.731	-47.990	-76.446	250.414	-54.592	219.183	118.196	171.704	229.713	228.434	186.797	-79.801	0.00033292	0.00053162	0.0002944	981.66	3.9774e-06	1.7537e-05	828.66	356.33	6.4208e-06	6.8468e-06	345.96	132.88	128.78	51.012	1.2341e-05	58.504	0.0098987	0.013639	0.0036664	1192.9	0.0001357	0.00015021	1027.8	431.18	0.00013582	0.00015054	449.83	168.48	163.23	63.693	0.00013957	73.332	229.621	277.769	0.275	-69.310	135.262	77.726	-69.875	-63.862	231.984	48.572	-65.907	-61.828	-59.689	-54.996	-9.045	-57.578	-8191	255	
9917.967	1	1	0	0	0.024604	0.10088	0.11529	0.17756	0.051452	0.10534	0.2715	0.089811	0.12075	0.096367	0.21201	0.30805	0.20688	0.35914	0.022064	0.12234	-1.8833	-2.7583	-2.975	-2.5187	-3.0438	-2.4313	-2.7208	-3.4	-2.4771	-3.0125	-2.9479	-2.3646	-3.1208	-2.8833	-2.5354	-3.2083	147.945	212.369	201.567	213.469	1.481	-1.734	-74.683	-16.095	164.729	-75.642	174.638	234.806	-65.894	202.556	43.970	256.850	0.00023257	0.0016114	0.00017666	981.26	1.1121e-05	1.0046e-05	829.68	355.29	5.2313e-06	6.4173e-06	347.1	133.62	129.21	51.128	5.4233e-06	58.761	0.010199	0.013581	0.0036093	1191.8	0.0001411	0.0001496	1027	430.72	0.00014172	0.00014907	450	169.04	164.91	63.798	0.0001387	73.775	230.192	-16.179	-14.068	-69.056	154.043	116.132	-69.662	-63.523	-69.080	61.333	-65.745	-61.181	-59.331	-54.969	66.169	-57.487	-8191	255	
9918.063	1	1	0	0	0.13862	0.050499	0.10764	0.093752	0.22707	0.18629	0.17172	0.051748	0.15866	0.2608	0.13969	0.15958	0.28583	0.16507	0.16753	0.22986	-1.9562	-2.8979	-3.2021	-2.4625	-3.0667	-2.7812	-2.5938	-3.3125	-2.4521	-2.8271	-3.0729	-2.3021	-3.2708	-2.8542	-2.2958	-3.3396	75.882	-64.166	100.153	261.610	249.183	226.347	267.410	217.767	-37.778	-28.692	117.831	233.993	247.482	216.152	161.601	214.619	0.00030947	0.0020426	0.00039381	983.61	6.1528e-06	6.233e-06	827.11	355.65	7.0583e-06	8.2854e-06	347.22	133.22	129.04	51.279	9.9253e-06	58.13	0.010578	0.01341	0.0035868	1193.9	0.00014455	0.00014668	1026	431.96	0.00014442	0.00014589	448.53	169.3	164.92	63.532	0.00013619	73.571	203.128	-16.074	-69.934	-69.021	135.590	36.612	-69.677	-63.449	222.902	4.377	-66.057	-61.163	-59.325	-54.711	63.590	-57.165	-8191	255	
9918.134	1	1	0	0	0.086004	0.086275	0.16289	0.22715	0.22953	0.18558	0.081616	0.40909	0.31268	0.10174	0.19596	0.33677	0.017351	0.10138	0.044744	0.15877	-2.2792	-2.6771	-3.2792	-2.3438	-2.8958	-2.7521	-2.4396	-3.1	-2.4729	-2.7833	-3.3375	-2.4437	-2.9375	-3.0687	-2.4333	-3.2667	42.751	267.533	-46.195	-7.669	253.637	70.614	264.304	269.137	189.742	-13.991	191.564	193.667	172.207	-67.249	128.800	122.057	0.00029319	0.00042529	0.00026883	982.84	3.528e-06	6.6445e-06	825.11	356	8.9491e-06	5.0395e-06	346.33	132.71	129.53	51.075	7.2448e-06	58.312	0.010633	0.013023	0.0035165	1196	0.0001451	0.00014323	1019	433.16	0.0001446	0.00014238	446.22	169.79	164.84	63.282	0.00013446	73.773	223.280	28.376	-56.322	-68.788	27.543	-5.014	-69.731	-63.625	44.275	34.715	-66.112	-61.175	-59.132	-54.580	85.239	-57.148	-8191	255	
9918.231	1	1	0	0	0.084936	0.16494	0.10625	0.24016	0.058433	0.085215	0.074892	0.13128	0.14372	0.017592	0.043877	0.14817	0.35018	0.13885	0.25547	0.20833	-2.4	-2.8021	-3.4458	-2.3292	-2.8875	-3.0479	-2.3417	-3.0875	-2.4729	-2.4396	-3.325	-2.5229	-2.9667	-3.2687	-2.2104	-3.2687	117.363	161.684	-53.054	232.463	189.579	171.774	237.106	262.173	-5.129	184.964	272.982	215.267	264.584	77.372	-44.027	178.599	8.9829e-05	0.00069954	0.00036484	978.48	2.5944e-06	1.6009e-05	825.94	354.6	1.2894e-05	7.2985e-06	347.85	133.26	129.02	51.112	1.0109e-05	58.424	0.010545	0.012742	0.0034727	1201.5	0.0001421	0.00014076	1019.3	434.13	0.00014193	0.00014002	446.51	170.87	163.99	63.125	0.00013506	74.206	234.906	-45.065	-1.391	-69.023	17.358	69.835	-69.979	-63.849	60.270	-8.730	-65.415	-61.195	-59.432	-54.761	162.983	-57.155	-8191	255	
9918.351	1	1	0	0	0.037133	0.31654	0.082065	0.27677	0.20893	0.18047	0.19078	0.12199	0.1152	0.12049	0.060479	0.33531	0.045541	0.16032	0.21989	0.12342	-2.3937	-2.3458	-3.2729	-2.6312	-2.9146	-3.1208	-2.3979	-3.05	-2.7042	-2.5375	-3.5062	-2.5438	-2.775	-3.4271	-2.3167	-3.0917	33.695	-44.079	103.215	237.629	34.513	123.141	211.534	-61.452	-59.087	242.062	267.810	257.410	112.538	241.984	132.849	56.097	5.8587e-05	0.00030875	0.00017957	983.13	9.1886e-06	4.1901e-06	825.16	356.52	1.0947e-05	3.4279e-06	346.3	133	128.82	51.142	6.8263e-06	58.669	0.010321	0.012617	0.0035202	1206.3	0.00013941	0.00013864	1022.1	436.14	0.00013847	0.00013759	448	170.91	163.02	63.007	0.00013828	74.49	205.951	146.996	162.050	-68.868	99.320	56.511	-69.702	-63.423	81.490	259.375	-65.585	-61.268	-59.335	-54.832	277.867	-57.223	-8191	255	
9918.447	1	1	0	0	0.14693	0.015196	0.11038	0.27773	0.2256	0.28245	0.22426	0.17697	0.28399	0.11208	0.18235	0.14364	0.10368	0.18076	0.093145	0.054782	-2.5271	-2.5812	-3.1771	-2.6458	-2.6396	-3.3896	-2.3146	-3.1208	-2.9625	-2.3125	-3.3146	-2.7604	-2.5583	-3.1667	-2.5104	-2.9771	32.367	230.611	70.158	258.649	224.391	169.577	259.514	207.529	-0.391	223.290	228.849	215.694	-36.605	265.827	190.276	197.677	0.00015138	0.0012076	0.00016537	982.33	5.5982e-06	1.2838e-05	826.45	355.28	7.71e-06	3.6391e-06	345.02	132.92	129.06	50.787	1.7946e-05	58.302	0.010145	0.012418	0.003616	1206.9	0.00013697	0.00013733	1027.2	434.97	0.0001369	0.00013617	450.66	170.68	162.71	62.757	0.00014325	73.841	216.515	-38.563	171.746	-69.076	60.357	38.350	-69.516	-63.401	92.417	140.822	-65.645	-61.544	-59.280	-54.561	242.597	-57.258	-8191	255	
9918.544	1	1	0	0	0.045758	0.047576	0.1754	0.32062	0.21821	0.14861	0.24226	0.13798	0.11945	0.08204	0.023485	0.22135	0.28066	0.10729	0.1322	0.17852	-2.5792	-2.3771	-3.3312	-2.7333	-2.4771	-3.325	-2.3583	-3.1979	-3.0708	-2.3312	-3.2917	-2.7854	-2.4917	-3.6208	-2.4875	-2.8312	-0.358	189.444	243.280	243.626	-16.625	70.962	-45.629	166.842	83.491	173.353	90.642	219.037	-79.874	266.221	-74.962	-79.766	0.0001124	0.00062311	0.00030847	981.07	9.8952e-06	1.3181e-05	820.43	355.24	8.0265e-06	1.0006e-05	344.3	131.92	128.69	50.932	1.0412e-05	58.03	0.0099687	0.012292	0.0037163	1201.1	0.00013499	0.00013706	1029.8	433.77	0.00013504	0.00013724	452.35	169.53	162.4	62.873	0.00014641	73.475	252.631	110.346	58.196	-68.802	59.612	272.512	-69.557	-63.331	39.230	237.661	-65.891	-61.575	-59.422	-54.799	228.007	-57.355	-8191	255	
9918.640	1	1	0	0	0.078829	0.20253	0.12393	0.22817	0.16743	0.16572	0.084074	0.1641	0.089312	0.078697	0.20908	0.099162	0.22963	0.10254	0.15888	0.17997	-2.7188	-2.275	-3.0354	-2.8937	-2.2812	-3.2562	-2.525	-2.7396	-3.1854	-2.4583	-2.9854	-2.8812	-2.5146	-3.3812	-2.4854	-2.7562	150.093	-3.033	130.245	-51.599	43.368	136.350	174.221	-45.264	240.669	107.513	247.713	183.508	236.820	-31.918	100.844	200.529	0.00018717	0.0012775	0.00047526	983.14	8.5669e-06	6.4038e-06	820.9	353.9	5.8077e-06	8.899e-06	346.13	132.54	128.6	51.065	1.2485e-05	58.129	0.0098941	0.012562	0.003802	1196.8	0.00013295	0.00014008	1031.5	432.19	0.00013324	0.00014071	452.86	169.01	161.79	63.305	0.000147	73.403	226.037	140.578	269.990	-69.084	124.752	172.124	-69.832	-63.631	35.233	232.673	-65.709	-61.466	-59.679	-54.725	41.210	-57.392	-8191	255	
9918.759	1	1	0	0	0.27816	0.085768	0.14543	0.26144	0.045043	0.17381	0.083199	0.33086	0.17364	0.46016	0.22792	0.19228	0.36664	0.27068	0.22564	0.047977	-2.7708	-2.3792	-2.9479	-2.975	-2.4417	-3.2708	-2.4083	-2.5167	-3.2479	-2.4875	-2.9271	-3.3146	-2.4354	-3.1437	-2.6083	-2.8271	209.454	247.200	19.890	-34.541	185.846	-16.285	261.778	202.591	182.826	96.316	262.223	278.125	-79.667	247.682	269.640	214.664	0.00018259	0.00043734	0.00043951	978.13	1.0409e-05	2.4462e-05	825.98	355.67	1.0666e-05	8.551e-06	345.24	133.3	128.97	51.31	3.8161e-06	58.736	0.0097378	0.01296	0.0037918	1195.1	0.00013191	0.00014547	1032.3	431.98	0.00013214	0.00014614	453.34	169.7	162.33	63.833	0.00014607	73.856	209.738	225.270	-10.488	-68.935	136.936	191.692	-69.737	-63.614	-9.434	241.184	-65.687	-61.272	-59.567	-54.555	48.413	-57.154	-8191	255	
9918.832	1	1	0	0	0.075749	0.17177	0.12217	0.18005	0.16208	0.17975	0.24949	0.18561	0.33341	0.20193	0.15736	0.27725	0.33242	0.23117	0.10774	0.038394	-2.8417	-2.3	-2.6708	-3.0604	-2.4021	-3.3396	-2.9292	-2.4938	-3.0708	-2.6521	-2.9979	-3.3417	-2.4229	-3.325	-2.7917	-2.3875	57.653	110.608	137.111	79.690	183.814	-15.221	185.761	237.871	124.584	244.308	-81.240	258.998	69.111	255.508	116.817	-48.352	0.0001105	0.00059048	0.00019494	972.44	6.5299e-06	1.997e-05	826.48	355.92	9.002e-06	1.022e-05	347.78	132.99	129.22	51.324	5.1338e-06	58.51	0.009824	0.01355	0.0037449	1192.3	0.00013324	0.00015034	1031.4	432.09	0.0001343	0.0001498	452.08	169.24	163.18	63.985	0.00014139	73.485	261.965	72.563	-25.904	-69.141	189.152	-56.247	-69.917	-63.715	0.060	177.910	-65.917	-61.733	-59.758	-54.824	45.153	-57.415	-8191	255	
9918.953	1	1	0	0	0.2622	0.21391	0.14142	0.28232	0.1641	0.26291	0.34428	0.17235	0.059772	0.16068	0.17524	0.19166	0.16959	0.10353	0.088489	0.081155	-2.8146	-2.4229	-2.7729	-3.2562	-2.3229	-3.2146	-2.8812	-2.4708	-3.3	-2.5021	-2.5833	-3.2083	-2.3875	-3.1292	-2.9688	-2.6	39.585	183.818	155.551	217.042	51.279	-40.024	221.199	219.600	81.294	49.207	249.765	92.670	232.243	111.490	-79.890	-61.265	0.00018063	0.0012166	0.00016251	977.29	8.4866e-06	9.4044e-06	825.8	355.13	4.5227e-06	3.6395e-06	346.48	132.97	128.98	51.012	3.2348e-06	58.274	0.0099885	0.013633	0.0036435	1189.6	0.00013727	0.0001515	1027.5	430.89	0.00013963	0.00015164	449.71	168.48	163.62	63.767	0.00014044	72.853	242.174	-34.752	-53.940	-69.005	212.715	89.691	-69.677	-63.786	-60.691	224.594	-65.788	-61.567	-59.602	-54.672	277.243	-57.234	-8191	255	
9919.047	1	1	0	0	0.10637	0.15664	0.1848	0.11247	0.2449	0.21535	0.2812	0.22494	0.071489	0.086765	0.034035	0.19413	0.1724	0.36352	0.089098	0.12705	-2.8833	-2.4021	-2.4625	-3.3917	-2.4167	-2.7229	-3.1937	-2.55	-3.3312	-2.8354	-2.3896	-3.2521	-2.5208	-2.9875	-3.1771	-2.0833	190.103	76.413	151.126	154.012	23.607	175.357	248.308	249.784	-6.198	273.214	270.663	217.507	-27.376	276.064	-63.771	173.361	0.00018354	0.0017393	6.1092e-05	983.02	1.2516e-05	2.0619e-05	823.51	354.1	9.8804e-06	5.3825e-06	344.96	132.64	128.67	50.968	2.7596e-06	58.166	0.010342	0.013484	0.0035647	1190	0.00014076	0.00014886	1022.5	429.79	0.0001429	0.00014806	447.13	168.7	164.25	63.561	0.00013877	73.158	243.490	-45.362	54.787	-69.083	124.520	30.002	-70.343	-64.009	234.442	82.776	-65.878	-61.808	-59.743	-54.980	142.419	-57.413	-8191	255	
9919.143	1	1	0	0	0.1766	0.09378	0.13972	0.11674	0.3157	0.15654	0.063054	0.21346	0.068177	0.074696	0.19482	0.16638	0.25563	0.35583	0.081734	0.32392	-2.6854	-2.4	-2.4583	-3.3667	-2.2021	-2.8458	-3.1521	-2.4	-2.8688	-2.9	-2.4521	-3.2646	-2.4771	-2.85	-3.1396	-2.4125	-3.000	246.476	63.620	-70.321	140.728	-69.333	265.485	272.157	277.845	-43.015	-41.781	222.222	-62.250	269.082	184.841	203.325	0.00019922	0.00095568	0.00014914	983.89	5.6111e-06	1.3221e-05	824.18	354.64	5.5918e-06	6.0373e-06	346.21	133.02	128.53	51.141	5.1979e-06	58.434	0.010637	0.013306	0.0035447	1191.7	0.00014429	0.00014406	1020.8	430.21	0.00014395	0.00014362	446.58	169.1	164.4	63.373	0.00013541	73.509	241.822	-42.878	53.301	-69.083	-69.747	0.046	-69.902	-63.818	258.765	-38.905	-65.714	-61.620	-59.660	-54.751	20.468	-57.446	-8191	255	
9919.239	1	1	0	0	0.1185	0.24876	0.16607	0.14859	0.12551	0.14534	0.064688	0.076542	0.16874	0.12298	0.085266	0.089494	0.13686	0.16078	0.14686	0.18388	-2.4208	-2.7917	-2.2979	-3.4646	-2.4708	-2.5958	-3.3875	-2.3375	-2.8667	-3.1708	-2.4437	-3.0917	-2.6625	-2.5646	-3.2	-2.325	-23.553	28.135	54.627	246.661	-71.588	208.380	31.789	235.167	-21.238	69.173	-52.192	-55.779	-48.202	-10.792	144.739	156.129	0.00025761	0.0004204	0.00041691	982.82	8.2196e-06	1.24e-05	824.67	354.37	8.6455e-06	3.8669e-06	344.58	132.19	128.56	50.807	1.0459e-05	58.033	0.010611	0.012921	0.0034802	1196.8	0.00014423	0.00014215	1019.8	432.47	0.00014377	0.000142	444.02	169.11	164.04	62.936	0.00013396	73.471	231.336	268.916	-5.493	-68.897	109.579	27.020	-69.917	-63.782	63.619	78.948	-66.001	-61.571	-59.809	-55.036	57.535	-57.494	-8191	255	
9919.360	1	1	0	0	0.11524	0.12381	0.071043	0.27918	0.1999	0.17593	0.27355	0.1572	0.2068	0.06774	0.13897	0.1546	0.25031	0.17876	0.14819	0.16286	-2.3854	-2.8771	-2.4083	-3.425	-2.5396	-2.5875	-3.4458	-2.1708	-2.7042	-3.0938	-2.4292	-3.0438	-2.6458	-2.6875	-3.4583	-2.3625	44.887	128.247	-78.028	202.133	269.409	275.338	230.758	-71.364	248.341	201.382	-0.605	-57.866	248.559	252.416	199.172	226.876	0.00015845	0.0004638	0.00020455	982.65	2.7877e-06	5.7788e-06	821.39	354.87	5.9322e-06	3.5677e-06	342.69	131.88	128.85	50.978	5.2983e-06	58.177	0.010478	0.012703	0.0034304	1201.2	0.00014144	0.00014015	1016.8	434.13	0.00014077	0.00013962	443.8	170.13	163.5	62.908	0.00013471	73.968	263.473	-14.456	-35.253	-69.137	1.908	164.475	-69.882	-63.857	19.262	43.024	-65.816	-61.324	-59.803	-54.710	210.454	-57.411	-8191	255	
9919.432	1	1	0	0	0.19546	0.13013	0.15551	0.10152	0.13344	0.18555	0.28975	0.21595	0.12037	0.22356	0.082287	0.042984	0.076898	0.33869	0.16217	0.24228	-2.2708	-3.0583	-2.2896	-3.3937	-2.9792	-2.4333	-3.3125	-2.7208	-2.8146	-3.2292	-2.4958	-3.1063	-2.8792	-2.5604	-3.1042	-2.5167	-46.988	165.673	0.334	251.913	7.810	156.766	205.902	207.205	147.153	236.177	-8.337	152.918	-24.139	247.275	147.147	129.303	0.00018375	0.0010774	0.00038136	978.9	1.3918e-05	1.2651e-05	824.96	354.81	1.11e-06	1.034e-05	343.36	132.65	128.98	51.148	1.4537e-06	58.701	0.010176	0.0125	0.0034907	1201.1	0.00013834	0.0001373	1019.8	434.95	0.00013758	0.00013777	446.29	170.62	163.13	63.136	0.00013983	74.167	241.770	69.913	-15.700	-69.077	38.259	41.095	-70.038	-64.048	-26.025	63.335	-66.161	-61.841	-60.081	-55.141	59.075	-57.778	-8191	255	
9919.528	1	1	0	0	0.10265	0.26424	0.1454	0.1134	0.18308	0.21328	0.17346	0.17323	0.21002	0.26445	0.17787	0.16124	0.17018	0.30878	0.16575	0.18242	-2.1937	-3.1708	-2.3667	-2.9562	-2.9125	-2.4688	-3.4125	-2.7208	-2.7021	-3.3646	-2.4062	-3.0729	-3.1208	-2.6771	-3.1875	-2.6417	167.635	23.398	64.530	-49.276	217.405	-63.567	219.668	243.358	219.961	75.237	-76.990	-11.435	243.545	-68.881	-78.294	138.612	0.00023404	0.00058193	0.0001263	978.28	7.575e-06	1.131e-05	825.48	353.6	3.6684e-06	9.2818e-06	344.71	133.45	128.6	51.351	1.6694e-05	58.449	0.0099941	0.012367	0.0035964	1201	0.00013603	0.0001353	1027.5	434.31	0.00013488	0.00013576	450.59	170.46	162.91	63.087	0.00014189	74.004	-81.363	117.139	-22.347	-69.321	65.527	40.174	-70.040	-63.899	44.792	106.590	-66.108	-61.532	-59.859	-55.219	255.812	-57.461	-8191	255	
9919.648	1	1	0	0	0.072303	0.13038	0.15462	0.16737	0.18371	0.22608	0.36135	0.40737	0.18485	0.20818	0.0088053	0.22787	0.11622	0.14749	0.22454	0.18562	-2.0958	-3.2438	-2.5062	-3.0271	-3.1562	-2.4229	-3.3354	-2.8833	-2.2583	-3.3146	-2.6271	-2.9667	-3.1854	-2.4229	-3.1646	-3.0583	162.802	27.254	132.164	262.577	79.899	103.232	238.905	228.254	261.858	209.183	254.929	271.835	157.416	148.700	82.725	271.384	0.00014325	0.0015149	0.000209	984.1	1.537e-05	7.4368e-06	827.86	355.4	4.5393e-06	5.7651e-06	344.56	132.6	129.42	51.119	6.1957e-06	57.948	0.009759	0.012198	0.0036755	1195.9	0.00013284	0.00013476	1030.4	432.9	0.00013186	0.00013598	450.92	169.23	162.26	62.926	0.000143	73.095	223.737	14.194	23.877	-69.112	23.455	-55.079	-69.917	-63.665	55.568	48.875	-65.963	-61.548	-59.915	-55.010	120.253	-57.434	-8191	255	
9919.745	1	1	0	0	0.10447	0.21595	0.15812	0.19019	0.21131	0.12102	0.24988	0.25234	0.11158	0.065381	0.24588	0.25012	0.14463	0.23521	0.14428	0.23822	-2.2021	-3.3104	-2.4271	-2.8063	-3.3646	-2.3521	-3.3583	-3.0458	-2.2896	-3.2167	-2.6729	-2.7646	-3.4375	-2.5	-3.0521	-2.9833	169.589	163.815	-24.183	201.161	-7.306	143.217	259.647	251.638	240.419	-23.190	262.460	-22.780	68.857	262.246	264.986	186.071	0.00020868	0.0017255	0.0002981	977.41	4.872e-06	1.0275e-05	824.08	354.74	8.3664e-06	7.7241e-06	342.79	131.57	128.79	50.918	6.0587e-06	57.911	0.0095105	0.012304	0.0036874	1191	0.00012916	0.000136	1027.2	429.25	0.00012841	0.00013822	448.08	167.35	161.12	62.939	0.00014233	72.632	244.665	14.916	91.957	-69.165	161.259	163.477	-69.840	-63.846	81.363	76.638	-66.306	-61.961	-59.881	-55.146	86.477	-57.819	-8191	255	
9919.839	1	1	0	0	0.26728	0.21887	0.10671	0.093368	0.084871	0.19971	0.16595	0.27437	0.14987	0.097863	0.12163	0.15467	0.18119	0.15047	0.094484	0.28483	-1.9208	-3.3354	-2.7	-2.7812	-3.3021	-2.1896	-2.9042	-3.1167	-2.4396	-3.2167	-2.7708	-2.7062	-3.1188	-2.3479	-2.7938	-3.2729	185.724	-71.599	142.682	142.459	9.944	82.115	173.834	244.397	172.542	2.722	272.296	164.102	210.218	257.517	-36.642	243.499	0.00019187	0.00086076	0.00041053	978.88	7.6825e-06	1.3712e-05	824.79	352.85	5.8116e-06	6.9449e-06	342.47	132.05	128.31	51.018	1.5041e-05	57.859	0.009381	0.012786	0.0036581	1187.6	0.00012875	0.00014185	1024.2	428.8	0.00012762	0.00014304	446.5	166.97	160.93	63.171	0.00013812	72.44	256.381	56.382	34.321	-69.266	33.992	45.717	-70.179	-64.169	85.109	203.843	-66.098	-61.730	-60.149	-55.045	77.083	-57.609	-8191	255	
9919.935	1	1	0	0	0.21419	0.031007	0.1031	0.053437	0.30104	0.12741	0.27024	0.24857	0.23101	0.041279	0.23115	0.15781	0.13269	0.28122	0.11756	0.10257	-2.0271	-3.1375	-2.7375	-2.4333	-3.2729	-2.6667	-2.9354	-3.25	-2.2229	-3.0875	-2.9813	-2.5958	-3.3917	-2.5875	-2.4625	-3.2667	221.168	233.396	245.807	108.005	191.852	-43.526	257.400	220.441	-63.488	139.409	96.486	206.324	-70.242	-73.176	-42.077	190.208	0.0001808	0.00039511	0.00033197	978.92	9.9272e-06	2.8348e-06	822.9	354.36	8.8506e-06	2.0251e-06	343.33	132.12	128.51	50.896	6.7173e-06	58.139	0.0093003	0.012802	0.0034855	1180	0.00012533	0.00014059	1015.7	426.51	0.00012523	0.00014039	442.68	166.48	160.8	63.128	0.00013271	72.304	253.264	-29.952	-68.695	-69.223	7.923	249.627	-70.241	-64.001	209.589	68.321	-66.436	-61.945	-59.968	-55.296	108.738	-57.828	-8191	255	
9920.031	1	1	0	0	0.17016	0.16618	0.28542	0.1999	0.29384	0.059898	0.23271	0.15919	0.21315	0.10958	0.20876	0.52474	0.27782	0.13205	0.093662	0.23651	-1.9542	-3.1562	-2.6854	-2.5146	-3.0854	-2.6604	-2.7625	-3.4104	-2.0938	-3.0667	-3.1083	-2.5687	-3.2125	-2.6604	-2.3667	-3.3812	235.816	153.851	41.468	-36.511	266.675	224.575	223.134	212.576	-78.018	-14.619	84.235	252.122	274.629	238.300	-36.076	231.258	0.00040655	0.0011925	0.00026638	983.11	1.042e-05	1.6928e-05	820.75	353.38	4.8654e-06	6.6832e-06	343.28	132.43	128.93	51.043	3.5543e-06	57.975	0.009402	0.012828	0.0034308	1178.9	0.00013104	0.00014232	1014.1	426.49	0.00013243	0.00014276	442.59	166.34	162.55	63.24	0.00013442	72.366	215.626	267.112	-3.529	-69.543	188.858	60.280	-70.092	-63.872	185.885	31.030	-66.006	-61.923	-60.057	-55.478	174.191	-57.661	-8191	255	
9920.127	1	1	0	0	0.20432	0.11518	0.031473	0.69651	0.18931	0.060784	0.24596	0.052227	0.031575	0.22483	0.17115	0.22501	0.028375	0.13944	0.050002	0.17955	-2.0604	-2.8229	-2.7417	-2.1562	-3.1208	-2.7896	-2.8708	-3.4604	-2.6125	-2.9583	-3.25	-2.6188	-3.1958	-2.7812	-2.2479	-3.2896	17.405	-32.455	187.544	259.545	-46.438	-13.401	162.058	84.067	-8.480	-20.249	143.556	243.864	237.949	185.182	255.956	193.443	0.00024474	0.0010013	0.00019256	975.46	7.8352e-06	2.0771e-05	821.73	354.14	8.6414e-06	1.5479e-05	341.93	131.53	128.7	51.181	6.1148e-06	57.89	0.01003	0.01308	0.0034986	1180.4	0.00014012	0.00014544	1016.1	428.12	0.00014085	0.00014492	444.58	167.12	163.98	63.381	0.00013527	72.7	242.109	-18.311	74.136	-69.432	255.618	63.134	-69.911	-64.045	273.695	64.246	-66.354	-61.837	-59.910	-55.256	-3.339	-57.572	-8191	255	
9920.224	1	1	0	0	0.12544	0.16485	0.20489	0.090171	0.17121	0.26069	0.16163	0.043209	0.07861	0.13967	0.155	0.20722	0.06459	0.25658	0.11632	0.19316	-1.9937	-2.7833	-3.0542	-2.45	-3.1188	-2.85	-2.5396	-3.0604	-2.0354	-2.8604	-3.3708	-2.225	-2.8896	-3.0667	-2.5125	-3.3625	270.065	257.162	201.124	195.354	78.189	256.508	127.430	184.797	190.107	-33.401	180.611	-38.093	-51.441	267.301	-76.438	-67.326	0.00026884	0.00050973	0.00032772	973.85	7.2868e-06	1.5057e-06	823.01	352.72	4.2455e-06	2.2872e-05	345.69	132.76	129.66	51.596	6.5626e-06	58.46	0.010463	0.013045	0.0035046	1186	0.00014349	0.00014318	1016	430.09	0.0001427	0.00014195	445.25	169.08	165.42	63.768	0.0001334	73.86	221.359	-26.916	-7.229	-69.412	97.398	82.861	-69.877	-64.020	-43.643	67.681	-66.250	-61.589	-59.786	-55.069	117.789	-57.504	-8191	255	
#DATA ENDS
