BOXY.EXE: ISS Imagent and Oximeter Data Acquisition Program Version 0.80
Ascii Record File

#ACQ INFORMATION
2  Detector Channels 
16  External MUX Channels 
1  Auxiliary Channels 
5000  Waveform (CCF) Frequency (Hz)
1  Waveforms Skipped 
30  Waveforms Averaged 
1  Cycles Averaged 
16  Acquisitions per Waveform 
10.0806  Updata Rate (Hz) 

#FILE INFORMATION
TRUE -- External MUX Channel results are PARSED.
FALSE -- AC DC and Phase are NOT grouped.
TRUE -- Companion Program Settings File CREATED.
FALSE -- AC data not excluded
FALSE -- DC data not excluded
FALSE -- Phase data not excluded
FALSE -- Auxillary Chn. data not excluded
Tab delimiters

#CALIBRATION STATE
TRUE -- Waveform Calibration Values APPLIED.


#AUX CALIBRATION VALUES
Val Type	aux-1	

Term	1.0000e+00	
Factor	0.0000e+00	


#WF CALIBRATION VALUES
A = Detector Channel
Val Type	A-AC1	A-AC2	A-AC3	A-AC4	A-AC5	A-AC6	A-AC7	A-AC8	A-AC9	A-AC10	A-AC11	A-AC12	A-AC13	A-AC14	A-AC15	A-AC16	A-DC1	A-DC2	A-DC3	A-DC4	A-DC5	A-DC6	A-DC7	A-DC8	A-DC9	A-DC10	A-DC11	A-DC12	A-DC13	A-DC14	A-DC15	A-DC16	A-Ph1	A-Ph2	A-Ph3	A-Ph4	A-Ph5	A-Ph6	A-Ph7	A-Ph8	A-Ph9	A-Ph10	A-Ph11	A-Ph12	A-Ph13	A-Ph14	A-Ph15	A-Ph16	

Term	0.00000e+00	0.00000e+00	0.00000e+00	0.00000e+00	0.00000e+00	0.00000e+00	0.00000e+00	0.00000e+00	0.00000e+00	0.00000e+00	0.00000e+00	0.00000e+00	0.00000e+00	0.00000e+00	0.00000e+00	0.00000e+00	0.00000e+00	0.00000e+00	0.00000e+00	0.00000e+00	0.00000e+00	0.00000e+00	0.00000e+00	0.00000e+00	0.00000e+00	0.00000e+00	0.00000e+00	0.00000e+00	0.00000e+00	0.00000e+00	0.00000e+00	0.00000e+00	0.00000e+00	0.00000e+00	0.00000e+00	0.00000e+00	0.00000e+00	0.00000e+00	0.00000e+00	0.00000e+00	0.00000e+00	0.00000e+00	0.00000e+00	0.00000e+00	0.00000e+00	0.00000e+00	0.00000e+00	0.00000e+00	
Factor	1.00000e+00	1.00000e+00	1.00000e+00	1.00000e+00	1.00000e+00	1.00000e+00	1.00000e+00	1.00000e+00	1.00000e+00	1.00000e+00	1.00000e+00	1.00000e+00	1.00000e+00	1.00000e+00	1.00000e+00	1.00000e+00	1.00000e+00	1.00000e+00	1.00000e+00	1.00000e+00	1.00000e+00	1.00000e+00	1.00000e+00	1.00000e+00	1.00000e+00	1.00000e+00	1.00000e+00	1.00000e+00	1.00000e+00	1.00000e+00	1.00000e+00	1.00000e+00	X	X	X	X	X	X	X	X	X	X	X	X	X	X	X	X	

B = Detector Channel
Val Type	B-AC1	B-AC2	B-AC3	B-AC4	B-AC5	B-AC6	B-AC7	B-AC8	B-AC9	B-AC10	B-AC11	B-AC12	B-AC13	B-AC14	B-AC15	B-AC16	B-DC1	B-DC2	B-DC3	B-DC4	B-DC5	B-DC6	B-DC7	B-DC8	B-DC9	B-DC10	B-DC11	B-DC12	B-DC13	B-DC14	B-DC15	B-DC16	B-Ph1	B-Ph2	B-Ph3	B-Ph4	B-Ph5	B-Ph6	B-Ph7	B-Ph8	B-Ph9	B-Ph10	B-Ph11	B-Ph12	B-Ph13	B-Ph14	B-Ph15	B-Ph16	

Term	0.00000e+00	0.00000e+00	0.00000e+00	0.00000e+00	0.00000e+00	0.00000e+00	0.00000e+00	0.00000e+00	0.00000e+00	0.00000e+00	0.00000e+00	0.00000e+00	0.00000e+00	0.00000e+00	0.00000e+00	0.00000e+00	0.00000e+00	0.00000e+00	0.00000e+00	0.00000e+00	0.00000e+00	0.00000e+00	0.00000e+00	0.00000e+00	0.00000e+00	0.00000e+00	0.00000e+00	0.00000e+00	0.00000e+00	0.00000e+00	0.00000e+00	0.00000e+00	-1.37350e+02	-1.27753e+02	-1.24489e+02	-1.81008e+02	-6.93713e+01	-6.63584e+01	-1.58511e+02	-1.62015e+02	-7.88023e+01	-6.59414e+01	-1.70533e+02	-1.70541e+02	-1.82043e+02	-1.76234e+02	-7.22883e+01	-1.49397e+02	
Factor	1.61808e-05	1.36729e-04	3.72640e-05	1.40194e-01	1.03941e-06	1.53481e-06	1.48042e-01	5.02296e-02	1.08693e-06	1.46322e-06	8.07207e-02	2.53011e-02	2.03239e-02	7.73813e-03	1.20133e-06	1.12472e-02	8.90087e-06	1.45105e-05	4.03943e-06	7.18422e-02	1.48297e-07	1.62402e-07	7.14877e-02	2.58289e-02	1.48362e-07	1.61510e-07	4.01989e-02	1.26852e-02	1.05741e-02	4.01292e-03	1.51094e-07	5.66290e-03	X	X	X	X	X	X	X	X	X	X	X	X	X	X	X	X	



#DISTANCE SETTINGS
A = Detector Channel
A-1	A-2	A-3	A-4	A-5	A-6	A-7	A-8	A-9	A-10	A-11	A-12	A-13	A-14	A-15	A-16	

2.5000e+00	3.0000e+00	2.5000e+00	3.0000e+00	2.0000e+00	3.0000e+00	1.5000e+00	3.0000e+00	3.0000e+00	3.0000e+00	3.0000e+00	3.0000e+00	3.0000e+00	3.0000e+00	1.5000e+00	3.0000e+00	

B = Detector Channel
B-1	B-2	B-3	B-4	B-5	B-6	B-7	B-8	B-9	B-10	B-11	B-12	B-13	B-14	B-15	B-16	

1.0000e+01	1.0000e+01	1.0000e+01	1.4400e+00	1.0000e+01	1.0000e+01	1.5100e+00	1.9400e+00	1.0000e+01	1.0000e+01	1.9900e+00	2.4900e+00	2.4100e+00	2.9000e+00	1.0000e+01	2.9800e+00	




#DATA BEGINS
time	group	step	mark	flag	A-AC1	A-AC2	A-AC3	A-AC4	A-AC5	A-AC6	A-AC7	A-AC8	A-AC9	A-AC10	A-AC11	A-AC12	A-AC13	A-AC14	A-AC15	A-AC16	A-DC1	A-DC2	A-DC3	A-DC4	A-DC5	A-DC6	A-DC7	A-DC8	A-DC9	A-DC10	A-DC11	A-DC12	A-DC13	A-DC14	A-DC15	A-DC16	A-Ph1	A-Ph2	A-Ph3	A-Ph4	A-Ph5	A-Ph6	A-Ph7	A-Ph8	A-Ph9	A-Ph10	A-Ph11	A-Ph12	A-Ph13	A-Ph14	A-Ph15	A-Ph16	B-AC1	B-AC2	B-AC3	B-AC4	B-AC5	B-AC6	B-AC7	B-AC8	B-AC9	B-AC10	B-AC11	B-AC12	B-AC13	B-AC14	B-AC15	B-AC16	B-DC1	B-DC2	B-DC3	B-DC4	B-DC5	B-DC6	B-DC7	B-DC8	B-DC9	B-DC10	B-DC11	B-DC12	B-DC13	B-DC14	B-DC15	B-DC16	B-Ph1	B-Ph2	B-Ph3	B-Ph4	B-Ph5	B-Ph6	B-Ph7	B-Ph8	B-Ph9	B-Ph10	B-Ph11	B-Ph12	B-Ph13	B-Ph14	B-Ph15	B-Ph16	aux-1	digaux	

1652.653	1	1	0	768	0.099679	0.22104	0.21063	0.11154	0.1671	0.1119	0.16485	0.19334	0.21187	0.28965	0.20367	0.27625	0.32588	0.21397	0.16124	0.23983	-0.09375	-0.32708	-0.85208	-0.4125	-0.62917	-0.94792	-0.3875	-1.1812	-0.51875	-0.22292	-1.4396	-0.31458	-0.75625	-1.25	-0.28958	-0.83333	257.119	194.252	-2.913	84.562	-16.548	41.630	195.177	188.500	183.763	264.548	30.572	237.247	248.394	141.617	110.868	240.262	0.00014352	0.00056025	0.00010803	1357.2	2.9268e-06	4.8939e-06	1345.1	360.69	1.9849e-06	4.305e-06	415.05	135.67	119.05	41.194	3.7543e-06	51.33	0.00054043	0.00060708	0.00016375	1363.2	6.8461e-06	6.493e-06	1361.1	366.35	6.837e-06	6.237e-06	419.83	139.74	121.79	41.997	6.1561e-06	52.265	173.797	-2.763	32.997	-73.784	79.442	65.818	-73.942	-69.290	18.452	58.970	-69.741	-65.631	-65.017	-60.118	44.196	-60.645	-8191	255	
1652.749	1	1	0	0	0.22319	0.39575	0.15921	0.2388	0.013008	0.050565	0.19402	0.12535	0.27303	0.13021	0.065352	0.33938	0.096334	0.19121	0.080562	0.19126	-0.27708	-0.083333	-1.125	-0.4875	-0.53333	-1.0187	-0.55625	-1.0917	-0.67292	-0.091667	-1.1396	-0.45833	-0.62083	-1.2271	-0.035417	-1.1125	112.994	-32.849	15.461	-69.855	153.713	244.563	-66.826	230.404	-9.527	112.286	167.629	222.146	41.787	207.666	58.781	240.782	0.00015479	0.00041479	0.00015517	1357.4	2.2691e-06	4.1627e-06	1355.4	363.23	1.5416e-06	4.2442e-06	417.43	137.77	119.68	41.396	3.5043e-06	51.086	0.00050325	0.00055454	0.00016036	1365.8	6.1553e-06	6.0228e-06	1366.8	369.4	6.3925e-06	5.8998e-06	422.24	140.89	122.35	42.259	6.3419e-06	52.434	166.386	-13.793	8.750	-73.669	37.984	80.270	-73.824	-69.396	38.991	58.836	-69.469	-65.699	-65.114	-60.166	63.630	-60.931	-8191	255	
1652.845	1	1	0	0	0.01351	0.045142	0.29378	0.19698	0.19742	0.081451	0.27053	0.1269	0.18244	0.2035	0.15173	0.24377	0.024334	0.15241	0.15831	0.050733	-0.39375	-0.18958	-1.0562	-0.66667	-0.15833	-0.98958	-0.2625	-1.1167	-0.79167	-0.11667	-0.98333	-0.58542	-0.43542	-1.25	-0.12083	-0.95625	-2.536	217.249	170.158	193.088	187.739	65.861	263.819	-42.146	141.874	-50.998	188.538	242.015	-45.380	24.633	243.497	271.560	0.00016562	0.00046968	0.0001122	1359.4	1.1097e-06	4.6173e-06	1355.8	365.66	1.8888e-06	5.5786e-06	419.87	138.95	121.24	41.828	3.5823e-06	51.999	0.00048845	0.00053266	0.00016058	1368.5	5.9168e-06	5.7588e-06	1370	371.37	5.9434e-06	5.599e-06	425.59	142.43	123.89	42.772	6.1958e-06	53.12	165.305	7.470	37.435	-73.787	57.939	60.805	-73.801	-69.347	35.985	54.424	-69.460	-65.823	-65.248	-60.386	60.788	-60.618	-8191	255	
1652.941	1	1	0	0	0.111	0.16496	0.073646	0.26013	0.11542	0.043042	0.26588	0.20596	0.27375	0.24422	0.12941	0.1528	0.23596	0.19038	0.35549	0.21823	-0.62708	-0.0875	-1.0146	-0.65833	-0.3125	-1.1292	-0.46875	-0.53542	-0.99167	-0.10625	-1.2313	-0.68542	-0.54792	-1.1979	-0.21458	-0.65	-38.152	-53.335	113.932	202.515	225.667	173.967	202.055	197.804	-79.721	58.290	96.447	153.224	221.413	254.568	268.619	-64.284	0.00017459	0.00050568	0.00011672	1369.4	2.4561e-06	5.6642e-06	1364.6	370.52	3.0835e-06	3.3302e-06	421.44	139.05	121.39	41.976	2.8e-06	51.803	0.00047143	0.0005316	0.0001621	1379.1	5.8269e-06	5.7138e-06	1376.8	374.39	5.8603e-06	5.7827e-06	427.55	142.79	124.16	42.918	6.4697e-06	53.025	167.737	1.881	8.377	-73.760	28.279	55.940	-73.864	-69.119	38.273	77.679	-69.722	-65.706	-65.203	-60.522	60.606	-60.688	-8191	255	
1653.038	1	1	0	0	0.17934	0.195	0.28706	0.35984	0.043933	0.24522	0.30383	0.061412	0.038322	0.11533	0.16187	0.097898	0.14277	0.26692	0.55444	0.1891	-0.71042	-0.13125	-0.85417	-0.78542	-0.30417	-1.3188	-0.67917	-0.5625	-0.90833	0.075	-0.98958	-0.63333	-0.19375	-1.3771	-0.44583	-0.51875	-80.243	-23.830	196.729	-45.371	96.410	-32.649	216.318	-61.717	193.315	-38.085	187.307	-68.210	-51.878	-13.318	117.449	177.568	0.00016909	0.00051243	0.00013699	1369.5	3.2651e-06	6.3191e-06	1359.9	370.05	1.7467e-06	5.5016e-06	424.5	139.46	121.95	42.111	4.2081e-06	51.941	0.00046183	0.0005309	0.00016519	1377.7	5.6359e-06	5.7967e-06	1377.1	374.46	5.4807e-06	5.8406e-06	428.6	143.39	124.56	43.034	6.4719e-06	53.178	171.263	6.343	11.193	-73.809	56.211	28.825	-73.981	-69.277	49.527	74.885	-69.824	-65.626	-65.055	-60.134	69.053	-61.030	-8191	255	
1653.134	1	1	0	0	0.12027	0.21736	0.32463	0.45145	0.15353	0.18084	0.052971	0.13513	0.31479	0.20064	0.083654	0.20458	0.26536	0.16896	0.14025	0.3333	-0.51875	-0.064583	-0.78958	-1.0812	0.010417	-1.2021	-0.69583	-0.5625	-0.97708	-0.15417	-0.74375	-0.89792	-0.27292	-1.1021	-0.6	-0.48333	234.883	202.638	-33.301	253.347	73.731	23.956	258.719	271.633	261.569	-41.538	194.375	205.614	244.379	210.149	158.059	260.868	0.00015044	0.00058456	0.00012779	1372.4	2.8578e-06	6.3094e-06	1361.7	368.85	2.7674e-06	5.9203e-06	422.31	138.82	120.55	41.836	3.05e-06	51.591	0.00044979	0.00058592	0.00015898	1378.6	5.6894e-06	6.4761e-06	1375.8	373.08	5.7648e-06	6.6559e-06	426.09	142.13	123.51	42.676	6.2783e-06	52.726	176.000	11.811	22.514	-73.722	49.952	63.886	-73.925	-69.314	25.604	71.006	-69.507	-65.531	-64.994	-60.286	71.920	-60.985	-8191	255	
1653.253	1	1	0	0	0.08739	0.24228	0.12891	0.34048	0.12967	0.034843	0.20833	0.36806	0.15051	0.34847	0.13523	0.31243	0.060203	0.17554	0.23645	0.2721	-0.84375	-0.085417	-0.56042	-1.2938	-0.16042	-0.98958	-0.77917	-0.29792	-1.0125	-0.21875	-0.55833	-0.96458	-0.0083333	-1.1	-0.57292	-0.42292	221.733	117.240	271.438	261.333	37.041	225.131	192.441	234.388	77.908	175.746	-57.543	238.021	-13.716	244.217	-71.795	69.507	0.00017647	0.00045063	0.00014728	1365.9	2.8062e-06	6.3974e-06	1362.5	368.14	2.731e-06	4.9109e-06	420.21	138.86	121.17	41.854	3.3839e-06	51.734	0.00047616	0.00062005	0.00016055	1376.3	6.0533e-06	6.3587e-06	1373.2	372.4	5.7478e-06	6.487e-06	425.77	142.04	123.55	42.6	5.8231e-06	52.824	177.241	-10.475	9.427	-73.744	68.321	47.160	-73.945	-69.283	8.904	72.348	-69.901	-65.587	-65.043	-60.043	58.332	-60.859	-8191	255	
1653.349	1	1	0	0	0.2606	0.23439	0.18007	0.21643	0.093204	0.10225	0.23302	0.19499	0.13167	0.1736	0.17981	0.11638	0.20277	0.15634	0.084385	0.20382	-0.65208	-0.21667	-0.31875	-1.2271	-0.066667	-0.74792	-1.0042	-0.25208	-1.0438	-0.41042	-0.31042	-1.1125	-0.47292	-0.80417	-0.77292	-0.39792	55.313	-23.145	215.414	223.409	102.968	180.807	203.712	261.967	136.028	176.260	-17.722	-62.732	131.779	-47.779	140.885	131.628	0.00016461	0.00054698	0.00010464	1362.3	1.8887e-06	6.9558e-06	1352.3	366.88	2.2705e-06	3.3183e-06	417.58	137.98	119.83	41.416	3.2745e-06	51.239	0.0004627	0.00057709	0.00014334	1370.7	6.0125e-06	6.0711e-06	1366.3	371.1	6.0696e-06	6.1667e-06	423.51	141.35	122.73	42.345	5.8637e-06	52.324	173.897	3.821	30.432	-73.669	68.282	45.516	-73.804	-69.361	36.346	82.067	-69.753	-65.551	-65.054	-60.220	73.873	-60.686	-8191	255	
1653.445	1	1	0	0	0.10721	0.30407	0.17657	0.091448	0.11017	0.16577	0.13252	0.090405	0.52573	0.14566	0.21658	0.25102	0.2292	0.11975	0.22756	0.22357	-0.80833	-0.55417	-0.3375	-1.2083	-0.19583	-0.58542	-1.1375	-0.275	-0.98333	-0.66458	-0.31042	-1.3729	-0.17708	-0.60208	-0.72917	-0.37917	176.094	-14.545	251.743	178.708	-28.948	-11.942	246.032	194.599	-29.104	-12.408	189.110	257.475	260.098	227.166	-60.457	174.938	0.00014878	0.00041104	0.00018605	1352.1	2.5725e-06	5.316e-06	1338.4	362.22	1.0629e-06	7.3884e-06	414.98	136	118.54	40.946	2.6836e-06	50.601	0.00050208	0.00059188	0.00015079	1359.4	6.5214e-06	6.4352e-06	1355	366.37	6.7171e-06	6.5317e-06	418.99	139.14	120.98	41.797	5.819e-06	51.729	170.112	-4.689	4.637	-73.710	43.765	42.079	-73.987	-69.090	-12.983	61.926	-69.489	-65.677	-65.046	-60.142	65.083	-60.789	-8191	255	
1653.541	1	1	0	0	0.10315	0.21581	0.14663	0.36229	0.23616	0.073494	0.21979	0.059039	0.16818	0.21013	0.17127	0.38301	0.27004	0.099657	0.25921	0.13655	-0.6625	-0.55417	-0.14167	-1.1896	-0.2	-0.57083	-1.0729	-0.55	-0.83542	-0.65	-0.33542	-1.2521	-0.325	-0.57292	-0.94583	-0.21875	159.576	195.369	-41.700	143.870	150.713	-0.835	218.012	61.309	222.780	49.692	210.009	245.045	239.677	238.200	-63.578	32.926	0.00014325	0.00054094	0.00014211	1345.7	1.9973e-06	5.3193e-06	1340.7	361.22	2.5141e-06	3.7867e-06	413.82	136.38	119.25	41.068	1.9031e-06	50.943	0.00050416	0.00058196	0.000146	1353.6	6.6168e-06	6.0918e-06	1352.5	365.99	6.4442e-06	6.1559e-06	418.66	139.41	121.53	41.956	5.5962e-06	52.066	173.548	1.790	11.209	-73.673	67.578	88.349	-73.860	-69.266	-1.760	56.927	-69.499	-65.415	-65.069	-60.142	83.969	-60.869	-8191	255	
1653.637	1	1	0	0	0.15086	0.12187	0.17436	0.38958	0.093493	0.19817	0.29813	0.22026	0.35209	0.34497	0.1312	0.17223	0.20818	0.29264	0.17067	0.25221	-0.27917	-0.66875	-0.13125	-1.35	-0.41042	-0.49792	-1.3062	-0.31458	-0.50208	-0.90208	-0.38958	-1.1208	-0.58958	-0.31667	-1.1979	-0.36875	24.790	23.714	7.385	-70.483	246.201	191.965	223.612	145.395	80.222	39.510	168.725	16.380	-9.319	262.368	271.882	109.836	0.00014079	0.0005929	8.5323e-05	1349.9	2.836e-06	5.3706e-06	1336	361.38	3.5297e-06	2.8907e-06	410.89	135.65	117.99	40.647	3.3197e-06	50.343	0.0004782	0.00052443	0.00013505	1354.6	6.0635e-06	5.631e-06	1349.2	365.64	6.0832e-06	5.6337e-06	416.85	138.87	120.51	41.532	5.3701e-06	51.5	176.415	-16.769	-2.736	-73.686	70.455	51.053	-73.829	-69.128	33.350	50.426	-69.623	-65.519	-64.810	-60.208	67.350	-60.875	-8191	255	
1653.733	1	1	0	0	0.38058	0.2845	0.22525	0.21571	0.16936	0.15427	0.089456	0.19248	0.32089	0.11384	0.25965	0.032761	0.13712	0.27123	0.30219	0.17988	-0.32083	-0.7875	-0.2625	-1.3333	-0.56667	-0.29375	-1.2896	-0.39792	-0.5875	-0.89167	-0.29792	-0.96667	-0.57083	-0.3375	-1.0896	-0.41042	-25.476	0.521	102.112	164.007	194.349	233.534	-86.884	236.801	-38.102	144.123	256.146	145.007	221.124	112.281	162.884	107.973	0.00013898	0.00049078	8.0799e-05	1327.5	2.0853e-06	5.4233e-06	1322	357.1	1.688e-06	3.2513e-06	409.14	134.93	117.11	40.71	2.8775e-06	50.484	0.00046225	0.0005059	0.00013418	1335.8	5.8451e-06	5.4794e-06	1332.2	361.81	5.7367e-06	5.4331e-06	413.83	137.81	119.7	41.397	5.5175e-06	51.378	172.787	5.517	8.044	-73.563	56.013	56.199	-73.797	-69.165	34.070	79.519	-69.534	-65.202	-64.954	-60.069	51.932	-60.714	-8191	255	
1653.854	1	1	0	0	0.21313	0.22905	0.10183	0.2614	0.24372	0.051492	0.17722	0.10546	0.18693	0.024808	0.037957	0.21561	0.34179	0.28055	0.038404	0.19086	-0.13125	-0.94792	-0.077083	-1.0958	-0.70417	-0.11667	-1.1229	-0.55	-0.475	-0.88333	-0.14167	-0.98958	-0.89375	-0.14583	-0.875	-0.40625	271.144	4.116	254.778	-61.907	125.165	216.805	236.947	270.985	243.585	138.131	-32.068	209.750	267.484	231.815	-17.530	210.461	0.00015821	0.0004937	0.00015592	1328.9	2.3255e-06	6.3288e-06	1324.6	357.28	1.1824e-06	4.2501e-06	410.54	135.3	117.66	40.765	2.3505e-06	50.374	0.00046463	0.00052008	0.00014678	1336.8	5.9245e-06	5.6428e-06	1337	362.5	5.6779e-06	5.5109e-06	415.16	138.15	120.05	41.488	6.0359e-06	51.428	179.269	14.839	12.532	-73.673	74.354	75.622	-73.771	-69.128	26.637	42.091	-69.623	-65.299	-64.962	-60.063	37.826	-60.588	-8191	255	
1653.948	1	1	0	0	0.13347	0.23781	0.20141	0.29481	0.32512	0.13287	0.117	0.24517	0.24373	0.060501	0.20817	0.073725	0.044817	0.1779	0.16387	0.21799	0.089583	-0.90625	0.0083333	-0.97708	-1.0375	-0.14375	-1.2167	-0.60625	-0.34792	-1.2	-0.30417	-0.78958	-0.87917	-0.31042	-1.0271	-0.58125	-53.729	32.568	110.583	240.826	141.947	147.525	214.772	233.222	-38.958	255.458	172.343	171.650	160.193	251.834	135.749	250.045	0.00015799	0.00053796	0.00014459	1330.3	2.3948e-06	4.6012e-06	1329.4	358.91	3.4693e-06	4.6251e-06	409.54	135.31	117.75	40.844	2.101e-06	50.5	0.00047119	0.00051428	0.00015692	1339.6	5.9557e-06	5.4699e-06	1341.9	363.49	5.7654e-06	5.7602e-06	414.92	138.44	120.34	41.589	6.1432e-06	51.649	155.601	-0.522	11.809	-73.593	55.068	74.640	-73.894	-69.136	25.854	41.147	-69.606	-65.363	-65.049	-60.176	29.679	-60.760	-8191	255	
1654.045	1	1	0	0	0.16372	0.14512	0.1456	0.2755	0.13409	0.025713	0.22407	0.38502	0.16389	0.23219	0.14365	0.26954	0.25941	0.12024	0.2263	0.14839	0.079167	-1.0708	-0.27708	-0.58958	-0.99375	-0.15833	-1.25	-0.65417	-0.28333	-1.2563	-0.38125	-0.7625	-1.1417	-0.39375	-0.82708	-0.79375	19.588	130.286	157.436	220.845	199.371	-35.208	199.413	242.260	166.186	-63.543	264.132	-66.746	232.843	159.069	6.603	183.992	0.00014292	0.00035684	0.00018504	1334.5	3.1097e-06	5.8053e-06	1332.3	360.31	2.1289e-06	4.1772e-06	410.92	135.67	118.12	40.765	3.542e-06	50.425	0.00045595	0.00050327	0.00015946	1345.8	5.8142e-06	5.9047e-06	1345.4	364.71	5.8405e-06	6.0785e-06	417.31	138.87	120.69	41.609	6.8288e-06	51.517	170.842	22.294	7.273	-73.579	50.528	65.329	-73.806	-69.290	13.439	56.537	-69.679	-65.336	-64.941	-60.165	39.242	-60.590	-8191	255	
1654.141	1	1	0	0	0.32345	0.12321	0.27188	0.32115	0.14919	0.35452	0.12048	0.20307	0.20294	0.31034	0.10829	0.065057	0.2718	0.25079	0.21733	0.23062	0.1	-0.82292	-0.38542	-0.63542	-0.92083	-0.18125	-1.2771	-0.775	-0.19375	-0.8625	-0.53333	-0.5875	-1.1708	-0.30833	-0.71458	-0.92292	32.961	110.118	25.796	249.516	154.909	2.840	234.029	193.644	155.336	8.750	126.983	-64.085	261.803	155.976	43.289	246.761	0.00016296	0.00061867	0.00013434	1341.3	1.4556e-06	4.0836e-06	1332.7	357.7	1.7328e-06	5.8479e-06	410.42	134.19	116.78	40.234	4.9498e-06	49.792	0.00047557	0.00061014	0.00018647	1348.9	6.5075e-06	7.0104e-06	1347.6	362.55	6.6364e-06	7.3171e-06	414.77	137.38	119.3	41.116	7.7027e-06	50.96	170.013	11.698	-0.516	-73.658	36.164	70.837	-73.729	-69.432	40.721	57.983	-69.603	-65.694	-64.946	-60.228	35.394	-60.781	-8191	255	
1654.214	1	1	0	0	0.22288	0.082904	0.44232	0.19019	0.11216	0.44846	0.34095	0.19685	0.051013	0.15102	0.19445	0.28173	0.11878	0.2738	0.22725	0.10488	0.058333	-0.90208	-0.57292	-0.54583	-1.0958	-0.29167	-0.90833	-0.9125	0.033333	-1.1333	-0.7125	-0.40417	-0.98125	-0.49583	-0.49792	-1.0458	-71.907	107.450	-37.055	240.926	271.004	-23.235	223.168	259.707	265.332	216.507	149.988	221.573	35.538	-23.675	119.176	218.304	0.00017048	0.00048078	0.00014638	1339.5	2.6845e-06	4.9239e-06	1333.9	359.44	2.9419e-06	6.7945e-06	412.73	134.05	116.94	40.268	3.6791e-06	49.796	0.00052029	0.00070167	0.00019808	1350.4	6.813e-06	7.9036e-06	1351.3	364	6.905e-06	8.0711e-06	416.93	137.85	119.7	41.15	7.4779e-06	50.909	174.220	7.397	-0.379	-73.627	37.975	89.145	-73.595	-69.055	0.393	61.745	-69.793	-65.578	-64.901	-60.244	74.173	-61.070	-8191	255	
1654.333	1	1	0	0	0.1977	0.19148	0.18538	0.0073563	0.14314	0.1746	0.26993	0.21135	0.19489	0.097205	0.50617	0.35903	0.083446	0.12631	0.16404	0.22108	0.1625	-0.93542	-0.54167	-0.43125	-1.1458	-0.44167	-0.80417	-0.96875	-0.052083	-0.92917	-0.775	-0.19167	-1.1375	-0.38542	-0.45417	-0.89583	-45.853	140.707	178.705	5.867	60.730	113.851	211.239	153.943	161.027	79.331	251.117	233.154	108.410	-50.439	256.717	250.359	0.00016866	0.00043685	0.00012867	1330.7	2.0204e-06	5.8948e-06	1323.2	354.63	1.1616e-06	3.0494e-06	410.07	134.46	117.08	40.725	2.5447e-06	50.558	0.00053466	0.00071386	0.00018724	1342.4	6.7472e-06	7.4164e-06	1338.1	359.98	6.3508e-06	6.8292e-06	414.51	137.35	119.73	41.529	5.6147e-06	51.663	175.699	9.229	12.407	-73.777	47.229	53.691	-73.747	-69.336	1.886	83.411	-69.803	-65.237	-64.851	-60.224	72.924	-60.693	-8191	255	
1654.429	1	1	0	0	0.12615	0.42519	0.18206	0.16238	0.31229	0.11433	0.16382	0.31332	0.10661	0.18267	0.18335	0.21529	0.25396	0.37953	0.1815	0.039577	0.21875	-0.82083	-0.4375	-0.44583	-1.025	-0.26458	-0.6875	-1.1562	-0.24375	-0.81875	-0.95625	-0.085417	-1.0271	-0.55833	-0.25417	-1.1104	67.531	146.594	115.945	209.938	236.006	-35.305	182.456	162.616	24.364	265.476	10.523	178.444	0.048	264.242	197.376	-35.101	0.00017434	0.00048955	0.00012325	1343	2.6521e-06	3.4369e-06	1339.7	360.81	2.5745e-06	3.5595e-06	414.03	135.34	118.71	40.802	4.2973e-06	50.366	0.0004626	0.00055908	0.00014201	1352.1	5.7471e-06	5.9497e-06	1352.1	366.12	5.8853e-06	5.8494e-06	418.2	138.92	120.92	41.653	5.6852e-06	51.461	168.677	-3.270	10.953	-73.590	58.149	89.426	-73.668	-69.280	33.596	62.541	-69.777	-65.302	-64.952	-60.318	54.845	-60.747	-8191	255	
1654.525	1	1	0	0	0.17163	0.17342	0.12397	0.10258	0.28327	0.090481	0.48649	0.25641	0.19979	0.23404	0.11165	0.094447	0.24523	0.058834	0.062362	0.064253	0.25	-0.68542	-0.72708	-0.11667	-0.9125	-0.42708	-0.75833	-1.2667	-0.24375	-0.87708	-1.05	-0.29792	-1.1729	-0.79167	-0.37292	-1.075	219.693	162.111	77.914	126.801	23.239	102.858	212.438	229.095	48.774	-26.870	197.255	167.246	250.231	-49.266	6.072	180.016	0.00013974	0.00047605	0.00011972	1338.3	2.0598e-06	5.9792e-06	1323.2	356.09	1.3944e-06	1.4656e-06	408.75	132.87	116.31	40.081	3.6017e-06	50.206	0.00049465	0.00055805	0.00014841	1342.3	6.3688e-06	6.3695e-06	1336.7	360.69	6.6766e-06	6.2299e-06	413.43	136.67	118.93	41.072	5.7803e-06	51.138	170.842	23.595	5.764	-73.577	70.348	57.977	-73.768	-69.167	9.105	14.200	-69.551	-65.404	-64.789	-59.999	51.298	-60.690	-8191	255	
1654.646	1	1	0	0	0.10068	0.29059	0.35389	0.10762	0.10233	0.14107	0.26818	0.25539	0.2819	0.041183	0.25188	0.35861	0.072287	0.030121	0.10905	0.21138	-0.066667	-0.48125	-0.85625	-0.17708	-0.91667	-0.575	-0.58333	-1.0771	-0.54167	-0.4625	-1.2646	-0.36667	-0.74583	-0.68333	-0.15208	-1.0604	-68.333	-20.356	81.247	263.000	167.235	-9.578	189.968	231.737	199.727	150.461	-78.493	252.497	11.056	114.887	248.087	221.235	0.00015508	0.00046721	0.00014268	1331.6	3.375e-06	4.3732e-06	1330.9	357.22	3.1422e-06	4.5255e-06	408.98	134.02	117.22	40.307	3.6903e-06	49.969	0.00049068	0.00053988	0.00014098	1337.2	6.1902e-06	5.8543e-06	1339	362.52	6.3011e-06	5.8578e-06	414.27	137.37	119.52	41.266	5.6009e-06	51.123	178.747	8.740	2.682	-73.515	59.851	67.658	-73.838	-69.124	25.890	69.444	-69.668	-65.552	-64.915	-60.005	47.564	-60.540	-8191	255	
1654.742	1	1	0	0	0.085046	0.075875	0.098156	0.10555	0.18085	0.049364	0.46728	0.34359	0.057347	0.29383	0.13867	0.26357	0.41304	0.17102	0.28177	0.21639	-0.1125	-0.28958	-0.86875	-0.24792	-0.78542	-0.7125	-0.37917	-1.0375	-0.29375	-0.46458	-1.1375	-0.23958	-0.85	-0.99167	0.15625	-1.2563	173.987	218.701	102.847	113.867	86.412	230.926	179.678	258.091	33.319	35.614	-21.482	-68.346	-34.268	201.175	39.101	26.931	0.00016222	0.0006307	0.00019755	1327.6	2.9029e-06	4.742e-06	1315.2	354.22	8.6773e-07	7.1271e-06	405.89	132.15	115.14	39.749	3.0939e-06	49.354	0.00050972	0.00056579	0.00014921	1335.2	6.5538e-06	6.307e-06	1332.1	359.67	6.8342e-06	6.4059e-06	410.92	135.41	117.62	40.59	6.1111e-06	50.514	166.443	-0.567	0.049	-73.623	63.157	56.481	-73.755	-69.019	35.197	81.012	-69.641	-65.666	-64.789	-59.980	39.648	-60.301	-8191	255	
1654.814	1	1	0	0	0.06763	0.2988	0.24249	0.26378	0.14349	0.24406	0.35651	0.24696	0.043666	0.045183	0.3189	0.11292	0.21853	0.19517	0.27558	0.24561	-0.054167	-0.35625	-0.9875	-0.4125	-0.56667	-1.0187	-0.36458	-1.1063	-0.45625	-0.15625	-1.2146	-0.45625	-0.80625	-0.93125	-0.16458	-1.0979	125.564	-66.504	196.881	215.366	-6.005	-15.796	208.815	187.547	160.733	-14.851	272.837	-70.777	215.888	179.790	-27.777	137.721	0.0001703	0.00055115	0.00011375	1320.8	1.9902e-06	6.8205e-06	1314.5	356.01	2.9912e-06	4.5534e-06	406.38	132.95	116.08	40.195	3.7681e-06	49.971	0.00051373	0.00057573	0.00015559	1329.9	6.6153e-06	6.3895e-06	1329.8	359.75	6.6812e-06	6.1512e-06	412.3	136.53	118.82	41.036	6.2292e-06	51.082	179.657	-1.140	3.999	-73.744	54.179	73.050	-73.728	-68.936	34.461	52.516	-69.552	-65.747	-64.826	-60.102	57.346	-60.697	-8191	255	
1654.934	1	1	0	0	0.020303	0.22357	0.08873	0.51177	0.067322	0.28175	0.26022	0.17669	0.18959	0.21219	0.077721	0.12124	0.22377	0.077702	0.20984	0.18186	-0.44375	-0.24792	-0.91458	-0.51667	-0.33125	-0.95	-0.40833	-1.0854	-0.60625	-0.05	-1.1208	-0.55	-0.28542	-1.0479	-0.072917	-0.84375	-70.049	245.324	57.732	228.502	2.972	-55.793	227.768	234.690	-33.519	232.706	-83.522	260.405	227.555	214.792	189.485	-61.615	0.00015661	0.00044482	0.00013698	1328.7	2.1441e-06	5.982e-06	1322	356.82	1.7046e-06	3.4952e-06	407.46	133.2	115.62	40.285	1.6834e-06	49.745	0.00050429	0.00054931	0.0001656	1336.7	6.4417e-06	6.1821e-06	1337.2	360.76	6.5493e-06	6.1673e-06	412.63	136.55	118.49	40.928	6.7926e-06	50.856	174.919	9.351	10.729	-73.671	37.627	63.195	-73.802	-69.339	8.452	49.984	-69.507	-65.481	-64.786	-60.085	51.082	-60.426	-8191	255	
1655.029	1	1	0	0	0.18403	0.077783	0.21405	0.18856	0.1658	0.11694	0.13802	0.22392	0.10504	0.18273	0.12015	0.20003	0.39605	0.23006	0.12909	0.27543	-0.4875	-0.21458	-1.0042	-0.54792	-0.3875	-1.1271	-0.36042	-0.70833	-0.61667	-0.14167	-0.975	-0.51667	-0.35208	-1.0708	-0.077083	-0.51042	135.974	124.773	139.929	-45.280	-56.079	165.825	202.541	261.968	-55.926	80.382	-81.657	249.004	226.226	-81.225	66.944	247.055	0.00015386	0.00030175	0.0001732	1329.4	3.449e-06	3.7651e-06	1323.3	354.25	2.1605e-06	4.7184e-06	408.93	133.85	116.52	40.194	2.6348e-06	50.053	0.00050985	0.0005803	0.00018137	1335.8	6.4806e-06	6.334e-06	1337	360.28	6.608e-06	6.275e-06	413.05	136.76	119.01	41.076	7.0441e-06	51.123	176.545	29.303	-2.530	-73.749	56.968	70.491	-73.816	-69.310	28.791	50.745	-69.615	-65.522	-64.743	-60.217	48.677	-60.484	-8191	255	
1655.125	1	1	0	0	0.11466	0.3065	0.062527	0.20736	0.13547	0.36676	0.22315	0.43617	0.043511	0.09319	0.19063	0.36542	0.29358	0.16977	0.17523	0.25324	-0.51667	-0.060417	-0.84375	-0.77917	-0.34792	-1.1354	-0.58542	-0.59375	-0.92917	-0.22083	-1.0271	-0.825	-0.41458	-1.3062	-0.175	-0.6875	26.308	215.611	265.860	-64.482	234.735	216.016	231.102	189.874	182.612	14.125	159.393	-83.536	250.883	252.141	-16.607	223.163	0.0001799	0.00039781	0.00013211	1335.5	1.8899e-06	4.0228e-06	1321.9	357.53	2.3358e-06	5.8162e-06	407.33	133.5	116.59	40.313	4.2544e-06	50.126	0.00049641	0.00055941	0.0001833	1339.5	6.3462e-06	6.3164e-06	1335.8	361.34	6.3109e-06	6.3346e-06	412.76	136.7	119.02	41.163	6.6784e-06	51.278	165.111	-0.498	14.673	-73.505	72.051	41.946	-73.738	-69.097	57.091	68.131	-69.435	-65.258	-64.838	-60.028	57.434	-60.594	-8191	255	
1655.246	1	1	0	0	0.1277	0.19139	0.33917	0.13163	0.18693	0.29415	0.25552	0.12849	0.29206	0.20364	0.20078	0.24084	0.23965	0.061894	0.20144	0.20448	-0.46875	-0.095833	-0.73333	-0.86667	-0.16458	-1.1625	-0.5	-0.62708	-0.90417	-0.21667	-1.0083	-1.1542	-0.08125	-1.1542	-0.58333	-0.38958	-83.936	-70.969	148.461	213.836	15.940	184.771	210.998	138.172	70.662	-69.612	173.624	225.317	-68.304	-37.289	-83.564	-85.360	0.00016312	0.00048774	0.00010231	1328.2	2.9755e-06	4.9683e-06	1330.7	359.36	1.4191e-06	4.845e-06	410.61	135.21	117.55	40.678	1.1895e-06	50.389	0.00044833	0.00056579	0.00016119	1339.4	5.5849e-06	6.0921e-06	1341.4	363.2	5.5738e-06	6.1969e-06	415.79	138.2	120.21	41.568	6.1237e-06	51.536	166.864	-5.776	6.021	-73.690	64.327	48.668	-73.694	-69.078	-38.618	42.026	-69.438	-65.518	-64.690	-60.115	34.594	-60.513	-8191	255	
1655.342	1	1	0	0	0.31055	0.22472	0.23172	0.37029	0.19376	0.10519	0.30566	0.1216	0.1037	0.095246	0.21983	0.2481	0.24968	0.39688	0.18206	0.40011	-0.51875	-0.27292	-0.5875	-1.0542	-0.19375	-0.97083	-0.775	-0.46667	-1.1458	-0.17292	-0.64167	-1.0479	-0.15	-0.94583	-0.4125	-0.3125	150.270	266.322	115.678	256.792	220.844	188.029	183.199	258.337	147.399	-52.451	-68.900	155.163	236.515	245.996	151.236	271.466	0.00016087	0.00057003	0.00014285	1331.3	2.656e-06	4.9074e-06	1323.8	355.75	2.4764e-06	3.2829e-06	408.16	134.2	116.88	40.593	3.9057e-06	50.234	0.00044423	0.00057994	0.00015685	1337.6	5.8469e-06	6.6389e-06	1337.2	361.48	5.9317e-06	6.9177e-06	413.75	137.38	119.33	41.312	6.5713e-06	51.235	170.846	-10.998	-11.705	-73.646	64.492	84.742	-73.815	-68.974	14.330	67.215	-69.428	-65.327	-64.900	-59.961	63.908	-60.556	-8191	255	
1655.438	1	1	0	0	0.3579	0.11646	0.14298	0.29274	0.26312	0.13196	0.14696	0.17206	0.21687	0.192	0.224	0.095566	0.12902	0.091047	0.1664	0.090197	-0.47292	0.05625	-0.575	-1.0583	-0.033333	-0.96875	-0.70625	-0.31458	-1.0229	-0.31042	-0.55625	-1.0458	-0.12917	-0.98542	-0.63958	-0.33958	-39.244	-6.369	-78.129	251.843	80.201	220.053	123.312	-69.466	15.796	-64.076	-72.994	150.495	110.032	8.989	118.627	134.806	0.00014198	0.00048213	0.00017515	1331.5	1.5048e-06	3.1351e-06	1323	358.79	1.7399e-06	6.9171e-06	409.76	134.88	118.04	40.987	1.9209e-06	50.808	0.0004838	0.00064901	0.00016923	1340	6.4488e-06	6.9708e-06	1336.9	362.77	6.5425e-06	7.1216e-06	415.61	138.22	120.59	41.76	6.3966e-06	51.945	169.173	24.381	17.604	-73.527	50.612	60.045	-73.596	-68.965	44.881	66.353	-69.443	-65.425	-64.832	-60.016	73.181	-60.631	-8191	255	
1655.509	1	1	0	0	0.095661	0.18033	0.21519	0.071578	0.16718	0.03643	0.47099	0.39985	0.12617	0.31799	0.066849	0.2057	0.28599	0.3051	0.095805	0.13129	-0.5625	-0.27917	-0.1625	-1.0292	-0.029167	-0.925	-1.0708	-0.079167	-1.0938	-0.18125	-0.36667	-1.1042	-0.34167	-0.70625	-0.79375	-0.41875	149.530	30.985	-50.339	224.493	118.891	142.702	200.052	203.007	-1.245	-64.441	-18.006	249.262	253.181	263.375	-7.586	144.294	0.00016977	0.00049222	0.00015862	1355.6	2.8515e-06	5.4655e-06	1353	366.3	1.225e-06	4.463e-06	420.87	139.45	121.43	41.972	3.558e-06	52.263	0.00050713	0.00064816	0.00016473	1363	6.6351e-06	6.9769e-06	1366.7	371.05	6.8219e-06	6.9396e-06	425.45	142.69	124.19	42.953	6.4539e-06	53.276	171.903	-3.328	-2.609	-73.389	53.720	65.601	-73.777	-69.292	15.971	60.437	-69.246	-65.548	-64.962	-60.017	28.572	-60.675	-8191	255	
1655.630	1	1	0	0	0.040626	0.26297	0.22902	0.18299	0.10524	0.23399	0.31183	0.18162	0.11111	0.14765	0.22207	0.22569	0.31863	0.23252	0.036058	0.31055	-0.5125	-0.39583	-0.19583	-1.1979	-0.060417	-0.65625	-1.025	-0.41875	-0.83125	-0.62083	-0.27708	-1.0938	-0.34167	-0.56875	-0.81875	0.1	41.628	92.708	187.760	150.510	54.328	110.388	203.695	179.080	176.472	195.121	205.645	251.944	249.994	206.102	-62.126	247.967	0.00017735	0.0002815	0.00010288	1374.3	3.1293e-06	5.4847e-06	1367.7	369.87	2.6476e-06	5.1929e-06	423.31	139.82	121.49	42.171	2.7538e-06	51.744	0.0005413	0.00065618	0.00016653	1380.7	7.3605e-06	7.3071e-06	1381.2	374.35	7.3473e-06	7.4019e-06	427.51	143.18	124.38	42.985	6.7955e-06	52.994	173.494	20.976	4.021	-73.554	76.747	45.463	-73.740	-69.116	20.209	72.428	-69.448	-65.418	-65.024	-60.158	38.730	-60.983	-8191	255	
1655.726	1	1	0	0	0.1478	0.29425	0.26964	0.15059	0.10697	0.1883	0.09251	0.064616	0.27158	0.22182	0.1361	0.14023	0.13575	0.063248	0.31802	0.20482	-0.68125	-0.78958	-0.13958	-1.25	-0.125	-0.48333	-1.2833	-0.06875	-0.78958	-0.40833	-0.35208	-0.92292	-0.4625	-0.46667	-1.0625	-0.15625	133.108	-1.183	23.054	202.378	-6.680	185.252	94.115	-21.094	-14.560	167.352	145.934	-66.937	215.118	5.812	12.970	241.774	0.00017523	0.00063815	0.0001639	1367.7	3.4876e-06	2.8554e-06	1354.8	365.61	2.9742e-06	5.6678e-06	419.93	138.28	120.85	41.681	4.4267e-06	51.506	0.00059052	0.00070666	0.00018326	1375.9	8.2367e-06	7.796e-06	1371.6	371.05	8.3719e-06	8.0738e-06	424.98	141.84	123.45	42.597	7.2374e-06	52.804	172.879	-5.445	-1.434	-73.589	58.642	60.028	-73.916	-69.152	4.793	63.302	-69.338	-65.437	-64.801	-60.289	62.201	-60.769	-8191	255	
1655.822	1	1	0	0	0.12872	0.072479	0.14632	0.16071	0.18562	0.17074	0.31101	0.23005	0.16509	0.20868	0.22314	0.11907	0.12384	0.32078	0.10935	0.22052	-0.43542	-0.46667	-0.085417	-1.0896	-0.52917	-0.42917	-1.0625	-0.16875	-0.46042	-0.68125	-0.0625	-1.2313	-0.61875	-0.45417	-0.94375	-0.3375	245.233	191.390	45.819	195.379	-24.072	97.700	215.380	214.951	157.820	-75.752	253.625	-84.414	63.709	210.037	-26.303	135.738	0.00018044	0.00046399	0.00011496	1366.4	3.1284e-06	5.8536e-06	1365	368.08	2.9702e-06	6.7908e-06	422.83	139.42	122.08	41.989	4.1052e-06	51.987	0.00062189	0.00073592	0.00019739	1377.4	8.4007e-06	8.1347e-06	1378.4	372.61	8.4603e-06	8.1502e-06	427.29	142.94	124.53	42.929	7.471e-06	53.21	175.235	0.311	4.955	-73.342	78.440	60.084	-73.856	-69.352	50.290	74.063	-69.604	-65.515	-64.872	-60.200	47.287	-60.654	-8191	255	
1655.919	1	1	0	0	0.19511	0.20505	0.32004	0.118	0.15298	0.19581	0.2827	0.1249	0.20751	0.12863	0.21568	0.151	0.24929	0.14999	0.28749	0.19323	-0.24792	-0.81042	0.077083	-1.1667	-0.36667	-0.091667	-1.2917	-0.077083	-0.44375	-0.78958	-0.0083333	-0.9375	-0.78542	-0.24167	-1.0021	-0.32917	-85.466	-68.912	196.906	37.156	268.450	10.727	234.462	217.353	-72.853	130.906	192.576	184.842	199.945	146.752	184.021	177.266	0.00015954	0.00053071	0.00015738	1376.9	3.5126e-06	6.578e-06	1370	369.92	2.0858e-06	3.8337e-06	424.3	140.77	122.38	42.429	2.443e-06	52.38	0.00060884	0.00073275	0.00019632	1386.3	8.2846e-06	7.9049e-06	1386.6	375.03	8.2264e-06	8.1364e-06	429.8	144.06	125.26	43.288	8.0924e-06	53.558	178.281	-0.918	8.547	-73.573	86.309	62.016	-73.733	-69.195	48.025	55.707	-69.713	-65.520	-65.113	-60.149	69.015	-60.744	-8191	255	
1656.037	1	1	0	0	0.20923	0.21342	0.17987	0.10653	0.010271	0.1356	0.37395	0.28446	0.29176	0.18599	0.27557	0.16503	0.14845	0.088813	0.14731	0.26733	-0.14375	-0.69375	-0.0875	-0.91875	-0.57292	0.022917	-1.1958	-0.34792	-0.46458	-1.0208	-0.075	-0.73125	-0.90417	-0.15417	-1.0854	-0.60417	94.398	-54.289	272.609	180.717	38.701	-86.492	219.636	215.201	71.231	198.474	-30.868	74.604	-58.149	202.941	-63.376	190.327	0.00015957	0.0004404	0.00013659	1382.9	3.4329e-06	4.7561e-06	1379.6	368.94	2.3326e-06	1.8105e-06	425.8	139.95	121.6	41.994	2.586e-06	51.921	0.00060559	0.00072755	0.00021158	1393	8.2008e-06	7.7879e-06	1390.3	375.37	8.1893e-06	7.7555e-06	429.65	143.47	124.67	43.006	8.3177e-06	53.194	177.373	-5.519	9.680	-73.420	61.138	76.811	-73.751	-69.241	7.693	47.816	-69.715	-65.535	-65.199	-60.240	56.319	-61.028	-8191	255	
1656.111	1	1	0	0	0.16593	0.32871	0.19009	0.2464	0.042619	0.049045	0.25336	0.16209	0.13159	0.32802	0.15847	0.17881	0.16831	0.35853	0.11708	0.073991	0.14583	-0.89583	-0.15417	-0.94792	-0.87083	-0.052083	-0.97917	-0.66667	-0.052083	-0.84375	-0.17917	-0.57708	-0.98125	-0.1	-0.82917	-0.60417	-76.701	29.035	158.229	165.003	262.838	186.867	249.909	100.414	-66.145	22.672	180.433	191.223	232.708	246.317	186.108	129.475	0.00017022	0.00055382	0.00015638	1373.2	1.6946e-06	5.5989e-06	1369.8	366.38	3.8334e-06	2.5162e-06	421.49	139.43	121.04	41.867	2.6798e-06	51.734	0.00059358	0.00072425	0.00022555	1384.8	7.9911e-06	8.071e-06	1383.3	372.27	7.8174e-06	7.8171e-06	426.3	142.42	123.97	42.736	8.6829e-06	52.982	174.612	-11.137	3.335	-73.437	48.058	44.891	-73.584	-69.339	-6.740	29.127	-69.665	-65.390	-65.007	-60.071	52.479	-60.987	-8191	255	
1656.207	1	1	0	0	0.090074	0.17919	0.10416	0.23055	0.27676	0.26738	0.2093	0.21365	0.23624	0.059819	0.1138	0.15099	0.29875	0.27291	0.18925	0.42391	0.175	-0.75	-0.3375	-0.64583	-0.9375	-0.18542	-1.1104	-0.71458	-0.15625	-1.0708	-0.44792	-0.63958	-0.97292	-0.23125	-0.73542	-0.67083	167.003	71.666	45.681	225.280	19.141	-78.271	-60.692	148.406	254.683	-66.885	128.470	194.524	128.611	261.775	-26.984	255.648	0.00017439	0.00054035	0.00013935	1379.6	4.5176e-06	4.012e-06	1369.7	368.16	1.7873e-06	5.015e-06	420.37	139.84	121.29	41.99	5.6195e-06	51.792	0.0005755	0.00072286	0.00022646	1385.7	7.6759e-06	7.9848e-06	1382.6	373.65	7.5325e-06	8.2616e-06	426.97	142.91	124.38	42.851	8.7685e-06	53.136	174.147	3.339	10.123	-73.631	44.097	90.055	-73.875	-69.281	9.188	57.880	-69.710	-65.403	-64.947	-60.191	54.567	-60.610	-8191	255	
1656.326	1	1	0	0	0.07444	0.26329	0.063397	0.17147	0.11797	0.29985	0.13057	0.29551	0.20517	0.09271	0.099342	0.060681	0.22409	0.1368	0.1948	0.23956	0.28542	-0.82083	-0.34792	-0.49792	-0.95417	-0.24583	-0.85625	-0.83542	0.014583	-0.94792	-0.51042	-0.33542	-1.1542	-0.36667	-0.80208	-0.79792	91.262	217.609	-20.132	249.334	-77.868	62.759	245.428	180.422	231.930	201.644	246.116	151.417	-48.707	237.950	-75.890	243.770	0.00015824	0.0003413	0.00014487	1374.2	2.3961e-06	5.8457e-06	1361	366.31	1.6601e-06	4.4854e-06	419.94	138.85	120.63	41.861	3.2179e-06	51.943	0.00056882	0.0007547	0.00022452	1382	7.6463e-06	8.4476e-06	1380.4	372.09	7.5584e-06	8.6623e-06	426.05	142.14	123.61	42.725	8.5063e-06	52.962	170.905	35.197	4.826	-73.549	41.379	80.811	-73.558	-69.189	20.581	71.316	-69.296	-65.547	-64.880	-60.192	63.439	-60.523	-8191	255	
1656.422	1	1	0	0	0.15901	0.27937	0.014468	0.45441	0.082217	0.088774	0.13293	0.22703	0.19074	0.15093	0.19747	0.11175	0.26529	0.10374	0.14282	0.067899	0.11875	-1.0104	-0.3375	-0.35	-1.1146	-0.12708	-0.8875	-1.0417	-0.11458	-1.0875	-0.54167	-0.38333	-1.1354	-0.39583	-0.79375	-0.96042	20.692	250.179	261.577	204.306	208.980	-9.498	169.981	208.272	98.996	70.766	252.526	55.144	212.846	-72.916	186.683	222.237	0.0001683	0.00039499	0.00016575	1374.9	1.251e-06	3.0436e-06	1367.2	368.26	3.004e-06	4.7181e-06	422.02	139.16	121.33	41.818	3.7173e-06	51.754	0.00057025	0.0007933	0.00021638	1382.5	7.426e-06	8.7575e-06	1381.1	373.42	7.7074e-06	8.842e-06	427.06	142.44	124.14	42.77	7.8194e-06	53.043	159.909	13.159	-7.091	-73.476	60.608	69.171	-73.669	-69.296	12.015	42.001	-69.779	-65.313	-64.714	-60.120	57.261	-60.858	-8191	255	
1656.518	1	1	0	0	0.32473	0.15552	0.20638	0.17436	0.10243	0.17551	0.13489	0.092394	0.069435	0.13059	0.074251	0.1233	0.090099	0.12955	0.27099	0.26655	0.12083	-0.89792	-0.43333	-0.4375	-1.0333	-0.33125	-0.74792	-0.95625	-0.29375	-0.85208	-0.88333	-0.17292	-1.0312	-0.60833	-0.40625	-1.0542	174.300	195.803	127.346	-54.458	85.754	204.337	245.099	198.127	157.681	64.140	104.516	224.914	234.974	150.938	-2.787	200.840	0.00017932	0.00062064	0.00018628	1372.5	1.3055e-06	6.4116e-06	1367.8	367.4	1.8704e-06	5.573e-06	420.32	138.43	120.84	41.591	3.3711e-06	51.484	0.00057654	0.00079832	0.00021536	1381.1	8.0266e-06	9.1026e-06	1382	372.83	8.2857e-06	9.1516e-06	426.04	141.97	123.49	42.55	8.4503e-06	52.666	181.107	-1.085	18.743	-73.522	53.875	46.218	-73.524	-69.000	35.903	44.552	-69.394	-65.377	-64.669	-60.057	77.145	-60.741	-8191	255	
1656.614	1	1	0	0	0.11887	0.28397	0.064074	0.39771	0.06754	0.1979	0.15777	0.13125	0.198	0.20895	0.13965	0.3619	0.21989	0.2267	0.090923	0.17068	0.2	-0.625	-0.64375	-0.48958	-0.93125	-0.35833	-0.63542	-1.2271	-0.18958	-0.65625	-1.0354	-0.21667	-1.0125	-0.4	-0.12708	-1.0292	208.721	39.431	21.709	-48.757	-68.756	142.806	-79.215	204.311	165.795	185.169	142.006	217.793	251.184	245.817	-85.890	196.589	0.00017703	0.00060207	0.00016538	1372.2	2.4036e-06	4.803e-06	1358.2	364.53	2.0918e-06	4.3141e-06	418.58	137.34	119.72	41.542	3.429e-06	51.65	0.00065594	0.00083674	0.00021883	1378.4	8.8089e-06	9.532e-06	1374.5	369.97	9.1388e-06	9.0927e-06	423.52	140.88	122.59	42.42	8.2608e-06	52.738	166.684	-5.852	28.276	-73.321	89.939	78.514	-73.515	-69.025	41.958	47.008	-69.416	-65.327	-64.637	-60.017	65.834	-60.643	-8191	255	
1656.711	1	1	0	0	0.083048	0.16506	0.2982	0.43493	0.28771	0.11203	0.488	0.20335	0.11106	0.11763	0.22389	0.36008	0.034108	0.13189	0.22261	0.42259	-0.091667	-0.40417	-0.96042	-0.17708	-1.0646	-0.63333	-0.35625	-1.1271	-0.24792	-0.63333	-1.0125	-0.22083	-1.0958	-0.44375	0.0020833	-1.1688	260.024	-32.291	-59.010	256.586	67.691	-0.497	239.096	-84.327	-48.697	220.350	215.841	252.463	-34.610	102.772	-30.192	195.079	0.0001381	0.00052979	0.00013646	1380.2	1.9013e-06	3.1767e-06	1376.9	370.94	1.5234e-06	5.0581e-06	422.95	139.59	122.02	41.996	2.9906e-06	51.759	0.00065321	0.00080046	0.00020553	1388.1	8.7048e-06	8.5518e-06	1390.5	375.71	8.9252e-06	8.5153e-06	428.87	143.22	124.71	42.908	7.9347e-06	53.104	170.817	12.968	2.710	-73.561	122.305	80.140	-73.767	-69.239	24.552	73.345	-69.569	-65.524	-64.836	-60.244	86.949	-60.529	-8191	255	
1656.807	1	1	0	0	0.11489	0.093545	0.22724	0.20189	0.24965	0.2874	0.48215	0.28289	0.1421	0.11145	0.30851	0.42304	0.36932	0.22754	0.088112	0.32451	-0.0041667	-0.45625	-0.89375	-0.20417	-0.87708	-0.59792	-0.5	-1.15	-0.23333	-0.51875	-1.0375	-0.28333	-0.87083	-0.68958	-0.097917	-1.2354	6.866	-71.685	92.386	204.155	126.235	171.822	254.258	221.348	164.389	93.717	236.033	-81.351	228.040	-85.954	52.156	171.256	0.00014404	0.00049645	0.00016032	1375.9	1.4001e-06	4.2377e-06	1368.9	368.77	3.628e-06	6.0136e-06	420.63	138.75	121.48	42.071	2.942e-06	51.927	0.00065412	0.00076513	0.00020288	1385.7	8.8571e-06	8.6628e-06	1382.6	373.12	8.767e-06	8.3864e-06	426.72	142.33	124.2	42.887	7.5144e-06	53.263	178.460	-7.571	-9.328	-73.424	66.129	104.964	-73.716	-69.157	28.963	72.468	-69.503	-65.295	-64.692	-60.241	47.051	-60.725	-8191	255	
1656.927	1	1	0	0	0.09453	0.27862	0.41146	0.22369	0.22559	0.15076	0.23744	0.2516	0.028582	0.2235	0.10214	0.18615	0.10972	0.15633	0.19912	0.18129	0.20208	-0.225	-0.89792	-0.11667	-0.52917	-0.69375	-0.24167	-1.0667	-0.38125	-0.12708	-1.2458	-0.2375	-0.8125	-0.85417	-0.0625	-1.1562	-82.320	-69.021	-75.010	214.558	191.410	261.665	183.174	209.321	127.113	35.582	-53.068	155.472	-85.220	219.991	127.517	252.633	0.00016165	0.00046489	0.00012614	1386.2	2.3127e-06	5.6948e-06	1384.7	370.58	2.1304e-06	6.0953e-06	423.59	140.15	122.13	41.936	3.2864e-06	51.878	0.00063767	0.00074705	0.00019549	1395	8.203e-06	8.3627e-06	1397.1	376.99	8.5951e-06	8.0079e-06	429.93	143.61	125	42.901	8.1125e-06	53.15	164.416	-0.471	2.870	-73.598	45.511	76.832	-73.837	-69.215	3.038	61.109	-69.609	-65.480	-64.900	-60.204	37.877	-60.784	-8191	255	
1657.023	1	1	0	0	0.23063	0.0931	0.1506	0.25559	0.14496	0.09636	0.15554	0.29851	0.37578	0.11199	0.01355	0.13735	0.11989	0.21957	0.13339	0.15791	-0.23958	-0.1	-0.90833	-0.24167	-0.425	-0.9125	-0.40208	-0.92708	-0.57292	-0.13542	-1.1187	-0.19167	-0.6375	-1.0167	0.0125	-1.0896	29.504	249.978	230.529	271.176	178.052	23.533	208.140	-37.200	-57.814	110.100	155.108	255.758	267.897	248.049	17.678	203.127	0.00016871	0.00051728	0.00016211	1375.6	1.8209e-06	5.506e-06	1366	368.03	2.6972e-06	5.5796e-06	418.29	137.32	120.1	41.692	2.8458e-06	51.315	0.00062456	0.00074025	0.00020784	1384.4	8.512e-06	8.3106e-06	1381.1	372.6	8.4913e-06	8.5049e-06	425.18	141.33	122.97	42.468	8.6797e-06	52.641	168.603	-7.074	16.050	-73.671	55.523	70.653	-73.776	-69.293	40.726	61.502	-69.536	-65.588	-64.672	-60.315	69.413	-60.785	-8191	255	
1657.118	1	1	0	0	0.20149	0.3284	0.082348	0.18977	0.099451	0.1427	0.16074	0.22185	0.096503	0.068476	0.17793	0.18249	0.25497	0.19295	0.13435	0.13619	-0.30833	-0.2	-0.7625	-0.40417	-0.3625	-1.2125	-0.27083	-0.93125	-0.79167	0.20625	-1.1583	-0.44375	-0.28958	-1.1333	-0.08125	-0.82708	239.266	-14.111	-71.802	250.768	165.649	111.962	112.802	211.594	231.495	44.619	133.684	131.842	214.252	-43.395	238.277	-58.887	0.00013725	0.00037946	0.0001183	1376.9	2.2756e-06	4.0974e-06	1370.7	369.3	1.5971e-06	3.9573e-06	420.3	138.79	121.5	41.909	2.5048e-06	51.846	0.00063734	0.00075494	0.00022599	1384.9	8.663e-06	8.3346e-06	1386.8	373.89	8.681e-06	8.3995e-06	427.57	142.74	124.5	42.875	9.077e-06	53.196	160.182	-10.600	6.251	-73.835	75.006	75.398	-73.858	-69.142	105.046	58.568	-69.603	-65.574	-64.692	-60.349	38.562	-60.764	-8191	255	
1657.214	1	1	0	0	0.27247	0.16447	0.056113	0.40271	0.27737	0.28743	0.31059	0.21184	0.18987	0.12371	0.36754	0.13392	0.45119	0.17426	0.25045	0.44365	-0.31042	0.077083	-0.97083	-0.5875	-0.16667	-0.90833	-0.26875	-0.63333	-0.86042	-0.10625	-1.1979	-0.62708	-0.41042	-1.1896	-0.18542	-0.54375	64.881	-29.969	268.045	229.529	81.722	-61.228	-85.780	233.881	180.000	163.948	-70.550	240.350	238.354	236.813	-66.876	12.551	0.00015085	0.00053194	9.0564e-05	1380.8	2.9046e-06	5.8274e-06	1375.5	370.1	2.6284e-06	2.7845e-06	422.17	139.46	121.82	42.028	2.1452e-06	52.135	0.00062961	0.00074578	0.00024116	1393.3	8.2262e-06	8.0562e-06	1390.1	375.22	7.9927e-06	8.0806e-06	427.7	143	124.44	42.936	9.4343e-06	53.308	171.747	34.645	9.507	-73.638	43.784	82.356	-73.906	-69.218	16.474	33.169	-69.848	-65.521	-64.869	-60.162	135.567	-60.813	-8191	255	
1657.335	1	1	0	0	0.059202	0.15504	0.16337	0.44741	0.043623	0.20039	0.42049	0.087776	0.081604	0.10244	0.33497	0.23486	0.16398	0.15761	0.24535	0.54721	-0.41667	0.21042	-0.77708	-0.91667	-0.025	-0.88542	-0.44792	-0.59375	-0.85208	-0.095833	-0.85208	-0.76042	-0.19167	-1.1313	-0.18333	-0.47083	135.469	159.859	-52.417	232.741	141.349	263.418	180.131	133.723	189.597	-40.682	230.106	255.817	6.964	229.666	265.893	196.188	0.00016771	0.00046724	0.00010277	1380.9	3.5215e-06	5.26e-06	1380	372.73	3.238e-06	4.7021e-06	424.99	140.98	123.25	42.615	3.5613e-06	52.369	0.00061264	0.00079442	0.00024046	1393.6	8.047e-06	8.6016e-06	1395.8	376.92	8.171e-06	8.6778e-06	431.4	144.45	125.83	43.506	9.133e-06	53.706	176.920	-7.674	-14.636	-73.757	68.061	76.755	-73.815	-69.236	22.358	55.918	-69.419	-65.626	-65.006	-60.355	62.826	-60.980	-8191	255	
1657.406	1	1	0	0	0.18571	0.16554	0.10175	0.048879	0.17831	0.20916	0.36341	0.10229	0.15099	0.19117	0.26872	0.1899	0.33567	0.19619	0.23014	0.35123	-0.60625	-0.022917	-0.56667	-0.93333	0	-0.95	-0.43958	-0.45	-0.7625	-0.22083	-0.9	-0.8625	-0.016667	-0.81875	-0.28333	-0.15625	136.412	128.964	68.561	244.300	-61.864	37.326	272.207	205.588	-83.546	-53.297	-53.374	-4.511	267.835	221.340	194.155	254.658	0.00016157	0.0004558	0.00010995	1391.3	3.0761e-06	3.0581e-06	1390.8	376.19	3.4092e-06	5.0788e-06	432.57	143.95	125.93	43.603	2.8494e-06	53.819	0.00060376	0.00079765	0.00022732	1403.6	7.7003e-06	8.7372e-06	1407	380.97	7.6678e-06	8.5819e-06	438.25	147.45	128.59	44.546	8.1537e-06	54.995	176.540	-2.244	8.553	-73.723	76.359	96.341	-73.768	-69.243	-4.820	71.110	-69.739	-65.881	-64.946	-60.457	68.632	-61.006	-8191	255	
1657.502	1	1	0	0	0.15631	0.17234	0.2113	0.27016	0.18653	0.23376	0.1404	0.16579	0.40483	0.21789	0.25917	0.1168	0.30227	0.078104	0.042368	0.20209	-0.6125	0.010417	-0.50208	-0.81875	-0.064583	-0.73542	-0.50417	-0.14375	-0.87292	-0.19583	-0.7875	-0.925	-0.27708	-0.92083	-0.48333	-0.13542	119.825	100.291	-77.484	251.653	120.335	-71.163	268.864	219.029	-79.537	149.506	-80.597	230.474	-48.512	200.874	-23.269	157.797	0.00015716	0.00059335	0.00012297	1408.3	3.0214e-06	6.5751e-06	1399.6	378.99	1.5491e-06	5.6316e-06	431.25	142.43	124.43	43.09	3.7939e-06	52.662	0.00058824	0.0007901	0.00021227	1418.6	7.5533e-06	8.7474e-06	1414.8	383.73	7.6317e-06	8.8736e-06	436.36	146.13	127.26	43.807	8.3284e-06	53.989	178.480	0.451	18.784	-73.674	50.810	66.060	-73.770	-69.286	27.966	65.775	-69.475	-65.579	-64.986	-60.384	65.000	-61.034	-8191	255	
1657.599	1	1	0	0	0.25723	0.24274	0.20572	0.11158	0.29746	0.10983	0.2522	0.12545	0.18061	0.10102	0.31441	0.12011	0.088535	0.043443	0.086799	0.21903	-0.4875	-0.10208	-0.41667	-1.1667	-0.089583	-0.80208	-0.9375	-0.39167	-0.92708	-0.52917	-0.56875	-0.95417	-0.24375	-0.76042	-0.69167	-0.14583	184.297	188.712	51.263	-81.147	265.600	111.146	193.009	212.644	55.568	-80.065	245.903	7.980	-51.309	87.646	242.369	208.175	0.00017678	0.00064018	0.00010977	1396.2	1.8207e-06	5.3193e-06	1385.8	373.56	3.1305e-06	5.5515e-06	426.84	141.32	122.82	42.233	5.1419e-06	52.41	0.00062302	0.00085149	0.00021287	1404.8	8.5824e-06	9.2617e-06	1402.4	379.01	8.6103e-06	9.3975e-06	432.94	144.68	125.89	43.341	8.7125e-06	53.548	168.978	5.170	13.577	-73.676	55.049	41.851	-73.848	-69.215	45.085	74.520	-69.577	-65.563	-65.112	-60.245	53.124	-60.695	-8191	255	
1657.695	1	1	0	0	0.17198	0.14692	0.21498	0.39066	0.10662	0.19268	0.42914	0.28863	0.074823	0.13641	0.24793	0.15933	0.28366	0.22973	0.049397	0.31073	-0.69375	-0.2625	-0.18333	-1.0875	-0.1375	-0.76458	-0.89583	-0.1375	-1.0938	-0.26458	-0.27917	-1.1292	-0.20625	-0.65833	-0.70417	-0.29167	120.845	-7.029	179.675	229.962	-78.419	-63.845	203.417	259.248	269.690	83.602	147.113	178.796	231.519	-15.459	-45.388	121.916	0.0001641	0.00028595	0.00020244	1387.1	2.3008e-06	6.2925e-06	1380.7	369.46	1.1355e-06	2.1042e-06	422.41	139.64	121.23	42.093	5.1545e-06	51.688	0.00067116	0.00088768	0.00023	1397.3	9.2918e-06	9.643e-06	1394.7	375.17	9.616e-06	9.7071e-06	429.17	142.83	124.2	42.864	8.9681e-06	52.972	172.259	-5.598	4.513	-73.617	54.564	41.308	-73.757	-69.294	43.550	68.655	-69.431	-65.265	-65.011	-60.083	60.222	-60.687	-8191	255	
1657.815	1	1	0	0	0.11337	0.15109	0.012003	0.16417	0.26521	0.088669	0.253	0.24909	0.32138	0.19537	0.14318	0.27604	0.10345	0.12213	0.16322	0.14189	-0.32917	-0.46042	-0.033333	-1.1958	-0.15208	-0.32917	-1.0083	-0.10417	-0.88542	-0.59167	-0.4	-1.0083	-0.225	-0.56667	-0.725	-0.2375	38.663	200.541	88.707	-78.462	156.138	37.444	261.959	131.665	237.685	32.175	-81.748	253.046	-14.684	-39.317	52.484	95.144	0.00017474	0.00064949	0.00016748	1381.5	2.6367e-06	6.3555e-06	1380.6	370.25	1.5075e-06	3.457e-06	425.25	140.21	122.46	42.401	3.6513e-06	52.338	0.0006921	0.00087308	0.00022188	1395	9.5318e-06	9.1849e-06	1394.3	375.66	9.3688e-06	9.1045e-06	430.11	143.76	125.3	43.226	8.291e-06	53.528	174.760	-0.801	32.204	-73.480	70.041	67.439	-73.808	-69.190	-12.695	58.711	-69.543	-65.605	-64.966	-60.227	49.351	-60.870	-8191	255	
1657.912	1	1	0	0	0.12123	0.31247	0.076494	0.059302	0.13119	0.16731	0.24938	0.10535	0.26486	0.26775	0.26548	0.1926	0.28547	0.35004	0.08955	0.28289	-0.375	-0.47708	-0.0375	-1.1688	-0.28333	-0.11667	-1.3062	-0.21458	-0.75417	-0.73542	-0.26042	-1.0021	-0.6125	-0.43958	-0.84375	-0.29375	36.471	224.430	19.996	-70.770	88.103	-50.161	210.050	223.745	35.731	36.037	269.312	206.308	-43.031	203.820	89.888	178.350	0.00015101	0.000319	0.00015369	1391.6	2.8445e-06	6.5425e-06	1384.3	371.7	1.4818e-06	5.287e-06	425.05	140.13	122.39	42.341	4.3775e-06	51.919	0.00067528	0.00082042	0.00021312	1401.6	9.5244e-06	8.8858e-06	1399.2	377.25	9.6747e-06	9.1509e-06	430.66	143.68	125.12	43.098	8.4222e-06	53.239	176.651	18.326	-17.202	-73.335	61.292	51.531	-73.828	-69.173	51.345	49.073	-69.639	-65.251	-64.921	-59.956	62.892	-60.592	-8191	255	
1658.008	1	1	0	0	0.1861	0.19396	0.13	0.29812	0.12393	0.015277	0.46999	0.17778	0.15664	0.17164	0.15777	0.1646	0.14668	0.17752	0.02086	0.23745	-0.375	-0.75417	-0.029167	-1.0479	-0.41042	-0.21042	-1.2333	-0.28542	-0.51667	-0.96875	-0.16875	-1.1479	-0.57292	-0.25833	-1.0479	-0.23542	35.831	63.660	38.140	230.686	132.094	213.258	231.736	223.078	166.624	-0.473	140.121	271.018	256.176	266.265	-26.489	209.619	0.00017955	0.00058485	0.00013445	1386.4	3.6103e-06	5.9149e-06	1376.9	371.23	3.9203e-06	7.0043e-06	423.12	139.87	121.67	42.132	3.8302e-06	51.943	0.00067452	0.00083459	0.00021751	1397.3	9.1728e-06	8.6899e-06	1394.7	376.24	9.0696e-06	8.6842e-06	429.46	143.36	124.66	43.054	8.2463e-06	53.316	172.878	-8.317	13.867	-73.369	53.294	39.897	-73.790	-69.182	19.577	59.547	-69.538	-65.421	-65.062	-60.244	51.359	-60.924	-8191	255	
1658.104	1	1	0	0	0.27654	0.2938	0.09423	0.26045	0.42236	0.27045	0.26961	0.42141	0.037552	0.19999	0.20124	0.078771	0.42514	0.20294	0.10721	0.19846	-0.10417	-0.91042	-0.0083333	-1.0167	-0.45	-0.13542	-1.3312	-0.30417	-0.42292	-0.86042	-0.31667	-0.92917	-0.74792	-0.17917	-0.88958	-0.45833	261.983	75.510	-27.343	-70.691	189.205	76.913	202.041	215.946	77.159	70.754	231.365	4.894	262.130	245.975	-74.034	63.861	0.00017535	0.00056951	0.0001111	1387.2	2.2981e-06	5.5416e-06	1381.9	370.03	3.8245e-06	4.1505e-06	420.57	140.15	121.81	42.119	2.6455e-06	52.087	0.0006485	0.00076473	0.00021817	1398.6	8.7066e-06	8.3715e-06	1396.2	375.94	8.6928e-06	8.3884e-06	428.65	143.51	124.58	42.95	9.0691e-06	53.236	173.188	0.918	-11.031	-73.726	48.797	50.516	-73.578	-69.309	45.420	44.969	-69.667	-65.345	-65.107	-60.079	26.730	-60.807	-8191	255	
1658.198	1	1	0	0	0.13984	0.078647	0.11923	0.51579	0.21529	0.28909	0.25116	0.19036	0.13563	0.024113	0.13258	0.26617	0.26078	0.11344	0.087707	0.24378	-0.066667	-0.77083	-0.04375	-1.0187	-0.51875	-0.12292	-1.2604	-0.67708	-0.40417	-0.93958	-0.12083	-0.7625	-0.81667	-0.22083	-1.0708	-0.39583	199.138	-36.524	3.478	199.518	165.768	-60.963	171.254	176.367	34.411	-67.656	271.616	201.122	-84.111	-72.547	170.589	141.982	0.00017183	0.00068807	0.00013375	1386.1	3.9957e-06	6.7961e-06	1381.6	369.69	3.8921e-06	4.7706e-06	421.62	139.01	121.81	42.032	1.1401e-06	51.801	0.0006434	0.0007868	0.00023913	1396.7	8.9158e-06	8.5657e-06	1395.2	375.02	8.5067e-06	8.6411e-06	428.29	142.87	124.56	42.927	9.229e-06	53.092	177.459	0.506	8.325	-73.621	41.790	81.715	-73.803	-69.162	15.805	73.802	-69.730	-65.388	-65.216	-60.122	124.260	-60.853	-8191	255	
1658.296	1	1	0	0	0.13481	0.17416	0.24585	0.10871	0.17053	0.061944	0.35272	0.34499	0.2348	0.21735	0.068535	0.25535	0.15641	0.20351	0.11407	0.27927	0.052083	-1.0187	-0.17083	-0.81667	-0.90833	-0.09375	-1.3312	-0.80625	-0.045833	-1.0917	-0.2375	-0.8375	-1.0854	-0.033333	-0.8375	-0.6625	-1.154	6.051	-53.088	271.273	-36.736	-1.125	267.451	205.243	-13.826	157.224	-79.225	259.276	269.048	218.628	-80.101	248.004	0.00018621	0.0003541	0.00016901	1385.6	3.1287e-06	5.7828e-06	1379.7	370.48	8.4323e-07	3.528e-06	423.35	139.86	122.03	42.133	3.5666e-06	52.067	0.00062835	0.00075971	0.0002436	1395.3	8.7285e-06	8.5982e-06	1394.2	375.53	8.5487e-06	8.7e-06	429.88	143.36	124.71	43.011	9.6757e-06	53.219	169.693	5.344	12.571	-73.477	34.978	69.381	-73.595	-69.379	4.699	64.536	-69.564	-65.476	-64.984	-60.174	52.384	-61.038	-8191	255	
1658.415	1	1	0	0	0.15657	0.21249	0.13089	0.088776	0.20756	0.12632	0.42141	0.20324	0.27156	0.10277	0.033556	0.34549	0.26654	0.34623	0.039489	0.021717	0.28333	-0.81875	-0.15833	-0.47708	-0.90833	-0.08125	-1.1063	-0.77083	-0.035417	-0.94792	-0.50208	-0.5375	-0.97708	-0.2125	-0.72917	-0.86667	152.790	59.750	208.215	-39.079	-71.328	255.566	195.095	168.076	71.381	194.794	57.366	-73.541	-64.432	-21.472	-43.912	68.575	0.00018297	0.00044762	0.00015205	1388.4	2.4843e-06	3.8099e-06	1377.1	369.38	3.549e-06	5.1961e-06	422.27	138.68	121.04	41.735	2.9317e-06	51.757	0.0006261	0.00080968	0.00025538	1398.2	8.6047e-06	9.2705e-06	1394.3	374.82	8.3135e-06	9.3979e-06	428.12	142.39	123.88	42.631	9.4812e-06	52.919	171.607	23.811	8.680	-73.532	38.142	52.131	-73.809	-69.493	48.772	43.124	-69.533	-65.512	-64.954	-60.237	73.733	-61.023	-8191	255	
1658.511	1	1	0	0	0.083705	0.21357	0.13134	0.080175	0.3766	0.29747	0.35968	0.11153	0.24095	0.17262	0.028791	0.307	0.36956	0.18356	0.061396	0.16457	0.14167	-0.89583	-0.50625	-0.45833	-0.9125	-0.18333	-0.84167	-1.0208	0.0375	-0.9625	-0.65833	-0.41875	-0.94792	-0.30208	-0.51458	-0.86667	47.766	214.021	-13.593	251.870	-86.818	219.264	205.975	133.918	135.704	51.911	-82.569	9.510	-72.511	-81.613	259.325	23.846	0.00016987	0.00073588	0.00010739	1384.4	1.753e-06	3.9979e-06	1371.5	370.28	2.0385e-06	3.6912e-06	423.78	139.66	122.18	42.067	3.1381e-06	52.202	0.00059836	0.00083756	0.0002449	1392.1	7.984e-06	9.4149e-06	1389.6	375.08	7.8128e-06	9.0765e-06	429.12	143.04	124.78	42.989	8.4877e-06	53.376	166.579	10.222	-1.227	-73.613	61.588	47.915	-73.924	-69.081	48.175	69.947	-69.868	-65.696	-64.939	-60.192	39.186	-60.775	-8191	255	
1658.607	1	1	0	0	0.061641	0.13503	0.26528	0.36189	0.18411	0.24484	0.27121	0.26537	0.13066	0.16813	0.092814	0.16435	0.036074	0.1071	0.22189	0.22921	0.31042	-0.84583	-0.58125	-0.48958	-0.88333	-0.27083	-0.77708	-0.89792	-0.16458	-0.87917	-0.8375	-0.19792	-0.98958	-0.375	-0.41042	-0.87292	80.898	216.567	-33.521	-78.597	221.555	215.366	161.972	168.513	-56.732	-48.117	225.461	-30.237	265.137	129.517	17.563	156.205	0.00016014	0.00051193	7.6931e-05	1385.4	3.2327e-06	5.7004e-06	1376.1	369.76	1.6667e-06	5.721e-06	422.02	139.22	122.08	41.905	3.4242e-06	51.736	0.00057501	0.00080539	0.00021488	1392.7	7.8576e-06	9.1544e-06	1390.9	375.31	8.0585e-06	9.1654e-06	428.5	142.99	124.59	42.861	8.324e-06	52.95	168.645	11.148	17.439	-73.650	60.653	57.408	-73.752	-69.076	4.913	61.311	-69.528	-65.540	-64.919	-60.141	61.594	-60.777	-8191	255	
1658.703	1	1	0	0	0.10474	0.1208	0.30091	0.10873	0.22355	0.17321	0.27322	0.15925	0.15901	0.07731	0.11676	0.40319	0.4766	0.042226	0.2569	0.3188	0.26042	-0.60625	-0.63958	-0.39792	-0.87917	-0.4625	-0.58333	-1.1208	-0.085417	-0.70833	-0.85417	-0.3125	-1.0375	-0.45417	-0.20417	-0.95417	67.834	91.816	46.590	-17.419	261.987	31.551	219.947	244.440	194.156	10.128	-85.137	223.429	205.715	262.629	201.244	267.584	0.00016581	0.00051881	0.00013248	1379	1.6285e-06	6.2403e-06	1373.1	368.66	1.1028e-06	4.2266e-06	421.39	138.38	120.58	41.498	3.4012e-06	51.607	0.00063233	0.00084901	0.00022509	1389.2	8.7576e-06	9.6186e-06	1386.6	373.38	8.8983e-06	9.3733e-06	426.26	141.66	123.42	42.482	8.2809e-06	52.711	180.032	-8.855	-9.790	-73.640	56.764	67.754	-73.764	-69.263	39.461	75.295	-69.633	-65.377	-64.825	-60.058	12.810	-60.580	-8191	255	
1658.800	1	1	0	0	0.24402	0.31481	0.1848	0.27362	0.20553	0.31143	0.034435	0.17986	0.25545	0.11933	0.28854	0.24414	0.085122	0.022917	0.17209	0.035975	0.39792	-0.58542	-0.78333	-0.21458	-0.94792	-0.35833	-0.35417	-1.2396	-0.19583	-0.48958	-0.98125	-0.225	-1.0271	-0.56458	-0.28542	-1.1458	205.400	-0.554	6.354	259.613	-44.484	118.773	-63.901	189.843	-23.538	158.079	233.606	252.840	-50.769	204.110	-13.509	170.718	0.00017673	0.00050922	0.00016622	1381.6	3.1983e-06	3.4474e-06	1369.7	369.1	1.5613e-06	6.5469e-06	422.01	139.39	121.57	42.13	3.7242e-06	51.97	0.00065223	0.00081452	0.00021016	1388.6	8.7817e-06	8.8435e-06	1386.3	373.99	8.6776e-06	8.4668e-06	428.66	142.95	124.68	42.985	7.6032e-06	53.182	163.643	-29.536	-5.404	-73.557	93.447	67.532	-73.790	-69.143	22.273	73.906	-69.409	-65.483	-64.813	-60.181	66.151	-60.592	-8191	255	
1658.896	1	1	0	0	0.25229	0.26559	0.30043	0.23475	0.096066	0.12786	0.19123	0.15618	0.18791	0.1465	0.334	0.030019	0.29198	0.12301	0.35493	0.21929	0.16875	-0.50208	-1.025	-0.23125	-0.82708	-0.33125	-0.28542	-1.0187	-0.079167	-0.43958	-1.2396	-0.1875	-0.86667	-0.83542	-0.23125	-1.1042	178.850	-82.377	240.574	-42.875	9.453	-1.613	260.420	-78.117	161.314	64.009	-66.024	141.649	-21.367	271.682	56.649	24.951	0.00016228	0.00031244	0.00014414	1385.6	2.8351e-06	4.7536e-06	1372.1	368.25	2.4538e-06	5.2025e-06	421.1	138.62	120.67	41.564	4.529e-06	51.002	0.00064181	0.00076757	0.00019954	1391.1	8.7239e-06	8.5166e-06	1387.6	373.79	9.0492e-06	8.6724e-06	427.02	141.85	123.55	42.46	8.1471e-06	52.448	166.816	0.573	-5.939	-73.712	56.882	63.238	-73.994	-69.254	-0.189	65.249	-69.718	-65.550	-64.787	-60.327	83.058	-60.824	-8191	255	
1659.016	1	1	0	0	0.10569	0.051764	0.046172	0.32241	0.10639	0.1277	0.22803	0.16039	0.24705	0.24991	0.3788	0.17405	0.26701	0.053801	0.29297	0.11487	-0.14583	-0.42083	-1.0333	-0.29792	-0.58542	-0.74375	-0.29167	-1.0667	-0.38542	-0.375	-1.2604	-0.16667	-0.83958	-0.99792	0.00625	-0.91875	96.703	57.478	-70.145	233.934	-74.861	204.383	159.503	-46.871	-14.888	-58.578	201.650	14.922	269.984	204.849	209.666	220.194	0.00018578	0.00064678	7.649e-05	1375.7	2.938e-06	4.9518e-06	1365.2	365.9	3.3382e-06	4.9108e-06	417.73	137.89	120.75	41.454	9.2795e-07	51.115	0.00067671	0.00080784	0.00021203	1384	9.154e-06	8.812e-06	1381.3	372.1	9.0618e-06	8.3309e-06	424.63	141.4	123.43	42.388	7.7562e-06	52.522	173.116	-3.155	22.417	-73.675	57.646	74.461	-73.683	-69.175	27.145	57.520	-69.616	-65.537	-64.952	-60.255	4.526	-60.714	-8191	255	
1659.111	1	1	0	0	0.31793	0.18459	0.12189	0.31534	0.16754	0.31007	0.36884	0.36707	0.065278	0.2108	0.19452	0.1009	0.23542	0.23691	0.077194	0.25109	-0.15625	-0.17292	-0.85	-0.40417	-0.62292	-0.725	-0.49792	-0.93542	-0.44167	-0.058333	-0.98125	-0.27083	-0.57292	-0.975	0.14792	-0.87708	256.918	133.357	240.628	252.155	112.738	236.409	-77.029	185.655	12.937	73.883	103.392	-46.514	215.592	-69.013	68.600	11.665	0.00013803	0.00047902	0.0001813	1366.7	2.0614e-06	3.6313e-06	1361.6	365.78	1.8971e-06	5.4171e-06	418.64	137.09	119.44	41.264	4.3069e-06	50.945	0.0006208	0.00073347	0.00019726	1379.9	8.2404e-06	8.023e-06	1378.6	371.98	8.3321e-06	7.951e-06	424.47	140.8	122.34	42.195	7.9044e-06	52.274	176.848	-31.312	-3.094	-73.703	76.473	46.018	-73.757	-69.202	21.822	55.707	-69.390	-65.472	-64.897	-60.122	70.555	-60.760	-8191	255	
1659.207	1	1	0	0	0.3538	0.15611	0.10176	0.33167	0.2479	0.08753	0.13099	0.38818	0.12918	0.044793	0.20013	0.14199	0.37516	0.18998	0.18018	0.07615	-0.41042	-0.075	-0.83542	-0.46458	-0.45417	-0.92917	-0.16667	-1.0271	-0.35625	-0.14583	-0.8875	-0.43958	-0.20625	-1.175	-0.041667	-0.85208	-72.840	139.693	-36.494	260.672	35.012	-66.051	159.954	136.340	134.446	101.397	177.610	-22.560	-17.827	190.254	-30.955	-24.821	0.00015821	0.00059481	9.689e-05	1361.8	2.8148e-06	4.2487e-06	1354.5	364.25	3.788e-06	6.4966e-06	415.1	135.99	118.68	40.924	3.1102e-06	50.868	0.00061779	0.00071525	0.0002014	1374.7	8.0065e-06	7.5111e-06	1371.7	369.48	7.9973e-06	7.7023e-06	421.4	139.43	121.68	41.885	8.0222e-06	52.001	165.386	2.563	5.104	-73.742	35.576	52.244	-73.709	-69.106	27.728	64.237	-69.486	-65.544	-64.943	-60.047	65.377	-60.612	-8191	255	
1659.279	1	1	0	0	0.076882	0.13153	0.062701	0.41205	0.12948	0.16549	0.14525	0.18756	0.21727	0.1669	0.23591	0.29139	0.23808	0.30534	0.14484	0.25527	-0.36667	0.0125	-0.90833	-0.53542	-0.33125	-0.89583	-0.36042	-0.78542	-0.60208	-0.0020833	-0.9125	-0.54375	-0.15833	-1.1187	-0.14167	-0.50417	242.486	142.627	267.458	241.614	270.447	83.424	148.186	209.308	50.483	-19.616	193.065	238.965	124.153	-47.987	122.713	-76.614	0.00014597	0.0005168	0.00014924	1361.3	2.8921e-06	3.4446e-06	1356.5	364.94	3.0683e-06	3.7265e-06	416.94	136.25	119.47	41.216	3.3647e-06	50.983	0.00056762	0.00064318	0.00020607	1371.1	7.2527e-06	7.3304e-06	1369.8	369.82	7.4002e-06	7.1684e-06	422.73	139.82	121.82	42.014	7.7389e-06	52.206	168.440	-3.569	17.901	-73.615	69.464	59.782	-73.775	-69.055	29.923	42.206	-69.536	-65.712	-64.762	-60.206	63.782	-60.550	-8191	255	
1659.399	1	1	0	0	0.15662	0.26081	0.18785	0.33822	0.27159	0.10763	0.086536	0.29698	0.2594	0.21026	0.13791	0.29646	0.15599	0.057882	0.17197	0.18937	-0.475	-0.025	-0.83958	-0.58333	-0.079167	-1.0146	-0.43542	-0.74375	-0.825	-0.04375	-0.81458	-0.80833	-0.28125	-1.0396	-0.33125	-0.42708	74.434	201.838	174.702	262.924	108.568	25.513	-78.399	204.168	158.961	-0.013	-20.598	185.522	272.549	76.771	-3.974	156.675	0.00019424	0.00021946	0.0001433	1363.4	2.9671e-06	4.5368e-06	1355	365	2.5995e-06	4.4144e-06	418.31	137.1	119.33	41.176	2.3239e-06	51.184	0.00053255	0.00063489	0.00019603	1370.4	6.9419e-06	7.0496e-06	1369.7	369.9	6.8964e-06	7.1828e-06	422.54	140.4	122.3	42.06	7.843e-06	52.29	174.980	-14.041	5.962	-73.785	57.657	83.911	-73.792	-69.221	20.116	56.514	-69.648	-65.565	-64.767	-60.102	52.190	-60.596	-8191	255	
1659.495	1	1	0	0	0.23579	0.19962	0.29595	0.11183	0.18965	0.30499	0.35507	0.44586	0.036789	0.06864	0.23764	0.18347	0.10367	0.08829	0.10465	0.079793	-0.62708	-0.010417	-0.62708	-0.75	0.03125	-0.97083	-0.36042	-0.48542	-0.68958	-0.033333	-0.83542	-0.80208	-0.25833	-0.90417	-0.19792	-0.38333	220.047	43.580	-70.169	139.231	-18.931	89.143	206.852	224.689	216.616	249.934	257.441	9.745	156.397	143.655	133.296	-33.775	0.00014185	0.00058167	7.83e-05	1360.5	3.3961e-06	6.3589e-06	1350.4	365.11	3.2964e-06	4.6789e-06	418.51	137.88	119.9	41.379	4.6022e-06	51.207	0.00052293	0.00067314	0.00019877	1369.6	6.9564e-06	7.528e-06	1367.4	369.91	6.897e-06	7.4416e-06	423.2	140.82	122.32	42.329	7.5978e-06	52.352	175.668	-1.239	4.664	-73.696	66.494	67.906	-73.785	-69.237	37.743	82.336	-69.802	-65.515	-65.001	-60.250	43.370	-60.776	-8191	255	
1659.592	1	1	0	0	0.06382	0.16899	0.11381	0.55829	0.17621	0.2315	0.066378	0.24499	0.12531	0.35794	0.079367	0.30498	0.08426	0.11156	0.25096	0.066549	-0.58958	-0.091667	-0.73333	-0.89792	-0.27708	-0.88958	-0.55	-0.24792	-0.925	-0.11458	-0.4125	-0.86667	-0.12917	-1.0562	-0.29375	-0.28542	265.893	42.273	158.323	215.457	122.543	220.429	195.981	-84.075	41.565	56.239	214.688	186.142	92.070	-55.307	-21.209	96.398	0.00014734	0.00031947	0.00012617	1367.1	3.1512e-06	4.0067e-06	1355.5	365.59	2.6488e-06	3.3986e-06	419.22	137.38	120.13	41.572	3.5507e-06	51.484	0.0005154	0.00068898	0.00018702	1373.6	6.8155e-06	7.5321e-06	1370.1	370.27	6.6525e-06	7.7646e-06	424.34	140.97	122.89	42.42	7.2166e-06	52.628	172.554	24.652	-9.342	-73.625	59.713	72.343	-73.984	-69.036	72.424	67.576	-69.416	-65.728	-64.909	-60.136	94.872	-60.570	-8191	255	
1659.688	1	1	0	0	0.17697	0.11184	0.20018	0.2225	0.12741	0.19945	0.45171	0.045733	0.083087	0.15568	0.26324	0.28162	0.29649	0.047321	0.1207	0.1457	-0.51042	0.095833	-0.40625	-1.0271	0.1125	-0.96042	-0.875	-0.3125	-0.79583	-0.16042	-0.51458	-0.84375	-0.14583	-0.77708	-0.44375	0.014583	17.252	269.833	69.916	-7.610	229.831	66.949	259.821	-49.595	36.534	69.471	-46.193	243.149	149.822	224.784	235.849	211.384	0.00015745	0.00058573	0.00014436	1362.1	2.9073e-06	6.249e-06	1357.2	365.9	1.4508e-06	6.2034e-06	419.36	138.18	119.75	41.511	1.8123e-06	51.401	0.00052061	0.00069236	0.00018208	1373.4	7.1606e-06	7.6857e-06	1370.9	370.36	7.0491e-06	7.8107e-06	424.18	141.2	122.64	42.407	7.013e-06	52.451	173.763	-3.583	2.827	-73.757	55.814	66.806	-73.987	-69.049	-7.364	50.993	-69.524	-65.643	-64.832	-60.229	97.392	-60.670	-8191	255	
1659.808	1	1	0	0	0.10993	0.29123	0.15967	0.098621	0.11695	0.19177	0.42745	0.28946	0.23951	0.1786	0.09777	0.0982	0.19758	0.080116	0.21449	0.1854	-0.61042	-0.30208	-0.48958	-0.92083	0.00625	-0.59375	-0.90208	-0.38542	-1.1083	-0.32917	-0.36875	-0.99167	-0.2125	-0.71875	-0.64792	-0.225	230.418	84.584	18.456	171.984	222.715	169.281	212.068	242.182	21.885	144.814	-86.036	-21.894	241.725	252.432	272.026	155.025	0.00015693	0.00050017	0.00014021	1366.6	2.7208e-06	5.4308e-06	1358.8	366.49	9.7638e-07	5.2879e-06	419.12	137.84	120.34	41.469	3.7331e-06	51.39	0.00054783	0.00069212	0.00017943	1374.6	7.3871e-06	7.5591e-06	1370.1	370.53	7.5887e-06	7.7659e-06	423.92	140.99	122.9	42.362	6.9569e-06	52.543	173.546	6.990	-9.837	-73.717	43.461	44.492	-73.804	-69.200	72.106	58.207	-69.515	-65.432	-64.863	-60.314	75.813	-60.598	-8191	255	
1659.880	1	1	0	0	0.13446	0.13121	0.21663	0.34745	0.19697	0.23971	0.45353	0.4366	0.24458	0.20677	0.43824	0.15417	0.14436	0.23327	0.1469	0.17276	-0.59167	-0.27083	-0.18125	-1.2812	0.10208	-0.65625	-1.1083	-0.13125	-0.94375	-0.30208	-0.475	-0.95417	-0.13542	-0.63333	-0.74792	-0.13125	67.188	-7.646	271.941	239.364	148.960	97.265	215.882	233.774	-66.123	271.760	-64.518	111.358	-77.832	192.838	13.020	204.280	0.00016836	0.00041904	8.1933e-05	1368	2.4982e-06	4.6454e-06	1356.8	365.48	3.0842e-06	5.9704e-06	418.63	137.49	120.04	41.577	2.9998e-06	51.294	0.00057403	0.00069393	0.00018035	1375.8	7.8471e-06	7.6799e-06	1373.6	370.92	7.7949e-06	7.8289e-06	424.28	141.31	123.08	42.452	6.9261e-06	52.546	178.317	4.561	19.019	-73.443	77.074	62.942	-73.730	-69.096	-7.628	53.124	-69.798	-65.231	-64.660	-60.110	51.991	-60.778	-8191	255	
1659.976	1	1	0	0	0.13413	0.30046	0.10325	0.22493	0.058468	0.066732	0.2295	0.1517	0.44326	0.17246	0.33619	0.2889	0.25855	0.24125	0.13126	0.25981	-0.30208	-0.61667	-0.25833	-1.275	-0.31875	-0.27083	-1.0521	-0.22708	-0.90208	-0.63125	-0.39375	-1.1958	-0.525	-0.50417	-1.1167	0.14375	259.823	-11.814	49.374	264.791	236.139	29.389	210.880	212.363	77.395	252.839	187.320	-67.291	-79.032	255.893	198.113	193.554	0.00018236	0.00068477	0.00013709	1373.1	1.7188e-06	3.5791e-06	1365.5	365.82	2.1402e-06	3.1946e-06	419.8	138.23	120.47	41.774	2.9486e-06	51.407	0.00059059	0.00069753	0.00018028	1380.3	8.1891e-06	7.6021e-06	1376.9	371.9	8.052e-06	7.5711e-06	425.36	141.74	123.32	42.562	7.0117e-06	52.667	167.702	0.494	19.034	-73.502	65.366	71.664	-73.749	-69.053	27.277	64.555	-69.344	-65.258	-64.996	-59.975	67.253	-60.791	-8191	255	
1660.097	1	1	0	0	0.27772	0.095048	0.10698	0.16747	0.030236	0.065674	0.26439	0.29482	0.17573	0.0838	0.18282	0.11683	0.1632	0.076152	0.08748	0.10205	-0.375	-0.64792	-0.047917	-1.2833	-0.32083	-0.10833	-1.1167	-0.11875	-0.58958	-0.79583	-0.35208	-1.0312	-0.60417	-0.42292	-0.87083	-0.47917	174.151	247.616	214.156	254.579	169.847	6.992	229.610	170.476	186.047	-60.487	-24.065	272.380	218.126	129.046	263.904	141.637	0.00016711	0.00046094	0.00015115	1370.1	2.8189e-06	5.317e-06	1365.1	368.06	2.3864e-06	3.8948e-06	422.53	139.02	121.46	41.891	2.3433e-06	51.845	0.00058955	0.00066809	0.00017819	1381.9	7.8011e-06	7.4905e-06	1380.6	372.93	7.7411e-06	7.3248e-06	427.55	142.46	124.08	42.791	7.0306e-06	53.124	174.497	3.143	-6.454	-73.506	50.805	72.297	-73.752	-69.097	27.230	47.294	-69.712	-65.640	-65.210	-60.243	69.740	-60.884	-8191	255	
1660.191	1	1	0	0	0.15815	0.14282	0.1303	0.1997	0.029143	0.36034	0.31863	0.25315	0.15769	0.11929	0.13622	0.32151	0.27709	0.42404	0.32017	0.29692	-0.37292	-0.74375	0.070833	-1.1292	-0.44583	-0.1625	-1.3083	-0.3625	-0.41458	-0.68542	-0.089583	-1.0208	-0.54167	-0.14167	-0.91667	-0.225	117.164	106.418	178.299	-60.943	-37.197	-55.654	182.940	179.608	-54.126	192.646	214.989	222.678	223.261	254.018	110.859	189.334	0.00015166	0.00041423	0.00012624	1380.3	1.5383e-06	5.0238e-06	1371.7	369.66	2.3128e-06	5.6457e-06	421.28	138.89	120.24	41.543	2.3982e-06	51.288	0.00058277	0.00067129	0.00018574	1388	7.7282e-06	7.4123e-06	1385.7	373.83	7.862e-06	7.557e-06	426.56	142.02	123.06	42.398	7.7367e-06	52.467	166.243	2.191	13.520	-73.586	27.664	74.699	-73.772	-69.293	-7.174	58.161	-69.659	-65.737	-65.012	-60.378	55.038	-60.879	-8191	255	
1660.287	1	1	0	0	0.23565	0.12681	0.076614	0.058923	0.29032	0.10896	0.21979	0.31291	0.17389	0.17139	0.36874	0.10757	0.15626	0.14391	0.27771	0.4398	-0.085417	-0.82917	-0.0625	-0.94583	-0.65625	-0.0625	-1.2458	-0.3875	-0.27708	-1.0333	-0.19167	-0.6	-0.77083	-0.11667	-0.79167	-0.49583	227.856	-56.056	63.177	246.107	164.348	-30.705	260.410	219.994	13.650	126.459	270.491	0.944	240.192	-11.495	-53.612	189.935	0.00017735	0.00058465	0.0001031	1367.9	2.918e-06	4.7591e-06	1359.8	366.26	2.9297e-06	3.1248e-06	419.56	137.98	119.63	41.622	4.1415e-06	51.603	0.00059543	0.00070615	0.00020537	1378.8	7.9262e-06	7.6525e-06	1377.1	370.91	7.8743e-06	7.626e-06	425.11	141.23	122.7	42.397	8.3923e-06	52.691	171.160	-8.120	40.783	-73.692	15.456	59.807	-73.700	-69.439	48.470	54.875	-69.696	-65.494	-65.031	-60.072	70.882	-60.938	-8191	255	
1660.408	1	1	0	0	0.1674	0.12053	0.061618	0.33182	0.029647	0.1149	0.24318	0.45364	0.17374	0.15289	0.13147	0.20252	0.40361	0.16109	0.10114	0.019496	0.10625	-0.9125	-0.010417	-0.73333	-0.68542	-0.0625	-1.0562	-0.48542	-0.27917	-1.0792	-0.45417	-0.59792	-1.1208	-0.097917	-0.9125	-0.55208	147.195	-0.201	137.798	253.712	151.090	235.798	241.656	267.116	21.931	234.606	-8.304	224.323	187.168	271.249	-75.064	-7.074	0.00013365	0.00058828	0.00016525	1376.1	2.1302e-06	4.9721e-06	1370.4	367.87	1.8383e-06	5.3431e-06	420.09	139.16	120.99	41.634	9.0968e-07	51.495	0.00057826	0.00070385	0.0002202	1387.4	7.9012e-06	7.8146e-06	1386	372.97	7.9361e-06	7.7451e-06	426.7	142.25	123.64	42.504	8.5702e-06	52.704	165.242	-5.553	-0.044	-73.541	21.414	54.129	-73.867	-69.182	-2.227	75.903	-69.842	-65.567	-64.823	-60.209	54.132	-60.953	-8191	255	
1660.504	1	1	0	0	0.040738	0.29815	0.20753	0.086403	0.16219	0.097982	0.15056	0.24027	0.34956	0.17826	0.063636	0.12318	0.20445	0.052455	0.13471	0.41227	-0.1125	-1.0208	-0.31875	-0.56042	-1.0042	0.11667	-1.0688	-0.80833	-0.17292	-0.90625	-0.45208	-0.56875	-1.0812	-0.18958	-0.78125	-0.83333	130.032	234.153	224.775	205.844	13.092	10.256	196.873	101.560	239.428	-9.691	237.870	-61.360	234.307	107.244	124.261	204.864	0.00014359	0.00064257	0.00011352	1378.5	2.4557e-06	5.9678e-06	1372	369.68	2.1376e-06	4.128e-06	421.4	138.76	121.36	41.916	3.4069e-06	51.864	0.00058321	0.00074239	0.00022692	1387.4	7.7291e-06	8.1543e-06	1386	373.77	7.5776e-06	7.8666e-06	427.74	142.74	124.18	42.812	8.0571e-06	52.991	170.039	23.608	14.664	-73.684	47.521	76.004	-73.748	-69.190	25.654	66.716	-69.507	-65.644	-65.062	-60.371	56.813	-60.505	-8191	255	
1660.576	1	1	0	0	0.085597	0.12817	0.35555	0.14973	0.031841	0.27032	0.19988	0.16856	0.23236	0.16796	0.21982	0.15428	0.30063	0.19059	0.14495	0.050219	0.13542	-0.80833	-0.32292	-0.49792	-0.99583	-0.25	-1.1313	-0.92917	-0.0041667	-1.0833	-0.53958	-0.44792	-1.0646	-0.19375	-0.58333	-0.92083	154.021	-60.862	212.322	224.751	82.208	146.297	242.283	203.056	173.558	-43.738	-20.618	167.827	250.309	141.052	-31.511	28.106	0.00016267	0.00037046	0.00020062	1379.3	2.4508e-06	4.4274e-06	1376.1	370.33	1.3015e-06	5.1831e-06	423.46	139.88	122	42.157	5.0678e-06	51.975	0.00054889	0.00071147	0.00021433	1388.8	6.9412e-06	7.8027e-06	1390.3	375.11	6.9712e-06	7.9312e-06	429.42	143.5	124.84	43.006	7.6753e-06	53.241	167.952	24.610	-5.550	-73.427	45.409	73.915	-73.687	-69.226	7.165	65.353	-69.679	-65.259	-64.814	-60.078	50.316	-60.624	-8191	255	
1660.672	1	1	0	0	0.21735	0.13042	0.12844	0.12956	0.22417	0.085089	0.26019	0.10098	0.20512	0.21154	0.10827	0.22236	0.020365	0.24109	0.14869	0.086217	0.42917	-0.86667	-0.37917	-0.4	-0.94167	-0.0083333	-1.1667	-0.81667	-0.0041667	-0.81667	-0.6375	-0.24167	-1.0333	-0.079167	-0.42292	-0.99375	164.253	224.602	246.963	233.388	169.438	223.504	197.188	203.773	-8.047	261.069	-73.181	-5.519	266.658	-73.074	21.713	3.383	0.00015474	0.0007008	0.00012495	1384.2	1.7558e-06	6.8035e-06	1370.8	369.72	2.3945e-06	6.1975e-06	422.96	139.55	121.59	41.899	5.4047e-06	51.672	0.00052812	0.0007199	0.0001963	1392.3	7.046e-06	8.2585e-06	1386.8	374.6	7.1245e-06	8.0462e-06	427.43	142.62	124.46	42.758	7.1924e-06	52.899	173.839	-8.917	-1.848	-73.582	43.580	61.666	-73.630	-69.311	6.080	51.337	-69.759	-65.438	-64.829	-60.136	68.243	-60.644	-8191	255	
1660.793	1	1	0	0	0.050047	0.19073	0.11518	0.27709	0.020868	0.22418	0.4809	0.38731	0.18982	0.058844	0.14769	0.2486	0.11733	0.059641	0.21827	0.29112	0.26042	-0.78125	-0.61875	-0.3625	-0.89583	-0.052083	-0.77292	-1	0.20625	-0.79167	-0.775	-0.12083	-1.0063	-0.38333	-0.39375	-1.0333	15.421	54.061	208.760	-62.668	-72.203	157.953	218.726	197.320	231.007	149.274	-69.136	249.823	165.281	-19.036	202.023	205.361	0.0001859	0.00059508	0.00014801	1373.7	2.1682e-06	5.8153e-06	1361.8	366.94	2.6416e-06	3.0289e-06	419.51	137.48	119.93	41.441	4.362e-06	51.341	0.00053587	0.00073526	0.0001934	1382.2	7.2712e-06	8.1841e-06	1379	372.01	7.454e-06	8.0954e-06	424.68	140.98	122.66	42.29	7.4307e-06	52.538	167.192	12.727	-10.328	-73.503	59.587	55.830	-73.746	-68.945	-4.878	97.130	-69.307	-65.460	-64.724	-59.923	38.440	-60.411	-8191	255	
1660.889	1	1	0	0	0.26835	0.021697	0.082222	0.12062	0.10658	0.31858	0.27722	0.3588	0.17929	0.46423	0.15679	0.3844	0.09382	0.2212	0.037992	0.14388	0.36667	-0.65417	-0.66458	-0.18333	-0.95	-0.29167	-0.4375	-1.2146	-0.054167	-0.61042	-0.75625	-0.0625	-1.2542	-0.3125	0.039583	-0.88958	-67.089	248.411	129.843	199.671	-63.539	-1.368	250.340	216.366	-17.817	268.087	-38.357	223.188	77.462	238.714	-73.860	180.561	0.00016741	0.00063982	0.00011429	1371.3	3.2498e-06	4.7561e-06	1364.4	365.97	1.7406e-06	6.4642e-06	417.25	138.38	120.91	41.741	2.1657e-06	51.573	0.00057652	0.00073136	0.00019032	1377.8	7.7204e-06	8.155e-06	1377.1	371.3	7.8403e-06	7.7972e-06	424.21	141.43	123.44	42.541	7.0791e-06	52.664	178.890	-1.233	-7.236	-73.311	52.281	52.049	-73.542	-69.010	75.778	85.520	-69.342	-65.424	-64.816	-59.838	44.504	-60.626	-8191	255	
1660.985	1	1	0	0	0.28679	0.37968	0.075288	0.46071	0.05756	0.17302	0.2397	0.15885	0.31444	0.076885	0.11938	0.29364	0.16667	0.076501	0.24683	0.01778	0.12292	-0.46458	-0.64583	-0.20417	-0.70833	-0.25417	-0.36667	-1.1458	-0.097917	-0.50208	-1.0146	-0.1125	-0.86458	-0.79792	-0.08125	-1.0146	254.210	51.967	194.076	262.859	-30.256	138.623	241.512	207.514	35.282	6.605	212.698	267.485	-86.312	169.469	191.783	58.208	0.00015733	0.00057276	0.00015571	1372.7	3.1522e-06	5.4168e-06	1368.4	366.14	2.8718e-06	5.1295e-06	419.1	137.81	119.83	41.399	3.6936e-06	51.431	0.00059539	0.00070971	0.00018936	1380.5	7.9389e-06	7.8095e-06	1380.4	371.51	8.0115e-06	7.348e-06	424.22	140.93	122.79	42.267	6.5276e-06	52.415	172.319	17.036	5.862	-73.433	46.239	59.533	-73.543	-68.953	12.120	60.603	-69.460	-65.169	-64.763	-60.115	44.998	-60.620	-8191	255	
1661.104	1	1	0	0	0.31252	0.044224	0.10229	0.32238	0.25654	0.18133	0.15683	0.17338	0.2441	0.12577	0.2451	0.095787	0.28193	0.28106	0.17888	0.13725	0.17083	-0.38542	-0.84375	-0.22708	-0.85208	-0.68125	-0.38958	-1.0625	-0.30417	-0.49375	-1.2917	-0.16042	-0.90208	-0.89792	-0.13333	-0.87292	91.924	-44.917	221.042	199.498	255.706	91.769	131.816	21.082	-32.973	192.488	248.669	230.513	-59.671	220.893	48.685	142.892	0.00016693	0.00045178	0.00012586	1364.2	2.4484e-06	4.2166e-06	1350.3	361.8	2.3841e-06	5.2241e-06	418	136.6	119.85	41.18	3.4137e-06	51.142	0.00056591	0.00062749	0.00016867	1373	7.3698e-06	6.9363e-06	1364.3	366.87	7.0367e-06	6.3753e-06	422.26	139.93	122.23	42.144	5.6308e-06	52.404	179.373	8.196	1.383	-73.595	50.909	72.092	-73.572	-69.118	31.398	62.039	-69.380	-65.392	-64.585	-60.107	45.446	-60.557	-8191	255	
1661.175	1	1	0	0	0.080648	0.2054	0.035406	0.17159	0.22636	0.24421	0.2371	0.32895	0.15186	0.14779	0.3018	0.044529	0.39787	0.059976	0.27407	0.13833	0.047917	-0.19583	-0.83333	-0.25417	-0.58125	-0.64167	-0.275	-1.2333	-0.22292	-0.25625	-1.0958	-0.2625	-0.74375	-0.79167	0.052083	-0.9125	226.762	-64.615	194.117	258.506	137.816	154.495	178.260	175.665	158.781	-5.816	150.764	146.973	-68.882	252.234	151.903	256.076	0.00017993	0.00051147	0.00016099	1367	2.3078e-06	6.3512e-06	1360.2	364.25	2.1127e-06	4.3852e-06	418.09	135.99	118.98	41.231	3.6737e-06	50.994	0.00050948	0.00054714	0.00014832	1378.2	6.4818e-06	6.2339e-06	1372.5	368.99	6.4989e-06	6.0465e-06	422.16	139.52	121.72	41.987	5.4233e-06	52.127	179.313	-14.206	3.907	-73.654	29.577	74.959	-73.581	-69.082	26.324	81.412	-69.630	-65.495	-64.889	-60.182	53.308	-60.518	-8191	255	
1661.272	1	1	0	0	0.23748	0.068679	0.14691	0.15269	0.026573	0.12394	0.068577	0.22045	0.19375	0.12227	0.14997	0.25408	0.2422	0.4505	0.05544	0.26433	-0.027083	-0.11667	-1.0417	-0.30833	-0.51875	-0.93125	-0.37083	-0.99792	-0.46042	-0.058333	-1.1208	-0.28958	-0.39167	-1.0292	-0.2125	-0.55417	53.138	90.118	191.260	187.508	245.855	-68.396	2.111	202.150	79.398	143.080	36.663	237.572	-78.444	-84.780	33.993	250.395	0.0001607	0.00045668	0.0001387	1360.1	3.2289e-06	4.7649e-06	1347	363.34	2.5772e-06	4.0598e-06	417.3	136.69	119.18	41.215	2.8712e-06	51.339	0.00045059	0.00048078	0.0001307	1368.9	5.4481e-06	5.0697e-06	1362.4	367.74	5.0863e-06	4.67e-06	421.49	139.94	122.05	42.117	4.5612e-06	52.418	171.499	11.516	0.868	-73.436	78.860	66.996	-73.565	-69.102	-5.835	65.189	-69.459	-65.252	-64.715	-60.033	67.522	-60.521	-8191	255	
1661.368	1	1	0	0	0.23197	0.21465	0.26216	0.070889	0.15512	0.30855	0.52303	0.095246	0.18039	0.32444	0.27198	0.35189	0.30243	0.52153	0.27199	0.16854	-0.39375	-0.010417	-0.78958	-0.44583	-0.31042	-0.91458	-0.36042	-0.83542	-0.81458	-0.0875	-1.1458	-0.46458	-0.3125	-1.05	-0.1	-0.8875	58.815	140.054	271.817	153.629	-41.419	214.087	233.610	-77.722	82.111	262.139	226.646	149.004	252.259	262.938	110.891	271.419	0.00016007	0.00061125	0.00016487	1361.3	2.7211e-06	4.6581e-06	1357.7	367.44	1.9792e-06	3.9501e-06	422.13	138.18	121.37	41.73	3.6177e-06	51.777	0.00039143	0.00040578	0.00011548	1368.4	4.5274e-06	4.1304e-06	1370.4	372.04	4.5563e-06	4.2013e-06	425.78	141.53	123.62	42.584	4.8224e-06	52.753	172.533	-10.662	-1.222	-73.562	75.566	53.599	-73.653	-68.895	25.082	55.816	-69.559	-65.424	-64.460	-60.078	65.160	-60.631	-8191	255	
1661.488	1	1	0	0	0.030482	0.19873	0.16612	0.34356	0.15949	0.10678	0.0030961	0.17267	0.23983	0.26308	0.15262	0.062782	0.22732	0.34746	0.23972	0.16888	-0.32083	-0.039583	-0.65625	-0.41667	-0.01875	-0.98542	-0.27292	-0.87917	-0.78542	0.10417	-1.0354	-0.69792	-0.27083	-1.0417	-0.16667	-0.53125	53.337	53.596	211.940	261.113	185.657	142.489	217.621	173.998	242.454	-45.081	239.588	12.794	-40.477	231.360	66.584	171.289	0.00018512	0.00054305	0.00012355	1365	3.0709e-06	4.6693e-06	1356.2	368.24	2.173e-06	4.9803e-06	420.25	139.59	121.38	41.823	2.8635e-06	51.858	0.00039199	0.00038876	0.00012283	1374.2	4.7156e-06	4.3663e-06	1372.3	372.36	4.7204e-06	4.603e-06	426.08	142.11	123.89	42.773	5.1032e-06	52.951	175.337	-8.562	1.350	-73.348	76.079	55.878	-73.684	-68.946	36.272	50.114	-69.322	-65.351	-64.636	-59.976	59.221	-60.599	-8191	255	
1661.584	1	1	0	0	0.0474	0.11348	0.32105	0.3741	0.25553	0.13431	0.35646	0.11951	0.20685	0.2422	0.0020658	0.15621	0.16766	0.24351	0.26826	0.11598	-0.625	-0.05	-0.70833	-0.77917	-0.083333	-0.83333	-0.53333	-0.47708	-0.85833	0.01875	-0.8375	-0.89375	-0.28125	-0.99167	-0.29375	-0.47917	38.493	202.730	-48.635	255.955	40.315	83.400	199.541	43.755	266.896	31.360	180.000	-42.167	226.696	24.080	214.596	-81.217	0.00015608	0.00055903	0.00014229	1370	1.9121e-06	5.3149e-06	1362	369.45	1.6533e-06	4.8065e-06	423.31	139.39	121.23	42.178	3.2614e-06	51.986	0.00039713	0.00043265	0.00012846	1376.7	4.7814e-06	4.8995e-06	1377.4	373.19	4.7902e-06	4.9735e-06	426.89	142.43	124.01	42.908	5.2571e-06	53.125	177.657	3.689	10.776	-73.323	73.171	58.697	-73.531	-69.108	41.633	66.749	-69.282	-65.246	-64.453	-59.778	40.219	-60.321	-8191	255	
1661.681	1	1	0	0	0.25866	0.25611	0.14174	0.12954	0.18789	0.10518	0.13748	0.25341	0.19038	0.16628	0.2931	0.24337	0.09242	0.18735	0.074302	0.30587	-0.49167	0.075	-0.55833	-0.89375	-0.085417	-1.025	-0.6	-0.53333	-0.92083	-0.05	-0.75833	-0.87083	-0.125	-1.2417	-0.47708	-0.44792	262.762	177.012	219.226	202.074	169.719	257.048	162.831	225.748	-7.574	212.190	226.260	49.050	-38.072	-5.607	197.949	178.177	0.00016682	0.00061116	0.00016469	1375.7	3.0449e-06	3.2977e-06	1366.6	371.03	1.9907e-06	4.8637e-06	424.92	139.94	122.12	42.171	4.1364e-06	52.284	0.00040493	0.00046869	0.00013583	1384	4.8048e-06	5.1735e-06	1383.2	375.18	4.9445e-06	5.3584e-06	429.76	143.06	124.64	43.018	5.2562e-06	53.31	174.330	21.423	-0.090	-73.801	52.264	74.369	-73.737	-69.139	21.145	47.865	-69.244	-65.708	-64.932	-59.973	46.555	-60.621	-8191	255	
1661.777	1	1	0	0	0.20689	0.15513	0.093025	0.35311	0.088309	0.11429	0.16196	0.33018	0.18327	0.034071	0.17356	0.26762	0.1055	0.29612	0.11653	0.19662	-0.80625	-0.22292	-0.66458	-0.89792	0.12083	-0.85417	-0.8	-0.47917	-1.2375	-0.27917	-0.62083	-1.0583	-0.33333	-1.0333	-0.64583	-0.31875	88.860	-26.632	116.792	217.556	152.180	149.005	195.549	198.706	-2.339	88.879	185.505	205.742	250.314	-63.676	-78.873	222.898	0.00017055	0.0005812	0.00011918	1377.9	3.2418e-06	4.53e-06	1369.8	370.51	2.0002e-06	4.3859e-06	423.13	139.83	122.47	42.034	3.3498e-06	52.099	0.00041001	0.00051032	0.00013434	1385.6	5.1224e-06	5.5075e-06	1384.8	374.89	5.0829e-06	5.5916e-06	429.3	143.26	124.84	43.051	5.3906e-06	53.255	173.915	18.934	-2.921	-73.344	67.405	36.554	-73.710	-68.836	29.860	63.334	-69.443	-65.486	-64.805	-59.834	52.169	-60.502	-8191	255	
1661.873	1	1	0	0	0.37813	0.12873	0.38527	0.3663	0.25257	0.12922	0.38812	0.14358	0.13291	0.32533	0.032191	0.26896	0.12109	0.1375	0.19247	0.21414	-0.67083	-0.22708	-0.33125	-1.0875	-0.035417	-0.74167	-0.91667	-0.33125	-0.83542	-0.43125	-0.41458	-1.1417	-0.25	-0.86458	-0.61042	-0.26458	36.289	223.896	-1.583	220.935	160.033	-71.909	235.087	74.581	-44.203	53.239	42.150	270.957	-18.751	101.956	172.510	197.097	0.00017422	0.0005476	0.00015038	1379.8	2.4363e-06	6.0054e-06	1373.7	370.69	2.0838e-06	3.6355e-06	423.92	139.58	121.92	42.109	2.3688e-06	51.825	0.00043358	0.00053139	0.0001396	1390.2	5.5043e-06	5.7436e-06	1387.1	375.34	5.5963e-06	5.7999e-06	428.26	142.91	124.63	42.89	5.3295e-06	53.026	169.950	7.753	2.197	-73.421	35.372	78.008	-73.531	-69.025	29.255	71.803	-69.415	-65.367	-64.652	-60.024	53.656	-60.667	-8191	255	
1661.969	1	1	0	0	0.35368	0.15862	0.15447	0.16617	0.1926	0.35508	0.17655	0.22987	0.25808	0.036472	0.21458	0.22192	0.18935	0.22001	0.20426	0.1766	-0.51875	-0.25833	-0.19792	-1.0021	0.01875	-0.72083	-1.0396	0.01875	-1.025	-0.3875	-0.26875	-1.0187	-0.36667	-0.71042	-0.97708	-0.10625	113.972	-63.581	271.220	218.172	-9.984	-75.633	22.013	142.958	-10.568	71.856	-85.856	252.729	194.355	176.409	178.618	-62.506	0.00014952	0.00053068	0.0001571	1372.7	2.3966e-06	3.3917e-06	1367.1	367.14	2.7115e-06	5.1624e-06	420.95	138.11	119.92	41.494	3.959e-06	51.805	0.00047605	0.00054677	0.00013785	1382.7	6.0811e-06	5.9476e-06	1378.4	372.11	6.2362e-06	6.1431e-06	425.27	141.56	122.91	42.439	5.7356e-06	52.688	172.203	20.111	-4.089	-73.534	74.599	46.476	-73.548	-69.306	82.079	68.485	-69.517	-65.214	-64.811	-60.062	74.835	-60.804	-8191	255	
1662.090	1	1	0	0	0.28088	0.25452	0.096335	0.10774	0.17583	0.072052	0.22235	0.32425	0.041887	0.38148	0.23421	0.15062	0.13678	0.12455	0.074672	0.2135	-0.63958	-0.43542	0.045833	-1.2875	-0.30417	-0.46667	-1.1021	0.0020833	-0.7875	-0.60833	-0.2	-1.0354	-0.35417	-0.60208	-0.74792	-0.32917	-41.083	120.622	125.168	243.754	51.593	213.175	228.650	-60.486	122.622	-74.452	271.060	106.010	-78.354	-12.174	49.175	225.216	0.00016253	0.00068389	0.00014173	1376	3.2354e-06	6.8301e-06	1369.1	368.01	2.7311e-06	7.5629e-06	422.38	138.6	121.03	42.014	4.5285e-06	51.968	0.00048658	0.00055593	0.00014274	1381.7	6.4256e-06	5.9619e-06	1381.4	372.38	6.4099e-06	5.92e-06	426.77	142.11	123.88	42.809	5.8042e-06	52.98	170.313	13.055	5.980	-73.565	54.797	64.564	-73.721	-68.950	23.939	45.719	-69.447	-65.340	-64.864	-59.964	50.093	-60.645	-8191	255	
1662.184	1	1	0	0	0.038318	0.19564	0.046507	0.28909	0.26717	0.088726	0.14246	0.18069	0.19321	0.18733	0.21275	0.27224	0.25839	0.15764	0.16634	0.27194	-0.36667	-0.47083	-0.1375	-1.2146	-0.20625	-0.37708	-1.2125	-0.35833	-0.58542	-0.73958	-0.28333	-0.97917	-0.46458	-0.31667	-0.99167	-0.2875	5.217	158.056	-9.265	-81.183	229.436	76.973	227.113	261.768	240.485	172.130	230.720	187.824	247.623	267.279	191.696	204.817	0.00016138	0.00032695	9.1022e-05	1378.8	1.9265e-06	5.3947e-06	1368.3	367.39	2.4631e-06	3.7364e-06	421.37	137.83	120.86	41.701	3.5226e-06	51.739	0.00050073	0.00057383	0.00014599	1385.9	6.6437e-06	6.1012e-06	1383.4	372.84	6.6135e-06	6.3063e-06	425.77	141.38	123.34	42.495	5.984e-06	52.606	172.547	16.513	-7.379	-73.571	84.004	66.362	-73.565	-69.049	27.776	65.036	-69.669	-65.601	-64.971	-60.067	19.189	-60.610	-8191	255	
1662.280	1	1	0	0	0.10832	0.14764	0.15921	0.35123	0.1076	0.20459	0.10971	0.2879	0.16627	0.22083	0.18029	0.26737	0.12739	0.084198	0.098724	0.050132	-0.40417	-0.71667	0.04375	-1.1646	-0.50208	-0.23542	-1.1333	-0.29167	-0.575	-0.80208	-0.2375	-1.0583	-0.50417	-0.36042	-1.0583	-0.25208	104.592	93.620	-72.130	-78.417	-21.167	205.515	111.630	235.430	-11.645	242.494	235.164	-76.796	206.223	245.417	193.220	8.283	0.00017872	0.00062294	0.00018135	1377.1	3.468e-06	6.2852e-06	1369.9	367.37	3.9267e-06	4.8524e-06	421.73	139.16	120.77	42.059	3.6243e-06	51.652	0.00051823	0.00056932	0.00015527	1385.5	6.7899e-06	6.2955e-06	1381.7	372.91	6.5474e-06	6.3971e-06	426.19	142.07	123.55	42.664	6.0856e-06	52.882	170.777	5.652	17.387	-73.442	43.497	69.653	-73.616	-68.894	33.946	49.490	-69.376	-65.216	-64.735	-60.290	51.538	-60.511	-8191	255	
1662.376	1	1	0	0	0.075268	0.12823	0.0346	0.30916	0.1903	0.1416	0.088502	0.29855	0.094157	0.11339	0.28653	0.12183	0.28363	0.145	0.050169	0.31978	-0.24375	-0.67917	0.054167	-0.98125	-0.5125	-0.14167	-1.0958	-0.35	-0.60833	-0.66042	0.08125	-0.91042	-0.70208	-0.025	-1.075	-0.39792	51.943	-70.919	214.829	212.697	231.211	53.724	223.309	260.364	49.808	250.959	222.601	43.873	-52.475	269.533	38.099	269.274	0.00017705	0.0006712	0.00011371	1377.8	4.3538e-06	5.3532e-06	1370.4	368.39	1.6013e-06	5.3953e-06	424.66	138.9	121.32	41.941	2.67e-06	51.711	0.00048838	0.00057652	0.00015953	1388	6.5872e-06	6.1131e-06	1385.9	373.4	6.4507e-06	6.0886e-06	428.06	142.23	124.18	42.757	6.3343e-06	53.042	178.253	1.507	12.941	-73.371	65.480	50.143	-73.642	-68.810	16.036	59.739	-69.566	-65.550	-64.845	-60.188	69.480	-60.620	-8191	255	
1662.473	1	1	0	0	0.26032	0.14673	0.12202	0.30645	0.068054	0.15785	0.32643	0.21857	0.287	0.4237	0.39409	0.24651	0.16455	0.14756	0.23407	0.098598	0.022917	-0.91042	-0.083333	-1.0958	-0.74167	-0.12708	-1.3146	-0.54375	-0.25	-1.1771	-0.2	-0.9625	-0.83542	-0.125	-0.77917	-0.59375	138.299	72.587	239.867	-72.180	5.637	174.862	233.159	189.138	210.049	93.289	-84.802	234.357	13.153	213.980	-56.432	241.966	0.00016559	0.00052593	0.00015014	1385.4	1.5794e-06	5.4935e-06	1373.5	370.06	2.2661e-06	3.7529e-06	421.62	138.52	120.57	41.602	4.4069e-06	51.219	0.00049526	0.00055206	0.00016887	1390.6	6.3147e-06	6.0001e-06	1387.3	374.52	6.4411e-06	5.8988e-06	426.58	141.91	123.35	42.477	6.6554e-06	52.51	179.282	-4.136	-0.066	-73.587	52.184	45.786	-73.635	-69.021	40.390	56.718	-69.358	-65.218	-64.616	-59.935	24.687	-60.549	-8191	255	
#DATA ENDS
