BOXY.EXE: ISS Imagent and Oximeter Data Acquisition Program Version 0.80
Ascii Record File

#ACQ INFORMATION
2  Detector Channels 
16  External MUX Channels 
1  Auxiliary Channels 
5000  Waveform (CCF) Frequency (Hz)
1  Waveforms Skipped 
30  Waveforms Averaged 
1  Cycles Averaged 
16  Acquisitions per Waveform 
10.0806  Updata Rate (Hz) 

#FILE INFORMATION
TRUE -- External MUX Channel results are PARSED.
FALSE -- AC DC and Phase are NOT grouped.
TRUE -- Companion Program Settings File CREATED.
FALSE -- AC data not excluded
FALSE -- DC data not excluded
FALSE -- Phase data not excluded
FALSE -- Auxillary Chn. data not excluded
Tab delimiters

#CALIBRATION STATE
TRUE -- Waveform Calibration Values APPLIED.


#AUX CALIBRATION VALUES
Val Type	aux-1	

Term	1.0000e+00	
Factor	0.0000e+00	


#WF CALIBRATION VALUES
A = Detector Channel
Val Type	A-AC1	A-AC2	A-AC3	A-AC4	A-AC5	A-AC6	A-AC7	A-AC8	A-AC9	A-AC10	A-AC11	A-AC12	A-AC13	A-AC14	A-AC15	A-AC16	A-DC1	A-DC2	A-DC3	A-DC4	A-DC5	A-DC6	A-DC7	A-DC8	A-DC9	A-DC10	A-DC11	A-DC12	A-DC13	A-DC14	A-DC15	A-DC16	A-Ph1	A-Ph2	A-Ph3	A-Ph4	A-Ph5	A-Ph6	A-Ph7	A-Ph8	A-Ph9	A-Ph10	A-Ph11	A-Ph12	A-Ph13	A-Ph14	A-Ph15	A-Ph16	

Term	0.00000e+00	0.00000e+00	0.00000e+00	0.00000e+00	0.00000e+00	0.00000e+00	0.00000e+00	0.00000e+00	0.00000e+00	0.00000e+00	0.00000e+00	0.00000e+00	0.00000e+00	0.00000e+00	0.00000e+00	0.00000e+00	0.00000e+00	0.00000e+00	0.00000e+00	0.00000e+00	0.00000e+00	0.00000e+00	0.00000e+00	0.00000e+00	0.00000e+00	0.00000e+00	0.00000e+00	0.00000e+00	0.00000e+00	0.00000e+00	0.00000e+00	0.00000e+00	0.00000e+00	0.00000e+00	0.00000e+00	0.00000e+00	0.00000e+00	0.00000e+00	0.00000e+00	0.00000e+00	0.00000e+00	0.00000e+00	0.00000e+00	0.00000e+00	0.00000e+00	0.00000e+00	0.00000e+00	0.00000e+00	
Factor	1.00000e+00	1.00000e+00	1.00000e+00	1.00000e+00	1.00000e+00	1.00000e+00	1.00000e+00	1.00000e+00	1.00000e+00	1.00000e+00	1.00000e+00	1.00000e+00	1.00000e+00	1.00000e+00	1.00000e+00	1.00000e+00	1.00000e+00	1.00000e+00	1.00000e+00	1.00000e+00	1.00000e+00	1.00000e+00	1.00000e+00	1.00000e+00	1.00000e+00	1.00000e+00	1.00000e+00	1.00000e+00	1.00000e+00	1.00000e+00	1.00000e+00	1.00000e+00	X	X	X	X	X	X	X	X	X	X	X	X	X	X	X	X	

B = Detector Channel
Val Type	B-AC1	B-AC2	B-AC3	B-AC4	B-AC5	B-AC6	B-AC7	B-AC8	B-AC9	B-AC10	B-AC11	B-AC12	B-AC13	B-AC14	B-AC15	B-AC16	B-DC1	B-DC2	B-DC3	B-DC4	B-DC5	B-DC6	B-DC7	B-DC8	B-DC9	B-DC10	B-DC11	B-DC12	B-DC13	B-DC14	B-DC15	B-DC16	B-Ph1	B-Ph2	B-Ph3	B-Ph4	B-Ph5	B-Ph6	B-Ph7	B-Ph8	B-Ph9	B-Ph10	B-Ph11	B-Ph12	B-Ph13	B-Ph14	B-Ph15	B-Ph16	

Term	0.00000e+00	0.00000e+00	0.00000e+00	0.00000e+00	0.00000e+00	0.00000e+00	0.00000e+00	0.00000e+00	0.00000e+00	0.00000e+00	0.00000e+00	0.00000e+00	0.00000e+00	0.00000e+00	0.00000e+00	0.00000e+00	0.00000e+00	0.00000e+00	0.00000e+00	0.00000e+00	0.00000e+00	0.00000e+00	0.00000e+00	0.00000e+00	0.00000e+00	0.00000e+00	0.00000e+00	0.00000e+00	0.00000e+00	0.00000e+00	0.00000e+00	0.00000e+00	-5.39519e+01	-1.20249e+02	-1.18298e+02	-1.81389e+02	-4.31425e+01	-6.62439e+01	-1.58480e+02	-1.62015e+02	-4.06269e+01	-6.41590e+01	-1.70493e+02	-1.69859e+02	-1.80780e+02	-1.76520e+02	-5.86099e+01	-1.49332e+02	
Factor	1.98062e-05	1.68167e-04	4.94974e-05	1.66526e-01	1.74080e-06	1.74117e-06	1.86734e-01	6.19479e-02	1.34097e-06	1.65747e-06	9.69286e-02	3.24366e-02	2.70990e-02	9.71051e-03	1.63304e-06	1.37319e-02	6.23419e-06	7.90621e-06	2.20416e-06	8.30113e-02	8.34494e-08	8.73136e-08	8.74601e-02	3.09545e-02	8.37774e-08	8.70958e-08	4.68922e-02	1.57875e-02	1.36570e-02	4.89657e-03	8.48302e-08	6.69651e-03	X	X	X	X	X	X	X	X	X	X	X	X	X	X	X	X	



#DISTANCE SETTINGS
A = Detector Channel
A-1	A-2	A-3	A-4	A-5	A-6	A-7	A-8	A-9	A-10	A-11	A-12	A-13	A-14	A-15	A-16	

2.5000e+00	3.0000e+00	2.5000e+00	3.0000e+00	2.0000e+00	3.0000e+00	1.5000e+00	3.0000e+00	3.0000e+00	3.0000e+00	3.0000e+00	3.0000e+00	3.0000e+00	3.0000e+00	1.5000e+00	3.0000e+00	

B = Detector Channel
B-1	B-2	B-3	B-4	B-5	B-6	B-7	B-8	B-9	B-10	B-11	B-12	B-13	B-14	B-15	B-16	

1.0000e+01	1.0000e+01	1.0000e+01	1.4400e+00	1.0000e+01	1.0000e+01	1.5100e+00	1.9400e+00	1.0000e+01	1.0000e+01	1.9900e+00	2.4900e+00	2.4100e+00	2.9000e+00	1.0000e+01	2.9800e+00	




#DATA BEGINS
time	group	step	mark	flag	A-AC1	A-AC2	A-AC3	A-AC4	A-AC5	A-AC6	A-AC7	A-AC8	A-AC9	A-AC10	A-AC11	A-AC12	A-AC13	A-AC14	A-AC15	A-AC16	A-DC1	A-DC2	A-DC3	A-DC4	A-DC5	A-DC6	A-DC7	A-DC8	A-DC9	A-DC10	A-DC11	A-DC12	A-DC13	A-DC14	A-DC15	A-DC16	A-Ph1	A-Ph2	A-Ph3	A-Ph4	A-Ph5	A-Ph6	A-Ph7	A-Ph8	A-Ph9	A-Ph10	A-Ph11	A-Ph12	A-Ph13	A-Ph14	A-Ph15	A-Ph16	B-AC1	B-AC2	B-AC3	B-AC4	B-AC5	B-AC6	B-AC7	B-AC8	B-AC9	B-AC10	B-AC11	B-AC12	B-AC13	B-AC14	B-AC15	B-AC16	B-DC1	B-DC2	B-DC3	B-DC4	B-DC5	B-DC6	B-DC7	B-DC8	B-DC9	B-DC10	B-DC11	B-DC12	B-DC13	B-DC14	B-DC15	B-DC16	B-Ph1	B-Ph2	B-Ph3	B-Ph4	B-Ph5	B-Ph6	B-Ph7	B-Ph8	B-Ph9	B-Ph10	B-Ph11	B-Ph12	B-Ph13	B-Ph14	B-Ph15	B-Ph16	aux-1	digaux	

45942.535	1	1	0	256	0.14877	0.12548	0.14041	0.09505	0.13809	0.18372	0.34077	0.13903	0.013498	0.1775	0.12948	0.13929	0.44056	0.19494	0.12615	0.19509	-2.7958	-2.4688	-2.9542	-3.0938	-2.4854	-3.2812	-2.7229	-2.7479	-3.25	-2.4208	-3.2396	-2.9771	-2.5208	-3.2417	-2.7229	-2.7083	-52.668	166.639	290.438	196.655	183.014	5.503	184.183	167.280	196.856	210.513	261.648	260.022	269.099	-33.884	255.943	-18.537	0.00018258	0.00056099	0.00020177	1364	2.0812e-06	5.8341e-06	1364.9	369.05	2.8102e-06	6.7964e-06	423.09	137.68	119.88	40.916	5.7442e-06	51.18	0.0007604	0.000895	0.00024507	1374.9	9.4315e-06	9.5992e-06	1374.1	374.81	9.4103e-06	9.6685e-06	429.15	140.76	122.62	41.945	9.4098e-06	52.296	219.737	30.450	34.324	-48.611	119.622	107.002	-48.674	-43.699	110.384	134.267	-44.459	-39.852	-39.480	-35.057	73.780	-35.705	-8191	255	
45942.637	1	1	0	0	0.2259	0.22708	0.20294	0.34962	0.14375	0.28365	0.33319	0.28261	0.3111	0.12003	0.20321	0.12918	0.15145	0.093224	0.43491	0.17049	-3.0563	-2.5479	-3.0812	-3.2375	-2.4521	-3.1813	-2.9833	-2.5292	-3.3021	-2.4729	-3.0396	-3.2062	-2.5958	-3.2896	-2.9688	-2.575	118.605	285.740	69.387	251.000	280.249	200.045	-56.215	271.128	292.858	-14.023	283.922	-40.604	205.446	202.385	197.696	257.605	0.00016535	0.000413	0.00010906	1358.6	4.3219e-06	8.3326e-06	1361.6	367.38	1.7409e-06	3.3358e-06	425.03	136.84	119.23	40.725	5.9388e-06	50.924	0.00076078	0.00087199	0.00024258	1373	9.3959e-06	9.5115e-06	1371.7	373.65	9.3e-06	9.5662e-06	429.27	140.27	122.4	41.863	9.1972e-06	52.157	224.189	67.224	45.554	-48.635	147.052	78.713	-48.520	-43.905	89.483	79.760	-44.310	-39.644	-39.205	-34.993	145.968	-35.720	-8191	255	
45942.730	1	1	0	0	0.25968	0.11054	0.096578	0.23881	0.20666	0.19624	0.24803	0.12545	0.18004	0.2169	0.26211	0.12496	0.062261	0.094112	0.2172	0.13492	-3.0062	-2.3458	-2.8667	-3.1	-2.2625	-3	-3.1312	-2.5479	-3.425	-2.6875	-2.8771	-3.3104	-2.4542	-3.2083	-3.1167	-2.6479	201.328	140.155	202.852	296.685	166.263	-39.233	261.230	233.535	196.363	269.871	229.379	286.211	263.040	271.384	37.352	241.251	0.00016341	0.0007549	0.00017757	1358.8	4.8661e-06	7.0707e-06	1360.4	366.81	3.2627e-06	5.7702e-06	422.52	137.01	119.1	40.922	1.0313e-06	51.014	0.00075019	0.0008599	0.00024071	1369.7	9.3408e-06	9.4779e-06	1370.7	373.22	9.3262e-06	9.4751e-06	428.11	140.31	122.01	41.866	9.2265e-06	52.126	240.204	-4.497	68.504	-48.748	123.160	111.946	-48.678	-43.805	84.861	80.866	-44.374	-39.558	-39.294	-34.970	110.658	-35.644	-8191	255	
45942.824	1	1	0	0	0.19061	0.2579	0.18526	0.30099	0.20826	0.13891	0.3455	0.44023	0.10329	0.048388	0.026783	0.059564	0.34411	0.30468	0.16767	0.29566	-2.9604	-2.7438	-2.5563	-3.4625	-2.6396	-3.1312	-3.0854	-2.8417	-3.2229	-2.9208	-2.7375	-3.3812	-2.5687	-3.1625	-3.1688	-2.675	107.485	-19.589	56.691	268.300	124.716	-59.242	137.654	266.167	88.198	284.392	131.711	85.880	262.902	267.700	54.174	229.550	0.0001596	0.00044355	0.00022381	1357.7	4.2535e-06	4.6238e-06	1356.4	368.12	3.6355e-06	5.3019e-06	418.44	136.74	119.07	40.805	5.0892e-06	50.941	0.00074165	0.00084768	0.00024164	1369	9.1412e-06	9.3782e-06	1367.3	372.8	9.1502e-06	9.3472e-06	426.87	140.33	122	41.845	9.1859e-06	52.023	233.921	55.105	21.998	-48.640	152.186	78.028	-48.474	-43.823	71.809	84.422	-44.437	-39.743	-39.484	-35.002	70.829	-35.740	-8191	255	
45942.922	1	1	0	0	0.17224	0.12482	0.16472	0.13541	0.37842	0.1652	0.12446	0.35348	0.13651	0.067286	0.15621	0.058134	0.11388	0.16336	0.12152	0.14757	-2.8146	-2.8333	-2.5333	-3.5229	-2.5271	-3.0042	-3.5396	-2.6354	-3.2458	-3.0354	-2.5583	-3.4729	-2.7958	-2.9146	-3.3292	-2.5896	71.231	203.031	-11.610	227.673	233.237	70.381	-52.709	194.839	86.340	225.874	171.791	182.487	262.039	227.338	112.628	99.669	0.00016239	0.00070619	0.00016218	1354.4	4.3525e-06	5.5536e-06	1358.3	366.56	4.2884e-06	3.8836e-06	420.61	136.49	118.98	40.905	4.3871e-06	50.721	0.0007341	0.0008426	0.00023671	1365.2	9.297e-06	9.2349e-06	1367.4	372.04	9.1569e-06	9.2717e-06	426.86	140.11	121.77	41.765	9.1207e-06	51.952	230.936	47.660	48.449	-48.738	171.330	72.699	-48.411	-43.958	118.675	74.112	-44.606	-39.618	-39.313	-34.928	120.624	-35.552	-8191	255	
45943.043	1	1	0	0	0.064121	0.12144	0.19787	0.2324	0.24637	0.13562	0.30107	0.071009	0.043579	0.30109	0.26259	0.22422	0.095766	0.17767	0.071333	0.29652	-2.7667	-3.0396	-2.5208	-3.5333	-2.7125	-2.8646	-3.5875	-2.6854	-3.1375	-3.1833	-2.5187	-3.25	-2.7812	-2.5854	-3.2062	-2.7021	-29.516	147.518	-3.224	247.030	8.487	-6.259	262.534	106.780	52.348	-51.891	295.171	237.537	100.220	190.835	297.357	215.798	0.0001648	0.00054949	0.00014469	1353.8	1.0456e-06	6.7789e-06	1360.3	366.46	1.6699e-06	2.4668e-06	421.53	136.71	118.62	40.573	3.3851e-06	50.94	0.00074048	0.0008345	0.00023407	1363.8	9.0115e-06	9.1674e-06	1365.5	371.74	8.9888e-06	9.0355e-06	426.67	139.82	121.58	41.582	9.1348e-06	52.014	230.209	29.056	39.901	-48.782	174.289	63.953	-48.588	-43.809	126.668	149.717	-44.675	-39.650	-39.337	-35.029	115.151	-35.848	-8191	255	
45943.137	1	1	0	0	0.24838	0.24929	0.33551	0.33856	0.056031	0.095265	0.11296	0.13128	0.17849	0.10952	0.057636	0.12085	0.38412	0.30741	0.061328	0.33831	-2.6	-3.1312	-2.3146	-3.35	-2.9167	-2.6312	-3.4875	-2.5208	-3.0563	-3.3896	-2.6125	-3.3187	-2.9313	-2.7125	-3.1021	-2.6917	201.522	59.523	99.694	230.450	121.881	236.694	140.861	294.673	28.648	76.543	72.193	19.771	261.675	-15.981	185.149	206.847	0.00011017	0.00032489	9.2582e-05	1351	3.2858e-06	6.9014e-06	1353.2	366.42	2.5403e-06	6.4392e-06	419.66	136.28	118.7	40.643	6.6499e-06	50.547	0.00073935	0.00083076	0.00023373	1361.4	9.0709e-06	9.3304e-06	1360.7	370.94	9.0328e-06	9.1861e-06	425.36	139.39	121.36	41.649	9.0639e-06	51.729	243.345	45.913	11.341	-48.585	123.691	104.272	-48.519	-44.006	147.255	87.612	-44.465	-39.565	-39.299	-34.967	129.431	-35.641	-8191	255	
45943.211	1	1	0	0	0.20011	0.11408	0.1841	0.32138	0.075102	0.13577	0.28116	0.16166	0.065015	0.14162	0.036002	0.16975	0.22217	0.24918	0.13036	0.29523	-2.4958	-3.2104	-2.2979	-3.0604	-2.8312	-2.4062	-3.5146	-2.7125	-2.8083	-3.1375	-2.5521	-3.2646	-3.0187	-2.3812	-3.1729	-2.7188	35.353	59.311	-7.631	279.557	255.614	237.920	263.197	225.023	257.691	45.106	247.500	232.215	-58.155	-41.409	226.724	269.790	0.00016813	0.00066969	0.00022551	1351	6.1958e-06	4.444e-06	1354.1	365.05	1.3886e-06	4.7529e-06	419.72	135.64	118.59	40.539	2.2863e-06	50.668	0.00072875	0.00082977	0.00023178	1360.6	9.0289e-06	9.2245e-06	1362.7	370.67	9.0124e-06	9.0563e-06	425.83	139.16	121.28	41.592	8.8794e-06	51.709	230.742	39.539	30.772	-48.582	95.372	87.709	-48.474	-43.888	218.720	84.586	-44.441	-39.540	-39.347	-34.773	77.938	-35.856	-8191	255	
45943.305	1	1	0	0	0.19776	0.21857	0.056947	0.36765	0.084302	0.11965	0.030345	0.10379	0.36978	0.15965	0.13129	0.3177	0.20081	0.12112	0.20374	0.2113	-2.3458	-3.2188	-2.3063	-3.0979	-3.1354	-2.3417	-3.3958	-2.8542	-2.5292	-3.3354	-2.65	-3.1146	-3.2375	-2.5438	-3.2729	-2.925	151.159	264.866	63.871	243.957	-6.452	194.881	21.924	19.735	183.497	267.135	168.493	228.834	-55.631	135.928	137.016	170.454	0.00014268	0.00058036	0.00012514	1347.9	4.5838e-06	9.2611e-07	1350.1	364.38	2.8835e-06	4.9986e-06	420.51	136.23	118.16	40.693	2.0785e-06	50.852	0.00072256	0.0008145	0.00022896	1359.4	8.7441e-06	9.272e-06	1359.5	370.25	8.9141e-06	9.1184e-06	425.15	139.32	121.13	41.586	8.9114e-06	51.749	234.643	6.526	39.689	-48.679	135.563	99.795	-48.612	-43.973	-7.837	134.207	-44.464	-39.582	-39.406	-35.136	101.165	-35.564	-8191	255	
45943.426	1	1	0	0	0.021721	0.031376	0.23028	0.20562	0.015809	0.21386	0.13292	0.17255	0.13989	0.13913	0.30771	0.11549	0.098945	0.16654	0.18899	0.21758	-2.3625	-3.2125	-2.4729	-3.0833	-3.0729	-2.4125	-3.2458	-3.075	-2.7479	-3.3542	-2.7333	-2.9146	-3.3479	-2.525	-3.4167	-3.1562	-44.571	285.708	92.084	251.565	71.483	72.051	-49.684	214.164	164.573	213.380	256.345	26.035	20.102	271.016	44.562	-43.247	0.00016215	0.00055795	0.00016929	1350.4	6.969e-06	5.4241e-06	1351.1	364.59	1.0103e-06	7.9707e-06	418.57	135.85	118.77	40.491	3.0782e-06	50.864	0.00072657	0.00081833	0.00022808	1357.8	8.7937e-06	9.0095e-06	1359.2	370.37	9.0434e-06	9.1213e-06	425.15	139.53	121.36	41.534	9.0238e-06	51.886	213.810	35.318	10.338	-48.578	87.774	100.119	-48.476	-43.823	171.195	78.848	-44.694	-39.463	-39.485	-34.971	102.197	-35.542	-8191	255	
45943.523	1	1	0	0	0.14092	0.26043	0.12179	0.079699	0.04522	0.25586	0.053213	0.24951	0.39185	0.096889	0.19268	0.10928	0.19054	0.21859	0.10403	0.25779	-2.2354	-3.3875	-2.6333	-3.0458	-3.3667	-2.6271	-3.4333	-3.1312	-2.3521	-3.4375	-2.7354	-2.725	-3.4292	-2.3917	-2.9146	-3.1167	-48.468	78.381	-53.955	291.228	-47.553	-58.035	242.226	288.792	248.023	266.678	250.196	228.221	243.527	258.932	-28.010	167.922	0.0001299	0.00030222	0.00012255	1346.3	3.8543e-06	4.8887e-06	1349.7	366.34	2.2938e-06	5.5962e-06	419.2	136.52	118.66	40.737	2.0342e-06	50.684	0.00073739	0.00084451	0.00023062	1358.5	8.9677e-06	9.3624e-06	1360.8	371.07	9.0562e-06	9.2205e-06	425.64	139.63	121.69	41.683	8.9344e-06	51.88	219.978	-13.970	19.961	-48.633	178.864	125.700	-48.548	-43.980	128.904	70.287	-44.503	-39.698	-39.112	-34.829	92.949	-35.731	-8191	255	
45943.617	1	1	0	0	0.19798	0.12416	0.21001	0.22252	0.18916	0.23261	0.17583	0.14321	0.24787	0.10717	0.16162	0.32879	0.18558	0.050859	0.21518	0.24398	-2.0479	-3.1833	-2.8688	-2.6729	-3.2875	-2.4792	-3.1	-3.4229	-2.4062	-3.3792	-2.8812	-2.8	-3.4667	-2.7604	-2.9562	-3.3292	237.734	-54.253	231.759	268.558	182.319	38.272	256.933	-11.357	-47.255	-9.912	278.274	188.093	127.510	238.018	-20.833	142.567	0.00016549	0.0006073	0.00017892	1350.2	2.5923e-06	5.9771e-06	1352.9	366.38	3.7055e-06	5.8627e-06	419.6	136.36	119.28	40.848	5.3749e-06	51.165	0.00073882	0.0008277	0.00023056	1359.9	8.9658e-06	9.3151e-06	1363.3	371.26	9.056e-06	9.1788e-06	425.7	139.96	121.83	41.8	8.9717e-06	52.127	241.455	28.552	42.825	-48.640	38.490	147.530	-48.421	-43.869	106.896	110.135	-44.583	-39.684	-38.989	-34.982	62.069	-35.885	-8191	255	
45943.738	1	1	0	0	0.14559	0.11701	0.023368	0.30539	0.26297	0.18692	0.13499	0.12989	0.1716	0.26978	0.27182	0.15795	0.13698	0.10163	0.04639	0.085555	-2.0062	-3.1833	-2.7875	-2.6771	-3.425	-2.6708	-3.0667	-3.5375	-2.4542	-3.2771	-3.1146	-2.4229	-3.2938	-2.7979	-2.6875	-3.3708	-42.644	159.961	1.484	278.023	-17.416	223.397	270.928	179.277	249.709	147.928	271.110	271.364	140.132	164.908	69.788	269.222	0.00016041	0.00051088	0.0001566	1350.5	3.6052e-06	2.1277e-06	1352.5	366.38	1.9367e-06	3.6449e-06	422.05	137.27	119.56	40.969	1.4913e-06	50.956	0.00073049	0.00082694	0.00023039	1360.3	8.8728e-06	9.173e-06	1364	371.55	9.0794e-06	9.2142e-06	426.22	140.46	122.2	41.934	9.1832e-06	52.191	224.555	33.634	40.163	-48.633	130.051	54.066	-48.307	-43.850	113.593	64.811	-44.383	-39.782	-39.245	-34.998	118.260	-35.976	-8191	255	
45943.809	1	1	0	0	0.42119	0.13691	0.25509	0.37819	0.040577	0.021726	0.40208	0.019317	0.095123	0.28194	0.12663	0.2184	0.11514	0.39195	0.085793	0.016965	-1.9583	-3.0812	-2.9417	-2.5375	-3.275	-2.7604	-2.7167	-3.4625	-2.4854	-3.0646	-3.225	-2.6229	-3.3458	-2.8667	-2.5979	-3.4208	-44.456	87.961	-56.918	279.457	15.234	81.021	239.390	20.039	251.952	223.478	232.084	177.596	245.753	236.925	213.730	296.122	0.00016263	0.00057485	0.00015186	1353.5	1.6692e-06	2.5371e-06	1359	366.25	3.3468e-06	2.8119e-06	420.51	137.28	119.47	40.86	5.3275e-06	50.984	0.0007503	0.00086265	0.00023689	1362.6	9.1907e-06	9.2898e-06	1367.1	371.86	9.2103e-06	9.4463e-06	427.27	140.64	122.29	41.955	9.3128e-06	52.287	224.700	38.467	23.347	-48.551	87.171	106.711	-48.281	-43.625	80.523	91.460	-44.388	-39.596	-39.210	-35.112	79.762	-35.911	-8191	255	
45943.906	1	1	0	0	0.11877	0.20971	0.062302	0.24021	0.23603	0.10603	0.20184	0.1395	0.32774	0.022204	0.12764	0.006837	0.38929	0.037015	0.18458	0.026259	-2.1604	-2.7604	-3.2583	-2.5396	-3.3354	-2.7979	-2.825	-3.4333	-2.5542	-2.9208	-3.2062	-2.5687	-3.1958	-2.9417	-2.6958	-3.3917	133.741	-61.371	297.083	295.001	120.786	236.731	-39.005	216.053	153.654	251.174	269.875	184.158	239.069	135.413	215.803	51.313	0.00016123	0.00063888	0.00016643	1352.9	2.2326e-06	2.9902e-06	1356.3	365.6	1.6137e-06	3.4175e-06	423.86	136.71	120.01	40.815	2.9385e-06	51.199	0.00076258	0.00086112	0.00023686	1363	9.2886e-06	9.4111e-06	1368.4	371.57	9.22e-06	9.5575e-06	427.71	140.33	122.43	41.972	9.4598e-06	52.304	234.793	62.565	65.722	-48.664	15.944	97.938	-48.338	-43.985	113.824	135.002	-44.635	-39.480	-39.172	-35.143	133.641	-35.742	-8191	255	
45944.027	1	1	0	0	0.19108	0.13325	0.21225	0.18284	0.17107	0.15791	0.16512	0.13767	0.035045	0.21708	0.080126	0.26972	0.32252	0.19579	0.10673	0.19754	-2.3229	-2.975	-3.3771	-2.6333	-3.4021	-2.9813	-2.6625	-3.6083	-2.6979	-2.925	-3.4083	-2.4313	-3.1188	-3.2229	-2.5708	-3.2708	178.836	-5.170	93.066	-40.529	140.324	6.656	228.423	-16.838	223.141	42.191	119.368	260.418	-38.463	177.169	-21.948	208.084	0.00020838	0.0010187	0.00013678	1355.3	4.1471e-06	3.927e-06	1359.7	366.09	3.6414e-06	4.6894e-06	421.27	137.03	119.53	40.999	4.2374e-06	51.207	0.00074543	0.00085715	0.0002378	1364.8	9.1514e-06	9.2958e-06	1368.3	371.87	9.2279e-06	9.2964e-06	426.57	140.64	122.5	42.085	9.3423e-06	52.403	243.439	23.123	5.039	-48.700	61.518	81.748	-48.522	-43.760	182.070	104.355	-44.462	-39.734	-39.137	-35.017	126.626	-35.612	-8191	255	
45944.121	1	1	0	0	0.26775	0.16716	0.19462	0.14166	0.10021	0.078703	0.21904	0.1392	0.38989	0.19149	0.1745	0.37145	0.21709	0.18582	0.23441	0.11597	-2.3229	-2.6958	-3.2375	-2.6521	-2.8896	-3.1917	-2.6917	-3.3708	-2.7375	-2.5479	-3.4938	-2.775	-3.025	-3.1917	-2.2854	-3.1937	121.884	235.210	268.333	-6.133	244.446	219.848	-38.378	204.446	261.863	87.681	226.986	167.518	203.376	237.175	68.630	283.149	0.00013569	0.00037986	0.00012133	1355.7	2.6293e-06	3.7889e-06	1357.4	366.43	2.9928e-06	7.241e-07	422.67	137.13	119.81	41.02	4.406e-06	51.271	0.00075719	0.00085557	0.0002385	1365.3	9.3173e-06	9.3429e-06	1368	372.82	9.2478e-06	9.4185e-06	427.76	140.63	122.65	42.1	9.3995e-06	52.413	242.801	67.023	10.089	-48.628	83.398	126.933	-48.384	-43.742	105.924	25.766	-44.467	-39.703	-39.137	-35.110	117.186	-35.852	-8191	255	
45944.219	1	1	0	0	0.22068	0.19378	0.096258	0.17317	0.094628	0.13307	0.18795	0.35012	0.14113	0.21958	0.038961	0.22258	0.31895	0.39913	0.09674	0.21179	-2.5208	-2.4458	-3.3146	-2.8583	-2.8083	-3.1667	-2.6104	-3.3667	-3.1104	-2.6396	-3.3812	-2.6562	-2.8375	-3.3792	-2.2458	-3.2396	129.418	174.221	41.418	267.048	127.298	31.122	202.020	237.279	210.407	64.471	-29.463	-33.515	220.981	280.411	232.708	212.766	0.00016166	0.00016026	0.00017286	1358.3	4.9072e-06	6.6439e-06	1356.2	368.79	1.0576e-06	5.8679e-06	421.59	137.5	119.9	41.135	3.8746e-06	51.33	0.00075871	0.00087691	0.00024467	1366.6	9.3084e-06	9.4906e-06	1368.5	373.23	9.1495e-06	9.4033e-06	427.81	140.86	122.85	42.193	9.3857e-06	52.429	232.208	69.527	71.649	-48.651	128.589	116.512	-48.267	-43.812	115.982	118.558	-44.473	-39.529	-39.038	-34.829	69.659	-35.602	-8191	255	
45944.340	1	1	0	0	0.26398	0.013139	0.24251	0.1107	0.1408	0.078783	0.35374	0.069416	0.10362	0.27089	0.27592	0.17664	0.25074	0.20903	0.20862	0.17167	-2.5771	-2.375	-3.2479	-2.7771	-2.6396	-3.4229	-2.6854	-3.1333	-2.9854	-2.225	-3.4667	-2.8438	-2.6646	-3.3646	-2.3042	-3.0875	191.383	27.441	63.402	-44.712	167.964	220.523	265.240	93.739	159.783	121.502	264.591	179.152	289.872	275.420	-7.888	241.111	0.00014667	0.00080679	0.00013146	1355.1	2.8582e-06	7.3815e-06	1359.2	367.23	1.1908e-06	5.1519e-06	422.52	137.09	119.85	41.136	4.5584e-06	51.162	0.00075223	0.00087573	0.00023632	1365.6	9.3528e-06	9.5412e-06	1370.6	372.75	9.3483e-06	9.6522e-06	427.64	140.64	122.65	42.174	9.3181e-06	52.424	221.237	49.977	25.688	-48.780	118.024	88.756	-48.292	-43.852	129.804	103.234	-44.553	-39.437	-39.154	-35.026	109.739	-35.727	-8191	255	
45944.434	1	1	0	0	0.13296	0.13992	0.19088	0.28363	0.14475	0.17531	0.42552	0.18653	0.25849	0.22944	0.078137	0.20802	0.16963	0.17151	0.15496	0.13275	-2.8396	-2.2833	-3.2875	-3.0104	-2.5229	-3.2271	-2.7792	-2.9375	-3.1604	-2.4083	-3.3625	-2.8729	-2.7354	-3.5438	-2.6479	-3.0062	230.503	209.726	88.477	260.003	100.491	105.824	264.012	246.147	153.765	69.098	-34.879	209.526	192.290	168.222	90.337	290.018	0.00015859	0.000352	0.00021969	1351.8	3.5206e-06	3.1791e-06	1358.9	365.63	3.4406e-06	5.3976e-06	421.86	137.2	119.71	41.099	7.0592e-06	51.32	0.00074936	0.00086304	0.00024156	1363.6	9.2298e-06	9.4228e-06	1368.8	371.84	9.4347e-06	9.4918e-06	427.32	140.71	122.53	42.089	9.4356e-06	52.402	239.847	61.305	56.226	-48.648	59.802	54.092	-48.567	-43.905	137.439	62.868	-44.496	-39.609	-39.153	-34.969	113.681	-35.528	-8191	255	
45944.508	1	1	0	0	0.21256	0.30609	0.30731	0.26512	0.022397	0.10861	0.097459	0.17706	0.18677	0.11045	0.17221	0.23815	0.23545	0.13846	0.20495	0.14615	-2.8333	-2.4333	-3.1417	-3.1833	-2.5542	-3.1875	-2.7458	-2.8146	-3.3396	-2.3937	-3.2146	-3.1396	-2.4688	-3.4229	-2.7604	-2.7438	39.672	273.995	-2.082	263.579	149.948	-24.111	294.844	234.438	36.334	246.998	172.587	226.409	254.652	271.393	31.709	239.915	0.00017864	0.00047068	0.00018766	1355	1.6096e-06	5.94e-06	1354.8	368.45	8.213e-07	4.8179e-06	422.98	137.05	119.85	41.153	4.8498e-06	51.194	0.00074366	0.00086906	0.00024297	1365.5	9.3043e-06	9.3951e-06	1367.1	372.85	9.3599e-06	9.4192e-06	427.69	140.72	122.64	42.191	9.1892e-06	52.382	230.526	18.347	38.892	-48.606	201.244	66.662	-48.616	-43.626	98.451	86.430	-44.198	-39.718	-39.066	-35.175	114.623	-35.706	-8191	255	
45944.602	1	1	0	0	0.082186	0.13642	0.065506	0.14246	0.1268	0.043235	0.08945	0.13491	0.13158	0.21061	0.1144	0.17514	0.22235	0.04612	0.1414	0.21237	-3.0375	-2.5146	-2.9813	-3.2583	-2.4479	-3.2125	-2.8604	-2.6792	-3.4562	-2.4896	-2.9875	-3.325	-2.4792	-3.2646	-2.7646	-2.6333	64.648	58.469	-2.839	-14.025	71.695	149.248	199.107	-39.787	158.907	95.267	294.674	5.808	236.482	268.193	284.175	12.865	0.00020225	0.00078472	0.00011043	1352.4	2.7774e-06	7.8975e-06	1354.8	366.83	4.8758e-06	2.061e-06	421.56	137	119.61	41.037	6.3728e-06	51.176	0.00074538	0.0008526	0.0002377	1363.7	9.1415e-06	9.5528e-06	1368.3	372.04	9.2565e-06	9.4298e-06	426.78	140.67	122.46	42.111	9.3603e-06	52.333	228.657	28.590	48.510	-48.626	68.425	95.465	-48.594	-43.764	106.530	110.753	-44.439	-39.684	-39.130	-34.908	121.023	-35.512	-8191	255	
45944.699	1	1	0	0	0.07516	0.13233	0.21743	0.17179	0.21352	0.18155	0.14572	0.20323	0.12024	0.12599	0.22971	0.23929	0.093665	0.14869	0.15029	0.21846	-2.8312	-2.5229	-2.8542	-3.5021	-2.4354	-3.1833	-3.2292	-2.6604	-3.1937	-2.5979	-2.9729	-3.2438	-2.5312	-3.4125	-3.0125	-2.6312	268.212	200.440	185.350	250.391	45.863	-30.417	227.390	258.998	-17.042	90.842	-7.406	-30.708	235.681	268.392	211.916	282.464	0.0001575	0.00067989	0.00021323	1351.8	2.9806e-06	6.0529e-06	1356.2	367.22	2.763e-06	9.4152e-06	421.99	137.11	119.83	41.176	3.1365e-06	51.315	0.00075365	0.00086708	0.00024189	1363.3	9.2862e-06	9.332e-06	1367	371.93	9.2092e-06	9.4279e-06	427.42	140.6	122.38	42.161	9.1595e-06	52.379	226.959	35.832	10.884	-48.399	169.082	73.112	-48.394	-43.785	137.055	71.242	-44.247	-39.557	-39.110	-35.080	45.744	-35.629	-8191	255	
45944.816	1	1	0	0	0.18811	0.17784	0.31366	0.11454	0.097521	0.16496	0.077263	0.25009	0.18056	0.11036	0.31444	0.15881	0.065675	0.22143	0.21945	0.1725	-2.8458	-2.5146	-2.6437	-3.3771	-2.3417	-2.9583	-3.1958	-2.6292	-3.2979	-2.8229	-2.7729	-3.3167	-2.6146	-3.1854	-3.0583	-2.525	155.093	149.447	-48.369	294.541	242.594	-22.314	2.654	186.869	24.588	10.942	208.915	253.679	219.349	-3.578	275.120	203.279	0.00014249	0.00016967	0.00015318	1357	6.9629e-06	4.429e-06	1357.2	367.37	4.8304e-06	6.6043e-06	420.13	137.57	120.02	40.967	2.7177e-06	51.126	0.00074866	0.00086039	0.00023802	1365.1	9.1993e-06	9.2629e-06	1366.9	372.11	9.1672e-06	9.3147e-06	426.51	140.69	122.45	42.116	9.0503e-06	52.306	234.055	43.666	73.504	-48.592	160.623	122.358	-48.343	-43.798	138.010	93.573	-44.399	-39.510	-39.119	-34.841	103.155	-35.494	-8191	255	
45944.914	1	1	0	0	0.095786	0.059228	0.17111	0.14645	0.32085	0.078209	0.17707	0.24416	0.13066	0.15451	0.17389	0.29388	0.10019	0.088553	0.21574	0.20617	-2.875	-2.6354	-2.5479	-3.5542	-2.4313	-3.025	-3.3229	-2.4271	-3.2479	-2.9813	-2.4896	-3.3958	-2.6958	-2.8979	-3.3479	-2.4979	192.995	112.166	-1.065	277.050	174.180	-14.709	229.233	-38.964	247.837	-12.225	-54.092	289.061	208.984	-24.879	178.540	251.450	0.00016402	0.00057241	0.00016673	1351.1	4.4211e-06	6.3492e-06	1358.1	366.62	3.744e-06	8.1675e-06	421.15	137.52	119.48	41.215	4.4527e-06	51.38	0.00074226	0.00083946	0.00023912	1362.3	9.1744e-06	9.2891e-06	1365.8	371.69	9.1775e-06	9.153e-06	426.96	140.64	122.34	42.171	8.9987e-06	52.441	230.659	67.719	24.316	-48.498	110.112	49.755	-48.349	-43.797	101.925	77.260	-44.235	-39.411	-39.295	-34.923	101.954	-35.585	-8191	255	
45945.012	1	1	0	0	0.22712	0.11895	0.1919	0.10821	0.13595	0.15741	0.1421	0.1429	0.1776	0.088085	0.16224	0.083864	0.20442	0.15845	0.20601	0.27569	-2.7979	-2.8146	-2.4875	-3.4625	-2.7812	-2.8063	-3.3958	-2.5104	-2.975	-2.9792	-2.5792	-3.4	-2.8417	-2.8625	-3.2479	-2.7979	33.363	170.782	-20.819	91.432	-40.341	180.430	239.573	234.346	170.914	192.055	-31.192	272.587	-27.720	278.702	270.136	227.189	0.00013865	0.00044682	0.00016486	1352	5.1524e-06	6.3175e-06	1356.9	366.05	3.6388e-06	4.7016e-06	420.47	137.15	119.65	41.025	7.0421e-06	51.228	0.00072645	0.00084552	0.00023093	1363.6	8.9767e-06	9.3115e-06	1366.8	371.41	9.0797e-06	8.9355e-06	426.35	140.73	122.29	42.051	9.0111e-06	52.372	229.584	30.606	30.769	-48.446	118.180	99.109	-48.367	-43.694	110.645	44.925	-44.306	-39.489	-39.148	-34.912	107.507	-35.816	-8191	255	
45945.105	1	1	0	0	0.17826	0.08143	0.17982	0.15299	0.11795	0.046885	0.087	0.20072	0.26718	0.11472	0.1584	0.16136	0.15484	0.011727	0.16698	0.23393	-2.6875	-3.0833	-2.3854	-3.5687	-2.7729	-2.7604	-3.4875	-2.6167	-2.9146	-3.2958	-2.7083	-3.1604	-2.9292	-2.7167	-3.3333	-2.5521	289.201	7.179	105.764	102.926	189.733	-51.548	209.950	15.941	37.345	114.163	194.011	284.751	271.978	204.838	119.944	-54.299	0.00013148	0.00050077	0.00023798	1353.3	1.2574e-06	3.9643e-06	1360.7	367.9	1.4458e-06	3.1015e-06	420	137.43	119.81	41.207	1.5918e-06	51.196	0.00074045	0.00083641	0.00023904	1363.5	9.0084e-06	9.3627e-06	1368.8	372.64	9.2892e-06	9.3768e-06	426.46	141.02	122.38	42.118	9.3384e-06	52.393	235.854	17.441	35.733	-48.422	121.148	53.703	-48.280	-43.559	100.586	84.631	-44.163	-39.396	-39.208	-34.929	150.354	-35.792	-8191	255	
45945.203	1	1	0	0	0.016389	0.12249	0.19671	0.38677	0.3041	0.17704	0.12315	0.12409	0.16419	0.07299	0.19207	0.2779	0.20735	0.17558	0.16753	0.080418	-2.5563	-3.1729	-2.3979	-3.3542	-2.9542	-2.6229	-3.5833	-2.7479	-2.8396	-3.2333	-2.55	-3.2208	-3.0187	-2.5104	-3.3187	-2.7646	172.970	-27.146	233.652	282.045	199.659	155.117	251.914	241.229	-51.996	178.079	12.435	237.510	208.584	237.454	46.706	293.815	0.00019957	0.00045218	0.00020512	1359.7	6.4949e-06	2.8288e-06	1358.8	366.03	3.3003e-06	2.3688e-06	421.99	137.54	119.73	41.266	6.2529e-06	51.14	0.00076052	0.00086802	0.00024638	1366.8	9.3994e-06	9.6274e-06	1372	372.18	9.3707e-06	9.5433e-06	427.79	140.88	122.67	42.16	9.4791e-06	52.427	228.886	34.315	38.080	-48.404	147.376	107.572	-48.276	-43.711	129.699	120.121	-44.501	-39.701	-39.269	-34.725	136.238	-35.647	-8191	255	
45945.301	1	1	0	0	0.46364	0.11965	0.097867	0.26727	0.15269	0.26482	0.25656	0.17826	0.087277	0.12891	0.18501	0.25316	0.17679	0.34369	0.1437	0.021086	-2.3333	-3.275	-2.2458	-3.2292	-2.9542	-2.4521	-3.3625	-2.85	-2.4854	-3.2917	-2.4583	-3.1083	-3.0625	-2.4938	-3.1542	-2.8146	186.588	30.824	-5.569	293.166	26.774	165.945	-44.780	218.374	122.983	38.562	84.641	69.129	259.444	274.604	81.988	267.279	0.00012871	0.00065328	0.00013599	1354.9	3.5754e-06	6.3163e-06	1358.2	365.72	4.1235e-06	5.0368e-06	421.96	137.1	120.01	41.105	3.7826e-06	51.263	0.00076249	0.0008811	0.0002472	1367.4	9.3123e-06	9.6078e-06	1370.9	372.34	9.5967e-06	9.4762e-06	428.23	141.01	122.84	42.173	9.6342e-06	52.456	231.186	7.683	53.019	-48.524	121.981	92.011	-48.321	-43.751	83.835	117.871	-44.407	-39.266	-39.305	-34.936	63.238	-35.482	-8191	255	
45945.418	1	1	0	0	0.10545	0.10263	0.036856	0.3466	0.24603	0.15872	0.13683	0.10405	0.13968	0.13573	0.21614	0.080536	0.21891	0.34924	0.22344	0.23463	-2.3021	-3.3375	-2.5146	-3.2104	-3.1354	-2.4333	-3.3333	-2.9938	-2.5312	-3.2125	-2.6729	-2.9979	-3.2542	-2.5333	-3.2083	-2.9208	138.256	196.892	52.548	255.209	-28.320	286.984	296.281	-20.912	-14.205	94.730	171.482	193.548	33.418	-57.562	284.079	245.661	0.00013317	0.00020294	0.00022753	1355.1	1.694e-06	3.7413e-06	1361.1	367.21	1.8512e-06	6.315e-06	422.93	137.67	119.99	41.162	1.3234e-06	51.353	0.00076556	0.00088825	0.00024682	1367.7	9.5892e-06	9.8379e-06	1373.2	373.24	9.6585e-06	9.6595e-06	428.73	141.01	122.75	42.123	9.7811e-06	52.452	241.833	43.542	26.800	-48.516	116.072	109.376	-48.314	-43.755	34.253	67.850	-44.463	-39.511	-38.901	-35.078	117.261	-35.532	-8191	255	
45945.516	1	1	0	0	0.15452	0.30332	0.097865	0.34447	0.044456	0.24181	0.2832	0.29602	0.1717	0.10784	0.089722	0.13198	0.085904	0.083343	0.087948	0.15123	-2.1958	-3.4729	-2.4417	-2.9229	-3.2417	-2.4729	-3.2354	-2.9375	-2.6417	-3.2708	-2.8708	-2.8479	-3.2771	-2.4958	-3.0667	-3.025	199.004	99.735	79.813	269.052	273.424	256.017	271.834	264.272	-11.879	229.227	-11.264	171.307	204.226	129.754	194.837	220.645	0.00013218	0.000242	0.00020878	1359.2	3.2038e-06	8.006e-06	1369.4	368.03	3.9332e-06	5.7184e-06	421	137.36	119.85	41.202	2.9644e-06	51.373	0.00078788	0.00090709	0.00025098	1370.6	9.6454e-06	9.9681e-06	1375.2	373.12	9.9508e-06	1.0056e-05	427.88	141.13	122.8	42.226	1.002e-05	52.542	230.839	7.477	9.481	-48.458	148.730	91.066	-48.304	-43.713	132.705	100.768	-44.252	-39.549	-39.131	-34.885	112.888	-35.544	-8191	255	
45945.609	1	1	0	0	0.2853	0.022759	0.075933	0.08761	0.15414	0.29187	0.23949	0.18892	0.28419	0.18889	0.19968	0.043337	0.080362	0.14015	0.14756	0.10814	-2.0271	-3.325	-2.7229	-2.6708	-3.1562	-2.5	-3.1458	-3.2292	-2.4896	-3.3875	-2.8354	-2.6458	-3.2562	-2.6458	-2.8979	-3.0896	148.452	15.488	243.440	225.363	68.793	-35.435	258.451	2.950	183.431	102.279	-5.634	-26.507	212.226	287.979	205.405	261.213	0.00014155	0.00046473	0.00012455	1361.4	6.7815e-06	4.2694e-06	1366.5	367.1	2.7807e-06	4.4326e-06	422.45	137.3	119.84	41.086	3.0472e-06	51.119	0.00079561	0.00091289	0.00025842	1370.1	9.7542e-06	1.003e-05	1373.5	373.27	9.7913e-06	9.8874e-06	428.61	140.98	122.83	42.149	9.7396e-06	52.387	236.997	17.205	4.051	-48.258	87.856	135.096	-48.258	-43.796	126.619	115.828	-44.235	-39.560	-39.048	-34.829	102.282	-35.790	-8191	255	
45945.707	1	1	0	0	0.41376	0.32223	0.20912	0.37725	0.1206	0.1847	0.068991	0.20103	0.25375	0.15885	0.27385	0.050098	0.19956	0.033828	0.15984	0.32663	-2.2042	-3.0208	-2.7729	-2.6312	-3.2292	-2.6021	-3.0563	-3.2687	-2.475	-3.2375	-3.0583	-2.6063	-3.4271	-2.7792	-2.825	-3.3625	-27.229	-41.842	-34.934	196.626	85.209	180.710	194.469	271.060	243.229	172.321	209.923	102.046	46.993	-49.541	41.651	270.264	0.00014143	0.00080506	0.0002003	1358.5	5.0326e-06	8.7347e-06	1363.7	366.89	3.7182e-06	6.4852e-06	422.36	137.52	119.98	40.981	5.4348e-06	51.376	0.00078146	0.00089029	0.00025045	1367.2	9.6069e-06	9.7749e-06	1372.2	372.33	9.6595e-06	9.7839e-06	427.87	140.82	122.55	42.054	9.5031e-06	52.48	237.425	31.796	33.289	-48.333	133.790	102.135	-48.343	-43.761	125.672	108.351	-44.440	-39.539	-39.145	-35.013	78.926	-35.548	-8191	255	
45945.801	1	1	0	0	0.11194	0.2785	0.13754	0.14758	0.18304	0.16448	0.19792	0.26679	0.20508	0.07167	0.22402	0.48612	0.17349	0.058103	0.078561	0.17497	-2.1875	-3.0604	-2.9771	-2.5917	-3.5125	-2.8063	-2.8125	-3.4729	-2.3604	-3.0979	-3.2562	-2.4979	-3.3146	-2.9125	-2.5708	-3.3604	286.290	63.127	135.458	273.091	-59.659	128.739	257.070	239.612	22.399	256.091	-59.583	276.498	155.275	6.009	247.571	214.707	0.00013784	0.0006608	0.0001789	1352.5	4.6994e-06	4.5611e-06	1357.8	367.88	1.7505e-06	7.2736e-06	422.4	137.35	119.38	41.15	6.724e-06	51.081	0.00078077	0.00088418	0.00024273	1365.2	9.5261e-06	9.7296e-06	1371	373.42	9.6616e-06	9.647e-06	427.43	140.54	122.49	42.125	9.6567e-06	52.301	240.055	53.797	72.836	-48.319	143.041	76.922	-48.195	-43.785	133.914	96.080	-44.180	-39.470	-39.140	-34.779	130.017	-35.796	-8191	255	
45945.898	1	1	0	0	0.13585	0.046951	0.19371	0.079373	0.1796	0.08248	0.18728	0.35403	0.15377	0.27041	0.12662	0.038039	0.13147	0.17015	0.065997	0.32821	-1.9813	-2.9771	-3.0875	-2.6083	-3.2042	-2.8833	-2.6312	-3.3312	-2.4167	-2.7854	-3.2604	-2.4708	-3.2958	-2.9062	-2.4896	-3.4771	237.820	-17.552	26.177	-46.525	103.882	64.647	224.207	269.722	-29.865	71.639	252.165	-60.742	273.187	258.091	15.040	209.049	0.00016575	0.00049497	9.1185e-05	1358.3	7.0547e-06	4.0837e-06	1362.1	367.64	4.7488e-06	5.4154e-06	421.51	137.1	120.16	40.949	2.9317e-06	51.03	0.00076655	0.00086825	0.00024183	1366.3	9.3788e-06	9.6236e-06	1370.7	372.98	9.4613e-06	9.5158e-06	427.04	140.55	122.59	42.09	9.4126e-06	52.336	228.230	52.822	44.623	-48.237	111.153	72.023	-48.266	-43.753	112.383	74.552	-44.201	-39.264	-39.095	-34.869	106.648	-35.653	-8191	255	
45945.996	1	1	0	0	0.34158	0.1083	0.28174	0.18156	0.16217	0.16204	0.10954	0.12771	0.12943	0.066333	0.29442	0.079962	0.10861	0.28069	0.32867	0.092662	-2.1396	-2.6063	-3.0833	-2.6146	-3.1333	-2.9292	-2.8104	-3.3771	-2.5563	-2.65	-3.275	-2.4938	-3.1917	-3.0583	-2.575	-3.4375	-53.793	-42.898	260.038	220.582	-39.793	-5.971	57.551	226.110	181.779	186.761	262.159	258.507	-5.439	-10.513	126.164	32.626	0.00012293	0.00046832	0.00012362	1355.9	7.0157e-06	7.8151e-06	1361.9	365.89	1.8215e-06	5.8595e-06	422.85	137.37	119.36	41.138	2.9024e-06	51.198	0.00076021	0.0008683	0.00023749	1364.7	9.2921e-06	9.4721e-06	1369.8	371.95	9.5276e-06	9.6045e-06	427.03	140.66	122.39	42.02	9.4451e-06	52.31	231.559	67.789	27.419	-48.274	135.560	74.824	-48.178	-43.626	105.110	79.519	-44.322	-39.463	-39.182	-34.899	74.288	-35.580	-8191	255	
45946.113	1	1	0	0	0.24236	0.19002	0.16377	0.18039	0.15884	0.32958	0.20582	0.2005	0.085071	0.2503	0.13732	0.11898	0.22759	0.27842	0.13085	0.11585	-2.2271	-2.7604	-3.3312	-2.5708	-2.9729	-3.2021	-2.6437	-3.4188	-2.6104	-2.5208	-3.2729	-2.6521	-3.0271	-3.3771	-2.2479	-3.3438	98.715	-45.436	128.878	276.335	133.670	186.164	256.645	190.904	112.700	97.993	-29.144	255.733	264.190	275.391	184.268	61.689	0.00013704	0.00044102	0.0002917	1354.7	2.6362e-06	5.3728e-06	1355.1	367.73	3.7547e-06	4.3026e-06	422.09	136.9	119.5	41.068	3.1164e-06	51.34	0.00075318	0.00086178	0.00024463	1364.7	9.3642e-06	9.4653e-06	1368.9	372.17	9.4257e-06	9.4878e-06	427.89	140.56	122.32	42.047	9.4013e-06	52.358	232.000	19.041	44.760	-48.430	136.278	68.222	-48.276	-43.376	105.332	67.289	-44.314	-39.417	-38.902	-34.796	66.346	-35.494	-8191	255	
45946.211	1	1	0	0	0.24032	0.073221	0.20382	0.21102	0.018402	0.16961	0.26329	0.23664	0.033948	0.10557	0.015366	0.22968	0.091275	0.10901	0.18244	0.094955	-2.45	-2.3771	-3.2313	-2.4667	-2.9146	-3.2021	-2.5021	-3.1375	-2.9542	-2.4667	-3.4042	-2.4833	-2.7938	-3.3208	-2.4	-3.1562	65.586	64.413	35.418	185.148	121.570	269.081	265.754	196.662	232.338	23.589	166.752	-18.017	-56.171	133.308	121.299	-52.064	0.0001574	0.00047417	6.1191e-05	1353.1	4.1405e-06	3.4054e-06	1360.5	366.46	1.9895e-06	4.1267e-07	421.74	136.81	119.43	41.092	4.4217e-06	51.223	0.00076027	0.00086558	0.00024289	1364.4	9.3383e-06	9.4291e-06	1368.4	371.98	9.3195e-06	9.478e-06	427.24	140.41	122.28	42.043	9.2944e-06	52.33	227.142	87.063	21.748	-48.563	101.499	110.798	-48.090	-43.393	152.758	107.520	-44.004	-39.567	-38.902	-34.757	107.840	-35.280	-8191	255	
45946.309	1	1	0	0	0.13361	0.14026	0.25522	0.22498	0.34052	0.077436	0.32419	0.11813	0.1901	0.077312	0.081089	0.28326	0.2841	0.31127	0.16686	0.43644	-2.5854	-2.3333	-3.3667	-2.7333	-2.6583	-3.2438	-2.4437	-3.1396	-3.1896	-2.3604	-3.3583	-2.6479	-2.7562	-3.3312	-2.4417	-3.0438	-10.070	85.968	-53.870	240.235	18.815	37.209	-60.792	288.933	-48.314	147.174	224.582	278.347	-53.530	219.271	189.336	268.730	0.00019393	0.00073041	0.00014967	1351.7	2.3307e-06	1.513e-06	1356.6	365.87	1.026e-06	4.9741e-06	422.06	137.14	119.08	41.114	4.8744e-06	50.836	0.00075848	0.0008651	0.00024237	1362.3	9.2657e-06	9.6623e-06	1368	371.67	9.2637e-06	9.6687e-06	426.89	140.22	122.35	42.016	9.5079e-06	52.284	223.837	61.584	25.977	-48.446	178.609	46.123	-48.260	-43.511	148.160	114.586	-44.136	-39.468	-39.045	-34.899	109.292	-35.128	-8191	255	
45946.379	1	1	0	0	0.11742	0.41682	0.16782	0.17905	0.10993	0.21634	0.25994	0.055198	0.058073	0.092567	0.1653	0.26753	0.14716	0.25086	0.18413	0.21738	-2.6458	-2.2979	-3.1437	-2.85	-2.5542	-3.3583	-2.6271	-2.7833	-3.0208	-2.3771	-3.2229	-2.8271	-2.7125	-3.3417	-2.375	-2.775	292.371	103.955	111.434	-6.410	120.525	130.981	-35.776	291.086	229.937	-33.130	238.103	274.121	155.655	270.599	61.869	267.073	0.00012566	0.00034277	0.00017318	1354.8	3.961e-06	6.1655e-06	1361	366.4	1.4828e-06	2.9909e-06	420.96	136.88	118.68	41.09	4.0358e-06	51.242	0.00075093	0.00087196	0.00023913	1363.4	9.3409e-06	9.396e-06	1367.4	371.44	9.1935e-06	9.451e-06	426.71	140.19	122.09	42.026	9.3652e-06	52.293	236.525	36.740	65.965	-48.491	120.192	80.781	-48.239	-43.407	83.750	94.461	-44.071	-39.409	-39.126	-34.882	104.209	-35.324	-8191	255	
45946.500	1	1	0	0	0.10929	0.14291	0.12495	0.27036	0.17183	0.022083	0.14231	0.21056	0.13036	0.15097	0.048769	0.26444	0.36158	0.39955	0.10796	0.27478	-3.0125	-2.1667	-3.1396	-2.9458	-2.3521	-3.4042	-2.5687	-2.8771	-3.0417	-2.4396	-3.1437	-3.0938	-2.4479	-3.4479	-2.5229	-2.8229	212.286	117.229	278.169	168.253	-61.353	64.251	-41.490	229.273	268.447	-31.684	149.804	298.150	221.281	213.434	270.779	280.943	0.0001645	0.00051849	0.00013567	1354.3	2.5479e-06	3.8245e-06	1358.9	366.4	2.2218e-06	3.9908e-06	420.45	136.99	119.25	40.925	6.9984e-07	51.303	0.00075501	0.00087744	0.00024291	1361	9.3246e-06	9.6318e-06	1366.9	371.91	9.2633e-06	9.7272e-06	426.58	140.29	122.15	41.96	9.3075e-06	52.376	241.372	23.082	54.341	-48.351	103.809	117.249	-48.435	-43.575	165.335	60.549	-44.155	-39.364	-39.049	-34.689	198.157	-35.043	-8191	255	
45946.598	1	1	0	0	0.17576	0.054624	0.13196	0.1242	0.21514	0.13115	0.23211	0.13551	0.14747	0.12299	0.11113	0.042674	0.31584	0.17258	0.14243	0.18533	-3.1063	-2.3375	-3.0375	-3.25	-2.3042	-3.2271	-2.9	-2.5417	-3.3312	-2.3625	-3.0292	-3.0604	-2.6562	-3.3042	-2.7167	-2.8354	28.427	160.441	154.028	252.042	145.038	44.823	253.692	211.806	107.184	-21.118	197.808	132.353	255.567	253.126	45.342	114.950	0.00013235	0.00057949	0.00017837	1351.4	1.8105e-06	7.3619e-06	1355.9	366.39	4.9792e-06	2.4326e-06	421.41	136.53	119.36	40.862	5.2356e-06	51.038	0.00075058	0.00086357	0.00023985	1362.4	9.3542e-06	9.3171e-06	1366.3	371.76	9.212e-06	9.3254e-06	426.29	140.02	122.15	41.945	9.2658e-06	52.295	219.794	34.332	33.681	-48.333	75.335	57.927	-48.335	-43.678	112.498	113.928	-44.013	-39.395	-39.071	-34.653	78.511	-35.234	-8191	255	
45946.691	1	1	0	0	0.24568	0.19299	0.25278	0.17165	0.19276	0.24748	0.2049	0.27595	0.26484	0.15755	0.096057	0.19005	0.53117	0.28146	0.23943	0.23058	-2.8479	-2.5312	-2.9062	-3.1104	-2.3333	-3.3417	-2.9875	-2.7833	-3.1896	-2.525	-3.0667	-3.1896	-2.4354	-3.0604	-3.0479	-2.6688	156.851	179.474	225.585	232.556	277.005	270.579	-60.982	269.857	-45.036	252.782	-5.492	227.744	274.813	246.825	168.871	290.968	0.00014833	0.00052176	0.00017519	1351.8	4.2986e-06	4.5871e-06	1358	365.92	3.0981e-06	6.0839e-06	421.29	136.7	119.26	41.001	3.9953e-06	50.916	0.00074239	0.0008532	0.00023777	1361.5	9.2264e-06	9.3833e-06	1364.8	371.24	9.1569e-06	9.4234e-06	426.29	140.04	121.95	41.985	9.1217e-06	52.198	229.390	20.077	3.696	-48.215	96.959	86.993	-48.203	-43.236	160.254	64.543	-44.105	-39.436	-38.952	-34.682	122.520	-35.403	-8191	255	
45946.789	1	1	0	0	0.39234	0.51222	0.073089	0.21241	0.13832	0.21678	0.13339	0.23075	0.19225	0.15439	0.3176	0.055071	0.19948	0.19817	0.16591	0.36696	-2.9125	-2.4396	-2.7	-3.2604	-2.4146	-3.0521	-3.1542	-2.5333	-3.2646	-2.7833	-2.7417	-3.4042	-2.5042	-2.9604	-3.1083	-2.5792	189.180	149.033	178.747	220.213	28.769	-41.243	241.479	178.063	-15.372	-19.301	235.550	106.161	67.447	249.393	162.403	236.160	0.00012327	0.00045706	0.00018147	1349.3	2.3168e-06	8.3412e-06	1357.6	366.7	7.2735e-07	6.6554e-06	420.69	136.61	119.18	40.877	5.9636e-06	51.18	0.0007528	0.00085626	0.00023689	1361.8	9.2118e-06	9.2785e-06	1365.6	371.03	8.9822e-06	9.2414e-06	426.03	140.04	121.99	41.971	9.1092e-06	52.251	243.325	44.609	8.103	-48.378	89.033	109.702	-48.373	-43.497	76.034	90.308	-44.137	-39.364	-38.892	-34.610	112.587	-35.196	-8191	255	
45946.906	1	1	0	0	0.1707	0.07588	0.094552	0.067186	0.23215	0.082566	0.12114	0.14307	0.14353	0.073116	0.14004	0.20456	0.027753	0.12058	0.16343	0.23017	-2.9625	-2.7167	-2.6271	-3.525	-2.5042	-2.8771	-3.2521	-2.4708	-3.3	-2.8083	-2.5563	-3.3354	-2.8042	-2.8021	-3.2625	-2.5812	-24.964	156.922	267.468	256.475	-22.407	57.787	207.614	253.221	256.935	210.692	237.203	-31.884	60.576	1.541	-51.868	216.505	0.00016866	0.00022664	8.4339e-05	1353.3	3.5359e-06	6.6305e-06	1356.3	366.34	1.1527e-06	7.4614e-06	419.96	136.79	119.54	41.004	5.0892e-06	50.844	0.00073975	0.00084672	0.00023505	1361.3	9.1055e-06	9.2563e-06	1365.8	371.31	9.1242e-06	9.4615e-06	426.3	140.02	122.03	41.99	9.0673e-06	52.191	224.075	59.612	7.526	-48.221	112.419	89.466	-48.000	-43.567	21.606	122.615	-43.991	-39.369	-38.841	-34.506	108.681	-35.150	-8191	255	
45946.980	1	1	0	0	0.20976	0.073722	0.15191	0.19416	0.20904	0.17277	0.25194	0.048207	0.095488	0.16898	0.29491	0.11579	0.27249	0.16107	0.17672	0.21537	-2.6729	-2.9271	-2.4208	-3.45	-2.4833	-2.875	-3.3729	-2.5563	-3.1917	-2.9875	-2.6146	-3.425	-2.7729	-2.7958	-3.2104	-2.4375	113.957	-43.025	-9.613	-0.113	66.523	248.617	189.495	-51.293	224.866	32.678	239.517	184.928	282.760	-32.772	292.165	178.601	0.00016947	0.00049264	0.00016319	1352.3	4.1396e-06	5.4896e-06	1354.9	365.72	4.6753e-06	4.2531e-06	422.57	136.73	119.08	41.023	5.0215e-06	50.885	0.00075158	0.00085534	0.00023743	1362.4	9.0958e-06	9.2554e-06	1365.3	371.08	9.079e-06	9.314e-06	426.45	140.08	122.02	41.982	9.1215e-06	52.21	234.060	25.659	27.268	-48.359	97.362	103.229	-47.934	-43.387	163.739	92.939	-44.371	-39.306	-39.083	-34.759	120.505	-35.441	-8191	255	
45947.098	1	1	0	0	0.29986	0.069114	0.33575	0.15626	0.3007	0.14255	0.13233	0.26059	0.18182	0.16225	0.10238	0.22493	0.20815	0.24611	0.12739	0.077185	-2.7354	-2.7458	-2.3479	-3.3542	-2.4458	-2.575	-3.5292	-2.5625	-3.0042	-3.1646	-2.4167	-3.2938	-2.8729	-2.4542	-3.2021	-2.5646	249.036	270.211	-57.070	264.433	180.135	296.305	199.410	175.740	-5.767	8.237	104.823	279.997	0.500	153.166	127.676	276.911	0.00015148	0.00058553	0.00016625	1352.9	5.1314e-06	5.0998e-06	1355.6	364.48	4.694e-06	6.5719e-06	420.17	137.07	118.84	41.067	8.6136e-06	51.046	0.00073699	0.00083639	0.00023721	1361.4	9.2198e-06	9.1763e-06	1364.5	370.37	9.0792e-06	9.1278e-06	425.69	140.15	121.69	41.953	9.0346e-06	52.217	221.126	49.487	39.028	-48.222	124.835	91.003	-48.033	-43.346	79.875	100.395	-43.913	-39.313	-38.857	-34.662	93.360	-35.193	-8191	255	
45947.195	1	1	0	0	0.088036	0.075268	0.22432	0.42369	0.3473	0.31777	0.30816	0.28933	0.072891	0.14987	0.10309	0.090584	0.039153	0.37949	0.076409	0.062343	-2.5458	-2.9583	-2.4896	-3.4437	-2.8438	-2.5542	-3.3021	-2.5896	-2.7479	-3.3563	-2.3854	-3.4521	-3.1354	-2.5771	-3.2146	-2.8479	-37.819	189.948	93.517	278.185	-41.948	215.619	262.518	-1.249	-41.154	247.678	35.411	203.188	175.880	245.883	274.690	102.298	0.00016859	0.00023989	6.1213e-05	1347.3	3.1494e-06	5.7477e-06	1351.6	364.86	3.0438e-06	2.7683e-06	419.55	136.96	118.99	40.874	6.6501e-06	51.102	0.00072448	0.00083575	0.00023472	1359	9.0821e-06	9.0657e-06	1362.8	369.87	9.0546e-06	9.202e-06	424.99	140.14	121.72	41.948	9.0754e-06	52.127	241.950	56.093	92.083	-48.231	164.392	84.286	-48.144	-43.439	67.285	121.346	-44.037	-39.158	-38.842	-34.575	127.058	-35.303	-8191	255	
45947.293	1	1	0	0	0.080171	0.17059	0.1245	0.13388	0.23593	0.082042	0.27591	0.20725	0.23117	0.15043	0.086185	0.20801	0.19053	0.16649	0.18732	0.23381	-2.3896	-3.1146	-2.4062	-3.2646	-3.1042	-2.3917	-3.4125	-2.8021	-2.6958	-3.1625	-2.4958	-3.2188	-3.0667	-2.5687	-3.1271	-2.6917	274.971	19.126	31.541	176.775	259.366	22.981	215.481	5.271	176.689	-34.673	253.547	211.773	-9.830	0.084	282.254	-49.612	0.00016303	0.00079438	0.00017694	1347.2	4.6301e-06	3.6285e-06	1354.7	363.96	4.6756e-06	5.4958e-06	418.66	136.61	119.14	40.996	7.6084e-06	51.327	0.00073102	0.00082213	0.0002311	1358.5	8.9774e-06	9.0408e-06	1362.4	369.46	9.0708e-06	8.9152e-06	424.66	139.92	121.73	41.944	8.8298e-06	52.239	235.428	48.783	42.215	-48.231	143.398	114.146	-48.074	-43.442	127.297	104.671	-44.142	-38.905	-38.894	-34.329	133.925	-35.239	-8191	255	
45947.387	1	1	0	0	0.23264	0.11459	0.20452	0.33931	0.254	0.10186	0.32917	0.10596	0.2451	0.18175	0.16388	0.20428	0.11191	0.055338	0.09995	0.070333	-2.4917	-3.1312	-2.3125	-3.0854	-3.0854	-2.4813	-3.4354	-2.7667	-2.6688	-3.2438	-2.6208	-2.9729	-3.2896	-2.4729	-3.4313	-3.1562	175.337	-39.436	85.405	294.862	195.992	249.090	191.379	-36.044	225.440	269.211	17.969	-46.698	3.585	1.315	263.870	220.933	0.00012082	0.00070349	0.00020104	1347.6	5.6032e-06	5.0245e-06	1349.5	363.35	1.0935e-06	4.8384e-06	418.87	136.41	119.04	40.847	3.8416e-06	50.908	0.00071819	0.00082332	0.00023231	1357.2	8.7643e-06	9.0526e-06	1359.8	369.19	8.9542e-06	8.8253e-06	424.54	139.62	121.57	41.866	8.8329e-06	52.134	236.128	48.351	37.969	-48.233	94.453	109.071	-48.062	-43.597	202.368	115.908	-43.945	-39.195	-38.945	-34.468	108.356	-35.443	-8191	255	
45947.508	1	1	0	0	0.35348	0.11769	0.25367	0.088424	0.097638	0.17748	0.41647	0.14297	0.063828	0.017999	0.13135	0.087299	0.24035	0.19431	0.19689	0.083486	-2.0271	-3.1208	-2.425	-2.8167	-3.2917	-2.4104	-3.2083	-3.0021	-2.4625	-3.3292	-2.7771	-2.7958	-3.3792	-2.45	-3.1792	-3.0812	236.415	112.159	117.438	273.813	7.262	98.786	208.318	273.245	42.636	259.406	205.356	241.844	104.200	224.836	287.077	-36.366	0.0001684	0.0006388	0.00019346	1346.9	7.5378e-06	4.8374e-06	1352.4	364.62	3.1205e-06	5.5853e-06	417.32	136.46	118.72	40.743	3.5862e-06	50.99	0.00071756	0.00082025	0.00022931	1355.7	8.8416e-06	8.9742e-06	1360.2	368.98	8.8333e-06	8.9885e-06	423.16	139.73	121.52	41.808	8.7631e-06	52.113	220.318	34.536	30.465	-48.193	125.542	116.315	-48.038	-43.157	143.275	105.604	-44.022	-39.177	-39.010	-34.520	128.742	-35.199	-8191	255	
45947.602	1	1	0	0	0.12055	0.050149	0.096437	0.33563	0.061212	0.24349	0.11586	0.17153	0.10666	0.17829	0.065116	0.09429	0.10721	0.15304	0.090397	0.27368	-2.2229	-3.1688	-2.7354	-2.8458	-3.2917	-2.3896	-3.1604	-3.2062	-2.3812	-3.2625	-2.8542	-2.8021	-3.3417	-2.6125	-2.8208	-3.1979	40.236	179.764	66.876	260.105	278.939	163.617	106.805	255.317	116.276	41.393	198.090	254.485	241.672	272.858	71.685	75.881	0.00015751	0.00060705	0.00017307	1345	3.8658e-06	5.5702e-06	1349.3	364.4	4.2022e-06	4.2796e-06	418.49	135.95	118.54	40.862	5.8037e-06	50.942	0.00072576	0.00081515	0.00022719	1355.2	8.8135e-06	8.8802e-06	1359.6	369.25	8.7652e-06	8.9344e-06	424.04	139.56	121.39	41.824	8.8492e-06	52.016	216.458	30.440	5.467	-47.988	166.403	101.563	-48.080	-43.231	122.943	115.747	-43.802	-39.032	-38.557	-34.660	97.777	-34.940	-8191	255	
45947.676	1	1	0	0	0.16797	0.19417	0.027771	0.39149	0.039872	0.15906	0.060646	0.27254	0.2111	0.2739	0.18767	0.09556	0.3609	0.327	0.2833	0.26308	-2.1729	-3.3187	-2.8083	-2.55	-3.2333	-2.6146	-3.1167	-3.2479	-2.55	-3.2729	-2.85	-2.6271	-3.3792	-2.7042	-2.8792	-3.2646	154.818	118.895	-35.054	261.361	156.543	25.087	198.358	215.482	83.540	211.454	186.247	37.267	251.675	232.529	81.013	291.744	0.00014991	0.00062718	0.00019842	1344.5	4.4556e-06	4.2596e-06	1348.8	363.65	2.5986e-06	4.3285e-06	418.36	135.92	118.86	40.749	5.4445e-06	50.798	0.00071837	0.00080862	0.0002252	1353.5	8.6998e-06	8.8778e-06	1356.9	368.57	8.8432e-06	8.9879e-06	423.84	139.34	121.61	41.803	8.7384e-06	52.036	235.659	56.560	-8.984	-48.120	103.092	108.665	-47.820	-43.169	154.135	74.395	-43.923	-39.045	-38.800	-34.425	94.682	-35.446	-8191	255	
45947.797	1	1	0	0	0.19558	0.092189	0.20713	0.29708	0.050972	0.066997	0.24803	0.30296	0.042515	0.15855	0.1018	0.14491	0.092961	0.096514	0.057138	0.22455	-2.2708	-3.0604	-2.9729	-2.4896	-3.3292	-2.575	-2.8375	-3.5	-2.5167	-3.0812	-3.1917	-2.6458	-3.375	-2.7396	-2.6375	-3.525	256.334	29.686	230.401	253.857	195.837	169.239	183.591	177.062	21.186	106.982	-60.380	236.529	245.036	-47.158	159.738	-4.690	0.00015881	0.00041249	0.00015208	1343.4	3.9376e-06	5.7577e-06	1347.2	364.16	3.8072e-06	5.1494e-06	419.15	136.05	118.9	40.762	4.659e-06	51.115	0.00072422	0.00080953	0.00022881	1353.4	8.7476e-06	8.9416e-06	1357.8	369.29	8.7174e-06	8.8925e-06	423.56	139.48	121.66	41.789	8.7511e-06	52.133	229.148	47.611	53.600	-48.011	130.337	90.973	-47.870	-43.447	172.352	67.213	-44.092	-39.158	-38.652	-34.322	62.373	-35.051	-8191	255	
45947.891	1	1	0	0	0.12634	0.23738	0.30324	0.26356	0.038326	0.15666	0.16328	0.13659	0.21457	0.32044	0.25959	0.1047	0.063355	0.095237	0.28548	0.11827	-2.1479	-3.0354	-2.9792	-2.55	-3.2458	-2.7979	-2.7042	-3.4979	-2.5646	-2.8688	-3.3875	-2.4437	-3.3583	-2.8875	-2.5771	-3.3063	108.371	220.135	234.734	285.727	44.867	18.339	-38.431	263.848	122.687	105.257	183.413	8.362	263.536	122.312	146.076	-25.591	0.00013491	0.00058023	0.00014145	1346	3.2207e-06	5.0526e-06	1354.7	363.33	9.6158e-07	5.7198e-06	418.41	136.03	118.54	40.884	1.7965e-06	50.877	0.00071811	0.00082225	0.00022626	1354.1	8.7394e-06	8.8716e-06	1360.4	368.99	8.8123e-06	8.9763e-06	423.1	139.33	121.5	41.837	8.6781e-06	52.064	230.520	26.155	42.387	-48.098	184.346	122.001	-47.949	-43.413	204.631	93.641	-43.880	-39.191	-38.785	-34.327	103.140	-34.999	-8191	255	
45947.988	1	1	0	0	0.1422	0.16683	0.15202	0.29746	0.22877	0.069152	0.20646	0.19551	0.059124	0.29068	0.12581	0.18119	0.13124	0.24891	0.065284	0.20444	-2.2188	-2.7229	-3.2521	-2.6125	-3.1125	-2.8167	-2.8354	-3.3187	-2.6125	-2.6521	-3.4479	-2.3458	-3.2271	-3.1042	-2.6667	-3.2646	239.747	76.086	244.060	258.313	30.595	120.261	109.024	216.153	-0.437	52.337	-23.265	120.912	-38.509	-10.724	275.766	-34.940	0.00017749	0.00052505	0.00024567	1341.4	5.1842e-06	8.3058e-06	1352.1	363.6	1.7314e-06	7.5931e-06	417.24	135.95	119.06	40.953	3.5591e-06	50.923	0.00070896	0.00081317	0.00022317	1351.3	8.6648e-06	8.8674e-06	1360	369.26	8.7282e-06	8.8919e-06	422.55	139.39	121.55	41.865	8.8476e-06	51.986	239.671	48.181	37.666	-47.983	104.900	87.444	-47.775	-43.043	100.390	104.411	-43.723	-39.112	-38.671	-34.716	89.333	-34.970	-8191	255	
45948.086	1	1	0	0	0.47995	0.20335	0.13535	0.22905	0.20845	0.024594	0.16598	0.22512	0.1012	0.10418	0.037411	0.38099	0.061743	0.058421	0.062154	0.17955	-2.2708	-2.575	-3.1833	-2.5729	-2.9625	-3.0542	-2.55	-3.4437	-2.6083	-2.7083	-3.3479	-2.4938	-3.0687	-3.2687	-2.4333	-3.4208	-54.183	-16.884	95.109	-37.453	148.076	269.282	249.091	291.311	184.959	123.639	63.047	-55.365	282.862	-32.987	15.845	198.300	0.00011726	0.00059679	0.00016866	1344.3	4.2014e-06	7.7075e-06	1346.8	363.03	2.8923e-06	2.942e-06	419.53	136.54	118.84	40.78	3.7715e-06	51.219	0.00071523	0.00081521	0.00022449	1353.3	8.5882e-06	8.7747e-06	1357.3	368.56	8.7863e-06	8.8515e-06	423.59	139.45	121.4	41.789	8.8232e-06	52.065	231.491	35.921	70.208	-48.139	128.109	89.573	-47.884	-43.237	123.001	111.758	-44.034	-38.946	-38.742	-34.485	106.004	-34.954	-8191	255	
45948.203	1	1	0	0	0.35815	0.10811	0.091023	0.25782	0.14407	0.2005	0.25575	0.1492	0.049675	0.07151	0.2173	0.10496	0.15671	0.26798	0.09123	0.059686	-2.4896	-2.5125	-3.3042	-2.7083	-2.9333	-3.0896	-2.6063	-3.3146	-2.825	-2.5896	-3.4958	-2.4854	-2.95	-3.2313	-2.2542	-3.2	44.596	15.281	267.920	-47.869	282.645	15.123	-46.432	196.453	25.467	235.122	272.284	286.592	297.591	-21.946	198.311	280.549	0.00015148	0.0005598	0.00018141	1346.7	4.1446e-06	2.8011e-06	1349.8	363.45	1.0553e-06	5.4557e-06	417.16	136.28	119.21	41.076	7.8491e-06	51.03	0.00069852	0.00081345	0.00022454	1354.8	8.6377e-06	8.8616e-06	1357.8	368.49	8.7041e-06	8.8907e-06	423.04	139.5	121.63	41.84	9.0756e-06	52.036	231.449	46.819	19.323	-48.192	115.153	42.899	-47.782	-43.224	157.818	107.663	-43.973	-39.127	-38.504	-34.285	96.966	-35.025	-8191	255	
45948.277	1	1	0	0	0.10352	0.31858	0.096521	0.36722	0.28383	0.18355	0.38969	0.21753	0.063421	0.072105	0.1456	0.17963	0.20831	0.1684	0.17614	0.25622	-2.5625	-2.3875	-3.2417	-2.7396	-2.6583	-3.1375	-2.6583	-3.1833	-2.9125	-2.2771	-3.3937	-2.6458	-2.6729	-3.3479	-2.2917	-3.1354	-42.213	-15.401	219.634	285.210	117.055	103.394	291.766	47.729	-38.911	5.540	212.262	241.021	298.371	260.042	143.770	275.424	0.00014883	0.00078571	0.00012454	1339.1	2.2534e-06	4.8608e-06	1350.7	362.9	2.6465e-06	7.2993e-06	419.49	136.21	118.72	40.847	3.7516e-06	51.137	0.00071748	0.00082905	0.00022721	1352	8.8022e-06	9.073e-06	1359.8	368.49	8.8347e-06	9.0698e-06	423.6	139.4	121.46	41.818	8.9471e-06	52.041	225.726	61.135	28.984	-48.056	122.742	92.072	-47.968	-43.089	149.817	82.433	-43.873	-39.040	-38.492	-34.567	150.114	-35.359	-8191	255	
45948.371	1	1	0	0	0.096222	0.14288	0.27174	0.12135	0.038357	0.12743	0.37257	0.22033	0.075622	0.19173	0.1653	0.16768	0.12973	0.17412	0.12472	0.041873	-2.5187	-2.3854	-3.2375	-2.8875	-2.6771	-3.2354	-2.4729	-3.0396	-3.2271	-2.5396	-3.5021	-2.6229	-2.5021	-3.3146	-2.5229	-2.975	21.931	265.598	23.277	276.587	227.211	266.227	286.477	-8.880	73.628	234.605	226.129	275.761	294.161	178.936	136.173	282.427	0.00015674	0.00067562	0.00020875	1343.5	4.6756e-06	5.977e-06	1349.3	362.28	3.2571e-06	5.8351e-06	419.4	136.3	119	40.825	5.5366e-06	50.941	0.00071662	0.00082322	0.00022541	1354.6	8.8404e-06	9.055e-06	1358.9	368.85	8.8994e-06	9.0369e-06	424.14	139.42	121.46	41.826	9.1056e-06	52.028	238.366	-8.469	50.984	-48.022	104.854	62.701	-47.870	-43.184	174.582	82.942	-44.139	-39.268	-38.653	-34.282	125.271	-34.995	-8191	255	
45948.469	1	1	0	0	0.13831	0.039093	0.18191	0.19253	0.13923	0.022962	0.071808	0.12528	0.36873	0.10546	0.29069	0.17918	0.076629	0.10038	0.33564	0.3089	-2.7833	-2.4646	-3.2042	-2.9083	-2.6583	-3.2333	-2.8896	-2.9396	-3.0167	-2.4229	-3.2208	-3.0687	-2.6188	-3.3688	-2.4708	-2.8875	-31.068	45.591	94.825	268.425	134.386	211.557	271.003	16.241	91.762	65.366	241.164	294.140	253.955	25.198	133.675	225.432	0.00016237	0.0007165	0.00012709	1343	4.2299e-06	5.0763e-06	1353.3	363.92	2.9074e-06	6.255e-06	418.16	136.18	118.62	40.672	5.583e-06	51.053	0.00072318	0.0008286	0.00023238	1354.2	8.8745e-06	8.9802e-06	1360.9	368.75	8.7975e-06	8.9814e-06	423.35	139.51	121.41	41.8	8.8964e-06	52.081	241.401	44.148	28.027	-47.961	121.466	109.035	-48.025	-43.137	122.718	84.060	-43.862	-39.016	-38.491	-34.510	81.328	-35.065	-8191	255	
45948.590	1	1	0	0	0.23329	0.14739	0.090148	0.11879	0.031004	0.21495	0.29153	0.17211	0.034777	0.035542	0.24356	0.18596	0.1385	0.051133	0.27563	0.014513	-2.85	-2.2938	-3.0417	-3.0979	-2.5187	-3.3271	-2.9042	-2.8312	-3.2396	-2.4813	-3.2271	-3.0583	-2.3479	-3.3646	-2.7354	-2.6813	296.818	19.106	136.919	222.039	119.447	-20.323	225.398	245.166	67.533	-26.617	247.745	90.736	181.210	153.043	42.666	269.312	0.00017642	0.00045587	0.00015842	1340.1	6.2024e-06	7.8983e-06	1343	364.31	2.0056e-06	4.8677e-06	419	136.12	118.99	40.787	2.4073e-06	50.878	0.00071457	0.00082679	0.00022879	1351.1	8.8342e-06	8.9573e-06	1358	368.95	8.7389e-06	9.1505e-06	423.76	139.4	121.64	41.825	9.0137e-06	52.058	222.557	7.315	26.193	-48.106	128.903	75.529	-48.009	-43.105	95.935	118.159	-43.683	-39.059	-38.707	-34.315	119.006	-35.046	-8191	255	
45948.684	1	1	0	0	0.097541	0.16266	0.034923	0.35363	0.04323	0.25098	0.23781	0.091379	0.37227	0.26205	0.24279	0.3198	0.14067	0.1283	0.13992	0.19705	-2.8604	-2.4792	-3	-3.3021	-2.5292	-3.1417	-2.9833	-2.6063	-3.3771	-2.6958	-2.8958	-3.2229	-2.5979	-3.3312	-2.8833	-2.5271	125.074	9.042	-48.635	283.928	108.049	76.616	246.904	192.675	-9.138	206.872	224.674	-46.863	-8.540	-4.052	224.072	-33.744	0.00018836	0.00055926	4.0641e-05	1341.9	3.8832e-06	7.8748e-06	1349.6	364.7	3.2054e-06	4.669e-06	417.64	135.89	118.27	40.944	5.0242e-06	51.084	0.00072658	0.00084394	0.00023659	1352.3	8.9374e-06	9.3697e-06	1358.8	369.65	9.1707e-06	9.2802e-06	424.24	139.67	121.55	41.912	9.1926e-06	52.164	234.587	18.939	30.891	-48.005	112.365	88.061	-48.095	-43.153	78.928	70.757	-43.714	-38.909	-38.629	-34.325	110.797	-34.947	-8191	255	
45948.781	1	1	0	0	0.24322	0.19386	0.16337	0.18927	0.23199	0.20658	0.033806	0.184	0.18703	0.23043	0.14567	0.14856	0.17823	0.052618	0.070891	0.27718	-3.1146	-2.4437	-2.6604	-3.4021	-2.3146	-3.0187	-3.1813	-2.6188	-3.325	-2.5229	-2.675	-3.3812	-2.4833	-3.0375	-3.2417	-2.6021	24.696	282.064	20.405	166.923	218.502	73.984	253.508	-55.378	10.965	41.012	252.202	44.328	177.535	69.094	36.919	231.052	0.00014716	0.00082954	0.00014119	1347.2	7.6257e-07	3.4236e-06	1353.5	364.95	3.4143e-06	4.9799e-06	417.72	136.45	119.32	41.01	4.4037e-06	51.007	0.00075303	0.00086336	0.0002375	1356.5	9.2483e-06	9.4013e-06	1363.1	369.81	9.2305e-06	9.4454e-06	424.19	139.95	122	41.965	9.5096e-06	52.16	242.329	46.350	48.232	-47.956	183.526	110.441	-47.847	-43.036	86.810	75.186	-43.825	-38.916	-38.539	-34.337	92.908	-35.141	-8191	255	
45948.898	1	1	0	0	0.18216	0.13865	0.15691	0.20722	0.14833	0.087834	0.22514	0.14473	0.039152	0.16618	0.16855	0.050807	0.13641	0.11284	0.062009	0.19845	-2.8104	-2.5938	-2.6875	-3.3521	-2.2833	-2.85	-3.1354	-2.5542	-3.2042	-2.8604	-2.7771	-3.4542	-2.425	-2.9625	-3.1437	-2.6521	220.622	68.269	154.085	-41.958	4.940	55.614	272.852	-18.141	31.781	45.040	232.223	51.455	261.300	54.882	-4.319	286.889	0.0001709	0.00069983	0.00018914	1346.5	3.9844e-06	4.3071e-06	1346.3	364.27	2.4093e-06	5.773e-06	420.3	136.93	118.58	40.676	3.1335e-06	51.177	0.00075553	0.00086211	0.00023872	1358.6	9.3216e-06	9.5892e-06	1360.9	370.08	9.3485e-06	9.7168e-06	424.74	140.08	121.99	41.916	9.633e-06	52.26	232.371	40.482	65.702	-47.897	63.419	50.939	-47.882	-43.240	130.029	110.960	-43.612	-38.909	-38.612	-34.359	142.406	-35.034	-8191	255	
45948.973	1	1	0	0	0.20385	0.2164	0.05124	0.080521	0.19801	0.26511	0.21439	0.015852	0.043731	0.032936	0.14072	0.10266	0.18922	0.11021	0.10362	0.054649	-2.7208	-2.725	-2.5896	-3.3729	-2.5792	-2.7229	-3.25	-2.5563	-3.2583	-3.0021	-2.5042	-3.4188	-2.5771	-2.7875	-3.4104	-2.5917	90.202	-49.473	92.650	234.870	118.367	193.758	224.406	112.940	19.512	43.247	29.765	158.924	214.288	240.306	-19.338	-60.449	0.00013245	0.00082681	9.7201e-05	1346.7	2.3016e-06	5.4603e-06	1349.8	362.99	3.7039e-06	5.7132e-06	418.34	136.76	119.15	40.979	7.1268e-06	50.992	0.0007671	0.00088512	0.00024898	1358.3	9.5591e-06	9.7322e-06	1362.9	369.54	9.3686e-06	9.6393e-06	425.12	139.96	122.03	41.967	9.6567e-06	52.186	216.618	37.794	1.114	-47.873	197.285	93.639	-47.823	-43.145	102.600	110.511	-43.655	-38.992	-38.632	-34.364	117.563	-35.086	-8191	255	
45949.066	1	1	0	0	0.11324	0.10562	0.10581	0.42381	0.29627	0.089235	0.12738	0.20097	0.10691	0.16893	0.041802	0.25517	0.23311	0.15106	0.16275	0.16662	-2.825	-2.9375	-2.3229	-3.3625	-2.6229	-2.6833	-3.5521	-2.6208	-3.0729	-3.0229	-2.5563	-3.4021	-2.75	-2.6833	-3.125	-2.5354	181.246	33.827	169.127	258.864	138.894	193.677	175.072	279.355	123.132	224.023	289.391	269.199	238.726	239.987	72.591	-16.806	0.00018246	8.3855e-05	7.6923e-05	1349.1	4.2357e-06	3.5804e-06	1355.1	365.81	1.4191e-06	6.1966e-06	419.41	136.72	118.77	40.901	4.1849e-06	50.97	0.00078335	0.00088489	0.00024797	1359.7	9.7299e-06	9.8157e-06	1364.9	370.33	9.5103e-06	9.9269e-06	425.42	140.27	121.88	42.044	9.662e-06	52.266	233.416	-7.624	6.100	-48.002	139.681	132.229	-47.904	-43.380	135.682	78.249	-43.721	-38.851	-38.574	-34.255	101.012	-35.012	-8191	255	
45949.188	1	1	0	0	0.10937	0.18273	0.25279	0.133	0.35282	0.11011	0.085193	0.071381	0.23049	0.15259	0.085544	0.20952	0.084353	0.11297	0.23423	0.19416	-2.4062	-3.1083	-2.4167	-3.5167	-2.9167	-2.5812	-3.5229	-2.5062	-2.8271	-3.0896	-2.6646	-3.3729	-2.8458	-2.6562	-3.3125	-2.8125	242.023	203.360	163.454	122.201	255.655	287.195	15.208	-13.016	211.362	30.940	-23.106	14.382	-59.219	239.117	82.248	228.772	0.00016908	0.00034409	0.00018231	1348.9	6.683e-06	2.7348e-06	1357.1	364.07	3.7203e-06	4.8756e-06	419.23	136.76	119.41	41.011	4.1158e-06	51.079	0.00078934	0.00089795	0.0002559	1360.1	9.6742e-06	1.0062e-05	1367.5	370.74	9.7833e-06	9.936e-06	425.66	140.33	122.09	42.071	9.6623e-06	52.326	231.157	25.581	66.681	-47.871	142.444	88.186	-48.014	-43.070	129.391	90.390	-43.668	-38.833	-38.562	-34.249	141.341	-34.854	-8191	255	
45949.285	1	1	0	0	0.18973	0.20317	0.35236	0.13865	0.25208	0.044225	0.32899	0.20696	0.25109	0.1981	0.1375	0.11775	0.32169	0.10381	0.1084	0.16586	-2.5125	-3.0708	-2.2646	-3.1437	-2.9979	-2.4875	-3.6312	-2.6125	-2.7896	-3.325	-2.4625	-3.2396	-3.2167	-2.4958	-3.3875	-2.6542	35.033	20.997	222.249	-33.873	172.008	205.026	262.673	257.207	149.371	-22.635	-13.415	224.117	-6.669	252.587	183.496	128.745	0.00017259	0.00034248	0.00014977	1351.3	6.2841e-06	6.9165e-06	1359	366.01	1.6928e-06	3.5015e-06	421.08	137.3	119.24	40.935	5.2726e-06	51.293	0.00078843	0.00090928	0.00025445	1361.9	9.6775e-06	1.0134e-05	1368	371.18	9.7801e-06	1.0016e-05	426.47	140.39	122.17	42.067	9.8721e-06	52.406	253.611	28.536	37.629	-48.322	100.471	96.333	-48.374	-43.489	86.459	56.752	-44.114	-39.288	-39.075	-34.689	100.299	-35.547	-8191	255	
45949.383	1	1	0	0	0.095167	0.24512	0.079835	0.11317	0.028509	0.086664	0.35904	0.22586	0.1057	0.19951	0.15226	0.19535	0.11191	0.19187	0.10443	0.22234	-2.2938	-3.2917	-2.4354	-3.2104	-3.1875	-2.4521	-3.4833	-2.8396	-2.6896	-3.2979	-2.7354	-2.8917	-3.1042	-2.6375	-3.1354	-2.95	-8.868	108.870	126.076	271.705	116.789	21.175	248.663	252.835	281.087	248.604	249.389	264.925	-46.735	-56.428	67.378	237.972	0.00014786	0.0002107	0.00020819	1349.9	6.7598e-06	3.8544e-06	1358.9	366.67	6.1719e-07	4.4075e-06	419.88	136.65	119.43	40.98	1.6371e-06	51.218	0.00077681	0.00088693	0.0002548	1363.6	9.5852e-06	9.9648e-06	1368.8	371.26	9.596e-06	9.756e-06	426.06	140.38	122.32	42.081	9.7215e-06	52.354	227.124	46.294	45.361	-48.118	132.607	115.466	-48.196	-43.501	32.616	79.881	-44.137	-39.134	-39.157	-34.629	90.947	-35.366	-8191	255	
45949.500	1	1	0	0	0.11608	0.084566	0.12288	0.2366	0.056554	0.3467	0.12421	0.20287	0.1686	0.22087	0.15884	0.075111	0.017829	0.18708	0.020169	0.11546	-2.1833	-3.2188	-2.5375	-3.1813	-3.0708	-2.3771	-3.1604	-2.8354	-2.3583	-3.4021	-2.6312	-2.8729	-3.4625	-2.3854	-3.2021	-3.0917	226.549	108.669	-47.812	295.792	122.173	62.144	272.116	-42.449	69.781	261.300	173.178	101.028	-19.106	287.048	274.586	262.027	0.00015373	0.00074184	0.00012827	1353.7	5.6633e-06	5.8227e-06	1355.8	364.7	1.1195e-06	7.6234e-06	419.71	136.84	119.74	40.962	1.2479e-06	51.334	0.00078369	0.00089307	0.00024756	1363.6	9.7422e-06	9.7946e-06	1368.1	370.47	9.5709e-06	9.5693e-06	425.96	140.41	122.09	42.025	9.6936e-06	52.334	230.802	16.695	42.509	-48.124	148.399	81.599	-48.197	-43.530	23.799	114.226	-44.053	-39.097	-38.934	-34.538	72.214	-35.635	-8191	255	
45949.574	1	1	0	0	0.013003	0.17516	0.15875	0.4526	0.13676	0.071327	0.34567	0.15703	0.029805	0.14867	0.317	0.22164	0.1173	0.174	0.16956	0.10198	-2.05	-3.2875	-2.6021	-2.6479	-3.0729	-2.1854	-3.2	-3.1917	-2.4208	-3.2792	-2.5854	-2.7687	-3.3688	-2.4667	-2.9042	-3.1125	-28.300	161.975	77.217	-45.093	118.129	-43.206	269.911	53.864	24.678	1.118	256.006	225.472	287.290	-45.972	235.912	192.907	0.00015866	0.00059226	0.00017369	1352.8	4.7517e-06	4.1121e-06	1353.6	365.34	5.1279e-06	3.9137e-06	420.26	136.34	119.65	41.018	6.3329e-06	51.245	0.00079451	0.00089642	0.00025433	1362.3	9.701e-06	9.8553e-06	1366	370.95	9.7475e-06	9.8378e-06	425.46	140.08	122.31	42.056	9.929e-06	52.328	225.974	7.600	22.094	-48.040	140.916	88.480	-48.152	-43.561	127.468	89.269	-44.179	-39.296	-39.043	-34.717	134.393	-35.502	-8191	255	
45949.668	1	1	0	0	0.27785	0.14099	0.11803	0.15986	0.28616	0.083825	0.38691	0.18106	0.13775	0.23076	0.1355	0.1948	0.082612	0.083883	0.2228	0.06258	-2.0812	-3.1542	-2.5771	-2.5354	-3.1042	-2.3625	-3.0563	-3.4	-2.3375	-3.0958	-2.8958	-2.4562	-3.3125	-2.5146	-2.9938	-3.1688	-56.667	159.255	134.044	234.569	147.586	125.516	297.158	286.015	181.984	121.943	54.111	7.917	288.616	164.444	159.308	218.072	0.00015896	0.00064752	0.0001363	1347.4	3.0834e-06	4.331e-06	1358.3	364.92	3.4648e-06	4.3816e-06	418.85	136.79	119.15	41.117	4.0421e-06	50.851	0.00079915	0.00089755	0.00024885	1360.6	9.5113e-06	9.7828e-06	1367.5	370.8	9.6065e-06	9.6431e-06	425.35	140.26	122.1	42.031	9.5925e-06	52.164	236.610	23.336	28.660	-48.257	121.290	28.172	-47.842	-43.575	117.747	44.522	-44.074	-39.327	-38.953	-34.683	90.565	-35.574	-8191	255	
45949.766	1	1	0	0	0.26425	0.10747	0.17008	0.40781	0.18473	0.29116	0.17377	0.2363	0.16754	0.063337	0.1574	0.19116	0.23941	0.10015	0.12958	0.061504	-1.975	-3.1292	-2.8896	-2.7646	-3.3104	-2.6146	-2.9833	-3.2979	-2.3792	-3.0125	-2.9708	-2.7083	-3.2479	-2.9542	-2.775	-3.4667	153.980	278.340	74.477	285.034	261.152	58.539	230.019	289.250	-43.668	-10.376	289.314	253.255	228.226	-58.000	207.331	237.421	0.00017421	0.00061021	0.00013707	1345.5	3.2024e-06	5.8061e-06	1361.3	365.77	1.3138e-06	4.5334e-06	417.67	136.5	119.47	41.027	4.7886e-06	51.31	0.00077422	0.00088884	0.00024717	1360.5	9.5348e-06	9.8264e-06	1368.2	370.72	9.5536e-06	9.7934e-06	425.38	140.24	122.23	42.072	9.6542e-06	52.338	224.402	32.702	38.892	-48.130	97.245	92.413	-48.038	-43.489	107.225	115.398	-44.246	-39.309	-38.840	-34.777	130.307	-35.283	-8191	255	
45949.883	1	1	0	0	0.10661	0.12229	0.19602	0.19793	0.080739	0.095816	0.55837	0.17797	0.062945	0.2627	0.16965	0.24319	0.12285	0.2223	0.21655	0.23661	-2.1125	-3.1292	-3.0229	-2.5396	-3.3375	-2.5625	-2.8896	-3.3354	-2.2854	-3.0167	-3.1875	-2.5812	-3.2479	-2.675	-2.6417	-3.3958	32.653	218.865	85.289	-58.975	224.587	255.553	262.407	125.384	-34.565	233.659	266.040	216.221	-11.443	289.333	128.727	-48.604	0.00015514	0.00041634	0.0001436	1350.2	2.3852e-06	4.6398e-06	1354.9	364.92	1.2321e-06	2.6989e-06	421.08	136.73	119.22	41.022	3.7934e-06	51.144	0.00077288	0.00087548	0.00024551	1360.2	9.4706e-06	9.8968e-06	1369.2	370.54	9.7293e-06	9.7469e-06	425.49	140.34	122.23	42.059	9.8281e-06	52.302	236.103	41.146	46.883	-48.321	114.460	40.015	-48.035	-43.494	153.564	92.234	-44.133	-39.234	-38.764	-34.930	100.949	-35.319	-8191	255	
45949.980	1	1	0	0	0.15102	0.067688	0.081938	0.25987	0.1957	0.063451	0.26648	0.074927	0.30172	0.11793	0.095836	0.23606	0.16001	0.06034	0.25733	0.22097	-2.0187	-2.8917	-3.1458	-2.5708	-3.0812	-2.8187	-2.6896	-3.2979	-2.5146	-2.9125	-3.2875	-2.4021	-3.2875	-3.0333	-2.6729	-3.3854	47.346	161.318	235.367	261.783	6.480	71.353	154.124	-50.897	200.642	285.290	251.549	270.970	211.128	-53.894	10.437	255.310	0.00016072	0.00050028	4.1006e-05	1353.2	4.0216e-06	2.2751e-06	1360.6	366.1	3.3259e-06	6.9261e-06	420.14	136.5	119.13	41.052	2.8704e-06	51.272	0.00078766	0.00090263	0.00025066	1362.5	9.6775e-06	9.9598e-06	1368.7	371.42	9.7213e-06	9.8758e-06	425.8	140.21	122.18	42.091	9.7776e-06	52.396	225.236	49.963	18.900	-48.290	173.420	24.186	-48.081	-43.449	110.406	79.980	-44.175	-39.426	-38.825	-34.767	167.004	-35.234	-8191	255	
45950.078	1	1	0	0	0.20627	0.038687	0.1298	0.15459	0.11548	0.049872	0.21509	0.22718	0.2494	0.25204	0.016764	0.28018	0.32789	0.22446	0.20477	0.095561	-2.2729	-2.7062	-3.1375	-2.6083	-3.0458	-3.0625	-2.4708	-3.3312	-2.5979	-2.7938	-3.4938	-2.3917	-3.1479	-3.175	-2.5062	-3.2417	110.697	134.108	-18.344	223.617	132.404	121.011	282.183	199.203	89.435	258.827	184.871	141.199	265.662	200.290	12.617	143.375	0.00012947	0.00058893	0.00016034	1353.6	1.6309e-06	3.8663e-06	1359.7	365.19	2.6472e-06	5.3551e-06	418.97	136.38	118.91	40.845	2.9463e-06	51.164	0.00079191	0.00088988	0.00024724	1363	9.6754e-06	9.8015e-06	1369	370.92	9.7417e-06	9.8772e-06	425.29	140.22	122.16	42.027	9.7894e-06	52.373	236.344	37.458	32.558	-48.128	149.653	56.462	-48.188	-43.248	153.178	72.090	-44.031	-39.263	-38.810	-34.676	112.635	-35.377	-8191	255	
45950.148	1	1	0	0	0.10203	0.21202	0.25544	0.12287	0.23507	0.25054	0.33129	0.26698	0.04411	0.10883	0.35831	0.13464	0.24388	0.27973	0.15931	0.11519	-2.3688	-2.6521	-3.2667	-2.6333	-3.1271	-3.1833	-2.5854	-3.3042	-2.6646	-2.3729	-3.5646	-2.4896	-2.9333	-3.3646	-2.2208	-3.2854	73.475	47.960	211.920	-58.882	157.582	280.083	239.807	233.144	166.337	-11.765	-44.315	243.357	279.658	258.696	-21.415	52.455	0.00015926	0.00044884	0.00017907	1349.1	4.2505e-06	2.7157e-06	1357.8	365.04	2.4644e-06	4.5214e-06	419.8	136.19	119.23	41.033	4.6273e-06	51.269	0.00078296	0.00090106	0.00024984	1361.5	9.5563e-06	9.6251e-06	1367.5	370.75	9.4358e-06	9.6549e-06	425.33	140.21	122.17	42.033	9.4144e-06	52.44	236.837	24.160	27.609	-48.137	181.230	58.699	-48.024	-43.347	75.934	117.706	-43.962	-38.905	-39.098	-34.676	82.480	-35.196	-8191	255	
45950.270	1	1	0	0	0.22817	0.11786	0.14225	0.26177	0.070702	0.087622	0.1526	0.30074	0.11915	0.2832	0.018437	0.23211	0.16401	0.083665	0.34103	0.15669	-2.4917	-2.325	-3.275	-2.7979	-2.875	-3.1542	-2.4729	-3.2896	-2.7917	-2.5646	-3.3875	-2.8167	-2.7521	-3.2938	-2.4125	-2.9125	295.427	157.076	48.242	292.345	-54.202	83.256	201.092	-60.093	-11.986	266.164	193.580	270.842	-46.104	295.019	238.153	217.651	0.00019567	0.00083377	0.00015125	1350	4.1511e-06	6.7103e-06	1358	364.46	3.0058e-08	6.6903e-06	418.44	136.74	119.07	40.896	2.2244e-06	51.068	0.00076322	0.00087166	0.00024344	1360.4	9.3792e-06	9.662e-06	1367.1	370.34	9.6068e-06	9.7774e-06	424.91	140.27	122.18	42.055	9.6703e-06	52.302	230.720	58.277	54.025	-48.143	89.055	74.055	-48.023	-43.310	242.207	103.949	-43.903	-39.137	-38.957	-34.523	158.051	-34.868	-8191	255	
45950.363	1	1	0	0	0.22261	0.10192	0.28661	0.24317	0.17203	0.16399	0.17735	0.21758	0.10261	0.086504	0.11644	0.30442	0.18794	0.2842	0.025647	0.28785	-2.5625	-2.3812	-3.1146	-2.8375	-2.6708	-3.2792	-2.7167	-3.1292	-3.1042	-2.5708	-3.2396	-2.7438	-2.7354	-3.4125	-2.3792	-2.9688	123.194	253.238	64.834	97.621	138.567	6.816	294.056	246.449	109.462	-17.487	297.386	251.616	227.135	12.125	13.249	-1.954	0.00015554	0.00047045	0.00020753	1346.3	4.4146e-06	9.382e-06	1354.5	364.11	4.4193e-06	4.7291e-06	419.64	136.91	119.38	40.981	4.2007e-06	50.983	0.00076665	0.00090757	0.00024401	1360	9.6412e-06	9.7142e-06	1366.3	370.04	9.4983e-06	9.7428e-06	425.44	140.34	122.18	42.045	9.7139e-06	52.323	221.093	20.780	-0.242	-48.075	126.217	91.918	-48.056	-43.237	88.286	89.425	-44.028	-39.442	-38.820	-34.772	142.737	-35.245	-8191	255	
45950.461	1	1	0	0	0.15541	0.091752	0.24559	0.15217	0.38828	0.099898	0.25635	0.35071	0.13645	0.18487	0.12025	0.12231	0.092797	0.39776	0.17789	0.082456	-2.7771	-2.4354	-3.4437	-2.9562	-2.5854	-3.3125	-2.5979	-2.8187	-3.2417	-2.4917	-3.2396	-2.9688	-2.6188	-3.2313	-2.6312	-2.8417	235.848	245.535	273.864	51.747	178.414	75.767	201.498	257.041	297.787	-25.804	-12.076	63.544	232.018	262.957	86.503	210.949	0.00014311	0.0006659	0.00016624	1352.3	5.5885e-06	4.8497e-06	1356.9	365.68	3.2179e-06	4.1772e-06	421.06	136.74	118.94	40.966	5.7291e-06	50.997	0.00078049	0.00089507	0.00024798	1362.1	9.6638e-06	9.7928e-06	1366.7	370.86	9.6176e-06	9.8808e-06	426.05	140.15	122.06	42.059	9.6576e-06	52.374	231.606	51.509	51.750	-48.214	110.065	85.887	-48.113	-43.175	120.599	82.720	-44.045	-39.309	-38.797	-34.703	96.509	-35.197	-8191	255	
45950.582	1	1	0	0	0.27238	0.21597	0.21283	0.1972	0.17372	0.08173	0.077167	0.34991	0.13175	0.34369	0.037621	0.18716	0.18695	0.16284	0.12571	0.21824	-2.8792	-2.2438	-2.9062	-3.1854	-2.2792	-3.3229	-3.0125	-2.7438	-3.3167	-2.3896	-3.0646	-3.1937	-2.5479	-3.1667	-2.5875	-2.8375	255.670	113.842	83.406	215.519	9.662	163.768	139.434	240.855	88.350	282.032	130.137	93.916	298.402	173.486	274.954	293.041	0.00019925	0.00059694	0.00020832	1350.1	7.5749e-06	8.4231e-06	1359.1	364.6	3.1298e-06	5.5758e-06	419.16	136.79	119.19	41.197	2.1044e-06	51.359	0.00076375	0.00089773	0.00024625	1362	9.5143e-06	9.704e-06	1367.8	370.47	9.3518e-06	9.5882e-06	424.99	140.17	122.1	42.117	9.5886e-06	52.358	235.858	7.488	36.224	-48.186	125.177	76.874	-48.313	-43.269	136.157	86.776	-43.861	-39.188	-38.788	-34.466	122.378	-35.268	-8191	255	
45950.676	1	1	0	0	0.11542	0.082565	0.040254	0.25591	0.18757	0.15695	0.16924	0.30975	0.059085	0.2812	0.085904	0.11445	0.21346	0.14186	0.057571	0.20759	-2.9	-2.3021	-2.8771	-3.1063	-2.4771	-3.2208	-2.9146	-2.7521	-3.3521	-2.4417	-3.0229	-3.0646	-2.6	-3.3167	-2.7021	-2.6146	-39.834	-6.863	270.908	298.443	-5.754	291.753	193.940	239.533	202.037	-43.266	278.971	194.500	243.103	279.467	-51.777	44.170	0.00016276	0.0006241	8.9226e-05	1353.3	2.9706e-06	2.7701e-06	1355.6	363.49	1.8901e-06	4.8704e-06	419.34	136.57	119.53	40.974	2.3481e-06	51.34	0.00077038	0.00089077	0.00024824	1361.2	9.5315e-06	9.7979e-06	1366.5	369.92	9.4839e-06	9.9182e-06	425.41	140.12	122.24	42.043	9.5807e-06	52.436	239.322	62.093	70.837	-48.124	117.591	92.655	-48.055	-43.379	165.319	119.209	-43.962	-39.288	-38.764	-34.540	185.610	-35.099	-8191	255	
45950.773	1	1	0	0	0.17334	0.24995	0.32775	0.13693	0.19678	0.14543	0.11523	0.12135	0.16405	0.21087	0.31636	0.19128	0.22559	0.16914	0.2911	0.28135	-2.9875	-2.5771	-2.7625	-3.3292	-2.5667	-3.1271	-3.05	-2.6271	-3.375	-2.5896	-2.6896	-3.4854	-2.6229	-3.0875	-2.8875	-2.5917	116.424	129.338	-15.753	227.766	-1.880	-59.828	278.525	205.427	-31.821	297.409	227.087	12.592	3.819	250.519	-1.524	-5.821	0.00014214	0.00045948	0.00016008	1348.3	6.4996e-06	2.7588e-06	1354.9	365.31	3.9284e-06	2.8408e-06	418.62	136.37	119.2	40.879	1.5037e-06	51.3	0.00076104	0.00088337	0.00024536	1359.6	9.4313e-06	9.5839e-06	1366	370.51	9.4358e-06	9.6421e-06	424.51	139.88	122.03	41.993	9.3691e-06	52.301	239.742	47.490	25.866	-48.299	109.572	55.104	-48.256	-43.265	167.091	71.878	-43.907	-39.131	-38.878	-34.380	65.607	-35.181	-8191	255	
45950.867	1	1	0	0	0.12509	0.15222	0.28938	0.34861	0.11979	0.26055	0.049086	0.12919	0.19007	0.082226	0.27366	0.33396	0.3067	0.13986	0.16998	0.10402	-2.8625	-2.7354	-2.5417	-3.3958	-2.3729	-3.1104	-3.2542	-2.5271	-3.1458	-2.7604	-2.6375	-3.4354	-2.6208	-3.0312	-3.1208	-2.5833	-24.803	295.652	-11.513	255.897	180.423	-10.824	-42.697	-43.967	240.089	282.804	191.634	212.264	185.246	-21.030	52.255	22.275	0.00020482	0.0007021	0.00014623	1347.1	1.7502e-06	5.9228e-06	1354.3	364.83	1.2665e-06	4.8894e-06	420.98	136.69	119.1	41.088	4.763e-06	51.208	0.00075765	0.00088083	0.00024164	1359.8	9.4498e-06	9.4599e-06	1365.7	369.83	9.1483e-06	9.466e-06	425.51	140.06	121.89	42.064	9.188e-06	52.319	234.520	29.194	22.223	-48.113	198.248	94.531	-47.983	-43.189	172.175	99.095	-43.871	-39.290	-38.770	-34.360	103.792	-35.392	-8191	255	
45950.965	1	1	0	0	0.16646	0.12753	0.1436	0.2352	0.20722	0.07052	0.36477	0.022563	0.13432	0.17163	0.22289	0.36933	0.21766	0.12226	0.06759	0.13221	-2.8021	-2.6688	-2.4354	-3.475	-2.4437	-2.9479	-3.2104	-2.4333	-3.2729	-2.85	-2.5833	-3.35	-2.8167	-2.9042	-3.2396	-2.5458	282.998	122.185	241.939	267.444	243.219	199.182	199.922	34.731	161.712	99.444	154.848	273.802	258.985	88.050	-50.552	197.281	0.00016246	0.00068759	3.5568e-05	1347.4	5.0421e-06	4.495e-06	1357	362.72	3.6403e-06	3.8126e-06	418.68	136.35	119.44	41.07	3.5045e-06	50.959	0.00075322	0.00086377	0.00024276	1360	9.3613e-06	9.5214e-06	1365.1	369.15	9.4515e-06	9.5218e-06	424.72	139.94	122	42.035	9.3014e-06	52.279	227.963	39.810	44.436	-48.219	127.494	89.818	-48.066	-43.481	64.718	80.650	-43.973	-39.062	-38.741	-34.381	86.561	-35.348	-8191	255	
45951.062	1	1	0	0	0.18042	0.1355	0.12397	0.26295	0.10697	0.22694	0.27481	0.28434	0.041876	0.13972	0.13528	0.29305	0.22701	0.24982	0.12385	0.15747	-2.7792	-2.8812	-2.4708	-3.575	-2.4917	-2.8729	-3.2771	-2.4104	-2.8646	-3.0062	-2.45	-3.3979	-2.6583	-2.7667	-3.2375	-2.5	104.638	3.736	132.927	276.014	265.056	238.018	209.726	171.476	260.323	127.803	217.398	224.353	216.026	157.093	36.974	227.897	0.00019511	0.00090829	0.00015817	1351.7	4.4973e-06	5.5241e-06	1355	364.74	2.2124e-06	1.0753e-06	418.15	137.07	118.92	41.089	6.6974e-06	51.327	0.00075716	0.00088041	0.00024119	1359.3	9.3401e-06	9.5183e-06	1364.6	369.66	9.3098e-06	9.222e-06	423.8	140.1	121.89	42.001	9.3645e-06	52.309	230.438	39.840	5.477	-47.953	127.010	82.541	-47.978	-43.323	82.784	251.194	-43.904	-39.383	-38.822	-34.375	112.823	-35.039	-8191	255	
45951.156	1	1	0	0	0.1172	0.10266	0.27507	0.2347	0.15147	0.090479	0.059014	0.35746	0.16462	0.099808	0.18698	0.23098	0.06501	0.30272	0.12346	0.25	-2.7812	-3.1	-2.4	-3.4208	-2.5521	-2.5958	-3.45	-2.6458	-2.6833	-3.1354	-2.575	-3.3646	-2.9	-2.5354	-3.2604	-2.7062	107.416	297.563	260.419	194.306	0.464	-24.036	286.415	256.884	127.248	132.186	221.539	75.002	-42.527	255.347	271.681	249.834	0.00014504	0.00052299	0.00018698	1346.1	4.3633e-06	7.8343e-06	1352.1	363.6	1.779e-06	8.7574e-06	418.94	136.01	119.33	40.847	3.7114e-06	51.201	0.0007541	0.00085308	0.00024113	1358.6	9.2478e-06	9.4984e-06	1363.7	369.64	9.1741e-06	9.3305e-06	424.46	139.92	121.86	41.9	9.1567e-06	52.264	225.343	22.335	39.127	-48.081	108.644	93.512	-48.032	-43.391	181.130	67.783	-43.909	-38.922	-38.828	-34.708	136.622	-35.452	-8191	255	
45951.277	1	1	0	0	0.098725	0.08234	0.36422	0.34256	0.26026	0.14253	0.26779	0.18084	0.11935	0.12673	0.1329	0.079788	0.1565	0.097163	0.092916	0.1439	-2.5312	-3.0854	-2.4333	-3.225	-2.8729	-2.5812	-3.5083	-2.6771	-2.8354	-3.3146	-2.6333	-3.2438	-3.0917	-2.6333	-3.2833	-2.85	187.181	99.384	-19.281	241.731	138.127	237.069	278.618	83.009	118.059	214.469	275.632	233.764	218.075	59.911	295.667	237.689	0.00012661	0.00064015	0.00016299	1348.8	5.4517e-06	5.2937e-06	1356.1	363.42	3.1258e-06	6.5165e-06	418.82	136.07	118.6	41.15	4.8942e-06	51.075	0.00073952	0.00084685	0.00023684	1358.4	9.1228e-06	9.2865e-06	1364.9	368.98	8.9816e-06	9.2033e-06	423.57	139.82	121.58	42.033	9.042e-06	52.248	226.262	24.430	42.437	-48.032	141.438	111.012	-47.741	-43.144	144.046	86.612	-43.865	-38.954	-38.710	-34.315	104.533	-35.053	-8191	255	
45951.375	1	1	0	0	0.096743	0.15556	0.25426	0.13794	0.23279	0.15729	0.22668	0.23812	0.20771	0.23721	0.13434	0.13118	0.25828	0.16016	0.18015	0.14864	-2.2708	-3.2604	-2.2229	-3.2271	-3.1417	-2.625	-3.5125	-2.8937	-2.575	-3.2438	-2.5563	-2.9667	-3.1396	-2.625	-3.2708	-2.8479	227.880	219.289	79.982	-36.467	123.301	140.102	-40.651	224.795	107.148	201.853	27.869	-54.012	265.186	232.999	49.185	-33.087	0.00015168	0.00033241	0.00012039	1347.7	5.8962e-06	3.5619e-06	1358.6	364.43	3.9188e-06	3.3063e-06	417	136.88	119.09	41.006	7.2268e-06	51.088	0.00074397	0.00084343	0.00024003	1355.8	9.241e-06	9.3384e-06	1363.7	368.72	9.1666e-06	9.2585e-06	422.86	139.96	121.68	41.972	9.1777e-06	52.159	239.095	32.305	32.770	-48.114	155.343	14.597	-47.805	-43.358	137.328	104.534	-43.928	-38.827	-38.651	-34.447	80.201	-35.236	-8191	255	
45951.445	1	1	0	0	0.39026	0.20438	0.042091	0.17099	0.21276	0.32584	0.2879	0.18662	0.11575	0.13283	0.13445	0.048532	0.37631	0.042328	0.2082	0.35848	-2.0896	-3.1646	-2.5438	-2.9479	-3.1479	-2.3396	-3.3563	-3.0271	-2.4542	-3.4208	-2.7375	-2.8563	-3.3625	-2.6542	-3.1688	-3.1	178.121	172.713	135.076	213.577	144.088	-40.785	235.397	222.483	-41.676	56.523	71.247	250.044	284.197	151.095	234.610	180.430	0.00011175	0.00026713	0.00016904	1343.4	4.0337e-06	4.3961e-06	1352.8	362.44	4.6179e-06	4.585e-06	417.81	136.09	119.1	40.92	7.832e-06	51.282	0.00074878	0.00085731	0.00023862	1356.1	9.2314e-06	9.6021e-06	1360.6	368.93	9.1663e-06	9.4334e-06	423.62	139.73	121.71	41.923	9.3546e-06	52.194	233.820	28.261	34.501	-47.903	95.626	128.895	-47.850	-43.341	95.204	97.592	-43.765	-38.983	-38.644	-34.611	69.955	-35.053	-8191	255	
45951.543	1	1	0	0	0.065035	0.17538	0.1719	0.11891	0.051107	0.15597	0.2584	0.23872	0.17264	0.16019	0.1006	0.085522	0.10097	0.22157	0.26715	0.21784	-2.2354	-3.1437	-2.6146	-2.9	-3.2042	-2.3792	-3.2979	-3.1396	-2.5625	-3.3417	-2.775	-2.6875	-3.3771	-2.2812	-3.0167	-3.3104	166.224	100.705	45.628	278.175	227.409	38.514	203.691	-35.034	-22.716	17.933	9.498	-46.150	267.157	292.065	217.204	252.156	0.00012805	0.00069941	0.00013846	1348.4	4.2668e-06	4.3524e-06	1352.2	362.36	2.1821e-06	7.0935e-06	419.25	136.23	118.81	40.953	4.0413e-06	51.051	0.00074374	0.00086869	0.00023965	1356.8	9.1252e-06	9.4026e-06	1362.7	368.75	9.1227e-06	9.289e-06	423.3	139.69	121.64	41.913	9.1466e-06	52.167	245.597	21.623	18.001	-48.039	158.937	49.403	-47.797	-43.345	108.892	57.552	-43.989	-39.166	-38.411	-34.295	116.551	-35.302	-8191	255	
45951.660	1	1	0	0	0.24266	0.16166	0.040497	0.49682	0.087851	0.19352	0.51744	0.20429	0.1855	0.28514	0.14637	0.26545	0.26273	0.10192	0.058004	0.3467	-2.0771	-3.1958	-2.6312	-2.7667	-3.2292	-2.4062	-3.1583	-3.3583	-2.2083	-3.2375	-2.6979	-2.7479	-3.3875	-2.4771	-2.7667	-3.1583	-24.333	-12.214	119.964	-60.529	68.443	198.568	187.145	290.634	86.181	235.677	-4.638	179.998	248.174	234.099	239.966	211.211	0.00012873	0.00051451	0.00011278	1344.5	2.5168e-06	6.3328e-06	1353.7	362.76	1.9245e-06	4.7762e-06	417.57	136.01	118.69	40.868	6.6716e-06	50.984	0.00074851	0.00084437	0.00023817	1354.8	9.1725e-06	9.433e-06	1363	368.82	9.3859e-06	9.4606e-06	423.05	139.52	121.54	41.891	9.2065e-06	52.103	233.816	71.382	22.095	-47.962	150.256	82.166	-47.742	-43.285	72.653	80.249	-43.725	-38.994	-38.602	-34.464	123.388	-35.161	-8191	255	
45951.758	1	1	0	0	0.23524	0.40776	0.19593	0.25114	0.17909	0.31615	0.32391	0.12638	0.15412	0.060694	0.28441	0.17324	0.13115	0.13331	0.28569	0.0139	-2.05	-3.3563	-2.9604	-2.6688	-3.1667	-2.6	-3.0958	-3.2021	-2.2667	-3.1292	-3.0021	-2.5646	-3.3292	-2.6146	-2.7188	-3.2333	241.742	257.148	54.877	242.640	50.882	-52.623	244.623	-33.946	153.703	108.497	225.807	103.542	142.492	206.783	271.230	64.403	0.0001642	0.00051691	0.00023664	1345.1	1.1324e-06	7.0001e-06	1355.7	362.79	1.9549e-06	6.2e-06	417.84	136.32	119.13	40.92	3.5246e-06	51.212	0.00076312	0.00086066	0.00024095	1356.3	9.2943e-06	9.4139e-06	1362.6	368.93	9.4234e-06	9.4189e-06	423.67	139.67	121.6	41.9	9.3386e-06	52.165	214.595	5.231	54.630	-47.924	218.420	84.935	-47.696	-43.326	151.262	76.555	-43.786	-39.028	-38.513	-34.306	127.342	-35.081	-8191	255	
45951.852	1	1	0	0	0.055251	0.042439	0.13348	0.23358	0.0836	0.21047	0.33523	0.14487	0.10194	0.1057	0.22104	0.40243	0.072307	0.1798	0.15012	0.24093	-1.9604	-3.0625	-2.9125	-2.6	-3.175	-2.7729	-2.8271	-3.3104	-2.4896	-3.0146	-3.2521	-2.3771	-3.2812	-2.5917	-2.4771	-3.3396	45.767	248.495	108.810	182.876	78.552	16.431	268.045	-48.311	12.553	196.018	261.822	221.822	43.402	187.255	-50.968	285.295	0.00017185	0.00068482	0.00013117	1345.7	2.0859e-06	6.2306e-06	1353.3	364.16	3.9289e-06	8.5696e-06	419.02	136.31	119.04	40.814	6.1259e-06	51.01	0.00075942	0.00085799	0.00024078	1357.6	9.3611e-06	9.4681e-06	1363.8	369.2	9.3578e-06	9.3285e-06	423.47	139.83	121.84	41.891	9.1951e-06	52.157	225.819	57.031	47.302	-47.967	94.594	95.387	-48.062	-43.205	106.991	108.846	-43.856	-38.854	-38.636	-34.259	122.785	-35.159	-8191	255	
45951.949	1	1	0	0	0.25445	0.18474	0.081909	0.1527	0.057736	0.083678	0.13765	0.12263	0.11131	0.19742	0.15348	0.075156	0.21282	0.33644	0.16645	0.1592	-1.9542	-2.8229	-3.2042	-2.6083	-3.0667	-2.7542	-2.9313	-3.3229	-2.6146	-2.8479	-3.3833	-2.6146	-3.3979	-3.1833	-2.5229	-3.3688	21.703	289.932	-32.680	213.161	190.320	196.122	233.327	-27.957	36.338	6.796	-10.318	284.089	212.270	-16.039	101.280	237.833	0.00012027	0.00042154	0.00014055	1348.5	3.3504e-06	5.3927e-06	1353.7	364.01	5.9469e-06	4.6987e-06	418.72	135.63	119.26	41.019	3.8202e-06	50.897	0.00075754	0.00086578	0.00023838	1359.1	9.2996e-06	9.4894e-06	1364.9	369.72	9.4609e-06	9.4334e-06	424.05	139.48	121.98	41.981	9.2509e-06	52.163	230.758	52.495	28.706	-47.894	103.702	48.768	-47.904	-43.109	115.619	38.064	-43.836	-39.004	-38.509	-34.424	66.096	-34.957	-8191	255	
45952.070	1	1	0	0	0.23637	0.3251	0.1622	0.097935	0.16664	0.14378	0.30084	0.059706	0.16108	0.21791	0.37102	0.042706	0.15932	0.15779	0.1815	0.29878	-2.0583	-2.7313	-2.9708	-2.6542	-3.0792	-3.0354	-2.5896	-3.3937	-2.5729	-2.6688	-3.3729	-2.5125	-3.1542	-3.2562	-2.5021	-3.3187	273.177	-43.758	60.329	-34.420	142.511	97.719	214.697	284.703	197.160	11.682	-61.094	-1.635	-40.485	277.048	260.185	10.427	0.0001199	0.00077865	0.00016568	1345.6	6.0226e-06	4.7527e-06	1357.6	364.58	2.9697e-06	9.2869e-06	418.53	136.42	119.33	40.925	1.4926e-06	51.132	0.0007478	0.00085629	0.00023686	1356.8	9.3486e-06	9.4999e-06	1366.4	370.07	9.3117e-06	9.5145e-06	423.49	139.93	121.9	41.934	9.504e-06	52.25	227.637	29.087	55.279	-48.132	92.689	100.592	-47.659	-43.166	123.695	81.189	-43.877	-39.158	-38.582	-34.419	249.097	-34.883	-8191	255	
45952.141	1	1	0	0	0.10104	0.25596	0.12061	0.13678	0.13856	0.12497	0.33441	0.41948	0.16685	0.06861	0.14782	0.12303	0.24527	0.17041	0.31555	0.074685	-2.2479	-2.5563	-3.2	-2.5208	-2.8438	-3.1375	-2.7208	-3.3438	-2.825	-2.5792	-3.5083	-2.4708	-3.0458	-3.0521	-2.5083	-3.2708	-10.168	11.409	112.363	233.006	-53.108	142.593	-52.376	251.397	77.308	202.006	-59.587	95.055	269.518	-32.027	-18.876	161.588	0.0001434	0.00076709	0.00027021	1347	2.7523e-06	4.2537e-06	1353.3	366.56	2.4881e-06	5.2759e-06	418.98	136.58	119.07	41	3.3936e-06	51.02	0.00075174	0.00087321	0.00024017	1357.8	9.254e-06	9.4806e-06	1363.1	370.2	9.3537e-06	9.537e-06	423.77	139.81	121.86	42.013	9.3525e-06	52.257	241.274	33.906	6.770	-48.112	135.928	140.028	-47.913	-43.158	150.852	97.826	-43.695	-39.338	-38.664	-34.363	166.810	-35.151	-8191	255	
45952.262	1	1	0	0	0.14714	0.25533	0.12834	0.3285	0.15463	0.072437	0.16882	0.28312	0.12187	0.13378	0.15026	0.2246	0.14359	0.14136	0.17314	0.23663	-2.5354	-2.4646	-3.2333	-2.7604	-2.7708	-3.225	-2.6312	-3.1417	-2.8792	-2.3958	-3.5146	-2.8396	-2.8833	-3.4354	-2.625	-2.9938	72.952	112.041	185.032	-38.397	294.120	23.525	126.228	283.317	237.223	259.424	218.938	-50.775	242.496	222.818	25.111	152.643	0.00014238	0.00081711	0.00018766	1345.7	3.1051e-06	4.3974e-06	1352.2	362.76	1.8024e-06	5.4807e-06	418.77	137.01	119.28	41.093	7.8528e-06	50.962	0.00075392	0.00085626	0.00024173	1357.6	9.3076e-06	9.4406e-06	1364.2	369.56	9.159e-06	9.4657e-06	424.34	140.07	122.05	41.944	9.2859e-06	52.194	228.707	37.140	55.871	-48.091	180.311	70.310	-47.908	-43.203	130.244	82.823	-43.651	-38.886	-38.579	-34.347	111.797	-35.083	-8191	255	
45952.359	1	1	0	0	0.065622	0.28257	0.095235	0.25345	0.29179	0.11734	0.25862	0.074578	0.19248	0.14239	0.40072	0.21148	0.06369	0.10781	0.19644	0.14176	-2.5771	-2.4542	-3.0708	-2.775	-2.5604	-3.2438	-2.5958	-3.2333	-2.9396	-2.4021	-3.4354	-2.65	-2.6896	-3.4208	-2.5854	-3.0083	82.963	76.552	230.012	259.293	175.255	200.020	250.043	81.266	224.595	145.329	269.498	-26.153	-44.803	-27.510	95.683	247.694	0.00012463	0.0007098	0.00011148	1344	5.3857e-06	7.5072e-06	1358.2	363.96	3.831e-06	2.449e-06	418.68	136.19	118.81	40.944	3.0205e-06	51.208	0.00075064	0.00085127	0.0002417	1356.3	9.2872e-06	9.372e-06	1364.5	369.5	9.19e-06	9.4807e-06	424.5	139.71	121.56	41.962	9.2417e-06	52.232	231.377	19.132	36.750	-48.009	111.880	96.778	-47.960	-43.160	111.050	99.614	-43.777	-39.101	-38.697	-34.441	153.933	-35.219	-8191	255	
#DATA ENDS
