BOXY.EXE: ISS Imagent and Oximeter Data Acquisition Program Version 0.80
Ascii Record File

#ACQ INFORMATION
2  Detector Channels 
16  External MUX Channels 
1  Auxiliary Channels 
5000  Waveform (CCF) Frequency (Hz)
1  Waveforms Skipped 
30  Waveforms Averaged 
1  Cycles Averaged 
16  Acquisitions per Waveform 
10.0806  Updata Rate (Hz) 

#FILE INFORMATION
TRUE -- External MUX Channel results are PARSED.
FALSE -- AC DC and Phase are NOT grouped.
TRUE -- Companion Program Settings File CREATED.
FALSE -- AC data not excluded
FALSE -- DC data not excluded
FALSE -- Phase data not excluded
FALSE -- Auxillary Chn. data not excluded
Tab delimiters

#CALIBRATION STATE
TRUE -- Waveform Calibration Values APPLIED.


#AUX CALIBRATION VALUES
Val Type	aux-1	

Term	1.0000e+00	
Factor	0.0000e+00	


#WF CALIBRATION VALUES
A = Detector Channel
Val Type	A-AC1	A-AC2	A-AC3	A-AC4	A-AC5	A-AC6	A-AC7	A-AC8	A-AC9	A-AC10	A-AC11	A-AC12	A-AC13	A-AC14	A-AC15	A-AC16	A-DC1	A-DC2	A-DC3	A-DC4	A-DC5	A-DC6	A-DC7	A-DC8	A-DC9	A-DC10	A-DC11	A-DC12	A-DC13	A-DC14	A-DC15	A-DC16	A-Ph1	A-Ph2	A-Ph3	A-Ph4	A-Ph5	A-Ph6	A-Ph7	A-Ph8	A-Ph9	A-Ph10	A-Ph11	A-Ph12	A-Ph13	A-Ph14	A-Ph15	A-Ph16	

Term	0.00000e+00	0.00000e+00	0.00000e+00	0.00000e+00	0.00000e+00	0.00000e+00	0.00000e+00	0.00000e+00	0.00000e+00	0.00000e+00	0.00000e+00	0.00000e+00	0.00000e+00	0.00000e+00	0.00000e+00	0.00000e+00	0.00000e+00	0.00000e+00	0.00000e+00	0.00000e+00	0.00000e+00	0.00000e+00	0.00000e+00	0.00000e+00	0.00000e+00	0.00000e+00	0.00000e+00	0.00000e+00	0.00000e+00	0.00000e+00	0.00000e+00	0.00000e+00	0.00000e+00	0.00000e+00	0.00000e+00	0.00000e+00	0.00000e+00	0.00000e+00	0.00000e+00	0.00000e+00	0.00000e+00	0.00000e+00	0.00000e+00	0.00000e+00	0.00000e+00	0.00000e+00	0.00000e+00	0.00000e+00	
Factor	1.00000e+00	1.00000e+00	1.00000e+00	1.00000e+00	1.00000e+00	1.00000e+00	1.00000e+00	1.00000e+00	1.00000e+00	1.00000e+00	1.00000e+00	1.00000e+00	1.00000e+00	1.00000e+00	1.00000e+00	1.00000e+00	1.00000e+00	1.00000e+00	1.00000e+00	1.00000e+00	1.00000e+00	1.00000e+00	1.00000e+00	1.00000e+00	1.00000e+00	1.00000e+00	1.00000e+00	1.00000e+00	1.00000e+00	1.00000e+00	1.00000e+00	1.00000e+00	X	X	X	X	X	X	X	X	X	X	X	X	X	X	X	X	

B = Detector Channel
Val Type	B-AC1	B-AC2	B-AC3	B-AC4	B-AC5	B-AC6	B-AC7	B-AC8	B-AC9	B-AC10	B-AC11	B-AC12	B-AC13	B-AC14	B-AC15	B-AC16	B-DC1	B-DC2	B-DC3	B-DC4	B-DC5	B-DC6	B-DC7	B-DC8	B-DC9	B-DC10	B-DC11	B-DC12	B-DC13	B-DC14	B-DC15	B-DC16	B-Ph1	B-Ph2	B-Ph3	B-Ph4	B-Ph5	B-Ph6	B-Ph7	B-Ph8	B-Ph9	B-Ph10	B-Ph11	B-Ph12	B-Ph13	B-Ph14	B-Ph15	B-Ph16	

Term	0.00000e+00	0.00000e+00	0.00000e+00	0.00000e+00	0.00000e+00	0.00000e+00	0.00000e+00	0.00000e+00	0.00000e+00	0.00000e+00	0.00000e+00	0.00000e+00	0.00000e+00	0.00000e+00	0.00000e+00	0.00000e+00	0.00000e+00	0.00000e+00	0.00000e+00	0.00000e+00	0.00000e+00	0.00000e+00	0.00000e+00	0.00000e+00	0.00000e+00	0.00000e+00	0.00000e+00	0.00000e+00	0.00000e+00	0.00000e+00	0.00000e+00	0.00000e+00	-4.94537e+01	-1.32809e+02	-1.23513e+02	-1.81272e+02	-4.96041e+01	-6.63140e+01	-1.58454e+02	-1.62015e+02	-4.15339e+01	-6.63104e+01	-1.70397e+02	-1.70056e+02	-1.81304e+02	-1.76553e+02	-5.05393e+01	-1.49279e+02	
Factor	1.87085e-05	1.43766e-04	4.24095e-05	1.53419e-01	1.53692e-06	1.72329e-06	1.65314e-01	5.65315e-02	1.29581e-06	1.63815e-06	8.74246e-02	2.87404e-02	2.54357e-02	8.54675e-03	1.52938e-06	1.21105e-02	1.62134e-05	3.95395e-05	1.11172e-05	7.86664e-02	3.62932e-07	4.53557e-07	7.97313e-02	2.91212e-02	3.67586e-07	4.50120e-07	4.36910e-02	1.44261e-02	1.32318e-02	4.45127e-03	3.92718e-07	6.10433e-03	X	X	X	X	X	X	X	X	X	X	X	X	X	X	X	X	



#DISTANCE SETTINGS
A = Detector Channel
A-1	A-2	A-3	A-4	A-5	A-6	A-7	A-8	A-9	A-10	A-11	A-12	A-13	A-14	A-15	A-16	

2.5000e+00	3.0000e+00	2.5000e+00	3.0000e+00	2.0000e+00	3.0000e+00	1.5000e+00	3.0000e+00	3.0000e+00	3.0000e+00	3.0000e+00	3.0000e+00	3.0000e+00	3.0000e+00	1.5000e+00	3.0000e+00	

B = Detector Channel
B-1	B-2	B-3	B-4	B-5	B-6	B-7	B-8	B-9	B-10	B-11	B-12	B-13	B-14	B-15	B-16	

1.0000e+01	1.0000e+01	1.0000e+01	1.4400e+00	1.0000e+01	1.0000e+01	1.5100e+00	1.9400e+00	1.0000e+01	1.0000e+01	1.9900e+00	2.4900e+00	2.4100e+00	2.9000e+00	1.0000e+01	2.9800e+00	




#DATA BEGINS
time	group	step	mark	flag	A-AC1	A-AC2	A-AC3	A-AC4	A-AC5	A-AC6	A-AC7	A-AC8	A-AC9	A-AC10	A-AC11	A-AC12	A-AC13	A-AC14	A-AC15	A-AC16	A-DC1	A-DC2	A-DC3	A-DC4	A-DC5	A-DC6	A-DC7	A-DC8	A-DC9	A-DC10	A-DC11	A-DC12	A-DC13	A-DC14	A-DC15	A-DC16	A-Ph1	A-Ph2	A-Ph3	A-Ph4	A-Ph5	A-Ph6	A-Ph7	A-Ph8	A-Ph9	A-Ph10	A-Ph11	A-Ph12	A-Ph13	A-Ph14	A-Ph15	A-Ph16	B-AC1	B-AC2	B-AC3	B-AC4	B-AC5	B-AC6	B-AC7	B-AC8	B-AC9	B-AC10	B-AC11	B-AC12	B-AC13	B-AC14	B-AC15	B-AC16	B-DC1	B-DC2	B-DC3	B-DC4	B-DC5	B-DC6	B-DC7	B-DC8	B-DC9	B-DC10	B-DC11	B-DC12	B-DC13	B-DC14	B-DC15	B-DC16	B-Ph1	B-Ph2	B-Ph3	B-Ph4	B-Ph5	B-Ph6	B-Ph7	B-Ph8	B-Ph9	B-Ph10	B-Ph11	B-Ph12	B-Ph13	B-Ph14	B-Ph15	B-Ph16	aux-1	digaux	

31435.773	1	1	0	768	0.13489	0.22239	0.3719	0.2035	0.12673	0.04819	0.17539	0.26661	0.099461	0.13339	0.2297	0.33921	0.32894	0.15757	0.13924	0.20018	-2.1312	-2.0708	-3.0187	-2.6063	-2.2917	-3.0208	-2.3063	-2.8396	-2.8833	-2.0604	-3.0729	-2.5354	-2.3812	-3.2562	-2.1083	-2.7417	100.784	115.624	50.410	212.525	241.667	243.387	220.017	194.976	229.048	156.597	-40.709	193.920	214.440	249.464	111.712	158.942	0.0003937	0.00051118	0.0001188	988.95	6.295e-06	2.1804e-06	815.9	380.88	3.0156e-06	5.0026e-06	363.81	153.13	151.99	66.431	8.5437e-06	74.397	0.0039516	0.0087969	0.0024868	1016.2	8.1241e-05	0.00010036	841.48	393.59	8.0919e-05	9.8469e-05	378.52	159.72	158.71	69.215	8.5526e-05	77.691	-84.441	-2.971	-12.280	-96.590	90.432	53.944	-97.523	-91.433	-23.923	60.262	-93.791	-89.832	-88.103	-83.650	28.625	-85.902	-8191	255	
31435.869	1	1	0	0	0.0732	0.22979	0.20338	0.077654	0.20159	0.15279	0.30949	0.17242	0.12087	0.17891	0.072233	0.13739	0.15631	0.38664	0.217	0.04853	-2.5146	-2.2021	-2.8	-2.6583	-2.45	-3.1396	-2.5375	-2.7729	-2.8792	-2.2146	-2.9854	-2.7083	-2.425	-3.0812	-2.3438	-2.4833	219.072	-38.969	23.616	241.570	-42.878	212.338	241.800	221.945	157.133	-101.385	13.972	183.600	-20.054	-109.348	-32.873	-89.202	0.00040175	0.00016882	0.00012844	992.1	7.3069e-06	9.9059e-06	817.05	381.3	4.1523e-06	1.3463e-06	365.19	152.7	152.16	66.488	8.1224e-06	74.411	0.0038554	0.0086976	0.0024348	1017.6	7.9484e-05	9.9921e-05	841.84	394.29	8.0485e-05	9.8668e-05	379.62	159.87	158.84	69.427	8.6926e-05	77.835	-77.649	201.420	-34.259	-96.838	55.669	7.233	-97.698	-91.507	71.396	152.582	-93.840	-90.000	-88.006	-83.626	39.157	-86.187	-8191	255	
31435.967	1	1	0	0	0.09125	0.29688	0.15218	0.31105	0.18744	0.043017	0.33869	0.17323	0.27668	0.26229	0.11018	0.13927	0.10388	0.09942	0.26064	0.18616	-2.5771	-2.0604	-2.8021	-2.8208	-2.075	-2.8833	-2.5521	-2.5958	-3	-2.1771	-3.0625	-2.8333	-2.2375	-3.1688	-2.3937	-2.6813	-50.520	127.885	-25.870	221.396	-37.970	194.460	-72.570	162.708	-75.631	95.533	196.643	198.592	208.253	190.820	136.641	130.735	0.00036254	0.00063645	0.00025267	993.17	8.822e-07	4.8115e-06	818.87	380.08	7.0217e-06	3.2595e-06	365.53	153.27	152.13	66.244	1.3302e-06	74.452	0.0039149	0.0086905	0.0024209	1019.3	8.0678e-05	9.9579e-05	844.95	393.99	8.2188e-05	9.9715e-05	380.3	159.83	158.67	69.25	8.8875e-05	77.776	-85.228	-49.351	-9.280	-96.525	179.888	-18.088	-97.651	-91.390	-4.377	66.026	-93.689	-89.912	-87.918	-83.552	31.438	-86.075	-8191	255	
31436.062	1	1	0	0	0.13515	0.50797	0.23736	0.16312	0.17052	0.13891	0.31405	0.17389	0.095645	0.32976	0.11546	0.23026	0.14407	0.1972	0.042229	0.12427	-2.6229	-2.2458	-2.9604	-2.8667	-2.2479	-2.9188	-2.5833	-2.5938	-3.1333	-2.0812	-2.7667	-2.9562	-2.2229	-3.1229	-2.4458	-2.3583	-101.553	209.093	67.320	226.733	165.909	-66.072	150.497	240.999	47.934	58.707	205.346	-65.155	142.398	194.242	-106.058	205.424	0.00040172	0.00065751	0.00023099	990.97	7.0144e-06	1.1911e-06	816.86	381.31	4.7174e-06	7.8083e-06	362.68	151.89	151.66	66.118	6.1797e-06	73.947	0.0039547	0.0089825	0.0025002	1018.7	8.1771e-05	0.00010133	841.97	393.63	8.3469e-05	0.00010087	378.45	158.89	158.28	69.173	8.923e-05	77.278	-78.041	-34.926	-30.310	-96.537	91.299	-49.607	-97.848	-91.559	73.940	51.028	-93.741	-89.640	-87.993	-83.727	77.426	-86.044	-8191	255	
31436.158	1	1	0	0	0.36486	0.22992	0.33469	0.05937	0.15361	0.25077	0.12174	0.28209	0.1773	0.15327	0.1356	0.29125	0.063061	0.25708	0.1932	0.056198	-2.7208	-2.4396	-2.6729	-3.0229	-2.35	-2.8146	-2.7021	-2.3396	-2.9667	-2.3271	-2.6312	-3.1375	-2.3312	-2.9333	-2.7271	-2.3312	119.768	73.521	34.085	-64.151	-25.966	242.858	192.006	192.538	76.293	58.433	194.188	197.006	64.949	165.041	157.420	163.958	0.00039843	0.00091835	0.00015716	996.71	4.3318e-06	4.9835e-06	817.83	380.68	2.4663e-06	7.3038e-06	362.32	152.14	151.4	66.567	4.427e-06	74.484	0.0039615	0.0088654	0.0024993	1018.9	8.2138e-05	0.00010007	841.45	393.58	8.1825e-05	0.00010016	378.34	159.05	158.29	69.329	8.7599e-05	77.664	-82.373	-17.130	-26.983	-96.768	102.875	17.709	-97.956	-91.440	76.344	19.034	-93.478	-89.829	-88.117	-83.608	89.612	-86.110	-8191	255	
31436.256	1	1	0	0	0.19405	0.45422	0.1534	0.15545	0.21122	0.049801	0.19132	0.29187	0.24616	0.2078	0.15971	0.25124	0.20155	0.38199	0.17113	0.071361	-2.7771	-2.2875	-2.3271	-3.0229	-2.2562	-2.8479	-2.8875	-2.3937	-2.9562	-2.4854	-2.3854	-3.1813	-2.1229	-2.9437	-2.7771	-2.375	38.576	105.000	105.179	203.617	68.297	-100.759	153.127	-67.260	-88.376	-19.114	88.247	215.692	231.410	-106.300	21.697	229.505	0.00038786	0.00039514	0.00017188	991.36	5.3562e-06	4.6246e-06	816.62	380.71	4.1655e-06	8.6377e-07	364.41	153.55	152.11	66.26	6.6099e-06	74.698	0.0039627	0.0089139	0.0025024	1019.7	8.2316e-05	0.00010062	842.05	394.17	8.3336e-05	9.9588e-05	379.75	160.08	158.84	69.345	8.8263e-05	77.897	-83.815	-5.447	-55.328	-96.991	29.840	45.240	-98.090	-91.566	26.370	8.815	-93.548	-89.754	-87.788	-83.649	72.476	-86.326	-8191	255	
31436.373	1	1	0	0	0.21103	0.14092	0.21129	0.12807	0.33313	0.18633	0.1045	0.081725	0.27298	0.21351	0.22504	0.20902	0.22862	0.19126	0.24108	0.41878	-2.5625	-2.5292	-2.3583	-3.1937	-2.1521	-2.7542	-3.0333	-2.4188	-2.8563	-2.6271	-2.4313	-3.0979	-2.4333	-2.75	-3.05	-2.2708	182.681	-60.288	249.398	179.903	-74.413	-103.048	124.657	198.230	149.253	155.295	-83.802	202.000	-44.981	-42.779	55.786	231.092	0.00038773	0.00073432	0.00012562	993.98	1.0707e-05	3.982e-06	818.31	381.9	5.5315e-07	5.9481e-06	363.33	152.77	151.79	66.189	2.4682e-06	74.199	0.0039488	0.0087778	0.0024687	1020.4	8.0516e-05	9.9144e-05	843.05	394.16	8.1253e-05	9.7784e-05	378.62	159.58	158.12	69.084	8.5019e-05	77.365	-84.546	-20.011	-0.106	-96.829	57.983	45.605	-97.760	-91.768	88.697	75.331	-93.724	-89.949	-87.960	-83.679	20.933	-86.181	-8191	255	
31436.471	1	1	0	0	0.11956	0.26231	0.18962	0.31235	0.17355	0.19979	0.1323	0.073788	0.11174	0.209	0.2747	0.068202	0.20887	0.15612	0.17963	0.10408	-2.4813	-2.65	-2.25	-3.1333	-2.3833	-2.6021	-3.0062	-2.2271	-2.8083	-2.7792	-2.4083	-3.1146	-2.6229	-2.6896	-2.9646	-2.2313	8.291	188.623	-96.091	-23.797	91.107	133.976	204.972	-75.106	237.158	-5.478	115.465	121.976	198.748	161.480	11.984	-75.030	0.00041535	0.00049417	6.6951e-05	988.92	8.0358e-06	5.8844e-06	814.99	380.2	7.8895e-06	3.5447e-06	363.59	151.97	151.57	66.22	3.5135e-06	73.906	0.0038634	0.0085122	0.0023727	1015.2	7.8572e-05	9.7024e-05	839.2	392.71	7.8292e-05	9.5168e-05	377.51	159.13	158	69.066	8.2938e-05	77.168	-84.728	-25.265	6.619	-96.822	41.540	35.040	-97.795	-91.724	16.493	30.965	-93.880	-89.994	-88.190	-83.771	48.101	-86.423	-8191	255	
31436.566	1	1	0	0	0.13014	0.010654	0.054915	0.2572	0.087068	0.2214	0.029924	0.27095	0.16026	0.069109	0.28308	0.31699	0.065243	0.094634	0.13677	0.063925	-2.3417	-2.6271	-2.0979	-3.1562	-2.5354	-2.4854	-3.0438	-2.2375	-2.7375	-2.9604	-2.3354	-2.9917	-2.6917	-2.4604	-3.1854	-2.4188	237.776	81.325	69.415	192.697	124.597	50.465	-30.491	129.826	-74.436	61.133	203.194	208.209	-102.559	119.382	182.069	105.117	0.0003629	0.00088412	0.00021259	988.83	1.8081e-06	4.1187e-06	815.31	380.82	2.6386e-06	2.9591e-06	364.35	153.33	151.73	66.291	4.9622e-06	74.142	0.0037459	0.0082628	0.0023395	1016.3	7.5417e-05	9.4716e-05	840.07	393.03	7.7538e-05	9.4364e-05	378.4	160.14	158.36	69.287	8.2789e-05	77.549	-82.414	-18.631	-36.447	-97.141	115.423	57.120	-97.861	-91.605	-1.329	10.808	-93.904	-89.847	-88.163	-83.799	41.683	-86.404	-8191	255	
31436.662	1	1	0	0	0.034649	0.16758	0.1636	0.087284	0.21665	0.094321	0.21106	0.043134	0.11608	0.083654	0.31559	0.17185	0.10627	0.030718	0.12853	0.31901	-2.2917	-3.0042	-2.0458	-3.0667	-2.5312	-2.2333	-3.2271	-2.5083	-2.7521	-2.8521	-2.3521	-3.1125	-2.8063	-2.3896	-3.125	-2.5958	-41.010	-16.802	-103.058	-28.676	233.296	126.887	196.206	169.329	-68.094	133.716	243.939	-80.758	-103.925	57.467	225.992	165.055	0.00032571	0.00091126	0.00023491	989	9.0353e-06	4.807e-06	817.93	379.85	1.5012e-06	1.0153e-05	362.76	153.1	151.42	66.422	2.181e-06	74.71	0.003801	0.0082335	0.0023392	1016	7.6841e-05	9.5778e-05	840.65	392.67	7.8876e-05	9.6266e-05	378.58	160.01	158.19	69.309	8.7153e-05	78.144	-75.642	8.561	-8.425	-96.740	45.582	47.328	-98.107	-91.725	120.074	58.585	-93.975	-90.000	-88.040	-83.918	72.806	-86.170	-8191	255	
31436.758	1	1	0	0	0.084872	0.024092	0.14522	0.17014	0.33637	0.23481	0.15179	0.30368	0.18831	0.28351	0.22133	0.094292	0.49011	0.23173	0.048239	0.30001	-2.1333	-3.0396	-2.0458	-2.9083	-2.6375	-2.3333	-3.1312	-2.5021	-2.5	-3.0854	-2.2396	-2.9229	-2.9104	-2.4104	-2.9771	-2.6333	150.205	43.393	51.107	211.986	-0.554	77.179	-96.306	206.123	10.643	179.831	139.597	-44.468	226.817	171.768	154.239	247.753	0.00037062	0.00063749	0.00016924	985.74	8.7002e-06	9.1875e-06	813.82	378.78	6.0211e-06	3.7853e-06	363.63	152.76	151.28	66.255	3.1074e-06	73.999	0.0039664	0.0086983	0.0024829	1012.8	8.104e-05	0.00010053	839.49	392.02	8.2525e-05	9.8769e-05	377.95	159.7	158.25	69.209	8.8356e-05	77.557	-80.520	-51.232	-15.750	-96.586	119.917	-5.856	-97.912	-91.965	39.689	-10.774	-93.906	-89.960	-88.232	-83.792	24.544	-86.302	-8191	255	
31436.854	1	1	0	0	0.14498	0.063603	0.15766	0.21176	0.026715	0.05231	0.2291	0.22643	0.080709	0.14861	0.10157	0.19299	0.27936	0.20138	0.12795	0.18667	-1.9688	-3.0146	-2.325	-2.9125	-2.7146	-2.1333	-3.0438	-2.6917	-2.3458	-2.9458	-2.2562	-2.7208	-3.0833	-2.4167	-2.9833	-2.6521	200.301	186.460	18.702	-104.932	-4.952	-94.219	141.497	206.914	222.897	-63.660	-49.748	-32.565	-75.072	-84.058	181.122	240.371	0.00038917	0.00048249	0.000122	984.45	3.5429e-06	9.2097e-06	806.93	378.55	3.1593e-06	1.6535e-06	361.31	152.75	151.45	66.188	3.8848e-06	74.539	0.0039845	0.0089104	0.0024998	1012.1	8.1663e-05	0.00010193	835.83	391.96	8.306e-05	0.0001017	377.01	159.86	158.11	69.16	8.8963e-05	77.649	-73.436	-20.057	-35.826	-96.905	61.354	52.626	-97.821	-91.838	177.626	97.684	-93.947	-89.978	-88.035	-83.851	39.515	-86.259	-8191	255	
31436.975	1	1	0	0	0.19749	0.23821	0.30682	0.17645	0.25938	0.13696	0.16298	0.10501	0.17932	0.24316	0.23654	0.21141	0.057396	0.35869	0.31577	0.40062	-1.725	-3.0292	-2.3042	-2.6646	-2.8875	-2.1979	-2.8792	-2.7375	-2.1688	-3.1167	-2.3417	-2.7292	-3.0687	-2.4208	-2.6458	-2.7562	-25.322	154.258	115.037	144.347	189.998	118.055	219.447	54.804	228.291	-58.696	88.806	-96.463	-9.519	-103.180	-15.615	186.290	0.00038225	0.00055855	0.00015272	980.46	5.5667e-06	7.16e-06	811.12	377.45	4.4042e-06	7.3929e-06	362.21	152.74	151.16	66.046	9.7316e-06	74.451	0.0039712	0.0089128	0.0024786	1009.1	8.1256e-05	0.00010045	836.8	390.28	8.2759e-05	0.00010012	377.39	159.68	157.91	68.942	8.771e-05	77.844	-83.507	-39.448	-2.891	-96.686	69.531	40.154	-97.677	-91.738	-20.856	14.281	-93.946	-89.836	-88.193	-83.914	19.846	-86.216	-8191	255	
31437.070	1	1	0	0	0.064745	0.070107	0.13059	0.2166	0.31801	0.17866	0.10701	0.30925	0.27517	0.039	0.18695	0.21978	0.058147	0.39679	0.03446	0.32243	-2.0021	-2.9688	-2.5708	-2.7062	-2.8979	-2.1292	-2.9583	-2.7979	-2.1771	-3.2687	-2.5854	-2.5875	-3.0604	-2.3271	-2.7083	-2.9917	220.567	207.886	196.720	170.437	95.894	129.509	187.181	244.551	-24.512	4.682	228.518	242.450	194.561	-97.551	102.778	222.491	0.00042322	0.0010665	0.00011824	980.15	9.3624e-06	9.2373e-06	809.35	377.8	4.7205e-06	4.5965e-06	363.07	153.36	151.74	66.289	8.3025e-06	75.119	0.003953	0.0087812	0.0024955	1009.3	8.1552e-05	0.00010086	836.77	390.45	8.2871e-05	0.00010117	378.85	160.66	158.41	69.303	8.858e-05	78.411	-80.326	-51.605	-33.559	-96.719	107.605	55.218	-97.655	-91.636	-14.537	44.485	-93.715	-89.943	-88.085	-83.705	63.678	-86.289	-8191	255	
31437.168	1	1	0	0	0.23553	0.11046	0.080304	0.13623	0.18872	0.14621	0.14878	0.2008	0.15167	0.075109	0.29843	0.17715	0.13801	0.11364	0.13387	0.16903	-1.8	-2.9042	-2.3187	-2.4042	-3	-2.1458	-2.7771	-2.8271	-2.0104	-3.0938	-2.7167	-2.3458	-3.1271	-2.4854	-2.6792	-2.8812	65.634	119.110	-58.797	207.437	206.378	46.769	179.052	222.627	196.502	138.661	197.287	-64.490	-56.815	172.867	139.168	203.337	0.00046051	0.00078589	0.00027364	977.85	8.7836e-06	5.8834e-06	813.1	379	6.1116e-06	4.833e-06	364.53	154.24	151.74	66.633	7.6883e-06	75.347	0.0040265	0.0089676	0.0025063	1008.1	8.2965e-05	0.00010313	838.09	391.54	8.3352e-05	0.00010025	379.41	161.24	158.83	69.534	8.7465e-05	78.577	-74.511	-31.303	-5.656	-96.684	24.862	17.767	-97.738	-91.479	22.024	50.344	-93.596	-89.872	-87.847	-83.598	39.243	-86.181	-8191	255	
31437.262	1	1	0	0	0.22557	0.20641	0.20129	0.48799	0.23197	0.38979	0.095276	0.19078	0.14224	0.018879	0.19018	0.16366	0.36683	0.25431	0.33048	0.1406	-1.6833	-2.7542	-2.6396	-2.325	-2.9583	-2.2354	-2.4896	-3.0375	-2.0917	-2.9333	-2.8917	-2.3542	-3.1688	-2.4875	-2.4542	-3.0958	-93.940	217.716	-89.983	204.118	-66.946	-48.008	82.544	234.960	227.922	45.910	192.155	-15.764	-92.613	244.787	12.988	200.555	0.00039989	0.00063383	0.00027198	984.68	1.5309e-06	8.1514e-06	812.69	380.95	1.7634e-06	9.2066e-06	366.05	154.47	152.66	66.792	1.6449e-06	75.612	0.0039784	0.0088558	0.0024554	1011.3	8.0383e-05	9.9416e-05	840.22	393.17	8.1832e-05	9.8699e-05	381.05	161.97	159.64	69.814	8.5717e-05	78.881	-76.546	-2.618	3.899	-96.570	192.325	33.170	-97.453	-91.316	58.563	29.295	-93.817	-89.830	-88.000	-83.851	63.970	-86.396	-8191	255	
31437.359	1	1	0	0	0.11886	0.16114	0.17767	0.41546	0.15583	0.14616	0.2389	0.24047	0.094361	0.097243	0.12809	0.21803	0.16357	0.3716	0.15494	0.17519	-1.7021	-2.8563	-2.5938	-2.1146	-2.9104	-2.2979	-2.4708	-3.1229	-2.3083	-2.8875	-2.8771	-2.3812	-3.1958	-2.5604	-2.2	-3.1417	94.491	-86.568	-9.436	207.847	-20.025	135.338	113.981	148.453	202.944	48.618	219.574	106.215	-108.056	-106.991	29.872	-76.708	0.00044056	0.0004332	0.0002195	985.59	6.6624e-06	9.9455e-06	816.69	380.85	2.8618e-06	8.3881e-06	366.51	155.69	153.04	66.855	6.1643e-06	75.705	0.0038722	0.0085449	0.0023733	1011.9	7.7773e-05	9.6403e-05	842.4	394.02	7.8853e-05	9.4784e-05	381.79	162.21	159.77	69.906	8.2931e-05	79.097	-82.203	-20.269	-37.702	-96.732	84.444	15.235	-97.763	-91.822	77.158	17.763	-93.679	-89.881	-87.861	-83.664	41.849	-86.081	-8191	255	
31437.453	1	1	0	0	0.10796	0.143	0.053097	0.10437	0.10116	0.19442	0.21012	0.22159	0.26377	0.16774	0.1676	0.26046	0.19485	0.17971	0.25762	0.07244	-2.0167	-2.4938	-2.9083	-2.3271	-2.9646	-2.425	-2.325	-3.1937	-2.25	-2.7208	-3.0312	-2.1208	-3.0542	-2.725	-2.2708	-2.9979	-4.936	-72.360	199.644	235.144	240.558	-83.707	-105.407	235.454	-69.477	-38.377	201.068	229.484	166.260	-14.578	-58.285	195.323	0.00038176	0.00057636	0.00014512	984.47	3.7755e-06	6.616e-06	820.3	381.16	1.1811e-06	6.7557e-06	366.93	155.32	153.3	66.946	3.8997e-06	75.689	0.0038066	0.0083352	0.0023271	1011.6	7.6268e-05	9.3847e-05	843.07	394.55	7.7223e-05	9.2721e-05	382.29	162.31	160.02	69.855	8.2234e-05	78.923	-78.950	-34.051	13.195	-96.657	15.637	53.512	-97.636	-91.613	105.360	38.379	-94.179	-89.577	-87.801	-83.686	142.078	-86.356	-8191	255	
31437.551	1	1	0	0	0.17056	0.16901	0.13045	0.31435	0.14892	0.13655	0.16536	0.15678	0.16272	0.19109	0.077767	0.12945	0.058103	0.16188	0.10375	0.17029	-2.0104	-2.6104	-2.7854	-2.3125	-2.9542	-2.7458	-2.1458	-3.2083	-2.2479	-2.4021	-3.275	-2.1854	-3.0083	-2.9313	-2.2208	-3.0458	233.304	-91.227	102.419	195.858	11.556	37.032	192.527	1.588	-46.767	-0.772	-88.105	21.163	228.170	94.807	-97.456	182.253	0.00041642	0.00044285	0.00020386	984.44	3.6474e-06	4.8697e-06	813.05	381.53	3.2814e-06	9.8412e-06	367.48	154.74	153.72	66.939	4.4837e-06	75.711	0.0037166	0.0082507	0.0022915	1010.1	7.5679e-05	9.3738e-05	839.27	393.94	7.7388e-05	9.2532e-05	381	161.82	159.89	69.934	8.278e-05	78.991	-87.126	17.070	-50.365	-96.680	25.662	93.078	-97.563	-91.485	63.147	44.335	-93.947	-89.997	-88.089	-83.881	14.667	-86.414	-8191	255	
31437.646	1	1	0	0	0.19408	0.056239	0.14413	0.12935	0.050371	0.12507	0.15013	0.34308	0.0592	0.14817	0.26142	0.27283	0.081299	0.16735	0.11292	0.24061	-2.1333	-2.2958	-2.8917	-2.2	-2.7417	-2.7208	-2.3792	-3.0708	-2.4437	-2.2438	-3.0604	-2.3292	-2.8271	-2.8083	-2.1896	-3.0479	-102.299	-32.699	192.137	-58.421	195.051	-86.701	199.677	14.891	191.883	142.472	174.488	-89.770	204.812	-49.851	131.132	144.221	0.00037701	0.00060121	0.00019394	984.38	7.9234e-06	3.2785e-06	816.34	381.91	2.7385e-06	6.7835e-06	367.52	155.81	153.97	67.053	4.0408e-06	75.838	0.0037167	0.0082035	0.0022916	1010.6	7.5764e-05	9.3563e-05	839.99	395.02	7.6089e-05	9.072e-05	382.28	162.25	160.14	70.002	8.0374e-05	79.089	-85.627	2.147	-0.968	-96.638	36.003	18.535	-97.678	-91.437	-106.331	63.613	-93.924	-89.908	-87.850	-83.750	18.519	-86.225	-8191	255	
31437.742	1	1	0	0	0.32999	0.1447	0.22272	0.082572	0.16472	0.12697	0.18374	0.27316	0.044877	0.054361	0.2184	0.087964	0.36915	0.033441	0.060708	0.33324	-2.2729	-2.3104	-3.025	-2.3958	-2.3958	-2.9313	-2.3	-3.0667	-2.4437	-2.225	-3.1104	-2.4833	-2.6542	-3.1312	-2.0604	-3.0208	216.821	206.444	127.538	-91.898	216.677	153.215	195.078	189.378	240.676	-49.251	-19.543	235.718	-82.850	85.382	205.022	179.336	0.00042799	0.00037095	0.00017434	988.34	4.3398e-06	7.6128e-06	816.39	384.06	2.6918e-06	4.3902e-06	370.32	155.9	153.61	66.938	8.2916e-06	76.233	0.0036308	0.0079843	0.0022314	1012.4	7.2861e-05	9.0072e-05	841.66	395.17	7.31e-05	8.9597e-05	383.9	162.65	160.26	69.79	7.8183e-05	79.353	-77.930	-62.576	-31.896	-96.586	19.806	26.038	-97.807	-91.577	77.676	47.098	-93.621	-89.686	-87.956	-83.771	40.710	-86.030	-8191	255	
31437.863	1	1	0	0	0.086887	0.09543	0.0511	0.30742	0.10822	0.13308	0.10053	0.40094	0.14417	0.084899	0.096377	0.20093	0.077845	0.15038	0.15107	0.14397	-2.4313	-2.0687	-3.0062	-2.2979	-2.2521	-2.9771	-2.1188	-3.0021	-2.7333	-2.1646	-3.0125	-2.5458	-2.3021	-3.2604	-2.1833	-2.8104	39.576	167.499	131.872	-92.936	-70.613	119.417	-79.283	220.811	20.334	195.585	76.073	247.708	-24.246	-60.286	-48.504	-32.876	0.00042169	0.00085524	0.00026006	987.27	6.6036e-06	7.6797e-06	819.74	382.38	4.8721e-06	1.1302e-06	369.27	155.95	153.77	66.912	5.1071e-06	75.668	0.0035763	0.0078866	0.002195	1012.4	7.2684e-05	8.9618e-05	842.84	395.11	7.3391e-05	8.9819e-05	381.89	162.4	160.29	69.929	7.8423e-05	78.835	-81.854	-48.369	-49.405	-96.822	36.337	32.539	-97.845	-91.444	62.083	-102.800	-93.756	-90.046	-88.047	-83.885	-12.506	-86.011	-8191	255	
31437.936	1	1	0	0	0.19213	0.13842	0.11255	0.055578	0.28135	0.23923	0.30817	0.31688	0.050063	0.21384	0.15578	0.35061	0.16248	0.1038	0.31285	0.17534	-2.5187	-1.9562	-2.9854	-2.6396	-2.0479	-3.0687	-2.1833	-2.7604	-2.8896	-2.1083	-3.2021	-2.4938	-2.425	-3.1083	-2.1646	-2.5854	82.356	166.447	228.484	90.869	149.605	168.826	237.067	233.291	157.713	-23.787	176.832	237.839	227.586	-95.753	8.262	197.802	0.00038811	0.00062614	0.0002904	986.26	8.4793e-06	9.6641e-06	816.72	380.84	5.7508e-06	7.025e-06	367.58	155.73	153	67.101	6.9454e-06	75.93	0.0035949	0.0078597	0.0022195	1010.6	7.3091e-05	8.9045e-05	839.93	394.12	7.418e-05	8.9826e-05	381.53	162.26	159.92	69.941	7.9276e-05	78.952	-85.456	-34.706	3.755	-96.959	54.413	-25.977	-97.840	-91.534	49.257	19.416	-93.723	-89.883	-88.160	-83.728	56.432	-86.025	-8191	255	
31438.055	1	1	0	0	0.14915	0.0079053	0.24388	0.28021	0.1211	0.078212	0.10436	0.32803	0.28554	0.15825	0.067636	0.1736	0.094482	0.18775	0.12219	0.18713	-2.6458	-2.0854	-2.8812	-2.7062	-2.3208	-3.0646	-2.3958	-2.5687	-2.9521	-2.1229	-2.7521	-2.7833	-2.175	-3.1292	-2.4542	-2.5625	19.055	242.212	215.550	163.791	43.563	-99.605	38.571	197.424	19.628	-98.374	165.951	-103.590	222.857	242.241	94.023	142.091	0.00044493	0.00075329	0.0001144	984.17	4.1684e-06	1.1188e-05	816.02	381.15	5.1728e-06	3.4279e-06	367.73	156.7	153.82	67.222	6.3485e-06	75.723	0.003576	0.0078793	0.0022469	1008.8	7.3112e-05	8.992e-05	837.59	393.89	7.4412e-05	8.9904e-05	382.07	162.53	160.07	69.942	7.933e-05	79.095	-82.864	-54.854	-37.888	-96.702	22.998	51.180	-98.033	-91.459	36.865	86.053	-93.834	-89.887	-87.843	-83.799	48.183	-85.958	-8191	255	
31438.150	1	1	0	0	0.4082	0.19882	0.29429	0.10473	0.20273	0.13333	0.1557	0.12901	0.18013	0.24895	0.19271	0.19456	0.36321	0.14858	0.044398	0.22875	-2.6437	-2.2042	-2.7667	-2.6937	-2.3	-2.9458	-2.5792	-2.4958	-2.9729	-2.2229	-2.8063	-2.8667	-2.1333	-3.0625	-2.4375	-2.3979	61.828	121.698	-59.032	-66.851	181.115	133.252	192.007	222.293	108.789	223.339	233.998	-40.291	-90.800	239.201	78.964	-101.158	0.00041765	0.00071375	8.1138e-05	984.7	3.6134e-06	7.4609e-06	816.68	381.68	2.0082e-06	6.3095e-06	370.61	156.06	154.02	67.46	2.5288e-06	76.383	0.0035765	0.0079621	0.0022196	1008.2	7.3254e-05	9.1291e-05	840.68	393.89	7.4898e-05	8.9387e-05	384.46	163.47	160.57	70.246	8.0038e-05	79.76	-84.778	-73.367	-62.554	-96.633	90.154	48.259	-97.829	-91.521	93.124	45.069	-93.824	-89.912	-88.012	-83.468	10.105	-85.952	-8191	255	
31438.246	1	1	0	0	0.11278	0.047599	0.16993	0.037141	0.24016	0.20888	0.098555	0.23059	0.10826	0.15737	0.28212	0.27428	0.10891	0.1224	0.31149	0.16503	-2.4833	-2.0708	-2.4583	-3.1	-2.1479	-3.0062	-2.4958	-2.4375	-2.8708	-2.425	-2.7583	-3.0396	-2.25	-2.9896	-2.4313	-2.2333	84.046	45.421	139.307	172.324	-95.370	59.827	144.342	216.544	-63.434	10.462	186.942	225.155	-28.495	-59.740	141.119	177.645	0.00032852	0.00059397	0.00026689	980.53	7.5229e-06	6.9193e-06	815.85	382.53	5.081e-06	1.2854e-06	369.7	156.99	154.62	67.365	3.2461e-06	76.559	0.0036045	0.0080682	0.0022535	1008.1	7.4396e-05	9.163e-05	841.05	394.82	7.471e-05	9.0137e-05	384.31	163.68	160.71	70.3	8.0956e-05	79.804	-84.441	-19.288	-24.047	-96.737	84.272	34.098	-97.917	-91.716	15.382	9.186	-93.945	-89.947	-88.159	-83.896	97.749	-86.090	-8191	255	
31438.344	1	1	0	0	0.12492	0.047442	0.20458	0.19767	0.20984	0.157	0.15355	0.31773	0.11126	0.15907	0.15827	0.23747	0.13971	0.2026	0.33563	0.22348	-2.7375	-2.2083	-2.4562	-3.1437	-2.1792	-2.7271	-2.8187	-2.3021	-3.1312	-2.4479	-2.4583	-3.0271	-2.15	-2.7854	-2.8083	-2.3958	197.610	91.604	-35.584	240.378	239.232	-87.530	149.490	199.558	8.912	-51.401	132.617	240.674	218.505	218.726	233.166	202.981	0.00041704	0.00071889	0.00017103	979.18	5.9868e-06	6.9496e-06	814.56	379.72	4.063e-06	5.5237e-06	370.71	156.35	153.81	67.34	2.6137e-06	75.807	0.0036855	0.0080778	0.0022976	1004.1	7.5557e-05	9.3905e-05	839.04	393.24	7.6542e-05	9.3257e-05	383.23	163.36	160.24	70.263	8.0486e-05	79.292	-79.710	-61.495	-15.878	-96.847	25.278	2.991	-97.948	-91.689	60.868	35.308	-93.691	-89.981	-88.246	-83.693	41.267	-86.313	-8191	255	
31438.463	1	1	0	0	0.040787	0.056056	0.048357	0.10901	0.045021	0.19114	0.15622	0.28474	0.059898	0.14494	0.097972	0.08495	0.11504	0.39609	0.053566	0.26056	-2.7542	-2.2479	-2.3333	-3.0479	-2.1125	-2.7562	-2.8896	-2.3187	-2.9792	-2.4646	-2.3354	-3.2271	-2.2021	-2.8333	-2.8958	-2.3771	-77.827	14.658	114.434	-8.063	-77.608	106.934	-68.363	208.988	89.646	85.160	211.196	-56.745	125.072	215.911	-33.534	176.661	0.00038103	0.00046548	0.00018099	982.52	9.6139e-06	7.3807e-06	811.28	379.44	4.1919e-06	7.8912e-06	366.75	155.49	153.54	66.71	5.0936e-06	76.161	0.0036747	0.0081904	0.0022789	1006.2	7.5714e-05	9.2585e-05	837.99	392.29	7.5973e-05	9.0485e-05	381.15	162.45	159.54	69.717	8.0967e-05	79.336	-77.426	-29.597	9.894	-96.679	32.547	38.757	-97.718	-91.494	74.575	46.760	-93.586	-89.933	-88.104	-83.753	77.478	-86.221	-8191	255	
31438.559	1	1	0	0	0.15731	0.18521	0.084592	0.20536	0.16865	0.21968	0.10582	0.34085	0.20916	0.17966	0.051001	0.28086	0.036153	0.1016	0.11293	0.18326	-2.5375	-2.3187	-2.1521	-3.1521	-2.1271	-2.4875	-2.9854	-2.2271	-2.7896	-2.4771	-2.2354	-3.0958	-2.3063	-2.6125	-2.8937	-2.3688	223.614	214.704	141.418	-66.475	-61.626	176.762	226.557	224.556	-10.414	-84.418	50.136	212.342	-35.916	200.506	216.733	220.786	0.00045217	0.00089496	0.00010741	982.4	6.6331e-06	4.3553e-06	820.4	379.84	1.6426e-06	1.972e-06	369.03	156.55	154.13	67.135	6.9519e-06	76.467	0.0037041	0.0081024	0.0023165	1006.5	7.546e-05	9.3595e-05	841.42	392.64	7.7716e-05	9.2212e-05	382.62	163.3	160.04	70.083	8.2488e-05	79.82	-84.158	-49.254	-33.092	-97.002	90.318	107.653	-98.093	-91.840	9.349	-7.375	-93.877	-90.111	-88.520	-84.063	-6.630	-86.257	-8191	255	
31438.631	1	1	0	0	0.12958	0.15686	0.091758	0.14949	0.104	0.29474	0.18063	0.27074	0.29788	0.044301	0.18308	0.19155	0.20413	0.31642	0.073711	0.2151	-2.4625	-2.6937	-2.0812	-3.2208	-2.0854	-2.4333	-3.0729	-2.3312	-2.7875	-2.7	-2.0708	-3.0375	-2.3292	-2.5563	-2.7833	-2.3917	7.229	-15.825	-16.319	173.607	-11.036	-62.958	157.204	236.648	107.264	-18.207	151.545	12.548	-90.717	220.209	152.930	229.410	0.00040997	0.00035249	0.00021147	982.27	1.1579e-06	1.0481e-05	814.57	380.04	2.6954e-06	5.581e-06	368.75	156.22	153.54	67.327	3.8871e-06	76.202	0.0037195	0.0082511	0.0023032	1007.2	7.6433e-05	9.339e-05	840.22	392.75	7.7298e-05	9.3055e-05	383.03	163.26	160.12	70.249	8.173e-05	79.549	-88.487	-45.356	1.008	-96.791	197.582	75.719	-98.044	-91.594	2.430	19.893	-93.823	-89.947	-88.023	-83.885	16.562	-86.476	-8191	255	
31438.752	1	1	0	0	0.19925	0.20197	0.30521	0.16139	0.085097	0.19508	0.36115	0.23121	0.092423	0.14453	0.21396	0.042907	0.10585	0.1631	0.084821	0.2432	-2.4021	-2.8854	-2.15	-3.0792	-2.5208	-2.2438	-3.1771	-2.3771	-2.6646	-3.0083	-2.3479	-2.9958	-2.6979	-2.4062	-3.0771	-2.4562	-17.857	248.183	149.476	242.427	-98.194	34.239	91.917	223.880	68.133	-82.192	133.757	169.892	22.715	-73.047	14.655	211.537	0.00040895	0.00060371	0.00028647	979.91	6.3854e-06	6.2732e-06	814.62	381.27	5.2265e-06	4.4517e-06	370.48	157.34	154.32	67.428	8.1741e-06	76.57	0.0036851	0.0080689	0.0023093	1005.7	7.5208e-05	9.3403e-05	839.88	394.06	7.6225e-05	9.1695e-05	383.91	163.99	160.89	70.447	8.155e-05	79.962	-84.879	-35.383	-39.513	-96.779	47.249	77.783	-97.788	-91.700	75.426	23.748	-93.987	-90.019	-88.273	-83.695	45.361	-86.203	-8191	255	
31438.848	1	1	0	0	0.10546	0.26049	0.27008	0.20827	0.13527	0.12269	0.089926	0.12475	0.19682	0.16158	0.12636	0.089318	0.32355	0.30045	0.056262	0.21261	-2.1833	-2.8146	-2.2021	-2.9375	-2.5875	-2.1729	-3.1958	-2.4688	-2.475	-3.175	-2.1521	-3.1021	-2.9292	-2.3729	-2.875	-2.4146	242.799	27.826	143.572	209.244	-66.922	206.097	248.670	90.788	65.085	-30.173	-66.700	-74.281	200.030	222.974	38.833	195.365	0.0004572	0.00022209	0.00015734	980.15	3.2856e-06	6.2867e-06	816.52	381.76	7.5715e-06	5.3e-06	371.74	157.66	154.36	67.615	9.921e-06	77.286	0.0036672	0.0080834	0.0022948	1007.9	7.5069e-05	9.369e-05	842.34	394.83	7.7159e-05	9.2842e-05	385.59	164.73	161.29	70.595	8.3633e-05	80.547	-79.720	-0.088	-7.697	-96.800	60.563	38.442	-97.723	-91.749	66.017	15.393	-93.771	-89.801	-88.211	-83.798	51.903	-86.273	-8191	255	
31438.943	1	1	0	0	0.19334	0.15556	0.18513	0.10263	0.083913	0.098662	0.078371	0.19293	0.12632	0.14406	0.16183	0.21937	0.15884	0.32245	0.2203	0.19161	-1.9896	-3.0979	-2.2521	-3.0042	-2.8917	-2.0958	-3.2583	-2.6479	-2.525	-3.2104	-2.3375	-3.0687	-3.0083	-2.2354	-2.9458	-2.5646	-96.496	202.132	126.777	-69.666	158.082	1.278	57.022	205.622	199.743	205.417	125.388	167.480	246.663	173.402	-2.173	92.483	0.00048055	0.00045408	0.00027483	985.36	1.7465e-06	6.9749e-06	823.39	383.65	1.5638e-06	2.4318e-06	373.19	158.91	154.88	68.017	5.4759e-06	77.451	0.0036975	0.008198	0.0023499	1009.9	7.5786e-05	9.4135e-05	846.46	395.99	7.795e-05	9.3586e-05	387.6	165.86	161.52	70.927	8.3325e-05	80.81	-84.486	-71.502	-4.966	-96.647	31.544	100.397	-97.813	-91.705	34.903	141.298	-94.078	-89.875	-87.877	-83.744	75.471	-86.467	-8191	255	
31439.039	1	1	0	0	0.15551	0.1239	0.2143	0.21422	0.04924	0.26122	0.3065	0.074993	0.19372	0.025189	0.030002	0.41401	0.1725	0.1374	0.203	0.31527	-1.8979	-2.8542	-2.1458	-2.7167	-2.8104	-2.0875	-3.1063	-2.7313	-2.2646	-3.0021	-2.375	-2.7562	-3.0604	-2.1917	-2.8667	-2.7396	-69.432	149.460	62.325	243.932	178.839	-38.661	-79.363	123.934	231.322	220.113	-56.077	-103.109	-2.470	196.634	203.713	125.981	0.000352	0.00042451	0.00014001	985.26	6.4019e-06	5.3369e-06	817.77	382.93	3.0781e-06	9.8247e-06	372.25	159.43	155.19	67.967	4.2021e-06	77.625	0.0037817	0.0082072	0.002317	1009.9	7.6269e-05	9.3884e-05	846.28	396.59	7.7168e-05	9.3223e-05	387.49	165.9	162.16	70.986	8.1895e-05	80.787	-88.378	-64.459	-9.184	-96.767	39.234	11.889	-97.848	-91.554	72.417	20.462	-93.734	-89.804	-87.981	-83.564	87.999	-86.098	-8191	255	
31439.158	1	1	0	0	0.18029	0.14673	0.20025	0.12797	0.13176	0.093529	0.064465	0.15055	0.20808	0.15261	0.17463	0.39441	0.043157	0.088684	0.14802	0.14071	-1.7958	-2.9688	-2.2687	-2.5542	-2.8	-1.9896	-3.0083	-2.8583	-2.3312	-3.05	-2.4354	-2.5125	-2.8667	-2.2958	-2.8229	-2.8396	197.286	-96.451	223.563	228.382	101.528	185.713	82.503	87.196	231.256	156.560	64.270	218.614	161.361	-39.456	24.449	155.755	0.00037466	0.00083866	0.00015498	983.83	2.9264e-06	6.4191e-06	823.61	383.5	4.8502e-06	5.7619e-06	373.76	159.42	156.1	68.135	8.3734e-06	77.729	0.0037226	0.0081674	0.0023353	1010.8	7.5386e-05	9.4727e-05	847.21	397.3	7.728e-05	9.3657e-05	388.63	166.29	162.45	71.17	8.3243e-05	80.964	-83.504	-66.503	9.903	-96.764	27.052	49.616	-97.729	-91.689	5.541	82.450	-93.999	-89.863	-88.010	-83.703	54.467	-86.193	-8191	255	
31439.232	1	1	0	0	0.35799	0.070006	0.023597	0.15912	0.15709	0.12398	0.23085	0.19572	0.28397	0.16827	0.24299	0.2477	0.11603	0.189	0.22175	0.2582	-1.8104	-2.9792	-2.3896	-2.4771	-3.0604	-1.8813	-2.8271	-2.8812	-2.2021	-3.0583	-2.5958	-2.3854	-3.1583	-2.4792	-2.6792	-3.0667	176.942	-65.471	95.052	235.925	232.362	-79.181	-47.785	236.986	-83.761	121.842	169.058	239.914	241.720	196.137	-67.926	213.805	0.00043333	0.00061387	0.00025885	985.67	5.6642e-06	2.3744e-06	823.42	384.01	2.9445e-06	6.8624e-06	375.53	159.15	155.35	68	5.0145e-06	78.083	0.0037922	0.0083007	0.0023364	1011.3	7.6348e-05	9.3526e-05	848.65	396.77	7.7018e-05	9.3199e-05	388.75	166.19	162.24	71.077	8.1672e-05	81.149	-84.645	-30.324	-11.403	-96.531	30.713	115.105	-97.703	-91.724	48.572	68.678	-93.612	-89.900	-87.949	-83.822	38.863	-86.135	-8191	255	
31439.328	1	1	0	0	0.15961	0.21051	0.14994	0.12073	0.043332	0.20106	0.15905	0.11241	0.11814	0.11487	0.23815	0.30076	0.2189	0.15265	0.061413	0.16523	-1.6521	-2.8708	-2.5229	-2.375	-3.0583	-2.3729	-2.7083	-3.0458	-2.2042	-2.8625	-2.6562	-2.5542	-3.2313	-2.6979	-2.5187	-3.1208	177.315	-67.025	165.019	-92.103	199.890	150.807	-39.066	72.300	119.010	232.925	-36.410	203.334	202.309	-96.971	179.595	232.653	0.0004302	0.00057574	0.00012919	988.13	5.0971e-06	9.2849e-06	825.81	384.56	4.9549e-06	8.1168e-06	372.75	159.18	155.92	68.088	7.5949e-06	77.79	0.0037722	0.0082287	0.0023155	1013	7.5602e-05	9.3265e-05	849.76	397.09	7.7187e-05	9.35e-05	388.26	166.02	162.26	71.108	8.2382e-05	81.064	-83.813	-38.900	51.781	-96.798	54.823	55.418	-97.243	-91.556	70.250	69.397	-93.641	-89.629	-88.016	-83.642	49.905	-86.088	-8191	255	
31439.424	1	1	0	0	0.15163	0.13888	0.13787	0.3039	0.047756	0.11551	0.18117	0.056791	0.044447	0.063844	0.14301	0.21829	0.29451	0.30611	0.098385	0.23789	-1.7583	-2.7979	-2.7333	-2.2896	-2.9958	-2.275	-2.4771	-3.1042	-2.2938	-2.7062	-2.9604	-2.3646	-3.0729	-2.5542	-2.3479	-3.0896	67.263	-72.640	129.439	226.108	104.076	226.720	189.119	127.127	2.879	91.259	80.999	160.391	217.181	217.577	-82.877	222.406	0.00041888	0.00050924	0.00021265	986.64	4.315e-06	2.1814e-06	822.65	383.37	8.8239e-06	8.1409e-06	373.4	158.82	155.43	68.104	7.8953e-06	77.756	0.003765	0.0081404	0.0023161	1011.7	7.7193e-05	9.4231e-05	847.05	396.41	7.8652e-05	9.4247e-05	387.88	165.92	162.22	71.155	8.3047e-05	81.097	-83.390	-24.549	-19.504	-96.642	69.757	19.737	-97.991	-91.591	75.376	47.914	-93.755	-89.874	-88.113	-83.816	48.754	-86.146	-8191	255	
31439.543	1	1	0	0	0.12526	0.25276	0.14683	0.088284	0.28202	0.096554	0.20141	0.069148	0.2885	0.055932	0.11565	0.23951	0.14776	0.16007	0.35415	0.17314	-1.7417	-2.5771	-2.6479	-2.2812	-2.8771	-2.5687	-2.4979	-3.0208	-2.2146	-2.5042	-2.8292	-2.2	-3.0958	-2.7896	-2.3521	-3.3667	-94.159	173.721	-24.232	-98.564	-104.469	36.995	134.415	19.298	57.904	115.903	-22.400	195.257	172.837	234.113	-11.112	172.542	0.00039669	0.00023902	0.00013463	983.63	3.2034e-06	6.6345e-06	828.15	383.22	7.0025e-06	6.7014e-06	374.16	159.09	155.61	68.06	1.6019e-06	77.914	0.0037561	0.0083021	0.0023562	1010.2	7.7852e-05	9.522e-05	848.4	396.55	7.8304e-05	9.5018e-05	388.04	165.97	162.22	71.1	8.2698e-05	81.143	-79.075	-52.282	-46.587	-96.460	72.066	84.591	-97.568	-91.413	20.055	47.994	-93.647	-89.964	-87.966	-83.902	111.229	-86.289	-8191	255	
31439.639	1	1	0	0	0.25462	0.19465	0.22652	0.1527	0.23024	0.14277	0.11352	0.12748	0.073119	0.18683	0.1282	0.39631	0.49256	0.19872	0.1561	0.31908	-1.95	-2.5167	-2.8583	-2.2229	-2.8312	-2.6354	-2.1021	-3.0438	-2.375	-2.6396	-3.1375	-2.0583	-2.8688	-2.8187	-2.2146	-3.1229	6.978	195.349	-71.903	241.328	-63.442	-79.049	199.772	-63.451	-71.831	168.503	165.634	196.347	200.064	-100.589	-82.647	198.415	0.00038276	0.00052853	0.00021636	982.05	7.7101e-06	4.2325e-06	820.69	383.83	7.1874e-06	4.837e-06	373.75	158.91	155.74	68.076	5.1178e-06	78.111	0.0037781	0.0083248	0.0023299	1009.9	7.6942e-05	9.4652e-05	848.37	396.59	7.8452e-05	9.4392e-05	387.98	166.27	162.49	71.151	8.3224e-05	81.39	-72.946	-24.729	-42.790	-96.690	31.567	21.987	-97.664	-91.399	53.024	26.348	-93.818	-89.725	-87.927	-83.710	55.264	-85.947	-8191	255	
31439.734	1	1	0	0	0.15016	0.092291	0.10648	0.17597	0.27034	0.24937	0.060785	0.13989	0.28092	0.094985	0.078811	0.33269	0.20703	0.43636	0.10552	0.089762	-1.9021	-2.3083	-2.8583	-2.1833	-2.7646	-2.7812	-2.0042	-3.1583	-2.3563	-2.3063	-3.1937	-2.2	-2.8063	-3.0854	-2.2083	-3.0979	26.454	5.830	-72.124	217.989	-101.849	-61.871	106.053	153.387	157.006	30.279	-86.362	161.467	221.584	231.231	221.921	245.276	0.00037978	0.00078365	0.00011053	986.77	8.3301e-07	4.1749e-06	826.14	384.76	2.5603e-06	7.2104e-06	374.21	159.01	155.88	68.195	5.158e-06	77.986	0.0037654	0.008366	0.0023411	1012.8	7.7848e-05	9.6682e-05	851.01	397.53	7.9637e-05	9.6016e-05	389.22	166.42	162.48	71.256	8.446e-05	81.319	-80.470	-42.874	3.548	-96.664	41.499	5.106	-97.417	-91.405	89.970	57.474	-93.648	-89.622	-88.003	-83.806	22.690	-86.173	-8191	255	
31439.830	1	1	0	0	0.30061	0.12683	0.36027	0.18944	0.14057	0.2318	0.25687	0.20656	0.1394	0.11583	0.2462	0.33569	0.40623	0.1614	0.21595	0.20965	-2.0687	-2.4417	-2.9146	-2.1958	-2.7375	-2.8208	-2.4167	-3.0104	-2.65	-2.3604	-3.3438	-2.2729	-2.8021	-2.8229	-2.1354	-3.0958	65.347	-36.521	27.829	232.826	81.428	70.444	179.162	167.528	-71.505	54.601	229.215	236.302	239.623	-86.670	31.286	207.672	0.00042612	0.00089928	0.00036983	983.14	4.8366e-06	8.504e-06	825.57	385.09	2.5674e-06	4.998e-06	374.44	159.03	155.3	68.146	4.7423e-06	77.69	0.0038322	0.0085743	0.0024107	1010.4	7.8988e-05	9.7677e-05	848.98	397.31	8.1555e-05	9.7308e-05	388.94	166.24	162.53	71.25	8.6234e-05	81.156	-76.529	-52.375	-18.124	-96.530	51.671	4.198	-97.540	-91.631	-24.628	102.741	-93.574	-89.957	-87.793	-83.716	21.729	-86.199	-8191	255	
31439.928	1	1	0	0	0.31895	0.12917	0.052765	0.34987	0.20788	0.2529	0.080535	0.44061	0.23212	0.05102	0.15316	0.24515	0.12314	0.22862	0.20484	0.21458	-2.4333	-2.2333	-3.0021	-2.4	-2.5021	-2.8937	-2.3729	-2.9417	-2.7854	-2.2438	-3.1542	-2.4583	-2.5646	-3.0687	-2.1458	-2.9125	123.116	197.024	111.811	191.156	27.620	124.715	162.209	178.505	68.481	182.254	210.315	102.054	-97.752	242.365	70.561	202.230	0.00040629	0.00068602	0.00026604	983.09	4.3273e-06	8.5255e-06	823.84	385.09	4.5845e-06	7.7179e-06	374.92	160.05	156.53	68.386	3.4028e-06	78.298	0.0038673	0.0085266	0.0024071	1010.3	7.7921e-05	9.6335e-05	848.79	397.79	7.8822e-05	9.5695e-05	389.39	166.76	162.82	71.45	8.4926e-05	81.504	-77.213	-64.764	-28.869	-96.844	43.840	76.324	-97.564	-91.428	18.779	31.904	-93.845	-89.871	-87.922	-83.697	-33.167	-86.249	-8191	255	
31440.023	1	1	0	0	0.24787	0.11448	0.16728	0.18217	0.31337	0.32647	0.39918	0.19714	0.3248	0.070476	0.25446	0.17603	0.19038	0.27081	0.12829	0.22709	-2.3667	-2.1146	-2.9375	-2.6167	-2.4604	-2.9479	-2.2646	-2.95	-2.6417	-2.3208	-3.1146	-2.5083	-2.5708	-3.2104	-2.2167	-2.9229	163.517	-67.803	85.173	-48.084	43.668	-17.542	190.812	214.765	44.257	81.922	238.167	214.370	201.978	-64.120	-80.068	140.320	0.00039473	0.0011249	0.00026178	986.98	9.4387e-06	6.8798e-06	824.93	384.46	5.3191e-06	5.9122e-06	376.52	160.18	156.09	68.525	6.1471e-06	78.16	0.0037605	0.0084008	0.0023648	1011.5	7.6474e-05	9.4787e-05	850.31	397.76	7.8505e-05	9.5165e-05	390.6	167.2	162.96	71.433	8.4146e-05	81.742	-78.067	-21.643	-24.238	-96.787	44.454	42.780	-97.807	-91.506	59.192	10.597	-93.595	-89.737	-87.918	-83.701	44.808	-86.102	-8191	255	
31440.145	1	1	0	0	0.16243	0.16774	0.31441	0.12996	0.15842	0.2485	0.347	0.12678	0.092868	0.23463	0.22072	0.15577	0.22324	0.25646	0.18269	0.16284	-2.425	-2.1771	-2.85	-2.6125	-2.275	-3.0604	-2.3396	-2.8917	-2.9958	-2.0312	-3.0271	-2.6375	-2.3646	-3.2188	-2.3937	-2.6958	2.758	95.916	10.081	187.120	197.832	183.898	153.719	-84.981	-60.824	115.787	-99.033	222.516	198.247	206.334	113.520	164.890	0.00044985	0.00075833	0.00015861	983.63	6.0651e-06	7.3074e-06	824.66	385.71	8.3531e-06	4.9335e-06	377.17	160.18	155.81	68.495	8.1872e-06	78.453	0.0038219	0.0084636	0.0023777	1011.3	7.7511e-05	9.4706e-05	851.6	398.35	7.8664e-05	9.5675e-05	390.83	167.05	162.81	71.524	8.4604e-05	81.624	-80.318	-30.868	-6.231	-96.935	28.363	4.839	-97.822	-91.358	24.118	7.700	-93.731	-89.913	-88.025	-83.596	37.512	-86.279	-8191	255	
31440.238	1	1	0	0	0.11186	0.28636	0.075152	0.085367	0.24525	0.11222	0.24117	0.036833	0.34166	0.12415	0.14824	0.44733	0.2536	0.15245	0.32615	0.07127	-2.5771	-2.15	-2.9062	-2.9583	-2.2646	-3.0146	-2.6312	-2.5917	-3.1333	-2.2229	-2.8792	-2.9562	-2.275	-3.1875	-2.4604	-2.5938	-38.013	-71.802	-59.018	198.189	72.069	60.916	161.769	219.318	9.093	122.113	238.553	-97.505	189.721	245.539	-70.923	-45.860	0.00042264	0.00044914	0.00018126	985.05	7.6039e-06	9.4788e-06	824.14	386.23	2.661e-06	4.9431e-06	374.74	159.95	156.16	68.781	4.3127e-06	78.408	0.0037956	0.0084461	0.002359	1011.3	7.7831e-05	9.4633e-05	849.53	398.7	7.824e-05	9.4822e-05	390.28	167	163.25	71.707	8.2844e-05	81.738	-81.105	-34.037	-53.022	-96.576	81.543	62.165	-97.466	-91.489	-7.392	6.382	-93.832	-89.767	-87.893	-83.672	21.035	-86.065	-8191	255	
31440.336	1	1	0	0	0.24275	0.092638	0.15549	0.41867	0.17834	0.13286	0.16647	0.12729	0.20869	0.053008	0.10598	0.23593	0.28471	0.39579	0.19926	0.17816	-2.7292	-2.2271	-2.8979	-3.0333	-2.2562	-3.0812	-2.7729	-2.6229	-3.0333	-2.2417	-2.8854	-2.9646	-2.2354	-3.0833	-2.4938	-2.4792	-14.806	-0.758	-17.709	245.085	-33.050	-28.703	115.506	197.448	110.557	189.001	-98.603	8.881	191.965	139.181	100.264	244.867	0.00041483	0.00050389	0.0001073	987.21	3.761e-06	5.9799e-06	828.54	386.6	2.0962e-06	8.7286e-06	378.28	160.28	157.32	68.917	7.9843e-06	78.806	0.0037749	0.008399	0.0023471	1012.2	7.7024e-05	9.4911e-05	851.92	399.16	7.8093e-05	9.5146e-05	392.41	167.94	163.97	71.815	8.3055e-05	82.104	-80.356	-49.812	27.491	-96.774	17.262	54.407	-97.885	-91.629	27.936	62.500	-93.515	-89.929	-87.919	-83.941	57.266	-86.095	-8191	255	
31440.455	1	1	0	0	0.18508	0.10981	0.041182	0.18523	0.11205	0.094345	0.30525	0.44922	0.1369	0.14997	0.29681	0.26627	0.062508	0.15221	0.36089	0.12191	-2.825	-2.3688	-2.5229	-3.0271	-2.2104	-2.8354	-2.7708	-2.4604	-3.1354	-2.3604	-2.7188	-3.1458	-2.3229	-3.0229	-2.7583	-2.2938	-1.334	226.574	141.605	158.127	9.029	113.095	186.957	227.042	143.284	78.196	0.778	151.364	-61.260	186.443	-59.975	198.076	0.00044026	0.00070385	0.00024597	988.21	8.0119e-06	8.8252e-06	827.85	387.45	2.7247e-06	8.0913e-06	377.17	160.77	156.66	68.647	9.1232e-06	79.14	0.0038145	0.008408	0.002333	1012.2	7.7034e-05	9.6101e-05	852.95	399.5	7.881e-05	9.4557e-05	392.63	168.09	163.58	71.752	8.3667e-05	82.201	-87.407	-32.551	-51.706	-96.738	80.514	31.134	-97.944	-91.636	113.276	75.765	-93.797	-89.912	-87.921	-83.671	59.150	-86.223	-8191	255	
31440.527	1	1	0	0	0.19458	0.089291	0.15366	0.41679	0.31652	0.054808	0.16082	0.22711	0.16155	0.1675	0.32382	0.15796	0.19538	0.34901	0.17517	0.15754	-2.6958	-2.4083	-2.3187	-3.0833	-2.175	-2.8104	-2.8312	-2.4417	-2.9521	-2.5792	-2.5021	-3.1979	-2.3	-2.7229	-2.7521	-2.3563	198.618	179.276	-86.597	205.745	97.374	-83.657	-63.716	218.676	205.109	-36.486	192.400	177.852	-108.949	223.266	61.859	217.791	0.00047516	0.00076486	0.00024051	984.02	1.3962e-06	1.0106e-05	830.1	387.25	5.2099e-06	8.4901e-06	377.77	160.42	156.63	68.782	3.2177e-06	78.695	0.0037918	0.0083698	0.0023327	1011.7	7.6424e-05	9.3012e-05	854.16	399.7	7.7005e-05	9.3354e-05	392.33	167.83	163.28	71.686	8.2693e-05	81.758	-81.906	-3.433	-54.808	-96.780	45.806	67.854	-97.847	-91.365	8.225	48.043	-93.803	-89.818	-87.981	-83.634	169.788	-86.159	-8191	255	
31440.623	1	1	0	0	0.19198	0.096034	0.10659	0.26445	0.25361	0.30602	0.19792	0.306	0.15806	0.27835	0.14568	0.12498	0.13951	0.15559	0.10014	0.23717	-2.7938	-2.3104	-2.0771	-3.0187	-2.0854	-2.6042	-2.9104	-2.2646	-2.8917	-2.4646	-2.4604	-3.0771	-2.2833	-2.7479	-2.9125	-2.2562	-7.780	220.742	171.599	190.821	234.271	180.035	99.279	132.633	-96.018	-38.950	201.237	142.689	-27.220	160.388	-103.523	186.513	0.00037535	0.00054035	0.00026272	985.97	8.0938e-06	6.7682e-06	825.27	384.63	4.6602e-06	4.8929e-06	376.11	160.77	156.61	68.699	5.8756e-06	78.586	0.0037757	0.0083661	0.0023589	1010.2	7.7187e-05	9.5741e-05	850.95	398.23	7.8104e-05	9.5428e-05	390.66	167.69	163.34	71.729	8.4566e-05	81.905	-84.095	-3.030	-7.817	-96.781	41.512	30.670	-97.835	-91.517	65.168	61.188	-93.890	-89.698	-87.693	-83.761	39.156	-86.204	-8191	255	
31440.719	1	1	0	0	0.063786	0.18522	0.17674	0.28609	0.2821	0.24525	0.23815	0.019626	0.15037	0.024219	0.23338	0.14557	0.22861	0.21511	0.22889	0.1134	-2.6188	-2.5438	-2.3229	-3.0771	-2.3167	-2.625	-3.1458	-2.3063	-2.9625	-2.6125	-2.4646	-3.3917	-2.5312	-2.6312	-3.0625	-2.4792	154.415	231.893	-109.352	227.271	-40.127	206.662	158.259	133.085	-37.150	-65.587	-4.824	185.116	250.547	241.859	-93.347	169.884	0.00038419	0.00055208	0.00023428	987.22	1.1564e-05	1.8511e-06	829.64	386.57	5.8811e-06	6.2872e-06	378.17	161.67	157.46	69.094	5.3304e-06	78.988	0.003804	0.0085068	0.0023807	1013.1	7.7864e-05	9.6327e-05	853.19	399.93	7.9018e-05	9.5749e-05	393.21	169.12	164.34	72.156	8.3476e-05	82.437	-80.287	-30.322	-26.783	-96.825	81.751	1.291	-97.695	-91.374	11.253	57.415	-93.799	-89.953	-87.971	-83.748	73.423	-85.971	-8191	255	
31440.840	1	1	0	0	0.092213	0.19711	0.17192	0.23816	0.1302	0.11718	0.32608	0.21423	0.066651	0.1272	0.15599	0.27337	0.029016	0.41038	0.28465	0.03498	-2.4917	-2.7313	-2.2667	-3.1833	-2.3896	-2.5563	-3.1188	-2.3688	-2.7583	-2.9437	-2.2292	-3.1188	-2.6562	-2.5146	-3.1063	-2.4917	249.536	171.958	200.024	-81.338	61.546	55.147	242.612	-39.777	238.294	165.292	223.025	-90.548	175.532	230.624	-28.612	37.481	0.00041724	0.00035763	0.00030667	987.48	7.2863e-06	7.7042e-06	830.87	388.63	3.4459e-06	9.117e-06	381.78	163.59	158.46	69.517	7.1141e-06	79.708	0.0037918	0.0082825	0.0023561	1013.3	7.6982e-05	9.5529e-05	856.55	401.34	7.8777e-05	9.3925e-05	397.51	170.79	165.25	72.533	8.3442e-05	83.397	-78.641	-56.808	-50.812	-96.621	95.421	9.404	-97.345	-91.348	10.010	47.460	-93.628	-89.723	-88.003	-83.711	17.313	-86.342	-8191	255	
31440.936	1	1	0	0	0.23117	0.21397	0.20487	0.066477	0.20043	0.3141	0.15074	0.3044	0.12516	0.069122	0.37274	0.046599	0.092729	0.27071	0.02554	0.11265	-2.325	-2.8563	-2.2667	-3.0896	-2.5333	-2.1562	-3.0312	-2.3812	-2.5062	-2.9313	-2.2438	-3.1188	-2.7812	-2.3208	-2.875	-2.4188	2.327	146.795	-36.943	119.138	154.846	63.591	143.742	219.362	64.323	81.021	230.705	127.015	232.574	226.117	7.401	235.805	0.00037566	0.00064655	0.00021115	985.13	4.5099e-06	8.2407e-06	829.95	389.28	5.9067e-06	1.0307e-06	382.49	163.54	158.64	69.771	4.5448e-06	79.934	0.0037418	0.0082489	0.002354	1011.7	7.6471e-05	9.4343e-05	857.78	402.6	7.6866e-05	9.224e-05	397.22	170.87	165.63	72.71	8.1662e-05	83.116	-77.634	-19.677	-17.099	-96.663	45.880	6.334	-97.891	-91.604	36.191	36.845	-93.741	-89.874	-87.932	-83.676	71.469	-86.270	-8191	255	
31441.031	1	1	0	0	0.12114	0.064387	0.29596	0.17365	0.1546	0.17839	0.22802	0.13087	0.17139	0.072837	0.22311	0.10777	0.19404	0.27646	0.18975	0.15948	-2.1854	-2.8042	-1.9625	-2.9646	-2.7417	-2.2354	-3.2812	-2.5167	-2.5083	-2.9688	-2.3187	-2.8396	-2.8875	-2.3271	-2.9333	-2.5938	242.767	-78.540	33.829	-99.218	79.953	34.185	197.998	212.300	63.788	217.989	171.088	158.638	211.810	187.453	234.547	165.719	0.00043046	0.00049339	0.00012085	988.63	3.2667e-06	8.3053e-06	832.63	389.5	3.712e-06	4.7233e-06	383.15	164.43	158.93	69.737	6.8e-06	79.831	0.0037288	0.0081536	0.0023135	1011.4	7.4148e-05	9.2949e-05	857.3	402.18	7.6073e-05	9.1682e-05	397.77	171.28	165.65	72.707	8.2561e-05	83.27	-82.505	-34.875	-15.111	-96.826	71.685	27.182	-97.685	-91.706	-10.259	-2.643	-94.000	-89.599	-88.024	-83.683	59.059	-86.351	-8191	255	
31441.104	1	1	0	0	0.25376	0.041289	0.19477	0.14182	0.25254	0.12083	0.095618	0.1029	0.039176	0.078874	0.28291	0.28966	0.096833	0.27377	0.065872	0.19354	-2.0229	-2.9771	-2.2812	-2.9271	-2.7104	-2.125	-3.0563	-2.5146	-2.3375	-3.0438	-2.3021	-2.8917	-3.0125	-2.4104	-3.0521	-2.6896	45.314	217.758	-41.187	-45.796	-34.952	1.545	207.952	230.877	95.676	45.812	184.667	244.575	178.804	188.382	17.894	187.397	0.00040841	0.00042101	0.00019405	988.95	4.3367e-06	9.3375e-06	830.41	389.57	4.1874e-06	6.176e-06	385.02	164.37	159.22	69.889	4.5363e-06	80.047	0.0036859	0.0082231	0.0023032	1013.2	7.5138e-05	9.3073e-05	857.21	402.49	7.59e-05	9.1493e-05	398.67	171.82	166.12	72.768	8.114e-05	83.505	-77.034	-16.261	-15.497	-96.978	60.734	19.584	-97.642	-91.880	57.921	28.028	-93.698	-89.860	-88.239	-83.731	7.472	-86.171	-8191	255	
31441.225	1	1	0	0	0.19495	0.063868	0.22757	0.30134	0.21487	0.11139	0.34989	0.2829	0.14193	0.10068	0.097929	0.45911	0.25373	0.17022	0.176	0.24755	-1.8875	-3.0687	-2.1708	-2.6667	-2.8208	-2.3	-3.05	-2.7938	-2.1875	-3.0292	-2.125	-2.625	-3.0208	-2.3125	-2.8229	-2.9792	211.789	103.465	159.160	225.457	170.763	103.971	222.166	145.205	126.583	180.223	75.794	-102.138	229.184	178.636	73.347	145.180	0.00039339	0.00059205	0.0002425	985.78	3.7622e-06	6.7224e-06	837.05	389.86	5.5487e-06	8.6046e-06	386.77	165.45	159.84	69.789	6.424e-06	80.685	0.0036528	0.0080854	0.0022613	1010.9	7.334e-05	9.1716e-05	861.06	403.14	7.5978e-05	9.1056e-05	401.18	172.56	166.51	72.989	8.0779e-05	84.139	-84.508	-15.668	-27.143	-96.646	12.986	81.955	-97.592	-91.553	46.594	47.089	-93.654	-89.873	-88.081	-83.696	25.705	-86.214	-8191	255	
31441.318	1	1	0	0	0.12906	0.30418	0.20973	0.17707	0.2335	0.19415	0.2907	0.30742	0.21872	0.18565	0.11507	0.13788	0.082135	0.33188	0.058906	0.24126	-1.8042	-3.0583	-2.2208	-2.4854	-2.9167	-2.3375	-2.9562	-2.8542	-2.0604	-3.0354	-2.4667	-2.5479	-3.0458	-2.3271	-2.6708	-2.8917	-99.048	110.337	68.115	-43.808	54.349	-58.745	-98.495	211.356	40.910	76.719	-20.386	199.741	-76.020	176.747	-52.177	151.054	0.00048558	0.00051478	0.00013401	983.63	2.3546e-06	9.4258e-06	840.43	391.79	4.372e-06	8.9505e-06	386.1	164.95	159.36	69.974	3.8201e-06	80.604	0.0037105	0.0080657	0.0022617	1010.9	7.4172e-05	9.232e-05	860.53	403.92	7.5157e-05	8.9498e-05	399.83	172.21	166.47	72.967	7.9085e-05	83.745	-83.516	-17.987	10.927	-96.622	48.853	78.586	-97.689	-91.490	47.923	34.636	-93.810	-89.895	-88.161	-83.915	69.774	-86.287	-8191	255	
31441.418	1	1	0	0	0.061482	0.067343	0.036206	0.13594	0.29274	0.2247	0.25397	0.23895	0.14974	0.11123	0.16685	0.031248	0.12724	0.17741	0.1818	0.12948	-1.6833	-2.8146	-2.4917	-2.5792	-3.0229	-2.2417	-2.7562	-2.8979	-2.0979	-2.9167	-2.6063	-2.4792	-3.2271	-2.5708	-2.6854	-3.05	133.675	222.467	124.797	224.268	130.210	118.746	168.855	181.136	220.944	184.459	234.252	128.803	80.809	-92.727	-44.122	197.753	0.00048134	0.00065462	0.00019384	988.53	4.9474e-06	3.4928e-06	835.4	391.07	8.8351e-06	4.0395e-06	386.17	165.27	160.47	69.845	1.1453e-06	80.831	0.0036263	0.0080523	0.002222	1013	7.2097e-05	8.9792e-05	858.42	404.4	7.3416e-05	8.7791e-05	401.05	172.33	166.96	73.142	7.8944e-05	83.977	-78.409	-17.514	-26.623	-96.805	66.762	58.629	-97.723	-91.700	21.795	68.672	-94.077	-89.942	-88.222	-83.842	59.107	-86.428	-8191	255	
31441.535	1	1	0	0	0.1456	0.13089	0.15009	0.11782	0.12897	0.079664	0.0082688	0.17118	0.15363	0.13681	0.13673	0.2387	0.22634	0.17712	0.067282	0.14779	-1.8042	-2.8458	-2.4958	-2.3396	-3.0417	-2.3458	-2.6813	-3.1229	-2.1729	-2.8958	-2.8125	-2.1813	-3.0938	-2.3583	-2.5875	-3.0229	-58.975	-3.322	-64.660	-106.046	84.871	-25.652	117.634	-85.425	121.976	-106.758	137.691	235.623	-37.188	202.025	116.959	112.619	0.00043803	0.00065736	0.00010798	991.29	5.1689e-06	7.4865e-06	838.64	390.91	1.999e-06	4.7968e-06	387.27	165.46	160.42	70.18	3.969e-06	80.98	0.0036166	0.0079086	0.0022116	1014.1	7.1879e-05	8.9319e-05	860.06	404.08	7.3205e-05	8.8888e-05	401.61	173.04	166.89	73.295	7.9109e-05	84.35	-78.893	-28.746	5.565	-96.533	87.403	45.094	-97.512	-91.434	48.280	64.936	-94.059	-89.743	-88.216	-83.761	56.223	-86.351	-8191	255	
31441.633	1	1	0	0	0.023132	0.29707	0.18457	0.091062	0.10926	0.18545	0.1423	0.30502	0.23112	0.29722	0.32277	0.12801	0.2053	0.28968	0.12337	0.14002	-1.6521	-2.7708	-2.7521	-2.4708	-3.1792	-2.4396	-2.4771	-3.025	-2.1813	-2.9021	-2.7125	-2.4729	-3.2625	-2.6958	-2.4146	-3.1437	-96.812	235.578	87.793	160.770	163.332	178.794	154.211	247.426	50.104	20.109	226.694	160.512	172.415	168.043	180.487	187.324	0.00045534	0.00053434	9.842e-05	991.35	7.7945e-06	8.742e-06	839.38	393.17	3.0097e-06	9.0832e-06	389.91	166.33	160.45	70.426	7.6256e-06	81.475	0.0036015	0.007905	0.0021912	1013.6	7.2617e-05	8.9824e-05	863.28	405.55	7.3975e-05	8.9263e-05	403.63	173.71	167.31	73.333	7.8779e-05	84.592	-79.904	-50.653	-28.653	-96.647	56.838	9.602	-97.669	-91.657	58.776	48.300	-93.791	-89.823	-88.030	-83.740	76.053	-86.193	-8191	255	
31441.729	1	1	0	0	0.25058	0.17225	0.34438	0.2081	0.15158	0.18656	0.31244	0.1304	0.20332	0.21531	0.032035	0.29203	0.094593	0.11579	0.22183	0.143	-1.9312	-2.8271	-2.8146	-2.2271	-2.7604	-2.4167	-2.4042	-3.0042	-2.2417	-2.6646	-3.0708	-2.1458	-2.9875	-2.7917	-2.0333	-3.1479	105.021	149.304	-52.775	-17.588	2.304	-51.931	156.564	-70.880	74.835	91.964	176.681	-84.546	-28.313	181.246	-46.580	212.056	0.00047218	0.00077805	0.00021909	988.36	9.7958e-06	6.6295e-06	836.09	392.21	5.8947e-06	4.7512e-06	387.68	166.39	161.4	70.379	5.4891e-06	80.943	0.0036127	0.0077489	0.0021789	1013.1	7.1704e-05	8.9185e-05	860.7	405.34	7.2831e-05	8.9152e-05	402.43	173.2	167.8	73.52	7.7968e-05	84.414	-82.288	-34.679	-2.897	-96.847	63.869	15.161	-97.748	-91.497	54.299	54.847	-93.955	-89.963	-88.142	-83.797	43.575	-86.075	-8191	255	
31441.824	1	1	0	0	0.20256	0.10001	0.086717	0.14389	0.29895	0.12664	0.12904	0.54318	0.23884	0.13805	0.12726	0.091826	0.19238	0.16722	0.088598	0.16181	-1.9729	-2.475	-3.025	-2.3292	-2.8271	-2.7479	-2.2875	-3.0917	-2.4083	-2.5917	-3.0687	-2.1875	-2.7354	-2.9271	-2.1479	-3.3354	-7.591	-72.062	-21.807	90.366	68.517	8.435	209.637	172.722	124.875	220.195	203.882	165.013	243.735	206.771	29.254	217.426	0.00040478	0.00078853	0.00026935	984.7	1.0426e-05	1.2197e-05	838.63	392.92	3.2627e-06	6.7062e-06	389.48	167.32	161.35	70.686	4.0573e-06	81.232	0.0035623	0.0078066	0.0021617	1011.7	7.2072e-05	8.8773e-05	861.28	406.15	7.3328e-05	8.8178e-05	404.03	174.1	167.77	73.67	7.8738e-05	84.62	-84.893	-26.161	-33.924	-96.709	47.046	58.071	-97.553	-91.510	4.983	37.747	-93.753	-89.915	-88.145	-84.083	51.356	-86.376	-8191	255	
31441.920	1	1	0	0	0.16102	0.23121	0.076755	0.18433	0.14165	0.019578	0.23646	0.28963	0.17119	0.16017	0.18652	0.44892	0.29465	0.19877	0.089713	0.22994	-2.1167	-2.1896	-2.8958	-2.4354	-2.7625	-2.8146	-2.2875	-2.9958	-2.4271	-2.3917	-3.0667	-2.1937	-2.6729	-2.9792	-1.95	-3.0729	73.472	238.418	110.309	227.982	-98.926	55.773	37.481	170.982	48.010	-99.014	184.228	162.087	-84.140	200.534	-52.497	175.535	0.00047697	0.00067896	0.00012631	986.27	5.1712e-06	6.523e-06	838.33	392.65	4.2034e-06	8.2539e-06	387.78	167.13	160.76	70.357	3.9717e-06	81.364	0.0035875	0.0076889	0.0021745	1010.1	7.1001e-05	8.8805e-05	862.88	405.9	7.2245e-05	8.74e-05	402.66	173.95	167.62	73.614	7.7997e-05	84.733	-80.141	-33.992	-54.196	-96.617	36.641	25.170	-97.681	-91.710	34.852	25.075	-93.900	-89.763	-88.026	-83.752	104.743	-86.265	-8191	255	
31442.018	1	1	0	0	0.37445	0.35948	0.12258	0.34754	0.056537	0.17725	0.10896	0.12996	0.12085	0.1377	0.2144	0.17332	0.043151	0.070024	0.25786	0.16106	-2.0833	-2.2938	-2.8542	-2.4229	-2.6937	-2.8979	-2.3208	-3.1583	-2.5521	-2.25	-3.2479	-2.3958	-2.7208	-3.0125	-2.0958	-2.9479	244.533	186.977	139.801	227.717	96.804	-53.673	2.935	154.948	78.028	-32.830	-107.487	229.080	213.444	-104.344	76.299	190.402	0.00038651	0.00032268	0.00025623	985.67	5.4886e-06	4.1435e-06	838.85	393.13	5.9926e-06	8.0709e-06	390.62	166.99	160.56	70.345	2.5444e-06	81.156	0.0035708	0.0077415	0.0021839	1011.8	7.205e-05	8.8682e-05	863.02	405.5	7.2027e-05	8.7826e-05	403.44	173.62	167.41	73.363	7.8545e-05	84.389	-79.879	-25.357	-2.025	-96.800	43.892	12.319	-97.902	-91.687	52.482	76.355	-93.757	-90.017	-88.002	-83.791	-19.348	-86.090	-8191	255	
31442.137	1	1	0	0	0.065014	0.24035	0.18965	0.06885	0.086967	0.12889	0.18421	0.11803	0.15288	0.19904	0.1414	0.23875	0.075731	0.11696	0.1868	0.11672	-2.2062	-2.1583	-3.0667	-2.55	-2.3312	-2.8125	-2.2479	-3.0396	-2.6854	-1.9646	-3.1458	-2.5062	-2.5646	-3.1708	-2.1208	-2.9	103.785	57.041	90.291	195.375	213.834	24.677	132.555	214.875	91.461	83.156	-78.725	-56.003	190.760	223.671	201.217	209.290	0.00042933	0.0010252	0.00020399	990.36	4.2125e-06	7.1557e-06	835.65	391.88	2.8277e-06	9.6483e-06	385.87	165.96	160.55	70.517	7.0735e-06	81.112	0.0035535	0.0078183	0.0021739	1013.1	7.1789e-05	8.7282e-05	859.53	405.24	7.2074e-05	8.7521e-05	400.61	172.96	167.33	73.53	7.8297e-05	84.401	-74.495	-24.647	-12.734	-96.832	64.571	43.028	-97.931	-91.306	21.052	38.511	-94.000	-90.055	-87.905	-83.794	62.064	-86.086	-8191	255	
31442.232	1	1	0	0	0.25981	0.22794	0.13607	0.21651	0.097209	0.053761	0.32067	0.081393	0.25817	0.040837	0.15831	0.2668	0.11912	0.32817	0.27504	0.11862	-2.4042	-2.1271	-3.1396	-2.6854	-2.3312	-2.9646	-2.0875	-2.7812	-2.8667	-2.2313	-3.1437	-2.625	-2.4437	-3.175	-2.2354	-2.7458	189.136	247.325	210.788	203.996	-21.492	4.751	227.215	240.956	108.663	175.085	184.144	210.704	233.057	249.350	226.447	226.985	0.00040546	0.00040177	0.00024331	987.07	2.3768e-06	9.8621e-06	837.55	391.79	4.8654e-06	1.0441e-05	386.88	166.09	161.14	70.642	6.2301e-06	81.288	0.0035306	0.0076765	0.0021632	1011.7	7.124e-05	8.7594e-05	859.77	405	7.1223e-05	8.7552e-05	401.08	173.3	167.54	73.575	7.8146e-05	84.445	-83.838	-53.247	-23.351	-96.902	73.336	28.889	-97.493	-91.402	51.836	40.489	-93.669	-89.737	-88.070	-83.830	59.857	-85.853	-8191	255	
31442.328	1	1	0	0	0.18654	0.019769	0.10893	0.33436	0.059481	0.12081	0.16785	0.15582	0.12921	0.30248	0.25971	0.32425	0.16241	0.13865	0.14553	0.24333	-2.5708	-2.0854	-2.9583	-2.7083	-2.2292	-3.0167	-2.5396	-2.7375	-2.9208	-2.1417	-3.0354	-2.7125	-2.2792	-3.0229	-2.2271	-2.6146	221.357	50.058	-93.401	195.791	-90.507	35.843	176.385	-102.456	164.051	20.783	235.659	-83.589	-89.659	158.546	187.810	186.152	0.00041006	0.00046602	0.00024734	982.6	4.312e-06	1.2231e-05	836.67	391.29	4.9738e-06	8.2337e-06	387.94	166.08	160.85	70.495	4.8434e-06	81.003	0.0034963	0.0077264	0.002177	1009.5	7.093e-05	8.7402e-05	860.05	404.45	7.1783e-05	8.7721e-05	402.27	173.23	167.52	73.524	7.7342e-05	84.337	-91.003	-28.108	-13.159	-96.716	27.715	29.866	-97.977	-91.610	16.920	52.601	-93.790	-89.973	-88.247	-83.857	47.054	-86.334	-8191	255	
31442.400	1	1	0	0	0.35929	0.21209	0.25684	0.25975	0.15019	0.1155	0.16877	0.14157	0.1418	0.091715	0.13908	0.14353	0.24406	0.22166	0.19868	0.15996	-2.5187	-2.2333	-2.7313	-2.8125	-2.1188	-3.0792	-2.4542	-2.5542	-2.9104	-2.2375	-2.7583	-2.8229	-2.3021	-3.1271	-2.5417	-2.4896	135.652	-32.461	190.799	203.884	2.165	199.518	185.059	200.708	-91.278	-84.555	172.761	245.791	228.184	203.563	139.925	225.891	0.00041627	0.00075068	0.00019903	985.05	6.2257e-06	7.8703e-06	836.41	392.75	5.2321e-06	2.9853e-06	386.61	165.32	160.16	70.074	6.7519e-06	80.536	0.0035232	0.0077918	0.0021911	1009.4	7.1206e-05	8.7161e-05	859.47	404.87	7.0956e-05	8.5376e-05	401.15	172.43	166.54	73.191	7.5972e-05	83.939	-83.429	-35.967	-30.959	-96.795	73.746	61.312	-97.496	-91.366	27.057	18.965	-93.741	-89.967	-88.327	-83.624	-1.727	-85.800	-8191	255	
31442.496	1	1	0	0	0.26771	0.1341	0.11932	0.060088	0.27643	0.18766	0.15063	0.2683	0.27286	0.066429	0.1479	0.26391	0.10412	0.32338	0.13773	0.24943	-2.7458	-2.2583	-2.6958	-2.8479	-2.1792	-2.9271	-2.8208	-2.3479	-3.2062	-2.1479	-2.8292	-2.9229	-2.2521	-2.9708	-2.4458	-2.425	16.883	100.099	240.613	23.369	188.745	157.360	236.170	210.808	-70.994	-11.347	199.879	218.242	246.132	234.275	76.499	0.056	0.00041894	0.00047938	0.00014127	983.28	4.8966e-06	5.377e-06	832.55	391.19	5.6492e-06	6.7976e-06	385.82	165.39	160.02	70.432	6.4046e-06	80.56	0.003483	0.0076174	0.0021564	1008.5	6.9707e-05	8.7256e-05	856.87	403.77	7.0436e-05	8.5144e-05	400.31	172.14	166.81	73.232	7.6062e-05	83.888	-83.289	-83.442	-1.415	-96.720	42.888	58.644	-97.716	-91.439	45.192	47.086	-93.821	-90.212	-88.036	-83.799	7.670	-86.224	-8191	255	
31442.615	1	1	0	0	0.10877	0.065699	0.11971	0.30851	0.023369	0.059877	0.20154	0.30513	0.11137	0.37787	0.22449	0.18229	0.45286	0.38462	0.064988	0.095217	-2.4938	-2.2896	-2.5271	-3.1104	-1.9771	-2.9271	-2.8083	-2.3167	-3	-2.4729	-2.6562	-3.0729	-2.2562	-3.1063	-2.7854	-2.2438	-34.089	-20.060	-105.572	-68.474	164.721	197.356	164.662	230.948	221.954	-54.660	218.563	-54.683	213.631	229.554	-97.345	173.840	0.00039926	0.00088751	0.00029921	982.22	5.1024e-06	7.0873e-06	833.96	392.26	2.8101e-06	6.4939e-06	389.05	165.84	160.5	70.646	9.6486e-06	80.905	0.0034871	0.0076015	0.0021445	1008.1	7.0899e-05	8.7333e-05	856.68	404.34	7.1971e-05	8.6921e-05	401.62	173.07	167.03	73.534	7.7364e-05	84.385	-82.194	4.462	-6.156	-96.777	48.920	54.040	-97.826	-91.557	66.687	23.535	-93.641	-90.001	-88.003	-83.575	68.375	-86.148	-8191	255	
31442.713	1	1	0	0	0.06148	0.18093	0.081359	0.23614	0.17223	0.089387	0.022967	0.35931	0.12206	0.20811	0.15937	0.17803	0.15015	0.3048	0.17331	0.18837	-2.6896	-2.2958	-2.2812	-3.1	-2.0917	-2.9417	-3.1167	-2.2792	-2.8458	-2.4208	-2.45	-3.3125	-2.2938	-2.9562	-2.9875	-2.225	-33.875	89.114	79.755	200.701	-89.238	72.280	37.052	136.557	34.490	-95.036	197.152	-68.930	180.213	-63.696	10.593	179.567	0.0004193	0.00037076	0.00018693	983.1	7.1861e-06	7.2134e-06	834.68	390.15	3.6375e-06	5.5125e-06	385.97	167.07	160.32	70.287	5.5877e-06	81.452	0.003541	0.0076852	0.0021445	1004.7	7.1225e-05	8.7719e-05	858.02	403.37	7.3435e-05	8.7078e-05	402.12	173.73	166.97	73.341	7.6861e-05	84.64	-88.532	-53.554	-28.041	-96.739	63.127	61.834	-97.650	-91.539	50.545	25.438	-93.601	-89.892	-87.906	-83.719	53.064	-86.189	-8191	255	
31442.809	1	1	0	0	0.047274	0.048883	0.134	0.26473	0.04694	0.17628	0.11051	0.20802	0.20437	0.21593	0.16816	0.10821	0.20157	0.17181	0.15779	0.17784	-2.4437	-2.3417	-2.3042	-3.325	-2.2375	-2.6229	-2.8729	-2.1854	-2.7979	-2.7583	-2.3854	-3.1146	-2.3937	-2.5958	-2.9188	-2.2396	121.813	-102.971	238.668	168.944	217.894	-35.132	-84.292	174.522	18.660	103.693	-108.318	205.237	202.751	8.594	-5.742	239.071	0.00041317	0.00085464	4.8647e-05	981.19	7.0744e-06	9.4244e-06	833.86	390.61	6.6643e-06	8.5864e-06	390.91	166.24	160.06	70.237	4.9035e-06	81.01	0.0035984	0.0078863	0.0021795	1005.7	7.2267e-05	8.8634e-05	858.71	403.58	7.3066e-05	8.8412e-05	403.39	173.56	166.71	73.206	7.8088e-05	84.262	-79.832	-48.002	46.106	-96.831	57.737	11.241	-97.793	-91.418	29.601	47.622	-93.406	-89.803	-88.041	-83.849	34.947	-86.080	-8191	255	
31442.904	1	1	0	0	0.15228	0.020314	0.04232	0.30961	0.073315	0.15878	0.033335	0.30154	0.096499	0.15223	0.23499	0.36343	0.26853	0.082235	0.14816	0.24139	-2.7646	-2.8521	-2.2083	-3.2667	-2.5146	-2.5187	-3.0021	-2.4458	-3	-2.8104	-2.3625	-3.1833	-2.6271	-2.4646	-3.0354	-2.3063	247.333	-23.247	-11.926	-100.602	18.053	7.592	78.730	209.021	87.672	203.961	-54.005	-104.781	221.838	-105.034	-21.802	159.504	0.0004581	0.00069346	0.00016888	977.5	4.5913e-06	8.7589e-06	833.84	391.04	6.8044e-06	5.6736e-06	388.4	166.44	160.33	70.446	5.4777e-06	80.876	0.0035472	0.0077749	0.0022074	1002.5	7.1994e-05	8.8582e-05	856.46	403.16	7.1819e-05	8.8088e-05	402.47	173.77	166.63	73.282	7.8117e-05	84.334	-80.512	-48.624	0.368	-96.548	46.778	18.278	-97.655	-91.510	8.698	28.289	-93.634	-89.947	-88.101	-83.596	-16.835	-86.038	-8191	255	
31443.002	1	1	0	0	0.042741	0.23489	0.32929	0.11979	0.16383	0.27317	0.27769	0.14002	0.17135	0.068792	0.14625	0.17279	0.32552	0.17068	0.04171	0.08889	-2.5354	-2.7521	-2.1625	-3.0938	-2.4104	-2.2521	-3.2354	-2.2375	-2.7708	-2.9646	-2.3167	-3.1042	-2.5833	-2.3833	-3.0958	-2.4271	6.750	17.930	-93.367	-27.929	21.692	12.352	-92.219	190.594	1.531	118.521	165.876	3.394	-94.252	221.850	196.028	201.056	0.00042019	0.0007361	0.00028882	980.21	3.5529e-06	5.8649e-06	831.6	390.07	2.4872e-06	6.3975e-06	387.85	166.24	160.36	70.392	4.139e-06	80.98	0.0035778	0.0078366	0.0021842	1005.2	7.1637e-05	8.9501e-05	857.03	403.51	7.3306e-05	8.7976e-05	402.5	173.46	166.79	73.34	7.7496e-05	84.269	-84.275	-37.384	-10.481	-96.349	28.597	22.543	-97.486	-91.351	33.906	38.862	-93.598	-89.908	-88.129	-83.755	63.416	-86.224	-8191	255	
31443.098	1	1	0	0	0.20544	0.020287	0.22634	0.3944	0.1405	0.31683	0.1335	0.072138	0.14549	0.20135	0.36026	0.17739	0.097594	0.12264	0.21448	0.27314	-2.2208	-2.7917	-2.1896	-3.0687	-2.5021	-2.3479	-3.1125	-2.4771	-2.7104	-2.8417	-2.1708	-3	-2.7062	-2.3167	-2.9188	-2.4667	48.487	84.061	-1.244	238.170	-18.632	227.234	156.507	-15.761	10.355	88.971	183.116	247.959	134.619	-103.444	228.254	139.557	0.00046142	0.00098534	0.00016933	977.7	7.258e-06	7.4096e-06	833.08	389.02	4.147e-06	6.1582e-06	384.67	165.52	159.52	70.372	4.725e-06	80.486	0.0035925	0.0077635	0.0021928	1002.2	7.1891e-05	9.0261e-05	857.06	401.56	7.3075e-05	8.9811e-05	400.18	172.85	166.04	73.037	7.9213e-05	84.03	-80.681	-45.927	-23.458	-96.455	67.900	-2.250	-97.485	-91.459	26.060	64.030	-93.485	-89.655	-87.919	-83.647	15.633	-85.960	-8191	255	
31443.219	1	1	0	0	0.046809	0.027031	0.094071	0.2134	0.19065	0.32541	0.13456	0.052445	0.10873	0.079661	0.084804	0.14182	0.051333	0.17448	0.18354	0.22453	-2.0125	-2.9562	-2.3521	-2.9375	-2.7229	-2.3187	-3.0667	-2.4375	-2.3792	-3.0583	-2.325	-2.8438	-2.9417	-2.3292	-2.9375	-2.5792	-29.781	137.872	-1.762	176.245	49.874	-69.642	109.769	-58.615	213.895	-43.988	52.014	-87.195	-41.505	-80.970	-84.187	207.241	0.00042583	0.00097133	0.00017796	978.19	5.2437e-06	1.0503e-05	828.91	387.5	3.4282e-06	6.0413e-06	383.66	165.65	159.15	70.042	3.8314e-06	80.581	0.0036198	0.0079095	0.0022262	1002.1	7.2312e-05	9.0892e-05	855.57	399.58	7.454e-05	9.0592e-05	398.66	172.8	165.67	72.914	8.0236e-05	83.951	-85.346	-56.567	-45.551	-96.254	51.245	26.998	-97.767	-91.700	5.404	9.212	-93.952	-89.829	-88.112	-83.728	58.452	-86.411	-8191	255	
31443.312	1	1	0	0	0.26776	0.15325	0.17437	0.23804	0.21615	0.16587	0.081178	0.396	0.15679	0.10393	0.13775	0.12342	0.081679	0.16475	0.1241	0.067301	-2.0792	-3.0583	-2.1125	-2.8708	-2.8021	-2.1063	-3.0292	-2.7646	-2.5208	-3.0958	-2.3792	-2.6771	-3.175	-2.3146	-2.8854	-2.6208	205.056	167.777	104.066	211.343	80.630	73.252	144.728	125.801	221.034	81.484	173.538	196.136	-103.931	200.874	204.965	192.626	0.00042973	0.00074475	0.00021504	974.94	2.9049e-06	5.6301e-06	829.65	384.68	5.7558e-06	7.323e-06	385.42	165.46	159.18	70.064	4.6737e-06	80.885	0.0036725	0.0080598	0.0022985	999.24	7.4232e-05	9.279e-05	853.56	398.58	7.5978e-05	9.2288e-05	398.91	172.71	165.56	73.129	8.2548e-05	84.151	-83.300	-44.323	-21.022	-96.881	33.578	20.829	-97.628	-91.655	5.974	60.810	-93.757	-89.866	-88.095	-83.837	31.685	-86.544	-8191	255	
31443.408	1	1	0	0	0.37145	0.29768	0.21634	0.29871	0.10734	0.045216	0.16577	0.20314	0.11928	0.14705	0.18735	0.15964	0.18369	0.24613	0.10632	0.3844	-1.9354	-2.9938	-2.2875	-2.7042	-2.8292	-2.1604	-2.9167	-2.6896	-2.2938	-2.9979	-2.5083	-2.5542	-2.925	-2.2479	-2.7604	-2.75	177.560	-58.323	103.490	232.231	-37.152	38.359	193.097	218.833	52.229	-91.241	180.477	-99.033	96.515	241.089	24.562	205.020	0.00047045	0.00038461	0.00014371	973.28	6.357e-06	8.7659e-06	827.24	388.21	4.5543e-06	5.3709e-06	384.83	165.42	158.95	70.066	3.7526e-06	80.856	0.0037822	0.0082354	0.0023636	999.67	7.6356e-05	9.5658e-05	853.41	400.3	7.8161e-05	9.3865e-05	399.56	172.54	165.84	73.164	8.3491e-05	84.154	-74.270	-12.006	-26.749	-97.007	54.839	45.887	-97.903	-91.547	21.842	-30.373	-93.767	-89.902	-88.459	-83.994	48.868	-86.335	-8191	255	
31443.504	1	1	0	0	0.10446	0.14268	0.13558	0.14618	0.19119	0.26158	0.076157	0.44347	0.24758	0.12651	0.032153	0.095145	0.13034	0.34848	0.14375	0.19512	-1.8563	-3.0542	-2.2812	-2.5479	-2.8708	-2.1917	-2.8625	-2.7979	-2.2708	-2.9896	-2.6542	-2.3875	-3.2021	-2.275	-2.6583	-3.0646	232.504	163.335	128.251	195.987	-43.720	-37.500	153.576	174.565	-83.312	107.449	33.096	137.595	33.215	150.569	205.098	221.334	0.00039142	0.00095018	0.00011599	974.35	2.5496e-06	5.0737e-06	830.76	385.85	5.0693e-06	7.6073e-06	384.41	165.09	158.63	70.072	6.65e-06	80.625	0.0038535	0.0083764	0.0023456	998.96	7.7174e-05	9.6369e-05	855.5	398.94	7.824e-05	9.5282e-05	399.37	172.81	165.59	73.034	8.4795e-05	84.266	-83.639	-41.741	17.743	-96.482	50.825	24.442	-97.400	-91.702	102.110	39.830	-93.844	-90.000	-88.084	-83.745	70.958	-86.272	-8191	255	
31443.625	1	1	0	0	0.18698	0.11251	0.21327	0.15606	0.018937	0.38587	0.18317	0.047623	0.020414	0.16962	0.27948	0.26106	0.13403	0.1997	0.1721	0.21658	-1.7167	-2.9417	-2.4396	-2.5583	-2.9979	-2.25	-2.8896	-2.9375	-2.0958	-2.7833	-2.7729	-2.3312	-3.1021	-2.4125	-2.3146	-3.0354	86.987	65.500	239.185	-104.541	90.368	-2.593	91.358	0.841	40.025	229.214	220.704	-92.697	216.125	68.538	117.674	90.300	0.00040541	0.00091522	0.00012256	975.14	8.9849e-06	5.3777e-06	835.08	385.27	2.2204e-06	9.5441e-06	384.44	165.09	158.53	69.919	6.2827e-06	80.666	0.003852	0.0084834	0.0024056	999	7.945e-05	9.8318e-05	856.55	398.96	8.0382e-05	9.7528e-05	398.82	172.48	165.57	72.985	8.6594e-05	84.169	-81.248	-29.515	-12.921	-96.725	41.560	78.185	-97.861	-91.729	26.642	58.422	-93.911	-89.989	-88.084	-83.866	60.902	-86.390	-8191	255	
31443.697	1	1	0	0	0.19878	0.13548	0.23323	0.2408	0.11743	0.098996	0.12365	0.14346	0.24038	0.025141	0.1602	0.35997	0.26374	0.065423	0.31936	0.37263	-1.875	-2.6875	-2.6104	-2.3604	-3.1042	-2.3937	-2.7042	-2.9854	-2.2562	-3.0104	-2.7708	-2.3292	-3.3625	-2.4813	-2.3583	-3.3646	68.231	146.032	174.102	54.717	250.049	224.882	188.603	186.148	250.295	121.933	77.061	-4.853	234.056	-45.930	199.773	126.859	0.0004823	0.00049394	0.00027552	971.62	6.8085e-06	9.8334e-06	825.85	385.17	6.0062e-06	9.9335e-06	383.84	165.61	157.86	70.181	2.9406e-06	80.639	0.0038972	0.0085944	0.0024165	998.05	8.0521e-05	9.9484e-05	852.35	399.23	8.1894e-05	9.8598e-05	398.96	172.9	165.29	73.199	8.7367e-05	84.281	-79.240	5.262	-40.601	-96.712	61.326	55.054	-97.540	-91.579	22.326	60.386	-93.820	-89.897	-87.993	-83.876	22.504	-86.419	-8191	255	
31443.816	1	1	0	0	0.18262	0.29696	0.14129	0.26032	0.12861	0.25725	0.16347	0.12232	0.11768	0.16608	0.011194	0.29255	0.1006	0.11451	0.093189	0.097627	-1.7875	-2.9021	-2.7354	-2.2146	-3.2229	-2.3917	-2.4208	-3.2333	-2.175	-2.6417	-3.0625	-2.2729	-3.0667	-2.6396	-2.3854	-3.1896	109.025	-70.911	73.030	213.240	163.880	58.918	249.098	186.600	45.119	-80.882	-45.457	226.779	-1.956	84.700	202.108	128.296	0.00047525	0.00039444	0.0002041	969.46	3.2279e-06	7.0504e-06	826.94	385.85	4.541e-06	6.2608e-06	384.28	166.01	158.93	70.14	5.5303e-07	80.889	0.0039608	0.0087117	0.0024115	995.94	8.0315e-05	9.8822e-05	853.76	398.89	8.1888e-05	9.8129e-05	399.43	172.96	165.68	73.189	8.6544e-05	84.513	-75.877	-9.677	-5.496	-96.620	114.465	26.875	-97.480	-91.496	15.936	44.187	-93.670	-89.654	-87.902	-83.631	138.256	-86.185	-8191	255	
31443.912	1	1	0	0	0.098683	0.17489	0.14596	0.2473	0.25754	0.1285	0.13939	0.2148	0.10597	0.19279	0.092052	0.12858	0.15024	0.29574	0.14313	0.30142	-1.7687	-2.4562	-2.8521	-2.3042	-3.0104	-2.6208	-2.5146	-3.1229	-2.3896	-2.6562	-3.2313	-2.4688	-3.0646	-2.9729	-2.3375	-3.2708	44.221	-68.959	97.733	226.233	228.816	104.748	141.904	205.743	95.615	-95.430	-75.250	171.869	-108.847	-19.295	104.227	146.720	0.00039858	0.00055227	0.00019351	969.71	6.2549e-06	8.0033e-06	826.15	385.41	5.0084e-06	2.4387e-06	387.11	165.65	159.17	69.932	6.2137e-06	81.22	0.0039345	0.0088088	0.0024456	995.72	8.0843e-05	9.9321e-05	854.42	398.65	8.2396e-05	9.9388e-05	400.99	173.12	165.67	73.043	8.8528e-05	84.723	-82.875	-32.275	-12.380	-96.461	53.019	19.020	-97.314	-91.331	55.003	59.761	-93.513	-89.619	-87.826	-83.550	23.647	-86.085	-8191	255	
31444.010	1	1	0	0	0.20481	0.097023	0.072096	0.10486	0.22091	0.12471	0.19558	0.12067	0.041653	0.21421	0.13735	0.094041	0.12382	0.059341	0.068822	0.34294	-2.0979	-2.4417	-2.9333	-2.1896	-2.7562	-2.6125	-2.3354	-3.2792	-2.5333	-2.5021	-3.3083	-2.2708	-3.0083	-3.125	-2.1333	-3.15	-60.195	-18.452	-87.420	202.608	72.375	176.166	151.001	67.147	209.091	61.402	-25.935	124.854	-15.184	172.124	-4.763	179.256	0.00050267	0.00067196	6.007e-05	968.83	5.1908e-06	1.2034e-05	831.01	383.63	2.2237e-06	8.3152e-06	385.35	166.11	158.7	70.135	2.0777e-06	81.055	0.0039891	0.0088046	0.002456	995.77	8.0197e-05	9.9946e-05	854.57	398.39	8.1923e-05	9.7839e-05	400.17	173.29	165.61	73.14	8.7634e-05	84.501	-78.134	-51.277	-2.233	-96.558	51.903	50.547	-97.449	-91.506	44.000	45.593	-93.496	-89.728	-87.600	-83.535	55.031	-85.797	-8191	255	
31444.105	1	1	0	0	0.09248	0.2409	0.1946	0.067958	0.24475	0.24656	0.29096	0.14413	0.1841	0.28547	0.035687	0.20135	0.19835	0.1693	0.076707	0.039487	-2.0229	-2.4396	-2.9354	-2.4167	-2.7771	-2.8937	-2.2646	-3.2	-2.6396	-2.3833	-3.1479	-2.4583	-2.7687	-3.0604	-2.2333	-2.9875	155.048	45.176	226.251	205.631	-85.319	-90.732	152.166	222.691	183.419	140.653	148.676	213.090	-68.285	-104.673	-54.885	216.630	0.00040708	0.00057098	0.00015432	970.02	7.1582e-06	1.6117e-05	827.65	386.71	4.7367e-06	7.94e-06	385.66	167.2	159.11	70.493	9.5666e-06	81.801	0.0039615	0.0087071	0.0024133	996.43	7.9628e-05	9.9672e-05	854.4	399.96	8.0978e-05	9.7364e-05	401.17	174.06	166.24	73.519	8.6518e-05	85.141	-86.407	-41.099	-6.191	-96.401	75.951	42.300	-97.315	-91.298	43.487	20.118	-93.571	-89.619	-87.621	-83.500	34.965	-85.840	-8191	255	
31444.227	1	1	0	0	0.36456	0.29752	0.10002	0.24352	0.1502	0.083143	0.19474	0.085669	0.16346	0.10888	0.057545	0.21944	0.21141	0.18665	0.1612	0.20426	-2.1937	-2.4083	-2.8833	-2.4708	-2.5542	-3.1125	-2.3917	-3.1125	-2.6854	-2.2292	-3.2583	-2.5354	-2.4562	-3.2062	-2.1458	-2.9938	197.788	-108.251	33.190	168.432	-6.781	-70.264	166.998	87.196	144.018	-20.548	40.611	221.515	-79.102	215.757	32.235	208.693	0.00043925	0.00047279	0.00019799	968.75	4.2464e-06	1.0336e-05	832.9	387.51	5.9492e-06	4.4702e-06	389.5	167.81	159.97	70.677	6.698e-06	82.065	0.0039274	0.0087519	0.0024487	997.49	8.0134e-05	0.00010145	857.78	401.42	8.0933e-05	9.9786e-05	404.68	175.36	166.97	73.873	8.8767e-05	85.721	-84.158	-6.596	-21.067	-96.213	41.007	23.938	-97.135	-91.154	49.862	39.915	-93.259	-89.732	-87.817	-83.491	53.465	-85.976	-8191	255	
31444.299	1	1	0	0	0.1402	0.23742	0.092222	0.14661	0.15101	0.19016	0.31459	0.12406	0.053763	0.12479	0.25222	0.066321	0.24272	0.22406	0.16152	0.48906	-2.2271	-2.3375	-3.025	-2.8104	-2.4646	-3.0146	-2.3229	-2.9333	-2.8729	-2.2625	-3.0083	-2.5708	-2.3729	-3.4042	-2.2396	-3.0792	-42.590	217.784	-89.793	-100.191	-32.100	245.084	-78.420	-96.803	-105.763	-27.732	159.860	238.709	203.695	198.834	186.992	199.790	0.00043473	0.0010532	0.00013468	970.66	6.9449e-06	5.7957e-06	835.05	388.96	4.4471e-06	1.0008e-05	392.01	169.37	160.46	71.108	4.9964e-06	82.946	0.004015	0.0087846	0.002485	997.46	8.165e-05	0.00010113	861.04	402.19	8.2987e-05	0.00010042	407.89	176.71	167.57	74.167	8.9915e-05	86.491	-78.738	-23.296	-54.183	-96.651	26.679	-0.771	-97.446	-91.278	-15.806	71.295	-93.452	-89.773	-87.789	-83.602	55.099	-86.106	-8191	255	
31444.395	1	1	0	0	0.098157	0.12141	0.15758	0.32901	0.28203	0.17155	0.34719	0.35576	0.0029169	0.33185	0.2484	0.27809	0.20053	0.36208	0.19218	0.17481	-2.525	-2.2687	-2.9479	-2.7583	-2.3563	-3.0542	-2.3333	-2.7667	-2.9729	-2.2854	-3.1562	-2.7146	-2.5042	-3.225	-2.2875	-2.85	-61.151	75.909	-98.628	204.638	32.787	-46.259	-49.597	209.402	-38.295	172.585	216.164	219.245	-76.907	191.874	220.842	236.088	0.00043276	0.00054066	0.0001807	969.41	4.0624e-06	3.3392e-06	839.63	388.59	5.0936e-06	9.4549e-06	391.64	169.44	160.33	70.818	8.5007e-06	82.491	0.0040572	0.0089635	0.0025256	996.74	8.2705e-05	0.00010145	862.42	401.83	8.2977e-05	0.0001007	407.03	176.69	167.42	73.975	8.8749e-05	86.039	-77.688	-58.680	-30.306	-97.010	61.197	86.281	-97.584	-91.715	52.843	50.003	-93.560	-89.935	-87.926	-83.734	57.597	-86.283	-8191	255	
31444.488	1	1	0	0	0.11237	0.39842	0.26777	0.30219	0.23703	0.24982	0.20568	0.23225	0.07837	0.19425	0.18727	0.35077	0.10114	0.012729	0.14326	0.15041	-2.6625	-2.2667	-3.0271	-2.7313	-2.25	-2.9938	-2.4042	-2.5729	-3.0687	-2.15	-2.9229	-2.8771	-2.3729	-3.2313	-2.5	-2.6458	59.333	114.362	-11.096	170.352	-66.897	224.997	-77.775	169.685	-85.548	30.878	242.936	195.147	-99.904	23.959	243.452	144.956	0.00046306	0.00081862	0.00020762	966.32	7.1578e-06	9.931e-06	829.81	387.66	5.3004e-06	9.0751e-06	390.88	168.84	160.92	71.046	6.9153e-06	82.827	0.0040622	0.0088868	0.0024995	993.11	8.2276e-05	0.00010217	857.33	401.23	8.2619e-05	0.00010036	405.93	176.59	167.42	74.149	8.8355e-05	86.297	-82.779	-22.091	-42.762	-96.568	60.199	56.080	-97.850	-91.430	54.633	47.156	-93.645	-89.715	-88.129	-83.789	44.087	-86.098	-8191	255	
31444.586	1	1	0	0	0.021654	0.063676	0.05593	0.063154	0.081063	0.16905	0.052951	0.26563	0.12116	0.15292	0.064722	0.045547	0.26702	0.38712	0.082354	0.2271	-2.6479	-2.1396	-2.6583	-2.8729	-2.2104	-3.1	-2.5958	-2.4146	-3.0417	-2.3563	-2.9292	-2.875	-2.2104	-3.1896	-2.5521	-2.4292	-69.006	180.223	42.102	-11.886	187.330	-27.442	207.676	202.012	-105.960	196.837	45.049	23.886	-88.330	232.194	76.871	217.587	0.00041735	0.00088705	0.00017945	966.19	7.8306e-06	8.7078e-06	831.11	388.94	7.8462e-06	5.0561e-06	391.86	168.83	160.89	71.042	4.3573e-06	82.953	0.0040237	0.0089294	0.0024889	992.61	8.1219e-05	0.00010108	858.25	401.72	8.243e-05	0.00010091	407.29	176.55	167.77	74.295	8.9385e-05	86.422	-85.334	-36.496	-23.828	-97.003	50.527	22.395	-97.733	-91.263	-3.270	60.621	-93.468	-89.691	-87.925	-83.752	42.075	-86.223	-8191	255	
31444.705	1	1	0	0	0.25755	0.30028	0.26633	0.094994	0.2067	0.20168	0.31452	0.27021	0.092747	0.13203	0.12394	0.10416	0.36456	0.48161	0.10211	0.29457	-2.7271	-2.1646	-2.6146	-2.9854	-1.9979	-2.9042	-2.6229	-2.4979	-3.1208	-2.3958	-2.7792	-3.2229	-2.4042	-2.9917	-2.5896	-2.3708	76.090	-87.938	84.953	133.172	-27.990	66.536	148.058	202.102	-43.065	34.127	81.408	156.485	247.178	-106.428	202.563	192.790	0.00045329	0.00079882	0.00025193	967.09	6.1273e-06	4.5178e-06	829.72	386.29	1.8047e-06	5.0477e-06	390.47	168.71	160.36	71.056	7.8447e-06	83.102	0.0040407	0.0088587	0.0024907	992.67	8.1605e-05	0.00010076	858.42	400.22	8.2586e-05	0.0001004	406.02	176.59	167.1	74.211	8.9258e-05	86.633	-84.864	-21.731	-17.340	-96.648	83.022	24.101	-97.789	-91.321	33.258	1.673	-93.655	-90.058	-87.850	-83.724	47.320	-86.107	-8191	255	
31444.801	1	1	0	0	0.16307	0.11518	0.13415	0.065465	0.076965	0.14446	0.33144	0.060914	0.097663	0.062708	0.16	0.15443	0.35386	0.17991	0.11466	0.22786	-2.625	-2.2729	-2.6292	-3.1437	-2.175	-3.0479	-2.9104	-2.5896	-3	-2.5458	-2.6229	-3.1792	-2.2313	-3.1125	-2.9167	-2.4271	228.834	-97.730	-19.385	222.619	190.845	69.272	132.558	237.337	-77.160	87.716	-105.776	116.336	168.036	-83.575	84.507	200.672	0.00051546	0.00082608	0.00030261	966.8	7.2005e-06	8.8766e-06	832.35	386.44	5.8801e-06	7.3812e-06	391.01	169.39	160.69	71.007	4.5634e-06	82.806	0.0040347	0.0089538	0.0025004	992.77	8.1472e-05	0.00010054	859.15	400.46	8.2152e-05	9.9214e-05	406.68	176.76	167.68	74.249	8.7542e-05	86.425	-86.685	-24.709	-59.530	-96.646	32.843	60.984	-97.773	-91.487	69.223	65.300	-93.686	-90.035	-88.043	-83.554	45.278	-86.273	-8191	255	
31444.898	1	1	0	0	0.20565	0.1828	0.076594	0.20885	0.14417	0.080932	0.15559	0.2624	0.26111	0.20664	0.29712	0.15624	0.17313	0.25757	0.03248	0.35665	-2.8688	-2.2938	-2.4208	-3.15	-2.1688	-2.925	-2.875	-2.3458	-3.0521	-2.5375	-2.325	-3.1542	-2.4688	-2.7521	-2.9479	-2.4271	144.151	19.638	162.092	105.246	-33.421	-23.992	128.967	205.953	226.635	2.195	-84.361	200.020	-63.223	-72.507	217.024	187.757	0.00045043	0.00089136	0.00021611	965.19	6.0663e-06	6.6874e-06	835.7	387.87	5.5574e-06	8.8347e-06	392.4	169.5	160.44	70.942	5.5975e-06	83.084	0.0039762	0.0087347	0.0024828	992.13	8.144e-05	9.9812e-05	859.67	400.99	8.2366e-05	9.9497e-05	406.99	177.13	167.64	74.371	8.7948e-05	86.623	-82.131	-26.660	-44.374	-96.477	54.567	28.750	-97.572	-91.572	31.857	30.387	-93.768	-90.096	-88.074	-83.556	41.652	-85.977	-8191	255	
31444.994	1	1	0	0	0.16766	0.22794	0.089705	0.41164	0.073716	0.021905	0.070091	0.048324	0.11028	0.16869	0.4251	0.25736	0.037276	0.12784	0.074125	0.24564	-2.6479	-2.5354	-2.3521	-3.1083	-2.3187	-2.5875	-3.1521	-2.2875	-2.8854	-2.5271	-2.2292	-3.0792	-2.2229	-2.8542	-2.8937	-2.4083	217.711	249.741	199.956	185.444	132.912	145.672	204.742	-7.719	-58.589	90.804	130.378	-35.403	77.223	235.685	143.895	227.888	0.00041666	0.00064192	0.00014281	965.82	6.254e-06	6.2762e-06	834.63	388.11	3.4257e-06	6.4936e-06	391.98	169.96	160.62	71.626	8.2449e-06	83.423	0.0040079	0.008765	0.0024699	993.73	8.0628e-05	0.00010034	860.23	401.62	8.1547e-05	9.8467e-05	407.91	177.67	167.68	74.558	8.6693e-05	86.798	-85.877	-1.090	-22.239	-96.523	90.815	59.891	-97.615	-91.534	50.832	68.647	-93.605	-89.519	-87.742	-83.482	82.757	-86.131	-8191	255	
31445.090	1	1	0	0	0.094059	0.30308	0.10613	0.017408	0.082148	0.2067	0.2233	0.11576	0.16873	0.27725	0.028086	0.26822	0.39564	0.13796	0.19368	0.29919	-2.6667	-2.7396	-2.1542	-3.2562	-2.4562	-2.5062	-3.2562	-2.3021	-2.8875	-2.8021	-2.3667	-3.1854	-2.5979	-2.4854	-2.9271	-2.1708	215.981	239.730	231.341	224.362	203.956	137.616	222.540	205.867	-55.745	187.661	10.433	187.350	148.020	203.047	190.249	176.574	0.00047475	0.00065213	0.00023108	967.48	1.1952e-05	8.947e-06	838.65	387.54	3.4164e-06	6.6148e-06	391.39	170.6	160.01	71.256	4.007e-06	82.934	0.0039672	0.0086859	0.0024436	993.95	7.961e-05	9.999e-05	862.11	401.46	8.1495e-05	9.8241e-05	407.47	177.67	167.47	74.329	8.6562e-05	86.609	-81.991	-24.421	-27.411	-96.665	28.451	52.116	-97.630	-91.406	19.457	48.496	-93.649	-89.640	-87.949	-83.586	62.389	-86.071	-8191	255	
31445.186	1	1	0	0	0.097681	0.06968	0.20917	0.20834	0.13092	0.19189	0.255	0.33607	0.21095	0.13818	0.19885	0.17249	0.2252	0.26222	0.20609	0.37777	-2.2812	-2.7375	-2.0771	-3.325	-2.3875	-2.3833	-3.1667	-2.375	-2.7271	-2.8667	-2.2375	-3.0542	-2.7104	-2.3167	-2.8792	-2.4354	-11.572	207.138	-86.759	-94.340	125.214	232.648	157.070	175.506	-103.449	182.789	234.821	233.183	221.926	181.207	204.542	199.586	0.00044482	0.0005237	0.00019442	970.98	5.1005e-06	2.4863e-06	835.72	387.66	4.7721e-06	9.39e-06	390.21	169.43	161.01	71.117	7.258e-06	82.858	0.0039418	0.0086572	0.0024559	996.8	7.8893e-05	9.8257e-05	860.21	400.95	7.9771e-05	9.6602e-05	405.5	176.52	167.72	74.162	8.6351e-05	86.272	-80.320	-0.469	-27.589	-96.371	53.350	78.302	-97.499	-91.165	105.626	63.027	-93.414	-89.482	-87.717	-83.385	20.688	-85.967	-8191	255	
31445.307	1	1	0	0	0.20039	0.047553	0.16882	0.22757	0.12326	0.17885	0.19585	0.38367	0.28194	0.17755	0.053557	0.24771	0.15769	0.36398	0.16255	0.37055	-2.2292	-3.0271	-2.0021	-2.9896	-2.6229	-2.1813	-3.2021	-2.5312	-2.5083	-3.0938	-2.1229	-2.8958	-2.7417	-2.4104	-3.0104	-2.6479	155.914	-8.435	-69.288	217.269	-76.072	42.316	210.714	195.868	157.108	97.980	173.895	232.464	144.596	207.604	99.195	174.113	0.00043453	0.00071572	0.00013892	970.24	4.0479e-06	8.3656e-06	835.43	387.76	5.8212e-06	1.4409e-06	390.73	168.83	160.51	71.446	6.9658e-07	82.621	0.0039515	0.0085722	0.0024275	996.04	8.0352e-05	9.8004e-05	857.88	400.32	8.0946e-05	9.7886e-05	405.6	176.72	167.53	74.38	8.5742e-05	86.293	-81.184	-3.470	-2.084	-96.225	57.729	29.715	-97.446	-91.415	61.444	140.986	-93.387	-89.689	-87.602	-83.395	135.523	-85.855	-8191	255	
31445.400	1	1	0	0	0.23666	0.0064634	0.18555	0.30532	0.40554	0.13178	0.28097	0.39448	0.10027	0.13672	0.22115	0.12649	0.088111	0.050079	0.090348	0.31477	-2.1271	-2.8937	-2.2604	-2.7792	-2.8583	-2.1833	-3.2583	-2.5146	-2.3812	-2.9917	-2.4583	-2.8458	-3.0979	-2.3187	-3.0375	-2.7167	224.804	47.752	113.677	223.417	130.865	71.018	225.071	160.840	102.280	181.070	-21.882	173.592	185.033	140.700	-20.038	185.910	0.00048793	0.00036172	0.00016645	967.41	4.3545e-06	9.2556e-06	829.99	387.11	4.9126e-06	8.3387e-06	389.92	169.25	160.49	70.917	1.4831e-06	82.737	0.0039532	0.0085046	0.0024325	993.85	7.7658e-05	9.6882e-05	856.24	400.27	7.8521e-05	9.4357e-05	404.62	176.12	167.07	73.995	8.3136e-05	86.1	-80.844	-18.696	-52.019	-96.513	87.823	43.685	-97.292	-91.449	69.776	42.044	-93.768	-89.727	-87.842	-83.649	17.078	-86.078	-8191	255	
31445.496	1	1	0	0	0.17953	0.23389	0.30005	0.51598	0.26276	0.13915	0.095954	0.039661	0.28911	0.18331	0.086053	0.1071	0.18052	0.33313	0.085072	0.26781	-1.8729	-3.0021	-2.2	-2.6667	-2.8625	-2.2521	-3.1646	-2.7333	-2.2167	-3.0708	-2.4437	-2.7896	-3.1208	-2.2708	-2.8375	-2.7521	87.440	250.167	227.049	230.264	-29.014	-42.317	192.007	168.983	-8.956	202.619	182.186	151.939	204.845	175.722	204.659	157.886	0.00040867	0.00059146	0.00022826	971.49	2.0934e-06	3.3317e-06	835.24	386.68	5.5722e-06	8.6348e-06	390.04	169.5	159.94	70.731	5.5252e-06	82.214	0.0037543	0.0081393	0.0022902	995.78	7.5139e-05	9.3047e-05	858.6	399.94	7.4609e-05	9.1057e-05	404.57	176.21	166.63	73.679	8.066e-05	85.445	-84.088	-35.338	-19.101	-96.577	61.406	70.449	-97.664	-91.481	61.125	39.469	-93.707	-89.577	-87.923	-83.677	51.592	-86.101	-8191	255	
31445.594	1	1	0	0	0.2284	0.10019	0.095012	0.36379	0.16234	0.21911	0.16681	0.15353	0.12536	0.16943	0.13484	0.18257	0.23003	0.3417	0.022085	0.18409	-2.0354	-3.0208	-2.4167	-2.7208	-2.9167	-2.2708	-3.0333	-2.8708	-2.1625	-3.0042	-2.3208	-2.5625	-3.125	-2.3583	-2.9208	-2.9188	-61.729	165.369	-36.153	236.366	84.168	166.683	-31.588	89.049	-73.017	-25.688	-68.681	-50.424	192.365	-89.897	45.759	38.848	0.0003855	0.00050574	0.00029569	969.05	2.6662e-06	6.429e-06	831.16	384.65	4.5354e-06	1.0101e-05	387.31	168.38	159.54	70.729	7.9954e-06	82.034	0.0036826	0.0081354	0.0022719	995.92	7.4325e-05	9.2571e-05	854.19	397.82	7.5868e-05	9.2091e-05	401.16	175.1	166.19	73.731	8.3233e-05	85.587	-84.622	-4.522	5.218	-96.649	41.173	14.008	-97.582	-91.572	50.878	11.689	-93.673	-89.687	-88.003	-83.769	43.306	-86.116	-8191	255	
#DATA ENDS
