BOXY.EXE: ISS Imagent and Oximeter Data Acquisition Program Version 0.80
Ascii Record File

#ACQ INFORMATION
2  Detector Channels 
16  External MUX Channels 
1  Auxiliary Channels 
5000  Waveform (CCF) Frequency (Hz)
1  Waveforms Skipped 
30  Waveforms Averaged 
1  Cycles Averaged 
16  Acquisitions per Waveform 
10.0806  Updata Rate (Hz) 

#FILE INFORMATION
TRUE -- External MUX Channel results are PARSED.
FALSE -- AC DC and Phase are NOT grouped.
TRUE -- Companion Program Settings File CREATED.
FALSE -- AC data not excluded
FALSE -- DC data not excluded
FALSE -- Phase data not excluded
FALSE -- Auxillary Chn. data not excluded
Tab delimiters

#CALIBRATION STATE
TRUE -- Waveform Calibration Values APPLIED.


#AUX CALIBRATION VALUES
Val Type	aux-1	

Term	1.0000e+00	
Factor	0.0000e+00	


#WF CALIBRATION VALUES
A = Detector Channel
Val Type	A-AC1	A-AC2	A-AC3	A-AC4	A-AC5	A-AC6	A-AC7	A-AC8	A-AC9	A-AC10	A-AC11	A-AC12	A-AC13	A-AC14	A-AC15	A-AC16	A-DC1	A-DC2	A-DC3	A-DC4	A-DC5	A-DC6	A-DC7	A-DC8	A-DC9	A-DC10	A-DC11	A-DC12	A-DC13	A-DC14	A-DC15	A-DC16	A-Ph1	A-Ph2	A-Ph3	A-Ph4	A-Ph5	A-Ph6	A-Ph7	A-Ph8	A-Ph9	A-Ph10	A-Ph11	A-Ph12	A-Ph13	A-Ph14	A-Ph15	A-Ph16	

Term	0.00000e+00	0.00000e+00	0.00000e+00	0.00000e+00	0.00000e+00	0.00000e+00	0.00000e+00	0.00000e+00	0.00000e+00	0.00000e+00	0.00000e+00	0.00000e+00	0.00000e+00	0.00000e+00	0.00000e+00	0.00000e+00	0.00000e+00	0.00000e+00	0.00000e+00	0.00000e+00	0.00000e+00	0.00000e+00	0.00000e+00	0.00000e+00	0.00000e+00	0.00000e+00	0.00000e+00	0.00000e+00	0.00000e+00	0.00000e+00	0.00000e+00	0.00000e+00	0.00000e+00	0.00000e+00	0.00000e+00	0.00000e+00	0.00000e+00	0.00000e+00	0.00000e+00	0.00000e+00	0.00000e+00	0.00000e+00	0.00000e+00	0.00000e+00	0.00000e+00	0.00000e+00	0.00000e+00	0.00000e+00	
Factor	1.00000e+00	1.00000e+00	1.00000e+00	1.00000e+00	1.00000e+00	1.00000e+00	1.00000e+00	1.00000e+00	1.00000e+00	1.00000e+00	1.00000e+00	1.00000e+00	1.00000e+00	1.00000e+00	1.00000e+00	1.00000e+00	1.00000e+00	1.00000e+00	1.00000e+00	1.00000e+00	1.00000e+00	1.00000e+00	1.00000e+00	1.00000e+00	1.00000e+00	1.00000e+00	1.00000e+00	1.00000e+00	1.00000e+00	1.00000e+00	1.00000e+00	1.00000e+00	X	X	X	X	X	X	X	X	X	X	X	X	X	X	X	X	

B = Detector Channel
Val Type	B-AC1	B-AC2	B-AC3	B-AC4	B-AC5	B-AC6	B-AC7	B-AC8	B-AC9	B-AC10	B-AC11	B-AC12	B-AC13	B-AC14	B-AC15	B-AC16	B-DC1	B-DC2	B-DC3	B-DC4	B-DC5	B-DC6	B-DC7	B-DC8	B-DC9	B-DC10	B-DC11	B-DC12	B-DC13	B-DC14	B-DC15	B-DC16	B-Ph1	B-Ph2	B-Ph3	B-Ph4	B-Ph5	B-Ph6	B-Ph7	B-Ph8	B-Ph9	B-Ph10	B-Ph11	B-Ph12	B-Ph13	B-Ph14	B-Ph15	B-Ph16	

Term	0.00000e+00	0.00000e+00	0.00000e+00	0.00000e+00	0.00000e+00	0.00000e+00	0.00000e+00	0.00000e+00	0.00000e+00	0.00000e+00	0.00000e+00	0.00000e+00	0.00000e+00	0.00000e+00	0.00000e+00	0.00000e+00	0.00000e+00	0.00000e+00	0.00000e+00	0.00000e+00	0.00000e+00	0.00000e+00	0.00000e+00	0.00000e+00	0.00000e+00	0.00000e+00	0.00000e+00	0.00000e+00	0.00000e+00	0.00000e+00	0.00000e+00	0.00000e+00	-4.94537e+01	-1.32809e+02	-1.23513e+02	-1.81272e+02	-4.96041e+01	-6.63140e+01	-1.58454e+02	-1.62015e+02	-4.15339e+01	-6.63104e+01	-1.70397e+02	-1.70056e+02	-1.81304e+02	-1.76553e+02	-5.05393e+01	-1.49279e+02	
Factor	1.87085e-05	1.43766e-04	4.24095e-05	1.53419e-01	1.53692e-06	1.72329e-06	1.65314e-01	5.65315e-02	1.29581e-06	1.63815e-06	8.74246e-02	2.87404e-02	2.54357e-02	8.54675e-03	1.52938e-06	1.21105e-02	1.62134e-05	3.95395e-05	1.11172e-05	7.86664e-02	3.62932e-07	4.53557e-07	7.97313e-02	2.91212e-02	3.67586e-07	4.50120e-07	4.36910e-02	1.44261e-02	1.32318e-02	4.45127e-03	3.92718e-07	6.10433e-03	X	X	X	X	X	X	X	X	X	X	X	X	X	X	X	X	



#DISTANCE SETTINGS
A = Detector Channel
A-1	A-2	A-3	A-4	A-5	A-6	A-7	A-8	A-9	A-10	A-11	A-12	A-13	A-14	A-15	A-16	

2.5000e+00	3.0000e+00	2.5000e+00	3.0000e+00	2.0000e+00	3.0000e+00	1.5000e+00	3.0000e+00	3.0000e+00	3.0000e+00	3.0000e+00	3.0000e+00	3.0000e+00	3.0000e+00	1.5000e+00	3.0000e+00	

B = Detector Channel
B-1	B-2	B-3	B-4	B-5	B-6	B-7	B-8	B-9	B-10	B-11	B-12	B-13	B-14	B-15	B-16	

1.0000e+01	1.0000e+01	1.0000e+01	1.4400e+00	1.0000e+01	1.0000e+01	1.5100e+00	1.9400e+00	1.0000e+01	1.0000e+01	1.9900e+00	2.4900e+00	2.4100e+00	2.9000e+00	1.0000e+01	2.9800e+00	




#DATA BEGINS
time	group	step	mark	flag	A-AC1	A-AC2	A-AC3	A-AC4	A-AC5	A-AC6	A-AC7	A-AC8	A-AC9	A-AC10	A-AC11	A-AC12	A-AC13	A-AC14	A-AC15	A-AC16	A-DC1	A-DC2	A-DC3	A-DC4	A-DC5	A-DC6	A-DC7	A-DC8	A-DC9	A-DC10	A-DC11	A-DC12	A-DC13	A-DC14	A-DC15	A-DC16	A-Ph1	A-Ph2	A-Ph3	A-Ph4	A-Ph5	A-Ph6	A-Ph7	A-Ph8	A-Ph9	A-Ph10	A-Ph11	A-Ph12	A-Ph13	A-Ph14	A-Ph15	A-Ph16	B-AC1	B-AC2	B-AC3	B-AC4	B-AC5	B-AC6	B-AC7	B-AC8	B-AC9	B-AC10	B-AC11	B-AC12	B-AC13	B-AC14	B-AC15	B-AC16	B-DC1	B-DC2	B-DC3	B-DC4	B-DC5	B-DC6	B-DC7	B-DC8	B-DC9	B-DC10	B-DC11	B-DC12	B-DC13	B-DC14	B-DC15	B-DC16	B-Ph1	B-Ph2	B-Ph3	B-Ph4	B-Ph5	B-Ph6	B-Ph7	B-Ph8	B-Ph9	B-Ph10	B-Ph11	B-Ph12	B-Ph13	B-Ph14	B-Ph15	B-Ph16	aux-1	digaux	

31298.068	1	1	0	768	0.36612	0.11117	0.17979	0.19531	0.1575	0.28343	0.42535	0.24044	0.098121	0.074109	0.24156	0.28483	0.1439	0.082137	0.13848	0.051586	-2.2812	-3.1292	-2.4021	-3.0542	-2.9042	-2.2938	-3.2104	-2.8667	-2.5667	-3.2479	-2.5417	-3.0396	-3.1771	-2.5667	-3.0438	-2.9958	253.506	221.587	264.236	530.338	488.643	337.922	523.284	486.307	381.717	536.295	497.366	535.664	213.874	186.043	202.614	507.000	0.0010247	0.0005895	0.00021699	937.89	7.7866e-06	4.759e-06	982.13	374.59	7.3791e-06	4.0783e-06	432	178.21	144.27	66.342	8.9687e-06	91.548	0.0027122	0.005138	0.0014478	965.46	4.7511e-05	5.9006e-05	1010.6	386.33	4.8966e-05	5.8705e-05	448.12	184.9	149.61	69.55	5.1937e-05	95.558	274.612	270.538	288.110	189.768	341.481	368.096	189.262	194.998	335.556	352.502	193.741	198.051	199.662	204.576	323.819	201.951	-8191	255	
31298.164	1	1	0	0	0.10008	0.17119	0.1307	0.11158	0.13346	0.089858	0.23312	0.16363	0.15505	0.15899	0.094615	0.25773	0.36874	0.11214	0.15609	0.043185	-1.9333	-3.2938	-2.5021	-2.7938	-3.1271	-2.4	-3.1958	-2.8833	-2.5646	-3.2062	-2.7604	-2.7313	-3.0812	-2.525	-3.0958	-3.1271	206.722	266.822	232.791	454.748	224.833	421.545	494.176	499.591	373.508	506.120	366.742	182.415	520.663	224.946	296.943	368.724	0.00095748	0.00087036	0.00018192	942.82	7.4117e-06	7.2854e-06	984.26	374.89	6.6961e-06	5.8044e-06	434.24	177.89	144.15	66.458	8.2484e-06	91.18	0.0027279	0.0051691	0.0014516	968.23	4.8306e-05	5.9434e-05	1009.7	386.69	4.9269e-05	5.9086e-05	448.53	184.64	149.75	69.541	5.3089e-05	95.087	274.837	259.072	271.520	189.876	314.792	325.079	189.333	194.888	322.078	308.662	193.483	197.799	199.444	204.642	319.688	202.187	-8191	255	
31298.262	1	1	0	0	0.067086	0.067384	0.078658	0.13987	0.092661	0.098677	0.36813	0.15414	0.069304	0.088367	0.15268	0.081895	0.1095	0.25671	0.10434	0.16117	-1.8604	-3.0792	-2.4792	-2.8042	-3.1042	-2.4479	-3.0875	-3.0208	-2.2917	-3.3167	-2.9146	-2.5708	-3.2875	-2.4479	-2.8792	-3.0896	312.595	391.434	353.343	320.954	280.996	267.233	509.918	510.884	202.918	357.158	441.526	433.902	419.328	531.111	467.073	524.804	0.00099866	0.00080043	0.00030907	940.86	8.4853e-06	1.2145e-05	980.81	374.21	8.1872e-06	9.0636e-06	433.31	179.06	144.82	66.952	4.3014e-06	91.297	0.0027468	0.0051988	0.0014721	966.31	4.8212e-05	5.9613e-05	1007.7	387.29	4.9402e-05	5.9262e-05	449.27	185.66	150.29	69.812	5.1904e-05	95.62	277.670	240.439	269.184	190.166	318.196	331.391	189.299	195.056	330.507	319.281	193.584	198.193	199.594	204.552	307.072	202.125	-8191	255	
31298.357	1	1	0	0	0.11081	0.20484	0.068146	0.14223	0.13818	0.18722	0.24731	0.22138	0.17972	0.27926	0.23124	0.17985	0.33334	0.16231	0.22217	0.15679	-2.1021	-3.1729	-2.7583	-2.5417	-3.2313	-2.4708	-2.9458	-3.2875	-2.4688	-3.1	-2.8917	-2.525	-3.2854	-2.6521	-2.7104	-3.175	377.661	188.038	210.179	214.523	276.078	403.280	505.111	205.205	364.680	232.862	492.198	440.819	449.583	514.774	238.458	463.049	0.00094447	0.00046174	0.00020787	943.13	6.5394e-06	9.7948e-06	984.04	376.61	7.8901e-06	4.8799e-06	434.17	179.2	144.88	66.883	8.4562e-06	91.837	0.0027551	0.0051653	0.0014351	965.77	4.7935e-05	5.9073e-05	1009.2	388	4.8657e-05	5.7751e-05	449.59	185.81	150.35	69.794	5.1626e-05	95.881	278.234	282.830	285.266	190.029	358.897	298.715	189.260	195.190	346.360	321.050	193.386	198.307	199.512	204.604	351.108	202.398	-8191	255	
31298.453	1	1	0	0	0.1307	0.21941	0.083207	0.15016	0.18146	0.10962	0.29019	0.1995	0.14285	0.20806	0.059573	0.43446	0.18228	0.053324	0.17572	0.14248	-1.7417	-2.9375	-2.8021	-2.3833	-3.0896	-2.5917	-2.8417	-3.2521	-2.2854	-2.8688	-3.1188	-2.5146	-3.3229	-2.4813	-2.6667	-3.3812	281.861	470.610	486.790	178.830	178.755	221.733	417.259	421.785	256.876	511.216	419.983	489.677	316.103	285.782	279.985	495.689	0.0010423	0.00069651	0.00013246	943.73	9.8981e-06	9.5399e-06	986.03	376.4	5.9931e-06	7.823e-06	437.2	179.82	144.67	66.949	7.3765e-06	91.909	0.002801	0.0052246	0.0014395	967.55	4.8129e-05	5.9448e-05	1013.2	388.42	4.9473e-05	5.802e-05	452.38	186.93	150.84	69.92	5.2838e-05	96.203	277.059	281.793	269.566	190.254	312.085	326.551	189.543	195.098	322.510	316.220	193.543	198.137	199.607	204.694	307.838	202.207	-8191	255	
31298.551	1	1	0	0	0.28327	0.15678	0.16929	0.085754	0.043659	0.20736	0.13954	0.29197	0.18843	0.26909	0.33439	0.16885	0.33216	0.10429	0.14686	0.27802	-1.9771	-2.9521	-2.9813	-2.5146	-3.0125	-2.7125	-2.7354	-3.2792	-2.4	-2.9771	-3.1333	-2.4958	-3.3708	-3.0312	-2.3917	-3.4313	272.011	530.037	503.624	212.272	282.068	233.984	184.170	444.082	486.426	284.071	512.932	484.227	450.309	178.987	483.681	497.412	0.00099628	0.00040634	0.00016522	942.34	8.4137e-06	5.128e-06	985.43	378.05	6.7347e-06	4.9313e-06	435.63	179.69	146.21	67.223	8.4243e-06	92.12	0.0027487	0.0052264	0.0014611	967.64	4.8339e-05	5.8499e-05	1011.5	389.65	4.8983e-05	5.8256e-05	450.5	186.67	151.68	70.197	5.2618e-05	96.15	277.822	290.157	289.447	190.117	327.174	337.033	189.331	195.174	339.681	338.797	193.679	198.136	199.786	204.755	321.866	202.452	-8191	255	
31298.672	1	1	0	0	0.18624	0.24416	0.19755	0.045306	0.030172	0.054325	0.1824	0.14249	0.1208	0.08935	0.11461	0.31398	0.11913	0.048316	0.21165	0.17539	-1.9854	-2.6833	-3.0312	-2.3583	-3.0271	-3	-2.6833	-3.2188	-2.5062	-2.775	-3.375	-2.4271	-3.0875	-3.125	-2.3625	-3.4521	466.461	520.905	474.878	479.182	398.855	395.462	482.724	201.343	447.501	197.448	466.307	511.815	485.603	410.472	472.934	440.074	0.0010079	0.00054014	0.00019138	943.53	5.3332e-06	5.6702e-06	986.83	378.36	7.736e-06	5.2453e-06	436.09	181.72	146.47	67.515	6.9717e-06	92.455	0.0027519	0.0051901	0.0014364	967.58	4.7003e-05	5.8397e-05	1011.5	389.92	4.8293e-05	5.9032e-05	452.38	187.87	152.19	70.543	5.1874e-05	96.641	278.389	266.644	285.164	190.073	334.753	350.381	189.425	195.238	347.332	327.056	193.755	198.363	199.886	204.719	346.252	202.468	-8191	255	
31298.768	1	1	0	0	0.35006	0.23805	0.067582	0.23276	0.31939	0.084876	0.054189	0.12929	0.17759	0.10067	0.2707	0.37961	0.58904	0.38824	0.085535	0.13549	-2.0542	-2.6604	-3.1375	-2.2062	-2.9771	-2.85	-2.6083	-3.1333	-2.7833	-2.5771	-3.4208	-2.6104	-3.0417	-3.2646	-2.3104	-3.4125	311.764	352.720	344.345	490.222	218.212	487.425	286.641	533.030	508.621	225.748	467.090	459.768	534.253	484.447	378.551	184.586	0.0010004	0.00078906	0.00015231	946.51	5.8434e-06	8.1887e-06	991.47	376.81	7.2959e-06	6.2886e-06	435.24	181.33	146.04	67.566	7.4669e-06	92.87	0.0027147	0.0051203	0.001444	970.23	4.7013e-05	5.6755e-05	1014.6	389.46	4.7975e-05	5.8457e-05	452.95	188.1	152.05	70.573	5.1668e-05	96.981	275.810	256.904	289.373	190.070	335.788	307.668	189.722	195.388	336.624	301.938	193.895	198.366	199.975	204.705	328.729	202.410	-8191	255	
31298.863	1	1	0	0	0.062507	0.32389	0.077186	0.064277	0.12334	0.39066	0.16394	0.093382	0.21784	0.13951	0.16715	0.09774	0.21307	0.088727	0.2452	0.03832	-2.2625	-2.4917	-3.175	-2.3854	-2.9042	-3.1896	-2.4458	-3.3896	-2.6521	-2.4146	-3.4313	-2.5917	-3.0521	-3.3521	-2.3333	-3.2687	326.432	183.583	479.007	416.658	484.410	350.194	487.719	496.686	419.096	197.117	449.521	523.788	195.400	461.116	221.115	386.472	0.00097863	0.00057673	0.00018866	946.65	6.2125e-06	5.9193e-06	992.42	380.4	8.2511e-06	1.0075e-05	439.4	182.27	146.62	67.714	5.9886e-06	93.158	0.0027567	0.0051569	0.001438	970.3	4.8048e-05	5.8257e-05	1018.2	391.45	4.8297e-05	5.808e-05	455.48	188.93	152.66	70.668	5.1986e-05	97.127	275.364	238.294	232.596	190.259	335.562	323.497	189.318	195.317	352.551	295.727	193.912	198.202	199.841	204.970	345.959	202.254	-8191	255	
31298.959	1	1	0	0	0.16182	0.10909	0.13371	0.042923	0.17448	0.045388	0.14373	0.26308	0.33771	0.015665	0.05671	0.24256	0.13424	0.14034	0.30115	0.21682	-2.4042	-2.3792	-3.1979	-2.6437	-2.7771	-3.1042	-2.4646	-3.1792	-2.8708	-2.525	-3.2479	-2.7667	-2.8542	-3.3604	-2.6271	-3.1542	418.714	193.289	491.806	510.045	285.460	350.454	486.675	531.251	431.181	319.768	465.741	482.894	440.915	178.905	203.950	444.501	0.0010015	0.00075552	0.00018721	945.29	7.4832e-06	9.86e-06	988.74	378.12	1.0114e-05	4.3085e-06	438.06	182.69	148.23	68.233	8.6584e-06	93.177	0.0027005	0.0051014	0.0014343	969.37	4.6719e-05	5.7527e-05	1012.5	390.7	4.7514e-05	5.8076e-05	452.98	189.44	153.68	71.164	5.1678e-05	97.349	276.111	268.089	259.705	189.929	304.692	327.439	189.180	195.393	345.489	328.957	193.726	198.218	199.835	204.681	345.409	202.368	-8191	255	
31299.053	1	1	0	0	0.20456	0.19435	0.030322	0.31269	0.3547	0.1879	0.16267	0.07717	0.28833	0.23874	0.11489	0.10414	0.098799	0.32615	0.14633	0.1222	-2.4708	-2.2062	-3.0104	-2.8896	-2.575	-3.2667	-2.6688	-2.9875	-2.9208	-2.4167	-3.2604	-2.9708	-2.6333	-3.2458	-2.4354	-3.0125	509.229	281.791	500.703	445.405	202.649	410.862	377.377	525.026	388.553	395.254	436.290	189.696	387.570	524.596	393.194	187.119	0.0010412	0.00080245	0.00016549	943.67	8.221e-06	3.6528e-06	991.18	379.55	6.6921e-06	5.0135e-06	439.22	183.54	148.51	68.214	5.0454e-06	93.519	0.0026802	0.0050538	0.0014362	970.15	4.6898e-05	5.7728e-05	1015.1	391.94	4.7913e-05	5.7734e-05	455.63	190.01	154.21	71.208	5.1037e-05	97.598	275.747	262.774	241.131	189.959	313.092	333.490	189.318	195.429	345.416	313.159	193.915	198.389	199.943	204.897	312.217	202.429	-8191	255	
31299.150	1	1	0	0	0.25106	0.15631	0.21391	0.26044	0.19589	0.1496	0.26365	0.47215	0.23886	0.29973	0.33895	0.3163	0.1946	0.097135	0.11442	0.16892	-2.6583	-2.2875	-3.1562	-2.8458	-2.4813	-3.4917	-2.5792	-3.0312	-3.0854	-2.3187	-3.2229	-2.9667	-2.4229	-3.2958	-2.4354	-2.8458	482.283	295.179	366.692	534.025	278.880	403.296	453.874	454.294	312.279	236.615	458.673	532.413	412.646	261.042	488.577	513.437	0.0010381	0.00089182	0.00013798	944.56	8.8334e-06	7.8609e-06	991.92	379.7	9.1082e-06	4.3931e-06	440.19	184.4	149.02	68.185	6.7862e-06	93.815	0.0027032	0.0051186	0.0014185	970.92	4.7223e-05	5.824e-05	1018.4	392.24	4.8148e-05	5.7841e-05	456.42	190.76	154.28	71.333	5.1569e-05	98.069	276.899	243.491	260.365	190.342	336.249	303.365	189.610	195.415	335.977	328.945	194.060	198.361	199.676	204.641	291.124	202.446	-8191	255	
31299.270	1	1	0	0	0.024615	0.0034858	0.21428	0.1763	0.053427	0.22481	0.10515	0.1547	0.026939	0.16911	0.18359	0.29862	0.20527	0.12761	0.19191	0.19632	-2.8083	-2.1896	-2.9938	-2.9854	-2.4042	-3.1688	-2.825	-2.8833	-3.275	-2.25	-2.9938	-3.0792	-2.4583	-3.4146	-2.6146	-2.7833	373.093	263.208	211.364	207.350	288.597	381.524	525.016	186.645	263.516	369.035	190.286	517.936	516.958	478.008	464.561	510.706	0.0010103	0.00059647	0.00021138	949.87	8.6172e-06	5.1012e-06	995.18	380.1	6.8472e-06	6.1421e-06	442.92	184.68	149.17	68.319	5.0898e-06	93.783	0.0027182	0.0050317	0.0014396	973.82	4.6967e-05	5.7639e-05	1020.8	392.7	4.7442e-05	5.7356e-05	457.58	191.59	154.6	71.477	5.1352e-05	97.881	277.646	271.621	271.291	190.172	338.589	335.866	189.565	195.338	321.201	313.443	193.784	198.207	199.736	204.949	326.707	202.396	-8191	255	
31299.365	1	1	0	0	0.29232	0.209	0.19797	0.18762	0.047189	0.2489	0.34243	0.18621	0.2395	0.10282	0.039685	0.26113	0.13255	0.22483	0.12965	0.14456	-2.8812	-2.2104	-2.775	-3.2042	-2.4333	-3.2625	-2.9458	-2.5333	-3.2396	-2.4437	-2.8917	-3.2125	-2.475	-3.3458	-2.6021	-2.5167	532.855	294.821	308.681	441.424	327.033	382.509	456.633	460.752	438.229	397.969	240.268	481.481	227.761	472.937	354.045	488.452	0.0010491	0.00052163	0.0001298	941.21	8.6448e-06	6.0872e-06	988.98	379.89	6.2735e-06	3.781e-06	437.78	184.3	148.88	68.378	8.3036e-06	93.716	0.0027175	0.0050827	0.0014186	968.35	4.7693e-05	5.7861e-05	1014.8	392.02	4.7803e-05	5.7562e-05	455.06	190.8	154.77	71.667	5.0966e-05	97.899	276.751	251.862	287.451	190.278	320.553	309.338	189.475	195.442	333.918	261.119	194.083	198.332	199.924	204.542	338.136	202.388	-8191	255	
31299.463	1	1	0	0	0.16928	0.10211	0.17685	0.12715	0.35373	0.16018	0.15404	0.20618	0.048334	0.14178	0.047	0.45984	0.20663	0.10683	0.089285	0.16769	-2.7792	-2.4479	-2.6875	-3.1271	-2.4	-3.1521	-2.8063	-2.375	-3.1854	-2.6188	-2.7333	-3.3625	-2.4729	-3.1896	-2.8354	-2.6896	469.387	514.091	411.835	260.927	212.015	485.315	468.852	486.139	277.606	417.766	309.029	493.476	243.720	228.883	467.781	426.106	0.0010197	0.00084942	0.00015034	946.08	4.0185e-06	8.0643e-06	992.53	381.62	6.4559e-06	1.1735e-05	441.26	184.01	148.83	68.896	7.2922e-06	93.992	0.0027431	0.0051564	0.0014441	971.67	4.7482e-05	5.7329e-05	1016	393	4.8797e-05	5.7574e-05	456.73	191.21	154.66	71.762	5.1777e-05	97.978	275.143	244.497	307.713	190.144	327.531	307.084	189.304	195.154	334.013	344.904	193.808	198.136	199.748	204.673	325.313	202.400	-8191	255	
31299.559	1	1	0	0	0.1723	0.098119	0.12661	0.11977	0.14239	0.19673	0.19424	0.236	0.21483	0.050996	0.054059	0.26586	0.22176	0.17731	0.18621	0.17561	-2.9562	-2.4875	-2.6979	-3.3708	-2.4583	-3.0625	-3.0104	-2.5125	-3.0708	-2.6542	-2.7687	-3.4729	-2.4729	-3.0812	-3.1167	-2.5979	303.145	242.190	394.115	478.723	377.864	356.724	193.929	502.061	297.168	210.995	419.196	473.369	210.382	194.193	352.862	409.845	0.0010145	0.00078381	0.00030734	944.92	8.7465e-06	9.5329e-06	992.11	381.17	8.1465e-06	1.0489e-05	441.39	184.73	149.16	68.498	7.6259e-06	94.156	0.0027656	0.0051578	0.0014581	970.97	4.7868e-05	5.8674e-05	1018.5	393.22	4.8959e-05	5.8661e-05	457.79	191.91	154.96	71.729	5.1903e-05	98.228	276.194	242.136	264.466	190.131	327.078	321.103	189.425	195.302	325.048	336.820	193.761	198.325	199.798	204.822	330.021	202.452	-8191	255	
31299.631	1	1	0	0	0.16303	0.11919	0.39051	0.17831	0.23815	0.081907	0.2135	0.11933	0.25819	0.23723	0.25662	0.3663	0.2505	0.13838	0.20162	0.39251	-2.8729	-2.6937	-2.5021	-3.3625	-2.3833	-2.7125	-3.0917	-2.6208	-3.1771	-2.8208	-2.4979	-3.1896	-2.5583	-2.9188	-3.1104	-2.5875	231.486	513.718	421.084	519.973	487.764	196.073	410.636	452.316	522.297	323.987	489.115	465.879	180.634	521.231	420.261	500.998	0.001035	0.00069353	0.00024261	945	2.4709e-06	6.4989e-06	991.94	379.32	8.2562e-06	8.699e-06	439.01	184.14	149.55	68.219	7.4002e-06	93.457	0.00277	0.0052533	0.001462	972.03	4.7946e-05	5.9175e-05	1017	391.88	4.9315e-05	5.9417e-05	455.37	190.7	154.63	71.326	5.258e-05	97.393	274.538	240.464	303.123	189.939	308.841	326.464	189.220	195.223	328.813	336.538	193.730	198.079	199.545	204.820	299.368	202.102	-8191	255	
31299.752	1	1	0	0	0.055789	0.13949	0.061475	0.18613	0.097706	0.24972	0.078238	0.13569	0.087672	0.099727	0.20221	0.043835	0.34593	0.082705	0.033871	0.21996	-2.7333	-2.9292	-2.5521	-3.2792	-2.4375	-2.7354	-3.2771	-2.4646	-2.9562	-2.9167	-2.2417	-3.3104	-2.6083	-2.8208	-3.2042	-2.5667	421.790	317.430	442.722	193.488	353.597	427.933	211.229	384.611	452.958	224.195	459.346	358.920	464.222	494.893	476.959	501.323	0.0010032	0.0008552	0.00027367	949.15	6.6949e-06	1.0315e-05	993.33	380.53	6.414e-06	7.8752e-06	440.22	184.15	148.99	68.355	9.2506e-06	93.837	0.0027495	0.0051569	0.001461	971.8	4.8435e-05	5.9207e-05	1015.4	392.74	4.9788e-05	5.9375e-05	456.17	191.13	154.93	71.663	5.2646e-05	97.867	272.936	274.962	265.197	190.004	329.977	325.126	189.426	195.383	348.486	323.070	193.820	198.051	199.697	204.667	318.258	202.346	-8191	255	
31299.848	1	1	0	0	0.17444	0.12159	0.19912	0.16646	0.050152	0.14901	0.13157	0.28764	0.17876	0.087063	0.14566	0.20196	0.043246	0.094125	0.12187	0.18137	-2.7	-2.8792	-2.2792	-3.3063	-2.6146	-2.3896	-3.3271	-2.5938	-2.7854	-2.9875	-2.5375	-3.2854	-2.9896	-2.6646	-3.0479	-2.7708	430.736	344.924	184.951	204.776	286.114	243.186	434.991	454.347	371.449	331.870	197.723	197.792	440.391	181.536	282.091	520.666	0.0010289	0.00080685	0.00023775	946.83	7.42e-06	8.8188e-06	992.08	380.13	6.3384e-06	7.4003e-06	442.13	185.87	149.68	68.498	8.3605e-06	94.082	0.0027816	0.0052988	0.001491	972.16	4.9002e-05	5.9842e-05	1016.5	392.91	4.9071e-05	5.8882e-05	457.72	192.37	155.24	71.729	5.213e-05	98.427	273.228	269.377	253.909	190.091	318.602	320.858	189.488	195.221	327.090	296.519	193.586	198.369	199.730	204.795	333.953	202.185	-8191	255	
31299.943	1	1	0	0	0.015199	0.31415	0.11325	0.17783	0.11066	0.11058	0.39938	0.24559	0.19768	0.20355	0.23797	0.10332	0.29638	0.17208	0.1766	0.23867	-2.3563	-3.0521	-2.15	-3.1979	-2.8417	-2.325	-3.2479	-2.6354	-2.7583	-3.0917	-2.5417	-3.0563	-3.0292	-2.5438	-3.2417	-2.6625	445.747	447.462	245.701	499.592	433.683	336.236	497.826	445.633	276.911	379.891	428.734	238.550	532.195	478.268	367.635	502.071	0.0010099	0.00068756	0.00026802	948.56	6.3103e-06	5.4103e-06	997.03	381.89	6.7111e-06	8.736e-06	442.95	185.84	150.02	68.648	4.8277e-06	94.171	0.0027467	0.0051896	0.0014604	974.5	4.7882e-05	5.9746e-05	1021.6	393.99	4.8694e-05	5.947e-05	459.18	192.8	155.74	71.82	5.2291e-05	98.308	276.109	262.977	277.531	190.266	333.340	351.434	189.396	195.121	326.375	324.500	193.560	197.990	199.558	204.670	359.950	202.106	-8191	255	
31300.039	1	1	0	0	0.37415	0.41805	0.25754	0.11784	0.16752	0.33539	0.17257	0.31643	0.14983	0.06918	0.20262	0.14278	0.099102	0.094472	0.099693	0.15931	-2.3208	-3.2354	-2.3	-3.0833	-2.775	-2.3917	-3.4208	-2.5354	-2.4813	-3.2208	-2.3729	-3.1271	-3.1875	-2.5062	-3.2271	-2.6917	444.172	371.277	470.286	531.106	234.470	388.191	466.544	482.742	405.445	214.439	508.584	187.030	464.916	183.656	359.900	189.293	0.0010277	0.00061725	0.00013225	947.03	9.0973e-06	8.6976e-06	991.49	380.23	7.8395e-06	9.0231e-06	438.11	184.44	149.62	68.931	6.854e-06	94.114	0.0027417	0.0051999	0.0014631	972.58	4.7865e-05	5.9942e-05	1013.3	392.97	4.855e-05	5.8615e-05	455.22	191.64	155.62	71.901	5.2329e-05	98.152	274.695	245.075	261.814	190.143	324.663	305.939	189.451	194.915	332.261	322.095	193.570	198.174	199.597	204.726	336.792	202.085	-8191	255	
31300.158	1	1	0	0	0.04135	0.030313	0.19187	0.18127	0.096207	0.18084	0.1933	0.032041	0.28833	0.11157	0.29647	0.4019	0.14691	0.35311	0.023969	0.3672	-2.0333	-3.2375	-2.2979	-2.8208	-2.9354	-2.3354	-3.2292	-2.7396	-2.5	-3.25	-2.4208	-2.9688	-3.2417	-2.4396	-3.0729	-2.9437	218.748	413.830	363.722	409.308	467.567	248.259	447.622	185.207	494.492	285.369	431.452	512.147	453.128	474.215	438.479	513.841	0.0010279	0.00060491	0.00018563	945.69	5.69e-06	7.4303e-06	988.37	380.54	6.5509e-06	5.088e-06	443.73	185.41	150.53	68.915	4.0906e-06	94.069	0.0027854	0.0052204	0.0014637	972.66	4.8256e-05	6.0631e-05	1015	393.54	4.9561e-05	5.8336e-05	457.74	192.32	156.05	71.939	5.2291e-05	98.367	274.002	258.497	283.723	190.116	332.377	316.295	189.321	195.115	343.577	288.828	193.279	198.335	199.697	204.604	341.034	201.964	-8191	255	
31300.232	1	1	0	0	0.24912	0.11634	0.10039	0.049019	0.13298	0.40947	0.16852	0.098214	0.34737	0.19404	0.15821	0.053608	0.26389	0.19564	0.22429	0.056559	-1.9333	-3.2812	-2.4125	-2.9938	-3.0229	-2.4729	-3.3	-3.1083	-2.3563	-3.2292	-2.5083	-2.8083	-3.4125	-2.5625	-3.0021	-3.1229	331.164	244.013	435.043	302.012	517.948	328.242	439.759	430.811	458.420	268.312	204.259	509.098	514.948	389.955	220.863	431.919	0.0010278	0.00038786	0.00010224	949.96	7.9555e-06	3.899e-06	994.37	379.46	1.0436e-05	5.1146e-06	442.94	185.79	150.02	68.979	8.8667e-06	94.663	0.0027823	0.0051458	0.0014563	972.32	4.8335e-05	5.9999e-05	1018.2	392.96	4.9389e-05	5.8353e-05	458.65	192.79	155.85	71.915	5.2641e-05	98.719	275.434	252.382	294.386	190.319	341.319	341.311	189.403	194.867	329.382	342.438	193.627	198.154	199.571	204.605	304.642	201.996	-8191	255	
31300.352	1	1	0	0	0.1311	0.13008	0.14552	0.033549	0.084547	0.19765	0.19504	0.11199	0.10763	0.063182	0.24094	0.32348	0.099612	0.41357	0.09671	0.11428	-1.9062	-3.1562	-2.3917	-2.6083	-3.2125	-2.3292	-3.0896	-2.9062	-2.1875	-3.1063	-2.8458	-2.7958	-3.2062	-2.5187	-2.8083	-3.1729	196.061	370.697	238.671	246.355	179.052	529.553	414.763	435.187	328.538	204.680	446.358	193.156	424.709	511.044	197.128	246.942	0.00097631	0.00071926	0.00024379	945.46	5.689e-06	5.127e-06	993.75	381.37	7.6569e-06	7.8012e-06	440.6	185.25	149.7	68.34	7.3004e-06	93.548	0.0028319	0.0052136	0.0014652	972.36	4.9072e-05	6.0363e-05	1018.5	393.58	4.9035e-05	5.8321e-05	456.8	192.04	155.54	71.595	5.3207e-05	97.741	276.357	273.620	262.716	190.166	343.012	348.474	189.426	195.099	308.533	316.620	193.626	198.451	199.626	204.682	315.347	201.980	-8191	255	
31300.447	1	1	0	0	0.26762	0.08777	0.076133	0.34379	0.2247	0.20593	0.089105	0.15112	0.17769	0.19661	0.066655	0.031149	0.26614	0.27912	0.10875	0.13799	-1.9875	-3.1875	-2.675	-2.5062	-3.4604	-2.4771	-3.0729	-3.3042	-2.3104	-3.1312	-3.0521	-2.5938	-3.3458	-2.7375	-2.8958	-3.3375	310.460	355.507	325.589	179.625	518.099	514.484	187.491	203.995	467.227	180.676	399.046	384.464	530.827	525.979	289.970	484.999	0.0010274	0.00092733	0.00022577	945.66	6.9074e-06	8.471e-06	986.88	380.7	1.0461e-05	7.6594e-06	441.66	184.48	150.17	68.699	7.0937e-06	94.148	0.0027742	0.0051945	0.0014782	971.78	4.8728e-05	5.9339e-05	1011.4	393.28	4.9984e-05	5.9544e-05	457.02	191.78	155.87	71.859	5.2517e-05	98.383	274.697	286.874	241.814	190.201	325.336	335.805	189.602	195.407	336.791	355.415	193.741	198.276	199.834	204.762	321.701	202.225	-8191	255	
31300.543	1	1	0	0	0.15952	0.16815	0.11464	0.15462	0.059344	0.12439	0.22452	0.11253	0.32903	0.065696	0.21349	0.41998	0.36721	0.10989	0.18007	0.26062	-1.9896	-2.9958	-2.9417	-2.6312	-3.2167	-2.5187	-2.8083	-3.3771	-2.4417	-3.1	-2.9875	-2.4	-3.3563	-2.7812	-2.6833	-3.3521	299.150	417.591	196.994	210.713	465.966	440.268	503.841	494.351	475.433	448.605	480.916	452.252	507.423	510.305	499.436	434.927	0.001021	0.00063239	0.00020892	952.77	7.0174e-06	6.0623e-06	991.14	381.79	7.8212e-06	8.0148e-06	443.94	186.65	150.37	68.936	7.9918e-06	94.617	0.0027936	0.005187	0.0014554	975.83	4.8574e-05	5.8922e-05	1016.6	394.09	4.8501e-05	5.8888e-05	458.42	193.22	156.14	71.953	5.1277e-05	98.739	273.986	257.911	268.494	190.153	329.738	343.908	189.309	195.126	331.765	283.860	193.658	198.220	199.632	204.659	317.536	202.027	-8191	255	
31300.639	1	1	0	0	0.19444	0.13496	0.16166	0.26315	0.046196	0.14223	0.21482	0.1616	0.14331	0.26919	0.32035	0.088831	0.044011	0.011938	0.10386	0.1426	-1.8188	-2.8104	-2.9042	-2.6063	-3.2625	-2.8333	-2.6271	-3.2646	-2.3271	-2.8812	-3.1792	-2.4062	-3.1375	-2.8896	-2.4646	-3.325	500.222	267.105	419.700	481.874	394.013	310.795	420.449	192.821	367.027	339.577	462.115	396.422	508.859	536.940	276.380	435.028	0.0010383	0.00073597	7.8654e-05	947.82	7.6856e-06	7.0857e-06	993.92	381.24	7.279e-06	7.0723e-06	441.95	186.08	149.87	68.838	7.2137e-06	94.597	0.0027703	0.0051293	0.0014322	974.8	4.8459e-05	5.8524e-05	1019.8	394.31	4.8341e-05	5.853e-05	458.73	192.63	155.58	71.827	5.1967e-05	98.749	275.065	251.823	257.235	189.934	341.864	306.900	189.446	195.187	320.922	304.950	193.513	197.968	199.638	204.574	336.873	202.179	-8191	255	
31300.760	1	1	0	0	0.22775	0.43713	0.1324	0.24262	0.097536	0.14976	0.22964	0.26627	0.20687	0.041817	0.062658	0.46198	0.25072	0.29746	0.11849	0.33401	-2.0125	-2.4583	-2.9625	-2.4458	-3.1979	-2.9354	-2.4479	-3.1521	-2.4521	-2.6979	-3.2417	-2.4125	-3.0625	-3.05	-2.4062	-3.3375	295.473	454.255	289.114	488.192	502.078	340.394	482.061	483.419	220.770	224.872	235.460	191.104	209.837	185.836	357.579	440.994	0.0010488	0.00051733	0.00024544	947.84	9.54e-06	5.9038e-06	991.45	381.7	9.9214e-06	7.4005e-06	440.83	183.23	149.2	68.652	9.0215e-06	93.8	0.0027652	0.0051741	0.0014531	973.02	4.8454e-05	5.7948e-05	1016.6	393.42	4.8262e-05	5.7387e-05	455.18	190.55	154.62	71.625	5.2717e-05	97.995	277.949	289.886	277.150	190.026	323.130	358.362	189.306	195.093	354.984	329.433	193.775	198.151	199.661	204.522	327.210	202.155	-8191	255	
31300.855	1	1	0	0	0.17605	0.02063	0.077594	0.36481	0.14186	0.11962	0.22256	0.18701	0.13099	0.067016	0.2099	0.12159	0.38059	0.53785	0.15014	0.077641	-2.1896	-2.55	-3.0979	-2.3521	-2.9062	-2.8438	-2.5979	-3.2313	-2.4542	-2.4625	-3.3208	-2.4542	-2.7208	-3.2104	-2.2479	-3.3375	282.633	474.392	419.418	194.675	211.084	362.040	534.158	486.860	276.931	209.831	506.923	466.445	480.352	531.638	437.373	208.216	0.001014	0.00093018	0.0002572	944.06	8.7833e-06	7.6178e-06	989.57	381.99	8.5484e-06	7.3082e-06	440.21	183.86	148.76	68.3	6.551e-06	94.28	0.0027346	0.0052008	0.0014402	971.47	4.7389e-05	5.895e-05	1015	393.85	4.7965e-05	5.7709e-05	456.3	191.06	154.58	71.574	5.208e-05	98.33	275.075	245.664	267.554	190.122	332.678	349.601	189.455	194.903	344.291	353.105	193.772	198.313	199.735	204.717	294.540	202.103	-8191	255	
31300.928	1	1	0	0	0.020081	0.073908	0.041605	0.14354	0.088492	0.21752	0.15738	0.062656	0.029131	0.13022	0.3238	0.3649	0.097195	0.26344	0.092605	0.034371	-2.4813	-2.4479	-3.2333	-2.3208	-2.7854	-2.8354	-2.5438	-3.3479	-2.6063	-2.4188	-3.2042	-2.6583	-2.7542	-3.3125	-2.5312	-3.1	294.277	477.258	377.729	320.546	476.067	205.804	404.929	390.953	344.600	249.318	530.727	505.490	459.134	181.543	434.878	338.757	0.0010317	0.00069937	0.00018049	946.8	6.4528e-06	1.1355e-05	988.7	380.49	5.7641e-06	8.3442e-06	440.38	183.85	148.95	68.372	9.2494e-06	94.446	0.0027445	0.0051656	0.0014362	973.18	4.7226e-05	5.774e-05	1015.5	393.29	4.8137e-05	5.7793e-05	455.65	190.89	154.44	71.566	5.1368e-05	98.44	274.023	249.440	266.545	190.036	306.705	319.937	189.459	195.069	353.712	309.793	193.460	198.043	199.802	204.440	332.281	202.141	-8191	255	
31301.047	1	1	0	0	0.16089	0.1088	0.076939	0.2763	0.19986	0.024158	0.1774	0.08202	0.15053	0.020265	0.15027	0.35018	0.18568	0.22437	0.095494	0.18199	-2.3604	-2.4313	-3.2188	-2.5354	-2.625	-3.1042	-2.5021	-3.0771	-2.9625	-2.3896	-3.2167	-2.7146	-2.6688	-3.375	-2.4521	-3.1771	414.826	247.470	456.725	510.690	536.912	195.836	184.119	449.885	238.019	280.250	450.854	508.100	508.060	525.178	330.555	506.862	0.0010452	0.00091708	0.00012386	946.58	7.959e-06	7.2717e-06	994.74	380.87	7.4469e-06	8.5497e-06	443.83	184.58	148.83	68.601	1.0749e-05	94.301	0.0027289	0.0050185	0.0014063	972.74	4.6619e-05	5.6681e-05	1020.4	393.3	4.7012e-05	5.6775e-05	458.53	191.5	154.56	71.709	5.1061e-05	98.551	273.894	254.151	257.635	189.980	346.190	280.547	189.401	195.224	355.512	329.356	193.657	197.940	199.557	204.810	331.437	202.298	-8191	255	
31301.143	1	1	0	0	0.15328	0.21593	0.21872	0.23384	0.17266	0.026065	0.39148	0.078794	0.25683	0.097272	0.066216	0.23444	0.16579	0.19103	0.23556	0.20335	-2.5875	-1.9937	-3.1417	-2.5687	-2.4458	-3.0833	-2.5021	-3.0583	-3.05	-2.3083	-3.0479	-2.8833	-2.5583	-3.2792	-2.3667	-2.9458	344.720	283.231	510.058	458.123	515.456	479.774	498.742	360.735	486.867	419.903	436.589	475.859	487.986	501.823	410.472	440.917	0.0010473	0.00052723	0.00021577	947.08	8.8719e-06	8.8515e-06	989.99	380.48	8.8942e-06	9.5851e-06	440.37	183.76	148.84	68.359	5e-06	93.954	0.0027029	0.0050606	0.0014022	974.01	4.5948e-05	5.7028e-05	1013.9	393.36	4.7381e-05	5.6787e-05	454.98	190.74	154.61	71.541	5.139e-05	98.187	275.340	297.261	265.688	190.202	353.980	297.228	189.221	195.299	347.263	316.124	193.876	198.267	199.717	204.748	360.269	202.218	-8191	255	
31301.238	1	1	0	0	0.1673	0.16821	0.028594	0.248	0.098183	0.085499	0.1377	0.31181	0.25323	0.23098	0.33717	0.087504	0.22324	0.20524	0.086072	0.19273	-2.5646	-2.35	-3.1667	-2.9229	-2.4958	-3.2375	-2.5854	-2.8292	-2.9208	-2.3583	-3.025	-3.0083	-2.4833	-3.3167	-2.4229	-2.7958	404.929	442.730	266.305	500.409	430.621	279.267	458.712	262.205	495.103	471.984	489.775	294.809	266.566	196.609	502.909	491.463	0.0010163	0.00082649	7.584e-05	941.44	9.3314e-06	6.0707e-06	987.98	381.62	5.1047e-06	7.1859e-06	442.44	184.89	149.67	68.627	7.5837e-06	94.354	0.0027001	0.005015	0.0014097	968.66	4.6643e-05	5.7042e-05	1012.9	393.7	4.6895e-05	5.6455e-05	457.67	192.19	155.58	71.84	5.0484e-05	98.369	276.284	255.354	305.697	189.869	325.741	307.581	189.584	195.208	338.710	325.440	193.757	198.082	199.810	204.680	321.092	202.504	-8191	255	
31301.336	1	1	0	0	0.32215	0.087994	0.22751	0.064538	0.092819	0.29504	0.11542	0.034124	0.24613	0.13905	0.12663	0.12099	0.22141	0.34271	0.19495	0.054701	-2.6021	-2.2167	-3.1104	-3.0354	-2.2667	-3.2167	-2.6458	-2.7792	-3.0083	-2.3396	-2.9208	-3.1146	-2.4792	-3.2271	-2.5833	-2.6437	460.886	244.614	304.098	367.349	212.658	433.076	226.035	417.455	362.763	335.683	215.281	223.930	528.016	534.502	383.596	188.611	0.0010352	0.0010379	0.00023592	939.7	8.7105e-06	6.1939e-06	990.23	380.39	8.9049e-06	7.7673e-06	441.47	186.03	150.06	68.781	7.9534e-06	94.89	0.002676	0.0049918	0.0013785	966.37	4.6306e-05	5.6627e-05	1013.9	392.23	4.7311e-05	5.6784e-05	457.59	193	155.6	71.798	5.018e-05	99.002	275.571	256.836	299.755	189.799	305.732	280.617	189.349	195.200	325.806	341.666	193.724	198.003	199.776	204.786	346.324	202.596	-8191	255	
31301.455	1	1	0	0	0.14677	0.099813	0.081306	0.30145	0.33026	0.30025	0.15497	0.1514	0.25303	0.28087	0.21113	0.22213	0.18032	0.17062	0.19437	0.11805	-2.9458	-2.2396	-2.7771	-3.0667	-2.3063	-3.3333	-2.9104	-2.5812	-3.3729	-2.4021	-2.9625	-3.2313	-2.6833	-3.2313	-2.8333	-2.6188	484.082	255.174	505.283	455.704	321.745	446.331	407.759	309.055	505.045	409.256	194.513	210.645	444.718	448.797	339.559	435.035	0.0010257	0.00044091	0.00021828	949.03	1.0068e-05	6.126e-06	994.39	381.99	8.5284e-06	6.4494e-06	444.14	187.02	150.73	68.706	7.0144e-06	94.869	0.0027133	0.0050683	0.0014096	973.92	4.7248e-05	5.7383e-05	1020.5	393.7	4.7506e-05	5.7244e-05	459.55	193.77	156.42	72.006	5.0818e-05	98.947	276.219	268.678	268.421	190.026	341.311	335.638	189.482	195.204	333.009	314.174	193.877	198.198	199.726	204.848	331.687	202.246	-8191	255	
31301.527	1	1	0	0	0.062538	0.14503	0.14872	0.25634	0.21587	0.19662	0.16246	0.22376	0.21868	0.10389	0.15799	0.18854	0.1708	0.23065	0.058628	0.22792	-3.0104	-2.5312	-2.7167	-3.2792	-2.4104	-2.9188	-2.9854	-2.5292	-3.1833	-2.65	-2.7583	-3.2104	-2.4104	-3.0396	-2.9583	-2.5458	487.876	222.338	350.770	485.410	527.632	317.654	477.515	414.856	178.471	369.389	298.014	206.295	196.289	529.946	325.960	466.876	0.0010241	0.00089035	0.00015261	947.15	7.9858e-06	8.8164e-06	991.56	381.65	6.5801e-06	9.0855e-06	440.83	186.19	150.49	68.988	5.7067e-06	94.848	0.002709	0.0051864	0.0014135	971.52	4.704e-05	5.7395e-05	1015.8	393.87	4.8275e-05	5.7448e-05	456.9	193.08	156.39	72.167	5.066e-05	98.947	276.654	291.619	308.080	190.204	349.245	329.458	189.572	195.406	346.151	342.396	193.741	198.313	199.847	204.872	337.587	202.387	-8191	255	
31301.623	1	1	0	0	0.11555	0.12595	0.14781	0.11484	0.06208	0.27441	0.26156	0.23153	0.19457	0.11331	0.081108	0.22332	0.33957	0.038118	0.21668	0.086784	-2.6292	-2.4604	-2.6063	-3.3563	-2.4062	-3.0021	-2.9521	-2.3438	-3.1771	-2.7375	-2.5229	-3.2771	-2.4979	-3.0479	-2.9188	-2.6271	434.183	485.298	367.897	403.068	268.936	191.939	459.639	469.379	369.189	244.015	511.239	466.277	475.034	323.213	394.374	509.630	0.001048	0.00077038	0.00022655	949.05	8.5706e-06	4.7774e-06	991.95	381.56	6.5909e-06	7.7809e-06	445.12	187.48	151.14	69.297	9.3567e-06	95.576	0.0027159	0.0050391	0.0014152	972.8	4.6732e-05	5.8025e-05	1016.9	394.22	4.7272e-05	5.7226e-05	459.6	194.44	157.18	72.416	5.0823e-05	99.617	273.800	259.379	287.662	190.123	330.483	318.748	189.275	195.298	332.451	300.151	193.675	198.204	199.821	204.634	345.097	202.388	-8191	255	
31301.719	1	1	0	0	0.12555	0.18804	0.22772	0.16335	0.1821	0.059564	0.25726	0.27223	0.13518	0.11928	0.132	0.2135	0.24777	0.19365	0.053732	0.18748	-2.7062	-2.8021	-2.4375	-3.3021	-2.2917	-2.8229	-2.9938	-2.4688	-3.0396	-2.8833	-2.3063	-3.4271	-2.5375	-2.7708	-3.0146	-2.4792	264.660	192.136	398.789	495.585	297.571	415.239	399.499	428.090	220.302	429.476	271.967	500.315	531.337	199.979	403.439	466.202	0.0010066	0.00062468	0.00023215	948.67	6.7451e-06	7.9022e-06	994.01	382.54	6.7142e-06	4.8306e-06	445.7	187.52	151.39	69.35	9.1971e-06	95.096	0.002701	0.0050315	0.0014314	974.6	4.6544e-05	5.7514e-05	1020.1	395.26	4.7347e-05	5.7488e-05	460.66	194.65	157.38	72.471	5.1136e-05	99.553	275.618	272.857	279.064	189.883	315.886	343.971	189.417	195.155	341.165	277.779	193.965	198.109	199.447	204.865	337.179	202.499	-8191	255	
31301.840	1	1	0	0	0.19547	0.058852	0.17029	0.15543	0.097378	0.20735	0.35049	0.20562	0.21845	0.1147	0.093201	0.12677	0.14524	0.25979	0.14977	0.21166	-2.5062	-2.8333	-2.5146	-3.3333	-2.5312	-2.5958	-3.425	-2.4979	-2.9729	-2.8438	-2.6104	-3.3771	-2.8187	-2.75	-3.0938	-2.3667	338.340	217.416	456.886	502.579	370.457	512.311	456.526	454.257	231.534	198.792	332.892	471.488	500.697	187.846	499.287	477.521	0.0010874	0.00078563	0.0001205	956.26	1.0528e-05	1.0054e-05	998.5	382.1	8.6397e-06	5.5192e-06	446.92	188.8	151.1	69.398	8.5539e-06	95.692	0.0027441	0.0050177	0.0014208	978.57	4.718e-05	5.8149e-05	1023.3	395.76	4.7717e-05	5.7434e-05	461.98	195.56	157.25	72.608	5.1143e-05	99.903	275.374	247.629	276.312	189.993	335.860	338.206	189.306	195.248	308.650	330.990	193.393	198.076	199.458	204.670	349.381	202.010	-8191	255	
31301.936	1	1	0	0	0.060426	0.12914	0.28765	0.14521	0.27435	0.34588	0.10262	0.33601	0.017862	0.12604	0.32898	0.12748	0.19345	0.30219	0.2728	0.17037	-2.5583	-2.7521	-2.3479	-3.2708	-2.6104	-2.5479	-3.3542	-2.4854	-2.85	-3.2375	-2.4188	-3.2667	-2.95	-2.4292	-3.1813	-2.6	447.970	357.638	351.322	178.579	281.056	232.752	485.091	490.337	485.685	419.151	185.154	517.770	467.131	485.495	370.676	510.475	0.0010025	0.00088527	0.00023367	952.59	7.0971e-06	1.2825e-05	995.6	382.08	6.8473e-06	5.1017e-06	444.83	188.45	152.37	69.922	9.6542e-06	95.99	0.0026879	0.0050734	0.0014324	976.48	4.7271e-05	5.7688e-05	1020.9	395.42	4.8026e-05	5.6646e-05	460.01	195.42	158.16	72.926	5.1016e-05	99.983	277.170	254.141	255.746	189.842	310.100	318.900	189.205	194.963	337.513	320.557	193.512	198.337	199.504	204.743	308.308	202.296	-8191	255	
31302.031	1	1	0	0	0.25239	0.13152	0.10176	0.21361	0.24981	0.23333	0.22277	0.39659	0.11027	0.20625	0.061779	0.11023	0.20632	0.13973	0.09277	0.11786	-2.2771	-2.9375	-2.4854	-3.2208	-2.8208	-2.3438	-3.3167	-2.4917	-2.7479	-3.1	-2.35	-3.2188	-3.0375	-2.5687	-3.1583	-2.7542	223.187	181.324	388.979	498.500	193.635	462.678	462.208	485.674	473.860	454.895	264.717	315.602	516.936	511.232	192.488	482.016	0.0010514	0.00050923	0.00017411	950.7	2.6033e-06	8.7294e-06	996.18	383.53	6.5406e-06	9.2621e-06	444.96	188.49	152.05	69.603	8.9658e-06	96.22	0.0027077	0.0050667	0.0014304	976.45	4.6534e-05	5.7847e-05	1023.7	396.8	4.8069e-05	5.7255e-05	461.57	195.27	157.92	72.864	5.1828e-05	100.2	274.078	257.606	238.841	189.951	348.631	346.525	189.387	195.100	323.058	328.064	193.432	198.027	199.191	204.755	322.505	202.109	-8191	255	
31302.129	1	1	0	0	0.36384	0.076724	0.10485	0.097058	0.12677	0.0093298	0.082163	0.36615	0.03546	0.10186	0.10651	0.22405	0.16491	0.4273	0.14785	0.15865	-2.2083	-3.0729	-2.2917	-3.0333	-2.9854	-2.4562	-3.3354	-2.7833	-2.475	-3.0896	-2.3187	-3.0229	-3.0354	-2.3771	-3.1542	-2.8833	178.230	530.229	430.561	404.684	496.887	300.422	468.066	488.333	390.129	347.311	303.402	450.329	502.516	525.871	317.841	487.843	0.0010913	0.00073294	0.0001638	955.84	5.0101e-06	9.1016e-06	1001.6	385.07	5.7558e-06	9.2808e-06	447.17	187.49	150.82	69.292	5.6374e-06	95.707	0.002763	0.005102	0.001441	979.71	4.6716e-05	5.8249e-05	1027.5	396.96	4.8773e-05	5.6792e-05	462.31	194.61	156.6	72.382	5.2362e-05	99.849	273.707	266.630	284.673	190.139	337.497	323.515	189.181	195.052	338.407	327.974	193.511	198.333	199.448	204.585	311.316	202.007	-8191	255	
31302.223	1	1	0	0	0.32287	0.16797	0.068384	0.35881	0.041226	0.29625	0.15397	0.20353	0.074045	0.24688	0.14237	0.10849	0.22711	0.41779	0.14773	0.57433	-2.1792	-3.2333	-2.4146	-2.8937	-3.0521	-2.3625	-3.3229	-2.9458	-2.4083	-3.1063	-2.5083	-2.9021	-3.2146	-2.475	-2.8896	-2.9833	207.561	215.384	375.972	528.695	446.404	415.577	504.809	513.880	411.474	263.115	504.531	496.917	535.316	191.652	267.578	450.921	0.0010303	0.00071538	0.00022748	954.51	5.6493e-06	5.9347e-06	1001.9	382.87	6.972e-06	9.0628e-06	444.94	185.86	149.92	69.133	5.4753e-06	94.749	0.0027656	0.0052069	0.001468	980.22	4.8113e-05	5.9502e-05	1027.9	395.5	4.9395e-05	5.943e-05	461.11	193.18	155.82	72.122	5.2083e-05	99.15	274.305	263.077	273.117	190.124	344.349	333.271	189.491	195.074	345.955	327.261	193.583	198.140	199.886	204.605	340.470	201.964	-8191	255	
31302.318	1	1	0	0	0.049135	0.29511	0.12677	0.25846	0.069814	0.13699	0.32768	0.29767	0.14046	0.27063	0.21906	0.058755	0.18169	0.28764	0.1294	0.48556	-2.0521	-3.1854	-2.3917	-2.8563	-3.0563	-2.4646	-3.2083	-3.025	-2.4667	-3.2229	-2.6813	-2.8208	-3.3521	-2.5292	-3.1833	-2.9354	492.328	326.271	462.243	496.439	469.812	259.494	446.044	452.059	514.875	345.833	433.510	377.331	532.966	499.650	334.108	523.489	0.0010336	0.00037854	0.0001681	952.61	6.3649e-06	1.1154e-05	994.79	382.27	8.4857e-06	4.3592e-06	444.27	186.53	150.81	69.279	9.8127e-06	95.323	0.0028042	0.0051851	0.0014699	977.5	4.858e-05	5.9199e-05	1021.8	395.39	4.8763e-05	5.7654e-05	460.53	193.69	156.82	72.416	5.217e-05	99.666	275.540	256.507	283.464	189.840	324.841	326.572	188.955	194.657	345.286	312.436	193.054	197.817	199.216	204.342	332.983	201.865	-8191	255	
31302.439	1	1	0	0	0.088628	0.29514	0.078885	0.39754	0.26754	0.096126	0.26783	0.11994	0.27789	0.065545	0.23788	0.027317	0.22901	0.38346	0.07812	0.10438	-1.8813	-3.0104	-2.5583	-2.5667	-3.0625	-2.4354	-3.0854	-2.9479	-2.2792	-3.0146	-2.7354	-2.5417	-3.1417	-2.5625	-2.8958	-3.1604	532.086	280.296	281.770	508.296	442.735	476.921	466.796	514.995	179.019	297.377	446.145	530.897	528.543	528.995	204.696	228.255	0.001043	0.00063762	0.00017336	950.67	8.08e-06	9.2366e-06	994.92	383.22	5.9459e-06	5.1222e-06	445.65	187.92	150.82	69.351	8.6461e-06	95.951	0.0027681	0.0051667	0.0014411	976.11	4.7186e-05	5.8708e-05	1022.7	396.02	4.8674e-05	5.8056e-05	462.07	194.95	156.75	72.513	5.2115e-05	100.16	274.575	277.701	270.773	189.660	351.865	345.936	189.043	194.727	310.796	304.979	193.146	197.782	199.184	204.209	323.449	201.719	-8191	255	
31302.535	1	1	0	0	0.17802	0.069764	0.16357	0.18806	0.21351	0.41761	0.2014	0.16103	0.3225	0.19409	0.20258	0.16925	0.30542	0.5067	0.22922	0.18168	-1.7583	-2.9479	-2.7021	-2.3917	-3.1229	-2.3667	-2.8604	-3.1792	-2.3125	-3.1188	-3.2	-2.3271	-3.3708	-2.6708	-2.6542	-3.2542	370.984	492.195	491.769	519.724	214.319	234.062	267.550	446.292	391.818	282.077	468.329	222.794	180.107	493.667	348.773	448.594	0.0010051	0.00050872	0.00022081	954.07	1.0092e-05	5.952e-06	1002.8	384.28	6.3746e-06	7.6193e-06	446.73	187.87	150.92	69.356	7.8569e-06	96.19	0.0027659	0.0051001	0.0014357	978.02	4.7255e-05	5.8146e-05	1027.6	396.81	4.8993e-05	5.8099e-05	463.47	195.15	156.85	72.565	5.1288e-05	100.53	276.364	270.414	282.172	189.675	334.335	345.216	189.201	194.790	324.532	327.035	193.167	197.902	199.285	204.343	357.438	201.746	-8191	255	
31302.633	1	1	0	0	0.19492	0.017427	0.10574	0.095202	0.051123	0.27257	0.12325	0.13974	0.078809	0.16653	0.033165	0.12614	0.18628	0.050053	0.174	0.053312	-2.0812	-3.0812	-2.8292	-2.4021	-3.2479	-2.5563	-2.9	-3.2375	-2.3104	-2.8646	-3.0542	-2.4521	-3.2979	-2.5146	-2.5271	-3.2979	377.498	470.437	341.330	200.501	483.160	241.539	429.624	486.260	382.766	200.319	411.023	191.600	310.765	531.679	255.076	452.070	0.0010824	0.00063176	0.0001894	954.1	6.9061e-06	8.1305e-06	1003.2	383.67	7.7904e-06	8.4159e-06	445.22	187.45	151.09	69.393	9.014e-06	95.704	0.0027653	0.0051206	0.0014454	980.98	4.7683e-05	5.8575e-05	1029.8	396.73	4.9011e-05	5.8942e-05	462.43	194.81	157.11	72.596	5.2235e-05	99.899	275.947	281.741	246.776	189.681	326.633	347.528	189.091	194.928	324.910	318.326	193.249	197.884	199.271	204.274	334.496	201.839	-8191	255	
31302.754	1	1	0	0	0.17331	0.23511	0.29714	0.22263	0.13855	0.038564	0.29416	0.089216	0.22528	0.1579	0.24094	0.22361	0.26462	0.20222	0.23604	0.31493	-1.8958	-2.7979	-3.0646	-2.6583	-3.1083	-2.5438	-2.5521	-3.3708	-2.5083	-2.6792	-3.0479	-2.4	-3.1104	-2.9	-2.3417	-3.4313	521.554	214.027	452.902	189.448	259.182	245.773	467.363	450.729	240.172	316.993	343.707	470.416	205.965	491.268	258.845	435.372	0.0010966	0.0006601	0.00023443	955.72	3.8227e-06	5.1212e-06	993.81	384.34	8.7835e-06	5.0518e-06	447.25	188.78	152.27	69.934	5.7742e-06	96.367	0.002787	0.0051603	0.0014569	978.53	4.7565e-05	5.8148e-05	1021.9	396.82	4.8641e-05	5.8507e-05	462.77	195.89	158.38	72.977	5.1955e-05	100.52	274.694	263.990	283.367	189.753	316.213	342.758	189.260	194.879	320.212	378.483	193.368	197.895	199.440	204.308	321.119	201.799	-8191	255	
31302.824	1	1	0	0	0.41254	0.091182	0.1844	0.10027	0.22801	0.23497	0.15498	0.30836	0.24181	0.16992	0.1827	0.2026	0.12872	0.50415	0.26752	0.19073	-2.05	-2.6354	-3.0583	-2.4833	-2.9354	-2.7583	-2.4	-3.0875	-2.5271	-2.6583	-3.1875	-2.6146	-3.0833	-3.0125	-2.4188	-3.2833	481.924	425.271	527.387	325.526	359.099	473.390	193.572	198.061	515.506	217.121	518.114	493.595	462.115	494.677	324.606	479.407	0.0010522	0.00077804	0.00021162	955.77	4.3788e-06	5.307e-06	998.65	385.08	7.7072e-06	8.4468e-06	448.34	189.74	152.15	69.721	4.7529e-06	96.298	0.0027767	0.0051198	0.0014408	979.25	4.7557e-05	5.7975e-05	1024.6	397.71	4.8671e-05	5.8718e-05	463.76	196.53	158.21	72.812	5.2205e-05	100.62	276.666	264.314	259.662	189.632	359.973	345.459	189.350	194.805	341.822	313.075	193.359	197.998	199.510	204.575	345.479	202.100	-8191	255	
31302.920	1	1	0	0	0.08141	0.21375	0.26198	0.059562	0.30461	0.071629	0.16898	0.29649	0.22281	0.16903	0.074866	0.13503	0.17269	0.066053	0.061912	0.19817	-1.9833	-2.5104	-2.9938	-2.4292	-3.025	-2.8708	-2.3104	-3.2146	-2.4625	-2.5021	-3.3479	-2.5521	-2.8833	-3.2938	-2.1667	-3.3521	246.635	229.916	220.412	345.373	479.293	510.638	519.449	448.322	209.276	266.158	202.953	492.894	520.974	522.454	191.251	506.883	0.0010698	0.00058892	0.00015115	952.33	6.7548e-06	7.667e-06	1000.6	384.41	8.4212e-06	6.0658e-06	446.18	188.54	151.29	69.516	7.6844e-06	96.221	0.0027502	0.0052105	0.0014611	977.63	4.8296e-05	5.9526e-05	1027.8	397.29	4.8622e-05	5.8337e-05	463.49	195.16	157.1	72.626	5.3122e-05	100.5	274.084	278.952	262.984	189.828	324.059	324.747	189.027	194.896	336.227	346.717	193.598	197.727	199.685	204.457	331.263	202.233	-8191	255	
31303.018	1	1	0	0	0.22662	0.142	0.11923	0.11249	0.26158	0.23921	0.2084	0.10683	0.38161	0.1051	0.066759	0.24719	0.21798	0.24472	0.065851	0.25553	-2.2375	-2.3417	-3.2562	-2.4833	-2.7562	-2.9333	-2.4125	-3.2167	-2.7938	-2.4458	-3.1167	-2.525	-2.725	-3.2854	-2.3083	-3.1562	483.797	495.925	391.820	307.646	497.283	202.707	480.963	436.784	445.734	323.978	505.377	227.906	433.761	455.764	347.970	467.529	0.0010747	0.0006244	0.00012962	957.17	8.8628e-06	7.1944e-06	1000.7	385.42	8.1106e-06	8.4667e-06	444	187.19	151.3	69.305	1.0116e-05	95.779	0.0027984	0.0052083	0.0014647	980.56	4.8779e-05	5.9207e-05	1025.9	396.66	4.9334e-05	5.8847e-05	460.65	194.06	157.13	72.426	5.2025e-05	99.885	276.237	268.281	264.597	189.699	336.260	306.625	189.077	194.977	340.461	319.906	193.635	198.089	199.601	204.515	345.795	202.158	-8191	255	
31303.135	1	1	0	0	0.02151	0.2843	0.10676	0.2039	0.19872	0.11515	0.16588	0.3596	0.33717	0.1249	0.22402	0.13052	0.11722	0.21129	0.098348	0.30768	-2.7146	-2.2687	-3.0958	-2.6042	-2.6021	-3.2042	-2.3604	-2.8875	-3.0229	-2.4396	-3.1562	-2.5854	-2.7438	-3.3583	-2.4854	-3.1458	402.584	311.711	451.331	503.927	236.191	219.332	449.842	453.173	461.948	236.756	357.930	219.059	313.459	196.122	460.855	499.074	0.0010267	0.00061857	0.00029718	950.73	7.844e-06	9.8867e-06	995.62	385.44	9.3305e-06	6.4448e-06	447.5	188.15	151.79	69.569	6.1658e-06	96.38	0.0027906	0.0051733	0.0014545	976.35	4.8036e-05	5.9004e-05	1022.9	397.36	4.8504e-05	5.8771e-05	462.29	194.94	157.44	72.693	5.2099e-05	100.39	276.311	265.500	285.793	189.742	328.728	321.876	189.220	194.908	327.337	321.906	193.731	198.113	199.721	204.649	336.755	202.245	-8191	255	
31303.232	1	1	0	0	0.18586	0.32874	0.25803	0.14412	0.26729	0.13848	0.074185	0.16477	0.16065	0.18656	0.39922	0.11589	0.3794	0.068299	0.4313	0.25115	-2.6583	-2.3396	-3.0812	-2.8063	-2.6063	-3.2021	-2.5146	-3.0187	-2.8812	-2.2896	-3.3021	-2.8208	-2.4083	-3.2625	-2.3854	-3.0521	407.872	435.144	532.739	193.625	425.026	397.056	504.372	476.007	387.131	252.272	462.532	512.464	523.325	516.897	233.805	451.786	0.0010725	0.00055768	0.00016406	950.85	7.3365e-06	5.1092e-06	998.25	384.27	5.9771e-06	6.0713e-06	445.46	187.47	151.05	69.375	6.1e-06	96.068	0.0028195	0.0053845	0.0014819	979.32	4.8617e-05	5.9921e-05	1024.4	397.7	4.9041e-05	5.9409e-05	462.44	194.64	156.86	72.56	5.3204e-05	100.23	276.587	250.223	266.276	189.848	335.552	312.290	189.511	195.155	345.045	318.094	193.792	197.939	199.856	204.794	327.962	202.618	-8191	255	
31303.328	1	1	0	0	0.040395	0.21693	0.1567	0.061789	0.20229	0.074683	0.065357	0.28098	0.18192	0.17184	0.20432	0.34588	0.21531	0.079093	0.11455	0.17674	-2.6188	-2.3	-2.8979	-3.0604	-2.4229	-3.1437	-2.6229	-2.7	-3.2188	-2.3167	-3.0667	-2.9771	-2.4562	-3.3812	-2.5833	-2.6917	380.595	526.624	313.530	313.696	261.518	417.020	396.059	185.510	491.016	341.498	518.588	481.139	505.904	492.001	367.423	451.198	0.0010607	0.00072555	0.00010973	954.16	9.2762e-06	9.8435e-06	1002	383.45	4.1975e-06	5.322e-06	448.59	187.69	151.27	69.343	9.9179e-06	96.15	0.0027937	0.0052918	0.0014762	977.57	4.8342e-05	6.0036e-05	1026.9	396.24	4.9822e-05	5.886e-05	463.98	194.82	156.62	72.577	5.3306e-05	100.36	275.445	270.513	271.121	190.101	350.600	329.448	189.566	195.178	333.732	353.599	193.838	198.003	199.725	204.644	348.662	202.343	-8191	255	
31303.400	1	1	0	0	0.24309	0.16548	0.036029	0.27434	0.18252	0.21867	0.23241	0.047631	0.15528	0.12606	0.38032	0.26262	0.054117	0.1466	0.11542	0.32953	-2.7458	-2.3958	-2.7583	-3.0979	-2.1333	-3.1792	-2.6958	-2.7	-3.0687	-2.3292	-3.0167	-3.225	-2.525	-3.2521	-2.4938	-2.7396	267.391	432.293	227.352	522.686	345.721	349.939	464.153	309.013	489.125	304.519	444.082	533.120	204.511	195.511	214.070	191.734	0.0010439	0.00072299	0.00024502	951.69	7.8944e-06	5.6046e-06	995.03	384.44	5.4516e-06	9.0421e-06	445.13	186.79	150.95	69.173	5.8843e-06	95.495	0.0027659	0.0052064	0.0014485	976.4	4.8564e-05	5.8814e-05	1024.1	396.38	4.9021e-05	6.0002e-05	461.01	193.69	156.56	72.286	5.2737e-05	99.688	274.121	245.332	257.368	189.935	339.361	340.944	189.720	195.448	321.568	331.305	193.672	198.222	199.695	204.757	314.612	202.192	-8191	255	
31303.520	1	1	0	0	0.22524	0.0092202	0.053584	0.15341	0.25878	0.12127	0.26998	0.075795	0.053098	0.21723	0.054997	0.09566	0.22975	0.19918	0.23047	0.077463	-2.8021	-2.35	-2.9208	-3.0104	-2.2625	-3.0187	-2.6958	-2.5917	-3.1917	-2.3292	-2.8333	-3.2521	-2.625	-3.0438	-2.9375	-2.4938	242.249	372.964	399.577	183.961	327.760	250.949	200.224	268.541	261.451	203.035	195.756	424.997	463.443	190.193	474.664	434.756	0.0010566	0.00072343	0.00016463	951.37	6.4602e-06	7.7189e-06	993.35	384.55	4.4641e-06	8.978e-06	445.3	185.59	150.16	68.854	9.2302e-06	95.689	0.0028214	0.0053368	0.0014655	976.61	4.9311e-05	5.9878e-05	1021.4	396.53	4.9956e-05	5.9251e-05	461.15	192.92	155.83	72.059	5.3001e-05	99.743	278.814	250.079	249.780	190.121	313.861	348.406	189.430	195.162	316.743	329.088	193.663	197.932	199.586	204.695	303.247	202.340	-8191	255	
31303.615	1	1	0	0	0.16563	0.11702	0.059732	0.13917	0.071665	0.12144	0.11875	0.12191	0.24571	0.19847	0.077728	0.13285	0.31042	0.070353	0.19503	0.11251	-2.7812	-2.475	-2.7042	-3.3563	-2.3458	-3.1625	-3.0833	-2.7417	-3.1917	-2.5563	-2.6354	-3.325	-2.4896	-3.1542	-2.9458	-2.6063	189.573	372.379	234.835	536.249	304.941	189.595	473.339	365.005	232.373	458.349	179.850	197.443	228.301	508.314	502.312	428.628	0.0010346	0.00067472	0.00020605	951.86	8.1395e-06	5.8659e-06	1001.1	384.66	4.9401e-06	4.8834e-06	446.75	186.26	149.62	68.906	9.9385e-06	95.484	0.0027992	0.0053185	0.0014934	976.53	4.9396e-05	6.0229e-05	1023.8	396.58	4.9959e-05	6.0079e-05	461.7	193.22	155.42	72.025	5.346e-05	99.729	275.101	256.521	279.638	190.080	322.244	351.428	189.162	195.098	320.923	382.972	193.695	198.301	199.854	204.773	344.732	202.399	-8191	255	
31303.713	1	1	0	0	0.089032	0.29108	0.086464	0.23828	0.10296	0.069175	0.48692	0.36329	0.07495	0.19897	0.082164	0.18638	0.17361	0.033842	0.10302	0.16786	-2.8167	-2.6188	-2.55	-3.3979	-2.5146	-2.7896	-3.1396	-2.6625	-3.1333	-2.9062	-2.6063	-3.2062	-2.5521	-3.0625	-2.9625	-2.4333	534.617	453.706	332.032	477.188	335.980	403.087	441.514	471.923	309.380	215.943	210.263	476.122	536.180	463.211	399.802	408.579	0.0010538	0.0006818	0.00013465	955.85	7.845e-06	7.2191e-06	1001.2	381.7	7.0321e-06	4.9592e-06	445.13	185.6	150.31	68.845	1.144e-05	95.33	0.0027924	0.0052905	0.0015022	980.32	4.9141e-05	5.9583e-05	1025.3	395.73	4.9609e-05	5.819e-05	461.73	193.33	155.73	72.01	5.2743e-05	99.516	277.429	269.843	274.383	190.070	337.941	331.265	189.498	195.193	339.808	293.665	193.467	197.876	199.669	204.616	334.868	202.378	-8191	255	
31303.832	1	1	0	0	0.16993	0.12194	0.042426	0.084861	0.15758	0.060259	0.36924	0.1094	0.10776	0.21404	0.167	0.25054	0.18899	0.081526	0.15617	0.35872	-2.6958	-2.5542	-2.4042	-3.2604	-2.5021	-2.5833	-3.3958	-2.5187	-2.8833	-2.9417	-2.4188	-3.2792	-2.625	-2.9375	-3.2333	-2.6417	389.802	290.176	282.418	488.218	226.344	209.000	521.785	421.967	284.138	204.422	471.410	475.336	202.804	518.860	321.180	465.776	0.0010111	0.00072256	0.00024055	951.39	9.8754e-06	6.9409e-06	991.47	382.56	6.3455e-06	5.0453e-06	444.44	186.47	150.38	68.814	5.5373e-06	95.205	0.002764	0.0051098	0.001452	975.24	4.812e-05	5.9092e-05	1017.7	395.27	4.8505e-05	5.8771e-05	459.81	193.32	156.09	72.099	5.1813e-05	99.544	276.689	270.848	300.098	190.008	340.267	339.040	189.282	195.171	324.454	291.866	193.877	198.314	199.808	204.794	331.325	202.256	-8191	255	
31303.930	1	1	0	0	0.20498	0.094472	0.2056	0.10985	0.13798	0.20305	0.041861	0.2961	0.05597	0.06797	0.23971	0.20954	0.11831	0.30528	0.088202	0.31829	-2.6042	-3.0333	-2.5167	-3.1188	-2.4979	-2.5479	-3.3396	-2.6437	-3.2313	-3.0042	-2.4021	-3.3312	-2.6708	-2.9125	-3.2292	-2.5438	409.846	238.810	508.763	203.467	492.002	262.520	461.442	488.342	420.437	506.517	201.602	476.044	219.708	185.713	328.368	482.904	0.0010554	0.00082975	0.00017858	948.32	6.3354e-06	8.6151e-06	993.27	381.92	6.9905e-06	8.5406e-06	445.1	185.17	148.35	68.577	5.3517e-06	95.493	0.002777	0.0051443	0.0014667	974.04	4.8373e-05	5.9238e-05	1018.8	394.52	4.9275e-05	5.8619e-05	460.61	192.73	154.92	71.732	5.2404e-05	99.491	273.823	250.996	275.936	190.018	354.900	305.940	189.692	195.227	317.474	354.889	193.624	198.100	199.577	204.847	336.790	202.312	-8191	255	
31304.023	1	1	0	0	0.20442	0.096418	0.11448	0.22584	0.06059	0.25057	0.36852	0.1136	0.11856	0.20958	0.11541	0.1858	0.38595	0.2437	0.10939	0.11803	-2.4917	-2.9813	-2.4437	-3.1375	-2.8583	-2.4667	-3.2229	-2.6708	-2.9021	-3.1833	-2.4646	-3.3083	-2.7354	-2.6771	-3.3042	-2.5104	187.756	402.949	320.169	510.170	319.957	522.233	464.226	504.545	485.519	320.871	274.061	489.685	529.725	505.306	304.619	459.295	0.0010505	0.00044623	0.00022407	943.48	7.9005e-06	8.1742e-06	996.1	380.62	6.4045e-06	8.5805e-06	444.63	185.72	148.44	68.344	6.0934e-06	95.449	0.0027869	0.0052222	0.001501	968.53	4.8091e-05	5.9745e-05	1020.6	392.47	4.8896e-05	5.9258e-05	459.84	192.89	154.06	71.472	5.1721e-05	99.726	274.313	231.907	285.201	190.217	352.802	334.571	189.306	195.164	331.008	314.860	193.653	198.309	199.648	204.719	329.154	202.118	-8191	255	
31304.121	1	1	0	0	0.28688	0.099001	0.070849	0.36173	0.26215	0.1836	0.21707	0.18545	0.39851	0.12691	0.10268	0.24041	0.26631	0.21109	0.058509	0.15143	-2.1646	-3.0625	-2.2167	-3.1625	-2.8875	-2.3771	-3.3167	-2.6292	-2.6292	-3.3104	-2.3021	-3.1562	-3	-2.5396	-3.1021	-2.6917	201.784	287.954	187.722	424.539	386.115	314.156	458.388	278.900	392.164	462.962	388.976	535.656	197.001	479.108	346.940	475.885	0.0010721	0.00089399	0.00021653	946.35	7.1442e-06	6.9607e-06	996.02	378.35	6.7473e-06	3.6065e-06	442.97	184.41	148.48	68.111	7.6181e-06	94.713	0.0027795	0.0051712	0.0014622	969.02	4.7028e-05	5.9414e-05	1021.5	391.89	4.8763e-05	5.8236e-05	458.53	191.93	153.86	71.249	5.2373e-05	98.838	276.535	261.026	266.193	189.932	315.796	323.760	189.488	195.085	335.375	332.395	193.476	198.238	199.591	204.720	311.240	202.161	-8191	255	
31304.217	1	1	0	0	0.13541	0.23652	0.10524	0.1991	0.16698	0.23031	0.27326	0.5074	0.22365	0.24326	0.12097	0.14117	0.3259	0.52303	0.14338	0.02723	-2.2104	-3.0854	-2.3146	-3.0479	-2.9625	-2.2771	-3.2958	-2.675	-2.6583	-3.2521	-2.5833	-2.9479	-3.1708	-2.2938	-3.25	-2.9292	336.527	315.586	373.724	303.227	352.045	380.502	368.999	446.061	370.487	315.812	488.717	322.644	499.141	509.863	192.730	180.169	0.0010559	0.00067069	0.00019724	934.99	5.8459e-06	8.4612e-06	986.78	378.42	7.0721e-06	8.0713e-06	441.92	184.32	148.58	67.892	6.8172e-06	94.991	0.002769	0.005222	0.0014759	960.05	4.7918e-05	5.9928e-05	1012.2	390.72	4.8391e-05	5.7951e-05	457.43	192.02	154.25	71.093	5.1679e-05	98.989	276.739	263.135	271.386	190.085	334.371	311.299	189.202	195.045	335.644	327.818	193.678	198.054	199.468	204.603	315.350	202.104	-8191	255	
31304.312	1	1	0	0	0.34766	0.11758	0.18944	0.2727	0.062618	0.085622	0.21742	0.217	0.15431	0.14764	0.18997	0.18848	0.24297	0.10819	0.22825	0.071165	-2.1646	-3.1292	-2.325	-2.7812	-3.1396	-2.3521	-3.1354	-2.9583	-2.5542	-3.0938	-2.6354	-2.9104	-3.2333	-2.4437	-3.1	-2.8563	347.734	288.342	203.634	487.082	225.379	524.076	411.720	194.673	198.195	236.653	200.751	510.369	456.339	526.592	344.826	478.829	0.0010699	0.00095813	0.00026219	935.27	6.4987e-06	9.7825e-06	983.71	376.47	6.856e-06	7.3038e-06	439.23	185.53	148.09	67.723	5.2419e-06	94.64	0.0027899	0.0052246	0.0014736	960.49	4.7994e-05	5.9033e-05	1012.3	389.02	4.9489e-05	5.83e-05	456.64	192.45	153.78	70.92	5.1797e-05	98.865	275.795	263.238	281.370	190.104	349.541	325.361	189.449	195.027	349.205	299.085	193.921	198.100	199.471	204.744	311.560	202.209	-8191	255	
31304.434	1	1	0	0	0.10986	0.15107	0.40477	0.16804	0.035853	0.073079	0.18686	0.12657	0.11077	0.41083	0.076152	0.16265	0.2271	0.3535	0.30279	0.3235	-2	-3.1542	-2.5125	-2.8937	-3.1958	-2.225	-3.1583	-3.0667	-2.4396	-3.1875	-2.775	-2.7229	-3.3083	-2.6063	-2.8583	-3.1917	458.213	459.440	452.504	472.105	322.368	217.387	509.830	418.898	195.552	406.411	290.715	242.923	536.438	532.696	368.366	484.066	0.0010382	0.00089982	0.00023429	932.5	9.5849e-06	7.1993e-06	989.59	377.45	6e-06	4.5615e-06	445.11	186.27	148.55	67.992	7.7584e-06	95.604	0.0027767	0.0051963	0.0014552	959.98	4.8897e-05	5.9973e-05	1016.7	389.64	4.8902e-05	5.8805e-05	459.91	193.27	154.06	71.085	5.2577e-05	99.652	273.174	258.236	287.090	189.916	340.245	322.396	189.324	195.218	349.165	342.471	193.530	198.139	199.571	204.500	315.103	202.114	-8191	255	
31304.529	1	1	0	0	0.16228	0.075472	0.28712	0.15057	0.18729	0.21212	0.076673	0.07332	0.25012	0.16088	0.40906	0.28016	0.23387	0.22085	0.076587	0.35353	-1.9708	-3.0542	-2.6312	-2.6479	-3.1813	-2.4604	-3.0896	-3.1604	-2.1479	-3.2583	-3	-2.4729	-3.1208	-2.5729	-2.7729	-3.1625	238.625	493.756	475.570	437.726	452.947	495.549	342.272	257.357	454.122	401.365	182.244	498.381	506.127	492.088	237.078	411.943	0.0010691	0.00046154	0.00020094	941.58	4.5138e-06	4.8307e-06	992.93	377.28	5.1872e-06	7.7593e-06	443.4	186.42	149.23	68.178	5.1407e-06	95.23	0.0027643	0.0052295	0.0014774	963.81	4.8483e-05	5.9515e-05	1020.7	390.77	4.9707e-05	5.899e-05	459.13	193.68	155.14	71.353	5.3264e-05	99.297	277.482	233.835	265.274	190.332	331.754	306.461	189.517	195.142	328.765	352.377	193.650	198.185	199.683	204.639	338.619	202.234	-8191	255	
31304.625	1	1	0	0	0.074379	0.25377	0.22087	0.21945	0.19847	0.095528	0.15867	0.40698	0.29032	0.041254	0.12117	0.21976	0.099953	0.25993	0.21906	0.3116	-1.8729	-2.8521	-2.7604	-2.6833	-3.0938	-2.5583	-2.8542	-3.1562	-2.4125	-2.9292	-3.0563	-2.4604	-3.3104	-2.7583	-2.6646	-3.1542	364.888	299.563	461.321	489.932	179.172	317.844	420.597	473.365	277.237	453.278	215.964	532.743	181.753	512.612	297.393	506.282	0.0010348	0.00084911	0.00023305	935.78	7.671e-06	9.5976e-06	992.58	379.72	7.733e-06	5.7329e-06	444.5	186.96	149.3	68.301	6.7274e-06	95.253	0.0027926	0.0052668	0.0014586	961.58	4.8151e-05	5.9762e-05	1018.1	391.82	4.8969e-05	5.9232e-05	460.28	193.74	155.36	71.504	5.2752e-05	99.591	274.107	257.896	281.892	190.169	329.619	315.592	189.571	195.096	348.576	366.491	193.670	198.334	199.969	204.552	321.418	202.309	-8191	255	
31304.697	1	1	0	0	0.15492	0.12618	0.31263	0.28279	0.081026	0.15901	0.13744	0.23199	0.12692	0.18616	0.25113	0.21196	0.25179	0.045379	0.19943	0.24218	-1.9979	-2.8583	-2.9625	-2.4667	-3.1958	-2.55	-2.6917	-3.2687	-2.1771	-2.925	-3.1354	-2.5708	-3.2958	-2.8229	-2.2792	-3.3688	212.844	199.144	210.684	527.012	294.371	356.889	203.203	508.126	323.557	191.381	498.145	431.355	477.051	469.339	451.684	453.122	0.0010343	0.00067551	0.00021336	945.02	5.9911e-06	6.8309e-06	995.36	379.04	6.5646e-06	4.9573e-06	443.95	186.51	149.41	68.34	6.9874e-06	95.66	0.0027846	0.0051294	0.0014684	966.41	4.8463e-05	5.9006e-05	1020.8	391.61	4.9382e-05	5.8951e-05	460.13	193.35	154.84	71.44	5.3041e-05	99.759	273.829	239.653	280.377	190.173	327.103	328.412	189.624	195.255	318.156	317.362	193.798	198.334	199.865	204.627	346.459	202.384	-8191	255	
31304.816	1	1	0	0	0.11158	0.096659	0.22803	0.27122	0.29918	0.11066	0.12301	0.15211	0.070101	0.18152	0.087493	0.067982	0.17458	0.24695	0.1233	0.29027	-1.9604	-2.7083	-3	-2.5729	-3.1917	-2.7229	-2.4729	-3.3208	-2.4396	-2.5979	-3.0875	-2.4708	-3.2167	-2.9083	-2.2667	-3.3333	465.332	249.685	284.540	535.362	334.465	242.016	501.503	392.434	441.116	178.071	204.857	440.681	351.044	507.404	390.598	522.956	0.0010711	0.00052147	0.00025894	944.75	1.0034e-05	5.6887e-06	1001.5	380.54	7.1036e-06	6.8448e-06	446.66	188.49	149.7	68.621	7.8685e-06	96.053	0.002808	0.0052118	0.0014567	969.01	4.785e-05	5.9358e-05	1025.1	392.92	4.9227e-05	5.9042e-05	462.97	194.89	155.54	71.649	5.3061e-05	100.24	274.916	279.049	278.449	190.019	333.391	303.040	189.275	195.202	332.656	333.625	193.884	198.195	199.733	204.742	321.949	202.032	-8191	255	
31304.912	1	1	0	0	0.10777	0.11777	0.25344	0.080008	0.23113	0.22987	0.26541	0.1494	0.14753	0.11887	0.040207	0.22852	0.29265	0.26745	0.1378	0.1914	-2.0812	-2.6854	-3.2667	-2.5021	-3.0438	-2.7833	-2.3021	-3.325	-2.5229	-2.6188	-3.3396	-2.7687	-3.1312	-3.1021	-2.1875	-3.2958	430.860	502.057	227.043	500.577	332.427	500.338	472.035	480.190	475.896	262.668	317.956	468.105	493.456	443.809	429.314	523.362	0.0010353	0.0008335	0.00012729	944.23	8.4069e-06	6.1264e-06	998.9	380.5	6.7382e-06	6.7183e-06	446.43	187.43	149.67	68.328	4.3516e-06	95.466	0.0027923	0.0052604	0.0014614	970.04	4.8069e-05	5.9636e-05	1026.4	393.14	4.9336e-05	5.9541e-05	461.19	194.05	155.51	71.596	5.2943e-05	99.651	272.001	251.615	260.086	190.110	335.004	305.831	189.337	195.224	312.388	315.514	193.743	198.289	199.688	204.559	338.431	202.229	-8191	255	
31305.010	1	1	0	0	0.16758	0.17995	0.21422	0.13441	0.057769	0.13122	0.33432	0.22709	0.094061	0.20802	0.14044	0.12329	0.053534	0.13394	0.10123	0.17232	-2.1729	-2.4208	-3.0854	-2.3708	-2.9979	-3.1125	-2.4208	-3.2521	-2.7708	-2.4521	-3.25	-2.6125	-2.8125	-3.1813	-2.1625	-3.2104	399.253	402.047	487.669	472.964	251.127	355.701	514.414	453.165	248.937	469.543	336.587	518.146	334.341	488.484	216.629	453.701	0.0010164	0.00071907	0.00012511	945.48	9.2326e-06	5.7207e-06	996.9	380.42	6.9333e-06	8.0771e-06	444.45	186.97	149.71	68.589	9.5013e-06	95.958	0.0027747	0.0052205	0.0014627	968.85	4.8235e-05	5.9495e-05	1022.3	393.1	4.8903e-05	5.8768e-05	461.36	193.99	155.66	71.778	5.2873e-05	99.986	276.280	263.177	293.113	190.029	349.594	334.189	189.430	195.288	342.876	325.165	193.850	198.226	199.789	204.786	326.562	202.469	-8191	255	
31305.104	1	1	0	0	0.19331	0.034891	0.077086	0.148	0.11145	0.10493	0.21314	0.3598	0.10145	0.38647	0.19645	0.068331	0.2183	0.1176	0.20839	0.17355	-2.3417	-2.1396	-3.2687	-2.5458	-2.7042	-3.0729	-2.3312	-3.2792	-2.7458	-2.2562	-3.3104	-2.7146	-2.6312	-3.3792	-2.2417	-3.15	372.770	447.386	196.077	354.426	501.349	522.672	427.291	471.568	369.772	229.324	469.783	378.268	531.762	208.213	388.157	484.495	0.0010044	0.00092765	0.00021371	943.69	9.8724e-06	9.8627e-06	996.88	380.55	8.2352e-06	7.6765e-06	448.22	187.34	149.79	68.635	8.63e-06	96.28	0.0027957	0.00526	0.0014559	969.95	4.8134e-05	5.8949e-05	1022.8	393.48	4.9005e-05	5.894e-05	462.36	194.78	155.81	71.816	5.3459e-05	100.46	276.386	247.207	292.518	190.208	348.373	337.504	189.459	195.367	314.581	316.305	193.899	198.144	199.496	204.788	328.030	202.455	-8191	255	
31305.225	1	1	0	0	0.1615	0.15739	0.16578	0.076739	0.20113	0.086494	0.028128	0.20965	0.1026	0.15675	0.10639	0.25926	0.028736	0.055249	0.053918	0.1644	-2.55	-2.1292	-3.25	-2.5167	-2.5438	-3.25	-2.3083	-2.85	-2.9833	-2.1833	-3.2333	-2.8021	-2.6229	-3.3375	-2.3167	-3.1896	177.759	360.269	452.339	432.562	429.178	502.069	212.858	513.708	527.505	490.375	376.375	432.232	263.714	432.628	268.906	485.805	0.0010563	0.00065066	0.00018822	942.17	5.6861e-06	1.047e-05	1004.4	381.15	8.9979e-06	7.1918e-06	449.63	189.93	151.77	69.083	8.6513e-06	96.913	0.0027739	0.005205	0.0014778	968.61	4.7576e-05	5.9256e-05	1027.2	393.9	4.8507e-05	5.8573e-05	465.14	196.48	157.12	72.102	5.1685e-05	100.97	275.333	262.172	272.258	190.291	311.521	331.257	189.354	195.314	326.136	340.941	193.847	198.266	199.889	204.651	311.857	202.409	-8191	255	
31305.297	1	1	0	0	0.0282	0.10523	0.1526	0.097478	0.21906	0.16114	0.36403	0.25315	0.19752	0.12236	0.31551	0.42681	0.08861	0.16462	0.14066	0.31156	-2.6083	-2.5333	-3.1729	-2.975	-2.3271	-3.2042	-2.6646	-2.7938	-3.1188	-2.2646	-3.1458	-2.8937	-2.6063	-3.2208	-2.3833	-2.8896	454.522	507.274	325.103	480.726	344.871	184.783	499.824	183.509	523.818	502.252	503.164	504.174	200.513	462.964	285.520	483.717	0.0010753	0.0011735	0.00024594	950.12	7.0331e-06	7.9812e-06	1004.7	381.86	8.7106e-06	3.1564e-06	446	187.98	150.17	68.998	5.6541e-06	95.433	0.002802	0.0052843	0.0014487	973.04	4.8624e-05	5.9917e-05	1026.8	394.43	4.9355e-05	5.8975e-05	462.64	195.03	156.16	71.968	5.273e-05	99.863	276.171	232.095	276.537	190.105	368.963	333.847	189.360	195.436	338.858	308.813	193.826	198.145	199.604	204.803	329.363	202.259	-8191	255	
31305.393	1	1	0	0	0.10102	0.057065	0.25644	0.61167	0.28346	0.31562	0.43744	0.38531	0.19655	0.13479	0.079645	0.11383	0.21252	0.14325	0.20532	0.12005	-2.7333	-2.2375	-2.9062	-2.9125	-2.4208	-3.0792	-2.5771	-2.7313	-3.1063	-2.3229	-3.1208	-3.1729	-2.5125	-3.325	-2.6562	-2.625	192.801	279.619	251.212	520.165	487.937	286.442	511.955	192.648	381.648	443.007	294.780	229.891	497.317	435.245	183.466	395.960	0.0010085	0.00060127	0.00010221	942.28	9.8248e-06	7.8212e-06	996.45	383.03	5.282e-06	4.8085e-06	446.19	188.13	149.44	68.839	6.6578e-06	95.975	0.0027835	0.0052442	0.0014563	968.08	4.8877e-05	5.9232e-05	1022.2	394.14	4.9701e-05	5.9557e-05	462.63	195.05	156	71.963	5.291e-05	100.14	276.314	259.012	280.788	190.029	290.632	310.955	189.417	195.052	352.793	327.797	193.768	198.209	199.679	204.611	317.636	202.439	-8191	255	
31305.514	1	1	0	0	0.23642	0.036406	0.22918	0.069794	0.1533	0.15746	0.20221	0.23988	0.23433	0.028478	0.16101	0.083036	0.35108	0.13813	0.2942	0.28021	-2.8208	-2.3	-2.7687	-2.9646	-2.3146	-3.15	-2.9042	-2.5187	-3.2042	-2.2396	-2.9167	-3.0438	-2.3917	-3.1667	-2.5542	-2.625	366.813	357.703	453.757	309.141	319.847	526.949	453.262	442.539	235.290	249.056	523.382	409.257	197.799	479.999	260.687	434.952	0.0010152	0.00056119	0.00018515	949.46	4.481e-06	7.6926e-06	996.54	381.8	5.9552e-06	8.8984e-06	446.84	187.85	150.31	68.708	9.8792e-06	95.84	0.0027885	0.0052516	0.0014782	971.56	4.8256e-05	5.9822e-05	1024.3	394.24	4.8969e-05	5.9873e-05	463.53	195.08	155.98	71.922	5.3103e-05	100.18	274.468	259.702	260.839	190.120	336.528	332.592	189.249	195.236	358.446	330.908	193.849	198.018	199.624	204.501	339.160	202.388	-8191	255	
31305.609	1	1	0	0	0.11759	0.040151	0.18135	0.090394	0.11397	0.049283	0.24003	0.21299	0.23316	0.16305	0.36017	0.18107	0.22114	0.1341	0.059339	0.30052	-2.6479	-2.2667	-2.5958	-3.225	-2.3104	-3.1854	-2.8271	-2.5583	-3.2729	-2.4417	-2.725	-3.2896	-2.5062	-2.95	-3.0062	-2.6042	414.892	186.262	527.150	524.992	369.013	250.132	482.575	470.971	386.806	351.601	210.032	192.357	471.959	529.770	328.525	482.961	0.001038	0.00055694	9.3394e-05	949.51	5.6284e-06	9.4946e-06	1000.6	382.34	5.7269e-06	7.802e-06	448.5	189.18	150.81	68.711	7.0073e-06	95.964	0.0027813	0.0052569	0.0014725	972.79	4.8413e-05	6.0268e-05	1027.4	394.65	4.9141e-05	5.9618e-05	464.54	195.96	156.36	71.959	5.2632e-05	100.48	276.065	264.941	317.116	189.989	338.173	306.747	189.548	195.044	320.476	337.003	193.932	198.429	199.628	205.018	343.225	202.590	-8191	255	
31305.705	1	1	0	0	0.18653	0.17549	0.073937	0.22448	0.12765	0.092716	0.20955	0.29359	0.071947	0.20179	0.052019	0.18029	0.17816	0.19943	0.30436	0.189	-2.7708	-2.5229	-2.4292	-3.3292	-2.2	-2.9188	-3.1125	-2.4042	-3.1917	-2.6271	-2.6042	-3.325	-2.4437	-3.0896	-3.1604	-2.5687	410.165	473.871	521.352	186.210	379.486	505.922	440.321	473.080	446.708	507.030	376.103	511.431	262.576	186.325	230.052	450.332	0.0010862	0.00071214	0.00012929	947.93	1.0531e-05	5.4729e-06	997.31	382.29	7.5159e-06	5.2125e-06	445.96	187.36	150.19	68.742	6.7918e-06	95.814	0.0028156	0.0053072	0.0014866	973.16	4.9019e-05	6.0069e-05	1023.8	394.4	5.0373e-05	5.941e-05	461.43	194.45	156.01	71.897	5.3121e-05	99.871	273.832	271.275	309.326	190.331	340.600	337.675	189.561	195.173	350.267	334.720	193.810	198.081	200.013	204.936	307.168	202.597	-8191	255	
31305.801	1	1	0	0	0.15567	0.15939	0.23855	0.056521	0.10194	0.28697	0.11938	0.20052	0.034703	0.12246	0.082711	0.044893	0.040741	0.25233	0.17155	0.056354	-2.8438	-2.6396	-2.425	-3.2125	-2.3917	-2.75	-3.2062	-2.5563	-3.0938	-2.8375	-2.5458	-3.3979	-2.6458	-2.8792	-3.0042	-2.6333	376.128	449.528	455.647	472.592	234.981	532.858	509.566	219.548	219.766	220.005	237.412	355.906	205.492	199.247	458.669	496.372	0.0010319	0.00067861	0.00024213	946.93	8.1081e-06	5.9258e-06	994.36	382.62	7.3069e-06	3.8318e-06	447.69	187.78	150.9	69.154	7.6658e-06	95.897	0.002782	0.0052637	0.0014677	971.99	4.8457e-05	6.0172e-05	1023.5	394.88	4.9288e-05	5.8875e-05	463.44	194.95	156.46	72.215	5.243e-05	100.23	273.375	281.516	247.331	190.162	340.123	284.906	189.493	195.233	338.457	330.635	193.727	198.204	199.695	204.734	342.530	202.387	-8191	255	
31305.922	1	1	0	0	0.12508	0.13465	0.094128	0.14322	0.18731	0.20542	0.32779	0.36594	0.049138	0.22156	0.28221	0.092541	0.10667	0.022311	0.2326	0.36244	-2.6854	-2.8479	-2.4062	-3.3583	-2.5583	-2.6625	-3.4708	-2.4479	-2.7958	-2.9104	-2.5292	-3.3208	-2.8042	-2.7417	-3.2104	-2.5521	388.831	230.182	298.382	187.147	508.566	340.009	503.370	467.972	519.728	234.627	531.063	189.498	484.603	224.724	267.000	466.612	0.0010712	0.00041206	0.00022659	948.58	4.7284e-06	8.8894e-06	994.69	381.8	6.9818e-06	5.2262e-06	447.63	188.64	150.51	68.793	7.5208e-06	96.244	0.0027963	0.0051676	0.0014616	972.8	4.871e-05	5.9273e-05	1023.5	394.64	4.8641e-05	5.8759e-05	463.42	195.76	156.37	71.954	5.2393e-05	100.3	275.206	263.051	269.303	190.292	334.232	340.290	189.573	195.306	330.489	334.184	193.804	198.328	199.604	204.974	314.665	202.335	-8191	255	
31305.994	1	1	0	0	0.020349	0.17966	0.27165	0.088057	0.089599	0.062158	0.082138	0.20787	0.22347	0.28466	0.12684	0.096113	0.17401	0.19486	0.19242	0.20661	-2.3271	-2.9229	-2.2542	-3.0167	-2.4708	-2.4	-3.2708	-2.5292	-2.85	-3.0167	-2.4146	-3.2792	-2.9417	-2.5271	-3.1771	-2.5708	446.218	445.848	289.543	444.337	299.731	262.279	485.344	223.231	388.298	380.389	535.409	444.449	516.738	504.367	414.845	210.479	0.0010666	0.00093939	0.00019168	949.89	5.0297e-06	8.2736e-06	998.05	382.08	5.0916e-06	6.8276e-06	448.71	188.62	150.36	68.841	6.9694e-06	95.751	0.0027981	0.0052327	0.0014984	973.41	4.8863e-05	6.0394e-05	1027	395.08	4.9289e-05	5.8411e-05	464.64	195.59	156.04	71.86	5.2615e-05	100.07	275.019	258.191	270.279	190.183	341.054	339.231	189.400	195.120	313.221	353.812	193.793	198.259	199.531	204.894	333.536	202.487	-8191	255	
31306.090	1	1	0	0	0.28139	0.13977	0.02746	0.1815	0.26805	0.10363	0.14556	0.21596	0.057335	0.16526	0.2956	0.23992	0.15948	0.11771	0.03464	0.040232	-2.1979	-2.9292	-2.1792	-3.0292	-2.5958	-2.4104	-3.3521	-2.5875	-2.7604	-3.0917	-2.3958	-3.2438	-2.8208	-2.5021	-3.1292	-2.6458	319.344	291.507	448.240	187.742	455.967	445.128	402.994	280.354	285.466	307.513	223.570	446.147	466.641	527.005	388.983	195.966	0.0010899	0.00090363	0.00020098	944.67	5.4554e-06	8.5171e-06	1002.4	381.69	9.1816e-06	5.8235e-06	445.67	187.79	150.08	68.672	4.2277e-06	95.194	0.0027888	0.0052205	0.0014577	970.81	4.7377e-05	5.9399e-05	1024.8	393.99	4.9149e-05	5.9409e-05	461.59	194.43	155.74	71.803	5.2344e-05	99.373	274.650	256.081	300.911	190.160	346.582	332.662	189.471	195.180	344.774	292.306	193.708	198.424	199.836	204.834	359.111	202.387	-8191	255	
31306.209	1	1	0	0	0.10909	0.20758	0.17503	0.3436	0.17578	0.22292	0.094258	0.31488	0.23062	0.075576	0.35812	0.26784	0.24191	0.17968	0.13982	0.07649	-2.4167	-3.1208	-2.3	-3.0458	-2.9062	-2.3563	-3.3	-2.6292	-2.4917	-3.1104	-2.3812	-3.0104	-3.0354	-2.6042	-3.2167	-2.8146	353.967	498.376	469.244	528.800	523.004	294.032	513.871	457.358	329.827	308.142	517.559	502.884	531.872	423.902	225.908	489.824	0.0010325	0.00083305	0.00018593	947.56	7.7077e-06	9.0008e-06	996.31	381.51	5.6939e-06	2.4393e-06	446.54	187.1	149.29	68.448	8.5008e-06	95.254	0.0027866	0.0052381	0.0014545	971.38	4.8293e-05	5.8839e-05	1022.1	394.32	4.9858e-05	5.9292e-05	462.47	193.96	155.12	71.675	5.2794e-05	99.545	277.012	267.012	260.316	190.528	322.330	337.047	189.709	195.316	317.947	305.850	194.017	198.342	199.790	204.779	336.981	202.546	-8191	255	
31306.305	1	1	0	0	0.076418	0.38935	0.30432	0.17203	0.11325	0.089753	0.19338	0.13735	0.14436	0.17393	0.20769	0.077619	0.27912	0.061939	0.12508	0.24032	-1.9875	-2.9479	-2.3375	-3.0292	-3.1458	-2.3021	-3.2854	-2.9771	-2.4521	-3.2917	-2.6604	-3.0208	-3.1125	-2.4417	-3.0917	-3.0646	479.775	426.915	297.904	487.393	235.148	270.566	456.692	437.691	318.854	219.486	423.776	453.760	530.197	253.480	332.772	491.040	0.0010333	0.00067251	0.00018984	942.9	1.0088e-05	6.177e-06	995.59	381.81	7.439e-06	5.5481e-06	449.02	187.38	149.65	68.219	6.5819e-06	95.701	0.0027787	0.0052421	0.0014766	969.35	4.8817e-05	5.9634e-05	1022.9	393.67	4.9027e-05	5.9041e-05	463.54	194.29	155.11	71.447	5.2319e-05	99.866	275.049	272.988	246.501	190.232	341.613	327.045	189.471	195.385	303.914	329.716	193.820	198.265	199.661	204.838	328.832	202.491	-8191	255	
31306.400	1	1	0	0	0.12177	0.16204	0.18531	0.57729	0.14122	0.15258	0.35231	0.13594	0.19123	0.19316	0.44663	0.20936	0.17196	0.058331	0.15204	0.16884	-1.8479	-3.0792	-2.4854	-2.8354	-2.9938	-2.3417	-3.2271	-2.9062	-2.425	-3.1271	-2.7812	-2.9292	-3.2917	-2.6146	-3.0042	-3.0542	410.416	209.652	490.195	534.057	500.666	363.319	482.360	444.475	438.062	288.844	480.067	185.426	501.151	448.545	494.719	419.965	0.0010333	0.00067839	0.00015122	947.52	5.6666e-06	6.5168e-06	998.75	382.71	9.6662e-06	5.3767e-06	448.34	188.03	149.44	68.284	5.2366e-06	94.973	0.0027949	0.0052382	0.0014709	969.27	4.8167e-05	5.9655e-05	1026.5	394.11	4.9712e-05	5.9266e-05	464.57	195.06	155.46	71.475	5.3704e-05	99.444	276.051	248.329	289.358	190.118	344.132	322.171	189.801	195.319	334.158	367.933	193.777	198.435	199.658	204.620	326.182	202.410	-8191	255	
31306.496	1	1	0	0	0.18692	0.075515	0.069074	0.30652	0.07594	0.052268	0.25403	0.31181	0.17461	0.22738	0.29584	0.076206	0.3286	0.18228	0.12144	0.1664	-2.0333	-3.1646	-2.6333	-2.7375	-3.1167	-2.3208	-3.1604	-3.1083	-2.3208	-3.2292	-2.8104	-2.75	-3.4479	-2.5625	-2.8354	-3.1167	401.831	238.509	480.410	469.913	394.309	313.909	486.741	458.819	464.942	535.274	515.806	189.712	494.777	202.711	371.958	420.330	0.001039	0.00099647	0.00029984	940.12	1.042e-05	5.392e-06	994.64	379.57	6.1274e-06	8.1047e-06	444.43	186.6	149.24	68.34	9.967e-06	95.031	0.0028186	0.0052661	0.0014922	966.33	4.898e-05	6.0782e-05	1017.9	392.51	4.9547e-05	5.9965e-05	459.94	193.78	155.28	71.5	5.3393e-05	99.187	276.462	264.854	275.689	190.370	341.760	358.304	189.629	195.242	346.638	366.619	193.727	198.153	199.812	204.743	310.076	202.266	-8191	255	
31306.594	1	1	0	0	0.030506	0.064226	0.20795	0.15701	0.18228	0.18405	0.17745	0.26449	0.06413	0.042654	0.29152	0.091847	0.34745	0.092274	0.18823	0.16455	-2.1063	-2.9542	-2.9521	-2.5229	-3.0917	-2.3958	-2.8479	-3.3146	-2.2625	-2.8354	-2.7771	-2.7146	-3.2188	-2.7167	-2.6708	-3.2917	391.561	384.520	390.939	474.498	344.955	355.471	490.451	503.647	185.335	345.468	479.419	268.597	471.281	239.047	256.933	429.109	0.0010153	0.00037603	0.00018465	945.27	7.3908e-06	7.3516e-06	993.58	380.4	9.5462e-06	9.6713e-06	445.93	185.96	149.12	68.57	6.7134e-06	95.196	0.0027889	0.0052525	0.0014839	966.6	4.842e-05	6.0773e-05	1020.7	393.31	4.9756e-05	5.9932e-05	461.45	193.71	154.86	71.557	5.3289e-05	99.425	276.634	230.441	284.795	190.195	339.465	318.062	189.396	195.093	317.708	343.545	193.809	198.418	199.892	204.858	336.937	202.396	-8191	255	
31306.689	1	1	0	0	0.053983	0.024214	0.052756	0.31867	0.097729	0.13425	0.28753	0.12073	0.1292	0.22108	0.18172	0.28363	0.21861	0.36375	0.15744	0.24973	-1.9583	-3.0938	-2.7167	-2.4792	-3.1729	-2.5979	-2.7292	-3.2458	-2.5687	-2.8333	-3.0125	-2.3792	-3.4104	-2.7979	-2.5771	-3.2625	290.086	368.540	508.542	441.252	441.167	494.618	492.415	427.362	418.631	400.776	434.568	429.170	178.203	504.996	394.859	492.750	0.0010532	0.00064342	0.00017941	940.01	4.2088e-06	1.0323e-05	992.74	380.66	9.0149e-06	8.1428e-06	445.49	186.99	148.75	68.433	8.1826e-06	95.514	0.0028013	0.0052841	0.0014862	965.52	4.8318e-05	6.04e-05	1021.2	393	4.9927e-05	5.9765e-05	462.44	194.07	154.72	71.635	5.3456e-05	99.652	275.900	244.223	255.516	190.153	314.779	344.300	189.225	194.976	361.225	348.660	193.369	197.997	199.558	204.365	359.797	202.225	-8191	255	
31306.785	1	1	0	0	0.3046	0.28567	0.29439	0.14108	0.014447	0.017818	0.17848	0.28964	0.24951	0.20683	0.093033	0.23889	0.15372	0.31649	0.16331	0.14343	-1.8687	-2.9479	-3.0583	-2.4875	-3.225	-2.6146	-2.5896	-3.525	-2.5104	-2.9458	-3.1833	-2.1833	-3.2313	-2.8	-2.35	-3.4062	375.533	290.717	532.750	463.465	184.804	240.782	524.660	522.698	517.169	252.491	288.873	515.701	177.434	496.880	263.621	465.370	0.0010615	0.0005131	0.00020303	941.4	7.9845e-06	6.8494e-06	999.37	381.03	1.0326e-05	4.3923e-06	447.16	186.71	149.25	68.327	6.293e-06	95.208	0.0028221	0.0052151	0.0014725	967.29	4.9623e-05	5.9718e-05	1023.9	392.97	4.9603e-05	5.9133e-05	462.14	193.95	155.05	71.526	5.318e-05	99.349	274.556	267.569	263.368	190.195	335.414	330.499	189.482	195.051	327.351	346.296	193.384	198.171	199.778	204.652	340.890	202.013	-8191	255	
31306.883	1	1	0	0	0.16667	0.1571	0.020232	0.36495	0.080195	0.060212	0.096509	0.13249	0.21212	0.10724	0.24344	0.17294	0.089439	0.17091	0.24391	0.17035	-2.0542	-2.7104	-2.9979	-2.6208	-3.0438	-2.8542	-2.5604	-3.2062	-2.6542	-2.5812	-3.1354	-2.5333	-3.2021	-3.0542	-2.2583	-3.3396	352.376	377.579	533.755	481.291	263.682	480.098	193.414	418.409	448.814	380.239	464.720	188.165	362.378	476.935	282.134	178.472	0.0010864	0.00047726	0.00028137	937.26	7.3789e-06	4.3885e-06	990.37	379.67	8.4905e-06	2.7674e-06	443.32	186.9	149.36	68.576	6.7668e-06	95.362	0.002802	0.0051554	0.0014673	964.48	4.853e-05	5.8562e-05	1016.1	393.01	4.9282e-05	5.8241e-05	459.02	193.27	155.01	71.706	5.1928e-05	99.431	274.923	278.306	269.642	189.992	338.969	310.526	189.651	195.075	352.908	328.459	194.040	198.206	199.972	204.764	346.140	202.624	-8191	255	
31307.002	1	1	0	0	0.19847	0.072638	0.1151	0.32499	0.079438	0.22601	0.27597	0.15851	0.22872	0.10205	0.090132	0.26454	0.48882	0.10347	0.06826	0.38421	-1.8833	-2.4229	-3.2354	-2.4167	-2.6667	-3.0646	-2.4521	-3.3208	-2.7146	-2.4062	-3.2687	-2.4875	-2.9604	-2.9813	-2.1792	-3.3792	178.647	307.931	255.354	451.886	261.260	367.009	185.888	464.024	373.253	280.248	356.400	438.560	486.126	503.948	248.334	497.884	0.001038	0.00096598	0.00013319	940.7	8.978e-06	1.0799e-05	996.7	380.03	6.0629e-06	7.6612e-06	442.43	185.31	148.65	68.399	1.0353e-05	95.297	0.0027651	0.0052012	0.0014438	967	4.7992e-05	5.8563e-05	1019.4	392.05	4.8071e-05	5.7562e-05	459.01	192.64	154.53	71.49	5.189e-05	99.341	273.973	244.548	294.862	190.315	367.510	315.347	189.584	195.286	351.827	328.802	193.761	198.288	199.721	204.806	303.013	202.311	-8191	255	
31307.098	1	1	0	0	0.047636	0.38442	0.34267	0.18321	0.16465	0.11892	0.34582	0.14779	0.082408	0.18477	0.26386	0.042248	0.18432	0.1638	0.11448	0.22949	-2.2146	-2.5708	-3.0771	-2.5104	-2.9021	-3.0667	-2.3583	-3.0333	-2.6562	-2.2104	-3.3229	-2.5958	-2.8042	-3.1063	-2.325	-3.0646	177.985	395.041	302.773	214.781	229.263	270.597	452.850	474.422	289.001	327.897	442.249	347.419	249.979	460.133	422.416	470.612	0.0010562	0.000414	0.00017279	942.82	5.6661e-06	8.0251e-06	992.21	379.99	5.0728e-06	8.1349e-06	444.2	185.58	148.28	68.319	8.0106e-06	95.348	0.0027522	0.0051831	0.0014634	966.65	4.7704e-05	5.7463e-05	1020.2	392.5	4.87e-05	5.7834e-05	460.45	192.71	154.15	71.378	5.2018e-05	99.578	274.930	254.935	248.710	190.215	348.084	339.873	189.383	195.098	344.700	339.008	193.665	197.961	199.613	204.589	336.919	202.132	-8191	255	
31307.195	1	1	0	0	0.02434	0.19393	0.085353	0.17628	0.10387	0.082174	0.16441	0.28656	0.094455	0.22464	0.13697	0.063586	0.18159	0.19763	0.22348	0.069614	-2.6146	-2.25	-3.2729	-2.6604	-2.7833	-3.1021	-2.5854	-3.3604	-2.8	-2.3063	-3.1875	-2.7604	-2.7458	-3.2646	-2.2583	-3.1146	520.308	311.594	403.694	489.470	252.298	438.047	426.986	518.789	506.829	196.691	477.283	508.439	431.403	437.688	520.873	470.669	0.0010623	0.00074873	0.00020593	944.42	4.5557e-06	5.8797e-06	995.15	380.77	6.6641e-06	7.2413e-06	444.91	185.11	148.12	68.06	8.1418e-06	94.822	0.0027325	0.0051174	0.0014328	968.51	4.7724e-05	5.8361e-05	1021.3	392.64	4.8215e-05	5.857e-05	459.25	192.21	153.82	71.21	5.1941e-05	98.811	274.760	258.849	267.538	189.913	352.046	320.473	189.555	195.199	338.392	343.359	193.544	198.025	199.506	204.603	308.823	202.195	-8191	255	
31307.289	1	1	0	0	0.060056	0.13113	0.075587	0.13397	0.2056	0.22775	0.34889	0.18969	0.2654	0.23272	0.14275	0.22826	0.15818	0.026287	0.18293	0.11196	-2.5292	-2.2083	-3.2042	-2.7792	-2.475	-3.2104	-2.5104	-2.9417	-3.1042	-2.3354	-3.375	-2.9521	-2.5729	-3.1771	-2.4354	-3.0896	197.206	523.321	495.950	456.393	455.805	480.925	515.367	531.643	191.959	186.824	199.250	268.444	521.589	489.782	442.339	466.174	0.0010208	0.0009435	0.00017644	941.13	8.9033e-06	1.1265e-05	989.57	377.11	5.299e-06	4.6574e-06	441.91	185.16	148.46	68.132	4.1847e-06	94.526	0.0027525	0.0051693	0.001422	962.57	4.7463e-05	5.8266e-05	1014.5	390.63	4.813e-05	5.7659e-05	457.54	191.83	154.36	71.233	5.1733e-05	98.693	275.847	265.760	270.240	189.856	329.923	347.068	189.425	195.208	323.753	303.816	193.584	197.976	199.558	204.603	363.358	202.234	-8191	255	
31307.385	1	1	0	0	0.022442	0.13237	0.12221	0.25481	0.095011	0.13988	0.047378	0.26835	0.037556	0.12054	0.25081	0.16284	0.297	0.39253	0.17105	0.26545	-2.7521	-2.275	-2.9854	-3.0521	-2.375	-3.2208	-2.4646	-2.9021	-2.9646	-2.4417	-3.1479	-2.8021	-2.4292	-3.2167	-2.5417	-2.8583	201.419	419.631	306.210	467.873	482.592	239.258	529.173	479.341	224.728	245.212	512.954	488.730	525.546	488.463	416.649	486.806	0.00099267	0.00065021	9.5839e-05	936.72	4.7441e-06	6.1928e-06	988.14	378.28	6.8149e-06	4.7458e-06	443.53	184.79	147.77	67.926	7.9244e-06	94.267	0.0027658	0.0051946	0.0014485	961.52	4.7926e-05	5.8542e-05	1012.3	390.35	4.8849e-05	5.8521e-05	457.77	191.7	153.52	70.877	5.2406e-05	98.632	274.289	278.847	299.891	189.981	357.961	353.089	189.390	195.264	349.957	323.263	193.503	197.956	199.535	204.444	317.810	202.346	-8191	255	
31307.480	1	1	0	0	0.17437	0.40221	0.39753	0.23217	0.17922	0.036258	0.18877	0.14312	0.21345	0.15894	0.29929	0.26015	0.20158	0.10593	0.08985	0.035824	-2.6	-2.1688	-3.0021	-3.1417	-2.3	-3.175	-2.7396	-2.7604	-3.2521	-2.5687	-3.0646	-3.2125	-2.5667	-3.3063	-2.4875	-2.5687	202.303	470.137	240.855	445.112	383.235	229.586	528.759	499.463	490.746	226.107	414.501	494.546	530.511	200.632	448.505	528.965	0.0010405	0.00073445	0.00012943	935.03	1.0065e-05	6.1989e-06	989.73	377.31	8.3081e-06	8.4675e-06	443.33	185.02	147.54	67.982	6.3291e-06	94.889	0.002753	0.0052108	0.001444	958.8	4.8101e-05	5.8548e-05	1015.4	389.11	4.8285e-05	5.7999e-05	458.59	192.42	153.7	71.046	5.1622e-05	99.034	276.096	222.139	256.176	189.625	330.024	291.391	189.605	195.175	333.140	339.301	193.829	198.141	199.529	204.785	318.620	202.246	-8191	255	
31307.602	1	1	0	0	0.075636	0.0080312	0.032645	0.29547	0.15873	0.026853	0.44556	0.042432	0.095593	0.13742	0.085149	0.33855	0.47917	0.17568	0.21033	0.13412	-2.7833	-2.2313	-2.7208	-3.1896	-2.3229	-3.1604	-2.7104	-2.5812	-3.225	-2.4604	-3.0042	-3.2062	-2.2875	-3.2708	-2.9083	-2.5771	302.262	369.322	386.808	371.513	385.831	326.892	471.842	462.622	468.050	358.582	343.579	442.185	523.669	490.252	330.214	437.815	0.0010198	0.00061393	0.00023173	937.75	7.2226e-06	9.4878e-06	991.43	377.33	8.7595e-06	1.0515e-05	442.11	185.72	148.88	68.051	9.8741e-06	94.622	0.002732	0.0052116	0.0014513	961.72	4.7753e-05	5.8153e-05	1017.6	390.01	4.8547e-05	5.8539e-05	458.22	192.45	154.36	71.116	5.2013e-05	98.587	273.926	251.688	293.504	190.007	325.760	321.996	189.356	195.244	348.089	330.530	193.557	198.173	199.669	204.689	317.549	202.154	-8191	255	
31307.697	1	1	0	0	0.22551	0.13699	0.11824	0.29186	0.11101	0.19911	0.24152	0.18314	0.21442	0.053944	0.09231	0.13144	0.43422	0.26271	0.14476	0.14731	-2.7542	-2.5312	-2.6208	-3.3417	-2.2646	-3.1042	-3.0792	-2.6646	-3.1688	-2.6583	-2.5667	-3.3812	-2.3646	-3.0563	-2.9583	-2.4604	395.312	449.050	478.091	467.689	374.031	242.239	507.000	516.370	475.005	502.210	408.201	502.010	182.036	514.649	480.160	436.702	0.0010587	0.00077241	0.00019518	931.6	8.6116e-06	6.4564e-06	984.68	378.37	8.4447e-06	7.5041e-06	442.33	186.41	149.49	68.238	4.3217e-06	94.758	0.0027809	0.0052104	0.0014165	958	4.8184e-05	5.9448e-05	1013.1	390.44	4.9039e-05	5.8704e-05	458.43	193.24	155.04	71.329	5.1937e-05	98.874	275.478	246.599	256.128	190.077	320.984	297.279	189.473	195.088	338.508	320.268	193.604	197.967	199.797	204.821	287.594	202.289	-8191	255	
31307.795	1	1	0	0	0.1891	0.02872	0.2564	0.24415	0.075135	0.22941	0.068678	0.13646	0.13334	0.096749	0.27477	0.10909	0.044132	0.11158	0.22466	0.2972	-2.8271	-2.6292	-2.3688	-3.2292	-2.4271	-2.9333	-3.1146	-2.5083	-3.1833	-2.7917	-2.6021	-3.2854	-2.4083	-3.0875	-2.9854	-2.5896	426.035	460.572	249.604	446.594	291.964	495.737	213.774	531.491	269.164	314.536	189.998	197.678	370.222	457.621	325.569	471.577	0.001088	0.00054934	0.00022813	937.23	7.755e-06	5.722e-06	988.84	379.11	7.4618e-06	7.9327e-06	442.63	186.66	149.48	68.048	7.5166e-06	94.873	0.0027945	0.0051115	0.0014418	960.04	4.8034e-05	5.8745e-05	1014.7	390.64	4.8418e-05	5.8345e-05	458.76	193.38	155.01	71.288	5.2382e-05	99.097	275.526	286.797	291.443	190.006	325.774	317.507	189.228	195.091	333.327	316.493	193.838	197.949	199.613	204.700	317.075	202.585	-8191	255	
31307.891	1	1	0	0	0.11846	0.096251	0.24777	0.3272	0.19839	0.098141	0.28961	0.25728	0.076801	0.29283	0.1449	0.40135	0.16617	0.1496	0.038899	0.13938	-2.7021	-2.775	-2.4292	-3.2792	-2.4854	-2.9729	-3.3563	-2.4271	-3.1896	-2.8854	-2.5333	-3.3208	-2.6042	-2.8083	-3.1917	-2.4792	534.708	181.700	417.858	187.254	259.346	512.044	458.083	524.895	389.537	391.323	505.070	491.663	179.757	395.693	507.078	534.896	0.0010197	0.00083047	0.00012952	939.92	5.8094e-06	8.6111e-06	992.72	379.18	5.7855e-06	4.322e-06	446.13	188.08	150.62	68.676	8.0678e-06	95.622	0.0027386	0.0051173	0.001451	963.37	4.7738e-05	5.8421e-05	1018.8	391.2	4.855e-05	5.7519e-05	461.26	194.85	156.26	71.789	5.1669e-05	99.895	276.428	265.155	287.263	189.945	350.838	329.530	189.405	195.249	328.375	330.470	193.823	198.237	199.583	204.918	306.564	202.463	-8191	255	
#DATA ENDS
