BOXY.EXE: ISS Imagent and Oximeter Data Acquisition Program Version 0.80
Ascii Record File

#ACQ INFORMATION
2  Detector Channels 
16  External MUX Channels 
1  Auxiliary Channels 
5000  Waveform (CCF) Frequency (Hz)
1  Waveforms Skipped 
30  Waveforms Averaged 
1  Cycles Averaged 
16  Acquisitions per Waveform 
10.0806  Updata Rate (Hz) 

#FILE INFORMATION
TRUE -- External MUX Channel results are PARSED.
FALSE -- AC DC and Phase are NOT grouped.
TRUE -- Companion Program Settings File CREATED.
FALSE -- AC data not excluded
FALSE -- DC data not excluded
FALSE -- Phase data not excluded
FALSE -- Auxillary Chn. data not excluded
Tab delimiters

#CALIBRATION STATE
TRUE -- Waveform Calibration Values APPLIED.


#AUX CALIBRATION VALUES
Val Type	aux-1	

Term	1.0000e+00	
Factor	0.0000e+00	


#WF CALIBRATION VALUES
A = Detector Channel
Val Type	A-AC1	A-AC2	A-AC3	A-AC4	A-AC5	A-AC6	A-AC7	A-AC8	A-AC9	A-AC10	A-AC11	A-AC12	A-AC13	A-AC14	A-AC15	A-AC16	A-DC1	A-DC2	A-DC3	A-DC4	A-DC5	A-DC6	A-DC7	A-DC8	A-DC9	A-DC10	A-DC11	A-DC12	A-DC13	A-DC14	A-DC15	A-DC16	A-Ph1	A-Ph2	A-Ph3	A-Ph4	A-Ph5	A-Ph6	A-Ph7	A-Ph8	A-Ph9	A-Ph10	A-Ph11	A-Ph12	A-Ph13	A-Ph14	A-Ph15	A-Ph16	

Term	0.00000e+00	0.00000e+00	0.00000e+00	0.00000e+00	0.00000e+00	0.00000e+00	0.00000e+00	0.00000e+00	0.00000e+00	0.00000e+00	0.00000e+00	0.00000e+00	0.00000e+00	0.00000e+00	0.00000e+00	0.00000e+00	0.00000e+00	0.00000e+00	0.00000e+00	0.00000e+00	0.00000e+00	0.00000e+00	0.00000e+00	0.00000e+00	0.00000e+00	0.00000e+00	0.00000e+00	0.00000e+00	0.00000e+00	0.00000e+00	0.00000e+00	0.00000e+00	0.00000e+00	0.00000e+00	0.00000e+00	0.00000e+00	0.00000e+00	0.00000e+00	0.00000e+00	0.00000e+00	0.00000e+00	0.00000e+00	0.00000e+00	0.00000e+00	0.00000e+00	0.00000e+00	0.00000e+00	0.00000e+00	
Factor	1.00000e+00	1.00000e+00	1.00000e+00	1.00000e+00	1.00000e+00	1.00000e+00	1.00000e+00	1.00000e+00	1.00000e+00	1.00000e+00	1.00000e+00	1.00000e+00	1.00000e+00	1.00000e+00	1.00000e+00	1.00000e+00	1.00000e+00	1.00000e+00	1.00000e+00	1.00000e+00	1.00000e+00	1.00000e+00	1.00000e+00	1.00000e+00	1.00000e+00	1.00000e+00	1.00000e+00	1.00000e+00	1.00000e+00	1.00000e+00	1.00000e+00	1.00000e+00	X	X	X	X	X	X	X	X	X	X	X	X	X	X	X	X	

B = Detector Channel
Val Type	B-AC1	B-AC2	B-AC3	B-AC4	B-AC5	B-AC6	B-AC7	B-AC8	B-AC9	B-AC10	B-AC11	B-AC12	B-AC13	B-AC14	B-AC15	B-AC16	B-DC1	B-DC2	B-DC3	B-DC4	B-DC5	B-DC6	B-DC7	B-DC8	B-DC9	B-DC10	B-DC11	B-DC12	B-DC13	B-DC14	B-DC15	B-DC16	B-Ph1	B-Ph2	B-Ph3	B-Ph4	B-Ph5	B-Ph6	B-Ph7	B-Ph8	B-Ph9	B-Ph10	B-Ph11	B-Ph12	B-Ph13	B-Ph14	B-Ph15	B-Ph16	

Term	0.00000e+00	0.00000e+00	0.00000e+00	0.00000e+00	0.00000e+00	0.00000e+00	0.00000e+00	0.00000e+00	0.00000e+00	0.00000e+00	0.00000e+00	0.00000e+00	0.00000e+00	0.00000e+00	0.00000e+00	0.00000e+00	0.00000e+00	0.00000e+00	0.00000e+00	0.00000e+00	0.00000e+00	0.00000e+00	0.00000e+00	0.00000e+00	0.00000e+00	0.00000e+00	0.00000e+00	0.00000e+00	0.00000e+00	0.00000e+00	0.00000e+00	0.00000e+00	-2.84052e+01	-1.28238e+02	-1.23055e+02	-1.81347e+02	-4.90151e+01	-6.44906e+01	-1.58583e+02	-1.62015e+02	-3.30316e+01	-6.71694e+01	-1.70474e+02	-1.69975e+02	-1.81443e+02	-1.76799e+02	-5.34590e+01	-1.49645e+02	
Factor	2.60320e-05	1.63302e-04	4.34181e-05	1.49363e-01	1.92631e-06	1.64092e-06	1.64229e-01	5.54761e-02	1.53204e-06	1.58752e-06	8.65546e-02	3.10973e-02	2.68888e-02	9.37520e-03	1.83265e-06	1.32400e-02	1.49363e-05	2.69560e-05	7.46987e-06	7.68193e-02	2.59114e-07	3.03878e-07	7.93361e-02	2.86037e-02	2.60344e-07	3.00301e-07	4.33358e-02	1.55925e-02	1.39820e-02	4.88742e-03	2.77576e-07	6.67928e-03	X	X	X	X	X	X	X	X	X	X	X	X	X	X	X	X	



#DISTANCE SETTINGS
A = Detector Channel
A-1	A-2	A-3	A-4	A-5	A-6	A-7	A-8	A-9	A-10	A-11	A-12	A-13	A-14	A-15	A-16	

2.5000e+00	3.0000e+00	2.5000e+00	3.0000e+00	2.0000e+00	3.0000e+00	1.5000e+00	3.0000e+00	3.0000e+00	3.0000e+00	3.0000e+00	3.0000e+00	3.0000e+00	3.0000e+00	1.5000e+00	3.0000e+00	

B = Detector Channel
B-1	B-2	B-3	B-4	B-5	B-6	B-7	B-8	B-9	B-10	B-11	B-12	B-13	B-14	B-15	B-16	

1.0000e+01	1.0000e+01	1.0000e+01	1.4400e+00	1.0000e+01	1.0000e+01	1.5100e+00	1.9400e+00	1.0000e+01	1.0000e+01	1.9900e+00	2.4900e+00	2.4100e+00	2.9000e+00	1.0000e+01	2.9800e+00	




#DATA BEGINS
time	group	step	mark	flag	A-AC1	A-AC2	A-AC3	A-AC4	A-AC5	A-AC6	A-AC7	A-AC8	A-AC9	A-AC10	A-AC11	A-AC12	A-AC13	A-AC14	A-AC15	A-AC16	A-DC1	A-DC2	A-DC3	A-DC4	A-DC5	A-DC6	A-DC7	A-DC8	A-DC9	A-DC10	A-DC11	A-DC12	A-DC13	A-DC14	A-DC15	A-DC16	A-Ph1	A-Ph2	A-Ph3	A-Ph4	A-Ph5	A-Ph6	A-Ph7	A-Ph8	A-Ph9	A-Ph10	A-Ph11	A-Ph12	A-Ph13	A-Ph14	A-Ph15	A-Ph16	B-AC1	B-AC2	B-AC3	B-AC4	B-AC5	B-AC6	B-AC7	B-AC8	B-AC9	B-AC10	B-AC11	B-AC12	B-AC13	B-AC14	B-AC15	B-AC16	B-DC1	B-DC2	B-DC3	B-DC4	B-DC5	B-DC6	B-DC7	B-DC8	B-DC9	B-DC10	B-DC11	B-DC12	B-DC13	B-DC14	B-DC15	B-DC16	B-Ph1	B-Ph2	B-Ph3	B-Ph4	B-Ph5	B-Ph6	B-Ph7	B-Ph8	B-Ph9	B-Ph10	B-Ph11	B-Ph12	B-Ph13	B-Ph14	B-Ph15	B-Ph16	aux-1	digaux	

38397.070	1	1	0	256	0.19977	0.20689	0.14277	0.15011	0.17769	0.18106	0.11444	0.0418	0.032031	0.13311	0.30026	0.11049	0.21682	0.096847	0.015438	0.1327	-2.1604	-2.9667	-3.1542	-2.4833	-3.2938	-2.925	-2.7833	-3.2229	-2.5083	-2.8708	-3.1542	-2.7021	-3.3563	-2.825	-2.6021	-3.3667	72.764	34.022	310.463	286.267	163.334	123.990	-0.809	116.724	184.855	63.315	32.278	-26.430	298.140	245.223	81.312	204.982	0.00014676	0.00034531	7.0767e-05	902.38	3.2421e-06	1.8168e-06	977.52	191.39	2.3498e-06	2.7965e-06	241.46	68.262	52.949	15.478	1.409e-06	21.841	0.00037954	0.00050548	0.00014568	888.42	5.3502e-06	5.6027e-06	963.19	190.66	5.3783e-06	5.5812e-06	241.28	68.857	53.034	15.683	5.3694e-06	22.072	237.710	31.380	75.774	-22.378	177.909	89.511	-22.095	-14.308	161.063	143.093	-15.450	-7.719	-7.618	-0.627	159.017	-1.229	-8191	255	
38397.168	1	1	0	0	0.11791	0.064468	0.1827	0.28081	0.090982	0.10246	0.33858	0.17566	0.11552	0.14205	0.1132	0.05591	0.11734	0.31081	0.06335	0.30481	-2.1375	-2.6271	-3.3146	-2.5083	-3.2104	-3.1167	-2.5792	-3.3333	-2.8063	-2.7271	-3.225	-2.4313	-3.1208	-3.1646	-2.5792	-3.1979	58.425	-18.034	-14.813	266.584	164.253	121.938	251.493	45.059	239.126	128.206	323.150	20.629	179.136	96.872	190.467	3.875	0.00012748	0.00030904	4.9858e-05	900.02	3.6756e-06	5.2007e-07	978.5	191.13	1.4337e-06	2.1451e-06	241.9	68.696	52.523	15.395	3.2671e-06	21.634	0.00036961	0.00051082	0.00013497	884.59	5.3178e-06	5.6876e-06	961.45	190.26	5.2242e-06	5.6338e-06	240.65	68.865	52.814	15.681	5.5984e-06	21.994	231.586	65.417	63.644	-22.680	134.005	178.434	-22.287	-14.854	206.459	117.243	-15.073	-7.597	-7.217	-0.376	120.340	-1.341	-8191	255	
38397.285	1	1	0	0	0.21197	0.16333	0.1354	0.21924	0.13762	0.05021	0.055474	0.17479	0.22607	0.18098	0.20532	0.17852	0.27994	0.27494	0.05436	0.16083	-2.3542	-2.7229	-3.2396	-2.7292	-3.025	-3.1021	-2.5333	-3.3958	-2.9375	-2.7396	-3.3854	-2.3354	-2.9271	-3.0687	-2.4479	-3.2521	71.627	44.659	86.968	270.556	45.356	110.864	263.043	282.814	44.300	95.919	107.680	305.932	38.734	231.964	78.081	79.796	0.0001292	0.00038955	7.7523e-05	888.12	2.6795e-06	1.9409e-06	973.7	190.21	1.3989e-06	2.2675e-06	240.62	68.499	52.445	15.461	1.4418e-06	21.408	0.00036252	0.00052536	0.00013205	879.31	5.1008e-06	5.5692e-06	957.42	189.91	5.1825e-06	5.528e-06	240.3	68.744	52.863	15.676	5.1976e-06	21.924	235.846	60.041	51.099	-22.501	124.161	143.018	-22.211	-14.382	178.687	119.322	-15.021	-7.702	-7.337	-0.318	147.642	-1.079	-8191	255	
38397.383	1	1	0	0	0.12818	0.27625	0.10181	0.13254	0.29458	0.013936	0.050325	0.15454	0.10098	0.14889	0.30027	0.14367	0.23697	0.17272	0.1146	0.098719	-2.5979	-2.5604	-3.4188	-2.5938	-2.8083	-3.3083	-2.6583	-3.1583	-2.8396	-2.5854	-3.3771	-2.4854	-2.7333	-3.3875	-2.4	-3.25	157.192	26.822	206.817	228.470	194.992	231.832	211.047	100.899	137.578	255.967	299.959	15.730	148.985	253.203	216.134	163.569	9.3807e-05	0.00010872	5.5476e-05	890.91	4.0565e-06	2.7463e-06	966.35	190.96	1.0126e-06	1.9612e-06	240.03	68.135	52.493	15.469	1.4632e-06	21.625	0.00037157	0.0005198	0.00013323	877.9	5.3372e-06	5.4274e-06	952.91	189.43	5.2665e-06	5.7045e-06	239.7	68.496	52.772	15.625	5.444e-06	21.909	220.319	49.622	43.257	-22.200	156.448	141.864	-21.917	-14.272	198.405	131.520	-15.015	-7.643	-7.434	-0.538	125.096	-1.325	-8191	255	
38397.480	1	1	0	0	0.064614	0.06662	0.023908	0.17986	0.27151	0.12291	0.13842	0.11349	0.1737	0.12001	0.1946	0.091405	0.39214	0.16026	0.21446	0.29557	-2.5771	-2.5625	-3.3479	-2.9562	-2.6771	-3.2875	-2.6646	-3.0229	-3.1063	-2.5	-3.2667	-2.6437	-2.7083	-3.4562	-2.4375	-3.1542	251.952	88.047	36.103	279.486	43.263	148.617	257.205	153.569	122.295	278.707	-12.517	153.856	168.908	264.335	258.185	312.891	0.00012763	0.00024356	2.7187e-05	883.54	1.8302e-06	2.6682e-06	965.92	189.74	1.1335e-06	3.1847e-06	240.88	67.527	52.449	15.392	1.5764e-06	21.513	0.00035611	0.00050762	0.0001343	872.94	5.3491e-06	5.4059e-06	950.24	189.44	5.01e-06	5.5706e-06	239.63	68.167	52.552	15.576	5.5041e-06	21.83	226.083	-4.820	147.586	-22.433	176.724	102.701	-22.127	-14.358	136.462	148.014	-15.117	-7.351	-7.177	-0.433	175.157	-1.001	-8191	255	
38397.551	1	1	0	0	0.17801	0.02236	0.10889	0.24436	0.39204	0.14905	0.16202	0.21619	0.2822	0.13003	0.070037	0.1515	0.27111	0.12381	0.25956	0.24975	-2.6479	-2.5125	-3.2646	-2.8458	-2.7667	-3.2917	-2.7667	-3.0271	-3.1813	-2.3479	-3.3792	-2.8646	-2.6562	-3.2729	-2.475	-2.9062	-8.001	80.116	59.004	295.942	253.237	301.037	245.432	30.335	-30.415	284.740	112.735	190.391	73.691	277.816	5.742	282.748	0.00011831	0.00037558	7.4991e-05	885.56	2.2532e-06	1.0523e-06	965.64	188.79	2.4027e-07	2.8702e-06	240.39	68.154	52.199	15.527	2.4596e-06	21.469	0.00035651	0.00052149	0.00013388	872.07	5.3118e-06	5.4679e-06	950.53	188.58	5.0105e-06	5.8196e-06	239.87	68.3	52.526	15.639	5.4231e-06	21.847	229.481	66.074	60.426	-22.481	150.151	26.088	-22.169	-14.306	255.185	140.913	-15.196	-7.555	-7.438	-0.155	138.003	-1.398	-8191	255	
38397.672	1	1	0	0	0.42663	0.2636	0.0028657	0.13709	0.089544	0.19682	0.1648	0.19057	0.081102	0.044736	0.18053	0.18109	0.2781	0.35272	0.1427	0.20177	-2.825	-2.25	-3.15	-3.0917	-2.6833	-3.3417	-2.7854	-2.9042	-3.2	-2.5458	-3.2938	-3.0146	-2.5458	-3.2583	-2.6583	-2.7625	47.848	-26.698	178.779	-27.031	41.752	45.662	225.391	212.062	114.174	188.189	32.142	133.545	307.865	277.815	119.463	93.788	0.00010347	0.00037458	7.461e-05	885.36	3.0945e-06	3.8859e-06	961.21	189.61	6.1499e-07	2.1995e-06	240.56	67.823	52.003	15.406	1.882e-06	21.502	0.00035163	0.00050537	0.00013687	871.97	5.2643e-06	5.5147e-06	949.49	189	4.9606e-06	5.5105e-06	239.73	68.281	52.456	15.637	5.3913e-06	21.835	234.607	69.502	77.324	-22.357	154.748	134.088	-22.067	-14.400	105.184	113.202	-15.173	-7.985	-7.300	-0.550	144.160	-1.068	-8191	255	
38397.770	1	1	0	0	0.19514	0.20617	0.25138	0.16321	0.25752	0.31834	0.27785	0.10571	0.10516	0.13787	0.076087	0.28829	0.27165	0.29131	0.026738	0.3851	-3.0687	-2.4125	-3.0125	-3.25	-2.5083	-3.0875	-2.7333	-2.7292	-3.2625	-2.4938	-3.1292	-2.9437	-2.2812	-3.2896	-2.9021	-2.6312	248.286	79.003	-14.146	286.974	69.189	271.685	247.054	230.024	144.296	110.339	198.938	11.723	-21.197	4.265	240.690	279.237	0.00014659	0.00029733	4.2468e-05	884.83	2.4048e-06	2.7157e-06	962.21	189.9	1.7718e-06	2.9393e-06	240.22	67.833	51.928	15.277	4.0229e-06	21.523	0.00034151	0.00053002	0.00013779	873.51	5.3847e-06	5.3324e-06	950.82	188.98	5.2449e-06	5.7871e-06	239.47	68.419	52.428	15.59	5.6516e-06	21.787	245.257	56.945	40.091	-22.283	135.619	143.886	-22.209	-14.414	145.689	104.281	-14.967	-7.708	-7.620	-0.163	132.743	-1.558	-8191	255	
38397.863	1	1	0	0	0.29285	0.15658	0.25953	0.20857	0.13515	0.21499	0.29038	0.2476	0.29119	0.1651	0.18053	0.074044	0.14269	0.17342	0.052146	0.10213	-2.8854	-2.5146	-3.0396	-3.0687	-2.3563	-3.1979	-3.0521	-2.725	-3.2146	-2.5208	-2.9104	-3.1229	-2.2958	-3.2125	-2.7583	-2.5187	86.612	311.691	242.871	280.876	270.012	173.506	222.834	265.035	17.712	206.108	303.771	240.624	89.833	10.725	81.297	275.776	0.0001148	0.0002734	4.7013e-05	889.35	4.5239e-06	1.9862e-06	971.36	190.01	1.3866e-06	1.4119e-06	240.9	68.076	52.25	15.258	3.3959e-06	21.578	0.0003572	0.00054552	0.00014336	875.39	5.8069e-06	5.9193e-06	954.59	189.37	5.1781e-06	5.7633e-06	239.75	68.35	52.492	15.588	5.5492e-06	21.882	245.960	51.996	61.818	-22.604	144.330	104.865	-22.302	-14.268	128.819	138.577	-14.945	-7.851	-7.306	-0.181	109.635	-0.944	-8191	255	
38397.961	1	1	0	0	0.19104	0.097821	0.28256	0.29279	0.17536	0.063961	0.23313	0.11067	0.14078	0.037491	0.12195	0.048939	0.41575	0.22686	0.16452	0.23463	-2.9021	-2.6021	-2.85	-3.45	-2.4625	-3.1562	-3.0417	-2.5875	-3.15	-2.6292	-2.7521	-3.3354	-2.3917	-3.1583	-2.9792	-2.4292	318.280	228.232	2.844	6.821	197.733	-22.476	231.053	314.797	193.942	44.120	298.074	142.870	27.396	71.194	67.314	292.778	0.00012461	0.00033719	6.5586e-05	887.84	3.452e-06	6.4759e-07	973.98	190.26	1.9385e-06	2.4057e-06	241.24	67.856	52.343	15.334	4.6264e-06	21.616	0.00035629	0.00052564	0.00015014	875.9	5.7561e-06	5.7819e-06	957.75	189.33	5.5095e-06	6.0354e-06	240.12	68.339	52.712	15.574	5.5764e-06	21.898	227.729	63.389	76.199	-22.307	170.662	75.721	-22.262	-14.380	155.670	100.533	-14.714	-7.910	-7.295	-0.305	122.127	-1.626	-8191	255	
38398.078	1	1	0	0	0.29996	0.1219	0.04957	0.12121	0.19265	0.36169	0.25053	0.153	0.15061	0.19529	0.18081	0.32301	0.28103	0.19831	0.17718	0.33186	-2.9521	-2.3958	-2.6271	-3.5146	-2.5208	-3.0812	-3.3063	-2.4167	-3.2917	-2.5896	-2.6271	-3.4625	-2.4854	-2.9667	-3.2229	-2.3396	316.251	216.416	268.967	-6.027	43.527	246.306	34.147	281.468	113.643	320.893	281.541	-23.453	260.780	33.036	33.646	169.541	0.00011571	0.00020864	8.9915e-05	890.01	4.08e-06	1.9038e-06	973.09	191.09	1.6527e-06	2.6826e-06	240.96	68.255	52.327	15.342	1.1243e-06	21.521	0.00038215	0.00054474	0.00014722	878.72	5.5207e-06	6.037e-06	957.48	189.76	5.4303e-06	5.7483e-06	240.06	68.563	52.774	15.611	5.5596e-06	21.918	236.287	33.331	55.194	-22.571	175.957	83.135	-22.369	-14.266	190.940	99.456	-15.255	-7.250	-7.640	-0.191	131.023	-1.640	-8191	255	
38398.152	1	1	0	0	0.042501	0.034021	0.25016	0.16929	0.11115	0.23228	0.20258	0.19381	0.070094	0.072344	0.047857	0.22124	0.16727	0.21821	0.17978	0.04875	-2.9167	-2.8146	-2.4333	-3.3917	-2.5417	-2.9042	-3.2125	-2.4875	-3.3229	-2.8917	-2.6146	-3.5312	-2.5979	-2.8375	-3.25	-2.4938	159.294	13.186	236.235	220.104	-4.547	-23.636	271.144	1.460	16.147	303.794	314.981	211.243	216.664	272.964	-17.944	-20.321	0.00010915	0.00033872	2.3462e-05	893.08	2.4457e-06	1.982e-06	969.82	189.95	9.6622e-07	2.6407e-06	241.55	68.219	52.39	15.273	2.2144e-06	21.467	0.00037758	0.00055793	0.00015495	879.99	5.6908e-06	5.8085e-06	956.84	189.77	5.4401e-06	5.9228e-06	240.53	68.668	52.671	15.596	5.3561e-06	21.868	232.602	38.979	50.888	-22.616	161.271	79.452	-22.421	-14.551	145.287	78.176	-14.971	-8.042	-7.117	-0.388	144.512	-1.009	-8191	255	
38398.246	1	1	0	0	0.081897	0.036085	0.12654	0.19788	0.2175	0.37277	0.031817	0.29588	0.088507	0.19921	0.082931	0.2103	0.15798	0.16444	0.28463	0.075665	-2.7687	-3.0062	-2.4604	-3.5771	-2.8521	-2.7875	-3.2583	-2.5938	-3.1937	-2.9979	-2.4646	-3.3729	-2.8292	-2.7979	-3.4542	-2.4667	199.890	234.612	186.029	267.595	195.870	312.297	278.813	282.121	270.349	277.501	299.150	-4.138	261.425	18.534	-0.195	165.380	0.00014557	0.00021123	4.5387e-05	892.35	3.7499e-06	2.8785e-06	977.05	189.22	2.4331e-06	2.6173e-06	241.52	68.235	52.369	15.196	2.2697e-06	21.513	0.00036625	0.00052924	0.00014932	880.05	5.8598e-06	6.0484e-06	960.58	189.12	5.6007e-06	5.9222e-06	240.85	68.502	52.737	15.595	5.5e-06	21.863	236.623	85.645	35.529	-22.406	158.299	104.817	-22.209	-14.690	169.822	113.106	-15.252	-7.900	-7.581	-0.752	164.906	-0.949	-8191	255	
38398.367	1	1	0	0	0.35923	0.17289	0.13748	0.15815	0.083622	0.32464	0.16827	0.13608	0.12294	0.12522	0.12494	0.24124	0.23334	0.13673	0.088446	0.38606	-2.7146	-3.1104	-2.5021	-3.5354	-2.9125	-2.7438	-3.5062	-2.7354	-3.0104	-3.2562	-2.6667	-3.3333	-2.9	-2.525	-3.2042	-2.4583	161.312	0.637	59.036	-3.524	76.853	95.337	299.819	302.142	64.426	281.095	92.677	326.433	287.836	5.300	-13.537	323.000	9.7642e-05	0.00026351	5.249e-05	892.61	3.7841e-06	4.5466e-06	974.31	190.4	1.5413e-06	2.8073e-06	239.49	68.197	52.441	15.291	4.0829e-06	21.702	0.00038834	0.00056501	0.00015089	880.86	5.762e-06	6.1845e-06	960.57	189.86	5.6977e-06	6.0748e-06	240.55	68.544	52.72	15.594	5.6122e-06	21.91	240.807	25.847	45.236	-22.264	155.423	118.650	-22.241	-14.754	152.605	121.699	-15.048	-7.602	-7.281	-0.260	150.987	-0.773	-8191	255	
38398.465	1	1	0	0	0.19691	0.17654	0.24567	0.2863	0.08168	0.28582	0.11359	0.22296	0.1557	0.07112	0.24503	0.071556	0.39289	0.060536	0.13001	0.14798	-2.6625	-3.225	-2.4042	-3.4021	-2.9729	-2.6146	-3.45	-2.6875	-2.7667	-3.475	-2.6813	-3.3	-2.9167	-2.7104	-3.3417	-2.6146	111.705	138.382	266.981	287.633	172.734	217.675	240.912	205.980	38.090	127.178	284.560	198.006	324.212	23.604	267.298	297.737	0.000112	0.00030969	7.0916e-05	896.11	3.421e-06	1.9954e-06	977.73	190.75	2.4392e-06	3.0441e-06	242.72	68.018	52.711	15.413	1.8825e-06	21.454	0.00038016	0.00054929	0.00015495	882.23	5.7966e-06	6.2681e-06	960.98	190.16	5.6186e-06	5.8765e-06	240.91	68.675	52.881	15.645	5.5839e-06	21.883	241.423	77.061	30.115	-22.311	152.561	173.007	-22.322	-14.175	156.840	91.893	-14.972	-7.691	-7.638	-0.468	229.750	-1.214	-8191	255	
38398.562	1	1	0	0	0.13238	0.057692	0.11762	0.34076	0.16321	0.095372	0.19774	0.23558	0.23266	0.15073	0.11047	0.025697	0.16898	0.05034	0.20733	0.16931	-2.4604	-3.3	-2.4542	-3.2083	-3.0042	-2.6021	-3.6042	-2.775	-2.8583	-3.4458	-2.5479	-3.2583	-3.0833	-2.5625	-3.4667	-2.8229	68.753	183.081	35.496	297.716	296.450	272.856	-2.822	13.396	226.982	81.703	151.439	67.448	291.372	206.416	37.215	47.043	0.0001585	0.00023529	7.1593e-05	897.91	4.2371e-06	3.1382e-06	977.39	190.83	2.4179e-06	2.6089e-06	241.08	68.206	52.466	15.394	2.8783e-06	21.807	0.00039195	0.00055799	0.00015842	883.86	5.7054e-06	6.0719e-06	960.44	190.24	5.6695e-06	5.8046e-06	240.28	68.892	52.727	15.665	5.9234e-06	21.965	243.260	42.866	75.501	-22.268	148.835	126.800	-22.167	-14.864	182.046	117.219	-15.132	-7.747	-7.600	-0.207	149.301	-1.335	-8191	255	
38398.680	1	1	0	0	0.06834	0.096623	0.16846	0.178	0.14916	0.10714	0.30334	0.074734	0.38271	0.070954	0.055111	0.12528	0.2465	0.26953	0.29774	0.041659	-2.1896	-3.3583	-2.375	-3.2	-3.1375	-2.4229	-3.5062	-2.9229	-2.6729	-3.3708	-2.5792	-3.0542	-3.1083	-2.4104	-3.25	-2.9146	104.275	236.863	216.551	277.732	261.675	5.849	272.167	17.415	277.030	321.081	81.224	311.283	143.466	-29.793	275.150	51.743	0.00012917	0.00032371	7.2712e-05	897.96	2.5168e-06	2.2658e-06	976.72	190.91	4.2447e-06	2.9008e-06	242.28	67.789	52.401	15.352	1.9981e-06	21.759	0.00037444	0.00055052	0.00015802	885.2	5.8538e-06	6.1345e-06	963.32	190.38	5.9039e-06	5.9966e-06	240.95	68.546	52.831	15.604	5.7932e-06	21.93	228.001	42.213	78.088	-22.414	162.242	111.472	-22.155	-14.617	140.638	141.802	-15.225	-7.487	-7.493	-0.166	126.525	-1.016	-8191	255	
38398.777	1	1	0	0	0.2023	0.10571	0.058114	0.10275	0.17045	0.076023	0.24247	0.07035	0.30084	0.34847	0.28924	0.058042	0.17648	0.13201	0.22453	0.05046	-2.2458	-3.3417	-2.4938	-2.85	-3.2458	-2.4771	-3.2687	-2.8563	-2.7188	-3.3167	-2.7208	-2.9375	-3.2021	-2.4437	-3.3292	-3.0458	229.163	-14.562	60.162	239.721	242.405	31.127	0.339	316.656	13.959	202.271	311.163	149.143	140.561	324.393	43.650	84.790	0.00011819	0.00021808	4.7794e-05	896.57	2.8685e-06	4.4231e-06	975.72	191.02	1.0576e-06	1.161e-06	241.33	68.196	52.465	15.381	2.0605e-06	21.562	0.00039843	0.00055501	0.00015425	885.2	5.5677e-06	6.4219e-06	963.46	190.27	5.6907e-06	5.8365e-06	240.7	68.724	52.755	15.612	5.9222e-06	21.931	242.167	29.437	55.712	-22.530	156.606	140.972	-22.247	-14.735	184.534	97.101	-15.183	-7.994	-7.320	-0.360	169.429	-1.319	-8191	255	
38398.848	1	1	0	0	0.23008	0.28841	0.25789	0.33238	0.25335	0.18699	0.18738	0.13265	0.13607	0.10025	0.076618	0.067407	0.18991	0.062975	0.32322	0.2183	-2.2167	-3.3708	-2.7083	-3.0187	-3.2833	-2.4625	-3.1937	-2.9917	-2.2958	-3.3208	-2.8729	-2.6771	-3.4542	-2.5312	-3.3187	-3.1458	0.975	273.256	-14.447	250.074	223.287	-15.004	219.371	315.051	323.409	83.206	33.978	165.007	2.363	270.571	242.950	202.299	0.00012457	0.00036418	9.5948e-05	898.93	3.2614e-06	2.2727e-06	982.85	192.04	1.0601e-06	3.4846e-06	242.09	68.067	52.509	15.492	5.4211e-06	21.563	0.0004035	0.00053839	0.00016062	887.29	5.6962e-06	6.3669e-06	966.76	190.59	5.599e-06	5.8728e-06	241.34	68.701	52.747	15.624	6.0454e-06	21.884	247.030	40.254	46.335	-22.128	163.834	141.257	-21.892	-14.275	203.978	112.628	-15.387	-7.472	-7.239	-0.797	141.505	-0.867	-8191	255	
38398.969	1	1	0	0	0.23419	0.066883	0.2054	0.25592	0.18151	0.12897	0.47724	0.0481	0.20479	0.1803	0.17697	0.36586	0.065146	0.038426	0.13464	0.37721	-2.0771	-3.2167	-2.7687	-2.7104	-3.3042	-2.4875	-3.0646	-3.3854	-2.4229	-3.3812	-2.8479	-2.7083	-3.2667	-2.35	-2.8958	-3.2438	40.097	97.510	0.641	49.794	-15.936	242.036	321.889	256.193	309.128	176.297	-26.321	321.397	301.918	39.431	287.603	201.517	0.00014011	0.00029	5.8825e-05	899.84	1.6178e-06	2.3745e-06	978.45	190.77	1.9112e-06	2.6921e-06	244.01	67.863	52.851	15.413	2.3068e-06	21.638	0.00039787	0.00056877	0.00015125	887.45	5.5359e-06	6.5897e-06	966.42	190.42	6.0058e-06	5.936e-06	241.79	68.724	52.988	15.645	5.8418e-06	21.93	232.234	61.196	82.656	-22.133	135.404	131.201	-22.117	-14.111	156.776	143.173	-15.134	-7.650	-7.031	0.029	139.422	-1.018	-8191	255	
38399.066	1	1	0	0	0.063705	0.1973	0.32192	0.22232	0.36548	0.088443	0.17009	0.20813	0.06144	0.14416	0.14943	0.16163	0.12938	0.069497	0.069966	0.22218	-2.1729	-3.1021	-2.7396	-2.5187	-3.2583	-2.5521	-2.9458	-3.325	-2.425	-3.0833	-3.0021	-2.3771	-3.225	-2.7812	-2.6271	-3.1375	138.729	115.033	80.633	306.576	110.122	228.784	246.256	-31.422	154.778	119.735	10.325	280.283	-5.909	307.288	168.234	255.142	0.0001569	0.00012793	6.037e-05	900.69	4.1786e-06	1.882e-06	980.34	190.39	1.3969e-06	1.9201e-06	242.34	68.004	52.547	15.478	3.5787e-06	21.65	0.00039146	0.00057124	0.00015432	887.81	5.7642e-06	6.3859e-06	965.84	190.27	6.1322e-06	6.1255e-06	241.46	68.608	52.907	15.687	6.0234e-06	21.917	234.002	120.296	86.238	-22.108	153.226	125.416	-22.245	-14.495	110.961	99.480	-15.381	-7.685	-7.136	-0.433	151.694	-1.024	-8191	255	
38399.160	1	1	0	0	0.24313	0.091961	0.18194	0.19274	0.24214	0.048088	0.33907	0.10709	0.11191	0.12206	0.25008	0.042039	0.19892	0.02813	0.049412	0.29763	-2.1083	-3.1875	-3.0125	-2.4292	-3.3271	-2.8542	-2.7604	-3.3792	-2.4562	-3.0271	-3.1312	-2.5229	-3.3896	-2.6792	-2.6854	-3.2146	17.617	287.509	201.445	244.485	152.463	318.218	267.057	31.520	182.391	92.065	305.728	52.996	124.958	-9.045	321.557	-29.426	0.00010741	0.00034008	0.00012046	896.92	1.8527e-06	3.2352e-06	979.85	191.93	2.7358e-06	1.4737e-06	242.07	67.965	52.631	15.312	1.1336e-06	21.611	0.00038654	0.00056069	0.00015285	885.36	5.8506e-06	6.4017e-06	966.01	190.61	5.8773e-06	6.2231e-06	241.74	68.702	52.866	15.577	6.0008e-06	21.946	242.987	37.806	52.950	-22.159	183.903	112.417	-22.278	-14.591	147.596	119.990	-15.183	-7.635	-7.222	-0.006	123.637	-0.934	-8191	255	
38399.254	1	1	0	0	0.12587	0.13878	0.13454	0.14633	0.1896	0.051235	0.15996	0.13557	0.20575	0.057962	0.13231	0.20805	0.053892	0.070368	0.1131	0.19241	-2.0146	-2.9167	-3.2875	-2.425	-3.1125	-2.9542	-2.6229	-3.425	-2.5917	-2.8667	-3.2562	-2.4562	-3.0875	-3.0417	-2.4604	-3.2812	243.186	267.020	11.896	285.735	38.053	298.965	-25.098	125.160	283.375	56.645	320.986	282.325	-24.790	64.512	89.487	-1.345	0.00011254	0.00015994	3.7406e-05	900.09	9.1798e-07	1.7433e-06	983	191.15	1.529e-06	4.087e-06	242.3	68.25	52.644	15.432	2.5659e-06	21.653	0.00039749	0.00056293	0.00014969	885.87	5.6967e-06	6.3966e-06	967.21	190.19	5.8925e-06	6.2625e-06	241.78	68.634	52.862	15.618	6.1766e-06	21.926	218.026	33.731	-15.207	-22.103	259.469	86.039	-22.172	-14.659	186.235	106.046	-15.098	-7.852	-7.051	-0.306	122.165	-1.446	-8191	255	
38399.375	1	1	0	0	0.073106	0.17964	0.17701	0.3556	0.29149	0.06213	0.16247	0.16634	0.33678	0.17078	0.051851	0.11121	0.19497	0.10116	0.080882	0.18765	-2.25	-2.6521	-3.0917	-2.6437	-3.0938	-2.9542	-2.6604	-3.3438	-2.675	-2.6271	-3.3292	-2.3563	-3.0125	-3.0417	-2.5417	-3.45	157.613	132.028	90.268	312.246	238.802	82.991	193.211	-22.886	257.663	298.984	112.152	-28.624	205.242	160.997	112.046	81.995	0.00012047	0.0002105	7.0586e-05	901.82	2.9007e-06	1.9855e-06	983.61	190.92	1.9574e-06	1.1647e-06	241.24	68.02	52.733	15.434	3.5282e-06	21.688	0.00040866	0.00059039	0.00015824	887.58	5.884e-06	6.2763e-06	969.44	190.32	6.0367e-06	6.3939e-06	241.15	68.701	52.994	15.659	6.1362e-06	21.941	245.373	7.364	-6.399	-22.302	177.698	107.196	-22.085	-14.493	85.050	111.126	-15.520	-7.780	-7.579	-0.072	103.149	-0.854	-8191	255	
38399.449	1	1	0	0	0.24268	0.17549	0.078108	0.10935	0.14513	0.34091	0.1305	0.21038	0.29052	0.1681	0.23567	0.14437	0.16941	0.1237	0.23813	0.11695	-2.3271	-2.5479	-3.4625	-2.5292	-3.0458	-3.1417	-2.6229	-3.3229	-2.5812	-2.5146	-3.4271	-2.6333	-3.0521	-3.2396	-2.3271	-3.3417	111.312	191.948	85.652	272.115	235.822	68.818	276.335	267.268	250.835	38.531	290.903	27.736	257.503	152.636	182.269	189.690	0.00010876	0.00030442	2.8694e-05	901.26	4.6697e-07	2.3427e-06	979.63	191.13	2.5853e-06	1.3364e-06	245.02	68.201	52.362	15.268	3.8808e-06	21.531	0.00041119	0.00056714	0.00015035	887.37	5.8203e-06	5.9098e-06	966.52	190.6	5.9001e-06	6.5165e-06	242.23	68.657	52.912	15.667	6.0997e-06	21.91	237.585	28.767	80.807	-22.353	202.530	151.520	-22.179	-14.630	100.513	68.488	-15.418	-7.854	-7.404	-0.955	167.605	-1.078	-8191	255	
38399.543	1	1	0	0	0.19048	0.12235	0.23538	0.23041	0.16173	0.10922	0.25062	0.19356	0.14681	0.16257	0.25015	0.1617	0.13595	0.16192	0.27407	0.19282	-2.5333	-2.525	-3.4375	-2.8021	-2.8208	-3.325	-2.6146	-3.3417	-2.9542	-2.7104	-3.4708	-2.725	-2.7562	-3.1896	-2.4729	-2.9729	295.613	-23.113	304.007	209.959	31.940	113.475	229.846	278.429	110.253	262.102	151.177	211.455	315.811	279.795	298.536	247.287	0.00014183	0.00015589	0.00011769	896.23	2.466e-06	2.7868e-06	980.06	192.1	9.4755e-07	2.0031e-06	243.61	67.825	52.762	15.52	2.0732e-06	21.778	0.00039507	0.0006178	0.0001578	886.92	5.863e-06	5.9839e-06	965.82	190.63	5.5898e-06	6.2632e-06	241.65	68.654	52.913	15.662	6.1471e-06	21.959	219.407	50.808	86.783	-22.762	205.631	132.045	-22.565	-14.654	280.455	111.464	-15.247	-7.924	-7.312	-0.514	138.602	-1.347	-8191	255	
38399.641	1	1	0	0	0.070127	0.064013	0.058828	0.45151	0.040158	0.21047	0.19567	0.1901	0.33512	0.13696	0.10214	0.12306	0.096165	0.29125	0.13305	0.098158	-2.4562	-2.3979	-3.2021	-2.7021	-2.8396	-3.2729	-2.6729	-3.1354	-3.1396	-2.3521	-3.3187	-2.775	-2.75	-3.3896	-2.4833	-3.1437	37.866	105.040	235.868	303.440	7.684	-20.331	195.808	277.657	-19.181	270.138	211.611	250.450	-6.483	202.153	146.750	227.160	0.00014758	0.00015684	2.6399e-05	900.21	2.7831e-06	3.0447e-06	982.48	191.79	6.9796e-07	4.3843e-06	242.72	67.982	52.783	15.329	5.5145e-06	21.589	0.00039575	0.00057433	0.00015586	888.11	6.0039e-06	6.3131e-06	965.78	190.93	5.7363e-06	6.601e-06	241.82	68.627	52.966	15.671	6.2333e-06	21.939	238.023	41.949	38.119	-22.621	142.286	142.959	-22.566	-14.443	247.270	147.107	-15.574	-8.060	-7.363	-0.782	161.202	-1.379	-8191	255	
38399.762	1	1	0	0	0.13491	0.15679	0.1296	0.11825	0.12238	0.10809	0.34971	0.25629	0.10911	0.23316	0.1156	0.10515	0.067155	0.15707	0.17486	0.1883	-2.9417	-2.4333	-3.4188	-2.7708	-2.7062	-3.4188	-2.5708	-3.0646	-3.2792	-2.5146	-3.4354	-3.0021	-2.5187	-3.3354	-2.7687	-2.8708	92.055	154.706	161.575	277.602	95.470	281.843	263.047	201.959	284.672	188.674	187.665	260.660	113.055	323.811	1.119	304.233	0.00010556	0.00023535	5.3112e-05	897.39	2.5742e-06	2.2455e-06	979.18	190.72	2.5764e-06	3.1952e-06	242.17	68.14	52.449	15.357	3.1633e-06	21.643	0.00039037	0.00057416	0.00015754	887.41	6.0044e-06	6.2972e-06	966.22	190.7	5.7194e-06	6.3626e-06	241.45	68.692	52.82	15.666	6.1049e-06	21.859	223.210	62.057	102.828	-22.594	174.893	127.887	-22.519	-14.455	165.409	76.351	-15.187	-7.877	-7.780	-0.732	117.891	-1.521	-8191	255	
38399.855	1	1	0	0	0.096571	0.022495	0.14193	0.38378	0.067381	0.088928	0.28972	0.20356	0.26477	0.14734	0.088681	0.092136	0.1755	0.17985	0.10827	0.10142	-2.8375	-2.4333	-3.05	-3.0125	-2.3937	-3.3771	-2.8	-2.9604	-3.1646	-2.4292	-3.3063	-2.9688	-2.5312	-3.0958	-2.7354	-2.8021	168.714	270.455	174.011	325.333	272.794	10.538	247.995	218.024	270.052	30.071	324.711	293.977	102.015	268.996	115.619	-20.064	0.00011527	0.00032758	7.827e-05	898.79	2.3869e-06	2.0387e-06	978.59	190.74	9.4239e-07	3.2988e-06	242.34	67.838	52.172	15.461	3.9107e-06	21.678	0.00038088	0.00059286	0.00015363	887.03	6.2047e-06	6.4922e-06	966.5	190.6	5.5665e-06	6.3927e-06	241.93	68.59	52.851	15.66	6.0211e-06	21.955	228.846	64.598	73.370	-22.440	145.761	151.749	-22.223	-14.621	149.101	98.988	-15.341	-7.707	-7.260	-0.744	143.221	-0.848	-8191	255	
38399.953	1	1	0	0	0.28705	0.14893	0.24075	0.15662	0.19919	0.073612	0.09375	0.15695	0.23939	0.17804	0.064801	0.17094	0.37876	0.16353	0.09635	0.046174	-2.7917	-2.5833	-3.0479	-3.0521	-2.5125	-3.2479	-2.9625	-2.6583	-3.2542	-2.6021	-3.0875	-3.2125	-2.1417	-3.15	-2.8583	-2.7313	32.492	58.549	256.277	3.938	108.017	279.890	55.883	309.050	263.376	-6.234	138.474	16.674	299.503	297.627	66.468	91.798	0.00014239	0.00022245	9.7743e-05	901.58	2.7393e-06	1.5102e-06	979.12	190.36	2.3111e-06	3.2839e-06	242.25	67.876	52.98	15.369	3.554e-06	21.54	0.00039124	0.00058949	0.00015021	889.06	5.9537e-06	6.4099e-06	967.09	190.64	5.771e-06	6.3357e-06	241.72	68.76	52.961	15.652	5.921e-06	21.894	251.167	65.229	57.835	-22.576	160.228	138.894	-22.354	-14.697	149.389	143.945	-15.227	-7.894	-7.405	-0.334	164.302	-1.607	-8191	255	
38400.051	1	1	0	0	0.067204	0.11457	0.2124	0.15181	0.32807	0.25914	0.057524	0.14581	0.25367	0.12963	0.22725	0.054914	0.1799	0.25831	0.15972	0.1423	-3.1167	-2.6312	-2.8771	-3.3667	-2.35	-3.1292	-2.9854	-2.5563	-3.2521	-2.55	-3.1104	-3.2354	-2.3354	-3.1979	-2.9	-2.6729	94.972	220.554	282.329	277.544	-7.186	4.766	211.693	40.115	123.417	177.498	292.435	248.661	272.707	34.240	167.708	24.589	0.00010042	0.00025872	6.7715e-05	897.71	2.7793e-06	2.8155e-06	980.12	191.68	2.6375e-06	4.2559e-06	242.87	68.448	52.464	15.422	1.7917e-06	21.529	0.00038153	0.00058725	0.00016328	886.64	6.06e-06	6.4264e-06	966.33	190.61	5.874e-06	6.2932e-06	241.58	68.831	52.918	15.659	6.0569e-06	21.929	233.553	59.391	53.287	-22.596	113.113	141.188	-22.459	-14.565	167.570	119.158	-15.154	-7.702	-7.822	-0.702	96.132	-0.871	-8191	255	
38400.145	1	1	0	0	0.25833	0.11598	0.10762	0.2127	0.23119	0.16646	0.14535	0.2201	0.16472	0.18163	0.1369	0.21402	0.20588	0.077382	0.13813	0.13272	-2.875	-2.4646	-3.0458	-3.4646	-2.4354	-3.15	-3.1729	-2.4083	-3.3667	-2.6104	-2.9333	-3.3354	-2.6208	-3.0521	-2.9417	-2.3958	177.478	165.903	126.297	203.007	133.790	10.465	258.420	326.785	26.415	97.216	241.480	279.561	79.895	308.034	89.174	221.862	0.00011148	0.00017544	7.1885e-05	900.18	3.8191e-06	1.864e-06	978.59	191.98	3.6349e-06	3.8923e-06	242.44	68.09	52.901	15.483	3.7437e-06	21.64	0.00039541	0.00056709	0.00015537	887.7	6.0104e-06	6.4327e-06	964.85	190.61	5.7254e-06	6.4127e-06	241.72	68.711	53.086	15.711	5.8597e-06	21.99	230.334	52.491	10.880	-22.308	145.091	98.133	-22.349	-14.754	169.381	126.173	-15.175	-7.958	-7.329	-0.388	151.207	-1.213	-8191	255	
38400.242	1	1	0	0	0.088803	0.10287	0.077799	0.11031	0.098046	0.24447	0.16184	0.1487	0.25279	0.17322	0.13782	0.20746	0.1113	0.13722	0.31173	0.15144	-2.8958	-2.8708	-2.6021	-3.4396	-2.6542	-3.0833	-3.3646	-2.5521	-3.3104	-2.8083	-2.7479	-3.3167	-2.4979	-3.0229	-3.0917	-2.5187	89.765	236.625	124.378	282.879	135.912	-16.256	273.689	269.310	245.735	295.977	121.809	311.453	31.257	193.014	136.402	252.844	0.00012302	0.0001863	6.2371e-05	899.47	2.2804e-06	3.1594e-06	982.28	192.25	2.6711e-06	2.3557e-06	241.46	68.388	52.483	15.262	1.5707e-06	21.584	0.00038791	0.00055748	0.00015959	886.96	5.9008e-06	6.2175e-06	966.46	190.97	5.6316e-06	6.4008e-06	241.13	68.634	52.9	15.613	5.8036e-06	21.949	250.223	13.419	88.430	-22.485	144.883	121.135	-22.413	-14.691	162.771	132.465	-14.890	-7.678	-7.337	-0.333	132.954	-1.097	-8191	255	
38400.359	1	1	0	0	0.3854	0.030067	0.23525	0.18411	0.13651	0.18741	0.36194	0.12094	0.3172	0.090692	0.12389	0.29663	0.10182	0.097666	0.15729	0.13968	-2.9375	-2.8646	-2.5583	-3.5042	-2.4792	-2.7729	-3.3104	-2.5583	-3.375	-3.1	-2.5583	-3.25	-2.6125	-2.9688	-3.1375	-2.5396	265.210	107.858	-5.158	236.413	123.566	-12.252	259.921	52.049	218.067	231.188	191.271	41.886	160.936	-6.935	84.754	243.689	0.0001122	0.00027729	3.1397e-05	902.14	2.1845e-06	1.8155e-06	981.76	192.03	2.4904e-06	2.1106e-06	243.3	68.485	52.531	15.443	2.4088e-06	21.699	0.00039681	0.00057562	0.00016077	888.42	5.8678e-06	6.1681e-06	965.15	190.56	5.9201e-06	6.1218e-06	241.45	68.805	52.84	15.678	5.7105e-06	21.878	233.719	74.813	74.954	-22.405	113.564	170.225	-22.326	-14.607	204.045	123.595	-15.287	-8.038	-7.298	-0.606	117.738	-0.977	-8191	255	
38400.457	1	1	0	0	0.022173	0.040942	0.20895	0.12163	0.091951	0.12043	0.21669	0.054554	0.02167	0.24151	0.14603	0.095988	0.15339	0.037514	0.21285	0.20718	-2.8	-2.9021	-2.3104	-3.4667	-2.6875	-2.6458	-3.3312	-2.525	-3.1375	-3.1521	-2.5854	-3.375	-2.8875	-2.5917	-3.2313	-2.5187	224.737	267.308	4.368	51.426	85.512	56.984	322.571	38.113	231.472	277.978	251.580	305.469	137.498	104.389	275.556	273.234	0.00012439	0.00018677	5.6611e-05	897.29	3.669e-06	3.1588e-06	977.71	191.22	2.132e-06	2.0565e-06	242.1	68.028	52.551	15.386	2.4207e-06	21.708	0.00038209	0.00055254	0.00016084	887.62	5.8927e-06	6.3631e-06	966.09	190.36	5.6668e-06	5.991e-06	241.15	68.758	52.9	15.641	5.699e-06	21.925	236.419	72.101	50.506	-22.406	159.705	120.148	-22.143	-14.534	200.408	113.449	-15.486	-7.478	-7.324	-0.604	141.780	-1.282	-8191	255	
38400.551	1	1	0	0	0.11811	0.11138	0.12627	0.088595	0.16252	0.10895	0.20368	0.071344	0.12349	0.35648	0.14488	0.033931	0.27896	0.29617	0.094629	0.042927	-2.6208	-3.0521	-2.2313	-3.4104	-2.8896	-2.6771	-3.5271	-2.6542	-2.9396	-3.1417	-2.5938	-3.1708	-2.9708	-2.4979	-3.3542	-2.55	136.217	167.008	-28.704	202.604	308.479	188.959	206.989	313.285	104.124	-24.234	189.078	155.005	209.043	48.204	245.084	178.684	0.00011667	0.00032598	7.3226e-05	895.58	4.0208e-06	2.2779e-06	979.31	191.42	1.7958e-06	2.4613e-06	242.94	68.354	52.504	15.488	2.144e-06	21.549	0.00038704	0.00054176	0.00015796	887.05	5.7917e-06	6.3169e-06	966.11	190.65	5.8247e-06	6.2913e-06	241.97	68.848	52.819	15.668	5.6273e-06	21.915	239.081	77.442	61.061	-22.276	178.074	139.202	-22.158	-14.336	143.361	120.927	-15.062	-7.854	-7.294	-0.250	85.669	-0.712	-8191	255	
38400.648	1	1	0	0	0.11633	0.16751	0.096129	0.11497	0.13927	0.15998	0.40545	0.09747	0.28891	0.10601	0.11529	0.12508	0.035621	0.061046	0.26178	0.15316	-2.6208	-3.2062	-2.4188	-3.3667	-2.9313	-2.6437	-3.45	-2.6	-2.7812	-3.3479	-2.6583	-3.2271	-3.3646	-2.575	-3.1771	-2.7313	239.839	-25.073	312.895	95.098	271.689	106.313	251.008	191.834	-15.234	43.498	286.516	242.573	178.447	-31.460	275.861	262.505	0.00013416	0.00013576	8.9584e-05	900.65	4.6826e-06	1.9346e-06	986.09	191.03	1.8876e-06	2.5985e-06	242.01	68.779	52.671	15.391	2.6968e-06	21.539	0.00039892	0.0005517	0.00015637	887.47	5.9067e-06	6.0795e-06	967.24	190.85	5.7222e-06	5.7927e-06	241.42	68.957	52.858	15.657	5.6868e-06	21.894	235.928	23.736	78.623	-22.315	135.374	116.574	-22.349	-14.411	184.769	112.491	-15.426	-8.125	-7.373	-0.619	120.407	-1.596	-8191	255	
38400.746	1	1	0	0	0.062956	0.39057	0.073767	0.1535	0.16964	0.26264	0.066188	0.15788	0.08418	0.093599	0.189	0.22546	0.099664	0.15659	0.14423	0.13672	-2.2313	-3.3104	-2.3792	-3.2687	-3.1188	-2.4688	-3.5187	-2.8292	-2.5521	-3.4125	-2.6937	-3.0146	-3.175	-2.5979	-3.3333	-2.925	-7.495	98.288	-14.315	250.687	57.920	-15.883	119.722	190.734	-27.209	163.195	-26.604	-9.776	227.661	290.967	284.818	-0.069	0.00012367	0.00023853	0.0001375	901.69	4.8946e-06	5.3852e-07	982.2	191.82	2.0435e-06	1.3927e-06	242.63	68.455	52.364	15.391	2.6685e-06	21.616	0.00040095	0.00056007	0.00015067	888.56	5.7599e-06	6.2839e-06	968.21	190.77	5.9792e-06	5.8815e-06	241.41	68.839	52.885	15.658	5.6435e-06	21.965	224.024	67.478	73.140	-22.245	188.711	325.785	-22.361	-14.501	140.048	95.370	-15.281	-7.594	-7.624	0.018	117.435	-1.375	-8191	255	
38400.840	1	1	0	0	0.34355	0.17153	0.1386	0.067184	0.083534	0.248	0.063123	0.17865	0.22349	0.083249	0.26179	0.18717	0.1645	0.029933	0.14662	0.29892	-2.175	-3.3563	-2.4688	-2.9938	-3.0833	-2.2521	-3.2896	-3.0167	-2.4854	-3.375	-2.6646	-3.0271	-3.2417	-2.4896	-3.2229	-2.9917	176.305	170.909	295.573	228.565	48.698	67.051	55.587	239.688	300.587	297.971	222.520	266.733	-24.670	231.693	292.662	285.430	0.00012325	0.00028656	5.5919e-05	904.93	3.1934e-06	1.3828e-06	979.23	192.36	1.9658e-06	2.3116e-06	242.4	68.184	52.584	15.477	1.0011e-06	21.456	0.00039728	0.00053862	0.00015814	889.45	5.7647e-06	6.113e-06	965.7	190.8	5.656e-06	6.0029e-06	241.26	68.726	52.852	15.667	5.8568e-06	21.859	228.322	70.652	55.499	-22.171	136.079	70.662	-21.956	-14.458	184.314	146.882	-15.205	-7.618	-7.429	-0.254	202.516	-1.368	-8191	255	
38400.938	1	1	0	0	0.24116	0.16948	0.099464	0.10358	0.19985	0.16047	0.29104	0.33624	0.20898	0.045661	0.17941	0.23838	0.13536	0.12517	0.35322	0.15084	-2.1292	-3.1479	-2.6146	-2.95	-3.1917	-2.5812	-3.275	-2.9125	-2.5687	-3.3771	-2.6437	-2.8438	-3.3479	-2.3667	-2.9938	-3.1188	286.968	137.338	227.930	275.778	-25.884	228.483	284.818	309.229	27.492	-25.826	-0.656	22.772	-14.362	148.526	320.000	99.567	0.00014025	3.9611e-05	0.00010779	898.98	2.3719e-06	3.4778e-06	986.19	191.37	2.3995e-06	1.6636e-06	242.28	68.27	52.194	15.382	3.9161e-06	21.536	0.00039373	0.00056355	0.00015744	887.35	5.7529e-06	6.3396e-06	969.05	190.81	5.8165e-06	5.9891e-06	241.63	68.769	52.863	15.609	5.8094e-06	21.878	229.193	75.847	84.484	-22.152	175.605	155.315	-21.951	-14.299	184.941	146.580	-15.327	-7.408	-7.314	-0.299	142.105	-0.906	-8191	255	
38401.059	1	1	0	0	0.20887	0.058773	0.20844	0.26658	0.1573	0.20193	0.21275	0.094102	0.22197	0.094638	0.19543	0.16159	0.086311	0.078498	0.080561	0.084054	-2.2042	-3.1813	-2.7375	-2.8563	-3.3083	-2.4917	-3.15	-3.2417	-2.4979	-3.3438	-2.8208	-2.5938	-3.475	-2.5	-3.0438	-3.1458	142.810	67.503	115.257	-15.142	220.389	201.658	105.340	56.715	88.597	38.123	222.652	32.695	313.343	11.735	183.086	215.979	0.00012781	0.00023343	0.00010603	900.07	2.7201e-06	2.9251e-06	985.25	191.58	2.1034e-06	1.4409e-06	242.61	67.665	52.646	15.485	2.0241e-06	21.757	0.00040938	0.00056815	0.00015984	889.23	5.8533e-06	6.3586e-06	967.01	190.66	5.8057e-06	6.3776e-06	241.33	68.765	52.917	15.712	5.9442e-06	21.958	227.786	59.392	70.138	-22.275	135.699	137.035	-22.141	-14.515	177.644	91.683	-14.799	-7.599	-7.717	-0.566	142.565	-1.255	-8191	255	
38401.152	1	1	0	0	0.22371	0.28158	0.083693	0.15885	0.076821	0.23467	0.0092574	0.11331	0.12327	0.13807	0.14319	0.32514	0.14448	0.26566	0.10521	0.14295	-2.1146	-3.2771	-2.8604	-2.6521	-3.3	-2.7625	-3.2917	-3.2812	-2.4625	-3.175	-2.9104	-2.6375	-3.4521	-2.6521	-2.9021	-3.2875	316.472	25.874	176.146	282.872	83.283	316.727	313.257	296.828	315.146	205.110	326.115	181.048	-27.298	-17.999	60.320	137.675	0.00017029	0.00019018	7.9598e-05	897.94	3.7535e-06	1.5228e-06	982.15	191.62	5.9381e-07	2.7193e-06	242.04	68.282	52.55	15.48	1.8973e-06	21.699	0.00041206	0.00052064	0.00015886	887.31	6.0406e-06	6.4074e-06	967.08	190.75	5.8008e-06	6.031e-06	241.37	68.946	52.785	15.673	6.087e-06	21.965	237.092	327.250	72.256	-22.307	144.023	91.956	-21.988	-14.416	145.204	137.860	-15.085	-7.138	-7.099	-0.195	148.699	-0.837	-8191	255	
38401.246	1	1	0	0	0.16189	0.063965	0.17893	0.12838	0.1538	0.083901	0.24132	0.1508	0.29942	0.19973	0.29573	0.080106	0.31617	0.088292	0.056862	0.077812	-2.2292	-3.2375	-3.0479	-2.5792	-3.4271	-2.8958	-2.9562	-3.35	-2.6458	-3.1021	-3.0333	-2.6312	-3.3958	-2.6688	-2.6979	-3.3083	97.103	121.148	67.951	284.173	-12.280	98.700	251.537	90.691	291.764	165.755	302.349	230.537	-30.117	-3.471	5.489	79.709	0.00012558	0.00036819	4.8119e-05	897.35	4.095e-06	3.2115e-06	983.77	190.7	1.9081e-06	2.9567e-06	243.44	68.268	52.323	15.465	3.0167e-06	21.714	0.00040484	0.00058	0.00016241	886.38	5.8031e-06	6.5403e-06	967.65	190.55	5.6695e-06	6.402e-06	241.99	68.85	52.823	15.65	6.0043e-06	21.947	241.536	40.499	80.603	-22.267	98.461	125.064	-21.925	-14.467	218.650	105.128	-15.167	-7.367	-7.429	-0.415	169.424	-0.732	-8191	255	
38401.320	1	1	0	0	0.17138	0.1055	0.15407	0.085769	0.062891	0.17657	0.38718	0.053963	0.40553	0.21117	0.088235	0.30481	0.24068	0.085663	0.096563	0.14004	-2.3208	-2.9458	-2.975	-2.5062	-3.5062	-2.8104	-3	-3.5229	-2.7146	-3.1979	-3.1813	-2.5312	-3.2646	-2.9417	-2.6375	-3.3312	42.587	86.258	35.923	297.031	143.373	101.056	276.378	84.219	153.205	293.021	77.845	299.864	273.159	230.551	206.060	168.943	0.00010724	0.00026024	8.3977e-05	899.63	3.9093e-06	2.1168e-06	984.43	190.99	1.5432e-06	3.271e-06	243.97	67.987	52.213	15.401	2.8718e-06	21.628	0.00039861	0.00056046	0.00015895	887.03	5.7923e-06	6.2175e-06	967.15	190.55	5.8225e-06	6.1774e-06	242.08	68.754	52.726	15.626	5.9974e-06	21.91	222.487	63.671	60.333	-22.484	149.768	94.228	-22.202	-14.374	185.394	110.802	-15.123	-7.718	-6.676	-0.288	152.808	-0.779	-8191	255	
38401.441	1	1	0	0	0.25589	0.070642	0.24024	0.425	0.085263	0.25267	0.14174	0.12609	0.18026	0.12384	0.1327	0.33689	0.1323	0.12401	0.024977	0.26707	-2.3958	-2.8771	-3.2062	-2.6667	-3.3333	-2.9938	-2.7	-3.6	-2.7042	-2.975	-3.3	-2.5938	-3.1083	-3.2438	-2.6937	-3.375	8.599	-5.155	50.441	274.597	298.291	115.582	47.679	195.677	130.600	315.717	309.021	290.417	241.251	26.957	276.416	176.433	8.9392e-05	0.00026101	3.1464e-05	898.42	3.0991e-06	3.4248e-06	978.74	191.61	1.2473e-06	3.1039e-06	242.36	68.021	52.992	15.349	3.8525e-06	21.532	0.00040801	0.00055423	0.00015119	888.25	5.911e-06	6.2719e-06	966.27	190.61	5.8502e-06	6.2425e-06	241.07	68.625	53.078	15.656	6.157e-06	21.951	225.279	63.332	4.243	-22.177	170.086	105.324	-22.317	-14.476	120.664	103.175	-15.202	-7.633	-7.161	-0.579	139.543	-1.290	-8191	255	
38401.535	1	1	0	0	0.16056	0.095217	0.14309	0.11561	0.14863	0.18103	0.33028	0.49857	0.10756	0.19089	0.1364	0.18961	0.27525	0.1787	0.098645	0.065442	-2.325	-2.6813	-3.3771	-2.6604	-3.2917	-3.2042	-2.5563	-3.2833	-2.8229	-2.6979	-3.5125	-2.6104	-3.0521	-3.2313	-2.7812	-3.3458	165.796	269.047	50.245	244.157	48.339	128.885	272.041	288.918	191.386	129.889	19.058	201.230	97.558	53.983	142.052	304.109	0.0001156	0.00037023	9.4836e-05	903.9	3.1587e-06	1.7888e-06	982.88	191.69	1.0081e-06	2.694e-06	241.91	68.107	52.627	15.403	2.8508e-06	21.584	0.00039703	0.00057484	0.00015365	888.74	5.8074e-06	6.0908e-06	968.43	191.24	6.0628e-06	6.3745e-06	241.48	68.591	52.99	15.629	6.264e-06	21.915	233.373	96.059	49.405	-22.107	143.483	114.379	-21.812	-14.302	186.663	117.229	-15.210	-7.618	-7.028	-0.186	164.822	-0.947	-8191	255	
38401.633	1	1	0	0	0.18933	0.2116	0.024304	0.16019	0.12117	0.064287	0.24561	0.18538	0.2781	0.15071	0.13726	0.11448	0.12939	0.15454	0.35669	0.11353	-2.45	-2.7417	-3.4958	-2.5729	-3.1292	-3.3208	-2.5604	-3.3771	-2.9604	-2.7792	-3.4062	-2.65	-2.8771	-3.0521	-2.4792	-3.4042	243.230	264.372	207.124	302.665	278.299	306.902	298.498	253.236	150.107	107.105	317.002	326.118	258.803	66.752	72.780	88.846	9.5804e-05	0.00023888	9.83e-05	904.83	3.2413e-06	1.725e-06	980.05	191.2	4.2077e-06	3.0235e-06	244.44	67.889	52.656	15.293	3.4645e-06	21.634	0.0003909	0.00059084	0.00015657	888.66	6.0865e-06	6.2314e-06	966.63	190.3	5.9147e-06	6.3852e-06	241.62	68.651	52.95	15.612	6.1714e-06	21.92	234.728	93.385	82.612	-22.576	180.142	98.690	-21.990	-14.365	181.887	111.729	-15.455	-7.855	-6.975	-0.396	130.042	-0.928	-8191	255	
38401.730	1	1	0	0	0.20632	0.24253	0.17684	0.089288	0.093985	0.25877	0.30776	0.051938	0.25608	0.20901	0.080081	0.039098	0.091535	0.1477	0.10251	0.11878	-2.75	-2.4271	-3.3187	-2.8292	-2.8688	-3.4562	-2.5625	-3.2625	-3.1188	-2.5375	-3.2917	-2.7896	-2.7125	-3.2729	-2.4646	-3.0146	41.205	290.151	229.050	222.773	211.402	293.911	311.464	231.778	188.606	25.323	272.274	67.397	317.752	-30.879	113.909	54.471	0.000137	0.00020676	9.0384e-05	899.22	2.7222e-06	2.7831e-06	983.04	191.04	2.5818e-06	2.4638e-06	242.97	68.082	52.626	15.42	1.9554e-06	21.645	0.00038828	0.00056883	0.00016076	887.66	5.7793e-06	6.4511e-06	967.62	190.61	5.7053e-06	6.3013e-06	242.02	68.768	52.902	15.628	6.1142e-06	21.917	240.761	75.622	45.997	-22.478	149.677	111.806	-22.170	-14.258	164.821	148.165	-15.047	-8.209	-7.012	-0.322	146.896	-1.402	-8191	255	
38401.852	1	1	0	0	0.19667	0.085561	0.074259	0.19087	0.24106	0.042419	0.21163	0.1041	0.17731	0.11143	0.071608	0.24107	0.15271	0.19638	0.098452	0.23577	-2.7333	-2.4833	-3.275	-2.7812	-2.675	-3.2104	-2.6063	-3.2812	-3.0458	-2.4083	-3.2833	-2.6688	-2.7812	-3.0771	-2.4188	-3.0833	13.873	54.794	181.480	313.828	51.248	216.008	274.871	201.122	174.568	195.961	314.771	76.687	177.745	18.218	185.552	273.160	0.00010158	0.0001344	7.7692e-05	903.93	1.095e-06	3.238e-06	980.65	192.3	3.169e-06	3.4958e-06	241.84	67.856	52.862	15.334	2.2042e-06	21.472	0.00038548	0.00059803	0.00015839	889.14	6.0239e-06	6.2219e-06	967.96	190.74	5.848e-06	6.4415e-06	241.54	68.7	52.967	15.628	5.928e-06	21.891	232.466	60.114	44.008	-22.415	145.279	112.624	-22.175	-14.861	169.757	129.574	-15.271	-8.057	-7.242	-0.041	160.933	-0.999	-8191	255	
38401.945	1	1	0	0	0.11684	0.38183	0.19834	0.15814	0.14907	0.089832	0.15959	0.16056	0.14243	0.25844	0.13268	0.17952	0.13156	0.077034	0.1223	0.27074	-2.6583	-2.3604	-3.15	-2.8937	-2.5271	-3.3729	-2.6771	-2.9375	-3.1229	-2.6417	-3.2062	-2.8542	-2.6063	-3.3625	-2.4354	-2.7375	200.659	319.154	120.575	322.246	77.029	9.143	218.354	229.732	3.627	266.403	162.843	46.926	249.396	-23.042	231.863	281.128	0.00011842	0.00023385	5.6904e-05	901.23	5.2585e-06	3e-06	983.39	191.16	1.6505e-06	1.9185e-06	242.51	68.302	52.725	15.413	8.8283e-07	21.66	0.00040036	0.00059781	0.00015573	889.69	6.3321e-06	6.3954e-06	969.28	190.77	5.6641e-06	6.4008e-06	241.94	68.824	52.886	15.646	6.0992e-06	22.001	232.367	36.947	88.824	-22.417	138.339	148.107	-22.074	-14.362	163.323	100.778	-15.161	-7.628	-7.455	-0.564	196.338	-1.042	-8191	255	
38402.043	1	1	0	0	0.16243	0.17373	0.046236	0.11932	0.12511	0.13465	0.22696	0.043843	0.082238	0.04754	0.17482	0.055413	0.11628	0.094495	0.034492	0.098907	-3.0479	-2.3625	-3.2729	-3.2771	-2.4396	-3.3917	-2.8208	-2.8104	-3.4354	-2.6271	-3.225	-3.1312	-2.6083	-3.3021	-2.5625	-2.7875	27.214	163.881	-23.962	270.254	319.298	297.665	181.643	317.395	133.200	296.118	258.062	64.727	45.174	322.141	280.614	5.441	0.00014053	0.00028745	7.0953e-05	899.79	2.4135e-06	2.8933e-06	982.24	190.58	1.6072e-06	3.1764e-06	243.31	68.423	52.484	15.399	3.155e-06	21.524	0.00039653	0.00058601	0.00015337	888.31	6.0082e-06	6.2023e-06	967.84	190.74	5.58e-06	6.449e-06	242.21	68.677	52.9	15.644	6.2183e-06	21.904	230.571	72.400	36.533	-22.517	136.507	125.593	-22.361	-14.390	159.253	116.149	-15.344	-8.092	-7.392	-0.580	120.717	-1.050	-8191	255	
38402.137	1	1	0	0	0.13513	0.074018	0.18698	0.099248	0.18546	0.27479	0.29574	0.082049	0.14664	0.25677	0.32279	0.10403	0.20152	0.24588	0.27158	0.18779	-2.975	-2.6042	-3.05	-3.125	-2.5792	-3.2896	-2.8375	-2.6958	-3.2687	-2.5396	-3.0208	-3.0687	-2.3688	-3.3229	-2.7375	-2.6208	303.830	319.960	-22.845	203.641	184.977	212.037	270.491	62.506	246.019	253.102	263.923	60.323	0.713	192.645	68.716	122.006	0.00014721	0.00036896	5.3894e-05	901.47	3.0268e-06	8.7913e-07	979.88	191.78	3.5724e-06	1.5482e-06	241.02	68.226	52.491	15.495	4.4003e-06	21.6	0.00038726	0.00060129	0.0001566	889.23	6.0298e-06	6.1864e-06	967.79	190.72	5.8436e-06	6.7224e-06	240.89	68.698	52.874	15.635	5.8788e-06	21.914	229.317	73.424	53.837	-22.379	133.516	234.228	-22.146	-14.330	179.407	87.406	-14.867	-7.639	-7.042	-0.238	148.126	-0.728	-8191	255	
38402.230	1	1	0	0	0.11576	0.18429	0.12558	0.14456	0.085912	0.21051	0.20665	0.081363	0.17894	0.047173	0.046804	0.10658	0.11267	0.46197	0.13119	0.27037	-2.9542	-2.575	-2.8333	-3.4375	-2.3896	-3.0729	-3	-2.4375	-3.3438	-2.7188	-2.9167	-3.1937	-2.5146	-3.1396	-3.0187	-2.4271	302.016	308.868	164.773	302.389	168.081	278.198	293.092	303.948	309.111	211.179	269.809	207.463	62.788	-27.359	191.050	29.373	0.00010207	0.00019679	0.00011289	901.91	1.9361e-06	3.5238e-06	985.16	190.53	4.0093e-06	2.3668e-06	242.71	67.869	52.442	15.376	2.9386e-06	21.684	0.0003978	0.00059713	0.00016118	889.8	6.1415e-06	6.2434e-06	967.66	190.59	5.7118e-06	6.4214e-06	241.88	68.511	52.894	15.624	6.0326e-06	21.97	226.530	48.594	59.552	-22.261	159.660	89.929	-21.993	-14.458	188.239	127.375	-14.889	-7.571	-7.347	-0.379	113.367	-0.851	-8191	255	
38402.328	1	1	0	0	0.083137	0.19233	0.086033	0.12322	0.025831	0.2211	0.06685	0.21178	0.17953	0.097899	0.14067	0.10341	0.30215	0.11993	0.18375	0.034468	-3.1417	-2.6333	-2.7167	-3.2729	-2.5187	-3.1583	-3.2125	-2.6375	-3.3812	-2.7146	-2.6708	-3.3083	-2.4562	-2.9104	-3.1958	-2.5563	293.211	8.177	86.514	274.713	-30.590	272.582	233.498	299.617	146.056	230.153	298.275	272.031	124.865	54.735	326.088	270.810	0.00012725	0.00028198	8.9342e-05	901.99	3.0214e-06	2.2025e-06	981.02	191.22	1.5403e-06	3.3987e-06	243.74	67.808	52.759	15.45	3.7067e-06	21.632	0.00039787	0.00057607	0.00015884	889.67	6.0665e-06	6.5821e-06	967.57	190.64	5.8393e-06	6.3595e-06	242.12	68.754	52.912	15.672	5.6481e-06	21.94	234.867	74.714	73.682	-22.252	149.292	132.997	-21.896	-14.326	167.006	117.877	-14.977	-7.883	-6.979	-0.149	129.179	-1.479	-8191	255	
38402.449	1	1	0	0	0.2459	0.16031	0.14071	0.26722	0.034576	0.23105	0.23466	0.020386	0.047514	0.12059	0.10156	0.036349	0.036354	0.13403	0.020247	0.1561	-2.975	-2.6354	-2.625	-3.4	-2.4813	-2.9938	-3.3	-2.4833	-3.3917	-2.8771	-2.6021	-3.4167	-2.55	-3.0375	-3.2875	-2.4167	14.052	211.804	280.519	268.747	-29.769	102.816	268.199	9.644	34.349	318.165	162.409	79.818	187.810	-10.981	-9.060	78.051	0.00015857	0.00024736	7.2273e-05	901.56	2.8392e-06	2.8725e-06	984.92	191.01	7.0733e-07	3.2436e-06	240.34	68.504	52.452	15.332	1.9706e-06	21.721	0.00040468	0.00058657	0.00016088	889.33	6.0179e-06	6.213e-06	969.25	190.83	5.848e-06	6.0867e-06	241.23	68.923	52.969	15.655	5.8869e-06	21.955	216.808	60.418	71.063	-22.350	150.134	109.004	-21.977	-14.485	205.543	168.311	-15.288	-7.532	-7.369	0.023	136.569	-0.963	-8191	255	
38402.547	1	1	0	0	0.32047	0.098929	0.18048	0.36681	0.091513	0.22001	0.21714	0.07559	0.24709	0.18125	0.11856	0.24504	0.11989	0.1259	0.24533	0.12179	-2.9083	-3.0271	-2.5146	-3.2958	-2.5271	-2.8375	-3.4542	-2.4083	-3.3229	-2.8771	-2.3812	-3.3458	-2.7271	-2.7083	-3.4729	-2.3896	64.520	298.589	94.057	272.298	219.551	21.292	321.836	308.667	236.689	159.406	207.908	320.782	322.881	241.110	230.930	-25.336	0.00010012	0.00018946	8.0972e-05	905.93	7.9655e-07	3.2161e-06	981.05	192.55	3.4729e-06	3.1524e-06	241.89	68.295	52.658	15.438	2.2881e-06	21.812	0.00039012	0.00057607	0.00015948	891.19	6.0643e-06	6.5771e-06	969.14	191.22	5.8165e-06	6.245e-06	242.06	68.778	52.864	15.706	6.0714e-06	22.016	254.049	10.582	82.556	-22.306	278.893	131.530	-21.917	-14.521	175.520	126.884	-15.129	-7.249	-7.241	-0.222	141.200	-1.330	-8191	255	
38402.617	1	1	0	0	0.036732	0.24866	0.15398	0.13712	0.35526	0.23102	0.12226	0.32592	0.18833	0.040218	0.2013	0.12383	0.39979	0.37519	0.067384	0.30593	-2.7771	-3.0229	-2.4271	-3.4604	-2.7354	-2.8875	-3.4604	-2.4646	-3.0958	-3.2521	-2.4875	-3.3458	-2.8271	-2.6354	-3.1729	-2.4396	259.283	31.646	-31.229	17.315	180.727	185.546	285.577	299.786	141.708	126.147	163.319	240.429	256.154	282.420	29.308	264.679	0.00010576	0.00034633	3.9429e-05	901.51	1.7945e-06	2.9371e-06	982.39	190.61	2.2164e-06	2.5846e-06	244.15	68.145	52.441	15.371	2.4112e-06	21.519	0.00039354	0.00055737	0.0001611	890.43	6.0217e-06	6.5543e-06	969.76	190.58	5.8664e-06	6.4214e-06	242.21	68.89	52.861	15.644	5.6637e-06	21.91	237.392	31.677	60.268	-22.170	124.251	130.031	-22.017	-14.613	192.535	152.969	-15.183	-7.651	-7.135	-0.112	161.363	-0.704	-8191	255	
38402.715	1	1	0	0	0.1342	0.11093	0.25959	0.13133	0.14856	0.088867	0.048676	0.33124	0.28293	0.15834	0.17931	0.20644	0.20546	0.17712	0.22397	0.20456	-2.7208	-3.0792	-2.4062	-3.4417	-2.6854	-2.6625	-3.5292	-2.8083	-3.0833	-3.2708	-2.625	-3.1771	-2.9604	-2.3979	-3.3042	-2.4917	82.157	239.194	93.374	320.137	105.163	297.096	39.851	-3.183	194.218	223.815	315.646	313.079	-15.273	1.002	121.975	108.635	0.00012118	0.00018328	9.9718e-05	901.45	4.7306e-06	2.9262e-06	988	191.74	1.8341e-06	3.0396e-06	243.81	68.27	52.682	15.381	3.5561e-06	21.72	0.00039647	0.00056821	0.00016438	891.05	6.3143e-06	6.3738e-06	971.16	191	5.8979e-06	6.1518e-06	242.42	68.935	52.955	15.655	5.9748e-06	21.995	235.244	22.050	61.840	-22.149	154.834	112.508	-21.964	-14.419	150.153	135.114	-14.821	-7.484	-6.891	0.101	161.032	-1.142	-8191	255	
38402.836	1	1	0	0	0.11188	0.04884	0.033258	0.090957	0.012821	0.099808	0.2912	0.16013	0.097453	0.030964	0.33299	0.15831	0.24779	0.14487	0.04341	0.22475	-2.4271	-3.1333	-2.4437	-3.2313	-3.0792	-2.4208	-3.3979	-2.4417	-2.7125	-3.3563	-2.5438	-3.0167	-2.8688	-2.4583	-3.1813	-2.7562	43.213	299.686	12.010	211.391	103.198	273.915	230.193	40.112	49.457	255.916	254.724	84.522	34.226	39.252	313.704	73.025	9.7374e-05	0.00027118	5.5058e-05	901.52	2.6812e-06	2.4948e-06	984.42	191.43	2.2953e-06	2.1557e-06	244.23	67.984	52.662	15.371	1.9216e-06	21.665	0.00039765	0.00058691	0.00016368	890.62	6.0087e-06	6.5707e-06	969.4	190.89	5.944e-06	6.1518e-06	242.14	68.77	52.929	15.662	5.7718e-06	21.976	229.206	23.398	69.848	-22.280	154.421	90.421	-22.012	-14.449	192.871	120.968	-15.143	-7.708	-7.302	-0.280	130.499	-1.194	-8191	255	
38402.930	1	1	0	0	0.067716	0.12156	0.063431	0.21058	0.060691	0.20891	0.17461	0.076859	0.20428	0.13694	0.13296	0.2677	0.29293	0.13345	0.17204	0.11849	-2.3812	-3.2521	-2.3604	-3.2583	-3.0312	-2.2771	-3.5458	-2.8812	-2.625	-3.3812	-2.5292	-3.1417	-3.3438	-2.5563	-3.3354	-2.9542	313.595	129.553	73.701	298.129	99.892	319.383	-27.342	126.628	-1.611	258.868	304.203	181.584	273.663	325.907	241.730	153.599	0.00011472	0.00029398	9.0948e-05	903.97	2.5689e-06	2.4298e-06	983.12	191.97	9.1306e-07	2.0523e-06	242.36	68.376	52.49	15.485	4.0846e-06	21.604	0.00039777	0.00056265	0.00016764	891.39	5.9909e-06	6.4827e-06	969.56	191.17	5.9348e-06	6.3095e-06	241.84	68.846	53.001	15.667	5.784e-06	21.897	234.947	81.430	91.765	-22.442	162.897	109.297	-22.039	-14.332	141.159	98.072	-15.227	-7.440	-7.626	-0.637	135.162	-1.228	-8191	255	
38403.027	1	1	0	0	0.25497	0.090345	0.27192	0.21684	0.11271	0.2501	0.31087	0.10755	0.25149	0.031155	0.089286	0.11784	0.1654	0.11578	0.11487	0.2766	-2.2479	-3.4	-2.5062	-3.0667	-3.1625	-2.3688	-3.4792	-3.0083	-2.5312	-3.2667	-2.6792	-2.7167	-3.1229	-2.3479	-3.1771	-2.8667	99.150	260.365	259.362	-2.745	24.237	202.241	260.495	-5.563	154.574	22.157	190.298	-24.894	-31.282	302.479	71.888	92.083	0.00010683	0.00031709	0.0001003	903.28	1.9244e-06	4.1712e-06	984.4	191.23	2.4645e-06	2.1036e-06	243.61	68.467	52.545	15.283	3.0164e-06	21.78	0.00040823	0.00055692	0.00016501	892.03	5.9348e-06	6.5524e-06	970.09	191.03	5.8952e-06	6.1555e-06	242.42	68.902	52.845	15.634	5.7932e-06	21.977	250.039	29.333	63.694	-22.205	170.951	130.277	-22.359	-14.351	192.202	132.329	-15.206	-7.737	-7.406	-0.135	146.736	-1.261	-8191	255	
38403.121	1	1	0	0	0.3846	0.21939	0.06344	0.32828	0.093157	0.13797	0.37305	0.14628	0.095759	0.2128	0.32562	0.20823	0.16462	0.18647	0.11209	0.16691	-2.0875	-3.2313	-2.3854	-2.9167	-3.1437	-2.4667	-3.1437	-3.0687	-2.4458	-3.1917	-2.7438	-2.7042	-3.325	-2.5542	-3.0354	-3.0542	229.114	164.472	196.026	299.473	40.473	294.959	234.544	51.382	182.737	293.086	315.718	197.548	167.293	243.121	16.517	264.719	0.00014968	0.00017108	7.7809e-05	904.63	1.6269e-06	2.1951e-06	981.73	191.51	2.8965e-06	3.4089e-06	242.9	68.434	52.347	15.433	8.4214e-07	21.754	0.00039721	0.00056961	0.00016144	890.92	5.7982e-06	6.9259e-06	970.43	190.94	6.104e-06	6.2863e-06	241.96	69.033	52.828	15.66	5.847e-06	21.956	239.088	19.267	65.573	-22.467	187.760	133.976	-21.768	-14.669	207.982	129.464	-15.447	-7.357	-7.569	-0.250	149.728	-1.512	-8191	255	
38403.219	1	1	0	0	0.31603	0.063152	0.19106	0.41852	0.19093	0.11357	0.38058	0.1642	0.17449	0.06565	0.064009	0.28308	0.16165	0.22301	0.099442	0.32779	-2.0792	-3.1437	-2.6063	-2.6875	-3.4646	-2.5125	-3.1625	-3.2021	-2.4771	-3.2333	-2.8479	-2.7417	-3.3083	-2.5917	-3.1083	-3.2521	105.903	74.146	305.301	283.562	146.868	-0.529	230.704	222.964	239.989	122.916	303.515	55.447	229.749	-4.216	276.472	288.735	0.00010623	0.00026675	8.6414e-05	903.08	1.5371e-06	2.186e-06	985.63	191.65	1.4908e-06	2.9892e-06	242.76	67.866	52.693	15.294	4.1029e-06	21.666	0.00039233	0.00056332	0.00015575	892	5.8506e-06	6.5264e-06	969.48	190.95	5.9494e-06	5.9385e-06	241.75	68.802	53.08	15.601	5.9962e-06	21.937	238.868	69.846	60.707	-22.444	106.897	93.108	-22.312	-14.690	160.826	99.863	-15.521	-8.243	-7.524	-0.505	129.380	-1.675	-8191	255	
38403.312	1	1	0	0	0.15287	0.22003	0.067186	0.25558	0.092381	0.24051	0.30329	0.25618	0.29452	0.15949	0.15445	0.038664	0.16405	0.13325	0.24207	0.18612	-2.0917	-3.2479	-2.8104	-2.7188	-3.3208	-2.5604	-3.1396	-3.3063	-2.4958	-3.2979	-2.8708	-2.6271	-3.3146	-2.5271	-3.0167	-3.3854	177.248	32.202	-14.360	257.183	109.546	29.097	230.600	307.066	77.362	52.466	250.234	231.494	60.093	322.760	318.239	99.284	0.00014228	0.00019096	9.1714e-05	905.08	1.1572e-06	1.5105e-06	984.7	191.13	1.2864e-06	2.5124e-06	243.19	68.182	52.586	15.386	1.9788e-06	21.541	0.0004025	0.00057012	0.00015516	891.87	5.7745e-06	6.6176e-06	970.61	190.85	6.0036e-06	6.19e-06	241.58	68.954	52.933	15.677	6.0911e-06	21.927	228.658	55.715	72.530	-22.578	136.281	173.469	-22.290	-14.600	178.709	106.961	-15.190	-8.162	-7.438	-0.491	138.831	-1.533	-8191	255	
38403.410	1	1	0	0	0.10214	0.1596	0.14633	0.23455	0.20794	0.092895	0.19621	0.26625	0.051063	0.12776	0.12418	0.27724	0.055091	0.054783	0.036711	0.17108	-1.9188	-3.2083	-3.1521	-2.6458	-3.1458	-2.6208	-2.6688	-3.3042	-2.3875	-3.0125	-3.075	-2.5292	-3.3021	-2.6958	-2.5896	-3.3479	-1.191	70.120	230.026	-17.332	183.736	70.916	279.310	321.768	226.874	208.108	14.436	247.264	113.424	0.543	162.604	287.597	0.00010403	0.00025718	8.9694e-05	902.57	2.624e-06	8.5119e-07	988.19	192.29	4.2605e-06	2.7729e-06	243.48	68.55	52.744	15.408	1.8699e-06	21.601	0.00040449	0.00058775	0.00015369	891.58	5.9348e-06	6.4916e-06	970.93	191.26	6.047e-06	6.3207e-06	242.31	68.862	52.953	15.671	6.1281e-06	21.933	250.289	64.598	69.389	-22.598	144.857	154.786	-22.252	-14.861	152.483	201.859	-15.109	-7.462	-7.298	-0.224	103.478	-1.257	-8191	255	
38403.531	1	1	0	0	0.33354	0.12825	0.20932	0.28776	0.12108	0.072499	0.16689	0.19065	0.13345	0.14089	0.14772	0.17203	0.08121	0.22118	0.16075	0.28226	-1.9708	-2.8542	-2.9938	-2.4208	-3.2396	-2.7708	-2.6021	-3.4354	-2.55	-2.9375	-3.3063	-2.5125	-3.275	-2.9104	-2.5396	-3.2875	27.975	193.657	232.016	304.770	177.139	322.736	41.745	221.090	96.459	295.396	76.390	204.975	32.717	295.891	246.542	179.003	0.00012057	7.0451e-05	4.8092e-05	905.12	1.9946e-06	2.2477e-06	983.69	191.52	6.0287e-07	1.7261e-06	241.95	68.277	52.637	15.42	1.6112e-06	21.558	0.00041383	0.00055518	0.00015698	891.87	6.06e-06	6.4175e-06	968.6	190.82	5.7596e-06	6.4634e-06	241.82	68.712	53.001	15.641	6.1119e-06	21.97	239.958	124.484	93.701	-22.329	155.900	148.428	-22.043	-14.472	118.927	152.544	-15.389	-7.615	-7.581	-0.326	115.926	-1.319	-8191	255	
38403.625	1	1	0	0	0.048171	0.066163	0.09846	0.35623	0.11805	0.25582	0.26814	0.034938	0.06056	0.22877	0.13189	0.15985	0.097594	0.072074	0.047158	0.27124	-2.3271	-2.8833	-3.2333	-2.5729	-3.2687	-3.0438	-2.425	-3.5958	-2.6104	-2.7354	-3.4708	-2.4979	-3.2	-3.1354	-2.3792	-3.3688	4.406	141.374	287.825	267.008	119.132	79.631	271.873	173.839	54.084	302.498	8.207	270.064	-19.972	214.148	52.181	235.031	0.0001346	0.00036321	9.7543e-05	904	4.0017e-06	3.2207e-06	981.66	190.99	1.0875e-06	2.2246e-06	242.34	68.531	52.585	15.466	9.7249e-07	21.655	0.00041514	0.00056877	0.0001561	889.85	6.1286e-06	6.3675e-06	970.47	190.8	6.0123e-06	6.4828e-06	241.5	69.02	52.977	15.655	6.2108e-06	21.994	226.701	45.268	65.570	-22.376	171.302	150.024	-22.571	-14.438	164.958	134.138	-15.453	-7.998	-7.161	-0.443	141.281	-0.843	-8191	255	
38403.723	1	1	0	0	0.11245	0.10338	0.19186	0.1371	0.098855	0.18349	0.13348	0.18581	0.099183	0.11549	0.10668	0.37012	0.057336	0.34517	0.14306	0.18947	-2.3417	-2.6479	-3.2812	-2.6354	-3.2	-3.1354	-2.7125	-3.4458	-2.8479	-2.6208	-3.3667	-2.6292	-3.1312	-3.0417	-2.5542	-3.3917	93.167	87.371	194.888	242.280	-28.503	254.788	260.413	167.024	181.317	239.440	322.773	295.992	308.831	206.417	73.580	300.275	0.0001525	0.00024187	6.7635e-05	898.99	1.1072e-06	2.9398e-06	984.47	191.78	8.7416e-07	1.447e-06	243.24	68.412	52.938	15.296	6.6586e-07	21.623	0.00041788	0.00058231	0.00015467	889.9	6.0692e-06	6.3605e-06	969.58	190.92	5.8361e-06	6.4477e-06	241.97	68.851	53.059	15.607	6.5358e-06	21.976	231.803	80.399	74.058	-22.349	209.820	119.132	-22.408	-14.388	219.862	87.397	-15.371	-7.630	-7.332	-0.409	135.062	-0.831	-8191	255	
38403.844	1	1	0	0	0.29165	0.23974	0.17529	0.2263	0.21411	0.24911	0.21464	0.18172	0.082516	0.058183	0.25162	0.19933	0.14863	0.18458	0.23474	0.11129	-2.5375	-2.6021	-3.2854	-2.6583	-3.0021	-3.1979	-2.5354	-3.4792	-3.0208	-2.55	-3.5583	-2.5687	-2.925	-3.3812	-2.4458	-3.4104	76.011	108.919	-7.100	299.818	283.028	146.982	303.298	48.560	234.805	320.739	297.684	164.245	-13.910	242.936	155.483	292.646	0.00013935	0.0001748	9.6e-05	904.93	4.9841e-06	2.9084e-06	983.22	192.1	2.9282e-06	2.4277e-06	243.46	68.012	52.513	15.488	2.2609e-06	21.538	0.00041305	0.00058135	0.0001553	891.14	6.0417e-06	6.2668e-06	969.59	190.87	6.0031e-06	6.3495e-06	242.38	68.785	53	15.673	5.9025e-06	21.923	233.961	21.320	80.120	-22.287	130.302	109.036	-21.990	-14.544	168.712	68.859	-15.551	-7.797	-6.953	-0.264	153.526	-1.511	-8191	255	
38403.914	1	1	0	0	0.28894	0.054421	0.15288	0.25112	0.10846	0.10199	0.23423	0.13651	0.10758	0.18264	0.17631	0.064399	0.051587	0.254	0.22329	0.041312	-2.6646	-2.6063	-3.4021	-2.8646	-3.0104	-3.5687	-2.5521	-3.3229	-2.9625	-2.6354	-3.4771	-2.7667	-2.8563	-3.2917	-2.4021	-3.1688	162.631	177.422	-29.938	257.908	64.782	321.865	308.641	-21.331	179.338	156.348	258.220	206.180	231.465	250.279	243.641	42.119	0.00013289	0.00012353	8.9472e-05	905.09	2.5495e-06	3.0494e-06	985.38	191.02	1.6549e-06	3.1158e-06	241.89	68.063	52.84	15.442	3.3376e-06	21.688	0.00040521	0.00059348	0.00015968	892.13	6.2398e-06	6.508e-06	970.17	191.12	6.2331e-06	6.387e-06	241.47	68.708	53.056	15.665	6.2749e-06	21.966	236.078	111.570	45.603	-22.186	112.338	141.008	-22.053	-14.498	200.026	102.834	-15.241	-7.915	-7.579	-0.823	143.353	-1.078	-8191	255	
38404.012	1	1	0	0	0.17681	0.17424	0.259	0.239	0.084459	0.16377	0.30109	0.086921	0.043548	0.19999	0.10127	0.30817	0.13718	0.044969	0.36558	0.26568	-2.7562	-2.4708	-3.3	-2.9562	-2.6646	-3.4083	-2.6521	-3.1583	-3.0667	-2.4458	-3.4104	-2.8854	-2.6125	-3.2771	-2.5083	-3.1396	41.263	313.300	16.187	274.546	-11.782	-3.758	203.438	324.574	71.288	298.191	39.563	313.322	205.215	227.511	113.438	301.089	0.00012215	0.0002896	9.1323e-05	901.88	2.455e-06	3.6693e-06	984.08	190.96	3.5963e-07	2.0869e-06	243.38	68.187	52.388	15.301	3.6412e-06	21.477	0.00039883	0.00060073	0.00016427	891.3	6.026e-06	6.7018e-06	970.27	190.93	5.9158e-06	6.7443e-06	242.37	68.804	52.808	15.648	6.4588e-06	21.94	244.380	19.337	43.894	-22.458	162.923	131.612	-22.294	-14.726	215.403	131.993	-15.067	-7.487	-7.213	-0.590	153.727	-1.296	-8191	255	
38404.133	1	1	0	0	0.20224	0.26699	0.35305	0.12249	0.18746	0.066419	0.27266	0.13537	0.164	0.079934	0.071943	0.33694	0.035	0.16969	0.057531	0.023408	-2.7375	-2.5604	-3.1958	-2.9313	-2.5292	-3.5417	-2.7229	-3.1708	-3.3229	-2.5312	-3.45	-2.9667	-2.4437	-3.4562	-2.6708	-2.8667	104.559	222.035	270.287	285.061	185.807	41.171	264.159	263.788	263.171	218.593	209.104	326.783	96.084	-29.057	73.571	166.299	0.00013046	0.00029187	3.2371e-05	901.72	2.7536e-06	2.4013e-06	979.43	192.94	1.2822e-06	3.3904e-06	241.48	68.037	52.729	15.405	1.9531e-06	21.561	0.00040658	0.00060954	0.00015544	890.9	6.0886e-06	6.4188e-06	968.98	191.52	5.8984e-06	6.3664e-06	241.47	68.774	53.032	15.68	6.1975e-06	21.97	239.791	50.421	29.056	-22.171	154.679	98.172	-22.043	-14.407	202.956	117.683	-15.258	-7.569	-7.246	-0.519	98.188	-1.311	-8191	255	
38404.227	1	1	0	0	0.32	0.31703	0.066628	0.15258	0.20346	0.3475	0.26421	0.23016	0.12289	0.30433	0.11577	0.13026	0.23311	0.20779	0.25782	0.23927	-2.95	-2.4437	-3.1854	-3.1958	-2.5312	-3.3375	-2.8708	-2.9146	-3.4	-2.5062	-3.2042	-3.1458	-2.4208	-3.5104	-2.925	-2.7854	39.500	183.010	48.300	34.311	114.954	205.150	-29.031	300.494	279.325	221.197	-23.662	296.306	-11.892	150.113	278.594	67.442	0.00013967	0.00038427	6.3224e-05	899.17	1.7315e-06	6.6065e-07	982.83	191.53	1.3085e-06	2.3678e-06	242.6	68.412	52.565	15.374	3.7444e-06	21.672	0.00041644	0.00059899	0.0001618	890.99	6.1394e-06	6.3935e-06	970.2	190.85	5.7303e-06	6.6617e-06	242.24	68.773	53.056	15.618	6.1923e-06	22.006	228.981	33.978	40.905	-22.414	176.250	167.342	-22.193	-14.257	171.764	155.560	-15.326	-7.721	-7.278	-0.421	122.481	-0.983	-8191	255	
38404.320	1	1	0	0	0.028392	0.25747	0.17596	0.092333	0.31023	0.10614	0.14991	0.20169	0.16187	0.23565	0.30573	0.21423	0.077995	0.13981	0.055397	0.0041775	-3.1854	-2.6167	-3.05	-3.4625	-2.4437	-3.4083	-2.9292	-2.6625	-3.375	-2.4583	-3.0771	-3.3563	-2.575	-3.2125	-2.7833	-2.7771	210.009	317.919	294.389	4.157	194.071	118.300	200.587	145.888	302.314	119.195	320.060	215.717	147.471	59.720	117.126	305.708	0.00014399	0.00015629	7.2907e-05	905.33	1.8537e-06	1.048e-06	982.68	191.95	2.8521e-06	2.957e-06	243.04	68.154	52.715	15.467	3.0556e-06	21.581	0.00039466	0.00061533	0.00015488	892.73	6.1286e-06	6.2814e-06	969.82	191.01	5.7211e-06	6.4784e-06	241.58	68.788	52.948	15.695	5.9725e-06	21.97	233.173	47.040	67.707	-22.584	179.405	53.535	-22.365	-14.401	176.477	85.253	-14.981	-7.701	-7.465	-0.277	122.328	-1.348	-8191	255	
38404.418	1	1	0	0	0.13685	0.24532	0.19626	0.25889	0.10209	0.29546	0.29458	0.23233	0.061464	0.051522	0.0079778	0.085312	0.074036	0.030779	0.035378	0.19643	-2.9521	-2.6	-3.0854	-3.3625	-2.3125	-3.3396	-3.0833	-2.6458	-3.5062	-2.75	-2.8625	-3.3729	-2.6688	-3.1437	-3.2104	-2.4688	125.998	172.764	249.760	273.592	-27.867	292.453	37.925	315.821	50.093	12.129	301.124	213.659	29.779	145.797	271.710	59.895	0.00013523	0.00012694	3.9117e-05	906.7	4.4098e-06	1.4407e-06	985.44	191.54	1.8894e-06	1.6975e-06	243.96	68.763	52.495	15.474	2.2467e-06	21.675	0.00039724	0.0005841	0.00015923	892.77	6.1966e-06	6.2719e-06	969.68	191.1	5.6939e-06	6.5816e-06	242.68	68.922	53.118	15.645	5.9164e-06	21.987	239.993	62.620	72.947	-22.382	173.877	100.454	-22.195	-14.402	154.795	102.734	-15.112	-8.016	-7.281	0.081	189.534	-1.521	-8191	255	
38404.516	1	1	0	0	0.12081	0.14072	0.31537	0.30756	0.11638	0.28858	0.22957	0.041389	0.1909	0.090906	0.24899	0.13882	0.10083	0.10058	0.35209	0.040144	-2.9979	-2.5333	-2.7583	-3.5312	-2.5333	-3.1125	-3.2708	-2.5583	-3.4	-2.7125	-2.8875	-3.2458	-2.5479	-3.325	-3.0792	-2.5083	244.386	50.742	240.665	294.564	225.431	249.816	192.055	145.212	46.062	227.981	104.091	178.953	219.355	-10.901	189.536	151.454	0.00014955	0.00012898	6.8135e-05	903.88	3.1133e-06	3.3577e-06	983.17	192.34	2.8661e-06	8.8291e-07	242.95	68.227	52.96	15.216	2.478e-06	21.778	0.00040786	0.00060325	0.00015617	891.78	6.1804e-06	6.2782e-06	969.49	190.9	5.9434e-06	6.5072e-06	242.01	68.892	53.025	15.625	6.0558e-06	21.999	229.545	37.414	55.049	-22.481	126.492	105.153	-21.932	-14.094	193.074	136.722	-15.147	-7.938	-7.436	-0.302	150.786	-1.299	-8191	255	
38404.609	1	1	0	0	0.30822	0.22398	0.19626	0.33041	0.17975	0.058862	0.2441	0.27171	0.1091	0.12619	0.1553	0.22569	0.13634	0.18959	0.36638	0.11141	-2.8104	-2.7687	-2.5875	-3.5417	-2.5229	-3.0792	-3.5417	-2.2687	-3.2271	-2.8854	-2.6083	-3.3375	-2.6688	-2.8	-3.2792	-2.5729	180.346	318.698	131.698	316.434	322.859	191.932	304.212	254.720	248.569	84.460	223.422	-6.308	226.861	220.821	190.249	-10.205	0.00012789	0.00034146	9.0531e-05	903.65	2.23e-06	2.34e-06	986.54	192.1	2.3787e-06	2.0868e-06	243.52	68.067	52.805	15.453	2.8736e-06	21.719	0.00039497	0.00057394	0.00016091	891.16	6.1755e-06	6.3485e-06	970.9	191.08	5.7525e-06	6.4283e-06	242.18	68.738	53.063	15.665	6.0084e-06	21.974	237.833	65.170	53.916	-22.420	121.338	124.075	-21.926	-14.293	141.751	103.375	-15.070	-7.252	-6.947	-0.372	161.255	-0.667	-8191	255	
38404.707	1	1	0	0	0.14373	0.1007	0.23223	0.10684	0.11975	0.14869	0.19878	0.24576	0.06513	0.072256	0.31468	0.20492	0.312	0.082972	0.23973	0.29518	-2.8125	-3.0125	-2.5	-3.6312	-2.6979	-2.8375	-3.4604	-2.5896	-3.1146	-2.8563	-2.4229	-3.4042	-2.5583	-2.6583	-3.2917	-2.6979	262.178	197.736	58.114	92.028	252.006	25.815	201.883	304.914	-12.856	84.944	236.841	-17.354	299.126	-8.903	43.814	5.148	0.0001446	0.00047553	9.5498e-05	904.28	3.3361e-06	2.8365e-06	985.58	192.15	1.9735e-06	2.4051e-06	241.16	68.144	52.369	15.446	3.2601e-06	21.574	0.00040938	0.0005813	0.00016403	892.02	6.1086e-06	6.4137e-06	970.93	190.87	6.0102e-06	6.2882e-06	241.83	68.756	52.957	15.663	5.8464e-06	21.943	227.145	55.640	65.450	-22.099	131.074	144.329	-22.084	-14.439	144.033	116.791	-14.871	-7.648	-7.085	-0.176	145.922	-0.878	-8191	255	
38404.801	1	1	0	0	0.10683	0.23903	0.2509	0.2573	0.35292	0.14493	0.05933	0.075549	0.12453	0.27252	0.03957	0.12616	0.099236	0.26394	0.26538	0.53211	-2.8396	-2.9771	-2.4813	-3.3604	-2.7	-2.7792	-3.2833	-2.4667	-3.1396	-3.05	-2.4229	-3.3937	-2.6896	-2.5458	-3.3	-2.5625	73.234	69.636	304.057	306.453	296.992	235.040	236.013	65.304	307.544	256.536	-8.244	256.392	190.261	234.844	22.970	263.478	0.00012009	0.00031844	5.9237e-05	905.17	3.6095e-06	1.4881e-06	986.15	191.65	1.0247e-06	2.6483e-06	243.15	68.442	52.419	15.353	1.8438e-06	21.663	0.00040014	0.0005613	0.00015956	891.95	6.2506e-06	6.4663e-06	971.86	191.25	5.8209e-06	6.2212e-06	241.7	68.827	52.925	15.637	6.006e-06	21.899	235.953	44.752	62.368	-21.919	168.017	120.234	-21.900	-14.041	196.623	79.599	-14.810	-7.470	-7.033	-0.488	60.856	-0.706	-8191	255	
38404.922	1	1	0	0	0.11883	0.37397	0.22354	0.20555	0.07951	0.10195	0.23599	0.16278	0.36202	0.16479	0.24531	0.095274	0.041812	0.065148	0.083502	0.14697	-2.5958	-3.0479	-2.5375	-3.2687	-2.8521	-2.6292	-3.4521	-2.5438	-2.9021	-3.2875	-2.5354	-3.2417	-2.8937	-2.6146	-3.3229	-2.5167	300.367	212.225	200.170	242.942	172.609	208.273	197.804	277.554	157.088	303.843	263.943	128.879	127.811	-4.529	17.233	164.360	0.00013297	0.00014492	7.7299e-05	902.23	2.7789e-06	4.0823e-06	985.75	191.32	3.4197e-06	1.902e-06	242.31	68.135	52.492	15.426	3.4617e-06	21.592	0.00041094	0.00056922	0.00015887	892.16	5.8668e-06	6.4207e-06	970.2	191.3	5.8051e-06	6.1843e-06	242.28	68.844	52.846	15.692	6.1049e-06	21.962	223.131	49.020	70.346	-22.074	158.336	131.256	-22.218	-14.320	152.159	119.414	-15.165	-7.715	-7.036	-0.442	124.626	-0.679	-8191	255	
38405.020	1	1	0	0	0.19363	0.1834	0.078856	0.21574	0.31389	0.096255	0.2689	0.29884	0.067777	0.13044	0.31354	0.1332	0.24978	0.16337	0.32993	0.13572	-2.6229	-3.1479	-2.5042	-3.2875	-2.9542	-2.4313	-3.5333	-2.7917	-2.7729	-3.3958	-2.4917	-3.2208	-3.0375	-2.5521	-3.2458	-2.7188	117.368	123.969	46.735	254.466	-30.655	160.657	252.972	246.944	61.197	-26.947	-7.595	243.106	138.161	-26.050	132.532	28.554	0.00013034	0.00014945	0.00010091	906.91	1.8643e-06	3.9702e-06	988.06	191.08	1.366e-06	1.7872e-06	241.93	68.279	52.659	15.452	3.0291e-06	21.643	0.00040166	0.0005649	0.00016798	891.92	6.0109e-06	6.6017e-06	971.6	190.98	6.002e-06	6.103e-06	241.81	68.792	52.879	15.667	6.1281e-06	21.954	217.705	68.894	52.486	-22.162	197.461	142.319	-21.733	-14.234	191.991	28.779	-14.772	-7.241	-6.901	-0.158	105.961	-1.212	-8191	255	
38405.113	1	1	0	0	0.14867	0.057964	0.4865	0.23988	0.10941	0.48489	0.33636	0.13083	0.12404	0.13149	0.087862	0.2556	0.13018	0.30914	0.25482	0.10827	-2.2396	-3.2188	-2.2958	-3.15	-2.9479	-2.525	-3.3958	-2.7854	-2.6646	-3.3396	-2.7167	-2.9979	-3.1833	-2.5438	-3.1	-2.7938	38.591	127.347	240.608	292.026	223.017	266.279	243.190	63.254	22.994	315.156	270.969	-25.767	297.574	324.528	97.743	-24.803	0.00010691	0.00028973	0.00013066	903.89	3.3519e-06	1.3149e-06	989.17	190.97	2.2749e-06	1.3863e-06	243.51	67.843	52.588	15.333	2.9039e-06	21.621	0.0004082	0.00056097	0.00016473	891.51	6.0222e-06	6.4466e-06	971.02	190.91	5.9565e-06	6.1918e-06	242.39	68.706	52.968	15.658	6.0425e-06	21.959	233.373	55.158	48.916	-22.144	150.409	117.172	-21.718	-14.335	177.029	93.177	-14.550	-7.312	-6.748	-0.490	182.071	-0.917	-8191	255	
38405.211	1	1	0	0	0.040267	0.086631	0.24078	0.14059	0.29923	0.21995	0.052153	0.16879	0.073634	0.048731	0.052253	0.052248	0.26238	0.042756	0.12615	0.084573	-2.1958	-3.1375	-2.575	-3.0729	-3.2	-2.3917	-3.1292	-3.0812	-2.5187	-3.3583	-2.6958	-2.9208	-3.2375	-2.5438	-3.1063	-3.025	172.560	48.606	212.454	235.394	2.885	248.678	90.904	204.366	320.373	24.498	84.184	227.557	271.058	36.590	48.807	148.767	0.00010844	0.00027649	9.0564e-05	903.25	3.4802e-06	1.5719e-06	984.86	191.02	1.8471e-06	2.216e-06	243.2	67.878	52.702	15.492	3.0833e-06	21.49	0.00041753	0.00056029	0.00016501	891.22	5.7642e-06	6.4371e-06	971.1	190.56	5.9619e-06	6.0417e-06	242.04	68.866	52.926	15.679	5.9459e-06	21.922	226.325	48.506	46.666	-22.013	190.979	148.732	-21.873	-14.065	201.725	103.357	-15.491	-7.200	-7.065	-0.443	144.506	-1.379	-8191	255	
38405.305	1	1	0	0	0.18954	0.24407	0.1434	0.10509	0.17071	0.16435	0.22314	0.22169	0.13811	0.30484	0.19845	0.19657	0.1154	0.21852	0.238	0.20359	-2.0583	-3.3125	-2.7188	-3.0875	-3.3521	-2.5771	-3.2208	-3.1854	-2.5208	-3.3	-2.75	-2.7542	-3.3896	-2.5583	-3.0958	-3.2188	25.876	166.670	95.578	-22.277	257.322	214.155	269.326	316.620	190.352	299.655	270.910	-16.723	309.769	152.056	301.880	-30.178	0.00011679	0.00038834	8.0142e-05	905.45	2.841e-06	2.1826e-06	982.93	191.39	6.1585e-07	2.0287e-06	243.46	68.07	52.802	15.456	3.6485e-06	21.625	0.00041255	0.00059343	0.00016888	892.06	5.9979e-06	6.5403e-06	970.69	190.78	5.957e-06	6.2938e-06	241.96	68.837	52.946	15.66	6.0188e-06	21.911	233.360	37.855	67.589	-21.953	107.973	103.393	-22.134	-14.197	212.443	114.467	-15.192	-7.835	-7.250	0.196	136.755	-0.812	-8191	255	
38405.402	1	1	0	0	0.1029	0.2863	0.27375	0.22348	0.11276	0.15818	0.14034	0.10533	0.12577	0.2832	0.22865	0.1077	0.0167	0.21465	0.11811	0.1274	-2.0167	-3.1625	-2.8	-2.8688	-3.4021	-2.4562	-3.075	-3.1562	-2.3583	-3.3542	-3.0104	-2.6792	-3.3063	-2.5146	-2.8063	-3.3479	283.224	89.675	3.687	296.795	290.015	132.748	-2.452	2.589	204.594	229.275	5.340	271.083	272.376	5.758	148.051	192.721	0.00010395	0.00023964	7.5405e-05	903.41	3.5264e-06	1.8043e-06	985.39	191.32	1.3805e-06	1.6449e-06	241.8	68.294	52.501	15.421	2.1601e-06	21.619	0.00042133	0.00058337	0.00016407	891.84	5.951e-06	6.7081e-06	969.95	190.97	6.027e-06	6.1993e-06	241.75	68.821	52.947	15.676	6.2113e-06	21.928	252.261	29.540	61.424	-22.160	165.436	182.145	-22.023	-14.342	189.334	92.050	-15.306	-7.146	-7.247	-0.218	148.286	-1.021	-8191	255	
38405.523	1	1	0	0	0.21788	0.03053	0.1316	0.26292	0.070697	0.37157	0.19657	0.13196	0.3535	0.064335	0.39255	0.061207	0.25998	0.12932	0.12318	0.086222	-2.375	-3.3396	-2.9521	-2.6083	-3.3771	-2.5812	-3.0771	-3.4479	-2.5146	-3.2708	-3.1958	-2.6437	-3.4125	-2.7604	-2.7417	-3.3396	89.556	193.970	129.217	309.656	325.407	271.366	317.633	205.904	-12.967	123.018	272.866	293.614	154.987	86.377	165.253	35.189	0.00013144	0.00022398	4.3057e-05	905.75	3.5178e-06	2.6371e-06	982.25	191.43	3.1669e-06	3.3942e-06	242.3	68.156	52.457	15.494	1.9867e-06	21.61	0.00042133	0.00057821	0.00015598	891.37	5.8792e-06	6.6809e-06	968.42	191.11	5.951e-06	6.2638e-06	241.73	68.813	52.896	15.7	6.0529e-06	21.908	231.426	50.910	19.802	-22.176	136.850	139.768	-22.081	-14.429	201.516	98.804	-15.310	-7.384	-7.071	-0.548	141.559	-0.690	-8191	255	
38405.617	1	1	0	0	0.032821	0.11174	0.09471	0.36895	0.086984	0.17322	0.16833	0.20036	0.085145	0.22715	0.12306	0.15432	0.084235	0.19993	0.18299	0.15739	-2.2354	-3.15	-2.9208	-2.6104	-3.3146	-2.8229	-2.8646	-3.4354	-2.4896	-3.0771	-3.2333	-2.4729	-3.4208	-2.6583	-2.7375	-3.1958	238.622	130.137	-14.469	245.667	109.248	289.369	189.447	221.505	157.621	250.997	79.125	74.042	43.398	125.838	224.017	229.627	0.0001507	0.00030122	5.6829e-05	904.48	3.9897e-06	2.0617e-06	990.11	191.9	1.8399e-06	1.5579e-06	242.28	68.489	52.449	15.481	1.4799e-06	21.567	0.00041977	0.00059635	0.00016339	892.06	5.9623e-06	6.6397e-06	972.49	191.09	6.021e-06	6.1724e-06	241.92	68.875	52.892	15.696	6.3114e-06	21.958	222.605	54.790	56.131	-22.168	195.270	146.620	-21.987	-14.224	135.280	123.650	-14.696	-7.481	-7.162	-0.191	154.191	-0.592	-8191	255	
38405.715	1	1	0	0	0.048208	0.091898	0.11343	0.040592	0.086768	0.04331	0.26735	0.031591	0.25872	0.11985	0.026917	0.095724	0.13967	0.11209	0.24647	0.12851	-2.0292	-2.975	-3.2896	-2.4708	-3.275	-2.9583	-2.7333	-3.4042	-2.6063	-2.925	-3.1792	-2.5812	-3.2604	-2.9688	-2.4771	-3.4521	211.272	298.189	245.419	181.277	-5.069	12.865	28.304	320.609	175.674	84.037	286.700	265.033	4.520	-6.507	82.022	52.349	8.6778e-05	0.00030758	6.4192e-05	910.38	4.5173e-07	4.4982e-06	987.1	191.2	1.1775e-06	1.5844e-06	242.13	68.349	52.438	15.493	4.0144e-06	21.493	0.00041704	0.00058483	0.00016066	893.09	6.08e-06	6.4213e-06	971.93	190.64	6.0704e-06	6.6467e-06	241.97	68.798	52.935	15.687	6.1512e-06	21.931	231.763	42.702	58.377	-22.155	230.156	112.911	-22.027	-14.140	149.737	115.016	-14.885	-7.238	-7.198	-0.174	101.731	-0.873	-8191	255	
38405.812	1	1	0	0	0.090214	0.05345	0.08042	0.097127	0.13674	0.049391	0.19064	0.16856	0.099115	0.10438	0.11021	0.14508	0.18185	0.0099888	0.17525	0.19566	-2.2208	-2.9062	-3.1417	-2.7146	-3.1479	-2.9875	-2.7271	-3.7125	-2.625	-2.7167	-3.4437	-2.5792	-3.25	-2.9417	-2.3063	-3.3271	-23.447	195.042	117.088	245.318	203.579	296.380	249.556	190.637	142.848	278.979	220.598	257.666	-12.922	183.608	246.505	303.522	9.593e-05	9.5948e-05	0.00011076	903.96	2.6347e-06	3.207e-06	985.33	192.09	1.5756e-06	2.8292e-06	244.24	68.245	52.731	15.448	3.2086e-06	21.668	0.00040229	0.00059371	0.00016107	891.07	6.0789e-06	6.1769e-06	971.93	191.11	6.1409e-06	6.6767e-06	242.15	68.661	53.044	15.68	6.4155e-06	21.959	227.154	78.786	106.198	-21.998	113.687	128.143	-22.134	-14.357	147.004	75.286	-15.178	-7.258	-7.295	0.014	155.877	-0.815	-8191	255	
38405.906	1	1	0	0	0.14946	0.073087	0.0095399	0.077012	0.12803	0.2458	0.32036	0.10861	0.17007	0.17008	0.19586	0.1756	0.23076	0.11263	0.10256	0.20549	-2.4896	-2.9646	-3.4417	-2.6312	-3.125	-3.0667	-2.6708	-3.5083	-2.8125	-2.7271	-3.3833	-2.5771	-3.0271	-3.2042	-2.3937	-3.2708	166.705	305.228	-9.264	184.826	178.789	206.491	256.917	210.098	-31.369	-25.599	313.085	68.430	233.133	170.075	-26.196	102.573	0.00012006	0.0002655	8.3882e-05	903.11	3.4892e-06	2.4892e-06	986.94	192.43	1.9608e-06	3.0617e-06	243.55	68.611	52.812	15.306	2.5208e-06	21.738	0.00041003	0.00058101	0.00016043	891.43	6.1755e-06	6.6074e-06	972.3	191.24	5.9716e-06	6.6179e-06	242.14	68.778	53.028	15.669	6.4056e-06	21.921	223.445	28.072	57.350	-21.924	151.120	112.003	-22.024	-14.402	144.633	121.140	-15.676	-7.291	-7.370	-0.365	142.354	-1.108	-8191	255	
38406.004	1	1	0	0	0.26039	0.21064	0.23469	0.24492	0.11754	0.16485	0.18181	0.28252	0.23119	0.11312	0.048695	0.12891	0.19405	0.21438	0.24756	0.13129	-2.6562	-2.4938	-3.3729	-2.8438	-2.8125	-3.3688	-2.6625	-3.2125	-2.8146	-2.6292	-3.4313	-2.5458	-2.8063	-3.3	-2.4708	-3.1625	293.231	-23.413	126.767	-20.815	-19.993	-1.566	243.439	287.948	53.668	1.063	196.244	241.707	280.814	233.170	203.950	16.275	0.00010529	0.00010473	8.2084e-05	904.78	2.8423e-06	1.673e-06	982.21	192.82	6.1453e-07	1.0519e-06	241.85	67.918	52.755	15.5	4.2581e-06	21.591	0.00041504	0.00060247	0.00015975	891.84	5.8797e-06	6.5543e-06	969.29	191.1	6.181e-06	6.4828e-06	241.63	68.738	53.063	15.68	6.1015e-06	21.954	228.559	22.271	64.287	-22.539	152.483	104.835	-22.145	-14.183	175.472	193.669	-14.948	-7.568	-7.248	-0.293	149.835	-1.247	-8191	255	
38406.098	1	1	0	0	0.18918	0.1527	0.20798	0.15207	0.14885	0.18705	0.10075	0.082561	0.17207	0.14906	0.2561	0.12453	0.14583	0.088338	0.21608	0.1582	-2.5833	-2.5771	-3.3875	-2.975	-2.8021	-3.2896	-2.6583	-3.1292	-3.0646	-2.4583	-3.4188	-2.7938	-2.7812	-3.3	-2.3312	-3.25	275.541	246.925	76.714	265.687	174.579	-20.289	46.242	-2.147	194.864	-29.484	-3.668	131.123	308.304	172.981	160.332	305.907	0.00015519	0.00017124	6.9632e-05	903.96	3.6542e-06	2.2837e-06	990.01	191.02	1.0319e-06	2.3875e-06	243.36	68.453	52.53	15.36	2.5293e-06	21.523	0.0004035	0.00056866	0.00015968	892.05	6.1426e-06	6.3776e-06	972.12	190.96	6.0671e-06	6.6498e-06	242.08	68.807	52.97	15.649	6.2593e-06	21.956	232.542	49.177	112.260	-22.321	142.820	138.647	-22.223	-14.632	217.081	110.238	-15.177	-7.861	-7.363	-0.682	112.190	-1.578	-8191	255	
38406.219	1	1	0	0	0.2252	0.10768	0.050274	0.10422	0.19096	0.084882	0.12397	0.131	0.21502	0.26741	0.09247	0.20904	0.20952	0.078155	0.018615	0.14827	-2.6396	-2.2875	-3.3	-2.8646	-2.5917	-3.3042	-2.4938	-3.125	-3.1667	-2.5438	-3.3042	-2.8604	-2.5167	-3.3187	-2.6167	-3.0792	91.115	282.759	-3.494	-7.028	146.214	245.282	-20.801	6.955	201.686	88.611	327.515	313.461	191.015	187.563	15.852	297.946	0.0001257	0.00019523	5.2259e-05	907.43	3.2292e-06	2.8403e-06	984.61	190.88	3.5076e-07	3.7402e-06	242.15	67.998	52.594	15.404	3.6662e-06	21.709	0.00040891	0.0006128	0.00016473	892.81	6.5567e-06	6.6093e-06	971.13	190.82	6.1859e-06	7.2391e-06	242.38	68.796	53.052	15.698	6.8607e-06	21.986	244.343	73.607	98.984	-22.477	165.083	114.527	-22.163	-14.281	147.675	94.995	-15.122	-7.529	-7.550	-0.110	89.618	-0.856	-8191	255	
38406.312	1	1	0	0	0.088869	0.1032	0.21698	0.30418	0.12184	0.27853	0.16605	0.087003	0.092893	0.12865	0.062552	0.16291	0.055548	0.12312	0.078808	0.21526	-2.85	-2.5042	-3.2708	-2.9437	-2.5104	-3.4229	-2.7542	-2.8854	-3.1583	-2.375	-3.1688	-3.2375	-2.4313	-3.3292	-2.8521	-2.7375	67.858	125.162	165.404	321.679	22.022	75.551	111.775	81.752	291.685	188.730	47.294	-27.893	2.451	312.530	247.908	326.254	0.00014954	0.00020812	0.00010106	907.57	2.1066e-06	2.7661e-06	988.57	192.42	2.9465e-06	2.7196e-06	242.41	68.108	52.545	15.477	2.6891e-06	21.728	0.00042961	0.00064824	0.00017833	893.38	6.9065e-06	6.9993e-06	974.48	191.48	6.5829e-06	7.2272e-06	242.49	68.877	53.108	15.695	6.8902e-06	21.983	226.943	67.501	78.152	-22.403	127.431	141.775	-22.261	-14.622	243.888	113.085	-15.112	-7.698	-7.645	-0.502	96.328	-1.579	-8191	255	
38406.387	1	1	0	0	0.25012	0.047981	0.14213	0.21775	0.17333	0.064445	0.11427	0.011203	0.4447	0.13321	0.096354	0.11825	0.25874	0.16339	0.12196	0.11475	-2.8937	-2.5521	-3.3146	-3.2625	-2.8208	-3.3563	-2.8396	-2.8083	-3.2729	-2.5125	-3.2417	-3.2375	-2.4188	-3.2958	-2.7729	-2.7521	293.576	10.672	260.275	230.966	83.977	219.171	236.829	65.568	-22.913	192.200	202.206	294.718	109.397	40.686	214.158	45.003	0.00013507	9.5499e-05	7.8088e-05	908.13	4.0115e-06	2.6668e-06	990.09	191.99	2.8814e-06	2.0593e-06	242.98	68.782	52.851	15.46	2.7203e-06	21.504	0.00044352	0.00068266	0.00018118	896.31	6.8482e-06	7.4944e-06	976.78	191.64	6.7142e-06	7.4012e-06	243.01	69.241	53.206	15.679	6.8446e-06	21.899	242.908	94.115	59.365	-22.469	165.667	159.436	-22.184	-14.462	161.281	91.238	-15.397	-7.931	-7.756	-0.456	157.406	-1.857	-8191	255	
38406.484	1	1	0	0	0.21411	0.20095	0.068608	0.12723	0.17879	0.09146	0.19072	0.060276	0.17967	0.16482	0.075668	0.027054	0.026346	0.24728	0.16225	0.26833	-3.1167	-2.4562	-2.9542	-3.3583	-2.6354	-3.3667	-3.0667	-2.5646	-3.2604	-2.725	-2.9208	-3.4437	-2.5	-3.2833	-2.85	-2.625	-20.368	85.229	214.727	242.863	105.290	179.550	319.306	219.904	-18.775	201.982	-27.827	238.604	10.581	261.047	122.673	263.513	0.00015022	0.00026059	3.968e-05	909.06	5.6491e-06	2.336e-06	990.45	193.27	1.1921e-06	3.2489e-06	243.13	68.558	52.866	15.338	1.5037e-06	21.671	0.00044501	0.00067997	0.00018768	898.75	7.016e-06	7.0803e-06	978.1	192.35	6.9029e-06	7.4181e-06	243.25	69.174	53.303	15.695	6.9654e-06	21.999	225.497	60.629	89.738	-22.510	158.498	146.239	-22.028	-14.522	167.694	172.830	-14.932	-7.899	-7.455	-0.442	101.674	-0.675	-8191	255	
38406.602	1	1	0	0	0.17574	0.11545	0.158	0.055025	0.23334	0.11801	0.22418	0.30724	0.1507	0.1445	0.19935	0.16185	0.19446	0.04208	0.37717	0.29022	-3.0083	-2.7354	-2.8563	-3.3479	-2.5271	-3.1937	-3.1813	-2.7313	-3.3604	-2.7938	-2.7938	-3.2708	-2.4146	-3.3646	-3.0021	-2.5875	162.920	275.231	279.414	220.227	180.825	200.571	176.359	277.233	167.972	279.899	246.622	289.585	266.274	235.112	143.532	295.624	0.00014598	0.00033818	3.8991e-05	911.48	2.3665e-06	3.9085e-06	990.46	192.27	2.8201e-06	2.3146e-06	244.69	68.414	53.071	15.531	1.5935e-06	21.713	0.00044218	0.00066845	0.00018508	899.48	6.9696e-06	7.1804e-06	978.33	192.3	6.5824e-06	7.5707e-06	243.86	69.051	53.388	15.744	6.9128e-06	21.988	226.544	76.700	61.582	-22.271	189.285	145.298	-21.954	-14.697	182.383	91.748	-14.968	-7.627	-6.811	-0.033	144.358	-1.290	-8191	255	
38406.699	1	1	0	0	0.25278	0.1922	0.03054	0.28914	0.39073	0.089272	0.055412	0.04668	0.19697	0.14312	0.11356	0.10795	0.25142	0.12735	0.060182	0.17965	-3.0438	-2.5312	-2.675	-3.4167	-2.5896	-3.0438	-3.2667	-2.5479	-3.3125	-2.8708	-2.9229	-3.4896	-2.6354	-3.1312	-3.0875	-2.45	73.533	73.265	296.662	272.978	74.237	278.160	-29.470	-10.819	51.634	43.092	210.168	56.451	23.198	301.945	-17.240	21.647	0.00011932	0.00022619	4.6065e-05	913.58	7.7992e-07	2.8508e-06	991.32	193.54	1.6062e-06	1.4009e-06	243.35	68.521	52.589	15.573	3.9355e-06	21.745	0.00044501	0.00066615	0.00018416	900.78	7.0663e-06	7.5874e-06	979.56	192.53	6.5254e-06	7.0702e-06	243.33	69.204	53.259	15.781	6.3744e-06	21.99	251.457	-8.547	78.074	-22.311	168.959	78.347	-22.144	-14.240	184.376	75.754	-15.165	-7.326	-7.452	0.017	161.140	-1.003	-8191	255	
38406.797	1	1	0	0	0.075251	0.077072	0.20734	0.057479	0.12219	0.23619	0.20758	0.13802	0.032795	0.074006	0.14029	0.2294	0.18616	0.18606	0.19185	0.14433	-2.9771	-2.925	-2.6479	-3.5083	-2.5333	-2.9646	-3.3396	-2.5458	-3.4437	-2.8458	-2.6354	-3.4146	-2.3937	-2.7979	-3.3875	-2.6792	310.543	229.140	105.698	247.706	51.120	132.823	281.532	-31.394	41.306	217.884	190.747	233.714	153.102	320.692	201.206	235.885	0.00013467	0.00016354	9.9174e-05	913.68	1.1005e-06	1.2695e-06	990.79	192	2.6808e-06	2.2142e-06	244.29	68.396	52.897	15.497	3.1945e-06	21.5	0.00042746	0.00062252	0.0001816	898.94	6.6576e-06	6.7771e-06	977.54	191.8	6.2342e-06	7.0827e-06	243.24	69.041	53.091	15.673	6.3519e-06	21.95	235.380	43.834	88.335	-22.148	154.861	123.991	-22.250	-14.342	160.537	80.376	-14.939	-7.753	-7.362	-0.374	109.217	-0.953	-8191	255	
38406.891	1	1	0	0	0.039501	0.037985	0.08799	0.29841	0.10792	0.10176	0.12079	0.18349	0.068846	0.1509	0.04665	0.057248	0.24954	0.26228	0.18852	0.027831	-2.7812	-2.8708	-2.5938	-3.2812	-2.5563	-2.9	-3.3937	-2.3729	-3.1437	-3.0625	-2.5646	-3.3667	-2.7958	-2.775	-3.3771	-2.3937	237.203	200.236	297.781	279.157	178.279	60.753	244.184	316.200	35.033	121.544	73.071	90.821	205.830	169.432	251.330	293.517	0.00010843	0.00034716	9.5088e-05	908.28	2.6859e-06	3.8785e-06	992	191.37	2.1948e-06	2.4271e-06	245.02	68.552	52.709	15.469	2.2586e-06	21.708	0.00042668	0.00060089	0.00017481	898.08	6.6824e-06	7.0974e-06	977.67	191.48	6.3481e-06	6.9808e-06	243.81	69.109	53.119	15.749	6.2056e-06	22.007	233.897	31.974	81.460	-22.063	197.368	116.307	-22.138	-14.727	121.454	45.492	-15.448	-7.893	-7.554	-0.777	103.921	-1.737	-8191	255	
#DATA ENDS
