BOXY.EXE: ISS Imagent and Oximeter Data Acquisition Program Version 0.80
Ascii Record File

#ACQ INFORMATION
2  Detector Channels 
16  External MUX Channels 
1  Auxiliary Channels 
5000  Waveform (CCF) Frequency (Hz)
1  Waveforms Skipped 
30  Waveforms Averaged 
1  Cycles Averaged 
16  Acquisitions per Waveform 
10.0806  Updata Rate (Hz) 

#FILE INFORMATION
TRUE -- External MUX Channel results are PARSED.
FALSE -- AC DC and Phase are NOT grouped.
TRUE -- Companion Program Settings File CREATED.
FALSE -- AC data not excluded
FALSE -- DC data not excluded
FALSE -- Phase data not excluded
FALSE -- Auxillary Chn. data not excluded
Tab delimiters

#CALIBRATION STATE
TRUE -- Waveform Calibration Values APPLIED.


#AUX CALIBRATION VALUES
Val Type	aux-1	

Term	1.0000e+00	
Factor	0.0000e+00	


#WF CALIBRATION VALUES
A = Detector Channel
Val Type	A-AC1	A-AC2	A-AC3	A-AC4	A-AC5	A-AC6	A-AC7	A-AC8	A-AC9	A-AC10	A-AC11	A-AC12	A-AC13	A-AC14	A-AC15	A-AC16	A-DC1	A-DC2	A-DC3	A-DC4	A-DC5	A-DC6	A-DC7	A-DC8	A-DC9	A-DC10	A-DC11	A-DC12	A-DC13	A-DC14	A-DC15	A-DC16	A-Ph1	A-Ph2	A-Ph3	A-Ph4	A-Ph5	A-Ph6	A-Ph7	A-Ph8	A-Ph9	A-Ph10	A-Ph11	A-Ph12	A-Ph13	A-Ph14	A-Ph15	A-Ph16	

Term	0.00000e+00	0.00000e+00	0.00000e+00	0.00000e+00	0.00000e+00	0.00000e+00	0.00000e+00	0.00000e+00	0.00000e+00	0.00000e+00	0.00000e+00	0.00000e+00	0.00000e+00	0.00000e+00	0.00000e+00	0.00000e+00	0.00000e+00	0.00000e+00	0.00000e+00	0.00000e+00	0.00000e+00	0.00000e+00	0.00000e+00	0.00000e+00	0.00000e+00	0.00000e+00	0.00000e+00	0.00000e+00	0.00000e+00	0.00000e+00	0.00000e+00	0.00000e+00	0.00000e+00	0.00000e+00	0.00000e+00	0.00000e+00	0.00000e+00	0.00000e+00	0.00000e+00	0.00000e+00	0.00000e+00	0.00000e+00	0.00000e+00	0.00000e+00	0.00000e+00	0.00000e+00	0.00000e+00	0.00000e+00	
Factor	1.00000e+00	1.00000e+00	1.00000e+00	1.00000e+00	1.00000e+00	1.00000e+00	1.00000e+00	1.00000e+00	1.00000e+00	1.00000e+00	1.00000e+00	1.00000e+00	1.00000e+00	1.00000e+00	1.00000e+00	1.00000e+00	1.00000e+00	1.00000e+00	1.00000e+00	1.00000e+00	1.00000e+00	1.00000e+00	1.00000e+00	1.00000e+00	1.00000e+00	1.00000e+00	1.00000e+00	1.00000e+00	1.00000e+00	1.00000e+00	1.00000e+00	1.00000e+00	X	X	X	X	X	X	X	X	X	X	X	X	X	X	X	X	

B = Detector Channel
Val Type	B-AC1	B-AC2	B-AC3	B-AC4	B-AC5	B-AC6	B-AC7	B-AC8	B-AC9	B-AC10	B-AC11	B-AC12	B-AC13	B-AC14	B-AC15	B-AC16	B-DC1	B-DC2	B-DC3	B-DC4	B-DC5	B-DC6	B-DC7	B-DC8	B-DC9	B-DC10	B-DC11	B-DC12	B-DC13	B-DC14	B-DC15	B-DC16	B-Ph1	B-Ph2	B-Ph3	B-Ph4	B-Ph5	B-Ph6	B-Ph7	B-Ph8	B-Ph9	B-Ph10	B-Ph11	B-Ph12	B-Ph13	B-Ph14	B-Ph15	B-Ph16	

Term	0.00000e+00	0.00000e+00	0.00000e+00	0.00000e+00	0.00000e+00	0.00000e+00	0.00000e+00	0.00000e+00	0.00000e+00	0.00000e+00	0.00000e+00	0.00000e+00	0.00000e+00	0.00000e+00	0.00000e+00	0.00000e+00	0.00000e+00	0.00000e+00	0.00000e+00	0.00000e+00	0.00000e+00	0.00000e+00	0.00000e+00	0.00000e+00	0.00000e+00	0.00000e+00	0.00000e+00	0.00000e+00	0.00000e+00	0.00000e+00	0.00000e+00	0.00000e+00	-4.94537e+01	-1.32809e+02	-1.23513e+02	-1.81272e+02	-4.96041e+01	-6.63140e+01	-1.58454e+02	-1.62015e+02	-4.15339e+01	-6.63104e+01	-1.70397e+02	-1.70056e+02	-1.81304e+02	-1.76553e+02	-5.05393e+01	-1.49279e+02	
Factor	1.87085e-05	1.43766e-04	4.24095e-05	1.53419e-01	1.53692e-06	1.72329e-06	1.65314e-01	5.65315e-02	1.29581e-06	1.63815e-06	8.74246e-02	2.87404e-02	2.54357e-02	8.54675e-03	1.52938e-06	1.21105e-02	1.62134e-05	3.95395e-05	1.11172e-05	7.86664e-02	3.62932e-07	4.53557e-07	7.97313e-02	2.91212e-02	3.67586e-07	4.50120e-07	4.36910e-02	1.44261e-02	1.32318e-02	4.45127e-03	3.92718e-07	6.10433e-03	X	X	X	X	X	X	X	X	X	X	X	X	X	X	X	X	



#DISTANCE SETTINGS
A = Detector Channel
A-1	A-2	A-3	A-4	A-5	A-6	A-7	A-8	A-9	A-10	A-11	A-12	A-13	A-14	A-15	A-16	

2.5000e+00	3.0000e+00	2.5000e+00	3.0000e+00	2.0000e+00	3.0000e+00	1.5000e+00	3.0000e+00	3.0000e+00	3.0000e+00	3.0000e+00	3.0000e+00	3.0000e+00	3.0000e+00	1.5000e+00	3.0000e+00	

B = Detector Channel
B-1	B-2	B-3	B-4	B-5	B-6	B-7	B-8	B-9	B-10	B-11	B-12	B-13	B-14	B-15	B-16	

1.0000e+01	1.0000e+01	1.0000e+01	1.4400e+00	1.0000e+01	1.0000e+01	1.5100e+00	1.9400e+00	1.0000e+01	1.0000e+01	1.9900e+00	2.4900e+00	2.4100e+00	2.9000e+00	1.0000e+01	2.9800e+00	




#DATA BEGINS
time	group	step	mark	flag	A-AC1	A-AC2	A-AC3	A-AC4	A-AC5	A-AC6	A-AC7	A-AC8	A-AC9	A-AC10	A-AC11	A-AC12	A-AC13	A-AC14	A-AC15	A-AC16	A-DC1	A-DC2	A-DC3	A-DC4	A-DC5	A-DC6	A-DC7	A-DC8	A-DC9	A-DC10	A-DC11	A-DC12	A-DC13	A-DC14	A-DC15	A-DC16	A-Ph1	A-Ph2	A-Ph3	A-Ph4	A-Ph5	A-Ph6	A-Ph7	A-Ph8	A-Ph9	A-Ph10	A-Ph11	A-Ph12	A-Ph13	A-Ph14	A-Ph15	A-Ph16	B-AC1	B-AC2	B-AC3	B-AC4	B-AC5	B-AC6	B-AC7	B-AC8	B-AC9	B-AC10	B-AC11	B-AC12	B-AC13	B-AC14	B-AC15	B-AC16	B-DC1	B-DC2	B-DC3	B-DC4	B-DC5	B-DC6	B-DC7	B-DC8	B-DC9	B-DC10	B-DC11	B-DC12	B-DC13	B-DC14	B-DC15	B-DC16	B-Ph1	B-Ph2	B-Ph3	B-Ph4	B-Ph5	B-Ph6	B-Ph7	B-Ph8	B-Ph9	B-Ph10	B-Ph11	B-Ph12	B-Ph13	B-Ph14	B-Ph15	B-Ph16	aux-1	digaux	

31500.479	1	1	0	256	0.30497	0.10935	0.17185	0.27851	0.21234	0.092881	0.16724	0.32782	0.15307	0.21274	0.25017	0.20189	0.27702	0.1455	0.10222	0.30406	-2.5062	-2.3021	-2.3042	-3.1208	-2.1583	-2.8187	-2.9729	-2.2958	-2.8979	-2.425	-2.4583	-3.0583	-2.3	-2.5563	-2.9667	-2.0229	-12.576	50.731	-105.942	134.515	132.615	33.987	215.131	199.255	-79.152	-81.581	-50.746	-28.968	239.144	3.168	-1.778	-92.122	0.00020485	5.2019e-05	0.00023888	942.79	9.6738e-07	8.367e-06	839.47	308.67	2.7716e-06	8.0463e-07	289.4	95.5	100.78	38.754	1.0659e-05	43.964	0.0054318	0.012722	0.0036184	978.48	0.00011852	0.000146	870.93	322.99	0.0001193	0.00014572	305.9	102.53	107.48	41.077	0.00012512	47.17	-94.906	171.017	-3.478	-97.289	206.159	35.727	-98.249	-91.899	19.658	191.969	-93.934	-88.240	-87.044	-82.392	69.909	-84.511	-8191	255	
31500.574	1	1	0	0	0.38344	0.1834	0.072139	0.1502	0.083866	0.27153	0.1338	0.36678	0.26113	0.26682	0.10429	0.095857	0.24783	0.20499	0.15278	0.086978	-2.6792	-2.4542	-2.2562	-3.175	-2.175	-2.6	-3.0917	-2.2229	-2.8042	-2.5646	-2.3729	-2.9896	-2.3458	-2.4062	-2.8458	-2.2	138.554	115.676	-43.147	208.664	173.399	-20.605	173.706	168.298	96.855	245.991	110.181	47.785	-86.740	52.786	-11.508	74.418	0.00020277	0.00035994	8.343e-05	945.77	7.22e-07	1.016e-05	836.92	308.95	5.1796e-06	5.9452e-06	289.03	96.022	101.64	38.786	8.6906e-06	44.261	0.0053925	0.012652	0.0035619	981.5	0.00011597	0.00014562	873.71	323.71	0.00011784	0.00014255	307.14	103.12	108.31	41.281	0.00012548	47.436	-89.121	-93.356	11.628	-97.281	96.470	26.428	-98.673	-91.908	115.734	-9.108	-93.737	-88.494	-86.999	-81.849	44.592	-84.230	-8191	255	
31500.670	1	1	0	0	0.12047	0.080614	0.173	0.10742	0.094818	0.22467	0.23992	0.048466	0.12446	0.33791	0.027358	0.12128	0.12013	0.22035	0.089852	0.30233	-2.4833	-2.5104	-2.0479	-3.0604	-2.2229	-2.5708	-2.9667	-2.3208	-2.6875	-2.8187	-2.2062	-3.075	-2.4479	-2.4062	-3.1125	-2.1937	122.654	24.052	217.141	-89.649	164.117	176.138	176.059	-57.427	-63.040	60.475	138.118	137.383	-108.784	157.402	59.219	111.006	0.00025127	0.00049881	2.792e-05	956.87	7.5245e-06	3.5291e-06	845.14	311.09	1.8173e-06	5.9493e-06	291.46	96.351	101.83	38.971	8.0864e-06	44.405	0.0053817	0.012506	0.0035501	990.25	0.00011528	0.00014473	879.31	326.61	0.00011794	0.00014356	309.13	103.69	108.6	41.431	0.00012622	47.335	-75.100	11.598	56.392	-97.329	46.045	47.256	-98.610	-91.911	-59.291	-0.533	-93.965	-88.374	-87.054	-81.838	24.371	-84.776	-8191	255	
31500.791	1	1	0	0	0.14848	0.11755	0.14321	0.10583	0.19646	0.14083	0.27266	0.18732	0.43114	0.16296	0.10773	0.16484	0.04015	0.046014	0.18671	0.23277	-2.375	-2.6792	-2.0729	-3.1354	-2.3167	-2.3271	-3.0729	-2.2417	-2.825	-2.7417	-2.1979	-2.9396	-2.3375	-2.3083	-2.9833	-2.2938	103.608	203.779	-71.798	225.933	-90.312	53.256	-62.088	240.762	2.660	80.257	86.175	129.658	10.562	80.100	117.081	173.737	0.00025587	0.00021368	4.4604e-05	957.48	5.7966e-06	7.0417e-06	840.6	310.99	1.8557e-06	5.1829e-06	286.89	95.163	101.92	38.776	7.528e-06	43.766	0.0053723	0.012603	0.0035535	989.59	0.000116	0.00014357	874.06	325.16	0.00011696	0.00014189	305.38	102.17	108.26	41.133	0.00012487	46.7	-81.717	-71.621	44.291	-97.301	3.057	16.423	-98.528	-91.933	164.980	18.606	-94.058	-88.193	-86.964	-82.223	52.167	-84.195	-8191	255	
31500.861	1	1	0	0	0.05898	0.40932	0.19556	0.19903	0.25204	0.18704	0.29664	0.24015	0.057901	0.25894	0.28566	0.094094	0.043037	0.095571	0.098287	0.059361	-2.1979	-2.7979	-2.1646	-2.9271	-2.4792	-2.0375	-3.0417	-2.4042	-2.4042	-2.975	-2.2417	-2.8812	-2.6854	-2.1688	-3.0333	-2.2958	181.198	37.763	190.047	-108.862	175.313	45.899	207.121	205.098	245.782	213.722	129.377	-61.728	215.726	139.419	-55.688	124.121	0.00022922	0.00090961	6.0287e-05	956.26	2.4294e-06	6.421e-06	838.02	309.9	5.4328e-06	8.6648e-06	286.11	95.123	101.33	38.427	1.4212e-07	43.311	0.005292	0.012292	0.0035073	989.01	0.00011478	0.00014233	869.46	324.25	0.00011557	0.0001415	304	101.85	107.7	40.932	0.00012225	46.293	-87.251	-11.365	-34.160	-97.100	98.984	-4.516	-98.346	-92.102	148.436	101.305	-94.063	-88.288	-86.974	-82.221	206.105	-84.446	-8191	255	
31500.957	1	1	0	0	0.098107	0.023566	0.10964	0.25732	0.068912	0.24157	0.09962	0.2184	0.1986	0.059307	0.17697	0.22698	0.14249	0.039877	0.30124	0.1578	-2.1896	-2.725	-1.9375	-2.7896	-2.6437	-2.0479	-3.2208	-2.4542	-2.2208	-3.0167	-2.2208	-2.6292	-2.8771	-2.3417	-3.0229	-2.5542	176.648	47.745	68.958	210.328	52.431	29.270	-49.981	117.497	228.849	157.144	211.581	-63.031	101.528	132.218	61.856	167.127	0.00020291	0.00040952	0.0001213	947.57	4.1454e-06	5.2323e-06	834.17	309.91	3.3906e-06	2.0713e-06	287.61	94.498	101.05	38.566	7.8568e-06	43.41	0.0052745	0.012498	0.0034679	983.22	0.00011335	0.00014195	866.64	323.69	0.00011442	0.00014148	304.26	101.46	107.65	40.974	0.0001236	46.381	-67.638	26.925	28.825	-97.203	-36.600	17.740	-98.474	-91.892	20.624	-18.034	-94.416	-88.533	-86.895	-81.974	31.552	-84.263	-8191	255	
31501.053	1	1	0	0	0.23611	0.30362	0.081769	0.1258	0.12786	0.087671	0.40227	0.075764	0.21094	0.22041	0.041398	0.26932	0.16133	0.2014	0.023694	0.22498	-2.0042	-2.9	-2.0312	-2.7229	-2.8271	-2.2708	-2.9188	-2.3854	-2.2146	-2.9146	-2.3208	-2.6354	-2.9958	-2.1458	-2.7958	-2.6604	170.193	247.711	24.329	202.346	-81.735	56.190	-95.529	173.971	21.606	47.217	200.273	-92.257	193.463	-99.311	172.793	147.272	0.00023167	0.00078611	0.0001821	956.08	3.8255e-06	7.7827e-06	836.71	309.69	3.8172e-06	3.4981e-06	286.71	94.352	101.07	38.495	6.9634e-06	43.041	0.0053377	0.012473	0.0034825	987.63	0.00011473	0.00014285	868.73	324.14	0.00011588	0.000141	304	101.32	107.62	40.941	0.00012428	46.041	-82.293	-33.331	-17.245	-97.281	63.551	86.071	-98.333	-91.857	79.364	-72.238	-93.764	-88.275	-86.792	-81.897	29.868	-84.296	-8191	255	
31501.150	1	1	0	0	0.14915	0.13033	0.017955	0.049366	0.15143	0.015964	0.10734	0.23839	0.13578	0.041869	0.29011	0.099887	0.099565	0.14283	0.37269	0.058898	-1.7333	-2.9146	-2.2833	-2.6792	-2.9562	-2.1917	-2.8438	-2.6104	-2.0854	-3.0125	-2.3146	-2.3688	-2.9625	-2.0438	-2.8688	-2.725	29.030	118.718	156.044	241.567	-31.779	114.287	-108.551	171.297	91.325	32.800	173.494	132.147	-82.463	175.816	156.780	-79.927	0.00025005	0.00073092	9.6311e-05	948.39	8.2082e-06	5.5412e-06	828.48	307.93	3.8942e-06	6.074e-06	283.14	93.233	100.16	38.391	1.0827e-05	42.776	0.0053209	0.01231	0.003475	980.52	0.00011312	0.00014108	858.94	322	0.00011454	0.00013968	299.42	100.03	106.96	40.705	0.00012105	45.653	-74.988	5.669	-70.848	-97.087	38.922	144.261	-98.378	-91.893	56.193	49.562	-93.717	-88.617	-86.953	-82.041	6.169	-84.183	-8191	255	
31501.270	1	1	0	0	0.049514	0.1426	0.16272	0.21443	0.067069	0.058976	0.15138	0.079742	0.16131	0.20364	0.39874	0.33806	0.3523	0.063093	0.30782	0.1167	-1.8312	-3.0521	-2.2938	-2.5187	-2.9375	-1.9875	-2.8333	-2.7458	-2.0354	-3.0208	-2.4938	-2.2792	-2.9521	-2.0312	-2.5521	-2.8958	203.212	-43.560	146.315	43.607	-86.373	13.384	79.573	197.847	152.638	102.161	192.020	204.246	215.814	97.004	215.708	180.237	0.00023981	0.00078946	8.3453e-05	947.17	2.0721e-06	5.5446e-06	823.68	307.71	9.3099e-07	2.7158e-06	279.7	93.284	100.53	38.382	4.3834e-06	42.754	0.0052637	0.012282	0.0034461	978.67	0.00011321	0.00014078	855.89	321.37	0.0001135	0.00013887	298.22	99.998	106.71	40.684	0.00011995	45.679	-86.332	-35.241	-39.641	-97.290	65.927	163.985	-98.563	-91.833	56.626	46.434	-93.881	-88.531	-87.012	-82.031	23.352	-84.326	-8191	255	
31501.365	1	1	0	0	0.086464	0.21932	0.18478	0.30907	0.16873	0.11407	0.13522	0.091352	0.28871	0.060381	0.20087	0.15462	0.092445	0.10551	0.18263	0.25511	-1.7292	-3.0146	-2.2792	-2.325	-2.8958	-2.0958	-2.8333	-2.9542	-1.9979	-3.1292	-2.5938	-2.2458	-3.0104	-2.3542	-2.2917	-2.7854	125.066	-80.137	6.399	166.460	-56.164	112.214	-65.609	177.322	-29.191	139.517	118.016	208.872	-95.814	-80.223	-99.224	143.074	0.00016419	0.00069038	9.5913e-05	947.09	2.5829e-06	4.3402e-06	822.35	306.92	6.8361e-07	1.2568e-05	282.29	93.783	100.87	38.415	7.5886e-06	43.096	0.0051708	0.012049	0.0034414	977.6	0.00011092	0.00013903	855.82	321.53	0.00011417	0.00013738	300.19	100.76	107.38	40.948	0.00012186	46.124	-74.298	-63.006	-3.779	-97.264	126.362	17.805	-98.376	-91.829	62.577	3.651	-93.955	-88.312	-86.527	-82.086	95.990	-84.217	-8191	255	
31501.463	1	1	0	0	0.14351	0.089238	0.11474	0.31663	0.11634	0.36252	0.18158	0.20523	0.10217	0.15939	0.13654	0.27981	0.26662	0.23686	0.24682	0.31729	-1.5833	-2.6854	-2.375	-2.1604	-2.9437	-2.1917	-2.5292	-2.9	-2.1437	-2.6688	-2.6896	-2.3542	-3.1188	-2.6229	-2.1208	-3.0375	-103.567	-34.865	75.544	181.925	187.976	90.054	231.682	228.956	-7.193	-44.338	-72.663	144.051	-31.144	235.494	140.974	-5.156	0.00025927	0.00074466	9.8204e-05	945.17	7.2656e-06	9.8386e-07	823.88	308.1	1.4661e-06	1.2232e-05	281.54	92.869	100.44	38.411	4.4038e-06	42.624	0.0052217	0.012159	0.0034324	978.59	0.00011317	0.00013966	855.57	322.29	0.00011396	0.00014046	298.58	100.07	107.04	40.708	0.00012296	45.614	-77.471	-87.567	-26.147	-97.359	75.360	-9.145	-98.340	-91.779	-66.192	50.816	-94.022	-88.359	-86.823	-82.116	-6.215	-84.190	-8191	255	
31501.559	1	1	0	0	0.32607	0.16107	0.10246	0.23668	0.15577	0.062534	0.22232	0.19391	0.10893	0.21601	0.15044	0.27235	0.1107	0.059307	0.10257	0.20233	-1.6292	-2.7313	-2.6125	-2.1125	-2.9167	-2.2958	-2.425	-3.0354	-2.2583	-2.5938	-2.925	-2.1333	-3.1208	-2.6312	-2.25	-3.2042	124.007	-102.305	-93.532	242.973	147.474	130.317	224.977	205.536	78.292	225.298	140.429	-62.142	240.533	129.149	181.581	211.463	0.00024057	0.00079218	0.00026241	940.44	1.4956e-06	1.9329e-06	821.43	307.12	2.789e-06	6.0618e-06	280.78	93.101	100.84	38.282	2.1807e-06	42.663	0.0052356	0.012222	0.0034163	974.16	0.00011399	0.00013998	850.99	320.88	0.00011437	0.00013982	298.17	99.858	107.14	40.768	0.00012191	45.728	-90.904	-73.078	-5.253	-97.086	74.183	0.768	-98.420	-91.659	33.728	67.373	-94.155	-88.430	-86.484	-81.799	49.169	-84.170	-8191	255	
31501.654	1	1	0	0	0.2126	0.1247	0.068756	0.20986	0.24365	0.28292	0.24252	0.17397	0.31918	0.16292	0.2007	0.1752	0.11489	0.043059	0.25163	0.12726	-1.8521	-2.5542	-2.8854	-2.1771	-2.7562	-2.7354	-2.1583	-2.9417	-2.1417	-2.2812	-2.9792	-2.0687	-2.9417	-2.5563	-2.1354	-3.2	-13.648	107.759	187.521	187.330	37.159	216.477	-92.345	75.526	200.723	185.629	-16.649	-53.456	214.193	23.480	-21.161	203.193	0.00022125	0.00062975	0.00010275	945.88	3.8936e-06	4.2698e-06	817.2	309.1	3.987e-06	8.0345e-06	281.49	93.585	101.3	38.458	5.0762e-06	43.167	0.0052362	0.012355	0.0034655	978.06	0.00011416	0.00014115	851.43	322.63	0.00011597	0.00014051	299.23	100.32	107.65	40.957	0.00012335	46.042	-98.058	-39.608	-38.784	-97.301	-33.976	47.768	-98.178	-91.701	27.941	41.914	-94.059	-88.453	-86.565	-82.370	41.888	-84.239	-8191	255	
31501.750	1	1	0	0	0.17625	0.17429	0.054317	0.42499	0.16616	0.25481	0.20635	0.19195	0.23523	0.20875	0.19405	0.52881	0.19664	0.17603	0.22401	0.18934	-1.9333	-2.525	-2.9917	-2.2479	-2.7958	-2.6896	-2.2292	-3.0667	-2.3833	-2.4958	-3.0458	-2.0917	-2.6625	-2.6312	-2.2042	-3.0146	111.552	-32.394	159.945	205.461	-78.716	62.601	149.974	141.304	174.239	21.393	-62.634	-88.846	205.756	-74.283	-100.784	224.996	0.00016792	0.0002721	0.00014053	951.45	7.242e-06	6.6902e-06	827.74	310.84	7.8135e-06	8.574e-06	285.06	94.518	101.81	38.794	3.3784e-06	43.517	0.0053313	0.012426	0.0034645	985.69	0.0001148	0.00014078	860.39	324.83	0.00011569	0.00014152	302.5	101.33	108.38	41.27	0.000122	46.516	-85.176	213.545	-26.782	-97.272	34.806	39.057	-98.446	-91.771	-64.029	68.112	-93.893	-88.514	-86.895	-82.083	29.005	-84.238	-8191	255	
31501.871	1	1	0	0	0.34922	0.25623	0.069703	0.22433	0.10409	0.2218	0.10296	0.16678	0.19571	0.095048	0.14562	0.2233	0.083373	0.18071	0.25689	0.31989	-1.9271	-2.2125	-2.9979	-2.2958	-2.6583	-2.9375	-2.2458	-3.0083	-2.3542	-2.2188	-2.8896	-2.25	-2.8021	-3.0458	-2.1417	-2.7792	-90.235	243.719	218.096	-94.795	197.228	-69.183	130.613	192.635	194.779	-89.403	-88.017	129.152	11.112	-63.271	168.951	189.666	0.00018335	0.00060597	0.00013778	954.81	3.564e-06	3.8683e-06	826.67	310.52	6.5754e-06	2.5474e-06	282.93	93.497	101.4	38.863	9.0143e-06	43.229	0.0052593	0.012392	0.0034795	986.67	0.00011398	0.00014041	859.46	325.39	0.00011613	0.00013913	300.85	100.38	108.02	41.163	0.00012447	46.078	-60.394	-43.240	-69.878	-97.184	32.940	-39.616	-98.368	-91.869	-60.811	66.100	-93.728	-88.291	-86.694	-82.082	27.537	-84.051	-8191	255	
31501.965	1	1	0	0	0.24055	0.13573	0.18684	0.25533	0.20422	0.061214	0.16664	0.10522	0.094175	0.23515	0.13247	0.081973	0.10373	0.31687	0.077582	0.33844	-2.2292	-2.2167	-2.6146	-2.3104	-2.5312	-3.0771	-2.2521	-3.0062	-2.6979	-2.1125	-3.0792	-2.4062	-2.5333	-2.85	-2.1188	-2.7604	-5.735	175.362	204.601	-3.900	65.318	170.931	-100.942	-91.315	138.769	159.979	226.074	-59.342	-60.507	-78.079	106.622	247.720	0.00022453	0.00013521	0.00012222	952.56	2.4891e-06	2.9628e-06	825.11	310.85	3.312e-06	5.7108e-06	284.56	93.999	101.56	38.909	4.2372e-06	43.328	0.0052776	0.012339	0.0034994	986.11	0.00011343	0.00014121	858.54	325.8	0.00011508	0.00014007	301.05	100.68	108.17	41.325	0.00012355	46.301	-90.567	-103.401	-11.373	-97.553	79.683	65.775	-98.522	-91.757	76.434	54.449	-94.030	-88.420	-86.379	-82.043	96.223	-84.272	-8191	255	
31502.062	1	1	0	0	0.26201	0.22562	0.18754	0.2894	0.16681	0.0742	0.13905	0.1513	0.23189	0.15304	0.26781	0.1429	0.24728	0.028523	0.11751	0.1844	-2.2708	-2.1104	-2.9396	-2.5458	-2.2875	-2.8979	-2.2062	-2.7708	-2.8417	-2.3729	-2.9813	-2.4583	-2.2625	-3.125	-2.1562	-2.6021	115.868	-86.524	28.290	237.372	195.223	201.801	104.294	187.230	173.844	-62.734	-105.069	94.062	-55.190	-67.398	130.077	-69.551	0.00019097	0.00050967	0.00014612	956.83	4.1916e-06	5.4211e-06	832.3	312.17	2.844e-06	6.9634e-06	286.14	94.564	102.44	39.003	2.4392e-06	43.488	0.0052676	0.0124	0.003479	989.36	0.0001134	0.00014182	862.07	326.41	0.00011482	0.00014193	302.66	101.22	108.83	41.488	0.00012452	46.484	-93.194	-42.521	41.370	-97.292	-46.120	98.954	-98.310	-91.840	0.930	53.247	-93.867	-88.271	-86.739	-82.090	245.764	-84.031	-8191	255	
31502.158	1	1	0	0	0.10686	0.25843	0.29761	0.24889	0.24617	0.10966	0.13841	0.17186	0.084711	0.24784	0.044674	0.1315	0.13553	0.12255	0.19378	0.16687	-2.3792	-2.1479	-2.8875	-2.4938	-2.1354	-2.8688	-2.2917	-2.7333	-2.9042	-2.0792	-2.9646	-2.6562	-2.2479	-3.0896	-2.1167	-2.6042	-74.832	61.204	26.248	181.011	238.449	-30.205	28.592	233.931	26.764	-55.054	235.498	236.003	177.469	-7.308	-67.698	-68.491	0.0002145	0.0005617	6.7493e-05	968.2	4.9056e-06	1.7402e-06	836.3	314.66	1.0944e-06	7.6473e-06	286.55	94.663	102.91	39.154	3.348e-06	43.641	0.00528	0.012381	0.0034875	997.14	0.00011301	0.00014207	867.47	329.02	0.00011535	0.0001424	304.05	101.65	109.25	41.666	0.00012342	46.613	-97.578	-64.266	-28.118	-97.178	95.678	-19.628	-98.402	-91.754	187.993	36.620	-93.946	-88.430	-86.839	-82.004	15.513	-84.208	-8191	255	
31502.254	1	1	0	0	0.37584	0.064285	0.13429	0.069287	0.36244	0.094592	0.17969	0.095486	0.31066	0.16728	0.080209	0.19787	0.18547	0.13339	0.10868	0.17239	-2.4521	-2.1125	-2.8063	-2.7729	-2.2271	-3.0187	-2.4229	-2.5229	-2.8271	-2.0354	-2.7979	-2.7812	-2.2812	-3.1396	-2.3688	-2.4146	-58.550	-92.083	79.308	43.340	-21.020	118.780	217.218	26.972	148.591	-13.595	219.180	-30.930	-94.656	180.293	-9.826	-38.583	0.00026524	0.00080101	7.3143e-05	958.11	4.077e-06	7.4217e-06	828.89	314.1	3.7527e-06	5.4067e-06	284.12	94.264	102.31	39.081	2.9266e-06	43.176	0.0053263	0.012404	0.0034665	993.23	0.00011341	0.00014206	861.41	327.95	0.00011572	0.00014233	302.21	100.93	108.9	41.567	0.00012345	46.385	-90.043	-18.201	-22.980	-97.486	126.960	14.264	-98.569	-91.879	116.891	-99.061	-93.880	-88.711	-86.610	-82.205	36.244	-84.204	-8191	255	
31502.350	1	1	0	0	0.047788	0.13701	0.033309	0.35954	0.05731	0.080278	0.22119	0.14617	0.19538	0.098856	0.16404	0.28051	0.20011	0.19784	0.19626	0.084695	-2.6104	-2.0375	-2.6937	-2.8292	-2.1667	-2.9437	-2.4125	-2.3438	-2.9458	-2.2354	-2.8146	-2.8396	-2.2521	-3.0896	-2.3812	-2.3	112.166	163.170	-67.544	218.227	181.128	-54.481	183.344	163.619	93.068	-36.596	122.322	54.576	-64.775	239.232	75.372	174.103	0.00027511	0.000604	3.2396e-05	960.45	8.4746e-06	6.622e-06	830.82	314.38	7.6206e-06	1.0198e-05	284.7	94.447	102.84	39.308	7.5265e-06	43.615	0.0052848	0.012412	0.0034732	993.94	0.00011328	0.00014102	863.24	328.52	0.00011563	0.00014003	302.45	101.43	109.37	41.782	0.0001218	46.574	-77.808	88.763	176.261	-97.481	48.150	-67.448	-98.488	-91.936	67.706	2.794	-94.097	-88.539	-86.836	-82.067	-12.522	-84.264	-8191	255	
31502.471	1	1	0	0	0.090041	0.20434	0.15403	0.2115	0.27625	0.041917	0.3238	0.088444	0.055572	0.13405	0.072401	0.10502	0.24974	0.23679	0.1623	0.22837	-2.6375	-2.2875	-2.4938	-3.0187	-2.05	-2.9	-2.775	-2.2417	-2.8604	-2.0312	-2.6917	-3.0917	-2.2375	-3.0479	-2.6979	-2.2021	-85.392	45.253	20.442	172.744	164.508	4.095	234.763	-90.109	227.618	183.776	218.277	96.967	-35.690	193.743	-45.590	-49.891	0.00026431	0.00033193	0.00012638	964.41	2.9011e-06	4.0761e-06	835.46	316.35	1.5439e-06	4.2162e-06	287.02	94.734	103.05	39.467	5.1472e-06	43.96	0.005263	0.012432	0.0034461	997.93	0.00011403	0.00014236	867.78	330.41	0.00011604	0.00014165	305.09	102.13	110.12	42.023	0.00012366	47.045	-82.416	-38.520	-35.175	-97.650	27.359	102.734	-98.404	-91.720	7.308	62.305	-94.082	-88.907	-87.074	-82.210	20.006	-84.517	-8191	255	
31502.566	1	1	0	0	0.16074	0.066504	0.034032	0.18162	0.38844	0.11374	0.055643	0.15788	0.25219	0.14908	0.055935	0.27724	0.20173	0.31824	0.18312	0.077482	-2.6708	-2.1521	-2.25	-3.0604	-2.0333	-2.8812	-2.9562	-2.2313	-2.8979	-2.2792	-2.3875	-2.9896	-2.275	-2.7167	-2.9583	-2.1292	77.874	244.521	-0.408	234.765	209.439	-73.549	128.447	15.352	-18.728	137.290	-40.414	228.628	196.036	-24.754	13.722	-96.611	0.0001733	0.00024991	0.00012404	968.08	4.5462e-06	6.9455e-06	837.47	316.36	4.8282e-06	3.9798e-06	286.72	94.783	103.55	39.492	6.3289e-06	43.501	0.0052794	0.012292	0.0034742	1001.9	0.00011427	0.00014186	870.94	330.99	0.00011577	0.00014094	304.52	101.73	110.09	41.989	0.00012381	46.687	-71.057	-53.860	23.880	-97.272	-44.688	17.417	-98.634	-91.960	65.925	4.426	-94.027	-88.482	-87.024	-82.279	105.937	-84.401	-8191	255	
31502.662	1	1	0	0	0.16307	0.25435	0.14111	0.14499	0.04035	0.19349	0.23231	0.14252	0.16748	0.09766	0.25321	0.13336	0.23601	0.28062	0.071557	0.12158	-2.7062	-2.325	-2.1083	-3.1333	-2.0667	-2.5771	-2.6979	-2.2583	-3.0062	-2.5229	-2.2979	-3.0229	-2.0938	-2.6042	-2.7938	-2.0938	-72.508	211.225	-30.493	213.826	184.518	104.057	-106.386	-103.665	-106.450	-81.238	222.014	-12.031	232.593	-64.764	199.851	-28.612	0.00020836	0.00066567	8.7173e-05	968.26	7.5968e-06	8.8448e-06	837.19	315.57	1.6087e-06	8.6118e-06	285.41	94.485	103.39	39.435	2.4876e-06	43.556	0.0053581	0.012445	0.0035126	1000.7	0.0001146	0.00014131	866.44	329.72	0.00011516	0.00014126	302.72	101.47	109.99	41.921	0.0001236	46.545	-84.582	-18.649	6.923	-97.418	93.996	60.761	-98.371	-92.061	7.685	35.663	-93.937	-88.495	-86.989	-82.166	-64.850	-84.394	-8191	255	
31502.734	1	1	0	0	0.17085	0.13407	0.15376	0.15093	0.17307	0.072188	0.30679	0.18112	0.22347	0.12184	0.2333	0.11731	0.14685	0.08163	0.22937	0.124	-2.3083	-2.4313	-2.0042	-2.9667	-2.2771	-2.5583	-3.0438	-2.0604	-2.7	-2.5604	-2.2521	-2.8646	-2.3958	-2.5375	-2.9125	-2.2125	179.049	163.065	162.011	197.485	19.663	250.096	26.727	-107.425	-60.609	61.957	-71.463	170.201	154.849	197.824	95.938	-6.179	0.0002496	0.00046988	0.00016754	964.74	3.5201e-06	8.5788e-06	836.74	317.32	4.0813e-06	1.043e-05	286.06	94.604	103.81	39.681	6.978e-06	43.85	0.005334	0.012558	0.003509	999.97	0.0001159	0.0001425	867.09	330.45	0.00011708	0.00013975	303.56	101.75	110.35	42.141	0.00012482	46.871	-90.371	-55.891	-23.315	-97.309	-9.298	38.720	-98.711	-91.869	30.623	9.207	-94.397	-88.517	-86.840	-81.996	67.670	-84.452	-8191	255	
31502.830	1	1	0	0	0.18841	0.15949	0.019622	0.22369	0.28199	0.16904	0.2397	0.19417	0.23034	0.25666	0.080484	0.27472	0.1686	0.38666	0.074002	0.2301	-2.5521	-2.5417	-1.9188	-3.1813	-2.3583	-2.5042	-2.9437	-2.075	-2.6708	-2.8979	-2.2	-3.0896	-2.5208	-2.4646	-3.1688	-2.2833	164.269	154.540	182.819	-23.012	249.989	112.218	-105.795	-90.945	200.081	14.835	-99.614	101.480	138.305	-89.456	247.763	228.528	0.00020409	0.0001635	0.00029695	974.01	5.2822e-06	7.5746e-06	838.01	317.68	3.4591e-06	1.8564e-06	287.4	95.262	104.35	39.916	9.5816e-06	44.042	0.0053331	0.012536	0.0035288	1005.9	0.00011576	0.00014268	870.48	332.23	0.0001188	0.00014273	305.55	102.6	111.02	42.401	0.0001249	47.043	-69.213	176.680	-36.600	-97.479	113.818	24.387	-98.353	-91.946	80.700	86.799	-93.797	-88.386	-86.892	-82.281	2.897	-84.743	-8191	255	
31502.949	1	1	0	0	0.070713	0.15969	0.30496	0.26135	0.087998	0.11999	0.20005	0.071913	0.10478	0.10111	0.27215	0.1795	0.11495	0.28656	0.13381	0.17367	-2.3292	-2.7729	-2.0375	-2.9938	-2.6833	-2.3354	-2.9854	-2.2521	-2.625	-2.8708	-1.9729	-2.8521	-2.7667	-2.25	-3.1708	-2.4313	192.247	71.311	-20.974	-33.168	112.138	71.440	176.541	167.352	-15.812	90.933	31.957	181.889	-43.951	215.073	-40.751	-23.721	0.00024686	0.00060821	0.00018088	970.54	7.2406e-06	2.5399e-06	833.14	316.12	2.6283e-06	2.3183e-06	284.84	94.474	103.66	39.636	3.7079e-06	43.595	0.0053417	0.012543	0.0034949	1005.1	0.00011485	0.00014318	867.81	331.03	0.00011587	0.00014002	303.63	101.52	110.18	42.19	0.00012346	46.681	-73.587	-14.480	-65.277	-97.439	-16.315	159.137	-98.493	-91.911	22.993	-68.239	-94.335	-88.421	-86.930	-82.277	14.629	-84.380	-8191	255	
31503.047	1	1	0	0	0.19291	0.18657	0.096047	0.15275	0.060731	0.13289	0.14372	0.20702	0.17344	0.27597	0.21202	0.32988	0.10097	0.071506	0.32158	0.20465	-2.1625	-3.1917	-2.0625	-3.0917	-2.7313	-2.0917	-3.1229	-2.5312	-2.375	-3.1229	-2.3708	-2.9542	-2.8125	-2.325	-3.0708	-2.4562	172.336	-0.895	202.156	169.235	-87.884	-107.133	87.825	-97.268	158.455	191.181	213.626	159.382	10.724	194.846	191.553	175.184	0.00020873	0.00021227	0.00015048	963.38	4.8185e-06	1.4707e-06	831.75	316.14	3.5491e-06	5.3944e-07	286.23	95.017	103.81	40.069	1.5379e-06	43.831	0.005311	0.012371	0.0034988	1000.3	0.00011537	0.00014368	864.29	330.61	0.00011517	0.00014207	302.93	101.73	110.58	42.426	0.00012382	46.91	-66.213	64.688	-17.108	-97.310	44.615	23.507	-98.579	-91.984	78.184	-44.873	-94.304	-88.877	-86.995	-82.295	133.588	-84.516	-8191	255	
31503.143	1	1	0	0	0.039599	0.14195	0.32022	0.13641	0.017349	0.11483	0.20385	0.24458	0.11084	0.18325	0.28248	0.12171	0.22809	0.18744	0.22439	0.11622	-2.0792	-2.8958	-2.0812	-2.9458	-2.5583	-2.0458	-3.0417	-2.5771	-2.1437	-2.9917	-2.2812	-2.7167	-2.6979	-2.1708	-2.8979	-2.3292	-3.116	58.803	102.969	246.100	-56.866	-65.818	145.228	166.347	-103.095	-56.339	-106.673	184.351	199.385	242.993	195.185	211.940	0.0002237	0.00073454	0.00017087	969.82	5.622e-06	2.9343e-06	837.02	316.58	3.2604e-06	6.6606e-06	285.92	95.452	104.99	40.104	3.7853e-06	44.133	0.0052463	0.012399	0.0034913	1002.6	0.00011391	0.00014307	867.53	331.27	0.00011659	0.00014293	304.62	102.58	111.41	42.558	0.00012615	47.135	-88.167	-30.502	41.827	-97.553	-11.869	0.660	-98.711	-91.906	5.029	45.536	-93.937	-88.685	-87.133	-82.038	18.209	-84.221	-8191	255	
31503.264	1	1	0	0	0.20479	0.19833	0.11804	0.11102	0.23712	0.20168	0.27787	0.10341	0.078223	0.14259	0.27147	0.15137	0.024509	0.11859	0.12578	0.36107	-1.9208	-3.0104	-2.25	-2.6479	-2.85	-1.9646	-2.9062	-2.7208	-2.0229	-3.0146	-2.3563	-2.5	-2.9583	-2.0354	-2.8833	-2.6167	175.657	34.231	-36.608	230.870	-22.521	119.278	244.300	216.990	53.240	6.198	149.750	235.655	-107.106	-10.887	54.037	167.658	0.00030557	0.0004044	0.00020332	976.22	3.0943e-06	5.7103e-06	840.06	319.07	2.9692e-06	6.0377e-06	287.38	95.735	104.36	40.005	3.6387e-06	43.959	0.0053387	0.012586	0.0035343	1009	0.00011503	0.00014435	873.47	333.5	0.0001161	0.00014207	305.63	102.84	111.38	42.644	0.00012464	47.023	-76.409	-28.242	2.338	-97.223	50.542	28.138	-98.339	-91.753	-6.970	46.658	-94.049	-88.416	-86.718	-82.266	146.576	-84.556	-8191	255	
31503.334	1	1	0	0	0.24198	0.13243	0.29414	0.37944	0.15556	0.21336	0.2969	0.21607	0.18817	0.033579	0.10593	0.15316	0.11306	0.018365	0.064035	0.08987	-1.8125	-2.9354	-2.2417	-2.4958	-2.8187	-2.2083	-2.8479	-2.7604	-2.075	-3.0583	-2.4979	-2.3646	-2.9333	-2.3146	-2.8688	-2.9875	238.394	26.865	56.935	204.505	118.698	118.983	227.434	127.804	23.564	36.258	49.811	210.881	-55.814	203.222	151.221	133.888	0.00024063	0.00069789	0.00030821	975.98	3.7893e-06	5.824e-06	832.85	318.8	4.1666e-06	4.8808e-06	285.8	94.78	104.11	40.077	2.5986e-06	43.775	0.0053492	0.012408	0.0034828	1007.5	0.00011405	0.00014365	868.4	332.78	0.00011532	0.00014288	303.38	101.76	111.18	42.565	0.0001229	46.796	-70.210	-28.647	-36.205	-97.026	15.381	71.783	-98.679	-91.779	-21.247	97.490	-94.075	-88.672	-86.843	-82.185	89.649	-84.682	-8191	255	
31503.430	1	1	0	0	0.10333	0.11605	0.14635	0.31097	0.45511	0.083312	0.17105	0.27444	0.035216	0.081826	0.072883	0.14131	0.1334	0.16851	0.20634	0.24037	-1.7292	-2.8438	-2.275	-2.4	-3.0208	-2.1104	-2.8792	-2.8146	-1.9458	-2.925	-2.6854	-2.1271	-3.0187	-2.1562	-2.6208	-2.8083	129.287	169.230	85.338	-29.993	40.593	116.887	214.214	214.039	49.020	-108.449	141.553	121.062	151.516	90.858	185.457	-100.919	0.00017799	0.00022452	0.00018029	971.75	6.8049e-06	3.4581e-06	838.32	317.52	5.0497e-06	4.8141e-06	286.62	94.933	104.47	40.066	6.6298e-06	44.064	0.0053525	0.01245	0.0035015	1005.5	0.00011413	0.00014176	868.26	332.67	0.00011466	0.00014136	304.4	102.12	111.18	42.641	0.00012255	47.138	-76.327	-4.039	-1.391	-97.399	43.242	17.577	-98.527	-91.990	58.977	45.231	-94.233	-88.289	-86.715	-81.892	36.407	-84.304	-8191	255	
31503.551	1	1	0	0	0.055474	0.087503	0.22337	0.080576	0.22866	0.067992	0.045637	0.061195	0.16527	0.051402	0.1116	0.41118	0.34927	0.18599	0.07167	0.17936	-1.6437	-2.9333	-2.525	-2.1979	-3.1958	-2.1083	-2.4667	-2.9938	-1.9667	-2.7375	-2.5667	-2.1375	-2.9542	-2.325	-2.4979	-3.0458	205.175	125.987	-64.528	-46.811	-6.309	168.535	-49.502	190.470	-29.665	187.379	93.092	183.632	-104.528	225.690	244.551	-103.881	0.00025527	0.000753	0.00012164	970.74	4.1442e-06	8.6485e-06	836.11	319.73	6.0663e-06	3.1353e-06	287.36	95.96	105.07	40.417	7.3789e-06	44.493	0.0053297	0.012423	0.0034355	1007.4	0.00011357	0.00014147	869.66	334.14	0.00011484	0.00014054	305.83	103.13	111.83	42.988	0.00012268	47.624	-64.278	-41.128	-44.080	-97.257	14.086	57.025	-98.445	-91.629	-86.569	65.116	-93.834	-88.508	-86.769	-82.084	37.442	-84.710	-8191	255	
31503.646	1	1	0	0	0.18372	0.1578	0.11947	0.19449	0.064062	0.19218	0.16194	0.27498	0.17875	0.17348	0.31864	0.21674	0.06022	0.25946	0.057571	0.089375	-1.5604	-2.6896	-2.5396	-2.2042	-2.7854	-2.3854	-2.5375	-2.9875	-1.9833	-2.5563	-2.7438	-2.1521	-2.7646	-2.35	-2.2208	-2.9854	103.499	109.106	47.215	212.540	-3.881	154.391	205.366	176.406	210.608	37.017	135.427	239.500	-106.905	216.907	211.304	136.190	0.00014055	0.00081041	0.00015871	977.66	6.2531e-06	3.6819e-06	841.44	320.66	7.4031e-07	4.2354e-06	291.5	96.446	105.75	40.478	2.1496e-06	44.326	0.0052851	0.01229	0.0034559	1013.5	0.00011435	0.00014093	875.58	335.98	0.00011615	0.00014064	307.91	103.39	112.17	43.044	0.00012284	47.426	-75.310	-43.399	-20.098	-97.182	-0.131	118.314	-98.498	-91.730	-38.140	43.935	-94.193	-88.305	-86.650	-81.909	142.872	-84.398	-8191	255	
31503.742	1	1	0	0	0.16916	0.17804	0.13057	0.33748	0.32913	0.057791	0.33074	0.079052	0.098424	0.19216	0.082286	0.15485	0.084775	0.18516	0.28227	0.067611	-1.7167	-2.4125	-2.4875	-2.0354	-2.7479	-2.5792	-2.3771	-3.1688	-2.1729	-2.6021	-2.9021	-2.2833	-2.8792	-2.6417	-2.1688	-2.9979	111.220	-14.140	106.732	199.685	-13.637	152.484	148.967	211.546	198.414	58.966	140.929	13.961	71.204	-63.673	65.025	-72.790	0.00022821	0.00029237	0.00014767	977.32	4.3732e-06	8.1687e-06	838.19	320.12	6.4706e-06	8.699e-06	287.11	95.687	105	40.321	2.0675e-06	44.078	0.0053179	0.012308	0.0034786	1011.5	0.00011414	0.00014046	871.43	334.87	0.0001165	0.00014192	305.37	102.6	111.83	42.913	0.00012378	47.155	-88.583	16.747	-46.142	-97.333	22.197	51.456	-98.285	-91.780	39.622	42.136	-94.047	-88.294	-86.634	-82.049	16.141	-84.348	-8191	255	
31503.863	1	1	0	0	0.18863	0.1653	0.21985	0.26589	0.30292	0.21496	0.3604	0.40826	0.18321	0.07412	0.042688	0.29049	0.17842	0.093326	0.18792	0.22486	-1.9833	-2.3896	-2.7542	-2.25	-2.6979	-2.6625	-2.2104	-3.0979	-2.3375	-2.3312	-3.05	-2.15	-2.9333	-2.9083	-1.9708	-3.0021	164.095	139.633	156.205	247.827	72.799	-93.906	150.126	-94.170	-45.161	-62.904	-0.052	234.843	-45.433	199.015	15.642	193.051	0.00022123	0.00057477	0.00028964	980.3	4.6872e-06	8.377e-06	838.13	320.86	3.6789e-06	3.6097e-06	287.22	95.388	105.29	40.405	5.7538e-06	44.053	0.0053242	0.012371	0.0034926	1013.8	0.00011495	0.00014055	871.98	335.17	0.00011637	0.00014145	305.09	102.51	112.03	42.894	0.00012518	47.123	-77.864	-32.160	-38.474	-97.279	63.204	8.426	-98.287	-91.812	-25.936	47.531	-94.024	-88.317	-86.496	-81.931	17.695	-84.305	-8191	255	
31503.957	1	1	0	0	0.26211	0.065573	0.17425	0.1214	0.12316	0.22834	0.39059	0.14515	0.030233	0.0399	0.1898	0.27688	0.086973	0.12786	0.12954	0.059853	-1.9771	-2.3229	-2.9604	-2.1937	-2.7438	-2.6292	-2.1063	-3.0583	-2.5479	-2.1646	-3.0979	-2.3521	-2.6688	-3.0167	-2.3417	-3.1229	72.631	120.898	-46.852	236.415	238.607	-81.305	167.032	59.013	241.332	-98.625	187.298	193.343	-80.740	229.930	183.576	190.326	0.00018061	0.0008162	7.8542e-05	980.56	5.301e-06	6.1351e-06	844.01	322.2	2.1695e-06	5.4856e-06	289.44	95.681	105.61	40.437	6.5522e-06	44.552	0.0053263	0.012521	0.003539	1016	0.00011574	0.0001433	875.71	336.84	0.00011802	0.00014378	307.22	102.98	112.57	43.079	0.00012569	47.571	-74.462	-37.936	172.203	-97.165	98.676	29.898	-98.588	-91.816	200.020	63.958	-93.895	-88.601	-86.525	-82.122	15.600	-84.222	-8191	255	
31504.029	1	1	0	0	0.20856	0.16039	0.097387	0.3369	0.31025	0.093856	0.21452	0.13407	0.18214	0.067981	0.12247	0.064609	0.17333	0.11012	0.16739	0.061278	-2.2062	-2.1458	-2.8688	-2.3042	-2.7104	-2.8729	-2.1021	-3.0604	-2.6333	-2.1833	-2.8979	-2.4625	-2.4896	-3.0396	-2.0187	-2.8979	122.753	-2.627	-69.775	217.089	127.905	-39.580	94.023	214.376	-90.887	38.136	105.870	-41.273	-90.860	34.308	14.706	-71.371	0.0002152	0.00036328	0.00017857	988.63	6.0213e-06	1.5928e-06	844.63	322.74	2.0348e-06	1.7316e-06	290.64	96.059	105.38	40.48	2.4847e-06	44.15	0.0054053	0.012705	0.0035726	1020	0.00011624	0.00014503	879.77	338.18	0.00011798	0.00014297	307.82	103.12	112.7	43.134	0.00012579	47.195	-80.844	239.060	-42.722	-97.092	40.218	95.103	-98.272	-91.806	24.443	-16.434	-93.859	-88.544	-86.472	-82.101	-43.757	-84.456	-8191	255	
31504.127	1	1	0	0	0.14225	0.052826	0.14071	0.074311	0.15022	0.17117	0.048155	0.27683	0.24812	0.1352	0.13594	0.11519	0.072054	0.15833	0.3149	0.1922	-2.3229	-2.1104	-2.7271	-2.4375	-2.3458	-2.9771	-2.3521	-2.9896	-2.7708	-2.0833	-3.1312	-2.5104	-2.4917	-3.0667	-2.1521	-2.6937	21.612	56.149	179.445	211.694	222.217	48.588	-5.378	90.809	55.000	-64.238	-31.071	212.265	73.525	-109.313	160.206	63.312	0.00020908	0.00049967	9.3787e-05	982.76	7.6579e-06	2.8961e-06	839.15	319.6	3.8756e-06	9.314e-07	287.01	95.41	105.38	40.378	6.9043e-06	43.873	0.0053023	0.012708	0.0035704	1017.1	0.00011632	0.00014432	872.9	335.86	0.0001175	0.00014358	304.85	102.09	112.16	42.947	0.00012558	46.92	-97.143	-31.421	25.932	-97.220	13.441	92.915	-98.233	-91.457	82.030	76.219	-93.837	-88.513	-86.709	-82.160	2.998	-84.398	-8191	255	
31504.246	1	1	0	0	0.037112	0.10887	0.093116	0.25062	0.025719	0.17047	0.16737	0.12858	0.10054	0.27594	0.1439	0.17822	0.16149	0.14434	0.11398	0.34457	-2.4292	-1.9771	-2.8708	-2.5938	-2.0312	-3.0104	-2.2708	-2.4813	-2.9708	-2.0979	-3.0854	-2.6646	-2.3042	-3.1417	-2.2833	-2.6833	-56.325	206.580	205.380	240.220	-75.153	-70.430	-108.927	230.095	-61.507	-32.168	-80.502	237.523	235.781	228.340	192.921	-69.705	0.00024763	0.00052981	0.0001811	978.36	5.4245e-06	2.8597e-06	836.68	321.49	5.9266e-06	5.6337e-06	289.53	95.857	105.24	40.479	4.0412e-06	44.045	0.0053678	0.012687	0.0035633	1013.6	0.00011501	0.00014392	870.93	336.21	0.00011623	0.00014211	306.16	102.47	112.14	43.065	0.00012447	47.181	-80.271	-0.181	20.298	-97.131	-31.428	118.487	-98.493	-91.726	36.568	57.107	-93.874	-88.497	-86.711	-82.102	48.904	-84.298	-8191	255	
31504.344	1	1	0	0	0.37844	0.31973	0.21799	0.18023	0.11608	0.17429	0.16807	0.17472	0.1411	0.11856	0.17832	0.21426	0.13804	0.27505	0.35238	0.24699	-2.6042	-2.0083	-2.8563	-2.6979	-2.1667	-3.1458	-2.4458	-2.5	-2.9562	-2.0646	-2.9833	-2.6271	-2.0312	-3.0938	-2.3354	-2.4646	-89.549	160.068	-9.762	198.263	1.074	177.660	-26.644	185.203	-13.528	226.654	-2.843	233.745	-93.431	211.479	139.077	60.857	0.00023698	0.00076612	9.0499e-05	982	2.587e-07	7.2191e-06	841.92	321.48	2.5017e-06	5.8781e-06	287.6	96.157	106.05	40.78	8.2826e-06	44.409	0.0053586	0.012586	0.0035333	1017.3	0.0001157	0.00014385	875.7	337.31	0.00011766	0.0001444	307.23	103.15	113.02	43.337	0.00012673	47.502	-76.863	-79.403	-44.032	-97.292	249.051	119.047	-98.440	-91.501	-105.727	60.929	-93.780	-88.517	-86.777	-82.030	25.372	-84.334	-8191	255	
31504.439	1	1	0	0	0.2205	0.1965	0.127	0.16652	0.28858	0.033782	0.09373	0.17113	0.06852	0.17623	0.10198	0.10157	0.14296	0.22968	0.060817	0.071158	-2.7271	-2.0354	-2.7375	-2.7854	-2.1729	-3.0187	-2.4625	-2.3104	-3.0146	-2.1188	-2.7708	-2.7917	-2.1604	-2.7958	-2.3104	-2.2146	146.795	9.377	88.315	-40.726	56.132	230.754	93.152	203.496	72.241	41.598	-65.172	47.799	239.456	-108.891	205.552	231.995	0.000205	0.00044766	0.00026653	989.18	5.5961e-06	5.2621e-06	844.41	322.34	3.593e-06	4.6392e-06	290.6	95.833	105.98	40.796	1.812e-06	44.153	0.0054122	0.01287	0.0035719	1022.6	0.0001171	0.00014577	879.42	338.29	0.00011799	0.00014483	307.64	102.98	112.94	43.343	0.00012674	47.154	-105.576	29.251	-38.539	-97.114	91.588	14.071	-98.636	-91.501	78.719	49.497	-93.954	-88.428	-86.762	-81.883	40.670	-84.107	-8191	255	
31504.535	1	1	0	0	0.12738	0.072357	0.23133	0.2832	0.23408	0.13843	0.30029	0.3022	0.22196	0.12126	0.18585	0.095822	0.099983	0.13075	0.11809	0.16222	-2.625	-2.1917	-2.5333	-3.0396	-2.2521	-2.7854	-2.5729	-2.4208	-3.0625	-2.2562	-2.6646	-2.8875	-2.1792	-2.9771	-2.5312	-2.2021	-79.669	19.996	-52.625	146.068	190.291	120.600	188.714	150.359	-88.728	106.547	-93.164	42.449	-88.124	36.010	-38.459	141.060	0.00025354	0.00056398	0.00015847	981.9	8.5935e-06	1.0207e-05	836.98	322.3	6.4713e-06	5.2315e-06	287.29	95.409	105.92	40.788	3.8882e-06	43.944	0.0054142	0.012694	0.0035719	1019.1	0.00011811	0.00014653	871.09	337.02	0.00011961	0.0001429	305.15	102.38	112.64	43.283	0.00012702	47.172	-84.088	-40.708	-24.812	-97.491	33.079	46.323	-98.453	-91.701	15.721	125.679	-93.665	-88.254	-86.618	-81.755	81.908	-84.296	-8191	255	
31504.631	1	1	0	0	0.20214	0.12013	0.075569	0.22437	0.21104	0.15336	0.023313	0.24266	0.17536	0.35005	0.155	0.17287	0.082983	0.12196	0.1327	0.18908	-2.575	-2.1958	-2.4271	-3.0938	-2.1458	-2.9083	-2.5146	-2.3708	-2.9479	-2.3521	-2.55	-2.9479	-2.1479	-2.8063	-2.6188	-2.2333	187.669	-82.602	98.985	169.317	10.813	34.532	172.615	209.234	53.507	212.376	164.416	171.318	18.389	219.197	108.883	185.435	0.00020201	0.00042532	0.00013883	984.38	3.5655e-06	5.2916e-06	838.56	321.85	3.4874e-06	5.2619e-06	288.43	95.745	105.9	40.753	4.2312e-06	44.453	0.0054244	0.012604	0.0035671	1017.7	0.0001171	0.00014554	873.25	337.14	0.00011831	0.00014458	306.25	102.67	112.63	43.288	0.00012535	47.37	-102.066	-33.346	13.845	-97.316	65.511	-26.568	-98.564	-92.002	65.817	43.131	-93.757	-88.337	-86.576	-81.823	39.166	-84.199	-8191	255	
31504.729	1	1	0	0	0.11916	0.083644	0.16779	0.051309	0.25751	0.033966	0.18277	0.28939	0.1532	0.23899	0.26421	0.26905	0.1309	0.05517	0.1106	0.14656	-2.5958	-2.4229	-2.225	-2.9396	-1.9417	-2.6292	-2.7438	-2.1792	-2.9083	-2.4604	-2.25	-3.0479	-2.2562	-2.6521	-2.8104	-1.9438	112.389	207.845	121.900	-15.385	119.801	75.641	162.979	197.489	62.375	133.659	138.565	205.413	153.625	188.224	227.308	219.498	0.00020812	0.00065847	0.00022319	984.29	7.5228e-06	8.0783e-06	842.23	324.01	3.5103e-06	6.1796e-06	290.12	96.532	106.86	40.977	9.5229e-06	44.503	0.0054088	0.012695	0.0035372	1019.9	0.00011648	0.00014299	876.23	338.82	0.00011771	0.00014416	307.9	103.5	113.44	43.542	0.00012679	47.606	-81.028	-94.509	-10.613	-97.072	14.196	-8.728	-98.313	-91.583	85.680	0.586	-93.637	-88.001	-86.767	-81.670	40.444	-84.287	-8191	255	
31504.824	1	1	0	0	0.11008	0.011809	0.045861	0.14897	0.22753	0.26205	0.11022	0.20017	0.36797	0.18829	0.056835	0.056794	0.056762	0.26072	0.17342	0.12606	-2.4979	-2.2958	-2.2792	-3.0917	-2.2646	-2.4792	-2.9	-2.2146	-2.7708	-2.5625	-2.3187	-3.125	-2.3792	-2.5438	-2.8292	-2.1208	-7.196	247.326	90.653	151.899	128.507	-61.721	183.042	71.793	-71.439	22.769	241.926	53.155	110.643	214.420	103.629	140.791	0.0002092	0.00039039	0.00021593	990.18	4.6139e-06	7.247e-06	847.87	323.72	3.0916e-06	2.7099e-06	289.88	96.038	106.76	40.969	5.5098e-06	44.188	0.0054129	0.012674	0.0036037	1025.9	0.00011812	0.0001481	880.07	338.98	0.00011842	0.00014412	307.59	103.08	113.27	43.496	0.00012587	47.172	-92.023	9.092	-25.246	-97.161	25.490	59.739	-98.498	-91.484	-30.225	-51.735	-93.912	-88.060	-86.504	-81.858	57.625	-84.040	-8191	255	
31504.943	1	1	0	0	0.060027	0.137	0.38122	0.35781	0.11382	0.015135	0.0084695	0.063673	0.17015	0.43465	0.2546	0.15594	0.062283	0.021932	0.081834	0.15076	-2.5542	-2.7313	-1.975	-2.9729	-2.2271	-2.4771	-3.0708	-2.4458	-2.7521	-2.7729	-2.2521	-3.0271	-2.4083	-2.4167	-3.0479	-2.2583	119.699	100.495	231.394	201.165	247.403	164.443	249.127	133.368	214.374	145.807	-68.057	136.587	14.216	231.229	19.297	211.730	0.0002209	0.00086495	0.00017768	986.05	7.5289e-06	4.2195e-06	840.16	323.09	3.7543e-06	4.8321e-06	290.19	95.648	106.4	40.873	1.3401e-06	44.021	0.0054379	0.012679	0.0035646	1022.1	0.00011676	0.00014502	873.14	338.18	0.00011774	0.00014406	306.24	102.63	113.12	43.421	0.00012772	47.089	-64.921	-21.205	37.403	-96.950	60.164	-24.201	-98.422	-91.841	8.131	-96.853	-93.826	-88.517	-86.773	-82.101	-56.290	-84.459	-8191	255	
31505.039	1	1	0	0	0.097297	0.17194	0.11649	0.04571	0.044669	0.074392	0.20462	0.2201	0.17643	0.36492	0.19194	0.073584	0.15463	0.024079	0.19451	0.32751	-2.325	-2.8	-2.0667	-3	-2.4396	-2.2229	-3.0042	-2.3125	-2.7188	-3.0375	-2.1417	-2.9	-2.6542	-2.1875	-2.9813	-2.3208	77.257	38.990	22.686	246.217	-58.521	105.674	73.184	216.326	217.694	62.464	203.067	245.875	-2.994	242.592	134.189	169.692	0.00023151	0.00027196	0.00024419	983.33	7.2231e-06	4.6796e-06	841.51	325.49	3.6437e-06	7.7853e-06	287.75	95.841	106.2	40.783	5.3338e-06	43.894	0.0053793	0.012669	0.003579	1021.8	0.00011724	0.00014551	876.12	339.64	0.00011819	0.00014409	306.42	102.84	113.14	43.488	0.00012707	47.255	-78.002	88.529	-12.236	-97.093	21.994	26.789	-98.264	-91.631	14.601	48.910	-93.947	-88.247	-86.669	-81.631	49.385	-84.288	-8191	255	
31505.135	1	1	0	0	0.13415	0.33193	0.10947	0.43974	0.1329	0.18849	0.094742	0.068612	0.14766	0.22405	0.087268	0.29639	0.21289	0.087877	0.30741	0.16104	-2.1042	-2.9229	-1.9771	-3.0104	-2.5979	-2.2792	-3.1271	-2.2042	-2.3625	-3.0625	-2.0208	-2.9042	-2.5896	-2.075	-2.9479	-2.3396	-24.122	176.206	248.359	197.423	-63.322	42.337	189.593	102.715	-22.378	-64.987	-105.731	162.685	248.013	222.474	-99.413	141.551	0.00023449	0.00088561	0.00022619	989.75	3.8562e-06	2.9938e-06	847.84	325.86	5.3139e-06	6.4067e-06	292.29	96.705	107.2	41.132	2.5661e-06	44.643	0.0053981	0.012621	0.0036084	1025.1	0.00011692	0.00014435	880.92	340.94	0.00011861	0.00014397	309.56	103.72	114.18	43.793	0.00012784	47.736	-88.098	-31.193	-7.614	-97.085	-2.959	-94.166	-98.190	-91.399	-0.675	-9.572	-93.508	-88.149	-86.588	-81.825	54.181	-84.279	-8191	255	
31505.230	1	1	0	0	0.1875	0.066851	0.29277	0.11897	0.073488	0.15735	0.26458	0.071249	0.1036	0.15271	0.024284	0.15936	0.14276	0.29535	0.29091	0.084287	-2.1437	-3.0708	-2.0958	-2.8125	-2.7958	-1.9625	-3.0312	-2.5958	-2.1688	-2.9729	-2.15	-2.7229	-2.9	-2.2	-2.95	-2.3958	243.485	160.452	62.422	6.692	-32.927	-67.098	131.082	80.626	-72.756	-47.293	196.298	58.402	-35.966	202.443	-11.001	-71.164	0.00022049	0.00013663	0.00019003	999.48	2.1124e-06	1.1798e-06	851.43	325.78	5.7092e-06	3.4939e-06	290.19	95.948	106.57	41.158	5.771e-06	43.856	0.0054458	0.012723	0.0036396	1032.1	0.00011702	0.0001464	884.83	340.86	0.00011972	0.00014399	308.3	102.8	113.52	43.624	0.00012593	47.05	-73.747	16.495	1.441	-97.193	247.729	4.521	-98.245	-91.762	60.900	82.952	-93.891	-88.501	-86.850	-82.099	26.383	-84.440	-8191	255	
31505.326	1	1	0	0	0.045922	0.1571	0.17209	0.34435	0.097207	0.13881	0.15736	0.047486	0.17569	0.14094	0.13874	0.14692	0.13348	0.1966	0.047182	0.11361	-1.8771	-2.8458	-1.9813	-2.6833	-2.85	-2.0979	-2.9042	-2.5333	-2.1063	-3.0354	-2.1479	-2.575	-2.9479	-2.3167	-2.8625	-2.65	22.578	129.685	103.437	212.181	144.340	151.298	197.651	-18.216	221.910	200.689	243.976	89.827	220.848	187.942	231.938	218.373	0.00024323	0.00073293	3.5452e-05	992.21	5.6724e-06	3.7762e-06	841.48	324.5	1.8117e-06	2.3083e-06	288.43	95.644	106.28	40.967	4.559e-06	43.952	0.0053629	0.012614	0.0035536	1026.8	0.00011519	0.00014366	876.4	339.99	0.0001169	0.00014233	306.48	102.41	113.1	43.464	0.00012341	46.857	-63.604	-22.193	-81.697	-97.089	2.934	67.825	-98.595	-91.559	90.666	-76.745	-93.824	-88.266	-86.696	-81.747	106.137	-84.408	-8191	255	
31505.422	1	1	0	0	0.067639	0.039382	0.30099	0.2318	0.11648	0.099212	0.14319	0.12872	0.33141	0.1284	0.14388	0.19857	0.27454	0.12985	0.31047	0.049715	-1.7	-2.9417	-2.2354	-2.4792	-2.9229	-2.075	-2.9313	-2.7104	-2.2417	-2.8458	-2.3896	-2.425	-3.05	-2.1	-2.7438	-2.6437	-53.475	208.685	-58.038	249.323	101.217	-50.450	-61.774	-41.378	212.315	243.812	-70.845	-2.783	182.437	-14.010	16.141	57.663	0.00026137	0.0008312	8.5592e-05	989.4	2.6125e-06	8.5261e-06	842.4	325.44	4.0288e-06	1.6291e-06	286.62	95.611	106.67	40.863	2.0554e-06	44.003	0.0053194	0.012511	0.0035112	1025.2	0.00011373	0.00014423	875.48	340.04	0.00011595	0.0001412	305.5	102.34	113.3	43.483	0.00012391	46.921	-76.476	-32.717	34.464	-97.226	-7.161	45.718	-98.635	-91.693	101.537	-32.090	-93.769	-88.510	-86.556	-81.956	35.068	-84.316	-8191	255	
31505.543	1	1	0	0	0.078573	0.13046	0.3443	0.13913	0.097929	0.3374	0.1722	0.053069	0.084608	0.18841	0.085773	0.1843	0.31997	0.17639	0.13204	0.059609	-1.7292	-2.9521	-2.2479	-2.4667	-2.8875	-2.1583	-2.7729	-2.7938	-1.9167	-2.8958	-2.4437	-2.3312	-2.9229	-2.3187	-2.3042	-2.9396	-78.893	-67.606	135.313	79.985	217.020	97.359	217.142	235.261	193.891	228.184	-38.436	120.970	218.769	193.404	-86.923	32.234	0.00021679	0.00089704	0.00016923	990.88	1.4683e-06	4.3034e-06	845.81	325.41	5.6136e-06	5.9287e-06	290.03	96.074	106.73	41.013	3.6731e-06	44.343	0.0052722	0.012484	0.0034859	1024.1	0.00011491	0.0001431	875.33	340.11	0.00011676	0.00014151	307.1	102.87	113.58	43.583	0.00012367	47.248	-88.544	-41.614	4.930	-97.002	-53.296	-41.022	-98.243	-91.657	35.061	75.610	-93.913	-88.338	-86.830	-82.116	89.515	-84.314	-8191	255	
31505.639	1	1	0	0	0.21259	0.06195	0.10644	0.052521	0.14637	0.20877	0.21166	0.26627	0.2051	0.10822	0.19377	0.047115	0.1393	0.22696	0.13939	0.25919	-1.7	-3.0167	-2.3438	-2.4396	-2.9896	-2.1917	-2.7625	-3.1063	-1.9521	-2.9042	-2.8625	-2.2375	-3.2062	-2.4562	-2.4479	-3.0104	59.513	-47.678	-44.883	-47.375	120.122	-108.733	-100.801	160.701	145.193	-0.540	157.801	2.389	163.316	108.835	129.861	-94.458	0.00021924	0.00038151	0.0001306	990.73	5.6865e-06	8.1701e-06	844.21	326.54	6.4217e-06	8.0303e-06	286.48	95.038	106.31	40.905	2.7514e-06	43.186	0.0053207	0.012456	0.0035277	1025.4	0.00011419	0.00014242	875.42	340.44	0.00011746	0.0001412	304.8	101.44	112.94	43.304	0.00012289	46.1	-94.998	6.526	0.591	-97.203	140.090	84.738	-98.266	-91.577	60.905	24.054	-93.840	-88.292	-86.742	-82.062	-31.272	-84.220	-8191	255	
31505.734	1	1	0	0	0.025625	0.081758	0.18784	0.071203	0.046379	0.28688	0.091833	0.089369	0.21204	0.19666	0.14808	0.17701	0.22198	0.26928	0.15348	0.071301	-1.7708	-2.6104	-2.7687	-2.3292	-2.9313	-2.4104	-2.75	-3.025	-2.1042	-2.9208	-2.6958	-2.1667	-3.2354	-2.4854	-2.2646	-3.0167	240.408	97.407	6.812	209.397	115.542	48.053	146.975	209.923	68.000	151.939	13.534	72.953	48.944	-87.724	99.424	225.703	0.00030248	0.00049633	0.00014852	990.03	6.1013e-06	9.5103e-06	838.14	325.4	1.5036e-06	7.8908e-06	285.05	94.634	106.13	40.643	6.6514e-06	43.253	0.0053018	0.01234	0.0034485	1022.2	0.00011358	0.00014236	870.77	338.92	0.00011528	0.00013855	303.01	101.02	112.89	43.125	0.00012306	46.139	-78.624	-5.283	-14.193	-97.202	21.886	32.042	-98.388	-91.516	28.603	27.519	-93.975	-88.054	-86.728	-81.891	3.643	-84.208	-8191	255	
31505.830	1	1	0	0	0.35764	0.1502	0.33299	0.18396	0.16047	0.20226	0.48028	0.39163	0.13839	0.22934	0.13062	0.16592	0.33186	0.27504	0.2936	0.15375	-1.8042	-2.6583	-2.7458	-2.2979	-2.8396	-2.5062	-2.3979	-2.9292	-2.4083	-2.7812	-2.85	-2.0938	-3.0229	-2.5979	-2.1208	-2.775	233.507	58.105	113.880	249.373	162.482	175.902	149.267	200.457	50.759	173.465	180.422	206.487	-103.268	222.071	145.340	23.043	0.0001423	0.00075981	4.8511e-05	988.68	2.0992e-06	2.0789e-06	831.64	324.48	6.9304e-06	6.778e-07	285.56	93.952	105.67	40.606	6.0068e-06	43.348	0.0052768	0.012304	0.0034368	1020	0.00011347	0.00014046	866.4	337.95	0.00011542	0.00014079	303.1	101.12	112.64	43.15	0.00012307	46.432	-80.347	-54.508	158.171	-96.896	97.650	40.998	-98.176	-91.661	37.529	129.900	-94.060	-88.200	-86.595	-81.768	87.447	-84.194	-8191	255	
31505.928	1	1	0	0	0.14368	0.082879	0.26928	0.2113	0.19933	0.15082	0.27271	0.050482	0.16984	0.16135	0.14206	0.058453	0.20711	0.16892	0.11298	0.28537	-1.7479	-2.4729	-2.7313	-2.2333	-2.7542	-2.5979	-2.1063	-3.1146	-2.2812	-2.5333	-3.0458	-2.4083	-2.8187	-2.8083	-1.9521	-3.1333	-29.997	20.326	35.740	79.506	-69.287	-43.014	128.230	-90.136	40.437	242.348	215.206	183.001	175.812	220.457	39.782	152.053	0.00018119	0.0006582	0.00013417	985.61	4.7489e-06	5.6284e-06	838.58	324.76	2.9126e-06	6.7635e-06	285.81	94.675	106.59	40.917	2.0844e-06	43.91	0.0052776	0.012483	0.0034988	1018.6	0.00011498	0.00014195	869.74	339.25	0.00011644	0.00014084	304.85	101.76	113.34	43.424	0.00012453	46.917	-76.913	-15.608	-19.610	-97.194	51.717	-15.618	-98.207	-91.722	-69.503	21.130	-93.785	-88.389	-86.722	-81.766	166.368	-83.783	-8191	255	
31506.023	1	1	0	0	0.15281	0.14748	0.091559	0.15429	0.098551	0.33687	0.076691	0.23377	0.20851	0.071075	0.22908	0.099421	0.13976	0.05443	0.062322	0.1204	-1.9562	-2.3583	-3.1896	-2.0542	-2.7812	-2.6854	-2.3542	-3.0125	-2.3458	-2.2708	-3.0417	-2.2521	-2.7292	-2.8021	-1.9896	-2.9021	-39.332	213.409	-51.992	180.657	176.390	9.974	152.510	205.407	162.965	241.489	-90.692	157.492	214.484	206.843	109.728	155.183	0.00019395	0.00036346	0.00019061	986.49	6.7023e-06	9.1379e-06	837.02	324.86	2.8657e-06	3.0597e-06	284.1	94.185	106.28	40.76	4.6994e-06	43.357	0.0053613	0.012503	0.0035457	1020.4	0.00011443	0.00014395	870.77	339.19	0.00011803	0.00014131	303.18	101.19	112.71	43.243	0.00012512	46.283	-80.011	-93.587	-39.192	-96.779	60.511	21.540	-98.091	-91.452	-106.270	45.046	-93.925	-87.947	-86.402	-81.859	26.990	-83.961	-8191	255	
31506.119	1	1	0	0	0.28121	0.070117	0.39884	0.35094	0.069387	0.17956	0.0043345	0.23556	0.035186	0.021344	0.15622	0.094457	0.23712	0.31514	0.25018	0.12804	-2.1	-2.1167	-2.8833	-2.3625	-2.4333	-2.7625	-2.1146	-3.0375	-2.5396	-2.2646	-3.1312	-2.1917	-2.6021	-3.0312	-2.0458	-2.9062	168.648	-73.298	-67.203	229.146	213.160	42.107	-20.759	246.952	-82.302	-11.730	218.492	244.731	198.401	-82.964	236.621	133.239	0.00018361	0.00052257	0.00011711	983.74	2.642e-06	5.1648e-06	837.06	323.51	2.125e-06	7.1381e-06	283.31	93.975	106.24	40.627	3.81e-06	43.376	0.0053068	0.012528	0.0035159	1018.8	0.00011589	0.00014377	866.6	338.61	0.00011635	0.00014263	301.44	100.95	112.77	43.186	0.00012404	46.347	-67.560	-64.290	72.777	-97.078	148.398	78.182	-98.063	-91.407	72.684	44.684	-93.384	-88.196	-86.319	-81.668	59.112	-84.005	-8191	255	
31506.215	1	1	0	0	0.15418	0.12391	0.033377	0.19551	0.088566	0.096416	0.075891	0.041611	0.12852	0.054058	0.29988	0.25658	0.22543	0.036292	0.11937	0.13629	-2.1208	-2.0417	-3.1437	-2.3833	-2.5167	-2.9604	-2.2542	-2.9979	-2.6104	-2.1146	-3.0396	-2.3063	-2.2062	-2.9604	-1.9146	-2.7354	93.712	25.041	215.623	224.173	-48.515	220.910	216.993	33.484	-104.514	49.190	141.552	153.940	212.682	66.464	111.086	137.985	0.00015132	0.00026513	0.00027438	987.38	6.6233e-06	4.3172e-06	837.31	325.09	5.3182e-06	9.2625e-06	286.23	94.538	106.39	40.744	5.0692e-06	43.48	0.0053624	0.012306	0.0035278	1020.1	0.00011418	0.00014259	869.29	339.52	0.00011619	0.00014361	304.41	101.62	113.13	43.371	0.0001255	46.538	-89.790	-104.242	0.890	-96.923	74.550	-39.516	-98.180	-91.278	6.947	24.555	-93.400	-87.973	-86.390	-81.421	-13.588	-84.280	-8191	255	
31506.334	1	1	0	0	0.20584	0.12794	0.20956	0.09817	0.21289	0.11152	0.19626	0.23686	0.24928	0.10295	0.11064	0.073906	0.074687	0.049617	0.04297	0.16721	-2.3917	-2.0458	-2.9542	-2.5042	-2.4229	-2.8438	-2.1875	-2.7771	-2.7062	-2.1104	-2.9583	-2.5958	-2.2958	-2.9667	-2.1542	-2.55	210.387	165.163	-83.737	-84.421	-94.300	37.688	230.697	142.744	68.500	-10.621	-100.489	114.368	-26.633	234.844	-100.111	-30.309	0.00020673	0.00026192	0.00012467	992.79	3.761e-06	5.5345e-06	839.42	325.57	3.4361e-06	5.2738e-06	288.7	95.723	106.7	40.949	2.7013e-06	44.11	0.0053788	0.012499	0.0035593	1025	0.0001162	0.00014434	874.17	340.66	0.00011635	0.00014352	306.61	102.49	113.83	43.615	0.00012495	46.999	-79.277	-47.525	1.803	-97.020	31.605	3.291	-98.225	-91.294	90.510	59.207	-93.556	-88.473	-86.397	-81.725	-39.765	-83.652	-8191	255	
31506.430	1	1	0	0	0.13371	0.12099	0.13852	0.14924	0.042897	0.11151	0.21294	0.045308	0.12673	0.2732	0.24487	0.22363	0.14793	0.093554	0.15362	0.10567	-2.5542	-2.1146	-2.8958	-2.6813	-2.2417	-3.1	-2.4062	-2.6312	-2.9479	-2.2062	-2.9104	-2.8458	-2.275	-2.9354	-2.2667	-2.3667	70.752	99.696	209.617	249.164	-66.721	-55.053	211.840	244.923	-3.868	230.596	228.550	180.128	-1.698	25.756	105.371	61.279	0.00021794	0.00024972	8.3795e-05	990.91	4.5863e-06	2.5645e-06	841.62	327.74	2.9904e-06	7.5268e-06	287.69	95.168	106.97	40.91	6.0088e-06	43.823	0.0053148	0.012547	0.00351	1024.4	0.0001148	0.00014337	875.12	341.58	0.00011616	0.00014117	305.86	102.22	113.63	43.498	0.0001238	46.727	-61.961	-78.824	-6.700	-96.831	24.551	156.926	-98.149	-91.314	-12.394	52.444	-93.313	-87.977	-86.563	-82.027	40.804	-84.332	-8191	255	
31506.504	1	1	0	0	0.097995	0.16148	0.099959	0.22125	0.26306	0.020025	0.065623	0.11164	0.18437	0.08829	0.3483	0.13386	0.28112	0.20184	0.17986	0.020896	-2.5438	-1.9229	-2.5667	-2.6896	-1.9542	-2.9729	-2.5583	-2.4375	-2.9292	-2.0187	-2.8958	-2.8583	-2.0583	-2.9708	-2.4688	-2.3	17.436	223.555	246.824	177.427	47.244	83.902	9.561	224.189	39.687	121.384	216.364	236.006	231.011	-81.165	163.785	-88.395	0.00019644	0.00051694	0.00020771	988.49	4.7866e-06	6.5894e-06	840.36	326.95	4.4892e-06	3.4229e-06	287.98	95.132	106.98	41.034	4.5799e-06	43.794	0.0053075	0.012485	0.0035162	1024.2	0.0001149	0.00014195	874.38	341.53	0.00011576	0.00014206	305.84	102.02	113.62	43.624	0.00012321	46.848	-70.462	-18.612	2.017	-97.255	57.234	12.574	-98.480	-91.657	73.137	7.556	-93.896	-88.473	-86.649	-81.763	9.562	-84.464	-8191	255	
31506.623	1	1	0	0	0.17432	0.23147	0.073152	0.42932	0.11447	0.23368	0.12281	0.074778	0.18487	0.15527	0.12298	0.093394	0.36291	0.29368	0.24648	0.18104	-2.4562	-2.0708	-2.5229	-2.9208	-2.0438	-2.9208	-2.4833	-2.2833	-3.0375	-2.1979	-2.5854	-2.8646	-2.1729	-2.9313	-2.4708	-2.3479	33.210	202.239	119.457	219.686	-88.702	189.300	161.538	136.648	92.825	110.855	-30.473	167.891	170.094	243.266	-27.296	230.259	0.00019018	0.00077939	0.00015618	996.13	3.3723e-06	5.1439e-06	844.12	327.47	4.7063e-06	3.3674e-06	290.68	95.818	107.42	41.151	1.6364e-06	44.39	0.0053336	0.012478	0.0035164	1028.1	0.00011505	0.00014351	876.46	342.48	0.00011653	0.00014187	307.55	102.74	114.08	43.858	0.00012335	47.283	-82.048	-17.267	32.422	-97.406	-57.398	-0.980	-98.670	-91.739	-30.668	125.482	-94.005	-88.395	-86.636	-81.993	-107.190	-84.226	-8191	255	
31506.719	1	1	0	0	0.12109	0.30259	0.19761	0.35031	0.087829	0.13997	0.091184	0.15714	0.048149	0.023662	0.20583	0.14261	0.087041	0.16046	0.2572	0.10896	-2.6333	-2.1312	-2.2042	-2.7583	-2.0333	-2.725	-2.7479	-2.35	-2.9167	-2.3271	-2.5167	-3.0396	-2.2167	-2.7771	-2.6167	-2.2625	122.676	38.264	-83.540	-108.512	238.731	165.309	188.518	34.693	-30.975	102.860	109.538	107.402	-108.026	166.386	101.314	214.259	0.00022201	0.0006765	0.000144	995.32	5.9519e-06	2.9984e-06	850.49	329.72	2.7179e-06	2.553e-06	292.01	96.641	107.63	41.496	2.7298e-06	44.625	0.0053235	0.012416	0.0034858	1031.4	0.00011437	0.00014209	882.88	344.28	0.0001169	0.00014192	309.8	103.66	114.46	44.095	0.00012385	47.588	-91.475	-15.150	-6.401	-97.268	30.279	56.887	-98.659	-91.602	14.923	39.947	-94.007	-88.598	-86.542	-81.597	-108.385	-84.166	-8191	255	
31506.814	1	1	0	0	0.16697	0.22336	0.31941	0.32793	0.065147	0.17556	0.28235	0.39659	0.21438	0.020316	0.25226	0.16738	0.035262	0.26927	0.068781	0.12486	-2.6604	-2.2521	-2.2479	-2.9479	-2.0792	-2.5625	-2.7833	-2.2896	-2.85	-2.2292	-2.2083	-2.9562	-2.0979	-2.6417	-2.7583	-2.025	216.776	50.869	-8.470	224.462	183.211	-93.147	-93.626	-97.953	149.689	170.498	-56.977	-30.156	-61.266	196.643	120.009	28.537	0.00030575	0.00066796	0.00015932	996.95	5.3566e-06	2.6911e-06	849.16	328.42	5.6275e-06	2.1516e-06	290.57	96.067	106.89	41.418	1.8264e-06	44.33	0.0053479	0.012458	0.0035354	1030.3	0.00011571	0.00014143	880.23	343.52	0.00011683	0.00014059	307.8	102.88	114.1	44.02	0.00012478	47.322	-73.076	-71.022	34.482	-97.267	145.236	210.585	-98.541	-91.329	-57.134	14.732	-94.003	-88.493	-86.516	-81.700	98.155	-84.217	-8191	255	
31506.910	1	1	0	0	0.090044	0.19731	0.1241	0.26519	0.28737	0.2145	0.21213	0.15244	0.2903	0.14651	0.12881	0.17366	0.10198	0.19327	0.21773	0.12092	-2.4833	-2.4542	-2.2292	-3.0875	-2.2208	-2.5438	-2.9417	-2.0917	-2.8688	-2.5375	-2.2667	-3.1792	-2.2188	-2.4729	-2.7583	-2.25	241.986	17.716	13.495	210.332	85.760	48.440	128.672	182.847	23.558	45.505	177.610	63.492	107.470	172.121	133.341	-106.334	0.00018799	0.00026414	0.00022853	996.4	6.4788e-06	4.4888e-06	848.02	328.53	1.6599e-06	4.5016e-06	291.16	96.206	107.52	41.361	6.3923e-06	44.327	0.0053283	0.012439	0.0035146	1029.9	0.00011636	0.00014339	880.37	343.38	0.00011746	0.00014372	307.87	103.15	114.41	43.995	0.0001233	47.454	-86.239	45.053	-31.209	-97.032	-48.970	33.830	-98.238	-91.335	64.560	141.837	-93.868	-88.041	-86.533	-81.665	64.495	-84.360	-8191	255	
31507.031	1	1	0	0	0.21561	0.11173	0.27269	0.31247	0.10033	0.2354	0.030736	0.10147	0.11819	0.20746	0.27765	0.23582	0.18497	0.0885	0.23379	0.215	-2.2938	-2.5292	-2.1146	-3.1667	-2.3063	-2.3854	-3.125	-2.3208	-2.8042	-2.6583	-2.1271	-3.0542	-2.3833	-2.2562	-3.0771	-2.2542	175.956	-84.228	221.737	199.426	-48.285	84.916	116.175	-61.548	158.009	197.881	183.340	-87.591	144.935	234.894	-100.989	234.176	0.00021411	0.00078893	1.5174e-05	997.99	9.1868e-06	5.5429e-06	847.49	328.65	1.612e-06	1.0769e-05	291.88	96.643	108.11	41.568	2.9553e-06	44.824	0.0053359	0.012436	0.0034921	1030.7	0.0001155	0.00014255	882.19	344.43	0.00011646	0.00014203	309.69	103.69	114.81	44.242	0.00012391	47.888	-90.234	-34.223	-18.758	-97.018	40.377	-83.211	-98.205	-91.560	127.045	26.448	-93.442	-88.302	-86.195	-81.710	13.174	-84.245	-8191	255	
31507.129	1	1	0	0	0.3354	0.055398	0.23761	0.1799	0.218	0.17519	0.14239	0.14375	0.038233	0.24464	0.14105	0.015929	0.20118	0.29518	0.05002	0.20769	-2.4	-2.6958	-2.1937	-3.0958	-2.5146	-2.2708	-3.2188	-2.3229	-2.5125	-2.8979	-2.1458	-2.9646	-2.5583	-2.3958	-3.0229	-2.4208	178.293	195.203	82.002	209.431	166.774	114.860	191.111	107.031	234.762	40.939	170.433	121.426	180.068	188.244	125.194	113.812	0.0001703	0.00044417	0.00010182	1001.1	1.4532e-06	6.5391e-06	858.6	331.93	3.6241e-06	6.8251e-06	293.74	97.289	108.58	41.691	2.9957e-06	44.796	0.005358	0.012407	0.0035113	1035.6	0.00011442	0.00014242	890.59	346.47	0.00011658	0.0001398	312.39	104.31	115.46	44.315	0.00012522	47.791	-67.176	-57.079	23.116	-96.846	121.001	36.570	-98.067	-91.649	98.694	40.453	-93.648	-88.060	-86.291	-81.670	93.791	-83.858	-8191	255	
31507.225	1	1	0	0	0.045251	0.2231	0.19081	0.23695	0.094622	0.15327	0.16389	0.24519	0.050617	0.071329	0.030922	0.18341	0.18465	0.12788	0.29018	0.15914	-2.2875	-2.6042	-2.0375	-2.9229	-2.4833	-2.1937	-3.1271	-2.3937	-2.4375	-2.9771	-2.3979	-2.8563	-2.7229	-2.3042	-3.0625	-2.3896	8.326	24.693	49.013	205.720	-22.019	168.749	220.237	197.910	59.715	214.278	160.348	-88.241	213.632	-103.788	143.759	103.967	0.00025415	0.00030983	6.4049e-05	1001.1	1.1459e-05	7.3711e-06	850.85	331.41	8.035e-07	4.3899e-06	293.36	96.916	108.13	41.631	8.5814e-06	44.54	0.0053071	0.012576	0.0035525	1036.4	0.00011503	0.00014229	883.53	345.39	0.000116	0.00014052	309.72	103.73	114.87	44.229	0.0001227	47.554	-75.928	23.901	-46.820	-96.701	95.393	14.632	-97.997	-91.456	-55.088	42.525	-93.507	-88.085	-86.216	-81.566	100.401	-83.926	-8191	255	
31507.320	1	1	0	0	0.22568	0.2068	0.12377	0.15514	0.088236	0.24457	0.21803	0.18445	0.15927	0.097524	0.28293	0.13924	0.11996	0.045776	0.10921	0.096551	-2.0333	-2.8458	-2.0542	-2.7979	-2.6292	-2.1104	-3.0083	-2.5958	-2.4125	-2.9521	-2.2	-2.6854	-2.7125	-2.3875	-3.1208	-2.4479	192.982	-84.327	194.957	-94.987	228.929	230.561	178.178	249.246	181.043	-35.044	211.906	239.133	-43.369	-53.351	112.538	128.414	0.00022087	0.00034992	0.00016472	1001.9	6.8401e-06	4.3877e-06	851.82	331.66	6.2926e-07	5.1825e-06	291.76	97.041	108.66	42.014	2.3023e-06	45.115	0.0052519	0.012389	0.0034748	1034.7	0.00011375	0.00014304	885.47	345.83	0.0001143	0.00013948	310.18	104.05	115.18	44.424	0.00012353	47.965	-89.550	-66.939	-19.222	-96.861	5.535	-3.338	-97.994	-91.531	56.541	50.149	-93.532	-88.123	-86.433	-81.859	114.272	-84.056	-8191	255	
31507.414	1	1	0	0	0.15111	0.19662	0.041509	0.17681	0.12712	0.13638	0.21663	0.24635	0.094098	0.26247	0.064079	0.18642	0.18807	0.20666	0.11213	0.10321	-1.9292	-2.9938	-2.1667	-2.6792	-2.9062	-2.0667	-3.0521	-2.5604	-2.1396	-2.9375	-2.2979	-2.6542	-2.9125	-2.1208	-2.7479	-2.5542	-74.122	23.364	-47.973	128.997	-50.719	180.847	179.408	-106.141	115.684	122.498	-62.660	200.357	-45.780	225.423	33.855	220.047	0.0002448	0.00050464	0.0001786	1001.8	6.6556e-07	7.2993e-06	856.4	330.62	1.1483e-06	5.6437e-06	293.42	97.867	109.09	42.089	5.8157e-06	45.147	0.0053208	0.012297	0.0034849	1036.7	0.00011373	0.00014169	889.45	346.56	0.00011576	0.00014038	312.96	104.77	115.79	44.642	0.0001241	48.226	-89.983	-33.215	-11.894	-96.826	-42.314	25.220	-98.041	-91.503	120.795	40.566	-93.766	-88.279	-86.240	-81.690	38.757	-84.157	-8191	255	
31507.512	1	1	0	0	0.068178	0.088802	0.21832	0.093901	0.11604	0.24778	0.25875	0.42325	0.07361	0.24325	0.18814	0.25092	0.20618	0.0044206	0.15371	0.25366	-1.8333	-2.9958	-2.1896	-2.7083	-2.8896	-2.0125	-2.9167	-2.7021	-2.1396	-3.0542	-2.3292	-2.3479	-2.9958	-2.0438	-2.9229	-2.6896	222.006	238.434	219.453	219.367	35.709	-66.081	224.697	184.073	-0.290	-70.456	230.493	-72.808	-73.423	96.364	196.577	103.489	0.00023059	0.00059349	0.00023576	1010.5	3.2866e-06	1.6698e-06	864.59	332.65	2.9895e-06	5.2438e-06	294.66	97.595	109.52	42.201	1.4597e-06	44.799	0.0053347	0.012465	0.0035614	1043	0.00011452	0.00014243	897.45	348.08	0.00011644	0.00014362	312.81	104.54	115.91	44.558	0.00012436	47.828	-103.345	-0.679	-34.970	-96.939	95.801	180.655	-98.130	-91.247	-16.923	71.092	-93.460	-87.850	-86.358	-81.571	143.403	-84.064	-8191	255	
31507.631	1	1	0	0	0.26895	0.24663	0.25282	0.21224	0.062994	0.17408	0.19743	0.11546	0.18795	0.14253	0.4411	0.27369	0.07209	0.15364	0.17909	0.18013	-1.6562	-2.9625	-2.4083	-2.6229	-3.025	-2.2	-2.925	-2.8542	-2.1875	-2.975	-2.4208	-2.1188	-3.2042	-2.1625	-2.5271	-2.8438	121.271	-8.636	199.721	-100.790	-93.068	199.268	200.186	200.984	-92.051	137.070	194.766	-86.472	-95.818	41.043	-0.748	-95.842	0.00025327	0.000657	0.00012373	1005.1	9.8265e-06	6.7141e-06	856.74	331.69	3.168e-06	7.4873e-06	292.13	96.852	108.78	41.677	6.7493e-07	44.543	0.005363	0.012535	0.0035341	1039.2	0.00011467	0.00014447	889.33	346.74	0.00011586	0.00014175	310.29	103.74	115.39	44.312	0.00012485	47.635	-73.436	-23.632	-33.686	-96.822	50.045	-12.205	-98.311	-91.389	-25.154	1.698	-93.831	-88.001	-86.464	-81.728	73.971	-84.173	-8191	255	
31507.727	1	1	0	0	0.27168	0.11542	0.14398	0.12237	0.051296	0.2685	0.20145	0.14592	0.16157	0.11709	0.14876	0.091544	0.06706	0.17701	0.16681	0.22944	-1.7271	-2.9313	-2.5417	-2.1604	-2.9792	-2.1542	-2.6917	-2.9208	-1.9	-2.7812	-2.5958	-2.2021	-3.0292	-2.3375	-2.5167	-3.0125	-40.008	71.326	4.783	-69.792	62.281	75.579	-59.902	-91.377	-53.002	26.387	208.246	-82.524	127.836	139.025	67.423	-34.805	0.00024071	0.00050015	0.00013792	1005.3	1.6096e-06	7.3183e-06	854.34	331.2	1.0005e-06	7.8553e-06	291.63	97.039	108.8	41.846	3.7295e-06	44.727	0.0053214	0.012534	0.0034861	1038.9	0.00011426	0.00014406	888.56	346.44	0.00011536	0.00014098	310.33	104	115.62	44.523	0.00012396	47.959	-88.474	-40.018	-28.352	-96.651	244.288	39.776	-98.157	-91.262	-104.803	73.736	-93.741	-87.831	-86.209	-81.490	195.660	-83.823	-8191	255	
31507.799	1	1	0	0	0.15878	0.035367	0.16922	0.096103	0.021006	0.27401	0.12611	0.12983	0.20929	0.15467	0.16669	0.05517	0.28278	0.10471	0.15579	0.11163	-1.6771	-2.6979	-2.5833	-2.2062	-2.9792	-2.2667	-2.5979	-3.175	-2.0167	-2.7917	-2.7833	-2.2583	-2.9958	-2.575	-2.4833	-3.0854	-45.942	124.868	192.228	217.793	73.743	55.378	231.060	199.030	12.298	233.021	146.996	240.464	121.446	209.421	141.298	186.997	0.00021624	0.00033377	0.00011809	1003.9	4.2651e-06	1.6993e-06	859.27	333.75	8.5575e-07	1.0165e-05	295.34	98.05	109.56	42.087	8.5135e-06	45.271	0.0053559	0.012363	0.0035061	1038.3	0.00011529	0.00014257	892.51	347.82	0.00011667	0.00014195	313.16	105.15	116.24	44.744	0.00012436	48.43	-73.300	89.432	2.852	-96.994	28.872	-59.522	-98.084	-91.248	238.115	29.104	-93.813	-88.221	-86.646	-81.676	64.786	-84.222	-8191	255	
31507.895	1	1	0	0	0.16956	0.22931	0.062696	0.17147	0.1933	0.16467	0.25246	0.30518	0.22567	0.15739	0.36951	0.36241	0.25856	0.10587	0.18444	0.18678	-1.7687	-2.5563	-2.6354	-2.2208	-3.0896	-2.4062	-2.4104	-3.1458	-1.9875	-2.5042	-2.8583	-1.975	-3.1	-2.4354	-2.125	-2.9771	-101.484	-6.849	123.207	137.184	220.047	-60.906	-97.164	196.348	142.908	-25.330	240.961	-42.123	237.246	-82.490	34.710	229.432	0.00027611	0.00084956	0.00021302	1005.5	8.5109e-06	5.9529e-06	863.5	333.09	8.4242e-06	1.7651e-06	296.27	97.516	109	42.319	3.2203e-06	45.077	0.005408	0.012526	0.0035083	1041.7	0.00011491	0.00014278	896.13	348.27	0.00011763	0.00014188	313.22	104.89	116.05	44.823	0.00012375	48.186	-71.190	-34.865	-9.684	-96.709	28.661	122.882	-97.997	-91.480	37.392	-57.863	-93.480	-88.087	-86.592	-81.691	42.997	-84.143	-8191	255	
31508.016	1	1	0	0	0.13194	0.068593	0.218	0.12144	0.22562	0.080932	0.13984	0.18678	0.12027	0.21528	0.17012	0.37693	0.20795	0.42136	0.18749	0.2015	-1.6729	-2.4458	-2.9	-2.1896	-2.6562	-2.4583	-2.2438	-3.0563	-2.2208	-2.4979	-3.0021	-2.15	-2.8187	-2.7896	-1.9896	-3.1771	32.936	130.170	-53.755	-60.622	-62.687	125.381	61.671	138.960	176.953	212.067	184.525	221.535	159.605	-85.534	-89.099	175.435	0.00014725	0.00038289	0.0002381	1003.9	7.1161e-06	6.5668e-06	856.9	332.67	2.7786e-06	2.7181e-06	293.96	97.799	109.67	42.09	5.5106e-06	45.481	0.0053624	0.012448	0.0034881	1039.4	0.00011435	0.00014168	890.07	347.67	0.00011491	0.00014037	312.02	104.61	116	44.712	0.00012295	48.374	-88.037	-56.364	-15.747	-96.782	-9.610	82.346	-97.945	-91.301	25.403	4.899	-93.367	-88.137	-86.525	-81.444	91.219	-83.940	-8191	255	
31508.111	1	1	0	0	0.37968	0.09535	0.095865	0.023779	0.050777	0.058973	0.27121	0.173	0.1058	0.26609	0.039547	0.067096	0.30267	0.27589	0.15108	0.14454	-1.8292	-2.5354	-2.9437	-2.3458	-2.7396	-2.6125	-2.2792	-3.0146	-2.3812	-2.3104	-3.0083	-2.2375	-2.7125	-2.7812	-2.1	-2.7646	37.131	-46.745	117.454	11.862	120.917	-80.038	202.886	21.810	77.057	-20.916	-31.140	91.505	228.248	-105.403	-73.800	190.087	0.00021116	0.00055018	9.6479e-05	998.64	9.1087e-06	1.064e-06	864.24	333.16	1.9271e-06	3.2783e-06	295.96	98.061	110.03	42.313	4.6163e-06	45.511	0.0052425	0.012439	0.0034529	1035.7	0.00011286	0.00014037	891.87	347.68	0.0001159	0.00013902	313.48	105.12	116.48	44.903	0.00012297	48.542	-64.889	-46.986	233.204	-97.021	147.467	130.426	-98.144	-91.220	-99.422	4.370	-93.693	-88.019	-86.074	-81.328	59.520	-83.909	-8191	255	
31508.207	1	1	0	0	0.25968	0.16189	0.16975	0.1137	0.18455	0.13074	0.12187	0.12483	0.19869	0.16969	0.078294	0.18679	0.3409	0.29223	0.19742	0.42197	-2.1	-2.1	-2.9896	-2.4792	-2.5208	-2.6937	-2.2354	-2.9917	-2.3896	-2.1167	-3.0812	-2.3417	-2.6375	-2.8021	-2.0938	-3.05	126.975	190.243	231.493	-70.604	219.156	-53.987	193.600	227.787	169.551	-74.963	114.733	205.179	202.051	-97.108	240.615	234.631	0.00022058	0.00016947	0.0002931	1009.4	1.0298e-05	4.4009e-06	864.03	335.33	5.0276e-06	3.6601e-06	297.51	98.494	109.76	42.569	6.0127e-06	45.686	0.0053209	0.012406	0.0035207	1043.1	0.00011471	0.00014321	897.68	349.82	0.00011622	0.00014148	314.87	105.57	116.65	45.042	0.00012353	48.77	-97.631	-86.813	-2.088	-97.037	23.713	108.899	-98.006	-91.347	5.847	-79.659	-93.621	-88.047	-86.087	-81.501	76.277	-83.890	-8191	255	
31508.305	1	1	0	0	0.11381	0.045157	0.016582	0.10512	0.077357	0.054276	0.25991	0.060447	0.32515	0.1465	0.059346	0.11788	0.135	0.096998	0.053653	0.14608	-2.1854	-2.1021	-2.9042	-2.2208	-2.3167	-2.9125	-2.1354	-2.8958	-2.5563	-2.1833	-2.8458	-2.2458	-2.4604	-2.9354	-2.0479	-2.85	-107.614	-27.506	82.664	-97.382	-65.399	226.480	209.403	190.540	94.481	-16.591	215.192	37.416	243.244	140.662	-10.063	156.814	0.0002656	0.00020923	5.1221e-05	1010.5	1.0834e-06	1.9663e-06	865.32	335.09	5.1096e-06	7.2149e-06	296.7	97.948	109.79	42.171	3.981e-06	45.266	0.0053144	0.0124	0.0034903	1045.7	0.00011346	0.00013997	897.97	349.83	0.00011547	0.00014058	314.47	104.84	116.38	44.767	0.0001235	48.222	-84.175	-57.898	29.133	-96.892	182.713	101.902	-97.995	-91.342	41.532	28.901	-93.488	-88.140	-86.152	-81.665	35.616	-84.213	-8191	255	
31508.424	1	1	0	0	0.11603	0.1196	0.20793	0.20861	0.19447	0.10204	0.33553	0.27492	0.19152	0.11987	0.051419	0.17772	0.12728	0.32482	0.22225	0.11085	-2.1729	-2.0396	-2.8312	-2.3979	-2.3146	-3.0062	-2.3396	-2.8229	-2.5667	-1.9438	-3.1813	-2.4313	-2.1375	-2.9042	-2.0833	-2.5667	-83.612	-27.701	20.822	179.275	-84.590	171.209	-70.962	185.022	88.428	89.730	-92.397	-14.436	198.676	-104.460	249.176	-22.221	0.00024805	0.00037972	0.00021282	1010.3	5.8887e-06	4.1665e-06	861.38	334.11	6.0705e-06	3.4153e-06	296.08	98.104	109.49	42.065	1.6151e-06	45.16	0.005218	0.012333	0.003485	1042.2	0.00011333	0.00014169	893.34	348.43	0.0001143	0.00014036	312.29	104.61	115.89	44.691	0.00012286	48.114	-91.992	-82.555	-2.723	-97.059	108.445	92.503	-98.029	-91.198	67.185	35.330	-93.432	-88.172	-86.255	-81.529	90.324	-83.748	-8191	255	
31508.494	1	1	0	0	0.086084	0.31373	0.07432	0.32319	0.1248	0.13139	0.28294	0.34243	0.029303	0.044415	0.11065	0.15309	0.21692	0.13779	0.045508	0.18351	-2.3792	-2.0438	-2.8833	-2.5292	-2.2167	-3.0146	-2.2583	-2.6208	-2.8542	-2.2958	-3.0146	-2.6271	-2.1479	-3.0979	-2.3104	-2.4604	51.082	60.000	-102.361	-103.595	109.805	134.577	156.991	-61.332	101.534	199.857	68.113	32.018	-107.373	-11.009	168.514	97.423	0.00021509	0.00039523	0.00015616	1006.6	3.8444e-06	8.525e-06	854.64	332.45	5.4745e-06	2.6308e-06	293.81	97.768	108.83	42.138	5.0812e-06	45.211	0.0052442	0.012213	0.0034331	1038	0.00011149	0.00013976	889.41	347.72	0.00011289	0.00013862	312.29	104.38	115.76	44.677	0.00012124	48.213	-80.874	0.449	69.298	-96.850	97.538	53.099	-98.360	-91.441	30.866	-19.651	-93.592	-88.042	-86.071	-81.472	34.991	-83.896	-8191	255	
31508.594	1	1	0	0	0.12959	0.10707	0.061443	0.12569	0.11778	0.068927	0.18231	0.098512	0.13401	0.18769	0.17459	0.27671	0.21403	0.072594	0.067683	0.17448	-2.4875	-2.1	-2.6479	-2.7708	-2.0125	-3.0083	-2.4521	-2.5563	-2.8083	-2.2146	-2.85	-2.85	-2.0875	-2.9583	-2.3958	-2.3625	154.359	188.811	218.845	-7.086	-70.108	-46.397	91.913	-7.270	168.553	3.732	-82.139	215.070	191.934	227.810	26.371	170.452	0.0001698	0.00026274	0.00023627	1001.7	6.5756e-06	2.3971e-06	861.72	332.42	4.0199e-06	6.5239e-06	297.01	98.092	109.05	42.34	3.446e-06	45.394	0.0052237	0.012232	0.0034502	1037.5	0.00011092	0.00013957	894.44	348.24	0.00011344	0.00013972	313.43	104.95	116.21	44.851	0.00012256	48.3	-73.574	-29.092	-42.699	-97.127	80.556	-28.880	-98.238	-91.340	76.715	53.044	-93.680	-87.829	-86.271	-81.829	35.175	-84.127	-8191	255	
31508.713	1	1	0	0	0.18763	0.13464	0.1747	0.20958	0.07603	0.14201	0.068312	0.20217	0.23593	0.088757	0.12794	0.060675	0.061912	0.042712	0.2609	0.17386	-2.4813	-1.9958	-2.6063	-2.9062	-1.7458	-2.8	-2.6542	-2.4208	-2.9688	-2.1625	-2.7083	-2.7708	-2.0479	-2.9771	-2.5542	-2.4437	182.887	-102.832	60.965	236.538	246.386	19.350	-95.813	143.909	41.959	-77.923	202.551	164.877	53.625	226.104	184.533	245.114	0.00024339	0.00077862	5.6465e-05	1004.3	2.5689e-06	7.013e-06	857.23	333.16	4.01e-06	3.5806e-06	293.45	97.017	108.96	42.115	8.6804e-07	45.077	0.0052747	0.012392	0.0034178	1039.2	0.00011347	0.0001398	890.55	347.65	0.00011415	0.0001403	311.08	104.03	115.66	44.548	0.00012168	47.865	-72.328	-20.401	-12.523	-96.803	68.686	62.455	-98.369	-91.506	106.294	52.780	-93.624	-88.052	-86.292	-81.801	35.346	-84.391	-8191	255	
31508.809	1	1	0	0	0.23487	0.16311	0.17962	0.32611	0.15	0.22256	0.13078	0.028352	0.10891	0.17023	0.091443	0.11326	0.073809	0.11806	0.041887	0.35286	-2.6813	-2.1833	-2.6021	-2.9396	-2.1771	-3.0375	-2.8125	-2.3167	-2.9354	-2.1604	-2.5438	-2.7208	-2.0792	-2.8771	-2.7167	-2.1063	-106.286	38.773	134.409	226.671	209.017	75.749	125.852	21.385	250.464	-65.724	-88.147	45.705	79.237	134.109	166.488	-40.334	0.00023383	0.0003799	0.00010642	1003.8	3.9071e-06	5.1355e-06	850.62	331.84	6.299e-07	9.1694e-06	291.62	96.974	108.73	42.159	5.7627e-06	44.808	0.0052849	0.012471	0.0034768	1034.9	0.00011442	0.00014114	884.79	346.23	0.00011574	0.00014038	309.66	103.71	115.41	44.574	0.00012344	47.83	-90.927	-74.089	-3.327	-96.992	64.128	-32.252	-98.431	-91.259	100.614	12.605	-93.464	-88.055	-86.342	-81.753	79.684	-84.124	-8191	255	
31508.904	1	1	0	0	0.2614	0.20262	0.16851	0.16729	0.18375	0.16147	0.31986	0.27341	0.092132	0.026903	0.083056	0.039184	0.24528	0.34396	0.10264	0.027924	-2.5708	-2.3187	-2.3792	-3.1375	-1.9896	-2.7438	-2.8833	-2.2979	-2.9313	-2.4854	-2.3875	-2.9125	-2.1292	-2.7729	-2.8063	-2.1979	-6.937	74.941	-57.569	187.981	96.602	-61.521	127.778	193.706	-68.298	-84.787	-105.029	187.925	-84.351	199.994	-29.007	211.671	0.00015752	0.0014434	0.00019364	993.88	1.2079e-06	4.6728e-06	846.61	330.4	2.5601e-06	6.3933e-06	294.05	96.978	108.09	42.159	1.134e-06	45.374	0.0052951	0.012501	0.0034691	1029	0.00011439	0.0001416	881.57	345.21	0.0001156	0.00014085	310.54	104.06	115.11	44.659	0.00012294	48.185	-91.700	-40.924	-28.578	-97.028	34.937	5.605	-98.107	-91.406	37.705	59.522	-93.488	-87.881	-86.226	-81.535	84.652	-84.061	-8191	255	
31509.025	1	1	0	0	0.13991	0.14537	0.20914	0.14383	0.25834	0.18963	0.13506	0.17814	0.25812	0.21962	0.22491	0.068638	0.19278	0.23535	0.33372	0.12448	-2.7083	-2.3937	-2.0938	-3.1875	-2.1146	-2.4646	-2.8667	-2.2083	-2.8125	-2.5333	-2.15	-3.1396	-2.4333	-2.6375	-2.7458	-2.0938	209.662	62.673	15.693	184.908	192.037	-60.149	102.598	-46.403	50.275	43.295	207.468	-25.411	-37.602	-88.994	95.038	142.738	0.00022331	0.00068504	0.00014983	994	5.902e-06	2.4991e-06	853.66	331.94	4.4072e-06	5.9786e-06	293.95	98.189	109.16	42.042	6.7052e-06	45.485	0.0052981	0.012271	0.0035177	1029.4	0.00011512	0.00014401	885.91	345.9	0.00011551	0.00014188	312.15	104.8	116	44.758	0.00012408	48.447	-95.453	-2.894	-22.637	-96.832	48.695	-80.423	-98.088	-91.413	43.689	85.442	-93.482	-87.848	-86.346	-81.650	62.416	-84.093	-8191	255	
31509.096	1	1	0	0	0.077302	0.28197	0.1151	0.1556	0.14024	0.10218	0.23229	0.067403	0.23932	0.10292	0.1342	0.21508	0.26439	0.1394	0.13987	0.19664	-2.4167	-2.5438	-2.0271	-3.1	-2.1604	-2.2958	-3.0708	-2.1646	-2.7958	-2.7479	-2.075	-2.9417	-2.3583	-2.5042	-3.0458	-2.1562	140.863	50.926	155.115	235.509	86.366	217.921	-79.874	185.146	-102.028	1.556	-55.388	164.537	231.967	236.079	56.845	208.832	0.00018652	0.00067811	0.00012225	997.13	2.0233e-06	2.9935e-06	852.43	331.26	1.3947e-06	2.5728e-06	291.93	96.734	108.68	41.942	4.0561e-06	44.945	0.0052759	0.012375	0.0035051	1033.2	0.00011539	0.00014193	886.39	346.04	0.00011624	0.00014157	310.57	104.15	115.41	44.528	0.00012318	47.974	-100.946	-66.456	20.058	-96.774	28.639	71.368	-98.049	-91.539	119.248	72.389	-93.464	-87.788	-86.261	-81.537	-60.831	-83.974	-8191	255	
31509.191	1	1	0	0	0.41957	0.28121	0.084174	0.13474	0.11076	0.15782	0.10765	0.10852	0.094279	0.22724	0.13282	0.11339	0.019983	0.157	0.082234	0.39496	-2.2396	-2.6875	-2.1292	-2.7083	-2.5792	-2.3458	-3.1063	-2.2021	-2.8792	-2.6375	-2.1729	-2.9396	-2.3896	-2.4542	-2.9958	-2.2167	137.944	170.281	-16.418	235.398	-54.822	220.214	220.863	123.243	48.181	117.007	243.738	88.487	123.424	238.105	-79.688	133.463	0.00027716	0.00086546	7.3862e-05	996.89	4.4502e-06	1.0181e-05	852.38	330.59	3.4775e-06	6.4242e-06	292.27	97.526	108.56	42.011	3.1562e-06	45.109	0.0053112	0.012357	0.0034757	1029.5	0.00011437	0.00014171	884.64	345.6	0.00011642	0.00014048	310.21	104.23	115.3	44.595	0.00012382	48.024	-77.196	-43.668	232.335	-96.803	28.619	44.021	-98.127	-91.386	48.965	43.079	-94.057	-88.083	-86.693	-81.819	62.298	-84.370	-8191	255	
31509.312	1	1	0	0	0.34739	0.095462	0.21258	0.15109	0.15368	0.23987	0.24463	0.3108	0.16426	0.10039	0.069393	0.22022	0.25171	0.38533	0.093716	0.20502	-2.2875	-2.8042	-1.9896	-2.8937	-2.5854	-2.0687	-3.175	-2.4667	-2.5417	-2.9229	-2.0292	-2.7812	-2.6896	-2.2604	-2.7667	-2.5958	82.787	105.133	213.770	-106.037	101.849	-64.127	247.728	138.722	-41.505	237.778	159.678	86.734	-107.393	207.034	43.325	174.583	0.00019508	0.00023425	0.00010344	997.08	1.8692e-06	8.767e-06	853.82	332.34	2.5574e-06	5.4331e-06	294.59	97.362	108.66	42.231	1.6246e-06	45.332	0.0053391	0.012472	0.00351	1032.6	0.00011378	0.00014225	887.21	346.62	0.00011512	0.00014013	312.04	104.51	115.67	44.778	0.00012499	48.254	-94.068	242.239	-32.677	-96.721	51.256	53.069	-98.282	-91.604	14.004	8.368	-93.724	-88.113	-86.650	-81.629	127.399	-84.098	-8191	255	
31509.406	1	1	0	0	0.079602	0.1792	0.23087	0.029138	0.1087	0.19215	0.0504	0.0037508	0.094403	0.0109	0.27288	0.10455	0.11961	0.25827	0.11656	0.18572	-2.05	-2.9458	-2.0771	-2.8417	-2.6875	-2.1063	-3.0604	-2.3167	-2.2812	-2.95	-2.0667	-2.5854	-2.8583	-2.1271	-2.9417	-2.4375	-41.003	-39.010	-34.404	-92.864	244.760	46.646	125.490	-109.374	12.024	-52.402	163.649	190.280	-92.645	189.293	126.032	221.689	0.00027481	0.00066075	0.00015023	1002.9	4.6164e-06	5.4987e-06	858.85	333.29	3.7214e-06	6.9248e-06	295.38	98.086	109.42	42.458	4.2457e-06	45.449	0.0053227	0.012406	0.0034977	1037.3	0.00011412	0.00014478	893.69	347.86	0.00011816	0.00014159	313.84	105.34	116.31	44.92	0.00012594	48.347	-72.781	11.163	-5.117	-97.171	18.584	46.020	-98.216	-91.449	117.534	58.670	-93.976	-88.128	-86.357	-81.439	48.933	-84.230	-8191	255	
31509.504	1	1	0	0	0.078796	0.10085	0.098289	0.2612	0.073177	0.20848	0.045531	0.057873	0.23355	0.30773	0.13808	0.094858	0.16199	0.21604	0.25878	0.049628	-1.8375	-2.8333	-2.0187	-2.7208	-2.7708	-1.9625	-2.9708	-2.5917	-2.1021	-2.8563	-2.2167	-2.625	-2.925	-2.1167	-2.8708	-2.5771	-30.695	-31.520	-13.988	148.565	-1.059	-4.681	-70.179	74.357	127.408	-108.655	199.494	82.056	91.470	-72.681	232.514	179.117	0.000243	0.00081017	0.00017908	1003.7	3.9408e-06	3.2317e-06	856.15	332.2	2.4206e-06	2.8975e-06	293.75	97.632	108.9	42.041	7.7677e-07	45.063	0.0053677	0.012587	0.003517	1039.2	0.00011499	0.00014353	890.3	346.92	0.00011639	0.00014287	311.65	104.38	115.79	44.677	0.00012482	48.002	-80.932	-30.395	-78.764	-96.731	90.984	48.448	-97.866	-91.354	246.750	34.421	-93.341	-87.816	-85.972	-81.314	228.948	-84.204	-8191	255	
31509.600	1	1	0	0	0.10849	0.15913	0.16698	0.23628	0.11955	0.34803	0.08295	0.2154	0.21279	0.15936	0.25838	0.18712	0.062873	0.32745	0.30266	0.038282	-1.6938	-3	-2.1021	-2.4771	-2.7625	-2.05	-2.7896	-2.6229	-2.075	-2.8458	-2.375	-2.5792	-2.8354	-2.0958	-2.7208	-2.7062	-88.947	163.429	29.069	-55.523	246.710	184.164	27.163	218.310	-20.440	24.472	-108.441	152.246	130.988	200.267	135.635	40.121	0.00019837	0.00093358	0.00011193	999.71	4.6849e-06	4.3201e-06	855.81	332.58	2.5652e-06	5.5012e-06	294.14	98.008	109.17	42.253	4.6972e-06	45.077	0.005341	0.012434	0.0034892	1036.1	0.00011439	0.00014328	887.81	346.74	0.00011701	0.0001413	311.93	104.86	115.86	44.781	0.00012321	48.255	-100.623	-4.856	-50.917	-96.748	70.589	-17.815	-98.135	-91.444	46.742	41.577	-93.717	-87.873	-86.338	-81.389	6.258	-84.177	-8191	255	
31509.674	1	1	0	0	0.26626	0.24159	0.27705	0.060349	0.19281	0.0097906	0.3632	0.076001	0.17774	0.27553	0.11431	0.24468	0.13181	0.1522	0.11535	0.11597	-1.7812	-2.8937	-2.4354	-2.5833	-2.8312	-2.0625	-2.6833	-2.9875	-1.9875	-2.85	-2.3896	-2.1958	-3.1729	-2.1188	-2.5187	-2.8063	-33.347	226.228	201.452	99.921	248.227	184.593	218.661	176.500	175.685	9.400	94.767	127.600	204.321	205.672	124.686	234.098	0.00028802	0.00066851	0.00019231	1000.2	4.7346e-06	7.9757e-06	861.04	333.12	6.0392e-06	3.5709e-06	296.04	98.408	109.42	42.448	5.0158e-06	45.755	0.0053251	0.012474	0.0034692	1036.1	0.00011373	0.00014326	890.85	347.54	0.00011646	0.00014007	313.35	105.27	116.29	44.986	0.00012456	48.732	-84.989	-16.341	-52.320	-96.681	47.457	44.528	-98.078	-91.204	58.453	-3.713	-93.581	-87.854	-86.414	-81.640	75.615	-83.858	-8191	255	
31509.793	1	1	0	0	0.2316	0.061852	0.22182	0.13267	0.16976	0.084124	0.34992	0.11204	0.1865	0.076956	0.27772	0.12338	0.2331	0.13648	0.13954	0.14274	-1.6625	-2.8417	-2.2375	-2.4896	-3.0563	-2.1	-2.725	-2.8271	-2.275	-2.875	-2.6271	-2.2042	-2.9083	-2.2	-2.3812	-3.0042	-62.066	18.996	-60.879	65.109	13.492	238.670	190.432	180.224	-43.583	-108.129	117.372	189.867	205.155	-106.335	25.178	169.223	0.00028567	0.00050039	0.0001954	1008.3	4.819e-06	7.6742e-06	865.64	334.59	2.7804e-06	2.1481e-06	297.97	98.888	109.71	42.607	1.3728e-06	45.79	0.0053139	0.012513	0.0035197	1040.4	0.00011597	0.00014224	898.87	349.24	0.00011714	0.00014174	315.66	106.09	116.51	45.133	0.00012421	48.866	-88.573	-44.058	-2.218	-97.206	61.901	36.801	-98.313	-91.642	-45.093	82.824	-94.171	-88.500	-86.429	-82.000	194.652	-84.392	-8191	255	
31509.889	1	1	0	0	0.31867	0.014476	0.2608	0.15524	0.2119	0.15966	0.25678	0.21606	0.19384	0.20595	0.025618	0.1053	0.13864	0.10645	0.096527	0.23865	-1.6333	-2.6333	-2.5521	-2.3729	-2.8542	-2.4188	-2.5375	-2.8792	-2.0292	-2.8917	-2.7021	-2.1417	-2.9083	-2.4313	-2.4229	-3.0708	125.793	108.825	159.979	-96.592	138.644	55.107	226.969	95.355	214.087	-93.646	66.547	192.069	-38.567	-82.508	126.875	162.053	0.00021836	0.00045594	0.00021127	1004	2.1198e-06	5.5654e-06	860.04	332.89	8.5557e-06	1.941e-06	295.23	98.034	109.35	42.45	1.9907e-06	45.586	0.0053339	0.012425	0.0034945	1038.7	0.00011429	0.00014221	893.83	347.7	0.00011733	0.00014242	313.48	105.24	116.27	44.923	0.00012299	48.568	-80.162	-88.594	-29.852	-97.156	3.294	9.404	-98.261	-91.737	11.081	-22.407	-94.132	-88.302	-86.636	-82.235	3.136	-84.570	-8191	255	
31509.984	1	1	0	0	0.32906	0.28271	0.29098	0.29125	0.34933	0.43347	0.14975	0.093423	0.37671	0.083552	0.23781	0.2386	0.28668	0.1341	0.04125	0.1658	-1.7792	-2.9437	-2.7	-2.1104	-2.8604	-2.4437	-2.3417	-2.8063	-2.1208	-2.7062	-2.7479	-2.0583	-2.8792	-2.2687	-1.9813	-2.9708	-9.867	74.216	-53.641	-55.242	116.411	-105.920	34.585	6.946	169.709	-6.116	218.079	-7.279	225.204	82.169	161.870	70.606	0.00023588	0.00061938	4.5348e-05	1003.1	5.4635e-06	6.8391e-06	859.24	332.18	3.255e-06	3.5523e-06	295.66	97.846	109.52	42.441	4.4311e-06	45.664	0.0053356	0.012493	0.0035168	1037.4	0.00011575	0.00014191	891.75	347.33	0.00011603	0.00014064	313.25	105.17	116.25	44.996	0.00012406	48.608	-78.141	-49.519	118.549	-97.235	42.668	53.876	-98.577	-91.888	62.685	57.304	-93.947	-88.367	-86.845	-81.969	53.090	-84.352	-8191	255	
31510.105	1	1	0	0	0.059463	0.023778	0.36064	0.25707	0.073168	0.11338	0.14795	0.24432	0.1666	0.33272	0.26136	0.033169	0.2228	0.10565	0.028987	0.29312	-1.8188	-2.5396	-2.675	-2.2083	-2.7854	-2.4583	-2.4458	-3.0417	-2.2521	-2.3917	-2.8458	-2.0062	-2.8125	-2.6583	-2.1188	-2.8896	59.277	101.526	117.594	162.122	-109.489	120.765	240.066	231.448	67.214	-107.343	211.055	-102.183	189.929	152.416	-3.217	130.195	0.00018827	0.00067657	0.00010228	1004.4	8.323e-06	4.6195e-06	865.72	333.38	4.4947e-06	4.8532e-06	297.2	98.684	109.61	42.627	3.8475e-06	45.935	0.0053089	0.012446	0.0035224	1038.6	0.00011549	0.00014292	896.42	348.82	0.00011717	0.00014315	314.77	105.6	116.59	45.147	0.00012463	48.955	-77.253	-62.979	6.968	-97.424	69.257	22.429	-98.618	-91.943	-54.635	64.057	-93.854	-88.567	-86.686	-81.878	2.141	-84.536	-8191	255	
31510.201	1	1	0	0	0.29749	0.13281	0.24986	0.13761	0.27907	0.1604	0.19173	0.15079	0.051713	0.14541	0.065459	0.31285	0.069136	0.29519	0.12764	0.13094	-1.8563	-2.2146	-2.95	-2.1479	-2.7604	-2.7562	-2.2958	-3.0563	-2.0917	-2.3	-3.0354	-2.0708	-2.775	-2.8875	-2.05	-2.8833	69.485	231.031	226.063	230.548	-37.884	140.801	183.270	249.668	67.450	138.412	-69.455	225.212	94.179	-92.172	97.190	155.576	0.00020824	0.00043383	0.00030432	1009.6	1.9632e-06	2.9853e-06	871.49	335.99	4.859e-06	1.0714e-05	297.94	98.748	110.21	42.672	3.9288e-06	45.695	0.0053626	0.012483	0.0035399	1044.1	0.00011452	0.000144	901.62	350.36	0.00011792	0.00014256	316.16	106.07	117.01	45.252	0.00012514	48.913	-80.986	-4.200	-23.159	-97.093	12.456	-25.187	-98.320	-91.529	16.011	44.388	-93.931	-88.305	-86.406	-82.179	20.344	-84.247	-8191	255	
31510.297	1	1	0	0	0.22833	0.26595	0.27877	0.3033	0.17203	0.065639	0.17671	0.2341	0.10257	0.2521	0.19571	0.092903	0.40469	0.1882	0.1542	0.063502	-1.875	-2.0479	-2.9583	-2.3625	-2.6229	-2.7896	-2.175	-3.1375	-2.3042	-2.35	-3.1437	-2.0604	-2.6417	-2.9375	-2.1375	-2.85	138.069	-55.771	90.109	231.709	64.754	215.420	198.865	177.139	-101.014	211.048	174.193	171.597	247.951	169.883	-2.380	225.880	0.00021376	0.00016419	0.00013393	1002.2	8.4393e-06	9.1218e-06	860.38	333.97	1.4924e-06	2.7793e-06	295.46	97.977	109.2	42.375	5.8924e-06	45.635	0.0053815	0.012621	0.0035702	1038.3	0.00011725	0.00014427	893.59	348.74	0.00011658	0.0001427	313.72	105.24	116.22	45.045	0.00012449	48.643	-68.715	-57.812	-5.533	-97.274	32.994	53.358	-98.327	-91.514	62.626	94.285	-93.672	-88.380	-86.547	-81.904	29.263	-84.240	-8191	255	
#DATA ENDS
