BOXY.EXE: ISS Imagent and Oximeter Data Acquisition Program Version 0.80
Ascii Record File

#ACQ INFORMATION
2  Detector Channels 
16  External MUX Channels 
1  Auxiliary Channels 
5000  Waveform (CCF) Frequency (Hz)
1  Waveforms Skipped 
30  Waveforms Averaged 
1  Cycles Averaged 
16  Acquisitions per Waveform 
10.0806  Updata Rate (Hz) 

#FILE INFORMATION
TRUE -- External MUX Channel results are PARSED.
FALSE -- AC DC and Phase are NOT grouped.
TRUE -- Companion Program Settings File CREATED.
FALSE -- AC data not excluded
FALSE -- DC data not excluded
FALSE -- Phase data not excluded
FALSE -- Auxillary Chn. data not excluded
Tab delimiters

#CALIBRATION STATE
TRUE -- Waveform Calibration Values APPLIED.


#AUX CALIBRATION VALUES
Val Type	aux-1	

Term	1.0000e+00	
Factor	0.0000e+00	


#WF CALIBRATION VALUES
A = Detector Channel
Val Type	A-AC1	A-AC2	A-AC3	A-AC4	A-AC5	A-AC6	A-AC7	A-AC8	A-AC9	A-AC10	A-AC11	A-AC12	A-AC13	A-AC14	A-AC15	A-AC16	A-DC1	A-DC2	A-DC3	A-DC4	A-DC5	A-DC6	A-DC7	A-DC8	A-DC9	A-DC10	A-DC11	A-DC12	A-DC13	A-DC14	A-DC15	A-DC16	A-Ph1	A-Ph2	A-Ph3	A-Ph4	A-Ph5	A-Ph6	A-Ph7	A-Ph8	A-Ph9	A-Ph10	A-Ph11	A-Ph12	A-Ph13	A-Ph14	A-Ph15	A-Ph16	

Term	0.00000e+00	0.00000e+00	0.00000e+00	0.00000e+00	0.00000e+00	0.00000e+00	0.00000e+00	0.00000e+00	0.00000e+00	0.00000e+00	0.00000e+00	0.00000e+00	0.00000e+00	0.00000e+00	0.00000e+00	0.00000e+00	0.00000e+00	0.00000e+00	0.00000e+00	0.00000e+00	0.00000e+00	0.00000e+00	0.00000e+00	0.00000e+00	0.00000e+00	0.00000e+00	0.00000e+00	0.00000e+00	0.00000e+00	0.00000e+00	0.00000e+00	0.00000e+00	0.00000e+00	0.00000e+00	0.00000e+00	0.00000e+00	0.00000e+00	0.00000e+00	0.00000e+00	0.00000e+00	0.00000e+00	0.00000e+00	0.00000e+00	0.00000e+00	0.00000e+00	0.00000e+00	0.00000e+00	0.00000e+00	
Factor	1.00000e+00	1.00000e+00	1.00000e+00	1.00000e+00	1.00000e+00	1.00000e+00	1.00000e+00	1.00000e+00	1.00000e+00	1.00000e+00	1.00000e+00	1.00000e+00	1.00000e+00	1.00000e+00	1.00000e+00	1.00000e+00	1.00000e+00	1.00000e+00	1.00000e+00	1.00000e+00	1.00000e+00	1.00000e+00	1.00000e+00	1.00000e+00	1.00000e+00	1.00000e+00	1.00000e+00	1.00000e+00	1.00000e+00	1.00000e+00	1.00000e+00	1.00000e+00	X	X	X	X	X	X	X	X	X	X	X	X	X	X	X	X	

B = Detector Channel
Val Type	B-AC1	B-AC2	B-AC3	B-AC4	B-AC5	B-AC6	B-AC7	B-AC8	B-AC9	B-AC10	B-AC11	B-AC12	B-AC13	B-AC14	B-AC15	B-AC16	B-DC1	B-DC2	B-DC3	B-DC4	B-DC5	B-DC6	B-DC7	B-DC8	B-DC9	B-DC10	B-DC11	B-DC12	B-DC13	B-DC14	B-DC15	B-DC16	B-Ph1	B-Ph2	B-Ph3	B-Ph4	B-Ph5	B-Ph6	B-Ph7	B-Ph8	B-Ph9	B-Ph10	B-Ph11	B-Ph12	B-Ph13	B-Ph14	B-Ph15	B-Ph16	

Term	0.00000e+00	0.00000e+00	0.00000e+00	0.00000e+00	0.00000e+00	0.00000e+00	0.00000e+00	0.00000e+00	0.00000e+00	0.00000e+00	0.00000e+00	0.00000e+00	0.00000e+00	0.00000e+00	0.00000e+00	0.00000e+00	0.00000e+00	0.00000e+00	0.00000e+00	0.00000e+00	0.00000e+00	0.00000e+00	0.00000e+00	0.00000e+00	0.00000e+00	0.00000e+00	0.00000e+00	0.00000e+00	0.00000e+00	0.00000e+00	0.00000e+00	0.00000e+00	-4.94537e+01	-1.32809e+02	-1.23513e+02	-1.81272e+02	-4.96041e+01	-6.63140e+01	-1.58454e+02	-1.62015e+02	-4.15339e+01	-6.63104e+01	-1.70397e+02	-1.70056e+02	-1.81304e+02	-1.76553e+02	-5.05393e+01	-1.49279e+02	
Factor	1.87085e-05	1.43766e-04	4.24095e-05	1.53419e-01	1.53692e-06	1.72329e-06	1.65314e-01	5.65315e-02	1.29581e-06	1.63815e-06	8.74246e-02	2.87404e-02	2.54357e-02	8.54675e-03	1.52938e-06	1.21105e-02	1.62134e-05	3.95395e-05	1.11172e-05	7.86664e-02	3.62932e-07	4.53557e-07	7.97313e-02	2.91212e-02	3.67586e-07	4.50120e-07	4.36910e-02	1.44261e-02	1.32318e-02	4.45127e-03	3.92718e-07	6.10433e-03	X	X	X	X	X	X	X	X	X	X	X	X	X	X	X	X	



#DISTANCE SETTINGS
A = Detector Channel
A-1	A-2	A-3	A-4	A-5	A-6	A-7	A-8	A-9	A-10	A-11	A-12	A-13	A-14	A-15	A-16	

2.5000e+00	3.0000e+00	2.5000e+00	3.0000e+00	2.0000e+00	3.0000e+00	1.5000e+00	3.0000e+00	3.0000e+00	3.0000e+00	3.0000e+00	3.0000e+00	3.0000e+00	3.0000e+00	1.5000e+00	3.0000e+00	

B = Detector Channel
B-1	B-2	B-3	B-4	B-5	B-6	B-7	B-8	B-9	B-10	B-11	B-12	B-13	B-14	B-15	B-16	

1.0000e+01	1.0000e+01	1.0000e+01	1.4400e+00	1.0000e+01	1.0000e+01	1.5100e+00	1.9400e+00	1.0000e+01	1.0000e+01	1.9900e+00	2.4900e+00	2.4100e+00	2.9000e+00	1.0000e+01	2.9800e+00	




#DATA BEGINS
time	group	step	mark	flag	A-AC1	A-AC2	A-AC3	A-AC4	A-AC5	A-AC6	A-AC7	A-AC8	A-AC9	A-AC10	A-AC11	A-AC12	A-AC13	A-AC14	A-AC15	A-AC16	A-DC1	A-DC2	A-DC3	A-DC4	A-DC5	A-DC6	A-DC7	A-DC8	A-DC9	A-DC10	A-DC11	A-DC12	A-DC13	A-DC14	A-DC15	A-DC16	A-Ph1	A-Ph2	A-Ph3	A-Ph4	A-Ph5	A-Ph6	A-Ph7	A-Ph8	A-Ph9	A-Ph10	A-Ph11	A-Ph12	A-Ph13	A-Ph14	A-Ph15	A-Ph16	B-AC1	B-AC2	B-AC3	B-AC4	B-AC5	B-AC6	B-AC7	B-AC8	B-AC9	B-AC10	B-AC11	B-AC12	B-AC13	B-AC14	B-AC15	B-AC16	B-DC1	B-DC2	B-DC3	B-DC4	B-DC5	B-DC6	B-DC7	B-DC8	B-DC9	B-DC10	B-DC11	B-DC12	B-DC13	B-DC14	B-DC15	B-DC16	B-Ph1	B-Ph2	B-Ph3	B-Ph4	B-Ph5	B-Ph6	B-Ph7	B-Ph8	B-Ph9	B-Ph10	B-Ph11	B-Ph12	B-Ph13	B-Ph14	B-Ph15	B-Ph16	aux-1	digaux	

31253.807	1	1	0	768	0.043765	0.037835	0.053548	0.16037	0.35383	0.057714	0.12067	0.19937	0.13342	0.14171	0.17933	0.21489	0.22169	0.26171	0.28826	0.06248	-1.9813	-3.0687	-2.4646	-3.0146	-2.9708	-2.3875	-3.075	-2.8875	-2.3667	-3.1958	-2.6312	-2.7917	-3.3563	-2.6042	-2.9437	-3.0792	159.680	120.752	-28.931	224.626	284.441	226.731	-58.042	269.985	251.680	193.149	251.660	245.732	223.416	292.356	-33.858	37.904	0.00035522	0.00062208	0.00027346	1452.9	5.0523e-06	8.0264e-06	1392.6	539.29	7.1911e-06	7.5422e-06	611.19	230.13	184.16	78.199	5.9789e-06	113.44	0.0030326	0.0063687	0.0018093	1428.1	5.8354e-05	7.1462e-05	1370.3	534.06	5.8936e-05	6.9936e-05	607.81	230.51	184.21	78.271	6.1318e-05	113.33	236.615	33.555	46.209	-45.633	124.693	101.732	-45.852	-41.058	127.652	80.964	-41.850	-37.379	-36.235	-31.988	108.918	-33.707	-8191	255	
31253.902	1	1	0	0	0.35782	0.049444	0.18458	0.041767	0.08746	0.02208	0.20971	0.20242	0.12934	0.14585	0.14992	0.18872	0.31876	0.31339	0.10545	0.21889	-1.9667	-3.1146	-2.5458	-2.8104	-3.2292	-2.5875	-3.1271	-3.2583	-2.2146	-3	-2.65	-2.7438	-3.4229	-2.4875	-3.0646	-3.0854	265.712	281.354	58.973	95.362	197.571	164.019	228.533	281.878	140.717	29.720	-40.025	-24.443	242.420	-38.417	106.252	234.934	0.00038647	0.00099847	0.00035143	1446.5	4.8619e-06	6.9371e-06	1396	541.91	2.9124e-06	7.3226e-06	624.31	235.33	187.85	79.555	9.6495e-06	116.61	0.0029256	0.0060366	0.00172	1422.6	5.5544e-05	6.8861e-05	1375.2	537.29	5.75e-05	6.8342e-05	617.61	236.25	187.99	79.711	6.0951e-05	116.34	224.916	23.496	29.911	-45.719	121.647	71.238	-45.747	-41.090	165.262	68.175	-42.090	-37.408	-36.442	-32.001	136.146	-33.514	-8191	255	
31253.998	1	1	0	0	0.29272	0.10131	0.12294	0.31538	0.12292	0.12514	0.23039	0.2647	0.20085	0.16333	0.049977	0.24486	0.30045	0.30471	0.099878	0.11049	-1.8438	-3.1792	-2.6979	-2.6167	-3.3854	-2.2354	-2.9437	-3.3	-2.325	-3.0729	-2.8875	-2.6792	-3.4979	-2.5792	-2.5771	-3.2396	98.893	288.469	203.264	-39.131	289.581	104.569	258.061	260.443	-19.323	216.834	140.013	122.076	240.264	299.190	189.447	210.414	0.00039294	0.0004745	0.00023415	1458.5	5.114e-06	8.223e-06	1410.3	546.41	7.5026e-06	1.1911e-05	628.64	237.9	188.61	80.825	9.7202e-06	117.72	0.0029372	0.0061185	0.0017017	1433	5.6602e-05	6.877e-05	1389.7	541.46	5.7647e-05	6.8912e-05	622.57	237.46	188.43	80.86	6.1593e-05	117.29	234.100	-0.701	28.388	-45.319	117.968	105.336	-45.787	-40.893	124.139	91.395	-42.010	-37.124	-36.059	-31.770	115.475	-33.490	-8191	255	
31254.096	1	1	0	0	0.097501	0.082021	0.10306	0.42241	0.062124	0.18093	0.28527	0.15438	0.097893	0.095653	0.18999	0.26616	0.1325	0.14716	0.15074	0.35248	-1.9333	-3.0479	-2.7333	-2.5854	-3.0167	-2.5042	-2.9125	-3.2417	-2.3167	-3.0812	-3.0708	-2.4771	-3.2375	-2.7313	-2.5875	-3.3292	35.840	82.371	202.149	238.945	97.337	16.745	288.898	290.736	221.715	301.027	-40.924	204.454	282.756	248.221	230.913	249.822	0.00036964	0.0010904	0.00027706	1463.3	6.7638e-06	8.6728e-06	1425.7	546.9	8.3644e-06	1.2588e-05	630.35	236.53	188.36	81.212	5.4565e-06	118.75	0.003002	0.006143	0.0017182	1438	5.6738e-05	6.9543e-05	1399.6	543.1	5.8459e-05	6.9135e-05	624.81	237.01	188.33	81.362	6.1135e-05	118.36	235.352	43.420	45.185	-45.646	124.180	84.951	-45.771	-40.590	108.754	76.926	-41.856	-36.793	-35.980	-31.688	92.436	-33.099	-8191	255	
31254.191	1	1	0	0	0.011832	0.15695	0.15049	0.36518	0.079377	0.31966	0.046296	0.37635	0.19166	0.15593	0.2334	0.31899	0.1809	0.40633	0.43229	0.079601	-2.025	-2.9	-2.9708	-2.4562	-3.325	-2.6979	-2.4646	-3.5042	-2.4333	-2.9604	-3.1792	-2.5875	-3.3667	-2.8896	-2.3375	-3.4396	-42.558	150.704	-28.901	260.816	86.317	88.633	-41.244	226.594	133.448	231.980	277.035	-50.814	252.507	-21.159	126.770	-22.908	0.00032202	0.00066349	0.00025588	1462.3	8.2676e-06	6.6308e-06	1421.7	548.39	4.0582e-06	1.1669e-05	632.97	237.03	188.52	81.493	7.2137e-06	119.46	0.0029804	0.0061251	0.0017037	1437.6	5.7101e-05	7.1108e-05	1402	543.6	5.7657e-05	6.9209e-05	627.39	237.15	188.21	81.654	6.0731e-05	119.12	233.595	10.434	39.990	-45.267	114.122	90.628	-45.706	-40.751	148.684	80.672	-41.651	-36.890	-35.783	-31.514	110.987	-33.117	-8191	255	
31254.287	1	1	0	0	0.19792	0.049072	0.064509	0.38117	0.15659	0.30828	0.24351	0.21965	0.12873	0.17656	0.17913	0.27386	0.23711	0.39812	0.13247	0.36928	-2.0771	-2.8333	-3.0021	-2.4583	-3.2188	-2.7667	-2.8063	-3.3833	-2.55	-2.6458	-3.1896	-2.5625	-3.0854	-3.0438	-2.2625	-3.2562	-9.157	37.523	229.759	204.739	209.542	299.409	220.095	268.909	-40.965	159.543	288.936	236.799	238.052	297.079	72.331	248.940	0.00036946	0.0010205	0.00016007	1466.6	7.056e-06	1.6257e-05	1440.7	551.87	4.6178e-06	8.9626e-06	642.24	242.92	190.56	82.663	4.2699e-06	121.51	0.0029684	0.0060556	0.0016767	1443.1	5.5256e-05	6.8538e-05	1415.8	547.4	5.7219e-05	6.8419e-05	636.82	242.22	190.71	82.804	6.0466e-05	121.18	241.712	13.642	19.936	-45.458	94.651	84.475	-45.335	-40.510	180.244	86.739	-41.611	-36.877	-35.528	-31.661	136.693	-33.289	-8191	255	
31254.408	1	1	0	0	0.19472	0.068403	0.3127	0.45875	0.24213	0.11442	0.1856	0.2931	0.18682	0.14325	0.047453	0.24292	0.41109	0.16645	0.12332	0.55622	-2.2979	-2.5625	-3.0875	-2.5646	-2.8875	-2.9646	-2.7021	-3.3708	-2.6646	-2.5062	-3.2521	-2.4313	-3.0417	-3.0646	-2.4708	-3.2938	56.380	285.980	67.637	237.106	10.592	-8.112	208.084	287.299	253.290	142.502	-35.538	216.998	-55.974	-42.218	300.226	257.754	0.00039537	0.00088024	0.00026689	1472.4	8.8128e-06	8.8402e-06	1444.7	555.15	4.5842e-06	1.067e-05	641.76	240.98	191.28	82.909	7.9015e-06	120.79	0.0029284	0.0060619	0.0016882	1449.4	5.5953e-05	6.8562e-05	1420.5	550.25	5.6116e-05	6.6912e-05	636.39	241.25	191.04	82.917	6.0262e-05	120.69	234.651	66.858	34.364	-45.559	114.968	103.488	-45.787	-40.831	99.823	67.841	-41.868	-37.216	-36.141	-31.820	123.077	-33.497	-8191	255	
31254.504	1	1	0	0	0.10469	0.12134	0.067866	0.068158	0.05685	0.063407	0.29978	0.12446	0.16112	0.32126	0.26717	0.22651	0.22367	0.13118	0.26264	0.27505	-2.2375	-2.4583	-3.1208	-2.8688	-2.7229	-3.1333	-2.4854	-3.2	-2.875	-2.375	-3.375	-2.4958	-2.9562	-3.2979	-2.2854	-3.3521	101.630	227.447	203.084	251.876	32.404	11.234	236.086	284.428	138.335	101.669	221.760	215.444	290.457	268.433	273.873	245.687	0.0003883	0.00050891	0.00029647	1474	1.1141e-05	6.792e-06	1440.4	557.19	6.3237e-06	8.9592e-06	641.88	239.98	190.37	82.993	1.0069e-05	121.24	0.0029645	0.0059949	0.0016798	1450.4	5.5348e-05	6.778e-05	1417.8	550.7	5.7072e-05	6.8447e-05	635.43	240.41	190.67	83.036	6.1204e-05	120.95	235.995	16.585	38.139	-45.728	122.946	114.663	-45.849	-41.020	95.470	112.964	-41.859	-37.175	-36.287	-31.777	97.595	-33.292	-8191	255	
31254.602	1	1	0	0	0.025967	0.11951	0.11774	0.33411	0.16807	0.14545	0.1624	0.28507	0.031214	0.15491	0.2165	0.14791	0.12861	0.23081	0.24915	0.31478	-2.3875	-2.0687	-3.2313	-2.7229	-2.6521	-3.3542	-2.6625	-3.1208	-3	-2.2625	-3.4562	-2.6604	-2.9229	-3.4125	-2.2979	-3.1312	-26.413	265.333	38.801	232.535	267.313	-42.908	241.417	254.722	29.727	177.486	264.276	260.393	-15.222	228.422	144.050	244.666	0.00038305	0.00099031	0.00020785	1472.5	1.0151e-05	1.2271e-05	1448.2	558.37	7.362e-06	8.8644e-06	644.75	242.27	191.76	83.479	6.9944e-06	122.33	0.002925	0.0060542	0.0016818	1448.8	5.521e-05	6.8403e-05	1421.4	551.63	5.5996e-05	6.7065e-05	638.85	242.38	191.54	83.604	5.9716e-05	122.28	238.691	19.389	42.107	-45.489	129.934	93.035	-45.906	-40.636	112.407	81.119	-41.597	-37.141	-35.920	-31.690	140.591	-33.082	-8191	255	
31254.697	1	1	0	0	0.14388	0.29931	0.11171	0.33192	0.23444	0.11781	0.18108	0.29644	0.19506	0.057261	0.035118	0.23805	0.28007	0.58594	0.28445	0.36783	-2.6479	-2.3479	-3.1854	-2.8625	-2.5604	-3.0625	-2.8021	-3.025	-2.7938	-2.5042	-3.3688	-2.7604	-2.6729	-3.4375	-2.45	-2.975	-22.323	149.081	-22.701	266.888	29.741	185.779	297.597	276.231	234.848	250.076	179.519	-55.359	-54.631	263.445	27.641	243.978	0.00035128	0.0011106	0.00022773	1480.6	5.6747e-06	8.0669e-06	1462.3	559.66	5.2398e-06	8.8367e-06	648.45	243.82	192.89	83.568	2.4441e-06	122.96	0.0029048	0.0058733	0.0016769	1454.6	5.5175e-05	6.7345e-05	1431.1	553.77	5.6752e-05	6.6867e-05	643.2	244.08	192.47	83.861	5.9527e-05	122.59	239.262	16.921	60.366	-45.597	100.388	99.695	-45.855	-40.656	151.489	76.686	-41.717	-36.832	-35.829	-31.622	92.133	-33.219	-8191	255	
31254.791	1	1	0	0	0.26113	0.088381	0.18268	0.34166	0.027906	0.11367	0.21288	0.14729	0.1271	0.056095	0.19072	0.22801	0.07743	0.30926	0.20043	0.13634	-2.7542	-2.2917	-3.1417	-2.9021	-2.4458	-3.3208	-2.5458	-3.0208	-3.2292	-2.1646	-3.2562	-2.7667	-2.4146	-3.3583	-2.6312	-2.8063	206.108	224.784	76.870	249.165	171.340	-34.531	212.327	191.285	78.153	33.795	225.685	272.004	229.338	-54.751	166.695	182.474	0.00040528	0.00089097	0.00024169	1477.5	8.8309e-06	9.4712e-06	1446.7	559.2	5.0793e-06	1.5154e-05	641.67	241.86	192.76	83.936	9.56e-06	122.66	0.0028857	0.0058825	0.0016771	1453	5.5334e-05	6.7027e-05	1424.2	553.59	5.5098e-05	6.6724e-05	638.29	242.26	192.47	83.992	5.9087e-05	122.36	240.566	20.410	26.627	-45.338	123.057	96.178	-45.806	-40.904	162.377	85.788	-41.788	-37.226	-36.008	-31.490	121.685	-33.227	-8191	255	
31254.887	1	1	0	0	0.21974	0.28495	0.052602	0.23132	0.24492	0.18923	0.15601	0.40591	0.18842	0.38644	0.31566	0.25013	0.16962	0.38782	0.22644	0.44197	-2.8917	-2.1479	-2.8729	-3.0792	-2.45	-3.0729	-2.8333	-2.8292	-3.0396	-2.5	-3.1667	-3.2604	-2.5604	-3.3937	-2.5667	-2.8583	139.246	-56.477	153.176	267.178	252.417	258.643	230.141	237.176	-41.906	-20.206	296.907	254.731	-42.479	233.662	55.425	292.309	0.00040687	0.0010236	0.00026234	1480.4	4.9269e-06	7.5046e-06	1449.2	562.22	4.8322e-06	8.2272e-06	648.74	243.78	192.76	84.337	5.0689e-06	123.44	0.0028905	0.0059574	0.0016616	1456.1	5.5477e-05	6.7743e-05	1426.2	555.64	5.6686e-05	6.8759e-05	643.32	243.72	193.16	84.461	6.1195e-05	123.13	231.952	14.238	33.663	-45.336	103.574	56.893	-45.618	-40.606	80.022	87.887	-41.524	-36.994	-35.771	-31.613	137.152	-33.067	-8191	255	
31254.982	1	1	0	0	0.23565	0.27756	0.28727	0.21371	0.2049	0.36738	0.19682	0.13369	0.12404	0.19898	0.22146	0.24316	0.40346	0.12407	0.29589	0.10766	-2.7812	-2.4313	-3.0167	-3.2521	-2.3875	-3.1333	-2.9333	-2.7583	-3.2042	-2.4333	-3.1146	-3.4083	-2.2875	-3.2938	-2.6854	-2.5583	171.228	-40.749	168.796	278.579	-0.680	-43.902	259.191	224.411	48.289	231.381	-57.251	288.041	226.853	126.315	-31.676	236.055	0.00039029	0.00068017	0.00028872	1487.5	8.1963e-06	1.1213e-05	1458	560.87	7.1964e-06	8.2678e-06	651.43	244	192.83	84.51	8.4696e-06	123.9	0.0029042	0.0060169	0.0016922	1458.3	5.5246e-05	6.8664e-05	1432.3	556.05	5.6529e-05	6.8485e-05	645.28	244.19	193.37	84.643	6.1028e-05	123.32	230.668	22.048	17.063	-45.407	96.734	125.280	-45.654	-40.598	101.644	104.798	-41.489	-36.895	-35.898	-31.457	110.259	-33.177	-8191	255	
31255.104	1	1	0	0	0.14866	0.13532	0.23443	0.32095	0.15134	0.041096	0.42375	0.14347	0.087474	0.16975	0.32329	0.14626	0.26249	0.10622	0.14359	0.1936	-2.6854	-2.5271	-2.6375	-3.2979	-2.3792	-3.0833	-2.9167	-2.625	-3.1292	-2.5521	-2.8187	-3.3167	-2.525	-2.9375	-2.8688	-2.5542	272.330	-22.530	-10.320	278.048	186.827	270.612	208.833	259.461	240.201	96.076	-20.517	260.360	244.277	177.206	299.056	238.632	0.00047184	0.00088995	0.00034662	1488.3	6.3792e-06	1.1983e-05	1460.8	561.72	7.2108e-06	1.0715e-05	653.16	245.97	193.6	84.826	8.127e-06	123.02	0.0029325	0.006076	0.0016965	1459.5	5.5947e-05	6.9004e-05	1434.2	556.86	5.7479e-05	6.8337e-05	645.89	245.43	193.91	84.933	5.9948e-05	123.01	242.994	26.216	21.947	-45.293	108.474	82.435	-45.564	-40.464	123.403	76.322	-41.705	-37.004	-36.023	-31.422	124.758	-33.119	-8191	255	
31255.199	1	1	0	0	0.20249	0.065308	0.15671	0.22234	0.1003	0.28229	0.3568	0.042539	0.12384	0.15523	0.22855	0.15271	0.52188	0.19536	0.082286	0.15098	-2.6458	-2.5417	-2.575	-3.3333	-2.5292	-2.8667	-3.2438	-2.5875	-3.2979	-2.5708	-2.6875	-3.3833	-2.6021	-3.0312	-2.9771	-2.6292	72.880	89.832	-0.078	271.133	42.045	283.060	274.421	218.444	215.356	109.965	255.734	256.271	300.518	253.590	110.122	209.440	0.0004427	0.00059487	0.00038202	1488.8	1.0143e-05	1.6748e-05	1454.6	563.35	6.9995e-06	3.0162e-06	642.83	243.58	193.13	84.82	6.6261e-06	122.58	0.0029454	0.0060737	0.0017057	1458.5	5.5848e-05	6.9449e-05	1429.7	556.93	5.7256e-05	6.7791e-05	639.94	243.7	193.81	84.88	5.9572e-05	122.43	236.425	-12.333	44.440	-45.548	119.126	98.520	-46.132	-40.857	113.123	107.299	-42.002	-37.313	-36.118	-31.900	79.622	-33.538	-8191	255	
31255.297	1	1	0	0	0.16515	0.18476	0.22826	0.1808	0.21404	0.033271	0.28768	0.25154	0.14946	0.19656	0.24769	0.38749	0.12429	0.13245	0.13462	0.091444	-2.775	-2.6958	-2.2667	-3.3604	-2.3021	-2.7812	-3.3708	-2.5417	-3.0187	-2.9042	-2.5292	-3.1688	-2.6521	-2.8625	-3.0083	-2.5292	135.447	273.374	284.572	204.479	48.767	283.990	274.869	252.595	221.984	4.220	264.843	240.241	-27.655	-51.559	246.685	241.967	0.00037534	0.00099433	0.00026662	1483.8	5.3896e-06	1.4015e-05	1449.7	564.42	7.1953e-06	1.0119e-05	648.97	245.3	193.71	84.575	8.2739e-06	123.02	0.0029376	0.005964	0.001709	1457.1	5.6945e-05	6.7645e-05	1426	557.55	5.6248e-05	6.7911e-05	642.83	244.15	193.96	84.857	6.1064e-05	122.84	230.064	10.446	35.888	-45.820	125.445	99.521	-46.017	-41.085	117.702	116.848	-42.040	-37.602	-36.394	-31.777	127.018	-33.427	-8191	255	
31255.367	1	1	0	0	0.1566	0.31274	0.21862	0.48411	0.21587	0.15089	0.41486	0.11865	0.21019	0.14991	0.099098	0.18107	0.10462	0.17939	0.092971	0.45817	-2.5521	-2.8	-2.3646	-3.2438	-2.4458	-2.4375	-3.2	-2.3396	-2.9521	-2.9354	-2.3708	-3.3312	-2.5062	-2.8625	-3.3312	-2.6354	-30.856	279.893	85.113	227.442	-10.595	84.604	226.083	276.669	162.220	247.869	239.220	-47.386	201.634	-41.964	-56.651	246.302	0.00040668	0.00068712	0.00027943	1483.1	1.0862e-05	8.6968e-06	1450.1	563.66	3.8194e-06	1.2746e-05	646.56	245.1	193.59	84.619	9.4285e-06	122.93	0.0029267	0.006052	0.0016985	1459.4	5.6607e-05	6.8486e-05	1428.1	557.12	5.6882e-05	6.8211e-05	641.67	244.97	193.85	84.926	6.0726e-05	122.86	234.761	5.287	13.546	-45.814	120.482	95.436	-46.292	-40.967	119.910	107.145	-41.978	-37.231	-36.220	-31.874	117.339	-33.318	-8191	255	
31255.488	1	1	0	0	0.11072	0.19505	0.19215	0.48171	0.068846	0.22155	0.18914	0.31162	0.14837	0.15304	0.11626	0.11318	0.38291	0.20755	0.10697	0.25237	-2.6333	-2.9042	-2.3479	-3.2979	-2.5771	-2.3958	-3.2896	-2.75	-2.9354	-3.0104	-2.5896	-3.3875	-2.9188	-2.6562	-3.1375	-2.8187	4.663	129.920	-14.303	255.696	76.367	64.744	256.530	275.284	270.630	174.435	256.786	260.986	-57.053	134.455	166.983	255.325	0.0004223	0.0010191	0.00019663	1490.2	9.5859e-06	1.1384e-05	1456.5	563.96	4.8851e-06	9.4256e-06	649.24	245.42	193.78	84.687	7.9511e-06	122.72	0.0029456	0.005974	0.0016978	1463.4	5.5849e-05	6.9226e-05	1429.1	557.87	5.7019e-05	6.8107e-05	642.26	244.86	194.14	84.877	5.9512e-05	122.34	237.203	-3.126	56.306	-45.913	138.982	93.148	-45.952	-40.900	133.422	64.906	-41.964	-37.396	-36.230	-31.857	155.152	-33.475	-8191	255	
31255.586	1	1	0	0	0.22431	0.14097	0.26396	0.26542	0.2245	0.12361	0.25905	0.21936	0.17201	0.14141	0.08474	0.18381	0.03163	0.22473	0.20154	0.40271	-2.5	-3.1	-2.2854	-3.2917	-2.7458	-2.1125	-3.3937	-2.5896	-2.6771	-3.1688	-2.3625	-3.3438	-3.0708	-2.5646	-3.1937	-2.6875	-57.028	80.338	85.850	273.513	-4.003	-54.415	224.905	253.023	87.351	207.124	-12.942	224.880	-37.672	234.673	116.597	197.058	0.00037696	0.0010828	0.00014881	1489.9	6.4325e-06	1.2427e-05	1446.4	561.73	7.6856e-06	1.2733e-05	644.69	242.83	193.56	84.468	8.9952e-06	121.41	0.0029588	0.005928	0.0016743	1461.5	5.4982e-05	6.797e-05	1419.3	556.39	5.61e-05	6.7758e-05	638.03	242.68	193.92	84.596	5.9566e-05	121.34	235.165	25.388	45.681	-45.600	79.692	91.799	-46.017	-41.117	127.533	102.347	-41.836	-37.261	-36.307	-31.779	102.500	-33.490	-8191	255	
31255.682	1	1	0	0	0.23902	0.15085	0.028935	0.22909	0.32158	0.13377	0.20043	0.51076	0.079344	0.34387	0.35795	0.24593	0.2201	0.24498	0.1927	0.072825	-2.1813	-3.1188	-2.375	-3.2687	-2.8521	-2.2167	-3.3771	-2.6208	-2.55	-3.2771	-2.5083	-3.1375	-2.9875	-2.5417	-3.1625	-2.85	50.810	97.577	214.545	264.452	94.194	-46.279	245.470	223.188	-31.630	175.875	271.388	-41.052	290.431	284.833	272.522	201.810	0.00039003	0.0007612	0.00021968	1487.4	6.9897e-06	1.0422e-05	1439.3	561.87	4.3814e-06	7.6528e-06	641.01	239.81	192.35	83.975	7.0477e-06	120.62	0.0029151	0.0059667	0.0016874	1459.4	5.5442e-05	6.8244e-05	1416.3	555.71	5.7252e-05	6.6166e-05	634.08	240.06	192.48	84.039	5.9724e-05	120.34	241.886	7.581	26.069	-45.774	100.752	74.880	-46.019	-40.990	162.905	97.265	-42.134	-37.125	-36.198	-31.780	152.637	-33.344	-8191	255	
31255.803	1	1	0	0	0.072002	0.14269	0.11148	0.11054	0.13086	0.18979	0.2753	0.34077	0.54831	0.047315	0.23415	0.18317	0.2478	0.41224	0.26991	0.22122	-2.025	-3.2208	-2.4458	-3.0083	-2.8187	-2.2104	-3.1167	-2.8146	-2.4	-3.2708	-2.5646	-2.8958	-3.1437	-2.2958	-3.1292	-2.8312	-35.600	151.387	34.305	-36.072	267.231	184.862	259.504	264.951	194.243	285.413	-52.498	4.920	-23.425	300.324	77.129	207.858	0.00039683	0.0010573	0.00023566	1491	8.6859e-06	5.9499e-06	1437.5	559.68	2.8832e-06	1.1172e-05	638.64	238.59	192.07	83.604	8.7399e-06	121.22	0.0029432	0.0059612	0.0017006	1462.1	5.7041e-05	6.8291e-05	1414.1	553.9	5.7387e-05	6.6781e-05	633.23	238.84	191.96	84.054	5.8742e-05	120.99	243.389	17.948	10.900	-45.807	122.594	88.546	-45.968	-41.225	81.594	95.852	-42.094	-37.496	-36.595	-31.866	134.476	-33.641	-8191	255	
31255.896	1	1	0	0	0.13782	0.34331	0.17567	0.20125	0.14096	0.20847	0.14624	0.3502	0.35358	0.1086	0.3751	0.29157	0.2945	0.21906	0.086368	0.28533	-1.9729	-2.9521	-2.4646	-2.9604	-2.8417	-2.4146	-3.2229	-2.7812	-2.2104	-3.1708	-2.6458	-2.7208	-3.2104	-2.5083	-2.9875	-3.0042	140.937	235.770	-19.474	-45.989	10.411	122.241	253.783	234.718	151.499	-47.691	269.109	272.230	253.001	285.947	37.666	189.130	0.00038165	0.00059719	0.00030095	1490.3	6.0881e-06	8.4209e-06	1445	561.29	4.2251e-06	1.2047e-05	639.59	238.68	192.06	83.872	6.9669e-06	120.53	0.0029092	0.005856	0.0016741	1463.5	5.4037e-05	6.5952e-05	1421.9	554.56	5.4805e-05	6.6711e-05	634.71	238.9	191.6	83.904	5.929e-05	120.32	237.546	13.150	20.663	-45.810	114.922	81.997	-46.061	-41.093	90.136	94.630	-42.170	-37.477	-36.484	-32.070	93.356	-33.611	-8191	255	
31255.969	1	1	0	0	0.068868	0.12315	0.13272	0.3023	0.0099079	0.044625	0.45312	0.22951	0.22087	0.30998	0.36858	0.29484	0.21716	0.1704	0.1484	0.23655	-1.9542	-3.1583	-2.5417	-2.6333	-3.1604	-2.2354	-3.125	-3.0021	-2.3521	-3.35	-2.8438	-2.6979	-3.4083	-2.5687	-2.7479	-3.2604	-31.344	227.027	-54.660	-54.527	290.589	240.551	205.180	218.583	-42.872	-7.863	233.977	291.607	-49.749	-55.769	-33.711	124.073	0.00039027	0.000515	0.000167	1487.6	9.3193e-06	1.2187e-05	1428.1	555.19	5.4349e-06	1.1163e-05	633.02	233.62	188.47	82.99	6.7954e-06	118.41	0.0028838	0.0057971	0.0016515	1462.4	5.4676e-05	6.7355e-05	1409.6	549.77	5.5277e-05	6.6733e-05	626.08	233.82	188.86	83.179	5.8785e-05	118.28	240.989	11.754	38.259	-45.953	157.594	94.175	-46.087	-41.124	96.702	89.696	-42.363	-37.233	-36.452	-31.927	143.840	-33.580	-8191	255	
31256.088	1	1	0	0	0.11574	0.24418	0.074956	0.34423	0.10158	0.058895	0.25929	0.23845	0.13291	0.081728	0.18176	0.14323	0.21411	0.24129	0.15456	0.25482	-1.8479	-2.9833	-2.5875	-2.575	-3.025	-2.3688	-3.1354	-3.2167	-2.275	-3.05	-3.0563	-2.7771	-3.3563	-2.7229	-2.6375	-3.3979	281.625	43.619	155.602	248.527	104.229	9.126	204.074	218.004	188.408	116.981	174.090	232.647	-13.605	-27.212	129.293	279.267	0.00036989	0.0010931	0.00025926	1482.3	6.89e-06	9.7676e-06	1425.4	553.99	4.8121e-06	9.7393e-06	632.57	235.02	188.37	83.225	7.4586e-06	120.33	0.002882	0.0058185	0.001664	1456	5.3542e-05	6.6066e-05	1401.5	548.11	5.4949e-05	6.6005e-05	627.67	234.97	189.29	83.649	5.9208e-05	120.13	234.891	13.229	41.780	-45.763	111.866	75.200	-46.149	-41.172	140.141	82.170	-41.946	-37.497	-36.321	-32.196	106.651	-33.989	-8191	255	
31256.184	1	1	0	0	0.21548	0.14094	0.0085173	0.10745	0.11561	0.090053	0.64118	0.20928	0.11235	0.24087	0.23925	0.50333	0.094957	0.2926	0.087814	0.16371	-2.0708	-2.8688	-2.7875	-2.4271	-3.0583	-2.5375	-2.9083	-3.3083	-2.3917	-2.9562	-2.9729	-2.5	-3.3146	-2.775	-2.4458	-3.2875	48.271	167.870	288.078	280.277	79.458	202.926	243.834	253.797	49.623	6.146	289.599	-56.710	39.670	291.979	108.913	261.870	0.0004185	0.0010175	0.00038806	1485.1	4.1553e-06	1.0632e-05	1425.6	553.4	2.3842e-06	1.1642e-05	628.09	233.72	189.68	83.635	1.0829e-05	121.5	0.002855	0.0058776	0.0016261	1460.4	5.4033e-05	6.5745e-05	1403.2	547.62	5.5657e-05	6.58e-05	623.38	234.32	189.89	83.696	5.9083e-05	121.41	237.026	8.765	41.483	-46.027	111.091	94.029	-46.428	-41.368	99.617	95.195	-42.330	-37.607	-36.699	-32.265	100.397	-33.676	-8191	255	
31256.281	1	1	0	0	0.12258	0.11532	0.15962	0.18188	0.099132	0.17441	0.15457	0.11714	0.27997	0.17915	0.1851	0.16668	0.071971	0.35904	0.1503	0.21659	-1.95	-2.7562	-2.95	-2.3146	-3.1042	-2.6646	-2.5917	-3.3396	-2.4271	-2.9437	-3.0896	-2.4688	-3.2979	-2.9208	-2.4021	-3.3688	-50.492	16.029	84.300	285.056	198.406	125.919	167.267	223.319	22.974	218.994	-55.566	279.187	271.771	267.654	234.634	265.641	0.0003638	0.00055884	0.00018988	1491.7	7.7832e-06	8.6859e-06	1450.9	562.34	7.2658e-06	1.07e-05	641.44	237.27	191.03	83.813	1.2877e-05	119.7	0.0029028	0.0060098	0.0017047	1466.3	5.547e-05	6.8164e-05	1427.6	556.68	5.6234e-05	6.8652e-05	634.3	237.26	190.99	83.977	6.044e-05	119.77	246.102	43.842	40.312	-46.110	127.304	90.570	-46.492	-41.466	110.862	82.129	-42.544	-37.689	-36.601	-32.185	122.260	-33.823	-8191	255	
31256.400	1	1	0	0	0.074502	0.17957	0.20811	0.13769	0.073626	0.23836	0.32783	0.054572	0.091381	0.15961	0.1394	0.25609	0.2439	0.12231	0.28116	0.31253	-1.8979	-2.8063	-3.1583	-2.5083	-3.0938	-2.7833	-2.575	-3.3417	-2.6229	-2.7292	-3.1292	-2.4938	-2.9813	-3.25	-2.2958	-3.2479	68.267	-54.038	55.610	285.904	-0.885	112.729	251.888	243.263	244.408	247.829	231.095	222.619	204.341	235.897	168.131	198.438	0.00040999	0.00097088	0.00031023	1492	8.0074e-06	1.2772e-05	1434.4	561.27	2.8176e-06	1.1931e-05	635.67	236.52	191.22	84.426	7.9577e-06	121.24	0.0029138	0.0059116	0.0016836	1465.1	5.5773e-05	6.8171e-05	1414.7	555.41	5.6565e-05	6.7802e-05	631.38	236.58	191.38	84.643	6.0118e-05	120.88	242.739	11.247	33.146	-46.252	123.941	94.261	-46.407	-41.305	112.873	99.876	-42.225	-37.570	-36.583	-32.210	99.240	-33.764	-8191	255	
31256.496	1	1	0	0	0.27938	0.055905	0.13534	0.201	0.14764	0.17019	0.17465	0.065116	0.22017	0.10128	0.13925	0.25838	0.335	0.19239	0.20656	0.37341	-2.0812	-2.6042	-3.0896	-2.4813	-2.8479	-2.8375	-2.5271	-3.1958	-2.6063	-2.3688	-3.3	-2.5687	-2.9792	-3.1979	-2.3833	-3.2958	-40.245	138.127	-3.042	254.197	296.512	59.587	208.262	-1.683	150.084	23.808	131.185	200.876	252.154	257.034	117.517	255.558	0.00037557	0.0006654	0.00021807	1491	9.7599e-06	1.0397e-05	1439.7	559.62	5.8535e-06	4.6187e-06	637.35	237.43	191.74	84.658	7.215e-06	121.25	0.0028946	0.0058709	0.0016754	1465.5	5.5029e-05	6.7054e-05	1417.5	555.58	5.6189e-05	6.6953e-05	632.7	237.51	191.8	84.762	5.9831e-05	121.2	241.831	9.534	57.515	-46.178	110.705	115.150	-46.293	-41.339	113.805	86.644	-42.459	-37.569	-36.359	-32.096	101.225	-33.789	-8191	255	
31256.594	1	1	0	0	0.14681	0.11798	0.30262	0.23713	0.31129	0.29376	0.23197	0.13911	0.22397	0.24558	0.27468	0.18488	0.092492	0.22294	0.056587	0.30036	-2.1396	-2.3688	-3.0771	-2.6333	-2.7729	-2.9583	-2.4167	-3.3937	-2.7083	-2.35	-3.3354	-2.6833	-2.6875	-3.2687	-2.3312	-3.2854	249.551	-25.499	19.229	-53.807	39.978	228.784	253.880	273.954	194.216	204.387	245.806	246.279	-9.213	263.957	207.138	196.932	0.00040914	0.00055165	0.00027695	1490.8	8.0227e-06	7.6221e-06	1446.6	561.71	9.174e-06	7.8788e-06	640.02	239.12	192.02	84.308	1.0216e-05	121.91	0.0028943	0.0058641	0.0016621	1466.7	5.5653e-05	6.7568e-05	1424.3	556.61	5.6924e-05	6.7345e-05	634.86	238.58	192.33	84.747	6.0825e-05	121.66	236.681	25.357	60.040	-46.102	93.251	72.439	-46.252	-41.050	112.646	85.775	-42.245	-37.583	-36.345	-32.027	95.462	-33.653	-8191	255	
31256.664	1	1	0	0	0.099605	0.26516	0.16335	0.24461	0.35932	0.17681	0.40407	0.2831	0.082577	0.041689	0.24186	0.17121	0.050951	0.26341	0.15724	0.19587	-2.5583	-2.4021	-3.1688	-2.6292	-2.7167	-3.0417	-2.5083	-3.3146	-2.8333	-2.2812	-3.3771	-2.7687	-2.6604	-3.3021	-2.2708	-3.1562	100.596	-36.848	52.265	276.885	-0.672	42.771	241.250	273.165	223.028	-10.307	-47.336	288.236	298.853	-55.210	-30.315	164.981	0.00039274	0.00049895	0.00026496	1494.7	5.4935e-06	9.1649e-06	1446.7	562.89	6.0839e-06	7.9258e-06	641.31	238.27	191.71	84.452	3.3839e-06	121.37	0.0029092	0.0059939	0.0016821	1471.3	5.6065e-05	6.7867e-05	1427.2	557.63	5.6006e-05	6.8582e-05	635.93	238.11	192.13	84.799	6.0245e-05	121.02	236.043	26.287	24.862	-45.995	141.310	94.594	-46.214	-41.110	75.066	84.708	-42.255	-37.736	-36.616	-32.036	138.503	-33.485	-8191	255	
31256.783	1	1	0	0	0.32719	0.14764	0.11071	0.25407	0.1362	0.13624	0.097679	0.23121	0.13913	0.1811	0.33166	0.28178	0.11982	0.27672	0.16644	0.036811	-2.5521	-2.2167	-3.1521	-2.6583	-2.6104	-3.1583	-2.5583	-3.0062	-3.075	-2.2271	-3.175	-2.9146	-2.5062	-3.4396	-2.45	-2.9229	-57.156	95.077	-52.232	-49.548	-46.501	297.749	210.156	260.280	-12.983	149.724	276.057	286.384	288.723	266.950	290.472	-43.877	0.00039402	0.00079251	0.0002564	1489.9	1.2667e-05	1.1046e-05	1442.6	561.31	5.8447e-06	6.9354e-06	638.18	236.08	191.68	84.402	5.5891e-06	120.95	0.0029112	0.0060808	0.0017059	1466.1	5.6035e-05	6.8229e-05	1419.5	555.55	5.6216e-05	6.812e-05	632.43	237.03	191.96	84.774	6.0894e-05	120.6	238.839	23.285	36.712	-45.985	95.411	76.520	-46.147	-41.173	144.495	115.228	-42.117	-37.502	-36.290	-31.852	106.202	-33.451	-8191	255	
31256.881	1	1	0	0	0.23899	0.082415	0.17765	0.16313	0.21932	0.076042	0.27294	0.16721	0.12596	0.13809	0.37861	0.18067	0.19227	0.14469	0.078744	0.16626	-2.775	-2.3271	-3.0021	-2.8937	-2.3521	-3.0667	-2.6104	-3.0771	-3.1208	-2.2979	-3.025	-3.0979	-2.5604	-3.2229	-2.5646	-2.6833	-0.869	151.604	283.894	216.898	167.295	-28.872	255.384	190.086	214.037	20.921	250.993	-42.092	-22.823	283.925	192.475	256.247	0.00035506	0.00075425	0.00020201	1492.5	4.8262e-06	5.9802e-06	1434.5	561.58	5.0757e-06	8.3408e-06	633.78	236.25	192.1	84.768	5.2863e-06	121.11	0.0029619	0.0060157	0.0017184	1466.7	5.6544e-05	6.9762e-05	1412.9	555.66	5.735e-05	6.8659e-05	630.3	236.87	192.08	84.939	6.0326e-05	120.94	243.255	36.159	32.669	-46.079	120.634	106.118	-46.206	-41.047	143.745	108.300	-41.939	-37.575	-36.088	-32.032	93.968	-33.545	-8191	255	
31256.977	1	1	0	0	0.16346	0.07294	0.13273	0.19493	0.053804	0.04477	0.21947	0.27952	0.15542	0.15287	0.10601	0.12685	0.25482	0.20382	0.18664	0.36331	-2.7542	-2.3021	-2.9229	-2.8917	-2.2958	-2.9875	-2.8708	-2.85	-3.0104	-2.4125	-3.0958	-3.0396	-2.4562	-3.2167	-2.5208	-2.7021	26.804	140.568	113.322	-37.388	94.396	170.816	292.936	285.296	36.428	-22.970	9.201	102.349	-58.679	257.503	225.794	240.342	0.00042594	0.000988	0.00024787	1490.7	4.5151e-06	4.4336e-06	1446.8	563.75	4.665e-06	4.9245e-06	641.68	240.43	194.51	85.372	9.113e-06	122.49	0.0029493	0.0060871	0.0017137	1467.6	5.6375e-05	6.9521e-05	1422	558.23	5.6701e-05	6.7934e-05	637.54	240.26	193.89	85.612	6.1007e-05	122.39	243.605	54.974	30.690	-45.753	114.432	78.331	-46.303	-41.192	118.948	80.056	-42.285	-37.425	-36.383	-31.843	119.612	-33.436	-8191	255	
31257.072	1	1	0	0	0.2293	0.19393	0.11769	0.37046	0.17164	0.21526	0.29211	0.07694	0.16619	0.2572	0.51037	0.17554	0.28304	0.28452	0.25814	0.17163	-2.8042	-2.3646	-2.9417	-3.2104	-2.0708	-3.1813	-2.9479	-2.5187	-3.1917	-2.2854	-2.9375	-3.1771	-2.3937	-3.3104	-2.7125	-2.5896	157.483	116.223	197.122	275.672	136.387	238.217	242.634	292.708	-23.484	94.198	256.993	256.729	253.081	249.622	230.186	260.105	0.00038265	0.00092651	0.00027277	1498.8	8.5068e-06	1.1857e-05	1449	564.02	6.4552e-06	1.1447e-05	642.83	239.8	193.48	85.606	8.0751e-06	122.31	0.0029853	0.0061647	0.001727	1471.6	5.6129e-05	6.9223e-05	1425.1	558.8	5.7278e-05	6.9224e-05	637.52	240.4	193.99	85.764	6.0681e-05	122.18	239.263	7.091	60.300	-46.144	81.595	107.776	-46.248	-41.002	117.115	123.266	-42.102	-37.702	-36.334	-32.041	119.042	-33.550	-8191	255	
31257.193	1	1	0	0	0.043518	0.06811	0.09322	0.11024	0.19187	0.27157	0.16805	0.14972	0.091565	0.073379	0.36523	0.17267	0.048882	0.18542	0.2452	0.14387	-2.8042	-2.3958	-2.6125	-3.3625	-2.1521	-3.025	-2.9833	-2.3312	-3.1583	-2.4417	-2.6229	-3.4354	-2.3208	-3.2021	-2.8146	-2.4708	159.535	120.018	281.197	57.052	94.841	125.554	266.250	234.160	100.865	171.748	286.486	272.546	186.836	236.809	180.026	156.570	0.0004228	0.00085807	0.00025402	1492.1	5.6633e-06	1.1213e-05	1446.4	566.05	5.7305e-06	6.8817e-06	644.36	240.82	193.52	86.057	6.6674e-06	123.33	0.002984	0.0060456	0.0016836	1463.2	5.5597e-05	6.7395e-05	1421.9	559.61	5.5915e-05	6.8532e-05	638.08	240.93	194.23	86.395	5.9746e-05	123.23	236.675	-4.374	29.520	-45.955	95.524	115.150	-46.091	-41.019	102.124	82.210	-41.913	-37.587	-36.456	-31.851	98.674	-33.630	-8191	255	
31257.266	1	1	0	0	0.064758	0.057649	0.14995	0.11648	0.057941	0.1323	0.39784	0.1435	0.23941	0.09924	0.21978	0.36082	0.13442	0.26323	0.15167	0.4483	-2.6771	-2.5563	-2.4375	-3.2479	-2.425	-2.9104	-3.1063	-2.4062	-3.1521	-2.6396	-2.6792	-3.2354	-2.3542	-2.875	-3.0979	-2.4771	-20.311	-14.293	87.952	-35.365	6.631	-58.802	284.217	186.893	165.659	34.467	230.493	240.844	259.818	257.898	129.607	193.647	0.00035576	0.00046468	0.00031417	1494.2	6.8326e-06	9.6383e-06	1456.3	567.29	7.33e-06	5.6402e-06	648.66	244.05	195.43	87.032	6.969e-06	125.31	0.0029379	0.0059422	0.0016782	1469.1	5.5382e-05	6.8904e-05	1432.4	562.14	5.5607e-05	6.764e-05	645.09	243.64	195.78	87.154	5.9505e-05	125.01	231.424	53.614	24.045	-45.828	105.576	72.004	-46.151	-41.153	149.076	76.521	-42.216	-37.506	-36.511	-31.725	92.764	-33.618	-8191	255	
31257.361	1	1	0	0	0.16817	0.18664	0.10324	0.36761	0.11837	0.21138	0.29393	0.16323	0.051444	0.20671	0.22143	0.25809	0.098854	0.40307	0.22345	0.25829	-2.7125	-2.4938	-2.1792	-3.4188	-2.3187	-2.7938	-3.1604	-2.1813	-3.0479	-2.5917	-2.6104	-3.4729	-2.6083	-2.9042	-2.9646	-2.5	224.332	-10.016	12.515	246.830	113.150	-6.538	226.288	290.449	180.201	130.557	258.118	294.546	224.430	292.543	121.549	215.404	0.00036135	0.00076128	0.00012356	1502.2	1.2916e-05	7.4105e-06	1467.1	570.92	5.2877e-06	7.7819e-06	653.28	244.77	196.22	86.983	6.175e-06	125.15	0.0029321	0.0058976	0.0016654	1472.9	5.5621e-05	6.8352e-05	1441.6	564.83	5.6978e-05	6.7636e-05	648.55	245.13	196.43	87.251	5.912e-05	124.95	232.820	15.262	30.446	-45.909	117.240	108.522	-46.217	-40.923	122.186	86.854	-42.047	-37.483	-36.305	-31.884	122.040	-33.665	-8191	255	
31257.482	1	1	0	0	0.23864	0.22164	0.065103	0.41439	0.13704	0.17243	0.28879	0.31346	0.22057	0.1048	0.070607	0.25003	0.10102	0.35184	0.22526	0.30086	-2.5208	-2.7	-2.3	-3.3979	-2.3917	-2.4042	-3.2979	-2.4229	-2.8521	-2.7625	-2.5312	-3.1542	-2.7375	-2.6333	-3.1813	-2.525	-51.014	130.379	-31.814	249.503	52.425	92.834	263.168	225.883	284.303	94.724	190.441	246.826	163.244	-43.398	196.570	250.610	0.00040552	0.0011287	0.00032868	1499.5	6.6948e-06	1.0172e-05	1461.9	570.01	8.0713e-06	6.3463e-06	646.63	241.14	195.27	86.366	6.7024e-06	123.03	0.0029438	0.0061085	0.0017062	1477.5	5.5708e-05	6.9534e-05	1435.9	563.7	5.7167e-05	6.7626e-05	641.23	241.21	195.35	86.452	5.9598e-05	122.57	239.759	22.406	16.090	-45.891	107.457	108.585	-46.258	-41.113	105.332	88.390	-42.318	-37.552	-36.423	-31.828	73.562	-33.727	-8191	255	
31257.578	1	1	0	0	0.10579	0.18164	0.11107	0.11835	0.047325	0.081985	0.40092	0.27168	0.12667	0.12138	0.1779	0.21567	0.11045	0.15009	0.25402	0.22864	-2.1958	-2.7438	-2.0062	-3.2792	-2.4479	-2.4188	-3.2979	-2.5146	-2.7938	-2.8958	-2.4146	-3.0521	-2.6417	-2.5021	-3.0917	-2.6063	141.630	-31.597	0.992	262.321	247.917	-0.153	268.224	226.785	248.367	144.239	-9.370	242.415	-56.612	235.570	277.141	199.961	0.00035422	0.00097373	0.00025625	1490.7	9.4706e-06	6.1321e-06	1440.1	565.3	6.0353e-06	7.7945e-06	638.44	239.25	194.2	85.736	7.5496e-06	121.55	0.0029383	0.0058772	0.0016873	1467.7	5.4799e-05	6.8123e-05	1417.6	559.73	5.6348e-05	6.6615e-05	634.18	238.86	193.98	85.89	5.9119e-05	121.51	237.655	40.285	50.553	-45.845	121.841	88.202	-46.191	-41.068	116.320	104.470	-42.207	-37.201	-36.230	-31.847	100.815	-33.762	-8191	255	
31257.674	1	1	0	0	0.077905	0.27779	0.28818	0.24278	0.20256	0.31723	0.42979	0.25998	0.18059	0.22965	0.45982	0.25905	0.029455	0.14863	0.22012	0.46586	-2.3563	-2.9792	-2.2229	-3.1188	-2.6833	-2.4333	-3.3708	-2.5792	-2.4938	-2.9792	-2.4125	-3.0854	-3.1771	-2.5854	-3.0187	-2.5062	53.089	227.406	284.000	-57.678	85.489	-45.864	237.692	251.416	-20.272	110.754	229.067	289.144	106.721	217.242	228.632	191.956	0.00043385	0.0010802	0.00021204	1491.9	5.9579e-06	7.1313e-06	1438	567.18	6.2739e-06	1.4767e-05	640.97	238.79	193.21	85.707	1.029e-05	121.91	0.0029106	0.0059261	0.0016649	1465.2	5.5073e-05	6.7857e-05	1414.1	560.29	5.6275e-05	6.6445e-05	634.44	238.53	193.43	85.792	5.9935e-05	121.88	238.302	11.493	10.596	-45.731	102.174	128.981	-46.197	-41.272	140.325	80.394	-42.192	-37.167	-36.104	-31.719	117.865	-33.770	-8191	255	
31257.770	1	1	0	0	0.008058	0.078721	0.10895	0.15888	0.14328	0.11709	0.25234	0.53938	0.07715	0.2057	0.2481	0.28509	0.041209	0.2321	0.073572	0.096089	-2.1562	-3.2542	-2.275	-3.1271	-2.9417	-2.2771	-3.2438	-2.6063	-2.4062	-3.1875	-2.6125	-2.8937	-2.9875	-2.5708	-3.125	-2.7792	263.782	276.290	22.567	268.002	58.001	235.098	-15.999	286.088	-0.143	51.161	196.281	265.918	207.990	-58.475	223.295	261.240	0.00031581	0.00082392	0.00034599	1491.5	9.647e-06	5.9917e-06	1445.5	563.97	7.7606e-06	7.6528e-06	639.95	240.02	192.81	85.609	2.2766e-06	122.17	0.0029176	0.0059237	0.0016641	1466.6	5.5655e-05	6.7718e-05	1421.1	559.29	5.7569e-05	6.7131e-05	636.24	239.89	193.8	85.994	6.0943e-05	122.15	235.256	48.221	29.620	-45.978	144.270	115.348	-46.102	-41.232	107.033	84.619	-42.059	-37.464	-36.328	-31.860	18.334	-33.705	-8191	255	
31257.863	1	1	0	0	0.14283	0.033748	0.089422	0.13332	0.13977	0.27416	0.16428	0.22794	0.06287	0.30195	0.20897	0.46729	0.13177	0.22384	0.17206	0.26139	-1.9083	-3.1	-2.3542	-2.8708	-3.0479	-2.2375	-3.3979	-2.6437	-2.5583	-3.1417	-2.4688	-2.9396	-3.3	-2.3792	-3.1896	-3.0333	49.253	176.442	145.612	269.828	143.467	89.495	248.089	277.523	62.490	90.029	261.441	291.359	260.910	271.810	43.443	266.306	0.00045441	0.00082395	0.00029178	1492.5	6.3897e-06	9.2886e-06	1438.3	564.19	6.9744e-06	1.0981e-05	637.66	236.77	192.65	85.043	7.6327e-06	120.24	0.0029437	0.0060346	0.0017224	1466.4	5.515e-05	6.8534e-05	1417.4	558.15	5.7298e-05	6.673e-05	630.86	236.73	192.56	85.304	6.006e-05	120.15	232.738	15.305	51.478	-45.742	122.811	85.772	-45.881	-41.077	138.766	98.713	-42.136	-37.248	-36.250	-31.827	107.986	-33.558	-8191	255	
31257.961	1	1	0	0	0.092683	0.046132	0.28741	0.31084	0.22065	0.12685	0.15252	0.21827	0.026846	0.072381	0.23648	0.029375	0.047208	0.1307	0.15649	0.34512	-1.8875	-3.1208	-2.3917	-2.6979	-3.1792	-2.1021	-3.1646	-2.9271	-2.3646	-3.2479	-2.625	-2.8271	-3.1917	-2.35	-3.0792	-2.9479	259.914	21.620	7.548	243.418	231.383	146.247	274.638	292.775	38.964	21.949	237.310	122.899	-36.926	248.832	149.803	216.731	0.00040777	0.0011708	0.00027384	1491.7	7.2656e-06	5.9358e-06	1434.7	559.67	6.6472e-06	8.9788e-06	633.66	234.29	192.07	84.945	3.7663e-06	120.51	0.0029715	0.0061068	0.0016878	1465.8	5.5093e-05	6.8909e-05	1410.8	555.56	5.6728e-05	6.8507e-05	628.62	234.57	191.98	85.2	6.0625e-05	120.27	234.202	29.014	17.233	-45.671	154.325	103.144	-45.984	-41.121	105.004	104.473	-41.927	-37.140	-36.374	-31.800	104.491	-33.502	-8191	255	
31258.080	1	1	0	0	0.15998	0.088832	0.17484	0.18825	0.10345	0.09175	0.21825	0.23685	0.42084	0.1166	0.22787	0.17925	0.22238	0.41711	0.13826	0.29473	-1.7875	-2.9292	-2.5146	-2.5438	-2.9375	-2.2333	-3.0438	-3.1583	-2.35	-3.1292	-2.8458	-2.5771	-3.2562	-2.625	-2.6	-3.1021	41.292	-58.771	175.658	261.958	-34.021	62.868	220.103	227.693	122.386	46.368	279.469	-39.908	-30.086	256.312	165.383	199.838	0.00042479	0.00081233	0.000242	1494	7.2318e-06	7.9934e-06	1445.6	564.07	8.6053e-06	1.3283e-05	636.69	233.84	191.35	84.741	3.9089e-06	120.37	0.0029761	0.0060172	0.0016992	1469	5.6413e-05	7.016e-05	1419.3	557.32	5.7581e-05	6.9372e-05	630.06	234.48	191.78	85.016	6.1432e-05	120.27	234.851	12.309	29.757	-45.760	102.807	117.665	-46.139	-41.044	117.912	116.989	-42.071	-37.050	-36.104	-31.786	134.120	-33.667	-8191	255	
31258.178	1	1	0	0	0.1405	0.15081	0.24028	0.40607	0.1559	0.035816	0.42181	0.28811	0.23749	0.0039452	0.09744	0.39108	0.11707	0.22848	0.094367	0.22336	-1.6854	-3.1167	-2.6708	-2.4562	-3.1771	-2.2917	-2.8646	-3.3583	-2.125	-3.0146	-2.9708	-2.5583	-3.3083	-2.7021	-2.6604	-3.3333	265.828	121.002	63.462	214.197	-6.003	257.905	264.062	267.324	-2.107	146.428	-24.317	224.388	-14.763	29.430	224.260	200.102	0.00038554	0.0011023	0.00029718	1487.6	8.018e-06	8.3712e-06	1442.5	561.96	9.803e-06	6.615e-06	638.42	236.8	192.54	85.115	1.179e-05	122.44	0.0029686	0.0061023	0.0017181	1466.9	5.6363e-05	6.8874e-05	1418.4	557.45	5.7562e-05	6.9361e-05	632.97	236.58	192.63	85.606	6.191e-05	122	233.278	27.788	32.191	-45.880	86.252	76.899	-46.031	-41.008	141.903	73.947	-41.911	-37.310	-35.946	-31.439	107.212	-33.466	-8191	255	
31258.273	1	1	0	0	0.24773	0.22944	0.20339	0.048578	0.13462	0.095761	0.36034	0.39887	0.21223	0.086692	0.27382	0.17808	0.15558	0.10171	0.22541	0.25651	-2.1188	-2.8812	-2.7229	-2.5292	-3.2292	-2.5604	-2.7479	-3.3042	-2.3187	-2.9083	-3.2104	-2.2771	-3.1021	-2.75	-2.4938	-3.4146	192.150	71.852	206.753	204.459	100.447	-26.020	239.951	255.913	48.307	226.113	248.464	-56.914	287.532	-55.142	-29.278	298.384	0.00036858	0.0011104	0.00041249	1502.1	7.8085e-06	1.0698e-05	1457.3	568.59	4.8934e-06	7.3249e-06	650.48	238.91	195.01	86.862	4.212e-06	123.84	0.0029391	0.0060936	0.0017267	1473.8	5.7045e-05	7.0609e-05	1434.3	562.18	5.9036e-05	7.0914e-05	643.27	239.6	195.08	87.257	6.2874e-05	123.63	233.051	26.119	36.846	-45.506	133.325	63.569	-45.803	-40.630	126.947	81.152	-41.826	-37.266	-36.032	-31.684	78.093	-33.432	-8191	255	
31258.369	1	1	0	0	0.12763	0.079045	0.075821	0.23381	0.32033	0.019911	0.12331	0.2178	0.16902	0.15072	0.13912	0.23348	0.24277	0.090008	0.22111	0.19173	-1.9312	-2.7313	-2.875	-2.4375	-2.9813	-2.6188	-2.625	-3.2792	-2.2646	-2.6813	-3.2792	-2.5354	-3.1917	-2.8312	-2.3479	-3.2229	96.667	246.557	37.789	250.167	117.064	99.338	21.621	218.641	132.968	147.293	-6.107	276.941	243.220	-39.585	92.639	246.409	0.00039495	0.00064565	0.00026006	1513.8	4.1398e-06	1.2792e-05	1465.4	572.76	7.0718e-06	9.2764e-06	649.9	238.22	195.08	86.951	6.4397e-06	123.5	0.0030252	0.0063313	0.0017358	1485.7	5.8393e-05	7.2272e-05	1441	567.17	6.0056e-05	7.2329e-05	644.22	238.33	195.27	87.2	6.4317e-05	123.33	234.919	25.862	56.477	-45.853	118.616	97.798	-45.746	-40.817	122.701	86.157	-41.966	-37.180	-35.926	-31.631	139.273	-33.438	-8191	255	
31258.490	1	1	0	0	0.14569	0.21507	0.040725	0.31169	0.26615	0.15944	0.30002	0.29856	0.23216	0.1246	0.18093	0.2252	0.19721	0.26228	0.089112	0.17938	-2.1229	-2.6562	-2.9604	-2.2833	-3.1437	-2.8458	-2.4437	-3.4062	-2.3688	-2.4625	-3.2792	-2.3875	-3.0708	-3.0167	-2.3438	-3.3417	163.485	149.023	127.265	-55.241	-15.712	45.812	204.988	260.497	-29.841	-22.516	258.539	230.592	-47.470	12.143	274.835	233.117	0.00037154	0.00084218	0.00020934	1511.5	6.5251e-06	9.2907e-06	1463.6	574	6.9219e-06	1.0719e-05	648.22	238.19	195.04	86.838	5.9713e-06	123.2	0.0030765	0.0064252	0.0017564	1486	5.959e-05	7.1849e-05	1438.8	567.92	5.9832e-05	7.1399e-05	643.39	238.2	194.95	87.033	6.3228e-05	123.34	241.974	28.124	35.591	-45.607	124.904	72.269	-45.876	-40.865	100.974	88.687	-41.957	-37.262	-35.862	-31.656	93.265	-33.467	-8191	255	
31258.562	1	1	0	0	0.061092	0.071955	0.14189	0.21434	0.081076	0.078642	0.23438	0.07698	0.18119	0.2101	0.019227	0.3564	0.34258	0.34982	0.24615	0.30019	-2.1813	-2.45	-3.0292	-2.5854	-2.9208	-3.0208	-2.4562	-3.2354	-2.5687	-2.3521	-3.4604	-2.5438	-3.0187	-3.2208	-2.2146	-3.3208	9.737	-25.272	-47.798	-57.612	258.301	237.319	268.810	218.735	99.921	223.465	80.369	251.153	298.227	258.281	287.400	258.944	0.00038547	0.0012452	0.00038101	1506.2	9.6154e-06	6.9093e-06	1460.7	570.67	5.4436e-06	7.2198e-06	650.52	239.66	195.91	86.893	1.323e-05	124.72	0.0030637	0.0062949	0.0017483	1480.5	5.8429e-05	7.1157e-05	1435.9	565.51	5.8989e-05	6.9586e-05	645.21	240.46	195.8	87.296	6.2999e-05	124.54	235.490	25.186	37.659	-45.729	132.802	92.249	-46.010	-40.673	120.134	100.051	-41.644	-37.102	-35.786	-31.560	108.896	-33.240	-8191	255	
31258.658	1	1	0	0	0.12578	0.14316	0.0080392	0.28736	0.13284	0.057155	0.30005	0.29738	0.11599	0.041881	0.09721	0.23912	0.18296	0.26141	0.21613	0.17181	-2.3708	-2.5042	-3.0312	-2.6875	-2.7729	-3.0229	-2.4521	-3.3646	-2.7896	-2.3937	-3.5104	-2.5917	-2.6521	-3.2583	-2.3125	-3.1771	145.200	-9.655	287.543	286.530	157.483	273.763	263.017	266.028	81.815	15.625	259.854	266.966	245.016	284.244	8.685	27.125	0.00037813	0.00087949	0.00037232	1504.9	6.0125e-06	1.4431e-05	1464.5	571.35	3.4731e-06	8.1975e-06	646.62	238.46	195.59	87.272	1.1041e-05	123.35	0.0030741	0.0062382	0.0017724	1478.9	5.8623e-05	7.1074e-05	1438.5	565.69	5.8997e-05	7.071e-05	642.15	238.86	195.38	87.413	6.3886e-05	123.17	241.137	19.242	34.542	-45.536	119.597	90.409	-45.766	-40.633	116.020	104.596	-41.814	-37.148	-35.931	-31.431	125.712	-33.190	-8191	255	
31258.754	1	1	0	0	0.2668	0.14604	0.1506	0.35913	0.10968	0.17579	0.281	0.071913	0.29864	0.13925	0.19698	0.32615	0.42676	0.25597	0.1439	0.26849	-2.3604	-2.3521	-2.9562	-2.6583	-2.6375	-3.2042	-2.3458	-3.1562	-2.8771	-2.4396	-3.2521	-2.5375	-2.7479	-3.275	-2.2708	-3.0062	280.912	94.161	96.025	265.578	10.709	299.732	288.163	181.289	83.915	84.248	231.238	263.394	299.008	277.061	219.870	228.957	0.00040351	0.00086753	0.00023053	1505.7	5.9407e-06	1.3718e-05	1454.5	570.61	6.0742e-06	6.6615e-06	646.14	238.84	195.39	86.883	5.6336e-06	123.58	0.0030426	0.0062954	0.0017711	1479.1	5.8422e-05	7.1671e-05	1431.7	565.23	5.8967e-05	7.0958e-05	641.54	239.26	195.44	87.333	6.2157e-05	123.54	236.125	27.404	46.101	-45.562	110.400	86.618	-45.956	-40.771	128.404	112.524	-41.937	-36.991	-36.065	-31.373	106.264	-33.208	-8191	255	
31258.850	1	1	0	0	0.15894	0.051871	0.11089	0.26638	0.040821	0.1916	0.16163	0.18946	0.12915	0.24675	0.30669	0.079989	0.28669	0.15729	0.18104	0.16438	-2.2542	-2.1979	-2.9938	-2.8104	-2.5479	-3.1146	-2.6458	-3.0563	-2.925	-2.3104	-3.2812	-2.8375	-2.5563	-3.3271	-2.3542	-2.9667	77.545	-39.938	-53.365	259.523	287.657	129.940	241.241	248.240	158.030	171.171	299.918	271.641	-17.838	-38.312	112.430	269.717	0.00036247	0.001168	0.00024032	1505.7	9.5728e-06	9.0816e-06	1456.1	571.7	7.9538e-06	1.155e-05	647.96	240.54	196.18	87.437	9.8993e-06	124.94	0.0029804	0.006263	0.0017596	1480.1	5.8124e-05	7.0405e-05	1433.8	565.88	5.8691e-05	6.9481e-05	643	240.77	196.08	87.686	6.2477e-05	124.64	236.189	33.447	39.992	-45.539	123.468	99.435	-45.990	-40.901	171.575	64.483	-41.903	-37.331	-36.040	-31.775	106.893	-33.483	-8191	255	
31258.969	1	1	0	0	0.16269	0.11475	0.36312	0.2123	0.13254	0.32591	0.26807	0.15918	0.11435	0.29251	0.16359	0.18712	0.29115	0.061599	0.19909	0.12211	-2.7271	-2.1542	-3.0396	-2.9292	-2.3875	-3.2208	-2.6375	-2.7854	-2.9	-2.1854	-3.2146	-2.9375	-2.4917	-3.2687	-2.4729	-2.7167	221.412	105.265	-53.706	236.820	196.443	154.692	263.118	260.843	25.443	142.699	201.122	265.500	-52.727	291.772	-19.154	272.738	0.000394	0.00082554	0.00014984	1505.6	7.0484e-06	9.8555e-06	1466	573.74	3.7766e-06	8.5202e-06	650.42	240.11	196.55	87.262	7.4574e-06	123.96	0.0029659	0.0062468	0.0017219	1481.2	5.7903e-05	7.1294e-05	1440.9	567.21	5.9001e-05	7.1778e-05	644.79	241.08	196.64	87.629	6.2799e-05	123.62	246.965	13.254	26.084	-45.722	119.210	79.834	-45.861	-40.807	62.032	92.498	-42.091	-37.236	-35.994	-31.518	95.476	-33.316	-8191	255	
31259.064	1	1	0	0	0.091001	0.14086	0.30288	0.21368	0.20716	0.14826	0.28906	0.064528	0.071436	0.097125	0.13732	0.091246	0.33316	0.19647	0.16954	0.12513	-2.6854	-2.0812	-2.8042	-2.8688	-2.5271	-3.2812	-2.8021	-2.7958	-3.1729	-2.4583	-3.0167	-3.1063	-2.4	-3.2729	-2.7208	-2.6437	82.713	86.015	141.111	252.664	194.828	286.784	201.329	266.639	196.688	-56.957	-37.676	-22.505	247.054	275.002	126.049	263.343	0.00042527	0.00074999	0.00017658	1504.2	1.2282e-05	5.3802e-06	1456.6	568.94	8.9237e-06	5.9268e-06	644.56	239.3	195.97	87.317	7.5445e-06	123.64	0.0030603	0.0062252	0.0017763	1481.5	5.8277e-05	7.112e-05	1429.1	564.64	5.8419e-05	7.0659e-05	640.35	239.52	195.83	87.617	6.152e-05	123.28	231.225	1.122	2.781	-45.467	123.066	98.008	-45.916	-40.915	139.217	70.046	-42.022	-37.263	-36.066	-31.489	126.016	-33.381	-8191	255	
31259.162	1	1	0	0	0.22593	0.12294	0.11561	0.25189	0.24492	0.13542	0.066438	0.27251	0.20967	0.095914	0.13445	0.3081	0.32918	0.14325	0.096103	0.37533	-2.7396	-2.1958	-2.6	-3.2479	-2.2583	-2.9833	-2.7375	-2.75	-3.2333	-2.4146	-2.6771	-2.9729	-2.4042	-3.4562	-2.6708	-2.6188	-6.618	207.759	57.289	221.124	245.592	225.519	279.767	241.088	8.915	203.482	210.266	-12.992	264.516	289.533	55.959	244.187	0.00040865	0.00090959	0.00030436	1502.6	7.3449e-06	8.1992e-06	1450.4	573.09	5.8029e-06	8.629e-06	647.19	239.42	195.87	87.289	7.7376e-06	123.78	0.003036	0.0062239	0.0017794	1476.8	5.7128e-05	7.0932e-05	1429.3	566.51	5.8588e-05	7.1316e-05	641.09	239.9	196.44	87.662	6.273e-05	123.56	236.804	41.549	26.069	-45.860	120.101	110.000	-45.825	-40.880	126.437	112.811	-41.744	-37.259	-36.046	-31.587	113.845	-33.478	-8191	255	
31259.258	1	1	0	0	0.21153	0.2195	0.20717	0.2332	0.12726	0.22133	0.05387	0.17715	0.34387	0.073342	0.20029	0.13682	0.21387	0.042308	0.057215	0.17412	-2.6542	-2.3458	-2.5521	-3.2646	-2.325	-3.0958	-3.1562	-2.4104	-3.125	-2.5958	-2.75	-3.3292	-2.4	-3.1396	-2.8396	-2.5146	93.187	93.073	96.796	245.669	281.892	117.054	59.446	2.512	76.572	209.251	247.206	218.674	243.945	264.907	244.849	243.563	0.00040942	0.00085556	0.00029418	1503.9	6.0159e-06	1.3044e-05	1454.6	569.75	8.3304e-06	7.3376e-06	650.18	241.8	196.46	88.088	3.7918e-06	124.82	0.0030151	0.0062848	0.0017498	1480.7	5.8208e-05	7.0468e-05	1434.4	565.46	5.8618e-05	6.9949e-05	643.82	241.67	196.91	88.031	6.1821e-05	124.35	234.661	23.265	35.412	-45.887	119.262	103.376	-46.009	-40.678	117.433	88.040	-41.946	-37.368	-36.083	-31.624	106.377	-33.439	-8191	255	
31259.354	1	1	0	0	0.082126	0.19092	0.21971	0.1084	0.25499	0.01001	0.12237	0.553	0.25142	0.099503	0.42132	0.094275	0.13036	0.20862	0.10546	0.14818	-2.8479	-2.3625	-2.5104	-3.4479	-2.275	-2.8792	-3.2458	-2.425	-3.2208	-2.5646	-2.6146	-3.5583	-2.5333	-2.8875	-2.8625	-2.3979	84.819	5.340	164.560	252.353	237.385	281.207	134.001	260.674	255.861	179.979	292.178	252.408	166.561	-33.552	84.433	57.199	0.00038031	0.00052027	0.0002527	1508.5	9.3276e-06	1.0621e-05	1457.4	569.01	8.5061e-06	1.1531e-05	646.21	239.9	195.86	87.251	1.1263e-05	122.82	0.0030098	0.0061229	0.0017321	1483.1	5.7938e-05	7.0939e-05	1433.3	566	5.9357e-05	7.019e-05	639.72	240.15	196.18	87.464	6.1878e-05	122.53	240.230	17.476	56.392	-45.677	105.582	110.318	-45.989	-40.826	122.627	67.595	-42.072	-37.240	-36.098	-31.609	105.739	-33.408	-8191	255	
31259.449	1	1	0	0	0.11972	0.15204	0.018167	0.034784	0.26354	0.18882	0.081958	0.26289	0.13223	0.047158	0.25738	0.16517	0.26713	0.39044	0.20563	0.31225	-2.6208	-2.6583	-2.3354	-3.0958	-2.4292	-2.7229	-3.2604	-2.5458	-2.8146	-2.825	-2.5187	-3.3542	-2.55	-3.0146	-2.9208	-2.4625	180.797	125.822	193.221	281.240	297.945	-17.214	36.018	239.869	268.255	120.198	228.147	277.219	212.914	281.825	186.049	272.700	0.0004112	0.0010573	0.00030038	1502.3	8.7898e-06	1.1759e-05	1448.5	570.85	3.3687e-06	9.3328e-06	643.6	239.57	196.31	87.316	9.7969e-06	123.26	0.003022	0.006243	0.0017221	1477	5.8519e-05	7.0399e-05	1423	564.48	5.9596e-05	6.9148e-05	637.91	239.5	196.49	87.619	6.218e-05	122.94	226.962	3.473	42.220	-45.694	111.613	79.902	-45.840	-40.852	130.122	99.611	-41.967	-37.099	-36.070	-31.555	108.884	-33.249	-8191	255	
31259.570	1	1	0	0	0.14125	0.10895	0.23587	0.10909	0.16833	0.10965	0.2041	0.14785	0.077126	0.21174	0.17738	0.07182	0.20506	0.36387	0.19671	0.35682	-2.7771	-2.7854	-2.4062	-3.1458	-2.2812	-2.5792	-3.2938	-2.5021	-2.7979	-2.8438	-2.45	-3.4479	-2.6979	-2.7292	-2.9708	-2.55	87.305	-24.919	20.461	64.697	107.939	172.674	215.647	225.060	199.060	-40.024	39.867	-52.139	-29.218	282.768	111.104	255.721	0.00038826	0.00078835	0.00027422	1505.3	1.0782e-05	9.7936e-06	1448	571.04	2.4562e-06	1.0825e-05	644.12	240.21	196.27	87.272	6.2947e-06	123.27	0.0030535	0.006171	0.0017594	1478.8	5.8434e-05	7.0549e-05	1425.2	565.41	5.9022e-05	6.9464e-05	638.49	240.44	197.02	87.613	6.2243e-05	123.02	241.111	7.811	43.742	-45.652	106.173	81.726	-46.043	-40.860	88.424	88.332	-42.036	-37.029	-36.100	-31.382	104.920	-33.351	-8191	255	
31259.668	1	1	0	0	0.17489	0.083135	0.16615	0.35783	0.046573	0.36952	0.10933	0.21693	0.20418	0.20763	0.2151	0.29104	0.2315	0.30254	0.27324	0.28927	-2.4313	-2.8292	-2.3271	-3.3104	-2.5729	-2.4583	-3.4417	-2.6312	-2.6604	-2.9854	-2.5438	-3.2042	-2.8458	-2.6729	-3.0312	-2.5854	193.800	72.369	24.964	272.433	169.605	20.055	157.144	268.367	20.051	-17.301	216.617	272.560	273.634	266.972	40.291	262.433	0.00035113	0.00089892	0.00020454	1505	1.0744e-05	1.2457e-05	1455.6	573.1	2.6404e-06	1.3601e-05	644.43	241.12	197.55	87.511	5.8683e-06	122.46	0.0030169	0.0062444	0.0017492	1482.7	5.8164e-05	7.1109e-05	1430.9	566.87	5.9144e-05	6.968e-05	639.67	241.38	197.68	87.784	6.2809e-05	122.58	230.207	67.596	26.779	-45.509	86.012	103.338	-45.831	-40.900	136.354	80.191	-42.078	-37.021	-35.972	-31.522	166.981	-33.320	-8191	255	
31259.762	1	1	0	0	0.22713	0.31699	0.088112	0.3247	0.20623	0.21191	0.24387	0.1325	0.057242	0.10113	0.31157	0.37936	0.1996	0.23021	0.18467	0.41189	-2.3729	-2.9521	-2.0812	-3.2042	-2.8583	-2.3229	-3.3479	-2.5604	-2.525	-3.1354	-2.3812	-3.0396	-2.9188	-2.575	-3.0021	-2.675	206.546	-34.275	122.455	292.563	153.217	89.237	227.403	246.890	208.431	-32.472	280.311	267.844	234.519	-51.004	211.853	232.396	0.00041357	0.00088207	0.00012826	1505.6	5.4638e-06	1.1707e-05	1438.8	569.62	5.0887e-06	9.7392e-06	632.88	236.09	195.45	86.207	8.2079e-06	119.51	0.0030303	0.0062434	0.0017777	1482.7	5.8715e-05	7.2264e-05	1415.5	564.53	6.1054e-05	7.1685e-05	629.86	236.1	195.58	86.419	6.4553e-05	119.54	243.345	23.695	32.297	-45.512	130.029	73.427	-45.838	-40.700	152.768	90.358	-42.080	-37.173	-35.897	-31.639	126.794	-33.280	-8191	255	
31259.857	1	1	0	0	0.21092	0.086704	0.094584	0.06766	0.22557	0.22434	0.19997	0.18611	0.11137	0.26404	0.24815	0.10681	0.33479	0.51241	0.24677	0.34959	-2.1417	-3.0396	-2.1604	-3.1042	-2.9562	-2.3208	-3.5292	-2.8271	-2.7313	-3.3229	-2.4458	-2.8792	-2.8708	-2.5687	-2.9625	-2.8104	198.673	36.393	173.524	-52.168	170.285	291.482	297.819	256.398	131.092	85.029	183.460	209.879	251.907	292.512	282.778	228.280	0.00041625	0.00095702	0.00023169	1502.4	1.2252e-05	5.2002e-06	1430.4	568.38	5.5131e-06	6.382e-06	636.05	237.14	195.87	86.811	6.6467e-06	121.6	0.0031405	0.0064411	0.0018426	1477.1	5.9547e-05	7.2841e-05	1404.7	561.72	5.9536e-05	7.0647e-05	629.55	237.58	196.7	87.064	6.3668e-05	121.41	238.985	39.118	17.362	-45.304	125.764	137.689	-45.732	-40.669	131.899	78.686	-41.895	-37.107	-35.923	-31.356	91.695	-33.393	-8191	255	
31259.953	1	1	0	0	0.070947	0.17543	0.10577	0.28928	0.18252	0.083451	0.24867	0.3082	0.065037	0.11648	0.07096	0.23694	0.22863	0.12094	0.090154	0.32866	-2.0563	-3.1604	-2.1833	-3.0729	-2.9875	-2.0979	-3.1708	-2.825	-2.3104	-3.1854	-2.4667	-2.9417	-3.3042	-2.2896	-3.1312	-2.9646	-28.422	50.271	199.269	293.721	23.110	128.747	220.741	233.840	-48.509	12.632	173.354	269.422	243.327	82.300	249.240	300.521	0.00034656	0.00044527	0.00022668	1503.1	8.2426e-06	8.7107e-06	1452.7	573.71	6.4854e-06	9.3545e-06	649.8	244.38	200.03	88.602	1.0299e-05	124.94	0.0030187	0.0062334	0.0017741	1482.5	5.8407e-05	7.1131e-05	1428.2	567.79	5.8846e-05	7.1449e-05	643.85	244.67	200.26	88.737	6.4211e-05	124.67	234.269	70.682	35.339	-45.562	124.420	109.091	-45.885	-40.838	116.612	97.494	-41.843	-37.039	-35.950	-31.434	148.611	-33.317	-8191	255	
31260.051	1	1	0	0	0.20282	0.11734	0.15487	0.25662	0.11961	0.26138	0.038796	0.36842	0.16231	0.14882	0.26361	0.18973	0.16663	0.27196	0.22336	0.11977	-1.9583	-2.8438	-2.3729	-2.7292	-3.0958	-2.1813	-3.0417	-2.9896	-2.1813	-3.125	-2.6771	-2.7188	-3.1667	-2.5708	-2.9833	-3.1396	51.795	199.284	283.981	261.439	114.242	-13.737	300.598	231.210	142.614	182.344	297.045	296.650	272.333	295.552	23.688	246.435	0.00034698	0.00083044	0.00020411	1509.1	9.9932e-06	1.0547e-05	1459.8	577.98	5.2278e-06	6.2113e-06	649.6	244.95	200.27	88.528	8.2873e-06	123.45	0.0030927	0.006271	0.0017662	1484.5	5.7902e-05	7.2238e-05	1435.4	571.28	5.8576e-05	7.0578e-05	644.25	244.9	200.02	88.723	6.2535e-05	123.52	237.894	31.251	31.430	-45.796	104.037	108.692	-45.882	-40.661	78.524	80.319	-41.965	-37.089	-35.917	-31.633	131.811	-33.488	-8191	255	
31260.170	1	1	0	0	0.15978	0.16293	0.27855	0.13543	0.066884	0.1621	0.2691	0.21915	0.046734	0.042966	0.20659	0.31625	0.17367	0.057907	0.16036	0.17134	-1.8521	-3.0958	-2.6708	-2.675	-3.1854	-2.4125	-3.1271	-3.1146	-2.2708	-3.0771	-2.7625	-2.5104	-3.1625	-2.6542	-2.8417	-3.1125	91.144	193.145	287.337	-49.981	94.947	-38.549	258.841	259.238	211.348	149.029	248.991	261.952	236.713	-48.365	76.022	225.657	0.0004009	0.00067126	0.00038194	1504.7	6.0246e-06	1.0988e-05	1446.9	574.55	3.4554e-06	9.4868e-06	646.24	242.32	199.71	88.333	7.2954e-06	123.45	0.0030838	0.0062255	0.0017782	1479.3	5.8284e-05	7.2265e-05	1422.2	569.17	5.8846e-05	7.0997e-05	640.51	242.74	199.94	88.513	6.3054e-05	123.43	236.996	34.505	42.292	-45.641	109.771	65.551	-45.916	-40.611	132.444	80.630	-42.005	-37.190	-35.977	-31.623	122.870	-33.451	-8191	255	
31260.266	1	1	0	0	0.14915	0.072387	0.10713	0.10066	0.041205	0.043746	0.26521	0.0915	0.21185	0.19324	0.1474	0.15515	0.10743	0.26277	0.079417	0.19105	-1.8937	-2.9833	-2.725	-2.575	-3.1625	-2.2667	-2.9021	-3.2	-2.2271	-3.2396	-2.8708	-2.5771	-3.2812	-2.6792	-2.6	-3.2729	51.894	45.689	283.458	169.601	14.367	42.891	231.669	288.863	33.173	273.968	241.828	223.886	-4.104	-45.957	252.235	273.987	0.00040856	0.00065379	8.6345e-05	1511.6	7.5671e-06	1.0051e-05	1445.6	576.36	7.6096e-06	7.79e-06	648.21	244.33	200.21	88.931	4.9073e-06	124.75	0.0030472	0.0063545	0.0017357	1482.3	5.8258e-05	7.0621e-05	1424.1	570.33	5.8934e-05	7.1328e-05	643.08	244.77	200.68	88.975	6.2352e-05	124.41	233.500	27.509	0.583	-45.382	102.682	98.579	-45.502	-40.662	152.185	122.726	-42.022	-37.124	-36.020	-31.645	100.714	-33.323	-8191	255	
31260.363	1	1	0	0	0.070795	0.12516	0.022811	0.35972	0.073801	0.19504	0.29762	0.32249	0.21512	0.25364	0.094325	0.29363	0.32721	0.15178	0.17575	0.28091	-1.6562	-2.9229	-2.7896	-2.6854	-2.9813	-2.5979	-2.6583	-3.3875	-2.3125	-2.9313	-3.0021	-2.3771	-3.275	-2.7583	-2.4729	-3.4125	174.651	-28.156	88.828	258.272	-13.339	130.643	-34.676	217.740	294.194	-47.123	293.407	245.467	284.142	289.401	182.338	237.262	0.0003547	0.00098486	0.00034116	1511.6	9.079e-06	1.261e-05	1460.8	576.25	5.573e-06	8.1365e-06	651.14	246.49	201.52	88.928	4.4237e-06	125.04	0.0031003	0.0062852	0.0017655	1483.5	5.7193e-05	7.1374e-05	1431.4	571.01	5.9239e-05	7.0441e-05	646.65	246.63	201.51	89.168	6.3453e-05	125.01	241.011	40.937	49.521	-45.597	116.695	74.886	-45.728	-40.647	104.682	109.874	-42.003	-36.860	-35.842	-31.485	91.841	-33.300	-8191	255	
31260.434	1	1	0	0	0.10291	0.023311	0.15871	0.37076	0.099945	0.28809	0.29157	0.14034	0.24364	0.12963	0.30393	0.29122	0.070854	0.16641	0.27528	0.39525	-2.0438	-2.7604	-2.975	-2.3125	-3.0583	-2.5083	-2.7542	-3.2812	-2.3583	-2.7146	-3.0875	-2.4958	-3.0646	-2.7625	-2.2646	-3.3458	103.372	6.936	54.958	244.376	108.370	66.697	229.871	298.761	57.231	121.921	253.435	254.499	296.241	289.545	96.127	-56.160	0.00040768	0.0010387	0.00031985	1509.6	4.984e-06	1.0821e-05	1450.6	577.56	5.2008e-06	8.1286e-06	649.97	245.2	200.69	88.701	7.9512e-06	124.29	0.0030531	0.0063252	0.0017651	1483.8	5.8916e-05	7.1535e-05	1427.7	571.35	5.9894e-05	7.1206e-05	644.04	245	200.96	89.073	6.3165e-05	124.15	241.043	22.572	45.659	-45.485	104.914	96.600	-45.592	-40.631	104.200	93.499	-41.907	-37.222	-35.732	-31.584	104.947	-33.415	-8191	255	
31260.529	1	1	0	0	0.23222	0.12964	0.19271	0.039607	0.096999	0.32254	0.22204	0.17102	0.1056	0.038673	0.17421	0.094262	0.18522	0.16461	0.25605	0.28015	-2.0708	-2.4875	-2.8833	-2.2083	-2.8521	-2.8063	-2.5542	-3.275	-2.3312	-2.5083	-3.3	-2.4708	-3.0104	-2.8667	-2.225	-3.4208	170.651	-5.644	6.452	280.141	267.253	117.486	276.317	214.587	132.162	98.005	-22.446	223.631	-15.279	226.806	130.698	246.178	0.00042006	0.00092456	0.00032562	1512.8	6.8635e-06	9.4898e-06	1449.9	576.96	5.995e-06	8.0751e-06	652.65	245.16	201.56	89.478	7.7759e-06	125.34	0.0030643	0.0062637	0.001768	1484.8	5.7723e-05	7.0884e-05	1427.3	572.19	5.9889e-05	7.073e-05	644.97	245.27	201.56	89.565	6.3468e-05	124.87	236.880	17.887	28.704	-45.331	135.837	108.517	-45.715	-40.584	163.144	63.965	-41.889	-37.049	-35.697	-31.511	128.677	-33.442	-8191	255	
31260.650	1	1	0	0	0.34184	0.10679	0.084279	0.33727	0.10149	0.2164	0.32332	0.23323	0.15049	0.051467	0.24326	0.12214	0.07023	0.33752	0.1744	0.31735	-2.1396	-2.4875	-2.8729	-2.2271	-2.8396	-2.725	-2.275	-3.2146	-2.4354	-2.4062	-3.1896	-2.2938	-2.9458	-3.1375	-1.9979	-3.2104	206.330	79.273	227.987	266.896	26.488	-16.782	211.899	247.983	238.588	-32.633	295.103	190.748	187.718	225.212	-12.931	205.392	0.0004003	0.0010618	0.00031632	1507.8	5.4365e-06	9.934e-06	1454.6	578.97	6.1358e-06	1.0627e-05	653.16	245.75	202.47	89.603	8.1109e-06	126.13	0.0030885	0.0063252	0.0017695	1484.2	5.8298e-05	7.0982e-05	1431.5	573.04	5.8962e-05	6.9106e-05	647.77	246.38	202.2	89.928	6.3002e-05	125.81	239.300	44.858	40.270	-45.327	96.661	75.162	-45.758	-40.415	139.910	88.421	-41.795	-37.028	-35.823	-31.390	124.918	-33.303	-8191	255	
31260.746	1	1	0	0	0.098034	0.15728	0.066648	0.10807	0.26819	0.31156	0.17402	0.14207	0.22975	0.18814	0.13869	0.2944	0.33534	0.24248	0.47469	0.28049	-2.3771	-2.3688	-2.9979	-2.6479	-2.6229	-2.8271	-2.5479	-3.1437	-2.675	-2.3125	-3.2562	-2.4208	-3.0125	-3.2542	-2.1063	-3.0354	223.233	287.039	155.521	209.741	153.910	-45.442	206.788	234.687	-41.046	184.928	210.735	240.300	265.989	282.864	287.161	280.399	0.00041384	0.00081619	0.00028669	1513	9.1346e-06	1.1948e-05	1467.8	580.81	7.2224e-06	7.4182e-06	660.49	248.64	203.37	90.316	3.7909e-06	126.85	0.0030168	0.0063463	0.0017502	1489.2	5.7718e-05	6.9291e-05	1441.8	575	5.7971e-05	7.0955e-05	653.18	248.97	203.36	90.34	6.3653e-05	126.66	237.297	35.756	48.837	-45.523	82.774	102.496	-46.043	-40.887	122.895	113.802	-42.009	-37.298	-35.979	-31.784	100.234	-33.257	-8191	255	
31260.844	1	1	0	0	0.17122	0.12862	0.20074	0.12988	0.22436	0.2081	0.19893	0.23931	0.33834	0.17003	0.1813	0.34984	0.20034	0.33712	0.39048	0.12842	-2.3396	-2.1479	-3.075	-2.6063	-2.3937	-3.0917	-2.4188	-2.9188	-2.7333	-2.0687	-3.3792	-2.6521	-2.7396	-3.3375	-2.3104	-3.1875	232.596	161.662	187.683	267.504	215.892	-35.645	275.348	250.271	160.067	293.812	-51.242	236.289	-48.965	278.856	42.473	287.934	0.00035739	0.00088448	0.00025092	1516	1.0565e-05	1.3951e-05	1464.9	581.66	4.7235e-06	1.3384e-05	655.49	245.03	202.9	90.007	7.9059e-06	125.27	0.0030646	0.0062368	0.0017494	1489.7	5.7451e-05	7.1264e-05	1439	575.25	5.9169e-05	7.1092e-05	648.91	246	202.97	90.182	6.3381e-05	125.14	240.160	37.182	54.744	-45.594	129.092	91.907	-45.813	-40.643	127.048	82.355	-41.858	-37.185	-35.987	-31.482	155.788	-33.286	-8191	255	
31260.963	1	1	0	0	0.034058	0.13638	0.050621	0.27304	0.11265	0.19704	0.1628	0.10492	0.094838	0.084311	0.28103	0.18415	0.3891	0.2404	0.26209	0.16683	-2.4625	-2.1604	-3.1146	-2.8021	-2.2771	-3.2958	-2.4417	-3.0292	-2.9104	-2.1688	-3.2271	-2.6896	-2.4354	-3.4229	-2.4354	-3.1479	156.789	148.705	141.202	274.595	221.276	297.866	-10.608	265.483	289.861	195.108	265.816	234.556	272.801	265.736	289.352	300.315	0.00035579	0.0010889	0.00026467	1516.4	1.2319e-05	1.0289e-05	1450.4	579.71	5.7155e-06	1.0615e-05	650.33	246.21	202.31	90.033	8.0636e-06	125.48	0.0030508	0.0063248	0.0017624	1487.9	5.8619e-05	7.1906e-05	1429.9	574.59	5.9657e-05	7.1721e-05	646.06	245.83	202.49	90.172	6.2783e-05	125.57	238.324	47.894	23.348	-45.575	108.938	94.382	-45.713	-40.744	129.663	93.177	-41.527	-37.106	-35.740	-31.302	110.850	-33.414	-8191	255	
31261.033	1	1	0	0	0.10949	0.32846	0.081829	0.25608	0.079767	0.055516	0.037714	0.14372	0.1192	0.21498	0.29339	0.27027	0.25879	0.18444	0.1589	0.20543	-2.6688	-2.3312	-2.9583	-3.0167	-2.2812	-3.0458	-2.6188	-3.025	-2.9021	-2.2792	-3.1792	-2.9583	-2.5375	-3.3479	-2.3854	-2.7104	300.851	30.170	104.348	268.552	131.578	254.994	170.826	202.157	187.056	-10.280	252.069	35.173	264.580	234.033	186.088	226.656	0.00041451	0.00088904	0.0003112	1511.3	6.3116e-06	1.0507e-05	1459.5	580.56	3.4741e-06	8.7744e-06	654.17	247.75	203.56	90.682	3.7631e-06	127.18	0.0030688	0.0062595	0.0017891	1487.5	5.7613e-05	7.0818e-05	1434.7	575.21	5.8362e-05	7.1059e-05	649.94	247.84	203.68	90.995	6.3398e-05	127.06	241.012	37.695	32.123	-45.282	111.792	91.325	-45.980	-40.616	117.651	87.269	-41.704	-37.013	-35.906	-31.400	137.222	-33.274	-8191	255	
31261.131	1	1	0	0	0.18332	0.12757	0.069606	0.31579	0.04108	0.047648	0.20646	0.21204	0.1356	0.093864	0.35485	0.13713	0.23992	0.18788	0.04752	0.34566	-2.8708	-2.1437	-2.8563	-2.9813	-2.4062	-3.2042	-2.7458	-2.7625	-3.0875	-2.3021	-2.9437	-3.1375	-2.5938	-3.3896	-2.6729	-2.6562	36.972	0.606	297.949	229.977	-8.648	243.154	226.336	248.138	297.132	272.558	227.610	284.596	269.952	288.780	134.541	244.110	0.00040569	0.00023621	0.000141	1520.6	7.1839e-06	6.8512e-06	1477.2	585.74	3.817e-06	9.4856e-06	664.71	250.5	205.04	90.999	9.9499e-06	127.35	0.0031087	0.0063423	0.0017886	1496.4	5.9209e-05	7.1382e-05	1453.7	580.19	6.0026e-05	7.2464e-05	659.14	250.64	205.14	91.299	6.5149e-05	127.09	239.068	4.557	51.754	-45.333	137.127	39.034	-45.626	-40.491	136.371	107.049	-41.645	-37.160	-35.679	-31.534	109.175	-33.310	-8191	255	
31261.252	1	1	0	0	0.17171	0.058449	0.14876	0.12832	0.11138	0.084461	0.3633	0.28308	0.029301	0.22461	0.43362	0.31344	0.2819	0.20405	0.13468	0.2196	-2.675	-2.2042	-2.6562	-3.0958	-2.0958	-3.1271	-2.7583	-2.5125	-3.1458	-2.2917	-2.7896	-3.2021	-2.4042	-3.2313	-2.6417	-2.7104	-52.591	-46.654	59.561	290.606	123.343	-39.655	252.235	260.904	-28.126	227.426	255.641	260.223	274.364	-54.419	123.235	284.639	0.00039397	0.00085134	0.00021857	1516.5	4.9357e-06	8.8262e-06	1465.6	583.52	8.919e-06	1.0777e-05	657.54	247.12	203.19	90.773	7.0049e-06	126.23	0.0031256	0.0064665	0.001808	1493.7	5.8774e-05	7.2343e-05	1441.9	578.33	6.0005e-05	7.3075e-05	651.46	247.28	203.46	90.937	6.425e-05	126.12	231.947	15.986	31.947	-45.308	110.964	101.163	-45.664	-40.557	119.281	99.658	-41.616	-37.027	-35.979	-31.454	112.740	-33.252	-8191	255	
31261.348	1	1	0	0	0.1558	0.21438	0.20534	0.20671	0.25586	0.044433	0.11454	0.54342	0.12541	0.46178	0.24397	0.12466	0.057027	0.21439	0.23508	0.46246	-2.6875	-2.2292	-2.6063	-3.1	-2.1729	-2.8937	-3.0375	-2.5687	-3.1	-2.3625	-2.7229	-3.0583	-2.3542	-3.1771	-2.7667	-2.2167	134.473	46.532	225.116	244.566	197.348	291.332	242.738	268.001	297.549	147.009	274.533	283.005	179.160	-31.204	197.153	198.652	0.00037959	0.00083011	0.00038155	1508.4	1.0043e-05	1.1283e-05	1452.9	581.78	6.3691e-06	1.0486e-05	651.73	247.64	202.86	90.469	9.0457e-06	126.17	0.0031166	0.0064739	0.0018102	1484.7	5.8729e-05	7.361e-05	1432.2	576.24	6.0739e-05	7.1768e-05	647.16	247.22	203.33	90.746	6.3059e-05	125.75	246.538	6.179	48.763	-45.586	120.150	61.223	-45.901	-40.592	131.597	80.287	-41.760	-37.045	-36.035	-31.619	100.742	-33.548	-8191	255	
31261.443	1	1	0	0	0.094532	0.26387	0.19351	0.33219	0.13259	0.17303	0.2866	0.15958	0.033213	0.29549	0.096225	0.11444	0.11363	0.21055	0.2886	0.33532	-2.8417	-2.3167	-2.3937	-3.225	-2.1854	-2.7313	-3.0396	-2.5125	-3.0854	-2.5438	-2.4729	-3.2146	-2.7604	-2.9708	-2.6896	-2.5833	26.132	253.834	293.486	-54.727	136.002	276.204	246.238	262.266	119.903	46.737	207.620	-50.228	298.782	282.731	163.369	283.949	0.00042468	0.001017	0.00025071	1507.5	5.6513e-06	1.5297e-05	1453.8	581.27	5.4809e-06	9.2381e-06	657.18	249.4	203.95	90.484	7.3235e-06	126.5	0.0030948	0.0062761	0.0017625	1484.6	5.812e-05	7.233e-05	1430.4	576.47	5.8702e-05	7.1602e-05	650.78	249.38	204.25	90.962	6.2576e-05	126.45	239.618	15.673	49.050	-45.638	134.635	72.535	-45.953	-40.915	113.513	89.878	-41.943	-37.102	-36.125	-31.797	134.894	-33.501	-8191	255	
31261.564	1	1	0	0	0.17979	0.013067	0.10757	0.12541	0.067971	0.17583	0.19172	0.38969	0.18856	0.17313	0.33118	0.15974	0.2504	0.28523	0.1448	0.29568	-2.6521	-2.5396	-2.3688	-3.15	-2.25	-2.5687	-3.3417	-2.5062	-3.075	-2.6042	-2.3854	-3.2625	-2.6479	-2.8208	-2.9667	-2.4437	288.625	111.261	73.657	247.085	105.810	296.275	192.299	278.782	91.673	26.079	289.720	200.218	-49.174	291.960	227.844	235.055	0.00042691	0.00023981	0.00023165	1510.1	5.2419e-06	1.5175e-05	1460.5	583.88	6.8413e-06	6.4947e-06	655.69	250.21	204.64	90.503	8.0539e-06	126.08	0.0030407	0.0061411	0.0017455	1483.5	5.8044e-05	7.0971e-05	1436.1	578.33	5.8904e-05	7.0461e-05	652.05	250.38	204.81	90.91	6.1719e-05	125.82	241.493	31.663	15.347	-45.740	115.629	85.083	-46.190	-40.867	139.432	89.745	-41.866	-37.407	-36.331	-31.619	127.927	-33.360	-8191	255	
31261.660	1	1	0	0	0.15524	0.021494	0.17791	0.27942	0.28808	0.23928	0.21205	0.33908	0.17808	0.069334	0.34127	0.19011	0.35425	0.3967	0.17285	0.10831	-2.625	-2.5292	-2.3021	-3.1854	-2.3896	-2.6667	-3.125	-2.425	-2.8271	-2.6104	-2.3187	-3.275	-2.5292	-2.6396	-3.0396	-2.525	273.743	18.894	242.561	252.971	-58.186	195.661	198.314	227.778	255.399	230.886	-45.350	-17.695	267.899	283.376	68.902	231.435	0.00035987	0.001215	0.000199	1504.6	1.1929e-05	9.1866e-06	1445.6	581.87	5.1548e-06	8.5317e-06	652.34	246.59	203.74	90.5	1.1e-05	125.49	0.0030322	0.0061995	0.0017349	1482.1	5.8344e-05	7.048e-05	1422.4	576.08	5.8232e-05	6.967e-05	645.96	247.7	203.9	90.584	6.1005e-05	125.28	239.848	30.806	32.513	-45.517	128.199	75.046	-46.024	-40.717	113.772	62.589	-41.950	-37.597	-36.306	-31.908	138.932	-33.687	-8191	255	
31261.730	1	1	0	0	0.1438	0.27131	0.24732	0.18057	0.080462	0.1492	0.30447	0.14976	0.26845	0.15808	0.12563	0.59706	0.21317	0.36016	0.14112	0.22547	-2.175	-2.7521	-2.0687	-3.2812	-2.375	-2.3396	-3.3396	-2.5458	-2.6646	-2.7958	-2.3771	-3.1417	-2.7792	-2.5771	-3.0479	-2.3937	118.934	127.707	134.344	281.672	90.782	128.916	195.953	262.142	-58.598	-42.341	264.152	238.325	164.713	217.724	290.288	246.655	0.00035798	0.0011054	0.00017253	1500.8	8.269e-06	8.4677e-06	1446.2	580.32	6.0257e-06	5.9479e-06	649.91	247.97	203.48	89.973	1.0132e-05	124.3	0.0029642	0.0059917	0.0017005	1475.6	5.6241e-05	6.9005e-05	1421.6	575.08	5.7429e-05	6.7937e-05	646.54	247.97	203.78	90.205	6.1701e-05	124.39	242.942	19.264	23.489	-45.650	148.752	112.883	-46.056	-40.881	138.720	77.508	-42.061	-37.233	-36.135	-31.665	138.907	-33.666	-8191	255	
31261.828	1	1	0	0	0.24607	0.2302	0.15499	0.21644	0.099387	0.16268	0.38482	0.29642	0.12669	0.05001	0.060539	0.37414	0.17014	0.069075	0.1546	0.12102	-2.2812	-2.8812	-2.1813	-3.3167	-2.5563	-2.2396	-3.2854	-2.5354	-2.8875	-3.1813	-2.4271	-3.0896	-3.05	-2.6104	-3.2396	-2.6667	294.894	128.281	190.782	280.154	92.109	209.966	190.803	217.095	280.814	-42.354	240.795	274.382	291.539	143.208	81.411	251.492	0.00039025	0.00087492	0.00027914	1502.4	1.1527e-05	1.0594e-05	1442.2	580.03	7.8662e-06	1.449e-05	646.1	247.39	202.14	88.721	5.8117e-06	123.55	0.0029906	0.0060922	0.0017248	1480	5.6936e-05	6.9276e-05	1418.2	573.41	5.7392e-05	6.821e-05	641.26	246.89	202.68	89.122	6.0118e-05	123.05	234.992	-5.209	57.036	-45.550	117.570	106.293	-46.035	-40.980	121.338	85.983	-42.138	-37.129	-36.050	-31.648	131.717	-33.616	-8191	255	
31261.945	1	1	0	0	0.016348	0.23115	0.27597	0.11892	0.072441	0.3487	0.17864	0.19699	0.12998	0.11355	0.17088	0.084678	0.1853	0.33219	0.30962	0.1643	-2.1729	-2.9771	-2.0125	-3.0417	-2.775	-2.0167	-3.3438	-2.8937	-2.4667	-3.0729	-2.4667	-3.0021	-2.9604	-2.4667	-2.9354	-2.8292	107.004	72.248	20.221	281.556	82.357	136.495	115.365	167.477	146.222	104.363	173.787	176.572	299.982	232.179	67.890	276.794	0.00043375	0.0012113	0.00019473	1498.6	6.917e-06	1.3817e-05	1436.7	580.58	5.8266e-06	8.6404e-06	647.5	246.96	202.29	88.676	6.3612e-06	122.21	0.0029326	0.0059973	0.001664	1471	5.5814e-05	6.8074e-05	1412.6	573.85	5.5895e-05	6.6652e-05	641.95	247.43	202.97	88.853	5.9331e-05	121.76	228.319	9.463	18.884	-45.668	91.539	107.604	-46.014	-40.783	137.485	118.524	-42.103	-37.201	-36.121	-31.681	114.545	-33.554	-8191	255	
31262.043	1	1	0	0	0.17334	0.22609	0.21349	0.11984	0.098281	0.28269	0.29058	0.1713	0.1255	0.18805	0.2815	0.34964	0.34186	0.17581	0.18584	0.22133	-1.8917	-2.9313	-2.2479	-2.9125	-3.0167	-2.2917	-3.0021	-2.9021	-2.2833	-3.1479	-2.5792	-2.7604	-3.0625	-2.3917	-2.9021	-3.0062	279.767	96.173	60.956	-32.339	268.814	12.879	242.130	-49.698	162.634	251.294	232.824	254.760	284.160	281.617	87.312	-41.343	0.00041219	0.001009	0.0002431	1494.6	9.3869e-06	1.2128e-05	1426.6	578.85	5.7854e-06	9.4194e-06	646.48	247.58	204.09	89.776	1.002e-05	123.68	0.0028981	0.005958	0.0016562	1472.5	5.492e-05	6.7741e-05	1400.7	572.88	5.6924e-05	6.6922e-05	640.38	247.32	204.39	89.975	6.1438e-05	123.74	238.891	12.499	50.699	-45.903	77.718	116.307	-45.956	-40.894	169.382	91.395	-42.246	-37.326	-36.084	-31.731	121.699	-33.741	-8191	255	
31262.139	1	1	0	0	0.26587	0.048743	0.090417	0.24052	0.080902	0.086742	0.1138	0.37718	0.14963	0.2777	0.11057	0.013946	0.13799	0.14112	0.36301	0.15113	-1.6729	-3.0542	-2.5146	-2.8729	-3.1333	-2.0708	-3.2	-2.9083	-2.3229	-3.1188	-2.6979	-2.6542	-3.1917	-2.4833	-2.825	-3.0292	-12.732	136.059	125.981	226.720	-19.784	50.699	-58.545	264.913	35.957	15.078	213.348	12.850	-40.750	245.636	234.243	-31.164	0.00040581	0.0010227	0.0002301	1498.5	5.4466e-06	3.6775e-06	1428.8	577.34	7.5816e-06	1.1282e-05	641.81	244.82	203.04	89.05	1.1413e-05	122.66	0.0029726	0.0060481	0.0017187	1471.9	5.6476e-05	6.8899e-05	1401	571.94	5.6795e-05	6.609e-05	635.73	244.92	202.81	89.172	6.0645e-05	122.64	236.469	46.003	52.514	-45.491	104.627	81.754	-45.953	-40.923	116.425	63.975	-42.024	-37.356	-36.135	-31.652	119.589	-33.605	-8191	255	
31262.234	1	1	0	0	0.25673	0.21076	0.34245	0.31639	0.25211	0.097706	0.17789	0.26572	0.017834	0.19336	0.2254	0.058941	0.22711	0.20859	0.12556	0.064842	-1.7729	-3.0917	-2.5792	-2.4	-3.0354	-2.1875	-3.0667	-3.2292	-2.0563	-3.0438	-2.6437	-2.4583	-3.2167	-2.525	-2.7542	-3.0979	241.974	4.026	-18.795	-46.997	103.117	-35.977	289.575	236.805	109.257	209.886	258.950	293.726	293.227	241.496	13.168	68.555	0.00038644	0.00085237	0.00026208	1496.5	9.2301e-06	6.8276e-06	1434.5	577.47	6.1367e-06	9.9497e-06	645.93	247.88	204.01	89.613	5.8041e-06	124.63	0.0030018	0.0060093	0.0016776	1470.9	5.5576e-05	6.8754e-05	1407.7	572.64	5.7252e-05	6.8432e-05	640.19	247.55	204.13	89.701	6.1095e-05	124.53	241.091	18.025	19.872	-45.600	90.709	98.525	-46.079	-41.077	97.565	133.528	-42.211	-37.684	-36.141	-31.988	113.836	-33.843	-8191	255	
31262.330	1	1	0	0	0.17576	0.1778	0.21045	0.23866	0.1409	0.25487	0.2443	0.36058	0.21158	0.02144	0.12532	0.40851	0.27208	0.14744	0.23595	0.34776	-2.0042	-3.0333	-2.5708	-2.5229	-3.0854	-2.2938	-2.7042	-3.2479	-2.1479	-3.0167	-2.8833	-2.3854	-3.1312	-2.5646	-2.6458	-3.1896	142.883	293.774	164.416	287.664	113.093	275.338	279.721	250.449	73.255	155.716	296.165	270.482	253.378	275.350	217.643	227.810	0.0004202	0.0011864	0.0003266	1507.8	7.8981e-06	1.2505e-05	1441.5	583.98	1.1194e-06	1.2647e-05	654.17	250.27	205.98	90.853	5.7285e-06	125.9	0.00296	0.0060574	0.0017107	1480.6	5.5222e-05	6.9451e-05	1420.8	578.37	5.7361e-05	6.908e-05	648.6	250.88	206.43	90.99	6.114e-05	125.71	236.690	29.563	30.249	-45.631	96.882	98.143	-45.951	-41.041	146.152	106.621	-42.124	-37.650	-36.492	-32.000	120.657	-33.855	-8191	255	
31262.428	1	1	0	0	0.095454	0.22943	0.056615	0.31046	0.13476	0.13833	0.11958	0.35088	0.072988	0.17219	0.1273	0.086888	0.096203	0.27265	0.12885	0.20459	-1.8354	-2.7771	-2.6417	-2.225	-2.9875	-2.4625	-2.8063	-3.2	-2.0854	-2.7604	-3.0104	-2.4604	-3.1417	-2.6063	-2.4521	-3.3958	146.382	7.121	-4.101	221.253	-44.210	-8.583	297.804	206.833	64.881	44.536	95.940	161.023	165.709	215.980	171.640	258.351	0.00033838	0.00079755	0.00041285	1506.5	8.3939e-06	1.3165e-05	1445.9	583.03	5.6869e-06	6.5391e-06	653.4	249.77	206.66	90.818	3.6572e-06	126.13	0.002953	0.0060719	0.0017005	1479	5.5749e-05	7.0198e-05	1419.5	577.48	5.751e-05	6.8937e-05	647.59	249.82	206.33	91.037	6.1215e-05	125.78	239.286	34.274	19.551	-45.827	123.902	81.188	-45.665	-40.934	159.265	75.233	-42.130	-37.481	-36.184	-31.928	166.992	-33.792	-8191	255	
31262.523	1	1	0	0	0.15864	0.098231	0.069475	0.21203	0.15151	0.13629	0.082306	0.2946	0.075009	0.14968	0.3123	0.22221	0.36108	0.16048	0.089175	0.21385	-1.8667	-2.7417	-2.8438	-2.2062	-3.0271	-2.5979	-2.4708	-3.2146	-2.4146	-2.7021	-2.9833	-2.4042	-3.2438	-2.7833	-2.2958	-3.3708	207.850	287.226	290.274	-26.394	147.451	-31.572	297.448	257.286	68.372	96.752	-50.013	284.853	273.910	289.159	93.739	278.638	0.00044516	0.00057994	0.00026364	1495.7	6.7381e-06	1.3587e-05	1442.5	583.94	5.8585e-06	5.5195e-06	653.56	249.85	206.09	91.303	5.3476e-06	126.7	0.0030004	0.006037	0.0016868	1473	5.5984e-05	6.8841e-05	1418.5	578.96	5.7117e-05	6.7863e-05	649.03	250.24	206.32	91.293	6.07e-05	126.23	236.005	33.138	7.725	-45.668	149.864	52.157	-46.065	-41.004	111.511	78.094	-42.146	-37.590	-36.067	-32.131	119.396	-33.756	-8191	255	
31262.645	1	1	0	0	0.2281	0.23126	0.38675	0.32152	0.18503	0.2479	0.35504	0.22779	0.35433	0.13307	0.30762	0.16703	0.14168	0.38117	0.035658	0.19414	-1.8563	-2.6125	-3.1542	-2.3792	-3.1771	-2.7021	-2.1792	-3.4625	-2.4375	-2.5979	-3.075	-2.5271	-3.0375	-2.8792	-2.25	-3.2625	258.402	256.292	182.128	-54.850	146.182	143.489	285.153	228.097	124.244	227.519	242.762	234.649	212.333	269.165	97.403	185.784	0.00041644	0.00063314	0.00024813	1503	6.5687e-06	1.582e-05	1449.7	586.77	6.0751e-06	1.1788e-05	656.28	252.78	206.64	91.069	9.1234e-06	127	0.00295	0.0059981	0.0016897	1478.3	5.6418e-05	6.8643e-05	1422.9	580.22	5.6956e-05	6.8362e-05	650.35	251.98	206.62	91.181	6.1096e-05	126.63	235.547	47.977	37.687	-45.697	110.922	96.174	-45.800	-40.795	136.892	100.570	-42.173	-37.535	-36.380	-31.924	112.850	-33.846	-8191	255	
31262.740	1	1	0	0	0.036424	0.1643	0.15594	0.42734	0.23937	0.13765	0.083674	0.12938	0.21777	0.3251	0.30618	0.11729	0.14728	0.32115	0.22204	0.12907	-2.0292	-2.4167	-3.1229	-2.6	-2.8083	-2.7562	-2.3604	-3.2917	-2.4938	-2.6167	-3.275	-2.325	-3.025	-3.1312	-2.2938	-3.1271	99.438	280.418	222.668	248.456	-30.604	1.144	102.107	227.669	116.118	43.700	245.343	159.413	166.048	276.735	27.053	278.917	0.00040918	0.00089101	0.00026449	1506.1	9.0655e-06	1.238e-05	1447.8	587.36	6.9863e-06	1.1459e-05	657.57	253.31	206.87	91.347	6.8538e-06	126.82	0.002989	0.0060897	0.0016817	1477.4	5.6162e-05	6.8352e-05	1424.8	581.12	5.717e-05	6.8708e-05	652.85	252.98	207.27	91.527	6.0899e-05	126.77	237.523	23.899	20.154	-45.734	90.903	89.019	-46.161	-41.018	102.696	79.767	-42.140	-37.704	-36.355	-32.119	112.823	-33.728	-8191	255	
31262.836	1	1	0	0	0.082181	0.031166	0.15823	0.34975	0.074866	0.29622	0.28108	0.41726	0.29124	0.093843	0.26378	0.16298	0.26894	0.31361	0.25695	0.20182	-2.1917	-2.275	-3.0917	-2.5083	-2.7417	-2.9792	-2.3896	-2.95	-2.4375	-2.5187	-3.2333	-2.625	-2.7917	-3.1312	-2.1625	-3.1604	32.483	-13.735	41.650	246.014	234.499	181.128	233.083	222.972	164.642	86.308	243.957	257.878	254.453	254.024	38.600	33.953	0.0003624	0.0012576	0.00028121	1505.5	7.4449e-06	7.7331e-06	1443.6	587.95	3.8784e-06	9.969e-06	657.68	253.03	207.56	92.025	8.2801e-06	127.45	0.002969	0.0060564	0.0016951	1483	5.6051e-05	6.8409e-05	1421.9	582.48	5.766e-05	6.882e-05	652.04	253.01	208.48	92.272	6.1341e-05	127.3	235.397	6.718	27.151	-45.734	130.917	121.448	-46.020	-41.046	79.846	107.319	-42.221	-37.553	-36.110	-31.850	123.448	-33.768	-8191	255	
31262.932	1	1	0	131072	0.060206	0.13043	0.1533	0.2048	0.15854	0.15063	0.21403	0.34029	0.051653	0.18621	0.074073	0.21716	0.30323	0.073348	0.12219	0.17585	-2.0771	-2.0896	-2.9521	-2.6271	-2.4938	-2.9646	-2.3792	-3.0854	-2.7854	-2.4333	-3.1708	-2.7208	-2.6646	-3.2354	-2.5458	-3.2062	186.073	265.481	138.499	210.008	80.114	72.561	202.393	240.458	109.749	215.329	259.526	214.229	300.956	212.441	194.040	215.729	0.00038869	0.0012212	0.00029592	1508.4	7.6466e-06	6.8982e-06	1457.4	591.1	5.0273e-06	3.6066e-06	664.01	253.47	208.81	92.085	9.9771e-06	128.22	0.002984	0.0060878	0.0017048	1483.9	5.5907e-05	6.8211e-05	1429.3	583.53	5.7044e-05	6.7747e-05	655.9	253.81	209	92.404	6.1278e-05	128.21	236.460	25.963	38.670	-45.672	114.215	88.257	-45.949	-40.821	97.059	87.356	-41.996	-37.433	-36.073	-31.863	146.696	-33.501	-8191	255	
31263.027	1	1	0	131072	0.2266	0.025271	0.1551	0.25129	0.043922	0.061781	0.2705	0.24001	0.095586	0.050707	0.10667	0.30476	0.10837	0.34638	0.067795	0.16819	-2.4167	-2.2958	-3.0479	-2.8167	-2.525	-3.1917	-2.6312	-3.0375	-2.8438	-2.3083	-3.1771	-2.7812	-2.4792	-3.2229	-2.2687	-2.8937	44.242	179.094	261.109	216.316	175.269	196.390	222.032	280.612	201.411	-14.145	227.336	-28.491	145.168	239.238	242.819	194.530	0.00037452	0.0012495	0.00043713	1505.4	3.453e-06	8.9377e-06	1456.2	590.55	4.8563e-06	6.1439e-06	664.72	255.29	208.45	92.22	7.0545e-06	129.04	0.0029475	0.0060919	0.0017056	1482.8	5.6371e-05	6.8323e-05	1431.4	584.25	5.7151e-05	6.9382e-05	657.7	255.05	208.74	92.557	6.0304e-05	128.55	232.215	42.535	34.342	-45.782	113.295	78.375	-46.051	-40.712	135.795	104.219	-41.901	-37.327	-36.260	-31.883	113.508	-33.584	-8191	255	
31263.123	1	1	0	131072	0.04328	0.2837	0.14894	0.30054	0.22868	0.27191	0.21583	0.33289	0.14113	0.12246	0.15435	0.28872	0.23655	0.1862	0.29205	0.3424	-2.6792	-2.2938	-2.9188	-2.8812	-2.4271	-3.1521	-2.5875	-2.8729	-3.0687	-2.1042	-3.2333	-2.9208	-2.4458	-3.4313	-2.6042	-2.9854	-46.300	24.595	98.338	251.584	180.872	-0.378	275.452	278.161	-21.159	-42.360	284.624	276.574	229.672	223.421	240.028	215.204	0.00040441	0.00080526	0.00032457	1514.2	1.2311e-05	1.3966e-05	1456.5	591.25	6.5494e-06	1.3938e-05	662.82	254.42	209.44	92.592	7.9293e-06	127.94	0.0029786	0.0061225	0.0017133	1488.2	5.7233e-05	6.9834e-05	1435.4	585.14	5.7667e-05	6.9351e-05	657.43	254.84	209.3	92.744	6.1517e-05	127.79	243.633	14.547	37.670	-45.709	139.077	71.026	-45.673	-40.735	137.284	100.169	-42.155	-37.080	-36.064	-31.725	87.908	-33.526	-8191	255	
31263.244	1	1	0	131072	0.17375	0.28956	0.28161	0.13282	0.31739	0.11724	0.24962	0.5819	0.25248	0.20061	0.30705	0.094375	0.29776	0.2199	0.20555	0.46508	-2.7562	-2.1604	-3.0312	-2.9854	-2.3333	-2.9938	-2.5312	-2.7938	-3.0104	-2.1937	-3.0479	-2.9458	-2.3333	-3.3792	-2.5729	-2.6063	164.077	134.420	265.674	36.326	210.832	147.947	267.508	258.066	188.061	10.622	255.206	186.913	254.537	-50.927	140.163	232.621	0.00042117	0.0010613	0.00032055	1512.6	7.2285e-06	1.1686e-05	1446.4	591.83	7.0765e-06	1.3802e-05	658.13	253.55	208.2	92.084	6.882e-06	127.79	0.0029838	0.0060764	0.0017109	1485.6	5.6333e-05	6.9601e-05	1423.8	584.45	5.7044e-05	6.9344e-05	652.34	253.24	208.51	92.415	6.0844e-05	127.43	235.883	18.089	52.248	-45.572	88.411	119.312	-45.896	-40.759	128.004	101.091	-41.903	-37.189	-36.036	-31.591	111.521	-33.421	-8191	255	
31263.340	1	1	0	131072	0.13409	0.17628	0.23788	0.25525	0.13126	0.047236	0.18878	0.36625	0.19817	0.15662	0.19386	0.35463	0.30322	0.19032	0.2303	0.3341	-2.7396	-2.1417	-2.6333	-3.1937	-2.3333	-3.0521	-2.7458	-2.5521	-3.0438	-2.3563	-2.9979	-3.0979	-2.3688	-3.2792	-2.6333	-2.5438	13.651	276.938	125.745	261.880	34.653	42.694	238.984	263.417	-9.903	114.565	245.259	252.473	290.393	-43.429	-26.356	284.181	0.00040186	0.0012118	0.00026118	1507.7	8.0973e-06	1.208e-05	1451.6	590.76	7.8575e-06	1.2209e-05	667.35	256.96	210.19	93.221	7.8896e-06	130.43	0.0029786	0.0061673	0.001704	1483.1	5.684e-05	6.8353e-05	1428.1	585.25	5.6454e-05	6.7356e-05	660.04	256.18	210.06	93.412	6.1025e-05	129.73	238.698	7.859	31.986	-45.795	66.307	83.750	-45.900	-40.752	146.482	101.581	-41.723	-37.262	-35.994	-31.546	102.650	-33.703	-8191	255	
31263.436	1	1	0	131072	0.17612	0.06255	0.28253	0.18385	0.02378	0.15966	0.24312	0.38045	0.2503	0.063176	0.27396	0.041827	0.2927	0.36456	0.10089	0.16692	-2.7104	-2.2938	-2.5146	-3.0854	-2.1167	-2.8771	-3.0125	-2.4625	-3.1021	-2.4604	-2.6833	-3.3875	-2.4729	-3.0563	-2.8292	-2.5271	46.893	12.618	217.767	225.711	260.653	239.145	205.357	269.458	222.920	51.756	239.901	-27.439	235.554	-32.682	255.053	219.239	0.00043628	0.00096723	0.00030229	1519.2	6.5355e-06	8.128e-06	1473.3	595.97	5.5025e-06	7.9989e-06	672.34	257.94	211.04	93.639	3.0599e-06	129.87	0.0029845	0.0060418	0.0017035	1493.6	5.6851e-05	6.8962e-05	1445.4	589.04	5.7314e-05	6.9114e-05	665.01	257.76	211.15	93.77	6.1588e-05	129.58	238.966	28.762	42.923	-45.600	108.792	110.357	-45.962	-40.711	123.670	90.878	-42.002	-37.178	-35.957	-31.427	71.248	-33.411	-8191	255	
31263.531	1	1	0	131072	0.22216	0.26429	0.11772	0.23932	0.35441	0.11936	0.375	0.29492	0.15416	0.12463	0.2039	0.39403	0.24964	0.17848	0.065389	0.28725	-2.7562	-2.5896	-2.4667	-3.2021	-2.2396	-2.8375	-3.1354	-2.4083	-3	-2.4375	-2.5833	-3.3458	-2.5354	-2.9604	-2.8271	-2.5104	-50.485	40.693	-34.298	284.155	265.934	-8.469	197.490	268.304	284.882	50.923	242.746	251.108	-27.283	269.749	8.882	219.513	0.00048933	0.0009393	0.00028881	1521.5	1.0109e-05	1.2561e-05	1472.6	593.52	5.8168e-06	7.1982e-06	666	255.53	210.37	92.912	9.2542e-06	128.32	0.0030212	0.0061439	0.0017371	1497.6	5.723e-05	6.9643e-05	1447.1	588.56	5.8301e-05	6.8896e-05	660.28	255.37	210.53	93.195	6.1057e-05	127.92	234.550	31.980	17.965	-45.484	109.032	85.415	-45.935	-40.765	132.258	72.964	-42.040	-37.120	-36.163	-31.563	122.969	-33.374	-8191	255	
31263.629	1	1	0	131072	0.11122	0.22532	0.28577	0.39251	0.10941	0.07784	0.071707	0.27315	0.10369	0.269	0.19736	0.52902	0.48616	0.22221	0.063431	0.085498	-2.6042	-2.5083	-2.4375	-3.2792	-2.2812	-2.6708	-3.0208	-2.2771	-2.8812	-2.6292	-2.4	-3.1708	-2.2292	-2.9708	-2.9542	-2.7146	-50.748	-8.309	291.164	252.584	181.066	36.599	146.672	229.308	159.230	171.057	262.500	275.864	220.771	-55.950	247.567	248.215	0.00042421	0.0012106	0.00039918	1515.3	6.5818e-06	1.5415e-05	1448.7	592.74	7.113e-06	1.13e-05	661.52	254.75	209.58	92.834	7.6815e-06	128.15	0.0030298	0.0060774	0.0017095	1489.9	5.6724e-05	6.9286e-05	1427.6	587.06	5.8828e-05	6.9795e-05	656.61	254.33	209.97	93.239	6.1338e-05	128.12	223.461	27.842	29.024	-45.841	102.380	95.023	-45.942	-40.844	102.844	81.997	-42.081	-37.517	-36.209	-31.681	130.641	-33.512	-8191	255	
#DATA ENDS
