BOXY.EXE: ISS Imagent and Oximeter Data Acquisition Program Version 0.80
Ascii Record File

#ACQ INFORMATION
2  Detector Channels 
16  External MUX Channels 
1  Auxiliary Channels 
5000  Waveform (CCF) Frequency (Hz)
1  Waveforms Skipped 
30  Waveforms Averaged 
1  Cycles Averaged 
16  Acquisitions per Waveform 
10.0806  Updata Rate (Hz) 

#FILE INFORMATION
TRUE -- External MUX Channel results are PARSED.
FALSE -- AC DC and Phase are NOT grouped.
TRUE -- Companion Program Settings File CREATED.
FALSE -- AC data not excluded
FALSE -- DC data not excluded
FALSE -- Phase data not excluded
FALSE -- Auxillary Chn. data not excluded
Tab delimiters

#CALIBRATION STATE
TRUE -- Waveform Calibration Values APPLIED.


#AUX CALIBRATION VALUES
Val Type	aux-1	

Term	1.0000e+00	
Factor	0.0000e+00	


#WF CALIBRATION VALUES
A = Detector Channel
Val Type	A-AC1	A-AC2	A-AC3	A-AC4	A-AC5	A-AC6	A-AC7	A-AC8	A-AC9	A-AC10	A-AC11	A-AC12	A-AC13	A-AC14	A-AC15	A-AC16	A-DC1	A-DC2	A-DC3	A-DC4	A-DC5	A-DC6	A-DC7	A-DC8	A-DC9	A-DC10	A-DC11	A-DC12	A-DC13	A-DC14	A-DC15	A-DC16	A-Ph1	A-Ph2	A-Ph3	A-Ph4	A-Ph5	A-Ph6	A-Ph7	A-Ph8	A-Ph9	A-Ph10	A-Ph11	A-Ph12	A-Ph13	A-Ph14	A-Ph15	A-Ph16	

Term	0.00000e+00	0.00000e+00	0.00000e+00	0.00000e+00	0.00000e+00	0.00000e+00	0.00000e+00	0.00000e+00	0.00000e+00	0.00000e+00	0.00000e+00	0.00000e+00	0.00000e+00	0.00000e+00	0.00000e+00	0.00000e+00	0.00000e+00	0.00000e+00	0.00000e+00	0.00000e+00	0.00000e+00	0.00000e+00	0.00000e+00	0.00000e+00	0.00000e+00	0.00000e+00	0.00000e+00	0.00000e+00	0.00000e+00	0.00000e+00	0.00000e+00	0.00000e+00	0.00000e+00	0.00000e+00	0.00000e+00	0.00000e+00	0.00000e+00	0.00000e+00	0.00000e+00	0.00000e+00	0.00000e+00	0.00000e+00	0.00000e+00	0.00000e+00	0.00000e+00	0.00000e+00	0.00000e+00	0.00000e+00	
Factor	1.00000e+00	1.00000e+00	1.00000e+00	1.00000e+00	1.00000e+00	1.00000e+00	1.00000e+00	1.00000e+00	1.00000e+00	1.00000e+00	1.00000e+00	1.00000e+00	1.00000e+00	1.00000e+00	1.00000e+00	1.00000e+00	1.00000e+00	1.00000e+00	1.00000e+00	1.00000e+00	1.00000e+00	1.00000e+00	1.00000e+00	1.00000e+00	1.00000e+00	1.00000e+00	1.00000e+00	1.00000e+00	1.00000e+00	1.00000e+00	1.00000e+00	1.00000e+00	X	X	X	X	X	X	X	X	X	X	X	X	X	X	X	X	

B = Detector Channel
Val Type	B-AC1	B-AC2	B-AC3	B-AC4	B-AC5	B-AC6	B-AC7	B-AC8	B-AC9	B-AC10	B-AC11	B-AC12	B-AC13	B-AC14	B-AC15	B-AC16	B-DC1	B-DC2	B-DC3	B-DC4	B-DC5	B-DC6	B-DC7	B-DC8	B-DC9	B-DC10	B-DC11	B-DC12	B-DC13	B-DC14	B-DC15	B-DC16	B-Ph1	B-Ph2	B-Ph3	B-Ph4	B-Ph5	B-Ph6	B-Ph7	B-Ph8	B-Ph9	B-Ph10	B-Ph11	B-Ph12	B-Ph13	B-Ph14	B-Ph15	B-Ph16	

Term	0.00000e+00	0.00000e+00	0.00000e+00	0.00000e+00	0.00000e+00	0.00000e+00	0.00000e+00	0.00000e+00	0.00000e+00	0.00000e+00	0.00000e+00	0.00000e+00	0.00000e+00	0.00000e+00	0.00000e+00	0.00000e+00	0.00000e+00	0.00000e+00	0.00000e+00	0.00000e+00	0.00000e+00	0.00000e+00	0.00000e+00	0.00000e+00	0.00000e+00	0.00000e+00	0.00000e+00	0.00000e+00	0.00000e+00	0.00000e+00	0.00000e+00	0.00000e+00	-7.31775e+01	-1.39643e+02	-1.29191e+02	-1.81468e+02	-5.28782e+01	-5.94017e+01	-1.58511e+02	-1.62015e+02	-4.34400e+01	-6.62646e+01	-1.70593e+02	-1.70390e+02	-1.81289e+02	-1.76543e+02	-5.19673e+01	-1.49467e+02	
Factor	1.51461e-05	1.38994e-04	3.70494e-05	1.65114e-01	1.30890e-06	1.55113e-06	1.66376e-01	5.64345e-02	1.01830e-06	1.34470e-06	8.78816e-02	2.83681e-02	2.52299e-02	8.59329e-03	1.27316e-06	1.18647e-02	5.15675e-06	6.63635e-06	1.85623e-06	8.53049e-02	7.07640e-08	7.33048e-08	8.10045e-02	2.92832e-02	7.07680e-08	7.32667e-08	4.41605e-02	1.43478e-02	1.32282e-02	4.49219e-03	7.21484e-08	6.00703e-03	X	X	X	X	X	X	X	X	X	X	X	X	X	X	X	X	



#DISTANCE SETTINGS
A = Detector Channel
A-1	A-2	A-3	A-4	A-5	A-6	A-7	A-8	A-9	A-10	A-11	A-12	A-13	A-14	A-15	A-16	

2.5000e+00	3.0000e+00	2.5000e+00	3.0000e+00	2.0000e+00	3.0000e+00	1.5000e+00	3.0000e+00	3.0000e+00	3.0000e+00	3.0000e+00	3.0000e+00	3.0000e+00	3.0000e+00	1.5000e+00	3.0000e+00	

B = Detector Channel
B-1	B-2	B-3	B-4	B-5	B-6	B-7	B-8	B-9	B-10	B-11	B-12	B-13	B-14	B-15	B-16	

1.0000e+01	1.0000e+01	1.0000e+01	1.4400e+00	1.0000e+01	1.0000e+01	1.5100e+00	1.9400e+00	1.0000e+01	1.0000e+01	1.9900e+00	2.4900e+00	2.4100e+00	2.9000e+00	1.0000e+01	2.9800e+00	




#DATA BEGINS
time	group	step	mark	flag	A-AC1	A-AC2	A-AC3	A-AC4	A-AC5	A-AC6	A-AC7	A-AC8	A-AC9	A-AC10	A-AC11	A-AC12	A-AC13	A-AC14	A-AC15	A-AC16	A-DC1	A-DC2	A-DC3	A-DC4	A-DC5	A-DC6	A-DC7	A-DC8	A-DC9	A-DC10	A-DC11	A-DC12	A-DC13	A-DC14	A-DC15	A-DC16	A-Ph1	A-Ph2	A-Ph3	A-Ph4	A-Ph5	A-Ph6	A-Ph7	A-Ph8	A-Ph9	A-Ph10	A-Ph11	A-Ph12	A-Ph13	A-Ph14	A-Ph15	A-Ph16	B-AC1	B-AC2	B-AC3	B-AC4	B-AC5	B-AC6	B-AC7	B-AC8	B-AC9	B-AC10	B-AC11	B-AC12	B-AC13	B-AC14	B-AC15	B-AC16	B-DC1	B-DC2	B-DC3	B-DC4	B-DC5	B-DC6	B-DC7	B-DC8	B-DC9	B-DC10	B-DC11	B-DC12	B-DC13	B-DC14	B-DC15	B-DC16	B-Ph1	B-Ph2	B-Ph3	B-Ph4	B-Ph5	B-Ph6	B-Ph7	B-Ph8	B-Ph9	B-Ph10	B-Ph11	B-Ph12	B-Ph13	B-Ph14	B-Ph15	B-Ph16	aux-1	digaux	

9932.540	1	1	0	256	0.21478	0.19836	0.31544	0.099185	0.20792	0.21373	0.092143	0.094447	0.23091	0.25846	0.25609	0.17708	0.084617	0.34795	0.22785	0.16607	-1.6187	-2.8521	-2.1	-2.4146	-2.8396	-2.2479	-2.7271	-2.6083	-2.0375	-3.2125	-2	-2.3542	-2.9604	-1.9833	-2.6375	-2.5333	383.428	304.020	179.948	219.863	377.663	192.325	212.118	421.194	364.427	449.171	117.532	348.254	237.698	163.613	244.045	129.745	3.1287e-06	1.5385e-05	3.2546e-06	0.037857	1.8365e-07	2.797e-07	0.0074751	0.018163	1.934e-07	2.5989e-07	0.0093853	0.0098582	0.0048762	0.0019623	2.3716e-07	0.0018321	-1.1764e-05	-2.4001e-05	-5.1974e-06	-0.2369	-2.5357e-07	-1.7364e-07	-0.25618	-0.093279	-1.6395e-07	-2.3857e-07	-0.12153	-0.034734	-0.042578	-0.0099764	-2.1148e-07	-0.018384	381.092	191.381	267.030	391.653	321.934	265.539	290.473	124.232	127.175	125.211	326.897	206.767	462.362	198.117	140.157	131.832	-8191	255	
9932.636	1	1	0	0	0.37931	0.20833	0.15649	0.18406	0.21943	0.26728	0.10371	0.12319	0.33275	0.1799	0.19066	0.29848	0.25755	0.29541	0.18102	0.034176	-1.5187	-3.0104	-2.3688	-2.2292	-2.9896	-2.2188	-2.4833	-2.7875	-1.9396	-2.8146	-2.4562	-2.0854	-3.0917	-2.0125	-2.6437	-2.7729	466.765	161.510	397.771	180.896	197.752	434.218	306.245	173.109	261.658	210.731	308.763	390.437	174.800	308.391	307.579	364.783	1.2583e-06	3.3423e-05	5.4578e-07	0.0065123	2.4823e-07	2.678e-07	0.013871	0.011905	1.8433e-07	1.5989e-07	0.028113	0.0065944	0.0056223	0.0019581	2.3753e-07	0.0024895	-9.6152e-06	-2.1734e-05	-4.7566e-06	-0.21255	-2.2497e-07	-1.6814e-07	-0.22428	-0.086141	-1.61e-07	-2.2301e-07	-0.11638	-0.030071	-0.043653	-0.0099203	-1.7721e-07	-0.018885	361.905	373.037	310.249	167.828	411.669	300.714	144.653	147.041	457.769	381.063	450.677	472.597	226.751	199.531	374.212	308.794	-8191	255	
9932.732	1	1	0	0	0.10915	0.17379	0.19569	0.044357	0.19887	0.28925	0.36243	0.050653	0.26102	0.21385	0.092301	0.16277	0.11793	0.1114	0.2805	0.096602	-1.7375	-2.9146	-2.3104	-2.0812	-2.9042	-2.1063	-2.55	-2.8771	-2.0896	-2.7562	-2.7	-2.1437	-3.0896	-2.4104	-2.2854	-2.8688	62.820	84.948	-68.158	68.478	38.488	71.004	194.462	-56.513	121.727	-113.160	-154.584	24.241	54.101	-57.201	11.163	0.415	5.9684e-06	1.0446e-05	9.695e-06	0.020828	1.5052e-07	4.3585e-07	0.046283	0.01649	9.3065e-08	1.4114e-07	0.0095869	0.0060687	0.0014971	0.0014136	2.4118e-07	0.0019249	-8.1111e-06	-1.9812e-05	-4.9499e-06	-0.19069	-2.2364e-07	-1.7028e-07	-0.21027	-0.085714	-1.4478e-07	-2.1202e-07	-0.11316	-0.03022	-0.040125	-0.010117	-1.5602e-07	-0.01921	-103.431	-31.151	51.671	87.341	3.056	-33.679	99.481	-144.276	190.130	164.229	90.125	80.261	-149.067	2.385	-17.347	-128.627	-8191	255	
9932.828	1	1	0	0	0.097246	0.10989	0.068504	0.19477	0.1313	0.22016	0.078373	0.14763	0.13116	0.18518	0.048818	0.17575	0.18656	0.12692	0.3044	0.1608	-1.725	-2.7979	-2.6917	-1.8979	-2.9771	-2.3833	-2.4271	-3.0521	-2.1792	-2.7229	-2.5292	-1.7521	-3.0417	-2.3375	-2.2854	-2.9542	358.304	460.275	374.030	155.685	190.660	354.163	285.920	273.350	138.476	255.946	252.471	196.831	441.382	401.531	375.191	248.915	2.921e-06	2.7761e-05	1.2685e-05	0.033234	2.308e-07	2.3087e-07	0.013341	0.016796	1.3814e-07	1.6252e-07	0.0057086	0.007751	0.0069837	0.00071054	1.6781e-07	0.0017527	-8.702e-06	-1.8609e-05	-5.1626e-06	-0.17061	-2.1318e-07	-1.7502e-07	-0.18985	-0.096024	-1.3711e-07	-1.9507e-07	-0.1208	-0.024182	-0.040153	-0.0090686	-1.5813e-07	-0.018497	159.029	167.570	476.549	424.788	393.148	246.111	353.689	153.505	167.224	406.347	452.145	436.892	479.371	363.862	447.467	436.791	-8191	255	
9932.949	1	1	0	0	0.017967	0.19384	0.23209	0.1794	0.052038	0.055765	0.03655	0.077299	0.095781	0.17958	0.083371	0.048844	0.046283	0.041569	0.11654	0.068759	-1.5333	-2.7583	-2.9021	-1.9937	-2.8875	-2.4521	-2.1833	-3.025	-2.2521	-2.5667	-2.8917	-2.0229	-2.85	-2.5292	-2	-2.9271	-82.245	-107.327	175.911	-60.818	-44.733	218.095	-113.062	161.992	52.943	36.994	96.628	124.613	68.485	199.470	-100.453	156.948	2.957e-06	2.8052e-05	1.0218e-05	0.02021	4.0177e-07	5.022e-08	0.024085	0.0067478	1.6338e-07	1.4111e-07	0.013685	0.0024157	0.0060945	0.00080273	7.5592e-08	0.00038745	-8.9169e-06	-1.637e-05	-4.8301e-06	-0.15728	-2.0035e-07	-1.8219e-07	-0.16825	-0.089985	-1.4478e-07	-1.7538e-07	-0.12871	-0.026603	-0.038114	-0.011212	-1.3648e-07	-0.016832	149.768	110.736	-76.464	8.756	20.954	-128.413	214.556	-115.514	20.231	-31.454	145.853	-29.922	24.118	24.846	15.395	136.045	-8191	255	
9933.045	1	1	0	0	0.20584	0.083455	0.069366	0.24058	0.19771	0.18238	0.19995	0.2201	0.14391	0.11635	0.47978	0.15172	0.22327	0.056926	0.19951	0.044129	-1.9458	-2.3021	-2.7667	-2.1917	-3.0687	-2.4542	-2.2938	-3.0625	-2.2083	-2.5187	-2.8187	-2.0708	-2.8312	-2.7188	-2.0708	-3.0646	-46.882	197.971	-44.296	208.243	-24.976	112.492	-17.176	67.278	-56.612	32.363	74.336	39.357	213.091	99.587	222.080	-34.354	3.5104e-06	3.7081e-05	6.4139e-06	0.03385	3.0494e-07	2.542e-07	0.041209	0.0032293	1.5871e-07	2.2909e-07	0.011291	0.0040895	0.0015357	0.0018793	5.0684e-08	0.0017498	-9.0995e-06	-1.4476e-05	-5.2439e-06	-0.15852	-2.0639e-07	-1.7211e-07	-0.16657	-0.085348	-1.4493e-07	-1.7218e-07	-0.13386	-0.026573	-0.037204	-0.012494	-1.3272e-07	-0.017408	193.918	199.475	-11.515	137.189	202.251	103.873	1.302	-75.572	171.835	127.996	204.018	95.887	193.432	227.819	150.732	-74.018	-8191	255	
9933.141	1	1	0	0	0.1205	0.15411	0.21157	0.13657	0.098799	0.0964	0.14905	0.27014	0.12163	0.2064	0.0029361	0.10811	0.31793	0.17883	0.069005	0.24703	-1.8896	-2.3354	-2.9646	-1.9771	-2.6021	-2.7875	-1.9479	-2.75	-2.5729	-2.3292	-2.9896	-2.2104	-2.4896	-2.7	-1.875	-2.7833	132.900	-114.887	182.067	104.423	-44.702	-18.312	-117.580	59.663	116.474	-21.292	171.906	158.592	64.147	-137.396	155.787	-120.154	2.2467e-06	2.5124e-05	3.7135e-06	0.0055324	1.0688e-07	2.5359e-07	0.018048	0.015944	1.0454e-07	1.0095e-07	0.019527	0.00089126	0.0063299	0.00084826	2.1222e-07	0.0021816	-8.4657e-06	-1.3853e-05	-5.3483e-06	-0.15248	-1.9283e-07	-2.0464e-07	-0.16825	-0.086202	-1.6616e-07	-1.4134e-07	-0.12245	-0.02753	-0.030122	-0.012784	-1.1499e-07	-0.015944	176.710	90.010	96.905	-100.739	5.362	60.973	53.621	-130.910	27.850	48.370	18.499	54.381	176.219	78.883	94.083	4.887	-8191	255	
9933.237	1	1	0	0	0.089545	0.22651	0.31894	0.22811	0.25333	0.10665	0.26467	0.30887	0.29496	0.14593	0.27981	0.10334	0.021719	0.17396	0.34669	0.083238	-2.0792	-2.0625	-3.0917	-2.2271	-2.5771	-2.8729	-1.9625	-2.8021	-2.6771	-2.2167	-3.0375	-2.2917	-2.3167	-3.075	-2.2542	-2.7792	-24.768	208.145	227.558	-25.161	299.475	71.011	124.064	319.329	-12.782	255.148	265.794	246.945	76.552	-22.011	117.382	280.626	4.318e-07	2.1196e-05	2.6728e-06	0.048474	1.5052e-07	4.3071e-07	0.020161	0.00344	4.4743e-08	8.7821e-08	0.012663	0.0023927	0.0067142	0.0010797	2.4856e-07	0.0010809	-1.0475e-05	-1.254e-05	-5.4256e-06	-0.17416	-1.7308e-07	-2.1151e-07	-0.1475	-0.076624	-1.7677e-07	-1.3768e-07	-0.13506	-0.029682	-0.028937	-0.012934	-1.4249e-07	-0.016695	241.451	255.055	-6.991	-6.774	74.361	248.549	-1.226	-15.535	293.971	284.539	92.115	106.908	132.857	108.575	129.669	65.636	-8191	255	
9933.356	1	1	0	0	0.22012	0.068141	0.19375	0.18141	0.30227	0.20172	0.082543	0.095186	0.20725	0.23244	0.15327	0.19393	0.16834	0.066409	0.28866	0.27553	-2.2875	-2.0042	-2.75	-2.1688	-2.3875	-2.8229	-1.9604	-2.7542	-2.8854	-2.0271	-2.9396	-2.4188	-2.3312	-2.9625	-2.2021	-2.6583	66.681	413.422	171.493	221.419	80.031	322.426	280.087	312.839	289.949	340.812	318.127	276.698	406.063	130.903	246.511	384.934	1.881e-06	2.4927e-05	4.4071e-06	0.01354	1.7786e-07	2.0967e-07	0.028333	0.010903	5.0135e-08	8.3366e-08	0.014693	0.011613	0.002509	0.00096337	3.5109e-07	0.0028162	-1.0808e-05	-1.2222e-05	-5.2593e-06	-0.17523	-1.6939e-07	-2.164e-07	-0.14361	-0.078089	-1.8768e-07	-1.4287e-07	-0.13405	-0.033209	-0.027476	-0.012466	-1.3618e-07	-0.017032	377.213	344.444	415.495	183.883	268.590	72.539	253.739	74.081	172.894	162.835	254.216	330.996	250.569	85.756	310.741	236.058	-8191	255	
9933.428	1	1	0	0	0.17689	0.15157	0.22462	0.3526	0.10786	0.20275	0.13032	0.10301	0.17401	0.18532	0.21853	0.15276	0.063088	0.09549	0.15623	0.18269	-2.3396	-2.1063	-2.9479	-2.5687	-2.3271	-3.0042	-2.1042	-2.6021	-2.6792	-2.0438	-2.9229	-2.5167	-2.2438	-2.9583	-2.2167	-2.5979	224.835	133.820	157.845	320.577	223.964	335.415	262.299	340.561	302.836	282.584	56.476	369.049	146.665	132.874	198.872	256.945	1.673e-06	8.8088e-06	9.3508e-06	0.013544	1.4218e-07	8.0608e-08	0.047252	0.0092348	6.7204e-08	2.614e-07	0.010496	0.0021209	0.0048883	0.001729	8.6887e-08	0.0033199	-1.1818e-05	-1.1987e-05	-5.4372e-06	-0.18465	-1.4698e-07	-2.0846e-07	-0.161	-0.073269	-1.781e-07	-1.2577e-07	-0.12457	-0.037842	-0.024417	-0.012485	-1.5286e-07	-0.014229	320.948	238.737	145.543	95.712	106.751	68.279	212.580	68.397	136.350	91.686	175.738	401.797	378.698	268.195	277.156	403.174	-8191	255	
9933.524	1	1	0	0	0.15475	0.21718	0.27435	0.068467	0.056441	0.19043	0.31352	0.073314	0.23907	0.050529	0.10592	0.050109	0.04895	0.13241	0.18087	0.17902	-2.7313	-2.05	-2.6771	-2.5	-2.1521	-3.0417	-2.3875	-2.3833	-3.0896	-2.0125	-2.8937	-2.5833	-2.0312	-3.0604	-2.4	-2.65	-29.008	227.546	-33.658	152.735	104.153	-59.582	-76.765	10.888	147.879	114.532	-69.146	-75.704	-88.928	-6.727	-106.377	222.910	2.0749e-06	1.8987e-05	2.7438e-06	0.0059492	5.307e-07	3.6371e-07	0.011919	0.015691	2.3522e-07	2.1084e-07	0.010338	0.0039066	0.0059705	0.0026831	4.0564e-07	0.0016833	-1.2247e-05	-1.2042e-05	-5.2129e-06	-0.20526	-1.4094e-07	-2.2724e-07	-0.15695	-0.06607	-2.0965e-07	-1.534e-07	-0.11721	-0.037095	-0.02348	-0.01358	-1.5121e-07	-0.012465	40.066	128.040	96.411	47.400	17.132	0.769	-7.124	-102.319	62.825	-5.574	68.576	194.542	-87.143	205.667	161.039	130.028	-8191	255	
9933.620	1	1	0	0	0.091645	0.18082	0.15483	0.34948	0.26558	0.097141	0.099099	0.1824	0.11145	0.24919	0.045713	0.14024	0.089363	0.23499	0.2094	0.010333	-2.5958	-2.0146	-2.9625	-2.5958	-2.1792	-3.0729	-2.3542	-2.2562	-3.0417	-2.1646	-2.8	-2.55	-2.0854	-3.15	-2.4792	-2.3125	138.489	242.227	239.030	203.767	151.793	311.017	337.200	200.333	316.652	372.792	144.598	474.363	240.549	462.365	414.669	171.607	1.2099e-06	2.4581e-05	6.0692e-06	0.021566	1.0603e-07	1.0987e-07	0.045643	0.011535	1.8495e-07	1.1824e-07	0.0074107	0.0002968	0.0021477	0.0011228	2.8759e-07	0.0021799	-1.416e-05	-1.1074e-05	-5.0776e-06	-0.21717	-1.3652e-07	-2.1885e-07	-0.17585	-0.063996	-2.1363e-07	-1.4501e-07	-0.11049	-0.037125	-0.025161	-0.013224	-1.7346e-07	-0.011476	280.117	394.863	452.089	143.059	199.977	213.421	401.778	153.273	311.109	291.382	413.776	276.292	263.624	254.469	247.156	491.687	-8191	255	
9933.741	1	1	0	0	0.27461	0.097594	0.075839	0.10051	0.14825	0.12498	0.19282	0.38549	0.099157	0.24281	0.1109	0.17586	0.088233	0.13708	0.13298	0.17619	-2.8896	-2.0458	-2.7375	-2.8729	-2.1521	-3.0979	-2.35	-2.15	-3.0021	-2.2083	-2.4833	-2.8542	-2.1333	-2.8917	-2.6625	-2.275	282.337	13.638	183.245	351.134	91.849	191.653	344.533	176.071	11.059	149.948	98.074	179.458	230.683	49.895	267.366	32.629	2.8036e-06	1.6839e-05	1.1047e-05	0.0082311	2.5065e-07	2.5614e-07	0.015692	0.01618	1.9219e-07	2.5599e-07	0.038422	0.01122	0.0037118	0.00080568	2.7983e-07	0.0025374	-1.3322e-05	-1.2637e-05	-4.3776e-06	-0.2241	-1.3946e-07	-2.0449e-07	-0.18445	-0.054723	-2.0818e-07	-1.5279e-07	-0.10893	-0.036736	-0.02483	-0.011829	-1.6309e-07	-0.011488	310.179	53.315	103.447	27.517	43.484	261.246	79.601	20.722	305.390	264.048	203.993	51.414	266.043	28.469	89.527	130.312	-8191	255	
9933.837	1	1	0	0	0.19694	0.17796	0.26414	0.32288	0.10759	0.10729	0.097207	0.18929	0.22542	0.13532	0.17723	0.23333	0.029888	0.28415	0.37377	0.049754	-2.5187	-2.3333	-2.3896	-3.1333	-2.1	-2.8104	-2.6854	-1.9062	-3.1104	-2.4625	-2.35	-2.9375	-2.1479	-2.7188	-2.8917	-2.2	98.422	190.621	373.392	231.324	131.127	439.039	228.796	263.572	122.701	188.068	115.999	376.894	343.315	392.410	444.613	363.469	4.8962e-06	1.3032e-05	2.7292e-06	0.060807	1.7773e-07	4.9529e-07	0.037873	0.0072194	2.8228e-07	1.9863e-07	0.0089665	0.003308	0.002233	0.0015579	1.5176e-07	0.0017845	-1.2924e-05	-1.3314e-05	-4.0296e-06	-0.23388	-1.3371e-07	-1.9319e-07	-0.21196	-0.051612	-2.0818e-07	-1.56e-07	-0.10617	-0.03853	-0.024913	-0.012091	-1.7872e-07	-0.012665	395.330	110.121	133.673	171.531	231.568	436.785	98.819	108.559	249.150	283.078	305.354	315.930	409.642	137.936	119.167	440.249	-8191	255	
9933.933	1	1	0	0	0.078533	0.042997	0.13045	0.145	0.22929	0.25443	0.14725	0.2723	0.16313	0.06103	0.11865	0.023948	0.11423	0.2315	0.10362	0.21665	-2.7083	-2.5208	-2.3667	-2.9396	-2.1833	-2.6646	-2.9229	-2.0292	-3.1562	-2.4813	-2.3083	-3.0979	-2.1583	-2.5917	-2.6271	-1.9917	158.148	78.704	99.671	-146.773	65.991	-98.091	122.265	76.587	-72.944	-131.202	49.662	143.567	-72.145	-10.539	-13.634	64.769	8.6917e-07	8.7689e-06	4.4868e-06	0.011962	3.3671e-07	1.6381e-07	0.051864	0.012548	2.4442e-07	1.2729e-07	0.014435	0.0032727	0.0093755	0.0012939	1.9434e-07	0.0011625	-1.3193e-05	-1.525e-05	-3.9754e-06	-0.25805	-1.3607e-07	-1.9059e-07	-0.21618	-0.048683	-2.0169e-07	-1.7828e-07	-0.084365	-0.043791	-0.023811	-0.0099109	-2.0036e-07	-0.012327	197.428	-61.642	68.458	-50.264	98.896	-63.531	-137.103	-137.743	-62.970	78.605	64.843	-66.727	-92.451	121.571	76.455	-131.740	-8191	255	
9934.029	1	1	0	0	0.11555	0.062471	0.20368	0.16896	0.15691	0.14044	0.30882	0.34235	0.15958	0.092394	0.19337	0.13946	0.083248	0.27873	0.14832	0.14495	-2.7104	-2.6521	-2.0229	-3.1646	-2.1625	-2.5312	-2.8604	-2.0604	-2.9521	-2.5146	-2.2833	-3.0458	-2.1417	-2.2979	-2.9625	-2.3104	321.173	158.852	300.028	463.224	409.681	202.928	171.853	262.002	315.601	375.959	166.581	290.404	163.109	211.895	275.597	239.720	3.609e-06	8.0423e-06	4.1613e-06	0.039698	1.3686e-07	2.1699e-07	0.030409	0.0078482	7.994e-08	1.4206e-07	0.027884	0.0019522	0.0081528	0.0024853	1.0845e-07	0.0016044	-1.2129e-05	-1.6052e-05	-3.9252e-06	-0.25698	-1.4094e-07	-1.6295e-07	-0.22074	-0.051612	-1.9505e-07	-1.65e-07	-0.088965	-0.042685	-0.024665	-0.010725	-2.0607e-07	-0.011063	426.386	353.295	178.378	248.966	452.807	415.509	483.310	145.965	172.559	174.312	456.643	148.609	302.222	447.971	165.188	333.070	-8191	255	
9934.125	1	1	0	0	0.12505	0.058602	0.26138	0.039293	0.11547	0.24269	0.18005	0.1901	0.13287	0.28155	0.18197	0.097919	0.029888	0.15991	0.12416	0.061109	-2.5	-2.75	-2.2604	-3.0729	-2.4104	-2.6729	-3.0021	-2.075	-2.7042	-2.9688	-1.9312	-2.8583	-2.4792	-2.5229	-3.0021	-2.0542	131.470	218.153	329.060	263.705	368.323	354.202	229.601	297.894	358.083	189.107	269.026	33.604	164.039	202.133	366.234	273.388	4.935e-07	1.3078e-05	5.5048e-06	0.014872	3.519e-07	1.1118e-07	0.013933	0.0059764	1.8185e-07	2.1185e-07	0.024441	0.003852	0.0024234	0.00078762	3.4863e-07	0.0032396	-1.1893e-05	-1.6798e-05	-3.4456e-06	-0.23779	-1.5598e-07	-1.6295e-07	-0.2285	-0.059603	-1.8886e-07	-1.9416e-07	-0.088781	-0.039875	-0.03183	-0.0089563	-2.1043e-07	-0.0109	70.113	286.358	261.975	217.252	92.945	200.226	243.278	48.255	214.826	155.871	45.673	42.859	78.037	333.459	222.818	67.587	-8191	255	
9934.221	1	1	0	0	0.13141	0.066858	0.2742	0.17456	0.21868	0.10722	0.26143	0.068089	0.20155	0.051204	0.15553	0.17456	0.090698	0.26514	0.13938	0.25375	-2.3	-2.8396	-2.375	-3.0479	-2.3458	-2.4437	-3.0271	-2.3021	-2.7917	-2.9896	-2.0854	-2.9813	-2.6479	-2.3271	-3.2354	-2.275	199.284	277.333	227.707	30.769	256.668	-10.477	283.502	18.581	147.686	47.967	56.048	190.989	-25.701	213.219	221.574	-34.393	4.7691e-06	8.5241e-06	3.6118e-06	0.024493	3.6751e-07	2.3188e-07	0.018666	0.00422	2.1663e-07	1.1753e-07	0.017368	0.0036545	0.0035131	0.00073057	3.1726e-07	0.0015081	-1.0754e-05	-1.8609e-05	-3.3915e-06	-0.25218	-1.6305e-07	-1.5043e-07	-0.26158	-0.055699	-1.7648e-07	-2.0622e-07	-0.085561	-0.04131	-0.030315	-0.00861	-2.2005e-07	-0.011764	29.971	296.090	188.878	-4.288	94.965	130.161	58.225	-25.033	-24.692	274.693	162.608	15.079	51.575	133.549	187.859	188.745	-8191	255	
9934.317	1	1	0	0	0.059352	0.26776	0.20617	0.22663	0.063579	0.14442	0.38289	0.21101	0.17092	0.086097	0.15331	0.15106	0.074566	0.060066	0.20994	0.074144	-2.2729	-2.8458	-2.1937	-2.9146	-2.6333	-2.3604	-3.1292	-2.2479	-2.5625	-2.9	-2.1646	-2.8708	-2.6937	-2.1917	-3.15	-2.3375	41.961	1.972	105.289	-24.128	-81.937	-96.031	178.210	-104.786	142.112	151.167	-13.404	-42.271	-102.532	-96.671	-19.231	-6.514	2.5874e-06	3.441e-05	1.7776e-06	0.032655	4.2325e-07	1.7361e-07	0.025336	0.011606	1.5346e-07	1.4655e-07	0.011941	0.0044107	0.00729	0.00078852	3.2811e-07	0.00094598	-1.0668e-05	-1.807e-05	-3.581e-06	-0.23281	-1.8708e-07	-1.5241e-07	-0.24588	-0.057346	-1.7029e-07	-2.1797e-07	-0.078937	-0.039098	-0.03194	-0.0083106	-2.0848e-07	-0.013391	14.251	112.536	-85.527	-21.579	204.014	-61.263	-7.444	-101.557	177.043	-21.928	-112.159	20.081	-22.922	4.915	80.893	0.385	-8191	255	
9934.438	1	1	0	0	0.28641	0.15561	0.066121	0.43111	0.098802	0.11708	0.03508	0.10602	0.079056	0.29643	0.086815	0.14079	0.19832	0.25263	0.20565	0.18573	-2.1146	-2.9167	-2.2292	-2.6333	-2.5583	-2.3083	-3.0375	-2.25	-2.35	-2.8271	-2.0875	-2.5667	-2.8354	-1.8333	-2.9583	-2.2938	196.711	-48.049	3.868	216.275	9.974	93.119	63.453	98.886	3.114	115.263	-38.075	234.004	261.237	33.580	10.360	29.276	4.0126e-06	1.1929e-05	1.0424e-05	0.04963	2.7424e-07	2.0993e-07	0.014071	0.011177	1.2828e-07	3.5776e-07	0.0022568	0.0046741	0.010454	0.002101	2.652e-07	0.0020817	-1.0142e-05	-1.8609e-05	-3.3915e-06	-0.22446	-1.6571e-07	-1.4188e-07	-0.242	-0.062349	-1.6218e-07	-1.9645e-07	-0.085745	-0.03303	-0.037893	-0.0076086	-2.1073e-07	-0.013966	-67.715	92.264	61.804	-57.099	-93.409	74.572	175.018	-76.557	1.247	167.118	226.520	79.055	-83.082	-8.919	-22.277	228.299	-8191	255	
9934.532	1	1	0	0	0.11482	0.1854	0.069823	0.15683	0.19707	0.25618	0.088886	0.10355	0.13695	0.08489	0.12283	0.21795	0.086133	0.26424	0.2246	0.19082	-1.9146	-2.9354	-2.0667	-2.675	-2.7396	-2.2	-2.8458	-2.6354	-2.3854	-2.8479	-2.2417	-2.6833	-2.9646	-2.2062	-2.8021	-2.4562	261.707	124.772	183.496	58.428	271.747	24.381	86.101	284.690	-45.044	65.922	81.024	19.639	22.114	167.657	54.403	19.783	2.4604e-06	5.6949e-06	4.2565e-06	0.013348	8.5837e-08	2.7028e-07	0.039609	0.012321	3.4582e-07	8.993e-08	0.01088	0.0049828	0.0064273	0.0014248	5.7366e-07	0.0015111	-8.4334e-06	-1.901e-05	-3.465e-06	-0.21042	-1.8517e-07	-1.3638e-07	-0.20386	-0.071439	-1.3343e-07	-2.1232e-07	-0.091725	-0.032731	-0.036984	-0.0074028	-2.0803e-07	-0.015518	7.827	131.548	166.328	262.444	-2.704	18.795	188.127	-32.188	192.155	33.629	77.232	179.715	211.878	216.058	281.749	183.992	-8191	255	
9934.629	1	1	0	0	0.39584	0.25264	0.14549	0.19897	0.15526	0.049107	0.13484	0.20828	0.24705	0.15889	0.26524	0.25183	0.12118	0.16004	0.168	0.37923	-1.8375	-3.0208	-2.1188	-2.5854	-2.6833	-2.1542	-2.8	-2.7292	-2.1583	-3.1375	-2.2313	-2.375	-3.0667	-2.1	-2.7812	-2.6271	90.863	58.399	166.027	54.171	-9.403	-85.431	-13.927	-86.531	-114.879	133.448	-12.930	-76.911	8.683	-158.067	-63.320	128.384	2.7963e-06	2.5821e-05	7.7755e-06	0.02256	2.9905e-07	1.1432e-07	0.031922	0.0018238	1.6825e-07	3.0775e-07	0.0090786	0.0039311	0.0051797	0.0035959	3.0208e-07	0.0016316	-7.6707e-06	-2.0296e-05	-3.3219e-06	-0.19958	-2.0079e-07	-1.4707e-07	-0.21247	-0.080712	-1.2134e-07	-2.2316e-07	-0.093565	-0.032133	-0.039078	-0.0086943	-1.9029e-07	-0.015731	107.404	-161.346	-9.140	10.943	49.533	148.806	-26.829	-153.167	163.023	110.781	38.737	-158.772	-53.741	-159.885	80.991	104.920	-8191	255	
9934.725	1	1	0	0	0.15406	0.034089	0.26497	0.19751	0.16117	0.081331	0.15343	0.14296	0.14424	0.17259	0.044304	0.32672	0.0517	0.15457	0.15319	0.17085	-1.9188	-2.9229	-2.3833	-2.3625	-3.1125	-2.1896	-2.6437	-2.8354	-2.1396	-3.0292	-2.5771	-2.3667	-2.8208	-2.2604	-2.6208	-2.8729	152.898	123.414	122.998	260.473	366.507	171.435	80.821	369.754	308.700	119.201	250.533	275.734	384.309	386.228	58.867	192.343	4.2447e-06	1.6095e-05	7.5266e-06	0.008041	1.0012e-07	3.1003e-07	0.015396	0.0046818	6.8896e-08	3.2659e-07	0.012565	0.0079496	0.0024584	0.00070128	1.4945e-07	0.0025399	-8.7342e-06	-1.8319e-05	-4.1262e-06	-0.15675	-2.0463e-07	-1.5379e-07	-0.202	-0.081322	-1.1883e-07	-2.1522e-07	-0.097061	-0.029174	-0.039436	-0.0095646	-1.7105e-07	-0.016569	337.707	380.775	110.685	337.777	370.851	85.574	237.300	50.567	228.651	150.700	179.073	359.122	257.585	40.358	46.248	314.250	-8191	255	
9934.821	1	1	0	131072	0.15403	0.14402	0.17409	0.12214	0.21971	0.095027	0.20719	0.037334	0.19395	0.26581	0.26289	0.085922	0.11551	0.17028	0.29466	0.13115	-1.7771	-2.9688	-2.6688	-2.1771	-3.1521	-2.2562	-2.6479	-2.8042	-2.15	-3.05	-2.5979	-2.15	-3.5812	-2.6667	-2.8563	-3.3229	487.420	414.708	440.767	282.329	251.552	402.330	309.083	509.834	175.179	315.704	430.576	435.221	483.353	474.893	463.839	334.069	2.9095e-06	2.254e-05	8.0057e-06	0.0083699	8.8693e-08	3.2172e-07	0.015942	0.0022621	3.2832e-07	3.4579e-07	0.018167	0.019862	0.04638	0.027945	0.00013428	33.905	-6.8972e-06	-1.7683e-05	-4.2384e-06	-0.16794	-2.1023e-07	-1.4081e-07	-0.20504	-0.086812	-1.4684e-07	-1.9797e-07	-0.10875	0.29524	2.1136	0.88885	0.0001982	155.11	230.449	472.510	175.489	324.733	210.981	352.481	512.346	175.985	452.156	477.449	170.433	285.309	345.831	232.582	409.959	279.804	-8191	255	
9934.917	1	1	0	131072	0.093151	0.10671	0.031468	0.08667	0.094359	0.31456	0.16815	0.06772	0.056604	0.20768	0.20754	0.14299	0.25148	0.094529	0.242	0.19765	-2.3458	-3.1937	-2.9146	-2.5833	-3.4437	-2.7896	-2.8083	-3.4896	-2.5333	-3.3229	-3.2271	-2.8729	-3.625	-2.9771	-3.0104	-3.5542	182.380	90.100	30.588	186.207	71.975	211.976	206.314	191.979	102.697	73.490	163.905	-8.510	107.479	151.578	-29.267	-10.547	0.0012433	0.0055114	0.0021742	74.182	9.5843e-05	7.5005e-05	141.02	49.943	8.8112e-05	5.2029e-05	169.94	62.786	39.353	4.1372	5.8588e-06	27.756	0.13635	0.19274	0.050726	2773.2	0.001875	0.0020062	2610.9	943.71	0.0017861	0.0019134	1369.8	445.82	417.9	145.9	0.0016362	187.11	209.209	50.390	-48.584	-68.171	219.482	-25.287	-70.286	-63.344	252.406	49.768	-66.076	-59.913	-57.829	-53.149	194.946	-56.129	-8191	255	
9935.038	1	1	0	131072	0.16043	0.11773	0.21051	0.12135	0.17951	0.083016	0.067119	0.05241	0.27909	0.060793	0.1157	0.16058	0.10842	0.20641	0.14298	0.08691	-2.1583	-3.2292	-3.0646	-2.5792	-3.3833	-2.8354	-2.7896	-3.4083	-2.5958	-3.1167	-3.3229	-2.6271	-3.4437	-3.0125	-2.4458	-3.6625	222.659	-25.279	256.269	112.762	-37.335	88.142	191.390	72.701	251.973	-49.027	-39.144	264.370	49.420	-30.169	107.403	118.321	0.0013517	0.0085935	0.0019966	579.32	4.4543e-05	5.779e-05	660.17	241.13	3.9284e-05	8.0655e-05	300.2	105.96	81.876	17.407	1.3688e-05	37.26	0.11733	0.14992	0.038882	2569.9	0.0014584	0.0014726	2337.5	854.64	0.0014081	0.0014699	1201.2	407.18	397.24	141.25	0.0014736	182.59	213.062	-28.450	-61.085	-69.406	216.663	8.258	-69.760	-63.427	275.578	51.323	-66.661	-60.020	-57.801	-53.520	257.697	-56.597	-8191	255	
9935.134	1	1	0	131072	0.12234	0.16607	0.12153	0.17185	0.094152	0.013883	0.10521	0.14729	0.1496	0.041422	0.10452	0.26223	0.14862	0.23472	0.1333	0.32013	-2.3042	-2.95	-3.2062	-2.8042	-3.2375	-3.025	-2.8125	-3.4229	-2.8021	-2.9875	-3.3	-2.4583	-3.1896	-3.05	-2.6688	-3.6063	129.689	2.073	241.917	268.056	-41.833	108.917	-71.632	172.511	164.995	-70.522	246.673	248.269	-56.382	17.013	170.052	-23.915	0.0010883	0.0041287	0.00063588	550.85	4.1328e-05	3.9541e-05	668.85	223.82	5.2999e-06	5.7639e-05	308	110.37	104.7	35.144	3.9426e-05	51.909	0.11273	0.14033	0.037481	2581.9	0.0014889	0.0014598	2344.5	864.58	0.001405	0.0013821	1138	388.36	372.73	133.22	0.0012374	170.9	224.850	5.565	-55.729	-69.189	161.884	22.830	-69.802	-63.715	-18.167	60.332	-65.615	-60.167	-57.714	-53.880	260.720	-56.633	-8191	255	
9935.228	1	1	0	131072	0.20426	0.2829	0.37502	0.15009	0.10025	0.055911	0.052535	0.047909	0.35533	0.08984	0.10268	0.022751	0.15002	0.016712	0.13802	0.16179	-2.3146	-2.85	-3.2229	-2.6208	-3.2896	-2.9875	-2.7229	-3.4375	-2.9104	-2.8104	-3.35	-2.5021	-3.15	-3.2167	-2.5771	-3.475	-17.027	241.520	275.672	247.777	217.615	267.092	176.697	57.796	81.241	165.442	151.200	58.797	270.448	229.602	111.500	209.417	0.00027174	0.0017284	0.00070957	712.36	5.7401e-05	4.6922e-05	711.16	205.8	3.4334e-05	5.0298e-05	307.78	99.523	91.518	26.732	4.486e-05	40.648	0.096275	0.11758	0.032253	2477.4	0.0013497	0.0013515	2304.9	876.53	0.0014232	0.0014149	1184.2	416.17	388.43	137.51	0.0013568	180.65	218.755	51.404	-16.896	-69.302	59.228	56.335	-69.944	-63.292	-16.375	79.531	-65.838	-60.206	-57.993	-53.655	211.467	-56.403	-8191	255	
9935.302	1	1	0	131072	0.42164	0.093914	0.017517	0.13448	0.15638	0.16677	0.023638	0.11922	0.34362	0.21425	0.088722	0.29954	0.086532	0.10351	0.26011	0.11167	-2.3063	-2.4125	-3.3521	-2.5854	-2.9562	-3.275	-2.4667	-3.375	-2.85	-2.7438	-3.2854	-2.6333	-2.9458	-3.3729	-2.3104	-3.2021	172.487	137.337	52.685	15.360	13.481	175.825	203.804	163.802	75.810	123.776	208.352	176.702	204.147	188.268	141.607	-71.613	0.00039345	0.0039513	0.00033432	673.7	4.1914e-05	2.9552e-05	767.37	278.87	3.7929e-05	5.2333e-05	302.66	112.9	108.85	47.982	7.3608e-05	59.625	0.1012	0.12177	0.033058	2511.5	0.0012606	0.0012247	2144.2	823.4	0.0011479	0.0011257	1005.4	357.83	325.26	124.16	0.0010766	161.77	-59.214	53.209	-78.270	-69.194	39.980	-45.750	-70.128	-63.312	52.013	64.625	-65.640	-59.629	-57.973	-53.671	233.761	-56.444	-8191	255	
9935.421	1	1	0	131072	0.29129	0.1962	0.088708	0.32875	0.15104	0.14736	0.27327	0.089573	0.15914	0.0092623	0.08626	0.14496	0.21958	0.26315	0.057749	0.15023	-2.5292	-2.5792	-3.2438	-2.6625	-2.7562	-3.2875	-2.3729	-3.15	-2.9708	-2.4125	-3.2562	-2.7854	-2.7146	-3.4521	-2.3396	-3.1333	74.711	235.321	71.878	262.329	264.720	266.188	220.934	22.275	38.500	133.835	130.545	191.680	29.117	256.016	-61.075	-44.923	2.3704e-05	0.0011786	0.00058275	891.76	3.0151e-05	3.3352e-05	766.85	304.64	1.6617e-05	1.1858e-05	299.25	113.25	108.46	52.81	7.0748e-05	60.077	0.077993	0.095244	0.026798	2256.8	0.00098991	0.0009762	1919	738.09	0.00091182	0.0008918	875	303.57	269.78	106.61	0.00078915	131.98	102.215	70.429	141.536	-69.319	90.522	42.859	-69.911	-63.127	97.643	188.786	-65.286	-60.294	-57.635	-53.765	239.493	-56.176	-8191	255	
9935.517	1	1	0	0	0.16108	0.13144	0.25666	0.16341	0.070428	0.049158	0.10368	0.080815	0.13147	0.23156	0.33252	0.061	0.2616	0.30786	0.050317	0.29132	-2.6042	-2.0396	-3.45	-2.9833	-2.4708	-3.2979	-2.4208	-3.0917	-3.1021	-2.2396	-3.25	-2.7375	-2.5708	-3.4646	-2.2917	-3.1167	164.499	260.957	245.238	141.605	-12.014	-18.861	181.109	243.713	63.878	225.433	104.794	-32.417	17.335	238.859	255.115	221.256	9.4269e-05	0.0011857	0.00066392	894.54	2.7183e-05	1.0068e-05	765.38	303.94	1.0783e-05	8.6805e-06	304.76	113.85	108.74	53.426	3.0205e-05	61.077	0.053091	0.064872	0.018917	1832.8	0.00067294	0.00067171	1598.6	602.5	0.00061195	0.00060193	707.05	242.28	218.08	90.705	0.00053875	108.86	-64.723	-44.317	149.360	-69.049	105.030	-70.814	-70.212	-63.131	163.637	213.908	-64.749	-59.756	-57.306	-53.322	269.121	-56.589	-8191	255	
9935.613	1	1	0	0	0.10312	0.13565	0.17651	0.29436	0.21039	0.30531	0.33841	0.15236	0.10551	0.095048	0.26552	0.12339	0.18431	0.26238	0.14265	0.23439	-2.6917	-2.35	-3.1896	-2.75	-2.4979	-3.0021	-2.6896	-2.8875	-3.2771	-2.2021	-3.1688	-2.9021	-2.4167	-3.5104	-2.3688	-2.8042	14.343	69.946	259.398	129.533	64.200	63.213	128.056	173.188	158.491	151.133	229.584	175.631	212.203	162.544	264.544	2.724	0.00025101	0.0012794	0.00048483	886.01	1.2557e-05	1.9518e-05	767.65	303.25	2.1902e-06	3.5596e-05	309.26	115.77	110.05	54.777	2.8048e-05	62.363	0.034485	0.042441	0.012518	1491.3	0.00041562	0.00041708	1300.2	487.31	0.00036389	0.00036588	560.67	194.54	178.01	79.347	0.00033314	92.712	167.331	225.483	205.441	-69.187	150.596	226.485	-69.968	-63.043	72.860	254.068	-65.217	-60.044	-57.781	-53.430	144.717	-56.351	-8191	255	
9935.709	1	1	0	0	0.22482	0.12339	0.13279	0.023004	0.10613	0.056893	0.20325	0.17091	0.1376	0.23087	0.083097	0.34569	0.078148	0.32033	0.079692	0.30458	-2.7687	-2.3375	-3.0646	-2.8688	-2.3021	-3.15	-2.7	-2.7083	-3.0458	-2.5146	-2.9375	-2.9688	-2.4521	-3.3479	-2.7104	-2.5583	158.403	144.033	-9.162	13.517	120.372	15.229	125.407	179.997	-10.438	270.311	121.152	270.484	-79.421	234.415	148.399	193.565	0.00033743	0.0033043	0.00066934	884.23	1.7305e-05	1.6004e-05	773.43	305.87	8.9786e-06	1.1678e-05	315.8	118.6	111.34	55.409	9.3066e-06	63.502	0.020722	0.026522	0.0077079	1265.6	0.00025626	0.00027468	1133.1	432.24	0.00024322	0.00026391	498.84	177.7	164.07	75.974	0.00025948	88.38	263.894	143.479	-27.764	-69.374	134.156	180.580	-69.888	-63.028	14.709	206.346	-64.936	-59.969	-57.812	-53.298	15.795	-56.313	-8191	255	
9935.830	1	1	0	0	0.15708	0.23647	0.22899	0.073845	0.017047	0.071232	0.12584	0.058902	0.13298	0.16424	0.1326	0.28895	0.18245	0.29808	0.29785	0.10695	-2.7604	-2.1875	-2.9562	-2.9625	-2.3271	-3.2104	-2.6396	-2.6729	-3.1625	-2.4521	-2.925	-3.0354	-2.4833	-3.1396	-2.7167	-2.4958	-46.466	21.461	254.064	21.457	63.520	-61.141	259.786	171.957	154.902	-66.233	235.231	218.692	48.921	-77.455	98.214	209.904	0.00031132	0.00072739	0.00077298	885.74	1.6056e-05	1.0004e-06	777.28	307.84	7.0463e-06	2.4585e-05	316.23	118.49	110.86	55.344	1.4166e-05	63.064	0.016968	0.023172	0.0064923	1222.1	0.00022508	0.00025326	1103.8	423.87	0.00022719	0.0002553	487.6	174.96	162.83	75.869	0.00024917	87.445	225.446	145.318	-61.557	-69.149	140.006	231.153	-69.756	-63.219	16.155	158.357	-65.154	-60.192	-57.667	-53.397	15.179	-56.395	-8191	255	
9935.901	1	1	0	0	0.094743	0.1513	0.15806	0.16146	0.095233	0.043823	0.3605	0.14965	0.051791	0.06254	0.072875	0.026677	0.33153	0.33226	0.059607	0.07362	-2.7208	-2.4479	-2.6646	-3.2062	-2.1833	-3.0167	-2.8771	-2.5729	-3.3354	-2.475	-2.6958	-3.2479	-2.2687	-3.2667	-3.0458	-2.5896	24.961	62.046	44.944	248.099	80.072	134.065	83.192	-69.690	156.751	50.470	213.886	16.581	253.420	271.711	260.758	233.970	0.00026228	0.00057832	0.00042412	882.59	1.0235e-06	5.4889e-06	771.91	304.5	1.1424e-05	1.2307e-05	313.9	117.91	109.86	55.052	3.0487e-06	62.563	0.017178	0.023815	0.0063859	1225.2	0.00023387	0.00026363	1100.9	423.31	0.00023665	0.00026253	482.89	174.26	164.37	76.132	0.00024884	87.579	231.570	6.474	-52.234	-69.380	154.400	250.838	-70.022	-62.911	-55.691	126.583	-65.261	-60.225	-57.949	-53.647	253.233	-56.461	-8191	255	
9935.997	1	1	0	0	0.23497	0.2017	0.19141	0.14851	0.30308	0.19604	0.12979	0.27805	0.18985	0.15085	0.22853	0.14179	0.29779	0.1925	0.10713	0.15954	-3.0438	-2.525	-2.5875	-3.3167	-2.4146	-3.0458	-3.1979	-2.2958	-3.1958	-2.5979	-2.7479	-3.3646	-2.3521	-3.0771	-3.0125	-2.5812	88.894	156.885	34.899	-62.583	274.352	172.298	-49.576	268.188	-68.439	28.485	238.430	-74.060	-37.032	243.453	35.797	215.027	0.00043585	0.00050177	0.00058161	898.72	2.9591e-05	1.13e-05	784.68	310.71	8.741e-06	1.8556e-05	316.18	117.72	112.23	55.737	1.8936e-05	62.645	0.018596	0.02558	0.0068825	1276.9	0.00028397	0.00031753	1181.5	459.95	0.00034255	0.00038271	566.64	204.94	201.76	89.044	0.00044551	104.88	224.994	111.267	47.993	-69.254	188.092	52.390	-69.855	-63.268	-66.700	48.298	-65.192	-60.292	-57.972	-53.430	227.775	-56.625	-8191	255	
9936.118	1	1	0	0	0.17936	0.20438	0.15664	0.086855	0.095222	0.30264	0.10826	0.14873	0.027711	0.14085	0.34386	0.094625	0.18115	0.13807	0.075186	0.21418	-2.8083	-2.7875	-2.3083	-3.3396	-2.275	-2.8438	-3.1792	-2.5438	-3.1708	-2.7708	-2.6875	-3.2792	-2.6542	-2.8021	-3.225	-2.4104	121.924	139.732	75.555	267.406	219.861	5.703	221.415	253.139	-12.849	112.814	10.861	-76.975	208.514	266.983	14.248	52.186	0.00052937	0.0024374	0.0006943	915.29	2.2174e-05	4.2267e-05	788.33	311.47	1.2367e-05	1.3397e-05	313.03	117.39	111.82	55.237	1.4228e-05	62.381	0.035432	0.045535	0.011969	1510.6	0.00046125	0.00045508	1303	493.23	0.00039957	0.00038364	541.89	192.59	183.91	79.72	0.0002939	91.41	205.044	-42.085	-4.358	-69.377	-78.515	57.432	-70.177	-63.400	227.847	66.195	-65.227	-60.276	-57.854	-53.440	-56.350	-56.425	-8191	255	
9936.214	1	1	0	0	0.11767	0.26832	0.088103	0.14238	0.086765	0.14468	0.069972	0.10024	0.014568	0.20436	0.20456	0.19476	0.10638	0.28383	0.19353	0.25863	-2.875	-2.9958	-2.2771	-3.3563	-2.525	-2.6542	-3.4396	-2.5729	-3.0771	-3.0583	-2.3042	-3.1708	-2.8688	-2.4708	-3.1542	-2.3063	21.214	182.766	128.600	-11.721	0.867	117.274	101.661	-70.995	71.065	217.564	-77.030	276.829	60.319	198.744	17.016	223.814	0.00032874	0.0016927	0.00056637	895.45	7.5537e-06	2.1312e-05	775.04	306.91	8.5697e-06	7.35e-06	312.27	117.05	111.65	55.725	1.5067e-05	62.694	0.021894	0.026098	0.0068533	1271	0.00027603	0.0002667	1107.2	433.32	0.00026415	0.0002546	476.65	176.03	167.32	74.708	0.00022348	87.213	234.287	-52.395	37.402	-69.231	220.893	56.212	-70.006	-63.096	169.559	63.482	-65.308	-59.660	-58.166	-53.465	-58.050	-56.215	-8191	255	
9936.310	1	1	0	0	0.35371	0.2668	0.22706	0.20959	0.079838	0.23305	0.098111	0.1054	0.17941	0.15336	0.29536	0.14451	0.053192	0.038466	0.16875	0.1251	-2.7583	-2.7687	-2.2458	-3.3271	-2.625	-2.55	-3.1792	-2.5042	-2.9188	-2.9188	-2.3333	-3.2417	-2.8146	-2.725	-3.2562	-2.5563	32.877	111.265	-62.232	263.016	67.110	36.578	172.751	-69.557	211.037	-40.585	-9.414	94.889	-37.124	-45.965	79.131	9.109	0.00015194	0.0024252	0.00073144	893.78	5.6322e-06	9.133e-06	770.95	307.93	1.2498e-05	3.0604e-06	313.55	117.94	111.73	55.921	6.7017e-06	62.891	0.01727	0.020609	0.0055002	1217	0.00022649	0.00021925	1057.3	421.37	0.00022039	0.00021613	458.57	172.57	161.96	73.49	0.00021079	86.835	260.563	-65.392	5.559	-69.043	88.767	-74.534	-69.949	-63.320	32.570	249.026	-65.546	-59.911	-57.839	-53.442	111.722	-56.260	-8191	255	
9936.429	1	1	0	0	0.27154	0.24184	0.12829	0.24957	0.22443	0.035063	0.11069	0.31384	0.19308	0.20876	0.24352	0.13826	0.2164	0.35946	0.15693	0.21206	-2.6021	-3.0438	-2.3146	-3.0208	-2.6375	-2.5792	-3.3396	-2.5125	-2.7979	-3.3354	-2.4042	-3.2167	-2.9667	-2.5229	-3.1562	-2.8458	221.555	14.655	222.872	-78.514	216.413	262.147	116.803	221.219	157.735	-14.596	131.716	244.313	233.212	-49.991	41.110	242.758	0.0001532	0.0034731	7.4034e-05	901.69	8.9899e-06	1.0679e-05	776.94	309.64	9.0255e-06	2.2553e-05	313.54	117.32	111.34	55.204	2.1083e-05	62.425	0.016394	0.020224	0.0056131	1240.7	0.0002311	0.00023011	1085.6	435.26	0.00024212	0.00024592	484.93	181.75	169.31	75.921	0.00027017	91.788	-53.421	-17.583	106.553	-69.053	82.024	116.203	-69.875	-63.161	0.169	90.913	-65.060	-60.116	-57.779	-53.373	227.820	-56.550	-8191	255	
9936.525	1	1	0	0	0.14577	0.15255	0.12857	0.18305	0.11783	0.2786	0.13973	0.16175	0.15745	0.10708	0.18955	0.045348	0.17333	0.26683	0.15976	0.099823	-2.2625	-3.2208	-2.4521	-3.2042	-2.875	-2.3417	-3.3042	-2.6813	-2.5354	-3.2167	-2.4729	-3.0208	-3.3104	-2.275	-3.3292	-2.6813	153.202	28.915	45.838	206.920	48.517	128.008	245.647	192.571	-15.938	-62.244	265.721	-35.530	-51.559	272.644	134.695	90.638	0.00017396	0.0012646	0.00035521	899.97	5.5366e-06	6.5121e-06	778.29	309.91	1.9844e-05	1.1092e-05	311.64	117.95	111.16	55.431	2.7425e-05	63.067	0.020199	0.025265	0.0073148	1321	0.00028355	0.00028143	1158.3	456.91	0.00028332	0.00028569	514.55	188.16	173.09	76.985	0.00029124	92.112	242.105	41.780	104.269	-69.310	108.699	87.811	-69.836	-63.299	68.670	-36.486	-65.316	-59.803	-57.745	-53.413	212.260	-56.452	-8191	255	
9936.597	1	1	0	0	0.25826	0.045018	0.1005	0.24015	0.15013	0.22332	0.074489	0.19837	0.14034	0.084234	0.10237	0.098315	0.2364	0.20301	0.25997	0.26838	-2.3396	-3.4917	-2.2	-3.2062	-3.1229	-2.2188	-3.3708	-2.7438	-2.3583	-3.3292	-2.4667	-3.1021	-3.0667	-2.4729	-3.1458	-2.7771	135.560	101.830	31.422	-57.864	109.719	39.362	-64.555	245.740	21.811	77.554	189.021	155.746	234.957	259.276	-3.514	256.328	0.00028546	0.002161	0.00024941	901.44	1.8941e-05	1.9927e-05	774.46	310.2	3.6924e-06	7.0228e-06	315.84	118.52	111.89	55.659	7.0833e-06	62.907	0.019536	0.024064	0.0071263	1279.4	0.00024925	0.00024565	1119.1	435.53	0.00023349	0.00023863	490.02	177.08	164.29	74.593	0.00025683	88.314	232.916	113.656	90.383	-69.135	139.887	-75.845	-69.605	-63.100	13.861	177.449	-65.083	-59.910	-57.702	-53.292	106.956	-56.324	-8191	255	
9936.693	1	1	0	0	0.20537	0.20958	0.18022	0.32696	0.13733	0.10579	0.11295	0.088355	0.1681	0.16054	0.1237	0.14772	0.14207	0.10349	0.05495	0.19376	-2.1646	-3.1667	-2.3792	-2.7208	-3.1312	-2.4354	-3.2458	-2.9417	-2.5438	-3.35	-2.8063	-2.6917	-3.25	-2.4375	-3.0583	-3.0458	-69.865	-24.891	-26.414	191.964	-51.162	178.588	-18.761	-63.118	-11.186	-64.304	230.928	-60.431	267.878	254.363	-25.310	132.002	3.7063e-05	0.0018978	0.0002335	899.83	1.0858e-05	2.2553e-05	778.81	310.76	1.286e-05	1.6451e-05	309.22	114.99	109.09	53.548	3.5773e-06	60.346	0.017158	0.022201	0.0067718	1255.2	0.00023965	0.00025409	1141.8	443.13	0.00026284	0.00028454	514.36	180.92	168.52	75.538	0.00029481	87.729	171.555	127.585	9.758	-69.182	114.871	231.595	-69.833	-63.082	-12.535	205.378	-65.226	-59.992	-57.882	-53.334	2.230	-56.317	-8191	255	
9936.814	1	1	0	0	0.19686	0.10663	0.32651	0.16224	0.14276	0.15548	0.18	0.14473	0.04494	0.13472	0.22869	0.3807	0.21088	0.31082	0.17939	0.28285	-2.1458	-3.3187	-2.525	-2.5604	-3.2938	-2.375	-3.1479	-3.2458	-2.2875	-3.3042	-2.65	-2.6146	-3.2354	-2.4729	-3.1	-3.1208	0.363	42.057	-65.802	220.030	120.192	230.729	182.559	234.084	184.245	149.538	57.116	270.785	-42.418	278.049	100.613	181.090	0.000111	0.0015668	0.00027804	906.55	6.3452e-06	2.4861e-05	780.94	309.88	9.1896e-06	3.4304e-05	309.54	113.97	109.35	52.858	2.1457e-05	59.465	0.018878	0.025487	0.007464	1285.5	0.00025942	0.00028503	1158.7	444.31	0.00026336	0.00029801	512.24	179.09	168.96	76.227	0.00030272	88.112	273.878	103.041	0.753	-69.356	-46.600	229.690	-69.869	-63.140	-77.474	232.656	-65.308	-59.986	-58.098	-53.348	15.823	-56.280	-8191	255	
9936.910	1	1	0	0	0.14643	0.20393	0.12691	0.27756	0.15476	0.29954	0.16951	0.16068	0.16437	0.095473	0.11002	0.304	0.17937	0.20592	0.27195	0.027978	-2.0312	-3.1292	-2.5396	-2.4646	-3.3187	-2.6	-3.0083	-3.2458	-2.4562	-3.0458	-2.9583	-2.5542	-3.35	-2.4729	-2.8563	-3.2875	166.372	9.346	163.306	202.142	36.289	-74.853	255.246	105.735	-46.259	147.251	175.599	252.046	-47.776	255.004	113.207	275.046	0.00021733	0.0013007	0.0003069	916.54	6.5529e-06	6.4344e-06	783.49	312.2	8.9057e-06	2.5792e-06	309.64	114.86	109.56	54.072	1.0328e-05	61.049	0.020141	0.028558	0.0079544	1320.4	0.00028428	0.00032173	1183	454.57	0.00028413	0.00032286	516.27	180.82	171	77.326	0.00028244	87.474	259.631	199.212	-43.136	-69.105	278.628	89.413	-69.736	-63.104	269.801	170.760	-65.337	-59.781	-57.786	-53.203	-28.789	-56.330	-8191	255	
9937.006	1	1	0	0	0.065639	0.14122	0.074154	0.14174	0.096904	0.20029	0.09284	0.15684	0.067419	0.3196	0.148	0.097969	0.20624	0.096362	0.044026	0.084107	-1.9375	-3.0396	-2.7604	-2.6667	-3.0458	-2.6813	-2.775	-3.3604	-2.3396	-3.0625	-2.8521	-2.2479	-3.2313	-2.7146	-2.5812	-3.2938	-25.702	135.092	242.481	264.626	179.316	89.313	85.562	208.167	91.579	3.317	212.516	-58.855	237.975	197.688	71.709	192.315	0.00036454	0.00092982	4.4823e-05	913.12	5.9694e-06	8.8666e-06	778.04	312.83	5.6019e-06	1.1288e-05	311.85	117.4	111.37	55.518	8.8001e-06	62.76	0.018744	0.025702	0.0066687	1250.7	0.00023839	0.00025882	1088.4	423.44	0.00022037	0.00023989	466.21	167.69	160.45	74.047	0.00021064	84.253	220.068	166.337	268.220	-69.137	253.554	59.192	-69.370	-63.172	204.051	56.590	-65.337	-59.914	-57.749	-53.439	-12.812	-56.577	-8191	255	
9937.127	1	1	0	0	0.070709	0.13614	0.088786	0.20564	0.20741	0.10806	0.12319	0.062736	0.2865	0.1593	0.25744	0.31265	0.35168	0.15128	0.36982	0.11871	-1.9875	-3.05	-2.9667	-2.3104	-3.2542	-2.8479	-2.5812	-3.2625	-2.5458	-3.1833	-3.2292	-2.4854	-3.4313	-2.7708	-2.5104	-3.4813	17.899	81.967	270.557	-78.835	120.044	142.890	190.398	10.669	220.998	-70.874	151.108	206.585	-43.807	216.341	152.603	121.359	0.00036096	0.0011278	0.00027581	898.95	1.1265e-05	3.279e-05	772.39	311.71	1.7605e-05	6.4891e-06	314.04	118.35	112.19	55.867	1.08e-05	62.939	0.015444	0.020462	0.0054022	1193.9	0.00021465	0.00022768	1058.9	417.12	0.0002184	0.00022773	462.6	167.93	162.1	74.146	0.00020755	84.633	214.122	14.501	39.486	-69.039	154.894	10.851	-69.689	-63.113	-80.297	-23.433	-65.333	-60.007	-57.990	-53.342	134.926	-56.429	-8191	255	
9937.198	1	1	0	0	0.30001	0.14586	0.17527	0.19293	0.098296	0.14531	0.29727	0.013799	0.081934	0.13961	0.29122	0.26245	0.21469	0.27272	0.17758	0.068671	-2.1104	-2.8521	-2.9938	-2.475	-3.0354	-2.725	-2.575	-3.1396	-2.5062	-2.9396	-3.1437	-2.575	-3.2333	-2.8625	-2.5438	-3.2125	221.279	188.282	28.752	212.374	202.172	170.045	230.638	278.284	161.486	-9.250	248.157	226.572	239.161	177.979	270.069	-67.933	0.0003595	0.0021665	0.00013412	897.79	4.708e-06	2.7728e-05	773.33	311.93	1.0611e-05	1.0254e-05	314.18	117.86	112.32	55.853	7.2638e-06	63.111	0.015984	0.020052	0.0053747	1192	0.00021887	0.00021966	1052.8	417.73	0.00022182	0.00022108	462.57	169.76	163.95	74.168	0.00021189	86.056	256.630	-25.066	41.899	-68.968	260.880	7.840	-69.732	-63.067	233.164	45.212	-65.031	-60.022	-57.677	-53.296	95.098	-56.267	-8191	255	
9937.295	1	1	0	0	0.072179	0.29026	0.028232	0.28988	0.044289	0.17288	0.14509	0.17195	0.17289	0.071612	0.12666	0.12442	0.076279	0.26151	0.0068344	0.22916	-2.125	-2.775	-3.0375	-2.6604	-3.1271	-2.9375	-2.4896	-3.5396	-2.4146	-2.6667	-3.3312	-2.3021	-3.0083	-3.2167	-2.1708	-3.3021	-70.520	-74.330	191.397	270.193	-13.916	143.192	148.358	249.335	45.517	145.653	-7.369	-13.786	65.601	219.156	75.521	247.138	0.00027422	0.00081375	0.00045659	896.55	2.0007e-05	8.7984e-06	774.14	310.99	9.8797e-06	1.4252e-05	313.79	117.95	113.03	56.084	8.4433e-06	62.948	0.016836	0.020449	0.0055711	1219.3	0.00023508	0.00023101	1069	428.49	0.0002398	0.0002346	471.36	174.82	166.63	74.916	0.00022223	87.93	212.036	0.325	-74.756	-68.872	42.331	118.659	-69.765	-63.046	-28.640	101.870	-64.925	-60.018	-57.632	-53.227	-61.696	-56.304	-8191	255	
9937.391	1	1	0	0	0.20057	0.071455	0.17517	0.24196	0.04645	0.035534	0.13099	0.22986	0.32397	0.020139	0.18258	0.094154	0.16489	0.18394	0.16936	0.19515	-2.3937	-2.4021	-3.1542	-2.55	-3.05	-3.1292	-2.2792	-3.4646	-2.75	-2.5583	-3.3083	-2.4604	-2.9313	-3.3625	-2.3583	-3.3792	125.467	46.130	182.736	193.026	97.538	-15.160	222.926	183.608	130.429	26.991	126.859	-57.105	-61.353	229.584	144.214	163.601	0.00020427	0.0013613	0.00036265	897.85	7.3892e-06	1.8929e-05	774.88	312.11	1.1664e-05	1.9612e-05	314.54	119.11	112.95	56.413	6.0274e-06	63.522	0.017494	0.020957	0.005725	1235.4	0.00023337	0.00022915	1067.6	431.02	0.00022959	0.00022366	468.14	175.41	164.27	74.527	0.00021646	87.992	238.647	46.698	54.670	-69.054	58.898	-30.348	-69.639	-63.138	26.109	64.753	-65.112	-59.869	-57.790	-53.466	112.093	-56.396	-8191	255	
9937.510	1	1	0	0	0.076649	0.10998	0.14794	0.2296	0.19164	0.14696	0.080601	0.16342	0.17786	0.10145	0.042077	0.091512	0.17915	0.056663	0.44294	0.15873	-2.4833	-2.4562	-3.2875	-2.3479	-2.9313	-3.2062	-2.45	-3.3292	-2.8771	-2.5896	-3.4917	-2.4729	-2.6021	-3.4604	-2.2562	-3.2271	247.745	-9.811	73.008	236.565	-22.072	-59.512	181.113	197.315	188.940	7.827	276.002	121.903	271.666	235.954	-31.677	172.910	0.0002127	0.00074178	7.3267e-05	903.91	3.6891e-06	1.2494e-05	776.48	315.43	5.9726e-06	2.189e-05	314.16	118.42	113.79	55.629	1.8321e-05	62.581	0.016577	0.020258	0.0057247	1245.2	0.00022687	0.00022725	1078.3	436.8	0.00023091	0.00023077	479.92	178.5	167.02	75.109	0.00024736	89.281	271.835	135.141	51.570	-69.075	33.153	42.725	-69.967	-62.971	27.064	74.745	-65.220	-59.908	-57.957	-53.372	225.630	-56.293	-8191	255	
9937.606	1	1	0	0	0.22474	0.14087	0.10436	0.38161	0.060044	0.12632	0.24538	0.16789	0.22184	0.3033	0.12114	0.39213	0.13689	0.24354	0.15848	0.27732	-2.5479	-2.4354	-3.1104	-2.8312	-2.8667	-3.2104	-2.5271	-3.1583	-3.2292	-2.4292	-3.2812	-2.7521	-2.75	-3.1125	-2.4083	-3.1104	49.171	-75.577	184.957	229.670	191.063	41.252	-58.671	213.656	16.096	76.304	188.186	139.295	-66.943	-70.116	90.364	248.526	0.00016927	0.0027336	0.00054035	908.87	1.2465e-05	8.2575e-06	778.06	314.65	7.0076e-06	4.2278e-06	311.25	117.25	112.33	55.228	1.4461e-05	61.594	0.018214	0.022555	0.0067049	1292.7	0.00025364	0.00025624	1128.9	450.54	0.00025973	0.00026271	507.99	185.31	173.85	77.406	0.0003081	92.555	241.570	-11.019	190.283	-69.087	19.479	55.061	-69.774	-63.014	17.926	36.089	-65.233	-60.433	-58.204	-53.394	263.055	-56.341	-8191	255	
9937.702	1	1	0	0	0.23519	0.045966	0.10951	0.017884	0.20312	0.25961	0.22719	0.27211	0.065478	0.12534	0.059494	0.15639	0.2427	0.23335	0.24742	0.17893	-2.5563	-2.3167	-3.3208	-3.0333	-2.3729	-3.4688	-2.7458	-2.7979	-3.2479	-2.4146	-3.2521	-2.9542	-2.5167	-3.4688	-2.45	-2.8208	158.467	-24.269	198.885	254.175	265.684	263.790	190.723	-49.316	228.165	44.485	222.085	237.583	234.987	239.873	45.066	-44.157	0.0001842	0.00030883	0.00050148	920.71	1.6723e-05	1.3485e-05	783.7	316.75	1.8221e-05	1.8387e-05	311.36	116.37	112.51	54.746	1.4e-05	61.002	0.021883	0.027431	0.0084692	1369.9	0.0003082	0.00031988	1223.8	477.01	0.00031699	0.00032563	551.45	195.38	183.12	80.808	0.00036929	95.372	242.597	122.575	249.010	-69.003	65.965	-76.001	-69.645	-63.195	45.175	99.971	-65.327	-60.362	-58.256	-53.597	220.172	-56.344	-8191	255	
9937.798	1	1	0	0	0.29712	0.21396	0.12241	0.020085	0.27107	0.12772	0.20238	0.08398	0.31934	0.11604	0.23416	0.090197	0.13722	0.26765	0.052855	0.039693	-2.6458	-2.4729	-3.2271	-3.0146	-2.425	-3.3187	-2.8021	-2.9521	-3.1104	-2.2625	-3.2021	-2.9271	-2.6437	-3.3083	-2.6312	-2.7833	194.132	48.509	211.285	277.334	24.983	260.628	160.530	-57.789	269.485	48.408	263.588	236.936	-74.554	217.353	19.989	-38.960	0.00024388	0.0015337	0.00016353	923.1	5.9509e-06	2.9389e-05	785.72	315.09	3.2177e-06	3.237e-05	306.35	113.85	111.12	53.627	1.6472e-05	59.243	0.024842	0.032375	0.0099451	1418.6	0.00034326	0.00036377	1259.4	480.11	0.00032679	0.00034224	542.81	187.68	175.72	77.89	0.00031505	87.974	276.198	122.152	179.844	-69.185	-6.589	154.741	-70.071	-63.286	53.511	191.426	-65.075	-59.989	-58.149	-53.504	112.294	-56.338	-8191	255	
9937.892	1	1	0	0	0.14497	0.02917	0.1248	0.09013	0.30354	0.12297	0.23807	0.21094	0.065744	0.2882	0.24448	0.12927	0.30081	0.19055	0.13097	0.17434	-2.7583	-2.3417	-3.1042	-3.1312	-2.3667	-3.225	-2.775	-2.6979	-3.2292	-2.4146	-3.1	-3.1729	-2.3979	-3.5042	-2.8187	-2.5125	109.478	255.548	-54.695	85.952	-61.850	-55.542	266.732	200.455	128.583	213.148	245.305	-16.166	-36.054	228.272	-70.218	257.696	9.8288e-05	0.0019439	0.0003853	900.73	5.5825e-06	2.833e-06	771.4	313.4	8.8151e-06	3.3934e-06	304.05	113.04	110.36	53.39	1.628e-05	58.926	0.019555	0.025922	0.0073613	1275.9	0.00024705	0.00027254	1114.1	433.06	0.00023562	0.00026091	480.91	170.91	162.77	74.081	0.00025578	83.347	206.828	108.116	11.981	-69.300	112.879	-58.650	-70.049	-63.035	125.054	242.147	-65.273	-60.332	-58.090	-53.279	70.137	-56.507	-8191	255	
9937.989	1	1	0	0	0.1605	0.3428	0.18677	0.37749	0.17564	0.022297	0.11829	0.27893	0.045706	0.15708	0.18156	0.13431	0.13323	0.3151	0.15582	0.076992	-3.1583	-2.4104	-3.025	-3.2396	-2.3937	-3.2042	-2.9042	-2.4792	-3.2771	-2.5979	-2.8833	-3.4042	-2.3	-3.3021	-2.9354	-2.4979	5.845	10.022	268.494	-21.686	-79.859	73.150	-55.129	255.230	161.381	4.572	272.917	-47.836	207.144	226.495	144.755	241.813	0.00035389	0.0023415	0.00034833	901.61	1.0424e-06	1.2274e-05	765.36	309.59	7.685e-06	4.6794e-06	305.41	114.46	111.06	54.532	8.3199e-06	60.391	0.017053	0.023561	0.006425	1237	0.00022867	0.00025682	1084.9	424.98	0.00022547	0.00024927	466.84	167.48	160.98	73.795	0.00022578	82.512	216.162	74.206	15.418	-69.239	25.618	208.475	-69.896	-63.258	246.744	28.736	-65.255	-60.029	-58.163	-53.521	128.591	-56.426	-8191	255	
9938.109	1	1	0	0	0.16636	0.28664	0.1558	0.19133	0.082756	0.15475	0.10757	0.14798	0.030751	0.21361	0.13787	0.1785	0.12776	0.2733	0.20122	0.20455	-2.9708	-2.4917	-2.7375	-3.2188	-2.4771	-3.1708	-2.9562	-2.5438	-3.4208	-2.7812	-2.7562	-3.3812	-2.2604	-3.1625	-3.1021	-2.4771	43.101	-72.569	168.928	-15.727	52.138	24.133	173.555	218.745	-39.147	148.105	-63.995	184.355	48.605	255.546	160.794	254.946	0.00039234	4.5363e-05	0.00036065	904.65	3.0607e-06	1.0843e-05	766.03	311.83	1.1263e-05	1.7498e-05	309.16	116.91	112.54	55.702	7.0631e-06	62.018	0.015859	0.021409	0.0056144	1204.7	0.00021014	0.00022891	1049.6	415.34	0.00020534	0.00022041	451.65	164.66	158.89	72.961	0.00019443	81.901	213.768	194.406	-28.794	-69.224	162.751	35.710	-69.965	-63.410	235.635	65.910	-65.395	-59.818	-57.748	-53.394	234.423	-56.566	-8191	255	
9938.205	1	1	0	0	0.19544	0.087111	0.17971	0.1298	0.18383	0.32236	0.2144	0.17393	0.15545	0.067927	0.24148	0.055697	0.16081	0.099622	0.25381	0.21558	-2.8438	-2.6646	-2.6312	-3.3563	-2.4437	-2.9333	-3.4042	-2.3	-3.4042	-2.7188	-2.5021	-3.4333	-2.5354	-2.9167	-3.2333	-2.2687	31.630	-33.974	-30.056	244.350	-61.705	263.593	213.892	-80.217	-49.140	13.899	186.646	1.991	166.772	158.344	-42.186	181.067	0.00033124	0.0016595	0.00050297	897.04	4.7063e-06	1.8691e-05	766.13	313.36	1.0952e-05	4.9287e-06	311.51	118.29	113.69	56.556	1.5611e-05	63.115	0.014284	0.018368	0.0047906	1163.6	0.00018758	0.00019259	1012.8	403.83	0.00017983	0.00018164	432.68	160.05	154.76	71.549	0.0001611	80.656	225.249	-60.330	-41.976	-68.897	256.277	83.012	-69.734	-63.202	239.884	43.608	-65.081	-59.882	-57.907	-53.434	126.727	-56.496	-8191	255	
9938.302	1	1	0	0	0.29671	0.22705	0.18096	0.31596	0.28829	0.14688	0.044012	0.1558	0.34787	0.16201	0.1762	0.18917	0.16929	0.18224	0.22533	0.12835	-2.8854	-2.825	-2.4083	-3.2687	-2.6146	-2.7333	-3.2208	-2.4708	-3	-2.9146	-2.4771	-3.2229	-2.7146	-2.9354	-3.0833	-2.6854	125.211	83.729	72.132	263.609	-76.797	-61.664	181.701	108.739	-22.021	-77.188	121.825	225.537	-66.226	274.087	185.774	256.306	0.00029037	0.001421	0.00018645	892.91	7.7664e-06	1.816e-05	765.25	314.42	4.8888e-06	1.2254e-05	313.44	119.05	114.79	57.245	1.1215e-05	63.714	0.012263	0.015124	0.0040063	1131.5	0.00016399	0.00016227	984.29	397.89	0.00016321	0.00016115	424.52	159.23	153.66	71.246	0.00015259	81.339	215.218	-19.111	34.079	-69.240	64.062	59.675	-69.637	-63.202	276.595	67.180	-65.588	-60.186	-58.513	-53.762	119.681	-56.846	-8191	255	
9938.398	1	1	0	0	0.16683	0.16962	0.12226	0.12798	0.011827	0.1709	0.1636	0.18695	0.25723	0.17878	0.1413	0.11186	0.29873	0.19358	0.1589	0.1955	-2.7729	-2.8833	-2.4188	-3.3167	-2.6417	-2.5458	-3.1104	-2.4688	-3.1063	-2.925	-2.3333	-3.3229	-2.5563	-2.775	-3.1813	-2.4562	199.546	-0.390	146.012	174.976	24.751	267.679	180.101	-37.793	176.386	122.402	53.459	203.417	183.680	-53.018	67.480	221.036	0.0001112	0.0014148	0.00018735	895.42	1.5222e-05	1.7994e-06	772.15	314.75	4.9115e-06	5.6462e-06	313.99	120.05	114.32	56.882	1.1593e-05	63.744	0.011998	0.014575	0.0039147	1137.7	0.00016428	0.00016106	988.11	402.4	0.00016545	0.00016471	428.94	162.69	154.91	71.522	0.00016362	82.734	227.196	-40.649	-77.569	-69.287	83.134	29.765	-70.108	-63.307	178.924	26.297	-65.438	-60.168	-58.539	-53.448	68.518	-56.802	-8191	255	
9938.494	1	1	0	0	0.26573	0.13582	0.031374	0.24001	0.067153	0.074671	0.051338	0.076183	0.023064	0.16779	0.20327	0.13797	0.12212	0.10303	0.24591	0.12819	-2.6458	-3.125	-2.3292	-3.2396	-2.5646	-2.4437	-3.4771	-2.4583	-2.7104	-3.3937	-2.3479	-3.3021	-3.0229	-2.5542	-3.3604	-2.5479	30.066	6.235	72.585	272.676	260.037	125.721	16.541	149.852	35.424	0.313	183.202	273.414	269.667	175.366	232.179	120.772	8.9554e-05	0.0020167	0.00032699	898.7	7.4048e-06	3.8626e-06	769.82	314.14	1.4567e-05	1.7916e-05	313.89	119.53	113.9	56.689	4.5567e-06	63.253	0.012899	0.015885	0.0043367	1166.4	0.00017795	0.00017592	1009.4	410.77	0.00018003	0.00017869	438.96	166.22	156.29	71.927	0.00017914	83.824	269.717	-53.905	222.392	-69.187	61.442	8.304	-70.096	-63.395	49.318	20.616	-65.331	-60.119	-58.060	-53.451	-11.336	-56.605	-8191	255	
9938.590	1	1	0	0	0.03165	0.16987	0.25301	0.38132	0.2105	0.11026	0.0553	0.12711	0.020467	0.069236	0.10235	0.38191	0.21653	0.30643	0.062052	0.23439	-2.425	-3.0875	-2.1562	-3.3625	-2.975	-2.3542	-3.4583	-2.3438	-2.7438	-3.1937	-2.4896	-3.1104	-2.8896	-2.5729	-3.1375	-2.7979	226.742	246.128	226.822	250.237	133.774	-11.778	37.725	-66.278	16.340	-67.413	247.154	-20.221	211.645	253.165	186.277	243.717	9.7165e-05	0.00012488	0.00026058	902.62	1.2128e-05	2.0144e-05	773.94	314.65	1.3673e-05	1.5663e-05	312.05	118.44	113.27	56.025	1.5905e-05	62.164	0.013407	0.016637	0.0047168	1189.1	0.00018595	0.0001854	1030.5	417.4	0.00018836	0.00019036	449.27	167.81	157.55	71.964	0.00019947	83.863	-18.801	-75.816	130.692	-69.164	2.971	142.910	-69.950	-63.544	56.790	-0.678	-65.527	-60.248	-58.277	-53.518	205.274	-56.709	-8191	255	
9938.686	1	1	0	0	0.073724	0.082801	0.1331	0.082007	0.13326	0.15012	0.15831	0.13487	0.22043	0.10607	0.090127	0.13106	0.059745	0.10468	0.3121	0.13201	-2.5021	-2.9208	-2.5042	-3.0979	-3.0208	-2.4188	-3.2313	-2.7396	-2.7042	-3.2833	-2.5083	-3.1917	-3.0979	-2.6667	-3.0458	-2.8375	-1.815	-23.976	-6.155	171.560	213.889	-2.733	44.696	106.281	-44.456	-45.621	146.120	20.951	14.808	199.862	54.239	91.741	0.00017039	0.0011553	0.0002459	901.02	1.7358e-05	1.6096e-05	770.9	314.46	6.9725e-06	3.3232e-06	310.24	117.29	112.5	55.702	8.3283e-06	62.082	0.014124	0.017571	0.0051881	1196.7	0.00019292	0.00019325	1043.6	416.77	0.00019041	0.00019289	452.98	165.94	156.22	71.413	0.00020075	82.703	205.474	-2.995	88.202	-69.340	49.111	145.412	-70.038	-63.472	260.807	-34.925	-65.046	-60.115	-58.155	-53.486	246.675	-56.818	-8191	255	
9938.782	1	1	0	0	0.168	0.19094	0.20771	0.19868	0.1524	0.082218	0.14011	0.077325	0.29002	0.061567	0.16451	0.086521	0.074448	0.32453	0.12079	0.20324	-2.3083	-3.3292	-2.2687	-3.0271	-2.9938	-2.3292	-3.3688	-2.9771	-2.4	-3.4229	-2.5396	-2.8104	-3.4979	-2.6771	-3.0104	-3	182.523	-36.729	80.778	272.299	104.584	112.780	234.598	155.667	208.588	53.833	210.068	-72.190	257.452	263.879	-29.700	200.580	0.00016378	9.9321e-05	0.00038848	898.97	1.1916e-05	1.6704e-05	774.19	312.82	4.1577e-06	1.2192e-05	311.63	118.02	112.74	55.666	1.5998e-05	62.646	0.013421	0.017026	0.0051249	1175.8	0.00018161	0.00018558	1038.1	410.78	0.00017925	0.00018767	450.94	164.04	154.53	71.479	0.00019776	82.301	230.714	147.261	140.255	-69.431	8.189	187.751	-69.896	-63.608	-15.637	144.558	-65.554	-59.977	-58.174	-53.393	63.057	-56.573	-8191	255	
9938.901	1	1	0	0	0.20028	0.087684	0.047255	0.16584	0.062442	0.23773	0.1684	0.24184	0.2383	0.11429	0.12868	0.30409	0.12683	0.29901	0.22244	0.2681	-2.2542	-3.2083	-2.5563	-2.8917	-3.3208	-2.3688	-3.0687	-2.9542	-2.4521	-3.1542	-2.6	-2.8646	-3.3417	-2.6729	-3.2167	-3.1021	-35.049	34.595	201.434	211.364	249.527	197.419	225.302	199.844	126.712	189.996	178.122	261.865	33.824	239.001	-81.469	177.179	0.00029493	0.00078759	0.0004087	901.9	7.1256e-06	1.8938e-05	774.6	313.42	7.5481e-06	1.057e-05	313.38	118.38	113.62	56.164	2.0582e-05	62.725	0.012908	0.017042	0.0050579	1168.8	0.00017552	0.000188	1035.6	407.7	0.00017368	0.00019134	451.25	163.63	154.43	72.042	0.00019545	82.428	242.113	150.942	54.381	-69.112	134.309	200.443	-69.909	-63.504	139.955	178.072	-65.485	-60.131	-58.011	-53.547	100.961	-56.516	-8191	255	
9938.997	1	1	0	0	0.039184	0.15197	0.20214	0.10307	0.17092	0.057725	0.17718	0.066392	0.2663	0.14708	0.18442	0.20574	0.25979	0.20314	0.27096	0.17979	-1.9396	-3.4021	-2.6063	-2.575	-3.1979	-2.5521	-3.0042	-3.1917	-2.5021	-3.3875	-2.7021	-2.5833	-3.4146	-2.4208	-3.0417	-3.3958	156.799	-46.030	51.078	-14.397	192.770	219.398	184.293	54.971	95.795	-76.218	63.647	70.344	193.829	-57.433	-76.372	188.929	0.00028395	0.00053133	0.00031307	906.93	3.2524e-06	2.5374e-05	775.33	314.86	8.9956e-06	1.3848e-05	312.61	117.76	113.12	55.716	7.4367e-06	62.276	0.013013	0.017997	0.0050975	1175.4	0.00017965	0.00020024	1039.2	410.48	0.00017829	0.00020087	449.97	163.3	155.23	72.415	0.00019303	82.012	239.616	192.690	-50.263	-69.012	84.038	148.417	-69.540	-63.317	-67.452	144.730	-65.541	-60.058	-57.932	-53.449	103.517	-56.695	-8191	255	
9939.071	1	1	0	0	0.15388	0.11455	0.077751	0.12189	0.085097	0.029679	0.2078	0.059393	0.20956	0.19109	0.15862	0.22165	0.25426	0.13471	0.053398	0.12385	-1.8396	-3.2646	-2.7854	-2.5021	-3.4188	-2.4375	-2.7604	-3.3375	-2.4437	-3.2021	-2.8833	-2.5167	-3.3083	-2.7083	-2.7958	-3.4042	180.569	-24.536	42.721	71.232	91.939	6.421	234.914	242.870	243.423	107.895	269.718	231.999	24.342	13.480	260.450	224.928	0.00015654	0.0018043	0.00045908	902.2	5.7622e-06	2.0527e-05	777.85	313.41	1.1226e-05	1.5377e-05	313.11	118.69	112.88	55.96	1.0942e-05	62.145	0.013181	0.018411	0.0049716	1167.8	0.00018141	0.00020242	1029.9	408.33	0.00018138	0.00020145	445.15	162.24	155.48	72.522	0.00018631	81.466	185.961	-72.945	-18.698	-69.205	-40.439	113.746	-69.816	-63.283	196.803	142.972	-65.589	-59.887	-58.080	-53.776	23.298	-56.459	-8191	255	
9939.190	1	1	0	0	0.075021	0.027413	0.27554	0.13817	0.16609	0.26423	0.16292	0.11311	0.16441	0.16525	0.21363	0.10185	0.081229	0.17988	0.25747	0.049464	-1.9813	-3.0146	-2.9292	-2.4792	-3.1625	-2.7562	-2.6417	-3.2354	-2.4667	-2.9958	-3.0229	-2.3833	-3.5083	-2.7208	-2.5708	-3.4437	240.807	98.581	-32.145	238.230	1.059	-63.438	162.610	232.333	171.021	253.937	250.464	93.172	232.085	-58.343	212.878	83.701	0.00034124	0.0012506	0.00019465	897.74	1.2147e-05	6.8704e-06	776	314.83	7.0815e-06	1.3533e-05	312.56	118.88	113.83	56.413	5.0228e-06	62.598	0.013363	0.017996	0.0047659	1158.4	0.00018366	0.00019755	1020	405.97	0.00018239	0.00019489	441.61	161.63	156.35	72.325	0.00017782	81.55	207.149	-5.906	4.030	-69.029	176.035	60.077	-69.868	-63.164	250.237	145.977	-65.368	-59.947	-57.797	-53.500	38.247	-56.470	-8191	255	
9939.286	1	1	0	0	0.12438	0.052797	0.21761	0.10526	0.12471	0.071453	0.060064	0.16623	0.17988	0.22619	0.18089	0.46687	0.45048	0.15888	0.33453	0.12485	-1.9333	-2.9583	-2.9854	-2.4521	-3.2646	-2.6896	-2.575	-3.2583	-2.4479	-2.9021	-3.2417	-2.3104	-3.2417	-3.0187	-2.3563	-3.3417	-16.738	-23.689	-77.835	96.489	223.538	25.570	139.748	234.418	69.872	178.445	129.192	263.213	272.857	-2.369	-0.325	211.130	0.00035298	0.002271	0.00025932	902.59	8.7483e-06	2.7973e-06	778.5	315.57	7.6037e-06	1.4313e-05	315.65	119.32	113.92	56.677	4.8785e-06	63.332	0.013472	0.017174	0.0045662	1154.1	0.00018245	0.00018659	1012.9	405.01	0.00018033	0.00018151	437.53	161.16	155.89	71.618	0.00016605	81.396	231.498	-15.318	49.471	-69.043	137.550	76.821	-69.428	-63.419	214.095	64.107	-65.319	-59.969	-57.601	-53.533	-2.500	-56.598	-8191	255	
9939.382	1	1	0	0	0.34687	0.14451	0.094342	0.17377	0.1054	0.038193	0.19136	0.17718	0.019145	0.18993	0.2016	0.068092	0.22968	0.35197	0.064954	0.15334	-1.9771	-2.8937	-3.2271	-2.5458	-3.1042	-2.9437	-2.6458	-3.2625	-2.5375	-2.5896	-3.2292	-2.55	-2.9417	-2.9458	-2.3542	-3.3833	147.768	-67.073	236.638	269.866	-68.361	217.803	-56.376	234.752	224.514	255.048	228.946	269.920	232.388	252.301	65.108	-69.016	0.00017037	0.0010128	0.00019999	905.91	6.8609e-06	6.4771e-06	780.95	316.06	4.9799e-06	2.7485e-05	315	119.05	114.14	56.443	1.0499e-05	63.228	0.012936	0.015762	0.0042298	1148.3	0.00017287	0.00017021	998.11	402.87	0.00016929	0.00016465	428.12	159.14	152.92	70.329	0.00014934	80.41	189.518	13.272	-31.806	-69.112	82.798	36.540	-69.600	-63.143	85.035	42.349	-65.133	-59.966	-57.939	-53.366	9.496	-56.745	-8191	255	
9939.478	1	1	0	0	0.034234	0.10783	0.058478	0.12934	0.16858	0.13998	0.1909	0.25815	0.15127	0.13938	0.25874	0.11761	0.18401	0.14917	0.090905	0.25522	-2.2479	-2.6604	-3.2417	-2.3729	-3.1458	-2.8042	-2.3479	-3.2854	-2.3729	-2.5458	-3.3563	-2.3625	-2.9813	-3.0646	-2.1604	-3.3021	-0.957	-43.889	66.968	-71.160	-23.164	192.199	-28.992	197.139	200.822	113.337	-5.607	278.364	222.359	153.211	96.222	200.982	0.00012238	0.001449	0.00016039	913.96	9.943e-06	8.6436e-06	783.36	318.35	2.7198e-06	1.0152e-05	316.2	119.62	114.19	56.511	8.3851e-06	63.341	0.011703	0.014001	0.003815	1145.4	0.00015767	0.00015537	989.81	403.33	0.00015745	0.00015485	426.58	160.12	152.44	70.442	0.00015238	81.453	-33.365	27.123	192.908	-69.264	-9.600	107.949	-70.129	-63.548	99.936	14.793	-65.713	-60.389	-58.338	-53.738	68.294	-56.729	-8191	255	
9939.599	1	1	0	0	0.13496	0.033807	0.24034	0.37895	0.040617	0.16345	0.25955	0.18185	0.13652	0.19442	0.20674	0.10415	0.2331	0.2996	0.30812	0.27812	-2.2562	-2.4417	-3.3604	-2.5687	-2.825	-3.1083	-2.4062	-3.2938	-2.7083	-2.3979	-3.3688	-2.6688	-2.8583	-3.0896	-2.2625	-3.1688	118.247	53.123	259.741	203.530	-24.033	17.036	184.102	256.864	-4.431	10.610	127.289	230.974	-67.002	-23.414	62.567	129.530	0.0002571	0.0013638	0.00032698	914.32	3.7377e-06	1.9139e-06	786.18	319.53	6.4183e-06	1.4334e-05	315.34	119.14	114.97	56.388	3.653e-06	62.483	0.012123	0.014817	0.0041628	1174.7	0.00017079	0.00017235	1018.7	417.25	0.00018016	0.00018079	445.65	166.78	158.32	72.265	0.00019373	84.283	234.046	-4.169	129.259	-69.407	124.115	186.907	-69.873	-63.416	104.573	55.712	-65.843	-60.355	-58.242	-53.916	215.908	-56.567	-8191	255	
9939.695	1	1	0	0	0.33812	0.11405	0.11926	0.14359	0.13099	0.11251	0.19053	0.057987	0.322	0.12483	0.30169	0.12757	0.18157	0.10034	0.16513	0.15584	-2.5833	-2.3833	-3.2125	-2.7792	-2.8187	-3.3312	-2.2667	-3.075	-2.9583	-2.3729	-3.3937	-2.6083	-2.8083	-3.4146	-2.6604	-3.2	-14.308	220.963	167.656	-9.140	252.778	-29.102	225.701	160.173	138.443	6.435	-24.589	-44.005	266.703	237.881	1.969	200.745	0.00012889	0.0010526	0.00024026	923.96	8.838e-06	1.3046e-05	789.09	319.61	1.0379e-05	2.1762e-05	313.16	117.33	113.29	55.257	1.256e-05	60.889	0.014884	0.018521	0.0054466	1242.8	0.00021346	0.00021555	1080.6	435.26	0.00021898	0.00021841	470.9	172.67	162.39	72.705	0.00022476	84.043	-19.731	219.244	225.324	-69.554	86.263	-3.759	-70.153	-63.436	139.166	-34.880	-65.635	-60.406	-58.100	-53.656	256.952	-56.581	-8191	255	
9939.791	1	1	0	0	0.18398	0.11504	0.074021	0.21167	0.18476	0.10064	0.29381	0.26451	0.13079	0.15068	0.29866	0.17178	0.2143	0.30908	0.051986	0.24618	-2.575	-2.3854	-3.1937	-2.675	-2.7729	-3.2687	-2.3729	-3.2729	-3.0833	-2.4354	-3.2625	-2.7979	-2.7333	-3.4354	-2.2771	-3.0958	156.042	57.421	187.408	269.912	29.556	200.792	272.502	243.701	191.285	150.290	-80.860	184.383	261.956	223.995	223.841	204.769	0.00016314	0.001636	0.00055357	917.41	7.8934e-06	1.5449e-05	775.39	313.66	8.4112e-06	7.4253e-06	306.97	113.8	110.25	53.38	2.6207e-06	58.961	0.015563	0.019024	0.005696	1227.4	0.00020235	0.00020231	1057.8	417.9	0.00019341	0.00019201	449.53	161.47	152.72	68.649	0.00019496	78.485	226.399	267.498	180.712	-69.216	239.656	236.303	-70.204	-63.604	112.511	-2.201	-65.505	-60.039	-58.251	-53.581	55.811	-56.551	-8191	255	
9939.885	1	1	0	0	0.11732	0.24549	0.19468	0.19595	0.23149	0.12146	0.21866	0.14176	0.12285	0.11172	0.18062	0.37208	0.09934	0.20129	0.16108	0.18507	-2.7854	-2.35	-3.3229	-2.9208	-2.425	-3.3958	-2.5354	-3.1562	-3.1021	-2.5333	-3.0438	-2.8417	-2.3333	-3.3333	-2.4167	-2.725	205.634	234.861	237.500	257.022	144.439	94.412	-70.267	89.249	55.687	85.006	165.090	149.540	-75.945	277.447	-44.721	224.845	0.00011617	0.0009602	0.00028132	909.92	5.0983e-06	1.5129e-05	774.47	311.06	1.0532e-05	1.3181e-05	304.88	112.16	108.68	52.085	1.1275e-05	57.981	0.012947	0.016291	0.0049793	1176.2	0.00017262	0.00018086	1030.2	404.57	0.00017208	0.00017944	438.77	155.81	148.26	67.221	0.00019187	76.603	233.761	80.372	55.245	-69.492	23.419	179.499	-70.073	-63.468	128.155	174.166	-65.548	-60.159	-58.262	-53.529	99.967	-56.362	-8191	255	
9939.982	1	1	0	0	0.16837	0.2226	0.086866	0.28415	0.17615	0.16797	0.21478	0.15414	0.056894	0.26821	0.21825	0.053068	0.063389	0.10909	0.2328	0.2085	-2.8354	-2.2458	-3.1875	-3.1188	-2.3583	-3.3312	-2.6625	-2.8208	-3.3271	-2.3771	-3.1625	-3.1667	-2.4542	-3.3458	-2.7896	-2.6479	-63.685	186.558	58.634	213.773	126.140	121.324	242.398	150.239	-31.444	-17.444	-56.690	-12.585	228.759	239.395	-49.159	253.187	0.00016281	0.0011825	0.0003807	921.38	1.3876e-05	2.3398e-05	778.89	314.08	9.5323e-06	1.2675e-05	306.15	112.71	109.94	52.236	1.7953e-05	57.474	0.012813	0.017161	0.0051728	1196.3	0.00018482	0.00020803	1066.9	418.4	0.00019968	0.00022473	464.99	164.19	157.48	71.185	0.00024727	80.991	224.658	168.758	4.859	-69.634	-46.604	214.335	-70.059	-63.372	104.721	195.743	-65.602	-60.138	-58.176	-53.373	82.375	-56.119	-8191	255	
9940.078	1	1	0	0	0.11023	0.13857	0.080957	0.021809	0.18424	0.1637	0.089892	0.18068	0.20484	0.06452	0.28011	0.30072	0.42628	0.26585	0.016768	0.16475	-2.9813	-2.4938	-2.7854	-3.1729	-2.3583	-3.2438	-2.8021	-2.5812	-3.2542	-2.4521	-3.05	-3.2708	-2.4396	-3.4417	-2.8271	-2.3333	244.767	178.915	-26.556	-52.355	126.970	174.329	-41.665	210.518	-35.622	237.988	-37.259	182.518	200.826	-74.076	-9.308	169.865	0.00018316	0.00015567	0.00039782	934.46	5.4854e-06	1.179e-05	787.01	318.27	3.4367e-06	1.5268e-05	309.42	113.56	111.74	53.924	9.851e-06	59.268	0.016801	0.023468	0.0066203	1273.1	0.00023578	0.00027043	1126.6	438.67	0.00023828	0.00026642	480.03	168.9	161.97	73.366	0.00023374	81.187	242.608	213.694	-0.330	-69.331	184.926	158.280	-70.072	-63.498	150.937	238.320	-65.332	-60.443	-58.228	-53.429	55.773	-56.698	-8191	255	
9940.198	1	1	0	0	0.25264	0.14382	0.072231	0.14929	0.29535	0.12216	0.30076	0.019898	0.087398	0.15298	0.15677	0.29228	0.29324	0.18514	0.093016	0.1554	-2.8021	-2.3125	-2.6979	-3.3688	-2.3667	-3.1729	-2.9854	-2.5625	-3.1896	-2.6125	-2.8708	-3.3375	-2.7188	-3.1646	-3.0479	-2.6437	17.246	63.526	254.914	-65.018	243.049	-23.621	166.689	268.272	83.533	106.032	255.874	205.456	149.874	202.208	247.423	155.562	0.00033786	0.00031695	0.00035417	918.02	8.768e-06	1.381e-05	776.08	315.76	3.2822e-07	1.8355e-05	306.7	114.56	110.94	54.486	1.3949e-05	59.912	0.015662	0.021371	0.0056197	1211.8	0.00020195	0.00022356	1048.6	413.45	0.00019488	0.00021272	443.49	159.65	154.54	71.01	0.00018789	78.734	230.866	124.354	-31.892	-69.279	254.524	184.523	-69.926	-63.194	199.588	50.821	-65.485	-60.087	-58.115	-53.528	60.606	-56.740	-8191	255	
9940.294	1	1	0	0	0.15006	0.1778	0.099454	0.13401	0.18452	0.28876	0.1186	0.078175	0.24701	0.18573	0.27943	0.13906	0.17745	0.14943	0.17673	0.016952	-2.7542	-2.7479	-2.6354	-3.2917	-2.5458	-3.0708	-3.0542	-2.5104	-3.0396	-2.8354	-2.8229	-3.1875	-2.625	-3.2687	-2.9917	-2.2771	210.420	-40.540	139.909	270.546	-30.712	112.486	-23.069	141.346	31.202	234.831	-70.711	238.441	-74.901	-22.258	195.753	224.878	0.00034589	0.0012897	0.00033478	911.17	1.3132e-05	1.2055e-05	771.22	313.3	7.9765e-06	9.1388e-06	307.56	114.55	111.56	54.746	3.2458e-06	60.211	0.013604	0.017887	0.0046728	1163.7	0.00018155	0.00019355	1013.4	403.3	0.00018337	0.0001917	432.83	157.25	153.87	70.252	0.0001768	78.295	210.666	-12.391	-36.687	-69.246	-70.013	37.686	-70.025	-63.570	259.883	78.188	-65.640	-60.115	-58.247	-53.679	186.352	-56.548	-8191	255	
9940.366	1	1	0	0	0.075795	0.2514	0.24627	0.29786	0.15891	0.20474	0.33255	0.21385	0.10636	0.057444	0.11776	0.20634	0.09252	0.10495	0.11069	0.2208	-2.975	-2.7188	-2.4479	-3.3625	-2.5667	-3.1042	-3.2896	-2.3396	-3.2583	-3.0125	-2.375	-3.2208	-2.5062	-2.8812	-3.1813	-2.4875	-72.850	37.960	165.807	171.604	239.800	12.131	160.185	233.423	132.286	11.775	105.313	258.440	227.529	237.978	8.962	155.757	0.00032208	0.0021121	0.0004493	907.8	1.2331e-05	1.8922e-06	774.74	312.06	5.8716e-06	3.2626e-05	308.69	114.96	111.49	54.604	2.4234e-06	60.439	0.013423	0.016894	0.004464	1159.7	0.00018275	0.0001857	1011.5	403.59	0.00018671	0.00018717	432.75	158.8	155.3	70.296	0.0001791	79.491	218.326	-28.765	-78.474	-69.419	231.143	-50.571	-69.948	-63.323	116.057	55.078	-65.375	-60.301	-58.170	-53.411	248.392	-56.763	-8191	255	
9940.462	1	1	0	0	0.27158	0.22782	0.1456	0.35976	0.076528	0.11424	0.19777	0.15349	0.17075	0.2615	0.29906	0.17679	0.059993	0.25669	0.16207	0.22916	-2.8917	-2.9542	-2.3667	-3.5771	-2.7167	-2.7021	-3.3146	-2.6021	-3.1688	-2.8625	-2.4479	-3.5312	-2.7125	-2.7042	-3.2313	-2.4083	-55.791	52.681	167.463	227.428	-31.888	277.273	-24.570	111.867	-8.603	-55.012	168.623	242.667	28.796	-11.374	-1.536	219.959	0.00024749	0.0012459	0.00022107	908.49	1.8544e-05	4.2405e-06	774.19	315.6	1.0184e-05	4.2768e-06	308.63	115.31	111.85	54.622	2.1888e-06	60.148	0.014192	0.017385	0.0046461	1182	0.00019591	0.00019295	1022.3	412.26	0.00019913	0.00019527	438.13	162.31	157.02	70.587	0.0001839	80.667	201.232	-15.255	13.283	-69.138	48.312	41.183	-69.918	-63.354	117.419	-3.496	-65.786	-59.815	-58.048	-53.344	56.638	-56.673	-8191	255	
9940.583	1	1	0	0	0.119	0.15465	0.12184	0.22287	0.23874	0.15628	0.2209	0.35337	0.11063	0.10717	0.051452	0.21704	0.22029	0.06807	0.15463	0.18398	-2.5938	-3.0208	-2.3042	-3.325	-2.7708	-2.6896	-3.3792	-2.5667	-3.05	-3.0479	-2.4688	-3.4729	-2.7687	-2.6375	-3.2625	-2.7208	13.248	155.485	-74.588	253.048	103.620	-65.859	-69.007	219.630	61.285	258.486	85.605	-40.990	196.408	154.759	-11.298	261.073	0.00017177	0.00057611	0.0005674	905.36	1.1655e-05	1.9786e-05	766.3	311.62	3.7053e-06	1.0172e-05	303.61	113.97	111.33	54.415	1.0603e-05	59.631	0.01447	0.017515	0.0047156	1194	0.00019599	0.00019156	1020.8	413.33	0.00019324	0.00019107	436.44	162.75	155.94	70.373	0.00018585	80.92	231.288	-51.636	96.928	-69.228	70.683	88.232	-69.837	-63.546	126.116	-27.514	-65.474	-60.102	-58.240	-53.579	219.407	-56.572	-8191	255	
9940.679	1	1	0	0	0.12304	0.24263	0.01504	0.069557	0.090502	0.15529	0.20358	0.21108	0.11511	0.13262	0.33209	0.023777	0.18902	0.35843	0.19452	0.26866	-2.6833	-3.0292	-2.375	-3.5958	-2.7333	-2.3375	-3.5333	-2.6042	-2.8271	-3.2333	-2.3563	-3.2708	-3.0854	-2.4833	-3.1688	-2.6854	228.978	-18.999	-30.843	202.817	-29.851	153.675	181.682	243.460	49.102	154.663	207.804	88.678	194.318	174.534	115.036	-79.381	0.00015812	0.0015359	0.00012121	906.48	8.4292e-06	9.6828e-06	766.8	311.63	1.3282e-05	9.5192e-06	302.06	113.73	111.12	54.373	1.3288e-05	59.324	0.014194	0.017384	0.0048239	1200.4	0.00019451	0.00019346	1032.3	420.24	0.000204	0.000208	453.51	170.04	163.07	72.94	0.00024326	86.215	249.826	-11.234	97.419	-69.108	59.487	-76.817	-69.791	-63.442	65.593	-34.452	-65.630	-60.250	-58.344	-53.551	184.596	-56.739	-8191	255	
9940.775	1	1	0	0	0.18914	0.23789	0.10132	0.33989	0.18873	0.06467	0.1418	0.22681	0.26125	0.28607	0.097411	0.09365	0.12792	0.17509	0.033007	0.021099	-2.6833	-3.2667	-2.3625	-3.0312	-2.9938	-2.4229	-3.3563	-2.8625	-2.7917	-3.2604	-2.5375	-3.0896	-3.1167	-2.475	-3.1312	-2.9083	227.312	-72.486	-5.054	228.281	249.267	15.433	253.216	232.549	-76.820	7.128	-27.588	226.381	78.956	244.620	0.189	220.502	9.1766e-05	0.0008642	0.00044148	903.36	2.2171e-05	1.7274e-05	762.53	309.92	2.2114e-06	7.9787e-06	300.61	114.56	112.07	54.506	9.3456e-06	59.391	0.01882	0.024076	0.0072146	1332.3	0.00029596	0.00030346	1191.1	479.12	0.00033244	0.00034021	545.16	198.87	186.55	80.243	0.00035867	94.017	211.768	220.836	118.909	-69.383	21.503	104.577	-70.277	-63.739	219.886	6.469	-65.825	-60.220	-58.363	-53.799	-80.005	-56.916	-8191	255	
9940.871	1	1	0	0	0.14418	0.14027	0.08865	0.13417	0.12351	0.2465	0.04787	0.26167	0.074944	0.35122	0.27359	0.28827	0.11344	0.35105	0.16971	0.16509	-2.3125	-3.1542	-2.5062	-3.2229	-2.9	-2.3521	-3.4437	-2.8729	-2.5125	-3.2729	-2.3896	-2.9333	-3.4729	-2.5125	-2.9958	-2.8729	153.343	-24.012	175.401	231.900	228.498	54.003	215.021	277.135	177.624	17.464	211.054	199.217	-70.604	-61.561	273.089	-39.750	5.924e-05	0.0008647	0.00084312	904.78	5.3555e-06	5.3042e-06	759.21	306.21	1.461e-05	9.0102e-06	298.37	111.5	109.06	52.864	1.426e-05	57.616	0.023773	0.029227	0.0086889	1355.6	0.00030321	0.00029993	1174.4	457.03	0.0002838	0.00028928	510.37	181.42	171.04	74.891	0.00030263	86.361	137.476	26.953	147.767	-69.148	148.269	136.271	-70.029	-63.542	104.738	85.645	-65.670	-60.401	-58.260	-53.532	135.313	-56.535	-8191	255	
9940.990	1	1	0	0	0.13859	0.099947	0.070866	0.12177	0.26297	0.069692	0.14701	0.092543	0.13974	0.075513	0.18974	0.22422	0.10709	0.14712	0.067835	0.11572	-2.1604	-3.35	-2.3854	-2.8792	-3.0896	-2.2792	-3.1708	-2.8771	-2.3958	-3.6083	-2.6354	-2.8104	-3.3333	-2.6792	-3.2771	-3.0187	48.786	140.360	-60.216	218.345	195.138	130.706	-53.215	61.365	222.111	165.953	-64.146	253.145	135.529	100.759	275.028	150.767	0.00013508	0.0013007	0.00019963	900.17	9.3398e-06	2.7111e-05	760.5	308.5	2.0579e-06	1.2702e-05	301.36	112.15	109.89	53.451	3.3628e-06	58.32	0.019393	0.024794	0.0074521	1279.6	0.00025327	0.00025958	1116.2	431.78	0.00023047	0.00024355	474	167.45	159.71	72.271	0.00024252	81.434	133.610	150.681	78.220	-69.390	14.713	209.680	-69.686	-63.274	60.658	252.357	-65.330	-59.836	-57.951	-53.412	216.747	-56.295	-8191	255	
9941.062	1	1	0	0	0.23923	0.17051	0.22539	0.28423	0.14718	0.094147	0.1197	0.16996	0.063013	0.12404	0.31598	0.22053	0.091994	0.12879	0.20414	0.20568	-1.9875	-3.1813	-2.5417	-3.0625	-3.2604	-2.325	-3.0896	-3.1813	-2.6396	-3.1312	-2.7375	-2.7812	-3.4271	-2.5625	-2.9562	-3.1208	157.252	247.517	27.520	209.836	231.937	175.257	-10.276	174.499	188.411	124.879	257.741	32.659	224.149	216.006	41.755	272.273	0.00013105	0.0005437	0.00023193	904.76	7.1038e-06	2.2115e-05	762.89	311.07	1.0128e-05	7.3094e-06	301.15	112.5	109.88	52.903	1.9865e-05	57.542	0.015576	0.02113	0.0061557	1226.9	0.00021528	0.00023728	1081.2	424.15	0.00021681	0.00024277	468.32	165.62	159.13	72.26	0.00023992	80.941	-18.978	37.098	33.764	-69.160	136.375	188.063	-69.606	-63.255	239.459	238.235	-65.059	-59.893	-58.227	-53.291	49.424	-56.235	-8191	255	
9941.160	1	1	0	0	0.13944	0.092402	0.044481	0.22886	0.15228	0.19334	0.29868	0.19251	0.038399	0.019818	0.21042	0.024898	0.092787	0.12616	0.38794	0.24574	-2.1021	-3.2271	-2.7833	-2.7771	-3.3729	-2.5208	-2.9604	-3.1688	-2.5729	-3.1583	-2.95	-2.525	-3.3521	-2.5771	-2.7458	-3.3271	246.987	275.985	-35.130	-70.440	35.023	164.236	157.802	186.299	4.134	-63.666	188.697	54.357	206.397	-31.033	153.763	150.545	0.00019917	0.00091291	0.00016841	905.15	9.319e-06	1.8423e-05	761.89	309.89	3.2912e-06	8.074e-06	299.49	111.49	108.5	52.691	1.4228e-05	57.547	0.016046	0.022471	0.0062155	1229.2	0.00022255	0.0002507	1081.6	425.2	0.00022541	0.00025707	469.94	166.18	161.15	73.2	0.00024536	81.578	226.854	134.650	45.795	-69.055	-54.144	158.068	-69.707	-63.079	95.777	129.502	-65.625	-60.275	-58.045	-53.376	47.735	-56.324	-8191	255	
9941.279	1	1	0	0	0.13754	0.28027	0.10734	0.030659	0.10416	0.34006	0.14609	0.21875	0.20153	0.3643	0.12279	0.040293	0.486	0.222	0.15739	0.11871	-2.0354	-3.1021	-2.8292	-2.5771	-3	-2.5667	-2.8354	-3.3896	-2.4417	-2.925	-2.9979	-2.4646	-3.3104	-2.8896	-2.4771	-3.4562	60.677	205.207	217.473	204.101	267.510	19.665	3.488	258.520	79.172	137.403	65.559	267.719	249.875	186.042	109.188	186.965	0.00018056	0.0018454	0.00057492	904.52	2.1994e-06	1.815e-05	762.54	309.37	1.8473e-05	1.3606e-05	299.93	111.12	109.23	52.884	1.2482e-05	57.002	0.017178	0.023983	0.0063814	1241.1	0.00024255	0.00026961	1096	432.42	0.00025132	0.00027806	477.78	169.34	167.1	74.61	0.00026515	83.039	230.503	276.940	-25.041	-69.276	223.237	91.724	-69.880	-63.338	251.838	48.562	-65.703	-60.091	-58.014	-53.567	52.218	-56.559	-8191	255	
9941.375	1	1	0	0	0.15294	0.12314	0.040105	0.20557	0.096045	0.12472	0.17002	0.36898	0.33324	0.12071	0.21679	0.18663	0.13161	0.10448	0.10046	0.12981	-2.0417	-2.8875	-3.0021	-2.2562	-3.3292	-2.8604	-2.6292	-3.1958	-2.5187	-2.9771	-3.1542	-2.3083	-3.2229	-2.9021	-2.6354	-3.4833	8.805	93.642	264.537	242.461	212.862	165.540	225.685	241.170	-50.554	142.329	240.979	256.038	-17.995	268.464	97.065	254.201	0.00027999	0.0010649	0.00050674	902.81	2.3649e-05	4.4999e-06	762.58	308.45	1.1182e-05	1.5802e-05	298	109.48	108.17	52.334	1.1479e-05	56.22	0.019985	0.026794	0.0071506	1280.8	0.00028697	0.00030191	1122.9	442.14	0.00029079	0.00030489	491.95	173.46	173.19	75.292	0.00028494	84.287	200.591	52.017	-0.254	-69.617	213.510	89.018	-70.165	-63.663	232.119	62.346	-65.941	-60.567	-58.341	-53.847	176.817	-56.830	-8191	255	
9941.471	1	1	0	0	0.12503	0.13988	0.14499	0.29884	0.23904	0.31808	0.20905	0.21281	0.25807	0.059451	0.22472	0.24651	0.090659	0.1358	0.079045	0.080059	-2.0312	-2.9146	-3.1271	-2.3708	-3.2167	-2.8896	-2.5833	-3.3875	-2.3854	-2.9375	-3.2854	-2.3667	-3.1771	-2.8479	-2.4646	-3.4313	111.541	4.003	245.048	269.777	251.285	34.894	221.080	231.191	39.648	-0.879	-2.630	264.450	4.345	149.654	-54.117	215.670	0.00031169	0.0033404	0.00025157	901.58	1.0974e-05	2.7485e-05	754.87	306.02	1.2493e-05	1.2812e-05	296.91	108.72	107.66	52.35	7.1874e-06	56.344	0.022199	0.028059	0.0075063	1298.7	0.00031019	0.00031091	1130.4	447.49	0.0003109	0.00030809	494.06	176.51	175.77	75.525	0.00029143	85.677	211.233	-56.500	-70.960	-69.486	230.557	55.012	-70.105	-63.703	139.996	68.528	-65.788	-60.319	-58.079	-53.682	136.128	-56.648	-8191	255	
9941.592	1	1	0	0	0.14627	0.24351	0.17084	0.21169	0.17974	0.18959	0.046582	0.22322	0.19399	0.1236	0.11428	0.23379	0.31196	0.16011	0.22453	0.14422	-2.3812	-2.6479	-2.9813	-2.4667	-3.0792	-2.9062	-2.5312	-3.3875	-2.4625	-2.8563	-3.2583	-2.3604	-2.7812	-3.2438	-2.3458	-3.5563	68.048	177.546	139.004	251.748	240.241	246.127	-21.574	-76.036	-72.538	-3.728	-35.743	235.730	253.637	-64.234	-72.424	255.774	0.0001015	0.0016142	0.00059203	901.46	4.9327e-06	1.3755e-05	753.05	305.62	1.7691e-05	1.2678e-05	294.72	108.39	107.69	52.02	1.3539e-05	55.988	0.023014	0.027944	0.007538	1311.5	0.00031068	0.00030234	1119.8	450.22	0.00030498	0.00029574	486.74	176.57	172.6	74.201	0.00027736	85.353	-60.479	-49.643	-79.502	-69.455	180.219	76.717	-69.908	-63.548	165.745	45.730	-65.627	-59.964	-58.039	-53.572	93.087	-56.505	-8191	255	
9941.663	1	1	0	0	0.11016	0.10788	0.34386	0.16658	0.10838	0.081017	0.24471	0.15246	0.09463	0.12285	0.087154	0.03211	0.25099	0.19234	0.20936	0.08497	-2.2479	-2.4875	-3.2146	-2.7229	-2.8812	-3.0604	-2.3917	-3.4458	-2.8979	-2.5625	-3.3021	-2.5521	-2.9958	-3.4667	-2.2375	-3.2896	-13.673	93.112	153.889	222.026	-47.107	149.487	237.584	-51.386	125.848	62.812	-39.075	32.801	-6.935	253.411	28.992	-36.641	0.00013616	0.00020737	0.00014375	896	1.9889e-05	1.4365e-05	754.23	305.49	5.9764e-06	1.4855e-05	297.74	108.72	108.05	52.057	1.863e-05	56.206	0.021809	0.026317	0.0072111	1309.5	0.00029546	0.00029228	1113.9	452.49	0.00029569	0.0002905	489.4	179.18	172.39	74.232	0.00028527	86.383	208.895	27.191	256.363	-69.254	12.985	94.340	-70.008	-63.508	39.918	-7.945	-65.469	-59.901	-58.211	-53.784	183.063	-56.574	-8191	255	
9941.759	1	1	0	0	0.12113	0.040473	0.19254	0.14734	0.12481	0.097467	0.25698	0.15172	0.16545	0.26682	0.19987	0.056469	0.27349	0.021825	0.04896	0.26464	-2.5104	-2.3812	-3.1354	-2.5625	-3.0438	-3.2938	-2.2708	-3.3896	-2.9042	-2.3312	-3.3979	-2.7021	-2.9688	-3.5083	-2.3125	-3.1875	4.885	-4.644	226.534	234.561	-25.512	71.697	242.287	243.589	212.535	32.911	230.285	87.489	79.421	223.718	-30.221	239.113	0.00017339	0.00048482	4.6064e-05	900.57	1.044e-05	1.513e-05	751.39	307.66	1.0059e-05	2.3736e-05	294.26	108.96	108.57	51.929	1.2866e-05	56.012	0.021509	0.026145	0.0073479	1318.8	0.00028635	0.00028529	1117.4	453.9	0.00028669	0.00028457	492.1	179.6	170.99	74.073	0.00029699	86.639	195.123	-67.553	212.337	-69.333	-39.515	126.586	-70.071	-63.361	28.115	100.923	-65.532	-60.390	-58.248	-53.779	202.054	-56.699	-8191	255	
9941.880	1	1	0	0	0.17161	0.1463	0.17523	0.1424	0.23819	0.15373	0.05469	0.17849	0.26029	0.062295	0.22359	0.12612	0.18617	0.17995	0.14513	0.1702	-2.5167	-2.3208	-3.125	-2.6083	-2.6937	-3.3292	-2.5438	-2.9854	-2.9562	-2.2708	-3.2417	-2.6896	-2.7083	-3.1521	-2.4458	-3.0625	218.270	-17.546	27.164	218.927	22.573	-16.343	-41.610	245.450	203.692	-5.827	134.054	259.846	212.593	240.020	-62.093	1.747	9.1443e-05	0.0006243	0.0003273	898.19	1.3276e-05	1.9941e-05	747.14	308.27	7.8189e-06	1.3907e-05	292.78	108.71	108.53	51.777	1.844e-05	55.98	0.021554	0.026837	0.0080479	1349.4	0.00030764	0.00031275	1168.6	468.88	0.00032071	0.00032266	524.82	187.52	178.24	76.696	0.00035614	90.17	-10.952	-48.445	85.366	-69.226	48.934	69.431	-70.220	-63.536	69.075	44.489	-65.388	-60.357	-58.206	-53.452	226.531	-56.558	-8191	255	
9941.974	1	1	0	0	0.12075	0.13824	0.1573	0.15716	0.46175	0.19929	0.1712	0.075294	0.12693	0.22342	0.10188	0.28567	0.14423	0.039337	0.22405	0.2114	-2.9042	-2.4021	-2.9313	-2.8271	-2.6063	-3.2979	-2.6667	-2.9562	-3.0604	-2.5146	-3.1437	-2.9708	-2.5771	-3.5625	-2.4771	-2.9229	57.235	180.545	-10.954	212.159	148.045	211.102	44.509	31.866	-41.112	228.530	91.382	210.531	-30.099	53.399	-15.782	222.881	0.00026536	0.0016092	0.00050276	898.92	2.8526e-05	1.7058e-05	748.09	308.55	1.3218e-05	1.1002e-05	292.79	108.97	108.77	51.857	2.6043e-05	55.705	0.024884	0.031369	0.0096832	1401.4	0.00034961	0.0003613	1240.3	485.45	0.0003576	0.00036479	555.45	193.04	183.01	78.79	0.00038924	90.799	211.630	14.526	176.745	-69.280	-42.982	223.975	-69.629	-63.165	100.891	134.191	-65.156	-59.780	-58.001	-53.242	130.341	-56.424	-8191	255	
9942.071	1	1	0	0	0.14769	0.093998	0.11061	0.22557	0.044483	0.16975	0.28607	0.17704	0.30941	0.078615	0.12628	0.20511	0.23258	0.023637	0.19999	0.090408	-2.9417	-2.4729	-3.1667	-3.0625	-2.4833	-3.3667	-2.6667	-2.7771	-3.4375	-2.475	-3.2771	-3.0542	-2.575	-3.4375	-2.6312	-2.7083	-9.650	102.710	-44.526	-48.025	97.443	61.111	245.598	250.106	16.560	168.106	264.664	235.548	5.330	-70.526	209.179	-46.715	0.00013438	0.0015385	0.00029144	899.24	8.6748e-06	3.8137e-05	749.13	307.09	2.0433e-05	9.2169e-06	295.09	108.37	107.49	51.604	1.0057e-05	55.71	0.025449	0.032509	0.0097814	1374.2	0.00032721	0.00034671	1201.8	463.32	0.00031488	0.00033257	522.93	180.93	172.36	76.146	0.00033722	86.007	233.762	101.533	58.201	-68.963	1.699	225.997	-69.866	-63.095	125.203	161.548	-65.339	-60.288	-57.978	-53.300	70.965	-56.439	-8191	255	
9942.167	1	1	0	0	0.066715	0.25172	0.13162	0.050305	0.12641	0.35003	0.11467	0.22259	0.18101	0.05952	0.10454	0.24275	0.042241	0.17992	0.17166	0.20681	-2.9562	-2.3479	-2.9708	-3.2229	-2.2896	-3.1396	-2.6375	-2.7354	-3.1396	-2.2646	-3.0646	-3.2062	-2.4313	-3.3417	-2.8479	-2.8583	226.997	130.802	32.840	199.784	-29.852	269.037	91.780	197.646	262.998	-63.312	266.736	202.712	-47.502	263.928	181.553	-43.896	0.00035755	0.0014148	0.00071159	895.27	7.7289e-06	7.9945e-06	746.44	305.58	7.167e-06	1.7876e-05	293.53	107.78	107.5	51.599	1.7818e-05	54.999	0.022018	0.02985	0.0086487	1324.5	0.00029921	0.00033618	1170	454.09	0.00030204	0.00033638	514.74	179.08	172.16	76.809	0.00032819	84.946	218.513	184.236	261.113	-69.149	5.182	176.826	-69.858	-62.836	160.889	198.449	-65.291	-60.167	-57.601	-53.147	102.230	-56.330	-8191	255	
9942.240	1	1	0	0	0.43403	0.25239	0.2414	0.22924	0.17656	0.023606	0.27079	0.3221	0.089812	0.17212	0.23753	0.48347	0.1466	0.24533	0.19157	0.062421	-2.9021	-2.2854	-2.8688	-3.1917	-2.3479	-3.1625	-3.0687	-2.5667	-3.1688	-2.3396	-2.8917	-3.3875	-2.4958	-3.2	-2.8875	-2.5229	-63.294	67.416	61.838	-52.988	3.205	239.542	175.167	245.523	216.838	-9.051	166.762	265.334	136.109	-58.283	156.538	182.136	0.00036522	0.0013719	0.00018033	892.2	6.8736e-06	5.4014e-06	742.84	304.8	2.0236e-05	1.2418e-05	290.21	108.08	107.62	51.73	2.1207e-05	55.116	0.021883	0.030242	0.0082245	1305.3	0.00029077	0.00033017	1140	444.72	0.00028944	0.00032351	496.47	174.57	169.92	75.836	0.00030584	83.502	219.901	63.172	-22.933	-69.081	265.686	124.038	-69.637	-63.044	248.935	48.783	-65.371	-60.011	-57.986	-52.938	30.049	-56.428	-8191	255	
9942.359	1	1	0	0	0.24014	0.2416	0.11258	0.20071	0.15929	0.17013	0.21722	0.23684	0.12542	0.19511	0.035899	0.14725	0.27612	0.16141	0.15608	0.079175	-3.0021	-2.4271	-2.6125	-3.2938	-2.5229	-3.1562	-3.0125	-2.55	-3.3563	-2.6604	-2.6229	-3.3042	-2.6896	-3.2646	-2.9688	-2.6417	168.464	272.977	147.922	179.260	272.409	196.559	179.211	222.385	213.669	127.269	273.579	99.824	264.222	137.210	-3.086	194.998	0.00054486	0.0025545	0.00036647	891.23	8.3966e-06	1.5702e-05	743.26	302.7	2.3186e-05	2.3793e-05	291.45	107.18	107.04	51.656	1.5836e-05	55.247	0.02172	0.029743	0.0078627	1294.9	0.00029781	0.00032658	1128.4	441.68	0.00029802	0.00031944	490	172.34	170.58	74.854	0.00028637	82.281	215.363	-28.254	8.487	-69.071	258.446	21.531	-69.935	-63.208	231.003	13.744	-65.257	-60.153	-57.832	-53.364	146.578	-56.104	-8191	255	
#DATA ENDS
