BOXY.EXE: ISS Imagent and Oximeter Data Acquisition Program Version 0.80
Ascii Record File

#ACQ INFORMATION
2  Detector Channels 
16  External MUX Channels 
1  Auxiliary Channels 
5000  Waveform (CCF) Frequency (Hz)
1  Waveforms Skipped 
30  Waveforms Averaged 
1  Cycles Averaged 
16  Acquisitions per Waveform 
10.0806  Updata Rate (Hz) 

#FILE INFORMATION
TRUE -- External MUX Channel results are PARSED.
FALSE -- AC DC and Phase are NOT grouped.
TRUE -- Companion Program Settings File CREATED.
FALSE -- AC data not excluded
FALSE -- DC data not excluded
FALSE -- Phase data not excluded
FALSE -- Auxillary Chn. data not excluded
Tab delimiters

#CALIBRATION STATE
TRUE -- Waveform Calibration Values APPLIED.


#AUX CALIBRATION VALUES
Val Type	aux-1	

Term	1.0000e+00	
Factor	0.0000e+00	


#WF CALIBRATION VALUES
A = Detector Channel
Val Type	A-AC1	A-AC2	A-AC3	A-AC4	A-AC5	A-AC6	A-AC7	A-AC8	A-AC9	A-AC10	A-AC11	A-AC12	A-AC13	A-AC14	A-AC15	A-AC16	A-DC1	A-DC2	A-DC3	A-DC4	A-DC5	A-DC6	A-DC7	A-DC8	A-DC9	A-DC10	A-DC11	A-DC12	A-DC13	A-DC14	A-DC15	A-DC16	A-Ph1	A-Ph2	A-Ph3	A-Ph4	A-Ph5	A-Ph6	A-Ph7	A-Ph8	A-Ph9	A-Ph10	A-Ph11	A-Ph12	A-Ph13	A-Ph14	A-Ph15	A-Ph16	

Term	0.00000e+00	0.00000e+00	0.00000e+00	0.00000e+00	0.00000e+00	0.00000e+00	0.00000e+00	0.00000e+00	0.00000e+00	0.00000e+00	0.00000e+00	0.00000e+00	0.00000e+00	0.00000e+00	0.00000e+00	0.00000e+00	0.00000e+00	0.00000e+00	0.00000e+00	0.00000e+00	0.00000e+00	0.00000e+00	0.00000e+00	0.00000e+00	0.00000e+00	0.00000e+00	0.00000e+00	0.00000e+00	0.00000e+00	0.00000e+00	0.00000e+00	0.00000e+00	0.00000e+00	0.00000e+00	0.00000e+00	0.00000e+00	0.00000e+00	0.00000e+00	0.00000e+00	0.00000e+00	0.00000e+00	0.00000e+00	0.00000e+00	0.00000e+00	0.00000e+00	0.00000e+00	0.00000e+00	0.00000e+00	
Factor	1.00000e+00	1.00000e+00	1.00000e+00	1.00000e+00	1.00000e+00	1.00000e+00	1.00000e+00	1.00000e+00	1.00000e+00	1.00000e+00	1.00000e+00	1.00000e+00	1.00000e+00	1.00000e+00	1.00000e+00	1.00000e+00	1.00000e+00	1.00000e+00	1.00000e+00	1.00000e+00	1.00000e+00	1.00000e+00	1.00000e+00	1.00000e+00	1.00000e+00	1.00000e+00	1.00000e+00	1.00000e+00	1.00000e+00	1.00000e+00	1.00000e+00	1.00000e+00	X	X	X	X	X	X	X	X	X	X	X	X	X	X	X	X	

B = Detector Channel
Val Type	B-AC1	B-AC2	B-AC3	B-AC4	B-AC5	B-AC6	B-AC7	B-AC8	B-AC9	B-AC10	B-AC11	B-AC12	B-AC13	B-AC14	B-AC15	B-AC16	B-DC1	B-DC2	B-DC3	B-DC4	B-DC5	B-DC6	B-DC7	B-DC8	B-DC9	B-DC10	B-DC11	B-DC12	B-DC13	B-DC14	B-DC15	B-DC16	B-Ph1	B-Ph2	B-Ph3	B-Ph4	B-Ph5	B-Ph6	B-Ph7	B-Ph8	B-Ph9	B-Ph10	B-Ph11	B-Ph12	B-Ph13	B-Ph14	B-Ph15	B-Ph16	

Term	0.00000e+00	0.00000e+00	0.00000e+00	0.00000e+00	0.00000e+00	0.00000e+00	0.00000e+00	0.00000e+00	0.00000e+00	0.00000e+00	0.00000e+00	0.00000e+00	0.00000e+00	0.00000e+00	0.00000e+00	0.00000e+00	0.00000e+00	0.00000e+00	0.00000e+00	0.00000e+00	0.00000e+00	0.00000e+00	0.00000e+00	0.00000e+00	0.00000e+00	0.00000e+00	0.00000e+00	0.00000e+00	0.00000e+00	0.00000e+00	0.00000e+00	0.00000e+00	-7.31775e+01	-1.39643e+02	-1.29191e+02	-1.81468e+02	-5.28782e+01	-5.94017e+01	-1.58511e+02	-1.62015e+02	-4.34400e+01	-6.62646e+01	-1.70593e+02	-1.70390e+02	-1.81289e+02	-1.76543e+02	-5.19673e+01	-1.49467e+02	
Factor	1.51461e-05	1.38994e-04	3.70494e-05	1.65114e-01	1.30890e-06	1.55113e-06	1.66376e-01	5.64345e-02	1.01830e-06	1.34470e-06	8.78816e-02	2.83681e-02	2.52299e-02	8.59329e-03	1.27316e-06	1.18647e-02	5.15675e-06	6.63635e-06	1.85623e-06	8.53049e-02	7.07640e-08	7.33048e-08	8.10045e-02	2.92832e-02	7.07680e-08	7.32667e-08	4.41605e-02	1.43478e-02	1.32282e-02	4.49219e-03	7.21484e-08	6.00703e-03	X	X	X	X	X	X	X	X	X	X	X	X	X	X	X	X	



#DISTANCE SETTINGS
A = Detector Channel
A-1	A-2	A-3	A-4	A-5	A-6	A-7	A-8	A-9	A-10	A-11	A-12	A-13	A-14	A-15	A-16	

2.5000e+00	3.0000e+00	2.5000e+00	3.0000e+00	2.0000e+00	3.0000e+00	1.5000e+00	3.0000e+00	3.0000e+00	3.0000e+00	3.0000e+00	3.0000e+00	3.0000e+00	3.0000e+00	1.5000e+00	3.0000e+00	

B = Detector Channel
B-1	B-2	B-3	B-4	B-5	B-6	B-7	B-8	B-9	B-10	B-11	B-12	B-13	B-14	B-15	B-16	

1.0000e+01	1.0000e+01	1.0000e+01	1.4400e+00	1.0000e+01	1.0000e+01	1.5100e+00	1.9400e+00	1.0000e+01	1.0000e+01	1.9900e+00	2.4900e+00	2.4100e+00	2.9000e+00	1.0000e+01	2.9800e+00	




#DATA BEGINS
time	group	step	mark	flag	A-AC1	A-AC2	A-AC3	A-AC4	A-AC5	A-AC6	A-AC7	A-AC8	A-AC9	A-AC10	A-AC11	A-AC12	A-AC13	A-AC14	A-AC15	A-AC16	A-DC1	A-DC2	A-DC3	A-DC4	A-DC5	A-DC6	A-DC7	A-DC8	A-DC9	A-DC10	A-DC11	A-DC12	A-DC13	A-DC14	A-DC15	A-DC16	A-Ph1	A-Ph2	A-Ph3	A-Ph4	A-Ph5	A-Ph6	A-Ph7	A-Ph8	A-Ph9	A-Ph10	A-Ph11	A-Ph12	A-Ph13	A-Ph14	A-Ph15	A-Ph16	B-AC1	B-AC2	B-AC3	B-AC4	B-AC5	B-AC6	B-AC7	B-AC8	B-AC9	B-AC10	B-AC11	B-AC12	B-AC13	B-AC14	B-AC15	B-AC16	B-DC1	B-DC2	B-DC3	B-DC4	B-DC5	B-DC6	B-DC7	B-DC8	B-DC9	B-DC10	B-DC11	B-DC12	B-DC13	B-DC14	B-DC15	B-DC16	B-Ph1	B-Ph2	B-Ph3	B-Ph4	B-Ph5	B-Ph6	B-Ph7	B-Ph8	B-Ph9	B-Ph10	B-Ph11	B-Ph12	B-Ph13	B-Ph14	B-Ph15	B-Ph16	aux-1	digaux	

9896.216	1	1	0	256	0.25315	0.16784	0.078918	0.065635	0.09742	0.12017	0.2649	0.37776	0.25871	0.278	0.051144	0.18755	0.052181	0.14469	0.13287	0.17598	-2.15	-3.1104	-2.4979	-2.7438	-3.375	-2.3604	-3.0187	-3.1771	-2.1562	-3.2062	-2.6667	-2.7625	-3.225	-2.5271	-2.8208	-3.2125	-80.184	165.756	14.821	250.810	266.522	117.170	-72.383	-78.170	270.380	207.507	-75.502	242.760	236.262	251.927	-28.832	201.860	0.0001691	0.0009854	0.00047293	1017.4	3.695e-06	7.9415e-06	873.67	379.98	4.8614e-06	1.2241e-05	382.85	142.82	134.5	52.701	1.3917e-05	62.182	0.0077471	0.010547	0.0030292	1202.3	0.00010768	0.00011917	1054.5	449.01	0.000109	0.00012263	477.3	175.27	164.86	64.27	0.00012181	76.248	238.604	-59.111	-26.202	-69.156	-58.055	137.786	-70.032	-64.223	-40.285	117.230	-66.159	-61.892	-59.985	-55.142	66.156	-57.421	-8191	255	
9896.312	1	1	0	0	0.18856	0.21613	0.19897	0.29737	0.037663	0.065339	0.16858	0.098029	0.094834	0.021164	0.059412	0.072257	0.27308	0.081142	0.35604	0.057587	-1.9104	-3.2042	-2.8125	-2.6125	-3.1792	-2.3854	-2.9167	-3.2313	-2.2542	-3.225	-2.975	-2.3875	-3.2833	-2.4313	-2.7583	-3.2521	126.690	-9.183	247.341	222.239	34.133	52.765	221.549	-82.030	188.625	220.245	186.769	277.177	173.894	220.692	-74.392	99.286	0.00013283	0.00036605	0.00022571	1014.5	4.2388e-06	6.3542e-06	870.56	378.91	5.7652e-06	7.2016e-06	381.33	141.28	133.97	52.644	7.4593e-06	62.056	0.0083779	0.011551	0.0031413	1208	0.00011471	0.000127	1053.3	448.83	0.00011123	0.00012349	472.4	172.61	163.8	63.707	0.00011179	75.018	232.967	13.580	-5.883	-69.319	88.571	-13.629	-69.996	-64.076	-1.720	82.245	-66.259	-61.710	-59.919	-54.939	53.835	-57.119	-8191	255	
9896.431	1	1	0	0	0.25758	0.2122	0.17798	0.33633	0.11406	0.13481	0.16535	0.02016	0.12318	0.15982	0.20719	0.1722	0.25958	0.38032	0.28368	0.068532	-2.0438	-3.1521	-2.9083	-2.5375	-3.4167	-2.4875	-2.5833	-3.2646	-2.3667	-3.0667	-3.0687	-2.6063	-3.175	-2.7875	-2.675	-3.2771	224.714	227.972	72.473	247.758	-35.031	253.360	-25.743	70.642	184.547	41.273	-50.655	186.617	-37.656	177.657	159.642	153.699	0.00028821	0.0011754	0.00031559	1016.2	1.0197e-05	4.5699e-06	864.63	378.33	6.7751e-06	6.9511e-06	378.8	140.34	132.99	52.434	3.0721e-06	61.533	0.0078548	0.010503	0.0027676	1190.3	0.00010586	0.00011541	1034.8	443.64	0.00010608	0.00011474	464.36	170.18	163.08	63.037	0.00010715	74.277	226.597	-46.205	-59.202	-69.049	219.187	42.675	-70.014	-64.071	230.229	43.538	-66.089	-61.461	-59.778	-54.945	-34.096	-57.080	-8191	255	
9896.527	1	1	0	0	0.16863	0.073576	0.17284	0.14728	0.0076233	0.10901	0.29826	0.061389	0.25493	0.074231	0.23896	0.12853	0.095586	0.16883	0.17128	0.24661	-2.0479	-2.9062	-2.6167	-2.5729	-3.1729	-2.7562	-2.5146	-3.3542	-2.3875	-2.8521	-2.9479	-2.3771	-3.225	-2.85	-2.525	-3.2625	183.032	238.722	67.344	257.348	179.190	100.102	190.384	229.396	78.691	224.270	255.562	227.803	-9.493	-36.371	5.744	270.498	0.00019561	0.00041613	0.00025972	1015.2	1.0943e-05	1.0825e-05	871.07	377.25	7.4391e-06	1.4556e-05	376.36	140.09	132.92	52.252	2.4028e-06	61.079	0.007982	0.010321	0.0027594	1192.6	0.00011043	0.0001143	1035	443.68	0.00011078	0.00011405	462.86	170.29	163.48	62.883	0.00010765	74.198	199.696	-6.102	-11.747	-68.857	217.030	100.231	-69.800	-64.116	83.600	-0.683	-66.106	-61.363	-59.504	-54.780	89.773	-57.238	-8191	255	
9896.623	1	1	0	0	0.24069	0.28351	0.12131	0.29048	0.26511	0.12375	0.30722	0.16368	0.1868	0.19927	0.039158	0.039852	0.033697	0.29249	0.10452	0.18438	-2.2646	-2.8042	-3.2125	-2.4688	-2.975	-2.7354	-2.4417	-3.4688	-2.4417	-2.6896	-3.4542	-2.2354	-3.2604	-2.9771	-2.3083	-3.3083	249.285	65.557	249.689	210.802	209.604	234.108	183.880	169.268	-75.683	231.272	98.415	254.315	150.159	220.490	-62.081	252.106	0.00033876	0.00031878	0.00025304	1016.8	6.041e-06	7.5688e-06	871.3	377.52	1.569e-06	4.6802e-06	377.36	139.03	132.67	51.931	2.2684e-06	60.58	0.0083975	0.010324	0.0027851	1198.5	0.00011397	0.00011346	1037.4	445.48	0.00011354	0.00011244	461.65	169.97	163.02	62.475	0.00010574	73.97	231.263	-69.287	-25.254	-69.142	191.180	77.926	-69.834	-63.640	151.318	30.629	-65.859	-61.608	-59.624	-54.994	140.289	-57.232	-8191	255	
9896.719	1	1	0	0	0.18894	0.092681	0.21329	0.20642	0.11168	0.12522	0.15839	0.14516	0.096427	0.17254	0.17168	0.23799	0.25566	0.12646	0.28995	0.10945	-2.0417	-2.6271	-3.2667	-2.4396	-3.225	-3.0625	-2.4708	-3.55	-2.5104	-2.6562	-3.4604	-2.45	-3.1604	-3.2458	-2.5417	-3.4958	-77.090	-19.623	240.954	277.284	81.908	84.078	195.676	201.864	-8.304	139.386	165.233	202.378	253.498	-54.637	197.239	235.711	0.00015682	0.0011975	0.00012095	1019	1.0257e-05	1.5608e-05	873.18	378.18	8.7449e-06	1.3088e-05	374.44	137.78	132.25	51.929	3.2907e-06	60.677	0.0083368	0.010085	0.0027315	1204.5	0.00011334	0.00011168	1032.6	446.28	0.00011261	0.00011072	459.56	169.77	162.51	62.294	0.000106	74.285	224.374	3.120	-8.632	-69.060	29.665	127.446	-69.916	-63.976	75.804	-12.243	-65.956	-61.107	-59.452	-54.590	-75.656	-57.003	-8191	255	
9896.815	1	1	0	0	0.18843	0.094678	0.28941	0.36733	0.039557	0.12562	0.24112	0.11423	0.1415	0.018246	0.027043	0.25834	0.20065	0.11427	0.14896	0.24247	-2.2646	-2.7354	-3.1	-2.5667	-3.0417	-3.0625	-2.2167	-3.4729	-2.7292	-2.5958	-3.4104	-2.5563	-2.9625	-3.2896	-2.1729	-3.3167	79.493	261.839	-20.551	259.523	221.838	252.183	197.898	269.028	54.531	11.155	201.387	227.256	264.042	-69.269	49.422	207.675	0.00022215	0.00049882	0.00019721	1016	9.9603e-06	1.2178e-05	869.19	378.72	1.169e-05	6.9853e-06	372.52	138.56	132.5	52.038	5.8909e-06	60.964	0.0082913	0.010031	0.0027634	1209.5	0.00011238	0.00011132	1035.8	448.49	0.00011179	0.00011022	460.32	171.23	162.5	62.483	0.00010718	74.676	249.357	-19.330	107.472	-69.282	53.501	21.519	-69.961	-64.015	64.378	19.065	-66.084	-61.730	-59.882	-54.844	199.380	-56.961	-8191	255	
9896.911	1	1	0	0	0.28957	0.17731	0.2881	0.34635	0.038299	0.041705	0.63946	0.14123	0.26413	0.074356	0.033572	0.29525	0.1082	0.039354	0.17936	0.23615	-2.7125	-2.3812	-3.1375	-2.575	-2.9375	-3.05	-2.2833	-3.0542	-2.9896	-2.2917	-3.4604	-2.7125	-2.7083	-3.2979	-2.3063	-3.0708	165.775	13.466	254.855	262.622	234.493	233.302	-72.464	135.416	151.175	186.874	96.282	236.329	245.460	161.969	-79.957	264.140	0.00020348	0.00095228	0.00037743	1019.3	1.0346e-05	8.2732e-06	869.83	378.18	2.1942e-06	1.8589e-06	373.62	138.26	132.91	52.153	1.137e-05	61.136	0.008079	0.0098468	0.0027951	1209	0.00010793	0.00010829	1037.1	447.69	0.00010775	0.0001068	462.63	171.15	161.91	62.271	0.00010935	74.429	209.847	-76.029	97.052	-69.158	91.590	90.316	-69.735	-64.125	85.088	162.438	-65.893	-61.283	-59.689	-54.993	93.435	-57.059	-8191	255	
9897.032	1	1	0	0	0.23867	0.1259	0.11575	0.15746	0.13381	0.15898	0.02913	0.36428	0.31698	0.018074	0.16735	0.085978	0.023836	0.2259	0.051411	0.24429	-2.6521	-2.35	-3.2333	-2.8354	-2.7438	-3.2104	-2.5729	-3.1521	-2.8854	-2.4938	-3.325	-2.9042	-2.6771	-3.4271	-2.2687	-3.1083	-68.028	251.055	276.554	218.215	61.113	253.387	23.884	241.598	20.269	171.907	179.989	189.788	196.801	251.159	18.783	225.389	0.0002607	0.00049448	3.4538e-05	1016.7	4.6742e-06	9.1925e-06	868.9	377.56	6.7968e-06	9.1202e-06	373.18	137.9	131.78	51.886	2.933e-06	60.623	0.0077847	0.0094825	0.0028424	1204.4	0.00010423	0.0001049	1038.8	445.29	0.00010447	0.0001045	461.86	169.1	160.59	61.846	0.00011281	73.781	236.328	-2.941	224.400	-69.110	50.369	71.166	-69.720	-63.869	88.100	15.908	-65.548	-60.968	-59.290	-54.559	224.103	-56.984	-8191	255	
9897.128	1	1	0	0	0.12068	0.20167	0.079267	0.10869	0.10388	0.22728	0.25017	0.28757	0.090871	0.032258	0.277	0.14119	0.11766	0.11038	0.24481	0.21264	-2.6542	-2.4167	-3.2771	-2.8833	-2.5125	-3.4521	-2.6646	-3.0792	-3.2729	-2.3688	-3.1937	-2.9458	-2.6458	-3.4021	-2.6437	-2.9771	-7.939	48.639	221.500	-41.180	-38.460	223.329	179.331	201.919	80.530	135.834	215.653	-35.657	275.351	207.920	147.497	-70.053	0.00014434	0.00072068	0.00011241	1017	5.487e-06	1.1134e-05	862.73	376.56	8.0337e-06	2.598e-06	371.58	137.08	131.52	51.689	5.5381e-06	60.088	0.007701	0.0095854	0.0029325	1200.7	0.0001035	0.00010699	1037.8	442.81	0.0001031	0.00010619	461.2	167.9	159.67	61.786	0.00011277	73.023	212.873	40.660	20.348	-68.697	65.879	114.414	-69.538	-63.503	73.095	-72.404	-65.325	-60.982	-59.351	-54.322	270.816	-56.751	-8191	255	
9897.200	1	1	0	0	0.0941	0.25177	0.087197	0.083735	0.31339	0.23795	0.084899	0.21029	0.12486	0.23617	0.26263	0.21182	0.21387	0.16138	0.29823	0.13634	-2.9375	-2.2229	-3.0896	-3.0729	-2.3896	-3.275	-2.6417	-2.7167	-3.2792	-2.4	-2.9542	-3.0604	-2.4979	-3.2646	-2.5333	-2.8083	14.180	228.694	214.546	188.697	102.540	14.719	185.587	194.462	98.024	214.212	218.685	270.419	203.982	-69.880	249.178	225.386	0.00011886	0.0013555	0.00030251	1019.2	3.0198e-06	1.0825e-05	865.53	375.97	7.4492e-06	1.0782e-05	373.14	136.37	131.99	51.704	4.2226e-06	60.532	0.0075793	0.0098311	0.0029496	1198.6	0.00010175	0.0001102	1037.5	441.98	0.00010242	0.00011099	461.48	167.54	159.81	62.144	0.00011376	73.09	201.036	85.815	28.350	-68.399	49.267	208.944	-69.341	-63.262	39.958	173.586	-65.391	-60.947	-58.841	-54.116	42.300	-56.412	-8191	255	
9897.296	1	1	0	0	0.10096	0.13068	0.16704	0.15288	0.075683	0.2157	0.20907	0.14724	0.22386	0.25012	0.067114	0.08643	0.19262	0.015885	0.021264	0.084782	-2.9062	-2.3438	-3.1125	-3.1208	-2.3917	-3.2604	-2.9771	-2.7083	-3.3458	-2.4354	-3.0542	-3.2625	-2.4333	-3.3042	-2.9667	-2.4667	138.649	105.467	179.407	261.916	3.539	206.094	199.991	220.463	-45.566	160.929	210.334	231.936	277.140	-30.575	122.104	217.279	0.00015515	0.0010377	0.000437	1016.5	6.5361e-06	5.1163e-06	869.5	375.43	4.2358e-06	5.2821e-06	370.4	137.49	131.6	51.617	1.447e-05	60.255	0.0075365	0.010206	0.0029028	1195.7	0.00010145	0.00011411	1036.8	441.56	0.00010221	0.0001144	459.37	168.13	160.09	62.513	0.00011179	73.14	224.097	217.620	-16.029	-68.489	200.261	48.925	-69.317	-63.261	189.749	50.784	-65.639	-60.869	-59.238	-54.151	55.526	-56.367	-8191	255	
9897.415	1	1	0	0	0.34555	0.20125	0.13663	0.27577	0.026025	0.21372	0.2924	0.097252	0.16007	0.099509	0.16283	0.21092	0.11951	0.1626	0.079799	0.35122	-3.0396	-2.5292	-2.8396	-3.2625	-2.5771	-3.0417	-2.825	-2.5417	-3.3458	-2.425	-2.8417	-3.45	-2.3958	-3.0438	-3.0333	-2.6542	-64.303	-32.346	50.686	210.732	233.127	104.211	207.045	-5.905	154.276	163.097	24.929	274.845	-44.895	-38.364	4.563	219.238	0.00022527	0.0011022	0.00032881	1020.3	3.9114e-06	5.5237e-06	870.96	376.32	5.3693e-06	9.8185e-06	371.24	137.1	132.03	51.805	1.5957e-05	60.341	0.0077283	0.01065	0.0028884	1199.5	0.00010525	0.00011882	1038.5	441.26	0.00010712	0.00011854	457.88	167.73	161.17	62.81	0.00011127	73.046	218.222	142.082	-20.955	-68.316	133.752	-49.639	-69.393	-63.104	204.679	106.957	-65.323	-60.740	-58.943	-54.292	34.897	-56.550	-8191	255	
9897.511	1	1	0	0	0.063258	0.13631	0.04901	0.40331	0.19225	0.18994	0.11722	0.33931	0.11553	0.1067	0.19245	0.097411	0.18454	0.27883	0.24835	0.23432	-2.8146	-2.4625	-2.7229	-3.1958	-2.325	-3.0292	-3.2083	-2.4479	-3.3917	-2.7271	-2.6083	-3.3875	-2.6729	-3.2125	-2.8979	-2.5875	-42.549	200.111	129.435	-59.318	-23.219	269.444	158.422	233.355	12.621	200.301	266.277	154.273	230.223	242.728	36.045	-77.525	0.00028594	0.00043557	0.00037018	1013.5	3.6627e-06	1.9484e-05	863.53	373.52	3.2568e-06	1.8717e-05	368.8	136.05	131.94	52.043	1.3091e-05	60.266	0.0081276	0.010865	0.0028778	1196.9	0.00011101	0.00012083	1034.2	440.79	0.00011334	0.00012019	457.16	167.56	162.43	62.934	0.00011168	73.123	237.576	224.828	39.741	-68.392	224.102	64.739	-68.953	-63.347	250.066	80.467	-65.287	-60.859	-59.288	-54.210	21.098	-56.660	-8191	255	
9897.607	1	1	0	0	0.16165	0.2932	0.16647	0.18466	0.082163	0.1531	0.27194	0.27215	0.23181	0.15615	0.18088	0.24353	0.092041	0.34035	0.1647	0.21902	-2.9771	-2.7104	-2.6083	-3.4083	-2.4792	-2.7354	-3.2542	-2.4833	-3.3083	-2.5604	-2.6604	-3.475	-2.5729	-3.1833	-3.1646	-2.6146	-4.847	223.266	207.534	241.694	1.864	6.063	-58.772	229.928	5.280	-52.877	-51.813	-32.536	276.255	213.216	-69.631	185.893	0.00031052	0.0016481	0.00037269	1014.4	4.4603e-06	8.6316e-06	862.73	374.66	6.1103e-06	4.5906e-06	369.49	136.59	131.93	51.764	4.9097e-06	60.208	0.0084058	0.010695	0.0028469	1196.6	0.00011486	0.00011851	1033.6	441.4	0.00011659	0.00011895	457.17	167.86	163.19	62.766	0.00011165	73.326	218.700	-72.310	-22.530	-68.495	199.839	138.444	-69.169	-63.015	208.496	64.491	-65.403	-60.859	-58.730	-53.929	38.382	-56.397	-8191	255	
9897.703	1	1	0	0	0.1182	0.061283	0.15132	0.13803	0.28918	0.1153	0.12228	0.1477	0.1756	0.071233	0.11112	0.14662	0.08513	0.20493	0.1809	0.14099	-3.0646	-2.85	-2.2417	-3.4062	-2.7146	-2.8	-3.3063	-2.6688	-3.1375	-2.8312	-2.45	-3.5708	-2.3979	-2.65	-3.3396	-2.6854	209.788	190.647	169.626	-61.409	246.434	-76.581	82.502	-40.715	233.062	82.069	-61.402	-70.481	-26.233	268.718	182.891	115.267	0.00028164	0.0010154	0.00022744	1017.4	4.0863e-06	8.7656e-06	862.92	375.11	9.4216e-06	9.3283e-06	370.51	136.93	131.65	51.815	5.4453e-06	60.044	0.0087156	0.010686	0.0028459	1204.6	0.00011791	0.00011616	1032.3	444.03	0.00011785	0.00011597	456.18	168.95	163.01	62.518	0.00010887	73.658	236.624	-28.288	18.259	-68.291	29.966	27.318	-68.942	-62.795	192.054	56.586	-65.508	-61.160	-59.627	-54.339	255.267	-56.872	-8191	255	
9897.800	1	1	0	0	0.27038	0.26485	0.18996	0.22302	0.038599	0.13982	0.10181	0.29672	0.13462	0.22092	0.3493	0.093368	0.26501	0.14371	0.13126	0.20089	-2.4375	-3.0208	-2.3333	-3.1771	-2.5812	-2.4458	-3.4938	-2.6083	-2.9542	-3.1271	-2.6437	-3.2979	-2.8646	-2.6625	-3.2625	-2.5104	-81.304	-57.121	156.759	11.442	234.157	186.356	237.420	-76.786	237.564	213.095	271.701	104.489	100.323	-40.951	230.587	-33.499	0.00015648	0.00050786	0.00047911	1014.9	6.1501e-06	5.157e-06	864.94	374.68	1.357e-05	3.6909e-06	365.41	135.93	132	51.545	2.0863e-06	59.939	0.0085966	0.010362	0.0027955	1206.5	0.00011614	0.00011343	1031.6	444.9	0.00011572	0.00011388	454.12	168.67	162.42	62.237	0.00010946	73.679	187.767	-28.236	13.992	-68.657	-66.631	114.402	-69.281	-63.516	74.961	108.058	-65.660	-60.968	-59.115	-54.170	84.845	-56.417	-8191	255	
9897.896	1	1	0	0	0.21973	0.17811	0.16352	0.23314	0.19611	0.33168	0.43978	0.21958	0.10997	0.32144	0.16753	0.22359	0.077519	0.23866	0.049254	0.23791	-2.7854	-3.0292	-2.2583	-3.2604	-2.7958	-2.3646	-3.5521	-2.7396	-2.8187	-3.1979	-2.4417	-3.2562	-2.9854	-2.5875	-3.15	-2.5896	24.725	218.372	126.048	261.248	221.027	253.254	238.186	251.130	215.719	12.147	208.338	-53.708	-57.209	253.572	81.944	-74.627	0.00016711	0.0012318	0.00017317	1017.5	1.0304e-05	1.9009e-05	862.35	374.24	3.2692e-06	9.4977e-06	365.77	135.18	130.82	51.466	1.2852e-05	59.669	0.0084679	0.0103	0.0027954	1211.9	0.0001137	0.00011222	1031.1	445.14	0.00011251	0.0001121	453.16	168.49	161.13	61.767	0.00010995	73.262	231.648	-31.284	76.015	-68.284	76.014	68.279	-69.359	-64.085	98.681	100.783	-66.013	-61.835	-60.083	-55.186	260.887	-57.372	-8191	255	
9897.992	1	1	0	0	0.22187	0.2454	0.32455	0.10896	0.18007	0.17805	0.30441	0.28045	0.11657	0.13832	0.076543	0.32377	0.14105	0.11703	0.13993	0.1986	-2.6167	-3.0083	-2.3146	-3.3479	-3.025	-2.5667	-3.3208	-2.825	-2.7833	-3.1479	-2.4437	-3.2542	-3.1396	-2.4062	-3.2062	-2.8	264.150	37.952	188.999	92.540	231.936	142.598	230.129	203.211	-39.467	-20.420	-72.772	214.164	-31.712	209.330	181.446	268.220	4.8502e-05	0.00042568	9.5032e-05	1017.6	3.7419e-06	1.0348e-05	859	372.68	1.996e-06	2.0492e-06	364.95	134.88	130.6	51.148	9.1865e-06	59.242	0.0081275	0.010011	0.0028376	1212.6	0.00010985	0.00010916	1032.8	443.79	0.00011026	0.00011014	454.23	167.54	160.25	61.442	0.00011504	72.908	202.907	121.133	170.185	-69.302	13.601	55.179	-69.903	-64.129	-79.628	216.604	-66.153	-61.623	-59.854	-54.830	102.602	-57.142	-8191	255	
9898.112	1	1	0	0	0.076097	0.11354	0.14385	0.32949	0.1648	0.0043581	0.21011	0.26547	0.061728	0.13783	0.12248	0.12423	0.22113	0.061377	0.14275	0.19842	-2.1292	-3.1375	-2.2	-3.0333	-3.0062	-2.3937	-3.2646	-2.9458	-2.6604	-3.1771	-2.8312	-3.0312	-3.2083	-2.4188	-3.2188	-2.9313	90.943	-74.690	116.879	264.378	156.010	-13.544	-61.498	243.688	85.561	134.165	183.036	-1.198	-20.819	183.866	-9.297	269.742	0.00016474	0.00036375	7.9061e-05	1018.2	1.2732e-05	8.2815e-06	855.75	373.97	1.7872e-06	7.6387e-06	365.56	136.29	131.5	51.613	7.9301e-06	59.97	0.0080274	0.0099505	0.0029544	1210.5	0.00010908	0.00010917	1037.3	444.19	0.0001093	0.00011152	458.81	168.74	161.26	62.208	0.00012017	73.748	236.023	145.315	77.823	-69.238	37.064	101.296	-69.866	-64.078	-41.195	85.128	-65.998	-61.498	-59.785	-54.716	-61.885	-57.144	-8191	255	
9898.209	1	1	0	0	0.14641	0.1303	0.057377	0.42266	0.14666	0.13376	0.111	0.12966	0.048155	0.093579	0.15262	0.043317	0.31947	0.11882	0.090373	0.13791	-1.9979	-3.2667	-2.4375	-2.9125	-2.9479	-2.4354	-3.0708	-3.0687	-2.5062	-3.2917	-2.5563	-2.6896	-3.1083	-2.45	-3.1104	-2.9271	80.039	-31.224	159.238	202.648	38.362	-62.240	263.352	11.545	76.817	178.961	52.454	-37.380	211.864	-36.124	122.586	267.035	0.00014067	0.00086914	0.00023579	1012.6	5.2147e-06	9.678e-06	859.12	374.39	1.1983e-05	4.7721e-06	366.11	136.57	132.05	51.709	7.3362e-06	59.951	0.0081005	0.010302	0.0030837	1205.6	0.00010984	0.00011296	1039.3	443.31	0.00010754	0.00011343	459.35	168.41	161.24	62.37	0.00011939	73.25	244.044	111.733	54.449	-68.852	81.932	101.022	-70.166	-64.082	52.736	203.402	-66.114	-61.171	-59.595	-54.622	154.072	-57.141	-8191	255	
9898.305	1	1	0	0	0.039788	0.11384	0.20314	0.17228	0.1465	0.25517	0.23753	0.27148	0.21879	0.068844	0.13174	0.17621	0.37104	0.063941	0.3322	0.076685	-1.9562	-3.2833	-2.5	-2.7125	-3.2979	-2.3792	-3.0542	-3.0771	-2.4667	-3.2604	-2.7833	-2.5896	-3.4	-2.5292	-3.0417	-3.2146	27.314	124.500	-3.537	241.607	181.878	115.775	196.647	218.468	-36.404	116.254	179.169	184.956	240.331	30.354	165.214	109.363	0.0001806	0.00085796	0.00037947	1007.6	5.5894e-06	6.897e-06	858.48	372.9	2.8658e-06	1.0832e-05	365.2	135.98	131.25	51.82	5.0687e-06	59.917	0.0078326	0.01039	0.003042	1195.1	0.00010584	0.00011329	1034.4	440.5	0.00010381	0.00011461	456.53	166.98	160.23	62.423	0.00011576	72.976	239.971	176.355	-78.654	-69.131	64.226	87.802	-69.802	-63.845	207.717	238.442	-65.704	-61.423	-59.653	-54.653	108.117	-57.024	-8191	255	
9898.424	1	1	0	0	0.051284	0.14775	0.09928	0.06698	0.19118	0.06523	0.24923	0.13627	0.045195	0.41086	0.18286	0.162	0.12169	0.35304	0.18198	0.28218	-1.8854	-3.2292	-2.6562	-2.4729	-3.3458	-2.55	-3.2042	-3.0771	-2.3312	-3.3583	-2.7562	-2.6333	-3.4042	-2.5167	-2.8937	-3.2417	-43.367	115.984	97.216	199.303	61.698	31.259	-68.293	221.972	125.434	274.249	193.927	4.513	187.742	184.192	254.010	188.765	0.00019372	0.00061931	0.00026795	1012.5	6.1237e-06	6.8704e-06	860.98	372.83	6.0576e-06	8.7381e-07	367.24	136.4	131.54	51.874	1.2191e-05	60.04	0.0077017	0.010646	0.0029709	1194.9	0.00010535	0.0001166	1032.5	439.78	0.00010425	0.00011838	456.54	167.35	160.82	62.721	0.0001128	73.064	218.840	82.383	18.390	-68.715	16.435	184.806	-69.938	-64.223	183.738	175.213	-65.945	-61.233	-59.630	-55.109	74.370	-57.617	-8191	255	
9898.495	1	1	0	0	0.14124	0.077758	0.085289	0.38658	0.24225	0.1035	0.26561	0.081757	0.12193	0.16045	0.23865	0.13154	0.10051	0.34708	0.11901	0.43341	-2.0708	-3.1083	-2.9125	-2.5187	-3.3292	-2.3479	-2.7438	-3.2146	-2.4729	-3.0542	-3.0333	-2.4854	-3.1729	-2.7542	-2.7333	-3.3521	-57.860	175.465	7.847	239.972	245.372	136.985	247.053	189.264	114.869	59.966	261.381	276.508	191.416	232.175	204.589	275.523	0.00027926	0.00086965	6.4251e-05	1014.8	7.7834e-06	6.744e-06	860.72	373.25	3.6289e-06	9.9713e-06	366.68	137.13	132.09	51.804	1.3849e-06	60.178	0.0078119	0.010782	0.0028994	1195.2	0.00010695	0.00011798	1029.7	439.42	0.00010607	0.00011792	453.48	166.69	161.22	62.641	0.00010912	72.797	235.488	241.289	-0.352	-69.346	151.252	186.032	-70.180	-63.936	95.901	30.259	-66.161	-61.246	-59.522	-54.610	67.667	-57.160	-8191	255	
9898.591	1	1	0	0	0.12581	0.17949	0.0050796	0.18173	0.040295	0.20498	0.064125	0.18058	0.039949	0.30018	0.51122	0.075899	0.14809	0.13137	0.22707	0.14166	-2.1333	-3.1104	-2.9229	-2.3771	-3.2375	-2.5458	-2.7333	-3.2229	-2.6437	-2.9813	-2.9417	-2.4854	-3.2354	-2.85	-2.5167	-3.5	9.997	179.850	133.878	206.735	-14.295	28.631	241.910	111.751	158.777	91.544	214.639	248.553	239.565	-74.898	130.858	-62.534	0.0002337	0.00084117	0.00059815	1012.5	7.3438e-06	5.3748e-06	857.86	373.16	5.7449e-06	1.042e-05	366.47	136.62	132.67	52.227	9.6634e-06	60.572	0.0079305	0.010665	0.0028224	1191.5	0.00010951	0.00011672	1025.3	438.93	0.00011028	0.00011672	453.37	166.83	162.91	62.961	0.00010945	73.293	241.362	5.131	-0.013	-69.354	177.646	26.661	-69.948	-63.968	229.487	41.053	-66.141	-61.547	-59.684	-54.750	134.274	-57.124	-8191	255	
9898.712	1	1	0	0	0.11864	0.028128	0.1868	0.14651	0.05164	0.096286	0.047888	0.12224	0.14179	0.14751	0.2028	0.070523	0.21963	0.22292	0.083707	0.25185	-2.0125	-2.9458	-3.1667	-2.4125	-3.3292	-2.8688	-2.5979	-3.3771	-2.55	-2.8021	-3.5292	-2.2542	-3.35	-2.9458	-2.3458	-3.4562	164.584	-74.275	116.725	193.504	182.098	118.056	135.452	150.996	67.256	203.706	180.645	98.079	228.546	188.746	253.154	189.450	0.00028228	0.00082435	6.7537e-05	1011.5	3.1852e-06	2.379e-05	859.19	372.46	6.8225e-06	1.6775e-06	366.2	136.54	132.58	52.257	9.6336e-06	60.285	0.0083294	0.010568	0.0028392	1193.6	0.00011452	0.00011701	1026.6	440.7	0.00011483	0.00011527	453.24	167.83	163.54	62.946	0.0001086	73.389	229.207	-24.996	-67.739	-69.218	217.625	62.929	-69.506	-63.664	108.725	95.025	-65.860	-61.389	-59.957	-55.065	1.274	-57.115	-8191	255	
9898.808	1	1	0	0	0.31943	0.11887	0.22957	0.29011	0.11797	0.060261	0.26011	0.19215	0.12028	0.22381	0.32233	0.31625	0.10368	0.15589	0.174	0.1348	-1.9208	-2.6813	-3.0521	-2.6208	-3.1562	-2.8104	-2.4167	-3.3854	-2.7792	-2.8021	-3.2125	-2.5021	-2.9813	-3.15	-2.4646	-3.3333	-75.015	102.756	51.135	220.406	220.449	109.506	157.337	277.095	-17.485	-74.363	-72.142	221.310	23.581	230.739	-32.343	210.232	0.00021397	0.00062347	7.0871e-05	1017.9	5.9081e-06	6.9016e-06	861.43	374.13	3.8442e-06	8.2255e-06	366.59	136.32	133.32	52.187	1.1626e-05	60.508	0.0085111	0.010451	0.0028101	1204	0.00011684	0.00011518	1027.9	442.9	0.00011631	0.00011449	452.63	168.25	164.02	62.868	0.0001083	73.865	239.108	-40.937	277.782	-69.062	21.272	90.053	-69.765	-63.919	193.727	91.675	-65.728	-61.420	-59.419	-54.750	39.693	-57.294	-8191	255	
9898.904	1	1	0	0	0.080092	0.12974	0.18666	0.10506	0.16687	0.10547	0.19059	0.038855	0.33147	0.26134	0.24039	0.17151	0.26801	0.19202	0.10938	0.032783	-2.2375	-2.7	-3.2708	-2.6333	-3.0708	-2.9083	-2.5333	-3.375	-2.5167	-2.5792	-3.3375	-2.3021	-2.8875	-3.2229	-2.3812	-3.2354	-19.461	4.561	-68.559	-41.771	-79.133	116.376	247.078	-0.389	211.935	-36.470	217.007	-43.892	263.307	189.281	186.253	79.276	0.00015806	0.00070795	0.00010783	1015.6	1.0969e-05	1.3872e-05	859.2	374.48	9.194e-06	6.8035e-06	366.63	137.3	133.07	52.335	5.2676e-06	60.628	0.0085246	0.01035	0.0028076	1208	0.00011545	0.00011443	1027.6	445.67	0.00011497	0.00011355	454.7	170.16	164.27	63.258	0.00010974	74.802	259.907	56.971	59.442	-68.827	149.036	84.317	-69.461	-63.601	124.057	237.567	-65.538	-61.301	-59.552	-54.711	152.764	-56.870	-8191	255	
9899.001	1	1	0	0	0.14292	0.19224	0.36741	0.46131	0.34013	0.069623	0.15192	0.20849	0.10787	0.15145	0.067264	0.19599	0.2551	0.23367	0.083137	0.29131	-2.3104	-2.5396	-3.1479	-2.4813	-3.0646	-3.3521	-2.5125	-3.3896	-2.9458	-2.5687	-3.3563	-2.7938	-2.9562	-3.0667	-2.3167	-3.3187	220.376	26.674	274.057	209.100	-57.849	163.518	-78.684	-38.873	175.451	-76.678	109.773	-39.451	261.803	203.884	-73.513	259.483	0.00014118	0.0008529	0.00017414	1012.8	1.0925e-05	8.7145e-06	855.69	375.7	7.1981e-06	3.9051e-06	367.22	138.75	134.19	53.078	7.3641e-06	61.163	0.0084994	0.010358	0.0028678	1209.1	0.00011572	0.00011578	1029.9	448.23	0.0001163	0.00011512	458.47	172.9	165.26	63.856	0.00011423	75.596	266.299	14.278	21.120	-69.031	37.614	66.063	-69.700	-63.646	80.791	68.089	-66.209	-61.939	-59.974	-55.192	272.864	-57.531	-8191	255	
9899.097	1	1	0	0	0.13758	0.11055	0.016453	0.25726	0.065968	0.075292	0.099075	0.35613	0.11533	0.02674	0.42342	0.19617	0.22724	0.19051	0.089176	0.26984	-2.625	-2.3896	-3.2687	-2.7667	-2.7271	-3.3604	-2.5104	-3.3896	-2.925	-2.4521	-3.275	-2.6271	-2.8438	-3.4917	-2.3312	-3.1375	50.722	224.312	183.662	189.248	-21.824	16.607	-71.149	202.873	199.051	165.494	182.169	176.639	160.268	250.327	174.892	238.960	9.8295e-05	0.0010743	0.000222	1006.4	1.0844e-05	6.236e-06	852.87	373.74	2.8824e-06	7.3589e-06	366.11	138.4	134.19	53.029	1.2975e-05	61.273	0.0084565	0.010316	0.0029918	1207.3	0.00011367	0.00011355	1031.2	446.64	0.0001129	0.00011128	459.19	171.95	164.45	63.678	0.00011738	75.38	250.576	271.373	196.654	-69.549	35.263	33.410	-70.320	-64.318	146.328	137.060	-66.383	-61.803	-60.224	-55.363	233.379	-57.533	-8191	255	
9899.193	1	1	0	0	0.17652	0.091977	0.066031	0.11788	0.29199	0.080242	0.28707	0.29231	0.13884	0.13968	0.078943	0.21672	0.18231	0.44429	0.19132	0.15322	-2.8083	-2.4208	-3.2604	-2.9479	-2.6125	-3.3354	-2.4271	-3.1896	-2.9104	-2.525	-3.3042	-2.8396	-2.5438	-3.7167	-2.4625	-3.0104	-59.091	255.243	56.559	-29.766	241.116	243.644	137.569	264.583	151.879	190.491	170.475	245.659	248.861	238.752	-3.343	94.614	0.00014879	0.00075777	0.00011386	1007.4	5.6213e-06	1.1105e-05	856.44	375.16	7.7397e-06	1.0119e-06	366.36	138.49	133.55	52.711	1.3315e-05	61.091	0.0082636	0.010134	0.003068	1205.3	0.00011093	0.00011318	1037.1	446.27	0.00011093	0.00011037	460.5	171.16	163.48	63.329	0.00011655	74.379	276.878	140.448	63.945	-69.504	219.066	57.489	-70.115	-64.174	149.592	0.133	-66.074	-61.869	-60.112	-55.438	113.839	-57.439	-8191	255	
9899.289	1	1	0	0	0.0388	0.21094	0.12411	0.13817	0.15138	0.13099	0.23911	0.2182	0.24765	0.096352	0.069292	0.1084	0.22675	0.11802	0.13548	0.23339	-2.8646	-2.2854	-3.0479	-2.9833	-2.4583	-3.3542	-2.8812	-2.8958	-3.3292	-2.3708	-3.1104	-3.1063	-2.6146	-3.3396	-2.4979	-2.7167	149.630	244.616	-23.572	208.165	-53.094	-72.153	255.465	139.143	92.337	-13.330	149.226	245.357	-55.401	240.756	190.900	-42.839	0.00013699	0.00044823	0.0001004	1010.4	8.8068e-06	3.7087e-06	850.13	373.98	2.0418e-06	6.5934e-06	364.61	136.12	132.17	51.85	8.5378e-06	59.636	0.007852	0.0097907	0.002976	1198.1	0.00010328	0.00010831	1029.9	440.2	0.00010214	0.0001067	454.33	166.91	160.16	62.225	0.00011197	72.561	228.512	140.725	247.806	-69.409	62.973	-77.072	-70.076	-64.316	240.443	161.349	-65.936	-61.790	-59.918	-54.891	155.044	-57.342	-8191	255	
9899.385	1	1	0	0	0.083346	0.085566	0.040206	0.16514	0.20372	0.2585	0.20113	0.3966	0.25378	0.046909	0.064689	0.2933	0.30167	0.2213	0.2489	0.24174	-2.9417	-2.3708	-2.9271	-3.2438	-2.4792	-3.0542	-2.9771	-2.8688	-3.3958	-2.4792	-2.9667	-3.2396	-2.4813	-3.4208	-2.7354	-2.7479	262.126	96.787	14.927	212.069	204.385	28.478	-32.303	270.941	200.054	234.571	164.362	210.131	-81.199	-77.001	206.643	-8.339	0.00020071	0.00064298	0.00013324	1011.6	1.3225e-05	1.224e-05	854.47	371.74	3.4365e-06	7.6433e-06	363.74	136.63	132.39	52.043	9.1224e-06	59.966	0.0074413	0.0098493	0.0029057	1196.5	0.00010128	0.00011229	1028	439.38	0.00010388	0.0001138	454.88	167.84	161.33	63.108	0.00011535	73.2	240.896	156.672	54.980	-69.302	61.091	109.058	-70.169	-64.073	170.988	60.583	-66.141	-61.859	-59.937	-55.087	26.843	-57.076	-8191	255	
9899.504	1	1	0	0	0.15051	0.19066	0.15357	0.10237	0.10584	0.19498	0.067865	0.078614	0.20092	0.21943	0.17122	0.14632	0.19867	0.19115	0.21388	0.27237	-2.7583	-2.2917	-2.9833	-3.0625	-2.1042	-3.3271	-2.7917	-2.4083	-3.2229	-2.3979	-2.9896	-3.0062	-2.5417	-3.2167	-2.5042	-2.5667	140.714	153.450	271.912	98.912	-55.890	-50.116	219.998	-33.310	51.085	35.277	229.921	200.141	-60.823	246.056	190.429	235.163	0.00019607	0.001417	0.00014438	1014.7	6.0852e-06	1.5629e-05	854.1	371.78	3.7747e-06	5.4655e-06	362.16	135.95	131.83	52.194	1.0901e-05	60.034	0.007702	0.01052	0.0029558	1197	0.00010454	0.00011816	1027.4	438.88	0.00010608	0.00011791	452.24	167.33	161.3	63.148	0.0001124	72.818	235.039	113.292	-8.455	-69.534	200.309	106.584	-69.838	-63.892	8.850	61.501	-65.674	-61.640	-59.878	-54.850	86.959	-57.487	-8191	255	
9899.600	1	1	0	0	0.078196	0.23301	0.18715	0.26705	0.18033	0.088873	0.24067	0.17711	0.15993	0.25038	0.25527	0.19914	0.38743	0.27627	0.085405	0.22777	-2.8042	-2.3729	-2.5479	-3.2979	-2.3417	-3.0479	-2.8438	-2.3187	-3.2625	-2.6542	-2.8875	-3.3958	-2.4292	-3.0479	-2.8375	-2.5229	-30.835	151.816	111.078	196.625	-2.321	89.562	244.318	246.573	-60.769	14.428	8.544	-34.435	251.558	210.673	32.635	104.700	0.00019916	0.00082403	8.8401e-05	1011.3	1.2299e-05	1.2946e-05	850.73	370.84	4.6335e-06	1.3161e-05	360.49	135.14	132.11	51.851	4.7753e-06	59.794	0.0078599	0.010743	0.0028833	1194.6	0.00010672	0.00011958	1025.2	437.22	0.000109	0.00011998	449.61	166.34	161.85	62.987	0.00011326	72.682	258.713	-27.714	-52.390	-69.499	162.203	95.042	-70.152	-64.221	154.776	-8.913	-65.898	-61.741	-59.832	-54.792	-66.378	-57.124	-8191	255	
9899.696	1	1	0	0	0.1455	0.22181	0.074425	0.1965	0.14775	0.19343	0.1449	0.15269	0.17161	0.081578	0.16865	0.13069	0.20031	0.20372	0.1221	0.1128	-2.8333	-2.5583	-2.5083	-3.3458	-2.6271	-2.9062	-2.9229	-2.5854	-3.2208	-2.9396	-2.7333	-3.3354	-2.5729	-2.9688	-3.225	-2.4896	42.660	32.857	8.289	-73.299	265.605	4.350	187.724	255.634	197.347	205.361	234.281	257.811	223.051	248.479	-42.571	244.493	0.00022378	0.0015077	0.0001082	1015.2	7.0346e-06	1.8211e-05	854.57	370.99	5.0522e-06	1.2517e-05	360.73	135.94	132.03	52.235	8.6186e-06	60.149	0.0083421	0.010997	0.0029178	1199.4	0.00011279	0.00012142	1026.2	438.18	0.00011612	0.00012064	451.04	167.15	163.46	63.328	0.00011407	73.187	209.997	0.388	89.471	-69.269	223.448	60.418	-69.722	-63.855	68.172	16.497	-65.896	-61.431	-59.959	-54.909	40.122	-57.091	-8191	255	
9899.792	1	1	0	0	0.20089	0.14236	0.024394	0.34829	0.12428	0.063397	0.066684	0.079008	0.20534	0.062521	0.097349	0.13538	0.12873	0.24301	0.32622	0.36494	-2.8521	-2.5271	-2.3271	-3.2958	-2.6104	-2.8167	-3.2979	-2.4354	-3.1708	-2.7229	-2.525	-3.5125	-2.3063	-2.8708	-3.0938	-2.2938	8.206	30.102	23.417	-66.244	145.723	255.394	145.138	18.822	-66.182	223.352	138.100	141.698	177.705	71.343	27.917	276.285	0.00013056	0.0012798	0.00037813	1008.4	2.5277e-06	1.6232e-05	851.09	370.66	5.0211e-06	4.8229e-06	362.16	136	132.52	52.291	3.8628e-06	60.016	0.0086874	0.010961	0.002893	1195.6	0.00011776	0.00011989	1024.5	438.99	0.00011898	0.00011972	450.65	168.37	164.28	63.381	0.00011358	73.731	213.040	-44.649	-6.931	-69.114	-80.488	103.854	-69.869	-63.655	260.683	10.582	-65.798	-61.725	-59.604	-54.665	-11.361	-56.994	-8191	255	
9899.889	1	1	0	0	0.27529	0.20366	0.10082	0.10532	0.19362	0.1976	0.12153	0.21146	0.31215	0.16661	0.25291	0.27163	0.084598	0.17658	0.32011	0.12543	-2.9542	-2.6875	-2.45	-3.4354	-2.4833	-2.6813	-3.1646	-2.4792	-3.2833	-2.8563	-2.5667	-3.3521	-2.725	-2.9229	-3.1	-2.5438	67.900	40.810	200.816	-51.781	226.432	272.996	-45.729	263.218	28.149	224.259	271.722	269.956	271.336	269.235	50.180	248.386	0.0001372	0.0012855	0.0004986	1010.9	1.0964e-05	1.9616e-05	855.09	371.17	8.4844e-06	1.062e-05	364.11	136.06	132.68	52.281	8.8071e-06	60.157	0.0089525	0.010861	0.0029025	1204.1	0.00012109	0.00011867	1026.6	441.58	0.00012114	0.00011903	452.2	169.69	164.55	63.387	0.00011285	74.159	214.650	-65.892	-46.714	-69.010	48.999	113.127	-69.970	-63.778	242.934	-35.993	-65.925	-61.725	-59.924	-54.901	49.491	-57.610	-8191	255	
9899.985	1	1	0	0	0.20626	0.25001	0.04987	0.10699	0.098189	0.05221	0.18164	0.27449	0.14642	0.17329	0.12787	0.049539	0.19259	0.29779	0.15904	0.11809	-2.8521	-2.8521	-2.4104	-3.4667	-2.6813	-2.7625	-3.2167	-2.3	-2.9313	-3.2062	-2.4708	-3.4125	-2.9813	-2.5354	-3.2687	-2.5729	15.542	183.624	158.636	-22.751	-42.743	208.471	199.897	239.587	-50.472	162.204	220.823	50.407	260.212	240.613	79.667	237.965	7.1994e-05	0.001011	0.00024491	1010.2	1.2783e-05	4.1981e-06	853.49	370.94	8.007e-06	9.1549e-06	362.99	137.02	132.94	52.322	7.4284e-06	59.968	0.0088805	0.010779	0.0029093	1212.1	0.00012065	0.00011903	1028.1	445.03	0.000121	0.0001201	453.36	171.26	164.87	63.335	0.0001168	74.722	252.403	-42.489	85.411	-69.401	118.403	24.880	-70.097	-64.028	74.245	72.998	-65.882	-61.668	-59.700	-54.579	242.181	-57.339	-8191	255	
9900.105	1	1	0	0	0.058815	0.0698	0.39087	0.037678	0.049519	0.18321	0.1724	0.29331	0.24406	0.22252	0.45189	0.19811	0.20029	0.28013	0.083196	0.19682	-2.3958	-3.2062	-2.2958	-3.3458	-2.7604	-2.5875	-3.4667	-2.65	-2.775	-3.1896	-2.4313	-3.2833	-2.9437	-2.4979	-3.2625	-2.6	66.682	236.428	-74.720	113.131	101.887	211.075	268.209	-70.030	0.080	231.413	244.665	206.511	201.265	-61.500	172.285	215.633	0.00014797	0.00091935	0.00026367	1010.4	6.1928e-06	7.0316e-06	853.12	370.11	4.5639e-06	9.9781e-06	358.95	135.56	132.6	52.276	1.3339e-05	60.237	0.0089025	0.010893	0.0029978	1217.7	0.0001205	0.0001183	1032	445.18	0.00011876	0.00011847	453.42	170.91	164.26	63.314	0.00012098	74.863	-59.063	160.728	129.753	-68.940	126.892	5.808	-69.872	-64.246	-29.623	28.180	-66.156	-61.480	-59.490	-54.658	207.809	-56.857	-8191	255	
9900.202	1	1	0	0	0.074144	0.13325	0.20242	0.15954	0.19044	0.098711	0.33805	0.3269	0.10817	0.15126	0.33501	0.14199	0.10621	0.13903	0.12535	0.18685	-2.5958	-3.1708	-2.3042	-3.2667	-2.925	-2.4521	-3.2604	-2.7583	-2.6646	-3.3167	-2.5187	-3.15	-3.1354	-2.4688	-3.4396	-2.7979	40.413	-15.233	108.425	256.194	115.051	115.398	172.333	272.403	-50.347	-39.938	233.210	-69.500	185.654	259.158	179.510	17.685	0.00014829	0.00040193	0.00023768	1014.2	7.3771e-06	1.9676e-06	854.85	371.23	4.6395e-06	8.0181e-06	359.67	136.71	132.65	52.222	1.4006e-05	60.183	0.0088557	0.010962	0.00315	1224.5	0.00012119	0.00011986	1040	447.52	0.00011997	0.00012053	458.19	171.39	164.26	63.235	0.0001259	74.61	213.886	77.019	170.953	-68.798	53.683	93.663	-69.760	-64.039	28.784	-44.162	-65.983	-61.809	-59.955	-54.915	196.087	-57.407	-8191	255	
9900.296	1	1	0	0	0.25339	0.092094	0.061328	0.2064	0.21364	0.18654	0.19285	0.31591	0.10652	0.22896	0.17329	0.11139	0.11409	0.15745	0.12905	0.20458	-2.1854	-3.1354	-2.3896	-2.9583	-3.1688	-2.3021	-3.3187	-2.8	-2.3958	-3.3417	-2.5812	-2.9667	-3.1208	-2.6375	-3.0854	-2.8042	259.667	63.037	55.424	104.793	255.801	-64.726	168.279	170.685	169.266	98.816	243.389	200.421	238.366	-25.427	189.291	196.033	0.00017974	0.0003912	9.9138e-05	1012.1	7.9506e-06	9.333e-06	849.15	370.36	4.1743e-06	1.6825e-06	361.64	136.44	131.94	52.221	8.3845e-06	59.842	0.0086771	0.010764	0.0032262	1216.5	0.00011809	0.0001182	1041.3	444.76	0.00011721	0.00011962	460.44	170.67	163.42	63.146	0.00012801	74.444	212.718	49.806	59.005	-69.304	173.035	-44.960	-70.341	-64.363	9.065	-4.428	-66.373	-61.886	-60.333	-55.388	-12.978	-57.712	-8191	255	
9900.394	1	1	0	0	0.18424	0.074371	0.099961	0.14853	0.14848	0.32584	0.16522	0.32024	0.26147	0.064876	0.17024	0.059965	0.037905	0.26421	0.2684	0.1439	-1.9417	-3.2208	-2.3729	-2.7792	-3.2958	-2.4625	-3.1437	-3.0521	-2.3167	-3.3333	-2.4875	-2.8375	-3.3167	-2.525	-3.0458	-2.9104	-64.504	176.373	256.542	233.256	87.657	114.599	262.833	145.549	194.701	75.212	226.794	-61.752	12.762	277.454	160.984	26.691	0.00026983	0.0010743	0.00020493	1009.6	6.4475e-06	5.1583e-06	847.8	369.96	6.8578e-06	1.4289e-05	362.83	138.81	133.31	52.876	1.0341e-05	61.301	0.0084977	0.01094	0.0032974	1209.6	0.00011643	0.00012132	1041.9	443.15	0.000116	0.00012464	463.36	172.78	165.22	64.48	0.00013137	75.817	250.742	-79.256	13.034	-69.447	171.412	0.466	-70.128	-64.352	110.372	235.988	-66.397	-61.884	-60.270	-55.551	119.035	-57.725	-8191	255	
9900.488	1	1	0	0	0.19314	0.12201	0.46208	0.17689	0.053604	0.2033	0.2409	0.095919	0.13861	0.20937	0.22403	0.095558	0.13695	0.26264	0.20765	0.069951	-2.0542	-3.2833	-2.7104	-2.6375	-3.0958	-2.3875	-2.9729	-3.25	-2.3708	-3.2146	-2.6958	-2.5042	-3.3604	-2.5375	-2.8667	-3.1229	6.544	121.671	206.613	14.109	138.138	21.370	136.129	137.830	116.004	0.990	261.750	-33.267	-45.402	270.419	-45.953	-58.344	0.00017726	0.0011837	0.00023384	1001.6	6.5277e-06	1.5331e-05	845.76	370.74	7.4889e-06	2.7171e-06	364.52	138.89	134.08	53.333	1.242e-05	61.617	0.008636	0.011604	0.003384	1200.8	0.00011762	0.00012769	1041.6	443.62	0.00011626	0.00012939	464.39	173.29	166.11	65.193	0.00013022	76.007	220.336	155.020	-44.839	-69.403	-9.250	160.773	-70.131	-64.290	3.324	263.351	-66.248	-61.769	-59.912	-55.214	62.324	-57.747	-8191	255	
9900.584	1	1	0	0	0.050978	0.15041	0.2146	0.12741	0.08289	0.19236	0.21625	0.14743	0.3412	0.1012	0.12116	0.34452	0.4402	0.091558	0.28294	0.21428	-1.9896	-3.0542	-2.8083	-2.6208	-3.4042	-2.5896	-2.7604	-3.2375	-2.2896	-3.2812	-2.875	-2.4146	-3.4125	-2.4917	-2.7875	-3.2125	27.505	129.697	-24.477	45.879	4.616	205.573	171.139	132.493	-36.163	-61.905	214.448	203.971	-27.681	-22.081	32.294	199.435	0.00021937	0.00027227	0.00039241	999.6	1.3065e-05	7.6977e-06	848.92	369.42	2.5952e-06	7.347e-06	365.59	138.21	133.77	53.02	1.2027e-05	61.633	0.0086723	0.012054	0.0033533	1202	0.00012048	0.0001344	1042.9	444.15	0.00011992	0.00013642	465.8	173.01	166.55	65.383	0.00012906	76.122	216.790	-66.396	15.917	-69.508	214.226	260.493	-70.377	-64.203	39.602	17.817	-66.107	-61.799	-60.192	-55.397	65.885	-57.742	-8191	255	
9900.681	1	1	0	0	0.10784	0.14123	0.10885	0.13811	0.15486	0.018259	0.18955	0.34977	0.16491	0.23103	0.28419	0.15128	0.1602	0.22974	0.22515	0.24284	-1.9333	-3.1167	-2.6771	-2.4583	-3.2021	-2.6729	-2.8375	-3.2542	-2.4271	-3.0479	-2.9458	-2.55	-3.2271	-2.7667	-2.5854	-3.3854	264.013	137.931	174.296	218.253	102.760	65.157	160.417	205.511	274.764	216.157	215.569	215.990	215.036	251.663	177.552	197.610	0.00027223	0.00096818	0.00027708	999.6	1.1784e-05	4.234e-06	850.38	371.15	1.4661e-05	1.4933e-05	365.08	138.67	133.45	53.088	8.8323e-06	61.494	0.0090274	0.012405	0.0033187	1201	0.00012452	0.00013655	1040.2	445.01	0.00012341	0.00013542	463.79	172.68	167.06	65.297	0.00012694	75.988	211.632	235.769	29.043	-69.359	221.580	142.788	-70.092	-64.293	230.846	50.713	-66.385	-61.764	-60.234	-55.314	11.311	-57.746	-8191	255	
9900.801	1	1	0	0	0.29902	0.060313	0.10742	0.18436	0.036552	0.051047	0.13444	0.16016	0.1088	0.10968	0.19416	0.19079	0.13208	0.13425	0.17598	0.35208	-2.0833	-3.0438	-2.9542	-2.6396	-3.2313	-2.7833	-2.6688	-3.4437	-2.4562	-2.9333	-2.9396	-2.4917	-3.1583	-2.8917	-2.375	-3.4292	-8.708	275.982	-19.860	-55.665	108.119	265.858	146.324	216.092	160.236	-53.803	130.180	263.250	249.758	265.385	-56.458	213.530	0.00031926	0.0012486	2.844e-05	993.99	2.7632e-06	1.8642e-05	845.8	371.79	8.0308e-06	1.5716e-05	364.98	139.12	133.75	52.903	9.4137e-06	61.226	0.0094074	0.012492	0.0033178	1202.3	0.00013004	0.00013723	1040.5	444.96	0.00012967	0.0001354	464.1	173.05	167.55	64.792	0.0001242	75.676	241.151	-17.490	14.818	-69.372	239.775	58.115	-70.197	-64.213	254.130	30.169	-66.460	-61.830	-59.881	-55.365	44.774	-57.756	-8191	255	
9900.897	1	1	0	0	0.34487	0.3946	0.23719	0.057004	0.055765	0.10439	0.059527	0.14392	0.16791	0.13105	0.19328	0.17466	0.34781	0.17854	0.12495	0.05842	-1.9479	-2.8458	-2.975	-2.5729	-3.1896	-2.9062	-2.7542	-3.5521	-2.5583	-2.8729	-3.3667	-2.5187	-3.2292	-3.0771	-2.4146	-3.3292	24.171	-76.821	169.195	-5.468	0.716	-16.230	102.689	-72.148	219.358	-64.348	-33.690	155.286	202.149	257.051	-74.416	-52.454	0.00026807	0.0012959	0.00029911	1000.7	2.1453e-06	2.0071e-05	846.1	368.14	2.025e-06	1.1091e-05	362.72	138.77	133.14	52.635	6.1241e-06	60.557	0.0094442	0.011854	0.0031956	1198.2	0.00012948	0.00013114	1031.4	442.94	0.00013226	0.00013426	461.48	173.51	168.23	64.739	0.00013013	76.054	234.935	-22.100	-15.081	-69.398	131.347	62.252	-70.038	-64.154	116.911	2.427	-66.331	-61.787	-59.982	-55.024	95.110	-57.442	-8191	255	
9900.969	1	1	0	0	0.30557	0.23515	0.081841	0.071302	0.34586	0.18659	0.23329	0.25649	0.23702	0.12034	0.19713	0.10546	0.242	0.072156	0.16209	0.25394	-2.2229	-2.6312	-3.2604	-2.425	-3.1792	-3.0479	-2.5354	-3.3438	-2.5563	-2.6583	-3.4979	-2.4396	-3.1083	-3.0958	-2.2042	-3.3792	148.917	196.814	-11.651	271.304	113.326	14.731	205.553	216.260	109.950	141.445	263.143	204.322	-80.214	118.129	59.587	245.074	0.00019905	0.0005102	0.00033977	1000.3	8.7794e-06	5.3634e-06	846.32	368.06	8.9221e-06	1.4868e-05	360.17	137.42	132.43	52.465	4.4658e-06	60.553	0.010228	0.012523	0.0034204	1214.4	0.00013997	0.00013925	1041.1	447.07	0.00014048	0.00013958	464.02	174.94	168.75	64.89	0.00013365	76.725	220.835	-23.189	-55.725	-69.465	-30.756	67.508	-70.314	-64.103	72.710	-43.790	-66.455	-62.011	-60.223	-55.360	198.167	-57.640	-8191	255	
9901.065	1	1	0	0	0.19795	0.14947	0.16763	0.11889	0.11269	0.31546	0.26605	0.4071	0.13658	0.31317	0.18904	0.2757	0.11986	0.13902	0.18438	0.358	-2.2479	-2.5167	-3.2	-2.3833	-2.9521	-3.1063	-2.4542	-3.325	-2.7062	-2.6521	-3.2958	-2.6146	-2.8083	-3.1437	-2.1312	-3.3146	195.713	-71.040	32.527	184.967	250.779	170.782	220.265	222.278	22.775	4.568	95.598	274.502	143.413	244.204	161.177	248.085	0.00020915	0.00045133	0.00021174	999.23	4.3524e-06	1.8195e-05	849.85	368.19	1.4699e-05	1.1233e-05	362.87	137.97	132.98	52.682	6.1508e-06	61.386	0.010374	0.012646	0.0034576	1222.8	0.00013903	0.00013845	1042.2	449.14	0.00013712	0.00013534	463.46	176.01	167.75	64.633	0.00012986	77.125	228.870	214.452	39.731	-69.780	16.982	75.957	-70.473	-64.154	100.823	60.126	-66.326	-62.061	-60.370	-55.349	145.598	-57.608	-8191	255	
9901.186	1	1	0	0	0.037779	0.20665	0.089238	0.34239	0.23925	0.070256	0.11188	0.24568	0.11523	0.20904	0.35604	0.29618	0.23053	0.14006	0.077995	0.32538	-2.2792	-2.5583	-3.0917	-2.6188	-2.8521	-3.1854	-2.3937	-3.275	-2.6792	-2.5875	-3.1729	-2.5896	-2.8	-3.1479	-2.4708	-3.1292	143.739	-11.557	244.866	221.730	250.038	156.929	204.957	235.005	167.971	-43.565	231.226	266.085	113.572	203.858	109.908	188.083	0.00013354	0.00052949	0.00014917	996.85	4.3321e-06	1.0091e-05	850.04	369.78	1.0861e-05	2.1343e-06	364.35	139.65	133.54	52.786	9.0776e-06	61.744	0.0098546	0.012023	0.0033503	1216.3	0.00013091	0.00013054	1037	447.61	0.00012798	0.00012679	464.21	175.96	166.16	64.211	0.00012488	76.972	217.183	220.452	-16.821	-69.444	-17.996	96.753	-70.280	-64.231	111.462	206.459	-66.303	-62.211	-60.191	-55.330	-26.968	-57.538	-8191	255	
9901.282	1	1	0	0	0.076362	0.21545	0.17195	0.22509	0.13914	0.14063	0.17355	0.21797	0.13392	0.17792	0.3101	0.16986	0.17281	0.17046	0.1556	0.26715	-2.625	-2.2729	-3.1292	-2.5396	-2.5396	-3.1396	-2.4146	-3.1396	-2.7771	-2.3	-3.2771	-2.75	-2.5521	-3.2625	-2.5563	-3.0062	131.053	258.742	37.764	236.685	38.954	264.318	135.440	205.120	175.308	44.040	267.013	190.615	222.883	197.988	242.506	-54.887	0.00019553	0.0016347	0.00027419	987.68	7.041e-06	2.142e-05	844.78	368.89	4.6405e-06	9.0556e-06	365.94	141.38	133.35	52.969	1.0827e-05	61.934	0.0090813	0.011068	0.0032408	1200.9	0.00012132	0.0001222	1030.9	444.95	0.00012112	0.0001201	465.13	175.97	165.78	64.265	0.00012538	76.65	228.137	-53.946	32.717	-69.562	-29.286	69.522	-70.500	-64.378	78.706	8.636	-66.482	-62.110	-60.048	-55.255	222.917	-57.448	-8191	255	
9901.376	1	1	0	0	0.040468	0.0865	0.19567	0.10344	0.24776	0.24046	0.045794	0.28431	0.30716	0.33409	0.061846	0.20765	0.17504	0.35091	0.25067	0.2581	-2.525	-2.2208	-3.2083	-2.7792	-2.4437	-3.1729	-2.7042	-2.7833	-3.2854	-2.3979	-3.2292	-2.8083	-2.3792	-3.4458	-2.3833	-2.9688	232.332	-73.047	258.902	240.403	159.832	241.948	258.634	241.008	229.141	127.860	204.705	180.542	247.007	220.187	17.641	-55.380	0.00013611	0.00042956	0.00012043	986.48	8.7818e-06	4.0356e-06	842.75	367.55	4.3153e-06	6.4879e-06	366.04	140.96	134.43	53.136	1.1358e-05	62.527	0.0087022	0.010656	0.0032307	1190.1	0.00011584	0.00011819	1030.1	441.02	0.00011531	0.00011605	464.54	175.04	165.1	64.341	0.00012375	76.469	242.626	-57.869	153.628	-69.526	104.403	28.879	-70.326	-64.080	17.274	102.426	-65.907	-61.708	-60.236	-55.068	171.931	-57.129	-8191	255	
9901.474	1	1	0	0	0.22729	0.28142	0.17687	0.1337	0.10493	0.19312	0.17559	0.55294	0.246	0.16283	0.15072	0.25371	0.26214	0.23066	0.16684	0.058444	-2.7583	-2.3083	-3.1	-2.9479	-2.3167	-3.3542	-2.6271	-2.8375	-3.1688	-2.4875	-3.2167	-2.9062	-2.5604	-3.2979	-2.6604	-2.7646	122.138	214.565	211.490	109.588	115.367	1.702	276.070	245.058	35.505	-1.492	180.615	-66.875	-25.121	220.821	157.467	160.438	0.0001805	0.00081436	0.00024645	993.02	1.0169e-06	8.1793e-06	840.77	368.49	1.1676e-05	5.7276e-06	370.09	142.48	134.85	53.466	7.4745e-06	62.728	0.0083093	0.010539	0.003192	1185.6	0.00011119	0.00011824	1031.9	440.08	0.00011104	0.00011732	466.02	175.37	165.32	64.907	0.00012187	76.834	251.775	50.052	31.953	-69.552	178.737	239.207	-69.941	-64.008	63.483	181.784	-66.112	-61.871	-60.033	-55.113	85.101	-57.394	-8191	255	
9901.593	1	1	0	0	0.043164	0.19994	0.27538	0.062058	0.21428	0.088089	0.17417	0.34501	0.058747	0.18465	0.13964	0.14207	0.25364	0.1167	0.19121	0.38626	-2.8792	-2.1146	-2.975	-2.8021	-2.3542	-3.2438	-2.8021	-2.6292	-3.2979	-2.4813	-2.9875	-3.0083	-2.4917	-3.2542	-2.8312	-2.5833	60.163	85.954	162.866	138.629	3.726	181.364	231.541	214.582	27.028	24.887	-45.365	-68.811	241.104	264.468	34.201	126.069	0.00012993	0.00032567	0.00043918	989.38	8.5586e-06	8.8089e-06	845.51	370.56	5.2771e-07	7.1625e-06	369.57	141.87	135.15	53.684	7.1214e-06	62.763	0.0081075	0.010818	0.0031407	1181.8	0.0001083	0.00012038	1028.5	439.77	0.00010888	0.00012045	463.98	174.72	165.02	65.155	0.00011999	76.528	221.704	0.257	64.268	-69.520	-24.704	107.770	-69.924	-64.033	-41.412	163.925	-65.950	-61.528	-59.931	-55.017	99.929	-57.355	-8191	255	
9901.665	1	1	0	0	0.20508	0.18535	0.24086	0.13475	0.10311	0.20072	0.1551	0.19259	0.063099	0.16154	0.015104	0.38751	0.14217	0.24765	0.25701	0.19272	-2.7167	-2.5167	-2.8458	-3.2521	-2.2396	-3.0563	-2.9	-2.5938	-3.25	-2.6479	-3.025	-3.0146	-2.4167	-3.0896	-2.8937	-2.4875	81.518	194.510	21.316	-0.220	-47.331	-66.929	273.087	249.765	2.153	240.506	235.244	-71.829	223.803	-76.951	263.695	186.869	0.000197	0.00016644	0.00036425	992.24	9.8139e-06	4.1551e-06	847.87	370.84	9.1201e-06	1.4984e-06	369.91	141.94	135.16	53.823	1.3118e-05	63.535	0.008102	0.011082	0.0030758	1180.4	0.00010967	0.00012401	1026.4	439.34	0.00011191	0.00012562	464.16	175.47	166.42	65.707	0.00012026	77.106	230.254	268.624	-30.692	-69.200	142.653	158.154	-70.178	-64.055	175.527	163.585	-65.537	-61.674	-59.829	-54.666	47.749	-57.246	-8191	255	
9901.785	1	1	0	0	0.18756	0.011229	0.18137	0.27158	0.1465	0.081448	0.22009	0.08663	0.10865	0.28762	0.21249	0.15921	0.23382	0.3851	0.26387	0.41568	-2.7562	-2.425	-2.6625	-3.3042	-2.2229	-3.0354	-2.9896	-2.4062	-3.2208	-2.3063	-2.6708	-3.3146	-2.4542	-3.1688	-2.925	-2.4688	52.318	23.747	-64.031	187.957	139.480	-63.421	94.888	273.055	68.319	215.720	260.256	272.119	65.365	242.045	241.068	216.998	0.00025929	0.00061063	0.00023691	987.75	7.622e-06	5.461e-06	847.66	371.16	1.0622e-05	6.7961e-06	371.19	144.3	136.3	54.204	8.865e-06	63.526	0.0085343	0.011556	0.0030834	1178.9	0.00011567	0.00012793	1027.3	440.16	0.00011761	0.00012679	465.37	176.96	168.15	66.037	0.00011805	77.325	229.196	81.763	5.810	-69.399	209.626	127.150	-70.159	-64.118	26.356	144.157	-66.190	-61.957	-59.952	-55.237	83.877	-57.528	-8191	255	
9901.882	1	1	0	0	0.030252	0.099495	0.091008	0.17722	0.10754	0.10337	0.051568	0.28339	0.1416	0.18647	0.19592	0.12273	0.084336	0.35211	0.062506	0.12008	-2.7792	-2.6729	-2.3979	-3.5521	-2.1521	-2.8458	-3.1167	-2.4604	-3.2021	-2.6104	-2.6042	-3.1979	-2.5333	-2.9167	-3.0729	-2.4521	144.411	261.600	-71.299	190.087	172.134	208.636	50.847	169.190	251.201	-27.972	210.003	239.291	-2.550	201.390	243.998	38.140	0.00029038	0.00014013	0.00029926	988.31	3.8002e-06	8.0905e-06	850.22	370.58	2.7067e-06	2.8662e-06	370.49	143.03	135.56	54.092	7.8548e-06	63.429	0.0087595	0.011346	0.0030236	1176.7	0.00011801	0.0001241	1026.1	439.63	0.00011906	0.00012258	462.1	175.73	167.68	65.511	0.00011356	76.874	221.128	57.313	19.628	-69.359	33.241	68.417	-70.200	-64.337	-15.572	267.292	-66.242	-61.813	-60.330	-55.305	75.454	-57.470	-8191	255	
9901.978	1	1	0	0	0.06395	0.079351	0.12265	0.10345	0.27262	0.21421	0.15187	0.2607	0.03649	0.12643	0.34783	0.076502	0.12747	0.15365	0.17686	0.27561	-2.6833	-2.825	-2.3792	-3.2313	-2.2396	-2.7042	-3.0312	-2.3333	-3.1458	-2.8521	-2.4604	-3.2104	-2.6125	-2.7708	-3.05	-2.6042	274.486	-3.762	272.772	194.098	74.032	-43.455	-48.126	236.160	143.235	227.321	176.064	256.627	-13.927	186.929	43.368	170.901	0.00025224	0.0013711	0.00059665	992.3	3.4364e-06	7.5663e-06	845.31	368.7	9.667e-06	5.15e-06	369.97	141.17	135.61	53.655	1.1511e-05	62.604	0.0087796	0.010853	0.0028971	1180.3	0.00011894	0.00011912	1020.3	438.11	0.00011878	0.00011815	458.04	174.13	167.09	64.679	0.00011122	76.36	219.569	-10.338	5.127	-69.500	77.194	79.431	-70.001	-64.129	180.820	80.820	-66.221	-61.995	-60.368	-55.186	68.961	-57.438	-8191	255	
9902.074	1	1	0	0	0.26577	0.095691	0.19458	0.15334	0.28223	0.16322	0.12764	0.25096	0.028474	0.034233	0.18735	0.33002	0.070096	0.15188	0.1915	0.087261	-2.6146	-2.9708	-2.4458	-3.3438	-2.4583	-2.525	-3.5021	-2.3	-2.925	-2.7958	-2.4729	-3.1583	-2.5792	-2.7583	-3.175	-2.4958	-0.928	10.686	20.735	214.263	189.084	51.574	-27.484	182.228	40.167	22.022	-69.180	-81.950	94.666	-67.224	86.715	274.797	0.00030823	0.00080272	0.00011607	992.64	1.6347e-06	8.3503e-06	847.35	368.64	1.0927e-05	4.2686e-06	366.54	142.05	135.85	54.06	3.1632e-06	63.08	0.00879	0.010634	0.0028471	1184.8	0.00011899	0.00011664	1017.8	439.74	0.00011864	0.00011739	456.05	175.97	167.61	65.056	0.00011199	77.153	226.923	-7.321	104.659	-69.339	9.587	199.005	-69.838	-64.134	102.618	61.330	-66.084	-61.807	-59.987	-55.330	153.163	-57.577	-8191	255	
9902.195	1	1	0	0	0.17608	0.19697	0.34869	0.067827	0.091864	0.1805	0.23737	0.016251	0.18572	0.29042	0.3149	0.16976	0.26964	0.103	0.092644	0.1634	-2.6354	-2.75	-2.0917	-3.2271	-2.6708	-2.3354	-3.3563	-2.4708	-2.8396	-2.9917	-2.4771	-3.2458	-2.7313	-2.4917	-3.1	-2.6521	44.120	247.715	269.349	226.818	69.616	187.109	203.755	270.319	195.309	236.287	259.521	214.465	252.213	233.497	124.941	-32.718	0.00012499	0.00081433	0.00015653	993.49	2.012e-06	1.9255e-05	844.1	370.34	4.6038e-06	7.365e-06	369.09	142.5	136.05	54.026	1.4831e-06	62.832	0.0087781	0.01074	0.0029033	1192.6	0.0001198	0.00011769	1020.9	443.72	0.00011953	0.00011871	460.18	177.57	167.97	65.203	0.00011695	77.812	233.904	4.977	-41.921	-69.195	133.565	65.608	-70.068	-64.112	46.453	146.320	-66.253	-61.851	-60.106	-55.061	38.890	-57.443	-8191	255	
9902.266	1	1	0	0	0.063333	0.15298	0.21081	0.3807	0.30121	0.088179	0.024993	0.35939	0.23226	0.034564	0.25685	0.1286	0.17676	0.13657	0.18075	0.31286	-2.4521	-3.1646	-2.5125	-3.05	-2.8458	-2.3271	-3.1917	-2.7354	-2.7271	-3.3583	-2.3292	-2.9854	-2.975	-2.4375	-3.2667	-2.4813	1.875	163.812	69.383	200.340	151.208	257.790	244.827	246.039	97.342	43.412	-72.571	256.295	-81.448	-52.320	215.794	-75.663	0.00021643	0.00044277	5.7004e-05	992.18	1.2324e-05	1.2609e-05	846.19	368.43	4.5345e-06	8.9373e-06	369.09	142.59	135.11	53.78	5.5005e-06	63.271	0.0088031	0.010905	0.0030478	1199.7	0.00012255	0.00012242	1032.7	446.82	0.0001259	0.00012815	468.88	180.18	169.45	65.817	0.00013512	79.317	258.797	107.796	-24.069	-69.389	63.208	75.306	-70.081	-63.974	123.492	15.619	-65.933	-61.968	-60.050	-54.898	251.738	-57.614	-8191	255	
9902.362	1	1	0	0	0.20609	0.21998	0.17184	0.18545	0.12699	0.30044	0.036234	0.23099	0.25709	0.20988	0.24397	0.089356	0.15316	0.10226	0.11416	0.17929	-2.1333	-3.0917	-2.2979	-3.125	-2.9604	-2.2583	-3.3333	-2.625	-2.5125	-3.2125	-2.2771	-3.0042	-3.1333	-2.5875	-3.0458	-2.6583	-73.376	43.913	51.082	109.680	94.740	264.504	122.203	-43.375	112.199	186.823	275.741	191.348	203.881	211.413	-68.105	139.857	0.00014755	0.00096456	0.00015769	988.96	6.8668e-06	1.1704e-05	846.58	369.44	3.0527e-06	5.591e-06	368.74	143.07	136.27	54.54	9.2814e-06	63.529	0.0097931	0.012214	0.0035456	1214.9	0.00013322	0.00013267	1048.8	449.62	0.00013088	0.00013155	473.75	180.97	170.58	66.402	0.0001387	79.486	246.732	135.552	121.756	-69.229	273.600	68.296	-69.962	-64.078	78.446	228.981	-66.202	-61.731	-60.114	-55.025	-54.789	-57.568	-8191	255	
9902.481	1	1	0	0	0.24913	0.18754	0.18228	0.25505	0.31501	0.074297	0.050629	0.18652	0.10585	0.11593	0.10989	0.24233	0.3394	0.11259	0.1237	0.31658	-2.3563	-3.0229	-2.2917	-2.8937	-3.1042	-2.3688	-3.1792	-2.6917	-2.1146	-3.125	-2.6125	-2.6354	-3.0083	-2.2687	-3.2	-2.9646	69.005	73.138	-13.477	258.346	96.594	258.446	-72.031	196.438	135.680	175.617	137.058	210.345	-78.605	89.422	29.228	161.415	1.9333e-05	0.001077	0.00022282	984.03	3.2283e-06	2.2569e-06	843.06	369.91	6.5779e-06	1.0322e-05	368.69	144.34	137.15	54.863	8.6586e-06	63.956	0.0095437	0.011958	0.0035947	1202.5	0.00013015	0.00013136	1050.1	449.31	0.00012884	0.00013384	478.26	181.5	171.41	67.033	0.00014183	79.786	-62.506	180.805	37.382	-69.200	233.857	72.139	-70.111	-64.039	129.415	222.109	-66.057	-61.629	-59.866	-55.069	244.068	-57.698	-8191	255	
9902.577	1	1	0	0	0.097538	0.15182	0.1441	0.19022	0.067611	0.058578	0.24682	0.13931	0.22958	0.054435	0.29858	0.1215	0.20425	0.062514	0.079842	0.24957	-1.9729	-3.2479	-2.4562	-2.9167	-2.9792	-2.1667	-3.3937	-2.9625	-2.2313	-3.3333	-2.6583	-2.6854	-3.225	-2.5312	-3.0521	-3.1146	4.803	65.792	271.881	250.298	0.033	229.885	-57.997	182.509	277.919	143.544	30.700	112.918	180.893	-63.802	264.931	189.956	0.00018824	0.0015243	0.00028372	990.97	1.1986e-05	5.8291e-06	850.18	371.54	1.254e-05	7.3127e-06	371.88	144.7	137.71	54.916	1.1255e-05	64.388	0.0094203	0.012275	0.0036552	1203.8	0.00012884	0.00013599	1057	449.8	0.00012753	0.00013869	480.3	181.81	171.48	67.553	0.00014266	80.014	217.397	70.271	15.473	-69.193	79.012	160.576	-69.606	-63.747	105.069	-63.176	-65.885	-61.339	-59.796	-54.803	70.961	-57.271	-8191	255	
9902.674	1	1	0	0	0.23634	0.24041	0.12481	0.1756	0.30008	0.12213	0.24191	0.14583	0.08908	0.174	0.046041	0.045584	0.28186	0.22485	0.1021	0.28744	-2.0875	-3.1562	-2.4938	-2.7	-3.2667	-2.4354	-2.9875	-3.0833	-2.3937	-3.2521	-2.8125	-2.5229	-3.2833	-2.8292	-2.9042	-3.2146	-65.605	44.940	190.861	-47.113	226.142	166.630	189.065	128.251	-69.980	15.818	207.885	76.083	254.200	-23.590	-73.989	148.097	0.00013955	0.0014285	0.00059605	988	4.3825e-06	4.7185e-06	850.19	370.39	3.818e-06	1.7751e-05	370.17	144.34	136.07	54.214	1.8995e-05	63.61	0.0093659	0.012794	0.003665	1203.9	0.00012817	0.00014051	1055	448.96	0.0001268	0.0001422	477.81	181.02	170.84	67.462	0.00013746	79.274	253.012	121.422	-39.597	-68.786	99.995	169.525	-69.479	-63.535	239.987	27.599	-65.623	-61.617	-59.867	-55.006	87.894	-57.495	-8191	255	
9902.770	1	1	0	0	0.091238	0.30912	0.18387	0.17906	0.1102	0.060901	0.12971	0.11851	0.19158	0.074672	0.20465	0.045903	0.08427	0.26885	0.25367	0.087148	-1.9813	-3.0771	-2.8167	-2.4688	-3.1729	-2.3792	-2.8229	-3.0271	-2.3542	-3.1583	-2.9604	-2.4313	-3.3646	-2.5396	-2.8063	-3.15	92.508	183.947	-40.408	54.569	103.200	-10.221	267.947	-70.119	138.368	144.243	233.682	197.616	236.414	3.704	-66.647	167.241	0.00026508	0.0012749	9.5609e-05	979.37	2.3586e-06	1.3872e-05	840.63	367.37	1.5169e-06	9.4193e-06	367.09	141.81	135.09	54.06	1.1244e-05	63.072	0.0092843	0.012919	0.0035296	1197.4	0.00012816	0.00014243	1046	446.09	0.00012754	0.00014336	472.97	178.64	170.18	67.138	0.00013382	78.571	218.868	151.188	164.802	-68.920	37.869	109.102	-69.880	-63.830	113.572	96.770	-66.246	-62.065	-60.023	-55.300	78.777	-57.420	-8191	255	
9902.866	1	1	0	0	0.29218	0.22961	0.019921	0.36306	0.055538	0.045661	0.10987	0.037859	0.062794	0.1004	0.16772	0.1635	0.011476	0.29687	0.19614	0.32261	-1.9479	-3.0479	-2.6937	-2.5	-3.1146	-2.7292	-2.5563	-3.1896	-2.3208	-2.9646	-3.2146	-2.375	-3.4833	-2.7021	-2.6771	-3.4104	267.383	273.809	135.167	-60.654	140.947	-62.330	114.009	189.749	87.029	-13.490	-21.001	252.743	118.064	-25.612	250.532	233.639	0.00030559	0.00034832	0.00025856	978.8	8.0941e-06	1.3122e-05	840.61	367.66	5.2316e-06	4.8815e-06	364.49	141.91	135.29	54.221	1.3289e-06	63.244	0.0094729	0.012892	0.00344	1194.2	0.00013019	0.0001415	1042.1	445.18	0.00012976	0.000141	469.56	177.92	170.82	67.013	0.00013034	78.366	242.626	111.320	67.030	-69.022	224.348	76.591	-70.016	-63.955	125.660	4.897	-65.951	-61.655	-59.780	-55.119	-14.590	-57.136	-8191	255	
9902.960	1	1	0	0	0.26443	0.26123	0.23307	0.10228	0.12471	0.1443	0.26625	0.1281	0.11331	0.022943	0.14753	0.25178	0.21833	0.11124	0.10351	0.15649	-1.9021	-2.8604	-2.8479	-2.3063	-3.3167	-2.8146	-2.475	-3.425	-2.3229	-3.1	-3.1958	-2.3729	-3.4521	-2.8333	-2.5167	-3.4417	271.895	142.778	-60.948	219.282	167.378	70.884	214.616	216.877	196.591	67.568	-42.760	-36.625	232.017	-56.748	39.701	-24.944	0.00029997	0.0018898	0.00040787	986.7	7.2472e-06	1.0788e-05	843.46	368.54	2.3364e-06	1.2826e-05	366.86	142.83	135.79	54.433	7.5184e-06	63.13	0.0097709	0.01272	0.0033896	1194.8	0.00013497	0.00014	1042.4	445.61	0.00013486	0.00013893	470.05	178.52	171.86	66.961	0.00013009	78.806	225.080	-54.884	4.813	-69.085	246.115	97.633	-69.739	-63.663	-54.761	20.605	-65.656	-61.391	-59.631	-54.897	68.898	-57.304	-8191	255	
9903.056	1	1	0	0	0.25238	0.15227	0.19947	0.1686	0.12674	0.20009	0.17497	0.18684	0.15994	0.052657	0.039519	0.32293	0.33239	0.12072	0.020314	0.27294	-2.0167	-2.8542	-3.1854	-2.4333	-3.1667	-2.6354	-2.6937	-3.4167	-2.3646	-2.9333	-3.1979	-2.4208	-3.2167	-2.9771	-2.4813	-3.3042	131.134	-67.910	133.958	-47.114	-67.411	53.538	243.324	265.818	-64.566	264.250	-13.371	-33.037	253.659	228.002	-22.197	173.824	0.00024782	0.00095149	0.00056326	987.06	3.4167e-06	1.0754e-05	844.64	368.61	1.2054e-05	7.67e-06	368.73	142.42	135.88	54.284	1.0145e-05	63.152	0.010036	0.012476	0.0033582	1201.2	0.00013857	0.0001377	1041	447.09	0.00013807	0.0001375	470.02	179.51	172.26	66.812	0.00012832	79.137	224.407	2.623	19.441	-69.288	221.193	30.023	-69.827	-63.892	46.936	25.862	-66.029	-61.477	-59.601	-55.119	107.465	-57.269	-8191	255	
9903.153	1	1	0	0	0.21893	0.22936	0.26628	0.055818	0.033587	0.075617	0.25062	0.073892	0.22957	0.3165	0.15492	0.068996	0.34292	0.092145	0.077424	0.12077	-2.1312	-2.4813	-3.1125	-2.2687	-2.9833	-2.7938	-2.3937	-3.3667	-2.6625	-2.5333	-3.3375	-2.6604	-2.8958	-2.9875	-2.3125	-3.2896	-3.526	241.031	39.633	-74.014	-13.990	-77.595	42.850	156.585	18.468	-74.710	245.758	-37.451	-65.609	128.782	108.220	-74.557	0.00027891	0.00095696	0.00026656	984.9	7.8222e-06	1.5054e-05	839.88	367.83	7.8959e-06	1.1333e-06	367.28	141.98	135.81	54.171	2.6161e-06	63.172	0.010118	0.012268	0.003329	1202.8	0.00013691	0.00013477	1034.6	447.75	0.00013523	0.00013292	466.57	179.81	171.58	66.491	0.00012616	79.267	217.891	-28.298	-23.881	-69.164	67.069	51.154	-69.611	-63.750	98.288	177.218	-65.746	-61.289	-59.529	-54.833	-40.466	-56.874	-8191	255	
9903.273	1	1	0	0	0.21951	0.090208	0.19976	0.24619	0.071531	0.075347	0.21737	0.1388	0.05124	0.16637	0.19819	0.12313	0.16739	0.19436	0.07748	0.29567	-2.3438	-2.4708	-3.1521	-2.7042	-2.7812	-3.0104	-2.6521	-3.2792	-2.7208	-2.5625	-3.3271	-2.4958	-2.8438	-3.3312	-2.2188	-3.2062	205.477	242.765	82.903	229.645	49.318	32.667	-80.580	271.218	1.698	239.931	-76.893	215.977	255.416	205.135	12.175	224.051	9.7337e-05	0.0008888	9.1168e-05	983.96	4.5613e-06	2.6778e-05	842.7	367.29	6.6858e-06	1.251e-05	365.12	141.99	136.22	54.043	3.4301e-06	63.736	0.0098908	0.01206	0.0033158	1208.8	0.00013421	0.00013369	1037.3	449.3	0.00013284	0.00013154	467.54	180.68	171.21	66.555	0.00012917	79.751	211.065	-22.381	230.072	-69.121	-13.407	59.601	-69.693	-63.648	85.120	38.930	-65.508	-61.433	-59.477	-54.875	122.681	-56.986	-8191	255	
9903.369	1	1	0	0	0.13335	0.1896	0.13265	0.016228	0.18589	0.22659	0.29071	0.37037	0.15709	0.15606	0.029474	0.31783	0.10186	0.45364	0.38918	0.17913	-2.6458	-2.4146	-3.3229	-2.6063	-2.8042	-3.0667	-2.3167	-3.2521	-2.8604	-2.2896	-3.3771	-2.4521	-2.7208	-3.3646	-2.2104	-3.0771	65.998	244.004	107.111	105.273	190.508	209.467	256.287	234.312	-59.354	3.254	264.798	209.942	34.051	263.773	191.345	221.367	0.00010266	0.0017662	0.0003487	987.83	9.5675e-06	1.4972e-05	840.04	367.54	1.055e-05	9.3845e-06	366.48	143.26	136.31	54.477	4.5347e-06	63.788	0.0097516	0.011887	0.0033838	1212.5	0.00013234	0.00013265	1043.3	451.52	0.00013258	0.00013174	472.66	182.06	171.32	66.731	0.00013446	80.099	255.292	-32.890	106.727	-69.020	107.318	63.951	-69.878	-63.619	25.097	130.302	-65.781	-61.715	-59.797	-54.866	237.260	-57.391	-8191	255	
9903.465	1	1	0	0	0.15261	0.21093	0.10545	0.097396	0.068053	0.22596	0.19116	0.17142	0.12955	0.17162	0.3985	0.14066	0.098973	0.11295	0.26219	0.23304	-2.7062	-2.1354	-3.2438	-2.6583	-2.5042	-3.0521	-2.4958	-2.8917	-2.9437	-2.5396	-3.2812	-2.7562	-2.6667	-3.2812	-2.4396	-3.0167	251.413	-6.707	230.377	118.165	275.575	172.625	205.596	200.881	99.781	149.293	196.512	220.595	241.979	173.397	221.588	259.778	0.00017061	0.001044	0.00019339	988.53	3.7457e-06	1.7487e-05	846.5	369.63	5.3811e-06	3.6829e-06	367.4	142.6	136.28	54.144	1.3235e-05	63.406	0.0096919	0.011843	0.0035327	1213.1	0.0001306	0.00013277	1050.7	450.68	0.00013129	0.00013106	474.03	180.49	170.07	66.41	0.00013901	79.259	235.014	39.148	262.685	-68.956	147.996	85.165	-69.371	-63.480	36.898	62.536	-65.654	-61.613	-59.772	-54.922	135.486	-57.024	-8191	255	
9903.562	1	1	0	0	0.22273	0.11371	0.13513	0.36406	0.022325	0.069271	0.28337	0.40123	0.10887	0.058843	0.13072	0.2607	0.30518	0.17471	0.31019	0.17481	-2.8125	-2.4	-3.0708	-2.8542	-2.4646	-3.1333	-2.5708	-3.1479	-2.9958	-2.2833	-3.3	-2.7333	-2.4521	-3.2729	-2.3521	-2.8875	-55.204	-74.138	211.266	216.059	129.489	-14.140	238.073	243.416	82.058	233.196	227.688	242.089	205.748	156.715	51.713	278.454	7.9393e-05	0.00044829	5.2646e-05	992.47	3.7154e-06	1.1393e-05	844.61	367.25	1.1367e-05	5.0087e-06	363.43	141.65	135.13	53.954	8.7818e-06	63.107	0.0096043	0.0119	0.0036262	1211.3	0.00012959	0.00013355	1051.6	448.15	0.00013039	0.00013432	474.78	179.52	169.53	66.555	0.00014307	78.751	249.002	5.449	129.135	-68.984	96.699	146.347	-69.655	-63.514	49.017	253.384	-65.438	-61.465	-59.455	-54.590	-28.429	-56.952	-8191	255	
9903.658	1	1	0	0	0.14842	0.24433	0.16481	0.27357	0.23367	0.25336	0.26588	0.24088	0.090637	0.2063	0.18854	0.13685	0.27223	0.081448	0.16739	0.24416	-2.85	-2.3083	-2.7875	-2.9479	-2.3688	-3.1021	-2.5625	-2.6667	-3.2833	-2.3563	-3.1083	-2.9979	-2.4917	-3.3896	-2.5771	-2.8458	-73.939	271.733	-15.740	-29.720	-71.022	37.290	144.115	244.582	187.396	109.046	-34.186	141.348	211.159	246.554	33.857	171.564	0.00011172	0.00027555	0.00032544	993.72	6.9695e-06	4.6379e-07	841.97	368.13	1.1375e-05	1.3434e-05	363.07	140.39	135.18	53.696	1.6117e-05	62.542	0.009558	0.012334	0.0036942	1210.3	0.00012885	0.00013826	1052.5	446.95	0.00012917	0.00013783	473.5	178.34	168.88	66.521	0.00014263	78.417	-75.858	184.827	-37.369	-68.869	17.548	-29.089	-69.535	-63.555	247.211	217.851	-65.557	-61.550	-59.599	-54.885	7.971	-57.132	-8191	255	
9903.754	1	1	0	0	0.31558	0.1233	0.19109	0.20249	0.10222	0.14744	0.089951	0.22878	0.15436	0.17581	0.30306	0.23169	0.10068	0.091084	0.15012	0.1667	-2.8833	-2.4042	-2.7604	-3.0833	-2.2521	-3.2417	-2.6333	-2.5187	-3.3312	-2.3271	-2.9417	-3.2229	-2.2625	-3.3042	-2.6542	-2.4167	-62.358	21.133	-34.649	-63.198	176.130	-44.441	150.107	268.321	156.536	-47.825	230.012	-66.253	57.900	19.110	57.982	176.658	9.1796e-05	0.00031198	0.0005338	988.52	5.2357e-06	8.0218e-06	842.26	366.92	4.6256e-06	7.3447e-06	363.74	140.74	133.92	53.431	4.0324e-06	62.478	0.0095039	0.012818	0.0036722	1208.9	0.00012778	0.00014288	1051.8	446.16	0.00012878	0.00014248	471.67	177.73	168.34	66.647	0.0001395	78.219	219.599	56.630	-11.503	-68.535	236.529	219.293	-69.592	-63.303	123.122	-77.075	-65.257	-61.135	-59.045	-54.037	82.978	-56.660	-8191	255	
9903.873	1	1	0	0	0.27652	0.10206	0.24018	0.042738	0.34541	0.080242	0.25572	0.24763	0.27598	0.2042	0.25693	0.016972	0.27727	0.21253	0.10723	0.17226	-2.8104	-2.5771	-2.725	-3.3042	-2.3833	-2.9562	-2.7604	-2.5354	-3.3833	-2.3875	-2.6896	-3.3125	-2.4354	-3.0083	-2.7396	-2.5417	213.200	-1.240	238.192	-80.498	154.875	236.980	123.062	193.748	151.480	225.995	232.892	154.028	-50.299	-59.333	212.616	-3.504	0.0001748	0.0005717	0.00048372	985.86	1.9182e-06	1.8409e-05	845.15	365.37	7.8597e-06	5.0102e-06	361.5	140.39	133.75	53.763	1.9117e-06	62.729	0.0095636	0.013093	0.0035909	1206.3	0.00013093	0.00014668	1048.9	444.88	0.00013246	0.00014602	470.22	177.8	169.59	67.015	0.00014035	78.399	244.810	225.869	33.537	-68.804	-51.983	90.641	-69.042	-63.392	113.028	233.011	-65.633	-61.398	-59.543	-54.790	-78.098	-56.843	-8191	255	
9903.969	1	1	0	0	0.36888	0.18138	0.091133	0.13018	0.22453	0.23566	0.19999	0.21001	0.16275	0.27077	0.15126	0.2465	0.071837	0.28634	0.23184	0.11144	-3.0208	-2.4	-2.7188	-3.15	-2.1875	-3.075	-3.0104	-2.3021	-3.3625	-2.5667	-2.625	-3.1833	-2.4458	-3.0292	-2.7917	-2.4542	235.638	-80.972	77.313	-74.580	142.844	-16.349	248.721	20.917	26.546	31.205	135.904	237.724	16.292	272.437	-73.516	179.178	0.0003121	0.00074748	0.00035942	986.38	9.1871e-06	8.4116e-06	843.13	366.87	7.7639e-06	5.2059e-06	363.72	140.13	134.28	53.89	7.776e-06	62.456	0.010175	0.013643	0.0036172	1208	0.00013856	0.00014973	1049.8	445.86	0.00013856	0.000147	469.74	177.46	170.33	66.676	0.00013526	77.767	233.229	240.598	29.525	-68.851	188.441	82.211	-69.349	-63.442	74.526	41.157	-65.684	-61.353	-59.327	-54.668	92.570	-56.871	-8191	255	
9904.065	1	1	0	0	0.17276	0.16536	0.29336	0.32943	0.083921	0.21298	0.16356	0.13525	0.052006	0.15038	0.11474	0.37498	0.18858	0.16554	0.22319	0.060891	-2.6958	-2.5125	-2.5479	-3.3396	-2.1521	-2.9146	-3.1375	-2.5667	-3.1604	-2.5958	-2.4229	-3.3312	-2.5021	-2.9167	-2.8896	-2.2646	219.054	-4.923	-36.795	275.690	168.219	228.759	-53.502	232.823	169.513	224.583	-57.723	276.828	267.605	247.302	135.054	207.154	0.00035039	0.00089902	0.00026269	987.02	3.4738e-06	9.1854e-06	840.77	365.9	8.0857e-06	1.6089e-05	362.96	140.61	133.85	53.4	4.2058e-06	62.169	0.010118	0.012945	0.0034277	1200.1	0.00013588	0.0001395	1038.2	442.9	0.00013505	0.00013711	464.05	176.49	169.35	66.009	0.00012711	77.494	241.055	92.055	-22.609	-68.678	258.971	68.454	-69.430	-63.206	38.817	67.073	-65.213	-61.180	-59.668	-54.548	-2.437	-56.710	-8191	255	
9904.137	1	1	0	0	0.34527	0.13324	0.13473	0.083289	0.086994	0.21404	0.17739	0.19286	0.26647	0.14127	0.20488	0.45292	0.08889	0.29	0.073479	0.14579	-2.6688	-2.7896	-2.375	-3.4813	-2.3958	-2.5812	-3.2417	-2.5083	-2.8875	-2.8125	-2.4458	-3.2208	-2.4896	-2.7479	-3.1646	-2.5438	-63.650	165.963	-34.135	148.260	71.533	-68.541	235.020	244.189	262.066	155.359	251.968	200.470	242.619	-42.384	27.369	-79.102	0.0001562	0.00087223	0.00059655	983.66	7.136e-06	5.141e-06	838.05	364	5.0961e-06	5.2819e-06	363.82	140.73	134.28	53.566	9.3877e-06	62.722	0.0098393	0.012104	0.0032329	1195.6	0.00013307	0.00013252	1032.4	441.9	0.00013231	0.00013119	461.77	177.24	169.74	65.757	0.00012308	78.027	259.563	31.903	-2.439	-69.224	133.389	-44.083	-70.009	-64.009	64.515	56.877	-65.900	-61.526	-60.035	-54.925	31.697	-57.307	-8191	255	
9904.257	1	1	0	0	0.20467	0.15939	0.27218	0.2155	0.059988	0.075992	0.21757	0.15486	0.20122	0.21798	0.34794	0.22341	0.11242	0.31378	0.17635	0.10881	-2.8271	-2.9333	-2.1271	-3.375	-2.6146	-2.6813	-3.4917	-2.4208	-2.9771	-2.9688	-2.3438	-3.3146	-2.6521	-2.4854	-3.1271	-2.7104	76.608	206.291	14.913	265.484	-74.442	243.639	106.688	210.470	-15.694	31.565	251.994	206.734	-71.894	-55.804	-20.106	261.936	0.00016266	0.0018175	0.00040669	988.33	4.055e-06	7.4742e-06	841.73	366.12	4.2049e-06	1.0303e-05	365.51	141.35	134.28	53.62	9.0528e-06	62.388	0.0097136	0.011714	0.003134	1198.4	0.00013018	0.00012781	1029.7	443.67	0.00012939	0.00012732	459.6	177.64	168.81	65.562	0.0001219	77.984	239.637	-55.652	-7.319	-69.097	-28.378	70.505	-69.783	-63.687	67.671	123.107	-65.480	-61.063	-59.709	-54.991	180.970	-56.985	-8191	255	
9904.354	1	1	0	0	0.12334	0.26978	0.22385	0.22714	0.11042	0.14918	0.17757	0.23918	0.17964	0.23414	0.054858	0.33523	0.14347	0.2357	0.14022	0.1114	-2.5042	-3.025	-2.4125	-3.2979	-2.525	-2.475	-3.35	-2.4313	-2.8187	-3.1937	-2.3167	-3.2583	-2.8354	-2.4271	-3.3396	-2.3563	1.503	9.393	227.343	197.046	-68.243	89.693	89.359	218.067	15.979	151.330	206.670	-62.882	-81.100	231.610	104.926	150.985	0.0001225	0.00020713	0.00012572	984.93	1.2715e-05	4.8668e-06	844.77	366.95	5.3674e-06	1.1243e-05	365.26	141.63	135.52	53.972	4.8482e-06	63.119	0.0094471	0.011545	0.0031164	1201.1	0.00012705	0.0001254	1028.1	445.22	0.0001265	0.00012651	461.06	178.55	168.84	65.676	0.00012414	78.508	216.854	100.602	-37.891	-69.027	146.566	21.806	-69.822	-63.887	96.403	133.500	-65.737	-61.518	-59.948	-54.903	261.633	-57.398	-8191	255	
9904.450	1	1	0	0	0.36236	0.28022	0.095439	0.25507	0.19539	0.15874	0.30656	0.15868	0.11166	0.20755	0.50032	0.18092	0.30599	0.23016	0.087505	0.18112	-2.2354	-3.1271	-2.2833	-3.1937	-2.7833	-2.6958	-3.3812	-2.4958	-2.5646	-3.3479	-2.5375	-3.1063	-2.8583	-2.5833	-3.3063	-2.8146	217.733	-36.038	-15.038	268.899	101.311	-5.972	221.262	253.100	37.126	206.106	155.867	275.303	238.432	267.954	210.849	249.232	9.6945e-05	0.0012005	0.00016512	991.54	1.2216e-05	3.0856e-06	844.94	368.83	5.0833e-06	1.1462e-05	364.06	142.38	135.89	54.098	3.8047e-06	63.291	0.0092508	0.011417	0.0031952	1205	0.0001266	0.00012503	1035.2	445.85	0.00012521	0.00012625	465.11	179.55	169.19	65.833	0.00012943	78.874	264.828	-14.738	137.012	-68.889	12.708	-8.106	-69.853	-63.697	120.591	20.420	-65.813	-61.126	-59.429	-54.454	261.388	-56.825	-8191	255	
9904.546	1	1	0	0	0.25825	0.20281	0.35153	0.23964	0.091656	0.31918	0.29001	0.15316	0.074717	0.17242	0.047557	0.088918	0.093358	0.15436	0.2369	0.12742	-2.2792	-2.9292	-2.1333	-3.0792	-2.8812	-2.4604	-3.3438	-2.5604	-2.3583	-3.4375	-2.2438	-2.8375	-3.0792	-2.5146	-3.2229	-2.725	129.502	233.527	5.332	-48.786	46.946	-54.359	229.717	-10.347	-53.320	54.301	108.055	158.592	-22.625	-76.538	-26.970	249.170	0.00020112	0.00028937	0.00013291	989.68	5.3129e-06	9.134e-06	848.55	368.75	3.7633e-06	8.8467e-06	367.61	142.53	135.86	54.195	1.8275e-06	63.401	0.0091546	0.011377	0.003353	1202.9	0.00012463	0.00012435	1042.9	446.15	0.00012395	0.00012512	469.39	179.28	168.97	65.941	0.00013386	78.96	262.014	-17.176	77.429	-68.763	50.907	-76.539	-69.547	-63.633	126.358	-19.923	-65.600	-61.059	-59.612	-54.568	-42.355	-57.159	-8191	255	
9904.665	1	1	0	0	0.096873	0.11678	0.11867	0.08657	0.084268	0.11585	0.028846	0.069728	0.22333	0.021638	0.23777	0.19894	0.14445	0.049894	0.039216	0.12352	-2.0917	-3.1937	-2.3021	-2.9479	-3.1208	-2.3521	-3.1542	-2.95	-2.3958	-3.4125	-2.4958	-2.8292	-3.2208	-2.4417	-3.0625	-2.9396	-32.302	-35.961	234.866	-76.904	256.907	37.890	120.666	237.556	154.700	205.965	-68.305	231.323	225.860	-19.900	-1.719	-32.918	0.00024709	0.00020994	0.00037122	991.47	9.0265e-06	1.0396e-05	844.92	366.78	5.8181e-06	6.8703e-06	365.91	141.92	135.76	54.072	5.0105e-06	63.247	0.009069	0.011455	0.0034642	1203.3	0.00012452	0.00012678	1047.3	444.91	0.00012369	0.00012974	471.55	178.76	169.38	66.213	0.00013844	78.721	224.546	-53.548	-5.223	-68.880	113.671	14.085	-69.764	-63.748	31.980	130.737	-65.877	-61.476	-59.599	-54.845	143.693	-57.240	-8191	255	
9904.761	1	1	0	0	0.14412	0.27841	0.24792	0.25153	0.30272	0.072926	0.19501	0.113	0.14239	0.29684	0.39169	0.19473	0.13487	0.053763	0.12268	0.1026	-1.9542	-3.1729	-2.3542	-2.8958	-2.9208	-2.1813	-3.225	-2.8646	-2.4208	-3.2625	-2.3917	-2.575	-3.4292	-2.5229	-2.8708	-3.0812	119.574	67.591	219.571	-47.015	125.013	39.803	-52.757	-47.916	254.012	48.524	-78.228	226.514	-81.179	184.790	197.567	223.009	0.00019352	0.00065269	0.0002081	989.65	8.0826e-06	9.6508e-06	841.87	367.3	7.7673e-06	3.8892e-06	366.64	142.37	135.56	54.034	1.0423e-05	63.471	0.0091562	0.012117	0.0035711	1201.5	0.00012588	0.00013415	1048.5	445.94	0.00012489	0.00013697	473.75	179.33	169.69	66.753	0.0001383	78.924	210.196	154.509	64.858	-69.147	69.377	225.183	-69.982	-63.848	59.136	171.996	-66.135	-61.511	-59.976	-55.003	39.114	-57.681	-8191	255	
9904.834	1	1	0	0	0.40377	0.14333	0.11899	0.13618	0.17513	0.066093	0.25742	0.073	0.12445	0.14539	0.18456	0.30214	0.15266	0.11891	0.33373	0.122	-1.9292	-3.1271	-2.5417	-2.6792	-3.3292	-2.1958	-2.8729	-3.3271	-2.3438	-3.2667	-2.7479	-2.3896	-3.4583	-2.5167	-2.7646	-3.2208	-37.780	163.812	64.975	-61.976	213.316	77.133	-73.024	204.880	-74.540	110.871	-62.828	237.222	87.590	228.444	261.254	212.282	0.00023223	0.0009211	0.00021794	983.49	1.3448e-05	1.914e-05	839.64	368	2.4189e-06	8.5128e-06	366.79	143.54	136.59	54.693	1.6733e-05	63.48	0.0091457	0.012629	0.0035746	1197.8	0.00012646	0.00013999	1048	446.42	0.0001249	0.00014163	474.15	180.09	170.48	67.56	0.00013571	79.353	215.377	144.385	-7.660	-69.212	73.502	142.433	-69.824	-63.840	154.023	148.960	-65.777	-61.359	-60.043	-55.226	33.645	-57.554	-8191	255	
9904.955	1	1	0	0	0.18777	0.1145	0.21755	0.28089	0.35851	0.23155	0.21966	0.089879	0.32649	0.28873	0.19842	0.07331	0.1672	0.15185	0.12507	0.11647	-1.8563	-2.9646	-2.6458	-2.4062	-3.2812	-2.4292	-2.7458	-3.3292	-2.2771	-2.9104	-2.7938	-2.4146	-3.3396	-2.6375	-2.7958	-3.3042	178.321	137.497	-20.864	201.125	-33.708	148.806	263.264	208.110	-80.159	17.014	-56.779	-56.353	269.765	88.306	-17.082	226.190	0.00024864	0.00099328	0.00020797	976.43	4.4623e-06	4.5816e-06	836.21	366.36	1.9599e-06	8.3719e-06	367.33	143.63	135.93	54.425	1.2238e-05	63.93	0.0092106	0.012823	0.0034603	1191.4	0.00012584	0.00013959	1042.6	444.16	0.00012505	0.00013983	472.3	179.8	170.73	67.428	0.00012851	79.136	230.730	147.047	-57.625	-69.048	154.760	197.699	-69.667	-63.788	29.114	126.029	-66.266	-61.774	-59.840	-54.805	97.288	-57.226	-8191	255	
9905.049	1	1	0	0	0.15848	0.13127	0.2352	0.14943	0.11819	0.095745	0.3042	0.22342	0.15134	0.21629	0.22545	0.20078	0.18983	0.34598	0.25022	0.15648	-1.9021	-2.9417	-2.9771	-2.425	-3.0438	-2.6667	-2.7458	-3.3375	-2.4208	-2.95	-2.9813	-2.5375	-3.1208	-2.7646	-2.5854	-3.2646	168.176	42.874	40.516	203.438	274.278	33.818	159.101	185.278	-43.960	-27.903	-80.601	9.237	-53.941	192.145	-52.125	177.919	0.00034261	0.0012017	0.0004018	979.25	1.2115e-05	8.534e-06	841.67	366.78	6.1412e-06	1.1105e-05	367.88	142.86	136.35	54.448	1.0361e-05	63.833	0.0091929	0.012382	0.003304	1183.6	0.00012701	0.00013639	1037.1	442.83	0.00012747	0.00013658	469.53	178.72	171.46	67.242	0.00012661	78.864	225.262	-5.877	-47.047	-69.132	218.104	69.947	-70.116	-63.882	158.673	-46.276	-66.132	-61.705	-60.157	-55.283	43.002	-57.665	-8191	255	
9905.145	1	1	0	0	0.092447	0.10071	0.25558	0.15407	0.26701	0.21006	0.10298	0.32055	0.10029	0.16638	0.14404	0.24281	0.080123	0.19656	0.10278	0.20755	-2.1896	-2.8917	-2.9104	-2.5833	-3.0042	-2.6937	-2.7229	-3.3021	-2.4208	-2.875	-3.0146	-2.5396	-3.1708	-3.0708	-2.6042	-3.35	84.707	57.544	225.020	270.904	0.287	-12.407	156.374	242.702	259.526	12.515	267.672	-36.248	-39.642	187.173	277.400	252.574	0.00036514	0.0014201	0.00045998	980	1.8522e-06	1.3021e-05	839.23	367.85	6.4068e-07	6.9624e-06	367.04	142.88	135.54	54.226	1.1396e-05	63.525	0.0095885	0.012362	0.0033076	1188	0.00013305	0.00013645	1035.5	444.46	0.00013294	0.00013603	468.83	178.94	172.05	66.93	0.00012731	79.03	212.865	-32.210	33.017	-69.306	268.706	75.329	-69.798	-63.967	-39.307	22.618	-65.950	-61.862	-59.683	-55.431	89.776	-57.638	-8191	255	
9905.266	1	1	0	0	0.11046	0.063113	0.117	0.11565	0.14658	0.16763	0.082538	0.16341	0.26112	0.20535	0.15486	0.13908	0.26899	0.15352	0.04306	0.29278	-2.0896	-2.9646	-3.1688	-2.4479	-3	-2.9875	-2.5604	-3.1979	-2.6	-2.8146	-3.2104	-2.4833	-3.075	-2.9271	-2.4833	-3.4167	104.340	70.784	63.014	-76.499	189.168	56.303	-7.401	256.132	204.352	158.961	-14.836	43.093	245.108	-21.516	122.210	193.570	0.00022305	0.0011645	8.3056e-05	979.68	6.9095e-06	8.6212e-06	841.47	367.02	1.3389e-06	5.6801e-06	366.3	142.98	135.95	54.707	9.1846e-06	63.93	0.01001	0.012289	0.0033164	1195.5	0.00013839	0.00013685	1038.2	447.35	0.0001386	0.00013713	470.7	180.91	173.06	67.448	0.00013002	80.176	257.795	-66.069	-74.741	-69.462	244.667	54.276	-70.146	-63.988	248.682	13.024	-66.397	-62.026	-59.859	-55.086	158.765	-57.437	-8191	255	
9905.362	1	1	0	0	0.073967	0.14768	0.10015	0.15777	0.33097	0.1641	0.27779	0.26379	0.041904	0.094412	0.05633	0.10616	0.32043	0.27832	0.031904	0.26982	-2.325	-2.6958	-3.1792	-2.4354	-3.0125	-3.2667	-2.6	-3.2583	-2.725	-2.7958	-3.2271	-2.5521	-3.0542	-3.0167	-2.3833	-3.5062	262.814	87.063	266.406	202.536	208.826	-45.116	240.188	-27.323	-40.437	45.725	196.244	-57.373	253.912	-80.381	194.151	239.714	0.00019622	0.00030607	0.00040773	983.59	1.4572e-05	1.902e-05	842.13	368.08	7.6788e-06	1.332e-05	367.58	143.47	136.91	54.552	1.1682e-05	64.094	0.010274	0.012421	0.0033664	1205	0.00013949	0.00013783	1040.4	450.79	0.00013808	0.00013566	471.11	182.82	173.31	67.421	0.00013073	80.841	214.152	111.657	-26.615	-68.854	64.173	75.199	-69.537	-63.675	167.991	46.174	-65.884	-61.694	-59.756	-54.845	96.891	-57.211	-8191	255	
9905.434	1	1	0	0	0.10605	0.097658	0.10677	0.28841	0.10235	0.15283	0.21668	0.26462	0.16809	0.026847	0.21395	0.14615	0.083363	0.31294	0.17125	0.1795	-2.4479	-2.5208	-3.0458	-2.4583	-2.7	-3.1396	-2.3271	-3.4667	-2.8458	-2.4583	-3.3333	-2.6271	-3.0208	-3.2875	-2.4146	-3.2604	198.144	148.469	-15.409	-60.701	114.971	44.976	-43.234	262.136	129.254	24.249	162.518	253.330	263.015	250.159	84.641	-50.259	0.0001653	0.00048065	8.7774e-05	981.23	2.6588e-05	2.4642e-06	839.35	367.03	6.7005e-06	1.5001e-05	368.36	143.21	136.93	54.833	1.5028e-05	63.733	0.010194	0.012429	0.0034358	1212.7	0.00013913	0.00013818	1042.7	453.87	0.00013935	0.00013742	473.94	183.42	173.44	67.406	0.00013811	81.054	253.245	-34.007	-78.116	-69.072	84.291	45.994	-69.896	-63.804	109.144	56.549	-66.274	-61.996	-59.807	-55.294	168.501	-57.251	-8191	255	
9905.555	1	1	0	0	0.24378	0.15701	0.091457	0.17433	0.25037	0.1048	0.34074	0.2308	0.16205	0.22461	0.19136	0.25289	0.040721	0.04233	0.29338	0.3554	-2.2646	-2.2792	-3.2562	-2.7875	-2.7604	-3.3021	-2.5854	-3.1229	-2.9792	-2.5729	-3.1396	-2.6312	-2.5854	-3.4271	-2.3375	-3.0708	222.659	89.066	214.947	261.466	-79.770	128.337	258.105	202.902	122.828	147.920	-50.014	196.547	39.762	-80.189	25.991	232.215	0.00023336	0.00044263	0.00029229	978.61	1.0045e-05	1.2459e-05	839.6	368.51	1.0624e-05	8.4564e-06	367.47	143.82	136.75	54.816	3.235e-06	64.506	0.010352	0.012617	0.0036493	1218.9	0.00014081	0.00014144	1052.4	455.13	0.00014139	0.00013971	480.63	184.93	173.45	67.718	0.00014574	81.577	263.537	125.602	145.814	-69.356	29.862	115.156	-70.002	-63.737	75.476	15.219	-66.153	-62.011	-59.897	-55.157	205.191	-57.489	-8191	255	
9905.651	1	1	0	0	0.088838	0.05162	0.087203	0.10454	0.15755	0.15718	0.16792	0.1161	0.056758	0.048796	0.31627	0.30426	0.33094	0.31684	0.28846	0.32809	-2.5312	-2.4271	-3.1021	-2.8354	-2.6083	-3.2687	-2.5146	-3.1417	-2.9813	-2.4208	-3.3771	-2.9042	-2.6458	-3.5792	-2.4167	-3.0167	52.964	-45.973	215.409	-77.961	242.108	116.856	114.418	245.642	-27.835	134.775	249.298	237.875	249.551	229.344	-25.988	180.527	0.00018696	0.0018117	0.00027967	983.7	6.414e-06	1.299e-05	846.12	371.01	1.7481e-06	3.1026e-06	372.99	144.86	137.79	55.42	7.8965e-06	64.934	0.01046	0.012864	0.003874	1223.5	0.00014257	0.00014424	1065.7	457.26	0.00014293	0.00014224	487.52	185.8	174.27	68.291	0.00015086	81.75	222.246	-32.993	-11.154	-69.257	98.585	80.884	-69.563	-63.827	9.113	268.056	-65.632	-61.305	-59.566	-54.672	235.076	-56.884	-8191	255	
9905.745	1	1	0	0	0.042756	0.10843	0.19151	0.10214	0.13203	0.12706	0.094896	0.2928	0.076724	0.097475	0.12654	0.14011	0.40432	0.080368	0.10284	0.25623	-2.8333	-2.3083	-3.2812	-2.8021	-2.4458	-3.4938	-2.6083	-2.9083	-3.3333	-2.3229	-3.3854	-2.9042	-2.7604	-3.2979	-2.7354	-2.6208	146.398	257.004	177.731	276.479	263.630	39.910	219.025	-69.556	-50.028	-80.824	276.016	225.678	-3.786	265.924	184.790	237.527	0.0001131	0.0020638	8.9038e-05	983.97	7.3077e-06	8.6422e-06	846.59	370.19	6.9293e-06	9.1696e-06	371.2	144.87	137.51	55.029	3.7411e-06	64.65	0.010283	0.012862	0.0039272	1216.1	0.00013833	0.00014388	1068.1	454.47	0.00013857	0.00014392	488.37	184.9	173.6	68.221	0.00015244	81.328	201.675	30.562	19.015	-68.727	87.879	158.118	-69.406	-63.281	104.606	205.050	-65.145	-61.201	-59.433	-54.425	-35.415	-56.638	-8191	255	
9905.841	1	1	0	0	0.14161	0.10458	0.051185	0.35016	0.15934	0.16086	0.21458	0.087308	0.122	0.10084	0.3072	0.12976	0.15774	0.23094	0.17664	0.12276	-2.6667	-2.5187	-2.9938	-3.0646	-2.2313	-3.4125	-2.7896	-2.7896	-3.2479	-2.4229	-3.1271	-3.2625	-2.4437	-3.0917	-2.7917	-2.5583	141.978	91.172	-68.694	-65.796	46.793	180.402	-46.690	178.966	246.087	224.142	-69.752	138.269	209.471	-46.118	265.863	157.233	0.00031323	0.00055911	0.00019849	982.08	6.6582e-06	5.5537e-06	844.76	370.17	2.5987e-06	1.576e-05	373.04	144.08	137.4	55.07	5.0932e-06	64.895	0.010156	0.013225	0.0039236	1212	0.00013627	0.00014825	1064.9	452.88	0.00013656	0.00014794	486.05	183.75	172.77	68.328	0.00014972	80.876	198.562	33.487	-74.710	-68.427	161.957	265.802	-69.304	-62.930	45.871	91.990	-65.489	-61.077	-59.395	-54.519	-7.514	-56.756	-8191	255	
9905.962	1	1	0	0	0.091424	0.25369	0.044558	0.074035	0.1193	0.21153	0.12313	0.15239	0.23791	0.17105	0.34298	0.076534	0.27544	0.27865	0.23293	0.30151	-2.7812	-2.4604	-2.9938	-3.3354	-2.3417	-3.2771	-2.8896	-2.5812	-3.1583	-2.2896	-3.2333	-3.2646	-2.5521	-3.1854	-2.7667	-2.5167	133.579	20.347	272.791	-63.773	219.804	97.451	226.522	215.990	274.923	-77.089	262.342	255.288	-27.717	-67.000	108.961	167.567	0.00014587	0.00056417	0.00011771	981.71	3.559e-06	1.7053e-05	848.44	369.01	9.2443e-06	2.5368e-06	371	144.94	138.04	55.172	3.0092e-06	64.649	0.010037	0.013622	0.0038255	1206.9	0.00013445	0.00015153	1060.3	450.8	0.00013545	0.0001511	483.11	183.44	173.36	68.722	0.0001454	80.918	239.861	-47.903	32.824	-68.714	97.668	158.494	-69.435	-63.244	171.221	177.737	-65.171	-60.945	-58.960	-54.260	71.236	-56.678	-8191	255	
9906.058	1	1	0	0	0.1501	0.10125	0.11769	0.27426	0.06671	0.13296	0.22344	0.050246	0.21944	0.33365	0.2938	0.28215	0.25249	0.32842	0.029687	0.24211	-2.8375	-2.3937	-2.8458	-3.1958	-2.4146	-3.0833	-2.7208	-2.5854	-3.3333	-2.375	-2.9083	-3.2833	-2.5833	-3.1208	-2.85	-2.3854	78.184	141.645	33.122	243.559	223.320	-21.469	2.739	187.323	143.426	152.487	-69.269	179.376	264.270	260.515	-20.557	226.746	0.00035998	0.00077226	8.9123e-05	980.79	3.1859e-06	2.0271e-06	842.51	369.17	8.8103e-06	3.4604e-06	370.27	144.83	136.9	55.008	9.1368e-06	64.996	0.010085	0.013838	0.0037368	1204.5	0.00013806	0.00015403	1058.4	450.05	0.00013983	0.00015386	482.62	183.82	174.12	68.799	0.0001445	81.095	241.568	12.888	-35.433	-68.355	3.214	91.744	-69.438	-63.421	235.371	245.363	-65.306	-61.226	-59.526	-54.534	4.488	-56.993	-8191	255	
#DATA ENDS
