BOXY.EXE: ISS Imagent and Oximeter Data Acquisition Program Version 0.80
Ascii Record File

#ACQ INFORMATION
2  Detector Channels 
16  External MUX Channels 
1  Auxiliary Channels 
5000  Waveform (CCF) Frequency (Hz)
1  Waveforms Skipped 
30  Waveforms Averaged 
1  Cycles Averaged 
16  Acquisitions per Waveform 
10.0806  Updata Rate (Hz) 

#FILE INFORMATION
TRUE -- External MUX Channel results are PARSED.
FALSE -- AC DC and Phase are NOT grouped.
TRUE -- Companion Program Settings File CREATED.
FALSE -- AC data not excluded
FALSE -- DC data not excluded
FALSE -- Phase data not excluded
FALSE -- Auxillary Chn. data not excluded
Tab delimiters

#CALIBRATION STATE
TRUE -- Waveform Calibration Values APPLIED.


#AUX CALIBRATION VALUES
Val Type	aux-1	

Term	1.0000e+00	
Factor	0.0000e+00	


#WF CALIBRATION VALUES
A = Detector Channel
Val Type	A-AC1	A-AC2	A-AC3	A-AC4	A-AC5	A-AC6	A-AC7	A-AC8	A-AC9	A-AC10	A-AC11	A-AC12	A-AC13	A-AC14	A-AC15	A-AC16	A-DC1	A-DC2	A-DC3	A-DC4	A-DC5	A-DC6	A-DC7	A-DC8	A-DC9	A-DC10	A-DC11	A-DC12	A-DC13	A-DC14	A-DC15	A-DC16	A-Ph1	A-Ph2	A-Ph3	A-Ph4	A-Ph5	A-Ph6	A-Ph7	A-Ph8	A-Ph9	A-Ph10	A-Ph11	A-Ph12	A-Ph13	A-Ph14	A-Ph15	A-Ph16	

Term	0.00000e+00	0.00000e+00	0.00000e+00	0.00000e+00	0.00000e+00	0.00000e+00	0.00000e+00	0.00000e+00	0.00000e+00	0.00000e+00	0.00000e+00	0.00000e+00	0.00000e+00	0.00000e+00	0.00000e+00	0.00000e+00	0.00000e+00	0.00000e+00	0.00000e+00	0.00000e+00	0.00000e+00	0.00000e+00	0.00000e+00	0.00000e+00	0.00000e+00	0.00000e+00	0.00000e+00	0.00000e+00	0.00000e+00	0.00000e+00	0.00000e+00	0.00000e+00	0.00000e+00	0.00000e+00	0.00000e+00	0.00000e+00	0.00000e+00	0.00000e+00	0.00000e+00	0.00000e+00	0.00000e+00	0.00000e+00	0.00000e+00	0.00000e+00	0.00000e+00	0.00000e+00	0.00000e+00	0.00000e+00	
Factor	1.00000e+00	1.00000e+00	1.00000e+00	1.00000e+00	1.00000e+00	1.00000e+00	1.00000e+00	1.00000e+00	1.00000e+00	1.00000e+00	1.00000e+00	1.00000e+00	1.00000e+00	1.00000e+00	1.00000e+00	1.00000e+00	1.00000e+00	1.00000e+00	1.00000e+00	1.00000e+00	1.00000e+00	1.00000e+00	1.00000e+00	1.00000e+00	1.00000e+00	1.00000e+00	1.00000e+00	1.00000e+00	1.00000e+00	1.00000e+00	1.00000e+00	1.00000e+00	X	X	X	X	X	X	X	X	X	X	X	X	X	X	X	X	

B = Detector Channel
Val Type	B-AC1	B-AC2	B-AC3	B-AC4	B-AC5	B-AC6	B-AC7	B-AC8	B-AC9	B-AC10	B-AC11	B-AC12	B-AC13	B-AC14	B-AC15	B-AC16	B-DC1	B-DC2	B-DC3	B-DC4	B-DC5	B-DC6	B-DC7	B-DC8	B-DC9	B-DC10	B-DC11	B-DC12	B-DC13	B-DC14	B-DC15	B-DC16	B-Ph1	B-Ph2	B-Ph3	B-Ph4	B-Ph5	B-Ph6	B-Ph7	B-Ph8	B-Ph9	B-Ph10	B-Ph11	B-Ph12	B-Ph13	B-Ph14	B-Ph15	B-Ph16	

Term	0.00000e+00	0.00000e+00	0.00000e+00	0.00000e+00	0.00000e+00	0.00000e+00	0.00000e+00	0.00000e+00	0.00000e+00	0.00000e+00	0.00000e+00	0.00000e+00	0.00000e+00	0.00000e+00	0.00000e+00	0.00000e+00	0.00000e+00	0.00000e+00	0.00000e+00	0.00000e+00	0.00000e+00	0.00000e+00	0.00000e+00	0.00000e+00	0.00000e+00	0.00000e+00	0.00000e+00	0.00000e+00	0.00000e+00	0.00000e+00	0.00000e+00	0.00000e+00	2.93197e+01	-1.46832e+02	-1.39121e+02	-1.81086e+02	-9.40388e+01	-8.26987e+01	-1.58451e+02	-1.62015e+02	-4.88284e+01	-7.25510e+01	-1.70463e+02	-1.70388e+02	-1.82301e+02	-1.76731e+02	-5.84013e+01	-1.49945e+02	
Factor	5.48794e-05	1.85628e-04	4.36060e-05	1.70858e-01	1.72188e-06	1.61827e-06	1.82640e-01	6.30764e-02	2.27960e-06	1.44727e-06	1.00929e-01	3.45204e-02	2.99637e-02	1.05836e-02	1.66694e-06	1.51637e-02	2.09266e-06	2.19092e-06	6.07507e-07	8.53818e-02	2.38634e-08	2.39635e-08	8.56573e-02	3.13960e-02	2.38440e-08	2.39852e-08	4.84051e-02	1.65146e-02	1.48863e-02	5.27694e-03	2.38470e-08	7.29755e-03	X	X	X	X	X	X	X	X	X	X	X	X	X	X	X	X	



#DISTANCE SETTINGS
A = Detector Channel
A-1	A-2	A-3	A-4	A-5	A-6	A-7	A-8	A-9	A-10	A-11	A-12	A-13	A-14	A-15	A-16	

2.5000e+00	3.0000e+00	2.5000e+00	3.0000e+00	2.0000e+00	3.0000e+00	1.5000e+00	3.0000e+00	3.0000e+00	3.0000e+00	3.0000e+00	3.0000e+00	3.0000e+00	3.0000e+00	1.5000e+00	3.0000e+00	

B = Detector Channel
B-1	B-2	B-3	B-4	B-5	B-6	B-7	B-8	B-9	B-10	B-11	B-12	B-13	B-14	B-15	B-16	

1.0000e+01	1.0000e+01	1.0000e+01	1.4400e+00	1.0000e+01	1.0000e+01	1.5100e+00	1.9400e+00	1.0000e+01	1.0000e+01	1.9900e+00	2.4900e+00	2.4100e+00	2.9000e+00	1.0000e+01	2.9800e+00	




#DATA BEGINS
time	group	step	mark	flag	A-AC1	A-AC2	A-AC3	A-AC4	A-AC5	A-AC6	A-AC7	A-AC8	A-AC9	A-AC10	A-AC11	A-AC12	A-AC13	A-AC14	A-AC15	A-AC16	A-DC1	A-DC2	A-DC3	A-DC4	A-DC5	A-DC6	A-DC7	A-DC8	A-DC9	A-DC10	A-DC11	A-DC12	A-DC13	A-DC14	A-DC15	A-DC16	A-Ph1	A-Ph2	A-Ph3	A-Ph4	A-Ph5	A-Ph6	A-Ph7	A-Ph8	A-Ph9	A-Ph10	A-Ph11	A-Ph12	A-Ph13	A-Ph14	A-Ph15	A-Ph16	B-AC1	B-AC2	B-AC3	B-AC4	B-AC5	B-AC6	B-AC7	B-AC8	B-AC9	B-AC10	B-AC11	B-AC12	B-AC13	B-AC14	B-AC15	B-AC16	B-DC1	B-DC2	B-DC3	B-DC4	B-DC5	B-DC6	B-DC7	B-DC8	B-DC9	B-DC10	B-DC11	B-DC12	B-DC13	B-DC14	B-DC15	B-DC16	B-Ph1	B-Ph2	B-Ph3	B-Ph4	B-Ph5	B-Ph6	B-Ph7	B-Ph8	B-Ph9	B-Ph10	B-Ph11	B-Ph12	B-Ph13	B-Ph14	B-Ph15	B-Ph16	aux-1	digaux	

1914.119	1	1	0	256	0.081632	0.18409	0.1014	0.094614	0.29852	0.21957	0.078843	0.11601	0.13937	0.19577	0.10412	0.34901	0.049529	0.075206	0.048129	0.044907	-0.15417	0.014583	0.29792	-0.66667	0.21875	-0.054167	-0.62083	0.20208	-0.3875	-0.033333	0.16667	-0.63333	0.00625	0.0125	-0.46875	0.41875	181.102	50.934	8.444	-30.709	161.796	131.237	-101.369	135.482	132.900	66.093	-61.625	-56.617	-57.298	-40.857	12.643	-73.378	0.00024808	0.0002959	0.00017411	972.77	4.9466e-06	3.3776e-06	1090.4	207.59	4.7467e-06	4.8599e-06	264.83	75.949	57.939	17.123	2.1425e-06	24.316	0.00032508	0.00032755	8.1178e-05	956.82	3.6733e-06	3.4526e-06	1069.8	206.95	3.6128e-06	3.4748e-06	262.76	76.274	58.722	17.614	3.231e-06	24.878	-12.350	10.656	-76.490	-104.624	122.562	44.986	-105.026	-97.251	73.132	-10.862	-97.761	-91.055	-90.354	-83.277	54.439	-83.997	-8191	255	
1914.215	1	1	0	0	0.20058	0.36356	0.52688	0.20104	0.21284	0.27562	0.09494	0.23624	0.35521	0.16862	0.10847	0.20609	0.2299	0.1312	0.14179	0.24745	-0.14583	-0.070833	0.34167	-0.51458	0.19792	-0.10833	-0.6625	0.43333	-0.24792	-0.29375	0.2375	-0.54792	0.2375	0.066667	-0.52083	0.35625	8.884	-78.113	214.525	236.088	23.796	52.014	-106.579	152.709	197.999	110.352	2.891	212.231	174.348	190.224	161.912	-46.480	0.00032236	0.00039366	7.0682e-05	969.58	3.4594e-06	1.6411e-06	1088.9	207.75	2.9434e-06	4.1052e-06	266.08	75.728	57.929	17.22	5.6804e-07	24.416	0.00033558	0.00031011	7.8694e-05	957.4	3.7193e-06	3.287e-06	1069.8	207.05	3.6349e-06	3.425e-06	262.78	76.565	58.788	17.611	3.236e-06	24.999	16.157	-26.787	32.771	-104.780	51.277	18.993	-104.845	-97.625	56.342	49.950	-97.527	-90.959	-90.976	-83.821	157.217	-83.894	-8191	255	
1914.311	1	1	0	0	0.078	0.1219	0.1129	0.093143	0.092047	0.157	0.16392	0.18805	0.075666	0.17592	0.15854	0.18199	0.28385	0.22514	0.24377	0.075878	-0.014583	-0.11667	0.33333	-0.575	0.089583	0.033333	-0.73958	0.077083	-0.36042	-0.46458	0.35208	-0.54792	-0.064583	0.12708	-0.61042	-0.020833	-13.941	153.326	241.177	128.231	177.430	58.835	118.079	-85.625	59.997	-86.554	-42.407	73.621	157.049	-45.449	134.011	68.875	0.00022927	0.00064554	2.1477e-05	975.89	2.2675e-06	4.6421e-06	1085.7	208.73	6.2711e-06	4.0629e-06	264.91	76.124	57.898	17.298	1.4997e-06	24.289	0.00033344	0.00031048	7.9206e-05	957.31	3.6895e-06	3.2195e-06	1068.3	207.13	3.5342e-06	3.3297e-06	262.83	76.841	58.714	17.586	3.1937e-06	25.059	34.180	-26.937	-109.274	-104.668	-1.950	43.913	-104.907	-97.514	46.791	64.091	-97.676	-91.119	-90.998	-83.250	90.325	-83.873	-8191	255	
1914.409	1	1	0	0	0.23239	0.12651	0.20769	0.32954	0.032919	0.16448	0.23917	0.10939	0.24665	0.078779	0.20092	0.25352	0.11479	0.23227	0.21181	0.26679	-0.0020833	-0.27083	0.4375	-0.61875	-0.033333	0.083333	-0.76667	0.052083	-0.11458	-0.54167	0.44167	-0.47083	0.054167	0.2875	-0.52917	0.13333	-89.655	-112.393	-66.168	168.469	-113.779	203.755	221.791	-67.073	-102.707	-33.431	-27.228	-105.742	191.558	142.749	53.037	-99.032	0.00032851	0.00049211	8.111e-05	972.79	3.1319e-06	5.8978e-07	1087.8	208.18	5.1896e-06	3.0788e-06	265.61	76.193	58.484	17.162	7.448e-06	24.335	0.00031467	0.00029892	8.0134e-05	958.35	3.5559e-06	3.1477e-06	1070.1	207.58	3.3632e-06	3.1875e-06	263.31	76.646	58.8	17.542	3.3539e-06	25.04	9.574	-106.316	-1.121	-104.696	-43.892	243.082	-105.185	-97.405	36.684	90.903	-97.713	-90.689	-90.958	-82.994	63.044	-84.432	-8191	255	
1914.528	1	1	0	0	0.13869	0.14437	0.12283	0.0533	0.32666	0.12367	0.092834	0.18424	0.11521	0.11062	0.37231	0.08631	0.1461	0.27588	0.048291	0.18043	0.26667	-0.4375	0.45	-0.25417	-0.18333	0.23958	-0.69375	0.0625	-0.085417	-0.37917	0.33333	-0.43958	-0.35208	0.37708	-0.55417	-0.14167	207.760	132.638	231.681	190.890	100.734	-18.880	143.309	66.411	142.185	138.223	164.292	22.905	181.490	-75.035	-29.998	-58.239	0.00022232	0.00011122	0.00011841	974.9	5.3098e-06	3.386e-06	1085.7	207.23	5.4092e-06	4.8788e-06	263.85	76.176	57.896	17.156	3.0691e-06	24.468	0.00030415	0.00029503	8.5604e-05	958.14	3.4134e-06	3.084e-06	1069.6	207.26	3.2954e-06	3.1319e-06	263.36	76.771	58.513	17.531	3.5392e-06	24.959	14.843	-90.352	-110.687	-104.915	15.154	47.923	-104.938	-97.504	85.615	-13.236	-98.087	-91.021	-90.489	-83.479	24.551	-84.309	-8191	255	
1914.624	1	1	0	0	0.227	0.22381	0.15255	0.25247	0.091462	0.28245	0.006357	0.19228	0.23677	0.060359	0.1646	0.20044	0.028072	0.17512	0.19249	0.23139	0.32083	-0.47917	0.46875	-0.375	-0.42083	0.31667	-0.76667	0.060417	0.28542	-0.57708	0.14583	-0.19167	-0.53542	0.44792	-0.56042	0.00625	175.460	19.062	233.140	158.847	-71.797	-8.461	-63.063	-14.854	-17.038	31.558	139.601	4.340	-78.956	-70.066	5.381	134.393	0.00016347	7.377e-05	9.4485e-05	969.95	5.4009e-06	4.815e-06	1086.2	208.61	2.4297e-06	3.8865e-06	262.77	75.807	58.301	17.194	2.5141e-06	24.319	0.00029339	0.00028917	9.0497e-05	957.4	3.3904e-06	3.1158e-06	1071.6	206.82	3.276e-06	3.2501e-06	263.45	76.459	58.621	17.582	3.7641e-06	24.931	-18.707	-115.237	166.047	-104.826	58.889	-21.126	-104.824	-97.583	-24.424	37.539	-97.609	-90.864	-90.923	-83.067	243.239	-84.110	-8191	255	
1914.696	1	1	0	0	0.064142	0.089172	0.2167	0.097237	0.1114	0.28991	0.27044	0.39221	0.1422	0.089124	0.109	0.17128	0.14295	0.066003	0.23546	0.16376	0.50833	-0.55417	0.11458	-0.39167	-0.45208	0.30625	-0.625	-0.29375	0.2	-0.67917	0.17083	-0.3125	-0.41667	0.2875	-0.31458	-0.27917	236.406	151.784	-12.552	239.139	-115.622	6.358	221.455	159.835	155.885	138.264	-87.332	11.835	24.834	-93.472	205.270	-79.020	0.00035006	0.00036759	0.00011609	972.72	2.7074e-06	1.593e-06	1086.6	208.3	2.3599e-06	1.4718e-06	265.35	75.773	57.835	17.323	3.2455e-06	24.508	0.00029148	0.00030167	9.5163e-05	957.32	3.326e-06	3.3131e-06	1073.3	206.86	3.2213e-06	3.3496e-06	264.08	76.448	58.421	17.585	3.6771e-06	24.925	23.614	-98.866	-42.833	-104.755	-46.592	-83.092	-104.868	-97.688	85.812	-107.128	-97.808	-91.233	-90.710	-83.095	46.193	-83.789	-8191	255	
1914.816	1	1	0	0	0.18234	0.13525	0.14966	0.24834	0.37157	0.20237	0.37737	0.033481	0.263	0.2498	0.17017	0.1759	0.035364	0.14043	0.088151	0.10055	0.5625	-0.51458	0.11458	0.083333	-0.66458	0.28958	-0.43542	-0.3625	0.32708	-0.66667	0.058333	0.091667	-0.3875	0.29167	-0.2	-0.33125	13.122	-10.559	6.442	235.687	-2.663	145.766	173.506	-81.399	-47.900	8.235	149.549	72.999	155.052	120.897	-57.540	152.205	0.00031616	0.00056033	0.00012863	969.5	7.9241e-06	1.634e-06	1088	209.07	1.977e-06	2.3974e-06	263.72	75.985	58.291	17.035	4.0138e-06	24.249	0.0002919	0.00031767	9.4975e-05	955.39	3.2413e-06	3.4944e-06	1071.7	206.97	3.1868e-06	3.5976e-06	263.55	76.384	58.522	17.577	3.6375e-06	24.882	-6.865	188.722	-7.675	-104.569	-2.080	14.167	-104.911	-97.574	-20.853	-46.361	-97.670	-91.133	-91.054	-83.153	-1.097	-83.870	-8191	255	
1914.912	1	1	0	0	0.2521	0.11898	0.15903	0.088872	0.16419	0.087926	0.48971	0.11756	0.12668	0.077361	0.23517	0.13876	0.26814	0.14544	0.18873	0.25479	0.3875	-0.51875	-0.064583	-0.066667	-0.57292	0.39583	-0.23542	-0.33125	0.22708	-0.46458	-0.09375	0.26458	-0.45	0.22917	-0.027083	-0.49375	72.422	198.898	209.157	192.388	2.643	14.251	152.555	31.000	157.898	98.687	-82.801	162.314	241.380	131.119	-45.021	-33.813	0.00024006	0.00067767	0.00024027	972.06	2.5666e-06	2.5118e-06	1084.8	209.02	5.7097e-06	4.2127e-06	265.9	76.398	57.822	17.227	4.4764e-06	24.274	0.000289	0.00033653	9.441e-05	955.62	3.3116e-06	3.77e-06	1070.3	206.98	3.2905e-06	3.7975e-06	264	76.347	58.433	17.687	3.5005e-06	24.799	14.287	-7.883	-18.754	-104.779	-18.328	5.523	-104.765	-97.260	-24.437	69.634	-98.134	-91.425	-90.626	-83.132	30.685	-84.314	-8191	255	
1915.008	1	1	0	0	0.14264	0.2882	0.13458	0.022298	0.17367	0.25239	0.55233	0.2739	0.19394	0.20771	0.15318	0.20574	0.27576	0.34223	0.1937	0.24003	0.80833	-0.28958	-0.00625	0.3125	-0.49792	0.4125	-0.26458	-0.36458	0.26458	-0.1625	-0.22083	0.28958	-0.43958	0.24167	-0.014583	-0.61875	-27.922	-29.702	66.691	92.754	231.437	-30.304	-106.182	244.644	93.063	195.576	214.201	-9.990	-111.901	56.579	-9.995	114.184	0.00041145	0.00053471	0.00016475	971.03	5.8818e-06	6.5417e-06	1088	207.82	3.1173e-06	4.4486e-06	264.33	75.5	58.106	17.143	3.8849e-06	24.405	0.00030366	0.00034576	9.0163e-05	955.47	3.478e-06	3.8605e-06	1070.3	206.52	3.4265e-06	3.7949e-06	263.29	76.088	58.64	17.67	3.3923e-06	24.857	-2.315	12.335	6.073	-104.610	-79.895	-3.135	-104.905	-97.301	-31.530	35.564	-97.529	-91.291	-90.250	-83.375	11.950	-84.398	-8191	255	
1915.129	1	1	0	0	0.14025	0.12602	0.14328	0.35579	0.18472	0.16949	0.03995	0.29304	0.10714	0.3095	0.20281	0.23026	0.31282	0.11638	0.17562	0.09917	0.64375	-0.33125	-0.42292	0.029167	-0.68125	0.064583	-0.064583	-0.49792	0.19583	-0.23333	-0.35833	0.45417	-0.68125	-0.010417	0.2125	-0.66458	113.227	136.262	-66.530	229.734	53.381	-99.548	-90.684	176.076	124.202	11.744	199.978	77.878	183.223	59.551	-95.561	-60.501	0.00035594	0.00028121	0.00015221	977.81	2.3359e-06	5.6616e-06	1090.1	207.66	2.4788e-06	3.2754e-06	266.4	76.036	58.059	17.248	3.4412e-06	24.351	0.00032587	0.00034452	8.7471e-05	958.95	3.6797e-06	3.7086e-06	1070.9	206.68	3.6852e-06	3.6944e-06	263.43	76.169	58.665	17.648	3.3336e-06	24.838	12.901	-102.598	-80.599	-104.645	100.184	24.306	-104.964	-97.712	-33.447	32.772	-97.990	-91.262	-90.817	-83.400	127.794	-84.246	-8191	255	
1915.224	1	1	0	0	0.11459	0.19981	0.058532	0.12279	0.039246	0.12405	0.36671	0.14321	0.20417	0.11296	0.1283	0.14181	0.13956	0.078638	0.062057	0.17921	0.63333	-0.08125	-0.3375	0.29583	-0.40417	-0.15208	0.075	-0.50208	0.32708	-0.16875	-0.50625	0.22708	-0.67292	-0.20208	0.32292	-0.71875	52.676	238.350	-43.817	137.297	-106.367	15.341	-53.764	-46.074	151.746	161.626	-90.091	-92.935	90.556	229.112	-108.240	3.105	0.00044134	0.00072042	6.2993e-05	977.03	7.4855e-07	6.5348e-06	1087.6	208.74	3.61e-06	2.9135e-06	265.18	75.543	57.554	17.093	5.1486e-06	24.352	0.00033932	0.00032697	8.5016e-05	957.69	3.7263e-06	3.5851e-06	1069.9	207.1	3.7734e-06	3.4331e-06	262.74	76.149	58.628	17.561	3.193e-06	24.858	-8.962	-55.047	36.517	-104.828	68.289	-5.661	-104.979	-97.442	-34.206	43.749	-97.518	-90.977	-90.820	-83.397	26.550	-84.059	-8191	255	
1915.295	1	1	0	0	0.17438	0.1557	0.28372	0.2706	0.11168	0.1316	0.11907	0.089147	0.16201	0.21925	0.22457	0.15859	0.071513	0.30836	0.27525	0.29324	0.37708	-0.052083	-0.46458	0.24583	-0.52708	-0.20625	0.16667	-0.78125	0.15625	-0.20833	-0.9125	0.30417	-0.54583	-0.31875	0.37292	-0.66042	185.906	-68.539	98.617	190.523	-11.765	154.122	83.048	-49.819	217.994	-43.355	-71.980	-74.625	50.728	-101.636	-0.226	114.999	0.00049251	0.00045488	0.00012444	969.46	6.4967e-06	5.8017e-06	1089.9	207.89	4.5687e-06	5.2954e-06	264.97	75.331	58.059	17.114	9.9092e-06	24.365	0.00034463	0.0003137	8.2992e-05	954.63	3.7316e-06	3.395e-06	1069.7	207.03	3.7705e-06	3.3261e-06	262.95	76.022	58.701	17.54	3.1139e-06	24.937	-2.251	-43.511	-27.844	-105.007	-26.995	-42.143	-104.862	-97.659	36.241	31.024	-97.634	-90.996	-90.827	-82.916	-7.025	-83.906	-8191	255	
1915.416	1	1	0	0	0.16498	0.17804	0.25113	0.30343	0.20831	0.12537	0.42458	0.15271	0.051381	0.26115	0.19823	0.044795	0.18737	0.23213	0.24946	0.061606	0.40625	0.3	-0.48958	0.09375	-0.16875	-0.26042	0.33125	-0.58125	-0.0083333	0.29375	-0.64375	0.32292	-0.0125	-0.23542	0.46458	-0.4625	58.123	71.022	21.650	-46.610	121.059	51.677	176.614	41.710	-83.782	169.846	-110.523	-94.755	-91.278	185.426	65.871	93.283	0.00022605	0.00035003	0.0001007	971.35	3.931e-06	5.9416e-06	1086.8	206.99	6.0918e-06	2.4597e-06	266.08	75.9	57.783	17.263	4.1138e-06	24.249	0.00033326	0.00029804	8.1451e-05	955.08	3.5322e-06	3.2635e-06	1068.2	206.93	3.5713e-06	3.1797e-06	262.61	76.385	58.491	17.57	3.1712e-06	24.872	-16.412	1.087	-51.182	-104.773	-43.232	16.946	-104.933	-97.373	41.190	90.546	-97.795	-91.337	-90.466	-83.192	-9.321	-83.825	-8191	255	
1915.512	1	1	0	0	0.013511	0.024568	0.2273	0.26593	0.4207	0.22926	0.28974	0.14193	0.19802	0.11073	0.10131	0.26402	0.18987	0.10385	0.045572	0.13124	0.36458	0.18125	-0.55833	0.25	-0.125	-0.41875	0.28958	-0.48542	0.0125	0.46875	-0.47083	0.20833	-0.21667	-0.34167	0.31875	-0.30625	151.885	41.649	244.425	224.144	-9.549	46.804	179.691	105.117	121.273	103.005	43.924	38.094	106.373	101.151	2.176	90.241	0.00033142	0.00056085	0.00010972	972.29	4.0769e-06	1.0251e-05	1090.5	207.32	4.1852e-06	4.1336e-06	265.61	75.867	58.12	17.181	3.8185e-06	24.154	0.00031982	0.00028976	8.2082e-05	955.94	3.4483e-06	3.2255e-06	1067.9	207.43	3.5223e-06	3.167e-06	262.9	76.482	58.564	17.526	3.3468e-06	24.894	24.029	-60.700	-46.116	-104.943	111.020	-1.393	-104.930	-97.283	151.095	47.412	-97.743	-91.198	-90.776	-83.666	25.060	-84.131	-8191	255	
1915.608	1	1	0	0	0.21643	0.027561	0.097689	0.015958	0.21514	0.31871	0.20278	0.19548	0.08477	0.093441	0.20392	0.32458	0.09605	0.24825	0.096849	0.10371	0.26667	0.29792	-0.45208	0.12083	0.025	-0.48333	0.13125	-0.4375	-0.05	0.325	-0.48333	-0.072917	-0.039583	-0.50417	0.27292	-0.42292	188.862	162.497	217.945	48.079	211.575	41.601	34.404	168.090	20.201	36.065	-24.490	55.366	181.191	-39.917	78.474	166.097	0.00027327	0.00022033	0.0001729	974.93	8.0644e-07	5.9867e-07	1085	208.18	4.8422e-06	2.0905e-06	263.97	76.047	57.674	17.255	1.7784e-06	24.318	0.00031298	0.00028571	8.8691e-05	957.19	3.3181e-06	3.2619e-06	1068.4	207.26	3.4522e-06	3.1269e-06	263	76.529	58.387	17.528	3.6017e-06	24.851	5.130	129.232	-63.616	-104.842	-15.361	87.665	-104.897	-97.491	128.734	-7.999	-97.961	-91.037	-90.921	-83.390	-56.419	-83.980	-8191	255	
1915.704	1	1	0	0	0.33833	0.19074	0.12	0.097671	0.086463	0.092138	0.42246	0.39451	0.22702	0.19485	0.16452	0.25951	0.25846	0.23892	0.24701	0.12017	0.10833	0.28125	-0.55208	-0.11667	0.13542	-0.53125	0.22708	-0.2875	-0.48958	0.40208	-0.52292	-0.1375	0.083333	-0.4125	0.2625	-0.19375	154.919	207.954	62.268	-62.435	24.915	133.904	152.917	212.729	128.388	121.112	150.086	174.811	-7.365	-58.287	-15.668	-62.033	0.00024225	8.5623e-05	9.9067e-05	971.57	1.3214e-06	1.0503e-06	1086.6	207.33	2.629e-06	1.5805e-06	263.12	75.644	58.1	17.257	2.3258e-06	24.142	0.00030817	0.00028728	9.2547e-05	955.49	3.2443e-06	3.2343e-06	1068.1	206.9	3.3302e-06	3.1991e-06	263.05	76.304	58.301	17.547	3.6774e-06	24.85	12.993	-31.634	-106.610	-105.086	19.825	84.415	-104.999	-97.410	34.158	72.322	-97.793	-90.563	-90.525	-82.939	12.785	-83.806	-8191	255	
1915.825	1	1	0	0	0.23656	0.24387	0.13136	0.20558	0.14175	0.15237	0.18242	0.11547	0.14265	0.18472	0.13736	0.080663	0.089888	0.34046	0.1478	0.16133	-0.225	0.36042	-0.2	-0.0875	0.27917	-0.57083	0.029167	-0.054167	-0.43333	0.36042	-0.325	-0.12292	0.24792	-0.48125	0.125	0.075	145.808	182.532	99.682	207.633	-42.669	187.309	217.051	-87.996	121.143	127.017	221.870	-33.404	-69.094	-102.074	71.757	228.169	0.0003876	0.00025586	0.00016534	965.74	4.2324e-06	2.0322e-06	1086.4	208.82	3.4924e-06	9.4899e-07	264.03	75.694	57.771	17.148	4.7113e-06	24.625	0.00029964	0.00029394	9.3861e-05	952.82	3.1643e-06	3.3505e-06	1067.9	206.67	3.2239e-06	3.3636e-06	263.58	76.16	58.189	17.534	3.6907e-06	24.9	-14.854	-66.382	-14.983	-104.886	-40.410	135.441	-104.926	-97.392	71.837	148.242	-97.564	-91.130	-90.736	-83.192	30.907	-84.181	-8191	255	
1915.921	1	1	0	0	0.085233	0.15716	0.038322	0.035711	0.16103	0.23484	0.10983	0.36378	0.18433	0.34578	0.20227	0.22068	0.25623	0.18463	0.12126	0.2631	-0.13958	0.2375	-0.3	-0.36875	0.32292	-0.60833	-0.022917	-0.039583	-0.47083	0.28542	-0.41667	-0.3125	0.18958	-0.55208	0.12083	0.30625	-9.606	186.177	115.260	145.897	138.982	169.347	124.488	192.108	-113.913	8.556	-43.782	76.629	-61.172	53.104	64.639	133.842	0.00025239	0.00012395	9.4199e-05	972.37	3.8579e-06	2.914e-06	1084.8	208.97	3.7349e-06	2.7623e-06	264.52	75.586	58.037	17.088	3.7096e-06	24.287	0.00029072	0.00031533	9.1928e-05	953.68	3.074e-06	3.4962e-06	1065.6	206.77	3.1629e-06	3.517e-06	263.3	75.962	58.284	17.587	3.5858e-06	24.687	13.233	53.631	-21.072	-104.965	47.956	-91.864	-104.880	-97.388	22.073	83.491	-97.445	-91.309	-90.746	-83.176	58.115	-83.753	-8191	255	
1915.993	1	1	0	0	0.04818	0.040515	0.091159	0.17261	0.27835	0.27709	0.050977	0.3263	0.25276	0.04789	0.15612	0.025257	0.13026	0.058803	0.12674	0.28928	-0.2625	0.31042	-0.18542	-0.62708	0.275	-0.42083	-0.21667	0.052083	-0.72083	0.19583	-0.36042	-0.59375	0.425	-0.62292	-0.23125	0.2	-69.341	42.228	22.790	177.217	-84.928	56.877	-79.530	207.557	7.108	-57.037	127.900	158.409	108.382	36.624	-81.999	138.712	0.00032312	0.0010459	5.3111e-05	967.97	2.5465e-06	1.4161e-06	1088.1	207.35	1.5313e-06	1.5072e-06	264.99	75.721	57.485	17.122	5.8681e-07	24.146	0.00029183	0.00033616	8.6968e-05	952.53	3.1259e-06	3.7066e-06	1066	206.12	3.2723e-06	3.7394e-06	262.64	76.052	58.087	17.573	3.5005e-06	24.662	8.330	-52.778	-20.334	-104.678	72.690	-22.779	-104.940	-97.662	133.375	-70.029	-97.926	-91.273	-90.623	-82.933	43.199	-83.851	-8191	255	
1916.089	1	1	0	0	0.28344	0.27326	0.14832	0.032179	0.1778	0.066918	0.046869	0.34535	0.20456	0.20555	0.24049	0.053696	0.30021	0.37362	0.099549	0.14283	-0.10833	0.095833	0.035417	-0.5625	0.49375	-0.27917	-0.10417	0.13958	-0.65208	0.0625	0.11875	-0.57292	0.26042	-0.35	-0.1375	0.17292	79.398	59.871	77.200	100.445	213.295	61.606	218.567	160.578	-91.579	204.374	-35.621	214.118	182.551	-51.645	15.312	111.340	0.00032686	0.00044862	7.4267e-05	969.77	1.9695e-06	2.1068e-06	1082.9	207.32	5.607e-07	2.107e-06	263.92	75.677	57.542	17.123	1.4274e-06	24.184	0.00030773	0.00034682	8.7305e-05	951.21	3.3725e-06	3.7281e-06	1065.5	205.97	3.4903e-06	3.7773e-06	262.47	76.015	58.324	17.573	3.3777e-06	24.701	-18.853	-70.040	61.799	-105.151	219.743	242.680	-104.985	-97.647	89.770	-48.944	-97.919	-90.838	-90.476	-82.871	-103.470	-83.666	-8191	255	
1916.209	1	1	0	0	0.30566	0.15699	0.065314	0.173	0.1816	0.11488	0.16652	0.20401	0.070689	0.21492	0.078914	0.12345	0.16348	0.092578	0.45237	0.31308	0.0083333	-0.077083	0.37292	-0.68125	0.275	-0.23125	-0.40208	0.24583	-0.58542	0.035417	0.027083	-0.43542	0.37917	-0.29167	-0.175	0.1125	167.703	217.583	126.675	231.605	52.123	18.308	200.235	218.767	12.592	-16.166	-100.840	93.975	-57.418	175.487	-52.678	19.922	0.00040182	0.00054857	5.6033e-05	966.06	2.59e-06	2.6608e-06	1076.5	207	4.621e-06	5.886e-06	265.11	75.449	57.964	17.117	2.4177e-06	24.154	0.00031947	0.00033731	8.2636e-05	950.29	3.5679e-06	3.624e-06	1063.7	205.4	3.6542e-06	3.694e-06	262.53	76.04	58.489	17.552	3.3705e-06	24.752	-12.207	-64.271	-82.682	-104.887	0.372	-33.174	-104.847	-97.481	44.604	5.155	-97.569	-90.993	-90.839	-83.348	20.225	-83.936	-8191	255	
1916.304	1	1	0	0	0.02998	0.2234	0.29482	0.20914	0.12901	0.12926	0.031415	0.31899	0.092574	0.088957	0.13906	0.12895	0.41583	0.20035	0.19103	0.24838	-0.070833	0.16667	0.13958	-0.72708	0.37708	-0.12708	-0.65417	0.37917	-0.43542	-0.10417	0.11458	-0.68125	0.097917	-0.125	-0.55417	0.30417	43.600	-78.602	-83.753	113.172	230.422	-25.730	212.646	207.332	69.361	-26.419	-67.440	107.701	-107.543	242.777	-10.852	-23.238	0.00039966	0.00051954	6.0813e-05	967.19	4.3277e-06	5.0398e-06	1088	207.07	6.7304e-06	4.5825e-06	263.75	74.942	57.696	17.102	6.2432e-06	24.237	0.00033953	0.00033581	8.3694e-05	951.98	3.8452e-06	3.5508e-06	1066.3	205.83	3.8429e-06	3.5853e-06	261.69	76.058	58.448	17.486	3.4083e-06	24.772	-39.974	-70.605	-17.102	-104.890	-26.079	8.579	-104.785	-97.633	-33.883	71.250	-97.546	-90.566	-90.549	-83.240	42.023	-84.027	-8191	255	
1916.400	1	1	0	0	0.11629	0.13459	0.12263	0.2747	0.18194	0.14612	0.066075	0.22333	0.21995	0.12019	0.19031	0.055173	0.068934	0.27234	0.15866	0.085225	0.035417	-0.36667	0.36875	-0.61667	0.01875	-0.058333	-0.75417	0.16458	-0.37083	-0.05625	0.28125	-0.525	-0.091667	0.091667	-0.6	0.35208	165.816	142.119	97.412	-96.665	177.853	161.448	201.307	-101.317	7.993	202.886	-107.348	226.300	-113.293	-16.765	100.494	182.115	0.00041336	0.00032463	8.3704e-05	970.02	1.4175e-06	2.5773e-06	1081.5	206.49	4.1989e-06	2.3256e-06	263.54	75.453	57.367	17.116	3.0997e-06	24.35	0.00034771	0.00032622	8.3322e-05	952.24	3.9311e-06	3.4557e-06	1063.9	206.01	3.7756e-06	3.5322e-06	261.97	76.142	58.458	17.494	3.336e-06	24.872	-9.364	-53.059	-15.679	-104.816	175.406	23.410	-104.954	-97.462	34.088	-5.687	-97.643	-90.954	-90.898	-83.384	112.804	-83.715	-8191	255	
1916.496	1	1	0	0	0.20677	0.28649	0.23139	0.20475	0.16315	0.048714	0.42328	0.15301	0.096187	0.17732	0.14304	0.23218	0.20268	0.10983	0.043808	0.15484	0.13542	-0.33333	0.50625	-0.71458	0.075	0.070833	-0.84792	0.46042	-0.16667	-0.35833	0.20625	-0.675	-0.0083333	0.23542	-0.45833	0.30417	209.300	144.379	177.803	179.971	151.510	53.581	209.735	237.998	-90.520	114.352	193.029	-80.100	127.625	195.598	208.860	219.788	0.00019305	0.00054175	4.2489e-05	966.75	2.891e-06	2.7849e-07	1079.7	207.46	4.5204e-06	2.1655e-06	263.56	75.344	57.606	17.109	3.3464e-06	24.221	0.00033798	0.00032054	8.1281e-05	952.69	3.7626e-06	3.3615e-06	1064.6	206.88	3.6741e-06	3.4574e-06	262	76.323	58.36	17.506	3.342e-06	24.901	22.251	-59.342	216.338	-104.815	-76.061	-44.236	-104.930	-97.582	69.871	68.939	-97.569	-91.022	-90.627	-83.360	129.762	-83.978	-8191	255	
1916.592	1	1	0	0	0.19582	0.11787	0.32356	0.38373	0.1645	0.23286	0.23118	0.17517	0.066226	0.14947	0.29707	0.14437	0.10533	0.21756	0.057519	0.2454	0.09375	-0.49167	0.45625	-0.75	-0.17917	0.30417	-0.69167	0.32292	-0.15833	-0.40208	0.38958	-0.45	-0.29792	0.23125	-0.6375	0.13958	221.564	8.933	116.356	215.532	123.062	187.664	144.910	53.968	81.130	127.252	196.962	-64.664	210.098	-77.645	240.425	100.439	0.00026116	0.00065847	0.00016677	968.57	6.3622e-06	4.3111e-06	1079.8	207.32	5.5459e-06	5.4667e-06	264.23	75.801	57.6	17.126	3.9973e-06	24.318	0.00032301	0.00031756	8.408e-05	952.98	3.6358e-06	3.2758e-06	1064.2	206.76	3.5306e-06	3.3439e-06	262.09	76.563	58.3	17.451	3.5622e-06	24.903	2.776	-58.582	-74.996	-104.906	-24.922	150.082	-104.745	-97.319	20.701	11.053	-97.632	-90.556	-90.485	-83.159	153.173	-84.278	-8191	255	
1916.688	1	1	0	0	0.20256	0.091888	0.3791	0.34183	0.10957	0.2297	0.16204	0.38907	0.15661	0.12719	0.30889	0.21812	0.0025753	0.31168	0.12875	0.16544	0.26042	-0.44583	0.425	-0.57917	-0.325	0.21042	-0.64167	-0.025	-0.060417	-0.65625	0.23958	-0.31458	-0.14375	0.27917	-0.50833	-0.020833	-5.297	-24.374	159.743	211.849	-110.977	-111.186	57.441	171.421	184.881	190.226	-102.780	-67.997	-28.879	194.251	126.646	165.900	0.00036456	0.00055049	9.8207e-05	965.89	1.5821e-06	1.6465e-06	1081.5	206.39	5.31e-06	3.7857e-06	264.63	75.359	57.612	16.989	3.3497e-06	24.156	0.00031284	0.00030518	9.0041e-05	951.48	3.5235e-06	3.2361e-06	1065	206.3	3.3861e-06	3.3365e-06	262.91	76.263	58.333	17.379	3.6753e-06	24.888	-4.827	-32.430	-34.243	-104.724	-52.262	138.045	-104.661	-97.749	88.790	39.865	-97.903	-90.962	-90.575	-82.894	-17.932	-83.728	-8191	255	
1916.809	1	1	0	0	0.09478	0.12721	0.08643	0.19065	0.17688	0.095689	0.10268	0.29451	0.12253	0.22912	0.32442	0.10361	0.23288	0.28624	0.15628	0.26438	0.69583	-0.37708	0.3125	-0.19792	-0.43125	0.4375	-0.56042	-0.15	0.25417	-0.59167	0.27292	0	-0.39375	0.39167	-0.5	-0.26042	215.157	151.815	155.013	148.245	204.609	-75.980	-111.739	218.659	6.278	-71.400	139.896	236.484	161.611	75.643	112.238	152.397	0.00029767	0.00019224	0.00014386	968.5	1.417e-06	1.4381e-06	1082.9	206.54	3.3125e-06	3.9128e-06	262.87	74.95	57.619	16.904	1.9384e-06	24.371	0.00030652	0.00030476	9.4703e-05	953.59	3.5118e-06	3.2527e-06	1067.1	206.25	3.3129e-06	3.3404e-06	262.56	75.83	58.104	17.416	3.7941e-06	24.909	-12.286	55.399	2.841	-104.627	-27.010	-5.971	-104.539	-97.189	3.334	70.137	-98.143	-90.679	-90.962	-82.928	-73.365	-84.095	-8191	255	
1916.905	1	1	0	0	0.22775	0.30869	0.18769	0.17584	0.27266	0.16049	0.073403	0.1329	0.28652	0.29606	0.13587	0.18016	0.27243	0.12971	0.26537	0.1116	0.48958	-0.53542	0.24583	-0.20625	-0.44583	0.29167	-0.53333	-0.16875	0.3	-0.49792	0.05625	0.079167	-0.4125	0.27083	-0.50625	-0.27917	-85.281	120.523	133.820	219.653	-74.083	-55.293	37.399	145.794	179.325	-114.044	37.385	189.585	-104.275	78.485	176.867	56.329	0.00017141	8.6423e-05	0.00011303	968.87	9.8753e-07	2.2445e-06	1082.5	207.93	2.7457e-06	2.0295e-06	264.59	75.468	57.8	17.014	7.1846e-06	24.221	0.00029787	0.00031504	9.7835e-05	950.74	3.3587e-06	3.3223e-06	1064.9	206.58	3.2069e-06	3.4869e-06	263.36	76.094	58.081	17.469	3.7897e-06	24.805	-2.814	-2.345	-35.736	-104.833	-96.113	-31.251	-104.607	-97.266	24.690	1.069	-97.564	-90.701	-91.121	-83.590	47.420	-84.120	-8191	255	
1917.001	1	1	0	0	0.13542	0.18693	0.13865	0.53816	0.28326	0.19049	0.060342	0.040649	0.18697	0.10681	0.18076	0.24982	0.19223	0.10334	0.13056	0.33485	0.69375	-0.69792	0.225	-0.24375	-0.5125	0.36667	-0.49792	-0.19792	0.34792	-0.45	-0.19583	0.12917	-0.64167	0.32292	-0.27917	-0.35	243.409	37.095	223.805	237.834	-51.402	38.245	75.891	-46.128	177.960	155.278	171.142	202.560	214.478	163.583	212.374	95.565	0.00022324	0.00031257	0.00014472	966.21	3.0068e-06	2.4905e-06	1080.5	206.79	2.0049e-06	1.4485e-06	263.52	75.355	57.511	17.014	9.3161e-06	24.242	0.00028786	0.00033104	9.7474e-05	950.03	3.2852e-06	3.6014e-06	1063.5	206.11	3.1736e-06	3.7111e-06	262.38	75.872	58.122	17.542	3.5552e-06	24.73	-3.394	-95.536	-79.437	-104.606	51.943	197.992	-104.790	-97.407	187.336	-79.800	-97.915	-91.067	-90.740	-83.521	37.135	-84.323	-8191	255	
1917.098	1	1	0	0	0.12515	0.24253	0.22176	0.22842	0.17282	0.12773	0.27089	0.13292	0.29012	0.13937	0.063206	0.084457	0.32536	0.088388	0.354	0.043996	0.83125	-0.35625	0.029167	-0.0625	-0.5125	0.28542	-0.16667	-0.46667	0.30833	-0.45	-0.079167	0.25625	-0.79167	0.20833	-0.095833	-0.61667	-28.805	-115.043	151.299	-88.368	82.933	164.854	-36.508	-90.595	56.264	222.343	97.452	236.309	-69.636	208.943	154.004	134.593	0.00027378	0.0002235	0.00012107	970.22	1.2857e-06	2.8269e-06	1078.5	206.33	5.7413e-06	4.4228e-06	262.14	75.256	57.49	17.002	4.1972e-06	24.215	0.00029457	0.00033701	9.1299e-05	951.99	3.343e-06	3.7714e-06	1064.1	205.89	3.2455e-06	3.7143e-06	262.13	75.61	58.131	17.553	3.4177e-06	24.749	1.854	-109.018	-64.550	-104.714	-55.294	-21.779	-104.670	-97.470	-57.886	-36.037	-97.947	-90.609	-90.491	-83.302	37.377	-83.644	-8191	255	
1917.216	1	1	0	0	0.26615	0.10474	0.22353	0.1206	0.21563	0.14712	0.22886	0.191	0.11693	0.098634	0.1819	0.20182	0.02415	0.11322	0.090848	0.23628	0.56875	-0.3625	-0.05625	0.10833	-0.67292	0.058333	0.016667	-0.6625	0.36875	-0.31042	-0.3	0.24583	-0.40833	0.14792	0.13333	-0.67708	238.025	33.458	174.543	194.831	66.530	15.398	172.904	115.270	-24.478	105.017	35.267	44.211	97.407	118.785	207.983	160.635	0.00022912	0.00057351	0.0001507	964.84	3.7062e-06	1.5755e-06	1078.9	206.45	6.678e-07	6.2491e-06	262.96	75.203	57.543	16.878	4.1401e-06	24.276	0.00030488	0.00034875	8.7643e-05	949.54	3.427e-06	3.8134e-06	1062.1	205.32	3.4133e-06	3.7026e-06	261.91	75.768	58.283	17.514	3.3353e-06	24.766	16.133	-98.749	-47.869	-104.772	-38.016	81.082	-104.985	-97.435	-83.678	13.164	-98.041	-90.618	-90.395	-82.893	51.545	-83.955	-8191	255	
1917.288	1	1	0	0	0.072476	0.11326	0.056164	0.13667	0.059391	0.18652	0.21293	0.13484	0.22178	0.23438	0.23953	0.18876	0.044616	0.29777	0.1186	0.22975	0.65417	-0.072917	-0.15625	0.11458	-0.57292	0.0020833	-0.079167	-0.41875	0.2625	-0.2875	-0.35	0.275	-0.7	-0.097917	0.11667	-0.61875	200.015	-107.735	82.240	195.406	224.147	170.446	101.277	15.522	41.808	8.374	-77.906	200.598	164.394	97.860	23.552	84.595	0.00018002	0.00042488	5.7526e-05	967.64	4.5917e-06	3.9578e-06	1079	206.78	1.715e-06	9.4292e-07	263.01	75.236	57.259	16.99	2.1648e-06	24.217	0.0003241	0.00033264	8.5679e-05	951	3.594e-06	3.6073e-06	1063.3	205.75	3.6276e-06	3.5629e-06	261.78	75.625	58.29	17.495	3.2195e-06	24.726	-16.163	-45.102	3.917	-104.916	117.840	24.138	-104.690	-97.240	131.773	77.710	-97.593	-91.187	-90.893	-83.300	-6.258	-83.798	-8191	255	
1917.384	1	1	0	0	0.12388	0.28094	0.11128	0.30504	0.18564	0.26282	0.31941	0.091211	0.062038	0.2211	0.25092	0.16874	0.1449	0.31793	0.18402	0.34232	0.68542	-0.17292	-0.38333	0.16667	-0.48542	-0.0875	0.18125	-0.79375	-0.0083333	0.020833	-0.4625	0.11458	-0.41875	-0.14583	0.31042	-0.71875	15.356	225.768	-77.322	207.706	61.813	216.503	207.949	196.129	72.430	137.280	184.882	140.375	243.297	164.129	166.279	201.983	0.00034822	0.0003253	8.3333e-05	966.07	4.3446e-06	4.5292e-06	1081.8	206.41	3.0097e-06	1.3594e-06	263.35	75.807	57.894	16.953	6.9799e-07	24.227	0.00033176	0.00031806	8.4378e-05	951.17	3.7118e-06	3.5302e-06	1063.5	205.87	3.7439e-06	3.4554e-06	261.81	76.002	58.544	17.466	3.1121e-06	24.805	15.017	-12.111	-27.197	-104.768	76.875	63.006	-104.901	-97.334	-25.659	-39.289	-97.879	-91.057	-90.498	-83.501	137.231	-84.010	-8191	255	
1917.480	1	1	0	0	0.3658	0.072592	0.1105	0.1994	0.27131	0.1209	0.3996	0.099876	0.25431	0.2614	0.19451	0.20127	0.095775	0.24636	0.16553	0.23728	0.60625	0.05	-0.34792	0.30208	-0.49583	-0.36458	0.29583	-0.67083	0.0375	0.010417	-0.61042	0.28542	-0.375	-0.39583	0.18958	-0.75833	190.478	-87.862	-100.096	127.028	-31.004	-21.772	179.091	224.699	199.477	119.353	-13.512	-62.053	97.274	-103.805	54.331	81.119	0.00022116	0.00035439	7.205e-05	965.4	6.0374e-06	5.8985e-06	1084	206.01	3.649e-06	3.3875e-06	262.6	75.396	57.835	17.084	2.0766e-06	24.122	0.00034044	0.00030485	8.2491e-05	951.25	3.6971e-06	3.3856e-06	1064.5	205.83	3.7256e-06	3.2921e-06	261.7	76.001	58.42	17.508	3.0951e-06	24.803	-5.866	-21.037	-7.871	-104.852	-7.598	59.777	-104.855	-97.420	26.343	55.234	-97.739	-90.872	-90.524	-83.146	86.052	-84.187	-8191	255	
1917.601	1	1	0	0	0.45028	0.22315	0.12232	0.17324	0.26991	0.19978	0.30252	0.064244	0.19011	0.042498	0.059114	0.24931	0.092047	0.26979	0.07027	0.24878	0.57292	-0.014583	-0.49167	0.23333	-0.28542	-0.39375	0.375	-0.50208	-0.14792	0.31042	-0.70417	0.21042	-0.085417	-0.40625	0.4	-0.39792	88.847	54.370	135.310	78.997	130.820	49.990	198.392	235.973	52.366	-87.815	205.726	-31.261	-0.237	-12.687	28.420	213.269	0.00032545	0.00053046	0.00016279	969.36	9.5448e-07	1.3751e-06	1080.9	207.44	4.0562e-06	2.271e-06	262.78	74.876	57.58	16.973	2.7277e-06	24.309	0.0003334	0.00030107	8.0791e-05	951.78	3.5901e-06	3.3219e-06	1062.2	206.51	3.5556e-06	3.2147e-06	261.25	75.986	58.115	17.392	3.2194e-06	24.92	7.682	-103.965	-33.020	-105.107	-26.599	-10.025	-104.967	-97.185	64.962	67.381	-97.637	-90.927	-90.549	-83.893	5.565	-83.871	-8191	255	
1917.697	1	1	0	0	0.16973	0.43787	0.074412	0.28017	0.087116	0.15884	0.15182	0.017102	0.10408	0.35485	0.14414	0.083339	0.31996	0.24532	0.15822	0.066941	0.57708	0.27708	-0.58542	0.26042	0.091667	-0.34375	0.19375	-0.63125	0.052083	0.43333	-0.625	0.20625	-0.18958	-0.54375	0.33958	-0.35417	-27.182	234.244	92.161	183.911	2.816	149.103	201.980	175.614	58.209	-93.294	143.758	-102.661	217.167	73.207	102.318	-110.388	0.00036367	0.00027103	9.4914e-05	965.14	3.5374e-06	5.8527e-06	1079.5	207.12	3.9366e-06	2.468e-06	263.25	75.245	57.895	17.08	5.4092e-07	24.318	0.00032169	0.00028656	8.4761e-05	952.07	3.4073e-06	3.2499e-06	1063.9	206.63	3.4584e-06	3.1518e-06	261.79	76.258	58.216	17.441	3.3971e-06	24.876	-6.402	-22.360	95.851	-104.688	9.762	-1.964	-104.843	-97.293	23.125	192.778	-98.153	-90.816	-90.629	-83.599	145.748	-84.032	-8191	255	
1917.793	1	1	0	0	0.20415	0.26857	0.26364	0.085425	0.046301	0.22465	0.15862	0.31163	0.26483	0.404	0.3004	0.18208	0.061206	0.07119	0.14412	0.05457	0.28542	0.36875	-0.58542	0.060417	-0.1	-0.63958	0.125	-0.36042	-0.28125	0.34375	-0.6625	-0.025	0.15208	-0.58333	0.29583	-0.4	-78.544	221.716	95.902	102.247	104.797	107.527	184.044	187.531	-63.938	222.589	-68.995	-12.379	216.330	-11.226	11.753	43.530	0.00017276	0.0005158	5.2748e-05	966.06	1.8654e-06	3.1638e-06	1082.2	206.71	1.107e-06	3.6957e-06	264.14	75.591	57.417	17.024	6.558e-06	24.213	0.00031103	0.00028408	8.9153e-05	951.86	3.2956e-06	3.2098e-06	1065.6	206.15	3.3834e-06	3.125e-06	262.47	75.966	58.142	17.446	3.6227e-06	24.806	-27.288	-14.871	48.424	-104.943	140.733	80.070	-104.915	-97.267	68.389	-14.516	-97.871	-91.361	-90.476	-83.352	22.761	-83.740	-8191	255	
1917.890	1	1	0	0	0.052231	0.060353	0.23608	0.37053	0.095553	0.22054	0.12594	0.24074	0.076646	0.18112	0.22265	0.17217	0.25126	0.0084436	0.2349	0.038876	-0.020833	0.29792	-0.40208	-0.047917	0.05	-0.51458	0.10625	-0.26042	-0.49792	0.45833	-0.75833	-0.21458	0.21042	-0.50417	0.24167	0.016667	-24.923	199.524	186.755	178.832	148.706	-39.240	235.776	212.219	174.187	-22.377	147.006	70.171	-103.017	225.751	89.811	-31.242	0.00023426	0.00045151	2.6971e-05	966.88	2.2429e-06	3.6894e-06	1080.3	207.23	6.5789e-06	3.9153e-06	262.62	75.578	57.655	17.019	4.3569e-06	24.015	0.00030381	0.00028692	9.2301e-05	951.83	3.2658e-06	3.2226e-06	1064	206.26	3.2607e-06	3.1536e-06	262.83	75.932	58.125	17.433	3.7014e-06	24.694	27.322	68.247	33.587	-104.780	85.848	158.650	-104.887	-97.131	51.812	59.616	-97.593	-90.989	-90.554	-83.206	-80.587	-84.056	-8191	255	
1917.986	1	1	0	0	0.093458	0.15576	0.065718	0.18615	0.14929	0.14384	0.26856	0.093212	0.3776	0.44725	0.22927	0.35338	0.17474	0.21481	0.18469	0.14159	-0.041667	0.49167	-0.28333	-0.25208	0.22292	-0.61667	0.13333	0.016667	-0.55208	0.41875	-0.38958	-0.22292	0.28125	-0.625	0.14375	-0.091667	-32.867	82.002	238.595	175.793	114.255	73.955	207.745	29.821	65.090	66.024	173.526	220.769	-12.991	-93.180	37.063	159.824	0.00029249	0.00020042	9.2729e-05	963.38	4.1462e-06	2.7798e-06	1075.9	206.99	1.7018e-06	3.1427e-06	262.17	75.287	57.457	16.981	2.1215e-06	24.214	0.00029524	0.00029828	9.3204e-05	949.66	3.124e-06	3.3437e-06	1063.2	206.05	3.2464e-06	3.3277e-06	262.28	75.765	57.975	17.433	3.6559e-06	24.71	-24.935	75.805	-88.773	-104.843	-22.429	149.372	-104.749	-97.436	-14.202	85.847	-97.482	-90.816	-90.150	-83.261	-107.138	-84.296	-8191	255	
1918.082	1	1	0	0	0.3167	0.058175	0.034716	0.54918	0.017094	0.19595	0.22343	0.12015	0.18539	0.30088	0.36663	0.1963	0.22747	0.06653	0.1446	0.41028	-0.1125	0.39792	-0.24375	-0.22292	0.41667	-0.45208	-0.14583	-0.047917	-0.54792	0.36042	-0.30417	-0.43958	0.075	-0.51667	-0.097917	0.24167	45.661	200.181	55.869	201.018	69.337	10.357	-85.941	-66.300	5.158	107.113	-84.583	-39.595	201.395	81.071	71.609	39.699	0.00022568	0.00034935	5.2178e-05	962.7	1.0538e-06	2.9561e-06	1081.2	206.64	7.2613e-06	4.3414e-06	263.19	74.935	56.978	17.005	2.2578e-06	24.298	0.0002901	0.00031594	8.9681e-05	949.13	3.104e-06	3.5085e-06	1064.6	205.37	3.189e-06	3.6497e-06	261.71	75.591	57.857	17.472	3.6157e-06	24.686	11.585	112.619	229.634	-104.832	23.363	185.137	-104.829	-97.327	39.772	9.825	-97.347	-91.237	-90.578	-83.155	28.838	-83.619	-8191	255	
1918.178	1	1	0	0	0.37497	0.10662	0.14736	0.24404	0.054484	0.2947	0.23994	0.11643	0.11699	0.21507	0.3484	0.298	0.25764	0.067484	0.22411	0.16837	-0.1625	0.24792	-0.10208	-0.61667	0.41667	-0.54375	-0.125	0.225	-0.36875	0.28958	-0.19792	-0.4625	0.31875	-0.43542	-0.079167	0.275	-87.668	145.138	209.492	-64.471	94.935	42.961	244.620	14.679	230.235	166.066	-111.714	219.438	94.854	127.280	188.837	119.503	0.00041175	0.00010698	7.6627e-05	963.75	1.3418e-06	5.0398e-06	1079.9	206.53	6.0623e-06	8.09e-06	261.65	75.276	58.119	17.137	3.32e-06	24.212	0.00029653	0.00033732	8.8816e-05	949.2	3.2262e-06	3.7118e-06	1063.6	205.44	3.3537e-06	3.7551e-06	261.46	75.804	58.239	17.572	3.4088e-06	24.712	-8.379	-52.406	-81.008	-104.661	-32.735	-9.982	-104.739	-97.248	2.379	65.992	-97.386	-91.091	-90.745	-83.027	110.816	-84.056	-8191	255	
1918.297	1	1	0	0	0.08042	0.15883	0.022999	0.13184	0.1788	0.091771	0.19129	0.33509	0.14477	0.12127	0.11611	0.011607	0.22932	0.12145	0.19924	0.095545	-0.2625	0.21458	-0.085417	-0.60833	0.175	-0.37917	-0.22083	0.29167	-0.51042	-0.15417	-0.14792	-0.27708	0.14167	-0.3625	-0.35	0.27917	64.615	-115.413	36.342	-18.806	223.445	130.835	183.935	118.368	-52.415	113.057	207.620	-86.540	-53.533	89.128	203.592	-62.543	0.00031697	0.00018556	2.5629e-05	966.64	5.0867e-06	4.2471e-06	1079	206.46	3.1353e-06	4.1436e-06	262.79	75.537	57.343	16.979	3.054e-06	24.104	0.00030497	0.00033803	8.4114e-05	949.82	3.3998e-06	3.612e-06	1061.5	205.45	3.4547e-06	3.6858e-06	261.42	75.847	58.237	17.462	3.3437e-06	24.606	-10.016	-52.122	-88.786	-104.851	82.972	11.589	-105.160	-97.617	71.496	-9.889	-97.345	-90.734	-90.887	-83.777	10.412	-83.748	-8191	255	
1918.393	1	1	0	0	0.024825	0.074427	0.094201	0.10956	0.1648	0.24499	0.089052	0.19417	0.045649	0.18565	0.22927	0.15179	0.069066	0.14306	0.24754	0.45086	-0.42083	0.014583	0.24167	-0.61875	0.30417	-0.10833	-0.58125	0.21875	-0.42292	-0.095833	0.1625	-0.50208	0.19583	-0.18125	-0.47083	0.18542	-106.555	54.374	98.977	189.076	-67.841	218.603	62.728	233.283	-59.292	52.505	218.563	88.744	82.966	37.101	34.639	76.631	0.00026187	0.00032643	5.3569e-05	966.26	2.1959e-06	4.2013e-06	1079.2	207.65	3.3327e-06	6.8486e-06	263.13	75.201	57.342	16.982	1.4228e-06	24.209	0.00032337	0.00033308	8.2116e-05	949.28	3.594e-06	3.5638e-06	1061.5	205.22	3.638e-06	3.5763e-06	261.19	75.578	58.189	17.447	3.3327e-06	24.752	-17.959	-86.759	-74.783	-104.961	-26.831	42.126	-104.797	-97.412	80.644	10.372	-97.364	-91.193	-90.995	-82.944	24.935	-84.211	-8191	255	
1918.489	1	1	0	0	0.28497	0.22916	0.062454	0.12822	0.2384	0.23435	0.17025	0.25129	0.12469	0.33351	0.057224	0.17249	0.22794	0.092202	0.20615	0.15649	-0.15417	-0.058333	0.36667	-0.76667	0.2375	-0.17083	-0.55625	0.17083	-0.38125	-0.12292	0.26458	-0.55625	0.010417	0.01875	-0.48542	0.18542	237.280	54.416	69.953	92.178	228.645	74.092	-101.024	178.630	174.977	30.117	27.599	165.145	223.688	153.211	24.340	214.587	0.00041301	0.00051841	0.000122	964.4	2.0597e-06	2.0291e-06	1076.1	206.38	2.6725e-06	2.1812e-06	264.71	75.539	57.194	16.952	2.8589e-06	24.178	0.00033765	0.00032013	8.0335e-05	948.74	3.7531e-06	3.3906e-06	1060.8	205.57	3.6424e-06	3.3966e-06	261.47	75.818	58.183	17.425	3.2015e-06	24.744	-3.203	-62.940	-31.786	-104.767	175.491	-20.545	-104.818	-97.181	35.042	109.486	-97.440	-90.998	-90.306	-82.903	25.444	-83.696	-8191	255	
1918.585	1	1	0	0	0.12908	0.14124	0.049627	0.20162	0.24361	0.12266	0.16911	0.12759	0.15096	0.060891	0.13976	0.12308	0.12686	0.2691	0.12658	0.20416	-0.0083333	-0.21875	0.18125	-0.825	0.2375	-0.12292	-0.61458	0.23958	-0.32292	-0.20833	0.083333	-0.62083	0.14375	0.14792	-0.61042	0.18333	-47.185	135.707	34.557	196.349	57.263	-17.047	190.236	147.542	-85.625	16.991	242.557	-54.794	-33.954	98.807	128.071	18.382	0.00023604	0.00043225	0.00018376	965.68	8.4554e-06	3.4716e-06	1082.1	206.74	8.5386e-06	1.3342e-06	263.41	75.211	57.469	16.991	4.7471e-06	24.273	0.00033004	0.00030783	7.923e-05	950.06	3.7051e-06	3.239e-06	1061.7	205.63	3.6253e-06	3.2984e-06	261.48	76.108	58.33	17.403	3.1815e-06	24.846	-20.871	-21.168	-48.569	-104.682	-36.469	66.673	-104.849	-97.406	33.190	-35.480	-97.516	-90.757	-90.627	-83.102	9.020	-83.656	-8191	255	
1918.681	1	1	0	0	0.014885	0.17384	0.20556	0.27434	0.18086	0.1015	0.32391	0.043515	0.36179	0.067477	0.1971	0.40653	0.33204	0.109	0.10144	0.066124	-0.041667	-0.4125	0.35208	-0.66458	-0.12083	0.09375	-0.76458	0.23542	-0.08125	-0.25417	0.30625	-0.54375	-0.17708	0.24583	-0.56875	0.095833	111.988	156.670	-74.773	-71.848	-24.357	118.085	199.529	-20.885	-30.675	142.313	-73.654	-64.780	-100.083	81.581	-16.717	19.698	0.00017839	0.00056284	0.00013643	965.02	3.6989e-06	1.3035e-06	1080.4	206.9	6.2706e-06	3.018e-06	261.5	75.035	57.128	16.963	3.9831e-06	24.064	0.00032441	0.00030823	7.954e-05	950.01	3.6403e-06	3.2355e-06	1060.4	205.87	3.4539e-06	3.2891e-06	261.01	75.821	57.929	17.345	3.2503e-06	24.862	1.923	12.941	-13.930	-104.906	56.835	-34.741	-104.782	-97.606	37.610	96.856	-97.359	-90.813	-90.707	-83.061	19.398	-84.099	-8191	255	
1918.778	1	1	0	0	0.2882	0.10923	0.029255	0.08919	0.20856	0.11528	0.16654	0.22524	0.17556	0.22051	0.17774	0.32579	0.15507	0.085108	0.2033	0.30869	0.14583	-0.58958	0.50417	-0.775	-0.14792	0.20208	-0.71667	0.15625	-0.23542	-0.41458	0.24792	-0.37917	-0.24375	0.29375	-0.65833	0.18125	-21.440	25.369	150.113	203.329	-9.650	138.960	181.807	-2.910	-17.192	-47.609	-67.323	224.134	122.572	143.871	223.935	194.554	0.00029755	0.00049448	0.0001098	963.45	1.6841e-06	4.5465e-06	1076.6	205.25	4.9156e-06	3.4934e-06	262.08	75.464	57.102	16.923	1.8467e-06	24.127	0.00031128	0.00029583	8.2088e-05	947.01	3.4779e-06	3.1737e-06	1058.4	205.47	3.3632e-06	3.3218e-06	261.39	75.775	57.747	17.305	3.637e-06	24.846	-5.235	-31.326	211.661	-104.765	-48.499	38.651	-104.730	-97.253	68.285	-11.495	-97.579	-90.982	-90.576	-83.147	27.916	-84.028	-8191	255	
1918.898	1	1	0	0	0.090822	0.10629	0.16506	0.20119	0.26222	0.089974	0.20441	0.17155	0.069673	0.17581	0.15031	0.29854	0.19583	0.07693	0.19568	0.15756	0.21667	-0.47708	0.53542	-0.48333	-0.31667	0.18333	-0.72292	0.175	0.2125	-0.52083	0.33125	-0.21667	-0.31667	0.38542	-0.40625	-0.10625	71.469	28.945	182.468	208.014	-44.542	-55.608	185.550	98.952	63.301	106.417	-105.826	-73.594	-109.814	219.854	-92.244	111.831	0.00034419	0.00060972	0.00014186	963.09	1.3174e-06	3.352e-06	1074.8	205.45	8.5918e-06	2.5915e-06	261.35	75.384	57.36	16.833	3.0347e-06	24.091	0.00031825	0.00031184	9.4086e-05	949.1	3.579e-06	3.3222e-06	1059.7	205.43	3.499e-06	3.4129e-06	261.25	75.79	57.912	17.285	3.8548e-06	24.75	-19.315	-33.554	-104.142	-104.669	78.726	133.685	-104.915	-97.272	-19.122	-81.468	-97.639	-90.885	-90.818	-83.108	53.673	-84.176	-8191	255	
1918.994	1	1	0	0	0.17173	0.10737	0.078444	0.1633	0.16095	0.11357	0.23588	0.10153	0.12264	0.31085	0.21789	0.080658	0.19738	0.15452	0.13485	0.10033	0.56667	-0.45625	0.15833	-0.43542	-0.1875	0.1875	-0.66458	-0.020833	0.29583	-0.6	-0.0125	-0.14583	-0.29375	0.30833	-0.38958	-0.089583	0.031	190.243	-46.539	223.363	-74.883	12.011	161.056	87.770	-77.594	-23.961	126.930	99.900	237.225	-58.997	-63.027	144.365	0.00033659	0.00040936	8.9675e-05	962.24	4.1808e-06	3.212e-06	1079.8	206.4	8.8517e-06	1.6141e-06	261.62	74.787	57.217	16.958	2.8101e-06	24.221	0.0003104	0.0003089	9.8741e-05	947.7	3.5241e-06	3.3378e-06	1060.9	205.54	3.3521e-06	3.3685e-06	261.95	75.48	57.899	17.341	3.8119e-06	24.73	-19.842	227.181	31.098	-104.783	15.768	26.968	-104.844	-97.491	32.215	-75.085	-97.686	-90.908	-90.360	-83.438	-99.836	-83.533	-8191	255	
1919.089	1	1	0	0	0.24809	0.27099	0.2274	0.099497	0.34033	0.12316	0.20922	0.18586	0.076525	0.14448	0.44312	0.28202	0.13427	0.23139	0.13626	0.36893	0.46458	-0.51667	0.22083	-0.20417	-0.48542	0.42708	-0.50208	-0.22917	0.2375	-0.69792	0.014583	-0.15	-0.57917	0.28333	-0.50625	-0.25208	-63.467	232.178	-32.560	-24.933	219.239	-110.880	-84.829	-77.135	42.720	161.186	72.680	-81.250	156.656	229.787	102.824	224.718	0.00016196	0.00022372	4.0549e-05	955.39	2.3642e-06	7.2963e-06	1070.5	205.7	4.6551e-06	1.8064e-06	261.43	74.263	57.257	16.762	7.859e-06	24.035	0.00029326	0.00031501	9.5891e-05	942.93	3.3566e-06	3.4789e-06	1056.7	204.65	3.2503e-06	3.569e-06	261.2	75.212	57.636	17.314	3.7717e-06	24.683	-25.864	-75.819	240.842	-104.713	36.687	15.292	-104.768	-97.457	52.549	-62.694	-97.417	-90.643	-90.619	-83.392	62.947	-84.225	-8191	255	
1919.162	1	1	0	0	0.13082	0.23544	0.031389	0.10496	0.16878	0.23386	0.16378	0.36073	0.15647	0.19968	0.18945	0.13762	0.15415	0.20848	0.23397	0.21082	0.61875	-0.57917	0.075	-0.15833	-0.59583	0.16458	-0.46042	-0.22708	0.32083	-0.61875	-0.22083	0.125	-0.625	0.18542	-0.18333	-0.29583	84.185	-44.280	98.547	163.426	21.386	195.922	35.099	22.310	221.301	160.142	184.898	193.067	219.963	220.409	16.369	-101.215	0.00028974	0.00040137	2.6989e-05	958.32	2.8456e-06	5.2153e-06	1069.7	205.86	4.5545e-06	2.7123e-06	261.41	74.731	57.502	16.815	3.5444e-06	24.185	0.00029509	0.00034378	9.6862e-05	944.1	3.3374e-06	3.7848e-06	1056.4	205.05	3.2303e-06	3.7744e-06	261.25	75.113	57.702	17.325	3.593e-06	24.659	-21.241	-109.316	-36.602	-104.877	6.083	27.695	-104.728	-97.039	33.949	-43.486	-97.898	-90.887	-90.768	-83.114	49.450	-83.986	-8191	255	
1919.281	1	1	0	0	0.25825	0.27698	0.1799	0.024888	0.23393	0.14065	0.29888	0.041324	0.16716	0.026186	0.26943	0.25783	0.21389	0.26944	0.21168	0.14281	0.64792	-0.38333	-0.070833	0.095833	-0.58542	0.020833	-0.27917	-0.61875	0.32083	-0.50625	-0.28125	0.0625	-0.71458	0.175	-0.26667	-0.58125	102.419	63.295	-42.102	129.404	134.202	127.234	-66.714	152.823	46.725	55.601	230.962	-89.788	-73.445	143.478	207.647	215.617	0.00040535	0.00068176	6.5496e-05	958.12	1.9923e-06	1.002e-06	1077.1	206.15	4.8792e-06	2.5586e-06	261.51	74.979	57.013	16.809	4.1946e-06	24.266	0.00029022	0.00033693	8.9963e-05	942.36	3.2785e-06	3.6754e-06	1055.2	204.5	3.2268e-06	3.6187e-06	260.42	75.083	57.402	17.35	3.2737e-06	24.661	-1.843	-80.649	-46.013	-104.599	121.564	51.153	-104.604	-97.114	-11.828	-30.767	-97.442	-90.709	-90.736	-83.176	56.374	-83.845	-8191	255	
1919.377	1	1	0	0	0.25626	0.1123	0.3385	0.23817	0.070083	0.198	0.18077	0.27649	0.062874	0.26175	0.26387	0.063061	0.17442	0.10969	0.38772	0.12903	0.59375	-0.50833	-0.39583	0.26667	-0.48542	-0.06875	0.025	-0.40625	0.49167	-0.16042	-0.43333	0.23333	-0.72917	-0.077083	0.18958	-0.58125	88.226	25.726	243.426	-96.617	156.474	121.463	124.910	158.015	167.491	97.722	116.749	148.513	87.324	242.916	-58.016	-95.176	0.00015797	0.00024995	2.8836e-05	958.65	5.3882e-06	3.2461e-06	1073	204.82	3.5741e-06	4.4828e-06	260.11	75.092	57.11	16.788	1.9967e-06	24.251	0.00029905	0.00033398	8.5062e-05	941.31	3.4589e-06	3.6998e-06	1053.4	203.86	3.4652e-06	3.6154e-06	259.83	74.98	57.761	17.337	3.2652e-06	24.638	-20.352	58.489	-21.207	-104.826	-14.865	-19.208	-104.702	-97.703	-40.570	-44.381	-97.828	-90.694	-90.630	-82.790	52.316	-84.266	-8191	255	
1919.473	1	1	0	0	0.24822	0.12987	0.20793	0.080203	0.23549	0.15189	0.38209	0.18505	0.16814	0.06726	0.31914	0.19089	0.33275	0.091085	0.11987	0.27682	0.6125	-0.08125	-0.28333	0.08125	-0.56458	-0.00625	-0.09375	-0.69583	0.37708	-0.047917	-0.5375	0.34583	-0.57292	-0.11042	0.13958	-0.54792	198.597	-12.396	0.963	220.244	204.165	164.840	160.028	206.672	146.044	-59.910	-59.921	226.714	-48.971	-22.435	23.805	-67.667	0.0003746	0.00045941	0.00011166	952.69	3.3563e-06	4.5169e-06	1069.6	204.77	1.047e-06	5.8026e-07	262.96	74.341	57.013	16.882	4.6446e-06	24.26	0.00032852	0.0003269	8.4374e-05	939.28	3.6106e-06	3.6369e-06	1053.1	203.88	3.6865e-06	3.5104e-06	260.23	74.807	57.655	17.285	3.1858e-06	24.65	-11.645	102.211	-11.297	-104.909	186.182	7.014	-104.808	-97.215	50.390	-99.819	-97.681	-91.035	-90.816	-82.897	119.405	-83.677	-8191	255	
1919.570	1	1	0	0	0.1856	0.033605	0.24104	0.10373	0.1294	0.1205	0.1811	0.085699	0.079661	0.23606	0.21467	0.04508	0.28406	0.21624	0.1581	0.21954	0.39375	-0.31667	-0.54167	0.10625	-0.42708	-0.14583	0.18125	-0.56458	0.045833	-0.16042	-0.40625	0.16458	-0.50208	-0.2625	0.19583	-0.58958	18.461	136.137	-9.955	111.540	150.891	102.989	153.189	-73.321	-57.164	-103.326	189.589	-33.495	-3.842	-20.412	123.081	98.724	0.00039013	0.00054752	6.4691e-05	957.15	2.1168e-06	6.2528e-06	1072.6	205.07	5.5123e-06	4.0382e-06	260.59	74.681	57.258	16.899	1.3318e-06	24.059	0.00034104	0.00031594	8.3384e-05	939.53	3.7878e-06	3.505e-06	1052	204.2	3.8237e-06	3.3969e-06	259.64	75.168	57.938	17.361	3.1673e-06	24.766	-14.839	-44.100	44.507	-104.929	-82.611	-9.455	-104.564	-97.448	-5.812	34.114	-97.804	-91.029	-90.204	-82.885	63.269	-84.000	-8191	255	
1919.690	1	1	0	0	0.07712	0.10578	0.04449	0.12616	0.13351	0.15009	0.22757	0.31439	0.20303	0.12557	0.22224	0.30978	0.15782	0.1286	0.30607	0.053329	0.46875	0.070833	-0.5125	0.18542	-0.48125	-0.32708	0.36042	-0.60208	-0.029167	0.10625	-0.51875	0.2875	-0.42708	-0.28542	0.3125	-0.43542	193.697	119.683	-100.399	218.325	-56.667	243.200	-73.817	226.465	-82.193	-14.602	-0.138	-84.892	-46.017	-8.201	5.176	69.016	0.00022245	0.00039701	0.00015267	953.83	3.3663e-06	6.7033e-06	1072	206.48	7.7702e-06	3.7785e-06	261.06	74.842	57.021	16.923	1.6567e-06	24.075	0.00034552	0.00030957	8.2721e-05	941.05	3.7129e-06	3.3967e-06	1054.5	205.03	3.72e-06	3.3252e-06	259.66	75.419	57.891	17.354	3.1844e-06	24.768	1.077	-37.218	16.074	-104.820	25.922	-30.835	-104.972	-97.321	67.286	-1.244	-97.339	-90.824	-90.877	-82.945	-68.803	-83.949	-8191	255	
1919.762	1	1	0	0	0.11438	0.061076	0.30326	0.30302	0.30309	0.10901	0.14362	0.068722	0.070855	0.13004	0.18083	0.15361	0.060723	0.099297	0.12695	0.43175	0.34583	0.19583	-0.47708	-0.016667	-0.16667	-0.64792	0.275	-0.51667	-0.08125	0.1125	-0.73125	0.0875	-0.1	-0.54167	0.35625	-0.49792	165.550	170.734	157.344	136.295	210.564	127.892	69.449	-111.958	67.786	56.370	124.444	-40.226	151.601	-61.121	-28.826	-73.090	0.00038254	0.00030022	4.4258e-05	956.78	5.679e-06	5.5394e-06	1066.8	206.37	7.2025e-06	3.7973e-06	261.24	74.971	57.471	16.915	3.2706e-06	24.113	0.00032847	0.00029965	8.1772e-05	942.29	3.5682e-06	3.2968e-06	1054.3	205.41	3.6211e-06	3.2517e-06	260.5	75.615	57.79	17.321	3.2773e-06	24.823	-8.548	-56.225	225.721	-104.715	-25.670	-11.229	-104.731	-97.387	-7.136	20.251	-97.772	-90.828	-90.197	-83.277	32.736	-83.798	-8191	255	
1919.858	1	1	0	0	0.20548	0.12544	0.097009	0.19863	0.11463	0.13006	0.089308	0.071391	0.34199	0.26229	0.22336	0.22476	0.060195	0.41123	0.066692	0.29733	0.12292	0.13958	-0.65833	-0.045833	0.070833	-0.72708	0.020833	-0.575	-0.17292	0.27708	-0.86458	-0.045833	-0.077083	-0.6375	0.2625	-0.3625	1.707	59.708	-89.135	6.783	-58.436	51.577	210.042	158.428	21.292	-72.909	223.650	-72.871	-9.429	-109.315	48.430	-65.411	0.00036388	0.00025355	7.5038e-05	959.03	2.2371e-06	2.149e-06	1071.7	205.51	2.9468e-06	1.9235e-06	262.39	74.96	56.969	16.886	4.2216e-06	24.12	0.00031307	0.00028629	8.3716e-05	943.09	3.2934e-06	3.1946e-06	1053.4	204.78	3.3151e-06	3.0368e-06	260.69	75.477	57.659	17.268	3.3495e-06	24.742	-14.711	27.574	12.567	-104.756	227.476	42.906	-104.828	-97.227	178.697	-11.630	-97.562	-90.760	-90.255	-83.550	144.796	-83.653	-8191	255	
1919.979	1	1	0	0	0.15611	0.075365	0.32753	0.25205	0.17354	0.19446	0.31562	0.086731	0.27876	0.077091	0.10923	0.25003	0.16177	0.11383	0.1944	0.2655	0.13542	0.32917	-0.55208	-0.16458	0.05	-0.47292	0.3	-0.35208	-0.5125	0.3	-0.4875	-0.23125	0.2125	-0.56042	0.4375	-0.31042	-71.610	96.650	-17.627	115.336	88.325	-78.556	124.434	-64.985	35.980	61.452	-55.696	197.786	-91.048	-76.806	160.418	217.007	0.00031854	0.0003693	0.00016378	955.32	5.783e-06	3.5288e-06	1070.4	206.27	4.5328e-06	2.0671e-06	261.03	74.596	57.249	17.006	1.5922e-06	24.212	0.0002938	0.00027556	8.5507e-05	939.75	3.1086e-06	3.006e-06	1053.1	204.92	3.1688e-06	2.9874e-06	260.45	75.419	57.631	17.334	3.4521e-06	24.755	-8.618	-98.595	-37.403	-104.795	28.757	14.948	-104.868	-97.086	63.682	90.016	-97.297	-90.890	-90.773	-82.871	101.969	-83.757	-8191	255	
1920.075	1	1	0	0	0.043519	0.10977	0.13544	0.1243	0.056703	0.20544	0.32201	0.19649	0.12852	0.081073	0.10895	0.21285	0.2868	0.14622	0.33063	0.29225	-0.091667	0.45	-0.46875	-0.25208	0.40417	-0.42083	-0.00625	-0.027083	-0.41042	0.28542	-0.6875	-0.13125	0.3375	-0.56875	0.13125	-0.025	-99.695	-15.289	62.700	164.583	16.811	-9.424	193.059	128.982	137.541	11.525	126.066	-111.438	102.030	182.351	48.174	239.338	0.00027268	0.00065928	0.00010937	956.42	3.8293e-06	6.6661e-06	1075.1	206.93	3.4614e-06	7.7889e-07	261.3	74.329	57.386	17.023	4.2712e-06	23.997	0.0002853	0.00027541	8.9487e-05	940.74	3.095e-06	3.1276e-06	1056	204.8	3.1647e-06	3.0632e-06	261.23	75.25	57.7	17.348	3.5859e-06	24.635	-12.409	49.736	-70.932	-104.713	-43.395	47.689	-104.848	-97.215	47.063	-60.129	-97.506	-90.529	-90.349	-82.944	21.164	-83.934	-8191	255	
1920.171	1	1	0	0	0.10815	0.050453	0.11319	0.24487	0.13201	0.20257	0.3642	0.22104	0.17349	0.075356	0.12413	0.19015	0.016336	0.043554	0.30648	0.39567	0.085417	0.53542	-0.33542	-0.43958	0.42083	-0.79583	-0.0041667	-0.1375	-0.53333	0.325	-0.32708	-0.39583	0.25417	-0.46667	-0.28542	0.27917	-69.994	-101.130	211.822	-22.021	92.099	19.841	-91.541	36.930	-71.673	157.957	79.934	-68.696	217.876	96.019	119.100	196.547	0.00046911	0.00037518	9.8106e-05	955.9	1.7315e-06	1.6763e-06	1070.7	205.12	1.3371e-06	3.6134e-06	263.21	74.362	56.981	17.058	3.7482e-06	24.021	0.0002872	0.00029839	8.9378e-05	941.18	3.0179e-06	3.3377e-06	1054.9	204.63	3.079e-06	3.3106e-06	261.03	75.059	57.481	17.39	3.4945e-06	24.628	4.204	-45.017	-53.988	-104.715	-111.585	238.946	-104.602	-97.162	168.920	155.960	-97.225	-91.084	-90.703	-83.133	9.977	-83.910	-8191	255	
1920.290	1	1	0	0	0.19567	0.083228	0.22033	0.30431	0.048264	0.32174	0.3234	0.21344	0.18607	0.17301	0.36881	0.14006	0.22534	0.11262	0.076133	0.077686	-0.26458	0.31042	-0.19167	-0.49167	0.51875	-0.51042	-0.21875	0.033333	-0.51042	0.36042	-0.072917	-0.4	0.42083	-0.45	0.11042	0.25208	96.562	125.207	-70.543	198.600	188.240	-66.877	237.258	158.113	38.349	173.788	239.243	190.920	-111.892	129.841	144.539	172.384	0.00034142	0.00081006	6.4737e-05	958.03	3.8747e-06	1.5523e-06	1070.4	205.88	3.6802e-06	9.8187e-07	260.78	74.645	57.296	16.997	2.8194e-06	24.144	0.00027949	0.00031203	8.648e-05	939.88	3.018e-06	3.4704e-06	1052.2	204.69	3.1322e-06	3.5006e-06	260.01	75.093	57.607	17.456	3.3585e-06	24.665	-14.892	-18.942	-8.141	-104.806	19.786	81.946	-104.758	-97.403	148.226	-34.494	-97.676	-90.677	-90.625	-83.003	23.765	-83.848	-8191	255	
1920.386	1	1	0	0	0.035821	0.18995	0.24836	0.22849	0.16738	0.072375	0.088861	0.22262	0.17429	0.18501	0.13665	0.1244	0.12567	0.064118	0.2078	0.1255	-0.36458	0.19792	-0.25625	-0.78333	0.48125	-0.4875	-0.38333	0.31667	-0.64375	0.19583	-0.225	-0.51042	0.4125	-0.1875	-0.041667	0.19375	-87.794	-85.545	-67.385	210.392	113.917	-47.612	81.277	240.641	-83.356	24.552	241.575	-115.021	-90.867	40.594	-106.204	147.296	0.00020971	0.00031367	0.00014732	958.64	9.2106e-07	3.9661e-06	1070.4	206.37	5.9052e-06	5.4468e-06	262.4	74.971	57.311	16.999	3.9659e-06	24.175	0.00028557	0.00032053	8.1608e-05	940.24	3.0887e-06	3.4934e-06	1051.7	204.29	3.1826e-06	3.5463e-06	259.89	75.055	57.689	17.43	3.1954e-06	24.562	18.351	-20.378	-84.263	-104.703	179.650	-22.001	-104.740	-97.200	163.732	-1.695	-97.663	-91.451	-90.378	-82.848	65.685	-83.952	-8191	255	
1920.458	1	1	0	0	0.21557	0.30315	0.16289	0.14571	0.28984	0.22651	0.14153	0.032182	0.27184	0.33909	0.046951	0.29034	0.17225	0.42869	0.28068	0.06692	-0.066667	0.30417	0.2	-0.625	0.36458	-0.37917	-0.45417	0.4875	-0.33542	0.014583	-0.14583	-0.68958	0.11042	-0.12083	-0.18958	0.26458	-25.238	23.887	59.128	154.133	87.026	-54.579	188.679	208.104	22.207	41.765	-105.654	198.050	25.416	168.207	2.048	160.947	0.0003625	0.0007167	0.00016102	956.79	3.6397e-06	3.006e-06	1070.3	205.34	5.3398e-06	4.0831e-06	260.04	74.332	56.994	16.924	6.2169e-06	24.355	0.00029479	0.00032199	7.933e-05	938.87	3.2643e-06	3.3816e-06	1051.2	203.95	3.3057e-06	3.4666e-06	259.42	75.068	57.749	17.358	3.2155e-06	24.641	-21.743	-19.835	-26.223	-104.625	-80.397	-80.049	-104.749	-97.380	129.744	63.496	-97.654	-90.787	-90.699	-83.007	-0.029	-84.102	-8191	255	
1920.578	1	1	0	0	0.17495	0.13005	0.10679	0.2874	0.13088	0.34336	0.090266	0.13672	0.014663	0.20278	0.037525	0.21845	0.11804	0.18422	0.13303	0.2906	-0.0375	0.16667	0.31667	-0.64167	0.37708	-0.3625	-0.4625	0.3875	-0.5125	-0.05625	0.16667	-0.58542	0.083333	-0.0041667	-0.28958	0.40625	-88.845	234.188	-56.883	162.305	69.176	194.866	74.243	186.699	53.393	87.278	-41.482	175.729	156.620	213.542	204.613	-72.844	0.00034572	0.00053942	0.00013934	956.26	3.2774e-06	1.8628e-06	1075.3	205.17	1.2821e-06	4.0064e-06	262.04	75.025	57.085	16.991	1.9257e-06	24.167	0.00031852	0.00031501	8.0009e-05	939.07	3.5418e-06	3.3624e-06	1053.6	204.02	3.5861e-06	3.4256e-06	259.58	75.234	57.763	17.343	3.1914e-06	24.65	-15.060	-20.992	-20.120	-104.648	27.577	26.644	-104.816	-97.164	32.969	34.726	-97.220	-91.038	-90.438	-82.956	156.377	-83.983	-8191	255	
1920.674	1	1	0	0	0.16741	0.28473	0.13632	0.30709	0.095949	0.2975	0.083342	0.099355	0.15966	0.15352	0.18173	0.25928	0.21532	0.25976	0.077065	0.21819	-0.16042	-0.20833	0.26042	-0.5375	0.30625	-0.15208	-0.84167	0.32708	-0.30208	0.025	0.30417	-0.71458	0.1875	-0.03125	-0.78958	0.375	-98.765	178.867	168.227	242.050	77.496	-13.946	200.567	97.281	-15.396	228.238	-96.732	240.070	228.283	164.964	218.703	214.575	0.00032976	0.00032689	9.3557e-05	957.29	3.8131e-06	4.3487e-06	1071	204.93	1.1892e-06	3.1879e-06	262.61	74.448	57.221	16.798	1.9601e-06	24.325	0.00032653	0.00030656	7.8435e-05	940.57	3.6658e-06	3.2237e-06	1052.4	204.23	3.5776e-06	3.3061e-06	259.86	75.298	57.792	17.305	3.0975e-06	24.742	-9.903	-66.963	-56.428	-104.700	1.207	29.059	-104.782	-97.620	-76.895	175.656	-97.603	-90.819	-90.787	-82.958	-80.337	-84.490	-8191	255	
1920.771	1	1	0	0	0.1495	0.075294	0.074062	0.21911	0.15211	0.10604	0.24511	0.093199	0.066972	0.099667	0.26473	0.24095	0.22558	0.31715	0.10059	0.21664	-0.060417	-0.17083	0.325	-0.85	0.20208	0.18125	-0.57917	0.17083	-0.35208	-0.50625	0.19583	-0.50208	-0.066667	0.14375	-0.3375	0.22292	133.292	74.899	182.409	219.428	31.615	192.160	234.910	243.838	160.265	-47.533	76.736	85.971	244.722	184.454	135.027	59.579	0.0003699	0.00065759	0.00011863	959.9	4.7183e-06	1.8974e-06	1072.1	205.63	4.5015e-06	4.6347e-06	262.71	74.518	56.607	16.967	3.3943e-06	24.388	0.00032297	0.00030247	7.6634e-05	942.6	3.6283e-06	3.1626e-06	1052.7	204.48	3.5648e-06	3.3422e-06	260.11	75.414	57.727	17.291	3.2772e-06	24.911	-18.904	-45.728	-87.411	-104.686	-22.950	7.176	-104.933	-97.088	144.532	39.092	-97.438	-90.832	-90.102	-82.982	52.554	-83.671	-8191	255	
1920.867	1	1	0	0	0.28043	0.22605	0.17391	0.22721	0.06523	0.14272	0.14406	0.19108	0.4206	0.060137	0.091256	0.12682	0.23756	0.20503	0.27081	0.11307	0.12083	-0.30208	0.30625	-0.51458	0.0625	0.04375	-0.58125	0.2625	0.15625	-0.47917	0.21458	-0.47292	-0.0020833	0.25417	-0.74375	0.2	-25.316	-112.704	-58.883	172.417	242.192	217.801	201.717	128.591	216.065	107.222	79.895	194.875	-104.890	178.924	-94.040	70.121	0.0003226	0.00039125	2.0017e-05	960.4	2.2319e-06	2.521e-06	1070.9	205.2	1.2199e-06	2.3653e-06	261.69	74.736	57.231	17.009	2.5831e-06	24.181	0.00032458	0.00031249	8.235e-05	944.43	3.6744e-06	3.2852e-06	1057.1	205.04	3.5157e-06	3.3249e-06	260.11	75.521	57.844	17.36	3.4661e-06	24.855	2.336	-73.377	-25.513	-104.686	-92.279	44.088	-105.007	-97.389	-109.673	125.919	-97.308	-90.586	-90.528	-83.090	32.054	-84.217	-8191	255	
1920.963	1	1	0	0	0.18905	0.23663	0.24329	0.37621	0.069784	0.15376	0.38935	0.34337	0.27372	0.11482	0.043247	0.089873	0.19491	0.15968	0.12974	0.065697	0.47292	-0.30833	0.30625	-0.6625	-0.13958	0.34583	-0.59792	-0.05625	0.085417	-0.57083	0.064583	-0.29375	-0.30208	0.35208	-0.40208	0.10417	215.527	-84.938	13.630	203.402	52.401	-92.786	96.531	185.749	144.990	63.591	132.736	143.590	-74.569	61.306	186.218	161.375	0.00027119	0.00049698	7.6788e-05	965.1	4.3562e-06	1.8778e-06	1073.9	205.74	1.0267e-05	4.6885e-06	261.63	74.61	56.963	16.958	3.7871e-06	24.055	0.00031655	0.00030876	8.7518e-05	946.34	3.5814e-06	3.2164e-06	1057.7	205.33	3.4007e-06	3.2835e-06	261.16	75.448	57.635	17.307	3.6257e-06	24.826	-10.375	-37.646	104.324	-104.676	-58.436	26.186	-104.535	-97.369	50.192	27.563	-97.626	-90.595	-90.287	-83.095	14.313	-84.523	-8191	255	
1921.059	1	1	0	0	0.080832	0.13583	0.089582	0.15471	0.2791	0.21544	0.15362	0.13345	0.095502	0.10664	0.26166	0.15854	0.2506	0.19801	0.41755	0.15184	0.35	-0.65208	0.18333	-0.28125	-0.22292	0.32083	-0.64167	0.0375	0.1	-0.35833	0.14792	-0.18125	-0.34792	0.41667	-0.41667	-0.2375	-53.425	-26.237	-82.005	204.612	-94.307	-41.753	210.554	224.277	177.849	109.579	89.215	189.745	201.824	145.827	208.532	141.789	0.00033432	0.00041507	7.8543e-05	962.24	1.5738e-06	5.4424e-06	1070.6	205.14	4.3011e-06	3.4286e-06	262.23	75.007	57.183	16.898	1.5717e-06	24.105	0.00030004	0.00029905	9.2751e-05	944.6	3.4394e-06	3.1909e-06	1056.8	204.99	3.2566e-06	3.2682e-06	261.08	75.511	57.619	17.283	3.7646e-06	24.799	-14.191	-28.965	-79.374	-104.583	20.676	80.378	-104.730	-97.300	-105.415	61.292	-98.083	-90.721	-90.972	-83.251	135.340	-84.166	-8191	255	
1921.155	1	1	0	0	0.16147	0.35944	0.21316	0.22359	0.19261	0.22031	0.10225	0.13514	0.15681	0.12379	0.28936	0.15997	0.083517	0.14002	0.17161	0.15205	0.78333	-0.5625	-0.033333	-0.22292	-0.23542	0.43958	-0.59583	-0.077083	0.49167	-0.55417	0.11875	-0.13958	-0.425	0.30625	-0.49167	-0.0875	163.621	12.665	201.608	-91.214	240.038	97.267	123.247	162.589	196.206	81.993	99.660	112.587	174.849	36.929	219.431	167.881	0.00027088	0.00013234	0.00014861	959.53	4.0356e-06	1.3633e-06	1069.7	205.88	4.7737e-06	3.8528e-06	263.13	74.675	57.772	16.963	2.4411e-06	24.088	0.00029669	0.00030394	9.5067e-05	944.78	3.346e-06	3.2847e-06	1056.2	204.99	3.1575e-06	3.2996e-06	261.96	75.365	57.824	17.351	3.6603e-06	24.74	14.088	-62.536	237.075	-104.694	19.002	121.299	-104.710	-97.262	47.890	1.756	-97.826	-90.818	-90.715	-83.181	138.645	-83.619	-8191	255	
1921.251	1	1	0	0	0.10697	0.11179	0.088671	0.18711	0.14959	0.31018	0.42266	0.30371	0.26422	0.011524	0.1845	0.10055	0.031972	0.046463	0.35147	0.24185	0.59375	-0.5375	0.17292	-0.22708	-0.52917	0.35208	-0.43542	-0.39583	0.31875	-0.63125	0.10417	0.19375	-0.55208	0.14792	-0.3	-0.35208	136.390	112.065	-94.913	175.619	-44.916	241.616	201.577	211.369	10.250	75.316	97.953	141.010	-52.643	-82.924	-90.513	-109.322	0.00020961	0.00022313	5.1921e-05	962.47	3.8307e-06	4.6703e-06	1078.2	205.88	4.377e-06	8.3124e-07	263.29	75.03	57.61	16.984	3.0944e-06	24.203	0.00028301	0.00031355	9.4769e-05	942.9	3.2014e-06	3.4403e-06	1059.6	204.69	3.0606e-06	3.4894e-06	261.61	75.357	57.8	17.404	3.5071e-06	24.663	7.327	-11.517	-110.226	-104.493	-9.965	22.664	-104.847	-97.560	146.608	138.958	-97.741	-90.716	-90.423	-83.146	59.773	-83.862	-8191	255	
1921.370	1	1	0	0	0.15086	0.20474	0.094956	0.29455	0.11132	0.13084	0.39545	0.11745	0.29822	0.1287	0.13739	0.2445	0.14883	0.28202	0.16667	0.12197	0.69583	-0.58958	0.35	0.091667	-0.69792	0.36042	-0.48958	-0.65208	0.28333	-0.22917	-0.05	0.21042	-0.58333	0.45625	-0.30625	-0.4125	168.547	188.707	-10.259	225.050	227.086	-17.348	169.979	220.095	3.410	28.921	239.968	71.765	190.928	162.575	-93.309	110.159	0.00014835	0.00018971	8.1155e-05	959.15	4.2321e-06	3.1828e-06	1075.5	206.22	5.5471e-06	1.8417e-06	261.59	74.737	57.489	17.018	3.5082e-06	24.168	0.00028011	0.00032721	9.0754e-05	944.31	3.1896e-06	3.5921e-06	1056.9	204.82	3.16e-06	3.6517e-06	260.75	75.312	57.737	17.453	3.3486e-06	24.71	-34.910	100.362	-77.940	-104.691	31.208	29.030	-104.634	-97.212	-2.455	-20.706	-97.328	-90.765	-90.674	-83.146	22.110	-83.869	-8191	255	
1921.466	1	1	0	0	0.17477	0.06738	0.014613	0.13449	0.16262	0.1002	0.27332	0.202	0.12797	0.079327	0.2866	0.097309	0.17771	0.23866	0.12257	0.042343	0.79583	-0.3625	-0.077083	0.18958	-0.56042	0.23125	-0.35833	-0.49167	0.3	-0.4625	-0.3625	0.36042	-0.48958	0.10625	0.10625	-0.625	63.272	-24.407	-103.770	-84.964	186.566	-52.068	160.325	170.873	-1.067	39.566	229.943	160.383	-87.260	59.898	-56.508	16.578	0.00028606	0.00029971	0.00018183	960.38	2.2358e-06	2.5275e-06	1071.5	205.89	1.9749e-06	2.7751e-06	261.6	75.28	57.133	16.997	2.5195e-06	24.186	0.00029349	0.00033141	8.7359e-05	942.1	3.2937e-06	3.6951e-06	1056.1	204.86	3.2903e-06	3.6733e-06	260.65	75.263	57.722	17.452	3.2665e-06	24.672	-14.985	1.671	-7.880	-104.706	153.207	-12.764	-104.774	-97.576	-70.563	31.706	-97.861	-90.773	-91.033	-83.373	69.893	-83.955	-8191	255	
1921.562	1	1	0	0	0.096932	0.10782	0.069787	0.032278	0.043148	0.35032	0.069529	0.14174	0.11871	0.24634	0.16873	0.29904	0.2874	0.2234	0.19916	0.10489	0.66875	-0.37083	-0.15208	0.34583	-0.25625	0.058333	-0.04375	-0.65417	0.325	-0.25625	-0.45417	0.30208	-0.46667	0	0.18125	-0.41458	238.126	92.897	-72.874	158.592	-34.592	-39.409	235.640	-29.227	218.001	218.930	201.393	-76.020	88.888	33.884	-16.284	-84.151	0.00035745	0.00059742	8.6796e-05	958.17	3.9458e-06	4.0365e-06	1074	206.07	5.8525e-06	4.3028e-06	260.45	75.32	57.12	16.864	4.3478e-06	24.006	0.00031115	0.00033096	8.5329e-05	941.6	3.4673e-06	3.6223e-06	1057.6	204.71	3.5219e-06	3.545e-06	260.13	75.466	58.004	17.413	3.1988e-06	24.641	-4.814	-92.462	-26.056	-104.593	36.475	-27.265	-104.893	-97.138	-85.082	49.326	-97.963	-90.704	-90.508	-83.364	25.642	-83.847	-8191	255	
1921.659	1	1	0	0	0.077852	0.093822	0.20662	0.087506	0.0864	0.056303	0.19835	0.22892	0.072347	0.080985	0.13745	0.14734	0.23121	0.17564	0.20486	0.203	0.74583	-0.12083	-0.26875	0.23958	-0.475	0.077083	-0.054167	-0.45833	0.27083	-0.15625	-0.58333	0.20417	-0.40208	-0.18958	0.35417	-0.65208	-108.974	-34.878	68.010	217.768	225.758	174.462	83.898	235.613	222.188	158.957	197.596	-9.562	210.890	110.689	127.272	-80.882	0.00034134	0.00032383	0.00018084	957.16	1.2004e-06	7.6062e-06	1078.4	205.95	5.0818e-06	5.077e-06	261.64	75.206	57.234	17.049	1.0756e-06	24.137	0.0003291	0.00032086	8.5241e-05	942.53	3.6529e-06	3.5541e-06	1056.9	204.82	3.7376e-06	3.4328e-06	260.42	75.32	58.017	17.411	3.1175e-06	24.749	3.986	190.356	-104.098	-104.651	173.790	-6.014	-104.839	-97.278	54.054	55.847	-97.599	-90.651	-90.403	-82.981	-28.596	-84.367	-8191	255	
1921.755	1	1	0	0	0.19614	0.14491	0.20238	0.1434	0.12222	0.1812	0.2439	0.15121	0.15559	0.24692	0.17326	0.12683	0.066237	0.18678	0.20258	0.25909	0.67292	-0.08125	-0.50625	0.23333	-0.375	-0.13125	0.054167	-0.53958	0.091667	0.31042	-0.50625	0.35	-0.4125	-0.30208	0.35417	-0.5875	150.441	151.324	143.881	228.527	51.567	227.596	166.261	240.470	205.913	-45.940	117.585	36.328	210.051	118.057	237.115	88.032	0.00015756	0.00036447	0.00016698	961.85	3.4168e-06	5.1519e-06	1072.9	205.67	6.1617e-06	3.3909e-06	262.78	74.718	57.005	16.939	4.2406e-06	24.128	0.00034055	0.00031528	8.2674e-05	943.07	3.7451e-06	3.4346e-06	1055.9	204.83	3.6578e-06	3.3128e-06	260.59	75.314	57.955	17.377	3.1189e-06	24.726	-9.313	19.393	-49.771	-104.598	81.259	59.330	-104.810	-97.117	85.117	66.246	-97.602	-90.922	-90.240	-83.266	32.512	-83.961	-8191	255	
1921.851	1	1	0	0	0.14594	0.22634	0.23985	0.041565	0.15061	0.24232	0.22284	0.29333	0.24999	0.26716	0.08255	0.35721	0.27311	0.32367	0.23723	0.092441	0.50208	0.22292	-0.50417	0.25625	-0.28125	-0.22917	0.15833	-0.425	-0.05	0.42292	-0.625	0.35208	-0.175	-0.39583	0.45208	-0.725	224.575	-23.209	164.934	49.948	49.965	85.107	-102.217	182.687	112.685	-40.552	-43.157	30.951	-97.295	-57.075	-46.012	-48.691	0.00033289	0.00030358	0.00011781	960.29	7.0593e-06	2.6846e-06	1074.9	206.28	3.3097e-06	2.8885e-06	260.97	75.004	57.065	16.846	1.6543e-06	24.132	0.00033959	0.0003006	8.2278e-05	944.47	3.6561e-06	3.3813e-06	1055	205.47	3.6764e-06	3.3187e-06	260.2	75.639	57.892	17.35	3.1977e-06	24.882	12.836	-17.894	-65.571	-104.761	55.895	53.409	-104.490	-97.333	2.086	10.972	-97.720	-90.867	-90.269	-83.032	-21.254	-84.119	-8191	255	
1921.972	1	1	0	0	0.050741	0.20176	0.17852	0.18212	0.3599	0.16582	0.18879	0.047415	0.08247	0.22878	0.18625	0.1001	0.22422	0.41262	0.21262	0.02878	0.36458	0.31875	-0.46042	0.18958	-0.23333	-0.35	0.13542	-0.41667	-0.14792	0.44167	-0.71667	0.24167	0.035417	-0.29792	0.23125	-0.46667	133.660	-70.765	239.197	170.794	96.925	163.285	88.467	120.222	-86.099	-65.207	-28.972	147.534	102.378	-16.976	-50.738	-23.086	0.00028844	5.2905e-05	5.1399e-05	960	3.5952e-06	2.126e-06	1080	206.95	5.2091e-06	4.0971e-06	262.44	74.804	57.217	16.937	7.2889e-06	24.06	0.00033006	0.00029613	8.4681e-05	946.63	3.4962e-06	3.2877e-06	1060	205.53	3.5645e-06	3.1753e-06	260.92	75.623	57.724	17.342	3.3697e-06	24.85	4.128	-102.810	14.371	-104.721	-37.318	24.948	-104.887	-97.445	28.283	-11.729	-97.488	-91.029	-90.413	-82.990	0.403	-83.845	-8191	255	
1922.068	1	1	0	0	0.28781	0.058971	0.22526	0.2439	0.41493	0.087663	0.1632	0.090077	0.20198	0.077672	0.15533	0.098103	0.17587	0.079371	0.12689	0.18624	0.42083	0.38125	-0.30417	0.12292	0.010417	-0.49583	0.08125	-0.42292	-0.17083	0.36667	-0.725	0.225	0.1	-0.70208	0.44583	-0.31458	69.707	-38.368	6.392	193.109	154.907	113.899	144.453	151.398	197.620	237.357	221.420	112.982	144.560	113.606	124.190	211.446	0.00023692	0.00053025	0.00010979	961.75	2.5619e-06	5.3265e-06	1077.1	206.34	5.1889e-06	1.6656e-06	260.56	74.986	57.175	16.913	4.8795e-06	23.93	0.00031855	0.00028713	8.9657e-05	947.38	3.371e-06	3.2798e-06	1060.1	205.42	3.5051e-06	3.1895e-06	261.13	75.639	57.767	17.354	3.6819e-06	24.755	-1.620	-100.001	-85.610	-104.659	24.565	34.364	-104.742	-97.247	-83.061	5.384	-97.435	-90.581	-90.573	-83.225	16.803	-83.840	-8191	255	
1922.162	1	1	0	0	0.21853	0.35697	0.1278	0.33954	0.24014	0.13247	0.19591	0.035694	0.04247	0.11367	0.22477	0.17441	0.3405	0.15223	0.080582	0.047401	0.075	0.45625	-0.49375	-0.16042	0.15417	-0.76458	0.17292	-0.24792	-0.12917	0.63542	-0.62708	-0.010417	0.16875	-0.63958	0.091667	-0.1	123.390	57.578	-61.617	188.826	-56.751	-41.551	6.441	113.132	-42.637	190.135	-80.830	153.667	208.112	194.848	236.301	-84.896	0.00029387	0.00049438	0.00014259	963.34	4.4277e-06	1.1755e-06	1076.1	207.03	4.7819e-06	3.1971e-06	262.73	74.785	57.275	16.912	3.6839e-06	24.162	0.00031663	0.0002924	9.4019e-05	946.6	3.3971e-06	3.3517e-06	1060.1	205.72	3.4795e-06	3.3263e-06	262.22	75.503	57.834	17.39	3.8361e-06	24.801	29.046	-51.714	-17.673	-104.633	36.926	-20.637	-104.890	-97.522	80.606	-83.102	-97.721	-90.845	-90.340	-83.228	7.930	-83.773	-8191	255	
1922.258	1	1	0	0	0.17938	0.058056	0.00096255	0.15561	0.25041	0.1372	0.13272	0.27881	0.029571	0.12372	0.0619	0.47763	0.14589	0.044758	0.025075	0.057428	-0.12708	0.36042	-0.22708	-0.38958	0.2125	-0.42292	-0.10417	0.079167	-0.46667	0.23333	-0.46458	-0.41875	0.20208	-0.47917	0.033333	-0.035417	235.259	-61.725	180.000	135.356	-53.750	128.989	243.208	186.780	107.765	26.151	186.623	-15.778	-89.576	182.973	56.056	-35.847	0.00026967	0.00083796	0.00016992	961.65	5.1489e-06	2.7996e-06	1077.3	205.37	1.2656e-06	1.5013e-06	263.11	75.236	57.077	17.058	3.3338e-06	24.14	0.000314	0.00030667	9.8372e-05	945.96	3.3122e-06	3.4374e-06	1059.8	205.33	3.3386e-06	3.4241e-06	262.12	75.64	57.749	17.452	3.8167e-06	24.682	-12.744	-60.195	-30.505	-104.832	11.982	-67.944	-104.921	-96.970	61.349	34.887	-97.445	-91.155	-90.281	-83.293	144.031	-84.031	-8191	255	
1922.354	1	1	0	0	0.24174	0.076163	0.098803	0.49128	0.085449	0.11561	0.13604	0.24263	0.29803	0.3782	0.075192	0.070158	0.15688	0.1519	0.36264	0.059871	-0.13125	0.4875	-0.016667	-0.24375	0.41667	-0.475	0.17917	0.2125	-0.50208	0.23958	-0.41875	-0.26042	0.36458	-0.91458	0.12708	0.23125	179.897	112.549	165.006	189.868	202.963	199.194	-105.143	-73.856	97.797	-58.895	-92.808	-19.803	-32.129	16.476	224.927	-42.270	0.00034332	0.00016585	0.00017568	960.55	4.9129e-06	7.2831e-06	1071.9	207.26	6.6949e-06	3.8098e-06	261.77	75.177	57.384	17.047	1.5767e-06	24.187	0.00029729	0.00032395	9.4462e-05	945.52	3.1897e-06	3.5567e-06	1058.9	205.51	3.3071e-06	3.6441e-06	261.38	75.577	57.688	17.534	3.6987e-06	24.664	-3.471	4.096	-110.224	-104.781	-56.008	-1.069	-104.736	-97.184	170.779	32.045	-97.603	-90.968	-90.443	-82.547	-57.358	-83.706	-8191	255	
1922.451	1	1	0	0	0.1596	0.11015	0.11343	0.17865	0.2313	0.18707	0.11457	0.3082	0.21708	0.057142	0.23536	0.13887	0.1455	0.18179	0.055041	0.21872	-0.19167	0.32083	-0.0125	-0.3625	0.4	-0.38125	-0.13125	0.15417	-0.5875	0.25	-0.027083	-0.62083	0.38333	-0.34375	0.0375	0.10417	-87.046	32.415	1.208	154.743	110.301	205.364	-80.043	203.417	-67.838	74.908	-61.197	-20.746	-110.492	-76.812	-38.363	-98.484	0.00026579	0.00030126	0.00020416	961.01	4.7051e-06	4.3893e-06	1073.7	206.57	4.6755e-06	3.0487e-06	262.18	74.657	56.987	16.915	4.6556e-06	24.227	0.00030365	0.0003459	9.4e-05	946.74	3.2546e-06	3.8519e-06	1058.8	205.26	3.4198e-06	3.8373e-06	261.43	75.456	57.811	17.494	3.6946e-06	24.748	24.458	-25.914	-33.589	-104.908	-109.751	31.471	-104.725	-97.408	149.956	-78.441	-97.779	-90.982	-90.573	-83.234	68.856	-83.809	-8191	255	
1922.547	1	1	0	0	0.2506	0.12314	0.12804	0.19483	0.071625	0.16527	0.034534	0.13674	0.12948	0.15437	0.36905	0.12562	0.40129	0.10242	0.1838	0.14226	-0.070833	0.20625	0.0083333	-0.44167	0.44375	-0.34375	-0.37083	0.3625	-0.62917	0.1625	-0.10417	-0.50208	0.50833	-0.33333	-0.1625	0.39583	-52.178	-111.639	107.891	151.555	85.927	213.231	99.900	148.419	-19.232	177.385	-53.693	121.084	-44.197	-108.448	224.706	125.571	0.00023825	5.1982e-05	8.2399e-05	958.11	8.0475e-07	3.7173e-06	1077.1	206.96	6.8293e-06	2.5083e-06	263.75	74.989	57.306	17.037	2.0623e-06	24.141	0.00031607	0.00035945	8.9107e-05	945.13	3.4383e-06	3.8444e-06	1060.1	205.37	3.4984e-06	3.8424e-06	261.35	75.522	58.04	17.495	3.4593e-06	24.62	-46.045	215.440	-12.127	-104.644	61.078	189.213	-104.827	-97.232	1.787	-9.019	-97.608	-90.739	-90.587	-82.904	37.682	-84.174	-8191	255	
1922.643	1	1	0	0	0.23071	0.16424	0.20303	0.14523	0.13993	0.1574	0.28543	0.098728	0.26696	0.085681	0.13312	0.082483	0.21164	0.14765	0.14942	0.056285	-0.28958	0.32292	0.275	-0.57292	0.48542	-0.05	-0.32292	0.35208	-0.61042	0.03125	0.12083	-0.425	0.34167	-0.1625	-0.37292	0.35	-60.505	-73.884	234.211	104.702	233.513	-14.483	181.630	105.905	-11.830	9.112	-46.567	-62.266	165.791	-89.678	192.887	17.341	0.00022597	0.00012217	8.908e-05	960.95	2.5573e-06	5.2865e-06	1074.9	206.86	1.807e-06	3.5857e-06	263.34	74.542	57.283	16.946	2.0507e-06	24.175	0.00032793	0.00035255	8.4546e-05	945.06	3.6225e-06	3.6288e-06	1058.8	205.18	3.5988e-06	3.6684e-06	260.75	75.473	58.079	17.43	3.4299e-06	24.65	-28.064	-95.990	-65.291	-104.794	140.311	52.097	-104.883	-97.304	125.582	39.560	-97.601	-90.852	-90.777	-82.799	59.367	-83.893	-8191	255	
1922.763	1	1	0	0	0.11223	0.20968	0.088238	0.15784	0.14292	0.14523	0.24754	0.12291	0.26789	0.16967	0.098698	0.15277	0.18537	0.45199	0.035	0.20422	-0.01875	0.1875	0.25417	-0.74375	0.10625	-0.077083	-0.30417	0.35833	-0.47708	0.066667	0.175	-0.64167	0.29375	-0.010417	-0.42708	0.31458	141.918	191.093	-17.594	86.268	164.549	164.865	209.620	75.782	-107.430	201.908	-103.693	-88.714	86.042	-103.275	-60.027	229.088	0.00045027	0.00058492	9.7697e-05	958.43	8.0154e-07	4.6798e-06	1075.2	205.77	1.1973e-05	9.5219e-07	263.16	74.817	57.231	17.11	1.7424e-06	24.204	0.00033666	0.00033554	8.3317e-05	945.45	3.7981e-06	3.5304e-06	1059.1	205.13	3.8385e-06	3.6192e-06	260.93	75.552	58.356	17.436	3.3153e-06	24.735	8.586	-64.612	8.746	-104.522	148.315	51.934	-104.808	-97.415	44.481	73.422	-97.452	-90.565	-90.506	-83.027	8.065	-84.142	-8191	255	
1922.860	1	1	0	0	0.11122	0.074022	0.13239	0.33763	0.15631	0.10909	0.42435	0.079054	0.076687	0.20816	0.24788	0.38177	0.34898	0.27135	0.1108	0.089643	-0.047917	0.045833	0.15208	-0.61042	0.22083	-0.095833	-0.65417	0.56042	-0.38542	-0.23542	0.20833	-0.53542	0.13542	0.075	-0.71667	0.18958	-0.242	-16.295	-111.349	160.544	221.327	32.001	170.014	161.267	183.133	157.585	-17.000	223.564	-112.961	189.378	65.329	235.053	0.00020682	0.00063539	0.00013175	961.1	4.8303e-06	5.6971e-06	1076.9	205.49	7.0619e-06	5.8668e-06	263.17	75.185	57.471	17.106	3.791e-06	24.228	0.00034801	0.00032327	8.049e-05	946.27	3.8565e-06	3.3154e-06	1058.7	205.21	3.7483e-06	3.4569e-06	260.83	75.986	58.155	17.456	3.2386e-06	24.811	-7.614	7.344	-104.140	-104.453	38.535	-44.587	-104.675	-97.154	27.667	7.438	-97.532	-90.674	-90.685	-82.818	37.404	-83.707	-8191	255	
1922.931	1	1	0	0	0.087166	0.42277	0.11473	0.21815	0.1586	0.19699	0.13859	0.14777	0.15788	0.079975	0.1365	0.2082	0.21235	0.24091	0.11575	0.12407	0.17292	-0.35208	0.22917	-0.83333	0.2	0.2875	-0.60208	0.22917	-0.24792	-0.25625	0.27083	-0.56667	-0.033333	0.11875	-0.39375	0.47708	8.109	-35.606	0.668	-98.245	68.919	192.381	-88.300	-97.740	-103.554	142.759	137.660	187.390	-108.669	171.184	158.203	-10.398	0.00031718	0.00034282	0.00011669	961.65	3.9069e-06	1.1954e-06	1071.6	206.6	4.6002e-06	2.1535e-06	261.44	74.577	57.807	17.082	3.6368e-06	24.204	0.00032976	0.0003096	7.9831e-05	945.64	3.6656e-06	3.2227e-06	1058.5	205.32	3.5758e-06	3.4059e-06	260.56	75.729	58.091	17.385	3.2867e-06	24.842	-2.951	-49.054	13.604	-104.972	-86.607	98.143	-104.583	-97.407	153.081	61.498	-97.646	-90.968	-90.676	-82.494	134.924	-84.042	-8191	255	
1923.052	1	1	0	0	0.12438	0.39986	0.055029	0.41087	0.057031	0.1774	0.18132	0.089266	0.12234	0.24326	0.15548	0.12238	0.11977	0.071698	0.18868	0.1083	0.28542	-0.085417	0.56458	-0.73958	-0.16875	0.28542	-0.6	0.33958	-0.033333	-0.30208	0.35	-0.29583	-0.033333	0.21458	-0.60208	0.21042	7.482	-110.667	133.013	203.626	107.966	17.380	203.371	216.830	142.547	-49.234	142.261	186.302	130.056	152.384	82.970	-40.880	0.00023729	0.00017932	0.00012685	959.41	1.4256e-06	5.2557e-06	1075.1	205.45	2.4933e-06	1.1182e-06	262.02	74.882	57.381	16.972	2.3977e-06	24.121	0.00031791	0.00030454	8.3425e-05	944.52	3.6009e-06	3.1967e-06	1057.8	205.61	3.4132e-06	3.3164e-06	260.63	75.792	57.949	17.335	3.4807e-06	24.882	9.998	-59.725	9.470	-104.510	-46.292	53.643	-104.814	-97.591	-1.302	-106.218	-97.818	-90.497	-90.592	-82.834	26.643	-83.783	-8191	255	
1923.148	1	1	0	0	0.12247	0.18696	0.094652	0.17547	0.097325	0.29016	0.43917	0.26874	0.089778	0.22583	0.059604	0.18355	0.13361	0.17677	0.11699	0.21888	0.275	-0.5625	0.60833	-0.4375	-0.1	0.16875	-0.72083	0.12917	-0.03125	-0.31458	0.26875	-0.10417	-0.2875	0.36875	-0.40833	-0.045833	22.817	209.408	-104.669	22.160	66.451	25.341	175.544	162.826	202.065	-39.219	224.808	238.403	-27.085	44.806	-72.682	-75.427	0.00024898	0.00085258	5.2753e-05	968.11	4.3526e-06	1.5887e-06	1073.1	205.84	3.0839e-06	3.102e-06	262.92	74.964	57.274	16.818	3.7285e-06	24.051	0.00030731	0.00030188	8.9586e-05	947.39	3.5215e-06	3.2335e-06	1059.3	205.33	3.3584e-06	3.297e-06	261.91	75.816	57.899	17.324	3.7281e-06	24.839	-14.940	-71.837	172.917	-104.494	78.951	-22.228	-104.787	-97.672	27.999	-11.882	-97.615	-90.513	-90.769	-83.163	42.962	-83.972	-8191	255	
1923.242	1	1	0	0	0.29087	0.11663	0.038624	0.094462	0.18539	0.1425	0.4693	0.1179	0.19585	0.27452	0.1854	0.14427	0.21339	0.29637	0.28495	0.10631	0.50833	-0.60625	0.46458	-0.28958	-0.35833	0.45625	-0.59167	0	0.37292	-0.53125	0.10625	-0.175	-0.40833	0.5375	-0.19792	-0.14167	-53.847	87.274	220.922	164.805	75.164	8.459	195.275	-15.638	8.665	124.891	-104.418	-10.858	201.241	227.587	203.626	178.516	0.00011994	0.00038113	7.9752e-05	962.52	8.8638e-07	3.6165e-07	1072.4	206.14	7.6888e-06	1.9428e-06	262.3	74.973	57.167	17.02	1.1071e-06	24.248	0.00030414	0.00030037	9.5609e-05	945.38	3.4322e-06	3.2237e-06	1058.8	205.31	3.2705e-06	3.3472e-06	261.53	75.669	57.763	17.363	3.7923e-06	24.762	20.531	-8.312	-0.614	-104.511	-113.182	108.446	-104.697	-97.007	20.562	-73.190	-97.763	-90.928	-90.896	-82.805	185.762	-83.735	-8191	255	
1923.340	1	1	0	0	0.38068	0.17001	0.1611	0.17133	0.2561	0.25634	0.38904	0.061079	0.17573	0.32075	0.25571	0.15754	0.1656	0.16973	0.24291	0.027721	0.38958	-0.4625	0.24583	-0.0625	-0.5125	0.48542	-0.5625	-0.11875	0.41042	-0.625	0.058333	0.05	-0.56458	0.34167	-0.20625	-0.35	-18.505	232.387	-37.112	-100.087	1.117	214.266	150.008	226.002	90.610	4.097	198.342	-99.998	231.626	-61.120	183.189	244.433	0.00030889	0.00050637	8.0141e-05	959.88	5.2476e-06	1.6014e-06	1076.7	206.49	7.4409e-07	2.2269e-06	263.76	75.203	57.573	17.038	5.6089e-06	24.059	0.00029302	0.00031325	9.7526e-05	943.86	3.3223e-06	3.4028e-06	1060	204.97	3.1805e-06	3.5033e-06	262.07	75.652	57.952	17.406	3.7089e-06	24.686	-9.769	-70.208	56.351	-104.782	-35.812	30.107	-104.790	-97.384	-44.039	-111.175	-97.451	-90.848	-90.783	-83.412	37.676	-83.544	-8191	255	
1923.459	1	1	0	0	0.10921	0.10061	0.057879	0.13922	0.21461	0.19543	0.25171	0.25157	0.14729	0.014949	0.36489	0.045244	0.25234	0.33764	0.1067	0.10442	0.67708	-0.38542	0.17292	-0.016667	-0.57292	0.29167	-0.35208	-0.30833	0.53125	-0.45	0.10208	0.24792	-0.55417	0.175	-0.047917	-0.38542	68.923	167.135	227.184	3.216	-77.728	218.474	188.524	238.575	145.720	71.338	-94.616	208.386	129.888	150.641	218.910	19.201	0.00021103	0.0003146	0.00012688	960.91	3.3003e-06	4.92e-06	1077.1	206.42	2.4282e-06	1.6083e-06	260.26	75.009	57.473	16.955	5.549e-06	24.097	0.0002875	0.00033335	9.603e-05	943.56	3.3339e-06	3.6456e-06	1058.6	205.06	3.1437e-06	3.7139e-06	260.93	75.454	57.784	17.424	3.6108e-06	24.718	9.604	-23.127	-18.207	-104.777	-47.932	-37.703	-104.658	-97.357	-4.593	85.033	-97.695	-90.938	-90.483	-83.709	29.071	-84.079	-8191	255	
1923.555	1	1	0	0	0.086349	0.076354	0.13797	0.36793	0.18722	0.13359	0.14519	0.12383	0.022905	0.09146	0.1823	0.080447	0.19298	0.21627	0.13516	0.16372	0.68542	-0.425	0.0875	0.275	-0.66875	0.44792	-0.15833	-0.40417	0.42292	-0.21042	-0.16667	0.36875	-0.5375	0.19167	0.064583	-0.52083	211.284	134.533	193.726	195.770	199.775	152.263	214.644	229.916	171.046	144.838	-86.442	-103.869	-107.020	136.484	166.950	-102.935	0.00035614	9.214e-05	3.3003e-05	958.2	2.0719e-06	1.76e-06	1075.3	206.48	5.2621e-06	4.361e-06	261.17	74.692	57.227	17.119	4.4538e-06	24.264	0.00029473	0.00034698	9.3304e-05	943.56	3.3437e-06	3.7831e-06	1060.1	204.99	3.2746e-06	3.7191e-06	261.08	75.258	57.755	17.519	3.4373e-06	24.703	14.067	107.230	-96.462	-104.758	-52.892	-75.387	-104.546	-97.482	-60.499	-1.811	-97.663	-90.823	-90.423	-83.027	65.059	-83.867	-8191	255	
1923.652	1	1	0	0	0.22325	0.27893	0.20632	0.23916	0.08695	0.082396	0.26249	0.24412	0.20271	0.11375	0.06454	0.16599	0.046422	0.11213	0.15007	0.17752	0.62708	-0.30625	-0.23333	0.32083	-0.47917	0.26667	-0.16667	-0.43542	0.46042	-0.41667	-0.42917	0.17083	-0.70417	0.175	0.12708	-0.44792	35.521	-18.522	120.230	101.265	175.821	186.425	126.316	-96.839	221.100	-11.582	-47.288	-61.182	-89.262	-35.715	166.164	26.362	0.00033239	0.00037661	0.00015214	963.37	1.8353e-06	2.071e-06	1074.4	206.12	3.0205e-06	5.1426e-06	262.3	75.061	57.555	16.978	2.1862e-06	24.141	0.00030614	0.00033921	8.9068e-05	942.94	3.5156e-06	3.7885e-06	1057.6	204.97	3.4849e-06	3.6791e-06	260.66	75.338	58.01	17.486	3.3121e-06	24.634	-3.850	-2.230	-41.393	-104.532	224.061	169.420	-104.715	-97.410	-108.414	-9.616	-97.745	-90.791	-90.457	-83.213	47.255	-84.225	-8191	255	
1923.748	1	1	0	0	0.27538	0.17489	0.15549	0.27293	0.12805	0.13027	0.21687	0.19967	0.14452	0.086737	0.044889	0.29323	0.11413	0.16079	0.13776	0.095271	0.80625	-0.225	-0.28958	0.085417	-0.3625	0.022917	0.020833	-0.60417	0.47083	-0.29167	-0.23958	0.46458	-0.58333	0.075	0.41458	-0.49583	87.967	-65.163	78.912	-98.667	54.565	-63.173	222.801	136.389	230.251	1.613	188.904	108.917	232.705	232.798	-46.280	21.799	0.00038767	0.00040867	0.00017641	962.38	5.2467e-06	1.1989e-05	1076.8	206.69	4.0576e-06	3.4299e-06	260.87	75.129	57.199	17.12	2.3226e-06	24.045	0.00032621	0.00033171	8.6503e-05	943.61	3.6848e-06	3.6973e-06	1058	205.31	3.6971e-06	3.5772e-06	260.84	75.483	57.997	17.456	3.231e-06	24.627	-2.702	-33.188	44.433	-104.581	58.454	34.526	-104.846	-97.352	141.924	59.511	-97.682	-90.738	-90.800	-82.897	61.268	-83.892	-8191	255	
1923.844	1	1	0	0	0.010529	0.10735	0.23492	0.25695	0.13104	0.2307	0.087055	0.1444	0.17745	0.31887	0.072215	0.088198	0.18959	0.079189	0.07949	0.086573	0.62917	0.01875	-0.39375	0.2375	-0.30208	-0.26667	0.075	-0.69583	0.2125	0.097917	-0.6125	0.32083	-0.3125	-0.0020833	0.26667	-0.52083	-37.735	31.912	128.618	235.234	59.262	101.119	131.412	192.099	-73.434	175.462	16.403	54.042	-85.082	-68.770	38.040	244.218	0.00025695	0.00066321	0.00012627	960.94	4.7847e-06	3.6645e-06	1075	206.02	9.5608e-06	5.2151e-06	263.31	74.872	57.66	17.028	6.8478e-06	24.342	0.00033864	0.00031711	8.4716e-05	943.76	3.7563e-06	3.5157e-06	1056.6	205.09	3.7477e-06	3.4197e-06	260.57	75.366	58.192	17.404	3.1721e-06	24.777	-28.139	-27.298	-92.101	-104.765	6.727	92.742	-104.640	-97.352	17.675	54.029	-97.619	-90.565	-90.445	-82.865	71.687	-83.785	-8191	255	
1923.940	1	1	0	0	0.016316	0.094491	0.052425	0.15572	0.054998	0.24657	0.027519	0.26359	0.12533	0.10549	0.18112	0.25712	0.19157	0.23287	0.23578	0.090372	0.55417	-0.20208	-0.35417	0.27083	-0.2625	-0.26667	0.17917	-0.7125	-0.0020833	0.15208	-0.66042	0.26042	-0.34375	-0.38125	0.49167	-0.4625	122.076	169.426	159.361	203.744	216.831	197.492	184.588	126.554	230.864	128.900	-40.709	165.092	-79.886	199.968	79.856	-20.762	0.00027962	0.00080422	9.82e-05	960.84	7.9381e-06	4.9572e-06	1075.8	206.22	3.2492e-06	1.2648e-06	262.79	74.66	57.382	16.969	5.8388e-06	24.311	0.00034199	0.00030272	8.2358e-05	944.33	3.7159e-06	3.413e-06	1055.8	205.28	3.6483e-06	3.2381e-06	260.94	75.575	58.095	17.367	3.1134e-06	24.814	-56.902	-51.812	-31.412	-104.777	3.112	23.100	-104.814	-97.361	-20.319	243.010	-97.517	-90.937	-90.183	-83.109	6.365	-83.833	-8191	255	
#DATA ENDS
