BOXY.EXE: ISS Imagent and Oximeter Data Acquisition Program Version 0.80
Ascii Record File

#ACQ INFORMATION
2  Detector Channels 
16  External MUX Channels 
1  Auxiliary Channels 
5000  Waveform (CCF) Frequency (Hz)
1  Waveforms Skipped 
30  Waveforms Averaged 
1  Cycles Averaged 
16  Acquisitions per Waveform 
10.0806  Updata Rate (Hz) 

#FILE INFORMATION
TRUE -- External MUX Channel results are PARSED.
FALSE -- AC DC and Phase are NOT grouped.
TRUE -- Companion Program Settings File CREATED.
FALSE -- AC data not excluded
FALSE -- DC data not excluded
FALSE -- Phase data not excluded
FALSE -- Auxillary Chn. data not excluded
Tab delimiters

#CALIBRATION STATE
TRUE -- Waveform Calibration Values APPLIED.


#AUX CALIBRATION VALUES
Val Type	aux-1	

Term	1.0000e+00	
Factor	0.0000e+00	


#WF CALIBRATION VALUES
A = Detector Channel
Val Type	A-AC1	A-AC2	A-AC3	A-AC4	A-AC5	A-AC6	A-AC7	A-AC8	A-AC9	A-AC10	A-AC11	A-AC12	A-AC13	A-AC14	A-AC15	A-AC16	A-DC1	A-DC2	A-DC3	A-DC4	A-DC5	A-DC6	A-DC7	A-DC8	A-DC9	A-DC10	A-DC11	A-DC12	A-DC13	A-DC14	A-DC15	A-DC16	A-Ph1	A-Ph2	A-Ph3	A-Ph4	A-Ph5	A-Ph6	A-Ph7	A-Ph8	A-Ph9	A-Ph10	A-Ph11	A-Ph12	A-Ph13	A-Ph14	A-Ph15	A-Ph16	

Term	0.00000e+00	0.00000e+00	0.00000e+00	0.00000e+00	0.00000e+00	0.00000e+00	0.00000e+00	0.00000e+00	0.00000e+00	0.00000e+00	0.00000e+00	0.00000e+00	0.00000e+00	0.00000e+00	0.00000e+00	0.00000e+00	0.00000e+00	0.00000e+00	0.00000e+00	0.00000e+00	0.00000e+00	0.00000e+00	0.00000e+00	0.00000e+00	0.00000e+00	0.00000e+00	0.00000e+00	0.00000e+00	0.00000e+00	0.00000e+00	0.00000e+00	0.00000e+00	0.00000e+00	0.00000e+00	0.00000e+00	0.00000e+00	0.00000e+00	0.00000e+00	0.00000e+00	0.00000e+00	0.00000e+00	0.00000e+00	0.00000e+00	0.00000e+00	0.00000e+00	0.00000e+00	0.00000e+00	0.00000e+00	
Factor	1.00000e+00	1.00000e+00	1.00000e+00	1.00000e+00	1.00000e+00	1.00000e+00	1.00000e+00	1.00000e+00	1.00000e+00	1.00000e+00	1.00000e+00	1.00000e+00	1.00000e+00	1.00000e+00	1.00000e+00	1.00000e+00	1.00000e+00	1.00000e+00	1.00000e+00	1.00000e+00	1.00000e+00	1.00000e+00	1.00000e+00	1.00000e+00	1.00000e+00	1.00000e+00	1.00000e+00	1.00000e+00	1.00000e+00	1.00000e+00	1.00000e+00	1.00000e+00	X	X	X	X	X	X	X	X	X	X	X	X	X	X	X	X	

B = Detector Channel
Val Type	B-AC1	B-AC2	B-AC3	B-AC4	B-AC5	B-AC6	B-AC7	B-AC8	B-AC9	B-AC10	B-AC11	B-AC12	B-AC13	B-AC14	B-AC15	B-AC16	B-DC1	B-DC2	B-DC3	B-DC4	B-DC5	B-DC6	B-DC7	B-DC8	B-DC9	B-DC10	B-DC11	B-DC12	B-DC13	B-DC14	B-DC15	B-DC16	B-Ph1	B-Ph2	B-Ph3	B-Ph4	B-Ph5	B-Ph6	B-Ph7	B-Ph8	B-Ph9	B-Ph10	B-Ph11	B-Ph12	B-Ph13	B-Ph14	B-Ph15	B-Ph16	

Term	0.00000e+00	0.00000e+00	0.00000e+00	0.00000e+00	0.00000e+00	0.00000e+00	0.00000e+00	0.00000e+00	0.00000e+00	0.00000e+00	0.00000e+00	0.00000e+00	0.00000e+00	0.00000e+00	0.00000e+00	0.00000e+00	0.00000e+00	0.00000e+00	0.00000e+00	0.00000e+00	0.00000e+00	0.00000e+00	0.00000e+00	0.00000e+00	0.00000e+00	0.00000e+00	0.00000e+00	0.00000e+00	0.00000e+00	0.00000e+00	0.00000e+00	0.00000e+00	-7.31775e+01	-1.39643e+02	-1.29191e+02	-1.81468e+02	-5.28782e+01	-5.94017e+01	-1.58511e+02	-1.62015e+02	-4.34400e+01	-6.62646e+01	-1.70593e+02	-1.70390e+02	-1.81289e+02	-1.76543e+02	-5.19673e+01	-1.49467e+02	
Factor	1.51461e-05	1.38994e-04	3.70494e-05	1.65114e-01	1.30890e-06	1.55113e-06	1.66376e-01	5.64345e-02	1.01830e-06	1.34470e-06	8.78816e-02	2.83681e-02	2.52299e-02	8.59329e-03	1.27316e-06	1.18647e-02	5.15675e-06	6.63635e-06	1.85623e-06	8.53049e-02	7.07640e-08	7.33048e-08	8.10045e-02	2.92832e-02	7.07680e-08	7.32667e-08	4.41605e-02	1.43478e-02	1.32282e-02	4.49219e-03	7.21484e-08	6.00703e-03	X	X	X	X	X	X	X	X	X	X	X	X	X	X	X	X	



#DISTANCE SETTINGS
A = Detector Channel
A-1	A-2	A-3	A-4	A-5	A-6	A-7	A-8	A-9	A-10	A-11	A-12	A-13	A-14	A-15	A-16	

2.5000e+00	3.0000e+00	2.5000e+00	3.0000e+00	2.0000e+00	3.0000e+00	1.5000e+00	3.0000e+00	3.0000e+00	3.0000e+00	3.0000e+00	3.0000e+00	3.0000e+00	3.0000e+00	1.5000e+00	3.0000e+00	

B = Detector Channel
B-1	B-2	B-3	B-4	B-5	B-6	B-7	B-8	B-9	B-10	B-11	B-12	B-13	B-14	B-15	B-16	

1.0000e+01	1.0000e+01	1.0000e+01	1.4400e+00	1.0000e+01	1.0000e+01	1.5100e+00	1.9400e+00	1.0000e+01	1.0000e+01	1.9900e+00	2.4900e+00	2.4100e+00	2.9000e+00	1.0000e+01	2.9800e+00	




#DATA BEGINS
time	group	step	mark	flag	A-AC1	A-AC2	A-AC3	A-AC4	A-AC5	A-AC6	A-AC7	A-AC8	A-AC9	A-AC10	A-AC11	A-AC12	A-AC13	A-AC14	A-AC15	A-AC16	A-DC1	A-DC2	A-DC3	A-DC4	A-DC5	A-DC6	A-DC7	A-DC8	A-DC9	A-DC10	A-DC11	A-DC12	A-DC13	A-DC14	A-DC15	A-DC16	A-Ph1	A-Ph2	A-Ph3	A-Ph4	A-Ph5	A-Ph6	A-Ph7	A-Ph8	A-Ph9	A-Ph10	A-Ph11	A-Ph12	A-Ph13	A-Ph14	A-Ph15	A-Ph16	B-AC1	B-AC2	B-AC3	B-AC4	B-AC5	B-AC6	B-AC7	B-AC8	B-AC9	B-AC10	B-AC11	B-AC12	B-AC13	B-AC14	B-AC15	B-AC16	B-DC1	B-DC2	B-DC3	B-DC4	B-DC5	B-DC6	B-DC7	B-DC8	B-DC9	B-DC10	B-DC11	B-DC12	B-DC13	B-DC14	B-DC15	B-DC16	B-Ph1	B-Ph2	B-Ph3	B-Ph4	B-Ph5	B-Ph6	B-Ph7	B-Ph8	B-Ph9	B-Ph10	B-Ph11	B-Ph12	B-Ph13	B-Ph14	B-Ph15	B-Ph16	aux-1	digaux	

9081.655	1	1	0	256	0.26126	0.17675	0.074631	0.33131	0.094882	0.08158	0.26605	0.29423	0.080274	0.059676	0.071091	0.15193	0.17969	0.14519	0.093634	0.19284	-2.8917	-2.275	-2.9104	-3.2417	-2.3292	-3.2708	-3.0625	-2.5583	-3.3854	-2.3083	-3.0208	-3.1917	-2.35	-3.3292	-2.6813	-2.7333	8.036	315.735	80.302	257.448	289.373	82.090	245.466	-3.583	279.209	19.709	194.575	209.116	237.085	202.418	164.603	186.484	0.00010099	0.00042741	0.00014962	1192.6	3.411e-06	3.0544e-06	1282.7	247.16	2.4579e-06	9.9866e-07	310.55	85.174	66.822	19.539	2.548e-06	27.068	0.00039037	0.00051047	0.00013495	1172.9	4.693e-06	5.15e-06	1258.7	246.08	4.3702e-06	4.88e-06	308.11	85.623	67.561	19.84	4.4502e-06	27.474	192.381	83.067	61.172	-23.868	121.748	111.428	-23.522	-16.351	196.138	128.821	-16.682	-9.367	-9.120	-2.085	202.493	-2.733	-8191	255	
9081.752	1	1	0	0	0.16377	0.18148	0.066702	0.31228	0.15667	0.18014	0.19171	0.16005	0.098542	0.31131	0.10428	0.10623	0.21286	0.21852	0.17673	0.032621	-3.0646	-2.5167	-2.9583	-3.2667	-2.3208	-3.2042	-3.0083	-2.5417	-3.4167	-2.525	-2.8312	-3.1771	-2.4938	-3.1979	-2.7708	-2.5333	224.299	5.955	117.911	283.297	226.184	291.303	263.265	262.399	175.241	163.484	-31.344	19.855	27.430	269.464	130.958	318.840	8.663e-05	0.00055921	7.2351e-05	1180	2.9988e-06	1.4939e-06	1263.9	246.35	3.5453e-06	1.8376e-06	310.22	83.969	66.57	19.371	3.8203e-06	26.874	0.00032917	0.000428	0.00010809	1158.1	4.1292e-06	4.7265e-06	1243.5	244.91	4.4296e-06	5.0285e-06	307.46	84.728	67.154	19.607	5.0104e-06	27.255	194.264	37.309	28.055	-23.766	172.389	109.925	-23.593	-16.085	141.555	19.765	-16.716	-9.169	-9.201	-1.978	121.806	-2.574	-8191	255	
9081.848	1	1	0	0	0.13032	0.13338	0.10413	0.32755	0.092062	0.18388	0.26176	0.15262	0.12981	0.1517	0.080724	0.28948	0.22567	0.045573	0.072918	0.07489	-3	-2.7521	-2.7458	-3.3229	-2.6042	-2.8729	-3.0958	-2.4896	-3.2313	-2.6167	-2.9917	-3.3458	-2.4417	-2.9958	-3.1229	-2.5625	-5.142	-29.696	279.443	272.017	64.942	42.626	269.421	286.968	197.309	191.205	242.440	242.994	320.587	41.129	42.504	-13.101	0.00011422	0.00049257	8.6777e-05	1178	4.1315e-06	4.0547e-06	1257.7	244.67	3.4159e-06	4.04e-06	307.31	83.422	66.136	19.003	6.9107e-07	26.761	0.00042181	0.00052712	0.000138	1155.4	6.0247e-06	6.4682e-06	1238.2	242.46	6.3401e-06	6.7271e-06	305.37	84.238	66.84	19.473	5.9646e-06	27.075	189.290	22.206	32.887	-23.630	190.332	183.274	-23.264	-16.014	131.393	100.347	-16.079	-9.143	-8.490	-1.840	240.689	-2.348	-8191	255	
9081.967	1	1	0	0	0.19047	0.20124	0.089912	0.25736	0.16091	0.13398	0.17129	0.29535	0.043501	0.10384	0.12072	0.068391	0.31911	0.11391	0.1494	0.097076	-2.9562	-2.7083	-2.6583	-3.5042	-2.5521	-3.0667	-3.3479	-2.3917	-3.0792	-2.9917	-2.65	-3.3458	-2.65	-2.8292	-3.1063	-2.5479	135.166	30.191	70.789	34.801	176.687	0.436	-24.879	283.560	238.323	-14.056	152.642	258.638	-23.285	201.419	-13.403	306.433	9.2026e-05	0.00013881	7.3742e-05	1173.1	5.821e-06	1.5898e-06	1251.6	242.2	2.6818e-06	3.7408e-06	305.72	83.506	66.227	19.307	1.823e-06	26.762	0.00048585	0.00056643	0.00013735	1150.7	6.0151e-06	5.7182e-06	1236.2	240.81	5.5265e-06	5.397e-06	304.27	84.403	66.593	19.514	4.5303e-06	27.122	180.253	50.717	132.514	-23.450	175.438	144.879	-23.063	-16.066	147.409	87.031	-16.310	-8.720	-9.123	-1.811	168.256	-3.153	-8191	255	
9082.063	1	1	0	0	0.1523	0.11866	0.1225	0.12406	0.031384	0.31732	0.26302	0.079788	0.083017	0.2297	0.18817	0.18513	0.30434	0.24099	0.15938	0.32925	-2.9229	-2.9021	-2.5062	-3.5312	-2.5354	-2.8042	-3.375	-2.4958	-3.25	-2.9458	-2.3042	-3.4229	-2.6667	-2.7104	-3.2542	-2.5042	65.161	294.238	186.977	256.949	176.423	21.233	258.180	153.803	226.673	165.572	222.715	210.785	318.793	8.807	-4.505	285.578	0.0001023	0.00031443	3.331e-05	1162.9	3.9399e-06	2.4368e-06	1255.3	241.91	5.6148e-07	2.6725e-06	307.08	83.461	66.475	19.351	4.4657e-06	26.993	0.00039564	0.00042466	0.00010754	1142.7	4.8516e-06	4.3526e-06	1229.9	240.8	4.7385e-06	4.3008e-06	303.62	84.338	66.814	19.58	4.0871e-06	27.267	194.717	39.796	152.251	-23.425	159.948	80.907	-23.261	-15.790	145.655	125.339	-16.262	-9.023	-8.625	-1.671	185.246	-2.704	-8191	255	
9082.159	1	1	0	0	0.12377	0.046799	0.33971	0.20562	0.18714	0.17816	0.31674	0.18322	0.11531	0.24181	0.12081	0.12628	0.25829	0.04592	0.24755	0.072054	-2.5958	-3.1188	-2.4958	-3.4542	-2.6771	-2.6354	-3.5042	-2.5187	-3.1208	-3.1167	-2.425	-3.2687	-2.7792	-2.6792	-3.2667	-2.6333	0.056	303.150	218.796	235.636	200.519	51.849	259.406	323.180	37.904	-32.698	24.668	8.595	65.323	257.423	107.216	102.079	0.00011912	0.00023213	4.8313e-05	1164.7	7.5533e-07	2.6382e-06	1246.6	242.74	1.1793e-06	4.0472e-06	305.22	84.142	66.348	19.626	5.6456e-07	27.222	0.00036411	0.00038729	0.00010346	1140.6	4.4941e-06	4.1216e-06	1223.4	241.29	4.3985e-06	4.2673e-06	302.78	84.701	66.912	19.721	4.0042e-06	27.402	200.822	26.187	56.004	-23.261	32.620	120.445	-22.905	-15.529	135.589	135.184	-16.057	-9.009	-8.679	-1.338	270.862	-2.593	-8191	255	
9082.255	1	1	0	0	0.13288	0.15073	0.1292	0.10433	0.071589	0.25366	0.36491	0.13058	0.19243	0.16731	0.14021	0.22473	0.032049	0.22197	0.16543	0.029208	-2.5438	-3.1479	-2.3583	-3.2042	-2.7917	-2.5458	-3.3375	-2.5792	-2.9792	-3.0854	-2.5146	-3.3354	-2.975	-2.5646	-3.3937	-2.6354	168.066	29.727	317.972	307.139	14.745	172.129	275.676	171.187	320.103	-0.260	288.747	307.637	-8.705	-21.940	85.541	261.995	0.00011171	0.00030438	7.4027e-05	1163.9	3.5999e-06	3.748e-06	1244.3	246.26	1.1595e-06	3.101e-06	306.47	84.436	66.611	19.689	2.0784e-06	27.193	0.00034577	0.00035404	9.9529e-05	1140.1	4.1294e-06	3.6907e-06	1225.5	244.16	3.9938e-06	3.8857e-06	304.34	84.742	67.023	19.742	4.0767e-06	27.394	206.001	81.998	57.099	-23.683	167.045	127.518	-23.465	-16.300	204.987	89.056	-16.696	-9.403	-9.056	-2.038	158.847	-2.932	-8191	255	
9082.351	1	1	0	0	0.098112	0.029134	0.2597	0.16889	0.37154	0.19344	0.18911	0.28133	0.23232	0.2242	0.14391	0.22073	0.069868	0.1576	0.16655	0.064597	-2.5042	-3.2271	-2.5396	-3.225	-2.9792	-2.4875	-3.4646	-2.9042	-2.6771	-3.3021	-2.6417	-3.1167	-3.2083	-2.6	-3.2604	-2.9354	125.023	73.703	-9.419	292.972	45.668	235.933	217.223	46.908	289.174	180.589	301.672	-8.502	302.033	278.314	324.181	5.452	7.7562e-05	0.0003806	9.3883e-05	1163.5	3.8004e-06	2.7892e-06	1245	244.46	2.1592e-06	2.7966e-06	305.95	83.202	66.387	19.408	1.7898e-06	26.932	0.00033291	0.00035594	0.00010803	1138.2	4.1505e-06	3.6605e-06	1222.3	243.05	4.04e-06	3.8883e-06	303.38	84.094	66.632	19.602	4.4352e-06	27.234	193.790	42.621	93.759	-23.382	142.107	169.502	-23.384	-16.047	107.570	107.951	-16.490	-8.648	-8.856	-1.736	139.233	-2.294	-8191	255	
9082.447	1	1	0	0	0.3431	0.17481	0.22356	0.10092	0.1425	0.19508	0.27768	0.24824	0.30511	0.098014	0.24067	0.19246	0.252	0.16759	0.13211	0.15848	-2.35	-3.1333	-2.6229	-3.1479	-3.2438	-2.5854	-3.1937	-2.8417	-2.6708	-3.3042	-2.6271	-3.0167	-3.075	-2.4688	-3.2313	-2.9979	147.190	207.737	35.193	241.798	105.632	60.558	291.160	-20.647	-12.578	213.824	10.968	-5.291	272.293	205.006	130.751	226.894	9.3508e-05	0.0004042	0.00011818	1159.3	3.4653e-06	2.5263e-06	1239.6	241.99	3.4968e-06	2.9688e-06	302.43	82.705	65.591	18.976	2.1576e-06	26.576	0.00033132	0.00036749	0.00011948	1136.3	4.436e-06	4.263e-06	1218.4	240.18	4.415e-06	4.3965e-06	301.38	83.585	66.138	19.36	4.911e-06	26.946	175.263	88.102	75.966	-23.204	102.036	138.613	-23.624	-16.497	208.477	111.611	-16.915	-9.437	-8.971	-2.075	101.654	-2.773	-8191	255	
9082.543	1	1	0	0	0.13617	0.17391	0.26517	0.029576	0.16587	0.19196	0.28449	0.11252	0.23523	0.2141	0.012353	0.11532	0.17822	0.15675	0.36388	0.21528	-2.2771	-3.1688	-2.5292	-2.7792	-3.3375	-2.4271	-3.3688	-3.1646	-2.4833	-3.3458	-2.6917	-3.0292	-3.3604	-2.5708	-2.9021	-2.9583	180.622	101.461	323.001	93.040	25.598	81.298	318.708	216.675	260.475	155.614	68.623	290.158	325.512	27.400	158.956	313.147	9.4133e-05	0.00032481	7.9523e-05	1150.6	1.9435e-06	5.8099e-06	1232.1	240.28	3.755e-06	4.6719e-06	303.06	82.925	65.18	19.203	9.9466e-08	26.598	0.00034514	0.00040072	0.00012612	1127.9	4.1939e-06	4.2834e-06	1211.2	238.89	3.8914e-06	4.1406e-06	300.26	83.241	65.711	19.388	4.3032e-06	26.895	179.063	30.037	90.736	-23.573	136.788	142.018	-23.341	-15.975	136.057	117.341	-16.347	-8.967	-8.804	-1.834	321.200	-2.141	-8191	255	
9082.640	1	1	0	0	0.21901	0.081561	0.19612	0.13473	0.19824	0.052223	0.45898	0.22692	0.14726	0.13289	0.24993	0.32777	0.027942	0.073332	0.099296	0.056735	-2.0792	-3.2875	-2.7292	-2.7125	-3.2625	-2.4021	-3.1771	-3.1229	-2.4271	-3.3125	-2.8854	-2.6167	-3.3271	-2.2979	-2.9646	-3.1646	-21.590	193.834	46.966	214.157	319.230	-18.134	297.560	296.442	276.981	187.709	-33.516	11.678	6.208	33.581	31.252	277.227	7.8549e-05	7.8069e-05	9.8939e-05	1143.8	4.6134e-07	2.9935e-06	1222.3	237.84	1.7085e-06	2.9415e-06	299.96	82.215	64.927	18.905	3.1419e-06	26.385	0.00030169	0.00039045	0.00011257	1120.7	3.9563e-06	4.4209e-06	1200.7	236.62	4.0445e-06	4.6682e-06	297.53	82.545	65.278	19.188	4.4718e-06	26.682	183.892	174.340	79.791	-23.484	256.871	181.750	-23.409	-16.223	145.208	161.476	-16.546	-9.441	-8.936	-2.186	82.786	-2.729	-8191	255	
9082.760	1	1	0	0	0.053986	0.11174	0.096258	0.26689	0.15244	0.30697	0.072632	0.050355	0.1877	0.23738	0.18031	0.21454	0.080169	0.14732	0.158	0.10457	-2.1083	-3.1937	-2.9708	-2.7917	-3.1937	-2.4437	-2.9167	-3.2188	-2.2479	-3.2396	-2.9104	-2.5062	-3.2479	-2.4771	-2.7583	-3.2792	129.665	-20.889	292.463	277.931	296.332	204.727	183.771	35.265	53.107	80.400	11.418	245.991	224.740	19.038	90.392	80.662	8.1483e-05	0.00030667	0.00011844	1139.8	3.3059e-06	3.8537e-06	1220.4	236.71	1.542e-07	2.3948e-06	297.4	81.927	64.918	18.946	3.4376e-06	26.559	0.00033012	0.00042831	0.00011416	1114.7	4.292e-06	4.8311e-06	1200.6	235.3	4.2073e-06	4.7368e-06	296.61	82.727	65.328	19.213	4.1793e-06	26.737	208.436	28.638	66.543	-23.855	173.606	174.962	-23.346	-16.358	227.415	120.014	-16.820	-9.389	-8.856	-2.310	119.749	-2.751	-8191	255	
9082.855	1	1	0	0	0.12581	0.067122	0.19561	0.15464	0.0648	0.096002	0.073922	0.089194	0.075855	0.032706	0.19567	0.050452	0.21403	0.19364	0.26983	0.18332	-2.125	-3.1125	-2.9688	-2.5062	-3.3458	-2.5875	-2.7979	-3.4292	-2.5042	-3.0917	-3.0583	-2.5083	-3.2417	-2.5021	-2.7687	-3.3917	152.764	58.107	88.397	297.579	200.954	204.302	-4.659	49.250	137.633	-24.418	209.490	15.095	-24.159	217.071	61.016	209.478	0.00012092	0.00027933	2.7065e-05	1137.4	3.55e-06	3.5777e-06	1224.8	238.29	2.1656e-06	3.6461e-06	300.97	82.011	65.014	19.095	2.5549e-06	26.538	0.00033893	0.00042098	0.00010794	1116.6	4.5793e-06	4.8613e-06	1203.9	236.46	4.6278e-06	4.9817e-06	298.18	82.953	65.695	19.286	4.5536e-06	26.772	190.426	-33.790	26.580	-23.855	175.741	135.022	-23.341	-16.106	189.646	79.721	-16.663	-9.489	-9.238	-2.684	210.335	-3.407	-8191	255	
9082.928	1	1	0	0	0.13257	0.12339	0.15243	0.14989	0.071848	0.14037	0.054169	0.11464	0.1772	0.2397	0.16339	0.30158	0.26105	0.14089	0.16387	0.20362	-1.9979	-3.0625	-3.0917	-2.7896	-3.1958	-2.775	-2.6625	-3.6604	-2.5729	-2.95	-3.2625	-2.5875	-3.3208	-2.7021	-2.6875	-3.2979	5.257	44.846	216.496	239.431	9.738	62.415	80.161	140.167	-18.792	231.502	311.201	-20.422	308.711	13.041	73.913	215.702	0.00011875	0.0003995	0.00011175	1147.3	1.233e-06	2.379e-06	1233.2	238.15	2.8531e-06	1.9431e-06	300.12	82.613	65.495	18.952	2.3238e-06	26.649	0.00039444	0.00045203	0.00012194	1123.3	5.2119e-06	5.1929e-06	1208	236.52	5.2896e-06	5.0324e-06	298.06	83.026	65.956	19.258	4.5324e-06	26.856	182.964	30.283	88.185	-24.073	256.637	105.688	-23.441	-16.371	168.045	144.728	-16.395	-9.583	-9.019	-2.121	176.887	-3.078	-8191	255	
9083.049	1	1	0	0	0.013003	0.16611	0.14372	0.25915	0.080533	0.039637	0.14414	0.33292	0.068966	0.093867	0.058585	0.2316	0.27293	0.084891	0.21116	0.12897	-2.3292	-2.6437	-3.1542	-2.5292	-3.1562	-2.9729	-2.6937	-3.45	-2.7271	-2.8958	-3.3833	-2.6063	-3.2271	-3	-2.6688	-3.275	256.939	-11.555	145.273	266.071	15.227	64.660	198.737	255.134	101.008	80.585	-17.952	296.183	289.970	32.655	95.661	105.523	0.00010062	0.00051542	9.6174e-05	1145.9	2.4449e-06	1.7526e-06	1234	238.54	3.2749e-06	2.8509e-06	300.15	81.381	65.411	18.997	8.4338e-07	26.219	0.00042233	0.00045377	0.00012455	1124.9	5.592e-06	5.2373e-06	1211.1	236.78	5.7904e-06	5.3578e-06	298.59	82.649	66.066	19.276	5.1168e-06	26.758	194.426	26.985	86.457	-23.947	87.921	92.126	-23.428	-16.318	119.360	102.428	-16.739	-9.219	-8.818	-2.153	169.585	-2.718	-8191	255	
9083.143	1	1	0	0	0.18086	0.29604	0.1781	0.18001	0.28417	0.086596	0.14696	0.16124	0.12895	0.060824	0.13663	0.31646	0.22142	0.13226	0.12353	0.40745	-2.2229	-2.6479	-3.3354	-2.7354	-3.0729	-3.0792	-2.525	-3.4604	-2.5833	-2.7083	-3.3438	-2.5708	-2.8958	-3.2292	-2.4208	-3.35	126.019	246.170	217.748	297.234	103.911	17.369	322.374	276.466	69.506	14.977	253.584	269.403	224.125	252.562	151.138	313.801	6.5997e-05	0.00035245	7.274e-05	1146.4	1.1324e-06	2.738e-06	1227.3	236.61	3.348e-06	3.2575e-06	301.28	81.905	64.967	19.027	6.3139e-07	26.342	0.00046322	0.00048803	0.00012886	1124.8	5.5542e-06	5.1819e-06	1207.9	236.33	5.5538e-06	5.1316e-06	298.26	82.975	65.671	19.305	5.2694e-06	26.769	186.543	57.682	55.602	-23.799	11.989	99.423	-23.491	-16.162	200.087	81.629	-16.587	-9.589	-8.672	-2.032	125.934	-2.668	-8191	255	
9083.239	1	1	0	0	0.18719	0.21207	0.27109	0.32105	0.041468	0.10358	0.086354	0.37601	0.023391	0.14034	0.13145	0.39322	0.10205	0.21739	0.15799	0.10746	-2.2958	-2.6896	-3.3021	-2.7521	-2.8146	-3.1229	-2.4292	-3.4	-2.8104	-2.5542	-3.4167	-2.625	-2.9896	-3.2646	-2.3771	-3.2542	180.598	144.126	120.109	-22.123	124.665	155.056	-4.530	251.623	83.732	217.794	299.867	294.072	257.412	315.489	39.663	301.797	7.1388e-05	0.00054052	9.1262e-05	1150.7	2.833e-06	2.0702e-06	1229.5	238.25	1.3574e-06	2.0895e-06	301.84	81.766	64.931	18.889	3.6795e-06	26.482	0.00044806	0.00048149	0.00013231	1129.7	5.4354e-06	5.1234e-06	1210.1	236.82	5.3772e-06	4.9605e-06	298.94	83.021	65.699	19.285	5.17e-06	26.904	220.846	77.991	58.357	-23.804	176.368	122.495	-23.514	-16.093	170.282	189.024	-17.011	-10.090	-8.889	-2.534	184.038	-2.941	-8191	255	
9083.360	1	1	0	0	0.017867	0.291	0.25599	0.10235	0.095495	0.080967	0.26911	0.038728	0.15694	0.1591	0.18038	0.077566	0.29742	0.10378	0.057501	0.12916	-2.5167	-2.3396	-3.2479	-2.5729	-2.8333	-3.2229	-2.6188	-3.1604	-3	-2.5167	-3.3937	-2.7188	-2.525	-3.4042	-2.3583	-3	22.096	149.147	-23.892	24.957	-12.537	181.954	206.824	285.508	156.717	33.316	-27.281	259.696	248.600	-33.329	273.219	68.360	0.00011821	0.00023646	9.3709e-05	1149.2	2.5737e-06	4.4881e-06	1230.6	237.94	2.0662e-06	3.0731e-06	298.56	81.602	64.646	18.871	4.3307e-06	26.357	0.00043094	0.00045198	0.00013499	1129.8	5.1927e-06	5.0279e-06	1210.6	236.79	5.3946e-06	4.8683e-06	298.63	82.932	65.655	19.219	5.5873e-06	26.861	191.704	309.564	22.381	-24.083	117.030	79.723	-23.524	-16.408	128.047	141.653	-16.729	-9.736	-8.738	-2.072	164.128	-2.731	-8191	255	
9083.456	1	1	0	0	0.20468	0.15035	0.27396	0.31976	0.24863	0.14767	0.20977	0.17718	0.16091	0.11765	0.17201	0.15988	0.040831	0.17109	0.21355	0.081098	-2.6396	-2.375	-3.1667	-2.8438	-2.6708	-3.1875	-2.6125	-2.9125	-3.1542	-2.6333	-3.3479	-2.8167	-2.8354	-3.3646	-2.4437	-2.8521	6.720	325.835	56.041	3.688	104.238	79.237	307.418	-4.983	224.120	14.353	5.751	283.750	-15.320	209.921	308.708	35.987	7.477e-05	0.00035691	0.00011239	1148.9	2.2728e-06	2.5641e-06	1232.8	236.31	1.6567e-06	3.3167e-06	300.13	81.945	64.921	18.915	4.766e-06	26.411	0.00042108	0.00046894	0.00014747	1127.8	5.0396e-06	4.8082e-06	1211.6	236.2	4.8293e-06	4.6567e-06	298.58	82.902	65.535	19.202	5.328e-06	26.861	169.799	46.108	42.615	-23.794	134.989	69.923	-23.488	-16.108	97.807	133.299	-16.926	-9.224	-8.974	-2.041	189.925	-2.382	-8191	255	
9083.528	1	1	0	0	0.075221	0.17994	0.31683	0.19474	0.1125	0.24101	0.12824	0.30135	0.14277	0.14984	0.16593	0.077216	0.18941	0.1014	0.23982	0.086422	-2.7542	-2.3542	-3.3271	-3.0292	-2.5979	-3.3354	-2.7479	-2.8896	-3.1896	-2.7313	-3.1437	-3.1937	-2.5354	-3.3729	-2.6396	-2.7979	51.333	253.799	265.856	290.449	229.010	228.741	297.872	295.502	104.186	18.412	19.911	325.954	302.829	37.663	126.039	20.709	7.6307e-05	0.00031001	6.6892e-05	1147	2.1772e-06	2.8069e-06	1230.1	236.33	1.4893e-06	4.0686e-06	300.47	81.949	64.941	18.855	9.4929e-07	26.153	0.00037152	0.00042699	0.0001401	1123	4.5868e-06	4.8667e-06	1207.4	235.82	4.6903e-06	5.0603e-06	298.32	82.497	65.35	19.158	5.7062e-06	26.658	184.456	94.103	30.864	-23.655	99.871	146.479	-23.262	-15.754	144.440	155.068	-16.182	-9.322	-8.908	-1.912	162.712	-2.205	-8191	255	
9083.648	1	1	0	0	0.13546	0.042076	0.036905	0.1898	0.056759	0.16714	0.32016	0.26623	0.18292	0.17845	0.10574	0.16731	0.13746	0.31613	0.11626	0.10669	-2.6188	-2.4833	-3.0187	-3.2854	-2.6729	-3.3312	-2.9708	-2.7438	-3.4458	-2.7	-3.1875	-3.1229	-2.5563	-3.2833	-2.8292	-2.4542	259.474	270.005	4.341	323.624	21.505	53.768	-16.423	287.096	191.378	-29.037	314.336	87.665	269.024	50.029	264.919	182.372	0.00011256	0.00052324	0.00012904	1141.4	2.0653e-06	4.2666e-06	1216.5	237.03	3.0815e-06	4.9777e-06	297.98	81.922	64.805	18.915	2.6055e-06	26.288	0.00039129	0.00049312	0.00014601	1118.4	4.8429e-06	5.5996e-06	1196.9	235.17	4.6922e-06	5.3511e-06	296.4	82.455	65.238	19.291	4.8245e-06	26.73	184.673	69.253	67.669	-23.223	194.517	119.657	-22.926	-15.531	183.588	143.855	-16.345	-9.137	-8.118	-1.931	144.867	-2.304	-8191	255	
9083.744	1	1	0	0	0.17044	0.18297	0.14082	0.16297	0.12176	0.24392	0.4134	0.033038	0.13682	0.18743	0.12897	0.13142	0.19238	0.095534	0.13267	0.32313	-2.9021	-2.4313	-2.9979	-3.2417	-2.3	-3.1312	-2.6958	-2.7125	-3.1104	-2.7354	-2.9958	-3.3354	-2.3312	-3.1937	-3.0812	-2.5271	313.036	255.697	118.532	278.258	317.846	46.421	304.654	236.836	227.216	86.207	313.572	158.803	289.881	-25.391	216.201	217.480	0.00010441	0.00044656	0.00012655	1131.4	3.2877e-06	1.348e-06	1218.9	239.14	1.1983e-06	3.4362e-06	303.56	82.742	65.736	19.394	2.5141e-06	26.764	0.00033245	0.0004324	0.0001118	1109.4	3.9031e-06	4.4534e-06	1194.5	237.34	3.8025e-06	4.3061e-06	299.51	83.318	65.871	19.606	4.0816e-06	27.14	170.537	47.892	30.669	-23.147	131.586	201.631	-23.249	-15.949	137.281	116.192	-16.331	-9.447	-8.551	-1.947	144.109	-2.324	-8191	255	
9083.841	1	1	0	0	0.23875	0.24646	0.11392	0.12224	0.11607	0.085109	0.060013	0.017169	0.15609	0.12766	0.12628	0.08805	0.099682	0.31472	0.11569	0.17911	-3.1813	-2.5333	-2.9271	-3.2708	-2.4062	-3.1813	-3.0833	-2.4625	-3.1937	-2.8083	-2.6146	-3.3125	-2.5187	-3.1021	-2.9229	-2.4646	42.691	41.452	217.690	188.031	160.599	-32.502	159.150	44.240	156.316	277.665	111.876	320.287	183.671	313.397	119.723	192.283	9.535e-05	0.0002207	8.7969e-05	1139.6	5.1028e-06	1.9655e-06	1231.9	241.38	8.6933e-07	2.9693e-06	305.03	82.617	65.133	19.199	1.1868e-06	26.729	0.00033592	0.00041563	0.0001091	1119.4	4.4661e-06	4.9933e-06	1208.3	239.87	4.9617e-06	5.3547e-06	301.01	83.397	65.85	19.47	5.5269e-06	27.022	179.398	18.166	59.747	-23.501	142.615	103.154	-23.445	-16.113	280.892	97.952	-16.769	-9.391	-9.019	-1.646	34.343	-2.755	-8191	255	
9083.935	1	1	0	0	0.2876	0.1543	0.28403	0.15114	0.11023	0.11218	0.32503	0.12787	0.10511	0.30832	0.27226	0.027343	0.16978	0.21403	0.32103	0.13354	-2.9896	-2.7167	-2.7354	-3.4625	-2.4167	-3.0979	-3.2271	-2.4042	-3.3917	-2.8667	-2.5292	-3.4	-2.2854	-3.2854	-3.2812	-2.3896	320.396	74.811	300.849	220.799	202.605	147.016	256.571	269.232	233.020	61.556	305.765	241.831	283.253	316.785	60.905	60.181	0.00012452	0.00045201	0.00016948	1151.9	5.0126e-06	2.1647e-06	1234.7	239.53	3.9154e-06	2.732e-06	302.61	82.443	65.017	19.092	3.7283e-06	26.512	0.00046765	0.00056979	0.00014483	1130.6	6.2095e-06	6.1179e-06	1214.3	238.12	6.0181e-06	5.941e-06	299.75	83.4	65.799	19.456	5.1463e-06	26.858	176.115	9.914	81.115	-23.638	141.833	126.710	-23.585	-16.138	147.301	67.894	-17.043	-9.298	-9.087	-2.279	117.054	-3.157	-8191	255	
9084.056	1	1	0	0	0.15873	0.35146	0.086031	0.27629	0.073687	0.2784	0.17657	0.15386	0.064461	0.086517	0.29887	0.33443	0.099421	0.32117	0.13064	0.12871	-2.9479	-2.875	-2.6208	-3.3021	-2.5042	-3.0042	-3.3083	-2.5083	-3.1396	-2.9604	-2.3979	-3.4688	-2.5708	-2.8854	-3.2562	-2.5167	153.584	-8.530	253.392	292.900	292.992	133.659	279.269	-23.795	290.797	317.515	304.167	-8.006	244.185	-8.233	68.397	-31.906	0.00012665	0.00035983	8.8528e-05	1147.1	3.2176e-06	1.6224e-06	1231.2	238.62	2.5807e-06	3.0295e-06	301.22	82.222	65.024	18.988	3.503e-06	26.515	0.00044763	0.00049612	0.00012518	1123.8	5.6604e-06	5.221e-06	1206.6	237.31	5.5902e-06	5.2531e-06	298.55	82.846	65.678	19.294	5.0314e-06	26.823	190.817	22.928	3.982	-23.761	148.921	160.794	-23.441	-16.332	216.205	126.024	-16.318	-9.413	-9.268	-1.983	169.827	-2.968	-8191	255	
9084.152	1	1	0	0	0.10417	0.29023	0.16701	0.19229	0.1986	0.069591	0.10274	0.087062	0.0089954	0.028544	0.17938	0.083683	0.14751	0.14998	0.10776	0.13396	-2.7958	-3.0354	-2.4875	-3.3229	-2.6458	-2.6833	-3.3812	-2.6479	-3.1458	-3.0896	-2.4917	-3.3167	-2.6562	-2.7646	-3.3917	-2.5771	269.534	53.286	279.236	1.788	-14.212	-10.185	22.517	242.463	81.226	169.436	-8.831	21.624	276.036	8.231	255.521	227.749	9.6829e-05	0.0004523	9.0352e-05	1143	1.853e-06	5.1178e-06	1227.7	237.54	3.4166e-06	5.6608e-06	299.9	82.385	65.045	18.917	4.3266e-06	26.151	0.00045264	0.0004952	0.00012938	1124.9	6.1389e-06	5.475e-06	1206.7	236.18	5.9579e-06	5.5455e-06	297.52	82.902	65.357	19.216	5.0669e-06	26.676	189.247	56.047	55.663	-23.942	198.809	90.893	-23.464	-16.259	184.740	70.238	-16.610	-9.402	-9.491	-2.284	131.593	-2.799	-8191	255	
9084.223	1	1	0	0	0.20829	0.1909	0.26078	0.12174	0.069765	0.13579	0.10873	0.249	0.22639	0.2661	0.16233	0.27773	0.13918	0.2777	0.29072	0.17847	-2.7375	-2.8354	-2.4521	-3.4542	-2.8104	-2.8542	-3.4208	-2.6229	-3.0062	-3.1937	-2.5521	-3.1542	-2.6458	-2.5917	-3.3792	-2.5896	117.971	52.826	200.184	270.854	62.373	58.451	223.274	274.442	232.702	146.479	298.069	230.648	318.172	-6.523	129.065	105.699	7.197e-05	0.00041677	5.8074e-05	1139.9	3.9229e-06	2.7029e-06	1220.4	236.49	2.841e-06	1.0639e-06	298.85	81.284	64.689	18.618	4.041e-06	26	0.00043005	0.0004675	0.00012192	1121.6	5.265e-06	4.9762e-06	1200.1	235.14	5.085e-06	4.9312e-06	296.2	82.226	65.052	19.007	4.921e-06	26.462	192.556	318.458	24.522	-23.920	165.442	88.857	-23.586	-16.444	229.074	76.434	-17.030	-9.416	-9.225	-2.350	130.066	-2.791	-8191	255	
9084.320	1	1	0	0	0.052567	0.15251	0.075762	0.11159	0.027338	0.13666	0.31524	0.20112	0.040279	0.15847	0.030434	0.092922	0.24996	0.058954	0.007461	0.37934	-2.4583	-3.1896	-2.3333	-3.3	-2.725	-2.4729	-3.3292	-2.6417	-2.7562	-3.4646	-2.2396	-3.1688	-3.0354	-2.6604	-3.3	-2.6708	242.594	15.214	18.125	-0.594	207.578	-5.665	292.877	-20.161	62.401	84.838	253.705	318.732	294.915	61.029	22.751	312.944	0.00011727	0.00021941	6.1353e-05	1127.7	2.832e-06	4.1746e-06	1212.1	234.77	1.6307e-06	3.315e-06	296.3	81.209	64.068	18.812	2.1106e-06	26.497	0.00037805	0.00042784	0.00011947	1109.5	4.6946e-06	4.1755e-06	1191.4	233.39	4.3241e-06	4.1202e-06	294.72	82.011	64.66	18.951	4.5963e-06	26.564	178.408	58.084	83.562	-23.788	174.031	123.370	-23.425	-16.332	139.479	170.010	-16.955	-9.108	-9.162	-2.481	148.686	-2.992	-8191	255	
9084.440	1	1	0	0	0.12807	0.1447	0.1255	0.083098	0.10035	0.21001	0.42114	0.21498	0.045104	0.11177	0.11487	0.1839	0.17064	0.19333	0.22808	0.4102	-2.3104	-3.2125	-2.4479	-3.1625	-3.1667	-2.5812	-3.3937	-2.6979	-2.7042	-3.2417	-2.6229	-3.0625	-3.0729	-2.2917	-3.1333	-2.8625	6.933	32.487	206.042	304.568	234.786	279.183	268.371	262.856	151.653	179.120	290.960	248.554	135.438	153.262	287.792	263.443	8.3524e-05	0.00043304	6.9285e-05	1127.1	7.6033e-07	2.0901e-06	1209.4	234.48	2.3649e-06	1.2424e-06	297.15	80.994	64.05	18.751	1.5406e-06	26.288	0.00033593	0.00035919	0.00011332	1105.7	4.1164e-06	3.748e-06	1185.8	233.16	3.9565e-06	3.7459e-06	294.68	81.871	64.489	19.016	4.4755e-06	26.537	195.338	77.382	108.089	-24.019	158.264	125.446	-23.363	-16.244	216.661	133.583	-17.037	-9.514	-9.720	-2.059	145.619	-2.730	-8191	255	
9084.536	1	1	0	0	0.18055	0.082506	0.16595	0.1871	0.066548	0.29829	0.074645	0.12351	0.045243	0.18974	0.14771	0.24754	0.18005	0.21947	0.055553	0.16705	-2.2	-3.25	-2.5146	-2.9437	-3.1542	-2.5792	-3.1604	-2.8688	-2.6375	-3.2979	-2.5417	-2.8312	-3.2917	-2.5229	-3.1917	-2.9667	222.584	1.018	233.474	278.383	27.503	157.709	265.104	252.602	302.249	272.537	278.405	223.440	27.354	-6.862	269.857	221.076	0.0001009	9.4361e-05	0.00011262	1118	1.9698e-06	2.0741e-06	1208.6	232.8	7.6957e-07	1.4139e-06	295.86	80.862	63.897	18.828	3.2908e-06	26.071	0.00031859	0.00037388	0.00011594	1100	4.1565e-06	4.1452e-06	1184.3	232.2	4.1413e-06	4.2049e-06	293.81	81.382	64.427	19.005	4.572e-06	26.388	186.835	46.093	101.295	-24.303	168.965	106.875	-23.866	-16.820	116.013	-7.767	-17.397	-9.845	-9.451	-2.917	172.867	-3.452	-8191	255	
9084.633	1	1	0	0	0.3715	0.11273	0.15946	0.22584	0.17084	0.25306	0.15885	0.22382	0.17199	0.045481	0.13306	0.066977	0.23134	0.30896	0.28376	0.25449	-1.8979	-3.2313	-2.6	-2.8625	-3.3729	-2.4771	-3.3042	-3.0958	-2.3583	-3.175	-2.7188	-2.7188	-3.2542	-2.3896	-3.0958	-3.1063	0.848	125.341	229.286	257.263	172.998	47.971	-11.298	47.392	184.218	-33.109	198.503	91.753	126.238	295.856	18.280	221.325	9.6337e-05	0.00032603	0.00011124	1115.8	3.0081e-06	3.6133e-06	1199.6	234.55	1.7097e-06	4.1501e-06	295.16	80.393	63.811	18.564	1.2981e-06	26.043	0.00032917	0.00039622	0.00012148	1097.6	4.0172e-06	4.4145e-06	1179.8	232.39	3.9034e-06	4.4629e-06	293.87	81.211	64.25	18.936	4.2568e-06	26.301	181.331	49.317	104.110	-24.102	113.823	86.037	-23.813	-16.699	93.814	170.053	-17.577	-9.718	-9.767	-2.629	111.869	-3.742	-8191	255	
9084.729	1	1	0	0	0.18304	0.1775	0.14764	0.35876	0.040404	0.30696	0.42651	0.11908	0.016901	0.15699	0.17796	0.22363	0.16578	0.068951	0.09679	0.23749	-1.9875	-3.2188	-2.7792	-2.6292	-3.3479	-2.5062	-3.1479	-3.1854	-2.3875	-3.1917	-2.9146	-2.4167	-3.5104	-2.4813	-2.8688	-3.125	270.542	41.595	238.502	279.813	225.463	45.015	247.768	215.570	61.872	225.598	86.166	32.730	264.865	-16.574	32.976	255.062	0.00010133	8.0608e-05	7.6447e-05	1116.1	3.2161e-06	6.4636e-06	1196.9	232.74	2.1117e-06	2.6775e-06	296.26	80.706	63.496	18.662	4.5148e-06	26.117	0.00031441	0.00040614	0.00011275	1095.5	3.8873e-06	4.4436e-06	1177.8	231.68	3.7758e-06	4.4339e-06	293.33	81.355	64.241	18.945	4.1443e-06	26.371	208.049	95.450	37.192	-24.362	161.611	91.880	-24.055	-16.699	202.033	97.959	-17.560	-9.906	-9.326	-2.971	139.408	-3.328	-8191	255	
9084.825	1	1	0	0	0.20806	0.26774	0.1295	0.19195	0.13059	0.29518	0.21327	0.12336	0.43378	0.32341	0.10535	0.24257	0.22128	0.10983	0.13335	0.37943	-2.1167	-2.9188	-2.7687	-2.5333	-3.6167	-2.4875	-2.9104	-3.2979	-2.5021	-3.1625	-3.0417	-2.6479	-3.5187	-2.7188	-2.7375	-3.3792	47.349	121.107	42.584	314.230	150.621	-18.434	298.134	234.330	306.985	250.216	304.570	291.018	44.427	270.330	61.464	293.315	0.0001008	0.00022487	9.9745e-05	1118.1	3.379e-06	4.5706e-06	1197.3	232.97	3.211e-06	1.4259e-06	296.13	80.855	63.743	18.694	2.1346e-06	25.942	0.00032073	0.00042387	0.00010941	1097.7	4.2138e-06	4.6074e-06	1179.6	231.68	4.2154e-06	4.5718e-06	294.03	81.393	64.381	18.871	4.1817e-06	26.289	179.143	39.355	51.056	-24.073	132.837	201.378	-23.975	-16.545	187.131	128.678	-17.273	-9.650	-9.523	-2.784	109.845	-3.540	-8191	255	
9084.921	1	1	0	0	0.18904	0.044251	0.047708	0.20854	0.22715	0.25489	0.083994	0.099274	0.21645	0.2228	0.20042	0.35496	0.17113	0.082567	0.11486	0.023168	-2.0042	-3.2042	-3.0146	-2.6208	-3.3312	-2.5938	-3.0062	-3.325	-2.4021	-3.075	-3.1312	-2.4875	-3.3146	-2.7979	-2.5583	-3.4146	111.292	275.337	286.504	268.912	212.438	-22.243	181.745	192.275	191.856	145.076	209.811	-17.519	192.052	193.458	82.324	219.934	8.3786e-05	0.00035144	9.5568e-05	1118.4	2.9335e-06	5.0025e-06	1195.8	233.71	1.6695e-06	3.7916e-06	294.01	80.369	63.867	18.611	2.5987e-06	26.018	0.00035433	0.00042869	0.00011194	1095.9	4.5655e-06	4.5828e-06	1177.3	231.9	4.6046e-06	4.5134e-06	292.96	81.141	64.299	18.862	4.1885e-06	26.35	189.549	23.704	64.607	-24.298	156.826	123.239	-23.935	-16.616	171.851	101.915	-17.138	-9.880	-9.696	-2.681	110.716	-3.334	-8191	255	
9085.040	1	1	0	0	0.11615	0.26968	0.10112	0.26003	0.26669	0.18036	0.17787	0.34633	0.12457	0.23746	0.24295	0.35783	0.19443	0.26254	0.18028	0.22432	-2.2833	-2.9542	-3.3083	-2.5062	-3.2292	-2.7708	-2.7917	-3.4146	-2.65	-2.7521	-3.2042	-2.5125	-3.0646	-3.1646	-2.4437	-3.2833	80.766	252.796	213.990	231.344	190.274	51.857	266.725	323.725	125.081	204.616	-25.965	-12.639	257.268	226.856	133.596	294.984	0.00011151	0.00044793	2.119e-05	1119.1	3.0702e-06	2.6155e-06	1199.4	233.99	1.9222e-06	2.7578e-06	296.64	80.48	63.812	18.715	3.6618e-06	25.896	0.00036631	0.00039248	0.00010395	1097	4.5742e-06	4.259e-06	1178.6	232.19	4.4748e-06	4.1742e-06	293.11	81.189	64.506	18.917	3.7532e-06	26.276	195.962	17.960	23.439	-24.392	145.813	90.750	-23.928	-16.343	154.232	138.596	-17.092	-9.711	-9.454	-2.394	126.572	-2.988	-8191	255	
9085.136	1	1	0	0	0.049834	0.098	0.047126	0.23116	0.27779	0.20704	0.18423	0.2714	0.1103	0.12693	0.078685	0.097673	0.30894	0.19751	0.17852	0.084975	-2.3083	-2.7292	-3.3	-2.4979	-3.125	-3.1354	-2.6167	-3.3854	-2.6021	-2.7333	-3.4396	-2.7104	-3.0208	-3.0792	-2.3292	-3.3646	18.686	147.318	208.950	289.809	297.366	49.472	-5.780	147.809	43.115	101.223	299.212	227.428	305.234	149.195	-30.877	41.612	0.00012052	0.00026577	2.9163e-05	1117.4	1.6992e-06	2.8757e-06	1206.9	232.92	1.1521e-06	3.8916e-06	296.06	80.614	64.297	18.658	1.6553e-06	26.094	0.00035747	0.00037266	9.7123e-05	1095.5	4.2737e-06	3.962e-06	1180.2	232.52	4.288e-06	3.9002e-06	293.21	81.328	64.601	18.919	3.5853e-06	26.359	172.426	52.690	53.601	-24.048	173.505	161.618	-23.930	-16.596	107.385	46.285	-16.991	-10.036	-9.403	-2.789	135.680	-3.032	-8191	255	
9085.232	1	1	0	0	0.082364	0.20821	0.065506	0.21873	0.067781	0.099895	0.26461	0.16772	0.26749	0.12532	0.17934	0.092504	0.067588	0.27081	0.0038977	0.17135	-2.3292	-2.6479	-3.2292	-2.8021	-2.9917	-3.2375	-2.5938	-3.3	-2.7667	-2.5667	-3.2667	-2.7542	-2.8208	-3.2354	-2.4333	-3.3521	166.147	224.400	118.826	307.680	222.924	288.714	294.593	69.831	38.428	234.603	-5.136	168.512	318.754	282.137	-29.303	275.928	0.00013149	0.00039124	4.4556e-05	1113.3	2.2109e-06	3.8279e-06	1202.7	233.83	1.6066e-06	2.4866e-06	295.93	80.448	63.728	18.64	3.2233e-06	26.084	0.00034214	0.00034516	9.2533e-05	1093.3	3.9942e-06	3.8384e-06	1179.9	232.64	4.1825e-06	3.817e-06	293.39	81.445	64.419	18.971	3.8342e-06	26.441	198.021	31.667	112.980	-24.289	135.510	135.756	-23.887	-16.539	136.609	109.437	-17.250	-9.835	-8.957	-2.733	132.852	-3.434	-8191	255	
9085.328	1	1	0	0	0.14584	0.069715	0.050952	0.031932	0.075148	0.069959	0.42107	0.036754	0.068309	0.20302	0.057809	0.1874	0.099146	0.031516	0.17316	0.15495	-2.5271	-2.5854	-3.1688	-2.8354	-2.7812	-3.3917	-2.525	-3.3187	-3.0812	-2.4667	-3.3312	-2.5687	-2.7271	-3.1042	-2.3354	-3.0542	21.435	254.131	97.387	316.435	83.948	163.140	218.751	209.167	264.917	21.144	56.097	226.266	18.603	69.912	87.323	249.956	8.7723e-05	0.00012669	6.3199e-05	1120.4	4.2179e-06	3.4324e-06	1201.2	234.33	3.1464e-06	1.3729e-06	296.78	81.059	64.417	18.888	2.4896e-06	26.196	0.00032253	0.00033707	9.821e-05	1096.2	4.0409e-06	3.7433e-06	1179.6	233.55	3.9257e-06	3.5371e-06	294.89	81.601	64.696	19.033	3.9561e-06	26.465	208.173	-22.922	81.920	-24.020	129.645	98.531	-24.002	-16.827	165.874	95.310	-16.961	-9.918	-9.260	-2.665	142.430	-3.239	-8191	255	
9085.449	1	1	0	0	0.18515	0.13314	0.051375	0.31839	0.2214	0.24256	0.22995	0.14945	0.31425	0.048078	0.24413	0.089428	0.10382	0.17859	0.16383	0.082416	-2.6896	-2.4792	-3.3021	-2.7625	-2.8563	-3.175	-2.7104	-2.9813	-3.2562	-2.5792	-3.2833	-2.5938	-2.6188	-3.25	-2.4854	-3.0646	-25.316	36.912	142.698	308.690	189.544	316.208	251.428	187.054	78.567	173.359	237.075	247.547	26.273	239.435	253.771	-32.505	0.00011571	0.00034413	4.7349e-05	1119.3	7.5938e-07	3.2254e-06	1192.9	235.33	3.0621e-06	1.2907e-06	298.15	80.783	64.026	18.963	2.452e-06	26.125	0.00031274	0.00032139	9.8067e-05	1099.2	3.8478e-06	3.6886e-06	1177.7	233.34	3.8909e-06	3.6137e-06	294.99	81.718	64.61	19.054	4.2202e-06	26.543	178.660	78.041	67.960	-24.175	158.885	125.099	-23.767	-16.557	157.023	46.853	-16.732	-9.812	-9.189	-2.688	145.336	-3.074	-8191	255	
9085.521	1	1	0	0	0.1943	0.15775	0.19156	0.1423	0.14255	0.032607	0.17106	0.10008	0.09131	0.15247	0.086545	0.14827	0.013402	0.08976	0.074162	0.15163	-2.7729	-2.3625	-3.1083	-2.9208	-2.6312	-3.4604	-2.6042	-3.1688	-3.05	-2.4854	-3.3208	-2.8333	-2.5083	-3.3292	-2.7292	-2.8229	-26.966	-31.137	186.969	252.982	173.158	177.014	310.263	133.127	26.736	65.757	-23.516	225.346	267.379	-26.751	261.479	-7.049	0.00011572	0.00035501	1.974e-05	1118.7	2.0166e-06	3.5483e-06	1210.5	234.77	2.8356e-06	2.4399e-06	296	81.276	64.382	18.713	1.9194e-06	26.157	0.00031427	0.00033334	0.00011152	1098.7	3.8242e-06	3.7695e-06	1184.6	233.41	3.7808e-06	3.7435e-06	294.17	81.925	64.622	19.042	4.2483e-06	26.457	190.039	32.387	3.601	-24.059	140.711	220.420	-23.788	-16.657	150.336	111.755	-16.829	-9.863	-9.140	-2.235	81.550	-2.927	-8191	255	
9085.617	1	1	0	0	0.26466	0.3498	0.26595	0.058438	0.084813	0.032359	0.35747	0.28793	0.028666	0.15326	0.17224	0.1024	0.2463	0.1705	0.26279	0.029181	-3.0438	-2.3937	-3.2812	-2.925	-2.4437	-3.4437	-2.7729	-2.7542	-3.1312	-2.4062	-3.1688	-3.1125	-2.3688	-3.3604	-2.6583	-2.7396	98.813	150.767	186.116	128.290	193.823	294.844	240.070	236.877	208.663	3.185	268.276	224.024	284.368	-17.418	-12.320	50.913	0.00011581	0.00040757	0.00011795	1117.6	3.7912e-06	1.3341e-06	1199.6	234.95	1.3025e-06	4.8344e-06	296.19	80.957	64.08	18.813	3.4851e-06	26.325	0.0003052	0.00035785	0.00010636	1098.3	3.6958e-06	3.9591e-06	1181.6	233.52	3.7722e-06	4.0968e-06	294.14	81.688	64.585	19.067	4.235e-06	26.459	204.366	60.679	74.353	-23.962	155.250	174.621	-23.439	-16.318	93.574	78.829	-16.805	-9.692	-9.015	-2.126	180.926	-2.426	-8191	255	
9085.713	1	1	0	0	0.10519	0.13067	0.16098	0.15449	0.18468	0.1725	0.16854	0.099076	0.025666	0.045378	0.35122	0.21034	0.15556	0.19457	0.24946	0.13481	-2.9104	-2.3812	-3.1333	-3.2771	-2.4813	-3.3042	-2.875	-2.6958	-3.3271	-2.5958	-2.9458	-3.1688	-2.5062	-3.2729	-3.0125	-2.6229	127.333	98.081	223.791	16.349	14.882	289.151	14.164	49.266	138.624	62.600	277.381	177.324	235.694	302.148	284.754	280.793	0.00010778	0.00036716	0.00011047	1119.6	2.6474e-06	3.7395e-06	1208.9	234.39	3.5011e-06	1.7989e-06	297.67	81.687	64.274	18.865	2.6564e-06	26.125	0.00029663	0.00038	0.00010414	1098.8	3.6249e-06	4.1187e-06	1183	233.39	3.6338e-06	4.1681e-06	294.56	81.884	64.687	19.069	3.9748e-06	26.495	178.485	77.880	54.046	-23.941	76.978	146.559	-23.412	-16.329	163.047	203.729	-16.820	-9.438	-9.293	-2.324	99.169	-2.284	-8191	255	
9085.832	1	1	0	0	0.24845	0.13438	0.20942	0.22683	0.064204	0.24662	0.19256	0.16574	0.27495	0.096209	0.14314	0.14023	0.04347	0.25102	0.054324	0.20424	-2.975	-2.3333	-2.6937	-3.5062	-2.2875	-3.2771	-2.8312	-2.5167	-3.1854	-2.6542	-3.1688	-3.375	-2.4729	-3.2125	-3.1417	-2.5021	87.009	319.279	310.010	309.423	126.264	163.090	214.995	166.477	320.885	-13.500	11.576	208.172	-26.152	9.252	78.188	146.074	8.4632e-05	0.0004278	9.1642e-05	1119.7	5.5893e-07	2.1308e-06	1199.9	234.25	2.8584e-06	1.543e-06	295.66	80.794	64.205	18.908	3.3619e-06	26.189	0.00029805	0.00038223	9.9691e-05	1097.2	3.8425e-06	4.1762e-06	1178.9	233.13	3.8265e-06	4.1928e-06	294.45	81.586	64.554	19.113	3.7489e-06	26.423	203.363	34.919	93.958	-23.576	160.179	162.992	-23.512	-16.253	179.236	195.380	-16.748	-9.583	-9.165	-2.066	165.982	-2.706	-8191	255	
9085.928	1	1	0	0	0.32287	0.11042	0.24201	0.17987	0.1068	0.059034	0.038849	0.090576	0.2501	0.2282	0.11882	0.24904	0.2112	0.055233	0.014196	0.16933	-2.9521	-2.6188	-2.6333	-3.5021	-2.2833	-3.0542	-3.2812	-2.35	-3.1542	-2.7875	-2.7271	-3.5583	-2.5	-3.2083	-3.0021	-2.5375	279.936	20.349	162.371	8.958	185.040	78.176	182.498	239.062	116.289	65.784	273.302	-8.878	213.593	20.960	-19.287	248.309	8.5471e-05	0.00028927	9.7685e-05	1116.4	3.2317e-06	4.3771e-06	1199	234.96	1.6982e-06	5.2876e-06	298.4	81.183	64.742	19.017	2.0167e-06	26.32	0.00031173	0.00036962	9.4501e-05	1093.2	4.0387e-06	4.0304e-06	1178.4	232.76	3.9369e-06	4.1016e-06	294.79	81.707	64.846	19.126	3.7191e-06	26.445	178.093	33.206	86.150	-23.886	160.867	125.675	-23.534	-16.137	185.751	103.549	-16.536	-9.261	-8.868	-1.726	134.217	-2.629	-8191	255	
9086.024	1	1	0	0	0.18944	0.068424	0.22099	0.034705	0.19571	0.10831	0.065928	0.24254	0.12374	0.17139	0.22984	0.15567	0.27596	0.29512	0.13781	0.10251	-2.8208	-3.025	-2.5646	-3.3521	-2.5104	-2.7354	-3.3375	-2.3125	-3.1917	-2.8479	-2.5875	-3.3604	-2.5854	-2.7979	-3.2125	-2.475	80.208	258.795	258.880	57.150	162.997	186.917	-11.016	255.610	11.784	318.721	-23.601	-30.286	169.576	151.399	36.842	264.760	0.00011445	0.00012511	9.9644e-05	1117.1	4.5654e-06	3.1569e-06	1198.9	234.8	2.3217e-06	7.6021e-07	297.53	80.72	64.181	18.819	1.5172e-06	26.103	0.00032392	0.00036246	9.2417e-05	1093.5	4.0359e-06	3.8422e-06	1177.8	233.39	4.0992e-06	3.928e-06	294.09	81.6	64.675	19.055	3.6106e-06	26.433	195.758	100.901	113.203	-23.337	154.790	90.879	-23.343	-15.884	148.135	189.912	-16.393	-8.816	-8.835	-2.398	180.110	-2.806	-8191	255	
9086.120	1	1	0	0	0.31971	0.091676	0.27952	0.30589	0.078383	0.22229	0.2537	0.18524	0.070685	0.089115	0.075214	0.20888	0.2305	0.065016	0.20005	0.2103	-2.8688	-2.8	-2.475	-3.5625	-2.6104	-2.8729	-3.2708	-2.4792	-2.8771	-3.0458	-2.4813	-3.3875	-2.6896	-2.6688	-3.2042	-2.4771	101.284	-31.312	193.943	298.728	140.149	168.937	276.221	-28.844	65.621	5.132	104.921	198.854	80.874	109.531	128.836	320.904	0.00010363	0.00017585	9.5681e-05	1118.4	1.368e-06	8.9969e-07	1202.9	234.69	7.8415e-07	2.9689e-06	297.25	81.154	63.758	18.869	1.0172e-06	26.13	0.00033205	0.00035127	9.1241e-05	1095.5	4.1869e-06	3.8529e-06	1179	233.03	4.0621e-06	3.7526e-06	293.64	81.559	64.425	19.025	3.5939e-06	26.399	173.244	37.129	25.220	-23.645	108.240	228.290	-23.210	-16.005	165.785	66.831	-16.505	-9.207	-8.856	-2.276	53.311	-2.855	-8191	255	
9086.216	1	1	0	0	0.12553	0.31913	0.085811	0.23486	0.19499	0.058044	0.17143	0.10149	0.14252	0.08961	0.27432	0.053787	0.16224	0.2256	0.064162	0.21818	-2.7542	-2.9771	-2.6021	-3.3354	-2.5646	-2.8187	-3.2708	-2.8542	-3.0417	-3.3583	-2.4146	-3.2729	-3.0646	-2.5938	-3.2167	-2.6	0.723	315.586	-5.298	241.477	201.474	138.849	270.958	278.078	90.464	191.515	228.662	131.676	68.806	213.377	130.108	225.823	9.5113e-05	0.00049469	0.00010297	1116.6	1.6243e-06	4.4512e-06	1198.3	234.07	1.6714e-06	2.0643e-06	295.06	80.05	63.412	18.532	4.036e-06	25.889	0.00033755	0.00035923	9.519e-05	1094.4	4.257e-06	3.8642e-06	1174.8	232.3	4.3416e-06	4.1548e-06	292.16	80.936	63.983	18.804	4.1721e-06	26.155	190.716	30.038	46.863	-23.445	86.681	116.505	-23.236	-16.004	148.516	103.912	-16.298	-9.156	-8.707	-1.717	103.734	-2.520	-8191	255	
9086.313	1	1	0	0	0.16615	0.28643	0.061084	0.18466	0.30691	0.1777	0.26052	0.0305	0.13644	0.30544	0.28545	0.20013	0.2253	0.22252	0.081029	0.084924	-2.4875	-3.0812	-2.4854	-3.0979	-2.9104	-2.4646	-3.4604	-2.5792	-2.75	-3.075	-2.4104	-3.1208	-3.0438	-2.5312	-3.2875	-2.6604	24.407	277.968	47.973	228.652	255.498	63.978	225.586	223.231	175.320	190.732	257.461	263.621	-14.181	324.968	254.804	54.374	0.00010267	0.00024878	0.00010298	1119.7	2.735e-06	3.5148e-06	1198.7	231.39	3.0767e-06	2.165e-06	295.81	80.111	63.106	18.41	2.2303e-06	25.891	0.00035771	0.00038654	0.00010759	1095.2	4.5513e-06	4.1494e-06	1177.8	230.94	4.4839e-06	4.2902e-06	293.02	80.853	63.834	18.741	4.519e-06	26.148	181.146	35.114	80.630	-23.179	135.617	139.582	-23.458	-15.848	134.463	85.926	-16.699	-9.194	-8.687	-1.924	97.004	-2.820	-8191	255	
9086.409	1	1	0	0	0.022259	0.21468	0.23441	0.14189	0.17253	0.082357	0.23443	0.16211	0.13801	0.045719	0.19506	0.030731	0.15757	0.17625	0.074312	0.064021	-2.4708	-3.2188	-2.2542	-3.15	-3.1	-2.5042	-3.4979	-2.6854	-2.6167	-3.3604	-2.4667	-3.1125	-3.2146	-2.4354	-3.1688	-2.6583	226.527	82.605	61.556	270.283	7.638	159.452	321.461	154.360	100.365	7.446	48.065	58.452	-18.410	163.630	12.452	88.776	8.725e-05	0.00035917	6.0614e-05	1115.4	2.6138e-06	2.0515e-06	1199.6	231.69	9.0175e-07	3.0369e-06	294.16	79.89	63.725	18.455	3.0472e-06	25.95	0.00035095	0.00038601	0.00011938	1096.4	4.3868e-06	4.1559e-06	1177	230.89	4.2956e-06	4.2211e-06	292.61	80.864	63.96	18.739	4.5768e-06	26.176	195.184	41.131	86.640	-23.726	117.109	93.396	-23.359	-15.886	210.986	135.591	-16.532	-9.345	-8.965	-1.591	137.661	-2.792	-8191	255	
9086.529	1	1	0	0	0.38243	0.078089	0.037336	0.11363	0.25521	0.28936	0.25205	0.27358	0.10271	0.2332	0.27145	0.15805	0.20939	0.19842	0.25241	0.14938	-2.2208	-3.2521	-2.5354	-3.1354	-3.1979	-2.6	-3.3271	-2.8063	-2.8021	-3.3354	-2.8104	-2.9333	-3.2458	-2.65	-3.1937	-2.9417	254.995	204.695	80.843	280.645	-3.756	2.351	271.048	306.176	276.018	317.592	277.160	244.667	58.497	-28.932	205.021	278.670	0.00010374	0.00035	4.5778e-05	1114.8	7.7445e-07	4.3558e-06	1199.7	231.68	3.0784e-06	4.8725e-06	293.53	80.42	63.457	18.5	1.9845e-06	25.961	0.00033756	0.00037347	0.00012109	1093.5	4.1676e-06	4.1121e-06	1176.9	231.03	4.2319e-06	4.089e-06	292.44	80.892	64.074	18.799	4.5287e-06	26.212	191.593	35.976	27.199	-23.677	155.606	144.586	-23.280	-16.190	204.076	115.112	-16.745	-9.618	-9.091	-2.456	174.205	-2.244	-8191	255	
9086.625	1	1	0	0	0.21672	0.035112	0.16227	0.25546	0.076219	0.16204	0.25825	0.23564	0.13188	0.10982	0.15866	0.11364	0.16884	0.055786	0.030171	0.30272	-1.8438	-3.4479	-2.5583	-2.8854	-3.3187	-2.3312	-3.3104	-2.8833	-2.6125	-3.2917	-2.7771	-2.7146	-3.3	-2.4833	-2.9875	-2.9896	229.010	81.793	86.831	23.157	146.226	86.000	318.175	106.099	38.230	-2.154	-18.864	315.195	228.348	88.357	62.439	216.718	7.7278e-05	0.00024564	4.4965e-05	1115.2	3.1576e-06	4.2226e-06	1202.1	233.66	2.0312e-06	1.1893e-06	295.41	80.772	63.81	18.697	1.047e-06	26.016	0.00032065	0.00037675	0.00011839	1092.1	3.9432e-06	4.197e-06	1179.2	231.47	3.7596e-06	4.1006e-06	293.09	81.268	64.178	18.919	4.0695e-06	26.308	172.921	59.194	34.383	-23.497	136.847	160.276	-23.289	-15.885	172.923	95.299	-16.270	-9.195	-9.067	-1.866	159.944	-2.880	-8191	255	
9086.722	1	1	0	0	0.24375	0.27835	0.096134	0.13343	0.10926	0.080975	0.17427	0.056472	0.25602	0.11332	0.18686	0.15934	0.18448	0.24901	0.071086	0.11063	-2.2292	-3.5	-2.6333	-2.8021	-3.275	-2.6083	-3.0563	-3.1646	-2.4229	-3.1917	-2.7625	-2.7021	-3.1396	-2.4271	-2.9271	-3.2917	301.693	211.601	289.068	286.700	115.225	174.413	301.932	231.670	189.511	267.983	126.524	192.428	197.748	-12.939	237.538	273.227	0.00010631	0.00034767	2.3875e-05	1111	9.16e-07	4.8794e-06	1200.1	233.35	3.0992e-06	2.1398e-06	297.23	80.725	64.274	18.774	3.7668e-06	26.361	0.00028675	0.00036396	0.00010371	1090.3	3.491e-06	3.9143e-06	1176.4	232.21	3.3811e-06	3.9712e-06	293.45	81.485	64.525	19.021	3.695e-06	26.525	187.427	16.958	103.441	-23.663	81.672	116.647	-23.282	-16.071	172.240	92.446	-16.816	-8.963	-9.174	-2.284	69.247	-2.512	-8191	255	
9086.818	1	1	0	0	0.32115	0.15538	0.2842	0.047906	0.10442	0.26805	0.33789	0.14699	0.23766	0.18225	0.02774	0.21893	0.09923	0.12912	0.34912	0.11481	-2.1021	-3.2146	-2.7979	-2.5438	-3.3396	-2.6583	-3.0854	-3.2188	-2.4396	-3.2958	-3.1333	-2.5438	-3.4333	-2.8021	-2.8479	-3.225	83.058	266.329	41.113	277.861	-12.572	34.448	265.081	284.651	66.402	-29.086	270.703	5.789	75.336	285.226	316.278	33.235	0.0001226	0.00037425	0.00010316	1113.6	1.3651e-06	4.4077e-06	1199.1	234.32	2.0619e-06	2.7591e-06	295.12	81.881	64.667	18.919	5.9742e-06	26.407	0.00029208	0.00035433	9.4861e-05	1090.2	3.5003e-06	4.0437e-06	1177.6	233.29	3.4831e-06	3.8811e-06	294.28	81.85	64.749	19.165	3.6026e-06	26.627	189.165	71.786	131.877	-23.517	113.543	137.438	-23.355	-16.312	181.237	122.749	-16.788	-9.540	-8.895	-2.138	157.175	-2.688	-8191	255	
9086.914	1	1	0	0	0.23288	0.060111	0.051914	0.25352	0.26158	0.31098	0.38017	0.22647	0.20508	0.16076	0.29631	0.31184	0.12014	0.16501	0.10293	0.026518	-2.1417	-3.1042	-2.9542	-2.6375	-3.2458	-2.6229	-2.6958	-3.3625	-2.3667	-3.3083	-3.1792	-2.3312	-3.3667	-2.7042	-2.5583	-3.3812	176.182	134.557	58.287	-15.192	234.900	247.818	247.347	293.080	31.482	171.646	9.172	156.860	302.715	260.463	275.715	323.311	0.00011312	0.00044352	0.00010377	1120.9	3.1594e-06	4.7644e-06	1202.1	236.26	1.2206e-06	8.9679e-07	299.22	81.724	64.425	19.021	4.068e-06	26.354	0.00029156	0.00034483	9.1125e-05	1095.6	3.6796e-06	3.7792e-06	1181.8	233.9	3.8053e-06	3.7389e-06	295.53	82.001	64.968	19.208	3.4463e-06	26.616	194.573	22.668	52.247	-23.529	149.140	103.368	-23.494	-16.208	22.508	88.438	-16.793	-9.239	-8.868	-2.222	160.949	-2.906	-8191	255	
9087.008	1	1	0	0	0.10375	0.16995	0.21905	0.23383	0.1484	0.032413	0.23069	0.09774	0.29321	0.19614	0.36838	0.070921	0.091122	0.037494	0.15293	0.093899	-2.2167	-3.1271	-3.1958	-2.4354	-3.3438	-2.7917	-2.7021	-3.5312	-2.4083	-3.0563	-3.4229	-2.5667	-3.3771	-2.9313	-2.65	-3.4562	49.778	35.224	97.265	307.625	151.748	296.309	281.029	295.998	71.156	186.035	149.654	276.904	-25.757	204.961	298.606	274.705	9.586e-05	0.00031524	4.3523e-05	1110.2	2.9209e-06	1.5396e-06	1199.6	235.9	2.4559e-06	2.9836e-06	297.35	81.896	64.146	18.882	2.4456e-06	26.132	0.00031065	0.00034094	8.879e-05	1090.8	3.8721e-06	3.8073e-06	1176.8	233.87	3.9384e-06	3.7442e-06	294.42	81.944	64.648	19.073	3.3961e-06	26.476	177.631	51.406	37.522	-23.709	182.411	93.001	-23.293	-16.184	220.180	79.254	-16.551	-9.256	-9.222	-1.762	104.732	-2.455	-8191	255	
9087.129	1	1	0	0	0.24722	0.10952	0.084082	0.43377	0.19337	0.23947	0.099772	0.25164	0.24998	0.017447	0.14027	0.28441	0.13326	0.13639	0.28205	0.25132	-2.3333	-2.7479	-3.0979	-2.7458	-3.15	-3.125	-2.7271	-3.2625	-2.6688	-2.5729	-3.3854	-2.3729	-3.1625	-3.0812	-2.5333	-3.3229	-12.754	178.149	242.546	318.615	45.087	184.481	192.932	282.050	101.616	38.797	310.834	133.769	299.781	287.283	37.643	16.612	9.674e-05	0.0004446	0.00011551	1112.9	9.4093e-07	3.6335e-06	1203.4	235.28	6.998e-07	2.8925e-06	298.43	81.156	64.387	18.85	1.1954e-06	26.246	0.00032218	0.00032327	8.5321e-05	1091.4	3.9166e-06	3.6203e-06	1177.7	233.78	3.9788e-06	3.5705e-06	294.65	81.709	64.765	19.068	3.404e-06	26.54	188.983	73.515	24.125	-23.575	139.384	108.456	-23.462	-16.070	179.545	129.884	-16.451	-9.467	-8.810	-2.071	122.220	-2.715	-8191	255	
9087.225	1	1	0	0	0.082966	0.072179	0.073371	0.13922	0.13571	0.14949	0.14582	0.12059	0.18127	0.29316	0.11134	0.11514	0.14507	0.33382	0.13017	0.146	-2.3625	-2.5	-3.2	-2.5979	-3	-3.0167	-2.4896	-3.1896	-2.975	-2.6042	-3.4	-2.6562	-3.125	-3.3271	-2.675	-3.3438	2.842	47.303	317.456	308.392	9.888	149.398	266.235	248.375	-23.619	316.205	265.019	-10.587	274.992	-4.348	253.705	23.269	9.428e-05	0.00030121	9.0037e-05	1112.7	3.097e-06	3.5662e-06	1201.5	236.16	8.3413e-07	2.9447e-06	296.7	81.299	64.24	18.868	3.9125e-06	26.364	0.00031386	0.00031618	8.8287e-05	1091.6	3.7716e-06	3.4517e-06	1180	234.05	3.8377e-06	3.5376e-06	294.67	81.86	64.851	19.075	3.3139e-06	26.613	198.948	-8.787	83.649	-23.585	161.829	158.771	-23.462	-16.134	137.056	150.167	-16.621	-9.089	-9.098	-2.089	149.721	-2.672	-8191	255	
9087.321	1	1	0	0	0.12697	0.071787	0.25611	0.54911	0.25452	0.11398	0.32329	0.13847	0.11453	0.15782	0.15193	0.21244	0.073825	0.15369	0.20962	0.087888	-2.3771	-2.5708	-3.1521	-2.5687	-2.9125	-3.3667	-2.5542	-3.1729	-2.8625	-2.4479	-3.3396	-2.7479	-2.9729	-3.1604	-2.5438	-3.0479	32.425	-12.956	13.525	271.995	142.820	290.188	324.354	162.635	53.233	320.022	248.696	258.142	306.861	216.061	292.358	186.366	0.00010045	0.00021258	5.512e-05	1118	2.3487e-06	2.1441e-06	1196.5	236.2	2.9781e-06	3.5219e-06	297.51	81.574	64.551	18.81	4.2807e-06	26.413	0.00030317	0.00031321	8.4339e-05	1092.5	3.5951e-06	3.3844e-06	1174.9	234.08	3.6726e-06	3.4216e-06	294.92	81.924	64.833	19.076	3.6507e-06	26.591	184.123	43.347	78.973	-23.591	137.855	127.745	-23.283	-16.020	173.402	88.958	-16.588	-9.032	-8.828	-2.126	155.402	-2.464	-8191	255	
9087.393	1	1	0	0	0.10394	0.13346	0.16569	0.49841	0.23773	0.23487	0.13348	0.15683	0.13443	0.13098	0.49148	0.21265	0.22568	0.077302	0.092445	0.064811	-2.7562	-2.4729	-3.3604	-2.5875	-2.7083	-3.3229	-2.3917	-3.1271	-2.7938	-2.4437	-3.2771	-2.6375	-2.5333	-3.2208	-2.4083	-3.0375	204.589	250.255	128.656	307.074	153.886	45.457	318.425	298.460	132.338	-9.656	311.258	254.719	268.911	271.151	-2.479	86.002	8.6088e-05	0.00016649	8.6369e-05	1116.6	2.3744e-06	2.4957e-06	1198.6	235.6	1.0217e-06	3.1815e-06	296.85	81.476	64.492	19.027	2.5783e-06	26.463	0.00029033	0.0003101	9.4126e-05	1093.8	3.5954e-06	3.3149e-06	1177.5	234.39	3.4398e-06	3.2848e-06	294.81	81.981	64.812	19.177	3.7955e-06	26.727	175.030	6.095	48.261	-23.766	149.879	89.767	-23.402	-16.019	95.583	137.881	-16.447	-9.442	-8.862	-1.742	132.785	-2.782	-8191	255	
9087.514	1	1	0	0	0.035139	0.092606	0.075707	0.12881	0.14384	0.024523	0.21207	0.23245	0.18551	0.066408	0.11027	0.063963	0.13365	0.10611	0.057167	0.08071	-2.7875	-2.3917	-3.4667	-2.7958	-2.4875	-3.55	-2.65	-3.1708	-3.0167	-2.4188	-3.2458	-2.7375	-2.6167	-3.2125	-2.6042	-3.0833	318.170	294.917	310.711	322.982	180.408	187.655	229.346	-14.999	67.350	124.880	124.787	318.050	81.676	-25.281	66.737	10.382	0.00010581	0.00032222	0.00010078	1110.1	2.5278e-06	2.5661e-06	1203.5	235.32	1.9103e-06	2.0196e-06	298.14	81.81	64.4	18.893	3.608e-06	26.36	0.00028569	0.00030339	9.485e-05	1092.2	3.4139e-06	3.3108e-06	1179.7	234.54	3.3324e-06	3.2561e-06	295.75	82.333	64.889	19.177	3.6967e-06	26.733	189.934	36.198	23.788	-23.746	149.032	113.220	-23.460	-16.072	229.033	116.872	-16.757	-9.156	-9.136	-2.104	130.140	-2.719	-8191	255	
9087.610	1	1	0	0	0.099493	0.087676	0.24537	0.34375	0.17143	0.084241	0.21874	0.10268	0.14709	0.15293	0.29244	0.049341	0.15171	0.18834	0.04535	0.11092	-2.8729	-2.3479	-3.075	-2.9021	-2.4313	-3.3	-2.7708	-2.8229	-3.1188	-2.5167	-2.9417	-3.2833	-2.525	-3.3708	-2.6021	-2.8729	17.609	144.730	163.711	325.508	211.040	37.499	320.322	-4.544	116.389	28.378	269.630	257.299	180.450	130.531	69.767	182.431	9.3305e-05	0.00029999	8.1259e-05	1116.1	3.6707e-06	1.4758e-06	1206.9	236.87	2.2378e-06	1.4762e-06	298.32	81.477	64.764	19.006	2.8494e-06	26.426	0.00027503	0.00029454	9.2158e-05	1096.5	3.2013e-06	3.3424e-06	1182.3	235.18	3.1834e-06	3.3622e-06	295.81	82.332	64.965	19.231	3.5526e-06	26.723	176.884	45.982	23.813	-23.628	91.629	127.771	-23.423	-16.134	166.239	171.758	-16.497	-9.248	-9.275	-2.394	172.671	-3.009	-8191	255	
9087.706	1	1	0	0	0.11175	0.22838	0.2691	0.20534	0.1416	0.1035	0.084926	0.1897	0.15612	0.20464	0.070766	0.16731	0.33621	0.07026	0.10548	0.098266	-2.9562	-2.3729	-3.0458	-3.2354	-2.2729	-3.3104	-2.8	-2.8458	-3.2875	-2.6979	-2.9333	-3.3854	-2.4708	-3.3583	-2.8708	-2.6937	85.489	311.831	-10.398	321.195	-21.603	87.747	86.564	219.128	57.105	67.476	46.355	-5.942	-15.099	250.256	224.300	258.290	9.626e-05	0.0004197	4.1803e-05	1113.8	5.8492e-06	2.6811e-06	1201.9	238.55	1.5909e-06	4.2662e-06	299.9	81.954	64.87	19.111	2.1519e-06	26.64	0.00025411	0.00030961	8.756e-05	1093.2	2.9397e-06	3.1979e-06	1178.1	235.56	2.8723e-06	3.2849e-06	296.38	82.497	65.054	19.339	3.1793e-06	26.834	191.813	41.620	103.253	-23.725	139.905	119.002	-23.498	-16.405	116.158	115.365	-16.511	-9.449	-8.857	-2.313	40.234	-2.968	-8191	255	
9087.802	1	1	0	0	0.15897	0.15854	0.075903	0.12444	0.26388	0.13049	0.15051	0.081057	0.18336	0.12375	0.11643	0.13096	0.080899	0.14522	0.15353	0.15872	-2.8187	-2.6625	-2.8479	-3.2979	-2.2396	-3.3646	-2.9833	-2.6688	-3.4208	-2.6813	-2.9833	-3.1917	-2.4625	-3.2458	-3.0146	-2.5333	205.732	266.566	252.098	304.351	298.771	204.056	266.503	290.772	-6.777	-5.950	276.015	136.631	41.491	25.166	302.234	262.453	8.2737e-05	0.00026194	5.3917e-05	1113.4	3.065e-06	2.501e-06	1205.5	239.95	2.005e-06	3.1419e-06	301.38	82.01	64.643	19.229	3.4261e-06	26.543	0.00024414	0.00031165	8.3337e-05	1094.7	3.1214e-06	3.5571e-06	1182.4	237.02	3.2649e-06	3.6868e-06	297.89	82.569	65.112	19.358	3.3511e-06	26.832	184.230	58.547	161.685	-23.768	188.115	184.486	-23.524	-16.165	132.679	66.009	-17.018	-9.727	-8.835	-2.477	96.363	-3.041	-8191	255	
9087.921	1	1	0	0	0.12367	0.19763	0.17872	0.39995	0.073375	0.18743	0.39233	0.16344	0.046017	0.15295	0.22235	0.050457	0.12476	0.19858	0.1379	0.27492	-3.1104	-2.3521	-2.7812	-3.4979	-2.5208	-3.1417	-3.3271	-2.6167	-3.4437	-2.8521	-2.6958	-3.3667	-2.5333	-3.2146	-3.1792	-2.4271	302.066	20.415	168.386	253.169	4.297	100.644	267.531	293.885	218.819	15.520	-2.759	143.240	112.209	292.274	80.615	186.739	7.7993e-05	0.00038208	4.6162e-05	1125.4	3.1024e-06	5.2502e-06	1206.1	238.28	1.9946e-06	2.3177e-06	299.95	82.01	64.824	19.134	2.2386e-06	26.686	0.00027205	0.00033252	8.1442e-05	1099.7	3.2895e-06	3.4882e-06	1184.2	236.64	3.3183e-06	3.5246e-06	296.78	82.557	65.247	19.354	3.1239e-06	26.868	181.531	53.354	-19.687	-24.014	174.893	130.924	-23.613	-16.115	118.363	137.644	-16.978	-9.186	-9.398	-2.323	112.308	-2.962	-8191	255	
9087.994	1	1	0	0	0.19838	0.25597	0.1962	0.211	0.4416	0.19005	0.10291	0.014864	0.14929	0.20397	0.20571	0.15084	0.24012	0.23094	0.2169	0.28603	-3.0104	-2.7438	-2.7875	-3.4292	-2.4729	-3.1063	-3.3542	-2.4083	-3.2375	-2.8438	-2.5312	-3.4813	-2.3042	-2.7896	-3.2875	-2.4958	314.442	203.794	0.041	301.408	244.783	239.474	283.225	162.641	60.609	132.472	270.749	273.328	109.005	16.742	244.595	269.984	0.0001037	0.00023808	3.2051e-05	1122.7	1.5608e-06	2.3046e-06	1203.6	239.03	2.8237e-06	2.5867e-06	300.55	81.977	64.561	19.086	1.8154e-06	26.673	0.00027836	0.00031187	7.8124e-05	1099.8	3.4733e-06	3.3882e-06	1183.2	236.93	3.5063e-06	3.3848e-06	296.95	82.494	65.101	19.268	3.1634e-06	26.851	193.720	66.785	70.726	-23.645	173.436	143.843	-23.590	-16.036	209.294	115.780	-16.688	-9.603	-9.263	-1.910	186.897	-2.826	-8191	255	
9088.090	1	1	0	0	0.079385	0.19926	0.10258	0.031317	0.14257	0.10059	0.26806	0.27019	0.20179	0.21967	0.19289	0.15997	0.14939	0.22952	0.052069	0.171	-2.8396	-2.9354	-2.5604	-3.3875	-2.4625	-2.8125	-3.3563	-2.4833	-3.0875	-3.0792	-2.4437	-3.3417	-2.5938	-2.8083	-3.25	-2.3229	46.056	211.221	-33.659	297.925	80.818	130.380	253.619	253.403	-31.057	50.468	237.546	127.188	33.221	293.687	98.406	-23.307	0.00010274	0.00020104	7.2923e-05	1119.8	2.6622e-06	3.2766e-06	1206.1	237.87	5.317e-07	4.0675e-06	300.15	82.252	64.777	19.021	3.1167e-06	26.358	0.00028756	0.00030639	7.8739e-05	1098.9	3.7036e-06	3.2885e-06	1182.5	236.23	3.5375e-06	3.3358e-06	296.24	82.542	65.143	19.197	3.1004e-06	26.637	194.488	24.634	44.679	-23.712	195.511	173.040	-23.602	-16.293	169.631	133.468	-16.745	-9.500	-9.562	-2.718	166.797	-2.999	-8191	255	
9088.209	1	1	0	0	0.1353	0.17882	0.091939	0.22266	0.13587	0.44042	0.11546	0.16253	0.19109	0.1587	0.15189	0.12129	0.38432	0.31245	0.1792	0.14028	-2.775	-2.9562	-2.5271	-3.3854	-2.5458	-2.6771	-3.4167	-2.5062	-2.8917	-3.1	-2.5729	-3.3125	-2.5979	-2.75	-3.3792	-2.5396	296.195	213.445	308.382	-8.622	150.815	-3.225	250.903	287.443	21.218	152.814	105.302	-23.748	304.757	259.862	23.943	16.937	7.3951e-05	0.00015533	7.9227e-05	1121.2	4.4772e-06	2.7525e-06	1202.8	237.95	1.2076e-06	3.689e-06	299.97	81.971	64.318	19.105	4.0003e-06	26.596	0.00029583	0.00030632	8.1311e-05	1098.9	3.6657e-06	3.2929e-06	1183.2	235.93	3.4667e-06	3.2727e-06	296	82.165	64.959	19.229	3.091e-06	26.802	193.974	64.715	32.351	-23.756	121.083	132.256	-23.442	-16.624	-21.655	152.236	-16.872	-9.079	-9.044	-2.561	125.851	-2.807	-8191	255	
9088.305	1	1	0	0	0.27509	0.18741	0.3338	0.46146	0.11365	0.040571	0.22464	0.22136	0.19404	0.022355	0.11336	0.27121	0.12833	0.22775	0.14577	0.11739	-2.5125	-3.05	-2.5333	-3.35	-3.1292	-2.4938	-3.375	-2.4104	-2.95	-3.1937	-2.6188	-3.2333	-2.9729	-2.5187	-3.3917	-2.5604	84.565	117.189	169.661	266.326	174.481	202.685	203.958	234.736	71.306	16.771	164.816	284.300	313.617	-6.000	231.050	250.265	9.913e-05	0.00014648	8.3637e-05	1119.9	1.7097e-06	1.0654e-06	1203.5	237.6	2.0498e-06	3.3069e-06	298.44	82.184	65.158	19.091	3.3695e-06	26.564	0.00028032	0.00028092	7.7513e-05	1097	3.3398e-06	3.0841e-06	1181.3	236.09	3.2903e-06	2.9236e-06	296.01	82.727	65.15	19.285	3.1593e-06	26.853	181.791	51.623	94.476	-23.756	114.436	71.432	-23.490	-16.393	109.625	131.056	-16.940	-9.436	-8.947	-1.783	164.913	-2.983	-8191	255	
9088.402	1	1	0	0	0.10301	0.14798	0.22245	0.037039	0.18213	0.048016	0.33827	0.24202	0.041948	0.22948	0.20069	0.34504	0.233	0.067482	0.17767	0.16589	-2.4708	-3.2146	-2.3979	-3.3021	-2.7604	-2.5458	-3.3208	-2.875	-2.7	-3.2417	-2.6271	-3.1396	-3.1521	-2.5354	-3.2021	-2.8563	310.003	233.158	263.999	255.243	13.718	271.944	246.572	294.279	-22.906	220.914	257.860	54.443	65.553	233.615	176.476	214.856	7.9759e-05	0.00020118	1.3866e-05	1119.1	1.1557e-06	2.7017e-06	1205.4	238.69	1.1431e-06	1.8047e-06	299.43	82.227	64.979	19.284	2.7328e-06	26.933	0.00025979	0.00026601	7.8851e-05	1099	3.1005e-06	2.7735e-06	1184.7	237.14	3.0169e-06	2.7869e-06	297.27	83.036	65.43	19.379	3.1045e-06	27.027	186.433	16.682	297.315	-23.672	258.376	170.364	-23.648	-16.440	19.814	122.269	-16.688	-9.651	-9.180	-2.137	139.862	-2.699	-8191	255	
9088.522	1	1	0	0	0.15542	0.26779	0.056338	0.23019	0.076456	0.19409	0.18232	0.20495	0.24308	0.21819	0.23274	0.19713	0.12327	0.051381	0.26443	0.31709	-2.2292	-3.1479	-2.4562	-3.0833	-3.0875	-2.6083	-3.4938	-2.7125	-2.4646	-3.3417	-2.6771	-2.8667	-3.1333	-2.3312	-3.225	-2.825	144.080	308.476	233.220	77.641	305.163	81.252	257.469	294.930	-32.340	22.660	-31.201	308.410	282.154	38.768	141.851	321.041	9.2972e-05	0.00033318	8.297e-05	1122	1.0434e-06	5.5634e-06	1207.9	240.79	1.0287e-06	2.0224e-06	303.21	82.826	65.073	19.331	5.1974e-06	26.725	0.00024697	0.00025023	8.0464e-05	1100.9	2.9436e-06	2.8135e-06	1184.8	238.91	2.8548e-06	2.8736e-06	298.15	83.203	65.484	19.463	3.1703e-06	27.032	182.325	55.989	63.799	-23.711	161.672	149.641	-23.441	-16.251	59.445	91.843	-16.857	-9.604	-9.097	-2.535	166.492	-3.191	-8191	255	
9088.618	1	1	0	0	0.19549	0.10271	0.053869	0.24162	0.18974	0.048913	0.31586	0.20253	0.24653	0.18604	0.10111	0.11973	0.29929	0.41868	0.24288	0.037126	-2.1958	-3.0292	-2.4062	-2.875	-3.1	-2.4896	-3.2021	-3.0729	-2.3312	-3.3583	-2.6833	-2.8	-3.2792	-2.2667	-3.0563	-2.9	140.595	240.296	162.117	316.896	180.273	-13.334	317.300	32.364	150.671	158.749	207.749	246.632	245.801	293.060	70.160	261.548	9.6157e-05	0.00035534	0.00012027	1128.5	1.8838e-06	3.399e-06	1209.5	240.97	1.5486e-06	8.2173e-07	301.37	83.15	65.481	19.269	5.8603e-07	27.066	0.00022815	0.00024969	8.0936e-05	1102.5	2.6781e-06	2.8073e-06	1188.2	238.96	2.6559e-06	2.7638e-06	298.82	83.389	65.749	19.448	2.9273e-06	27.115	187.488	73.352	42.591	-23.927	179.252	112.615	-23.418	-16.777	232.889	149.588	-16.761	-9.573	-9.163	-2.466	96.256	-3.217	-8191	255	
9088.690	1	1	0	0	0.11069	0.21642	0.19506	0.26366	0.30689	0.051846	0.38376	0.11546	0.069085	0.21634	0.27475	0.073959	0.090586	0.015274	0.11338	0.27812	-2.1042	-3.2438	-2.7458	-3.0854	-3.325	-2.4188	-3.1146	-3.1521	-2.4167	-3.3271	-2.8771	-2.6042	-3.425	-2.5187	-3.1708	-3.1396	-29.056	-0.342	45.144	260.792	304.931	208.912	295.101	310.237	140.229	108.234	254.085	203.011	297.411	73.213	177.309	283.941	0.00011621	0.00023127	6.8218e-05	1123.2	6.4115e-07	2.1014e-06	1216.1	241.44	1.5546e-06	2.833e-06	302.18	83.043	65.659	19.345	1.8036e-06	27.105	0.00022024	0.00024998	7.389e-05	1099.7	2.5866e-06	2.8074e-06	1189.4	239.47	2.5637e-06	2.8763e-06	298.18	83.286	65.81	19.512	2.8726e-06	27.1	194.833	68.664	27.285	-23.814	113.316	105.738	-23.579	-16.455	155.941	135.839	-16.972	-9.633	-9.248	-2.288	145.029	-3.200	-8191	255	
9088.811	1	1	0	0	0.043846	0.1189	0.20041	0.17965	0.11843	0.12839	0.14926	0.19171	0.0067164	0.064465	0.09934	0.10801	0.021116	0.18792	0.17916	0.1478	-2.1521	-3.1521	-2.8583	-2.6167	-3.4938	-2.6083	-3.2083	-3.2104	-2.4583	-3.15	-3.1625	-2.5458	-3.3958	-2.7292	-2.9771	-3.4	230.491	42.930	177.462	309.355	51.248	7.057	301.199	222.023	-34.312	137.226	244.653	27.584	60.266	242.998	322.600	118.122	0.00010666	0.000317	6.906e-05	1124.3	1.5929e-06	3.8555e-06	1211.5	239.62	1.8326e-06	3.6405e-06	300.31	82.757	65.365	19.222	8.3592e-07	26.924	0.00021973	0.00025531	7.3677e-05	1100.9	2.6274e-06	2.8774e-06	1186.7	238.25	2.7293e-06	2.9681e-06	297.36	83.024	65.559	19.411	2.8273e-06	27.05	193.325	36.863	66.112	-23.729	134.344	127.417	-23.530	-16.368	166.516	104.730	-17.056	-9.763	-9.274	-2.402	80.158	-3.509	-8191	255	
9088.905	1	1	0	0	0.11044	0.22204	0.14967	0.12298	0.16074	0.1201	0.11559	0.31363	0.2099	0.29449	0.31632	0.33083	0.21063	0.22894	0.15113	0.12906	-1.9958	-3.2	-2.9833	-2.6979	-3.4646	-2.6813	-3.1229	-3.1542	-2.4958	-3.0229	-3.0167	-2.6083	-3.4562	-2.8292	-2.7625	-3.2438	262.010	229.301	190.174	206.819	60.888	103.599	261.368	105.445	305.574	262.142	169.506	-21.953	303.255	39.535	149.649	195.183	0.00010115	0.00032923	6.4482e-05	1121	3.1362e-06	2.2204e-06	1208.9	240.69	1.8734e-06	1.0595e-06	299.91	82.776	65.516	19.154	1.8241e-06	26.792	0.00023137	0.0002697	6.9779e-05	1098	2.8531e-06	2.952e-06	1185	238.4	2.8403e-06	2.914e-06	297.8	82.971	65.66	19.448	2.6788e-06	26.99	206.081	21.376	50.718	-23.940	183.468	54.328	-23.513	-16.445	181.192	176.130	-16.688	-9.619	-9.133	-2.437	113.801	-2.876	-8191	255	
9089.001	1	1	0	0	0.21224	0.028127	0.065052	0.12505	0.11101	0.24291	0.084613	0.20204	0.10937	0.095883	0.11432	0.18786	0.13021	0.14356	0.06908	0.041303	-2.0833	-3.0042	-3.0729	-2.5812	-3.2875	-2.6708	-3.0167	-3.3937	-2.6854	-3.0375	-3.2333	-2.5187	-3.2396	-2.7188	-2.5479	-3.3438	193.276	294.626	187.268	302.857	139.651	183.598	184.499	271.806	88.100	113.368	234.697	211.266	67.882	53.369	71.445	192.147	8.3876e-05	0.00017033	0.00010165	1125.9	3.5003e-06	3.0942e-06	1210.7	240.46	1.6946e-06	4.3721e-06	300.93	83.022	65.815	19.379	2.485e-06	27.043	0.00023642	0.00026818	6.7234e-05	1102.5	2.922e-06	2.812e-06	1188.6	239.06	2.8565e-06	2.7344e-06	297.88	83.359	66.027	19.552	2.6074e-06	27.211	194.047	39.708	40.243	-23.896	171.778	152.351	-23.317	-16.255	214.405	107.046	-16.735	-9.487	-9.085	-2.493	178.534	-2.929	-8191	255	
9089.097	1	1	0	0	0.17819	0.14776	0.13449	0.20963	0.092538	0.088155	0.19468	0.0282	0.06953	0.1223	0.16151	0.36401	0.14546	0.38165	0.13442	0.15986	-2.0333	-3.0333	-3.0542	-2.6229	-3.1437	-2.8312	-2.7292	-3.3042	-2.6417	-2.8396	-3.3937	-2.4979	-3.1813	-2.9917	-2.5312	-3.45	-25.254	188.695	51.051	168.613	-26.289	114.424	304.077	287.595	72.313	95.589	168.878	-14.481	321.914	164.168	270.201	218.921	9.9576e-05	0.00026802	9.391e-05	1125.1	2.8012e-06	2.6977e-06	1212.1	240.79	6.1647e-07	2.001e-06	300.05	82.924	65.343	19.069	1.4106e-06	26.785	0.0002498	0.00025955	6.8429e-05	1102.6	3.0459e-06	2.8447e-06	1189.7	238.88	3.1313e-06	2.7565e-06	297.89	83.386	65.702	19.387	2.7528e-06	27.025	197.734	66.026	51.321	-23.813	159.837	126.119	-23.359	-16.091	214.210	72.459	-16.638	-9.448	-9.227	-2.231	144.514	-2.577	-8191	255	
9089.218	1	1	0	0	0.2096	0.10841	0.24986	0.1648	0.12734	0.12458	0.090946	0.1732	0.12954	0.17665	0.15428	0.17738	0.13222	0.27898	0.083035	0.12192	-2.3792	-2.7667	-3.2292	-2.5167	-3.1333	-2.9979	-2.3979	-3.4437	-2.7396	-2.7333	-3.3792	-2.4813	-3.1312	-2.9958	-2.5104	-3.2708	83.679	55.150	324.134	224.387	314.499	260.618	289.278	238.354	102.250	46.289	256.676	300.451	-6.515	33.994	-19.704	153.848	0.00011251	0.00023607	9.0401e-05	1121.2	1.8054e-06	2.4569e-06	1210.9	241.52	1.2855e-06	5.1667e-06	301.28	82.879	65.174	19.304	9.2367e-07	26.847	0.00025502	0.00024972	6.7254e-05	1097.2	2.9711e-06	2.7367e-06	1185.4	238.75	2.9077e-06	2.5767e-06	297.31	83.117	65.585	19.421	2.5515e-06	27.069	182.335	-20.644	43.251	-23.767	151.299	90.440	-23.198	-16.197	108.536	116.160	-16.866	-10.102	-9.116	-2.719	154.966	-3.023	-8191	255	
9089.290	1	1	0	0	0.14357	0.1443	0.023787	0.30733	0.14014	0.19977	0.14632	0.31697	0.083017	0.28773	0.21165	0.27492	0.1472	0.067492	0.37487	0.11406	-2.3021	-2.4562	-3.25	-2.5479	-2.8625	-3.0187	-2.6417	-3.3104	-2.8917	-2.5438	-3.425	-2.4729	-2.8812	-3.125	-2.4167	-3.2354	11.049	202.558	28.854	302.262	253.984	-4.388	72.018	228.663	216.134	-5.334	279.384	253.847	15.287	-9.134	167.857	269.819	0.00010074	0.00029062	5.1487e-05	1122.6	3.6675e-06	4.4341e-06	1205.6	241.13	2.1706e-06	3.4096e-06	303.18	82.508	65.137	19.405	3.2057e-07	26.858	0.00023764	0.00022486	6.399e-05	1099.6	2.7259e-06	2.5533e-06	1185.2	239.24	2.6638e-06	2.5072e-06	297.93	83.189	65.536	19.451	2.6028e-06	27.094	196.014	89.135	127.682	-23.753	143.891	135.240	-23.758	-16.260	187.847	112.020	-16.726	-9.817	-8.869	-2.361	277.589	-3.454	-8191	255	
9089.386	1	1	0	0	0.17271	0.32657	0.14138	0.30661	0.097912	0.061275	0.25493	0.060838	0.26396	0.065265	0.060097	0.046891	0.11263	0.18678	0.11033	0.14436	-2.425	-2.3375	-3.3917	-2.7458	-2.7146	-3.3812	-2.3917	-3.0812	-2.9292	-2.5458	-3.2583	-2.5042	-2.5958	-3.275	-2.5208	-3.0854	119.317	71.843	221.308	308.934	22.553	62.742	208.881	300.848	244.214	286.042	25.958	108.942	325.335	237.839	259.570	55.358	8.923e-05	0.00032316	8.6761e-05	1121	2.5065e-06	5.7645e-06	1208.2	240.91	1.225e-06	8.1938e-07	302.55	82.773	65.154	19.197	2.4291e-06	26.828	0.00022906	0.00022315	6.4953e-05	1099.9	2.6794e-06	2.4858e-06	1185.4	238.49	2.6189e-06	2.397e-06	297.8	83.038	65.366	19.421	2.7241e-06	27.023	181.981	79.430	43.395	-23.884	155.001	140.740	-23.638	-16.291	170.682	101.367	-16.701	-9.567	-9.459	-2.598	140.417	-2.568	-8191	255	
9089.482	1	1	0	0	0.17436	0.058022	0.15116	0.43992	0.40184	0.17362	0.19215	0.32195	0.21644	0.072944	0.30209	0.16554	0.073951	0.17858	0.19944	0.21574	-2.4938	-2.4396	-3.2687	-2.9562	-2.6271	-3.2771	-2.6083	-3.1479	-2.975	-2.3958	-3.2021	-2.9375	-2.6958	-3.2625	-2.3917	-3.0125	76.818	173.413	140.330	293.550	153.925	226.466	160.884	231.553	120.218	17.147	279.020	210.172	72.493	-2.094	202.101	-17.503	0.00011004	0.00032727	3.4511e-05	1124.1	4.1784e-07	3.8429e-06	1201.5	240.08	1.8695e-06	2.197e-06	300.05	82.036	65.113	19.373	2.2318e-06	27.015	0.0002203	0.00021621	6.7002e-05	1096.5	2.4692e-06	2.2922e-06	1182	238.32	2.3734e-06	2.2114e-06	296.81	82.798	65.338	19.457	2.6705e-06	26.962	178.340	89.173	118.146	-23.596	106.710	114.741	-23.555	-16.359	152.985	62.296	-16.899	-9.464	-9.283	-2.424	142.599	-2.793	-8191	255	
9089.603	1	1	0	0	0.03377	0.14431	0.09979	0.36572	0.29978	0.3484	0.32843	0.15831	0.063856	0.31419	0.19954	0.27019	0.083162	0.12457	0.22942	0.21169	-2.9125	-2.4333	-3.1896	-3.0417	-2.5271	-3.35	-2.6188	-3.0021	-3.2292	-2.3479	-3.3104	-2.9125	-2.3854	-3.5229	-2.5312	-2.8333	240.433	64.705	276.014	272.539	182.586	162.499	251.138	52.587	170.026	-25.753	323.971	171.378	218.013	88.098	-16.031	-26.899	0.00010762	0.00035069	7.6532e-05	1119.7	1.9382e-06	2.6801e-06	1204	239.49	1.9757e-06	2.0897e-06	299.99	82.028	65.305	19.103	2.6392e-06	26.762	0.00020746	0.00022342	6.8201e-05	1094.4	2.426e-06	2.4015e-06	1178.1	236.67	2.4153e-06	2.4963e-06	295.75	82.526	65.2	19.255	2.827e-06	26.816	172.671	30.041	30.721	-23.725	115.031	140.613	-23.397	-16.130	103.868	140.564	-16.696	-9.630	-8.960	-2.114	152.835	-2.806	-8191	255	
9089.699	1	1	0	0	0.063349	0.084084	0.066689	0.23349	0.19531	0.062409	0.2633	0.29734	0.13899	0.030705	0.095828	0.12431	0.22179	0.14374	0.18802	0.3244	-2.9333	-2.3146	-3.0854	-2.925	-2.5125	-3.1437	-2.9188	-2.7917	-3.3771	-2.4021	-3.1875	-2.9375	-2.5187	-3.35	-2.8438	-2.8042	299.673	179.017	44.622	305.192	249.940	-20.034	261.366	-32.775	249.364	312.928	-10.451	238.134	-29.719	-33.890	243.936	-18.246	0.00010475	0.00031244	0.0001332	1116	2.9019e-06	5.617e-07	1202.1	238.61	1.2113e-06	1.1719e-06	295.98	81.642	64.958	19.087	2.2934e-06	26.408	0.00021547	0.00025703	7.4369e-05	1091.9	2.7193e-06	2.7498e-06	1179.4	235.9	2.6118e-06	2.8925e-06	294.15	82.118	64.792	19.246	3.0206e-06	26.656	198.963	31.756	58.006	-24.021	134.020	-29.453	-23.611	-16.530	131.977	122.292	-16.795	-9.613	-9.031	-2.199	166.717	-3.071	-8191	255	
9089.795	1	1	0	0	0.36858	0.29691	0.075899	0.18819	0.066739	0.21303	0.29616	0.14073	0.091127	0.11834	0.065004	0.20203	0.096993	0.12301	0.24585	0.35887	-2.8563	-2.55	-3.1917	-3.2812	-2.4917	-3.1458	-3.1375	-2.5375	-3.3021	-2.4958	-2.9729	-3.0542	-2.5604	-3.225	-2.9167	-2.6604	89.943	100.932	132.882	246.289	-18.828	227.576	249.089	280.107	278.812	196.936	94.173	220.599	54.545	-3.972	127.517	273.174	0.00010619	0.00013609	8.313e-05	1112.3	2.7623e-06	4.0314e-06	1196.4	235.95	2.3771e-06	3.4797e-06	298.41	81.259	64.382	18.981	3.2691e-06	26.415	0.00022084	0.00028612	7.6206e-05	1089.6	2.7334e-06	3.0486e-06	1174.4	234.41	2.6811e-06	2.9765e-06	294.1	81.854	64.615	19.176	2.9198e-06	26.678	185.045	282.963	53.322	-23.866	110.734	144.520	-23.500	-16.357	145.742	139.939	-16.962	-9.631	-9.208	-2.542	111.797	-2.815	-8191	255	
9089.891	1	1	0	0	0.20802	0.049244	0.17496	0.093116	0.033591	0.096098	0.35212	0.15417	0.064724	0.12258	0.30414	0.14622	0.041329	0.24541	0.27422	0.094185	-3.0312	-2.4729	-2.7958	-3.3333	-2.4062	-3.2562	-3.1042	-2.6229	-3.2958	-2.6854	-2.9042	-3.3354	-2.3458	-3.2333	-3.1188	-2.4688	83.726	46.761	135.977	260.327	159.332	145.955	264.578	172.458	137.173	2.629	279.074	165.777	71.979	101.059	175.555	-21.396	0.00011291	0.00044727	6.8987e-05	1110.9	4.5821e-06	3.6606e-06	1198.9	236.82	9.2008e-07	3.6037e-06	298.03	81.781	64.566	19.079	3.2887e-06	26.544	0.00023268	0.0002813	7.2439e-05	1089.4	2.9097e-06	3.029e-06	1176.2	234.48	2.8428e-06	3.1528e-06	294	81.979	64.782	19.226	2.8336e-06	26.726	197.454	56.194	50.172	-24.016	142.658	137.151	-23.501	-16.249	157.777	104.343	-16.705	-9.345	-9.112	-2.506	126.136	-2.707	-8191	255	
9089.986	1	1	0	0	0.25934	0.07172	0.25835	0.19166	0.083886	0.17655	0.38347	0.16525	0.3495	0.14601	0.23951	0.30496	0.13672	0.1258	0.11299	0.16901	-2.9875	-2.6083	-2.7042	-3.3542	-2.5563	-3.0479	-3.1917	-2.4562	-3.275	-2.7854	-2.5375	-3.3708	-2.6417	-2.9875	-3.1813	-2.5833	35.445	277.384	155.812	259.478	58.484	-26.539	-19.539	50.861	264.950	118.490	231.305	301.745	251.242	219.096	-13.478	20.366	9.5476e-05	0.00037173	6.5159e-05	1116.2	3.4002e-06	3.1719e-06	1196.1	237.38	1.0462e-06	4.1886e-06	298.26	81.918	64.205	19.147	1.8148e-06	26.565	0.0002511	0.00027856	7.0289e-05	1092.1	2.9706e-06	2.8166e-06	1173.3	234.91	2.9161e-06	2.8556e-06	294.41	82.185	64.795	19.206	2.6698e-06	26.665	176.300	58.572	28.452	-23.588	164.338	113.118	-23.465	-16.172	122.239	102.128	-16.536	-9.278	-8.859	-2.266	133.805	-3.139	-8191	255	
9090.083	1	1	0	0	0.10494	0.15765	0.29735	0.10483	0.15395	0.11988	0.21174	0.29164	0.20737	0.23621	0.27234	0.070891	0.14837	0.32798	0.2791	0.25557	-2.9437	-2.7521	-2.5458	-3.4688	-2.6354	-2.9958	-3.3083	-2.425	-3.1125	-2.8417	-2.6042	-3.1813	-2.6521	-2.9188	-3.0979	-2.3708	147.142	85.205	322.127	200.340	-5.354	1.372	261.631	288.324	128.243	204.635	302.479	297.291	259.553	270.192	208.457	0.016	0.00011784	0.00033985	8.3877e-05	1110.9	1.9489e-06	2.9127e-06	1197.7	236.49	2.5351e-06	2.6959e-06	297.53	81.825	64.468	19.033	3.165e-06	26.482	0.00024861	0.00025698	6.7296e-05	1088.7	3.1235e-06	2.8016e-06	1173.7	234.45	3.0696e-06	2.7788e-06	293.52	82.04	64.599	19.161	2.5946e-06	26.619	194.900	37.264	76.830	-23.949	127.388	144.272	-23.598	-16.005	142.925	86.137	-16.418	-9.450	-8.966	-2.386	147.433	-2.793	-8191	255	
9090.202	1	1	0	0	0.21761	0.098315	0.037763	0.095546	0.1206	0.10434	0.31322	0.22019	0.21325	0.33849	0.19375	0.057582	0.097615	0.12098	0.19902	0.17288	-2.8458	-2.8521	-2.3896	-3.4188	-2.7917	-2.725	-3.4	-2.4396	-3	-3.1146	-2.3292	-3.5167	-2.9521	-2.7042	-3.3917	-2.3688	261.827	290.279	148.174	227.540	111.317	16.771	297.060	257.736	96.107	236.135	324.646	107.876	21.777	146.239	-30.488	94.087	0.00010261	0.00039695	3.4969e-05	1112.4	1.5598e-06	2.496e-06	1190.4	235.08	1.4711e-06	2.3906e-06	294.93	80.797	64.379	18.777	3.2921e-06	26.244	0.00024808	0.00025387	6.5421e-05	1086.7	3.0579e-06	2.8067e-06	1169.7	233.52	3.0504e-06	2.8615e-06	291.59	81.455	64.403	18.994	2.6566e-06	26.449	194.017	23.037	18.156	-23.891	235.772	98.796	-23.611	-16.344	182.500	79.374	-16.834	-9.006	-9.392	-2.221	189.867	-3.033	-8191	255	
9090.298	1	1	0	0	0.22036	0.050377	0.080378	0.22864	0.041455	0.1627	0.20161	0.22551	0.076547	0.1308	0.16315	0.28827	0.26313	0.026871	0.044044	0.24846	-2.7354	-3.0062	-2.2896	-3.5833	-2.8063	-2.7062	-3.4208	-2.4042	-3.0083	-3.2	-2.475	-3.3104	-2.7833	-2.6208	-3.3604	-2.6167	268.748	75.235	242.788	244.282	170.366	302.809	307.500	59.998	130.327	167.241	268.451	163.550	249.492	309.441	191.015	288.875	0.00011167	0.00021429	6.6622e-05	1100.4	2.602e-06	3.3424e-06	1191.8	233.34	5.0584e-07	3.8521e-06	295.25	80.626	63.492	18.853	2.0539e-06	26.288	0.00025586	0.00025455	6.9802e-05	1079.4	3.0057e-06	2.7776e-06	1167.1	232.1	2.9392e-06	2.7681e-06	291.3	81.282	64.042	18.977	2.7413e-06	26.47	183.407	33.642	74.855	-23.715	130.878	137.714	-23.383	-16.582	246.923	148.918	-16.622	-9.555	-8.885	-2.372	121.846	-2.965	-8191	255	
9090.395	1	1	0	0	0.21411	0.1895	0.42143	0.19009	0.21878	0.070533	0.05318	0.08244	0.087179	0.11088	0.070756	0.1556	0.15135	0.055376	0.1786	0.33777	-2.5875	-3.1312	-2.2875	-3.2167	-2.8083	-2.5542	-3.5479	-2.5708	-2.7104	-3.3	-2.5187	-3.0417	-3.1063	-2.4646	-3.2083	-2.5396	313.785	79.712	13.407	306.764	319.500	4.790	22.499	252.865	170.085	181.699	8.728	305.826	-30.810	210.617	60.675	265.359	7.4811e-05	0.00044387	9.3237e-05	1109.1	1.7336e-06	2.4875e-06	1191.9	233.08	1.3432e-06	1.194e-06	296.32	81.105	64.068	18.856	2.3355e-06	26.227	0.00024607	0.00024523	7.0564e-05	1083.6	2.8303e-06	2.6332e-06	1166.3	231.72	2.8042e-06	2.4292e-06	292.13	81.577	64.219	19.001	2.6711e-06	26.467	175.160	46.861	49.530	-23.738	145.259	108.771	-23.425	-16.066	124.431	137.857	-16.468	-9.387	-9.270	-2.295	147.297	-2.736	-8191	255	
9090.491	1	1	0	0	0.27996	0.1857	0.067062	0.15635	0.24398	0.25783	0.35915	0.095911	0.13719	0.16499	0.073372	0.19333	0.15303	0.2133	0.027432	0.2256	-2.4896	-3.2375	-2.3	-3.1479	-2.9583	-2.6021	-3.45	-2.9667	-2.5438	-3.4354	-2.4479	-3.0396	-3.0938	-2.4792	-3.1417	-2.6625	71.290	181.101	233.147	174.706	239.774	277.784	233.215	320.283	293.119	126.161	52.592	15.765	301.761	119.186	63.803	23.804	9.4976e-05	0.00030251	7.3382e-05	1103.6	7.7907e-07	3.7766e-06	1189.1	233.41	5.4588e-07	3.8398e-06	295.26	81.171	63.635	18.892	5.0261e-07	26.047	0.00021493	0.00022208	6.812e-05	1081.5	2.5913e-06	2.3945e-06	1167.8	232.58	2.6454e-06	2.4758e-06	291.6	81.636	64.012	19.061	2.9052e-06	26.35	194.418	53.416	68.430	-23.699	276.614	132.042	-23.348	-16.128	204.547	125.385	-16.897	-9.578	-9.091	-1.994	113.515	-3.012	-8191	255	
9090.587	1	1	0	0	0.03617	0.085663	0.080411	0.12439	0.12372	0.21106	0.26382	0.32571	0.12882	0.087927	0.11312	0.17442	0.073335	0.45727	0.21877	0.32391	-2.2792	-3.225	-2.5104	-3.1042	-3.1021	-2.5375	-3.5083	-3.0396	-2.5875	-3.2479	-2.6854	-3.025	-3.2375	-2.4917	-3.1625	-2.9938	161.031	-31.850	117.498	222.743	56.182	111.935	275.068	297.979	1.865	165.530	210.500	310.840	295.638	-30.292	289.372	-2.946	9.2101e-05	0.00027038	7.1625e-05	1105.2	1.2328e-06	3.2257e-06	1189.2	233.9	5.6304e-07	3.3199e-06	295.28	81.121	64.399	18.733	4.2659e-06	26.299	0.00021883	0.00023157	7.6767e-05	1080.8	2.6884e-06	2.5967e-06	1165.9	232.17	2.5749e-06	2.6353e-06	291.82	81.416	64.3	18.964	2.9462e-06	26.43	185.548	29.103	45.495	-23.898	179.850	142.901	-23.326	-16.291	146.321	116.674	-16.645	-9.326	-9.381	-2.167	190.717	-3.278	-8191	255	
9090.683	1	1	0	0	0.1161	0.23855	0.173	0.12093	0.062837	0.29965	0.41444	0.17287	0.2125	0.21064	0.2378	0.24763	0.10063	0.076399	0.22719	0.083211	-2.0563	-3.2396	-2.5687	-2.8333	-3.2958	-2.7313	-3.2833	-2.9896	-2.7083	-3.3042	-2.8104	-2.9417	-3.375	-2.4313	-3.1437	-3.0438	267.113	145.208	229.563	-25.730	53.395	33.103	251.980	29.279	221.065	155.702	225.655	286.227	221.726	-17.732	105.978	75.180	0.00010905	0.00027916	0.0001189	1104	2.0468e-06	2.6629e-06	1193.3	232.95	9.2714e-07	2.2093e-06	295.39	80.951	64.01	18.859	1.9411e-06	26.135	0.00021633	0.00024346	7.633e-05	1079	2.5826e-06	2.6984e-06	1168.1	231.91	2.5201e-06	2.7177e-06	291.14	81.172	64.061	19.01	2.8004e-06	26.291	192.873	74.228	67.427	-23.750	182.460	107.820	-23.534	-16.056	129.629	81.788	-16.834	-9.661	-9.117	-1.843	80.350	-2.822	-8191	255	
9090.779	1	1	0	0	0.21026	0.07708	0.27583	0.14813	0.058592	0.16244	0.22562	0.14297	0.2534	0.060731	0.21958	0.035844	0.12466	0.16455	0.28744	0.17975	-2.1021	-3.3146	-2.7042	-2.8958	-3.45	-2.5042	-3.2896	-3.1146	-2.55	-3.3438	-2.8917	-2.6604	-3.3521	-2.3896	-2.9188	-3.4167	37.737	185.274	46.375	2.798	323.232	272.328	324.153	319.758	315.540	244.653	259.285	0.122	64.722	-22.976	91.442	320.408	0.00010024	0.00017447	6.4236e-05	1102.3	2.7469e-06	3.146e-06	1187	234.55	1.6369e-06	2.8132e-06	294.44	80.83	63.901	18.806	2.4999e-06	26.349	0.00021853	0.00025825	7.2625e-05	1076.8	2.7131e-06	2.9979e-06	1163.6	232.08	2.6171e-06	2.943e-06	290.7	81.239	64.071	18.979	2.7857e-06	26.384	171.613	-5.148	43.054	-23.600	177.187	152.699	-23.219	-16.301	212.831	152.795	-16.769	-9.248	-9.009	-2.148	183.292	-2.768	-8191	255	
9090.900	1	1	0	0	0.22142	0.29971	0.19489	0.47292	0.15748	0.088359	0.34557	0.16791	0.046112	0.2859	0.40816	0.047722	0.14212	0.43197	0.13945	0.1826	-1.9792	-3.2396	-2.7833	-2.55	-3.3917	-2.8646	-2.9125	-3.3104	-2.4854	-3.2458	-2.8812	-2.6083	-3.175	-2.7667	-2.6042	-3.3063	306.134	43.367	179.033	-33.083	43.844	112.453	-17.541	156.034	31.576	-22.083	30.949	277.160	124.146	313.570	6.664	157.349	0.00012796	0.00032497	9.7977e-05	1100.1	1.3315e-06	2.2287e-06	1185.5	233.51	9.6353e-07	2.9025e-06	295.56	80.648	63.91	18.877	2.2934e-06	26.225	0.00022734	0.00027412	6.9535e-05	1079.6	2.7033e-06	2.9692e-06	1166.8	231.57	2.7682e-06	2.8722e-06	291.79	81.395	64.119	19.034	2.6489e-06	26.467	185.590	60.580	78.270	-23.618	188.381	142.084	-23.455	-16.128	169.506	85.903	-16.690	-9.466	-8.949	-2.040	158.009	-3.049	-8191	255	
9090.994	1	1	0	0	0.066819	0.27155	0.1919	0.15896	0.25103	0.076625	0.38391	0.11637	0.11799	0.09934	0.019332	0.10927	0.24309	0.15882	0.25331	0.057755	-2.1083	-2.9562	-3.0604	-2.7458	-3.2979	-2.8625	-2.6063	-3.3125	-2.5125	-3.0729	-3.225	-2.4146	-3.4	-2.775	-2.4854	-3.2625	239.164	267.633	56.315	244.071	27.285	292.854	215.532	292.700	249.808	160.073	72.187	232.554	-11.584	64.516	312.684	282.403	0.00010281	0.00043701	9.6787e-05	1098.2	1.0483e-06	1.0089e-06	1186.4	233.69	8.2346e-07	2.8322e-06	295.92	81.029	64.119	18.828	3.6908e-06	26.312	0.00024024	0.00026543	6.9829e-05	1077.7	2.7912e-06	2.8135e-06	1167	231.82	2.9041e-06	2.8293e-06	292.2	81.447	64.299	18.998	2.5626e-06	26.408	188.610	78.252	78.230	-23.410	159.332	111.391	-23.442	-16.204	168.694	109.431	-16.654	-9.520	-9.185	-2.958	121.713	-3.327	-8191	255	
9091.090	1	1	0	0	0.09316	0.26641	0.13894	0.10596	0.18272	0.2039	0.43104	0.099127	0.16351	0.1003	0.20944	0.12131	0.17246	0.1716	0.16549	0.19943	-2.1813	-2.9271	-3.1042	-2.5479	-3.1813	-2.8333	-2.8312	-3.2958	-2.4896	-2.9708	-3.2562	-2.4625	-3.2833	-2.7854	-2.6708	-3.4667	315.057	242.463	175.630	192.022	101.098	149.894	298.501	86.020	50.614	121.020	-25.672	-29.407	77.387	99.569	167.213	259.995	9.1548e-05	0.00028217	6.7117e-05	1101.1	2.982e-06	5.3694e-06	1192.2	233.35	5.4997e-07	2.9491e-06	295.49	81.073	64.391	18.876	1.7251e-06	26.114	0.00024668	0.00025485	6.4786e-05	1078.4	3.0417e-06	2.7515e-06	1165.8	231.99	2.9805e-06	2.6822e-06	291.79	81.328	64.293	18.998	2.582e-06	26.444	196.475	52.231	73.065	-23.867	159.007	68.756	-23.314	-15.867	218.318	100.483	-16.462	-9.459	-8.535	-2.606	147.412	-2.885	-8191	255	
9091.164	1	1	0	0	0.042809	0.22391	0.10673	0.27178	0.21161	0.26043	0.2565	0.16524	0.096911	0.1399	0.21652	0.19833	0.071261	0.17108	0.19902	0.16255	-2.375	-2.6896	-3.3271	-2.525	-3.3042	-2.9354	-2.6958	-3.4167	-2.5729	-2.8583	-3.4458	-2.3688	-3.175	-3.2562	-2.4229	-3.475	243.049	307.652	169.897	323.271	115.104	118.175	267.368	191.805	60.421	302.291	39.832	318.809	-12.215	100.840	76.020	255.386	0.00011514	0.0003255	0.00010006	1098.1	2.7316e-06	4.4262e-06	1187.3	233.74	2.4633e-07	2.6415e-06	295.19	81.051	63.814	18.845	1.9268e-06	26.369	0.00024908	0.00023837	6.4527e-05	1077.4	2.9262e-06	2.7468e-06	1164	232.03	2.9207e-06	2.601e-06	291.78	81.371	64.085	19.004	2.5447e-06	26.459	192.783	40.172	64.766	-23.710	160.365	177.813	-23.513	-15.772	65.983	108.336	-16.659	-9.434	-8.751	-2.255	118.001	-2.470	-8191	255	
9091.283	1	1	0	0	0.11156	0.35749	0.083822	0.16036	0.07689	0.19765	0.11316	0.16131	0.15884	0.27572	0.121	0.070783	0.13062	0.16432	0.076332	0.21768	-2.4104	-2.6479	-3.2146	-2.7687	-3.125	-2.9292	-2.7896	-3.2896	-2.8	-2.6771	-3.4479	-2.4396	-2.9333	-3.2479	-2.3187	-3.1771	268.031	208.578	200.324	25.675	96.779	289.144	244.653	245.490	225.909	92.207	-16.205	76.326	123.677	284.427	262.972	-28.477	8.4438e-05	0.00032764	0.00013172	1095	2.5217e-06	3.0715e-06	1183.5	233.2	1.7343e-06	3.3727e-06	293.63	81.134	63.784	18.891	2.1887e-06	26.168	0.00023622	0.0002264	6.3885e-05	1075.7	2.775e-06	2.5402e-06	1160.4	232	2.7154e-06	2.4618e-06	290.82	81.412	64.114	19.023	2.5309e-06	26.464	182.480	43.036	30.864	-23.755	152.514	126.841	-23.428	-16.108	137.491	109.088	-16.597	-9.498	-8.892	-2.548	165.227	-2.787	-8191	255	
9091.379	1	1	0	0	0.075011	0.12083	0.073323	0.43293	0.11372	0.054772	0.37916	0.25474	0.070871	0.19954	0.14704	0.082738	0.10207	0.014004	0.14671	0.11323	-2.6375	-2.65	-3.3229	-2.6375	-2.8604	-3.0875	-2.6333	-3.1042	-2.9583	-2.65	-3.2917	-2.575	-2.9729	-3.25	-2.4813	-3.2521	258.078	195.211	-27.748	322.008	-5.845	76.700	290.396	293.187	258.544	136.571	124.474	-29.350	108.477	92.533	34.091	116.619	8.3355e-05	0.00022805	5.1161e-05	1098.1	2.681e-06	1.943e-06	1181.8	233.98	1.8524e-06	3.086e-06	293.7	80.673	64.329	18.82	2.6526e-06	26.389	0.00022688	0.00022622	6.2431e-05	1075.6	2.678e-06	2.4855e-06	1160.2	232.21	2.6009e-06	2.4451e-06	290.74	81.33	64.196	19.004	2.6361e-06	26.539	184.235	-11.469	143.025	-23.867	146.951	138.421	-23.535	-16.109	137.768	110.620	-16.716	-9.728	-9.511	-2.248	138.854	-2.648	-8191	255	
9091.475	1	1	0	0	0.32188	0.091687	0.16503	0.29545	0.16893	0.30749	0.22101	0.26263	0.11976	0.11336	0.30106	0.29591	0.21967	0.1091	0.041957	0.32568	-2.7104	-2.4479	-3.3396	-2.6896	-2.7	-3.2875	-2.4583	-3.2188	-3.0563	-2.3792	-3.4104	-2.6417	-2.6354	-3.3396	-2.4813	-3.0646	-23.814	58.695	37.365	295.522	-31.054	4.172	255.065	257.254	261.277	4.807	304.114	313.256	253.763	195.716	102.648	282.873	8.9981e-05	0.00020825	9.3683e-05	1100.6	3.1674e-06	2.6808e-06	1180.4	233.53	1.2645e-06	1.7653e-06	295.05	81.134	64.437	18.979	2.4719e-06	26.439	0.00021996	0.00021665	6.7443e-05	1078	2.6557e-06	2.4272e-06	1160.2	232.14	2.6206e-06	2.4815e-06	291.22	81.642	64.458	19.025	2.8714e-06	26.553	195.063	89.035	71.176	-23.751	119.398	29.587	-23.371	-16.145	192.161	131.274	-16.369	-9.749	-8.858	-2.212	165.191	-2.897	-8191	255	
#DATA ENDS
