BOXY.EXE: ISS Imagent and Oximeter Data Acquisition Program Version 0.80
Ascii Record File

#ACQ INFORMATION
2  Detector Channels 
16  External MUX Channels 
1  Auxiliary Channels 
5000  Waveform (CCF) Frequency (Hz)
1  Waveforms Skipped 
30  Waveforms Averaged 
1  Cycles Averaged 
16  Acquisitions per Waveform 
10.0806  Updata Rate (Hz) 

#FILE INFORMATION
TRUE -- External MUX Channel results are PARSED.
FALSE -- AC DC and Phase are NOT grouped.
TRUE -- Companion Program Settings File CREATED.
FALSE -- AC data not excluded
FALSE -- DC data not excluded
FALSE -- Phase data not excluded
FALSE -- Auxillary Chn. data not excluded
Tab delimiters

#CALIBRATION STATE
TRUE -- Waveform Calibration Values APPLIED.


#AUX CALIBRATION VALUES
Val Type	aux-1	

Term	1.0000e+00	
Factor	0.0000e+00	


#WF CALIBRATION VALUES
A = Detector Channel
Val Type	A-AC1	A-AC2	A-AC3	A-AC4	A-AC5	A-AC6	A-AC7	A-AC8	A-AC9	A-AC10	A-AC11	A-AC12	A-AC13	A-AC14	A-AC15	A-AC16	A-DC1	A-DC2	A-DC3	A-DC4	A-DC5	A-DC6	A-DC7	A-DC8	A-DC9	A-DC10	A-DC11	A-DC12	A-DC13	A-DC14	A-DC15	A-DC16	A-Ph1	A-Ph2	A-Ph3	A-Ph4	A-Ph5	A-Ph6	A-Ph7	A-Ph8	A-Ph9	A-Ph10	A-Ph11	A-Ph12	A-Ph13	A-Ph14	A-Ph15	A-Ph16	

Term	0.00000e+00	0.00000e+00	0.00000e+00	0.00000e+00	0.00000e+00	0.00000e+00	0.00000e+00	0.00000e+00	0.00000e+00	0.00000e+00	0.00000e+00	0.00000e+00	0.00000e+00	0.00000e+00	0.00000e+00	0.00000e+00	0.00000e+00	0.00000e+00	0.00000e+00	0.00000e+00	0.00000e+00	0.00000e+00	0.00000e+00	0.00000e+00	0.00000e+00	0.00000e+00	0.00000e+00	0.00000e+00	0.00000e+00	0.00000e+00	0.00000e+00	0.00000e+00	0.00000e+00	0.00000e+00	0.00000e+00	0.00000e+00	0.00000e+00	0.00000e+00	0.00000e+00	0.00000e+00	0.00000e+00	0.00000e+00	0.00000e+00	0.00000e+00	0.00000e+00	0.00000e+00	0.00000e+00	0.00000e+00	
Factor	1.00000e+00	1.00000e+00	1.00000e+00	1.00000e+00	1.00000e+00	1.00000e+00	1.00000e+00	1.00000e+00	1.00000e+00	1.00000e+00	1.00000e+00	1.00000e+00	1.00000e+00	1.00000e+00	1.00000e+00	1.00000e+00	1.00000e+00	1.00000e+00	1.00000e+00	1.00000e+00	1.00000e+00	1.00000e+00	1.00000e+00	1.00000e+00	1.00000e+00	1.00000e+00	1.00000e+00	1.00000e+00	1.00000e+00	1.00000e+00	1.00000e+00	1.00000e+00	X	X	X	X	X	X	X	X	X	X	X	X	X	X	X	X	

B = Detector Channel
Val Type	B-AC1	B-AC2	B-AC3	B-AC4	B-AC5	B-AC6	B-AC7	B-AC8	B-AC9	B-AC10	B-AC11	B-AC12	B-AC13	B-AC14	B-AC15	B-AC16	B-DC1	B-DC2	B-DC3	B-DC4	B-DC5	B-DC6	B-DC7	B-DC8	B-DC9	B-DC10	B-DC11	B-DC12	B-DC13	B-DC14	B-DC15	B-DC16	B-Ph1	B-Ph2	B-Ph3	B-Ph4	B-Ph5	B-Ph6	B-Ph7	B-Ph8	B-Ph9	B-Ph10	B-Ph11	B-Ph12	B-Ph13	B-Ph14	B-Ph15	B-Ph16	

Term	0.00000e+00	0.00000e+00	0.00000e+00	0.00000e+00	0.00000e+00	0.00000e+00	0.00000e+00	0.00000e+00	0.00000e+00	0.00000e+00	0.00000e+00	0.00000e+00	0.00000e+00	0.00000e+00	0.00000e+00	0.00000e+00	0.00000e+00	0.00000e+00	0.00000e+00	0.00000e+00	0.00000e+00	0.00000e+00	0.00000e+00	0.00000e+00	0.00000e+00	0.00000e+00	0.00000e+00	0.00000e+00	0.00000e+00	0.00000e+00	0.00000e+00	0.00000e+00	-2.84052e+01	-1.28238e+02	-1.23055e+02	-1.81347e+02	-4.90151e+01	-6.44906e+01	-1.58583e+02	-1.62015e+02	-3.30316e+01	-6.71694e+01	-1.70474e+02	-1.69975e+02	-1.81443e+02	-1.76799e+02	-5.34590e+01	-1.49645e+02	
Factor	2.60320e-05	1.63302e-04	4.34181e-05	1.49363e-01	1.92631e-06	1.64092e-06	1.64229e-01	5.54761e-02	1.53204e-06	1.58752e-06	8.65546e-02	3.10973e-02	2.68888e-02	9.37520e-03	1.83265e-06	1.32400e-02	1.49363e-05	2.69560e-05	7.46987e-06	7.68193e-02	2.59114e-07	3.03878e-07	7.93361e-02	2.86037e-02	2.60344e-07	3.00301e-07	4.33358e-02	1.55925e-02	1.39820e-02	4.88742e-03	2.77576e-07	6.67928e-03	X	X	X	X	X	X	X	X	X	X	X	X	X	X	X	X	



#DISTANCE SETTINGS
A = Detector Channel
A-1	A-2	A-3	A-4	A-5	A-6	A-7	A-8	A-9	A-10	A-11	A-12	A-13	A-14	A-15	A-16	

2.5000e+00	3.0000e+00	2.5000e+00	3.0000e+00	2.0000e+00	3.0000e+00	1.5000e+00	3.0000e+00	3.0000e+00	3.0000e+00	3.0000e+00	3.0000e+00	3.0000e+00	3.0000e+00	1.5000e+00	3.0000e+00	

B = Detector Channel
B-1	B-2	B-3	B-4	B-5	B-6	B-7	B-8	B-9	B-10	B-11	B-12	B-13	B-14	B-15	B-16	

1.0000e+01	1.0000e+01	1.0000e+01	1.4400e+00	1.0000e+01	1.0000e+01	1.5100e+00	1.9400e+00	1.0000e+01	1.0000e+01	1.9900e+00	2.4900e+00	2.4100e+00	2.9000e+00	1.0000e+01	2.9800e+00	




#DATA BEGINS
time	group	step	mark	flag	A-AC1	A-AC2	A-AC3	A-AC4	A-AC5	A-AC6	A-AC7	A-AC8	A-AC9	A-AC10	A-AC11	A-AC12	A-AC13	A-AC14	A-AC15	A-AC16	A-DC1	A-DC2	A-DC3	A-DC4	A-DC5	A-DC6	A-DC7	A-DC8	A-DC9	A-DC10	A-DC11	A-DC12	A-DC13	A-DC14	A-DC15	A-DC16	A-Ph1	A-Ph2	A-Ph3	A-Ph4	A-Ph5	A-Ph6	A-Ph7	A-Ph8	A-Ph9	A-Ph10	A-Ph11	A-Ph12	A-Ph13	A-Ph14	A-Ph15	A-Ph16	B-AC1	B-AC2	B-AC3	B-AC4	B-AC5	B-AC6	B-AC7	B-AC8	B-AC9	B-AC10	B-AC11	B-AC12	B-AC13	B-AC14	B-AC15	B-AC16	B-DC1	B-DC2	B-DC3	B-DC4	B-DC5	B-DC6	B-DC7	B-DC8	B-DC9	B-DC10	B-DC11	B-DC12	B-DC13	B-DC14	B-DC15	B-DC16	B-Ph1	B-Ph2	B-Ph3	B-Ph4	B-Ph5	B-Ph6	B-Ph7	B-Ph8	B-Ph9	B-Ph10	B-Ph11	B-Ph12	B-Ph13	B-Ph14	B-Ph15	B-Ph16	aux-1	digaux	

38931.723	1	1	0	256	0.071734	0.083319	0.44509	0.2377	0.14537	0.23745	0.1036	0.056087	0.27392	0.19378	0.36475	0.14924	0.16473	0.28873	0.12194	0.18807	-1.9333	-2.7396	-2.5479	-2.1583	-2.85	-2.2021	-2.4125	-3.1125	-2.1396	-2.725	-2.8063	-2.1604	-2.9833	-2.4458	-2.225	-2.9292	-70.377	122.043	-73.871	197.744	148.269	-72.545	206.433	263.141	159.914	-53.104	210.717	230.525	-76.556	264.400	-50.035	-68.412	0.00017107	0.0015922	0.00024323	930.42	7.1014e-06	2.232e-05	702.12	331.48	4.8028e-06	5.0343e-06	255.48	88.118	122.12	49.55	6.6816e-06	38.37	0.037301	0.067464	0.018643	1136.9	0.0006518	0.00076934	911.94	410.99	0.00067016	0.00077339	370.75	130.9	161.61	63.912	0.00072848	57.124	272.800	25.678	230.660	-72.165	-71.874	268.931	-73.396	-66.976	90.724	84.742	-70.099	-65.642	-62.741	-58.835	224.525	-61.602	-8191	255	
38931.816	1	1	0	0	0.30451	0.10711	0.15994	0.080207	0.42403	0.099332	0.090986	0.066839	0.089944	0.35184	0.13111	0.144	0.24943	0.31814	0.12099	0.17452	-1.6521	-2.5646	-2.975	-2.2125	-2.8854	-2.4708	-2.1792	-3.2542	-2.1896	-2.6292	-2.8667	-2.3583	-2.9958	-2.7083	-2.1562	-3.0208	52.349	-31.899	63.071	208.259	27.184	-9.789	264.287	165.176	185.523	199.623	26.383	192.805	260.479	-50.859	-55.754	174.112	0.00017575	0.0011078	0.000686	924.16	8.2674e-06	1.99e-05	691.92	328.56	1.3028e-05	9.3184e-06	255.29	88.082	120.66	49.539	5.7793e-06	38.182	0.040182	0.073016	0.020392	1150.2	0.00072277	0.00085242	928.08	416.05	0.00073212	0.00084668	379.94	133.84	163.87	64.503	0.00078104	58.13	-41.212	26.247	-22.705	-72.042	220.994	-0.969	-73.737	-67.168	220.395	172.524	-69.625	-65.450	-62.755	-58.486	61.712	-61.941	-8191	255	
38931.891	1	1	0	0	0.26377	0.090992	0.12646	0.17363	0.22019	0.15376	0.34213	0.19387	0.18484	0.07786	0.13549	0.21195	0.21741	0.16536	0.30289	0.26786	-1.975	-2.4979	-2.8333	-2.2917	-2.8021	-2.6917	-2.1958	-3.1229	-2.2625	-2.4917	-3.0062	-2.3479	-2.8396	-2.925	-2.0667	-3.0229	213.637	174.100	-15.095	186.627	32.273	-4.805	200.775	222.951	106.526	159.609	242.347	118.370	241.353	269.173	191.260	195.133	0.00039166	0.00078323	0.000515	921.88	1.3078e-05	2.336e-05	695.04	329.4	1.1229e-05	3.7667e-07	252.35	87.88	120.81	48.866	7.952e-06	38.026	0.0428	0.07739	0.0216	1164.3	0.0007631	0.00090337	946.18	423.44	0.00079622	0.0009227	392.59	138.44	168.27	65.771	0.00085922	59.56	226.209	-76.348	143.877	-72.283	-76.634	79.886	-73.698	-67.129	-74.574	-45.006	-69.880	-65.478	-62.900	-58.709	117.508	-62.051	-8191	255	
38932.008	1	1	0	0	0.26728	0.23037	0.18236	0.16313	0.084734	0.24861	0.1109	0.18085	0.14151	0.098215	0.056328	0.085208	0.30561	0.12336	0.20351	0.14015	-2.1396	-2.2208	-2.9542	-2.3521	-2.6354	-2.8042	-2.1688	-3.0646	-2.3604	-2.5	-2.9458	-2.1562	-2.9583	-3.0083	-1.9479	-3.0396	256.536	175.675	117.361	-0.993	58.104	44.085	190.551	238.655	165.360	213.593	203.872	-46.985	32.405	-73.536	84.603	197.978	0.00027748	0.00055308	0.00058568	929.46	2.3029e-06	2.5881e-05	700.77	330.09	8.1099e-06	5.9921e-06	255.64	88.26	122.45	49.561	1.0221e-06	38.182	0.045913	0.081857	0.022578	1176.2	0.00077457	0.00090603	947.35	423.89	0.0007696	0.0008885	388.73	136.82	166.72	65.392	0.00081781	59.007	-9.110	170.544	93.155	-71.828	231.717	-68.120	-73.578	-67.037	138.050	-20.550	-69.760	-65.798	-62.718	-58.706	54.959	-61.458	-8191	255	
38932.105	1	1	0	0	0.13685	0.21441	0.31568	0.087408	0.067015	0.1844	0.11696	0.17105	0.15623	0.29005	0.16929	0.10133	0.12014	0.17879	0.088342	0.075091	-2.1875	-2.1583	-3.1604	-2.4229	-2.5396	-2.9542	-2.1125	-2.925	-2.5125	-2.1396	-2.8479	-2.1229	-2.5667	-3.1	-1.9771	-2.9458	260.470	80.823	132.878	83.821	16.914	-76.065	14.142	167.203	249.588	12.396	260.942	-57.707	212.677	234.238	230.232	206.867	8.4718e-05	0.0012976	0.00048944	929.8	1.4925e-05	9.8441e-06	696.49	331.49	1.6472e-05	1.0124e-05	254.42	88.573	121.95	48.913	1.198e-06	37.51	0.044322	0.079824	0.022254	1172.8	0.000772	0.00090427	942.83	423.05	0.00076201	0.00087703	385.41	135.88	166.11	64.934	0.00082551	58.798	50.308	-27.330	-68.051	-72.028	-78.643	213.264	-73.257	-66.954	-10.677	84.524	-69.735	-65.371	-62.623	-58.706	56.366	-61.913	-8191	255	
38932.203	1	1	0	0	0.15219	0.1932	0.27008	0.17569	0.30521	0.08399	0.14317	0.3361	0.27571	0.17886	0.1748	0.15462	0.12535	0.011202	0.17545	0.12238	-2.2271	-2.1146	-2.9896	-2.3375	-2.4917	-3.0563	-2.2562	-3.0646	-2.7958	-2.1979	-3.1083	-2.5042	-2.3833	-3.1646	-2.25	-2.675	167.421	225.481	163.097	246.572	254.559	118.615	-82.462	213.454	-21.737	122.970	87.807	165.470	215.091	181.606	7.947	210.723	0.00037792	0.0010564	0.00026237	927.64	1.8659e-05	3.6624e-06	700.65	331.25	1.6089e-05	1.0446e-05	252.06	86.131	120.57	48.086	1.8913e-05	37.099	0.045902	0.084585	0.024061	1198.8	0.00087336	0.0010477	992.23	441.96	0.00094413	0.001108	420.1	147.8	177.14	68.376	0.0010702	63.799	-55.596	193.142	174.249	-72.307	128.933	205.541	-73.459	-67.325	59.343	72.771	-69.602	-65.137	-62.572	-58.929	66.661	-61.628	-8191	255	
38932.320	1	1	0	0	0.18302	0.2377	0.10715	0.19033	0.20212	0.10401	0.18326	0.21305	0.1917	0.08482	0.1354	0.1184	0.1706	0.083031	0.15546	0.27354	-2.5458	-1.9813	-2.9813	-2.5187	-2.2062	-3.025	-2.3396	-2.9104	-2.8521	-2.3312	-3.0396	-2.5938	-2.2875	-3.1042	-2.5083	-2.7438	27.692	110.249	-57.206	-66.631	-17.952	197.585	-62.572	223.865	-42.597	259.401	134.183	198.394	-52.482	168.599	50.302	61.100	0.0002118	0.0017683	0.00041622	933.79	1.3644e-05	6.5517e-06	704.34	332.79	1.371e-05	1.8948e-05	253.48	86.414	120.8	48.133	2.4243e-05	37.416	0.057818	0.10446	0.029254	1256.3	0.0010231	0.0012066	1033.5	454.34	0.0010304	0.0011957	432.29	150.93	179.66	69.288	0.0011077	64.85	41.902	-60.373	22.912	-72.093	33.769	86.966	-73.375	-66.905	38.803	211.846	-69.547	-65.656	-62.437	-58.532	77.057	-61.794	-8191	255	
38932.418	1	1	0	0	0.15922	0.070854	0.075647	0.18341	0.038603	0.16	0.089947	0.24546	0.084709	0.21366	0.092385	0.12838	0.097637	0.15667	0.048057	0.034771	-2.4479	-2.1708	-2.9042	-2.5521	-2.1688	-3.0438	-2.4083	-2.6667	-3.0604	-2.2417	-2.9604	-2.5792	-2.3063	-3.1333	-2.5792	-2.5563	59.159	45.048	240.704	224.082	223.057	112.300	-36.367	136.615	69.877	-36.989	-68.915	-67.012	273.809	109.514	150.138	211.056	0.00037726	0.0017711	0.00030626	933.31	1.2299e-05	1.8459e-05	703.19	331.08	1.6845e-05	2.3882e-05	255.68	86.591	121.35	48.44	1.2404e-05	36.692	0.059922	0.10885	0.030547	1268	0.0010743	0.0012691	1049.7	460.06	0.0010943	0.0012739	445.86	156.45	185.3	71.55	0.001231	68.124	262.453	92.156	76.088	-71.909	-57.360	81.109	-72.989	-66.910	169.334	123.779	-69.902	-65.037	-62.760	-58.569	103.031	-61.556	-8191	255	
38932.488	1	1	0	0	0.12748	0.19547	0.10588	0.17427	0.24683	0.20268	0.042944	0.070857	0.16822	0.077088	0.21691	0.27126	0.13847	0.012833	0.055194	0.12665	-2.4562	-1.9958	-2.6854	-2.7771	-1.9667	-3.0646	-2.3583	-2.3271	-2.975	-2.2938	-2.7167	-2.9437	-2.35	-2.9938	-2.4104	-2.3125	43.585	97.009	41.072	-33.822	-47.837	195.391	-82.214	4.569	168.716	2.077	84.652	240.830	163.851	96.476	28.893	-67.061	0.00022093	0.0027217	0.0003219	935.82	5.9269e-06	1.7124e-05	702.31	329.39	1.7264e-05	1.1424e-05	254.33	85.716	119.84	47.651	1.5353e-05	36.341	0.067853	0.1236	0.034417	1307	0.001189	0.0014014	1081.6	470.47	0.0012	0.0013959	460.81	161.2	189.23	72.533	0.0013209	69.532	251.471	118.041	-72.376	-72.211	247.148	166.583	-73.380	-67.069	191.143	16.255	-70.133	-65.204	-62.419	-58.666	99.929	-61.889	-8191	255	
38932.609	1	1	0	0	0.19965	0.29623	0.1785	0.12523	0.077198	0.17074	0.19039	0.21311	0.20897	0.17336	0.141	0.14896	0.020351	0.2923	0.17448	0.13494	-2.5042	-2.0375	-2.5438	-2.8542	-2.1417	-2.9	-2.5375	-2.3792	-2.9708	-2.2479	-2.8958	-3.0208	-2.2	-3.1	-2.6229	-2.2604	150.779	7.765	138.221	177.466	260.970	45.557	238.723	210.158	-74.075	242.217	219.246	263.984	75.385	262.330	61.145	47.160	0.00027486	0.00029554	0.00039951	932.29	1.0046e-05	2.9213e-05	705.11	327.98	1.8327e-05	7.3825e-06	252.59	85.124	119.19	47.227	1.6571e-05	36.036	0.072227	0.1315	0.036831	1335.6	0.0012876	0.0015252	1115.3	480.83	0.001303	0.0015032	472.49	164.17	191.28	73.103	0.0013579	69.845	182.388	103.289	-80.082	-72.241	141.804	-31.394	-73.320	-66.918	191.133	271.014	-69.748	-65.264	-62.969	-58.867	-8.367	-61.774	-8191	255	
38932.707	1	1	0	0	0.19649	0.40802	0.13678	0.28337	0.10324	0.05815	0.24925	0.24122	0.14528	0.17722	0.17329	0.07199	0.021415	0.15736	0.19135	0.14547	-2.775	-2.2667	-2.4542	-3.0667	-1.9979	-2.8375	-2.6146	-2.3333	-3.1958	-2.3854	-2.5208	-3.1104	-2.2938	-2.875	-2.6646	-2.3187	-24.703	10.633	150.309	261.400	138.736	133.381	173.714	-75.201	84.073	233.775	186.465	-36.599	-20.390	-14.096	53.444	177.582	0.00057745	0.0036219	0.00088297	939.61	1.2806e-05	1.8777e-05	709.59	330.45	9.9923e-06	2.3175e-05	253.68	85.108	119.44	46.902	1.7757e-05	36.135	0.073026	0.13133	0.036404	1328.4	0.0012503	0.0014733	1105	477.05	0.0012626	0.0014642	469.89	164.66	192.5	73.556	0.0014086	71.584	-23.766	-22.801	9.323	-72.075	18.947	164.900	-73.325	-67.049	-72.738	135.783	-70.020	-65.801	-62.955	-58.626	129.380	-61.646	-8191	255	
38932.801	1	1	0	0	0.030357	0.21468	0.10623	0.080272	0.31664	0.020699	0.25645	0.081446	0.24555	0.10888	0.10115	0.24082	0.3521	0.19756	0.17424	0.18621	-2.6667	-2.3667	-2.4792	-3.1437	-2.2062	-2.6813	-2.8625	-2.25	-3.0563	-2.4042	-2.4167	-3.0354	-2.1458	-2.825	-2.7479	-2.0271	2.522	106.835	-38.136	137.966	28.930	163.817	183.230	14.522	225.856	13.438	100.199	136.878	262.771	160.849	-64.118	253.478	0.00037658	0.0012923	0.00021057	943.75	7.821e-06	1.1609e-05	711.86	333.01	1.1165e-05	7.7578e-06	252.95	84.743	119.4	46.911	2.4548e-05	35.453	0.077552	0.13979	0.038688	1359.8	0.0013393	0.001567	1130	487.73	0.001322	0.0015174	476.85	165.57	193.33	73.168	0.0013731	69.867	249.462	245.461	211.547	-72.139	7.624	-18.656	-73.557	-67.151	-65.159	-74.087	-69.840	-65.204	-62.616	-58.538	66.818	-61.784	-8191	255	
38932.922	1	1	0	0	0.19564	0.12259	0.11999	0.15904	0.091927	0.1676	0.32133	0.027278	0.074708	0.041507	0.071149	0.17749	0.15009	0.17711	0.17598	0.15073	-2.6312	-2.3854	-2.1833	-3.1625	-2.2792	-2.6333	-2.9562	-2.1854	-2.9354	-2.4562	-2.4021	-2.9271	-2.1833	-2.6396	-2.9396	-2.2333	27.936	54.329	84.250	148.711	-21.346	247.537	220.347	14.402	229.146	-58.641	97.874	220.558	-77.448	206.317	254.634	133.097	0.00026288	5.0438e-05	0.00049937	945.68	1.6255e-05	2.1928e-05	711.17	333.93	7.1496e-06	1.5179e-05	254.33	84.975	119.52	47.013	2.0336e-05	35.524	0.07409	0.13283	0.036551	1340.8	0.0012524	0.0014622	1102.3	479.38	0.0012379	0.0014165	462.87	160.91	189.33	71.669	0.0013016	68.237	-54.156	216.967	169.612	-72.235	110.007	101.976	-73.361	-66.781	10.622	253.942	-69.778	-65.074	-62.857	-58.486	54.190	-61.538	-8191	255	
38933.016	1	1	0	0	0.099401	0.085312	0.1897	0.23513	0.062238	0.10253	0.18224	0.13481	0.085164	0.32604	0.080354	0.24853	0.38474	0.050762	0.21345	0.062718	-2.5771	-2.5875	-2.1375	-3.1937	-2.3167	-2.4396	-3.0792	-2.3583	-2.9646	-2.5792	-2.2354	-3.1771	-2.2667	-2.4	-3.0896	-2.0979	174.727	21.445	225.329	258.272	62.401	12.328	-33.048	259.215	225.808	12.604	-82.456	251.701	174.084	70.785	254.374	-45.137	0.00029794	0.0011676	3.7877e-05	945.57	1.4309e-05	8.2498e-07	710.75	332.48	3.2251e-05	4.2458e-06	252.16	84.529	119.59	46.711	1.076e-05	35.409	0.070272	0.1266	0.035159	1330.7	0.0012279	0.0014425	1103.7	479.97	0.0012631	0.001468	473.29	165.45	194.08	73.384	0.0014307	71.371	192.071	83.431	44.878	-72.002	231.025	182.003	-73.411	-66.911	-70.164	6.964	-69.642	-65.357	-62.699	-58.707	-12.606	-61.504	-8191	255	
38933.090	1	1	0	0	0.2702	0.11381	0.054114	0.10041	0.17466	0.21094	0.17741	0.18106	0.23532	0.14302	0.052419	0.26492	0.10015	0.19879	0.26687	0.097535	-2.3708	-2.75	-2.0938	-2.9938	-2.3292	-2.3271	-3.1604	-2.3875	-2.6875	-2.8187	-2.25	-2.9333	-2.5958	-2.3917	-3.05	-2.3896	16.042	140.232	187.018	137.481	81.939	168.284	-37.088	273.910	196.573	170.679	217.932	190.485	267.167	-63.498	-35.276	60.347	9.5124e-05	0.0003106	0.00027249	952.05	1.8629e-05	1.3137e-05	715.43	335.57	8.7527e-06	1.8555e-05	255.26	84.79	118.91	46.341	2.1544e-05	34.981	0.078295	0.14107	0.039035	1375.7	0.0013406	0.001567	1138	490.72	0.0013297	0.0015337	483.92	168.51	196.62	74.033	0.0014882	72.456	47.617	-16.549	178.263	-72.008	116.065	82.436	-73.185	-67.062	198.711	21.315	-69.678	-65.083	-62.505	-58.335	-4.857	-61.296	-8191	255	
38933.211	1	1	0	0	0.076463	0.13536	0.2383	0.091403	0.13072	0.2113	0.17903	0.18799	0.25051	0.14568	0.199	0.06282	0.30223	0.22313	0.1273	0.084632	-2.2729	-2.7917	-2.1937	-2.9292	-2.6396	-2.2812	-3.0958	-2.4104	-2.4292	-2.8958	-2.1708	-2.9292	-2.8438	-2.3708	-3.2	-2.3	220.419	86.145	225.433	185.852	-57.595	62.700	207.616	262.268	242.278	109.693	265.029	162.676	-32.423	-53.126	-64.125	-70.200	0.0003883	0.0012007	0.00070385	953.46	5.9164e-06	1.1858e-05	720.9	335.99	1.7756e-05	1.0916e-05	253.68	83.878	118.68	46.391	6.0054e-06	34.929	0.081954	0.14843	0.041326	1407.7	0.0014378	0.0016865	1179.1	504.44	0.0014432	0.0016631	499.34	172.8	199.46	74.835	0.0015098	72.44	164.508	1.374	-5.972	-71.890	167.046	141.592	-73.404	-66.999	227.778	272.584	-70.134	-65.082	-62.725	-58.336	32.751	-61.733	-8191	255	
38933.305	1	1	0	0	0.13463	0.29804	0.10271	0.27897	0.11163	0.10469	0.19813	0.28684	0.11935	0.075122	0.16615	0.092582	0.031545	0.11563	0.14861	0.20282	-2.0646	-2.9437	-2.2438	-3.0854	-2.6646	-2.0125	-3.0229	-2.7375	-2.5667	-3.0208	-2.1437	-2.9021	-2.9	-2.325	-2.9813	-2.4958	-26.122	237.734	101.714	273.771	241.147	31.831	-68.650	264.115	228.262	241.498	129.866	22.939	163.907	26.530	168.417	198.289	0.0001529	0.00036189	9.4223e-05	954.89	1.0003e-05	2.4072e-05	710.72	333.4	1.368e-05	1.5678e-05	251.57	83.8	117.76	46.083	1.5398e-05	35.113	0.080967	0.14599	0.040744	1397.3	0.0014138	0.001671	1167.1	501.92	0.0014396	0.0016614	500.35	173.03	199.56	74.761	0.001528	72.317	-26.562	205.578	-33.241	-71.873	16.751	143.211	-73.045	-67.184	112.993	258.061	-69.948	-65.406	-62.621	-58.305	142.283	-61.562	-8191	255	
38933.402	1	1	0	0	0.15242	0.25283	0.20854	0.11835	0.25097	0.14176	0.08734	0.16994	0.084329	0.1836	0.3498	0.14112	0.36335	0.41593	0.054394	0.24267	-2.0167	-3.0083	-1.9375	-2.7646	-2.8937	-2.375	-3.2333	-2.4354	-2.2604	-3.0417	-2.3667	-2.7896	-3.025	-2.2292	-3.0896	-2.7729	246.416	177.222	169.539	197.250	93.308	11.702	154.970	196.410	266.575	8.357	188.623	191.566	250.408	-53.204	15.797	-17.553	0.00034431	0.0025577	0.00025105	954.37	1.6152e-05	1.3917e-05	715.33	333.5	1.3379e-05	9.052e-06	251.29	83.314	118.63	46.011	2.3157e-05	34.769	0.080945	0.14477	0.040061	1385.1	0.001367	0.0016084	1149.1	493.82	0.0013584	0.0015672	483.55	166.46	193.74	72.693	0.0014078	69.798	-68.151	266.497	-1.928	-72.249	40.403	256.927	-73.507	-67.037	272.705	33.111	-70.092	-65.257	-62.796	-58.572	9.128	-61.916	-8191	255	
38933.496	1	1	0	0	0.10203	0.12845	0.2721	0.36192	0.098847	0.30938	0.17305	0.17063	0.358	0.10376	0.133	0.18483	0.074434	0.11223	0.17797	0.24541	-1.7458	-2.8625	-2.2854	-2.6417	-2.75	-2.1646	-2.9792	-2.7458	-2.2562	-3.0458	-2.3729	-2.7729	-3.0854	-2.2771	-2.9667	-2.7021	114.229	174.223	-37.800	248.602	70.257	19.455	-9.851	267.715	64.102	34.698	127.939	-71.203	42.098	193.857	257.861	223.034	0.00034556	0.0027816	0.00039474	959.7	1.3944e-05	1.0901e-05	721.35	337.62	1.0621e-05	1.5964e-05	253.57	84.268	119.33	46.456	1.5247e-05	35.425	0.075528	0.13647	0.037977	1370.4	0.0013221	0.0015709	1145.2	494.11	0.0013542	0.0015736	488.35	168.74	196.44	73.976	0.0014668	71.607	272.505	-82.307	127.937	-72.195	93.239	98.947	-73.561	-66.851	93.096	35.705	-69.606	-65.398	-62.307	-58.686	104.230	-61.587	-8191	255	
38933.594	1	1	0	0	0.092223	0.067241	0.22622	0.24047	0.19466	0.31149	0.13969	0.028798	0.16656	0.049964	0.071442	0.19361	0.09309	0.046855	0.17728	0.34395	-1.8729	-3.0146	-2.2021	-2.4167	-2.9625	-2.1208	-2.85	-2.9354	-2.1583	-3.0417	-2.6729	-2.3667	-3.1167	-2.275	-2.8312	-2.9792	-36.515	193.703	222.070	179.659	173.953	205.425	254.869	195.013	205.260	210.342	-77.186	247.817	-75.405	210.589	106.952	197.770	0.00017419	0.00073176	4.8923e-05	953.92	9.5208e-06	1.7307e-05	713.33	336.95	1.9092e-05	3.2127e-06	250.92	84.342	119.43	46.72	1.9111e-05	34.926	0.079153	0.14391	0.040039	1387.5	0.001383	0.001628	1154.7	498.13	0.0013925	0.0016325	493.87	171.21	199.21	74.93	0.0015183	72.69	247.317	145.556	-37.243	-72.012	150.455	30.394	-73.546	-67.062	-5.601	190.440	-69.977	-65.362	-62.421	-58.468	196.760	-61.692	-8191	255	
38933.715	1	1	0	0	0.11693	0.20868	0.13304	0.20854	0.11481	0.13444	0.30615	0.24533	0.22765	0.16905	0.27768	0.13609	0.10681	0.12611	0.12102	0.21403	-1.7667	-2.9688	-2.675	-2.5896	-3.0917	-2.3104	-2.9625	-2.9479	-2.2917	-2.9708	-2.5271	-2.2708	-3.1583	-2.4688	-2.6417	-3.0208	145.708	-0.967	-51.082	251.205	83.955	138.111	-27.037	201.146	245.658	68.280	156.074	204.125	227.157	255.445	249.185	-33.141	0.00058613	0.0030177	0.00015048	953.19	1.3542e-05	2.9208e-05	714.6	334.42	2.1569e-05	7.9762e-06	254.34	83.44	119.37	46.089	2.0427e-05	35.288	0.082427	0.15026	0.041573	1401.2	0.0014404	0.001704	1172.9	504.71	0.0014616	0.001693	501.76	173.7	201.01	75.45	0.0015538	73.507	6.117	-2.424	-74.418	-72.126	225.805	42.714	-73.152	-66.936	-60.661	119.862	-69.671	-64.859	-62.318	-58.676	-74.650	-61.595	-8191	255	
38933.785	1	1	0	0	0.090717	0.13405	0.066897	0.15515	0.19364	0.16001	0.12216	0.10721	0.10506	0.18174	0.13866	0.11498	0.44432	0.1832	0.037775	0.11179	-1.7354	-3.1292	-2.6813	-2.4667	-3.1937	-2.3729	-2.6437	-3.1	-2.1521	-2.8792	-2.9354	-2.375	-2.9938	-2.6521	-2.475	-3.1562	-71.088	21.417	175.254	180.016	135.334	87.267	98.729	206.871	-12.936	237.914	22.803	103.615	260.729	168.159	25.289	-75.668	0.00034273	0.0017995	0.00043052	952.09	1.8397e-05	1.4613e-05	711.15	334.08	3.3705e-05	2.0117e-05	254.21	83.705	118.77	46.05	1.1591e-05	34.901	0.083573	0.1511	0.041721	1400.9	0.0014515	0.0017141	1174.6	505.51	0.0014914	0.001742	511.76	178.45	205.69	77.391	0.0016798	76.994	46.832	22.589	2.647	-72.116	54.835	217.192	-73.540	-66.959	-39.337	-29.501	-70.129	-65.545	-62.516	-58.639	53.503	-61.803	-8191	255	
38933.883	1	1	0	0	0.055674	0.11935	0.066951	0.031543	0.088496	0.31906	0.13673	0.19812	0.071011	0.032469	0.042632	0.20505	0.067241	0.22513	0.16569	0.1099	-2.0021	-2.8667	-2.7687	-2.3479	-2.8542	-2.6479	-2.4979	-3.2604	-2.2229	-2.9583	-3.0708	-2.2271	-3.2625	-2.675	-2.3271	-3.2375	-3.142	56.548	149.175	150.535	-35.890	133.428	-12.635	213.181	261.506	88.070	243.744	-69.645	30.181	239.630	159.235	239.875	3.9449e-05	0.0013588	0.00026131	951.35	2.0586e-05	2.0144e-05	715.02	333.85	2.5216e-05	3.4764e-05	252.78	84.053	119.22	46.487	1.7707e-05	35.268	0.091938	0.16699	0.046361	1453.1	0.0016292	0.0019268	1235	526.29	0.0016608	0.0019252	538.87	187.74	214.03	80.063	0.0018072	80.236	214.717	-22.024	236.241	-72.197	-70.571	181.813	-73.280	-67.151	-82.492	274.547	-69.796	-65.676	-62.946	-58.639	34.047	-61.602	-8191	255	
38934.004	1	1	0	0	0.068828	0.17969	0.19361	0.23886	0.42261	0.31778	0.36642	0.094511	0.24045	0.032925	0.089939	0.088696	0.24398	0.18117	0.086792	0.021018	-1.9458	-2.7396	-2.9417	-2.2917	-2.9042	-2.8104	-2.5479	-3.2792	-2.35	-2.5875	-2.975	-2.3042	-3.0812	-2.8312	-2.4437	-3.1188	-37.610	261.868	215.762	215.559	-65.960	-0.777	-70.378	248.301	82.778	211.372	183.587	185.454	239.366	-62.280	106.713	-42.663	0.00020484	0.0017515	0.00061867	950.96	2.3832e-06	1.4988e-05	717.08	333.75	5.3947e-06	2.623e-05	249.78	83.243	117.44	46.068	2.0344e-05	34.355	0.099396	0.18059	0.050235	1498.9	0.0017705	0.0020805	1276.5	541.47	0.0018079	0.0021016	562.13	196.79	221.9	82.838	0.001991	83.769	262.053	-82.147	136.917	-72.251	-23.483	47.476	-73.533	-67.152	158.198	44.409	-69.390	-65.497	-62.595	-58.750	108.666	-61.654	-8191	255	
38934.098	1	1	0	0	0.17618	0.12176	0.11128	0.061645	0.07581	0.155	0.23543	0.26333	0.30507	0.11824	0.15401	0.2267	0.13732	0.17138	0.143	0.045567	-1.925	-2.4729	-3.1354	-2.4042	-2.9	-2.7667	-2.5604	-3.2792	-2.4771	-2.5687	-3.05	-2.3292	-2.8854	-2.8958	-2.4688	-3.2042	6.004	-79.056	27.480	-59.151	74.401	-58.979	223.698	250.391	124.122	148.299	236.000	-48.731	79.338	-72.998	-61.429	226.190	0.00050917	0.0030974	0.0013228	952.73	2.4982e-05	2.6467e-05	713.96	332.18	2.4417e-05	9.8704e-06	248.4	81.698	116.54	45.281	5.0823e-05	33.716	0.1077	0.19424	0.053812	1535.5	0.0018723	0.0021956	1308.5	552.61	0.0019224	0.0022306	580.48	202.96	227.72	84.496	0.0021427	87.233	-41.457	52.709	-67.126	-72.060	127.656	0.665	-73.702	-66.867	254.631	107.549	-70.055	-65.682	-62.866	-58.485	227.562	-62.029	-8191	255	
38934.191	1	1	0	0	0.11697	0.12424	0.081535	0.37301	0.15784	0.25272	0.14692	0.12639	0.10309	0.08689	0.15115	0.28441	0.24152	0.22198	0.15541	0.17659	-2.0771	-2.5604	-3.0125	-2.4771	-2.8896	-2.9062	-2.1312	-3.1	-2.6667	-2.2292	-3.3146	-2.3229	-2.7562	-2.975	-2.2125	-3.0062	49.248	-9.689	88.275	220.656	-9.773	-44.224	166.362	-73.404	234.383	-34.033	210.736	190.152	268.631	180.179	183.479	-71.505	0.00015079	0.0019754	0.00084008	957.73	1.9787e-05	1.5873e-05	717.57	332.16	3.0648e-06	3.5748e-05	248.52	80.842	115.81	44.742	3.7984e-05	33.377	0.11776	0.21405	0.059539	1599.1	0.0020857	0.0024594	1382.1	577.6	0.0021229	0.0024535	610.27	211.1	233.7	85.97	0.0022462	89.146	-8.067	41.016	134.804	-72.312	152.368	-72.918	-73.840	-66.956	199.704	28.876	-70.146	-65.627	-62.932	-58.458	-21.654	-61.502	-8191	255	
38934.289	1	1	0	0	0.11493	0.28854	0.186	0.20817	0.092356	0.14448	0.1671	0.16697	0.2311	0.43255	0.040464	0.14309	0.1319	0.30811	0.21778	0.17153	-2.2083	-2.2875	-3.1375	-2.5125	-2.8458	-2.9396	-2.2625	-3.0062	-2.7229	-2.3479	-3.2062	-2.3583	-2.6542	-3.1312	-2.2521	-2.9562	176.546	228.143	167.380	-33.215	166.318	-79.403	185.503	116.387	34.038	99.674	247.202	17.250	-50.350	266.050	-58.509	237.337	7.7866e-05	0.0024672	0.00030793	959.21	6.5448e-06	5.8069e-05	718.99	333.41	2.2561e-05	1.9585e-05	248.4	80.534	116.23	44.206	2.1167e-05	32.93	0.12166	0.21992	0.061238	1616.3	0.0021306	0.0025114	1398.3	583.33	0.0021937	0.0025571	627.4	218.75	242.05	89.207	0.0024721	94.695	258.889	198.590	60.419	-72.207	-39.971	34.376	-73.451	-67.015	51.606	1.726	-69.781	-65.055	-62.922	-58.434	-15.595	-61.741	-8191	255	
38934.387	1	1	0	0	0.10032	0.11859	0.11735	0.21338	0.22263	0.24133	0.28253	0.18123	0.13057	0.26685	0.13104	0.1812	0.084761	0.18334	0.048696	0.28912	-2.4208	-2.2167	-3.2875	-2.6188	-2.5708	-3.2292	-2.4271	-3.1021	-2.9354	-2.2646	-3.1917	-2.5458	-2.4417	-3.2521	-2.4208	-2.9625	257.039	215.198	-36.057	266.132	124.357	-47.834	253.222	173.483	183.370	9.463	189.141	-49.339	146.736	237.748	269.761	125.685	0.00062775	0.00041168	0.0003235	959.63	2.6173e-05	2.4369e-05	716.61	331.06	3.5904e-05	2.2282e-05	247.73	80.059	114.85	43.642	4.9651e-05	32.174	0.13602	0.24775	0.069564	1710.3	0.0024528	0.0029283	1515	626.48	0.0025939	0.0030163	697.94	244.41	266.66	97.874	0.0030105	107.17	-33.018	66.342	245.487	-72.241	-62.678	-17.663	-73.839	-66.969	24.676	61.887	-70.145	-65.387	-62.823	-58.295	-60.748	-61.676	-8191	255	
38934.480	1	1	0	0	0.16967	0.23142	0.085123	0.35778	0.19033	0.15303	0.05096	0.17512	0.062971	0.062243	0.12571	0.13206	0.15524	0.22612	0.16439	0.27443	-2.575	-2.1229	-2.9542	-2.7729	-2.3896	-3.1917	-2.4479	-3.0021	-3.0708	-2.3063	-2.975	-2.6667	-2.6437	-3.2271	-2.5042	-2.9104	161.935	74.349	128.502	205.041	59.127	16.855	-20.815	271.072	69.958	-32.804	185.831	121.723	91.365	252.423	127.329	199.380	0.00054509	0.0029957	0.00027268	968.69	1.9495e-05	2.6186e-05	725.03	333.78	2.8374e-05	1.4708e-05	249.53	79.889	113.6	43.271	4.2255e-05	32.198	0.16532	0.30071	0.08411	1871	0.0029345	0.003487	1666.6	676.53	0.0029878	0.003459	759.07	262.08	279.55	101.65	0.0032002	110.66	-26.000	81.984	-38.317	-72.426	206.582	51.027	-73.835	-67.233	-39.205	195.739	-70.150	-65.668	-62.610	-58.587	234.901	-62.206	-8191	255	
38934.602	1	1	0	0	0.044495	0.14359	0.21552	0.23729	0.15184	0.095906	0.32882	0.4298	0.21425	0.13732	0.10478	0.23505	0.096983	0.23303	0.3106	0.096904	-2.75	-2.2583	-2.9271	-2.8271	-2.3271	-2.9625	-2.3604	-2.5833	-3.1521	-2.4458	-3.0979	-3.0854	-2.3958	-3.1688	-2.6146	-2.5917	3.860	148.260	187.814	-79.957	94.125	150.268	221.565	244.555	133.747	46.851	-10.007	169.474	120.308	7.772	157.074	204.884	0.0001675	0.002648	0.0006185	966.57	2.7181e-05	1.9712e-05	721.7	333.47	1.4565e-05	3.2938e-05	248.21	79.231	114.57	43.351	2.6761e-05	32.278	0.17301	0.31445	0.087475	1899.2	0.0030103	0.0035294	1670	677.22	0.0030051	0.0034699	757.6	261.12	279.39	101.52	0.003186	110.26	100.846	88.624	-52.816	-72.451	220.092	213.199	-73.616	-67.206	213.789	227.555	-70.071	-65.897	-62.549	-58.734	161.190	-61.425	-8191	255	
38934.699	1	1	0	0	0.29518	0.084793	0.16725	0.19094	0.12965	0.2974	0.28527	0.25109	0.089939	0.014905	0.11242	0.40493	0.24865	0.25698	0.42986	0.23427	-2.7333	-2.3125	-2.8833	-2.9	-2.1375	-3.0583	-2.45	-2.6083	-3.0938	-2.3292	-2.8083	-3.0708	-2.5083	-3.1063	-2.7687	-2.3708	176.432	245.870	22.077	243.290	256.600	122.407	-63.179	-43.137	119.576	177.850	242.819	52.120	167.963	263.436	76.812	-46.916	0.00010895	0.0052234	0.00034399	963.2	2.0823e-05	2.4399e-05	728.69	333.11	1.891e-05	2.3978e-05	249.26	79.224	114.49	43.485	4.7137e-05	31.654	0.17181	0.31121	0.086352	1887.9	0.002991	0.0035352	1673.1	676.39	0.0029942	0.0034664	758.87	262.24	281.45	102.34	0.0032371	111.8	99.939	-17.823	211.928	-72.318	-55.526	255.280	-73.770	-67.107	13.508	125.895	-70.258	-65.676	-62.905	-58.681	-77.083	-61.225	-8191	255	
38934.797	1	1	0	0	0.21703	0.17473	0.11451	0.29059	0.078771	0.13497	0.32451	0.11695	0.08777	0.28243	0.082701	0.24923	0.16799	0.029733	0.071032	0.060323	-3.0042	-2.3312	-2.65	-3.1271	-2.3438	-2.9708	-2.8688	-2.375	-3.0729	-2.4125	-2.6937	-3.0563	-2.1104	-3.2896	-2.7979	-2.3063	167.217	20.184	205.311	194.705	137.376	13.334	153.406	-16.165	-71.602	30.407	-25.951	227.395	159.405	157.759	110.473	-27.136	0.00054744	0.00042367	0.00069026	966.74	2.2274e-05	1.6921e-05	730.21	335.52	5.2545e-05	2.8224e-05	248.21	79.009	114.02	42.569	7.9304e-06	31.117	0.17733	0.32341	0.090344	1937.4	0.0031584	0.0037554	1732.7	702.58	0.0032354	0.0037604	801.05	278.13	297.22	107.49	0.0035786	119.33	258.893	103.661	0.721	-72.345	130.555	81.993	-74.138	-67.077	253.302	152.995	-70.288	-65.879	-62.460	-58.550	246.546	-61.449	-8191	255	
38934.891	1	1	0	131072	0.27482	0.19497	0.24722	0.20759	0.21057	0.19679	0.19024	0.16717	0.16519	0.038514	0.1492	0.06544	0.2993	0.0036636	0.21637	0.16886	-2.7792	-2.2583	-2.7333	-3.2792	-2.4646	-3.1104	-2.85	-2.4979	-3.2208	-2.3438	-2.4625	-3.1333	-2.2646	-2.8396	-2.9562	-2.2458	-68.136	272.312	26.711	224.709	205.814	71.227	180.162	89.953	142.847	-10.859	119.459	109.267	104.671	-61.356	131.434	59.204	0.00033644	0.002814	0.00099341	961.72	1.5541e-05	5.1047e-05	732.42	335.4	2.6319e-05	1.3827e-05	250.04	77.829	114.06	42.114	9.4805e-06	30.752	0.19569	0.35498	0.098442	2033.8	0.003454	0.0040925	1831.9	739.01	0.0035473	0.0041218	854.85	296.29	312.65	111.45	0.0037812	122.84	-38.962	-13.472	56.281	-72.391	55.797	78.299	-73.908	-67.274	170.778	15.743	-70.964	-65.911	-62.825	-58.515	141.314	-61.508	-8191	255	
38935.012	1	1	0	131072	0.3003	0.12249	0.2238	0.052689	0.16019	0.23765	0.2749	0.24212	0.19177	0.15579	0.17388	0.26061	0.13048	0.089455	0.097624	0.077779	-2.6083	-2.3438	-2.5375	-3.1625	-2.1	-2.7917	-2.8979	-2.4292	-3.0438	-2.6417	-2.5438	-2.95	-2.3292	-2.6667	-2.8958	-2.2833	106.259	90.753	226.136	175.243	234.539	239.822	173.590	199.174	82.488	58.558	-38.079	259.692	168.227	249.964	-49.197	153.754	0.00032202	0.0010224	0.00058084	956.67	8.183e-06	2.778e-05	734.06	335.98	1.4639e-05	3.2071e-05	250.07	78.432	113.99	42.242	7.3794e-06	30.758	0.2029	0.36526	0.10051	2047.6	0.0034591	0.004057	1822.6	733.88	0.0034927	0.004039	844.04	291.91	307.83	110.34	0.0037235	122.02	16.558	-36.868	183.816	-72.085	216.744	24.071	-74.014	-67.376	240.667	-32.525	-69.720	-65.564	-62.846	-58.647	118.005	-61.314	-8191	255	
38935.082	1	1	0	131072	0.17798	0.12047	0.18615	0.10581	0.16376	0.17764	0.073805	0.15574	0.078691	0.14998	0.15899	0.2289	0.216	0.26729	0.12275	0.104	-2.6479	-2.5917	-2.2375	-3.2083	-2.3917	-2.8396	-3.2521	-2.1167	-3.0958	-2.7271	-2.4125	-3.0917	-2.4604	-2.7208	-2.9437	-2.2208	264.993	79.701	116.669	176.453	65.242	89.318	101.868	149.556	55.530	50.274	247.031	223.498	274.510	-69.530	-30.544	157.670	0.00018169	0.0017574	0.00054411	953.04	1.116e-05	2.8527e-05	732.54	335.98	5.1062e-05	2.5634e-05	248.76	77.975	114.32	42.371	1.3079e-05	30.593	0.20122	0.36216	0.10015	2048.8	0.0034661	0.0040552	1815.7	730.03	0.0034477	0.0039639	827.1	286.16	301.94	107.96	0.003558	118.11	12.479	-83.424	3.207	-72.222	199.312	-45.895	-73.894	-67.449	223.318	64.975	-70.820	-65.610	-62.964	-58.781	100.499	-61.410	-8191	255	
38935.176	1	1	0	131072	0.054597	0.16475	0.28407	0.086759	0.15426	0.15809	0.067054	0.42563	0.19098	0.11163	0.14228	0.17026	0.19195	0.10155	0.085343	0.032106	-2.4875	-2.7125	-2.1083	-3.1917	-2.3042	-2.4729	-3.0792	-2.2938	-2.8	-2.8417	-2.2646	-3.1208	-2.3521	-2.5167	-3.2354	-2.2792	59.811	12.164	37.148	203.224	62.293	245.792	-45.416	198.011	70.350	-28.600	214.994	182.267	-17.228	195.311	238.116	132.882	6.7357e-05	0.0034781	0.00070543	971.35	2.4249e-05	3.6109e-05	730.04	333.74	1.2334e-05	2.0185e-05	242.85	78.286	113.75	42.673	9.7157e-06	31.104	0.19141	0.34385	0.094823	1988.3	0.0032734	0.0038341	1752.5	708.38	0.0032819	0.0037813	802.9	278.39	294.32	105.56	0.0034316	115.01	190.907	81.474	271.572	-72.138	-37.154	148.055	-74.321	-67.385	14.221	129.783	-70.138	-65.280	-62.448	-58.398	176.955	-62.174	-8191	255	
38935.273	1	1	0	0	0.18727	0.10504	0.18515	0.2234	0.092803	0.07135	0.023081	0.35626	0.052618	0.12347	0.16476	0.24111	0.10677	0.20828	0.38196	0.14072	-2.3563	-2.9958	-2.1979	-3.1271	-2.5708	-2.2667	-3.1063	-2.6083	-2.8042	-2.8583	-2.1958	-2.9958	-2.7667	-2.3458	-3.0583	-2.5292	-27.816	137.646	-42.315	147.300	201.612	169.776	159.037	208.577	53.240	47.736	-84.883	168.580	234.948	228.611	-10.667	230.754	0.00042507	0.0037748	0.00044095	975.49	2.5567e-05	3.2249e-05	727.57	332.66	4.5773e-05	2.6148e-05	246.07	78.103	113.45	42.637	3.5089e-05	31.214	0.18366	0.32872	0.090514	1938.5	0.0030833	0.0035925	1683.7	682.87	0.0030469	0.003512	761.25	264.13	281.92	101.68	0.0032218	110.17	179.312	-33.531	264.304	-72.211	153.201	148.796	-74.025	-67.349	216.470	129.554	-70.117	-65.009	-62.571	-58.663	-14.188	-61.526	-8191	255	
38935.395	1	1	0	0	0.043403	0.19668	0.20512	0.24995	0.29984	0.084337	0.087642	0.037243	0.063385	0.14695	0.13878	0.062963	0.038329	0.50517	0.37299	0.11107	-2.4417	-2.8583	-2.0875	-3.0021	-2.7521	-2.2125	-2.9167	-2.4833	-2.5979	-2.9208	-2.3	-2.9146	-2.7812	-2.3958	-2.9896	-2.5292	16.452	-82.398	-25.364	-71.020	222.842	-6.063	214.119	59.843	-6.890	186.841	266.486	168.791	-71.016	-57.123	12.561	8.038	0.00028854	0.0012327	0.0017636	974.71	7.0491e-06	3.3798e-05	726.59	335.03	1.2243e-05	5.6603e-06	249.2	78.485	114.25	42.915	2.6743e-05	31.431	0.17242	0.31014	0.086292	1899.7	0.0029889	0.0034996	1665.7	676.26	0.0029807	0.0034389	753.61	260.55	278.31	100.38	0.0031222	107.79	-43.655	50.702	10.737	-72.076	204.187	198.800	-73.927	-67.154	59.753	80.434	-70.202	-65.451	-62.574	-58.458	175.689	-61.867	-8191	255	
38935.488	1	1	0	0	0.21796	0.13084	0.12745	0.26763	0.24991	0.030887	0.15633	0.10131	0.15289	0.03261	0.087827	0.20545	0.12176	0.068998	0.26769	0.15452	-2.1437	-3.0312	-2.0271	-3.1188	-2.5958	-2.1708	-3.1625	-2.7417	-2.5333	-3.1917	-2.5042	-2.8563	-2.9667	-2.2292	-3.0896	-2.6125	179.349	57.812	-40.896	220.434	210.019	88.688	146.791	264.182	-61.470	183.228	92.912	3.623	222.678	246.210	254.834	168.804	0.00040905	0.0009673	0.00033282	978.03	2.8054e-05	1.1438e-05	725.76	335.01	1.7634e-05	1.0383e-05	245.65	78.47	114.35	42.888	1.8558e-05	31.574	0.16581	0.297	0.082451	1853.7	0.0028055	0.0032728	1601.5	652.43	0.0027486	0.0031503	707.44	242.03	260.84	93.829	0.002771	98.541	1.759	-73.614	18.164	-72.392	51.382	228.471	-73.586	-67.038	67.305	-68.659	-70.337	-65.315	-62.798	-58.541	93.773	-61.428	-8191	255	
38935.586	1	1	0	0	0.05988	0.084595	0.12498	0.16027	0.21061	0.087286	0.25334	0.24058	0.23762	0.048599	0.2457	0.089316	0.15196	0.031537	0.04488	0.18086	-2.0104	-3.0917	-2.3625	-2.8958	-2.8792	-2.2521	-3.1458	-2.6979	-2.1813	-3.2021	-2.5271	-2.7646	-3.0146	-2.4688	-2.9333	-2.7438	145.620	265.855	234.276	-48.315	21.772	78.272	-29.189	205.541	-58.828	126.427	177.684	275.018	223.929	178.614	183.373	201.701	0.00031396	0.00044547	0.001024	973.16	3.0547e-05	6.9884e-06	720.6	333.24	1.3225e-05	3.4851e-05	246.41	78.249	113.7	42.635	1.9951e-05	30.657	0.14672	0.26441	0.073441	1761.2	0.0025404	0.0029917	1528.6	627.62	0.0025637	0.0029782	685.57	236.9	258.78	93.972	0.0028391	100.92	200.267	58.350	34.607	-72.117	-46.592	231.991	-73.649	-66.986	226.286	36.689	-70.020	-65.046	-62.545	-58.562	104.122	-62.390	-8191	255	
38935.684	1	1	0	0	0.14345	0.091329	0.20115	0.25056	0.1204	0.050742	0.12045	0.21535	0.15433	0.02701	0.12686	0.27245	0.20506	0.22617	0.31422	0.13345	-2	-3.0458	-2.3229	-2.7188	-3.0833	-2.3021	-3.0521	-2.8187	-2.4292	-3.1146	-2.6229	-2.4229	-3.0708	-2.4542	-2.8917	-2.9271	173.578	146.538	209.125	-68.115	173.732	246.746	-21.162	145.169	-15.974	241.558	89.548	-71.557	-81.297	181.332	233.454	-71.660	0.00094068	0.00032728	0.00058383	977.92	1.2683e-05	3.581e-05	725.66	335.28	5.5206e-06	3.3083e-05	246.8	78.048	113.07	41.729	3.5328e-05	30.76	0.15528	0.28322	0.079233	1830	0.0027573	0.00326	1608.2	656.44	0.0028287	0.0033066	736.83	254.14	274.15	98.372	0.0030844	105.65	267.958	271.515	153.031	-72.003	47.468	42.654	-73.526	-67.040	154.792	91.943	-70.328	-65.526	-62.836	-58.112	-13.381	-61.702	-8191	255	
38935.777	1	1	0	0	0.14368	0.36775	0.1734	0.19884	0.050231	0.095684	0.081667	0.18517	0.25399	0.017217	0.20623	0.14901	0.127	0.17862	0.053228	0.1496	-1.8229	-3.075	-2.3688	-2.7104	-3.0604	-2.375	-3.0812	-2.9104	-2.2188	-3.0396	-2.6833	-2.4708	-3.0792	-2.5833	-2.9125	-2.8354	-3.459	-49.455	75.980	137.933	116.482	-17.497	189.274	248.037	-83.602	57.110	198.793	213.264	112.774	157.764	169.685	184.260	0.0001012	0.0057072	0.00025056	986.47	2.132e-05	5.081e-05	730.62	335.82	2.0792e-05	1.6067e-05	245.27	77.605	114.33	42.124	3.6432e-05	30.456	0.16472	0.29758	0.082134	1858.8	0.0028293	0.0033336	1624.3	659.68	0.0028352	0.0032891	728.44	250.31	269.96	96.821	0.0029805	103.19	167.271	17.778	209.516	-71.956	250.279	-27.420	-73.972	-67.033	236.819	62.735	-70.349	-65.491	-62.574	-58.199	208.447	-61.395	-8191	255	
38935.875	1	1	0	0	0.2374	0.086907	0.15515	0.18929	0.092265	0.21171	0.15523	0.13684	0.23283	0.065848	0.18112	0.15079	0.12484	0.35779	0.11228	0.090658	-1.8229	-3.0812	-2.6292	-2.5646	-3.1125	-2.2792	-2.8271	-3.0792	-2.2604	-3.1458	-2.8833	-2.4313	-3.1375	-2.5042	-2.6583	-3.1437	-6.094	173.774	195.431	-8.564	78.927	-40.790	-25.883	207.554	195.585	240.940	90.500	-31.218	227.621	232.712	78.367	114.163	0.00040882	0.00042764	0.00064599	980.06	3.0876e-05	1.5237e-06	725.81	331.55	1.1183e-05	4.073e-05	245.38	77.85	113.95	42.411	4.2666e-05	31.204	0.15817	0.28314	0.077291	1791.4	0.0026195	0.0030541	1533.1	625.45	0.0025238	0.0028792	663.16	228.1	249.54	89.763	0.0025513	92.936	-62.564	274.016	254.824	-71.922	182.713	141.215	-73.374	-67.117	211.679	-72.131	-69.853	-65.487	-62.488	-58.256	-33.615	-61.732	-8191	255	
38935.973	1	1	0	0	0.089913	0.15597	0.19672	0.28994	0.45052	0.03677	0.12997	0.19168	0.11868	0.22138	0.066703	0.097417	0.10683	0.23754	0.18107	0.1892	-1.8583	-2.9458	-2.7625	-2.4208	-2.9917	-2.4333	-2.5896	-3.0438	-2.4583	-2.8312	-2.9292	-2.3458	-3.2917	-2.4125	-2.275	-3.1667	156.769	204.498	82.913	199.050	-77.840	-8.656	149.668	122.060	-19.548	243.547	159.908	157.653	23.641	145.920	38.617	101.465	0.00012207	0.0037825	0.00071225	961.51	2.4464e-05	2.6285e-05	711.29	331.04	3.8066e-05	2.3314e-06	245.1	79.216	113.97	42.767	7.8992e-06	31.027	0.13394	0.23838	0.06474	1649.2	0.0021822	0.0025369	1385.8	574.76	0.0021037	0.0024206	599	206.43	230.44	83.649	0.002216	85.397	-71.062	80.486	208.958	-72.049	152.110	273.163	-73.023	-66.739	266.665	27.923	-69.792	-65.439	-62.346	-58.306	267.057	-61.248	-8191	255	
38936.094	1	1	0	0	0.15518	0.048818	0.12165	0.19303	0.17682	0.13044	0.19089	0.21856	0.02918	0.24395	0.044879	0.21479	0.29197	0.072009	0.12966	0.038403	-1.8396	-2.8854	-3.0271	-2.4604	-3.0792	-2.4917	-2.3896	-3.4771	-2.3583	-2.7771	-3.0687	-2.2583	-3.1792	-2.7479	-2.2458	-3.1167	20.958	149.580	-25.406	-80.837	-63.730	230.478	144.358	219.392	5.816	234.811	199.849	127.980	264.175	261.283	178.045	-31.022	0.00057376	0.00057954	0.00018097	960.28	3.8633e-05	1.8648e-05	713.62	333.33	8.7914e-06	1.7993e-06	247.41	79.808	115.84	43.107	2.8932e-05	31.982	0.11691	0.20852	0.056881	1568.3	0.0019247	0.0022207	1297.6	543.17	0.001801	0.0020607	547.28	187.71	213.57	77.31	0.0018375	77.252	-30.867	260.159	241.380	-72.083	120.102	244.089	-73.100	-66.797	-65.636	8.554	-69.873	-64.758	-62.410	-58.130	-74.151	-61.038	-8191	255	
38936.188	1	1	0	0	0.20215	0.1329	0.091217	0.17217	0.14245	0.23241	0.25547	0.21866	0.14804	0.03745	0.034112	0.14999	0.13122	0.098023	0.2957	0.051478	-2.0167	-2.5958	-2.9938	-2.3208	-2.7604	-2.6729	-2.3354	-3.1229	-2.3063	-2.6375	-3.0292	-2.1437	-3.1354	-2.6583	-2.0854	-3.0083	149.564	239.002	195.430	190.957	-54.310	112.585	236.930	163.734	263.669	159.570	193.709	176.597	53.866	271.081	120.784	80.560	0.00022721	0.0010005	0.0007325	964.76	2.3029e-05	1.6715e-05	719.08	335.04	1.3761e-05	9.9797e-06	248.55	81.567	117.13	43.839	3.0457e-05	32.582	0.09817	0.17625	0.048571	1490	0.0016872	0.0019702	1243.3	528.11	0.0016528	0.0019008	526.91	181.7	208.24	75.671	0.0017115	75.018	215.537	270.042	128.030	-71.665	-45.460	274.257	-73.329	-67.050	93.394	-17.232	-70.133	-64.949	-61.863	-58.414	82.378	-60.992	-8191	255	
38936.281	1	1	0	0	0.37691	0.14207	0.15037	0.23452	0.27437	0.20255	0.40466	0.19301	0.095701	0.46616	0.094439	0.29851	0.16432	0.1075	0.34956	0.17021	-1.9875	-2.4375	-3.0312	-2.2167	-2.9313	-2.7792	-2.4021	-3.1083	-2.3187	-2.5521	-3.1396	-2.3375	-2.9229	-2.8979	-2.1479	-3.0208	213.521	237.437	269.395	186.132	144.790	157.814	235.248	-55.498	104.326	68.340	145.624	242.830	193.288	185.572	80.917	-3.832	0.00052538	0.0015865	0.00038689	963.95	3.3598e-05	2.1615e-05	716.19	334.21	8.8106e-06	2.0656e-06	249.07	80.617	117.15	43.456	5.9901e-05	32.534	0.092804	0.16779	0.046577	1468.2	0.0016244	0.0019087	1230.4	526	0.0016521	0.0019099	530.5	182.39	208.99	75.642	0.0017169	74.832	274.837	9.437	120.907	-71.694	172.592	-82.456	-73.312	-66.794	106.109	-26.336	-69.553	-65.206	-62.534	-58.257	153.340	-61.140	-8191	255	
38936.379	1	1	0	0	0.14346	0.16249	0.13992	0.22786	0.26028	0.13661	0.25477	0.1661	0.24687	0.07267	0.031342	0.21355	0.2752	0.14452	0.27471	0.030318	-2.1896	-2.275	-2.9458	-2.425	-2.725	-2.8396	-2.2729	-3.0292	-2.5333	-2.1917	-3.0521	-2.4146	-2.8979	-2.9771	-2.0896	-3.0083	76.606	96.084	15.829	248.252	63.772	-64.344	227.210	257.473	59.324	263.659	20.116	218.585	151.751	-9.645	236.727	-62.583	0.00050517	0.0022552	0.00087839	961.94	2.4602e-05	1.6157e-05	717.76	335.13	2.8153e-05	1.7944e-05	248.15	81.207	116.98	43.626	1.0983e-05	32.576	0.092177	0.1657	0.045983	1460.9	0.0015861	0.0018548	1215.3	519.51	0.0015726	0.001807	517	178.57	206.09	74.951	0.0017036	75.209	-47.533	270.078	241.475	-71.911	193.713	-18.057	-73.341	-66.856	18.521	-33.004	-69.389	-65.036	-62.128	-58.140	164.321	-61.522	-8191	255	
38936.477	1	1	0	0	0.16245	0.13239	0.32929	0.078618	0.22874	0.092796	0.12348	0.30089	0.094875	0.20563	0.097439	0.065084	0.2494	0.095555	0.10855	0.096257	-2.125	-2.1583	-3.1208	-2.4479	-2.5417	-2.9021	-2.35	-3.0875	-2.7792	-2.3208	-3.2167	-2.3271	-2.5667	-3.1708	-2.3333	-2.95	-40.127	-58.683	191.641	215.239	-74.189	133.473	-47.504	-23.238	21.448	143.561	-81.158	36.088	250.486	-28.566	-82.101	10.143	0.00015773	0.0016749	0.00049156	963.8	2.9078e-05	6.3827e-06	722.11	336.91	5.5167e-06	1.8506e-05	248.61	81.869	117.65	43.252	2.7376e-05	32.724	0.09351	0.16951	0.047427	1478.9	0.001663	0.0019629	1250.2	533.7	0.0017043	0.0019846	546.24	188.68	215.91	77.945	0.0018739	78.949	-64.431	100.747	-3.001	-71.624	19.704	-0.897	-73.915	-66.669	78.472	-27.223	-69.869	-65.305	-62.108	-57.890	110.025	-61.583	-8191	255	
38936.570	1	1	0	0	0.22506	0.36663	0.2037	0.30583	0.20127	0.26497	0.34849	0.10734	0.20464	0.13619	0.052265	0.16998	0.28709	0.20871	0.14464	0.30014	-2.325	-2.2208	-3.1104	-2.4833	-2.5208	-3.05	-2.4208	-2.9562	-2.9313	-2.1604	-3.1729	-2.5021	-2.5125	-3.2812	-2.3375	-2.6771	125.521	55.226	-67.040	203.947	81.347	208.620	177.524	-73.395	249.595	191.835	-13.420	217.890	-68.122	42.405	-17.045	91.452	0.00048553	0.00056194	0.00027707	970.68	4.9442e-06	1.3571e-05	724.51	337.94	2.8962e-05	2.6802e-05	250.51	81.443	118.22	43.253	2.471e-05	32.014	0.10148	0.18355	0.051193	1525.3	0.0017862	0.0021013	1293.5	547.11	0.0018125	0.0021135	563.6	194.47	220.53	79.569	0.0019576	80.217	-64.758	263.617	19.821	-71.872	266.520	-82.753	-73.699	-67.021	55.001	-32.343	-69.717	-65.455	-62.285	-57.924	59.557	-61.354	-8191	255	
38936.691	1	1	0	0	0.19971	0.10109	0.10764	0.19135	0.14721	0.24217	0.22683	0.10366	0.17669	0.12254	0.034184	0.063096	0.1468	0.30421	0.14594	0.27837	-2.5646	-2.2521	-3.0354	-2.8063	-2.2375	-3.15	-2.4375	-2.8083	-2.9708	-2.3583	-3.0979	-2.7896	-2.3	-3.0625	-2.3521	-2.5208	-77.420	129.310	177.017	118.349	136.417	-34.347	265.692	89.748	244.268	51.190	213.226	15.857	149.619	-32.330	223.552	244.518	0.00026988	0.0022371	0.00040761	968.78	3.5645e-05	1.4604e-05	718.99	337.58	1.6763e-05	2.7541e-05	249.51	81.118	117.67	43.056	3.2038e-05	32.098	0.10453	0.1883	0.052014	1526.5	0.0017659	0.0020598	1271.1	539.19	0.001734	0.0020103	547.72	188.13	214.6	77.333	0.001841	77.311	-58.229	-23.360	-73.502	-71.880	231.700	31.606	-73.526	-66.966	128.281	57.213	-69.655	-65.653	-62.399	-58.069	271.760	-61.937	-8191	255	
38936.789	1	1	0	0	0.084765	0.1933	0.13831	0.24923	0.091268	0.21912	0.33067	0.11063	0.075475	0.10551	0.062222	0.18231	0.12174	0.19322	0.1064	0.16829	-2.5583	-2.2375	-2.9	-2.7896	-2.2021	-3.1521	-2.5187	-2.5646	-3.1625	-2.3	-3.0104	-3.0146	-2.2979	-3.075	-2.3667	-2.4229	40.558	234.702	-20.341	174.532	190.081	-29.167	227.781	247.211	60.183	119.958	-62.111	177.867	-47.341	214.799	73.341	-49.213	0.00029632	0.00066145	0.00045066	966.57	4.1113e-05	1.5477e-05	719.36	334.62	1.7603e-05	9.2658e-06	249.15	80.839	118.33	43.271	1.6384e-05	32.135	0.098009	0.17679	0.049053	1491.6	0.0016722	0.0019609	1243.2	527.41	0.00165	0.001908	529.99	181.78	209.28	75.293	0.0017152	74.467	188.457	32.815	109.589	-72.013	114.336	47.446	-73.550	-66.915	64.236	71.516	-69.875	-65.315	-62.479	-58.248	274.855	-61.205	-8191	255	
38936.883	1	1	0	0	0.18396	0.10727	0.074356	0.308	0.10758	0.048632	0.22946	0.07017	0.12587	0.11131	0.28142	0.099869	0.36221	0.19298	0.076869	0.245	-2.6833	-2.2083	-2.7854	-3.0542	-2.2354	-3.1083	-2.7313	-2.5542	-3.1708	-2.2917	-2.7875	-3.0208	-2.1271	-2.9208	-2.5312	-2.3333	265.812	-33.912	172.726	235.876	158.542	46.205	-42.098	92.856	210.216	-45.358	40.925	129.921	231.113	-52.459	229.405	182.298	0.0002339	0.0023621	0.00028655	967	8.7412e-06	2.2574e-05	721.52	337.66	2.5092e-05	2.559e-05	252.86	82.526	118.75	43.476	1.1062e-05	32.517	0.091337	0.16517	0.045826	1462.1	0.0015792	0.0018582	1223.4	522.36	0.0015939	0.001854	525.36	180.04	207.81	74.814	0.0016636	73.413	262.900	119.460	112.891	-71.917	265.519	255.921	-73.410	-66.748	21.569	46.617	-69.980	-65.244	-62.200	-58.154	17.364	-61.256	-8191	255	
38936.953	1	1	0	0	0.23532	0.13291	0.1622	0.055061	0.21091	0.037306	0.28371	0.12545	0.12156	0.08972	0.13196	0.11721	0.16142	0.22476	0.24514	0.17295	-2.6917	-2.35	-2.7104	-3.0938	-2.3063	-2.85	-2.5938	-2.3604	-3.0146	-2.3625	-2.6833	-3.1188	-2.3583	-3.0208	-2.6396	-2.1646	203.183	63.317	-68.940	-61.650	128.727	-35.175	206.464	-72.950	79.412	184.113	50.661	-59.836	185.484	-13.488	154.866	244.040	0.00047816	0.00080263	0.00031122	970.16	1.798e-05	2.1383e-05	719.61	338.58	9.5131e-06	4.3942e-05	251.6	83.057	118.58	43.936	1.2173e-05	33.263	0.087754	0.15661	0.042788	1425	0.0014515	0.0017018	1173.2	505.25	0.0014195	0.0016383	493.31	168.83	197.58	71.765	0.001462	69.05	231.152	-66.971	-45.526	-71.837	101.397	-28.652	-73.176	-66.511	192.022	61.297	-69.599	-64.866	-62.457	-58.067	-0.220	-61.505	-8191	255	
38937.074	1	1	0	0	0.1549	0.17894	0.14097	0.1899	0.3318	0.103	0.074205	0.22694	0.079359	0.16887	0.074663	0.053548	0.26212	0.11292	0.17949	0.20567	-2.7313	-2.3917	-2.5938	-3.1312	-2.425	-2.8688	-2.7333	-2.3792	-3.1063	-2.5208	-2.6583	-3.0021	-2.0833	-2.9917	-2.9	-2.3146	137.632	131.539	76.495	-51.003	127.109	47.483	-27.484	229.107	263.772	260.465	209.627	249.636	-46.934	27.226	117.764	-60.009	0.00054081	0.0026729	0.00066363	965.94	1.9983e-05	1.3439e-05	714.32	337.91	2.0114e-05	1.9434e-05	250.76	82.559	118.25	43.792	1.3348e-05	32.849	0.077606	0.13976	0.038535	1380.7	0.0013301	0.0015607	1134.8	492.83	0.0013417	0.0015609	481.86	166.08	195.87	71.216	0.001463	69.074	-81.748	235.091	143.610	-72.015	146.151	17.455	-73.457	-66.571	42.031	210.391	-69.830	-65.405	-62.259	-57.881	256.466	-61.427	-8191	255	
38937.172	1	1	0	0	0.10024	0.24491	0.077192	0.23853	0.14793	0.20327	0.22088	0.24274	0.25737	0.064382	0.033249	0.31028	0.18808	0.17626	0.063932	0.27985	-2.5917	-2.6458	-2.6042	-3.2687	-2.2542	-2.6125	-3.1417	-2.4562	-3.0521	-2.6188	-2.35	-3.1292	-2.2125	-2.8	-2.925	-2.2646	116.270	-29.316	-63.949	236.483	-1.749	190.275	244.452	226.614	81.669	195.692	-44.144	240.432	176.111	242.925	70.683	260.832	0.0001538	0.002706	0.0006499	966.84	1.7514e-05	9.4511e-06	710.97	337.7	7.4632e-06	1.3309e-05	253.59	81.731	117.44	43.7	2.003e-05	32.524	0.078901	0.14087	0.038634	1382.4	0.0013235	0.0015449	1130.3	490.57	0.0013166	0.0015345	480.1	165.26	194.94	70.707	0.0014698	69.219	-81.624	124.897	-18.506	-72.063	41.473	45.814	-73.452	-66.702	-56.482	80.701	-69.915	-65.250	-62.312	-58.172	101.294	-61.274	-8191	255	
38937.266	1	1	0	0	0.12228	0.26919	0.083795	0.057463	0.056641	0.14411	0.29688	0.38036	0.12169	0.09592	0.36657	0.070047	0.25137	0.17885	0.17163	0.13334	-2.5333	-2.5146	-2.2042	-3.1708	-2.2729	-2.5125	-3.0375	-2.2583	-2.7958	-2.7292	-2.4604	-2.975	-2.4583	-2.4771	-2.9542	-2.2125	1.109	-12.755	256.532	274.799	-23.132	214.304	248.848	-80.390	258.284	150.719	243.815	58.288	233.956	186.143	-20.344	187.888	0.00022162	0.0016906	0.00088565	970.14	2.1584e-05	3.3476e-05	713.65	336.44	1.4106e-05	3.466e-05	248.2	81.971	117.9	43.572	1.8515e-05	32.071	0.080663	0.14586	0.040514	1409.6	0.0014121	0.0016597	1165.6	502.73	0.0014322	0.0016533	493.6	169.65	198.46	71.594	0.0015155	69.885	-35.176	-55.329	250.468	-71.934	183.548	79.157	-73.046	-66.657	11.141	106.274	-69.831	-65.645	-62.465	-57.913	148.377	-61.116	-8191	255	
38937.363	1	1	0	0	0.019505	0.17147	0.32539	0.12319	0.15476	0.22615	0.13401	0.085294	0.19446	0.04965	0.12358	0.13804	0.037715	0.086011	0.11869	0.051854	-2.5521	-2.7083	-2.1625	-3.2167	-2.4604	-2.7104	-3.2229	-2.2854	-3.0854	-2.8917	-2.2771	-3.2229	-2.5792	-2.2854	-3.0896	-2.3229	-59.843	116.768	212.086	260.717	202.310	59.688	204.711	232.745	17.403	166.520	185.751	-22.854	168.916	206.231	2.035	-22.810	0.0002111	0.0013046	0.00040694	966.6	6.4861e-06	2.1457e-05	717.59	335.68	5.77e-06	7.7045e-06	246.64	80.511	117.2	42.917	2.2487e-05	31.079	0.08262	0.15017	0.041892	1427.7	0.0014852	0.0017585	1192.7	512.85	0.0015286	0.0017666	507.2	174.27	202.22	72.916	0.0016236	72.109	-72.893	160.996	-11.110	-71.915	24.452	62.607	-73.605	-66.637	147.715	-35.638	-70.029	-65.134	-62.765	-58.121	16.382	-61.712	-8191	255	
38937.484	1	1	0	0	0.3031	0.13738	0.16602	0.28251	0.095486	0.23482	0.14442	0.2652	0.23472	0.11919	0.11743	0.081413	0.1677	0.21294	0.14805	0.11899	-2.4188	-2.9	-2.3312	-3.1104	-2.5396	-2.1042	-3.1167	-2.4208	-2.6188	-3.0687	-2.3125	-3.0542	-2.6625	-2.3438	-3.0271	-2.575	127.129	83.446	-69.921	212.449	103.285	139.995	160.081	254.329	164.821	97.894	173.306	226.081	202.901	237.038	75.599	-63.166	0.00017478	0.0012586	0.00035127	964.59	2.4254e-05	1.2517e-05	714.99	333.32	5.2186e-06	1.1504e-05	247.48	79.35	115.94	42.113	2.4762e-05	31.238	0.089196	0.15996	0.044386	1450.5	0.0015637	0.0018532	1219.3	521.54	0.0016291	0.0018954	530.59	182.78	210.21	75.335	0.0017939	75.704	21.184	125.504	-18.884	-71.966	-60.147	35.952	-73.284	-66.817	0.436	37.459	-69.368	-64.633	-62.355	-58.187	-60.506	-61.428	-8191	255	
38937.555	1	1	0	0	0.15651	0.078864	0.12519	0.18821	0.12952	0.25197	0.24158	0.21484	0.28672	0.10938	0.29582	0.089448	0.082714	0.37097	0.16998	0.24809	-2.1833	-3.1021	-2.1875	-3.0042	-2.8229	-2.25	-3.0687	-2.2396	-2.5167	-2.9125	-2.0563	-2.8979	-2.9125	-2.4021	-3.2333	-2.5083	117.508	-68.534	7.432	-34.969	19.388	-3.780	-54.250	141.311	-62.290	19.915	-72.574	-61.602	124.971	221.269	25.462	-18.248	0.00025656	0.0022727	0.00043866	964.07	1.3219e-05	2.8256e-05	713.44	333.06	2.3842e-05	2.2194e-05	247.37	79.517	115.56	42.036	1.2653e-05	31.276	0.096719	0.17454	0.048708	1492	0.0017008	0.002021	1263	536.87	0.0017695	0.0020618	553.98	191.03	217.5	77.713	0.0019338	78.901	216.866	177.253	262.549	-72.025	49.917	62.075	-73.623	-66.810	146.568	92.912	-69.983	-65.517	-62.635	-58.315	258.641	-61.603	-8191	255	
38937.652	1	1	0	0	0.0216	0.26493	0.39955	0.20567	0.32092	0.17298	0.19692	0.44388	0.11074	0.12904	0.086705	0.064978	0.14336	0.14366	0.01885	0.10619	-2.1792	-3.0875	-2.0854	-2.9583	-2.7687	-2.1437	-3.1521	-2.5708	-2.3521	-3.2125	-2.2958	-2.7167	-3.0604	-2.3646	-3.1312	-2.6271	-83.158	231.677	32.842	-76.973	209.331	136.161	228.876	244.409	35.304	80.780	-43.084	168.047	268.718	245.616	262.230	205.838	9.327e-05	0.0015881	0.00027396	969.78	1.6393e-05	1.6803e-05	718.06	332.97	9.1391e-06	2.5641e-05	247.93	79.683	116.18	42.219	1.2364e-05	30.909	0.10406	0.18596	0.05124	1516.4	0.0017404	0.0020302	1261.4	533.63	0.001721	0.0019905	543.99	187.67	215.63	77.317	0.0019286	78.986	-67.510	246.621	-40.227	-71.802	-54.123	195.575	-73.459	-66.984	97.888	77.114	-70.166	-65.362	-63.031	-58.293	105.101	-61.339	-8191	255	
38937.773	1	1	0	0	0.20611	0.12711	0.058848	0.3606	0.061449	0.17402	0.12606	0.081306	0.21816	0.064758	0.17031	0.22344	0.15374	0.18887	0.14355	0.26053	-1.9083	-3.125	-2.2833	-2.8521	-2.9437	-2.1521	-3.0604	-2.7396	-2.3292	-3.1729	-2.3792	-2.6333	-3.0187	-2.0812	-2.9083	-2.6542	150.947	114.139	45.656	232.516	-70.882	197.947	184.527	259.419	209.206	153.988	30.154	211.488	204.309	240.810	17.225	220.454	0.00014172	0.0023334	0.00025702	966.73	3.1393e-05	2.0353e-05	708.28	334.41	1.8007e-06	3.6799e-06	245.61	79.729	115.69	42.146	2.3237e-05	31.619	0.10501	0.18945	0.05241	1528.4	0.0017737	0.0020561	1259.4	532.81	0.0016946	0.001937	528.83	180.95	207.98	74.524	0.0017324	73.918	120.365	40.958	99.529	-71.822	-69.148	99.181	-73.417	-66.873	128.121	81.928	-70.059	-65.237	-62.607	-58.298	109.911	-61.720	-8191	255	
38937.867	1	1	0	0	0.17035	0.13211	0.18632	0.21314	0.27085	0.18532	0.20779	0.13165	0.24917	0.14845	0.042315	0.19124	0.10523	0.40739	0.13292	0.13158	-1.9167	-3	-2.3063	-2.6375	-3.0146	-2.2125	-3.1312	-2.8438	-2.2167	-2.9688	-2.5479	-2.5687	-3.1188	-2.2292	-2.75	-2.9813	43.158	-36.170	141.377	28.430	268.203	154.184	108.578	-67.923	143.785	-39.362	-30.680	39.175	-75.913	247.711	154.273	213.218	0.00020186	0.0031821	0.00060304	962.51	2.805e-05	1.8028e-05	707.93	331.71	3.6072e-06	2.8211e-05	245.99	79.927	116.77	42.061	1.4694e-05	31.155	0.092504	0.16757	0.046634	1464	0.0016264	0.0019237	1232.6	525.87	0.0016755	0.0019599	537.9	184.82	212.85	76.52	0.0018663	77.562	-74.825	-29.517	-28.472	-71.867	244.136	168.433	-73.497	-67.044	63.649	71.493	-69.861	-65.262	-62.547	-58.271	-39.870	-61.764	-8191	255	
38937.965	1	1	0	0	0.15364	0.38575	0.15665	0.19596	0.027953	0.23766	0.33217	0.12608	0.20967	0.16462	0.21324	0.28093	0.22982	0.071287	0.055143	0.072526	-1.9583	-2.9562	-2.5354	-2.6146	-3.0812	-2.3312	-2.8292	-2.9375	-2.1729	-3.0396	-2.6146	-2.4021	-3.1375	-2.3354	-2.6854	-3.0583	12.199	37.876	222.601	264.694	8.259	112.222	237.907	6.444	-48.400	-22.641	174.953	231.964	228.311	-31.834	263.156	91.883	0.00024163	0.0012695	0.00011617	966.87	4.9204e-05	9.9764e-06	717.29	334.97	2.1227e-05	2.6397e-05	245.89	80.151	117.04	41.924	2.4931e-05	30.75	0.10202	0.18719	0.052911	1547.8	0.0019002	0.0022726	1335.1	562.28	0.0019912	0.002331	591.08	203.77	229.39	81.363	0.0021372	83.302	54.434	265.863	8.573	-71.554	-22.629	154.688	-73.025	-66.975	3.384	2.514	-69.928	-65.699	-62.512	-58.252	50.586	-61.971	-8191	255	
38938.082	1	1	0	0	0.17914	0.23675	0.074154	0.21193	0.14442	0.051978	0.091482	0.14375	0.037062	0.062233	0.12837	0.13934	0.074318	0.1544	0.20822	0.25925	-1.825	-3.1292	-2.5479	-2.5458	-3.0667	-2.4604	-2.6312	-3.0833	-2.3438	-2.9146	-2.6937	-2.3896	-3.0875	-2.5125	-2.4375	-3.2687	-2.245	-29.228	232.360	247.479	-74.023	159.732	-62.550	104.853	251.863	116.869	-34.555	-52.643	251.798	-52.436	174.778	169.560	0.0004276	0.0020385	0.00057688	972.36	7.0256e-06	2.5965e-05	717.79	337.34	1.6785e-05	4.9125e-06	248.29	80.548	117.18	42.311	3.1539e-05	31.07	0.11452	0.20562	0.056805	1582.3	0.0019587	0.0023123	1343.7	568.02	0.0020477	0.0023847	600.35	207.63	234.21	83.364	0.0022294	85.918	265.161	170.338	177.269	-71.722	120.314	-42.750	-73.397	-67.013	-51.411	49.777	-69.750	-65.515	-62.608	-58.017	70.998	-61.841	-8191	255	
38938.180	1	1	0	0	0.068756	0.17859	0.039644	0.25046	0.26419	0.079687	0.1913	0.094376	0.068475	0.1112	0.16785	0.20364	0.12874	0.18517	0.31908	0.17938	-1.9333	-3.0062	-2.6479	-2.3229	-3.0292	-2.5958	-2.6354	-3.1146	-2.2604	-2.8604	-2.9667	-2.2583	-3.1312	-2.4958	-2.4417	-3.0812	153.243	170.737	-46.724	207.748	95.395	81.504	142.508	174.876	171.400	73.629	220.299	244.943	152.900	230.111	173.439	-76.122	6.4063e-05	0.0018476	0.00019476	968.05	3.1448e-05	2.8855e-05	716.07	334.64	4.6193e-06	2.0468e-05	247.22	78.963	116.02	42.067	3.655e-05	31.147	0.11986	0.21469	0.059101	1602.8	0.0020404	0.0023945	1357.2	567.91	0.0020217	0.0023361	589.75	202.8	228.93	81.751	0.0021383	83.837	-15.296	114.609	173.543	-72.013	49.290	1.252	-73.564	-66.970	88.328	-9.571	-70.065	-65.581	-62.499	-57.936	189.993	-61.555	-8191	255	
38938.250	1	1	0	0	0.3357	0.15171	0.22992	0.058654	0.054751	0.090352	0.076275	0.039404	0.18685	0.12484	0.095215	0.11239	0.3633	0.22864	0.24704	0.153	-1.8104	-2.7938	-2.9667	-2.2792	-3.075	-2.4958	-2.4	-3.325	-2.2083	-2.8563	-2.9542	-2.225	-3.1042	-2.6167	-2.2479	-3.2542	85.583	72.057	146.229	266.743	-8.308	193.467	11.865	167.958	51.084	81.940	-7.338	135.795	-16.635	189.327	217.731	156.553	0.00030441	0.0025579	0.00043979	966.02	1.6185e-05	2.2235e-05	719.57	334.1	1.3736e-05	1.3676e-05	247.33	78.975	116.12	42.176	1.4676e-05	30.903	0.11616	0.21096	0.058738	1606	0.0020617	0.0024353	1375.7	576.51	0.0021091	0.0024318	605.08	208.84	235.09	84.068	0.0022932	88.194	-21.729	35.680	31.367	-71.974	-75.975	61.503	-73.272	-66.610	8.537	192.263	-70.368	-65.361	-62.348	-58.033	-41.750	-61.567	-8191	255	
38938.371	1	1	0	0	0.15564	0.058284	0.069105	0.36516	0.14257	0.22789	0.10113	0.17651	0.10078	0.17444	0.1257	0.15481	0.24396	0.17197	0.27941	0.30019	-2.0479	-2.5417	-2.8937	-2.2979	-3.0458	-2.5583	-2.4521	-3.25	-2.2271	-2.6292	-3.0563	-2.5375	-2.9792	-2.8875	-2.2	-3.15	2.023	-27.048	-38.890	274.158	214.567	111.746	272.683	207.485	162.143	231.488	212.290	195.222	247.635	190.123	-48.700	-48.454	0.00025224	0.00063531	0.00048114	971.73	2.9217e-05	7.8836e-06	721.49	336.31	1.397e-05	1.9583e-05	249.63	79.964	116.42	41.966	2.5984e-05	31.186	0.12699	0.23107	0.064431	1672.8	0.002282	0.0026893	1444.4	600.62	0.0023046	0.0026639	641.38	221.5	245.72	87.51	0.0024741	92.542	159.176	121.353	2.385	-71.692	-29.693	39.520	-73.387	-66.961	-15.890	43.391	-70.423	-65.531	-62.205	-58.261	263.008	-61.555	-8191	255	
38938.469	1	1	0	0	0.30451	0.18596	0.1847	0.1841	0.34424	0.13889	0.30378	0.06335	0.22171	0.11227	0.11199	0.12705	0.17078	0.091234	0.04474	0.030498	-2.1771	-2.3833	-3.1104	-2.4708	-2.9625	-3.0125	-2.2833	-3.2875	-2.6104	-2.475	-3.0667	-2.2354	-3.0563	-3.125	-2.2	-3.2479	188.188	13.371	37.684	80.581	66.859	224.680	133.021	181.123	248.372	47.078	-42.751	143.565	262.056	113.819	130.128	-81.786	0.00034736	0.0014062	0.00059974	980.52	2.1334e-05	1.2066e-05	725.32	336.38	3.1626e-05	8.2181e-06	247.89	80.071	116.92	42.306	2.1256e-05	30.948	0.13524	0.24532	0.068258	1717.1	0.0023916	0.0028206	1485	616.69	0.0024364	0.0028086	660.47	227.93	251.6	89.467	0.0025733	94.373	-58.696	172.637	-48.455	-71.837	206.948	113.148	-73.390	-66.897	159.211	27.207	-70.423	-65.179	-62.428	-58.381	268.197	-61.796	-8191	255	
38938.562	1	1	0	0	0.25893	0.084115	0.16575	0.31776	0.086131	0.17669	0.33238	0.12762	0.28409	0.040586	0.23952	0.084479	0.35196	0.2488	0.24424	0.17756	-2.0938	-2.4437	-3.0708	-2.5062	-2.6688	-2.9167	-2.1813	-2.9271	-2.7375	-2.3083	-3.2833	-2.4938	-2.6396	-3.0979	-2.35	-3.0563	199.638	-81.803	95.063	178.557	-20.736	176.871	37.640	177.706	-21.409	-66.876	130.086	24.656	245.773	209.307	43.385	251.364	4.5519e-05	0.0022501	0.0006908	972.79	2.1505e-05	3.0113e-05	718.51	336.47	2.4322e-05	1.3724e-05	246.36	79.424	117.22	41.762	1.1485e-05	30.739	0.13862	0.24959	0.069138	1719.6	0.0024013	0.0028154	1477.4	612.89	0.0023969	0.0027597	654.41	225.22	248.2	87.914	0.0024861	91.742	215.516	-48.609	211.234	-71.922	56.649	52.468	-73.636	-66.858	27.811	58.039	-70.503	-65.618	-62.282	-58.603	190.841	-61.341	-8191	255	
38938.660	1	1	0	0	0.023518	0.12524	0.080464	0.10942	0.22734	0.1627	0.2808	0.18892	0.10307	0.27387	0.076771	0.059087	0.17796	0.18328	0.19952	0.069357	-2.4333	-2.2875	-3.1458	-2.6188	-2.5292	-2.8438	-2.3271	-2.8542	-2.7375	-2.425	-3.1937	-2.5333	-2.625	-3.0938	-2.3063	-2.7604	122.932	141.413	172.408	191.358	254.969	61.678	-50.854	260.995	191.062	196.511	173.633	-55.889	270.242	71.639	35.020	-68.481	0.00057978	0.0026459	0.00048255	970.38	1.2187e-05	4.6199e-06	717.85	334.44	8.8992e-06	2.7514e-05	247.23	80.463	116.07	42.684	1.546e-05	31.724	0.13197	0.23686	0.065493	1666.7	0.0022089	0.0025676	1402.7	585.04	0.0021577	0.0024865	612.57	210.66	235.34	84.331	0.0022808	87.788	-62.107	79.418	-21.763	-71.949	253.250	65.652	-73.110	-66.815	-21.864	73.043	-70.084	-64.960	-62.437	-58.109	47.408	-61.419	-8191	255	
38938.781	1	1	0	0	0.069995	0.26178	0.065316	0.10978	0.17392	0.28972	0.046145	0.30516	0.34283	0.26891	0.30933	0.069689	0.36822	0.092067	0.087836	0.22738	-2.4958	-2.1396	-3.0563	-2.6146	-2.3937	-3.0604	-2.45	-2.9292	-2.8333	-2.3271	-2.9188	-2.7	-2.3208	-3.1583	-2.3833	-2.7583	242.608	-69.352	130.304	139.003	95.647	158.019	228.707	267.510	-3.881	223.366	211.467	-1.641	250.471	242.923	135.036	205.269	0.00024048	0.0015365	0.00023059	962.83	3.4717e-05	2.2067e-05	721.96	336.42	2.327e-05	1.2469e-05	252.07	81.008	117.04	43.086	2.469e-05	32.089	0.12306	0.22323	0.062304	1637.4	0.0021661	0.002552	1409.3	593.12	0.0022544	0.002636	640.43	222	247.17	88.659	0.0024627	92.437	-83.783	235.997	134.926	-71.869	148.840	-10.886	-73.700	-66.885	111.262	-51.106	-69.730	-65.148	-62.632	-58.130	-9.427	-61.491	-8191	255	
38938.852	1	1	0	0	0.24742	0.26449	0.32239	0.1838	0.15351	0.12697	0.11618	0.3094	0.1293	0.17797	0.20825	0.25995	0.34548	0.30988	0.29487	0.30694	-2.5271	-2.2021	-2.9562	-2.8312	-2.1771	-3.1292	-2.5479	-2.8438	-2.7896	-2.2396	-2.8167	-2.5667	-2.5396	-3.3854	-2.3521	-2.675	264.709	42.804	-54.323	210.448	235.796	-12.891	138.123	260.983	186.199	-44.065	-32.992	246.734	-67.188	259.446	250.063	252.689	0.00017484	0.00090557	0.00064847	967.11	2.5128e-05	3.0997e-05	720.26	336.45	1.5506e-05	1.3234e-05	247.65	80.025	116.62	43.12	1.6734e-05	31.983	0.132	0.23703	0.065296	1662.8	0.0022327	0.0026327	1428.7	596.5	0.0022576	0.0026314	637.73	220.65	245.15	88.215	0.0024646	92.271	6.560	45.202	183.477	-71.847	233.151	168.062	-73.350	-66.802	-7.727	24.322	-69.805	-65.296	-62.029	-58.040	125.419	-61.960	-8191	255	
38938.949	1	1	0	0	0.16359	0.11014	0.11985	0.27516	0.33827	0.0437	0.36501	0.33112	0.18171	0.13186	0.035131	0.22182	0.022062	0.19827	0.03286	0.2219	-2.6167	-2.1667	-2.9708	-3.0146	-2.2521	-3.1146	-2.6104	-2.5438	-2.8458	-2.225	-3.0375	-2.7917	-2.3667	-3.1937	-2.4521	-2.3937	137.236	97.535	-19.052	240.345	161.180	83.997	212.102	259.822	-23.701	86.084	5.806	161.288	143.800	-73.759	258.477	145.781	0.00019283	0.0041689	0.00021786	965.79	3.011e-05	8.5665e-06	714.96	336.33	1.8477e-05	2.3143e-05	248.26	80.197	117.03	42.899	1.5646e-05	31.99	0.13157	0.23589	0.065174	1659.9	0.0022199	0.0025973	1410	588.11	0.0021901	0.0025326	620.62	213.72	237.46	85.317	0.00229	88.242	107.959	78.670	245.497	-71.922	-66.591	-67.764	-73.771	-66.717	199.058	194.703	-69.759	-65.521	-62.681	-58.040	-59.045	-61.363	-8191	255	
38939.043	1	1	0	0	0.1433	0.26374	0.13284	0.38189	0.27965	0.13725	0.27378	0.12435	0.11524	0.078269	0.1272	0.15765	0.13312	0.20031	0.341	0.121	-2.6542	-2.2542	-2.8542	-3.0938	-2.1875	-3.0792	-2.6583	-2.6104	-3	-2.1917	-2.6583	-2.9375	-2.3396	-3.0271	-2.4146	-2.4167	-65.907	207.824	147.476	180.868	0.375	56.520	215.390	231.671	248.992	254.388	198.410	273.713	-13.417	266.133	139.528	-38.693	0.00055542	0.00072587	0.00018793	964.57	1.3242e-05	5.9472e-06	715.54	336.31	2.9487e-05	3.5319e-05	248.44	80.768	117.67	43.145	5.6578e-05	32.129	0.12303	0.22271	0.061757	1622.5	0.0021241	0.0025155	1394.4	584.7	0.0021821	0.0025459	626.79	216.76	241.85	87.184	0.0023985	91.098	-16.901	106.558	258.444	-71.945	67.077	-48.216	-73.307	-66.664	95.709	171.271	-70.307	-65.520	-62.664	-58.264	155.656	-61.595	-8191	255	
38939.164	1	1	0	0	0.076496	0.055996	0.19076	0.10849	0.20001	0.21842	0.29988	0.33557	0.065905	0.24598	0.084757	0.26036	0.21017	0.26045	0.1679	0.27007	-2.8292	-2.1937	-2.6333	-3.1104	-2.1417	-2.9083	-2.8458	-2.4354	-3.1167	-2.3812	-2.7208	-3.1125	-2.1292	-2.9396	-2.8292	-2.4792	44.769	273.561	223.240	121.768	210.292	93.671	202.919	235.050	5.012	142.177	-9.414	216.092	248.393	239.368	-10.264	-37.766	9.3585e-05	0.0033416	0.00021661	973.67	2.6952e-05	1.4398e-05	729.59	336.22	7.8559e-06	2.1158e-05	250.47	80.343	117.98	42.708	8.5335e-06	31.45	0.13042	0.23717	0.065896	1681.8	0.0022918	0.0027104	1457	605.81	0.0023276	0.0026892	646.27	223.13	248.25	89.03	0.002525	93.957	-71.157	173.018	129.253	-72.030	150.820	-31.526	-73.640	-67.098	-60.208	100.974	-70.157	-65.131	-62.459	-58.227	256.752	-61.774	-8191	255	
38939.258	1	1	0	0	0.090176	0.18344	0.34115	0.071552	0.22945	0.17965	0.20002	0.090966	0.069058	0.15958	0.10512	0.072388	0.33358	0.20988	0.080361	0.09126	-2.6146	-2.5062	-2.3875	-3.2229	-2.2562	-2.7792	-2.9188	-2.425	-3.2208	-2.6083	-2.5396	-3.05	-2.3729	-2.8354	-3.0917	-2.5229	-50.953	44.288	-40.328	-35.940	27.979	8.351	163.556	236.567	178.579	31.882	-63.598	-7.966	234.265	273.335	108.512	189.983	0.00074577	0.0022336	0.00046875	977.38	3.7546e-05	2.977e-05	721.86	339.25	7.9145e-06	1.2371e-05	249.02	79.802	116.64	42.658	3.6669e-05	31.16	0.13846	0.25154	0.07007	1731.3	0.0024449	0.002885	1501.6	623.97	0.0024978	0.0029077	676.67	234.01	257.82	92.218	0.0027078	97.843	-63.983	-26.900	-36.834	-71.994	259.382	258.195	-73.986	-66.769	172.341	202.389	-69.451	-65.461	-62.737	-57.928	-83.654	-61.598	-8191	255	
38939.355	1	1	0	0	0.18834	0.26633	0.1487	0.35966	0.25095	0.10664	0.24241	0.45628	0.3077	0.17074	0.076342	0.15749	0.20424	0.27707	0.21807	0.17214	-2.6979	-2.4688	-2.3167	-3.3812	-2.1271	-2.9792	-3.1396	-2.2125	-3.1333	-2.5	-2.4792	-3.1708	-2.5	-2.7479	-3.2104	-2.2458	83.892	177.444	269.751	180.896	260.075	202.267	136.749	228.835	208.695	273.945	-52.013	-79.175	50.762	207.315	7.224	184.972	0.00026353	0.0014711	0.00078708	982.68	3.1386e-05	1.5431e-05	723.81	337.09	1.9645e-05	1.8498e-05	249.64	79.008	115.65	42.014	1.671e-05	30.767	0.14698	0.26531	0.073778	1775.5	0.0025828	0.0030554	1547.8	638.47	0.0026542	0.0030769	703.23	243.54	265.61	94.424	0.0028453	100.78	216.378	-45.419	82.931	-72.063	97.476	117.644	-73.572	-66.908	123.511	-3.425	-70.067	-65.183	-62.613	-58.088	-62.526	-61.023	-8191	255	
38939.453	1	1	0	0	0.28075	0.17837	0.19888	0.15431	0.12357	0.12735	0.13937	0.30231	0.25736	0.12693	0.075619	0.078813	0.11023	0.14696	0.11491	0.37027	-2.7604	-2.9542	-2.3625	-3.1	-2.4375	-2.5521	-3.2146	-2.4	-3.1396	-2.9	-2.4146	-3.2979	-2.5521	-2.7667	-3.0625	-2.2646	-24.977	211.193	129.134	202.329	140.509	4.904	185.738	258.009	254.267	230.698	10.046	258.208	93.678	113.778	60.254	232.727	0.0005462	0.0026273	0.00056581	982.66	2.7915e-05	1.8554e-05	726.56	336.81	1.5859e-05	1.9334e-05	250.09	79.871	116.57	42.648	2.8648e-05	30.94	0.15425	0.27812	0.076848	1808.2	0.0026737	0.0031321	1567.7	644.89	0.0026878	0.0030781	697.55	239.32	260.94	92.39	0.0027072	97.377	203.120	137.816	-65.520	-72.112	149.573	75.718	-73.944	-66.787	263.757	-50.577	-69.981	-65.303	-62.104	-57.937	131.085	-61.963	-8191	255	
38939.547	1	1	0	0	0.047949	0.017869	0.33533	0.18266	0.081705	0.30093	0.14133	0.08137	0.2797	0.079463	0.23234	0.067097	0.24222	0.13638	0.054323	0.23494	-2.4854	-2.8271	-2.2938	-3.3625	-2.4667	-2.5396	-3.1521	-2.4146	-2.9854	-2.8292	-2.1875	-3.0146	-2.8292	-2.675	-2.9688	-2.3438	222.078	92.103	69.425	-50.090	-68.094	-34.026	255.167	165.992	46.240	67.022	184.638	-80.572	190.444	225.322	-61.101	-22.211	0.00031252	0.00064832	0.00069569	981.21	5.3405e-05	1.524e-05	729.31	335.32	2.0267e-05	7.966e-06	249.82	80.856	117.2	42.706	9.9018e-06	31.536	0.1447	0.25894	0.071511	1746.8	0.0024733	0.0028902	1499.3	618.97	0.0024559	0.0028277	664.41	229.45	252.1	90.026	0.0025613	94.326	252.245	150.977	272.392	-71.894	251.619	88.964	-73.169	-66.869	91.198	131.641	-69.710	-65.265	-62.181	-57.860	206.586	-61.792	-8191	255	
38939.645	1	1	0	0	0.045547	0.13347	0.27343	0.17321	0.20619	0.1694	0.26164	0.22969	0.096841	0.24876	0.17902	0.093632	0.28124	0.11609	0.14803	0.27065	-2.1917	-2.9542	-2.0583	-3.0875	-2.6104	-2.2625	-3.2125	-2.5792	-2.7979	-2.9229	-2.4125	-3.1458	-2.6604	-2.3542	-3.1583	-2.45	23.583	36.469	92.417	268.451	143.269	-74.591	270.458	233.966	115.871	-61.909	-47.355	122.530	206.027	269.570	186.550	-51.945	0.00048012	0.0022069	0.00065305	975.61	3.8375e-06	3.1708e-05	721.42	335.04	5.0145e-06	1.8828e-05	246.85	79.128	116.32	42.927	2.3834e-05	31.375	0.13672	0.24471	0.067338	1692.6	0.0023007	0.0026873	1437.6	598.16	0.0022799	0.0026262	635.18	219.66	243.77	87.516	0.0024475	91.784	-62.182	-9.123	178.042	-71.526	178.127	102.531	-73.315	-66.833	157.219	-23.162	-69.876	-65.544	-63.000	-58.162	155.226	-61.114	-8191	255	
38939.766	1	1	0	0	0.25197	0.16005	0.19696	0.37225	0.2447	0.13511	0.12429	0.40583	0.067703	0.084975	0.084104	0.19002	0.23394	0.2609	0.089577	0.31778	-2.1625	-2.8417	-2.225	-3.1479	-2.8417	-2.2771	-3.2396	-2.4875	-2.6917	-3.2313	-2.3479	-2.8021	-2.8271	-2.2229	-3.0208	-2.5979	240.817	71.100	83.046	274.172	79.484	235.833	218.461	202.092	236.906	-16.193	18.786	-7.399	-65.204	-56.393	151.739	227.373	0.00021523	0.0011307	0.00087358	973.08	3.6381e-05	2.9313e-05	719.42	333.76	3.0529e-05	7.7304e-06	247.28	80.384	116.04	42.746	3.3018e-05	31.725	0.13209	0.23685	0.065721	1679.4	0.002268	0.0026585	1433.1	593.75	0.0022241	0.0025439	621.16	213.36	236.56	84.638	0.0022579	86.87	155.350	21.046	-36.135	-71.750	39.164	-80.461	-73.701	-67.177	221.370	85.779	-70.021	-65.770	-62.652	-58.043	269.357	-62.205	-8191	255	
38939.859	1	1	0	0	0.058086	0.16092	0.21856	0.25978	0.20937	0.3391	0.040251	0.12395	0.22778	0.28282	0.21112	0.098705	0.077915	0.27071	0.13041	0.10429	-2.0875	-3.0333	-2.2604	-3.0958	-2.8854	-2.2458	-3.1	-2.575	-2.4125	-3.1854	-2.3271	-2.9833	-2.7562	-2.2021	-3.0854	-2.75	-16.583	208.572	237.579	196.234	-32.621	2.327	-60.781	243.487	-25.897	0.433	141.182	273.279	-63.381	38.969	231.983	169.116	0.00025729	0.0012931	0.00036928	967.31	1.1861e-05	1.4899e-05	715.76	335.61	3.7057e-05	3.1467e-05	248.89	80.255	116.67	43.105	2.0948e-05	31.937	0.12009	0.21554	0.059314	1597.9	0.0020122	0.0023556	1348.8	565.61	0.001986	0.0022861	585.35	201.23	226.32	81.678	0.0020888	83.613	-38.734	163.406	255.104	-71.714	125.431	195.847	-73.439	-66.975	234.183	172.044	-69.785	-65.355	-62.351	-58.433	100.115	-61.693	-8191	255	
38939.953	1	1	0	0	0.09238	0.39358	0.11694	0.19696	0.063667	0.26543	0.2264	0.073149	0.097029	0.25467	0.073357	0.14377	0.10853	0.19938	0.17663	0.090445	-2.0083	-2.9729	-2.275	-2.6729	-3.0062	-2.4062	-3.1396	-2.8854	-2.2146	-3.2625	-2.3646	-2.6146	-3.1917	-2.3771	-2.9771	-2.9292	148.455	252.631	201.562	212.593	19.870	196.572	180.031	255.686	165.340	31.748	245.323	44.095	-74.488	193.790	238.210	-57.881	0.00022224	0.00050495	0.0005552	964.16	2.0181e-05	2.4924e-05	724.03	336.47	1.3327e-05	3.8393e-06	248.79	80.088	117.13	42.72	5.7405e-05	31.533	0.11276	0.20546	0.057454	1591.4	0.0020263	0.002421	1381.3	580.09	0.0021453	0.0025144	620.82	214.57	239.85	86.268	0.0023801	90.247	240.159	116.273	49.531	-71.694	52.350	175.126	-73.582	-67.229	-74.639	218.361	-69.665	-65.418	-62.265	-58.103	213.822	-61.771	-8191	255	
38940.055	1	1	0	0	0.32872	0.066956	0.19343	0.084357	0.1195	0.13958	0.19475	0.062288	0.11346	0.12195	0.15715	0.28707	0.26551	0.27128	0.050049	0.12783	-1.8854	-2.9542	-2.2562	-2.6042	-3.025	-2.3563	-3.0104	-2.8438	-2.2479	-3.0896	-2.4479	-2.525	-3.0167	-2.0687	-2.8583	-3.025	184.165	-40.188	166.540	239.765	-3.733	274.653	236.891	105.366	235.132	142.522	164.082	-35.722	223.318	-69.659	-83.663	-67.939	0.00060196	0.0043555	0.00068258	976.31	1.823e-05	9.2565e-06	720.72	337.09	2.1225e-05	2.2428e-05	248.99	79.153	116.25	42.1	2.2257e-05	31.118	0.1301	0.23649	0.065922	1685.3	0.0022999	0.0027328	1463.1	608.35	0.0023878	0.0027935	661.95	228.96	253.26	90.823	0.0026566	96.21	-20.982	19.347	-28.013	-71.937	238.703	184.269	-73.393	-66.957	74.684	200.376	-69.904	-65.438	-62.474	-58.861	65.563	-62.197	-8191	255	
38940.148	1	1	0	0	0.12152	0.40412	0.42133	0.25043	0.1257	0.05578	0.38324	0.10589	0.3021	0.23937	0.061095	0.24421	0.32417	0.26712	0.080547	0.10314	-1.9896	-3.0167	-2.4938	-2.7583	-3.2104	-2.2583	-2.7958	-2.9562	-2.2604	-3.0708	-2.6042	-2.4521	-3.1021	-2.2875	-2.7146	-2.8812	82.051	105.218	202.780	-71.091	104.590	274.361	222.944	75.936	113.393	237.396	262.860	273.116	13.450	180.199	-41.479	144.517	0.0003917	0.0015217	0.00035989	969.06	1.1066e-05	2.8938e-05	720.86	332.71	1.5662e-05	2.6734e-05	244.97	79.456	115.81	42.492	1.3866e-05	31.237	0.14288	0.25766	0.0708	1717	0.0023816	0.0027735	1453.8	599.15	0.0023014	0.0026479	631.2	216.64	239.88	86.078	0.0023467	88.67	160.981	-46.864	251.693	-71.733	218.676	86.260	-73.551	-66.991	-7.421	238.005	-70.047	-65.744	-62.408	-58.221	83.041	-61.529	-8191	255	
38940.242	1	1	0	0	0.16087	0.078619	0.076957	0.16395	0.058885	0.36775	0.24768	0.37703	0.1048	0.15844	0.10133	0.15083	0.21581	0.032589	0.11948	0.21085	-1.8771	-2.9479	-2.7104	-2.2354	-2.9917	-2.2875	-2.8	-3.2042	-2.2687	-2.9646	-2.875	-2.4042	-3.1354	-2.4125	-2.4229	-3.175	53.615	49.803	-28.379	108.674	230.896	48.041	221.954	219.423	98.082	152.712	90.542	-46.249	221.874	16.189	22.109	-84.076	0.00036809	0.0024867	0.00024628	967.54	3.8172e-05	1.0954e-05	716.45	332.98	1.1086e-05	7.4541e-06	247.58	78.397	116.02	42.395	2.5387e-05	31.266	0.12534	0.22668	0.062746	1638.5	0.002187	0.0025907	1414.7	588.68	0.0022352	0.0025887	626.33	216.54	241.91	86.952	0.0024282	91.233	-8.960	-64.013	108.659	-72.024	24.782	28.509	-73.309	-67.157	243.649	99.244	-70.248	-65.719	-62.390	-58.351	150.489	-61.293	-8191	255	
38940.340	1	1	0	0	0.13051	0.094665	0.26077	0.1266	0.23059	0.361	0.26007	0.16842	0.030625	0.32603	0.14033	0.1352	0.14906	0.099755	0.2066	0.3025	-1.7021	-2.8604	-2.7042	-2.3167	-3.1625	-2.5354	-2.7146	-3.375	-2.1021	-3	-3.0646	-2.2417	-3.2021	-2.5312	-2.4167	-2.9625	227.894	-26.104	67.220	-1.888	265.364	29.509	240.295	234.794	4.659	-35.142	206.755	190.508	104.434	67.116	36.943	93.339	0.00037529	0.00078052	0.0006506	967.2	7.4848e-06	2.869e-05	716.7	333.54	1.1811e-05	1.1438e-05	241.64	77.838	114.98	41.91	7.3452e-06	30.509	0.13347	0.24377	0.068004	1702.2	0.0023768	0.0028132	1472.5	610.64	0.0024151	0.0028018	655.18	226.57	251.29	89.63	0.0026068	94.089	-81.485	-82.505	-66.031	-71.953	163.200	29.221	-73.367	-66.962	175.578	230.463	-70.492	-65.557	-62.444	-58.086	-22.997	-61.614	-8191	255	
38940.438	1	1	0	0	0.15394	0.11142	0.16658	0.16636	0.22607	0.12063	0.14498	0.074476	0.19785	0.2185	0.36212	0.17798	0.29902	0.076839	0.2661	0.18349	-1.7875	-2.7792	-2.875	-2.3	-2.9875	-2.5625	-2.5896	-3.0833	-2.4271	-2.8667	-3.125	-2.0708	-3.0979	-2.725	-2.0771	-3.1083	127.781	246.771	53.589	142.384	-74.714	-26.668	4.526	130.148	268.626	211.571	182.473	-71.225	251.346	186.845	-24.042	229.456	0.00042302	0.00093756	0.00038069	974.84	1.8747e-05	9.9815e-06	707.67	331.82	2.9615e-05	4.0204e-05	242.22	77.058	113.99	41.823	2.0069e-05	30.893	0.1403	0.25341	0.070045	1717.8	0.0024002	0.0027739	1440.7	592.74	0.0022542	0.0025679	614.8	210.6	235.73	84.613	0.0023315	88.884	241.739	85.020	124.012	-71.769	-71.818	197.696	-73.707	-66.918	36.851	81.541	-69.929	-65.242	-62.294	-58.533	-49.555	-61.475	-8191	255	
38940.559	1	1	0	0	0.12616	0.14154	0.29093	0.2539	0.050852	0.23492	0.19492	0.15468	0.13	0.24765	0.3296	0.33906	0.22698	0.057113	0.064659	0.081794	-2.1417	-2.5104	-2.9	-2.3396	-2.9062	-2.6917	-2.3396	-3.1312	-2.3458	-2.5	-3.075	-2.2417	-2.9729	-2.9479	-2.2708	-2.9979	76.096	238.510	-26.429	192.815	-16.420	113.002	180.348	-74.629	-26.986	159.132	211.124	173.500	249.048	128.797	-9.112	-58.115	0.00033475	0.0024963	0.00048302	960.48	1.6766e-05	1.1645e-05	714.03	329.44	1.4277e-05	2.1789e-05	243.96	78.648	114.63	43.122	2.1497e-05	32.294	0.12912	0.23439	0.065641	1668	0.0023145	0.0027202	1446.8	598.74	0.0023302	0.0026599	630.58	216.83	240.2	87.009	0.0023842	90.823	228.469	-38.455	178.423	-72.112	140.723	91.017	-73.723	-67.016	9.056	151.383	-70.031	-65.328	-62.165	-58.069	268.935	-62.414	-8191	255	
38940.652	1	1	0	0	0.10065	0.23828	0.066929	0.35262	0.20451	0.18793	0.13958	0.21692	0.15061	0.049972	0.072813	0.096161	0.34732	0.15698	0.14236	0.091301	-2.1188	-2.4542	-2.9604	-2.425	-3.0187	-2.8396	-2.5125	-3.2792	-2.2979	-2.6937	-3.2458	-2.4833	-2.9188	-3.0479	-2.1875	-3.1667	110.533	201.402	-32.268	211.698	252.960	137.731	167.140	236.778	-14.780	218.617	-72.403	-22.697	200.169	263.977	88.561	173.903	0.00085776	0.00098811	0.00040988	949.44	6.0634e-05	3.808e-05	709.78	330.2	1.8277e-05	4.3577e-05	247.1	79.56	116.17	43.684	7.2102e-06	31.914	0.12864	0.23234	0.064679	1646	0.0022605	0.0026521	1422.3	590.99	0.0022624	0.0026181	632.46	220.02	243.95	88.983	0.0024819	93.438	-54.443	40.638	43.633	-71.897	107.056	261.688	-73.523	-66.708	126.787	32.468	-69.711	-64.941	-62.497	-58.279	-3.562	-62.315	-8191	255	
38940.723	1	1	0	0	0.21991	0.17696	0.20323	0.32069	0.29255	0.23674	0.17921	0.05574	0.15667	0.1529	0.16175	0.24893	0.18864	0.38502	0.34653	0.072612	-2.1625	-2.2521	-3.0729	-2.3812	-2.8125	-2.9854	-2.1667	-3.1458	-2.4979	-2.3479	-3.325	-2.5792	-2.6333	-3.0542	-2.2583	-2.8771	180.274	104.948	-26.183	220.550	-30.272	117.901	247.132	208.546	156.305	117.534	79.572	-65.540	49.378	237.847	-10.669	65.547	0.00022472	0.0020855	0.0003345	948.81	3.5572e-05	4.4269e-05	705.33	328.88	2.4566e-06	1.4062e-05	245.29	79.623	115.51	43.54	1.4908e-05	32.331	0.13516	0.24396	0.067654	1673.6	0.0023356	0.002741	1445.2	601.39	0.0023626	0.0027348	650.28	225.76	248.5	90.364	0.0025524	95.186	19.603	212.394	-65.710	-71.825	87.256	129.372	-73.741	-67.040	146.992	50.029	-69.920	-65.517	-62.595	-58.253	48.518	-61.329	-8191	255	
38940.844	1	1	0	0	0.036009	0.12017	0.23991	0.13824	0.30742	0.21437	0.068903	0.16907	0.30132	0.35193	0.24427	0.16022	0.082499	0.27287	0.19275	0.12681	-2.2729	-2.3563	-3.1312	-2.375	-2.4875	-3.0062	-2.4562	-3.1146	-2.8563	-2.2583	-3.0479	-2.4083	-2.6021	-3.2125	-2.3333	-2.7333	110.902	66.166	39.983	82.278	159.728	179.189	120.535	273.235	-80.829	180.459	191.236	6.541	-20.368	190.438	247.839	199.568	0.00057513	0.0029828	0.00039555	953.03	3.3421e-05	2.538e-05	709.25	329.66	2.3012e-05	4.2497e-05	246.14	79.29	114.72	43.294	4.397e-05	31.674	0.13816	0.24947	0.06919	1693.3	0.0023947	0.0028114	1467.2	607.65	0.0024185	0.0027974	659.45	228.72	251.4	91.328	0.0026279	96.815	244.308	-31.466	-2.984	-71.762	156.582	-44.866	-73.990	-66.980	-10.848	235.291	-69.470	-65.888	-62.332	-58.650	28.806	-61.616	-8191	255	
38940.941	1	1	0	0	0.1847	0.097455	0.046495	0.12036	0.042299	0.27573	0.30584	0.18508	0.30182	0.092978	0.17695	0.14248	0.13939	0.18232	0.089858	0.23711	-2.3979	-2.0854	-3.2062	-2.7	-2.5438	-3.075	-2.3417	-2.9958	-2.8771	-2.1417	-3.2104	-2.5521	-2.3771	-3.0229	-2.1708	-2.8063	106.143	191.673	131.610	47.418	1.434	210.152	163.180	244.426	194.865	40.572	52.496	164.330	234.093	271.076	-5.443	259.564	0.00048961	0.00059646	0.00062059	955.11	2.2883e-05	9.3506e-06	715.86	333.11	1.5626e-05	9.591e-06	247.33	79.378	116.55	43.504	7.8546e-06	32.051	0.14228	0.2569	0.071556	1720.2	0.0024805	0.0029326	1502.7	620.46	0.0025026	0.0028869	671.56	231.08	252.73	91.185	0.0025834	95.215	5.392	101.878	-38.091	-72.389	-8.128	155.824	-73.538	-67.081	144.543	142.663	-69.673	-65.519	-62.283	-58.465	261.401	-61.251	-8191	255	
38941.035	1	1	0	0	0.2291	0.055575	0.19616	0.17789	0.1735	0.25714	0.11531	0.10299	0.093088	0.14785	0.24514	0.091593	0.12773	0.070207	0.16947	0.2079	-2.5875	-2.1688	-2.9083	-2.9062	-2.2812	-3.1937	-2.6063	-2.8604	-2.8771	-2.2292	-2.9417	-2.5708	-2.3646	-3.2417	-2.5354	-2.6417	258.952	103.285	16.260	141.211	-36.993	46.162	190.835	236.446	57.107	54.124	211.619	58.497	101.273	-0.931	129.575	191.412	0.0004738	0.0034596	0.00019164	959.53	1.4353e-05	1.2568e-05	710.99	333.32	2.0966e-05	1.7602e-05	247.46	79.97	116.89	43.756	1.5559e-05	32.313	0.13757	0.24789	0.068614	1688.5	0.0023649	0.0028023	1470.7	611.45	0.0024297	0.0028289	664.83	229.02	251.86	91.337	0.0025757	94.855	-37.505	57.777	262.849	-72.084	44.308	-5.166	-73.572	-67.016	157.013	194.230	-69.674	-65.722	-62.385	-58.219	56.916	-61.971	-8191	255	
38941.133	1	1	0	0	0.2852	0.11717	0.13564	0.11359	0.13302	0.27273	0.1113	0.070249	0.0093733	0.27499	0.16007	0.19821	0.18716	0.24842	0.16967	0.070301	-2.6063	-2.3083	-2.9625	-2.9896	-2.1979	-3.0854	-2.4792	-2.5333	-3.1979	-2.3208	-3.0583	-2.9	-2.2271	-3.1979	-2.5042	-2.6354	49.452	-72.212	-39.118	-59.208	102.302	83.821	-83.619	-73.685	158.709	46.444	167.594	50.717	121.931	-69.563	125.693	163.213	0.00030928	0.00072722	0.00056926	952	3.4561e-05	1.6692e-05	708.49	332.88	5.3132e-05	5.8652e-06	244.35	78.326	115.9	43.123	1.2545e-05	31.517	0.13663	0.24628	0.068233	1684.3	0.0023565	0.0027943	1463.3	610.32	0.0024393	0.002848	669.19	231.77	255.82	92.657	0.0027132	97.933	144.036	0.604	90.713	-71.815	63.458	-29.077	-73.427	-66.783	231.071	-9.305	-69.866	-65.676	-62.398	-58.217	232.147	-61.387	-8191	255	
38941.254	1	1	0	0	0.12088	0.15596	0.14739	0.30996	0.10084	0.026724	0.21793	0.12715	0.05114	0.20235	0.26693	0.096216	0.27761	0.22176	0.24116	0.21009	-2.8042	-2.2729	-2.8958	-3.0521	-2.1021	-3.0354	-2.4208	-2.6125	-3.0208	-2.2854	-2.9417	-3.0292	-2.3563	-3.2354	-2.6708	-2.4104	197.853	151.202	215.719	231.553	214.620	239.363	220.385	-26.306	258.275	273.705	247.873	-81.905	163.000	-57.890	182.696	203.305	0.000222	0.0020974	0.00079661	963.81	1.8192e-05	1.5761e-05	713.63	333.41	1.0159e-05	2.258e-05	247.47	78.558	115.46	42.881	3.7444e-06	31.386	0.14611	0.26558	0.073727	1749.3	0.0025373	0.0029993	1519.7	627.33	0.0025637	0.002963	681.68	234.96	257.21	92.691	0.0026933	97.111	-15.424	183.607	92.457	-71.624	-77.978	95.658	-73.611	-66.900	78.967	147.859	-69.901	-65.166	-62.543	-58.165	94.152	-61.468	-8191	255	
38941.348	1	1	0	0	0.070222	0.15042	0.14462	0.13634	0.13773	0.047306	0.072243	0.4901	0.094278	0.25361	0.13427	0.054099	0.22975	0.16428	0.027674	0.19671	-2.7812	-2.0938	-2.6854	-3.2083	-2.1875	-2.9292	-2.8021	-2.4958	-3.0938	-2.4542	-2.7979	-3.05	-2.2708	-2.9667	-2.8042	-2.3688	90.634	28.448	213.242	235.051	230.006	181.875	244.706	234.443	-54.709	-22.251	-67.654	-34.994	141.820	63.457	126.706	190.242	0.00026756	0.0026727	0.00012384	959.9	7.6346e-06	1.6662e-05	713.25	334.55	1.9733e-05	9.0967e-06	248.19	78.916	115.91	42.737	2.634e-05	31.325	0.14412	0.26004	0.072098	1732.5	0.0024889	0.0029352	1501.8	621.81	0.0025279	0.0029367	679.17	234.97	258.92	93.623	0.0027725	99.737	-60.875	138.790	76.981	-72.100	-8.221	-27.318	-73.261	-67.183	-77.393	269.356	-70.138	-64.952	-62.668	-58.115	-30.013	-61.707	-8191	255	
38941.445	1	1	0	0	0.13354	0.077631	0.021707	0.28342	0.24303	0.13657	0.23291	0.086546	0.23053	0.12617	0.14423	0.1708	0.035422	0.2151	0.16694	0.10932	-2.7938	-2.4854	-2.5062	-3.2292	-2.15	-3.0354	-2.8438	-2.3167	-3.1417	-2.5333	-2.6708	-3.0333	-2.2708	-2.7979	-2.9854	-2.1	79.827	130.028	-80.831	238.653	78.037	108.209	197.493	-2.595	254.088	9.883	122.105	112.040	254.170	269.455	170.003	121.945	0.00030855	0.003627	0.00054775	969.36	2.2649e-05	2.6409e-05	715.1	334.87	1.4978e-05	1.8159e-05	250.32	78.88	115.64	42.562	2.1269e-05	30.783	0.15092	0.27454	0.076431	1791.6	0.0026865	0.0031976	1579.2	651.48	0.0027803	0.0032147	719.23	247.75	269.09	96.05	0.0028794	101.2	271.477	-27.825	-13.581	-72.150	41.980	101.474	-73.827	-66.657	89.885	217.347	-70.083	-64.683	-62.187	-57.913	-39.680	-61.622	-8191	255	
38941.539	1	1	0	0	0.071973	0.30231	0.25859	0.18542	0.106	0.2493	0.12848	0.23907	0.090524	0.073039	0.32372	0.20604	0.24463	0.1624	0.25144	0.25668	-2.7333	-2.4396	-2.1979	-3.1979	-2.2167	-2.7229	-2.9062	-2.4021	-3.0083	-2.6188	-2.3083	-3.0938	-2.3563	-2.7104	-2.95	-2.3875	144.917	211.012	102.163	180.983	-64.203	-64.562	268.821	142.123	-52.598	223.807	273.628	-37.475	-73.505	238.040	233.016	195.012	0.00020607	0.0013732	0.0011944	970.51	6.968e-06	4.0425e-05	714	332.27	1.6124e-05	2.9125e-05	245.32	78.802	115.07	42.6	4.0861e-05	30.959	0.15467	0.27755	0.076388	1779.7	0.0026363	0.0031007	1547.8	639.29	0.0026821	0.0030916	700.13	241.54	263.66	94.33	0.0028241	100.2	198.415	-80.275	-26.251	-71.759	71.839	-36.036	-73.670	-67.167	204.705	126.803	-70.487	-65.505	-62.636	-58.161	88.386	-62.115	-8191	255	
#DATA ENDS
