BOXY.EXE: ISS Imagent and Oximeter Data Acquisition Program Version 0.80
Ascii Record File

#ACQ INFORMATION
2  Detector Channels 
16  External MUX Channels 
1  Auxiliary Channels 
5000  Waveform (CCF) Frequency (Hz)
1  Waveforms Skipped 
30  Waveforms Averaged 
1  Cycles Averaged 
16  Acquisitions per Waveform 
10.0806  Updata Rate (Hz) 

#FILE INFORMATION
TRUE -- External MUX Channel results are PARSED.
FALSE -- AC DC and Phase are NOT grouped.
TRUE -- Companion Program Settings File CREATED.
FALSE -- AC data not excluded
FALSE -- DC data not excluded
FALSE -- Phase data not excluded
FALSE -- Auxillary Chn. data not excluded
Tab delimiters

#CALIBRATION STATE
TRUE -- Waveform Calibration Values APPLIED.


#AUX CALIBRATION VALUES
Val Type	aux-1	

Term	1.0000e+00	
Factor	0.0000e+00	


#WF CALIBRATION VALUES
A = Detector Channel
Val Type	A-AC1	A-AC2	A-AC3	A-AC4	A-AC5	A-AC6	A-AC7	A-AC8	A-AC9	A-AC10	A-AC11	A-AC12	A-AC13	A-AC14	A-AC15	A-AC16	A-DC1	A-DC2	A-DC3	A-DC4	A-DC5	A-DC6	A-DC7	A-DC8	A-DC9	A-DC10	A-DC11	A-DC12	A-DC13	A-DC14	A-DC15	A-DC16	A-Ph1	A-Ph2	A-Ph3	A-Ph4	A-Ph5	A-Ph6	A-Ph7	A-Ph8	A-Ph9	A-Ph10	A-Ph11	A-Ph12	A-Ph13	A-Ph14	A-Ph15	A-Ph16	

Term	0.00000e+00	0.00000e+00	0.00000e+00	0.00000e+00	0.00000e+00	0.00000e+00	0.00000e+00	0.00000e+00	0.00000e+00	0.00000e+00	0.00000e+00	0.00000e+00	0.00000e+00	0.00000e+00	0.00000e+00	0.00000e+00	0.00000e+00	0.00000e+00	0.00000e+00	0.00000e+00	0.00000e+00	0.00000e+00	0.00000e+00	0.00000e+00	0.00000e+00	0.00000e+00	0.00000e+00	0.00000e+00	0.00000e+00	0.00000e+00	0.00000e+00	0.00000e+00	0.00000e+00	0.00000e+00	0.00000e+00	0.00000e+00	0.00000e+00	0.00000e+00	0.00000e+00	0.00000e+00	0.00000e+00	0.00000e+00	0.00000e+00	0.00000e+00	0.00000e+00	0.00000e+00	0.00000e+00	0.00000e+00	
Factor	1.00000e+00	1.00000e+00	1.00000e+00	1.00000e+00	1.00000e+00	1.00000e+00	1.00000e+00	1.00000e+00	1.00000e+00	1.00000e+00	1.00000e+00	1.00000e+00	1.00000e+00	1.00000e+00	1.00000e+00	1.00000e+00	1.00000e+00	1.00000e+00	1.00000e+00	1.00000e+00	1.00000e+00	1.00000e+00	1.00000e+00	1.00000e+00	1.00000e+00	1.00000e+00	1.00000e+00	1.00000e+00	1.00000e+00	1.00000e+00	1.00000e+00	1.00000e+00	X	X	X	X	X	X	X	X	X	X	X	X	X	X	X	X	

B = Detector Channel
Val Type	B-AC1	B-AC2	B-AC3	B-AC4	B-AC5	B-AC6	B-AC7	B-AC8	B-AC9	B-AC10	B-AC11	B-AC12	B-AC13	B-AC14	B-AC15	B-AC16	B-DC1	B-DC2	B-DC3	B-DC4	B-DC5	B-DC6	B-DC7	B-DC8	B-DC9	B-DC10	B-DC11	B-DC12	B-DC13	B-DC14	B-DC15	B-DC16	B-Ph1	B-Ph2	B-Ph3	B-Ph4	B-Ph5	B-Ph6	B-Ph7	B-Ph8	B-Ph9	B-Ph10	B-Ph11	B-Ph12	B-Ph13	B-Ph14	B-Ph15	B-Ph16	

Term	0.00000e+00	0.00000e+00	0.00000e+00	0.00000e+00	0.00000e+00	0.00000e+00	0.00000e+00	0.00000e+00	0.00000e+00	0.00000e+00	0.00000e+00	0.00000e+00	0.00000e+00	0.00000e+00	0.00000e+00	0.00000e+00	0.00000e+00	0.00000e+00	0.00000e+00	0.00000e+00	0.00000e+00	0.00000e+00	0.00000e+00	0.00000e+00	0.00000e+00	0.00000e+00	0.00000e+00	0.00000e+00	0.00000e+00	0.00000e+00	0.00000e+00	0.00000e+00	2.93197e+01	-1.46832e+02	-1.39121e+02	-1.81086e+02	-9.40388e+01	-8.26987e+01	-1.58451e+02	-1.62015e+02	-4.88284e+01	-7.25510e+01	-1.70463e+02	-1.70388e+02	-1.82301e+02	-1.76731e+02	-5.84013e+01	-1.49945e+02	
Factor	5.48794e-05	1.85628e-04	4.36060e-05	1.70858e-01	1.72188e-06	1.61827e-06	1.82640e-01	6.30764e-02	2.27960e-06	1.44727e-06	1.00929e-01	3.45204e-02	2.99637e-02	1.05836e-02	1.66694e-06	1.51637e-02	2.09266e-06	2.19092e-06	6.07507e-07	8.53818e-02	2.38634e-08	2.39635e-08	8.56573e-02	3.13960e-02	2.38440e-08	2.39852e-08	4.84051e-02	1.65146e-02	1.48863e-02	5.27694e-03	2.38470e-08	7.29755e-03	X	X	X	X	X	X	X	X	X	X	X	X	X	X	X	X	



#DISTANCE SETTINGS
A = Detector Channel
A-1	A-2	A-3	A-4	A-5	A-6	A-7	A-8	A-9	A-10	A-11	A-12	A-13	A-14	A-15	A-16	

2.5000e+00	3.0000e+00	2.5000e+00	3.0000e+00	2.0000e+00	3.0000e+00	1.5000e+00	3.0000e+00	3.0000e+00	3.0000e+00	3.0000e+00	3.0000e+00	3.0000e+00	3.0000e+00	1.5000e+00	3.0000e+00	

B = Detector Channel
B-1	B-2	B-3	B-4	B-5	B-6	B-7	B-8	B-9	B-10	B-11	B-12	B-13	B-14	B-15	B-16	

1.0000e+01	1.0000e+01	1.0000e+01	1.4400e+00	1.0000e+01	1.0000e+01	1.5100e+00	1.9400e+00	1.0000e+01	1.0000e+01	1.9900e+00	2.4900e+00	2.4100e+00	2.9000e+00	1.0000e+01	2.9800e+00	




#DATA BEGINS
time	group	step	mark	flag	A-AC1	A-AC2	A-AC3	A-AC4	A-AC5	A-AC6	A-AC7	A-AC8	A-AC9	A-AC10	A-AC11	A-AC12	A-AC13	A-AC14	A-AC15	A-AC16	A-DC1	A-DC2	A-DC3	A-DC4	A-DC5	A-DC6	A-DC7	A-DC8	A-DC9	A-DC10	A-DC11	A-DC12	A-DC13	A-DC14	A-DC15	A-DC16	A-Ph1	A-Ph2	A-Ph3	A-Ph4	A-Ph5	A-Ph6	A-Ph7	A-Ph8	A-Ph9	A-Ph10	A-Ph11	A-Ph12	A-Ph13	A-Ph14	A-Ph15	A-Ph16	B-AC1	B-AC2	B-AC3	B-AC4	B-AC5	B-AC6	B-AC7	B-AC8	B-AC9	B-AC10	B-AC11	B-AC12	B-AC13	B-AC14	B-AC15	B-AC16	B-DC1	B-DC2	B-DC3	B-DC4	B-DC5	B-DC6	B-DC7	B-DC8	B-DC9	B-DC10	B-DC11	B-DC12	B-DC13	B-DC14	B-DC15	B-DC16	B-Ph1	B-Ph2	B-Ph3	B-Ph4	B-Ph5	B-Ph6	B-Ph7	B-Ph8	B-Ph9	B-Ph10	B-Ph11	B-Ph12	B-Ph13	B-Ph14	B-Ph15	B-Ph16	aux-1	digaux	

3681.603	1	1	0	768	0.088916	0.22392	0.13346	0.17155	0.12659	0.068128	0.13528	0.13108	0.12302	0.06418	0.19437	0.16015	0.19941	0.14546	0.2751	0.066524	-2.5875	-3.1813	-2.3604	-3.2812	-3.0917	-2.775	-3.5104	-2.8812	-3.0062	-3.4521	-2.6583	-3.3208	-3.3	-2.8271	-3.4479	-2.9417	105.134	46.009	145.966	-76.994	-74.836	-63.043	193.729	-67.055	1.910	67.914	129.796	191.421	-30.827	-4.287	-60.758	-96.524	0.00085599	0.00081733	5.7212e-05	532.37	8.1077e-06	6.718e-06	498.42	249.84	4.4238e-06	5.5047e-06	250.41	123.92	124.87	73.259	6.253e-07	67.453	0.0015426	0.0015075	0.00043003	629.9	1.718e-05	1.6239e-05	587.98	288.65	1.7075e-05	1.6459e-05	297.77	142.59	142.88	81.749	1.7759e-05	76.902	-1.963	-101.161	-64.307	-96.002	29.583	4.108	-98.215	-90.350	72.298	-35.848	-93.535	-89.926	-87.125	-82.487	-79.376	-87.742	-8191	255	
3681.699	1	1	0	0	0.0071179	0.21693	0.1774	0.20955	0.057161	0.17885	0.055982	0.2671	0.078229	0.14665	0.18588	0.1721	0.43436	0.21047	0.064164	0.26736	-2.2667	-3.3625	-2.775	-3.4042	-3.375	-2.5708	-3.5563	-2.9646	-2.5729	-3.4583	-2.625	-3.1771	-3.2687	-2.6917	-3.2208	-3.1333	232.086	29.799	127.541	237.509	241.143	78.774	60.882	209.647	-65.157	-87.446	62.558	-42.027	214.293	248.729	109.081	116.154	0.00096384	0.00030405	0.00011155	533.87	5.0866e-06	5.2259e-06	500.2	249.41	4.5377e-06	2.3593e-06	252.06	124.47	125.6	73.597	2.9924e-06	68.104	0.00152	0.0015043	0.00045818	629.97	1.7094e-05	1.6302e-05	593.29	288.47	1.6928e-05	1.6737e-05	301.9	143.01	143.42	82.144	1.9174e-05	77.274	-7.466	-87.949	184.152	-96.047	-12.492	1.878	-97.946	-90.415	18.386	203.225	-93.801	-90.009	-87.054	-82.637	-42.171	-87.656	-8191	255	
3681.795	1	1	0	0	0.17804	0.12098	0.13082	0.13043	0.11897	0.10106	0.086441	0.35033	0.017757	0.12682	0.24649	0.23178	0.26686	0.23894	0.080663	0.13469	-2.4104	-3.45	-2.5187	-3.0938	-3.3667	-2.6375	-3.1271	-2.8917	-2.8042	-3.4646	-2.7979	-3.2062	-3.5271	-2.7792	-3.2521	-3.1292	-93.236	174.140	157.875	175.474	-74.068	104.782	-87.784	207.929	66.428	12.366	112.025	-52.387	206.604	208.142	160.371	227.830	0.00072361	0.00030858	7.3094e-05	535.01	1.3552e-05	3.6795e-06	500.88	250.98	1.12e-05	2.4971e-06	250.91	124.24	125.93	73.082	8.7573e-06	67.461	0.0015459	0.0015995	0.00049642	631.39	1.7555e-05	1.7665e-05	598.08	289.86	1.7305e-05	1.8166e-05	303.8	143.31	144.11	82.137	1.9901e-05	76.689	7.154	-65.772	-70.084	-96.092	31.749	-97.816	-98.131	-90.152	46.533	111.303	-93.644	-90.169	-87.287	-82.778	43.337	-87.741	-8191	255	
3681.891	1	1	0	0	0.1424	0.18414	0.14322	0.23669	0.0031624	0.25397	0.23152	0.034696	0.15141	0.048413	0.28113	0.24477	0.094897	0.32875	0.14961	0.097124	-2.2917	-3.2271	-2.5396	-2.9	-3.1792	-2.4208	-3.1667	-3.1312	-2.6042	-3.4771	-2.9562	-2.9625	-3.6333	-2.7604	-3.3063	-3.3187	122.153	-83.547	6.940	229.104	234.207	211.302	244.728	-33.927	233.189	59.052	237.187	240.453	124.397	114.240	25.391	2.839	0.0010512	0.00078864	0.00022885	531.73	8.4403e-06	1.4772e-06	498.79	249.73	7.8151e-06	1.1601e-06	251.76	123.96	125.91	72.87	6.6676e-06	67.502	0.001562	0.0017368	0.00051048	630.04	1.7757e-05	1.914e-05	598.36	289.97	1.7349e-05	1.9475e-05	304.69	142.98	144.03	82.198	1.9638e-05	76.625	0.688	113.963	-47.485	-96.430	41.517	162.109	-98.172	-90.372	51.743	-54.152	-93.805	-90.038	-87.338	-82.688	45.476	-87.526	-8191	255	
3681.988	1	1	0	0	0.25633	0.24806	0.16311	0.017614	0.15774	0.28784	0.065651	0.44403	0.074078	0.27376	0.10664	0.17183	0.22555	0.22504	0.32106	0.19575	-2.2687	-3.4375	-2.8021	-2.7313	-3.45	-2.5729	-3.2958	-3.3438	-2.7646	-3.4	-2.9938	-2.8229	-3.2396	-2.7229	-3.2375	-3.5292	168.831	98.352	135.911	-72.758	-36.735	172.474	176.501	170.710	76.507	-7.077	-26.495	235.106	-82.090	241.711	64.882	241.282	0.0010855	0.00032674	0.00023738	532.35	6.0192e-06	6.4479e-06	499.48	250.22	6.3313e-07	5.58e-06	252.56	125.08	125.64	73.219	5.4399e-06	67.773	0.0015725	0.0018291	0.00049964	627.93	1.783e-05	2.0069e-05	597.85	289.44	1.766e-05	2.0176e-05	303.82	143.37	144.23	82.667	1.8966e-05	76.984	-4.445	52.911	0.078	-96.226	-13.748	195.887	-97.997	-90.664	-53.366	51.244	-93.750	-90.194	-87.445	-82.762	-50.724	-87.821	-8191	255	
3682.084	1	1	0	0	0.035675	0.30421	0.12478	0.19124	0.12308	0.28684	0.25648	0.11058	0.1074	0.21811	0.054107	0.48001	0.11161	0.07475	0.11743	0.22373	-2.2479	-3.4583	-3.0563	-2.5875	-3.3063	-2.5292	-2.9604	-3.4833	-2.6583	-3.3896	-3.2708	-2.7625	-3.2812	-2.6729	-2.775	-3.6	151.519	-63.966	46.104	30.372	92.656	136.702	-50.781	124.881	-106.818	179.448	163.809	-101.374	199.599	169.667	68.574	183.615	0.0011553	0.00099373	0.00041876	533.26	6.8078e-06	5.4983e-06	502.69	250.24	8.2328e-06	8.5195e-06	251.97	123.81	124.77	73.057	4.0694e-06	67.38	0.0016238	0.0018524	0.00048201	626.98	1.8463e-05	2.0268e-05	596.54	288.67	1.8432e-05	1.9966e-05	301.75	142.39	144.14	82.273	1.8208e-05	76.386	-13.549	-35.435	-21.586	-96.223	221.187	-60.496	-98.204	-90.341	45.729	35.436	-93.832	-90.109	-87.140	-82.768	52.396	-87.555	-8191	255	
3682.203	1	1	0	0	0.074835	0.059986	0.15813	0.35723	0.16657	0.11674	0.017515	0.096106	0.24269	0.11828	0.21383	0.11871	0.023309	0.1469	0.067731	0.1702	-2.3271	-3.2854	-3.1458	-2.4354	-3.3312	-2.725	-2.725	-3.5479	-2.6729	-3.1771	-3.2542	-2.5875	-3.1896	-2.9313	-2.6708	-3.5354	-35.051	-94.740	107.818	241.504	68.737	60.823	-4.552	142.507	149.745	-103.485	173.584	173.111	198.372	191.365	1.582	-1.536	0.00095956	0.00071842	0.00028261	530.03	4.924e-06	1.0515e-05	500.35	248.23	7.6178e-06	8.4714e-06	250.85	124.07	125.17	73.159	2.1233e-06	67.434	0.0017008	0.0018158	0.00046748	624.49	1.9393e-05	1.9789e-05	592.02	287.27	1.952e-05	1.9519e-05	300.61	142.04	144.7	82.285	1.7958e-05	76.617	-10.939	-33.044	-63.945	-96.103	203.543	21.333	-98.222	-90.334	195.886	26.612	-93.774	-89.993	-87.228	-82.926	-18.503	-87.643	-8191	255	
3682.299	1	1	0	0	0.14563	0.099378	0.2852	0.18033	0.14738	0.21897	0.13258	0.11312	0.20249	0.12259	0.12897	0.13544	0.10594	0.14015	0.15199	0.1099	-2.4729	-3.0062	-3.2479	-2.6312	-3.3208	-3.0417	-2.7979	-3.3583	-2.6667	-2.7812	-3.2104	-2.3917	-3.475	-3.2604	-2.6562	-3.5875	189.914	-68.020	-7.109	221.079	240.652	155.623	171.589	162.461	78.855	-47.224	155.460	-78.790	111.937	-23.596	-17.046	118.247	0.0012125	0.0013855	0.00034202	531.76	7.2367e-06	9.5447e-06	498.85	250.05	6.8105e-06	7.1204e-06	252.64	124.66	125.65	73.3	1.4037e-05	68.061	0.0017905	0.0017651	0.00046487	627.53	2.02e-05	1.9281e-05	592.04	289.08	2.0289e-05	1.9052e-05	301.57	143.75	145.54	82.359	1.7662e-05	77.425	-2.382	-13.316	-25.778	-96.355	-16.606	40.383	-98.184	-90.524	113.051	39.222	-93.606	-90.177	-87.024	-82.795	55.205	-87.621	-8191	255	
3682.395	1	1	0	0	0.066854	0.14258	0.032197	0.14631	0.093841	0.13873	0.14179	0.1789	0.044511	0.080383	0.1192	0.26352	0.21255	0.10067	0.19232	0.31546	-2.2896	-2.6833	-3.425	-2.6083	-3.2854	-3.15	-2.6208	-3.7021	-2.7646	-2.8854	-3.5	-2.7208	-3.3167	-3.3125	-2.5187	-3.5042	20.840	-4.583	239.773	227.763	94.390	-21.555	60.711	192.566	-53.774	152.156	176.935	197.660	-62.769	245.012	9.290	193.434	0.00087949	0.0013894	0.00020217	530.75	1.0055e-05	4.1881e-06	501.32	249.29	7.9712e-06	6.8611e-06	252.93	124.57	125.45	73.317	4.3739e-06	68.11	0.0018169	0.001703	0.00045342	631.71	2.0073e-05	1.8799e-05	592.81	290.57	2.0106e-05	1.8519e-05	300.89	144.4	145.3	82.413	1.7366e-05	77.587	-6.802	-67.072	-42.329	-96.253	32.399	1.971	-98.162	-90.265	40.430	54.197	-93.849	-90.051	-87.197	-82.625	75.314	-87.511	-8191	255	
3682.491	1	1	0	0	0.13619	0.062078	0.38002	0.24242	0.080261	0.23146	0.15101	0.011361	0.12184	0.24825	0.19868	0.34476	0.062198	0.11808	0.01522	0.032785	-2.5875	-2.8458	-3.4625	-2.325	-2.9083	-3.1437	-2.8208	-3.5875	-3.0229	-2.6396	-3.4604	-2.8271	-3.2125	-3.3792	-2.4437	-3.4229	23.069	208.999	81.752	218.568	-1.079	-66.496	127.139	217.398	-45.671	-43.504	177.507	219.478	144.694	-42.707	-32.167	116.539	0.0011394	0.00092623	0.00010849	529.08	6.4082e-06	6.6361e-06	498.58	248.74	1.6966e-05	2.7687e-07	251.9	123.47	124.57	73.246	5.6502e-06	67.979	0.0017709	0.0016782	0.00045315	634.04	1.9558e-05	1.854e-05	590.1	290.63	1.9705e-05	1.8207e-05	300.18	144.26	144.15	82.272	1.8044e-05	77.954	0.554	-45.078	-96.718	-96.300	-4.215	19.156	-98.406	-90.130	54.510	95.064	-93.818	-90.120	-87.140	-82.672	233.618	-87.636	-8191	255	
3682.587	1	1	0	0	0.14667	0.057425	0.23676	0.10366	0.072559	0.042511	0.072609	0.095655	0.074592	0.2144	0.32726	0.23201	0.16134	0.28485	0.25276	0.34842	-2.7	-2.5646	-3.3167	-2.8417	-3.2125	-3.4396	-2.6437	-3.2646	-3.05	-2.7833	-3.4521	-2.6917	-3.1146	-3.6396	-2.4542	-3.2896	2.972	-58.967	250.721	166.915	-21.428	147.139	213.383	-73.583	41.913	219.403	218.048	165.217	-26.422	-107.716	-60.251	-73.384	0.00076919	0.0011803	0.0001169	530.39	1.0037e-05	2.3929e-06	501.19	248.33	4.7524e-06	7.5367e-06	251.17	123.82	124.19	73.128	5.0555e-06	68.318	0.0017374	0.0016533	0.00047112	637.11	1.9202e-05	1.8292e-05	594.95	290.46	1.911e-05	1.7829e-05	302.22	144.25	143.44	82.177	1.9345e-05	78.217	-1.462	-58.778	-18.912	-96.391	-38.237	-48.442	-98.097	-90.353	-102.682	52.960	-93.773	-89.996	-87.115	-82.585	235.856	-87.616	-8191	255	
3682.683	1	1	0	0	0.37394	0.21376	0.052393	0.25236	0.15306	0.063434	0.31386	0.2424	0.015269	0.11578	0.09478	0.1627	0.15831	0.19687	0.25146	0.057491	-2.8875	-2.6583	-3.4646	-2.8896	-2.85	-3.3229	-2.6875	-3.0375	-3.1375	-2.7458	-3.4313	-2.8667	-3.075	-3.6979	-2.35	-3.3458	77.215	222.287	58.589	-35.981	12.634	8.235	202.209	39.921	-11.248	144.356	-90.685	-96.494	239.705	205.206	163.767	147.307	0.000841	0.00046985	0.00012871	531.9	2.7281e-06	3.5231e-06	502.29	248.78	6.0294e-06	1.6694e-06	250.53	123.78	123.94	73.18	1.3812e-06	67.744	0.0017271	0.0016521	0.00050956	638.8	1.8954e-05	1.8433e-05	602.83	290.8	1.9257e-05	1.8127e-05	304.51	144.08	143.2	82.179	2.0642e-05	77.644	-5.227	-20.148	173.453	-96.325	42.113	95.109	-98.276	-90.312	93.264	177.574	-93.758	-90.062	-87.088	-82.735	227.822	-87.520	-8191	255	
3682.804	1	1	0	0	0.071498	0.212	0.019608	0.19116	0.1654	0.2186	0.1758	0.26729	0.067805	0.20307	0.11643	0.17557	0.27427	0.20716	0.19654	0.17584	-2.9813	-2.4708	-3.3479	-3.1937	-2.6396	-3.3146	-2.5708	-3.1646	-3.4083	-2.5792	-3.3958	-3.0938	-2.7708	-3.625	-2.5375	-3.2083	89.017	-3.370	-63.108	205.133	137.665	114.254	144.029	138.011	196.570	113.536	189.040	197.407	243.213	105.865	146.511	200.117	0.0010526	0.00040604	0.00021279	532.52	8.0875e-06	4.6062e-06	497.29	246.95	5.4415e-06	4.7655e-06	250.69	122.83	123.98	72.684	3.9944e-06	67.475	0.0017133	0.0016917	0.00053545	635.1	1.8924e-05	1.9054e-05	602.4	289.4	1.9231e-05	1.9211e-05	305.91	143.07	142.84	81.869	2.1694e-05	77.11	2.457	14.879	-46.699	-96.362	45.014	-11.430	-98.343	-90.212	93.588	-52.088	-93.726	-90.150	-87.187	-82.656	4.402	-87.727	-8191	255	
3682.900	1	1	0	0	0.17383	0.24093	0.1428	0.085601	0.092162	0.23533	0.10628	0.31415	0.078266	0.21267	0.095583	0.079007	0.14723	0.097337	0.16291	0.088955	-2.9729	-2.6021	-3.1875	-3.0167	-2.8646	-3.5375	-2.8063	-2.9083	-3.4854	-2.6375	-3.2354	-3.1042	-2.8042	-3.5812	-2.8875	-2.8875	49.604	171.786	229.143	80.218	119.524	-23.568	184.354	187.190	202.931	-86.515	241.208	131.174	84.180	-83.268	192.169	105.821	0.00085047	0.00021634	0.00022173	528.03	8.1402e-06	5.1839e-06	495.9	245.66	4.7041e-06	3.0873e-06	249.26	123.04	123.66	72.23	3.5203e-06	67.092	0.0017229	0.0018276	0.00055755	632.88	1.9122e-05	2.0687e-05	603.47	288.4	1.9607e-05	2.1238e-05	307.11	143.73	143.08	81.948	2.2714e-05	77.109	-11.050	-70.363	-27.149	-96.503	-39.718	202.455	-98.185	-90.074	93.101	161.955	-93.437	-89.619	-86.986	-82.495	149.555	-87.675	-8191	255	
3682.996	1	1	0	0	0.191	0.202	0.24253	0.41176	0.23247	0.13621	0.20954	0.29608	0.0429	0.13933	0.013632	0.17712	0.1701	0.26145	0.15929	0.071349	-3.1562	-2.4125	-2.9771	-3.3042	-2.3646	-3.3625	-2.9938	-2.9688	-3.2958	-2.6188	-3.0417	-3.3229	-2.8042	-3.5729	-2.9125	-2.6917	174.668	5.144	-69.096	143.560	28.905	-28.880	193.167	168.427	55.105	-102.459	56.579	244.014	205.771	212.327	33.931	200.722	0.00091284	0.00035588	0.00037709	527.22	8.2921e-06	8.3479e-06	496.68	247.42	6.1747e-06	9.2576e-06	251.04	123.52	124.09	72.158	1.0641e-05	67.25	0.0018067	0.0020493	0.00057796	634.92	2.0112e-05	2.2827e-05	606.77	289.72	2.052e-05	2.3024e-05	307.39	144.09	143.83	82.229	2.2076e-05	76.765	1.385	48.366	-42.208	-96.213	51.219	190.633	-98.305	-90.143	127.614	-59.528	-93.668	-90.175	-87.260	-82.700	96.949	-87.575	-8191	255	
3683.091	1	1	0	0	0.313	0.1268	0.24088	0.12382	0.20906	0.22066	0.1974	0.028097	0.21252	0.26755	0.052638	0.18115	0.35181	0.23386	0.1545	0.15701	-3.2208	-2.7583	-2.9938	-3.4833	-2.7833	-3.3937	-3.1312	-2.8063	-3.5229	-2.7562	-2.7562	-3.5187	-2.7313	-3.4104	-2.875	-2.6854	121.863	146.127	59.952	60.346	211.633	19.437	231.764	226.664	225.880	122.838	30.149	241.345	235.187	151.078	79.445	163.667	0.0010047	0.00035693	0.00044843	525.84	8.5839e-06	1.0843e-05	497.46	246.48	3.5777e-06	6.4832e-06	249.58	123.12	123.95	72.449	5.0343e-06	67.147	0.0018183	0.0020887	0.00054751	630.97	2.018e-05	2.2913e-05	599.57	287.48	2.0506e-05	2.2687e-05	303.61	143.03	144	82.359	2.044e-05	76.684	-8.772	-45.473	-10.343	-96.313	177.289	-21.049	-98.326	-90.208	161.879	104.106	-93.700	-90.042	-87.221	-82.655	23.886	-87.565	-8191	255	
3683.164	1	1	0	0	0.10688	0.048292	0.17829	0.1456	0.08757	0.11919	0.08575	0.32138	0.079551	0.25955	0.14669	0.093255	0.28219	0.064821	0.062959	0.097562	-3.1896	-2.7792	-2.6437	-3.4729	-2.6958	-3.0646	-3.1437	-2.6375	-3.5958	-2.7042	-2.7521	-3.3917	-2.6542	-3.3896	-3.05	-2.5375	-61.458	164.902	230.043	191.860	25.304	-53.402	81.799	248.709	85.344	99.531	-24.794	57.203	219.374	-24.809	-88.549	69.818	0.0011565	0.0011107	9.8925e-05	530.43	5.8396e-06	9.3032e-06	497.08	246.31	4.3262e-06	6.9741e-06	251.58	123.49	124.26	72.974	2.9456e-06	67.886	0.00183	0.0020015	0.0005089	629.6	2.0492e-05	2.1661e-05	596.85	286.38	2.0695e-05	2.1317e-05	301.46	142.73	144.34	82.453	1.9535e-05	77.168	-17.893	-24.683	-6.291	-96.141	157.347	59.580	-98.361	-90.350	-88.842	29.973	-93.554	-90.238	-87.167	-82.594	-25.706	-87.545	-8191	255	
3683.283	1	1	0	0	0.092804	0.1281	0.12541	0.16913	0.18887	0.12531	0.31478	0.13768	0.20817	0.083927	0.14692	0.10835	0.15481	0.13271	0.15052	0.28866	-2.9771	-2.8438	-2.4979	-3.4333	-2.5083	-3.1104	-3.2875	-2.4417	-3.3771	-2.9875	-2.5979	-3.5229	-2.7042	-3.1083	-3.3396	-2.6083	114.567	96.087	62.157	243.008	19.144	117.247	156.277	182.434	94.662	107.610	-104.167	32.940	229.829	-66.121	34.273	246.216	0.0012143	0.00097939	0.00025806	530.14	5.3563e-06	9.4025e-06	501.23	248.02	7.4271e-06	6.9732e-06	252.56	124.29	124.54	72.762	7.5971e-06	67.985	0.001872	0.0019085	0.00048793	629.71	2.0975e-05	2.0392e-05	597.53	287.71	2.0981e-05	2.0347e-05	302.33	143.74	144.98	82.303	1.8837e-05	77.199	-7.786	10.488	-19.831	-96.372	126.081	-7.939	-98.428	-90.343	41.562	63.585	-93.703	-90.051	-87.382	-82.661	-20.698	-87.766	-8191	255	
3683.379	1	1	0	0	0.39423	0.12556	0.1194	0.15756	0.13834	0.22484	0.066441	0.16347	0.23539	0.21058	0.12628	0.20559	0.10746	0.20723	0.14623	0.080204	-2.9458	-2.8688	-2.6271	-3.4688	-2.4729	-2.9125	-3.4917	-2.6854	-3.2125	-3.3042	-2.5979	-3.2854	-2.7687	-3.0563	-3.3333	-2.7333	105.814	-36.251	21.464	234.337	153.804	231.354	125.556	201.077	-61.090	218.002	223.756	188.738	180.021	-23.025	133.976	200.524	0.0009533	0.00029928	0.00020558	528.63	5.8743e-06	2.703e-06	498.79	247.51	6.2011e-06	3.1187e-06	250.56	123.51	123.83	72.819	3.1308e-06	67.375	0.0018769	0.0018152	0.00046623	630.26	2.1013e-05	1.9393e-05	592.31	288.19	2.0978e-05	1.9523e-05	299.17	143.37	144.22	81.87	1.8414e-05	77.28	1.076	-32.422	-62.781	-96.288	0.584	-17.354	-98.179	-90.353	44.358	-14.417	-93.548	-90.185	-87.187	-82.509	-25.192	-87.635	-8191	255	
3683.475	1	1	0	0	0.3626	0.12123	0.0052748	0.11015	0.020943	0.18932	0.06293	0.048223	0.11072	0.15468	0.24027	0.15636	0.074628	0.24954	0.088348	0.082521	-2.8396	-2.9417	-2.6708	-3.5875	-2.9729	-2.7646	-3.4	-2.625	-3.1312	-3.325	-2.6833	-3.4542	-2.8604	-2.9062	-3.4104	-2.7208	195.816	15.728	234.130	-107.141	-88.767	193.182	82.585	226.417	99.364	101.712	165.538	64.460	-93.660	-105.402	172.963	174.580	0.00081309	0.00044458	0.00018194	529.43	5.978e-06	1.6569e-06	501.26	245.86	1.316e-05	4.6949e-06	250.32	122.67	123.54	72.725	7.3961e-06	67.687	0.0018534	0.0017791	0.00046251	633.77	2.0818e-05	1.9319e-05	593.35	288.83	2.067e-05	1.9535e-05	299.41	143.95	143.48	81.844	1.89e-05	77.946	0.216	-14.361	-5.681	-96.122	22.314	-14.340	-98.166	-90.282	41.374	31.173	-93.928	-90.039	-87.356	-82.532	-3.795	-87.625	-8191	255	
3683.571	1	1	0	0	0.10805	0.14138	0.19271	0.027435	0.10777	0.17784	0.19986	0.21581	0.081437	0.1422	0.20554	0.13352	0.30534	0.28228	0.049897	0.046947	-2.7687	-3.3167	-2.6542	-3.4104	-2.8583	-2.8104	-3.3375	-2.7479	-3.1562	-3.4083	-2.8688	-3.3604	-2.9625	-2.7292	-3.325	-2.7938	-101.984	64.562	138.548	-24.003	226.149	-18.090	134.153	208.895	-4.243	5.360	-101.245	99.696	-108.344	-81.628	-77.666	219.053	0.00063239	0.0014039	0.00013435	528.28	9.7321e-06	3.0181e-06	499.18	245.31	2.3046e-06	9.8385e-06	248.91	122.89	122.68	72.791	4.5767e-06	67.568	0.0018295	0.0017919	0.00048309	639.14	2.0678e-05	1.9131e-05	599.19	289.64	2.0429e-05	1.946e-05	301.38	144.13	142.48	81.761	2.0074e-05	77.951	-10.307	-44.987	-65.108	-96.499	27.073	43.593	-98.381	-90.407	79.346	37.229	-93.679	-89.864	-87.245	-82.413	178.202	-87.734	-8191	255	
3683.692	1	1	0	0	0.22162	0.29715	0.13646	0.24433	0.18702	0.063499	0.26828	0.2303	0.12367	0.052478	0.017573	0.22155	0.31496	0.069478	0.11279	0.15087	-2.5333	-3.4437	-2.5812	-3.0771	-2.9333	-2.6	-3.6458	-2.9292	-2.7854	-3.325	-2.4854	-3.1792	-3.2021	-2.7479	-3.275	-2.9688	-46.922	95.249	77.946	176.408	2.187	13.227	-81.752	111.312	184.896	86.015	208.338	216.337	182.460	-61.191	21.782	-68.451	0.00074254	0.0015909	0.00023298	529.25	4.8419e-06	4.4273e-06	496.88	245.15	5.2048e-06	2.9537e-06	249.34	122.2	122.9	72.308	1.722e-06	67.333	0.0017938	0.0017583	0.00050956	638.31	2.0095e-05	1.8816e-05	600.16	289.16	1.9854e-05	1.9195e-05	302.8	143.13	142.25	81.406	2.1281e-05	77.529	1.742	-56.413	134.245	-96.326	37.410	-44.481	-98.296	-90.369	22.137	34.272	-93.841	-89.806	-87.192	-82.410	193.393	-87.578	-8191	255	
3683.764	1	1	0	0	0.085278	0.1147	0.24325	0.25139	0.10592	0.20183	0.062512	0.06396	0.10985	0.14589	0.28474	0.28171	0.24697	0.21879	0.032827	0.22373	-2.4292	-3.4813	-2.5187	-3.2167	-3.2125	-2.6292	-3.6354	-2.875	-2.7146	-3.3521	-2.6667	-3.2021	-3.2771	-2.4417	-3.1937	-3.1604	-23.309	-86.305	-10.202	229.001	-49.087	4.750	-47.707	248.139	63.544	-100.562	229.666	190.553	-70.750	230.135	160.519	227.583	0.00068466	0.00061356	0.00019006	530.05	4.7284e-06	2.2889e-06	498.92	246.27	1.1255e-05	1.502e-06	249.2	122.56	122.58	72.479	7.392e-06	67.726	0.0017782	0.0017652	0.00054223	637.47	1.99e-05	1.9019e-05	605.61	288.72	1.9527e-05	1.9439e-05	305.52	143.01	142.19	81.575	2.1819e-05	77.625	0.479	31.414	42.785	-96.117	-20.522	85.663	-98.409	-90.420	-7.685	178.138	-93.798	-89.930	-87.206	-82.444	153.475	-87.609	-8191	255	
3683.884	1	1	0	0	0.25797	0.082326	0.13304	0.076045	0.29533	0.080401	0.18982	0.027762	0.10068	0.3259	0.22751	0.20713	0.079981	0.24673	0.12504	0.23061	-2.2521	-3.5917	-2.8208	-3.1604	-3.3583	-2.425	-3.3917	-3.0125	-2.5708	-3.1604	-2.6937	-3.1771	-3.4875	-2.8333	-3.0646	-2.9521	78.030	25.261	153.229	210.149	-89.403	76.828	151.686	171.855	50.848	-95.251	176.468	246.082	10.505	229.929	162.414	210.579	0.00085753	0.00036293	0.000251	530.44	4.0423e-06	1.0047e-06	499.28	246.15	1.7934e-05	1.0963e-06	249.38	122.35	122.36	72.574	7.9005e-06	67.618	0.0017245	0.0018073	0.0005583	634.7	1.936e-05	1.9663e-05	606	287.61	1.8876e-05	2.0122e-05	305.38	142.39	141.45	81.941	2.161e-05	77.401	-4.006	48.462	52.212	-96.105	1.971	71.983	-97.972	-90.264	48.850	9.685	-93.825	-90.100	-87.011	-82.505	59.717	-87.606	-8191	255	
3683.981	1	1	0	0	0.062254	0.16286	0.17242	0.36233	0.19349	0.18916	0.14059	0.10175	0.2832	0.26549	0.069769	0.027352	0.10477	0.31188	0.16478	0.06935	-2.1375	-3.3146	-2.7333	-2.9292	-3.2417	-2.5812	-3.2938	-3.2042	-2.5	-3.3063	-2.8187	-2.8563	-3.3792	-2.8646	-3.2083	-3.3458	-56.825	55.135	191.427	184.088	-53.890	68.703	93.754	203.880	-35.925	53.739	188.198	-18.635	-22.779	-101.167	218.514	130.975	0.00084363	0.00060594	0.00025673	531.57	7.4811e-06	3.1994e-06	501.62	244.43	4.7871e-06	1.1694e-07	248.74	120.22	121.31	72.231	7.0137e-06	67.188	0.0016779	0.0018809	0.00054793	631.47	1.8751e-05	2.0404e-05	602.74	285.33	1.8323e-05	2.0817e-05	302.29	140.09	139.96	81.703	2.0598e-05	76.619	-5.275	54.311	-38.728	-96.290	83.247	-9.199	-98.047	-90.456	60.682	-55.326	-93.915	-89.752	-86.917	-82.337	30.646	-87.385	-8191	255	
3684.077	1	1	0	0	0.19533	0.060479	0.0909	0.23222	0.059897	0.037721	0.11636	0.18415	0.034342	0.22378	0.078093	0.059511	0.041394	0.05102	0.20283	0.12176	-2	-3.2792	-2.5229	-2.6792	-3.3583	-2.6792	-3.0521	-3.1979	-2.3104	-3.475	-3.1667	-2.7854	-3.3708	-2.7333	-2.9375	-3.5271	-26.465	-56.320	192.902	226.866	131.572	-31.116	121.877	177.072	93.731	19.394	-91.292	8.286	225.156	113.304	13.999	245.300	0.00071066	0.0004907	0.0002026	532.82	2.8312e-06	6.6203e-06	499.25	244.39	5.2003e-06	5.7511e-06	246.38	119.46	120.45	72.128	7.4704e-06	67.354	0.0016681	0.0019496	0.00052515	631.61	1.888e-05	2.1408e-05	600.64	284.55	1.8812e-05	2.147e-05	299.74	138.58	139.73	81.722	1.9795e-05	76.565	-12.820	110.305	-17.251	-96.279	85.354	137.948	-98.014	-90.432	240.223	128.087	-93.647	-89.696	-86.986	-82.211	54.509	-87.453	-8191	255	
3684.173	1	1	0	0	0.1345	0.43775	0.29498	0.2295	0.065901	0.41799	0.085305	0.36413	0.17598	0.17	0.043955	0.19898	0.32949	0.33336	0.039537	0.26105	-2.1	-3.1542	-2.8	-2.5896	-3.2792	-2.9813	-3	-3.3583	-2.5271	-3.3979	-2.9146	-2.6354	-3.5687	-2.9104	-2.7646	-3.4688	-15.925	-33.872	31.278	225.046	-26.255	170.942	83.116	211.439	47.898	127.024	56.376	73.182	-94.900	162.895	-49.238	173.178	0.0011997	0.00069877	0.00025932	533.44	4.2584e-06	9.6536e-06	503.17	244.28	6.8612e-06	3.7488e-06	247.33	119.82	120.94	72.31	8.0105e-06	67.295	0.0017141	0.0019586	0.00050501	630.85	1.9628e-05	2.1208e-05	599.79	284.04	1.9628e-05	2.1062e-05	298.93	138.68	140.55	81.857	1.9269e-05	76.604	5.967	-14.816	-68.373	-96.203	101.007	-48.112	-97.940	-90.153	233.640	87.575	-93.788	-89.801	-87.020	-82.468	50.829	-87.442	-8191	255	
3684.292	1	1	0	0	0.15107	0.26661	0.21155	0.076729	0.14169	0.12377	0.17739	0.12256	0.22771	0.14629	0.17017	0.13652	0.16314	0.18625	0.11138	0.08726	-2.025	-2.9354	-3.0875	-2.6063	-3.3063	-2.7438	-2.7042	-3.5917	-2.6792	-3.0354	-3.1167	-2.7167	-3.5354	-2.9688	-2.5833	-3.4792	-82.880	-62.403	-91.552	-23.861	89.854	-68.331	76.409	-93.453	151.824	11.700	-4.816	-104.717	235.638	232.673	64.755	185.420	0.0010918	0.0013496	0.00019242	533.84	4.4084e-06	7.1052e-06	502.84	244.6	1.5336e-06	5.1724e-06	247.43	119.39	120.6	71.831	5.1973e-06	67.032	0.0018123	0.0019083	0.0004957	629.84	2.0695e-05	2.0928e-05	597.61	284.51	2.0782e-05	2.0607e-05	297.98	138.53	141.05	81.367	1.8833e-05	76.306	-6.736	-41.956	-49.849	-96.155	9.755	19.325	-97.909	-90.110	-79.592	83.190	-93.796	-89.878	-86.767	-82.353	79.861	-87.566	-8191	255	
3684.388	1	1	0	0	0.14437	0.052857	0.19212	0.11237	0.063309	0.27973	0.18599	0.27503	0.30216	0.080974	0.29633	0.18253	0.152	0.46099	0.20732	0.15063	-2.3042	-3.0854	-2.9271	-2.3979	-3.4146	-3.0646	-2.7062	-3.4562	-2.4417	-2.9521	-3.2604	-2.5708	-3.2396	-3.3271	-2.6646	-3.5687	-103.749	83.937	-105.592	-60.988	201.267	156.601	181.987	-35.040	51.446	42.343	223.561	220.490	179.618	-100.151	58.624	222.679	0.00086268	0.00091822	0.00014724	531.31	8.3693e-06	1.2547e-05	499.39	244.23	8.1387e-06	6.4337e-06	245.66	119.02	120.05	71.768	4.0313e-06	66.995	0.0018926	0.0018485	0.00048438	630.82	2.1329e-05	2.0177e-05	594.58	284.87	2.1356e-05	1.9695e-05	296.43	138.89	140.52	81.095	1.8115e-05	76.581	-3.733	-29.599	-62.952	-95.999	111.724	46.057	-98.139	-90.075	-6.658	36.809	-93.529	-89.619	-86.802	-82.293	43.637	-87.201	-8191	255	
3684.460	1	1	0	0	0.040208	0.25974	0.054476	0.21189	0.14748	0.0080564	0.093891	0.21444	0.22526	0.04172	0.060772	0.1192	0.32771	0.14413	0.040397	0.043167	-2.1458	-2.9208	-3.3292	-2.7583	-3.3604	-3.1917	-2.6604	-3.1896	-2.5875	-2.9562	-3.5563	-2.5896	-3.1083	-3.2625	-2.5563	-3.5771	55.144	10.669	-39.959	-53.778	-37.636	-47.753	-47.086	30.754	128.090	107.531	161.173	201.628	199.865	214.917	-87.569	241.517	0.00083346	0.00024796	0.00026062	532.3	2.1114e-06	2.9378e-06	499.94	243.26	7.6235e-06	8.1389e-06	246.24	118.85	120.08	71.952	6.0198e-06	67.21	0.0018644	0.0017602	0.00046656	634.12	2.079e-05	1.9344e-05	592.79	285.32	2.0613e-05	1.8955e-05	295.16	139.27	139.85	80.964	1.7896e-05	77.01	-10.133	-85.360	-37.408	-96.156	14.122	58.621	-98.096	-89.833	68.756	50.767	-93.516	-89.459	-86.621	-82.197	142.580	-87.348	-8191	255	
3684.580	1	1	0	0	0.15493	0.14196	0.18311	0.20988	0.35842	0.11925	0.11739	0.29176	0.19167	0.13222	0.073673	0.21251	0.083694	0.11221	0.15936	0.020296	-2.4437	-2.4958	-3.2083	-2.6646	-3.3083	-3.2542	-2.575	-3.3979	-2.975	-2.8104	-3.4042	-2.5604	-2.9396	-3.2479	-2.4083	-3.25	189.731	-31.232	154.289	168.347	248.012	-40.321	137.860	205.623	-10.299	-69.848	32.373	-70.498	173.611	237.839	88.849	-88.913	0.00090856	0.00084429	3.8265e-05	531.77	7.5311e-06	8.509e-06	499.52	243.31	1.4327e-05	8.0146e-06	245.65	118.34	119.56	71.53	5.0903e-06	66.412	0.0018189	0.0017149	0.00046544	638.71	1.9906e-05	1.8827e-05	592.82	286.18	1.985e-05	1.8364e-05	294.82	138.64	138.47	80.449	1.8217e-05	76.307	4.640	-55.825	-5.603	-96.144	16.016	26.330	-98.226	-89.870	73.426	27.359	-93.438	-89.578	-86.648	-82.012	192.347	-87.286	-8191	255	
3684.676	1	1	0	0	0.26523	0.16072	0.16018	0.062189	0.035232	0.033798	0.023393	0.36792	0.094599	0.162	0.063304	0.088192	0.36685	0.025016	0.027748	0.037884	-2.6729	-2.7708	-3.3625	-2.7375	-2.8063	-3.3646	-2.4396	-3.2625	-2.9813	-2.7021	-3.3937	-2.8708	-2.9104	-3.3521	-2.6854	-3.2354	143.568	197.112	-0.826	115.714	-75.833	42.588	139.230	102.511	-63.521	-2.396	-70.689	-65.267	237.271	39.652	-2.016	-63.766	0.00082297	0.00058413	0.00025326	535.17	1.325e-05	1.531e-05	502.24	243.83	1.7234e-06	1.0864e-05	244.34	117.39	119.14	71.23	7.6149e-06	66.377	0.0017469	0.001653	0.00048012	641.9	1.9159e-05	1.8299e-05	596.93	285.81	1.9332e-05	1.8009e-05	295.61	137.89	137.73	80.112	1.9315e-05	76.104	1.220	11.681	98.683	-96.247	-19.572	38.026	-97.962	-90.210	80.512	0.444	-93.729	-89.528	-86.504	-82.190	-34.630	-87.256	-8191	255	
3684.772	1	1	0	0	0.19323	0.24038	0.055104	0.23261	0.15272	0.30688	0.10417	0.25765	0.12771	0.12909	0.090521	0.3038	0.16847	0.19501	0.13016	0.027398	-2.775	-2.5938	-3.2333	-2.8396	-2.8375	-3.425	-2.4562	-3.2208	-3.2146	-2.6396	-3.4729	-2.7792	-2.8167	-3.6937	-2.6979	-3.1875	-79.253	155.883	61.509	-24.179	-26.277	67.657	200.101	224.601	220.712	89.991	29.471	-77.643	29.234	-88.974	-106.913	172.623	0.00079409	0.001022	0.00021174	536.9	9.7036e-06	5.5234e-06	503.57	244.08	4.3397e-06	5.6328e-07	245.49	117.94	118.72	71.602	2.9345e-06	66.334	0.0016947	0.0016237	0.0005037	642.23	1.8644e-05	1.8134e-05	601.56	285.28	1.8809e-05	1.7907e-05	298.64	137.72	137.27	80.231	2.0248e-05	75.956	0.526	-41.834	189.331	-96.408	-6.833	78.557	-98.154	-89.930	67.949	233.074	-93.505	-89.295	-86.545	-82.153	193.647	-87.092	-8191	255	
3684.869	1	1	0	0	0.090762	0.35125	0.089861	0.23095	0.099901	0.076012	0.094748	0.23326	0.13126	0.10799	0.13567	0.032341	0.035274	0.23289	0.19481	0.18707	-2.8063	-2.5229	-3.3771	-2.9167	-2.6958	-3.5542	-2.625	-3.1396	-3.4646	-2.5833	-3.4896	-3.1063	-2.6208	-3.5729	-2.7062	-3.0771	-46.129	18.337	39.019	142.210	248.221	-43.328	186.830	119.548	56.436	220.387	224.386	169.306	-18.077	226.105	14.381	173.955	0.0010795	0.00019677	2.4523e-05	538.35	9.6119e-06	2.7463e-06	502.17	244.56	1.2589e-05	5.3296e-06	245.54	117.35	118.82	71.151	3.4935e-06	65.82	0.0016736	0.0016434	0.00052257	640.15	1.8171e-05	1.8457e-05	605.28	284.48	1.8359e-05	1.8351e-05	298.84	136.97	137.05	80.1	2.0702e-05	75.195	-4.347	-95.286	-103.963	-96.236	11.298	111.951	-98.132	-90.090	72.223	163.820	-93.470	-89.445	-86.528	-82.008	121.727	-87.246	-8191	255	
3684.987	1	1	0	0	0.29458	0.17147	0.1202	0.21296	0.17466	0.22481	0.07649	0.11479	0.18139	0.055986	0.28228	0.28292	0.19494	0.038239	0.14395	0.0747	-2.9771	-2.5021	-3.2125	-3.0312	-2.4896	-3.1708	-2.7833	-2.9146	-3.2771	-2.4208	-3.2125	-3.1167	-2.5	-3.4062	-2.8521	-3.0583	231.748	89.959	117.946	-64.408	50.509	-3.134	165.108	182.244	132.154	131.221	-103.403	238.044	154.593	-14.121	-70.358	182.427	0.0008965	0.00043932	8.6165e-05	536.6	8.1934e-06	5.6013e-06	499.62	243.03	7.7608e-06	4.9135e-06	244.95	116.81	118.44	70.863	8.1705e-06	65.858	0.0016497	0.0017401	0.00052944	638.56	1.7892e-05	1.9583e-05	603.51	283.02	1.8259e-05	1.9662e-05	297.63	135.92	136.38	80.164	2.0702e-05	75.109	-3.094	198.825	-51.344	-96.239	4.000	45.601	-98.044	-89.925	-12.167	154.025	-93.532	-89.566	-86.364	-81.960	68.662	-87.007	-8191	255	
3685.061	1	1	0	0	0.24152	0.14196	0.11058	0.068894	0.062349	0.071256	0.30284	0.13381	0.21698	0.19788	0.11129	0.13598	0.076053	0.27803	0.056079	0.21418	-3.2417	-2.5854	-3.1229	-3.1854	-2.4729	-3.4562	-2.9604	-2.9021	-3.3792	-2.6375	-3.1708	-3.0021	-2.6708	-3.5542	-2.8875	-2.8917	182.802	-5.507	-40.997	-60.931	10.588	-88.225	51.688	223.532	-98.219	-0.572	-44.469	198.048	147.243	143.326	201.179	-58.711	0.00093625	0.00012343	0.00017367	538.49	3.6224e-06	1.3861e-06	500.38	241.12	7.4727e-06	4.6816e-06	244.56	116.71	117.59	70.869	1.0829e-05	66.17	0.001642	0.0018564	0.00052286	638.18	1.8075e-05	2.0752e-05	602.87	281.66	1.8483e-05	2.0717e-05	295.59	135.66	136.01	80.356	1.9914e-05	75.175	-2.787	226.677	-33.693	-96.171	164.698	-87.449	-98.058	-89.543	164.641	190.774	-93.199	-89.535	-86.622	-81.884	61.651	-87.057	-8191	255	
3685.157	1	1	0	0	0.050447	0.1816	0.11416	0.22489	0.22415	0.19847	0.052789	0.10099	0.15444	0.10191	0.14495	0.098039	0.19556	0.37108	0.19792	0.18676	-2.9875	-2.5062	-2.9771	-3.3604	-2.5875	-3.3896	-3.0104	-2.4792	-3.1271	-2.8042	-3.0125	-3.4313	-2.5563	-3.4417	-3.0271	-2.5125	229.292	88.771	37.485	162.559	180.940	2.082	21.682	145.901	119.986	188.762	203.597	192.319	-73.633	-35.519	-24.054	140.214	0.00078159	0.00012195	0.00031292	535.32	6.0482e-06	3.9454e-06	502.03	243.44	1.2595e-05	5.1386e-06	243.56	117.05	118.02	70.728	6.3677e-06	65.716	0.0016814	0.0019144	0.00049802	634.7	1.8589e-05	2.0995e-05	599.72	281.56	1.9124e-05	2.1063e-05	294.09	135.35	136.92	80.211	1.9253e-05	74.596	-10.040	-65.079	-43.883	-96.066	183.552	-6.219	-98.025	-89.917	-44.155	1.862	-93.249	-89.641	-86.477	-81.836	35.816	-87.247	-8191	255	
3685.253	1	1	0	0	0.063188	0.23623	0.13509	0.3893	0.060406	0.064997	0.15248	0.11391	0.13714	0.1588	0.047406	0.13482	0.12103	0.39775	0.10892	0.07079	-2.9375	-2.6208	-2.7938	-3.4604	-2.6583	-3.3021	-3.2125	-2.7083	-3.2521	-2.6604	-2.8958	-3.4833	-2.7521	-3.2417	-3.2188	-2.4729	216.024	228.030	165.607	226.793	52.053	-37.995	43.481	167.100	-50.681	50.418	22.202	-14.242	-101.617	-104.258	118.715	145.876	0.0010301	0.00063023	0.00020334	535.85	3.364e-06	8.2751e-06	499	242.7	8.2062e-06	4.109e-06	243.1	116.59	118.22	70.893	1.2278e-06	65.497	0.0017554	0.0019037	0.00048279	633.14	1.9733e-05	2.0627e-05	596.8	281.01	2.0353e-05	2.0861e-05	293.84	135.43	138.03	80.15	1.9191e-05	74.614	-7.605	-35.204	-78.724	-96.145	-12.606	6.332	-98.336	-89.953	-94.566	30.156	-93.591	-89.643	-86.579	-81.843	-56.190	-87.336	-8191	255	
3685.372	1	1	0	0	0.15029	0.2096	0.10459	0.14057	0.19048	0.15144	0.14955	0.38559	0.073095	0.11459	0.22779	0.20542	0.13764	0.21886	0.23834	0.25917	-3	-2.9313	-2.6604	-3.3563	-2.3229	-2.8646	-3.3417	-2.5271	-3.3625	-2.8083	-2.4854	-3.5167	-2.7854	-3.1396	-3.3312	-2.7104	94.568	-100.676	184.974	211.505	228.858	-32.198	31.594	180.589	74.807	117.954	113.707	-8.792	152.484	-64.169	125.462	147.405	0.00090635	0.0017827	0.0002016	534.04	3.8536e-06	7.2116e-06	502.65	242.05	9.6477e-06	1.5353e-06	243.11	116.78	118.51	71.271	3.7283e-06	66.215	0.0018487	0.0018786	0.00047768	633.92	2.0934e-05	2.0247e-05	597.63	282.13	2.1121e-05	2.0237e-05	293.76	136.37	138.93	80.232	1.8815e-05	75.514	-10.006	-12.486	20.023	-95.960	-25.965	31.932	-98.227	-89.987	-96.594	-34.089	-93.626	-89.626	-86.729	-81.963	-60.207	-87.322	-8191	255	
3685.468	1	1	0	0	0.091854	0.18339	0.122	0.0336	0.12712	0.17576	0.058286	0.21875	0.20734	0.096874	0.24585	0.19556	0.14524	0.14836	0.10272	0.14657	-2.9708	-2.8854	-2.3812	-3.3292	-2.6813	-3.0125	-3.3563	-2.5021	-3.3563	-3.075	-2.5021	-3.3771	-3.0083	-3.1375	-3.3875	-2.6937	-75.198	245.771	94.054	-87.822	227.411	213.177	-86.761	59.438	181.593	-52.085	8.848	189.854	177.799	-88.641	194.757	11.022	0.001058	0.0010255	0.0001845	537.17	6.4411e-06	3.1087e-06	500.81	243	8.9138e-06	8.6947e-06	245.68	117.37	118.48	70.971	3.9078e-06	65.9	0.0018881	0.0018151	0.00046432	637.65	2.1059e-05	1.9328e-05	595.78	283.2	2.0808e-05	1.9452e-05	292.81	137.2	138.22	79.962	1.8313e-05	75.53	-12.813	-32.233	-78.169	-96.256	-6.785	38.865	-98.130	-90.388	78.303	63.697	-93.399	-89.406	-86.547	-81.980	220.767	-87.039	-8191	255	
3685.564	1	1	0	0	0.15899	0.09959	0.13626	0.28241	0.24652	0.14097	0.14826	0.059439	0.19535	0.17847	0.13948	0.083252	0.16049	0.034048	0.091818	0.097821	-2.9583	-2.9458	-2.5792	-3.6292	-2.9125	-2.9104	-3.4813	-2.6042	-3.0354	-3.0563	-2.575	-3.4042	-2.9125	-2.9979	-3.3083	-2.5917	36.745	155.874	121.537	-73.832	-35.372	90.520	-46.859	-53.301	212.647	77.590	-34.967	184.776	140.660	221.439	1.737	172.410	0.0009473	0.00061407	0.00015759	531.62	9.5528e-06	5.8093e-06	499.37	242.18	1.0666e-06	4.6205e-06	242.45	116.5	117.92	70.842	1.1449e-06	65.509	0.0018372	0.001761	0.00045679	639.59	2.0632e-05	1.8863e-05	593.44	284.29	2.033e-05	1.9189e-05	291.36	136.87	137.52	79.62	1.8471e-05	75.445	4.802	-8.796	-85.367	-96.123	32.284	46.229	-97.968	-90.047	-46.562	68.800	-93.434	-89.470	-86.517	-81.787	174.214	-87.085	-8191	255	
3685.661	1	1	0	0	0.22225	0.1222	0.0073804	0.21485	0.37616	0.047837	0.15087	0.30053	0.12187	0.25849	0.25202	0.1507	0.23443	0.30977	0.23576	0.12903	-2.4771	-3.1458	-2.4146	-3.4688	-2.9625	-2.775	-3.5167	-2.8125	-3.0333	-3.2062	-2.4313	-3.1854	-3.05	-2.7938	-3.4125	-2.7458	197.625	59.918	-106.992	184.322	215.158	122.918	242.698	161.286	184.729	12.081	180.669	97.189	207.651	237.272	54.496	212.450	0.00089832	0.00052216	9.915e-05	538.7	9.4476e-06	8.3864e-06	499.3	242.8	2.1024e-05	6.4104e-06	242.17	116.28	117.66	70.769	3.8397e-06	65.654	0.0017884	0.0017317	0.00047084	644.45	2.0104e-05	1.8639e-05	597.57	285.25	1.9734e-05	1.894e-05	293.52	137.02	136.8	79.391	1.9627e-05	75.668	-20.639	-28.594	-4.128	-96.072	-24.337	54.258	-98.068	-89.973	51.654	25.840	-93.304	-89.301	-86.527	-81.726	135.309	-86.920	-8191	255	
3685.757	1	1	0	0	0.20657	0.095173	0.26621	0.2159	0.14481	0.23687	0.26817	0.22141	0.26893	0.20451	0.15943	0.045028	0.20827	0.14826	0.10672	0.18229	-2.4917	-3.0917	-2.3896	-3.3125	-3.0687	-2.4875	-3.3167	-2.8292	-2.9396	-3.4271	-2.5083	-3.0812	-3.1146	-2.5938	-3.2479	-3	1.233	-82.172	-92.872	-105.211	32.846	76.358	40.868	165.831	166.494	140.636	-77.109	127.130	84.509	229.400	-24.954	163.940	0.00089525	0.00032054	0.00010421	538.81	6.771e-06	7.934e-06	500.14	243.02	1.7403e-06	1.0552e-05	242.87	116.22	116.67	70.395	3.8997e-06	65.207	0.001748	0.0017263	0.00050646	646.26	1.9712e-05	1.8379e-05	604.17	286.05	1.9459e-05	1.8817e-05	296.41	136.69	136.35	79.262	2.0932e-05	75.179	-0.063	3.298	221.084	-96.104	-39.325	11.395	-97.930	-89.898	228.657	60.595	-93.163	-89.327	-86.315	-81.552	53.740	-86.904	-8191	255	
3685.853	1	1	0	0	0.13649	0.04335	0.14754	0.21318	0.17318	0.1485	0.12325	0.2326	0.17739	0.1241	0.18607	0.072278	0.17237	0.17476	0.13292	0.10825	-2.4437	-3.3604	-2.6896	-3.0625	-3.1312	-2.4771	-3.3688	-2.9562	-2.775	-3.375	-2.7083	-3.0521	-3.2562	-2.8812	-3.3333	-3.1646	-65.985	67.356	62.167	175.276	156.030	227.018	245.534	-73.204	-60.014	126.925	-6.922	-20.440	130.063	-104.232	26.641	-32.535	0.00083692	0.00070718	5.7403e-05	539.91	1.5701e-05	4.4244e-06	500.47	241.53	7.7251e-06	4.8671e-06	242.05	114.95	116.69	70.082	7.7706e-06	64.855	0.0017233	0.001718	0.00053526	645.63	1.9564e-05	1.8773e-05	606.34	284.08	1.9201e-05	1.9275e-05	297.03	134.79	135.37	78.98	2.1673e-05	74.492	-0.068	-82.766	69.328	-96.008	41.584	-105.893	-97.941	-90.012	48.365	-107.755	-93.392	-88.965	-86.298	-81.629	138.613	-86.815	-8191	255	
3685.973	1	1	0	0	0.061913	0.12862	0.087364	0.115	0.17617	0.081376	0.14752	0.056128	0.18354	0.14838	0.21195	0.23021	0.2013	0.25012	0.057674	0.15042	-2.25	-3.2687	-2.55	-3.0625	-3.0854	-2.5062	-3.3333	-3.0208	-2.6104	-3.3854	-2.7146	-3.0833	-3.3521	-2.7417	-3.2562	-3.0646	139.023	75.237	130.448	-95.631	79.503	102.141	-84.815	-66.750	18.441	-31.993	194.648	212.034	-97.811	174.338	74.496	195.516	0.0011381	0.00034166	0.00010145	540.48	7.1156e-06	6.7394e-06	501.53	242.44	1.2876e-05	2.8973e-06	242.86	114.85	116.89	70.091	3.6661e-06	64.855	0.0016916	0.0017864	0.0005531	644.14	1.9087e-05	1.9506e-05	608.41	283.47	1.8574e-05	2.0028e-05	297.76	134.38	135.39	79.255	2.1116e-05	74.336	-6.397	29.019	52.484	-96.208	-13.789	178.242	-97.652	-89.827	45.068	94.578	-93.242	-88.871	-86.161	-81.648	8.724	-86.927	-8191	255	
3686.068	1	1	0	0	0.30745	0.14257	0.048596	0.072326	0.16017	0.22309	0.25139	0.047535	0.12301	0.043599	0.12624	0.063989	0.24595	0.12399	0.2482	0.22728	-2.2208	-3.2188	-2.8979	-2.9375	-3.3292	-2.3042	-3.2104	-2.9729	-2.4458	-3.2708	-2.8333	-2.9292	-3.6396	-2.8729	-2.9979	-3.3229	56.576	-104.502	-36.454	-58.313	-47.260	-19.025	248.222	135.775	-14.306	-37.910	193.812	234.103	-22.905	11.552	89.939	203.886	0.00097843	0.00033653	8.9826e-06	539.33	9.1003e-06	3.7577e-06	504.96	242.04	5.4019e-06	3.7337e-06	243.11	115.79	117.24	69.933	3.1146e-06	65.044	0.0016266	0.0018526	0.00053461	642.34	1.8423e-05	2.0204e-05	606.45	283.24	1.7982e-05	2.049e-05	295.96	134.11	135.37	79.336	1.9846e-05	74.117	-15.833	-40.078	-92.779	-95.651	-25.192	139.796	-98.069	-90.139	166.516	241.420	-93.593	-89.474	-86.399	-81.677	-70.787	-87.039	-8191	255	
3686.164	1	1	0	0	0.0679	0.1745	0.090431	0.20821	0.11053	0.13122	0.085581	0.19509	0.33912	0.052735	0.18579	0.083418	0.068291	0.37182	0.066934	0.09691	-2.2146	-3.3	-2.9417	-2.8354	-3.3917	-2.6771	-3.1396	-3.4396	-2.7854	-3.4208	-3.0583	-2.8771	-3.4625	-2.7104	-3.0438	-3.3979	246.461	-23.322	65.737	143.690	218.583	-95.901	115.267	194.594	43.947	-12.670	142.018	207.646	-63.428	237.528	122.371	185.347	0.0011789	0.0007207	0.00029564	539.01	3.59e-06	2.9201e-06	501.14	242.5	8.8772e-07	5.2216e-06	241.4	114.34	116.32	69.947	8.8133e-06	64.529	0.0015947	0.0018691	0.00050426	636.7	1.8203e-05	2.05e-05	599.31	281.76	1.8157e-05	2.0786e-05	292.83	132.65	134.92	79.15	1.9142e-05	73.447	-11.019	-12.373	-30.747	-95.853	143.003	127.219	-97.664	-89.892	214.162	-89.148	-93.040	-89.239	-86.327	-81.665	22.416	-86.793	-8191	255	
3686.285	1	1	0	0	0.17443	0.11832	0.13779	0.32147	0.072814	0.085486	0.29057	0.19418	0.13565	0.24261	0.096162	0.071234	0.10431	0.22523	0.16319	0.18569	-2.0854	-3.2812	-3.0333	-2.7917	-3.3438	-2.7417	-3.125	-3.2729	-2.6813	-3.2771	-3.1792	-2.7542	-3.3979	-2.8542	-2.5229	-3.2812	54.506	69.625	17.938	-93.758	14.471	210.246	155.055	155.672	-44.146	189.718	140.712	178.822	225.819	-105.574	239.985	207.504	0.0010307	0.00058121	0.00024564	543.29	9.8145e-06	6.9815e-06	503.25	242.92	1.454e-06	9.6791e-06	240.99	113.06	115.76	69.308	6.5051e-06	63.764	0.001677	0.0019071	0.00049309	638.54	1.9311e-05	2.0947e-05	599.18	282.11	1.943e-05	2.0804e-05	291.13	131.38	135.04	78.653	1.8893e-05	72.766	-15.981	32.052	-5.137	-95.711	167.956	-3.029	-97.621	-89.689	251.091	18.012	-93.143	-88.975	-85.941	-81.259	16.453	-86.827	-8191	255	
3686.356	1	1	0	0	0.19158	0.039481	0.21566	0.10342	0.18852	0.060044	0.094212	0.17551	0.097624	0.22213	0.15702	0.20628	0.10585	0.086153	0.091204	0.10732	-2.0896	-3.1937	-3.2646	-2.7188	-3.4688	-2.9562	-2.8563	-3.7125	-2.6833	-3.3479	-3.0708	-2.6104	-3.3146	-3.0479	-2.7396	-3.5833	-85.709	234.929	-95.144	109.211	242.391	-57.950	202.593	246.702	201.432	-100.527	-1.373	-103.571	204.842	179.261	108.840	37.130	0.00072856	0.0012742	0.00012653	549.68	5.2854e-06	6.6552e-06	507.19	243.29	1.1763e-06	5.8168e-06	240.25	111.36	114.44	68.846	8.7381e-06	63.342	0.0017971	0.0018905	0.00049104	646.68	2.064e-05	2.0704e-05	603.04	283.36	2.0794e-05	2.0502e-05	290.74	129.62	134.66	78.018	1.8775e-05	72.336	-19.029	-72.255	3.228	-95.628	205.744	24.452	-97.510	-89.884	-82.246	46.442	-93.145	-88.956	-86.091	-81.328	28.425	-86.514	-8191	255	
3686.452	1	1	0	0	0.10788	0.24791	0.14348	0.088083	0.11694	0.33747	0.10486	0.13369	0.036764	0.084454	0.31323	0.31173	0.11117	0.20992	0.099381	0.098162	-2.4458	-3.0104	-3.3417	-2.5938	-3.4375	-3.0208	-2.7042	-3.3708	-2.5917	-2.8979	-3.5104	-2.6521	-3.2333	-2.9688	-2.5021	-3.6042	-59.528	239.882	214.946	-102.953	12.281	247.191	174.672	241.462	64.171	151.573	194.591	197.568	-60.236	-81.481	-38.570	117.450	0.00090145	0.001316	0.00020639	549.35	2.0424e-06	8.1031e-06	502.81	242.6	7.9723e-06	8.9571e-06	238.59	111.31	115.12	68.679	1.1749e-06	63.004	0.0018792	0.0018257	0.00048152	649.51	2.1254e-05	2.0033e-05	597.45	283.28	2.1344e-05	1.9713e-05	287.87	130.6	135.03	77.785	1.8193e-05	72.643	-16.469	-43.421	-40.951	-95.956	-71.035	39.218	-97.605	-89.820	-36.846	-22.672	-93.235	-89.025	-86.017	-81.398	92.134	-86.512	-8191	255	
3686.549	1	1	0	0	0.084619	0.1081	0.14435	0.097502	0.26148	0.15798	0.033563	0.10997	0.33491	0.075425	0.11725	0.17467	0.15355	0.21599	0.019031	0.081808	-2.4792	-2.7125	-3.1333	-2.4	-3.3896	-3.1229	-2.5	-3.2854	-2.8229	-2.8979	-3.4583	-2.5938	-3.0854	-3.3042	-2.6396	-3.4792	195.553	-37.951	226.186	238.233	-31.808	-5.294	91.650	5.801	138.595	-51.799	0.947	-107.456	-103.937	226.382	-62.641	-1.816	0.0007895	0.0013649	0.0001474	539.16	7.3299e-06	1.0698e-05	499.05	240.94	1.0909e-05	1.2676e-05	239.26	112.94	115.14	68.896	8.3893e-06	63.768	0.0019014	0.001776	0.00047425	644.45	2.129e-05	1.9911e-05	593.66	282.92	2.1445e-05	1.9533e-05	289.23	133.37	135.31	77.932	1.8669e-05	73.743	2.619	-55.373	-33.005	-95.652	17.888	30.035	-97.669	-89.578	42.378	22.786	-93.573	-89.313	-86.051	-81.688	-90.029	-86.524	-8191	255	
3686.669	1	1	0	0	0.17256	0.091746	0.14904	0.11582	0.054776	0.10698	0.37818	0.26414	0.16167	0.023621	0.20621	0.19324	0.17969	0.28076	0.32855	0.26476	-2.5625	-2.6125	-3.2917	-2.5062	-2.9104	-3.275	-2.6188	-3.4958	-3.1458	-2.8125	-3.4208	-2.5	-3.2354	-3.5417	-2.4292	-3.4021	223.916	22.847	45.815	214.062	15.455	21.975	244.680	-102.057	-16.481	140.195	229.447	213.148	-53.037	215.152	-39.267	191.171	0.00084293	0.0011009	6.5263e-05	536.63	1.4669e-05	7.369e-06	500.15	239.46	1.0741e-05	8.3095e-06	239.44	112.89	114.63	68.773	6.3851e-06	63.927	0.0018978	0.0017764	0.00048921	646.27	2.0923e-05	1.9698e-05	596	282.77	2.0801e-05	1.9028e-05	289.32	133.74	133.54	77.534	1.9138e-05	74.055	-3.566	-51.254	-33.367	-95.870	-12.771	25.942	-97.716	-89.779	42.171	29.649	-93.122	-89.093	-85.900	-81.522	148.204	-86.709	-8191	255	
3686.765	1	1	0	0	0.15116	0.18371	0.22943	0.34271	0.14147	0.20737	0.21035	0.066515	0.16249	0.45552	0.0087791	0.18774	0.14534	0.31087	0.29262	0.25798	-2.4188	-2.6104	-3.4	-2.6396	-2.9417	-3.2083	-2.6021	-3.3979	-3.0625	-2.5917	-3.4771	-2.6021	-2.9104	-3.5312	-2.4833	-3.2438	-96.377	142.829	47.134	218.345	105.365	23.211	159.338	68.819	204.422	-56.224	167.639	230.722	120.126	214.389	207.661	135.749	0.00081926	0.0010312	0.00010284	529.37	1.3453e-05	5.52e-06	492.9	236.04	1.5247e-05	8.4616e-06	237.83	114.39	114.78	69.054	5.3076e-06	64.461	0.0018191	0.0017188	0.00050302	638.91	2.0111e-05	1.9221e-05	593.1	279.95	2.0118e-05	1.8747e-05	291.27	135.12	133.82	77.93	2.0268e-05	74.478	0.473	-77.627	191.701	-96.069	9.599	19.121	-97.912	-89.860	68.603	26.364	-92.994	-89.024	-86.052	-81.657	149.126	-86.752	-8191	255	
3686.862	1	1	0	0	0.28098	0.051021	0.033113	0.083369	0.34616	0.2589	0.18001	0.28594	0.16291	0.12411	0.12688	0.19542	0.20722	0.068603	0.38884	0.25527	-2.7583	-2.6125	-3.5604	-2.9313	-2.6896	-3.3375	-2.5667	-3.25	-3.2625	-2.6042	-3.3625	-2.8292	-2.8917	-3.6708	-2.7104	-3.1937	-42.572	-29.731	25.017	67.571	-50.593	-80.413	184.903	206.470	-30.371	23.115	-104.983	249.138	95.857	-26.811	83.918	201.068	0.00083475	0.00049251	0.00027595	523.13	1.0328e-05	5.4745e-06	490.42	236.34	1.303e-05	3.8972e-06	241.06	116.03	115.84	69.486	7.1216e-06	65.17	0.0017633	0.0016853	0.00052848	631.1	1.9408e-05	1.889e-05	593.85	278.9	1.9806e-05	1.8819e-05	295.21	136.51	134.88	78.413	2.152e-05	74.905	-3.980	-93.204	25.531	-95.908	15.746	62.911	-98.074	-89.851	88.071	162.694	-93.395	-89.017	-86.252	-81.666	-59.195	-86.860	-8191	255	
3686.933	1	1	0	0	0.32548	0.23533	0.075596	0.12485	0.35215	0.017314	0.17513	0.14244	0.18094	0.12725	0.06993	0.12805	0.29506	0.18241	0.16666	0.51734	-2.7917	-2.575	-3.3688	-2.8604	-2.6458	-3.6292	-2.6937	-3.1	-3.4083	-2.5208	-3.3896	-2.9167	-2.4458	-3.4333	-2.5875	-3.1188	38.391	-93.835	-61.165	134.090	100.715	81.157	165.015	217.496	-26.286	68.844	-31.709	-20.401	218.102	180.251	104.122	137.379	0.00088746	0.00053182	0.00013086	526.24	1.8753e-06	9.2133e-06	494.17	237.22	4.6253e-06	4.2354e-06	242.15	116.78	116.16	69.506	9.3716e-06	65.29	0.0017713	0.0017509	0.00055436	629.85	1.9051e-05	1.9378e-05	598.82	278.41	1.9017e-05	1.9044e-05	296.89	136.2	134.41	78.34	2.0847e-05	74.473	4.400	-2.718	-50.407	-95.884	21.573	87.396	-97.682	-89.657	79.220	203.846	-93.252	-89.190	-86.391	-81.729	57.413	-86.627	-8191	255	
3687.052	1	1	0	0	0.050753	0.11453	0.16731	0.2727	0.15714	0.068786	0.054013	0.11642	0.066342	0.35405	0.079726	0.25351	0.25265	0.18366	0.35344	0.15306	-3.0146	-2.6271	-3.1125	-3.1917	-2.6521	-3.6917	-2.8625	-2.7854	-3.4167	-2.5792	-3.3146	-3.2333	-2.4396	-3.4146	-2.6104	-3.0312	-14.738	128.162	32.889	-47.880	240.547	63.743	85.784	163.097	225.708	122.308	159.559	208.745	-93.317	198.412	108.247	189.170	0.00081957	0.00072402	0.00026816	522.54	1.3404e-05	4.8876e-06	489.72	235.39	6.5966e-06	3.5521e-06	239.11	115.38	114.65	68.531	5.862e-06	64.339	0.0016437	0.001741	0.00052161	620.93	1.7524e-05	1.9055e-05	589.51	273.62	1.7285e-05	1.8532e-05	289.34	133.12	131.43	77.301	1.8637e-05	72.916	5.803	55.567	-32.650	-95.931	20.155	227.476	-98.012	-89.834	-2.625	192.608	-93.006	-89.266	-86.227	-81.822	-2.472	-87.104	-8191	255	
3687.148	1	1	0	0	0.22041	0.10234	0.12669	0.2422	0.20411	0.06717	0.26498	0.25777	0.24197	0.082867	0.1148	0.060489	0.263	0.18762	0.37292	0.18508	-2.9271	-2.3875	-2.9479	-3.0542	-2.5729	-3.3312	-2.6979	-2.7292	-3.4729	-2.5646	-3.15	-3.1708	-2.6625	-3.4042	-3.0229	-2.5417	-43.040	-89.558	-73.459	141.295	0.211	248.241	-97.382	141.715	49.684	50.346	224.659	124.301	215.366	185.148	198.060	234.702	0.0011213	0.00051116	0.00029297	518.96	5.1899e-06	1.8168e-06	485.1	232.33	5.4694e-06	2.2624e-06	236.71	114.22	113.58	68.36	1.1689e-05	64.094	0.0014774	0.0016645	0.00046384	610.73	1.6075e-05	1.8292e-05	576.93	268.19	1.6222e-05	1.8035e-05	283.1	131.08	129.56	76.798	1.7095e-05	72.369	-6.461	182.972	-13.929	-95.908	55.216	183.323	-97.611	-90.104	34.705	-51.090	-92.985	-89.323	-86.505	-81.987	12.696	-87.040	-8191	255	
3687.246	1	1	0	0	0.083803	0.072469	0.17131	0.078537	0.090069	0.086719	0.22892	0.074889	0.17506	0.020386	0.24654	0.07483	0.1807	0.26395	0.09154	0.07785	-3.0417	-2.4833	-3.0083	-3.2875	-2.5	-3.2979	-2.9188	-2.625	-3.4292	-2.6437	-3.1	-3.3458	-2.5062	-3.1104	-2.95	-2.5958	94.751	13.580	10.717	-50.470	-39.413	-16.719	90.909	-95.924	18.156	141.099	-50.553	-34.698	46.139	190.735	145.026	127.866	0.00099997	0.00074911	0.00016744	517.88	3.4962e-06	1.0569e-05	484.79	229.97	2.9737e-06	6.3995e-06	235.73	112.14	111.02	67.67	8.7283e-06	63.475	0.0014413	0.0016359	0.00042801	604.92	1.6088e-05	1.8089e-05	573.73	265.14	1.6622e-05	1.8219e-05	279.85	129.03	128.24	76.145	1.704e-05	71.763	-18.189	247.529	-36.233	-96.160	53.802	50.617	-98.180	-90.228	-80.155	-10.790	-93.532	-89.507	-86.475	-82.060	11.289	-87.241	-8191	255	
3687.365	1	1	0	0	0.21458	0.063934	0.12982	0.31751	0.1911	0.096489	0.23002	0.32193	0.07592	0.11668	0.11319	0.28104	0.17678	0.17454	0.13232	0.23675	-2.9646	-2.6917	-2.8625	-3.3063	-2.475	-3.1979	-3.0333	-2.7812	-3.3812	-2.8646	-2.8458	-3.1729	-2.7375	-3.4021	-3.2562	-2.6375	180.790	-72.950	-76.072	173.303	245.358	88.859	165.789	193.355	-78.119	-30.095	-27.694	-81.413	-38.827	238.732	-107.113	154.215	0.00089566	0.00020343	0.0002098	519.86	3.8882e-06	1.2563e-06	489.55	230.91	1.3396e-05	4.2149e-06	233.46	110.19	110.64	66.806	9.6079e-06	62.476	0.0015608	0.0016809	0.00042948	609.23	1.7346e-05	1.8192e-05	577.74	264.98	1.761e-05	1.8055e-05	277.8	127.06	128.24	75.203	1.6914e-05	70.715	-11.098	194.235	-23.053	-96.305	-42.615	86.337	-98.026	-90.185	206.875	50.053	-93.293	-89.371	-86.527	-81.891	12.087	-87.175	-8191	255	
3687.461	1	1	0	0	0.1743	0.5056	0.15548	0.11875	0.18037	0.061278	0.17809	0.077497	0.074705	0.16498	0.29787	0.068325	0.11268	0.25112	0.32978	0.15981	-2.7729	-2.7167	-2.5625	-3.3958	-2.7938	-3.1312	-3.3104	-2.4604	-3.275	-2.9083	-2.8042	-3.4896	-2.7083	-3	-3.0875	-2.6188	175.884	-83.811	183.820	154.776	-62.518	124.521	-58.260	88.964	139.142	-32.522	237.320	-61.510	-58.665	-66.944	137.315	180.094	0.00077956	0.0012577	0.00026129	523.36	6.4172e-06	1.4531e-05	492.26	233.29	8.3956e-07	7.8274e-06	234.49	110.6	111.72	66.831	5.2091e-06	62.511	0.0016392	0.0016571	0.00042415	614.87	1.8522e-05	1.7965e-05	579.76	268.73	1.8727e-05	1.8046e-05	279.4	128.23	129.85	75.185	1.7065e-05	70.973	-7.056	-64.268	-44.727	-96.239	169.599	-3.400	-98.208	-90.186	5.888	23.442	-93.344	-89.527	-86.226	-81.705	44.136	-87.007	-8191	255	
3687.557	1	1	0	0	0.17102	0.18378	0.028113	0.1142	0.16873	0.073207	0.3216	0.20838	0.10776	0.11521	0.029299	0.060465	0.14727	0.12419	0.16182	0.25533	-3.1042	-2.9792	-2.5833	-3.3354	-2.7188	-2.9229	-3.3854	-2.4062	-3.1771	-3.0979	-2.4292	-3.2833	-2.9062	-2.9646	-3.3583	-2.6708	27.565	-74.008	167.714	79.931	-12.668	-22.565	34.079	220.498	81.057	-20.806	132.769	-34.032	70.879	-83.214	-73.358	212.942	0.00085616	0.0010437	0.00023423	527.47	1.5074e-06	6.058e-06	495.19	233.89	1.6277e-05	9.3455e-06	237.29	110.97	112.41	67.096	9.9591e-06	62.799	0.0017051	0.0016561	0.00042629	623.39	1.9288e-05	1.7857e-05	583.87	272.15	1.9359e-05	1.82e-05	281.59	129.94	130.92	75.638	1.736e-05	71.916	-7.080	-34.886	-17.472	-96.233	104.277	1.809	-98.201	-90.065	55.791	29.190	-93.318	-89.477	-86.331	-81.574	27.425	-86.835	-8191	255	
3687.653	1	1	0	0	0.26954	0.15663	0.21248	0.20498	0.2447	0.076154	0.09684	0.18562	0.33848	0.11242	0.14281	0.03559	0.16471	0.048077	0.094535	0.14595	-2.875	-3.2	-2.4625	-3.3083	-2.7458	-2.8354	-3.4479	-2.6854	-3.1542	-3.2479	-2.4813	-3.3458	-2.7	-3.0271	-3.4333	-2.7521	245.585	60.570	80.018	187.495	113.445	-94.360	63.578	175.776	27.910	150.828	152.267	55.785	159.018	231.383	239.646	205.219	0.0010767	0.00072859	0.00028036	529.38	1.496e-05	1.0418e-05	495.24	233.97	1.5352e-05	7.1992e-06	235.83	111.61	113.2	67.369	5.4412e-06	62.62	0.0017486	0.0016901	0.00044065	630.17	1.988e-05	1.843e-05	588.06	275.39	2.0106e-05	1.92e-05	285.76	132.05	132.34	76.143	1.9357e-05	72.715	4.151	-44.953	-47.665	-96.136	26.049	26.551	-97.793	-90.075	67.415	-8.089	-93.108	-89.153	-86.280	-81.648	25.293	-86.871	-8191	255	
3687.750	1	1	0	0	0.073178	0.10049	0.32215	0.15386	0.1221	0.11399	0.36626	0.17081	0.070248	0.24482	0.12932	0.17726	0.14592	0.026519	0.20862	0.10374	-2.6854	-3.1063	-2.3187	-3.4208	-2.7708	-2.5542	-3.4958	-2.8979	-2.8792	-3.2354	-2.5396	-3.3354	-3.0312	-2.6417	-3.35	-2.6979	76.526	232.211	160.676	166.066	113.938	-39.830	187.405	164.558	158.668	132.448	-96.101	178.824	121.657	110.172	236.352	117.198	0.00079312	0.0007581	4.9125e-05	525.25	4.0771e-06	7.9786e-06	491.83	233.96	5.8504e-06	4.648e-06	236.36	112.73	112.63	67.344	2.3849e-06	62.975	0.0018585	0.0018394	0.00050057	636.6	2.138e-05	1.9986e-05	594.26	278.36	2.1259e-05	2.058e-05	290.36	133.67	132.9	76.475	2.1414e-05	73.345	-1.206	-12.364	64.446	-96.017	48.652	-5.093	-98.038	-89.913	43.492	32.315	-93.251	-89.169	-86.553	-81.514	9.539	-86.754	-8191	255	
3687.846	1	1	0	0	0.17513	0.090262	0.20942	0.11104	0.13094	0.14427	0.30349	0.079813	0.18753	0.18983	0.14481	0.28884	0.15044	0.15886	0.11895	0.17673	-2.6354	-3.2479	-2.6771	-3.2354	-3.0625	-2.4583	-3.4146	-2.7042	-2.8521	-3.2333	-2.6354	-3.2708	-2.9688	-2.8125	-3.4833	-2.6792	-46.210	-57.287	151.796	-101.452	74.932	98.229	145.198	232.018	-15.509	89.874	-56.756	187.258	190.784	175.256	158.455	49.126	0.00089282	0.0011054	0.00011429	526.77	6.2845e-06	9.3644e-06	493.48	234.55	3.5436e-06	1.1358e-05	235.46	112.23	111.88	67.265	1.5151e-06	63.204	0.0019103	0.0019118	0.00055187	640.94	2.1949e-05	2.0633e-05	601.18	279.09	2.1499e-05	2.1014e-05	293.03	133.51	132.11	76.31	2.2791e-05	73.622	0.146	-89.735	194.421	-95.856	62.068	5.121	-98.007	-89.865	-84.539	38.826	-93.219	-89.168	-86.303	-81.503	220.910	-86.969	-8191	255	
3687.966	1	1	0	0	0.26828	0.11117	0.12988	0.25417	0.17508	0.1551	0.18641	0.12593	0.16642	0.13164	0.2713	0.2683	0.1371	0.23026	0.32175	0.23497	-2.3292	-3.1417	-2.675	-3.3021	-3.2104	-2.4229	-3.1771	-2.8146	-2.4229	-3.4146	-2.6	-3.1708	-3.4021	-2.5417	-3.1292	-3.0021	17.778	-43.126	169.510	244.206	222.226	34.006	210.585	155.052	244.233	176.073	139.185	220.856	245.279	217.241	66.057	196.173	0.00086278	0.00020769	3.482e-05	527.64	5.8609e-06	5.0471e-06	493.16	233.97	6.0316e-06	6.4667e-06	234.24	111.41	111.69	67.172	3.6129e-06	62.87	0.0018965	0.0019282	0.0005813	637.9	2.143e-05	2.0652e-05	603.64	277.74	2.0964e-05	2.0964e-05	292.87	132.15	131.26	76.172	2.2691e-05	72.758	-0.622	-92.047	45.382	-95.906	-10.429	148.539	-97.884	-89.726	28.015	36.560	-93.077	-89.092	-86.267	-81.879	-91.707	-86.858	-8191	255	
3688.061	1	1	0	0	0.081686	0.1569	0.25159	0.099033	0.033355	0.030376	0.28132	0.21762	0.21472	0.18551	0.12254	0.041295	0.12055	0.10938	0.12357	0.11277	-2.2375	-3.4042	-2.7521	-2.9854	-3.0854	-2.5354	-3.3208	-3.2938	-2.4646	-3.3021	-2.6833	-2.9583	-3.5187	-2.8187	-3.1375	-3.1375	-87.128	211.027	70.759	240.525	-107.868	189.143	142.846	81.467	147.124	249.206	164.867	221.224	49.172	-73.247	196.782	-47.173	0.0011255	0.00015998	0.00010336	524.6	4.0554e-06	6.9095e-06	490.3	232.66	1.1454e-05	5.585e-06	235.91	112.14	112.79	67.41	1.1363e-05	63.402	0.0017981	0.0019033	0.00057489	631.07	2.0479e-05	2.0864e-05	600.39	275.7	2.0072e-05	2.1524e-05	293.44	132.44	131.86	76.784	2.2272e-05	72.995	5.890	-107.037	16.467	-95.659	45.001	75.081	-97.950	-90.134	26.249	-62.132	-93.092	-89.014	-86.246	-81.625	69.930	-86.889	-8191	255	
3688.157	1	1	0	0	0.23717	0.19969	0.17259	0.35247	0.056832	0.3493	0.037621	0.06289	0.1208	0.069016	0.33148	0.063606	0.38295	0.08939	0.17798	0.027231	-2.2083	-3.2375	-2.6167	-2.6542	-3.1312	-2.4417	-3.0958	-3.0458	-2.5812	-3.3729	-2.8667	-2.7021	-3.4625	-2.7229	-3.2812	-3.3063	117.028	248.528	201.531	-94.495	162.937	125.794	60.455	52.186	-1.983	56.737	118.448	215.401	-93.726	-21.556	-80.125	20.889	0.00077686	0.00021437	0.00035007	525.21	5.0137e-06	3.3204e-06	491.02	233.9	5.3219e-06	2.6308e-06	235.42	112.14	112.94	67.646	8.141e-06	63.788	0.0017694	0.0019825	0.00057102	629.94	2.0375e-05	2.1909e-05	599.66	276.28	2.0081e-05	2.2455e-05	293.02	132.16	132.12	77.172	2.1993e-05	73.492	-1.921	17.492	0.049	-95.829	3.872	-51.327	-97.796	-89.752	-36.767	123.254	-93.170	-89.196	-86.246	-81.602	-29.910	-86.829	-8191	255	
3688.230	1	1	0	0	0.16784	0.10762	0.063774	0.2561	0.17753	0.18543	0.21784	0.16428	0.27725	0.17143	0.075323	0.10952	0.1026	0.20835	0.27252	0.15752	-2.0167	-3.3167	-2.7917	-2.9	-3.2562	-2.4708	-3.2167	-3.3146	-2.4917	-3.0625	-2.875	-2.8438	-3.4542	-2.7375	-3.0854	-3.475	-1.497	100.381	-74.406	24.260	45.617	168.021	200.820	228.705	129.991	233.247	26.245	96.785	250.247	172.666	82.442	103.930	0.0007045	0.00037354	0.0002827	523.92	1.5161e-06	5.5921e-06	495.39	235.34	3.6994e-06	4.7867e-06	238.52	113.52	113.71	67.96	8.1604e-06	63.773	0.0017961	0.002076	0.00056066	629.02	2.0656e-05	2.2782e-05	601.27	277.27	2.0678e-05	2.3284e-05	294.75	133.6	133.95	77.857	2.1919e-05	73.613	-16.465	72.195	-51.998	-96.110	136.028	41.765	-97.808	-89.873	32.591	-28.407	-93.029	-89.168	-86.287	-81.733	-26.094	-86.878	-8191	255	
3688.349	1	1	0	0	0.25918	0.16908	0.022945	0.17332	0.19084	0.20011	0.17809	0.2198	0.16213	0.15963	0.18673	0.29118	0.062533	0.16186	0.074279	0.039848	-2.0792	-3.1417	-2.7354	-2.3917	-3.3271	-2.7375	-2.8979	-3.2396	-2.4729	-3.1312	-3.1104	-2.6958	-3.3563	-2.8271	-2.6208	-3.3479	226.933	163.302	49.441	156.556	174.319	90.996	206.925	145.827	100.131	246.636	247.226	-99.111	-83.173	175.870	233.480	202.723	0.001044	0.00095192	0.00014292	524.85	1.2887e-05	3.899e-06	492.64	236.39	7.3109e-06	8.0281e-06	238.09	113.71	114.26	68.052	6.0587e-06	63.657	0.001917	0.0021495	0.00056144	629.76	2.2074e-05	2.3656e-05	599.25	278.23	2.2122e-05	2.3552e-05	294.35	133.41	134.91	77.829	2.1697e-05	73.413	-26.110	-26.537	-72.650	-95.879	211.344	77.457	-97.884	-89.981	76.632	-21.059	-93.437	-89.055	-86.371	-81.746	-14.511	-86.803	-8191	255	
3688.445	1	1	0	0	0.13842	0.090001	0.085798	0.10845	0.21725	0.35929	0.13591	0.089237	0.23363	0.18915	0.065902	0.20204	0.27188	0.22414	0.04248	0.26032	-2.3021	-3.0646	-2.9854	-2.6146	-3.4792	-2.6521	-2.7	-3.35	-2.5271	-3.2896	-3.1479	-2.5729	-3.3229	-3.0208	-2.5458	-3.2979	31.464	-103.670	231.397	218.717	-92.375	112.303	153.489	244.423	73.971	214.456	227.570	-105.535	235.499	240.162	-70.814	185.101	0.0011259	0.00085945	0.00020761	526.46	8.6268e-06	9.1069e-06	499.7	236.59	1.9896e-06	9.4589e-06	238.76	113.25	114.06	67.98	4.2238e-06	63.533	0.0020352	0.0021354	0.00055829	632.96	2.3205e-05	2.324e-05	601.82	279.16	2.3032e-05	2.2805e-05	294.77	133.54	135.41	77.638	2.1102e-05	73.638	-17.285	-47.790	-60.237	-95.891	-93.137	65.048	-97.598	-89.635	-58.470	16.890	-93.330	-89.096	-86.296	-81.623	-30.849	-86.720	-8191	255	
3688.542	1	1	0	0	0.042752	0.091997	0.20082	0.18262	0.22377	0.10799	0.30675	0.21124	0.084719	0.10397	0.28094	0.26312	0.14837	0.2292	0.13609	0.078051	-2.0208	-3.05	-3.0771	-2.4562	-3.2104	-2.9646	-2.6896	-3.3479	-2.6771	-2.9437	-3.3479	-2.4813	-3.2792	-3.1104	-2.7375	-3.7604	137.095	231.623	174.530	98.935	-44.951	80.851	180.605	-96.113	164.517	21.144	148.771	-69.774	127.018	220.366	212.223	91.951	0.00082029	0.00037978	0.00028649	529.02	1.0433e-05	1.4063e-05	498.7	237.48	2.2106e-06	1.1549e-05	240.18	113.32	114.77	68.099	3.6047e-06	63.749	0.0021012	0.0020561	0.00054914	636.5	2.3707e-05	2.2586e-05	601.54	281.1	2.36e-05	2.2062e-05	294.64	134.58	135.85	77.651	2.0526e-05	74.005	1.659	74.525	-60.183	-95.943	62.884	42.339	-97.854	-89.756	45.471	-1.476	-93.193	-89.267	-86.121	-81.637	29.700	-86.672	-8191	255	
3688.638	1	1	0	0	0.16694	0.075276	0.064419	0.35279	0.25443	0.054467	0.30941	0.54596	0.16258	0.11672	0.020885	0.034353	0.28508	0.053762	0.11938	0.20175	-2.2083	-2.825	-3.3417	-2.4333	-3.2208	-2.9917	-2.5396	-3.3583	-2.7604	-2.8292	-3.3292	-2.4833	-3.2042	-3.3417	-2.3333	-3.4437	223.783	-76.137	207.174	154.921	107.738	-26.137	-95.857	248.666	245.237	-9.453	-60.719	14.240	218.191	250.180	23.010	166.205	0.00089761	0.0011585	0.00029783	525.28	1.5764e-06	9.139e-06	494.45	236.42	7.6552e-06	1.0737e-05	237.95	112.87	113.69	67.707	6.754e-06	63.352	0.0020652	0.0019707	0.00052585	636.29	2.2934e-05	2.1639e-05	595.72	280.11	2.2892e-05	2.1205e-05	291.84	134.4	134.53	77.077	2.0162e-05	73.811	-10.086	-48.173	-58.507	-95.953	95.547	9.488	-97.580	-89.764	-44.556	30.845	-93.100	-89.175	-86.067	-81.566	-18.927	-86.587	-8191	255	
3688.758	1	1	0	0	0.20323	0.19078	0.076179	0.112	0.11493	0.33407	0.20719	0.11175	0.039016	0.061313	0.26073	0.092125	0.39273	0.19972	0.053572	0.052006	-2.5896	-2.5729	-3.4104	-2.5771	-3.025	-3.3146	-2.5417	-3.3688	-2.75	-2.5833	-3.4958	-2.4979	-2.9729	-3.3812	-2.6375	-3.3292	166.144	116.895	-59.152	-50.591	-63.685	130.460	-105.317	-10.505	167.344	-69.670	191.920	-12.555	-104.178	200.693	249.702	235.340	0.0008943	0.0010505	0.00011932	525.45	1.1571e-05	1.2102e-05	494.77	236.46	1.4341e-05	1.1663e-05	238.48	113.18	114.41	67.847	3.8757e-06	63.713	0.0020233	0.0019204	0.00052649	639.37	2.2067e-05	2.1192e-05	595.81	280.7	2.2016e-05	2.0425e-05	292.08	134.68	133.93	76.984	2.0362e-05	74.138	19.668	0.628	200.849	-96.071	24.416	35.783	-97.784	-89.746	42.530	7.822	-93.144	-89.211	-86.133	-81.662	32.978	-86.794	-8191	255	
3688.830	1	1	0	0	0.064344	0.22421	0.071233	0.048947	0.22839	0.26642	0.094601	0.2384	0.30707	0.15588	0.23355	0.31425	0.068648	0.33449	0.19734	0.082561	-2.3896	-2.5312	-3.1125	-2.5938	-2.9896	-3.3125	-2.7292	-3.2687	-2.9917	-2.7042	-3.5958	-2.8521	-2.9188	-3.3958	-2.4	-3.3042	180.133	-41.370	81.764	-2.874	28.290	115.566	78.913	-64.515	-18.885	-75.163	246.392	29.449	159.898	250.777	148.123	161.228	0.00075706	0.0006121	0.00012043	526.7	2.7173e-06	8.1125e-06	494.26	235.83	1.5591e-06	7.4467e-06	239.23	113.75	114.2	67.903	2.5839e-06	63.769	0.0019254	0.0018487	0.0005354	639.44	2.137e-05	2.0706e-05	599.29	280.71	2.1742e-05	2.0399e-05	295.32	135.44	134	77.093	2.1729e-05	74.098	1.572	-98.612	90.709	-95.917	105.592	9.292	-97.886	-89.727	-48.931	-9.384	-93.057	-88.997	-86.299	-81.467	-41.430	-86.722	-8191	255	
3688.926	1	1	0	0	0.31024	0.21262	0.25981	0.088707	0.27584	0.23808	0.15451	0.1537	0.12907	0.28092	0.18789	0.25119	0.15475	0.18634	0.19205	0.098236	-2.5042	-2.3354	-3.2417	-2.7958	-2.6937	-3.1437	-2.5104	-3.4104	-3.0917	-2.5854	-3.4813	-2.7687	-2.6979	-3.2771	-2.6042	-3.0333	227.808	-5.634	-2.648	193.025	-37.961	-92.268	111.207	65.659	53.490	91.738	244.441	151.627	114.890	168.788	-3.448	105.643	0.00064462	0.0010452	0.00010656	525.41	2.6914e-06	3.1021e-06	494.66	235.86	5.2278e-06	2.2594e-06	237.81	113.05	113.6	67.679	5.2477e-06	63.487	0.0019161	0.0018439	0.00056401	638	2.1036e-05	2.0558e-05	600.88	279.3	2.1058e-05	2.0001e-05	294.88	134.13	133.14	76.728	2.2547e-05	73.443	-13.229	-63.697	83.868	-95.530	32.365	216.280	-97.623	-89.259	32.071	-6.994	-92.791	-88.811	-85.593	-81.142	-79.218	-86.205	-8191	255	
3689.047	1	1	0	0	0.16776	0.22459	0.14877	0.26237	0.080759	0.18385	0.21935	0.22228	0.063207	0.11676	0.22645	0.11555	0.27888	0.039361	0.36482	0.25139	-2.9875	-2.5833	-3.2958	-3.0271	-2.8875	-3.2687	-2.6083	-2.925	-3.3646	-2.5042	-3.1958	-2.9667	-2.7	-3.5771	-2.5938	-2.9021	-13.075	252.974	137.915	189.429	150.181	191.486	167.855	208.688	84.891	92.942	196.327	-3.668	-81.778	73.485	113.434	161.516	0.00072785	0.00067241	0.00014063	525.48	7.7863e-06	1.3639e-06	490.3	234.12	1.278e-05	1.9363e-06	237.86	112.95	113.28	67.562	5.9426e-06	63.811	0.0018678	0.0018645	0.0005815	634.54	2.0418e-05	2.0931e-05	602.93	277.43	2.1004e-05	2.0887e-05	296.33	133.78	132.66	76.927	2.3234e-05	73.638	-8.817	-37.701	59.592	-95.185	-11.954	157.461	-97.181	-88.902	24.689	236.999	-92.692	-88.991	-85.456	-81.077	1.990	-86.259	-8191	255	
3689.143	1	1	0	0	0.27319	0.23541	0.047849	0.27463	0.13982	0.16878	0.17624	0.11476	0.099136	0.22622	0.062019	0.16377	0.18513	0.33276	0.073582	0.21357	-2.9146	-2.4062	-3.2333	-3.0396	-2.4813	-3.2313	-2.65	-2.8833	-3.35	-2.4479	-3.2979	-3.2771	-2.6813	-3.4542	-2.8729	-3.1021	11.661	140.065	89.598	171.979	-3.178	-80.258	-106.462	11.283	-67.877	60.848	-74.114	214.591	-106.474	234.697	145.052	247.673	0.00091794	0.00053535	0.00017784	520.48	7.2992e-06	6.8131e-06	493.75	234.77	2.4565e-06	2.4183e-06	239.34	113.65	113.61	67.896	4.5462e-06	63.757	0.0018786	0.0019749	0.00059745	632.16	2.0646e-05	2.2319e-05	605.89	277.48	2.1046e-05	2.2402e-05	297.86	134.64	133.09	77.454	2.3491e-05	73.761	4.740	141.020	-23.983	-95.661	77.843	251.186	-97.171	-89.378	187.056	230.237	-92.561	-88.823	-85.867	-81.388	73.342	-86.003	-8191	255	
3689.237	1	1	0	0	0.20195	0.10594	0.1439	0.29329	0.12958	0.30057	0.1334	0.053402	0.27247	0.17537	0.17075	0.049009	0.1745	0.17931	0.17067	0.17245	-2.9083	-2.5854	-3.1729	-3.1312	-2.6896	-3.3063	-3.1417	-2.9458	-3.4375	-2.5875	-3.0292	-3.1625	-2.7125	-3.3917	-2.6833	-2.6729	130.684	160.671	216.724	-30.027	89.005	2.637	121.394	144.897	234.488	99.403	180.221	-59.198	52.601	222.390	12.961	-95.458	0.00095647	0.00096778	8.1422e-05	523.17	9.1085e-06	9.8483e-06	494.09	233.74	5.3077e-06	4.5808e-06	236.32	112.84	112.26	67.252	1.4128e-05	63.148	0.001904	0.0021177	0.00059156	632.09	2.0999e-05	2.3572e-05	602.47	276.53	2.1468e-05	2.3648e-05	294.35	133.39	132.45	77.186	2.2973e-05	73.047	-13.913	251.465	-92.508	-95.657	59.308	89.249	-97.556	-89.228	-71.419	203.947	-93.076	-89.108	-86.108	-81.444	18.881	-86.688	-8191	255	
3689.335	1	1	0	0	0.071898	0.28162	0.23593	0.12301	0.072729	0.072009	0.17295	0.20361	0.22698	0.053561	0.18249	0.13719	0.23473	0.089046	0.04348	0.12582	-3.1063	-2.6917	-3.025	-3.3375	-2.4521	-3.3333	-3.1021	-2.6562	-3.2458	-2.8667	-2.9771	-3.4146	-2.5271	-3.325	-3.15	-2.8125	87.113	155.675	194.649	249.922	83.241	186.536	-1.749	182.087	-96.545	212.695	113.624	149.729	222.016	175.486	-106.229	-106.771	0.0009793	0.00030478	0.00039024	523.24	7.7631e-06	5.0196e-06	493.02	233.92	1.0822e-05	1.9893e-06	237.78	112.48	112.46	67.437	1.0675e-05	62.903	0.0019476	0.0021979	0.00057794	631.68	2.1591e-05	2.4065e-05	601.86	276.19	2.2215e-05	2.3889e-05	293.32	132.75	132.93	77.125	2.2115e-05	72.69	-8.552	-15.900	-60.200	-95.933	156.124	79.725	-98.019	-89.769	-94.792	108.849	-92.793	-89.149	-86.341	-81.431	47.775	-86.778	-8191	255	
3689.454	1	1	0	0	0.068059	0.10734	0.055513	0.28548	0.22068	0.29076	0.21157	0.14844	0.15562	0.091579	0.18456	0.17138	0.18566	0.25516	0.23097	0.1833	-3.0417	-2.5521	-2.7583	-3.3375	-2.5896	-2.9521	-3.1875	-2.8667	-3.2646	-2.7792	-2.7458	-3.5208	-2.6271	-3.1417	-3.2417	-2.7083	-51.960	244.744	44.515	225.030	221.945	212.767	180.877	178.550	20.791	-4.814	169.815	223.937	187.508	199.608	29.549	221.160	0.0010162	0.00073834	0.00038217	524.93	3.6013e-06	7.9815e-06	492.96	233.83	9.235e-06	1.4294e-05	238.65	111.64	112.04	67.283	1.0977e-05	63.027	0.0019988	0.0021465	0.00054654	630.66	2.2177e-05	2.3209e-05	599.96	274.84	2.2637e-05	2.3107e-05	291.5	132.17	132.99	76.83	2.1253e-05	72.574	-12.667	-71.832	-26.476	-95.973	159.070	23.146	-98.067	-89.634	160.323	19.308	-93.017	-89.000	-85.997	-81.422	-12.831	-86.714	-8191	255	
3689.526	1	1	0	0	0.18079	0.22149	0.064036	0.12784	0.088149	0.18233	0.070662	0.12245	0.05194	0.16305	0.052782	0.28384	0.08997	0.17208	0.052397	0.21114	-2.9229	-2.8312	-2.4188	-3.5167	-2.65	-2.95	-3.1646	-2.6479	-3.375	-2.8958	-2.4896	-3.5479	-2.5563	-3.1583	-3.2417	-2.7271	105.744	5.988	141.069	212.994	-10.796	169.556	145.916	74.206	-93.959	6.195	229.063	194.680	54.982	194.817	177.009	132.634	0.0009554	0.0012373	0.00036741	523.97	1.5696e-06	7.0578e-06	495.26	233.61	2.5647e-06	7.3187e-06	236.56	111.8	112.57	67.465	3.1123e-06	63.114	0.0020364	0.0020555	0.00052718	630.73	2.2518e-05	2.1994e-05	596.41	274.74	2.2757e-05	2.1954e-05	288.48	132.09	133.25	76.725	2.0654e-05	72.688	-16.811	-79.456	-41.102	-96.081	207.523	43.394	-97.981	-89.825	62.457	64.794	-93.194	-89.093	-86.206	-81.476	-49.648	-86.701	-8191	255	
3689.646	1	1	0	0	0.38727	0.31776	0.1124	0.26949	0.11671	0.089969	0.14357	0.1126	0.11671	0.040699	0.11758	0.21591	0.30195	0.12147	0.22247	0.17151	-2.9875	-2.7313	-2.5187	-3.5458	-2.65	-2.9167	-3.3729	-2.5417	-3.3896	-2.9229	-2.5438	-3.2667	-2.7812	-3.0875	-3.4354	-2.7354	-11.102	51.427	17.429	14.515	-6.837	16.937	250.136	99.539	-30.510	-5.384	214.938	183.414	140.791	161.102	70.623	-70.356	0.00085302	0.00068183	0.00026807	522.73	7.4906e-06	1.2258e-05	492.82	234.37	1.0486e-05	4.5722e-06	236.1	112.49	112.8	67.672	6.1344e-06	63.522	0.0020338	0.001977	0.00050902	629.97	2.273e-05	2.1247e-05	593.72	275.92	2.2799e-05	2.1438e-05	288.4	133.25	133.58	76.776	2.0387e-05	73.578	-4.520	-29.909	-23.225	-95.620	-68.535	1.323	-97.924	-89.947	-89.382	3.619	-93.086	-89.223	-86.280	-81.437	69.329	-86.899	-8191	255	
3689.743	1	1	0	0	0.074154	0.17638	0.14024	0.07836	0.032355	0.11679	0.038063	0.1648	0.16413	0.2314	0.22496	0.26065	0.16572	0.17824	0.17778	0.080844	-2.8833	-2.8146	-2.3937	-3.5917	-2.75	-2.8271	-3.4292	-2.6167	-3.0771	-2.9229	-2.4083	-3.4583	-2.975	-2.9229	-3.3854	-2.7042	215.675	-49.644	223.532	104.361	-13.392	-92.824	163.584	-45.991	194.985	177.231	118.037	-91.078	196.710	183.321	218.787	190.192	0.00079254	0.0013667	0.00011065	522.63	3.09e-06	1.1433e-05	494.42	234.41	1.1688e-05	4.4165e-06	238.1	113.03	113.48	67.702	4.6971e-06	64.171	0.0020102	0.0019458	0.00050246	636.27	2.2584e-05	2.0925e-05	596.21	278.58	2.2334e-05	2.1312e-05	290.08	134.87	134.07	76.985	2.0418e-05	74.526	1.537	-77.682	-2.019	-95.696	38.519	69.644	-97.791	-89.623	99.316	-50.512	-92.990	-88.950	-86.286	-81.439	-34.429	-86.752	-8191	255	
3689.839	1	1	0	0	0.357	0.19123	0.082104	0.246	0.25858	0.30796	0.22986	0.23822	0.12407	0.11454	0.24903	0.14894	0.15178	0.32828	0.082109	0.19342	-2.6896	-3.0958	-2.2292	-3.3937	-2.8896	-2.6771	-3.4146	-2.6813	-2.8417	-3.3979	-2.6708	-3.4833	-3.2229	-2.8208	-3.35	-2.6167	226.158	-105.360	-54.947	-75.715	145.058	250.224	145.336	220.615	-47.171	-95.448	170.438	236.697	148.570	235.287	31.775	230.091	0.00074831	0.00017469	6.6507e-05	525.59	5.0742e-06	1.0474e-05	494.07	235.68	9.4036e-06	5.1129e-06	238.13	113.89	114.11	68.227	7.4659e-06	64.208	0.0019367	0.0019025	0.00050816	636.54	2.162e-05	1.9985e-05	595.96	279.67	2.13e-05	2.0676e-05	291.59	135.9	134.26	77.249	2.1746e-05	74.787	4.627	34.026	144.506	-95.876	-56.223	52.902	-97.931	-89.503	34.265	63.274	-93.166	-89.002	-86.271	-81.412	178.240	-86.690	-8191	255	
3689.935	1	1	0	0	0.10204	0.19752	0.23369	0.090783	0.10022	0.10367	0.054042	0.1154	0.20048	0.20078	0.241	0.23797	0.17806	0.35499	0.12093	0.32531	-2.2833	-3.1	-2.6312	-3.2646	-2.9375	-2.4562	-3.2917	-2.5917	-2.7208	-3.3354	-2.6125	-3.2458	-3.0417	-2.6417	-3.375	-2.9646	-48.444	188.388	0.163	201.879	124.239	227.289	189.395	-10.525	186.839	162.739	118.265	137.562	247.480	233.003	176.360	168.638	0.0008555	0.0012332	0.00021323	523.78	1.7279e-06	8.4207e-06	494.58	236.36	9.0862e-06	4.3515e-06	241.03	115.18	115.08	68.688	1.0486e-05	64.654	0.0019576	0.0019794	0.00056794	641.81	2.2951e-05	2.1488e-05	607.04	283.93	2.2639e-05	2.2326e-05	300.53	137.93	136.1	77.892	2.3833e-05	75.458	9.425	-32.720	96.228	-95.625	-29.045	-7.712	-97.507	-89.652	94.103	0.613	-92.709	-88.628	-85.742	-81.112	236.322	-86.435	-8191	255	
3690.055	1	1	0	0	0.045569	0.16118	0.067081	0.16807	0.14212	0.12493	0.20526	0.2384	0.11488	0.28613	0.13561	0.17372	0.34131	0.30418	0.085414	0.12713	-2.3583	-3.4271	-2.4042	-3.1833	-3.0271	-2.3542	-3.2917	-2.7979	-2.5312	-3.5083	-2.6604	-3.1875	-3.2354	-2.7021	-3.4646	-3.1396	-51.375	116.172	31.913	147.039	57.758	133.355	172.885	-29.535	137.441	-84.940	-20.088	-12.483	-106.347	155.663	-37.883	115.484	0.00075288	0.0010479	0.00018875	525.05	4.8394e-06	4.7636e-06	494.49	236.66	7.9856e-06	2.3721e-06	241.04	116.1	116.06	68.855	1.7919e-06	65.187	0.0019686	0.0019947	0.00060431	640.16	2.2451e-05	2.1424e-05	610.12	283.04	2.1825e-05	2.1717e-05	302.62	137.94	136.22	78.366	2.4098e-05	75.704	-10.224	-60.613	25.511	-95.449	23.901	145.997	-97.531	-89.570	-3.533	160.136	-92.329	-88.754	-85.946	-81.280	-7.531	-86.368	-8191	255	
3690.127	1	1	0	0	0.22905	0.18455	0.048497	0.18168	0.13132	0.24221	0.074357	0.13883	0.20256	0.071441	0.124	0.16364	0.14168	0.21126	0.46708	0.08831	-2.2708	-3.4292	-2.75	-3.125	-3.2854	-2.5563	-3.5854	-3.1875	-2.7667	-3.4188	-2.5708	-2.9875	-3.1667	-2.5187	-3.0875	-2.9813	83.868	-77.941	143.672	127.609	-20.994	-45.641	60.596	232.461	40.777	191.736	30.896	66.152	-40.726	251.025	140.795	-50.880	0.00085028	0.00045798	8.4997e-05	525.46	5.8972e-06	6.3461e-06	497.83	237.1	1.2639e-05	6.6753e-06	240.72	114.59	115.07	68.67	4.3065e-06	64.715	0.0019062	0.0020073	0.00061626	639.33	2.1623e-05	2.1902e-05	611.59	281.54	2.105e-05	2.2326e-05	301.53	136	134.93	78.208	2.3431e-05	74.869	-14.036	-10.812	-15.212	-94.881	9.443	131.865	-97.268	-89.247	-6.173	204.167	-92.383	-88.489	-85.556	-80.962	41.344	-86.339	-8191	255	
3690.222	1	1	0	0	0.045869	0.21904	0.017016	0.15839	0.1615	0.1208	0.14889	0.20259	0.12237	0.17375	0.21648	0.3633	0.084473	0.050579	0.01478	0.16618	-2.05	-3.1833	-2.7229	-2.8083	-3.3271	-2.675	-3.2625	-3.1479	-2.8271	-3.4083	-2.7542	-2.9729	-3.4875	-2.9083	-3.1104	-3.2375	23.385	91.223	131.152	173.058	230.749	19.679	169.572	-97.228	-80.659	172.823	169.228	216.808	250.475	215.212	39.534	-33.954	0.00077562	0.00088161	0.00011698	525.45	5.2361e-06	4.7286e-06	500.04	236.64	1.497e-07	8.103e-06	240.26	114.17	114.35	68.484	1.0354e-05	64.996	0.0018289	0.002054	0.00059706	633.3	2.0772e-05	2.2462e-05	606.73	279.44	2.0245e-05	2.2758e-05	297.96	134.35	133.93	78.209	2.2407e-05	74.62	-12.913	130.184	-60.642	-94.718	-99.330	-22.817	-96.554	-88.587	180.381	60.971	-92.323	-88.322	-85.139	-80.549	25.576	-85.153	-8191	255	
3690.318	1	1	0	0	0.21604	0.053214	0.11413	0.10654	0.050657	0.26614	0.258	0.33444	0.10487	0.38138	0.075852	0.22661	0.23516	0.27778	0.13846	0.33258	-1.9854	-3.2208	-2.8104	-2.8458	-3.4292	-2.8792	-3.2646	-3.2917	-2.5896	-3.4062	-3.1	-2.6875	-3.1854	-2.9479	-2.925	-3.4938	55.963	83.830	-1.725	228.327	119.078	130.967	103.092	220.662	28.726	166.557	92.229	-101.405	168.866	101.287	-5.734	241.967	0.00096282	0.00049946	0.00041913	528.37	6.5956e-06	2.9289e-06	499.88	237.6	3.3328e-06	3.7036e-06	240.98	114.4	114.7	69.109	1.1571e-05	65.408	0.0017976	0.0020881	0.00056912	634.21	2.0573e-05	2.3001e-05	605.47	279.72	2.0353e-05	2.3302e-05	297.21	134.24	134.62	78.917	2.18e-05	75.081	-9.164	-29.463	-37.925	-94.040	122.487	61.900	-96.018	-88.239	246.884	167.318	-92.183	-88.185	-84.878	-80.163	41.989	-85.336	-8191	255	
3690.416	1	1	0	0	0.20106	0.051015	0.19915	0.26136	0.059117	0.087214	0.061808	0.16295	0.070984	0.073625	0.30106	0.022541	0.13995	0.18829	0.24611	0.28677	-2.2062	-3.3063	-2.9271	-2.5458	-3.4417	-2.8	-3.2062	-3.3667	-2.5958	-3.2104	-2.8958	-2.4354	-3.3771	-2.8521	-2.675	-3.3625	112.920	96.760	-61.344	217.986	-79.355	54.934	182.925	226.844	-33.169	247.249	127.525	-73.944	182.741	238.741	215.746	217.645	0.0011502	0.0016496	2.1904e-05	530.95	7.0152e-06	6.3219e-06	497.26	237.75	9.9318e-06	4.0018e-06	240.11	114.22	114.11	69.162	6.3765e-06	65.108	0.0018905	0.0021498	0.00056052	634.77	2.1729e-05	2.3485e-05	603.84	279.54	2.1694e-05	2.3307e-05	295.11	133.75	134.8	78.916	2.1201e-05	74.826	-14.498	-14.915	128.237	-94.570	181.603	24.757	-97.095	-89.131	251.733	137.483	-92.909	-89.254	-86.106	-81.674	47.620	-87.179	-8191	255	
3690.534	1	1	0	0	0.1029	0.081645	0.11603	0.25428	0.41515	0.16693	0.019762	0.46831	0.30559	0.14771	0.23642	0.14297	0.21745	0.13553	0.16629	0.092403	-2.175	-2.9417	-3.0438	-2.6437	-3.3042	-2.7833	-2.6646	-3.3146	-2.725	-3.1417	-3.0938	-2.6354	-3.3854	-2.9188	-2.7479	-3.5042	208.715	181.923	67.205	239.123	7.734	-26.791	187.468	195.521	142.434	110.073	183.521	1.632	-65.998	190.717	169.762	43.238	0.0010125	0.00071657	8.501e-05	526.89	2.3722e-06	1.1791e-05	496.4	236.85	4.5729e-07	1.2451e-05	239.5	113.75	114.3	68.979	1.8504e-06	65.127	0.0019909	0.0020999	0.00055161	631.05	2.2869e-05	2.3422e-05	600.19	278.89	2.3411e-05	2.3377e-05	295.42	134.48	135.93	78.776	2.1437e-05	75.218	-13.476	226.447	-1.471	-96.263	141.162	14.490	-98.033	-90.052	89.826	-16.118	-93.379	-89.410	-86.428	-81.718	-42.092	-86.861	-8191	255	
3690.631	1	1	0	0	0.19606	0.064256	0.19859	0.15926	0.083401	0.16166	0.043223	0.091358	0.14596	0.33627	0.18862	0.15527	0.454	0.12577	0.08621	0.14388	-2.1813	-3.0312	-3.1125	-2.6333	-3.0563	-2.725	-2.7333	-3.3229	-2.6479	-2.8646	-3.3333	-2.4854	-3.2854	-3.1063	-2.4979	-3.5708	34.319	217.705	-24.245	206.871	98.535	-17.710	135.661	205.926	-79.730	11.795	-69.098	91.283	202.691	-80.673	84.679	183.510	0.00095613	0.00093723	0.00021704	523.96	2.8369e-06	1.2005e-05	494.08	235.51	6.181e-06	1.0066e-05	238.32	113.44	114.21	69	9.6731e-06	64.981	0.0021169	0.0020832	0.00055341	631.07	2.3966e-05	2.3026e-05	598.31	278.78	2.4341e-05	2.2745e-05	294.53	134.86	135.9	78.656	2.124e-05	75.594	-3.677	-88.246	-26.236	-96.254	120.288	-22.409	-97.868	-90.213	-60.437	13.931	-93.462	-89.692	-86.748	-81.852	59.848	-87.153	-8191	255	
3690.727	1	1	0	0	0.12283	0.23637	0.16624	0.1412	0.099322	0.070062	0.19352	0.18228	0.16314	0.30831	0.14619	0.22123	0.28936	0.2685	0.17544	0.16757	-2.2625	-2.9542	-3.2583	-2.3646	-3.1354	-3.1792	-2.5187	-3.3	-2.9083	-2.8521	-3.2958	-2.5167	-3.2687	-3.1333	-2.4167	-3.4479	59.982	37.550	121.478	-87.119	242.185	53.164	-65.111	176.185	29.055	229.185	240.181	218.727	185.420	244.525	4.847	170.201	0.00073965	0.0017393	0.00013077	523.78	9.1015e-06	6.6268e-06	493.09	233.81	1.8469e-06	1.6225e-06	236.31	111.9	111.71	67.706	6.6428e-06	64.093	0.0021671	0.0020504	0.00054855	634.93	2.3874e-05	2.2326e-05	595.19	278.14	2.3673e-05	2.1719e-05	290.53	133.77	132.98	77.222	2.0539e-05	74.69	1.894	-42.197	-1.487	-96.255	6.642	46.643	-98.098	-90.092	-9.984	31.075	-93.263	-89.391	-86.428	-82.033	-78.712	-87.069	-8191	255	
3690.823	1	1	0	0	0.11698	0.12891	0.21622	0.07634	0.20856	0.10011	0.18142	0.25943	0.19898	0.14468	0.089732	0.056252	0.02359	0.23627	0.13515	0.23243	-2.5021	-2.6688	-3.375	-2.6708	-3.1688	-3.1083	-2.4979	-3.2958	-2.975	-2.9417	-3.3063	-2.6458	-3.0354	-3.3042	-2.5042	-3.4625	-36.317	164.662	-76.592	236.974	46.639	44.786	35.368	152.318	12.009	184.526	38.727	-15.637	-22.064	185.833	79.651	215.649	0.00079687	0.0015006	0.00020047	524.63	1.8009e-05	1.9895e-06	489.89	232.06	1.1162e-05	6.7945e-06	235.51	110.92	111.02	67.113	8.825e-06	63.442	0.0020728	0.0019497	0.00053421	638.23	2.2816e-05	2.16e-05	593.36	277.71	2.276e-05	2.1044e-05	289.5	132.91	131.62	76.453	2.0934e-05	74.174	-13.736	-54.964	17.387	-96.387	-3.738	170.441	-98.105	-90.266	-2.344	-12.743	-93.610	-89.207	-86.454	-81.987	210.515	-87.290	-8191	255	
3690.919	1	1	0	0	0.14768	0.22874	0.092471	0.09089	0.22133	0.34547	0.2438	0.14074	0.16253	0.2428	0.080995	0.16541	0.48366	0.24082	0.11316	0.098951	-2.5771	-2.5771	-3.4313	-2.7708	-2.9375	-3.0854	-2.4292	-3.1792	-3.0438	-2.5875	-3.3771	-2.8833	-2.8583	-3.5854	-2.4667	-3.2271	202.000	78.546	32.817	173.344	106.902	108.294	113.587	-76.560	250.937	-19.462	219.573	158.136	202.120	235.252	246.181	154.877	0.00070041	0.00070187	0.00010904	526.82	1.3269e-05	8.2248e-06	493.22	234.42	1.2236e-05	4.5001e-06	236.26	111.67	111.8	67.29	1.6717e-06	63.558	0.0019943	0.0019033	0.00054568	643.58	2.1957e-05	2.1221e-05	599	279.93	2.2215e-05	2.0721e-05	292.72	133.73	131.8	76.51	2.1948e-05	74.29	-1.741	-5.041	7.166	-96.366	-0.286	9.770	-98.614	-90.226	26.656	101.672	-93.551	-89.651	-86.582	-81.794	98.945	-87.210	-8191	255	
3691.015	1	1	0	0	0.16484	0.1891	0.086591	0.22058	0.1206	0.047819	0.035709	0.11219	0.21815	0.065032	0.23013	0.24166	0.42924	0.284	0.022712	0.14742	-2.65	-2.65	-3.1417	-2.6937	-2.7667	-3.2896	-2.3792	-3.0812	-3.0521	-2.4958	-3.3833	-3.0208	-2.7125	-3.4813	-2.8083	-3.0438	137.268	-6.955	-59.003	108.297	4.351	-4.622	235.585	-74.251	-60.496	125.609	160.026	211.851	-64.620	250.180	112.963	-103.696	0.00058837	0.000836	0.00018898	528.49	4.0292e-06	4.2467e-06	495.42	233.98	3.2876e-06	6.8708e-06	236.47	111.74	111.81	67.164	9.652e-06	63.894	0.0019413	0.0018618	0.00056861	642.88	2.1177e-05	2.0493e-05	603.19	278.56	2.1315e-05	2.0156e-05	294.55	133.18	131.3	76.404	2.2756e-05	73.987	-11.986	-41.759	165.246	-96.432	-23.070	-9.424	-98.528	-90.506	-10.327	32.742	-93.679	-89.826	-86.603	-81.978	204.105	-86.899	-8191	255	
3691.136	1	1	0	0	0.13308	0.11166	0.083149	0.059892	0.23753	0.079637	0.22655	0.146	0.38799	0.14572	0.15351	0.29943	0.053902	0.31527	0.20982	0.17951	-2.6583	-2.6333	-3.3708	-2.55	-2.775	-3.4167	-2.6437	-3.0417	-3.0958	-2.5604	-3.4042	-2.9542	-2.85	-3.3292	-2.65	-3.0708	-50.367	141.939	218.747	81.645	53.980	127.744	151.599	-27.137	-42.965	220.628	2.604	161.563	119.545	216.773	71.627	203.317	0.00095625	0.00035725	0.00031209	525.57	2.5274e-06	9.2771e-06	493.29	233.62	6.7082e-06	9.2988e-07	235.92	111.45	112.31	67.267	4.8499e-06	63.499	0.0018798	0.0018415	0.00057993	637.07	2.0485e-05	2.069e-05	604.34	277.08	2.0754e-05	2.0601e-05	294.6	132.42	131.15	76.456	2.3275e-05	73.501	3.773	-18.261	-57.070	-96.461	46.211	-20.753	-98.422	-90.293	63.086	31.135	-93.918	-89.660	-86.605	-81.999	1.887	-87.067	-8191	255	
3691.230	1	1	0	0	0.26824	0.084434	0.17911	0.035751	0.11242	0.2005	0.16233	0.30912	0.017157	0.11397	0.19924	0.17996	0.11743	0.20297	0.23221	0.19602	-2.925	-2.575	-3.0938	-2.9083	-2.5917	-3.2729	-2.8229	-2.9292	-3.1979	-2.4979	-3.0979	-3.1875	-2.5729	-3.3521	-2.7917	-2.9271	95.007	-69.439	12.798	-102.626	207.252	219.652	-81.762	197.889	-5.120	-11.062	188.110	232.147	248.493	242.118	119.834	236.174	0.00087668	0.0003511	0.00017007	525.28	8.5467e-06	6.1444e-06	492.47	234.06	9.7977e-06	2.1499e-06	237.78	112.95	112.51	67.419	6.1475e-06	64.132	0.001856	0.0019413	0.00059302	634.47	2.0271e-05	2.1795e-05	604.89	276.65	2.0685e-05	2.1955e-05	296.36	133.68	131.74	77.137	2.3064e-05	74.14	-8.029	95.112	25.621	-96.548	-34.460	238.854	-98.699	-90.174	1.268	-82.748	-93.846	-89.812	-86.772	-82.082	44.436	-87.369	-8191	255	
3691.326	1	1	0	0	0.20764	0.23147	0.18971	0.11796	0.087223	0.11426	0.28372	0.1057	0.2211	0.018061	0.062609	0.11376	0.11377	0.17546	0.055297	0.12345	-2.8479	-2.4	-3.1458	-3.0292	-2.6042	-3.4042	-3.0438	-2.9125	-3.2083	-2.6979	-3.25	-3.3312	-2.5167	-3.3438	-2.9	-2.7625	-100.252	214.080	202.036	44.392	-21.482	179.890	244.365	176.256	-45.583	168.738	127.677	-56.282	230.443	170.746	20.993	104.256	0.00062997	0.00032244	0.00022857	519.77	4.1058e-06	3.3805e-06	496.97	233.22	1.7387e-06	1.9435e-06	239.71	113.81	113.47	67.81	1.1855e-05	64.202	0.0018259	0.0020535	0.00057971	629.78	2.0167e-05	2.2767e-05	604.59	275.73	2.0565e-05	2.3088e-05	296.55	134.6	132.75	77.703	2.2757e-05	74.17	19.180	84.462	-23.744	-96.561	-20.448	-67.681	-98.402	-90.381	74.401	246.563	-93.665	-89.744	-86.879	-82.097	72.697	-87.373	-8191	255	
3691.423	1	1	0	0	0.14878	0.091802	0.10965	0.16045	0.18027	0.15695	0.13259	0.35591	0.20753	0.094067	0.18458	0.21264	0.26865	0.03685	0.29211	0.084539	-2.9667	-2.5896	-2.7604	-3.2917	-2.4854	-3.4104	-2.8	-2.4708	-3.3396	-2.7375	-2.7438	-3.3042	-2.7313	-3.4313	-2.8208	-2.6458	10.103	-65.500	137.550	226.417	160.404	231.379	121.576	-105.229	233.800	60.197	-51.831	190.548	246.756	-9.739	122.111	183.936	0.00084917	0.00049358	0.00031404	521.34	4.9145e-06	5.8717e-06	489.52	233.56	9.6094e-06	5.0931e-06	236.75	112.62	112.31	67.575	7.4398e-06	63.879	0.0018919	0.002172	0.00057128	629.07	2.1154e-05	2.3856e-05	599.86	275.06	2.1549e-05	2.3854e-05	293.78	133.41	132.49	77.306	2.2224e-05	73.643	-10.597	84.922	-45.814	-96.577	54.015	-39.299	-98.442	-90.372	238.677	77.206	-93.912	-89.766	-86.627	-82.047	45.986	-87.295	-8191	255	
#DATA ENDS
