BOXY.EXE: ISS Imagent and Oximeter Data Acquisition Program Version 0.80
Ascii Record File

#ACQ INFORMATION
2  Detector Channels 
16  External MUX Channels 
1  Auxiliary Channels 
5000  Waveform (CCF) Frequency (Hz)
1  Waveforms Skipped 
30  Waveforms Averaged 
1  Cycles Averaged 
16  Acquisitions per Waveform 
10.0806  Updata Rate (Hz) 

#FILE INFORMATION
TRUE -- External MUX Channel results are PARSED.
FALSE -- AC DC and Phase are NOT grouped.
TRUE -- Companion Program Settings File CREATED.
FALSE -- AC data not excluded
FALSE -- DC data not excluded
FALSE -- Phase data not excluded
FALSE -- Auxillary Chn. data not excluded
Tab delimiters

#CALIBRATION STATE
TRUE -- Waveform Calibration Values APPLIED.


#AUX CALIBRATION VALUES
Val Type	aux-1	

Term	1.0000e+00	
Factor	0.0000e+00	


#WF CALIBRATION VALUES
A = Detector Channel
Val Type	A-AC1	A-AC2	A-AC3	A-AC4	A-AC5	A-AC6	A-AC7	A-AC8	A-AC9	A-AC10	A-AC11	A-AC12	A-AC13	A-AC14	A-AC15	A-AC16	A-DC1	A-DC2	A-DC3	A-DC4	A-DC5	A-DC6	A-DC7	A-DC8	A-DC9	A-DC10	A-DC11	A-DC12	A-DC13	A-DC14	A-DC15	A-DC16	A-Ph1	A-Ph2	A-Ph3	A-Ph4	A-Ph5	A-Ph6	A-Ph7	A-Ph8	A-Ph9	A-Ph10	A-Ph11	A-Ph12	A-Ph13	A-Ph14	A-Ph15	A-Ph16	

Term	0.00000e+00	0.00000e+00	0.00000e+00	0.00000e+00	0.00000e+00	0.00000e+00	0.00000e+00	0.00000e+00	0.00000e+00	0.00000e+00	0.00000e+00	0.00000e+00	0.00000e+00	0.00000e+00	0.00000e+00	0.00000e+00	0.00000e+00	0.00000e+00	0.00000e+00	0.00000e+00	0.00000e+00	0.00000e+00	0.00000e+00	0.00000e+00	0.00000e+00	0.00000e+00	0.00000e+00	0.00000e+00	0.00000e+00	0.00000e+00	0.00000e+00	0.00000e+00	0.00000e+00	0.00000e+00	0.00000e+00	0.00000e+00	0.00000e+00	0.00000e+00	0.00000e+00	0.00000e+00	0.00000e+00	0.00000e+00	0.00000e+00	0.00000e+00	0.00000e+00	0.00000e+00	0.00000e+00	0.00000e+00	
Factor	1.00000e+00	1.00000e+00	1.00000e+00	1.00000e+00	1.00000e+00	1.00000e+00	1.00000e+00	1.00000e+00	1.00000e+00	1.00000e+00	1.00000e+00	1.00000e+00	1.00000e+00	1.00000e+00	1.00000e+00	1.00000e+00	1.00000e+00	1.00000e+00	1.00000e+00	1.00000e+00	1.00000e+00	1.00000e+00	1.00000e+00	1.00000e+00	1.00000e+00	1.00000e+00	1.00000e+00	1.00000e+00	1.00000e+00	1.00000e+00	1.00000e+00	1.00000e+00	X	X	X	X	X	X	X	X	X	X	X	X	X	X	X	X	

B = Detector Channel
Val Type	B-AC1	B-AC2	B-AC3	B-AC4	B-AC5	B-AC6	B-AC7	B-AC8	B-AC9	B-AC10	B-AC11	B-AC12	B-AC13	B-AC14	B-AC15	B-AC16	B-DC1	B-DC2	B-DC3	B-DC4	B-DC5	B-DC6	B-DC7	B-DC8	B-DC9	B-DC10	B-DC11	B-DC12	B-DC13	B-DC14	B-DC15	B-DC16	B-Ph1	B-Ph2	B-Ph3	B-Ph4	B-Ph5	B-Ph6	B-Ph7	B-Ph8	B-Ph9	B-Ph10	B-Ph11	B-Ph12	B-Ph13	B-Ph14	B-Ph15	B-Ph16	

Term	0.00000e+00	0.00000e+00	0.00000e+00	0.00000e+00	0.00000e+00	0.00000e+00	0.00000e+00	0.00000e+00	0.00000e+00	0.00000e+00	0.00000e+00	0.00000e+00	0.00000e+00	0.00000e+00	0.00000e+00	0.00000e+00	0.00000e+00	0.00000e+00	0.00000e+00	0.00000e+00	0.00000e+00	0.00000e+00	0.00000e+00	0.00000e+00	0.00000e+00	0.00000e+00	0.00000e+00	0.00000e+00	0.00000e+00	0.00000e+00	0.00000e+00	0.00000e+00	-4.94537e+01	-1.32809e+02	-1.23513e+02	-1.81272e+02	-4.96041e+01	-6.63140e+01	-1.58454e+02	-1.62015e+02	-4.15339e+01	-6.63104e+01	-1.70397e+02	-1.70056e+02	-1.81304e+02	-1.76553e+02	-5.05393e+01	-1.49279e+02	
Factor	1.87085e-05	1.43766e-04	4.24095e-05	1.53419e-01	1.53692e-06	1.72329e-06	1.65314e-01	5.65315e-02	1.29581e-06	1.63815e-06	8.74246e-02	2.87404e-02	2.54357e-02	8.54675e-03	1.52938e-06	1.21105e-02	1.62134e-05	3.95395e-05	1.11172e-05	7.86664e-02	3.62932e-07	4.53557e-07	7.97313e-02	2.91212e-02	3.67586e-07	4.50120e-07	4.36910e-02	1.44261e-02	1.32318e-02	4.45127e-03	3.92718e-07	6.10433e-03	X	X	X	X	X	X	X	X	X	X	X	X	X	X	X	X	



#DISTANCE SETTINGS
A = Detector Channel
A-1	A-2	A-3	A-4	A-5	A-6	A-7	A-8	A-9	A-10	A-11	A-12	A-13	A-14	A-15	A-16	

2.5000e+00	3.0000e+00	2.5000e+00	3.0000e+00	2.0000e+00	3.0000e+00	1.5000e+00	3.0000e+00	3.0000e+00	3.0000e+00	3.0000e+00	3.0000e+00	3.0000e+00	3.0000e+00	1.5000e+00	3.0000e+00	

B = Detector Channel
B-1	B-2	B-3	B-4	B-5	B-6	B-7	B-8	B-9	B-10	B-11	B-12	B-13	B-14	B-15	B-16	

1.0000e+01	1.0000e+01	1.0000e+01	1.4400e+00	1.0000e+01	1.0000e+01	1.5100e+00	1.9400e+00	1.0000e+01	1.0000e+01	1.9900e+00	2.4900e+00	2.4100e+00	2.9000e+00	1.0000e+01	2.9800e+00	




#DATA BEGINS
time	group	step	mark	flag	A-AC1	A-AC2	A-AC3	A-AC4	A-AC5	A-AC6	A-AC7	A-AC8	A-AC9	A-AC10	A-AC11	A-AC12	A-AC13	A-AC14	A-AC15	A-AC16	A-DC1	A-DC2	A-DC3	A-DC4	A-DC5	A-DC6	A-DC7	A-DC8	A-DC9	A-DC10	A-DC11	A-DC12	A-DC13	A-DC14	A-DC15	A-DC16	A-Ph1	A-Ph2	A-Ph3	A-Ph4	A-Ph5	A-Ph6	A-Ph7	A-Ph8	A-Ph9	A-Ph10	A-Ph11	A-Ph12	A-Ph13	A-Ph14	A-Ph15	A-Ph16	B-AC1	B-AC2	B-AC3	B-AC4	B-AC5	B-AC6	B-AC7	B-AC8	B-AC9	B-AC10	B-AC11	B-AC12	B-AC13	B-AC14	B-AC15	B-AC16	B-DC1	B-DC2	B-DC3	B-DC4	B-DC5	B-DC6	B-DC7	B-DC8	B-DC9	B-DC10	B-DC11	B-DC12	B-DC13	B-DC14	B-DC15	B-DC16	B-Ph1	B-Ph2	B-Ph3	B-Ph4	B-Ph5	B-Ph6	B-Ph7	B-Ph8	B-Ph9	B-Ph10	B-Ph11	B-Ph12	B-Ph13	B-Ph14	B-Ph15	B-Ph16	aux-1	digaux	

29952.258	1	1	0	768	0.069189	0.080583	0.0415	0.18208	0.2916	0.19919	0.23673	0.25699	0.14397	0.17352	0.098986	0.099589	0.036576	0.29847	0.12754	0.084006	-3.0125	-2.5292	-3.0583	-3.4562	-2.6312	-3.2938	-3.1583	-2.7229	-3.3438	-2.75	-3.2792	-3.3083	-2.6396	-3.2729	-3.1979	-2.6125	237.329	469.794	428.269	458.946	501.089	404.410	443.147	431.595	358.349	411.341	490.445	459.798	306.285	443.136	250.244	504.438	0.00027354	0.00037062	4.708e-05	1103.1	3.3436e-06	3.6192e-06	1173.1	228.58	3.6333e-06	1.7722e-06	287.22	77.937	61.919	17.895	2.0687e-06	24.898	0.00056784	0.00099005	0.00027017	1088.7	9.5542e-06	1.0847e-05	1159.9	227.8	9.3336e-06	1.0722e-05	285.7	77.953	62.136	18.171	9.9865e-06	25.225	276.312	265.437	248.451	175.078	356.023	325.645	174.819	182.711	341.087	314.260	182.355	188.787	189.179	197.207	358.439	196.455	-8191	255	
29952.354	1	1	0	0	0.25935	0.24944	0.11437	0.23315	0.23441	0.12737	0.20434	0.26604	0.19637	0.087205	0.13753	0.15574	0.14613	0.21452	0.22549	0.15466	-2.9833	-2.8167	-2.9062	-3.725	-2.525	-3.1188	-3.1833	-2.8771	-3.3438	-2.8583	-3.0333	-3.3208	-2.475	-3.2896	-3.325	-2.6458	428.688	411.182	287.686	216.801	355.243	481.885	411.918	452.313	483.700	186.783	217.958	427.115	480.752	457.633	249.504	366.313	0.00027302	0.00028399	5.3993e-05	1098.8	2.378e-06	3.9204e-06	1177.3	229.49	3.1317e-06	3.2966e-06	286.05	77.577	61.94	17.852	3.6962e-06	24.673	0.00055554	0.00097506	0.0002749	1088.6	1.0238e-05	1.1079e-05	1159.6	227.77	9.4753e-06	1.1314e-05	286.18	78.137	62.189	18.129	9.9235e-06	25.221	276.900	267.792	302.068	174.986	317.127	288.878	174.820	182.397	335.540	286.335	182.127	188.877	189.788	197.138	318.995	196.198	-8191	255	
29952.449	1	1	0	0	0.059875	0.15188	0.15764	0.27178	0.32939	0.048601	0.11746	0.0277	0.17983	0.11384	0.24683	0.12255	0.32005	0.030453	0.21478	0.16677	-2.9292	-3.0146	-2.625	-3.5896	-2.6854	-3.0812	-3.4521	-2.4625	-3.3292	-3.0438	-2.775	-3.4396	-2.7167	-3.1021	-3.4	-2.7146	235.708	251.524	277.715	472.133	191.499	470.293	464.706	390.290	513.594	321.673	460.564	514.325	514.036	505.859	193.952	361.879	0.00029049	0.00033836	6.8839e-05	1107.9	2.833e-06	2.1834e-06	1173	229.38	2.2978e-06	3.0015e-06	285.74	77.678	61.769	17.804	3.2731e-06	24.636	0.0005726	0.0010034	0.00028184	1089.7	1.0019e-05	1.0905e-05	1160.7	227.71	9.4493e-06	1.0824e-05	285.39	78.111	62.03	18.121	9.5643e-06	25.181	274.235	259.468	251.496	174.821	317.562	344.406	174.669	182.592	327.479	292.406	182.255	189.111	189.422	196.860	306.894	196.227	-8191	255	
29952.547	1	1	0	0	0.065896	0.2297	0.15292	0.15924	0.19799	0.11702	0.096614	0.26412	0.09033	0.14154	0.27611	0.10959	0.16115	0.13755	0.13626	0.064639	-2.8937	-3.1333	-2.7042	-3.5	-2.8396	-2.8875	-3.5042	-2.6083	-3.275	-3.0625	-2.6104	-3.2958	-2.7042	-2.7771	-3.3958	-2.5438	512.145	278.206	209.762	520.960	191.720	355.580	229.124	472.753	313.994	428.046	200.067	182.178	171.242	510.771	270.515	454.060	0.00029611	0.00017376	5.0918e-05	1102.4	1.7231e-06	3.6967e-06	1170	227.23	3.3555e-06	4.1518e-06	284.97	77.288	62.295	17.692	1.8855e-06	24.638	0.00057108	0.00096303	0.0002736	1088.1	9.9088e-06	1.0933e-05	1159	227.26	9.924e-06	1.0886e-05	285	77.906	62.213	18.117	1.0072e-05	25.211	269.875	224.856	269.463	174.780	339.586	320.238	174.845	182.264	283.802	313.583	181.870	188.791	189.344	196.996	328.000	195.529	-8191	255	
29952.643	1	1	0	0	0.168	0.11894	0.044812	0.28408	0.24032	0.0050356	0.31795	0.16627	0.17501	0.36137	0.069101	0.058651	0.094852	0.30065	0.29963	0.22267	-2.775	-2.9583	-2.4313	-3.475	-2.7854	-2.6833	-3.4604	-2.5125	-3.1813	-3.2562	-2.6667	-3.4042	-2.8792	-2.7271	-3.4396	-2.6437	325.277	334.001	235.028	493.776	300.578	209.392	413.938	429.039	411.848	219.820	372.479	199.994	510.974	280.134	379.127	170.742	0.00029158	0.00031186	8.7166e-05	1098.9	3.7641e-06	3.6764e-06	1174.8	229.27	2.4959e-06	4.2497e-06	285.29	77.766	61.839	17.857	1.9988e-06	24.711	0.00057152	0.00097943	0.00029704	1086.9	1.0185e-05	1.1114e-05	1159.9	227.79	9.6614e-06	1.1015e-05	285.21	77.979	61.995	18.146	9.4964e-06	25.208	278.837	267.142	252.232	174.838	304.252	320.181	174.595	182.198	306.486	324.614	181.742	188.979	189.394	196.639	333.840	195.836	-8191	255	
29952.738	1	1	0	0	0.18963	0.042335	0.17689	0.20139	0.039863	0.13189	0.25121	0.21279	0.075194	0.27036	0.32299	0.20626	0.18382	0.078372	0.19122	0.18539	-2.5417	-3.2167	-2.3542	-3.4875	-2.9375	-2.6667	-3.6312	-2.7167	-2.9104	-3.1854	-2.5583	-3.3063	-3.1396	-2.3896	-3.5104	-2.6521	435.566	348.019	297.997	492.295	205.607	205.408	501.747	499.025	445.073	207.849	506.912	484.307	413.772	328.699	391.334	479.178	0.00030578	0.00032913	8.4531e-05	1100.1	2.7831e-06	2.9349e-06	1172.8	229.06	2.5918e-06	3.3817e-06	284.41	77.586	61.722	17.639	1.9275e-06	24.769	0.0005753	0.00095438	0.0002849	1088.7	9.9973e-06	1.1452e-05	1160.3	227.41	9.8643e-06	1.0947e-05	284.56	77.853	62.101	18.054	9.7779e-06	25.164	276.037	242.036	267.077	174.867	325.962	342.544	174.814	182.434	323.006	342.052	181.856	189.089	189.083	196.695	401.301	195.812	-8191	255	
29952.857	1	1	0	0	0.17334	0.16276	0.079199	0.12978	0.14388	0.11254	0.12244	0.22412	0.23254	0.079807	0.076067	0.061503	0.093445	0.1946	0.19347	0.22789	-2.3563	-3.2583	-2.7125	-3.5938	-3.2042	-2.6854	-3.5542	-2.7708	-2.8583	-3.3688	-2.6417	-3.0729	-3.3	-2.5687	-3.2708	-2.7479	386.357	399.949	229.506	413.186	248.359	512.191	449.922	434.908	187.731	235.041	387.664	179.327	457.657	449.739	234.276	479.969	0.00028676	6.5763e-05	9.7514e-05	1101.7	1.552e-06	4.3432e-06	1175.6	228.37	3.4796e-06	3.1302e-06	287.02	77.772	61.41	17.797	3.0562e-06	24.712	0.00056659	0.00097852	0.00028293	1087.9	9.6547e-06	1.1097e-05	1161.3	227.3	9.8176e-06	1.0966e-05	285.69	78.141	62.067	18.141	9.9243e-06	25.199	279.006	294.266	272.112	174.476	315.116	300.789	174.708	181.866	311.620	301.847	181.760	189.085	189.038	196.387	357.781	195.597	-8191	255	
29952.953	1	1	0	0	0.14139	0.19578	0.22701	0.25979	0.26617	0.08402	0.15649	0.050391	0.27159	0.14956	0.22725	0.04433	0.09786	0.22827	0.043298	0.33521	-2.3146	-3.3875	-2.3979	-3.0167	-3.1771	-2.5729	-3.4917	-2.8458	-2.6813	-3.5354	-2.6688	-3.125	-3.3563	-2.5375	-3.225	-3.1417	172.537	316.430	515.932	505.515	460.357	433.648	523.915	224.065	472.198	462.714	433.639	454.888	499.873	447.870	474.364	386.489	0.00028128	0.00016734	0.00013163	1100	4.3255e-06	1.3293e-06	1173.7	229.18	2.7707e-06	9.3661e-07	285.42	77.421	61.943	17.761	4.0109e-06	24.664	0.00058392	0.00097827	0.00028826	1087.2	9.9632e-06	1.137e-05	1160.3	227.85	9.8367e-06	1.0475e-05	284.75	77.952	62.095	18.107	1.0119e-05	25.197	276.951	241.450	259.726	174.635	316.812	262.461	174.608	181.989	323.796	310.228	181.811	188.724	188.807	196.640	340.490	195.935	-8191	255	
29953.051	1	1	0	0	0.17277	0.0093958	0.18801	0.26407	0.086436	0.20882	0.11568	0.12517	0.1379	0.26386	0.16615	0.29455	0.27094	0.22523	0.037272	0.1405	-2.3292	-3.2562	-2.4229	-3.0271	-3.2438	-2.4354	-3.5021	-3.1083	-2.5062	-3.4583	-2.7521	-2.8146	-3.1125	-2.6333	-3.1292	-3.4188	494.749	278.464	317.297	492.497	485.379	403.641	471.820	481.219	363.807	170.877	367.482	474.668	471.680	419.616	386.058	278.850	0.0002757	0.0004359	0.00010563	1104.2	3.3911e-06	3.2723e-06	1176.8	229.24	3.3513e-06	1.2417e-06	286.54	78.214	61.528	17.803	2.1543e-06	24.878	0.00058594	0.00097275	0.00027415	1089.5	9.533e-06	1.1022e-05	1162	227.71	1.0024e-05	1.0802e-05	285.52	78.048	62.109	18.115	9.8965e-06	25.264	275.755	253.733	251.685	174.967	307.934	322.331	174.744	182.318	328.338	287.204	181.750	188.658	189.240	196.736	320.788	195.758	-8191	255	
29953.146	1	1	0	0	0.091497	0.23722	0.051138	0.2674	0.15938	0.1066	0.10212	0.14571	0.044992	0.16307	0.19509	0.067671	0.10319	0.2037	0.064808	0.20977	-2.1417	-3.3854	-2.8229	-2.9396	-3.4479	-2.5396	-3.225	-3.2438	-2.6104	-3.375	-2.8208	-2.6937	-3.3542	-2.5896	-3.1354	-3.3583	382.194	350.222	338.952	167.926	471.802	243.655	470.058	179.149	249.458	517.444	444.382	186.263	338.606	347.182	361.530	460.560	0.00029025	0.00035158	7.349e-05	1102.8	3.6533e-06	4.0045e-06	1177.3	227.68	3.1899e-06	3.4689e-06	285.82	77.472	62.097	17.915	2.77e-06	24.821	0.00058014	0.00096378	0.00027531	1089.2	1.0004e-05	1.0669e-05	1161.5	227.26	9.8819e-06	1.0943e-05	285.38	78.039	62.122	18.15	9.8605e-06	25.231	274.136	236.808	248.587	174.822	302.949	308.462	174.822	182.258	299.560	324.555	181.692	188.897	189.327	196.683	306.787	195.733	-8191	255	
29953.242	1	1	0	0	0.15088	0.38356	0.068788	0.22167	0.20275	0.18436	0.17134	0.23276	0.29747	0.074276	0.27782	0.10073	0.08276	0.076447	0.070627	0.080656	-2.1437	-3.2812	-2.7146	-2.7896	-3.3667	-2.5146	-3.1375	-3.1646	-2.5146	-3.2729	-2.9313	-2.725	-3.4229	-2.8396	-2.8646	-3.35	274.868	410.410	448.439	194.847	459.176	327.784	436.936	456.028	238.791	172.673	455.287	507.641	229.124	175.224	202.855	166.923	0.00028368	0.0002953	9.5975e-05	1105.7	3.0153e-06	5.5653e-06	1179.3	228.41	3.4135e-06	3.3537e-06	286.56	77.502	62.11	17.893	2.6822e-06	24.717	0.00057213	0.000973	0.00027934	1090.7	9.285e-06	1.1654e-05	1164.6	227.79	1.015e-05	1.0953e-05	286.33	78.162	62.254	18.134	1.0117e-05	25.277	277.443	274.876	279.015	174.705	323.137	324.103	174.921	182.140	322.079	338.588	181.937	188.885	189.318	196.948	260.252	195.991	-8191	255	
29953.338	1	1	0	0	0.17731	0.09367	0.22835	0.22165	0.24472	0.31672	0.10562	0.12942	0.31646	0.19245	0.17367	0.29684	0.254	0.073853	0.24359	0.1371	-2.0854	-3.1083	-2.975	-2.875	-3.2708	-2.7292	-2.8563	-3.4083	-2.3958	-3.1396	-3.2354	-2.3729	-3.35	-2.8229	-2.7021	-3.4729	477.636	174.292	380.340	464.608	476.389	254.024	465.423	315.963	499.979	360.079	417.758	232.199	450.055	407.214	197.255	452.153	0.00029662	0.00011358	0.00011162	1103.2	2.7231e-06	4.8993e-06	1179.7	228.78	4.164e-06	3.2677e-06	286.9	77.361	61.87	17.897	3.3414e-06	24.768	0.00058118	0.00096221	0.00027735	1090.9	9.6721e-06	1.1481e-05	1165.7	227.88	1.0133e-05	1.126e-05	285.95	78.147	62.252	18.169	1.0472e-05	25.258	278.062	284.503	278.352	174.805	335.133	324.044	175.177	182.372	322.853	338.968	181.852	188.873	189.352	196.542	318.968	195.898	-8191	255	
29953.459	1	1	0	0	0.14799	0.070302	0.084262	0.11323	0.20384	0.18856	0.0506	0.07555	0.10615	0.23466	0.068157	0.24945	0.11199	0.24525	0.11872	0.16059	-2.1521	-3.0812	-3.125	-2.7021	-3.2271	-2.7854	-2.8021	-3.4604	-2.5542	-3.0583	-3.2479	-2.4833	-3.3229	-2.8563	-2.5979	-3.5396	290.323	296.611	440.099	513.698	496.622	350.665	456.525	510.704	405.047	334.856	332.488	235.902	416.009	328.614	298.405	502.678	0.00028599	0.00026622	6.1539e-05	1109.1	2.4045e-06	3.6358e-06	1176.4	228.91	2.4002e-06	3.0498e-06	286.44	77.305	62.266	17.807	2.391e-06	24.924	0.00060395	0.0010129	0.00028828	1094.7	1.0324e-05	1.1912e-05	1167.5	227.95	1.0626e-05	1.1491e-05	286.35	78.26	62.347	18.182	1.0734e-05	25.378	278.723	249.836	252.053	174.965	290.383	299.202	174.849	182.254	315.671	317.988	181.588	188.798	189.394	196.676	336.883	196.085	-8191	255	
29953.553	1	1	0	0	0.18924	0.16256	0.14205	0.15542	0.10207	0.098985	0.2459	0.33405	0.080697	0.20138	0.14583	0.31375	0.10301	0.29888	0.45473	0.03835	-1.9792	-2.9	-3.2646	-2.5292	-3.2562	-3.0021	-2.8854	-3.5396	-2.6271	-3.0083	-3.4167	-2.4938	-3.1625	-3.125	-2.5	-3.3812	487.776	249.960	381.855	449.116	304.987	419.984	469.527	510.017	211.831	340.376	169.576	176.630	208.260	302.972	166.246	390.983	0.00027594	0.00038511	0.00013122	1113.2	3.9494e-06	3.0376e-06	1184.2	230.47	3.8673e-06	3.6126e-06	286.77	77.982	62.226	17.944	1.87e-06	24.981	0.00060226	0.001069	0.00029674	1098.2	1.0539e-05	1.2119e-05	1171.9	229.22	1.1262e-05	1.2107e-05	286.97	78.726	62.539	18.281	1.1197e-05	25.423	273.338	260.158	257.888	174.675	300.780	268.173	174.604	182.243	322.429	294.581	181.872	188.980	189.483	196.457	313.015	196.058	-8191	255	
29953.648	1	1	0	0	0.15325	0.19074	0.12861	0.17426	0.24187	0.2311	0.066698	0.12047	0.13732	0.070425	0.13043	0.19063	0.25002	0.21662	0.057558	0.23118	-2.1625	-2.6979	-3.3563	-2.6521	-3.0938	-3.1167	-2.7521	-3.5208	-2.8396	-2.8667	-3.4604	-2.5521	-3.0062	-3.1375	-2.2708	-3.4625	467.489	484.985	259.649	218.436	472.060	370.682	292.528	485.157	456.830	348.961	278.547	482.271	451.611	448.731	397.872	446.855	0.0002993	0.00034462	0.00010242	1113.8	4.344e-06	5.7598e-06	1188.3	232.44	1.9455e-06	2.9705e-06	287.49	78.896	62.45	18.004	2.6816e-06	25.19	0.00061925	0.0011536	0.00031707	1101.8	1.1603e-05	1.3196e-05	1177.7	230.6	1.1345e-05	1.3539e-05	288.25	79.125	62.904	18.362	1.2137e-05	25.593	275.968	268.792	238.531	174.563	304.151	294.664	174.876	182.313	357.503	343.855	182.010	188.492	189.221	196.529	361.506	195.951	-8191	255	
29953.746	1	1	0	0	0.02328	0.20173	0.12743	0.21059	0.11775	0.18995	0.30964	0.20713	0.14905	0.080121	0.064324	0.15551	0.043486	0.11536	0.10919	0.28523	-2.6417	-2.5146	-3.4229	-2.6	-3.175	-3.2708	-2.7687	-3.5021	-3.0521	-2.6729	-3.3708	-2.5812	-2.9125	-3.1021	-2.4813	-3.1937	393.343	293.620	511.045	375.321	344.861	483.849	463.387	495.428	370.211	421.934	207.041	341.633	292.593	291.197	511.261	213.314	0.00027035	0.0002649	0.0001342	1121	4.043e-06	2.629e-06	1193.4	231.37	3.0791e-06	2.1e-06	288.64	78.518	62.894	18.092	5.6198e-06	24.949	0.00065188	0.0011742	0.00032784	1107.3	1.1258e-05	1.2838e-05	1180.2	231.17	1.0919e-05	1.3296e-05	289.07	79.235	63.163	18.379	1.1824e-05	25.526	274.631	250.010	271.325	174.836	308.653	306.508	174.818	182.163	345.431	325.571	181.856	188.386	189.259	196.208	324.745	195.668	-8191	255	
29953.818	1	1	0	0	0.12254	0.044191	0.10476	0.38488	0.25827	0.20913	0.36848	0.22382	0.066545	0.068287	0.12186	0.070686	0.18601	0.25858	0.085719	0.051314	-2.6583	-2.4521	-3.5	-2.8729	-2.9437	-3.25	-2.4583	-3.0729	-3.0438	-2.4437	-3.5187	-2.6625	-2.7646	-3.3312	-2.6646	-3.1521	206.253	424.223	335.179	497.887	288.077	190.699	485.250	472.181	470.144	496.203	307.028	473.123	462.600	511.491	422.566	413.758	0.00030704	0.00028207	8.2994e-05	1124.7	4.1911e-06	2.9213e-06	1190.9	233.37	5.0671e-06	5.021e-06	291.37	78.963	62.574	18.23	2.6866e-06	25.07	0.00063702	0.001158	0.00032742	1109.4	1.147e-05	1.2725e-05	1182.9	232.75	1.1539e-05	1.3602e-05	291.48	79.498	63.013	18.495	1.1733e-05	25.649	275.121	267.666	252.146	174.514	296.797	322.317	174.707	182.153	313.895	284.882	181.760	188.877	189.214	196.643	310.988	195.963	-8191	255	
29953.938	1	1	0	0	0.059745	0.23506	0.11577	0.24631	0.10541	0.15162	0.26344	0.052913	0.27332	0.033695	0.15757	0.18272	0.11117	0.076291	0.21694	0.19966	-2.8521	-2.4958	-3.3688	-2.8792	-2.7167	-3.4	-2.7167	-3.1292	-3.1188	-2.4313	-3.4583	-2.9396	-2.6813	-3.35	-2.5229	-3.0708	273.093	277.179	313.927	454.922	462.049	444.046	451.192	192.019	484.986	303.855	418.087	187.979	454.670	517.154	238.930	447.972	0.00026316	0.00042997	6.1374e-05	1127.9	3.3777e-06	4.6627e-06	1203.7	235.87	3.2126e-06	1.9408e-06	292.34	79.308	63.08	18.133	2.1873e-06	25.384	0.00066833	0.0012247	0.00033386	1112.4	1.1838e-05	1.3377e-05	1186.9	234.47	1.1287e-05	1.362e-05	291.94	79.653	63.447	18.499	1.2154e-05	25.74	276.494	246.188	266.144	174.739	325.500	313.659	174.723	182.491	319.537	290.517	182.029	188.389	189.531	196.597	342.944	195.662	-8191	255	
29954.033	1	1	0	0	0.19004	0.19124	0.20706	0.30534	0.28494	0.23114	0.47144	0.092641	0.13527	0.21456	0.22023	0.15984	0.2966	0.29144	0.08727	0.15245	-2.9375	-2.3438	-3.2104	-3.2	-2.5729	-3.3354	-2.7083	-2.9604	-3.075	-2.3479	-3.3729	-3.1604	-2.4875	-3.3042	-2.5417	-2.9771	414.383	184.738	165.469	470.819	242.928	175.473	486.165	386.636	215.570	478.154	248.871	340.087	479.535	485.310	514.291	370.667	0.00029429	0.00033523	0.00010193	1127.2	5.2554e-06	3.8931e-06	1204.6	236.87	1.788e-06	4.3086e-06	293.34	79.763	63.231	18.287	4.0383e-06	25.17	0.00065661	0.0012184	0.00032958	1116.3	1.1709e-05	1.2928e-05	1191.8	235.85	1.1132e-05	1.293e-05	293.74	80.055	63.695	18.599	1.1456e-05	25.753	275.232	260.377	257.964	174.841	332.973	317.509	174.902	182.421	321.791	284.373	181.672	188.457	189.307	196.451	319.147	195.986	-8191	255	
29954.131	1	1	0	0	0.1922	0.26066	0.11209	0.20074	0.086349	0.11494	0.30033	0.27273	0.263	0.11546	0.15737	0.09478	0.1219	0.15568	0.28064	0.2321	-3.0729	-2.4125	-3.2646	-3.1688	-2.6021	-3.2667	-2.9917	-2.8125	-3.5604	-2.6146	-3.0771	-3.1542	-2.4708	-3.2313	-2.8708	-2.7438	398.169	422.107	468.578	292.900	267.474	322.245	170.945	502.001	195.951	232.270	164.610	469.650	367.178	281.811	517.225	377.636	0.00027356	0.00014336	0.00010854	1131	2.0544e-06	2.0708e-06	1210.2	238.1	2.8254e-06	2.925e-06	293.72	80.144	63.795	18.255	9.9753e-07	25.389	0.00065901	0.0011901	0.00033379	1119.4	1.1541e-05	1.2964e-05	1197.6	236.97	1.1286e-05	1.3933e-05	294.31	80.492	64.03	18.674	1.2506e-05	25.959	282.236	240.854	243.729	174.890	314.612	299.695	174.587	182.337	341.171	317.158	182.009	188.599	189.277	196.770	330.494	195.766	-8191	255	
29954.252	1	1	0	0	0.090792	0.095159	0.20012	0.22939	0.18042	0.039916	0.25811	0.23229	0.28735	0.030009	0.03526	0.093027	0.20199	0.10113	0.10993	0.2412	-2.9729	-2.3896	-3.0396	-3.3604	-2.3458	-3.2917	-3.1083	-2.6875	-3.3958	-2.4854	-2.8	-3.2333	-2.4583	-3.1146	-3.0771	-2.8208	376.641	432.357	228.577	342.114	488.875	441.110	412.472	484.413	473.799	249.006	504.031	408.806	435.534	351.081	369.352	468.894	0.00027599	0.00032904	7.1553e-05	1142.4	3.608e-06	6.1223e-07	1220.1	241.12	4.6321e-06	2.6489e-06	298.12	80.696	64.485	18.528	4.3521e-06	25.681	0.00065516	0.0012375	0.00034674	1130.9	1.2211e-05	1.403e-05	1208.3	239.96	1.2383e-05	1.4613e-05	297.77	81.018	64.718	18.888	1.3063e-05	26.206	275.440	252.768	267.192	174.836	311.087	347.173	174.637	182.343	316.351	301.930	181.974	188.603	189.188	196.199	304.077	195.243	-8191	255	
29954.348	1	1	0	0	0.16867	0.24824	0.24289	0.14048	0.36256	0.33797	0.24848	0.073387	0.28673	0.068204	0.1429	0.18848	0.11644	0.11496	0.17725	0.13293	-3.1708	-2.8667	-2.8021	-3.4958	-2.5167	-3.1854	-3.3875	-2.7354	-3.4083	-2.7208	-2.825	-3.3333	-2.4542	-3.0417	-3.1312	-2.5292	179.059	273.313	455.728	512.212	306.897	432.490	497.683	203.789	289.309	375.393	452.672	322.800	216.677	470.585	264.170	228.469	0.00027276	0.00035151	8.4046e-05	1156.7	5.4019e-06	2.9119e-06	1232.5	241.92	4.2071e-06	3.1206e-06	299.81	81.621	64.813	18.862	1.409e-06	26.094	0.00069812	0.0013245	0.00037634	1141.1	1.3552e-05	1.5139e-05	1220.2	241.62	1.3398e-05	1.6194e-05	300.05	81.996	65.362	19.248	1.4843e-05	26.574	274.740	252.927	253.516	174.522	324.592	301.870	174.298	181.847	277.636	279.525	181.997	188.632	189.141	196.012	336.208	195.501	-8191	255	
29954.420	1	1	0	0	0.06522	0.3389	0.15671	0.21776	0.1617	0.061942	0.26938	0.14642	0.16832	0.058436	0.089759	0.18578	0.14244	0.24451	0.03264	0.035149	-2.8104	-2.7375	-2.7604	-3.4292	-2.6437	-3.1604	-3.3292	-2.6042	-3.3854	-2.9021	-2.7833	-3.4688	-2.4271	-3.0896	-3.2062	-2.6104	336.214	314.533	350.179	476.322	287.579	167.239	456.941	218.691	166.449	328.898	302.880	475.126	523.583	315.215	179.371	174.823	0.00028066	0.00026546	8.3004e-05	1169.4	3.7561e-06	3.6818e-06	1251.8	244.4	4.3318e-06	3.5082e-06	301.22	81.793	65.433	18.905	2.4428e-06	26.151	0.00079908	0.0015452	0.00044383	1153.9	1.5677e-05	1.8207e-05	1237.6	243.69	1.6145e-05	1.8905e-05	301.99	82.608	65.908	19.383	1.7491e-05	26.751	278.702	248.090	261.676	174.625	281.512	339.862	174.596	182.253	291.736	323.139	181.683	188.630	189.077	196.230	360.511	195.215	-8191	255	
29954.539	1	1	0	0	0.06196	0.09369	0.15639	0.35843	0.1468	0.11349	0.22269	0.31997	0.18794	0.20761	0.20041	0.076686	0.11974	0.01585	0.11079	0.15566	-3.0417	-2.8937	-2.5875	-3.5854	-2.5271	-2.8646	-3.4875	-2.6854	-3.2313	-3.1896	-2.6792	-3.4167	-2.7167	-2.8937	-3.3187	-2.5271	511.008	169.549	183.867	464.839	196.318	493.264	505.107	464.570	222.276	178.839	429.894	226.701	515.488	515.603	183.203	233.232	0.00030415	0.00045589	0.00011079	1185.4	4.9145e-06	1.4059e-06	1257.1	245.27	4.8719e-06	4.2063e-06	303.51	82.018	65.563	19.04	4.1254e-06	26.246	0.00089704	0.0017391	0.00048839	1168.9	1.733e-05	2.0184e-05	1245.5	245.17	1.7003e-05	1.9997e-05	303.91	82.813	66.115	19.475	1.8257e-05	26.794	278.276	245.103	282.543	174.903	315.273	262.656	174.345	182.122	307.587	298.963	181.475	188.516	188.962	195.722	347.451	195.717	-8191	255	
29954.635	1	1	0	0	0.11409	0.089054	0.064759	0.11505	0.20773	0.14166	0.12196	0.20513	0.11399	0.15931	0.1718	0.19143	0.10502	0.095389	0.21256	0.16468	-2.7625	-3.0187	-2.5875	-3.4062	-2.7521	-2.6646	-3.5604	-2.6604	-3.0604	-3.1021	-2.5104	-3.4042	-2.8646	-2.7958	-3.5125	-2.5563	495.852	454.881	402.910	516.059	216.774	496.604	445.111	209.493	295.923	474.149	177.584	515.843	487.351	466.203	464.779	441.870	0.00029519	0.00027539	8.2219e-05	1191.3	5.7983e-06	1.0744e-06	1272.9	247.36	2.6889e-06	2.4822e-06	305.96	83.279	66.397	19.285	3.1088e-06	26.527	0.00093129	0.0018297	0.00052272	1177.1	1.7266e-05	2.0658e-05	1258.3	246.69	1.7007e-05	1.9623e-05	306.39	83.932	67.005	19.819	1.6583e-05	27.266	275.421	245.662	288.122	174.785	303.123	390.337	174.564	181.967	309.769	300.138	181.694	188.418	188.636	195.638	351.132	195.247	-8191	255	
29954.730	1	1	0	0	0.33133	0.080034	0.15595	0.080105	0.19779	0.2033	0.2018	0.30567	0.036375	0.070098	0.10098	0.28655	0.14684	0.023955	0.13491	0.20213	-2.7271	-3.15	-2.4917	-3.4604	-2.9062	-2.6771	-3.5771	-2.6063	-2.9375	-3.2125	-2.5333	-3.2417	-2.8625	-2.6875	-3.2479	-2.6937	312.851	167.778	464.240	508.997	345.231	482.912	458.627	484.559	304.743	226.608	398.604	448.695	490.438	269.918	481.238	231.593	0.00026471	8.2343e-05	4.6307e-05	1207.4	4.0519e-06	1.315e-06	1294.1	251.25	2.3348e-06	2.3498e-06	309.66	84.496	67.248	19.742	2.7561e-06	26.693	0.00086718	0.0016014	0.0004726	1192.6	1.5487e-05	1.8264e-05	1274.2	250.42	1.548e-05	1.7858e-05	310.05	84.783	67.755	20.065	1.5873e-05	27.349	273.797	253.044	246.046	174.442	302.647	329.625	174.390	181.776	326.913	333.980	181.788	188.555	188.553	195.677	280.370	194.559	-8191	255	
29954.850	1	1	0	0	0.182	0.11777	0.099365	0.1803	0.13107	0.27577	0.080552	0.18783	0.25317	0.15546	0.1317	0.053729	0.068241	0.16072	0.092277	0.19824	-2.6917	-3.2625	-2.4583	-3.3521	-2.9958	-2.525	-3.6229	-2.7771	-2.7958	-3.3229	-2.7313	-3.2292	-3.0583	-2.6813	-3.2812	-2.85	262.146	386.979	331.459	487.904	212.227	270.892	301.163	380.507	418.055	453.368	456.046	500.074	435.887	274.974	299.140	489.929	0.00028859	0.00019565	5.8316e-05	1205.6	4.2461e-06	3.3049e-06	1286.8	251.42	4.5075e-06	2.3367e-06	308	84.304	67.069	19.502	4.7491e-06	26.901	0.00081759	0.001566	0.00045062	1194.8	1.5645e-05	1.7997e-05	1275.7	250.6	1.5517e-05	1.8014e-05	309.08	85.038	67.747	20.06	1.5948e-05	27.468	282.077	247.921	271.608	174.418	324.659	318.393	174.654	181.782	321.211	225.977	181.609	188.382	189.068	195.765	331.549	195.321	-8191	255	
29954.947	1	1	0	0	0.10396	0.22597	0.15378	0.25856	0.17058	0.094967	0.18537	0.21197	0.14046	0.18015	0.25851	0.27566	0.039208	0.25843	0.15601	0.29472	-2.4146	-3.3812	-2.5396	-3.2625	-3.1688	-2.6229	-3.5833	-2.9875	-2.7313	-3.4146	-2.7	-3.3708	-3.3042	-2.5292	-3.2583	-2.9896	314.738	249.964	440.212	470.370	251.107	457.264	463.759	460.048	199.950	502.161	447.295	201.783	178.564	459.098	377.703	488.943	0.00030653	8.2343e-05	7.9168e-05	1207.7	4.9602e-06	2.321e-06	1290.8	251.41	3.4781e-06	2.4393e-06	309.75	84.402	67.106	19.532	2.2064e-06	26.709	0.0008712	0.001661	0.00047183	1196.1	1.5855e-05	1.9358e-05	1274.8	250.68	1.6446e-05	1.8591e-05	309.48	85.05	67.807	20.054	1.6673e-05	27.393	280.288	198.401	256.362	174.548	334.826	320.980	174.258	181.455	328.172	319.544	181.584	188.229	188.870	195.703	278.191	195.163	-8191	255	
29955.043	1	1	0	0	0.24399	0.17028	0.10328	0.12476	0.10312	0.055533	0.22013	0.052221	0.11893	0.11526	0.38786	0.17951	0.1123	0.26529	0.090758	0.020609	-2.1229	-3.3312	-2.7	-3.1521	-3.2667	-2.5354	-3.4188	-2.9333	-2.5687	-3.4646	-2.7896	-3.0708	-3.3979	-2.525	-3.0687	-3.175	338.215	508.898	471.506	211.066	322.624	470.367	447.190	441.575	439.551	381.829	472.463	193.732	219.380	199.601	247.815	343.907	0.00031822	0.00024831	8.928e-05	1207.5	3.3844e-06	3.985e-06	1286.7	250.5	6.146e-06	3.0258e-06	308.02	84.118	66.702	19.427	3.4242e-06	26.59	0.00086806	0.00162	0.00048242	1196.6	1.5978e-05	1.9689e-05	1274.5	249.87	1.645e-05	1.982e-05	308.01	84.486	67.33	19.921	1.8135e-05	27.263	275.545	254.413	273.052	174.542	312.442	309.900	174.572	182.221	319.729	339.696	181.677	188.288	189.100	195.783	291.353	195.476	-8191	255	
29955.113	1	1	0	0	0.12885	0.09239	0.13058	0.065001	0.24082	0.06888	0.23236	0.11621	0.14643	0.085972	0.33941	0.17404	0.25768	0.27737	0.08326	0.14582	-2.2479	-3.3812	-2.7479	-2.9771	-3.3771	-2.4604	-3.3292	-3.1667	-2.5583	-3.4521	-2.8479	-2.8729	-3.3792	-2.6604	-3.0792	-3.2979	340.647	460.510	445.940	279.128	457.570	404.725	486.168	202.904	477.509	251.999	432.715	476.420	228.283	196.516	469.207	462.136	0.00032878	0.00032686	6.857e-05	1201.7	4.0966e-06	2.2882e-06	1284.5	250.51	2.8823e-06	2.8382e-06	306.85	83.795	66.739	19.427	4.3803e-06	26.669	0.00094649	0.0018112	0.00050731	1191.7	1.7228e-05	2.1165e-05	1271.8	249.38	1.8028e-05	1.9983e-05	307.75	84.605	67.286	19.832	1.8149e-05	27.341	275.887	260.262	244.085	174.643	303.610	333.045	174.366	181.978	314.728	321.026	181.336	188.467	189.191	195.455	338.132	195.155	-8191	255	
29955.234	1	1	0	0	0.25826	0.24434	0.18286	0.16076	0.088222	0.21714	0.16377	0.12533	0.28211	0.13298	0.22356	0.19918	0.12785	0.21028	0.17586	0.26619	-2.2229	-3.2062	-2.8667	-2.7646	-3.3521	-2.4375	-3.2188	-3.3125	-2.3417	-3.2229	-3.0771	-2.6333	-3.3771	-2.6042	-2.8229	-3.3292	422.860	332.725	495.572	479.112	276.035	293.045	520.555	393.497	165.982	221.059	492.556	172.639	279.648	201.474	429.387	224.654	0.00033135	0.00019518	9.2788e-05	1205.3	5.091e-06	4.9475e-06	1288.4	250.01	3.9747e-06	9.5239e-07	308.65	83.561	66.717	19.399	1.7544e-06	26.537	0.00092568	0.0018109	0.00050822	1192.5	1.7438e-05	2.1106e-05	1274.8	249.62	1.7478e-05	2.0214e-05	309.06	84.472	67.338	19.844	1.8873e-05	27.266	274.107	238.682	281.857	174.610	295.413	325.885	174.682	182.035	313.066	338.348	181.738	188.504	188.895	196.033	332.336	195.278	-8191	255	
29955.330	1	1	0	0	0.15553	0.23104	0.066518	0.37673	0.26017	0.22916	0.12006	0.14251	0.1804	0.10784	0.13218	0.3938	0.047486	0.15547	0.14812	0.16685	-2.0854	-3.1979	-3.0625	-2.7729	-3.2438	-2.7542	-3.0917	-3.3729	-2.5062	-3.1813	-3.2771	-2.6688	-3.4437	-2.7625	-2.6667	-3.3708	384.136	492.820	415.924	436.995	405.059	460.116	402.578	472.781	494.920	249.412	467.459	438.760	173.830	479.981	418.547	458.860	0.0003122	0.00017081	0.00010662	1208.3	3.9824e-06	3.4791e-06	1289.6	251.04	3.4524e-06	4.352e-06	308.3	83.726	66.992	19.503	1.6698e-06	26.652	0.00094119	0.0018897	0.00052177	1195.7	1.7469e-05	2.1064e-05	1276.2	250.01	1.7504e-05	2.0668e-05	308.73	84.412	67.514	19.9	1.8279e-05	27.296	273.821	206.119	222.301	174.683	310.968	293.279	174.632	181.974	335.011	333.522	181.781	188.136	189.207	195.733	351.802	195.123	-8191	255	
29955.428	1	1	0	0	0.048329	0.23825	0.14508	0.10502	0.090514	0.081469	0.25194	0.19665	0.095377	0.11409	0.071941	0.16154	0.12838	0.17315	0.047341	0.14498	-1.9792	-3.0938	-2.9604	-2.6875	-3.4688	-2.9417	-2.9104	-3.4813	-2.6271	-2.9688	-3.3438	-2.4437	-3.3812	-3.0208	-2.5875	-3.4625	167.963	384.664	311.023	499.082	474.342	362.907	419.458	422.873	356.196	291.993	495.660	191.997	448.134	344.105	429.657	268.128	0.00030807	0.00052341	4.1368e-05	1210	4.7659e-06	3.1141e-06	1292.6	250.72	2.5276e-06	4.3528e-06	308.72	83.929	66.593	19.404	5.2447e-06	26.759	0.00091494	0.0018233	0.00049342	1197.9	1.7423e-05	2.0324e-05	1277.7	249.84	1.7299e-05	2.0486e-05	309.08	84.807	67.326	19.881	1.8267e-05	27.313	275.613	250.336	252.837	174.610	328.559	297.712	174.819	182.002	334.309	328.724	181.748	188.514	189.340	195.818	302.465	195.762	-8191	255	
29955.523	1	1	0	0	0.19121	0.18247	0.11598	0.38176	0.25405	0.087183	0.12608	0.075445	0.207	0.075333	0.13782	0.016938	0.24675	0.018537	0.1421	0.20874	-2.2208	-2.8208	-3.1625	-2.6604	-3.2188	-2.9437	-2.7854	-3.4604	-2.6042	-2.9583	-3.3187	-2.5687	-3.2146	-3.0896	-2.5667	-3.4188	246.591	344.751	173.403	520.206	517.754	366.071	421.215	254.125	313.420	191.334	442.515	480.615	170.352	373.566	263.843	381.892	0.00029968	0.00031103	8.1935e-05	1210.9	1.9226e-06	5.2339e-06	1294.3	250.08	5.2438e-06	4.2695e-06	307.22	83.267	66.803	19.501	3.2108e-06	26.508	0.00091663	0.0017921	0.00050887	1198.1	1.7279e-05	2.0787e-05	1279	250.04	1.7357e-05	2.1373e-05	308.98	84.394	67.561	19.889	1.8981e-05	27.284	274.626	225.818	246.613	174.391	332.114	306.307	174.595	182.139	312.715	291.496	181.893	188.713	189.056	195.788	330.704	195.038	-8191	255	
29955.643	1	1	0	0	0.18498	0.081076	0.050829	0.1973	0.071864	0.043569	0.32767	0.30324	0.10564	0.20468	0.20034	0.37696	0.30637	0.2253	0.13138	0.28559	-2.5563	-2.7667	-3.4375	-2.7938	-3.1562	-3.0521	-2.7271	-3.4083	-2.8708	-2.7687	-3.3125	-2.6042	-3.2062	-3.1625	-2.5917	-3.3521	328.284	402.250	255.405	502.539	314.962	382.191	440.356	498.747	356.797	392.351	175.144	394.176	306.000	520.830	519.490	423.330	0.00029844	0.00037163	0.00011849	1207.3	3.4615e-06	3.8977e-06	1295	250.71	3.4533e-06	3.4162e-06	307.29	83.647	66.801	19.636	3.2593e-06	26.839	0.00094318	0.0019028	0.00050752	1196.7	1.7707e-05	2.1503e-05	1280.5	250.19	1.7962e-05	2.1066e-05	308.72	84.83	67.592	20.008	1.9174e-05	27.414	274.740	219.442	213.207	174.330	323.301	288.564	174.377	182.020	302.408	336.647	181.299	188.311	188.878	195.330	353.236	195.086	-8191	255	
29955.717	1	1	0	0	0.17787	0.10915	0.10131	0.28248	0.08256	0.21242	0.26945	0.24492	0.28163	0.22587	0.22093	0.14937	0.23996	0.21817	0.25801	0.047498	-2.3438	-2.6083	-3.4271	-2.6125	-3.0208	-3.2625	-2.5417	-3.4437	-2.8771	-2.8208	-3.5438	-2.8521	-3.0542	-3.2646	-2.5354	-3.1979	171.425	318.732	249.164	169.856	442.614	492.597	457.842	518.884	247.884	374.697	203.348	453.947	270.148	379.346	487.190	486.188	0.00029727	0.00020596	7.8708e-05	1213.7	5.3901e-06	2.0044e-06	1302.1	253.5	2.437e-06	3.524e-06	310.71	85.398	67.52	19.892	3.8537e-06	26.993	0.00095824	0.00188	0.00050606	1202.5	1.8215e-05	2.0903e-05	1284.3	252.03	1.7509e-05	2.1066e-05	311.48	85.745	68.218	20.286	1.8328e-05	27.702	270.665	285.412	233.712	174.678	297.453	310.957	174.293	182.215	319.608	334.677	181.654	188.466	189.023	195.463	309.712	195.028	-8191	255	
29955.812	1	1	0	0	0.072834	0.15112	0.19541	0.23005	0.26605	0.19714	0.16437	0.17117	0.39075	0.1093	0.35702	0.36638	0.13838	0.17278	0.11772	0.11767	-2.7542	-2.6042	-3.5104	-2.9708	-2.8708	-3.3708	-2.6792	-3.3271	-3.1271	-2.4375	-3.3708	-2.8208	-2.8812	-3.4833	-2.4979	-3.0958	346.008	406.123	353.961	354.718	517.262	364.906	396.125	521.500	431.005	188.904	455.118	339.969	404.786	492.206	484.234	277.913	0.00027667	0.00024303	8.7679e-05	1219.1	4.8699e-06	2.7493e-06	1302.7	254.12	5.1501e-06	3.1548e-06	310.32	84.663	67.886	19.738	3.3169e-06	27.191	0.00092494	0.0018136	0.00051567	1204.9	1.8233e-05	2.1182e-05	1287.6	252.14	1.7756e-05	2.1097e-05	311.32	85.59	68.33	20.241	1.9729e-05	27.71	277.989	286.258	251.010	174.678	312.612	322.418	174.646	182.114	334.845	334.824	181.882	188.345	189.137	195.534	330.115	195.401	-8191	255	
29955.932	1	1	0	0	0.31684	0.074827	0.15094	0.16297	0.29895	0.2351	0.14063	0.12031	0.21108	0.11712	0.11156	0.17999	0.10049	0.16493	0.20138	0.045663	-2.7771	-2.6208	-3.3646	-3.0229	-2.7375	-3.3417	-2.8375	-3.3208	-3.3229	-2.4479	-3.4917	-3.0187	-2.5854	-3.4146	-2.675	-3.1646	294.261	294.354	506.090	417.984	357.409	458.759	441.968	187.823	216.737	172.170	170.451	209.370	334.570	216.158	434.694	378.110	0.00030822	0.00029646	7.8569e-05	1221.6	4.1517e-06	6.1164e-07	1303.5	253.87	4.0741e-06	3.039e-06	311.95	84.727	67.971	19.768	2.4925e-06	27.126	0.00099148	0.0019803	0.00053455	1208	1.897e-05	2.2049e-05	1289.1	252.83	1.8513e-05	2.2154e-05	312.73	85.749	68.613	20.329	1.9105e-05	27.812	275.790	251.094	266.780	174.261	257.059	320.214	174.219	181.756	316.837	333.398	181.459	187.995	188.830	195.164	346.913	194.950	-8191	255	
29956.027	1	1	0	0	0.16159	0.13512	0.44101	0.33844	0.061771	0.2963	0.27416	0.14518	0.37641	0.020581	0.10671	0.31725	0.19652	0.28739	0.15598	0.21344	-2.9042	-2.3125	-3.1625	-3.0042	-2.5104	-3.4021	-2.875	-2.9979	-3.3875	-2.7083	-3.5	-3.1	-2.7	-3.4021	-2.5604	-2.8792	342.084	347.805	314.151	514.340	217.250	245.012	476.369	221.355	258.310	312.370	484.580	510.268	425.812	185.258	518.573	260.611	0.00030692	0.00021251	9.5156e-05	1225	3.4583e-06	1.3153e-06	1311.8	254.04	1.903e-06	3.383e-06	312.45	85.221	67.936	19.938	2.2164e-06	27.224	0.00097699	0.0019313	0.00054393	1213.9	1.8566e-05	2.2031e-05	1296.1	253.5	1.8248e-05	2.2095e-05	313.16	86.039	68.779	20.429	2.0086e-05	27.842	278.544	242.856	256.528	174.508	301.773	313.067	174.332	181.870	327.329	324.685	181.651	187.931	188.546	195.412	303.154	194.910	-8191	255	
29956.123	1	1	0	0	0.12422	0.23097	0.063775	0.3057	0.21001	0.1552	0.31162	0.19447	0.1713	0.17713	0.035032	0.25821	0.029773	0.18054	0.15383	0.1601	-3.0417	-2.2917	-3.1688	-3.1875	-2.4792	-3.3042	-2.9313	-2.9708	-3.275	-2.5292	-3.2125	-3.1396	-2.4688	-3.3792	-2.7792	-2.6958	364.282	326.780	170.244	508.746	288.628	386.825	405.085	171.569	219.704	375.401	454.806	479.666	275.254	204.623	315.691	214.117	0.00028757	0.00045926	5.0967e-05	1226.7	4.5678e-06	2.0651e-06	1314.4	254.78	3.3624e-06	3.3206e-06	312.58	84.437	67.981	19.879	3.1698e-06	27.07	0.0010312	0.0020515	0.00057337	1214.1	2.0115e-05	2.4203e-05	1299	253.71	2.0604e-05	2.4446e-05	313.48	85.763	68.608	20.387	2.2711e-05	27.904	273.196	316.815	307.528	174.348	310.185	358.397	174.527	182.238	332.904	319.768	181.861	188.293	188.905	195.433	307.683	195.066	-8191	255	
29956.219	1	1	0	0	0.1633	0.22859	0.13463	0.22287	0.20454	0.039809	0.19362	0.16699	0.10488	0.11494	0.11548	0.082365	0.17755	0.073499	0.12503	0.25077	-3.0146	-2.6646	-2.8688	-3.3792	-2.5667	-3.35	-2.9833	-2.6229	-3.3396	-2.7188	-3.1146	-3.3292	-2.5667	-3.275	-2.9979	-2.7687	238.507	416.402	405.026	497.471	409.326	199.665	475.777	392.550	200.933	167.666	434.426	444.097	275.761	451.937	488.302	353.634	0.00033938	0.00027273	8.9605e-05	1239.9	3.591e-06	3.4111e-06	1321	255.65	3.353e-06	1.9701e-06	314.06	85.445	68.438	20.139	3.6328e-07	27.303	0.001133	0.0022973	0.00063787	1224.7	2.2545e-05	2.7126e-05	1307.8	254.95	2.1913e-05	2.6307e-05	315.41	86.419	69.192	20.593	2.2873e-05	28.043	271.990	233.101	284.742	174.443	329.091	338.913	174.466	182.147	305.516	366.402	181.656	188.174	188.837	195.356	330.243	195.288	-8191	255	
29956.314	1	1	0	0	0.21594	0.27505	0.15111	0.38619	0.038483	0.2884	0.35854	0.11483	0.14431	0.04856	0.15155	0.16205	0.072261	0.19391	0.028722	0.15107	-3.1437	-2.75	-2.8063	-3.3083	-2.4021	-3.2896	-3.1021	-2.5396	-3.4583	-2.8583	-3.0208	-3.4521	-2.4771	-3.2729	-3.1146	-2.6667	243.893	329.802	425.020	485.294	432.015	216.800	425.691	419.905	376.638	293.479	260.636	233.860	473.290	179.895	426.292	169.332	0.00031515	0.00037516	0.00011396	1242.9	9.9485e-07	4.1991e-06	1324.5	256.66	5.0425e-06	2.9467e-06	315.96	86.099	68.483	20.165	3.8344e-06	27.25	0.0011258	0.0022905	0.00065533	1232.1	2.2485e-05	2.5868e-05	1311.9	256.36	2.2447e-05	2.6772e-05	316.7	86.854	69.41	20.688	2.3246e-05	28.086	281.286	260.055	237.533	174.560	187.992	299.948	174.540	181.989	328.876	402.675	182.046	188.265	189.311	195.391	314.151	195.121	-8191	255	
29956.412	1	1	0	0	0.11909	0.12224	0.22993	0.19477	0.10713	0.10355	0.35142	0.27345	0.080872	0.24546	0.29103	0.1696	0.36774	0.21947	0.24719	0.19149	-3.0417	-2.8354	-2.7625	-3.5521	-2.5521	-2.8917	-3.2958	-2.5083	-3.3583	-2.7979	-2.6646	-3.4604	-2.7042	-3.025	-3.2167	-2.3771	185.771	515.738	171.650	509.628	487.857	462.907	507.349	481.540	403.072	230.379	398.427	495.285	237.320	418.917	268.888	470.341	0.00035497	0.00013147	0.00016525	1246.3	6.0886e-06	5.1545e-06	1328.7	256.45	3.5748e-06	2.856e-06	313.78	85.549	69.095	20.115	1.0029e-06	27.477	0.0011668	0.0023655	0.00065686	1234.6	2.3154e-05	2.6897e-05	1314.7	256.64	2.2592e-05	2.6378e-05	316.69	86.864	69.641	20.708	2.2893e-05	28.213	282.586	291.585	263.867	174.542	325.803	346.302	174.568	181.967	359.942	313.140	181.885	188.544	188.667	195.170	224.101	194.960	-8191	255	
29956.531	1	1	0	0	0.15702	0.13336	0.22504	0.048816	0.087922	0.19539	0.24562	0.12263	0.054777	0.095255	0.099425	0.29624	0.1038	0.30106	0.27556	0.11514	-2.8521	-2.8583	-2.6167	-3.5792	-2.5479	-2.9625	-3.5583	-2.4854	-3.1521	-2.9458	-2.5062	-3.4562	-2.7104	-2.7125	-3.2354	-2.7229	346.866	198.479	480.573	203.742	372.778	497.636	408.202	494.984	279.102	182.927	409.140	459.764	492.870	334.708	518.006	481.520	0.00032106	0.00047049	8.334e-05	1252.2	3.2969e-06	7.0622e-06	1333.4	256.8	2.8454e-06	2.6573e-06	314.44	86.055	68.837	20.143	5.2121e-06	27.499	0.0011487	0.0023306	0.00065777	1237.1	2.257e-05	2.6675e-05	1318.7	257.19	2.1943e-05	2.5905e-05	317.03	87.053	69.735	20.74	2.3392e-05	28.25	280.483	292.603	272.154	174.530	341.612	385.173	174.415	181.751	331.814	337.269	181.265	187.757	188.623	194.871	329.785	194.476	-8191	255	
29956.629	1	1	0	0	0.25112	0.1539	0.18247	0.11549	0.10747	0.20234	0.2478	0.20694	0.15766	0.06095	0.25482	0.10006	0.21449	0.15603	0.17756	0.15622	-2.9854	-3.0646	-2.5854	-3.4938	-2.6937	-2.8396	-3.4437	-2.6375	-3.1521	-3.2417	-2.5812	-3.4083	-2.7896	-2.8063	-3.3417	-2.5458	230.928	170.529	213.253	481.755	477.616	198.642	452.263	449.037	398.001	254.258	514.535	385.467	172.683	301.408	476.000	469.075	0.00031985	0.00032828	9.8252e-05	1250.4	3.6081e-06	4.7598e-06	1332.6	257.17	5.3268e-06	3.4678e-06	315.48	86.412	68.858	20.252	3.8514e-06	27.517	0.001125	0.0023783	0.00066562	1239.5	2.219e-05	2.7077e-05	1317.8	257.28	2.2348e-05	2.7162e-05	317.04	87.143	69.671	20.751	2.4376e-05	28.288	283.772	263.557	244.210	174.245	311.965	273.807	174.184	181.655	305.984	297.053	181.124	187.768	188.303	195.125	321.499	194.467	-8191	255	
29956.723	1	1	0	0	0.087856	0.16173	0.13952	0.25395	0.1739	0.32557	0.19329	0.35518	0.16789	0.30236	0.17129	0.19857	0.22346	0.14313	0.14512	0.13447	-2.7375	-3.0875	-2.3708	-3.3417	-2.9688	-2.625	-3.6	-2.6979	-3.0938	-3.1417	-2.6458	-3.1958	-2.9208	-2.5896	-3.3271	-2.6583	394.023	164.080	455.290	355.910	417.221	518.699	471.345	500.044	473.678	389.090	333.158	479.214	348.701	385.073	521.492	496.939	0.00034307	0.00041381	0.00011875	1251.3	5.261e-06	3.2004e-06	1335.2	257.2	5.1279e-06	3.6968e-06	315.78	86.262	69.337	20.301	3.1751e-06	27.735	0.0012107	0.0024594	0.00070988	1239.6	2.3271e-05	2.7846e-05	1321.7	257.7	2.3222e-05	2.7545e-05	317.55	87.337	70.028	20.898	2.4873e-05	28.433	278.175	215.363	260.642	174.218	332.466	313.344	174.106	181.660	297.656	359.609	181.147	187.857	188.065	194.439	333.990	194.553	-8191	255	
29956.818	1	1	0	0	0.2936	0.19199	0.21211	0.18233	0.14036	0.22266	0.28153	0.08762	0.15361	0.29708	0.30238	0.14835	0.24555	0.24257	0.2506	0.097553	-2.5042	-3.3104	-2.5625	-3.4813	-3.1417	-2.5917	-3.4708	-2.7438	-2.7375	-3.2479	-2.5708	-3.1792	-3.2083	-2.3812	-3.2729	-2.9562	283.436	372.173	449.779	517.718	313.589	224.179	447.761	323.526	466.682	446.204	508.005	176.487	187.868	469.560	360.013	481.021	0.00032153	0.00021837	9.5734e-05	1253.8	4.9312e-06	7.5802e-06	1338.6	258.41	2.3466e-06	4.2024e-06	317.52	87.317	69.899	20.55	4.4941e-06	27.76	0.001205	0.0024237	0.00070235	1241.9	2.3149e-05	2.7643e-05	1324	259.22	2.3381e-05	2.7836e-05	319.63	88.169	70.615	21.161	2.4264e-05	28.628	279.173	266.227	224.505	174.130	330.481	275.251	174.055	181.435	375.545	284.247	181.117	187.559	188.525	194.550	331.808	194.432	-8191	255	
29956.939	1	1	0	0	0.029639	0.074545	0.25426	0.23235	0.13864	0.20902	0.22306	0.19776	0.12336	0.31455	0.093102	0.097943	0.1507	0.088904	0.12061	0.27947	-2.4188	-3.5187	-2.4604	-3.2833	-3.2354	-2.5604	-3.5563	-2.9271	-2.775	-3.4	-2.7479	-3.1688	-3.3479	-2.5	-3.25	-2.9313	230.718	439.088	237.838	459.556	276.121	463.566	321.738	421.101	442.796	180.656	389.840	362.655	187.084	368.049	495.748	448.922	0.00032429	0.00018326	7.6587e-05	1259.5	8.1469e-07	3.5193e-06	1337.8	258.7	3.7241e-06	2.8225e-06	316.86	86.867	69.493	20.496	1.3138e-06	27.791	0.0012088	0.0024807	0.00070793	1246.7	2.3687e-05	2.8492e-05	1326	259.04	2.4532e-05	2.887e-05	319.11	87.959	70.193	21.011	2.5836e-05	28.482	277.707	263.471	263.180	174.028	283.027	307.247	174.044	181.397	356.907	269.212	181.191	187.805	188.007	195.105	280.278	194.111	-8191	255	
29957.012	1	1	0	0	0.18376	0.34041	0.12238	0.38061	0.10112	0.29963	0.17747	0.048477	0.041879	0.13338	0.052019	0.040463	0.16678	0.061362	0.32177	0.16287	-2.1479	-3.1333	-2.4333	-3.1042	-3.1937	-2.425	-3.5708	-3.0792	-2.6396	-3.375	-2.7812	-3.0229	-3.475	-2.55	-3.2062	-3.0729	209.019	316.899	427.769	406.871	398.574	245.896	175.915	405.663	268.334	404.496	349.158	227.968	219.546	307.960	418.611	349.248	0.00029427	0.00056218	7.0353e-05	1260.4	5.2603e-06	3.1454e-06	1344	260.95	4.1267e-06	2.557e-06	316.91	87.464	69.921	20.287	4.0587e-06	27.743	0.0012688	0.0025707	0.00073151	1246.5	2.4353e-05	2.9264e-05	1329.5	259.84	2.3964e-05	2.8484e-05	319.43	88.012	70.411	20.967	2.5227e-05	28.431	275.968	230.388	261.306	174.278	326.574	304.631	174.087	181.690	288.295	213.725	181.409	188.136	188.270	195.095	309.007	194.444	-8191	255	
29957.107	1	1	0	0	0.11061	0.076368	0.019041	0.13122	0.20279	0.11072	0.2432	0.26536	0.20281	0.17681	0.13731	0.28396	0.1601	0.2463	0.21837	0.17567	-2.2708	-3.3771	-2.6583	-3.1479	-3.3146	-2.5187	-3.4062	-3.1792	-2.7667	-3.3354	-2.8229	-2.7625	-3.4854	-2.6396	-3.2792	-3.1396	320.400	331.506	436.310	507.586	515.159	329.815	511.734	500.488	166.997	460.670	209.036	396.543	505.687	436.554	275.321	487.186	0.00028374	0.00026824	8.9666e-05	1261.2	2.7083e-06	2.8836e-06	1344.5	260.46	2.0027e-06	1.878e-06	317.12	87.572	69.614	20.447	1.8824e-06	27.8	0.0012428	0.0024954	0.00070636	1248.7	2.3665e-05	2.817e-05	1331.7	259.95	2.3706e-05	2.7967e-05	319.63	88.208	70.447	21.05	2.511e-05	28.544	272.159	281.561	288.533	174.226	360.393	394.743	174.279	181.584	326.128	292.924	180.976	188.419	188.756	194.740	334.050	194.835	-8191	255	
29957.203	1	1	0	0	0.053181	0.080174	0.088436	0.35759	0.20296	0.13476	0.26451	0.11883	0.16262	0.24204	0.27197	0.30927	0.22377	0.068121	0.063359	0.079365	-2.15	-3.2333	-2.6604	-2.9354	-3.5292	-2.55	-3.2729	-3.4188	-2.375	-3.2042	-3.1583	-2.6979	-3.3958	-2.5896	-2.9896	-3.2583	519.750	346.264	483.031	474.963	302.426	324.601	509.524	434.282	397.421	444.392	184.327	489.180	440.643	318.660	430.540	352.598	0.00032696	0.00019008	0.00014948	1255.4	4.752e-06	2.5309e-06	1343.7	259.11	2.8641e-06	4.4482e-06	317.11	86.816	69.059	20.383	5.8918e-06	27.693	0.0012185	0.0025165	0.00071152	1246.5	2.4621e-05	2.9116e-05	1328.4	259.42	2.5159e-05	2.9749e-05	319.24	87.883	70.192	21.054	2.6513e-05	28.548	281.651	241.670	254.452	174.299	331.810	396.256	174.200	181.632	307.684	257.120	181.243	188.125	188.508	194.776	321.837	194.657	-8191	255	
29957.324	1	1	0	0	0.36762	0.27435	0.13876	0.27375	0.18534	0.41119	0.23182	0.24139	0.18162	0.041828	0.059705	0.13198	0.06759	0.16397	0.15847	0.082527	-2.2313	-3.2354	-2.9188	-2.7417	-3.3312	-2.5958	-3.05	-3.6562	-2.4125	-3.3396	-3.0521	-2.6396	-3.4333	-2.8375	-2.675	-3.4313	261.717	481.793	372.157	504.089	488.166	461.247	441.415	443.828	318.591	448.766	300.740	453.614	200.568	265.925	283.771	184.665	0.00030954	0.00016519	0.00014015	1264.7	6.9786e-06	2.4463e-06	1340.9	259.71	4.3976e-06	4.5722e-06	319.47	86.866	69.591	20.529	4.4257e-06	27.776	0.0012634	0.0025917	0.00074337	1251.6	2.4575e-05	3.0209e-05	1329.5	259.54	2.4964e-05	2.9488e-05	319.92	88.099	70.605	21.097	2.6294e-05	28.561	275.242	236.614	247.298	174.177	335.345	338.074	174.344	181.740	339.319	314.576	181.126	188.256	188.434	194.861	337.460	194.578	-8191	255	
29957.420	1	1	0	0	0.21321	0.18606	0.087685	0.18075	0.20951	0.33791	0.087751	0.18309	0.36749	0.23659	0.36063	0.039871	0.096891	0.27272	0.056916	0.063283	-2.0542	-3.1583	-2.9062	-2.7417	-3.3646	-2.7417	-2.8063	-3.3896	-2.6312	-3.0354	-3.1229	-2.6729	-3.4083	-2.8458	-2.6229	-3.3771	343.933	248.009	480.084	479.874	371.418	353.901	492.934	206.448	334.915	314.924	517.244	253.340	201.319	449.526	220.310	380.018	0.00034091	0.00034282	0.00012202	1262.6	6.3573e-06	3.4723e-06	1353.2	260.06	4.0662e-06	4.7623e-07	318.75	87.557	70.172	20.546	3.8201e-06	27.635	0.0012477	0.0025708	0.00071113	1250.4	2.3709e-05	2.8753e-05	1335.4	260.2	2.4509e-05	2.8475e-05	320.7	88.256	70.788	21.088	2.4692e-05	28.557	274.296	225.801	240.815	174.171	294.269	343.668	174.309	181.555	289.083	360.979	181.532	188.500	188.657	194.876	329.033	194.575	-8191	255	
29957.516	1	1	0	0	0.23624	0.20105	0.14703	0.33581	0.095323	0.016718	0.4563	0.13253	0.30438	0.054831	0.16349	0.24698	0.16466	0.34138	0.07344	0.21241	-2.2729	-3.0083	-3.4021	-2.6729	-3.3104	-2.9542	-2.6583	-3.5042	-2.7458	-2.9208	-3.4313	-2.6271	-3.3771	-2.9354	-2.7083	-3.2896	202.391	388.580	452.352	494.957	168.033	290.685	488.263	210.531	205.114	513.575	307.961	459.744	222.596	474.772	241.637	167.798	0.00031528	0.00039333	0.00014845	1260.4	3.9853e-06	4.4993e-06	1353.1	260.49	5.9531e-06	4.3483e-06	321.5	87.802	70.559	20.733	5.4315e-06	28.164	0.0012004	0.0024485	0.00066374	1250.4	2.3002e-05	2.6297e-05	1334.6	260.4	2.1918e-05	2.508e-05	322.55	88.812	71.153	21.322	2.2099e-05	28.898	274.425	233.162	254.211	174.366	316.062	318.547	174.244	181.669	309.901	330.933	181.533	188.220	188.899	194.465	345.847	194.424	-8191	255	
29957.613	1	1	0	0	0.23945	0.084525	0.19679	0.29735	0.12532	0.10898	0.23914	0.15241	0.063062	0.18027	0.24277	0.38138	0.012629	0.097842	0.042772	0.059689	-2.325	-2.75	-3.3021	-2.6521	-3.1667	-3.0417	-2.6333	-3.4437	-2.775	-2.8854	-3.3646	-2.6083	-2.9437	-3.2417	-2.5521	-3.4042	178.514	519.761	428.278	436.661	492.161	408.585	473.157	472.389	247.953	344.007	521.793	279.824	421.368	500.174	368.100	326.529	0.00036174	0.00049965	9.434e-05	1270.2	3.6913e-06	2.845e-06	1349.4	261.16	5.555e-06	2.9576e-06	322.2	87.177	70.224	20.616	1.931e-06	28.009	0.0011186	0.0022384	0.0006306	1254.3	2.1812e-05	2.5988e-05	1336.4	261.23	2.2518e-05	2.6861e-05	322.19	88.494	71.006	21.23	2.4457e-05	28.817	275.154	271.732	239.403	174.294	355.312	301.750	174.394	181.892	303.526	343.870	181.572	188.096	188.589	194.448	332.783	194.706	-8191	255	
29957.707	1	1	0	0	0.13537	0.15668	0.15847	0.34105	0.055894	0.12456	0.18847	0.1802	0.1908	0.091991	0.26328	0.13644	0.21039	0.055086	0.20165	0.098485	-2.5646	-2.8458	-3.2646	-2.8271	-3.0625	-3.2333	-2.9875	-3.4271	-2.9146	-2.7479	-3.5958	-2.4333	-3.3583	-3.3104	-2.7125	-3.375	287.808	503.979	464.027	422.944	393.364	514.388	506.164	487.218	408.683	324.188	393.667	225.655	372.848	504.017	382.038	230.766	0.00030941	0.00048812	8.6299e-05	1263.7	2.5797e-06	5.3921e-06	1349.4	261.31	3.7935e-06	3.3106e-06	319.98	87.816	69.931	20.685	2.8975e-06	27.885	0.0011907	0.0024406	0.00067254	1252.1	2.3e-05	2.7803e-05	1335.4	261.11	2.3264e-05	2.7225e-05	321.34	88.491	70.925	21.197	2.438e-05	28.752	275.420	258.627	228.151	174.251	281.647	360.722	174.501	181.601	346.995	345.242	181.456	188.093	188.737	194.634	331.472	194.909	-8191	255	
29957.803	1	1	0	0	0.22645	0.085846	0.15841	0.12795	0.12747	0.43078	0.21831	0.23789	0.19828	0.29177	0.26654	0.25671	0.18246	0.018053	0.11157	0.31208	-2.5604	-2.5792	-3.4542	-2.8312	-3.0729	-3.3208	-2.8354	-3.1792	-3.0729	-2.6562	-3.4833	-2.7875	-3.1188	-3.375	-2.5271	-3.2938	280.644	306.598	410.331	505.691	369.162	193.364	468.615	306.158	461.171	361.591	383.308	422.360	302.186	460.827	256.975	213.820	0.00031351	0.0002082	0.0001193	1262	5.5988e-06	1.7154e-06	1348	260.7	4.6475e-06	5.0243e-07	319.34	87.298	70.096	20.516	4.0667e-06	27.997	0.0011653	0.0024474	0.00068113	1251.8	2.3153e-05	2.764e-05	1334.4	260.57	2.3705e-05	2.8655e-05	320.94	88.201	70.768	21.179	2.5615e-05	28.674	276.572	214.898	231.769	174.579	288.716	310.097	174.319	181.829	310.402	286.024	181.323	187.936	188.611	195.131	353.604	194.693	-8191	255	
29957.900	1	1	0	0	0.060373	0.056695	0.11772	0.29187	0.24685	0.19156	0.3893	0.16514	0.23906	0.084951	0.21052	0.28842	0.072688	0.30108	0.14474	0.1834	-2.6042	-2.5333	-3.3708	-3.0687	-2.8125	-3.4625	-2.7458	-3.2687	-2.9208	-2.5646	-3.4313	-3.0646	-2.7625	-3.5646	-2.5771	-3.1625	472.886	386.690	477.774	213.265	511.000	253.157	169.912	408.165	399.752	234.896	445.197	167.747	269.758	429.783	315.227	253.487	0.00035042	0.00017436	0.0001017	1264.4	4.5344e-06	6.5394e-06	1342.5	261.83	2.2709e-06	2.2851e-06	318.62	86.998	69.709	20.498	3.1136e-06	27.778	0.0012523	0.0026201	0.00071833	1250.1	2.5099e-05	2.9905e-05	1330.1	260.51	2.5049e-05	3.0175e-05	320.57	88.059	70.572	21.072	2.5892e-05	28.641	284.403	252.948	308.766	174.556	303.081	278.232	174.373	181.729	339.848	281.326	181.485	188.352	189.013	194.872	328.386	195.036	-8191	255	
29958.020	1	1	0	0	0.17724	0.22161	0.15288	0.23113	0.083372	0.12633	0.20744	0.14522	0.1476	0.10454	0.21205	0.29414	0.16127	0.066324	0.1557	0.11888	-2.7812	-2.4729	-3.0938	-3.2021	-2.6813	-3.4625	-2.875	-3.1312	-3.1667	-2.5896	-3.4479	-3.0917	-2.7521	-3.4437	-2.7562	-3.0417	471.841	406.769	401.113	451.775	455.245	225.140	447.911	448.908	235.412	387.844	483.489	401.519	408.851	244.557	238.030	311.669	0.00031885	0.0003473	0.00011987	1261.4	3.9612e-06	4.479e-06	1346.3	259.75	3.4667e-06	2.3611e-06	319.89	87.373	69.592	20.589	5.0442e-06	27.95	0.0012131	0.002601	0.00072111	1250	2.3808e-05	2.9293e-05	1335	260.14	2.4352e-05	2.9044e-05	320.45	88.139	70.572	21.161	2.5736e-05	28.664	274.209	217.854	250.201	174.247	306.278	342.663	174.166	181.861	351.256	378.807	181.421	188.100	188.737	194.936	342.569	194.442	-8191	255	
29958.115	1	1	0	0	0.057794	0.18046	0.16516	0.095385	0.073163	0.13606	0.33273	0.11661	0.22428	0.44353	0.16307	0.046456	0.16045	0.20772	0.28358	0.048368	-2.9729	-2.5438	-3.3646	-3.3146	-2.7021	-3.4292	-2.7792	-2.9646	-3.4271	-2.625	-3.1042	-3.2667	-2.5042	-3.3396	-2.8958	-2.8167	422.424	438.445	261.344	442.804	254.991	301.653	449.694	169.827	315.283	414.292	378.618	223.461	195.532	227.502	275.613	243.730	0.00030776	0.00027363	9.6556e-05	1260.7	2.4801e-06	3.5611e-06	1346.9	262.08	4.1463e-06	5.5176e-06	320.21	87.729	70.196	20.821	3.9342e-06	27.862	0.001213	0.0025611	0.00069952	1252	2.4279e-05	2.7432e-05	1335.3	261.44	2.3022e-05	2.8283e-05	321.64	88.483	71.074	21.319	2.419e-05	28.774	277.724	229.841	212.345	174.510	247.510	312.638	174.490	181.968	327.054	293.927	181.449	188.080	188.646	194.467	295.349	194.927	-8191	255	
29958.213	1	1	0	0	0.16863	0.083626	0.04554	0.18983	0.16766	0.20553	0.1232	0.21387	0.20216	0.10551	0.11328	0.30963	0.12223	0.20485	0.25889	0.24867	-2.8042	-2.6688	-3.1167	-3.3917	-2.4167	-3.3771	-3.0792	-2.6771	-3.3708	-2.6583	-3.3542	-3.4583	-2.5417	-3.4708	-2.9583	-2.6479	320.283	333.912	207.748	470.175	380.133	323.765	255.150	448.347	235.970	382.253	296.853	488.502	342.824	458.946	371.500	345.890	0.00030911	0.00030809	2.8361e-05	1264.1	4.8542e-06	5.7486e-06	1349.9	262.07	3.8657e-06	3.7192e-06	320.48	87.362	69.442	20.55	4.0921e-06	27.837	0.0011852	0.0024294	0.00069283	1253.9	2.3294e-05	2.8264e-05	1336.3	261.37	2.3671e-05	2.8763e-05	320.97	88.241	70.558	21.106	2.5595e-05	28.595	275.331	200.560	238.795	174.519	293.317	310.232	174.420	181.947	333.854	303.033	181.880	187.843	188.983	195.239	322.217	194.805	-8191	255	
29958.309	1	1	0	0	0.10103	0.23512	0.21247	0.22017	0.086515	0.20102	0.073719	0.26168	0.29757	0.14563	0.22166	0.18595	0.11222	0.18286	0.16136	0.080558	-3.0354	-2.6646	-2.8458	-3.4125	-2.4104	-3.2979	-3.1854	-2.5687	-3.3542	-2.7812	-3.0208	-3.3333	-2.6937	-3.3104	-3.0167	-2.6021	437.173	191.773	284.241	495.151	371.143	468.490	486.232	349.883	465.743	243.764	500.658	437.230	522.320	425.377	340.393	459.005	0.00029609	0.00014102	0.00014664	1260	2.476e-06	4.8712e-06	1344.2	260.36	2.8394e-06	2.366e-06	317.02	86.582	69.649	20.418	5.2668e-06	27.753	0.0012568	0.0025822	0.00073072	1250.4	2.502e-05	2.9764e-05	1331.1	259.93	2.4459e-05	2.9485e-05	319.23	87.744	70.437	21.044	2.5915e-05	28.5	280.601	216.416	190.930	174.436	338.429	292.871	174.713	182.215	294.203	308.558	181.802	188.163	189.019	194.502	320.421	194.745	-8191	255	
29958.404	1	1	0	0	0.11377	0.16435	0.16084	0.21417	0.12907	0.2867	0.29812	0.41393	0.1489	0.032937	0.047504	0.13833	0.23376	0.097622	0.081054	0.14775	-3.0604	-2.5479	-2.7687	-3.5792	-2.5729	-3.2604	-3.4688	-2.5438	-3.4	-2.8521	-2.7896	-3.3958	-2.6188	-3.1167	-3.2875	-2.6208	411.351	470.831	251.190	512.130	217.117	301.852	496.904	476.480	174.109	203.856	271.580	378.825	207.765	502.850	230.031	421.100	0.00032882	0.00019592	0.00015418	1266.8	1.5647e-06	4.3424e-06	1342.8	258.81	3.3548e-06	3.088e-06	316.52	87.257	69.504	20.41	5.3392e-06	27.839	0.0012395	0.0025678	0.00072169	1253	2.4249e-05	2.8618e-05	1332.7	259.63	2.3743e-05	2.9231e-05	319.95	87.816	70.335	20.994	2.5862e-05	28.521	277.902	238.034	259.206	174.738	360.414	353.711	174.751	181.811	306.535	361.225	181.760	188.260	189.041	195.156	322.378	195.434	-8191	255	
29958.502	1	1	0	0	0.041805	0.13882	0.065078	0.14605	0.17821	0.063775	0.11014	0.093743	0.23123	0.34467	0.26855	0.18412	0.16597	0.039608	0.15603	0.10828	-3.0125	-2.9479	-2.7104	-3.5396	-2.6042	-3.0604	-3.4729	-2.6333	-3.3229	-2.9375	-2.5812	-3.4604	-2.8104	-3.0667	-3.2188	-2.5396	206.715	458.166	482.057	177.474	170.347	181.405	427.481	421.776	436.468	317.607	504.058	455.701	510.088	358.011	237.869	372.613	0.00027263	0.00019112	0.00015418	1262.7	3.7112e-06	2.9162e-06	1347.8	259.72	2.8368e-06	2.6214e-06	317.15	86.524	69.278	20.258	3.5398e-06	27.578	0.0012356	0.0025886	0.00073248	1251.5	2.4465e-05	2.9906e-05	1331.4	259.4	2.4626e-05	2.9374e-05	319.75	87.766	70.155	20.905	2.6764e-05	28.41	279.660	288.747	255.674	174.741	316.669	321.448	174.544	182.058	300.020	314.875	181.861	188.615	188.769	195.464	357.131	195.491	-8191	255	
29958.621	1	1	0	0	0.097038	0.21849	0.084928	0.2966	0.22409	0.087083	0.14997	0.057039	0.12195	0.14328	0.14173	0.14439	0.19056	0.15027	0.24564	0.10352	-3.1063	-3.2208	-2.5729	-3.55	-2.825	-2.9167	-3.5104	-2.5875	-3.0292	-3.2146	-2.5667	-3.5167	-2.8583	-2.8229	-3.425	-2.5687	392.187	349.088	458.921	476.461	337.725	455.081	418.518	489.854	493.198	291.600	360.185	436.166	232.032	194.815	449.460	472.390	0.00031376	0.00021719	3.7416e-05	1260.6	3.3377e-06	4.6632e-06	1347.1	258.68	3.677e-06	2.9704e-06	318.94	86.487	69.232	20.312	2.4041e-07	27.486	0.0012681	0.0026873	0.0007584	1251.6	2.5508e-05	3.138e-05	1333.2	258.83	2.5709e-05	3.0756e-05	320.04	87.616	70.173	20.889	2.6548e-05	28.383	269.645	256.645	296.885	174.849	280.330	317.029	174.864	182.437	321.902	305.281	181.867	188.434	189.264	195.337	504.937	194.863	-8191	255	
29958.717	1	1	0	0	0.2097	0.22881	0.046329	0.075251	0.18785	0.35651	0.17209	0.24713	0.18932	0.10254	0.21278	0.089458	0.38106	0.22136	0.29667	0.15021	-2.6542	-3.0062	-2.5604	-3.5458	-2.6875	-2.5938	-3.5271	-2.55	-3.05	-3.2708	-2.5354	-3.4042	-2.9813	-2.7417	-3.3271	-2.6542	301.495	318.643	278.570	367.336	491.545	448.465	180.205	408.193	336.124	268.066	490.572	174.028	427.716	471.884	426.928	427.087	0.00034215	0.00028819	0.0001028	1263.7	3.2e-06	3.4895e-06	1339.6	259.06	4.1705e-06	2.7874e-06	316.25	86.182	69.198	20.274	6.021e-06	27.331	0.0013088	0.0027362	0.00075275	1251.8	2.5696e-05	3.1138e-05	1329	259.03	2.6146e-05	3.1231e-05	318.76	87.463	69.996	20.876	2.7614e-05	28.21	270.643	256.517	235.979	174.490	321.396	332.349	174.420	182.033	309.292	292.909	181.788	188.351	188.867	195.394	308.189	195.237	-8191	255	
29958.812	1	1	0	0	0.067101	0.11339	0.3227	0.23818	0.091141	0.05868	0.26259	0.20632	0.086353	0.14096	0.21422	0.12163	0.16582	0.089752	0.0705	0.11348	-2.6292	-3.2042	-2.5396	-3.4333	-2.9813	-2.6708	-3.425	-2.7104	-2.8729	-3.4271	-2.4667	-3.1688	-3.0521	-2.6917	-3.4104	-2.8625	347.613	373.817	261.260	518.869	232.095	466.921	491.862	498.464	356.818	372.489	504.052	335.068	514.801	272.040	257.788	218.564	0.00030896	0.00033765	9.1151e-05	1261.4	3.761e-06	5.9119e-06	1341.3	257.15	4.369e-06	1.4941e-06	316.6	86.046	68.883	20.151	5.9464e-06	27.642	0.0013603	0.0028737	0.00081167	1249.5	2.7168e-05	3.3242e-05	1330.6	257.89	2.7421e-05	3.2388e-05	318.98	87.409	69.961	20.776	2.8449e-05	28.338	277.009	238.252	254.154	174.865	305.635	306.819	174.444	182.042	293.582	364.626	181.651	188.270	188.917	195.631	303.312	195.260	-8191	255	
29958.883	1	1	0	0	0.10575	0.29332	0.07836	0.52576	0.093878	0.26961	0.23661	0.19193	0.11437	0.29325	0.13357	0.39386	0.10474	0.22993	0.16946	0.07587	-2.3896	-3.2167	-2.4646	-3.275	-3.025	-2.6479	-3.6813	-2.8458	-2.7542	-3.2938	-2.5958	-2.9979	-3.2812	-2.5375	-3.3438	-2.8771	359.241	321.048	255.126	466.469	261.502	384.931	435.472	517.434	452.190	264.702	227.352	251.985	199.938	296.853	422.525	521.705	0.0002988	0.00039744	9.4769e-05	1262.5	2.7525e-06	5.1776e-06	1348.8	258.87	4.5861e-06	1.5748e-06	319.13	86.473	69.279	20.175	2.7441e-06	27.525	0.0013691	0.0027929	0.00079217	1252.6	2.6542e-05	3.278e-05	1334.1	259.18	2.6928e-05	3.1959e-05	319.4	87.736	70.161	20.856	2.7257e-05	28.41	276.506	230.438	280.848	174.717	349.369	314.609	174.529	181.838	326.318	280.563	181.788	188.220	189.147	195.739	293.457	195.070	-8191	255	
29958.980	1	1	0	0	0.092828	0.33495	0.40938	0.31221	0.10503	0.23357	0.10962	0.18601	0.086071	0.063573	0.27772	0.23271	0.086567	0.17745	0.19806	0.10922	-2.3063	-3.5	-2.6854	-3.1667	-3.2208	-2.5708	-3.5604	-2.8708	-2.7083	-3.3104	-2.8208	-2.825	-3.4042	-2.6396	-3.2708	-3.1458	505.291	349.138	275.961	476.959	421.665	170.527	358.075	496.692	239.816	415.668	409.316	517.644	234.277	176.493	210.683	376.210	0.00030153	0.000445	6.2615e-05	1262.5	5.2335e-06	4.3345e-06	1345	259.31	4.0645e-06	4.0908e-06	318.83	87.649	69.514	20.258	4.6537e-06	27.603	0.0013248	0.002749	0.00075136	1253.5	2.6486e-05	3.163e-05	1333.4	259.81	2.5448e-05	3.0508e-05	319.87	88.121	70.45	20.952	2.6194e-05	28.417	276.172	235.659	271.160	174.588	336.408	316.867	174.776	182.058	337.401	311.393	181.575	188.468	188.753	195.401	335.131	194.720	-8191	255	
29959.100	1	1	0	0	0.17768	0.17088	0.29309	0.30472	0.016024	0.13433	0.071153	0.1589	0.15402	0.20489	0.3394	0.14002	0.16707	0.049951	0.20524	0.14283	-2.2958	-3.4396	-2.575	-3.0604	-3.2625	-2.5333	-3.3917	-3.075	-2.5	-3.2979	-2.9396	-2.7854	-3.3208	-2.7	-3.1542	-3.3646	229.189	463.067	288.339	468.239	175.354	400.255	514.874	473.389	184.273	430.177	497.135	329.852	464.802	421.758	503.652	240.877	0.00033272	8.907e-05	8.6213e-05	1273.7	2.9047e-06	4.6966e-06	1347.9	260.48	4.5583e-06	3.3149e-06	317.1	87.353	69.196	20.439	3.3471e-06	27.712	0.0013025	0.0026517	0.00075865	1257.1	2.5094e-05	3.0699e-05	1335.1	260.36	2.5955e-05	3.0533e-05	319.92	88.05	70.457	21.031	2.6187e-05	28.529	275.129	246.914	277.050	174.499	286.359	312.168	174.746	182.233	320.485	288.776	181.917	188.263	188.887	195.376	304.985	195.029	-8191	255	
29959.195	1	1	0	0	0.059514	0.23192	0.19284	0.23727	0.18648	0.29274	0.28844	0.27142	0.1449	0.17057	0.20793	0.11916	0.044524	0.16883	0.16748	0.32096	-1.9438	-3.5333	-2.7625	-3.0167	-3.3125	-2.6375	-3.3708	-3.1208	-2.4062	-3.2958	-2.9562	-2.7125	-3.4062	-2.6813	-3.0646	-3.2042	342.708	283.775	357.958	464.350	479.419	200.505	212.526	493.516	193.303	381.273	447.036	293.509	167.241	164.243	429.122	240.138	0.00029822	0.00029562	0.00011001	1266.7	4.759e-06	4.7851e-06	1353.4	262.18	3.4295e-06	4.6465e-06	320.69	87.057	69.493	20.436	1.9165e-06	27.835	0.0012973	0.0026835	0.00073415	1255.1	2.5004e-05	3.0348e-05	1338.5	260.82	2.5428e-05	2.9796e-05	321.19	88.243	70.469	21.032	2.621e-05	28.516	277.805	256.314	249.315	174.620	321.593	342.364	174.776	182.025	282.484	294.402	181.679	188.256	188.854	195.076	394.029	194.500	-8191	255	
29959.293	1	1	0	0	0.3428	0.27402	0.11739	0.18939	0.10506	0.18627	0.28891	0.16079	0.22187	0.30192	0.05934	0.2288	0.14788	0.054172	0.023441	0.25796	-2.1083	-3.1063	-2.9688	-2.9562	-3.675	-2.7583	-3.1146	-3.4125	-2.5292	-3.2958	-3.0979	-2.6688	-3.6125	-2.7687	-2.8917	-3.4771	220.622	392.918	436.193	522.682	505.982	196.991	441.995	413.139	296.611	302.218	449.274	487.985	170.555	230.945	254.574	305.818	0.00031288	0.00048892	9.8095e-05	1270.6	3.7703e-06	4.0088e-06	1351	259.77	3.114e-06	4.5695e-06	318.61	87.042	69.91	20.425	4.1031e-06	27.837	0.001253	0.0026434	0.00073616	1257.4	2.4559e-05	2.9768e-05	1336.2	259.75	2.4928e-05	2.9176e-05	320.53	88.214	70.682	21.037	2.5293e-05	28.568	280.320	250.085	260.535	174.774	340.543	338.579	174.578	181.816	300.281	284.288	181.733	188.484	188.690	195.057	338.454	194.736	-8191	255	
29959.412	1	1	0	0	0.20499	0.15965	0.22045	0.078039	0.25194	0.20784	0.35144	0.27095	0.16365	0.12743	0.11588	0.21622	0.10545	0.17494	0.40492	0.17192	-2.2771	-3.2625	-3.2583	-2.8396	-3.4104	-2.7771	-3.0229	-3.5458	-2.4729	-3.2146	-3.3229	-2.6167	-3.3771	-2.925	-3.0083	-3.4042	344.769	447.664	403.584	178.715	463.510	490.575	508.966	319.798	310.159	196.411	444.620	493.534	172.995	484.742	310.237	177.978	0.00029694	0.00017359	9.3469e-05	1270.3	6.1753e-06	2.0235e-06	1348.9	260.08	2.9155e-06	3.7576e-06	319.01	86.886	69.475	20.378	2.8863e-06	27.647	0.0012573	0.0025318	0.00072646	1257.8	2.4255e-05	3.0329e-05	1336.1	260.02	2.5497e-05	3.0464e-05	320.34	87.993	70.502	21	2.6489e-05	28.487	276.266	243.583	260.825	174.842	300.576	404.699	174.698	182.000	311.838	303.736	181.391	188.417	188.911	195.028	296.475	195.048	-8191	255	
29959.484	1	1	0	0	0.22071	0.10987	0.25855	0.20413	0.031785	0.11529	0.29251	0.1181	0.25068	0.21878	0.058926	0.22001	0.12159	0.023025	0.15944	0.23253	-2.2313	-2.975	-3.3104	-2.6521	-3.3208	-3.0625	-2.9188	-3.4229	-2.5	-2.9333	-3.3667	-2.3729	-3.3	-3	-2.7354	-3.4521	252.519	231.417	433.300	437.431	397.537	421.371	461.077	387.501	424.254	453.304	436.227	185.728	458.256	316.346	194.579	511.591	0.00032585	0.00058126	9.9292e-05	1267	4.5065e-06	1.9108e-06	1352.8	259.39	1.4065e-06	3.2154e-06	320.61	87.017	69.543	20.407	5.859e-06	27.926	0.0013094	0.0026582	0.00074925	1255.8	2.5255e-05	3.1118e-05	1338.6	259.53	2.5251e-05	3.0507e-05	320.5	88.021	70.471	21.012	2.5892e-05	28.58	273.451	239.168	297.555	174.708	295.304	330.726	174.536	181.767	334.196	337.422	181.542	188.044	188.783	195.078	300.940	194.936	-8191	255	
29959.580	1	1	0	0	0.18257	0.16898	0.15376	0.19373	0.066346	0.21903	0.14789	0.29462	0.23543	0.075478	0.20147	0.11155	0.3014	0.15547	0.26104	0.078285	-2.2208	-2.7562	-3.1042	-2.5604	-3.2396	-2.9583	-2.8979	-3.5	-2.4688	-2.725	-3.525	-2.4979	-3.2292	-3.1437	-2.4813	-3.3854	321.298	293.823	347.480	460.449	457.755	515.406	178.016	445.998	352.575	185.799	482.626	237.083	483.933	223.858	438.042	467.768	0.00029951	0.00034271	8.2378e-05	1270.6	4.5448e-06	4.6816e-06	1349.6	260.85	4.1241e-06	1.7252e-06	318.2	87.151	69.965	20.432	2.9078e-06	27.75	0.001265	0.002637	0.000732	1255.5	2.5104e-05	2.9517e-05	1337.4	260.5	2.5148e-05	2.9172e-05	320.85	88.215	70.881	21.082	2.5473e-05	28.62	280.886	257.187	244.257	174.396	291.606	374.787	174.079	181.813	306.436	520.574	181.462	188.099	188.882	195.041	323.870	194.890	-8191	255	
29959.701	1	1	0	0	0.31773	0.1202	0.37936	0.1975	0.26035	0.05956	0.18686	0.25226	0.31796	0.15428	0.20789	0.12633	0.15784	0.18591	0.19346	0.37518	-2.4979	-2.8312	-3.3396	-2.7854	-2.9792	-3.1792	-2.7854	-3.55	-2.7625	-2.6979	-3.5208	-2.5854	-3.1396	-3.0667	-2.5604	-3.4583	498.428	298.161	190.205	414.459	190.673	425.652	409.118	425.047	401.970	290.155	316.714	318.387	324.194	311.738	183.657	358.197	0.0003258	0.00042123	7.1634e-05	1270	4.3225e-06	3.2086e-06	1352	260.71	1.83e-06	2.8042e-06	319.35	87.226	69.751	20.53	2.7198e-06	27.872	0.0012773	0.0025893	0.0007002	1256.7	2.4424e-05	2.8949e-05	1338.2	260.35	2.4975e-05	2.8651e-05	320.51	88.151	70.664	21.09	2.6396e-05	28.639	277.336	267.027	231.245	174.377	312.685	344.522	174.338	181.702	315.052	296.607	181.231	188.431	188.530	194.702	328.597	194.748	-8191	255	
29959.797	1	1	0	0	0.014729	0.099619	0.10322	0.23203	0.20369	0.082972	0.41288	0.16953	0.1264	0.084616	0.2259	0.15428	0.20833	0.21029	0.061036	0.23321	-2.475	-2.675	-3.2833	-2.7625	-3.0271	-3.1146	-2.6271	-3.3833	-3.05	-2.6917	-3.6104	-2.8875	-2.8625	-3.45	-2.5333	-3.3521	515.409	228.702	494.664	454.853	465.678	187.914	475.287	434.309	431.310	341.030	520.588	516.709	307.034	475.003	379.880	446.212	0.00032383	0.00039129	0.000158	1266	3.4197e-06	4.6389e-06	1348.7	261.12	2.8245e-06	5.2863e-06	319.37	86.57	69.549	20.551	4.767e-06	27.735	0.0012627	0.0025332	0.00071673	1255.6	2.5525e-05	2.9483e-05	1337.1	260.73	2.5363e-05	3.0022e-05	320.33	88.003	70.519	21.045	2.7188e-05	28.583	276.178	270.006	248.321	174.258	334.802	262.136	174.442	181.902	330.732	288.906	181.282	188.124	188.617	194.919	327.006	194.988	-8191	255	
29959.893	1	1	0	0	0.064405	0.27291	0.14334	0.22832	0.067505	0.11631	0.37321	0.064288	0.28361	0.24377	0.062089	0.26335	0.076447	0.037468	0.27691	0.036528	-2.7354	-2.5604	-3.2292	-2.7479	-2.8125	-3.3167	-2.6167	-3.2458	-3.0875	-2.5	-3.475	-2.8542	-2.8396	-3.3542	-2.4375	-3.0083	175.981	355.151	371.665	494.401	451.366	326.506	482.155	322.678	238.195	321.343	400.132	511.553	347.944	513.809	289.356	356.609	0.00029849	0.00011223	6.739e-05	1269.2	5.5782e-06	3.801e-06	1350.8	260.89	2.1594e-06	4.0762e-06	318.93	87.251	69.884	20.503	6.7284e-06	27.816	0.0012802	0.0026407	0.00072963	1256.4	2.5551e-05	2.9749e-05	1338	260.36	2.5678e-05	2.9713e-05	320.73	88.278	70.674	21.105	2.6259e-05	28.6	274.254	258.434	202.260	174.126	276.891	334.185	174.256	181.822	339.092	319.769	181.467	188.027	188.997	194.931	350.397	194.874	-8191	255	
29960.014	1	1	0	0	0.13943	0.22622	0.13682	0.18847	0.23439	0.09193	0.19765	0.1772	0.022823	0.065687	0.32366	0.18783	0.18182	0.23463	0.17754	0.21079	-2.8021	-2.4437	-3.2812	-2.9833	-2.6292	-3.4542	-2.9146	-3.1979	-3.1875	-2.5563	-3.3917	-2.9979	-2.5083	-3.4792	-2.5062	-3.0729	413.912	442.942	289.635	464.104	221.667	325.328	516.905	358.751	406.049	501.993	519.285	454.811	397.481	479.412	461.282	522.241	0.00032496	0.00036308	8.2811e-05	1269.2	1.866e-06	4.6635e-06	1351	261.18	1.7592e-06	2.0065e-06	319.88	87.309	69.543	20.535	2.1053e-06	27.706	0.0012708	0.0026379	0.00074691	1255.6	2.5035e-05	3.0199e-05	1337.3	260.39	2.5057e-05	3.0342e-05	321.06	88.332	70.536	21.058	2.6439e-05	28.564	280.396	215.233	290.565	174.535	320.406	307.132	174.181	181.660	331.743	335.765	181.727	188.169	188.882	194.908	322.140	195.240	-8191	255	
29960.109	1	1	0	0	0.2227	0.29395	0.17138	0.16557	0.11914	0.093636	0.13956	0.11433	0.086942	0.22974	0.22097	0.14637	0.15683	0.22354	0.48384	0.13117	-2.9125	-2.6625	-3.1625	-3.1937	-2.5833	-3.5417	-2.6896	-2.6646	-3.3792	-2.3063	-3.2292	-3.2188	-2.525	-3.2396	-2.6292	-2.9146	453.025	229.925	189.994	503.309	404.016	276.229	164.331	499.459	360.329	360.848	516.560	401.378	281.716	498.672	420.602	286.036	0.00033161	0.00031945	0.00012829	1262.4	5.4909e-06	3.2782e-06	1343.5	260.03	6.1486e-06	3.4999e-06	318.18	87.113	69.538	20.491	4.0627e-06	27.699	0.0012813	0.0026945	0.0007405	1254	2.5708e-05	3.0472e-05	1336	259.86	2.5126e-05	2.9669e-05	320.03	88.091	70.621	21.076	2.5591e-05	28.584	283.811	204.191	232.728	174.625	312.487	309.702	174.281	181.943	332.559	347.161	181.873	188.555	188.819	195.107	286.474	194.910	-8191	255	
29960.182	1	1	0	0	0.044314	0.25112	0.22448	0.11234	0.18791	0.13387	0.2527	0.23625	0.23122	0.10098	0.011825	0.24282	0.12934	0.20791	0.1166	0.10123	-3.0708	-2.5563	-3.1792	-3.2479	-2.5042	-3.3438	-3.0875	-2.7875	-3.3563	-2.5667	-3.1104	-3.1042	-2.5	-3.3479	-2.8958	-2.6896	405.893	460.674	421.709	522.652	511.700	358.475	451.303	493.431	499.440	462.621	416.525	166.306	254.011	203.057	238.779	384.927	0.00034567	0.00028938	0.00012964	1272.7	5.3762e-06	3.028e-06	1349.6	260.85	4.3757e-06	6.028e-07	319.45	87.465	70.334	20.592	3.8024e-06	27.794	0.0012341	0.0025688	0.00072544	1256.9	2.3904e-05	2.8411e-05	1338.2	260.61	2.3502e-05	2.8919e-05	321.81	88.527	70.888	21.181	2.631e-05	28.605	274.819	236.917	264.130	174.309	344.336	327.878	174.649	181.665	303.923	360.487	181.703	187.948	188.373	194.896	321.309	194.766	-8191	255	
29960.277	1	1	0	0	0.11535	0.065878	0.20094	0.33884	0.13415	0.087362	0.42777	0.18611	0.10657	0.093762	0.10671	0.20634	0.26225	0.079854	0.078805	0.15984	-3.1	-2.5625	-3.1375	-3.2708	-2.45	-3.2792	-3.1667	-2.6	-3.3187	-2.7479	-2.9688	-3.2792	-2.4813	-3.1333	-3.0771	-2.5687	182.380	308.082	179.450	509.799	270.980	184.082	485.457	422.235	258.699	461.839	483.621	498.103	188.074	193.430	297.590	263.258	0.00032368	0.00012211	0.00010967	1269.7	1.7908e-06	3.9408e-06	1349	259.23	3.5511e-06	3.6175e-06	317.99	86.924	69.227	20.516	4.1105e-06	27.687	0.0012481	0.0026437	0.0007297	1257.4	2.5205e-05	2.9963e-05	1336.8	260.18	2.552e-05	3.0294e-05	320.53	88.067	70.561	21.085	2.6756e-05	28.566	280.686	167.881	239.046	174.130	388.527	344.275	174.216	181.763	335.365	309.710	181.418	188.113	188.905	194.953	323.254	194.898	-8191	255	
29960.396	1	1	0	0	0.06943	0.15107	0.10191	0.16978	0.13076	0.048252	0.19757	0.38501	0.10596	0.27325	0.26512	0.12209	0.16189	0.25436	0.11681	0.11737	-3.1646	-2.6417	-2.7729	-3.5396	-2.4521	-3.3	-3.1875	-2.5396	-3.3812	-2.7833	-2.7438	-3.3458	-2.6708	-3.0375	-3.175	-2.6437	330.502	460.178	261.196	394.049	520.955	167.587	459.841	499.693	296.731	413.532	245.427	202.456	420.654	370.882	317.061	504.507	0.0003217	0.00037394	0.00010996	1266.7	2.5996e-06	4.7723e-06	1344.7	261.28	2.8933e-06	3.6778e-06	319.3	86.951	69.862	20.542	6.5702e-06	27.807	0.0012925	0.0026666	0.00075305	1255.3	2.5699e-05	3.0556e-05	1335.2	260.43	2.4938e-05	2.941e-05	320.43	88.154	70.691	21.143	2.5154e-05	28.666	278.303	250.294	228.560	174.377	283.421	276.623	174.396	181.858	307.725	325.075	181.670	187.636	188.351	194.968	309.062	194.361	-8191	255	
29960.494	1	1	0	0	0.10653	0.11974	0.059783	0.076523	0.29892	0.22278	0.3175	0.040533	0.31238	0.056848	0.17304	0.15893	0.015941	0.29883	0.087525	0.11286	-2.9896	-2.725	-2.7958	-3.5687	-2.8458	-2.9062	-3.3208	-2.6229	-3.5625	-2.9708	-2.8646	-3.5042	-2.7083	-2.8937	-3.2229	-2.4417	228.657	400.551	170.325	195.373	391.523	304.170	488.321	436.385	406.792	477.476	283.718	467.074	384.920	438.920	278.096	419.740	0.00028208	7.4814e-05	8.704e-05	1268.9	3.4967e-06	2.7694e-06	1349.8	260.25	3.6343e-06	1.4334e-06	318.29	87.387	69.881	20.618	3.1822e-06	27.797	0.0012252	0.0024751	0.00069642	1257.5	2.3739e-05	2.8294e-05	1338.1	260.68	2.3756e-05	2.9307e-05	321.16	88.345	70.876	21.248	2.477e-05	28.722	266.378	272.581	307.326	174.152	333.257	370.524	174.180	181.645	341.242	294.927	181.532	188.143	188.678	194.662	288.073	194.847	-8191	255	
29960.590	1	1	0	0	0.18668	0.36451	0.1397	0.23206	0.31464	0.14464	0.34438	0.35999	0.2124	0.11594	0.11703	0.116	0.10063	0.21655	0.14703	0.099255	-2.875	-2.9021	-2.5729	-3.5208	-2.5979	-2.9125	-3.5833	-2.6521	-3.1417	-3.1042	-2.7083	-3.4375	-2.7479	-2.8354	-3.3042	-2.5083	168.427	382.864	448.991	439.503	283.209	431.877	485.434	496.938	264.739	232.830	426.142	490.456	478.399	342.337	340.800	245.128	0.00030977	0.00050425	8.2151e-05	1274.3	1.4187e-06	2.0108e-06	1350.2	261.5	5.5874e-06	3.6293e-06	319.12	87.732	70.098	20.682	2.6968e-06	27.891	0.0012238	0.0025155	0.00073341	1259.3	2.4266e-05	2.8576e-05	1337.4	261.19	2.4395e-05	2.8603e-05	321.34	88.709	71.059	21.271	2.6085e-05	28.725	276.350	244.015	267.989	174.344	363.667	230.944	174.135	181.633	302.762	321.288	181.656	188.092	188.886	194.756	336.742	194.409	-8191	255	
29960.684	1	1	0	0	0.067499	0.08755	0.067841	0.14652	0.17343	0.20952	0.12389	0.026318	0.095603	0.17589	0.15387	0.17483	0.26197	0.21337	0.066462	0.0459	-2.7896	-3.025	-2.3458	-3.4646	-2.7313	-2.8854	-3.6354	-2.7896	-3.2167	-3.2604	-2.5312	-3.2396	-3.0375	-2.8396	-3.3417	-2.5563	433.968	343.259	337.223	502.611	475.115	249.343	457.257	350.448	326.588	416.960	346.273	260.916	220.578	474.074	482.625	353.604	0.00033177	0.0003229	7.9488e-05	1271.8	7.5433e-06	3.341e-06	1353.9	260.85	2.1469e-06	2.9419e-06	320.77	87.639	70.138	20.689	9.1959e-07	27.853	0.0012499	0.0025789	0.00073431	1259.8	2.4423e-05	2.933e-05	1339.5	261.29	2.4925e-05	2.916e-05	321.18	88.556	71.031	21.277	2.637e-05	28.715	277.789	244.793	216.252	174.472	294.600	218.469	174.368	181.784	352.035	361.633	181.387	188.027	188.042	194.622	360.145	194.429	-8191	255	
29960.779	1	1	0	0	0.049349	0.11766	0.092048	0.15482	0.1574	0.049802	0.26639	0.11703	0.073221	0.071317	0.17994	0.33809	0.11955	0.22594	0.21063	0.062327	-2.5687	-3.2479	-2.5458	-3.3542	-2.9354	-2.5625	-3.55	-2.6792	-2.8375	-3.1312	-2.5833	-3.2292	-2.9083	-2.6729	-3.4396	-2.6771	329.887	329.729	522.799	474.615	445.374	519.194	406.470	475.555	365.213	450.457	181.341	461.365	482.951	180.964	302.092	469.803	0.00031423	0.00062553	0.00011625	1270.7	2.728e-06	5.9637e-06	1349.6	260.72	2.4304e-06	2.5944e-06	318.24	87.739	69.843	20.687	3.5666e-06	27.811	0.0012555	0.0026613	0.00073948	1257.1	2.4877e-05	2.9978e-05	1337.9	260.42	2.5122e-05	2.9584e-05	320.95	88.525	70.902	21.241	2.6243e-05	28.794	280.037	230.097	299.158	174.234	306.409	344.475	174.134	181.526	282.026	249.252	181.309	187.996	188.391	194.714	254.923	194.928	-8191	255	
29960.877	1	1	0	0	0.052037	0.19456	0.10115	0.2581	0.081084	0.097982	0.17399	0.051803	0.18981	0.18102	0.27321	0.16583	0.13277	0.069251	0.03823	0.3569	-2.3521	-3.3125	-2.6021	-3.3063	-3.0208	-2.7667	-3.6167	-2.8271	-2.7646	-3.3417	-2.5875	-3.1646	-3.0083	-2.5458	-3.3521	-2.9562	443.742	476.683	287.342	522.654	303.133	186.354	461.418	478.185	422.147	364.916	396.911	474.058	202.646	480.307	274.174	230.169	0.00033518	0.00012969	0.00010677	1267.2	4.9544e-06	3.7803e-06	1352.8	260.07	3.4299e-06	2.4113e-06	318.96	86.852	69.436	20.529	4.7163e-06	27.751	0.001264	0.0026379	0.0007609	1255.7	2.5081e-05	3.083e-05	1338.7	260.27	2.6679e-05	3.1196e-05	320.38	88.263	70.614	21.145	2.7717e-05	28.619	279.459	206.486	293.634	174.315	282.816	315.667	174.179	181.839	318.114	334.386	181.393	188.189	188.743	194.667	358.699	194.739	-8191	255	
29960.975	1	1	0	0	0.11021	0.071472	0.10148	0.16716	0.26583	0.26374	0.26059	0.087175	0.18738	0.19497	0.32204	0.022098	0.27766	0.0052043	0.21813	0.19381	-2.4333	-3.2167	-2.6854	-3.1333	-3.1396	-2.4917	-3.5417	-2.9437	-2.5812	-3.3375	-2.525	-3.1292	-3.2104	-2.4083	-3.1458	-2.9271	424.455	398.966	280.252	233.180	389.823	311.371	485.840	204.717	340.092	233.215	175.872	466.933	167.512	499.864	352.682	434.214	0.00036756	0.00031982	0.0001089	1271.5	4.5067e-06	4.0767e-06	1356.1	259.2	2.9705e-06	4.1726e-06	319.74	87.085	69.645	20.528	3.1158e-06	27.923	0.0013725	0.0027491	0.00078017	1257	2.6259e-05	3.1362e-05	1340	260.08	2.6435e-05	3.0832e-05	320.57	88.277	70.574	21.138	2.7559e-05	28.713	276.757	272.065	274.369	174.437	292.022	286.983	174.386	181.970	337.409	302.572	181.526	187.936	188.538	195.032	312.717	195.010	-8191	255	
29961.094	1	1	0	0	0.12546	0.035235	0.18416	0.12318	0.05299	0.11211	0.38171	0.049671	0.10761	0.19025	0.080321	0.20112	0.32411	0.1874	0.046037	0.10615	-2.2188	-3.3563	-2.6375	-2.9979	-3.0875	-2.3667	-3.3271	-3.2208	-2.6063	-3.4167	-2.7625	-2.9146	-3.3187	-2.4917	-3.2708	-3.2396	371.486	505.484	188.006	390.033	450.137	262.209	469.034	463.199	451.352	287.232	487.544	175.413	511.928	384.279	421.723	372.261	0.00031332	0.00025071	0.00013282	1275.4	3.6255e-06	4.2079e-06	1352.4	260.19	4.271e-06	1.9047e-06	319.28	86.909	69.971	20.535	4.2712e-06	27.851	0.001306	0.0026973	0.00078471	1259.3	2.5882e-05	3.1323e-05	1337.4	260.43	2.596e-05	3.0134e-05	320.57	88.354	70.889	21.15	2.7471e-05	28.748	277.061	229.782	290.588	174.584	298.533	320.098	174.439	181.796	282.893	332.454	181.866	188.079	188.663	195.312	289.428	194.975	-8191	255	
29961.189	1	1	0	0	0.27813	0.1888	0.19499	0.21523	0.2139	0.23373	0.1742	0.15864	0.10086	0.14945	0.31331	0.20072	0.17506	0.27489	0.24503	0.18644	-2.05	-3.3354	-2.5208	-2.9688	-3.3688	-2.3229	-3.2188	-3.1458	-2.5438	-3.3312	-2.8104	-2.7125	-3.3917	-2.5646	-3.0875	-3.2125	339.692	423.480	494.989	376.637	284.573	205.329	520.051	335.568	397.615	430.998	479.425	171.689	254.386	243.310	220.341	289.351	0.00034191	0.00037738	9.5029e-05	1269.3	4.8846e-06	3.2419e-06	1346.8	261.13	4.2858e-06	4.2274e-06	317.83	87.353	69.71	20.601	2.9366e-06	27.807	0.001331	0.0027155	0.00076757	1258.2	2.581e-05	3.1634e-05	1336.7	260.32	2.6499e-05	3.1613e-05	320.93	88.403	70.652	21.208	2.7958e-05	28.616	272.342	270.595	248.096	174.423	319.383	316.210	174.590	182.018	309.520	359.845	181.281	188.469	188.622	195.282	356.390	194.790	-8191	255	
29961.285	1	1	0	0	0.2014	0.18865	0.12252	0.134	0.21873	0.092031	0.19039	0.17912	0.1582	0.2372	0.25514	0.2331	0.17365	0.16069	0.078243	0.01532	-2.0646	-3.4021	-2.8063	-2.7271	-3.3708	-2.7333	-3.1292	-3.3708	-2.5833	-3.3375	-3.0958	-2.7938	-3.4896	-2.7396	-2.8854	-3.3771	486.155	250.407	198.340	500.049	425.179	500.224	469.818	404.695	298.006	201.827	374.401	393.690	456.050	444.225	254.753	396.000	0.00030829	0.00050007	1.4313e-05	1267.7	3.1428e-06	1.0133e-06	1352.6	260.93	5.6222e-06	3.214e-06	318.03	87.558	69.928	20.514	6.0677e-06	27.796	0.0013331	0.0027697	0.00078385	1256.2	2.5869e-05	3.2133e-05	1341.5	260.52	2.6687e-05	3.1687e-05	320.54	88.417	70.867	21.159	2.732e-05	28.584	277.992	257.772	510.481	174.524	299.192	338.706	174.522	181.763	334.648	284.308	181.757	188.501	188.980	195.128	308.126	194.529	-8191	255	
29961.383	1	1	0	0	0.17741	0.31834	0.17883	0.30706	0.1871	0.22358	0.33935	0.23495	0.27238	0.18251	0.071474	0.20557	0.23731	0.13294	0.19105	0.058999	-2.1229	-3.1292	-3.05	-2.7812	-3.175	-2.9125	-3.125	-3.5979	-2.5396	-3.0792	-3.3104	-2.5375	-3.5583	-2.7792	-2.7917	-3.4938	458.487	350.563	464.938	480.234	478.427	481.034	456.610	506.529	423.344	415.016	403.865	191.935	264.214	419.934	405.507	384.036	0.00029273	0.00044152	0.00017584	1268.3	3.6715e-06	5.1563e-06	1354.4	260.63	3.718e-06	3.7278e-06	319.27	87.398	69.837	20.621	2.1848e-06	27.842	0.0013309	0.0027204	0.00078589	1257.5	2.5747e-05	3.0604e-05	1340.8	260.79	2.5949e-05	3.065e-05	320.94	88.517	70.89	21.269	2.6922e-05	28.714	276.470	248.461	233.240	174.349	314.249	256.471	174.505	181.483	325.755	347.945	181.625	188.191	188.832	194.640	337.482	194.543	-8191	255	
29961.479	1	1	0	0	0.19873	0.085268	0.30534	0.43776	0.36667	0.062201	0.25473	0.16178	0.10812	0.23565	0.24451	0.17506	0.1684	0.22079	0.13859	0.20059	-2.2271	-3.0646	-3.2021	-2.5875	-3.2417	-2.7313	-2.95	-3.4938	-2.6958	-3.1188	-3.3563	-2.6708	-3.2792	-2.9354	-2.6542	-3.525	397.989	339.899	481.976	481.235	512.230	476.953	466.701	365.091	437.166	471.607	376.639	414.147	168.845	192.639	485.142	430.186	0.00032859	0.00031835	5.1891e-05	1272.6	2.5845e-06	4.8899e-06	1353.7	260.51	2.7103e-06	2.881e-06	318.35	88.017	70.042	20.623	3.9653e-06	28.06	0.0013047	0.0026682	0.00074858	1260.4	2.5097e-05	3.055e-05	1342.5	260.73	2.5667e-05	2.966e-05	320.6	88.743	71.066	21.267	2.6321e-05	28.78	277.066	254.568	313.146	174.411	338.704	334.113	174.489	181.844	320.497	271.711	181.634	188.445	188.898	195.151	355.214	194.518	-8191	255	
29961.574	1	1	0	0	0.10861	0.054348	0.15225	0.21709	0.21562	0.12938	0.19344	0.10502	0.12217	0.097898	0.046043	0.30579	0.21017	0.10787	0.25606	0.21167	-2.35	-2.9646	-3.1979	-2.575	-3.1229	-2.9854	-2.65	-3.5125	-2.8271	-2.8083	-3.3458	-2.3458	-3.3812	-3.1625	-2.6146	-3.4125	502.031	190.697	449.371	504.386	264.068	186.169	417.407	306.945	431.602	245.286	186.753	387.152	176.541	328.043	466.206	266.639	0.00030892	0.00015656	0.00014694	1270.4	4.5223e-06	4.1808e-07	1355.2	261.61	4.4708e-06	4.9314e-06	320.03	87.297	69.841	20.49	3.6317e-06	27.824	0.0012665	0.0026915	0.00072936	1258.9	2.5008e-05	2.9946e-05	1340.7	261.15	2.5818e-05	2.9403e-05	321.02	88.382	70.85	21.192	2.6082e-05	28.681	279.992	248.608	244.074	174.579	298.491	380.633	174.587	182.200	322.846	319.552	181.823	188.486	188.715	194.672	324.709	194.967	-8191	255	
29961.695	1	1	0	0	0.35459	0.13762	0.23348	0.32922	0.045348	0.065545	0.16168	0.21347	0.062819	0.12594	0.17354	0.13207	0.21571	0.3605	0.032301	0.25747	-2.3604	-2.7604	-3.3187	-2.7417	-2.9583	-3.0979	-2.7854	-3.425	-2.8542	-2.825	-3.3875	-2.5646	-2.8229	-3.2104	-2.6792	-3.3812	311.828	497.496	339.137	487.815	457.470	279.491	446.416	334.163	393.278	343.271	283.002	217.887	234.277	447.032	163.659	400.140	0.0003348	0.00022873	0.0001243	1277	3.4769e-06	1.3849e-06	1360.6	260.27	2.5981e-06	4.5385e-06	321.63	87.75	70.243	20.658	4.1653e-06	28.113	0.0012511	0.0025919	0.00070652	1260.7	2.4468e-05	2.864e-05	1340	260.79	2.3909e-05	2.8645e-05	322.3	88.619	71.049	21.262	2.485e-05	28.771	272.298	270.226	258.839	174.371	270.718	255.926	174.178	181.640	295.551	313.779	181.489	187.901	188.800	194.788	324.470	194.427	-8191	255	
29961.789	1	1	0	0	0.21216	0.18489	0.2544	0.27602	0.34459	0.074004	0.053801	0.22686	0.1059	0.21032	0.16892	0.075191	0.10643	0.25903	0.17158	0.28385	-2.4688	-2.6688	-3.3021	-2.7875	-3.0792	-3.1771	-2.6875	-3.4458	-2.7875	-2.6083	-3.475	-2.8438	-3.0292	-3.4333	-2.3458	-3.1396	488.459	478.115	449.658	516.197	198.130	448.941	519.454	199.177	427.362	188.521	441.357	425.003	491.382	425.609	309.350	319.685	0.00033634	0.00035156	0.00010222	1268.2	5.7038e-06	2.3654e-06	1352.6	260.83	4.4013e-06	5.0704e-06	320.17	86.595	70.215	20.637	2.1364e-06	27.864	0.0012349	0.002479	0.00069663	1257.2	2.3771e-05	2.8344e-05	1340.3	260.88	2.3403e-05	2.7688e-05	321.02	88.236	70.989	21.203	2.4499e-05	28.652	283.090	235.548	245.692	174.204	291.555	336.501	174.335	181.655	320.539	323.638	181.379	187.717	188.509	194.625	310.304	194.741	-8191	255	
29961.885	1	1	0	0	0.19628	0.19095	0.09225	0.17811	0.089856	0.083603	0.32419	0.18346	0.086629	0.13084	0.03587	0.1134	0.36068	0.27372	0.24929	0.17356	-2.5875	-2.6646	-3.2521	-2.9333	-2.9708	-3.3042	-2.7062	-3.3292	-3.05	-2.4792	-3.5417	-2.875	-2.7458	-3.3792	-2.5625	-3.2396	472.216	169.795	273.979	508.695	311.950	411.777	388.450	382.940	183.327	355.202	422.350	170.107	322.834	413.811	510.649	200.854	0.00030386	0.00031702	0.00015933	1276.3	4.4454e-06	4.7256e-06	1355.7	260.41	3.0955e-06	5.1917e-06	321.47	87.615	70.543	20.626	9.0372e-07	27.791	0.0011719	0.0023893	0.00067805	1259.7	2.2607e-05	2.6762e-05	1341.2	260.65	2.2293e-05	2.645e-05	321.49	88.449	71.017	21.175	2.3576e-05	28.655	276.786	251.211	284.643	174.460	305.669	297.185	174.479	181.621	355.817	345.927	181.278	187.892	188.721	194.837	432.606	194.319	-8191	255	
29961.980	1	1	0	0	0.31877	0.077333	0.18248	0.27562	0.13794	0.15982	0.22228	0.19702	0.10668	0.15219	0.26461	0.41976	0.099875	0.08873	0.15461	0.37346	-2.925	-2.4896	-3.325	-2.9208	-2.65	-3.3896	-2.7188	-3.075	-3.1958	-2.5687	-3.4771	-2.8396	-2.7271	-3.4479	-2.7375	-3.0771	512.634	263.612	516.825	488.617	385.652	519.139	490.258	399.868	326.412	368.843	197.564	209.405	302.120	457.859	479.852	195.230	0.00030717	0.00046499	0.00011576	1272.7	4.0214e-06	3.352e-06	1352.7	262.35	7.0912e-06	2.9265e-06	321.47	87.467	70.31	20.507	1.9677e-06	27.974	0.0011051	0.0022678	0.00063764	1258	2.2273e-05	2.5411e-05	1338.5	260.82	2.1439e-05	2.5731e-05	321.15	88.201	70.806	21.153	2.2707e-05	28.716	277.673	254.542	239.399	174.386	351.625	254.934	174.417	182.190	326.382	282.776	181.567	187.933	188.222	194.975	334.631	194.960	-8191	255	
29962.076	1	1	0	0	0.18683	0.15241	0.14273	0.1364	0.37843	0.21933	0.063183	0.17065	0.14142	0.037878	0.29758	0.091858	0.083509	0.2615	0.34859	0.29475	-2.9062	-2.4833	-3.1917	-3.2625	-2.675	-3.4813	-2.9667	-2.9417	-3.2646	-2.4688	-3.3146	-3.0208	-2.6375	-3.4021	-2.5771	-2.7917	316.090	200.006	371.309	280.504	418.744	196.799	386.317	450.850	368.057	393.067	451.404	520.646	199.740	468.699	298.072	496.507	0.00032395	0.00040368	0.00013606	1268.7	4.3221e-06	2.0699e-06	1351.6	262.53	3.5174e-06	3.2429e-06	319.86	87.759	70.213	20.495	4.7711e-06	27.841	0.0011118	0.0021867	0.00061022	1256.5	2.1516e-05	2.4967e-05	1338.9	260.89	2.0729e-05	2.4207e-05	321.02	88.449	70.744	21.195	2.1852e-05	28.682	277.549	235.638	260.679	174.612	329.786	280.518	174.312	182.052	311.805	344.395	181.373	187.899	188.548	194.738	330.021	194.601	-8191	255	
#DATA ENDS
