BOXY.EXE: ISS Imagent and Oximeter Data Acquisition Program Version 0.80
Ascii Record File

#ACQ INFORMATION
2  Detector Channels 
16  External MUX Channels 
1  Auxiliary Channels 
5000  Waveform (CCF) Frequency (Hz)
1  Waveforms Skipped 
30  Waveforms Averaged 
1  Cycles Averaged 
16  Acquisitions per Waveform 
10.0806  Updata Rate (Hz) 

#FILE INFORMATION
TRUE -- External MUX Channel results are PARSED.
FALSE -- AC DC and Phase are NOT grouped.
TRUE -- Companion Program Settings File CREATED.
FALSE -- AC data not excluded
FALSE -- DC data not excluded
FALSE -- Phase data not excluded
FALSE -- Auxillary Chn. data not excluded
Tab delimiters

#CALIBRATION STATE
TRUE -- Waveform Calibration Values APPLIED.


#AUX CALIBRATION VALUES
Val Type	aux-1	

Term	1.0000e+00	
Factor	0.0000e+00	


#WF CALIBRATION VALUES
A = Detector Channel
Val Type	A-AC1	A-AC2	A-AC3	A-AC4	A-AC5	A-AC6	A-AC7	A-AC8	A-AC9	A-AC10	A-AC11	A-AC12	A-AC13	A-AC14	A-AC15	A-AC16	A-DC1	A-DC2	A-DC3	A-DC4	A-DC5	A-DC6	A-DC7	A-DC8	A-DC9	A-DC10	A-DC11	A-DC12	A-DC13	A-DC14	A-DC15	A-DC16	A-Ph1	A-Ph2	A-Ph3	A-Ph4	A-Ph5	A-Ph6	A-Ph7	A-Ph8	A-Ph9	A-Ph10	A-Ph11	A-Ph12	A-Ph13	A-Ph14	A-Ph15	A-Ph16	

Term	0.00000e+00	0.00000e+00	0.00000e+00	0.00000e+00	0.00000e+00	0.00000e+00	0.00000e+00	0.00000e+00	0.00000e+00	0.00000e+00	0.00000e+00	0.00000e+00	0.00000e+00	0.00000e+00	0.00000e+00	0.00000e+00	0.00000e+00	0.00000e+00	0.00000e+00	0.00000e+00	0.00000e+00	0.00000e+00	0.00000e+00	0.00000e+00	0.00000e+00	0.00000e+00	0.00000e+00	0.00000e+00	0.00000e+00	0.00000e+00	0.00000e+00	0.00000e+00	0.00000e+00	0.00000e+00	0.00000e+00	0.00000e+00	0.00000e+00	0.00000e+00	0.00000e+00	0.00000e+00	0.00000e+00	0.00000e+00	0.00000e+00	0.00000e+00	0.00000e+00	0.00000e+00	0.00000e+00	0.00000e+00	
Factor	1.00000e+00	1.00000e+00	1.00000e+00	1.00000e+00	1.00000e+00	1.00000e+00	1.00000e+00	1.00000e+00	1.00000e+00	1.00000e+00	1.00000e+00	1.00000e+00	1.00000e+00	1.00000e+00	1.00000e+00	1.00000e+00	1.00000e+00	1.00000e+00	1.00000e+00	1.00000e+00	1.00000e+00	1.00000e+00	1.00000e+00	1.00000e+00	1.00000e+00	1.00000e+00	1.00000e+00	1.00000e+00	1.00000e+00	1.00000e+00	1.00000e+00	1.00000e+00	X	X	X	X	X	X	X	X	X	X	X	X	X	X	X	X	

B = Detector Channel
Val Type	B-AC1	B-AC2	B-AC3	B-AC4	B-AC5	B-AC6	B-AC7	B-AC8	B-AC9	B-AC10	B-AC11	B-AC12	B-AC13	B-AC14	B-AC15	B-AC16	B-DC1	B-DC2	B-DC3	B-DC4	B-DC5	B-DC6	B-DC7	B-DC8	B-DC9	B-DC10	B-DC11	B-DC12	B-DC13	B-DC14	B-DC15	B-DC16	B-Ph1	B-Ph2	B-Ph3	B-Ph4	B-Ph5	B-Ph6	B-Ph7	B-Ph8	B-Ph9	B-Ph10	B-Ph11	B-Ph12	B-Ph13	B-Ph14	B-Ph15	B-Ph16	

Term	0.00000e+00	0.00000e+00	0.00000e+00	0.00000e+00	0.00000e+00	0.00000e+00	0.00000e+00	0.00000e+00	0.00000e+00	0.00000e+00	0.00000e+00	0.00000e+00	0.00000e+00	0.00000e+00	0.00000e+00	0.00000e+00	0.00000e+00	0.00000e+00	0.00000e+00	0.00000e+00	0.00000e+00	0.00000e+00	0.00000e+00	0.00000e+00	0.00000e+00	0.00000e+00	0.00000e+00	0.00000e+00	0.00000e+00	0.00000e+00	0.00000e+00	0.00000e+00	-2.84052e+01	-1.28238e+02	-1.23055e+02	-1.81347e+02	-4.90151e+01	-6.44906e+01	-1.58583e+02	-1.62015e+02	-3.30316e+01	-6.71694e+01	-1.70474e+02	-1.69975e+02	-1.81443e+02	-1.76799e+02	-5.34590e+01	-1.49645e+02	
Factor	2.60320e-05	1.63302e-04	4.34181e-05	1.49363e-01	1.92631e-06	1.64092e-06	1.64229e-01	5.54761e-02	1.53204e-06	1.58752e-06	8.65546e-02	3.10973e-02	2.68888e-02	9.37520e-03	1.83265e-06	1.32400e-02	1.49363e-05	2.69560e-05	7.46987e-06	7.68193e-02	2.59114e-07	3.03878e-07	7.93361e-02	2.86037e-02	2.60344e-07	3.00301e-07	4.33358e-02	1.55925e-02	1.39820e-02	4.88742e-03	2.77576e-07	6.67928e-03	X	X	X	X	X	X	X	X	X	X	X	X	X	X	X	X	



#DISTANCE SETTINGS
A = Detector Channel
A-1	A-2	A-3	A-4	A-5	A-6	A-7	A-8	A-9	A-10	A-11	A-12	A-13	A-14	A-15	A-16	

2.5000e+00	3.0000e+00	2.5000e+00	3.0000e+00	2.0000e+00	3.0000e+00	1.5000e+00	3.0000e+00	3.0000e+00	3.0000e+00	3.0000e+00	3.0000e+00	3.0000e+00	3.0000e+00	1.5000e+00	3.0000e+00	

B = Detector Channel
B-1	B-2	B-3	B-4	B-5	B-6	B-7	B-8	B-9	B-10	B-11	B-12	B-13	B-14	B-15	B-16	

1.0000e+01	1.0000e+01	1.0000e+01	1.4400e+00	1.0000e+01	1.0000e+01	1.5100e+00	1.9400e+00	1.0000e+01	1.0000e+01	1.9900e+00	2.4900e+00	2.4100e+00	2.9000e+00	1.0000e+01	2.9800e+00	




#DATA BEGINS
time	group	step	mark	flag	A-AC1	A-AC2	A-AC3	A-AC4	A-AC5	A-AC6	A-AC7	A-AC8	A-AC9	A-AC10	A-AC11	A-AC12	A-AC13	A-AC14	A-AC15	A-AC16	A-DC1	A-DC2	A-DC3	A-DC4	A-DC5	A-DC6	A-DC7	A-DC8	A-DC9	A-DC10	A-DC11	A-DC12	A-DC13	A-DC14	A-DC15	A-DC16	A-Ph1	A-Ph2	A-Ph3	A-Ph4	A-Ph5	A-Ph6	A-Ph7	A-Ph8	A-Ph9	A-Ph10	A-Ph11	A-Ph12	A-Ph13	A-Ph14	A-Ph15	A-Ph16	B-AC1	B-AC2	B-AC3	B-AC4	B-AC5	B-AC6	B-AC7	B-AC8	B-AC9	B-AC10	B-AC11	B-AC12	B-AC13	B-AC14	B-AC15	B-AC16	B-DC1	B-DC2	B-DC3	B-DC4	B-DC5	B-DC6	B-DC7	B-DC8	B-DC9	B-DC10	B-DC11	B-DC12	B-DC13	B-DC14	B-DC15	B-DC16	B-Ph1	B-Ph2	B-Ph3	B-Ph4	B-Ph5	B-Ph6	B-Ph7	B-Ph8	B-Ph9	B-Ph10	B-Ph11	B-Ph12	B-Ph13	B-Ph14	B-Ph15	B-Ph16	aux-1	digaux	

38459.301	1	1	0	256	0.094689	0.19546	0.37119	0.18578	0.21946	0.075364	0.017471	0.16427	0.16064	0.27073	0.15545	0.34468	0.039104	0.31642	0.21852	0.23373	-2.375	-2.9979	-2.2875	-3.2333	-2.9458	-2.1396	-3.3958	-2.6896	-2.4938	-3.2104	-2.3458	-3.0646	-3.0104	-2.2854	-3.1125	-2.7021	270.046	299.176	135.622	31.460	-30.885	74.161	175.496	195.513	194.218	259.558	219.931	87.901	162.293	289.788	298.063	-15.267	0.0002582	0.00047952	0.00013021	1317.2	3.8354e-06	5.3563e-06	1328.8	351.11	2.6385e-06	4.4359e-06	404.08	134.52	116.78	40.641	3.3007e-06	50.96	0.00043063	0.00044152	0.00012851	1337.2	4.7909e-06	4.9038e-06	1340.6	356.88	4.9107e-06	4.5627e-06	410.83	137.97	119.36	41.838	4.7622e-06	52.105	240.787	56.846	46.070	-24.600	138.514	113.326	-24.903	-20.102	181.516	110.904	-20.719	-15.626	-15.566	-11.228	139.350	-11.886	-8191	255	
38459.398	1	1	0	0	0.12309	0.10622	0.23286	0.15013	0.11789	0.17391	0.14877	0.1147	0.017832	0.11888	0.32546	0.017197	0.075842	0.34924	0.15091	0.1613	-2.3521	-3.1271	-2.2562	-3	-2.9375	-2.1271	-3.2604	-2.7146	-2.4208	-3.3375	-2.4375	-2.8583	-3.1167	-2.4979	-3.0042	-2.7625	79.394	140.426	203.683	291.440	111.695	114.118	246.754	207.620	48.644	243.213	321.975	204.596	-25.351	293.386	166.815	161.837	0.00026401	0.00029322	0.00014753	1320.8	5.7071e-06	5.1129e-06	1327.9	349.64	4.2047e-06	3.8211e-06	404.51	134.21	116.84	40.863	3.9492e-06	50.923	0.00042444	0.00042158	0.00012293	1338.1	4.9102e-06	4.976e-06	1341.8	356.5	4.8695e-06	4.41e-06	410.58	137.79	119.34	41.901	4.7494e-06	52.05	244.386	47.291	60.966	-24.739	143.330	107.979	-24.814	-19.965	152.070	125.554	-20.536	-15.637	-15.352	-10.971	143.465	-11.927	-8191	255	
38459.492	1	1	0	0	0.22337	0.24607	0.10071	0.42122	0.2246	0.2976	0.17699	0.27435	0.21944	0.18473	0.11265	0.10301	0.043266	0.1798	0.26219	0.1111	-2.1208	-3	-2.4021	-2.8958	-3.1479	-2.3083	-3.3542	-2.8917	-2.4125	-3.2958	-2.5021	-2.8	-3.1875	-2.35	-3.0479	-3.0917	122.141	72.830	234.104	236.833	77.558	254.857	255.213	205.822	207.009	299.160	222.845	293.128	294.464	27.743	153.575	275.354	0.00025316	0.00057788	0.00014103	1320.7	4.7496e-06	5.235e-06	1322	350.5	2.6002e-06	4.2313e-06	404.54	134.76	116.71	40.892	4.7122e-06	50.743	0.00043648	0.00042411	0.00011963	1337.9	4.6279e-06	4.9102e-06	1339.1	357.19	4.9682e-06	4.4551e-06	410.8	137.86	119.34	41.924	4.8524e-06	51.984	237.358	48.448	48.070	-24.606	155.915	105.523	-24.510	-19.688	161.366	120.180	-20.601	-15.796	-15.396	-10.927	130.433	-11.742	-8191	255	
38459.590	1	1	0	0	0.14125	0.19098	0.18829	0.42324	0.13714	0.091475	0.25666	0.33713	0.1154	0.12661	0.31588	0.21537	0.14765	0.22866	0.10634	0.31484	-1.9979	-3.375	-2.4625	-2.8812	-3.1396	-2.4208	-3.1854	-3.0354	-2.4813	-3.3583	-2.7417	-2.4521	-3.3021	-2.2396	-2.9	-2.9854	287.211	115.277	-28.904	318.541	-8.709	88.088	306.757	-4.176	83.233	121.070	296.242	251.052	275.892	94.781	62.876	292.793	0.00028553	0.00046647	0.00016135	1317.8	5.4857e-06	4.9378e-06	1324.9	350.8	3.7414e-06	5.001e-06	403.89	134.42	116.69	40.769	4.7475e-06	50.986	0.00042805	0.00043978	0.00011988	1335.9	4.6802e-06	4.8019e-06	1340.3	356.9	4.8695e-06	4.6034e-06	410.48	137.62	119.14	41.832	5.0559e-06	52.021	240.309	65.961	51.878	-24.569	146.530	121.489	-24.586	-19.681	168.359	93.609	-20.472	-15.581	-14.847	-10.897	130.204	-11.705	-8191	255	
38459.711	1	1	0	0	0.17166	0.24621	0.19131	0.45455	0.13688	0.13502	0.091944	0.26385	0.17573	0.19656	0.036256	0.25563	0.1798	0.1482	0.19276	0.37432	-1.8208	-3.0771	-2.6458	-2.6312	-3.2458	-2.4417	-3.0854	-3.1083	-2.2833	-3.1958	-2.875	-2.4292	-3.2229	-2.3187	-2.6854	-3.1875	296.695	-29.221	-15.848	317.912	215.572	306.032	-11.127	-26.297	163.776	307.262	296.234	251.862	288.928	8.198	205.103	314.479	0.00024812	0.00049914	0.00011539	1317.6	4.607e-06	5.027e-06	1328.4	350.49	3.2584e-06	4.7775e-06	403.1	134.93	116.4	40.721	5.1725e-06	50.816	0.00043322	0.00043124	0.00012042	1336.4	4.7726e-06	4.8108e-06	1340.5	356.96	4.7258e-06	4.6365e-06	409.87	138.09	119.27	41.817	4.6824e-06	52.08	241.684	45.243	61.412	-24.575	132.323	131.928	-24.524	-19.670	167.063	114.781	-20.449	-15.737	-15.092	-11.115	129.581	-11.398	-8191	255	
38459.781	1	1	0	0	0.35165	0.1905	0.087666	0.1762	0.13486	0.14625	0.24934	0.081064	0.18121	0.15295	0.18682	0.16418	0.17796	0.12674	0.13728	0.10327	-1.8375	-3.0146	-2.7708	-2.4104	-3.1063	-2.2958	-2.8958	-3.3083	-2.475	-3.0646	-3	-2.5375	-3.2875	-2.7979	-2.6188	-3.1937	235.962	212.627	63.019	301.351	292.383	248.179	268.821	270.791	126.251	-11.510	-32.686	199.007	206.047	28.015	296.424	-14.121	0.00025362	0.00044735	0.00018326	1318.8	4.974e-06	3.0979e-06	1325.1	351.31	2.8679e-06	5.5907e-06	403.96	135.07	116.59	40.897	4.4135e-06	50.805	0.00042317	0.00042197	0.00012171	1336.1	4.7375e-06	4.6626e-06	1339	357.24	4.7638e-06	4.6534e-06	410.22	137.8	119.26	41.865	4.9808e-06	52.025	238.680	44.173	74.505	-24.490	150.413	102.007	-24.702	-19.691	164.631	105.488	-20.351	-15.366	-14.961	-11.024	123.379	-11.578	-8191	255	
38459.879	1	1	0	0	0.16303	0.12152	0.13334	0.1039	0.29955	0.12005	0.19862	0.1354	0.15401	0.20942	0.19708	0.30602	0.16999	0.16547	0.11246	0.01705	-1.95	-2.9104	-2.8375	-2.4938	-2.8917	-2.4875	-2.7604	-3.2875	-2.2583	-3.0375	-3.0333	-2.3042	-3.2438	-2.7438	-2.5833	-3.325	195.873	193.374	253.740	308.150	220.688	249.826	258.560	320.714	229.581	298.151	0.764	272.789	177.824	208.466	217.575	214.255	0.00027104	0.00055239	0.00013873	1317.3	5.4403e-06	4.739e-06	1325.3	350.27	3.4387e-06	4.8886e-06	404.37	134.66	116.11	40.729	5.0501e-06	50.806	0.00044996	0.00042675	0.00012065	1335	4.8757e-06	4.6854e-06	1341.1	356.87	4.8392e-06	4.5902e-06	411.11	137.67	119.02	41.823	4.9906e-06	51.995	240.513	57.578	51.729	-24.642	136.091	118.677	-24.591	-19.709	163.278	111.884	-20.672	-15.715	-15.253	-10.997	145.703	-11.775	-8191	255	
38459.977	1	1	0	0	0.087881	0.28249	0.27639	0.020447	0.018595	0.28799	0.25859	0.26395	0.085351	0.18491	0.12183	0.30744	0.045528	0.099895	0.19249	0.12531	-2.0417	-2.6583	-2.8375	-2.5146	-2.8937	-2.6417	-2.4583	-3.2729	-2.4437	-2.9417	-3.2458	-2.3792	-3.1458	-2.9604	-2.4667	-3.2	232.308	181.711	263.172	181.807	57.239	53.284	263.540	-18.039	220.781	-16.629	140.278	265.105	25.966	75.896	174.633	-3.461	0.00024503	0.00055944	0.00011965	1320.9	6.0745e-06	4.5587e-06	1326.5	350.42	4.4457e-06	3.2102e-06	403.97	134.82	116.97	40.682	5.6145e-06	51.018	0.00042693	0.00042821	0.00011661	1336.3	4.8319e-06	4.7107e-06	1339.4	357.2	4.9167e-06	4.7022e-06	411	137.82	119.35	41.822	4.8119e-06	52.099	241.032	43.515	63.277	-24.693	139.644	122.292	-24.725	-19.797	152.234	112.966	-20.537	-15.744	-15.204	-11.160	147.377	-11.937	-8191	255	
38460.094	1	1	0	0	0.10994	0.10335	0.11863	0.067114	0.22687	0.1438	0.208	0.1714	0.066104	0.2782	0.15406	0.22576	0.18949	0.13379	0.16828	0.21926	-2.1292	-2.7375	-3.0958	-2.5333	-2.9792	-2.8229	-2.5646	-3.3271	-2.4604	-2.7396	-3.1854	-2.5854	-3.1188	-3.0833	-2.3438	-3.2792	-35.490	273.012	-37.727	206.174	264.960	-12.752	223.281	294.223	128.159	14.703	271.660	50.889	-11.561	306.543	251.073	177.673	0.0002654	0.00047067	0.00013698	1316.9	5.2882e-06	3.6678e-06	1324.3	350.16	3.4902e-06	3.6657e-06	404.91	134.93	116.78	40.607	5.9006e-06	50.909	0.00042236	0.000419	0.00011171	1334.9	4.8719e-06	4.7031e-06	1338.5	356.75	4.9211e-06	4.838e-06	410.87	137.68	119.41	41.723	4.9108e-06	52.052	244.760	47.965	52.477	-24.726	156.966	117.001	-24.705	-19.984	164.957	107.368	-20.434	-15.375	-15.359	-11.012	134.797	-12.145	-8191	255	
38460.191	1	1	0	0	0.18676	0.25558	0.043196	0.28737	0.27749	0.14497	0.20998	0.082108	0.09761	0.16255	0.17719	0.30543	0.12229	0.15985	0.033366	0.22547	-2.2708	-2.4542	-3.1854	-2.6417	-3.0771	-2.9167	-2.3354	-3.3187	-2.4458	-2.425	-3.1833	-2.3875	-2.8937	-2.9521	-2.3208	-3.1833	110.094	-28.864	154.248	305.545	79.605	-24.825	292.699	235.323	92.423	241.654	201.723	290.420	236.004	1.759	84.407	313.765	0.00024529	0.00058179	0.00010262	1318.2	5.3416e-06	4.3166e-06	1325.3	349.91	4.2448e-06	4.6093e-06	402.96	135.06	116.82	40.628	6.1397e-06	50.811	0.000417	0.00043871	0.00011639	1334.9	4.8659e-06	4.7709e-06	1339.1	356.56	4.6542e-06	4.8918e-06	410.49	137.85	119.34	41.805	4.9854e-06	52.026	242.832	69.410	54.702	-24.698	142.521	107.692	-24.851	-19.838	165.426	114.106	-20.429	-15.845	-15.087	-11.017	149.035	-11.805	-8191	255	
38460.285	1	1	0	0	0.13629	0.16621	0.18174	0.21991	0.13105	0.18961	0.22941	0.23365	0.12194	0.13697	0.14447	0.065385	0.37195	0.11972	0.17449	0.18006	-2.3271	-2.3563	-3.1063	-2.4021	-2.5333	-3.1437	-2.5875	-3.1208	-2.6792	-2.3688	-3.375	-2.4437	-2.8229	-2.9458	-2.3417	-3.2167	47.499	-28.485	318.774	237.270	130.508	11.550	281.710	-34.834	-5.530	113.045	110.397	234.635	270.429	-22.389	29.949	294.889	0.00025388	0.00044574	0.00012147	1317.2	4.9121e-06	4.2372e-06	1326	350.42	4.349e-06	4.6741e-06	405.02	134.69	117.15	40.707	6.1354e-06	50.934	0.00042298	0.00043242	0.00011172	1334.2	4.8271e-06	4.6101e-06	1338.4	356.85	4.9319e-06	4.721e-06	411	137.71	119.55	41.826	4.9033e-06	52.024	244.412	66.702	50.187	-24.759	144.485	105.844	-24.665	-19.725	153.957	118.376	-20.834	-15.580	-15.215	-11.091	129.307	-12.064	-8191	255	
38460.383	1	1	0	0	0.16858	0.068253	0.13839	0.14324	0.016121	0.1365	0.083992	0.20371	0.26771	0.15405	0.13921	0.017639	0.11256	0.13278	0.16984	0.28755	-2.5083	-2.3521	-3.1437	-2.7292	-2.7146	-3.075	-2.5667	-2.9354	-2.8583	-2.4208	-3.5229	-2.6063	-2.6021	-3.1813	-2.2562	-3.0042	177.242	115.196	28.954	282.116	-6.308	313.577	244.747	263.596	85.656	155.500	179.885	284.411	14.206	-9.024	158.241	249.963	0.00025897	0.00045837	9.0496e-05	1316.1	3.4336e-06	4.7916e-06	1320.8	350.08	3.6143e-06	3.9542e-06	403.16	134.12	116.1	40.689	5.248e-06	50.848	0.00041181	0.00045129	0.00011415	1334	4.9437e-06	4.6455e-06	1336.5	356.47	4.7589e-06	4.8223e-06	410.11	137.54	119.15	41.756	4.8697e-06	51.987	241.854	57.429	62.616	-24.749	136.496	111.548	-24.747	-19.672	160.991	120.933	-21.020	-15.662	-15.049	-10.800	146.103	-11.671	-8191	255	
38460.477	1	1	0	0	0.18015	0.26996	0.023391	0.2648	0.081275	0.25208	0.22507	0.33437	0.097839	0.079922	0.31465	0.12534	0.2599	0.14762	0.20601	0.24206	-2.4771	-2.4021	-3.0021	-2.85	-2.65	-3.1562	-2.6896	-3.0938	-2.9917	-2.2417	-3.3458	-2.8312	-2.4521	-3.2333	-2.4688	-2.7313	96.874	134.671	213.290	227.870	90.689	94.739	257.765	301.840	96.204	238.360	302.943	-29.282	315.016	303.506	-8.156	-10.892	0.00025415	0.00068396	0.00014374	1314.4	3.7872e-06	5.2305e-06	1321.7	350.83	3.6878e-06	5.3462e-06	403.63	134.26	115.93	40.648	5.1553e-06	50.897	0.00042425	0.00044921	0.00011754	1333.3	4.8865e-06	4.6721e-06	1337.2	356.79	4.9341e-06	4.8887e-06	411.28	137.49	119.19	41.784	4.9085e-06	52.117	233.604	56.380	40.286	-24.744	133.912	131.391	-24.773	-19.787	167.342	127.635	-20.652	-15.656	-15.318	-10.912	115.875	-11.902	-8191	255	
38460.574	1	1	0	0	0.1951	0.20991	0.25824	0.36898	0.011462	0.12282	0.24403	0.1639	0.14626	0.10846	0.17466	0.034203	0.2089	0.14948	0.15484	0.23803	-2.675	-2.1417	-3.0687	-2.9042	-2.4667	-3.0333	-2.5771	-2.8854	-3.1562	-2.3146	-3.1479	-2.7833	-2.4667	-3.2958	-2.2708	-2.6646	120.707	-6.156	-12.853	249.045	235.151	96.867	201.482	290.150	6.973	291.755	237.882	98.638	27.350	189.921	218.275	314.591	0.00025942	0.0005242	0.00011178	1317.8	3.9778e-06	5.2569e-06	1323.9	350.76	4.3213e-06	4.1694e-06	403.69	134.15	116.72	40.753	3.3516e-06	50.995	0.00041694	0.00045488	0.000115	1333.5	4.8211e-06	4.5449e-06	1338.7	356.92	4.524e-06	4.6678e-06	410.64	137.55	119.21	41.864	4.7726e-06	52.083	240.533	44.477	55.314	-24.842	145.759	114.694	-24.822	-19.717	170.846	101.580	-20.706	-15.713	-15.203	-11.028	135.748	-11.941	-8191	255	
38460.695	1	1	0	0	0.26314	0.36772	0.023853	0.48354	0.22027	0.17512	0.20046	0.13348	0.028597	0.13022	0.12431	0.19923	0.26606	0.12015	0.15573	0.12314	-2.9042	-2.3167	-2.8875	-3.0479	-2.5375	-3.2771	-2.7833	-2.6458	-3.1375	-2.1917	-3.1083	-3	-2.3625	-3.2104	-2.7854	-2.6917	136.451	2.096	259.999	265.140	-9.586	8.891	287.008	224.748	-27.960	133.404	47.969	276.515	35.219	162.278	-34.019	186.083	0.00026049	0.00060875	0.00013567	1315.9	6.0941e-06	2.3485e-06	1322.2	350.34	4.2852e-06	5.7136e-06	404.16	134.57	116.1	40.545	3.9186e-06	50.406	0.0004204	0.00044652	0.0001153	1333.5	4.8589e-06	4.322e-06	1337.9	356.63	4.6455e-06	4.8661e-06	411.15	137.53	119.1	41.728	4.772e-06	51.919	234.920	51.929	56.693	-24.796	141.350	99.513	-24.748	-19.871	167.612	108.856	-20.661	-15.755	-15.151	-10.885	111.353	-11.737	-8191	255	
38460.789	1	1	0	0	0.18745	0.14957	0.10864	0.13562	0.28852	0.20044	0.22796	0.23615	0.15566	0.15505	0.052685	0.093313	0.14114	0.11725	0.035945	0.099907	-2.7958	-2.4458	-2.8146	-3.1958	-2.4083	-3.1958	-2.7167	-2.6292	-3.2833	-2.2958	-2.8396	-3.1813	-2.4667	-3.1708	-2.65	-2.5771	61.280	75.732	246.381	43.397	157.096	9.002	308.949	206.680	11.184	316.464	310.426	288.390	0.549	284.943	163.243	190.116	0.00025061	0.00055783	0.000127	1313.9	4.7458e-06	5.182e-06	1323.3	350.06	2.088e-06	5.4189e-06	404.68	134.57	116.52	40.677	4.1548e-06	50.859	0.00041445	0.00044786	0.00011832	1332.3	4.9215e-06	4.5949e-06	1337.5	356.61	4.5175e-06	4.766e-06	410.88	137.63	119.35	41.817	4.691e-06	51.977	237.645	45.316	71.677	-24.692	147.416	127.027	-24.861	-19.921	157.914	124.061	-20.562	-15.539	-15.095	-10.815	134.744	-11.534	-8191	255	
38460.887	1	1	0	0	0.2127	0.23003	0.25047	0.11895	0.13941	0.055037	0.40379	0.211	0.10072	0.09017	0.18474	0.26399	0.56082	0.068216	0.19087	0.16144	-2.8479	-2.5521	-2.7583	-3.3604	-2.2542	-3.1771	-3.0583	-2.5938	-3.2396	-2.4833	-2.6896	-2.9833	-2.3542	-2.9875	-2.8354	-2.5167	62.987	53.418	-20.321	-28.546	13.430	127.097	239.898	286.374	3.608	-30.495	31.475	297.541	204.479	-10.466	279.100	99.575	0.00027026	0.00045198	0.00012208	1312.8	5.0076e-06	4.5807e-06	1325.9	350.2	3.3518e-06	3.3792e-06	403.93	134.74	116.5	40.869	6.3476e-06	50.884	0.0004035	0.00044315	0.00012047	1332.1	5.0867e-06	4.7158e-06	1338.2	356.65	4.6504e-06	4.6559e-06	410.04	137.45	119.14	41.903	4.7697e-06	52.024	240.193	50.724	52.569	-24.839	154.163	118.355	-24.677	-19.796	174.733	114.151	-20.610	-15.324	-14.970	-11.111	138.175	-11.802	-8191	255	
38461.008	1	1	0	0	0.081453	0.032253	0.21773	0.15564	0.33879	0.19212	0.25908	0.37223	0.12731	0.14256	0.070745	0.28301	0.24528	0.15437	0.034725	0.07595	-2.7542	-2.5146	-2.6813	-3.3042	-2.3333	-3.0521	-3.2271	-2.5312	-3.1604	-2.7979	-2.5104	-3.1167	-2.525	-3.1229	-2.9729	-2.4167	182.391	223.081	248.982	62.458	69.027	181.059	303.492	32.643	-8.430	-20.226	176.404	115.082	315.794	311.525	81.103	48.147	0.00027018	0.0005374	0.00015079	1315.2	3.9077e-06	3.5417e-06	1323.7	350.55	3.3124e-06	5.8611e-06	404.17	134.64	116.11	40.559	4.2647e-06	50.815	0.00041013	0.00043848	0.00012187	1331.7	4.8713e-06	4.6664e-06	1337.5	356.36	4.6591e-06	4.5821e-06	410.2	137.71	118.83	41.688	4.6604e-06	51.937	240.225	51.033	63.005	-24.707	160.331	100.258	-24.749	-19.640	141.282	97.756	-20.543	-15.524	-15.143	-11.010	148.713	-11.770	-8191	255	
38461.078	1	1	0	0	0.18918	0.098248	0.097555	0.078383	0.44203	0.36404	0.29123	0.07682	0.1078	0.17279	0.1669	0.17149	0.33003	0.087886	0.13164	0.25956	-2.775	-2.6375	-2.575	-3.3333	-2.3458	-2.8604	-3.1333	-2.3604	-3.1104	-2.7833	-2.4167	-3.2417	-2.5521	-2.8208	-3.0958	-2.25	-36.774	186.616	280.962	309.872	114.883	127.511	245.538	207.509	220.827	-6.743	162.722	290.658	285.771	-14.690	268.670	209.040	0.00025163	0.00055297	0.00012799	1314.5	6.9099e-06	4.9505e-06	1320.1	350.36	2.2173e-06	3.6425e-06	403.45	134.05	116.86	40.739	4.0829e-06	50.766	0.00040845	0.00044635	0.00012086	1332.4	4.7331e-06	4.7753e-06	1334.8	356.05	4.5967e-06	4.599e-06	409.67	137.45	119.23	41.756	4.6413e-06	51.922	242.955	57.421	57.775	-24.689	134.585	110.925	-24.773	-19.821	156.215	108.057	-20.554	-15.705	-15.100	-10.910	117.977	-11.839	-8191	255	
38461.172	1	1	0	0	0.18378	0.071931	0.13691	0.22713	0.1619	0.28231	0.19953	0.28051	0.12725	0.22684	0.23155	0.38566	0.32418	0.2221	0.19968	0.129	-2.8542	-2.5771	-2.3708	-3.2625	-2.4125	-2.7604	-3.2938	-2.6021	-3.1708	-2.9146	-2.5833	-3.2208	-2.7083	-2.6396	-3.1104	-2.5875	-35.006	157.517	235.635	228.606	217.753	108.998	248.294	196.333	177.945	201.853	-31.615	289.911	295.496	-18.441	259.493	273.108	0.0002508	0.00046755	0.00014579	1314	4.1978e-06	4.6005e-06	1323.8	348.97	3.9418e-06	4.4603e-06	402.25	133.89	116.44	40.614	4.7409e-06	50.838	0.00041856	0.00043051	0.0001221	1332	4.8147e-06	4.7943e-06	1336	356.29	4.6998e-06	4.4069e-06	409.57	137.13	118.91	41.769	4.4985e-06	51.992	240.476	45.476	50.401	-24.617	157.413	118.582	-25.031	-19.866	152.249	99.486	-20.349	-15.451	-14.975	-10.706	120.966	-11.664	-8191	255	
38461.270	1	1	0	0	0.22227	0.062007	0.19198	0.073182	0.10273	0.39926	0.184	0.055477	0.092597	0.21569	0.17382	0.17483	0.31521	0.089182	0.032182	0.21256	-2.6604	-2.9333	-2.4313	-3.275	-2.5125	-2.6979	-3.4229	-2.5875	-3.025	-2.9604	-2.4021	-3.4333	-2.8563	-2.5125	-3.1958	-2.3875	226.180	85.306	-32.016	236.293	235.283	273.863	258.581	276.661	-6.449	5.510	-3.689	311.942	102.544	165.544	261.457	242.587	0.00023578	0.00057288	0.00011461	1313.4	5.3809e-06	4.7823e-06	1315.5	349.06	3.3906e-06	3.7767e-06	402.86	134.34	116.11	40.637	6.3494e-06	50.543	0.00041171	0.00042568	0.00011964	1330.3	4.8713e-06	4.85e-06	1331.9	355.2	4.5718e-06	4.5139e-06	409.58	137.28	118.87	41.751	4.6899e-06	51.826	237.073	46.506	55.677	-24.811	157.699	126.743	-24.544	-19.846	174.648	114.256	-20.586	-15.588	-15.165	-10.914	133.709	-11.890	-8191	255	
38461.391	1	1	0	0	0.061298	0.30616	0.18957	0.15005	0.033413	0.27636	0.1665	0.23471	0.34066	0.40128	0.27922	0.046257	0.073017	0.25023	0.20643	0.21515	-2.5062	-2.9792	-2.2812	-3.2208	-2.7333	-2.4813	-3.3458	-2.6729	-2.6229	-3.1021	-2.5042	-3.2021	-2.9375	-2.5104	-3.2146	-2.6854	67.289	52.205	74.723	44.253	69.838	-27.650	5.332	-33.241	222.877	282.836	239.750	105.401	274.829	-14.620	-24.241	269.499	0.00026866	0.00048785	0.00011706	1314.8	6.562e-06	4.3531e-06	1320.1	349.93	3.6119e-06	4.6939e-06	401.49	133.94	116.3	40.84	3.7264e-06	50.668	0.00041383	0.00042635	0.0001146	1330.7	4.7661e-06	4.8209e-06	1332.7	355.33	4.716e-06	4.5164e-06	408.78	137.09	118.84	41.725	4.4499e-06	51.831	240.926	47.182	63.614	-24.861	143.981	130.784	-24.672	-19.947	156.101	115.532	-20.541	-15.508	-15.084	-10.854	138.998	-11.946	-8191	255	
38461.484	1	1	0	0	0.12248	0.11307	0.11191	0.22979	0.22035	0.039737	0.27885	0.16478	0.19249	0.20631	0.21282	0.23379	0.038074	0.22178	0.098251	0.29324	-2.5438	-2.9896	-2.2292	-3.1604	-2.8812	-2.3604	-3.5104	-2.6292	-2.7229	-3.2875	-2.625	-3.0667	-2.9042	-2.4292	-3.225	-2.8187	192.812	61.280	113.007	-8.057	124.655	109.027	279.505	277.859	81.465	84.438	296.679	224.043	162.388	267.309	230.393	177.789	0.00026084	0.0003845	0.00015648	1311.1	4.6302e-06	5.3955e-06	1320	349.69	2.5537e-06	4.7404e-06	402.58	134.64	115.66	40.471	5.9267e-06	50.811	0.00041495	0.00039614	0.00011827	1328.3	4.6225e-06	4.9899e-06	1332.6	355.67	4.703e-06	4.4682e-06	408.56	137.25	118.58	41.642	4.5574e-06	51.89	239.042	68.524	48.586	-24.727	119.371	112.581	-24.519	-19.725	184.327	113.464	-20.397	-15.592	-15.286	-10.856	138.456	-11.800	-8191	255	
38461.582	1	1	0	0	0.050261	0.29608	0.1214	0.27696	0.11727	0.22729	0.18516	0.1701	0.085345	0.22536	0.23221	0.12515	0.16208	0.41484	0.18156	0.17874	-2.1542	-3.1188	-2.3583	-3.0229	-2.8375	-2.25	-3.3125	-2.6604	-2.5042	-3.2896	-2.5667	-2.8937	-3.0729	-2.3937	-3.0854	-2.9	-11.685	23.013	149.299	284.518	-20.927	317.951	-14.071	285.720	127.858	198.823	288.825	20.829	-36.295	310.465	18.026	230.124	0.00024908	0.00064798	0.00015201	1311.4	5.3356e-06	6.2095e-06	1319.7	348.21	3.0737e-06	4.537e-06	401.55	134.07	116.14	40.525	4.2633e-06	50.62	0.00042808	0.00041816	0.00011986	1329.1	4.6964e-06	4.6462e-06	1333.4	355.19	4.748e-06	4.3162e-06	408.69	137.17	118.96	41.665	4.4672e-06	51.824	236.467	49.564	64.603	-24.585	147.168	114.511	-24.815	-19.819	159.059	102.193	-20.714	-15.483	-15.138	-10.739	131.202	-11.854	-8191	255	
38461.652	1	1	0	0	0.19362	0.068802	0.14688	0.17819	0.2288	0.18688	0.19283	0.19641	0.19586	0.10208	0.040688	0.10973	0.21245	0.13678	0.17567	0.29336	-2.2479	-3.2708	-2.2604	-3.1542	-3.1667	-2.2458	-3.3563	-2.7833	-2.3875	-3.2542	-2.7458	-2.8292	-3.175	-2.3854	-2.825	-2.9313	111.714	-24.810	245.219	298.712	-37.035	51.995	283.175	-25.322	303.572	242.666	304.052	302.917	298.693	279.274	277.960	209.730	0.00025642	0.00052845	0.00014349	1315	3.975e-06	5.0777e-06	1321.3	348.94	2.9941e-06	4.9538e-06	403.41	134.07	115.63	40.576	4.6002e-06	50.746	0.00042183	0.00039917	0.00011561	1330.9	4.399e-06	4.5284e-06	1333.4	355.26	4.7258e-06	4.4933e-06	409.32	137.2	118.68	41.678	4.2377e-06	51.908	235.703	53.054	59.683	-24.746	145.030	117.739	-24.354	-19.711	171.768	115.516	-20.443	-15.465	-14.963	-10.766	145.765	-11.791	-8191	255	
38461.773	1	1	0	0	0.1883	0.17428	0.23497	0.2787	0.14639	0.13842	0.073271	0.19751	0.20326	0.2119	0.10965	0.084956	0.23697	0.25999	0.15355	0.087202	-2.0729	-3.2229	-2.4333	-2.8812	-3.1208	-2.3375	-3.1417	-3.0812	-2.1562	-3.4083	-2.6021	-2.7146	-3.1896	-2.3688	-2.875	-3.0729	231.561	-7.778	180.003	289.896	270.938	102.119	290.679	314.563	280.149	304.488	280.322	-11.823	-7.609	75.525	12.043	168.069	0.00025524	0.00053132	0.00011788	1314	5.7772e-06	4.3413e-06	1318.9	348.27	3.0711e-06	4.9199e-06	402.5	134.48	116.56	40.795	5.177e-06	50.875	0.00042205	0.00038272	0.00011524	1329.2	4.5302e-06	4.493e-06	1334.1	355.31	4.6428e-06	4.3669e-06	410.03	137.45	119.04	41.739	4.728e-06	51.894	244.158	51.361	67.260	-24.609	144.967	116.697	-24.408	-19.711	169.593	120.401	-20.174	-15.252	-15.170	-10.664	130.077	-11.740	-8191	255	
38461.871	1	1	0	0	0.15817	0.14739	0.20605	0.35323	0.15081	0.14289	0.13201	0.18396	0.053588	0.072382	0.084906	0.2329	0.064947	0.17056	0.19807	0.16296	-2	-3.2938	-2.8583	-2.7729	-3.2271	-2.4521	-3.0062	-3.1604	-2.2167	-3.1813	-2.8125	-2.5563	-3.5	-2.5729	-2.8417	-3.3417	190.882	251.351	-7.238	-26.631	224.474	7.970	304.912	273.323	320.950	135.647	114.252	7.374	317.842	239.192	295.037	263.357	0.00025551	0.0005901	0.00016128	1316.5	5.7761e-06	5.5723e-06	1322.1	349.17	2.8145e-06	3.7896e-06	401.91	134.55	116.64	40.89	5.7421e-06	50.79	0.00042096	0.00040715	0.000116	1331.4	4.5188e-06	4.5468e-06	1335.5	355.65	4.658e-06	4.3318e-06	408.86	137.45	119.27	41.836	4.6575e-06	51.944	236.836	50.720	70.782	-24.588	154.329	119.790	-24.451	-19.476	153.986	106.085	-20.478	-15.367	-15.050	-10.659	123.778	-11.801	-8191	255	
38461.965	1	1	0	0	0.12968	0.3259	0.22293	0.10276	0.22947	0.28037	0.077607	0.22084	0.15251	0.047079	0.30122	0.14479	0.066393	0.004247	0.03424	0.30064	-1.9062	-3.0625	-2.6729	-2.6021	-3.3458	-2.3833	-3.0438	-3.3896	-2.25	-3.0938	-2.95	-2.4729	-3.15	-2.6833	-2.7167	-3.2458	117.537	242.099	240.504	-19.162	114.685	20.675	190.211	217.718	15.807	57.402	267.837	59.124	286.197	45.828	16.323	279.624	0.00024347	0.00043811	0.00013962	1314.9	6.8023e-06	4.7905e-06	1325.6	349.3	4.176e-06	4.1688e-06	403.19	134.44	116.33	40.617	4.3721e-06	50.802	0.00041255	0.00040558	0.00011571	1332.2	4.5809e-06	4.7361e-06	1338.1	355.63	4.6423e-06	4.2899e-06	409.4	137.33	119.13	41.74	4.6245e-06	52.002	237.344	54.030	45.896	-24.559	128.670	129.025	-24.509	-19.812	148.627	109.950	-20.470	-15.443	-15.152	-10.847	128.843	-11.719	-8191	255	
38462.086	1	1	0	0	0.11775	0.11108	0.17783	0.21681	0.085183	0.076519	0.21104	0.11012	0.27554	0.050122	0.047253	0.094667	0.16423	0.29012	0.13929	0.093356	-1.8292	-3.0687	-2.9354	-2.5	-3.2396	-2.4146	-2.8667	-3.3417	-2.3208	-2.9979	-3.2333	-2.4521	-3.2896	-2.9646	-2.5292	-3.2771	117.442	103.548	180.217	-0.434	7.022	215.909	277.101	-12.291	296.521	140.156	301.873	82.531	257.700	309.511	108.203	4.816	0.00025757	0.00050175	0.00011063	1317.7	4.0295e-06	4.4228e-06	1324.4	349.73	3.9517e-06	5.3538e-06	402.36	134.25	116.42	40.65	5.7337e-06	50.56	0.00041137	0.00039395	0.00011118	1334.8	4.494e-06	4.5626e-06	1336.5	356.11	4.6764e-06	4.4645e-06	409.91	137.55	119.03	41.779	4.6847e-06	51.899	246.597	44.963	45.992	-24.476	133.711	111.886	-24.572	-19.795	153.135	103.510	-20.534	-15.306	-15.081	-10.760	142.379	-11.777	-8191	255	
38462.184	1	1	0	0	0.17463	0.15158	0.27046	0.171	0.064683	0.17517	0.37145	0.013803	0.31157	0.2431	0.11254	0.18326	0.25117	0.11151	0.29701	0.073354	-2.2042	-2.9229	-2.9667	-2.3583	-3.0771	-2.7062	-2.6792	-3.5625	-2.5062	-2.8417	-3.2125	-2.4021	-3.1875	-2.95	-2.4833	-3.3833	123.314	235.972	36.536	203.545	-25.324	6.096	254.630	303.352	308.789	11.878	306.682	248.219	282.878	-28.390	239.762	123.742	0.00024051	0.00043423	0.00013811	1312.8	5.2525e-06	4.5442e-06	1319.9	350.11	3.3146e-06	4.6506e-06	402.75	134.49	116.5	40.746	4.2149e-06	50.641	0.00041072	0.00043921	0.00010873	1330.9	4.5561e-06	4.5677e-06	1334.9	355.59	4.607e-06	4.5952e-06	409.57	137.39	118.95	41.746	4.7789e-06	51.968	244.376	55.018	57.477	-24.690	160.625	101.430	-24.430	-19.701	147.264	108.769	-20.541	-15.323	-14.971	-10.899	134.278	-11.519	-8191	255	
38462.277	1	1	0	0	0.037955	0.24233	0.29922	0.088668	0.34349	0.13476	0.064542	0.13239	0.19673	0.15381	0.16405	0.13222	0.12052	0.17035	0.14774	0.38404	-2.1708	-2.6021	-3.1604	-2.5583	-2.9917	-2.7979	-2.5208	-3.3438	-2.6208	-2.7542	-3.2833	-2.3563	-2.8708	-2.775	-2.325	-3.6271	155.846	10.694	-24.927	-22.647	69.693	-14.513	238.615	247.124	96.666	13.657	271.276	246.264	261.233	-4.386	85.657	-2.874	0.00023947	0.00039844	0.00011761	1314.4	3.0944e-06	5.0452e-06	1323.6	350	4.5527e-06	4.8096e-06	403.29	134.35	116.38	40.637	4.2707e-06	50.84	0.00042783	0.00044303	0.00010828	1331.3	4.7267e-06	4.8184e-06	1335.9	356.21	4.7117e-06	4.6472e-06	409.82	137.48	119.07	41.78	4.6523e-06	51.922	235.381	63.040	60.361	-24.518	153.857	109.120	-24.374	-19.644	162.622	107.210	-20.374	-15.654	-14.878	-11.051	122.392	-11.514	-8191	255	
38462.375	1	1	0	0	0.2914	0.072672	0.13342	0.29855	0.027972	0.16561	0.20841	0.2202	0.022311	0.43486	0.077463	0.099297	0.33481	0.26261	0.1224	0.20019	-2.1312	-2.5042	-3.0708	-2.4479	-3.0958	-2.9271	-2.8229	-3.2792	-2.5542	-2.5438	-3.2708	-2.3792	-2.9354	-3.0896	-2.4875	-3.2604	-5.549	312.321	188.998	264.902	123.791	-17.128	279.119	294.476	61.905	104.312	49.422	284.566	300.490	131.355	240.076	279.480	0.00026323	0.0005494	0.00014363	1314.6	4.3602e-06	4.7988e-06	1323.6	349.93	2.6962e-06	3.3599e-06	402.73	133.91	116.43	40.516	4.6141e-06	50.721	0.00042413	0.00043	0.00011171	1332	4.9027e-06	4.5468e-06	1335	355.44	4.7079e-06	4.5245e-06	409.49	137.25	118.93	41.724	4.7616e-06	51.942	238.446	54.768	59.262	-24.538	140.400	124.827	-24.429	-19.655	162.620	111.344	-20.428	-15.514	-14.764	-10.707	135.841	-11.616	-8191	255	
38462.469	1	1	0	0	0.24897	0.18178	0.20225	0.23183	0.21603	0.0721	0.15465	0.151	0.20879	0.16606	0.034664	0.21487	0.38326	0.25563	0.063247	0.37485	-2.1958	-2.4125	-3.2458	-2.6521	-2.8479	-2.9875	-2.7042	-3.1	-2.6646	-2.4396	-3.3063	-2.6354	-2.6479	-3.2812	-2.275	-3.2646	206.816	-24.673	66.653	244.148	-10.526	29.612	-12.458	144.694	105.092	142.787	31.591	60.099	297.099	296.516	309.047	264.869	0.00026557	0.00061548	0.00011324	1313.9	5.3485e-06	5.1211e-06	1322.6	349.59	3.0843e-06	3.8844e-06	403.03	134.26	116.76	40.465	5.3697e-06	50.791	0.00041554	0.0004509	0.00011149	1330.3	4.8422e-06	4.3284e-06	1334.7	355.95	4.6173e-06	4.7466e-06	409.36	137.39	119.19	41.66	4.8882e-06	51.965	242.229	55.812	57.522	-24.566	136.959	126.688	-24.465	-19.586	185.565	92.481	-20.212	-15.287	-14.957	-10.604	114.500	-11.430	-8191	255	
38462.566	1	1	0	0	0.2476	0.21812	0.1785	0.11148	0.1569	0.040535	0.11023	0.34271	0.084103	0.35728	0.21552	0.35512	0.19177	0.36462	0.14316	0.18344	-2.4771	-2.5687	-3.25	-2.8417	-2.55	-3.2646	-2.5271	-3.0125	-2.9437	-2.2938	-3.2583	-2.6479	-2.6646	-3.3167	-2.2917	-3	256.454	321.629	-9.345	-21.608	266.418	230.018	14.799	269.527	183.499	-1.388	257.953	255.566	-30.549	220.329	-18.024	199.564	0.0002315	0.00051832	0.0001457	1314.7	6.101e-06	5.5661e-06	1321.2	348.89	4.2621e-06	4.1836e-06	403.59	134.49	116.5	40.613	5.5413e-06	50.801	0.00042211	0.00044769	0.00011381	1330.5	4.7952e-06	4.5892e-06	1334.9	355.49	4.6748e-06	4.6634e-06	410.05	137.23	119.05	41.748	5.034e-06	51.873	239.047	53.604	50.334	-24.443	149.617	106.006	-24.429	-19.653	184.934	112.361	-20.400	-15.222	-14.931	-10.801	135.092	-11.503	-8191	255	
38462.660	1	1	0	0	0.24847	0.10074	0.11308	0.076674	0.18552	0.16959	0.14852	0.16107	0.048326	0.2322	0.28475	0.16751	0.071905	0.27166	0.057354	0.09436	-2.7354	-2.1979	-3.2604	-2.7	-2.5958	-3.3021	-2.5667	-3.1188	-3.0917	-2.2604	-3.2542	-2.725	-2.5021	-3.2875	-2.3396	-3.0542	119.768	60.905	-14.457	-9.501	73.068	100.782	209.088	219.407	76.055	263.645	271.617	235.434	-23.830	229.503	139.596	318.226	0.0002584	0.00042674	0.00012155	1312.8	4.3966e-06	5.9938e-06	1321.3	350.05	3.9511e-06	4.6418e-06	402.32	134.26	116.83	40.476	4.7719e-06	50.493	0.00041249	0.00044068	0.00011835	1331.3	4.9491e-06	4.4461e-06	1334.2	356.19	4.6488e-06	4.7235e-06	409.14	137.35	119.05	41.681	4.6274e-06	51.858	234.276	55.487	67.221	-24.549	139.672	125.289	-24.362	-19.346	156.499	115.303	-20.254	-15.544	-14.812	-10.734	124.874	-11.620	-8191	255	
38462.781	1	1	0	0	0.17978	0.087329	0.065539	0.16841	0.13805	0.22311	0.34454	0.13816	0.15866	0.21395	0.045084	0.070319	0.10368	0.20742	0.096053	0.17824	-2.7167	-2.3312	-3.0917	-3.175	-2.3833	-3.2417	-2.5521	-2.9354	-3.2062	-2.3667	-3.2438	-2.9167	-2.5146	-3.2104	-2.5958	-2.8208	143.662	26.444	192.481	219.677	239.604	320.435	306.759	220.391	219.312	2.534	125.373	115.753	274.781	227.013	237.797	222.217	0.00024646	0.00046568	0.00015656	1314.2	4.7272e-06	4.5206e-06	1320.4	350.02	3.671e-06	4.5028e-06	402.73	133.97	116.23	40.722	4.5314e-06	50.711	0.00042883	0.00043781	0.00011849	1332.7	4.9215e-06	4.5145e-06	1335.3	356.16	4.8164e-06	4.7141e-06	409.73	137.25	119.01	41.755	4.8558e-06	51.967	234.540	54.852	58.925	-24.333	155.982	104.183	-24.410	-19.333	162.555	120.213	-20.199	-15.485	-14.833	-10.781	136.775	-11.370	-8191	255	
38462.879	1	1	0	0	0.10502	0.19798	0.19382	0.42206	0.13287	0.19867	0.25026	0.27709	0.18496	0.074305	0.24988	0.15021	0.1395	0.13125	0.30651	0.22585	-2.925	-2.275	-2.9771	-3.2417	-2.4729	-3.0875	-2.7438	-2.7292	-3.2521	-2.4854	-3.0458	-2.9625	-2.4792	-3.1	-2.7479	-2.6208	18.867	166.057	164.981	276.530	75.799	220.945	237.298	260.076	114.007	300.184	289.211	12.134	311.418	278.505	32.351	301.120	0.00024507	0.00057768	0.00013048	1316.3	5.4001e-06	4.35e-06	1323.8	350.93	2.2255e-06	4.8641e-06	403.77	134.7	116.65	40.722	3.9325e-06	50.556	0.00041386	0.00045202	0.00012	1331.5	4.9404e-06	4.3923e-06	1335	356.11	4.6173e-06	4.6422e-06	409.89	137.33	119.2	41.781	4.7847e-06	51.907	239.330	53.481	61.035	-24.606	144.410	99.993	-24.144	-19.396	189.161	106.429	-20.143	-15.537	-14.837	-10.738	139.134	-11.167	-8191	255	
38462.949	1	1	0	0	0.14552	0.097011	0.14023	0.42148	0.06699	0.23028	0.23893	0.024592	0.17703	0.18662	0.17021	0.20161	0.19143	0.11009	0.26497	0.15487	-2.7938	-2.225	-2.9896	-3.2438	-2.2458	-3.3375	-2.9562	-2.7104	-3.0771	-2.3312	-2.9229	-2.9917	-2.4917	-3.2271	-2.7542	-2.5854	42.495	100.147	278.599	256.069	98.233	294.850	210.512	211.737	216.725	21.048	298.137	249.733	319.709	267.732	159.315	183.754	0.00024117	0.00044655	0.00011133	1317.8	4.1705e-06	3.4096e-06	1321.2	349.62	2.3677e-06	3.2015e-06	402.08	134.4	116.3	40.583	4.6911e-06	50.654	0.00041741	0.00045533	0.00011678	1333.1	4.8962e-06	4.7234e-06	1335.6	356.1	4.6271e-06	4.604e-06	409.33	137.27	119.09	41.704	4.7893e-06	51.968	236.418	59.744	57.345	-24.420	156.933	122.434	-24.383	-19.318	174.646	112.025	-20.204	-15.334	-14.862	-10.410	135.503	-11.273	-8191	255	
38463.047	1	1	0	0	0.24243	0.14254	0.11752	0.05857	0.077658	0.106	0.28354	0.035656	0.12378	0.062399	0.10078	0.19882	0.35341	0.035081	0.30278	0.1432	-2.7708	-2.2833	-2.8292	-3.2958	-2.3604	-3.2708	-2.9167	-2.625	-3.1625	-2.5167	-2.8187	-3.2042	-2.4646	-2.9833	-3.0396	-2.4021	316.465	264.883	73.346	294.190	136.671	268.108	276.049	305.445	312.781	245.258	317.773	55.063	-16.445	184.798	287.810	253.859	0.00027638	0.00049127	0.00015121	1319.6	5.1412e-06	4.5118e-06	1324	350.66	3.4333e-06	3.6511e-06	403.35	134.2	116.13	40.602	3.8543e-06	51.027	0.00040922	0.00042568	0.00012227	1331.7	4.8611e-06	4.6468e-06	1335.4	356.25	4.6542e-06	4.8693e-06	409.65	137.17	118.81	41.696	4.5355e-06	52.003	232.911	45.608	62.217	-24.250	140.578	114.974	-24.285	-19.723	162.934	108.067	-20.083	-15.198	-14.829	-10.426	138.700	-11.632	-8191	255	
38463.164	1	1	0	0	0.33031	0.1555	0.18902	0.19656	0.20454	0.059348	0.24006	0.24229	0.17493	0.2408	0.11398	0.26203	0.14778	0.15253	0.14977	0.20235	-2.7479	-2.5375	-2.8021	-3.3729	-2.2458	-2.8563	-3.1271	-2.4479	-3.2292	-2.6542	-2.6417	-3.2792	-2.3292	-3.0167	-2.875	-2.5083	245.375	54.352	312.470	318.012	203.261	1.293	275.423	284.166	260.675	134.912	-26.230	231.124	220.628	29.706	312.079	-10.465	0.00024882	0.00058837	0.00010405	1313.4	5.2857e-06	4.9158e-06	1317.8	348.71	3.6349e-06	5.1841e-06	404.22	134.19	116.35	40.562	4.7654e-06	50.474	0.00040947	0.00043663	0.0001181	1331	4.9242e-06	4.5898e-06	1332.6	355.52	4.5902e-06	4.7792e-06	409.3	137.18	119	41.705	4.5985e-06	51.897	240.940	42.667	70.139	-24.234	132.713	117.039	-24.308	-19.480	161.193	112.735	-19.989	-15.186	-14.820	-10.686	123.546	-11.426	-8191	255	
38463.262	1	1	0	0	0.016308	0.14543	0.22507	0.141	0.092024	0.23805	0.23428	0.20211	0.07698	0.2174	0.17659	0.19684	0.13747	0.21922	0.027975	0.10391	-3.0771	-2.7104	-2.4854	-3.4604	-2.5438	-2.7979	-3.3042	-2.5729	-3.1375	-2.8271	-2.5187	-3.2354	-2.6333	-2.7104	-3.0458	-2.3958	191.452	295.377	300.777	-23.943	96.837	267.836	249.955	217.846	169.618	-3.456	277.956	51.824	-15.901	313.679	87.922	225.850	0.00026231	0.0004729	0.00011819	1313.8	5.0394e-06	4.8409e-06	1317.8	348.56	3.9962e-06	5.1958e-06	403.02	133.82	115.91	40.576	4.7385e-06	50.394	0.00041722	0.00042068	0.00012232	1329	4.934e-06	4.6664e-06	1332.7	355.32	4.3711e-06	4.5865e-06	409.53	137.17	118.63	41.692	4.5499e-06	51.789	238.614	51.456	52.227	-24.325	135.690	116.660	-24.470	-19.465	174.859	96.541	-20.127	-15.032	-14.977	-10.585	143.421	-11.323	-8191	255	
38463.359	1	1	0	0	0.31291	0.10151	0.21349	0.31197	0.17461	0.24718	0.21104	0.15164	0.098484	0.30385	0.15756	0.055223	0.0095927	0.050141	0.23438	0.061405	-2.625	-2.6167	-2.3354	-3.4562	-2.525	-2.7354	-3.3208	-2.5042	-3.1271	-2.8729	-2.6437	-3.2104	-2.5625	-2.7354	-3.325	-2.4646	217.903	86.781	248.640	294.681	305.526	234.152	272.655	270.991	212.015	290.264	204.454	-8.443	243.027	-32.262	271.748	260.058	0.00026197	0.00044212	0.00017841	1311.7	6.8374e-06	5.1877e-06	1313.9	349.92	4.5791e-06	4.5415e-06	402.49	134.09	116.54	40.646	3.7338e-06	50.699	0.00041119	0.00040636	0.00012165	1327.5	4.9777e-06	4.5645e-06	1331.4	355.77	4.6439e-06	4.5608e-06	408.32	137.06	118.84	41.664	4.5794e-06	51.895	240.610	53.399	54.669	-24.386	149.100	105.264	-24.334	-19.406	161.007	116.858	-20.212	-15.154	-14.682	-10.747	133.905	-11.338	-8191	255	
38463.457	1	1	0	0	0.12935	0.20881	0.12873	0.30683	0.20183	0.055747	0.065695	0.21278	0.17141	0.1787	0.26191	0.090054	0.17402	0.23257	0.028844	0.2161	-2.6667	-3.0271	-2.3979	-3.5042	-2.5812	-2.7146	-3.3479	-2.3854	-2.9396	-3.0958	-2.4813	-3.2875	-2.7562	-2.7646	-3.2604	-2.5354	8.914	127.619	292.863	299.674	175.066	120.607	-8.948	320.028	60.278	225.946	210.922	318.816	43.365	301.891	45.155	271.230	0.00025602	0.00038032	0.0001363	1312.4	4.9486e-06	5.8399e-06	1321	348.38	3.6033e-06	4.0277e-06	402.82	134.03	115.86	40.529	4.5253e-06	50.714	0.00040614	0.00042209	0.00011849	1328	4.7542e-06	4.631e-06	1332.4	354.95	4.7285e-06	4.4801e-06	408.87	137.15	118.56	41.648	4.5048e-06	51.798	242.159	44.016	24.769	-24.287	148.941	111.304	-24.233	-19.367	167.123	110.048	-19.974	-14.922	-15.017	-10.420	137.159	-11.523	-8191	255	
38463.551	1	1	0	0	0.32794	0.097433	0.040658	0.038812	0.14085	0.14577	0.35709	0.18104	0.17641	0.09812	0.2966	0.13411	0.23842	0.045948	0.053206	0.16299	-2.7292	-2.9125	-2.2021	-3.1937	-2.75	-2.5167	-3.3417	-2.5	-2.9646	-3.0958	-2.5104	-3.3167	-2.7167	-2.4688	-3.1354	-2.5	253.068	137.387	295.303	185.732	160.719	187.203	185.222	272.408	259.753	102.851	180.191	94.878	-21.388	29.055	28.362	312.526	0.00027504	0.00051712	0.00011319	1313.4	4.5098e-06	3.336e-06	1319	350.47	4.0885e-06	3.8973e-06	401.95	133.98	116.34	40.695	4.8589e-06	50.754	0.00040571	0.00041085	0.00011753	1329.8	4.8336e-06	4.6417e-06	1331.1	355.53	4.5777e-06	4.4113e-06	408.81	137.15	118.83	41.742	4.5077e-06	51.871	241.772	59.277	62.201	-24.424	145.545	135.531	-24.328	-19.338	150.256	117.134	-20.132	-15.394	-14.810	-10.436	165.205	-11.415	-8191	255	
38463.645	1	1	0	0	0.19215	0.032841	0.13817	0.42008	0.22874	0.10147	0.3582	0.30162	0.21116	0.13721	0.27095	0.108	0.17137	0.10145	0.14194	0.17661	-2.3375	-3.0375	-2.3771	-3.1312	-2.6958	-2.3896	-3.4542	-2.6667	-2.8417	-3.3458	-2.2313	-3.3271	-3.0146	-2.4521	-3.1583	-2.5875	83.189	297.512	150.859	258.858	139.262	199.751	246.652	262.035	50.414	96.416	199.908	151.089	280.459	172.697	11.782	215.701	0.00029021	0.00045019	0.00014635	1313.1	4.5469e-06	5.2156e-06	1320.3	349.66	4.3414e-06	5.6422e-06	403.35	134.5	116	40.57	4.169e-06	50.599	0.00042559	0.00039957	0.00011661	1330.2	4.7018e-06	4.6335e-06	1333.3	355.69	4.7117e-06	4.2017e-06	408.97	137.08	118.79	41.719	4.4389e-06	51.896	240.644	40.112	41.074	-24.269	148.211	121.579	-24.285	-19.321	159.398	103.296	-20.168	-15.081	-14.818	-10.612	135.857	-11.314	-8191	255	
38463.766	1	1	0	0	0.19775	0.28772	0.074705	0.27636	0.077329	0.21582	0.12776	0.2614	0.096488	0.022353	0.17302	0.18228	0.11636	0.32113	0.22735	0.16537	-2.3292	-3.2313	-2.4896	-3.0521	-3.0146	-2.2438	-3.4125	-2.8063	-2.5187	-3.1271	-2.4854	-2.8792	-3.1188	-2.2146	-2.9917	-2.8688	259.997	1.765	315.322	256.824	231.084	256.335	-18.811	240.877	2.735	223.908	78.275	143.817	292.878	313.671	195.027	283.256	0.00025757	0.00045321	0.00014425	1317.4	5.9635e-06	3.2291e-06	1324.9	348.88	2.1315e-06	4.2227e-06	405.38	134.33	116.75	40.641	5.7109e-06	50.912	0.00041417	0.00041254	0.00011872	1331.6	4.7353e-06	4.7342e-06	1336.1	355.35	4.8213e-06	4.2718e-06	409.9	137.54	118.96	41.707	4.6101e-06	51.961	238.767	43.435	50.216	-24.217	145.127	112.987	-24.080	-19.325	166.476	93.763	-20.234	-15.451	-14.881	-10.432	139.538	-11.228	-8191	255	
38463.863	1	1	0	0	0.15248	0.12097	0.047684	0.4604	0.13044	0.038597	0.20234	0.34842	0.094538	0.045377	0.36826	0.2305	0.062194	0.11611	0.069489	0.20975	-2.2083	-3.1417	-2.45	-2.9792	-3.1937	-2.2792	-3.2687	-2.8354	-2.5083	-3.0708	-2.6688	-2.7562	-3.1937	-2.3667	-3.0687	-2.8833	-32.879	111.032	145.117	280.321	239.024	92.924	316.799	318.492	26.183	248.059	304.998	220.583	121.135	248.646	294.411	73.430	0.00025636	0.00049744	0.00013462	1311.5	5.3462e-06	4.9709e-06	1324.4	350.41	5.0683e-06	2.5374e-06	402.91	134.03	116.12	40.554	4.3852e-06	50.834	0.00041896	0.00039395	0.0001142	1331.7	4.6155e-06	4.9747e-06	1336	355.69	4.8484e-06	4.4344e-06	409.59	137.31	118.78	41.693	4.4649e-06	51.955	240.815	68.387	63.463	-24.326	147.348	108.575	-24.233	-19.582	178.772	149.220	-20.210	-15.174	-14.850	-10.589	124.456	-11.249	-8191	255	
38463.961	1	1	0	0	0.09575	0.19358	0.12889	0.12917	0.26042	0.13053	0.12571	0.27873	0.14316	0.089017	0.47402	0.093368	0.037933	0.26175	0.22956	0.1259	-1.7812	-3.2313	-2.6	-3.0021	-3.3312	-2.3354	-3.3042	-2.8812	-2.2812	-3.2417	-2.725	-2.5938	-3.3875	-2.3542	-2.8333	-3.0833	138.801	293.708	212.121	312.118	168.206	-12.962	240.669	286.830	209.311	293.161	270.567	-6.326	158.655	0.968	58.168	67.469	0.00026787	0.00059168	0.00013726	1313.6	5.6027e-06	4.6435e-06	1318	348.93	2.8152e-06	3.6103e-06	403.66	133.73	116.58	40.552	4.2182e-06	50.844	0.00041358	0.00042669	0.00011922	1331.2	4.6214e-06	4.6626e-06	1335.4	355.65	4.5094e-06	4.3206e-06	410.25	137.2	119.03	41.691	4.6297e-06	51.945	239.264	50.426	55.108	-24.484	133.065	102.382	-24.345	-19.565	150.128	118.024	-20.399	-15.270	-14.789	-10.893	139.778	-11.531	-8191	255	
38464.055	1	1	0	0	0.10647	0.14343	0.2235	0.55926	0.24836	0.18319	0.28876	0.31145	0.053978	0.094385	0.12243	0.061845	0.055321	0.13769	0.16211	0.19547	-1.8521	-3.1188	-2.4667	-2.7188	-3.1729	-2.3958	-3.1833	-3.1708	-2.3021	-3.2375	-2.7229	-2.6792	-3.2917	-2.4583	-2.925	-3.1458	268.276	296.673	248.371	277.036	131.560	147.544	264.198	260.407	111.906	-35.892	275.891	41.661	71.552	274.016	-7.500	292.118	0.00024807	0.00043847	0.00016705	1316.6	5.8514e-06	5.2884e-06	1324.7	349.47	2.9928e-06	4.9148e-06	401.88	133.96	116.5	40.571	4.4207e-06	50.703	0.00041028	0.00041203	0.00012097	1332.5	4.6068e-06	4.6303e-06	1335.4	355.98	4.7394e-06	4.34e-06	409.3	137.17	119.1	41.722	4.6772e-06	51.852	243.098	49.851	67.047	-24.361	156.386	110.821	-24.260	-19.624	142.867	120.133	-20.121	-15.468	-14.850	-10.457	150.234	-11.403	-8191	255	
38464.176	1	1	0	0	0.19729	0.075127	0.034935	0.15063	0.22106	0.28547	0.080864	0.29872	0.3352	0.13521	0.11238	0.20192	0.10142	0.20316	0.10007	0.076783	-1.7313	-2.9146	-2.6604	-2.5396	-3.2938	-2.5187	-3.0771	-3.0833	-2.1979	-3.1292	-2.8438	-2.4521	-3.1542	-2.4813	-2.5625	-3.1542	-14.888	75.965	159.832	270.748	27.915	217.672	195.190	-31.014	-19.453	293.230	20.960	214.439	274.941	283.304	111.491	295.553	0.00024741	0.00062561	0.00010498	1318.3	2.8072e-06	4.5866e-06	1321.6	350.35	2.8611e-06	4.0079e-06	402.9	134.11	115.54	40.705	5.8538e-06	50.675	0.00042117	0.00042658	0.00011138	1332.2	4.528e-06	4.8525e-06	1335	355.75	4.9026e-06	4.4013e-06	409.44	137.34	118.6	41.743	4.7911e-06	51.881	241.318	58.363	63.107	-24.420	138.779	102.301	-24.185	-19.374	166.425	117.495	-20.226	-15.158	-14.613	-10.499	133.900	-11.210	-8191	255	
38464.246	1	1	0	0	0.26816	0.16664	0.29077	0.15191	0.06514	0.14665	0.28482	0.22868	0.08984	0.14859	0.035804	0.37059	0.17012	0.079052	0.060244	0.075251	-1.8979	-2.9542	-2.8063	-2.4688	-3.1958	-2.4479	-2.5958	-3.2062	-2.2271	-2.9854	-3.2021	-2.4437	-3.3063	-2.8125	-2.3771	-3.2917	-6.306	290.933	141.053	301.849	180.939	243.959	214.480	262.725	262.403	165.223	134.564	297.345	291.862	24.654	303.518	5.236	0.00026619	0.00031792	0.00011215	1317.3	4.5853e-06	4.1363e-06	1321.3	349.53	2.285e-06	4.7017e-06	404.23	133.84	116.68	40.764	5.2543e-06	50.855	0.00041548	0.00041158	0.00011796	1332.2	4.6398e-06	4.5189e-06	1335.4	355.54	4.7448e-06	4.6728e-06	410.81	137.27	119.19	41.797	4.9634e-06	51.977	239.832	39.176	51.066	-24.153	163.235	113.420	-24.003	-19.413	167.010	115.937	-20.420	-15.012	-14.628	-10.507	139.044	-11.085	-8191	255	
38464.344	1	1	0	0	0.13242	0.19025	0.12808	0.23595	0.1157	0.19443	0.17041	0.26688	0.14542	0.29676	0.19138	0.14831	0.11579	0.1724	0.1696	0.10189	-1.9167	-3.0583	-3.0292	-2.45	-3.1833	-2.7	-2.8375	-3.2583	-2.2354	-2.8354	-3.1417	-2.45	-3.3208	-2.6437	-2.4854	-3.275	146.031	15.737	175.979	279.524	124.774	91.208	257.914	265.783	205.437	-0.889	-29.010	260.154	2.691	74.761	-3.958	141.077	0.00027149	0.00052925	0.00013769	1316.5	5.1503e-06	5.0015e-06	1327.4	351.2	3.7591e-06	3.6665e-06	402.76	133.98	116.37	40.713	4.4028e-06	50.92	0.00042027	0.00043472	0.00011921	1333.5	4.7277e-06	4.6208e-06	1339.3	356.61	4.9107e-06	4.6922e-06	410.58	137.34	119.11	41.74	4.9426e-06	51.969	239.638	59.356	64.437	-24.336	134.753	107.853	-24.036	-19.301	156.966	102.199	-20.160	-14.985	-14.830	-10.603	114.034	-11.438	-8191	255	
38464.465	1	1	0	0	0.19219	0.092922	0.12834	0.53265	0.184	0.35473	0.28444	0.21068	0.28812	0.20597	0.23699	0.068267	0.20105	0.20005	0.11909	0.17631	-2.0062	-2.8646	-3.0396	-2.4646	-2.975	-2.7167	-2.4167	-3.375	-2.5187	-2.6188	-3.2375	-2.525	-3.175	-3.1479	-2.4313	-3.1229	243.036	275.915	239.073	262.020	200.600	143.973	232.873	236.509	75.246	239.820	308.496	315.398	245.293	284.477	257.057	25.232	0.00027687	0.0003967	0.00012335	1318.4	4.3498e-06	4.6002e-06	1325.6	351.37	4.7399e-06	4.6953e-06	401.86	134.27	116.76	40.815	5.356e-06	50.886	0.00042556	0.00044494	0.0001189	1335.3	4.7013e-06	4.7158e-06	1338.7	356.67	4.8006e-06	4.4451e-06	409.84	137.45	119.22	41.824	4.813e-06	52.009	236.375	55.538	61.055	-24.045	128.314	119.692	-24.029	-19.361	158.613	117.732	-20.344	-15.086	-14.953	-10.712	138.060	-11.520	-8191	255	
38464.559	1	1	0	0	0.17844	0.16783	0.26789	0.31659	0.09538	0.19859	0.20584	0.24177	0.20262	0.38894	0.40345	0.14444	0.081046	0.22467	0.074343	0.24845	-2.35	-2.6729	-3.1625	-2.4562	-2.9813	-2.8229	-2.4542	-3.4229	-2.6042	-2.5083	-3.45	-2.4396	-3.1625	-3.1	-2.1729	-3.3187	38.926	76.934	102.120	276.867	199.939	-7.101	251.824	248.815	211.933	152.704	-25.397	307.505	271.146	190.064	167.633	307.377	0.0002446	0.00055921	0.00017894	1316.6	4.0216e-06	4.3486e-06	1325.7	349.09	2.4126e-06	3.7617e-06	405.02	134.3	116.43	40.663	3.9756e-06	50.9	0.00042298	0.00044534	0.00011572	1334.5	4.7526e-06	4.6924e-06	1338.1	356.45	4.7182e-06	4.7254e-06	410.69	137.51	119.22	41.748	4.7784e-06	52.027	244.542	43.956	50.340	-24.453	158.806	125.473	-24.463	-19.440	186.771	141.418	-20.256	-15.492	-14.689	-10.635	140.945	-11.564	-8191	255	
38464.656	1	1	0	0	0.05584	0.18988	0.07383	0.22525	0.013168	0.057465	0.36281	0.1932	0.10686	0.1924	0.082466	0.096286	0.027755	0.1022	0.17251	0.328	-2.3812	-2.5583	-3.1188	-2.6146	-2.8979	-3.0812	-2.4979	-3.2438	-2.7	-2.5229	-3.2854	-2.5021	-2.8625	-3.1729	-2.3042	-3.1521	254.735	294.710	265.973	300.951	-13.745	233.244	258.197	292.976	3.897	168.821	269.668	234.877	309.700	229.301	-13.840	321.789	0.00025289	0.000603	0.00012975	1315.5	4.1689e-06	3.9464e-06	1326.6	351.48	2.0499e-06	4.1993e-06	403.99	134.56	116.52	40.919	5.1721e-06	50.782	0.00041732	0.00044876	0.00011415	1332.3	4.7083e-06	4.7582e-06	1337.9	356.59	4.7068e-06	4.7279e-06	410.18	137.59	119.11	41.863	4.8824e-06	52.026	236.854	40.991	57.165	-24.582	141.434	116.580	-24.384	-19.572	158.347	110.610	-20.557	-15.488	-14.862	-10.781	146.911	-11.773	-8191	255	
38464.750	1	1	0	0	0.069224	0.16736	0.048988	0.31248	0.15045	0.23006	0.24444	0.067001	0.21302	0.028042	0.071301	0.1171	0.075219	0.13679	0.096783	0.17934	-2.4229	-2.3521	-3.4083	-2.7271	-2.8708	-3.3083	-2.6	-3.1792	-2.8271	-2.4583	-3.35	-2.7104	-2.5896	-3.1042	-2.4458	-3.0875	287.903	109.951	-23.822	314.822	-32.146	288.399	259.491	256.092	63.433	295.526	272.711	222.180	118.731	300.487	231.951	306.821	0.00023923	0.00049289	0.00011015	1313.3	5.0531e-06	5.4533e-06	1327	349.72	2.1583e-06	3.8318e-06	403.92	134.08	116.94	40.774	5.2213e-06	50.899	0.00041728	0.00042624	0.00011398	1333.2	4.7801e-06	4.5537e-06	1339.5	356.42	4.716e-06	4.5589e-06	410.35	137.24	119.37	41.783	4.8535e-06	51.977	241.754	64.132	55.800	-24.650	152.196	116.844	-24.428	-19.560	163.961	128.534	-20.408	-15.108	-14.930	-10.549	126.747	-11.443	-8191	255	
38464.848	1	1	0	0	0.30909	0.28209	0.056887	0.32122	0.15502	0.13612	0.17187	0.14396	0.25772	0.15064	0.13583	0.27308	0.16644	0.059235	0.077314	0.12976	-2.6063	-2.3854	-3.2771	-2.5958	-2.6083	-3.1562	-2.7958	-3.0167	-3.0521	-2.3771	-3.2479	-2.5708	-2.5438	-3.2604	-2.4125	-3.0042	120.089	180.063	315.323	305.359	83.295	176.462	230.785	288.231	21.684	134.088	-37.367	253.252	7.396	136.752	167.133	-13.973	0.00027308	0.00035463	0.00012207	1315	5.8846e-06	4.258e-06	1323.4	349.86	3.6577e-06	4.6711e-06	404.42	134.25	116.22	40.556	5.1904e-06	50.769	0.00042326	0.00045831	0.00011613	1332	4.9896e-06	4.7266e-06	1336.4	356.44	4.633e-06	4.7867e-06	410.34	137.54	119.2	41.778	4.8026e-06	51.973	238.287	42.078	55.196	-24.523	149.311	121.986	-24.507	-19.617	173.215	123.948	-20.281	-15.193	-14.725	-10.653	119.252	-11.653	-8191	255	
38464.941	1	1	0	0	0.074274	0.19408	0.20823	0.32484	0.08369	0.26789	0.20971	0.23826	0.029849	0.16223	0.22941	0.27541	0.19989	0.11614	0.11297	0.15376	-2.6583	-2.2438	-3.3396	-2.9521	-2.3229	-3.3104	-2.6229	-2.9104	-3.2521	-2.3417	-3.1292	-2.8438	-2.6167	-3.2792	-2.4125	-2.6917	267.744	34.865	262.498	319.373	243.565	173.803	-30.852	225.519	66.686	258.654	261.611	-27.411	17.113	14.806	45.837	157.426	0.0002451	0.00055301	0.00016014	1317.2	4.2104e-06	4.5549e-06	1327.4	350.92	2.5966e-06	4.4517e-06	404.35	133.49	116.64	40.545	4.5632e-06	50.817	0.00041094	0.00042899	0.0001155	1334.1	4.969e-06	4.6436e-06	1339.6	357.02	4.6493e-06	4.5952e-06	410.34	137.11	119.29	41.775	4.8125e-06	51.952	244.700	68.517	57.821	-24.446	150.363	112.128	-24.429	-19.383	175.602	81.248	-20.332	-15.327	-14.604	-10.292	129.035	-11.667	-8191	255	
38465.039	1	1	0	0	0.14586	0.12999	0.28453	0.41787	0.1936	0.15942	0.086504	0.26957	0.33947	0.067307	0.073694	0.11562	0.0298	0.0087331	0.30206	0.2334	-2.9229	-2.4854	-3.0667	-2.9917	-2.2083	-3.2021	-2.8646	-2.6021	-3.1271	-2.3708	-2.9688	-3.0958	-2.4271	-3.3083	-2.6167	-2.55	-4.938	73.091	-11.794	282.457	65.893	-3.638	208.840	240.085	27.211	221.676	252.469	207.348	58.067	161.926	75.553	281.474	0.00025491	0.00049978	0.00018362	1314.8	5.8222e-06	4.2176e-06	1326.3	349.1	3.7776e-06	4.8109e-06	404.21	134.49	116.87	40.794	5.6383e-06	50.746	0.00041427	0.00044045	0.00011757	1331.4	5.0403e-06	4.4246e-06	1337.4	356.14	4.601e-06	4.7541e-06	409.82	137.34	119.24	41.837	4.7731e-06	51.983	240.213	53.598	60.472	-24.250	137.995	94.112	-24.217	-19.267	164.157	108.179	-20.024	-15.214	-14.676	-10.437	142.019	-11.080	-8191	255	
38465.137	1	1	0	0	0.1975	0.0898	0.13899	0.21364	0.23249	0.095005	0.030439	0.31563	0.15318	0.14083	0.10916	0.14996	0.23518	0.19099	0.21632	0.23966	-2.8604	-2.4542	-2.8521	-3.1813	-2.3604	-3.2208	-2.8167	-2.5646	-3.2604	-2.5687	-2.9771	-3.0646	-2.4625	-3.3521	-2.7604	-2.6875	264.468	140.536	11.659	-31.184	51.848	130.753	129.357	243.168	239.927	226.518	-14.747	295.706	-30.794	13.667	165.814	295.039	0.00024715	0.00050079	0.00014695	1317.3	5.1183e-06	4.6641e-06	1323.5	349.93	2.306e-06	4.0806e-06	404.95	133.84	116.21	40.843	4.7145e-06	50.622	0.00041293	0.00043691	0.00012117	1334.8	4.7828e-06	4.6379e-06	1337.3	356.57	4.6309e-06	4.833e-06	410.3	137.33	119.09	41.772	4.6922e-06	51.936	237.261	46.101	70.342	-23.951	151.268	134.154	-24.008	-19.252	150.701	93.339	-20.046	-15.065	-14.762	-10.627	142.322	-11.499	-8191	255	
38465.254	1	1	0	0	0.1045	0.26695	0.10775	0.2695	0.13621	0.04057	0.13721	0.65697	0.3808	0.23843	0.14031	0.13546	0.028643	0.14548	0.17495	0.25344	-2.8104	-2.3333	-2.7896	-3.2875	-2.325	-3.0938	-2.9604	-2.5167	-3.1917	-2.4396	-2.7958	-3.0354	-2.2938	-3.2542	-2.7687	-2.55	216.439	128.121	6.928	283.453	216.472	209.392	277.951	311.121	-31.748	109.895	205.130	321.787	307.591	259.294	165.214	275.674	0.00026396	0.00048889	0.00014137	1316.9	4.7931e-06	5.0813e-06	1325.2	349.94	4.5376e-06	5.3102e-06	404.3	134.39	116.48	40.747	4.5943e-06	50.631	0.00041881	0.00044753	0.0001167	1334.6	4.9291e-06	4.624e-06	1337.5	355.93	4.6878e-06	4.6528e-06	410.05	137.42	119.02	41.765	4.7448e-06	51.999	238.190	57.672	48.112	-24.253	148.846	114.898	-24.160	-19.264	161.966	108.213	-20.056	-15.063	-14.660	-10.450	150.654	-11.112	-8191	255	
38465.352	1	1	0	0	0.08464	0.14777	0.15561	0.16582	0.096348	0.094882	0.18279	0.21679	0.1077	0.11664	0.24293	0.28381	0.18595	0.22624	0.4037	0.1672	-2.8375	-2.4437	-2.6146	-3.3187	-2.3688	-3.0896	-3.1042	-2.3312	-3.2354	-2.6208	-2.5771	-3.3292	-2.4375	-2.8729	-3.0271	-2.7271	155.872	98.153	77.395	267.154	144.905	238.372	303.900	272.458	269.822	312.414	254.577	287.708	291.047	0.548	32.489	256.610	0.00026142	0.00047533	0.00014836	1314.7	5.2511e-06	4.4239e-06	1324.4	349.79	3.3099e-06	3.8195e-06	404.67	133.79	116.43	40.876	3.9004e-06	50.71	0.00041476	0.00041973	0.00012291	1333	4.9901e-06	4.7848e-06	1336.7	356.02	4.6911e-06	4.6165e-06	410.31	137.27	118.88	41.861	4.6887e-06	51.92	235.695	47.610	63.479	-24.370	143.007	121.572	-24.342	-19.279	152.659	109.076	-20.085	-15.256	-14.782	-10.498	130.072	-11.489	-8191	255	
38465.445	1	1	0	0	0.094507	0.093353	0.25738	0.274	0.12666	0.12796	0.17268	0.47058	0.072913	0.27872	0.15598	0.14369	0.14895	0.050008	0.11928	0.08975	-2.8625	-2.6271	-2.5021	-3.2562	-2.4417	-2.9521	-3.0583	-2.4333	-3.1167	-2.7958	-2.4292	-3.1937	-2.5271	-3.0146	-3.1146	-2.6312	37.990	-2.762	213.540	298.133	135.541	65.849	252.339	289.434	10.934	278.992	248.065	184.229	30.205	34.467	230.185	5.307	0.00025557	0.0005639	0.00013749	1319	4.8843e-06	3.7495e-06	1319.8	349	4.1375e-06	4.6771e-06	402.12	135.1	116.42	40.754	4.3727e-06	50.827	0.00040443	0.0004455	0.00012193	1332.4	5.0128e-06	4.6683e-06	1335	355.54	4.6884e-06	4.6084e-06	409.49	137.6	119.08	41.801	4.7361e-06	52.046	240.598	76.046	46.278	-24.361	163.676	103.293	-24.394	-19.581	149.841	103.031	-20.007	-15.062	-14.721	-10.652	135.103	-11.302	-8191	255	
38465.543	1	1	0	0	0.062104	0.086253	0.18403	0.17387	0.11116	0.10723	0.39975	0.16908	0.22881	0.1805	0.28871	0.17462	0.31313	0.095894	0.10506	0.36697	-2.5917	-2.7188	-2.1104	-3.4958	-2.4729	-2.7562	-3.4396	-2.4229	-3.125	-2.8563	-2.3896	-3.3104	-2.5229	-2.6083	-3.1271	-2.4521	279.429	118.476	-12.917	-6.218	170.903	235.676	260.602	267.067	179.225	31.454	243.544	142.105	18.866	226.950	54.499	258.700	0.00025911	0.00041263	0.00011621	1315.1	3.6434e-06	3.5687e-06	1319.8	349.83	3.9237e-06	4.0338e-06	403.81	134.21	116.74	40.925	3.1247e-06	50.668	0.00041666	0.00041905	0.00012011	1333.6	5.0263e-06	4.6215e-06	1335.1	355.68	4.735e-06	4.5314e-06	409.91	137.48	119.08	41.908	4.6997e-06	51.902	239.129	54.832	74.541	-24.297	166.833	131.828	-24.400	-19.392	175.852	114.922	-20.334	-15.285	-14.863	-10.564	142.512	-11.597	-8191	255	
38465.641	1	1	0	0	0.11747	0.30061	0.18554	0.2655	0.20297	0.18526	0.34489	0.14198	0.12278	0.12554	0.3007	0.11982	0.1088	0.13465	0.077243	0.057036	-2.6271	-2.9854	-2.3896	-3.3396	-2.5583	-2.5229	-3.3563	-2.5312	-3.0917	-2.9	-2.3854	-3.1833	-2.6083	-2.575	-3.1937	-2.5396	227.032	185.307	304.764	291.172	209.131	-28.915	243.745	289.999	309.692	151.787	296.497	182.142	313.616	43.377	216.386	277.588	0.00027032	0.00038909	0.00014064	1319.4	5.9581e-06	4.714e-06	1320.5	351.36	2.5843e-06	4.0733e-06	403.09	134.86	116.5	40.597	6.2129e-06	50.955	0.0004067	0.00040805	0.00011784	1333.9	4.9286e-06	4.617e-06	1335.7	356.51	4.7475e-06	4.6165e-06	409.89	137.56	118.98	41.765	4.5494e-06	51.99	244.619	52.118	61.590	-24.282	134.629	91.699	-24.192	-19.366	187.177	111.118	-20.048	-14.859	-14.586	-10.423	140.654	-11.295	-8191	255	
38465.734	1	1	0	0	0.10672	0.16026	0.19181	0.15161	0.20621	0.22729	0.053479	0.28584	0.22364	0.2154	0.14321	0.15269	0.14034	0.28997	0.10395	0.074955	-2.5062	-3.0938	-2.3125	-3.2833	-2.7396	-2.6542	-3.5292	-2.6646	-2.8271	-3.1667	-2.4188	-3.1917	-2.9125	-2.5417	-3.0792	-2.5833	35.072	166.646	101.803	265.134	9.458	83.206	15.802	279.196	51.882	68.605	88.588	255.225	278.236	193.069	304.753	196.144	0.00024633	0.0005835	0.00015527	1314.1	5.4206e-06	4.876e-06	1319.2	349.53	3.4175e-06	5.5924e-06	401.27	134.52	116.75	40.657	5.2576e-06	50.989	0.00041651	0.00041625	0.00012391	1333.6	4.8632e-06	4.8608e-06	1336	356.13	4.8771e-06	4.6434e-06	409.36	137.47	119.06	41.766	4.8663e-06	51.997	239.341	48.926	53.146	-24.029	145.191	112.445	-23.988	-19.161	158.261	122.455	-19.792	-14.740	-14.515	-10.321	141.010	-11.082	-8191	255	
38465.855	1	1	0	0	0.37217	0.071086	0.050786	0.25448	0.1341	0.1066	0.32419	0.3664	0.18614	0.090353	0.21055	0.18398	0.26899	0.17718	0.050772	0.087543	-2.4396	-3.1896	-2.3104	-3.1667	-2.8229	-2.3375	-3.3875	-2.6708	-2.5208	-3.0979	-2.4354	-3.0312	-3.0062	-2.575	-3.2062	-2.6625	216.711	305.524	36.531	-5.268	142.455	-11.127	255.547	308.271	181.010	317.141	199.224	34.123	319.660	307.989	265.475	317.717	0.00023378	0.00053198	0.00012907	1315.3	5.5904e-06	5.735e-06	1319.7	349.18	2.5628e-06	3.619e-06	403.71	133.7	116.04	40.779	5.3934e-06	50.614	0.00041302	0.00040883	0.00012229	1331.9	4.7197e-06	4.7607e-06	1335.3	355.8	4.7914e-06	4.4395e-06	410.16	137.18	118.77	41.757	4.6766e-06	51.821	245.027	63.918	68.418	-24.065	150.185	125.552	-23.992	-19.317	160.216	112.436	-20.003	-14.870	-14.449	-9.950	144.275	-10.951	-8191	255	
38465.953	1	1	0	0	0.10793	0.32653	0.010123	0.34502	0.25797	0.080583	0.1015	0.15897	0.23629	0.24758	0.28651	0.063144	0.064491	0.043465	0.22858	0.070664	-2.1	-3.3042	-2.3187	-3.1813	-2.8875	-2.4604	-3.3688	-2.7708	-2.5958	-3.1625	-2.5792	-2.975	-3.0854	-2.2729	-3.1854	-2.7646	3.695	99.238	-21.388	-2.354	60.162	26.966	313.500	-27.019	283.268	253.834	257.686	147.418	61.612	110.167	4.517	212.781	0.00025767	0.00046111	0.00013333	1315.4	5.4032e-06	3.7789e-06	1325.1	349.75	3.425e-06	4.5771e-06	403.37	134.74	116.65	40.682	7.1423e-06	51.032	0.00043431	0.0004122	0.00012184	1331.9	4.7423e-06	4.7202e-06	1336.2	355.65	4.7784e-06	4.4964e-06	409.46	137.43	119.11	41.81	4.5731e-06	52.016	234.785	39.708	65.901	-24.130	163.701	119.455	-23.602	-18.782	153.756	100.970	-19.817	-14.711	-14.569	-10.340	133.900	-11.092	-8191	255	
38466.047	1	1	0	0	0.014948	0.17485	0.0092224	0.22948	0.18767	0.26388	0.15169	0.26607	0.22472	0.057968	0.29603	0.21072	0.21897	0.088616	0.32541	0.16064	-2.2104	-3.1896	-2.3208	-2.8667	-3.1417	-2.3771	-3.2313	-3.0708	-2.4479	-3.3375	-2.6146	-2.8604	-3.2792	-2.4854	-3.0771	-2.9437	56.460	196.818	51.017	297.525	124.888	36.802	265.827	278.945	-24.457	243.240	284.638	313.826	167.871	298.290	306.149	151.739	0.00024659	0.00058269	0.00013525	1317.7	4.4901e-06	5.1367e-06	1321.4	350.53	3.7142e-06	4.6996e-06	403.02	134.17	116.13	40.722	4.8319e-06	50.79	0.00042674	0.00040726	0.00012286	1333.2	4.5588e-06	4.8165e-06	1335.5	356.07	4.857e-06	4.3544e-06	409.4	137.33	118.78	41.775	4.6488e-06	51.982	237.472	54.771	61.049	-24.145	155.269	117.862	-24.153	-19.421	182.143	127.141	-20.216	-15.196	-15.179	-10.248	125.920	-11.388	-8191	255	
38466.145	1	1	0	0	0.103	0.089751	0.2204	0.18808	0.18873	0.1887	0.11701	0.20508	0.1801	0.11082	0.24511	0.20836	0.026245	0.16066	0.12975	0.12267	-1.9083	-3.15	-2.4292	-2.8146	-3.2792	-2.3083	-3.2125	-2.9917	-2.2854	-3.1125	-2.7458	-2.6688	-3.175	-2.3604	-3.0187	-2.9583	286.099	77.940	197.956	189.298	62.466	148.413	-32.646	281.723	-4.743	234.379	215.273	-7.531	16.610	-3.882	66.863	197.734	0.00025963	0.00057515	0.00013773	1318.4	6.0269e-06	4.0779e-06	1319.4	349.93	3.7201e-06	4.5116e-06	402.97	134.54	116.69	40.403	4.5562e-06	50.583	0.0004246	0.00040844	0.00011992	1332	4.5977e-06	4.8355e-06	1334.2	355.65	4.8402e-06	4.5383e-06	408.99	137.29	118.95	41.676	4.7292e-06	51.855	238.632	50.247	63.302	-24.281	155.877	123.556	-24.220	-19.383	150.263	97.152	-20.164	-14.921	-14.540	-10.424	145.530	-11.511	-8191	255	
38466.238	1	1	0	0	0.21307	0.10057	0.070542	0.41625	0.098794	0.18815	0.20685	0.09946	0.1001	0.10421	0.073966	0.073862	0.2516	0.095129	0.16813	0.25536	-2.0042	-2.9583	-2.4375	-2.6875	-3.1333	-2.3604	-3.0167	-3.0542	-2.2979	-3.1667	-2.6417	-2.5812	-3.0042	-2.2583	-2.9125	-3.1854	145.062	252.435	45.856	270.826	134.499	8.067	312.589	7.007	251.618	221.080	-2.533	236.231	294.001	318.508	217.868	243.596	0.00025782	0.00059617	0.00011962	1312.3	4.4024e-06	4.0703e-06	1326.4	349.65	4.3075e-06	3.1929e-06	402.22	133.98	116.51	40.5	3.2996e-06	50.599	0.00041377	0.00041349	0.00012022	1331.7	4.6603e-06	4.7886e-06	1335.9	355.83	4.8522e-06	4.5208e-06	408.89	137.22	119.1	41.723	4.709e-06	51.938	235.023	52.980	58.543	-24.200	146.437	110.620	-24.269	-19.589	161.382	125.116	-20.390	-15.147	-14.537	-10.313	124.542	-11.365	-8191	255	
38466.336	1	1	0	0	0.054063	0.16316	0.078898	0.19176	0.18634	0.2249	0.20997	0.039903	0.020268	0.1415	0.39192	0.089303	0.17065	0.16669	0.2259	0.1672	-1.8146	-3.2417	-2.6479	-2.6104	-3.1708	-2.4313	-2.9708	-3.2833	-2.1562	-3.0417	-2.8479	-2.425	-3.2562	-2.5417	-2.6312	-3.2375	-5.219	109.293	50.835	286.880	41.856	136.762	236.117	42.595	313.452	264.934	240.321	217.597	-27.407	-21.665	302.182	290.777	0.00026305	0.00053642	0.00013601	1312.1	4.7453e-06	4.7736e-06	1325.6	350.57	3.5377e-06	4.0006e-06	403.17	134.51	116.26	40.574	4.3967e-06	50.737	0.00043627	0.00041422	0.00011743	1331.4	4.5464e-06	4.712e-06	1337.6	355.89	4.8603e-06	4.5239e-06	409.52	137.39	119.09	41.731	4.5956e-06	51.951	243.181	43.414	51.829	-24.254	142.366	130.364	-24.374	-19.476	158.042	115.746	-20.015	-14.999	-14.670	-10.576	125.971	-11.341	-8191	255	
38466.430	1	1	0	0	0.062288	0.049077	0.32712	0.27648	0.049015	0.041217	0.14065	0.11283	0.098468	0.047628	0.053367	0.19484	0.14227	0.067837	0.16114	0.1369	-1.9521	-2.8563	-2.6937	-2.5333	-3.2146	-2.7062	-2.8937	-3.0875	-2.4354	-2.775	-3.0667	-2.3563	-3.2854	-2.6458	-2.5729	-3.2625	170.601	150.433	57.786	255.310	49.899	169.438	290.003	317.114	47.420	125.522	222.940	185.541	-37.136	226.780	93.970	312.107	0.00025394	0.00051767	0.00013134	1316.5	3.6205e-06	5.0885e-06	1320.6	349.2	2.8773e-06	4.9552e-06	402.83	134.56	116.85	40.725	5.0555e-06	50.99	0.00042584	0.00041248	0.00011289	1334	4.7661e-06	4.7785e-06	1335.3	355.6	4.9026e-06	4.5721e-06	409.78	137.22	119.24	41.81	4.7934e-06	51.998	242.804	70.626	42.069	-24.319	133.713	125.621	-24.229	-19.272	151.809	92.596	-20.033	-15.127	-14.610	-10.338	122.341	-11.037	-8191	255	
38466.551	1	1	0	0	0.27374	0.23616	0.16461	0.088295	0.35963	0.36186	0.1659	0.29317	0.16623	0.18211	0.079525	0.24503	0.14443	0.2056	0.23772	0.26191	-1.8833	-2.7542	-2.9062	-2.4208	-3.1208	-2.5667	-2.6333	-3.4188	-2.4458	-2.9	-2.9896	-2.4292	-3.0625	-2.8146	-2.3042	-3.2167	130.669	-5.400	106.012	228.149	92.530	169.236	313.894	221.141	222.112	269.773	319.564	281.072	216.864	310.591	-25.765	175.849	0.00025327	0.0005628	0.00010909	1317.4	5.6404e-06	4.175e-06	1321.4	349.76	3.6803e-06	3.8346e-06	403.61	134.61	116.23	40.496	2.9321e-06	50.703	0.00043007	0.00044045	0.0001176	1331.2	4.725e-06	4.6626e-06	1336	356.19	4.7996e-06	4.4845e-06	409.41	137.28	118.91	41.792	4.8096e-06	51.929	232.960	60.017	59.874	-24.138	142.240	114.713	-24.360	-19.596	173.713	112.705	-20.330	-15.613	-14.772	-10.775	120.828	-11.532	-8191	255	
38466.648	1	1	0	0	0.030148	0.068422	0.27982	0.26021	0.2185	0.15476	0.36641	0.19181	0.2551	0.092191	0.069315	0.1384	0.14373	0.1482	0.10286	0.12999	-1.95	-2.6188	-2.9771	-2.6333	-3.0375	-2.9958	-2.5542	-3.3375	-2.5271	-2.575	-3.3583	-2.4104	-3.0979	-3.0458	-2.3604	-3.35	108.749	103.983	201.423	302.608	20.553	258.768	311.326	305.732	313.962	-7.511	269.211	319.225	149.653	285.395	28.942	249.496	0.00027209	0.00052758	0.0001238	1316.7	3.4132e-06	5.663e-06	1321.9	349.59	1.9022e-06	5.863e-06	402.74	134.27	116.43	40.843	3.9473e-06	50.827	0.00043518	0.00043354	0.00011273	1333.1	4.4983e-06	4.6639e-06	1337.2	356.03	4.7686e-06	4.6628e-06	409.33	137.26	119.01	41.812	5.0183e-06	51.957	236.401	37.171	57.697	-24.390	149.216	121.197	-24.261	-19.359	146.384	115.002	-20.128	-15.064	-14.837	-10.479	127.211	-11.227	-8191	255	
38466.719	1	1	0	0	0.012167	0.078799	0.073135	0.25788	0.050818	0.11364	0.14178	0.067616	0.092924	0.28726	0.083719	0.23449	0.074971	0.091228	0.22897	0.33798	-1.9937	-2.5417	-3.0667	-2.5583	-2.8375	-2.8583	-2.6375	-3.4083	-2.4729	-2.5208	-3.3021	-2.3375	-3.1167	-3.1646	-2.2979	-3.2146	270.547	-10.733	153.441	259.990	48.993	223.195	-9.435	6.415	26.755	59.140	-10.483	245.673	37.101	-24.096	48.102	320.201	0.00024871	0.00052105	0.00014232	1315	4.5485e-06	5.9208e-06	1323.1	348.07	2.2126e-06	4.6985e-06	402.93	134.1	116.34	40.751	3.7638e-06	50.846	0.00041896	0.00043169	0.00011871	1331.3	4.8136e-06	4.8532e-06	1336.8	355.87	4.729e-06	4.7053e-06	409.58	137.27	118.95	41.763	4.7338e-06	51.988	239.890	45.343	54.787	-24.174	159.019	117.094	-24.370	-19.248	175.535	114.391	-19.879	-14.898	-14.745	-10.367	135.402	-11.164	-8191	255	
38466.816	1	1	0	0	0.36735	0.23091	0.16724	0.47715	0.057904	0.19393	0.41279	0.10897	0.16614	0.22702	0.25182	0.36818	0.10314	0.22603	0.20979	0.21904	-2.2917	-2.5542	-3.2375	-2.55	-2.9313	-3.0375	-2.4688	-3.1667	-2.7812	-2.4958	-3.2667	-2.6063	-2.8063	-3.2542	-2.2625	-3.1708	124.877	287.409	120.065	303.187	15.268	152.869	265.074	184.420	191.642	37.254	300.816	222.599	31.415	213.874	53.347	253.251	0.00024896	0.00049963	0.0001232	1314.3	6.5122e-06	3.7997e-06	1322.8	349.9	2.522e-06	4.4792e-06	404.17	134.31	116.27	40.628	6.0411e-06	50.703	0.00041367	0.00045623	0.0001125	1332	4.9404e-06	4.4816e-06	1335.4	355.79	4.6276e-06	4.7835e-06	409.61	137.41	118.99	41.737	4.7465e-06	51.907	235.786	61.100	52.781	-24.147	145.304	99.766	-23.817	-19.103	169.262	116.870	-19.766	-14.860	-14.206	-10.218	115.004	-10.891	-8191	255	
38466.938	1	1	0	0	0.11336	0.17507	0.10509	0.31056	0.12039	0.13473	0.05026	0.2242	0.2103	0.10126	0.19516	0.14574	0.28497	0.38833	0.24475	0.17633	-2.2708	-2.2104	-3.2104	-2.6542	-2.7313	-3.2333	-2.6104	-3.1521	-3.0375	-2.6417	-3.4417	-2.5917	-2.9938	-3.2104	-2.375	-3.1937	23.850	151.532	315.051	-17.956	133.105	78.657	-16.732	-11.673	301.761	123.706	269.786	-18.877	-25.373	309.189	-24.846	212.356	0.00028289	0.00053975	0.00014908	1314.2	3.0347e-06	4.3896e-06	1320.3	349.12	2.7898e-06	4.5055e-06	403.04	133.92	116.47	40.625	3.8193e-06	50.989	0.00042261	0.0004455	0.00011712	1330.8	4.7645e-06	4.479e-06	1336.1	355.53	4.5609e-06	4.731e-06	408.96	137.17	118.99	41.775	4.6743e-06	52.014	237.904	48.674	59.336	-24.075	155.592	126.264	-23.945	-19.161	167.580	117.382	-19.731	-14.880	-14.251	-10.340	126.357	-11.253	-8191	255	
38467.031	1	1	0	0	0.21235	0.17289	0.067832	0.34138	0.078984	0.16989	0.48694	0.41276	0.27564	0.20312	0.10504	0.2419	0.53807	0.1281	0.13109	0.14045	-2.5229	-2.2958	-3.1479	-2.8354	-2.4938	-3.2354	-2.6146	-2.9917	-2.6458	-2.2917	-3.1562	-2.7417	-2.5458	-3.3646	-2.3083	-3.0021	163.796	277.265	222.090	257.522	298.047	175.297	280.798	287.269	55.910	-1.760	276.820	273.309	314.124	194.719	5.076	272.948	0.00025164	0.0006614	0.00014758	1311.4	5.9086e-06	3.4664e-06	1317.4	350.17	4.0679e-06	4.2872e-06	402.84	134.17	116.15	40.676	5.2657e-06	50.872	0.00041735	0.00045146	0.00011605	1330.3	4.7283e-06	4.4562e-06	1331.7	356.04	4.7963e-06	4.6728e-06	409.39	137.19	118.92	41.759	4.7263e-06	52.028	241.690	41.989	43.098	-24.125	145.969	122.399	-24.056	-19.105	164.187	101.485	-19.879	-14.937	-13.985	-10.422	137.273	-10.946	-8191	255	
38467.129	1	1	0	0	0.13096	0.092411	0.093138	0.29111	0.23607	0.12815	0.31853	0.294	0.049735	0.21132	0.25616	0.094249	0.052701	0.089291	0.09598	0.19429	-2.6979	-2.2979	-3.1854	-2.8854	-2.4292	-3.3771	-2.725	-2.9417	-2.9417	-2.2146	-3.2	-2.875	-2.45	-3.2208	-2.4	-2.7625	22.499	264.179	155.959	309.940	-0.343	62.737	267.046	274.745	153.412	81.356	20.603	10.361	31.311	239.351	161.986	300.266	0.00026165	0.00051658	0.00014363	1310.7	5.5465e-06	3.9989e-06	1321.6	348.43	4.9077e-06	4.5451e-06	402.47	134.13	116.19	40.789	5.3943e-06	50.746	0.00041707	0.0004546	0.00011728	1328.8	4.8303e-06	4.5449e-06	1334.1	355.29	4.7659e-06	4.746e-06	408.92	137.12	118.8	41.709	4.6037e-06	51.911	236.015	53.044	54.473	-24.177	136.936	104.138	-24.067	-19.079	153.382	110.175	-19.518	-14.955	-14.309	-10.226	153.864	-11.272	-8191	255	
38467.250	1	1	0	0	0.11213	0.29656	0.031302	0.2582	0.098618	0.084731	0.078784	0.076958	0.090014	0.19148	0.069089	0.20903	0.13327	0.31762	0.18371	0.18789	-2.7458	-2.3729	-3.0062	-3.025	-2.3708	-3.2979	-2.7583	-2.7562	-3.1646	-2.2771	-3.2208	-2.9271	-2.4792	-3.3646	-2.5458	-2.7958	175.209	54.198	-16.394	298.001	3.102	62.737	-18.046	-2.822	159.307	242.299	260.930	242.091	195.287	314.802	320.479	237.674	0.00027694	0.00061619	0.00014137	1310.1	4.8661e-06	3.9227e-06	1319.6	350.03	3.5002e-06	4.73e-06	403.54	134.31	116.48	40.579	5.755e-06	50.953	0.00041237	0.00043848	0.0001186	1327.4	4.9809e-06	4.2613e-06	1332.3	355.7	4.7578e-06	4.7729e-06	409.21	137.29	118.91	41.687	4.6199e-06	51.902	238.148	59.180	57.655	-23.970	154.577	113.552	-23.865	-19.037	159.662	118.535	-20.044	-14.922	-14.529	-9.958	145.806	-10.816	-8191	255	
38467.344	1	1	0	0	0.37321	0.14405	0.24574	0.05145	0.15997	0.18242	0.23999	0.31983	0.21637	0.049151	0.14944	0.09518	0.24727	0.22396	0.1931	0.1743	-2.9896	-2.4	-2.7812	-3.2104	-2.4271	-3.2438	-2.725	-2.5979	-3.1125	-2.3812	-2.9792	-3.1	-2.35	-3.0896	-2.6729	-2.4646	206.858	172.950	96.061	305.822	195.441	-18.350	305.913	236.881	162.776	177.802	233.197	228.688	283.838	292.523	167.428	2.482	0.00026965	0.0003933	0.00013726	1309.6	3.8899e-06	4.5348e-06	1319	350.82	3.0568e-06	4.5244e-06	401.91	133.87	116.38	40.727	5.3147e-06	50.834	0.00042341	0.00044376	0.00011981	1328.9	4.9205e-06	4.5512e-06	1330.9	356.05	4.5495e-06	4.7141e-06	409.38	136.92	118.97	41.741	4.7986e-06	51.971	238.229	40.172	73.724	-23.941	171.206	117.745	-24.011	-18.919	155.663	117.374	-19.899	-14.728	-14.405	-10.139	144.492	-11.016	-8191	255	
38467.418	1	1	0	0	0.086825	0.18978	0.11428	0.082448	0.10358	0.16484	0.066103	0.092848	0.10667	0.11834	0.27371	0.1035	0.051648	0.036433	0.12294	0.20454	-2.9708	-2.4458	-2.8896	-3.1833	-2.0167	-3.0583	-2.9646	-2.4333	-3.1688	-2.4521	-3.0146	-3.2208	-2.3937	-3.2125	-2.7687	-2.4208	287.551	222.194	-9.626	266.129	303.476	116.483	-33.406	111.534	270.949	62.223	306.198	257.422	198.805	204.461	245.868	315.766	0.00024451	0.00049902	0.00014054	1313.1	3.9746e-06	4.8937e-06	1320.4	350.02	3.5969e-06	5.3808e-06	401.88	133.95	115.92	40.56	4.2506e-06	50.727	0.0004053	0.00043899	0.00012204	1328.5	4.765e-06	4.4714e-06	1332.3	355.33	4.6238e-06	4.6397e-06	408.79	137.33	118.77	41.72	4.5459e-06	51.869	241.644	64.031	66.418	-24.017	155.126	117.558	-23.920	-18.828	170.648	119.517	-19.503	-14.848	-14.132	-10.095	127.796	-11.277	-8191	255	
38467.535	1	1	0	0	0.16641	0.41189	0.11915	0.2326	0.14588	0.13657	0.12172	0.47824	0.15435	0.11194	0.24346	0.20472	0.17969	0.35417	0.18588	0.11243	-2.7917	-2.5146	-2.6854	-3.2438	-2.3229	-3.0292	-3.1229	-2.3875	-3.2354	-2.5667	-2.7625	-3.2896	-2.4188	-2.8896	-2.8833	-2.55	245.221	177.690	309.565	241.920	20.924	147.601	203.077	248.965	3.024	242.101	213.701	260.615	319.644	314.666	10.661	159.468	0.00022857	0.00046048	0.00013571	1311.4	5.629e-06	3.8206e-06	1318.8	349.2	3.9906e-06	4.643e-06	403.09	134.1	116.17	40.674	3.9005e-06	50.605	0.00041417	0.0004537	0.00012167	1327.6	4.9059e-06	4.6126e-06	1330.8	355.32	4.5962e-06	4.6559e-06	408.79	137.18	118.73	41.654	4.6743e-06	51.823	236.067	50.493	54.998	-24.058	145.792	103.889	-23.988	-19.053	177.794	118.304	-19.645	-14.869	-14.302	-9.941	137.465	-11.043	-8191	255	
38467.633	1	1	0	0	0.099575	0.19051	0.25264	0.27591	0.14757	0.12068	0.22477	0.20814	0.1586	0.3361	0.27353	0.21459	0.072838	0.16687	0.1513	0.14504	-2.8792	-2.5854	-2.3958	-3.3979	-2.5167	-2.8833	-3.2375	-2.5563	-3.2083	-2.8167	-2.6	-3.2479	-2.525	-2.9062	-3.0792	-2.4625	-35.030	83.376	188.170	-32.729	42.527	260.803	260.317	-10.911	-11.658	300.248	297.208	228.746	45.450	265.888	36.327	-18.437	0.00026618	0.00063751	0.00015443	1313.1	4.4425e-06	4.9339e-06	1317.6	349.22	2.6297e-06	4.5418e-06	402.71	134.47	115.81	40.737	5.5328e-06	50.78	0.00041738	0.00043489	0.00012132	1329	5.1564e-06	4.8677e-06	1331.8	355.22	4.7323e-06	4.5177e-06	408.6	137.09	118.49	41.697	4.643e-06	51.882	241.319	53.668	58.164	-23.602	164.545	108.875	-23.664	-18.885	140.639	107.462	-19.484	-14.658	-14.255	-9.935	131.655	-10.918	-8191	255	
38467.727	1	1	0	0	0.2495	0.17481	0.14278	0.076522	0.2745	0.24361	0.095135	0.16652	0.16555	0.096218	0.16398	0.11647	0.48109	0.19881	0.22471	0.12713	-2.8292	-2.6875	-2.375	-3.4417	-2.4729	-2.8542	-3.1896	-2.7313	-3.1292	-2.85	-2.3646	-3.3979	-2.5667	-2.6396	-3.0438	-2.3292	-21.265	124.579	87.505	242.595	90.584	52.605	213.862	194.374	259.609	188.003	-10.515	299.705	-22.527	212.104	272.463	264.209	0.00025491	0.00041814	0.00013086	1310.7	4.9666e-06	4.8258e-06	1320	349.32	4.4893e-06	4.4442e-06	402.45	134.52	115.92	40.68	3.2374e-06	50.731	0.00041165	0.00043248	0.00012083	1327.7	4.9939e-06	4.7399e-06	1331.3	355.24	4.6488e-06	4.6196e-06	408.6	137.53	118.63	41.778	4.5893e-06	51.855	238.577	62.024	65.406	-23.669	157.827	111.309	-23.789	-18.815	172.756	128.337	-19.520	-14.570	-14.259	-10.206	146.545	-10.937	-8191	255	
38467.848	1	1	0	0	0.23059	0.26475	0.12361	0.25845	0.13375	0.14414	0.10404	0.1748	0.19135	0.16005	0.18707	0.05243	0.10485	0.044844	0.18272	0.084684	-2.5979	-3.0208	-2.3458	-3.4688	-2.4437	-2.5417	-3.3229	-2.5104	-2.8458	-3.0208	-2.4896	-3.1979	-2.7542	-2.6958	-3.125	-2.6854	238.421	94.572	27.569	291.192	31.880	258.515	239.305	264.887	262.018	178.071	-14.080	276.386	-17.731	-20.704	1.053	24.845	0.00025163	0.00051427	0.00015955	1313.4	4.4435e-06	5.4369e-06	1319.8	349.18	2.9089e-06	4.7434e-06	401.33	134.24	116.16	40.834	5.187e-06	50.715	0.00042348	0.00043759	0.00012545	1330.4	4.948e-06	5.0108e-06	1331.7	355.46	4.8256e-06	4.5026e-06	408.58	137.24	119.01	41.817	4.595e-06	51.838	242.428	55.344	47.351	-23.738	142.495	108.505	-23.787	-18.778	174.398	115.189	-19.582	-14.431	-14.368	-10.005	139.318	-11.027	-8191	255	
38467.945	1	1	0	0	0.22438	0.26879	0.29848	0.28344	0.12497	0.19878	0.22731	0.27627	0.068535	0.11197	0.2161	0.20834	0.14613	0.1988	0.19603	0.12767	-2.6	-2.7687	-2.1042	-3.3708	-2.7375	-2.5042	-3.4396	-2.5271	-2.7812	-3.0938	-2.6396	-3.3667	-2.9979	-2.6458	-3.1146	-2.5208	160.850	51.017	83.820	261.934	207.740	113.886	252.618	240.625	96.047	282.296	305.714	259.032	269.908	313.052	-9.408	226.409	0.00026933	0.00044115	0.00014283	1317.7	4.6129e-06	5.1654e-06	1317.9	348.74	3.9327e-06	5.2568e-06	402.34	134.62	115.74	40.765	5.1323e-06	51.026	0.00042668	0.00043888	0.00012358	1331	4.8497e-06	4.9583e-06	1333.1	355.15	4.7529e-06	4.6159e-06	408.38	137.4	118.55	41.759	4.4071e-06	51.994	241.027	54.078	58.335	-23.972	139.913	111.283	-23.814	-19.029	162.776	129.162	-19.525	-14.396	-14.079	-9.718	144.370	-10.860	-8191	255	
38468.016	1	1	0	0	0.06923	0.059569	0.12521	0.14028	0.068439	0.11213	0.072129	0.017617	0.01525	0.25166	0.10239	0.20582	0.12338	0.18675	0.20194	0.16475	-2.3021	-3.0729	-2.0792	-3.0625	-2.7542	-2.3771	-3.3229	-2.6667	-2.6292	-3.0771	-2.3104	-3.05	-2.8	-2.2604	-3.2479	-2.5958	312.543	133.163	290.018	-36.673	43.361	272.675	284.035	76.986	155.514	-30.531	171.449	-27.464	251.170	272.663	60.904	172.899	0.00026583	0.00041659	0.00014326	1312.2	5.6911e-06	5.1166e-06	1323.2	349.13	2.8275e-06	4.1413e-06	401.35	134.5	116.68	40.47	4.0712e-06	50.762	0.00042304	0.00043315	0.00011824	1328.1	4.8195e-06	4.6652e-06	1332	355.26	4.8706e-06	4.4044e-06	408.49	137.25	118.96	41.64	4.6494e-06	51.866	241.162	66.211	64.778	-23.857	155.681	108.588	-24.154	-19.116	156.978	112.907	-19.773	-14.778	-14.410	-10.198	141.595	-11.024	-8191	255	
38468.113	1	1	0	0	0.15506	0.039716	0.042876	0.10052	0.22978	0.17644	0.17997	0.19758	0.098944	0.24065	0.13821	0.087928	0.18844	0.19651	0.079017	0.26287	-2.1917	-3.1604	-2.1479	-3.2062	-2.8979	-2.1958	-3.4146	-2.8875	-2.4771	-3.1208	-2.4333	-2.9104	-2.8812	-2.2146	-3.0854	-2.9917	46.797	207.056	115.360	258.842	291.204	31.018	280.769	-20.934	128.161	-10.010	277.625	274.650	257.775	279.192	281.802	276.697	0.00026792	0.00051659	0.0001266	1310.4	3.7971e-06	4.0308e-06	1319.9	348.67	3.8964e-06	4.4017e-06	402.97	134.3	116.11	40.523	5.6497e-06	50.92	0.00043543	0.00040838	0.00012202	1328.5	4.9178e-06	4.8405e-06	1333.5	355.16	4.6922e-06	4.487e-06	409.19	137.09	118.81	41.725	4.6864e-06	51.937	237.995	56.266	53.900	-23.947	151.344	108.550	-23.876	-19.124	161.308	114.090	-19.848	-14.880	-14.542	-10.147	126.609	-11.035	-8191	255	
38468.211	1	1	0	0	0.32305	0.23053	0.17248	0.0075567	0.10635	0.13122	0.23692	0.16569	0.2091	0.31264	0.19351	0.27627	0.19908	0.15714	0.071218	0.098845	-1.9958	-3.0542	-2.2875	-2.9646	-3.1042	-2.525	-3.3521	-2.8167	-2.5021	-3.1979	-2.5	-2.7417	-3.0979	-2.2646	-3.0458	-2.825	-34.581	234.158	235.709	200.387	-19.908	201.730	295.068	250.978	2.010	56.352	296.998	292.413	-2.753	251.161	-11.546	284.542	0.00026569	0.00051714	0.00013774	1313	6.4688e-06	4.1933e-06	1322.6	349.6	5.2206e-06	4.8677e-06	403.21	134.2	116.11	40.608	4.2457e-06	50.866	0.0004283	0.00042169	0.00011742	1330.4	4.8157e-06	4.9165e-06	1333.4	355.82	5.1586e-06	4.6666e-06	408.91	137.43	118.88	41.693	4.5864e-06	51.88	243.039	51.406	56.073	-23.768	147.110	124.066	-23.587	-18.516	171.462	120.344	-19.522	-14.470	-14.291	-9.931	130.247	-10.734	-8191	255	
38468.328	1	1	0	0	0.022591	0.0874	0.18748	0.22697	0.12672	0.16973	0.34127	0.20709	0.075043	0.21697	0.16898	0.077499	0.18424	0.14763	0.098885	0.28499	-1.8708	-3.1875	-2.4021	-2.5854	-3.3479	-2.2854	-3.1917	-3.0479	-2.1333	-3.2583	-2.5542	-2.7458	-3.2708	-2.3021	-2.8104	-3.1063	92.254	71.666	102.668	314.697	280.157	97.946	219.130	-31.610	277.849	238.985	178.622	89.548	238.187	-2.360	46.992	213.729	0.00026245	0.00048491	0.00015072	1317	5.9883e-06	5.2742e-06	1326.9	350.55	3.0316e-06	6.4154e-06	402.27	133.83	115.99	40.735	4.9402e-06	50.715	0.00042432	0.0004172	0.00012061	1332.1	4.8384e-06	4.9247e-06	1334.1	355.76	4.9032e-06	4.7254e-06	409.21	137.2	118.56	41.755	4.7876e-06	51.852	245.536	55.272	49.900	-23.424	152.972	121.007	-23.565	-18.833	171.841	100.965	-19.601	-14.473	-14.307	-9.919	125.849	-10.942	-8191	255	
38468.426	1	1	0	0	0.11006	0.10315	0.26916	0.40104	0.17416	0.17307	0.26222	0.17734	0.084607	0.093044	0.21688	0.33956	0.22233	0.19792	0.17163	0.14932	-1.85	-3.175	-2.5958	-2.9188	-3.2438	-2.2854	-3.1437	-3.0208	-2.2313	-3.0938	-2.7729	-2.7292	-3.1271	-2.625	-2.7396	-2.9479	-8.863	-9.924	29.109	282.003	163.684	268.322	242.219	-24.112	71.534	187.397	210.765	288.155	6.906	265.191	199.590	115.524	0.00024651	0.00066763	0.00013549	1314.1	5.675e-06	3.9207e-06	1318.2	350.38	3.266e-06	3.4634e-06	402.18	134.01	116.3	40.565	5.0167e-06	50.761	0.00042373	0.00043354	0.00012552	1331	4.7785e-06	5.0026e-06	1334.1	355.6	4.9227e-06	4.6622e-06	409	137.16	118.87	41.72	4.8443e-06	51.863	236.910	47.519	53.588	-23.756	137.115	112.850	-23.634	-18.670	167.984	122.866	-19.494	-14.525	-14.043	-9.743	132.812	-10.610	-8191	255	
38468.520	1	1	0	0	0.16944	0.24342	0.066589	0.24829	0.16317	0.29906	0.16275	0.39523	0.11725	0.15052	0.20664	0.21973	0.23789	0.069626	0.19402	0.12583	-2.0208	-3.1625	-2.7021	-2.5625	-3.1104	-2.3812	-2.9833	-3.1521	-2.0687	-3.0667	-2.7042	-2.425	-3.4104	-2.3937	-2.7021	-3.15	15.712	252.268	278.812	296.475	100.279	179.094	214.655	309.891	103.428	2.200	304.580	286.666	199.464	256.466	216.028	11.800	0.00027292	0.00049862	0.00013158	1318.2	5.4904e-06	5.2792e-06	1325.2	349.6	4.2007e-06	3.6802e-06	402.15	134.47	116.55	40.528	5.6083e-06	50.811	0.00043483	0.00040698	0.00011942	1332.1	4.9674e-06	4.914e-06	1337	355.76	4.9205e-06	4.6872e-06	409	137.44	119.03	41.736	4.9108e-06	51.943	236.471	66.469	61.907	-23.689	145.560	117.016	-23.596	-18.438	149.894	115.228	-19.751	-14.785	-14.197	-10.229	142.497	-10.808	-8191	255	
38468.617	1	1	0	0	0.24147	0.061034	0.27448	0.1646	0.28928	0.12569	0.21666	0.37534	0.2643	0.22629	0.22765	0.24279	0.2691	0.20006	0.21435	0.23222	-1.9188	-3.0625	-2.8333	-2.6104	-3.0833	-2.5625	-2.7417	-3.3063	-2.1021	-3.0542	-2.8646	-2.4938	-3.1208	-2.6354	-2.525	-3.2562	127.573	76.449	270.228	233.121	84.526	315.370	294.042	254.891	11.042	32.204	13.357	246.650	279.834	259.592	40.738	283.953	0.00024394	0.0004939	0.00014781	1316.4	4.3367e-06	4.7564e-06	1323.9	348.63	3.4056e-06	3.5834e-06	402.22	134.57	116.27	40.339	3.6993e-06	50.922	0.00042995	0.00043169	0.00011851	1331.7	4.7089e-06	4.8336e-06	1335.9	355.42	4.9726e-06	4.4201e-06	409.27	137.37	118.87	41.623	5.0195e-06	52.023	238.186	59.391	64.968	-23.902	151.170	109.260	-23.731	-18.981	154.286	100.058	-19.633	-14.663	-14.454	-10.000	147.421	-10.818	-8191	255	
38468.711	1	1	0	0	0.32116	0.17911	0.10821	0.20217	0.12203	0.10291	0.1749	0.30191	0.40855	0.17854	0.32829	0.30298	0.16898	0.27278	0.21446	0.33407	-1.9813	-2.8021	-2.9458	-2.5938	-2.9375	-2.5396	-2.6708	-3.1354	-2.2771	-2.7396	-3.0917	-2.2375	-3.2208	-2.85	-2.2562	-3.2333	11.687	84.820	217.601	241.959	136.830	143.335	238.906	240.413	58.140	33.610	290.322	279.194	295.614	-2.802	157.224	-13.670	0.00026201	0.00049929	0.0001272	1318.6	5.5814e-06	3.7074e-06	1318.4	348.86	2.4463e-06	4.6553e-06	403.37	134.27	116.46	40.568	4.2028e-06	50.764	0.00043854	0.00043961	0.00011992	1331.8	4.8309e-06	4.8589e-06	1333.6	355.37	4.8755e-06	4.7379e-06	409.41	137.25	119.02	41.746	4.9166e-06	51.874	243.135	53.345	44.033	-23.865	151.927	119.433	-23.895	-19.104	136.889	115.217	-20.003	-14.871	-14.280	-10.242	139.484	-11.101	-8191	255	
38468.809	1	1	0	0	0.068609	0.10883	0.060826	0.10938	0.12346	0.13409	0.20607	0.31959	0.083524	0.25087	0.075499	0.082949	0.21703	0.23255	0.24599	0.19079	-1.8333	-2.6958	-2.8417	-2.5958	-3.0958	-2.675	-2.5625	-3.275	-2.4833	-2.5583	-3.2021	-2.4396	-3.0604	-2.9062	-2.2958	-3.2479	111.939	309.112	96.301	228.493	266.371	-17.726	253.002	190.965	217.413	168.677	151.208	249.054	133.752	273.450	142.901	200.005	0.00024725	0.00054385	0.00013885	1314.6	3.7304e-06	4.6111e-06	1318.7	349.49	3.9476e-06	3.6383e-06	400.83	134.18	116.22	40.766	6.506e-06	50.649	0.00042665	0.00042911	0.00011412	1330	4.7407e-06	4.6031e-06	1332	355.26	4.9916e-06	4.6159e-06	408.41	137.13	118.72	41.718	4.7639e-06	51.936	240.050	56.005	67.207	-23.960	141.115	107.897	-23.735	-18.809	163.220	117.824	-19.476	-14.761	-14.336	-10.332	121.502	-10.966	-8191	255	
38468.930	1	1	0	0	0.098543	0.16379	0.04694	0.36181	0.056256	0.18237	0.36981	0.081057	0.070497	0.25665	0.13947	0.12428	0.14228	0.32575	0.16487	0.17525	-1.8458	-2.5687	-3.0479	-2.4667	-2.95	-2.8896	-2.5021	-3.4271	-2.4396	-2.5521	-3.3979	-2.4542	-3.2188	-3.0667	-2.3646	-3.0854	143.583	241.212	193.197	279.541	321.299	201.205	207.365	-29.035	8.532	-10.195	-17.252	274.616	28.064	291.064	316.206	-23.712	0.00026967	0.00043181	0.00014193	1309.3	5.7565e-06	4.8133e-06	1317.7	350.27	3.4603e-06	3.94e-06	400.69	133.73	116.47	40.719	4.0828e-06	50.606	0.00042257	0.00043792	0.00011511	1327	4.8638e-06	4.6354e-06	1331.2	355.51	4.8701e-06	4.7979e-06	407.84	136.87	118.7	41.674	4.8073e-06	51.845	238.846	67.649	45.254	-23.883	135.611	120.947	-23.841	-19.077	161.381	124.934	-19.807	-14.740	-14.358	-10.144	134.858	-11.012	-8191	255	
38469.023	1	1	0	0	0.12089	0.1374	0.15547	0.13607	0.12727	0.14847	0.20041	0.16733	0.13341	0.20276	0.14038	0.26479	0.10529	0.21871	0.11709	0.2504	-2.0792	-2.5521	-3.1042	-2.5979	-2.9354	-2.9813	-2.4917	-3.2083	-2.6979	-2.4292	-3.3042	-2.5396	-2.9333	-3.1229	-2.2687	-3.1937	5.612	197.814	241.932	278.567	237.804	302.192	223.136	226.972	253.483	51.385	25.280	55.961	163.122	320.694	181.576	227.513	0.00027388	0.00045112	0.00014727	1305.8	4.8432e-06	3.9373e-06	1314.9	350.03	3.5613e-06	4.9605e-06	401.56	133.86	116.01	40.54	5.0633e-06	50.924	0.00042914	0.00044674	0.00012089	1323.8	4.6479e-06	4.3891e-06	1327	355.44	4.6851e-06	4.5371e-06	408.01	137.03	118.52	41.604	4.8466e-06	51.87	236.785	48.189	63.288	-23.858	144.269	109.504	-23.772	-18.757	156.209	109.420	-19.636	-14.410	-14.283	-10.122	154.723	-10.636	-8191	255	
38469.121	1	1	0	0	0.14461	0.23718	0.1698	0.14643	0.042214	0.1908	0.12409	0.29933	0.12615	0.089107	0.27406	0.23901	0.3039	0.24897	0.26038	0.081706	-2.3354	-2.3542	-3.2458	-2.7354	-2.6979	-3.1312	-2.3208	-3.1833	-2.9375	-2.2521	-3.3208	-2.5958	-2.7812	-3.2687	-2.3667	-3.0083	198.461	111.385	125.822	285.424	176.901	77.777	302.149	281.943	277.616	35.994	102.366	260.963	16.304	302.397	262.701	89.426	0.00025088	0.00049585	0.00012496	1309.3	4.913e-06	4.4591e-06	1316	347.58	4.2694e-06	3.2858e-06	401	133.91	115.65	40.629	6.5677e-06	50.513	0.00041405	0.00043051	0.00011256	1323.3	4.7952e-06	4.5417e-06	1328.1	354.47	4.7345e-06	4.7041e-06	408.21	136.75	118.48	41.678	4.8489e-06	51.844	238.718	36.736	64.056	-23.823	152.173	111.917	-23.528	-18.610	148.105	114.658	-19.332	-14.586	-14.310	-9.901	136.689	-10.599	-8191	255	
#DATA ENDS
