BOXY.EXE: ISS Imagent and Oximeter Data Acquisition Program Version 0.80
Ascii Record File

#ACQ INFORMATION
2  Detector Channels 
16  External MUX Channels 
1  Auxiliary Channels 
5000  Waveform (CCF) Frequency (Hz)
1  Waveforms Skipped 
30  Waveforms Averaged 
1  Cycles Averaged 
16  Acquisitions per Waveform 
10.0806  Updata Rate (Hz) 

#FILE INFORMATION
TRUE -- External MUX Channel results are PARSED.
FALSE -- AC DC and Phase are NOT grouped.
TRUE -- Companion Program Settings File CREATED.
FALSE -- AC data not excluded
FALSE -- DC data not excluded
FALSE -- Phase data not excluded
FALSE -- Auxillary Chn. data not excluded
Tab delimiters

#CALIBRATION STATE
TRUE -- Waveform Calibration Values APPLIED.


#AUX CALIBRATION VALUES
Val Type	aux-1	

Term	1.0000e+00	
Factor	0.0000e+00	


#WF CALIBRATION VALUES
A = Detector Channel
Val Type	A-AC1	A-AC2	A-AC3	A-AC4	A-AC5	A-AC6	A-AC7	A-AC8	A-AC9	A-AC10	A-AC11	A-AC12	A-AC13	A-AC14	A-AC15	A-AC16	A-DC1	A-DC2	A-DC3	A-DC4	A-DC5	A-DC6	A-DC7	A-DC8	A-DC9	A-DC10	A-DC11	A-DC12	A-DC13	A-DC14	A-DC15	A-DC16	A-Ph1	A-Ph2	A-Ph3	A-Ph4	A-Ph5	A-Ph6	A-Ph7	A-Ph8	A-Ph9	A-Ph10	A-Ph11	A-Ph12	A-Ph13	A-Ph14	A-Ph15	A-Ph16	

Term	0.00000e+00	0.00000e+00	0.00000e+00	0.00000e+00	0.00000e+00	0.00000e+00	0.00000e+00	0.00000e+00	0.00000e+00	0.00000e+00	0.00000e+00	0.00000e+00	0.00000e+00	0.00000e+00	0.00000e+00	0.00000e+00	0.00000e+00	0.00000e+00	0.00000e+00	0.00000e+00	0.00000e+00	0.00000e+00	0.00000e+00	0.00000e+00	0.00000e+00	0.00000e+00	0.00000e+00	0.00000e+00	0.00000e+00	0.00000e+00	0.00000e+00	0.00000e+00	0.00000e+00	0.00000e+00	0.00000e+00	0.00000e+00	0.00000e+00	0.00000e+00	0.00000e+00	0.00000e+00	0.00000e+00	0.00000e+00	0.00000e+00	0.00000e+00	0.00000e+00	0.00000e+00	0.00000e+00	0.00000e+00	
Factor	1.00000e+00	1.00000e+00	1.00000e+00	1.00000e+00	1.00000e+00	1.00000e+00	1.00000e+00	1.00000e+00	1.00000e+00	1.00000e+00	1.00000e+00	1.00000e+00	1.00000e+00	1.00000e+00	1.00000e+00	1.00000e+00	1.00000e+00	1.00000e+00	1.00000e+00	1.00000e+00	1.00000e+00	1.00000e+00	1.00000e+00	1.00000e+00	1.00000e+00	1.00000e+00	1.00000e+00	1.00000e+00	1.00000e+00	1.00000e+00	1.00000e+00	1.00000e+00	X	X	X	X	X	X	X	X	X	X	X	X	X	X	X	X	

B = Detector Channel
Val Type	B-AC1	B-AC2	B-AC3	B-AC4	B-AC5	B-AC6	B-AC7	B-AC8	B-AC9	B-AC10	B-AC11	B-AC12	B-AC13	B-AC14	B-AC15	B-AC16	B-DC1	B-DC2	B-DC3	B-DC4	B-DC5	B-DC6	B-DC7	B-DC8	B-DC9	B-DC10	B-DC11	B-DC12	B-DC13	B-DC14	B-DC15	B-DC16	B-Ph1	B-Ph2	B-Ph3	B-Ph4	B-Ph5	B-Ph6	B-Ph7	B-Ph8	B-Ph9	B-Ph10	B-Ph11	B-Ph12	B-Ph13	B-Ph14	B-Ph15	B-Ph16	

Term	0.00000e+00	0.00000e+00	0.00000e+00	0.00000e+00	0.00000e+00	0.00000e+00	0.00000e+00	0.00000e+00	0.00000e+00	0.00000e+00	0.00000e+00	0.00000e+00	0.00000e+00	0.00000e+00	0.00000e+00	0.00000e+00	0.00000e+00	0.00000e+00	0.00000e+00	0.00000e+00	0.00000e+00	0.00000e+00	0.00000e+00	0.00000e+00	0.00000e+00	0.00000e+00	0.00000e+00	0.00000e+00	0.00000e+00	0.00000e+00	0.00000e+00	0.00000e+00	-2.84052e+01	-1.28238e+02	-1.23055e+02	-1.81347e+02	-4.90151e+01	-6.44906e+01	-1.58583e+02	-1.62015e+02	-3.30316e+01	-6.71694e+01	-1.70474e+02	-1.69975e+02	-1.81443e+02	-1.76799e+02	-5.34590e+01	-1.49645e+02	
Factor	2.60320e-05	1.63302e-04	4.34181e-05	1.49363e-01	1.92631e-06	1.64092e-06	1.64229e-01	5.54761e-02	1.53204e-06	1.58752e-06	8.65546e-02	3.10973e-02	2.68888e-02	9.37520e-03	1.83265e-06	1.32400e-02	1.49363e-05	2.69560e-05	7.46987e-06	7.68193e-02	2.59114e-07	3.03878e-07	7.93361e-02	2.86037e-02	2.60344e-07	3.00301e-07	4.33358e-02	1.55925e-02	1.39820e-02	4.88742e-03	2.77576e-07	6.67928e-03	X	X	X	X	X	X	X	X	X	X	X	X	X	X	X	X	



#DISTANCE SETTINGS
A = Detector Channel
A-1	A-2	A-3	A-4	A-5	A-6	A-7	A-8	A-9	A-10	A-11	A-12	A-13	A-14	A-15	A-16	

2.5000e+00	3.0000e+00	2.5000e+00	3.0000e+00	2.0000e+00	3.0000e+00	1.5000e+00	3.0000e+00	3.0000e+00	3.0000e+00	3.0000e+00	3.0000e+00	3.0000e+00	3.0000e+00	1.5000e+00	3.0000e+00	

B = Detector Channel
B-1	B-2	B-3	B-4	B-5	B-6	B-7	B-8	B-9	B-10	B-11	B-12	B-13	B-14	B-15	B-16	

1.0000e+01	1.0000e+01	1.0000e+01	1.4400e+00	1.0000e+01	1.0000e+01	1.5100e+00	1.9400e+00	1.0000e+01	1.0000e+01	1.9900e+00	2.4900e+00	2.4100e+00	2.9000e+00	1.0000e+01	2.9800e+00	




#DATA BEGINS
time	group	step	mark	flag	A-AC1	A-AC2	A-AC3	A-AC4	A-AC5	A-AC6	A-AC7	A-AC8	A-AC9	A-AC10	A-AC11	A-AC12	A-AC13	A-AC14	A-AC15	A-AC16	A-DC1	A-DC2	A-DC3	A-DC4	A-DC5	A-DC6	A-DC7	A-DC8	A-DC9	A-DC10	A-DC11	A-DC12	A-DC13	A-DC14	A-DC15	A-DC16	A-Ph1	A-Ph2	A-Ph3	A-Ph4	A-Ph5	A-Ph6	A-Ph7	A-Ph8	A-Ph9	A-Ph10	A-Ph11	A-Ph12	A-Ph13	A-Ph14	A-Ph15	A-Ph16	B-AC1	B-AC2	B-AC3	B-AC4	B-AC5	B-AC6	B-AC7	B-AC8	B-AC9	B-AC10	B-AC11	B-AC12	B-AC13	B-AC14	B-AC15	B-AC16	B-DC1	B-DC2	B-DC3	B-DC4	B-DC5	B-DC6	B-DC7	B-DC8	B-DC9	B-DC10	B-DC11	B-DC12	B-DC13	B-DC14	B-DC15	B-DC16	B-Ph1	B-Ph2	B-Ph3	B-Ph4	B-Ph5	B-Ph6	B-Ph7	B-Ph8	B-Ph9	B-Ph10	B-Ph11	B-Ph12	B-Ph13	B-Ph14	B-Ph15	B-Ph16	aux-1	digaux	

38432.410	1	1	0	256	0.14849	0.14793	0.011889	0.13926	0.12161	0.19242	0.31319	0.056142	0.15968	0.06165	0.083114	0.21722	0.17908	0.1887	0.20547	0.16532	-2.7604	-2.4396	-2.8854	-3.1312	-2.2333	-3.0292	-2.9104	-2.5542	-3.1312	-2.3958	-2.9313	-3.0958	-2.3729	-3.0729	-2.6292	-2.5125	-17.308	264.664	134.222	315.548	171.042	91.023	215.024	248.546	291.568	175.940	312.286	-31.812	243.022	150.605	276.631	121.424	0.00016314	0.00037907	9.8052e-05	1102.2	2.9964e-06	3.3641e-06	1207.9	228.89	1.7827e-06	3.2274e-06	293.29	83.301	64.889	19.424	3.6612e-06	27.431	0.00023018	0.0002658	6.7633e-05	1086.8	3.1169e-06	2.733e-06	1188.6	226.53	2.6615e-06	2.7584e-06	291.22	83.989	65.225	19.661	2.4907e-06	27.662	237.972	49.007	53.673	-22.606	163.962	146.976	-22.629	-15.023	184.925	129.872	-15.326	-8.228	-7.868	-0.834	94.266	-1.423	-8191	255	
38432.484	1	1	0	0	0.19766	0.060836	0.14296	0.11681	0.34266	0.18779	0.093587	0.21613	0.1198	0.13648	0.17799	0.12924	0.20646	0.25695	0.029143	0.088372	-2.9208	-2.3729	-2.6604	-3.2958	-2.4562	-3.3875	-2.9583	-2.65	-3.2729	-2.4562	-2.6792	-3.2313	-2.3937	-2.9875	-2.8229	-2.4813	142.119	49.467	133.208	8.862	167.401	267.999	-28.070	25.410	156.929	29.185	144.165	185.738	57.807	21.940	38.084	320.569	0.00015961	0.00034528	7.0555e-05	1096.7	2.627e-06	3.4493e-06	1201	226.48	2.3899e-06	2.5086e-06	289.82	83.328	64.4	19.343	3.4495e-06	27.13	0.00022062	0.00025619	6.5564e-05	1076.7	2.9409e-06	2.6102e-06	1180.7	225.18	2.5362e-06	2.6564e-06	288.5	83.584	64.697	19.53	2.637e-06	27.373	241.168	57.979	61.285	-22.675	140.297	145.383	-22.554	-14.846	172.291	120.417	-15.350	-8.106	-7.811	-0.898	130.280	-1.733	-8191	255	
38432.605	1	1	0	0	0.089391	0.069706	0.23905	0.14961	0.071987	0.078019	0.206	0.16932	0.14698	0.087571	0.095413	0.12004	0.25599	0.22552	0.15169	0.19653	-2.7729	-2.6625	-2.525	-3.2333	-2.4104	-3.025	-3.2896	-2.3646	-3.0062	-2.5708	-2.625	-3.2104	-2.3125	-2.9604	-2.9854	-2.2771	187.785	308.151	249.738	224.757	284.113	232.288	272.581	217.362	112.304	41.595	237.423	22.044	48.443	2.380	261.754	16.619	0.00015343	0.00034556	4.9161e-05	1087.7	4.2469e-06	2.081e-06	1188.2	223.33	1.9302e-06	2.5009e-06	289.12	82.041	64.264	19.081	2.8977e-06	27.015	0.00023049	0.00024395	6.8552e-05	1069.9	3.1644e-06	2.652e-06	1171.3	221.73	2.6392e-06	2.7941e-06	286.11	82.652	64.326	19.396	2.7526e-06	27.278	238.204	30.145	69.562	-22.533	147.850	103.579	-22.491	-14.998	187.758	139.728	-15.140	-7.916	-7.508	-1.232	134.756	-1.671	-8191	255	
38432.699	1	1	0	0	0.12661	0.23062	0.16391	0.16865	0.10636	0.28041	0.32437	0.2141	0.23171	0.03159	0.097605	0.15769	0.13831	0.0849	0.078274	0.10713	-2.7917	-2.7042	-2.4813	-3.3708	-2.3542	-2.95	-3.2917	-2.4583	-3.1354	-2.7896	-2.5479	-3.1292	-2.4729	-2.8042	-3.2146	-2.2854	252.003	29.556	271.227	248.387	15.867	304.476	-7.899	270.433	-1.779	273.975	-12.729	228.103	-23.237	308.609	128.332	242.606	0.00015061	0.00027283	7.0516e-05	1085.5	3.1993e-06	3.9651e-06	1198.4	224.3	2.8518e-06	2.6139e-06	288.59	82.366	64.159	19.188	2.7447e-06	27.202	0.00023148	0.0002389	7.2006e-05	1070.3	3.2082e-06	2.6285e-06	1174.7	222.51	2.7732e-06	2.6883e-06	286.45	83.127	64.439	19.469	2.6925e-06	27.424	229.448	43.697	56.953	-22.631	151.498	117.733	-22.585	-14.793	168.243	106.924	-15.533	-8.094	-7.903	-1.049	110.449	-1.551	-8191	255	
38432.797	1	1	0	0	0.1419	0.097165	0.14418	0.23917	0.25998	0.12409	0.22782	0.043869	0.087159	0.20046	0.24422	0.25862	0.071379	0.17158	0.16135	0.1625	-2.6833	-2.7542	-2.1875	-3.4271	-2.4104	-2.5979	-3.2542	-2.2625	-2.9458	-2.825	-2.5229	-3.2917	-2.4271	-2.4917	-3.1167	-2.4833	234.666	65.596	161.649	276.369	73.503	255.393	228.754	5.893	193.715	266.357	258.871	251.426	309.799	324.080	325.916	-21.926	0.00016352	0.00015911	7.4368e-05	1089.5	2.0242e-06	2.1374e-06	1196.3	223.49	2.3558e-06	2.7572e-06	288.48	82.155	64.082	19.111	3.5072e-06	27.216	0.00023764	0.00025664	7.1275e-05	1072.8	2.962e-06	2.6596e-06	1175.1	222.31	2.7352e-06	2.6652e-06	286.71	82.851	64.243	19.437	2.7116e-06	27.441	236.696	44.044	76.228	-22.575	156.518	95.962	-22.761	-14.695	168.413	121.059	-15.002	-8.317	-7.783	-0.755	113.733	-1.612	-8191	255	
38432.891	1	1	0	0	0.20224	0.17719	0.17683	0.30108	0.043513	0.11716	0.17925	0.036338	0.19231	0.23187	0.094357	0.08421	0.2912	0.18169	0.15502	0.15743	-2.5438	-3.0646	-2.2562	-3.4708	-2.8812	-2.5583	-3.4271	-2.5354	-2.9417	-2.9938	-2.4062	-3.225	-2.6333	-2.5438	-3.2604	-2.3292	-15.374	-28.903	231.269	-12.738	237.019	113.378	297.830	62.434	322.185	-10.026	155.250	-4.776	246.180	319.556	147.903	258.201	0.00014473	0.00030007	9.52e-05	1085.2	3.2893e-06	3.9783e-06	1196.1	223.58	2.1428e-06	2.5418e-06	287.28	83.229	64.193	19.178	2.2024e-06	27.15	0.00023326	0.00025086	7.2255e-05	1073.1	2.9917e-06	3.0483e-06	1176.3	222.28	2.7049e-06	2.4149e-06	286.34	83.345	64.337	19.406	2.5381e-06	27.338	236.780	74.313	63.805	-22.432	146.718	134.680	-22.465	-14.712	175.589	130.522	-15.316	-7.949	-7.702	-0.815	149.768	-1.525	-8191	255	
38433.012	1	1	0	0	0.044422	0.21609	0.11783	0.21849	0.30528	0.20168	0.18656	0.2538	0.12394	0.28421	0.15569	0.13216	0.14929	0.046563	0.38689	0.13202	-2.6542	-3.0812	-2.1937	-3.2771	-2.6354	-2.3875	-3.3292	-2.4292	-2.7021	-3.1958	-2.4062	-3.1854	-2.6813	-2.425	-3.2354	-2.5542	214.673	4.002	61.260	-31.489	19.425	32.395	284.886	199.327	108.089	239.000	152.849	44.744	276.950	287.298	205.933	135.762	0.00014824	0.00031399	0.00010724	1090.2	4.3087e-06	3.3239e-06	1191.2	223.43	1.8621e-06	2.757e-06	288.61	82.603	64.186	19.13	2.4782e-06	27.11	0.00024051	0.00024451	7.3703e-05	1072.1	2.8918e-06	2.9039e-06	1173.1	222.02	2.9202e-06	2.4781e-06	286.02	82.963	64.314	19.346	2.6063e-06	27.279	237.934	54.219	41.445	-22.344	142.420	123.313	-22.575	-14.692	161.505	120.021	-15.263	-7.647	-7.798	-0.706	140.606	-1.462	-8191	255	
38433.086	1	1	0	0	0.073628	0.26406	0.070202	0.24541	0.10599	0.12041	0.11394	0.054634	0.22746	0.072772	0.27646	0.27349	0.27413	0.12925	0.10259	0.071589	-2.1292	-3.0083	-2.3187	-3.1979	-2.8187	-2.1937	-3.2583	-2.4396	-2.6833	-3.1188	-2.3125	-2.8896	-2.9604	-2.4521	-3.0708	-2.6479	144.703	154.278	27.551	-21.396	216.423	192.005	289.034	80.110	253.582	221.354	-18.357	285.311	-32.001	9.680	-9.071	210.010	0.00016361	0.00030295	5.2969e-05	1091.6	3.8205e-06	1.8459e-06	1193.6	224.46	2.2028e-06	2.686e-06	288.14	82.517	64.08	19.206	3.6171e-06	27.009	0.00023755	0.00021862	7.1664e-05	1072.2	2.8794e-06	2.8754e-06	1173.5	222.64	2.7851e-06	2.3843e-06	286.02	83.167	64.309	19.368	2.5994e-06	27.228	233.785	61.530	50.445	-22.454	154.920	125.089	-22.473	-15.034	156.853	121.872	-15.001	-7.745	-7.748	-0.479	142.479	-1.518	-8191	255	
38433.203	1	1	0	0	0.10097	0.20489	0.11562	0.33334	0.048331	0.11192	0.22305	0.087709	0.22315	0.10151	0.066609	0.27939	0.072291	0.090287	0.21251	0.1075	-2.1417	-3.1083	-2.225	-2.9458	-2.9188	-2.575	-3.2125	-2.5375	-2.3479	-3.2021	-2.2479	-2.9	-2.9313	-2.3021	-3.0667	-2.8729	177.864	312.159	39.556	228.025	125.989	129.928	229.377	-22.964	259.706	310.107	297.844	263.179	151.424	-10.361	211.245	151.028	0.00016375	0.00033144	5.5962e-05	1087.4	1.1769e-06	3.7272e-06	1191.5	222.87	2.8581e-06	3.1589e-06	287.71	82.439	64.227	19.04	2.6011e-06	26.966	0.00023596	0.00024154	6.81e-05	1071.2	2.7995e-06	2.8615e-06	1174.6	222	2.879e-06	2.5275e-06	286.39	83.124	64.209	19.383	2.4404e-06	27.342	229.724	51.114	75.619	-22.487	138.361	152.662	-22.409	-14.809	174.652	107.281	-15.322	-8.068	-7.646	-0.626	122.168	-1.233	-8191	255	
38433.301	1	1	0	0	0.23242	0.10891	0.10859	0.15695	0.1547	0.10404	0.40867	0.025516	0.31985	0.05578	0.14223	0.096572	0.096483	0.09389	0.14088	0.14966	-2.1729	-3.2979	-2.4292	-2.8917	-3.0854	-2.1958	-3.2812	-3.0417	-2.3875	-3.2792	-2.5583	-2.9542	-3.2167	-2.3042	-3.025	-2.8187	203.850	6.379	229.802	306.296	137.750	12.551	284.461	-14.611	303.240	93.399	-18.636	7.114	300.069	170.811	144.499	41.744	0.00014579	0.0003901	6.0019e-05	1086.3	3.0127e-06	2.4493e-06	1194	223.7	1.7686e-06	1.8363e-06	287.37	82.765	64.273	19.194	4.3223e-06	27.218	0.00024048	0.00023929	7.0155e-05	1069.1	2.8513e-06	2.7324e-06	1173	221.93	2.739e-06	2.6001e-06	286.24	83.006	64.404	19.404	2.7434e-06	27.369	232.740	63.424	64.030	-22.529	123.299	102.032	-22.135	-14.824	174.250	90.689	-15.125	-7.565	-7.562	-0.815	121.215	-1.355	-8191	255	
38433.395	1	1	0	0	0.22759	0.16049	0.23588	0.16831	0.1342	0.051513	0.11968	0.070082	0.10562	0.097327	0.12409	0.038153	0.32752	0.13843	0.11986	0.28496	-1.8458	-3.0938	-2.5896	-2.8729	-3.1979	-2.2375	-3.2062	-3.0708	-2.2458	-3.375	-2.8396	-2.5333	-3.1875	-2.2208	-2.9021	-2.8104	251.549	8.749	27.919	20.514	309.082	98.058	295.314	186.884	156.788	71.144	263.042	156.236	271.280	7.124	199.705	32.556	0.00016026	0.00031479	9.5264e-05	1088.5	3.0876e-06	3.387e-06	1190.3	222.61	2.0591e-06	1.6425e-06	288.18	82.864	63.915	18.944	4.6124e-06	26.762	0.00024757	0.00023362	6.9143e-05	1069.3	2.7547e-06	2.6944e-06	1171.7	221.74	2.8638e-06	2.4487e-06	286.23	83.042	64.231	19.366	2.6746e-06	27.256	241.076	62.677	76.191	-22.077	127.630	125.099	-22.183	-14.540	203.960	99.965	-14.814	-7.602	-7.312	-0.567	153.647	-1.217	-8191	255	
38433.492	1	1	0	0	0.22189	0.21285	0.07641	0.35104	0.12225	0.091637	0.32894	0.21077	0.1755	0.096628	0.27855	0.21816	0.12769	0.15376	0.1873	0.091822	-2.0062	-3.2333	-2.6896	-2.6021	-3.2771	-2.5167	-2.9667	-3.3146	-2.1208	-3.0833	-2.85	-2.425	-3.3125	-2.6479	-2.7729	-3.2417	271.034	271.130	0.365	304.443	219.167	15.332	272.512	76.326	31.736	104.261	294.170	183.205	287.880	289.771	279.599	162.587	0.00015085	0.00032305	9.1344e-05	1084.7	3.9073e-06	3.9617e-06	1192.1	222.84	3.332e-06	1.2287e-06	288.03	81.777	64.254	19.024	2.8415e-06	27.005	0.00025043	0.00023351	6.7416e-05	1067.4	2.921e-06	2.8033e-06	1171.1	221.29	2.8133e-06	2.4825e-06	285.24	82.608	64.288	19.398	2.6919e-06	27.291	235.403	62.191	62.507	-22.408	163.845	115.342	-22.127	-14.597	160.388	86.680	-15.013	-7.643	-7.497	-0.836	132.590	-1.641	-8191	255	
38433.613	1	1	0	0	0.30496	0.08389	0.23771	0.12853	0.028812	0.11336	0.26577	0.11031	0.25746	0.24955	0.18188	0.15279	0.079605	0.11752	0.16284	0.062867	-1.9167	-2.9437	-2.7938	-2.4833	-3.2438	-2.6125	-2.9313	-3.2292	-2.4521	-2.9979	-2.9208	-2.4479	-3.3063	-2.5979	-2.7625	-3.0333	290.079	78.839	-9.561	264.288	72.564	233.536	270.560	256.624	243.640	284.253	-13.594	1.870	112.134	129.683	299.227	182.516	0.00015111	0.00030289	6.9627e-05	1081.7	2.1837e-06	3.299e-06	1187.9	222.54	3.3291e-06	2.4921e-06	287.08	82.487	63.845	19.054	3.1732e-06	27.026	0.00023718	0.00023401	6.7789e-05	1065.7	2.5944e-06	2.8375e-06	1169.6	221.55	3.0336e-06	2.4975e-06	285.3	82.793	64.141	19.346	2.6879e-06	27.308	235.384	94.286	83.783	-22.422	163.878	103.872	-22.142	-14.738	177.489	140.568	-15.281	-7.937	-7.276	-0.898	143.839	-1.483	-8191	255	
38433.711	1	1	0	0	0.15939	0.093603	0.044693	0.07627	0.30944	0.11901	0.10895	0.19474	0.17894	0.14731	0.22438	0.19796	0.14984	0.095841	0.08671	0.12654	-2.1021	-3.0833	-2.9792	-2.6312	-3.0625	-2.6229	-2.6875	-3.2646	-2.2521	-3.0646	-3.0563	-2.3521	-3.0771	-2.6729	-2.4292	-3.2958	7.218	320.170	13.465	217.073	157.121	124.199	278.389	240.513	273.694	-11.680	179.895	271.859	245.969	20.163	273.767	-32.397	0.00015107	0.00024782	7.4217e-05	1081.8	3.9179e-06	2.8369e-06	1186	222.69	2.0733e-06	2.3325e-06	287.59	82.456	64.358	19.113	2.8542e-06	26.947	0.00023967	0.00024126	6.5517e-05	1064.9	2.7007e-06	2.8356e-06	1171.1	221.58	2.9294e-06	2.6333e-06	285.8	82.863	64.229	19.361	2.6069e-06	27.259	233.814	64.913	56.792	-22.542	178.955	106.139	-22.086	-14.582	147.172	140.540	-15.379	-7.531	-7.222	-0.956	140.709	-1.229	-8191	255	
38433.781	1	1	0	0	0.35577	0.11542	0.22142	0.3542	0.19642	0.21243	0.12889	0.17089	0.058496	0.077746	0.096115	0.27161	0.17321	0.28563	0.16208	0.1777	-1.9021	-2.7938	-2.9646	-2.5521	-3.15	-2.6937	-2.6292	-3.1854	-2.5479	-2.8958	-3.1396	-2.2896	-3.0625	-2.8396	-2.5604	-3.1917	92.252	22.705	185.033	271.653	97.206	281.280	4.140	-4.910	81.620	308.827	56.824	192.428	-18.352	195.592	249.341	198.977	0.0001492	0.00023119	7.0261e-05	1083.1	2.4656e-06	2.3491e-06	1188.8	222.56	2.3376e-06	2.9931e-06	287.61	82.21	64.022	19.099	3.4651e-06	27.053	0.00025569	0.00024227	7.0061e-05	1067.9	3.0046e-06	2.5697e-06	1171.6	221.76	2.8698e-06	2.5763e-06	285.66	82.818	64.276	19.378	2.7035e-06	27.313	224.121	66.940	71.483	-22.540	141.943	122.725	-22.179	-14.740	183.048	122.640	-15.349	-7.817	-7.361	-0.698	145.859	-1.437	-8191	255	
38433.875	1	1	0	0	0.33041	0.026958	0.10379	0.21766	0.25404	0.050575	0.25628	0.18991	0.13007	0.19936	0.23991	0.0054901	0.12381	0.17945	0.21683	0.15032	-2.1417	-2.7938	-3.0583	-2.5479	-2.9188	-2.8125	-2.5979	-3.2792	-2.3229	-2.7812	-3.3187	-2.2896	-2.8354	-2.9542	-2.3521	-3.2	298.580	81.622	239.188	0.670	322.166	270.647	246.755	284.451	39.829	187.052	7.303	111.098	-28.871	241.632	198.251	319.398	0.00014459	0.00026851	7.1301e-05	1083.9	4.0704e-06	3.6645e-06	1188.9	222.44	2.3493e-06	3.4025e-06	287.62	83.247	64.114	19.265	3.6663e-06	27.13	0.00023721	0.0002453	6.5392e-05	1066.7	2.9345e-06	2.6463e-06	1169	221.82	2.7922e-06	2.5419e-06	285.71	83.121	64.191	19.435	2.8058e-06	27.312	235.135	54.101	71.249	-22.402	163.845	141.045	-21.990	-14.355	149.023	124.498	-15.329	-7.234	-7.244	-0.819	119.953	-1.195	-8191	255	
38433.973	1	1	0	0	0.13374	0.072479	0.016359	0.32173	0.21451	0.034771	0.025595	0.15603	0.097881	0.15337	0.20189	0.085409	0.15614	0.27591	0.19451	0.25785	-2.0875	-2.6104	-2.9833	-2.2958	-2.9104	-2.9979	-2.35	-3.3583	-2.6521	-2.5042	-3.2083	-2.4667	-2.8271	-3.0021	-2.3125	-3.0708	70.755	44.067	317.500	28.141	59.780	-21.680	202.615	25.509	286.217	256.530	30.332	42.008	308.938	85.196	184.472	267.106	0.00017904	0.00035254	7.7449e-05	1083.3	2.9139e-06	2.2427e-06	1188.9	223.71	2.289e-06	3.2783e-06	288.43	82.062	64.124	19.152	3.0145e-06	27.194	0.00024359	0.00024693	6.3556e-05	1067.4	2.9517e-06	2.5317e-06	1170	221.92	2.8237e-06	2.6702e-06	286.2	82.687	64.263	19.377	2.7977e-06	27.3	235.097	55.329	57.043	-22.373	184.286	139.223	-22.063	-14.642	153.753	116.688	-14.970	-7.898	-7.444	-0.369	153.562	-1.237	-8191	255	
38434.094	1	1	0	0	0.15838	0.25605	0.26893	0.23042	0.18456	0.052847	0.22628	0.25197	0.2553	0.17352	0.1918	0.11624	0.16111	0.19267	0.26108	0.13561	-2.3146	-2.4813	-3.1792	-2.5792	-2.75	-2.9188	-2.4271	-3.1063	-2.7979	-2.3917	-3.2708	-2.4417	-2.8625	-3.0563	-2.2958	-3.0104	309.941	155.839	210.576	-11.692	12.795	89.370	299.249	193.183	306.469	-17.261	288.570	190.664	6.002	159.580	265.994	-23.682	0.00014018	0.00026565	0.00011257	1082.1	2.5608e-06	1.6331e-06	1191.9	221.74	1.8148e-06	3.0401e-06	287.34	82.914	63.735	19.164	2.397e-06	26.836	0.00023363	0.00025923	6.8023e-05	1067.1	2.9463e-06	2.5323e-06	1169.6	221.7	2.617e-06	2.8172e-06	285.69	82.884	64.091	19.408	2.6393e-06	27.276	234.868	72.578	62.765	-22.251	156.734	74.073	-21.848	-14.106	170.463	114.580	-14.961	-7.602	-7.352	-0.781	129.809	-1.395	-8191	255	
38434.188	1	1	0	0	0.11586	0.37617	0.20799	0.23557	0.10703	0.31693	0.17207	0.22944	0.19081	0.041286	0.21313	0.19628	0.16597	0.065781	0.20409	0.44891	-2.4917	-2.3167	-3.0104	-2.7104	-2.4458	-3.1292	-2.3667	-3.0792	-2.9646	-2.2583	-3.1583	-2.4833	-2.5458	-3.2208	-2.3583	-2.8333	151.613	227.605	282.683	300.784	94.488	-16.613	260.615	208.167	57.385	290.036	296.791	260.958	322.626	278.092	1.382	-13.561	0.00014178	0.00031504	7.9303e-05	1078.1	3.4908e-06	3.2746e-06	1187.8	223.28	2.4624e-06	1.9672e-06	289.5	82.714	64.499	19.05	2.262e-06	27.001	0.00023575	0.00026816	6.6015e-05	1063.9	3.0252e-06	2.407e-06	1167.2	222.01	2.5584e-06	2.9311e-06	286.34	82.864	64.442	19.325	2.5543e-06	27.331	229.657	47.009	68.301	-22.469	160.240	132.249	-21.947	-14.497	181.162	94.563	-15.042	-7.371	-7.101	-0.266	131.010	-1.169	-8191	255	
38434.285	1	1	0	0	0.073215	0.2769	0.067244	0.24662	0.27427	0.32484	0.22111	0.13488	0.18245	0.19586	0.29698	0.082967	0.063082	0.07463	0.16522	0.12731	-2.6354	-2.2458	-2.9479	-2.7958	-2.4729	-3.1333	-2.3479	-2.8583	-3.1646	-2.3708	-3.2729	-2.8417	-2.5979	-3.275	-2.4625	-3.0271	111.586	276.424	172.200	307.327	44.932	-5.978	174.680	320.223	212.664	16.148	89.392	277.264	225.311	307.855	141.866	58.771	0.00015156	0.00034633	8.4331e-05	1080.2	2.6236e-06	3.2941e-06	1185.4	224.06	2.4983e-06	2.0148e-06	287.56	82.9	63.881	19.164	2.5183e-06	26.995	0.00022675	0.00025895	6.3369e-05	1065.5	3.0494e-06	2.4595e-06	1167.9	222.3	2.546e-06	2.7628e-06	285.74	82.878	64.019	19.335	2.7104e-06	27.174	235.802	81.694	72.973	-22.182	142.960	120.948	-21.974	-14.403	141.176	117.905	-15.066	-7.556	-7.117	-0.133	129.028	-0.820	-8191	255	
38434.383	1	1	0	0	0.13314	0.10442	0.1717	0.10828	0.14897	0.24715	0.3728	0.21422	0.1182	0.063923	0.16737	0.06881	0.14794	0.25313	0.32712	0.096043	-2.8521	-2.3375	-3.0167	-2.9271	-2.5792	-3.2896	-2.875	-2.7667	-3.0458	-2.2708	-3.2292	-2.8792	-2.3937	-3.25	-2.6875	-2.725	268.561	160.839	242.809	315.328	191.752	44.262	274.951	316.141	284.750	305.776	326.244	115.930	11.249	12.627	-12.022	205.762	0.00015711	0.00041999	8.2709e-05	1084.4	4.1824e-06	2.9496e-06	1190.5	224.61	9.3494e-07	2.278e-06	288.47	82.451	63.842	19.254	2.9567e-06	26.919	0.00023226	0.0002631	6.4832e-05	1066.8	3.0149e-06	2.7343e-06	1168.3	222.05	2.5503e-06	2.8066e-06	285.65	82.669	64.098	19.344	2.7006e-06	27.181	243.305	62.065	72.037	-21.837	150.620	105.555	-21.509	-13.771	140.375	118.841	-14.276	-7.063	-6.993	-0.486	107.086	-0.427	-8191	255	
38434.477	1	1	0	0	0.2466	0.030259	0.22606	0.085218	0.086833	0.17619	0.28375	0.2521	0.15975	0.10814	0.090999	0.36624	0.16931	0.13285	0.10611	0.11385	-2.9104	-2.3521	-3.1	-3.0417	-2.4313	-3.375	-2.7083	-2.7687	-3.2292	-2.3688	-2.95	-3.1688	-2.3167	-3.1583	-2.6604	-2.5187	181.201	156.987	193.396	-26.559	71.457	15.064	243.322	280.488	4.993	51.232	295.240	104.926	120.196	169.387	67.530	237.685	0.00017031	0.00034674	8.0021e-05	1078.4	3.5115e-06	3.0033e-06	1186.4	223.14	1.4666e-06	4.2181e-06	288.73	82.387	64.184	19.108	2.5353e-06	27.168	0.00022162	0.00025805	6.3027e-05	1063.4	3.0548e-06	2.6703e-06	1165.9	221.98	2.6002e-06	2.8547e-06	286.25	82.631	64.127	19.368	2.493e-06	27.305	233.158	60.762	57.897	-21.802	166.004	131.176	-21.340	-13.843	210.104	113.831	-14.465	-7.325	-6.658	0.204	121.640	-0.540	-8191	255	
38434.570	1	1	0	0	0.069411	0.10282	0.22238	0.34848	0.077015	0.12998	0.24562	0.061971	0.010076	0.26183	0.092112	0.22378	0.060687	0.037584	0.065708	0.16162	-2.8958	-2.3604	-2.9062	-3.0938	-2.2854	-3.2667	-2.9354	-2.5042	-3.1417	-2.4333	-3.0812	-3.175	-2.4354	-3.0833	-2.8771	-2.5771	102.093	77.051	280.424	269.622	100.557	6.486	-14.916	116.623	-22.662	78.995	10.939	231.858	99.836	317.794	223.145	164.582	0.00014818	0.00029641	8.6047e-05	1079.1	2.3847e-06	3.0694e-06	1184.2	222.83	2.0617e-06	2.6703e-06	287.38	82.145	64.374	19.011	2.8192e-06	26.843	0.00023724	0.00023862	6.547e-05	1062.1	2.9318e-06	2.5216e-06	1165.8	221.53	2.6083e-06	2.7346e-06	285.2	82.558	64.181	19.269	2.5427e-06	27.14	234.856	73.088	52.843	-21.251	171.618	117.792	-21.532	-13.779	158.955	108.500	-14.063	-6.955	-6.611	0.178	156.977	-0.376	-8191	255	
38434.691	1	1	0	0	0.1915	0.087609	0.071989	0.1581	0.28833	0.28951	0.3306	0.28185	0.17887	0.10712	0.17918	0.11699	0.24916	0.16312	0.049021	0.074526	-2.8917	-2.3875	-2.7208	-3.3438	-2.4062	-3.2229	-3.0333	-2.4521	-3.3063	-2.6792	-2.6771	-3.2396	-2.3271	-3.0312	-2.9333	-2.3729	128.332	189.602	5.046	272.684	15.686	159.269	298.805	136.016	115.286	306.474	4.879	162.637	259.635	120.066	2.749	110.780	0.00015781	0.00032507	7.3662e-05	1074.7	4.3648e-06	3.2541e-06	1184.5	224.09	2.1946e-06	3.5984e-06	288.25	82.259	64.305	19.132	3.0526e-06	26.814	0.00023637	0.00026731	6.2762e-05	1061	3.0953e-06	2.6855e-06	1163.9	222.12	2.5112e-06	2.8241e-06	286.02	82.566	64.054	19.306	2.6277e-06	27.16	235.961	70.583	61.933	-21.844	166.033	123.894	-21.676	-14.059	181.797	120.808	-14.695	-7.597	-6.861	-0.365	138.302	-0.580	-8191	255	
38434.789	1	1	0	0	0.28222	0.27943	0.12488	0.22053	0.11851	0.1994	0.19856	0.23164	0.30336	0.34262	0.088661	0.15669	0.2909	0.05012	0.14353	0.26887	-3.0792	-2.5667	-2.5833	-3.6437	-2.3646	-3.0208	-3.0938	-2.4458	-3.1146	-2.7062	-2.5104	-3.3479	-2.3937	-2.7958	-3.2062	-2.4458	-1.124	197.591	16.089	295.005	-5.086	247.984	286.238	-24.932	247.302	80.967	268.180	278.134	284.822	305.694	-9.827	142.358	0.0001492	0.00025732	9.042e-05	1080.7	3.779e-06	1.8846e-06	1180.2	222.21	1.8402e-06	2.8553e-06	286.11	81.987	63.92	19.148	2.2408e-06	26.878	0.00022706	0.00024249	6.8629e-05	1062.2	3.064e-06	2.6273e-06	1162.7	221.13	2.5796e-06	2.719e-06	284.22	82.305	63.915	19.262	2.5774e-06	27.129	237.328	51.465	72.661	-21.930	163.819	117.816	-21.818	-14.350	156.354	131.455	-14.930	-7.495	-7.141	-0.021	122.193	-0.761	-8191	255	
38434.887	1	1	0	0	0.11829	0.30054	0.13079	0.24225	0.27631	0.11202	0.19895	0.17651	0.24576	0.21748	0.16352	0.29685	0.24626	0.26403	0.029216	0.13744	-2.9	-2.6625	-2.4083	-3.3812	-2.5438	-2.9167	-3.3542	-2.4813	-3.0479	-2.8563	-2.6188	-3.3	-2.4583	-2.8792	-3.0771	-2.4979	326.947	287.055	236.402	269.631	-21.375	121.110	233.913	123.727	68.589	-12.659	305.083	-11.344	200.715	324.890	159.657	126.093	0.00016797	0.00041208	4.4909e-05	1078.6	2.7381e-06	3.3748e-06	1183.2	222.98	2.5867e-06	3.0061e-06	287.3	81.987	63.736	19.013	2.2573e-06	26.79	0.00023098	0.00023019	7.1353e-05	1062	3.1439e-06	2.8159e-06	1162.6	221.16	2.7439e-06	2.5676e-06	284.76	82.554	63.867	19.239	2.4837e-06	27.068	235.702	66.717	64.949	-22.229	185.837	121.521	-21.927	-14.257	180.447	102.857	-14.688	-7.491	-6.867	0.062	161.343	-0.848	-8191	255	
38434.980	1	1	0	0	0.21401	0.27927	0.12605	0.10562	0.22244	0.12105	0.16797	0.16999	0.13438	0.2317	0.10213	0.070375	0.093347	0.16038	0.15035	0.070989	-2.7	-2.8792	-2.4958	-3.3792	-2.5583	-2.4917	-3.2375	-2.6396	-3.0979	-2.8958	-2.4062	-3.2	-2.6375	-2.6292	-3.2667	-2.6083	297.645	298.786	265.400	10.165	26.905	37.339	181.109	199.627	-31.203	17.478	315.020	20.659	240.542	251.504	17.565	204.489	0.00014376	0.0002762	7.0729e-05	1075.2	3.1266e-06	3.0284e-06	1183.1	221.97	2.8216e-06	2.0539e-06	285.76	81.981	63.372	18.974	4.5797e-06	26.594	0.00022187	0.00023317	6.8816e-05	1060.3	2.8988e-06	2.759e-06	1163.2	220.94	2.7917e-06	2.4981e-06	284.24	82.256	63.654	19.232	2.6595e-06	27.04	235.304	77.566	56.746	-21.735	156.382	121.011	-21.689	-14.291	171.559	88.616	-14.877	-7.157	-6.473	-0.281	143.221	-0.955	-8191	255	
38435.078	1	1	0	0	0.15185	0.1238	0.17233	0.037153	0.17524	0.04972	0.19394	0.14493	0.014297	0.13749	0.31931	0.18963	0.40684	0.089921	0.20143	0.15234	-2.7438	-3.0729	-2.35	-3.1958	-2.5646	-2.6042	-3.3729	-2.4437	-2.9354	-3.1354	-2.3292	-3.1604	-2.8646	-2.325	-3.125	-2.5646	57.732	42.407	241.877	-0.283	295.666	293.330	244.009	295.374	222.511	85.712	313.665	-3.932	239.776	34.233	105.824	324.581	0.00016949	0.0001367	8.5984e-05	1081.6	3.8791e-06	2.1551e-06	1184.7	223.07	2.5662e-06	2.2352e-06	287.82	81.678	63.517	19.046	2.951e-06	26.741	0.00024097	0.00023446	7.1166e-05	1062.7	3.166e-06	2.6114e-06	1163.2	221.02	2.8616e-06	2.5263e-06	285.34	82.442	63.766	19.236	2.7601e-06	27.042	231.368	27.388	43.557	-21.720	138.928	121.359	-21.656	-14.388	152.727	113.325	-14.780	-7.152	-6.298	-0.240	138.126	-0.566	-8191	255	
38435.176	1	1	0	0	0.33925	0.23307	0.1318	0.087808	0.056647	0.11034	0.051993	0.048477	0.18885	0.15872	0.21415	0.074571	0.23257	0.17303	0.075855	0.1265	-2.4792	-3.0042	-2.2854	-3.2562	-2.9167	-2.4	-3.5125	-2.6521	-2.7146	-3.2646	-2.4542	-3.1396	-2.9667	-2.4292	-3.2646	-2.5062	107.765	303.134	291.954	309.862	219.078	-23.091	211.340	183.615	76.236	84.661	102.459	294.262	325.967	232.313	24.694	187.699	0.00014582	0.00041871	8.0552e-05	1079	4.224e-06	2.3463e-06	1184.5	222.07	2.836e-06	2.7977e-06	285.87	81.986	63.976	19.043	3.0267e-06	26.869	0.00024997	0.00025726	7.0995e-05	1062	2.9836e-06	2.7368e-06	1166.7	221.34	2.835e-06	2.5375e-06	285.12	82.429	64.006	19.241	2.689e-06	27.121	229.907	50.176	63.543	-21.721	177.665	119.618	-21.579	-13.647	155.893	131.096	-14.227	-6.935	-7.035	0.267	159.135	-0.659	-8191	255	
38435.293	1	1	0	0	0.18158	0.097722	0.016033	0.28789	0.16215	0.13871	0.35443	0.21488	0.20902	0.14806	0.15588	0.095943	0.14198	0.11927	0.14214	0.20592	-2.4167	-3.2125	-2.2687	-3.2167	-3.0854	-2.25	-3.425	-2.6333	-2.5125	-3.175	-2.4583	-3.1458	-3.0062	-2.3875	-3.3396	-2.7729	40.305	-0.576	127.327	311.227	141.205	216.240	210.838	293.937	-4.924	143.378	309.888	267.655	280.226	142.320	252.016	320.199	0.00014089	0.00028713	7.8808e-05	1075.7	4.4513e-06	3.3995e-06	1184.5	222.51	2.043e-06	1.9874e-06	287.23	82.347	63.469	19.112	2.9004e-06	26.992	0.00023898	0.00024114	7.1291e-05	1061.9	2.9534e-06	2.9001e-06	1164.2	220.68	2.8839e-06	2.6095e-06	284.78	82.441	63.663	19.231	2.4224e-06	27.135	237.733	67.721	63.886	-21.505	151.592	130.237	-21.767	-14.524	189.920	112.717	-14.519	-7.060	-6.721	0.364	163.519	-0.695	-8191	255	
38435.391	1	1	0	0	0.31707	0.086627	0.11279	0.28008	0.21482	0.30579	0.052932	0.15986	0.045689	0.33122	0.19601	0.046654	0.16727	0.25198	0.10018	0.09017	-2.2583	-3.3229	-2.5104	-3.025	-2.9688	-2.2333	-3.4208	-3.0167	-2.3479	-3.0354	-2.3958	-2.6396	-3.0687	-2.3708	-3.025	-2.8521	283.575	291.961	147.380	301.292	70.229	99.034	283.226	155.622	195.227	40.995	-6.656	301.250	153.840	307.244	310.164	70.299	0.00013325	0.00030755	7.9092e-05	1077.9	2.7291e-06	2.758e-06	1185.1	221.63	2.3682e-06	2.5237e-06	285.99	82.079	63.377	18.827	3.1328e-06	26.848	0.00024667	0.0002403	7.2255e-05	1061.1	2.9021e-06	3.004e-06	1164.2	220.79	2.9869e-06	2.662e-06	284.08	82.281	63.681	19.185	2.7596e-06	27.001	234.191	66.503	68.052	-21.751	143.722	114.930	-21.953	-14.454	160.990	139.034	-14.669	-7.300	-6.833	-0.347	118.088	-1.189	-8191	255	
38435.484	1	1	0	0	0.2264	0.19159	0.093081	0.16095	0.22885	0.044299	0.2134	0.39095	0.29193	0.1755	0.12812	0.10811	0.24321	0.16515	0.19788	0.018278	-2.0812	-3.2208	-2.4188	-2.9646	-3.0312	-2.2396	-3.2146	-3.1063	-2.4875	-3.0646	-2.4958	-2.7958	-3.2188	-2.2292	-3.0958	-2.9062	183.585	311.116	232.653	5.447	263.705	98.136	262.285	-6.881	130.624	-32.175	283.063	224.816	273.835	181.779	138.339	171.079	0.00015354	0.00037076	0.00012075	1079	4.9589e-06	3.7572e-06	1182.2	221.28	2.9354e-06	2.1135e-06	286.07	82.018	63.612	19.09	2.5944e-06	26.745	0.00024044	0.00024423	6.9485e-05	1061.4	2.9361e-06	2.9685e-06	1162.7	220.43	2.9473e-06	2.6239e-06	284.38	82.251	63.742	19.255	2.7642e-06	27.046	240.586	63.206	69.703	-22.299	152.825	114.390	-22.042	-14.841	187.586	118.943	-15.137	-7.760	-7.406	-0.680	132.987	-1.712	-8191	255	
38435.582	1	1	0	0	0.24011	0.22125	0.075904	0.10943	0.2507	0.14945	0.2162	0.14077	0.18269	0.096661	0.20442	0.021154	0.14647	0.20274	0.26002	0.29309	-2.0146	-3.2771	-2.6354	-2.8083	-3.1167	-2.4604	-3.175	-3.1146	-2.4562	-3.3396	-2.7125	-2.5062	-3.2938	-2.5833	-2.925	-3.0896	156.487	312.590	55.712	295.202	134.223	312.494	253.556	100.198	211.614	2.936	186.657	89.897	-5.946	265.431	75.626	316.853	0.00014939	0.0002873	9.3192e-05	1079.7	4.4008e-06	2.8833e-06	1188.3	221.25	2.2379e-06	2.2741e-06	284.69	82.476	63.573	18.879	3.1892e-06	26.738	0.00024707	0.00023839	6.5984e-05	1061	2.9469e-06	2.9419e-06	1165.3	220.35	2.8529e-06	2.5726e-06	283.2	82.384	63.677	19.162	2.7486e-06	27.004	237.927	63.068	62.874	-22.249	154.523	127.620	-22.328	-14.331	159.426	118.148	-15.194	-7.659	-7.244	-0.521	169.122	-1.148	-8191	255	
38435.652	1	1	0	0	0.17559	0.15901	0.41544	0.087366	0.23021	0.13627	0.16651	0.1581	0.25886	0.10676	0.19726	0.16488	0.024224	0.21844	0.25017	0.065744	-2.0375	-3.2333	-2.7625	-2.6937	-3.3792	-2.3187	-2.9354	-2.9542	-2.3958	-3.1479	-2.8125	-2.5187	-3.0958	-2.6396	-2.6375	-3.0667	126.521	322.454	307.961	259.583	257.127	14.865	270.048	268.163	-15.207	94.259	177.302	24.110	90.432	0.812	309.406	238.461	0.00014316	0.00036595	7.9084e-05	1072.3	3.1493e-06	2.2591e-06	1184.4	221.8	1.5742e-06	2.885e-06	286.67	81.583	63.621	19.007	1.5881e-06	26.91	0.0002546	0.00024676	7.0155e-05	1058.2	2.8756e-06	2.7362e-06	1164.2	220.73	2.86e-06	2.7015e-06	284.18	82.135	63.621	19.248	2.7879e-06	27.073	236.245	80.360	86.386	-22.363	167.398	131.456	-22.372	-14.712	185.454	120.030	-15.414	-7.561	-7.701	-1.014	141.159	-1.283	-8191	255	
38435.773	1	1	0	0	0.1566	0.13693	0.11859	0.21823	0.085494	0.21289	0.11863	0.19467	0.1298	0.21439	0.13435	0.15517	0.073728	0.18331	0.075174	0.29353	-2.0271	-3.0604	-2.8604	-2.425	-3.2062	-2.6854	-2.9646	-3.275	-2.1813	-3.1	-2.9479	-2.4562	-3.1854	-2.4813	-2.5167	-3.3312	136.770	324.555	65.340	153.252	280.545	43.831	311.175	306.783	234.926	243.512	262.244	227.432	26.315	-15.049	14.265	133.686	0.00016526	0.00029185	6.5816e-05	1074.6	3.5208e-06	2.6099e-06	1180.8	222.04	3.6926e-06	3.629e-06	285.19	81.389	63.726	19.092	3.7114e-06	26.701	0.00025158	0.00022649	6.5346e-05	1057.5	2.9723e-06	2.6564e-06	1163.9	220.71	3.0607e-06	2.7865e-06	283.66	82.172	63.789	19.236	2.7515e-06	27.026	236.677	43.694	56.425	-22.312	152.905	118.709	-22.197	-14.643	162.784	104.152	-15.130	-7.594	-7.504	-0.665	146.134	-1.584	-8191	255	
38435.867	1	1	0	0	0.15149	0.10856	0.35187	0.10629	0.23934	0.17966	0.34585	0.40031	0.3391	0.06925	0.26271	0.074251	0.10197	0.20178	0.16618	0.14057	-1.8458	-2.8563	-3.0542	-2.6104	-3.0458	-2.6396	-2.6667	-3.2583	-2.325	-2.8083	-3.0229	-2.4125	-3.1646	-2.6167	-2.4229	-3.2667	96.417	112.108	159.940	21.187	279.138	66.338	290.738	216.829	31.346	-19.227	-32.066	212.158	266.147	310.672	307.225	212.424	0.00014162	0.00046528	7.8373e-05	1077.6	2.1493e-06	2.2796e-06	1182.7	222.58	1.6908e-06	2.7926e-06	285.31	82.274	63.617	18.981	2.9418e-06	26.75	0.00024701	0.00024839	6.6093e-05	1059.1	2.881e-06	2.5804e-06	1163.2	220.71	2.9305e-06	2.846e-06	284.2	82.421	63.663	19.211	2.9255e-06	27.055	230.023	56.886	81.341	-22.189	152.697	105.542	-22.156	-14.710	175.917	145.705	-15.389	-7.981	-7.591	-0.748	135.769	-0.893	-8191	255	
38435.965	1	1	0	0	0.20024	0.16798	0.0095064	0.22206	0.19455	0.061878	0.10211	0.067841	0.25143	0.13848	0.10382	0.12448	0.08638	0.21269	0.074298	0.23222	-2.1188	-2.8667	-3.0375	-2.425	-3.0604	-2.9229	-2.4458	-3.2542	-2.3042	-2.8458	-3.2583	-2.1937	-3.2333	-2.9583	-2.3604	-3.1271	217.625	188.546	198.527	255.000	26.344	-7.301	246.949	155.868	187.898	90.655	324.459	239.536	228.464	199.876	149.813	314.842	0.0001477	0.0002774	8.1312e-05	1073.7	2.9613e-06	3.6939e-06	1179.1	221.42	2.9996e-06	3.2749e-06	286.72	81.708	63.953	18.947	2.4737e-06	26.934	0.00025227	0.00023699	6.6482e-05	1057.6	2.7444e-06	2.8571e-06	1161.9	220.33	3.0292e-06	2.7878e-06	284.93	82.367	63.672	19.209	2.9053e-06	27.114	233.614	52.030	51.373	-22.496	150.664	92.287	-22.223	-14.832	142.107	100.175	-15.278	-8.058	-7.607	-0.806	136.286	-1.403	-8191	255	
38436.086	1	1	0	0	0.037557	0.13144	0.08837	0.086613	0.14235	0.23819	0.19526	0.18399	0.17487	0.064656	0.083679	0.16293	0.12204	0.1011	0.23819	0.13293	-1.9667	-2.5812	-3.2333	-2.5833	-3.0271	-2.9688	-2.4604	-3.2292	-2.6208	-2.725	-3.3604	-2.4542	-2.9229	-2.9396	-2.2396	-3.2687	192.184	271.898	92.984	253.375	199.192	287.916	240.369	235.583	17.319	51.603	251.782	41.923	8.755	253.876	124.772	289.185	0.00014519	0.00042933	9.1641e-05	1076.5	3.4429e-06	2.5876e-06	1176.2	221.54	3.2178e-06	3.6904e-06	286.33	81.379	63.795	18.889	2.8064e-06	26.774	0.00024723	0.00024373	6.491e-05	1060.8	2.8287e-06	2.7931e-06	1162.3	220.46	2.879e-06	2.8116e-06	284.14	82.006	63.871	19.157	2.7272e-06	26.999	241.939	65.657	53.432	-22.522	182.877	103.123	-22.221	-14.645	168.163	115.526	-15.239	-7.929	-7.169	-0.772	131.098	-1.410	-8191	255	
38436.180	1	1	0	0	0.13831	0.35179	0.20275	0.3893	0.27793	0.21781	0.036081	0.19067	0.055089	0.19442	0.077231	0.12536	0.10799	0.12823	0.20311	0.32847	-2.3438	-2.5062	-3.1896	-2.475	-3.0771	-3.1979	-2.4667	-3.1833	-2.8125	-2.5	-3.2667	-2.5229	-2.8271	-3.0687	-2.2146	-2.975	230.193	46.979	9.670	292.584	86.271	80.487	238.113	311.053	289.627	84.888	272.029	200.256	243.464	10.244	281.251	324.741	0.00015006	0.00036823	6.9339e-05	1078.3	3.1969e-06	2.5296e-06	1184.3	221.97	1.3381e-06	2.8861e-06	284.96	81.771	63.143	18.954	2.2277e-06	26.582	0.00024343	0.00027888	6.1735e-05	1059.9	3.01e-06	2.7723e-06	1161.8	220.26	2.8068e-06	2.8566e-06	283.82	82.087	63.591	19.183	2.7289e-06	27.002	234.097	45.415	60.392	-22.488	157.118	134.179	-22.245	-14.844	196.683	109.973	-15.323	-7.992	-7.722	-0.387	130.881	-1.654	-8191	255	
38436.254	1	1	0	0	0.13688	0.14531	0.079416	0.2169	0.016551	0.14233	0.14663	0.29744	0.24145	0.20343	0.16344	0.31282	0.19866	0.15613	0.081877	0.12024	-2.3354	-2.4229	-3.3021	-2.4938	-2.7146	-3.2083	-2.5604	-3.1	-2.6604	-2.5	-3.2042	-2.4896	-2.8438	-3.2729	-2.2438	-3.0708	321.064	244.123	260.424	270.974	13.806	217.452	193.715	294.208	214.325	265.314	-23.557	273.426	-24.142	46.345	288.636	179.055	0.00015379	0.00033064	0.00010492	1071.8	2.7537e-06	1.7618e-06	1178	221.38	1.605e-06	2.7352e-06	285.65	81.785	63.784	18.963	2.2005e-06	26.807	0.00023478	0.00025092	6.8396e-05	1057.1	2.9323e-06	2.6178e-06	1160.3	220.39	2.9072e-06	2.9511e-06	284.18	82.047	63.691	19.149	2.7185e-06	26.996	230.166	44.819	57.528	-22.385	156.999	131.137	-22.368	-14.686	203.491	117.797	-15.158	-8.423	-7.620	-1.027	151.522	-1.583	-8191	255	
38436.375	1	1	0	0	0.16685	0.080489	0.12949	0.11962	0.13306	0.082987	0.22289	0.070243	0.12272	0.092823	0.18942	0.15143	0.26479	0.14383	0.084041	0.32945	-2.4437	-2.3021	-3.0146	-2.6167	-2.4417	-3.2458	-2.5833	-2.9979	-2.8417	-2.3937	-3.1458	-2.7417	-2.5958	-3.2042	-2.5354	-3.0646	189.803	248.865	266.964	224.226	181.458	216.404	300.668	312.792	31.234	167.372	161.429	81.955	323.829	179.720	211.454	296.778	0.00013551	0.00038479	7.898e-05	1074.8	2.6914e-06	3.7882e-06	1182.1	220.8	2.4478e-06	2.9337e-06	287.14	81.656	63.35	18.864	3.2681e-06	26.664	0.00023842	0.00026119	6.8318e-05	1057.3	3.0862e-06	2.5526e-06	1162.3	219.98	2.8177e-06	2.866e-06	284.14	82.128	63.671	19.129	2.7839e-06	26.98	241.212	63.497	61.371	-22.369	159.718	108.688	-22.355	-14.602	167.131	122.879	-15.248	-8.234	-7.266	-0.990	148.653	-1.157	-8191	255	
38436.469	1	1	0	0	0.084631	0.035416	0.21781	0.20456	0.15404	0.14809	0.27603	0.12289	0.16151	0.1286	0.42597	0.13503	0.14009	0.2168	0.22421	0.19885	-2.7958	-2.2521	-3.35	-2.8937	-2.5792	-3.3312	-2.5812	-2.9271	-3.0708	-2.4062	-3.2333	-2.8021	-2.5854	-3.2938	-2.6521	-2.8167	105.615	49.266	101.121	264.229	305.394	233.910	263.060	183.450	133.327	163.571	303.465	216.552	229.220	-9.197	-23.137	32.057	0.00012987	0.00022702	7.4346e-05	1070.7	4.0984e-06	2.3448e-06	1180.8	221.88	1.4263e-06	3.1901e-06	284.78	80.918	63.183	19.08	2.4175e-06	26.527	0.00022146	0.00025889	6.4412e-05	1055.8	3.1045e-06	2.6228e-06	1160.5	220.12	2.6566e-06	2.896e-06	283.58	81.829	63.332	19.173	2.7393e-06	26.949	238.700	55.668	55.757	-22.417	147.982	130.953	-22.282	-14.535	138.792	124.110	-15.034	-7.866	-7.198	-0.330	140.277	-1.702	-8191	255	
38436.566	1	1	0	0	0.13229	0.07852	0.28277	0.1058	0.052686	0.16628	0.20635	0.12538	0.1071	0.078111	0.47624	0.023115	0.21982	0.19973	0.21877	0.19476	-2.9188	-2.3312	-3.0187	-2.9354	-2.5438	-3.2188	-2.7083	-2.7625	-3.0792	-2.3271	-3.0521	-2.8542	-2.2812	-3.2208	-2.6042	-2.9021	71.320	197.112	234.507	-24.183	135.019	143.146	266.211	105.923	233.798	203.690	214.625	173.732	252.127	29.597	310.545	3.526	0.00015793	0.00034433	9.0958e-05	1075.6	1.8326e-06	3.0329e-06	1178.9	220.09	8.9075e-07	2.5822e-06	285.59	81.309	63.176	18.938	3.8934e-06	26.765	0.00023282	0.00025361	6.6015e-05	1056.7	3.0408e-06	2.7571e-06	1158.4	219.64	2.4586e-06	2.7553e-06	283.32	81.927	63.295	19.157	2.7601e-06	26.968	238.912	47.828	69.488	-22.286	160.572	119.289	-22.235	-14.635	189.207	126.318	-15.119	-7.546	-7.356	-0.670	121.662	-1.350	-8191	255	
38436.688	1	1	0	0	0.11882	0.41067	0.065098	0.068023	0.16124	0.14152	0.15349	0.096849	0.095098	0.20694	0.13494	0.14074	0.12611	0.17283	0.038542	0.1181	-2.9354	-2.3	-2.9667	-3.0208	-2.3583	-3.0812	-2.9688	-2.6521	-3.2604	-2.4479	-3.025	-3.1708	-2.3771	-3.2646	-2.7729	-2.5146	-26.366	209.334	262.479	101.587	72.211	28.379	-31.918	157.984	271.848	287.800	239.739	94.249	304.006	51.571	10.504	-0.143	0.00015667	0.00029568	8.2864e-05	1070.1	4.2007e-06	2.3605e-06	1176.3	221.38	2.9083e-06	2.443e-06	284.78	81.532	63.254	19.004	4.5219e-06	26.679	0.00023487	0.00024485	7.4325e-05	1054.2	3.1509e-06	2.5633e-06	1158.3	219.57	2.5633e-06	2.8084e-06	283.67	81.888	63.428	19.173	2.8515e-06	26.974	230.767	40.009	69.308	-22.266	155.354	105.286	-22.137	-14.624	173.105	138.766	-15.190	-7.757	-7.882	-0.674	130.160	-1.790	-8191	255	
38436.781	1	1	0	0	0.12785	0.16754	0.18277	0.40244	0.21714	0.070495	0.045682	0.041572	0.19347	0.20124	0.15495	0.17361	0.13911	0.41072	0.12794	0.16737	-2.9688	-2.6833	-2.7062	-3.0687	-2.3354	-3.0396	-3.0708	-2.4437	-3.2646	-2.5875	-2.8729	-3.2208	-2.3104	-3.0479	-2.8563	-2.4542	273.491	14.404	26.082	-32.486	239.704	289.961	141.213	289.948	218.016	47.933	260.695	97.832	52.192	323.755	208.023	2.990	0.00012328	0.00034181	7.1244e-05	1069.6	3.2904e-06	3.0597e-06	1179.5	219.86	1.9936e-06	2.532e-06	284.98	81.487	62.928	18.92	3.118e-06	26.535	0.00023372	0.00026338	7.2193e-05	1055.1	3.1553e-06	2.7501e-06	1159.2	219.32	2.7618e-06	2.8823e-06	283.47	81.777	63.501	19.104	2.6763e-06	26.861	231.837	67.836	65.976	-22.584	157.106	115.559	-22.300	-14.724	204.030	140.302	-15.309	-8.090	-7.387	-0.558	161.914	-1.232	-8191	255	
38436.879	1	1	0	0	0.17295	0.070076	0.28762	0.30032	0.10904	0.20526	0.095268	0.28141	0.063314	0.22039	0.098786	0.1079	0.20165	0.40187	0.21907	0.26626	-2.9708	-2.4917	-2.5167	-3.2958	-2.3187	-2.925	-3.0208	-2.4042	-3.2792	-2.6208	-2.6271	-3.1896	-2.4875	-2.9437	-2.9688	-2.4437	77.284	91.969	160.103	248.400	0.846	-6.939	313.783	268.105	40.261	277.681	51.796	316.058	95.780	250.941	236.922	-25.178	0.00015737	0.00034156	6.322e-05	1076.6	3.8835e-06	3.1004e-06	1176.7	221.35	2.0267e-06	2.6916e-06	285.37	82.006	63.184	18.868	3.9468e-06	26.771	0.00022999	0.00026776	6.8396e-05	1056.8	3.1131e-06	2.6773e-06	1158.7	219.79	2.674e-06	2.7284e-06	283.41	81.87	63.429	19.118	2.7769e-06	26.949	234.859	65.306	63.757	-22.652	141.407	115.337	-22.656	-14.866	206.654	96.859	-15.385	-8.155	-7.880	-0.405	139.358	-0.940	-8191	255	
38436.973	1	1	0	0	0.23781	0.20494	0.17155	0.11032	0.14345	0.20514	0.14976	0.13472	0.31935	0.19573	0.23301	0.12072	0.20286	0.11802	0.092319	0.17652	-2.6625	-2.5687	-2.4125	-3.2562	-2.4271	-2.9625	-3.1292	-2.2208	-3.1625	-2.7208	-2.6458	-3.2604	-2.4646	-2.8521	-2.9396	-2.4542	286.493	326.915	317.978	219.776	146.649	101.940	272.424	78.618	6.261	106.937	28.622	265.646	37.033	79.024	42.228	153.588	0.00015845	0.00038555	7.861e-05	1070.3	2.1675e-06	2.0938e-06	1177.2	220.44	2.7018e-06	2.336e-06	284.11	81.788	62.79	18.965	3.5673e-06	26.702	0.00024222	0.00024727	7.3236e-05	1054.7	3.037e-06	2.695e-06	1157.1	219.1	2.8426e-06	2.8009e-06	282.52	81.945	63.152	19.15	2.6138e-06	26.953	237.389	66.881	51.111	-22.469	173.170	125.978	-22.360	-14.842	144.915	129.243	-15.087	-8.057	-7.361	-0.637	145.939	-1.430	-8191	255	
38437.070	1	1	0	0	0.054944	0.097841	0.11681	0.24148	0.14927	0.48467	0.067321	0.17679	0.17352	0.22147	0.19857	0.075242	0.065087	0.16412	0.23907	0.16343	-2.9521	-2.8187	-2.1979	-3.2792	-2.4292	-2.4938	-3.1333	-2.1875	-2.9292	-2.8333	-2.4167	-3.0583	-2.5375	-2.8625	-3.1583	-2.5563	50.944	43.656	143.551	239.845	-27.584	-15.384	266.695	291.128	236.857	187.748	281.771	103.479	-14.571	270.266	23.424	211.509	0.00017255	0.00019927	8.5512e-05	1072.2	3.5642e-06	3.3975e-06	1171.6	219.62	1.3894e-06	2.5474e-06	282.25	81.504	63.03	18.902	3.8026e-06	26.616	0.00023724	0.00024081	7.4683e-05	1056.2	3.0424e-06	2.783e-06	1154.8	218.44	2.7862e-06	2.5538e-06	281.63	81.649	63.176	19.043	2.5525e-06	26.875	230.979	53.068	65.549	-22.613	185.984	102.277	-22.401	-14.785	150.688	141.194	-15.604	-8.094	-7.911	-1.102	153.325	-1.537	-8191	255	
38437.164	1	1	0	0	0.22954	0.052857	0.19607	0.26453	0.16951	0.27227	0.27521	0.077806	0.12729	0.1456	0.12679	0.099955	0.10927	0.090477	0.25333	0.16237	-2.5292	-2.9229	-2.2062	-3.4083	-2.5042	-2.4813	-3.4896	-2.4833	-2.9771	-3.0938	-2.4396	-3.2438	-2.7438	-2.5604	-3.2438	-2.4542	-2.908	253.130	21.436	255.290	10.994	-23.778	323.688	257.914	129.652	87.004	102.319	-1.010	145.180	-15.724	-19.513	273.267	0.0001593	0.00042532	6.2081e-05	1064.8	2.6798e-06	2.7025e-06	1172.6	218.42	1.3464e-06	2.9247e-06	282.77	81.588	62.933	18.818	3.3384e-06	26.652	0.00023954	0.00024682	7.1197e-05	1052	2.9971e-06	2.9008e-06	1152.5	218.24	2.6783e-06	2.7158e-06	281.34	81.742	63.21	19.036	2.7364e-06	26.811	236.404	43.819	97.386	-22.393	166.847	131.172	-22.320	-14.942	156.000	114.467	-15.157	-7.899	-7.554	-0.723	133.998	-1.463	-8191	255	
38437.262	1	1	0	0	0.11424	0.076751	0.091113	0.18843	0.19273	0.088102	0.14838	0.25392	0.13489	0.063891	0.070328	0.24992	0.10108	0.35294	0.23264	0.20681	-2.5687	-2.9313	-2.4479	-3.3708	-2.5875	-2.4688	-3.325	-2.4771	-2.6562	-3.0938	-2.2854	-3.2687	-2.7021	-2.3021	-3.1688	-2.4854	-26.757	146.452	264.943	303.329	38.867	132.532	-21.299	251.382	79.603	246.011	220.936	25.787	74.100	195.080	71.935	14.523	0.00013637	0.00025699	7.4555e-05	1070.7	3.2058e-06	1.7641e-06	1168.6	218.19	2.1733e-06	2.9229e-06	281.66	81.094	63.365	18.664	1.4449e-06	26.428	0.00024035	0.0002398	7.2831e-05	1053.3	3.1472e-06	2.8166e-06	1151.7	217.6	2.8763e-06	2.5125e-06	281.49	81.556	63.176	18.98	2.5034e-06	26.797	222.715	70.226	51.099	-22.446	173.207	105.372	-22.366	-14.680	144.506	126.274	-15.209	-8.090	-7.604	-0.227	94.084	-1.518	-8191	255	
38437.355	1	1	0	0	0.091402	0.065369	0.05758	0.31275	0.061467	0.12061	0.069348	0.26473	0.037719	0.1082	0.07045	0.097524	0.16372	0.055205	0.17759	0.059039	-2.3167	-3.1646	-2.2667	-3.1583	-2.8792	-2.4792	-3.3583	-2.6188	-2.6521	-3.1396	-2.4667	-3.1229	-2.9542	-2.3583	-3.0104	-2.5438	316.321	5.918	-16.817	325.519	-5.757	66.819	325.114	188.656	267.784	94.928	-3.074	198.342	155.363	77.539	116.309	157.887	0.00014345	0.00024432	8.7361e-05	1064.5	3.0688e-06	3.1032e-06	1163.4	216.68	2.0506e-06	2.9757e-06	281.79	80.876	62.743	18.778	3.3442e-06	26.491	0.00024359	0.00023923	7.4419e-05	1049.5	2.752e-06	2.9198e-06	1147.5	216.63	3.0151e-06	2.7415e-06	280.08	81.08	62.832	18.991	2.6798e-06	26.748	239.450	67.918	60.346	-22.655	148.217	134.994	-22.312	-14.930	203.112	108.263	-15.441	-7.784	-7.257	-0.322	151.943	-1.944	-8191	255	
38437.477	1	1	0	0	0.039977	0.083605	0.29593	0.21485	0.21788	0.074338	0.25507	0.21251	0.16292	0.10938	0.15117	0.15308	0.081989	0.1785	0.21288	0.20128	-2.1354	-3.1104	-2.3646	-3.1208	-2.9604	-2.4042	-3.3812	-2.7771	-2.4896	-3.1458	-2.4125	-2.8708	-2.9125	-2.3312	-3.1625	-2.7	4.511	56.223	263.734	260.171	50.131	162.271	282.271	321.019	94.153	103.663	-28.829	52.990	95.805	-27.603	275.397	6.955	0.00012986	0.00031826	5.2515e-05	1061.9	2.4394e-06	2.2132e-06	1162.2	217.13	2.4221e-06	2.706e-06	278.24	80.925	62.67	18.714	1.517e-06	26.47	0.00024194	0.00024575	7.1384e-05	1047.8	2.8686e-06	2.8394e-06	1148.1	215.82	2.8052e-06	2.4181e-06	278.88	81.079	62.735	18.942	2.5982e-06	26.655	239.781	57.797	78.022	-22.464	136.881	134.909	-22.409	-14.755	172.660	110.715	-15.290	-7.412	-7.662	-0.870	134.117	-0.909	-8191	255	
38437.551	1	1	0	0	0.041999	0.28131	0.12477	0.2322	0.12559	0.35584	0.14503	0.28212	0.14255	0.25518	0.17554	0.24196	0.025743	0.11808	0.11164	0.14576	-1.9375	-3.2188	-2.3812	-2.9688	-3.1583	-2.2958	-3.3688	-2.6083	-2.6771	-3.2083	-2.5729	-2.8083	-3.2354	-2.25	-3.1542	-2.9875	271.951	299.040	119.360	292.922	15.233	-25.012	68.061	253.192	251.984	-14.530	285.052	223.756	31.745	250.318	76.348	284.260	0.00014401	0.00021701	4.294e-05	1060.8	2.6301e-06	2.6101e-06	1164.7	215.52	2.6494e-06	3.2661e-06	281.04	80.605	62.29	18.607	2.6896e-06	26.306	0.00023372	0.00024008	7.0606e-05	1044.4	3.0208e-06	2.7931e-06	1145.7	214.9	2.9413e-06	2.5782e-06	278.97	80.762	62.724	18.873	2.6798e-06	26.614	236.982	45.555	48.277	-22.450	137.984	108.119	-22.446	-14.546	143.777	130.687	-15.656	-8.098	-7.705	-0.352	151.005	-1.460	-8191	255	
38437.645	1	1	0	0	0.34924	0.085098	0.060831	0.15553	0.12342	0.1877	0.24982	0.16928	0.23608	0.17624	0.1554	0.24587	0.17462	0.098138	0.036881	0.041408	-2.0125	-3.1271	-2.4521	-2.6958	-3.1083	-2.3729	-3.2875	-3.0042	-2.1625	-3.2021	-2.6542	-2.5687	-3.0708	-2.3542	-2.8729	-3.0229	44.103	42.917	110.811	-28.224	219.411	309.401	271.304	322.057	16.897	101.579	84.330	276.414	255.805	268.234	7.521	250.162	0.00018691	0.00030402	6.7347e-05	1059.2	3.1463e-06	2.5843e-06	1162.1	215.99	2.0207e-06	2.5829e-06	280.08	80.313	62.44	18.721	2.5286e-06	26.259	0.00024835	0.00023323	6.7618e-05	1043.6	2.82e-06	2.7659e-06	1144.4	215.17	2.9771e-06	2.6445e-06	278.44	80.893	62.593	18.929	2.7052e-06	26.618	233.868	60.392	64.842	-22.416	167.467	125.776	-22.278	-14.344	181.439	113.362	-15.394	-7.655	-7.640	-0.636	140.859	-1.273	-8191	255	
38437.766	1	1	0	0	0.15593	0.31835	0.13736	0.035759	0.18156	0.074123	0.24686	0.072849	0.21912	0.17157	0.30092	0.22757	0.15118	0.15884	0.069921	0.18344	-2.1437	-3.3771	-2.6833	-2.6979	-3.2417	-2.35	-3.0167	-3.0958	-2.2625	-3.1188	-2.6792	-2.4333	-3.1937	-2.2562	-2.8271	-3.0438	302.919	158.260	225.625	-14.369	259.875	201.065	217.036	275.254	65.852	9.138	-10.735	102.493	245.667	7.942	24.390	-30.613	0.00015412	0.00026486	0.00012363	1056.1	2.7622e-06	2.7447e-06	1162.3	215.52	3.3592e-06	2.1703e-06	280.47	79.91	62.184	18.697	3.0508e-06	26.403	0.00024629	0.00022918	7.3469e-05	1041.3	2.7088e-06	2.7969e-06	1142.3	214.42	3.1003e-06	2.4906e-06	278.35	80.413	62.452	18.887	2.7035e-06	26.539	246.247	37.994	55.216	-22.336	143.230	138.071	-22.178	-14.536	178.940	147.512	-14.981	-7.762	-7.333	-0.910	142.997	-1.177	-8191	255	
38437.863	1	1	0	0	0.16386	0.24057	0.3033	0.14042	0.1771	0.1132	0.079274	0.23576	0.17329	0.2464	0.085561	0.12169	0.032861	0.37127	0.163	0.2175	-1.8792	-3.0479	-2.7	-2.6667	-3.1708	-2.4729	-2.8979	-3.1333	-2.1708	-3.0687	-3.0125	-2.2375	-3.2833	-2.6583	-2.5917	-3.2208	258.384	73.132	39.954	250.225	21.407	192.529	162.145	-21.552	86.767	226.748	132.683	109.067	308.113	312.694	194.112	144.038	0.00012722	0.00028721	9.2782e-05	1054.7	1.7482e-06	3.3225e-06	1160.8	215.89	1.5712e-06	2.6497e-06	279.26	79.886	62.154	18.674	2.1363e-06	26.368	0.00024004	0.00022581	7.0653e-05	1039.7	2.8675e-06	2.7874e-06	1139.9	214.2	2.8692e-06	2.6358e-06	277.44	80.432	62.391	18.857	2.6977e-06	26.579	229.465	56.916	59.925	-22.472	168.023	113.195	-22.293	-14.903	194.169	117.599	-15.523	-7.538	-7.388	-0.317	143.763	-1.332	-8191	255	
38437.957	1	1	0	0	0.18659	0.10459	0.046181	0.098509	0.038246	0.024293	0.33248	0.15773	0.084442	0.16735	0.13965	0.45916	0.22848	0.17884	0.19404	0.19995	-2	-2.8771	-2.8521	-2.4917	-3.3583	-2.5938	-2.8354	-3.0687	-2.4333	-2.9958	-3.0438	-2.4583	-3.1437	-2.5958	-2.5542	-3.2583	-20.705	267.242	-5.193	165.244	93.507	93.520	225.403	104.035	63.067	103.135	-18.955	275.561	94.820	266.617	263.395	5.040	0.00015108	0.00038073	9.9746e-05	1055.1	2.6691e-06	2.7357e-06	1158.5	214.36	2.4052e-06	3.3932e-06	278.94	80.464	62.395	18.633	3.3373e-06	26.357	0.00024832	0.00024541	6.7789e-05	1037.4	2.9895e-06	2.7957e-06	1139.6	213.83	2.7792e-06	2.642e-06	277.7	80.567	62.466	18.871	2.7925e-06	26.548	235.721	58.751	46.293	-22.677	144.207	116.859	-22.270	-14.485	201.312	120.541	-15.239	-7.873	-7.608	-0.950	144.200	-1.013	-8191	255	
38438.055	1	1	0	0	0.063517	0.21749	0.26412	0.19501	0.18019	0.20578	0.22292	0.14976	0.033194	0.17628	0.15393	0.18552	0.099406	0.02388	0.072621	0.36085	-2.1	-2.9896	-3.0125	-2.4667	-3.1083	-2.6354	-2.45	-3.3083	-2.3812	-2.8021	-3.2812	-2.2125	-3.1271	-3.025	-2.3937	-3.1688	227.093	286.444	167.181	43.523	59.159	106.882	233.536	265.064	234.384	108.159	289.562	292.973	286.541	72.763	244.427	310.070	0.00013602	0.00027756	9.1438e-05	1056.1	1.6891e-06	2.3031e-06	1158.3	215.31	1.7893e-06	1.4636e-06	278.12	80.251	62.528	18.623	2.38e-06	26.386	0.00024334	0.00024957	6.8645e-05	1038.7	2.8119e-06	2.6627e-06	1142.1	213.67	2.8557e-06	2.6602e-06	277.28	80.612	62.556	18.869	2.7428e-06	26.587	236.516	53.850	48.030	-22.616	183.163	122.982	-22.177	-14.394	198.378	149.646	-15.203	-7.864	-7.330	-0.716	140.810	-1.516	-8191	255	
38438.152	1	1	0	0	0.121	0.11228	0.14814	0.14903	0.22901	0.082026	0.12784	0.28913	0.15432	0.070594	0.18417	0.18956	0.10536	0.16077	0.1194	0.32924	-2.0958	-2.7708	-3.1229	-2.3167	-3.0479	-2.7	-2.5292	-3.3396	-2.4188	-2.8187	-3.1458	-2.375	-3.2354	-2.8688	-2.3812	-3.0229	166.142	14.105	15.123	285.860	159.536	200.421	119.246	288.809	69.542	296.192	219.687	230.066	23.603	0.554	268.782	305.114	0.00013183	0.00019131	9.17e-05	1057.6	2.5995e-06	2.1319e-06	1159.7	215.27	1.4056e-06	2.5319e-06	278.73	79.65	62.535	18.579	2.8465e-06	26.381	0.00023755	0.00025288	6.379e-05	1038.8	2.9571e-06	2.5007e-06	1139.6	214.33	2.8725e-06	2.7277e-06	277.43	80.535	62.438	18.851	2.8706e-06	26.604	237.819	47.211	50.598	-22.718	123.179	92.415	-22.504	-14.600	178.683	102.629	-15.418	-7.840	-7.467	-0.941	132.949	-1.140	-8191	255	
38438.246	1	1	0	0	0.23951	0.37319	0.17212	0.24867	0.25886	0.10181	0.37022	0.061614	0.27028	0.095333	0.26719	0.25476	0.19647	0.15559	0.24789	0.19964	-2.3187	-2.4688	-3.075	-2.4562	-2.9417	-2.875	-2.7167	-3.2646	-2.4875	-2.5062	-3.2042	-2.3917	-2.7438	-2.8792	-2.1292	-3.1688	116.112	258.749	218.938	238.649	198.392	-8.627	264.787	140.287	17.585	261.729	225.322	185.981	139.446	185.672	-21.617	141.612	0.00014396	0.00024341	7.6881e-05	1056.4	2.595e-06	2.8224e-06	1162.3	215.15	2.8275e-06	3.6799e-06	279.64	80.412	62.469	18.553	2.6527e-06	26.319	0.00023151	0.00025659	6.5439e-05	1038.7	3.0041e-06	2.7957e-06	1140	213.77	2.9142e-06	2.7115e-06	277.11	80.619	62.51	18.81	2.7555e-06	26.592	236.771	55.051	46.585	-22.537	162.640	93.314	-22.476	-14.707	202.008	128.435	-15.182	-8.086	-7.314	-1.111	181.952	-1.398	-8191	255	
38438.367	1	1	0	0	0.1141	0.25185	0.11103	0.39343	0.063953	0.091277	0.1656	0.094992	0.15053	0.080773	0.097522	0.15566	0.073342	0.28585	0.1465	0.27152	-2.3125	-2.4688	-3.2792	-2.5417	-2.6604	-3.1792	-2.3958	-3.2188	-2.8333	-2.2792	-3.1333	-2.5542	-2.725	-3.1125	-2.2854	-3.1562	16.571	29.752	197.316	265.437	209.446	189.324	82.070	229.302	61.692	165.748	241.223	241.025	142.176	200.003	307.230	258.614	0.0001429	0.00026132	0.0001165	1050.4	2.7006e-06	3.1317e-06	1157.4	215.29	1.3025e-06	3.2316e-06	279.84	79.928	62.274	18.542	2.6581e-06	26.337	0.00023627	0.00025956	6.9501e-05	1036.6	2.9836e-06	2.5697e-06	1138.5	214.2	2.5888e-06	2.7734e-06	278.12	80.434	62.357	18.829	2.6931e-06	26.611	234.579	65.458	64.519	-22.473	147.163	124.399	-22.418	-14.521	162.292	112.054	-15.330	-8.328	-7.545	-0.791	132.766	-1.271	-8191	255	
38438.461	1	1	0	0	0.12301	0.15997	0.010993	0.31448	0.074129	0.20709	0.18326	0.20862	0.32113	0.1773	0.16775	0.098066	0.12769	0.1438	0.14891	0.35581	-2.5167	-2.3104	-3.1896	-2.6688	-2.5833	-3.2125	-2.5312	-3.1292	-2.8917	-2.3375	-3.1604	-2.5208	-2.6458	-3.0625	-2.2708	-2.8979	40.978	14.588	93.937	258.222	274.218	93.992	262.985	8.422	266.226	299.785	243.222	203.480	152.348	53.722	-7.278	231.469	0.00015551	0.00036845	8.6223e-05	1050.3	2.96e-06	2.317e-06	1159.8	215.42	3.4808e-06	2.4972e-06	279.47	80.211	62.484	18.634	2.4286e-06	26.403	0.0002429	0.00026142	6.4397e-05	1038	3.0208e-06	2.4867e-06	1140.1	214.14	2.6528e-06	2.9605e-06	277.68	80.576	62.667	18.82	2.7324e-06	26.622	224.217	61.558	50.787	-22.444	123.447	111.149	-22.516	-14.694	164.155	116.472	-15.531	-8.189	-7.538	-0.582	138.005	-0.920	-8191	255	
38438.559	1	1	0	0	0.19941	0.19524	0.20391	0.049252	0.099182	0.11621	0.23181	0.22244	0.20664	0.24366	0.086534	0.20106	0.2206	0.16824	0.19104	0.20708	-2.6312	-2.1229	-3.1479	-2.7625	-2.3875	-3.2021	-2.3833	-2.8896	-2.9688	-2.2375	-3.1875	-2.5083	-2.6292	-3.1292	-2.4437	-2.7979	62.197	293.164	306.383	289.726	163.021	137.138	219.157	281.244	91.878	84.321	-32.233	241.831	22.312	99.728	137.743	234.258	0.00012524	0.00027119	8.7954e-05	1056	2.5186e-06	3.7743e-06	1156	215.32	2.7314e-06	3.0139e-06	277.93	79.988	61.825	18.549	3.1111e-06	26.236	0.00022713	0.00025142	6.3696e-05	1037.7	3.0791e-06	2.6228e-06	1137.3	213.81	2.7607e-06	2.8053e-06	276.96	80.307	62.158	18.778	2.8798e-06	26.583	230.986	62.986	63.997	-22.569	147.138	122.723	-22.613	-14.630	184.248	118.314	-15.255	-7.810	-7.379	-0.603	127.368	-1.353	-8191	255	
38438.652	1	1	0	0	0.13845	0.22419	0.20653	0.41036	0.21914	0.16669	0.082174	0.17788	0.21726	0.20814	0.18506	0.29589	0.2615	0.2049	0.18565	0.064643	-2.6396	-2.3458	-2.9875	-2.8958	-2.4875	-3.1583	-2.7354	-2.9146	-3.2062	-2.4979	-3.1688	-2.9979	-2.3375	-3.2625	-2.4896	-2.675	3.737	203.047	19.328	303.583	137.682	197.074	259.599	264.373	312.662	40.400	313.486	-27.682	71.337	42.586	72.306	266.784	0.00014048	0.0002297	6.1947e-05	1048.2	3.3325e-06	3.4716e-06	1155.1	214.35	1.6633e-06	4.3522e-06	278.28	79.581	62.095	18.471	3.8018e-06	26.216	0.00022825	0.0002594	6.9874e-05	1034.3	3.0959e-06	2.5557e-06	1136	213.09	2.6973e-06	2.9048e-06	276.46	80.158	62.196	18.715	2.8411e-06	26.452	238.001	59.670	66.654	-22.612	161.567	131.838	-22.409	-14.513	224.326	125.636	-15.258	-8.025	-7.771	-0.557	148.503	-1.029	-8191	255	
38438.773	1	1	0	0	0.22919	0.29133	0.1633	0.049832	0.26389	0.047206	0.23132	0.1981	0.13293	0.19648	0.16648	0.069567	0.083993	0.20432	0.1788	0.066222	-2.8	-2.3625	-2.9271	-3.0542	-2.4479	-3.0812	-2.6375	-2.5771	-3.2875	-2.3937	-3.0042	-2.9	-2.3792	-3.2521	-2.6396	-2.4562	122.714	157.799	319.509	284.065	113.205	69.644	260.473	298.331	20.711	216.538	-12.304	94.137	127.641	143.643	260.137	241.436	0.0001557	0.00029931	5.6377e-05	1050.3	3.264e-06	3.681e-06	1150.6	213.42	2.6462e-06	2.2921e-06	276.81	79.901	61.886	18.459	3.819e-06	26.228	0.00023036	0.00027377	6.5035e-05	1033.1	3.0279e-06	2.6811e-06	1132.4	212.76	2.7553e-06	3.0149e-06	275.57	80.151	62.08	18.746	2.8238e-06	26.451	236.154	71.285	21.459	-22.456	159.580	102.910	-22.387	-14.743	200.465	105.396	-14.966	-8.119	-7.602	-0.677	134.623	-1.045	-8191	255	
38438.848	1	1	0	0	0.38069	0.084613	0.36025	0.24421	0.04519	0.07813	0.14965	0.13494	0.090329	0.10209	0.29643	0.14222	0.13859	0.10549	0.15046	0.2053	-2.8688	-2.3771	-2.7979	-2.9125	-2.2292	-3.0771	-2.7417	-2.5396	-3.1771	-2.2625	-2.8396	-3.1083	-2.2333	-3.1125	-2.7771	-2.5125	225.541	109.699	152.121	261.524	243.579	133.279	3.442	216.347	142.125	158.875	310.578	234.014	254.149	324.516	182.429	289.689	0.0001576	0.00020669	7.5145e-05	1050.5	3.2299e-06	8.6955e-07	1151.2	213.33	4.7808e-07	3.0629e-06	278.47	80.034	61.914	18.608	1.9993e-06	26.187	0.00023543	0.00024126	6.8178e-05	1032.7	3.0732e-06	2.5532e-06	1131.6	212.41	2.6078e-06	2.8097e-06	276.25	80.157	62.166	18.801	2.4803e-06	26.502	239.664	53.920	74.375	-22.793	151.236	116.048	-22.194	-14.646	212.132	110.819	-14.871	-8.102	-7.583	-0.964	148.686	-1.135	-8191	255	
38438.941	1	1	0	0	0.25177	0.064099	0.30719	0.049293	0.31422	0.034612	0.4618	0.14233	0.16641	0.10203	0.2442	0.062443	0.17329	0.27298	0.18445	0.1154	-2.8292	-2.4083	-2.8021	-3.1312	-2.1979	-3.0667	-2.9854	-2.4292	-3.3042	-2.5083	-2.8104	-3.2625	-2.3479	-2.8083	-2.8312	-2.2896	233.626	93.950	49.422	283.004	153.349	264.742	221.887	265.712	0.013	53.414	279.231	18.566	228.795	326.975	112.949	178.735	0.0001421	0.00033273	9.1772e-05	1053.1	2.9528e-06	2.7224e-06	1152.3	214.09	2.4611e-06	2.4696e-06	278.36	79.537	61.879	18.459	3.2715e-06	26.199	0.00023556	0.00024041	6.9454e-05	1035	3.26e-06	2.7558e-06	1133.5	212.72	2.7287e-06	2.7302e-06	276.4	80.157	62.11	18.769	2.5965e-06	26.47	243.660	34.428	62.730	-22.419	168.237	117.221	-22.519	-14.510	169.659	129.443	-15.115	-7.899	-7.514	-0.682	124.634	-1.528	-8191	255	
38439.039	1	1	0	0	0.09066	0.19963	0.11934	0.084589	0.056676	0.089501	0.16881	0.14765	0.21542	0.16684	0.18572	0.14776	0.16548	0.23709	0.051511	0.17808	-2.8063	-2.5396	-2.5687	-3.3146	-2.3583	-2.9458	-2.9875	-2.5167	-3.1667	-2.55	-2.7354	-3.2396	-2.3438	-2.8271	-3.0854	-2.4146	178.065	-13.308	310.442	319.187	309.919	-19.132	273.000	284.097	30.775	-20.496	115.087	169.944	104.174	300.479	291.190	298.654	0.00015744	0.00022402	4.5747e-05	1049.6	3.0048e-06	3.9523e-06	1150.8	214.17	2.0565e-06	3.9189e-06	277.77	79.833	62.137	18.504	3.0091e-06	26.451	0.00022803	0.00024974	6.6855e-05	1035.2	3.1671e-06	2.5222e-06	1134.2	213.05	2.6463e-06	2.7077e-06	276.02	80.218	62.305	18.78	2.4687e-06	26.553	236.131	60.899	83.098	-22.587	154.655	129.723	-22.400	-14.447	173.069	106.394	-15.348	-7.957	-6.946	-0.808	159.922	-1.559	-8191	255	
38439.156	1	1	0	0	0.015619	0.16652	0.1282	0.090189	0.32368	0.1291	0.11141	0.27354	0.26906	0.30469	0.18194	0.19799	0.06642	0.16945	0.21614	0.26521	-2.8021	-2.7917	-2.4083	-3.3521	-2.6042	-2.9354	-3.2458	-2.4125	-3.3292	-2.7375	-2.6458	-3.1896	-2.4646	-2.7917	-2.9854	-2.2958	31.933	223.576	-7.976	248.330	40.986	269.533	209.417	265.168	107.311	66.864	170.004	83.589	248.854	294.899	322.768	268.343	0.0001357	0.00021133	7.7021e-05	1055.9	2.7727e-06	3.5005e-06	1154.3	213.78	1.5057e-06	1.9948e-06	276.9	79.859	61.817	18.615	3.1191e-06	26.219	0.00022607	0.00023828	7.4387e-05	1036.6	3.0808e-06	2.8071e-06	1135	212.77	2.6794e-06	2.6827e-06	276.09	80.313	62.078	18.802	2.4814e-06	26.492	241.014	57.311	56.988	-22.534	175.043	118.622	-22.340	-14.632	158.647	150.000	-15.146	-7.578	-7.755	-0.088	146.148	-1.493	-8191	255	
38439.254	1	1	0	0	0.14813	0.082666	0.13632	0.083962	0.14519	0.059289	0.24749	0.22949	0.14584	0.20235	0.17174	0.3062	0.1202	0.35056	0.11768	0.18325	-2.7208	-2.7625	-2.3833	-3.3271	-2.5146	-2.7292	-3.075	-2.2188	-2.9104	-2.8167	-2.3083	-3.0917	-2.5	-2.7062	-3.05	-2.3667	311.725	37.246	-29.700	226.750	238.169	176.083	191.272	294.292	251.283	194.106	33.063	279.938	-12.289	276.798	54.137	276.710	0.00016415	0.00023566	7.9063e-05	1049.4	4.184e-06	2.6357e-06	1154.8	213.86	2.7434e-06	3.1471e-06	277.67	79.607	62.18	18.407	2.7919e-06	26.232	0.00023932	0.00024665	7.8465e-05	1035.8	3.0435e-06	2.8463e-06	1136.2	212.69	2.7933e-06	2.6721e-06	276.49	80.249	62.201	18.784	2.5387e-06	26.518	234.806	69.179	36.238	-22.337	181.867	129.878	-22.229	-15.001	173.853	139.888	-15.216	-7.683	-7.871	-0.534	137.372	-1.456	-8191	255	
38439.352	1	1	0	0	0.13609	0.1258	0.090739	0.39553	0.20065	0.35833	0.24192	0.2709	0.17292	0.16902	0.22049	0.099915	0.14366	0.23914	0.041303	0.0965	-2.6146	-2.7458	-2.5125	-3.3	-2.4813	-2.5875	-3.325	-2.3833	-2.7479	-2.8937	-2.4021	-3.1833	-2.5333	-2.5146	-3.1562	-2.4562	204.593	279.109	237.176	-32.010	6.904	-31.378	276.472	225.796	318.267	218.301	260.038	189.516	303.659	291.030	1.515	230.274	0.00017053	0.00029041	9.0399e-05	1050	3.1054e-06	1.7529e-06	1150	214.38	1.7269e-06	3.3982e-06	276.06	80.377	61.64	18.532	4.1266e-06	26.094	0.00023416	0.00022435	7.1633e-05	1034.2	3.097e-06	2.8292e-06	1134.6	212.59	2.7184e-06	2.6201e-06	275.5	80.292	61.932	18.765	2.5022e-06	26.457	230.093	50.084	57.457	-22.358	148.406	112.008	-22.483	-14.852	147.061	126.590	-15.354	-7.459	-7.352	-0.538	154.146	-1.419	-8191	255	
38439.445	1	1	0	0	0.1479	0.12216	0.16835	0.10773	0.20288	0.028935	0.27379	0.16027	0.1221	0.20978	0.031292	0.17416	0.076913	0.065137	0.3696	0.22906	-2.2833	-3.0604	-2.3312	-3.2771	-2.7292	-2.3729	-3.3792	-2.5229	-2.8229	-3.0729	-2.5104	-3.1146	-2.9938	-2.375	-3.2438	-2.5958	50.981	188.789	263.095	-15.310	-1.552	86.445	280.885	51.948	35.521	126.274	157.642	-8.029	-20.889	307.050	254.616	196.109	0.00011641	0.00042922	8.0014e-05	1049.6	3.742e-06	2.6869e-06	1152.2	213.77	2.1921e-06	2.5234e-06	277.73	79.716	61.906	18.606	2.5144e-06	26.014	0.00022762	0.00024109	6.9828e-05	1033.5	2.8929e-06	2.707e-06	1134.9	212.93	2.7054e-06	2.5175e-06	276.26	80.185	61.95	18.798	2.5207e-06	26.371	232.601	46.600	70.831	-22.370	146.383	128.264	-22.568	-14.621	171.009	105.817	-15.116	-7.721	-7.513	-0.500	141.805	-1.608	-8191	255	
38439.543	1	1	0	0	0.12821	0.26624	0.19447	0.38165	0.097432	0.08927	0.20376	0.2514	0.28835	0.11866	0.097072	0.05167	0.10493	0.23223	0.26954	0.11268	-2.2917	-3.1167	-2.2812	-3.2229	-2.9083	-2.3333	-3.3396	-2.5062	-2.5292	-3.1104	-2.3917	-3.1042	-2.8771	-2.4083	-3.0708	-2.65	292.144	252.021	295.301	271.351	4.575	-18.890	223.863	250.555	213.993	218.785	-25.360	268.448	252.485	-23.235	282.375	283.201	0.0001491	0.00029289	9.4855e-05	1049.8	3.0483e-06	1.7735e-06	1156.2	213.47	2.3159e-06	3.3064e-06	277.22	79.8	61.956	18.522	2.4345e-06	25.979	0.00023677	0.00024182	7.1508e-05	1035.2	2.9399e-06	2.8577e-06	1135.3	212.72	2.687e-06	2.5732e-06	275.88	80.146	62.14	18.781	2.5838e-06	26.418	230.011	63.077	67.515	-22.709	146.638	90.641	-22.209	-14.740	185.314	136.427	-15.341	-7.602	-7.647	-0.447	146.937	-1.513	-8191	255	
38439.637	1	1	0	0	0.14495	0.12304	0.046708	0.11608	0.069137	0.033709	0.17005	0.13448	0.21679	0.057239	0.17637	0.28125	0.060619	0.25458	0.36494	0.040885	-2.0438	-3.15	-2.3833	-3.2188	-3.0667	-2.2875	-3.4708	-2.7854	-2.5812	-3.1708	-2.4333	-2.825	-3.1833	-2.4292	-2.9896	-2.7292	46.702	43.593	191.155	279.101	189.098	266.314	254.273	16.928	43.748	285.993	161.132	304.633	269.828	186.618	308.618	-18.560	0.00014786	0.0002767	7.4326e-05	1046.9	2.5933e-06	2.3561e-06	1153.7	213.32	1.6787e-06	1.9836e-06	277.11	79.676	62.083	18.53	3.5802e-06	26.106	0.00023575	0.00023407	6.8816e-05	1033.9	2.6602e-06	2.9717e-06	1134.7	212.22	2.8361e-06	2.602e-06	275.5	80.13	62.064	18.729	2.408e-06	26.395	242.155	52.601	70.613	-22.438	189.769	132.886	-22.272	-14.875	160.564	116.880	-15.364	-8.071	-7.343	-0.673	137.092	-1.269	-8191	255	
38439.734	1	1	0	0	0.13093	0.13468	0.13071	0.30051	0.31193	0.1043	0.079416	0.12628	0.080964	0.05713	0.39743	0.047755	0.20054	0.27175	0.14311	0.098235	-2.0729	-3.2521	-2.4729	-2.8479	-3.15	-2.3937	-3.3375	-2.8583	-2.5208	-3.3104	-2.5667	-2.7271	-3.0083	-2.3021	-3.0708	-2.9125	56.330	-29.028	111.192	311.739	207.951	89.318	319.980	126.781	145.507	200.330	271.365	-20.865	-29.294	-0.667	38.326	-12.520	0.00014008	0.00027342	8.4871e-05	1051.1	3.2562e-06	2.3151e-06	1156.6	213.14	2.625e-06	2.4866e-06	277.36	80.004	61.859	18.431	2.5077e-06	26.049	0.00023783	0.00021256	7.3314e-05	1035.6	2.786e-06	2.7349e-06	1135.7	212.55	2.9441e-06	2.5569e-06	275.72	80.205	61.989	18.716	2.3872e-06	26.313	237.485	33.161	67.128	-22.410	163.215	130.794	-22.518	-14.611	159.615	106.792	-15.235	-7.976	-7.455	-0.826	149.304	-1.726	-8191	255	
38439.855	1	1	0	0	0.26162	0.14165	0.14399	0.078304	0.11928	0.15492	0.30009	0.32795	0.16653	0.16362	0.24013	0.31333	0.020011	0.023951	0.006154	0.16162	-1.9833	-3.1896	-2.5375	-2.6542	-3.075	-2.3896	-3.0854	-2.8583	-2.3979	-3.3542	-2.7479	-2.5438	-3.2708	-2.3146	-2.9813	-3.2271	285.598	189.862	204.929	321.523	-4.950	-18.264	301.414	295.144	235.550	-23.355	283.707	287.154	115.694	318.018	190.337	75.272	0.00015572	0.0003839	0.00010888	1048.4	4.2647e-06	2.531e-06	1149.4	214.53	1.7353e-06	2.1429e-06	278.72	79.64	61.977	18.504	5.4221e-06	26.234	0.000249	0.00024289	7.1571e-05	1035.1	2.9615e-06	2.8102e-06	1134.2	212.64	2.8182e-06	2.5319e-06	275.95	80.086	61.834	18.708	2.7896e-06	26.405	240.174	74.591	41.252	-22.384	152.673	149.285	-22.260	-14.743	203.795	124.887	-15.334	-8.130	-7.533	-0.936	153.218	-1.184	-8191	255	
38439.949	1	1	0	0	0.15451	0.062934	0.16278	0.251	0.26734	0.14091	0.23606	0.1011	0.16379	0.094639	0.090975	0.13903	0.039905	0.29515	0.13461	0.098551	-1.9583	-3.1167	-2.7979	-2.7729	-3.1521	-2.4667	-3.1	-3.2458	-2.3146	-3.3	-2.5938	-2.6396	-3.2542	-2.2646	-2.8333	-3.1333	199.282	179.557	-3.586	12.936	241.669	17.970	294.943	120.894	238.939	70.859	18.106	207.210	268.407	304.161	73.803	177.410	0.0001561	0.00027264	8.8303e-05	1053.1	3.7786e-06	2.7458e-06	1152.4	212.45	2.1847e-06	2.3446e-06	276.97	79.87	61.909	18.29	2.8692e-06	26.044	0.00023484	0.00022407	6.8754e-05	1036.3	2.7801e-06	3.0198e-06	1134.7	212.29	2.9028e-06	2.5025e-06	275.49	80.143	61.922	18.697	2.7133e-06	26.354	231.214	61.578	89.185	-22.352	156.537	133.818	-22.120	-14.468	172.013	102.351	-15.359	-7.617	-7.273	-0.588	134.181	-1.568	-8191	255	
38440.047	1	1	0	0	0.12761	0.11403	0.22459	0.16396	0.096065	0.2345	0.24684	0.075042	0.079896	0.040067	0.031178	0.21132	0.065353	0.23423	0.089979	0.1625	-1.8854	-2.9375	-2.7583	-2.6167	-3.1729	-2.4875	-2.8729	-3.2979	-2.4042	-2.9854	-3.0208	-2.4708	-3.2687	-2.6063	-2.7104	-3.3312	199.448	83.493	-15.785	155.367	322.360	-7.027	300.549	31.404	7.215	141.801	318.874	28.518	16.533	148.289	-1.624	277.719	0.00013669	0.00029372	7.929e-05	1052.7	1.4259e-06	2.3658e-06	1149.8	213.86	1.4229e-06	3.2555e-06	276.82	79.352	62.012	18.45	3.8186e-06	26.178	0.00024978	0.00024738	6.6731e-05	1035.2	2.7536e-06	2.7893e-06	1137.1	212.38	2.9093e-06	2.6846e-06	275.44	79.952	62.042	18.702	2.6653e-06	26.405	239.041	60.259	86.515	-22.408	137.653	112.859	-22.361	-14.556	138.483	119.172	-15.237	-7.664	-7.573	-0.305	135.250	-1.429	-8191	255	
38440.145	1	1	0	0	0.11529	0.15808	0.085513	0.14486	0.196	0.038939	0.26375	0.284	0.03059	0.14211	0.36528	0.13182	0.20373	0.10702	0.29856	0.12209	-2.1396	-2.9792	-3.05	-2.3917	-3.2125	-2.7042	-2.5792	-3.2313	-2.5875	-3.0146	-3.0729	-2.4688	-3.4437	-2.6854	-2.5854	-3.2708	224.308	241.771	302.718	87.874	150.119	206.059	301.057	293.725	90.571	289.051	216.667	326.145	8.910	168.169	151.686	-7.010	0.00015017	0.00020442	5.678e-05	1050	3.7484e-06	2.2725e-06	1159.6	213.96	1.8128e-06	2.422e-06	277.03	79.936	62.247	18.513	3.6246e-06	26.044	0.00024377	0.00024182	5.951e-05	1035.7	2.8967e-06	2.8147e-06	1136.6	212.6	2.6924e-06	2.5876e-06	275.85	80.169	62.217	18.723	2.7156e-06	26.395	237.826	59.057	67.410	-22.341	167.352	102.675	-22.090	-14.753	177.261	120.998	-15.275	-7.836	-7.887	-0.787	125.670	-1.166	-8191	255	
38440.238	1	1	0	0	0.13102	0.34818	0.19645	0.28121	0.26122	0.28793	0.23119	0.23354	0.25177	0.10467	0.1138	0.27894	0.11351	0.12801	0.16891	0.11172	-1.9479	-2.7771	-3.1021	-2.4375	-3.0938	-2.7417	-2.5979	-3.3979	-2.5333	-2.975	-3.3167	-2.3187	-3.0792	-2.8146	-2.425	-3.3708	249.239	190.566	71.626	33.281	129.896	148.099	237.166	29.740	24.241	297.840	63.042	14.926	-20.953	321.964	63.769	65.278	0.00013994	0.00032982	4.9697e-05	1051.9	3.8905e-06	3.0439e-06	1152.5	213.56	2.3996e-06	2.4992e-06	276.38	80.109	61.713	18.573	2.9226e-06	26.33	0.00023466	0.00022643	6.2949e-05	1036.6	2.8816e-06	2.5532e-06	1135.7	212.54	2.7168e-06	2.5663e-06	275.71	80.227	62.051	18.799	2.8417e-06	26.485	232.331	70.991	35.549	-22.367	162.187	109.707	-22.384	-14.833	162.034	118.884	-15.667	-7.703	-7.225	-0.626	154.394	-1.260	-8191	255	
38440.336	1	1	0	0	0.1461	0.33744	0.099178	0.26658	0.057837	0.18107	0.14997	0.30833	0.25495	0.14961	0.21625	0.1838	0.1056	0.23581	0.17418	0.11387	-2.0542	-2.8563	-3.0563	-2.4083	-3.0187	-2.7729	-2.4104	-3.1437	-2.5875	-2.7729	-3.1604	-2.3229	-2.9958	-2.9208	-2.3167	-3.1875	6.399	53.683	312.002	-5.854	208.398	143.970	278.788	-8.095	309.598	118.630	314.822	302.276	322.195	315.902	4.906	255.071	0.00013162	0.00028358	9.0548e-05	1050.7	2.9602e-06	3.1077e-06	1154.8	213.79	2.5834e-06	1.4831e-06	278.25	79.862	61.891	18.481	2.8275e-06	26.231	0.00022653	0.00025513	6.5486e-05	1036	2.8535e-06	2.6684e-06	1136.1	212.9	2.739e-06	2.587e-06	276.18	80.338	62.043	18.717	2.7752e-06	26.449	241.384	67.745	67.766	-22.538	181.027	129.078	-22.246	-14.583	143.044	124.344	-15.367	-7.725	-7.721	-0.495	187.447	-1.316	-8191	255	
38440.453	1	1	0	0	0.17796	0.15156	0.15377	0.04986	0.16391	0.079626	0.18958	0.070626	0.083334	0.15512	0.34482	0.064476	0.25009	0.13991	0.061476	0.058488	-2.3438	-2.5	-3.1104	-2.475	-2.8604	-3.0687	-2.5625	-3.2125	-2.5208	-2.5521	-3.2708	-2.3917	-2.8187	-2.9833	-2.3229	-3.3104	211.187	279.922	224.589	31.140	299.410	190.952	-13.852	4.617	-14.755	275.399	268.709	183.475	300.263	220.159	171.361	321.323	0.00014756	0.00034777	8.7074e-05	1049.4	4.3828e-06	3.0624e-06	1149.4	212.97	1.9565e-06	3.432e-06	277.65	79.106	61.495	18.519	2.6804e-06	26.035	0.00022588	0.00025676	6.4381e-05	1033.6	2.8961e-06	2.7419e-06	1135.3	212.75	2.7895e-06	2.6977e-06	275.87	79.853	62.032	18.701	2.8712e-06	26.387	234.481	64.651	56.287	-22.398	156.808	117.210	-22.318	-14.427	188.718	118.398	-14.915	-7.886	-7.422	-0.495	127.728	-1.473	-8191	255	
38440.551	1	1	0	0	0.22527	0.16743	0.14639	0.15093	0.19729	0.18552	0.11952	0.12482	0.26982	0.080256	0.12121	0.18703	0.21871	0.11538	0.038537	0.21	-2.1646	-2.3375	-3.1292	-2.475	-2.7333	-3.1104	-2.5563	-3.1375	-2.6167	-2.3729	-3.3125	-2.4938	-2.7958	-3.2708	-2.3042	-3.2021	51.778	283.969	65.125	240.202	103.646	215.451	228.129	167.021	290.413	184.532	302.474	302.080	112.008	253.732	188.008	20.861	0.00014228	0.00024065	6.5555e-05	1045.7	1.9386e-06	2.6416e-06	1152	213.23	1.8579e-06	1.7776e-06	278.19	80.227	61.816	18.483	4.2387e-06	26.213	0.00023478	0.00025035	6.4148e-05	1033.3	2.7644e-06	2.4639e-06	1134	212.65	2.5579e-06	2.6258e-06	275.93	80.272	62.049	18.712	2.7763e-06	26.493	243.351	75.093	65.270	-22.650	147.628	101.311	-22.139	-14.305	145.537	111.026	-14.906	-7.544	-7.268	-0.677	106.138	-1.127	-8191	255	
38440.648	1	1	0	0	0.19141	0.14059	0.049408	0.1258	0.20319	0.1719	0.057077	0.12919	0.3757	0.14857	0.37914	0.26396	0.233	0.33128	0.10647	0.024371	-2.4604	-2.3438	-2.9562	-2.5625	-2.6896	-3.0687	-2.4479	-2.9125	-2.9875	-2.5167	-3.1021	-2.5604	-2.6042	-3.1917	-2.35	-3.0521	68.949	242.909	200.985	326.602	-12.206	-27.216	-8.753	196.000	41.542	-0.460	145.808	302.896	122.997	-16.473	311.047	248.352	0.0001545	0.00022572	0.0001026	1045.6	4.7369e-06	2.1663e-06	1152	212.26	3.1178e-06	1.469e-06	277.64	79.292	61.489	18.534	4.2252e-06	26.193	0.00022314	0.00024755	6.74e-05	1030.2	2.9264e-06	2.4519e-06	1131.8	211.73	2.7135e-06	2.871e-06	274.79	79.858	61.752	18.709	2.818e-06	26.402	236.895	69.374	43.719	-22.453	196.120	118.662	-22.374	-14.678	165.942	142.849	-15.064	-7.716	-7.342	-0.521	128.935	-1.091	-8191	255	
38440.719	1	1	0	0	0.19713	0.058723	0.14498	0.02552	0.31246	0.12592	0.11226	0.13012	0.21279	0.29967	0.18631	0.27841	0.2642	0.11394	0.14529	0.23193	-2.7396	-2.2104	-2.8729	-2.7083	-2.4604	-3.1208	-2.4896	-2.7875	-2.9479	-2.3396	-3.2021	-2.7146	-2.5771	-3.2729	-2.3792	-2.8146	76.673	89.298	-21.061	2.012	291.346	133.578	247.812	223.615	160.948	240.358	297.721	70.553	25.150	90.856	104.524	34.905	0.00014575	0.0002377	7.7581e-05	1047.5	2.7698e-06	2.7237e-06	1151.1	214.1	3.0019e-06	3.3603e-06	277.18	79.397	61.77	18.527	1.2356e-06	26.166	0.00022865	0.00025535	6.2405e-05	1031.2	3.0268e-06	2.3247e-06	1132.6	212.89	2.7526e-06	2.9042e-06	275.49	80.067	62.045	18.724	2.7133e-06	26.413	236.021	67.755	79.412	-22.433	155.981	127.291	-22.268	-14.645	163.293	131.637	-15.187	-7.978	-7.679	-0.609	137.441	-1.556	-8191	255	
38440.840	1	1	0	0	0.26865	0.11284	0.23362	0.31235	0.14379	0.25466	0.079134	0.12117	0.23398	0.22612	0.06466	0.22434	0.1272	0.14133	0.16005	0.26142	-2.725	-2.1458	-2.9042	-2.9958	-2.4375	-3.0708	-2.5187	-2.6292	-3.2021	-2.2521	-3.1229	-2.7917	-2.3042	-3.1813	-2.6188	-2.7625	20.940	36.961	14.495	275.643	5.132	206.546	-15.824	281.276	126.291	48.513	124.461	-10.598	280.438	157.128	190.368	187.612	0.00013121	0.00030631	7.0139e-05	1047.1	1.8879e-06	3.356e-06	1152.7	213.87	2.2552e-06	2.6425e-06	276.83	79.357	62.095	18.498	3.3563e-06	25.96	0.00022722	0.00025889	6.9532e-05	1032.7	2.9798e-06	2.6209e-06	1134.4	212.51	2.5883e-06	2.8066e-06	275.59	79.986	62.064	18.752	2.7202e-06	26.362	228.362	51.750	58.099	-22.817	170.372	110.312	-22.418	-14.575	151.607	114.087	-15.441	-7.804	-7.510	-0.617	130.183	-1.450	-8191	255	
38440.938	1	1	0	0	0.14408	0.15765	0.21568	0.19884	0.060081	0.14556	0.56233	0.32961	0.088839	0.21119	0.39767	0.048264	0.22053	0.04073	0.19425	0.24769	-2.7188	-2.1417	-2.9437	-2.9875	-2.3042	-3.3646	-2.7062	-2.7875	-3.0708	-2.3604	-2.8771	-2.9646	-2.2375	-3.2896	-2.775	-2.5208	40.260	172.763	191.767	241.179	74.027	50.313	244.763	311.463	115.432	271.336	268.489	77.261	306.192	236.469	284.069	204.738	0.00014582	0.00033167	9.2246e-05	1050.4	2.976e-06	2.9978e-06	1151.3	213.97	1.8418e-06	2.8763e-06	278.12	79.658	61.754	18.427	2.0517e-06	26.063	0.00023098	0.00025923	6.6031e-05	1034.4	3.0829e-06	2.4652e-06	1133.8	212.37	2.6425e-06	2.729e-06	276.04	80.06	61.973	18.675	2.6925e-06	26.396	238.500	54.983	64.680	-22.457	183.808	122.967	-22.301	-14.588	197.956	131.797	-15.347	-7.632	-7.247	-0.650	116.452	-1.075	-8191	255	
38441.031	1	1	0	0	0.070443	0.099169	0.20838	0.23933	0.087268	0.20009	0.16386	0.18558	0.38845	0.029486	0.315	0.31201	0.33729	0.16473	0.16543	0.31026	-2.8229	-2.3563	-2.8333	-3.0417	-2.2958	-3.125	-2.7958	-2.6021	-3.4313	-2.2875	-2.9521	-3.2479	-2.4333	-3.1562	-2.7792	-2.3375	164.676	247.946	288.073	267.391	34.456	79.360	-16.063	145.169	286.416	168.901	222.912	250.819	-25.557	211.123	142.350	289.614	0.00013937	0.00017037	6.9375e-05	1048.2	1.9696e-06	2.2995e-06	1154.5	214.38	1.2264e-06	2.8902e-06	276.36	79.582	61.533	18.598	3.7363e-06	26.286	0.0002261	0.00023295	6.3696e-05	1033.3	3.0548e-06	2.4253e-06	1134.3	212.85	2.7597e-06	2.6921e-06	275.36	80.054	61.859	18.791	2.4259e-06	26.438	221.173	88.214	89.205	-22.620	164.455	133.588	-22.000	-14.397	151.737	125.749	-15.229	-7.814	-7.705	-0.955	128.636	-0.964	-8191	255	
38441.129	1	1	0	0	0.13698	0.081814	0.17917	0.29077	0.18039	0.071438	0.13311	0.11083	0.10448	0.19597	0.2957	0.34445	0.10007	0.073358	0.2626	0.15791	-2.9417	-2.5271	-2.8187	-3.0354	-2.1771	-3.175	-3.0187	-2.5104	-3.15	-2.4792	-2.5542	-3.1063	-2.3354	-2.9125	-2.9271	-2.3917	201.628	114.375	76.014	305.870	294.892	-25.815	290.987	153.851	166.789	316.950	210.884	207.211	235.490	176.224	10.367	224.052	0.00014839	0.00023579	0.00010488	1047	2.3492e-06	2.5378e-06	1154.8	213.12	1.6961e-06	3.4551e-06	277.9	79.819	62.129	18.551	2.6091e-06	26.184	0.00022473	0.00024698	6.9236e-05	1033.1	2.8524e-06	2.5329e-06	1135.2	212.75	2.6924e-06	2.9317e-06	276.32	80.273	62.106	18.773	2.6462e-06	26.442	235.750	48.343	81.571	-22.470	171.244	138.552	-22.254	-14.437	169.286	118.378	-15.338	-7.700	-7.580	-0.622	140.804	-1.097	-8191	255	
38441.246	1	1	0	0	0.1016	0.090271	0.16748	0.11224	0.25824	0.29921	0.17477	0.017496	0.15823	0.12124	0.44581	0.26444	0.18067	0.38888	0.14095	0.19448	-2.8958	-2.5729	-2.5938	-3.45	-2.4792	-2.8354	-3.0396	-2.2417	-3.2271	-2.5917	-2.5792	-3.2417	-2.4333	-2.8292	-3.1021	-2.4437	85.649	103.149	134.204	246.097	38.740	24.715	12.495	305.297	46.600	151.679	313.458	105.557	-20.317	270.191	91.155	226.850	0.00015038	0.00038349	9.974e-05	1051.1	2.6991e-06	3.9765e-06	1152.3	214	1.6718e-06	1.5601e-06	276.14	79.502	61.811	18.586	2.7447e-06	26.288	0.00023447	0.00025608	7.3376e-05	1033.9	2.8621e-06	2.6824e-06	1133.6	212.92	2.623e-06	2.4037e-06	275.31	80.258	61.955	18.773	2.4328e-06	26.483	242.870	40.944	78.100	-22.402	150.611	118.581	-22.324	-14.414	162.323	127.216	-15.151	-7.805	-7.441	-0.358	143.332	-1.586	-8191	255	
38441.320	1	1	0	0	0.16488	0.26009	0.20586	0.013255	0.14024	0.075963	0.087522	0.071954	0.08529	0.2126	0.22879	0.29572	0.16787	0.19314	0.18603	0.047027	-2.8563	-2.6271	-2.3688	-3.3312	-2.5375	-2.7208	-3.15	-2.3646	-3.075	-2.775	-2.4292	-3.3312	-2.5146	-2.5583	-2.9167	-2.3833	178.508	-19.046	193.767	94.660	297.390	141.139	270.816	308.754	143.905	117.216	297.305	68.135	324.344	66.408	76.666	-25.607	0.00014545	0.00023413	8.805e-05	1048.8	2.9386e-06	2.3946e-06	1150.8	213.82	1.4972e-06	2.6207e-06	276.58	79.721	61.902	18.423	2.494e-06	26.217	0.0002299	0.00022643	6.947e-05	1034.5	3.0036e-06	2.6494e-06	1133.4	212.31	2.521e-06	2.6376e-06	275.39	80.111	62.097	18.756	2.4756e-06	26.509	230.057	71.314	65.390	-22.165	117.779	107.458	-22.152	-14.471	178.117	109.606	-15.235	-7.780	-7.508	-0.063	140.540	-1.521	-8191	255	
38441.414	1	1	0	0	0.32274	0.11018	0.11774	0.28486	0.19202	0.073354	0.083902	0.19323	0.20553	0.12654	0.19453	0.26986	0.073005	0.11422	0.24558	0.032357	-2.7	-2.8396	-2.5312	-3.2896	-2.7	-2.7438	-3.3646	-2.4562	-3.0292	-2.8937	-2.6375	-3.4146	-2.5375	-2.6604	-3.0792	-2.4396	220.746	326.551	264.879	-28.035	295.255	136.592	291.803	279.499	5.069	222.518	306.983	180.814	35.527	253.033	216.010	24.224	0.00016551	0.00031233	8.8726e-05	1049.9	2.9485e-06	2.6584e-06	1155.7	214.07	2.4192e-06	3.4242e-06	277.61	79.958	61.865	18.566	3.1267e-06	26.257	0.0002294	0.00024154	6.8785e-05	1035.5	2.9528e-06	2.7615e-06	1135.7	212.75	2.6886e-06	2.5507e-06	276.43	80.353	62.125	18.794	2.5566e-06	26.493	228.059	56.556	50.456	-22.315	152.052	118.097	-22.467	-14.625	148.126	115.036	-15.179	-7.949	-7.617	-0.337	129.991	-0.914	-8191	255	
38441.535	1	1	0	0	0.23222	0.154	0.35056	0.18498	0.18495	0.28914	0.30953	0.21239	0.053318	0.11777	0.11775	0.06599	0.10016	0.0826	0.095971	0.06481	-2.5333	-2.9042	-2.1958	-3.2625	-2.4875	-2.5	-3.4813	-2.4771	-2.9333	-3.0438	-2.3042	-3.2417	-2.8375	-2.3812	-3.2208	-2.4729	190.863	301.921	-13.674	250.895	100.433	302.664	242.181	169.035	272.627	6.789	80.101	125.952	272.700	25.991	239.563	59.118	0.00014428	0.00037248	6.8152e-05	1054.4	2.5103e-06	2.4675e-06	1148	214.29	2.4535e-06	2.0873e-06	278.51	80.288	61.865	18.515	2.6738e-06	26.116	0.0002256	0.00022497	7.0295e-05	1037.6	2.9577e-06	2.7362e-06	1133.9	212.75	2.7933e-06	2.5294e-06	276.5	80.603	62.166	18.78	2.4912e-06	26.519	237.064	55.709	60.998	-22.440	145.243	128.126	-22.292	-14.329	168.272	103.630	-14.998	-7.941	-7.634	-0.743	154.471	-1.329	-8191	255	
38441.633	1	1	0	0	0.39825	0.072511	0.27128	0.21604	0.15568	0.27678	0.21018	0.23752	0.051921	0.16333	0.16766	0.12235	0.065972	0.18732	0.12632	0.19688	-2.4396	-3.1396	-2.1375	-3.3875	-2.7375	-2.525	-3.3063	-2.7708	-2.8438	-3.3438	-2.4167	-3	-2.775	-2.3688	-3.2229	-2.7812	238.649	245.762	188.619	314.950	66.801	217.387	215.606	71.833	84.395	238.453	297.637	-0.438	256.204	110.678	154.598	26.269	0.00014117	0.00038533	8.0721e-05	1048.1	4.1772e-06	3.4517e-06	1152.4	214	1.6482e-06	1.9538e-06	279.19	80.092	61.811	18.549	3.085e-06	26.274	0.00022641	0.00022974	7.1882e-05	1034.5	2.8497e-06	2.8267e-06	1135.2	212.91	2.5915e-06	2.5501e-06	276.03	80.351	62.164	18.749	2.5184e-06	26.46	228.078	64.319	51.472	-22.457	161.843	128.686	-22.177	-14.566	167.501	121.492	-15.339	-7.873	-7.542	-0.698	152.108	-1.498	-8191	255	
38441.727	1	1	0	0	0.048681	0.15685	0.21233	0.034502	0.092869	0.21525	0.13474	0.2395	0.061183	0.25841	0.068986	0.044249	0.060143	0.1403	0.10574	0.23294	-2.3021	-3.1771	-2.3292	-3.2875	-2.925	-2.3771	-3.4042	-2.6021	-2.6021	-3.1958	-2.5917	-3.0979	-2.9792	-2.3667	-3.2687	-2.5062	205.234	157.296	270.980	71.989	63.336	295.301	127.423	307.397	276.785	30.978	244.133	-18.738	279.907	83.125	197.351	304.595	0.0001604	0.0002002	8.3006e-05	1047.8	4.4816e-06	3.9812e-06	1151	213.45	1.6461e-06	2.8927e-06	278.2	79.726	62.103	18.63	2.6634e-06	26.143	0.00022877	0.00023862	6.7618e-05	1034	2.8206e-06	2.6881e-06	1134.8	212.9	2.6571e-06	2.4312e-06	276.04	80.171	62.188	18.802	2.4392e-06	26.484	234.627	34.768	61.540	-22.618	159.825	112.017	-22.094	-14.773	176.459	130.204	-15.443	-8.041	-7.951	-0.646	122.381	-1.597	-8191	255	
38441.848	1	1	0	0	0.10238	0.13686	0.16709	0.17829	0.18238	0.20197	0.19646	0.24969	0.3502	0.10327	0.16171	0.1846	0.15314	0.031408	0.11548	0.23381	-2.2417	-3.2042	-2.4583	-2.8979	-3.0021	-2.2792	-3.2125	-2.7979	-2.4354	-3.125	-2.3063	-2.6792	-3.0896	-2.3292	-3.0833	-2.7188	-19.329	21.417	326.012	264.657	121.471	298.223	254.015	266.001	52.444	248.827	292.793	235.688	204.146	176.058	167.646	237.181	0.00015048	0.00041065	7.2765e-05	1046.6	4.2187e-06	2.1991e-06	1156.1	212.74	1.993e-06	2.0672e-06	278.41	79.57	61.798	18.465	8.4136e-07	26.323	0.0002341	0.00025597	7.1213e-05	1033.5	2.7682e-06	2.7798e-06	1136.4	212.34	2.6333e-06	2.4193e-06	276.34	80.145	62.153	18.723	2.4218e-06	26.567	233.635	47.930	74.088	-22.461	167.988	133.950	-22.311	-14.546	150.785	127.559	-15.256	-7.512	-7.494	-0.377	157.900	-1.572	-8191	255	
38441.945	1	1	0	0	0.23677	0.09307	0.16776	0.29437	0.24183	0.25638	0.15755	0.21336	0.13736	0.16826	0.20795	0.34528	0.090718	0.2333	0.20542	0.17843	-2.0833	-3.1646	-2.4292	-2.8187	-3.1229	-2.3854	-3.2375	-2.8917	-2.4542	-3.2354	-2.6708	-2.8438	-3.2188	-2.4417	-2.9208	-3.0979	74.892	31.816	126.824	313.657	123.368	93.124	232.606	188.978	76.421	4.156	-14.522	275.061	92.344	254.593	58.736	161.323	0.00013847	0.000293	6.4221e-05	1049.7	2.5373e-06	3.5337e-06	1153.3	213.84	2.3557e-06	3.2382e-06	277.22	79.766	61.927	18.414	3.9813e-06	26.391	0.00023298	0.00021565	6.3665e-05	1034.9	2.7731e-06	2.6862e-06	1135.3	212.93	2.7775e-06	2.4068e-06	275.73	80.365	62.079	18.776	2.4253e-06	26.515	236.577	51.036	52.497	-22.446	143.235	103.589	-22.074	-14.611	194.874	129.827	-15.386	-7.345	-7.741	-0.388	138.127	-1.426	-8191	255	
38442.016	1	1	0	0	0.12731	0.12032	0.044363	0.10281	0.11766	0.097153	0.19117	0.25786	0.1615	0.19895	0.059653	0.27468	0.21612	0.10491	0.14884	0.020055	-2.1042	-3.175	-2.3854	-2.7958	-3.1646	-2.4417	-3.1833	-3.1688	-2.4521	-3.2417	-2.8667	-2.5542	-3.1771	-2.4104	-2.9083	-2.9792	79.664	221.706	79.462	256.094	248.112	158.554	240.072	296.186	64.987	49.425	-10.163	246.297	-28.722	-8.961	88.842	-2.494	0.00015175	0.0004403	6.2121e-05	1049.9	2.8664e-06	2.694e-06	1156.3	213.5	3.5869e-06	2.268e-06	278.32	79.684	61.632	18.568	4.0556e-06	26.276	0.00023911	0.00022216	6.7914e-05	1034.5	2.7077e-06	2.6349e-06	1136.5	212.53	2.6707e-06	2.4825e-06	275.83	80.24	62.214	18.767	2.5017e-06	26.467	232.938	56.366	64.183	-22.523	170.900	112.410	-22.099	-14.553	184.028	141.332	-15.273	-7.823	-7.583	-0.337	144.638	-0.925	-8191	255	
38442.113	1	1	0	0	0.14298	0.049607	0.095651	0.25493	0.038657	0.10033	0.083061	0.068069	0.11706	0.1261	0.28927	0.1213	0.07708	0.061714	0.33257	0.32781	-1.8271	-3.1458	-2.7125	-2.7333	-3.1104	-2.4313	-3.0625	-3.0062	-2.3417	-3.2042	-2.8229	-2.65	-3.2938	-2.5167	-2.6646	-3.1604	110.581	97.882	9.158	233.764	302.264	105.092	269.092	0.960	322.138	294.352	281.642	-26.199	-28.349	16.871	309.229	272.955	0.00015725	0.00033187	6.5726e-05	1051.1	3.512e-06	2.3189e-06	1150.7	213.09	2.082e-06	1.836e-06	279.17	79.833	61.952	18.684	2.0936e-06	26.105	0.00023593	0.00022637	6.4786e-05	1036.4	2.7088e-06	2.8235e-06	1135.2	212.85	2.7239e-06	2.4412e-06	276.4	80.237	62.244	18.803	2.6202e-06	26.468	238.492	54.655	55.403	-22.257	179.082	134.565	-22.253	-14.677	150.006	147.158	-15.238	-7.698	-7.663	-0.775	151.910	-1.112	-8191	255	
38442.230	1	1	0	0	0.1345	0.073545	0.18614	0.32119	0.17707	0.34436	0.45308	0.34514	0.078342	0.13284	0.36748	0.24417	0.16298	0.15448	0.15588	0.11105	-1.9438	-3.0229	-2.7125	-2.4729	-3.2021	-2.5167	-2.7521	-3.1667	-2.2917	-2.9458	-2.9708	-2.4	-3.2021	-2.6562	-2.6562	-3.2292	36.063	156.187	-8.315	279.437	155.305	101.442	11.691	299.166	210.542	178.208	310.371	1.202	13.730	252.181	9.553	163.040	0.00015199	0.00027552	9.0236e-05	1049.2	3.436e-06	2.648e-06	1155.9	214.39	2.0955e-06	2.4206e-06	277.54	79.477	62.295	18.601	2.6899e-06	26.156	0.00023366	0.00023008	6.7104e-05	1035.6	2.6543e-06	2.5823e-06	1137.1	212.72	2.8014e-06	2.4837e-06	275.91	80.277	62.222	18.769	2.6601e-06	26.432	238.022	60.182	75.094	-22.593	158.654	121.609	-22.338	-14.643	174.362	105.701	-14.902	-8.038	-7.293	-1.038	146.446	-1.298	-8191	255	
#DATA ENDS
