BOXY.EXE: ISS Imagent and Oximeter Data Acquisition Program Version 0.80
Ascii Record File

#ACQ INFORMATION
2  Detector Channels 
16  External MUX Channels 
1  Auxiliary Channels 
5000  Waveform (CCF) Frequency (Hz)
1  Waveforms Skipped 
30  Waveforms Averaged 
1  Cycles Averaged 
16  Acquisitions per Waveform 
10.0806  Updata Rate (Hz) 

#FILE INFORMATION
TRUE -- External MUX Channel results are PARSED.
FALSE -- AC DC and Phase are NOT grouped.
TRUE -- Companion Program Settings File CREATED.
FALSE -- AC data not excluded
FALSE -- DC data not excluded
FALSE -- Phase data not excluded
FALSE -- Auxillary Chn. data not excluded
Tab delimiters

#CALIBRATION STATE
TRUE -- Waveform Calibration Values APPLIED.


#AUX CALIBRATION VALUES
Val Type	aux-1	

Term	1.0000e+00	
Factor	0.0000e+00	


#WF CALIBRATION VALUES
A = Detector Channel
Val Type	A-AC1	A-AC2	A-AC3	A-AC4	A-AC5	A-AC6	A-AC7	A-AC8	A-AC9	A-AC10	A-AC11	A-AC12	A-AC13	A-AC14	A-AC15	A-AC16	A-DC1	A-DC2	A-DC3	A-DC4	A-DC5	A-DC6	A-DC7	A-DC8	A-DC9	A-DC10	A-DC11	A-DC12	A-DC13	A-DC14	A-DC15	A-DC16	A-Ph1	A-Ph2	A-Ph3	A-Ph4	A-Ph5	A-Ph6	A-Ph7	A-Ph8	A-Ph9	A-Ph10	A-Ph11	A-Ph12	A-Ph13	A-Ph14	A-Ph15	A-Ph16	

Term	0.00000e+00	0.00000e+00	0.00000e+00	0.00000e+00	0.00000e+00	0.00000e+00	0.00000e+00	0.00000e+00	0.00000e+00	0.00000e+00	0.00000e+00	0.00000e+00	0.00000e+00	0.00000e+00	0.00000e+00	0.00000e+00	0.00000e+00	0.00000e+00	0.00000e+00	0.00000e+00	0.00000e+00	0.00000e+00	0.00000e+00	0.00000e+00	0.00000e+00	0.00000e+00	0.00000e+00	0.00000e+00	0.00000e+00	0.00000e+00	0.00000e+00	0.00000e+00	0.00000e+00	0.00000e+00	0.00000e+00	0.00000e+00	0.00000e+00	0.00000e+00	0.00000e+00	0.00000e+00	0.00000e+00	0.00000e+00	0.00000e+00	0.00000e+00	0.00000e+00	0.00000e+00	0.00000e+00	0.00000e+00	
Factor	1.00000e+00	1.00000e+00	1.00000e+00	1.00000e+00	1.00000e+00	1.00000e+00	1.00000e+00	1.00000e+00	1.00000e+00	1.00000e+00	1.00000e+00	1.00000e+00	1.00000e+00	1.00000e+00	1.00000e+00	1.00000e+00	1.00000e+00	1.00000e+00	1.00000e+00	1.00000e+00	1.00000e+00	1.00000e+00	1.00000e+00	1.00000e+00	1.00000e+00	1.00000e+00	1.00000e+00	1.00000e+00	1.00000e+00	1.00000e+00	1.00000e+00	1.00000e+00	X	X	X	X	X	X	X	X	X	X	X	X	X	X	X	X	

B = Detector Channel
Val Type	B-AC1	B-AC2	B-AC3	B-AC4	B-AC5	B-AC6	B-AC7	B-AC8	B-AC9	B-AC10	B-AC11	B-AC12	B-AC13	B-AC14	B-AC15	B-AC16	B-DC1	B-DC2	B-DC3	B-DC4	B-DC5	B-DC6	B-DC7	B-DC8	B-DC9	B-DC10	B-DC11	B-DC12	B-DC13	B-DC14	B-DC15	B-DC16	B-Ph1	B-Ph2	B-Ph3	B-Ph4	B-Ph5	B-Ph6	B-Ph7	B-Ph8	B-Ph9	B-Ph10	B-Ph11	B-Ph12	B-Ph13	B-Ph14	B-Ph15	B-Ph16	

Term	0.00000e+00	0.00000e+00	0.00000e+00	0.00000e+00	0.00000e+00	0.00000e+00	0.00000e+00	0.00000e+00	0.00000e+00	0.00000e+00	0.00000e+00	0.00000e+00	0.00000e+00	0.00000e+00	0.00000e+00	0.00000e+00	0.00000e+00	0.00000e+00	0.00000e+00	0.00000e+00	0.00000e+00	0.00000e+00	0.00000e+00	0.00000e+00	0.00000e+00	0.00000e+00	0.00000e+00	0.00000e+00	0.00000e+00	0.00000e+00	0.00000e+00	0.00000e+00	-2.84052e+01	-1.28238e+02	-1.23055e+02	-1.81347e+02	-4.90151e+01	-6.44906e+01	-1.58583e+02	-1.62015e+02	-3.30316e+01	-6.71694e+01	-1.70474e+02	-1.69975e+02	-1.81443e+02	-1.76799e+02	-5.34590e+01	-1.49645e+02	
Factor	2.60320e-05	1.63302e-04	4.34181e-05	1.49363e-01	1.92631e-06	1.64092e-06	1.64229e-01	5.54761e-02	1.53204e-06	1.58752e-06	8.65546e-02	3.10973e-02	2.68888e-02	9.37520e-03	1.83265e-06	1.32400e-02	1.49363e-05	2.69560e-05	7.46987e-06	7.68193e-02	2.59114e-07	3.03878e-07	7.93361e-02	2.86037e-02	2.60344e-07	3.00301e-07	4.33358e-02	1.55925e-02	1.39820e-02	4.88742e-03	2.77576e-07	6.67928e-03	X	X	X	X	X	X	X	X	X	X	X	X	X	X	X	X	



#DISTANCE SETTINGS
A = Detector Channel
A-1	A-2	A-3	A-4	A-5	A-6	A-7	A-8	A-9	A-10	A-11	A-12	A-13	A-14	A-15	A-16	

2.5000e+00	3.0000e+00	2.5000e+00	3.0000e+00	2.0000e+00	3.0000e+00	1.5000e+00	3.0000e+00	3.0000e+00	3.0000e+00	3.0000e+00	3.0000e+00	3.0000e+00	3.0000e+00	1.5000e+00	3.0000e+00	

B = Detector Channel
B-1	B-2	B-3	B-4	B-5	B-6	B-7	B-8	B-9	B-10	B-11	B-12	B-13	B-14	B-15	B-16	

1.0000e+01	1.0000e+01	1.0000e+01	1.4400e+00	1.0000e+01	1.0000e+01	1.5100e+00	1.9400e+00	1.0000e+01	1.0000e+01	1.9900e+00	2.4900e+00	2.4100e+00	2.9000e+00	1.0000e+01	2.9800e+00	




#DATA BEGINS
time	group	step	mark	flag	A-AC1	A-AC2	A-AC3	A-AC4	A-AC5	A-AC6	A-AC7	A-AC8	A-AC9	A-AC10	A-AC11	A-AC12	A-AC13	A-AC14	A-AC15	A-AC16	A-DC1	A-DC2	A-DC3	A-DC4	A-DC5	A-DC6	A-DC7	A-DC8	A-DC9	A-DC10	A-DC11	A-DC12	A-DC13	A-DC14	A-DC15	A-DC16	A-Ph1	A-Ph2	A-Ph3	A-Ph4	A-Ph5	A-Ph6	A-Ph7	A-Ph8	A-Ph9	A-Ph10	A-Ph11	A-Ph12	A-Ph13	A-Ph14	A-Ph15	A-Ph16	B-AC1	B-AC2	B-AC3	B-AC4	B-AC5	B-AC6	B-AC7	B-AC8	B-AC9	B-AC10	B-AC11	B-AC12	B-AC13	B-AC14	B-AC15	B-AC16	B-DC1	B-DC2	B-DC3	B-DC4	B-DC5	B-DC6	B-DC7	B-DC8	B-DC9	B-DC10	B-DC11	B-DC12	B-DC13	B-DC14	B-DC15	B-DC16	B-Ph1	B-Ph2	B-Ph3	B-Ph4	B-Ph5	B-Ph6	B-Ph7	B-Ph8	B-Ph9	B-Ph10	B-Ph11	B-Ph12	B-Ph13	B-Ph14	B-Ph15	B-Ph16	aux-1	digaux	

38974.098	1	1	0	256	0.10336	0.19816	0.079264	0.37111	0.29089	0.23028	0.18185	0.20321	0.093892	0.094429	0.16067	0.14298	0.16683	0.21977	0.055101	0.076699	-2.4271	-2.7104	-2.1458	-3.0354	-2.4833	-2.3625	-3.0271	-2.4583	-2.7583	-2.8125	-2.1792	-2.9583	-2.5021	-2.575	-3.0479	-2.4688	154.734	218.344	39.886	264.087	-19.517	159.733	113.349	232.345	47.472	268.536	-26.159	74.333	-80.449	266.526	153.786	147.315	0.00033949	0.00049849	0.00011645	803.64	7.9261e-06	3.9706e-06	720.67	299.26	2.75e-06	1.844e-06	276.06	122.8	128.32	61.78	6.8289e-07	66.984	0.0043158	0.0073376	0.0020483	837.3	7.0976e-05	8.2407e-05	748.54	313.17	7.1274e-05	8.1493e-05	291.47	130.14	135.68	65.222	7.5531e-05	70.638	-78.979	37.849	-20.737	-71.225	83.779	24.725	-72.957	-65.490	166.876	46.877	-68.247	-63.749	-60.900	-56.416	99.441	-60.583	-8191	255	
38974.191	1	1	0	0	0.11941	0.065575	0.28141	0.23905	0.15885	0.11892	0.17619	0.15041	0.1902	0.13626	0.17247	0.15226	0.18762	0.1729	0.17248	0.18602	-2.0438	-2.7104	-2.1417	-3.05	-2.4625	-2.2313	-3.2167	-2.4	-2.6021	-3.0438	-2.1208	-3.0021	-2.7125	-2.3021	-2.9479	-2.4854	267.484	94.223	131.552	-33.654	-60.882	178.311	177.454	108.561	-20.560	209.333	-24.528	88.670	260.619	31.662	57.933	248.135	0.00036417	0.00048925	0.00018737	803.03	8.1609e-06	4.0587e-06	714.31	298.63	1.7569e-06	1.0618e-05	274.89	122.51	127.5	61.495	3.3392e-06	66.623	0.0043082	0.0073487	0.0020502	835.41	7.1377e-05	8.1703e-05	745.66	312.86	6.9108e-05	7.9288e-05	290.42	129.47	134.98	64.791	7.3409e-05	70.255	-77.886	-68.815	35.357	-71.242	80.714	113.217	-73.140	-65.667	130.765	26.368	-68.509	-64.068	-60.631	-56.462	136.218	-60.649	-8191	255	
38974.289	1	1	0	0	0.2245	0.1455	0.15015	0.073127	0.11266	0.17894	0.22818	0.4585	0.21839	0.21158	0.1844	0.076185	0.082611	0.1832	0.22278	0.035786	-2.15	-2.9146	-2.15	-2.8354	-2.7375	-2.1458	-3.15	-2.4896	-2.3937	-2.8625	-2.2583	-2.9437	-2.9979	-2.2875	-2.9896	-2.3917	79.054	0.009	237.658	11.131	79.686	185.253	250.139	237.765	103.620	188.692	225.800	-39.502	-29.460	-29.560	-22.660	195.583	0.00033983	0.00097021	0.00015074	799.47	7.1926e-06	6.1523e-06	718.6	296.38	4.207e-06	1.1478e-06	273.18	122.37	127.77	61.043	4.4056e-06	66.777	0.004189	0.0071583	0.0019775	832.43	6.8847e-05	8.1239e-05	744.96	311.63	7.1284e-05	8.1632e-05	290.15	129.46	134.93	64.513	7.6584e-05	70.277	272.927	-21.313	-7.076	-71.018	74.779	50.071	-72.851	-65.795	66.214	183.307	-68.229	-63.877	-60.738	-56.344	73.442	-60.786	-8191	255	
38974.383	1	1	0	0	0.36929	0.10469	0.18344	0.19065	0.23801	0.10288	0.25288	0.19679	0.12303	0.18527	0.063419	0.31954	0.055106	0.092279	0.23004	0.19191	-2.2396	-3.0292	-2.3083	-2.8042	-2.8146	-2.2167	-3.0167	-2.3792	-2.3312	-3.0521	-2.2875	-2.6292	-2.9271	-2.2479	-2.8792	-2.6604	53.515	77.014	126.031	168.629	-50.831	209.614	221.680	258.887	46.802	88.124	220.102	228.177	37.363	109.427	-7.939	68.689	0.0003284	0.00060534	0.00012346	802.36	2.0147e-06	9.6776e-06	716.51	298.3	2.0017e-06	4.0596e-06	274.21	122.39	128.14	61.179	1.5568e-06	66.509	0.0044122	0.0076689	0.0021828	836.31	7.6084e-05	9.0694e-05	750.01	313.14	7.8636e-05	8.8545e-05	291.31	129.55	135.61	64.78	8.287e-05	70.164	271.709	11.109	30.431	-71.361	198.182	58.636	-73.086	-65.535	205.608	68.873	-68.402	-63.729	-60.901	-56.504	114.799	-60.547	-8191	255	
38974.480	1	1	0	0	0.041724	0.095407	0.084234	0.055215	0.14392	0.051258	0.0036757	0.20999	0.084303	0.20238	0.20094	0.10136	0.20099	0.16301	0.040448	0.082898	-1.9354	-2.9271	-2.2646	-2.5729	-3.1125	-2.0875	-2.9979	-2.7958	-2.1479	-2.9604	-2.3729	-2.3542	-2.9229	-2.2771	-2.7167	-2.7021	-76.833	-40.913	0.344	26.205	189.132	137.373	14.700	136.370	-80.798	123.800	120.127	176.414	176.001	26.880	105.969	240.216	0.00032283	0.0011307	0.00024388	805.44	7.2946e-06	4.894e-06	714.05	299.12	3.1977e-06	7.0425e-06	272.45	121.36	126.76	61.17	1.1924e-06	66.376	0.0046659	0.0080369	0.0022635	839.65	7.8557e-05	9.2283e-05	747.78	313.45	7.9226e-05	9.0869e-05	290.41	128.79	135.16	64.746	8.1485e-05	69.855	-75.974	-47.113	15.473	-71.281	150.189	81.352	-72.865	-65.558	-71.386	94.257	-68.616	-63.947	-60.616	-56.330	110.383	-60.744	-8191	255	
38974.574	1	1	0	0	0.11775	0.18556	0.1484	0.24213	0.2269	0.25178	0.1243	0.1135	0.15833	0.17459	0.15014	0.022457	0.224	0.05947	0.27015	0.35812	-1.8292	-2.9813	-2.3583	-2.4562	-2.95	-2.175	-2.8688	-2.7896	-2.2104	-2.875	-2.4688	-2.2958	-2.9854	-2.125	-2.5771	-2.7875	204.742	14.963	-22.130	99.342	-79.592	-75.426	-40.180	46.308	78.468	166.535	267.344	190.426	-60.866	-19.425	50.071	175.637	0.00031667	0.0008286	0.00019417	804.06	6.287e-06	5.3917e-06	715.3	298.11	6.9203e-07	6.8742e-06	272.63	120.49	127.11	60.243	4.7113e-06	65.179	0.0044862	0.0075483	0.0020692	836.99	7.0801e-05	8.323e-05	745.37	312.87	7.2813e-05	8.3747e-05	289.15	127.98	134.58	63.764	8.4404e-05	68.724	-76.771	23.402	49.273	-71.003	111.465	12.124	-72.808	-65.571	-20.601	134.082	-68.310	-63.859	-61.013	-56.334	82.072	-60.697	-8191	255	
38974.672	1	1	0	0	0.17548	0.11105	0.081644	0.19256	0.054868	0.057661	0.1227	0.10559	0.44038	0.26092	0.11466	0.10983	0.22616	0.15397	0.079732	0.23869	-1.7646	-2.8333	-2.4062	-2.3771	-2.9792	-2.1229	-2.7812	-3.0187	-2.0125	-2.8958	-2.4875	-2.3812	-3.1375	-2.4854	-2.4313	-3.1354	50.106	-78.198	-68.208	-48.034	271.385	-50.535	248.512	250.765	104.608	86.200	213.123	13.287	-81.312	-62.072	245.993	229.140	0.00031091	0.00040706	0.00018944	802.98	5.4446e-06	4.1541e-06	712.41	297.48	1.0752e-05	9.0094e-06	271.55	120.23	126.32	60.097	9.7293e-06	65.096	0.0048313	0.0083704	0.0022752	838.03	7.9032e-05	9.24e-05	744.95	312.18	7.8817e-05	9.0416e-05	289.5	127.83	134.55	63.605	8.4654e-05	68.696	-62.367	34.710	13.959	-71.126	118.062	114.644	-72.756	-65.675	77.156	79.411	-68.598	-63.734	-60.951	-56.263	145.624	-60.838	-8191	255	
38974.793	1	1	0	0	0.16511	0.1602	0.28429	0.19108	0.41826	0.23377	0.22845	0.18991	0.13522	0.11925	0.18966	0.094693	0.11129	0.21231	0.13038	0.17509	-1.7417	-2.7062	-2.5521	-2.15	-2.7729	-2.3104	-2.4625	-3.0417	-2.0833	-2.7625	-2.7771	-2.1875	-3.1104	-2.4854	-2.5083	-3.0417	46.076	191.678	119.397	249.401	195.758	-9.067	201.946	71.247	117.027	262.409	190.111	-63.163	203.151	191.618	-41.642	95.065	0.00022413	0.00096375	9.1905e-05	810.98	8.0039e-07	6.1358e-06	718.04	298.84	1.5985e-06	6.0594e-06	272.32	119.12	126.04	59.616	1.3375e-05	63.935	0.0048161	0.0083937	0.0023337	845.01	8.318e-05	9.7685e-05	752.42	314.3	8.5367e-05	9.9051e-05	290.43	127.29	134.21	63.171	9.1383e-05	67.703	-54.935	-16.823	-32.481	-71.350	-2.117	37.037	-72.648	-65.580	15.871	110.783	-68.398	-63.959	-60.743	-56.468	42.023	-60.586	-8191	255	
38974.891	1	1	0	0	0.079321	0.14992	0.088642	0.036885	0.1622	0.051973	0.049661	0.26488	0.18424	0.058702	0.24981	0.16502	0.28777	0.034478	0.22498	0.1853	-1.7854	-2.6708	-2.6896	-2.1958	-3.0792	-2.2604	-2.3187	-2.9708	-2.1688	-2.6896	-2.8375	-2.4208	-3.1375	-2.5958	-2.1188	-3.1375	52.972	20.068	204.098	82.817	-35.065	198.648	-81.853	242.701	106.879	83.440	274.031	271.087	184.406	198.649	210.185	226.771	0.00034827	0.00097866	0.00016986	811.63	8.5375e-06	6.9857e-06	717.23	298.52	7.3569e-06	5.7195e-06	268.7	115.99	124.23	57.864	1.1521e-05	61.504	0.0051513	0.0089442	0.0024527	851.07	8.5976e-05	0.00010162	752.04	314.24	8.9756e-05	0.00010444	288.1	124.4	132.64	61.598	9.7067e-05	65.444	-64.563	27.569	-49.827	-71.440	104.705	49.432	-72.947	-65.695	72.311	100.971	-68.352	-63.929	-60.623	-56.162	71.687	-60.575	-8191	255	
38974.984	1	1	0	0	0.23739	0.033005	0.10011	0.1218	0.28012	0.08637	0.11751	0.044889	0.10125	0.12105	0.023142	0.11982	0.33072	0.28897	0.14409	0.25387	-1.9521	-2.6125	-2.925	-2.2521	-2.8667	-2.7375	-2.2313	-3.1625	-2.2625	-2.4854	-2.8979	-2.1229	-2.7854	-2.8292	-2.1937	-2.9896	95.144	66.486	16.240	246.094	267.212	99.091	25.604	-36.862	48.169	1.041	242.531	212.249	-73.359	263.668	-5.015	219.994	0.00036662	0.00066837	7.4275e-05	820.69	4.5691e-06	1.1108e-05	716.22	300.81	2.9348e-06	6.7349e-06	268.48	116.85	124.68	57.283	6.8823e-06	60.989	0.0053337	0.0091179	0.0024779	859.13	8.1918e-05	9.4833e-05	751.08	315.84	7.7798e-05	8.9933e-05	286.65	124.14	132.65	60.85	8.7247e-05	64.677	-73.150	5.213	-4.585	-71.393	50.497	56.472	-73.209	-65.794	54.206	85.025	-68.536	-63.827	-60.678	-56.506	102.162	-60.560	-8191	255	
38975.059	1	1	0	0	0.22346	0.073226	0.30354	0.077425	0.067521	0.20303	0.21271	0.055453	0.093042	0.19388	0.089957	0.29658	0.14643	0.11227	0.2437	0.30923	-1.95	-2.4625	-2.9271	-2.2	-2.8604	-2.6083	-2.2083	-3.1042	-2.1667	-2.5729	-3.0896	-2.2812	-2.9437	-3.0187	-2.1271	-2.975	113.979	20.083	115.239	213.207	222.763	5.245	-72.412	121.419	92.183	237.524	-55.934	200.505	215.647	36.978	253.743	169.268	0.00033988	0.00070914	0.00021142	820.91	2.8033e-06	1.7044e-06	717.4	300.69	4.3835e-06	2.2161e-06	271.34	117.64	126.51	57.909	6.2878e-06	61.977	0.005024	0.0087611	0.0024554	858.13	8.5054e-05	9.8891e-05	751.31	316.52	8.2358e-05	9.3713e-05	288.65	125.19	134.04	61.441	8.201e-05	65.573	273.339	-55.953	-21.402	-71.258	61.799	87.334	-72.898	-65.686	28.636	-4.093	-68.310	-63.787	-60.976	-56.437	91.929	-60.483	-8191	255	
38975.176	1	1	0	0	0.35081	0.35912	0.067173	0.31108	0.10579	0.12836	0.27508	0.34302	0.089682	0.1467	0.039556	0.36891	0.30251	0.2199	0.178	0.06494	-2.0396	-2.2708	-2.9021	-2.2896	-2.6979	-2.7833	-2.2062	-3.1042	-2.4042	-2.2667	-3.05	-2.2229	-2.7	-3.0687	-2.0771	-3.0708	270.548	38.125	130.841	229.377	-28.864	96.801	226.198	214.219	225.999	214.585	213.878	190.615	154.986	-81.665	55.543	62.658	0.00033455	0.0007022	0.00021645	825.67	3.6893e-06	9.4099e-06	721.53	302.94	2.8516e-06	7.6534e-06	273.27	119.17	127.49	59.162	8.9255e-06	63.221	0.0045267	0.007758	0.0021604	860.51	7.5383e-05	8.761e-05	755.44	318.35	7.5823e-05	8.6423e-05	290.14	126.46	135.25	62.441	7.7307e-05	66.542	-74.421	3.904	10.026	-71.250	-68.823	102.534	-72.897	-65.528	26.759	47.730	-68.687	-64.587	-60.802	-56.463	80.763	-60.480	-8191	255	
38975.273	1	1	0	0	0.16258	0.19742	0.14936	0.083767	0.16023	0.1544	0.22256	0.29743	0.27368	0.15747	0.091504	0.10479	0.22038	0.21385	0.027325	0.24499	-2.1813	-2.1667	-3.1146	-2.3563	-2.4854	-2.9083	-2.2667	-2.925	-2.5458	-2.1708	-2.8979	-2.2729	-2.6375	-3.2792	-2.0958	-2.8917	274.825	204.097	211.159	234.667	-60.454	117.943	120.043	251.977	221.870	141.963	150.283	203.807	254.528	210.406	264.427	256.727	0.00029889	0.00044348	0.00021619	825.78	5.3187e-06	5.9934e-06	723.55	304.07	1.4251e-06	6.4047e-06	274.1	119.87	128.69	60.013	6.6298e-06	64.257	0.004307	0.0072641	0.0019875	856.61	7.046e-05	8.1149e-05	753.73	318.4	7.0754e-05	8.0792e-05	290.59	127.14	135.97	63.342	7.642e-05	67.729	-78.393	271.311	-41.214	-71.307	69.970	109.615	-73.044	-65.600	100.233	64.923	-68.363	-64.077	-60.944	-56.287	72.698	-60.523	-8191	255	
38975.367	1	1	0	0	0.11279	0.15571	0.10898	0.14914	0.093636	0.13102	0.18914	0.19274	0.14664	0.12929	0.041411	0.050431	0.21799	0.2266	0.26112	0.065098	-2.3063	-2.0125	-2.9896	-2.4396	-2.3667	-2.9354	-2.2271	-2.8271	-3.0104	-2.225	-3.1146	-2.5583	-2.5854	-3.2125	-1.9979	-2.9958	276.120	-56.272	244.039	125.228	-43.157	265.579	-82.709	251.914	-81.979	39.314	178.126	47.400	260.461	-77.640	193.340	38.291	0.00031835	0.00051295	0.00017867	811.68	3.201e-06	3.6102e-06	719.44	302.93	7.7749e-06	6.3615e-06	276.15	120.64	128.74	60.266	8.96e-06	64.988	0.0042784	0.007405	0.0020531	845.24	7.0406e-05	8.2358e-05	750.01	316.36	7.1243e-05	8.1451e-05	291.92	128.5	136.12	63.832	7.5589e-05	68.596	-80.612	5.446	-14.576	-71.180	53.931	53.341	-72.996	-65.644	108.291	73.002	-68.345	-64.045	-60.852	-56.522	63.455	-60.706	-8191	255	
38975.488	1	1	0	0	0.23687	0.17434	0.071985	0.1219	0.24883	0.13206	0.080825	0.11436	0.11058	0.043435	0.097466	0.18784	0.15135	0.20364	0.079483	0.051865	-2.4833	-2.0292	-2.9042	-2.45	-2.2167	-2.9417	-2.3125	-2.775	-2.8229	-2.0583	-2.9354	-2.6104	-2.1688	-3.0812	-2.2396	-2.6667	5.132	25.141	103.386	257.329	232.471	96.656	242.224	223.872	249.862	-38.092	-79.076	-76.619	196.049	275.410	13.701	243.680	0.00022527	0.00069339	0.00015128	810.09	4.0333e-06	5.5439e-06	725.91	300.68	5.8477e-06	5.9089e-06	274.88	120.26	127.04	60.017	2.6731e-06	64.657	0.0042668	0.0073383	0.002046	844.14	7.1922e-05	8.4094e-05	754.63	314.54	7.2943e-05	8.4479e-05	291.36	127.64	134.78	63.509	7.9091e-05	68.078	-63.300	69.375	-15.961	-71.267	-27.735	65.163	-72.940	-65.639	167.853	96.258	-68.192	-63.767	-60.588	-56.469	127.356	-60.800	-8191	255	
38975.586	1	1	0	0	0.11998	0.1647	0.13141	0.20768	0.24962	0.19242	0.31955	0.29093	0.24261	0.18533	0.31399	0.085953	0.11295	0.34159	0.29522	0.075712	-2.6958	-2.1125	-2.8271	-2.6646	-2.1854	-3.0542	-2.3667	-2.5771	-2.9313	-2.1146	-2.9938	-2.8792	-2.1792	-3.1813	-2.2042	-2.4375	191.245	-52.441	125.903	236.630	103.011	265.479	-69.390	213.472	46.428	-41.635	220.995	-37.980	-42.113	248.962	154.216	120.376	0.00033957	0.00098139	0.0001547	820.27	2.6317e-06	5.794e-06	728.24	301.31	8.0104e-06	5.1542e-06	273.79	118.53	127.11	59.502	7.8203e-06	63.145	0.0044524	0.0077804	0.0021803	854.72	7.6758e-05	9.1458e-05	761.64	316.79	7.9965e-05	9.246e-05	291.23	126.43	135.05	62.895	8.6147e-05	66.785	-64.794	-41.837	16.361	-71.581	91.201	72.786	-72.899	-65.635	117.376	46.160	-68.260	-63.885	-60.667	-56.326	42.543	-60.642	-8191	255	
38975.656	1	1	0	0	0.17075	0.061487	0.033715	0.067247	0.14467	0.071868	0.18305	0.15815	0.18557	0.14822	0.22439	0.25712	0.12135	0.29033	0.32967	0.31391	-2.6437	-2.0729	-2.8083	-2.7646	-2.0333	-2.8896	-2.4083	-2.3604	-2.9646	-2.1479	-2.9188	-2.7625	-2.2396	-3.1417	-2.4917	-2.3771	113.061	5.914	130.983	235.915	50.272	220.456	264.681	234.960	141.720	203.065	242.415	-46.399	273.201	275.396	154.675	223.273	0.00031828	0.00067357	9.3329e-05	818.83	7.8296e-06	2.6387e-06	718.78	302.35	2.6302e-06	3.3188e-06	271.11	117.82	126.42	59.229	6.946e-06	63.042	0.0048286	0.0083605	0.0023217	854.56	8.0481e-05	9.5277e-05	754.12	316.85	8.1489e-05	9.4449e-05	288.91	126.04	134.91	62.887	9.0293e-05	66.78	-67.876	-2.172	-34.775	-71.409	102.567	57.833	-72.815	-65.548	111.924	20.581	-68.740	-64.112	-60.866	-56.426	115.615	-60.707	-8191	255	
38975.777	1	1	0	0	0.29507	0.15452	0.24975	0.26855	0.13087	0.31853	0.18796	0.13594	0.13349	0.19798	0.24783	0.074993	0.22418	0.49756	0.16145	0.19398	-2.5354	-2.2938	-2.5896	-2.9583	-2.0312	-2.7625	-2.6646	-2.2604	-2.8792	-2.3458	-2.6292	-3.0583	-2.2938	-3.0938	-2.5271	-2.2958	-67.892	-12.284	271.547	138.856	44.823	-71.487	200.724	195.549	146.471	64.909	201.152	-68.175	271.951	203.456	26.959	-63.766	0.00034177	0.00079407	0.00017683	812.95	7.0845e-06	3.6939e-07	716.4	299.58	5.452e-06	8.3262e-06	271.1	118.42	127.64	59.572	9.2856e-06	63.39	0.0050602	0.0088547	0.0024126	849.04	8.2554e-05	9.5228e-05	748.59	314.99	7.9504e-05	9.1002e-05	288.25	126.65	135.53	63.07	8.2803e-05	66.97	-80.516	19.569	-11.300	-71.408	125.105	0.929	-72.999	-65.600	95.537	20.771	-68.532	-64.203	-60.967	-56.270	70.226	-60.824	-8191	255	
38975.871	1	1	0	0	0.1784	0.36198	0.17077	0.14167	0.22921	0.30563	0.29472	0.24235	0.10879	0.11366	0.23624	0.034078	0.11939	0.072152	0.13524	0.14508	-2.7062	-2.0167	-2.3396	-2.9229	-2.2417	-2.9208	-2.775	-2.35	-3.0021	-2.3937	-2.5417	-3.0875	-2.3604	-2.9792	-2.7938	-2.25	69.202	-76.454	145.879	-78.241	45.167	221.478	235.297	213.421	31.331	101.109	245.282	203.962	162.554	217.235	8.743	222.486	0.00034094	0.00072275	0.00014891	809.1	6.385e-06	7.8621e-06	715.94	299.51	1.9321e-06	6.1292e-06	271.31	119.75	128.89	60.033	3.8289e-06	63.977	0.004683	0.008131	0.0022493	846.47	7.9319e-05	9.2785e-05	747.65	315.63	8.1666e-05	9.3766e-05	289.91	127.76	136.94	63.616	8.8497e-05	67.678	-71.306	40.879	39.718	-71.529	84.375	47.342	-72.830	-65.576	161.784	46.720	-68.285	-63.971	-61.149	-56.233	72.675	-60.821	-8191	255	
38975.969	1	1	0	0	0.075639	0.16263	0.2097	0.15709	0.078605	0.055963	0.20128	0.19115	0.10074	0.2483	0.27273	0.25759	0.098554	0.053608	0.12817	0.08424	-2.6875	-2.3729	-2.1125	-3.0708	-2.2021	-2.9479	-2.95	-2.3	-2.9542	-2.3792	-2.4396	-3.0958	-2.2771	-2.8333	-2.875	-2.2771	-34.704	67.283	63.080	174.291	4.174	128.722	206.845	240.498	-21.840	-45.173	208.241	-56.938	204.104	-29.011	213.093	62.233	0.00023288	0.0010436	0.00021155	814.66	7.8906e-06	9.2875e-06	718.59	303	4.6299e-06	3.4659e-06	272.17	119.94	130.09	60.404	5.2384e-06	64.151	0.0048835	0.0083895	0.002321	849.58	8.009e-05	9.3634e-05	749.68	317.21	8.1524e-05	9.2078e-05	290.28	127.99	137.65	64.092	8.6986e-05	67.793	-80.331	21.438	58.032	-71.184	57.149	71.516	-72.964	-65.608	39.543	53.265	-68.495	-63.828	-60.798	-56.417	273.045	-60.927	-8191	255	
38976.090	1	1	0	0	0.11594	0.06479	0.12752	0.23022	0.3039	0.12125	0.10848	0.25122	0.066373	0.22683	0.07267	0.20664	0.1435	0.30144	0.079244	0.18974	-2.5729	-2.4062	-2.2417	-3.1437	-2.3063	-2.7667	-2.9458	-2.1354	-3.0104	-2.5062	-2.2625	-3.1271	-2.3688	-2.5229	-2.9854	-2.1333	-45.262	26.571	-43.763	175.149	250.353	-31.057	64.968	-44.781	39.424	83.592	214.673	219.892	256.124	256.947	193.230	241.482	0.00029685	0.00042629	0.00011001	811.93	6.0346e-06	1.0697e-05	711.72	299.54	8.6963e-07	8.7949e-06	269.83	120.05	128.84	60.169	2.8531e-06	63.666	0.0049564	0.0084799	0.0023733	848.45	8.2008e-05	9.4087e-05	744.39	315.49	8.0906e-05	9.2479e-05	287.95	127.42	137.02	63.746	8.6195e-05	67.25	-65.086	27.233	14.168	-71.229	108.256	60.009	-72.840	-65.639	15.086	63.928	-68.587	-63.875	-60.767	-56.203	36.814	-60.661	-8191	255	
38976.184	1	1	0	0	0.058937	0.19779	0.26953	0.17396	0.21789	0.31297	0.19898	0.044847	0.18124	0.09648	0.30781	0.22994	0.11714	0.42839	0.31823	0.22644	-2.6479	-2.6312	-2.0687	-3.0771	-2.3292	-2.5646	-3.0771	-2.2062	-2.6896	-2.7146	-2.1667	-3.0438	-2.475	-2.4771	-3.1646	-2.1833	189.743	106.760	-43.470	201.244	-22.724	165.987	156.638	265.803	195.321	246.256	145.294	200.888	159.917	-66.939	274.049	228.393	0.00026108	0.0011423	7.1083e-05	807.3	8.2793e-06	5.0265e-06	708.97	298.41	3.8888e-06	4.8856e-06	268.24	119.33	128.13	59.916	3.3771e-06	63.255	0.0049122	0.0084827	0.0023572	844.04	8.2941e-05	9.6788e-05	741.62	314.89	8.3779e-05	9.6806e-05	286.95	127.12	136.26	63.397	8.7421e-05	66.896	-80.786	65.755	12.264	-71.347	69.457	76.611	-72.988	-65.767	94.197	37.242	-68.607	-64.190	-61.128	-56.295	92.937	-60.700	-8191	255	
38976.281	1	1	0	0	0.20448	0.22327	0.28892	0.17625	0.18741	0.16171	0.18924	0.46145	0.097354	0.062474	0.10689	0.20571	0.16393	0.21619	0.18749	0.35018	-2.425	-2.7417	-1.925	-3.0375	-2.2896	-2.175	-3.1125	-2.2521	-2.6083	-2.7667	-2.125	-2.9938	-2.4771	-2.3375	-2.9896	-2.3521	177.711	143.472	-83.789	262.647	224.620	-29.898	232.892	189.890	241.865	149.679	-72.225	226.021	83.667	-82.071	251.250	167.737	0.00019745	0.00046962	0.00017263	804.28	3.9008e-06	7.195e-06	708.23	299.81	5.1532e-06	6.9616e-06	269.79	119.84	128.34	59.72	5.5936e-06	63.219	0.0048917	0.0083899	0.0023273	839.93	7.8871e-05	9.0878e-05	738.89	314.65	7.7921e-05	8.8272e-05	287.22	126.98	135.91	63.23	8.3194e-05	66.751	-71.415	33.948	16.495	-71.143	135.935	55.182	-72.960	-65.904	53.136	108.582	-68.506	-63.832	-61.135	-56.288	55.502	-60.770	-8191	255	
38976.352	1	1	0	0	0.12672	0.057188	0.11391	0.046037	0.13997	0.082932	0.05407	0.071074	0.18546	0.10372	0.27596	0.15572	0.065374	0.24724	0.15265	0.26378	-2.1083	-2.7979	-2.0021	-2.9667	-2.4521	-2.2979	-3.1292	-2.3521	-2.3271	-3.0687	-2.1604	-2.9229	-2.7938	-2.2292	-2.9479	-2.5875	78.200	30.815	268.135	-20.101	245.505	-65.001	81.611	186.102	19.715	221.945	219.301	66.885	207.819	-48.014	167.773	216.955	0.00030773	0.00044473	0.00028321	810.9	7.3556e-06	8.241e-06	705.37	298.75	7.2275e-06	7.31e-06	268.9	118.38	128.24	59.286	8.391e-06	62.254	0.0047218	0.0081451	0.0022836	842.9	7.9206e-05	9.264e-05	737.95	314.31	8.0355e-05	9.1893e-05	286.25	125.85	135.97	62.874	8.5466e-05	65.925	-79.654	104.067	43.347	-71.300	72.255	65.722	-72.872	-65.576	138.293	45.716	-68.411	-63.866	-60.919	-56.204	41.751	-61.151	-8191	255	
38976.473	1	1	0	0	0.075404	0.16302	0.15679	0.13266	0.093672	0.099742	0.090822	0.27128	0.071699	0.01915	0.20674	0.11738	0.16254	0.22549	0.1883	0.065756	-2.1479	-3.0021	-1.8979	-2.9771	-2.5854	-2.1917	-3.1833	-2.3875	-2.35	-3.0042	-2.3083	-2.7229	-2.7812	-1.9813	-2.8708	-2.4625	98.659	132.916	82.978	247.306	49.239	260.187	223.501	194.560	84.379	62.153	243.406	135.970	240.951	261.659	-81.736	119.149	0.00023415	0.0014772	0.00019554	803.53	4.2047e-06	6.0302e-06	698.95	297.18	2.5054e-06	8.1921e-06	266.44	118.02	126.9	58.508	8.5455e-06	61.866	0.0047755	0.0081838	0.0022639	838.72	7.8792e-05	9.1808e-05	732.26	312.51	8.0605e-05	9.0593e-05	283.87	125.13	134.75	61.98	7.9805e-05	65.246	275.713	-1.243	0.334	-71.424	17.518	25.153	-72.778	-65.590	160.515	61.243	-68.833	-64.038	-61.004	-56.475	111.555	-60.743	-8191	255	
38976.570	1	1	0	0	0.14239	0.054226	0.30256	0.21945	0.25602	0.21234	0.29625	0.20012	0.29454	0.21874	0.081144	0.21579	0.056744	0.33723	0.089299	0.20816	-2.0187	-3.025	-2.1104	-2.675	-2.8167	-1.9458	-2.8271	-2.5729	-2.3354	-3.1937	-2.475	-2.6458	-2.9396	-2.2917	-2.7083	-2.7521	255.047	191.163	55.621	177.213	-4.256	-56.128	-81.106	-71.665	20.433	108.484	233.752	183.848	-73.057	-60.324	-43.500	265.071	0.00030507	0.00025892	0.00012588	799.16	2.2079e-06	3.4859e-06	700.34	297.58	8.4321e-06	7.5025e-06	267.33	117.35	126.26	58.334	3.9982e-06	61.562	0.0044517	0.0076173	0.0021337	834.17	7.5693e-05	8.9983e-05	730.64	312.08	8.0159e-05	9.0543e-05	283.57	124.7	134.24	61.677	7.9759e-05	64.89	275.603	141.942	-50.902	-71.212	-30.566	2.305	-72.776	-65.782	70.777	65.908	-68.430	-64.000	-60.910	-56.134	54.084	-61.093	-8191	255	
38976.664	1	1	0	0	0.038875	0.13895	0.15305	0.31645	0.35358	0.13838	0.38519	0.27465	0.32606	0.093384	0.16974	0.23315	0.13509	0.18638	0.14138	0.14642	-1.9104	-2.7271	-2.1625	-2.5458	-2.9417	-2.1312	-2.9917	-2.7396	-2.3563	-3.0333	-2.2708	-2.4667	-2.9771	-2.3896	-2.8083	-2.9625	74.370	189.246	-63.322	-83.297	159.240	94.524	182.700	176.817	32.688	174.059	214.201	161.961	242.579	-70.998	157.156	-27.225	0.00038071	0.00053567	0.0001931	805.16	2.2332e-06	8.7781e-06	704.21	297.99	3.2206e-06	6.608e-07	268.77	118.1	126.84	58.924	1.314e-06	61.778	0.0044534	0.0075922	0.0021317	837.84	7.3858e-05	8.5568e-05	735.03	312.74	7.6035e-05	8.9333e-05	286.16	125.63	134.82	62.485	8.7888e-05	65.421	274.226	-3.306	2.515	-71.375	191.000	95.806	-73.164	-65.879	-0.326	177.587	-68.543	-63.954	-60.846	-56.280	7.928	-60.535	-8191	255	
38976.762	1	1	0	0	0.21617	0.14665	0.20457	0.13316	0.1546	0.19273	0.16431	0.25711	0.058046	0.14188	0.15853	0.33512	0.12084	0.23631	0.12496	0.1677	-1.8417	-3.0458	-2.3729	-2.4729	-2.8021	-2.1125	-2.7625	-2.7479	-2.05	-2.925	-2.6021	-2.3458	-2.9042	-2.1583	-2.6708	-2.6979	248.222	-51.763	-53.470	-72.133	248.332	2.561	214.162	247.628	134.214	-67.494	237.905	248.947	249.470	252.233	16.182	189.635	0.00029673	0.00042739	0.00019257	812.48	3.9288e-06	8.8314e-06	707.05	298	3.9121e-06	4.308e-06	264.22	115.48	124.84	58.166	1.7497e-06	61.213	0.0049248	0.0083323	0.0022216	846.48	7.6288e-05	8.7567e-05	739.6	312.41	7.6873e-05	8.9383e-05	282.47	123.05	132.78	61.726	8.8611e-05	64.929	-83.141	2.109	-3.620	-71.314	33.699	94.627	-73.040	-65.629	113.370	46.099	-68.516	-64.008	-60.718	-56.288	95.831	-60.791	-8191	255	
38976.883	1	1	0	0	0.3571	0.14497	0.18287	0.16603	0.19552	0.12309	0.22214	0.20436	0.16699	0.06812	0.13836	0.10571	0.24216	0.37509	0.02038	0.23457	-1.7167	-2.8833	-2.475	-2.5167	-2.8708	-2.2438	-2.7917	-2.8875	-2.1792	-2.9458	-2.5687	-2.3083	-3.1521	-2.3354	-2.6188	-3.175	17.942	99.737	177.591	265.081	133.025	24.407	238.931	240.551	16.656	227.304	-44.813	257.722	223.810	271.761	235.501	256.000	0.0002495	0.00085974	9.462e-05	804.78	6.6782e-06	1.8299e-06	703.76	294.6	5.6012e-06	6.6364e-06	263.56	113.67	123.36	57.448	5.1855e-07	60.466	0.0050418	0.0086702	0.0024107	840.56	8.4351e-05	9.9212e-05	735.57	309.96	8.4208e-05	9.6653e-05	280.81	121.64	131.21	60.824	9.163e-05	64.232	-63.884	18.390	53.190	-71.185	79.985	13.816	-73.060	-65.513	83.685	61.910	-68.676	-64.101	-60.907	-56.405	121.428	-60.658	-8191	255	
38976.953	1	1	0	0	0.34552	0.077063	0.28476	0.14692	0.058391	0.15872	0.17656	0.25177	0.17397	0.21617	0.067459	0.1522	0.12652	0.36442	0.10823	0.16685	-1.6479	-2.8417	-2.6542	-2.3729	-3.0146	-2.3229	-2.7979	-3.1833	-2.175	-2.7438	-2.7708	-2.1167	-3.1188	-2.4042	-2.4917	-3.2542	20.266	176.770	-74.873	-65.778	62.094	-76.274	238.982	178.908	97.420	176.685	-67.953	252.063	-45.075	248.440	114.773	-69.774	0.00021971	0.00071166	9.5974e-05	804.59	5.2258e-06	4.0236e-06	701.78	295.27	3.1418e-06	2.6977e-06	262.66	114.85	123.41	57.797	8.0437e-06	61.153	0.0052102	0.0090793	0.0025147	842.24	8.7118e-05	0.00010208	737.28	310.64	8.8132e-05	0.00010035	282.1	122.35	131.86	61.391	9.2473e-05	64.915	-76.159	71.357	-11.205	-71.363	15.768	105.653	-72.825	-65.619	-50.406	19.765	-68.721	-63.828	-60.812	-56.152	91.137	-60.851	-8191	255	
38977.051	1	1	0	0	0.022343	0.11685	0.21678	0.20701	0.034949	0.070102	0.060547	0.23967	0.19377	0.12467	0.15553	0.19336	0.3317	0.18747	0.12779	0.37411	-1.9021	-2.7687	-2.8396	-2.3333	-2.7625	-2.3937	-2.3771	-3.1333	-2.175	-2.5938	-2.8896	-2.3125	-2.9833	-2.6042	-2.2479	-3.1375	107.918	260.373	93.937	182.877	39.278	5.204	195.027	150.143	65.295	-82.529	-72.045	221.908	276.335	229.135	169.138	244.238	0.00029487	0.0007922	0.00012479	809.06	5.8682e-06	2.1136e-06	707.72	297.37	8.0198e-06	4.1888e-06	268.09	116.19	124.68	58.451	8.6561e-06	61.544	0.0051391	0.0089376	0.002446	844.05	8.4911e-05	9.8542e-05	741.82	312.35	8.3268e-05	9.4228e-05	284.75	123.65	132.85	62.03	8.8786e-05	65.275	-75.412	265.674	39.948	-71.347	50.524	-4.493	-72.759	-65.483	83.768	81.912	-68.518	-64.032	-60.839	-56.272	76.978	-60.730	-8191	255	
38977.172	1	1	0	0	0.11487	0.25107	0.089954	0.14805	0.1177	0.20144	0.33018	0.25695	0.13526	0.28803	0.086166	0.21426	0.063467	0.051219	0.093555	0.1551	-1.7667	-2.5667	-2.9729	-2.1188	-2.9521	-2.4729	-2.4021	-2.9688	-2.1958	-2.6042	-2.8771	-2.1833	-2.9104	-2.7583	-2.2375	-3.3833	36.239	89.622	56.279	-66.547	68.900	-3.783	217.755	249.353	223.571	241.944	157.186	100.405	-74.452	249.437	200.655	201.404	0.00026769	0.00047345	7.4882e-05	807.15	2.6105e-06	5.8708e-06	707.54	295.45	2.7433e-06	3.8008e-06	264.85	115.69	125.32	58.546	2.1377e-06	61.563	0.005046	0.0087597	0.0024234	844.89	8.5783e-05	9.9094e-05	741	311.86	8.6804e-05	9.943e-05	283.67	123.47	133.63	62.209	9.0628e-05	65.292	274.542	-75.573	-35.926	-71.141	-60.639	58.003	-72.959	-65.412	51.737	43.077	-68.706	-64.041	-60.689	-56.449	202.552	-60.640	-8191	255	
38977.266	1	1	0	0	0.3584	0.46957	0.15619	0.39436	0.10522	0.20836	0.30398	0.24588	0.16285	0.1975	0.20774	0.098295	0.11104	0.15539	0.099814	0.16045	-1.8042	-2.5042	-2.9146	-2.1188	-2.7938	-2.8229	-2.05	-3.1208	-2.275	-2.5396	-3.0167	-2.2396	-2.6229	-3.0563	-2.0333	-3.0187	-64.863	2.143	-22.599	258.696	208.631	80.285	-71.425	-83.035	-7.228	171.396	-9.142	211.045	166.499	-77.596	267.971	242.858	0.00029701	0.00055603	0.00016465	806.81	2.2381e-06	1.9724e-06	701.66	294.97	3.7319e-06	6.2232e-06	264.58	115.17	124.67	57.979	8.3993e-06	61.026	0.0051155	0.0088602	0.0024541	842.84	8.6738e-05	0.00010171	738.86	311.18	8.8167e-05	0.00010111	282.61	123.11	133	61.776	9.5662e-05	64.783	-66.300	-9.426	76.956	-71.300	93.450	110.884	-73.072	-65.200	196.058	36.989	-68.229	-63.937	-60.886	-56.324	60.024	-60.622	-8191	255	
38977.359	1	1	0	0	0.076202	0.13788	0.093418	0.13232	0.13516	0.23203	0.20333	0.10073	0.088753	0.29094	0.12577	0.10425	0.20049	0.26325	0.2124	0.25952	-1.9875	-2.2604	-3.0208	-2.2438	-2.7125	-2.8	-2.2729	-2.925	-2.3896	-2.3375	-3.1021	-2.1937	-2.6646	-2.9792	-2.2771	-2.9917	-68.689	97.387	-36.119	-43.164	253.312	51.144	92.298	-25.117	58.645	-53.266	-36.408	229.545	-67.650	178.261	-83.242	-66.868	0.00022365	0.00071934	0.00016517	801.52	3.6446e-06	4.9945e-06	708.84	295.51	3.4197e-06	3.7375e-06	262.1	115.74	125.29	58.403	2.3533e-06	61.233	0.0052643	0.0091309	0.0025383	841.81	8.8019e-05	0.00010139	739.4	311.74	8.8644e-05	0.00010319	283.05	123.74	133.66	61.839	9.6479e-05	65.052	-76.460	-24.334	40.028	-71.186	84.219	-19.386	-72.973	-65.814	144.763	71.931	-68.170	-63.967	-60.894	-56.222	-82.313	-60.579	-8191	255	
38977.457	1	1	0	0	0.21879	0.31872	0.1985	0.19807	0.057363	0.13008	0.080799	0.14362	0.12264	0.25176	0.067318	0.126	0.11985	0.13241	0.088551	0.077821	-2.2417	-2.1188	-2.85	-2.1896	-2.3229	-2.8563	-2.2854	-2.8854	-2.7021	-2.1375	-3.1417	-2.4083	-2.5771	-3.0958	-2.1083	-3.0021	206.870	-39.310	175.493	218.660	66.134	150.354	262.371	50.379	-5.777	109.946	264.801	-71.049	70.572	258.532	37.514	194.355	0.00025884	0.00058562	0.00032362	807.8	6.9023e-06	3.7613e-06	705.48	298.58	8.321e-06	7.1008e-06	265.79	115.31	126.41	58.625	5.6477e-06	61.477	0.0053841	0.0093033	0.0025565	847.18	8.9219e-05	0.00010336	741.29	313.85	8.7866e-05	0.00010118	283.92	123.5	134.27	62.281	9.3235e-05	65.111	-72.026	26.810	46.124	-71.189	123.815	34.302	-72.647	-65.528	57.321	90.117	-68.522	-64.069	-60.826	-56.217	65.991	-60.632	-8191	255	
38977.555	1	1	0	0	0.064347	0.034317	0.26686	0.0504	0.17471	0.11884	0.18222	0.25742	0.16533	0.15493	0.30168	0.042351	0.094501	0.19651	0.19064	0.20594	-2.4813	-2.1667	-3.0021	-2.4979	-2.3438	-2.9313	-2.1875	-2.8125	-2.7729	-2.0687	-2.9396	-2.5083	-2.2958	-3.0854	-2.1604	-2.85	-51.495	265.166	105.036	209.387	52.999	64.324	238.990	221.600	165.681	44.571	-73.797	79.245	191.062	225.230	-16.320	259.212	0.00020033	0.0011013	0.00016184	806.84	1.0029e-05	1.108e-05	704	296.67	1.9114e-06	8.3378e-06	265.22	116.19	126.11	58.452	1.2472e-06	61.586	0.0051443	0.0088011	0.0024344	844.09	8.5103e-05	9.8466e-05	737.18	312.75	8.2852e-05	9.5261e-05	282.74	123.62	133.89	62.21	8.6445e-05	65.187	-77.365	21.332	9.134	-71.229	105.856	88.115	-72.789	-65.389	34.883	79.720	-68.083	-63.638	-60.739	-56.119	254.062	-60.630	-8191	255	
38977.648	1	1	0	0	0.046768	0.06444	0.13368	0.21257	0.13765	0.0095615	0.32398	0.018811	0.17219	0.082468	0.081054	0.26035	0.2347	0.022499	0.20171	0.060008	-2.4958	-2.1875	-2.9938	-2.4167	-2.2208	-3.025	-2.25	-2.6125	-2.95	-2.2375	-2.9604	-2.5875	-2.4458	-3.1688	-2.2667	-2.6271	127.408	235.347	-59.934	245.629	24.719	67.466	245.917	53.906	207.376	-79.286	-49.251	-17.577	248.184	43.168	-53.036	22.392	0.00030553	0.00041381	0.00010044	803.82	1.2944e-05	1.27e-06	698.8	296.46	4.6243e-06	5.3828e-06	265.36	117.27	127.51	59.607	4.7231e-06	62.995	0.0048258	0.0084295	0.00234	839	8.0455e-05	9.3831e-05	731.98	311.7	7.8708e-05	8.8968e-05	282.58	124.84	135.1	63.109	7.7156e-05	66.247	-79.064	-7.281	49.042	-71.180	132.393	116.192	-73.041	-65.566	121.695	65.490	-68.297	-63.966	-60.803	-56.432	21.837	-60.787	-8191	255	
38977.770	1	1	0	0	0.18609	0.33148	0.1338	0.14935	0.1658	0.14378	0.033897	0.25032	0.23719	0.21706	0.053062	0.30704	0.25074	0.18901	0.065724	0.075064	-2.5729	-2.2	-2.8646	-2.7625	-2.2917	-3.0312	-2.4146	-2.6229	-2.9375	-2.1375	-2.8875	-2.7229	-2.1813	-2.9688	-2.4604	-2.4396	240.492	116.550	84.984	228.529	215.718	86.929	23.840	-52.750	265.531	224.955	-1.205	152.600	-7.935	193.520	-61.110	-57.591	0.00033411	0.00062461	0.00017504	802.55	6.6152e-06	3.6721e-06	706.23	299.4	2.7999e-06	4.2433e-06	269.1	119.55	129.1	60.7	4.0236e-06	63.813	0.0042309	0.0073099	0.0019891	835.1	6.842e-05	7.9756e-05	733.26	312.72	6.8344e-05	7.9072e-05	284.44	126.48	136.38	64.033	7.1859e-05	67.138	-76.852	-24.051	19.987	-71.295	63.184	62.788	-72.791	-65.490	37.354	92.184	-68.469	-64.362	-61.048	-56.525	164.724	-60.715	-8191	255	
38977.867	1	1	0	0	0.28964	0.17273	0.065364	0.12558	0.29051	0.21525	0.14148	0.075895	0.13155	0.12998	0.12162	0.035822	0.37966	0.26723	0.20761	0.15591	-2.6354	-2.1125	-2.7146	-2.875	-2.1479	-3.0854	-2.4104	-2.4813	-2.9437	-2.0396	-2.7021	-2.8167	-2.1417	-3.05	-2.5917	-2.4167	147.874	87.926	249.490	240.070	150.192	254.045	162.325	205.305	240.119	154.350	9.381	143.876	256.697	131.943	176.207	177.282	0.00029646	0.00058001	0.00021716	803.05	6.0624e-06	6.4144e-06	705.24	298.37	3.6741e-06	9.6756e-06	266.3	118.13	129.39	60.132	6.9634e-06	62.752	0.0039977	0.006883	0.0018966	835.46	6.7141e-05	7.8625e-05	732.71	313.26	6.8927e-05	8.0249e-05	283.14	125.24	136.21	63.555	7.3105e-05	66.172	-81.017	5.560	-0.729	-71.207	107.061	18.418	-72.827	-65.517	127.624	66.963	-68.463	-63.908	-60.867	-56.177	106.250	-60.750	-8191	255	
38977.965	1	1	0	0	0.12481	0.076194	0.19128	0.038228	0.26191	0.043527	0.23493	0.30427	0.081536	0.26782	0.10332	0.15633	0.19868	0.24344	0.11096	0.33484	-2.675	-2.1125	-2.7625	-2.9833	-1.9333	-3.0167	-2.6333	-2.3979	-2.9271	-2.1562	-2.5708	-2.8958	-2.2167	-2.9375	-2.5708	-2.1979	72.243	161.744	168.758	210.797	89.458	264.639	222.049	270.620	-57.823	35.965	221.470	25.096	154.999	-15.119	134.774	221.927	0.00027127	0.00083137	0.00022608	803.38	6.5878e-06	5.0124e-06	697.24	298.17	5.0373e-06	1.7472e-06	266.11	116.76	126.87	59.435	2.4907e-06	62.176	0.0041727	0.0071016	0.0019765	833.64	6.936e-05	8.0773e-05	726.69	311.47	7.1474e-05	8.1982e-05	281.33	123.89	134.32	62.682	7.5887e-05	65.395	-77.047	-12.439	16.687	-71.235	100.162	102.256	-73.081	-65.732	71.965	-26.891	-68.634	-64.073	-60.739	-56.394	-28.039	-60.745	-8191	255	
38978.059	1	1	0	0	0.041567	0.28968	0.058176	0.13488	0.26386	0.27441	0.11459	0.21713	0.15921	0.28876	0.033746	0.26113	0.15709	0.09048	0.18884	0.20526	-2.675	-2.2625	-2.5062	-3.2104	-2.0917	-2.8854	-2.6917	-2.3187	-3.0125	-2.3208	-2.5146	-2.8812	-2.1604	-2.7604	-2.65	-2.0938	274.315	89.619	48.201	168.132	79.745	270.125	212.054	128.404	-65.398	99.162	237.327	210.243	212.769	164.086	232.260	224.489	0.00032961	0.0004869	0.00020985	799.98	4.7846e-06	3.6818e-06	693.48	296.07	3.5706e-06	3.2618e-06	264.54	116.73	127.12	59.042	1.2218e-05	61.759	0.0043017	0.0073944	0.0020704	831.76	7.1873e-05	8.3859e-05	724.35	310.86	7.3724e-05	8.3668e-05	280.6	123.73	134.48	62.458	7.9654e-05	65.24	-64.468	27.420	29.785	-71.226	23.104	83.423	-72.855	-65.574	45.204	59.637	-68.420	-63.846	-60.942	-56.385	26.873	-60.985	-8191	255	
38978.180	1	1	0	0	0.43678	0.2161	0.16363	0.17716	0.13014	0.12517	0.020071	0.27039	0.1765	0.064749	0.24937	0.30218	0.058766	0.21457	0.12506	0.25619	-2.6792	-2.2438	-2.1437	-2.9083	-2.1042	-2.6354	-2.8833	-2.2229	-2.9354	-2.3312	-2.2729	-3.0229	-2.3271	-2.8333	-2.6771	-2.2438	171.734	258.244	89.183	174.595	191.420	137.958	179.116	220.972	-75.109	47.935	155.493	-82.165	163.452	191.198	84.357	126.703	0.00026407	0.00071721	0.00013164	793.66	2.1702e-06	5.9176e-06	694.66	295.81	5.8199e-06	3.8905e-06	262.77	115.51	126.05	58.525	7.9391e-06	60.434	0.0045391	0.0078904	0.0021965	830.43	7.6896e-05	8.9996e-05	726.15	310.93	7.9153e-05	9.0354e-05	280.79	123.15	133.74	62.034	8.8847e-05	64.189	275.585	-4.363	-15.051	-71.133	-80.512	56.342	-73.104	-65.752	109.919	39.788	-68.524	-64.033	-61.084	-56.335	118.109	-60.767	-8191	255	
38978.250	1	1	0	0	0.21799	0.10605	0.14078	0.11832	0.19082	0.09151	0.068939	0.14247	0.078538	0.043551	0.23392	0.21046	0.10774	0.18079	0.18235	0.021292	-2.5583	-2.5625	-2.0187	-3.1375	-2.2396	-2.4625	-3	-2.2792	-2.875	-2.6271	-2.2583	-2.9625	-2.4188	-2.6813	-2.9938	-2.1292	93.570	157.362	100.914	-80.812	156.893	12.952	267.648	255.736	107.783	49.239	7.096	141.841	103.806	249.672	4.586	173.230	0.00031355	0.00017316	0.0002274	793.49	7.5289e-06	7.4213e-06	684.01	294.12	7.0822e-06	2.7513e-06	257.5	112.49	124.24	57.073	1.4373e-06	58.828	0.005003	0.0086727	0.0024117	832.13	8.4908e-05	9.9827e-05	720.69	310.05	8.8141e-05	0.0001011	277.02	120.7	132.41	60.741	9.7118e-05	62.589	-74.521	112.775	10.067	-71.479	119.181	44.612	-72.925	-65.679	87.548	38.503	-68.589	-64.194	-60.990	-56.206	202.615	-60.952	-8191	255	
38978.344	1	1	0	0	0.10495	0.13148	0.034059	0.20852	0.19108	0.13318	0.26689	0.088901	0.228	0.23248	0.06903	0.13809	0.22623	0.29036	0.033073	0.12001	-2.5583	-2.5979	-2	-2.9375	-2.4104	-2.5104	-3.0687	-2.2083	-2.7667	-2.6312	-2.1729	-3.0167	-2.3646	-2.3438	-2.9292	-2.1458	-81.234	234.013	139.016	-28.136	-41.216	51.120	-64.385	222.718	-40.095	-21.706	205.049	234.055	-72.304	271.267	123.292	100.938	0.00027778	0.00032539	0.00012996	789.27	1.1196e-05	3.6556e-06	679.99	292.27	3.8856e-06	7.6003e-06	255.89	111.34	122.41	56.372	8.4327e-06	58.232	0.0055185	0.0094511	0.0026711	830.25	9.3714e-05	0.0001085	715.29	308.02	9.4538e-05	0.00010854	275.36	119.71	131.53	60.152	0.00010117	62.097	-82.036	73.182	10.270	-71.370	81.622	50.986	-73.039	-65.886	94.754	44.553	-68.838	-64.219	-61.145	-56.165	38.860	-60.871	-8191	255	
38978.441	1	1	0	0	0.16321	0.22811	0.20087	0.18069	0.095691	0.24854	0.34047	0.091108	0.36566	0.15202	0.1589	0.21575	0.32603	0.27283	0.18861	0.072979	-2.4958	-2.8271	-2.0792	-3.0417	-2.425	-2.2542	-3.0583	-2.3583	-2.6896	-2.9896	-2.1146	-2.8875	-2.6562	-2.4562	-2.9417	-2.275	214.600	118.405	77.733	175.823	-0.079	27.844	242.469	201.544	-82.325	-46.750	247.531	99.564	191.213	-63.578	240.620	189.437	0.00029964	0.00071589	0.00018288	791.88	9.3899e-07	1.6251e-06	678.14	292.2	6.3485e-06	4.691e-06	255.49	112.92	123.62	57.095	6.8646e-06	58.791	0.0056355	0.0097885	0.0027126	830.99	9.2566e-05	0.0001088	715.66	309.14	9.2932e-05	0.00010711	276.38	120.79	132.45	60.876	0.00010024	62.835	-69.078	-37.032	-10.557	-71.308	118.796	-15.024	-72.963	-65.674	40.159	48.082	-68.704	-64.171	-60.945	-56.254	59.396	-60.746	-8191	255	
38978.539	1	1	0	0	0.13121	0.14309	0.13122	0.24163	0.09349	0.15098	0.24121	0.17762	0.14313	0.20522	0.14212	0.36391	0.17741	0.30066	0.11386	0.32192	-2.1667	-2.7208	-2.0146	-3.0583	-2.6583	-2.1937	-3.1354	-2.2458	-2.5187	-2.875	-2.1292	-2.8937	-2.7875	-2.1146	-3.0271	-2.2646	80.874	59.421	6.053	251.895	-44.844	83.420	120.624	144.151	248.618	74.843	178.764	190.622	189.201	197.353	260.870	203.494	0.00028118	0.00067916	0.0002672	798.7	5.7768e-06	4.1212e-06	688.64	295.02	4.7441e-06	4.3944e-06	259.54	113.48	124.83	57.634	1.5132e-06	59.568	0.0056435	0.0098049	0.0027568	837.44	9.4861e-05	0.00011092	724.17	311.59	9.5006e-05	0.0001095	279.57	121.79	133.37	61.366	0.00010142	63.35	-75.797	76.965	10.546	-71.289	141.406	71.212	-73.066	-65.674	97.496	13.853	-68.951	-63.857	-61.011	-56.306	90.185	-60.621	-8191	255	
38978.656	1	1	0	0	0.0565	0.31223	0.21991	0.034485	0.22347	0.13197	0.074058	0.26407	0.26926	0.21231	0.1871	0.1809	0.15334	0.32397	0.14543	0.088609	-1.7583	-2.9896	-2.0833	-2.9354	-2.7042	-2.2833	-3.3229	-2.5333	-2.5354	-3.0062	-2.2375	-2.8812	-2.7229	-2.2208	-2.9042	-2.5333	-2.690	-81.543	-47.737	-76.381	54.418	-26.004	137.126	243.933	111.785	153.316	-11.857	249.625	265.647	242.999	42.880	-70.346	0.00029066	0.0012153	0.00015928	799.06	3.1831e-06	8.9973e-06	689.96	295.4	1.8601e-06	1.8189e-06	260.69	113.7	125.2	57.821	2.249e-06	59.314	0.005632	0.0096227	0.0026948	840.12	9.2802e-05	0.00010733	723.12	312.25	9.3041e-05	0.00010734	279.56	121.72	133.44	61.458	9.7789e-05	63.341	-64.601	68.908	-12.485	-71.280	123.216	127.817	-72.790	-65.711	47.055	73.031	-68.652	-64.129	-60.966	-56.229	10.872	-60.624	-8191	255	
38978.754	1	1	0	0	0.12787	0.1259	0.30772	0.085198	0.25417	0.35298	0.12106	0.20469	0.057068	0.14243	0.023404	0.11988	0.16349	0.11623	0.14198	0.416	-1.7479	-2.8396	-2.225	-2.7646	-2.7854	-2	-3.1646	-2.7062	-2.1896	-2.9708	-2.3312	-2.6521	-3.0104	-2.3187	-3.0146	-2.6083	244.331	-50.561	185.461	254.255	65.687	28.204	-48.144	194.476	131.964	-35.924	113.968	273.139	-48.975	190.920	252.823	201.792	0.00032097	0.00049482	6.1396e-05	799.85	6.7038e-06	8.9071e-06	687.53	296.13	1.5036e-06	4.1152e-06	260.02	113.47	124.67	57.603	4.0509e-06	59.74	0.0053798	0.0092812	0.0025902	837.43	8.8465e-05	0.00010509	723.07	311.29	8.9735e-05	0.00010243	279.41	121.75	133.22	61.258	9.3783e-05	63.526	-80.389	0.793	49.273	-71.236	71.537	15.971	-72.776	-65.780	50.174	119.409	-68.562	-64.048	-61.082	-56.407	127.443	-60.887	-8191	255	
38978.852	1	1	0	0	0.14579	0.27598	0.11016	0.26965	0.13492	0.14517	0.1313	0.35706	0.25874	0.17412	0.11116	0.1384	0.073842	0.16362	0.074974	0.072832	-1.75	-3.0187	-2.2979	-2.4396	-2.8396	-2.1354	-3.0187	-2.7271	-2.15	-3.0792	-2.4813	-2.3625	-3.0646	-2.3937	-2.7417	-2.9062	57.575	234.468	27.401	249.500	-78.186	121.602	-46.803	190.169	-37.810	-40.729	-17.591	233.805	173.835	206.046	171.302	153.695	0.00027568	0.00050171	9.942e-05	803.47	4.6772e-06	4.2306e-06	693.72	296.09	5.672e-06	6.7288e-07	261.88	114.5	125.65	57.923	8.5059e-06	60.123	0.005232	0.0091246	0.0025428	840.51	8.9048e-05	0.00010515	729.43	312.49	9.1315e-05	0.00010498	281.44	122.63	134	61.544	9.518e-05	63.918	-79.896	-17.847	-39.575	-71.048	47.275	48.174	-72.861	-65.505	156.790	-3.680	-68.733	-63.966	-61.120	-56.197	129.040	-60.769	-8191	255	
38978.945	1	1	0	0	0.3185	0.23925	0.13346	0.34294	0.22775	0.099406	0.11362	0.077277	0.20392	0.098822	0.21547	0.12081	0.23769	0.30232	0.20064	0.23241	-1.8083	-3.1562	-2.3792	-2.4875	-3.0312	-2.2562	-2.9542	-2.8792	-2.2313	-2.9062	-2.4792	-2.2	-3.0979	-2.3542	-2.7375	-2.9437	-54.740	71.707	54.539	273.677	152.492	92.990	213.209	127.467	216.513	235.164	226.212	35.942	272.353	224.059	11.575	235.506	0.00030275	0.00075678	0.00014041	807.26	5.2356e-06	4.1835e-06	700.1	300.09	8.667e-06	9.6088e-06	265.62	116.79	127.45	58.901	1.2085e-05	61.074	0.0052629	0.0091932	0.0025039	847	8.7151e-05	0.00010245	735.38	315.74	8.7857e-05	0.0001003	285.11	124.21	135.9	62.529	9.2491e-05	64.9	-80.555	30.951	-44.955	-71.377	80.556	59.263	-72.961	-65.804	29.002	108.929	-68.727	-64.087	-61.007	-56.274	59.669	-60.764	-8191	255	
38979.043	1	1	0	0	0.24615	0.17472	0.27344	0.18758	0.17454	0.1952	0.14762	0.25137	0.16934	0.17098	0.16882	0.052745	0.075512	0.31466	0.16359	0.34687	-1.7479	-2.9521	-2.5875	-2.2917	-2.9875	-2.2354	-2.7313	-2.9229	-2.0542	-2.9729	-2.8875	-2.2771	-3.2146	-2.3	-2.5646	-2.7833	160.106	99.418	147.718	268.775	233.793	141.003	217.738	251.554	174.539	-48.397	199.239	202.450	-2.914	199.659	142.503	262.427	0.00033925	0.00057898	5.8773e-05	810.38	3.5822e-06	3.2195e-06	703.39	299.92	3.3759e-06	4.5071e-06	264.47	115.63	126.95	58.698	1.4351e-06	61.165	0.0051861	0.0090554	0.0024874	849.35	8.603e-05	9.9674e-05	737.28	315.47	8.5738e-05	9.8708e-05	283.56	123.47	134.82	62.382	9.1347e-05	64.784	-76.530	2.326	-4.035	-71.353	119.761	78.501	-73.065	-65.847	181.319	98.569	-68.577	-64.089	-60.816	-56.421	152.274	-60.661	-8191	255	
38979.141	1	1	0	0	0.10093	0.17872	0.16107	0.20479	0.067699	0.079867	0.46618	0.20931	0.016996	0.37498	0.12064	0.15787	0.39989	0.21281	0.08766	0.078765	-1.5542	-2.775	-2.6896	-2.3021	-2.8208	-2.1479	-2.3771	-3.1125	-1.8979	-2.9167	-2.8104	-2.3167	-3.1021	-2.4771	-2.3708	-3.1937	204.809	169.393	96.104	202.627	21.104	152.916	261.362	217.973	70.925	-45.268	140.794	178.295	254.379	217.616	197.731	-21.572	0.00029146	0.00051505	0.00020467	810.34	3.5055e-06	5.2543e-06	703.43	298.96	1.0855e-06	6.3106e-06	265.86	114.79	126.66	57.764	7.3916e-06	59.724	0.0051963	0.0090509	0.0024963	848.53	8.8232e-05	0.00010148	737.36	314.77	8.7528e-05	9.9564e-05	284.24	123.07	134.81	61.552	9.2871e-05	63.731	274.307	-46.250	9.655	-71.598	98.779	47.303	-73.089	-65.642	-70.138	34.607	-68.890	-64.261	-60.974	-56.406	31.523	-60.759	-8191	255	
38979.258	1	1	0	0	0.10181	0.13934	0.16766	0.28633	0.17545	0.081844	0.12334	0.38563	0.14549	0.13663	0.15042	0.18797	0.076289	0.17791	0.17835	0.16368	-1.7729	-2.5208	-2.7875	-2.0167	-2.9271	-2.3563	-2.3937	-3.2042	-2.1458	-2.6125	-2.8729	-2.2958	-3.0187	-2.6333	-2.3104	-3.1312	44.660	-44.063	255.302	266.177	212.846	-8.974	113.396	164.411	44.755	135.595	226.196	157.408	208.799	210.346	-43.619	-27.308	0.00030569	0.00037529	3.4878e-05	812.35	5.4201e-06	8.2307e-06	705.9	300.05	5.0983e-06	2.6554e-06	266.42	115.37	127.13	58.078	4.6324e-06	60.765	0.0053058	0.0091485	0.0025515	850.24	8.86e-05	0.00010406	739.02	316.28	8.8738e-05	0.00010145	284.92	123.77	135.53	61.87	9.3638e-05	64.344	-64.676	-25.052	33.026	-71.303	85.103	86.703	-73.019	-65.806	108.571	66.328	-68.816	-63.988	-60.907	-56.277	54.024	-60.524	-8191	255	
38979.355	1	1	0	0	0.24007	0.15841	0.17573	0.11656	0.27402	0.2456	0.13345	0.2195	0.13334	0.046166	0.15034	0.034671	0.23785	0.12189	0.18588	0.25674	-1.9937	-2.5833	-2.7833	-2.3583	-2.7396	-2.5312	-2.4479	-3.2292	-2.225	-2.5563	-2.9021	-2.2771	-3.0375	-2.8187	-2.1354	-3.0563	57.044	43.524	70.559	242.488	187.282	225.955	231.422	212.493	22.378	-33.390	123.313	34.997	-79.075	159.901	188.996	212.838	0.00027645	0.00077414	2.7524e-05	818.83	3.9235e-06	1.016e-05	709.26	301.49	3.0509e-06	4.2029e-06	267.05	115.7	127.54	58.544	2.8381e-06	60.529	0.0052607	0.00909	0.0025243	855.99	8.7394e-05	0.00010249	743.28	318.51	8.8154e-05	0.00010272	286.43	124.35	136.04	62.259	9.5176e-05	64.424	-71.023	-28.972	147.111	-71.236	-10.667	61.046	-72.959	-65.780	206.834	113.242	-68.759	-64.099	-60.886	-56.349	-0.107	-60.479	-8191	255	
38979.449	1	1	0	0	0.12894	0.074662	0.082785	0.029678	0.1175	0.12105	0.25838	0.23571	0.13074	0.19142	0.086061	0.17619	0.10988	0.16598	0.1335	0.098962	-1.7313	-2.5104	-2.8833	-2.2	-2.8187	-2.7667	-2.1833	-3.0687	-2.4104	-2.3729	-3.0771	-2.1771	-2.9583	-2.9333	-2.0458	-3.1229	-28.533	248.558	71.001	68.474	98.766	191.341	232.437	-80.843	78.300	8.909	134.695	244.143	-79.796	262.401	171.366	15.817	0.0003375	0.00070794	0.0001347	817.24	8.736e-06	1.9624e-06	708.63	302.59	2.2297e-06	7.1546e-06	268.27	116.32	127.8	58.416	5.8721e-06	60.593	0.0052618	0.0091358	0.0024819	856.27	8.6016e-05	9.9544e-05	743.61	317.97	8.6016e-05	9.8098e-05	285.22	123.89	135.82	62.061	8.9691e-05	64.356	268.671	36.143	-24.439	-71.336	129.912	81.816	-72.989	-65.749	56.666	52.492	-68.746	-64.195	-60.844	-56.187	204.541	-60.631	-8191	255	
38979.547	1	1	0	0	0.30609	0.25777	0.069086	0.071817	0.1486	0.16483	0.099598	0.28605	0.13919	0.053141	0.30126	0.15105	0.33406	0.22072	0.22987	0.18534	-2.1646	-2.2708	-2.9271	-2.4437	-2.8292	-2.9458	-2.1396	-2.9792	-2.6729	-2.2583	-3.2625	-2.525	-2.6188	-3.1083	-2.0854	-3.0375	149.463	155.888	-82.511	250.113	150.608	153.313	91.245	240.861	176.352	108.486	256.826	272.561	273.338	225.604	-2.502	84.020	0.00025536	0.00040512	0.00016447	814.65	4.3745e-06	9.8284e-06	707.61	302.01	4.5952e-06	4.7396e-06	267.25	117.06	127.9	58.702	5.5057e-06	61.354	0.0050318	0.0087139	0.0024086	853.46	8.3395e-05	9.6696e-05	742.68	317.13	8.4382e-05	9.632e-05	286.25	124.68	136.08	62.25	8.9651e-05	65.019	-74.623	-80.562	6.881	-71.465	90.524	36.496	-73.068	-65.651	53.490	4.404	-68.677	-64.264	-60.609	-56.400	62.286	-60.784	-8191	255	
38979.645	1	1	0	0	0.20953	0.060445	0.19737	0.41595	0.18136	0.02829	0.19346	0.057416	0.21063	0.13988	0.18614	0.12864	0.28411	0.16525	0.1131	0.23455	-2.3042	-2.0438	-2.8229	-2.4562	-2.5979	-3.0563	-2.125	-2.8458	-2.7021	-2.2229	-3.15	-2.3667	-2.6688	-3.15	-2.2438	-2.9083	113.762	260.990	40.088	212.237	34.248	79.329	191.935	144.503	-71.507	147.131	144.262	173.487	-72.367	-76.713	14.262	-73.165	0.00029582	0.00025271	0.0001298	819.75	6.3021e-06	3.8024e-06	711.42	303.65	6.7961e-06	2.4292e-06	271.36	118.34	129.46	59.384	8.9089e-06	62.417	0.0049321	0.0084252	0.0023145	855.06	8.1307e-05	9.5164e-05	746.69	318.96	8.1533e-05	9.2456e-05	289.76	126.01	137.18	63.048	8.5358e-05	66.101	-71.696	-22.732	37.286	-71.560	13.832	29.081	-73.131	-65.545	58.962	113.317	-68.532	-64.136	-60.803	-56.293	158.627	-60.602	-8191	255	
38979.738	1	1	0	0	0.11793	0.13108	0.20487	0.20903	0.1849	0.071593	0.2049	0.11427	0.20136	0.15296	0.17484	0.042423	0.33458	0.28293	0.24083	0.23068	-2.3125	-2.1562	-2.8292	-2.6083	-2.5125	-2.8729	-2.3771	-2.8396	-2.7896	-2.0625	-3.225	-2.4083	-2.5042	-3.0229	-2.2125	-2.9229	-70.795	225.641	232.622	194.377	130.763	145.912	11.360	-12.876	48.339	36.006	-28.363	44.282	41.602	195.956	34.646	226.733	0.00029436	0.00060617	8.3406e-05	824.22	1.0493e-05	1.0657e-05	719.82	306.73	8.8959e-06	3.3795e-06	273.82	119.14	130.18	60.172	2.5581e-06	62.704	0.0046935	0.0080526	0.0022724	858.91	7.8264e-05	9.0902e-05	751.16	321.62	7.9355e-05	9.0119e-05	290.99	126.69	138.12	63.641	8.4396e-05	66.242	-69.978	-50.909	-2.078	-71.350	63.459	50.927	-73.010	-65.565	94.787	100.311	-68.292	-64.190	-60.891	-56.297	133.616	-60.529	-8191	255	
38979.836	1	1	0	0	0.082823	0.30014	0.14933	0.097906	0.14787	0.26484	0.19291	0.018392	0.055099	0.038532	0.10377	0.025335	0.23108	0.23008	0.21571	0.29962	-2.5563	-2.0146	-3.05	-2.7958	-2.325	-3.0563	-2.5479	-2.5833	-2.775	-2.1104	-3.1896	-2.7104	-2.3042	-3.0125	-2.2521	-2.6604	142.276	271.990	22.457	219.770	257.666	173.376	179.508	-18.026	188.025	75.157	-61.428	254.735	235.507	-78.000	-13.837	-82.660	0.00030559	0.00035713	8.9791e-05	824.83	1.3479e-05	2.8115e-06	719.2	306.36	5.0576e-06	9.9729e-06	275	120.35	130.51	59.928	1.1833e-06	62.547	0.0046776	0.0080478	0.0021946	859.63	7.6822e-05	8.9348e-05	750.12	321.46	7.6619e-05	8.7834e-05	291.35	127.15	138.3	63.321	8.0398e-05	65.972	-66.748	-13.972	43.865	-71.206	87.258	195.573	-72.938	-65.523	91.605	91.893	-68.287	-64.262	-60.882	-56.148	11.346	-60.634	-8191	255	
38979.953	1	1	0	0	0.13333	0.15567	0.23975	0.13938	0.15795	0.19414	0.018907	0.19745	0.26947	0.23249	0.026119	0.18125	0.11035	0.27851	0.22505	0.11539	-2.6583	-2.1583	-2.8542	-2.5771	-2.2167	-2.9083	-2.4396	-2.6104	-2.9938	-2.1458	-2.8854	-2.7667	-2.3958	-3.0521	-2.225	-2.6271	199.398	233.204	112.052	239.117	81.904	20.055	127.616	60.478	72.309	-17.939	263.099	181.349	-45.574	164.006	119.800	148.263	0.00027684	0.00054564	0.00025834	822.94	7.9115e-06	2.972e-06	717.62	305.53	4.0486e-06	4.6185e-06	273.62	119.75	131.11	60.07	6.6792e-06	62.944	0.004477	0.0076763	0.0021288	857.47	7.3636e-05	8.547e-05	749.62	320.99	7.302e-05	8.5315e-05	291.21	127.4	138.33	63.418	7.7959e-05	66.341	-78.334	50.336	69.219	-71.516	36.339	50.194	-72.909	-65.459	103.237	66.721	-68.264	-64.009	-61.109	-56.283	89.961	-60.380	-8191	255	
38980.051	1	1	0	0	0.1755	0.047817	0.24617	0.16601	0.25541	0.013375	0.1016	0.25747	0.19201	0.11707	0.095198	0.2624	0.19042	0.31365	0.27513	0.22228	-2.7833	-2.05	-2.7917	-2.9125	-2.2812	-3.0292	-2.3229	-2.2687	-3.0271	-2.3208	-2.8396	-3.0229	-2.1208	-3.0458	-2.4979	-2.4562	185.021	41.174	11.605	14.385	142.058	15.322	238.250	11.115	243.101	23.072	262.838	263.300	-23.291	243.955	204.583	203.955	0.00027649	0.00051267	0.0001459	823.92	9.528e-06	6.8759e-06	722.2	309.06	2.151e-06	7.0493e-06	275.43	120.92	131.16	60.142	2.5706e-06	63.178	0.0043335	0.0073197	0.0020301	857.51	7.0498e-05	8.2604e-05	752.47	322.71	7.2944e-05	8.3897e-05	293.09	128.25	138.96	63.713	7.9928e-05	66.709	-69.995	3.884	61.597	-71.176	104.680	60.794	-72.815	-65.871	173.433	62.799	-68.332	-63.904	-61.009	-56.141	96.959	-60.625	-8191	255	
38980.121	1	1	0	0	0.30876	0.15422	0.21173	0.070099	0.20078	0.19408	0.25384	0.16638	0.079919	0.14291	0.17707	0.15766	0.13577	0.16907	0.13522	0.24187	-2.5646	-2.1521	-2.5667	-2.9375	-2.2229	-2.7771	-2.5229	-2.2458	-3.0229	-2.3646	-2.6417	-2.8438	-2.3	-3.0875	-2.6542	-2.3875	45.312	252.910	40.885	156.807	146.300	-3.393	215.621	250.183	-54.097	-62.806	269.196	122.094	43.434	121.202	91.750	192.604	0.00032981	0.0003614	0.00014004	827.96	8.4641e-06	3.7897e-06	722.11	307.65	1.9938e-06	5.03e-06	275.13	120.49	131.33	59.719	6.82e-06	62.388	0.0044828	0.0077009	0.0021398	862.54	7.3661e-05	8.5602e-05	754.25	322.85	7.3888e-05	8.5426e-05	292.21	127.69	138.85	63.363	8.0485e-05	65.767	-75.411	-21.040	0.577	-71.111	82.256	82.634	-73.168	-65.502	-60.456	13.647	-68.378	-64.149	-60.920	-56.112	129.132	-60.394	-8191	255	
38980.219	1	1	0	0	0.15534	0.18687	0.12717	0.47327	0.17862	0.018843	0.14034	0.12069	0.27334	0.18075	0.093458	0.074139	0.2295	0.37095	0.0094026	0.2878	-2.6417	-2.1646	-2.575	-3.0687	-1.9937	-2.7562	-2.9458	-2.2021	-3.0167	-2.2687	-2.4167	-3.0062	-2.1708	-2.6771	-2.725	-2.1917	50.870	-5.710	133.389	189.036	248.607	110.906	236.840	-57.183	106.608	268.518	-25.673	-41.860	42.153	247.699	-66.799	149.581	0.00037757	0.00035625	0.0002756	825.35	1.4059e-05	3.5597e-06	716.79	305.94	4.1371e-06	8.2943e-07	273.85	119.52	129.94	59.666	4.536e-06	61.915	0.0045267	0.0079225	0.0021779	859.84	7.6514e-05	8.8779e-05	749.13	320.79	7.7195e-05	8.8989e-05	290.14	126.37	137.66	63.011	7.8988e-05	65.635	-79.707	11.449	50.349	-71.246	80.491	78.805	-73.003	-65.502	133.632	196.642	-68.333	-64.122	-60.919	-56.278	51.420	-60.550	-8191	255	
38980.340	1	1	0	0	0.19109	0.16631	0.055515	0.37905	0.014823	0.1047	0.066675	0.19124	0.10477	0.17584	0.33239	0.10762	0.18433	0.10611	0.050816	0.18988	-2.5917	-2.4542	-2.1292	-3.0354	-2.1458	-2.5563	-3.0187	-2.2812	-2.9562	-2.5729	-2.4083	-3.0667	-2.3125	-2.5146	-2.8667	-2.3167	-25.034	74.367	227.853	215.063	81.036	-7.819	74.753	261.245	198.256	-16.473	141.462	-41.070	217.385	246.140	21.519	235.527	0.00024514	0.00089234	8.2832e-05	822.01	5.0264e-06	2.0182e-06	718.29	306.34	2.2985e-06	5.4582e-06	272.3	119.16	129.11	59.438	7.1799e-06	62.478	0.0044123	0.0075715	0.0020719	855.2	7.2411e-05	8.4081e-05	747.75	320.34	7.2782e-05	8.3053e-05	288.99	126.47	137.15	62.934	7.8467e-05	65.911	270.201	36.819	27.306	-71.199	55.189	19.894	-73.010	-65.846	230.147	32.378	-68.369	-64.092	-61.112	-56.037	47.070	-60.466	-8191	255	
38980.434	1	1	0	0	0.09265	0.1612	0.24306	0.2367	0.12063	0.20557	0.095075	0.22221	0.18246	0.21657	0.086558	0.14049	0.17552	0.14071	0.2803	0.28863	-2.45	-2.4313	-2.2667	-3.2062	-2.0417	-2.7	-3.1396	-2.2021	-2.9208	-2.6729	-2.275	-3.1542	-2.3833	-2.5729	-2.9042	-2.3167	80.079	255.115	-48.948	241.649	252.510	255.343	229.262	216.705	82.929	120.172	233.970	232.508	193.435	-50.994	61.300	241.695	0.00037507	0.00043722	9.8854e-05	823.8	6.3762e-06	5.0162e-06	719.38	306.91	5.4235e-06	4.186e-06	273.04	119.92	130.24	59.628	9.6874e-06	62.362	0.0044816	0.0076729	0.0021493	857.49	7.492e-05	8.7329e-05	752.22	321.07	7.6315e-05	8.8064e-05	290.84	127.04	137.82	63.075	8.3174e-05	65.839	-80.146	48.997	11.362	-71.181	30.010	115.024	-72.966	-65.304	51.949	150.424	-68.406	-63.895	-60.754	-56.306	70.260	-60.546	-8191	255	
38980.531	1	1	0	0	0.35281	0.053202	0.23356	0.15588	0.25214	0.15781	0.022804	0.3101	0.18705	0.15161	0.22069	0.17306	0.34986	0.21706	0.14546	0.34157	-2.3896	-2.7083	-2.0229	-3.2979	-2.4354	-2.5917	-3.1146	-2.2521	-2.7687	-2.7125	-2.2375	-3.0042	-2.4604	-2.6396	-3.0062	-2.3354	-0.332	87.417	266.639	169.814	-2.636	243.792	147.870	228.798	135.944	107.190	274.909	96.432	224.805	-14.193	155.109	183.921	0.00033979	0.00066726	0.00019904	823.39	5.1604e-06	1.0201e-05	717.08	306.35	5.8188e-06	1.9937e-06	271.91	119.74	129.8	59.63	6.077e-06	62.171	0.0047164	0.0081736	0.0022637	860.17	7.9932e-05	9.2471e-05	750.73	321.77	8.1378e-05	9.2319e-05	289.94	126.96	138.02	63.346	8.6005e-05	65.893	-77.177	30.529	-5.971	-71.069	-13.710	67.690	-72.784	-65.424	55.852	105.165	-68.454	-63.783	-60.960	-55.965	73.021	-60.367	-8191	255	
38980.652	1	1	0	0	0.057779	0.060728	0.15812	0.081038	0.20235	0.041771	0.062765	0.26853	0.30906	0.03752	0.1369	0.25452	0.23802	0.10024	0.11324	0.24235	-2.2271	-2.8479	-2.1146	-3.0292	-2.5042	-2.3583	-3.25	-2.4667	-2.5396	-2.9375	-2.225	-2.9104	-2.6958	-2.3854	-3.1521	-2.2687	89.191	124.042	-21.563	237.056	191.422	195.690	269.070	227.360	-76.832	52.313	-59.451	204.220	248.295	-59.103	58.183	198.909	0.00021767	0.00055232	5.9167e-05	818.89	4.1723e-06	3.3363e-06	715.04	303.69	1.1329e-05	1.0706e-05	272.04	119.5	129.89	59.723	4.797e-06	62.454	0.0047849	0.0083118	0.0022892	855.59	7.959e-05	9.3708e-05	747.86	320	8.0566e-05	9.1995e-05	289.73	127.2	137.85	63.129	8.4777e-05	65.875	-74.851	36.717	252.253	-71.291	22.786	124.789	-72.693	-65.496	85.317	27.105	-68.246	-63.924	-60.704	-56.202	170.259	-60.408	-8191	255	
38980.723	1	1	0	0	0.16919	0.23426	0.17137	0.19666	0.13232	0.26846	0.33908	0.21222	0.24475	0.1475	0.18637	0.22296	0.21176	0.42	0.19223	0.17987	-2.1542	-3	-1.9833	-2.9771	-2.6562	-2.0729	-3.0917	-2.4458	-2.3688	-2.9625	-2.1375	-2.8208	-2.9313	-2.2812	-2.9729	-2.6021	242.769	-45.829	275.653	143.451	227.102	212.876	192.981	224.999	-22.833	123.221	155.051	-50.273	210.826	229.093	-51.236	255.209	0.00024173	0.00045028	8.5538e-05	819.59	8.6406e-06	6.8311e-06	715.93	304.59	2.5285e-06	6.1114e-06	273.67	119.86	130.76	59.958	8.6744e-06	62.648	0.0046694	0.0079958	0.0022153	854.48	7.6439e-05	8.9566e-05	746.66	319.93	7.7378e-05	8.8738e-05	290.88	127.48	138.4	63.384	8.3311e-05	66.294	265.462	41.700	113.069	-71.035	93.327	88.999	-72.903	-65.718	-79.698	81.818	-68.513	-63.713	-60.683	-56.218	85.728	-60.458	-8191	255	
38980.820	1	1	0	0	0.22794	0.01515	0.14102	0.27174	0.085945	0.29468	0.30145	0.17022	0.12623	0.010477	0.13757	0.17024	0.09701	0.15439	0.046955	0.1065	-2.0208	-3.125	-2.1021	-2.9625	-2.7667	-2.15	-3.0563	-2.4208	-2.2313	-2.9417	-2.1583	-2.775	-2.8833	-2.3271	-2.8708	-2.3958	-17.328	274.466	102.858	241.507	163.855	0.725	239.995	228.422	55.343	200.085	63.122	238.163	185.338	253.523	244.559	177.066	0.00029425	0.0006061	0.00024097	823.45	6.8169e-06	9.6951e-06	719.7	306.18	8.4996e-06	2.8248e-06	275.63	120.46	130.71	60.401	3.3821e-06	63.038	0.0046809	0.0081131	0.0022852	857.19	7.8577e-05	9.298e-05	752.82	322.06	7.9844e-05	9.071e-05	292.84	128.56	138.94	63.819	8.5927e-05	66.718	-81.618	-34.934	51.561	-71.171	126.999	41.731	-72.805	-65.637	68.629	25.037	-68.446	-63.758	-60.980	-56.201	-81.482	-60.664	-8191	255	
38980.941	1	1	0	0	0.1133	0.065744	0.2089	0.16463	0.31228	0.27213	0.14104	0.18487	0.15956	0.11897	0.30865	0.24082	0.15676	0.12807	0.15934	0.027296	-1.9625	-2.9792	-2.0458	-2.7042	-2.8708	-2.1729	-3.0312	-2.5875	-2.2271	-3.1312	-2.2	-2.6125	-2.9479	-2.4	-2.875	-2.7458	55.260	128.635	58.305	229.041	-62.760	-11.091	-62.380	76.639	-51.275	246.339	38.747	-83.250	258.101	222.852	51.658	190.801	0.00030844	0.00063969	6.6517e-05	821.91	1.1191e-05	5.7665e-06	724.2	306.47	3.3225e-06	3.2989e-06	275	120.34	131.21	60.17	3.8718e-06	62.789	0.0048729	0.0083778	0.0023294	858.93	8.0642e-05	9.6305e-05	753.34	322.14	8.2727e-05	9.4001e-05	292.47	128.08	139.12	63.913	8.9064e-05	66.467	274.290	57.212	26.753	-71.109	91.597	43.696	-72.620	-65.558	192.822	85.332	-68.275	-63.925	-60.883	-56.138	109.910	-60.615	-8191	255	
38981.035	1	1	0	0	0.17291	0.081883	0.19568	0.16806	0.097825	0.23835	0.1623	0.21562	0.12242	0.088078	0.18766	0.28223	0.24665	0.12753	0.17954	0.24246	-1.8146	-2.9688	-2.4896	-2.4188	-2.9542	-2.1667	-2.9167	-2.8979	-1.9813	-3.0792	-2.4083	-2.4708	-3.0667	-2.2708	-2.7771	-2.8	178.867	26.944	-46.683	227.053	200.482	173.181	-72.825	237.428	228.350	87.880	121.832	-74.607	264.424	-59.899	0.372	-36.171	0.00028639	0.00046433	0.00014404	820.12	1.0062e-05	5.5136e-06	715.21	304.62	3.2545e-06	4.842e-06	270.23	119.29	129.53	59.661	5.066e-06	62.226	0.005029	0.0085756	0.0023979	857.6	8.3191e-05	9.7957e-05	748.54	320.61	8.4602e-05	9.7672e-05	290.45	127.17	137.75	63.273	9.4638e-05	65.938	274.714	-31.428	181.874	-71.284	150.948	76.362	-72.837	-65.371	165.111	20.064	-68.397	-63.673	-60.832	-56.064	-74.683	-60.761	-8191	255	
38981.129	1	1	0	0	0.13375	0.21829	0.11741	0.084653	0.021399	0.23451	0.3801	0.20789	0.091603	0.28417	0.05458	0.16638	0.29216	0.1212	0.12435	0.013049	-1.6292	-3.0729	-2.3875	-2.4813	-2.9271	-2.0167	-2.8771	-2.8521	-2.1458	-3.0896	-2.5271	-2.5542	-3.0125	-2.3583	-2.7021	-2.9896	-72.720	225.771	236.994	106.549	169.726	164.691	187.837	239.750	274.976	-49.596	190.612	172.666	228.209	-36.890	208.209	14.567	0.00018858	0.00027009	0.00023403	818.35	7.7337e-06	5.1853e-06	714.49	303.43	3.8475e-06	3.4837e-06	271.1	117.64	128.21	58.645	5.7255e-06	60.803	0.0053237	0.0093094	0.0025846	856.57	8.96e-05	0.0001052	749.93	320.09	9.1071e-05	0.00010492	289.74	125.85	136.91	62.253	0.00010102	64.772	271.915	-12.283	22.104	-71.236	129.230	20.125	-72.765	-65.625	253.437	47.737	-68.465	-64.023	-60.914	-56.254	-21.903	-60.513	-8191	255	
38981.250	1	1	0	0	0.018612	0.19987	0.10192	0.23066	0.13076	0.21432	0.090478	0.017324	0.17205	0.19396	0.31686	0.20487	0.26974	0.057824	0.052442	0.09427	-1.6792	-2.8271	-2.5563	-2.4729	-2.8896	-2.2687	-2.6833	-3.0771	-2.0917	-2.9417	-2.6354	-2.125	-3.0229	-2.5521	-2.4188	-3.0333	215.675	233.878	180.155	255.566	254.113	157.387	214.675	221.088	112.340	131.579	-81.821	80.365	-9.891	229.576	61.943	141.513	0.00025169	0.00098201	0.00020936	822.37	1.5524e-06	4.7697e-06	712.68	302.67	4.9132e-06	1.7109e-06	268.92	116.05	127.44	57.774	6.6534e-06	59.466	0.0056877	0.0099464	0.0027654	862.67	9.7846e-05	0.00011401	752.03	320.7	9.9249e-05	0.00011417	290.03	124.96	136.35	61.633	0.00010824	63.566	263.743	27.919	5.534	-71.161	225.077	36.246	-72.584	-65.520	56.789	20.557	-68.594	-63.661	-60.734	-56.061	128.995	-60.383	-8191	255	
38981.348	1	1	0	0	0.13434	0.037494	0.35911	0.33682	0.059717	0.20396	0.47309	0.25736	0.27552	0.089493	0.063782	0.098981	0.02344	0.15478	0.24662	0.22474	-1.7271	-2.9208	-2.6979	-2.3479	-3.0958	-2.3896	-2.475	-3.1875	-2.1833	-2.8125	-3.0146	-2.3583	-3.1208	-2.6604	-2.4729	-3.0979	-54.639	113.087	43.506	182.752	268.939	-6.955	261.674	229.949	198.433	273.944	2.391	145.748	208.952	259.919	24.548	251.224	0.00026819	0.0006905	0.00024477	820.8	8.7295e-06	2.6142e-06	707.39	302.01	1.2398e-06	4.0071e-06	263.44	113.6	125.62	56.606	6.2943e-06	58.165	0.0061585	0.010749	0.0030006	865.25	0.00010497	0.00012321	749.35	320.38	0.00010638	0.00012248	286.5	122.99	135.15	60.68	0.00011617	62.616	-78.011	37.828	-5.886	-71.262	36.553	27.611	-72.887	-65.612	238.087	61.415	-68.286	-63.991	-60.782	-56.086	89.401	-60.370	-8191	255	
38981.418	1	1	0	0	0.14035	0.11203	0.15097	0.07012	0.1144	0.14186	0.15387	0.14437	0.15536	0.12233	0.11181	0.31995	0.10396	0.1576	0.11417	0.088001	-1.8604	-2.6542	-2.9208	-2.2875	-3.0146	-2.4479	-2.2833	-3.1792	-2.3167	-2.6771	-2.9021	-2.2458	-2.9229	-2.8229	-2.3125	-3.1104	-50.411	169.735	-12.865	221.838	-48.330	156.479	-54.250	-27.515	229.465	3.056	259.716	246.978	-18.999	-61.031	82.227	62.322	0.00023738	0.00062921	0.00022389	816.2	2.1829e-06	1.183e-05	702.26	299.37	5.2533e-07	7.8887e-06	261.57	112.47	124.52	55.799	8.9566e-06	57.56	0.0065569	0.011343	0.0031641	861.7	0.00010902	0.00012832	743.88	317.49	0.00011078	0.00012737	284.48	121.82	133.95	59.869	0.00012017	61.874	-76.791	27.493	231.488	-71.097	82.100	71.900	-72.845	-65.455	-79.579	85.583	-68.433	-64.096	-60.773	-56.150	120.619	-60.287	-8191	255	
38981.516	1	1	0	0	0.2104	0.092087	0.10157	0.17479	0.022568	0.22523	0.15437	0.14353	0.0099688	0.17048	0.24322	0.3617	0.17499	0.20175	0.15043	0.11373	-1.8792	-2.475	-2.8021	-2.2458	-2.675	-2.6021	-2.3792	-3.2396	-2.3417	-2.4562	-3.0917	-2.2083	-2.8563	-2.6542	-2.1479	-2.9917	0.742	167.718	41.946	262.611	-22.628	-48.332	-62.068	-63.285	-63.756	113.438	-71.014	153.917	246.819	-71.494	-41.424	261.019	0.00010823	0.00076248	0.0002388	814.17	5.0278e-06	5.4919e-06	697.33	297.31	2.4061e-06	1.9738e-06	259.74	111.99	123.89	55.889	7.3669e-06	57.622	0.006632	0.011682	0.003238	859.36	0.00011319	0.00013114	739.47	316.01	0.00011519	0.0001336	283.62	121.72	133.42	59.918	0.00012197	62.154	-45.778	32.690	4.402	-71.234	164.167	65.721	-72.777	-65.525	72.594	238.914	-68.511	-63.832	-60.728	-56.119	71.979	-60.468	-8191	255	
38981.637	1	1	0	0	0.24737	0.12831	0.16399	0.18985	0.19914	0.20436	0.034873	0.088886	0.27586	0.1008	0.17456	0.26005	0.23191	0.030532	0.25106	0.10377	-1.875	-2.1417	-2.9042	-2.1562	-2.7354	-2.6333	-2.1896	-3.0812	-2.5354	-2.2792	-3.0896	-2.2479	-2.7271	-2.6896	-2.0229	-2.9979	91.901	-70.767	144.638	166.617	115.316	15.868	77.719	63.197	-34.015	179.347	218.158	84.756	253.350	96.900	271.621	-54.830	0.00026765	0.0011156	0.00032777	811.67	7.7223e-06	7.7029e-06	697.7	297.62	5.5882e-06	6.5932e-06	260.69	112.83	124.53	56.324	8.1246e-06	58.188	0.0066915	0.011524	0.0031722	855.57	0.00010985	0.00012674	739.01	315.23	0.00010621	0.00012057	283.03	121.57	133.66	60.222	0.00011059	62.491	273.578	-10.605	8.262	-71.152	80.055	72.834	-73.132	-65.668	66.565	109.796	-68.296	-63.724	-60.841	-56.206	80.220	-60.481	-8191	255	
38981.730	1	1	0	0	0.12701	0.19734	0.065237	0.26738	0.060277	0.19867	0.39145	0.10676	0.087088	0.13937	0.32519	0.17666	0.15096	0.12538	0.38243	0.067006	-2.0458	-2.0417	-2.9146	-2.3021	-2.625	-3.0417	-2.1188	-3.0771	-2.4208	-2.2354	-2.8729	-2.2542	-2.5875	-3.0521	-2.1667	-2.9875	96.264	198.167	215.221	189.464	195.334	264.189	257.848	127.063	253.820	48.364	116.637	-65.902	275.344	221.996	10.209	189.767	0.0002501	0.00057476	1.6707e-05	806.81	4.3031e-06	4.9395e-06	694.07	295.63	5.8466e-06	6.8834e-06	262.01	113.03	124.08	56.487	6.9941e-06	58.454	0.0061227	0.010746	0.0029774	850.01	0.0001028	0.00011982	734.84	313.84	0.00010478	0.00011871	282.31	121.74	133.38	60.319	0.00010781	62.549	-63.056	27.847	231.636	-71.320	219.600	26.404	-72.739	-65.341	129.044	79.513	-68.648	-64.005	-60.973	-56.171	132.681	-60.356	-8191	255	
38981.828	1	1	0	0	0.18079	0.082239	0.17507	0.24561	0.077081	0.16961	0.15656	0.1318	0.18538	0.11396	0.02972	0.2787	0.022847	0.27029	0.14846	0.34021	-2.2125	-2.175	-3.0438	-2.3833	-2.5	-2.6813	-2.1708	-3.1208	-2.5771	-2.2583	-3.2188	-2.3396	-2.3896	-2.975	-1.9062	-2.8979	201.299	-1.520	210.133	-44.101	33.708	-80.063	-56.649	-65.946	-68.344	37.564	31.233	264.476	123.147	-34.251	231.115	193.418	0.00019508	0.00055577	0.00021678	804	1.601e-06	4.9858e-06	695.61	296.6	4.3011e-06	4.8465e-06	260.64	113.3	124.97	57.039	1.1374e-06	59.346	0.0060126	0.010427	0.002878	847.19	9.9921e-05	0.00011498	733.56	313.05	9.8728e-05	0.00011335	282.08	122.11	133.96	60.649	0.00010067	63.123	274.268	-55.863	67.308	-71.417	-71.401	103.334	-72.589	-65.594	93.187	-34.657	-68.750	-64.097	-60.921	-56.374	247.908	-60.541	-8191	255	
38981.926	1	1	0	0	0.15702	0.095947	0.13323	0.29473	0.15189	0.27528	0.084661	0.11871	0.033691	0.075709	0.15258	0.24578	0.30729	0.17668	0.35201	0.18204	-2.4396	-2.0854	-2.9167	-2.6292	-2.5208	-2.9542	-2.3063	-2.8187	-2.6292	-2.0479	-2.9896	-2.5958	-2.2938	-3.0292	-2.275	-2.6667	51.823	205.167	261.433	237.337	248.285	-11.843	151.398	254.473	128.698	85.917	239.169	254.341	174.002	269.076	47.549	262.243	0.00028318	0.00051687	0.0002442	809.91	9.5722e-06	8.6134e-06	700.29	298.59	3.5304e-06	3.6054e-06	266.51	117.3	127.95	58.791	8.4034e-06	61.347	0.0054535	0.0093841	0.0025893	847.19	8.8805e-05	0.00010125	735.94	315.13	8.6727e-05	9.9656e-05	284.83	124.8	136.23	62.463	9.164e-05	65.128	264.598	-30.730	27.240	-71.464	60.651	62.804	-72.936	-65.443	56.324	54.090	-68.253	-64.071	-60.877	-56.276	75.844	-60.260	-8191	255	
38982.020	1	1	0	0	0.06347	0.065387	0.10869	0.23681	0.081173	0.04707	0.25102	0.077948	0.12111	0.25762	0.15553	0.059696	0.2058	0.19291	0.21772	0.26775	-2.3	-1.9167	-2.9604	-2.8063	-2.1417	-2.9292	-2.1604	-2.6312	-2.8688	-2.325	-3.0292	-2.6604	-2.3021	-3.0104	-2.2333	-2.6083	170.333	222.981	276.622	191.830	208.011	247.168	-67.302	233.900	148.136	254.629	-30.765	-24.094	-45.534	160.264	-2.600	150.182	0.00029817	0.00067589	0.00014471	810.75	5.8174e-06	2.2594e-06	707.65	302.86	3.911e-06	8.4003e-06	269.56	118.75	129.71	60.097	3.9809e-06	62.374	0.004989	0.0086819	0.0023705	849.16	8.1676e-05	9.4473e-05	739.92	318.96	8.2321e-05	9.4901e-05	288.03	126.86	138.39	63.759	9.05e-05	66.057	274.808	-8.724	32.076	-71.176	77.125	69.413	-72.744	-65.345	217.901	49.994	-68.448	-63.927	-60.779	-56.071	62.595	-60.539	-8191	255	
38982.117	1	1	0	0	0.25618	0.14702	0.14291	0.25312	0.19734	0.2373	0.16779	0.12784	0.062879	0.095469	0.17304	0.16902	0.23115	0.13071	0.2207	0.12982	-2.4708	-2.0979	-2.9	-2.85	-2.2375	-2.8708	-2.4	-2.575	-2.8917	-2.0229	-2.8771	-2.6625	-2.1542	-3.15	-2.3458	-2.5229	47.148	65.962	207.359	253.081	98.897	37.581	-79.888	271.865	196.382	141.006	239.836	232.896	173.116	180.959	6.818	-50.790	0.00036657	0.00057674	0.00011522	812.22	8.3299e-06	6.1807e-06	703.36	303.4	6.2809e-06	3.2636e-06	268.44	119.03	129.87	60.11	8.3393e-06	62.225	0.0050343	0.0087947	0.0024398	848.21	8.3203e-05	9.813e-05	737.33	319.03	8.2891e-05	9.4198e-05	286.71	126.85	138.32	63.613	8.7793e-05	65.822	-67.141	-34.525	28.269	-71.137	70.613	160.220	-72.837	-65.317	60.184	-75.405	-67.931	-64.034	-60.834	-56.160	188.512	-60.585	-8191	255	
38982.211	1	1	0	0	0.1737	0.15543	0.11337	0.22634	0.10709	0.13159	0.24588	0.11351	0.1457	0.26932	0.19981	0.34439	0.19792	0.027868	0.048026	0.07621	-2.5812	-2.0563	-2.5854	-2.9229	-1.8042	-2.9792	-2.4542	-2.2646	-2.9708	-2.1688	-2.7	-2.9417	-2.3125	-2.9292	-2.6479	-2.2729	5.103	95.902	125.719	232.151	-46.536	275.229	209.657	-22.262	95.115	230.689	218.552	154.832	267.093	275.027	49.735	197.139	0.00024672	0.00070191	0.00014367	810.35	2.0387e-06	1.0477e-05	704.69	303.39	2.8975e-06	7.7202e-06	269.97	120.2	130.41	60.444	4.0573e-06	62.759	0.0048394	0.0082793	0.0023202	845.17	7.9312e-05	9.3064e-05	735.98	317.97	7.9788e-05	9.0632e-05	287.71	127.62	138.53	63.824	8.3269e-05	66.221	-72.200	0.586	18.304	-71.290	87.227	88.545	-72.667	-65.436	111.257	81.064	-68.331	-63.789	-60.781	-56.390	119.417	-60.451	-8191	255	
38982.332	1	1	0	0	0.15371	0.057132	0.19494	0.16423	0.085986	0.026259	0.17924	0.071093	0.16709	0.13462	0.27272	0.20139	0.27402	0.35989	0.18973	0.33215	-2.6646	-2.1771	-2.3979	-3.0333	-2.1792	-2.9313	-2.6937	-2.2417	-2.9646	-2.2854	-2.525	-3.1	-2.2313	-2.7979	-2.5083	-2.1083	11.731	219.560	186.419	190.856	20.373	180.184	173.850	-30.176	-65.026	203.760	189.497	198.396	235.371	254.060	131.070	246.000	0.00032581	0.00056954	0.0002039	809.28	3.1468e-06	7.0894e-06	708.42	304.03	3.2588e-06	7.2013e-06	271.67	121.11	131.59	60.989	1.5145e-05	63.054	0.0046681	0.0080824	0.002275	845.78	7.8538e-05	9.2335e-05	740.23	319.57	7.8776e-05	9.1387e-05	289.33	128.77	139.46	64.399	8.4908e-05	66.802	-72.719	23.982	24.007	-70.902	242.430	99.820	-72.925	-65.368	120.695	76.932	-68.368	-64.091	-60.778	-56.296	70.165	-60.737	-8191	255	
38982.426	1	1	0	0	0.098604	0.20167	0.040177	0.099379	0.40733	0.052232	0.39363	0.085648	0.064411	0.18438	0.053522	0.137	0.063841	0.32009	0.20879	0.20245	-2.5646	-2.5042	-2.4646	-3.1312	-2.1417	-2.8333	-2.7812	-2.2958	-3.0354	-2.4208	-2.3375	-3.0438	-2.2687	-2.925	-2.9583	-2.2875	-10.831	39.908	64.053	54.188	244.615	273.807	253.774	85.867	151.110	217.842	259.486	-50.624	195.592	203.496	92.825	174.392	0.0002681	0.00055641	0.0001321	816.46	9.5735e-06	6.0024e-06	709.71	306.06	2.0163e-06	6.0459e-06	272.91	120.23	131.46	60.536	7.062e-07	62.109	0.0048187	0.0083482	0.0023116	852.6	8.0492e-05	9.4679e-05	744.48	321.18	8.2007e-05	9.3872e-05	290.14	128.27	139.5	64.171	8.9139e-05	65.843	-71.968	-59.161	-55.742	-71.282	133.879	54.083	-72.802	-65.435	57.912	68.473	-68.276	-63.990	-61.001	-55.991	-57.413	-60.381	-8191	255	
38982.523	1	1	0	0	0.076239	0.14712	0.18067	0.097748	0.4983	0.14647	0.14145	0.12878	0.01908	0.3488	0.060942	0.16905	0.21043	0.19301	0.095184	0.14435	-2.7542	-2.5396	-2.3958	-2.8729	-2.2042	-2.775	-3.0354	-2.2208	-2.9042	-2.5458	-2.3792	-3.0458	-2.3979	-2.6396	-2.9292	-2.2167	-79.733	118.066	75.740	108.746	132.515	-58.766	-1.642	146.866	82.307	276.140	-49.878	-69.708	274.181	178.399	16.321	-21.323	0.00031619	0.00070135	0.0002046	814.7	3.7272e-06	6.0357e-06	710.05	304.79	6.3177e-06	5.4856e-06	269.84	119.28	130.01	59.655	2.6492e-06	61.151	0.0050839	0.0089832	0.0024899	854.02	8.8146e-05	0.00010252	741.79	320.71	8.7822e-05	0.00010057	288.11	127.14	138.53	63.243	9.2337e-05	65.152	-79.055	-5.462	10.895	-71.120	25.579	134.994	-72.836	-65.517	94.554	46.077	-68.486	-63.923	-61.033	-56.262	193.175	-60.440	-8191	255	
38982.621	1	1	0	0	0.14523	0.1579	0.18851	0.2673	0.15177	0.42515	0.20224	0.14814	0.17475	0.26293	0.18719	0.076878	0.31045	0.15094	0.20545	0.12298	-2.3583	-2.6312	-2.0396	-3.0438	-2.2438	-2.475	-3.2271	-2.3937	-2.8833	-2.7646	-2.0333	-3.1375	-2.5271	-2.6542	-3.0333	-2.3771	251.890	10.378	114.833	209.246	38.325	202.656	59.838	160.179	-14.809	235.572	-40.608	39.384	197.195	-80.478	124.164	175.538	0.00030372	0.00023932	0.00018794	810.78	9.3416e-06	5.3295e-06	701.23	303.42	2.7954e-06	8.9894e-06	268.65	120.15	130.7	60.102	5.0715e-06	62.246	0.0051927	0.0089793	0.0025217	851.2	8.6551e-05	0.00010164	737.51	319.54	8.585e-05	9.8359e-05	288.32	127.75	138.96	63.687	8.8986e-05	65.776	268.619	-19.528	5.478	-71.011	108.850	61.414	-72.713	-65.414	41.045	93.038	-68.255	-64.136	-61.009	-56.073	73.027	-60.447	-8191	255	
38982.715	1	1	0	0	0.027364	0.17135	0.16091	0.076787	0.19904	0.021972	0.19781	0.33941	0.17487	0.1197	0.13177	0.20979	0.065895	0.069664	0.074205	0.11426	-2.4938	-2.6188	-2.0125	-3.1479	-2.3563	-2.3688	-3.1583	-2.1854	-2.6604	-2.7396	-2.3187	-3.1854	-2.325	-2.4083	-3	-2.1854	7.498	134.217	-45.331	-26.461	-50.719	242.713	177.530	186.337	8.026	-80.278	247.158	-3.552	228.627	-83.292	101.838	194.600	0.00023854	0.00080582	4.9893e-05	815.87	5.8884e-06	9.483e-06	710.95	306.23	6.9226e-06	9.1065e-06	273.03	121.69	132.19	60.904	5.0069e-06	62.982	0.0050103	0.008574	0.0024081	851.81	8.262e-05	9.6241e-05	743.07	321.56	8.1644e-05	9.305e-05	291.59	129.4	140.51	64.547	8.7137e-05	66.613	-62.607	-45.428	39.903	-71.219	149.000	81.445	-72.704	-65.476	101.013	62.541	-68.233	-63.952	-60.921	-56.079	34.779	-60.607	-8191	255	
38982.809	1	1	0	0	0.027097	0.061034	0.21963	0.14612	0.27054	0.10414	0.17825	0.11268	0.018226	0.29376	0.22567	0.29717	0.3946	0.16314	0.21808	0.082696	-2.1604	-3.0042	-2.1188	-3.0292	-2.3438	-2.2146	-3.2521	-2.4083	-2.5271	-2.9125	-2.2958	-2.9167	-2.8146	-2.3563	-2.8729	-2.4708	235.556	187.176	172.900	-49.495	120.014	235.555	165.546	184.256	-51.699	-20.407	247.803	225.237	262.948	247.680	223.335	196.121	0.00026315	0.00061422	0.00014346	817.99	8.6926e-06	4.329e-06	712.39	308.32	9.4629e-06	8.5689e-06	273.21	121.87	132.99	61.091	5.8417e-06	62.991	0.0049376	0.0084513	0.0023344	855.29	8.0443e-05	9.4444e-05	744.25	323.64	8.0322e-05	9.206e-05	291.27	129.79	141.09	64.855	8.5867e-05	66.48	274.013	-16.616	9.870	-71.286	58.618	-10.448	-72.449	-65.459	106.381	85.739	-68.287	-63.665	-61.040	-56.340	30.138	-60.506	-8191	255	
38982.930	1	1	0	0	0.32001	0.1718	0.34894	0.28724	0.075752	0.3538	0.077671	0.22678	0.2578	0.18729	0.15512	0.13025	0.12306	0.073657	0.10688	0.095577	-2.2458	-2.8521	-2.0896	-3.0542	-2.5292	-2.225	-2.9875	-2.6813	-2.3229	-2.8375	-2.0938	-2.7458	-2.8646	-2.2917	-2.9333	-2.525	107.628	134.670	-8.076	216.214	58.298	42.824	265.983	115.846	176.895	91.894	35.254	256.713	43.310	260.961	164.362	99.218	0.00028722	0.00064621	0.00015672	816.38	5.3556e-06	5.9433e-06	711.75	307.02	7.3998e-06	6.7865e-06	274.07	121.53	132.36	60.78	6.3561e-06	62.902	0.0047977	0.0081681	0.0022663	852.53	7.6863e-05	8.9697e-05	742.31	322.23	7.6619e-05	8.7503e-05	290.47	128.99	140.33	64.467	7.9891e-05	66.296	262.838	-82.638	-32.023	-70.913	79.933	107.432	-72.671	-65.573	65.833	81.432	-68.272	-63.758	-61.119	-56.273	-8.016	-60.498	-8191	255	
38983.027	1	1	0	0	0.18846	0.19959	0.094831	0.15437	0.12219	0.3582	0.3412	0.26813	0.13292	0.18367	0.17278	0.29664	0.064916	0.32622	0.22688	0.10556	-1.9292	-2.9	-2.1437	-2.7167	-2.8688	-2.2104	-3.1646	-2.6896	-2.4125	-3.1688	-2.3375	-2.8312	-3.0917	-2.2687	-2.9104	-2.4396	48.533	255.536	199.685	-65.565	-34.228	-26.493	253.592	244.140	-34.512	177.881	2.640	-27.737	-50.195	-58.456	237.580	176.757	0.00028194	0.0011311	8.6833e-05	816.9	5.7142e-06	6.6908e-06	711.84	306.79	1.7672e-06	3.5729e-06	273.86	123.15	133.63	61.376	2.1669e-06	63.428	0.0044476	0.0076421	0.0021386	850.39	7.2967e-05	8.5064e-05	741.02	322.08	7.3892e-05	8.4054e-05	290.98	130.36	141.07	64.891	7.8854e-05	66.89	272.315	-55.179	-74.021	-71.300	42.738	58.904	-72.576	-65.448	148.587	66.567	-68.269	-63.692	-60.882	-56.144	52.879	-60.595	-8191	255	
38983.121	1	1	0	0	0.18198	0.12708	0.19006	0.20758	0.11876	0.055796	0.15557	0.31494	0.05225	0.076347	0.081179	0.2408	0.18452	0.17411	0.15416	0.24244	-1.7646	-3.0521	-2.3292	-2.7458	-2.7979	-2.1167	-2.8333	-2.525	-2.1562	-2.9583	-2.4208	-2.5458	-2.9375	-2.2	-2.7125	-2.7313	192.241	175.327	31.194	260.258	191.494	62.433	253.762	227.883	-82.621	133.439	173.384	27.577	-62.348	209.568	265.151	270.555	0.00039304	0.00079667	0.0001956	821.24	5.5806e-06	1.079e-06	713.44	307.56	1.8408e-06	1.043e-05	275.22	122.8	133.03	61.434	8.1762e-06	62.966	0.0044847	0.0077933	0.0021813	854.25	7.5673e-05	8.8803e-05	746.19	323.24	7.6089e-05	8.8301e-05	292.14	130.31	141.15	64.929	8.2991e-05	66.532	-76.051	30.362	-19.736	-70.869	113.283	3.971	-72.629	-65.398	85.104	60.314	-68.318	-63.763	-60.954	-56.123	21.573	-60.371	-8191	255	
38983.219	1	1	0	0	0.11398	0.2054	0.10363	0.23819	0.20221	0.04149	0.1487	0.23337	0.044299	0.1519	0.1809	0.073302	0.25191	0.24731	0.077496	0.083734	-1.6542	-3.0771	-2.1688	-2.6063	-2.8521	-2.1292	-2.7062	-2.8396	-2.0583	-3.0583	-2.2833	-2.4333	-3.0875	-2.35	-2.6625	-2.9208	101.811	-23.911	182.421	207.757	73.661	71.183	202.891	198.359	133.923	-14.266	21.346	146.670	243.076	208.732	204.944	-17.825	0.00027522	0.00040812	0.00013042	818.58	5.1336e-06	4.4229e-06	710.22	308.64	5.1334e-06	2.4948e-06	272.84	121.53	132.35	60.599	9.6873e-06	61.797	0.0047315	0.0081721	0.0022492	855.88	7.7754e-05	9.1258e-05	742.2	323.25	7.7513e-05	8.8285e-05	289.6	128.66	140.16	64.039	8.307e-05	65.416	-82.103	21.194	27.110	-71.099	-54.271	90.210	-72.495	-65.545	62.702	211.065	-68.496	-63.710	-60.870	-56.296	29.912	-60.684	-8191	255	
38983.316	1	1	0	0	0.084686	0.17375	0.25555	0.24189	0.072854	0.11939	0.07016	0.18952	0.12342	0.042953	0.42257	0.33268	0.23708	0.27446	0.10666	0.22572	-1.6896	-3.1167	-2.4083	-2.2896	-2.8688	-2.225	-2.7208	-2.9875	-1.9729	-2.8896	-2.5792	-2.2208	-3.1729	-2.0687	-2.4771	-3.0146	145.457	199.327	255.528	117.505	110.329	123.604	248.567	244.423	-46.997	262.872	182.090	214.891	258.666	226.757	9.761	203.492	0.00028103	0.00028586	0.00024216	816.12	1.6255e-06	8.8598e-06	706.17	304.79	6.8348e-06	8.7329e-06	271.24	120.83	131.4	59.879	7.3648e-06	61.441	0.0047048	0.0082374	0.0022786	852.51	7.8988e-05	9.3851e-05	738.27	320.35	8.0174e-05	9.271e-05	288.06	127.73	139	63.422	8.5552e-05	64.758	-82.456	-21.954	29.344	-71.136	102.906	46.919	-72.792	-65.432	121.477	113.454	-68.182	-64.087	-60.950	-56.259	-59.086	-60.707	-8191	255	
38983.410	1	1	0	0	0.13266	0.17756	0.17117	0.29178	0.17071	0.045978	0.28258	0.32858	0.22367	0.25721	0.57248	0.19503	0.11608	0.12735	0.2228	0.12497	-1.6083	-2.7854	-2.5687	-2.2	-2.9375	-2.3187	-2.7479	-3.0292	-2.1542	-2.8667	-2.8354	-2.2062	-3.0812	-2.4833	-2.5229	-3.0146	162.898	198.049	179.053	212.245	-44.550	211.185	226.901	242.498	-12.299	13.311	214.364	269.583	-74.570	106.692	168.188	75.253	0.00021271	0.00059482	9.5343e-05	813.91	1.4471e-06	8.1028e-06	704.31	304.09	6.9901e-06	4.4224e-06	270.3	119.65	131.36	60.018	4.8335e-06	61.347	0.0048788	0.0083997	0.0023104	850.97	8.0776e-05	9.5038e-05	736.88	320.2	8.2383e-05	9.5246e-05	288.44	127.62	139.39	63.488	8.8164e-05	65.001	-69.990	26.109	56.590	-71.233	117.359	66.343	-72.431	-65.687	-75.376	45.903	-68.074	-63.909	-60.947	-56.336	60.769	-60.382	-8191	255	
38983.508	1	1	0	0	0.16496	0.26271	0.2057	0.18214	0.10352	0.22961	0.12191	0.19232	0.35184	0.14299	0.19658	0.022139	0.18942	0.11673	0.12654	0.14315	-1.7354	-2.6896	-2.5938	-2.1771	-2.8563	-2.4771	-2.3292	-3.0812	-2.0938	-2.7896	-2.8271	-2.15	-3.2333	-2.625	-2.3208	-3.1146	189.234	259.501	92.221	189.544	155.172	207.101	-14.478	-62.308	252.244	-10.320	165.603	4.779	190.457	228.734	-16.948	186.132	0.00019952	0.00080944	0.00013045	817.66	4.4154e-06	3.9148e-06	709.42	307.33	1.9426e-06	2.3895e-06	274.42	121.72	132.27	60.884	1.2221e-06	62.286	0.0049721	0.0084327	0.0023182	853.49	7.9594e-05	9.2051e-05	740.53	321.89	7.828e-05	8.8848e-05	289.87	128.91	140.3	64.404	8.2761e-05	65.828	-80.971	-29.832	30.490	-71.183	126.880	47.066	-72.707	-65.501	-73.969	141.064	-68.653	-63.932	-60.816	-56.220	270.067	-60.258	-8191	255	
38983.605	1	1	0	0	0.17105	0.23184	0.33271	0.28356	0.25101	0.28178	0.31229	0.36013	0.2312	0.049309	0.10318	0.0493	0.25431	0.082462	0.20558	0.17615	-1.6063	-2.7	-2.9333	-2.1375	-2.85	-2.5875	-2.3167	-3.2062	-2.2687	-2.5354	-3.0417	-2.1875	-2.9083	-2.7604	-2.0771	-2.9375	247.301	52.528	235.469	143.920	-32.930	147.317	220.207	223.361	103.985	60.962	197.509	23.758	273.516	228.562	161.306	115.319	0.00027936	0.00031865	0.00020301	817.46	5.7625e-06	5.9465e-06	708.07	307.51	3.658e-06	9.9603e-06	272.35	121.83	132.16	61.295	2.9595e-06	62.63	0.0046324	0.0079208	0.0021942	852.42	7.6325e-05	8.8861e-05	739.61	322.33	7.6481e-05	8.7751e-05	289.37	129.11	140.2	64.693	8.0415e-05	65.911	-81.556	276.190	-6.179	-71.269	16.029	74.792	-72.694	-65.642	115.008	60.911	-68.349	-63.897	-60.863	-56.425	121.595	-60.318	-8191	255	
38983.723	1	1	0	0	0.13437	0.34896	0.08249	0.24021	0.061695	0.070671	0.068747	0.12041	0.14842	0.099288	0.092616	0.26812	0.32449	0.33641	0.088488	0.29641	-1.8062	-2.4479	-2.9771	-2.1917	-2.7021	-2.6208	-2.3292	-3.1417	-2.1958	-2.3042	-2.9938	-2.2083	-2.9208	-2.8292	-2.2667	-3.0208	185.189	-25.191	246.477	243.178	68.944	53.558	78.239	215.878	102.149	102.799	-1.981	252.885	-29.523	157.533	276.461	201.451	0.00036272	0.0010905	0.0001528	818.87	3.3296e-06	6.3105e-06	704.14	306.1	7.5905e-07	2.9312e-06	271.46	121.93	131.52	61.112	3.8412e-06	62.76	0.0045331	0.0078185	0.0021385	851.21	7.4353e-05	8.6366e-05	737.83	320.93	7.5985e-05	8.6531e-05	289.24	129.19	139.94	64.673	8.18e-05	66.446	-70.005	29.672	-1.285	-71.215	15.017	74.556	-72.737	-65.438	4.221	93.316	-68.344	-63.947	-61.027	-56.478	70.629	-60.607	-8191	255	
38983.820	1	1	0	0	0.18158	0.25181	0.19006	0.18136	0.19388	0.17924	0.092481	0.46493	0.11879	0.1417	0.14203	0.13524	0.062997	0.01348	0.46278	0.17041	-1.9833	-2.2417	-2.9062	-2.2354	-2.6542	-2.8937	-2.2292	-2.9646	-2.3771	-2.1792	-3.0771	-2.1542	-2.65	-2.8	-2.1229	-2.9083	90.046	253.752	149.361	257.349	114.282	77.882	167.289	221.736	181.053	104.437	252.749	128.135	268.237	-56.083	261.125	268.222	0.00031545	0.00066914	0.00020015	820.83	5.3566e-06	7.4234e-06	713.26	307.62	5.8792e-06	2.3567e-06	274.15	122.42	132.85	61.477	8.2663e-06	63.246	0.0046038	0.0078677	0.0021847	850.39	7.5899e-05	8.9037e-05	743.01	322.43	7.6394e-05	8.7365e-05	291.42	129.87	140.59	65.06	8.0599e-05	66.941	264.061	1.745	-19.111	-71.119	40.789	138.442	-72.865	-65.645	65.220	48.336	-68.378	-64.073	-61.094	-56.577	109.280	-60.376	-8191	255	
38983.891	1	1	0	0	0.036202	0.027635	0.093722	0.22285	0.11111	0.080154	0.1287	0.25219	0.18753	0.036961	0.15506	0.2683	0.17907	0.11736	0.18518	0.23543	-2.0458	-2.1354	-2.9562	-2.3771	-2.4146	-2.8146	-2.1646	-2.9521	-2.6708	-2.4646	-3.0125	-2.5521	-2.4708	-3.0458	-2.0646	-2.9792	225.787	185.235	173.367	180.411	85.111	116.824	220.688	274.017	11.638	204.829	106.018	161.879	237.842	-1.641	-65.402	245.218	0.00023558	0.0004164	9.2422e-05	820.74	9.7858e-06	6.7442e-06	714.8	308.74	6.7694e-06	6.8177e-06	275.05	122.49	133.25	61.585	7.8488e-06	63.03	0.0045784	0.007963	0.0021962	855.6	7.6404e-05	8.8258e-05	747.02	323.56	7.5909e-05	8.7442e-05	292.56	129.92	141.14	65.268	8.3424e-05	66.721	-80.560	25.311	-41.957	-71.159	106.208	48.525	-72.788	-65.476	54.759	66.710	-68.178	-63.845	-60.838	-56.164	102.044	-60.376	-8191	255	
#DATA ENDS
