BOXY.EXE: ISS Imagent and Oximeter Data Acquisition Program Version 0.80
Ascii Record File

#ACQ INFORMATION
2  Detector Channels 
16  External MUX Channels 
1  Auxiliary Channels 
5000  Waveform (CCF) Frequency (Hz)
1  Waveforms Skipped 
30  Waveforms Averaged 
1  Cycles Averaged 
16  Acquisitions per Waveform 
10.0806  Updata Rate (Hz) 

#FILE INFORMATION
TRUE -- External MUX Channel results are PARSED.
FALSE -- AC DC and Phase are NOT grouped.
TRUE -- Companion Program Settings File CREATED.
FALSE -- AC data not excluded
FALSE -- DC data not excluded
FALSE -- Phase data not excluded
FALSE -- Auxillary Chn. data not excluded
Tab delimiters

#CALIBRATION STATE
TRUE -- Waveform Calibration Values APPLIED.


#AUX CALIBRATION VALUES
Val Type	aux-1	

Term	1.0000e+00	
Factor	0.0000e+00	


#WF CALIBRATION VALUES
A = Detector Channel
Val Type	A-AC1	A-AC2	A-AC3	A-AC4	A-AC5	A-AC6	A-AC7	A-AC8	A-AC9	A-AC10	A-AC11	A-AC12	A-AC13	A-AC14	A-AC15	A-AC16	A-DC1	A-DC2	A-DC3	A-DC4	A-DC5	A-DC6	A-DC7	A-DC8	A-DC9	A-DC10	A-DC11	A-DC12	A-DC13	A-DC14	A-DC15	A-DC16	A-Ph1	A-Ph2	A-Ph3	A-Ph4	A-Ph5	A-Ph6	A-Ph7	A-Ph8	A-Ph9	A-Ph10	A-Ph11	A-Ph12	A-Ph13	A-Ph14	A-Ph15	A-Ph16	

Term	0.00000e+00	0.00000e+00	0.00000e+00	0.00000e+00	0.00000e+00	0.00000e+00	0.00000e+00	0.00000e+00	0.00000e+00	0.00000e+00	0.00000e+00	0.00000e+00	0.00000e+00	0.00000e+00	0.00000e+00	0.00000e+00	0.00000e+00	0.00000e+00	0.00000e+00	0.00000e+00	0.00000e+00	0.00000e+00	0.00000e+00	0.00000e+00	0.00000e+00	0.00000e+00	0.00000e+00	0.00000e+00	0.00000e+00	0.00000e+00	0.00000e+00	0.00000e+00	0.00000e+00	0.00000e+00	0.00000e+00	0.00000e+00	0.00000e+00	0.00000e+00	0.00000e+00	0.00000e+00	0.00000e+00	0.00000e+00	0.00000e+00	0.00000e+00	0.00000e+00	0.00000e+00	0.00000e+00	0.00000e+00	
Factor	1.00000e+00	1.00000e+00	1.00000e+00	1.00000e+00	1.00000e+00	1.00000e+00	1.00000e+00	1.00000e+00	1.00000e+00	1.00000e+00	1.00000e+00	1.00000e+00	1.00000e+00	1.00000e+00	1.00000e+00	1.00000e+00	1.00000e+00	1.00000e+00	1.00000e+00	1.00000e+00	1.00000e+00	1.00000e+00	1.00000e+00	1.00000e+00	1.00000e+00	1.00000e+00	1.00000e+00	1.00000e+00	1.00000e+00	1.00000e+00	1.00000e+00	1.00000e+00	X	X	X	X	X	X	X	X	X	X	X	X	X	X	X	X	

B = Detector Channel
Val Type	B-AC1	B-AC2	B-AC3	B-AC4	B-AC5	B-AC6	B-AC7	B-AC8	B-AC9	B-AC10	B-AC11	B-AC12	B-AC13	B-AC14	B-AC15	B-AC16	B-DC1	B-DC2	B-DC3	B-DC4	B-DC5	B-DC6	B-DC7	B-DC8	B-DC9	B-DC10	B-DC11	B-DC12	B-DC13	B-DC14	B-DC15	B-DC16	B-Ph1	B-Ph2	B-Ph3	B-Ph4	B-Ph5	B-Ph6	B-Ph7	B-Ph8	B-Ph9	B-Ph10	B-Ph11	B-Ph12	B-Ph13	B-Ph14	B-Ph15	B-Ph16	

Term	0.00000e+00	0.00000e+00	0.00000e+00	0.00000e+00	0.00000e+00	0.00000e+00	0.00000e+00	0.00000e+00	0.00000e+00	0.00000e+00	0.00000e+00	0.00000e+00	0.00000e+00	0.00000e+00	0.00000e+00	0.00000e+00	0.00000e+00	0.00000e+00	0.00000e+00	0.00000e+00	0.00000e+00	0.00000e+00	0.00000e+00	0.00000e+00	0.00000e+00	0.00000e+00	0.00000e+00	0.00000e+00	0.00000e+00	0.00000e+00	0.00000e+00	0.00000e+00	2.93197e+01	-1.46832e+02	-1.39121e+02	-1.81086e+02	-9.40388e+01	-8.26987e+01	-1.58451e+02	-1.62015e+02	-4.88284e+01	-7.25510e+01	-1.70463e+02	-1.70388e+02	-1.82301e+02	-1.76731e+02	-5.84013e+01	-1.49945e+02	
Factor	5.48794e-05	1.85628e-04	4.36060e-05	1.70858e-01	1.72188e-06	1.61827e-06	1.82640e-01	6.30764e-02	2.27960e-06	1.44727e-06	1.00929e-01	3.45204e-02	2.99637e-02	1.05836e-02	1.66694e-06	1.51637e-02	2.09266e-06	2.19092e-06	6.07507e-07	8.53818e-02	2.38634e-08	2.39635e-08	8.56573e-02	3.13960e-02	2.38440e-08	2.39852e-08	4.84051e-02	1.65146e-02	1.48863e-02	5.27694e-03	2.38470e-08	7.29755e-03	X	X	X	X	X	X	X	X	X	X	X	X	X	X	X	X	



#DISTANCE SETTINGS
A = Detector Channel
A-1	A-2	A-3	A-4	A-5	A-6	A-7	A-8	A-9	A-10	A-11	A-12	A-13	A-14	A-15	A-16	

2.5000e+00	3.0000e+00	2.5000e+00	3.0000e+00	2.0000e+00	3.0000e+00	1.5000e+00	3.0000e+00	3.0000e+00	3.0000e+00	3.0000e+00	3.0000e+00	3.0000e+00	3.0000e+00	1.5000e+00	3.0000e+00	

B = Detector Channel
B-1	B-2	B-3	B-4	B-5	B-6	B-7	B-8	B-9	B-10	B-11	B-12	B-13	B-14	B-15	B-16	

1.0000e+01	1.0000e+01	1.0000e+01	1.4400e+00	1.0000e+01	1.0000e+01	1.5100e+00	1.9400e+00	1.0000e+01	1.0000e+01	1.9900e+00	2.4900e+00	2.4100e+00	2.9000e+00	1.0000e+01	2.9800e+00	




#DATA BEGINS
time	group	step	mark	flag	A-AC1	A-AC2	A-AC3	A-AC4	A-AC5	A-AC6	A-AC7	A-AC8	A-AC9	A-AC10	A-AC11	A-AC12	A-AC13	A-AC14	A-AC15	A-AC16	A-DC1	A-DC2	A-DC3	A-DC4	A-DC5	A-DC6	A-DC7	A-DC8	A-DC9	A-DC10	A-DC11	A-DC12	A-DC13	A-DC14	A-DC15	A-DC16	A-Ph1	A-Ph2	A-Ph3	A-Ph4	A-Ph5	A-Ph6	A-Ph7	A-Ph8	A-Ph9	A-Ph10	A-Ph11	A-Ph12	A-Ph13	A-Ph14	A-Ph15	A-Ph16	B-AC1	B-AC2	B-AC3	B-AC4	B-AC5	B-AC6	B-AC7	B-AC8	B-AC9	B-AC10	B-AC11	B-AC12	B-AC13	B-AC14	B-AC15	B-AC16	B-DC1	B-DC2	B-DC3	B-DC4	B-DC5	B-DC6	B-DC7	B-DC8	B-DC9	B-DC10	B-DC11	B-DC12	B-DC13	B-DC14	B-DC15	B-DC16	B-Ph1	B-Ph2	B-Ph3	B-Ph4	B-Ph5	B-Ph6	B-Ph7	B-Ph8	B-Ph9	B-Ph10	B-Ph11	B-Ph12	B-Ph13	B-Ph14	B-Ph15	B-Ph16	aux-1	digaux	

2642.612	1	1	0	256	0.10831	0.18859	0.15914	0.090179	0.06441	0.35248	0.21373	0.24288	0.221	0.1613	0.21899	0.041386	0.1398	0.25866	0.31338	0.30038	0.61667	-0.29167	-0.39792	0.10208	-0.68333	-0.14792	-0.09375	-0.87708	0.097917	-0.0125	-0.72292	0.020833	-0.86458	-0.45833	0.29167	-0.95417	115.119	201.597	200.125	154.558	-9.156	53.883	225.911	194.618	74.144	117.997	98.919	60.683	134.017	-45.787	0.124	212.245	0.0011634	0.0038389	0.00029601	907.57	1.5325e-05	3.3338e-05	864.97	362.13	1.4012e-05	4.0497e-05	344.79	134.89	146.28	67.783	9.7869e-06	65.932	0.0056168	0.0054744	0.0014068	1121.8	6.7102e-05	6.5302e-05	1099.8	458.59	8.0768e-05	7.6772e-05	503.6	194.17	212.98	91.242	9.1346e-05	99.655	-43.580	-14.979	-20.128	-73.640	127.722	1.260	-75.342	-68.504	31.567	12.231	-71.308	-66.230	-64.026	-59.073	7.285	-62.688	-8191	255	
2642.707	1	1	0	0	0.12198	0.069369	0.13447	0.3114	0.17042	0.091577	0.25925	0.077353	0.17881	0.048757	0.13866	0.14196	0.1846	0.19286	0.31956	0.14154	0.22083	-0.20833	-0.56042	-0.047917	-0.64583	-0.2875	-0.1	-0.9	-0.066667	-0.21667	-1.1562	-0.12083	-0.75833	-0.57917	0.014583	-0.81458	77.423	-22.145	219.464	193.492	269.537	1.791	-77.182	-38.898	146.474	43.098	204.864	243.583	-21.249	128.240	151.736	-31.766	0.00034992	0.0036264	0.00048528	925.92	3.6808e-05	3.3304e-05	895.13	376.47	6.8801e-05	3.7738e-05	350.58	131.91	146.62	62.011	4.4011e-06	54.494	0.010382	0.009157	0.0024038	1312.1	0.00011295	0.00010414	1271.2	550.29	0.00014461	0.00013987	664.71	269.48	297.23	116.84	0.00023233	148.14	-0.251	-2.935	-82.126	-73.754	15.329	40.617	-75.764	-68.762	70.147	57.322	-71.653	-67.357	-65.092	-59.453	-60.947	-62.956	-8191	255	
2642.803	1	1	0	131072	0.07153	0.36393	0.12336	0.13271	0.1174	0.16219	0.26091	0.25486	0.084105	0.04668	0.41016	0.12744	0.035328	0.030211	0.12257	0.12654	0.0875	-0.085417	-0.74792	0.05	-0.75833	-0.42917	-0.13125	-0.81667	-0.29792	-0.19792	-1.1125	-0.19792	-0.5125	-0.83542	0.32708	-1.0167	252.310	-5.081	114.053	-67.120	227.114	73.127	186.231	-57.706	-71.465	63.984	233.255	74.737	-44.014	120.509	224.177	183.898	0.0030996	0.0035955	0.00094755	1045.6	7.6598e-05	2.1548e-05	1027.6	398.08	0.00014074	6.4725e-05	373.35	126.67	91.58	46.933	0.00017365	45.152	0.0277	0.024848	0.0063694	2056.1	0.00024595	0.00021831	1800.1	758.72	0.00027927	0.00026962	1020.5	452.59	429.18	141.5	0.00032213	152.4	143.229	8.921	95.107	-74.558	10.966	55.415	-76.259	-69.592	51.812	53.081	-72.208	-68.115	-65.866	-61.044	222.206	-64.821	-8191	255	
2642.899	1	1	0	131072	0.071136	0.14212	0.29969	0.17059	0.18749	0.13169	0.21867	0.10004	0.16224	0.21089	0.06585	0.061649	0.26906	0.082585	0.2095	0.19252	0.0875	0.06875	-0.88542	-0.0625	-0.20833	-0.71042	-0.15833	-0.8875	-0.40833	-0.11042	-0.9375	-0.22292	-0.27917	-0.81875	0.16875	-0.625	53.640	204.867	246.189	250.247	1.717	-66.237	269.110	160.545	182.645	231.407	165.436	138.721	256.685	-9.729	121.523	224.715	0.0032297	0.0025536	0.0032482	1030.9	0.00011742	4.7673e-05	1002.2	345.25	0.00011756	2.8682e-05	350.9	118.76	132.83	48.516	0.00011269	43.743	0.026807	0.024059	0.0069024	2248.5	0.00028664	0.00028282	2154.6	868.42	0.0003247	0.00029228	1007.6	359.21	314.51	106.73	0.00025461	123.68	154.860	-46.181	150.030	-75.071	11.365	93.570	-77.416	-70.581	35.193	43.008	-73.545	-68.901	-66.373	-61.023	230.231	-63.993	-8191	255	
2643.020	1	1	0	0	0.076867	0.041051	0.46207	0.20755	0.055785	0.1018	0.30232	0.19154	0.18536	0.23849	0.14793	0.1127	0.38278	0.076456	0.16178	0.12327	-0.17917	0.17292	-0.65833	-0.31458	0.041667	-0.85208	0.14583	-0.64167	-0.48333	0.18333	-0.8625	-0.28958	0.1375	-1.0833	0.20208	-0.52708	257.076	232.158	179.563	253.534	-14.029	-73.895	176.176	-79.362	49.632	261.244	241.234	-18.286	211.098	-14.519	104.571	33.293	0.00034834	0.00065315	0.0023663	1036.3	4.1934e-05	3.8809e-05	949.23	372.86	5.9701e-05	3.1769e-06	335.79	123.26	136.36	58.146	6.8135e-05	57.726	0.018386	0.016498	0.0050003	1799.6	0.00017569	0.00017134	1686.1	644.97	0.00017571	0.00015825	717.12	249.79	234.77	92.778	0.00016633	107.28	116.168	58.142	146.577	-74.774	13.748	26.613	-76.673	-69.594	33.427	-20.035	-71.733	-66.765	-64.400	-58.957	217.049	-62.492	-8191	255	
2643.116	1	1	0	0	0.012329	0.26722	0.16175	0.11452	0.11706	0.066874	0.11326	0.019226	0.19781	0.16364	0.36214	0.052527	0.20534	0.35764	0.34952	0.12658	-0.12083	0.23542	-0.54792	-0.4125	0.27708	-0.77917	0.11875	-0.33333	-0.47917	-0.0125	-0.72292	-0.3875	0.0083333	-1.0125	-0.12917	-0.3	0.493	108.335	48.659	93.265	54.324	-54.978	188.521	229.864	36.994	205.120	94.925	158.703	227.547	205.337	114.056	8.921	0.00061558	0.0029334	0.00094537	972.94	1.8204e-05	4.2735e-05	900.08	372.09	3.5526e-05	3.8367e-05	338.69	129.8	139.4	61.462	8.7842e-06	58.837	0.01225	0.01186	0.0040045	1543.7	0.00013164	0.00013372	1485.6	565.35	0.00012839	0.00012667	658.31	230.38	222.16	93.922	0.00016032	104.58	4.325	165.796	159.037	-73.903	-12.808	191.462	-75.971	-68.631	59.610	207.569	-71.327	-66.277	-63.927	-58.570	209.226	-61.930	-8191	255	
2643.212	1	1	0	0	0.21013	0.16312	0.24244	0.28903	0.079242	0.13001	0.083994	0.24989	0.090776	0.23411	0.087862	0.15651	0.14815	0.24577	0.33834	0.10976	-0.19167	0.19167	-0.53958	-0.61875	-0.070833	-0.82708	-0.3375	-0.09375	-0.7875	0.25625	-0.80833	-0.52292	-0.10833	-1.1896	-0.0375	-0.0083333	126.102	174.422	58.490	232.280	220.893	101.900	5.603	-86.099	264.335	-15.284	-41.825	147.075	243.932	264.889	233.909	257.962	0.00057233	0.0065445	0.00084068	955.48	4.1694e-05	4.4667e-05	888.52	363.26	1.7085e-05	6.193e-05	342.07	129.49	140.93	62.858	4.1287e-05	61.033	0.012602	0.013968	0.0046608	1587.3	0.00015561	0.00017839	1652.9	607.84	0.00017019	0.00018171	742.96	249.27	237.34	102.67	0.00016775	104.3	93.458	125.733	14.493	-74.203	25.216	194.781	-75.803	-68.520	54.141	217.787	-71.171	-66.532	-63.671	-58.232	28.785	-62.120	-8191	255	
2643.284	1	1	0	0	0.10492	0.07017	0.33818	0.16697	0.040544	0.12254	0.1674	0.24223	0.091536	0.11037	0.072634	0.33103	0.21361	0.10995	0.22922	0.22207	-0.41875	0.23125	-0.54375	-0.65625	-0.052083	-0.75417	-0.23333	-0.00625	-0.64583	0.18125	-0.60625	-0.775	0.08125	-0.70208	-0.22292	0.060417	196.294	163.169	210.897	129.970	145.715	107.079	254.299	269.637	202.239	111.185	232.740	264.525	210.796	245.994	-81.780	217.220	0.0011038	0.0059657	0.00077045	949.87	1.9382e-05	3.5728e-05	889.67	366.45	5.6969e-06	3.9167e-05	337.76	127.33	138.41	58.946	4.8764e-05	53.894	0.01126	0.012729	0.0034884	1397.5	0.00010499	0.00012323	1343.8	510.77	0.00010053	0.00011813	574.01	202.89	204.5	88.508	0.00012244	89.463	-45.645	116.101	-15.001	-73.976	233.166	162.810	-75.584	-68.766	26.533	187.045	-71.396	-66.271	-63.986	-58.397	60.160	-62.055	-8191	255	
2643.404	1	1	0	0	0.075287	0.31896	0.13567	0.018724	0.29434	0.21976	0.20901	0.18559	0.28642	0.18957	0.24099	0.090393	0.17177	0.22711	0.25898	0.19082	-0.48125	0.25	-0.39583	-0.71875	0.23958	-0.5875	-0.35417	-0.085417	-0.82083	-0.175	-0.27292	-0.79167	0.20417	-0.85	-0.33125	0.089583	39.050	132.287	219.088	-28.098	-54.111	153.094	246.005	-59.250	95.825	-21.336	213.221	154.698	-68.159	162.237	-66.713	68.993	0.0019441	0.0015824	0.0015891	961.59	4.2656e-05	4.1949e-05	900.55	362.65	6.3279e-05	1.9169e-05	325.1	117.42	130.15	52.729	1.6003e-05	48.293	0.010348	0.012925	0.0033033	1412.9	0.00011243	0.00012937	1321.1	492.77	9.2248e-05	9.6394e-05	479.82	161.57	166.76	65.556	3.8451e-05	58.115	-16.539	105.135	-36.051	-73.911	173.884	170.762	-75.924	-68.955	262.816	181.458	-71.646	-66.732	-64.101	-58.911	119.424	-62.597	-8191	255	
2643.500	1	1	0	0	0.094539	0.066554	0.1445	0.32472	0.1271	0.085103	0.073103	0.26987	0.2935	0.2472	0.05427	0.19087	0.12247	0.10391	0.12471	0.15375	-0.32083	0.17917	-0.15208	-0.81667	0.075	-0.19375	-0.65625	0.089583	-0.83333	0.11875	-0.08125	-0.66875	-0.0020833	-0.48958	-0.31042	0.1125	191.480	138.605	184.070	142.212	62.188	138.664	144.527	-82.588	215.203	103.479	227.166	27.702	-71.945	268.711	-4.844	-72.381	0.0010005	0.00047828	7.655e-05	921.18	8.0744e-06	1.1972e-05	849.96	348.55	7.9126e-06	1.5909e-05	317.4	118.11	131.62	55.153	1.8104e-05	51.631	0.0025114	0.0024462	0.00050475	998.5	1.7189e-05	1.7517e-05	916.01	372.54	1.618e-05	1.7703e-05	352.01	130.58	145.86	61.298	2.1827e-05	58.843	-31.668	4.679	57.118	-73.850	210.706	52.283	-75.856	-68.775	165.242	41.001	-71.219	-66.629	-64.192	-58.280	70.165	-62.234	-8191	255	
2643.595	1	1	0	0	0.05378	0.091053	0.37031	0.40224	0.10744	0.11084	0.13255	0.11854	0.20024	0.23859	0.2184	0.07247	0.18375	0.31892	0.11509	0.17727	-0.38958	-0.014583	-0.075	-0.78958	-0.022917	-0.15417	-0.70417	0.18542	-0.84167	-0.35417	0.070833	-0.8125	-0.17917	-0.51042	-0.55	0.15417	178.204	234.831	238.733	272.584	124.315	61.543	6.216	155.833	-49.609	155.427	227.606	-82.850	267.681	229.032	173.996	-23.034	0.00074324	0.0014033	0.0001951	907.34	1.8433e-05	1.1267e-05	852.94	350.3	1.4294e-05	1.7863e-05	321.63	120.22	133.87	57.381	3.0761e-06	54.22	0.0024828	0.0027287	0.0006881	1027.6	3.4589e-05	3.4737e-05	982.32	399.04	4.0533e-05	3.9522e-05	394.33	148.09	164.58	68.003	4.1193e-05	67.889	-33.022	-42.546	-65.931	-73.922	183.704	35.235	-75.694	-68.569	215.439	19.504	-71.125	-66.323	-64.015	-58.417	144.999	-62.444	-8191	255	
2643.693	1	1	0	0	0.11588	0.13361	0.26263	0.35518	0.10722	0.15724	0.21739	0.1669	0.073912	0.11154	0.30504	0.11152	0.14949	0.16698	0.21257	0.40698	-0.53958	-0.23958	0.0875	-0.89583	0.083333	-0.35208	-0.71667	0.17292	-0.50625	-0.46667	0.097917	-0.79167	-0.28125	-0.15833	-0.71458	0.13542	64.857	119.860	161.392	241.742	86.772	197.924	195.722	-33.966	-40.373	269.431	78.202	156.302	80.845	224.356	254.267	170.879	0.00051723	0.0029391	0.00027345	907.71	1.4824e-06	2.1176e-05	852.35	353.03	2.0273e-05	1.6729e-05	324.37	123.31	136.58	58.402	7.7233e-06	54.128	0.0045657	0.0044494	0.0011156	1102	5.6331e-05	4.9594e-05	1033.6	422.87	5.1952e-05	4.4988e-05	405.53	154.18	164.98	67.031	3.0318e-05	64.343	-6.032	-31.603	-5.558	-73.512	146.417	-21.908	-75.354	-68.467	57.657	32.099	-71.051	-66.467	-63.995	-58.767	31.646	-62.453	-8191	255	
2643.812	1	1	0	0	0.17231	0.18881	0.20683	0.1935	0.16016	0.079788	0.16572	0.22854	0.28206	0.1621	0.063786	0.27721	0.30062	0.2481	0.14986	0.046294	-0.3875	-0.39375	0.21042	-0.85208	0.125	-0.0125	-0.86458	0	-0.40625	-0.60208	0.175	-0.63333	-0.14167	-0.175	-0.8875	0.25208	-57.963	-13.849	-41.900	-53.196	233.623	258.439	89.810	200.473	123.956	186.354	7.682	-86.438	231.791	213.610	-23.200	271.998	0.00040746	0.0003393	0.0002391	908.67	1.2174e-05	7.2811e-06	847.79	348.39	1.6269e-05	3.1522e-06	317.51	120.65	133.86	56.849	1.5099e-06	52.966	0.002703	0.0023148	0.00054686	1010.8	2.3004e-05	1.8294e-05	921.43	378.06	1.7309e-05	1.5124e-05	347.36	133.06	144.4	60.64	1.2041e-05	57.965	11.577	-55.774	-19.221	-73.695	-44.045	-25.538	-75.768	-68.662	81.273	15.573	-70.922	-66.008	-63.949	-58.543	88.287	-61.982	-8191	255	
2643.908	1	1	0	0	0.1182	0.20761	0.12065	0.42169	0.21333	0.23077	0.18838	0.09522	0.36112	0.22356	0.11954	0.15651	0.21309	0.17368	0.074112	0.155	-0.05625	-0.52292	0.089583	-0.42083	-0.20833	0.079167	-0.925	0.010417	-0.36875	-0.65833	0.075	-0.78542	-0.27917	-0.083333	-0.50833	0.11458	210.905	98.719	114.050	192.620	-34.618	255.673	124.201	-16.399	-36.316	266.326	-53.129	-30.820	-17.960	172.798	95.964	179.929	0.00038263	0.0010416	0.00011702	898.28	3.1391e-06	4.2013e-06	838.89	344.78	1.2075e-05	1.047e-06	313.21	116.35	129.98	54.641	1.3003e-06	51.315	0.0010948	0.00095238	0.00023509	950.51	8.652e-06	6.759e-06	873.28	359.52	5.7259e-06	4.9467e-06	325.55	121.51	134.62	56.783	4.6392e-06	53.255	-1.399	-22.246	21.590	-73.689	-24.619	38.396	-75.536	-68.572	47.173	135.747	-71.575	-66.515	-64.152	-58.664	42.611	-62.368	-8191	255	
2644.004	1	1	0	0	0.065041	0.19988	0.211	0.26615	0.076128	0.24985	0.18494	0.32528	0.10928	0.084201	0.023961	0.07825	0.056231	0.12396	0.024356	0.025239	0.22708	-0.56667	0.16042	-0.70833	-0.44792	0.21042	-0.91667	-0.10625	-0.04375	-0.87708	0.13958	-0.55	-0.33125	0.014583	-0.58125	-0.054167	170.824	222.580	149.549	-78.426	133.952	111.465	225.743	181.986	-20.191	248.966	-48.924	37.032	-48.752	270.278	142.612	66.448	0.00052151	0.00057814	0.00013882	897.3	1.7938e-06	7.1622e-06	838.74	349.84	5.968e-06	4.8999e-06	320.03	119.95	132.75	56.058	1.6629e-06	51.823	0.0004389	0.00041475	0.00012501	932.26	4.9949e-06	4.4394e-06	868.62	362.37	4.7288e-06	4.5203e-06	333.15	124.61	137.73	58.139	5.2108e-06	53.975	-5.366	-18.400	33.584	-73.684	43.368	37.857	-75.442	-68.665	84.291	74.973	-71.378	-66.813	-64.507	-59.030	102.532	-62.640	-8191	255	
2644.100	1	1	0	0	0.060947	0.096875	0.079813	0.36545	0.0084911	0.27376	0.17191	0.15271	0.34326	0.20071	0.14666	0.2705	0.11149	0.15406	0.20071	0.27117	0.4375	-0.64583	0.21042	-0.65625	-0.51667	0.22292	-1.0667	-0.125	-0.06875	-0.65208	0.0875	-0.61875	-0.62917	0.15208	-0.64583	-0.225	155.401	-63.938	-52.725	-42.499	243.695	-42.087	93.644	259.029	-3.673	219.914	230.041	198.029	174.367	-58.987	135.217	180.569	0.00053588	0.00050813	0.00019668	907.41	4.6194e-06	4.6626e-06	843.88	353.18	3.2392e-06	2.3294e-06	325.09	120.95	135.04	56.893	4.3142e-06	53.371	0.0004253	0.0004123	0.00013422	941.43	4.9453e-06	4.5761e-06	881.81	367.02	5.2419e-06	5.4327e-06	340.24	126.76	140.22	59.41	7.2995e-06	56.124	-15.237	54.464	-57.001	-73.764	27.359	37.925	-75.790	-68.913	89.767	13.558	-71.740	-66.685	-64.250	-58.939	107.672	-62.532	-8191	255	
2644.196	1	1	0	0	0.18461	0.0056724	0.18665	0.19345	0.084432	0.10393	0.10818	0.17268	0.02901	0.13429	0.35613	0.25445	0.21079	0.28067	0.052377	0.15839	0.39167	-0.67917	0.08125	-0.34375	-0.56042	0.22292	-0.74583	-0.52083	-0.05625	-0.76458	0.15417	-0.38125	-0.72708	0.039583	-0.55	-0.26458	68.866	56.923	-32.613	82.616	22.961	47.339	8.464	174.426	89.551	244.972	-30.317	230.003	-16.048	186.779	-52.052	126.113	0.0005283	0.00061322	0.00011166	910.96	3.7741e-06	3.2042e-06	860.51	358.03	5.4534e-06	3.834e-06	330.02	122.49	135.59	57.486	6.9006e-06	54.12	0.00055642	0.00059109	0.00019675	951.98	6.4014e-06	6.5377e-06	899.19	372.72	6.1673e-06	6.8114e-06	346.89	128.94	141.53	60.294	7.6486e-06	56.79	-21.451	9.889	32.430	-73.784	33.699	50.324	-75.697	-69.015	61.482	113.433	-71.626	-66.724	-64.058	-58.743	22.936	-62.192	-8191	255	
2644.292	1	1	0	0	0.2028	0.10326	0.23777	0.15442	0.20035	0.11537	0.050521	0.3593	0.18774	0.33088	0.19951	0.20632	0.21926	0.22191	0.19212	0.13518	0.34583	-0.52292	0.010417	-0.33542	-0.49792	0.2375	-0.58333	-0.42292	0.12292	-0.72083	-0.058333	-0.070833	-0.79375	-0.18958	-0.49375	-0.57292	58.453	137.305	40.229	-19.416	156.222	-20.836	0.761	183.254	153.394	-71.916	202.448	237.322	167.691	-20.269	-57.527	-35.009	0.00050075	0.00011235	0.00018946	911.23	4.1561e-06	4.5539e-06	859.43	359.13	3.7663e-06	3.2501e-06	329.11	123.6	136.18	57.398	3.9201e-06	53.142	0.00055718	0.00065023	0.00019703	949.75	6.4198e-06	7.2597e-06	898.78	373.96	6.1014e-06	7.3777e-06	346.88	129.1	142.11	60.263	7.0498e-06	55.768	-28.159	244.095	-13.598	-73.791	-0.229	126.893	-75.401	-68.853	91.590	161.646	-71.153	-66.532	-64.198	-58.922	65.536	-62.537	-8191	255	
2644.413	1	1	0	0	0.14714	0.092395	0.21039	0.30155	0.042843	0.13469	0.16994	0.21249	0.098224	0.061482	0.13018	0.16212	0.18817	0.30081	0.12582	0.037488	0.4875	-0.725	-0.23125	-0.097917	-0.85208	0.23542	-0.33542	-0.90833	0.30833	-0.71875	-0.4375	0.041667	-0.84792	-0.15833	-0.052083	-0.77917	-79.006	60.988	25.899	219.108	-46.188	224.351	262.552	226.018	191.966	51.668	213.264	272.935	-30.676	-50.522	-73.614	-10.846	0.00059054	0.00079787	0.0001834	913.49	6.5459e-06	2.5049e-06	857.54	359.05	5.0297e-06	6.7814e-06	330.06	125.06	138.37	59.375	1.0073e-05	55.85	0.00054529	0.00068657	0.00018748	953.36	6.8127e-06	8.5276e-06	899.06	375.83	8.3129e-06	1.0816e-05	352.82	133.25	147.01	63.683	1.1716e-05	59.85	-14.338	-4.983	-5.400	-73.726	46.569	46.367	-75.558	-68.737	254.883	86.054	-71.097	-66.470	-64.147	-58.954	96.050	-62.487	-8191	255	
2644.507	1	1	0	0	0.17153	0.09611	0.14738	0.2083	0.38386	0.24241	0.023699	0.28236	0.090681	0.321	0.1913	0.053947	0.15971	0.35965	0.12829	0.18271	0.50417	-0.57083	-0.12917	0.052083	-0.81875	-0.15833	-0.25417	-0.93333	0.085417	-0.46667	-0.47083	-0.022917	-0.80208	-0.17292	-0.066667	-0.84375	82.169	93.699	218.896	183.066	242.763	46.433	235.946	245.348	36.241	89.187	-79.856	-36.674	150.747	265.912	-8.473	270.326	0.00069152	0.0010651	0.00015143	924.57	1.9368e-06	3.2644e-06	866.94	360.72	3.5699e-06	3.5251e-06	325.12	119.44	132.96	55.44	5.2748e-06	51.443	0.0010306	0.0012402	0.00030211	974.91	1.1022e-05	1.1958e-05	913.61	377.04	8.6582e-06	9.0626e-06	341.91	124.84	139.61	58.114	6.259e-06	53.782	-7.135	-13.389	-38.991	-73.769	98.055	11.938	-75.730	-68.962	249.407	66.979	-71.360	-66.662	-64.136	-59.098	32.499	-62.677	-8191	255	
2644.579	1	1	0	0	0.078136	0.10852	0.11154	0.098719	0.22942	0.17878	0.10149	0.14508	0.25476	0.13455	0.1047	0.20759	0.3396	0.19881	0.096889	0.093959	0.29792	-0.18958	-0.25625	-0.11667	-0.69792	-0.091667	-0.1125	-0.9	0.0625	-0.58542	-0.61875	0.0020833	-0.91042	-0.19583	0.11042	-0.77917	200.178	201.163	146.234	194.173	212.094	272.154	-44.045	-52.745	101.330	67.208	-80.928	153.852	-47.152	-64.613	-13.218	124.276	0.00068101	0.00040098	0.00010068	915.48	2.7702e-06	6.1583e-06	854.76	359.16	5.3982e-06	7.5164e-06	328.78	122.96	136.79	57.806	4.8933e-06	53.697	0.00061181	0.00063671	0.00015707	950.02	6.8213e-06	6.8843e-06	890.44	373.06	6.8478e-06	6.7865e-06	341.81	128.04	142.94	60.486	5.7141e-06	56.044	-18.586	-9.963	242.115	-73.589	119.677	14.163	-75.544	-68.627	211.854	27.891	-71.467	-66.513	-64.175	-59.190	77.909	-62.538	-8191	255	
2644.675	1	1	0	0	0.098826	0.1572	0.20114	0.18227	0.25198	0.19324	0.32223	0.083638	0.29744	0.16065	0.26289	0.088223	0.19563	0.21936	0.16336	0.12746	0.39583	-0.38542	-0.63542	0.13125	-0.53125	-0.23333	-0.0041667	-0.87292	-0.12292	-0.12083	-0.80625	-0.125	-0.69375	-0.54167	-0.045833	-0.87917	112.080	216.340	56.193	224.891	199.067	82.908	242.012	58.887	164.846	40.297	182.163	156.627	5.739	203.382	15.647	268.732	0.00048284	0.0013658	0.00020011	918.58	3.1626e-06	6.9553e-06	856.51	356.86	7.0205e-06	2.3039e-06	322.04	118.47	132.8	55.1	1.7327e-06	50.597	0.00062893	0.00058128	0.0001483	953.7	6.8063e-06	6.2522e-06	889.12	370.74	6.4272e-06	5.549e-06	334.07	123.3	137.87	57.348	4.2853e-06	52.533	-48.947	-47.543	-43.726	-73.774	21.088	21.670	-75.656	-68.961	129.028	88.319	-71.426	-66.653	-64.321	-59.154	21.651	-62.746	-8191	255	
2644.796	1	1	0	0	0.13845	0.12613	0.19578	0.060466	0.17248	0.22638	0.25104	0.29459	0.12029	0.12653	0.15036	0.20391	0.19469	0.077224	0.074141	0.29934	0.41042	-0.15833	-0.65833	0.10208	-0.70833	-0.45208	0.025	-0.925	-0.32292	-0.2125	-0.64375	-0.12083	-0.39792	-0.73333	-0.0125	-0.73333	-81.380	174.901	209.818	58.718	188.364	-51.700	-55.814	197.228	53.327	53.365	212.087	124.045	217.402	185.752	-29.033	82.324	0.00045407	0.0010094	8.2133e-05	911.72	7.2071e-06	3.0546e-06	849.2	355.63	5.4457e-06	4.0121e-06	318.43	116.97	131.57	54.711	2.298e-06	50.356	0.00047707	0.00040735	0.00010878	943.07	5.2622e-06	4.6415e-06	874.54	367.28	5.2756e-06	4.4177e-06	329.14	121.48	136.37	56.776	3.953e-06	52.414	-20.133	-42.595	1.877	-73.856	15.235	-9.982	-75.703	-69.140	53.330	42.621	-71.342	-66.761	-64.298	-59.093	73.644	-62.644	-8191	255	
2644.892	1	1	0	0	0.29143	0.11238	0.12154	0.18706	0.20792	0.093918	0.15018	0.18608	0.16674	0.14392	0.09304	0.070136	0.03329	0.34404	0.15947	0.087592	0.12917	0.0041667	-0.79167	-0.09375	-0.40417	-0.54583	-0.0083333	-0.65833	-0.14792	-0.2125	-0.71875	0.070833	-0.69375	-0.4625	-0.027083	-0.83125	67.671	56.848	197.290	259.867	7.239	17.878	120.534	-61.343	232.674	178.770	201.639	204.980	40.986	192.794	8.069	214.104	0.00031488	0.00043796	4.852e-05	906.26	3.192e-06	4.303e-06	841.72	353.71	3.6686e-06	6.3829e-06	319.45	119.4	132.29	55.585	2.2691e-06	51.334	0.00044234	0.00037394	0.0001018	939.46	4.6476e-06	4.2779e-06	868.42	366.34	4.943e-06	4.2969e-06	331.43	124.28	137.52	57.669	4.506e-06	53.645	-17.147	-11.270	-5.519	-74.059	94.012	20.350	-75.762	-68.935	75.816	33.778	-71.466	-66.704	-64.157	-58.769	151.572	-62.507	-8191	255	
2644.988	1	1	0	0	0.11076	0.17388	0.11249	0.19138	0.22379	0.23356	0.19131	0.25956	0.28809	0.25899	0.0381	0.14507	0.19773	0.05207	0.091334	0.1889	0.2375	0.13333	-0.85208	0.010417	-0.16042	-0.68125	0.01875	-0.57917	-0.43958	-0.0625	-0.67292	-0.2	-0.59167	-0.93958	0.33333	-0.75833	44.808	203.413	169.075	-17.884	187.144	106.455	163.942	-30.973	102.184	-24.109	9.693	153.724	247.619	233.354	270.985	-74.518	0.00036033	0.00048377	0.00011637	909.61	3.5599e-06	5.2704e-06	847.07	355.04	5.8156e-06	2.2149e-06	320.47	117.85	131.87	54.606	9.9144e-07	50.631	0.00045904	0.00038557	0.00011127	942.29	4.2653e-06	3.9088e-06	873.67	366.7	4.1449e-06	3.6411e-06	330.35	121.94	135.77	56.489	4.2038e-06	52.542	-25.968	-48.614	-74.109	-74.025	-10.019	37.054	-75.749	-68.764	42.371	86.214	-71.543	-66.759	-64.402	-59.224	122.781	-62.513	-8191	255	
2645.084	1	1	0	0	0.11825	0.10808	0.17419	0.23575	0.23863	0.37143	0.092168	0.18645	0.06803	0.10014	0.31537	0.14118	0.179	0.16171	0.094846	0.059962	-0.2625	0.32083	-0.69583	-0.25625	-0.20625	-0.72292	-0.058333	-0.64167	-0.35208	-0.03125	-0.86667	-0.24375	-0.175	-0.87917	-0.10833	-0.72083	22.824	-13.928	167.830	49.547	-11.425	59.285	-72.529	87.667	141.541	8.780	57.727	11.891	204.282	266.661	-44.675	190.687	0.00043427	0.00073989	0.00012622	913.84	4.3942e-06	1.6948e-06	849.03	357.44	8.5579e-06	5.0871e-06	320.53	118.15	132.8	55.51	3.7598e-06	51.807	0.0003775	0.00033384	0.00011101	947.07	4.0309e-06	3.806e-06	879.49	369	3.9955e-06	3.5597e-06	332.21	122.51	136.53	57.392	3.9199e-06	53.346	-5.972	-3.249	16.016	-73.942	26.040	62.615	-75.669	-69.196	80.893	41.180	-71.454	-66.648	-64.287	-59.021	101.206	-62.365	-8191	255	
2645.180	1	1	0	0	0.20546	0.15234	0.1462	0.48756	0.28851	0.063013	0.29435	0.11681	0.27665	0.3827	0.1595	0.094554	0.13165	0.17706	0.18314	0.22991	0	0.0041667	-0.69167	-0.21875	-0.0020833	-0.81875	0.060417	-0.425	-0.62708	0.19167	-0.74792	-0.45833	0.05625	-0.8	0.05625	-0.46458	191.156	242.319	174.162	227.982	182.461	80.368	235.686	42.135	-44.016	160.353	166.835	141.939	-63.180	16.297	-66.778	182.897	0.00037487	0.00036389	9.0375e-05	904.18	3.6302e-06	2.8386e-06	838.18	356.97	5.4214e-06	3.9126e-06	320.05	119.35	133.49	56.154	2.2515e-06	51.675	0.00030411	0.00026882	8.9349e-05	930.07	2.834e-06	2.8108e-06	863.27	366.43	2.8229e-06	2.7576e-06	329.58	122.26	136.71	57.842	3.4724e-06	53.13	-4.123	-13.733	11.955	-73.805	57.830	49.788	-76.023	-68.927	80.955	56.018	-71.673	-67.001	-64.353	-59.185	49.318	-62.480	-8191	255	
2645.277	1	1	0	0	0.15875	0.23277	0.078582	0.30019	0.29212	0.10682	0.12543	0.40794	0.14983	0.016572	0.16541	0.071962	0.14219	0.14544	0.11642	0.064216	-0.4	0.20417	-0.62917	-0.32292	0.0375	-0.79583	-0.21458	-0.42083	-0.90833	0.21458	-0.6625	-0.61458	0.045833	-0.68958	-0.10417	-0.10208	267.378	231.870	66.025	-0.837	45.715	-75.271	190.890	-15.247	19.045	263.438	114.550	49.583	247.977	119.329	226.292	187.133	0.00049825	0.00051127	0.00016641	916.33	6.6529e-06	5.2637e-06	855.1	361.36	7.5258e-06	1.6338e-06	326.41	119.26	134.18	55.272	7.742e-06	50.627	0.00027658	0.00027972	9.0181e-05	942.28	2.9197e-06	3.3094e-06	880.77	372.25	3.2749e-06	3.6754e-06	336.56	123.15	138.31	57.376	4.6985e-06	52.397	-18.017	30.525	5.138	-73.825	16.086	71.137	-75.909	-69.233	50.125	97.772	-71.914	-67.135	-64.486	-59.318	68.991	-62.756	-8191	255	
2645.373	1	1	0	0	0.24663	0.10979	0.020284	0.071972	0.11854	0.27256	0.095187	0.11775	0.079369	0.038355	0.11641	0.063626	0.3316	0.080312	0.22695	0.24666	-0.09375	0.12917	-0.49583	-0.62083	-0.05	-0.6625	-0.23958	-0.15833	-0.625	0.19375	-0.49583	-0.40208	0.0020833	-0.7	-0.24375	0.033333	-85.147	-4.860	189.989	45.167	151.380	-50.447	248.828	172.857	200.449	265.920	158.088	79.001	257.434	170.190	256.466	-65.102	0.00045177	0.0008322	0.00018416	946.85	4.2956e-06	3.2075e-06	887.98	372.69	4.0708e-06	6.5425e-06	334.68	120.01	135.92	54.961	1.1036e-05	49.884	0.00041983	0.00053594	0.00017553	987.51	7.292e-06	1.0147e-05	940.35	391.47	9.7683e-06	1.1124e-05	355.47	127.09	142.25	57.891	7.69e-06	52.199	-8.770	-1.782	-21.275	-74.009	160.073	105.097	-75.757	-69.095	84.070	26.494	-71.342	-66.869	-64.589	-59.217	37.984	-62.665	-8191	255	
2645.493	1	1	0	0	0.26871	0.24439	0.26124	0.32961	0.1135	0.13906	0.25717	0.29514	0.21346	0.19017	0.056851	0.086378	0.22838	0.25795	0.089232	0.072949	-0.44792	0.29583	-0.43958	-0.60208	0.24375	-0.75417	-0.31042	-0.12917	-0.99167	0.1375	-0.1875	-0.69792	0.20208	-0.64375	-0.51667	0.3625	142.836	127.423	96.739	212.084	214.674	-46.343	132.599	256.634	63.662	262.633	55.812	270.907	-29.295	253.169	-76.775	231.992	0.00044563	0.00041151	0.00023641	949.3	2.583e-06	4.3718e-06	887.9	371.98	3.9317e-06	4.4658e-06	332.4	119.27	135.66	54.329	6.8204e-06	48.933	0.00056156	0.00064322	0.00015755	983.7	5.6794e-06	6.9878e-06	923.32	384.82	6.7253e-06	8.0472e-06	348.7	125.27	142.05	57.419	8.2935e-06	51.749	-0.263	74.837	-40.055	-73.959	15.334	-28.524	-75.885	-69.135	141.661	93.926	-71.688	-66.915	-64.611	-59.362	2.190	-62.781	-8191	255	
2645.588	1	1	0	0	0.30744	0.1859	0.37336	0.34483	0.077705	0.1229	0.13586	0.057928	0.25571	0.33834	0.13966	0.19051	0.30081	0.13247	0.15647	0.11001	-0.28125	-0.016667	-0.21875	-0.73958	0.05	-0.6375	-0.22083	0.0625	-0.66458	-0.10833	-0.12917	-0.80417	0.089583	-0.4875	-0.52292	0.21667	235.552	-79.487	-45.511	114.376	41.538	-21.091	31.225	181.565	203.690	234.791	266.222	90.336	-56.599	-66.145	101.528	173.944	0.00038519	0.00043217	0.0001059	962.22	3.8963e-06	5.1115e-06	893.78	374.74	3.7715e-06	1.0624e-05	333.28	116.66	134.57	53.059	1.2347e-06	46.948	0.00079273	0.00090647	0.00022017	1007	9.3296e-06	1.0318e-05	943.23	391.44	1.0378e-05	1.1055e-05	354.21	124.71	142.79	56.219	9.1538e-06	49.864	-35.703	-21.308	-35.270	-73.886	267.937	4.514	-76.022	-69.306	200.358	50.046	-71.938	-67.216	-64.972	-59.431	112.393	-63.053	-8191	255	
2645.684	1	1	0	0	0.23279	0.11683	0.085809	0.39794	0.11908	0.0083181	0.2009	0.32946	0.054778	0.19831	0.075785	0.12359	0.06925	0.072121	0.26372	0.098432	-0.49583	0.020833	0.075	-0.7875	0.12708	-0.44375	-0.67708	-0.052083	-0.6	-0.33958	0.26042	-0.78333	-0.04375	-0.48333	-0.6625	0.12917	132.158	161.163	8.111	192.661	123.577	-18.003	-22.486	197.936	144.658	197.223	158.269	37.104	92.696	82.657	122.228	-73.332	0.00051407	0.0013809	8.2142e-05	970.86	4.5192e-06	8.7486e-06	899.14	375.52	6.7862e-06	7.6253e-06	332.71	116.71	134.66	53.12	3.0649e-06	47.526	0.00091241	0.00092642	0.0002178	1018	1.0036e-05	9.3121e-06	941.77	390.78	8.8587e-06	8.0528e-06	348.54	123.1	141.72	55.805	8.0248e-06	50.362	-33.234	-20.648	-24.255	-73.997	98.170	54.730	-76.018	-69.203	264.368	53.434	-72.184	-67.224	-64.687	-59.549	67.856	-62.907	-8191	255	
2645.804	1	1	0	0	0.18612	0.096148	0.35395	0.25107	0.20122	0.41721	0.11893	0.34065	0.24037	0.11081	0.33114	0.13035	0.096697	0.16261	0.058902	0.097163	-0.275	-0.095833	-0.010417	-0.96667	0.19583	-0.29792	-0.65625	0.13333	-0.52708	-0.30417	0.0125	-0.8375	0.097917	-0.44167	-0.51667	0.16667	252.890	159.010	256.422	22.695	-70.107	267.368	222.830	-85.279	115.701	-28.936	157.116	42.094	265.607	242.992	118.098	219.106	0.0003126	0.00083674	8.8059e-05	976.35	3.8452e-06	8.4765e-06	908.8	377.88	3.8159e-06	6.1553e-06	335.07	118.03	135.45	53.5	8.3375e-06	47.815	0.00093641	0.00091394	0.00023273	1029.3	1.2641e-05	1.132e-05	959.49	398.84	1.3271e-05	1.1703e-05	356.94	127.83	144.86	56.773	9.8265e-06	51.652	24.249	-16.531	16.955	-73.823	8.136	18.126	-75.794	-69.252	76.270	32.759	-71.799	-66.849	-64.695	-59.258	101.000	-62.889	-8191	255	
2645.876	1	1	0	0	0.089128	0.25608	0.17855	0.26721	0.35762	0.2776	0.17158	0.15599	0.087225	0.033287	0.2176	0.37689	0.096769	0.066028	0.13108	0.18067	-0.1375	-0.22083	0.15417	-0.62708	-0.14375	-0.2125	-0.9125	-0.15625	-0.325	-0.52292	0.20208	-0.78958	-0.21875	-0.13125	-0.84583	0.11667	143.233	-50.065	54.125	210.337	-45.294	-52.046	226.902	196.093	103.181	182.860	13.572	-69.733	166.055	224.550	205.331	138.681	0.00028575	0.00039772	6.7421e-05	969.93	4.6747e-06	5.2278e-06	899.22	372.43	6.1525e-06	6.0165e-06	332.97	118.55	135.1	53.774	8.9127e-06	48.781	0.00096887	0.00085331	0.00020824	1017.9	1.0179e-05	8.8258e-06	943.02	393.1	1.073e-05	9.9253e-06	353.62	127.85	143.77	57.031	9.8725e-06	52.97	-11.150	23.060	2.635	-74.082	13.566	21.200	-75.745	-69.186	9.435	28.314	-71.739	-66.819	-64.566	-59.087	194.562	-62.509	-8191	255	
2645.972	1	1	0	0	0.092985	0.13714	0.23154	0.36358	0.24183	0.26094	0.073282	0.27504	0.346	0.1084	0.35442	0.22908	0.20115	0.10587	0.19854	0.18835	-0.13542	-0.46667	0.32292	-0.77708	-0.010417	0.10625	-0.92708	-0.079167	-0.32708	-0.62292	0.058333	-0.69167	-0.42708	0.05	-0.73542	-0.17083	157.957	11.757	16.193	-83.820	233.773	-52.723	-34.897	194.100	270.042	198.576	241.084	229.908	225.691	244.325	-77.309	254.362	0.0004977	0.0011391	0.00013796	963.67	9.4481e-06	3.7254e-06	900.36	374.14	1.6422e-05	2.1674e-06	332.91	119.34	136.28	54.822	8.7788e-06	49.594	0.0010153	0.0009869	0.00027056	1030.9	1.3809e-05	1.3219e-05	965.02	405.87	1.9417e-05	2.014e-05	379.28	140.21	154.94	61.322	2.8852e-05	60.722	-23.773	-19.290	67.571	-73.734	0.676	51.414	-75.813	-69.206	79.421	-55.474	-71.778	-66.876	-64.200	-59.071	166.044	-62.832	-8191	255	
2646.093	1	1	0	0	0.080718	0.071537	0.21234	0.20376	0.10674	0.3147	0.21428	0.061407	0.15847	0.18886	0.059598	0.14586	0.13387	0.13646	0.18964	0.21725	0.08125	-0.76458	0.36667	-0.85208	-0.33958	0.25	-0.97292	-0.25208	0.070833	-0.74583	0.10208	-0.675	-0.45208	0.11875	-0.87083	-0.079167	-80.047	67.254	144.420	182.190	71.739	243.972	133.053	170.187	81.646	197.822	133.086	149.664	-28.688	148.899	223.675	140.623	0.00013014	0.00096732	0.00031497	973.74	8.6229e-06	6.826e-06	901.23	374.68	2.6854e-05	1.1734e-06	332.61	121.54	137.16	55.399	2.7566e-05	50.917	0.0027867	0.0029015	0.00087766	1140.2	4.0548e-05	3.9711e-05	1094.2	459.61	5.4552e-05	5.68e-05	469.95	174.3	182.37	70.839	7.5329e-05	75.738	68.362	-60.465	133.729	-73.814	70.633	50.243	-75.890	-69.164	53.473	58.621	-71.552	-66.943	-64.344	-58.949	199.612	-62.413	-8191	255	
2646.189	1	1	0	0	0.057593	0.090613	0.14607	0.29792	0.085479	0.27978	0.31015	0.30147	0.14584	0.19042	0.10686	0.12117	0.32063	0.28254	0.26072	0.41445	0.066667	-0.775	0.22917	-0.59792	-0.36667	0.11042	-0.68542	-0.2	0.0625	-0.6375	0.01875	-0.50208	-0.6875	0.12292	-0.58333	-0.26875	19.866	226.015	204.174	221.199	-74.071	152.236	214.651	165.363	47.785	57.616	66.121	60.453	199.525	214.006	7.868	263.291	0.0006157	0.00075445	0.00091286	979.17	9.6572e-06	1.7024e-05	908.58	374.27	1.535e-05	4.5324e-06	333.46	121.69	137.46	55.356	2.9064e-05	51.257	0.0059227	0.0060372	0.0019016	1270.1	6.8463e-05	6.4174e-05	1211.5	487.05	7.0423e-05	7.3704e-05	517.81	182.68	190.35	74.134	9.4888e-05	79.317	8.982	-73.314	137.323	-73.958	16.259	174.796	-75.626	-68.875	22.274	191.053	-71.490	-66.260	-64.282	-59.056	220.250	-62.285	-8191	255	
2646.285	1	1	0	0	0.10004	0.25839	0.13434	0.031272	0.19524	0.04546	0.14556	0.10443	0.29698	0.13517	0.098863	0.33008	0.20584	0.18361	0.079659	0.13868	0.3875	-0.71042	0.047917	-0.3375	-0.73542	0.23333	-0.7125	-0.525	0.15	-0.72292	-0.0625	-0.44583	-0.72292	-0.30208	-0.46458	-0.62708	34.604	209.285	95.563	-80.548	237.890	-63.665	204.369	212.536	-43.650	96.348	44.870	218.583	237.649	201.309	272.457	39.125	0.00040592	0.0017653	0.00071035	980.51	1.2157e-05	3.7782e-05	909.7	374.49	9.8589e-06	1.8157e-05	333.18	121.47	137.28	54.903	3.6212e-06	50.623	0.0068331	0.0073929	0.0023614	1294.9	7.5616e-05	7.4196e-05	1239.7	482.51	6.7348e-05	7.3252e-05	508.15	172.59	182.93	72.767	8.297e-05	73.477	13.536	157.795	118.391	-73.731	-44.468	194.973	-75.855	-69.110	13.940	197.015	-71.627	-66.551	-64.666	-59.031	-4.377	-62.815	-8191	255	
2646.381	1	1	0	0	0.37198	0.081729	0.16994	0.21549	0.17561	0.0072573	0.27356	0.15026	0.095458	0.29176	0.16062	0.21454	0.086458	0.072999	0.10839	0.29632	0.5125	-0.50208	-0.15833	-0.27292	-0.76667	0.21458	-0.65208	-0.60208	0.21875	-0.6875	-0.43958	-0.14375	-1.1792	0.052083	-0.6625	-0.62083	253.464	104.051	-34.212	-86.433	131.451	-29.523	216.828	-31.384	-60.677	8.863	198.347	162.903	192.949	97.669	219.579	-29.521	0.00045883	0.0043954	0.0008312	971.59	7.3946e-06	2.7338e-05	903.26	369.8	6.2508e-06	1.4286e-05	331.1	119.55	135.71	54.795	2.0004e-05	49.936	0.0056941	0.0067536	0.0020432	1234.4	6.5179e-05	7.0846e-05	1186	463.33	5.8245e-05	6.8741e-05	476.32	162.19	174.61	71.029	6.6583e-05	69.237	239.515	117.179	-10.902	-73.778	-19.368	192.833	-75.722	-68.990	181.793	204.884	-71.549	-66.838	-64.236	-58.940	46.744	-62.690	-8191	255	
2646.478	1	1	0	0	0.18568	0.2596	0.16573	0.18289	0.24451	0.21199	0.19184	0.62716	0.15968	0.30427	0.077383	0.069674	0.39697	0.20956	0.15222	0.17539	0.68542	-0.74167	-0.16875	-0.045833	-0.70208	0.0875	-0.61875	-0.70625	0.089583	-0.79167	-0.30833	-0.18125	-0.93542	-0.19583	-0.32708	-0.8	259.974	106.552	272.329	271.738	100.997	225.556	263.157	222.449	84.509	-50.392	11.055	-42.161	236.937	249.406	137.425	-16.841	0.00081924	0.0016428	0.00074876	966.17	1.681e-05	1.2994e-05	896.86	368.59	2.3187e-05	8.3519e-06	331.34	119.74	134.95	54.849	2.1055e-05	50.016	0.0049336	0.0062639	0.0016924	1187.6	5.6568e-05	6.5632e-05	1127.7	447.79	5.1193e-05	6.1417e-05	446.27	154.03	168.76	68.83	5.06e-05	65.011	-25.076	129.841	-25.792	-73.900	185.343	233.585	-75.649	-68.948	258.521	-21.841	-71.355	-66.593	-64.248	-58.783	26.447	-62.140	-8191	255	
2646.572	1	1	0	0	0.039021	0.2283	0.087197	0.1873	0.12211	0.13457	0.26496	0.21606	0.19666	0.13618	0.35931	0.20509	0.14984	0.15755	0.16051	0.2701	0.53542	-0.65	-0.12917	-0.01875	-0.91042	0.0125	-0.43125	-1.0542	0.34792	-0.61875	-0.3625	0.058333	-1.0896	-0.24583	0.010417	-0.64792	107.250	71.999	-18.345	247.139	161.315	101.639	-57.735	133.208	204.280	164.283	135.779	2.337	-47.980	217.178	259.367	152.812	0.0014979	0.0014997	0.00055483	964.45	1.3289e-05	3.9602e-06	893.96	368.55	3.1031e-05	1.8947e-05	330.3	119.13	134.9	54.793	1.7735e-05	50.135	0.0041295	0.0050947	0.0012652	1137.1	4.7456e-05	5.3839e-05	1072.9	431.79	4.4737e-05	5.002e-05	420.95	147.2	164.38	66.26	3.8935e-05	62.292	-29.867	51.431	-35.009	-73.917	207.568	225.002	-75.489	-68.776	219.162	47.697	-71.515	-66.450	-63.985	-58.848	21.322	-62.512	-8191	255	
2646.668	1	1	0	0	0.3585	0.067114	0.17628	0.30675	0.050387	0.27989	0.090763	0.17846	0.033942	0.15777	0.25235	0.10134	0.10009	0.018041	0.065256	0.36774	0.41875	-0.47708	-0.69583	0.10417	-0.89583	-0.29583	-0.39375	-0.92917	0.075	-0.51042	-0.46875	-0.064583	-0.75833	-0.39792	-0.09375	-0.825	34.118	77.019	109.553	226.125	269.708	65.761	-78.630	-55.793	25.935	44.942	212.109	215.084	-69.043	41.730	12.507	181.342	0.0012016	0.0013179	0.0002542	961.05	2.1606e-05	1.9299e-05	897.09	370.97	1.207e-05	1.7831e-05	332.66	120.96	135.83	54.919	1.214e-05	50.618	0.0036429	0.0040191	0.0010004	1110.1	4.3133e-05	4.4908e-05	1049.5	427.8	4.3787e-05	4.3723e-05	416.57	147.53	166.1	65.779	3.7136e-05	62.865	-42.777	-39.739	15.669	-73.689	147.807	15.759	-75.514	-68.874	-52.565	45.575	-71.418	-66.708	-64.203	-58.964	16.503	-62.137	-8191	255	
2646.766	1	1	0	0	0.19451	0.15655	0.32398	0.12904	0.026812	0.12536	0.028041	0.2243	0.10892	0.07792	0.13407	0.1137	0.28328	0.13005	0.2133	0.11964	0.31875	-0.20625	-0.62917	0.175	-0.69583	-0.3375	-0.22917	-0.82083	-0.029167	-0.45625	-0.77292	0.016667	-0.71875	-0.47917	-0.047917	-0.98125	5.806	248.428	253.312	198.825	170.868	70.982	97.948	96.443	177.066	-60.368	165.886	63.274	152.182	-54.355	240.792	267.316	0.00044762	0.002352	0.00038382	970.57	4.2756e-06	1.2667e-05	904.35	373.34	1.9004e-05	8.6751e-06	335.36	119.91	137.49	55.213	2.0818e-05	50.582	0.0039607	0.0039145	0.0010214	1128.7	4.8175e-05	4.5415e-05	1062.7	436.82	4.966e-05	4.46e-05	423.68	151.67	170.57	66.288	3.943e-05	64.492	-24.801	-34.810	51.124	-73.563	38.022	-13.950	-75.751	-68.896	220.900	37.533	-71.612	-66.503	-64.012	-58.765	56.708	-62.450	-8191	255	
2646.885	1	1	0	0	0.23601	0.2177	0.13582	0.07183	0.19276	0.14912	0.18323	0.13104	0.13115	0.42624	0.060458	0.13462	0.16645	0.10367	0.14473	0.18746	0.19583	-0.22292	-0.77917	0.22083	-0.51042	-0.52917	0.077083	-0.97292	-0.029167	-0.0375	-0.71667	-0.09375	-0.61042	-0.66875	-0.027083	-0.91875	137.663	88.073	137.482	181.984	-15.329	-65.965	201.939	220.278	91.627	-67.151	70.018	167.674	147.763	186.890	254.777	211.206	0.00050128	0.0011441	0.00030508	967.22	1.205e-05	1.3508e-05	898.19	373.73	2.0281e-05	1.4525e-05	336.08	120.89	137.86	55.449	1.0734e-05	50.408	0.0043333	0.0038897	0.0010418	1146.9	4.9088e-05	4.411e-05	1062.2	443.73	5.0736e-05	4.3879e-05	425.32	155.67	170.63	66.458	4.009e-05	66.139	-5.131	-15.999	29.194	-74.165	49.657	-6.255	-76.057	-69.256	84.265	8.988	-71.401	-66.812	-64.380	-59.296	-53.058	-62.455	-8191	255	
2646.981	1	1	0	0	0.24574	0.20351	0.33129	0.18163	0.17375	0.11014	0.23647	0.23569	0.16417	0.056829	0.19528	0.181	0.11707	0.1171	0.2104	0.35795	0.13542	-0.17292	-0.82083	-0.014583	-0.55208	-0.475	-0.1375	-0.80833	-0.05625	-0.022917	-0.71875	-0.054167	-0.28542	-0.82292	0.19583	-0.88125	260.427	102.000	257.437	-45.733	71.951	-6.595	73.201	181.263	-68.860	189.902	184.312	170.748	211.034	-7.369	-19.812	258.279	0.00054752	0.00030734	0.00023702	974.78	1.1538e-05	1.1039e-05	902.3	376.48	1.7039e-05	1.0347e-05	338.32	121.78	137.84	55.279	1.382e-05	51.095	0.0042418	0.0037187	0.0010085	1154.5	4.3426e-05	3.9142e-05	1050	441.35	4.119e-05	3.444e-05	409.11	149.47	160.25	63.145	2.8647e-05	62.289	20.076	-75.837	12.619	-74.077	-24.482	33.020	-75.895	-69.250	81.168	42.979	-71.610	-66.924	-64.573	-59.129	198.746	-62.333	-8191	255	
2647.077	1	1	0	0	0.16671	0.16104	0.20468	0.29884	0.32573	0.08581	0.31561	0.20361	0.12126	0.31744	0.20257	0.25609	0.12382	0.15162	0.089662	0.25896	0.14792	0.035417	-0.90833	-0.15625	-0.2375	-0.84792	-0.10833	-0.60208	-0.65417	0.0020833	-0.96667	-0.17083	-0.25625	-0.76042	-0.15	-0.89792	-59.838	58.392	131.753	237.399	159.671	206.248	173.214	123.544	95.826	-50.013	260.459	209.129	219.171	-11.399	247.487	-83.559	0.00015531	0.001568	0.00022206	972.79	1.3149e-05	4.2749e-06	907.04	378.64	2.0731e-05	1.3738e-05	339.61	123.23	138.47	55.739	1.1231e-05	51.421	0.0027748	0.002513	0.00074226	1115.2	3.0481e-05	2.9234e-05	1031.1	431.67	3.1603e-05	2.8213e-05	407.42	148.88	159.01	63.213	3.0672e-05	62.438	58.390	-10.338	92.739	-73.973	18.545	244.829	-76.046	-69.149	40.783	59.343	-71.690	-66.876	-64.397	-58.998	-83.642	-62.005	-8191	255	
2647.173	1	1	0	0	0.17069	0.36716	0.053182	0.14291	0.28621	0.28755	0.13512	0.15904	0.22264	0.3036	0.23907	0.20676	0.36445	0.19661	0.039348	0.12848	-0.18333	0.19167	-0.69375	-0.1875	-0.15833	-0.76042	-0.060417	-0.57083	-0.63958	0.11458	-0.75	-0.058333	-0.097917	-0.91875	0.26042	-0.59792	232.598	-34.856	227.151	-44.304	-73.283	95.333	187.558	231.622	-23.298	-62.032	268.018	255.967	206.345	243.488	119.285	250.474	6.3446e-05	0.0012706	0.0005065	982.25	5.679e-06	1.2084e-05	916.13	379.98	1.5078e-05	6.3082e-06	342.42	123.71	138.14	55.584	1.8631e-05	50.965	0.0026852	0.0025121	0.00081525	1123.4	2.9117e-05	2.8663e-05	1046.9	431.57	3.0538e-05	2.8435e-05	415.04	149.16	159.33	63.488	3.5616e-05	62.139	-62.270	-35.212	123.023	-73.950	-39.826	13.416	-75.717	-69.322	43.299	190.593	-71.831	-66.866	-64.423	-59.066	187.488	-62.413	-8191	255	
2647.269	1	1	0	0	0.33355	0.048667	0.15503	0.35003	0.14998	0.072742	0.31988	0.075314	0.40396	0.28501	0.21358	0.1409	0.19926	0.22391	0.26191	0.10712	-0.11042	0.2125	-0.61667	-0.34167	-0.01875	-0.66458	-0.039583	-0.48958	-0.7	0.21042	-0.78333	-0.1875	-0.26875	-0.80833	0.10417	-0.63542	169.601	-7.256	-26.565	223.565	223.834	-48.858	217.896	175.420	-11.916	190.839	79.275	252.193	253.362	-4.052	-84.492	35.644	0.00036193	0.00088739	7.3805e-05	985.79	5.5947e-06	4.0817e-06	913.95	379.38	1.1354e-05	8.0877e-06	338.81	120.75	137.54	54.694	9.216e-06	49.91	0.002854	0.0027801	0.00094772	1129.8	3.1202e-05	3.1782e-05	1063.8	430.47	3.1258e-05	3.0472e-05	416.47	145.68	157.51	62.874	3.6524e-05	60.454	-38.556	59.443	104.270	-74.024	147.676	63.958	-75.908	-69.286	55.155	152.876	-71.607	-67.095	-64.493	-59.005	204.700	-62.329	-8191	255	
2647.366	1	1	0	0	0.13303	0.25017	0.21597	0.38215	0.2168	0.12251	0.21461	0.20688	0.10907	0.2156	0.10456	0.1771	0.36897	0.13815	0.16728	0.098538	-0.29167	-0.060417	-0.53333	-0.68958	0.12083	-0.83333	-0.24167	-0.54792	-0.69375	0.010417	-0.74792	-0.54167	-0.10625	-0.69375	-0.2125	-0.24167	262.476	248.333	-40.863	219.700	-36.114	233.908	203.107	198.773	104.049	208.547	231.085	160.394	245.416	55.438	135.602	157.916	0.00045079	0.0020009	0.0002407	983.26	7.342e-06	2.1535e-05	915.63	378.54	7.1248e-06	7.9096e-06	338.58	120.45	137.22	54.406	9.0295e-06	49.538	0.0027517	0.0029578	0.00097566	1125	3.0923e-05	3.4962e-05	1072.7	429.62	3.218e-05	3.4609e-05	419.21	145.14	157.43	63.167	3.6648e-05	59.632	26.130	135.608	-63.861	-74.088	27.414	215.422	-76.019	-68.836	-1.400	216.402	-71.353	-67.148	-64.431	-59.093	76.366	-62.421	-8191	255	
2647.486	1	1	0	0	0.044432	0.21064	0.13959	0.26497	0.17236	0.22901	0.22986	0.19106	0.15761	0.19833	0.088672	0.28085	0.42685	0.23381	0.15579	0.076656	-0.41667	0.18958	-0.45	-0.85208	-0.01875	-0.94375	-0.25625	-0.2125	-0.85208	0.041667	-0.80833	-0.57083	0.03125	-0.84792	-0.29375	-0.14583	229.223	139.663	250.152	233.310	107.520	42.886	201.588	-17.171	-9.470	176.601	269.415	218.265	-40.929	-47.110	98.442	231.018	0.00044969	0.00081375	0.00036405	983.64	3.4435e-06	6.6336e-06	918.04	377.93	1.3574e-05	5.4434e-06	339.77	121.1	137.25	54.341	1.6006e-05	49.685	0.0027132	0.0031803	0.00091917	1118.9	2.9931e-05	3.6596e-05	1065	426.27	3.1623e-05	3.7099e-05	415.18	145.03	158.33	64.018	3.6312e-05	59.858	12.449	84.572	-26.293	-73.875	183.790	177.390	-75.842	-69.048	-43.898	241.401	-71.508	-66.931	-64.509	-59.170	32.477	-62.091	-8191	255	
2647.581	1	1	0	0	0.221	0.17073	0.06496	0.19913	0.049652	0.037615	0.24366	0.33841	0.20141	0.21326	0.068496	0.081745	0.10614	0.21946	0.19323	0.16402	-0.51667	-0.0083333	-0.35417	-0.80625	0.17708	-0.66875	-0.44583	-0.15417	-0.88333	0.095833	-0.49792	-0.87917	0.070833	-0.9125	-0.38125	-0.066667	170.046	210.580	-45.290	-54.987	-24.420	-73.468	-28.515	225.048	262.862	190.362	-65.711	149.063	161.344	-43.668	227.011	223.649	0.00079375	0.00061198	0.00041376	987.8	1.1996e-05	9.9806e-06	925.48	379.06	1.5387e-05	2.0102e-06	340.28	120.24	135.81	53.834	1.6384e-05	48.584	0.0028935	0.0035643	0.00091633	1125.8	3.2896e-05	4.0173e-05	1069.4	427.93	3.5216e-05	4.14e-05	414.49	145.62	160.33	64.1	3.6494e-05	59.164	-34.398	230.109	-18.173	-73.873	183.174	233.721	-75.989	-69.079	241.722	270.389	-71.525	-66.904	-64.563	-59.050	44.554	-62.546	-8191	255	
2647.677	1	1	0	0	0.18162	0.16804	0.34195	0.42891	0.16042	0.1383	0.3411	0.1306	0.12509	0.18469	0.2795	0.14618	0.17891	0.2343	0.26702	0.19899	-0.43333	-0.039583	-0.00625	-0.55833	0.35417	-0.56458	-0.5875	-0.18542	-0.56458	-0.29375	-0.23542	-0.76458	0.066667	-0.49792	-0.40625	0.34792	-44.228	185.386	199.608	267.999	151.773	189.719	222.693	140.210	242.768	157.878	-33.431	269.842	265.867	255.862	-25.154	201.847	0.00089108	0.0015365	0.00028711	990.16	1.5878e-05	1.3877e-05	912.81	373.08	2.8044e-05	8.9307e-06	331.32	117.89	134.19	52.713	3.0367e-06	47.461	0.0032044	0.0036944	0.00087766	1123.3	3.5534e-05	3.9021e-05	1050.6	420.22	3.603e-05	3.8142e-05	399.1	140.61	158.3	61.749	3.2033e-05	57.034	-32.758	17.205	-86.666	-74.007	196.470	41.673	-75.700	-69.211	261.027	-21.467	-71.396	-66.874	-64.390	-58.974	116.682	-62.525	-8191	255	
2647.773	1	1	0	0	0.21062	0.092968	0.24187	0.11697	0.16052	0.2824	0.11201	0.22511	0.14212	0.35879	0.2905	0.31834	0.2538	0.029819	0.22695	0.13666	-0.48333	-0.064583	0.020833	-0.84583	0.36042	-0.30208	-0.59583	-0.17292	-0.85625	-0.27708	0.11042	-1.0187	-0.039583	-0.52083	-0.63958	0.26667	165.171	116.013	255.962	257.933	34.844	-29.777	251.095	239.463	187.092	-6.558	226.835	227.538	12.773	206.486	161.680	264.461	0.00079094	0.0015094	0.00028545	979.69	7.8341e-06	1.5142e-05	907.82	372.73	5.1747e-06	1.3125e-05	327.88	116.45	133.87	52.45	9.0507e-06	47.061	0.0030879	0.0031838	0.0007491	1103.8	3.36e-05	3.2328e-05	1028	414.89	3.3268e-05	3.1587e-05	387.13	137.43	156.21	59.955	2.7258e-05	56.035	-37.058	-25.926	0.433	-73.981	133.761	69.282	-75.693	-69.099	148.340	10.994	-71.622	-66.967	-64.354	-59.167	36.025	-62.280	-8191	255	
2647.869	1	1	0	0	0.3085	0.083034	0.16461	0.313	0.085957	0.17346	0.092441	0.097045	0.19733	0.30041	0.17115	0.21736	0.27688	0.22655	0.23939	0.22026	-0.375	-0.027083	0.058333	-0.98542	0.085417	-0.525	-0.83125	-0.025	-0.31667	-0.475	0.10417	-0.925	-0.066667	-0.225	-0.65417	0.039583	240.975	82.989	-52.273	168.337	-81.829	257.704	107.241	109.691	43.977	199.857	-77.916	256.098	140.951	-41.069	-41.737	215.983	0.00053896	0.0023541	0.00035633	982.97	5.5134e-06	1.1796e-05	908.22	372.86	5.7521e-06	6.8691e-06	330.82	116.49	133.69	51.998	3.5625e-06	47.195	0.0028062	0.0026336	0.00063719	1096.7	3.049e-05	2.6322e-05	1013.3	412	2.8818e-05	2.5573e-05	378.54	135.64	153.04	58.408	2.3771e-05	55.668	-9.229	-54.503	-20.642	-73.795	-48.270	40.738	-75.851	-69.158	-40.907	46.272	-71.525	-66.843	-64.208	-59.025	-16.938	-62.414	-8191	255	
2647.965	1	1	0	0	0.089285	0.049932	0.34879	0.4035	0.22929	0.26919	0.36332	0.25855	0.20634	0.12462	0.13404	0.28265	0.09012	0.35667	0.093664	0.061032	-0.13542	-0.30833	0.22708	-0.82292	-0.0020833	0.014583	-0.90625	-0.25	-0.66875	-0.56458	0.06875	-0.9375	-0.15833	-0.2125	-0.79375	0.075	-63.806	75.691	-46.414	228.355	-9.369	46.215	252.785	232.794	149.410	59.190	-8.633	-55.791	-67.545	-23.873	85.069	89.851	0.00033724	0.00095622	0.0002647	984.65	9.5241e-06	1.2125e-05	913.74	372.4	4.5981e-06	1.1423e-05	333.02	116.8	134.23	52.202	3.7122e-06	47.528	0.002556	0.0023819	0.00060284	1104.9	2.9729e-05	2.5625e-05	1018.2	416.65	2.862e-05	2.5755e-05	382.14	138.47	153.22	58.502	2.4065e-05	56.7	-70.002	-12.154	-5.249	-73.759	-5.528	-0.881	-76.057	-68.991	182.744	41.342	-71.482	-66.935	-64.665	-59.033	-42.018	-62.060	-8191	255	
2648.061	1	1	0	0	0.15367	0.21601	0.026004	0.28609	0.19892	0.24344	0.12902	0.46585	0.12111	0.20801	0.11159	0.18746	0.045232	0.18938	0.025654	0.20249	-0.1875	-0.60417	0.26458	-0.91667	-0.16458	0.04375	-1.05	-0.15833	-0.525	-0.84167	0.13333	-0.77708	-0.2375	-0.17083	-0.75833	-0.17292	26.483	251.441	98.725	229.207	93.091	153.202	47.170	-80.517	-71.016	-31.640	144.523	243.816	202.266	-42.363	35.328	74.368	0.00035577	0.0015869	0.00024336	985.98	1.564e-05	1.4408e-05	918.53	374.5	1.5899e-05	3.0863e-06	334.03	118.39	134.37	52.351	1.0454e-05	47.813	0.0023803	0.0022854	0.00060294	1110.4	2.7879e-05	2.479e-05	1024.9	420.96	2.8207e-05	2.6848e-05	389.9	141.61	154.34	59.301	2.7841e-05	58.183	20.125	-80.375	52.120	-73.822	50.391	46.741	-75.434	-68.964	47.151	111.498	-71.601	-66.817	-64.336	-58.824	178.673	-62.544	-8191	255	
2648.182	1	1	0	0	0.31326	0.051505	0.25154	0.27665	0.1821	0.32663	0.20523	0.20427	0.16103	0.26765	0.11308	0.35502	0.1408	0.11573	0.16143	0.065903	0.09375	-0.76875	0.077083	-0.63333	-0.27292	0.13333	-0.87292	-0.1625	-0.35417	-0.69167	0.05	-0.50625	-0.74167	0.045833	-0.8375	-0.14792	23.257	255.142	206.225	225.830	172.533	154.106	-69.199	227.600	91.870	-59.596	151.087	220.049	102.449	97.977	258.967	137.164	0.00027286	0.0013756	0.00042266	992.4	9.259e-06	2.4057e-06	919.15	374.41	7.7272e-06	9.8543e-06	332.14	117.54	134.34	52.486	1.6192e-05	47.493	0.0024314	0.0024152	0.00069069	1119	2.7403e-05	2.4406e-05	1032	420.76	2.5509e-05	2.4798e-05	389.58	138.73	151.98	58.511	2.7425e-05	56.806	15.101	2.183	158.092	-73.429	36.633	145.604	-75.587	-69.032	21.611	57.496	-71.491	-66.910	-64.392	-59.128	192.320	-62.204	-8191	255	
2648.278	1	1	0	0	0.29102	0.12021	0.13586	0.12011	0.16243	0.16039	0.079888	0.15383	0.16498	0.11678	0.22446	0.18099	0.21662	0.25845	0.17787	0.078174	0.19792	-0.78542	0.15625	-0.60625	-0.525	0.175	-0.825	-0.26667	-0.05625	-0.73125	-0.19375	-0.22708	-0.85	0.0875	-0.80417	-0.23333	-13.471	74.858	-12.214	-86.916	32.093	173.729	120.931	238.623	14.388	-7.498	183.823	235.591	-72.584	236.376	134.620	268.815	0.00042421	0.00039653	0.00023466	989.18	4.1529e-06	4.1344e-06	919.67	376.33	4.4903e-06	4.332e-06	336.36	117.82	135.03	52.682	5.5319e-06	47.756	0.0021635	0.0022061	0.0007007	1106.8	2.5042e-05	2.3118e-05	1032.9	418.7	2.3354e-05	2.3348e-05	392.09	136.81	151.04	58.234	2.593e-05	55.356	18.487	238.198	114.552	-73.558	16.669	7.550	-75.465	-68.997	131.805	136.300	-71.405	-66.643	-64.442	-58.708	133.381	-62.287	-8191	255	
2648.350	1	1	0	0	0.12715	0.16832	0.11976	0.20225	0.24609	0.27059	0.22973	0.32556	0.2834	0.16315	0.20854	0.19358	0.10184	0.15258	0.045777	0.063813	0.23542	-0.77917	-0.0125	-0.40833	-0.72917	0.10625	-0.81042	-0.53958	0.19375	-1.0125	-0.027083	-0.30417	-0.79792	0.027083	-0.59583	-0.50417	258.856	0.425	243.797	211.921	125.163	241.377	139.428	166.368	-7.701	41.058	-4.082	184.891	-22.919	173.774	152.040	-46.875	0.00045884	0.0012414	0.00022799	996.03	7.0408e-07	8.9251e-06	922.58	379.46	1.1211e-05	5.5116e-06	337.71	119.03	135.04	52.613	9.0403e-06	47.893	0.0018339	0.00196	0.00063099	1090.9	2.0576e-05	2.0363e-05	1023.7	413.28	1.9069e-05	2.0851e-05	387.49	134.28	149.21	58.353	2.327e-05	54.738	-20.010	127.598	-39.314	-73.699	185.479	164.178	-75.528	-68.979	64.422	218.663	-71.560	-66.607	-64.351	-58.835	106.715	-62.156	-8191	255	
2648.446	1	1	0	0	0.1761	0.11465	0.19465	0.21136	0.15529	0.35653	0.15838	0.081965	0.13512	0.35463	0.1332	0.063927	0.31089	0.072993	0.19825	0.025406	0.5	-0.65417	-0.079167	-0.31875	-0.64375	0.095833	-0.68333	-0.80625	0.0125	-0.89167	-0.32708	-0.24375	-0.95	-0.060417	-0.36458	-0.7625	212.604	180.237	44.627	225.150	161.497	9.133	190.336	16.771	43.047	28.297	212.255	-4.692	209.856	215.040	209.955	149.628	0.00036248	0.00098268	0.00028787	995.2	9.4298e-06	4.5203e-06	928.91	380.58	4.8056e-06	9.0112e-06	339.68	119.61	136.01	52.888	7.9718e-06	48.116	0.0016547	0.0019784	0.00060164	1085.4	1.9545e-05	2.1624e-05	1023.5	412.8	1.827e-05	2.1929e-05	387.92	134.31	149.58	58.968	2.216e-05	55.07	-0.126	118.558	-24.776	-73.488	47.564	133.970	-75.621	-69.201	18.457	217.474	-71.408	-66.672	-64.178	-58.829	57.209	-62.016	-8191	255	
2648.567	1	1	0	0	0.11814	0.030177	0.10681	0.27374	0.14886	0.19117	0.25902	0.1845	0.08935	0.068105	0.10322	0.2202	0.076041	0.25266	0.085715	0.22323	0.58333	-0.7375	-0.075	0.0375	-0.57708	0.0625	-0.55625	-0.74792	0.18333	-0.61458	-0.3	0.083333	-0.67083	-0.089583	-0.43125	-0.57708	269.433	26.826	80.934	220.457	90.251	54.369	248.017	259.153	-27.101	253.351	119.425	245.692	-76.405	234.232	140.199	193.618	0.0003961	0.0020217	0.00031088	994.18	7.7845e-06	5.727e-06	922.51	380.24	1.0328e-05	4.175e-06	341.26	119.17	136.2	53.086	2.0587e-05	48.12	0.0016747	0.0021412	0.00059054	1084.1	2.0534e-05	2.4275e-05	1022.1	414.93	2.0193e-05	2.4783e-05	388.6	134.49	150.96	59.636	2.2253e-05	55.013	-38.494	99.632	-14.334	-74.119	254.225	-73.662	-75.862	-69.273	-36.006	205.392	-72.198	-67.186	-64.780	-59.294	48.428	-62.727	-8191	255	
2648.661	1	1	0	0	0.0375	0.24687	0.07878	0.14691	0.27195	0.24692	0.15271	0.22231	0.16179	0.05232	0.2174	0.14728	0.23111	0.056289	0.29233	0.046131	0.62917	-0.55417	-0.225	-0.0375	-0.71667	0.16042	-0.4625	-0.74792	0.29167	-0.54375	-0.51458	-0.15	-0.67708	-0.19792	-0.022917	-1.0417	37.304	161.605	26.980	254.091	106.580	110.763	128.755	181.095	199.101	251.979	126.533	259.472	225.039	144.633	-0.036	203.761	0.00070058	0.00085237	0.00039203	992.94	1.0598e-05	6.639e-06	927.28	381.51	8.0713e-06	1.1471e-05	336.64	118.65	134.97	52.699	1.3448e-05	47.93	0.0018578	0.0022909	0.00057932	1085	2.2273e-05	2.5785e-05	1019.8	414.63	2.2447e-05	2.5553e-05	385.66	134	151.9	59.524	2.1775e-05	54.934	-32.746	-4.868	4.494	-74.027	185.240	73.365	-75.957	-69.363	155.727	96.654	-72.019	-66.939	-64.787	-59.402	59.446	-62.375	-8191	255	
2648.757	1	1	0	0	0.091407	0.01802	0.083799	0.2108	0.10201	0.31312	0.19039	0.20922	0.098979	0.21576	0.10285	0.36718	0.068188	0.31169	0.11533	0.32314	0.52292	-0.51667	-0.12917	-0.14167	-0.5375	-0.15208	-0.14792	-0.94792	0.2375	-0.475	-0.58125	0.10625	-0.97917	-0.16667	-0.072917	-0.85417	-46.004	-28.893	23.037	-74.011	49.807	140.379	-0.800	212.238	154.064	-85.983	235.834	-73.690	247.800	236.891	-75.663	237.301	0.00089553	0.0015131	0.00037199	998.88	6.2265e-06	1.2833e-05	930.25	381.09	3.1352e-06	9.9609e-06	339.14	118.64	135.5	53.021	7.0747e-06	48.231	0.0020929	0.0023207	0.00057821	1089.1	2.5024e-05	2.6132e-05	1022.1	416.21	2.5282e-05	2.533e-05	387.88	134.94	153.42	59.436	2.1511e-05	55.389	-33.482	-15.038	-63.614	-74.014	94.288	0.560	-75.750	-69.357	133.401	28.601	-71.828	-66.810	-64.577	-59.456	2.449	-62.572	-8191	255	
2648.853	1	1	0	0	0.3187	0.23949	0.052527	0.27557	0.27375	0.16496	0.27013	0.18954	0.13684	0.25011	0.33115	0.11431	0.13338	0.088285	0.21886	0.14355	0.475	-0.49583	-0.69583	0.19167	-0.62083	-0.25417	-0.016667	-0.79167	0.04375	-0.32708	-0.71458	0.20625	-0.70625	-0.60417	0.035417	-0.93542	113.171	-0.505	60.022	195.121	73.498	154.490	270.302	15.882	82.113	32.121	190.357	245.875	211.674	-42.537	-15.116	35.180	0.00063552	0.0017821	0.00015986	998.08	3.3598e-06	2.8298e-06	928.42	380.95	4.26e-06	1.1972e-05	340.55	119.93	136.04	53.001	1.4285e-05	48.381	0.0022832	0.0022244	0.00057253	1093.6	2.6345e-05	2.4647e-05	1019.4	417.71	2.6132e-05	2.3404e-05	387.23	136.32	154.09	59.073	2.0333e-05	55.939	-32.977	-31.757	2.554	-74.221	-61.416	62.596	-76.088	-69.451	187.027	59.000	-72.240	-67.245	-64.921	-59.345	19.550	-62.732	-8191	255	
2648.974	1	1	0	0	0.08193	0.2504	0.22376	0.23578	0.24031	0.26822	0.23379	0.28374	0.088161	0.030133	0.18093	0.077786	0.15312	0.16982	0.16554	0.057136	0.5	-0.39375	-0.71875	-0.0020833	-0.32917	-0.27917	0.21667	-0.8125	0.027083	-0.12708	-0.94583	0.20625	-0.46875	-0.47917	0.24792	-0.64583	-61.502	199.838	218.462	239.085	-17.756	49.912	-4.223	238.119	26.273	66.949	213.065	225.073	-16.374	16.416	262.769	219.142	0.00056529	0.0020708	0.00027674	997.16	1.1605e-05	8.2367e-06	936.89	381.08	5.6327e-06	7.2994e-06	341.34	119.72	136.7	52.835	1.0121e-06	48.294	0.0022577	0.0020004	0.00053565	1097.6	2.4993e-05	2.2365e-05	1020.1	419.43	2.5288e-05	2.188e-05	387.26	137.97	153.94	58.95	2.0574e-05	56.633	-4.174	-31.462	-33.082	-74.240	39.078	16.965	-76.114	-69.516	-50.268	76.035	-71.966	-66.890	-64.669	-59.339	42.191	-62.652	-8191	255	
2649.046	1	1	0	0	0.11213	0.24698	0.20814	0.18855	0.15551	0.09519	0.1592	0.36898	0.16918	0.077347	0.28738	0.044241	0.20625	0.086042	0.30567	0.15091	0.34583	-0.27083	-0.60833	-0.033333	-0.5125	-0.45	-0.05	-0.69792	-0.12292	0.00625	-0.71458	-0.075	-0.57917	-0.98333	0.275	-0.71667	21.851	46.220	168.879	-63.572	196.924	0.450	121.509	218.237	261.749	126.069	244.991	86.504	0.435	57.621	-71.414	123.899	0.00047419	0.001106	0.00027534	998.16	1.8142e-05	7.7414e-06	925.57	380.14	1.407e-05	7.6757e-06	338.69	117.91	134.36	52.231	2.9208e-06	47.719	0.0022856	0.002026	0.0005607	1109.8	2.5382e-05	2.3342e-05	1020.8	422.02	2.6106e-05	2.2773e-05	387.18	138.59	152.17	58.455	2.2182e-05	56.638	42.610	-26.156	-0.388	-74.117	31.275	7.750	-76.095	-69.331	24.447	6.032	-71.798	-67.104	-64.541	-59.258	196.397	-62.436	-8191	255	
2649.166	1	1	0	0	0.074394	0.059478	0.16472	0.17721	0.21783	0.059789	0.20098	0.1307	0.12135	0.26157	0.07981	0.072637	0.34305	0.39135	0.040151	0.048006	0.020833	0.1	-0.80417	-0.23125	-0.36458	-0.74583	0.025	-0.925	-0.2625	-0.020833	-0.95625	-0.1	-0.35833	-0.78125	-0.025	-0.66667	111.440	87.918	12.358	175.937	204.277	181.610	-20.529	203.025	-6.106	126.817	-82.315	-73.865	264.373	230.943	-11.846	42.057	0.00031645	0.00060668	0.00012065	995.08	1.3025e-05	1.4499e-05	922.05	379.18	1.3472e-05	4.7394e-06	337.42	117.88	134.21	51.909	9.57e-06	47.539	0.0021949	0.0019704	0.00057836	1108	2.3142e-05	2.1966e-05	1016.9	419.33	2.3129e-05	2.0662e-05	385.9	137.5	149.83	57.673	2.3206e-05	56.031	-7.843	252.345	167.917	-74.191	28.655	28.884	-75.982	-69.275	50.232	35.188	-71.990	-67.079	-64.664	-59.239	180.305	-62.444	-8191	255	
2649.262	1	1	0	0	0.3809	0.083697	0.061776	0.3023	0.14361	0.11145	0.01086	0.15631	0.15112	0.04289	0.048513	0.033997	0.10064	0.035986	0.043452	0.31308	-0.14792	0.066667	-0.67292	-0.26458	-0.072917	-0.94167	0.020833	-0.64375	-0.5375	0.21667	-0.82292	-0.3625	-0.12083	-0.87917	0.045833	-0.4375	23.277	-51.083	165.950	121.387	229.962	98.556	257.601	233.861	227.670	-14.882	209.791	263.913	-56.222	162.926	226.814	166.441	0.00038492	0.00020283	0.00021886	995.98	7.2795e-06	1.5387e-05	920.71	378.15	1.1075e-05	6.039e-06	337.11	118	134.36	51.577	1.1198e-05	48.045	0.0020367	0.0018792	0.00060908	1103.1	2.1431e-05	2.0788e-05	1020.2	415.93	2.123e-05	1.9338e-05	387.67	136.04	148.52	57.281	2.3369e-05	55.439	14.626	251.605	112.526	-74.267	34.127	70.978	-75.785	-69.205	67.386	68.376	-71.743	-66.893	-64.604	-59.140	214.292	-62.255	-8191	255	
2649.359	1	1	0	0	0.24348	0.11386	0.23853	0.18789	0.095612	0.055748	0.29775	0.29094	0.095924	0.068996	0.28713	0.38755	0.20447	0.20847	0.063498	0.1745	-0.26042	0.28958	-0.62917	-0.37917	0.083333	-0.99583	0.12708	-0.48125	-0.475	0.26667	-0.88958	-0.17917	-0.20625	-0.80208	0.05625	-0.31875	168.927	-79.571	242.051	272.082	-4.087	9.260	156.252	161.825	139.766	263.530	158.005	128.399	161.715	-28.649	-12.170	224.310	0.00048862	0.00058448	0.00024391	996.84	5.8504e-06	8.2627e-06	923.48	379.52	3.3736e-06	1.6909e-06	340.49	119.31	134.64	51.625	1.0706e-05	48.161	0.0018632	0.0017979	0.00061251	1096.3	2.0131e-05	2.0587e-05	1029.3	414.88	2.0792e-05	2.025e-05	392.21	136.04	148.61	57.561	2.4304e-05	55.066	5.428	-87.023	189.187	-74.347	39.822	156.602	-76.119	-69.365	218.424	98.561	-71.824	-66.894	-64.602	-59.149	172.783	-62.417	-8191	255	
2649.455	1	1	0	0	0.16801	0.26986	0.36754	0.10459	0.28252	0.31471	0.35106	0.23516	0.21292	0.045282	0.34214	0.041579	0.18928	0.11955	0.10351	0.20213	-0.25417	0.24375	-0.65	-0.53333	0.091667	-0.65417	-0.26875	-0.30208	-0.62083	0.125	-0.64375	-0.5625	0.095833	-0.95625	-0.010417	-0.35208	193.886	38.334	116.484	134.496	216.592	-70.603	259.872	268.514	22.061	108.349	218.602	-12.184	108.138	-5.068	125.276	241.516	0.00056273	0.00054942	0.00017875	997.19	8.4438e-06	5.703e-06	927.74	380.59	3.4295e-06	3.3325e-06	339.34	118.6	134.03	51.518	4.6775e-06	47.519	0.0018072	0.0018902	0.00061444	1092.1	1.907e-05	2.1297e-05	1028.8	412.68	1.955e-05	2.0924e-05	388.47	133.65	146.81	57.241	2.2355e-05	53.662	-21.298	64.532	-14.615	-74.106	-35.071	250.404	-75.958	-69.237	102.739	247.084	-71.720	-66.820	-64.801	-58.914	24.245	-62.133	-8191	255	
2649.574	1	1	0	0	0.18733	0.11563	0.16679	0.22852	0.16225	0.19553	0.098029	0.32678	0.396	0.096919	0.10155	0.28443	0.22861	0.16006	0.18512	0.31464	-0.28958	0.079167	-0.37917	-0.47083	0.054167	-0.69583	-0.16042	-0.24583	-0.64792	0.095833	-0.49375	-0.44167	0.047917	-0.89583	-0.035417	-0.097917	-75.697	145.284	-62.196	117.576	81.731	-5.408	220.155	271.567	60.610	30.728	-32.308	-70.368	221.956	219.611	179.740	166.238	0.00039234	0.001392	0.00025326	994.78	7.7802e-06	7.04e-06	926.07	378.22	6.3585e-06	1.1288e-05	338.76	117.57	133.45	51.378	6.9024e-06	46.909	0.0016486	0.0019183	0.00055727	1083.6	1.8031e-05	2.185e-05	1019.1	409.39	1.8701e-05	2.1789e-05	383.38	132.35	146.36	57.231	2.0496e-05	52.938	-22.726	143.724	-60.944	-74.138	25.825	252.872	-76.039	-69.355	202.770	151.978	-71.964	-67.086	-64.685	-59.065	45.690	-62.272	-8191	255	
2649.645	1	1	0	0	0.23679	0.10599	0.18593	0.29941	0.27198	0.15469	0.20081	0.21612	0.07495	0.3518	0.15401	0.40258	0.34484	0.12804	0.19699	0.1903	-0.20417	-0.070833	-0.35	-0.74583	0.275	-0.49792	-0.43333	-0.066667	-0.69583	-0.11458	-0.49792	-0.7125	0.22292	-0.6875	-0.091667	0.072917	-26.231	199.622	-8.894	241.658	32.815	55.492	-60.642	257.788	-31.842	-48.017	199.135	121.304	231.815	232.005	184.078	110.962	0.00051617	0.00075621	0.0002682	996.96	9.2983e-06	2.944e-06	929.94	379.56	6.8076e-06	2.9815e-06	338.95	117.96	133.56	51.399	9.2882e-06	47.611	0.0016144	0.0019588	0.00049726	1080.1	1.7557e-05	2.1084e-05	1010.3	407.04	1.7848e-05	2.0766e-05	377.8	131.35	146.58	57.105	1.9121e-05	53.092	-30.087	207.990	-53.139	-74.037	215.345	172.567	-75.825	-69.375	263.653	100.900	-71.803	-67.016	-64.656	-59.124	76.465	-62.295	-8191	255	
2649.741	1	1	0	0	0.052937	0.075352	0.11345	0.38003	0.28003	0.30636	0.1753	0.16596	0.25319	0.2041	0.2456	0.31692	0.27599	0.33779	0.20914	0.26004	-0.31875	0.13958	-0.04375	-0.87917	0.18125	-0.49167	-0.45417	0.0125	-0.86042	0	-0.31458	-0.64583	0.00625	-0.76667	-0.50625	0.029167	33.337	57.852	59.981	238.404	83.775	140.387	166.950	208.012	158.474	85.356	256.306	257.757	252.014	-65.384	226.306	-65.980	0.00061135	0.00049503	0.00029958	1000.4	1.0272e-05	1.158e-05	929.94	379.5	8.4386e-06	7.8993e-06	340.14	118.65	133.49	51.381	5.8851e-06	47.343	0.0017541	0.0020638	0.00049317	1084.9	2.0485e-05	2.2506e-05	1016.8	409.22	2.1155e-05	2.2559e-05	381.53	132.78	148.76	57.194	1.9387e-05	53.303	-14.085	-70.673	-36.340	-74.132	169.154	7.905	-75.895	-69.259	199.788	37.825	-71.749	-67.118	-64.405	-58.938	51.242	-62.505	-8191	255	
2649.838	1	1	0	0	0.14553	0.11581	0.03097	0.12846	0.22313	0.22304	0.23551	0.11925	0.17884	0.11226	0.058441	0.1826	0.19873	0.19064	0.18566	0.23317	-0.1875	-0.23958	-0.05625	-0.98542	0.052083	-0.3375	-0.63958	-0.0041667	-0.68542	-0.16042	-0.077083	-0.91667	-0.20833	-0.34167	-0.75417	0.16458	190.543	169.954	166.723	73.336	172.312	194.152	174.026	64.852	249.685	109.005	-52.818	261.889	269.121	217.339	44.329	266.224	0.00060122	8.5812e-05	9.9297e-05	1000.4	1.2953e-06	1.3266e-05	931.82	379.32	1.007e-05	6.9329e-06	342.91	119.7	133.48	51.551	7.2268e-06	47.607	0.0018958	0.0019596	0.00046142	1082.4	2.113e-05	2.0425e-05	1014.9	408.82	2.1735e-05	2.0989e-05	380.99	133.48	149.45	57.021	1.9069e-05	53.876	-8.740	-32.453	214.921	-74.004	183.115	49.384	-75.824	-69.227	-83.669	29.682	-71.704	-66.766	-64.736	-59.013	122.211	-62.433	-8191	255	
2649.958	1	1	0	0	0.1609	0.057156	0.061741	0.32375	0.23608	0.1733	0.25882	0.14272	0.30016	0.25795	0.076908	0.21545	0.15059	0.095289	0.20133	0.42258	-0.43958	-0.22292	0.0375	-0.8875	-0.0625	-0.31875	-0.83958	-0.05	-0.65	-0.44375	0.016667	-0.8375	-0.11667	-0.28958	-0.70208	0.085417	147.635	248.132	229.853	223.227	87.680	182.727	221.453	193.387	-39.038	-28.892	92.334	172.704	254.532	168.708	216.923	215.055	0.00044724	0.00099658	5.7899e-05	995.21	3.6161e-06	4.9091e-06	928.77	378.95	1.0279e-05	2.8385e-06	341.63	118.6	134.42	51.869	7.3494e-06	47.659	0.0019922	0.0018817	0.00045515	1083.1	2.2206e-05	1.9359e-05	1009.5	410.57	2.1956e-05	1.9819e-05	379.3	134.42	150.45	57.21	1.9649e-05	54.84	-22.188	269.812	-1.332	-73.917	223.698	6.055	-75.587	-69.294	107.463	35.239	-71.467	-66.422	-64.639	-58.856	16.353	-62.291	-8191	255	
2650.054	1	1	0	0	0.12729	0.368	0.23548	0.15392	0.11193	0.069707	0.22128	0.18546	0.12944	0.19406	0.2484	0.13528	0.2265	0.0049621	0.1385	0.073147	-0.18958	-0.54375	0.17083	-1.0438	-0.16042	-0.0125	-0.89375	0.10625	-0.63958	-0.6375	-0.0375	-0.98542	-0.22917	-0.20625	-0.82083	0.0125	93.298	-10.994	244.647	-31.001	121.147	-26.015	131.044	210.456	-14.185	127.658	150.046	211.752	165.711	192.634	61.157	229.459	0.00052657	0.0017709	0.00013842	1004.4	6.6456e-06	1.3131e-05	927.93	380.61	1.2942e-05	5.8686e-06	340.51	119.28	134.81	51.826	1.095e-05	47.569	0.002122	0.0019826	0.00049443	1100.6	2.4741e-05	2.1179e-05	1017.2	417.4	2.432e-05	2.2024e-05	383.64	137.38	151.59	57.367	2.076e-05	55.659	22.458	-19.745	-14.486	-74.154	36.896	61.496	-75.905	-69.377	85.721	58.008	-71.744	-66.763	-64.514	-59.121	236.721	-62.534	-8191	255	
2650.150	1	1	0	0	0.099194	0.10997	0.36183	0.16249	0.29233	0.19195	0.37141	0.54517	0.21776	0.272	0.2205	0.37953	0.095205	0.08271	0.098263	0.11615	0.035417	-0.55417	0.16875	-0.77083	0.020833	0.11042	-0.97083	-0.16042	-0.4125	-0.73542	0.1375	-0.85208	-0.62917	-0.0083333	-1.0438	-0.11667	211.464	-22.285	124.111	230.093	121.154	2.454	267.657	221.432	-5.473	195.484	196.109	180.366	12.877	23.169	-32.147	33.051	0.00030534	0.001037	0.00018608	1001.9	6.5095e-06	8.9225e-06	927.97	381.08	9.6058e-06	7.395e-06	341.8	119.46	134.89	51.786	3.3092e-06	48.145	0.002073	0.0019881	0.00051582	1107.5	2.3903e-05	2.0883e-05	1022.8	420.7	2.3314e-05	2.1911e-05	388.22	138.99	151.4	57.629	2.2525e-05	56.612	-1.436	-70.343	6.777	-74.111	28.803	25.570	-76.196	-69.331	70.873	25.375	-71.944	-66.831	-64.628	-59.151	148.009	-62.530	-8191	255	
2650.247	1	1	0	0	0.28041	0.20315	0.28378	0.03854	0.097177	0.10914	0.16927	0.113	0.26284	0.12502	0.16519	0.11604	0.23905	0.05823	0.27539	0.27758	0.00625	-0.73125	0.475	-0.54375	-0.62292	-0.027083	-0.97708	-0.091667	-0.33958	-0.56667	0.020833	-0.75833	-0.55625	0.1	-0.56042	-0.37083	137.404	244.400	146.724	-70.110	216.125	134.652	243.453	189.920	-61.376	129.991	251.647	-37.494	-75.097	202.955	67.673	-86.378	0.00051943	0.00048634	0.00024767	1004.6	9.7509e-06	9.1924e-06	935.02	382.66	9.8062e-06	6.59e-06	343.53	121.09	135.47	52.342	6.0031e-06	48.721	0.0020115	0.0019934	0.00056737	1111.5	2.2984e-05	2.05e-05	1033.2	422.85	2.2398e-05	2.2224e-05	395.99	140.75	152.2	58.271	2.5704e-05	57.572	-10.698	251.479	179.099	-73.967	11.333	94.210	-75.837	-69.292	51.765	82.657	-71.765	-66.874	-64.801	-59.099	230.402	-62.612	-8191	255	
2650.341	1	1	0	0	0.15118	0.30444	0.17662	0.3319	0.12868	0.045146	0.25508	0.27859	0.32996	0.091583	0.018799	0.28271	0.1535	0.17779	0.1495	0.28929	0.19583	-0.80625	0.1375	-0.55833	-0.51667	0.083333	-0.82708	-0.24167	-0.175	-0.72083	0.0041667	-0.55417	-0.62708	-0.029167	-0.56875	-0.41042	86.318	255.252	93.359	-51.354	242.121	-29.327	249.020	99.882	241.817	80.387	-53.115	213.404	271.166	-83.962	15.424	-37.404	0.000282	0.0006665	2.8878e-05	1003.6	1.0361e-05	5.8328e-06	938.78	383.38	1.8523e-05	2.9054e-06	346.07	121.21	135.12	52.233	1.5785e-05	48.2	0.0020444	0.0020963	0.00065967	1116.6	2.3721e-05	2.1656e-05	1049.1	423.71	2.185e-05	2.1912e-05	399.62	138.87	150.9	57.874	2.5087e-05	56.019	5.384	71.251	11.029	-74.190	65.961	102.871	-76.008	-69.357	54.210	103.776	-72.042	-66.713	-64.701	-59.023	198.128	-62.567	-8191	255	
2650.437	1	1	0	0	0.18166	0.15864	0.036542	0.25893	0.067958	0.036313	0.19784	0.15755	0.19014	0.21597	0.15141	0.39588	0.19915	0.19398	0.27516	0.142	0.3	-0.93333	0.23333	-0.38958	-0.6125	-0.066667	-0.71667	-0.25833	-0.022917	-0.76042	-0.089583	-0.27708	-1.0042	0.17292	-0.71667	-0.47292	-63.815	108.004	131.832	-19.666	-36.307	-9.541	230.270	257.204	183.304	-62.230	-87.268	-62.940	-78.039	252.305	-52.469	110.234	0.00037933	0.00093488	0.00035706	1007.1	3.0536e-06	2.1213e-06	934.12	382.53	4.9262e-06	1.1537e-05	342.98	120.6	135.56	52.058	9.9683e-06	48.001	0.0018233	0.0019763	0.00064577	1103.8	2.1758e-05	2.1443e-05	1041.9	419.84	2.0697e-05	2.2608e-05	399.38	137.11	150.61	58.119	2.5053e-05	55.566	-20.745	64.944	28.807	-74.213	248.815	196.721	-75.747	-69.385	57.987	119.257	-72.002	-66.729	-64.584	-59.009	37.216	-62.502	-8191	255	
2650.558	1	1	0	0	0.23982	0.13191	0.089946	0.40499	0.21081	0.20304	0.18088	0.26821	0.16256	0.15333	0.055393	0.16949	0.32143	0.29122	0.17255	0.32407	0.31667	-0.81875	-0.36667	-0.2875	-0.83125	0.0875	-0.54792	-0.79167	0.32917	-0.83542	-0.21875	-0.10625	-1.1229	0.11458	-0.50417	-0.66875	93.177	229.445	108.426	-71.749	-34.717	-18.335	120.699	189.215	181.807	6.852	152.879	125.066	234.814	244.448	202.681	-39.949	0.00025413	0.0011785	0.00014797	1001.2	8.2652e-06	7.9237e-06	937.1	382.07	7.0098e-06	5.348e-06	344.56	120.21	135.36	52.16	1.0299e-05	47.984	0.0017577	0.0020798	0.00063662	1093.6	2.0622e-05	2.2663e-05	1037.8	418.33	2.0203e-05	2.4501e-05	399.09	136.87	150.79	58.648	2.509e-05	55.564	-59.617	72.989	24.246	-73.842	38.279	181.216	-75.754	-69.309	27.952	205.716	-71.748	-66.806	-64.325	-59.077	52.280	-62.328	-8191	255	
2650.654	1	1	0	0	0.29637	0.091632	0.077509	0.40243	0.36857	0.24701	0.18656	0.1281	0.18292	0.24896	0.048179	0.19122	0.24638	0.077686	0.055111	0.15512	0.37083	-0.86042	-0.14792	-0.097917	-0.82292	0.0875	-0.41875	-0.70417	0.19583	-0.75	-0.45417	-0.0375	-0.8625	-0.091667	-0.10625	-0.74167	-39.375	175.241	-75.867	-83.626	-0.978	5.436	-61.374	217.816	213.869	-25.659	212.725	216.591	240.147	196.886	38.111	162.181	0.00071815	0.00050084	0.00031485	1001.6	2.8805e-06	2.8901e-06	935.52	382.88	8.8307e-06	4.6817e-06	344.75	119.91	135.29	52.005	1.1568e-05	48.049	0.0018518	0.0023329	0.00063859	1096.2	2.1793e-05	2.5479e-05	1037.4	417.96	2.139e-05	2.6592e-05	397.42	136.52	151.33	59.016	2.4315e-05	55.664	-8.108	134.484	-57.575	-74.004	261.932	150.294	-75.745	-69.317	-56.701	51.354	-71.635	-66.765	-64.574	-58.968	75.017	-62.020	-8191	255	
2650.750	1	1	0	0	0.096593	0.089644	0.28457	0.13816	0.38736	0.02323	0.073434	0.090885	0.16199	0.10723	0.28216	0.19338	0.26781	0.12426	0.19787	0.38169	0.45	-0.62083	-0.36458	0.03125	-0.89375	-0.27292	-0.42083	-0.72292	0.089583	-0.73542	-0.65208	0.19792	-0.7125	-0.27292	-0.35625	-0.8	255.132	56.912	60.036	262.426	40.950	95.028	-37.422	129.609	87.418	-48.659	-63.556	270.610	-66.052	-80.666	19.916	269.334	0.00071883	0.00087478	0.00040401	999.33	7.7015e-06	9.6757e-06	939.7	381.81	2.0913e-05	8.3813e-06	346.01	120.71	134.83	51.906	1.7009e-05	48.36	0.0020132	0.0025008	0.00062921	1093.6	2.3624e-05	2.7086e-05	1035.5	417.56	2.314e-05	2.671e-05	394.97	136.82	152.03	59.034	2.26e-05	55.944	-28.074	-15.425	-52.988	-73.822	223.770	23.299	-75.787	-69.248	268.841	85.428	-71.601	-66.420	-64.606	-59.009	73.893	-62.199	-8191	255	
2650.846	1	1	0	0	0.25016	0.22598	0.13075	0.027538	0.1392	0.22893	0.19425	0.27654	0.12793	0.19886	0.45984	0.16178	0.29428	0.17749	0.25639	0.11644	0.35	-0.38958	-0.55208	-0.027083	-0.77083	-0.077083	-0.325	-0.89167	0.1625	-0.44583	-0.70833	-0.05625	-0.76667	-0.38125	-0.0625	-0.77083	115.843	72.909	160.347	172.887	240.374	107.623	269.315	202.021	-74.501	182.747	-64.022	211.722	207.761	262.920	-79.971	229.156	0.00077968	0.0015331	0.00018628	999.08	3.2909e-06	1.0378e-05	937.1	382.01	1.3645e-05	1.3323e-05	346.64	120.55	135.38	52.174	7.2857e-06	48.357	0.0021558	0.0024013	0.00059875	1090.7	2.5588e-05	2.6719e-05	1030.8	417.1	2.5629e-05	2.5869e-05	395.48	136.94	153.68	58.98	2.2467e-05	56.033	-41.161	-18.149	3.341	-73.924	140.790	14.919	-75.804	-69.178	238.785	25.822	-71.721	-66.595	-64.392	-58.922	80.296	-62.445	-8191	255	
2650.942	1	1	0	0	0.10218	0.12978	0.17781	0.12389	0.2494	0.208	0.21281	0.034377	0.2331	0.070703	0.16937	0.14121	0.21867	0.20266	0.13849	0.098007	0.50417	-0.40833	-0.57292	0.020833	-0.74792	-0.35833	0.06875	-0.92083	0.1375	-0.33958	-0.71458	0.095833	-0.7625	-0.42708	0.45417	-0.94792	-47.470	267.984	184.599	189.567	39.458	125.900	253.655	158.709	244.760	206.461	208.798	171.370	264.346	-56.886	240.807	249.363	0.00052775	0.0029743	0.00025624	1001.4	1.3049e-05	5.6222e-06	931.43	381.02	1.1113e-05	1.3016e-05	344.31	119.36	134.42	51.932	1.2339e-05	47.695	0.0023942	0.0023633	0.00061243	1098.4	2.8101e-05	2.652e-05	1028.8	419.84	2.8707e-05	2.5826e-05	395.04	137.67	154.66	58.788	2.3348e-05	56.406	-38.019	-53.816	-27.793	-73.596	193.990	61.953	-75.566	-68.966	251.919	19.150	-71.560	-66.613	-64.465	-59.133	38.859	-61.853	-8191	255	
2651.037	1	1	0	0	0.22494	0.042088	0.42271	0.2965	0.16894	0.086793	0.21741	0.19791	0.19287	0.15787	0.11912	0.18017	0.092538	0.11466	0.099501	0.38289	0.28958	-0.11042	-0.54375	-0.05	-0.46667	-0.50417	0.029167	-0.87708	-0.029167	-0.08125	-1.0063	0.15208	-0.66875	-0.35417	-0.029167	-0.83958	249.560	67.504	199.579	267.716	233.345	96.333	200.639	211.447	-30.182	-55.311	196.802	14.151	205.008	132.862	65.346	212.078	0.00065892	0.0010672	0.00025028	995.98	9.7701e-06	1.4528e-05	932.91	381.62	1.4004e-05	8.3303e-06	342.11	119.52	135.35	52.224	1.2266e-05	47.995	0.0026213	0.0023459	0.00063351	1109	3.0086e-05	2.7344e-05	1033.4	425.35	3.1263e-05	2.6939e-05	397.87	141.26	155.84	59.289	2.4831e-05	58.036	-29.491	-55.747	-62.632	-73.691	29.375	-12.260	-75.359	-69.062	65.815	51.473	-71.526	-66.343	-64.040	-58.673	162.084	-61.948	-8191	255	
2651.133	1	1	0	0	0.091877	0.32951	0.15918	0.23753	0.1796	0.19319	0.24123	0.27649	0.31157	0.36197	0.18958	0.16846	0.19557	0.27446	0.066796	0.27885	0.17708	0.027083	-0.73125	0.01875	-0.20625	-0.4375	-0.0020833	-0.78125	-0.37083	0.0125	-0.83958	0.035417	-0.62917	-0.77708	0.027083	-1.0333	-43.747	49.669	36.596	245.569	-44.111	-3.974	-57.807	226.174	-57.116	-70.715	-37.340	-85.251	266.888	265.378	-79.042	-45.945	0.00015086	0.0014549	0.00021605	995.68	1.3517e-05	1.0459e-05	930.64	380.49	1.9809e-05	9.0921e-06	343.63	120.82	134.92	52.1	7.4601e-06	48.951	0.0027172	0.0023896	0.00065904	1122.3	2.9497e-05	2.7044e-05	1034.3	426.79	2.9915e-05	2.5872e-05	399.05	143.32	154.82	59.198	2.536e-05	58.83	17.844	-32.732	74.114	-73.693	16.020	1.310	-75.467	-68.856	27.158	151.518	-71.290	-66.658	-64.061	-58.739	202.341	-61.830	-8191	255	
2651.254	1	1	0	0	0.40356	0.066342	0.16308	0.25082	0.17621	0.23919	0.17709	0.21694	0.22738	0.20272	0.24998	0.13893	0.16329	0.23354	0.14597	0.15197	0.075	0.029167	-0.64792	-0.29167	-0.32917	-0.78958	-0.083333	-0.87292	-0.31667	-0.1375	-0.81875	-0.16042	-0.46875	-0.92083	0.22708	-0.55208	187.822	137.486	-27.984	177.025	11.143	35.832	201.759	-75.293	253.146	254.191	-73.200	263.226	-71.051	221.427	186.894	177.075	0.00023082	0.0012684	0.00010942	998	1.8814e-05	7.696e-06	932.01	381.26	2.4576e-05	6.8025e-06	345.64	121.43	135.38	52.275	1.7334e-05	48.779	0.002561	0.0023136	0.00067918	1127.3	2.7631e-05	2.6347e-05	1042.2	428.76	2.8084e-05	2.4918e-05	403.64	143.88	153.52	58.893	2.6339e-05	58.47	51.657	-31.072	132.613	-73.522	20.734	-7.758	-75.293	-68.520	88.467	17.528	-71.161	-66.468	-64.105	-58.479	213.752	-61.461	-8191	255	
2651.350	1	1	0	0	0.18042	0.14573	0.28648	0.24568	0.23439	0.11521	0.30459	0.27427	0.22952	0.14183	0.34188	0.24386	0.11717	0.40228	0.23629	0.091917	-0.10625	0.020833	-0.7	-0.16042	-0.066667	-0.81667	-0.00625	-0.5	-0.37292	0.1625	-0.94375	-0.19375	-0.15	-0.75208	-0.00625	-0.60625	241.202	9.366	-1.734	208.895	-21.470	159.494	50.847	261.945	159.654	254.591	113.125	-80.498	259.733	267.289	-74.881	-66.879	0.00018974	0.00024243	0.00033891	998.9	8.3371e-06	2.7701e-06	934	384.15	1.8128e-05	4.8709e-06	346.3	120.65	135.13	51.947	1.605e-05	48.285	0.002316	0.0021255	0.00068213	1120.7	2.4272e-05	2.3742e-05	1043.5	425.13	2.4261e-05	2.1919e-05	401.36	140.6	151.12	58.021	2.6175e-05	56.651	0.956	-67.534	174.583	-73.532	-34.910	19.520	-75.446	-68.706	30.097	7.003	-71.198	-66.242	-64.084	-58.499	161.972	-61.597	-8191	255	
2651.446	1	1	0	0	0.01723	0.15108	0.19797	0.19194	0.17697	0.30931	0.23241	0.063895	0.094599	0.21198	0.24713	0.22239	0.23099	0.34211	0.17176	0.35625	-0.0625	0.20625	-0.675	-0.32917	-0.06875	-0.73125	-0.079167	-0.46667	-0.54375	0.0083333	-0.90417	-0.37292	-0.097917	-0.70417	0.14583	-0.4875	-49.356	184.192	-86.176	-15.569	179.979	-33.134	134.358	219.661	64.943	56.119	141.751	123.225	-5.318	-38.431	163.378	29.460	0.00062946	0.00023408	0.00013416	999.93	4.7527e-06	5.6633e-06	932.29	382.93	1.0113e-05	7.7303e-06	345.59	119.85	134.71	51.761	4.1313e-06	47.744	0.002091	0.0019932	0.0006819	1109	2.2106e-05	2.2864e-05	1043.4	420.99	2.2897e-05	2.206e-05	401.85	138.54	150.02	57.886	2.71e-05	55.727	-6.741	239.142	29.679	-73.271	51.656	77.690	-75.212	-68.574	68.717	199.246	-70.957	-66.342	-64.041	-58.228	-73.776	-61.784	-8191	255	
2651.518	1	1	0	0	0.28757	0.19641	0.16231	0.09697	0.062797	0.041136	0.19362	0.25563	0.20657	0.049801	0.34635	0.33145	0.17322	0.24636	0.17571	0.11847	-0.41042	0.13333	-0.71042	-0.28542	-0.0375	-0.69583	-0.054167	-0.55	-0.45	0.14583	-0.65	-0.41875	0.027083	-0.77292	0.054167	-0.15833	-42.097	240.427	166.919	271.151	28.382	173.619	214.183	213.274	139.525	-16.116	103.492	167.719	-75.837	175.764	40.694	257.880	0.00035688	0.00070942	0.00014297	1001	7.0335e-06	1.282e-05	931.58	382.5	1.7058e-05	1.3958e-05	346.18	120.89	135.59	51.908	1.116e-05	48.366	0.0020399	0.0021167	0.00069162	1104.5	2.1423e-05	2.4106e-05	1045.6	419.55	2.2448e-05	2.3979e-05	401.98	138.13	150.22	58.541	2.6982e-05	55.825	12.556	117.138	0.184	-73.381	50.788	216.483	-75.337	-68.845	94.704	203.534	-71.439	-66.054	-64.116	-58.341	55.054	-61.688	-8191	255	
2651.638	1	1	0	0	0.14419	0.28642	0.20199	0.062717	0.084368	0.16784	0.24904	0.22122	0.059514	0.087268	0.27038	0.32154	0.096179	0.44724	0.21748	0.16754	-0.47292	0.25	-0.68125	-0.65208	0.075	-0.60833	-0.079167	-0.36042	-0.69583	0.20625	-0.55208	-0.60625	0.070833	-0.92708	-0.12292	0.05	56.869	204.109	-1.004	268.748	-73.587	241.218	237.681	201.960	269.666	28.096	250.585	263.076	35.256	223.366	217.547	232.768	7.3782e-05	0.00053653	0.00063609	1002.6	1.0463e-05	5.37e-06	938.66	382.65	2.5696e-06	1.3421e-06	347.22	120.92	135.61	52.042	2.6807e-06	48.538	0.0020077	0.002316	0.00067925	1104.9	2.1712e-05	2.6509e-05	1049.4	419.96	2.3001e-05	2.6958e-05	403.37	138.92	151.11	59.237	2.6585e-05	56.128	7.838	72.842	-34.775	-73.323	80.447	271.736	-75.216	-68.507	246.639	145.811	-71.123	-66.069	-63.987	-58.502	-79.625	-61.641	-8191	255	
2651.734	1	1	0	0	0.18955	0.23806	0.20969	0.19284	0.14203	0.22622	0.23287	0.42685	0.18677	0.17074	0.1714	0.30957	0.46153	0.22971	0.060346	0.059816	-0.46042	0.10625	-0.25208	-0.81875	0.058333	-0.73958	-0.375	-0.12292	-0.95417	0.12917	-0.67708	-0.65417	-0.16458	-0.69167	-0.30208	0.13958	164.815	4.791	106.710	234.178	137.939	-70.960	-69.854	245.302	184.993	39.730	240.579	209.832	-74.471	-35.451	234.483	73.463	0.00050305	0.00065352	0.00046277	1004	1.2151e-05	2.1865e-06	942.57	384.03	1.3087e-05	5.5503e-06	348.89	121.98	135.81	52.194	2.5541e-05	48.672	0.0020813	0.002536	0.00065085	1104.8	2.2884e-05	2.8082e-05	1049.2	420.21	2.4119e-05	2.8399e-05	401.37	139.42	152.42	59.506	2.5021e-05	56.09	-47.684	160.791	8.980	-73.746	174.594	3.880	-75.447	-69.067	221.816	73.265	-71.333	-66.300	-63.993	-58.838	58.198	-61.699	-8191	255	
2651.830	1	1	0	0	0.12228	0.3697	0.099485	0.11979	0.19929	0.15005	0.14194	0.071896	0.12027	0.25749	0.13667	0.033706	0.21101	0.15642	0.071284	0.30467	-0.31667	-0.11458	-0.070833	-0.85833	0.0875	-0.3875	-0.61042	0.03125	-0.78333	-0.12708	-0.3125	-0.71667	0.22708	-0.60625	-0.45625	0.21458	30.979	12.998	148.602	170.587	-32.470	-45.029	-80.834	85.553	180.658	60.161	148.460	57.624	208.586	96.791	262.168	82.351	0.001071	0.00026513	0.00051226	1003.7	6.5197e-06	7.345e-06	941.27	383.43	9.3949e-06	8.7268e-06	347.01	120.56	134.52	52.072	1.8734e-05	48.034	0.0022106	0.0025893	0.00061682	1103.5	2.4856e-05	2.7753e-05	1040.8	418.58	2.5881e-05	2.8037e-05	397.24	138.18	153.38	59.14	2.5079e-05	55.535	-50.193	-53.093	-33.703	-73.588	123.298	87.002	-75.583	-68.903	8.914	53.221	-71.451	-66.793	-64.243	-58.708	-32.892	-62.126	-8191	255	
2651.927	1	1	0	0	0.16744	0.12798	0.057643	0.15886	0.097938	0.20446	0.17516	0.19325	0.28678	0.15822	0.044218	0.1641	0.1427	0.099603	0.3289	0.23928	-0.46042	-0.10625	0.089583	-0.78125	0.025	-0.52708	-0.68958	-0.08125	-0.65417	-0.23333	-0.00625	-0.97917	-0.072917	-0.61458	-0.61042	0.039583	-15.209	1.539	-44.323	225.547	58.521	93.215	197.381	182.263	253.224	-81.397	-52.067	222.712	142.236	83.109	26.447	-60.126	0.00085798	0.0016583	0.00030716	1001.9	1.2734e-05	2.0326e-05	935.7	381.78	2.8782e-06	2.3772e-06	346.04	120.26	135.06	52.024	5.6867e-06	48.018	0.0024393	0.0025669	0.00060362	1104.5	2.7568e-05	2.7061e-05	1039.2	419.12	2.8508e-05	2.7694e-05	395.35	138.55	154.73	58.744	2.4456e-05	55.701	-17.188	-23.626	13.350	-73.889	154.085	42.354	-75.801	-68.965	-29.688	102.692	-71.830	-66.522	-64.469	-58.725	31.248	-62.209	-8191	255	
2652.045	1	1	0	0	0.082692	0.15756	0.26108	0.30936	0.13355	0.095158	0.04805	0.10362	0.16722	0.23187	0.32883	0.23142	0.33805	0.07445	0.051779	0.26717	-0.37708	-0.16458	0.15208	-0.89583	0.0625	-0.27708	-0.88333	0.125	-0.68333	-0.525	-0.0083333	-0.83333	-0.27917	-0.25625	-0.60417	0.12708	243.697	85.658	-47.503	233.048	-2.682	109.834	142.972	-69.797	251.531	42.810	237.581	-53.642	-59.858	49.821	211.910	202.642	0.00039609	0.0012043	0.00037614	1000.6	1.0931e-05	1.2199e-05	938.31	382.45	8.1971e-06	8.0511e-06	346.45	120.17	134.66	51.85	4.004e-06	48	0.0025193	0.0024017	0.00057894	1106.7	2.8074e-05	2.4809e-05	1036.8	421.23	2.8383e-05	2.584e-05	395.84	140.28	155.55	58.676	2.4863e-05	56.919	-18.659	-75.671	-7.790	-73.806	108.038	7.521	-75.822	-69.134	102.583	33.128	-71.775	-66.576	-64.624	-58.645	-17.210	-62.083	-8191	255	
2652.142	1	1	0	0	0.11068	0.20163	0.16745	0.16173	0.16519	0.21414	0.1286	0.44365	0.11836	0.16546	0.23459	0.13088	0.051201	0.13771	0.12505	0.30508	-0.052083	-0.30625	0.18542	-0.91042	-0.020833	-0.28958	-0.99583	0.10208	-0.76458	-0.45	-0.0083333	-0.80208	-0.08125	-0.17917	-0.74167	0.022917	86.696	-42.357	-43.906	-39.450	154.760	253.548	-6.089	249.263	9.358	29.495	179.600	218.312	9.497	-40.374	-33.875	172.703	0.00052104	0.000964	0.00015908	1006.2	8.7968e-06	1.2661e-05	943.1	384.15	1.3102e-05	1.0854e-05	347.79	121.14	135.79	51.949	5.5068e-06	48.293	0.0026435	0.0024468	0.00060653	1123.9	2.9983e-05	2.548e-05	1045.5	427.24	2.8637e-05	2.5838e-05	397.44	141.94	154.58	58.148	2.3868e-05	57.375	13.243	-54.759	-6.159	-73.730	3.771	-2.252	-75.571	-69.162	87.424	55.231	-71.384	-66.824	-64.498	-59.014	16.844	-62.156	-8191	255	
2652.238	1	1	0	0	0.035475	0.19724	0.30933	0.31009	0.19257	0.22774	0.16595	0.19864	0.19367	0.14697	0.1117	0.15727	0.28871	0.14696	0.28313	0.090251	0.1375	-0.49167	0.20417	-0.92917	-0.06875	0.0083333	-0.97083	-0.045833	-0.56458	-0.58542	0.085417	-0.49375	-0.26667	-0.1	-0.7625	0.0083333	-75.565	103.921	84.917	185.611	-56.406	237.286	-42.533	159.719	-10.543	233.260	229.750	228.322	263.078	69.456	216.997	250.638	0.00025307	0.00046951	0.00027638	1006.9	1.4115e-05	3.4083e-06	942.87	382.96	2.9627e-05	8.2993e-06	345.93	120.82	134.99	51.686	3.2268e-06	47.87	0.0023929	0.0022832	0.00059065	1127.1	2.7506e-05	2.3774e-05	1045.8	428.2	2.6021e-05	2.4262e-05	397.51	141.83	152.8	57.74	2.3993e-05	57.11	-43.013	-2.133	107.169	-74.611	-9.700	-29.857	-76.819	-70.207	59.853	79.008	-72.346	-67.598	-65.554	-59.755	225.737	-63.217	-8191	255	
2652.334	1	1	0	0	0.11533	0.23599	0.15219	0.21475	0.060795	0.03675	0.098801	0.16028	0.046662	0.19071	0.36587	0.028225	0.21466	0.028946	0.051482	0.32386	0.15	-0.67292	0.275	-0.66042	-0.28542	0.054167	-0.87292	-0.085417	-0.010417	-0.78958	0.095833	-0.64375	-0.55833	0.072917	-0.72083	-0.24583	28.595	148.395	263.375	258.470	251.082	125.715	250.172	267.477	53.541	9.531	-23.619	212.836	167.222	12.659	-85.700	204.399	0.00031945	0.001022	0.00026667	1005.9	2.0741e-06	1.4003e-05	941.18	383.29	9.6424e-06	3.2917e-06	343.49	120.28	134.58	51.308	1.4851e-05	47.524	0.002193	0.0021901	0.00062281	1127.6	2.6059e-05	2.3221e-05	1052.5	429.32	2.5224e-05	2.4434e-05	401.36	141.16	152.2	57.329	2.6888e-05	56.734	8.372	-60.274	205.184	-74.789	53.506	20.410	-76.516	-69.969	79.079	-1.366	-72.629	-67.612	-65.536	-59.737	207.665	-63.113	-8191	255	
2652.430	1	1	0	0	0.22963	0.10367	0.30678	0.079405	0.29572	0.132	0.22146	0.19261	0.29582	0.27158	0.25836	0.011596	0.056859	0.10322	0.2232	0.20387	-0.06875	-0.74583	0.10417	-0.57708	-0.58333	0.11875	-0.87292	-0.0875	0.060417	-0.85208	0.0041667	-0.60625	-0.73542	0.15625	-0.79167	0.016667	74.368	-61.306	166.389	237.095	56.672	-20.773	5.036	128.537	38.704	-7.549	171.604	78.722	203.090	185.118	36.233	253.410	0.00022478	0.001231	0.00021131	1005.1	1.2873e-06	8.5807e-07	936.6	382.8	1.1842e-05	3.887e-06	344.3	119.79	133.96	51.149	5.1855e-06	47.475	0.002146	0.0021796	0.00068538	1120.7	2.4912e-05	2.2604e-05	1053.2	425.41	2.3616e-05	2.3821e-05	404.06	139.58	151.2	57.248	2.844e-05	56.274	-13.190	22.276	157.947	-74.639	-52.136	263.186	-76.512	-70.038	7.966	25.378	-72.388	-67.580	-65.557	-59.818	114.116	-62.848	-8191	255	
#DATA ENDS
