BOXY.EXE: ISS Imagent and Oximeter Data Acquisition Program Version 0.80
Ascii Record File

#ACQ INFORMATION
2  Detector Channels 
16  External MUX Channels 
1  Auxiliary Channels 
5000  Waveform (CCF) Frequency (Hz)
1  Waveforms Skipped 
30  Waveforms Averaged 
1  Cycles Averaged 
16  Acquisitions per Waveform 
10.0806  Updata Rate (Hz) 

#FILE INFORMATION
TRUE -- External MUX Channel results are PARSED.
FALSE -- AC DC and Phase are NOT grouped.
TRUE -- Companion Program Settings File CREATED.
FALSE -- AC data not excluded
FALSE -- DC data not excluded
FALSE -- Phase data not excluded
FALSE -- Auxillary Chn. data not excluded
Tab delimiters

#CALIBRATION STATE
TRUE -- Waveform Calibration Values APPLIED.


#AUX CALIBRATION VALUES
Val Type	aux-1	

Term	1.0000e+00	
Factor	0.0000e+00	


#WF CALIBRATION VALUES
A = Detector Channel
Val Type	A-AC1	A-AC2	A-AC3	A-AC4	A-AC5	A-AC6	A-AC7	A-AC8	A-AC9	A-AC10	A-AC11	A-AC12	A-AC13	A-AC14	A-AC15	A-AC16	A-DC1	A-DC2	A-DC3	A-DC4	A-DC5	A-DC6	A-DC7	A-DC8	A-DC9	A-DC10	A-DC11	A-DC12	A-DC13	A-DC14	A-DC15	A-DC16	A-Ph1	A-Ph2	A-Ph3	A-Ph4	A-Ph5	A-Ph6	A-Ph7	A-Ph8	A-Ph9	A-Ph10	A-Ph11	A-Ph12	A-Ph13	A-Ph14	A-Ph15	A-Ph16	

Term	0.00000e+00	0.00000e+00	0.00000e+00	0.00000e+00	0.00000e+00	0.00000e+00	0.00000e+00	0.00000e+00	0.00000e+00	0.00000e+00	0.00000e+00	0.00000e+00	0.00000e+00	0.00000e+00	0.00000e+00	0.00000e+00	0.00000e+00	0.00000e+00	0.00000e+00	0.00000e+00	0.00000e+00	0.00000e+00	0.00000e+00	0.00000e+00	0.00000e+00	0.00000e+00	0.00000e+00	0.00000e+00	0.00000e+00	0.00000e+00	0.00000e+00	0.00000e+00	0.00000e+00	0.00000e+00	0.00000e+00	0.00000e+00	0.00000e+00	0.00000e+00	0.00000e+00	0.00000e+00	0.00000e+00	0.00000e+00	0.00000e+00	0.00000e+00	0.00000e+00	0.00000e+00	0.00000e+00	0.00000e+00	
Factor	1.00000e+00	1.00000e+00	1.00000e+00	1.00000e+00	1.00000e+00	1.00000e+00	1.00000e+00	1.00000e+00	1.00000e+00	1.00000e+00	1.00000e+00	1.00000e+00	1.00000e+00	1.00000e+00	1.00000e+00	1.00000e+00	1.00000e+00	1.00000e+00	1.00000e+00	1.00000e+00	1.00000e+00	1.00000e+00	1.00000e+00	1.00000e+00	1.00000e+00	1.00000e+00	1.00000e+00	1.00000e+00	1.00000e+00	1.00000e+00	1.00000e+00	1.00000e+00	X	X	X	X	X	X	X	X	X	X	X	X	X	X	X	X	

B = Detector Channel
Val Type	B-AC1	B-AC2	B-AC3	B-AC4	B-AC5	B-AC6	B-AC7	B-AC8	B-AC9	B-AC10	B-AC11	B-AC12	B-AC13	B-AC14	B-AC15	B-AC16	B-DC1	B-DC2	B-DC3	B-DC4	B-DC5	B-DC6	B-DC7	B-DC8	B-DC9	B-DC10	B-DC11	B-DC12	B-DC13	B-DC14	B-DC15	B-DC16	B-Ph1	B-Ph2	B-Ph3	B-Ph4	B-Ph5	B-Ph6	B-Ph7	B-Ph8	B-Ph9	B-Ph10	B-Ph11	B-Ph12	B-Ph13	B-Ph14	B-Ph15	B-Ph16	

Term	0.00000e+00	0.00000e+00	0.00000e+00	0.00000e+00	0.00000e+00	0.00000e+00	0.00000e+00	0.00000e+00	0.00000e+00	0.00000e+00	0.00000e+00	0.00000e+00	0.00000e+00	0.00000e+00	0.00000e+00	0.00000e+00	0.00000e+00	0.00000e+00	0.00000e+00	0.00000e+00	0.00000e+00	0.00000e+00	0.00000e+00	0.00000e+00	0.00000e+00	0.00000e+00	0.00000e+00	0.00000e+00	0.00000e+00	0.00000e+00	0.00000e+00	0.00000e+00	-4.94537e+01	-1.32809e+02	-1.23513e+02	-1.81272e+02	-4.96041e+01	-6.63140e+01	-1.58454e+02	-1.62015e+02	-4.15339e+01	-6.63104e+01	-1.70397e+02	-1.70056e+02	-1.81304e+02	-1.76553e+02	-5.05393e+01	-1.49279e+02	
Factor	1.87085e-05	1.43766e-04	4.24095e-05	1.53419e-01	1.53692e-06	1.72329e-06	1.65314e-01	5.65315e-02	1.29581e-06	1.63815e-06	8.74246e-02	2.87404e-02	2.54357e-02	8.54675e-03	1.52938e-06	1.21105e-02	1.62134e-05	3.95395e-05	1.11172e-05	7.86664e-02	3.62932e-07	4.53557e-07	7.97313e-02	2.91212e-02	3.67586e-07	4.50120e-07	4.36910e-02	1.44261e-02	1.32318e-02	4.45127e-03	3.92718e-07	6.10433e-03	X	X	X	X	X	X	X	X	X	X	X	X	X	X	X	X	



#DISTANCE SETTINGS
A = Detector Channel
A-1	A-2	A-3	A-4	A-5	A-6	A-7	A-8	A-9	A-10	A-11	A-12	A-13	A-14	A-15	A-16	

2.5000e+00	3.0000e+00	2.5000e+00	3.0000e+00	2.0000e+00	3.0000e+00	1.5000e+00	3.0000e+00	3.0000e+00	3.0000e+00	3.0000e+00	3.0000e+00	3.0000e+00	3.0000e+00	1.5000e+00	3.0000e+00	

B = Detector Channel
B-1	B-2	B-3	B-4	B-5	B-6	B-7	B-8	B-9	B-10	B-11	B-12	B-13	B-14	B-15	B-16	

1.0000e+01	1.0000e+01	1.0000e+01	1.4400e+00	1.0000e+01	1.0000e+01	1.5100e+00	1.9400e+00	1.0000e+01	1.0000e+01	1.9900e+00	2.4900e+00	2.4100e+00	2.9000e+00	1.0000e+01	2.9800e+00	




#DATA BEGINS
time	group	step	mark	flag	A-AC1	A-AC2	A-AC3	A-AC4	A-AC5	A-AC6	A-AC7	A-AC8	A-AC9	A-AC10	A-AC11	A-AC12	A-AC13	A-AC14	A-AC15	A-AC16	A-DC1	A-DC2	A-DC3	A-DC4	A-DC5	A-DC6	A-DC7	A-DC8	A-DC9	A-DC10	A-DC11	A-DC12	A-DC13	A-DC14	A-DC15	A-DC16	A-Ph1	A-Ph2	A-Ph3	A-Ph4	A-Ph5	A-Ph6	A-Ph7	A-Ph8	A-Ph9	A-Ph10	A-Ph11	A-Ph12	A-Ph13	A-Ph14	A-Ph15	A-Ph16	B-AC1	B-AC2	B-AC3	B-AC4	B-AC5	B-AC6	B-AC7	B-AC8	B-AC9	B-AC10	B-AC11	B-AC12	B-AC13	B-AC14	B-AC15	B-AC16	B-DC1	B-DC2	B-DC3	B-DC4	B-DC5	B-DC6	B-DC7	B-DC8	B-DC9	B-DC10	B-DC11	B-DC12	B-DC13	B-DC14	B-DC15	B-DC16	B-Ph1	B-Ph2	B-Ph3	B-Ph4	B-Ph5	B-Ph6	B-Ph7	B-Ph8	B-Ph9	B-Ph10	B-Ph11	B-Ph12	B-Ph13	B-Ph14	B-Ph15	B-Ph16	aux-1	digaux	

31457.502	1	1	0	256	0.28904	0.18103	0.15384	0.15944	0.10084	0.24947	0.18348	0.14935	0.25776	0.28704	0.16729	0.1308	0.38249	0.24949	0.13887	0.098847	-2.6208	-2.3229	-2.8563	-3.1604	-2.1125	-3.0687	-2.5542	-2.4917	-3.0917	-2.3833	-2.6708	-3.0563	-2.2979	-3.0271	-2.6667	-2.3146	216.721	165.386	-4.958	120.116	-38.508	38.783	115.873	184.504	101.625	218.059	199.581	-104.043	-61.364	-88.833	-77.650	130.157	0.00050256	0.0011759	0.00025138	899.74	1.0236e-05	8.6075e-06	821.84	372.18	4.505e-06	7.838e-06	403.07	181.69	158.94	76.111	9.1415e-06	91.802	0.0039573	0.0086229	0.0024393	924.09	7.9561e-05	9.8452e-05	847.49	384.83	8.0802e-05	9.8817e-05	417.82	188.87	165.98	79.444	8.6399e-05	95.674	-83.532	-22.712	-22.895	-96.599	28.792	34.664	-97.718	-91.411	47.519	43.895	-93.213	-89.560	-87.464	-83.752	42.835	-86.256	-8191	255	
31457.623	1	1	0	0	0.15874	0.3438	0.19489	0.13146	0.3909	0.19762	0.014223	0.29434	0.12661	0.15838	0.13473	0.16154	0.18882	0.29618	0.023227	0.27131	-2.7271	-2.1958	-2.5583	-3.0187	-1.975	-2.8958	-2.8708	-2.5271	-3.0062	-2.2562	-2.5062	-3.0208	-2.2625	-3.0812	-2.6667	-2.3438	-66.940	32.465	54.446	-21.671	247.902	0.113	240.916	-84.123	152.462	169.494	-93.596	182.192	213.186	-79.825	23.088	237.418	0.00048636	0.00083181	0.00015857	897.36	5.5704e-06	7.5302e-06	819.2	372.27	5.5319e-06	9.1849e-06	401.35	180.2	159.47	76.315	4.8099e-06	92.079	0.0039884	0.0085761	0.0024141	920.2	7.8963e-05	9.7078e-05	841.45	384.88	8.1104e-05	9.7494e-05	417.09	188.2	166.23	79.427	8.6074e-05	95.869	-78.928	-32.807	5.953	-97.180	19.356	27.696	-97.617	-91.349	55.505	25.828	-93.534	-89.751	-87.780	-83.942	18.564	-86.742	-8191	255	
31457.693	1	1	0	0	0.14633	0.036209	0.065543	0.23481	0.072975	0.10021	0.13754	0.27567	0.12597	0.086421	0.079887	0.049187	0.31891	0.046593	0.3021	0.32975	-2.4938	-2.4125	-2.4229	-2.9125	-2.1667	-2.6188	-2.7854	-2.2479	-2.9521	-2.5375	-2.4646	-3.0021	-2.2021	-2.8146	-2.8354	-2.2646	-61.588	-82.858	-60.276	219.263	20.251	241.926	-90.444	139.473	197.483	103.909	-0.509	-61.491	244.848	190.336	100.378	104.436	0.00053313	0.00070399	0.00028288	896.74	5.6465e-06	4.0877e-06	815.83	371.18	7.586e-06	4.963e-06	402.24	181.35	159.29	76.418	1.1322e-06	92.433	0.0039502	0.0086043	0.0023902	921.3	7.9167e-05	9.8699e-05	843.91	385.7	8.1629e-05	9.8053e-05	417.66	189.16	166.39	79.686	8.6327e-05	96.378	-79.803	-20.889	-12.012	-96.862	41.082	29.794	-97.647	-91.456	48.397	13.387	-93.678	-89.751	-88.160	-84.237	167.978	-86.702	-8191	255	
31457.789	1	1	0	0	0.10242	0.28503	0.067028	0.30111	0.22096	0.2298	0.08231	0.22342	0.026376	0.20812	0.27163	0.27339	0.19699	0.054209	0.12266	0.28719	-2.4042	-2.3917	-2.1708	-3.1833	-2.2021	-2.4875	-2.8875	-2.1875	-2.8563	-2.7333	-2.3458	-3.0938	-2.3708	-2.525	-2.9938	-2.2354	92.483	245.648	112.624	133.884	-50.107	-12.786	239.974	175.703	-9.052	178.341	182.402	208.196	181.215	156.095	203.807	188.077	0.00045955	0.0009363	0.0001757	899.36	1.7185e-06	7.0347e-06	822.39	372.58	3.5599e-06	1.028e-05	401.66	182.42	159.51	76.411	8.1361e-06	92.791	0.0039974	0.0087443	0.0024487	924.37	8.0565e-05	9.9464e-05	848.68	386.06	8.1068e-05	9.8023e-05	418.01	189.93	166.67	79.706	8.715e-05	96.578	-87.173	-49.563	-4.402	-97.322	104.819	45.484	-97.931	-91.554	23.168	20.977	-93.728	-89.883	-88.008	-84.129	16.649	-86.993	-8191	255	
31457.887	1	1	0	0	0.27018	0.1602	0.27828	0.25986	0.35848	0.20175	0.2049	0.15181	0.17498	0.15317	0.21555	0.085382	0.26389	0.27907	0.11166	0.19703	-2.5396	-2.6167	-2.0625	-3.1604	-2.3125	-2.5917	-3.1688	-2.2708	-2.8771	-2.7729	-2.2375	-3.2229	-2.5167	-2.4688	-2.9292	-2.2646	-10.174	89.675	218.634	243.293	137.368	-69.446	-70.130	106.098	86.046	163.907	-56.246	209.812	185.775	-102.036	-12.075	201.033	0.00054816	0.00049779	0.0001704	900.19	7.1622e-06	5.4854e-06	823.03	373.31	4.5644e-06	1.0209e-05	400.87	181.52	159.52	76.241	6.4251e-06	92.25	0.0040084	0.0087572	0.0024671	923.66	8.0683e-05	9.9679e-05	847.04	386.08	8.2142e-05	9.7865e-05	417.82	189.44	166.56	79.645	8.7516e-05	96.165	-82.197	-18.983	0.880	-97.015	40.306	52.323	-97.705	-91.562	47.178	39.490	-93.594	-89.499	-87.871	-83.957	43.321	-86.511	-8191	255	
31458.006	1	1	0	0	0.10422	0.085055	0.18856	0.21649	0.0492	0.15829	0.25187	0.084228	0.10212	0.25953	0.14449	0.17475	0.28115	0.30824	0.043014	0.11344	-2.5229	-2.5896	-1.9688	-3.1333	-2.4375	-2.2479	-3.1083	-2.3646	-2.7729	-2.8125	-2.1479	-2.9729	-2.7458	-2.5625	-3.0458	-2.4062	-0.047	138.721	-54.362	183.855	69.530	82.292	129.669	236.851	-4.625	141.819	-25.645	195.142	212.621	228.376	70.985	190.941	0.00053418	0.00096254	0.00033833	895.18	8.4057e-06	5.5468e-06	817.55	372.05	3.9641e-06	8.5498e-06	402.58	181.76	159.87	76.651	6.15e-06	92.881	0.0040194	0.0087498	0.002447	920.87	8.2062e-05	0.0001007	844.54	385.65	8.2635e-05	9.9417e-05	417.75	189.77	166.92	79.951	8.8201e-05	96.582	-86.251	-28.497	-9.065	-96.964	56.213	20.390	-97.661	-91.460	48.650	25.525	-93.250	-89.705	-87.825	-83.803	76.347	-86.444	-8191	255	
31458.102	1	1	0	0	0.20652	0.24122	0.13196	0.1209	0.1335	0.42038	0.23182	0.091651	0.20758	0.10118	0.14077	0.15938	0.13676	0.055333	0.078017	0.30592	-2.1708	-2.9917	-2.1063	-2.9667	-2.45	-2.3729	-3.1729	-2.2958	-2.4271	-2.9083	-2.1229	-2.9354	-2.6792	-2.5042	-3.0438	-2.4813	120.117	210.280	-55.086	180.567	50.094	143.888	195.603	125.840	107.356	242.686	178.058	220.530	177.208	132.180	-92.183	186.272	0.00057719	0.00088844	9.0103e-05	896.37	4.2021e-06	9.8205e-06	824.26	373.33	4.6629e-06	4.0831e-06	402.74	182.43	160.31	76.763	5.9689e-06	93.242	0.0040389	0.0087454	0.0024727	921.44	8.0837e-05	0.00010151	847.71	386.66	8.1586e-05	9.954e-05	419.25	190.43	167.44	80.22	8.7434e-05	96.889	-81.645	-48.097	41.959	-96.994	48.693	12.041	-97.581	-91.457	59.891	24.976	-93.642	-89.596	-87.561	-83.815	15.474	-86.561	-8191	255	
31458.197	1	1	0	0	0.19445	0.2239	0.18768	0.27347	0.11759	0.28023	0.057357	0.43128	0.10723	0.19029	0.21661	0.22826	0.25111	0.4377	0.16478	0.3239	-2.0125	-2.9854	-2.05	-3.0125	-2.7854	-2.25	-3.1354	-2.4833	-2.3667	-3.0833	-2.3312	-2.9604	-2.9792	-2.3	-2.8396	-2.5604	110.523	152.492	65.222	-93.234	61.285	59.388	-46.468	185.735	143.790	-66.060	235.809	152.278	221.122	193.107	100.910	145.643	0.00054696	0.00086539	0.00030636	896.36	6.4605e-06	4.646e-06	824.22	373.77	4.3795e-06	7.1743e-06	404.76	182.97	160.06	76.601	7.3217e-06	93.122	0.0040534	0.0086348	0.0024593	922.85	8.1657e-05	0.00010018	848.88	386.64	8.2017e-05	9.9493e-05	420.44	190.88	167.3	80.049	8.8033e-05	96.948	-82.666	-58.255	15.262	-96.548	71.290	29.764	-97.393	-91.669	-25.448	25.413	-93.508	-89.552	-87.932	-83.919	97.942	-86.256	-8191	255	
31458.295	1	1	0	0	0.17499	0.031043	0.010958	0.073056	0.14214	0.19998	0.11936	0.20964	0.20726	0.19821	0.13985	0.24521	0.29088	0.19275	0.047982	0.27953	-1.9979	-2.8438	-2.0271	-2.7625	-2.6833	-2.1875	-3.0333	-2.5333	-2.1292	-2.8583	-2.2687	-2.5917	-2.8917	-2.1708	-2.8958	-2.5083	-10.702	19.970	-42.152	213.274	115.758	105.027	221.878	163.418	36.636	-45.789	166.568	-106.954	238.482	201.523	236.548	154.251	0.00045066	0.0011417	0.00024607	898.1	9.7016e-06	9.7043e-06	821.17	373.85	4.0542e-06	1.8737e-06	403.59	182.06	159.9	76.747	8.3903e-06	92.688	0.0040326	0.0087764	0.0024898	923.18	8.1406e-05	9.9439e-05	845.22	386.34	8.1609e-05	9.8182e-05	418.32	189.73	167.04	80.053	8.6778e-05	96.594	-79.175	-11.252	-23.885	-96.773	50.994	8.123	-97.990	-91.784	60.648	27.056	-94.115	-90.049	-88.166	-84.382	63.323	-86.959	-8191	255	
31458.391	1	1	0	0	0.077632	0.23663	0.1273	0.28677	0.030655	0.27535	0.14848	0.28524	0.0356	0.033213	0.16687	0.2098	0.18207	0.24597	0.31262	0.33624	-1.6562	-2.8604	-2.1271	-2.6188	-2.9729	-2.0896	-2.8896	-2.7188	-2.2938	-2.9396	-2.5646	-2.4188	-3.0167	-2.3063	-2.7396	-2.9083	-91.773	2.231	-30.447	-79.849	204.111	41.794	-31.188	153.921	-40.697	132.005	-89.693	-18.452	-92.379	187.783	50.664	213.642	0.00049314	0.0007965	0.00010463	894.02	4.4985e-06	5.3255e-06	818.3	374.16	3.2695e-06	7.7421e-06	402.25	181.89	159.65	76.763	8.7089e-06	93.088	0.0040693	0.0087071	0.0024799	920.63	8.0798e-05	9.9589e-05	844.53	386.83	8.1491e-05	9.946e-05	417.93	190.17	167.21	80.188	8.8174e-05	96.879	-81.387	-23.918	-6.447	-97.190	87.049	-11.247	-97.918	-91.878	42.450	33.386	-94.066	-90.106	-88.343	-84.479	88.339	-86.978	-8191	255	
31458.486	1	1	0	0	0.12884	0.1645	0.10211	0.24647	0.10725	0.039452	0.12414	0.12821	0.027265	0.11664	0.35402	0.095264	0.20611	0.19813	0.23881	0.14879	-1.8312	-3.0542	-2.3187	-2.3646	-2.9875	-2.1917	-2.9479	-2.8083	-2.0458	-2.9437	-2.4479	-2.5042	-3.1562	-2.3417	-2.4604	-2.9188	58.933	-70.969	58.678	169.106	-108.094	237.872	197.923	56.567	-99.171	10.682	210.472	-27.008	163.925	192.656	-45.149	156.198	0.00050064	0.00066032	0.00015414	896.28	4.2958e-06	8.2436e-06	818.85	372.05	4.2264e-06	5.3394e-06	403.47	182.66	160.29	77.193	1.693e-06	93.236	0.0040436	0.0087045	0.0024573	921.69	8.0459e-05	0.00010044	846.09	386.31	8.1715e-05	9.9425e-05	419.84	190.72	167.32	80.386	8.827e-05	97.234	-80.812	-60.529	9.186	-97.077	37.774	9.166	-97.935	-91.956	37.673	59.505	-94.082	-89.980	-88.340	-84.264	67.665	-86.947	-8191	255	
31458.582	1	1	0	0	0.050114	0.079007	0.26935	0.11903	0.1459	0.12899	0.26209	0.086127	0.12201	0.1995	0.16969	0.3654	0.10872	0.37122	0.11822	0.14018	-1.5583	-2.7229	-2.3396	-2.5	-2.9062	-2.2125	-2.6167	-2.9396	-2.2062	-2.6875	-2.7417	-2.3771	-3.2062	-2.5875	-2.4667	-3.1896	183.669	138.174	162.283	8.691	57.163	-5.385	227.050	24.963	-5.935	155.100	-74.912	152.831	145.494	190.058	93.460	168.940	0.00051487	0.00031144	0.00027258	892.23	8.5376e-06	7.0458e-06	823.23	372.71	5.6829e-06	6.0598e-06	405.42	183.31	160.33	77.024	4.2518e-06	93.377	0.004052	0.0087211	0.0024342	919.18	8.0274e-05	0.00010047	848.45	386.67	8.2881e-05	9.9864e-05	421.13	191.52	167.37	80.409	8.8714e-05	97.496	-82.782	-32.665	2.881	-97.114	62.501	36.596	-97.892	-91.780	58.094	50.492	-94.049	-89.854	-88.322	-84.389	61.563	-86.988	-8191	255	
31458.703	1	1	0	0	0.12648	0.2381	0.036028	0.13193	0.16554	0.11109	0.076435	0.15055	0.10492	0.20369	0.097144	0.38798	0.08276	0.18965	0.2258	0.25485	-1.6604	-2.9188	-2.6646	-2.1167	-2.8563	-2.3979	-2.4938	-3.1542	-1.8687	-2.8312	-2.6333	-2.2188	-3.0271	-2.8042	-2.2958	-3.1083	-38.470	173.774	193.070	169.007	65.073	223.280	232.125	81.190	141.109	-57.634	-95.113	197.767	-16.493	158.318	124.534	188.058	0.00050408	0.00082594	0.00012583	893.63	1.7716e-06	6.4772e-06	821.11	372.04	1.4816e-06	9.2746e-06	401.94	182.35	159.57	76.955	8.9444e-06	92.918	0.0040597	0.0088472	0.0024575	919.24	8.0597e-05	0.00010166	845.9	385.81	8.2649e-05	9.9425e-05	419.04	190.32	167.08	80.169	8.8043e-05	96.865	-83.772	15.815	-21.554	-97.192	94.599	55.289	-97.976	-91.845	0.889	10.695	-94.166	-90.012	-88.035	-84.195	25.300	-86.963	-8191	255	
31458.797	1	1	0	0	0.34665	0.077578	0.10243	0.093039	0.22999	0.17481	0.06105	0.097104	0.17612	0.019612	0.12651	0.18361	0.17388	0.20959	0.19787	0.15053	-1.7542	-2.5458	-2.6542	-2.2479	-2.9167	-2.45	-2.4708	-3.1104	-2.2271	-2.7062	-2.8167	-2.2562	-2.9083	-2.5104	-2.2417	-3.1146	99.283	14.746	12.236	95.944	13.901	88.957	28.676	200.027	156.956	203.503	172.746	231.521	227.977	193.723	113.437	151.632	0.0004839	0.00067144	0.00018619	892.45	7.5109e-06	5.3676e-06	814.97	373.66	3.9851e-06	1.1102e-05	403.01	182.31	160.13	77.096	7.2678e-06	93.449	0.0040524	0.0088694	0.0024408	917.9	8.0629e-05	0.00010063	843.64	387.1	8.2394e-05	9.9246e-05	419.8	190.69	167.46	80.411	8.7997e-05	97.387	-75.521	-63.409	-10.992	-97.205	40.358	20.467	-97.862	-91.711	77.852	53.189	-93.565	-89.978	-87.976	-84.179	71.376	-86.660	-8191	255	
31458.895	1	1	0	0	0.12545	0.21086	0.27262	0.10476	0.16402	0.31963	0.11804	0.12957	0.070652	0.11928	0.11838	0.010551	0.19387	0.17402	0.098571	0.13756	-1.8062	-2.4062	-2.7771	-2.1813	-2.9167	-2.6479	-2.3583	-3.0292	-2.3292	-2.7	-2.9708	-2.2313	-2.9583	-2.6292	-2.2208	-3.1104	27.273	-40.057	-23.261	167.375	-72.906	89.392	145.203	201.128	133.252	50.381	-52.433	226.622	-79.880	223.486	-54.706	202.582	0.00054841	0.0007284	0.00020207	892.93	8.774e-06	6.5384e-06	820.13	373.32	4.3486e-06	8.5647e-06	405.71	183.92	160.44	77.077	8.2784e-06	93.608	0.0040307	0.0087775	0.0024618	919.31	8.161e-05	9.956e-05	845.98	387.48	8.3008e-05	9.856e-05	421.43	191.56	167.91	80.543	8.6985e-05	97.61	-85.994	-16.823	4.917	-97.006	68.248	39.500	-97.397	-91.401	44.807	19.688	-93.605	-89.935	-87.798	-84.104	-7.383	-86.614	-8191	255	
31458.990	1	1	0	0	0.077413	0.1057	0.0020627	0.10009	0.24534	0.2101	0.22938	0.19415	0.10254	0.19996	0.061837	0.19183	0.21131	0.30618	0.078683	0.12484	-1.9375	-2.2708	-2.8979	-2.2417	-2.7208	-2.6958	-2.3	-3.0146	-2.4208	-2.5	-3.1271	-2.2479	-2.8604	-2.8771	-1.9167	-3.1229	-79.410	-2.660	180.000	159.367	-17.714	112.705	197.893	203.761	138.943	166.466	-77.938	137.939	-108.415	202.672	-2.899	162.521	0.00054027	0.00075477	0.00031902	890.28	8.3038e-06	8.496e-06	821.74	373.04	6.2022e-06	8.3137e-06	407.19	182.97	160.05	77.302	8.6879e-06	93.514	0.0040488	0.0087572	0.0024663	918.09	8.1472e-05	0.00010097	849.11	386.63	8.3712e-05	9.9944e-05	421.32	191.31	167.63	80.531	8.9109e-05	97.439	-84.709	-17.051	-17.177	-96.814	51.816	66.633	-97.820	-91.530	8.267	71.086	-93.822	-90.119	-87.810	-84.276	19.951	-86.608	-8191	255	
31459.086	1	1	0	0	0.14546	0.28638	0.073991	0.20336	0.15228	0.12059	0.37908	0.21048	0.24585	0.10289	0.20224	0.30161	0.26717	0.31426	0.24983	0.24159	-2.1542	-2.1708	-2.9917	-2.4625	-2.8312	-2.7625	-2.3354	-2.9396	-2.4521	-2.0958	-3.1104	-2.425	-2.7812	-3.175	-2.0708	-2.9354	32.436	231.162	90.641	147.165	20.202	243.196	190.974	205.532	244.349	16.041	-82.717	220.134	175.987	189.503	123.466	191.649	0.00056537	0.00074378	0.0003885	890.27	5.7735e-06	8.7705e-06	817.37	372.96	2.4867e-06	6.1314e-06	403.01	182.05	160.67	76.697	9.0273e-06	93.201	0.0040557	0.0087928	0.0024776	917.06	8.1279e-05	0.00010027	843.58	386.24	8.3397e-05	9.8726e-05	417.88	189.99	167.29	80.218	8.9316e-05	97.081	-83.214	-49.777	-47.871	-97.171	64.753	58.992	-97.762	-91.391	97.418	29.339	-93.791	-89.791	-87.816	-84.265	10.153	-86.602	-8191	255	
31459.182	1	1	0	0	0.091775	0.084695	0.057186	0.083941	0.36741	0.16324	0.142	0.31222	0.047564	0.15433	0.20141	0.14784	0.06014	0.1173	0.23884	0.36511	-2.1437	-2.1479	-2.8292	-2.4188	-2.4917	-3.0187	-2.3917	-2.9313	-2.6458	-2.3125	-2.9	-2.4688	-2.5833	-3.0708	-1.9833	-2.9792	-2.184	-99.181	227.688	-66.399	-82.128	-87.439	241.162	192.580	62.026	-17.370	-56.215	151.702	87.698	193.554	119.102	195.082	0.00049291	0.00064797	0.00015771	891.03	5.9001e-06	6.419e-06	814.15	372.73	4.8578e-06	9.281e-06	403.38	182.76	160.15	77.12	3.6166e-06	93.627	0.0040441	0.0087902	0.0024894	915.63	8.0804e-05	0.00010023	842.59	385.83	8.2307e-05	9.9392e-05	418.85	190.63	167.44	80.396	8.7891e-05	97.349	-79.476	-29.576	3.589	-97.062	95.066	48.433	-97.731	-91.531	57.400	55.321	-93.591	-89.853	-87.774	-84.131	57.440	-86.681	-8191	255	
31459.303	1	1	0	0	0.35876	0.029048	0.082435	0.20311	0.085494	0.18561	0.31189	0.24876	0.31471	0.20883	0.32028	0.33238	0.077107	0.086564	0.051614	0.26151	-2.3937	-2.0583	-3.0271	-2.2896	-2.4042	-2.9292	-2.3187	-2.8688	-2.6854	-2.0125	-3.0687	-2.6854	-2.3812	-3.0917	-2.1604	-2.8604	241.963	250.059	-56.388	181.214	-48.022	140.934	139.343	117.402	14.861	161.892	-37.526	-71.175	170.923	174.344	4.123	234.788	0.00054789	0.000679	0.00022611	890.48	4.8987e-06	7.0355e-06	818	371.39	2.2262e-06	4.3401e-06	403.37	182.15	160.08	77.071	5.0593e-06	93.555	0.0040284	0.0088054	0.0024728	916.59	8.1067e-05	0.00010157	842.98	385.4	8.2864e-05	0.00010028	418.53	190.36	167.24	80.46	8.9e-05	97.507	-84.834	-32.192	-34.098	-97.424	69.435	60.814	-98.005	-91.558	81.051	48.472	-93.667	-90.176	-88.084	-84.364	29.307	-86.911	-8191	255	
31459.398	1	1	0	0	0.088312	0.12106	0.17068	0.21806	0.27746	0.046923	0.29175	0.30254	0.077739	0.0080138	0.18842	0.004499	0.2286	0.12768	0.054327	0.26782	-2.475	-2.1354	-2.925	-2.55	-2.1917	-3.0938	-2.425	-2.8333	-2.8875	-2.1396	-3.0542	-2.6667	-2.2375	-3.075	-2.1958	-2.6146	29.419	52.314	40.715	188.244	-14.387	5.540	168.039	-38.984	4.044	-2.005	-26.542	152.097	156.363	-10.874	-64.074	180.239	0.00053413	0.00069394	0.0001505	895.67	1.0262e-05	1.0414e-05	819.06	374.13	2.0784e-06	3.68e-06	405.41	182.99	159.82	77.036	5.5417e-06	93.399	0.0040765	0.0089503	0.002481	918.05	8.2113e-05	0.00010205	846	386.76	8.1815e-05	0.00010211	419.54	190.78	167.27	80.27	8.931e-05	97.344	-94.861	-36.762	-28.770	-97.373	49.808	22.735	-97.820	-91.585	139.963	97.830	-93.638	-90.017	-87.974	-84.184	80.888	-86.682	-8191	255	
31459.494	1	1	0	0	0.096023	0.27045	0.18032	0.18569	0.18341	0.038236	0.16301	0.31106	0.1785	0.12267	0.057819	0.33767	0.058854	0.25968	0.32291	0.47153	-2.6167	-1.9875	-2.6813	-2.7917	-2.0521	-3.1146	-2.2562	-2.6188	-2.8979	-2.1375	-2.6875	-2.8167	-2.0646	-3.1688	-2.4042	-2.5417	-80.800	103.948	169.485	205.516	176.338	93.920	170.809	225.764	189.128	205.195	186.073	214.672	114.756	192.334	-0.238	203.223	0.00050453	0.00060211	0.0001663	888.03	2.3631e-07	9.7154e-06	814.27	372.05	8.0622e-06	1.2231e-05	400.04	182.4	159.97	76.996	8.0282e-06	93.252	0.0040402	0.00879	0.0025151	914.56	8.1854e-05	0.00010032	839.59	385.11	8.272e-05	0.00010013	416.15	189.64	166.81	80.237	8.8296e-05	96.96	-82.369	-46.079	-14.922	-97.073	134.752	57.500	-97.764	-91.515	69.542	29.354	-93.668	-89.770	-87.903	-84.084	57.596	-86.575	-8191	255	
31459.566	1	1	0	0	0.26844	0.27139	0.13464	0.034197	0.23817	0.20295	0.22347	0.20004	0.21471	0.041318	0.14421	0.13804	0.10987	0.41729	0.18394	0.18704	-2.5271	-1.9417	-2.6854	-2.8063	-2.1188	-2.8354	-2.4938	-2.3875	-2.9833	-2.1542	-2.7479	-3.0042	-2.1333	-3.1792	-2.5792	-2.4292	-40.465	145.038	60.777	234.429	-49.684	104.893	-58.978	143.637	174.777	1.672	-34.531	227.513	-92.791	213.186	59.991	-82.186	0.00052822	0.00082197	0.00020528	888.29	9.7263e-06	1.715e-06	813.15	371.68	6.339e-06	8.8182e-06	401.27	182.19	160.4	77.145	6.6375e-06	93.739	0.004043	0.0088073	0.0024603	914.97	8.2044e-05	0.00010022	840.21	385.14	8.3087e-05	0.0001004	417.98	190.24	167.26	80.433	8.8143e-05	97.448	-79.686	-29.649	1.014	-96.882	45.664	2.272	-97.553	-91.320	48.064	39.167	-93.632	-89.752	-87.752	-83.948	43.774	-86.527	-8191	255	
31459.688	1	1	0	0	0.22068	0.15293	0.094948	0.038817	0.23342	0.24261	0.18184	0.55472	0.15959	0.18515	0.099448	0.16084	0.21351	0.39997	0.20674	0.25078	-2.6521	-2.2396	-2.525	-2.8	-2.0542	-2.7354	-2.7625	-2.375	-2.8729	-2.3063	-2.5375	-2.9	-2.2854	-2.9542	-2.6708	-2.2646	181.408	230.591	84.563	220.991	194.755	-106.627	204.814	239.679	46.455	48.161	-56.828	150.438	-26.501	-88.395	-11.431	199.675	0.0005274	0.00048573	0.0001987	889.45	8.3099e-06	6.7145e-06	816.2	373.04	2.9769e-06	7.7689e-06	403.09	183.77	159.72	77.11	5.8551e-06	94.203	0.0040586	0.0088624	0.002486	915.48	8.2558e-05	0.00010144	843.21	385.88	8.2842e-05	9.9774e-05	419.34	191.2	167.17	80.424	8.8948e-05	97.854	-80.027	26.536	-7.748	-96.816	27.570	36.298	-97.661	-91.408	123.462	35.345	-93.443	-89.816	-87.862	-84.023	71.351	-86.459	-8191	255	
31459.781	1	1	0	0	0.20532	0.18046	0.27401	0.12642	0.20653	0.029785	0.1922	0.27747	0.22122	0.26878	0.18428	0.17352	0.2377	0.12954	0.18223	0.07428	-2.5458	-2.3917	-2.2687	-2.9792	-2.0312	-2.7667	-2.7167	-2.3521	-2.9188	-2.4688	-2.3625	-3.0187	-2.2438	-2.9833	-2.9021	-2.2167	92.521	-58.292	159.838	222.264	227.690	-101.563	-91.592	206.001	56.658	75.331	-82.787	-98.071	228.576	-109.088	243.409	192.464	0.00052668	0.00090857	0.00026777	886.65	6.0914e-06	1.0081e-05	819.78	375.54	3.4306e-06	6.362e-06	405.84	183.36	160.41	77.097	6.0151e-06	94.204	0.0040752	0.0088422	0.0024974	915.16	8.1778e-05	0.00010248	845.25	386.76	8.2759e-05	0.00010104	421.49	191.26	167.22	80.555	8.8469e-05	97.796	-86.865	-33.183	-12.950	-96.675	74.294	23.724	-97.957	-91.434	3.143	15.822	-93.708	-90.183	-87.970	-84.168	69.898	-86.703	-8191	255	
31459.879	1	1	0	0	0.060556	0.19798	0.054782	0.19284	0.19718	0.15535	0.13848	0.282	0.11015	0.10415	0.28156	0.12998	0.12635	0.40225	0.24699	0.23083	-2.5396	-2.3	-2.3688	-3.0375	-2.2812	-2.5167	-2.7583	-2.2	-2.8042	-2.5625	-2.2625	-3.1958	-2.1937	-2.8292	-2.8271	-2.3458	135.200	13.837	-70.714	242.423	129.160	223.480	142.108	225.472	49.974	120.148	-24.711	126.778	-71.501	-104.916	-66.784	173.243	0.00047117	0.0010519	0.00024594	884.21	2.7029e-06	6.2804e-06	812.01	370.99	5.8992e-06	6.5923e-06	403.64	182	159.84	77.166	5.436e-06	93.766	0.0040569	0.0089477	0.0025045	911.92	8.2342e-05	0.00010155	840.01	385.26	8.4163e-05	0.00010222	418.39	190.46	167.29	80.426	8.9442e-05	97.543	-79.083	-54.123	12.355	-96.873	65.281	90.741	-97.873	-91.228	72.805	45.291	-93.628	-89.724	-87.827	-83.804	19.394	-86.465	-8191	255	
31459.977	1	1	0	0	0.14499	0.13608	0.1922	0.38699	0.13418	0.14239	0.055782	0.069266	0.19575	0.053409	0.18874	0.30829	0.25219	0.34358	0.15991	0.087374	-2.3354	-2.5854	-1.9688	-3.1375	-2.2083	-2.4813	-3.0333	-2.2562	-2.7979	-2.6063	-2.3396	-3.1875	-2.675	-2.5938	-2.9833	-2.3479	14.994	154.054	181.519	239.681	-82.099	-61.856	245.917	-33.581	139.060	213.801	101.251	-102.201	-29.153	204.275	23.552	60.774	0.00045091	0.00084653	0.00010909	890.45	4.1994e-06	8.3814e-06	814.57	373.01	1.9757e-06	7.1392e-06	404.84	183.44	160.65	77.366	1.4029e-06	93.955	0.0041005	0.0087572	0.002521	913.78	8.2733e-05	0.0001012	841.88	385.85	8.2675e-05	0.00010094	420.12	191.77	167.85	80.747	8.7787e-05	97.932	-85.225	-11.664	39.972	-96.701	48.141	78.991	-97.464	-91.628	57.357	30.658	-93.922	-89.880	-87.919	-84.154	115.968	-86.785	-8191	255	
31460.096	1	1	0	0	0.15614	0.075726	0.073065	0.091994	0.032189	0.23898	0.18107	0.28383	0.2395	0.25938	0.22435	0.25924	0.38222	0.12091	0.25122	0.08176	-2.3438	-2.6729	-2.0833	-3.2083	-2.2687	-2.2917	-3.1562	-2.075	-2.6625	-2.7292	-2.2604	-2.9333	-2.6708	-2.3208	-3.0083	-2.3271	145.279	-10.787	111.896	147.213	-65.985	110.737	228.198	224.124	27.150	-50.265	175.096	210.556	243.845	125.488	-6.381	-92.519	0.00049475	0.00063401	0.00020555	887.38	8.0942e-06	4.7788e-06	817.67	374.53	3.674e-06	8.1884e-06	404.81	184.71	161.18	77.424	6.0796e-06	94.379	0.0040693	0.0088631	0.0024586	914.16	8.0916e-05	0.00010043	844.65	387.46	8.2294e-05	9.8498e-05	421.23	192.39	168.11	80.8	8.7863e-05	98.246	-73.572	-37.806	19.538	-97.137	67.886	-8.797	-97.739	-91.721	38.750	62.762	-93.964	-90.007	-88.191	-84.292	74.532	-86.767	-8191	255	
31460.166	1	1	0	0	0.19723	0.14191	0.056082	0.2641	0.082712	0.10855	0.090228	0.27728	0.073012	0.12336	0.10848	0.15477	0.27308	0.28599	0.063685	0.29	-2.2854	-2.7083	-2.0521	-2.9813	-2.4833	-2.1625	-3.1417	-2.225	-2.4917	-2.8708	-2.1729	-3.0875	-2.5667	-2.4896	-3.0062	-2.5646	-43.804	47.024	239.643	172.955	-65.219	-78.935	106.721	89.620	42.702	198.101	157.304	212.737	197.806	-98.950	188.078	157.014	0.00052406	0.00089072	0.0002321	888.72	6.412e-06	1.0975e-05	824.24	373.57	7.119e-06	1.047e-05	404.73	183.87	161.25	77.231	4.5876e-06	93.897	0.0040232	0.0087005	0.0024555	916.41	8.0953e-05	0.00010056	847.21	387.32	8.2491e-05	9.8183e-05	420.97	192.14	168.19	80.711	8.7308e-05	97.72	-79.456	-34.326	-15.457	-96.884	26.947	41.395	-97.680	-91.792	35.196	-4.570	-94.022	-89.973	-88.119	-84.360	30.074	-86.952	-8191	255	
31460.262	1	1	0	0	0.28538	0.33737	0.10035	0.1968	0.049767	0.15599	0.20759	0.18592	0.12993	0.26917	0.23017	0.21936	0.23699	0.19251	0.30561	0.27283	-2.1896	-2.8104	-1.9937	-2.9417	-2.6958	-2.1771	-3.0917	-2.5083	-2.3688	-2.8375	-2.15	-2.8979	-2.8625	-2.2729	-3.0229	-2.575	199.404	-1.761	-11.178	246.131	-73.335	-17.652	-51.476	184.305	183.805	150.246	162.783	208.829	234.389	172.871	242.101	151.173	0.00051292	0.00092615	0.00026214	893.27	9.9521e-06	6.8047e-06	814.57	372.82	3.9635e-06	5.7576e-06	405.05	183.24	160.6	77.323	6.2394e-06	93.752	0.0039842	0.0085796	0.0024774	915.64	7.9847e-05	9.9052e-05	841.67	387.02	8.1707e-05	9.8271e-05	419.69	191.44	168.02	80.766	8.7261e-05	97.757	-80.526	10.299	-29.239	-97.090	44.790	-10.440	-97.836	-91.692	-1.199	12.438	-93.873	-89.884	-88.020	-84.250	40.892	-86.894	-8191	255	
31460.383	1	1	0	0	0.091064	0.034474	0.13042	0.17573	0.21655	0.18208	0.27866	0.21834	0.20654	0.082051	0.071915	0.16087	0.18369	0.23982	0.23595	0.30047	-1.9125	-2.7292	-1.9771	-2.8125	-2.775	-2.0708	-2.9646	-2.7125	-2.3167	-3.0583	-2.2167	-2.6208	-2.7354	-2.2375	-3.0167	-2.65	230.789	63.599	-30.445	145.442	-87.013	-47.699	204.718	-96.268	234.350	-76.665	-50.365	174.029	-106.033	244.620	-71.576	170.927	0.00053107	0.00067373	0.00026965	885.28	7.5512e-06	3.7267e-06	819.12	372.89	3.9423e-06	8.5325e-06	406.02	184.13	161.23	77.507	9.4917e-06	94.237	0.0040006	0.0086208	0.002426	914.32	7.9089e-05	9.7793e-05	842.91	387.08	8.0949e-05	9.6866e-05	421.16	192.04	168.56	80.884	8.5517e-05	98.093	-80.427	-4.593	-26.639	-96.878	84.354	84.184	-97.869	-91.745	68.381	24.968	-93.927	-90.055	-88.141	-84.274	29.259	-86.789	-8191	255	
31460.479	1	1	0	0	0.24835	0.23429	0.087892	0.1849	0.22801	0.15817	0.22651	0.36664	0.3196	0.14271	0.22938	0.15687	0.038554	0.19953	0.15656	0.096799	-1.8604	-2.9896	-2.2521	-2.825	-3.0687	-2.3667	-3.2521	-2.9021	-2.3438	-3.4104	-2.6333	-2.8146	-3.2708	-2.4542	-3.0292	-3.2313	39.266	102.583	35.342	190.666	-31.029	-92.751	220.565	165.021	129.262	233.872	247.789	229.802	114.035	233.950	-61.522	214.167	0.00049849	0.00059578	0.00017712	887.7	3.9702e-06	5.8229e-06	817.85	374.45	6.4212e-06	1.0922e-05	404.8	184.83	161.33	77.006	5.1272e-06	94.399	0.003962	0.0085129	0.0023715	913.71	7.8108e-05	9.7698e-05	843	387.5	8.0334e-05	9.6359e-05	421.2	192.4	168.47	80.759	8.52e-05	98.19	-78.801	-17.482	-7.408	-97.101	27.026	60.891	-97.874	-91.884	45.614	27.099	-93.938	-90.104	-88.196	-84.134	57.136	-86.952	-8191	255	
31460.574	1	1	0	0	0.1577	0.11854	0.16313	0.29748	0.094566	0.17653	0.26252	0.1187	0.03483	0.2518	0.13428	0.1705	0.20736	0.34447	0.10112	0.22306	-1.8896	-3.0146	-2.2417	-2.5	-3.1	-2.5479	-3.0062	-3.0458	-2.3333	-3.0521	-2.6125	-2.6542	-3.2271	-2.45	-2.6854	-2.9208	-18.908	35.286	51.950	239.192	65.042	12.466	-107.390	187.493	232.921	218.356	18.675	210.633	247.676	207.665	101.636	176.084	0.00051888	0.00063199	0.00013506	886.92	5.8382e-06	6.8337e-06	817.78	373.56	3.3332e-06	6.7718e-06	403.49	183.56	160.42	76.883	5.5902e-06	93.365	0.0039143	0.0084222	0.0023908	913.81	7.8634e-05	9.6415e-05	843.76	386.29	7.8534e-05	9.5022e-05	419.48	191.61	167.64	80.444	8.4308e-05	97.357	-76.974	-12.772	-15.689	-96.966	17.455	48.379	-97.654	-91.930	25.483	41.320	-94.009	-89.928	-88.181	-84.324	33.829	-86.862	-8191	255	
31460.695	1	1	0	0	0.14075	0.014525	0.24977	0.22725	0.25597	0.0822	0.2161	0.19294	0.11305	0.10996	0.22728	0.2275	0.18466	0.092507	0.11473	0.32434	-1.8979	-3.1479	-2.5604	-2.5687	-3.0917	-2.3146	-3.1854	-3.0354	-2.2812	-2.9562	-2.7188	-2.4354	-3.3937	-2.4958	-2.6292	-3.1896	-42.226	233.436	-27.875	190.777	153.423	33.564	-104.618	196.459	194.996	-0.121	-96.994	-70.288	-82.680	-69.846	69.038	164.719	0.00048506	0.0010455	0.00022685	881.38	4.6181e-06	1.1379e-05	810.42	370.96	8.1188e-07	3.9823e-06	403.02	182.64	160.16	77.317	7.072e-06	93.98	0.0038799	0.0083084	0.0023602	907.8	7.5702e-05	9.5296e-05	836.86	384	7.6387e-05	9.3703e-05	417.78	190.85	167.18	80.379	8.2058e-05	97.531	-86.534	-23.220	-50.583	-96.963	37.335	60.883	-97.740	-91.807	22.430	15.893	-93.628	-89.888	-87.757	-84.050	25.596	-86.559	-8191	255	
31460.793	1	1	0	0	0.16985	0.14418	0.12686	0.081529	0.16992	0.028828	0.12484	0.19903	0.10018	0.095531	0.085712	0.31281	0.16851	0.10282	0.29174	0.21156	-1.9188	-2.9417	-2.5396	-2.4708	-3.1729	-2.3375	-2.9062	-3.0833	-2.1521	-3.0021	-3.0083	-2.3792	-3.2313	-2.7208	-2.6229	-3.1917	-90.996	-86.235	-62.297	227.304	196.201	-9.579	77.936	193.257	140.558	56.078	70.007	206.111	-62.381	91.414	50.163	205.116	0.00045855	0.0006079	0.00024764	883.31	9.166e-06	3.8438e-06	812.79	371.18	2.4439e-06	5.7717e-06	404.34	183.6	160.19	76.706	6.2438e-06	94.018	0.0037441	0.0081265	0.0023035	907.32	7.3965e-05	9.2577e-05	838.97	384.83	7.5153e-05	9.1116e-05	419.29	191.2	167	80.2	7.9659e-05	97.635	-86.961	-3.496	-21.605	-97.148	3.228	76.193	-97.666	-91.567	-31.482	25.255	-94.090	-90.088	-88.146	-84.307	33.000	-87.055	-8191	255	
31460.863	1	1	0	0	0.25461	0.062132	0.06429	0.091471	0.1487	0.058314	0.15749	0.17224	0.089244	0.087992	0.25046	0.023546	0.042013	0.071992	0.050199	0.021271	-1.9042	-2.9604	-2.9	-2.4313	-3.1083	-2.3729	-2.4042	-3.2167	-2.3812	-2.7896	-3.0563	-2.5062	-3.1625	-2.8104	-2.6125	-3.3625	209.867	-0.172	135.060	-63.044	197.688	171.229	194.133	190.550	-23.222	41.557	9.914	-64.223	178.114	-95.812	61.436	-36.794	0.00054266	0.00076307	0.00020706	882.18	5.4881e-06	3.7912e-06	816.23	371.83	4.0313e-06	6.3685e-06	405.13	184.01	160.47	76.601	3.7385e-06	94.119	0.0037166	0.007884	0.0022313	906.16	7.2149e-05	8.9408e-05	841.53	383.91	7.3696e-05	8.7998e-05	419.79	191.44	167.14	79.929	8.002e-05	97.874	-85.258	-20.485	-6.048	-96.904	70.266	48.043	-98.147	-91.887	51.502	47.002	-94.004	-90.255	-88.176	-84.387	134.708	-87.019	-8191	255	
31460.982	1	1	0	0	0.067475	0.12942	0.22581	0.078838	0.23632	0.31047	0.13921	0.31256	0.087191	0.098321	0.12063	0.35471	0.26304	0.22298	0.424	0.21559	-2.0854	-2.725	-3.0229	-2.475	-3.1021	-2.8479	-2.6021	-3.1958	-2.4813	-2.5333	-3.2875	-2.3521	-3.1708	-2.9896	-2.3104	-3.2562	207.313	232.920	-94.405	-43.134	168.238	107.678	166.008	213.040	-108.499	38.216	245.861	170.023	-109.153	219.149	161.004	210.821	0.00046748	0.00091424	0.00024553	883.78	6.9304e-06	7.6074e-06	816.92	370.59	5.262e-06	4.8696e-06	402.16	183.52	160.31	76.583	1.1063e-05	93.747	0.0036545	0.0079498	0.0022062	907.27	7.2253e-05	8.9593e-05	840.45	383.7	7.4057e-05	8.8924e-05	418.65	190.87	166.5	79.799	7.8916e-05	97.361	-83.711	-3.306	-15.561	-97.296	73.240	64.664	-98.071	-91.655	15.729	21.773	-93.844	-90.115	-88.048	-84.433	80.109	-87.060	-8191	255	
31461.078	1	1	0	0	0.022391	0.12667	0.1647	0.17171	0.25008	0.20472	0.14364	0.25575	0.35605	0.03717	0.20844	0.15586	0.3758	0.29789	0.23242	0.2283	-2.0042	-2.5042	-2.9958	-2.4062	-2.9458	-2.8021	-2.5521	-3.225	-2.6042	-2.5396	-3.0938	-2.3479	-3.0354	-3.0542	-2.3063	-3.2875	97.654	142.497	49.885	215.509	97.227	105.087	85.088	208.226	222.293	150.563	215.638	239.006	204.524	245.636	82.027	197.816	0.00049015	0.0010677	0.0001549	878.47	4.718e-06	1.1058e-05	816.43	371.04	3.5606e-06	7.6723e-06	402.79	182.57	159.41	76.745	6.8125e-06	93.73	0.003668	0.007872	0.0021906	903.71	7.2092e-05	8.9679e-05	836.47	383.66	7.373e-05	8.9377e-05	418.47	190.56	166.57	79.923	7.8295e-05	97.583	-83.373	-17.293	-25.852	-97.345	81.376	30.042	-97.862	-91.674	14.144	30.746	-94.046	-90.327	-88.094	-84.278	76.453	-86.870	-8191	255	
31461.176	1	1	0	0	0.076267	0.33584	0.3167	0.32016	0.088437	0.21194	0.043514	0.22683	0.026779	0.15083	0.45899	0.21928	0.10059	0.12662	0.23702	0.14267	-2.1417	-2.4375	-3.0854	-2.6167	-2.9437	-2.9688	-2.4583	-3.2854	-2.5729	-2.5875	-3.3	-2.4604	-2.9813	-3.1333	-2.1708	-3.2021	190.381	-35.982	168.829	177.394	111.613	71.040	133.850	219.967	161.443	121.549	213.372	196.730	241.801	149.460	-2.109	157.481	0.00051422	0.00033452	0.00017927	881.81	9.1979e-06	8.4795e-06	813.66	370.64	3.0579e-06	6.8005e-06	403.5	183.89	159.96	77.058	3.5896e-06	94.152	0.0036843	0.0078514	0.0021942	904.58	7.2136e-05	8.9957e-05	838.04	384.09	7.344e-05	8.9471e-05	419.41	191.4	166.8	80.2	7.8851e-05	97.912	-82.693	-16.912	-21.911	-97.183	57.549	34.538	-97.714	-91.604	56.713	56.559	-93.872	-89.824	-87.897	-84.324	-0.473	-86.815	-8191	255	
31461.271	1	1	0	0	0.017831	0.10764	0.094728	0.26079	0.12384	0.16494	0.077403	0.29443	0.15979	0.13396	0.10646	0.057381	0.2081	0.34983	0.087671	0.37365	-2.3937	-2.3729	-3.0729	-2.4542	-2.75	-3.025	-2.3729	-3.2271	-2.6979	-2.4813	-3.4292	-2.5583	-2.7708	-3.3375	-2.5292	-3.2729	-1.011	154.982	223.048	193.279	167.386	-90.723	114.400	144.694	228.105	-92.824	231.072	212.590	130.790	195.709	58.369	167.111	0.000527	0.00082871	0.00016241	881.46	8.5711e-06	3.6945e-06	817.3	373.95	2.4172e-06	7.7923e-06	406.6	185.22	160.51	76.973	1.5412e-06	94.651	0.003704	0.0078806	0.0022261	906.78	7.3764e-05	9.0996e-05	841.75	385.33	7.4082e-05	9.0077e-05	421.33	192.26	167.32	80.177	7.9871e-05	98.357	-82.046	-42.498	-60.026	-97.042	75.093	44.423	-97.567	-91.327	77.377	71.106	-93.792	-90.037	-87.704	-84.072	85.957	-86.526	-8191	255	
31461.393	1	1	0	0	0.093335	0.27585	0.12044	0.10679	0.098484	0.16976	0.20328	0.2798	0.12661	0.14779	0.18054	0.30367	0.28796	0.25991	0.038357	0.21108	-2.2333	-2.2833	-3.1688	-2.7396	-2.5771	-2.9667	-2.4729	-3.0354	-2.7167	-2.4125	-3.3375	-2.8396	-2.6542	-3.2833	-2.4688	-3.0083	69.499	-74.158	-49.507	230.218	134.063	54.531	164.771	172.406	-21.296	-65.739	230.619	-103.019	185.596	205.998	118.669	30.207	0.0005471	0.00082643	0.00016627	883.86	6.2159e-06	6.0959e-06	819.79	371.49	9.7776e-06	8.219e-06	404.6	184.43	160.12	76.968	4.8051e-06	94.128	0.0037296	0.0080192	0.0022425	907.51	7.3514e-05	9.0867e-05	842.36	384.28	7.4533e-05	9.0509e-05	420.67	191.97	167.04	80.149	8.1233e-05	97.986	-78.422	-17.528	-29.294	-97.097	102.243	50.340	-97.739	-91.541	40.434	51.353	-93.645	-89.961	-87.885	-84.059	13.986	-86.556	-8191	255	
31461.463	1	1	0	0	0.1606	0.15532	0.15702	0.16178	0.15222	0.057475	0.35917	0.1188	0.20081	0.19372	0.16734	0.1029	0.099076	0.14088	0.094271	0.34173	-2.4813	-2.2958	-3.1458	-2.7917	-2.3458	-3.1667	-2.3104	-2.8729	-3.075	-2.1854	-3.0542	-2.9813	-2.6208	-3.4958	-2.3583	-2.8417	13.423	195.080	-69.095	22.613	173.418	243.384	180.536	-96.675	194.726	-86.219	247.658	202.637	-1.421	-96.129	15.937	142.094	0.00047618	0.0007033	0.0002596	878.69	7.6026e-06	9.196e-06	813.69	370.86	7.6759e-06	7.1052e-06	405.11	184.73	160.32	77.349	5.6952e-06	94.85	0.0036455	0.0078422	0.0022337	903.38	7.3269e-05	9.0972e-05	837.76	384.22	7.3821e-05	8.8907e-05	420.91	192.04	167.11	80.355	8.0056e-05	98.38	-83.249	-2.985	-32.814	-97.143	88.615	-0.300	-97.870	-91.759	37.755	33.767	-93.843	-90.021	-87.907	-84.124	23.128	-86.996	-8191	255	
31461.561	1	1	0	0	0.16795	0.072669	0.15126	0.17833	0.21067	0.096827	0.11922	0.1182	0.29131	0.12569	0.10764	0.4071	0.22203	0.20706	0.23277	0.12983	-2.8333	-2.2875	-2.9333	-2.9292	-2.4562	-3.0979	-2.5292	-2.775	-3.1312	-2.3417	-3.3063	-2.8438	-2.45	-3.425	-2.4333	-2.8667	44.983	173.433	-91.991	184.083	72.781	233.712	231.268	189.925	130.892	133.573	-47.058	225.782	-98.213	158.381	102.440	168.784	0.00053187	0.00093801	0.00020552	879.91	6.1409e-06	6.5302e-06	816.08	372.31	7.6619e-06	6.3315e-06	407.75	185.68	160.77	77.441	7.1198e-06	94.814	0.0037142	0.0079264	0.0022486	904.88	7.2995e-05	9.0309e-05	841.08	385.24	7.3794e-05	9.0199e-05	422.78	192.84	167.65	80.596	7.9444e-05	98.619	-81.968	-33.382	38.325	-97.012	44.202	29.664	-97.857	-91.860	29.450	34.316	-93.866	-90.163	-87.956	-84.288	77.987	-86.854	-8191	255	
31461.656	1	1	0	0	0.33836	0.30322	0.28836	0.057404	0.098361	0.22693	0.1181	0.36341	0.16244	0.20145	0.085667	0.093895	0.25317	0.15143	0.30546	0.31452	-2.7687	-2.2396	-2.7188	-2.925	-2.3	-3.1646	-2.8229	-2.7146	-3.1729	-2.2875	-2.8875	-2.9896	-2.3417	-3.4292	-2.5938	-2.6292	197.081	179.246	-29.031	201.178	-90.067	221.483	192.494	219.278	110.205	-53.159	78.604	152.596	-89.555	224.536	-3.480	187.954	0.00051995	0.00078758	0.00025734	879.39	8.2712e-06	1.079e-05	820.08	372.69	3.4781e-06	1.1388e-05	408.26	185.62	160.1	77.278	7.1859e-06	95.417	0.0036292	0.0080112	0.0022301	905.01	7.2451e-05	9.1089e-05	844.3	385.51	7.3701e-05	8.999e-05	423.73	193.28	167.09	80.582	7.8698e-05	98.892	-79.045	-15.066	-33.675	-97.344	73.513	29.938	-97.758	-91.515	81.919	29.119	-93.423	-90.134	-87.673	-83.926	-5.799	-86.609	-8191	255	
31461.775	1	1	0	0	0.15004	0.14791	0.057745	0.090472	0.10807	0.12121	0.19982	0.21975	0.16698	0.18398	0.21269	0.061498	0.17339	0.29372	0.2847	0.40543	-2.8979	-2.3438	-2.9542	-3.1375	-2.3937	-3.0979	-2.9271	-2.4542	-3.1396	-2.3396	-2.7687	-3.0625	-2.3875	-3.4104	-2.6792	-2.6083	-69.197	132.013	198.236	120.777	67.045	26.801	116.852	200.977	198.126	236.770	216.361	-97.261	-108.617	232.953	38.868	224.841	0.00049329	0.00071863	0.00024933	880.5	8.2764e-06	7.4428e-06	817.69	372.47	2.1152e-06	6.6343e-06	407.4	185.06	160.48	76.98	7.746e-06	94.972	0.0036651	0.007996	0.0022276	905.23	7.2725e-05	9.038e-05	844.25	384.87	7.3449e-05	8.8387e-05	422.94	192.69	167.14	80.356	7.9571e-05	98.664	-84.322	-46.960	7.642	-96.875	30.562	60.890	-97.792	-91.461	129.748	81.672	-93.590	-89.872	-87.808	-84.190	42.267	-86.401	-8191	255	
31461.871	1	1	0	0	0.10974	0.059167	0.23422	0.093269	0.13848	0.031901	0.39921	0.44273	0.045747	0.23417	0.15471	0.061405	0.093643	0.2215	0.090816	0.29258	-2.8083	-2.3625	-2.4062	-3.2125	-2.2229	-2.8875	-3.0229	-2.3333	-3.0604	-2.6979	-2.6354	-3.0479	-2.5563	-2.9667	-2.9396	-2.4958	-62.831	124.636	-1.909	153.333	140.626	130.530	145.846	178.313	47.903	-40.271	19.203	236.768	-32.238	224.558	-72.356	195.939	0.00049027	0.00076724	0.00025488	882.15	3.4113e-06	4.0521e-06	812.02	371.6	2.9436e-06	8.5647e-06	407.83	184.67	160.1	77.3	7.6006e-06	95.168	0.003668	0.0079193	0.0022577	903.55	7.2136e-05	9.1254e-05	839.65	384.8	7.4106e-05	9.0113e-05	422.22	192.67	167.03	80.57	7.9879e-05	98.767	-83.683	-18.403	-5.703	-97.094	50.010	43.510	-97.789	-91.464	67.979	22.605	-93.146	-89.634	-87.756	-83.774	51.074	-86.461	-8191	255	
31461.967	1	1	0	0	0.057672	0.14	0.25223	0.22734	0.15704	0.06088	0.096177	0.24145	0.42084	0.061181	0.076848	0.41852	0.18917	0.19702	0.29969	0.26855	-2.7687	-2.4458	-2.6458	-3.125	-2.3063	-2.7729	-3.0396	-2.2833	-3.1063	-2.5312	-2.4646	-3.2458	-2.4396	-2.925	-3.0042	-2.3688	-48.175	47.010	149.179	212.866	134.236	216.014	16.130	181.549	-86.503	211.569	196.276	198.564	-76.831	-85.067	127.705	241.357	0.00053741	0.00039075	0.00022551	877.46	3.9907e-06	9.7701e-06	817.99	372.48	4.4828e-06	4.9617e-06	409.8	185.27	159.94	77.189	5.548e-06	95.35	0.003726	0.0080844	0.0022518	902.92	7.3643e-05	9.0989e-05	842.37	384.56	7.4912e-05	9.0609e-05	424.08	193.3	167.31	80.579	7.931e-05	99.079	-77.434	-16.240	-35.685	-96.806	19.087	33.734	-97.570	-91.107	17.484	73.135	-93.543	-89.913	-87.882	-84.296	46.629	-86.923	-8191	255	
31462.062	1	1	0	0	0.21315	0.11437	0.2662	0.16965	0.033145	0.11578	0.094619	0.22396	0.11552	0.13527	0.1874	0.15564	0.24295	0.24259	0.17083	0.40008	-2.8125	-2.6542	-2.35	-3.0854	-2.3229	-2.6708	-3.1917	-2.4562	-2.9958	-2.9292	-2.6104	-3.2438	-2.5854	-2.9708	-3.1125	-2.4854	106.999	63.860	-77.263	196.440	197.076	164.365	167.170	146.937	57.045	152.913	-106.941	-98.795	-64.308	211.415	116.423	227.950	0.00052955	0.0003993	0.00020652	880.6	6.5562e-06	6.5637e-06	820.69	372.26	8.4819e-06	7.3439e-06	410.32	186.22	160.31	77.342	3.5026e-06	95.12	0.0037282	0.0080708	0.0022659	905.33	7.3888e-05	9.2321e-05	844.58	385.33	7.6216e-05	9.2516e-05	424.62	193.7	167.38	80.664	8.0696e-05	99.02	-79.109	-47.756	-26.749	-97.137	15.698	29.561	-98.040	-91.778	41.145	28.357	-93.691	-90.019	-88.032	-84.288	11.666	-86.839	-8191	255	
31462.158	1	1	0	0	0.051636	0.10377	0.16201	0.088862	0.0585	0.17267	0.23917	0.32411	0.24675	0.044841	0.10108	0.14818	0.13235	0.61083	0.24454	0.31281	-2.7188	-2.8146	-2.3833	-3.2646	-2.6688	-2.6229	-3.3792	-2.5604	-2.9542	-2.8146	-2.5708	-3.25	-2.5438	-2.6979	-3.1958	-2.5917	40.051	16.544	-24.297	-70.966	90.372	230.941	224.519	88.746	124.412	197.924	-72.070	-1.284	242.931	-96.766	-8.234	139.070	0.00053586	0.00098454	0.00022648	883.59	6.2952e-06	6.6676e-06	821.86	371.91	5.291e-06	8.6767e-06	406.46	184.77	159.76	77.129	5.2755e-06	94.705	0.003792	0.0080388	0.0022839	906.09	7.4237e-05	9.3142e-05	844.7	383.99	7.5685e-05	9.1356e-05	421.98	192.58	166.71	80.378	8.0998e-05	98.415	-81.951	-36.049	-34.099	-96.950	9.023	70.758	-97.617	-91.507	22.778	44.656	-93.614	-89.583	-87.666	-83.876	38.880	-86.415	-8191	255	
31462.256	1	1	0	0	0.21422	0.24534	0.34358	0.27443	0.15684	0.28201	0.15917	0.30929	0.041123	0.20673	0.10699	0.21137	0.067513	0.36817	0.15949	0.22231	-2.6813	-2.9875	-2.2229	-3.3583	-2.5896	-2.5417	-3.3312	-2.6396	-2.8083	-3.1229	-2.4938	-3.2687	-2.8854	-2.5396	-3.3292	-2.825	208.637	-81.728	216.853	164.953	-7.799	-22.672	244.515	205.932	12.867	102.055	144.628	-75.461	210.990	234.825	238.132	96.678	0.00050562	0.00088653	7.3548e-05	875.43	7.0485e-06	1.3119e-05	814.7	370.18	7.9224e-06	3.9648e-06	405.81	184.87	159.51	77.141	5.8376e-06	95.106	0.0037715	0.0079845	0.0022634	902.53	7.524e-05	9.2814e-05	838.97	383.13	7.555e-05	9.1177e-05	420.82	192.42	166.82	80.412	8.1479e-05	98.788	-78.866	-44.052	53.523	-96.697	9.748	44.887	-97.756	-91.426	78.507	38.776	-93.399	-89.675	-87.757	-83.762	68.855	-86.577	-8191	255	
31462.377	1	1	0	0	0.19044	0.16956	0.17024	0.13988	0.23098	0.19645	0.28488	0.26248	0.15171	0.038676	0.30335	0.048195	0.15313	0.4846	0.16992	0.17353	-2.5979	-3.3021	-2.2146	-3.1292	-2.8271	-2.3812	-3.1917	-2.6063	-2.6312	-3.1375	-2.4271	-3.2062	-3.0542	-2.4813	-3.0854	-2.7854	162.147	155.151	154.355	234.163	-10.758	215.443	249.901	-98.943	50.297	-54.113	34.864	44.180	218.836	-102.196	202.905	191.736	0.00048259	0.0010039	0.00023047	880.54	7.2419e-06	6.6776e-06	817.75	372.52	3.8728e-06	4.3047e-06	406.67	185.18	160.09	77.037	1.956e-06	95.278	0.0037747	0.0081681	0.0023121	903.73	7.4409e-05	9.24e-05	842.08	383.98	7.5417e-05	9.1073e-05	421.88	192.9	166.8	80.512	8.1043e-05	98.989	-81.437	-20.035	-9.744	-96.798	61.161	34.082	-97.690	-91.553	-3.967	21.098	-93.749	-89.821	-87.805	-84.070	54.086	-86.567	-8191	255	
31462.473	1	1	0	0	0.083329	0.24333	0.20856	0.2203	0.028132	0.087176	0.27684	0.16432	0.05713	0.32894	0.21587	0.42133	0.034608	0.20731	0.224	0.27639	-2.2958	-2.9875	-2.3167	-3.0958	-2.7646	-2.3438	-3.0667	-2.5604	-2.55	-3.3104	-2.6521	-3.1229	-3.0875	-2.6625	-3.0708	-2.7771	-54.934	-10.984	-108.299	223.522	-96.855	30.102	200.926	212.365	-108.939	162.851	-95.308	136.721	136.356	225.054	241.617	228.543	0.00050084	0.00086773	0.0002048	877.93	8.1306e-06	9.95e-06	819.67	371.49	6.7748e-06	9.017e-06	408.41	185.67	159.61	76.899	3.1117e-06	95.334	0.0037573	0.0080534	0.0022868	903.63	7.4542e-05	9.3275e-05	843.07	383.92	7.5887e-05	9.1887e-05	422.68	193.05	166.51	80.29	8.1402e-05	99.142	-86.468	-46.020	-24.044	-96.907	56.019	81.302	-97.496	-91.531	52.429	33.880	-93.620	-89.880	-87.709	-83.658	71.134	-86.454	-8191	255	
31462.568	1	1	0	0	0.13762	0.081367	0.060302	0.28734	0.057126	0.03849	0.12384	0.30962	0.23315	0.11873	0.12858	0.14444	0.16032	0.22313	0.16898	0.39686	-2.2271	-3.2333	-2.3187	-2.9562	-2.9729	-2.3396	-3.0917	-2.8833	-2.3917	-3.2646	-2.4688	-3.0417	-3.25	-2.7208	-3.0333	-2.9646	-91.379	173.082	136.073	227.153	107.902	-58.875	186.787	215.109	-72.609	-83.733	124.017	244.946	87.488	249.087	44.657	185.574	0.00049817	0.00048184	0.00021511	877.53	5.1454e-06	8.6142e-06	815.77	370.58	4.2372e-06	1.027e-05	406.37	184.08	159.28	76.949	4.0426e-06	94.704	0.0037948	0.0081036	0.0023107	903.49	7.4589e-05	9.3157e-05	840.48	382.58	7.6508e-05	9.1036e-05	420.42	192.02	166.42	80.134	8.0553e-05	98.38	-80.993	-29.597	-31.025	-96.793	67.349	55.363	-97.867	-91.654	83.815	21.377	-93.911	-89.841	-88.118	-84.300	62.378	-86.791	-8191	255	
31462.664	1	1	0	0	0.082396	0.05873	0.16659	0.27708	0.19646	0.24402	0.2936	0.17919	0.20266	0.13702	0.15349	0.056126	0.11585	0.23931	0.27091	0.34834	-1.9625	-3.0938	-2.5812	-2.9542	-3.1729	-2.3167	-3.1979	-3.1146	-2.3354	-3.1792	-2.6813	-2.6333	-3.2375	-2.4521	-2.9854	-3.1063	96.067	139.752	128.447	-91.955	-92.566	209.307	206.886	-75.223	80.776	150.438	203.984	185.554	154.985	-51.118	-10.443	239.853	0.00051474	0.00079804	0.00026647	877.72	8.9877e-06	1.0099e-05	814.99	370.46	7.1824e-06	9.0083e-06	406	184.84	160.1	77.053	5.4824e-06	95.048	0.0037124	0.0080071	0.0022487	901.01	7.3847e-05	9.153e-05	839.37	382.9	7.4526e-05	9.0027e-05	421.39	192.59	166.97	80.366	7.9044e-05	98.822	-91.700	16.458	-3.062	-96.973	73.523	4.938	-97.817	-91.602	36.001	68.405	-93.798	-89.701	-87.847	-84.158	55.145	-86.696	-8191	255	
31462.762	1	1	0	0	0.10222	0.079307	0.10878	0.07259	0.19932	0.17634	0.16439	0.12063	0.15885	0.17823	0.15919	0.22648	0.19654	0.23087	0.27641	0.33723	-1.8646	-2.9708	-2.4771	-2.625	-3.2146	-2.2062	-2.9167	-3.25	-2.1479	-3.2542	-2.7542	-2.8479	-3.1792	-2.8312	-2.8312	-3.1708	23.155	184.622	-1.958	224.923	135.355	208.166	205.565	177.274	-74.451	160.552	227.778	169.042	147.728	164.970	247.909	150.164	0.00058789	0.00098757	0.00015752	877.93	4.3109e-06	7.3377e-06	814.92	370.94	7.0686e-06	6.8893e-06	408.88	186.03	160.8	77.417	6.0557e-06	95.185	0.0036466	0.0078862	0.0022067	903.31	7.2015e-05	8.9444e-05	840.71	383.6	7.2887e-05	8.9309e-05	422.82	193.53	167.11	80.601	7.8679e-05	99.005	-85.017	-16.461	0.642	-96.809	73.162	62.908	-97.438	-91.296	88.836	-7.195	-93.315	-89.416	-87.833	-84.061	43.354	-86.580	-8191	255	
31462.857	1	1	0	0	0.2502	0.16537	0.18812	0.1393	0.16652	0.073129	0.096618	0.072805	0.25612	0.075759	0.20667	0.31532	0.036792	0.48891	0.25627	0.16704	-1.9937	-3.1479	-2.6229	-2.6104	-3.2083	-2.4396	-2.8312	-3.2854	-2.3604	-3.1229	-2.9208	-2.5979	-3.275	-2.6375	-2.7667	-3.5292	1.647	165.671	69.929	217.027	221.268	-23.975	-52.960	-49.408	226.276	80.884	-7.566	188.163	76.675	212.496	84.107	226.236	0.00051572	0.00085972	0.00025179	881.96	4.1256e-06	9.3012e-06	820.72	371.94	5.4875e-06	7.5038e-06	410.65	186.48	160.12	76.942	9.4303e-06	95.255	0.0036837	0.0079381	0.0021998	905.3	7.402e-05	9.2218e-05	844.75	384.6	7.5108e-05	9.2079e-05	424.96	194.02	167.39	80.439	8.3208e-05	99.21	-77.744	-37.512	-0.876	-96.685	69.395	47.695	-97.409	-91.356	34.341	23.780	-93.845	-89.715	-87.836	-84.088	28.349	-86.718	-8191	255	
31462.951	1	1	0	0	0.14832	0.13522	0.09453	0.24369	0.036854	0.28246	0.12226	0.13209	0.042992	0.14887	0.22103	0.10262	0.17382	0.13548	0.33333	0.26105	-1.9146	-3.0021	-2.9583	-2.4938	-3.1063	-2.6229	-2.6188	-3.1437	-2.4208	-2.9292	-2.9917	-2.5708	-3.3917	-2.8979	-2.7125	-3.3292	182.015	13.251	35.407	-22.968	122.077	-102.903	163.352	-87.637	51.203	-81.146	240.915	188.416	240.152	-61.828	124.722	162.035	0.00052195	0.00027707	0.00029725	879.95	5.8956e-06	2.8218e-06	814.87	371.2	5.2495e-06	7.1336e-06	406.6	184.77	159.91	76.919	6.9824e-06	94.804	0.0038267	0.0083204	0.0023269	905.53	7.6399e-05	9.4676e-05	842.99	384.25	7.8146e-05	9.4951e-05	422.75	192.79	167.01	80.276	8.4466e-05	98.648	-83.721	-67.011	17.781	-96.523	48.755	63.955	-97.242	-91.204	-0.977	14.545	-93.847	-89.638	-87.785	-84.220	49.407	-86.647	-8191	255	
31463.072	1	1	0	0	0.16334	0.15345	0.10704	0.089757	0.056933	0.1625	0.094593	0.2374	0.25984	0.29273	0.066189	0.36257	0.16572	0.28392	0.1672	0.10172	-1.9646	-2.7896	-3.0625	-2.4271	-3.2812	-2.8479	-2.7042	-3.4979	-2.4667	-2.8438	-3.0854	-2.5375	-3.2333	-2.9813	-2.5687	-3.3771	124.982	16.995	101.179	-103.968	78.479	-44.549	98.253	196.984	-42.101	-42.013	148.302	205.790	244.831	160.149	4.808	175.189	0.00044479	0.00086135	0.00033158	880.63	4.6435e-06	4.0752e-06	815.2	373.21	2.3801e-06	5.2091e-06	408.36	186.32	160.5	77.223	3.9041e-06	95.179	0.0039412	0.0084816	0.0023773	905.97	7.9449e-05	9.8084e-05	842.47	385.27	8.0716e-05	9.7416e-05	424.25	193.8	167.79	80.535	8.627e-05	99.201	-87.127	-36.927	-2.970	-96.513	3.471	39.094	-97.347	-91.356	16.792	57.728	-93.728	-89.710	-87.929	-84.051	38.328	-86.812	-8191	255	
31463.168	1	1	0	0	0.083553	0.25064	0.22061	0.24744	0.26182	0.057679	0.2196	0.19899	0.049543	0.16418	0.22212	0.3612	0.20853	0.21697	0.11874	0.37731	-2.025	-2.7292	-2.9667	-2.3625	-3.0271	-2.9708	-2.45	-3.3187	-2.6167	-2.8125	-3.1479	-2.4958	-3.175	-3.1937	-2.2583	-3.5125	-25.107	214.401	65.350	199.226	143.508	220.134	138.767	141.926	42.020	52.198	152.596	185.869	223.255	247.965	-94.848	228.248	0.00051345	0.0011571	0.00013982	883.12	7.8875e-06	4.7382e-06	819.35	372.12	5.0426e-06	8.0234e-06	408.72	186.22	160.29	77.195	1.7851e-06	95.376	0.0039911	0.008547	0.002391	908.16	7.9855e-05	9.8618e-05	846.49	385.61	8.0949e-05	9.5949e-05	425.46	194.42	167.87	80.602	8.5955e-05	99.284	-82.786	-37.261	-17.546	-97.054	68.417	18.792	-97.837	-91.710	34.888	-6.261	-93.817	-89.983	-87.798	-84.304	59.283	-86.728	-8191	255	
31463.264	1	1	0	0	0.25568	0.024002	0.1644	0.1641	0.23442	0.2034	0.21799	0.18723	0.081454	0.2175	0.17103	0.1403	0.23141	0.17304	0.20921	0.28317	-2.1625	-2.5062	-3.1271	-2.4271	-2.8958	-3.0417	-2.4167	-3.2938	-2.6167	-2.5833	-3.4521	-2.4958	-3.0208	-3.0354	-2.15	-3.3729	-100.912	209.540	92.455	238.072	59.251	-36.007	156.355	183.801	66.757	-80.412	231.087	172.475	135.713	186.659	192.715	135.827	0.00053525	0.00082811	0.00015787	883.35	4.8351e-06	1.3261e-05	820.96	372.72	4.4172e-06	4.3817e-06	407.49	185.54	159.94	76.769	2.6601e-06	95.05	0.0039669	0.0086218	0.0023971	910.2	7.8045e-05	9.8106e-05	846.99	386.09	8.0366e-05	9.7452e-05	424.63	193.66	167.59	80.324	8.5208e-05	98.795	-81.231	-18.132	9.261	-96.688	27.897	54.979	-97.535	-91.515	31.422	-10.549	-93.657	-89.985	-87.711	-84.289	61.704	-86.678	-8191	255	
31463.336	1	1	0	0	0.035882	0.27514	0.16445	0.15988	0.20811	0.16895	0.050976	0.17995	0.059111	0.33096	0.20071	0.23223	0.22351	0.076852	0.15338	0.29289	-2.3333	-2.6729	-3.4062	-2.5604	-2.7542	-3.2083	-2.4396	-3.2083	-2.8458	-2.475	-3.3271	-2.7062	-2.7646	-3.3396	-2.4375	-3.3104	115.602	-88.335	216.219	236.462	9.617	-99.863	229.038	211.144	-36.007	210.899	-62.044	157.259	240.095	178.226	216.888	149.623	0.00048823	0.00041773	0.00025748	881.22	3.9377e-06	1.2841e-05	817.81	372.23	1.0468e-05	8.8061e-06	409.04	184.98	159.92	77.08	3.523e-06	94.535	0.0039476	0.0084113	0.0023677	906.96	7.7239e-05	9.5868e-05	841.22	385.23	7.959e-05	9.5785e-05	423.61	193.05	167.33	80.308	8.5843e-05	98.587	-79.679	-7.212	-31.430	-96.900	62.830	28.924	-97.704	-91.290	70.280	47.088	-93.557	-89.833	-87.609	-84.195	-11.011	-86.449	-8191	255	
31463.455	1	1	0	0	0.093973	0.1089	0.018321	0.13767	0.15147	0.097892	0.1884	0.30087	0.059742	0.023235	0.10579	0.19891	0.33876	0.21162	0.044086	0.094608	-2.3563	-2.3125	-3.2354	-2.6354	-2.5521	-3.2104	-2.4333	-3.1521	-2.7958	-2.425	-3.4104	-2.6625	-2.8104	-3.4542	-2.3417	-3.0792	29.726	58.462	43.805	105.676	-52.158	192.301	178.203	203.339	141.028	46.377	230.434	173.718	213.418	-104.154	-39.898	-8.309	0.00049835	0.0010535	0.00031374	883.36	8.479e-06	8.1172e-06	815.76	371.87	4.9753e-06	1.0826e-05	408.35	185.04	160.88	76.86	2.7393e-06	94.804	0.0039906	0.0086069	0.0023957	907.99	7.8389e-05	9.7301e-05	842.47	385.59	7.9084e-05	9.6357e-05	424.18	193.09	167.66	80.336	8.5218e-05	98.666	-79.070	-19.772	37.832	-96.685	62.881	45.064	-97.565	-91.517	34.467	34.500	-93.527	-89.755	-87.608	-84.025	18.825	-86.458	-8191	255	
31463.553	1	1	0	0	0.10135	0.29999	0.054868	0.092518	0.21235	0.28189	0.16165	0.21555	0.067049	0.37127	0.10216	0.22823	0.18642	0.38445	0.15502	0.17131	-2.5958	-2.2229	-3.2208	-2.7229	-2.4417	-3.4292	-2.4396	-2.7875	-2.9313	-2.3187	-3.2313	-2.9146	-2.8292	-3.4188	-2.3812	-3.0563	240.936	-36.176	153.900	203.217	-44.583	176.748	213.646	145.986	249.691	-99.927	184.018	155.557	224.401	167.731	8.938	-104.892	0.00054866	0.00068905	0.00019981	881.27	1.0859e-05	6.7527e-06	818.63	371.39	7.7779e-06	8.5125e-06	408.37	185.86	160.01	76.665	3.0508e-06	94.914	0.003919	0.0084919	0.0023911	907.51	7.8884e-05	9.713e-05	842.82	385.27	7.8318e-05	9.5697e-05	424	193.39	167.32	79.977	8.3942e-05	98.604	-86.207	5.460	-17.384	-97.043	76.102	31.041	-97.655	-91.604	72.166	54.483	-93.628	-90.004	-87.617	-84.020	42.970	-86.534	-8191	255	
31463.648	1	1	0	0	0.072163	0.18398	0.13859	0.10518	0.021843	0.072319	0.21673	0.26806	0.11721	0.14189	0.024588	0.25518	0.24528	0.28199	0.32165	0.11629	-2.6729	-2.2104	-2.975	-2.9688	-2.375	-3.375	-2.5271	-2.8292	-3.1125	-2.225	-3.2354	-2.9021	-2.5542	-3.5563	-2.5021	-2.8438	-7.319	-17.424	174.261	175.569	-32.235	-108.219	192.510	224.643	249.258	162.228	154.258	228.536	180.376	235.748	-25.213	189.593	0.00048585	0.00040896	0.00021547	882.59	9.2362e-06	4.4896e-06	818.47	371.73	5.6071e-06	1.1408e-05	406.36	184.56	159.66	76.323	3.0962e-06	94.126	0.0039286	0.0085149	0.0023717	906.4	7.7918e-05	9.644e-05	841.11	384.23	7.9351e-05	9.6556e-05	422.27	191.97	166.39	79.632	8.5165e-05	97.779	-82.468	-32.478	-15.698	-96.921	47.157	50.904	-97.758	-91.471	62.841	56.687	-93.702	-89.844	-87.915	-84.056	34.809	-86.797	-8191	255	
31463.744	1	1	0	0	0.081386	0.1303	0.1922	0.15792	0.11325	0.063527	0.21325	0.19749	0.10993	0.13126	0.049429	0.18801	0.23289	0.32072	0.12064	0.23567	-2.8521	-2.375	-3.0875	-2.9458	-2.3708	-3.2833	-2.7375	-2.8333	-3.2604	-2.3146	-3.1437	-3.0938	-2.4646	-3.3333	-2.5333	-2.7792	234.986	123.008	231.071	157.915	16.413	5.171	-90.913	94.484	23.297	43.229	-5.431	172.994	-36.099	247.938	-83.902	193.720	0.00053688	0.00062379	0.00021479	879.14	1.5581e-05	5.8764e-06	811.43	370.19	4.5353e-06	5.8169e-06	404.9	183.03	158.48	76.352	4.1607e-06	93.874	0.0039191	0.0085599	0.0023868	903.04	7.8734e-05	9.7261e-05	836.45	382.96	7.9314e-05	9.7149e-05	420.26	191.54	165.99	79.598	8.6745e-05	97.799	-78.853	-13.104	18.788	-96.758	69.303	58.104	-97.708	-91.439	42.707	12.308	-93.327	-89.852	-87.753	-84.102	34.350	-86.749	-8191	255	
31463.865	1	1	0	0	0.18113	0.11329	0.32363	0.14744	0.12845	0.066018	0.18951	0.088585	0.1059	0.039506	0.050488	0.41438	0.16823	0.1379	0.15301	0.22128	-2.9708	-2.3542	-2.6729	-3.1188	-2.3208	-3.3229	-2.9854	-2.5812	-3.3583	-2.4104	-3.0521	-3.2687	-2.4208	-3.4417	-2.9437	-2.7646	103.876	145.659	133.820	229.768	87.343	-95.733	74.699	164.208	206.963	37.909	134.335	191.105	18.590	228.026	-53.059	180.035	0.00051455	0.00057654	0.0002253	875.58	1.0513e-05	5.8254e-06	808.88	369.56	6.0473e-06	4.2503e-06	405.16	184.3	158.93	76.09	6.4022e-06	93.958	0.0039578	0.0086366	0.0024144	901.15	7.921e-05	9.7875e-05	836.53	382.22	7.9931e-05	9.8227e-05	421.53	191.87	165.94	79.343	8.5947e-05	97.879	-88.341	4.130	-27.369	-97.094	53.742	34.240	-97.875	-91.404	44.314	23.025	-93.690	-90.001	-88.135	-84.039	38.401	-86.562	-8191	255	
31463.961	1	1	0	0	0.036166	0.067524	0.080091	0.16684	0.20007	0.23993	0.014483	0.16526	0.087396	0.08911	0.23332	0.20875	0.04845	0.18096	0.17486	0.10397	-2.8125	-2.4188	-2.7479	-3.3021	-2.3396	-3.2708	-3.0458	-2.5938	-3.3438	-2.5896	-2.9604	-3.3812	-2.4208	-3.2896	-2.9062	-2.5458	62.642	179.630	-102.819	182.845	80.370	92.499	-38.604	-83.915	26.761	106.180	214.739	-70.947	-108.610	161.451	-70.853	194.037	0.00053886	0.00064087	0.00027423	876.03	1.0815e-05	1.017e-05	815.32	368.77	4.944e-06	6.8191e-06	406.06	183.88	158.38	76.058	3.5401e-06	93.938	0.0039452	0.0085834	0.0024218	901.65	7.9063e-05	9.9999e-05	840.03	381.43	8.0393e-05	9.8882e-05	421.19	191.89	165.46	79.292	8.6087e-05	97.738	-83.268	-37.824	-6.238	-97.067	51.766	54.375	-97.995	-91.781	21.216	9.607	-93.555	-90.014	-88.138	-84.126	71.990	-86.827	-8191	255	
31464.057	1	1	0	0	0.13361	0.20582	0.13193	0.17325	0.14608	0.21247	0.17387	0.24189	0.26571	0.16756	0.35178	0.2485	0.17384	0.17346	0.19661	0.32774	-2.9146	-2.7271	-2.6042	-3.4104	-2.55	-3.0125	-3.0938	-2.6354	-3.3604	-2.8688	-2.8354	-3.3792	-2.5271	-3.2333	-3.0729	-2.4354	138.767	26.781	-65.469	243.040	-65.573	47.538	102.229	154.241	239.084	-67.495	183.773	221.385	-85.594	188.216	114.737	206.689	0.00050837	0.00087309	0.000185	877.28	3.9108e-06	4.1453e-06	810.33	367.26	7.7985e-06	9.2583e-06	403.18	182.77	157.23	75.598	7.2696e-06	93.337	0.0040325	0.0086905	0.002418	900.19	7.9843e-05	9.8941e-05	836.74	380.31	8.143e-05	9.7811e-05	417.87	190.48	164.46	78.952	8.6852e-05	97.293	-79.693	-44.367	-32.098	-96.849	50.436	81.957	-97.786	-91.493	48.966	39.109	-93.585	-89.767	-87.881	-83.944	63.578	-86.698	-8191	255	
31464.152	1	1	0	0	0.19718	0.039932	0.11712	0.1425	0.12772	0.09055	0.16974	0.097378	0.24176	0.24413	0.22386	0.13633	0.2888	0.33021	0.10601	0.26301	-2.8104	-2.6333	-2.3625	-3.3646	-2.525	-2.7646	-3.1667	-2.6042	-3.1125	-2.7208	-2.5812	-3.3	-2.5708	-3.0104	-3.1188	-2.5354	90.431	158.899	-78.199	175.697	210.086	88.202	190.518	204.783	-65.642	-61.411	154.606	-84.351	-86.838	238.381	176.746	144.402	0.00052456	0.00081173	0.00019808	874.2	9.6615e-06	1.0244e-05	809.65	365.54	2.3079e-06	3.4351e-06	404.71	183.33	158.08	76.083	2.0327e-06	93.633	0.0039787	0.0086167	0.0024424	899.3	8.0669e-05	9.8774e-05	835.83	380.14	8.139e-05	9.8651e-05	420.22	191.18	164.98	79.291	8.6147e-05	97.583	-80.615	-9.685	-35.539	-96.804	64.856	72.691	-97.709	-91.382	0.957	78.026	-93.830	-89.866	-88.018	-84.059	101.754	-86.772	-8191	255	
31464.248	1	1	0	0	0.24268	0.20006	0.034657	0.28697	0.13686	0.39162	0.2051	0.29568	0.099058	0.22747	0.25918	0.42692	0.0079405	0.28829	0.22582	0.20533	-2.5833	-2.8375	-2.5583	-3.375	-2.3917	-2.5604	-3.4083	-2.4771	-3.0542	-2.8667	-2.5021	-3.1979	-2.675	-2.7292	-3.2708	-2.5042	-83.335	-25.189	25.012	-62.735	-44.277	143.772	214.291	171.015	-21.635	191.911	243.227	113.252	-34.644	241.950	-58.410	160.206	0.00054859	0.00057066	0.00020065	877	6.0289e-06	8.8513e-06	811.98	367.38	7.2852e-06	9.1428e-06	403.16	184	158.48	76.027	5.1681e-06	93.558	0.0040078	0.0087979	0.0024627	902.72	8.0451e-05	9.9777e-05	838.63	380.63	8.0694e-05	9.8846e-05	420.13	191.86	165.41	79.199	8.6729e-05	97.585	-81.052	-37.378	-21.415	-96.983	54.438	55.182	-98.180	-91.550	51.256	47.528	-93.870	-90.244	-88.181	-84.192	22.702	-86.874	-8191	255	
31464.344	1	1	0	0	0.13963	0.14691	0.14689	0.16718	0.1916	0.17674	0.118	0.23406	0.17241	0.15148	0.23222	0.069307	0.21839	0.32064	0.16827	0.2863	-2.6083	-2.9313	-2.3208	-3.1417	-2.5771	-2.6083	-3.2125	-2.5417	-2.9729	-3.15	-2.3917	-3.4229	-2.8812	-2.6708	-3.1708	-2.5271	-62.108	238.648	213.076	153.525	126.522	-38.652	-34.817	163.177	116.572	158.732	219.232	81.969	-91.765	248.619	222.745	197.792	0.00056101	0.00096736	0.00021391	875.13	9.1076e-06	1.082e-05	816.71	366.63	5.2327e-06	1.1592e-05	407.22	183.69	157.88	75.643	3.2727e-06	93.797	0.004004	0.0087073	0.0024608	902.25	8.0009e-05	0.00010049	840.66	380.6	8.2515e-05	9.837e-05	421.27	191.77	164.96	79.112	8.7531e-05	97.617	-81.388	-26.091	-41.939	-97.043	73.004	-2.998	-97.946	-91.721	61.456	43.079	-93.837	-90.242	-88.351	-84.388	53.592	-87.095	-8191	255	
31464.465	1	1	0	0	0.11639	0.089645	0.2827	0.11406	0.18184	0.066915	0.12143	0.1975	0.12552	0.23582	0.37582	0.14934	0.18927	0.076997	0.23501	0.27326	-2.3729	-3.0958	-2.2687	-3.1937	-2.8	-2.3833	-3.2667	-2.7396	-2.7792	-3.0146	-2.4396	-3.3208	-3.1708	-2.6437	-3.2854	-2.8812	-100.081	103.082	187.707	176.662	178.555	-12.308	15.884	-107.667	103.313	31.201	199.724	163.516	6.641	167.752	138.531	192.236	0.00045257	0.00098721	0.00021878	876.91	8.4936e-06	8.5619e-06	809.65	366.88	4.8468e-06	7.3127e-06	402.63	182.79	158.21	75.851	3.714e-06	93.803	0.0040005	0.0086227	0.0024416	901.33	8.0298e-05	9.923e-05	836.72	380.01	8.175e-05	9.8478e-05	419.32	190.82	164.86	79.261	8.6846e-05	97.531	-87.667	-20.566	-6.809	-97.219	45.426	67.073	-98.054	-91.883	59.421	23.473	-94.059	-90.088	-88.060	-84.484	53.717	-87.053	-8191	255	
31464.561	1	1	0	0	0.18272	0.091917	0.12977	0.15911	0.24235	0.25316	0.12939	0.33167	0.22252	0.19224	0.421	0.11574	0.014007	0.1772	0.028763	0.11745	-2.1979	-3.0729	-2.1354	-3.1437	-2.9854	-2.1896	-3.3896	-2.6688	-2.5833	-3.3375	-2.5208	-3.1896	-2.9562	-2.5542	-3.175	-2.8125	-48.034	-41.888	201.297	127.169	233.119	-44.955	219.042	190.282	221.744	-45.692	241.765	212.233	230.804	224.952	134.377	-13.514	0.00051363	0.00095569	0.00021463	874.31	6.363e-06	6.6663e-06	811.05	367.64	1.4424e-06	8.6742e-07	404.64	183.51	158.21	75.938	4.3473e-06	94.244	0.0040242	0.0087739	0.0024493	900.99	8.0136e-05	9.9632e-05	837.3	380.76	8.2281e-05	9.8649e-05	420.7	191.73	165.48	79.345	8.6786e-05	98.005	-79.087	-0.966	4.295	-97.241	59.687	41.263	-98.000	-91.999	87.440	55.951	-94.020	-90.187	-88.365	-84.407	5.052	-87.080	-8191	255	
31464.633	1	1	0	0	0.21882	0.2833	0.014717	0.12275	0.061157	0.19387	0.04094	0.2478	0.10499	0.21801	0.26655	0.15347	0.24973	0.17543	0.2982	0.28282	-2.0333	-3.3396	-2.1458	-2.9188	-3.0958	-2.1792	-3.0833	-2.7229	-2.4771	-3.1271	-2.3333	-3.0875	-3.2917	-2.5062	-3.0833	-3.0396	161.946	-19.113	89.425	202.470	95.419	-96.733	-98.945	221.787	94.600	-28.174	237.489	121.576	230.871	234.847	-101.494	-25.638	0.00050425	0.00064065	0.00019869	870.06	2.2799e-06	7.2648e-06	814.65	367.46	2.8973e-06	6.2059e-06	405.63	184.83	157.71	76.046	6.5729e-06	94.336	0.003968	0.0085165	0.0024503	898.83	7.9179e-05	9.7873e-05	840.51	381.04	7.9866e-05	9.6076e-05	422.68	193.04	164.99	79.344	8.6545e-05	98.369	-85.852	-65.040	-17.571	-97.014	-2.042	39.574	-98.041	-91.967	14.240	48.570	-93.862	-90.213	-88.328	-84.493	3.960	-87.128	-8191	255	
31464.729	1	1	0	0	0.21836	0.20865	0.093297	0.18724	0.19429	0.096348	0.04791	0.29686	0.26171	0.031245	0.24087	0.032768	0.13251	0.36565	0.20594	0.3015	-2.0875	-3.2938	-2.4646	-2.9792	-3.1333	-2.3875	-3.1104	-2.875	-2.5167	-3.3729	-2.6646	-2.8292	-3.3958	-2.5854	-2.9938	-3.1542	215.748	-105.974	-0.843	153.416	78.929	94.453	146.206	208.878	134.762	31.108	147.436	-63.037	-48.790	237.459	-20.826	201.390	0.0005748	0.00061039	0.00031416	873.08	5.1296e-06	4.0935e-06	814.57	365.08	8.6317e-07	1.0054e-05	405.09	184.3	156.53	75.983	6.1796e-06	93.745	0.0039782	0.0085596	0.0024203	898.81	7.9009e-05	9.9265e-05	842.06	378.61	8.1037e-05	9.8487e-05	419.82	191.86	164.25	79.113	8.6177e-05	97.791	-79.137	-25.124	-41.505	-97.059	79.031	29.453	-97.881	-91.756	-83.973	47.546	-93.850	-89.991	-88.274	-84.410	61.699	-87.158	-8191	255	
31464.848	1	1	0	0	0.21392	0.14337	0.012536	0.3577	0.32219	0.10834	0.21441	0.2855	0.18687	0.029645	0.073329	0.21092	0.11527	0.32805	0.28486	0.32956	-2.0187	-2.9583	-2.3292	-2.5479	-3.1917	-2.3792	-3.1271	-3.0771	-2.1896	-3.2667	-2.8729	-2.7667	-3.2667	-2.425	-2.8625	-3.1813	169.995	-59.790	165.325	-92.186	-3.065	-35.217	90.930	-91.377	138.290	191.648	77.631	235.420	188.351	217.190	109.119	174.590	0.00057445	0.00071346	0.00017967	868.95	8.3995e-06	7.3867e-06	803.72	364.35	5.549e-06	8.5689e-06	398.66	182.17	156.61	75.695	5.5955e-06	93.344	0.0040083	0.0086183	0.0024424	896.12	7.856e-05	9.9862e-05	832.52	377.11	8.0176e-05	9.7949e-05	415.23	190.03	163.85	78.91	8.5707e-05	97.087	-82.349	-29.870	-55.547	-97.054	26.670	51.063	-97.867	-91.645	40.048	7.345	-94.035	-90.367	-88.387	-84.400	25.362	-87.165	-8191	255	
31464.943	1	1	0	0	0.067263	0.09711	0.12943	0.15365	0.14821	0.26323	0.19671	0.30544	0.14291	0.22624	0.23488	0.17856	0.20424	0.37132	0.11445	0.35408	-1.9875	-3.0708	-2.5917	-2.5104	-3.0792	-2.4354	-2.9562	-3.2521	-2.4125	-3.1417	-2.8958	-2.4667	-3.3708	-2.7208	-2.8021	-3.4208	-45.803	219.340	-98.459	120.520	-48.722	200.521	171.606	209.118	71.106	199.735	206.889	229.156	194.858	213.222	206.715	202.350	0.00054874	0.00084172	0.00019635	871.26	4.0691e-06	4.4776e-06	808.57	365.21	5.6477e-06	6.8145e-06	398.68	181.59	156.26	75.744	4.5176e-06	93.397	0.0039359	0.0086173	0.0024072	896.32	7.8075e-05	9.7767e-05	833.42	377.38	7.9781e-05	9.627e-05	414.9	189.58	163.46	78.931	8.4278e-05	97.091	-82.029	-18.777	-26.149	-97.317	58.162	43.962	-98.180	-92.072	68.979	36.365	-93.934	-90.082	-88.259	-84.619	-3.137	-87.057	-8191	255	
31465.039	1	1	0	0	0.1662	0.17933	0.090981	0.35332	0.15375	0.32808	0.27938	0.21347	0.079484	0.23935	0.25602	0.20935	0.13329	0.1802	0.025871	0.31947	-1.9354	-3.1688	-2.75	-2.4458	-3.1625	-2.625	-2.8417	-3.3729	-2.3833	-3.0187	-3.0458	-2.3979	-3.3604	-2.7146	-2.4437	-3.3563	-92.592	239.681	207.556	218.154	-32.974	24.240	197.602	197.862	-57.234	44.090	188.260	205.876	177.060	138.465	-104.192	147.796	0.00048362	0.00033177	0.00028618	871.48	7.9451e-06	1.1397e-05	805.86	362.13	5.294e-06	6.3153e-06	396.43	181.98	156.58	75.604	7.6884e-06	93.135	0.0039539	0.0085292	0.0023885	895.27	7.8199e-05	9.8261e-05	831.66	375.56	8.0727e-05	9.7028e-05	412.43	189.43	163.35	78.934	8.6294e-05	97.173	-74.488	-45.615	-5.533	-97.193	16.852	30.095	-97.965	-91.999	-9.424	20.085	-94.032	-90.215	-88.224	-84.706	52.585	-87.145	-8191	255	
31465.137	1	1	0	0	0.32905	0.090183	0.2408	0.30597	0.29346	0.039493	0.14601	0.19241	0.11206	0.069232	0.23574	0.32421	0.14255	0.33102	0.17548	0.13302	-2.0583	-2.9354	-2.8646	-2.4667	-3.1104	-2.6833	-2.5396	-3.2625	-2.3708	-2.8063	-3.0396	-2.5979	-3.3292	-2.7812	-2.5646	-3.4813	217.439	-19.890	190.406	198.474	199.452	63.747	-108.021	218.084	0.037	75.710	187.917	-108.257	221.179	189.093	232.495	-96.780	0.0004705	0.00061386	0.00022885	874.77	9.1405e-06	6.5634e-06	809.28	363.55	4.8703e-06	1.02e-05	397.96	181.4	156.84	75.347	6.4941e-06	92.773	0.0039567	0.0086398	0.002439	899.77	8.0432e-05	9.9339e-05	834.85	376.89	8.1468e-05	9.8337e-05	413.77	189.14	163.4	78.758	8.7396e-05	96.771	-84.767	-2.749	-29.510	-97.418	30.047	31.464	-98.004	-91.781	35.595	39.498	-93.889	-90.298	-88.090	-84.359	47.183	-87.019	-8191	255	
31465.232	1	1	0	0	0.18245	0.15435	0.25823	0.18018	0.15075	0.18313	0.23378	0.142	0.074122	0.17496	0.28134	0.23566	0.1623	0.076882	0.13428	0.1395	-2.0604	-2.7083	-2.9562	-2.5625	-3.0896	-2.8375	-2.5646	-3.5375	-2.6229	-2.9229	-3.3667	-2.6875	-3.0542	-3.025	-2.4562	-3.3208	73.345	126.297	42.288	62.681	92.083	134.012	104.219	153.613	247.872	4.895	229.786	17.049	211.206	-63.393	-43.252	175.759	0.00046368	0.0008162	0.0002324	869.62	6.3941e-06	8.4992e-06	802.93	366.01	8.1337e-07	5.9291e-06	397.3	181.63	156.48	75.583	8.0778e-06	93.472	0.0039694	0.0086297	0.0024093	894.69	7.9388e-05	9.8657e-05	828.5	376.72	8.166e-05	9.7986e-05	413.83	189.31	163.7	78.711	8.6584e-05	97.04	-88.855	-40.966	-20.494	-96.936	34.510	68.253	-97.837	-91.810	0.704	50.394	-94.066	-89.990	-87.821	-84.406	51.872	-86.851	-8191	255	
31465.328	1	1	0	0	0.18554	0.24106	0.20231	0.23126	0.22551	0.22091	0.052771	0.43984	0.19426	0.1171	0.24325	0.14686	0.04035	0.19031	0.10363	0.40564	-2.1208	-2.725	-3.0875	-2.5708	-3.0354	-2.925	-2.4437	-3.3542	-2.4562	-2.7021	-3.2479	-2.5958	-3.1188	-3.0771	-2.3625	-3.2979	-52.817	66.924	175.296	243.524	-76.647	242.433	180.438	215.193	-28.465	193.395	203.568	-21.919	-44.355	241.228	241.916	203.825	0.00051651	0.00089912	0.00030156	865.52	8.6238e-06	9.2965e-06	806.23	363.27	5.1707e-07	1.1466e-05	400.27	182.21	156.61	75.76	3.3102e-06	93.857	0.0039781	0.008626	0.0024019	893.25	8.0665e-05	9.9263e-05	832.69	376.17	8.0874e-05	9.7601e-05	416.23	190.14	163.66	79.141	8.7516e-05	97.741	-84.189	-45.235	-9.308	-97.351	74.386	21.533	-97.996	-91.675	243.702	42.491	-93.799	-90.092	-88.292	-84.533	53.579	-87.107	-8191	255	
31465.426	1	1	0	0	0.072107	0.099468	0.1208	0.34653	0.1056	0.084596	0.15991	0.085851	0.062799	0.068726	0.056208	0.17769	0.26999	0.3779	0.29414	0.15846	-2.1604	-2.3917	-3.2313	-2.6354	-2.9521	-3.0583	-2.6229	-3.3646	-2.6208	-2.5667	-3.5333	-2.5896	-2.8417	-3.2479	-2.3104	-3.4875	84.453	-42.343	-11.449	187.598	29.451	-8.295	190.812	-52.210	191.221	-23.419	63.664	-82.719	71.748	-100.475	81.801	156.627	0.00052134	0.00053009	0.0001754	869.23	7.8322e-06	3.4127e-06	805.34	364.58	6.0471e-06	6.3423e-06	402.63	183.27	156.22	75.828	1.5277e-07	94.343	0.0040206	0.0087445	0.0024361	893.56	8.0859e-05	9.8658e-05	832.71	377.07	8.1876e-05	9.82e-05	417.24	190.84	163.49	79.043	8.6961e-05	98.097	-80.871	-55.616	-50.446	-97.233	78.214	35.330	-97.976	-91.438	37.610	29.272	-93.991	-90.216	-87.870	-84.534	9.990	-87.009	-8191	255	
31465.545	1	1	0	0	0.099726	0.36188	0.091033	0.23508	0.12391	0.19211	0.25854	0.24146	0.40598	0.12086	0.26297	0.21038	0.076272	0.13715	0.070148	0.298	-2.4271	-2.3979	-3.1333	-2.6229	-2.6688	-2.9896	-2.4562	-3.1896	-2.9167	-2.4688	-3.3063	-2.6708	-2.9271	-3.3979	-2.2771	-2.9521	4.428	-109.349	215.277	189.001	-69.938	179.486	202.018	208.535	132.805	-30.798	241.842	13.186	-8.366	235.722	34.912	234.352	0.00048703	0.00024903	8.4171e-05	865.86	6.755e-06	4.1039e-06	807.23	363.55	1.8465e-06	1.0654e-05	400.44	182.95	156.17	75.687	8.4001e-06	94.123	0.0040333	0.0087441	0.0024468	893.81	8.1282e-05	9.8844e-05	835.38	376.29	8.1222e-05	9.8445e-05	416.94	190.55	163.53	78.91	8.6454e-05	97.732	-86.916	-7.071	-6.207	-97.056	35.861	5.486	-97.655	-91.763	93.654	52.430	-93.679	-90.362	-88.218	-84.382	25.492	-86.941	-8191	255	
31465.643	1	1	0	0	0.088754	0.08763	0.1066	0.11086	0.30444	0.25413	0.12176	0.21477	0.15557	0.12354	0.05778	0.027837	0.22078	0.25144	0.042717	0.051819	-2.5146	-2.275	-3.1875	-2.5479	-2.5167	-3.2938	-2.3667	-3.2604	-2.8792	-2.2812	-3.1437	-2.7875	-2.6354	-3.3417	-2.5042	-3.1521	164.304	51.877	63.146	-2.212	240.962	127.814	-34.773	-108.063	-12.958	71.736	-102.980	222.136	61.855	207.210	226.505	207.050	0.00049259	0.0007792	0.00016371	868.13	5.3793e-06	8.9109e-06	801.99	362.1	4.0781e-06	4.9815e-06	398.09	181.33	156.16	75.783	1.8973e-06	93.692	0.0039779	0.0086892	0.0024552	890.89	7.9633e-05	9.8785e-05	830.64	375.14	7.9726e-05	9.8257e-05	415.01	189.76	163.19	79.109	8.7255e-05	97.686	-80.169	-12.729	-14.976	-97.375	64.844	57.497	-98.027	-91.785	4.208	-6.964	-94.095	-90.122	-88.266	-84.401	101.171	-86.852	-8191	255	
31465.738	1	1	0	0	0.2254	0.046165	0.074702	0.05972	0.041824	0.17868	0.15104	0.39084	0.10653	0.10219	0.20113	0.28631	0.05671	0.27779	0.23611	0.2196	-2.5521	-2.4146	-2.9729	-2.7542	-2.6146	-3.3771	-2.7146	-3.1208	-3.075	-2.3396	-3.3292	-2.9021	-2.5208	-3.2854	-2.55	-2.8354	-34.580	41.394	-103.918	12.740	152.406	-73.459	189.740	231.078	31.166	116.428	187.668	203.092	191.466	214.389	80.991	250.414	0.0004821	0.00053702	0.00033722	867.17	7.0977e-06	6.4926e-06	806.17	363.69	6.1666e-06	9.018e-06	400.62	183.54	156.72	75.925	4.3331e-06	94.201	0.0039855	0.0086127	0.002437	891.94	8.0178e-05	0.00010015	831.22	376.09	7.9974e-05	9.7958e-05	416.24	190.59	163.78	79.216	8.6066e-05	98.071	-78.383	-33.956	-30.895	-97.088	75.131	10.930	-98.072	-91.480	28.904	66.971	-93.605	-90.046	-87.905	-84.384	36.720	-86.723	-8191	255	
31465.857	1	1	0	0	0.1259	0.24034	0.13685	0.11994	0.39216	0.17858	0.29857	0.26011	0.10131	0.14221	0.24435	0.18338	0.25075	0.2637	0.10445	0.20812	-2.8708	-2.2875	-2.9917	-2.9104	-2.2896	-3.1417	-2.6562	-2.6396	-3.2104	-2.4	-3.0396	-3.0104	-2.5771	-3.3667	-2.5417	-2.8604	228.874	-23.742	0.876	186.125	-94.451	167.334	202.972	-41.400	-16.918	-21.773	228.624	172.199	235.801	-100.181	-10.162	213.367	0.00052352	0.00054031	0.00022532	862.89	8.9537e-06	1.0784e-05	806.68	362.98	7.2723e-06	6.8089e-06	399.92	182.4	156.42	75.752	3.2928e-06	94.453	0.0039463	0.0085817	0.0024322	891.1	7.9696e-05	9.8307e-05	834.24	375.72	8.0086e-05	9.7854e-05	416.78	190.85	163.37	79.16	8.6598e-05	98.132	-81.704	-21.479	-22.034	-96.937	70.126	54.367	-97.721	-91.660	64.837	15.954	-93.692	-90.286	-88.193	-84.299	-16.359	-86.865	-8191	255	
31465.928	1	1	0	0	0.17908	0.036991	0.17516	0.20024	0.19192	0.18242	0.27073	0.2735	0.071672	0.19496	0.19807	0.1559	0.25323	0.2434	0.094863	0.16075	-2.8958	-2.2917	-2.9042	-3.2042	-2.2458	-3.3063	-2.7083	-2.7042	-3.1958	-2.35	-3.0062	-2.9896	-2.4354	-3.1688	-2.5042	-2.5687	-84.038	-33.483	-77.507	-72.227	-42.926	-80.061	171.361	215.304	169.286	187.174	218.843	208.513	168.018	210.671	33.988	236.016	0.00060118	0.00085778	0.00026713	867.57	6.3254e-06	1.0755e-05	807.22	361.98	5.0503e-06	6.7922e-06	400.18	181.46	155.63	75.577	3.7235e-06	93.323	0.0040105	0.0085504	0.0024149	891.77	7.8954e-05	9.7958e-05	834.59	375.24	8.0926e-05	9.9019e-05	416.01	189.65	163.12	78.944	8.7302e-05	97.191	-82.671	-25.393	-27.395	-97.011	80.415	43.613	-97.775	-91.631	-13.359	34.994	-93.511	-90.279	-88.015	-83.978	67.110	-86.794	-8191	255	
31466.023	1	1	0	0	0.13717	0.31773	0.35018	0.3533	0.2346	0.21476	0.33034	0.089227	0.028263	0.21431	0.1867	0.19485	0.13632	0.31454	0.15983	0.34424	-2.6396	-2.2854	-2.8396	-3.1292	-2.3042	-2.9479	-2.8458	-2.5417	-3.1875	-2.3979	-2.7521	-3.1437	-2.4313	-3.3083	-2.8646	-2.6125	-2.704	174.962	-50.356	-64.000	215.703	3.037	174.769	169.042	221.180	143.815	234.553	171.204	214.329	-81.560	203.053	185.697	0.00051357	0.00053937	0.00016629	870.15	1.1315e-05	5.4369e-06	801.8	363.26	6.5971e-06	4.4053e-06	397.33	181.27	156.32	75.34	7.8804e-06	93.107	0.0039779	0.008712	0.0024597	894.71	8.0874e-05	9.9931e-05	829.03	376.36	8.0704e-05	9.8498e-05	413.31	189.01	163.49	78.885	8.7233e-05	96.886	-84.319	-33.037	-5.023	-97.058	50.379	23.561	-97.214	-91.473	53.052	84.163	-93.488	-89.906	-87.921	-84.206	16.860	-86.734	-8191	255	
31466.145	1	1	0	0	0.20985	0.2118	0.17733	0.1757	0.22654	0.19423	0.20294	0.02046	0.078318	0.14136	0.32126	0.23717	0.13654	0.24251	0.092999	0.1382	-2.8604	-2.4292	-2.6312	-3.3563	-2.3	-2.9771	-2.9062	-2.5542	-3.1896	-2.6646	-2.7354	-3.3312	-2.5792	-3.0583	-2.9021	-2.5812	-28.310	164.551	68.725	-94.192	92.970	-84.051	188.968	-30.616	-14.262	100.231	196.732	194.552	238.906	249.303	-87.382	242.430	0.00045538	0.00086763	0.00026714	871.89	5.1908e-06	9.3249e-06	806.92	364.89	8.5977e-06	9.4817e-06	399.11	181.99	157.81	75.591	3.8667e-06	93.084	0.0039894	0.0086671	0.0024279	896.28	8.1108e-05	0.00010024	830.82	377.38	8.1328e-05	9.9293e-05	414.35	189.25	164.33	79.04	8.757e-05	96.868	-81.308	-41.468	-6.558	-96.948	20.987	64.683	-97.744	-91.528	61.881	29.444	-93.637	-89.852	-87.861	-84.214	14.693	-86.760	-8191	255	
31466.240	1	1	0	0	0.069263	0.30462	0.16655	0.27645	0.10812	0.24037	0.20867	0.32966	0.12372	0.33665	0.21244	0.44609	0.12419	0.14224	0.15428	0.19159	-2.7396	-2.6333	-2.4708	-3.4354	-2.2292	-3.0833	-3.1375	-2.3812	-3.2604	-2.7167	-2.5167	-3.2833	-2.5542	-2.875	-2.9646	-2.5354	-3.106	17.359	39.247	176.938	-94.364	170.902	96.418	215.299	-25.928	98.591	209.693	222.599	224.862	-100.027	186.779	215.162	0.0005527	0.00033855	0.00024638	873.48	6.8917e-06	8.0293e-06	805.95	364.23	5.0717e-06	6.6862e-06	401.4	182.19	156.96	75.565	6.8501e-06	93.327	0.0040108	0.0086844	0.002462	898.73	8.0791e-05	9.8387e-05	832.28	377.8	8.1031e-05	9.7354e-05	415.63	189.86	164.01	79.025	8.6597e-05	97.099	-80.451	-42.088	-33.593	-96.961	40.507	58.459	-97.626	-91.392	41.350	24.566	-93.996	-90.104	-88.075	-84.340	35.626	-86.848	-8191	255	
31466.338	1	1	0	0	0.17105	0.076204	0.27905	0.062224	0.16485	0.33048	0.060706	0.05398	0.17409	0.18531	0.030775	0.29692	0.13839	0.089252	0.048865	0.028507	-2.6958	-2.6646	-2.3854	-3.2042	-2.3771	-2.7167	-3.2896	-2.4542	-3.1104	-2.8542	-2.4271	-3.2167	-2.5312	-2.7604	-3.125	-2.4979	113.753	98.932	37.427	-28.904	95.430	-62.358	164.636	225.555	53.107	239.389	243.020	168.459	184.207	206.561	143.110	-10.093	0.00055143	0.0008929	0.00030752	873.5	9.2122e-06	9.1257e-06	807.72	363.82	7.9555e-06	6.1888e-06	395.85	179.52	156.9	75.418	4.544e-06	92.009	0.0039847	0.0087288	0.0024344	897.96	8.0355e-05	9.832e-05	828.69	376.07	8.0208e-05	9.716e-05	410.49	187.66	163.49	78.626	8.5696e-05	95.645	-84.952	-14.153	-34.985	-97.068	37.245	53.673	-98.184	-91.770	38.967	12.417	-93.898	-90.182	-88.238	-84.430	28.661	-86.915	-8191	255	
31466.434	1	1	0	0	0.094586	0.28058	0.2876	0.2686	0.046057	0.159	0.16675	0.38318	0.18401	0.22659	0.14231	0.04308	0.12308	0.32985	0.082166	0.031019	-2.4604	-2.9813	-2.4396	-3.2833	-2.4062	-2.5646	-3.45	-2.4333	-2.9625	-3.0292	-2.4646	-3.2708	-2.6604	-2.7062	-3.125	-2.6458	18.713	40.120	213.928	217.385	220.680	218.323	-62.982	198.637	-8.561	237.173	174.135	127.387	-77.997	188.851	231.113	-69.299	0.00054286	0.0011319	0.00027781	866.71	5.7281e-06	7.3788e-06	797.48	363.06	3.7519e-06	6.9629e-06	394.03	179.69	155.94	75.19	6.3015e-06	92.011	0.0039372	0.0086279	0.0024119	893.95	7.9022e-05	9.7569e-05	823.7	375.36	7.9789e-05	9.6956e-05	409.47	187.59	163.28	78.524	8.5253e-05	95.803	-86.215	-17.249	-27.709	-97.174	46.890	-10.187	-97.907	-91.801	2.853	34.653	-94.054	-90.054	-88.185	-84.498	62.629	-87.014	-8191	255	
31466.529	1	1	0	0	0.17831	0.19617	0.049496	0.14373	0.053333	0.33871	0.26554	0.15044	0.10974	0.10675	0.18315	0.43933	0.30692	0.13684	0.093041	0.15305	-2.4667	-3.0187	-2.2062	-3.1375	-2.6667	-2.5875	-3.3937	-2.375	-2.6854	-3.1708	-2.4792	-3.2812	-2.9542	-2.4958	-3.2708	-2.7438	32.182	13.769	110.125	-106.269	215.083	30.184	235.685	-89.387	136.993	13.305	241.337	198.047	172.548	236.569	202.144	122.879	0.00054558	0.0010325	0.00017344	868.44	5.8118e-06	7.615e-06	797.44	362	3.4359e-06	5.946e-06	393.38	180.03	156.04	75.025	6.4867e-06	92.01	0.0039813	0.008687	0.002415	893.99	7.9927e-05	9.7722e-05	822.87	375	8.1105e-05	9.6314e-05	408.6	187.42	163.05	78.378	8.511e-05	95.852	-80.913	-46.975	2.777	-96.915	88.766	68.200	-97.887	-91.861	49.881	27.114	-93.922	-89.991	-88.184	-84.247	27.784	-86.930	-8191	255	
31466.627	1	1	0	0	0.15063	0.2118	0.088521	0.062117	0.24499	0.087286	0.074971	0.17957	0.14866	0.064235	0.098318	0.27597	0.3861	0.23434	0.14913	0.28396	-2.4833	-2.9917	-2.1875	-3.2062	-2.8917	-2.3438	-3.4854	-2.7458	-2.7125	-3.1354	-2.5646	-3.1562	-3.0563	-2.6854	-3.1271	-2.7958	-13.321	-98.052	130.703	-30.250	229.847	143.483	208.093	190.121	6.545	32.837	180.604	199.548	100.361	-92.468	164.630	158.810	0.00053475	0.00051235	0.00018722	867.75	8.5462e-06	1.0023e-05	798.28	361.5	5.0987e-06	1.0322e-05	393.98	180.17	156.05	74.927	6.7027e-06	91.852	0.0038812	0.0085337	0.0024054	892.75	7.8602e-05	9.7264e-05	824.95	374.45	7.9997e-05	9.617e-05	409.93	187.55	162.64	78.133	8.4838e-05	95.656	-81.015	39.014	-2.317	-96.952	69.826	36.030	-97.846	-91.564	85.608	8.454	-93.898	-89.971	-88.141	-84.212	36.368	-86.673	-8191	255	
31466.723	1	1	0	0	0.17358	0.093336	0.049815	0.12635	0.084119	0.041187	0.13994	0.14321	0.23794	0.12122	0.055456	0.27454	0.26708	0.41071	0.14452	0.31941	-2.2875	-3.2396	-2.35	-3.0146	-2.9479	-2.3375	-3.3375	-2.8542	-2.5833	-3.3146	-2.8063	-3.1271	-3.0104	-2.6188	-3.1479	-2.8083	-93.735	210.392	-13.163	236.041	-3.135	144.051	112.137	203.547	-102.922	164.439	188.389	200.419	230.881	230.546	109.221	182.223	0.00044836	0.00064687	0.00019508	864.41	7.7771e-06	1.3802e-05	794.27	360.03	3.7679e-06	6.7692e-06	391.75	177.26	153.75	74.296	8.0834e-06	90.706	0.0039284	0.008472	0.0024018	888.66	7.8955e-05	9.8152e-05	819.06	372.06	8.0155e-05	9.6085e-05	405.63	185.17	160.88	77.573	8.5874e-05	94.556	-89.690	-57.102	-37.303	-96.784	55.968	53.458	-97.762	-91.672	63.301	26.438	-93.963	-89.830	-87.868	-84.015	38.165	-86.723	-8191	255	
31466.818	1	1	0	0	0.17905	0.12002	0.062893	0.23214	0.051637	0.18026	0.080242	0.10878	0.14817	0.22306	0.28503	0.30109	0.22902	0.33959	0.23114	0.21556	-2.1354	-3.2687	-2.2438	-2.7562	-3.1625	-2.2083	-3.2125	-2.8417	-2.3917	-3.2229	-2.5542	-2.7979	-3.3208	-2.5583	-3.0854	-2.9833	-20.534	207.545	203.061	156.242	-11.186	-109.073	100.459	-24.507	213.919	88.229	202.549	206.838	193.009	229.952	0.447	224.248	0.00047834	0.00022886	6.2959e-05	858.31	6.7111e-06	5.4138e-06	791.3	356.19	4.6082e-06	5.9045e-06	387.35	177.61	153.39	74.431	6.0958e-07	90.882	0.0039294	0.008502	0.0023938	885.6	7.8306e-05	9.7897e-05	814.96	369.89	8.0255e-05	9.6958e-05	404.23	184.95	160.54	77.515	8.562e-05	94.738	-87.486	-15.003	-59.824	-96.836	26.666	-7.802	-97.933	-91.567	80.055	2.685	-94.004	-89.763	-87.909	-84.214	52.922	-86.891	-8191	255	
31466.938	1	1	0	0	0.22341	0.26371	0.17003	0.11186	0.39273	0.090718	0.15752	0.29514	0.25672	0.18219	0.16516	0.1467	0.2391	0.31668	0.041977	0.080044	-1.9354	-3.1833	-2.525	-2.7083	-2.9562	-2.2604	-2.9167	-2.9271	-2.3271	-2.9229	-2.6521	-2.675	-3.4062	-2.3896	-2.9	-3.0708	18.328	44.235	145.884	234.669	160.700	63.083	-96.325	-51.347	82.407	135.872	220.839	228.913	206.414	-97.970	20.842	196.083	0.00050989	0.00054605	0.00023405	860.64	5.2232e-06	7.1761e-06	794.82	357.5	6.1151e-06	1.2286e-05	389.68	177.69	153.22	74.159	8.5818e-06	91.167	0.0039053	0.0085693	0.0024386	885.91	7.9184e-05	9.8267e-05	817.54	370.11	7.9333e-05	9.7095e-05	405.14	185.22	160.32	77.295	8.6407e-05	94.83	-89.266	-58.885	-26.313	-96.938	117.483	33.502	-97.766	-91.621	45.269	56.962	-94.169	-89.950	-87.926	-84.229	15.463	-86.861	-8191	255	
31467.033	1	1	0	0	0.2293	0.27419	0.25058	0.1946	0.22727	0.16522	0.05145	0.11034	0.22225	0.058663	0.071653	0.31635	0.19928	0.23129	0.084277	0.062789	-1.8021	-3.2708	-2.4458	-2.4813	-3.0396	-2.2208	-3.0667	-2.9813	-1.925	-3.1688	-2.6708	-2.5792	-3.1792	-2.6646	-2.6958	-3.0687	146.454	225.976	145.305	-70.147	148.918	34.566	226.546	195.391	88.459	248.193	219.361	191.977	239.147	168.710	211.975	233.785	0.00053267	0.00040846	0.0001343	862.62	1.0008e-05	8.813e-06	798.05	359.61	8.7974e-06	8.1081e-06	392.28	178.61	154.18	74.245	7.266e-06	91.449	0.0039292	0.0086241	0.0024305	887.03	7.8684e-05	9.9506e-05	821.15	371.88	8.0179e-05	9.7974e-05	407.77	186.23	160.92	77.386	8.71e-05	95.107	-80.024	-33.802	-20.265	-96.901	24.415	24.847	-97.766	-91.481	53.468	47.365	-93.682	-90.093	-87.917	-84.203	8.598	-86.796	-8191	255	
31467.129	1	1	0	0	0.18291	0.13656	0.2367	0.32488	0.087893	0.1968	0.16284	0.16391	0.27895	0.20917	0.10401	0.055819	0.32428	0.12226	0.069439	0.036342	-1.9333	-3.0521	-2.7479	-2.4938	-3.1583	-2.2771	-2.8583	-3.5042	-2.1937	-2.8958	-3.0604	-2.55	-3.2271	-2.8812	-2.5708	-3.4958	195.988	-46.239	237.304	203.882	177.946	-55.388	204.728	193.553	148.838	233.504	193.942	-41.489	186.120	224.469	67.641	-71.581	0.00051865	0.00079374	0.00038398	861.73	5.1996e-06	1.814e-06	791.8	357.56	3.6453e-06	8.5356e-06	391.72	176.88	153.68	74.178	5.4606e-06	90.772	0.0039643	0.008598	0.0024089	886.56	7.8445e-05	9.8632e-05	818.67	370.26	8.0563e-05	9.7238e-05	405.79	185.21	160.68	77.412	8.5646e-05	94.733	-81.315	-47.451	-21.684	-96.919	62.211	104.460	-97.559	-91.581	47.119	31.076	-93.662	-89.937	-87.803	-84.206	56.705	-86.882	-8191	255	
31467.225	1	1	0	0	0.21235	0.23234	0.27437	0.22346	0.078841	0.12528	0.30692	0.1377	0.11091	0.28332	0.19899	0.33493	0.13951	0.43485	0.27785	0.2756	-1.8208	-2.9938	-2.9437	-2.35	-3.275	-2.525	-2.5042	-3.2021	-2.3625	-2.9562	-2.8292	-2.325	-3.3208	-2.7729	-2.5104	-3.4667	58.810	222.848	144.646	192.146	201.557	37.944	90.415	213.447	111.601	38.313	149.244	187.313	-90.551	210.805	-48.483	170.072	0.00047328	0.00084447	0.00016377	856.39	7.5963e-06	1.0101e-05	793.78	358.91	6.5227e-06	4.9901e-06	391.18	178.23	154.01	74.525	5.6514e-06	91.699	0.0039388	0.0086199	0.0023976	883.17	7.9013e-05	9.8793e-05	817.9	371.2	8.084e-05	9.7654e-05	406.36	185.8	161.07	77.658	8.638e-05	95.311	-87.804	-30.675	-38.731	-97.084	5.297	55.514	-97.740	-91.568	11.904	69.548	-93.841	-89.863	-87.851	-84.072	59.329	-86.892	-8191	255	
31467.322	1	1	0	0	0.31766	0.17299	0.23386	0.24912	0.047844	0.16793	0.32755	0.22746	0.046194	0.040665	0.12088	0.1909	0.25284	0.19915	0.10188	0.28034	-1.8312	-2.9521	-3.0896	-2.4896	-3.1312	-2.7854	-2.5187	-3.4271	-2.2333	-2.6646	-3.2938	-2.3854	-3.3208	-2.9354	-2.4271	-3.2521	28.427	-10.071	154.413	172.527	33.911	132.433	168.728	56.581	99.876	-79.977	154.399	99.958	160.695	249.796	148.755	210.115	0.00047509	0.0006882	0.00027923	859.5	7.7958e-06	6.9238e-06	792.16	357.97	5.5195e-06	1.0102e-05	390.4	178.44	154.56	74.493	1.0255e-05	91.78	0.003962	0.0085071	0.0023992	884.78	7.9767e-05	9.7974e-05	820.25	371.1	8.0386e-05	9.862e-05	406.94	186.12	161.3	77.742	8.6258e-05	95.684	-81.424	-33.136	-16.925	-97.033	52.326	64.011	-97.696	-91.447	18.411	16.300	-93.635	-89.879	-87.872	-84.049	16.234	-86.921	-8191	255	
#DATA ENDS
