BOXY.EXE: ISS Imagent and Oximeter Data Acquisition Program Version 0.80
Ascii Record File

#ACQ INFORMATION
2  Detector Channels 
16  External MUX Channels 
1  Auxiliary Channels 
5000  Waveform (CCF) Frequency (Hz)
1  Waveforms Skipped 
30  Waveforms Averaged 
1  Cycles Averaged 
16  Acquisitions per Waveform 
10.0806  Updata Rate (Hz) 

#FILE INFORMATION
TRUE -- External MUX Channel results are PARSED.
FALSE -- AC DC and Phase are NOT grouped.
TRUE -- Companion Program Settings File CREATED.
FALSE -- AC data not excluded
FALSE -- DC data not excluded
FALSE -- Phase data not excluded
FALSE -- Auxillary Chn. data not excluded
Tab delimiters

#CALIBRATION STATE
TRUE -- Waveform Calibration Values APPLIED.


#AUX CALIBRATION VALUES
Val Type	aux-1	

Term	1.0000e+00	
Factor	0.0000e+00	


#WF CALIBRATION VALUES
A = Detector Channel
Val Type	A-AC1	A-AC2	A-AC3	A-AC4	A-AC5	A-AC6	A-AC7	A-AC8	A-AC9	A-AC10	A-AC11	A-AC12	A-AC13	A-AC14	A-AC15	A-AC16	A-DC1	A-DC2	A-DC3	A-DC4	A-DC5	A-DC6	A-DC7	A-DC8	A-DC9	A-DC10	A-DC11	A-DC12	A-DC13	A-DC14	A-DC15	A-DC16	A-Ph1	A-Ph2	A-Ph3	A-Ph4	A-Ph5	A-Ph6	A-Ph7	A-Ph8	A-Ph9	A-Ph10	A-Ph11	A-Ph12	A-Ph13	A-Ph14	A-Ph15	A-Ph16	

Term	0.00000e+00	0.00000e+00	0.00000e+00	0.00000e+00	0.00000e+00	0.00000e+00	0.00000e+00	0.00000e+00	0.00000e+00	0.00000e+00	0.00000e+00	0.00000e+00	0.00000e+00	0.00000e+00	0.00000e+00	0.00000e+00	0.00000e+00	0.00000e+00	0.00000e+00	0.00000e+00	0.00000e+00	0.00000e+00	0.00000e+00	0.00000e+00	0.00000e+00	0.00000e+00	0.00000e+00	0.00000e+00	0.00000e+00	0.00000e+00	0.00000e+00	0.00000e+00	0.00000e+00	0.00000e+00	0.00000e+00	0.00000e+00	0.00000e+00	0.00000e+00	0.00000e+00	0.00000e+00	0.00000e+00	0.00000e+00	0.00000e+00	0.00000e+00	0.00000e+00	0.00000e+00	0.00000e+00	0.00000e+00	
Factor	1.00000e+00	1.00000e+00	1.00000e+00	1.00000e+00	1.00000e+00	1.00000e+00	1.00000e+00	1.00000e+00	1.00000e+00	1.00000e+00	1.00000e+00	1.00000e+00	1.00000e+00	1.00000e+00	1.00000e+00	1.00000e+00	1.00000e+00	1.00000e+00	1.00000e+00	1.00000e+00	1.00000e+00	1.00000e+00	1.00000e+00	1.00000e+00	1.00000e+00	1.00000e+00	1.00000e+00	1.00000e+00	1.00000e+00	1.00000e+00	1.00000e+00	1.00000e+00	X	X	X	X	X	X	X	X	X	X	X	X	X	X	X	X	

B = Detector Channel
Val Type	B-AC1	B-AC2	B-AC3	B-AC4	B-AC5	B-AC6	B-AC7	B-AC8	B-AC9	B-AC10	B-AC11	B-AC12	B-AC13	B-AC14	B-AC15	B-AC16	B-DC1	B-DC2	B-DC3	B-DC4	B-DC5	B-DC6	B-DC7	B-DC8	B-DC9	B-DC10	B-DC11	B-DC12	B-DC13	B-DC14	B-DC15	B-DC16	B-Ph1	B-Ph2	B-Ph3	B-Ph4	B-Ph5	B-Ph6	B-Ph7	B-Ph8	B-Ph9	B-Ph10	B-Ph11	B-Ph12	B-Ph13	B-Ph14	B-Ph15	B-Ph16	

Term	0.00000e+00	0.00000e+00	0.00000e+00	0.00000e+00	0.00000e+00	0.00000e+00	0.00000e+00	0.00000e+00	0.00000e+00	0.00000e+00	0.00000e+00	0.00000e+00	0.00000e+00	0.00000e+00	0.00000e+00	0.00000e+00	0.00000e+00	0.00000e+00	0.00000e+00	0.00000e+00	0.00000e+00	0.00000e+00	0.00000e+00	0.00000e+00	0.00000e+00	0.00000e+00	0.00000e+00	0.00000e+00	0.00000e+00	0.00000e+00	0.00000e+00	0.00000e+00	-2.84052e+01	-1.28238e+02	-1.23055e+02	-1.81347e+02	-4.90151e+01	-6.44906e+01	-1.58583e+02	-1.62015e+02	-3.30316e+01	-6.71694e+01	-1.70474e+02	-1.69975e+02	-1.81443e+02	-1.76799e+02	-5.34590e+01	-1.49645e+02	
Factor	2.60320e-05	1.63302e-04	4.34181e-05	1.49363e-01	1.92631e-06	1.64092e-06	1.64229e-01	5.54761e-02	1.53204e-06	1.58752e-06	8.65546e-02	3.10973e-02	2.68888e-02	9.37520e-03	1.83265e-06	1.32400e-02	1.49363e-05	2.69560e-05	7.46987e-06	7.68193e-02	2.59114e-07	3.03878e-07	7.93361e-02	2.86037e-02	2.60344e-07	3.00301e-07	4.33358e-02	1.55925e-02	1.39820e-02	4.88742e-03	2.77576e-07	6.67928e-03	X	X	X	X	X	X	X	X	X	X	X	X	X	X	X	X	



#DISTANCE SETTINGS
A = Detector Channel
A-1	A-2	A-3	A-4	A-5	A-6	A-7	A-8	A-9	A-10	A-11	A-12	A-13	A-14	A-15	A-16	

2.5000e+00	3.0000e+00	2.5000e+00	3.0000e+00	2.0000e+00	3.0000e+00	1.5000e+00	3.0000e+00	3.0000e+00	3.0000e+00	3.0000e+00	3.0000e+00	3.0000e+00	3.0000e+00	1.5000e+00	3.0000e+00	

B = Detector Channel
B-1	B-2	B-3	B-4	B-5	B-6	B-7	B-8	B-9	B-10	B-11	B-12	B-13	B-14	B-15	B-16	

1.0000e+01	1.0000e+01	1.0000e+01	1.4400e+00	1.0000e+01	1.0000e+01	1.5100e+00	1.9400e+00	1.0000e+01	1.0000e+01	1.9900e+00	2.4900e+00	2.4100e+00	2.9000e+00	1.0000e+01	2.9800e+00	




#DATA BEGINS
time	group	step	mark	flag	A-AC1	A-AC2	A-AC3	A-AC4	A-AC5	A-AC6	A-AC7	A-AC8	A-AC9	A-AC10	A-AC11	A-AC12	A-AC13	A-AC14	A-AC15	A-AC16	A-DC1	A-DC2	A-DC3	A-DC4	A-DC5	A-DC6	A-DC7	A-DC8	A-DC9	A-DC10	A-DC11	A-DC12	A-DC13	A-DC14	A-DC15	A-DC16	A-Ph1	A-Ph2	A-Ph3	A-Ph4	A-Ph5	A-Ph6	A-Ph7	A-Ph8	A-Ph9	A-Ph10	A-Ph11	A-Ph12	A-Ph13	A-Ph14	A-Ph15	A-Ph16	B-AC1	B-AC2	B-AC3	B-AC4	B-AC5	B-AC6	B-AC7	B-AC8	B-AC9	B-AC10	B-AC11	B-AC12	B-AC13	B-AC14	B-AC15	B-AC16	B-DC1	B-DC2	B-DC3	B-DC4	B-DC5	B-DC6	B-DC7	B-DC8	B-DC9	B-DC10	B-DC11	B-DC12	B-DC13	B-DC14	B-DC15	B-DC16	B-Ph1	B-Ph2	B-Ph3	B-Ph4	B-Ph5	B-Ph6	B-Ph7	B-Ph8	B-Ph9	B-Ph10	B-Ph11	B-Ph12	B-Ph13	B-Ph14	B-Ph15	B-Ph16	aux-1	digaux	

38483.719	1	1	0	256	0.029513	0.15889	0.14871	0.31284	0.10227	0.14071	0.22283	0.21642	0.09736	0.075833	0.2653	0.1356	0.30396	0.08836	0.17684	0.33864	-2.2042	-3.1396	-2.4188	-2.9125	-3.2208	-2.3604	-3.3021	-2.8333	-2.3063	-3.1208	-2.4396	-2.6104	-3.2833	-2.3688	-2.7646	-2.7979	127.417	149.444	191.065	319.823	114.618	249.021	266.440	281.715	38.478	11.268	308.770	103.726	270.058	40.655	126.804	247.332	0.00011113	0.00017829	5.154e-05	1047.6	3.5555e-06	4.3821e-06	1148.8	212.9	1.7134e-06	2.5133e-06	272.31	77.97	60.549	17.802	2.8767e-06	25.025	0.00028513	0.00031673	9.6782e-05	1031.8	3.7399e-06	3.9061e-06	1129.7	211.07	3.8536e-06	3.4428e-06	269.62	78.221	60.882	18.094	3.3442e-06	25.422	236.500	64.881	53.315	-22.332	142.121	113.324	-22.108	-14.528	158.987	130.299	-15.320	-7.981	-7.528	-0.581	146.980	-1.305	-8191	255	
38483.812	1	1	0	0	0.16558	0.17401	0.13458	0.31352	0.0069032	0.058886	0.16379	0.092177	0.40847	0.17741	0.16813	0.10942	0.074947	0.063386	0.089507	0.050675	-1.7938	-3.0687	-2.3667	-2.7208	-2.8833	-2.0896	-3.0396	-2.8458	-2.05	-3.1063	-2.5917	-2.4938	-3.0021	-2.2333	-2.8833	-2.9479	189.350	184.609	37.144	275.340	169.674	102.293	233.168	195.492	310.792	291.968	182.411	25.668	-5.740	289.321	251.768	-28.732	0.00013205	0.00031761	6.7774e-05	1046.1	3.3074e-06	4.2547e-06	1148	211.66	2.7108e-06	2.6761e-06	271.63	77.083	60.785	17.933	2.9987e-06	25.14	0.00028401	0.00032729	9.1568e-05	1029.7	3.5477e-06	3.8086e-06	1128.7	210.7	3.7153e-06	3.5604e-06	269.18	78.034	61.094	18.061	3.5027e-06	25.418	222.253	32.728	60.175	-22.173	151.583	121.653	-22.331	-14.720	186.350	111.994	-15.142	-8.214	-7.552	-0.645	150.338	-1.628	-8191	255	
38483.887	1	1	0	0	0.11143	0.06813	0.041633	0.29509	0.06421	0.07196	0.21349	0.14698	0.18564	0.16845	0.074514	0.070092	0.26808	0.20236	0.11214	0.36277	-1.7875	-3.2625	-2.5687	-2.6333	-3.2875	-2.2896	-2.8812	-2.9708	-2.15	-2.9688	-2.775	-2.5667	-3.0854	-2.3479	-2.8187	-3.1604	217.293	256.540	150.756	307.524	73.311	236.284	271.825	161.273	241.317	86.538	158.911	-24.329	225.598	16.764	134.894	313.352	0.00014175	0.00023961	8.3073e-05	1044.1	4.3939e-06	4.1293e-06	1148.5	212.87	1.6915e-06	3.1703e-06	270.08	77.713	60.687	17.872	1.8405e-06	25.319	0.00028186	0.00030848	9.0806e-05	1031.2	3.7102e-06	3.6174e-06	1129.4	211.65	3.6172e-06	3.5035e-06	268.17	78.169	60.981	18.093	3.5582e-06	25.458	240.210	60.240	67.854	-22.516	157.216	133.907	-22.168	-14.570	208.828	116.834	-15.118	-7.795	-7.534	-0.188	155.444	-1.271	-8191	255	
38483.984	1	1	0	0	0.21295	0.15533	0.10621	0.19442	0.16576	0.16305	0.35962	0.3996	0.06017	0.21358	0.30315	0.073063	0.20216	0.20494	0.19745	0.28672	-1.7687	-3.0229	-2.7979	-2.4729	-3.1625	-2.1167	-2.8667	-3.0729	-2.2208	-2.9792	-2.6708	-2.4708	-3.2625	-2.3042	-2.6937	-3.0792	54.409	152.857	95.212	9.138	-26.602	125.433	311.725	272.347	55.820	123.318	25.362	138.837	160.274	213.032	-22.346	254.851	0.00015375	0.00018469	9.4377e-05	1046	1.9416e-06	1.6123e-06	1150.6	212.5	1.9098e-06	2.2906e-06	270.06	76.835	60.986	17.834	3.6243e-06	25.199	0.00028242	0.00032179	9.6455e-05	1030.7	3.5963e-06	3.8219e-06	1130.7	211.34	3.6833e-06	3.6149e-06	268.43	77.93	61.003	18.049	3.5113e-06	25.415	235.359	66.663	75.775	-22.292	177.876	128.178	-22.239	-14.555	183.935	105.208	-15.225	-7.840	-7.438	-0.534	107.365	-1.409	-8191	255	
38484.102	1	1	0	0	0.21459	0.39187	0.075508	0.14219	0.23129	0.10466	0.18302	0.36496	0.23217	0.12135	0.35445	0.1576	0.20169	0.073742	0.24839	0.16741	-2.0687	-2.7938	-2.9813	-2.4625	-3.0042	-2.45	-2.7667	-2.9938	-2.1833	-2.9271	-2.9542	-2.1104	-3.2521	-2.5542	-2.2396	-3.2354	302.131	275.846	308.420	229.522	302.178	31.605	317.806	200.919	7.496	167.412	239.525	269.644	271.954	259.869	292.197	-17.697	0.00013364	0.00026234	5.9122e-05	1048.3	3.6458e-06	2.5767e-06	1146.9	212.94	2.5962e-06	4.196e-06	268.79	77.545	60.892	17.799	2.9258e-06	25.048	0.00027561	0.00030848	8.7164e-05	1031.7	3.7199e-06	3.732e-06	1129.5	211.23	3.609e-06	3.5066e-06	268.34	77.939	61	18.077	3.4957e-06	25.408	227.308	62.721	40.690	-22.398	174.883	107.895	-22.069	-14.596	176.363	140.493	-15.117	-7.824	-7.156	-0.764	111.326	-1.243	-8191	255	
38484.199	1	1	0	0	0.24964	0.039947	0.35261	0.19161	0.27649	0.12159	0.15464	0.11159	0.089529	0.46287	0.030498	0.23039	0.13323	0.19627	0.15545	0.21938	-1.9146	-2.7292	-2.9188	-2.4958	-3.2021	-2.7625	-2.7021	-3.3271	-2.4	-2.65	-2.975	-2.3458	-2.9917	-2.7583	-2.2771	-3.1854	93.736	204.767	48.380	213.223	207.418	195.400	300.997	318.341	91.487	136.716	310.521	22.434	68.440	-3.314	0.020	294.717	0.0001613	0.00016213	5.0193e-05	1044.3	3.8161e-06	2.6015e-06	1139.6	212.73	2.5117e-06	3.2467e-06	270.61	77.115	61.038	17.742	1.7616e-06	25.062	0.00028115	0.00032667	8.8985e-05	1031.1	3.6146e-06	3.4553e-06	1125.7	211.44	3.7349e-06	3.6818e-06	269.03	77.676	61.177	18.046	3.5877e-06	25.374	236.799	52.553	95.898	-22.599	170.747	112.558	-22.290	-14.680	191.852	95.524	-15.338	-7.874	-7.393	-0.972	169.648	-1.089	-8191	255	
38484.293	1	1	0	0	0.094102	0.0036172	0.11947	0.36104	0.14816	0.14734	0.32891	0.21522	0.12556	0.14273	0.105	0.3072	0.15807	0.23648	0.030075	0.16567	-2.0021	-2.5	-3.0542	-2.4667	-2.8604	-2.5729	-2.6937	-3.1667	-2.5625	-2.4917	-2.8833	-2.1958	-2.9271	-2.7562	-2.1562	-3.1167	322.027	78.147	288.466	324.840	37.951	158.880	270.741	281.433	326.307	272.690	247.572	-23.640	253.773	-21.699	-16.685	-21.249	0.00013349	0.00025812	6.5807e-05	1046.4	4.0264e-06	3.1925e-06	1142.5	211.23	2.1843e-06	3.181e-06	270.47	78.064	60.26	17.865	3.7486e-06	25.161	0.00027514	0.00031881	8.4114e-05	1029.9	3.6805e-06	3.6054e-06	1125.5	210.96	3.4962e-06	3.6349e-06	268.73	78.042	60.703	18.078	3.5697e-06	25.386	237.618	75.056	52.792	-22.600	144.390	147.419	-22.319	-14.525	169.934	119.589	-15.190	-7.772	-7.651	-0.837	145.001	-1.284	-8191	255	
38484.414	1	1	0	0	0.13013	0.15479	0.031394	0.35253	0.039575	0.27512	0.3883	0.15626	0.088055	0.33362	0.092215	0.092259	0.11808	0.41476	0.19012	0.21222	-1.9917	-2.4938	-3.1312	-2.5	-2.85	-3.0042	-2.3917	-3.0792	-2.4813	-2.4583	-3.2938	-2.2208	-2.9562	-2.8896	-2.2729	-3.1375	55.704	227.157	267.020	231.611	134.356	128.677	297.559	257.972	37.302	273.668	309.730	311.125	199.028	321.277	112.453	-17.811	0.00014655	0.00037856	6.308e-05	1040	3.916e-06	2.3257e-06	1143.2	212.84	1.3607e-06	2.5031e-06	269.36	77.634	60.967	17.883	2.9472e-06	25.105	0.00027679	0.00034639	8.6728e-05	1029.4	3.5634e-06	3.5345e-06	1125	211.17	3.4951e-06	3.5004e-06	268.18	77.952	60.999	18.08	3.557e-06	25.377	235.648	60.139	60.412	-22.534	140.528	121.458	-22.216	-14.766	190.917	121.350	-15.352	-7.858	-7.591	-0.972	143.889	-1.689	-8191	255	
38484.512	1	1	0	0	0.18988	0.11362	0.13863	0.18954	0.2706	0.15066	0.18501	0.30166	0.32815	0.053629	0.074777	0.040236	0.19985	0.12658	0.16626	0.3572	-2.1437	-2.3937	-3.0521	-2.4542	-2.7729	-3.1	-2.5229	-3.15	-2.6917	-2.2917	-3.0792	-2.4729	-2.8146	-2.9646	-2.2562	-3.1292	48.084	176.004	146.151	63.757	274.071	40.129	229.062	255.289	184.814	33.393	-21.788	239.125	24.117	55.844	307.441	293.250	0.00012562	0.00029409	9.3177e-05	1040.9	1.8262e-06	3.1328e-06	1143.5	211.78	3.1144e-06	1.5356e-06	269.52	77.361	60.666	17.936	2.646e-06	24.973	0.00028093	0.0003356	8.4705e-05	1028.4	3.7604e-06	3.4041e-06	1127.3	211.02	3.5852e-06	3.6887e-06	268.28	77.9	61.09	18.084	3.5322e-06	25.366	234.435	83.012	58.581	-22.679	169.239	116.828	-22.395	-14.658	178.582	89.856	-15.485	-8.186	-7.266	-0.813	133.481	-1.379	-8191	255	
38484.582	1	1	0	0	0.13048	0.17364	0.14065	0.2998	0.17485	0.13471	0.26343	0.25751	0.24161	0.14897	0.081291	0.13842	0.076928	0.25679	0.31412	0.032653	-2.3583	-2.4	-3.1	-2.5083	-2.5833	-3.1896	-2.4875	-2.9979	-2.7896	-2.3438	-3.1229	-2.4625	-2.5542	-3.1979	-2.4229	-2.9583	13.426	238.259	117.877	262.544	279.816	74.351	247.929	323.736	200.221	104.365	299.940	89.722	267.388	-6.178	21.765	307.865	0.0001293	0.00018326	9.7619e-05	1046.4	1.4508e-06	2.445e-06	1141.3	212.89	2.6823e-06	2.1959e-06	269.21	77.39	60.645	17.809	2.3145e-06	25.06	0.0002659	0.00033246	8.8191e-05	1029.5	3.8694e-06	3.3876e-06	1125.3	211.3	3.4024e-06	3.6092e-06	268.34	77.984	60.873	18.075	3.5293e-06	25.375	227.930	91.353	62.968	-22.666	181.824	142.502	-22.443	-14.824	170.585	112.086	-15.272	-8.145	-7.380	-0.975	134.791	-1.936	-8191	255	
38484.703	1	1	0	0	0.06308	0.12381	0.29638	0.18688	0.27062	0.26465	0.38797	0.22524	0.3139	0.11112	0.28838	0.10173	0.027601	0.15626	0.021175	0.063614	-2.6813	-2.2812	-3.0479	-2.6021	-2.2938	-3.1146	-2.4458	-3.0312	-2.8417	-2.3771	-3.0646	-2.6188	-2.4146	-2.9375	-2.1854	-2.8688	91.763	186.031	198.619	275.761	60.532	299.587	257.773	72.536	291.304	73.266	93.598	154.190	184.524	275.466	186.752	-3.974	0.00013945	0.00035919	6.0282e-05	1043.1	3.8009e-06	2.3179e-06	1147	212.98	2.6542e-06	2.9587e-06	269.41	77.734	61.175	17.769	3.9544e-06	24.954	0.00026786	0.00031606	8.8938e-05	1028.5	3.9866e-06	3.3927e-06	1126.8	211.62	3.494e-06	3.7769e-06	268.7	78.025	61.067	18.062	3.6513e-06	25.378	224.911	69.182	89.143	-22.730	157.954	112.512	-22.386	-14.688	172.969	137.826	-15.414	-7.866	-7.743	-0.743	124.355	-1.776	-8191	255	
38484.797	1	1	0	0	0.12712	0.20725	0.08618	0.28859	0.15086	0.14826	0.27737	0.31127	0.17897	0.20228	0.40178	0.34732	0.079726	0.21744	0.088032	0.36292	-2.4083	-2.0854	-3.0042	-2.9479	-2.3125	-3.1	-2.5771	-2.7833	-2.8812	-2.4479	-3.3729	-2.725	-2.2458	-3.1458	-2.1521	-2.6979	150.096	250.239	155.106	-28.100	274.003	144.600	261.474	164.685	102.226	52.423	253.862	-9.867	299.562	-22.825	275.372	97.578	0.00016918	0.00022991	6.994e-05	1040.2	4.7697e-06	2.702e-06	1147.1	212.06	3.134e-06	2.3608e-06	270.74	77.226	61.001	17.783	3.2957e-06	25.081	0.00027169	0.00033302	8.6837e-05	1028.2	3.7836e-06	3.3939e-06	1127.1	211.21	3.3888e-06	3.5736e-06	269.19	77.94	60.911	18.062	3.4813e-06	25.381	231.164	52.057	57.012	-22.648	135.816	152.229	-22.361	-14.787	174.366	135.845	-15.390	-7.746	-7.739	-0.742	105.252	-1.605	-8191	255	
38484.895	1	1	0	0	0.032595	0.15644	0.25758	0.36286	0.18158	0.088898	0.07065	0.017226	0.1935	0.086023	0.35789	0.045169	0.29179	0.18987	0.089565	0.2572	-2.6896	-2.0667	-2.8708	-2.9417	-2.2708	-3.1479	-2.7083	-2.6021	-3.0833	-2.2042	-3.0104	-2.8667	-2.3271	-3.1188	-2.5625	-2.7458	97.937	69.224	-11.072	287.296	228.866	158.497	162.124	40.318	108.724	96.706	301.147	144.074	256.410	242.196	37.867	274.686	0.00014535	0.00033003	0.00010744	1045	3.484e-06	3.5181e-06	1144.3	211.48	1.0798e-06	1.9842e-06	268.8	77.416	60.839	17.771	2.6013e-06	25.063	0.00027461	0.00033729	9.272e-05	1029.4	3.6675e-06	3.4212e-06	1127.1	210.85	3.34e-06	3.4384e-06	268.13	77.973	60.984	18.048	3.6114e-06	25.363	227.377	38.513	53.539	-22.366	148.669	139.076	-22.502	-14.973	188.331	134.196	-15.137	-7.858	-7.365	-0.090	113.900	-1.351	-8191	255	
38485.016	1	1	0	0	0.21738	0.10197	0.077263	0.36146	0.19018	0.021506	0.44424	0.20216	0.099874	0.15707	0.17997	0.17738	0.14163	0.12495	0.26242	0.1022	-2.8771	-2.3708	-2.8812	-2.9167	-2.2354	-3.175	-2.5938	-2.5333	-3.1292	-2.4146	-2.9083	-3.1125	-2.2521	-3.0438	-2.5687	-2.4021	183.602	125.022	0.414	-21.193	81.801	198.342	274.949	223.052	324.109	-27.829	4.519	269.869	101.210	303.366	210.315	-17.208	0.00015573	0.00043259	9.1604e-05	1042.4	2.8911e-06	1.6127e-06	1144	211.38	2.0612e-06	2.3063e-06	270.25	77.557	60.47	17.932	2.2782e-06	25.109	0.00027047	0.00033229	8.9172e-05	1027.1	3.8128e-06	3.3851e-06	1126.1	210.82	3.3709e-06	3.6449e-06	268.59	78.044	60.807	18.084	3.3384e-06	25.391	231.760	81.219	72.994	-22.699	164.058	77.420	-22.769	-14.705	166.651	125.368	-15.482	-7.965	-7.609	-0.589	162.995	-1.140	-8191	255	
38485.109	1	1	0	0	0.12585	0.045475	0.081317	0.22826	0.21102	0.18133	0.21676	0.11948	0.036408	0.12016	0.076473	0.16436	0.059413	0.051271	0.14899	0.06225	-2.8479	-2.1854	-2.7958	-3.1333	-2.1562	-3.1667	-2.9437	-2.3271	-3.2083	-2.675	-2.9562	-3.0583	-2.4562	-3.1167	-2.6542	-2.4542	140.889	76.955	37.309	299.282	120.827	103.541	207.054	208.263	181.176	4.032	4.458	122.040	245.865	322.719	74.294	300.856	0.00012673	0.00028807	6.8821e-05	1043.5	1.5212e-06	2.5263e-06	1145	212.25	1.7481e-06	1.3605e-06	269.18	77.212	60.725	17.679	2.7939e-06	25.081	0.00026135	0.00034695	9.0417e-05	1027.1	3.8781e-06	3.3857e-06	1125.4	211.21	3.3292e-06	3.3221e-06	268.45	77.783	60.672	17.997	3.4414e-06	25.327	233.490	75.310	68.084	-22.826	144.715	105.290	-22.508	-14.741	158.040	105.453	-15.287	-8.086	-7.722	-0.757	137.525	-1.383	-8191	255	
38485.184	1	1	0	0	0.092122	0.061832	0.16665	0.22129	0.096245	0.082705	0.34753	0.17449	0.29691	0.13241	0.30655	0.19133	0.082169	0.070266	0.24494	0.26012	-2.7188	-2.4708	-2.4354	-3.1354	-2.5271	-3.0521	-2.9208	-2.4188	-3.1292	-2.45	-2.4958	-3.1063	-2.4938	-2.9271	-2.8542	-2.2604	229.345	29.766	102.561	-23.490	142.771	31.211	263.428	265.168	-13.587	67.502	267.232	-22.639	-7.977	31.272	-14.614	269.906	0.00016953	0.00028159	0.00011455	1039.9	2.948e-06	3.1081e-06	1139.6	211.72	1.7877e-06	2.7083e-06	269.97	77.6	60.568	17.902	2.7624e-06	25.092	0.00026428	0.00035172	9.854e-05	1027.5	3.8829e-06	3.5028e-06	1124	210.66	3.3123e-06	3.5717e-06	268.62	77.921	60.854	18.098	3.35e-06	25.264	240.286	60.414	71.786	-22.636	169.467	165.054	-22.415	-14.691	156.148	87.158	-15.394	-7.504	-7.659	-0.831	163.781	-1.269	-8191	255	
38485.277	1	1	0	0	0.2842	0.1167	0.41729	0.089697	0.15884	0.012598	0.19437	0.41857	0.19577	0.077457	0.25287	0.082188	0.20345	0.25849	0.045453	0.24087	-2.8438	-2.6312	-2.6042	-3.3542	-2.2188	-2.8729	-3.0396	-2.0333	-3.1646	-2.8958	-2.4313	-3.3729	-2.4062	-2.7375	-3.0062	-2.3833	1.304	321.520	323.554	228.273	145.000	8.535	245.972	308.319	320.447	282.666	257.280	236.996	326.808	268.900	165.289	212.469	0.00014259	0.00030548	6.887e-05	1036.7	3.6323e-06	2.55e-06	1141.8	211.7	2.1769e-06	2.0982e-06	267.69	77.048	60.582	17.836	3.1842e-06	25.098	0.00027343	0.00032106	9.3762e-05	1025.6	3.8667e-06	3.587e-06	1124.1	210.91	3.4734e-06	3.6124e-06	267.68	77.622	60.67	18.05	3.221e-06	25.326	237.117	72.243	75.845	-22.903	178.202	98.596	-22.487	-14.851	181.412	116.379	-15.356	-7.979	-7.906	-0.470	129.794	-1.645	-8191	255	
38485.398	1	1	0	0	0.041545	0.30879	0.11121	0.47103	0.34286	0.1981	0.11149	0.16135	0.21026	0.20399	0.36488	0.17106	0.1036	0.12168	0.064013	0.045642	-2.7104	-2.8083	-2.3646	-3.1917	-2.3312	-2.8	-3.2	-2.3167	-3.0479	-2.7479	-2.3563	-3.2521	-2.5729	-2.3521	-3.0708	-2.3708	289.075	98.249	288.452	-25.985	-5.600	127.613	163.060	271.989	274.120	156.790	1.308	184.989	-19.385	229.783	-30.312	-8.806	0.00013471	0.00031991	6.3509e-05	1042.6	3.001e-06	2.7374e-06	1141.4	209.66	3.3534e-06	3.0806e-06	268.53	77.481	60.415	17.82	3.2665e-06	25.182	0.00026711	0.0003251	8.5406e-05	1027.3	3.7674e-06	3.4591e-06	1122.7	210.2	3.3975e-06	3.4441e-06	267.74	77.785	60.767	18.051	3.1678e-06	25.395	237.435	41.870	73.155	-22.615	146.932	105.245	-22.269	-14.708	181.129	118.737	-15.352	-7.583	-7.929	-0.905	127.709	-1.572	-8191	255	
38485.496	1	1	0	0	0.20551	0.08493	0.15425	0.14967	0.18155	0.12749	0.072997	0.18873	0.29408	0.16147	0.074198	0.31986	0.15018	0.27733	0.28613	0.13424	-2.5125	-2.7958	-2.0875	-3.1375	-2.3354	-2.5146	-3.1896	-2.1813	-2.9375	-2.7521	-2.1542	-3.1375	-2.6271	-2.4646	-3.1729	-2.2667	235.516	92.202	150.079	203.976	243.650	83.147	206.825	313.392	20.888	150.707	192.702	-5.511	161.931	276.665	164.017	110.350	0.00014109	0.00031747	6.4425e-05	1041.7	3.232e-06	1.703e-06	1139.3	212.76	1.5224e-06	1.7251e-06	270.36	77.233	60.199	17.733	4.4669e-06	24.997	0.00026851	0.00031353	8.6868e-05	1026.8	3.6519e-06	3.5965e-06	1122.5	210.78	3.372e-06	3.227e-06	268.04	77.736	60.706	18.014	3.2887e-06	25.36	227.605	56.485	64.401	-22.490	148.124	123.584	-22.342	-14.717	207.597	97.277	-15.216	-7.616	-7.312	-0.408	123.716	-1.293	-8191	255	
38485.590	1	1	0	0	0.24425	0.027744	0.21829	0.27356	0.13503	0.039054	0.21048	0.034315	0.27493	0.14911	0.25418	0.13009	0.056635	0.10761	0.061051	0.13292	-2.4875	-2.9875	-2.0938	-3.2875	-2.4458	-2.4104	-3.3667	-2.4188	-2.8125	-2.9354	-2.4083	-3.2021	-2.7042	-2.325	-3.0458	-2.5438	-12.499	129.458	256.128	216.232	307.421	222.637	264.913	152.184	294.304	48.281	287.780	239.169	213.145	160.142	255.385	8.827	0.00013488	0.00023836	0.00010082	1043	2.6508e-06	1.2166e-06	1144.3	211.44	1.4589e-06	2.8073e-06	271.26	77.262	60.5	17.719	3.7481e-06	25.163	0.00026677	0.00029573	9.3669e-05	1027.6	3.5866e-06	3.6231e-06	1125.3	210.55	3.3508e-06	3.3659e-06	268.81	77.759	60.83	18.022	3.4905e-06	25.315	233.936	75.172	42.037	-22.378	175.647	87.049	-22.451	-14.712	161.391	117.759	-15.181	-7.825	-7.334	-0.420	153.510	-1.480	-8191	255	
38485.688	1	1	0	0	0.10397	0.023237	0.13724	0.21663	0.17326	0.10835	0.38524	0.21482	0.20539	0.10058	0.14613	0.2747	0.10003	0.24671	0.1472	0.14699	-2.2729	-3.0458	-2.2917	-3.1396	-2.6979	-2.4729	-3.2771	-2.5625	-2.7083	-3.0729	-2.2292	-2.9271	-2.8896	-2.2667	-3.2396	-2.6437	325.873	23.531	50.227	294.575	209.392	150.246	280.066	265.722	-9.904	306.759	42.987	231.894	-21.221	166.425	159.983	297.241	0.00013283	0.00027474	0.00011797	1043.5	4.398e-06	1.2428e-06	1142.5	210.45	3.2719e-06	1.2552e-06	271.4	77.466	60.269	17.781	3.5389e-06	25.129	0.00027947	0.00029972	9.2144e-05	1028	3.6611e-06	3.499e-06	1124.6	210.42	3.4783e-06	3.4115e-06	268.99	77.964	60.791	18.023	3.4252e-06	25.42	238.375	71.989	61.888	-22.340	149.136	117.258	-22.066	-14.591	144.509	85.179	-15.276	-7.950	-7.469	-0.712	123.631	-1.741	-8191	255	
38485.781	1	1	0	0	0.28593	0.18366	0.14898	0.014337	0.2079	0.32364	0.17524	0.028826	0.32171	0.18692	0.14849	0.21627	0.17099	0.20262	0.14866	0.31999	-2.1042	-3.1917	-2.2979	-3.0312	-2.8479	-2.2667	-3.2208	-2.4708	-2.3375	-3.0417	-2.2375	-2.7979	-2.8187	-2.1229	-3.1667	-2.6271	281.580	146.524	189.252	14.982	195.990	18.968	264.767	133.206	315.265	1.861	186.900	91.035	152.885	-4.454	305.846	262.336	0.00017049	0.00024053	8.879e-05	1043.4	2.5514e-06	4.212e-06	1145.5	212.31	1.8782e-06	2.285e-06	270.01	77.359	60.543	17.827	3.0927e-06	25.13	0.00028363	0.00030045	9.3249e-05	1027.7	3.653e-06	3.7149e-06	1126.1	210.63	3.3237e-06	3.3759e-06	268.51	77.799	60.796	18.048	3.4749e-06	25.343	233.335	88.938	92.870	-22.492	146.677	131.812	-22.211	-14.470	154.931	97.561	-15.142	-7.682	-7.657	-0.648	128.536	-1.687	-8191	255	
38485.879	1	1	0	0	0.22582	0.1509	0.16036	0.2974	0.11876	0.081498	0.096827	0.24631	0.0064908	0.11493	0.12048	0.25755	0.21169	0.25697	0.2151	0.13023	-2.1104	-3.1729	-2.2708	-2.9729	-3	-2.2708	-3.1854	-2.8	-2.4313	-3.1583	-2.3271	-2.6854	-3.1	-2.3125	-3.0292	-2.7042	109.283	215.672	153.069	282.650	158.262	-1.393	315.638	320.004	270.484	175.898	249.186	319.797	272.608	136.966	-12.576	299.058	0.00014643	0.00023447	7.2438e-05	1042.5	2.9801e-06	3.6324e-06	1143.3	211.64	2.3043e-06	3.4041e-06	268.38	77.558	60.701	17.824	2.5405e-06	25.112	0.000272	0.00031387	8.3258e-05	1028.2	3.552e-06	3.651e-06	1124.9	210.64	3.5792e-06	3.262e-06	267.93	77.791	60.81	18.055	3.4466e-06	25.326	229.385	65.892	86.056	-22.622	167.741	106.126	-22.165	-14.824	131.241	125.964	-15.143	-7.390	-7.595	-0.642	125.491	-1.523	-8191	255	
38485.977	1	1	0	0	0.16056	0.24652	0.048313	0.24505	0.062825	0.23501	0.28631	0.1116	0.11028	0.13585	0.1758	0.11324	0.090106	0.21014	0.20579	0.14485	-1.9396	-2.9625	-2.2292	-2.5896	-3.0417	-2.15	-3.1937	-2.725	-2.1937	-3.1688	-2.4521	-2.7438	-3.1417	-2.1604	-2.9208	-2.8875	16.785	247.607	8.706	5.754	237.309	253.919	244.970	126.514	130.418	150.833	51.997	95.387	9.095	22.090	286.645	175.316	0.00014368	0.00038694	7.3807e-05	1040.5	3.7434e-06	2.2084e-06	1144.2	212.11	2.6345e-06	1.806e-06	268.06	77.609	60.465	17.87	3.3502e-06	25.105	0.00027287	0.00028714	9.0199e-05	1028.9	3.5142e-06	4.008e-06	1126.2	210.65	3.5608e-06	3.277e-06	267.59	77.926	60.769	18.086	3.2974e-06	25.337	232.033	67.685	71.299	-22.460	158.410	90.900	-22.169	-14.536	158.252	117.143	-15.137	-7.827	-7.461	-0.765	125.414	-1.575	-8191	255	
38486.094	1	1	0	0	0.11758	0.080246	0.18732	0.2356	0.10748	0.15221	0.10205	0.16267	0.041845	0.20149	0.075653	0.26754	0.087375	0.086438	0.072355	0.019343	-1.9208	-3.1979	-2.7646	-2.6542	-3.2833	-2.2438	-2.9646	-2.7938	-2.1688	-3.1479	-2.7646	-2.5104	-3.2875	-2.0833	-2.8208	-2.9375	253.139	208.785	132.954	261.968	73.213	260.841	210.892	206.774	202.812	240.963	93.385	-24.287	326.754	44.479	-19.437	231.644	0.0001381	0.00037395	8.8383e-05	1045.8	1.6788e-06	2.8804e-06	1143.9	211.46	1.4348e-06	2.5515e-06	269.42	77.314	60.735	17.76	2.9422e-06	24.985	0.00027358	0.00031364	9.6284e-05	1028.8	3.491e-06	3.6446e-06	1126.2	210.86	3.5727e-06	3.3609e-06	267.85	77.944	60.914	18.026	3.4576e-06	25.28	238.061	58.396	31.355	-22.091	208.981	95.384	-22.315	-14.597	153.320	106.655	-15.574	-7.833	-7.661	-0.407	122.020	-1.521	-8191	255	
38486.191	1	1	0	0	0.20365	0.20248	0.22873	0.17403	0.30264	0.051059	0.11834	0.024178	0.1782	0.059583	0.19664	0.039252	0.26144	0.28595	0.08831	0.10447	-1.9333	-3.2083	-2.75	-2.4333	-3.1042	-2.4313	-2.8	-2.9688	-2.1583	-3.1208	-2.8833	-2.4062	-3.2417	-2.3583	-2.5729	-3.075	63.767	28.288	52.383	171.838	90.972	320.520	263.790	65.914	21.598	4.739	283.155	249.720	157.469	300.791	111.979	136.885	0.00013904	0.00033565	8.4107e-05	1042	2.8794e-06	2.7784e-06	1144.8	211.81	2.2658e-06	2.6537e-06	267.46	77.145	60.707	17.748	2.7103e-06	25.012	0.00027551	0.00030556	8.788e-05	1027.9	3.4662e-06	3.5338e-06	1126.2	210.49	3.781e-06	3.3803e-06	267.56	77.672	60.8	18.006	3.5842e-06	25.34	232.721	101.382	63.359	-22.360	179.940	135.222	-22.001	-14.675	174.688	111.640	-15.399	-7.971	-7.127	-0.818	128.841	-1.424	-8191	255	
38486.285	1	1	0	0	0.21121	0.17248	0.37589	0.36237	0.22028	0.18343	0.19566	0.23234	0.068057	0.048461	0.089557	0.15325	0.026718	0.21606	0.1505	0.01503	-1.8146	-2.9146	-2.9354	-2.4646	-3.1208	-2.4771	-2.6104	-3.3438	-2.3333	-3.0833	-3.0104	-2.1917	-3.3604	-2.5563	-2.6458	-3.3125	116.721	22.138	156.277	292.980	208.651	304.419	297.391	262.290	205.232	143.872	189.668	286.466	147.208	216.759	220.200	231.613	0.00011563	0.0002384	0.00010021	1044	3.466e-06	2.4755e-06	1146.3	211.95	1.6693e-06	3.0677e-06	267.59	77.564	60.38	17.761	1.681e-06	25.015	0.0002851	0.0003091	9.0774e-05	1028.6	3.5045e-06	3.701e-06	1125.7	210.76	3.3845e-06	3.3922e-06	267.43	77.812	60.824	18.053	3.5281e-06	25.328	233.085	39.617	37.367	-22.413	163.955	127.463	-22.370	-14.870	188.086	107.061	-15.338	-7.815	-7.498	-0.899	120.825	-1.399	-8191	255	
38486.383	1	1	0	0	0.021342	0.27523	0.13213	0.23755	0.085432	0.25645	0.35307	0.16174	0.085823	0.11868	0.13451	0.15748	0.24532	0.11799	0.12472	0.10216	-1.875	-2.8083	-2.875	-2.4479	-3.0667	-2.625	-2.4458	-2.9583	-2.3292	-2.6792	-3.0021	-2.3104	-2.9354	-2.825	-2.3812	-3.0958	-13.325	-5.353	184.867	254.809	55.132	324.547	259.253	-26.391	297.672	-28.167	230.312	240.458	32.199	292.926	319.157	301.323	0.00015158	0.00022992	0.00010736	1042.2	4.7494e-06	3.1484e-06	1143.3	212.84	2.8764e-06	2.9488e-06	270.01	77.366	61.003	17.986	3.1148e-06	25.174	0.00027299	0.00030612	8.4472e-05	1027.5	3.5558e-06	3.5478e-06	1127.1	211.13	3.5803e-06	3.588e-06	268.29	77.803	60.905	18.044	3.6316e-06	25.388	240.375	66.021	67.231	-22.336	123.450	104.230	-22.145	-14.648	166.091	122.548	-15.212	-7.512	-7.526	-0.544	160.771	-1.367	-8191	255	
38486.480	1	1	0	0	0.15217	0.11116	0.15574	0.14985	0.24717	0.04619	0.20004	0.28683	0.24435	0.25273	0.19221	0.18277	0.13172	0.17383	0.1141	0.094452	-1.9333	-2.6104	-2.8937	-2.5479	-2.9271	-2.7729	-2.4917	-3.1104	-2.425	-2.6688	-3.0812	-2.4146	-3.1604	-2.8771	-2.2333	-3.2417	-18.224	4.549	206.986	-21.689	297.554	312.892	-16.327	281.333	50.766	107.193	187.529	4.989	198.434	220.866	259.638	326.479	0.00015813	0.00022794	9.2976e-05	1046.5	4.4452e-06	1.7212e-06	1145.2	212.02	2.2757e-06	1.7551e-06	269.63	77.328	60.424	17.705	4.0251e-06	24.988	0.00028174	0.00031359	8.332e-05	1029.7	3.5693e-06	3.613e-06	1125.8	210.73	3.5787e-06	3.4829e-06	268.33	77.747	60.753	17.99	3.4957e-06	25.316	235.242	54.419	53.268	-22.505	150.198	114.503	-22.056	-14.766	149.307	107.943	-14.952	-7.629	-7.347	-0.745	136.316	-1.390	-8191	255	
38486.574	1	1	0	0	0.23834	0.16027	0.20423	0.21254	0.1137	0.13657	0.073392	0.11469	0.18687	0.076934	0.081501	0.14054	0.072114	0.13675	0.22913	0.026087	-2.1375	-2.7438	-3.0896	-2.4938	-2.775	-2.7375	-2.5021	-3.3396	-2.5687	-2.6083	-3.2375	-2.2292	-2.9813	-2.7188	-2.3146	-3.0625	114.363	24.543	78.338	253.820	-15.378	155.527	246.591	212.549	-19.671	210.800	166.555	317.339	199.058	316.006	279.022	81.961	0.00012793	0.00025974	5.8261e-05	1041	2.8229e-06	2.3064e-06	1138.9	211.86	2.5774e-06	1.9959e-06	270.81	77.168	61.036	17.755	3.0855e-06	25.213	0.00027449	0.00031651	8.7086e-05	1028.5	3.613e-06	3.5896e-06	1123.5	210.69	3.4913e-06	3.6399e-06	268.56	77.632	60.879	18.003	3.5212e-06	25.374	236.717	65.113	40.040	-22.421	139.063	117.813	-22.339	-14.416	154.095	137.119	-15.120	-7.940	-7.345	-0.784	144.123	-1.082	-8191	255	
38486.695	1	1	0	0	0.061087	0.25791	0.32349	0.27579	0.17163	0.039938	0.014737	0.28748	0.098164	0.31903	0.10143	0.3704	0.12038	0.15041	0.083841	0.11425	-2.0979	-2.4917	-3.1021	-2.4938	-2.8771	-3.0646	-2.5271	-3.2271	-2.8125	-2.5479	-3.3042	-2.4292	-2.8354	-3.0854	-2.3875	-3.2333	-8.219	308.473	146.614	313.641	43.314	177.380	138.825	243.612	224.589	283.022	-3.699	316.029	277.780	-5.864	297.176	15.306	0.0001274	0.00017141	8.99e-05	1041	2.7763e-06	2.9844e-06	1139.4	212.09	2.3005e-06	3.525e-06	269.78	77.452	60.93	17.76	2.9649e-06	25.116	0.00027277	0.00032971	8.6557e-05	1027.2	3.4791e-06	3.3433e-06	1124.2	210.51	3.4935e-06	3.5542e-06	268.28	77.853	60.99	18.054	3.5287e-06	25.34	218.921	80.372	71.896	-22.157	178.571	79.931	-22.185	-14.789	174.476	97.934	-15.261	-7.963	-7.776	-1.086	134.128	-1.249	-8191	255	
38486.789	1	1	0	0	0.094823	0.29077	0.25803	0.20473	0.093869	0.097257	0.32119	0.13647	0.18535	0.19664	0.11609	0.2212	0.19887	0.032002	0.16318	0.17383	-2.5146	-2.2917	-3.1333	-2.5208	-2.8417	-3.2125	-2.3812	-2.9062	-2.8688	-2.3187	-3.3333	-2.4458	-2.6229	-3.0396	-2.4813	-2.9604	10.010	101.576	-16.812	305.122	266.775	60.275	253.585	229.636	209.469	25.627	165.625	71.612	-20.074	242.697	72.490	7.486	0.00014002	0.00025631	5.178e-05	1046.3	2.191e-06	3.1041e-06	1136.5	211.47	2.719e-06	2.9051e-06	269.87	77.239	60.099	17.797	3.7211e-06	25.174	0.00027321	0.00033577	8.332e-05	1028.4	3.6055e-06	3.3762e-06	1123.8	210.73	3.3009e-06	3.5135e-06	268.05	77.836	60.682	18.029	3.4547e-06	25.39	233.495	70.097	43.698	-22.399	145.571	141.898	-22.209	-14.651	182.256	104.340	-15.441	-7.558	-7.337	-0.351	147.506	-1.673	-8191	255	
38486.887	1	1	0	0	0.10272	0.39513	0.22435	0.2248	0.26596	0.29946	0.065707	0.311	0.08114	0.19762	0.22226	0.035165	0.16536	0.070855	0.075482	0.30939	-2.4521	-2.3021	-3.1396	-2.675	-2.4833	-3.2521	-2.5187	-2.9292	-2.8042	-2.4313	-3.1458	-2.4792	-2.4354	-3.2938	-2.2333	-2.8563	42.539	7.782	14.351	313.687	40.931	7.314	255.947	287.089	-2.902	207.320	276.644	295.411	327.392	129.716	161.181	311.835	0.00012728	0.00034799	0.00011388	1044.2	2.9845e-06	2.7484e-06	1144.1	212.38	7.7048e-07	2.5823e-06	268.67	77.518	60.641	17.764	2.7871e-06	25.064	0.00027965	0.00033571	8.4643e-05	1029.1	3.6432e-06	3.3718e-06	1125.3	210.91	3.3161e-06	3.6874e-06	268.16	77.824	60.87	18.012	3.6779e-06	25.329	236.423	53.805	78.595	-22.402	152.520	121.733	-22.169	-14.435	172.963	108.972	-15.291	-7.976	-7.208	-0.303	154.869	-1.517	-8191	255	
38486.984	1	1	0	0	0.13932	0.29325	0.11089	0.26818	0.083024	0.22952	0.075852	0.24537	0.075223	0.063509	0.11537	0.049466	0.068151	0.13214	0.068902	0.29185	-2.4125	-2.3104	-3.1521	-2.7375	-2.4938	-3.1021	-2.4521	-2.8208	-3.0625	-2.3146	-3.2062	-2.8104	-2.35	-3.3021	-2.2792	-2.5625	26.120	152.422	143.370	293.117	225.546	176.137	246.903	187.145	155.273	62.901	221.936	14.539	161.945	241.507	203.716	223.508	0.00014491	0.00023818	7.3629e-05	1043.6	2.8863e-06	2.0553e-06	1141.7	211.62	1.7264e-06	3.2727e-06	270.78	78.018	60.366	17.883	3.6325e-06	24.952	0.00026537	0.00034049	8.953e-05	1027.3	3.8262e-06	3.4079e-06	1124.2	210.43	3.5033e-06	3.5523e-06	268.16	77.875	60.808	18.075	3.7791e-06	25.334	229.564	46.805	59.364	-22.169	128.977	129.558	-22.557	-14.980	150.610	142.037	-15.417	-7.969	-7.382	-0.418	143.071	-1.197	-8191	255	
38487.078	1	1	0	0	0.10752	0.27554	0.1099	0.48203	0.22154	0.16832	0.11787	0.32772	0.25299	0.13608	0.28351	0.17378	0.054576	0.18875	0.23675	0.15778	-2.5833	-2.2292	-2.9875	-2.9688	-2.3542	-3.2062	-2.5938	-2.5604	-2.9833	-2.3	-2.9	-2.9813	-2.4792	-3.0354	-2.3292	-2.7542	219.458	288.304	51.778	170.896	113.431	285.131	205.583	273.579	115.814	97.927	271.306	315.031	261.728	199.040	321.241	153.517	0.00012902	0.00023251	0.00011486	1045.4	2.8689e-06	3.3819e-06	1141.2	212.49	6.3455e-07	2.6655e-06	271.23	77.609	60.463	17.792	2.7691e-06	25.13	0.00026789	0.00033937	8.704e-05	1027.5	3.7053e-06	3.4167e-06	1124.1	210.99	3.3264e-06	3.5141e-06	268.22	77.731	60.649	18.005	3.3691e-06	25.332	222.703	45.488	75.080	-22.416	166.099	137.754	-22.172	-14.522	199.929	99.296	-15.228	-8.375	-7.371	-0.639	140.726	-0.912	-8191	255	
38487.176	1	1	0	0	0.089069	0.18103	0.065178	0.027535	0.036026	0.20786	0.40152	0.29664	0.062702	0.075534	0.20434	0.16902	0.090363	0.085238	0.11344	0.088529	-2.7875	-2.2646	-2.8833	-2.8625	-2.2062	-3	-2.6417	-2.6437	-3.1562	-2.4062	-2.9354	-2.8083	-2.3896	-3.0146	-2.4396	-2.2896	150.952	83.424	302.393	184.595	209.748	114.811	192.209	-8.684	305.174	205.699	226.097	262.821	49.121	238.888	-1.733	115.236	0.00013988	0.00024646	8.5877e-05	1046.1	3.863e-06	3.6533e-06	1139.7	211.71	3.4144e-06	2.4987e-06	266.55	76.752	60.417	17.886	3.296e-06	24.896	0.00026621	0.0003383	9.0028e-05	1028.1	3.8009e-06	3.4541e-06	1123.6	210.74	3.2511e-06	3.5404e-06	267.29	77.62	60.716	18.072	3.5252e-06	25.291	233.772	51.694	56.447	-22.295	159.990	97.006	-22.462	-14.241	164.123	92.326	-15.258	-8.254	-7.171	-1.069	165.359	-1.163	-8191	255	
38487.270	1	1	0	0	0.065343	0.070972	0.094967	0.34582	0.15957	0.19546	0.17291	0.16688	0.13124	0.096175	0.22259	0.044361	0.064969	0.091972	0.15277	0.2835	-2.7104	-2.5604	-2.9396	-3.0167	-2.2021	-3.2604	-3.0021	-2.4354	-3.2021	-2.4208	-2.7104	-3.0729	-2.3667	-3.0396	-2.7604	-2.4188	103.064	222.957	173.711	303.294	8.945	249.159	196.049	308.581	195.302	-8.326	-0.643	196.374	-4.332	64.972	21.899	278.561	0.00014132	0.00026978	6.772e-05	1043.6	3.7433e-06	2.3075e-06	1140.2	211.64	1.8593e-06	1.9032e-06	269.67	76.847	60.746	17.838	2.9441e-06	25.119	0.00025806	0.00031915	9.0915e-05	1027.8	3.7976e-06	3.4477e-06	1125.3	210.54	3.1751e-06	3.5417e-06	268.36	77.676	60.775	17.97	3.4124e-06	25.371	235.425	60.404	55.928	-22.427	145.100	116.294	-22.397	-14.492	169.142	122.615	-15.470	-7.853	-7.370	-0.673	151.673	-1.606	-8191	255	
38487.367	1	1	0	0	0.1147	0.28767	0.10381	0.032829	0.15658	0.17907	0.146	0.089834	0.030325	0.16555	0.06823	0.10339	0.057282	0.086512	0.12327	0.058209	-2.8604	-2.4896	-2.7021	-3.2354	-2.175	-2.8625	-3.0042	-2.35	-3.1813	-2.5021	-2.7042	-3.0438	-2.2438	-2.9917	-2.7604	-2.3667	180.562	18.672	47.911	213.738	241.461	15.791	252.537	85.956	58.314	269.296	-21.212	249.355	48.288	318.973	40.030	35.183	0.00014111	0.00039078	9.4809e-05	1046.2	3.3897e-06	1.9518e-06	1147.9	212.03	2.2886e-06	3.9121e-06	269.3	77.021	60.188	17.826	2.9829e-06	25.129	0.00026101	0.00033066	9.0277e-05	1028.4	3.8651e-06	3.5756e-06	1124.6	210.81	3.385e-06	3.4291e-06	267.69	77.667	60.581	18.03	3.3876e-06	25.375	232.709	63.977	61.452	-22.433	167.798	139.681	-22.512	-14.680	188.249	124.882	-15.060	-7.770	-7.393	-0.379	160.861	-1.087	-8191	255	
38487.488	1	1	0	0	0.046533	0.045772	0.087726	0.12052	0.0063831	0.22027	0.1043	0.15871	0.16972	0.34582	0.26663	0.19151	0.19763	0.063917	0.12055	0.1969	-2.6625	-2.7229	-2.6396	-3.3312	-2.2938	-3.0375	-3.0812	-2.1958	-3.1479	-2.5812	-2.5667	-3.1	-2.3063	-2.8646	-3.0104	-2.2833	260.752	287.213	308.131	246.052	186.197	-24.394	162.154	254.760	152.476	134.126	289.157	10.189	9.306	220.326	67.529	295.052	0.00014476	0.00023106	6.4048e-05	1047.3	3.7131e-06	2.2939e-06	1139.2	211.27	2.49e-06	3.2663e-06	271.12	77.26	60.75	17.864	1.4816e-06	24.992	0.00025697	0.00032987	8.6868e-05	1027.9	3.7604e-06	3.4136e-06	1122.3	210.78	3.4132e-06	3.5335e-06	268.34	77.579	60.778	18.041	3.4026e-06	25.332	226.088	55.094	64.866	-22.501	145.513	125.839	-22.277	-14.457	170.613	133.408	-15.035	-8.112	-7.268	-0.189	137.313	-0.826	-8191	255	
38487.586	1	1	0	0	0.11998	0.062664	0.17265	0.13903	0.15265	0.097563	0.20782	0.33307	0.18771	0.15289	0.17559	0.09576	0.062646	0.061588	0.060182	0.33162	-2.7208	-2.75	-2.5708	-3.275	-2.1646	-2.9062	-3.2417	-2.35	-3.0792	-2.6083	-2.3021	-3.2208	-2.5229	-2.7771	-3.0479	-2.3229	18.524	224.496	92.271	228.629	-23.573	169.458	210.046	275.730	221.008	319.311	15.738	264.601	176.677	233.793	24.207	-22.126	0.00013374	0.00032934	6.3095e-05	1041.1	2.7705e-06	2.0008e-06	1140.1	211.37	2.5675e-06	3.1996e-06	269.83	77.037	60.465	17.722	5.1908e-06	25.118	0.00026689	0.00032111	8.8502e-05	1026.9	3.6395e-06	3.6161e-06	1122.7	210.84	3.2538e-06	3.4366e-06	268.13	77.679	60.7	17.998	3.6461e-06	25.244	230.957	58.618	42.807	-22.352	136.229	128.957	-22.243	-14.515	136.605	123.519	-15.045	-7.938	-7.444	-0.996	152.326	-1.801	-8191	255	
38487.680	1	1	0	0	0.084581	0.12934	0.084644	0.15637	0.062608	0.20115	0.15249	0.22993	0.30549	0.33342	0.1748	0.10183	0.23602	0.081182	0.17104	0.076187	-2.7271	-2.6854	-2.3729	-3.2438	-2.5312	-2.65	-3.3063	-2.4479	-3.0375	-2.6875	-2.3625	-3.2667	-2.4958	-2.6312	-3.1479	-2.3646	180.703	152.147	142.105	181.205	166.059	138.451	226.060	71.705	128.445	296.055	-0.913	234.430	68.885	21.181	318.123	286.425	0.00014514	0.00025495	4.7558e-05	1038	2.7052e-06	2.6844e-06	1139.6	211.91	1.3746e-06	2.706e-06	269.59	77.366	60.761	17.755	3.1997e-06	25.025	0.00026061	0.00030073	9.2735e-05	1025.8	3.6238e-06	3.3977e-06	1122.5	211.03	3.4615e-06	3.2257e-06	267.74	77.646	60.709	18.035	3.2332e-06	25.298	239.119	52.596	54.060	-22.552	147.394	138.751	-22.277	-14.861	177.328	88.707	-15.268	-7.824	-7.895	-0.632	142.016	-1.616	-8191	255	
38487.777	1	1	0	0	0.12904	0.11636	0.21459	0.13737	0.11505	0.12237	0.40237	0.11242	0.19661	0.11161	0.30624	0.25716	0.21165	0.073678	0.23814	0.056139	-2.6146	-2.8896	-2.1917	-3.2292	-2.6375	-2.4896	-3.3063	-2.4625	-2.7104	-2.9271	-2.4167	-3.175	-2.7542	-2.4375	-3.1958	-2.5146	139.383	14.060	-6.760	40.100	-5.381	23.288	268.353	309.958	24.799	33.843	314.850	227.417	27.600	130.694	234.148	96.266	0.00014441	0.00026148	5.2194e-05	1041.2	3.5593e-06	3.17e-06	1138	211.67	2.1602e-06	1.7272e-06	268.68	77.904	60.588	17.711	3.0891e-06	25.015	0.00025803	0.00031803	9.121e-05	1025.9	3.7102e-06	3.6104e-06	1121.4	210.74	3.308e-06	3.247e-06	267.74	77.802	60.832	18.016	3.0898e-06	25.312	239.698	60.708	78.299	-22.406	144.053	110.423	-21.977	-14.722	158.288	121.344	-15.396	-7.688	-7.349	-0.679	142.854	-1.327	-8191	255	
38487.871	1	1	0	0	0.17664	0.11939	0.11959	0.06577	0.19607	0.20624	0.086424	0.078788	0.066203	0.10224	0.26594	0.035922	0.074434	0.11441	0.14637	0.10404	-2.3333	-2.9313	-2.0687	-3.1729	-2.8042	-2.4583	-3.3521	-2.5542	-2.625	-3.2542	-2.2729	-3.1771	-2.7625	-2.3146	-3.3146	-2.3875	157.511	295.820	17.255	306.939	243.271	44.172	254.793	306.088	5.234	35.634	-16.129	-15.932	195.019	-29.419	12.422	-12.593	0.00013029	0.00026405	7.1932e-05	1041.4	3.0986e-06	3.0563e-06	1139.5	212.24	2.6631e-06	2.2834e-06	268.12	77.069	60.206	17.792	4.0815e-06	25.011	0.00027455	0.00028382	8.8783e-05	1027.7	3.6168e-06	3.5142e-06	1124.9	210.72	3.5152e-06	3.1419e-06	267.71	77.739	60.561	17.965	3.3269e-06	25.334	231.512	65.398	62.459	-22.461	144.823	112.240	-22.167	-14.466	170.133	111.826	-15.328	-7.776	-7.656	-0.733	109.775	-1.847	-8191	255	
38487.969	1	1	0	0	0.15735	0.08682	0.38421	0.21711	0.073424	0.37525	0.20591	0.17308	0.11006	0.073307	0.0999	0.017454	0.17357	0.11835	0.14461	0.18566	-2.0917	-2.9229	-2.2583	-3.0667	-2.725	-2.3	-3.4188	-2.525	-2.55	-3.05	-2.3354	-2.8146	-3.1	-2.3042	-3.0125	-2.7458	18.946	278.532	18.170	-31.589	18.278	-8.727	230.511	283.340	296.818	192.271	237.118	276.983	319.494	-6.320	52.346	164.152	0.0001528	0.00026127	7.7771e-05	1042.5	1.3177e-06	1.8351e-06	1139.5	211.92	1.66e-06	2.2449e-06	269.93	77.486	60.342	17.901	3.8065e-06	25.128	0.00027141	0.00032072	8.9887e-05	1026.7	3.5331e-06	3.5269e-06	1122.1	210.69	3.5206e-06	3.11e-06	268.02	77.775	60.707	18.055	3.2604e-06	25.356	248.901	68.829	77.830	-22.439	146.155	127.692	-22.303	-14.370	173.623	122.422	-15.170	-8.187	-7.604	-0.353	148.213	-1.216	-8191	255	
38488.062	1	1	0	0	0.15215	0.039537	0.12518	0.10853	0.31853	0.17564	0.17059	0.10197	0.12977	0.20275	0.15447	0.25817	0.041815	0.13831	0.09899	0.058454	-1.9458	-3.2917	-2.2771	-3.0958	-3.0479	-2.3625	-3.3042	-2.6437	-2.3979	-3.2583	-2.5375	-2.8646	-2.9771	-2.1875	-3.0792	-2.6104	321.259	-20.627	137.761	39.428	315.086	77.417	227.513	287.052	79.861	100.027	193.112	230.313	176.361	295.613	163.499	226.974	0.00014177	0.00032173	0.00010387	1042.5	1.7394e-06	2.4638e-06	1134.6	212.23	1.3757e-06	2.878e-06	270.13	77.064	60.388	17.727	2.8793e-06	24.83	0.00028217	0.00030427	9.3171e-05	1027	3.4948e-06	3.48e-06	1122.3	210.52	3.5824e-06	3.1381e-06	267.89	77.642	60.73	17.994	3.2661e-06	25.229	237.575	66.559	72.550	-22.278	122.779	119.163	-22.108	-14.771	179.255	134.710	-15.129	-7.622	-7.594	-0.356	137.597	-1.795	-8191	255	
38488.184	1	1	0	0	0.15104	0.21284	0.32598	0.1942	0.19086	0.04033	0.37956	0.27316	0.18822	0.10637	0.076253	0.22666	0.24736	0.18091	0.16639	0.27566	-2.0083	-3.1792	-2.4917	-2.7292	-2.8333	-2.3417	-3.1208	-2.7646	-2.3646	-3.2188	-2.5521	-2.5479	-3.1063	-2.1125	-2.9375	-3.0333	-18.685	-19.352	115.490	15.151	12.740	227.557	214.673	309.036	119.229	308.329	249.428	258.576	93.363	34.183	16.433	268.562	0.00015794	0.00018278	6.1578e-05	1039.7	4.1213e-06	2.8094e-06	1143.9	211.54	1.9889e-06	4.3608e-06	269.94	77.119	60.812	17.627	3.0397e-06	24.933	0.00027013	0.00030387	9.0479e-05	1027.5	3.5385e-06	3.7858e-06	1123.1	210.53	3.3856e-06	3.3165e-06	268.06	77.55	60.915	17.96	3.4009e-06	25.309	245.370	50.643	68.419	-22.397	147.532	106.504	-22.208	-14.577	149.521	119.050	-15.411	-7.525	-7.564	-0.493	152.668	-1.628	-8191	255	
38488.281	1	1	0	0	0.067186	0.049684	0.033889	0.072597	0.26708	0.15627	0.17099	0.087865	0.25896	0.17243	0.23453	0.24442	0.036654	0.43372	0.053528	0.12891	-1.8125	-3.1562	-2.4854	-2.5854	-3.3	-2.3604	-3.1188	-2.9208	-2.2271	-3.0396	-2.6937	-2.4417	-3.2708	-2.4188	-2.8292	-3.0042	15.562	123.237	120.171	196.673	248.394	152.673	87.105	269.746	172.790	162.314	176.363	304.693	278.051	307.200	-1.110	225.780	0.00016217	0.00031605	5.2424e-05	1043	3.5129e-06	2.0049e-06	1141.1	212.09	3.3292e-06	1.8921e-06	267.93	77.496	60.54	17.863	2.2956e-06	25.161	0.00027757	0.00030275	8.567e-05	1027	3.3064e-06	3.6199e-06	1123.7	210.6	3.4978e-06	3.399e-06	267.4	77.699	60.728	18.046	3.2627e-06	25.377	228.174	41.823	73.144	-22.360	183.022	124.870	-22.117	-14.753	149.141	114.877	-15.019	-8.283	-7.355	-0.635	146.153	-1.484	-8191	255	
38488.352	1	1	0	0	0.076192	0.21839	0.30497	0.32147	0.13441	0.092724	0.23243	0.2125	0.30604	0.19949	0.22033	0.094057	0.066766	0.11116	0.2261	0.095544	-2	-3.1167	-2.6875	-2.7292	-3.1771	-2.4417	-3.15	-3.1917	-2.25	-3.1375	-2.8917	-2.5229	-3.1083	-2.4729	-2.8063	-3.0104	243.429	314.308	90.402	-28.492	223.042	143.355	290.694	326.888	135.874	247.527	72.712	67.308	228.744	84.384	118.987	71.625	0.00015044	0.00029621	0.00011626	1043.8	3.8946e-06	2.6809e-06	1142.6	211.45	1.3182e-06	2.5846e-06	268.84	77.5	60.307	17.656	2.6666e-06	24.888	0.0002663	0.00031342	8.704e-05	1027.6	3.484e-06	3.4971e-06	1123.7	210.65	3.6323e-06	3.4065e-06	267.15	77.835	60.567	17.945	3.3141e-06	25.293	234.708	36.059	47.878	-22.166	164.532	163.983	-22.041	-14.497	145.508	110.794	-15.333	-7.633	-7.704	-0.798	121.985	-1.125	-8191	255	
38488.473	1	1	0	0	0.28605	0.10046	0.075031	0.22135	0.1281	0.1775	0.26543	0.26136	0.18753	0.10767	0.1517	0.17591	0.14136	0.13224	0.053281	0.066945	-1.9583	-3.3021	-2.7646	-2.5	-2.9979	-2.4958	-2.8979	-3.3438	-2.3208	-3.2208	-2.8937	-2.2958	-3.3375	-2.5354	-2.6292	-3.2667	114.909	23.817	214.561	285.639	78.403	-9.085	223.245	2.472	293.421	135.827	7.318	302.212	262.310	247.017	237.011	146.746	0.00013867	0.0002451	5.6483e-05	1042.3	2.8888e-06	3.1225e-06	1139	211.99	3.3898e-06	2.0284e-06	268.77	77.155	60.479	17.842	2.943e-06	25.153	0.00028348	0.0003064	8.9825e-05	1025.6	3.4235e-06	3.6636e-06	1124.2	210.92	3.6269e-06	3.3021e-06	267.45	77.404	60.784	18.036	3.4281e-06	25.33	229.691	63.490	106.705	-22.139	172.635	100.122	-22.005	-14.584	188.732	133.394	-14.959	-7.485	-7.234	-0.671	112.299	-0.920	-8191	255	
38488.566	1	1	0	0	0.081571	0.063365	0.066853	0.23837	0.11091	0.17343	0.17745	0.16172	0.061525	0.12813	0.24386	0.085302	0.12789	0.12759	0.094922	0.297	-2.0292	-3.0625	-2.8333	-2.5625	-3.1708	-2.4479	-2.6937	-3.0458	-2.2562	-2.7896	-3.0167	-2.4396	-3.1875	-2.7396	-2.3771	-3.2542	102.826	-27.943	154.770	-30.636	43.835	143.543	271.425	74.944	203.497	8.470	4.833	96.655	17.056	140.394	273.528	66.838	0.00016721	0.00019574	5.1126e-05	1041.4	2.6754e-06	2.7758e-06	1144.2	210.46	1.7155e-06	2.532e-06	269.18	77.259	60.863	17.936	2.449e-06	25.084	0.00028653	0.00032089	8.7989e-05	1027.3	3.6492e-06	3.7048e-06	1125.7	210.42	3.6269e-06	3.6274e-06	268.11	77.884	60.999	18.065	3.5582e-06	25.339	226.292	36.255	44.823	-22.147	143.513	145.398	-22.171	-14.265	205.417	135.510	-15.225	-7.363	-7.727	-0.544	146.814	-1.473	-8191	255	
38488.664	1	1	0	0	0.055121	0.19509	0.035627	0.25435	0.034427	0.20409	0.40226	0.41611	0.063111	0.17417	0.26733	0.20037	0.28033	0.21998	0.052219	0.23469	-2.2167	-2.8688	-2.9292	-2.5458	-3.1792	-2.5167	-2.7	-3.2542	-2.3312	-2.7625	-3.2125	-2.2625	-2.9938	-2.6417	-2.2604	-3.2146	17.732	11.245	234.946	280.274	322.166	194.564	272.226	259.833	139.302	165.107	261.520	235.866	282.262	44.488	-30.596	214.346	0.00014958	0.00032127	6.054e-05	1044	3.2399e-06	2.5042e-06	1150	211.88	1.7271e-06	2.4549e-06	271.56	77.987	60.497	18.027	3.3549e-06	25.014	0.00028706	0.00031258	9.2377e-05	1030.1	3.7663e-06	3.7231e-06	1131.6	210.88	3.6926e-06	3.6061e-06	268.76	77.986	61.022	18.179	3.786e-06	25.405	227.661	75.246	66.081	-22.290	151.524	146.032	-22.205	-14.490	163.431	103.678	-15.297	-7.908	-7.479	-0.511	134.637	-1.731	-8191	255	
38488.785	1	1	0	0	0.1489	0.20093	0.098892	0.19873	0.36286	0.10905	0.48138	0.15962	0.13479	0.28191	0.10207	0.028521	0.10305	0.25871	0.12202	0.1091	-1.8937	-2.6521	-3.0646	-2.5542	-2.9479	-2.7542	-2.5062	-3.0875	-2.4375	-2.4896	-3.2146	-2.1875	-2.9604	-2.8375	-2.225	-3.0271	111.980	50.290	137.305	29.099	139.807	-12.170	288.927	316.197	3.679	19.202	174.583	19.517	300.684	276.040	181.264	255.576	0.00014456	0.00027881	0.00010656	1043.7	1.5094e-06	2.3417e-06	1148.5	212.65	3.7506e-06	1.1583e-06	269.78	77.679	60.852	17.851	3.2261e-06	25.299	0.00028528	0.00033543	8.6433e-05	1032.5	3.5893e-06	3.3439e-06	1129.5	211.3	3.5635e-06	3.4384e-06	268.56	78.084	61.066	18.162	3.4489e-06	25.501	238.877	47.036	58.015	-22.181	162.534	102.329	-22.265	-14.401	185.462	119.593	-14.900	-7.617	-7.595	-0.627	156.668	-1.403	-8191	255	
38488.879	1	1	0	0	0.046842	0.27723	0.21615	0.18041	0.13662	0.16178	0.042293	0.12385	0.18048	0.2203	0.25416	0.23561	0.1531	0.087439	0.11767	0.11317	-2.2833	-2.425	-3.0271	-2.4271	-2.6958	-3.0708	-2.5458	-3.1604	-2.4979	-2.3812	-3.1937	-2.3563	-2.875	-2.8458	-2.2417	-3.1229	144.676	180.979	11.505	270.641	318.566	96.280	-18.777	-24.502	97.896	188.356	121.937	134.827	111.937	257.404	27.349	270.713	0.00011875	0.00033869	5.6692e-05	1048	1.9881e-06	2.7052e-06	1143.4	213.54	3.3021e-06	2.9011e-06	270.82	77.864	60.596	17.885	1.3039e-06	25.2	0.00028055	0.00031982	8.6121e-05	1032.7	3.6114e-06	3.28e-06	1128.7	211.79	3.4083e-06	3.775e-06	268.97	78.115	61.064	18.165	3.4801e-06	25.417	233.119	69.142	64.662	-22.252	159.495	118.853	-22.172	-14.482	149.120	122.375	-15.458	-7.578	-7.108	-0.321	171.833	-1.383	-8191	255	
38488.949	1	1	0	0	0.20787	0.079764	0.039581	0.13112	0.12874	0.11847	0.17737	0.11166	0.046856	0.19824	0.16786	0.12071	0.13256	0.22569	0.25601	0.20961	-2.3896	-2.55	-3.1292	-2.4229	-3.0208	-2.9104	-2.5458	-3.1813	-2.675	-2.5167	-3.2396	-2.25	-2.5542	-3.0187	-2.1896	-3.0625	20.621	25.381	84.364	306.657	298.976	62.900	286.568	308.154	27.634	251.939	259.488	268.929	-10.297	23.449	-26.037	15.136	0.00014134	0.00027457	7.5038e-05	1046.4	3.02e-06	2.1978e-06	1143.2	213.89	2.1703e-06	1.6669e-06	269.71	77.785	60.831	17.828	3.4945e-06	25.348	0.00027386	0.00031527	8.4363e-05	1030.9	3.6319e-06	3.4136e-06	1127.7	212.29	3.4067e-06	3.7219e-06	268.28	78.078	60.993	18.143	3.5888e-06	25.57	224.608	68.669	69.944	-22.348	203.414	135.987	-22.173	-14.543	165.607	99.759	-15.238	-7.994	-7.247	-0.591	135.575	-1.437	-8191	255	
38489.047	1	1	0	0	0.34207	0.15784	0.25464	0.28158	0.38326	0.36361	0.29329	0.18814	0.092092	0.31602	0.36295	0.16952	0.061146	0.025271	0.059578	0.039975	-2.4125	-2.2729	-3.0292	-2.5833	-2.7562	-3.0708	-2.4146	-3.0479	-2.8417	-2.4146	-3.1354	-2.7083	-2.6125	-3.1625	-2.2521	-2.9958	43.154	156.490	-7.488	-4.186	278.663	302.688	312.694	115.001	293.625	134.068	-19.209	241.278	72.265	31.478	291.803	210.854	0.00014099	0.00024499	6.7105e-05	1046.2	3.4388e-06	2.5671e-06	1142	212.78	1.2146e-06	2.4355e-06	270.07	77.915	60.915	17.962	2.0141e-06	25.377	0.00026988	0.00031853	9.0401e-05	1031.7	3.6519e-06	3.5136e-06	1126.6	211.49	3.3704e-06	3.5986e-06	269.35	78.049	61.079	18.203	3.4963e-06	25.549	237.045	73.558	63.966	-22.275	177.240	111.322	-22.356	-14.301	204.369	132.183	-14.776	-7.447	-7.674	-0.657	182.457	-1.201	-8191	255	
38489.145	1	1	0	0	0.22032	0.29273	0.10456	0.14205	0.16149	0.1855	0.21627	0.17479	0.1042	0.122	0.1804	0.22406	0.10823	0.068523	0.1321	0.16483	-2.4729	-2.2208	-3.025	-2.6021	-2.5833	-3.0396	-2.5167	-2.9188	-3.1063	-2.2771	-3.0667	-2.6271	-2.4479	-3.1	-2.3646	-2.6958	63.566	-18.276	-26.834	208.192	294.784	41.071	290.771	-29.471	8.769	-10.711	268.955	7.780	293.692	207.207	107.359	276.067	0.00012127	0.00039823	9.6907e-05	1045.1	4.2377e-06	4.3609e-06	1144	211.93	2.32e-06	2.4304e-06	269.99	77.637	60.755	17.963	2.9788e-06	25.225	0.00026282	0.00032504	8.4114e-05	1031.3	3.7528e-06	3.3306e-06	1127.5	211.15	3.3411e-06	3.6649e-06	268.6	77.848	61.02	18.162	3.6403e-06	25.479	241.871	65.160	68.320	-22.349	142.295	112.142	-22.078	-14.342	173.570	116.946	-14.970	-7.792	-7.004	-0.531	131.969	-1.386	-8191	255	
38489.266	1	1	0	0	0.11816	0.14755	0.2357	0.39128	0.20229	0.13666	0.1279	0.17566	0.087564	0.1772	0.07546	0.14037	0.10781	0.091313	0.2102	0.083861	-2.6083	-2.0229	-2.9062	-2.8979	-2.4708	-3.0875	-2.4583	-2.675	-3.1104	-2.3396	-3.025	-2.7	-2.4479	-3.1958	-2.3729	-2.6458	36.991	46.946	283.566	-5.943	170.879	237.837	40.452	325.732	218.682	75.052	144.336	293.584	230.042	251.117	326.484	94.377	0.00012983	0.00029788	8.5635e-05	1048.7	2.6315e-06	2.203e-06	1149.9	211.65	2.7604e-06	1.7428e-06	270.02	77.211	61.078	17.828	2.6419e-06	25.305	0.00026347	0.00034358	9.2455e-05	1032.9	3.6778e-06	3.0654e-06	1128.9	211.42	3.3053e-06	3.5623e-06	269.26	77.989	61.09	18.12	3.4171e-06	25.498	243.482	68.760	68.890	-22.322	192.005	140.929	-22.114	-14.462	150.158	116.383	-14.993	-7.502	-7.239	-0.600	129.171	-1.388	-8191	255	
38489.359	1	1	0	0	0.19763	0.20062	0.12198	0.19766	0.087321	0.2119	0.17757	0.19428	0.32664	0.12161	0.20503	0.13541	0.24457	0.041516	0.15964	0.24136	-2.8792	-2.1188	-2.8937	-2.9125	-2.4521	-3.2604	-2.7771	-2.5521	-3.0958	-2.2646	-3.0771	-2.9271	-2.4271	-3.3271	-2.5521	-2.6271	204.677	157.789	296.403	206.749	138.109	38.141	235.487	148.916	107.951	276.755	260.222	317.596	138.844	324.065	259.605	298.347	0.00015614	0.00028978	0.00010887	1043.8	3.0312e-06	2.4577e-06	1148.1	211.63	1.2917e-06	1.9901e-06	269.42	77.601	60.876	18.027	4.0149e-06	25.004	0.00026836	0.00034442	8.2169e-05	1030.7	3.7393e-06	3.5022e-06	1130.2	210.98	3.3595e-06	3.4172e-06	268.95	78.023	61.086	18.19	3.3847e-06	25.5	236.414	86.558	60.191	-22.088	141.288	94.906	-21.963	-14.177	203.336	130.110	-15.027	-7.846	-7.612	-0.578	138.060	-0.816	-8191	255	
38489.457	1	1	0	0	0.25315	0.080685	0.076876	0.098724	0.11172	0.20018	0.22915	0.16062	0.13864	0.14711	0.34397	0.22393	0.30344	0.16806	0.25499	0.16805	-2.7854	-2.2833	-2.8937	-3.1375	-2.3625	-3.0646	-2.6979	-2.4854	-3.1354	-2.4625	-2.8688	-3.025	-2.0062	-3.1646	-2.6875	-2.5521	-24.821	116.702	298.035	36.407	60.434	240.754	202.993	220.561	58.283	204.160	-6.246	114.258	256.659	320.324	41.624	108.994	0.00012847	0.00028629	8.0005e-05	1046.8	3.4788e-06	2.9221e-06	1142.6	212.82	1.8228e-06	2.944e-06	271.91	77.543	60.513	17.94	2.7085e-06	25.277	0.00027125	0.00032926	8.3849e-05	1031	3.742e-06	3.5883e-06	1127.8	211.62	3.3617e-06	3.3571e-06	269.16	77.908	60.878	18.155	3.4153e-06	25.526	235.943	52.361	52.577	-22.342	142.756	113.859	-22.374	-14.566	177.585	114.253	-15.137	-7.831	-7.280	-0.705	134.482	-1.329	-8191	255	
38489.578	1	1	0	0	0.13237	0.13869	0.083543	0.07373	0.18444	0.062538	0.2196	0.13188	0.14536	0.11572	0.23163	0.051659	0.065487	0.13424	0.097106	0.25463	-2.6729	-2.3812	-2.6917	-3.2333	-2.3063	-3.2708	-2.9646	-2.425	-3.1937	-2.6542	-2.4896	-3.1688	-2.175	-2.9083	-2.8812	-2.3979	217.278	-29.237	287.033	-19.763	240.526	-17.108	45.655	216.988	261.160	175.198	250.529	22.241	29.666	-9.507	100.233	11.677	0.0001485	0.00027333	4.2073e-05	1048.6	4.1962e-06	2.8714e-06	1146.5	212.25	1.9255e-06	2.1628e-06	270.72	77.565	60.857	17.905	3.4941e-06	25.223	0.00026901	0.00032881	8.774e-05	1031.7	3.8198e-06	3.3028e-06	1127.1	211.57	3.3438e-06	3.6424e-06	268.88	77.888	61.07	18.155	3.3824e-06	25.491	233.775	65.237	60.902	-22.670	149.140	142.405	-22.428	-14.696	172.924	126.657	-15.354	-8.275	-7.848	-0.950	109.673	-1.746	-8191	255	
38489.648	1	1	0	0	0.1746	0.066253	0.10164	0.1694	0.20596	0.1405	0.13758	0.21537	0.24435	0.22882	0.1982	0.028808	0.069955	0.11788	0.14123	0.046864	-3.0292	-2.5646	-2.5146	-3.3333	-2.3563	-2.9333	-3.0604	-2.4604	-3.2979	-2.5438	-2.5333	-3.1167	-2.3771	-2.9188	-2.9958	-2.3042	178.873	125.116	-21.845	-17.163	103.170	256.663	317.460	230.691	92.858	227.879	281.336	11.776	-31.643	293.128	244.280	248.508	0.0001582	0.00029449	8.0474e-05	1048	2.3771e-06	2.6176e-06	1147.1	211.36	2.2135e-06	1.9442e-06	269.58	77.069	60.57	18.052	3.4225e-06	25.112	0.00025983	0.00034397	9.1553e-05	1032.6	3.6897e-06	3.2888e-06	1127.4	211.39	3.3286e-06	3.5511e-06	268.64	77.744	60.867	18.185	3.2945e-06	25.51	234.868	60.557	59.964	-22.648	173.392	108.496	-22.574	-14.745	185.507	128.635	-15.290	-8.147	-7.454	-0.866	153.593	-1.745	-8191	255	
38489.746	1	1	0	0	0.10833	0.10184	0.20208	0.17877	0.12775	0.17695	0.090943	0.1143	0.24648	0.091688	0.18848	0.039143	0.22589	0.19864	0.055676	0.1892	-2.7875	-2.6063	-2.4208	-3.2292	-2.3104	-2.975	-3.2438	-2.1625	-3.1167	-2.7167	-2.4708	-3.1771	-2.3542	-2.7375	-3.0146	-2.3083	157.619	55.678	130.154	221.563	258.099	145.812	186.936	243.232	255.839	152.982	324.519	200.881	236.309	-24.885	152.960	63.787	0.00015309	0.00035033	6.7645e-05	1049.5	2.1676e-06	2.9422e-06	1146.6	211.83	2.9461e-06	2.7193e-06	268.86	77.418	60.736	17.965	4.4664e-06	25.196	0.00027016	0.00031426	9.1584e-05	1032.3	3.7825e-06	3.506e-06	1128	211.34	3.3389e-06	3.5329e-06	268.83	78.106	60.937	18.18	3.3361e-06	25.54	237.856	35.865	64.315	-22.601	146.915	126.907	-22.610	-14.756	166.599	115.869	-15.221	-8.194	-7.538	-0.085	147.296	-1.246	-8191	255	
38489.867	1	1	0	0	0.10477	0.10559	0.2253	0.26417	0.1222	0.11142	0.31475	0.274	0.10717	0.0060814	0.11519	0.099328	0.13512	0.17573	0.061582	0.20319	-2.6937	-2.7167	-2.4354	-3.3312	-2.3812	-2.6417	-3.3042	-2.3604	-2.9667	-2.8312	-2.4042	-3.2625	-2.4396	-2.4583	-3.2729	-2.4083	227.491	325.806	176.152	323.660	289.911	170.986	218.297	76.872	324.310	93.068	176.269	144.402	252.560	266.377	303.101	258.337	0.00014201	0.00027711	8.4563e-05	1047.6	1.432e-06	3.3968e-06	1143.1	212.28	1.5918e-06	2.2131e-06	269.23	77.295	61.06	17.894	3.817e-06	25.24	0.00027203	0.00031101	8.7942e-05	1032.4	3.7356e-06	3.4984e-06	1128.2	211.3	3.3004e-06	3.2983e-06	268.88	77.735	61.002	18.188	3.2187e-06	25.481	243.153	49.241	40.502	-22.650	204.883	133.098	-22.438	-14.966	216.261	133.364	-15.240	-8.185	-8.010	-0.850	149.592	-1.960	-8191	255	
38489.961	1	1	0	0	0.39728	0.35928	0.31744	0.22664	0.021425	0.13136	0.33023	0.029194	0.26079	0.12591	0.14797	0.1912	0.059391	0.049643	0.20503	0.25212	-2.5771	-2.8792	-2.2542	-3.4208	-2.6063	-2.6979	-3.1375	-2.3167	-2.9979	-2.6792	-2.3646	-3.2042	-2.6458	-2.6021	-3.15	-2.3229	21.108	116.703	27.068	294.023	121.193	261.319	288.744	244.688	61.384	221.587	220.010	273.799	273.344	112.493	95.909	8.490	0.00012945	0.00029075	9.0401e-05	1044.3	4.3476e-06	2.2113e-06	1143.5	212.48	2.6114e-06	2.5173e-06	269.97	78.03	60.632	18.051	5.9267e-06	25.121	0.00026207	0.00031544	9.1708e-05	1031.7	3.7442e-06	3.6206e-06	1126.7	211.19	3.59e-06	3.5285e-06	268.77	78.137	60.947	18.224	3.3905e-06	25.479	229.770	78.567	54.341	-22.506	140.959	140.567	-22.278	-14.943	198.761	125.955	-15.430	-8.085	-7.545	-1.071	150.609	-1.338	-8191	255	
38490.055	1	1	0	0	0.054209	0.18015	0.13674	0.19674	0.32866	0.1285	0.10623	0.12584	0.10776	0.21857	0.2511	0.28062	0.13315	0.16218	0.17473	0.088956	-2.4375	-2.8125	-2.1167	-3.2292	-2.5896	-2.3375	-3.3333	-2.3854	-2.8271	-3.2417	-2.3958	-3.1021	-2.9375	-2.4292	-3.1583	-2.5458	126.566	75.546	303.636	285.199	55.534	224.587	277.047	305.265	4.223	37.162	-8.556	224.827	80.744	275.271	75.417	235.294	0.00015031	0.00039616	8.4084e-05	1047.9	2.8221e-06	9.3236e-07	1143.6	212.01	3.0918e-06	3.3318e-06	271.58	77.606	61.022	18.017	2.895e-06	25.18	0.00027856	0.00031718	8.8923e-05	1031.3	3.6357e-06	3.6586e-06	1127.9	210.96	3.3525e-06	3.2777e-06	269.07	78.011	61.056	18.186	3.3263e-06	25.493	230.164	65.118	60.351	-22.353	133.222	123.202	-22.661	-15.078	176.620	107.731	-15.214	-8.101	-7.542	-0.626	143.861	-1.904	-8191	255	
38490.176	1	1	0	0	0.13865	0.29214	0.21845	0.52513	0.12328	0.18067	0.29072	0.090861	0.056939	0.098841	0.044899	0.23234	0.25739	0.14013	0.05999	0.044837	-2.3708	-2.8854	-2.2146	-3.1562	-2.9333	-2.3458	-3.4313	-2.4062	-2.6917	-3.1854	-2.3083	-3.0479	-3.0167	-2.5771	-2.9729	-2.4229	245.725	310.429	79.856	269.428	185.133	22.217	324.396	117.836	318.822	0.390	292.632	214.876	277.808	9.381	-26.470	65.967	0.00014028	0.00024605	6.5518e-05	1049.9	2.3493e-06	2.8682e-06	1146.4	212.86	1.3009e-06	2.3342e-06	271.36	77.259	60.983	17.829	3.9901e-06	25.204	0.00027032	0.00030651	9.065e-05	1032.4	3.6654e-06	3.7845e-06	1128.2	211.52	3.5081e-06	3.404e-06	268.63	77.973	61.056	18.131	3.2216e-06	25.493	245.033	52.473	73.830	-22.468	163.127	112.166	-22.256	-15.153	154.969	94.485	-15.238	-8.396	-7.376	-0.792	163.151	-1.567	-8191	255	
38490.246	1	1	0	0	0.19276	0.070421	0.099718	0.32451	0.085249	0.12501	0.19442	0.11732	0.038399	0.17289	0.20862	0.085269	0.12495	0.12282	0.07077	0.24033	-2.0917	-3.225	-2.2771	-3.0125	-3.0521	-2.3375	-3.4437	-2.6917	-2.475	-3.1875	-2.3521	-2.7875	-2.8563	-2.2854	-3.125	-2.6437	181.349	312.787	95.752	257.204	187.220	78.736	214.928	212.779	68.904	145.950	226.626	291.690	13.966	297.477	15.987	186.943	0.00014141	0.00041653	0.00010181	1043.2	3.6493e-06	3.5709e-06	1144.1	212.35	2.1504e-06	3.2263e-06	270.1	77.87	60.315	17.982	3.0669e-06	25.135	0.0002678	0.00031729	9.1739e-05	1031.2	3.5245e-06	3.9333e-06	1127.4	211.29	3.244e-06	3.3978e-06	268.45	77.946	60.791	18.211	3.354e-06	25.505	231.076	44.071	45.999	-22.319	175.969	109.886	-22.157	-14.922	158.730	119.146	-15.393	-8.231	-7.678	-0.462	162.930	-1.758	-8191	255	
38490.344	1	1	0	0	0.24978	0.11315	0.068716	0.027356	0.090416	0.22457	0.096145	0.3453	0.041162	0.34189	0.16316	0.11387	0.28187	0.25569	0.086463	0.24812	-2.0563	-3.1521	-2.4292	-2.8708	-2.8875	-2.1104	-3.1896	-2.7917	-2.4667	-3.1937	-2.2687	-2.8063	-3.0292	-2.5792	-3.1458	-3.0146	119.948	317.181	145.014	108.531	62.129	140.649	298.935	28.795	155.001	265.056	290.756	308.441	264.263	295.427	166.678	201.894	0.00014237	0.00029584	8.8648e-05	1047.6	2.8e-06	2.8408e-06	1148	212.35	3.6384e-06	2.3198e-06	269.74	77.844	60.586	17.973	3.0622e-06	25.171	0.00026811	0.00029202	9.0806e-05	1030.1	3.3998e-06	3.5984e-06	1127.6	210.92	3.5537e-06	3.2157e-06	269.07	77.944	61.023	18.212	3.3454e-06	25.467	239.801	49.455	78.023	-22.497	182.088	120.069	-22.480	-14.898	166.423	121.607	-15.408	-8.059	-7.788	-0.546	101.609	-2.104	-8191	255	
38490.441	1	1	0	0	0.1589	0.051666	0.24788	0.080051	0.19679	0.19217	0.21726	0.17246	0.22501	0.095677	0.1222	0.16898	0.083097	0.21018	0.04437	0.12794	-1.9396	-3.2729	-2.3729	-2.8688	-3.0146	-2.3563	-3.1083	-2.6958	-2.3521	-3.3312	-2.6333	-2.7167	-3.0521	-2.4125	-2.9729	-2.9979	208.656	175.932	0.670	177.984	321.501	206.754	252.318	159.686	194.458	-21.193	10.349	321.242	47.286	217.256	320.103	210.372	0.00012453	0.00036808	8.155e-05	1048.3	3.4793e-06	1.8255e-06	1145.8	212.07	3.0746e-06	4.3369e-06	269.41	77.405	60.587	17.943	3.4018e-06	25.125	0.00028416	0.00032533	9.2517e-05	1031.5	3.5407e-06	3.4433e-06	1127.2	211.45	3.5401e-06	3.3627e-06	268.31	77.888	60.851	18.156	3.3072e-06	25.474	230.046	54.977	61.126	-22.575	136.885	111.201	-22.378	-14.571	166.844	120.341	-15.386	-8.038	-7.457	-0.870	147.855	-1.790	-8191	255	
38490.562	1	1	0	0	0.21851	0.039427	0.1637	0.39375	0.30119	0.098071	0.0837	0.14828	0.12538	0.091919	0.063477	0.097002	0.15384	0.24865	0.086345	0.037012	-2.0187	-3.2229	-2.525	-2.6792	-3.225	-2.3958	-2.9313	-3.05	-2.2833	-3.1312	-2.7438	-2.4542	-3.1188	-2.525	-2.8479	-2.9833	36.557	269.334	134.021	261.177	163.831	301.358	2.067	246.219	150.299	237.091	2.964	-27.501	204.027	307.382	241.363	150.264	0.00014744	0.00024816	9.2927e-05	1041	3.6656e-06	2.3937e-06	1139.8	212.03	2.381e-06	3.2453e-06	270.25	77.126	60.963	17.939	2.9603e-06	25.199	0.00027747	0.00030578	9.1786e-05	1029.9	3.3793e-06	3.4851e-06	1125.7	210.96	3.5862e-06	3.3828e-06	268.96	77.668	61.158	18.161	3.4986e-06	25.515	236.043	64.237	69.776	-22.555	172.698	132.039	-22.456	-14.647	172.902	110.958	-15.162	-7.728	-7.513	-0.962	119.052	-1.511	-8191	255	
38490.656	1	1	0	0	0.072205	0.17795	0.12802	0.13657	0.15604	0.09267	0.20316	0.36292	0.21801	0.26626	0.10561	0.14345	0.10765	0.064913	0.14988	0.058618	-1.7062	-3.0542	-2.7104	-2.3021	-3.0958	-2.3521	-2.8688	-3.1417	-2.1354	-3.0042	-2.7604	-2.3792	-3.0604	-2.3812	-2.5479	-3.125	96.983	78.810	178.789	248.884	142.472	154.487	-2.371	220.433	96.232	1.734	270.344	-15.130	259.992	62.183	20.944	295.136	0.00013751	0.00032107	6.0157e-05	1047.7	3.6902e-06	1.6373e-06	1141.7	211.35	1.1438e-06	2.355e-06	270.15	78.026	60.832	17.91	3.4949e-06	25.218	0.00027548	0.00030764	8.8051e-05	1029.2	3.504e-06	3.525e-06	1126.9	210.79	3.6155e-06	3.227e-06	268.83	77.983	60.99	18.168	3.3893e-06	25.467	233.759	60.162	66.493	-22.590	143.135	118.526	-22.446	-14.661	153.370	141.019	-15.469	-7.916	-7.703	-0.967	155.235	-1.974	-8191	255	
38490.754	1	1	0	0	0.17308	0.24605	0.12452	0.35181	0.083029	0.19058	0.28918	0.1259	0.028157	0.24804	0.21557	0.14986	0.18129	0.37739	0.027253	0.26312	-1.9312	-3.2333	-2.8208	-2.4354	-3.0042	-2.4396	-2.7729	-3.2708	-2.3688	-3.1083	-2.8937	-2.3083	-3.1708	-2.6771	-2.625	-3.0854	152.220	76.616	178.213	324.951	52.016	226.793	262.075	176.833	99.834	-1.937	279.582	165.784	227.027	102.997	-26.856	327.035	0.00013542	0.00033275	8.0573e-05	1043.8	3.3242e-06	3.9228e-06	1144.8	212.58	2.5041e-06	2.5809e-06	269.29	77.487	61.01	17.922	4.3962e-06	25.269	0.00028189	0.00030157	8.8736e-05	1030.1	3.6125e-06	3.744e-06	1127.3	211.41	3.5033e-06	3.4791e-06	267.89	77.851	60.94	18.156	3.4373e-06	25.479	234.767	43.215	74.338	-22.384	156.528	142.573	-22.527	-14.683	194.328	114.356	-15.517	-7.868	-7.302	-0.697	135.110	-1.618	-8191	255	
38490.848	1	1	0	0	0.1977	0.101	0.1022	0.11209	0.11241	0.12382	0.14794	0.20645	0.30431	0.1271	0.030572	0.25309	0.15596	0.21884	0.09582	0.17701	-1.8875	-2.9208	-2.9229	-2.3104	-3.0938	-2.6396	-2.7104	-3.1771	-2.275	-2.7729	-3.1583	-2.2292	-3.2021	-2.6021	-2.3104	-3.3708	163.867	257.663	132.440	268.208	63.768	101.699	198.450	249.469	251.100	188.015	-0.556	187.552	170.713	317.054	130.024	25.256	0.0001238	0.0003009	5.7622e-05	1040.9	2.2847e-06	2.7794e-06	1145.2	211.83	2.0899e-06	1.5765e-06	268.54	77.489	60.65	17.852	3.382e-06	25.457	0.0002705	0.00032156	8.9887e-05	1029.6	3.5256e-06	3.5997e-06	1126.7	210.95	3.5418e-06	3.3477e-06	268.18	78.045	61.066	18.171	3.3928e-06	25.526	234.688	49.335	58.010	-22.755	166.479	102.208	-22.141	-14.843	163.288	148.920	-15.336	-8.021	-7.661	-0.792	156.455	-1.797	-8191	255	
38490.945	1	1	0	0	0.070175	0.19485	0.058925	0.35527	0.20572	0.15789	0.36069	0.017717	0.17823	0.28177	0.074412	0.13561	0.046689	0.1579	0.099087	0.23719	-1.9646	-2.7375	-2.8833	-2.5021	-3.0625	-2.8583	-2.6458	-3.1729	-2.4021	-2.6792	-3	-2.3625	-2.9437	-2.6896	-2.4333	-3.2271	194.595	173.012	236.810	242.357	277.822	206.345	300.783	101.651	260.001	21.362	320.942	301.139	140.730	-26.820	85.552	282.785	0.00017768	0.0002242	9.7998e-05	1039.6	2.4132e-06	2.7092e-06	1136.6	212.35	2.9987e-06	2.9679e-06	270.15	77.765	60.709	17.863	2.3288e-06	25.125	0.00027722	0.00028736	8.6402e-05	1029.2	3.5504e-06	3.3711e-06	1125.3	211.37	3.5071e-06	3.3358e-06	268.34	78.096	60.927	18.133	3.5079e-06	25.511	247.053	57.231	58.514	-22.586	120.124	136.259	-22.244	-14.846	170.771	123.577	-15.167	-7.809	-7.316	-0.932	128.612	-1.110	-8191	255	
38491.039	1	1	0	0	0.26816	0.2722	0.27246	0.26059	0.18647	0.12077	0.12725	0.3168	0.079036	0.14814	0.15357	0.20063	0.21303	0.084179	0.15727	0.15377	-2.0896	-2.5938	-3.1688	-2.5771	-3.075	-3.0146	-2.4375	-3.1792	-2.6417	-2.7417	-3.3312	-2.4	-2.9771	-3.0021	-2.325	-3.3979	1.355	185.263	254.872	-18.122	215.486	180.399	306.270	43.371	52.982	61.246	70.342	296.082	131.657	311.145	83.578	53.330	0.0001449	0.00036847	8.6251e-05	1044.6	2.2446e-06	2.1908e-06	1143.2	210.43	3.2025e-06	3.3173e-06	269.64	77.64	61.124	18.009	3.5586e-06	25.453	0.00027377	0.00031409	8.1531e-05	1028.1	3.3993e-06	3.5041e-06	1126	210.56	3.4469e-06	3.339e-06	267.86	77.972	61.029	18.204	3.5397e-06	25.526	230.606	55.699	89.107	-22.699	170.365	127.744	-22.536	-14.883	171.527	128.281	-15.300	-7.925	-7.847	-0.589	134.637	-1.587	-8191	255	
38491.137	1	1	0	0	0.33342	0.20325	0.1219	0.14495	0.17035	0.23884	0.17285	0.28191	0.19301	0.040973	0.14596	0.14861	0.025915	0.10527	0.089687	0.18019	-2.1	-2.6354	-3.175	-2.6146	-2.7687	-3.0396	-2.4375	-3.3438	-2.6562	-2.2438	-3.2479	-2.3917	-2.7687	-3.1937	-2.3771	-3.1146	277.659	284.303	110.610	-15.391	161.562	111.125	245.563	317.236	143.286	210.840	260.879	50.727	311.196	2.537	164.366	177.590	0.00012579	0.00024919	6.5882e-05	1040.8	1.7103e-06	2.2405e-06	1142.8	211.7	2.0899e-06	3.1827e-06	270.59	77.492	60.783	17.931	1.241e-06	25.205	0.00027025	0.00031909	8.3896e-05	1027.5	3.5369e-06	3.2192e-06	1126.7	211.48	3.4224e-06	3.4966e-06	268.74	77.86	60.971	18.19	3.4101e-06	25.464	234.211	60.006	58.398	-22.538	155.279	103.119	-22.443	-14.923	188.018	127.920	-15.269	-8.256	-7.554	-1.185	142.000	-1.586	-8191	255	
38491.258	1	1	0	0	0.13343	0.21105	0.2436	0.26271	0.30504	0.1228	0.16187	0.27901	0.044344	0.17247	0.16737	0.10809	0.01415	0.084129	0.26307	0.17257	-2.5542	-2.4688	-3.2708	-2.6208	-2.5542	-3.1354	-2.525	-3.2104	-2.8	-2.4208	-3.2875	-2.4896	-2.7604	-3.1979	-2.3167	-2.9542	200.545	242.287	10.143	273.754	270.535	-32.817	235.060	324.722	270.157	88.439	290.341	311.739	141.567	300.878	23.152	267.820	0.00010346	0.00037395	8.9164e-05	1047.9	2.5977e-06	3.1027e-06	1142.1	213.06	2.5071e-06	2.5094e-06	269.55	77.26	60.788	18.062	3.2986e-06	25.225	0.00026926	0.0003278	8.2604e-05	1031	3.5153e-06	3.1192e-06	1124.1	211.3	3.3812e-06	3.5648e-06	268.77	77.868	60.928	18.234	3.5969e-06	25.455	233.405	58.928	67.442	-22.461	168.623	136.535	-22.380	-15.045	141.229	103.667	-15.276	-8.233	-7.646	-1.191	144.254	-1.430	-8191	255	
38491.352	1	1	0	0	0.29997	0.16826	0.11883	0.019281	0.034235	0.38922	0.1714	0.18635	0.24352	0.13987	0.17894	0.30119	0.19561	0.13487	0.036796	0.063767	-2.3688	-2.3958	-3.0687	-2.6292	-2.6958	-3.125	-2.3125	-2.925	-2.8042	-2.3354	-3.1771	-2.6729	-2.6729	-3.0854	-2.3667	-3.0375	176.373	98.059	85.354	-17.774	12.348	-10.460	195.840	25.917	204.658	40.401	61.949	231.851	324.102	229.244	-3.943	270.504	0.00014819	0.0002831	7.5624e-05	1048.1	3.8384e-06	3.9032e-06	1146.9	211.41	1.2965e-06	2.6093e-06	270.85	77.558	60.692	17.96	3.2123e-06	25.389	0.00025974	0.00032617	8.5374e-05	1030.9	3.7091e-06	3.3477e-06	1128	210.94	3.4767e-06	3.648e-06	268.58	77.933	61.024	18.194	3.5258e-06	25.515	230.567	64.308	66.187	-22.592	165.001	124.179	-22.474	-14.482	177.528	131.213	-15.426	-8.048	-7.156	-0.410	144.682	-1.772	-8191	255	
38491.449	1	1	0	0	0.33809	0.13229	0.27069	0.11559	0.25114	0.13148	0.44825	0.12724	0.15484	0.2494	0.22016	0.1644	0.22755	0.087138	0.074436	0.33158	-2.6208	-2.3333	-3.0687	-2.7687	-2.4833	-3.2062	-2.5125	-2.7542	-3.0146	-2.2188	-3.2875	-2.8167	-2.3875	-3.1688	-2.1813	-2.7313	21.624	143.103	267.467	10.022	79.821	204.705	247.420	19.858	85.098	117.706	219.798	180.076	269.325	21.522	-15.524	230.459	0.00016066	0.00041126	8.093e-05	1047.4	3.7564e-06	2.707e-06	1145.9	212.28	2.4568e-06	2.3272e-06	270.05	77.121	61.193	18.023	2.6021e-06	25.146	0.00028435	0.00035543	8.5374e-05	1031	3.8943e-06	3.6965e-06	1126.8	210.97	3.653e-06	3.568e-06	268.62	77.766	61.06	18.201	3.7195e-06	25.497	246.168	62.657	59.809	-22.696	155.326	124.915	-22.392	-14.669	173.883	141.048	-15.482	-8.076	-7.340	-1.043	129.345	-1.366	-8191	255	
38491.547	1	1	0	0	0.1338	0.087828	0.22003	0.17405	0.015004	0.22516	0.21415	0.051508	0.27148	0.081913	0.28437	0.044225	0.085859	0.25626	0.021072	0.32763	-2.8958	-2.2292	-3.0438	-2.8458	-2.3458	-3.2292	-2.6375	-2.8042	-2.8667	-2.2	-3.2292	-2.9667	-2.3812	-3.2354	-2.3792	-2.7729	-5.925	33.986	306.606	202.753	-1.587	310.979	285.795	37.447	-1.186	-2.820	265.412	215.108	323.874	19.731	223.630	325.376	0.00015524	0.00028819	5.3087e-05	1043.8	3.078e-06	2.4727e-06	1143.5	211.96	1.9288e-06	2.8105e-06	270.39	77.284	60.801	18.046	3.0625e-06	25.12	0.00027377	0.00035571	8.858e-05	1029.1	3.9342e-06	3.6225e-06	1127.1	211.1	3.3964e-06	3.6399e-06	267.93	78.059	60.949	18.213	3.6802e-06	25.542	234.005	50.269	55.298	-22.656	168.673	108.889	-22.328	-14.720	132.376	96.411	-14.984	-7.680	-7.443	-0.897	107.582	-1.558	-8191	255	
38491.641	1	1	0	0	0.18894	0.21765	0.16766	0.21347	0.29159	0.083665	0.23781	0.29324	0.17291	0.16155	0.29076	0.29879	0.090543	0.061738	0.10634	0.33579	-2.6479	-2.3917	-2.925	-3.0896	-2.3604	-3.0646	-2.6729	-2.7062	-3.1979	-2.3396	-2.9396	-2.9042	-2.3042	-3.1625	-2.4958	-2.5979	63.660	99.340	100.195	292.980	317.536	267.480	241.222	256.544	-6.087	198.768	276.807	85.979	273.386	127.628	87.781	225.544	0.00016233	0.00032357	6.472e-05	1039.5	1.9705e-06	3.1128e-06	1145.7	211.31	2.2591e-06	2.7048e-06	270.4	77.282	60.364	18.1	2.6462e-06	25.019	0.00027701	0.00037211	9.3576e-05	1028.7	3.8451e-06	3.6858e-06	1127.4	210.6	3.5998e-06	3.8345e-06	268.83	77.889	60.879	18.245	3.6195e-06	25.436	241.149	68.768	70.191	-22.630	164.355	139.267	-22.153	-14.773	148.802	113.803	-15.382	-8.221	-7.478	-0.677	162.397	-1.725	-8191	255	
38491.738	1	1	0	0	0.038894	0.059931	0.20329	0.087588	0.23144	0.039776	0.11689	0.17967	0.12317	0.09802	0.128	0.042814	0.086642	0.26701	0.09074	0.27671	-2.6562	-2.3583	-2.8771	-3.15	-2.5187	-3.3208	-2.9792	-2.425	-3.3229	-2.4062	-2.8083	-3.1625	-2.3229	-3.0167	-2.675	-2.4667	-25.989	220.011	309.596	244.058	304.786	228.071	319.787	27.477	319.018	142.088	264.956	319.393	-10.914	4.767	168.135	246.338	0.00012984	0.00029383	5.4795e-05	1046.8	3.1156e-06	2.9561e-06	1143.5	212.52	1.7138e-06	2.3789e-06	268.08	77.646	60.792	18.028	2.391e-06	25.161	0.00027144	0.00032718	9.3373e-05	1031.3	3.9196e-06	3.744e-06	1126.4	211.12	3.4252e-06	4.0635e-06	267.91	77.9	60.868	18.194	3.3575e-06	25.443	240.077	27.885	71.049	-22.589	180.785	106.912	-22.316	-14.262	188.421	101.046	-14.978	-7.765	-7.543	-0.449	105.801	-1.743	-8191	255	
38491.855	1	1	0	0	0.20726	0.027574	0.25065	0.20153	0.14711	0.23448	0.36093	0.18011	0.24967	0.46	0.096	0.12513	0.26139	0.053784	0.068409	0.16721	-2.8563	-2.4667	-2.5875	-3.1646	-2.1979	-3.1562	-2.9208	-2.3521	-3.1458	-2.4938	-2.6771	-3.0375	-2.2292	-2.9938	-2.7313	-2.3146	139.947	47.933	240.060	-31.317	179.515	293.427	274.433	318.737	80.718	289.192	254.529	286.254	280.361	111.634	-11.917	219.662	0.00014019	0.00025798	6.6072e-05	1044.7	3.8905e-06	2.3956e-06	1146.9	213.57	2.804e-06	3.8287e-06	269.94	77.309	60.56	17.854	2.6975e-06	25.147	0.00027716	0.00034818	9.5754e-05	1030.2	4.0821e-06	3.8162e-06	1127.4	211.33	3.5461e-06	3.6174e-06	268.58	77.948	60.905	18.159	3.3471e-06	25.514	231.465	44.760	52.748	-22.318	174.763	124.778	-22.286	-14.562	183.988	109.418	-15.205	-7.860	-7.675	-0.684	149.987	-1.299	-8191	255	
38491.953	1	1	0	0	0.13735	0.22815	0.17064	0.3437	0.091569	0.16721	0.16217	0.054538	0.24646	0.36038	0.26271	0.18047	0.16341	0.37574	0.32421	0.064849	-2.825	-2.5187	-2.5667	-3.2812	-2.25	-2.9479	-3.1375	-2.4167	-3.05	-2.7479	-2.4958	-3.3333	-2.3167	-2.675	-2.9729	-2.3146	49.983	113.078	21.172	285.829	144.512	165.441	209.665	-14.028	-25.430	205.851	202.393	116.905	126.957	-12.173	258.504	269.270	0.00016065	0.00031589	0.00010324	1043.3	2.6511e-06	1.5061e-06	1135.2	210.84	3.0938e-06	1.552e-06	269.68	76.87	60.719	17.933	3.4434e-06	25.248	0.00028177	0.00032808	9.4743e-05	1030.3	3.8727e-06	3.6826e-06	1124.1	210.86	3.6058e-06	3.5642e-06	268.55	77.717	60.952	18.193	3.6952e-06	25.521	242.060	61.639	60.993	-22.513	173.690	130.511	-22.339	-14.408	160.627	138.590	-14.931	-7.950	-7.375	-0.567	133.607	-1.599	-8191	255	
38492.051	1	1	0	0	0.082585	0.27292	0.29351	0.19662	0.16625	0.058779	0.19723	0.27995	0.23138	0.20034	0.052283	0.10326	0.074757	0.059864	0.14633	0.0174	-2.7687	-2.6583	-2.4396	-3.3208	-2.4979	-2.5396	-3.1396	-2.2292	-3.1208	-2.7021	-2.3729	-3.1021	-2.5208	-2.8	-3.2021	-2.3063	280.509	183.163	261.416	16.050	298.766	-5.469	271.017	269.108	310.833	207.999	50.392	71.867	-15.395	11.735	14.744	264.120	0.00015019	0.00034647	6.525e-05	1042.4	2.6735e-06	3.883e-06	1146.4	212.17	2.9266e-06	3.7428e-06	271.33	77.572	60.984	17.948	1.7124e-06	25.311	0.00027937	0.00036194	9.5614e-05	1030.2	3.965e-06	3.6757e-06	1127.5	210.87	3.5418e-06	3.7037e-06	268.98	78.167	61.049	18.226	3.3564e-06	25.469	235.091	22.951	65.166	-22.536	146.789	139.146	-22.492	-14.689	161.347	115.230	-15.261	-7.970	-7.197	-0.512	120.878	-1.786	-8191	255	
38492.121	1	1	0	0	0.44034	0.11476	0.34111	0.19045	0.075315	0.19361	0.32218	0.14272	0.088037	0.026379	0.17052	0.10806	0.023407	0.12834	0.14348	0.10019	-2.6312	-2.7625	-2.2979	-3.2625	-2.3979	-2.4583	-3.3583	-2.3667	-2.925	-2.675	-2.4562	-3.1792	-2.5542	-2.4875	-3.1125	-2.3604	193.408	46.445	211.749	326.321	264.206	247.673	242.385	-15.134	11.541	164.593	-13.856	13.478	3.446	187.069	242.265	206.000	0.00013681	0.00021876	0.00011607	1047.8	4.6906e-06	2.6699e-06	1139.9	211.31	2.2511e-06	2.5155e-06	269.12	76.814	60.594	18.023	3.2188e-06	25.124	0.00027769	0.00033386	0.00010005	1031.2	4.0881e-06	3.7681e-06	1127.3	211.1	3.6475e-06	3.6956e-06	268.38	77.876	60.937	18.216	3.4356e-06	25.483	232.094	81.306	85.124	-22.205	166.141	123.692	-22.209	-14.686	169.917	119.597	-15.194	-8.166	-7.517	-0.762	131.436	-1.372	-8191	255	
38492.242	1	1	0	0	0.21785	0.071334	0.25623	0.3537	0.15442	0.12649	0.1716	0.11648	0.40379	0.065375	0.21917	0.079469	0.10726	0.24271	0.058555	0.13834	-2.45	-3	-2.2396	-3.3333	-2.6063	-2.5312	-3.3271	-2.5375	-2.7104	-3.0646	-2.2812	-3.0062	-2.8125	-2.6208	-3.1354	-2.4771	263.302	63.889	205.683	293.655	300.537	41.004	-25.011	294.768	204.438	69.930	309.275	292.078	229.767	208.541	39.811	110.133	0.00013706	0.00025609	7.2918e-05	1049.7	2.9891e-06	1.6997e-06	1143.1	211.99	1.5512e-06	2.7981e-06	271.2	77.183	60.904	18.041	3.2383e-06	25.451	0.00029023	0.00034796	9.5459e-05	1030.3	3.8246e-06	3.7504e-06	1126.1	210.86	3.6096e-06	3.5579e-06	268.77	77.722	60.873	18.217	3.5466e-06	25.534	234.354	47.337	56.430	-22.553	199.084	152.553	-22.534	-14.511	167.997	127.688	-15.124	-7.756	-7.429	-0.774	129.458	-1.439	-8191	255	
38492.336	1	1	0	0	0.11679	0.18719	0.13727	0.25766	0.10979	0.12826	0.16249	0.26403	0.14931	0.14903	0.12898	0.13578	0.12173	0.12215	0.18926	0.21741	-2.3833	-3.1688	-2.3521	-3.2687	-2.7792	-2.4396	-3.3438	-2.3958	-2.7146	-3.2042	-2.3667	-3.0396	-2.7979	-2.3708	-3.0875	-2.5479	113.376	285.589	260.971	269.773	58.082	134.631	287.510	125.828	290.650	270.910	254.291	39.455	323.061	257.071	257.536	-30.460	0.00013729	0.00020758	5.8149e-05	1045.1	5.2916e-06	2.5648e-06	1144	211.7	1.4441e-06	2.132e-06	268.38	77.569	60.507	17.958	3.0026e-06	25.117	0.00028724	0.00033442	9.9847e-05	1030.9	4.0989e-06	3.7504e-06	1127.1	210.64	3.6345e-06	3.6656e-06	268.05	77.933	60.774	18.201	3.5501e-06	25.527	237.814	67.504	89.909	-22.380	153.322	88.907	-22.135	-14.663	220.160	138.467	-14.891	-8.063	-7.787	-1.076	154.488	-1.576	-8191	255	
38492.434	1	1	0	0	0.25587	0.059275	0.11264	0.27779	0.067426	0.20797	0.084146	0.1251	0.22758	0.34665	0.22104	0.41592	0.18211	0.32632	0.11143	0.085546	-2.3708	-3.0479	-2.1396	-3.2354	-2.6937	-2.3542	-3.2938	-2.5646	-2.5333	-3.1833	-2.3958	-2.9104	-2.9271	-2.125	-3.0896	-2.6354	177.614	39.095	99.535	287.247	192.008	226.710	116.590	217.320	315.825	139.359	258.322	289.180	286.653	284.597	96.126	126.954	0.00015039	0.00041749	4.4338e-05	1048.2	2.7758e-06	3.0765e-06	1142.2	211.4	1.8286e-06	2.9881e-06	270.28	77.24	60.656	17.992	3.3214e-06	25.219	0.00028286	0.00033864	9.6533e-05	1029.7	3.9142e-06	3.8308e-06	1125.9	210.42	3.7566e-06	3.6768e-06	268.18	77.93	60.846	18.174	3.5969e-06	25.489	244.502	57.245	83.951	-22.458	183.208	115.800	-22.406	-14.616	159.889	110.034	-15.461	-7.657	-7.516	-0.574	116.679	-1.893	-8191	255	
38492.531	1	1	0	0	0.20707	0.071724	0.15273	0.31665	0.2043	0.12658	0.20247	0.080481	0.17876	0.087916	0.16667	0.2505	0.046921	0.19132	0.18342	0.16493	-1.9062	-3.1896	-2.3583	-2.9771	-2.8708	-2.1979	-3.2729	-2.7188	-2.6125	-3.2062	-2.3521	-2.7354	-3.1208	-2.3167	-3.1333	-2.8292	98.707	150.630	99.567	320.209	159.130	14.576	281.154	324.878	23.976	66.421	327.063	59.187	-8.866	-16.404	309.781	164.488	0.00015979	0.00018175	6.7678e-05	1045.9	4.4371e-06	3.7338e-06	1146.6	212.21	2.5551e-06	1.8173e-06	268.77	77.502	60.845	18.064	1.8357e-06	25.143	0.00029306	0.00032123	9.5443e-05	1029.9	3.7118e-06	3.9922e-06	1127.5	210.95	3.7582e-06	3.5085e-06	267.75	78.044	61.209	18.272	3.3176e-06	25.425	235.808	34.752	78.005	-22.214	164.537	124.873	-22.194	-14.714	155.850	129.380	-15.172	-7.625	-7.837	-0.781	118.111	-1.924	-8191	255	
38492.648	1	1	0	0	0.11373	0.20646	0.284	0.10648	0.31928	0.29986	0.15032	0.21183	0.13089	0.22288	0.079573	0.035162	0.13845	0.17671	0.068179	0.15297	-2.0438	-3.1271	-2.4813	-2.8271	-3.0271	-2.2042	-3.2375	-2.7062	-2.2896	-3.3063	-2.4062	-2.5604	-3.2125	-2.1146	-2.9792	-2.8604	-19.048	314.042	81.339	181.284	12.996	222.547	264.297	206.225	-14.486	326.861	268.970	151.621	174.176	288.214	305.701	162.229	0.00015029	0.00029799	6.212e-05	1044.2	3.2993e-06	3.1069e-06	1142.8	212.65	2.4017e-06	2.542e-06	270.6	77.464	60.683	17.916	1.6742e-06	25.168	0.00028479	0.00031993	9.6517e-05	1030.6	3.8165e-06	3.9346e-06	1125.8	211.49	3.6676e-06	3.5748e-06	268.5	77.888	61.027	18.181	3.5848e-06	25.503	222.626	67.983	64.630	-22.485	160.521	128.178	-22.220	-14.634	166.740	114.282	-15.176	-7.741	-7.342	-0.667	155.990	-1.195	-8191	255	
38492.746	1	1	0	0	0.063472	0.15425	0.31209	0.24556	0.12773	0.17242	0.26595	0.041427	0.13596	0.19012	0.057784	0.24995	0.15191	0.30109	0.10549	0.10751	-2.0833	-3.1583	-2.5812	-2.6479	-3.0812	-2.1646	-3.2729	-2.9667	-2.2604	-3.0208	-2.5187	-2.4188	-3.1896	-2.3021	-2.7167	-2.9708	13.855	92.672	39.935	249.645	222.541	72.751	220.699	126.705	318.278	264.253	-15.502	319.730	-28.841	132.385	163.623	113.317	0.00015749	0.00034864	7.2522e-05	1042.6	1.947e-06	3.3604e-06	1141.7	213.18	2.3944e-06	3.3117e-06	270.19	77.674	60.387	18.001	1.5159e-06	25.256	0.0002939	0.00035655	9.479e-05	1028.9	3.5423e-06	3.9308e-06	1126	211.33	3.9399e-06	3.6925e-06	268	77.892	60.881	18.236	3.5333e-06	25.538	232.680	57.150	78.032	-22.491	161.084	109.656	-22.292	-14.619	151.594	108.835	-15.064	-7.965	-7.378	-0.611	143.012	-1.587	-8191	255	
38492.816	1	1	0	0	0.23679	0.2363	0.37097	0.21788	0.14246	0.2418	0.20685	0.17008	0.16146	0.040473	0.16138	0.05439	0.14432	0.080755	0.19928	0.26975	-1.9271	-3.025	-2.5479	-2.6396	-3.1479	-2.3458	-2.8896	-3.0875	-2.4562	-3.1875	-2.675	-2.5792	-3.2812	-2.6	-2.775	-3.1792	1.471	249.286	106.528	313.274	43.035	152.434	222.830	134.726	296.364	178.079	-0.551	109.772	187.571	110.306	57.055	74.363	0.00011722	0.00036109	6.9997e-05	1047.7	1.8835e-06	2.9215e-06	1146.9	212.72	2.9559e-06	3.4613e-06	270.01	77.074	60.574	17.935	2.086e-06	25.19	0.00028367	0.00034942	9.9318e-05	1030	3.7437e-06	3.6389e-06	1128.3	210.79	3.7641e-06	3.5423e-06	268.59	77.803	60.853	18.147	3.3419e-06	25.54	235.131	60.081	88.960	-22.572	147.510	107.340	-22.011	-14.640	144.427	127.165	-15.505	-7.976	-7.414	-0.468	147.307	-1.684	-8191	255	
38492.938	1	1	0	0	0.15392	0.081695	0.10463	0.083815	0.052159	0.13947	0.22939	0.158	0.17408	0.1603	0.10028	0.062102	0.02269	0.041172	0.14938	0.18267	-1.7354	-2.8771	-2.8396	-2.3479	-3.1958	-2.6542	-2.725	-3.1292	-2.2875	-2.8417	-2.9313	-2.4688	-3.1646	-2.4333	-2.5333	-3.1292	161.585	281.823	24.937	29.605	-21.556	201.776	-27.588	-28.317	199.819	-10.794	48.959	54.689	125.041	35.817	190.410	201.965	0.00016128	0.00026854	3.9453e-05	1045.2	2.6976e-06	3.9334e-06	1144.8	212.02	1.8204e-06	2.1918e-06	269.85	77.88	60.562	17.892	1.9508e-06	25.184	0.00028463	0.00033431	8.9078e-05	1029.2	3.7161e-06	3.7599e-06	1126.7	210.62	3.8162e-06	3.69e-06	268.25	77.957	60.866	18.196	3.7542e-06	25.476	236.648	47.102	85.341	-22.342	180.094	121.057	-22.262	-14.652	204.737	104.855	-15.091	-7.363	-7.320	-0.734	156.842	-1.527	-8191	255	
38493.031	1	1	0	0	0.39759	0.1597	0.22793	0.30741	0.2084	0.22621	0.27727	0.1703	0.13228	0.33455	0.079131	0.075438	0.10416	0.21057	0.14661	0.39804	-1.9125	-2.8708	-2.8271	-2.4792	-2.9688	-2.6229	-2.7188	-3.35	-2.3063	-2.9708	-2.9417	-2.3979	-3.1125	-2.7292	-2.4667	-3.0187	305.059	135.968	297.349	245.095	23.707	14.158	289.096	185.875	66.177	146.698	-12.950	282.280	-4.561	286.263	232.899	326.591	0.00013551	0.00032955	0.00011232	1044.4	1.3669e-06	2.0341e-06	1145.1	211.94	1.8404e-06	2.0924e-06	270.77	77.209	60.745	17.988	4.1585e-06	25.332	0.00029437	0.00033027	9.2035e-05	1029.3	3.7053e-06	3.7871e-06	1127.4	211.24	3.7365e-06	3.5273e-06	268.54	78.041	60.928	18.21	3.7716e-06	25.486	237.613	60.013	71.317	-22.387	135.887	177.367	-22.341	-14.558	199.237	133.384	-15.459	-7.927	-7.123	-0.725	140.439	-1.632	-8191	255	
38493.129	1	1	0	0	0.13604	0.11096	0.27546	0.15196	0.13325	0.084001	0.14509	0.20836	0.0021273	0.21082	0.35324	0.11861	0.21127	0.016841	0.10167	0.2117	-1.9875	-2.775	-2.7458	-2.4625	-3.05	-2.7458	-2.3729	-3.1125	-2.4021	-2.7812	-3.0563	-2.2146	-3.0208	-2.9542	-2.1396	-3.3187	216.121	179.603	-1.641	-27.374	268.272	219.580	273.985	242.122	180.000	190.028	265.616	284.735	283.090	112.531	37.077	208.953	0.0001338	0.0003046	7.4511e-05	1047.1	3.9343e-06	3.6616e-06	1143.2	211.43	2.5327e-06	2.6525e-06	271.23	77.498	60.674	17.921	3.5548e-06	25.171	0.0002967	0.00033616	8.8222e-05	1031.4	3.7491e-06	3.5896e-06	1127.5	210.71	3.7305e-06	3.7469e-06	269	77.905	60.911	18.185	3.4321e-06	25.441	224.465	68.401	74.072	-22.323	176.844	126.956	-22.090	-14.755	158.128	102.649	-15.033	-7.556	-7.287	-0.626	111.083	-1.262	-8191	255	
38493.227	1	1	0	0	0.24809	0.072978	0.28287	0.25168	0.16373	0.051241	0.43754	0.13768	0.17383	0.09927	0.070632	0.25167	0.33754	0.040117	0.13698	0.097965	-2.0396	-2.6083	-2.9521	-2.2208	-2.9062	-2.8604	-2.4104	-3.2521	-2.6104	-2.6083	-3.3042	-2.2125	-2.9896	-2.8146	-2.3292	-3.1104	126.808	204.334	255.566	273.945	153.257	219.513	243.177	66.890	-10.314	303.203	227.803	283.166	34.741	-1.919	-13.493	151.750	0.00013704	0.00041818	7.8955e-05	1043	2.582e-06	3.2266e-06	1145	211.49	2.5886e-06	3.5193e-06	270	77.245	60.449	17.937	3.7857e-06	25.144	0.00029057	0.00033931	8.7678e-05	1027.9	3.6001e-06	3.6212e-06	1126.9	210.86	3.5651e-06	3.5942e-06	268.41	78.005	60.987	18.17	3.7554e-06	25.541	231.524	48.568	73.757	-22.439	164.370	108.911	-22.053	-14.715	154.806	128.182	-15.557	-7.735	-7.411	-0.596	126.901	-1.445	-8191	255	
38493.348	1	1	0	0	0.10848	0.1856	0.19998	0.38707	0.097141	0.15276	0.024595	0.19135	0.271	0.029353	0.30776	0.2132	0.18535	0.33521	0.23416	0.12467	-2.0812	-2.575	-3.1229	-2.4271	-2.7375	-2.9771	-2.3563	-3.35	-2.6271	-2.575	-3.3417	-2.2938	-3.0354	-3.0146	-2.35	-3.1542	124.414	137.317	197.780	-30.596	51.577	-6.185	206.592	229.565	105.461	118.156	323.638	-24.522	-4.825	240.303	131.833	208.960	0.00013689	0.00023897	0.00011563	1047.2	4.53e-06	1.9935e-06	1145.8	212.58	2.1005e-06	2.3678e-06	269.61	77.701	60.966	17.964	2.9413e-06	25.016	0.0002753	0.00033864	9.1677e-05	1030.5	3.681e-06	3.5275e-06	1126.8	211.2	3.5738e-06	3.7381e-06	268.3	77.87	61.052	18.207	3.6779e-06	25.465	232.825	62.050	55.104	-22.270	159.984	115.572	-22.198	-14.357	167.702	82.854	-15.243	-7.637	-7.359	-0.533	139.339	-1.609	-8191	255	
38493.418	1	1	0	0	0.35335	0.14105	0.049262	0.34996	0.22631	0.14912	0.16982	0.15994	0.17952	0.16373	0.14939	0.093038	0.12303	0.27111	0.18898	0.18856	-2.2771	-2.4	-2.9521	-2.7125	-2.8229	-2.9729	-2.525	-3.2104	-2.5646	-2.2417	-3.2479	-2.4188	-2.5438	-3.0417	-2.0979	-3.0417	118.835	-21.623	285.646	323.054	-10.018	306.029	8.903	246.742	141.151	116.511	280.222	71.715	276.716	-9.969	73.456	221.278	0.00015495	0.00033142	7.2205e-05	1042.8	2.2457e-06	3.0166e-06	1142.7	211.9	2.8037e-06	2.5712e-06	270.17	77.551	60.949	18.062	2.4786e-06	25.091	0.0002794	0.00034734	8.5203e-05	1028.6	3.8182e-06	3.494e-06	1124.8	210.93	3.5461e-06	3.6111e-06	268.96	77.787	61.081	18.22	3.5154e-06	25.506	236.304	40.071	36.661	-22.375	172.235	115.469	-21.960	-14.606	151.599	114.850	-15.144	-7.989	-7.489	-0.080	139.875	-0.979	-8191	255	
38493.539	1	1	0	0	0.18513	0.26995	0.038706	0.1791	0.052563	0.098498	0.26434	0.23224	0.051045	0.104	0.2199	0.16346	0.1371	0.18529	0.075103	0.072549	-2.3812	-2.1937	-3.1958	-2.5396	-2.4208	-3.0792	-2.0854	-3.1688	-2.9083	-2.3292	-3.3958	-2.4854	-2.6708	-2.9479	-2.3396	-3.0187	86.044	295.933	-16.867	277.083	247.744	305.017	237.750	286.916	254.986	84.229	254.082	216.021	-6.491	77.984	274.680	6.474	0.00012339	0.00025575	7.7078e-05	1044.4	3.4104e-06	1.9831e-06	1140.8	212.61	1.8648e-06	2.5132e-06	269.15	77.644	60.705	17.946	3.1435e-06	25.113	0.00027007	0.00033667	8.3989e-05	1029.4	3.7113e-06	3.582e-06	1125.2	211.13	3.5461e-06	3.735e-06	268.09	78.049	60.957	18.206	3.601e-06	25.514	232.142	63.186	71.890	-22.531	147.630	99.971	-22.303	-14.476	182.095	151.246	-15.266	-7.826	-7.435	-0.682	138.151	-1.080	-8191	255	
#DATA ENDS
