BOXY.EXE: ISS Imagent and Oximeter Data Acquisition Program Version 0.80
Ascii Record File

#ACQ INFORMATION
2  Detector Channels 
16  External MUX Channels 
1  Auxiliary Channels 
5000  Waveform (CCF) Frequency (Hz)
1  Waveforms Skipped 
30  Waveforms Averaged 
1  Cycles Averaged 
16  Acquisitions per Waveform 
10.0806  Updata Rate (Hz) 

#FILE INFORMATION
TRUE -- External MUX Channel results are PARSED.
FALSE -- AC DC and Phase are NOT grouped.
TRUE -- Companion Program Settings File CREATED.
FALSE -- AC data not excluded
FALSE -- DC data not excluded
FALSE -- Phase data not excluded
FALSE -- Auxillary Chn. data not excluded
Tab delimiters

#CALIBRATION STATE
TRUE -- Waveform Calibration Values APPLIED.


#AUX CALIBRATION VALUES
Val Type	aux-1	

Term	1.0000e+00	
Factor	0.0000e+00	


#WF CALIBRATION VALUES
A = Detector Channel
Val Type	A-AC1	A-AC2	A-AC3	A-AC4	A-AC5	A-AC6	A-AC7	A-AC8	A-AC9	A-AC10	A-AC11	A-AC12	A-AC13	A-AC14	A-AC15	A-AC16	A-DC1	A-DC2	A-DC3	A-DC4	A-DC5	A-DC6	A-DC7	A-DC8	A-DC9	A-DC10	A-DC11	A-DC12	A-DC13	A-DC14	A-DC15	A-DC16	A-Ph1	A-Ph2	A-Ph3	A-Ph4	A-Ph5	A-Ph6	A-Ph7	A-Ph8	A-Ph9	A-Ph10	A-Ph11	A-Ph12	A-Ph13	A-Ph14	A-Ph15	A-Ph16	

Term	0.00000e+00	0.00000e+00	0.00000e+00	0.00000e+00	0.00000e+00	0.00000e+00	0.00000e+00	0.00000e+00	0.00000e+00	0.00000e+00	0.00000e+00	0.00000e+00	0.00000e+00	0.00000e+00	0.00000e+00	0.00000e+00	0.00000e+00	0.00000e+00	0.00000e+00	0.00000e+00	0.00000e+00	0.00000e+00	0.00000e+00	0.00000e+00	0.00000e+00	0.00000e+00	0.00000e+00	0.00000e+00	0.00000e+00	0.00000e+00	0.00000e+00	0.00000e+00	0.00000e+00	0.00000e+00	0.00000e+00	0.00000e+00	0.00000e+00	0.00000e+00	0.00000e+00	0.00000e+00	0.00000e+00	0.00000e+00	0.00000e+00	0.00000e+00	0.00000e+00	0.00000e+00	0.00000e+00	0.00000e+00	
Factor	1.00000e+00	1.00000e+00	1.00000e+00	1.00000e+00	1.00000e+00	1.00000e+00	1.00000e+00	1.00000e+00	1.00000e+00	1.00000e+00	1.00000e+00	1.00000e+00	1.00000e+00	1.00000e+00	1.00000e+00	1.00000e+00	1.00000e+00	1.00000e+00	1.00000e+00	1.00000e+00	1.00000e+00	1.00000e+00	1.00000e+00	1.00000e+00	1.00000e+00	1.00000e+00	1.00000e+00	1.00000e+00	1.00000e+00	1.00000e+00	1.00000e+00	1.00000e+00	X	X	X	X	X	X	X	X	X	X	X	X	X	X	X	X	

B = Detector Channel
Val Type	B-AC1	B-AC2	B-AC3	B-AC4	B-AC5	B-AC6	B-AC7	B-AC8	B-AC9	B-AC10	B-AC11	B-AC12	B-AC13	B-AC14	B-AC15	B-AC16	B-DC1	B-DC2	B-DC3	B-DC4	B-DC5	B-DC6	B-DC7	B-DC8	B-DC9	B-DC10	B-DC11	B-DC12	B-DC13	B-DC14	B-DC15	B-DC16	B-Ph1	B-Ph2	B-Ph3	B-Ph4	B-Ph5	B-Ph6	B-Ph7	B-Ph8	B-Ph9	B-Ph10	B-Ph11	B-Ph12	B-Ph13	B-Ph14	B-Ph15	B-Ph16	

Term	0.00000e+00	0.00000e+00	0.00000e+00	0.00000e+00	0.00000e+00	0.00000e+00	0.00000e+00	0.00000e+00	0.00000e+00	0.00000e+00	0.00000e+00	0.00000e+00	0.00000e+00	0.00000e+00	0.00000e+00	0.00000e+00	0.00000e+00	0.00000e+00	0.00000e+00	0.00000e+00	0.00000e+00	0.00000e+00	0.00000e+00	0.00000e+00	0.00000e+00	0.00000e+00	0.00000e+00	0.00000e+00	0.00000e+00	0.00000e+00	0.00000e+00	0.00000e+00	-7.31775e+01	-1.39643e+02	-1.29191e+02	-1.81468e+02	-5.28782e+01	-5.94017e+01	-1.58511e+02	-1.62015e+02	-4.34400e+01	-6.62646e+01	-1.70593e+02	-1.70390e+02	-1.81289e+02	-1.76543e+02	-5.19673e+01	-1.49467e+02	
Factor	1.51461e-05	1.38994e-04	3.70494e-05	1.65114e-01	1.30890e-06	1.55113e-06	1.66376e-01	5.64345e-02	1.01830e-06	1.34470e-06	8.78816e-02	2.83681e-02	2.52299e-02	8.59329e-03	1.27316e-06	1.18647e-02	5.15675e-06	6.63635e-06	1.85623e-06	8.53049e-02	7.07640e-08	7.33048e-08	8.10045e-02	2.92832e-02	7.07680e-08	7.32667e-08	4.41605e-02	1.43478e-02	1.32282e-02	4.49219e-03	7.21484e-08	6.00703e-03	X	X	X	X	X	X	X	X	X	X	X	X	X	X	X	X	



#DISTANCE SETTINGS
A = Detector Channel
A-1	A-2	A-3	A-4	A-5	A-6	A-7	A-8	A-9	A-10	A-11	A-12	A-13	A-14	A-15	A-16	

2.5000e+00	3.0000e+00	2.5000e+00	3.0000e+00	2.0000e+00	3.0000e+00	1.5000e+00	3.0000e+00	3.0000e+00	3.0000e+00	3.0000e+00	3.0000e+00	3.0000e+00	3.0000e+00	1.5000e+00	3.0000e+00	

B = Detector Channel
B-1	B-2	B-3	B-4	B-5	B-6	B-7	B-8	B-9	B-10	B-11	B-12	B-13	B-14	B-15	B-16	

1.0000e+01	1.0000e+01	1.0000e+01	1.4400e+00	1.0000e+01	1.0000e+01	1.5100e+00	1.9400e+00	1.0000e+01	1.0000e+01	1.9900e+00	2.4900e+00	2.4100e+00	2.9000e+00	1.0000e+01	2.9800e+00	




#DATA BEGINS
time	group	step	mark	flag	A-AC1	A-AC2	A-AC3	A-AC4	A-AC5	A-AC6	A-AC7	A-AC8	A-AC9	A-AC10	A-AC11	A-AC12	A-AC13	A-AC14	A-AC15	A-AC16	A-DC1	A-DC2	A-DC3	A-DC4	A-DC5	A-DC6	A-DC7	A-DC8	A-DC9	A-DC10	A-DC11	A-DC12	A-DC13	A-DC14	A-DC15	A-DC16	A-Ph1	A-Ph2	A-Ph3	A-Ph4	A-Ph5	A-Ph6	A-Ph7	A-Ph8	A-Ph9	A-Ph10	A-Ph11	A-Ph12	A-Ph13	A-Ph14	A-Ph15	A-Ph16	B-AC1	B-AC2	B-AC3	B-AC4	B-AC5	B-AC6	B-AC7	B-AC8	B-AC9	B-AC10	B-AC11	B-AC12	B-AC13	B-AC14	B-AC15	B-AC16	B-DC1	B-DC2	B-DC3	B-DC4	B-DC5	B-DC6	B-DC7	B-DC8	B-DC9	B-DC10	B-DC11	B-DC12	B-DC13	B-DC14	B-DC15	B-DC16	B-Ph1	B-Ph2	B-Ph3	B-Ph4	B-Ph5	B-Ph6	B-Ph7	B-Ph8	B-Ph9	B-Ph10	B-Ph11	B-Ph12	B-Ph13	B-Ph14	B-Ph15	B-Ph16	aux-1	digaux	

9156.394	1	1	0	256	0.11836	0.28979	0.052621	0.20893	0.019802	0.27201	0.22189	0.28414	0.11046	0.19579	0.061689	0.1286	0.10257	0.11993	0.17175	0.37374	-2.8125	-2.5896	-2.8563	-3.1188	-2.3688	-3.3792	-2.8646	-2.4938	-3.3396	-2.4333	-2.7917	-3.1667	-2.5563	-3.2479	-3.0042	-2.4938	324.682	2.961	187.619	267.054	94.683	168.341	319.471	307.181	91.991	92.149	26.518	306.012	205.038	228.530	-18.951	192.160	0.00011142	0.00069499	9.9363e-05	1153.9	3.127e-06	3.6843e-06	1240.3	235.77	1.2694e-06	2.6878e-06	301.99	81.998	64.312	18.471	3.2082e-06	25.599	0.0012218	0.0017443	0.00046155	1147.4	1.6421e-05	1.9347e-05	1238.9	241.02	1.642e-05	1.9539e-05	309.43	84.963	67.256	19.758	1.7852e-05	27.156	175.431	81.190	6.782	-23.540	180.808	47.806	-23.573	-16.041	120.561	149.436	-16.472	-9.331	-9.018	-2.222	112.837	-3.265	-8191	255	
9156.490	1	1	0	0	0.10894	0.13985	0.14291	0.096195	0.060265	0.20293	0.36204	0.20315	0.16818	0.097179	0.23522	0.2981	0.25863	0.14058	0.19281	0.24227	-3.0104	-2.3917	-2.8375	-3.2896	-2.3833	-3.1625	-3.0979	-2.4562	-3.2146	-2.8271	-2.7667	-3.3271	-2.2812	-3.0833	-3.1	-2.2167	24.879	-25.528	245.161	225.833	70.269	247.255	270.619	310.595	172.527	179.079	-7.960	303.009	291.937	270.575	84.647	275.750	9.3039e-05	0.00024398	0.00011791	1152.8	1.7312e-06	3.3402e-06	1245.9	237.94	7.592e-07	5.0575e-06	301.04	81.166	64.341	18.586	2.5915e-06	25.726	0.0012804	0.0017724	0.00043773	1147.6	1.7102e-05	1.8892e-05	1238.8	241.16	1.7283e-05	1.917e-05	309.07	84.81	67.381	19.745	1.7076e-05	27.168	169.038	283.294	72.171	-23.818	122.256	188.831	-23.490	-16.099	8.455	89.203	-16.489	-9.137	-8.906	-2.189	243.272	-2.605	-8191	255	
9156.562	1	1	0	0	0.21043	0.21043	0.16294	0.32004	0.014267	0.10886	0.14542	0.10335	0.11669	0.14259	0.27683	0.33967	0.26911	0.097187	0.13167	0.27478	-2.9792	-2.6625	-2.6063	-3.3708	-2.3167	-2.9542	-3.0771	-2.5021	-3.2979	-2.6354	-2.5187	-3.3688	-2.3833	-3.0542	-3.0646	-2.5875	264.867	129.105	-10.455	304.746	-1.741	90.692	202.321	221.572	6.463	-28.149	239.494	284.930	-30.558	89.114	143.672	277.245	0.00014672	0.00080814	0.00011598	1153.1	2.1812e-06	8.4108e-06	1241.7	237.37	4.3435e-06	7.5374e-06	303.81	81.152	64.316	18.583	2.3409e-06	25.901	0.0013241	0.0016957	0.00042537	1146.7	1.7944e-05	1.7726e-05	1235.9	241.02	1.7846e-05	1.7883e-05	308.77	84.483	67.456	19.635	1.6356e-05	27.19	203.916	-25.995	147.713	-23.726	262.499	93.814	-23.140	-15.985	217.521	83.181	-16.243	-9.565	-8.568	-1.624	207.276	-2.667	-8191	255	
9156.658	1	1	0	0	0.11478	0.24539	0.09064	0.14401	0.043549	0.21486	0.13909	0.047615	0.04465	0.11865	0.01292	0.078446	0.073029	0.16859	0.32314	0.15124	-2.8312	-2.7083	-2.4021	-3.4333	-2.6437	-2.8063	-3.3104	-2.4583	-3.2167	-2.8563	-2.5187	-3.2833	-2.6646	-2.8208	-3.2	-2.2646	113.374	46.954	287.337	240.181	169.444	-23.547	298.913	168.800	192.677	89.353	177.254	99.389	186.221	-32.026	93.094	290.305	0.00011871	0.00057224	6.3919e-05	1149.9	8.2569e-06	6.0317e-06	1241.8	236.69	2.2009e-06	3.7965e-06	302.59	81.444	64.397	18.486	4.2261e-06	25.84	0.001362	0.0016108	0.00040893	1144.8	1.8373e-05	1.7161e-05	1234.8	240.83	1.8083e-05	1.7144e-05	307.77	85.065	67.507	19.638	1.6032e-05	27.215	192.277	47.769	97.086	-23.599	182.189	228.949	-23.101	-15.887	124.935	160.861	-16.510	-9.127	-8.890	-2.012	62.366	-2.580	-8191	255	
9156.778	1	1	0	0	0.13532	0.12847	0.35644	0.24919	0.13835	0.19813	0.020858	0.10033	0.20332	0.15452	0.14764	0.22873	0.073744	0.084975	0.32949	0.28324	-2.6042	-2.9667	-2.3812	-3.3187	-2.6167	-2.8042	-3.2625	-2.4396	-3.0521	-3.0083	-2.5125	-3.2812	-2.8667	-2.5458	-3.1625	-2.4146	-24.604	274.718	32.660	322.541	151.229	9.453	250.503	119.968	323.978	112.086	284.673	-16.148	265.143	96.138	76.462	284.257	0.00010882	0.00055017	9.5263e-05	1152.5	3.7179e-06	3.4809e-06	1243.3	236.11	6.3379e-07	6.549e-06	302.36	81.953	64.178	18.459	2.9863e-06	25.894	0.0013875	0.0015907	0.00041222	1149	1.8632e-05	1.7205e-05	1236.4	241.63	1.87e-05	1.7935e-05	308.57	85.461	67.61	19.629	1.6965e-05	27.399	179.736	16.063	92.840	-23.630	263.427	196.888	-23.280	-15.868	256.567	88.218	-16.200	-9.167	-8.826	-1.881	89.176	-2.709	-8191	255	
9156.875	1	1	0	0	0.13709	0.30195	0.10085	0.096314	0.23387	0.12876	0.3033	0.09427	0.10777	0.20423	0.20709	0.16877	0.20585	0.15967	0.039043	0.21593	-2.3937	-3.2	-2.4021	-3.4313	-2.6458	-2.6125	-3.3583	-2.6188	-2.8479	-3.0667	-2.5	-3.2458	-3.0375	-2.3438	-3.2542	-2.5417	225.337	144.736	78.171	297.381	42.847	-32.263	233.595	249.168	16.561	-18.697	287.617	243.245	304.277	245.144	212.816	-19.288	0.00010336	0.00056523	0.00022203	1147.1	6.451e-06	2.5577e-06	1244.8	236.4	2.2022e-06	1.5497e-06	302.72	81.466	64.279	18.308	2.2878e-06	25.736	0.0013857	0.0016007	0.00042985	1149	1.8434e-05	1.7136e-05	1237.7	241.58	1.7597e-05	1.7033e-05	308.42	85.244	67.431	19.496	1.6736e-05	27.293	198.418	41.350	104.486	-23.556	97.473	166.604	-22.991	-15.626	132.682	-11.507	-16.305	-8.876	-8.695	-2.346	230.822	-2.527	-8191	255	
9156.971	1	1	0	0	0.24388	0.040659	0.25814	0.12176	0.17435	0.092962	0.1572	0.14838	0.10385	0.14768	0.16423	0.27716	0.37802	0.16891	0.19227	0.18512	-2.5354	-3.0646	-2.2958	-3.1979	-2.8333	-2.4437	-3.2042	-2.5563	-2.8229	-3.2062	-2.3104	-3.0604	-2.8083	-2.4875	-3.2292	-2.5708	134.275	57.540	10.612	212.260	145.099	319.292	255.179	-33.898	281.293	50.272	280.364	276.995	-28.990	265.993	284.532	317.600	8.5858e-05	0.00034944	0.00017319	1156.1	4.6684e-06	3.3177e-06	1238.1	235.34	4.3011e-06	4.8846e-06	302.52	81.26	64.044	18.475	4.0492e-06	25.89	0.0012511	0.0014827	0.00042681	1149.4	1.6831e-05	1.5915e-05	1234.3	241.35	1.6125e-05	1.6395e-05	308.49	85.008	67.013	19.433	1.7214e-05	27.228	167.441	13.646	75.287	-23.479	66.014	41.116	-23.383	-16.330	227.418	38.174	-16.752	-9.690	-9.228	-2.272	189.046	-3.042	-8191	255	
9157.090	1	1	0	0	0.35469	0.13192	0.14777	0.088698	0.20889	0.085939	0.054249	0.096262	0.07825	0.28614	0.19634	0.18759	0.28328	0.068775	0.14804	0.11342	-2.2021	-3.2708	-2.4062	-3.0625	-3.0583	-2.4083	-3.4771	-2.8937	-2.4562	-3.2687	-2.55	-2.7687	-3.0729	-2.3	-3.2271	-2.8104	237.187	-20.934	199.634	234.539	204.013	207.454	78.224	243.158	107.993	-1.718	9.838	210.514	72.424	113.998	64.319	-9.229	0.00013109	0.00012095	0.00016174	1147.5	4.3186e-06	3.0729e-06	1237.4	236.71	1.1261e-06	2.1236e-06	303.55	81.246	63.824	18.412	6.7639e-07	25.874	0.0011771	0.0014154	0.00044031	1145.3	1.5989e-05	1.5112e-05	1234.8	240.95	1.5425e-05	1.5686e-05	308.78	84.634	66.906	19.394	1.7564e-05	27.184	187.577	219.634	112.004	-23.730	125.100	131.919	-23.223	-16.278	-14.400	297.341	-16.682	-9.305	-8.782	-2.465	72.925	-3.188	-8191	255	
9157.186	1	1	0	0	0.22813	0.17971	0.37557	0.16803	0.22421	0.086712	0.18017	0.14688	0.3452	0.27138	0.14354	0.32213	0.16919	0.12736	0.17433	0.24302	-2.1083	-3.4	-2.5062	-3.0167	-3.0625	-2.4313	-3.2708	-2.7396	-2.2708	-3.2687	-2.8042	-2.8875	-3.2313	-2.3958	-3.0792	-2.9813	91.004	317.082	65.734	271.861	212.132	-26.472	323.444	218.089	178.354	88.151	-3.033	268.796	50.539	-33.410	229.414	70.726	7.2999e-05	0.00049036	0.00021078	1152	7.0223e-06	4.9157e-06	1243.9	236.59	4.096e-06	5.8401e-06	302.92	80.976	63.862	18.533	7.0923e-06	25.787	0.0011449	0.001412	0.0004578	1144.5	1.5689e-05	1.5749e-05	1237.2	240.46	1.493e-05	1.6474e-05	308.8	84.457	66.783	19.551	1.7974e-05	27.115	174.716	63.422	48.467	-23.784	188.680	186.858	-23.582	-16.264	110.079	136.525	-16.782	-9.691	-9.097	-2.159	97.091	-2.865	-8191	255	
9157.259	1	1	0	0	0.065544	0.10291	0.15031	0.34692	0.23039	0.18459	0.20392	0.10287	0.03063	0.18415	0.15422	0.20246	0.092196	0.39148	0.12123	0.10108	-2.2208	-3.3063	-2.4688	-3	-3.1458	-2.2687	-3.2854	-2.9167	-2.4979	-3.2792	-2.6396	-2.5187	-3.1458	-2.3646	-3.0833	-3.0979	97.474	90.103	31.961	281.415	220.591	199.475	258.121	185.161	204.535	245.832	223.489	243.373	250.714	293.377	140.902	-6.212	7.8862e-05	0.00033083	9.2194e-05	1150.5	4.9633e-06	5.6173e-06	1241.1	236.01	1.1066e-06	4.4535e-06	303.21	80.948	64.385	18.45	3.5429e-06	25.699	0.0011308	0.0015497	0.00047169	1143.1	1.5562e-05	1.706e-05	1234.7	239.48	1.4928e-05	1.743e-05	308.67	84.395	66.979	19.534	1.7802e-05	27.043	192.513	125.830	102.433	-23.673	127.280	222.495	-23.404	-16.133	12.192	139.655	-16.768	-9.950	-9.103	-2.275	214.349	-3.049	-8191	255	
9157.378	1	1	0	0	0.17982	0.22935	0.013049	0.1928	0.20444	0.093622	0.076824	0.092814	0.16368	0.083713	0.15504	0.2654	0.044649	0.10748	0.11596	0.088321	-2.0771	-3.0938	-2.6375	-2.6437	-3.3333	-2.5687	-2.9958	-3.125	-2.3063	-3.0104	-2.8396	-2.4813	-3.3312	-2.4125	-2.8396	-3.3229	242.016	311.988	58.146	261.442	270.481	322.710	192.918	97.181	65.192	37.267	238.782	277.610	144.468	87.529	53.988	-4.194	0.00011392	0.00027196	0.00013097	1151.5	3.4551e-06	3.751e-06	1238	235.13	5.6112e-06	2.6249e-06	302.14	81.044	64.118	18.246	6.1192e-06	25.777	0.0011334	0.0016417	0.00045565	1141.2	1.5491e-05	1.8067e-05	1233.4	239.66	1.5529e-05	1.8307e-05	308.07	84.322	66.971	19.501	1.6848e-05	27.033	214.470	180.211	27.414	-23.705	183.283	120.092	-23.264	-16.037	219.217	220.612	-16.568	-9.158	-9.195	-2.086	156.337	-3.007	-8191	255	
9157.474	1	1	0	0	0.36854	0.10753	0.20917	0.32785	0.082324	0.35009	0.24043	0.17652	0.1852	0.18843	0.095585	0.33227	0.040033	0.049876	0.057551	0.15985	-2.0146	-3.1604	-2.6021	-2.7125	-3.3979	-2.8187	-3.0187	-3.225	-2.2521	-3.2687	-3.0104	-2.3875	-3.2625	-2.7646	-2.6375	-3.2417	66.562	135.416	119.212	291.798	288.250	-23.555	173.238	249.356	-22.784	46.034	281.417	-11.145	172.200	191.703	154.951	262.534	0.0001037	0.0008379	0.00020886	1149.3	1.8783e-06	7.4978e-07	1234.7	237.42	4.4357e-06	3.9747e-06	300.98	81.229	63.938	18.532	3.1162e-06	25.722	0.0011793	0.0016709	0.0004384	1142.1	1.6164e-05	1.8699e-05	1232.2	240.18	1.6419e-05	1.8178e-05	307.01	84.333	67.066	19.612	1.6096e-05	27.076	166.663	23.230	29.869	-23.640	-10.442	295.801	-23.153	-16.262	184.870	140.434	-16.697	-9.179	-9.064	-2.426	-3.921	-2.697	-8191	255	
9157.570	1	1	0	0	0.1933	0.33113	0.13367	0.23437	0.29239	0.07897	0.17145	0.12328	0.25271	0.15303	0.22528	0.052731	0.13065	0.21889	0.26386	0.15696	-2.0396	-2.9	-2.9708	-2.5333	-3.1542	-2.8	-2.6271	-3.4021	-2.2812	-3.0417	-3.1292	-2.3854	-3.5104	-2.6917	-2.6583	-3.1854	44.200	321.404	88.933	245.537	324.336	202.105	255.696	-33.589	299.475	107.458	-21.983	220.781	152.087	-5.760	227.346	287.986	5.0607e-05	0.00049469	8.9e-05	1149.5	2.5091e-06	5.2561e-06	1237.1	236.39	5.2329e-06	4.4798e-06	302.84	80.823	63.913	18.427	4.3985e-06	25.703	0.001278	0.0016491	0.00043148	1141.6	1.7303e-05	1.8236e-05	1231.7	240.18	1.7644e-05	1.7931e-05	307.98	84.131	67.277	19.559	1.5994e-05	27.045	159.890	12.201	84.877	-23.570	173.822	142.641	-23.156	-16.083	131.692	81.996	-16.923	-9.274	-8.488	-2.263	84.453	-2.491	-8191	255	
9157.691	1	1	0	0	0.41274	0.036225	0.23113	0.21635	0.18028	0.26826	0.10963	0.23517	0.15784	0.11546	0.27439	0.15525	0.29921	0.13089	0.29026	0.14584	-2.1958	-2.875	-3.2458	-2.5958	-3.2938	-2.8958	-2.7667	-3.4833	-2.5979	-2.8563	-3.1354	-2.45	-3.1521	-2.8083	-2.3792	-3.4042	-11.286	60.601	164.388	-10.775	29.779	244.648	288.300	-25.849	147.997	218.996	278.901	18.144	143.441	-10.541	259.358	28.154	0.00012808	0.00039607	0.00011422	1149.7	5.6584e-06	5.016e-06	1231.3	236.48	2.1711e-06	6.0923e-06	301.46	81.306	64.06	18.519	2.1967e-06	25.466	0.0013346	0.0015858	0.00042377	1140.9	1.8289e-05	1.7637e-05	1229.8	240.14	1.8264e-05	1.7309e-05	307.48	84.304	67.424	19.575	1.5655e-05	27.082	179.830	18.325	115.241	-23.696	151.397	38.105	-23.219	-15.947	31.625	123.100	-16.453	-9.344	-8.771	-1.865	89.281	-2.262	-8191	255	
9157.787	1	1	0	0	0.18951	0.099206	0.21082	0.071709	0.12181	0.070509	0.21982	0.25294	0.12624	0.05387	0.21141	0.068682	0.29383	0.22049	0.20523	0.17823	-2.3438	-2.7021	-3.3646	-2.4917	-2.9354	-3.0896	-2.4667	-3.6479	-2.5625	-2.7146	-3.2396	-2.3729	-3.1958	-3.0708	-2.3667	-3.3417	158.745	145.995	9.283	219.233	266.099	62.985	219.364	249.332	-1.035	322.134	-24.341	61.213	310.350	-27.538	-4.001	19.869	0.00013195	0.00018286	5.7049e-05	1146.3	8.9554e-06	7.1418e-06	1236.9	236.56	2.2747e-06	4.6471e-06	302.77	81.23	64.395	18.489	1.2186e-06	25.798	0.0013493	0.0015197	0.00040508	1142.1	1.7914e-05	1.7073e-05	1229.6	240.8	1.8147e-05	1.6283e-05	307.52	84.656	67.493	19.524	1.5542e-05	27.212	225.992	108.382	13.524	-23.608	165.316	93.817	-23.190	-15.520	270.193	126.403	-16.414	-9.242	-8.645	-1.566	98.164	-2.782	-8191	255	
9157.859	1	1	0	0	0.072858	0.19322	0.14611	0.24504	0.14934	0.16639	0.26874	0.50989	0.1595	0.23883	0.11138	0.051964	0.10352	0.38055	0.15305	0.1376	-2.3438	-2.6021	-3.3396	-2.5396	-2.9	-2.9271	-2.4771	-3.2396	-2.5021	-2.5187	-3.4542	-2.4792	-3.1021	-3.1188	-2.4896	-3.4792	229.377	165.546	41.775	289.107	268.194	317.715	206.761	253.794	-3.162	278.911	301.899	129.441	157.285	92.188	199.861	292.015	4.6655e-05	0.00015274	0.00018202	1148.9	8.4587e-07	3.0396e-06	1238.9	236.1	6.2802e-06	5.4818e-06	300.62	81.079	64.214	18.292	1.4148e-06	25.65	0.0013285	0.001485	0.00040986	1142.9	1.7314e-05	1.6865e-05	1231.1	240.87	1.733e-05	1.6328e-05	307.88	84.834	67.167	19.474	1.5717e-05	27.249	178.815	45.541	98.643	-23.219	153.515	-24.532	-23.001	-16.007	87.655	96.191	-16.339	-9.186	-8.955	-1.974	185.365	-2.530	-8191	255	
9157.955	1	1	0	0	0.11448	0.40175	0.14122	0.2413	0.46448	0.18536	0.28457	0.073364	0.15528	0.18961	0.13829	0.11535	0.054138	0.11712	0.23944	0.098125	-2.475	-2.4917	-3.3083	-2.7229	-2.9479	-3.1021	-2.4417	-3.2062	-2.8792	-2.5792	-3.4875	-2.4708	-2.8979	-3.1396	-2.2792	-3.0583	229.415	128.502	326.004	246.018	28.870	76.677	258.839	206.727	33.319	264.652	101.764	-22.724	222.625	217.376	237.920	284.804	0.00010399	0.00050956	4.7731e-05	1149.7	6.094e-06	2.1285e-06	1234.4	236	3.4532e-06	1.7274e-06	302.1	81.19	63.974	18.332	5.2958e-06	25.743	0.0012881	0.0014498	0.00041262	1142.9	1.6733e-05	1.6502e-05	1230.3	241.44	1.6884e-05	1.5714e-05	307.74	84.845	66.946	19.428	1.7066e-05	27.25	174.528	84.137	325.275	-23.214	166.602	211.091	-22.977	-15.477	189.931	138.405	-16.232	-9.241	-9.262	-2.116	121.512	-2.623	-8191	255	
9158.051	1	1	0	0	0.28695	0.21191	0.17001	0.3444	0.082697	0.11815	0.19836	0.061446	0.11719	0.1833	0.23521	0.034268	0.33538	0.050243	0.2651	0.079529	-2.7271	-2.2604	-3.0396	-2.7583	-2.6229	-3.2333	-2.4437	-3.175	-3.1146	-2.4229	-3.5083	-2.6771	-2.5917	-3.225	-2.4417	-2.8542	201.440	283.683	166.746	244.364	0.630	309.228	245.520	62.544	18.493	100.452	124.541	154.589	312.260	200.376	24.453	291.535	0.00011518	0.00029226	8.9149e-05	1146.1	6.1085e-06	9.0884e-07	1235.4	235.97	2.0028e-06	6.0677e-06	301.47	80.892	64.341	18.355	5.9482e-06	25.66	0.0012334	0.001421	0.00044927	1142.2	1.6129e-05	1.6055e-05	1231.8	240.65	1.6322e-05	1.5675e-05	308.54	84.669	67.002	19.456	1.832e-05	27.139	197.007	281.702	73.443	-23.262	174.729	83.276	-23.097	-16.044	-17.430	89.426	-16.064	-9.392	-8.760	-1.936	193.228	-2.220	-8191	255	
9158.170	1	1	0	0	0.11135	0.11338	0.17246	0.021942	0.20114	0.21937	0.23791	0.052699	0.092251	0.24274	0.20858	0.32096	0.27666	0.10784	0.26941	0.11254	-2.6354	-2.3167	-3.2062	-2.8438	-2.3333	-3.3354	-2.55	-3.0958	-2.925	-2.2833	-3.0604	-2.8438	-2.5104	-3.3771	-2.45	-2.8542	31.577	261.061	27.486	150.441	176.979	121.718	212.830	51.452	289.479	61.478	51.223	0.451	64.085	-12.043	144.159	41.779	0.00013528	0.00027877	0.00017772	1146.5	3.2862e-06	1.9585e-06	1235.6	236.41	5.0727e-06	4.8576e-06	301	80.812	63.963	18.502	7.061e-07	25.578	0.0012332	0.0014566	0.00047253	1142.1	1.5897e-05	1.6425e-05	1233.1	240.71	1.6276e-05	1.6599e-05	308.83	84.512	66.667	19.486	1.8697e-05	27.042	200.241	69.043	93.070	-23.488	89.386	178.192	-23.283	-15.540	192.413	84.229	-16.295	-9.119	-8.700	-1.698	277.290	-2.446	-8191	255	
9158.266	1	1	0	0	0.15138	0.13069	0.048005	0.15209	0.11561	0.16708	0.10772	0.20307	0.24059	0.10118	0.17275	0.17735	0.094355	0.095001	0.15267	0.22991	-2.9313	-2.3125	-3.0521	-3.0167	-2.3958	-3.2229	-2.6437	-2.8688	-3.0958	-2.3125	-3.0979	-3.1354	-2.5687	-3.1771	-2.775	-2.975	171.264	201.876	100.314	310.009	-10.205	213.270	169.517	194.754	75.863	70.341	283.599	115.800	49.855	122.716	53.198	76.202	0.0001099	0.00045667	7.6014e-05	1139.9	4.8086e-06	2.9641e-06	1236.6	235.54	2.9841e-06	5.0909e-06	301.34	81.121	64.312	18.309	3.2327e-06	25.727	0.0012044	0.0015385	0.000474	1137.6	1.541e-05	1.7451e-05	1232.6	239.87	1.5977e-05	1.7581e-05	308.53	84.295	66.822	19.531	1.8567e-05	27.038	185.153	53.179	-2.686	-23.574	126.903	163.573	-23.180	-15.679	169.759	146.157	-15.976	-9.160	-8.808	-2.119	104.894	-2.190	-8191	255	
9158.362	1	1	0	0	0.12755	0.18262	0.10555	0.14567	0.093511	0.27377	0.063708	0.1457	0.27251	0.097614	0.14122	0.31572	0.13678	0.092723	0.076953	0.062551	-2.8396	-2.5104	-2.8479	-3.2313	-2.3646	-3.2604	-2.9104	-2.6646	-3.2479	-2.3083	-3.0083	-3.1312	-2.4708	-3.05	-2.9104	-2.375	92.775	204.422	101.912	299.561	299.039	224.195	4.829	314.811	231.480	3.398	49.964	121.325	273.719	-21.289	74.619	218.690	9.5543e-05	0.00051424	0.00022493	1139.3	1.5642e-06	2.6139e-06	1233.5	234.9	1.5208e-06	4.0859e-06	302.97	81.095	64.082	18.437	2.0309e-06	25.705	0.00119	0.0016689	0.00047158	1137.8	1.5804e-05	1.8489e-05	1230.2	239.63	1.6052e-05	1.8735e-05	308.59	84.431	66.873	19.597	1.8055e-05	27.028	211.680	50.374	1.814	-23.555	54.480	109.496	-23.160	-15.664	135.351	140.325	-15.944	-9.262	-8.715	-1.457	107.119	-2.390	-8191	255	
9158.483	1	1	0	0	0.15585	0.067602	0.19177	0.16355	0.090049	0.079474	0.033004	0.0010194	0.12895	0.14908	0.17351	0.027648	0.42564	0.12557	0.22894	0.28093	-2.8083	-2.5021	-2.9188	-3.3083	-2.2792	-3.2104	-2.9104	-2.5687	-3.3333	-2.4437	-2.9562	-3.1875	-2.4938	-3.1479	-2.8688	-2.625	140.436	118.635	10.496	234.137	200.140	68.494	137.334	180.000	-12.091	228.827	-17.561	12.781	306.482	315.456	43.148	-5.360	0.00010897	0.00077059	0.00022033	1146.8	2.133e-06	5.9214e-06	1236.1	234.85	7.9583e-07	1.0234e-06	301.56	80.823	63.737	18.361	1.6577e-06	25.628	0.0012418	0.0017604	0.00045613	1138.9	1.6418e-05	1.9338e-05	1228.8	239.36	1.6528e-05	1.9468e-05	307.67	84.316	66.786	19.618	1.7133e-05	26.942	180.089	60.377	9.190	-23.297	137.827	147.589	-22.851	-15.828	132.349	315.094	-15.960	-8.629	-8.345	-1.413	141.675	-2.275	-8191	255	
9158.555	1	1	0	0	0.23722	0.16724	0.22634	0.19329	0.25403	0.2556	0.1375	0.36817	0.26586	0.16194	0.21669	0.12466	0.10693	0.083836	0.069744	0.12941	-2.9125	-2.5292	-2.7438	-3.2729	-2.3771	-3.0271	-2.9417	-2.3833	-3.1833	-2.5979	-2.9188	-3.3625	-2.2875	-3.0354	-2.9562	-2.4479	124.601	-14.980	323.290	-29.818	226.615	37.759	58.367	-13.210	-15.514	80.157	129.181	228.998	202.008	60.284	98.494	126.448	0.00013114	3.1908e-05	0.0001827	1142.6	2.5053e-06	3.3613e-06	1230.8	236.35	1.031e-06	3.6515e-06	301.97	80.968	64.092	18.412	7.8829e-06	25.619	0.0012664	0.0017288	0.00043108	1135.3	1.7201e-05	1.8736e-05	1225	239.66	1.7809e-05	1.8973e-05	307.42	84.196	67.17	19.569	1.7102e-05	26.91	188.457	249.845	12.545	-23.093	185.184	104.776	-23.145	-15.520	290.050	98.019	-16.069	-8.760	-8.872	-1.370	113.450	-2.949	-8191	255	
9158.651	1	1	0	0	0.10884	0.12411	0.17882	0.31168	0.1794	0.11034	0.31373	0.11882	0.23993	0.2653	0.14958	0.11963	0.21502	0.12452	0.10255	0.1792	-2.75	-2.7729	-2.6917	-3.2333	-2.5667	-3.0729	-3.2583	-2.5021	-3.1583	-2.8896	-2.5479	-3.2729	-2.5729	-2.9521	-3.2771	-2.4896	275.623	218.659	94.981	274.011	249.966	74.835	262.965	168.584	160.243	34.509	314.569	195.664	-27.336	-8.624	263.752	38.085	0.00012788	0.00058268	0.00011134	1139.7	4.0327e-06	5.8807e-06	1231	236.08	3.8e-06	2.7447e-06	303.22	80.911	64.292	18.439	1.8649e-06	25.718	0.0013495	0.0016937	0.00042289	1135.2	1.8497e-05	1.8132e-05	1227.1	239.78	1.8383e-05	1.8448e-05	307.33	84.331	67.413	19.517	1.6843e-05	27.043	191.265	56.902	106.861	-23.427	85.255	125.933	-22.601	-15.291	198.336	90.621	-15.814	-8.908	-8.498	-1.523	103.662	-2.039	-8191	255	
9158.771	1	1	0	0	0.11181	0.043854	0.052862	0.29487	0.21246	0.30494	0.24201	0.20687	0.12701	0.063619	0.26545	0.036205	0.093048	0.32092	0.044659	0.24057	-2.925	-2.675	-2.4104	-3.1604	-2.3937	-2.7313	-3.4083	-2.5229	-3.2	-2.8896	-2.4375	-3.4958	-2.7313	-2.6167	-3.2771	-2.4792	52.874	192.985	59.676	176.051	168.074	-23.042	227.057	306.399	179.929	264.374	261.776	106.878	101.836	54.486	111.712	182.907	8.958e-05	0.00056478	0.00022034	1140.8	1.5144e-06	2.2147e-06	1233.4	235.67	6.0645e-06	1.5362e-06	301.05	80.944	64.255	18.471	5.5596e-06	25.484	0.0013937	0.0016308	0.00040937	1138.5	1.862e-05	1.7222e-05	1227.2	240.22	1.8307e-05	1.7553e-05	306.24	84.403	67.356	19.475	1.6142e-05	27.054	203.145	-8.541	35.348	-23.128	117.014	109.695	-22.948	-15.292	212.317	270.050	-16.217	-9.119	-8.787	-1.543	136.742	-2.457	-8191	255	
9158.868	1	1	0	0	0.27967	0.22121	0.077781	0.24997	0.29133	0.12463	0.11534	0.11629	0.098198	0.27817	0.16547	0.28074	0.028387	0.29009	0.079226	0.052924	-2.5146	-2.9042	-2.4146	-3.5167	-2.9	-2.7292	-3.3563	-2.5375	-2.9646	-2.9062	-2.6562	-3.4688	-2.6979	-2.5604	-3.2917	-2.5458	153.020	154.457	318.146	42.562	140.896	256.402	197.479	179.997	95.944	70.047	270.771	268.838	46.371	320.529	209.572	153.155	0.0001328	0.0007049	6.2463e-05	1140.5	1.5114e-06	4.3454e-06	1235.9	235.02	3.0501e-06	2.1612e-06	301.86	81.166	63.99	18.384	1.0784e-06	25.581	0.0013284	0.0015431	0.00040175	1136.9	1.7908e-05	1.6277e-05	1227	239.44	1.7369e-05	1.6701e-05	306.92	84.583	67.164	19.409	1.6056e-05	27.09	170.593	85.951	31.485	-23.019	216.339	191.100	-22.710	-15.876	110.070	198.122	-15.844	-8.941	-8.592	-1.511	137.784	-2.164	-8191	255	
9158.962	1	1	0	0	0.12286	0.044557	0.14519	0.16088	0.088696	0.279	0.17599	0.17821	0.10999	0.22963	0.14523	0.053562	0.13091	0.39817	0.19721	0.24482	-2.5938	-3.1146	-2.2833	-3.2708	-2.725	-2.5396	-3.5104	-2.575	-2.8792	-3.2708	-2.4958	-3.3792	-2.9708	-2.4896	-3.3646	-2.7333	-18.435	292.371	39.852	-9.539	184.809	-31.068	292.962	274.473	247.036	171.860	54.526	273.568	154.870	283.468	16.513	39.669	8.7531e-05	0.00028515	4.9651e-05	1139.8	4.646e-06	5.4482e-06	1230.4	236.06	1.4473e-06	4.641e-06	299.76	80.878	63.949	18.309	2.7454e-06	25.599	0.001272	0.0015048	0.00040963	1137.8	1.7146e-05	1.6019e-05	1225.6	240.36	1.6752e-05	1.6603e-05	306.5	84.675	66.941	19.388	1.7222e-05	27.144	161.513	44.082	68.219	-23.123	45.204	13.576	-22.965	-15.597	74.475	163.972	-16.234	-8.916	-8.771	-1.252	162.501	-2.750	-8191	255	
9159.060	1	1	0	0	0.36203	0.033436	0.11418	0.2704	0.17036	0.17818	0.20528	0.19914	0.31206	0.20157	0.1149	0.17953	0.31751	0.093501	0.052836	0.10421	-2.1354	-3.3208	-2.225	-3.1771	-2.9021	-2.5646	-3.4833	-2.7042	-2.7833	-3.3521	-2.4042	-3.0396	-2.8563	-2.3125	-3.35	-2.6521	300.642	67.380	68.033	288.241	129.147	66.097	302.133	297.746	27.372	-9.329	-26.470	308.814	259.646	-8.344	150.421	314.077	7.4565e-05	0.00061999	0.00019734	1142.1	8.5712e-07	3.6168e-06	1234	236.67	3.7046e-06	4.7008e-06	301.57	80.752	63.929	18.368	4.3658e-06	25.432	0.001226	0.0014711	0.00044007	1136.8	1.6709e-05	1.5949e-05	1225.5	240.35	1.6044e-05	1.6098e-05	307.55	84.468	66.922	19.393	1.7928e-05	27.123	190.976	84.552	96.908	-23.039	89.007	80.956	-22.790	-15.591	-8.392	53.306	-16.014	-8.543	-8.267	-1.536	149.047	-2.818	-8191	255	
9159.154	1	1	0	0	0.10124	0.16529	0.13958	0.15754	0.041515	0.29053	0.080364	0.19965	0.071022	0.07469	0.24994	0.29611	0.23804	0.16648	0.36855	0.10996	-2.1292	-3.3375	-2.4062	-3.0542	-2.9708	-2.5646	-3.4125	-2.8292	-2.4729	-3.3229	-2.5354	-2.8688	-3.2812	-2.4	-3.2479	-2.9521	192.318	201.790	301.581	297.357	-15.717	182.622	61.373	303.239	201.564	93.335	275.147	310.217	227.970	-18.060	19.141	308.807	0.00012859	0.000491	0.00019185	1136.8	6.4963e-06	9.4143e-06	1229.2	235.32	2.909e-06	2.9456e-06	301.97	81.218	63.895	18.175	8.2319e-06	25.533	0.00122	0.0014939	0.00047202	1136.6	1.6634e-05	1.6159e-05	1226.8	239.95	1.5997e-05	1.6336e-05	307.98	84.317	66.708	19.306	1.8528e-05	27.02	223.501	69.239	108.576	-23.003	158.316	112.746	-23.010	-15.612	84.839	167.855	-16.046	-8.896	-7.975	-1.774	113.519	-2.395	-8191	255	
9159.250	1	1	0	0	0.20168	0.15116	0.08395	0.078503	0.12778	0.16804	0.34099	0.20156	0.062549	0.011157	0.35485	0.15542	0.25896	0.081973	0.16671	0.20524	-2.1875	-3.3937	-2.4813	-2.8792	-3.1063	-2.3688	-3.2729	-2.9146	-2.3542	-3.0042	-2.6771	-2.7	-3.2896	-2.525	-3.1583	-2.8375	167.855	287.776	44.031	6.262	231.341	-10.626	215.481	318.635	70.864	208.883	243.278	290.697	164.994	190.623	86.600	72.646	1.9945e-05	0.00035411	0.00015685	1139.5	3.0122e-06	1.3151e-06	1233.8	234.96	4.3595e-06	4.6688e-06	298.8	80.966	63.501	18.396	2.6513e-06	25.531	0.0011736	0.0015176	0.00048337	1135.6	1.6163e-05	1.6718e-05	1228.2	239.35	1.5233e-05	1.7217e-05	307.04	84.233	66.633	19.454	1.811e-05	26.982	158.887	176.892	76.410	-23.202	235.417	189.435	-22.504	-15.437	230.255	147.577	-16.359	-8.899	-8.635	-1.678	258.164	-2.357	-8191	255	
9159.347	1	1	0	0	0.1584	0.061529	0.14491	0.23809	0.23251	0.20392	0.2159	0.13382	0.14561	0.0098278	0.17075	0.13853	0.040338	0.13807	0.13561	0.15522	-2.0396	-3.1958	-2.4875	-2.8583	-3.0917	-2.4292	-3.2188	-3.0438	-2.3896	-3.3312	-2.6188	-2.5729	-3.3292	-2.4938	-2.8396	-3.1479	307.818	-30.007	-30.304	242.355	276.127	-29.474	-23.046	229.468	-0.462	195.382	-6.702	186.726	-16.804	33.698	82.463	135.118	0.00011314	0.00018603	0.00011941	1136.5	2.8908e-06	4.9224e-06	1229.4	234.46	1.8544e-06	2.6197e-06	301.95	80.902	63.881	18.362	5.9915e-06	25.487	0.0011425	0.0016086	0.00046564	1132.8	1.5551e-05	1.7955e-05	1225.5	238.64	1.5046e-05	1.8116e-05	307.3	84.148	66.416	19.501	1.7481e-05	26.924	231.185	227.631	25.897	-23.140	196.347	99.367	-22.868	-15.859	217.375	130.948	-16.049	-8.227	-8.309	-1.536	59.216	-2.440	-8191	255	
9159.467	1	1	0	0	0.16558	0.25183	0.29764	0.098863	0.18708	0.12493	0.17856	0.059182	0.18661	0.026652	0.049951	0.049115	0.19401	0.12296	0.044221	0.087437	-1.8312	-3.2771	-2.7625	-2.6562	-3.4688	-2.5521	-2.7188	-3.2021	-2.4604	-3.1188	-2.7167	-2.4375	-3.2438	-2.3583	-2.9771	-3.2792	94.584	-6.574	219.605	254.496	47.087	102.997	304.388	-31.310	200.728	78.830	151.186	224.672	325.352	180.837	294.687	81.404	0.00016353	0.00015413	5.0899e-05	1132.9	5.6322e-06	4.9703e-06	1231.4	236.22	2.7175e-06	4.2455e-06	301.52	80.612	63.678	18.226	5.5083e-06	25.652	0.0011625	0.0016871	0.00045055	1129.3	1.5951e-05	1.8501e-05	1224.1	239.26	1.5645e-05	1.8799e-05	306.62	83.91	66.687	19.539	1.6739e-05	26.948	191.113	86.190	86.710	-23.319	208.643	75.125	-22.896	-15.559	175.928	138.114	-16.337	-8.877	-8.621	-1.825	113.499	-2.717	-8191	255	
9159.563	1	1	0	0	0.10744	0.10758	0.034658	0.33657	0.21506	0.069651	0.060303	0.073135	0.21995	0.22725	0.31837	0.13694	0.043081	0.13811	0.15753	0.19904	-2	-3.025	-2.9	-2.65	-3.1688	-2.5792	-2.9	-3.2021	-2.5083	-3.0333	-2.9667	-2.3792	-3.3	-2.4854	-2.5625	-3.2687	26.423	222.473	214.784	275.546	-14.258	269.937	35.340	274.519	104.392	266.116	226.891	249.714	309.789	11.008	163.050	-19.660	3.1263e-05	0.00084657	0.00014391	1133.8	2.7873e-06	7.9224e-06	1231.5	234.58	4.2276e-06	2.9955e-06	300.32	80.671	64.098	18.245	1.8462e-06	25.44	0.001218	0.0016752	0.0004306	1127.1	1.6562e-05	1.8508e-05	1222.8	238.74	1.6546e-05	1.831e-05	306.87	83.968	67.055	19.45	1.5814e-05	26.867	193.534	151.085	322.735	-23.683	219.242	51.757	-22.836	-15.778	184.122	83.878	-16.317	-8.888	-8.993	-1.959	139.827	-2.114	-8191	255	
9159.659	1	1	0	0	0.23872	0.28138	0.19825	0.28294	0.29072	0.082607	0.39809	0.14147	0.11512	0.12062	0.21856	0.21283	0.063766	0.42204	0.021982	0.31935	-2.0792	-2.9083	-2.7875	-2.5021	-3.1229	-2.7667	-2.65	-3.3708	-2.4167	-2.9958	-3.2313	-2.2417	-3.3042	-2.6354	-2.5563	-3.2542	-23.335	275.779	322.173	284.533	255.821	44.626	269.761	292.252	66.099	53.030	293.574	204.515	229.761	280.746	23.258	246.148	0.00012057	0.00049729	0.00016799	1140.1	2.4431e-06	7.3926e-06	1230.7	234.56	9.4513e-07	1.8035e-06	299.41	80.488	63.534	18.373	9.1099e-07	25.582	0.0012862	0.0016253	0.0004308	1131.4	1.7507e-05	1.8263e-05	1224.1	238.74	1.7851e-05	1.7599e-05	306.3	83.91	67.05	19.434	1.5805e-05	26.961	192.414	127.203	-2.593	-23.317	231.041	86.264	-22.840	-15.454	321.881	67.135	-16.285	-8.903	-8.321	-1.974	22.362	-1.996	-8191	255	
9159.731	1	1	0	0	0.19631	0.29103	0.14427	0.22949	0.12875	0.16832	0.19313	0.032582	0.21687	0.146	0.057844	0.27438	0.12427	0.12694	0.13106	0.2278	-1.9562	-2.8896	-3.0458	-2.3396	-3.0042	-2.9771	-2.7125	-3.3563	-2.6792	-2.5812	-3.1562	-2.2562	-3.1271	-2.8521	-2.3208	-3.4208	136.211	256.806	205.098	309.693	281.865	249.387	226.345	168.099	187.855	252.963	220.527	139.041	271.061	315.466	197.974	270.618	0.00010423	0.0010416	7.9436e-05	1139	5.6285e-06	3.1998e-06	1226	234.76	3.7865e-06	2.204e-06	300.8	81.067	63.778	18.36	2.8336e-06	25.451	0.0013397	0.0015632	0.00041116	1130.3	1.7818e-05	1.755e-05	1218.9	238.9	1.8302e-05	1.6987e-05	306.18	84.217	67.041	19.427	1.5531e-05	26.977	184.931	-11.253	59.012	-23.353	180.363	-16.504	-23.193	-15.693	183.275	104.602	-16.670	-9.309	-8.563	-2.548	158.539	-2.354	-8191	255	
9159.852	1	1	0	0	0.11533	0.23736	0.25825	0.11731	0.18381	0.08128	0.18847	0.36164	0.22909	0.013231	0.2343	0.16397	0.2597	0.17492	0.072218	0.27826	-2.175	-2.625	-3.1333	-2.3271	-3.1292	-3.0396	-2.5354	-3.2771	-2.6021	-2.6729	-3.1312	-2.5146	-2.8542	-2.8937	-2.2208	-3.1771	293.749	59.485	315.096	-10.926	304.800	-25.368	45.353	-27.026	1.779	272.957	233.086	144.470	285.848	297.620	173.068	29.572	0.00013924	0.00055466	0.00020274	1133.8	4.6269e-06	5.2211e-06	1224.2	235.07	4.5975e-06	6.9862e-06	300.31	80.567	64.082	18.229	4.9173e-06	25.631	0.0013332	0.0015094	0.00040785	1128.7	1.7879e-05	1.7055e-05	1219.4	239.41	1.7584e-05	1.6512e-05	305.37	84.291	66.958	19.364	1.5479e-05	27.124	165.094	23.911	54.338	-23.471	149.337	190.397	-23.054	-15.765	88.918	79.119	-16.862	-9.300	-8.906	-2.161	167.475	-3.148	-8191	255	
9159.948	1	1	0	0	0.15249	0.19529	0.12187	0.27395	0.10856	0.21624	0.18968	0.094929	0.019898	0.32327	0.15872	0.16016	0.16231	0.10086	0.19405	0.040559	-2.2812	-2.3812	-3.2604	-2.4354	-2.9208	-3.1146	-2.6042	-3.2958	-2.9125	-2.2562	-3.4417	-2.4437	-2.9208	-3.0604	-2.3688	-3.1208	222.617	18.246	73.004	-15.709	27.473	126.074	179.823	43.556	92.311	241.989	235.806	13.692	298.260	26.605	67.537	110.996	0.00010388	0.00037077	0.00019519	1131.1	3.988e-06	9.2402e-06	1223.1	235.13	3.4973e-06	3.1699e-06	300.77	80.953	64.164	18.384	1.4555e-06	25.667	0.0013101	0.0014568	0.00040987	1129.7	1.6896e-05	1.6487e-05	1218	239.77	1.6923e-05	1.58e-05	306.99	84.349	66.798	19.334	1.608e-05	27.047	179.813	91.094	60.454	-23.859	141.093	157.673	-23.502	-16.157	69.932	80.753	-16.464	-9.630	-9.297	-2.699	278.466	-2.604	-8191	255	
9160.044	1	1	0	0	0.0263	0.1746	0.27513	0.32976	0.13014	0.23604	0.10907	0.32061	0.19167	0.097817	0.097999	0.12368	0.23465	0.29515	0.38241	0.13346	-2.4167	-2.4604	-3.1271	-2.7667	-2.6458	-3.3063	-2.3958	-3.0187	-2.8937	-2.4271	-3.4208	-2.4333	-2.7333	-3.0729	-2.2146	-3.0771	17.229	71.199	26.995	324.859	287.075	286.527	320.026	255.625	307.620	256.375	230.739	76.496	291.796	1.785	11.025	-31.751	0.00012658	0.00032575	0.00017251	1130.9	2.856e-06	2.7583e-06	1224.7	234.71	1.1149e-06	5.3668e-06	300.44	80.791	64.046	18.314	3.0733e-06	25.555	0.001263	0.0014337	0.00042855	1132.3	1.6295e-05	1.6261e-05	1220.3	239.6	1.6469e-05	1.5625e-05	306.77	84.469	66.608	19.298	1.7166e-05	27.011	208.550	293.453	83.139	-23.563	75.596	166.261	-23.227	-16.089	132.078	128.795	-16.839	-9.639	-8.996	-2.640	105.144	-3.228	-8191	255	
9160.140	1	1	0	0	0.20374	0.35548	0.17673	0.102	0.14651	0.33503	0.21258	0.34239	0.32334	0.1373	0.084618	0.24054	0.10435	0.051218	0.10373	0.16392	-2.6271	-2.3146	-2.9667	-2.8042	-2.3375	-3.4771	-2.2792	-3.1854	-2.9146	-2.4479	-3.2896	-2.8604	-2.5979	-3.1917	-2.3375	-2.6958	61.591	117.068	246.471	89.216	35.984	149.045	211.506	306.220	68.934	186.377	275.281	202.093	187.845	168.324	136.566	38.878	6.3634e-05	7.2e-05	2.2042e-05	1132.4	6.1829e-06	1.934e-06	1226.1	234.7	3.0593e-06	2.5717e-06	302.23	80.786	63.903	18.316	2.325e-06	25.77	0.0012178	0.0014015	0.00044747	1130.6	1.5891e-05	1.5859e-05	1220.6	239.16	1.6042e-05	1.544e-05	307.22	84.533	66.613	19.345	1.7993e-05	26.978	188.945	224.515	135.425	-23.818	152.119	152.952	-23.618	-16.049	154.985	105.060	-16.438	-9.550	-9.259	-2.439	271.373	-2.877	-8191	255	
9160.259	1	1	0	0	0.09983	0.087445	0.25351	0.088901	0.16651	0.066347	0.1438	0.16445	0.18327	0.29519	0.037352	0.19599	0.15607	0.11802	0.29912	0.10304	-2.7062	-2.1813	-3.0458	-2.8604	-2.4792	-3.2521	-2.65	-2.8625	-3.0917	-2.3187	-3.1292	-2.9896	-2.5854	-3.1604	-2.6375	-2.7979	7.938	248.635	73.874	286.767	189.486	-23.045	297.631	312.571	-0.315	219.643	148.091	-0.525	312.470	222.257	312.878	237.303	0.00010862	0.00041384	9.6724e-05	1130.7	8.8536e-07	4.0447e-06	1228.2	234.61	2.0227e-06	3.9225e-06	299.32	80.427	63.885	18.304	5.1392e-06	25.542	0.0012153	0.0014325	0.00047487	1129.1	1.5426e-05	1.6416e-05	1224.1	238.53	1.5755e-05	1.6452e-05	307.25	84.118	66.43	19.388	1.8367e-05	26.876	197.938	64.333	81.270	-23.905	325.035	89.372	-23.639	-16.019	288.826	106.789	-16.899	-9.474	-9.008	-2.552	132.253	-2.544	-8191	255	
9160.355	1	1	0	0	0.14815	0.14983	0.0069038	0.087163	0.13442	0.15924	0.12668	0.16855	0.34364	0.30653	0.26768	0.079328	0.016541	0.15859	0.094195	0.46087	-2.8875	-2.1729	-2.8979	-3.1208	-2.2875	-3.2625	-2.8583	-2.7792	-3.2812	-2.3646	-3.1104	-2.9854	-2.5333	-3.1125	-2.6625	-2.6167	-14.700	263.090	41.562	198.484	151.280	70.399	243.389	298.181	169.737	173.059	201.964	73.470	-1.772	128.614	87.827	-33.288	7.4452e-05	0.00066721	0.0001265	1130.3	1.7872e-06	6.1306e-06	1218.9	235.95	2.478e-06	5.9224e-06	299.86	80.709	63.505	18.372	5.2244e-06	25.476	0.0011554	0.0015352	0.00045917	1128.3	1.5241e-05	1.7384e-05	1221	239.1	1.5356e-05	1.7651e-05	307.18	84.045	66.207	19.434	1.7767e-05	26.889	180.469	122.800	2.468	-23.794	325.879	139.193	-23.359	-16.129	258.268	164.373	-16.620	-9.474	-9.285	-2.100	146.317	-2.851	-8191	255	
9160.451	1	1	0	0	0.09172	0.16117	0.21861	0.22212	0.22724	0.32495	0.18138	0.13007	0.12213	0.053448	0.28739	0.10158	0.062657	0.14493	0.15603	0.072225	-3.0104	-2.3563	-2.7562	-3.1583	-2.3042	-3.2292	-2.8396	-2.5417	-3.1708	-2.6396	-3.1	-3.0312	-2.3438	-3.1271	-2.7188	-2.5917	282.161	45.644	119.995	295.060	219.223	-27.529	112.929	310.198	217.506	166.775	256.649	1.168	312.836	322.822	194.870	27.191	8.0743e-05	0.00014603	8.2981e-05	1127	3.0412e-06	4.0116e-06	1221	235.72	4.2133e-06	2.2988e-06	301.77	80.628	64.065	18.474	2.0895e-06	25.611	0.0011615	0.0016288	0.00044807	1127.5	1.5357e-05	1.8288e-05	1222	238.87	1.5534e-05	1.8371e-05	306.78	83.989	66.608	19.499	1.6965e-05	26.873	197.188	99.368	33.294	-23.695	140.574	215.389	-23.771	-15.930	160.561	171.066	-16.702	-9.104	-8.965	-1.900	263.980	-2.912	-8191	255	
9160.548	1	1	0	0	0.18781	0.16072	0.089205	0.18162	0.16231	0.088334	0.17643	0.39184	0.024666	0.032382	0.12887	0.28947	0.1808	0.068841	0.25459	0.19956	-2.9625	-2.3771	-2.8458	-3.1917	-2.4208	-3.1188	-3.175	-2.4292	-3.2875	-2.6312	-3.0938	-3.0792	-2.5292	-2.9938	-2.95	-2.4104	-29.275	49.868	-23.408	204.262	142.038	263.363	239.015	286.040	203.163	117.642	301.460	314.872	123.320	189.030	9.556	223.581	9.9163e-05	0.00081085	0.00011644	1137.4	3.5181e-07	8.2987e-06	1226.2	234.08	3.0011e-06	1.9305e-06	299.59	80.769	63.094	18.42	1.0492e-06	25.501	0.0012115	0.0016763	0.00042137	1130.5	1.6272e-05	1.849e-05	1222.4	238.5	1.6673e-05	1.8647e-05	306.33	84.108	66.685	19.531	1.6605e-05	26.747	162.647	102.273	25.603	-23.891	139.977	111.177	-23.431	-16.131	132.333	190.554	-16.601	-9.436	-8.786	-2.327	9.054	-2.721	-8191	255	
9160.644	1	1	0	0	0.10192	0.17663	0.1409	0.44547	0.057675	0.2365	0.18708	0.23343	0.15815	0.2292	0.24674	0.22434	0.10795	0.077158	0.14646	0.11173	-2.9604	-2.5104	-2.5604	-3.2646	-2.2771	-3.0563	-3.1479	-2.4083	-3.2062	-2.7042	-2.6104	-3.2896	-2.4813	-2.8583	-3.1562	-2.4833	-4.510	235.859	157.657	311.850	229.892	32.450	-25.858	21.908	-25.458	301.627	267.785	-22.764	45.712	318.937	287.774	-23.369	9.3389e-05	0.00094581	6.1697e-05	1134.1	8.8843e-06	3.4473e-06	1226.7	234.88	2.1265e-06	3.1841e-06	298.35	81.006	63.515	18.277	3.9827e-06	25.351	0.0012619	0.0016556	0.00041102	1128.3	1.7173e-05	1.7696e-05	1221.1	238.06	1.7117e-05	1.7629e-05	305.96	83.839	66.818	19.431	1.6376e-05	26.821	168.370	304.445	260.865	-23.839	218.441	54.008	-23.378	-16.093	135.082	134.723	-16.740	-9.116	-8.994	-1.738	91.591	-2.625	-8191	255	
9160.740	1	1	0	0	0.1401	0.1555	0.33575	0.18416	0.24142	0.25933	0.13836	0.41906	0.1693	0.061665	0.12519	0.1889	0.2258	0.14133	0.07813	0.25201	-2.8854	-2.5479	-2.3271	-3.2604	-2.4167	-2.7417	-3.1437	-2.3125	-3.0958	-2.9396	-2.5	-3.1979	-2.5854	-2.6	-3.1167	-2.4729	232.637	95.925	219.556	290.788	58.479	96.312	280.825	249.735	100.955	222.059	-5.633	309.019	38.600	288.867	313.541	19.269	0.00012717	0.00026351	0.00015471	1138.7	2.9932e-06	4.5056e-06	1224.5	233.89	4.153e-06	7.8496e-06	299.84	80.585	64.078	18.264	7.1866e-06	25.557	0.0013315	0.0015856	0.00040418	1130.1	1.7649e-05	1.6916e-05	1219.7	238.27	1.7725e-05	1.7205e-05	305.49	83.95	67.023	19.382	1.5858e-05	26.877	190.833	191.196	-3.521	-23.608	206.729	94.016	-23.346	-16.033	122.559	63.222	-16.705	-9.159	-8.823	-1.889	61.555	-2.689	-8191	255	
9160.860	1	1	0	0	0.010674	0.128	0.24486	0.12932	0.23733	0.25578	0.34085	0.17914	0.22843	0.099949	0.15098	0.21919	0.1523	0.073143	0.20808	0.051762	-2.7958	-2.8792	-2.3042	-3.3458	-2.675	-2.6813	-3.2542	-2.4146	-2.9604	-3.0125	-2.4646	-3.1583	-2.6146	-2.5021	-3.3146	-2.4083	74.675	147.720	137.067	-26.125	159.743	67.206	13.849	118.294	26.005	326.144	105.298	266.216	267.123	-16.249	139.157	193.493	0.00012332	0.00072108	0.00012722	1135.4	8.2342e-07	2.4898e-06	1224.6	234.57	9.3039e-07	2.6278e-06	300.78	80.578	63.722	18.333	4.5554e-06	25.558	0.0013293	0.0015289	0.00038342	1129.6	1.7815e-05	1.6286e-05	1219.6	239.43	1.7356e-05	1.6713e-05	305.89	84.207	66.847	19.313	1.5496e-05	27.08	169.707	6.651	48.700	-23.461	-0.159	-14.449	-23.294	-15.803	119.704	245.963	-16.436	-9.383	-8.984	-2.360	151.330	-2.463	-8191	255	
9160.955	1	1	0	0	0.065149	0.0032391	0.12339	0.16985	0.069726	0.088213	0.17844	0.21008	0.22159	0.15316	0.30471	0.39265	0.1772	0.13702	0.15508	0.31386	-2.6375	-3.025	-2.0979	-3.25	-2.5083	-2.6521	-3.525	-2.5812	-2.8021	-3.2583	-2.325	-3.1146	-2.9104	-2.6229	-3.1667	-2.6125	288.052	92.041	0.322	284.184	47.771	141.180	211.773	266.692	33.201	315.882	221.974	312.404	154.686	244.804	180.908	35.689	2.0903e-05	0.00042108	5.6708e-05	1135.8	1.4261e-06	9.5354e-07	1223	235.72	1.0093e-06	3.7787e-06	301	80.626	63.569	18.324	5.4721e-06	25.521	0.0012672	0.0014969	0.00039293	1131.1	1.6938e-05	1.5876e-05	1218.3	239.6	1.652e-05	1.6169e-05	306.07	84.238	66.749	19.358	1.6019e-05	27.101	206.018	-7.631	72.739	-23.749	56.499	151.035	-23.076	-16.127	199.232	118.942	-16.677	-9.763	-9.340	-2.490	99.058	-2.537	-8191	255	
9161.028	1	1	0	0	0.12864	0.274	0.205	0.0859	0.1672	0.39911	0.19458	0.23234	0.079855	0.12034	0.28622	0.17065	0.22159	0.13042	0.35925	0.15006	-2.4125	-2.8812	-2.4708	-3.225	-2.9083	-2.3792	-3.2229	-2.5083	-2.6063	-3.1396	-2.2542	-3.1958	-2.8667	-2.3854	-3.1125	-2.6646	76.790	110.534	155.806	273.198	188.350	265.346	276.702	305.636	243.903	-5.601	-14.451	-10.042	-28.857	256.461	207.753	76.210	7.0761e-05	0.00037821	9.8482e-05	1133.3	5.8735e-06	1.7472e-06	1228.5	234.71	1.4624e-06	6.2415e-07	300.8	80.777	63.7	18.355	2.2454e-06	25.438	0.0012222	0.0014585	0.00040875	1131	1.6609e-05	1.5591e-05	1222.2	239.89	1.6116e-05	1.5879e-05	305.81	84.553	66.593	19.353	1.6686e-05	27.036	192.392	-4.994	12.443	-23.586	157.861	130.009	-23.361	-16.087	97.671	102.572	-16.577	-9.233	-8.872	-1.965	263.016	-2.680	-8191	255	
9161.149	1	1	0	0	0.077345	0.018222	0.13172	0.46083	0.15868	0.093953	0.10812	0.1389	0.22392	0.14557	0.27752	0.19234	0.19496	0.24091	0.28771	0.24127	-2.3875	-3.0917	-2.4625	-2.9938	-2.8875	-2.4625	-3.4646	-2.6896	-2.5604	-3.1854	-2.3917	-2.9813	-3.1625	-2.3812	-3.3792	-2.7771	306.240	295.215	203.290	309.113	163.928	293.830	-19.683	305.090	113.444	301.614	315.952	188.203	-16.786	137.014	8.851	162.653	0.00012142	0.00062001	7.9763e-05	1135.9	3.3362e-06	5.5661e-06	1228.1	235.91	3.1452e-06	3.5278e-06	300.27	80.659	63.431	18.311	5.3852e-06	25.4	0.001185	0.0014292	0.00043514	1129.2	1.6318e-05	1.5301e-05	1222.7	239.53	1.5569e-05	1.575e-05	307.08	84.31	66.498	19.278	1.7882e-05	26.945	188.935	105.753	166.953	-23.688	271.143	149.076	-23.308	-16.193	144.874	180.495	-16.329	-9.298	-8.940	-2.348	129.715	-2.903	-8191	255	
9161.243	1	1	0	0	0.067487	0.25051	0.12361	0.26824	0.20298	0.19538	0.11719	0.075801	0.089753	0.031875	0.03395	0.26535	0.067636	0.13135	0.066308	0.36503	-2.1688	-3.175	-2.4083	-2.9313	-3.0812	-2.2792	-3.3854	-2.6792	-2.5854	-3.2125	-2.5479	-2.8083	-3.1875	-2.3646	-3.0896	-2.7875	247.308	13.512	151.634	266.491	147.539	274.669	190.805	161.844	163.412	4.211	248.355	45.734	254.009	201.287	322.427	251.714	2.7939e-05	0.00033261	4.6149e-05	1132.1	1.5871e-06	5.7116e-06	1224.2	234.42	4.4997e-06	6.2968e-06	300.77	81.008	63.855	18.27	6.174e-07	25.402	0.0011671	0.0014734	0.0004607	1129.7	1.6048e-05	1.589e-05	1222.5	239.29	1.55e-05	1.655e-05	307.39	84.22	66.589	19.392	1.8368e-05	26.97	152.498	7.464	22.014	-23.354	103.843	300.638	-23.325	-16.078	323.719	195.021	-16.559	-9.515	-9.199	-2.246	-10.170	-3.166	-8191	255	
9161.339	1	1	0	0	0.42065	0.074574	0.036965	0.090729	0.065998	0.12435	0.35269	0.13292	0.16583	0.13985	0.24496	0.17311	0.0871	0.082253	0.12629	0.32764	-2.0104	-3.1896	-2.4521	-2.7167	-3.3479	-2.3458	-3.3292	-2.9333	-2.5604	-3.2271	-2.525	-2.6083	-3.0917	-2.5812	-3.0687	-2.9167	254.097	103.930	-3.456	0.775	292.111	283.248	287.950	163.265	123.073	247.269	288.726	57.264	282.081	10.347	285.810	34.805	7.8317e-05	0.00050522	4.4473e-05	1134.2	1.6585e-06	6.3612e-06	1225.9	234.21	4.4853e-06	2.7268e-06	300.8	80.862	63.643	18.296	4.9196e-06	25.622	0.0011502	0.0015416	0.00047201	1128.5	1.5643e-05	1.6845e-05	1222	238.48	1.4786e-05	1.7488e-05	307.41	84.104	66.447	19.376	1.7681e-05	26.933	235.331	74.491	-16.918	-23.557	-8.977	121.796	-23.250	-16.152	125.968	311.399	-17.038	-9.512	-9.319	-2.121	95.140	-2.634	-8191	255	
9161.436	1	1	0	0	0.022995	0.25452	0.25593	0.10614	0.069758	0.16863	0.36453	0.072767	0.18272	0.16118	0.095705	0.14821	0.15631	0.02861	0.095301	0.055319	-2.0229	-3.1271	-2.7812	-2.7458	-3.2854	-2.3292	-3.1521	-3.2938	-2.3458	-3.1833	-2.8125	-2.5458	-3.3083	-2.3354	-2.8479	-3.1312	209.131	71.442	12.796	250.225	-19.500	37.650	232.833	215.380	123.813	295.784	-10.633	132.561	286.345	31.318	243.396	19.249	0.00014596	6.4234e-05	0.00012148	1134	1.4131e-06	3.5912e-06	1224.2	233.73	2.1035e-06	3.651e-06	300.9	80.851	63.881	18.29	5.036e-06	25.558	0.0011268	0.0016138	0.00045693	1128.4	1.5428e-05	1.8117e-05	1222.8	238.68	1.5386e-05	1.8244e-05	306.99	84.06	66.678	19.519	1.6987e-05	26.943	180.377	10.900	28.690	-23.380	190.849	185.864	-23.176	-15.912	216.248	173.484	-16.419	-9.117	-9.075	-2.014	117.741	-2.730	-8191	255	
9161.556	1	1	0	0	0.17357	0.16627	0.24689	0.2336	0.17874	0.12571	0.33942	0.086774	0.13253	0.19536	0.31223	0.39801	0.31453	0.12739	0.2349	0.24941	-2.0375	-3.1562	-2.7083	-2.6229	-3.3396	-2.4958	-2.9083	-3.2625	-2.3917	-2.8812	-2.9188	-2.3417	-3.2458	-2.4854	-2.6646	-3.0229	80.392	287.823	-1.516	299.686	227.251	189.625	227.007	271.362	259.667	241.903	174.373	231.347	309.705	227.588	84.711	325.338	0.00010074	0.0004111	4.846e-05	1137.9	2.1472e-06	1.8201e-06	1221.3	234.26	2.7308e-06	5.0503e-06	302.69	80.721	63.773	18.277	3.381e-06	25.468	0.0011681	0.0016404	0.0004421	1129.4	1.6032e-05	1.8636e-05	1220	238.28	1.5999e-05	1.8483e-05	306.83	83.939	66.773	19.464	1.6277e-05	26.824	169.366	-3.262	117.170	-23.481	161.975	269.144	-23.203	-15.857	-20.577	163.230	-16.495	-8.904	-8.701	-1.835	243.801	-2.351	-8191	255	
9161.652	1	1	0	0	0.053459	0.23302	0.24609	0.070266	0.14001	0.28427	0.18132	0.26659	0.065823	0.052703	0.17179	0.15232	0.17247	0.1343	0.16344	0.29586	-1.8167	-3.0438	-3.1146	-2.4021	-3.3396	-2.4917	-2.8229	-3.2896	-2.5333	-3.1188	-3.0729	-2.2562	-3.2271	-2.8021	-2.6437	-3.2604	-1.614	314.222	2.955	-0.772	155.446	215.931	264.078	241.371	72.334	50.604	197.679	56.874	-5.941	179.753	249.393	236.004	0.00017045	0.00064301	0.00012192	1133.3	2.2518e-06	6.2861e-06	1227.4	234.81	6.1113e-06	3.1374e-06	301.94	80.888	63.803	18.393	2.6073e-06	25.454	0.0012424	0.0016694	0.00043125	1125.7	1.692e-05	1.8236e-05	1220.7	238.7	1.7156e-05	1.7887e-05	306.53	83.919	66.93	19.482	1.5863e-05	26.827	198.276	100.848	50.889	-23.516	288.257	116.524	-23.171	-15.766	202.139	207.469	-16.237	-9.299	-8.586	-1.731	168.623	-2.458	-8191	255	
9161.724	1	1	0	0	0.41247	0.15637	0.17084	0.072186	0.1983	0.10701	0.12221	0.21541	0.12185	0.1784	0.0898	0.095215	0.077047	0.22355	0.15615	0.090881	-1.9813	-2.8812	-3.2021	-2.3625	-3.0396	-2.4875	-2.6917	-3.3417	-2.4792	-2.9854	-3.1292	-2.3958	-3.1437	-2.8479	-2.4833	-3.2687	270.641	-5.670	170.968	288.513	255.366	323.500	160.094	311.218	278.329	217.169	273.403	-26.052	146.775	322.697	158.600	103.833	0.00013035	0.00038346	1.2806e-05	1132.4	5.0138e-06	3.6895e-06	1227.1	235.37	1.1218e-06	7.6115e-06	303.28	80.379	63.535	18.352	1.4474e-06	25.491	0.0013096	0.001567	0.00041937	1126	1.7891e-05	1.7658e-05	1217.2	238.49	1.7831e-05	1.7274e-05	306.62	83.805	67.034	19.419	1.563e-05	26.893	191.999	41.954	88.182	-23.571	143.952	104.082	-23.186	-16.021	322.504	103.035	-16.633	-9.345	-8.876	-2.062	-23.140	-2.740	-8191	255	
9161.820	1	1	0	0	0.13258	0.19068	0.019579	0.15171	0.037211	0.27717	0.22232	0.099913	0.21538	0.11585	0.36299	0.33055	0.20067	0.12205	0.34092	0.059246	-2.1354	-2.6979	-3.0312	-2.5021	-3.0146	-2.775	-2.4854	-3.1479	-2.5187	-2.8271	-3.1333	-2.6437	-2.8792	-2.9646	-2.4813	-3.025	227.755	-14.854	55.314	275.966	121.494	21.913	269.284	160.959	74.278	218.120	257.018	-23.872	313.770	264.491	267.740	-25.159	3.9744e-05	0.00025268	6.6787e-05	1129.4	9.9492e-07	2.9721e-06	1230.4	234.77	2.8932e-06	4.1481e-06	301.34	80.58	63.727	18.328	6.2368e-06	25.67	0.0013499	0.0015292	0.000407	1126.5	1.7897e-05	1.7071e-05	1218.4	238.94	1.769e-05	1.6205e-05	305.68	83.975	66.849	19.383	1.5119e-05	26.994	187.268	-14.825	185.553	-23.650	49.405	107.402	-23.117	-16.019	8.538	100.575	-16.401	-9.742	-8.629	-1.734	212.553	-2.129	-8191	255	
9161.941	1	1	0	0	0.17359	0.21328	0.19234	0.063085	0.19119	0.19393	0.24294	0.12139	0.058945	0.17441	0.1171	0.019068	0.0072434	0.27188	0.26423	0.26365	-2.2979	-2.6312	-3.0729	-2.4521	-2.8729	-3.1604	-2.4542	-3.0833	-2.6417	-2.7	-3.2833	-2.6667	-3.0042	-2.9375	-2.5083	-3.375	205.076	-0.676	281.034	89.086	11.663	176.662	308.705	299.124	64.927	125.627	194.212	0.413	218.702	266.228	6.460	317.852	5.4135e-05	0.00031607	8.4902e-05	1129.1	5.226e-06	2.9063e-06	1222.7	234.94	3.1403e-06	3.8014e-06	302.2	81.195	63.733	18.406	1.722e-06	25.562	0.001305	0.0014487	0.00039954	1126.9	1.7236e-05	1.6569e-05	1214.9	239.52	1.7381e-05	1.6269e-05	306.43	84.37	66.657	19.347	1.5504e-05	27.014	174.901	18.231	68.769	-23.789	68.244	99.469	-23.161	-15.865	231.458	13.894	-16.387	-9.137	-8.441	-2.076	87.902	-2.559	-8191	255	
9162.035	1	1	0	0	0.12213	0.081735	0.25482	0.19174	0.077905	0.20657	0.22926	0.066807	0.1177	0.36231	0.17754	0.19579	0.38842	0.14625	0.19182	0.14872	-2.5042	-2.6167	-3.1937	-2.7396	-2.875	-3.2396	-2.4	-3.2458	-2.9417	-2.525	-3.1896	-2.475	-2.7396	-3.1583	-2.4604	-3.1604	23.354	-16.284	76.977	-7.092	176.719	194.392	305.720	263.346	88.691	311.082	272.933	-20.459	-29.143	278.625	315.847	289.871	6.019e-05	0.00018316	5.4989e-05	1129.3	3.1372e-06	5.6597e-06	1225.3	234.32	2.162e-06	3.5271e-06	302.25	81.032	63.684	18.343	6.3447e-06	25.471	0.0012794	0.0014189	0.0004081	1128.3	1.6234e-05	1.6051e-05	1217.8	239.46	1.653e-05	1.5587e-05	306.78	84.412	66.662	19.356	1.6615e-05	27.031	173.662	65.358	78.522	-23.444	141.370	48.880	-23.079	-16.078	159.540	143.278	-16.614	-9.425	-8.751	-2.186	196.593	-2.689	-8191	255	
9162.133	1	1	0	0	0.14148	0.19165	0.092799	0.19999	0.112	0.35498	0.11502	0.21782	0.26786	0.20671	0.23946	0.15816	0.10053	0.33433	0.28396	0.187	-2.4292	-2.3	-3.2021	-2.7625	-2.5062	-3.2687	-2.6833	-3.0396	-3.0167	-2.4458	-3.3646	-2.6437	-2.6063	-3.3937	-2.3063	-3.2167	274.911	32.165	215.646	291.171	69.756	61.211	210.280	270.858	7.453	261.117	211.397	2.055	266.552	279.435	276.416	326.246	5.794e-05	0.00024231	8.9655e-05	1132.6	2.514e-06	7.9102e-06	1219.8	234.3	4.591e-06	4.3728e-06	300.55	80.556	63.461	18.346	3.2881e-06	25.636	0.0012286	0.0013978	0.00043316	1129.4	1.5998e-05	1.5721e-05	1218.6	239.26	1.6199e-05	1.5367e-05	306.91	84.336	66.411	19.292	1.7624e-05	26.996	136.478	177.507	185.425	-23.553	184.137	104.810	-23.218	-15.754	142.579	48.610	-16.636	-9.495	-9.039	-2.192	128.315	-2.690	-8191	255	
9162.252	1	1	0	0	0.17251	0.16611	0.23877	0.33094	0.14506	0.20836	0.26417	0.073017	0.13735	0.24094	0.28866	0.11715	0.042887	0.074659	0.061805	0.086	-2.6854	-2.1854	-3.1292	-2.5208	-2.4479	-3.1104	-2.6729	-2.8729	-2.9833	-2.2708	-3.1604	-2.6958	-2.4896	-3.1083	-2.4938	-2.8312	123.201	182.740	183.942	-32.028	307.403	187.112	-29.070	294.526	306.041	27.959	261.826	108.728	118.416	305.527	274.033	321.793	6.0908e-05	0.00026836	0.00012415	1129	1.4803e-06	1.2029e-06	1218.8	233.92	5.8568e-07	8.5935e-06	300.36	80.214	63.375	18.45	2.8688e-06	25.532	0.0012045	0.0014054	0.00046049	1127.1	1.5447e-05	1.5956e-05	1219.1	238.72	1.6059e-05	1.5754e-05	307.18	83.977	66.406	19.371	1.7889e-05	26.91	173.717	60.203	229.241	-23.578	191.788	188.318	-23.253	-15.986	122.583	177.365	-16.717	-9.747	-8.690	-2.329	208.389	-2.746	-8191	255	
9162.324	1	1	0	0	0.11287	0.28436	0.19985	0.083263	0.15725	0.22147	0.037298	0.4287	0.022967	0.099013	0.22073	0.30382	0.18764	0.18637	0.032426	0.27669	-2.8937	-2.3667	-2.9813	-2.7687	-2.4208	-3.2125	-2.8083	-2.7021	-3.2167	-2.4813	-3.0896	-3.0167	-2.4104	-3.3042	-2.7375	-2.6271	284.269	313.193	45.982	269.161	-24.724	37.732	151.566	258.395	206.205	263.433	22.602	190.220	251.662	26.620	190.301	-16.000	7.5374e-05	0.00037555	0.00017858	1132.7	4.4205e-06	4.9352e-06	1222.5	234.89	5.4132e-06	4.906e-06	301.5	80.46	63.332	18.271	3.8415e-06	25.509	0.0011677	0.0014707	0.00047032	1127	1.5161e-05	1.6823e-05	1220.7	238.51	1.5578e-05	1.6868e-05	308.06	84.119	66.324	19.445	1.8063e-05	26.897	208.907	151.369	306.531	-23.520	140.999	69.784	-23.454	-16.317	224.641	174.515	-16.628	-9.548	-8.843	-2.047	96.728	-2.932	-8191	255	
9162.420	1	1	0	0	0.086142	0.23665	0.15406	0.18314	0.030363	0.25217	0.24582	0.16832	0.087137	0.11017	0.37575	0.12458	0.18281	0.087389	0.16537	0.10722	-2.7333	-2.2062	-2.95	-2.9979	-2.2354	-3.2646	-2.8937	-2.7854	-3.3417	-2.3396	-2.9354	-3.0854	-2.275	-3.1354	-2.7125	-2.6354	165.312	-14.035	132.479	291.703	170.442	175.957	-33.141	316.099	230.785	-25.084	321.926	324.850	229.623	163.946	238.740	-20.302	0.00011389	0.00036121	5.1275e-05	1131.8	2.9405e-06	4.8709e-06	1222.7	235.54	5.7818e-06	6.2137e-06	300.11	80.92	63.529	18.205	4.7223e-07	25.448	0.0011572	0.0015947	0.00045822	1126.1	1.5152e-05	1.8122e-05	1220.4	238.49	1.5444e-05	1.7717e-05	306.28	83.892	66.378	19.459	1.7324e-05	26.836	168.368	162.349	-1.176	-23.705	174.357	317.804	-23.347	-15.826	199.197	57.366	-16.558	-9.259	-8.929	-2.138	138.889	-2.724	-8191	255	
9162.540	1	1	0	0	0.33828	0.21044	0.30151	0.17855	0.064159	0.14498	0.26239	0.17956	0.11241	0.23028	0.24553	0.072213	0.27729	0.14659	0.047298	0.033809	-2.7792	-2.2083	-2.8583	-3.175	-2.3729	-3.0333	-2.9479	-2.6729	-3.2896	-2.3063	-2.9021	-2.9813	-2.3729	-3.1771	-2.875	-2.4854	-23.287	115.767	-0.270	285.244	141.767	28.018	289.854	230.537	284.645	296.705	17.113	84.139	253.684	292.188	163.256	-29.041	0.00010907	0.00048281	0.0003183	1137.2	2.3114e-06	6.0458e-06	1225	235.52	2.865e-06	4.3394e-06	300.37	80.666	63.742	18.348	6.5224e-06	25.513	0.0011713	0.001669	0.00043198	1128	1.5407e-05	1.8156e-05	1220.9	239.03	1.5787e-05	1.8634e-05	306.57	84.068	66.592	19.511	1.6731e-05	26.801	183.973	36.475	22.614	-23.603	147.686	111.901	-23.560	-16.084	81.884	47.205	-16.624	-9.263	-9.045	-2.041	110.374	-2.778	-8191	255	
9162.637	1	1	0	0	0.018095	0.19606	0.099472	0.26774	0.15279	0.052074	0.31431	0.11709	0.13516	0.24429	0.24058	0.26012	0.011226	0.4084	0.23024	0.062986	-2.8583	-2.6562	-2.4729	-3.4083	-2.3479	-3.2292	-3.05	-2.5146	-3.25	-2.5854	-2.7687	-3.2708	-2.3083	-2.9625	-2.9833	-2.5542	19.956	-25.339	-5.649	28.116	-13.263	271.747	258.188	37.230	229.429	198.991	92.178	180.900	-13.851	38.899	224.755	242.531	9.8386e-05	0.00056288	2.6014e-05	1135.4	5.6811e-06	4.9661e-06	1222.6	233.62	1.7079e-06	4.3073e-06	300.79	80.368	63.933	18.367	2.4341e-06	25.544	0.0012194	0.0016758	0.00041826	1127.7	1.6422e-05	1.8111e-05	1219.2	238.18	1.6751e-05	1.7999e-05	305.95	83.733	66.88	19.474	1.6391e-05	26.805	181.819	41.259	106.341	-23.890	260.998	91.539	-23.537	-16.027	194.644	160.258	-16.645	-9.299	-9.229	-1.945	21.788	-2.794	-8191	255	
9162.733	1	1	0	0	0.10418	0.13299	0.16214	0.19316	0.21973	0.20511	0.053278	0.42186	0.33866	0.075947	0.23307	0.14327	0.18834	0.10579	0.22969	0.3303	-2.8542	-2.7188	-2.525	-3.3917	-2.3688	-2.9708	-3.1458	-2.4479	-3.2938	-2.6854	-2.5604	-3.4	-2.3375	-3.0479	-2.9646	-2.3104	163.702	287.297	178.929	319.990	60.941	47.831	214.668	298.809	73.200	12.282	294.935	-26.406	-14.812	176.572	325.895	112.432	0.0001647	0.00025692	0.00017545	1131	2.753e-06	6.3948e-06	1224.3	234.64	5.2489e-06	4.6503e-06	301.09	80.654	63.193	18.179	3.1319e-06	25.612	0.0012843	0.0016273	0.00040818	1127	1.7306e-05	1.734e-05	1218.6	238.39	1.764e-05	1.7412e-05	306.43	84.097	66.886	19.37	1.6009e-05	26.799	160.039	-11.624	29.287	-23.837	210.504	98.208	-23.447	-16.072	183.616	199.074	-16.855	-9.149	-9.063	-2.396	85.361	-3.039	-8191	255	
9162.853	1	1	0	0	0.12205	0.16939	0.095786	0.22411	0.25399	0.12652	0.21551	0.16979	0.098952	0.29386	0.15802	0.027742	0.087979	0.22308	0.11533	0.23551	-2.8771	-2.8125	-2.5438	-3.4833	-2.5083	-2.8187	-3.1625	-2.4104	-3.0271	-2.9771	-2.5708	-3.4292	-2.3521	-2.6708	-3.3271	-2.3333	272.017	114.785	119.994	319.976	287.255	-14.389	318.510	262.380	278.576	31.494	246.355	15.808	-25.188	283.412	-29.027	290.172	0.00010653	0.00050309	5.3545e-05	1133.5	3.3997e-06	4.881e-06	1220.5	234.04	6.051e-06	2.5838e-06	300.73	81.192	63.484	18.347	2.6478e-06	25.34	0.001317	0.0015364	0.00039091	1128.6	1.7861e-05	1.6506e-05	1216.8	238.66	1.7702e-05	1.7015e-05	305.73	84.323	66.871	19.398	1.5601e-05	26.852	176.417	15.306	89.496	-23.650	-10.135	74.229	-23.281	-15.987	191.300	50.306	-16.545	-9.089	-9.486	-1.945	57.097	-2.733	-8191	255	
9162.925	1	1	0	0	0.11147	0.029629	0.065811	0.41166	0.06321	0.1189	0.20624	0.25824	0.17615	0.11383	0.1049	0.07391	0.27871	0.18961	0.21315	0.01009	-2.9313	-2.8646	-2.3521	-3.3438	-2.6458	-2.6458	-3.2542	-2.4271	-2.8646	-3.0625	-2.4354	-3.3146	-2.6042	-2.5646	-3.2271	-2.3563	-12.024	75.611	52.565	275.771	1.970	143.139	285.725	258.448	271.046	-10.595	226.193	56.456	36.618	28.154	154.039	118.804	8.8525e-05	0.00047253	3.664e-05	1135.3	1.3684e-06	7.9952e-06	1226.3	234.95	4.9059e-06	3.4368e-06	301.46	80.858	63.697	18.505	4.1881e-06	25.471	0.0013043	0.0015223	0.00039155	1129	1.7633e-05	1.6158e-05	1219	238.97	1.7257e-05	1.6474e-05	305.39	84.422	66.832	19.387	1.5711e-05	26.998	168.203	15.468	275.762	-23.627	82.637	60.177	-23.320	-15.905	236.623	150.873	-16.528	-9.434	-9.306	-2.441	192.318	-2.540	-8191	255	
9163.021	1	1	0	0	0.12767	0.090582	0.22173	0.31595	0.064061	0.28396	0.039758	0.20729	0.19071	0.16341	0.099979	0.11603	0.12983	0.3503	0.14407	0.030016	-2.5312	-3.0792	-2.2417	-3.4271	-2.55	-2.5167	-3.4854	-2.2083	-2.8833	-3.0917	-2.5187	-3.0396	-2.9083	-2.5833	-3.2458	-2.6792	139.854	73.037	36.193	325.537	157.966	92.653	229.234	-16.100	59.954	92.595	175.027	70.488	198.617	257.298	75.777	149.702	7.1795e-05	0.00024614	8.49e-05	1132.7	5.5894e-06	5.8672e-06	1224.3	234.95	2.1135e-06	3.3766e-06	301.21	81.059	63.56	18.332	3.2422e-07	25.663	0.0012606	0.001478	0.00040182	1130.9	1.7059e-05	1.5829e-05	1217	239.3	1.6437e-05	1.638e-05	305.59	84.523	66.689	19.317	1.6372e-05	27.08	166.490	61.343	17.649	-23.726	122.232	72.446	-23.168	-16.098	191.744	152.688	-16.670	-9.566	-9.047	-2.424	89.326	-2.677	-8191	255	
9163.117	1	1	0	0	0.1984	0.11613	0.0049806	0.16033	0.049821	0.2075	0.016629	0.098161	0.19334	0.20148	0.09683	0.25186	0.20654	0.073138	0.054163	0.26289	-2.4896	-3.2229	-2.1688	-3.1396	-2.7875	-2.5125	-3.4146	-2.5438	-2.6708	-3.0771	-2.1646	-3.0229	-2.8083	-2.2125	-3.375	-2.6083	231.368	305.147	16.065	229.007	-11.766	325.458	262.695	256.967	7.905	30.142	-10.407	244.866	113.343	-18.787	280.634	293.511	0.00010429	0.00042214	4.1533e-05	1131.4	1.8776e-06	3.9941e-06	1228	234.56	5.0726e-06	7.3141e-06	300.54	80.643	63.703	18.286	2.2476e-06	25.441	0.001219	0.0014549	0.00042563	1130.7	1.6389e-05	1.5684e-05	1221.4	239.25	1.6094e-05	1.5953e-05	306.29	84.473	66.81	19.323	1.7206e-05	26.963	169.870	70.651	194.124	-23.421	154.586	149.180	-23.454	-16.220	199.862	135.212	-16.539	-9.189	-9.048	-2.370	212.683	-2.843	-8191	255	
9163.236	1	1	0	0	0.043623	0.26775	0.34716	0.07548	0.0797	0.19693	0.10408	0.052395	0.23124	0.098665	0.035414	0.22204	0.11921	0.12116	0.15115	0.023837	-2.4042	-3.1875	-2.3042	-2.9417	-3.0563	-2.4583	-3.3896	-2.7604	-2.5104	-3.1562	-2.6021	-2.9792	-3.0312	-2.4229	-3.05	-2.8625	195.271	95.901	163.931	-29.821	157.341	39.436	264.733	45.220	-15.470	247.961	-3.137	298.196	27.170	257.094	221.984	135.503	0.00010632	0.00038442	0.00013371	1132.6	4.1848e-06	2.3185e-06	1229.8	234.69	2.2149e-06	1.897e-06	301.77	80.16	63.671	18.369	2.2017e-06	25.628	0.0011766	0.0014363	0.00045144	1129.8	1.621e-05	1.5612e-05	1222.4	239.36	1.5576e-05	1.6048e-05	307.07	84.206	66.557	19.315	1.7965e-05	27.042	177.993	32.477	85.101	-23.637	129.683	155.707	-23.083	-16.525	114.986	114.810	-16.736	-9.276	-9.488	-2.262	138.191	-2.941	-8191	255	
9163.332	1	1	0	0	0.14032	0.06594	0.17474	0.3005	0.15547	0.15056	0.26056	0.22012	0.077468	0.20436	0.27057	0.1554	0.093002	0.12623	0.16993	0.23827	-2.2146	-3.0979	-2.5542	-3.0417	-3.0542	-2.3479	-3.4167	-2.8187	-2.4875	-3.225	-2.3625	-2.7479	-3.0979	-2.3083	-3.3187	-3.0667	255.264	5.418	257.696	248.091	303.210	192.871	294.821	256.894	40.263	209.365	163.328	-23.755	91.767	116.007	105.111	163.630	0.0001074	0.00047687	3.8545e-05	1129.7	5.9572e-07	1.52e-06	1227.2	234.85	4.5486e-06	2.5545e-06	300.49	80.817	63.499	18.172	2.873e-06	25.459	0.0011698	0.0014857	0.00046862	1127.3	1.581e-05	1.6186e-05	1222.1	239.2	1.5073e-05	1.6643e-05	307.08	83.932	66.456	19.373	1.8243e-05	26.847	208.065	23.267	-22.619	-23.740	97.218	16.068	-23.425	-16.280	216.999	283.735	-16.599	-9.100	-9.188	-2.048	111.577	-2.986	-8191	255	
9163.429	1	1	0	0	0.030731	0.16505	0.15877	0.12895	0.09386	0.043892	0.10989	0.19511	0.036589	0.1433	0.2693	0.19549	0.14248	0.06223	0.24164	0.054894	-1.8188	-3.2271	-2.4583	-2.7562	-3.3104	-2.55	-3.1521	-3.0417	-2.0896	-3.175	-2.7562	-2.5229	-3.3625	-2.3292	-2.9479	-3.0833	143.421	130.776	101.344	281.836	72.181	197.824	231.173	282.684	226.336	259.413	296.808	-15.651	117.883	-3.125	104.316	4.218	0.00011651	0.00040338	0.00022518	1135.7	4.1334e-06	2.8723e-06	1225.9	233.73	5.6872e-07	1.3456e-06	299.96	80.603	63.498	18.261	6.225e-06	25.643	0.0011524	0.0016039	0.0004848	1125.2	1.6147e-05	1.7633e-05	1219.9	238.8	1.5317e-05	1.8162e-05	307.32	84.043	66.286	19.466	1.7538e-05	26.914	183.626	83.439	85.695	-23.767	287.664	189.040	-23.456	-15.995	162.036	86.146	-16.768	-9.598	-9.343	-2.469	136.164	-3.114	-8191	255	
9163.525	1	1	0	0	0.17809	0.027211	0.095315	0.29469	0.028624	0.11903	0.14461	0.10178	0.23851	0.11337	0.066973	0.085421	0.16832	0.16312	0.2758	0.19897	-1.9854	-3.0729	-2.6521	-2.9188	-3.1667	-2.4833	-3.2687	-3.1354	-2.3542	-3.1771	-2.8667	-2.4708	-3.3542	-2.5542	-2.7208	-3.1708	258.891	142.236	138.613	-30.578	290.073	228.857	-19.982	307.625	6.530	96.134	194.480	9.112	-1.344	139.516	83.935	18.743	0.00013109	0.00036175	0.00013508	1133.2	1.6495e-06	1.7441e-06	1224.6	235.6	7.4198e-07	5.9848e-06	301.37	80.572	63.802	18.367	5.9211e-06	25.455	0.0011521	0.0016497	0.00045099	1127.2	1.5675e-05	1.8166e-05	1219.5	238.4	1.5619e-05	1.86e-05	306.88	83.708	66.676	19.51	1.7056e-05	26.803	170.873	58.116	35.805	-23.560	-18.070	74.460	-23.444	-16.217	287.117	98.115	-16.836	-9.599	-8.521	-2.459	167.355	-3.025	-8191	255	
9163.621	1	1	0	0	0.011427	0.24113	0.12386	0.27438	0.094281	0.17122	0.1419	0.24472	0.28751	0.27225	0.24096	0.23153	0.13477	0.084012	0.11006	0.079987	-1.9729	-3.2917	-2.65	-2.4917	-3.0229	-2.4792	-2.9437	-3.2958	-2.2667	-3.175	-2.9771	-2.5917	-3.275	-2.65	-2.5417	-3.3625	305.486	13.129	41.351	286.765	29.889	283.115	188.653	7.299	128.626	8.558	9.561	203.766	-8.646	301.020	291.120	102.822	0.00011837	0.00019135	3.678e-05	1130.5	3.8467e-06	5.8777e-06	1218.8	234.81	1.0532e-06	2.4333e-07	299.36	80.775	63.852	18.235	1.9441e-06	25.263	0.0012136	0.0017168	0.00044635	1125.2	1.679e-05	1.9047e-05	1215.3	238.65	1.6889e-05	1.8785e-05	305.71	83.805	66.86	19.427	1.6509e-05	26.739	169.933	272.533	13.871	-23.808	125.116	135.591	-23.510	-16.293	232.655	118.410	-16.745	-9.501	-9.037	-1.985	110.958	-2.725	-8191	255	
9163.717	1	1	0	0	0.26882	0.19227	0.075077	0.097635	0.20718	0.10516	0.37544	0.15184	0.12019	0.20086	0.035491	0.26258	0.26436	0.27396	0.068775	0.049644	-2.1688	-2.9917	-2.9896	-2.6063	-3.2146	-2.5625	-2.6521	-3.2083	-2.4062	-2.8563	-2.8958	-2.3083	-3.2458	-2.8854	-2.5854	-3.3563	218.856	312.066	230.308	63.113	112.840	-14.887	236.931	275.453	243.677	76.231	216.574	236.859	-22.743	244.160	78.919	199.607	5.1076e-05	0.0004058	8.8115e-05	1125.5	3.7432e-06	2.1658e-06	1219.3	234.23	3.8257e-06	2.474e-06	298.69	80.692	63.722	18.384	4.5452e-06	25.413	0.0012918	0.0016554	0.00042714	1119.8	1.753e-05	1.8422e-05	1213.4	238	1.7867e-05	1.8003e-05	305.23	83.684	66.97	19.424	1.6557e-05	26.777	166.501	11.696	81.091	-23.811	233.734	170.536	-23.701	-16.005	154.237	81.600	-16.831	-9.880	-9.340	-2.569	86.529	-3.562	-8191	255	
9163.813	1	1	0	0	0.088416	0.089585	0.10014	0.083753	0.19595	0.10414	0.05103	0.36785	0.16251	0.084955	0.057627	0.15551	0.051559	0.2768	0.16452	0.16916	-2.1771	-2.5729	-3.0687	-2.6646	-3.0125	-2.8604	-2.7188	-3.0875	-2.7271	-2.9062	-3.0521	-2.125	-3.0583	-2.8083	-2.3854	-3.2062	189.152	137.932	243.569	227.863	240.975	-18.480	263.982	313.231	245.381	59.159	105.802	279.731	258.868	290.903	206.197	304.622	0.00019464	0.00018476	0.00012305	1124.5	1.7843e-06	9.0633e-06	1213.4	233.39	1.2718e-06	1.4721e-06	298.29	80.351	63.51	18.277	1.5022e-06	25.272	0.0013939	0.0016709	0.0004473	1118.4	1.9348e-05	1.8972e-05	1210.6	238.42	1.9221e-05	1.8189e-05	304.97	83.841	66.984	19.382	1.6296e-05	26.922	187.823	-5.628	36.922	-23.876	192.518	93.679	-23.451	-16.161	64.283	295.355	-16.672	-9.613	-9.641	-2.570	135.802	-3.151	-8191	255	
9163.934	1	1	0	0	0.1232	0.067217	0.2047	0.18464	0.099172	0.28557	0.39207	0.28343	0.065496	0.26817	0.25179	0.044725	0.2738	0.0058002	0.19693	0.11298	-2.1729	-2.6667	-3.1875	-2.3833	-2.9417	-2.925	-2.6771	-3.2333	-2.5792	-2.7208	-3.2104	-2.4396	-2.875	-2.9167	-2.4313	-3.1104	74.164	283.014	200.802	77.090	303.844	57.991	255.496	256.395	162.825	133.978	293.223	273.117	-15.291	324.179	229.540	298.102	0.0001255	0.00065439	0.00016596	1126	4.547e-06	6.4735e-06	1217.3	234.13	6.1325e-06	4.2855e-06	299.81	80.028	63.997	18.345	4.1122e-06	25.412	0.0014325	0.0016073	0.00043575	1121.5	1.8854e-05	1.8012e-05	1210.6	238.93	1.9198e-05	1.7192e-05	305.94	84.121	66.926	19.392	1.6188e-05	26.993	178.857	-6.550	86.233	-23.947	103.904	87.540	-23.542	-16.330	82.419	129.776	-16.883	-9.612	-9.160	-2.470	125.951	-2.911	-8191	255	
9164.030	1	1	0	0	0.052535	0.12293	0.15097	0.32461	0.23236	0.08522	0.12249	0.11437	0.035463	0.12829	0.061142	0.33628	0.13186	0.21583	0.21652	0.15767	-2.1729	-2.4229	-3.0583	-2.5708	-2.825	-3.1437	-2.4229	-3.3375	-2.6125	-2.5563	-3.1813	-2.4458	-2.7417	-3.1125	-2.2396	-3.0625	36.702	228.863	59.893	252.275	60.834	208.988	213.611	59.331	124.310	84.320	27.064	305.937	70.934	128.539	44.584	14.986	7.0972e-05	0.0006698	0.00019365	1131.1	6.7464e-06	5.4267e-06	1221.3	234.01	1.5372e-06	2.9294e-06	300.15	80.787	63.842	18.3	8.0852e-06	25.523	0.0013437	0.0015163	0.00041935	1126.1	1.7371e-05	1.6975e-05	1212.9	239.09	1.7473e-05	1.6352e-05	305.54	84.386	66.608	19.374	1.6188e-05	26.966	190.244	51.477	71.031	-24.054	172.294	93.900	-23.489	-16.286	86.376	112.587	-16.773	-9.759	-9.200	-2.429	200.291	-2.966	-8191	255	
9164.124	1	1	0	0	0.21795	0.1166	0.14757	0.17197	0.14704	0.10647	0.15738	0.21552	0.059612	0.17974	0.17537	0.068625	0.29709	0.37665	0.13283	0.21087	-2.4625	-2.3563	-3.3167	-2.5646	-2.6542	-3.1771	-2.5667	-3.1604	-2.6625	-2.3979	-3.3167	-2.5958	-2.7542	-3.1562	-2.3125	-3.1354	303.225	200.616	237.868	45.310	193.542	269.883	132.739	323.698	68.935	215.248	115.062	46.574	-21.550	236.377	232.994	279.477	0.00012938	0.00061009	9.3011e-05	1124.6	1.4444e-06	5.099e-06	1213.2	234.41	2.1275e-06	4.5164e-06	300.15	80.718	63.471	18.24	4.6306e-06	25.664	0.0012584	0.00146	0.00042854	1122.9	1.6581e-05	1.6361e-05	1210.2	239	1.6743e-05	1.588e-05	306.16	84.41	66.372	19.299	1.7285e-05	27.081	160.451	316.139	129.094	-23.985	279.392	25.131	-23.572	-16.239	102.295	130.424	-16.660	-9.861	-8.821	-2.546	110.311	-2.943	-8191	255	
9164.220	1	1	0	0	0.12401	0.17986	0.30204	0.25004	0.11711	0.065364	0.26576	0.19228	0.15306	0.32356	0.031213	0.23166	0.11673	0.20775	0.034664	0.15904	-2.5292	-2.4167	-3.2667	-2.5479	-2.5604	-3.1833	-2.4583	-3.1917	-2.8875	-2.5604	-3.5604	-2.7833	-2.3396	-3.3125	-2.2438	-2.9875	112.251	-17.591	39.968	284.311	-7.735	97.005	268.592	214.315	280.853	184.171	125.073	284.849	275.751	286.595	309.695	97.337	8.8465e-05	0.00079654	7.6115e-05	1124.3	2.5715e-06	2.5403e-06	1221.5	234.09	8.7115e-07	6.8629e-06	301.59	80.397	63.362	18.471	4.9347e-06	25.301	0.0012391	0.0014249	0.0004536	1123	1.6069e-05	1.6024e-05	1215.9	238.95	1.6303e-05	1.5832e-05	306.69	84.118	66.285	19.352	1.8026e-05	26.937	216.686	26.472	190.459	-23.850	102.121	19.934	-23.497	-15.999	-8.268	143.291	-16.575	-9.531	-8.828	-2.238	162.705	-2.818	-8191	255	
9164.317	1	1	0	0	0.15398	0.065267	0.061387	0.045008	0.24676	0.165	0.24778	0.12615	0.22931	0.15701	0.12525	0.22598	0.046623	0.030562	0.24768	0.12906	-2.7125	-2.3292	-3.1437	-2.8187	-2.625	-3.1917	-2.6375	-2.9	-3.1292	-2.3896	-3.4292	-2.8167	-2.5417	-3.4271	-2.4708	-2.7854	85.811	17.678	277.031	308.525	193.475	298.118	276.689	-16.283	261.369	293.893	27.880	147.293	24.260	14.737	247.330	191.903	8.1698e-05	0.00029992	9.4659e-05	1126.6	4.7251e-06	5.6305e-06	1221.4	234.71	2.8411e-06	1.1947e-06	300.25	80.576	64.162	18.436	9.2197e-07	25.328	0.0012037	0.0014366	0.00045642	1122.2	1.5276e-05	1.5943e-05	1217.1	238.68	1.5854e-05	1.6101e-05	307.36	84.029	66.444	19.405	1.8378e-05	26.814	185.153	83.362	63.401	-23.586	213.623	147.366	-23.392	-16.363	252.013	83.168	-16.573	-9.598	-9.406	-1.805	60.288	-2.808	-8191	255	
9164.413	1	1	0	0	0.097387	0.033871	0.30259	0.10273	0.15234	0.16422	0.21311	0.15574	0.17205	0.3594	0.15628	0.24139	0.043127	0.18742	0.069022	0.082265	-2.8688	-2.2625	-2.9042	-2.9	-2.3208	-3.2438	-2.8146	-2.7271	-3.1	-2.4958	-3.1896	-2.9271	-2.4125	-3.3833	-2.5354	-2.5375	183.852	316.818	25.251	189.682	295.698	216.806	236.526	237.863	251.536	143.054	18.193	226.516	117.701	281.060	67.132	172.980	0.00013158	0.00022597	0.0001318	1123.4	4.6548e-06	4.4482e-06	1218.6	233.98	1.5503e-06	6.7934e-06	299.25	80.974	63.957	18.275	7.4632e-06	25.297	0.0011703	0.0014983	0.00046239	1121.4	1.5221e-05	1.7123e-05	1214.8	238.32	1.5366e-05	1.6954e-05	306.29	83.812	66.436	19.425	1.7688e-05	26.766	180.095	204.810	54.469	-23.802	106.691	48.030	-23.396	-16.241	285.611	138.828	-16.548	-9.549	-9.015	-2.405	120.613	-2.765	-8191	255	
9164.509	1	1	0	0	0.25979	0.094694	0.2744	0.078563	0.066578	0.18135	0.26518	0.39047	0.10972	0.15326	0.090946	0.36599	0.013396	0.23676	0.057242	0.19852	-2.9437	-2.2188	-2.9667	-3.0854	-2.4208	-3.0687	-2.9104	-2.3688	-3.0792	-2.4354	-2.9896	-3.0708	-2.3417	-3.2375	-2.7687	-2.2583	154.455	73.999	300.942	213.291	183.915	224.456	201.207	-17.603	273.788	225.913	311.711	276.679	158.602	317.461	6.757	293.362	8.5983e-05	0.00014503	3.6814e-06	1125.9	4.9627e-06	4.0398e-06	1217.3	234.23	1.7207e-06	6.6888e-06	302.04	80.475	63.198	18.207	6.1364e-06	25.34	0.0011616	0.0016206	0.00045557	1123.6	1.5316e-05	1.835e-05	1216.3	238.59	1.5709e-05	1.8677e-05	307.64	84.003	66.273	19.487	1.7322e-05	26.77	182.526	135.116	292.226	-23.708	138.160	195.017	-23.394	-16.041	202.878	206.111	-16.426	-9.252	-9.241	-2.263	173.417	-2.500	-8191	255	
9164.630	1	1	0	0	0.057177	0.036071	0.075336	0.10189	0.098166	0.12384	0.048307	0.15713	0.065164	0.093287	0.065839	0.21616	0.16996	0.092028	0.16742	0.24602	-2.9958	-2.3583	-2.7583	-3.1354	-2.3042	-3.0021	-2.9375	-2.425	-3.1604	-2.6063	-2.7208	-3.4042	-2.3229	-2.975	-2.9417	-2.4458	-9.164	235.971	12.429	-0.188	14.679	317.912	232.867	242.853	173.079	163.124	321.305	249.092	73.299	254.900	21.218	-5.928	0.00011681	0.00036553	9.8608e-05	1132.5	2.0126e-06	4.6024e-06	1220.5	232.92	2.6518e-06	4.6807e-06	302.36	80.784	63.529	18.31	4.9274e-06	25.642	0.0011941	0.0016807	0.00043369	1125.3	1.5945e-05	1.8439e-05	1216	237.99	1.6262e-05	1.8852e-05	307.15	84	66.502	19.479	1.6724e-05	26.812	173.835	-2.048	7.483	-23.706	188.850	90.112	-23.439	-16.026	180.528	110.237	-16.854	-9.353	-9.381	-1.788	82.035	-2.791	-8191	255	
9164.726	1	1	0	0	0.13744	0.27007	0.14978	0.080656	0.24847	0.093542	0.22975	0.13819	0.015183	0.25753	0.16997	0.1696	0.20859	0.22811	0.22006	0.4052	-2.8771	-2.5438	-2.4979	-3.5062	-2.3063	-3.2167	-3.2854	-2.3229	-3.3229	-2.6562	-2.7146	-3.1896	-2.3583	-2.8854	-2.9958	-2.2521	131.651	284.046	-2.625	319.061	75.561	138.832	279.460	266.703	240.123	200.475	13.275	171.719	151.763	298.303	106.928	180.723	0.00013752	0.00033329	0.00014026	1124.5	5.9618e-06	5.0191e-06	1223.4	234.55	2.837e-06	1.938e-06	300.14	80.392	63.932	18.451	2.1451e-06	25.47	0.0012604	0.0016838	0.00041905	1120.5	1.7175e-05	1.787e-05	1217.3	238.44	1.7334e-05	1.7932e-05	306.11	83.687	66.91	19.477	1.6631e-05	26.792	193.997	203.407	34.364	-23.839	195.386	157.794	-23.479	-15.814	296.006	93.746	-16.484	-9.084	-8.696	-2.024	100.330	-2.784	-8191	255	
9164.822	1	1	0	0	0.17442	0.1524	0.034307	0.044321	0.17573	0.10557	0.1361	0.29817	0.19152	0.05169	0.17773	0.050803	0.098428	0.20072	0.23389	0.15399	-2.7875	-2.725	-2.4271	-3.3875	-2.5333	-2.8646	-3.3375	-2.4292	-3.3438	-2.6396	-2.6312	-3.2667	-2.6292	-2.9604	-3.1312	-2.3146	37.221	269.841	32.047	-13.045	79.979	275.626	283.418	-10.960	48.576	32.411	308.362	212.469	0.357	-19.278	246.862	-6.921	0.0001135	0.00026632	0.00010465	1132	4.5921e-06	2.6534e-06	1220.7	235.7	5.5468e-06	3.9302e-06	300.5	80.906	63.701	18.435	4.3191e-06	25.557	0.0013306	0.0016321	0.00041628	1125	1.8099e-05	1.7622e-05	1216	238.75	1.8238e-05	1.751e-05	305.91	84.153	67.03	19.41	1.6045e-05	26.913	204.560	54.556	30.094	-23.489	149.711	135.068	-23.096	-16.052	163.554	95.946	-16.927	-9.201	-9.365	-1.794	126.269	-2.611	-8191	255	
9164.894	1	1	0	0	0.10204	0.24804	0.10709	0.19145	0.31913	0.2148	0.10699	0.019994	0.1427	0.025535	0.2319	0.13648	0.095034	0.097114	0.095988	0.31624	-2.6771	-2.7313	-2.4375	-3.4208	-2.5729	-2.7479	-3.3187	-2.4292	-2.8917	-2.9042	-2.6229	-3.2188	-2.7417	-2.7083	-3.1708	-2.3896	74.569	214.481	177.249	318.215	241.918	179.680	259.809	258.356	69.675	248.645	303.464	135.506	84.638	218.206	217.383	301.984	2.2782e-05	0.00054469	0.00037367	1131.4	2.132e-06	4.4296e-06	1222.6	234.48	4.4259e-06	2.3545e-06	300.1	81.059	64.105	18.374	1.9756e-06	25.5	0.0013341	0.0015785	0.00040024	1125.8	1.8049e-05	1.6849e-05	1215.9	238.72	1.7961e-05	1.691e-05	305.53	84.307	67.077	19.395	1.5793e-05	26.977	157.101	-25.924	42.885	-23.676	221.986	135.608	-23.477	-16.063	64.119	30.583	-16.642	-8.847	-8.770	-1.580	4.445	-2.290	-8191	255	
9165.014	1	1	0	0	0.21524	0.20746	0.2262	0.20018	0.063802	0.30309	0.36041	0.22703	0.22066	0.14053	0.0079566	0.097994	0.15647	0.081149	0.06797	0.11978	-2.8021	-2.9042	-2.4583	-3.3271	-2.6396	-2.4708	-3.5729	-2.5979	-2.8875	-3.0938	-2.3896	-3.1792	-2.7021	-2.6208	-3.2583	-2.6646	5.798	278.718	230.925	271.491	165.638	137.707	211.844	278.922	81.158	243.251	104.586	-15.853	265.077	246.653	-7.437	16.488	0.00010005	0.0005942	2.7036e-06	1128.2	6.0636e-07	4.7328e-06	1224.1	235.11	3.7287e-06	2.6677e-06	299.88	80.577	63.655	18.289	6.518e-06	25.488	0.001305	0.0015233	0.00039916	1125.8	1.7522e-05	1.6307e-05	1215.9	239.54	1.6983e-05	1.6657e-05	305.39	84.331	66.642	19.316	1.5919e-05	26.984	185.500	8.571	49.206	-23.197	122.504	49.728	-23.285	-15.723	90.010	29.637	-16.396	-8.767	-8.827	-1.497	201.990	-2.748	-8191	255	
9165.109	1	1	0	0	0.10646	0.27621	0.18831	0.38284	0.25268	0.11916	0.16349	0.3281	0.17803	0.18403	0.035112	0.34574	0.14669	0.14647	0.22787	0.1309	-2.3625	-3.1625	-2.275	-3.2708	-2.8042	-2.2208	-3.4604	-2.6333	-2.8625	-3.1813	-2.4813	-3.2833	-3.1208	-2.4396	-3.3	-2.5917	59.528	124.172	197.907	302.379	-10.938	-22.967	306.035	301.963	-28.347	307.373	233.800	-6.676	126.145	204.539	92.585	297.694	0.00011771	0.00032811	7.6666e-05	1132	3.1792e-06	3.3373e-06	1219.8	234.52	2.029e-06	6.6177e-06	300	81.206	63.764	18.327	7.2055e-06	25.44	0.0012423	0.0014843	0.0004131	1127	1.6633e-05	1.5655e-05	1214.7	238.92	1.6035e-05	1.5748e-05	306.08	84.44	66.553	19.346	1.6392e-05	26.948	209.627	230.480	45.060	-23.539	208.573	42.539	-23.119	-15.803	195.705	31.820	-16.515	-9.443	-8.927	-2.170	165.864	-2.452	-8191	255	
9165.205	1	1	0	0	0.1847	0.10006	0.27119	0.15753	0.063467	0.21832	0.086747	0.14745	0.19406	0.2099	0.19864	0.093271	0.090572	0.085954	0.077546	0.063063	-2.3563	-3.1042	-2.3208	-3.1542	-2.8438	-2.5083	-3.3312	-2.8021	-2.7062	-3.3063	-2.2854	-3.0208	-3.2729	-2.2229	-3.2833	-2.7	190.695	279.583	150.246	284.187	228.950	120.627	283.562	-17.811	-18.731	317.999	246.800	291.461	2.292	-28.823	36.606	-12.691	0.00010924	0.00028662	0.000136	1129.1	3.1146e-06	2.3945e-06	1218.9	233.68	2.839e-06	3.2069e-06	300.16	80.644	64.218	18.214	1.8076e-06	25.63	0.0011515	0.0014111	0.00042433	1124.9	1.6075e-05	1.4945e-05	1216.3	238.46	1.5652e-05	1.5532e-05	306.62	84.099	66.667	19.241	1.7751e-05	26.989	144.487	65.055	65.914	-23.623	54.146	191.026	-22.851	-16.042	282.274	89.268	-16.221	-9.164	-8.629	-2.156	303.597	-2.414	-8191	255	
9165.303	1	1	0	0	0.056021	0.070027	0.089017	0.25944	0.13487	0.23232	0.12799	0.2043	0.16599	0.099516	0.11604	0.099933	0.21738	0.03643	0.11206	0.050095	-2.2	-3.1813	-2.6104	-2.9875	-3.2188	-2.4604	-3.4083	-2.6688	-2.4229	-3.4104	-2.4125	-2.8958	-3.0604	-2.4625	-3.1937	-2.7167	153.244	15.068	-17.666	232.178	143.131	102.726	190.029	-29.356	81.519	259.729	196.719	-16.559	51.950	150.403	4.095	130.928	4.2783e-05	0.00012174	8.8264e-05	1128.8	4.0905e-06	2.9063e-06	1226	233.79	6.1223e-06	5.1363e-06	301.38	81.032	63.576	18.402	6.986e-06	25.588	0.0011663	0.0014374	0.00046091	1125.1	1.578e-05	1.5485e-05	1219.6	238.97	1.5073e-05	1.5817e-05	307.8	84.064	66.587	19.323	1.7445e-05	26.925	202.748	58.771	194.214	-23.223	88.242	89.293	-23.131	-15.894	119.695	133.563	-16.310	-8.872	-8.841	-2.070	126.359	-2.531	-8191	255	
9165.421	1	1	0	0	0.13449	0.053747	0.061263	0.32053	0.28546	0.171	0.5178	0.11752	0.16401	0.29734	0.10869	0.31177	0.25461	0.030369	0.16795	0.13191	-2.1896	-3.1479	-2.5479	-2.8208	-2.9479	-2.2354	-3.15	-2.8771	-2.2521	-3.1396	-2.4625	-2.8458	-3.2146	-2.4	-2.9062	-3.0167	312.130	161.246	76.280	287.837	72.726	11.567	283.964	315.645	162.145	-24.683	266.458	-11.415	249.493	20.104	228.542	238.118	0.0001531	0.00026486	0.00012834	1132.2	5.4335e-06	8.4248e-06	1222.6	233.24	3.0247e-06	3.8603e-06	298.83	80.942	63.796	18.267	1.4298e-06	25.565	0.0011142	0.001455	0.0004502	1126.6	1.5054e-05	1.6241e-05	1218.2	238.54	1.509e-05	1.7279e-05	306.99	84.033	66.591	19.41	1.8474e-05	26.931	179.327	43.032	226.456	-23.129	142.124	76.760	-22.953	-15.792	119.025	126.359	-17.076	-9.117	-8.731	-1.739	293.040	-2.764	-8191	255	
9165.493	1	1	0	0	0.12738	0.12406	0.19613	0.2524	0.050357	0.14311	0.26475	0.27843	0.13274	0.25808	0.25709	0.33247	0.13418	0.1226	0.12871	0.14537	-2.0896	-3.1667	-2.55	-2.6875	-3.1896	-2.4896	-3.0563	-3.1333	-2.4125	-3.2479	-2.775	-2.4938	-3.2417	-2.175	-2.9417	-3.1333	310.838	173.701	235.297	69.685	132.288	318.749	308.125	323.498	303.193	-5.107	311.867	283.386	231.105	178.475	-22.129	182.455	0.00014855	0.00036702	0.00014165	1130.6	5.2543e-07	4.6337e-06	1228.8	234.03	2.1334e-06	8.9839e-07	301.36	81.202	63.795	18.26	2.2767e-06	25.442	0.0011661	0.0016864	0.00048434	1127.7	1.6076e-05	1.855e-05	1221.6	239.05	1.5798e-05	1.9013e-05	307.5	84.222	66.548	19.498	1.8261e-05	26.92	208.213	126.674	296.409	-23.611	78.291	116.154	-22.938	-16.139	227.342	185.058	-16.294	-9.212	-8.500	-1.721	212.405	-2.936	-8191	255	
9165.614	1	1	0	0	0.061017	0.15032	0.077465	0.083333	0.15804	0.14789	0.2076	0.10432	0.14352	0.21382	0.38985	0.17587	0.11132	0.13166	0.22262	0.30522	-1.7292	-3.1604	-2.5917	-2.5583	-3.1542	-2.3833	-2.9208	-3.2458	-2.4188	-3.1458	-2.8979	-2.5917	-3.2604	-2.6208	-2.7208	-3.4042	176.875	80.160	128.014	321.208	-11.011	178.225	307.797	198.912	160.390	304.601	301.331	150.975	309.954	176.780	233.392	152.970	0.00017021	0.00034999	0.00010779	1131.4	4.6712e-06	3.3025e-06	1228	234.09	2.5433e-06	3.6063e-06	300.47	81.211	64.01	18.141	6.541e-06	25.487	0.0012262	0.0017617	0.00047024	1127.2	1.6869e-05	1.9734e-05	1219.7	238.46	1.6965e-05	1.9692e-05	307.24	84.208	66.847	19.505	1.7387e-05	26.909	185.464	75.921	56.577	-23.304	176.230	109.704	-23.199	-15.855	237.663	158.350	-16.505	-9.125	-8.383	-2.153	113.675	-2.619	-8191	255	
9165.710	1	1	0	0	0.12409	0.064516	0.33493	0.2605	0.21742	0.20817	0.18398	0.1113	0.31271	0.032629	0.39798	0.10102	0.22191	0.30093	0.14177	0.21947	-2.075	-2.8937	-3.0333	-2.5521	-3.1667	-2.4271	-2.8021	-3.1437	-2.4479	-3.0187	-3.1792	-2.5542	-3.3625	-2.6875	-2.4729	-3.425	291.931	-20.150	169.420	294.427	260.932	-9.005	294.312	16.310	107.164	19.246	296.752	295.452	-11.916	83.947	301.982	151.872	0.00012667	0.0003461	0.00010526	1131.1	3.7411e-06	5.6237e-06	1226.6	234.77	4.688e-06	2.4417e-06	301.23	80.611	64.104	18.318	5.1844e-06	25.501	0.0012956	0.0017624	0.00045488	1125.1	1.7734e-05	1.9431e-05	1219	238.69	1.7702e-05	1.8912e-05	306.63	83.887	67.198	19.479	1.6528e-05	26.83	194.553	18.564	67.791	-23.313	227.011	91.611	-22.875	-15.330	290.044	15.491	-16.580	-8.809	-8.603	-2.187	136.132	-2.165	-8191	255	
9165.806	1	1	0	0	0.13017	0.055778	0.19837	0.19435	0.04966	0.21169	0.27288	0.15838	0.15139	0.15937	0.21987	0.22528	0.12813	0.16519	0.22384	0.15553	-1.9396	-3.0687	-3.0083	-2.5417	-3.1958	-2.9208	-2.7292	-3.4396	-2.4375	-2.8125	-3.2625	-2.4146	-3.2708	-2.7083	-2.4208	-3.3229	148.289	307.852	60.597	163.267	238.135	194.131	314.217	-4.705	190.369	93.604	8.868	225.180	-22.670	3.220	155.640	236.395	5.9155e-05	0.00058643	0.00013352	1130.3	4.6373e-06	6.4468e-06	1225.3	235.4	4.4447e-06	3.0705e-06	299.41	81.262	63.744	18.518	9.6845e-06	25.721	0.0013412	0.0016714	0.00043584	1125.1	1.8278e-05	1.8732e-05	1218.3	239.02	1.9027e-05	1.8343e-05	306.63	84.315	67.148	19.525	1.6415e-05	26.979	175.258	72.491	112.500	-23.368	168.685	186.420	-23.097	-15.600	162.588	89.879	-16.282	-9.349	-8.837	-1.724	140.187	-2.361	-8191	255	
9165.902	1	1	0	0	0.32381	0.16311	0.056453	0.1007	0.2148	0.12259	0.11995	0.17052	0.14813	0.08879	0.088504	0.091469	0.39847	0.067416	0.15765	0.1585	-2.2292	-2.8792	-3.1292	-2.3167	-3.225	-2.7917	-2.3292	-3.3396	-2.4958	-2.7958	-3.2313	-2.4417	-3.1208	-2.6479	-2.5021	-3.2458	189.732	-2.081	156.216	301.592	171.689	152.893	5.553	233.063	110.920	283.143	155.977	61.455	314.314	156.534	-6.501	292.556	0.0001355	0.00048992	0.0001523	1134.4	2.5724e-06	4.6122e-06	1218	235.17	3.8897e-06	2.1098e-06	300.57	81.502	63.619	18.37	3.1535e-06	25.381	0.0013988	0.001607	0.00043064	1127.4	1.8898e-05	1.7835e-05	1217	239.12	1.9164e-05	1.7919e-05	306.82	84.607	67.079	19.422	1.6576e-05	27.023	194.078	123.812	-25.230	-23.564	185.709	183.439	-22.859	-15.979	176.715	47.243	-16.109	-8.987	-8.876	-2.111	103.568	-2.451	-8191	255	
9166.023	1	1	0	0	0.0080423	0.056644	0.14758	0.2294	0.09933	0.27259	0.20405	0.30404	0.011254	0.24105	0.15009	0.23464	0.072075	0.14728	0.24553	0.26911	-2.3333	-2.5687	-3.2708	-2.5854	-3.0667	-3.275	-2.55	-3.3187	-2.7979	-2.4625	-3.4021	-2.4896	-3.1271	-2.9896	-2.5729	-3.1917	238.106	206.482	-12.131	232.307	319.869	107.365	211.956	260.268	287.526	145.182	271.576	208.123	167.650	321.755	250.899	197.788	2.9808e-05	0.0010372	0.00024229	1131.1	4.9842e-06	4.9764e-06	1224.5	233.35	3.7099e-06	9.568e-06	298.36	80.625	63.941	18.342	5.6869e-06	25.546	0.0014375	0.0016011	0.00043189	1129.4	1.8725e-05	1.7969e-05	1218.4	239.57	1.9096e-05	1.769e-05	305.94	84.399	67.052	19.454	1.691e-05	27.135	181.536	15.379	-3.143	-23.461	106.234	47.822	-23.098	-15.758	193.666	91.022	-16.376	-8.707	-8.713	-2.175	154.016	-2.512	-8191	255	
9166.095	1	1	0	0	0.15208	0.07529	0.041491	0.36028	0.24767	0.087151	0.1614	0.17805	0.033801	0.08008	0.22701	0.066163	0.18463	0.22687	0.15459	0.089182	-2.5104	-2.4437	-3.25	-2.7188	-2.7	-3.2313	-2.5521	-3.175	-2.6354	-2.5417	-3.3979	-2.4229	-2.6896	-3.3	-2.2	-3.2333	69.695	33.970	119.008	9.573	105.143	75.350	299.571	309.941	107.410	124.624	-28.059	0.750	318.306	7.565	-26.994	288.885	9.3289e-05	0.00061608	2.5219e-05	1125.9	4.7646e-06	2.8748e-06	1218.7	234.89	2.4764e-06	4.3512e-06	299.9	80.741	64.037	18.318	4.2715e-06	25.541	0.0013853	0.0015795	0.0004458	1125.8	1.8259e-05	1.7661e-05	1216.2	240.35	1.8465e-05	1.7349e-05	307.02	84.753	67.003	19.47	1.7821e-05	27.196	200.986	50.568	146.035	-23.196	146.400	225.962	-23.118	-15.513	20.076	72.054	-16.603	-8.783	-8.522	-2.137	281.445	-1.857	-8191	255	
9166.189	1	1	0	0	0.32627	0.11852	0.11588	0.19466	0.12023	0.11501	0.29476	0.062183	0.18278	0.23158	0.14652	0.076726	0.35542	0.19338	0.020124	0.16798	-2.3812	-2.3021	-3.3667	-2.6875	-2.7646	-3.1875	-2.6083	-3.1479	-3.0646	-2.3583	-3.3771	-2.6854	-2.7687	-3.1604	-2.1417	-3.0312	265.391	210.133	-32.215	273.797	198.419	-0.077	285.558	175.400	116.973	228.459	270.712	-16.792	297.644	24.852	314.378	36.602	8.4805e-05	0.00047348	7.3153e-05	1131.8	4.1826e-06	8.7638e-06	1226.4	235.34	2.9683e-06	2.0368e-06	301.06	80.837	63.801	18.362	4.2097e-06	25.655	0.0013487	0.0015345	0.00046558	1130.5	1.7596e-05	1.7394e-05	1221.6	240.44	1.7405e-05	1.6645e-05	308.65	84.476	66.75	19.414	1.8971e-05	27.088	220.873	321.276	245.840	-23.295	302.621	60.535	-23.281	-15.780	187.504	38.919	-16.309	-9.452	-8.662	-1.881	153.023	-2.408	-8191	255	
#DATA ENDS
