BOXY.EXE: ISS Imagent and Oximeter Data Acquisition Program Version 0.80
Ascii Record File

#ACQ INFORMATION
2  Detector Channels 
16  External MUX Channels 
1  Auxiliary Channels 
5000  Waveform (CCF) Frequency (Hz)
1  Waveforms Skipped 
30  Waveforms Averaged 
1  Cycles Averaged 
16  Acquisitions per Waveform 
10.0806  Updata Rate (Hz) 

#FILE INFORMATION
TRUE -- External MUX Channel results are PARSED.
FALSE -- AC DC and Phase are NOT grouped.
TRUE -- Companion Program Settings File CREATED.
FALSE -- AC data not excluded
FALSE -- DC data not excluded
FALSE -- Phase data not excluded
FALSE -- Auxillary Chn. data not excluded
Tab delimiters

#CALIBRATION STATE
TRUE -- Waveform Calibration Values APPLIED.


#AUX CALIBRATION VALUES
Val Type	aux-1	

Term	1.0000e+00	
Factor	0.0000e+00	


#WF CALIBRATION VALUES
A = Detector Channel
Val Type	A-AC1	A-AC2	A-AC3	A-AC4	A-AC5	A-AC6	A-AC7	A-AC8	A-AC9	A-AC10	A-AC11	A-AC12	A-AC13	A-AC14	A-AC15	A-AC16	A-DC1	A-DC2	A-DC3	A-DC4	A-DC5	A-DC6	A-DC7	A-DC8	A-DC9	A-DC10	A-DC11	A-DC12	A-DC13	A-DC14	A-DC15	A-DC16	A-Ph1	A-Ph2	A-Ph3	A-Ph4	A-Ph5	A-Ph6	A-Ph7	A-Ph8	A-Ph9	A-Ph10	A-Ph11	A-Ph12	A-Ph13	A-Ph14	A-Ph15	A-Ph16	

Term	0.00000e+00	0.00000e+00	0.00000e+00	0.00000e+00	0.00000e+00	0.00000e+00	0.00000e+00	0.00000e+00	0.00000e+00	0.00000e+00	0.00000e+00	0.00000e+00	0.00000e+00	0.00000e+00	0.00000e+00	0.00000e+00	0.00000e+00	0.00000e+00	0.00000e+00	0.00000e+00	0.00000e+00	0.00000e+00	0.00000e+00	0.00000e+00	0.00000e+00	0.00000e+00	0.00000e+00	0.00000e+00	0.00000e+00	0.00000e+00	0.00000e+00	0.00000e+00	0.00000e+00	0.00000e+00	0.00000e+00	0.00000e+00	0.00000e+00	0.00000e+00	0.00000e+00	0.00000e+00	0.00000e+00	0.00000e+00	0.00000e+00	0.00000e+00	0.00000e+00	0.00000e+00	0.00000e+00	0.00000e+00	
Factor	1.00000e+00	1.00000e+00	1.00000e+00	1.00000e+00	1.00000e+00	1.00000e+00	1.00000e+00	1.00000e+00	1.00000e+00	1.00000e+00	1.00000e+00	1.00000e+00	1.00000e+00	1.00000e+00	1.00000e+00	1.00000e+00	1.00000e+00	1.00000e+00	1.00000e+00	1.00000e+00	1.00000e+00	1.00000e+00	1.00000e+00	1.00000e+00	1.00000e+00	1.00000e+00	1.00000e+00	1.00000e+00	1.00000e+00	1.00000e+00	1.00000e+00	1.00000e+00	X	X	X	X	X	X	X	X	X	X	X	X	X	X	X	X	

B = Detector Channel
Val Type	B-AC1	B-AC2	B-AC3	B-AC4	B-AC5	B-AC6	B-AC7	B-AC8	B-AC9	B-AC10	B-AC11	B-AC12	B-AC13	B-AC14	B-AC15	B-AC16	B-DC1	B-DC2	B-DC3	B-DC4	B-DC5	B-DC6	B-DC7	B-DC8	B-DC9	B-DC10	B-DC11	B-DC12	B-DC13	B-DC14	B-DC15	B-DC16	B-Ph1	B-Ph2	B-Ph3	B-Ph4	B-Ph5	B-Ph6	B-Ph7	B-Ph8	B-Ph9	B-Ph10	B-Ph11	B-Ph12	B-Ph13	B-Ph14	B-Ph15	B-Ph16	

Term	0.00000e+00	0.00000e+00	0.00000e+00	0.00000e+00	0.00000e+00	0.00000e+00	0.00000e+00	0.00000e+00	0.00000e+00	0.00000e+00	0.00000e+00	0.00000e+00	0.00000e+00	0.00000e+00	0.00000e+00	0.00000e+00	0.00000e+00	0.00000e+00	0.00000e+00	0.00000e+00	0.00000e+00	0.00000e+00	0.00000e+00	0.00000e+00	0.00000e+00	0.00000e+00	0.00000e+00	0.00000e+00	0.00000e+00	0.00000e+00	0.00000e+00	0.00000e+00	-7.31775e+01	-1.39643e+02	-1.29191e+02	-1.81468e+02	-5.28782e+01	-5.94017e+01	-1.58511e+02	-1.62015e+02	-4.34400e+01	-6.62646e+01	-1.70593e+02	-1.70390e+02	-1.81289e+02	-1.76543e+02	-5.19673e+01	-1.49467e+02	
Factor	1.51461e-05	1.38994e-04	3.70494e-05	1.65114e-01	1.30890e-06	1.55113e-06	1.66376e-01	5.64345e-02	1.01830e-06	1.34470e-06	8.78816e-02	2.83681e-02	2.52299e-02	8.59329e-03	1.27316e-06	1.18647e-02	5.15675e-06	6.63635e-06	1.85623e-06	8.53049e-02	7.07640e-08	7.33048e-08	8.10045e-02	2.92832e-02	7.07680e-08	7.32667e-08	4.41605e-02	1.43478e-02	1.32282e-02	4.49219e-03	7.21484e-08	6.00703e-03	X	X	X	X	X	X	X	X	X	X	X	X	X	X	X	X	



#DISTANCE SETTINGS
A = Detector Channel
A-1	A-2	A-3	A-4	A-5	A-6	A-7	A-8	A-9	A-10	A-11	A-12	A-13	A-14	A-15	A-16	

2.5000e+00	3.0000e+00	2.5000e+00	3.0000e+00	2.0000e+00	3.0000e+00	1.5000e+00	3.0000e+00	3.0000e+00	3.0000e+00	3.0000e+00	3.0000e+00	3.0000e+00	3.0000e+00	1.5000e+00	3.0000e+00	

B = Detector Channel
B-1	B-2	B-3	B-4	B-5	B-6	B-7	B-8	B-9	B-10	B-11	B-12	B-13	B-14	B-15	B-16	

1.0000e+01	1.0000e+01	1.0000e+01	1.4400e+00	1.0000e+01	1.0000e+01	1.5100e+00	1.9400e+00	1.0000e+01	1.0000e+01	1.9900e+00	2.4900e+00	2.4100e+00	2.9000e+00	1.0000e+01	2.9800e+00	




#DATA BEGINS
time	group	step	mark	flag	A-AC1	A-AC2	A-AC3	A-AC4	A-AC5	A-AC6	A-AC7	A-AC8	A-AC9	A-AC10	A-AC11	A-AC12	A-AC13	A-AC14	A-AC15	A-AC16	A-DC1	A-DC2	A-DC3	A-DC4	A-DC5	A-DC6	A-DC7	A-DC8	A-DC9	A-DC10	A-DC11	A-DC12	A-DC13	A-DC14	A-DC15	A-DC16	A-Ph1	A-Ph2	A-Ph3	A-Ph4	A-Ph5	A-Ph6	A-Ph7	A-Ph8	A-Ph9	A-Ph10	A-Ph11	A-Ph12	A-Ph13	A-Ph14	A-Ph15	A-Ph16	B-AC1	B-AC2	B-AC3	B-AC4	B-AC5	B-AC6	B-AC7	B-AC8	B-AC9	B-AC10	B-AC11	B-AC12	B-AC13	B-AC14	B-AC15	B-AC16	B-DC1	B-DC2	B-DC3	B-DC4	B-DC5	B-DC6	B-DC7	B-DC8	B-DC9	B-DC10	B-DC11	B-DC12	B-DC13	B-DC14	B-DC15	B-DC16	B-Ph1	B-Ph2	B-Ph3	B-Ph4	B-Ph5	B-Ph6	B-Ph7	B-Ph8	B-Ph9	B-Ph10	B-Ph11	B-Ph12	B-Ph13	B-Ph14	B-Ph15	B-Ph16	aux-1	digaux	

9964.687	1	1	0	256	0.10658	0.060996	0.037134	0.24002	0.070504	0.055972	0.17646	0.25906	0.13878	0.30975	0.12535	0.22563	0.085756	0.18587	0.28453	0.097751	-1.825	-3.05	-2.8375	-2.4667	-3.0604	-2.5521	-2.9792	-3.3625	-2.075	-2.8771	-2.9875	-2.4479	-3.3438	-2.5604	-2.5979	-3.4146	12.138	82.017	237.069	-59.908	227.111	-12.875	260.537	160.881	77.941	172.215	-7.025	273.067	277.371	200.908	-72.103	81.765	0.00026735	0.00017144	0.00033797	928.29	2.0694e-05	1.5663e-05	787.55	308.3	1.1863e-05	1.1408e-05	294.25	101.77	100.51	45.908	2.7825e-05	49.639	0.018892	0.025405	0.006865	1288.3	0.00026146	0.00028293	1134.6	434.61	0.0002637	0.00028389	474.61	160.91	157.96	66.588	0.00026618	74.561	226.940	141.194	27.121	-69.502	141.284	70.298	-69.998	-63.378	245.218	-54.089	-65.597	-60.287	-57.717	-53.421	-7.440	-56.114	-8191	255	
9964.783	1	1	0	0	0.18783	0.094882	0.082821	0.11205	0.079442	0.089469	0.1288	0.12314	0.032953	0.19569	0.12601	0.14936	0.15215	0.20166	0.11095	0.27679	-1.9167	-2.9417	-2.9062	-2.2438	-3.4688	-2.6042	-2.7104	-3.2375	-2.1542	-3.0312	-3.2771	-2.4042	-3.2458	-2.7313	-2.6292	-3.4562	100.649	135.825	94.809	-74.711	8.646	132.065	-72.441	218.426	48.455	36.194	169.347	-47.515	40.924	-24.045	-7.710	228.094	0.00037026	0.00070868	0.00022449	927.52	1.1846e-05	5.1693e-06	791.76	308.09	3.0306e-06	1.4293e-05	291.7	101.22	100.8	45.981	3.3527e-06	48.842	0.019633	0.025603	0.0069055	1290.9	0.00027025	0.00028321	1135.5	436.36	0.0002739	0.00028425	474.52	161.36	160.19	66.754	0.00027017	74.674	242.937	119.028	-14.149	-69.465	183.783	-12.957	-70.286	-63.959	-46.547	60.307	-65.696	-60.306	-57.999	-53.062	33.070	-56.003	-8191	255	
9964.879	1	1	0	0	0.2038	0.10077	0.12838	0.30094	0.18205	0.069778	0.17267	0.22918	0.22498	0.021209	0.09133	0.12849	0.14549	0.04739	0.21933	0.2096	-1.9438	-2.8417	-2.9854	-2.425	-2.9792	-2.7271	-2.4229	-3.5458	-2.5292	-2.675	-3.2021	-2.4021	-3.1063	-2.8354	-2.5396	-3.3271	133.860	-29.642	57.040	275.429	255.732	62.286	277.120	207.549	118.147	168.786	221.682	-66.795	175.718	34.732	-35.345	233.023	0.00039147	0.0011431	0.00017201	930.13	1.1488e-05	1.5339e-05	790.32	309.78	5.6064e-06	2.1915e-05	291.9	100.2	100.7	45.987	8.9496e-06	48.649	0.0203	0.025594	0.00697	1301.4	0.00028145	0.0002851	1137	441.14	0.00028602	0.00028962	478.25	163.95	162.41	67.063	0.0002803	76.143	243.387	275.247	-43.980	-69.421	192.688	108.434	-70.095	-63.718	154.451	26.264	-65.755	-60.009	-58.067	-53.249	55.569	-56.018	-8191	255	
9965.000	1	1	0	0	0.2001	0.33716	0.23868	0.067468	0.077616	0.24791	0.057653	0.55066	0.12244	0.11709	0.11631	0.23982	0.05018	0.24547	0.15209	0.12951	-2.2542	-2.7021	-3.3187	-2.4542	-3.05	-2.9583	-2.6896	-3.2375	-2.8333	-2.8104	-3.3208	-2.4958	-3.1625	-3.0917	-2.3063	-3.3854	54.554	188.309	-74.692	193.509	214.336	-41.838	-49.971	270.426	82.322	-7.892	37.007	-54.583	-27.738	244.633	267.871	139.400	0.00020414	0.0013381	0.00027536	926.12	1.8708e-05	1.3785e-05	788.57	308.37	1.4674e-06	1.1828e-05	291.31	100.45	101.56	45.6	6.6759e-06	48.872	0.021576	0.026641	0.0073104	1329.2	0.00029786	0.000299	1153.7	450.33	0.0002987	0.00029865	485.65	168.28	164.79	67.539	0.00028895	77.623	190.452	180.451	81.310	-69.385	167.317	58.414	-69.792	-63.537	-51.714	146.551	-65.458	-59.882	-58.173	-53.267	-74.508	-55.703	-8191	255	
9965.096	1	1	0	0	0.59071	0.1623	0.069189	0.19218	0.1031	0.23084	0.047108	0.24996	0.063896	0.17306	0.2307	0.19055	0.1313	0.096041	0.054952	0.12933	-2.4917	-2.4938	-3.2896	-2.4333	-2.9229	-3.1708	-2.45	-3.3083	-2.6729	-2.6125	-3.1667	-2.5375	-2.9917	-3.2625	-2.1958	-3.2375	26.212	246.825	241.974	240.411	-38.262	266.558	-54.842	238.172	269.843	99.785	15.698	152.804	1.563	277.949	70.270	22.517	0.00036259	0.0003269	0.00032754	929.58	3.8555e-06	1.2885e-05	785.78	308.64	1.3166e-05	1.5132e-05	292.14	99.764	101.02	45.815	1.4285e-05	48.966	0.021898	0.027086	0.0074509	1342.1	0.0002968	0.0002979	1152.9	453.07	0.00029608	0.00029697	485.4	168.75	163.26	67.454	0.00029139	77.917	-54.795	177.598	65.011	-69.749	6.527	32.572	-70.021	-63.564	3.703	98.054	-65.633	-60.291	-57.932	-53.271	225.908	-55.714	-8191	255	
9965.192	1	1	0	0	0.13703	0.069977	0.1094	0.47183	0.19436	0.30502	0.13177	0.12099	0.087799	0.23476	0.22703	0.063711	0.095266	0.18645	0.1642	0.058432	-2.4979	-2.5021	-2.9896	-2.4688	-2.7208	-3.1625	-2.3042	-2.9479	-2.7812	-2.6312	-3.4625	-2.6042	-2.6708	-3.1354	-2.3979	-3.1292	-72.825	257.604	3.157	208.192	260.715	105.076	-12.305	223.406	115.194	44.992	176.075	226.223	104.594	272.877	155.155	-18.398	0.00035484	0.0012532	0.00039248	932.13	4.1334e-06	8.549e-06	783.3	309.34	9.8945e-06	9.2992e-06	289.16	100.14	100.48	45.488	1.4121e-05	48.382	0.02158	0.026751	0.0075328	1345.8	0.00029056	0.00029155	1151.8	451.18	0.00028535	0.00028696	482.26	166.32	159.7	66.206	0.0002867	76.446	201.466	126.085	108.838	-69.432	214.768	126.270	-70.024	-63.489	72.965	190.683	-65.543	-60.081	-58.116	-53.034	235.777	-56.067	-8191	255	
9965.288	1	1	0	0	0.053562	0.24545	0.13633	0.2595	0.1888	0.08675	0.17676	0.3038	0.39124	0.31156	0.18652	0.31766	0.11497	0.21544	0.25197	0.165	-2.5792	-2.2958	-3.1104	-2.6167	-2.6562	-3.4479	-2.2958	-2.8479	-3.0625	-2.3542	-3.3833	-2.7354	-2.3937	-3.2979	-2.4708	-2.9708	-81.234	15.766	162.382	220.275	122.293	-2.008	17.491	262.681	140.055	214.279	274.467	193.365	-18.854	273.518	221.527	121.276	0.0001961	0.0021625	0.00019217	924.87	4.4854e-06	2.368e-05	776.41	307.63	1.5344e-05	3.8013e-06	288.74	100.02	99.76	45.532	3.42e-05	48.41	0.02042	0.025484	0.0074041	1324.9	0.00027783	0.00028226	1149.7	447.07	0.00027908	0.00028323	486.06	166.02	159.7	66.485	0.00029636	76.344	242.527	162.374	-50.716	-69.557	53.833	97.356	-70.127	-63.402	96.184	249.506	-65.513	-60.380	-58.056	-52.870	272.937	-55.727	-8191	255	
9965.383	1	1	0	0	0.049729	0.21449	0.39057	0.32229	0.13748	0.26113	0.19341	0.38738	0.13795	0.24745	0.21606	0.23723	0.17195	0.15886	0.11506	0.17006	-2.6625	-2.1833	-3.1188	-2.8542	-2.5979	-3.0167	-2.5354	-3.0458	-3.0042	-2.3458	-3.3104	-2.9542	-2.6958	-3.2604	-2.3479	-2.9208	84.094	176.905	-63.612	252.553	194.772	158.440	-14.450	235.097	85.665	-9.128	207.066	-64.072	-28.059	226.406	-62.539	-77.737	0.0001641	0.0010952	9.9161e-05	926.63	7.2481e-06	9.7854e-06	776.79	308.52	1.7587e-05	1.3507e-05	288.58	99.485	99.938	45.271	6.554e-06	48.663	0.020451	0.025845	0.0076811	1325.4	0.00027832	0.00028765	1160.3	446.21	0.00027815	0.00028699	488.29	164.71	158.87	66.531	0.00029992	76.124	220.995	157.873	129.805	-69.520	232.606	140.428	-70.187	-63.453	11.342	2.426	-65.266	-59.989	-57.861	-52.994	137.369	-55.938	-8191	255	
9965.481	1	1	0	0	0.12836	0.1332	0.26394	0.1083	0.06429	0.1087	0.10756	0.23651	0.13651	0.19978	0.31455	0.20458	0.23884	0.23539	0.11988	0.1337	-2.775	-2.3063	-3.1562	-2.8917	-2.2313	-3.2208	-2.7667	-2.9562	-3.0875	-2.3458	-3.2417	-3.2125	-2.5042	-3.3063	-2.5667	-2.8042	53.386	155.040	236.984	41.172	91.850	185.136	1.704	156.415	210.384	128.770	194.470	232.278	-23.620	-58.633	187.854	171.840	0.00021677	0.00091293	0.00041726	925.71	9.8311e-06	6.3712e-06	781.66	306.98	4.4773e-06	5.9294e-06	289.72	100.01	100.43	45.521	8.5117e-06	48.548	0.020349	0.026627	0.0078207	1325.3	0.00028124	0.00029915	1167.2	445.93	0.00028247	0.00030174	493.96	165.84	160.29	67.659	0.0003068	76.449	269.736	194.870	8.803	-69.501	119.444	-7.773	-69.925	-62.970	36.279	98.626	-65.095	-59.479	-57.415	-52.382	-33.963	-55.217	-8191	255	
9965.599	1	1	0	0	0.0605	0.26912	0.076611	0.30045	0.20918	0.064933	0.19256	0.25915	0.15518	0.051033	0.14428	0.11333	0.095773	0.45215	0.21679	0.085915	-3.0521	-2.2958	-2.8625	-3.2	-2.3208	-3.2833	-2.8125	-2.4229	-3.3146	-2.7167	-2.8833	-3.1708	-2.5812	-3.3667	-2.8354	-2.6271	-31.110	242.997	126.564	225.791	244.978	278.399	216.383	145.533	-60.688	42.130	225.211	-54.879	86.712	222.435	-4.189	149.405	0.00010871	0.001537	0.00052018	924.46	6.2731e-06	1.0262e-05	783.05	306.5	6.5631e-06	1.9559e-05	288.81	99.404	99.239	45.396	1.1696e-05	48.436	0.020856	0.027835	0.0078731	1325.2	0.00028179	0.00030573	1162	443.97	0.0002793	0.00030293	485.81	162.96	158.24	67.143	0.00029098	75.051	-76.354	69.259	-34.564	-68.679	71.591	119.422	-68.974	-62.982	-22.808	154.623	-64.946	-59.356	-57.564	-52.565	4.793	-54.937	-8191	255	
9965.696	1	1	0	0	0.086183	0.23514	0.18761	0.43455	0.057672	0.13734	0.18957	0.29366	0.20719	0.10276	0.26565	0.2206	0.12871	0.17867	0.11444	0.18806	-3.1604	-2.3521	-2.7229	-3.325	-2.1688	-3.2958	-3.0312	-2.5479	-3.3396	-2.6542	-2.9979	-3.3292	-2.3708	-3.1479	-2.9229	-2.5312	191.098	122.535	91.883	-63.227	248.995	-6.782	-71.251	243.295	18.668	-38.170	216.042	213.650	223.874	239.666	74.196	209.067	0.00033256	0.0014117	0.00012562	923.27	1.8519e-05	4.6096e-06	778.9	306.49	1.0154e-05	1.1635e-05	289.35	99.454	99	45.318	1.6726e-05	48.361	0.020134	0.02721	0.0074802	1307.9	0.00027563	0.00030283	1146.6	439.65	0.00027639	0.00030108	479.63	161.65	157.99	66.953	0.00028104	74.304	220.396	147.586	130.286	-68.867	213.661	159.391	-69.584	-62.777	-37.833	228.920	-64.613	-59.132	-57.133	-52.008	63.777	-55.010	-8191	255	
9965.767	1	1	0	0	0.13887	0.14741	0.21715	0.17315	0.10264	0.10748	0.21571	0.13645	0.23422	0.079174	0.13759	0.16004	0.18809	0.33721	0.29234	0.1718	-3.0771	-2.4688	-2.7667	-3.3354	-2.5187	-3.2333	-3.0729	-2.6312	-3.3708	-2.5333	-2.8708	-3.3979	-2.4417	-3.1417	-3.0438	-2.4958	14.046	42.666	254.063	210.464	63.899	275.090	-9.035	-38.138	251.130	3.002	78.937	198.577	-15.125	-2.068	-33.169	31.185	0.00037713	0.0016309	0.00045516	920.71	2.0715e-05	9.0355e-06	777.3	305.96	8.1792e-06	8.9679e-06	287.7	99.394	99.262	45.21	7.216e-06	48.486	0.020057	0.026593	0.0071436	1291.9	0.00027287	0.00029178	1130	433.81	0.00027333	0.00028894	471.67	159.67	157.87	66.241	0.00027207	73.843	195.990	124.614	36.812	-68.568	225.885	49.732	-68.865	-62.493	14.987	164.184	-64.336	-59.045	-57.371	-52.353	253.388	-54.761	-8191	255	
9965.888	1	1	0	0	0.12367	0.19919	0.23105	0.18437	0.15003	0.19244	0.099539	0.30994	0.17311	0.18986	0.082778	0.16459	0.2197	0.27242	0.039853	0.28583	-2.9688	-2.6375	-2.4458	-3.4417	-2.3375	-2.8708	-3.2271	-2.5729	-3.2417	-2.6708	-2.6479	-3.3208	-2.4458	-2.8208	-3.2417	-2.6854	134.293	61.394	122.164	191.187	-15.095	-46.671	202.845	173.263	56.739	96.426	-53.058	-4.955	-73.745	259.670	-45.143	264.550	0.00035509	0.00058597	0.00031191	919.03	1.3822e-05	1.7914e-05	780.37	305.79	1.074e-05	1.003e-05	289.6	99.424	99.569	45.401	1.7878e-05	48.215	0.020283	0.02606	0.0070246	1291.4	0.00027745	0.00028608	1128.3	434.58	0.00027877	0.00028427	470.42	160.04	158.64	65.841	0.00026777	73.766	239.763	131.823	48.534	-68.546	221.946	42.162	-69.176	-62.362	203.860	-3.556	-64.451	-59.275	-57.161	-51.974	-17.406	-54.859	-8191	255	
9965.984	1	1	0	0	0.056961	0.33672	0.15525	0.19317	0.17728	0.12756	0.14049	0.12769	0.10519	0.25808	0.12313	0.067525	0.11467	0.13842	0.14737	0.12333	-2.7896	-2.7896	-2.4354	-3.4333	-2.5354	-2.7417	-3.4417	-2.2667	-3.2021	-2.9375	-2.3375	-3.4125	-2.6333	-2.8521	-3.1771	-2.5271	-13.546	62.163	36.275	258.329	45.505	88.455	95.857	-57.364	172.805	177.176	213.415	277.389	270.413	220.846	2.314	229.176	9.5738e-05	0.00080232	0.00039114	921.72	4.4945e-06	1.262e-05	777.75	304.65	5.0789e-06	4.5956e-06	287.63	99.476	99.451	45.257	3.3089e-06	47.977	0.020207	0.025149	0.0068297	1288.5	0.00027404	0.00027394	1115.1	432.39	0.00027352	0.00027328	463.9	159.84	157.39	65.147	0.00026035	73.796	-70.419	274.944	21.639	-68.679	58.699	74.152	-69.423	-63.199	108.381	-17.128	-64.716	-59.570	-57.697	-52.602	193.614	-55.306	-8191	255	
9966.080	1	1	0	0	0.048076	0.02053	0.069128	0.12844	0.34351	0.14483	0.2534	0.18386	0.10855	0.44358	0.28962	0.068112	0.39126	0.173	0.26309	0.13588	-2.8479	-2.9854	-2.0563	-3.3083	-2.8312	-2.4479	-3.3271	-2.4875	-3.0896	-2.875	-2.4688	-3.3979	-2.6625	-2.5271	-3.3937	-2.5083	-64.041	-65.798	253.394	45.030	261.439	63.439	141.972	-46.224	5.257	-7.957	204.365	180.440	252.666	276.945	-6.442	256.190	0.00011315	0.00092619	0.0001526	923.81	6.6397e-06	1.63e-05	780.46	305.03	8.1101e-06	5.5829e-06	288.76	99.63	99.75	45.432	4.6682e-06	48.538	0.019855	0.024385	0.0066733	1293.9	0.00026988	0.00027015	1114.4	436.13	0.00027007	0.00027035	464.36	161.72	157.67	65.449	0.00026436	75.164	-63.470	207.253	-31.489	-69.026	225.446	95.897	-69.767	-63.200	102.090	158.988	-65.202	-59.352	-57.241	-52.247	-50.521	-55.033	-8191	255	
9966.176	1	1	0	0	0.16462	0.15005	0.060983	0.086429	0.18791	0.24626	0.092944	0.14036	0.090119	0.088764	0.0639	0.10399	0.27652	0.016909	0.093709	0.20329	-2.5687	-3.3312	-2.4625	-3.2708	-2.6437	-2.5875	-3.4042	-2.5042	-2.9375	-3.1292	-2.4104	-3.1813	-3.1167	-2.3583	-3.5479	-2.5833	60.789	41.967	-43.006	219.185	48.687	58.481	221.072	232.160	88.380	17.217	109.138	20.827	-30.600	272.131	242.303	253.939	0.00014684	0.00084465	0.00025984	924.6	1.8257e-05	6.1131e-06	779.93	306.96	5.6165e-06	2.1134e-05	287.49	100.48	100.13	45.957	5.5007e-06	49.131	0.020021	0.024877	0.0068964	1313.8	0.00027412	0.00027493	1127.5	443	0.0002736	0.00027441	471.33	164.3	158.24	65.835	0.00027102	75.962	193.256	-9.780	70.289	-68.162	121.520	120.970	-69.315	-62.932	6.710	99.945	-64.702	-59.188	-57.059	-51.872	50.795	-54.676	-8191	255	
9966.295	1	1	0	0	0.062328	0.22158	0.054694	0.30475	0.15352	0.18647	0.22593	0.21635	0.29162	0.1299	0.25741	0.0081618	0.19336	0.22827	0.14388	0.12584	-2.3583	-3.2167	-2.4062	-3.2062	-2.7562	-2.4042	-3.4813	-2.6667	-2.6375	-3.2917	-2.7479	-3.1125	-2.8563	-2.1792	-3.2438	-2.9375	266.767	177.680	80.857	243.720	106.076	-2.639	213.254	221.939	-21.767	84.599	269.347	70.428	271.784	228.669	-11.275	-6.836	0.00022306	0.0010081	8.3008e-05	927.87	1.095e-05	1.7873e-05	774.91	305.99	9.1394e-06	1.0879e-05	286.88	100.05	99.481	45.366	2.6707e-06	48.548	0.01968	0.024545	0.0069359	1308.3	0.00026474	0.00026557	1120.8	437.38	0.00025812	0.00026219	465.99	160.66	153.93	64.359	0.00026078	73.834	183.400	54.749	258.745	-68.111	157.763	59.847	-69.243	-62.799	121.728	85.545	-64.429	-58.884	-56.577	-51.645	230.474	-54.983	-8191	255	
9966.391	1	1	0	0	0.14685	0.20556	0.13792	0.25023	0.26753	0.06264	0.23931	0.15213	0.18298	0.075705	0.06949	0.25181	0.22703	0.057662	0.36183	0.17905	-2.2771	-3.1542	-2.3833	-3.2542	-3.0396	-2.4021	-3.3312	-2.6562	-2.9313	-3.1354	-2.5875	-3.0458	-2.9833	-2.3979	-3.2083	-2.6562	179.943	147.131	-42.702	228.667	39.142	36.679	232.359	275.174	43.877	275.208	202.132	205.991	250.498	126.837	-11.165	185.066	0.0001465	0.00058097	0.00022181	917.3	1.6105e-05	2.305e-05	774.14	305.21	1.2384e-05	9.7018e-06	287.89	100.3	99.064	45.499	1.8061e-05	48.61	0.018151	0.022837	0.0066692	1275.7	0.00024725	0.00025181	1111.9	429.89	0.00024752	0.00025306	464.58	158.82	152.46	64.293	0.00026578	73.548	-71.621	229.136	178.002	-68.083	99.864	88.136	-69.191	-62.508	-27.812	71.124	-64.512	-58.699	-56.689	-51.781	-22.377	-54.734	-8191	255	
9966.465	1	1	0	0	0.073646	0.30658	0.091518	0.27678	0.03432	0.092423	0.12912	0.30641	0.18436	0.33762	0.10327	0.28745	0.096123	0.16893	0.081037	0.059528	-2.0187	-3.4625	-2.3896	-2.975	-2.9896	-2.2875	-3.425	-2.8521	-2.4271	-3.3854	-2.5917	-2.7188	-3.1312	-2.3396	-3.1854	-2.8479	150.974	224.749	122.966	235.254	107.625	-30.416	-48.124	183.899	-39.136	149.063	177.723	4.113	149.835	217.173	260.255	178.147	0.00022032	0.0011654	7.9523e-05	920.18	1.5461e-05	2.3251e-05	777.29	305.83	1.1153e-05	1.4573e-05	289.76	100.35	99.664	45.406	1.1824e-05	48.768	0.018171	0.023336	0.0069344	1281.1	0.00025154	0.00026141	1129.5	433.3	0.00025436	0.00026813	475.35	160.32	154.76	65.546	0.0002803	74.498	226.398	-76.013	131.820	-68.204	86.973	196.753	-68.857	-62.609	51.950	236.969	-64.430	-58.717	-56.935	-51.706	-35.778	-55.184	-8191	255	
9966.561	1	1	0	0	0.12167	0.095822	0.12815	0.25595	0.1502	0.069082	0.027009	0.3649	0.37205	0.30103	0.069193	0.10036	0.3986	0.21808	0.15307	0.099443	-1.9729	-3.1771	-2.5333	-2.8958	-3.4604	-2.1833	-2.8375	-3.1083	-2.2687	-3.2667	-2.7146	-2.6292	-3.3792	-2.5417	-3.0062	-3.2104	241.196	31.685	-31.018	31.568	147.488	16.138	253.875	191.973	67.479	-28.067	115.862	276.687	239.287	228.939	-7.602	196.235	0.00012716	0.00091277	0.00083117	928.52	1.2847e-05	1.5567e-05	781.98	306.88	9.1175e-06	1.7516e-05	289.91	100.46	100.47	45.636	5.559e-06	48.844	0.018944	0.025017	0.0072537	1296.7	0.00026143	0.00028081	1145.4	437.58	0.00026298	0.00028589	482	162.21	157.36	66.817	0.00028715	75.297	196.338	82.861	51.929	-68.522	61.625	154.847	-69.247	-62.967	33.263	215.515	-64.843	-59.409	-57.506	-52.280	4.793	-55.435	-8191	255	
9966.680	1	1	0	0	0.28456	0.14466	0.27196	0.068417	0.065623	0.25529	0.13406	0.38709	0.16433	0.13659	0.19959	0.044772	0.36216	0.17178	0.03409	0.21309	-1.7854	-3.2042	-2.7521	-2.6646	-3.1542	-2.3375	-2.9583	-3.2458	-2.2875	-3.1625	-2.9792	-2.7062	-3.3667	-2.4729	-2.8729	-3.5833	113.540	143.517	14.649	216.298	190.023	111.858	232.635	213.458	-57.983	-10.193	254.869	182.057	272.726	8.363	61.391	219.365	0.00014416	0.00080495	0.00047818	928.34	8.696e-06	1.6332e-05	787.05	307.55	6.3348e-06	1.1847e-05	290.26	100.13	100.37	45.837	1.4212e-05	48.647	0.019599	0.026634	0.0074305	1309.3	0.00027065	0.00029587	1151.6	442.17	0.00027305	0.00029987	484.39	163.17	159.54	67.707	0.00028959	75.333	207.178	8.216	36.261	-68.672	151.516	205.011	-69.350	-62.885	117.921	224.248	-64.692	-58.565	-56.685	-52.104	22.374	-54.744	-8191	255	
9966.776	1	1	0	0	0.21798	0.1414	0.11045	0.36934	0.2857	0.18942	0.26086	0.070835	0.10309	0.079876	0.15556	0.067514	0.30463	0.052592	0.085556	0.24669	-1.925	-3.175	-2.8729	-2.6646	-3.2583	-2.4375	-2.8333	-3.2958	-2.5375	-3.0167	-2.95	-2.4083	-3.3104	-2.6646	-2.5667	-3.5979	129.075	-40.589	216.590	229.666	-0.730	-23.709	229.478	241.110	-71.866	146.876	154.693	-38.790	164.380	-28.330	-78.459	131.144	0.00032324	0.0010773	0.00079536	927.56	2.2147e-05	1.0418e-05	783.52	307.29	8.1174e-06	1.107e-05	286.92	99.194	98.752	45.356	6.2721e-06	48.466	0.020259	0.027407	0.0074211	1307.5	0.00027592	0.00029893	1140.4	438.08	0.00027402	0.00029693	475.56	160.27	157.84	66.577	0.00027507	73.954	261.114	127.726	-17.415	-68.315	215.828	12.474	-68.883	-62.781	171.319	112.334	-64.655	-59.482	-57.014	-52.141	272.464	-54.878	-8191	255	
9966.872	1	1	0	0	0.23061	0.036849	0.31631	0.15317	0.048826	0.26003	0.12101	0.099317	0.08005	0.21306	0.066751	0.053906	0.19727	0.18882	0.096382	0.15008	-1.8396	-2.9208	-2.9146	-2.5104	-3.2125	-2.8063	-2.8708	-3.3688	-2.4813	-3.0521	-3.2792	-2.4458	-3.2979	-3.0042	-2.4604	-3.3875	26.114	-25.829	200.271	-37.437	143.935	152.038	87.482	145.576	-67.877	-38.500	127.667	273.422	-4.485	243.358	117.081	240.955	0.00035294	0.0014883	0.00048522	924.92	1.3718e-05	2.1602e-05	776.89	305.17	2.1965e-06	1.0988e-05	286.97	98.84	99.172	45.184	1.8845e-05	48.285	0.019932	0.026155	0.0069885	1284.1	0.00027154	0.00028586	1121.7	431.05	0.00026988	0.00028196	466.95	158.24	156.98	65.643	0.00026468	73.448	241.977	-14.119	4.166	-68.613	233.944	46.392	-69.290	-63.043	58.211	39.193	-64.145	-58.787	-56.941	-51.935	59.723	-54.941	-8191	255	
9966.993	1	1	0	0	0.14211	0.16575	0.062675	0.26816	0.12065	0.29539	0.11089	0.13564	0.18645	0.22047	0.16801	0.20241	0.24262	0.17777	0.085702	0.14422	-2.2021	-2.85	-3.0854	-2.5604	-3.2938	-2.8312	-2.6042	-3.3417	-2.5583	-3	-3.2792	-2.2875	-3.2167	-3.0521	-2.575	-3.5687	4.307	186.252	-50.534	207.114	36.006	97.701	242.245	241.560	254.958	74.127	262.353	178.277	-41.498	185.059	16.305	145.502	0.00032968	0.0017895	0.00024417	919.2	1.3499e-05	1.4939e-05	776.5	305.34	6.2032e-06	1.7993e-05	288.68	99.46	99.66	45.456	1.1883e-06	48.491	0.019926	0.025411	0.0069007	1283.5	0.00027592	0.00028178	1123.5	434.99	0.00028039	0.00028437	472.03	161.2	160.09	66.344	0.0002746	75.221	240.353	-32.314	170.909	-68.315	123.209	24.466	-68.873	-62.288	66.784	8.553	-64.969	-59.248	-57.710	-52.830	70.837	-55.684	-8191	255	
9967.064	1	1	0	0	0.34158	0.25452	0.14116	0.16733	0.14728	0.18194	0.10903	0.14381	0.25625	0.21093	0.20482	0.074533	0.25075	0.13746	0.19726	0.33842	-2.3063	-2.7562	-3.2333	-2.3833	-3.0854	-3.0938	-2.4542	-3.4229	-2.5479	-2.6562	-3.1979	-2.6021	-3.1854	-3.2188	-2.3479	-3.5521	173.180	-28.215	80.422	48.144	-68.398	-69.166	226.350	211.244	105.121	-38.818	275.774	199.155	213.687	-61.348	275.444	126.812	0.00024987	0.0012757	0.00060161	920.7	1.0136e-05	1.0207e-05	774.87	306.68	1.9675e-05	8.1576e-06	288.42	99.122	99.53	45.543	1.223e-05	48.446	0.020967	0.026034	0.0071201	1306.2	0.00028714	0.00028649	1130.3	440.97	0.00028646	0.0002868	474.22	163.36	160.85	66.413	0.0002753	75.905	227.431	-24.386	-32.117	-69.161	275.284	70.381	-70.128	-63.385	-2.752	110.144	-65.359	-60.148	-57.878	-53.004	81.771	-55.914	-8191	255	
9967.161	1	1	0	0	0.11522	0.15096	0.1809	0.12173	0.14779	0.08456	0.41817	0.075526	0.28286	0.26998	0.11958	0.20877	0.39168	0.073974	0.11991	0.095898	-2.2562	-2.4771	-3.1708	-2.5417	-2.9958	-2.95	-2.4646	-3.2812	-2.8063	-2.4708	-3.4917	-2.6437	-2.8333	-3.1458	-2.6312	-3.3812	-18.016	218.422	126.052	205.190	-33.909	117.273	234.978	203.748	124.976	-65.566	-1.885	123.250	256.359	118.047	206.396	-77.422	0.00013031	0.00086672	0.00049383	923.55	1.7002e-06	5.4761e-06	778.93	306.87	6.4191e-06	1.4108e-05	287.01	99.225	99.423	45.462	7.9922e-06	48.087	0.021043	0.025988	0.0071307	1317.2	0.0002847	0.00028528	1129.1	443.02	0.00028082	0.00028115	471.2	163.89	159.17	65.783	0.00027184	75.621	-76.722	66.759	-11.390	-68.969	265.324	15.918	-69.842	-63.198	6.841	118.332	-65.364	-59.601	-57.392	-52.764	10.908	-55.490	-8191	255	
9967.281	1	1	0	0	0.1712	0.46144	0.05965	0.028828	0.13663	0.12288	0.096574	0.22003	0.13817	0.079595	0.11561	0.045929	0.2974	0.15679	0.25043	0.16121	-2.425	-2.3458	-3.2146	-2.7125	-2.8208	-3.0938	-2.5917	-3.3146	-2.7687	-2.5	-3.5854	-2.6896	-2.5938	-3.1229	-2.5438	-3.3833	18.056	223.339	37.701	179.298	77.836	-55.521	-13.923	231.922	44.557	62.644	178.965	200.166	269.668	117.092	65.473	-74.553	0.00018283	0.0009028	0.00034305	920.78	9.606e-06	1.7153e-05	779.34	306.29	1.3172e-05	1.2091e-05	287.76	99.475	99.897	45.581	1.8745e-05	48.534	0.02027	0.025238	0.0070682	1312.5	0.00027509	0.00027704	1127.5	442.66	0.00027325	0.00027585	472.64	163.67	157.53	65.636	0.00027442	75.575	-70.220	66.440	67.704	-69.027	109.034	79.587	-69.546	-62.833	58.201	29.238	-64.840	-59.675	-57.308	-52.722	227.713	-55.409	-8191	255	
9967.376	1	1	0	0	0.1449	0.25164	0.12055	0.072951	0.16782	0.15311	0.068876	0.15596	0.1655	0.18644	0.1426	0.20866	0.24264	0.14231	0.091427	0.33516	-2.4646	-2.2521	-3.3979	-2.8458	-2.7854	-3.0396	-2.525	-3.0896	-2.8042	-2.425	-3.4146	-2.7146	-2.7104	-3.4104	-2.3937	-3.1458	28.028	-81.001	150.471	14.465	25.026	-3.248	167.599	-25.271	95.953	258.155	156.397	220.832	270.864	241.002	-78.490	155.594	0.00019532	0.0013316	0.00077068	923.76	6.0635e-06	1.7732e-05	778.38	308.51	1.034e-05	1.0071e-05	291.42	100.02	99.962	45.648	7.4826e-06	48.582	0.01966	0.02461	0.0071018	1311	0.0002685	0.00027258	1133.5	442.03	0.00026929	0.00027338	480.33	164.21	157.78	65.909	0.00028484	75.825	252.921	-0.577	48.185	-68.667	98.645	92.322	-70.131	-63.535	-45.129	207.220	-65.380	-60.050	-58.008	-53.172	254.607	-56.076	-8191	255	
9967.472	1	1	0	0	0.31429	0.18442	0.1024	0.090778	0.086829	0.14027	0.081057	0.15453	0.019269	0.098098	0.021726	0.1519	0.26732	0.091227	0.23146	0.4119	-2.65	-2.1333	-3.1542	-2.7458	-2.7458	-3.3583	-2.5792	-2.9458	-3.1604	-2.4104	-3.2042	-2.8417	-2.7125	-3.4146	-2.4813	-3.0125	-18.421	129.886	154.347	-72.382	144.384	158.995	164.693	188.684	-41.032	114.008	46.838	-37.211	266.832	202.815	133.586	-54.728	0.00020574	0.0014255	0.00029606	930.48	1.5846e-05	1.5287e-05	778.39	309.14	6.2601e-06	1.0404e-05	288.73	99.427	99.873	45.566	1.9332e-05	48.188	0.019936	0.025078	0.0074607	1318	0.00027112	0.00027948	1149.2	443.78	0.00027185	0.00027947	484.54	163.44	158.03	66.294	0.00029254	75.271	175.900	148.515	126.943	-69.510	57.140	85.939	-70.081	-63.674	-51.137	217.785	-65.792	-60.318	-58.225	-53.112	219.866	-55.642	-8191	255	
9967.592	1	1	0	0	0.31073	0.021154	0.31414	0.063809	0.058155	0.20104	0.11214	0.083563	0.14352	0.098595	0.12985	0.33079	0.11404	0.16834	0.10193	0.13116	-2.7979	-2.3667	-3.0167	-2.7979	-2.5125	-3.4521	-2.6688	-2.8229	-3.2958	-2.4958	-3.1729	-2.9979	-2.5708	-3.6937	-2.7104	-2.7708	44.364	54.099	-44.699	166.468	1.093	237.069	145.198	271.055	83.855	-50.479	247.539	71.924	193.165	202.911	57.543	53.135	0.00018822	0.0020564	0.00025381	928.79	7.6358e-06	7.6806e-06	780.22	308.3	1.0601e-05	1.5066e-05	287.91	98.795	99.799	45.45	1.1883e-06	48.326	0.019773	0.025459	0.0075331	1310.9	0.00026761	0.00028197	1147.6	441.07	0.00026758	0.00028222	481.36	161.37	156.36	66.21	0.00028643	74.088	-77.449	138.948	-38.852	-69.510	88.178	266.148	-70.362	-63.540	67.035	153.625	-65.528	-60.312	-58.206	-53.204	162.905	-55.952	-8191	255	
9967.664	1	1	0	0	0.27632	0.17358	0.12866	0.070601	0.056576	0.1885	0.3125	0.22397	0.21253	0.15852	0.014632	0.095978	0.13103	0.20121	0.13869	0.089092	-3.0854	-2.1813	-3.1021	-3.075	-2.5938	-3.1875	-2.7042	-2.6604	-3.3708	-2.5312	-3.025	-3.1396	-2.3125	-3.1625	-2.5229	-2.6854	2.498	85.801	-70.912	245.974	2.138	2.657	198.362	196.324	-48.601	86.258	-71.446	266.185	71.008	232.346	118.535	-44.132	7.9957e-05	0.00052837	0.00034969	922.88	1.4764e-05	2.6696e-05	775.75	307.34	5.7179e-06	1.4129e-05	287.74	98.904	99.34	45.247	3.8631e-06	47.99	0.019198	0.025465	0.0072933	1295.9	0.00025881	0.00028227	1131.7	434.31	0.00025586	0.00027895	471.6	158.37	153.81	65.66	0.00027125	73.038	271.861	77.436	37.925	-69.688	141.349	133.834	-70.233	-63.750	140.283	228.936	-65.792	-60.116	-57.936	-53.161	88.037	-56.114	-8191	255	
9967.760	1	1	0	0	0.40622	0.1743	0.23525	0.055842	0.20985	0.10449	0.17795	0.069093	0.23561	0.24269	0.14405	0.21819	0.16684	0.39608	0.24781	0.20127	-2.7708	-2.4604	-2.8812	-3.1937	-2.1708	-3.1104	-3.1	-2.5833	-3.1667	-2.3625	-2.8479	-3.3354	-2.3375	-3.1688	-2.85	-2.65	27.414	190.103	78.351	57.685	158.143	36.581	223.685	-74.554	249.347	176.759	236.446	246.625	259.094	265.278	32.196	1.191	0.00016503	0.0014043	0.00041602	923.54	1.2618e-05	5.9985e-06	775.15	306.05	5.5375e-06	2.3859e-05	287.24	99.434	98.866	45.34	1.3873e-05	47.873	0.018587	0.025202	0.0069467	1281.1	0.00025281	0.00027987	1118.5	429.92	0.00025374	0.00027734	465.71	156.97	153.65	65.557	0.00026192	72.279	235.055	221.523	-6.005	-69.523	226.511	188.799	-70.336	-63.626	268.815	260.711	-65.541	-60.133	-58.113	-53.045	21.179	-55.873	-8191	255	
9967.856	1	1	0	0	0.046156	0.16119	0.10018	0.15305	0.16263	0.15407	0.30884	0.39051	0.033317	0.16348	0.12398	0.19861	0.15005	0.09131	0.13838	0.29255	-2.8521	-2.5833	-2.8042	-3.1271	-2.1813	-3.4271	-3.1437	-2.3958	-3.3125	-2.6229	-2.8604	-3.3312	-2.4292	-2.9333	-2.9146	-2.3979	-78.326	203.390	166.718	104.090	155.730	82.751	154.770	269.039	119.457	53.517	180.647	-41.114	103.151	-45.588	253.752	144.841	0.00017471	0.00065584	0.00011465	924.14	2.0102e-05	2.0297e-05	773.26	304.37	1.0962e-05	7.7679e-06	286.01	98.915	99.452	45.295	2.167e-06	48.04	0.01856	0.024917	0.0067061	1269.3	0.0002541	0.0002738	1107.1	425.36	0.00025661	0.00027299	459.66	155.63	154.39	65.284	0.00025758	72.055	203.313	-18.036	37.586	-69.631	198.685	64.384	-70.134	-63.475	276.312	94.688	-65.297	-60.230	-58.098	-53.029	24.578	-56.172	-8191	255	
9967.977	1	1	0	0	0.29968	0.117	0.119	0.17775	0.13254	0.070309	0.11886	0.067876	0.13925	0.1492	0.086566	0.37529	0.31469	0.28621	0.23069	0.28904	-3.0938	-2.7271	-2.3771	-3.4125	-2.4333	-2.9667	-3.125	-2.3917	-3.1708	-2.875	-2.6104	-3.2458	-2.6146	-3.0354	-2.8937	-2.4229	129.663	259.098	232.285	104.484	163.501	-75.575	182.066	82.790	184.633	263.987	-38.358	229.372	247.069	-36.330	157.317	247.267	0.00019321	0.0016631	0.00022741	922	1.1734e-05	1.16e-05	775.6	304.28	1.3292e-05	2.0649e-05	285.4	98.437	98.704	45.291	7.6486e-06	47.849	0.019033	0.024632	0.0066353	1270.3	0.00026205	0.00027307	1105.3	426.84	0.00026399	0.00027164	458.74	156.18	155.92	65.074	0.00025593	72.22	229.441	-4.599	25.301	-69.260	213.402	55.880	-70.071	-63.555	81.936	68.104	-65.649	-60.016	-57.687	-52.780	93.417	-55.792	-8191	255	
9968.073	1	1	0	0	0.015964	0.09421	0.12679	0.26663	0.034073	0.12588	0.13939	0.099976	0.12741	0.14839	0.29552	0.12907	0.16343	0.22106	0.077812	0.1934	-2.9292	-2.9688	-2.1354	-3.3771	-2.4583	-2.75	-3.3937	-2.325	-3.2896	-2.9042	-2.6021	-3.3875	-2.6083	-2.8542	-3.0833	-2.3354	61.084	107.768	208.689	217.555	-79.232	-61.874	-58.773	195.034	-20.273	165.379	238.293	264.936	271.029	203.256	35.569	262.090	0.00012843	0.0014783	0.00026194	914.6	1.1553e-05	1.1508e-05	775.47	305	1.5987e-06	2.8245e-05	286.3	98.678	99.158	45.477	4.3819e-06	48.023	0.019439	0.024323	0.0066011	1273.5	0.0002665	0.00026867	1102.6	430.19	0.00026905	0.00026905	458.68	158.07	157.01	65.143	0.00025809	73.227	211.881	277.936	62.957	-69.321	146.938	44.583	-69.852	-63.348	277.539	10.005	-65.286	-59.983	-58.092	-53.096	-77.899	-56.146	-8191	255	
9968.169	1	1	0	0	0.25374	0.2073	0.056501	0.1548	0.34168	0.14393	0.17148	0.21842	0.13905	0.077585	0.15647	0.19797	0.19784	0.24091	0.08534	0.30704	-2.6667	-2.8563	-2.4125	-3.4146	-2.7	-2.725	-3.325	-2.3458	-3.1188	-3.2062	-2.4062	-3.2271	-2.7062	-2.7438	-3.2625	-2.4375	10.405	-30.538	82.212	196.114	-34.708	225.485	88.082	231.894	268.320	181.552	249.704	249.012	252.853	249.123	206.031	-70.718	0.00011193	0.00069115	0.00016055	919.54	8.4249e-06	1.8396e-05	775.3	304.71	1.5654e-05	6.259e-06	286.31	98.6	99.245	45.03	1.8017e-06	47.722	0.019726	0.024319	0.0066516	1288.2	0.00027128	0.00027064	1109.4	435.7	0.00027397	0.00027291	462.62	160.62	157.56	65.114	0.00026447	74.146	256.111	273.566	23.177	-69.001	19.356	18.513	-70.044	-63.457	47.733	96.855	-64.862	-59.742	-57.884	-53.222	240.242	-56.066	-8191	255	
9968.265	1	1	0	0	0.11361	0.086089	0.1096	0.079893	0.18076	0.063662	0.29055	0.42904	0.14811	0.14427	0.095427	0.20592	0.12903	0.053747	0.23598	0.19861	-2.6958	-2.9562	-2.3458	-3.4062	-2.6437	-2.4813	-3.5375	-2.5646	-2.8229	-3.1292	-2.5833	-3.2167	-2.7583	-2.7479	-3.3292	-2.5979	11.019	182.184	118.671	-20.408	106.146	-2.748	177.013	215.413	-16.552	-42.359	199.613	201.895	196.836	-22.278	263.070	270.221	8.3611e-05	0.0010361	6.5525e-05	919.11	2.1594e-05	2.0879e-05	766.75	304.58	1.1667e-05	1.1649e-05	282.27	97.488	98.923	44.896	1.3331e-05	47.271	0.020017	0.024817	0.0068325	1303.8	0.00027501	0.00027602	1115.3	440.24	0.00027442	0.00027665	466.2	162.48	157.84	65.265	0.00027448	74.686	180.844	-74.356	180.124	-69.408	21.137	74.341	-70.102	-63.651	57.443	-15.264	-65.939	-60.072	-58.349	-52.912	160.423	-56.225	-8191	255	
9968.362	1	1	0	0	0.12129	0.129	0.055981	0.061081	0.049965	0.15984	0.058919	0.18519	0.23155	0.040965	0.10306	0.26305	0.14257	0.35504	0.16476	0.19955	-2.4771	-3.1958	-2.4333	-3.1813	-2.8417	-2.5375	-3.1604	-2.6875	-2.8083	-3.3896	-2.6458	-3.0708	-3	-2.3604	-3.3125	-2.6854	89.107	-12.627	-80.927	3.068	82.537	-18.277	179.636	240.054	-42.590	80.865	24.288	-51.134	122.764	7.528	-73.974	13.567	0.00023108	0.00069413	6.4025e-05	918.14	1.0385e-05	1.7464e-05	769.69	305.33	1.1857e-05	1.5762e-05	282.53	98.367	99.003	44.892	1.5341e-05	47.352	0.020236	0.02531	0.0071623	1317.9	0.0002769	0.00027934	1128.7	443.36	0.00027605	0.00027901	472.08	163.17	157.68	65.355	0.00028468	74.842	-49.493	75.758	-50.254	-69.628	15.398	46.258	-70.186	-64.014	66.824	55.338	-65.892	-60.349	-58.135	-53.144	-1.715	-56.506	-8191	255	
9968.456	1	1	0	0	0.37045	0.021627	0.072219	0.28017	0.050766	0.34543	0.096378	0.070895	0.11302	0.31417	0.22059	0.2882	0.19064	0.26845	0.1536	0.043521	-2.3187	-3.1479	-2.3833	-3.2125	-3.0021	-2.4521	-3.3896	-2.8083	-2.3708	-3.3875	-2.4729	-2.8958	-3.3104	-2.4313	-3.2021	-2.6792	180.271	106.617	244.756	203.573	-57.436	163.552	-43.405	193.178	-46.392	110.285	234.117	207.256	-48.569	154.087	59.047	210.581	0.00019839	0.0017409	0.00033071	918.59	2.0505e-05	8.4908e-06	770.18	304.38	7.4065e-06	5.4419e-06	283.04	98.359	98.698	44.662	1.0565e-05	47.248	0.019954	0.025152	0.007341	1313.3	0.00027342	0.00027618	1133.4	439.58	0.00027078	0.00027576	474.35	161.47	155.84	64.813	0.00028412	73.915	182.804	259.158	93.789	-69.873	193.496	52.369	-70.486	-64.124	224.037	-68.385	-65.746	-60.246	-58.384	-53.173	207.211	-56.404	-8191	255	
9968.554	1	1	0	0	0.11934	0.14502	0.18993	0.2767	0.14438	0.068134	0.13299	0.38696	0.30952	0.089595	0.069653	0.02176	0.15675	0.23656	0.32561	0.016006	-2.1646	-3.2812	-2.2938	-2.9813	-3.0854	-2.6167	-3.2375	-2.7	-2.4542	-3.3187	-2.6042	-2.8312	-3.35	-2.6875	-3.2042	-2.9479	76.330	42.347	84.996	226.635	103.241	118.642	209.055	-11.048	261.339	262.604	-57.618	142.832	-13.928	265.168	-16.102	-69.689	7.5084e-05	0.0012132	0.00075997	912.51	8.6789e-06	3.0493e-05	769.7	303.44	1.6147e-05	6.5226e-06	282.87	98.395	98.664	44.692	4.6471e-06	47.055	0.019308	0.024662	0.0072761	1292.3	0.00026309	0.00027095	1127.6	433.04	0.00025875	0.00027007	471.26	158.57	153.86	64.672	0.00028116	72.919	221.874	229.895	128.029	-69.552	42.781	170.038	-70.213	-64.055	86.241	76.035	-65.755	-60.473	-58.328	-53.209	151.070	-56.017	-8191	255	
9968.673	1	1	0	0	0.1678	0.13117	0.14577	0.21984	0.2994	0.11194	0.22815	0.123	0.13839	0.091797	0.15096	0.071257	0.19701	0.033587	0.095773	0.20704	-1.8708	-3.2438	-2.4833	-2.4917	-3.1917	-2.4354	-3.1562	-3.1896	-2.4354	-3.1813	-2.85	-2.6125	-3.1625	-2.6479	-3.1396	-2.8688	246.428	55.092	-4.086	227.209	-10.992	27.410	193.248	165.324	-77.401	45.452	242.045	245.736	231.092	178.078	39.770	183.448	9.9571e-05	0.0015699	0.00012078	916.61	1.356e-05	3.5728e-05	767.44	303.06	1.257e-05	9.6424e-06	283.16	97.988	98.968	45.058	2.1518e-05	47.064	0.018845	0.024932	0.0072702	1288.3	0.00025933	0.0002768	1128.9	433.21	0.00025837	0.00028018	472.24	158.44	154.4	65.544	0.00028231	72.877	-58.785	146.598	143.443	-69.474	-6.074	192.107	-70.120	-63.837	90.481	272.007	-65.679	-60.236	-58.281	-53.204	28.787	-56.178	-8191	255	
9968.769	1	1	0	0	0.34403	0.083704	0.1402	0.30956	0.15821	0.13424	0.35236	0.19468	0.10245	0.15582	0.12866	0.048083	0.018115	0.11158	0.035209	0.33796	-2.0042	-3.3229	-2.6229	-2.575	-3.1396	-2.4021	-3.0542	-3.2042	-2.3229	-3.4542	-2.8396	-2.7104	-3.2583	-2.6	-2.9313	-3.2354	234.260	-25.863	-16.763	210.858	264.543	216.880	139.856	115.635	271.624	252.236	221.926	-41.125	-7.578	169.924	148.797	213.808	0.00012389	0.0019851	0.0003822	919.7	1.2031e-05	2.7279e-05	773.68	304.49	8.354e-06	1.9394e-05	283.98	98.416	98.414	44.884	9.2784e-06	47.122	0.018983	0.02587	0.0072616	1289.6	0.00026267	0.00028829	1129.4	434.27	0.00026236	0.00029086	471.38	158.67	155.37	66.031	0.00027955	72.892	239.641	183.567	38.173	-69.417	219.825	171.373	-70.080	-63.896	204.180	262.059	-65.827	-60.478	-58.520	-53.217	37.334	-56.187	-8191	255	
9968.865	1	1	0	0	0.27618	0.12071	0.19252	0.27308	0.23206	0.063531	0.045007	0.16624	0.17273	0.035686	0.25241	0.32057	0.26368	0.2345	0.03981	0.2232	-1.9688	-3.1125	-3.0042	-2.4562	-3.3021	-2.4771	-2.9667	-3.2687	-2.4417	-3.0229	-2.975	-2.4875	-3.3417	-2.7313	-2.7354	-3.3896	89.263	179.267	194.153	219.811	-63.099	164.024	-63.436	272.464	106.816	274.132	229.936	-60.046	-68.117	271.820	-66.320	-50.294	0.00025419	0.0012615	0.00050213	917.46	4.9464e-06	1.1235e-05	769.14	304.05	6.5834e-06	4.0311e-06	283.48	97.267	98.658	45.004	1.5231e-05	47.068	0.0193	0.026373	0.0071587	1285.9	0.00026583	0.0002911	1122.1	432.05	0.00026546	0.00029101	467.5	157.09	156.37	65.996	0.00027256	72.513	233.508	120.290	-49.578	-69.552	212.156	-21.809	-70.240	-63.935	-74.188	62.896	-65.825	-60.417	-58.233	-53.221	40.525	-56.137	-8191	255	
9968.961	1	1	0	0	0.16729	0.067077	0.12179	0.27699	0.079342	0.28498	0.24537	0.33083	0.2261	0.04721	0.33169	0.14497	0.16823	0.13509	0.075931	0.12128	-1.9083	-3.2396	-2.95	-2.4042	-3.2271	-2.7083	-2.5792	-3.3104	-2.4938	-3	-3.1792	-2.5646	-3.1979	-2.8958	-2.5917	-3.2917	70.670	-33.231	2.654	272.227	261.527	-35.010	220.186	208.525	108.863	-29.048	-78.836	1.124	265.817	263.517	29.380	67.607	0.00032869	0.0007026	0.00033781	920.21	1.6363e-05	1.1045e-05	768.82	304.99	2.6259e-06	9.3777e-06	282.49	97.142	98.229	44.757	1.4685e-05	46.748	0.019666	0.026198	0.0070173	1280.4	0.00026972	0.00028515	1110.9	429.5	0.00026853	0.00028189	461.29	155.85	155.94	65.246	0.0002633	71.551	241.544	-63.878	-10.314	-69.438	265.386	173.387	-70.224	-63.830	253.223	59.770	-65.947	-60.083	-57.872	-52.985	44.169	-56.204	-8191	255	
9969.057	1	1	0	0	0.10431	0.16827	0.2249	0.21259	0.083312	0.10852	0.32512	0.17368	0.20167	0.13545	0.10859	0.42076	0.067228	0.2287	0.020664	0.11442	-2.2104	-2.9271	-2.8917	-2.2458	-3.3958	-2.7833	-2.4375	-3.5	-2.6708	-2.9062	-3.375	-2.3521	-3.3604	-2.6792	-2.6333	-3.5104	-53.735	-22.381	246.295	228.373	131.560	195.698	267.659	-38.737	238.057	17.740	259.019	272.241	263.160	246.139	70.952	18.737	0.0001611	0.0014376	0.00012801	920.41	1.2505e-05	3.6822e-06	769	302.78	7.7491e-06	1.1833e-05	279.58	96.621	98.507	44.692	1.3001e-05	46.795	0.019624	0.025059	0.0067552	1271.5	0.00026933	0.00027469	1100.5	427	0.00026829	0.00027298	456.27	155.21	156.19	64.664	0.00025846	71.878	202.135	-24.802	43.275	-69.566	276.745	-41.574	-70.343	-63.786	78.178	47.360	-65.985	-60.290	-58.341	-53.293	96.601	-56.277	-8191	255	
9969.154	1	1	0	0	0.026323	0.17238	0.12924	0.26689	0.05032	0.13835	0.12911	0.24387	0.07498	0.072922	0.052365	0.1113	0.12641	0.056995	0.13928	0.31516	-2.1792	-2.7792	-3.2542	-2.1896	-3.0708	-2.9958	-2.3479	-3.2042	-2.7	-2.6813	-3.1958	-2.575	-3.0187	-3.0646	-2.3771	-3.45	131.474	-6.705	157.719	166.407	77.085	82.906	160.504	213.592	-56.065	51.417	131.695	131.485	-51.574	250.906	41.295	248.949	0.0001563	0.0019967	0.00015977	915.08	1.9679e-05	9.7398e-06	764.57	302.35	8.6193e-06	2.1537e-05	282.87	96.821	98.702	44.826	1.2954e-05	46.634	0.019917	0.024763	0.0067373	1280.5	0.00027544	0.00027519	1103.2	433.39	0.00027784	0.00027625	461.98	159.01	158.69	65.216	0.00026829	73.428	240.416	-71.808	38.351	-69.412	5.715	59.655	-70.034	-63.622	144.197	39.849	-65.909	-59.917	-58.291	-53.181	45.491	-56.016	-8191	255	
9969.274	1	1	0	0	0.30111	0.24648	0.11957	0.14641	0.11756	0.11942	0.16069	0.30688	0.15925	0.13238	0.25911	0.29723	0.084873	0.2917	0.068401	0.16549	-2.4396	-2.6583	-3.0917	-2.4167	-2.9917	-3.1917	-2.4437	-3.3833	-2.7146	-2.6312	-3.3042	-2.6188	-2.9771	-3.1083	-2.4917	-3.4146	170.813	34.062	150.160	-59.872	87.292	13.762	149.985	201.635	75.715	180.424	224.147	253.561	-20.391	-60.181	40.890	186.534	6.121e-05	0.00040597	0.0003119	919.4	9.352e-06	7.8404e-06	769.4	305.03	9.3076e-06	2.2157e-05	280.81	97.627	99.104	44.937	2.6859e-05	47.161	0.020616	0.025411	0.0069953	1307.3	0.00028263	0.00028113	1112	440.94	0.00028158	0.00028042	465.37	162.05	158.96	65.542	0.00027502	74.906	156.249	-31.758	62.773	-69.497	85.585	138.596	-70.164	-63.932	114.789	53.181	-65.825	-60.215	-58.155	-53.265	-16.594	-56.242	-8191	255	
9969.370	1	1	0	0	0.077439	0.1936	0.24234	0.036682	0.048187	0.12542	0.19748	0.051817	0.14783	0.1157	0.16065	0.094638	0.067169	0.16814	0.50235	0.14835	-2.2104	-2.3208	-3.2833	-2.6104	-2.7083	-3.1979	-2.7396	-3.2875	-2.8937	-2.5438	-3.2729	-2.4979	-2.9917	-3.1958	-2.2375	-3.1604	17.662	-4.587	-41.114	123.057	133.200	142.781	174.015	245.329	135.496	6.703	153.384	81.078	-80.837	-76.681	-50.175	239.007	0.00013157	0.00081385	0.00013872	920.31	1.0198e-05	1.5217e-05	769.51	304.82	1.1363e-05	1.1686e-05	281.7	97.142	99.051	45.136	1.2489e-05	46.928	0.020787	0.025843	0.0072447	1324.6	0.00028564	0.00028739	1128	447.12	0.00028565	0.00028637	474.48	164.47	159.73	65.895	0.00028707	75.238	34.548	-1.060	23.929	-69.341	65.932	39.981	-70.038	-63.444	158.094	-48.756	-65.148	-60.409	-58.094	-53.183	271.713	-55.866	-8191	255	
9969.465	1	1	0	0	0.096241	0.21501	0.22484	0.34622	0.20113	0.062783	0.21886	0.2574	0.17584	0.16475	0.1439	0.18013	0.057963	0.14816	0.13183	0.25149	-2.3375	-2.4229	-3.2917	-2.6083	-2.5021	-3.1437	-2.3625	-3	-3.0479	-2.3229	-3.4229	-2.6354	-2.6292	-3.3604	-2.2854	-3.1458	75.423	-26.090	75.317	240.554	131.412	221.840	185.483	209.583	22.494	132.854	242.255	257.382	-80.977	253.739	-49.040	220.955	0.00013297	0.0021127	0.00071215	921.31	1.3831e-05	5.2888e-06	763.44	304.12	8.1328e-06	2.2184e-05	279.9	96.747	98.29	44.581	5.207e-06	46.603	0.020775	0.025879	0.0074496	1327.6	0.00028055	0.00028374	1130.7	444.56	0.00027771	0.00027935	473.53	162.17	157.21	65.125	0.00028947	74.245	-40.612	-55.026	80.427	-69.396	4.077	118.920	-69.973	-63.732	165.437	31.614	-65.411	-60.058	-58.080	-53.011	189.895	-55.851	-8191	255	
9969.561	1	1	0	0	0.19196	0.29028	0.12025	0.34004	0.26504	0.14907	0.14232	0.18386	0.20137	0.1548	0.19265	0.073781	0.24022	0.21108	0.18244	0.1575	-2.6688	-2.2604	-3.2313	-2.5396	-2.3792	-3.3708	-2.4979	-2.9917	-3.0104	-2.2521	-3.3479	-2.8917	-2.5333	-3.4229	-2.4125	-2.7667	-73.143	-2.656	-76.324	274.644	87.608	78.992	239.438	225.462	192.287	-49.173	203.155	228.649	-58.917	270.604	187.149	268.664	8.4843e-05	0.00045599	0.0004925	914.02	6.2745e-06	4.9825e-06	761.61	304.66	5.4608e-06	3.9887e-06	280.49	96.487	98.76	44.586	1.6922e-05	46.625	0.020243	0.025563	0.0076035	1314.8	0.00027905	0.00028616	1140.4	443.41	0.00027882	0.00028572	481.39	161.89	157.42	65.525	0.00029754	74.005	232.332	197.061	118.742	-69.406	83.870	198.850	-70.400	-63.642	-56.503	192.646	-65.617	-60.210	-58.284	-52.861	60.811	-56.288	-8191	255	
9969.634	1	1	0	0	0.066489	0.068083	0.15118	0.15626	0.34592	0.24921	0.31336	0.10147	0.063404	0.04415	0.29804	0.1076	0.36769	0.068094	0.048806	0.20964	-2.8937	-2.3604	-3.0229	-3.0021	-2.4083	-3.1354	-2.6229	-2.8417	-3.1063	-2.3688	-2.9813	-2.9437	-2.5792	-3.3521	-2.3417	-2.8292	90.364	23.372	43.706	237.894	268.420	276.162	219.943	155.616	-73.321	262.192	220.737	91.830	174.570	-78.782	30.287	124.698	0.00013513	0.00073159	0.00042872	912.32	4.768e-06	1.2237e-05	766.05	304.08	4.6437e-06	5.9428e-06	280.46	96.501	98.565	44.655	9.4182e-06	46.795	0.020159	0.02587	0.0077098	1308.4	0.00027481	0.00028938	1143.7	440.03	0.00027316	0.00028835	480.43	160.31	156.74	65.914	0.00029551	73.405	191.957	-2.906	76.905	-69.769	-30.815	140.592	-70.217	-63.730	214.843	138.840	-65.546	-60.677	-58.138	-53.035	109.947	-56.075	-8191	255	
9969.753	1	1	0	0	0.094751	0.047173	0.21829	0.36104	0.092715	0.10672	0.17455	0.12597	0.087504	0.066042	0.20853	0.18959	0.077562	0.16849	0.1848	0.26056	-2.8438	-2.3083	-3.1958	-3.0938	-2.1396	-3.3292	-2.6104	-2.8604	-3.0792	-2.475	-2.9188	-3.0375	-2.4292	-3.0833	-2.6292	-2.5917	237.601	172.939	130.668	214.401	-36.992	255.210	131.199	-30.568	-2.193	-79.678	235.533	113.525	246.976	146.400	177.505	223.301	0.00012223	0.0019285	0.00032192	919.06	1.0948e-05	9.5719e-06	765.82	302.58	2.057e-06	2.527e-05	280.43	96.013	98.713	44.536	2.9212e-06	46.484	0.019751	0.026296	0.007568	1296.6	0.00026654	0.00029044	1132.3	435.22	0.00026734	0.00029125	474.47	158.66	155.41	66.063	0.00028872	72.678	216.758	199.620	89.544	-69.563	167.588	250.040	-70.299	-63.834	3.669	225.709	-65.515	-60.259	-58.230	-52.885	127.941	-55.957	-8191	255	
9969.849	1	1	0	0	0.083724	0.25039	0.18837	0.13915	0.15693	0.19751	0.31795	0.15576	0.1624	0.27124	0.26085	0.094119	0.085819	0.35475	0.16046	0.0046513	-2.9771	-2.2958	-2.6604	-3.1583	-2.4208	-3.1604	-2.8021	-2.65	-3.2146	-2.6312	-2.9688	-3.1479	-2.325	-3.1917	-2.9625	-2.5125	52.061	88.707	121.763	250.414	29.321	-33.650	216.761	274.759	59.246	-80.814	-67.784	178.512	36.330	-70.600	144.122	135.995	0.00021932	0.0017467	0.00014913	914.95	5.0232e-06	3.8411e-06	763.63	302.76	6.8631e-06	1.0005e-05	278.85	96.523	97.88	44.666	5.0332e-06	46.258	0.019598	0.026573	0.0073505	1289.5	0.00026615	0.00029396	1121.9	432.57	0.00026646	0.00029401	468.83	157.6	155.4	66.125	0.00028048	72.238	258.539	213.078	130.443	-69.638	179.294	119.449	-70.117	-63.675	174.439	166.581	-65.229	-60.437	-58.039	-52.995	97.033	-55.960	-8191	255	
9969.945	1	1	0	0	0.30589	0.078109	0.097587	0.20393	0.20695	0.19808	0.15913	0.21933	0.022074	0.18193	0.18178	0.17653	0.13047	0.13555	0.15954	0.22281	-2.7896	-2.4396	-2.7687	-3.2958	-2.4104	-3.2146	-3.2167	-2.4042	-3.3	-2.55	-2.6792	-3.2958	-2.2646	-3.1125	-3.0125	-2.4479	45.124	81.996	-43.110	-52.111	189.738	176.125	64.693	22.312	49.018	-15.436	198.618	203.868	4.904	229.374	78.144	-49.618	0.00028907	0.0017284	0.00045072	914.52	1.0718e-05	1.8658e-05	764.37	303.36	7.3328e-06	1.6593e-05	282.4	96.47	98.422	44.924	4.2115e-06	46.554	0.019841	0.02689	0.0072228	1288.3	0.00027373	0.00029894	1122.2	433.64	0.00027776	0.00029886	468.78	158.17	158.1	66.511	0.0002807	72.542	243.156	120.046	7.357	-69.509	191.216	81.148	-70.322	-63.778	242.309	229.874	-65.680	-60.427	-58.165	-53.071	-34.034	-56.243	-8191	255	
9970.042	1	1	0	0	0.22512	0.1169	0.093949	0.19286	0.2922	0.084705	0.07232	0.089348	0.028423	0.21143	0.21299	0.14219	0.058967	0.22482	0.10966	0.15681	-2.8333	-2.6937	-2.6292	-3.3438	-2.3917	-2.9479	-3.1271	-2.4396	-3.2812	-2.6396	-2.7104	-3.5042	-2.4583	-3.1229	-3.3896	-2.5896	163.251	111.406	-80.267	121.711	-26.789	91.473	273.539	141.116	22.928	7.838	219.692	254.891	220.521	-55.682	165.322	178.796	0.000188	0.0018282	0.00016538	917.01	2.6221e-05	7.3654e-06	765.11	304.18	1.6188e-05	1.5221e-05	281.87	96.44	98.529	44.975	1.9851e-05	46.556	0.020623	0.026998	0.0072562	1295.5	0.00028477	0.00029969	1124.1	436.81	0.00029041	0.00029858	470.3	158.93	160.45	66.434	0.00028095	72.922	-77.279	-27.944	47.553	-69.682	228.606	121.809	-70.309	-63.901	250.119	61.414	-65.733	-60.250	-58.397	-53.054	51.300	-56.016	-8191	255	
9970.162	1	1	0	0	0.063207	0.22747	0.37348	0.17866	0.16868	0.15966	0.12161	0.19352	0.08294	0.036703	0.096996	0.15052	0.1406	0.087184	0.15273	0.29893	-3.05	-3.0021	-2.4	-3.6125	-2.7	-3.1292	-3.5396	-2.6917	-3.2812	-3.1562	-2.7583	-3.6125	-2.8812	-3.1042	-3.3229	-2.8208	134.918	252.480	244.783	11.194	256.742	-72.843	215.412	221.963	222.208	207.119	214.572	104.734	196.369	195.568	217.282	239.309	0.00024667	0.0012274	0.00067255	917.83	1.6234e-05	7.8189e-06	762.83	303.18	2.9285e-06	2.6443e-05	280.71	96.225	98.194	44.885	2.022e-05	46.456	0.021276	0.026685	0.0071888	1299.5	0.00029168	0.00029358	1118.6	436.53	0.00029093	0.00029108	465.88	159.41	159.83	65.668	0.00027404	72.824	220.402	273.836	2.320	-69.768	211.682	236.600	-70.424	-63.840	235.681	-13.129	-65.815	-59.802	-58.298	-53.133	35.036	-56.620	-8191	255	
9970.234	1	1	0	0	0.19884	0.13679	0.27967	0.046369	0.20877	0.07848	0.074341	0.12479	0.29437	0.064299	0.15269	0.32013	0.047081	0.16214	0.081188	0.2244	-2.9708	-3.0167	-2.4167	-3.6667	-2.9333	-2.7958	-3.5458	-2.7979	-3.4062	-3.3125	-2.6854	-3.4021	-2.8125	-3.0104	-3.6417	-2.6083	167.167	-34.995	146.482	154.639	176.174	-68.174	-3.028	37.115	221.474	-4.937	239.222	255.909	239.088	-15.702	218.653	136.623	0.00030622	0.0014542	0.00033541	912	1.262e-05	1.947e-05	758.4	302.12	2.0877e-05	7.796e-06	277.37	95.931	97.683	44.713	6.426e-06	46.236	0.021094	0.025856	0.0070207	1299.2	0.00028665	0.00028365	1107.9	437.16	0.00028524	0.00028173	458.77	159.09	157.91	64.978	0.00027123	73.158	-76.934	-36.440	-37.869	-69.629	84.658	34.830	-70.099	-63.801	79.793	170.248	-65.495	-60.108	-58.388	-52.983	-73.874	-56.079	-8191	255	
9970.355	1	1	0	0	0.20337	0.10978	0.15966	0.11799	0.032145	0.15164	0.083005	0.33563	0.17306	0.21093	0.016645	0.11551	0.10432	0.067733	0.175	0.15648	-2.7667	-3.1771	-2.5771	-3.4938	-2.8063	-2.7271	-3.5938	-2.8521	-2.7958	-3.2375	-2.6417	-3.4667	-2.9917	-2.6896	-3.5354	-2.7062	40.790	-29.457	25.421	-72.321	150.218	-56.146	-34.457	150.186	-30.254	-77.536	89.907	264.731	219.515	42.277	62.814	143.640	0.00017151	0.0013578	0.00043685	912.76	1.4678e-05	1.9738e-05	756.35	302.91	8.5488e-06	1.0064e-05	278.32	95.833	98.629	45.085	8.0369e-06	46.512	0.020559	0.02536	0.0069573	1307.1	0.00028169	0.00027981	1107.3	439.65	0.00027976	0.00028033	462.39	161.14	157.71	65.123	0.00027221	74.056	-72.309	3.576	-11.212	-69.397	11.320	101.828	-70.099	-63.728	79.451	68.241	-65.565	-60.012	-58.300	-53.048	149.815	-56.155	-8191	255	
9970.451	1	1	0	0	0.14491	0.15537	0.14875	0.16192	0.14497	0.15272	0.15809	0.35579	0.067044	0.11101	0.25543	0.2302	0.16877	0.12282	0.14562	0.067786	-2.5646	-3.0438	-2.6896	-3.4708	-2.9854	-2.4688	-3.6875	-2.8333	-3.0083	-3.4583	-2.6021	-3.3125	-3.0417	-2.7687	-3.6188	-2.9562	227.552	-34.625	-7.452	239.333	18.472	-29.937	243.881	250.312	64.008	259.640	263.699	-38.234	230.948	-34.590	196.954	70.117	0.0001796	0.0015117	0.00043121	915.24	1.6706e-05	6.9003e-06	757.74	303.14	1.6673e-05	2.0465e-05	277.83	96.947	98.29	44.828	1.0491e-05	46.56	0.020069	0.024963	0.0069905	1306.5	0.00027213	0.00027335	1108.8	439.24	0.00027111	0.00027199	462.56	160.96	155.85	64.726	0.00027473	73.578	-8.151	141.205	149.474	-69.346	56.083	102.224	-70.192	-63.562	86.412	37.580	-65.815	-60.322	-58.274	-53.081	-71.742	-55.964	-8191	255	
9970.545	1	1	0	0	0.13032	0.22814	0.17519	0.11464	0.15538	0.18602	0.071645	0.097252	0.065055	0.10807	0.25073	0.063327	0.042648	0.1416	0.16667	0.069563	-2.4542	-3.5125	-2.6937	-3.2438	-3.1708	-2.675	-3.5438	-2.8542	-2.7896	-3.7083	-2.5625	-3.2292	-3.125	-2.6188	-3.4354	-2.8438	153.276	171.059	95.324	256.631	-8.888	196.119	160.725	120.815	-48.137	-62.762	138.320	223.296	196.319	261.832	-61.142	276.115	0.00010653	0.0015057	0.00033122	909.6	5.1777e-06	1.6933e-05	756.2	301.78	7.4564e-06	1.8672e-05	277.97	96.134	97.766	44.712	4.5186e-06	46.291	0.019402	0.024339	0.0070754	1294	0.00026377	0.00026478	1106.9	432.88	0.00025999	0.0002644	460.99	157.53	153.36	63.939	0.00027412	72.033	271.879	-48.702	170.016	-69.291	170.265	59.129	-70.164	-63.534	55.451	207.697	-65.841	-60.061	-57.943	-53.005	-79.926	-56.162	-8191	255	
9970.643	1	1	0	0	0.055953	0.22038	0.15019	0.31707	0.067221	0.21304	0.17651	0.34461	0.26421	0.22403	0.22362	0.059808	0.23228	0.059359	0.099226	0.3136	-2.3646	-3.5833	-2.5458	-3.1521	-3.3604	-2.3875	-3.4417	-3.1146	-2.775	-3.5833	-2.7042	-3.1771	-3.4771	-2.7521	-3.3	-3.0083	9.829	208.302	167.081	258.305	230.636	208.254	115.800	223.027	-73.957	95.270	-61.723	244.823	-73.991	-46.080	154.941	260.101	9.6857e-05	0.00018665	0.00043003	909.87	8.7593e-06	7.9181e-06	755.61	298.65	6.2619e-06	6.9649e-06	276.68	96.268	97.619	44.504	1.0485e-05	46.533	0.018607	0.023507	0.0069691	1270.7	0.0002501	0.00025681	1098.3	424.53	0.00024716	0.00025722	457.76	154.51	151.31	63.769	0.0002713	71.457	-4.915	40.581	32.765	-69.380	-42.989	-80.040	-70.011	-63.624	106.316	182.078	-65.617	-60.068	-58.167	-53.188	-20.164	-56.071	-8191	255	
9970.762	1	1	0	0	0.13758	0.19696	0.059657	0.02978	0.30021	0.18076	0.16409	0.23365	0.058296	0.03584	0.25302	0.26964	0.23964	0.34142	0.1137	0.10458	-2.4354	-3.4042	-2.5792	-2.9917	-3.4396	-2.4042	-3.4229	-3.2125	-2.4354	-3.5729	-2.7854	-2.85	-3.4354	-2.7292	-3.2125	-3.3958	35.040	175.926	156.870	255.784	154.656	72.014	8.256	227.015	-51.491	-41.498	-66.248	-20.697	231.778	-47.032	26.550	-42.105	8.8369e-05	0.0011043	0.00035958	905.91	5.8927e-06	2.4864e-05	755.43	300.55	7.6678e-06	9.0398e-06	279.16	95.897	98.152	44.744	1.7825e-05	47.03	0.018329	0.024094	0.0070853	1267.4	0.00025344	0.00026974	1110.9	427.31	0.00025448	0.00027433	465.23	156.52	153.67	65.406	0.00028233	72.685	202.459	222.136	85.868	-69.414	-34.858	207.692	-70.148	-63.576	112.048	244.030	-65.740	-60.197	-58.054	-53.073	31.705	-56.118	-8191	255	
9970.834	1	1	0	0	0.35958	0.28012	0.10979	0.13301	0.20381	0.18855	0.14119	0.11919	0.25596	0.10422	0.22323	0.032618	0.085627	0.24321	0.096996	0.22139	-2.2896	-3.3979	-2.6479	-2.9021	-3.3729	-2.4792	-3.1437	-3.4271	-2.6042	-3.3521	-3.2146	-2.9146	-3.3854	-2.6417	-3.2729	-3.4292	-53.256	159.715	220.428	-79.204	-72.246	-64.960	210.098	-52.003	202.220	131.809	273.041	-48.022	3.796	-76.968	100.010	242.038	0.00024231	0.0020233	0.00050436	912.55	6.8253e-06	1.0812e-05	764.83	303.63	4.4507e-06	2.0363e-05	280.89	97.217	98.927	45.164	4.3133e-06	47.28	0.019112	0.025952	0.0073952	1287.2	0.00026771	0.00029218	1128.3	435.47	0.00026915	0.00029605	473.1	159.31	156.38	66.635	0.00028359	73.235	255.748	90.183	-21.891	-69.342	210.722	232.656	-70.311	-63.595	118.732	-68.308	-65.678	-60.303	-58.420	-53.293	10.473	-56.092	-8191	255	
9970.954	1	1	0	0	0.20954	0.17988	0.11712	0.29328	0.13653	0.19466	0.34348	0.12355	0.22338	0.092419	0.17763	0.16987	0.041905	0.19037	0.45585	0.1402	-1.95	-3.4375	-2.9188	-2.6063	-3.5417	-2.8792	-3.1292	-3.6479	-2.7333	-3.2604	-3.0229	-2.75	-3.4625	-2.925	-3.0417	-3.6125	190.077	35.547	-16.443	238.167	268.332	248.209	229.338	180.905	215.739	95.290	239.792	214.095	78.315	182.933	255.061	234.273	0.00015159	0.0013745	0.00037974	907.82	1.2787e-05	4.3676e-06	756.2	301.78	1.1158e-05	5.2072e-06	278.17	96.961	98.874	45.42	4.368e-06	47.096	0.019577	0.026585	0.0072558	1276.8	0.00026849	0.0002925	1111	430.03	0.00026574	0.00028931	462.38	156.42	155.35	66.106	0.00026825	72.063	250.302	-58.849	10.702	-69.488	211.917	28.091	-70.231	-63.851	155.582	161.494	-65.610	-60.341	-58.108	-53.587	72.500	-56.451	-8191	255	
9971.050	1	1	0	0	0.13885	0.098	0.097477	0.23304	0.13969	0.15261	0.13558	0.088444	0.18035	0.093464	0.1704	0.062258	0.12921	0.071881	0.27446	0.40566	-2.1458	-3.3771	-3.1771	-2.7104	-3.4479	-2.7854	-3.0979	-3.5479	-2.7812	-3.3	-3.0146	-2.6813	-3.5771	-2.9521	-2.6562	-3.5375	202.078	133.328	84.563	263.320	-28.513	51.817	234.988	253.285	238.582	256.739	-27.808	270.632	173.171	-80.703	114.818	217.291	0.00022641	0.0023951	0.00029839	905.88	1.1006e-05	2.6991e-05	754.41	301.29	7.1249e-06	1.5964e-05	279.77	96.861	97.947	44.992	5.1927e-06	47.032	0.019181	0.025559	0.0068701	1257.5	0.00026209	0.00027908	1092.3	424.52	0.00026299	0.00027816	454.98	154.65	155.19	65.43	0.00026091	71.586	186.846	3.392	29.334	-69.377	269.885	123.219	-70.371	-63.576	195.472	19.071	-65.731	-60.341	-58.087	-53.370	2.700	-56.285	-8191	255	
9971.146	1	1	0	0	0.22085	0.18044	0.22594	0.16818	0.25754	0.2293	0.33651	0.26077	0.15579	0.069611	0.13111	0.040081	0.21094	0.13982	0.17989	0.23235	-2.3042	-3.0854	-3.2021	-2.7458	-3.4125	-2.8604	-2.7896	-3.6917	-2.5792	-3	-3.4938	-2.7333	-3.2375	-3.0042	-2.4896	-3.3854	77.923	-71.770	66.593	229.241	-80.743	148.493	104.829	227.740	-21.783	-29.300	-55.153	-21.407	-20.539	212.736	26.450	-73.174	0.0001422	0.0011269	0.00044123	903.44	8.0329e-06	1.926e-05	759.05	300.78	2.4442e-06	1.7039e-05	281.19	97.13	98.912	45.419	5.7435e-06	47.17	0.01928	0.024809	0.0067019	1255.6	0.00026644	0.00027291	1090.4	424.72	0.00026649	0.00027211	454.82	155.41	156.24	65.327	0.00025892	72.216	236.281	59.252	-19.112	-69.746	-11.881	78.625	-70.103	-64.036	23.278	42.981	-66.045	-60.816	-58.340	-53.487	17.797	-56.591	-8191	255	
9971.243	1	1	0	0	0.13395	0.043177	0.24857	0.10668	0.208	0.18817	0.17307	0.072388	0.086865	0.15594	0.24395	0.17259	0.15584	0.18066	0.13803	0.33559	-2.3063	-2.8792	-3.5021	-2.6833	-3.375	-3.2646	-2.5625	-3.5917	-2.7729	-2.9562	-3.4417	-2.6375	-3.2708	-3.2667	-2.6333	-3.5458	136.397	49.290	233.276	83.541	8.123	74.695	274.935	227.876	28.146	166.929	-74.669	202.052	-54.444	-31.137	68.510	-54.798	0.0003651	0.001055	0.00047859	906.12	8.0063e-06	1.2146e-05	761.22	303.11	7.7469e-06	1.1919e-05	282.14	97.603	98.938	45.55	1.5964e-05	47.367	0.019752	0.024691	0.0067197	1268.7	0.00027399	0.00027367	1097	431.88	0.00027498	0.00027448	459.93	158.66	158.41	65.79	0.00026459	73.408	238.120	271.734	264.979	-69.480	274.590	56.922	-70.363	-64.099	217.301	29.613	-66.243	-60.600	-58.289	-53.294	17.062	-56.449	-8191	255	
9971.339	1	1	0	0	0.076461	0.27213	0.068782	0.13842	0.15984	0.20412	0.078249	0.2685	0.070378	0.23126	0.14494	0.066685	0.10398	0.28318	0.025199	0.086691	-2.5917	-2.8854	-3.6188	-2.7229	-3.1562	-3.3208	-2.5854	-3.4375	-3.0042	-2.8937	-3.5667	-2.7438	-3.075	-3.4104	-2.55	-3.4792	243.577	-63.864	175.796	169.788	217.993	159.158	-75.991	234.425	182.908	190.762	97.917	4.504	-29.207	246.380	120.221	144.691	4.524e-05	0.0013945	0.00030725	916.01	1.1006e-05	1.7488e-05	762.32	304.34	5.3334e-06	5.6722e-06	280.51	97.213	99.43	45.679	8.4178e-06	47.389	0.020299	0.02501	0.0068552	1291.6	0.00027615	0.00027554	1100.4	437.75	0.00027747	0.00027578	460.9	160.44	158.68	65.961	0.0002686	74.249	-26.183	-43.926	59.929	-69.664	58.442	76.991	-70.281	-63.890	40.731	37.393	-65.869	-60.521	-58.351	-53.319	66.578	-56.344	-8191	255	
9971.458	1	1	0	0	0.21235	0.082266	0.14493	0.27028	0.050221	0.14947	0.11858	0.17838	0.2433	0.17032	0.063755	0.042871	0.13583	0.15674	0.076614	0.26761	-2.5187	-2.5708	-3.5396	-2.8458	-2.9917	-3.3	-2.8063	-3.4958	-2.8979	-2.6312	-3.6167	-2.75	-3.0979	-3.3604	-2.5625	-3.3583	-43.657	73.282	146.833	252.258	55.441	34.530	229.479	218.567	52.455	73.912	233.955	-77.801	166.267	-65.089	5.925	-66.801	0.0001022	0.00011564	0.00036646	913.34	2.5665e-05	5.8442e-06	756.55	303.48	2.5665e-06	1.4846e-05	282.55	97.529	99.547	45.481	1.2255e-05	47.183	0.020308	0.025029	0.0069766	1306.3	0.00027633	0.00027693	1107.3	440.83	0.00027505	0.00027682	465.72	161.81	157.78	65.786	0.00027483	74.538	264.588	21.299	62.868	-69.686	64.534	52.832	-70.492	-63.707	104.175	68.469	-65.893	-60.647	-58.270	-53.424	177.737	-56.286	-8191	255	
9971.529	1	1	0	0	0.17884	0.048895	0.095522	0.37459	0.12437	0.12149	0.14594	0.096911	0.11118	0.24796	0.067729	0.12304	0.22594	0.24562	0.16697	0.20379	-2.825	-2.4104	-3.6271	-2.8979	-2.925	-3.4229	-2.6688	-3.4333	-3.0438	-2.8417	-3.5208	-2.8167	-2.9417	-3.5917	-2.8208	-3.3542	-26.385	95.198	-65.823	10.470	89.329	150.094	192.337	160.716	150.722	84.746	113.257	219.834	-52.245	216.614	103.596	208.095	4.6675e-05	0.0013404	0.00021097	912.37	1.3186e-05	1.2214e-05	757.46	302.83	2.2665e-05	2.3129e-05	278.65	97.101	98.392	45.076	7.0859e-06	47.178	0.020042	0.024949	0.0071173	1302.3	0.00027048	0.00027486	1111.8	438.12	0.00026769	0.00027041	465.08	160.2	155.17	65.013	0.00027375	73.506	-45.113	-30.335	72.481	-69.576	2.726	56.330	-70.250	-63.741	78.287	-57.459	-65.651	-60.137	-58.406	-53.252	219.030	-56.080	-8191	255	
9971.625	1	1	0	0	0.25001	0.11182	0.22732	0.10704	0.21472	0.17584	0.14129	0.20143	0.083721	0.20966	0.16495	0.14176	0.39884	0.078889	0.24409	0.14951	-2.8187	-2.6958	-3.3688	-2.8604	-2.8167	-3.6417	-2.6604	-3.125	-3.2854	-2.5042	-3.4437	-3.0667	-3.0229	-3.5771	-2.55	-3.0708	95.566	-48.515	-74.621	215.099	105.556	39.945	-49.460	235.299	206.704	-13.591	275.835	-59.633	-45.511	269.500	194.759	264.854	6.2574e-05	0.00091091	0.00012417	904.21	1.5654e-05	1.3772e-05	755.43	300.07	5.7918e-06	1.167e-05	279.7	96.245	97.324	44.583	9.072e-06	46.722	0.01914	0.023998	0.0070668	1280.3	0.00025729	0.00026294	1105	429.19	0.00025613	0.00026077	461.61	156.27	152	63.971	0.00027153	72.068	208.229	197.502	217.124	-69.623	177.590	177.784	-70.301	-63.732	204.329	191.170	-65.614	-60.238	-58.082	-53.149	232.282	-56.248	-8191	255	
9971.723	1	1	0	0	0.1309	0.27392	0.17985	0.19498	0.1031	0.23802	0.033298	0.039067	0.2077	0.082535	0.17941	0.22937	0.15333	0.25959	0.13119	0.056585	-2.9604	-2.4125	-3.3292	-3.05	-2.7104	-3.3438	-2.6625	-3.0542	-3.4229	-2.8021	-3.4583	-3.2313	-2.4729	-3.5917	-2.8167	-3.0271	92.891	196.517	265.238	214.008	32.249	-31.545	-80.231	-52.079	241.690	-78.539	166.651	222.804	212.701	-60.776	-12.758	258.301	0.00015181	0.0009416	0.00011902	912.34	7.7829e-06	2.7636e-05	762.71	303.14	9.9671e-06	4.4727e-06	280.34	96.612	97.656	44.834	1.2022e-05	46.885	0.018481	0.023613	0.0070107	1274.8	0.00025247	0.00026377	1111.5	427.8	0.000252	0.0002653	465.6	155.99	152.05	64.655	0.00027444	72.219	162.268	267.490	101.446	-69.613	-28.672	127.020	-70.240	-63.761	78.223	261.311	-65.814	-60.228	-58.163	-53.280	2.179	-56.369	-8191	255	
9971.842	1	1	0	0	0.14028	0.12138	0.085173	0.11698	0.23743	0.037857	0.10642	0.16502	0.12532	0.12319	0.18317	0.27175	0.14634	0.16908	0.20419	0.079316	-3.1417	-2.4688	-3.2354	-3.2542	-2.6792	-3.4646	-2.9062	-3.0833	-3.4437	-2.6125	-3.4771	-3.2438	-2.4208	-3.6	-2.9375	-2.7708	228.397	28.432	205.471	-22.997	118.277	17.653	227.534	192.989	-79.167	191.306	-74.288	172.795	234.912	209.434	-21.000	-25.696	0.00012095	0.0017185	0.00029201	910.78	9.1485e-06	1.7198e-05	767.79	302.42	3.5988e-06	9.6169e-06	281.52	97.388	98.084	45.28	1.0649e-05	47.329	0.018677	0.024604	0.0071428	1277.2	0.00025623	0.00027734	1124.5	431.88	0.00026101	0.0002817	472.2	158.35	154.65	66.305	0.00028324	73.162	178.325	161.974	257.184	-69.808	-75.582	97.361	-70.363	-64.033	76.585	-43.644	-66.079	-60.455	-58.435	-52.958	15.257	-56.236	-8191	255	
9971.938	1	1	0	0	0.34602	0.076635	0.3345	0.23681	0.01859	0.11582	0.22182	0.24534	0.13491	0.14248	0.24617	0.17546	0.14775	0.45201	0.10678	0.023535	-3.2583	-2.7792	-3.0438	-3.3292	-2.5104	-3.5396	-2.7917	-2.9146	-3.4479	-2.6688	-3.3438	-3.3417	-2.7208	-3.6604	-3.0625	-2.6125	261.567	27.668	252.421	-65.322	133.329	229.658	265.980	192.272	215.155	-21.973	223.647	244.427	76.004	-58.328	87.622	63.867	6.2698e-05	0.0011386	0.00040448	914.54	8.4017e-06	8.065e-07	769.46	304.65	4.1936e-06	3.4574e-06	283.84	97.286	98.695	45.208	1.5124e-05	47.553	0.019355	0.02607	0.0073057	1289.3	0.00026365	0.00028908	1126.1	432.33	0.00026406	0.00028753	470.09	157.75	154.71	66.346	0.00027357	72.662	-58.184	106.581	-31.596	-69.766	266.651	242.404	-70.376	-63.670	65.526	-5.562	-65.699	-60.148	-57.880	-53.168	39.269	-56.348	-8191	255	
9972.035	1	1	0	0	0.19649	0.15063	0.095087	0.18058	0.10723	0.28803	0.069359	0.14991	0.06751	0.021534	0.18148	0.15175	0.089513	0.20633	0.12153	0.22338	-3.2938	-2.6083	-2.9688	-3.6125	-2.6354	-3.2833	-3.3333	-2.6771	-3.4229	-2.8271	-2.9521	-3.4625	-2.6417	-3.1979	-3.1312	-2.7771	-25.581	127.946	-12.343	210.185	82.514	-69.383	-78.990	254.496	17.725	162.648	125.769	-74.314	6.128	229.539	178.734	249.821	0.00012509	0.0010765	0.00048859	915.78	1.9451e-05	9.0217e-06	767.84	302.75	1.6119e-05	4.3184e-06	283.54	97.624	98.37	45.295	7.6017e-06	47.043	0.019226	0.025794	0.0069454	1278.1	0.00025907	0.00028304	1110.1	426.95	0.00025837	0.0002777	460.11	155.03	153.58	65.475	0.00025982	71.408	233.030	83.566	-59.566	-69.421	182.521	-1.565	-70.564	-63.539	129.926	150.222	-65.389	-60.490	-57.902	-52.704	7.728	-55.871	-8191	255	
9972.131	1	1	0	0	0.090659	0.082781	0.17289	0.19347	0.095051	0.22285	0.19706	0.27312	0.065852	0.18348	0.15482	0.11139	0.30692	0.30546	0.12215	0.32015	-3.1917	-2.6937	-2.9167	-3.4479	-2.6521	-3.3187	-3.1979	-2.6896	-3.4458	-2.8667	-2.975	-3.55	-2.7188	-3.2167	-3.2812	-2.5708	64.392	25.453	-26.657	174.061	66.865	268.268	251.870	226.087	132.687	-32.609	-29.922	209.126	212.946	-75.467	199.093	254.684	0.00024877	0.001004	0.0003289	918.79	1.8458e-05	2.1534e-05	769.97	301.98	6.6525e-06	1.1751e-05	284.46	97.822	98.755	45.47	9.5356e-06	47.111	0.019081	0.025	0.0067024	1270.3	0.00026099	0.00027762	1106.6	426.67	0.00026823	0.00027855	462.34	156.36	156.8	66.059	0.00026792	72.371	274.911	42.571	6.895	-69.318	222.209	59.155	-70.268	-63.486	114.364	196.164	-65.469	-60.104	-58.034	-52.962	41.533	-56.143	-8191	255	
9972.227	1	1	0	0	0.095445	0.26629	0.37226	0.10761	0.22328	0.25123	0.084305	0.18395	0.19492	0.41021	0.26142	0.37912	0.2083	0.0824	0.24024	0.28217	-3.125	-2.9354	-2.7021	-3.4854	-2.6521	-3.2021	-3.5083	-2.5938	-3.5479	-2.9271	-2.725	-3.6312	-2.7229	-3.1833	-3.3896	-2.7417	114.035	-64.452	206.190	190.956	22.143	101.441	157.659	276.306	41.286	135.136	139.561	272.613	5.621	273.604	234.528	234.742	0.00010537	0.0022169	0.00045513	920.98	3.3888e-06	5.6346e-06	773.49	303.7	5.1625e-06	1.5421e-05	285.44	97.45	98.391	45.471	1.0473e-05	47.145	0.020167	0.025437	0.006848	1284.6	0.00027457	0.00027827	1110.6	430.52	0.00027568	0.00027743	462.88	157.62	157.6	65.798	0.00026642	72.835	246.627	-6.292	46.395	-69.248	233.503	11.494	-70.465	-63.490	-56.558	8.765	-65.519	-60.128	-57.782	-52.864	-9.941	-56.121	-8191	255	
9972.323	1	1	0	0	0.25999	0.12578	0.13564	0.23085	0.11769	0.091658	0.23018	0.1062	0.19771	0.22287	0.20872	0.14073	0.28417	0.18558	0.08903	0.19731	-3.1375	-3.1271	-2.5229	-3.7208	-2.6312	-3.0438	-3.4562	-2.6542	-3.3563	-3.2354	-2.6479	-3.4708	-2.8792	-2.7271	-3.4375	-2.5979	194.266	73.754	156.943	-66.900	254.615	248.653	255.026	169.007	52.361	93.048	273.373	-39.757	231.012	274.437	43.097	179.418	0.00017907	0.0017411	0.00028351	920.44	1.4083e-05	1.1922e-05	773.27	304.1	9.7223e-06	6.5783e-06	284.83	97.005	99.057	45.705	1.3353e-05	47.519	0.020405	0.025021	0.0067962	1294.6	0.00027641	0.00027585	1111.3	434.58	0.00027621	0.0002736	461.38	158.96	157.56	65.504	0.00026128	73.407	231.621	256.942	20.614	-69.475	275.818	2.719	-70.438	-63.400	106.281	73.350	-65.747	-59.740	-58.130	-52.737	63.305	-55.736	-8191	255	
9972.444	1	1	0	0	0.16599	0.16381	0.10006	0.25989	0.14157	0.090625	0.10791	0.19843	0.39682	0.045122	0.11263	0.044664	0.19424	0.2605	0.15024	0.16412	-2.8312	-3.2292	-2.5438	-3.4208	-2.8875	-2.6792	-3.5354	-2.7354	-3.2375	-3.3646	-2.5271	-3.4917	-2.7667	-2.9208	-3.6479	-2.7292	-67.597	103.312	205.924	238.360	-52.776	-64.993	-56.979	212.575	-51.483	87.759	53.633	-9.306	-74.311	272.334	-54.411	121.098	0.00018469	0.0023885	3.711e-05	918.05	1.672e-05	1.3168e-05	772.27	303.52	1.3604e-05	2.8347e-06	283.32	97.029	99.293	45.609	1.1957e-05	47.429	0.019771	0.024331	0.0066322	1294.4	0.00026557	0.00026312	1103	433.4	0.00026274	0.00026209	455.72	158.13	154.63	64.7	0.00025376	72.994	-14.527	-59.532	46.005	-69.584	19.059	83.821	-70.273	-63.633	156.670	153.214	-65.590	-60.225	-57.885	-53.025	273.185	-55.727	-8191	255	
9972.538	1	1	0	0	0.11209	0.13102	0.24834	0.052081	0.14994	0.13716	0.1391	0.4002	0.19808	0.022914	0.19216	0.026788	0.18852	0.076027	0.046483	0.15624	-2.6521	-3.5667	-2.4083	-3.5417	-2.8125	-2.7083	-3.7062	-2.6521	-3.0083	-3.5521	-2.6771	-3.4167	-3.1458	-2.6063	-3.5604	-2.8229	245.188	206.662	-15.993	196.109	57.285	235.439	116.364	262.269	-63.607	-15.055	265.668	25.728	0.372	222.000	135.075	-74.945	7.0947e-05	0.00054658	0.00032009	919.07	1.0301e-05	8.4558e-06	770.47	304.5	2.1541e-06	7.9239e-06	283.77	97.207	98.22	45.33	8.9564e-06	47.318	0.018738	0.023313	0.0064661	1285.9	0.00025299	0.00025232	1095.9	430.86	0.00024824	0.00025085	452.25	156.42	151.38	63.665	0.00024994	71.991	261.012	-43.045	259.632	-69.559	131.065	63.144	-70.430	-63.644	-59.966	127.254	-65.649	-60.003	-57.964	-52.950	-75.976	-56.143	-8191	255	
9972.634	1	1	0	0	0.090105	0.037463	0.10422	0.14998	0.29488	0.37562	0.2206	0.17287	0.11879	0.12211	0.13302	0.1206	0.10974	0.19841	0.22864	0.27702	-2.425	-3.2208	-2.5375	-3.4542	-3.2229	-2.5292	-3.5646	-3.0375	-3.05	-3.575	-2.6625	-3.4521	-3.3667	-2.7333	-3.3875	-2.9521	-7.603	-61.679	-1.387	-80.247	-40.693	209.645	133.835	-40.340	193.782	125.077	3.129	235.821	2.622	-58.617	-15.126	176.019	0.00014955	0.0015018	0.00041404	916.32	8.4463e-06	2.4508e-06	767.29	304.47	1.5327e-06	1.247e-05	284.11	97.168	98.558	44.98	1.4184e-05	47.247	0.017811	0.022372	0.0064405	1273.4	0.00024224	0.00024537	1097.4	427.74	0.00024198	0.00024659	454.77	155.09	150.84	63.468	0.00025507	71.552	204.127	-15.954	95.829	-69.470	273.483	235.970	-69.915	-63.588	170.004	258.136	-65.407	-60.261	-58.304	-53.263	186.884	-56.271	-8191	255	
9972.755	1	1	0	0	0.14392	0.073731	0.15184	0.14102	0.28046	0.12419	0.16814	0.15905	0.21024	0.14242	0.20532	0.41262	0.068773	0.046076	0.16146	0.15236	-2.3208	-3.3708	-2.7896	-3.5	-3.3646	-2.3146	-3.5354	-2.9958	-2.5854	-3.5583	-2.7062	-3.1792	-3.3979	-2.7146	-3.4375	-3.1063	-42.869	119.657	228.492	202.769	136.634	28.338	277.863	259.892	176.330	134.837	180.839	258.691	219.933	112.091	-38.219	-57.230	0.00010079	0.00098734	0.00030533	922.55	1.1578e-05	8.159e-06	772.88	304.71	1.1999e-05	2.132e-05	283.88	98.103	97.887	45.308	3.6136e-06	47.587	0.01747	0.022207	0.0065637	1269.5	0.00023896	0.00024365	1102.4	424.38	0.00023558	0.00024471	456.45	153.83	149.27	63.465	0.00025616	71.274	189.661	35.812	155.812	-69.407	56.358	-34.754	-70.049	-63.596	27.621	129.008	-65.268	-59.720	-57.853	-52.991	191.521	-56.224	-8191	255	
9972.826	1	1	0	0	0.18401	0.19207	0.21358	0.099375	0.21974	0.26594	0.059199	0.13754	0.14715	0.050939	0.090184	0.18973	0.065127	0.343	0.22769	0.21505	-2.3729	-3.5292	-2.7083	-3.1583	-3.5729	-2.4292	-3.5271	-3.2854	-2.5667	-3.4938	-2.85	-2.9896	-3.4375	-2.5458	-3.3833	-3.2104	-79.201	62.581	77.027	217.963	233.375	234.775	108.193	224.611	-68.717	206.907	74.038	-53.540	-1.970	213.192	49.254	213.902	8.6214e-05	0.001718	0.00014804	924	5.17e-06	9.5497e-06	777.78	304.79	3.1537e-06	1.0023e-05	285.69	97.519	98.269	44.847	2.5502e-05	47.101	0.017194	0.022466	0.0066367	1266.9	0.00023886	0.00025116	1113.2	425.83	0.00024007	0.00025807	464.39	154.62	151.1	64.444	0.00026876	71.668	129.816	185.929	263.895	-69.436	254.669	44.434	-69.964	-63.435	34.760	189.670	-65.450	-59.888	-57.990	-52.859	70.607	-55.812	-8191	255	
9972.921	1	1	0	0	0.093007	0.031242	0.045457	0.13664	0.059966	0.13151	0.042787	0.17299	0.26037	0.033751	0.080396	0.067195	0.10659	0.27511	0.2318	0.23797	-2.3583	-3.3771	-2.7896	-2.9208	-3.3771	-2.7	-3.4167	-3.2125	-2.7438	-3.3563	-3.0208	-2.9958	-3.45	-2.775	-3.225	-3.3271	126.749	169.930	163.837	-65.765	39.887	84.212	140.483	268.069	173.115	236.177	159.804	256.572	246.960	6.740	-12.220	254.659	0.00018066	0.002049	0.00073581	926.15	3.6603e-06	1.7978e-05	777.62	305.19	1.436e-05	1.0471e-05	284.54	96.456	97.889	44.782	2.0615e-05	46.561	0.018212	0.024595	0.0070332	1287.7	0.00025434	0.00027774	1133.9	434.56	0.00025939	0.00028737	473.96	157.31	154.61	65.921	0.00028084	72.137	223.015	113.591	28.898	-69.314	106.052	194.492	-70.351	-64.029	148.276	132.048	-66.009	-60.074	-57.991	-52.843	-15.326	-56.178	-8191	255	
9973.017	1	1	0	0	0.25672	0.0090538	0.12099	0.094847	0.16815	0.16241	0.27274	0.3119	0.11127	0.093438	0.086559	0.31829	0.20439	0.33348	0.12864	0.39818	-2.2438	-3.4688	-3.1146	-2.7208	-3.4	-2.8521	-3.1521	-3.3646	-2.7042	-3.4958	-3.0312	-2.6479	-3.6229	-2.8333	-3.1042	-3.4854	124.825	157.671	196.921	-31.200	57.887	-35.817	218.096	246.638	86.652	-39.244	50.694	181.641	176.075	4.881	176.247	227.320	0.00023515	0.00039085	0.00091909	924.98	7.6358e-06	8.4161e-06	776.47	303.69	1.4056e-05	1.2082e-05	283.03	96.403	97.103	44.587	9.2777e-06	46.478	0.01898	0.026126	0.0071148	1290.5	0.00025897	0.00028204	1118	428.81	0.00025334	0.00028035	460.93	153.54	152.11	64.909	0.00026195	70.93	235.029	218.000	23.473	-69.502	177.325	-78.434	-70.369	-63.650	164.456	231.187	-65.677	-59.762	-58.040	-52.577	3.340	-56.233	-8191	255	
9973.138	1	1	0	0	0.31551	0.38529	0.10015	0.10469	0.071777	0.21255	0.14661	0.19004	0.28217	0.13265	0.1643	0.082083	0.061277	0.17005	0.11827	0.25646	-2.0292	-3.4083	-3.0979	-2.5521	-3.5417	-2.8	-2.9604	-3.7792	-2.7062	-3.0292	-3.425	-2.6583	-3.6604	-2.925	-2.7604	-3.5542	25.010	72.010	219.899	204.180	67.022	95.015	108.879	-45.613	90.358	270.765	243.598	200.673	219.056	3.484	157.272	263.053	0.00028791	0.0016763	0.00046653	923.08	1.9913e-05	6.5106e-06	770.9	302.66	3.0618e-06	6.6571e-06	283.53	97.165	97.731	44.958	1.3216e-05	47.145	0.018529	0.025004	0.0066732	1267.8	0.00025328	0.00027176	1099.8	423.74	0.00025101	0.00026838	455.55	152.79	152.7	64.777	0.00025093	70.781	204.057	240.661	-29.475	-69.591	262.585	65.468	-70.267	-63.834	-74.467	233.533	-65.769	-60.055	-57.979	-52.839	94.851	-55.874	-8191	255	
9973.234	1	1	0	0	0.17841	0.30524	0.038463	0.2686	0.24049	0.094537	0.25806	0.06177	0.057069	0.069221	0.10608	0.17952	0.045049	0.24079	0.2606	0.19369	-2.4521	-3.2188	-3.1375	-2.7833	-3.4833	-2.9208	-2.9521	-3.8042	-2.5563	-3.0938	-3.4042	-2.4833	-3.5396	-3.1125	-2.525	-3.4875	145.984	35.248	-13.214	-67.936	237.000	164.372	231.603	178.168	211.826	258.768	223.369	219.642	53.976	230.009	45.691	75.212	0.0002537	0.00092547	0.00042712	921.52	1.844e-05	1.7644e-05	775.74	304.44	8.6917e-06	1.1066e-05	284.85	97.153	99.075	45.257	6.003e-06	47.137	0.018495	0.023836	0.0063749	1259.3	0.00025113	0.00025925	1092.3	423.22	0.00025218	0.00025927	452.77	152.81	154.48	64.653	0.00025072	71.174	201.928	20.594	-12.236	-69.445	252.664	13.200	-69.853	-63.441	180.701	29.508	-65.596	-60.629	-58.160	-53.021	37.180	-56.140	-8191	255	
9973.330	1	1	0	0	0.13396	0.18895	0.2175	0.013334	0.067075	0.18502	0.14275	0.24549	0.042795	0.14425	0.19358	0.18883	0.20567	0.15014	0.24885	0.27232	-2.25	-2.9729	-3.3	-2.5917	-3.2833	-3.1729	-2.7125	-3.6542	-2.8604	-2.825	-3.5604	-2.7771	-3.3375	-3.1208	-2.5646	-3.6479	23.885	223.730	228.908	139.826	148.957	-66.925	244.085	148.967	37.032	239.869	157.407	228.369	258.788	-30.211	97.232	205.196	7.1946e-05	0.0012129	0.0001601	919.48	1.5348e-05	1.2863e-05	774.21	304.6	7.9288e-06	8.6433e-06	285.36	96.481	98.388	45.427	1.1704e-05	47.212	0.019099	0.0239	0.0064845	1270.7	0.00026225	0.00026185	1093.8	426.85	0.00026018	0.00025963	453.69	154.27	154.43	64.481	0.00024721	71.814	179.219	258.333	71.520	-69.324	198.254	69.680	-70.058	-63.485	-27.365	15.815	-65.346	-59.826	-57.535	-52.533	77.796	-56.267	-8191	255	
9973.402	1	1	0	0	0.16778	0.10961	0.078725	0.25658	0.18736	0.066019	0.13582	0.11049	0.25239	0.10047	0.10059	0.28276	0.25051	0.085923	0.22427	0.072634	-2.6208	-2.7562	-3.2917	-2.8729	-3.3396	-3.0646	-2.8	-3.6312	-2.9125	-2.8521	-3.4958	-2.5417	-3.3458	-3.1771	-2.3104	-3.3771	-20.224	49.732	45.423	228.133	271.362	68.707	223.973	53.573	177.312	198.964	56.000	-62.622	262.307	-79.646	-39.463	180.333	0.00013251	0.00011406	9.4661e-05	922.46	1.5547e-05	9.1723e-06	774.08	304.77	9.8758e-06	2.0215e-06	283.56	96.869	98.52	45.287	5.8861e-06	47.408	0.019102	0.023361	0.0063915	1276.4	0.00025711	0.00025478	1089.3	427.6	0.00025264	0.00025059	449.96	154.68	152.2	63.758	0.00023893	71.875	238.141	249.619	187.504	-69.650	80.835	-53.858	-70.104	-63.781	103.029	48.058	-65.856	-59.989	-58.089	-52.984	230.724	-56.378	-8191	255	
9973.522	1	1	0	0	0.17979	0.027874	0.33811	0.23992	0.063143	0.050409	0.2241	0.32373	0.13674	0.033392	0.17833	0.16497	0.22243	0.32898	0.12288	0.10639	-2.5667	-2.5979	-3.45	-2.7458	-3.2292	-3.2042	-2.6583	-3.475	-2.9875	-2.6	-3.5604	-2.7708	-3.1083	-3.4792	-2.5042	-3.2958	209.029	79.271	193.594	237.940	53.471	183.417	179.703	218.463	199.448	220.494	-44.799	-55.742	211.837	222.352	220.502	258.471	0.00011515	0.0011917	0.00031357	922.6	1.0464e-05	1.6805e-05	773.5	304.34	1.1163e-05	7.7665e-06	285.62	97.387	98.127	45.347	4.6595e-06	47.154	0.01826	0.022569	0.0062456	1276.1	0.00024739	0.00024778	1086.6	428.63	0.00024534	0.00024414	448.84	154.6	150.33	63.28	0.00023896	71.674	278.086	-20.501	113.614	-69.559	155.231	-27.280	-70.352	-63.718	95.180	32.961	-65.628	-59.887	-57.998	-52.769	270.142	-55.910	-8191	255	
9973.618	1	1	0	0	0.21876	0.20816	0.046383	0.16513	0.30049	0.22678	0.16125	0.20685	0.18889	0.30007	0.23996	0.08573	0.28283	0.31542	0.14161	0.085726	-2.8271	-2.925	-3.3854	-2.8875	-3.1479	-3.4042	-2.5521	-3.4188	-3.1813	-2.7292	-3.6854	-3.0271	-2.8521	-3.3875	-2.8083	-3.3125	265.696	224.081	53.488	271.873	264.451	149.471	246.806	237.715	198.279	52.712	252.800	-18.568	219.019	189.753	172.215	24.341	0.00015869	0.002071	0.0005118	925.24	1.1239e-05	9.0878e-06	776.92	307.37	8.2553e-06	5.0896e-06	288.35	97.804	99.826	45.662	6.3987e-06	47.728	0.017706	0.022165	0.0063591	1283.8	0.00024829	0.00025349	1107	436.5	0.00025453	0.00025918	467.2	159.99	155.41	65.23	0.00027036	74.14	270.410	24.763	95.556	-69.437	150.308	98.953	-70.415	-63.732	-16.587	25.650	-65.684	-60.172	-58.152	-52.835	195.466	-56.003	-8191	255	
9973.715	1	1	0	0	0.20128	0.10312	0.25338	0.251	0.2167	0.16011	0.096079	0.14221	0.19135	0.2946	0.12675	0.090548	0.1039	0.23812	0.20826	0.18442	-2.725	-2.4437	-3.5854	-2.9688	-2.7062	-3.4375	-2.7229	-3.2687	-3.3958	-2.4979	-3.5333	-3.075	-2.8042	-3.3333	-2.7667	-3.1458	23.741	212.137	180.113	253.583	-21.816	180.158	265.456	206.085	168.669	-72.174	-62.773	27.181	259.367	262.819	165.451	216.360	0.00025496	0.0010229	0.00040661	928.47	1.5292e-05	1.6462e-05	775.25	307.56	1.2969e-05	1.2622e-05	283.68	98.199	99.18	45.466	5.4294e-06	47.532	0.019245	0.024078	0.0070489	1308.6	0.0002609	0.00026583	1127.9	438.31	0.00025892	0.00026331	470.34	159.19	154.51	65.138	0.00027345	73.104	-60.860	70.459	99.840	-69.541	-23.411	149.082	-70.310	-63.563	10.549	24.478	-65.339	-60.187	-57.820	-53.088	7.698	-55.986	-8191	255	
9973.835	1	1	0	0	0.082395	0.17345	0.12224	0.19885	0.094396	0.16814	0.28831	0.31629	0.16919	0.22614	0.17878	0.17858	0.21896	0.32324	0.19366	0.096262	-2.9208	-2.6854	-3.3646	-2.9979	-2.7708	-3.6271	-2.5812	-3.3229	-3.45	-2.5812	-3.5083	-3.1625	-2.9	-3.5021	-2.8083	-2.9854	275.086	-20.013	137.005	-35.413	202.236	-42.521	236.877	262.558	256.168	93.344	212.265	186.141	-59.390	33.962	-77.854	-79.626	0.00025618	0.00094663	0.00033177	923.23	3.4111e-06	1.2247e-05	767.38	305.76	5.075e-06	2.0716e-05	284.51	97.385	98.19	45.548	1.2506e-05	47.554	0.018699	0.023706	0.0070707	1288.6	0.00025111	0.0002604	1115.5	430.45	0.00024728	0.00025458	462.77	154.43	149.85	63.948	0.00025053	70.601	185.043	130.308	135.615	-69.312	-70.320	173.265	-70.317	-63.264	168.796	203.763	-65.717	-60.396	-58.269	-53.392	-10.913	-56.195	-8191	255	
9973.930	1	1	0	0	0.26716	0.12695	0.031523	0.13358	0.1314	0.27181	0.25043	0.13651	0.10061	0.23269	0.11238	0.32689	0.11952	0.29083	0.14319	0.13623	-3.1021	-2.6	-3.2021	-3.25	-2.8083	-3.2958	-3.0854	-2.6937	-3.4646	-2.8458	-3.2062	-3.3729	-2.6104	-3.6063	-2.9188	-2.9062	74.611	23.541	7.048	137.551	92.645	86.560	51.298	-75.899	-33.397	220.289	-63.871	-48.853	229.610	-46.834	197.370	157.401	0.00024082	0.00053158	0.00024476	913.71	2.4078e-06	2.4645e-05	770.08	303.28	3.9339e-06	8.2692e-06	288.32	98.712	97.755	45.48	1.2895e-05	48.102	0.016387	0.021153	0.0061	1229.7	0.00021259	0.00022643	1068.9	410.15	0.00020772	0.00022166	439.47	147.33	143.17	62.399	0.00022216	68.893	-79.387	-7.713	22.866	-69.775	90.771	199.674	-70.173	-63.625	68.814	198.364	-65.745	-60.504	-58.299	-52.911	24.897	-56.163	-8191	255	
9974.003	1	1	0	0	0.13395	0.03472	0.10979	0.078686	0.13595	0.15973	0.29376	0.17582	0.16645	0.056762	0.13525	0.088336	0.26066	0.15352	0.051107	0.21505	-3.1896	-2.4479	-3.2083	-3.3021	-2.4896	-3.7521	-2.9833	-2.8896	-3.5458	-2.6104	-3.3417	-3.45	-2.7958	-3.4542	-2.9979	-2.7583	-62.081	246.959	-14.726	221.895	13.596	-59.612	269.623	-36.737	257.439	85.947	246.085	227.977	241.463	224.523	162.134	266.739	0.00027295	0.00020551	0.00040477	915.44	9.6628e-06	6.4713e-06	774.33	302.95	8.3232e-07	2.8203e-05	288.3	98.081	98.42	45.421	1.0097e-05	48.002	0.015123	0.020242	0.0057215	1215.1	0.00020497	0.00022631	1064.7	408.28	0.00020657	0.00022596	438.49	147.35	144.13	62.978	0.00022249	69.024	220.262	-10.838	-58.695	-69.516	258.412	142.601	-70.455	-63.771	-47.806	226.059	-65.879	-60.387	-58.405	-52.858	68.139	-56.235	-8191	255	
9974.122	1	1	0	0	0.31561	0.11253	0.12452	0.13566	0.065273	0.12229	0.042726	0.085331	0.16283	0.11292	0.15976	0.32207	0.14694	0.14453	0.076354	0.046077	-3.4313	-2.9979	-3.0583	-3.4167	-2.3771	-3.4354	-3.3771	-2.7687	-3.5604	-2.7	-3.1021	-3.4917	-2.9021	-3.4333	-3.2125	-2.9646	-9.842	128.351	-72.454	250.387	203.755	142.538	178.458	-18.653	132.213	99.457	74.580	224.252	-21.771	177.179	-0.580	108.429	0.00025934	0.00024878	0.00058605	922.34	1.1851e-05	1.1854e-05	781.72	306.49	1.0103e-05	8.6092e-06	287.87	98.269	98.939	45.609	6.649e-06	48.138	0.015666	0.021231	0.0058097	1229.8	0.00021659	0.00023988	1076.9	415.06	0.00022407	0.00024357	445.74	150.13	148.38	64.145	0.0002335	70.144	233.895	115.478	47.439	-69.851	-16.733	97.294	-70.329	-63.803	189.885	-66.080	-65.688	-60.266	-58.165	-53.298	-34.289	-56.369	-8191	255	
9974.218	1	1	0	0	0.12825	0.1069	0.076515	0.044128	0.0774	0.090482	0.20848	0.22032	0.18132	0.11054	0.23158	0.12673	0.22825	0.19586	0.17373	0.20191	-3.1312	-2.7271	-2.8937	-3.4938	-2.7417	-3.2417	-3.2812	-2.5021	-3.5375	-3.0312	-2.7979	-3.6271	-2.8187	-3.2667	-3.3958	-2.6208	234.654	150.539	270.367	157.514	273.148	25.380	-75.116	-37.926	107.940	-35.435	-80.100	189.464	229.369	-3.482	165.933	226.434	0.00022198	0.0018155	0.00023272	925.81	5.5962e-06	2.64e-05	786.58	307.88	3.4781e-06	1.5628e-05	289.75	98.591	99.653	46.025	4.733e-06	48.258	0.017082	0.022698	0.0061012	1257	0.00023849	0.00025596	1097.3	423.13	0.00024388	0.00025665	453.67	153.21	152.59	64.991	0.00024165	71.135	202.685	11.223	16.734	-69.480	166.587	64.113	-70.380	-63.948	105.649	83.999	-65.810	-60.231	-58.207	-53.236	71.022	-56.485	-8191	255	
9974.314	1	1	0	0	0.18096	0.33755	0.22618	0.17476	0.21151	0.064073	0.1854	0.20236	0.23557	0.16191	0.096973	0.18002	0.10145	0.1532	0.14145	0.16619	-3.2833	-3.0625	-2.5458	-3.7375	-2.7125	-3.2333	-3.5417	-2.5479	-3.3958	-3.0792	-2.7542	-3.4104	-2.9667	-3.2042	-3.2667	-2.8646	-67.943	193.569	164.216	33.479	-2.295	130.027	112.035	196.805	191.857	-29.561	175.135	-6.242	-15.254	275.165	207.044	153.338	0.00024424	0.00033947	0.00026636	926.32	4.9979e-06	1.6657e-05	781.18	306.41	5.648e-06	2.5599e-05	288.08	98.291	98.825	46.028	8.2722e-06	48.339	0.018092	0.022969	0.0061263	1257.6	0.00024216	0.00024706	1085.5	419.14	0.00023857	0.00023904	441.78	150.28	149.26	63.303	0.00021931	69.612	178.992	-26.313	265.141	-69.851	150.564	-14.918	-70.212	-63.741	135.991	32.040	-65.844	-60.063	-58.495	-52.785	54.458	-56.312	-8191	255	
9974.435	1	1	0	0	0.12556	0.068755	0.055046	0.045409	0.11195	0.074005	0.26892	0.13866	0.067889	0.17018	0.095733	0.14065	0.30679	0.062232	0.076438	0.086681	-3.0229	-3.1104	-2.525	-3.5083	-2.9146	-2.9542	-3.5583	-2.675	-3.325	-3.2354	-2.7125	-3.5938	-2.8771	-2.7396	-3.3688	-2.6125	47.144	-16.542	78.290	-28.189	53.345	51.080	240.270	178.808	-49.128	-22.300	249.349	145.633	265.939	163.343	80.198	-72.634	0.00012487	0.0012603	0.00027319	919.19	4.314e-06	5.893e-06	780.63	306.35	5.0188e-06	1.5803e-05	290.4	98.695	99.912	46.382	1.7563e-05	48.477	0.016471	0.0203	0.0054695	1226.3	0.00022036	0.00021953	1057	412.86	0.00022018	0.00021802	433.57	148.87	148.12	63.163	0.00021283	70.327	142.439	-65.492	184.023	-69.306	-27.916	75.809	-70.455	-63.538	184.129	5.050	-65.703	-60.477	-58.435	-53.151	53.308	-56.274	-8191	255	
9974.531	1	1	0	0	0.16056	0.37604	0.1561	0.13908	0.11914	0.02924	0.06948	0.34437	0.26559	0.17191	0.14055	0.23235	0.24603	0.29492	0.050957	0.24132	-2.8854	-3.2708	-2.5938	-3.5062	-3.1146	-2.9604	-3.5854	-2.8312	-3.0042	-3.4167	-2.7833	-3.4437	-3.0375	-2.9229	-3.4792	-2.8583	251.624	260.060	202.946	-50.485	32.685	-21.672	197.655	189.429	223.934	15.001	235.541	252.752	221.291	243.390	116.907	-15.620	7.1112e-05	0.0017057	0.00028344	932.8	1.1828e-05	5.8172e-06	782.63	310.59	1.8293e-05	1.3097e-05	291.07	99.391	101	46.508	1.1236e-05	48.471	0.016443	0.020347	0.0055813	1256.6	0.00023174	0.00023228	1085.3	430.04	0.00024472	0.0002482	456.96	159.5	157.62	66.382	0.00026545	75.51	180.998	0.310	-23.910	-69.668	107.975	221.043	-70.250	-63.994	55.258	32.654	-65.613	-60.361	-58.520	-53.193	245.109	-56.150	-8191	255	
#DATA ENDS
