BOXY.EXE: ISS Imagent and Oximeter Data Acquisition Program Version 0.80
Ascii Record File

#ACQ INFORMATION
2  Detector Channels 
16  External MUX Channels 
1  Auxiliary Channels 
5000  Waveform (CCF) Frequency (Hz)
1  Waveforms Skipped 
30  Waveforms Averaged 
1  Cycles Averaged 
16  Acquisitions per Waveform 
10.0806  Updata Rate (Hz) 

#FILE INFORMATION
TRUE -- External MUX Channel results are PARSED.
FALSE -- AC DC and Phase are NOT grouped.
TRUE -- Companion Program Settings File CREATED.
FALSE -- AC data not excluded
FALSE -- DC data not excluded
FALSE -- Phase data not excluded
FALSE -- Auxillary Chn. data not excluded
Tab delimiters

#CALIBRATION STATE
TRUE -- Waveform Calibration Values APPLIED.


#AUX CALIBRATION VALUES
Val Type	aux-1	

Term	1.0000e+00	
Factor	0.0000e+00	


#WF CALIBRATION VALUES
A = Detector Channel
Val Type	A-AC1	A-AC2	A-AC3	A-AC4	A-AC5	A-AC6	A-AC7	A-AC8	A-AC9	A-AC10	A-AC11	A-AC12	A-AC13	A-AC14	A-AC15	A-AC16	A-DC1	A-DC2	A-DC3	A-DC4	A-DC5	A-DC6	A-DC7	A-DC8	A-DC9	A-DC10	A-DC11	A-DC12	A-DC13	A-DC14	A-DC15	A-DC16	A-Ph1	A-Ph2	A-Ph3	A-Ph4	A-Ph5	A-Ph6	A-Ph7	A-Ph8	A-Ph9	A-Ph10	A-Ph11	A-Ph12	A-Ph13	A-Ph14	A-Ph15	A-Ph16	

Term	0.00000e+00	0.00000e+00	0.00000e+00	0.00000e+00	0.00000e+00	0.00000e+00	0.00000e+00	0.00000e+00	0.00000e+00	0.00000e+00	0.00000e+00	0.00000e+00	0.00000e+00	0.00000e+00	0.00000e+00	0.00000e+00	0.00000e+00	0.00000e+00	0.00000e+00	0.00000e+00	0.00000e+00	0.00000e+00	0.00000e+00	0.00000e+00	0.00000e+00	0.00000e+00	0.00000e+00	0.00000e+00	0.00000e+00	0.00000e+00	0.00000e+00	0.00000e+00	0.00000e+00	0.00000e+00	0.00000e+00	0.00000e+00	0.00000e+00	0.00000e+00	0.00000e+00	0.00000e+00	0.00000e+00	0.00000e+00	0.00000e+00	0.00000e+00	0.00000e+00	0.00000e+00	0.00000e+00	0.00000e+00	
Factor	1.00000e+00	1.00000e+00	1.00000e+00	1.00000e+00	1.00000e+00	1.00000e+00	1.00000e+00	1.00000e+00	1.00000e+00	1.00000e+00	1.00000e+00	1.00000e+00	1.00000e+00	1.00000e+00	1.00000e+00	1.00000e+00	1.00000e+00	1.00000e+00	1.00000e+00	1.00000e+00	1.00000e+00	1.00000e+00	1.00000e+00	1.00000e+00	1.00000e+00	1.00000e+00	1.00000e+00	1.00000e+00	1.00000e+00	1.00000e+00	1.00000e+00	1.00000e+00	X	X	X	X	X	X	X	X	X	X	X	X	X	X	X	X	

B = Detector Channel
Val Type	B-AC1	B-AC2	B-AC3	B-AC4	B-AC5	B-AC6	B-AC7	B-AC8	B-AC9	B-AC10	B-AC11	B-AC12	B-AC13	B-AC14	B-AC15	B-AC16	B-DC1	B-DC2	B-DC3	B-DC4	B-DC5	B-DC6	B-DC7	B-DC8	B-DC9	B-DC10	B-DC11	B-DC12	B-DC13	B-DC14	B-DC15	B-DC16	B-Ph1	B-Ph2	B-Ph3	B-Ph4	B-Ph5	B-Ph6	B-Ph7	B-Ph8	B-Ph9	B-Ph10	B-Ph11	B-Ph12	B-Ph13	B-Ph14	B-Ph15	B-Ph16	

Term	0.00000e+00	0.00000e+00	0.00000e+00	0.00000e+00	0.00000e+00	0.00000e+00	0.00000e+00	0.00000e+00	0.00000e+00	0.00000e+00	0.00000e+00	0.00000e+00	0.00000e+00	0.00000e+00	0.00000e+00	0.00000e+00	0.00000e+00	0.00000e+00	0.00000e+00	0.00000e+00	0.00000e+00	0.00000e+00	0.00000e+00	0.00000e+00	0.00000e+00	0.00000e+00	0.00000e+00	0.00000e+00	0.00000e+00	0.00000e+00	0.00000e+00	0.00000e+00	-7.31775e+01	-1.39643e+02	-1.29191e+02	-1.81468e+02	-5.28782e+01	-5.94017e+01	-1.58511e+02	-1.62015e+02	-4.34400e+01	-6.62646e+01	-1.70593e+02	-1.70390e+02	-1.81289e+02	-1.76543e+02	-5.19673e+01	-1.49467e+02	
Factor	1.51461e-05	1.38994e-04	3.70494e-05	1.65114e-01	1.30890e-06	1.55113e-06	1.66376e-01	5.64345e-02	1.01830e-06	1.34470e-06	8.78816e-02	2.83681e-02	2.52299e-02	8.59329e-03	1.27316e-06	1.18647e-02	5.15675e-06	6.63635e-06	1.85623e-06	8.53049e-02	7.07640e-08	7.33048e-08	8.10045e-02	2.92832e-02	7.07680e-08	7.32667e-08	4.41605e-02	1.43478e-02	1.32282e-02	4.49219e-03	7.21484e-08	6.00703e-03	X	X	X	X	X	X	X	X	X	X	X	X	X	X	X	X	



#DISTANCE SETTINGS
A = Detector Channel
A-1	A-2	A-3	A-4	A-5	A-6	A-7	A-8	A-9	A-10	A-11	A-12	A-13	A-14	A-15	A-16	

2.5000e+00	3.0000e+00	2.5000e+00	3.0000e+00	2.0000e+00	3.0000e+00	1.5000e+00	3.0000e+00	3.0000e+00	3.0000e+00	3.0000e+00	3.0000e+00	3.0000e+00	3.0000e+00	1.5000e+00	3.0000e+00	

B = Detector Channel
B-1	B-2	B-3	B-4	B-5	B-6	B-7	B-8	B-9	B-10	B-11	B-12	B-13	B-14	B-15	B-16	

1.0000e+01	1.0000e+01	1.0000e+01	1.4400e+00	1.0000e+01	1.0000e+01	1.5100e+00	1.9400e+00	1.0000e+01	1.0000e+01	1.9900e+00	2.4900e+00	2.4100e+00	2.9000e+00	1.0000e+01	2.9800e+00	




#DATA BEGINS
time	group	step	mark	flag	A-AC1	A-AC2	A-AC3	A-AC4	A-AC5	A-AC6	A-AC7	A-AC8	A-AC9	A-AC10	A-AC11	A-AC12	A-AC13	A-AC14	A-AC15	A-AC16	A-DC1	A-DC2	A-DC3	A-DC4	A-DC5	A-DC6	A-DC7	A-DC8	A-DC9	A-DC10	A-DC11	A-DC12	A-DC13	A-DC14	A-DC15	A-DC16	A-Ph1	A-Ph2	A-Ph3	A-Ph4	A-Ph5	A-Ph6	A-Ph7	A-Ph8	A-Ph9	A-Ph10	A-Ph11	A-Ph12	A-Ph13	A-Ph14	A-Ph15	A-Ph16	B-AC1	B-AC2	B-AC3	B-AC4	B-AC5	B-AC6	B-AC7	B-AC8	B-AC9	B-AC10	B-AC11	B-AC12	B-AC13	B-AC14	B-AC15	B-AC16	B-DC1	B-DC2	B-DC3	B-DC4	B-DC5	B-DC6	B-DC7	B-DC8	B-DC9	B-DC10	B-DC11	B-DC12	B-DC13	B-DC14	B-DC15	B-DC16	B-Ph1	B-Ph2	B-Ph3	B-Ph4	B-Ph5	B-Ph6	B-Ph7	B-Ph8	B-Ph9	B-Ph10	B-Ph11	B-Ph12	B-Ph13	B-Ph14	B-Ph15	B-Ph16	aux-1	digaux	

9948.530	1	1	0	256	0.081488	0.15027	0.10667	0.036226	0.18865	0.065578	0.17589	0.18808	0.047441	0.19812	0.2406	0.12123	0.23327	0.12513	0.13548	0.044636	-2.625	-2.1958	-2.9938	-2.8875	-2.3604	-3.2708	-2.5125	-2.8042	-3.2	-2.3396	-3.1125	-2.9979	-2.2042	-3.4104	-2.5167	-2.5333	23.723	263.612	261.146	105.918	95.329	65.384	187.234	220.275	105.138	-40.236	236.201	225.706	-45.461	21.763	-76.847	63.408	0.00021224	0.001126	0.0004044	894.41	5.231e-06	3.0047e-06	754.18	306.69	3.3261e-06	8.7261e-06	298.05	107.98	106.08	51.006	1.079e-05	55.186	0.011579	0.014907	0.004392	1137.4	0.00015495	0.00016605	987.43	391.59	0.00015474	0.00016545	416.86	147.68	142.4	64.904	0.00016773	72.091	230.384	235.272	-30.830	-68.446	-0.653	275.971	-69.359	-62.687	-77.050	54.272	-64.662	-59.270	-57.121	-52.359	104.591	-55.451	-8191	255	
9948.602	1	1	0	0	0.103	0.12833	0.18493	0.084827	0.038783	0.1306	0.11718	0.36171	0.18073	0.15628	0.10612	0.089708	0.2308	0.22089	0.11216	0.14995	-2.8771	-2.2958	-2.7188	-3.175	-2.2	-3.0917	-2.8354	-2.6958	-3.2521	-2.175	-3.1	-3.2479	-2.3229	-3.1354	-2.45	-2.6417	27.135	-18.352	52.155	87.130	-9.098	37.350	-15.804	210.250	31.776	164.313	222.325	220.581	-75.680	-12.622	13.422	143.328	0.00021471	0.00033761	0.00015125	895.49	1.5444e-05	3.0483e-06	759.83	307.8	7.7985e-06	1.7589e-05	296.87	107.99	106.06	50.677	9.6182e-06	55.279	0.011288	0.015111	0.0042652	1134	0.00015191	0.0001665	984.52	389.58	0.00015041	0.00016261	410.59	145.92	140.8	64.317	0.0001533	71.289	226.544	81.571	-43.396	-68.486	-15.994	250.221	-69.133	-62.337	37.634	166.895	-64.561	-59.436	-57.175	-52.436	100.122	-55.408	-8191	255	
9948.722	1	1	0	0	0.0091723	0.20338	0.064987	0.28482	0.15439	0.023412	0.1925	0.12325	0.21389	0.15498	0.06868	0.28535	0.16415	0.32377	0.081963	0.16716	-3.0563	-2.4688	-2.85	-3.1188	-2.3937	-3.2042	-2.9667	-2.4208	-3.1625	-2.4938	-2.8792	-3.2042	-2.3625	-3.2938	-2.9021	-2.3292	185.588	18.274	113.344	240.496	119.068	261.184	190.771	164.885	-65.650	260.316	11.063	-31.720	192.044	258.887	-79.979	11.429	0.0001666	0.00089901	0.00043755	897.51	1.0795e-05	7.2475e-06	767.88	307.63	3.9454e-06	3.282e-06	299.72	109.34	106.84	51.056	5.4935e-06	55.926	0.01056	0.014209	0.0039052	1120.9	0.00014427	0.00015942	977.42	387.62	0.00014977	0.00016447	412.97	147.67	143.62	65.449	0.00016289	72.84	184.571	33.215	-19.111	-68.618	89.976	7.874	-69.281	-62.743	171.018	-21.229	-64.592	-59.542	-57.183	-52.506	101.642	-55.669	-8191	255	
9948.817	1	1	0	0	0.055073	0.17165	0.061557	0.16694	0.1964	0.1418	0.20048	0.20461	0.19539	0.12866	0.092396	0.048069	0.14751	0.23362	0.30982	0.2253	-2.925	-2.3729	-2.5917	-3.1604	-2.3417	-3.1479	-2.8021	-2.4437	-2.9708	-2.7146	-2.6229	-3.1896	-2.4333	-3.0771	-2.7438	-2.5521	-30.705	144.029	139.733	-57.887	-54.097	118.824	259.333	222.637	30.020	110.033	-42.659	-74.851	45.826	-50.786	21.506	176.142	0.00036867	0.001175	0.0005792	908.01	1.1815e-05	9.6039e-06	771.66	310.47	4.6754e-06	6.4693e-06	302.37	109.35	107	51.426	5.1442e-06	55.658	0.011869	0.015854	0.0042633	1150.7	0.00016485	0.00017703	1001.2	396.74	0.00016653	0.00017597	420.32	150.02	146.3	65.915	0.00016512	73.026	231.655	44.373	-7.793	-68.457	182.792	12.369	-69.263	-62.839	237.672	75.203	-64.982	-59.758	-57.672	-53.163	250.506	-56.076	-8191	255	
9948.913	1	1	0	0	0.053522	0.1363	0.39526	0.19214	0.16539	0.24145	0.17703	0.24812	0.054407	0.15851	0.069045	0.26992	0.04837	0.10122	0.092075	0.16622	-2.9042	-2.4979	-2.3875	-3.2875	-2.5833	-2.6021	-3.2188	-2.5062	-3.0792	-2.6125	-2.4417	-3.1854	-2.4604	-2.6875	-3.075	-2.3854	239.331	-79.526	-49.496	-65.446	127.129	45.791	168.502	160.590	269.978	201.729	-28.115	187.697	-37.859	256.247	27.513	253.062	0.00031283	0.002185	0.0001999	904.82	1.5491e-05	1.5749e-05	767.95	309.64	6.9556e-06	1.3636e-05	299.23	108.85	105.82	50.983	1.1934e-05	55.204	0.012311	0.015849	0.0042614	1150.8	0.0001692	0.00017506	997.26	395.99	0.00016995	0.00017403	418.84	149.82	146.35	65.477	0.00016769	73.064	217.287	-47.092	-4.337	-69.048	175.279	63.436	-70.043	-63.293	257.108	59.749	-65.211	-59.852	-57.599	-53.062	140.736	-55.982	-8191	255	
9949.009	1	1	0	0	0.23375	0.26528	0.28096	0.072062	0.31338	0.08696	0.25518	0.13308	0.1231	0.04062	0.3167	0.21666	0.070946	0.19601	0.19704	0.23308	-2.5958	-2.6167	-2.2896	-3.2812	-2.3083	-2.7167	-3.3729	-2.2687	-3.0354	-2.9146	-2.2292	-3.0771	-2.5292	-2.6312	-3.1375	-2.3563	106.044	-39.581	202.028	235.127	257.954	41.673	268.238	152.314	261.030	-15.321	3.458	205.555	-39.619	-69.829	118.419	181.900	0.00024451	0.001417	0.00016634	900.85	5.8856e-06	2.5416e-05	769.44	309.21	2.2203e-06	1.6641e-05	302.53	109.47	107.29	51.166	1.1088e-05	55.724	0.012806	0.015967	0.0043592	1157.9	0.00017802	0.00017862	1006.9	401.08	0.00018177	0.00018137	426.04	153.54	149.26	66.367	0.00017853	75.035	236.807	33.304	-15.770	-68.893	-11.083	53.616	-69.646	-63.088	-1.598	24.906	-65.059	-59.705	-57.831	-52.898	154.436	-56.309	-8191	255	
9949.130	1	1	0	0	0.26855	0.18864	0.045949	0.2395	0.16243	0.058681	0.027764	0.19358	0.32933	0.13118	0.24994	0.15899	0.086799	0.094254	0.3742	0.24126	-2.5875	-2.7396	-2.2958	-3.2396	-2.4292	-2.5208	-3.2375	-2.5521	-2.9208	-2.6312	-2.2896	-3.3937	-2.6875	-2.6312	-3.2687	-2.3896	-41.600	93.912	91.770	227.334	255.186	124.433	38.629	-18.739	47.485	258.212	84.023	111.607	184.660	-31.603	176.235	236.872	0.00014609	0.00096515	0.00022007	910.63	1.5316e-05	1.5028e-05	775.43	311.52	3.2025e-06	1.4374e-05	303.89	109.83	107.16	51.364	1.5829e-05	56.028	0.013731	0.016932	0.0046195	1184.8	0.00018945	0.00018889	1024.1	409.8	0.00019175	0.00019275	435.31	157.59	151.86	67.179	0.00019494	77.053	201.291	-50.258	-61.417	-68.946	102.614	25.228	-69.944	-63.443	-11.166	16.331	-65.491	-59.867	-57.941	-52.966	-60.954	-56.101	-8191	255	
9949.226	1	1	0	0	0.29834	0.23149	0.12817	0.08362	0.1612	0.20731	0.050829	0.15289	0.19799	0.20223	0.23811	0.15771	0.22034	0.20184	0.10876	0.19795	-2.5875	-3.0708	-2.125	-3.3312	-2.8417	-2.4521	-3.4604	-2.5521	-2.7521	-3.2208	-2.5417	-3.1437	-2.8104	-2.5146	-3.2812	-2.6479	67.846	57.088	-58.300	-69.590	104.160	109.747	11.921	178.099	96.527	268.395	-25.269	268.871	269.841	-8.942	259.968	220.660	8.903e-05	0.0014233	0.00040383	918.33	5.7182e-06	6.9263e-06	779.28	312.92	4.3434e-06	1.5193e-05	305.16	109.51	107.11	51.276	1.3665e-05	55.652	0.015022	0.018911	0.0052514	1228.9	0.00021521	0.00021733	1067.9	427.81	0.00022334	0.00022766	459.52	165.44	158.37	69.294	0.00023075	79.839	242.904	23.380	273.186	-69.145	86.008	110.638	-69.747	-63.320	25.445	46.433	-65.118	-59.808	-57.889	-53.149	228.782	-56.138	-8191	255	
9949.298	1	1	0	0	0.033429	0.20159	0.053436	0.2759	0.084381	0.12329	0.26295	0.34074	0.089198	0.18668	0.073915	0.35271	0.19679	0.15158	0.086776	0.11861	-2.3563	-3.0854	-2.3354	-3.2062	-2.9896	-2.3312	-3.2583	-2.6854	-2.7604	-3.1396	-2.2729	-3.1813	-3.175	-2.3229	-3.2667	-2.8563	58.501	31.251	-8.530	218.697	70.871	-9.736	236.785	249.269	75.848	266.328	-80.897	227.530	-53.791	229.767	-78.526	221.067	0.00019346	0.00039611	0.00044921	923.02	1.7783e-05	1.206e-05	777.6	314.16	9.6185e-06	1.5002e-05	301.74	109.26	107.03	51.051	1.5187e-05	55.432	0.016892	0.021267	0.0060176	1266.8	0.00023224	0.00023402	1092.1	435.25	0.0002322	0.00023617	466.94	166.13	158.2	69.126	0.00023872	79.656	236.928	-14.575	197.216	-69.094	77.639	77.160	-69.835	-63.350	79.376	72.743	-65.135	-59.747	-57.636	-52.908	234.880	-55.981	-8191	255	
9949.394	1	1	0	0	0.092133	0.13474	0.15937	0.25232	0.30585	0.01832	0.32181	0.24285	0.13876	0.17012	0.11343	0.16101	0.1782	0.16032	0.16647	0.22044	-2.2979	-3.0646	-2.2771	-3.1875	-3.0167	-2.1708	-3.4708	-2.6167	-2.7083	-3.275	-2.3583	-3.0521	-3.3937	-2.3375	-3.1854	-2.9708	55.356	-5.266	130.063	222.571	100.148	62.089	-74.633	150.158	273.238	-64.524	264.196	81.514	97.987	-68.453	-21.819	248.490	0.00011655	0.0011129	8.7517e-05	924.49	4.5744e-06	5.6756e-06	777.94	314.45	8.7144e-06	1.2828e-05	302.28	109.1	107	50.881	9.2994e-06	55.58	0.016827	0.021193	0.0062104	1265.2	0.00023118	0.00023469	1100.2	434.79	0.00022839	0.00023337	469.21	164.74	156.89	68.681	0.00023682	78.593	272.149	16.115	170.831	-68.806	56.109	101.167	-69.575	-63.252	29.151	125.070	-65.161	-59.906	-57.616	-52.828	176.532	-55.991	-8191	255	
9949.514	1	1	0	0	0.14505	0.13184	0.14331	0.19352	0.21688	0.021203	0.14422	0.057391	0.21998	0.17341	0.11545	0.05664	0.2465	0.13175	0.061315	0.34941	-2.0646	-3.2333	-2.4521	-3.0563	-3.1396	-2.2146	-3.4188	-2.7417	-2.5021	-3.2271	-2.4375	-2.8771	-3.1271	-2.5646	-3.2104	-2.9042	230.416	190.384	-5.448	229.424	172.027	-46.304	0.783	-61.448	57.085	10.447	135.280	86.800	251.610	182.433	-73.618	208.462	0.0001688	0.0015744	0.00027724	920.61	1.446e-05	1.0823e-05	776.43	314.35	6.668e-06	9.9201e-06	301.23	108.51	106.92	50.559	1.2977e-05	55.335	0.015965	0.020225	0.0060652	1245.3	0.00021697	0.00022495	1094	428.61	0.00021957	0.00023044	468.74	162.68	155.55	68.498	0.00023801	77.791	256.119	95.049	-72.391	-68.852	86.716	-7.272	-69.644	-63.232	7.621	259.827	-65.052	-59.628	-57.744	-52.913	211.755	-55.977	-8191	255	
9949.611	1	1	0	0	0.27507	0.12766	0.1382	0.10772	0.17827	0.0597	0.049457	0.12454	0.16154	0.094529	0.14842	0.32473	0.23551	0.30921	0.16106	0.32049	-2.2188	-3.0396	-2.4146	-2.7188	-3.0958	-2.3854	-3.0646	-2.9062	-2.4875	-3.1875	-2.7354	-2.6542	-3.2021	-2.5375	-2.9521	-3.0625	84.102	-74.984	4.274	170.851	104.896	-35.750	-30.247	-61.190	-64.561	-32.115	131.256	-78.715	217.402	188.484	6.359	259.750	0.00017794	0.0017841	0.00016371	921.88	1.3784e-05	2.8793e-06	779.2	313.64	6.6789e-06	4.1494e-06	303.13	108.76	106.5	50.498	1.7064e-05	55.196	0.015399	0.020391	0.0060398	1234.6	0.0002111	0.00022825	1088.3	424.81	0.00021409	0.00023606	467.62	161.97	155.4	69.286	0.00024552	78.329	234.417	95.443	6.189	-68.760	92.855	109.067	-69.295	-63.059	60.025	135.998	-65.251	-59.726	-57.741	-52.903	56.915	-55.750	-8191	255	
9949.707	1	1	0	0	0.073517	0.1989	0.087853	0.11692	0.11549	0.07978	0.07212	0.097826	0.1406	0.10425	0.44581	0.021172	0.22698	0.075265	0.12288	0.21991	-2.0729	-3.1	-2.6312	-2.7396	-3.2646	-2.2521	-2.9688	-3.4042	-2.4125	-3.2438	-2.6479	-2.4833	-3.2896	-2.8646	-2.9375	-3.2604	53.461	-5.817	133.935	-29.928	180.137	-27.429	59.859	-53.188	-61.311	275.219	203.414	84.249	-51.794	-75.276	-17.952	227.241	4.7745e-05	0.0015285	0.00032742	920.58	1.186e-05	7.0729e-06	777.96	311.4	7.7183e-06	1.1246e-05	300.25	107.47	106.15	50.284	1.2412e-05	54.775	0.016348	0.022547	0.006371	1249.9	0.00022538	0.00025057	1096	427.7	0.00022313	0.00025122	468.05	161.71	156.32	69.773	0.00024297	77.976	247.142	55.691	6.266	-68.904	38.897	119.436	-69.853	-63.408	263.178	154.373	-65.009	-59.925	-57.738	-53.013	57.788	-56.140	-8191	255	
9949.803	1	1	0	0	0.2543	0.063738	0.089962	0.10594	0.23381	0.074412	0.15718	0.062178	0.13358	0.29959	0.2454	0.16943	0.18214	0.024514	0.15696	0.19603	-1.8312	-3.3042	-2.4729	-2.6063	-3.1396	-2.5833	-2.7896	-3.3271	-2.4125	-3.0771	-2.9375	-2.2667	-3.4667	-2.3521	-2.7104	-3.3563	161.949	-25.704	-25.029	25.141	207.836	56.833	143.793	12.992	8.237	87.745	162.937	84.354	162.784	259.167	3.910	167.307	0.00040773	0.0010494	0.00052553	919.09	1.643e-05	8.7576e-06	778.56	313.1	1.8119e-05	2.8144e-06	298.52	108.04	106	50.73	2.6263e-05	54.456	0.016634	0.023287	0.0062961	1248.8	0.0002332	0.0002609	1096.5	429.87	0.00023749	0.0002649	470.91	163.74	160.12	70.94	0.00025243	79.017	230.753	67.799	-8.887	-68.715	214.902	131.684	-69.404	-62.900	216.199	187.850	-65.281	-59.642	-57.553	-53.001	87.726	-55.699	-8191	255	
9949.899	1	1	0	0	0.12708	0.19246	0.11917	0.22569	0.08833	0.058597	0.066582	0.35438	0.17539	0.032002	0.24473	0.40374	0.16087	0.073429	0.075196	0.10391	-2.0563	-2.9938	-2.8167	-2.5854	-3.2021	-2.5271	-2.7917	-3.3854	-2.5167	-3.1125	-2.8937	-2.3771	-3.3167	-2.7708	-2.4875	-3.4104	-22.411	66.527	78.288	-64.667	227.879	246.158	163.783	268.854	190.710	-42.034	218.035	234.119	202.591	-62.665	51.306	52.639	0.00039241	0.0017345	0.00050001	922.61	2.5458e-05	8.7942e-06	780.76	314.49	8.878e-06	3.1759e-05	300.39	107.56	106.03	50.277	8.7933e-06	54.791	0.018338	0.024836	0.0066352	1268.4	0.00025837	0.00027925	1114.1	436.96	0.00026616	0.00028506	481.57	167.02	165.35	71.654	0.00026715	80.337	220.807	-34.265	-49.794	-68.997	213.133	10.462	-69.664	-62.998	211.354	31.524	-65.500	-59.541	-57.618	-53.042	47.680	-55.786	-8191	255	
9949.993	1	1	0	0	0.13958	0.076958	0.17894	0.29881	0.13298	0.11507	0.25296	0.2717	0.25123	0.055097	0.063562	0.20439	0.18584	0.12407	0.11676	0.29622	-2.0729	-3.0938	-3.1229	-2.4562	-3.1542	-2.6792	-2.5833	-3.4042	-2.3604	-2.95	-3.3312	-2.425	-3.1937	-2.9396	-2.5667	-3.3917	-61.441	162.127	-67.588	-38.671	-60.127	253.720	119.245	227.957	48.275	254.407	170.877	263.423	177.660	270.022	41.845	264.760	0.00038052	0.0010332	0.00044764	918.46	7.8836e-06	1.2652e-05	773.7	311.34	1.1622e-05	2.9518e-06	299.21	107.11	106	50.134	9.4219e-06	54.426	0.02029	0.026054	0.0069733	1283	0.00027983	0.00028724	1120.9	441.08	0.00028233	0.00028772	483.68	169.25	167.7	71.721	0.00027244	81.131	218.906	76.559	-19.982	-68.814	222.952	49.232	-69.497	-63.013	-30.877	101.784	-64.928	-59.605	-57.541	-52.890	36.172	-55.560	-8191	255	
9950.114	1	1	0	0	0.33327	0.18064	0.12408	0.2986	0.1582	0.17964	0.23572	0.19888	0.09334	0.089303	0.2696	0.24468	0.21073	0.19548	0.1718	0.11844	-2.2708	-2.7042	-3.0458	-2.4833	-2.9771	-2.9354	-2.5812	-3.1646	-2.5812	-2.6042	-3.4042	-2.3625	-3.1542	-3.0438	-2.2125	-3.5167	13.160	84.473	87.339	-73.496	136.692	131.139	228.206	144.940	54.615	119.154	-80.833	176.472	224.405	255.513	198.070	-40.993	0.00026176	0.0021303	0.00043169	911.42	1.944e-05	1.9236e-05	770.85	310.95	5.2676e-06	1.6292e-05	298.33	106.31	105.54	49.959	1.2549e-05	53.918	0.02119	0.026181	0.0070799	1299.2	0.00029172	0.00029009	1123.9	447.14	0.00029444	0.00028997	486	171.62	168.93	71.618	0.00027817	82.317	225.726	-65.754	-6.476	-68.692	82.203	45.063	-69.312	-63.091	145.296	49.618	-65.019	-59.859	-57.583	-52.811	127.159	-55.822	-8191	255	
9950.210	1	1	0	0	0.067971	0.12609	0.2041	0.44352	0.062757	0.080277	0.26823	0.17155	0.13576	0.047204	0.047872	0.25668	0.27036	0.12611	0.16633	0.25351	-2.3063	-2.6896	-3.2562	-2.4396	-3.0104	-3.1521	-2.5479	-3.4813	-2.6479	-2.6562	-3.2062	-2.5687	-3	-3.3729	-2.3729	-3.5438	24.227	201.140	28.501	224.858	-26.213	-3.465	164.943	164.987	48.675	0.314	255.241	-27.476	250.367	277.381	66.166	268.078	0.00021775	0.0016567	0.00024815	914.86	2.44e-05	2.4978e-05	769.79	312.65	8.8606e-06	5.0783e-06	297.12	105.77	105.51	49.574	1.0843e-05	53.814	0.021885	0.026583	0.0072739	1325.5	0.00030718	0.00030437	1136.4	456.52	0.00030517	0.00030503	497.32	177.69	171.35	72.111	0.00029064	83.718	227.454	-52.303	-10.286	-68.811	106.564	62.082	-69.423	-62.835	-23.648	34.888	-64.941	-59.675	-57.501	-53.002	22.998	-55.975	-8191	255	
9950.306	1	1	0	0	0.11454	0.20384	0.26994	0.086722	0.16179	0.029762	0.2592	0.060573	0.02003	0.14019	0.13209	0.23252	0.1149	0.096596	0.12732	0.20734	-2.3312	-2.6229	-3.1729	-2.6521	-2.8875	-3.2146	-2.5979	-3.1896	-2.8542	-2.2667	-3.3021	-2.4854	-2.8333	-3.3833	-2.2438	-3.4042	-17.120	61.256	133.294	272.187	124.453	-15.546	273.002	107.144	177.658	238.495	-67.868	217.393	214.851	-43.615	19.824	140.939	0.00020467	0.0018417	0.00031472	919.1	5.3118e-06	1.3772e-05	767.07	310.33	1.6543e-05	5.0237e-06	295.96	106.08	105.04	49.638	1.3058e-05	53.686	0.022045	0.026958	0.0075433	1352.6	0.00030924	0.00030907	1153.6	464.67	0.00031025	0.00030786	503.53	180.04	171.58	72.572	0.00031004	85.219	-80.267	-76.625	-6.504	-68.923	4.374	41.365	-69.472	-62.990	57.465	55.501	-65.153	-59.891	-57.697	-52.735	210.249	-55.852	-8191	255	
9950.402	1	1	0	0	0.16859	0.29256	0.29479	0.016546	0.1544	0.26336	0.1792	0.27617	0.10463	0.30782	0.23251	0.021194	0.50213	0.21401	0.19194	0.14286	-2.5958	-2.3292	-3.1042	-2.7958	-2.7375	-2.9771	-2.4521	-3.1458	-3.2833	-2.5062	-3.3042	-2.5938	-2.6521	-3.3396	-2.4104	-3.1729	107.403	-44.877	156.921	-29.442	-47.680	188.621	186.289	-43.903	129.725	184.615	73.792	168.108	241.193	72.017	77.812	155.382	7.191e-05	0.0012516	0.00027013	916.39	2.8372e-05	2.3555e-05	762.75	310.56	3.8376e-06	7.77e-06	295.14	105.93	104.54	49.345	2.0095e-05	53.425	0.022649	0.027915	0.0080251	1360.4	0.00030566	0.00030926	1166.6	467.26	0.00031264	0.00031065	510.11	179.87	170.15	72.181	0.00031992	84.765	189.747	17.625	140.474	-69.100	60.000	-20.185	-69.929	-63.556	-0.699	73.099	-65.152	-60.584	-58.020	-53.446	-79.546	-56.203	-8191	255	
9950.523	1	1	0	0	0.14886	0.10524	0.19489	0.25535	0.043518	0.095725	0.13182	0.11725	0.22547	0.28802	0.089788	0.29763	0.070856	0.21644	0.18604	0.17058	-2.6208	-2.3667	-3.2062	-2.6667	-2.6167	-3.3021	-2.6208	-2.8	-3.2625	-2.3292	-3.4021	-2.7625	-2.5667	-3.2562	-2.4333	-2.975	238.150	227.327	103.995	203.687	-58.250	95.123	-21.929	39.329	72.940	-39.016	45.026	268.477	-26.954	240.658	72.747	264.808	9.186e-05	0.00038261	0.00026096	916.84	1.2183e-05	1.4052e-05	764.54	310.58	3.9492e-06	2.215e-05	293.36	105.36	104.51	48.943	1.4451e-05	53.217	0.022505	0.027952	0.0084129	1363.6	0.00030532	0.00030836	1176.1	462.98	0.00030436	0.00030757	514.91	178.45	169.67	72.315	0.00033755	84.472	80.788	46.002	276.457	-69.317	86.187	-75.287	-70.133	-63.246	1.936	181.357	-65.460	-60.114	-58.032	-53.420	213.140	-56.282	-8191	255	
9950.595	1	1	0	0	0.065841	0.16107	0.1694	0.057964	0.35243	0.17333	0.22602	0.30707	0.20836	0.039993	0.12903	0.32842	0.22616	0.27365	0.058229	0.15546	-2.7188	-2.4208	-3	-2.9437	-2.3792	-3.2542	-2.5125	-2.9437	-3.3312	-2.2708	-3.1104	-3.1083	-2.4542	-3.3146	-2.5542	-2.8021	2.934	-42.659	-4.745	177.264	132.229	-2.325	182.853	167.219	56.480	107.765	134.388	240.993	34.902	-54.498	-79.520	-69.014	0.00017403	0.00083736	0.00039257	912.47	5.8139e-06	1.6716e-05	760.44	308.59	3.5457e-06	7.1606e-06	293.19	105.6	103.71	48.794	1.3658e-05	53.359	0.023044	0.02914	0.0087713	1352.6	0.00030343	0.00031534	1182.6	456.69	0.00029589	0.00030683	510.3	174.1	165.48	71.643	0.00032198	82.199	255.452	77.908	125.593	-69.295	86.534	200.105	-70.134	-63.356	106.199	147.223	-65.007	-60.203	-58.060	-53.013	38.649	-55.838	-8191	255	
9950.691	1	1	0	0	0.058862	0.1854	0.069007	0.26165	0.09266	0.36213	0.17351	0.1308	0.21434	0.21214	0.095053	0.068826	0.065113	0.14407	0.2301	0.13931	-2.8208	-2.4104	-3.0042	-3.0771	-2.4979	-3.1667	-2.7812	-2.6917	-3.3271	-2.1937	-2.9521	-3.025	-2.5708	-3.2938	-2.6396	-2.5563	-77.213	5.861	-20.491	235.540	151.777	100.838	236.823	164.918	24.513	8.942	238.431	137.466	-62.460	269.136	-77.445	-68.598	9.6642e-05	0.0027588	0.00074762	913.78	1.4085e-05	6.8618e-06	765.09	307.67	1.1561e-06	2.759e-05	293.96	105.08	103.32	48.963	1.4728e-05	53.398	0.021263	0.028151	0.0083259	1326.2	0.00028836	0.00031548	1171.5	450.82	0.0002878	0.0003129	505.55	172.78	164.1	72.102	0.00031032	81.538	200.535	137.469	-41.502	-69.238	115.254	247.258	-69.837	-63.223	189.008	199.015	-65.243	-59.950	-57.865	-53.346	222.952	-55.701	-8191	255	
9950.787	1	1	0	0	0.11595	0.15276	0.086792	0.15053	0.14381	0.15556	0.11192	0.23414	0.16255	0.16242	0.22055	0.076357	0.14911	0.16275	0.1477	0.043422	-2.9083	-2.4813	-2.825	-3.1771	-2.5625	-3.2083	-2.9042	-2.525	-3.0875	-2.35	-2.7208	-3.2146	-2.2438	-3.2	-2.8521	-2.4854	38.535	-20.296	175.127	142.772	213.674	-34.264	68.018	225.777	-46.268	112.656	194.462	196.170	277.463	210.404	95.340	-74.585	0.00022324	0.0019133	0.00055573	909.04	1.6695e-05	2.0994e-05	769.53	307.91	7.0104e-06	1.5266e-05	296.66	105.24	103.84	49.056	1.7469e-05	53.381	0.020635	0.028331	0.0079442	1312.3	0.00028079	0.00031752	1158.8	447.38	0.0002848	0.00031923	501.25	171.86	165.02	72.676	0.0003056	81.465	234.669	83.455	-21.255	-69.171	13.616	210.003	-70.093	-63.465	97.404	161.490	-65.299	-60.026	-57.694	-52.952	154.715	-56.067	-8191	255	
9950.906	1	1	0	0	0.20351	0.19367	0.083774	0.26703	0.31385	0.1372	0.20453	0.22831	0.053086	0.16497	0.25858	0.16921	0.21792	0.15469	0.17629	0.39995	-3.1083	-2.3187	-2.6958	-3.2313	-2.3958	-3.125	-2.775	-2.4292	-3.3187	-2.825	-2.7979	-3.2667	-2.5312	-3.1333	-2.9229	-2.3937	-69.108	268.180	-46.304	247.294	-17.081	-77.494	185.963	218.222	232.880	47.286	199.512	201.206	84.338	258.868	-76.961	187.757	0.00030285	0.00071443	0.00012777	913.12	1.9173e-05	1.5854e-05	763.04	309.73	1.0535e-05	1.2971e-05	294.51	104.71	104.1	49.237	9.7647e-06	53.412	0.02129	0.029557	0.0079791	1318.6	0.00029571	0.00033169	1160.1	449.67	0.00030082	0.00033147	502.56	172.83	169.23	73.502	0.00031164	81.927	245.517	186.336	2.046	-69.308	184.475	-22.222	-69.806	-63.416	233.059	107.111	-65.322	-59.761	-57.454	-52.830	-48.202	-55.910	-8191	255	
9951.002	1	1	0	0	0.34501	0.17948	0.21831	0.17931	0.17681	0.21697	0.1384	0.23235	0.12503	0.22349	0.084247	0.14142	0.30966	0.22047	0.10037	0.074385	-2.9729	-2.7792	-2.7792	-3.1792	-2.375	-3.0667	-3.0333	-2.5146	-3.2188	-2.9021	-2.725	-3.3167	-2.5417	-3.1625	-3.0354	-2.4938	247.431	181.928	258.565	-31.364	167.755	266.311	188.405	210.713	179.354	-61.023	71.336	225.170	-78.999	253.357	150.565	277.607	0.00043879	0.00045826	0.00072439	912.98	1.764e-05	1.2514e-05	769.73	309.54	2.5141e-05	9.3226e-06	296.1	105.2	104.27	49.41	8.3894e-06	53.443	0.022663	0.030323	0.0080021	1322.7	0.00031395	0.00033587	1161.8	451.64	0.00031991	0.00033605	503.88	173.7	171.99	73.508	0.00031018	82.17	226.803	-57.951	-40.278	-69.153	198.366	64.972	-69.887	-63.206	219.452	82.819	-65.183	-60.239	-57.521	-53.131	38.968	-55.927	-8191	255	
9951.098	1	1	0	0	0.056326	0.1272	0.19252	0.17157	0.10311	0.094499	0.34885	0.22732	0.14291	0.073059	0.27725	0.12494	0.050677	0.33064	0.1865	0.19918	-2.675	-2.8208	-2.4979	-3.4375	-2.3812	-3.1125	-3.2625	-2.5625	-3.3021	-2.925	-2.5375	-3.1208	-2.6771	-2.7417	-3.0333	-2.3833	101.014	87.014	-8.969	-48.535	120.230	-16.671	239.588	222.718	253.675	-22.884	208.942	12.259	-69.753	253.043	-16.775	266.454	0.00038183	0.0015561	0.00070283	908.86	3.7494e-06	9.9203e-06	761.21	306.88	6.9653e-06	1.9548e-05	294.19	105.07	104.08	49.621	7.4157e-06	53.696	0.023407	0.02962	0.0078396	1317.9	0.00031605	0.00031986	1144.4	446.83	0.00030986	0.00030818	487.92	170.58	168.31	71.429	0.00027864	80.79	233.031	7.796	-2.493	-69.313	267.376	-2.590	-69.928	-63.025	-48.924	39.683	-65.309	-59.895	-57.810	-52.989	-80.017	-56.020	-8191	255	
9951.194	1	1	0	0	0.12594	0.073224	0.060695	0.36014	0.16207	0.27958	0.27655	0.12636	0.24425	0.095984	0.12399	0.06744	0.15389	0.19917	0.13672	0.34116	-2.8354	-2.6688	-2.4437	-3.2833	-2.575	-2.6979	-3.3771	-2.3854	-3.0083	-2.9958	-2.4667	-3.3854	-2.5771	-2.8917	-3.2146	-2.5563	165.715	260.745	222.834	189.488	143.660	70.926	212.074	260.848	-65.013	229.107	157.136	187.990	245.985	177.963	175.819	265.242	0.00025118	0.0031767	0.00017937	905.47	2.1611e-05	8.4638e-06	762.38	306.68	9.5838e-06	1.4355e-05	292.92	104.82	103.97	49.189	9.2897e-06	53.639	0.021598	0.026317	0.0070388	1292.4	0.00029118	0.00028622	1113.1	440.51	0.0002875	0.00028127	473.59	168.72	164.48	69.879	0.00026186	80.231	223.574	-9.690	-37.185	-68.924	189.091	-55.194	-69.723	-63.192	125.387	22.773	-65.016	-59.834	-57.924	-52.843	82.110	-56.235	-8191	255	
9951.291	1	1	0	0	0.043515	0.098317	0.19394	0.084341	0.15034	0.061068	0.15554	0.19059	0.13255	0.17818	0.23218	0.13704	0.17274	0.27384	0.10935	0.15624	-2.5833	-2.9271	-2.3229	-3.1271	-2.6708	-2.3542	-3.4646	-2.5292	-2.8979	-3.1312	-2.4062	-3.4542	-2.7458	-2.4708	-3.2625	-2.3708	214.172	-21.760	234.779	276.018	-65.512	69.874	256.732	144.751	96.833	257.985	-62.501	122.126	222.701	232.768	204.616	239.937	0.00011896	0.00035095	0.00028111	903.51	1.2131e-05	3.0121e-05	763.92	307.22	6.6397e-06	9.8106e-06	295.92	105.43	103.68	49.597	2.052e-05	53.845	0.020206	0.024528	0.0066173	1285.5	0.00027302	0.00026855	1099.2	440.61	0.00027223	0.00026881	469.49	168.53	161.52	69.199	0.00025212	80.132	-54.055	268.080	-33.503	-68.854	-5.753	21.095	-69.570	-63.062	92.553	63.788	-65.360	-59.802	-57.864	-52.843	257.882	-55.921	-8191	255	
9951.387	1	1	0	0	0.12305	0.21809	0.21709	0.2075	0.17795	0.34185	0.23393	0.2176	0.01551	0.25915	0.098266	0.16208	0.088096	0.18982	0.19333	0.10152	-2.3667	-3.0958	-2.3438	-3.1937	-2.8646	-2.3271	-3.2313	-2.6104	-2.5896	-3.2438	-2.3937	-3.1	-3.0479	-2.6688	-3.1833	-2.8042	58.316	224.245	263.336	181.727	123.382	188.909	170.652	156.047	148.480	-22.502	247.762	3.032	96.655	-73.613	260.948	167.016	0.00032009	0.0025111	0.0003451	908.98	1.1545e-05	6.8463e-06	763.75	307.58	1.3118e-05	7.8252e-06	295.69	106.64	104.76	49.798	1.8143e-05	54.161	0.018883	0.023094	0.0063273	1274.7	0.00025067	0.00024675	1081.2	433.94	0.00024294	0.00024272	460.92	165.69	157.1	68.09	0.00024179	79.378	261.283	3.838	210.787	-68.714	57.535	-30.861	-69.563	-63.329	4.164	125.691	-65.044	-59.463	-57.493	-52.618	185.660	-55.563	-8191	255	
9951.483	1	1	0	0	0.22654	0.090657	0.30672	0.24968	0.043927	0.13313	0.13494	0.18202	0.2222	0.22786	0.24716	0.19373	0.19903	0.22717	0.16514	0.29779	-2.3375	-3.0396	-2.1646	-3.1271	-2.9437	-2.4667	-3.3833	-2.9042	-2.7812	-3.1479	-2.5146	-3.0833	-3.25	-2.4167	-3.0438	-2.725	39.242	213.692	44.824	200.731	229.086	42.909	164.989	157.735	73.358	22.854	231.266	275.431	229.194	-56.489	189.181	214.192	0.00029456	0.0019911	0.00032419	912.09	1.8071e-05	1.6954e-05	765.12	309.82	1.537e-05	9.244e-06	296.88	107.12	104.27	50.027	1.1892e-05	54.615	0.017485	0.021662	0.0062587	1267.1	0.00023891	0.00023857	1091.2	433.77	0.00023935	0.00024221	469.07	166.48	157.44	68.535	0.00025539	79.985	216.176	24.875	155.201	-68.736	71.098	44.352	-69.774	-63.090	-44.937	119.616	-65.012	-59.756	-57.683	-52.578	219.008	-55.773	-8191	255	
9951.603	1	1	0	0	0.16742	0.12537	0.21453	0.16939	0.15319	0.1177	0.24332	0.08983	0.16407	0.37308	0.31038	0.25274	0.09535	0.22462	0.25804	0.23326	-2.3458	-3.1771	-2.3729	-2.8125	-3.1312	-2.2292	-3.5354	-2.6833	-2.4396	-3.1729	-2.6167	-2.9813	-3.1937	-2.4938	-3.0938	-2.9271	-58.931	-11.740	117.795	195.320	273.786	18.552	216.709	204.232	38.791	-72.753	241.647	-67.923	264.185	-46.363	-68.134	214.426	9.8745e-05	0.0011424	0.00024389	911.48	1.7635e-05	7.3641e-06	773.09	308.39	1.1886e-05	9.4467e-06	297.7	106.63	104.71	49.648	4.2433e-06	54.499	0.017556	0.021912	0.0065447	1263.7	0.00023858	0.00023925	1102.5	431.41	0.00023536	0.00024305	472.41	165.09	157.09	68.49	0.00026147	79.281	139.526	29.384	222.606	-68.730	83.545	-71.642	-69.332	-63.202	111.970	76.954	-65.041	-59.561	-57.528	-52.840	-57.474	-55.828	-8191	255	
9951.700	1	1	0	0	0.11152	0.1697	0.087034	0.11374	0.094414	0.31854	0.20438	0.062434	0.22819	0.13475	0.41101	0.26348	0.12732	0.22862	0.13809	0.08007	-2.175	-3.3167	-2.5979	-2.9292	-3.3167	-2.3625	-3.3771	-2.9667	-2.4458	-3.0729	-2.5854	-2.7	-3.2479	-2.5896	-3.0271	-2.9167	180.622	-33.976	45.676	181.568	119.164	-61.841	228.757	149.688	136.340	-64.092	157.249	257.728	22.113	237.466	13.534	46.162	0.0003331	0.0015546	0.00043038	914.94	1.071e-05	2.3961e-05	770.33	310.08	7.0071e-06	9.3934e-06	298.52	106.88	104.62	49.877	2.9694e-06	54.353	0.017574	0.022701	0.0068435	1267.6	0.00024343	0.00025506	1122.3	436.14	0.00024744	0.000264	485.21	166.94	159.92	70.221	0.00028203	80.431	218.802	67.044	92.974	-68.792	158.979	205.654	-69.377	-63.054	88.038	218.180	-64.814	-59.467	-57.222	-52.588	26.147	-55.736	-8191	255	
9951.796	1	1	0	0	0.055227	0.19341	0.1909	0.012672	0.18237	0.13707	0.2203	0.25147	0.077062	0.16711	0.050168	0.091617	0.13887	0.051952	0.035559	0.12657	-1.9	-3.3521	-2.5208	-2.7042	-3.2167	-2.3833	-3.2354	-3.05	-2.4667	-3.0458	-2.9708	-2.4562	-3.3958	-2.3833	-2.9896	-3.0938	225.683	112.231	48.838	162.625	278.069	-16.630	168.204	216.755	243.977	55.451	-72.049	-66.267	153.481	189.761	-0.411	215.732	0.00023657	0.0028419	0.00073086	913.52	6.877e-06	2.2517e-05	769.54	310.21	8.3769e-06	1.1465e-05	299.19	106.35	104.27	49.94	2.0617e-05	54.282	0.018607	0.025073	0.0073071	1283.9	0.00025709	0.00027991	1134.9	440.05	0.0002558	0.00028559	490.2	167.84	160.98	71.241	0.00028379	80.69	240.772	85.822	-63.359	-68.510	107.826	220.072	-69.468	-62.515	276.625	276.457	-64.922	-59.371	-57.489	-52.729	0.913	-55.705	-8191	255	
9951.892	1	1	0	0	0.21023	0.097341	0.2531	0.10727	0.099585	0.11358	0.24841	0.24094	0.065325	0.13691	0.2412	0.069678	0.27699	0.071372	0.028144	0.24477	-2.0833	-3.0667	-2.8771	-2.6417	-3.2354	-2.5146	-3.0104	-3.1292	-2.3688	-3.1833	-3.0438	-2.5208	-3.2167	-2.4583	-2.6979	-3.1292	-25.130	184.479	219.361	-4.077	138.113	78.704	246.993	-56.611	-72.858	91.921	222.929	132.809	240.190	-63.890	-77.182	-55.107	0.0002721	0.0018391	0.00051409	913.98	1.5691e-05	1.4153e-05	769.24	309.81	9.1564e-06	2.0743e-05	299.38	106.37	104.6	49.702	1.9302e-05	53.925	0.019056	0.02656	0.0073431	1288.8	0.00026554	0.00029765	1138.4	443.35	0.00027001	0.00030622	496.26	171.04	165.74	73.045	0.00030414	82.249	237.285	131.233	5.669	-68.597	202.538	143.841	-69.501	-62.748	196.085	149.717	-64.740	-59.653	-57.373	-52.861	-32.388	-55.416	-8191	255	
9951.986	1	1	0	0	0.13659	0.20752	0.031314	0.28127	0.13548	0.18672	0.13531	0.082726	0.17476	0.11204	0.16655	0.30368	0.059729	0.069093	0.12246	0.2515	-1.9833	-3.1188	-3.0104	-2.5708	-3.3604	-2.4562	-2.8604	-3.2062	-2.4229	-3.075	-3.1521	-2.2896	-3.2771	-2.7313	-2.8375	-3.1354	74.983	165.371	152.225	204.706	125.426	134.567	160.249	249.301	-1.877	84.659	-75.104	8.415	271.419	38.279	-39.128	265.755	0.00047601	0.0018747	0.00043293	918.63	2.0851e-05	1.8159e-05	774.32	310.46	2.0257e-05	4.3059e-06	295.59	105.5	103.32	49.378	4.1607e-06	53.233	0.021531	0.030066	0.0081197	1329.6	0.00030734	0.00034046	1175.2	456.51	0.00031208	0.00034197	506.98	173.55	170.23	73.514	0.00031155	82.231	232.641	97.806	-14.847	-68.571	224.199	-8.221	-69.194	-62.972	192.150	79.965	-64.938	-59.760	-57.421	-52.705	112.432	-55.412	-8191	255	
9952.082	1	1	0	0	0.098734	0.19411	0.28251	0.0788	0.12032	0.25417	0.22528	0.079065	0.046539	0.075923	0.10888	0.23001	0.3009	0.11869	0.20521	0.23677	-2.1375	-3.025	-2.9813	-2.625	-3.2458	-2.6521	-2.6146	-3.3667	-2.6167	-2.8167	-3.2438	-2.4333	-3.325	-2.8229	-2.7958	-3.3333	139.207	179.540	116.068	264.866	23.562	236.291	206.657	252.665	-37.071	273.155	261.091	130.239	266.771	274.723	-74.158	245.329	0.0003343	0.00087446	6.0659e-05	919.39	2.029e-05	1.1919e-05	767.8	310.02	1.4051e-05	1.0353e-05	294.66	104.67	103.38	49.244	1.4834e-05	53.324	0.022912	0.030477	0.0081355	1331.6	0.00032447	0.00034299	1174.2	458.76	0.00033337	0.00035064	514.4	176.75	175.47	74.212	0.00032401	83.839	227.018	275.850	178.395	-68.351	213.523	-21.351	-68.948	-62.699	-66.839	114.015	-64.947	-59.085	-57.054	-52.854	78.945	-55.425	-8191	255	
9952.203	1	1	0	0	0.082284	0.10113	0.0071674	0.028869	0.22855	0.19041	0.062227	0.17453	0.1393	0.24315	0.026335	0.25041	0.15206	0.20553	0.20848	0.41054	-1.9625	-3.0042	-3.1792	-2.6667	-3.0375	-2.7729	-2.5625	-3.3583	-2.6271	-2.7333	-3.2083	-2.4479	-3.2021	-3.0979	-2.1729	-3.2313	168.424	-1.355	-67.048	-43.505	111.474	116.118	214.185	240.981	259.199	33.674	79.567	274.300	196.996	150.030	232.025	252.116	0.00049446	0.00032513	0.00049436	914.47	1.4558e-05	3.6924e-05	766.56	307.32	1.7708e-06	7.3802e-06	293.42	104.31	104.03	48.859	3.8051e-06	52.656	0.024905	0.031428	0.0083922	1349	0.00034306	0.00034668	1176.1	462.33	0.00034333	0.00034107	506.91	176.16	173.99	72.703	0.00030555	82.67	217.112	183.876	-5.081	-68.476	136.539	28.536	-69.280	-62.991	258.719	78.751	-64.750	-59.341	-57.370	-52.808	-46.359	-55.510	-8191	255	
9952.299	1	1	0	0	0.067007	0.16575	0.10159	0.24607	0.11884	0.18007	0.070726	0.01057	0.16962	0.045497	0.177	0.067175	0.17753	0.18284	0.037428	0.26114	-2.1458	-2.6188	-3.2	-2.4813	-3.0875	-2.9604	-2.7188	-3.2875	-2.4938	-2.6417	-3.2479	-2.2792	-3.1333	-3.1167	-2.3417	-3.3604	196.057	172.362	31.217	-40.415	17.851	68.743	249.527	194.133	4.306	100.528	152.665	80.738	-71.143	214.670	235.289	-67.837	6.9377e-05	0.0007601	0.00013024	906.51	2.1989e-05	1.962e-05	763.68	307.78	2.4448e-05	2.0637e-05	294.24	103.89	103.95	48.892	2.41e-05	53.028	0.023626	0.028652	0.0077604	1328.5	0.00032096	0.00031664	1146	456.58	0.00032398	0.00031876	499.19	176.82	172.79	72.313	0.00030362	84.068	194.698	6.402	-31.517	-68.548	55.212	72.182	-69.431	-62.522	47.213	150.935	-64.593	-59.256	-57.161	-52.390	-62.345	-55.329	-8191	255	
9952.395	1	1	0	0	0.14391	0.48917	0.20331	0.094682	0.15885	0.04887	0.099889	0.14325	0.18351	0.080758	0.029672	0.19557	0.18726	0.23797	0.21862	0.20092	-2.425	-2.4708	-3.2021	-2.4083	-3.0062	-3.05	-2.3917	-3.2583	-2.6917	-2.6667	-3.175	-2.4458	-3.0187	-3.3396	-2.4542	-3.2292	11.191	-39.193	206.081	64.800	258.136	207.894	91.049	207.073	250.894	-14.410	180.702	231.197	229.142	218.656	-67.288	213.771	0.00025485	0.0013175	0.00066067	909.39	1.0819e-05	2.4955e-05	760.49	305.59	1.313e-05	1.4383e-05	292.73	104.81	103.34	48.599	7.2513e-06	52.98	0.023683	0.028699	0.0078219	1348.9	0.0003182	0.0003139	1141.6	458.56	0.00031163	0.00030582	492.76	175.57	168.29	70.867	0.00029288	83.141	200.289	50.209	8.039	-68.087	101.749	73.518	-69.160	-62.590	102.233	122.594	-64.572	-59.067	-57.170	-52.453	207.962	-55.246	-8191	255	
9952.467	1	1	0	0	0.19714	0.2357	0.05237	0.14808	0.025362	0.22514	0.18894	0.14719	0.079566	0.20892	0.23557	0.32176	0.1694	0.37912	0.042114	0.35403	-2.5187	-2.4646	-3.3375	-2.4417	-2.8271	-3.1708	-2.4729	-3.2292	-3.0479	-2.3688	-3.3688	-2.7562	-2.7875	-3.0729	-2.4146	-3.0646	-45.800	98.320	186.853	-30.069	-34.929	106.960	231.217	223.834	187.772	113.648	262.206	213.660	221.871	246.990	186.919	195.693	0.00020087	0.00051869	0.00042249	912.62	1.655e-05	2.5935e-05	759.16	306.63	2.431e-05	1.1363e-05	291.31	103.48	102.59	48.602	1.1798e-05	52.764	0.021989	0.02695	0.0076105	1335.3	0.00029733	0.00029698	1132.7	455.1	0.00029399	0.00029171	489.42	173.92	164.95	70.016	0.00029185	82.148	271.332	15.726	198.332	-68.213	71.813	59.426	-69.264	-63.081	21.306	266.815	-65.416	-59.846	-57.494	-53.196	-80.220	-55.643	-8191	255	
9952.588	1	1	0	0	0.20719	0.20609	0.2762	0.12125	0.35689	0.099078	0.19921	0.29129	0.13572	0.087894	0.29489	0.14917	0.17007	0.18286	0.2975	0.25655	-2.6562	-2.325	-3.0187	-2.5146	-2.5667	-3.2188	-2.3875	-3.1271	-3.0208	-2.3083	-3.3563	-2.7438	-2.5458	-3.2396	-2.5646	-2.925	272.070	-46.186	243.537	176.444	98.442	102.139	234.671	234.882	-50.015	207.463	251.870	61.409	-24.486	-1.828	77.057	219.556	0.00010479	0.0013974	0.00048385	907.15	3.6282e-06	2.1833e-05	757.46	305.58	2.7011e-06	1.7078e-05	290.6	103.94	102.56	48.53	2.0381e-05	52.72	0.020967	0.025659	0.0075809	1317.8	0.00028204	0.00028554	1133.9	449.34	0.00028341	0.00028225	492.65	172.1	162.7	69.649	0.00030027	81.861	197.042	52.420	137.883	-69.010	98.832	32.684	-69.739	-63.234	-76.870	82.111	-65.458	-59.954	-57.748	-53.102	217.255	-55.981	-8191	255	
9952.684	1	1	0	0	0.14768	0.13081	0.15107	0.12614	0.089482	0.11026	0.090556	0.14961	0.20428	0.26732	0.201	0.21294	0.05836	0.12229	0.36403	0.14142	-2.8354	-2.2938	-3.2938	-2.6542	-2.4896	-3.1188	-2.4833	-3.1	-2.9729	-2.375	-3.0292	-2.8792	-2.4188	-3.4417	-2.5729	-2.9146	12.743	92.425	266.383	184.994	255.079	111.069	-51.517	0.717	71.319	164.914	214.424	229.113	241.826	267.105	123.018	237.504	7.2729e-05	0.0010522	0.00036572	907.6	1.2461e-05	1.2638e-05	760.43	306.17	1.7319e-05	9.6551e-06	292.06	104.5	102.72	48.474	1.186e-05	53.109	0.020693	0.025625	0.0078281	1312.1	0.00027663	0.00028416	1142.2	444.95	0.00027455	0.00027918	494.29	170.08	160.68	69.5	0.00029361	80.187	215.885	131.306	42.778	-69.150	61.937	168.006	-69.639	-62.934	51.044	108.818	-64.912	-59.718	-57.326	-52.599	245.607	-55.437	-8191	255	
9952.780	1	1	0	0	0.024782	0.13332	0.15938	0.21537	0.094194	0.07737	0.13428	0.21236	0.061382	0.23265	0.23907	0.07674	0.1425	0.25551	0.15652	0.27188	-2.8708	-2.125	-3.1396	-2.8521	-2.3833	-3.35	-2.7812	-2.7958	-3.0896	-2.2604	-3.2313	-2.9729	-2.6271	-3.3354	-2.7	-2.7479	6.294	232.619	-49.481	196.115	171.501	-53.187	-47.629	48.921	-41.809	245.558	259.549	33.597	237.652	34.366	-6.067	-55.225	9.3642e-05	0.0011426	0.00036946	907.03	8.9604e-06	1.5542e-05	759.84	307.4	7.4135e-06	1.9544e-05	291.88	104.89	102.94	49.085	1.5092e-05	53.654	0.019361	0.024571	0.0073775	1272.2	0.00024739	0.00026355	1108.8	428.98	0.00024048	0.00025231	470.27	161.2	153.55	67.964	0.00025376	77.056	237.579	103.937	-66.256	-69.030	169.497	186.598	-69.282	-62.581	26.389	243.838	-64.273	-59.201	-57.416	-52.706	63.081	-55.801	-8191	255	
9952.876	1	1	0	0	0.18455	0.16113	0.06	0.052477	0.079965	0.082171	0.22485	0.12149	0.15313	0.19581	0.29035	0.096666	0.10552	0.20483	0.056538	0.1699	-2.9229	-2.4375	-2.9625	-2.9042	-2.3688	-3.2667	-2.6063	-2.7417	-3.1979	-2.3542	-3.0167	-3.0833	-2.4375	-3.2958	-2.6458	-2.6	264.261	-15.546	113.906	-79.053	9.187	51.622	102.460	160.380	23.387	187.624	-36.016	-73.577	-12.007	266.325	-67.184	230.073	0.00028015	0.00098577	0.0006893	902.44	1.0702e-05	1.8361e-05	763	305.66	8.6738e-06	8.5477e-06	294.52	105.57	103.78	49.394	1.8408e-05	53.826	0.016678	0.022396	0.0064852	1234.8	0.00022222	0.00024773	1080.7	419.03	0.00022039	0.0002408	457.22	158.02	151.2	67.847	0.00023355	75.987	248.587	125.603	0.321	-68.496	117.005	158.348	-69.604	-62.879	182.046	169.937	-64.844	-59.731	-57.445	-52.564	48.473	-55.719	-8191	255	
9952.995	1	1	0	0	0.1748	0.14266	0.16043	0.042873	0.11949	0.10974	0.26355	0.44651	0.23137	0.18912	0.16378	0.26886	0.082512	0.2546	0.12402	0.27856	-2.9437	-2.5563	-2.8521	-3.2833	-2.2271	-3.2687	-2.8854	-2.4062	-3.1396	-2.675	-3.0062	-3.2417	-2.4562	-3.2667	-2.8958	-2.7042	180.815	255.650	43.852	73.498	59.066	275.982	164.450	256.592	245.743	-41.549	-20.808	259.157	-46.767	226.806	18.659	271.091	0.00019251	0.00056123	0.00064445	908.7	5.5435e-06	5.886e-06	767.84	308.03	8.7096e-06	1.0392e-05	296.04	106.43	103.9	49.749	1.3015e-05	54.397	0.015819	0.021674	0.0059516	1218.1	0.00021112	0.00023961	1063.4	414.98	0.00021234	0.00023556	450.15	156.83	151.11	67.888	0.00022188	75.661	188.819	-34.590	-0.835	-68.740	203.898	169.216	-69.648	-63.177	133.627	131.220	-65.132	-59.500	-57.119	-52.608	17.410	-55.411	-8191	255	
9953.067	1	1	0	0	0.089365	0.12032	0.083043	0.069812	0.1248	0.13248	0.11723	0.13079	0.125	0.33056	0.16224	0.10424	0.47402	0.065192	0.19139	0.13116	-2.7083	-2.4521	-2.5667	-3.475	-2.3125	-3.15	-3.0729	-2.5708	-3.1146	-2.5104	-2.5438	-3.3187	-2.3979	-3.1667	-2.9479	-2.6542	198.691	89.454	-1.712	-49.879	65.681	208.691	186.262	188.015	-79.312	77.831	-33.757	11.725	181.158	194.418	50.540	169.392	0.0003653	0.00068837	0.00045064	908.64	1.1374e-05	1.4543e-05	769.09	309.12	4.8398e-06	6.4424e-06	298.45	107.28	104.04	49.607	1.4445e-05	54.849	0.015724	0.021323	0.0056653	1208	0.00021233	0.00023362	1056.4	411.91	0.00021432	0.00022828	443.86	155.15	150.41	66.937	0.00020762	74.87	220.586	181.264	-47.619	-68.655	230.482	10.968	-69.265	-62.645	267.512	171.428	-64.782	-59.154	-57.290	-52.711	272.785	-55.417	-8191	255	
9953.165	1	1	0	0	0.20469	0.061974	0.025073	0.17679	0.1891	0.24567	0.16277	0.13418	0.021069	0.1675	0.064985	0.30295	0.29015	0.14763	0.20579	0.09879	-2.9521	-2.3167	-2.5187	-3.2896	-2.3937	-2.9458	-3.0187	-2.4813	-3.2979	-2.7917	-2.5271	-3.4333	-2.5729	-2.9458	-3.0125	-2.6292	-49.147	34.326	-26.321	-65.023	108.514	-47.020	259.571	241.245	-46.656	142.226	69.368	211.062	-64.971	237.013	227.724	106.713	0.00033007	0.0018251	0.00015667	908.62	2.3329e-05	1.93e-05	767.67	307.6	1.3463e-05	7.6412e-06	299.26	106.79	104.11	49.934	3.3657e-06	54.664	0.015271	0.019719	0.005193	1190.2	0.00020491	0.00021366	1035.9	406.38	0.00020503	0.00021091	436.26	153.37	150.32	66.425	0.00019881	74.668	226.507	8.536	-21.083	-68.545	202.039	9.541	-69.721	-62.960	236.995	78.391	-64.407	-59.529	-57.244	-52.615	241.065	-55.603	-8191	255	
9953.283	1	1	0	0	0.12657	0.14274	0.14323	0.18051	0.12039	0.1399	0.25714	0.05391	0.061022	0.11588	0.12093	0.19552	0.15035	0.067148	0.18652	0.18246	-2.75	-2.675	-2.4062	-3.2812	-2.4875	-2.7979	-3.2646	-2.4625	-3.0979	-3.0021	-2.4188	-3.3167	-2.6271	-3.0167	-3.1875	-2.5187	224.276	235.746	182.683	264.536	-77.605	69.344	185.250	138.845	201.317	132.908	153.540	-27.427	114.320	228.426	-60.962	182.926	0.00026814	0.00061642	0.00020659	908.45	3.6233e-06	2.242e-05	768.94	310.43	8.7164e-06	1.1555e-05	298.77	107.06	104.81	50.043	1.9323e-05	54.832	0.015333	0.019077	0.005117	1195.1	0.00021107	0.00021149	1038.6	411.34	0.00021296	0.00021168	439.14	156.09	153.11	66.8	0.00020329	75.916	193.136	-18.596	-14.893	-68.610	63.942	5.844	-69.249	-62.807	123.927	3.996	-64.699	-59.662	-57.574	-52.937	68.805	-55.707	-8191	255	
9953.380	1	1	0	0	0.23091	0.13505	0.12552	0.15069	0.12463	0.32398	0.23646	0.13156	0.19297	0.039596	0.014894	0.45888	0.18591	0.11991	0.06871	0.15015	-2.6896	-2.9979	-2.3521	-3.375	-2.7313	-2.775	-3.4021	-2.5	-2.9854	-3.0104	-2.5146	-3.3042	-2.7167	-2.4583	-3.2229	-2.5396	212.861	92.556	136.148	-52.172	261.307	274.270	144.816	190.187	77.683	247.347	164.979	-71.633	211.734	-57.556	144.692	260.361	0.00025121	0.0015997	0.00050791	913.1	1.0633e-05	1.0601e-05	773.4	312.01	1.5457e-05	1.3852e-05	299.94	107.5	104.95	50.296	7.7446e-06	55.288	0.015952	0.019533	0.0052986	1218	0.00022128	0.00021751	1050.6	421.14	0.00022435	0.00022182	445.72	160.85	155.65	67.668	0.00021389	77.812	254.981	-5.051	-13.884	-68.413	103.888	-13.815	-69.625	-62.891	56.505	-55.054	-64.951	-59.385	-57.726	-52.422	12.576	-55.654	-8191	255	
9953.476	1	1	0	0	0.11286	0.02173	0.12653	0.1989	0.09461	0.21064	0.095017	0.084343	0.1248	0.065981	0.26849	0.23291	0.32685	0.22451	0.25575	0.12882	-2.5729	-2.9688	-2.2354	-3.2604	-2.7729	-2.4167	-3.4021	-2.475	-2.7938	-3.0333	-2.2667	-3.2667	-2.7229	-2.4313	-3.3333	-2.3417	41.380	260.850	6.201	252.514	-0.671	-48.065	266.869	-10.555	222.651	206.136	186.022	-78.463	256.324	217.703	121.186	132.022	0.00015513	0.0018195	0.00028172	914.73	8.9197e-06	1.6306e-05	773.81	312.38	2.604e-06	2.7905e-06	298.44	107.57	105.64	50.298	9.4006e-06	55.208	0.016253	0.01985	0.0054265	1239.3	0.00022317	0.00022024	1058.1	425.83	0.00022282	0.00022134	449.63	162.28	155.01	67.427	0.00021711	78.355	223.136	-28.240	58.602	-68.770	78.875	-2.185	-69.541	-62.982	53.392	184.287	-64.743	-59.462	-57.751	-52.445	226.321	-55.475	-8191	255	
9953.596	1	1	0	0	0.18943	0.10063	0.11776	0.2562	0.18429	0.157	0.19406	0.12458	0.086708	0.18083	0.22772	0.09503	0.10233	0.18349	0.025413	0.046273	-2.5354	-2.9729	-2.225	-3.1625	-2.8771	-2.3167	-3.3917	-2.6958	-2.6729	-3.3417	-2.4479	-3.2438	-3.05	-2.6104	-3.3458	-2.8354	105.292	95.606	-62.708	234.302	232.796	240.565	187.545	176.890	93.462	207.706	12.356	258.908	-37.873	243.125	225.516	-3.338	0.0001386	0.00066427	0.00044789	918.28	5.5979e-06	6.7858e-06	774.92	311.32	1.4158e-05	8.1192e-06	298.63	107.2	104.98	50.095	2.9668e-05	54.647	0.016272	0.020058	0.0056292	1246.5	0.00021988	0.00021863	1062.5	426.55	0.00021773	0.00021795	451.32	161.52	153.22	66.903	0.00022335	77.736	-59.042	38.088	194.083	-68.388	108.307	148.136	-69.262	-62.610	108.328	68.992	-64.809	-59.410	-57.605	-52.638	271.939	-55.452	-8191	255	
9953.693	1	1	0	0	0.25422	0.007952	0.11901	0.24031	0.20584	0.15466	0.067737	0.11244	0.11588	0.46858	0.11634	0.12438	0.21429	0.41776	0.045483	0.077542	-2.1771	-3.2646	-2.2917	-3.1458	-3.1521	-2.2229	-3.4479	-2.6583	-2.6	-3.2729	-2.5875	-3.1229	-2.8896	-2.4646	-3.2938	-2.8625	141.944	166.642	198.158	235.013	193.241	99.300	111.258	213.397	-75.367	69.154	252.567	178.039	186.502	167.094	259.487	98.133	9.532e-05	0.00065098	0.00022475	917.47	2.4299e-05	1.3911e-05	770.03	311.01	7.2788e-06	1.1353e-05	298.4	107.6	105.33	49.869	1.1594e-06	54.781	0.015864	0.019693	0.0058266	1241.5	0.00021672	0.00021582	1071	424.92	0.00021501	0.00021586	454.51	160.21	152.12	66.714	0.00022766	77.216	-73.377	-43.690	-6.539	-68.253	100.670	-11.704	-69.156	-62.913	118.456	-66.699	-65.108	-59.896	-57.979	-53.089	-42.425	-56.128	-8191	255	
9953.764	1	1	0	0	0.14484	0.10656	0.045264	0.12804	0.22356	0.10936	0.12479	0.20189	0.32563	0.090719	0.17126	0.15369	0.10862	0.21557	0.32065	0.20024	-2.2458	-3.1896	-2.2646	-3.0521	-3.1479	-2.5646	-3.2646	-2.9542	-2.4479	-3.3083	-2.6625	-2.9313	-3.2792	-2.4583	-3.1646	-2.9375	209.894	46.402	-81.091	274.689	-33.080	277.277	125.079	153.232	205.664	276.664	39.870	49.289	-45.807	202.052	-79.466	166.353	0.00013448	0.0016202	0.00020527	916.88	2.6313e-06	5.6164e-06	772.66	311.62	4.6298e-06	3.766e-06	297.18	106.71	104.68	49.679	5.3601e-06	54.339	0.015402	0.019443	0.0058874	1234.5	0.00021156	0.00021683	1077.1	422.51	0.00021032	0.00021867	457.73	159.19	151.73	66.832	0.0002319	76.703	267.052	81.521	-38.603	-69.320	121.488	20.271	-69.626	-63.353	70.094	238.679	-65.269	-59.900	-58.045	-53.309	-51.055	-56.136	-8191	255	
9953.885	1	1	0	0	0.14278	0.072911	0.14483	0.22453	0.073311	0.0781	0.16927	0.27395	0.29015	0.12288	0.26236	0.16458	0.20264	0.22122	0.21543	0.37803	-2.0833	-3.1958	-2.4625	-2.9417	-3.1583	-2.4688	-3.1188	-3.1417	-2.3417	-3.3021	-2.5021	-2.6271	-3.4562	-2.4729	-2.9979	-3.0896	212.157	-3.359	2.584	55.736	-31.355	-80.571	137.265	-71.451	-36.551	-1.232	190.879	-66.071	245.814	240.857	0.503	249.523	0.00017347	0.0011413	0.0002954	920.17	5.4197e-06	1.2352e-05	773.4	311.44	7.7725e-06	1.5464e-05	299.29	107.1	105.17	49.86	9.2791e-06	54.892	0.01533	0.020118	0.0060576	1229.9	0.00021129	0.00022662	1084.7	423.37	0.00021259	0.00023164	463.08	159.77	152.8	68.029	0.0002397	77.236	248.046	85.928	264.116	-69.082	97.969	-78.590	-69.825	-63.292	132.609	244.815	-65.534	-60.016	-58.177	-53.354	54.358	-56.122	-8191	255	
9953.979	1	1	0	0	0.1324	0.20276	0.20924	0.41036	0.15855	0.16385	0.032253	0.11847	0.36446	0.10491	0.22071	0.19361	0.075381	0.061735	0.20512	0.22626	-1.9229	-3.2208	-2.4833	-2.625	-3.2604	-2.3729	-3.1354	-3.0833	-2.45	-3.0521	-2.6521	-2.5979	-3.4479	-2.3292	-2.8104	-3.1083	-14.730	1.030	209.766	257.761	32.904	-41.276	167.505	-62.316	22.168	55.105	156.722	212.090	4.337	108.286	52.059	199.518	0.00020437	0.0015154	0.00034436	918.68	5.0961e-06	1.2969e-05	777.81	313.03	8.0921e-06	7.8446e-06	301.11	107.12	105.66	50.459	5.0578e-06	54.63	0.015813	0.021669	0.0062391	1242.4	0.00021892	0.00024402	1090.6	426.94	0.00021957	0.00024758	466.13	160.73	154.91	69.464	0.00024229	77.723	223.497	110.525	-35.073	-68.957	26.768	264.635	-69.598	-63.348	29.511	94.249	-65.406	-59.791	-57.931	-53.100	246.619	-56.209	-8191	255	
9954.075	1	1	0	0	0.25484	0.37058	0.11027	0.11373	0.20852	0.27986	0.080723	0.13365	0.09378	0.23806	0.070898	0.31449	0.13473	0.3048	0.11504	0.14679	-2.2	-3.3375	-2.6625	-2.4917	-3.4917	-2.2542	-2.8667	-3.2479	-2.4896	-3.1292	-2.9521	-2.3458	-3.3604	-2.6688	-2.675	-3.2562	216.831	90.142	-10.107	250.722	128.771	97.209	130.472	130.589	184.072	-5.721	-37.946	235.376	-76.111	246.907	255.140	223.766	0.00036429	0.00072899	0.00043068	919.33	1.6093e-06	1.0862e-05	775.05	312.1	6.2322e-06	1.0843e-05	299.32	107.75	105.65	50.191	9.1057e-06	54.61	0.016391	0.022873	0.0062163	1243.7	0.00022541	0.0002537	1085.4	426.47	0.00022619	0.00025346	462.69	161.02	156.42	69.555	0.00023789	77.446	207.874	-60.328	13.259	-69.093	142.312	252.696	-69.863	-63.406	-67.145	-55.604	-65.396	-59.951	-57.871	-53.322	75.890	-56.219	-8191	255	
9954.172	1	1	0	0	0.35704	0.12086	0.14333	0.20426	0.23099	0.19429	0.15928	0.28425	0.068631	0.17282	0.26904	0.17086	0.042928	0.10401	0.1737	0.085912	-1.8292	-2.975	-2.8021	-2.5292	-3.2562	-2.625	-2.6917	-3.2979	-2.4375	-3.1625	-3.125	-2.3458	-3.4021	-2.7396	-2.5042	-3.3646	99.126	262.406	-58.143	10.851	27.682	-22.168	186.887	247.816	241.504	187.043	167.021	237.614	95.680	241.121	134.167	226.738	0.00038098	0.00056393	0.00029375	917.67	1.0799e-05	1.057e-05	771.77	312.09	1.7359e-05	2.3137e-05	298.8	107.31	104.52	49.732	4.3391e-06	54.427	0.017057	0.023271	0.0061913	1241.1	0.00023622	0.00025653	1080.7	424.37	0.00023448	0.0002502	456.42	158.49	155.11	68.161	0.00021971	75.631	234.402	42.163	0.051	-68.970	230.782	62.385	-69.797	-63.458	237.012	100.519	-65.565	-60.050	-57.822	-53.408	-22.239	-55.993	-8191	255	
9954.292	1	1	0	0	0.11322	0.12087	0.12573	0.076671	0.21321	0.17751	0.20688	0.36502	0.1724	0.15197	0.13963	0.064566	0.11822	0.30144	0.20005	0.27758	-1.9458	-3.0062	-2.9458	-2.6	-3.4208	-2.5104	-2.6625	-3.1833	-2.5187	-2.7729	-3.0167	-2.4917	-3.1146	-2.8063	-2.4396	-3.4083	135.990	216.345	-49.102	-73.688	221.273	174.153	173.048	272.424	-42.643	271.530	221.701	153.855	243.318	-78.368	43.978	157.903	0.00035372	0.0011853	0.00030637	905.35	1.5486e-05	2.1655e-05	767.12	305.44	4.0817e-06	2.4882e-05	292.58	103.73	101.6	47.952	7.3499e-06	52.264	0.01615	0.020689	0.0054821	1195.1	0.0002151	0.0002199	1036.8	407.2	0.00021112	0.0002148	432.92	150.82	148.2	64.289	0.00019486	71.999	224.509	8.464	48.349	-69.617	185.344	71.652	-70.072	-63.763	130.421	57.765	-65.790	-60.089	-58.449	-53.399	99.639	-56.576	-8191	255	
9954.364	1	1	0	0	0.081404	0.27469	0.21791	0.22504	0.13196	0.11702	0.10353	0.29753	0.2123	0.17779	0.15241	0.18493	0.31129	0.22023	0.24468	0.31102	-1.9979	-2.8396	-3.1417	-2.3479	-3.1375	-2.7521	-2.4771	-3.3771	-2.3312	-2.9646	-3.1833	-2.4313	-3.2229	-2.8688	-2.5833	-3.1708	226.436	205.525	242.699	184.920	77.507	-17.589	270.829	163.995	-48.419	2.330	84.353	271.583	-11.870	246.732	95.908	270.773	0.00032421	0.0010942	0.00052913	899.3	1.1096e-05	1.6599e-05	759.55	302.8	3.8725e-06	8.5004e-06	291.63	102.15	100.77	47.255	9.5415e-06	51.931	0.014801	0.018075	0.0048284	1171.7	0.0001956	0.00019398	1008.5	397.79	0.00019492	0.00019376	421.64	148.35	145.71	63.015	0.00018935	72.063	223.909	-16.006	6.884	-69.640	122.637	30.860	-70.167	-64.015	67.189	94.006	-65.605	-60.060	-58.508	-53.376	19.450	-56.265	-8191	255	
9954.460	1	1	0	0	0.017786	0.089282	0.16423	0.199	0.13129	0.13504	0.16259	0.044504	0.22138	0.16071	0.12616	0.033084	0.18609	0.07257	0.078941	0.20166	-2.1125	-2.5979	-3.0792	-2.5438	-3.0563	-3.0583	-2.5958	-3.2854	-2.6021	-2.3604	-3.3187	-2.275	-3.1667	-3.1896	-2.3521	-3.4083	-21.054	-24.166	117.487	-59.817	207.760	162.522	200.822	-50.116	208.378	113.346	244.843	-2.184	229.198	184.632	249.210	186.932	0.00013078	0.00029154	0.00020392	906.78	7.3108e-06	8.0206e-06	764.53	305.7	1.236e-05	8.7928e-06	292.92	104.11	102.12	48.1	4.0861e-06	52.42	0.015076	0.018476	0.0050413	1201	0.00020989	0.00020693	1030	411.05	0.00021227	0.00020924	433.76	154.83	149.68	64.571	0.0002036	74.552	173.325	144.037	-40.051	-69.514	119.775	4.707	-70.515	-63.843	198.958	48.629	-65.795	-60.155	-58.278	-53.709	239.400	-56.318	-8191	255	
9954.556	1	1	0	0	0.1576	0.075736	0.14321	0.54215	0.19722	0.062668	0.080737	0.29509	0.19482	0.074162	0.039144	0.20517	0.24255	0.24498	0.15036	0.40717	-2.1437	-2.4646	-3.425	-2.5563	-2.8167	-3.1063	-2.4521	-3.4188	-2.7354	-2.3875	-3.4396	-2.3521	-2.9583	-3.2375	-2.1854	-3.2542	224.332	-14.074	-59.935	271.496	245.290	-43.108	214.814	182.947	-47.617	-72.358	128.806	238.730	-45.746	252.957	204.569	203.797	0.00011215	0.0018434	0.00042329	909.5	1.0256e-05	1.9518e-05	766.75	306.46	9.8859e-06	1.0494e-05	292.66	104.66	102.18	48.029	8.6675e-06	52.496	0.015888	0.0195	0.0054273	1229.8	0.00022308	0.00022253	1053.1	422.45	0.00022829	0.00022672	447.52	159.94	152.14	65.394	0.00022152	76.23	240.353	6.658	10.454	-69.669	46.652	90.024	-70.173	-63.768	54.904	155.496	-66.003	-60.480	-58.392	-53.384	241.912	-56.317	-8191	255	
9954.677	1	1	0	0	0.12631	0.017929	0.22681	0.12806	0.28426	0.13275	0.22788	0.18966	0.070511	0.10669	0.22384	0.15135	0.21697	0.15183	0.017364	0.27686	-2.6146	-2.0917	-3.2708	-2.6271	-2.6958	-3.2458	-2.4458	-3.1583	-2.8729	-2.5604	-3.3667	-2.5604	-2.7854	-3.2896	-2.3354	-3.0312	-58.410	231.683	-70.128	-23.006	183.294	64.734	277.241	194.478	131.463	105.542	113.566	144.867	-75.339	-27.502	238.433	268.999	7.547e-05	0.00059063	0.00037214	907.07	2.2799e-05	1.6789e-05	765.99	303.95	7.772e-06	1.0138e-05	290.1	103.48	101.28	47.284	2.6441e-05	51.621	0.0165	0.020201	0.0057584	1239.1	0.00022129	0.00022175	1059.8	420.63	0.00022167	0.00022069	447.54	158.65	150.33	64.433	0.00023126	75.039	105.967	85.531	166.271	-69.730	68.272	13.332	-70.480	-63.816	35.336	36.421	-65.681	-60.466	-58.362	-53.368	229.677	-56.291	-8191	255	
9954.773	1	1	0	0	0.28656	0.10876	0.07267	0.32212	0.21782	0.094186	0.13406	0.068169	0.050733	0.19725	0.21214	0.095938	0.15296	0.18451	0.17826	0.10168	-2.5375	-2.4146	-3.2708	-2.7729	-2.6396	-3.3937	-2.4	-3.1229	-2.9479	-2.2938	-3.25	-2.6229	-2.4813	-3.2208	-2.3021	-3.1063	156.041	224.744	27.214	231.436	67.207	45.562	197.426	217.781	186.099	178.374	-42.617	222.357	205.197	168.003	63.421	7.293	0.00011324	0.00075818	0.00022339	901.43	1.4366e-05	1.0139e-05	759.31	302.76	2.3288e-06	1.092e-05	289.46	101.98	100.71	46.647	1.6093e-05	50.73	0.016407	0.020336	0.0060786	1238.4	0.00022348	0.00022575	1070	419.22	0.00022406	0.00022578	453.99	156.99	149.59	64.155	0.00024194	74.059	274.693	40.288	112.119	-69.592	83.272	241.174	-70.248	-63.850	-42.011	121.762	-66.002	-60.528	-58.685	-53.381	208.516	-56.011	-8191	255	
9954.869	1	1	0	0	0.3696	0.25095	0.29682	0.23138	0.14694	0.17044	0.33033	0.31049	0.090882	0.11702	0.057984	0.14449	0.050401	0.31724	0.065052	0.28502	-2.7292	-2.2208	-3.1312	-2.8375	-2.2604	-3.2208	-2.5625	-2.9479	-3.2375	-2.4229	-3.2229	-2.9396	-2.3979	-3.3125	-2.2812	-2.7646	97.980	234.926	-63.641	151.817	176.616	259.538	156.606	-37.673	-7.303	275.720	182.355	196.829	140.956	-69.389	237.516	12.150	0.00026775	0.00067392	0.00037745	905.74	8.4997e-06	2.2359e-05	760.96	305.3	3.1743e-06	1.1672e-05	290.29	102.43	101.31	47.466	1.3673e-05	51.29	0.01653	0.020927	0.0063786	1240.7	0.00022785	0.00023667	1089.3	422.62	0.00023141	0.00024192	465.23	159.72	152.82	66.202	0.00026484	75.782	240.652	95.706	128.032	-69.499	106.167	206.951	-70.337	-63.725	228.967	197.410	-65.545	-60.223	-58.384	-53.601	66.855	-56.157	-8191	255	
9954.965	1	1	0	0	0.096466	0.15481	0.2243	0.072718	0.13069	0.045551	0.18691	0.32423	0.16703	0.10795	0.3255	0.11884	0.067472	0.18779	0.19823	0.29757	-2.7438	-2.4813	-3.1542	-2.8438	-2.45	-3.2021	-2.6063	-2.7958	-3.2542	-2.3625	-3.1292	-2.8583	-2.6188	-3.3396	-2.6729	-2.6146	-27.823	83.572	261.027	87.577	71.960	46.305	165.329	224.020	235.482	-76.742	276.582	-51.061	251.154	214.794	-30.477	224.330	0.00030682	0.0017469	0.00050218	913.11	1.4242e-05	2.098e-05	767.4	307.65	2.2829e-05	2.5702e-05	293.35	104.05	103.29	47.97	1.1526e-05	52.015	0.01762	0.023339	0.0069696	1267.2	0.00024581	0.00027038	1132	438.21	0.00026364	0.0002917	495.96	169.77	163.24	71.098	0.00032151	81.232	258.228	93.893	36.160	-69.485	35.566	209.495	-70.081	-63.570	35.224	207.199	-65.743	-60.299	-58.430	-53.403	93.512	-56.295	-8191	255	
9955.060	1	1	0	0	0.051319	0.063628	0.076331	0.098244	0.20185	0.1729	0.20307	0.22692	0.20322	0.087341	0.25352	0.11707	0.14686	0.14466	0.11088	0.16459	-2.8917	-2.2958	-2.9646	-3.1979	-2.3771	-3.2333	-2.675	-2.6771	-3.3875	-2.6417	-3.0333	-3.3396	-2.5625	-3.2083	-2.7125	-2.65	153.053	243.487	244.419	-58.700	-48.411	162.255	198.365	244.810	28.290	175.268	216.832	169.778	-30.520	216.557	199.861	-52.103	0.00027593	0.00393	0.00078498	921.84	8.2968e-06	1.1309e-05	773.86	310.32	1.0418e-05	8.0425e-06	292.96	103.91	103.17	47.58	1.7731e-05	51.344	0.021709	0.030099	0.0085376	1347.4	0.00030502	0.00034827	1210.7	467.22	0.00033093	0.0003812	543.7	185.43	180.27	78.131	0.00043247	90.405	239.828	86.030	-43.324	-69.426	157.493	90.867	-70.325	-63.688	243.570	219.975	-65.413	-60.473	-58.247	-53.467	92.991	-56.110	-8191	255	
9955.158	1	1	0	0	0.20272	0.15608	0.095348	0.094849	0.1938	0.077777	0.25092	0.089121	0.27335	0.11586	0.1127	0.10854	0.15696	0.14615	0.12402	0.20356	-2.9208	-2.6125	-2.6542	-3.4417	-2.1417	-3.2917	-2.925	-2.7167	-3.3542	-2.7729	-3.0354	-3.4521	-2.5292	-3.4188	-3.0771	-2.5292	231.753	172.974	14.249	270.541	-39.086	219.284	195.436	271.488	62.840	28.730	-27.006	251.510	155.352	155.046	49.542	72.830	0.000253	0.0012563	0.0008181	927.19	3.7822e-05	2.2426e-05	785.56	314.69	2.0175e-05	5.1548e-06	296.82	102.9	101.99	47.193	2.1385e-05	50.56	0.032027	0.047103	0.013366	1610	0.00054146	0.0006471	1550.2	594.32	0.00065702	0.00077003	769.91	256.87	252.26	103.98	0.00080284	119.65	265.937	251.353	-12.364	-69.687	217.650	-49.509	-70.261	-64.097	237.221	-34.101	-66.197	-60.685	-58.402	-53.279	37.273	-56.229	-8191	255	
9955.276	1	1	0	131072	0.10194	0.0092201	0.43348	0.12199	0.06218	0.075212	0.19426	0.083621	0.23214	0.17964	0.13452	0.054562	0.15217	0.20015	0.11389	0.22444	-3.0625	-2.6396	-2.6104	-3.5583	-2.5458	-3.2021	-3.1458	-2.7146	-3.4229	-2.7875	-2.8417	-3.5708	-2.5771	-3.2604	-3.2729	-2.5542	60.322	21.106	-67.725	-45.853	-67.617	79.838	134.626	-15.481	-42.481	-76.365	252.642	176.205	117.736	257.965	108.936	231.635	0.00085378	0.0010787	0.0014903	941.1	5.8047e-05	3.2762e-05	788.6	316.74	6.3852e-05	6.2012e-05	297.12	101.52	102.47	46.644	1.912e-05	50.335	0.060402	0.084882	0.022904	2061.3	0.00095067	0.001081	2008.8	754	0.0010888	0.0011824	984.19	318.32	314.27	119.01	0.00098186	131.08	220.888	110.636	-30.124	-69.764	224.514	34.296	-70.342	-64.063	265.524	51.402	-65.442	-60.557	-57.907	-53.809	-27.672	-56.460	-8191	255	
9955.371	1	1	0	0	0.09793	0.22706	0.12776	0.15592	0.23074	0.21504	0.42064	0.30334	0.15889	0.20121	0.1268	0.034058	0.15037	0.39977	0.29179	0.1009	-3.0271	-2.8208	-2.5812	-3.4292	-2.5542	-2.8667	-3.4417	-2.5021	-3.1958	-2.9021	-2.6	-3.3333	-2.7979	-2.9625	-3.3542	-2.625	-30.956	222.739	227.305	233.837	-17.092	14.012	215.666	-44.253	-35.137	222.546	265.883	261.678	-63.106	258.928	26.718	83.958	0.00073307	0.0034483	0.0011738	931.72	4.0924e-05	5.0093e-05	773.44	307.02	3.6902e-05	2.0301e-05	288.4	99.621	99.606	46.111	6.2997e-06	49.49	0.069939	0.087018	0.022227	1973.1	0.00084638	0.00083612	1673.9	622.95	0.00074346	0.00072429	706.14	232.28	227.27	86.743	0.00053263	95.859	232.338	-72.038	18.962	-69.816	250.094	37.411	-70.274	-63.969	239.627	34.274	-65.875	-60.335	-57.806	-53.263	-16.000	-56.008	-8191	255	
9955.467	1	1	0	0	0.25906	0.16556	0.085405	0.18114	0.11042	0.11963	0.34325	0.32294	0.15293	0.13158	0.038352	0.14287	0.11058	0.24532	0.15725	0.15793	-2.8312	-2.7458	-2.3688	-3.1958	-2.7396	-2.6813	-3.3771	-2.55	-3.0479	-2.9646	-2.6083	-3.2396	-2.7062	-2.8333	-3.3271	-2.4917	3.693	78.480	17.264	228.889	89.651	-46.834	230.954	242.334	19.006	162.316	-70.418	216.130	174.355	217.955	-23.074	-50.121	0.00040015	0.0035284	0.00036837	910.11	5.1859e-06	3.6753e-05	759.44	301.77	9.4636e-06	1.7086e-05	283.95	98.753	98.188	45.345	3.6901e-06	48.791	0.038096	0.044918	0.011654	1502.7	0.00046196	0.00043979	1256.4	488.54	0.00041942	0.00040324	529.39	183.75	179.73	72.228	0.00035963	83.883	237.095	-8.230	-58.564	-69.228	247.282	8.772	-70.343	-63.520	1.630	221.155	-65.456	-59.853	-57.829	-53.208	200.969	-56.098	-8191	255	
9955.588	1	1	0	0	0.26641	0.066969	0.19793	0.23786	0.14645	0.13091	0.093555	0.27663	0.12894	0.36292	0.22945	0.12758	0.23132	0.107	0.12842	0.24426	-2.4958	-3.0271	-2.3729	-3.3708	-2.7208	-2.6667	-3.3479	-2.5604	-2.9292	-3.1104	-2.5979	-3.1625	-2.5521	-2.7396	-3.3146	-2.6125	146.911	252.535	119.542	7.331	8.865	144.728	9.246	-35.201	133.467	273.959	266.209	181.173	140.781	-67.174	104.879	-18.425	6.9434e-06	0.00094286	0.00026962	905.86	2.2411e-05	2.8236e-05	750.52	299.6	7.2605e-06	1.2225e-05	280.3	98.978	98.92	45.741	1.8408e-05	49.165	0.02842	0.034777	0.0093839	1425.2	0.00039394	0.00038595	1208.1	481.02	0.0003892	0.00038176	520.64	185.32	178.27	72.179	0.00036118	85.382	208.170	271.470	127.391	-69.399	65.259	-13.835	-70.081	-63.646	94.783	233.801	-65.481	-59.976	-57.582	-52.954	-63.753	-55.739	-8191	255	
9955.659	1	1	0	0	0.31119	0.14964	0.083646	0.30438	0.13156	0.16718	0.11849	0.30382	0.078498	0.21169	0.063376	0.21643	0.12343	0.18518	0.20209	0.064753	-2.5271	-2.9938	-2.2687	-3.1792	-2.9167	-2.5354	-3.4313	-2.4542	-2.8312	-3.2167	-2.3812	-3.1625	-3.0438	-2.5083	-3.2396	-2.425	260.699	127.040	-44.136	212.911	176.158	39.636	135.717	219.931	226.780	253.114	245.869	228.540	234.472	37.429	225.784	-11.146	9.7562e-05	0.00034235	0.00031196	900.36	2.2653e-05	2.4884e-05	746.77	299.24	1.8559e-05	1.82e-05	279.39	99.017	99.693	46.086	2.4399e-05	49.425	0.027419	0.033541	0.0092132	1419.4	0.00037528	0.00037354	1207.6	484.41	0.00038351	0.00038197	530.9	188.7	178.39	72.439	0.00037671	86.604	20.689	220.294	261.495	-69.253	65.301	68.047	-69.839	-63.338	41.798	46.456	-65.126	-59.549	-58.185	-52.957	222.801	-55.992	-8191	255	
9955.755	1	1	0	0	0.074855	0.12824	0.20559	0.23653	0.1084	0.17144	0.16161	0.044589	0.14678	0.17858	0.25362	0.046611	0.12118	0.19192	0.07791	0.15294	-2.2708	-3.1437	-2.3604	-3.2562	-2.8125	-2.3792	-3.4417	-2.7521	-2.8354	-3.3792	-2.2958	-3.2167	-3.075	-2.5958	-3.3729	-2.6125	270.963	8.087	-31.515	206.436	169.966	5.633	256.773	229.506	217.277	33.260	122.623	-31.029	-1.869	221.379	190.853	174.766	0.00015203	0.0010351	0.00068094	904.95	2.4584e-05	2.2726e-05	746.3	300.36	1.9863e-05	9.829e-06	278.42	99.72	98.486	45.869	2.3094e-05	49.671	0.027034	0.033343	0.0095731	1425.3	0.00036629	0.00036339	1214.6	479.46	0.00035982	0.00036149	529.25	184.82	173.58	71.283	0.00038005	85.493	-63.073	85.203	77.810	-69.204	88.936	16.124	-70.010	-63.379	-6.306	-12.818	-65.472	-60.331	-58.079	-52.918	228.087	-55.811	-8191	255	
9955.852	1	1	0	0	0.16089	0.26867	0.049126	0.096083	0.084353	0.24152	0.028501	0.18501	0.0343	0.2807	0.17872	0.27418	0.17639	0.21379	0.0177	0.18406	-2.4813	-3.3688	-2.3438	-3.1458	-3.1063	-2.5854	-3.2687	-2.7229	-2.4437	-3.2479	-2.7125	-2.7917	-3.2042	-2.3958	-3.4229	-2.9688	-35.534	114.678	-4.928	-21.887	-26.212	237.024	106.440	214.021	209.149	263.322	224.238	186.695	214.038	137.655	85.072	167.796	4.6606e-05	0.00037597	0.00082129	901.53	1.0008e-05	2.4171e-06	747.23	298.34	1.7346e-05	1.7241e-05	278.54	98.736	98.217	45.094	1.2372e-05	49.218	0.026398	0.033202	0.010019	1422.6	0.00036977	0.00037283	1243.1	480.67	0.00037224	0.00037978	547.07	185.8	175.66	72.261	0.00041369	85.901	275.354	247.030	106.820	-69.170	49.024	28.601	-69.833	-63.385	57.294	-65.666	-65.632	-59.907	-58.216	-53.143	232.062	-56.163	-8191	255	
9955.972	1	1	0	0	0.21786	0.16987	0.13206	0.24595	0.071856	0.14496	0.094597	0.23828	0.25799	0.07392	0.19484	0.14667	0.40485	0.10594	0.26067	0.267	-2.0292	-3.3354	-2.3625	-2.7646	-3.3167	-2.4521	-3.1104	-3.0542	-2.5479	-3.2396	-2.4813	-2.6333	-3.0625	-2.6104	-3.0542	-3.0292	243.368	56.101	66.850	201.655	-4.973	-44.754	46.834	187.685	-6.206	266.511	-62.337	229.764	241.128	138.425	100.691	-32.568	0.00014299	0.0016022	0.00044918	903.23	1.4854e-05	1.0926e-05	746.25	297.94	8.7363e-06	1.7952e-05	277.75	97.607	97.516	45	5.6562e-06	48.971	0.027298	0.035235	0.010701	1426.2	0.00037466	0.00039085	1257.3	477.38	0.00036739	0.00038973	547.32	182.1	172.86	72.341	0.00040139	83.511	121.090	124.575	234.297	-69.283	115.615	220.591	-69.899	-63.301	227.179	222.981	-65.119	-60.182	-58.132	-53.001	-62.947	-55.963	-8191	255	
9956.068	1	1	0	0	0.22869	0.057518	0.41951	0.1141	0.1553	0.33975	0.0081167	0.12044	0.016774	0.025727	0.14013	0.26031	0.20102	0.26659	0.054664	0.43923	-2.1083	-3.05	-2.5167	-2.6354	-3.1979	-2.4313	-3.1813	-3.1667	-2.3458	-3.2458	-2.7271	-2.6125	-3.2687	-2.4708	-2.8625	-3.3688	-7.942	250.779	59.621	-39.501	103.264	159.021	134.146	245.639	-56.219	212.732	214.141	-29.910	-65.192	-78.502	-66.188	143.395	4.4525e-05	0.0035505	8.9526e-05	895.59	2.2105e-05	3.2924e-05	748.3	297.32	1.318e-06	1.7838e-05	279.15	98.241	97.627	45.234	2.822e-05	49.111	0.025806	0.034582	0.01012	1387.5	0.00034723	0.00037714	1218.4	460.74	0.00033141	0.00036497	518.14	172.9	165	70.681	0.00034968	79.988	241.888	166.135	34.917	-69.182	43.086	195.228	-70.028	-63.621	46.231	241.807	-65.452	-60.025	-58.200	-53.261	68.668	-56.002	-8191	255	
9956.165	1	1	0	0	0.20003	0.027314	0.12729	0.15802	0.1357	0.33147	0.063815	0.26703	0.16413	0.15658	0.22929	0.047815	0.10798	0.16296	0.12949	0.24319	-1.8917	-3.2896	-2.7521	-2.7479	-3.3083	-2.5771	-3.0854	-3.1813	-2.4313	-3.3354	-2.8354	-2.5062	-3.4375	-2.5208	-2.7521	-3.3187	100.088	264.541	9.259	228.378	-71.306	116.353	212.857	119.802	20.792	197.281	17.615	-22.560	29.542	64.958	-31.832	-73.636	0.00031985	0.0020703	0.00084685	896.41	7.0273e-06	1.3338e-05	750.14	297.7	8.4959e-06	2.2557e-05	281.2	98.633	98.19	45.658	2.9783e-05	49.766	0.022869	0.03191	0.0088518	1333.4	0.00031241	0.00035125	1170.6	448.11	0.00030913	0.00034819	499.51	167.9	162.01	69.946	0.0003133	77.979	-77.889	152.485	20.994	-69.474	241.107	140.218	-70.062	-63.553	181.886	186.627	-65.801	-60.079	-57.903	-53.119	74.228	-56.064	-8191	255	
9956.236	1	1	0	0	0.29005	0.076868	0.2486	0.18578	0.12721	0.098385	0.041841	0.093504	0.17958	0.24708	0.16951	0.11742	0.20492	0.28197	0.11817	0.30183	-1.8333	-3.1979	-2.7687	-2.5646	-3.1875	-2.7125	-2.7479	-3.275	-2.4833	-3.1771	-3.075	-2.4125	-3.2854	-2.8375	-2.4583	-3.3312	-55.544	202.665	-15.326	276.523	41.635	152.959	196.741	236.726	220.033	206.960	-72.588	144.465	245.723	229.403	228.231	198.134	0.00042634	0.00092066	0.00055851	893.73	1.7133e-05	5.7775e-06	747.5	298	1.209e-05	1.7039e-05	282.77	100.5	98.492	46.669	5.3665e-06	50.373	0.021239	0.029032	0.0076556	1276.4	0.00028092	0.00030972	1108.4	428.68	0.00027669	0.00030342	471.3	161.29	158.89	68.627	0.00027786	76.222	207.975	163.407	-16.810	-69.472	239.204	227.791	-70.005	-63.433	267.845	23.323	-65.195	-60.026	-57.785	-53.450	-60.847	-56.276	-8191	255	
9956.355	1	1	0	0	0.12544	0.10968	0.10732	0.34575	0.10285	0.0251	0.25194	0.046321	0.13875	0.20425	0.12275	0.25553	0.20231	0.36044	0.20518	0.24557	-2.025	-2.7333	-3.0708	-2.45	-3.3563	-2.7542	-2.4938	-3.4688	-2.1813	-3.1437	-2.9583	-2.575	-3.225	-2.8708	-2.5292	-3.2917	53.428	112.688	185.960	-69.635	248.281	-38.610	16.382	236.630	19.819	-35.385	176.196	182.536	219.392	218.050	-18.410	151.829	0.00039936	0.00052387	0.00069945	886.81	2.8218e-05	2.4706e-05	744.94	299.42	1.1098e-05	7.4095e-06	282.62	100.24	98.697	46.88	8.9534e-06	50.863	0.020257	0.02678	0.0070786	1250.5	0.00027359	0.00028707	1083.4	421.95	0.00026771	0.00027783	456.27	157.32	156.19	66.733	0.00024954	74.505	225.143	100.950	-7.067	-69.279	212.753	6.830	-69.886	-63.502	245.223	75.631	-65.635	-59.697	-57.741	-53.268	138.556	-56.070	-8191	255	
9956.451	1	1	0	0	0.15081	0.23593	0.17505	0.26546	0.15411	0.13928	0.12086	0.16024	0.24396	0.28901	0.19209	0.4294	0.13915	0.25716	0.22328	0.23676	-2.2021	-2.6417	-3.1813	-2.1437	-3.3542	-2.7938	-2.7292	-3.4583	-2.4938	-2.9375	-3.1646	-2.5042	-3.1208	-3.0438	-2.2687	-3.3875	37.223	66.986	200.837	156.927	272.813	274.276	180.196	207.805	115.728	176.510	-81.005	148.350	208.697	229.892	14.371	153.419	0.00027743	0.00088928	0.00050971	888.29	1.8782e-05	1.3387e-05	746.36	296	6.7757e-06	1.5093e-05	285.33	101.39	99.402	46.977	4.4027e-06	50.965	0.01869	0.023264	0.0061776	1214.4	0.00024696	0.00024458	1042.6	409.23	0.00023792	0.00023646	437.12	152.58	150.68	64.449	0.00021661	73.296	195.208	-24.706	-17.031	-69.306	181.314	176.264	-69.797	-63.614	122.576	45.442	-65.567	-60.249	-57.778	-53.453	238.760	-56.171	-8191	255	
9956.549	1	1	0	0	0.10251	0.26794	0.19938	0.13767	0.10394	0.14243	0.073478	0.11605	0.31978	0.15571	0.13512	0.15137	0.19773	0.053273	0.0040183	0.19212	-2.1854	-2.7979	-3.1229	-2.4896	-3.0667	-3.0146	-2.5062	-3.4875	-2.6125	-2.7896	-3.125	-2.4896	-3.1271	-3.0521	-2.3208	-3.2604	34.165	197.477	45.452	-56.805	160.692	-44.370	80.176	17.114	128.446	34.471	-73.378	-33.922	-79.103	-14.833	226.777	204.585	0.00016366	0.00081097	0.00053453	894.91	2.4962e-05	1.8428e-06	750.41	298.07	5.3658e-06	1.2766e-05	285.05	101.68	100.51	47.133	1.4439e-05	51.39	0.016889	0.02047	0.0055632	1202.4	0.00022921	0.00022549	1029.9	409.44	0.00022691	0.00022354	432.45	153.56	149.4	64.094	0.00020857	73.685	-58.164	-9.466	50.829	-69.339	87.155	214.693	-70.146	-63.345	71.613	59.950	-65.682	-60.180	-58.293	-53.335	196.047	-56.149	-8191	255	
9956.668	1	1	0	0	0.29395	0.12693	0.10371	0.062276	0.067547	0.18886	0.23094	0.24326	0.11606	0.25165	0.2388	0.23223	0.14089	0.004919	0.10196	0.21156	-2.2646	-2.4833	-3.2917	-2.7062	-3.0062	-2.9958	-2.5083	-3.3542	-2.675	-2.5687	-3.4688	-2.5354	-2.9396	-3.2313	-2.3396	-3.5542	109.162	-34.114	82.752	277.401	260.767	244.958	-78.490	239.738	265.290	-0.714	-43.918	251.212	271.010	-61.131	244.500	-74.205	5.6111e-05	0.00063491	0.00028253	892.68	1.0752e-05	8.035e-06	752.06	299.55	1.6911e-06	5.7831e-06	286.74	101.56	99.718	47.051	5.5585e-06	51.449	0.016183	0.019655	0.0053867	1203.6	0.00021735	0.00021447	1022.8	408.9	0.00021382	0.00021084	428.45	153.12	146.6	63.463	0.00020421	73.525	152.265	-0.552	37.874	-69.312	70.237	221.882	-69.849	-63.377	54.545	19.724	-65.718	-59.827	-57.986	-53.098	218.645	-56.107	-8191	255	
9956.764	1	1	0	0	0.19184	0.046809	0.10247	0.12774	0.1692	0.12184	0.09823	0.40756	0.36507	0.068627	0.23267	0.29337	0.14379	0.15828	0.12425	0.13603	-2.4458	-2.5896	-3.2854	-2.7021	-3.0125	-3.1458	-2.4208	-3.1	-2.9375	-2.475	-3.2083	-2.5646	-2.6229	-3.4792	-2.2479	-3.2458	186.020	112.850	-66.832	205.314	244.747	242.196	204.750	-68.051	46.118	205.647	171.186	246.146	-68.968	209.873	242.804	-73.767	0.00011507	0.00054679	0.00021629	892.42	1.6737e-05	1.1857e-05	753.86	299.87	1.0484e-05	4.899e-06	288.14	101.96	100.19	47.02	7.0508e-06	51.536	0.015353	0.018939	0.0053717	1209.7	0.00021106	0.00021129	1030.9	410.65	0.00020891	0.0002086	433.7	153.87	146.27	63.407	0.00021288	73.915	-78.868	72.917	92.332	-69.380	101.313	60.799	-70.139	-63.434	12.392	-2.003	-65.330	-59.980	-57.851	-53.163	224.376	-56.260	-8191	255	
9956.860	1	1	0	0	0.18159	0.037022	0.052699	0.26872	0.22546	0.18531	0.12896	0.23336	0.29102	0.11221	0.091684	0.16998	0.11644	0.095208	0.25335	0.16321	-2.675	-2.3542	-3.2271	-2.7792	-2.7917	-3.2917	-2.5292	-3.3521	-2.9458	-2.4542	-3.3833	-2.7958	-2.4271	-3.5979	-2.3417	-3.3958	154.266	259.261	15.895	240.894	197.576	131.490	-69.005	219.438	89.711	237.096	41.865	-80.171	-66.738	249.219	190.883	-48.135	0.00014658	0.00036139	0.00059503	901.68	8.344e-06	1.4304e-06	756.6	301.46	8.6652e-06	9.3914e-06	290.07	102.6	100.43	47.411	8.4526e-06	51.818	0.015398	0.019046	0.005654	1216.4	0.00021042	0.00021293	1047.5	412.98	0.00021158	0.0002123	443.02	154.74	146.81	63.901	0.0002248	73.986	249.179	69.605	170.166	-69.261	52.055	-65.437	-70.230	-63.639	65.856	-68.637	-65.413	-60.170	-58.049	-53.186	-17.844	-55.889	-8191	255	
9956.956	1	1	0	0	0.22238	0.087219	0.2485	0.045867	0.26435	0.11973	0.29601	0.14155	0.070021	0.26988	0.28888	0.20757	0.41969	0.26596	0.11359	0.22381	-2.7833	-2.2292	-3.125	-2.5646	-2.575	-3.325	-2.5125	-3.2021	-3.3521	-2.5021	-3.3292	-2.9062	-2.5854	-3.4646	-2.375	-2.9625	-60.393	271.075	-68.920	241.622	83.000	223.939	186.619	215.493	109.001	-73.687	153.705	198.855	-15.161	-77.289	76.340	246.286	0.00011233	0.00098979	0.00021547	903.25	1.8761e-05	5.981e-06	759.09	302.56	7.3769e-06	9.0438e-06	291.76	102.9	100.56	47.456	6.554e-06	51.839	0.015519	0.019321	0.0059175	1218.5	0.00021155	0.00021879	1062.7	414.13	0.00021469	0.00022112	451.75	155.61	147.95	64.672	0.00023789	74.419	256.983	18.906	163.953	-69.385	51.767	52.181	-70.036	-63.353	7.084	234.474	-65.305	-59.794	-57.843	-53.045	178.936	-55.990	-8191	255	
9957.053	1	1	0	0	0.1478	0.11437	0.21717	0.21511	0.19981	0.1647	0.17592	0.11625	0.033792	0.21381	0.24749	0.17837	0.16107	0.28454	0.13281	0.17774	-2.8354	-2.4125	-3.3812	-2.9896	-2.4229	-3.3646	-2.5062	-3.0125	-3.2271	-2.4854	-3.1542	-3.2021	-2.5125	-3.4646	-2.6021	-2.6979	7.529	278.403	170.316	204.098	200.815	209.862	268.067	204.982	135.157	-58.203	274.667	-16.674	254.832	198.572	260.585	217.590	8.2573e-05	0.0018718	0.00016795	904.04	5.7798e-06	5.4866e-06	760.88	302.94	8.1691e-06	1.68e-05	290.33	103.17	100.67	47.277	1.4059e-05	51.908	0.015926	0.020619	0.0061965	1224.4	0.00021739	0.00023174	1076.5	415.15	0.00021804	0.00023487	455.15	155.93	148.41	65.425	0.0002425	74.368	244.152	60.194	13.038	-69.341	112.000	259.524	-70.088	-63.225	78.770	181.820	-65.074	-60.086	-57.767	-52.911	31.834	-55.755	-8191	255	
9957.149	1	1	0	0	0.050796	0.10175	0.053399	0.31922	0.24646	0.065392	0.14861	0.17297	0.048448	0.046441	0.10823	0.23969	0.17398	0.13815	0.21494	0.087533	-2.9042	-2.2021	-3.0875	-3.1813	-2.4104	-3.2083	-2.9146	-2.525	-3.4771	-2.3104	-3.0604	-3.4188	-2.3646	-3.3042	-2.775	-2.6271	-12.588	-59.640	-17.328	-67.288	169.435	-4.964	259.702	240.491	-20.953	210.746	227.773	158.611	159.018	210.650	65.478	14.084	0.00026391	0.0021518	0.00046092	901.58	4.5119e-06	2.0599e-05	763.61	303.29	4.6469e-06	1.5732e-05	290.15	102.48	100.77	47.299	8.9731e-06	51.891	0.016045	0.021723	0.0062079	1225.1	0.00021577	0.00023842	1071.3	413.45	0.00021416	0.0002383	449.42	154.38	147.73	65.635	0.00023352	73.594	229.411	164.388	-1.329	-69.246	101.082	252.509	-69.733	-63.182	23.907	163.408	-64.926	-59.653	-57.469	-52.683	2.253	-55.621	-8191	255	
9957.269	1	1	0	0	0.18412	0.14348	0.0264	0.1244	0.15101	0.067128	0.20801	0.1955	0.16617	0.05902	0.14531	0.17914	0.26427	0.14563	0.12343	0.14926	-3.0604	-2.2292	-2.8729	-3.3104	-2.3104	-3.2958	-2.8333	-2.6896	-3.5167	-2.4354	-2.9583	-3.275	-2.4417	-3.3875	-2.85	-2.6542	53.528	61.045	-2.406	-63.500	96.470	-20.333	221.396	185.071	66.592	160.715	-61.184	152.744	245.360	199.241	45.531	200.460	0.00014672	0.0019663	0.00056402	901.02	1.4727e-05	8.6757e-06	761.97	302.94	6.4737e-06	4.5532e-06	291.23	102.81	100.57	47.244	7.6562e-06	51.671	0.015752	0.021783	0.0059913	1220.6	0.00022009	0.00024727	1068.9	413.45	0.00022197	0.00024714	449.53	154.58	149.2	65.836	0.00023002	73.488	276.090	126.892	-33.382	-69.152	171.764	75.509	-69.870	-63.032	-40.797	102.442	-65.344	-60.051	-58.068	-53.187	-1.182	-56.055	-8191	255	
9957.366	1	1	0	0	0.19876	0.29219	0.18304	0.22898	0.077905	0.44348	0.19082	0.32744	0.17545	0.028209	0.15829	0.098649	0.21038	0.16218	0.25151	0.065395	-2.8354	-2.6396	-2.8875	-3.2833	-2.4896	-2.9875	-3.1854	-2.3646	-3.1813	-2.7104	-2.7583	-3.4479	-2.5125	-3.0625	-3.0062	-2.2	-25.765	-76.089	205.812	179.296	65.645	-33.934	270.012	8.931	17.703	206.789	68.909	112.522	276.251	272.036	129.171	237.341	0.00032076	0.00080949	0.0003066	901.55	5.2974e-06	5.2063e-06	761.96	303.46	1.3327e-05	1.4251e-05	290.79	102.35	100.53	47.323	2.0316e-05	51.552	0.016253	0.021896	0.0057884	1210.6	0.00022073	0.00023991	1057.1	410.22	0.00022292	0.00023856	441.85	152.93	149.72	65.282	0.00022184	72.901	223.913	-8.952	-17.678	-69.090	225.288	78.261	-69.618	-63.213	235.265	99.111	-64.944	-60.044	-57.661	-52.946	118.658	-55.816	-8191	255	
9957.460	1	1	0	0	0.044882	0.094986	0.22537	0.18683	0.2271	0.15212	0.2827	0.11325	0.16811	0.14811	0.1355	0.066479	0.12008	0.29734	0.18471	0.30272	-2.7687	-2.7229	-2.2667	-3.4104	-2.3	-3.2167	-2.9333	-2.4917	-3.2125	-2.6708	-2.5604	-3.3354	-2.4854	-2.8917	-3.1396	-2.4917	269.953	16.025	201.779	226.979	122.576	131.247	238.403	-73.525	98.530	120.758	256.741	81.466	-65.874	-36.643	-54.933	259.237	0.00027059	0.0017403	0.00026319	900.99	1.2227e-05	2.0197e-05	762.49	304.09	9.6918e-06	1.4807e-05	290.97	102.06	100.02	47.39	7.2275e-06	51.139	0.016489	0.021406	0.0056847	1209.8	0.00022637	0.0002348	1051.1	409.58	0.00022877	0.00023397	439.88	152.57	150.24	64.85	0.00021821	72.951	240.607	14.609	-73.845	-69.372	188.346	34.574	-69.502	-63.273	233.344	72.515	-65.197	-59.614	-57.592	-52.767	16.948	-55.465	-8191	255	
9957.532	1	1	0	0	0.2899	0.22082	0.30228	0.3375	0.24595	0.27014	0.036089	0.32784	0.071129	0.25618	0.22442	0.054015	0.16457	0.14152	0.073423	0.39235	-2.8667	-2.9396	-2.3375	-3.225	-2.5312	-2.8292	-3.2188	-2.4417	-2.9771	-2.8458	-2.5208	-3.4167	-2.3563	-2.8042	-3.1063	-2.4437	-76.048	230.878	168.965	234.246	104.579	261.788	218.750	45.577	155.869	-78.285	196.982	-79.298	-79.474	234.733	272.200	205.292	0.00017619	0.0014408	0.00039056	902.04	5.6658e-06	1.9251e-05	764.05	302.1	9.3044e-06	1.7347e-05	291.24	101.62	100.25	47.193	5.2632e-06	51.577	0.01681	0.020925	0.0056078	1213.6	0.00023122	0.00022997	1048.4	412.03	0.00023088	0.00023012	439.42	154.26	151.15	64.746	0.00021827	73.784	216.213	28.055	18.000	-68.923	-0.834	26.563	-70.136	-63.382	122.212	89.390	-65.158	-59.792	-57.740	-52.655	32.889	-56.066	-8191	255	
9957.629	1	1	0	0	0.24758	0.12394	0.24476	0.25102	0.09831	0.22917	0.13	0.056439	0.13562	0.19382	0.30446	0.063061	0.14628	0.11431	0.16901	0.31722	-2.8375	-2.9062	-2.2917	-3.3646	-2.475	-2.8063	-3.2708	-2.6229	-3.0333	-3.0583	-2.5792	-3.5229	-2.5917	-2.8063	-3.1562	-2.675	193.462	49.314	-60.621	-65.895	99.462	70.012	244.343	266.901	58.720	14.641	229.220	43.464	5.893	-63.241	-44.940	213.438	0.00024956	0.002068	0.00027999	900.54	7.7394e-06	2.4015e-05	762.3	303.37	1.1629e-05	1.0237e-05	289.65	102.64	100.53	47.517	9.2378e-07	51.631	0.016996	0.02081	0.0056143	1223.6	0.00023111	0.00022811	1048	416.31	0.0002311	0.00022894	439.73	156.61	151.32	64.918	0.00022129	74.984	237.047	8.384	-17.608	-69.421	127.483	-11.393	-69.588	-63.372	97.551	103.369	-65.526	-59.846	-57.998	-53.310	238.688	-56.166	-8191	255	
9957.748	1	1	0	0	0.16216	0.32569	0.15249	0.1063	0.18542	0.29715	0.1083	0.27914	0.015936	0.17879	0.067465	0.067224	0.24006	0.24499	0.1805	0.15552	-2.6375	-3.0667	-2.4125	-3.2792	-2.8688	-2.5312	-3.3792	-2.5563	-3.0875	-3.0896	-2.4042	-3.275	-3.0292	-2.6729	-3.375	-2.6521	100.166	184.529	206.975	194.801	237.219	261.269	112.687	272.592	236.280	-55.876	250.762	75.213	252.513	-48.786	152.376	-32.735	0.00014105	0.0010962	7.677e-05	906.95	1.5983e-05	1.6925e-05	760.52	303.48	9.7056e-06	8.7991e-06	290.14	102.27	100.67	47.207	1.4107e-05	51.568	0.016866	0.020689	0.0056762	1236.7	0.00022833	0.00022607	1050.7	418.02	0.00022457	0.00022462	440.14	157.24	149.91	64.341	0.00022252	74.981	220.563	-19.401	109.457	-68.998	18.947	-8.132	-69.944	-63.171	9.938	94.336	-65.174	-59.943	-58.096	-52.960	214.770	-55.987	-8191	255	
9957.845	1	1	0	0	0.12569	0.19192	0.32631	0.16926	0.14497	0.32606	0.13537	0.25258	0.082948	0.20311	0.17003	0.12837	0.070891	0.34165	0.16027	0.099958	-2.4208	-3.2021	-2.4167	-3.0646	-3.0563	-2.4458	-3.3875	-2.6063	-2.7458	-3.0333	-2.6083	-2.975	-3.025	-2.3937	-3.4062	-2.9125	-34.025	0.570	3.944	229.277	101.448	-61.329	120.863	164.696	117.837	-72.889	-12.013	113.678	203.202	272.450	-13.838	256.407	0.00022026	0.00091363	0.00013626	904.67	1.3969e-05	1.6272e-05	759.42	301.91	8.246e-06	1.3843e-05	288.58	102.84	99.841	47.017	1.3964e-05	51.332	0.016492	0.020454	0.0058042	1237.7	0.00022476	0.00022524	1059.8	418.6	0.00022408	0.00022544	445.85	157.63	149.55	64.353	0.00023329	74.845	206.907	260.830	176.562	-69.161	11.344	-15.575	-69.582	-63.385	-24.364	98.108	-65.804	-59.983	-57.837	-52.736	235.461	-56.014	-8191	255	
9957.941	1	1	0	0	0.079002	0.063723	0.24093	0.32846	0.095503	0.074213	0.17471	0.20534	0.077358	0.0747	0.12132	0.18658	0.029354	0.18179	0.12557	0.27332	-2.2625	-3.3979	-2.3917	-3.0417	-2.9938	-2.2729	-3.5	-2.7521	-2.7396	-3.2583	-2.25	-3.1667	-3.2958	-2.4646	-3.2958	-2.8312	-29.538	32.759	62.646	245.045	-39.302	30.485	249.976	0.032	-12.053	62.494	126.726	220.403	6.074	244.968	11.982	-64.076	0.00018516	0.0012967	0.00032438	906.53	4.9723e-06	7.2084e-06	760.55	303.95	4.3262e-06	1.6331e-05	289.33	101.83	99.701	46.99	1.4768e-05	51.464	0.016442	0.020642	0.0060882	1238.2	0.0002254	0.00022726	1074.2	419.44	0.00022659	0.00023191	454.95	157.78	149.95	64.795	0.00024749	75.1	224.183	88.527	3.449	-69.562	140.834	-24.245	-69.731	-63.365	73.131	82.703	-65.322	-60.070	-58.255	-53.058	175.089	-55.992	-8191	255	
9958.037	1	1	0	0	0.201	0.16196	0.16091	0.39285	0.11626	0.10653	0.2273	0.11638	0.14333	0.12494	0.14418	0.34581	0.11827	0.27506	0.21662	0.14733	-2.1167	-3.3542	-2.6375	-2.9625	-3.1375	-2.4542	-3.3146	-2.9583	-2.4854	-3.2854	-2.5583	-2.8521	-3.3042	-2.3021	-3.0854	-2.8563	127.788	44.011	-48.183	239.216	179.001	54.976	249.676	195.458	71.004	48.330	3.886	173.596	-64.804	258.383	102.427	132.024	0.00020517	0.0015681	0.00014691	907.36	9.5361e-06	1.3547e-05	766.32	303.51	1.3623e-05	1.5751e-05	289.89	102.85	100.7	47.186	6.5283e-06	51.57	0.016858	0.02149	0.0064631	1248.1	0.00023422	0.00024238	1095.5	423.87	0.0002374	0.00024976	469.16	161.04	153.84	66.556	0.00026957	76.906	277.464	76.708	66.517	-69.164	213.113	-29.665	-69.400	-63.376	80.785	203.755	-65.416	-59.995	-58.086	-53.275	261.972	-56.051	-8191	255	
9958.133	1	1	0	0	0.20042	0.094174	0.18984	0.054176	0.35416	0.027537	0.15662	0.20579	0.28096	0.3916	0.13626	0.04964	0.26539	0.23782	0.2256	0.11735	-2.1917	-3.2042	-2.5646	-2.7812	-3.2729	-2.5729	-3.1208	-3.0646	-2.4146	-3.3	-2.8229	-2.7438	-3.2667	-2.6229	-3.0292	-3.0875	87.920	31.544	113.277	180.764	246.038	271.449	263.839	121.990	84.473	6.860	-66.476	189.735	-49.021	97.874	-12.633	140.677	4.9143e-05	0.0015403	0.00040424	914.54	7.9704e-06	1.3959e-05	767.47	304.84	4.9851e-06	1.09e-05	291	102.71	100.65	47.085	1.2784e-05	51.285	0.018149	0.024086	0.0070194	1270.7	0.00024792	0.00026526	1115.3	428.97	0.00024339	0.00026403	469.89	160.17	152.67	66.62	0.00026021	75.371	220.593	88.574	-71.117	-69.081	205.023	204.524	-69.859	-63.492	43.721	234.375	-65.711	-60.074	-58.293	-53.300	-49.485	-55.864	-8191	255	
9958.229	1	1	0	0	0.21007	0.31315	0.21907	0.2154	0.29993	0.013773	0.10513	0.19748	0.093442	0.14985	0.34957	0.16955	0.1263	0.26335	0.18179	0.30526	-2.1667	-3.0167	-2.7562	-2.6979	-2.9938	-2.5208	-3.0167	-3.2333	-2.3083	-3.1958	-2.775	-2.4854	-3.3167	-2.6083	-2.8271	-3.4	118.240	-56.819	-36.396	261.350	-63.652	247.018	244.165	167.470	103.130	-20.987	-67.703	158.177	-10.884	209.217	-34.612	265.186	0.00019351	0.0025138	0.00059586	910.26	1.2418e-05	1.6911e-05	765.25	304.09	1.7353e-05	1.4829e-05	291.02	102.04	100.1	47.079	5.8053e-06	51.347	0.017273	0.023503	0.00661	1247.1	0.0002347	0.00025906	1091.8	421.76	0.0002355	0.00026269	463.08	158.37	152.47	66.874	0.00025562	75.553	218.272	88.836	-9.443	-69.287	-35.512	127.534	-70.094	-63.670	253.281	-55.979	-65.790	-59.777	-57.723	-52.948	153.234	-56.016	-8191	255	
9958.350	1	1	0	0	0.229	0.2006	0.13884	0.20162	0.1679	0.082651	0.32669	0.077036	0.20204	0.2048	0.055381	0.095706	0.19804	0.24685	0.16569	0.35343	-2.0896	-3.1208	-2.8354	-2.4688	-3.1854	-2.4292	-2.875	-3.375	-2.5375	-3.0396	-2.8917	-2.4354	-3.4021	-2.7417	-2.4958	-3.2792	259.579	249.822	196.146	230.546	141.379	102.614	-75.218	195.366	238.752	52.426	149.144	104.483	-79.440	253.299	66.282	155.392	0.00035809	0.0021718	0.00043093	913.32	1.1953e-05	1.7258e-05	768.43	305.04	5.0854e-06	1.3828e-05	290.92	102.61	101.05	47.447	1.0283e-05	51.887	0.017737	0.024351	0.0066116	1254.8	0.00024694	0.00027171	1100.3	426.18	0.00024882	0.00027387	465.56	159.86	155.8	67.839	0.0002561	76.182	224.916	64.654	23.443	-69.107	140.953	-48.836	-70.040	-63.432	264.424	125.398	-65.251	-60.030	-57.859	-53.307	-6.982	-55.978	-8191	255	
#DATA ENDS
