BOXY.EXE: ISS Imagent and Oximeter Data Acquisition Program Version 0.80
Ascii Record File

#ACQ INFORMATION
2  Detector Channels 
16  External MUX Channels 
1  Auxiliary Channels 
5000  Waveform (CCF) Frequency (Hz)
1  Waveforms Skipped 
30  Waveforms Averaged 
1  Cycles Averaged 
16  Acquisitions per Waveform 
10.0806  Updata Rate (Hz) 

#FILE INFORMATION
TRUE -- External MUX Channel results are PARSED.
FALSE -- AC DC and Phase are NOT grouped.
TRUE -- Companion Program Settings File CREATED.
FALSE -- AC data not excluded
FALSE -- DC data not excluded
FALSE -- Phase data not excluded
FALSE -- Auxillary Chn. data not excluded
Tab delimiters

#CALIBRATION STATE
TRUE -- Waveform Calibration Values APPLIED.


#AUX CALIBRATION VALUES
Val Type	aux-1	

Term	1.0000e+00	
Factor	0.0000e+00	


#WF CALIBRATION VALUES
A = Detector Channel
Val Type	A-AC1	A-AC2	A-AC3	A-AC4	A-AC5	A-AC6	A-AC7	A-AC8	A-AC9	A-AC10	A-AC11	A-AC12	A-AC13	A-AC14	A-AC15	A-AC16	A-DC1	A-DC2	A-DC3	A-DC4	A-DC5	A-DC6	A-DC7	A-DC8	A-DC9	A-DC10	A-DC11	A-DC12	A-DC13	A-DC14	A-DC15	A-DC16	A-Ph1	A-Ph2	A-Ph3	A-Ph4	A-Ph5	A-Ph6	A-Ph7	A-Ph8	A-Ph9	A-Ph10	A-Ph11	A-Ph12	A-Ph13	A-Ph14	A-Ph15	A-Ph16	

Term	0.00000e+00	0.00000e+00	0.00000e+00	0.00000e+00	0.00000e+00	0.00000e+00	0.00000e+00	0.00000e+00	0.00000e+00	0.00000e+00	0.00000e+00	0.00000e+00	0.00000e+00	0.00000e+00	0.00000e+00	0.00000e+00	0.00000e+00	0.00000e+00	0.00000e+00	0.00000e+00	0.00000e+00	0.00000e+00	0.00000e+00	0.00000e+00	0.00000e+00	0.00000e+00	0.00000e+00	0.00000e+00	0.00000e+00	0.00000e+00	0.00000e+00	0.00000e+00	0.00000e+00	0.00000e+00	0.00000e+00	0.00000e+00	0.00000e+00	0.00000e+00	0.00000e+00	0.00000e+00	0.00000e+00	0.00000e+00	0.00000e+00	0.00000e+00	0.00000e+00	0.00000e+00	0.00000e+00	0.00000e+00	
Factor	1.00000e+00	1.00000e+00	1.00000e+00	1.00000e+00	1.00000e+00	1.00000e+00	1.00000e+00	1.00000e+00	1.00000e+00	1.00000e+00	1.00000e+00	1.00000e+00	1.00000e+00	1.00000e+00	1.00000e+00	1.00000e+00	1.00000e+00	1.00000e+00	1.00000e+00	1.00000e+00	1.00000e+00	1.00000e+00	1.00000e+00	1.00000e+00	1.00000e+00	1.00000e+00	1.00000e+00	1.00000e+00	1.00000e+00	1.00000e+00	1.00000e+00	1.00000e+00	X	X	X	X	X	X	X	X	X	X	X	X	X	X	X	X	

B = Detector Channel
Val Type	B-AC1	B-AC2	B-AC3	B-AC4	B-AC5	B-AC6	B-AC7	B-AC8	B-AC9	B-AC10	B-AC11	B-AC12	B-AC13	B-AC14	B-AC15	B-AC16	B-DC1	B-DC2	B-DC3	B-DC4	B-DC5	B-DC6	B-DC7	B-DC8	B-DC9	B-DC10	B-DC11	B-DC12	B-DC13	B-DC14	B-DC15	B-DC16	B-Ph1	B-Ph2	B-Ph3	B-Ph4	B-Ph5	B-Ph6	B-Ph7	B-Ph8	B-Ph9	B-Ph10	B-Ph11	B-Ph12	B-Ph13	B-Ph14	B-Ph15	B-Ph16	

Term	0.00000e+00	0.00000e+00	0.00000e+00	0.00000e+00	0.00000e+00	0.00000e+00	0.00000e+00	0.00000e+00	0.00000e+00	0.00000e+00	0.00000e+00	0.00000e+00	0.00000e+00	0.00000e+00	0.00000e+00	0.00000e+00	0.00000e+00	0.00000e+00	0.00000e+00	0.00000e+00	0.00000e+00	0.00000e+00	0.00000e+00	0.00000e+00	0.00000e+00	0.00000e+00	0.00000e+00	0.00000e+00	0.00000e+00	0.00000e+00	0.00000e+00	0.00000e+00	-5.39519e+01	-1.20249e+02	-1.18298e+02	-1.81389e+02	-4.31425e+01	-6.62439e+01	-1.58480e+02	-1.62015e+02	-4.06269e+01	-6.41590e+01	-1.70493e+02	-1.69859e+02	-1.80780e+02	-1.76520e+02	-5.86099e+01	-1.49332e+02	
Factor	1.98062e-05	1.68167e-04	4.94974e-05	1.66526e-01	1.74080e-06	1.74117e-06	1.86734e-01	6.19479e-02	1.34097e-06	1.65747e-06	9.69286e-02	3.24366e-02	2.70990e-02	9.71051e-03	1.63304e-06	1.37319e-02	6.23419e-06	7.90621e-06	2.20416e-06	8.30113e-02	8.34494e-08	8.73136e-08	8.74601e-02	3.09545e-02	8.37774e-08	8.70958e-08	4.68922e-02	1.57875e-02	1.36570e-02	4.89657e-03	8.48302e-08	6.69651e-03	X	X	X	X	X	X	X	X	X	X	X	X	X	X	X	X	



#DISTANCE SETTINGS
A = Detector Channel
A-1	A-2	A-3	A-4	A-5	A-6	A-7	A-8	A-9	A-10	A-11	A-12	A-13	A-14	A-15	A-16	

2.5000e+00	3.0000e+00	2.5000e+00	3.0000e+00	2.0000e+00	3.0000e+00	1.5000e+00	3.0000e+00	3.0000e+00	3.0000e+00	3.0000e+00	3.0000e+00	3.0000e+00	3.0000e+00	1.5000e+00	3.0000e+00	

B = Detector Channel
B-1	B-2	B-3	B-4	B-5	B-6	B-7	B-8	B-9	B-10	B-11	B-12	B-13	B-14	B-15	B-16	

1.0000e+01	1.0000e+01	1.0000e+01	1.4400e+00	1.0000e+01	1.0000e+01	1.5100e+00	1.9400e+00	1.0000e+01	1.0000e+01	1.9900e+00	2.4900e+00	2.4100e+00	2.9000e+00	1.0000e+01	2.9800e+00	




#DATA BEGINS
time	group	step	mark	flag	A-AC1	A-AC2	A-AC3	A-AC4	A-AC5	A-AC6	A-AC7	A-AC8	A-AC9	A-AC10	A-AC11	A-AC12	A-AC13	A-AC14	A-AC15	A-AC16	A-DC1	A-DC2	A-DC3	A-DC4	A-DC5	A-DC6	A-DC7	A-DC8	A-DC9	A-DC10	A-DC11	A-DC12	A-DC13	A-DC14	A-DC15	A-DC16	A-Ph1	A-Ph2	A-Ph3	A-Ph4	A-Ph5	A-Ph6	A-Ph7	A-Ph8	A-Ph9	A-Ph10	A-Ph11	A-Ph12	A-Ph13	A-Ph14	A-Ph15	A-Ph16	B-AC1	B-AC2	B-AC3	B-AC4	B-AC5	B-AC6	B-AC7	B-AC8	B-AC9	B-AC10	B-AC11	B-AC12	B-AC13	B-AC14	B-AC15	B-AC16	B-DC1	B-DC2	B-DC3	B-DC4	B-DC5	B-DC6	B-DC7	B-DC8	B-DC9	B-DC10	B-DC11	B-DC12	B-DC13	B-DC14	B-DC15	B-DC16	B-Ph1	B-Ph2	B-Ph3	B-Ph4	B-Ph5	B-Ph6	B-Ph7	B-Ph8	B-Ph9	B-Ph10	B-Ph11	B-Ph12	B-Ph13	B-Ph14	B-Ph15	B-Ph16	aux-1	digaux	

46151.977	1	1	0	256	0.20741	0.059293	0.20836	0.17459	0.14517	0.12368	0.19043	0.18979	0.26565	0.12733	0.26005	0.17263	0.10946	0.13836	0.15111	0.12651	-3.2812	-2.5646	-3.1083	-3.5146	-2.625	-3.3958	-3.0771	-2.7604	-3.4583	-2.8146	-3.15	-3.5146	-2.7229	-3.4938	-2.9938	-2.8292	347.803	483.189	519.349	491.536	234.616	229.580	457.691	438.609	365.723	441.962	439.557	203.330	448.696	479.276	363.854	214.382	0.00097609	0.00079508	0.00025132	1132.7	7.1325e-06	7.5736e-06	954.25	446.89	7.1891e-06	4.5943e-06	433.34	182.29	187.1	88.409	1.1839e-05	93.79	0.0010904	0.0011099	0.00031264	1077.8	1.1895e-05	1.2329e-05	912.45	428.89	1.2153e-05	1.2302e-05	414.89	175.77	180.22	85.663	1.2282e-05	90.411	269.913	255.010	272.340	179.164	290.403	298.248	177.795	184.729	356.634	330.456	182.302	186.250	188.457	193.766	313.166	190.658	-8191	255	
46152.094	1	1	0	0	0.22276	0.18807	0.16969	0.43403	0.065832	0.14131	0.25291	0.25208	0.022718	0.1664	0.087006	0.14915	0.35748	0.23729	0.19845	0.23237	-3.1958	-2.925	-2.9104	-3.5646	-2.6583	-3.175	-3.2125	-2.8771	-3.4625	-2.9333	-2.9292	-3.7021	-2.8104	-3.3063	-2.9688	-2.6271	276.063	216.478	492.243	493.964	510.111	398.093	484.661	444.526	337.051	283.024	508.562	510.748	515.730	520.778	483.941	473.350	0.0010208	0.00063578	0.00024432	1130.8	4.5969e-06	1.1511e-05	968.28	447.06	9.3348e-06	3.5356e-06	435.33	184.28	187.76	88.026	4.496e-06	94.362	0.001117	0.0011389	0.00032088	1076.8	1.2225e-05	1.2758e-05	924.32	428.59	1.2218e-05	1.247e-05	419.23	177.65	180.37	85.544	1.2458e-05	91.408	269.655	242.433	272.142	179.104	349.470	323.185	177.506	184.560	317.841	225.409	182.170	186.344	188.696	193.609	297.884	190.471	-8191	255	
46152.191	1	1	0	0	0.15594	0.07666	0.20418	0.26668	0.16621	0.17309	0.26126	0.21626	0.1704	0.22223	0.17252	0.10404	0.21902	0.27103	0.13912	0.19498	-3.1375	-2.9917	-2.8375	-3.7833	-2.6896	-3.075	-3.4375	-2.925	-3.2417	-3.0208	-2.8583	-3.7292	-2.7792	-3.1917	-3.2438	-2.6875	356.173	266.594	325.433	457.435	505.538	294.491	470.351	508.408	271.847	448.250	450.882	485.122	206.506	469.935	331.799	506.117	0.00099628	0.00077005	0.0003131	1137.6	8.9594e-06	5.3571e-06	971.28	445.64	6.3327e-06	4.8992e-06	435.78	183.41	186.95	88.565	3.9548e-06	93.536	0.0011304	0.0011615	0.00032469	1084.7	1.23e-05	1.261e-05	927.34	428.86	1.24e-05	1.2765e-05	418.51	177.12	180.24	85.467	1.2416e-05	90.599	270.811	255.330	234.022	179.194	310.829	314.738	177.870	184.911	334.548	351.138	182.424	186.569	188.782	193.815	347.618	190.669	-8191	255	
46152.285	1	1	0	0	0.16088	0.078896	0.36896	0.19392	0.13335	0.12714	0.1727	0.19205	0.17042	0.054565	0.16479	0.28404	0.2861	0.30502	0.28248	0.2049	-3.1792	-3.0167	-2.6375	-3.6396	-2.725	-2.9292	-3.3792	-2.5396	-3.3	-3.0354	-2.5979	-3.3958	-2.8354	-3.0854	-3.6333	-2.8458	391.108	282.468	479.377	495.409	453.368	468.989	478.656	493.492	324.196	344.089	332.491	488.217	454.962	477.033	305.729	465.875	0.00095137	0.00066232	6.3203e-05	1135	9.9744e-06	4.2699e-06	969.96	447.83	6.8287e-06	7.87e-06	436.11	185.15	188.61	89.062	6.7594e-06	95.276	0.0011166	0.0011432	0.00032003	1082.9	1.2483e-05	1.2958e-05	927.82	429.35	1.2507e-05	1.2755e-05	420.92	178.73	181.27	86.191	1.2883e-05	92.013	272.693	279.717	188.360	178.958	330.862	342.275	177.706	184.752	332.576	297.598	182.199	186.354	188.725	193.833	318.576	190.689	-8191	255	
46152.383	1	1	0	0	0.29633	0.12551	0.12073	0.23776	0.18693	0.040331	0.091486	0.16545	0.099018	0.047711	0.20426	0.1964	0.29822	0.36895	0.034794	0.29379	-3.1167	-3.2687	-2.7521	-3.6167	-2.7542	-2.9458	-3.4229	-2.7396	-3.0125	-3.2521	-2.6521	-3.5458	-2.9521	-2.85	-3.2979	-2.7917	264.614	455.033	465.937	522.523	330.425	440.474	460.035	488.012	341.249	324.174	520.015	489.946	202.093	515.332	289.509	514.815	0.0010392	0.0013476	0.00026853	1138.3	3.8583e-06	7.5782e-06	973.56	448.6	9.3205e-06	1.0638e-05	440.09	185.58	187.27	88.32	8.5999e-06	94.491	0.0011406	0.0011845	0.00032869	1084.5	1.254e-05	1.304e-05	932.27	430.14	1.2658e-05	1.2841e-05	422.34	178.94	180.51	85.544	1.2603e-05	91.438	270.873	243.555	267.859	179.061	343.787	328.067	177.697	184.700	338.143	317.134	182.103	186.494	188.901	193.754	312.921	190.664	-8191	255	
46152.480	1	1	0	0	0.22759	0.18989	0.16258	0.14922	0.20058	0.13441	0.23784	0.29352	0.21612	0.14355	0.24298	0.051791	0.25995	0.20184	0.038778	0.092076	-2.7917	-3.1562	-2.5083	-3.3958	-2.9896	-2.8917	-3.5604	-2.8792	-3.0521	-3.3479	-2.5375	-3.4458	-3.1937	-2.8229	-3.4854	-2.7771	351.680	228.533	342.146	192.044	421.428	418.245	298.451	522.440	487.882	252.945	375.709	336.365	172.007	438.524	276.557	405.236	0.0010084	0.00078557	0.00025481	1135.3	1.2196e-05	6.1456e-06	985.9	446.92	8.4865e-06	7.9246e-06	442.95	186.36	187.04	88.129	1.3196e-05	94.632	0.0011454	0.0011774	0.00032225	1084.3	1.2335e-05	1.2857e-05	940.54	428.89	1.2616e-05	1.2687e-05	424.44	179.29	180.04	85.482	1.2569e-05	91.563	271.534	288.931	273.068	179.234	298.951	328.449	177.922	184.619	309.605	331.422	182.244	186.529	188.880	193.564	313.258	190.455	-8191	255	
46152.574	1	1	0	0	0.096805	0.050103	0.12786	0.13865	0.13208	0.16236	0.34806	0.18456	0.10777	0.1614	0.060252	0.15984	0.11951	0.15827	0.19717	0.3409	-2.7438	-3.2562	-2.55	-3.5563	-3.1021	-2.6979	-3.6083	-3.0333	-2.8063	-3.4875	-2.7562	-3.4437	-3.2208	-2.9458	-3.4604	-3.0917	200.557	315.081	349.348	187.073	252.467	240.868	447.281	169.195	295.911	342.979	421.685	490.187	503.221	497.541	266.486	471.445	0.0010151	0.00099275	0.00018861	1139.1	7.0382e-06	6.227e-06	987.88	448.01	9.3214e-06	6.4997e-06	438.62	185.75	187.37	88.185	6.2826e-06	93.864	0.0011223	0.0011571	0.00032568	1090.3	1.2363e-05	1.2675e-05	940.19	430.02	1.2344e-05	1.2378e-05	422.53	178.73	180.69	85.551	1.2376e-05	90.96	269.167	261.747	260.560	179.119	339.187	314.753	177.756	184.607	361.754	319.524	182.150	186.790	188.709	193.777	340.891	190.528	-8191	255	
46152.672	1	1	0	0	0.15679	0.1939	0.15603	0.32748	0.25147	0.18421	0.1185	0.15741	0.24303	0.031608	0.21803	0.21968	0.23566	0.47685	0.14033	0.032131	-2.3688	-3.4062	-2.5979	-3.3187	-3.2917	-2.4021	-3.5542	-3.1375	-2.6583	-3.4896	-2.7208	-3.3771	-3.4583	-2.9583	-3.3312	-3.3229	264.654	282.526	286.640	409.892	335.010	499.118	275.884	480.895	246.722	197.129	482.807	508.664	468.849	441.454	310.308	171.097	0.00093094	0.00091477	0.00029882	1137	1.1547e-05	9.0702e-06	980.33	448.04	9.9999e-06	5.5783e-06	439.94	184.86	187.42	88.596	8.695e-06	94.978	0.0010929	0.0011452	0.00031892	1086	1.1807e-05	1.224e-05	936.34	429.88	1.2162e-05	1.2417e-05	422.48	178.48	180.93	85.674	1.2789e-05	91.473	270.416	227.110	274.316	179.116	315.206	328.046	178.055	184.535	305.547	352.855	182.385	186.531	188.943	193.744	284.921	190.381	-8191	255	
46152.789	1	1	0	0	0.13222	0.19828	0.066336	0.22169	0.065785	0.15055	0.18178	0.08853	0.063383	0.13326	0.035688	0.1014	0.084411	0.15597	0.062026	0.18456	-2.2938	-3.3187	-2.6854	-3.1604	-3.2979	-2.5104	-3.4729	-3.3125	-2.725	-3.5771	-2.8271	-3.1333	-3.4271	-2.9042	-3.3167	-3.2604	459.719	503.611	167.079	462.057	277.151	170.137	380.609	444.688	364.988	382.406	492.039	189.087	187.334	175.711	389.779	512.154	0.00097997	0.0011347	0.00043452	1136.2	8.1466e-06	9.7867e-06	984.14	448.32	9.5898e-06	8.1051e-06	443.96	188.22	189.32	89.753	1.1851e-05	97.029	0.0011224	0.0011303	0.00031711	1088.2	1.1966e-05	1.2646e-05	939	431.47	1.2398e-05	1.2562e-05	426.41	181.59	182.82	87.211	1.2594e-05	94.003	271.096	247.551	269.304	179.257	356.361	261.620	177.909	184.664	321.799	281.021	182.053	186.485	188.620	193.836	305.994	190.405	-8191	255	
46152.887	1	1	0	0	0.15725	0.15193	0.39776	0.26119	0.22576	0.21038	0.19706	0.066307	0.088561	0.146	0.26239	0.26715	0.066766	0.12792	0.16234	0.17789	-2.1042	-3.5792	-2.6625	-3.0646	-3.5354	-2.6292	-3.2062	-3.375	-2.4896	-3.5417	-3.0875	-2.8396	-3.5438	-2.8187	-3.0417	-3.5	270.479	476.511	315.524	490.045	487.262	376.326	174.765	274.958	168.676	494.544	488.673	465.499	295.930	515.412	479.920	461.710	0.0010236	0.00073657	0.00028755	1140.1	7.481e-06	1.2751e-06	977.27	450.91	1.0472e-05	6.7582e-06	446.77	191.59	191.51	91.737	8.6834e-06	99.264	0.0011382	0.0011642	0.00032909	1089.3	1.2405e-05	1.2796e-05	936.3	434.97	1.2343e-05	1.2541e-05	429.19	183.78	185.08	88.963	1.2521e-05	96.152	272.610	278.946	235.589	179.114	360.214	322.146	178.058	184.410	317.880	294.516	181.990	186.593	188.756	193.612	308.508	190.614	-8191	255	
46152.984	1	1	0	0	0.081212	0.32579	0.077867	0.35042	0.17224	0.37194	0.15737	0.17089	0.2738	0.12669	0.025323	0.072239	0.26354	0.40186	0.16043	0.10009	-2.1771	-3.3271	-2.825	-2.8729	-3.2333	-2.5979	-3.1042	-3.4146	-2.5771	-3.2938	-3.0375	-2.7958	-3.4875	-2.8625	-2.8625	-3.5875	284.245	175.706	499.254	518.685	286.121	401.566	417.261	287.410	254.681	366.009	511.209	367.187	174.589	424.693	227.358	347.017	0.0010049	0.00095375	0.00034232	1135	5.206e-06	5.7163e-06	978.04	453.63	8.4042e-06	5.5064e-06	439.93	189.63	192.56	92.144	1.0527e-05	99.682	0.0011111	0.0011461	0.00032393	1084.9	1.2048e-05	1.2249e-05	929.9	435.71	1.2304e-05	1.2257e-05	424.61	183.31	185.59	89.534	1.237e-05	96.496	271.698	237.557	248.968	179.103	352.117	318.374	177.949	184.614	327.684	344.120	182.280	186.458	188.769	193.462	317.477	190.366	-8191	255	
46153.078	1	1	0	0	0.15571	0.23869	0.022953	0.43704	0.088788	0.23652	0.19485	0.30863	0.06962	0.07725	0.18481	0.053183	0.10352	0.13543	0.041646	0.18181	-2.1937	-3.2417	-3.0354	-2.8542	-3.5417	-2.8125	-2.9354	-3.5563	-2.5667	-3.2896	-3.3479	-2.7646	-3.5312	-3.0583	-2.7792	-3.6937	212.540	240.057	252.840	427.426	302.340	182.184	495.313	474.541	489.289	487.389	418.953	241.660	470.331	488.273	378.355	438.201	0.0011103	0.0013683	0.00032118	1127.4	7.6588e-06	9.0717e-06	961.08	452.22	6.0481e-06	4.8786e-06	444.63	191.91	193.6	93.741	6.0581e-06	101.93	0.0011465	0.0011586	0.00032692	1082.1	1.2403e-05	1.2925e-05	922.2	434.98	1.303e-05	1.3187e-05	426.75	185.23	187.17	90.873	1.2968e-05	98.545	268.311	270.820	257.239	179.397	286.743	322.771	178.054	184.568	345.138	329.034	182.157	186.603	188.788	193.433	346.277	190.160	-8191	255	
46153.176	1	1	0	0	0.37822	0.057999	0.04616	0.19692	0.1427	0.15903	0.18245	0.1753	0.2465	0.32264	0.040484	0.12394	0.2564	0.16877	0.2238	0.10337	-2.2208	-3.2125	-3.1583	-2.7542	-3.4875	-2.9083	-3.0563	-3.6333	-2.6437	-3.1437	-3.2958	-2.7542	-3.4437	-3.3396	-2.5708	-3.5563	464.849	379.818	380.759	435.065	481.176	375.435	360.776	187.322	283.029	454.129	422.327	171.994	176.895	174.110	499.001	317.942	0.001063	0.00049182	0.00032613	1128.5	1.0396e-05	6.6289e-06	968.81	454.58	1.0353e-05	7.591e-06	445.72	193.1	193.78	93.641	1.0264e-05	101.59	0.0011584	0.0011504	0.00031901	1081.7	1.2125e-05	1.2752e-05	924.12	436.09	1.2279e-05	1.2351e-05	427.4	184.96	186.49	90.798	1.2214e-05	98.108	274.591	244.542	282.356	179.123	333.145	312.236	177.683	184.846	325.139	325.550	181.768	186.428	188.739	193.359	297.438	190.353	-8191	255	
46153.273	1	1	0	0	0.071603	0.084014	0.11101	0.097484	0.057935	0.11332	0.26027	0.20625	0.14697	0.15538	0.061797	0.19226	0.09569	0.3612	0.1236	0.25306	-2.3333	-3.1167	-3.3604	-2.7313	-3.2938	-3.1188	-2.8083	-3.6542	-2.7396	-2.9417	-3.4583	-2.6854	-3.3896	-3.1063	-2.6437	-3.5812	453.083	456.749	169.097	463.621	282.100	491.312	466.242	524.097	504.694	466.999	503.045	203.964	510.589	194.685	238.577	499.847	0.0011139	0.000667	0.00030671	1133.3	5.8343e-06	1.1278e-05	977.24	453.61	8.4978e-06	3.1383e-06	446.92	193.27	194.02	94.314	9.1827e-06	101.98	0.0011231	0.0011019	0.00030814	1083.5	1.1685e-05	1.2234e-05	929.05	435.4	1.1796e-05	1.1986e-05	427.59	185.6	187.13	91.278	1.1992e-05	98.679	267.061	257.468	257.500	179.213	337.653	308.386	177.999	184.449	337.676	340.276	182.111	186.456	188.691	193.327	332.478	190.468	-8191	255	
46153.391	1	1	0	0	0.079012	0.11068	0.080608	0.32238	0.17934	0.060385	0.18385	0.0772	0.11667	0.23815	0.22108	0.18353	0.17006	0.27873	0.10947	0.32355	-2.4292	-2.9604	-3.4792	-2.775	-3.2792	-3.2	-2.7188	-3.6063	-2.8458	-2.8167	-3.575	-2.4667	-3.4292	-3.3604	-2.4688	-3.5271	183.880	432.822	301.892	500.023	354.796	365.954	474.242	507.158	291.132	318.294	461.848	203.365	494.300	470.980	425.467	452.083	0.001083	0.00071016	0.00036503	1139.4	7.5984e-06	7.6692e-06	964.53	455.14	1.0494e-05	2.0337e-06	446.16	193.62	196.9	95.136	7.727e-06	103.26	0.0011153	0.0011206	0.00030974	1084.3	1.1917e-05	1.2256e-05	920.51	438.13	1.1893e-05	1.2244e-05	427.66	186.49	189.28	92.432	1.2228e-05	99.9	269.414	278.189	244.768	179.265	340.437	315.544	178.018	184.571	317.093	363.919	182.306	186.573	188.685	193.228	322.826	190.255	-8191	255	
46153.488	1	1	0	0	0.044836	0.069995	0.28682	0.1342	0.15554	0.19605	0.1252	0.095674	0.098639	0.18367	0.048222	0.067996	0.17756	0.15188	0.16832	0.21388	-2.5458	-2.5604	-3.2812	-2.7521	-3.1708	-3.3563	-2.6562	-3.4667	-2.9604	-2.7	-3.5521	-2.8479	-3.0958	-3.3563	-2.7188	-3.4708	477.686	469.735	341.354	447.469	349.161	444.028	455.762	522.574	412.377	311.501	178.080	217.059	204.303	224.213	253.426	521.927	0.001036	0.00078873	0.00028024	1129.1	6.1327e-06	8.3225e-06	958.41	456.27	7.5886e-06	3.6308e-06	445.86	192.59	196.3	95.839	6.9736e-06	104.15	0.0010866	0.001079	0.00030363	1079.4	1.1666e-05	1.1709e-05	913.85	438.03	1.1638e-05	1.1876e-05	426.54	186.06	189.05	92.771	1.1761e-05	100.62	269.749	254.086	259.047	179.015	356.525	326.460	177.899	184.609	321.467	341.438	182.223	186.357	188.867	193.218	313.982	190.435	-8191	255	
46153.582	1	1	0	0	0.11583	0.18342	0.19966	0.16187	0.23031	0.12252	0.20596	0.12658	0.27994	0.20772	0.11703	0.19326	0.10318	0.36491	0.090708	0.051086	-2.6854	-2.6125	-3.2687	-2.9208	-3.1708	-3.3396	-2.8292	-3.5438	-3.0979	-2.7521	-3.4896	-2.9792	-3.1167	-3.6146	-2.5646	-3.5125	245.375	229.815	183.849	428.333	372.442	461.969	495.671	453.066	188.476	306.886	240.113	407.941	195.784	492.216	479.831	460.302	0.0011374	0.00055988	0.00022457	1127.4	1.6407e-05	4.844e-06	955.09	456.01	1.0621e-05	1.3607e-05	445.23	192.58	196.16	95.727	8.0988e-06	105	0.0011099	0.0010813	0.0003018	1078.5	1.1646e-05	1.1789e-05	913.22	437.87	1.1775e-05	1.2062e-05	426.44	185.94	188.96	92.904	1.2081e-05	101.21	270.615	232.763	275.275	179.064	300.866	305.156	177.902	184.671	326.318	290.920	182.069	186.368	188.604	193.213	319.583	190.515	-8191	255	
46153.656	1	1	0	0	0.13693	0.030714	0.13729	0.22061	0.22708	0.073565	0.13187	0.39061	0.062029	0.02997	0.16008	0.11903	0.22207	0.17324	0.17699	0.11245	-2.8937	-2.5167	-3.4833	-2.9938	-2.9208	-3.4958	-2.5146	-3.3146	-3.375	-2.3958	-3.5521	-3.1146	-2.9646	-3.4667	-2.6625	-3.2812	384.304	514.873	349.939	451.431	393.894	386.299	481.705	475.244	386.713	229.371	463.899	420.098	479.740	451.903	471.665	463.685	0.00112	0.00081502	0.00022209	1131.4	6.1805e-06	8.5734e-06	950.11	456.75	9.192e-06	5.2687e-06	443.99	193.82	197.4	96.584	1.5133e-05	105.89	0.0011167	0.0011095	0.00031043	1079.7	1.1981e-05	1.2307e-05	911.53	438.48	1.2156e-05	1.2332e-05	426.53	187.15	189.76	93.662	1.2513e-05	102.19	269.641	243.892	264.253	179.050	362.193	316.342	178.079	184.582	335.182	295.886	182.324	186.257	188.768	193.268	311.411	190.391	-8191	255	
46153.773	1	1	0	0	0.073982	0.064608	0.26142	0.24038	0.20955	0.098648	0.22966	0.29967	0.23684	0.2817	0.20759	0.18297	0.12839	0.1818	0.14468	0.4032	-2.9417	-2.7375	-3.3146	-2.9917	-2.6896	-3.5479	-2.6854	-3.15	-3.2687	-2.6958	-3.3875	-3.3146	-2.8208	-3.6875	-2.7417	-3.0271	519.290	402.803	312.451	501.847	348.591	240.669	413.790	503.553	334.282	380.263	387.993	464.409	358.400	523.269	395.221	472.371	0.0011195	0.00073626	0.00032639	1123.5	8.286e-06	8.9186e-06	951.75	458.31	8.9756e-06	8.2409e-06	443.02	194.11	197.88	96.425	1.2526e-05	105.2	0.0011541	0.0011815	0.00032635	1078	1.2477e-05	1.2909e-05	905.05	439.39	1.2655e-05	1.2974e-05	424.69	186.38	189.86	93.504	1.2836e-05	101.42	268.584	291.982	250.936	178.969	322.051	276.503	177.622	184.467	322.496	317.504	182.279	186.373	188.655	193.422	300.757	190.375	-8191	255	
46153.871	1	1	0	0	0.056697	0.21628	0.079472	0.18959	0.25412	0.10921	0.27507	0.39798	0.047508	0.15544	0.076854	0.082078	0.4149	0.28163	0.11875	0.34761	-3.1479	-2.6875	-3.225	-3.4	-2.6375	-3.5458	-2.925	-2.9396	-3.2167	-2.7083	-3.2146	-3.3292	-2.9271	-3.5667	-2.7792	-3.0938	408.817	285.814	380.450	341.228	331.417	202.316	525.727	441.942	514.331	305.999	491.369	429.256	520.897	497.153	517.235	421.907	0.0010984	0.00058891	0.00024487	1127.7	1.2266e-05	1.0609e-05	941.91	456.51	6.3217e-06	8.842e-06	443.52	191.96	196.5	95.831	7.0162e-06	104.8	0.0011527	0.0011486	0.00032681	1078.5	1.2327e-05	1.2684e-05	903.73	438.29	1.2114e-05	1.2596e-05	424.31	185.12	188.82	92.991	1.2468e-05	101.16	268.931	260.415	282.084	179.093	338.823	281.742	177.677	184.504	327.959	346.136	182.221	186.436	188.455	193.382	332.201	190.459	-8191	255	
46153.969	1	1	0	0	0.19404	0.1299	0.20334	0.28164	0.11655	0.24556	0.12126	0.1535	0.30792	0.19999	0.1293	0.18516	0.067065	0.050323	0.12184	0.12621	-3.2542	-2.6188	-3.1437	-3.3833	-2.6104	-3.4396	-3.0521	-2.8104	-3.3312	-2.85	-3.1042	-3.3583	-2.7042	-3.4729	-3.0354	-2.9938	217.712	515.997	344.596	459.765	244.868	264.299	384.734	460.812	257.564	306.405	384.046	510.792	513.119	433.567	208.110	235.020	0.0011202	0.00046149	0.00031142	1128.9	5.9274e-06	1.0749e-05	943.65	454.66	9.4888e-06	8.3174e-06	439.96	192.69	196.3	96.378	1.1751e-05	104.63	0.0011359	0.0011297	0.00032292	1076.5	1.1929e-05	1.2338e-05	901.94	436.08	1.2416e-05	1.238e-05	423.16	185.44	188.77	93.19	1.2456e-05	101.21	269.306	283.227	274.354	178.694	327.610	295.843	177.746	184.607	321.116	318.807	182.391	186.293	188.365	193.364	311.398	190.218	-8191	255	
46154.062	1	1	0	0	0.086555	0.045779	0.24423	0.091337	0.20307	0.024922	0.12728	0.18362	0.17024	0.060471	0.073774	0.14931	0.049823	0.24032	0.31453	0.16674	-3.2042	-2.7167	-3.125	-3.5979	-2.6125	-3.4208	-3.2396	-2.925	-3.3521	-2.8208	-2.9854	-3.5625	-2.7667	-3.4125	-3.1625	-2.7562	321.150	239.495	414.968	175.053	300.283	323.925	271.685	503.071	315.986	218.047	459.340	468.375	248.097	467.130	496.431	451.123	0.001067	0.00091846	0.00015971	1123.9	1.0203e-05	8.1764e-06	947.02	455.43	6.1663e-06	9.9815e-06	441.86	193.64	195.4	96.007	1.3107e-05	104.23	0.0011365	0.0011565	0.00031804	1076	1.2133e-05	1.2559e-05	904.66	436.79	1.2092e-05	1.2334e-05	423.95	185.86	188.41	93.076	1.2471e-05	100.86	271.120	237.638	228.824	178.928	336.075	357.772	177.718	184.520	327.740	322.185	182.056	186.513	188.627	193.484	314.720	190.063	-8191	255	
46154.184	1	1	0	0	0.17634	0.17881	0.2736	0.26017	0.15174	0.21156	0.19135	0.077736	0.14548	0.19791	0.31417	0.11296	0.18399	0.4499	0.12951	0.15603	-2.9771	-2.8167	-2.7833	-3.7229	-2.7354	-3.2729	-3.1896	-2.7458	-3.2917	-2.8167	-2.9313	-3.4479	-2.7479	-3.5625	-3.3	-2.6042	447.080	314.889	285.385	469.446	239.738	267.132	432.651	351.726	310.330	515.931	503.257	430.238	188.664	507.892	195.270	459.378	0.0011013	0.0012316	0.0001859	1124.1	8.1803e-06	5.1796e-06	939.44	455.81	3.6505e-06	5.8948e-06	440.39	193.25	196.5	95.939	1.0986e-05	104.41	0.0011302	0.0011414	0.00031597	1074.4	1.2195e-05	1.2827e-05	900.44	436.75	1.254e-05	1.2514e-05	422.97	185.82	189.12	93.112	1.2345e-05	100.7	270.887	291.983	287.374	179.138	350.328	319.746	177.868	184.588	332.264	327.635	182.268	186.309	188.343	193.191	331.209	190.250	-8191	255	
46154.258	1	1	0	0	0.042564	0.14236	0.14285	0.37442	0.2748	0.20861	0.1635	0.35758	0.25612	0.024555	0.10542	0.21843	0.13721	0.31636	0.096413	0.19668	-3.1063	-2.9333	-2.5271	-3.4875	-2.7958	-3.1729	-3.4479	-2.8125	-3.3104	-3.2167	-2.8604	-3.675	-2.8479	-3.25	-3.4813	-2.7562	496.383	378.751	232.543	520.895	518.294	167.483	466.534	525.044	361.528	208.381	273.612	190.712	217.873	178.398	436.994	176.378	0.0010995	0.00075805	0.00021294	1125.8	6.9613e-06	2.6712e-06	944.98	454.41	9.129e-06	5.2904e-06	439.65	192.29	196.69	96.186	1.465e-05	104.33	0.0011359	0.0011444	0.00031676	1075.2	1.226e-05	1.2349e-05	901.16	436.52	1.2089e-05	1.2254e-05	422.2	185.5	188.96	93.25	1.2163e-05	100.92	267.785	245.427	268.141	179.401	334.555	293.079	177.685	184.602	333.145	345.219	181.908	186.274	188.502	193.404	313.271	190.229	-8191	255	
46154.352	1	1	0	0	0.079984	0.183	0.13695	0.32005	0.062041	0.13909	0.19448	0.10582	0.20062	0.1122	0.12422	0.27988	0.16877	0.44595	0.089149	0.1335	-2.875	-3.0333	-2.6167	-3.4646	-2.9729	-3.0812	-3.5646	-2.7583	-3.2188	-3.1896	-2.6979	-3.6437	-3.0292	-3.1021	-3.4792	-2.8937	287.254	394.627	482.312	507.135	361.821	168.658	476.964	438.404	414.556	192.706	225.125	480.272	519.482	506.901	433.296	515.801	0.001118	0.0010911	0.00010624	1127.1	1.2941e-05	1.1825e-05	946.54	452.97	9.5232e-06	8.5332e-06	435.77	191.18	193.8	95.837	1.1314e-05	104.01	0.0011334	0.0011105	0.00031037	1072.6	1.1645e-05	1.2043e-05	901.03	434.13	1.1557e-05	1.2099e-05	419.31	184.65	187.21	92.79	1.1668e-05	100.39	270.580	257.713	248.928	179.184	334.507	317.142	177.755	184.512	323.355	316.403	182.344	186.232	188.455	193.233	337.778	190.408	-8191	255	
46154.473	1	1	0	0	0.054276	0.21861	0.12798	0.20848	0.14503	0.057937	0.17577	0.23097	0.20131	0.23796	0.37943	0.15503	0.14367	0.36582	0.15637	0.079807	-2.6583	-3.1479	-2.6771	-3.5604	-2.8688	-2.9396	-3.5208	-2.775	-3.1583	-3.3667	-2.6333	-3.5229	-3.0833	-2.9583	-3.5479	-2.8854	330.273	205.416	452.350	441.033	258.630	297.254	411.367	444.455	414.621	455.115	442.810	264.353	455.480	511.159	257.413	375.544	0.0010655	0.00027587	0.00010145	1122.1	1.1001e-05	8.0202e-06	943.14	452.14	1.0138e-05	9.5368e-06	435.33	191.38	194.92	95.433	7.2056e-06	103.01	0.0010817	0.0010707	0.00030385	1071.1	1.1744e-05	1.1945e-05	898.47	433.52	1.1936e-05	1.2281e-05	417.87	184.06	187.49	92.477	1.2142e-05	99.659	270.242	255.098	225.663	179.167	347.290	338.114	177.739	184.564	315.782	326.562	182.206	186.327	188.779	193.377	313.582	190.336	-8191	255	
46154.566	1	1	0	0	0.084822	0.019957	0.17824	0.14737	0.28369	0.21014	0.071297	0.40342	0.15368	0.16082	0.32872	0.21289	0.17616	0.19199	0.068777	0.32051	-2.7292	-3.5208	-2.3979	-3.3812	-2.8917	-2.7021	-3.4896	-2.8	-3.0187	-3.4292	-2.6667	-3.6521	-3.1937	-2.9104	-3.55	-2.8833	473.931	348.431	193.034	429.905	458.740	254.444	251.173	454.447	425.542	273.571	397.986	440.739	177.872	495.488	457.123	462.665	0.0011134	0.0010909	0.00031961	1116.4	1.0971e-05	9.1803e-06	929.08	450.01	6.0677e-06	9.7206e-06	433.42	190.76	193.93	95.038	8.9742e-06	102.22	0.0011445	0.0011302	0.00031779	1067.2	1.2047e-05	1.2629e-05	891.72	432.84	1.1966e-05	1.2162e-05	416.67	183.89	187.06	92.18	1.196e-05	99.044	270.197	249.924	238.459	179.055	268.590	329.233	177.750	184.657	297.684	315.369	182.050	186.570	188.613	193.447	282.893	190.016	-8191	255	
46154.664	1	1	0	0	0.17587	0.11088	0.090719	0.032692	0.091868	0.13314	0.27936	0.39517	0.32681	0.18661	0.34027	0.22671	0.13002	0.14164	0.272	0.42864	-2.5604	-3.3604	-2.5229	-3.3583	-3.125	-2.5625	-3.4896	-3.1521	-2.7729	-3.5583	-2.5792	-3.4313	-3.3083	-2.6604	-3.4292	-3.0604	382.830	192.551	501.989	366.559	228.186	219.626	383.795	470.777	308.484	426.863	495.479	210.271	506.196	493.292	520.996	421.693	0.0010558	0.000973	0.00021085	1118.1	5.3515e-06	7.4023e-06	933.86	447.29	7.8978e-06	1.7049e-06	432.79	188.08	192.78	94.093	1.1094e-05	101.82	0.0011008	0.0010884	0.00030054	1067.9	1.1409e-05	1.1654e-05	894.27	430.78	1.1537e-05	1.1581e-05	415.16	181.68	185.57	91.25	1.1567e-05	98.419	268.810	242.288	281.433	179.351	325.125	281.974	177.947	184.399	318.397	356.283	182.206	186.620	188.523	193.358	304.349	190.138	-8191	255	
46154.785	1	1	0	0	0.10081	0.07823	0.14554	0.1746	0.3242	0.28679	0.13161	0.1083	0.26755	0.012636	0.50907	0.21751	0.26561	0.22047	0.16697	0.3289	-2.3812	-3.5646	-2.6479	-3.1229	-3.2438	-2.5125	-3.35	-3.1125	-2.7292	-3.525	-2.6292	-3.15	-3.3604	-2.7708	-3.4167	-3.1667	368.928	270.613	183.249	451.200	478.278	198.272	434.667	377.749	380.062	372.306	513.854	463.057	461.590	183.180	512.757	464.000	0.0010625	0.00068904	8.4744e-05	1121.6	1.2672e-05	6.7705e-06	937.08	449.28	7.4046e-06	6.2121e-06	432.26	189.38	193.48	94.585	9.6002e-06	102.26	0.0010811	0.001079	0.00030488	1071.3	1.1213e-05	1.1793e-05	895.07	430.81	1.1547e-05	1.1764e-05	416.1	182.72	186.1	91.631	1.1822e-05	99.164	270.780	280.734	314.798	178.994	356.232	289.842	177.930	184.542	333.426	319.285	182.075	186.473	188.689	193.257	317.401	190.502	-8191	255	
46154.879	1	1	0	0	0.099924	0.052703	0.16051	0.21739	0.14205	0.22139	0.090004	0.2608	0.27227	0.14414	0.18016	0.13948	0.063282	0.38988	0.31414	0.2436	-2.4458	-3.5229	-2.7062	-3.1521	-3.375	-2.5333	-3.3958	-3.2979	-2.8583	-3.5062	-2.8333	-3.0125	-3.4896	-2.7021	-3.2875	-3.5542	363.273	301.903	492.471	519.179	442.748	504.786	490.915	446.458	504.984	516.329	351.955	298.507	445.412	170.296	454.488	522.572	0.0010657	0.00059541	0.000173	1119.9	5.3727e-06	1.2504e-05	936.86	451.38	9.1851e-06	5.7757e-06	431.23	189.15	193.51	93.846	7.0524e-06	101.42	0.0011015	0.0010848	0.00030535	1071.5	1.1563e-05	1.1984e-05	892.88	431.48	1.1759e-05	1.206e-05	414.77	182.6	185.99	91.287	1.1733e-05	98.106	271.301	232.776	212.887	179.217	365.952	305.033	177.898	184.662	339.719	291.128	182.070	186.508	188.454	193.390	278.569	189.992	-8191	255	
46154.953	1	1	0	0	0.10832	0.298	0.14052	0.078034	0.14776	0.12313	0.20961	0.39853	0.080752	0.01411	0.29773	0.12551	0.1832	0.39935	0.11997	0.25842	-2.2167	-3.4708	-2.7458	-2.9146	-3.3729	-2.6312	-3.2521	-3.2562	-2.5604	-3.3271	-2.9646	-2.8896	-3.5167	-2.8688	-3.0479	-3.225	313.971	452.602	176.333	435.582	499.035	480.368	446.688	431.399	443.489	388.093	396.963	482.851	495.048	481.100	392.525	427.611	0.0010599	0.00096508	0.00016609	1119.3	1.1102e-05	6.0587e-06	934.05	449.28	6.6838e-06	6.9293e-06	432.5	189.41	193.06	94.301	8.1021e-06	101.69	0.0010888	0.001081	0.0003049	1069	1.1617e-05	1.1988e-05	892.61	430.96	1.1829e-05	1.2228e-05	414.93	182.22	186.02	91.571	1.2093e-05	98.405	269.254	235.207	245.002	179.209	325.729	325.801	177.778	184.493	344.777	349.451	182.264	186.489	188.597	193.354	286.992	190.295	-8191	255	
46155.070	1	1	0	0	0.24995	0.2424	0.074325	0.1109	0.14141	0.088747	0.115	0.078026	0.16627	0.10635	0.18357	0.39878	0.018815	0.28726	0.12744	0.15999	-2.2583	-3.3104	-2.8312	-2.9708	-3.5125	-2.6833	-3.0667	-3.3208	-2.6688	-3.2729	-3.2313	-2.6688	-3.6375	-2.8833	-3.0333	-3.5583	517.176	308.899	188.656	285.747	261.051	312.426	456.967	435.953	268.701	346.019	504.480	482.677	311.447	509.812	369.337	477.991	0.0010569	0.00083186	0.00026302	1114.5	7.2656e-06	6.6617e-06	938.49	451.78	7.5495e-06	1.0049e-05	433.04	190.51	193.62	94.496	2.455e-06	102.25	0.0011236	0.001111	0.00031125	1068	1.1917e-05	1.2406e-05	894.58	432.54	1.1956e-05	1.2226e-05	415.95	183.3	187.23	91.716	1.2211e-05	99.219	267.787	262.655	277.059	179.271	361.022	320.090	177.754	184.679	313.082	270.861	182.063	186.465	188.525	193.326	301.701	190.175	-8191	255	
46155.168	1	1	0	0	0.10931	0.062857	0.20477	0.15465	0.067057	0.051857	0.059698	0.35009	0.18578	0.06771	0.129	0.20414	0.18312	0.144	0.30931	0.086517	-2.2812	-3.3063	-3.0854	-2.7354	-3.5292	-2.7521	-3.0021	-3.6167	-2.5958	-3.2833	-3.3521	-2.8187	-3.5563	-3.1437	-2.7917	-3.4854	372.828	189.110	255.899	480.551	205.971	486.511	409.903	503.470	285.122	364.542	490.588	489.540	368.136	497.333	202.002	444.211	0.0011017	0.00084345	0.00021367	1118.3	1.0401e-05	8.1553e-06	941.34	450.28	6.0948e-06	6.5208e-06	436.55	191.38	195.25	95.396	1.0379e-05	103.32	0.0011141	0.0011075	0.00030682	1069.3	1.1892e-05	1.2447e-05	898.48	433.62	1.2153e-05	1.2139e-05	419.18	184.8	187.68	92.329	1.2253e-05	99.957	266.537	273.960	261.358	179.389	324.501	289.848	177.861	184.664	286.583	315.927	182.302	186.358	188.442	193.725	308.844	190.335	-8191	255	
46155.266	1	1	0	0	0.20257	0.24554	0.34743	0.20135	0.24852	0.29537	0.1564	0.3675	0.073057	0.11957	0.18498	0.11223	0.26602	0.27145	0.16256	0.22299	-2.0625	-3.0083	-3.3354	-2.8667	-3.4083	-2.9	-2.9938	-3.4313	-2.7458	-3.0125	-3.3125	-2.6208	-3.3375	-3.1521	-2.4771	-3.5958	194.021	208.093	279.996	508.689	475.982	388.894	216.107	467.274	321.588	235.257	186.083	281.432	483.333	473.645	436.535	420.673	0.0010449	0.00073846	0.00015023	1116.7	6.8258e-06	6.0519e-06	935.34	449.14	7.0837e-06	1.0158e-05	435.39	191.58	195	95.035	8.9255e-06	103.2	0.0011278	0.0011067	0.00031209	1069.7	1.1841e-05	1.2322e-05	896.53	433.36	1.2316e-05	1.2065e-05	418.75	184.5	188.17	92.296	1.2424e-05	99.774	269.898	252.315	219.645	179.079	327.765	346.222	177.782	184.658	332.482	335.881	182.186	186.404	188.680	193.503	326.577	190.503	-8191	255	
46155.359	1	1	0	0	0.13426	0.088544	0.22916	0.090923	0.18971	0.13085	0.24456	0.15321	0.14589	0.22877	0.075989	0.1501	0.13612	0.24938	0.15407	0.20411	-2.2438	-2.9521	-3.1958	-2.6833	-3.3271	-3.0042	-2.7521	-3.5875	-2.6979	-3.05	-3.4625	-2.8375	-3.3958	-3.1792	-2.6479	-3.475	421.614	458.212	511.094	243.646	275.375	191.399	397.853	492.856	440.844	195.725	402.219	490.524	186.606	505.609	267.892	166.525	0.0010754	0.00082884	0.00019752	1120.7	1.1212e-05	5.5617e-06	934.97	451.12	8.1339e-06	1.0965e-05	435.76	192.9	195.76	95.537	3.8622e-06	103.62	0.0011406	0.0011613	0.00031651	1070.4	1.2171e-05	1.2443e-05	895.39	433.95	1.2263e-05	1.2624e-05	421.17	185.84	189.09	92.823	1.2553e-05	100.49	265.321	271.155	258.195	179.483	341.194	348.641	177.955	184.416	340.066	348.579	182.035	186.775	188.851	193.439	262.276	190.467	-8191	255	
46155.480	1	1	0	0	0.11705	0.086608	0.11127	0.17016	0.13667	0.22494	0.12257	0.31508	0.11653	0.088991	0.10195	0.20832	0.3368	0.49492	0.055189	0.11932	-2.5479	-2.875	-3.3479	-2.6979	-3.1667	-3.2938	-2.7042	-3.5729	-3.0812	-2.7396	-3.5479	-2.9396	-3.3312	-3.2313	-2.7562	-3.4979	454.839	289.843	269.604	458.209	217.302	484.980	175.461	459.911	282.643	386.767	314.881	424.904	180.752	514.289	366.388	503.055	0.0010564	0.00063903	0.0002686	1122	7.1559e-06	7.5162e-06	939.47	452.88	1.1519e-05	1.506e-05	436.25	192.77	197	95.766	8.401e-06	104.6	0.0011545	0.0011466	0.00031885	1070.2	1.2038e-05	1.2614e-05	899.44	435.16	1.2193e-05	1.2388e-05	422.19	186.4	189.32	93.023	1.2344e-05	101.18	271.639	240.376	253.191	179.372	341.416	292.614	177.954	184.621	337.584	294.244	182.113	186.355	188.734	193.374	338.402	190.223	-8191	255	
46155.555	1	1	0	0	0.22281	0.13454	0.13313	0.27946	0.16485	0.082074	0.17362	0.28075	0.02438	0.11134	0.26022	0.20179	0.32007	0.23018	0.16891	0.35458	-2.6917	-2.7687	-3.4667	-2.8375	-3.1104	-3.3688	-2.6021	-3.2542	-2.9521	-2.6375	-3.3875	-2.775	-3.1375	-3.6437	-2.7229	-3.4083	276.755	230.790	511.612	488.460	432.958	247.893	371.306	502.513	520.379	251.582	518.274	518.292	488.185	462.222	381.269	473.090	0.0010782	0.00072239	0.00020905	1116.7	8.6628e-06	9.7573e-06	941.11	453.26	1.0625e-05	1.1353e-05	438.35	192.37	194.99	95.394	1.5008e-05	104.18	0.001151	0.0011326	0.00031243	1070.9	1.208e-05	1.2319e-05	898.56	434.38	1.1824e-05	1.2357e-05	421.74	185.78	188.07	92.729	1.2301e-05	100.95	267.445	245.054	258.933	179.287	327.710	326.420	177.900	184.745	330.235	314.652	182.317	186.622	188.766	193.362	322.001	190.273	-8191	255	
46155.648	1	1	0	0	0.04814	0.16098	0.21009	0.069383	0.069341	0.091103	0.12572	0.40563	0.12902	0.028419	0.16376	0.1485	0.18024	0.26739	0.073457	0.19853	-2.625	-2.7313	-3.5583	-2.9688	-3.0625	-3.4396	-2.7979	-3.4437	-3.2417	-2.7146	-3.6042	-3.0625	-3.0271	-3.6583	-2.6042	-3.3937	478.590	271.678	360.386	515.031	455.774	192.722	282.070	509.680	475.158	429.660	466.694	182.673	186.899	172.946	261.488	456.274	0.0010704	0.00099726	0.00035506	1117.5	8.931e-06	9.4551e-06	934.86	449.7	9.702e-06	1.0735e-05	432.24	191.61	194.12	94.921	1.2751e-05	103.83	0.0011098	0.0011142	0.00031134	1069.8	1.1846e-05	1.204e-05	895.96	432.72	1.1841e-05	1.1925e-05	416.86	184.34	187.21	92.16	1.2052e-05	100.23	273.107	248.858	257.225	178.906	345.922	303.557	177.739	184.307	325.603	322.383	182.576	186.435	188.520	193.477	329.163	190.370	-8191	255	
46155.746	1	1	0	0	0.24311	0.29591	0.20004	0.26889	0.073576	0.13704	0.17158	0.29937	0.14263	0.11672	0.18302	0.080499	0.23887	0.41913	0.042126	0.21822	-2.6854	-2.5187	-3.4917	-2.9229	-2.8333	-3.3583	-2.8104	-3.3063	-3.2125	-2.6229	-3.4854	-3.0854	-2.8208	-3.6271	-2.8063	-3.0854	172.614	513.000	329.967	495.462	176.574	466.999	446.888	409.234	211.213	400.394	195.630	464.213	474.158	181.140	419.044	481.189	0.0010372	0.0010202	8.7716e-05	1116.9	1.3961e-05	9.4461e-06	935.17	450.41	8.7268e-06	6.1161e-06	435.77	191.59	193.9	95.117	7.776e-06	103.63	0.0010873	0.0010928	0.00030191	1068	1.1651e-05	1.1632e-05	893.55	431.81	1.154e-05	1.1863e-05	418.84	184.28	187.01	92.518	1.1714e-05	100.46	267.358	254.673	234.973	178.890	351.265	253.033	177.659	184.984	316.685	311.589	182.237	186.248	188.787	193.368	329.273	190.464	-8191	255	
46155.863	1	1	0	0	0.27802	0.11938	0.15813	0.24188	0.038384	0.24176	0.32524	0.11666	0.06611	0.084496	0.20568	0.21462	0.20327	0.18225	0.16353	0.22362	-3.0125	-2.5896	-3.4188	-3.0292	-2.6646	-3.4333	-2.7625	-2.9667	-3.3	-2.4875	-3.4583	-3.1479	-2.6833	-3.5458	-2.5229	-3.0917	205.972	183.832	438.055	478.318	317.571	493.103	430.147	488.644	258.301	501.604	461.363	475.100	184.844	523.925	269.006	365.525	0.0011401	0.0012643	0.00024668	1118.9	5.9434e-06	1.2036e-05	938.45	450.74	7.2068e-06	5.6515e-06	435.33	191.12	194.13	95.199	8.9642e-06	104.14	0.0010953	0.0010784	0.0002991	1069.3	1.1507e-05	1.1951e-05	896.88	432.87	1.151e-05	1.1651e-05	419.33	184.65	187.18	92.322	1.1747e-05	100.73	270.587	271.383	272.828	179.246	318.060	320.859	177.302	184.591	344.274	312.392	182.073	186.505	188.563	193.413	288.929	190.179	-8191	255	
46155.961	1	1	0	0	0.19414	0.025324	0.15414	0.23699	0.28124	0.23762	0.23666	0.10771	0.15206	0.062775	0.12778	0.16173	0.23706	0.18814	0.25141	0.29117	-3.1667	-2.3125	-3.4104	-3.2812	-2.5479	-3.5125	-2.8646	-3.05	-3.3937	-2.5625	-3.3833	-3.3229	-2.6688	-3.5563	-2.9917	-2.8625	478.267	501.424	504.182	501.032	495.117	475.634	524.933	508.207	311.893	285.372	280.144	340.895	219.249	508.509	298.288	227.600	0.0010951	0.0010919	0.00017895	1117.6	1.1983e-05	1.0977e-05	943.65	450.29	7.194e-06	8.0338e-06	438.77	191.78	196.1	95.527	8.0762e-06	104.59	0.0010883	0.0010792	0.00030225	1070.5	1.1571e-05	1.1922e-05	900.39	433.71	1.15e-05	1.1899e-05	421.65	185.43	188.15	92.557	1.1846e-05	101.05	267.921	265.766	266.670	178.990	332.587	318.854	177.682	184.682	344.250	338.360	182.291	186.394	188.542	193.534	261.999	190.235	-8191	255	
46156.059	1	1	0	0	0.021339	0.2474	0.25537	0.15918	0.19258	0.040455	0.35465	0.28677	0.25262	0.029452	0.24116	0.18861	0.12425	0.27149	0.07763	0.25835	-3.1542	-2.7292	-3.1917	-3.4125	-2.5042	-3.3833	-3.1271	-2.85	-3.4083	-2.7104	-3.1854	-3.5854	-2.6708	-3.3688	-3.1813	-3.0708	305.292	423.980	516.690	459.696	232.828	320.898	425.125	191.173	278.890	319.616	467.212	481.733	215.293	455.470	177.905	465.990	0.0011151	0.0010049	0.0003343	1115.9	1.533e-05	1.0557e-05	936.76	451.68	5.8448e-06	5.4428e-06	436.89	191.91	194.58	94.849	7.9167e-06	103.31	0.0011057	0.001083	0.00030734	1069.7	1.1645e-05	1.2054e-05	898.03	434.57	1.1798e-05	1.2054e-05	419.81	185.12	187.5	92.008	1.1933e-05	100.07	267.653	276.694	272.967	179.020	345.117	325.561	177.930	184.633	331.801	339.156	182.386	186.342	188.999	193.553	314.841	190.385	-8191	255	
46156.152	1	1	0	0	0.046997	0.1247	0.18148	0.1787	0.17666	0.02412	0.089879	0.13794	0.062749	0.11928	0.021038	0.064796	0.35279	0.10549	0.1236	0.24879	-3.05	-2.6167	-3.1208	-3.5042	-2.4688	-3.3063	-3.1792	-2.8542	-3.4625	-2.6771	-3.1458	-3.5875	-2.6479	-3.3417	-3.1479	-2.975	338.257	447.374	241.797	338.651	272.741	376.180	178.653	457.087	273.817	464.935	265.941	468.805	219.902	439.151	385.325	504.211	0.001093	0.00071535	0.00012177	1112.2	5.5866e-06	2.7913e-06	939.95	451.32	7.1817e-06	8.0283e-06	437.46	192.81	195.34	94.664	4.2425e-06	103.74	0.0011035	0.0011101	0.00030981	1068.1	1.1939e-05	1.1998e-05	899.84	433.51	1.1692e-05	1.2215e-05	421.76	185.54	188.05	92.061	1.192e-05	100.11	270.902	242.263	220.094	179.222	312.619	237.806	177.861	184.894	322.904	334.923	182.025	186.189	188.473	193.554	312.863	190.388	-8191	255	
46156.250	1	1	0	0	0.16171	0.22284	0.17784	0.11592	0.28144	0.30147	0.20283	0.16183	0.28093	0.20123	0.13731	0.15849	0.24365	0.18553	0.046355	0.087793	-3.1729	-2.7208	-2.7917	-3.6229	-2.5125	-3.4396	-3.3583	-2.8187	-3.3917	-2.9042	-2.8896	-3.5229	-2.6104	-3.3187	-3.3354	-2.7479	431.720	289.603	282.305	494.027	200.610	324.635	445.859	495.707	186.945	301.657	388.412	504.002	193.370	172.477	335.513	519.385	0.0011436	0.0011597	0.00023315	1123.3	5.5912e-06	3.8651e-06	941.4	451.54	7.6059e-06	9.2702e-06	436.78	191.67	194.42	94.416	3.5292e-06	103.4	0.0011173	0.0010927	0.00030556	1072.8	1.1779e-05	1.2274e-05	900.45	433.07	1.1887e-05	1.2073e-05	420.04	184.7	187.1	91.603	1.2059e-05	99.84	268.843	265.078	279.856	179.231	332.094	305.272	177.775	184.566	352.341	332.567	182.203	186.697	188.607	193.543	295.715	190.473	-8191	255	
46156.344	1	1	0	0	0.11881	0.16209	0.017872	0.13101	0.16376	0.15958	0.42423	0.24455	0.1274	0.042132	0.13404	0.017483	0.1353	0.3027	0.074792	0.047343	-3.0729	-2.9979	-2.6521	-3.4771	-2.7875	-2.9146	-3.3979	-2.9396	-3.4375	-3.175	-2.8167	-3.5979	-2.8958	-3	-3.4583	-2.5854	445.915	401.672	248.040	183.982	460.300	252.150	525.329	506.733	301.233	283.432	462.053	452.783	482.674	506.587	204.271	187.710	0.0010733	0.0010992	0.00029852	1115	1.3519e-05	8.8291e-06	940.51	447.99	7.2227e-06	3.9272e-06	434.8	189.64	193.27	94.051	8.4352e-06	101.39	0.0011243	0.0011195	0.00030897	1068.8	1.1679e-05	1.2184e-05	898.92	431.93	1.1819e-05	1.1983e-05	418.68	183.4	186.25	91.065	1.1918e-05	98.68	270.573	274.971	267.455	179.018	322.815	364.581	177.904	184.731	334.020	331.436	182.298	186.679	188.505	193.716	305.127	190.555	-8191	255	
46156.465	1	1	0	0	0.056003	0.13833	0.21927	0.15938	0.14277	0.056304	0.2818	0.28962	0.25391	0.24785	0.075882	0.10594	0.11894	0.38758	0.25378	0.16346	-3.0208	-3.0979	-2.5646	-3.6042	-2.7542	-3.0729	-3.475	-2.8646	-3.2625	-3.1542	-2.7896	-3.6562	-2.9583	-3.05	-3.5271	-2.8229	294.760	316.478	447.583	467.107	501.799	437.420	464.030	214.660	392.852	373.335	311.332	168.367	435.151	474.750	185.922	466.262	0.0010953	0.00082315	0.00024368	1115.1	6.7747e-06	7.1982e-06	931.3	446.66	8.4154e-06	3.6539e-06	429.12	187.52	191.8	93.056	1.0223e-05	101.12	0.0011303	0.0011018	0.00031243	1066	1.1547e-05	1.2215e-05	893.92	429.46	1.1856e-05	1.1839e-05	414.07	181.03	184.31	90.227	1.1779e-05	97.754	270.030	249.285	219.338	179.216	359.644	342.031	177.568	184.520	346.652	308.967	182.206	186.714	188.666	193.613	294.604	190.514	-8191	255	
46156.562	1	1	0	0	0.09885	0.035179	0.080757	0.21393	0.088803	0.14887	0.234	0.10267	0.069656	0.13627	0.17163	0.045248	0.28893	0.06527	0.083031	0.16059	-2.7917	-3.2812	-2.6417	-3.5687	-3.0687	-2.8104	-3.5458	-2.8125	-3.15	-3.5917	-2.7354	-3.5042	-3.2292	-2.8125	-3.4688	-2.7958	308.692	394.645	436.596	478.971	500.092	293.651	490.038	481.893	423.309	366.028	515.003	174.314	520.392	199.208	348.886	387.224	0.00094777	0.00036121	0.00015648	1109.3	1.0626e-05	8.1034e-06	925.66	445.9	6.2032e-06	5.8386e-06	429.91	187.28	190.75	93.024	6.6716e-06	101.22	0.0010757	0.0010946	0.00030371	1064.2	1.1506e-05	1.2033e-05	888.43	429.18	1.1609e-05	1.1863e-05	413.81	180.79	184.15	90.257	1.1989e-05	97.961	270.842	297.063	288.371	179.250	350.807	308.390	177.849	184.769	283.912	322.239	182.352	186.433	188.441	193.478	276.729	190.361	-8191	255	
46156.656	1	1	0	0	0.10937	0.075903	0.35763	0.14897	0.12772	0.12224	0.20429	0.16045	0.10121	0.13742	0.11007	0.079552	0.20585	0.1227	0.36718	0.29205	-2.6021	-3.4917	-2.55	-3.3646	-3.075	-2.8542	-3.6375	-3.2125	-3.0833	-3.4667	-2.7604	-3.3438	-3.2042	-2.9458	-3.6937	-3.1417	204.925	380.305	491.212	190.263	504.444	181.552	488.493	303.614	460.189	192.705	434.757	344.878	214.973	236.925	330.189	515.848	0.0010638	0.0012196	0.00022078	1106.1	6.6719e-06	7.0714e-06	933.82	445.14	7.3366e-06	5.483e-06	428.89	186.44	189.5	92.492	1.0179e-05	100.61	0.0011015	0.0010955	0.00030723	1063.2	1.1872e-05	1.2322e-05	889.79	427.78	1.1673e-05	1.2144e-05	412.99	180.33	183.19	89.637	1.2083e-05	97.409	268.741	266.071	271.097	179.134	330.909	315.695	177.738	184.522	330.557	320.131	182.446	186.634	188.804	193.867	303.647	190.465	-8191	255	
46156.754	1	1	0	0	0.11853	0.090936	0.2928	0.12438	0.14665	0.27006	0.061639	0.16953	0.011918	0.17867	0.059071	0.25178	0.11559	0.21591	0.16233	0.14486	-2.4562	-3.5687	-2.7458	-3.4021	-3.2875	-2.4833	-3.4583	-2.9875	-2.8875	-3.5708	-2.7292	-3.2042	-3.5958	-2.7375	-3.3833	-3.0854	328.630	227.190	494.444	504.561	436.924	369.770	246.463	424.691	217.889	443.788	198.616	426.747	494.348	502.015	175.859	418.517	0.0010566	0.00080625	0.0002577	1114.7	1.0996e-05	5.8904e-06	932.27	443.71	4.2e-06	9.3822e-06	429.73	186.44	189.82	92.223	6.8439e-06	100.23	0.0011132	0.001098	0.00030544	1065.3	1.1892e-05	1.2107e-05	891.26	427.61	1.1804e-05	1.2065e-05	412.58	180.01	183	89.458	1.2038e-05	96.913	265.958	273.419	283.645	179.162	332.110	292.823	178.016	184.446	321.824	329.741	182.260	186.632	188.719	193.735	269.902	190.472	-8191	255	
46156.848	1	1	0	0	0.060555	0.17913	0.22473	0.14476	0.11438	0.14952	0.077488	0.20789	0.043147	0.13255	0.22474	0.1776	0.097504	0.20966	0.13603	0.11795	-2.4562	-3.5417	-2.6562	-3.1229	-3.3917	-2.7104	-3.5687	-3.2271	-2.8604	-3.6667	-2.8438	-3.2083	-3.6021	-2.6979	-3.3917	-3.4188	294.676	486.644	512.978	508.747	351.827	331.254	492.119	461.615	462.882	390.772	401.356	242.060	176.457	496.593	426.526	460.456	0.0010411	0.00083004	0.00028687	1108.7	6.2177e-06	7.6204e-06	925.91	442.32	8.6549e-06	1.1248e-05	426.78	185.32	188.94	91.596	1.2938e-05	99.361	0.0011069	0.0010875	0.00031338	1063.4	1.1899e-05	1.1985e-05	884.96	425.85	1.1686e-05	1.1912e-05	410.18	178.69	182.38	89.05	1.2025e-05	96.213	266.907	281.460	255.801	179.171	317.597	303.377	177.710	184.465	333.612	320.191	182.211	186.545	188.887	193.674	340.787	190.397	-8191	255	
46156.945	1	1	0	0	0.22863	0.086428	0.076296	0.21246	0.062366	0.22202	0.19205	0.22176	0.21826	0.24058	0.11411	0.2175	0.11828	0.27676	0.055198	0.29874	-2.4208	-3.3229	-2.8833	-3.1417	-3.6937	-2.7354	-3.4771	-3.3563	-2.6521	-3.5375	-3.0896	-3.1063	-3.7042	-2.9729	-3.3146	-3.4208	376.556	468.987	184.833	409.517	372.887	290.786	474.460	475.651	206.948	454.407	389.846	383.058	519.994	434.735	404.575	172.042	0.0010671	0.00084327	0.0002445	1110.5	4.36e-06	1.0573e-05	921.87	442.37	7.8771e-06	1.0985e-05	424.03	186.12	188.49	91.456	1.254e-05	99.769	0.0010994	0.0011045	0.00030649	1062.4	1.1934e-05	1.2148e-05	883.02	426.21	1.1821e-05	1.2136e-05	409.32	178.83	182.18	89.01	1.2191e-05	96.371	274.447	259.494	276.501	179.189	315.188	317.846	177.808	184.664	312.833	308.617	181.927	186.548	188.958	193.618	307.913	190.257	-8191	255	
46157.039	1	1	0	0	0.21662	0.19146	0.20492	0.19854	0.064968	0.13787	0.097664	0.1038	0.20753	0.11282	0.21328	0.16002	0.19227	0.13278	0.034719	0.13155	-2.3854	-3.4	-2.9375	-3.0229	-3.4958	-2.7396	-3.3979	-3.5833	-2.5917	-3.6375	-3.2062	-2.9104	-3.6937	-2.7979	-3.1542	-3.6979	270.160	378.494	473.626	407.348	266.286	477.443	499.708	410.037	356.123	179.472	500.857	182.885	462.254	524.295	406.027	444.782	0.0010743	0.00067927	0.00017355	1117.2	1.2211e-05	6.2277e-06	925.26	443.12	9.8473e-06	1.7243e-06	423.17	183.88	187.14	91.957	7.9785e-06	99.698	0.0011192	0.0011097	0.00030808	1066	1.1711e-05	1.2313e-05	884.53	426.51	1.1945e-05	1.2119e-05	408.42	177.84	181.41	89.133	1.2342e-05	96.533	270.769	245.243	243.629	179.061	317.662	345.794	177.670	184.680	330.999	370.447	181.985	186.564	188.981	193.556	290.345	190.411	-8191	255	
46157.160	1	1	0	0	0.27195	0.12664	0.13574	0.26376	0.12292	0.24595	0.18769	0.042844	0.15334	0.062038	0.067362	0.1355	0.05512	0.31817	0.15114	0.21193	-2.2479	-3.45	-3.1646	-2.8875	-3.525	-2.8104	-3.3479	-3.7021	-2.7396	-3.4917	-3.3771	-2.8979	-3.6917	-2.9562	-2.8688	-3.6229	283.024	506.185	415.598	211.432	285.676	285.704	244.697	328.634	493.407	465.398	172.394	479.148	402.136	481.054	245.295	458.775	0.0010705	0.0011929	0.00023338	1117.5	7.2122e-06	7.019e-06	926.3	442.46	1.322e-05	7.4809e-06	423.68	184.3	189.31	92.084	5.7731e-06	99.263	0.0011214	0.0011306	0.00030969	1068.8	1.2152e-05	1.2635e-05	886.08	427.27	1.2425e-05	1.2627e-05	409.24	178.37	182.54	89.236	1.2801e-05	96.16	270.064	256.510	279.598	179.235	346.876	327.761	177.964	184.694	330.651	313.981	182.007	186.511	188.791	193.522	326.496	190.373	-8191	255	
46157.258	1	1	0	0	0.14598	0.068875	0.25366	0.097419	0.16571	0.17996	0.14781	0.1279	0.10162	0.095544	0.21113	0.14658	0.32938	0.25505	0.1365	0.23479	-2.3937	-3.3667	-3.1146	-2.8583	-3.3646	-2.9521	-3.0333	-3.6833	-2.5333	-3.2188	-3.2188	-2.6792	-3.8	-3.0833	-2.8458	-3.6813	343.158	461.183	418.334	279.138	256.527	517.023	411.732	449.607	395.322	280.095	421.049	484.461	463.828	514.018	179.823	486.752	0.0010491	0.00083393	0.00039918	1111.6	9.2758e-06	7.6547e-06	923.5	445.78	9.0929e-06	1.1804e-06	424.04	185.2	189.88	91.796	1.0296e-05	99.447	0.0011585	0.0011498	0.0003163	1064.1	1.1837e-05	1.2347e-05	883.57	427.53	1.2083e-05	1.2348e-05	408.72	178.45	183.41	89.323	1.2211e-05	96.419	268.227	242.002	247.405	179.180	326.729	339.619	177.965	184.530	316.719	358.026	182.098	186.482	188.859	193.658	306.938	190.326	-8191	255	
46157.355	1	1	0	0	0.14712	0.17372	0.18152	0.12823	0.2697	0.059793	0.19051	0.2094	0.24172	0.079711	0.17369	0.21718	0.10166	0.24586	0.21421	0.030511	-2.2792	-3.05	-3.3792	-2.7	-3.5458	-2.9146	-2.8396	-3.6833	-2.7125	-3.1937	-3.5458	-2.7313	-3.3604	-3.3521	-2.6583	-3.6354	438.206	378.776	458.530	241.917	503.321	383.238	424.617	493.590	180.638	420.365	464.077	446.178	477.388	472.656	378.676	208.570	0.0010418	0.00077847	0.00012483	1112.4	2.842e-06	6.7192e-06	928.72	444.76	8.2234e-06	6.4327e-06	423.58	184.76	189.44	91.413	5.7805e-06	99.058	0.001105	0.0011228	0.00030675	1065.6	1.1674e-05	1.2101e-05	885.95	427	1.1946e-05	1.2105e-05	408.04	178.24	182.46	88.857	1.1843e-05	95.899	269.841	286.228	268.912	179.086	315.642	365.830	177.638	184.549	345.473	299.207	182.305	186.728	188.786	193.567	285.915	190.467	-8191	255	
46157.426	1	1	0	0	0.16125	0.20258	0.046552	0.21324	0.26909	0.079379	0.10872	0.2234	0.1385	0.14792	0.23107	0.27369	0.35301	0.17853	0.18906	0.1585	-2.2271	-2.7854	-3.3625	-2.7167	-3.175	-3.1979	-2.7812	-3.6104	-2.7188	-2.9188	-3.5938	-2.6583	-3.2625	-3.2708	-2.6083	-3.4854	453.065	491.826	360.817	413.574	216.843	502.974	375.645	445.824	230.526	284.571	432.273	476.415	517.760	487.373	484.958	507.680	0.0010858	0.00085783	0.00027742	1113.8	8.9363e-06	8.1367e-06	922.89	445.86	6.1421e-06	4.8551e-06	424.25	185.13	188.45	91.839	7.1644e-06	99.295	0.0010725	0.0010719	0.00029795	1065.5	1.1327e-05	1.1589e-05	884.74	428.21	1.1524e-05	1.1597e-05	409.84	178.35	182.37	89.143	1.1546e-05	96.19	267.664	241.801	228.873	179.295	390.699	281.680	177.660	184.692	330.193	357.596	182.341	186.514	188.898	193.754	276.810	190.754	-8191	255	
46157.547	1	1	0	0	0.22421	0.18386	0.095865	0.075381	0.084173	0.12493	0.1706	0.12702	0.17705	0.12183	0.30047	0.25698	0.072925	0.27131	0.37964	0.16926	-2.6417	-2.9104	-3.3438	-2.75	-3.25	-3.2396	-2.7438	-3.5104	-2.7313	-2.5396	-3.5417	-2.7729	-3.1958	-3.4646	-2.4813	-3.3792	521.884	221.717	429.151	488.783	312.925	372.602	396.841	346.769	192.363	424.448	200.206	522.173	463.568	502.570	393.363	470.823	0.00098372	0.00064357	0.00017734	1118.2	6.4182e-06	8.2268e-06	924.26	445.77	8.6242e-06	2.3629e-06	424.24	183.47	188.87	91.57	1.0319e-05	98.14	0.0010471	0.0010702	0.0002915	1068.5	1.1149e-05	1.1579e-05	885.46	428.11	1.1382e-05	1.1841e-05	407.1	176.78	181.88	88.638	1.14e-05	94.7	267.234	292.617	243.044	179.196	348.704	303.774	177.908	184.734	321.444	244.335	182.039	186.723	188.840	193.602	324.185	190.511	-8191	255	
46157.641	1	1	0	0	0.12433	0.086777	0.10498	0.18165	0.18599	0.095341	0.26295	0.14471	0.063517	0.40787	0.2556	0.14729	0.1069	0.28648	0.085921	0.16665	-2.6771	-2.4667	-3.5604	-2.7604	-3.0229	-3.2042	-2.8146	-3.3958	-3.1729	-2.6937	-3.525	-2.8375	-3.0125	-3.5729	-2.5417	-3.4833	235.259	372.235	392.716	452.393	339.697	195.531	233.681	177.994	523.548	389.699	488.811	405.483	385.479	179.685	296.929	526.854	0.0010249	0.0015768	0.00025764	1113.6	8.6971e-06	8.2392e-06	917.31	445.31	7.1965e-06	7.0238e-06	423.11	183.28	188.74	91.484	1.1415e-05	98.644	0.0010493	0.0010547	0.00029386	1065.8	1.1139e-05	1.1489e-05	879.06	426.57	1.1334e-05	1.1631e-05	405.93	176.56	181.87	88.849	1.1472e-05	95.224	267.759	258.791	249.096	179.174	332.979	322.242	178.019	184.911	342.770	303.075	181.988	186.536	188.812	193.535	301.497	190.513	-8191	255	
46157.738	1	1	0	0	0.070298	0.089128	0.10868	0.33405	0.1504	0.15671	0.26009	0.19079	0.15636	0.1388	0.18518	0.10351	0.27313	0.12061	0.085981	0.16022	-2.6979	-2.4729	-3.3563	-3.0062	-2.9	-3.4604	-2.7438	-3.1646	-3.1083	-2.5375	-3.6562	-2.9708	-3.0479	-3.5917	-2.4583	-3.2938	329.561	421.669	290.826	430.642	368.319	411.033	426.024	429.239	318.557	381.018	488.703	484.740	410.106	425.683	351.022	460.749	0.001068	0.00071753	0.00017888	1111.5	1.168e-05	1.3122e-05	925.79	445.24	6.9087e-06	8.0592e-06	425.82	184.64	188.81	91.91	7.1387e-06	99.179	0.0010472	0.0010415	0.0002933	1066.6	1.1086e-05	1.1667e-05	883.22	427.57	1.1358e-05	1.1782e-05	408.72	177.67	182.6	89.124	1.1577e-05	96.04	269.185	264.859	294.167	179.141	291.821	327.091	177.865	184.434	282.838	294.880	182.182	186.344	188.916	193.586	358.719	190.530	-8191	255	
46157.836	1	1	0	0	0.18966	0.1862	0.12743	0.30516	0.11104	0.23639	0.15987	0.2564	0.11086	0.1105	0.055044	0.19985	0.27571	0.16372	0.36707	0.14331	-2.8396	-2.5583	-3.3229	-2.9208	-2.8292	-3.6354	-2.7917	-3.3083	-3.3688	-2.5667	-3.3854	-3.1792	-2.7292	-3.6708	-2.7458	-3.1333	385.839	171.913	198.381	489.179	308.413	193.266	182.657	167.498	461.198	303.318	356.554	469.444	487.495	208.739	236.368	427.474	0.00096027	0.00065798	0.00015928	1115.3	7.923e-06	9.9787e-06	924	447.9	4.9672e-06	4.3422e-06	425.8	185.61	190.81	92.338	9.7518e-06	99.253	0.0010513	0.0010719	0.00029891	1065.9	1.1468e-05	1.1424e-05	885.97	429.23	1.1484e-05	1.1667e-05	410.33	178.86	183.54	89.602	1.1666e-05	96.275	269.078	262.639	261.629	179.021	348.910	294.187	177.878	184.711	319.910	333.463	182.087	186.658	189.054	193.649	316.031	190.415	-8191	255	
46157.953	1	1	0	0	0.11233	0.26211	0.086464	0.11635	0.075767	0.11657	0.14335	0.12989	0.16958	0.25037	0.11395	0.12896	0.4694	0.20222	0.14135	0.046567	-3.0563	-2.4479	-3.4375	-3.25	-2.6917	-3.5917	-2.8042	-3.1583	-3.5687	-2.6937	-3.3833	-3.2313	-2.7375	-3.5292	-2.7188	-3.0771	400.122	395.548	523.851	225.363	394.409	424.482	423.200	478.108	246.717	500.759	425.922	176.793	469.099	172.479	479.093	447.099	0.001103	0.00092095	0.00040664	1115	1.6286e-05	1.0001e-05	921.58	445.31	1.1427e-05	8.6509e-06	424.45	184.28	189.31	91.753	8.0364e-06	98.867	0.0010667	0.0010466	0.00029168	1067.1	1.139e-05	1.1559e-05	883.13	427.75	1.1252e-05	1.1545e-05	408.68	177.78	182.96	89.233	1.1445e-05	95.502	270.886	259.082	264.119	179.079	331.487	299.119	177.989	185.013	323.740	345.950	182.210	186.302	188.732	193.731	314.039	190.494	-8191	255	
46158.051	1	1	0	0	0.23826	0.28686	0.16548	0.16328	0.32731	0.038731	0.035402	0.16162	0.17373	0.084134	0.078621	0.28152	0.21455	0.42576	0.19537	0.18706	-3.1833	-2.5646	-3.2104	-3.375	-2.6813	-3.4208	-2.9583	-3.0833	-3.5062	-2.8083	-3.2354	-3.3479	-2.9104	-3.6667	-2.8271	-2.9771	479.501	335.483	174.574	500.084	383.624	355.235	504.938	453.069	301.603	312.644	452.362	520.516	523.279	495.983	311.999	485.454	0.0010488	0.00046706	0.00031117	1111.9	9.4157e-06	5.1289e-06	925.65	446.62	5.5608e-06	7.6922e-06	428.25	185.3	190.23	92.235	8.793e-06	99.149	0.0010523	0.001062	0.00029278	1064.3	1.1102e-05	1.1413e-05	883.09	427.76	1.1191e-05	1.1481e-05	410.3	178.11	183.28	89.489	1.1347e-05	95.992	271.010	274.106	268.743	179.238	329.304	311.134	177.929	184.897	299.446	330.285	182.013	186.473	188.831	193.501	299.832	190.482	-8191	255	
46158.145	1	1	0	0	0.18176	0.25062	0.12397	0.27696	0.18368	0.044074	0.20399	0.10286	0.15883	0.050902	0.16575	0.3186	0.11794	0.23127	0.093529	0.17373	-3.1854	-2.5938	-3.075	-3.4417	-2.65	-3.3021	-3.1792	-2.7375	-3.4583	-2.8563	-3.1854	-3.5792	-2.6104	-3.5167	-2.9771	-2.9333	253.648	409.377	256.302	518.864	404.317	415.039	479.918	524.459	484.797	477.284	445.693	194.355	176.468	177.346	459.366	487.088	0.0010587	0.0012102	0.00024245	1116.7	7.359e-06	8.8951e-06	928.17	445.72	6.6811e-06	1.0831e-05	428.3	184.87	189.89	92.184	1.2849e-05	99.669	0.0010595	0.0010638	0.00029736	1066.8	1.1104e-05	1.1614e-05	887.31	428.66	1.1124e-05	1.171e-05	410.5	178.35	183.22	89.536	1.1499e-05	96.623	269.774	263.105	278.727	179.108	316.187	316.557	177.552	184.568	325.204	300.812	181.844	186.342	188.658	193.551	302.996	190.755	-8191	255	
46158.242	1	1	0	0	0.068426	0.16246	0.19917	0.33184	0.14327	0.24023	0.073015	0.083802	0.028746	0.017391	0.24026	0.10123	0.27074	0.22279	0.15824	0.21096	-2.9917	-2.6979	-3.1021	-3.6	-2.4437	-3.2729	-3.1875	-2.9042	-3.5125	-2.8688	-2.9583	-3.5312	-2.6333	-3.4688	-3.2125	-2.8229	488.397	178.406	371.261	516.580	293.587	303.346	441.304	342.496	485.896	241.535	412.385	517.256	458.886	513.568	320.289	433.925	0.0010704	0.00093662	0.00021461	1119.9	1.427e-05	1.8601e-06	934.93	447.74	7.2818e-06	7.2253e-06	431.29	187.5	189.84	92.457	8.4994e-06	100.57	0.0010752	0.0010579	0.00029813	1068.7	1.1412e-05	1.1855e-05	891.6	430.38	1.1444e-05	1.1845e-05	413.91	180.21	184.23	90.133	1.1487e-05	97.221	269.117	272.970	217.266	179.062	331.418	266.349	178.051	184.573	319.902	332.371	182.069	186.482	188.871	193.674	327.276	190.428	-8191	255	
46158.340	1	1	0	0	0.13057	0.27646	0.31487	0.1996	0.17572	0.28996	0.21486	0.078713	0.12585	0.20318	0.16683	0.14589	0.16205	0.41013	0.13274	0.16629	-3.1792	-2.7917	-2.6792	-3.5062	-2.6125	-3.0563	-3.4354	-2.6396	-3.3042	-2.9375	-2.8604	-3.6146	-2.7583	-3.3479	-3.2729	-2.5771	375.309	332.516	482.936	427.847	434.524	425.966	332.470	453.361	298.147	211.827	388.986	445.310	471.215	484.389	222.954	314.025	0.0010788	0.00060253	0.00031635	1119.4	9.0199e-06	1.1856e-05	930.09	446.84	1.0569e-05	5.4614e-06	427.8	186.24	191.08	93.155	1.0754e-05	100.09	0.0010789	0.0010405	0.00029358	1067.8	1.1216e-05	1.1334e-05	890.07	428.89	1.1237e-05	1.1597e-05	412.24	179.45	184.02	90.138	1.1356e-05	97.056	269.549	261.022	295.964	179.441	315.669	334.421	177.692	184.818	310.908	315.329	182.282	186.402	188.646	193.583	292.617	190.674	-8191	255	
46158.434	1	1	0	0	0.16178	0.06093	0.13672	0.22533	0.19053	0.23259	0.13644	0.28993	0.14304	0.10813	0.34244	0.087597	0.081069	0.091819	0.11623	0.10036	-3.0375	-2.925	-2.6958	-3.5667	-2.8375	-3.025	-3.5146	-2.6146	-3.1833	-3.0167	-2.5458	-3.4354	-2.7083	-3.0958	-3.3146	-2.8417	274.337	401.356	255.519	178.626	489.710	356.546	396.748	478.268	335.161	362.201	501.531	484.367	400.407	397.466	349.347	428.268	0.0010765	0.00066056	0.00030117	1118.5	1.1468e-05	6.6926e-06	931.59	447.18	8.1615e-06	7.5159e-06	429.51	187.33	191.55	93.409	3.9434e-06	101.05	0.0010548	0.0010271	0.00029257	1068.6	1.1099e-05	1.1447e-05	890.08	429.93	1.1189e-05	1.1249e-05	412.93	180.36	184.42	90.492	1.1287e-05	97.504	271.273	261.546	262.276	179.127	358.555	328.829	177.796	184.435	297.370	316.082	182.174	186.644	188.725	193.464	257.695	190.296	-8191	255	
46158.555	1	1	0	0	0.11385	0.093591	0.086867	0.056006	0.19017	0.39235	0.14225	0.32026	0.2373	0.13142	0.1186	0.25715	0.26382	0.073732	0.21184	0.29607	-2.9771	-3.1979	-2.5958	-3.5896	-2.8104	-2.6958	-3.5583	-2.6	-3.2229	-3.0542	-2.8271	-3.4146	-3.2604	-2.8167	-3.2625	-2.6813	184.882	325.771	346.048	504.146	404.272	245.645	399.545	443.050	283.735	449.750	176.437	426.934	456.503	361.667	368.327	511.103	0.0010622	0.0016269	0.00034058	1116.4	7.7797e-06	9.5083e-06	931.24	447.89	8.4658e-06	1.0271e-05	429.3	187.27	191.24	93.421	5.4942e-06	101.14	0.0010336	0.0010347	0.00028239	1070.3	1.0977e-05	1.1275e-05	892.21	430.53	1.0818e-05	1.1193e-05	413.32	180.55	184.17	90.613	1.104e-05	98.14	274.248	266.605	271.866	178.995	326.800	349.605	177.986	184.569	321.237	324.209	182.016	186.536	188.731	193.616	301.906	190.482	-8191	255	
46158.648	1	1	0	0	0.12034	0.15061	0.031297	0.17699	0.22021	0.17111	0.35666	0.27989	0.35788	0.22173	0.06907	0.28384	0.18805	0.098851	0.052009	0.50076	-2.7042	-3.25	-2.525	-3.4938	-3.1312	-2.7521	-3.5292	-2.8937	-3.1708	-3.3521	-2.7104	-3.4437	-3.1021	-2.7562	-3.3875	-2.7646	506.895	475.956	441.731	443.245	327.816	400.411	194.288	428.819	328.215	167.636	496.764	475.873	467.199	502.104	189.445	422.315	0.0010775	0.0010531	0.00023452	1124.9	3.4966e-06	1.1336e-05	933.32	447.82	1.0002e-05	6.9419e-06	429.25	188.02	191.58	93.571	1.0108e-05	101.13	0.0010343	0.00099783	0.00028569	1075	1.0945e-05	1.1148e-05	894.62	430.98	1.1057e-05	1.1107e-05	413.23	180.9	184.54	90.682	1.097e-05	97.922	271.604	284.806	245.779	179.050	284.440	295.567	177.925	184.417	346.124	305.244	182.221	186.503	188.826	193.467	297.898	190.582	-8191	255	
46158.723	1	1	0	0	0.26022	0.20835	0.016437	0.10378	0.19941	0.22785	0.18653	0.13604	0.27521	0.029956	0.18401	0.16108	0.22265	0.18551	0.10065	0.44584	-2.625	-3.4917	-2.7021	-3.55	-3.1063	-2.6354	-3.6083	-2.9104	-2.9396	-3.5312	-2.6229	-3.3896	-3.4375	-2.8542	-3.5833	-2.8688	420.992	231.645	382.344	491.597	310.166	414.649	431.739	514.686	309.741	480.121	441.865	384.737	167.509	473.421	466.799	481.199	0.0010375	0.00067765	0.00030202	1120.1	1.4273e-05	7.6207e-06	929.27	446.19	8.501e-06	6.7663e-06	429.16	186.13	191.17	93.073	9.8176e-06	100.61	0.001035	0.00099505	0.00027906	1070.4	1.0654e-05	1.098e-05	890.53	429.66	1.0753e-05	1.0825e-05	411.21	179.15	183.89	90.158	1.1017e-05	97.418	269.627	273.753	263.009	179.396	337.140	338.398	177.596	184.549	329.677	286.488	182.412	186.279	188.542	193.568	299.835	190.546	-8191	255	
46158.816	1	1	0	0	0.21364	0.072319	0.21273	0.20147	0.10811	0.29847	0.21615	0.22082	0.15946	0.10778	0.27679	0.13189	0.2498	0.23143	0.09881	0.18898	-2.4875	-3.3187	-2.6083	-3.3521	-3.2542	-2.5396	-3.6375	-3.0896	-2.6792	-3.3896	-2.7354	-3.3354	-3.5771	-2.7417	-3.3937	-3.3729	237.162	230.342	462.475	484.338	367.485	228.574	455.392	461.428	332.010	498.077	406.534	446.483	508.800	521.963	175.826	493.884	0.00098757	0.0009475	0.00016511	1116.1	1.2993e-05	9.1542e-06	928.62	444.97	8.0026e-06	7.9248e-06	426.22	186.44	189.74	92.799	1.0699e-05	101.12	0.0010184	0.001021	0.00027942	1068.8	1.0589e-05	1.1152e-05	888.37	428.34	1.0754e-05	1.0988e-05	409.98	179.41	183.19	90.239	1.1031e-05	97.89	268.167	262.361	247.285	179.174	328.202	315.218	178.027	184.576	307.526	285.385	182.587	186.604	188.580	193.641	310.327	190.335	-8191	255	
46158.938	1	1	0	0	0.031351	0.16227	0.14853	0.22627	0.20105	0.21373	0.10095	0.1349	0.14595	0.13099	0.050827	0.29953	0.32943	0.072789	0.16161	0.044667	-2.3667	-3.5187	-2.6292	-3.2729	-3.4188	-2.65	-3.5875	-3.2271	-2.5833	-3.5563	-2.7708	-3.1	-3.4688	-2.8479	-3.2604	-3.3187	240.166	357.847	268.353	204.072	346.525	397.583	422.385	458.210	405.254	179.178	336.985	496.211	190.107	502.769	423.117	174.048	0.0010367	0.0010871	0.00020726	1119.9	8.4885e-06	5.4186e-06	933.39	446.57	8.0397e-06	8.7748e-06	427.12	187.09	190.37	93.493	5.8128e-06	101.3	0.0010147	0.0009879	0.00028017	1068.7	1.0726e-05	1.1193e-05	891.31	428.71	1.0777e-05	1.1052e-05	411.46	179.98	183.88	90.669	1.1062e-05	98.293	271.687	290.473	265.990	179.110	344.967	303.286	178.141	184.421	334.792	335.615	182.310	186.651	188.750	193.617	306.004	190.288	-8191	255	
46159.035	1	1	0	0	0.095378	0.11583	0.2482	0.43157	0.046639	0.12061	0.15858	0.38232	0.1378	0.16305	0.17912	0.11131	0.34303	0.37721	0.062352	0.2065	-2.3625	-3.4521	-2.8708	-2.9396	-3.475	-2.5021	-3.4479	-3.3479	-2.7104	-3.3167	-2.9229	-2.8292	-3.5792	-2.7896	-3.1958	-3.3417	447.866	307.560	260.278	509.598	341.701	275.762	473.238	459.583	414.067	498.819	507.321	488.871	515.657	461.558	376.991	492.864	0.0010669	0.00081925	0.0001913	1119.4	8.0007e-06	7.4599e-06	938.02	446.55	1.2038e-05	7.8513e-06	427.02	186.94	191.12	93.032	1.081e-05	101.27	0.0010406	0.001012	0.00028164	1071.4	1.0678e-05	1.1047e-05	895.06	430.14	1.0802e-05	1.1013e-05	411.68	179.65	183.92	90.555	1.1053e-05	97.874	269.755	274.687	261.659	179.279	324.631	362.916	177.820	184.487	333.698	334.139	181.942	186.543	188.656	193.561	281.024	190.514	-8191	255	
46159.129	1	1	0	0	0.32002	0.12342	0.077949	0.15941	0.13839	0.052869	0.14628	0.26637	0.22455	0.13201	0.2801	0.29154	0.16763	0.14663	0.26718	0.13566	-2.2562	-3.4292	-2.8917	-2.875	-3.5021	-2.6458	-3.2021	-3.375	-2.475	-3.3	-3.125	-2.7	-3.6271	-2.8438	-3.0958	-3.4021	237.076	286.454	400.031	192.380	386.059	334.439	500.599	518.981	475.255	248.168	400.572	488.300	484.907	444.264	172.358	288.908	0.0011428	0.0013097	0.0003246	1117.7	1.1481e-05	4.7495e-06	934.45	449.1	5.7354e-06	7.3582e-06	429.19	187.35	191.71	93.008	1.0231e-05	101.41	0.0010261	0.0010133	0.00027594	1070.3	1.0501e-05	1.1227e-05	892.53	429.91	1.0808e-05	1.1079e-05	411.83	180.33	184.51	90.557	1.1065e-05	97.706	267.795	253.770	281.193	179.243	341.497	301.075	178.162	184.537	323.148	291.798	181.869	186.483	188.612	193.390	323.719	190.360	-8191	255	
46159.227	1	1	0	0	0.21598	0.064099	0.1001	0.13661	0.031165	0.31533	0.063616	0.29439	0.13986	0.12734	0.16355	0.19762	0.077813	0.10029	0.15933	0.29634	-2.3563	-3.3312	-3.0875	-2.875	-3.4521	-2.6958	-3.1167	-3.6437	-2.4771	-3.2458	-3.1083	-2.6646	-3.6146	-2.7625	-2.7875	-3.5563	402.154	176.413	346.690	440.881	404.764	324.120	212.439	466.240	204.294	228.359	353.398	453.253	486.434	180.676	411.262	483.800	0.0011105	0.00073278	0.00023707	1118.5	6.7957e-06	8.9731e-06	936.86	447.35	8.076e-06	2.6448e-06	427.68	187.04	190.54	93.542	8.9203e-06	101.68	0.0010404	0.0009971	0.00027894	1068.4	1.0744e-05	1.0938e-05	894.91	429.5	1.0846e-05	1.1045e-05	412.14	180.11	184.02	90.55	1.0915e-05	98.063	268.192	260.051	296.213	179.153	311.800	284.904	177.995	184.594	320.045	276.533	182.554	186.355	188.435	193.438	303.926	190.295	-8191	255	
46159.320	1	1	0	0	0.13565	0.21804	0.12706	0.22587	0.23247	0.11868	0.21069	0.2268	0.26861	0.24305	0.080745	0.17271	0.24529	0.5095	0.21156	0.21728	-2.3937	-3.2354	-3.1625	-2.6958	-3.5021	-2.9208	-2.8208	-3.4417	-2.5458	-3.3104	-3.1917	-2.7292	-3.6354	-3.0479	-2.7521	-3.6542	275.361	481.361	432.105	500.825	257.464	476.750	351.953	428.594	360.914	321.294	359.691	378.152	176.879	169.548	231.530	344.859	0.0010771	0.00042098	0.00037238	1119.7	9.7873e-06	1.04e-05	938.62	449.26	6.5128e-06	8.838e-06	428.18	186.12	191.25	92.424	1.0359e-05	100.95	0.001005	0.00099994	0.00028188	1070.5	1.0798e-05	1.1108e-05	897.42	430.55	1.1098e-05	1.1132e-05	414.35	180.12	183.95	89.901	1.1144e-05	97.907	270.085	261.762	260.616	179.311	354.264	304.288	177.944	184.746	327.848	290.041	182.123	186.751	188.755	193.453	298.645	190.459	-8191	255	
46159.418	1	1	0	0	0.14399	0.25479	0.19232	0.28256	0.15342	0.15634	0.13212	0.18253	0.26431	0.12616	0.16293	0.19697	0.15228	0.20493	0.18604	0.014328	-2.2208	-2.9875	-3.2562	-2.6896	-3.3771	-2.9	-2.6375	-3.6083	-2.5854	-3.0458	-3.3375	-2.6396	-3.4667	-3.3771	-2.7792	-3.5812	233.139	240.845	198.960	490.867	363.289	436.646	526.587	437.251	382.172	210.453	440.256	487.840	198.782	496.601	243.130	215.205	0.0010634	0.0011361	0.00019353	1114.8	6.3701e-06	5.8783e-06	930.36	445.45	7.8529e-06	3.7283e-06	430.73	187.03	191.58	92.471	6.8642e-06	101.34	0.0010551	0.0010353	0.00028987	1067.9	1.1327e-05	1.1506e-05	895.35	429.43	1.1539e-05	1.1971e-05	413.94	180.72	184.55	89.999	1.2187e-05	98.051	270.364	247.617	258.099	179.105	405.431	327.101	177.711	184.661	317.225	329.926	182.188	186.512	188.915	193.576	354.763	190.632	-8191	255	
46159.516	1	1	0	0	0.048158	0.17742	0.094595	0.26383	0.097518	0.13232	0.21004	0.33491	0.12276	0.13491	0.19066	0.24953	0.26644	0.15536	0.21084	0.087627	-2.2833	-2.8104	-3.325	-2.6688	-3.2042	-2.9917	-2.5979	-3.6042	-2.8937	-2.9479	-3.5312	-2.6292	-3.325	-3.1792	-2.5375	-3.5667	267.661	308.918	400.113	519.455	370.657	326.265	399.369	393.816	339.660	170.061	342.563	507.515	446.424	187.152	323.843	471.880	0.0010395	0.0011337	0.00010883	1118.8	7.8743e-06	2.3644e-06	937.17	450.02	5.8415e-06	7.9219e-06	433.84	190.32	193.79	94.379	1.4195e-05	103.42	0.0011178	0.0011339	0.00032036	1069.7	1.2222e-05	1.2618e-05	895.37	433.38	1.2713e-05	1.3001e-05	417.89	183.14	187.25	91.883	1.3199e-05	100.04	267.200	262.332	258.656	179.180	331.221	314.074	177.935	184.665	279.487	309.063	181.954	186.513	188.691	193.568	327.336	190.409	-8191	255	
46159.637	1	1	0	0	0.045418	0.054069	0.29296	0.23758	0.27921	0.18845	0.19595	0.11533	0.12147	0.10384	0.1125	0.13914	0.14561	0.50514	0.36642	0.14069	-2.4229	-2.7104	-3.3042	-2.5854	-3.2208	-3.225	-2.8229	-3.5271	-2.9354	-2.8104	-3.4062	-2.925	-3.2354	-3.5875	-2.5146	-3.7104	410.130	455.033	177.421	456.400	497.352	355.852	456.676	496.083	373.244	310.649	453.009	445.914	481.119	504.993	455.305	398.587	0.0010828	0.00063086	0.00018616	1126.7	1.1546e-05	9.3095e-06	941.5	457.44	8.3027e-06	9.5369e-06	437.76	191.43	197.8	96.977	9.0345e-06	104.79	0.0011842	0.001223	0.00033928	1080	1.2926e-05	1.3211e-05	901.66	440	1.2977e-05	1.3338e-05	421.63	185.09	190.81	94.31	1.3027e-05	101.62	267.616	242.784	250.289	179.151	318.302	346.134	178.015	184.596	316.998	343.710	182.162	186.599	188.532	193.430	307.753	190.479	-8191	255	
46159.730	1	1	0	0	0.26094	0.054224	0.20078	0.28053	0.12369	0.069205	0.098653	0.19849	0.3036	0.2603	0.44035	0.16864	0.17561	0.29554	0.086861	0.26617	-2.5229	-2.6958	-3.4146	-2.8458	-3.0375	-3.2854	-2.6104	-3.6146	-2.9333	-2.5208	-3.6104	-2.925	-3.0229	-3.525	-2.7438	-3.5583	202.194	176.205	207.896	450.204	331.920	521.563	459.202	190.743	400.716	248.383	483.067	504.374	209.951	480.563	507.205	503.186	0.0010444	0.00088965	0.00017769	1138.7	1.1582e-05	8.6825e-06	945.37	460.4	1.0563e-05	8.6897e-06	434.18	189.93	196.68	97.697	1.1e-05	105.58	0.0012033	0.0011886	0.0003303	1095.1	1.2994e-05	1.3309e-05	907.75	443.36	1.3347e-05	1.3744e-05	419.46	183.76	190.81	95.149	1.4365e-05	102.06	267.524	287.276	254.919	179.225	310.551	310.869	178.121	184.872	330.429	314.767	182.312	186.373	188.749	193.460	317.414	190.289	-8191	255	
46159.824	1	1	0	0	0.16845	0.11897	0.063643	0.14801	0.032509	0.25012	0.13502	0.36551	0.029584	0.20805	0.20611	0.33572	0.34339	0.38995	0.093919	0.23018	-2.8187	-2.55	-3.3563	-2.9313	-2.825	-3.4521	-2.6896	-3.2313	-3.1958	-2.6354	-3.4917	-3.0146	-2.9354	-3.3271	-2.7729	-3.4542	286.909	465.341	421.212	431.149	170.606	349.111	344.697	482.578	366.663	260.786	354.423	520.518	476.144	484.705	451.429	417.369	0.0011055	0.00073284	0.00034791	1179.7	7.9295e-06	1.1534e-05	950.91	463.36	9.553e-06	7.1378e-06	425.18	187.2	196.92	97.467	1.2534e-05	103.41	0.0013309	0.0014103	0.00039641	1132.3	1.5249e-05	1.5874e-05	916.72	447.22	1.5649e-05	1.6338e-05	414.03	181.35	191	95.06	1.6592e-05	100.4	270.289	282.313	263.128	179.217	311.791	300.808	177.782	184.726	323.625	304.459	182.071	186.354	188.891	193.369	338.814	190.381	-8191	255	
46159.945	1	1	0	0	0.15655	0.13871	0.28544	0.43797	0.18685	0.23524	0.098175	0.17034	0.15133	0.19898	0.081271	0.23015	0.13495	0.36054	0.11804	0.24686	-2.925	-2.6646	-3.3458	-3.1042	-2.7208	-3.3083	-2.5896	-3.2438	-3.3167	-2.4958	-3.3417	-3.0812	-2.7667	-3.5875	-2.7021	-3.25	468.415	311.710	461.173	482.998	198.621	350.771	205.713	458.175	180.962	323.684	191.467	505.815	275.222	180.721	259.751	393.878	0.0010774	0.00087987	0.00019245	1178.6	5.8585e-06	9.6031e-06	935.48	461.14	1.1513e-05	1.2135e-06	425.73	185.29	196.55	96.984	1.0133e-05	103.06	0.0014269	0.0014993	0.00041685	1131.8	1.5517e-05	1.6202e-05	901.64	445.7	1.547e-05	1.5957e-05	411.42	179.34	189.73	94.404	1.4841e-05	99.987	272.234	305.888	234.782	179.179	324.936	296.403	177.862	184.725	317.589	295.351	182.202	186.596	188.817	193.389	275.555	190.276	-8191	255	
46160.020	1	1	0	0	0.23853	0.36406	0.25927	0.33462	0.042241	0.14132	0.19012	0.133	0.23531	0.041599	0.17782	0.032024	0.2794	0.094926	0.26235	0.12483	-3.0333	-2.5125	-3.2458	-3.1521	-2.6833	-3.4792	-2.8771	-2.8563	-3.4354	-2.675	-3.3458	-3.2229	-2.6292	-3.4208	-2.8146	-2.9313	350.208	290.037	373.125	523.618	221.082	305.881	456.328	394.138	365.980	221.832	363.555	463.986	456.941	518.174	476.220	186.167	0.0011183	0.00057623	0.000297	1169.7	5.7155e-06	6.2905e-06	928.55	461.2	8.388e-06	3.9087e-06	427.8	186.24	195.49	97.124	9.9193e-06	103.27	0.0012793	0.0013187	0.00036303	1118.4	1.3632e-05	1.385e-05	894.03	444.21	1.3383e-05	1.3538e-05	412.88	180.01	189.08	94.248	1.3104e-05	100.09	269.952	262.240	287.046	179.006	308.436	341.681	177.554	184.648	323.213	341.648	181.974	186.643	188.710	193.505	314.849	190.553	-8191	255	
46160.113	1	1	0	0	0.15197	0.31818	0.20657	0.028701	0.301	0.087381	0.25641	0.37309	0.071527	0.16571	0.21151	0.2373	0.027697	0.21091	0.1456	0.14598	-3.1104	-2.6229	-2.9313	-3.1937	-2.5896	-3.3542	-3.1813	-2.9979	-3.3833	-2.6479	-3.2583	-3.2042	-2.6583	-3.6292	-2.9375	-2.85	349.786	196.047	519.389	514.591	513.891	457.648	485.361	496.365	321.469	380.118	420.976	192.988	319.610	484.550	502.126	468.620	0.0011014	0.0011455	0.00024766	1156.9	1.1033e-05	8.7982e-06	934.49	456.51	1.0993e-05	1.2603e-05	427.9	184.63	192.77	95.299	7.5034e-06	101.19	0.0011809	0.0012129	0.0003226	1108.6	1.2011e-05	1.2486e-05	895.15	440.5	1.1772e-05	1.2e-05	411.7	178.16	186.34	92.662	1.1891e-05	98.11	270.732	258.465	267.436	179.100	317.091	330.317	177.794	184.776	329.548	333.581	182.266	186.597	188.557	193.533	294.331	190.407	-8191	255	
46160.234	1	1	0	0	0.12475	0.26169	0.086773	0.28671	0.11305	0.15544	0.015749	0.52561	0.14964	0.072805	0.15673	0.28258	0.13389	0.47745	0.19326	0.20051	-3.0333	-2.3917	-2.7604	-3.4583	-2.6083	-3.2938	-3.1375	-2.8167	-3.5958	-2.8646	-3.0167	-3.4604	-2.6771	-3.4271	-2.9583	-2.775	209.688	524.276	349.752	479.976	232.814	485.937	334.639	489.311	301.063	231.423	493.919	481.000	459.613	435.966	486.680	448.353	0.0010039	0.00096504	0.0001992	1148.5	7.5683e-06	1.3276e-05	926.77	455.3	1.0592e-05	1.0318e-05	424.95	184.44	191.92	93.703	8.2785e-06	99.627	0.001078	0.0010681	0.00029624	1100.4	1.1277e-05	1.1667e-05	889.65	437.59	1.1257e-05	1.1579e-05	409.82	177.26	184.98	91.23	1.1652e-05	96.783	269.223	267.210	294.216	179.119	347.609	306.371	177.652	184.770	341.722	344.513	181.973	186.270	188.894	193.352	285.529	190.306	-8191	255	
46160.332	1	1	0	0	0.16541	0.081058	0.18868	0.093607	0.20284	0.18798	0.37301	0.32337	0.08104	0.23008	0.091722	0.16327	0.056536	0.25094	0.09692	0.27439	-3.0479	-2.6208	-2.9813	-3.3688	-2.5292	-3.175	-3.2792	-2.75	-3.3333	-2.8229	-2.8833	-3.6917	-2.6333	-3.4188	-3.2125	-2.6063	444.549	293.692	329.062	464.514	402.268	229.153	436.102	513.913	326.041	301.695	523.389	480.681	212.252	476.678	397.960	491.087	0.0010528	0.00017835	0.00036921	1144.8	8.8735e-06	7.7506e-06	925.99	453.74	8.0075e-06	4.3921e-06	429.14	183.41	190.08	93.451	1.0186e-05	99.952	0.001058	0.0010517	0.00028904	1097.2	1.1081e-05	1.1166e-05	891.53	436.93	1.0949e-05	1.1183e-05	410.5	177	183.84	90.816	1.1467e-05	96.702	269.735	355.199	252.453	179.235	326.787	339.838	177.758	184.563	302.702	326.028	182.315	186.367	188.437	193.368	299.012	190.311	-8191	255	
46160.426	1	1	0	0	0.20358	0.23771	0.1158	0.19238	0.20669	0.1561	0.27742	0.13876	0.14647	0.23509	0.15233	0.28321	0.19206	0.52162	0.16109	0.094785	-3.0646	-2.825	-2.8083	-3.4938	-2.6604	-3.2354	-3.4021	-2.7167	-3.3104	-3.0396	-2.8354	-3.4938	-2.6562	-3.0833	-3.2979	-2.6229	267.165	175.325	394.007	483.458	401.864	287.730	476.650	497.255	362.385	206.105	421.723	511.476	221.726	487.729	209.681	495.141	0.0010648	0.00069156	0.00030968	1143.1	1.0002e-05	1.0227e-05	943.2	456.06	9.5607e-06	1.2672e-05	433.07	186.17	190.55	93.925	1.2307e-05	100.43	0.0010821	0.0010692	0.00029919	1097.3	1.1317e-05	1.1731e-05	900.76	438.57	1.1484e-05	1.1559e-05	415.87	178.72	184.2	91.041	1.1653e-05	97.038	270.499	263.669	261.905	179.040	301.640	299.616	177.806	184.683	306.211	340.403	182.103	186.354	188.591	193.589	345.464	190.455	-8191	255	
46160.523	1	1	0	0	0.14411	0.37805	0.16865	0.1758	0.35949	0.21687	0.20806	0.070507	0.25974	0.046857	0.14255	0.15749	0.072357	0.43425	0.052322	0.24019	-2.9604	-2.9375	-2.5167	-3.6146	-2.7438	-3.1021	-3.4146	-2.7125	-3.3688	-3.1708	-2.7292	-3.6042	-2.8354	-3.0271	-3.5375	-2.8625	354.040	435.655	414.663	193.303	206.203	288.217	400.406	221.871	327.009	460.993	507.525	260.512	499.640	487.406	187.449	459.021	0.0010945	0.00039465	0.00024172	1153.3	1.1012e-05	4.2911e-06	946.91	457.11	9.6026e-06	4.9709e-06	432.45	184.63	190.84	93.454	4.6416e-06	100.13	0.0010629	0.001053	0.0002936	1099.9	1.1302e-05	1.159e-05	904.6	438.09	1.1141e-05	1.1421e-05	416.05	177.85	183.72	90.514	1.1329e-05	96.625	268.863	246.911	258.050	178.930	342.569	274.308	177.665	184.542	343.118	294.857	182.202	186.639	188.705	193.824	338.534	190.444	-8191	255	
46160.617	1	1	0	0	0.051397	0.10631	0.1167	0.26104	0.038916	0.1314	0.18465	0.15199	0.095389	0.096434	0.16705	0.066068	0.18812	0.43074	0.14816	0.051683	-2.9813	-3.1854	-2.5854	-3.6604	-2.9813	-2.8438	-3.4917	-2.8542	-3.5	-3.4146	-2.7542	-3.5333	-3.2167	-2.9271	-3.4854	-2.9292	184.913	408.214	299.155	189.687	278.521	438.576	212.757	472.149	398.767	522.920	476.874	504.075	505.242	488.473	260.116	368.944	0.0010432	0.00076186	0.00023368	1153.3	5.2271e-06	7.8506e-06	944.62	454.09	3.472e-06	6.6838e-06	429.35	183.85	190.56	94.044	7.8633e-06	100.57	0.0010449	0.0010217	0.00028677	1101.2	1.0807e-05	1.1417e-05	902.01	437.08	1.1138e-05	1.1264e-05	413.32	177.28	183.82	91.064	1.1203e-05	96.834	267.805	257.491	274.832	179.105	301.331	311.336	177.677	184.480	319.243	310.119	182.223	186.314	188.484	193.651	308.244	190.421	-8191	255	
46160.715	1	1	0	0	0.14951	0.038235	0.15595	0.10928	0.22214	0.10131	0.10107	0.29535	0.21024	0.12117	0.20323	0.17403	0.054851	0.28664	0.024902	0.14042	-2.8125	-3.2979	-2.5667	-3.5083	-3.0208	-2.7208	-3.5812	-2.8333	-2.9833	-3.4167	-2.6458	-3.5479	-3.2292	-2.9562	-3.4562	-2.8042	474.718	261.947	438.876	181.614	394.802	496.961	435.314	461.286	431.374	199.082	236.119	385.396	168.771	491.249	323.981	458.459	0.0010153	0.0011585	0.00024212	1153.9	5.0015e-06	9.0047e-06	948.1	456.51	5.7462e-06	6.7642e-06	430.7	184.37	190.96	94.125	9.6134e-06	100.72	0.0010447	0.0010242	0.00028325	1103.2	1.0785e-05	1.1213e-05	903.72	437.18	1.1011e-05	1.1036e-05	412.68	177.07	183.77	91.239	1.1006e-05	97.033	268.267	254.452	277.914	179.161	354.505	294.301	177.850	184.723	295.266	342.199	181.916	186.157	188.427	193.607	322.696	190.158	-8191	255	
46160.809	1	1	0	0	0.23122	0.059422	0.22119	0.1392	0.22269	0.14993	0.11567	0.31179	0.14358	0.16962	0.14168	0.20072	0.15903	0.29029	0.1101	0.30428	-2.6333	-3.3542	-2.5979	-3.5146	-3.0958	-2.5854	-3.5875	-3.1792	-2.8583	-3.5	-2.6	-3.3083	-3.3688	-2.6729	-3.525	-3.0417	474.151	389.944	496.771	487.584	259.756	168.005	445.919	501.480	316.743	340.094	471.860	510.775	194.957	189.728	167.347	450.802	0.0011015	0.0008849	0.00017409	1155.9	6.3493e-06	8.8552e-06	944.57	458.25	7.3616e-06	1.0934e-05	433.18	185.62	193.55	94.989	6.1048e-06	101.92	0.0010458	0.00098991	0.00028924	1105.3	1.0836e-05	1.1181e-05	903.54	439.74	1.1169e-05	1.1458e-05	416.16	179.1	185.95	92.294	1.1581e-05	98.542	269.260	254.424	309.484	179.126	357.586	298.457	177.867	184.650	347.032	339.191	182.155	186.611	188.675	193.525	315.653	190.417	-8191	255	
46160.906	1	1	0	0	0.20476	0.18394	0.23677	0.17239	0.20623	0.013437	0.097026	0.21629	0.024236	0.19093	0.072691	0.22615	0.3204	0.19171	0.07015	0.32271	-2.5833	-3.3646	-2.5479	-3.3208	-3.225	-2.6375	-3.3396	-3.0229	-2.9292	-3.6104	-2.6688	-3.1396	-3.3937	-2.9375	-3.4375	-3.2396	262.811	244.234	453.561	489.485	172.254	498.509	501.541	506.717	185.767	173.776	469.508	481.484	179.931	468.138	329.268	420.360	0.001099	0.00053625	0.00029307	1161.2	8.055e-06	6.9833e-06	948.05	459.25	4.1511e-06	1.0019e-05	435.71	186.68	193.81	95.64	1.1556e-05	102.23	0.0010819	0.0010688	0.00029717	1106.2	1.1352e-05	1.1502e-05	905.3	440.96	1.1229e-05	1.144e-05	417.34	179.81	186.38	92.601	1.1519e-05	98.995	269.892	290.081	279.359	179.054	315.927	371.913	177.753	184.446	300.108	330.869	182.170	186.333	188.490	193.379	327.807	190.133	-8191	255	
46161.027	1	1	0	0	0.042572	0.2032	0.066892	0.28376	0.16367	0.13157	0.11476	0.15182	0.087681	0.23355	0.20405	0.31477	0.31715	0.17645	0.27132	0.15063	-2.3229	-3.5958	-2.7687	-3.3896	-3.3875	-2.5792	-3.2979	-3.2625	-2.8896	-3.4104	-2.7083	-3.0062	-3.5438	-2.6333	-3.2708	-3.2042	211.392	382.510	484.670	442.292	397.753	220.293	469.403	317.237	170.518	274.950	187.804	474.181	470.412	475.615	207.093	508.468	0.0010254	0.0014443	0.00024901	1153.2	1.0822e-05	7.2609e-06	943.22	459.08	7.4015e-06	9.9303e-06	434.65	187.06	194.96	96.443	9.2125e-06	103.07	0.0010762	0.0010631	0.00029936	1104.6	1.1432e-05	1.1737e-05	902.54	441.28	1.1522e-05	1.1905e-05	417.97	180.8	187.81	93.475	1.1777e-05	99.613	268.547	286.738	257.456	179.349	313.383	268.329	177.413	184.380	309.554	335.754	182.085	186.553	188.554	193.540	290.181	190.433	-8191	255	
46161.121	1	1	0	0	0.17904	0.13597	0.31593	0.055387	0.18211	0.15484	0.15465	0.10755	0.10573	0.052195	0.27076	0.3473	0.24382	0.29042	0.19614	0.16858	-2.2021	-3.2792	-2.5583	-3.0604	-3.4521	-2.575	-3.4229	-3.225	-2.6375	-3.3583	-2.9458	-2.9062	-3.5812	-2.8104	-3.1562	-3.4625	232.522	338.839	362.702	314.763	239.514	418.221	205.549	187.763	245.774	419.210	191.680	484.938	189.289	508.149	423.355	490.614	0.0010931	0.00064618	0.0001544	1159.6	8.2197e-06	7.4954e-06	946.04	461.09	8.9004e-06	1.188e-05	439.1	190.64	196.1	98.361	1.0677e-05	104.86	0.0010752	0.0010638	0.00029379	1105.6	1.103e-05	1.1414e-05	906.96	443.91	1.0825e-05	1.113e-05	421.52	183.4	189.62	95.115	1.086e-05	101.61	269.206	231.278	275.429	179.221	341.349	292.620	177.877	184.430	347.625	318.413	182.097	186.385	188.419	193.430	315.332	190.247	-8191	255	
46161.219	1	1	0	0	0.28691	0.051842	0.26306	0.19022	0.11192	0.039459	0.24774	0.091074	0.21891	0.23464	0.18032	0.17659	0.081852	0.38159	0.29859	0.22741	-2.2729	-3.3063	-3.0729	-3.0208	-3.4708	-2.8146	-3.1854	-3.2687	-2.5042	-3.4583	-2.8958	-2.7896	-3.6833	-2.9083	-3.1063	-3.6937	275.430	388.167	284.447	432.595	283.323	330.407	431.995	235.042	247.465	276.584	214.785	433.116	177.819	523.875	341.288	168.121	0.0011514	0.00099881	0.00029854	1160.8	9.5949e-06	1.415e-05	952.39	464.91	1.2152e-05	5.8495e-06	441.67	191.68	198.5	99.687	7.5067e-06	107.13	0.0010202	0.00098103	0.0002738	1111	1.0501e-05	1.0835e-05	911.34	446.05	1.0848e-05	1.091e-05	422.92	183.95	190.53	95.853	1.0938e-05	102.75	271.384	272.461	283.385	179.282	343.141	291.210	177.884	184.702	308.106	293.479	182.245	186.664	188.627	193.204	319.979	190.012	-8191	255	
46161.316	1	1	0	0	0.14079	0.18151	0.2532	0.19534	0.058022	0.32439	0.26273	0.14585	0.1243	0.031621	0.16762	0.28162	0.21862	0.61788	0.24305	0.48921	-2.225	-3.1437	-2.9542	-2.9479	-3.4208	-2.8229	-3.2021	-3.5833	-2.5417	-3.2562	-3.275	-2.7917	-3.4708	-2.9729	-2.7625	-3.4396	435.649	267.769	288.694	454.054	272.244	381.229	500.325	523.447	310.409	397.853	370.158	258.179	421.318	458.957	371.482	450.523	0.0011302	0.0008531	0.00027559	1180.5	7.9811e-06	5.4492e-06	969.23	472.08	1.1026e-05	6.0811e-06	446.42	193.38	200.28	100.54	9.0528e-06	106.44	0.0010401	0.0010147	0.00028645	1117.4	1.0591e-05	1.137e-05	915.73	449.26	1.0821e-05	1.1075e-05	423.65	184.5	191.22	96.239	1.0893e-05	102.14	268.371	269.656	265.641	178.716	337.633	339.114	177.570	184.148	332.761	325.797	181.889	186.028	188.482	192.965	294.002	189.785	-8191	255	
46161.410	1	1	0	0	0.1906	0.17329	0.1535	0.2212	0.11204	0.0056863	0.0935	0.08833	0.10994	0.17195	0.17148	0.34027	0.3256	0.23309	0.1695	0.29816	-2.1708	-3.2146	-3.2479	-2.6792	-3.3688	-2.7896	-2.85	-3.4917	-2.5625	-3.2687	-3.2583	-2.7667	-3.3708	-3.1063	-2.5792	-3.4604	442.524	339.158	475.638	482.093	170.540	213.623	449.522	173.283	373.939	207.012	508.916	494.632	474.896	517.366	362.392	426.798	0.0011783	0.0010106	0.0003252	1180.6	1.0178e-05	7.1095e-06	969.59	471.83	8.9933e-06	4.3833e-06	444.32	190.56	199.61	99.559	1.351e-05	105.98	0.0010311	0.00096611	0.00027146	1117.6	1.0251e-05	1.0516e-05	913.64	448.21	1.0418e-05	1.0249e-05	421.85	182.49	190.42	95.707	1.0498e-05	101.5	268.530	266.457	249.367	178.902	342.528	299.672	177.451	184.164	348.074	282.073	181.682	186.039	188.383	192.743	321.364	189.898	-8191	255	
46161.508	1	1	0	0	0.20585	0.17863	0.26221	0.059181	0.18723	0.092845	0.072414	0.16487	0.1678	0.13198	0.026467	0.21306	0.25793	0.095905	0.12121	0.25777	-2.1896	-3.0042	-3.2896	-2.7354	-3.3042	-3.0896	-2.8271	-3.5833	-2.7229	-3.0417	-3.5229	-2.8125	-3.5208	-3.275	-2.6396	-3.6646	169.588	224.632	381.980	470.217	318.621	319.606	457.273	422.986	332.357	318.422	290.974	203.984	185.370	169.947	367.945	508.069	0.0011551	0.0010977	7.8801e-05	1180	4.3883e-06	5.7143e-06	966.44	472.03	1.0204e-05	6.3998e-06	445.11	191.51	199.92	99.611	9.9548e-06	106.47	0.001	0.00093993	0.00026152	1116.7	9.9451e-06	1.0183e-05	913.57	447.84	1.0163e-05	1.0366e-05	422.15	182.62	190.3	95.739	1.0292e-05	102.1	271.282	268.352	514.697	178.781	294.193	310.472	177.527	184.227	313.409	329.101	181.875	186.159	188.388	192.899	312.066	189.793	-8191	255	
46161.629	1	1	0	0	0.097512	0.26075	0.17397	0.22076	0.23924	0.03547	0.25944	0.18989	0.17804	0.095503	0.037964	0.31552	0.30361	0.39272	0.30935	0.033089	-2.3	-2.7521	-3.3521	-2.7396	-3.0729	-3.2208	-2.6625	-3.5438	-2.7896	-2.7917	-3.5625	-2.7812	-3.5312	-3.3208	-2.6083	-3.4917	501.539	307.703	515.760	492.735	514.438	303.062	488.302	410.666	219.944	341.812	423.343	451.446	192.268	465.628	348.699	472.485	0.0011212	0.00087114	0.00031149	1174.1	1.5088e-05	9.5235e-06	970.04	469.88	8.9056e-06	7.9391e-06	444.4	192.74	198.66	98.846	9.7171e-06	105.88	0.0009789	0.00093937	0.00026458	1113.1	1.0157e-05	1.0369e-05	916.84	447.77	1.0053e-05	1.0203e-05	422.56	183.28	189.52	95.102	1.0004e-05	101.35	268.759	254.427	257.310	178.961	318.734	304.791	177.292	184.225	336.862	301.502	181.949	185.757	188.421	193.055	312.143	189.852	-8191	255	
46161.723	1	1	0	0	0.1385	0.28191	0.21113	0.22059	0.30638	0.17945	0.17377	0.25152	0.14573	0.07555	0.114	0.22524	0.207	0.34745	0.10238	0.46152	-2.475	-2.8021	-3.3937	-2.65	-3.0708	-3.3167	-2.6625	-3.6542	-3.0563	-2.6875	-3.6625	-2.7708	-3.1958	-3.525	-2.3875	-3.6	371.989	512.919	230.817	464.432	364.833	277.734	272.304	496.051	236.089	430.473	520.051	421.147	166.351	171.276	372.529	474.341	0.0010577	0.00071146	0.00020905	1181.8	6.4788e-06	1.1882e-05	964.63	469.53	7.3435e-06	5.9319e-06	444.27	190.74	198.34	98.339	1.0367e-05	104.65	0.00094648	0.00091819	0.00025635	1116.2	9.8091e-06	9.9559e-06	911.21	446.55	9.795e-06	1.0132e-05	420.84	181.74	188.98	94.517	1.0387e-05	100.3	270.743	279.756	255.259	178.784	321.389	323.022	177.482	184.270	320.394	315.995	181.572	186.196	188.543	192.974	295.830	190.035	-8191	255	
46161.820	1	1	0	0	0.50834	0.17844	0.046722	0.17529	0.30569	0.3379	0.3494	0.15113	0.29161	0.36077	0.17197	0.15103	0.34842	0.19425	0.15015	0.17302	-2.4583	-2.7438	-3.5312	-2.9167	-2.9146	-3.325	-2.5583	-3.4167	-3.2	-2.65	-3.5312	-2.9167	-3.0396	-3.6375	-2.5458	-3.4896	371.244	224.114	475.241	464.991	189.973	482.192	449.286	419.523	444.602	310.219	414.663	207.524	230.655	516.157	181.488	431.639	0.0010941	0.0014026	0.00030452	1173.6	1.125e-05	5.6269e-06	964.85	470.01	9.3812e-06	5.5587e-06	444.44	190.34	198.66	98.668	1.0411e-05	105.21	0.00098846	0.00096938	0.00026793	1112	1.0256e-05	1.0439e-05	910.24	446.13	1.0207e-05	1.0394e-05	421.84	182.41	189.99	94.923	1.0587e-05	101.09	269.758	283.125	255.836	178.873	330.124	334.462	177.435	184.174	314.525	304.555	181.895	185.944	188.264	193.032	350.126	189.925	-8191	255	
#DATA ENDS
