BOXY.EXE: ISS Imagent and Oximeter Data Acquisition Program Version 0.80
Ascii Record File

#ACQ INFORMATION
2  Detector Channels 
16  External MUX Channels 
1  Auxiliary Channels 
5000  Waveform (CCF) Frequency (Hz)
1  Waveforms Skipped 
30  Waveforms Averaged 
1  Cycles Averaged 
16  Acquisitions per Waveform 
10.0806  Updata Rate (Hz) 

#FILE INFORMATION
TRUE -- External MUX Channel results are PARSED.
FALSE -- AC DC and Phase are NOT grouped.
TRUE -- Companion Program Settings File CREATED.
FALSE -- AC data not excluded
FALSE -- DC data not excluded
FALSE -- Phase data not excluded
FALSE -- Auxillary Chn. data not excluded
Tab delimiters

#CALIBRATION STATE
TRUE -- Waveform Calibration Values APPLIED.


#AUX CALIBRATION VALUES
Val Type	aux-1	

Term	1.0000e+00	
Factor	0.0000e+00	


#WF CALIBRATION VALUES
A = Detector Channel
Val Type	A-AC1	A-AC2	A-AC3	A-AC4	A-AC5	A-AC6	A-AC7	A-AC8	A-AC9	A-AC10	A-AC11	A-AC12	A-AC13	A-AC14	A-AC15	A-AC16	A-DC1	A-DC2	A-DC3	A-DC4	A-DC5	A-DC6	A-DC7	A-DC8	A-DC9	A-DC10	A-DC11	A-DC12	A-DC13	A-DC14	A-DC15	A-DC16	A-Ph1	A-Ph2	A-Ph3	A-Ph4	A-Ph5	A-Ph6	A-Ph7	A-Ph8	A-Ph9	A-Ph10	A-Ph11	A-Ph12	A-Ph13	A-Ph14	A-Ph15	A-Ph16	

Term	0.00000e+00	0.00000e+00	0.00000e+00	0.00000e+00	0.00000e+00	0.00000e+00	0.00000e+00	0.00000e+00	0.00000e+00	0.00000e+00	0.00000e+00	0.00000e+00	0.00000e+00	0.00000e+00	0.00000e+00	0.00000e+00	0.00000e+00	0.00000e+00	0.00000e+00	0.00000e+00	0.00000e+00	0.00000e+00	0.00000e+00	0.00000e+00	0.00000e+00	0.00000e+00	0.00000e+00	0.00000e+00	0.00000e+00	0.00000e+00	0.00000e+00	0.00000e+00	0.00000e+00	0.00000e+00	0.00000e+00	0.00000e+00	0.00000e+00	0.00000e+00	0.00000e+00	0.00000e+00	0.00000e+00	0.00000e+00	0.00000e+00	0.00000e+00	0.00000e+00	0.00000e+00	0.00000e+00	0.00000e+00	
Factor	1.00000e+00	1.00000e+00	1.00000e+00	1.00000e+00	1.00000e+00	1.00000e+00	1.00000e+00	1.00000e+00	1.00000e+00	1.00000e+00	1.00000e+00	1.00000e+00	1.00000e+00	1.00000e+00	1.00000e+00	1.00000e+00	1.00000e+00	1.00000e+00	1.00000e+00	1.00000e+00	1.00000e+00	1.00000e+00	1.00000e+00	1.00000e+00	1.00000e+00	1.00000e+00	1.00000e+00	1.00000e+00	1.00000e+00	1.00000e+00	1.00000e+00	1.00000e+00	X	X	X	X	X	X	X	X	X	X	X	X	X	X	X	X	

B = Detector Channel
Val Type	B-AC1	B-AC2	B-AC3	B-AC4	B-AC5	B-AC6	B-AC7	B-AC8	B-AC9	B-AC10	B-AC11	B-AC12	B-AC13	B-AC14	B-AC15	B-AC16	B-DC1	B-DC2	B-DC3	B-DC4	B-DC5	B-DC6	B-DC7	B-DC8	B-DC9	B-DC10	B-DC11	B-DC12	B-DC13	B-DC14	B-DC15	B-DC16	B-Ph1	B-Ph2	B-Ph3	B-Ph4	B-Ph5	B-Ph6	B-Ph7	B-Ph8	B-Ph9	B-Ph10	B-Ph11	B-Ph12	B-Ph13	B-Ph14	B-Ph15	B-Ph16	

Term	0.00000e+00	0.00000e+00	0.00000e+00	0.00000e+00	0.00000e+00	0.00000e+00	0.00000e+00	0.00000e+00	0.00000e+00	0.00000e+00	0.00000e+00	0.00000e+00	0.00000e+00	0.00000e+00	0.00000e+00	0.00000e+00	0.00000e+00	0.00000e+00	0.00000e+00	0.00000e+00	0.00000e+00	0.00000e+00	0.00000e+00	0.00000e+00	0.00000e+00	0.00000e+00	0.00000e+00	0.00000e+00	0.00000e+00	0.00000e+00	0.00000e+00	0.00000e+00	-5.39519e+01	-1.20249e+02	-1.18298e+02	-1.81389e+02	-4.31425e+01	-6.62439e+01	-1.58480e+02	-1.62015e+02	-4.06269e+01	-6.41590e+01	-1.70493e+02	-1.69859e+02	-1.80780e+02	-1.76520e+02	-5.86099e+01	-1.49332e+02	
Factor	1.98062e-05	1.68167e-04	4.94974e-05	1.66526e-01	1.74080e-06	1.74117e-06	1.86734e-01	6.19479e-02	1.34097e-06	1.65747e-06	9.69286e-02	3.24366e-02	2.70990e-02	9.71051e-03	1.63304e-06	1.37319e-02	6.23419e-06	7.90621e-06	2.20416e-06	8.30113e-02	8.34494e-08	8.73136e-08	8.74601e-02	3.09545e-02	8.37774e-08	8.70958e-08	4.68922e-02	1.57875e-02	1.36570e-02	4.89657e-03	8.48302e-08	6.69651e-03	X	X	X	X	X	X	X	X	X	X	X	X	X	X	X	X	



#DISTANCE SETTINGS
A = Detector Channel
A-1	A-2	A-3	A-4	A-5	A-6	A-7	A-8	A-9	A-10	A-11	A-12	A-13	A-14	A-15	A-16	

2.5000e+00	3.0000e+00	2.5000e+00	3.0000e+00	2.0000e+00	3.0000e+00	1.5000e+00	3.0000e+00	3.0000e+00	3.0000e+00	3.0000e+00	3.0000e+00	3.0000e+00	3.0000e+00	1.5000e+00	3.0000e+00	

B = Detector Channel
B-1	B-2	B-3	B-4	B-5	B-6	B-7	B-8	B-9	B-10	B-11	B-12	B-13	B-14	B-15	B-16	

1.0000e+01	1.0000e+01	1.0000e+01	1.4400e+00	1.0000e+01	1.0000e+01	1.5100e+00	1.9400e+00	1.0000e+01	1.0000e+01	1.9900e+00	2.4900e+00	2.4100e+00	2.9000e+00	1.0000e+01	2.9800e+00	




#DATA BEGINS
time	group	step	mark	flag	A-AC1	A-AC2	A-AC3	A-AC4	A-AC5	A-AC6	A-AC7	A-AC8	A-AC9	A-AC10	A-AC11	A-AC12	A-AC13	A-AC14	A-AC15	A-AC16	A-DC1	A-DC2	A-DC3	A-DC4	A-DC5	A-DC6	A-DC7	A-DC8	A-DC9	A-DC10	A-DC11	A-DC12	A-DC13	A-DC14	A-DC15	A-DC16	A-Ph1	A-Ph2	A-Ph3	A-Ph4	A-Ph5	A-Ph6	A-Ph7	A-Ph8	A-Ph9	A-Ph10	A-Ph11	A-Ph12	A-Ph13	A-Ph14	A-Ph15	A-Ph16	B-AC1	B-AC2	B-AC3	B-AC4	B-AC5	B-AC6	B-AC7	B-AC8	B-AC9	B-AC10	B-AC11	B-AC12	B-AC13	B-AC14	B-AC15	B-AC16	B-DC1	B-DC2	B-DC3	B-DC4	B-DC5	B-DC6	B-DC7	B-DC8	B-DC9	B-DC10	B-DC11	B-DC12	B-DC13	B-DC14	B-DC15	B-DC16	B-Ph1	B-Ph2	B-Ph3	B-Ph4	B-Ph5	B-Ph6	B-Ph7	B-Ph8	B-Ph9	B-Ph10	B-Ph11	B-Ph12	B-Ph13	B-Ph14	B-Ph15	B-Ph16	aux-1	digaux	

46181.051	1	1	0	256	0.14332	0.24031	0.15666	0.093954	0.032635	0.027588	0.22262	0.066453	0.20049	0.18202	0.2512	0.12933	0.1037	0.29077	0.18034	0.10489	-2.7375	-3.0042	-2.5354	-3.7646	-2.8542	-2.9958	-3.6625	-2.675	-3.35	-3.1271	-2.6896	-3.4688	-2.8187	-3.0542	-3.4396	-2.7396	184.437	277.935	365.047	190.382	234.117	356.532	480.937	432.414	212.554	288.266	446.193	177.061	498.415	180.914	186.952	172.429	0.00088158	0.00077991	0.00017932	1176	6.5808e-06	1.5024e-05	958.44	461.78	4.7397e-06	8.682e-06	420.09	166.56	180.13	84.144	8.8986e-06	83.591	0.0011367	0.0011835	0.00032995	1111.3	1.2638e-05	1.3442e-05	903.91	438.02	1.2816e-05	1.2909e-05	399.39	158.93	171.95	80.694	1.2688e-05	79.738	274.099	307.874	278.077	178.741	351.892	331.904	177.162	184.393	326.030	296.382	181.575	186.604	189.009	194.037	288.941	190.724	-8191	255	
46181.172	1	1	0	0	0.20502	0.20203	0.11158	0.26845	0.13628	0.19484	0.052017	0.18523	0.26025	0.23453	0.2053	0.12202	0.20311	0.23326	0.14452	0.38647	-2.8271	-3.1417	-2.4313	-3.6688	-2.8708	-2.7729	-3.4417	-2.7292	-3.2417	-3.2021	-2.8292	-3.3125	-3.0854	-2.7917	-3.2667	-2.8417	265.582	510.687	252.081	502.590	521.164	482.465	264.821	509.294	192.236	305.442	174.486	223.086	190.960	197.675	328.398	444.087	0.00090852	0.00065319	0.00030255	1179.3	1.4662e-05	5.021e-06	963.21	462.81	1.1603e-05	1.0099e-05	420.6	165.15	179.87	83.264	1.0226e-05	82.416	0.0011461	0.0011977	0.00033402	1114	1.2737e-05	1.3127e-05	906.17	439.14	1.2664e-05	1.3184e-05	398.92	158.13	171.08	79.961	1.2881e-05	78.781	269.519	288.237	233.983	178.649	345.897	324.592	177.357	184.144	324.333	317.648	182.124	186.728	188.759	193.941	309.550	190.517	-8191	255	
46181.266	1	1	0	0	0.2641	0.38787	0.23274	0.17771	0.10794	0.1409	0.11947	0.28234	0.21992	0.04057	0.05562	0.0017209	0.15582	0.31021	0.12155	0.31848	-2.4958	-3.3563	-2.4813	-3.4333	-3.175	-2.7062	-3.4813	-3.0396	-2.8438	-3.4833	-2.6875	-3.1625	-3.3021	-2.7583	-3.3625	-2.9104	343.194	329.461	367.906	370.496	243.712	286.039	356.678	374.346	467.362	343.478	481.624	180.000	451.164	219.409	233.631	397.853	0.00092335	0.001335	0.0002077	1174.4	4.031e-06	9.413e-06	951.37	461.94	4.2901e-06	8.1412e-06	416	163.49	177.55	82.869	1.0666e-05	81.71	0.0011233	0.0011576	0.00032881	1111.6	1.234e-05	1.319e-05	899.89	438.04	1.2677e-05	1.2862e-05	396.02	156.22	169.59	79.294	1.2673e-05	77.98	267.364	242.914	231.707	178.958	384.176	291.991	177.317	184.102	380.404	318.510	181.750	186.614	188.451	194.212	307.771	190.393	-8191	255	
46181.363	1	1	0	0	0.13264	0.14773	0.097169	0.15891	0.19273	0.027609	0.16393	0.24781	0.069126	0.18121	0.18017	0.30168	0.15013	0.57344	0.028473	0.13171	-2.3792	-3.3458	-2.5458	-3.45	-3.1188	-2.5875	-3.6146	-3.0833	-2.9938	-3.4271	-2.5396	-3.2771	-3.2708	-2.7062	-3.225	-2.975	363.732	243.342	324.688	213.903	195.682	222.402	420.886	476.777	364.042	450.432	450.456	523.957	486.756	190.931	356.056	449.904	0.000824	0.00049444	0.00017022	1183	8.4581e-06	8.3707e-06	951.3	459.96	5.2097e-06	8.3362e-06	416.62	162.54	177.46	81.972	5.2647e-06	81.306	0.0011082	0.0011507	0.00032428	1116	1.2316e-05	1.2733e-05	899.13	437.03	1.2592e-05	1.2593e-05	394.67	154.86	168.87	78.619	1.2606e-05	77.559	274.000	259.874	245.917	178.724	354.698	328.919	177.140	183.886	342.172	304.071	181.754	186.523	188.754	194.231	321.634	190.559	-8191	255	
46181.457	1	1	0	0	0.16347	0.13186	0.25938	0.092186	0.24023	0.16303	0.15604	0.30535	0.19854	0.2161	0.2121	0.24105	0.1381	0.16452	0.15092	0.13855	-2.3104	-3.4542	-2.6271	-3.2146	-3.0729	-2.7896	-3.5438	-3.1813	-2.8583	-3.5042	-2.7667	-3.1813	-3.5708	-2.7208	-3.3312	-3.2458	484.505	420.645	475.819	443.338	401.020	494.361	222.554	422.792	206.932	276.125	470.129	454.906	472.422	463.239	472.760	433.617	0.00089282	0.00082514	0.0001742	1186.1	9.0595e-06	5.6391e-06	959.17	460.38	9.1934e-06	5.7504e-06	414.93	161.84	176.98	82.339	9.5891e-06	81.146	0.001088	0.0011529	0.00032182	1118.1	1.2167e-05	1.2509e-05	901	437.11	1.2218e-05	1.2284e-05	393.99	154.76	168.75	78.721	1.2127e-05	77.425	268.532	278.472	258.362	178.667	320.161	331.657	177.211	184.058	324.868	291.697	181.893	186.790	188.681	194.020	333.611	190.797	-8191	255	
46181.555	1	1	0	0	0.24961	0.25261	0.28874	0.16862	0.14077	0.21625	0.12082	0.056242	0.30086	0.15917	0.18997	0.24579	0.087309	0.18739	0.15365	0.081219	-2.2792	-3.4688	-2.7667	-3.1625	-3.3333	-2.5458	-3.35	-3.2542	-2.8354	-3.5104	-2.8333	-2.8292	-3.6042	-2.8	-3.1271	-3.0292	280.727	397.297	366.748	501.026	473.201	491.277	433.517	479.513	224.484	416.183	422.113	485.064	439.174	489.269	498.064	198.557	0.00089794	0.0010921	0.00026151	1186.6	9.9582e-06	6.1504e-06	956.2	460.26	1.1311e-05	4.4714e-06	413.24	161.07	176.66	82.062	7.7251e-06	80.845	0.0010953	0.0011279	0.00031598	1120.9	1.1913e-05	1.2474e-05	900.91	436.78	1.2198e-05	1.2485e-05	392.11	153.7	168.35	78.711	1.2164e-05	77.392	273.369	229.292	247.892	178.767	331.391	331.828	177.375	184.029	341.708	382.431	181.622	186.563	188.909	194.041	312.752	190.416	-8191	255	
46181.648	1	1	0	0	0.16225	0.13178	0.062033	0.2539	0.14574	0.085331	0.12003	0.12369	0.23099	0.11908	0.24738	0.058676	0.2072	0.18913	0.1465	0.092197	-2.175	-3.2854	-2.7146	-2.9875	-3.3271	-2.625	-3.3854	-3.2417	-2.6583	-3.5354	-2.9583	-2.7917	-3.5458	-2.8771	-3.1063	-3.4896	510.253	207.482	231.045	417.627	485.732	427.607	246.537	435.426	378.184	501.823	239.991	194.910	485.147	516.563	256.915	475.065	0.00080181	0.0008342	0.00025282	1187	9.1834e-06	7.0466e-06	952.11	463.2	3.4461e-06	7.2935e-06	413.09	163.72	178.51	82.886	6.9856e-06	81.918	0.0010955	0.0011204	0.00031602	1120.8	1.1956e-05	1.2302e-05	902.19	438.51	1.2146e-05	1.2413e-05	393.86	155.73	169.84	79.455	1.2205e-05	78.471	273.012	275.857	277.611	178.714	354.086	299.989	177.102	184.090	329.023	298.057	181.592	186.668	188.459	193.806	328.593	190.571	-8191	255	
46181.746	1	1	0	0	0.074377	0.12267	0.18833	0.19689	0.045437	0.16395	0.39541	0.094341	0.16734	0.1582	0.091093	0.067145	0.22145	0.41158	0.23041	0.09598	-2.1667	-3.425	-3.025	-2.8958	-3.4562	-2.7792	-3.2896	-3.5938	-2.5875	-3.5208	-3.1792	-2.8958	-3.6125	-2.9583	-2.8625	-3.5958	306.631	476.269	336.986	480.186	284.072	513.294	305.912	183.652	247.858	502.049	319.549	478.897	166.972	519.287	516.597	525.644	0.00085644	0.00073499	0.00030832	1186.9	9.6494e-06	6.2984e-06	958.93	464.41	8.2681e-06	1.0899e-05	415.81	164.4	177.69	82.885	7.606e-06	82.243	0.0010767	0.0011195	0.00031803	1121.4	1.2055e-05	1.2223e-05	903.8	440.32	1.2283e-05	1.2392e-05	394.97	156.14	169.71	79.481	1.2311e-05	78.699	272.071	291.691	288.799	178.761	325.360	307.846	177.521	184.078	329.807	359.104	181.827	186.661	188.947	193.924	280.779	190.601	-8191	255	
46181.844	1	1	0	0	0.070512	0.35037	0.23203	0.23266	0.089398	0.059439	0.18448	0.20473	0.27148	0.14448	0.24732	0.23171	0.28051	0.16444	0.067142	0.065328	-2.3521	-3.2562	-3.1146	-2.9417	-3.3708	-2.775	-2.7938	-3.4917	-2.5667	-3.2792	-3.4479	-2.6979	-3.4646	-2.875	-2.9188	-3.6437	328.509	312.619	408.612	439.750	446.222	227.317	412.029	507.771	505.617	193.897	408.602	436.065	206.215	402.255	168.133	521.146	0.00089603	0.00086141	0.00027451	1188.1	5.6191e-06	1.0022e-05	956.93	463.12	1.0382e-05	4.8556e-06	413.69	162.42	177.5	82.687	9.8885e-06	82.553	0.0010832	0.001128	0.00031668	1123.3	1.1883e-05	1.2495e-05	905.13	440.09	1.2139e-05	1.2393e-05	394.77	155.49	169.55	79.471	1.1937e-05	78.754	271.839	293.386	251.199	178.558	321.828	313.816	177.194	184.295	370.634	421.021	181.764	186.471	188.643	193.782	303.024	190.837	-8191	255	
46181.961	1	1	0	0	0.16526	0.34749	0.083392	0.16637	0.15013	0.21437	0.1063	0.43683	0.16917	0.2235	0.20637	0.18771	0.12837	0.18808	0.13157	0.23882	-2.1979	-3.0646	-3.1396	-2.7292	-3.2896	-2.975	-2.85	-3.4958	-2.6542	-2.95	-3.4292	-2.7625	-3.4396	-3.0292	-2.7792	-3.6083	185.642	349.061	221.565	433.593	401.094	377.995	279.564	474.759	457.444	275.554	429.433	179.337	227.786	511.646	317.525	172.790	0.00085104	0.00053721	0.00012465	1190.9	6.7373e-06	1.2465e-05	956.7	464.12	7.9337e-06	8.051e-06	413.46	162.14	177.27	82.642	8.2065e-06	82.298	0.0010675	0.001119	0.00031204	1124.4	1.1917e-05	1.2401e-05	902.25	440.24	1.1982e-05	1.2247e-05	393.31	155.09	169.31	79.488	1.2196e-05	78.651	268.977	271.661	272.641	178.616	382.186	314.530	177.150	184.261	340.920	314.160	181.772	186.800	188.690	193.957	323.747	190.544	-8191	255	
46182.059	1	1	0	0	0.043553	0.13469	0.39819	0.40486	0.22204	0.22754	0.48733	0.071553	0.066191	0.37895	0.12656	0.35876	0.12103	0.23112	0.17133	0.026175	-2.3729	-2.9917	-3.2833	-2.6729	-3.3479	-3.0667	-2.7479	-3.7583	-2.7729	-3.0375	-3.5563	-2.5958	-3.2271	-3.3187	-2.8063	-3.5938	371.406	343.851	419.721	472.443	266.923	207.502	428.058	170.370	487.853	384.273	479.604	403.923	175.345	524.732	525.359	470.717	0.00081046	0.00080499	0.00025029	1190.5	5.6921e-06	8.2708e-06	950.52	461.84	8.2415e-06	8.1214e-06	414.96	164.28	177.85	83.262	7.9988e-06	82.531	0.0010652	0.0011293	0.00030963	1122.8	1.2039e-05	1.2347e-05	901.01	439.66	1.2082e-05	1.227e-05	394.33	155.93	170.03	79.768	1.2187e-05	78.999	269.885	223.962	255.430	178.662	343.513	310.471	177.462	184.047	327.052	313.478	181.774	186.547	188.893	193.675	284.532	190.873	-8191	255	
46182.152	1	1	0	0	0.10928	0.14327	0.22253	0.39481	0.12088	0.24562	0.39096	0.10597	0.21222	0.2566	0.28643	0.12439	0.27134	0.30116	0.062166	0.049839	-2.5958	-2.8583	-3.5083	-2.7313	-3.1875	-3.4583	-2.7333	-3.6312	-2.9083	-2.85	-3.7208	-2.6833	-3.3042	-3.2917	-2.6063	-3.7229	254.524	214.510	524.810	473.094	337.226	413.491	478.699	494.889	362.383	300.574	455.479	308.636	509.659	475.065	474.318	384.109	0.00091502	0.00042471	0.00023304	1184	4.6343e-06	8.965e-06	955.95	464.03	1.0537e-05	3.4759e-06	414.52	163.89	178.57	83.696	7.7999e-06	83.298	0.0010766	0.0011274	0.00031286	1121.8	1.2006e-05	1.2443e-05	903.16	439.67	1.2105e-05	1.2289e-05	395.41	156.34	170.23	80.037	1.2295e-05	79.604	268.326	262.517	265.034	178.502	314.053	277.554	177.531	184.057	347.205	294.266	181.802	186.479	188.915	194.021	283.341	190.727	-8191	255	
46182.250	1	1	0	0	0.064369	0.12929	0.11394	0.29477	0.20602	0.18427	0.14258	0.095676	0.22846	0.32621	0.27067	0.12426	0.24111	0.22047	0.053999	0.30119	-2.5854	-2.7167	-3.3667	-2.8812	-3.1146	-3.3333	-2.6021	-3.4667	-2.9938	-2.6854	-3.7438	-2.8083	-3.0021	-3.5125	-2.5604	-3.4354	378.269	342.280	355.377	469.655	489.442	252.060	428.593	509.234	310.728	373.650	393.624	522.521	222.256	509.254	430.377	488.621	0.00087507	0.0010851	0.00029138	1182.8	8.7368e-06	8.3565e-06	958.7	464.03	6.5654e-06	3.5462e-06	417.01	165.27	177.74	83.429	8.9137e-06	83.042	0.0010799	0.0011207	0.0003117	1122.2	1.1963e-05	1.2345e-05	904.23	440.49	1.224e-05	1.248e-05	396.59	157.27	170.47	80.289	1.2356e-05	79.76	271.328	242.491	284.910	178.805	271.009	278.413	177.012	184.061	329.804	309.969	181.857	186.728	188.749	193.780	324.865	190.547	-8191	255	
46182.348	1	1	0	0	0.2697	0.15154	0.18733	0.15167	0.30102	0.12117	0.36542	0.34776	0.1722	0.070519	0.13568	0.11259	0.25559	0.32794	0.1543	0.096892	-2.7771	-2.6521	-3.3833	-2.8875	-2.8708	-3.6542	-2.7313	-3.4792	-3.3125	-2.7833	-3.6354	-2.8729	-3.0729	-3.6979	-2.6396	-3.4958	273.178	431.864	286.598	450.213	424.439	295.706	496.008	434.096	359.182	430.854	326.626	442.278	172.675	428.294	267.338	400.181	0.00092297	0.00028402	0.00017748	1184.7	1.0947e-05	1.3746e-05	953.49	462.67	9.2192e-06	3.5227e-06	414.36	164.46	179.41	83.948	1.2537e-05	83.893	0.0010685	0.0011377	0.00031152	1121.2	1.2171e-05	1.2421e-05	899.24	439.85	1.209e-05	1.2565e-05	394.41	157.1	171.14	80.532	1.2319e-05	80.145	265.445	239.894	253.275	178.567	324.087	292.882	177.235	184.207	341.636	250.534	181.815	186.291	188.921	193.861	299.113	190.699	-8191	255	
46182.465	1	1	0	0	0.17406	0.27934	0.12939	0.2945	0.18651	0.23094	0.1874	0.14699	0.15641	0.13688	0.12888	0.39101	0.17015	0.11076	0.11159	0.30293	-2.9104	-2.6375	-3.3583	-2.9813	-2.7958	-3.6354	-2.7896	-3.3021	-3.1833	-2.525	-3.5062	-2.9604	-2.775	-3.6188	-2.75	-3.2417	459.525	396.910	209.284	488.601	388.776	381.506	446.183	475.141	245.982	259.849	521.036	458.822	494.678	187.732	450.299	404.564	0.00087902	0.0010209	0.00019675	1184.2	5.3979e-06	5.9626e-06	950.99	464.27	7.6495e-06	5.884e-06	417.33	164.8	179.25	83.797	3.4793e-06	83.846	0.0010992	0.0011203	0.00031213	1121.7	1.2341e-05	1.2293e-05	899.71	439.89	1.1966e-05	1.2455e-05	395.6	157.28	170.44	80.342	1.2454e-05	80.077	270.259	269.783	216.265	178.222	307.025	311.695	177.099	184.049	307.673	316.291	181.954	186.351	188.744	193.811	294.917	190.546	-8191	255	
46182.562	1	1	0	0	0.10835	0.1949	0.18397	0.29986	0.13006	0.14429	0.19898	0.19776	0.054831	0.15054	0.073281	0.20124	0.13677	0.17368	0.18041	0.10919	-3.0146	-2.6021	-3.3042	-3.3583	-2.6125	-3.3771	-3.025	-3.0792	-3.3708	-2.425	-3.5917	-3.2583	-2.6875	-3.6521	-2.7771	-3.0458	183.412	372.032	184.325	506.261	205.577	203.343	413.626	523.767	489.864	424.734	512.334	523.281	481.882	474.533	407.430	497.124	0.0008821	0.0006103	0.00015938	1190.4	5.9913e-06	8.9872e-06	953.96	464.93	8.7442e-06	8.4947e-06	413.46	166.09	179.67	84.433	1.3164e-05	85.027	0.0010867	0.0011514	0.00032012	1122.9	1.2118e-05	1.2517e-05	900.69	440.26	1.204e-05	1.2368e-05	395.21	158.11	171.46	80.912	1.2144e-05	81.08	271.608	295.359	267.323	178.510	341.483	322.617	177.097	184.193	329.105	301.417	181.855	186.544	188.679	193.879	303.780	190.377	-8191	255	
46182.656	1	1	0	0	0.078201	0.17316	0.093605	0.35863	0.21385	0.083194	0.12123	0.14171	0.21594	0.082211	0.18221	0.099424	0.11155	0.35621	0.10938	0.17516	-3.1667	-2.4813	-3.3042	-3.2438	-2.6188	-3.4729	-3.0208	-3.1063	-3.4417	-2.4625	-3.3	-3.3063	-2.6521	-3.5771	-3.0333	-3.0062	393.070	483.937	218.976	467.181	228.005	356.480	404.735	501.777	273.020	215.218	392.860	450.310	454.681	178.720	411.864	416.084	0.00080743	0.00053169	0.00012069	1187.5	9.3191e-06	4.7035e-06	947.66	463.92	5.3187e-06	5.8164e-06	418.49	167.58	181.66	85.838	1.0549e-05	85.71	0.0010596	0.0011248	0.00031121	1122.4	1.1867e-05	1.2294e-05	897.55	441.3	1.1753e-05	1.2201e-05	397.11	159.77	173.11	82.274	1.2105e-05	81.945	269.210	261.143	290.561	178.686	336.829	349.624	176.997	183.902	324.901	301.316	181.672	186.234	188.814	193.680	277.587	190.746	-8191	255	
46182.754	1	1	0	0	0.014113	0.11018	0.10055	0.011376	0.16703	0.14512	0.18531	0.28166	0.16925	0.051892	0.22086	0.32459	0.10504	0.21501	0.023456	0.16442	-3.1729	-2.5021	-3.1063	-3.5312	-2.6167	-3.2708	-3.0687	-2.9604	-3.4875	-2.8688	-3.1125	-3.475	-2.5854	-3.4542	-3.2292	-2.825	469.833	331.560	195.152	172.356	404.544	410.287	207.779	465.416	387.141	393.611	172.568	173.873	460.296	511.313	474.671	486.109	0.00094197	0.0006419	0.00016895	1184.9	7.1662e-06	8.4128e-06	945.64	467.04	5.5627e-06	7.0784e-06	418.83	170.09	183.5	87.635	5.1766e-06	89.009	0.0010687	0.0011286	0.00031672	1119.8	1.2092e-05	1.2565e-05	894.42	442.14	1.2255e-05	1.2675e-05	398.46	162.41	175.1	83.926	1.2967e-05	85.246	271.928	246.256	273.967	178.551	367.968	318.752	176.984	184.314	326.825	316.057	181.809	186.274	188.853	193.698	304.123	190.595	-8191	255	
46182.848	1	1	0	0	0.060682	0.16859	0.18637	0.19444	0.18516	0.14571	0.23541	0.10499	0.066129	0.072666	0.1395	0.16032	0.18504	0.22837	0.10711	0.21133	-3.1937	-2.6542	-2.8292	-3.6333	-2.5292	-3.1583	-3.1875	-2.8271	-3.4833	-2.6417	-2.9125	-3.65	-2.8521	-3.4354	-3.3	-2.9271	350.282	508.595	503.787	171.576	463.414	421.846	458.869	507.058	521.831	262.423	490.713	478.970	167.781	511.826	387.398	478.387	0.00093115	0.00085816	0.00022823	1187.6	5.7012e-06	5.9076e-06	963.12	475.9	8.3965e-06	9.4574e-06	433.53	179.01	190.89	91.023	9.3522e-06	92.432	0.0011537	0.0012235	0.00034298	1122.2	1.3372e-05	1.3663e-05	910.84	453.06	1.316e-05	1.3437e-05	414.2	170.58	182.23	87.464	1.3289e-05	88.348	271.482	279.385	216.078	178.794	324.939	259.267	177.294	184.347	337.158	316.173	181.748	186.507	188.752	193.533	278.817	190.427	-8191	255	
46182.945	1	1	0	0	0.22669	0.20495	0.13243	0.16769	0.16094	0.16672	0.10745	0.12676	0.17366	0.32971	0.12694	0.2414	0.18744	0.18189	0.23842	0.15311	-3.0833	-2.8833	-2.825	-3.7667	-2.7104	-3.2229	-3.35	-2.8396	-3.4333	-2.8583	-2.775	-3.6271	-2.7479	-3.4521	-3.1813	-2.8604	374.099	513.744	502.937	500.842	504.214	215.525	403.770	481.231	244.338	402.984	174.884	170.854	468.189	523.174	385.621	435.102	0.00098853	0.00089042	0.00024275	1189.3	1.0241e-05	1.0072e-05	959.61	474.37	5.6677e-06	7.9556e-06	428.7	173.94	187.35	89.257	1.1542e-05	89.629	0.001172	0.0012158	0.00034006	1123.9	1.3049e-05	1.3287e-05	909.34	450.47	1.2993e-05	1.3311e-05	409	166.67	178.77	85.513	1.3174e-05	86.139	271.215	268.050	282.619	178.508	305.804	373.714	177.164	184.050	354.288	327.372	181.968	186.475	188.645	193.733	280.881	190.658	-8191	255	
46183.043	1	1	0	0	0.10814	0.048375	0.12992	0.065411	0.055151	0.27546	0.22271	0.10195	0.16846	0.087985	0.065319	0.10064	0.42105	0.14702	0.069336	0.084012	-3.1354	-2.9208	-2.6583	-3.6542	-2.7771	-3.1354	-3.5292	-2.7354	-3.2375	-3.0062	-2.8438	-3.6312	-2.9938	-3.0979	-3.3	-2.9354	186.979	385.659	503.108	501.966	450.957	452.001	496.025	426.084	207.660	294.030	343.129	468.402	519.287	521.739	170.926	442.941	0.00094051	0.00091847	0.00042486	1180	9.2003e-06	4.0266e-06	950.19	468.81	9.2219e-06	4.4388e-06	423.41	172.33	185.59	88.045	1.4755e-05	88.438	0.0011544	0.0011983	0.00033455	1117.9	1.2782e-05	1.3335e-05	898.25	445.27	1.3081e-05	1.2891e-05	403.46	164.35	176.81	84.531	1.3342e-05	85.013	274.233	266.079	274.298	178.837	329.369	286.919	177.230	184.173	342.068	396.523	181.655	186.364	188.516	193.749	327.909	190.546	-8191	255	
46183.137	1	1	0	0	0.097816	0.45875	0.044617	0.18632	0.27284	0.14104	0.12034	0.22011	0.24341	0.11072	0.18722	0.13028	0.11538	0.096168	0.06554	0.11341	-2.9042	-3.1875	-2.6792	-3.9083	-2.8979	-2.9479	-3.6458	-2.9417	-3.1771	-3.3375	-2.7917	-3.4521	-2.9813	-3.0167	-3.5729	-2.8729	187.515	491.792	234.565	460.070	383.148	294.741	425.339	502.244	302.576	351.068	429.688	466.271	467.992	169.410	231.325	403.784	0.00099143	0.00091505	0.00015758	1180.3	7.8969e-06	3.9819e-06	942.19	468.1	1.2573e-05	8.6819e-06	423.12	173.14	186.67	88.481	5.18e-06	89.974	0.0011513	0.0012107	0.00033982	1114.2	1.2796e-05	1.3278e-05	893.18	444.68	1.305e-05	1.3105e-05	402.57	165.13	177.71	85.156	1.2789e-05	86.147	268.706	238.768	254.799	178.802	286.023	333.308	177.475	184.052	310.951	343.805	181.705	186.574	188.692	193.726	214.655	190.766	-8191	255	
46183.234	1	1	0	0	0.19787	0.15319	0.27986	0.1153	0.21066	0.18838	0.07686	0.19349	0.23648	0.017535	0.091833	0.20736	0.12867	0.23942	0.16992	0.39669	-2.9583	-3.1312	-2.8271	-3.5458	-3.0521	-2.7208	-3.4792	-3.0021	-2.9625	-3.4396	-2.7771	-3.4229	-3.2875	-3.0396	-3.5604	-2.9792	185.444	496.415	402.072	389.446	508.186	492.019	517.390	439.996	194.915	167.921	453.771	386.364	493.457	168.340	269.097	485.011	0.00091472	0.00099424	0.00031005	1185.7	4.3996e-06	9.5905e-06	945.27	469.44	1.0259e-05	6.2874e-06	426.88	174.14	186.99	89.761	1.0009e-05	89.999	0.0011694	0.0012142	0.00033053	1116.9	1.2925e-05	1.3207e-05	894.29	446.55	1.3079e-05	1.3136e-05	405.27	166.27	178.27	85.951	1.3035e-05	86.473	270.484	276.081	295.512	178.583	296.674	283.931	177.421	183.924	310.102	326.905	181.984	186.415	188.837	193.569	332.542	190.370	-8191	255	
46183.355	1	1	0	0	0.11433	0.057543	0.32163	0.10365	0.092549	0.1649	0.07759	0.1076	0.086738	0.27358	0.1676	0.16435	0.21197	0.1406	0.1007	0.22212	-2.6729	-3.4104	-2.6167	-3.4313	-3.2208	-2.55	-3.8271	-3.0729	-2.9375	-3.325	-2.9021	-3.2938	-3.3417	-2.8458	-3.5104	-3.0542	183.925	181.003	417.856	206.700	469.236	229.610	373.560	420.812	334.607	484.997	408.751	190.731	489.904	504.638	299.180	507.141	0.00094882	0.00061462	0.00012583	1175.1	1.29e-05	7.6753e-06	950.75	468.46	9.1505e-06	7.926e-06	423.44	173.47	185.48	88.721	6.5793e-06	89.567	0.0011586	0.0011997	0.00033206	1115.5	1.2513e-05	1.3156e-05	897.28	445.95	1.2801e-05	1.2935e-05	404.18	165.36	177.29	85.029	1.2793e-05	85.717	269.616	255.802	258.326	178.788	321.305	340.739	177.092	184.097	330.438	309.543	181.559	186.439	188.773	193.642	311.180	190.442	-8191	255	
46183.449	1	1	0	0	0.22167	0.19444	0.18246	0.40965	0.19496	0.16289	0.32185	0.36175	0.21929	0.18691	0.25642	0.1243	0.068436	0.44895	0.16078	0.33264	-2.5979	-3.6083	-2.5542	-3.3812	-3.1813	-2.7083	-3.6333	-3.1125	-2.7333	-3.4708	-2.8375	-3.3229	-3.3417	-2.8104	-3.3458	-3.1625	447.849	335.069	507.204	516.208	174.451	421.438	524.238	517.608	303.650	350.003	484.225	522.999	440.859	465.838	486.936	493.224	0.0009503	0.0010692	0.00024377	1182	5.514e-06	6.7765e-06	942.69	468.38	4.4623e-06	1.049e-05	424.54	172.36	185.32	88.388	6.1885e-06	88.775	0.0011328	0.0011638	0.00032999	1117.3	1.2502e-05	1.2879e-05	892.32	445.24	1.2586e-05	1.2967e-05	402.19	164.33	176.96	84.726	1.3037e-05	85.289	269.629	242.567	252.110	178.776	340.877	296.799	177.575	184.055	305.269	316.988	181.696	186.267	188.696	193.748	306.694	190.394	-8191	255	
46183.547	1	1	0	0	0.070211	0.17516	0.19845	0.33648	0.22406	0.027548	0.35097	0.12009	0.1148	0.084447	0.12671	0.023149	0.24865	0.19775	0.069302	0.12654	-2.4188	-3.5167	-2.6896	-3.1875	-3.1937	-2.6229	-3.2708	-3.1813	-2.6146	-3.3792	-3.1083	-2.9417	-3.7208	-2.9125	-3.3187	-3.175	303.648	177.526	480.176	478.085	200.576	356.064	459.490	473.165	246.142	332.971	248.905	448.019	483.715	422.861	422.600	499.024	0.00095078	0.00051423	0.00017327	1179	1.064e-05	8.6788e-06	942.64	468.1	7.1371e-06	8.0166e-06	421.84	171.33	184.59	88.098	9.4038e-06	88.397	0.0011389	0.0011745	0.00032643	1114.8	1.2485e-05	1.2876e-05	890.34	444.51	1.2517e-05	1.2792e-05	399.94	163.4	176.07	84.346	1.2598e-05	84.659	268.741	307.231	225.885	178.656	357.777	299.157	177.298	183.837	352.760	309.049	181.977	186.661	188.558	193.787	291.816	190.131	-8191	255	
46183.645	1	1	0	0	0.24705	0.04173	0.21342	0.10587	0.23039	0.25534	0.078189	0.35728	0.25939	0.065256	0.12043	0.026105	0.076206	0.22888	0.23153	0.28419	-2.3833	-3.3625	-2.7854	-3.1437	-3.5229	-2.4188	-3.4062	-3.1729	-2.6229	-3.4813	-2.7979	-3.0563	-3.5917	-2.825	-3.2812	-3.5292	283.103	366.572	487.353	501.940	226.016	202.894	478.820	490.138	259.233	345.132	498.249	394.784	433.045	180.517	385.073	449.987	0.00090842	0.0011182	0.00016823	1177.4	2.8579e-06	7.7789e-06	942.9	466.17	1.1635e-05	7.9412e-06	418.17	169.48	182.86	87.223	4.9755e-06	87.905	0.0011163	0.001164	0.00032313	1112.2	1.2136e-05	1.2671e-05	889.29	442.5	1.2242e-05	1.2624e-05	397.96	162.15	174.71	83.679	1.2181e-05	84.194	268.833	280.005	262.991	178.718	275.822	285.315	177.079	184.159	332.457	312.490	181.504	186.531	188.566	193.692	310.503	190.666	-8191	255	
46183.738	1	1	0	0	0.19798	0.14738	0.077817	0.25816	0.11938	0.16964	0.20243	0.1519	0.029221	0.18184	0.29244	0.15978	0.21803	0.34291	0.12927	0.36903	-2.15	-3.4604	-3.0167	-2.8271	-3.5604	-2.7771	-3.3583	-3.4271	-2.6937	-3.4646	-3.2708	-2.9146	-3.5687	-2.8167	-2.9333	-3.4417	196.377	387.156	317.188	470.831	390.956	383.013	469.420	472.090	277.033	525.397	166.343	498.141	454.818	502.536	512.129	458.609	0.00094276	0.00073148	0.00018056	1175.1	2.5299e-06	7.3557e-06	939.51	463.78	1.0827e-05	9.1661e-06	416.39	169.36	183.28	87.414	1.0281e-05	88.14	0.0011006	0.0011181	0.00031113	1115.2	1.1649e-05	1.234e-05	887.77	441.5	1.1938e-05	1.2117e-05	396.14	161.78	174.89	83.889	1.2082e-05	84.3	269.059	234.661	306.174	178.473	361.150	323.915	177.404	184.165	327.085	342.265	181.434	186.475	188.573	193.488	297.911	190.469	-8191	255	
46183.836	1	1	0	0	0.16253	0.27873	0.21659	0.24953	0.12511	0.11828	0.071721	0.3129	0.17785	0.22721	0.30471	0.22139	0.10318	0.37947	0.1365	0.23522	-2.3146	-3.2667	-2.9604	-2.6542	-3.4479	-2.7896	-3.2333	-3.5563	-2.7354	-3.3604	-3.35	-2.6854	-3.5396	-2.9688	-3.0625	-3.4521	234.496	347.572	253.854	452.776	212.058	180.080	228.667	462.768	318.269	415.910	498.220	467.912	306.494	480.367	345.789	479.520	0.00099431	0.0011643	0.00037958	1182.8	6.6461e-06	6.1399e-06	934.54	465.23	7.0984e-06	6.2186e-06	416.32	168.09	182.77	87.198	4.0456e-06	86.834	0.001073	0.0011234	0.00031303	1116.2	1.1707e-05	1.2243e-05	885.61	441.23	1.1921e-05	1.216e-05	392.73	160.63	174.1	83.398	1.2005e-05	83.279	271.507	262.447	237.553	178.706	334.343	366.525	177.324	184.225	296.373	320.422	181.920	186.618	188.705	193.640	277.045	190.592	-8191	255	
46183.953	1	1	0	0	0.2435	0.10403	0.11735	0.093079	0.15052	0.074294	0.25682	0.30229	0.11151	0.04252	0.26792	0.20269	0.08078	0.28928	0.18558	0.15613	-2.4083	-3.475	-3.3854	-2.6646	-3.4979	-2.8729	-2.9792	-3.6188	-2.7521	-3.1771	-3.3771	-2.675	-3.5771	-3.0521	-2.8063	-3.625	339.687	348.839	215.153	205.398	280.201	311.300	390.820	520.735	333.392	218.558	190.494	514.054	505.307	174.223	246.566	485.006	0.00090212	0.0011181	0.00011615	1173.8	2.5761e-06	5.9312e-06	933.47	462.38	8.2604e-06	9.2742e-06	412.34	166.69	181.81	86.382	7.4416e-06	86.586	0.0010792	0.0010922	0.00030563	1110.9	1.1849e-05	1.2147e-05	881.25	438.92	1.197e-05	1.2145e-05	390.96	158.99	173.29	82.863	1.1711e-05	82.955	275.605	239.359	290.707	178.724	336.846	321.333	177.644	184.076	311.062	332.165	181.629	186.503	188.617	193.729	322.596	190.211	-8191	255	
46184.051	1	1	0	0	0.017105	0.22441	0.1245	0.1059	0.10973	0.19059	0.052367	0.14475	0.17504	0.11307	0.21	0.16447	0.30577	0.14315	0.22205	0.35444	-2.2938	-2.9958	-3.1	-2.6125	-3.3479	-2.9021	-2.8688	-3.5042	-2.6937	-2.9167	-3.3167	-2.85	-3.4813	-3.3042	-2.6292	-3.45	316.153	266.366	203.634	503.165	184.928	178.609	477.698	423.395	238.394	224.993	448.840	480.491	509.978	515.593	358.406	434.933	0.00095382	0.00087998	0.00017193	1174.6	8.5408e-06	1.1718e-05	935.25	462.81	5.8643e-06	8.9951e-06	410.04	167	182.03	86.769	4.5258e-06	87.218	0.001075	0.0010908	0.00030241	1111.1	1.1933e-05	1.2118e-05	880.34	439	1.1746e-05	1.1763e-05	390.04	158.95	173.28	83.185	1.1772e-05	83.504	270.490	295.302	273.891	178.712	302.980	315.988	177.000	183.924	320.702	320.006	181.652	186.403	188.596	193.658	303.441	190.445	-8191	255	
46184.145	1	1	0	0	0.20301	0.014947	0.10623	0.11109	0.15534	0.16552	0.17834	0.11175	0.21437	0.23111	0.029666	0.19394	0.068362	0.12542	0.23487	0.033298	-2.4583	-2.8917	-3.2917	-2.775	-3.3917	-3.2625	-2.6958	-3.6083	-2.8	-2.8688	-3.5146	-2.5854	-3.2208	-3.3958	-2.65	-3.5833	276.397	170.319	439.371	280.832	441.439	424.278	451.617	493.101	463.330	194.908	410.841	453.716	465.928	211.472	423.033	324.178	0.00093011	0.0014588	0.00014027	1177.3	6.1243e-06	6.8451e-06	932.13	464.04	8.2583e-06	8.1945e-06	412.11	167.26	182.63	87.254	5.6807e-06	88.33	0.0010652	0.0010773	0.00030476	1110.4	1.1547e-05	1.1997e-05	881.61	439.53	1.1848e-05	1.1888e-05	390.95	160.12	174.11	83.781	1.197e-05	84.541	267.847	261.003	252.316	178.690	339.704	319.086	177.466	183.818	319.716	329.917	181.766	186.626	188.597	193.547	311.731	190.400	-8191	255	
46184.242	1	1	0	0	0.14156	0.18384	0.12887	0.028954	0.20021	0.10694	0.08082	0.31347	0.12284	0.02192	0.28278	0.32547	0.31171	0.31436	0.22046	0.038585	-2.5417	-2.5979	-3.5021	-2.7417	-3.1646	-3.1292	-2.6708	-3.5521	-2.975	-2.775	-3.6271	-2.6104	-3.0646	-3.4104	-2.5563	-3.4646	394.911	448.844	415.462	241.084	397.293	388.868	484.480	434.683	488.453	254.691	506.502	491.426	510.948	494.603	513.213	522.160	0.00089827	0.0010427	0.00032949	1173.7	3.1127e-06	9.1956e-06	929.17	465.45	6.5121e-06	6.3453e-06	412.39	169.43	183.47	88.014	8.7941e-06	88.919	0.0010662	0.0010966	0.00030408	1109.1	1.1859e-05	1.2222e-05	878.42	440.9	1.2116e-05	1.2455e-05	393.18	161.37	175.44	84.638	1.2169e-05	85.219	269.664	255.592	242.387	178.347	340.161	290.915	177.095	184.052	318.999	305.056	181.557	186.072	188.830	193.408	336.160	190.543	-8191	255	
46184.340	1	1	0	0	0.14263	0.1529	0.063572	0.17794	0.082347	0.035878	0.26492	0.29795	0.06257	0.20749	0.1676	0.29782	0.18929	0.1955	0.090633	0.29253	-2.5646	-2.7313	-3.5083	-2.9854	-2.9083	-3.4437	-2.6146	-3.3458	-3.1208	-2.6625	-3.4437	-2.8083	-3.0312	-3.6188	-2.6542	-3.4646	289.176	490.408	296.822	468.829	243.306	428.404	480.402	466.184	511.079	324.566	223.879	199.558	437.993	416.496	466.032	174.100	0.00092435	0.0010157	0.00029688	1173.1	5.9621e-06	7.1927e-06	931.5	464.65	6.5878e-06	9.9925e-06	413.99	170.39	185.13	88.796	5.5531e-06	89.131	0.0010811	0.0010985	0.00030386	1107.3	1.156e-05	1.2084e-05	879.34	442.08	1.1945e-05	1.214e-05	394.47	162.71	176.36	85.312	1.2056e-05	85.48	269.153	240.903	233.797	178.481	334.456	381.162	177.516	184.310	317.512	289.567	181.790	186.117	188.691	193.256	310.863	190.360	-8191	255	
46184.434	1	1	0	0	0.06496	0.037262	0.10258	0.17897	0.18527	0.22276	0.083225	0.13396	0.1581	0.2131	0.12483	0.1882	0.20771	0.20316	0.19779	0.18456	-2.8646	-2.5896	-3.475	-2.7812	-2.9938	-3.6333	-2.7729	-3.2792	-3.1333	-2.6188	-3.4542	-2.7938	-3.0125	-3.5979	-2.7604	-3.4125	378.528	222.729	320.608	427.910	266.864	473.841	395.063	499.689	278.760	308.521	501.634	469.916	422.820	465.370	179.625	444.835	0.0010389	0.00079174	0.0002598	1172.2	1.0887e-05	8.5481e-06	927.49	464.87	8.0964e-06	5.3646e-06	413.36	168.17	184.01	88.221	8.4181e-06	88.837	0.0010672	0.0010924	0.00030475	1107.8	1.1849e-05	1.1942e-05	878.31	441.47	1.1748e-05	1.195e-05	392.37	160.83	175.08	84.606	1.226e-05	85.351	271.413	278.857	262.016	178.443	351.478	295.302	177.173	184.182	303.296	304.607	182.024	186.098	188.622	193.543	325.116	190.614	-8191	255	
46184.555	1	1	0	0	0.38875	0.076603	0.12082	0.24605	0.23661	0.22625	0.12932	0.19758	0.073543	0.027696	0.23829	0.15079	0.24304	0.40008	0.10469	0.26116	-3.0062	-2.7021	-3.4167	-3.0875	-2.7479	-3.3896	-2.75	-3.0729	-3.4021	-2.6125	-3.3438	-3.0125	-2.6979	-3.55	-2.8021	-3	272.161	256.535	327.842	525.103	503.263	522.769	325.614	508.734	348.860	221.730	472.009	436.996	462.571	514.044	235.732	437.893	0.00090243	0.00097794	0.00024303	1175.7	7.0075e-06	1.0697e-05	927.01	463.52	5.437e-06	6.5877e-06	411.83	168.77	182.81	87.649	7.4669e-06	88.16	0.0010634	0.0010891	0.00030657	1110.6	1.1848e-05	1.1874e-05	877.62	440.61	1.1702e-05	1.1955e-05	391.02	160.7	174.63	84.436	1.2091e-05	84.543	269.957	267.826	257.258	178.561	331.444	331.938	177.142	184.060	326.073	360.784	181.808	186.596	188.844	193.386	285.054	190.652	-8191	255	
46184.648	1	1	0	0	0.12046	0.096544	0.12726	0.22282	0.21984	0.23532	0.35425	0.28046	0.18473	0.098543	0.11072	0.26689	0.17276	0.36507	0.37156	0.24143	-3.0875	-2.5	-3.1708	-3.0458	-2.5854	-3.4437	-2.6917	-2.8271	-3.2396	-2.4521	-3.3917	-3.2792	-2.7646	-3.5708	-2.6479	-2.9583	411.599	223.570	473.470	513.609	267.728	274.069	488.446	174.365	428.331	327.526	479.052	455.827	175.052	504.862	351.756	493.787	0.00091803	0.0010811	0.00019946	1167.7	4.9224e-06	1.0141e-05	918.69	459.64	1.2612e-05	1.1279e-05	408.2	166.77	181.72	87.459	5.7301e-06	87.471	0.0010882	0.0011008	0.00030877	1103.6	1.1753e-05	1.1915e-05	870.53	437.92	1.1653e-05	1.1965e-05	388.18	159.33	173.76	83.992	1.1884e-05	83.758	270.767	255.784	241.864	178.470	346.890	317.735	177.414	184.168	337.485	319.423	181.791	186.231	188.642	193.549	331.934	190.685	-8191	255	
46184.723	1	1	0	0	0.17002	0.016445	0.11945	0.14016	0.10445	0.19443	0.11097	0.2706	0.16817	0.034404	0.16693	0.069549	0.079304	0.18756	0.16844	0.13877	-2.9062	-2.5146	-3.0938	-3.2479	-2.3958	-3.4625	-3.1312	-2.8458	-3.4604	-2.8083	-3.3333	-3.4396	-2.6	-3.5271	-3.0146	-2.9125	179.972	521.190	509.489	478.176	497.904	266.827	367.972	412.348	381.211	330.157	508.767	408.055	451.016	511.841	271.230	463.527	0.00090977	0.00081164	0.0003551	1167.5	5.1191e-06	6.7794e-06	910.84	459.19	8.8442e-06	1.1479e-05	408.41	166.06	182.18	87.754	7.6713e-06	87.694	0.001067	0.0011111	0.00030629	1103.4	1.165e-05	1.2028e-05	866.53	437.34	1.1888e-05	1.2084e-05	388	158.76	173.91	84.113	1.2276e-05	84.026	268.244	284.134	263.083	178.803	325.625	272.782	177.248	184.147	340.662	334.734	181.792	186.225	188.621	193.491	337.123	190.485	-8191	255	
46184.816	1	1	0	0	0.20152	0.23171	0.089539	0.14085	0.12894	0.16532	0.25557	0.12568	0.087781	0.22871	0.091246	0.18924	0.18777	0.11082	0.21474	0.13576	-3.0375	-2.7708	-2.9375	-3.6042	-2.4896	-3.3396	-3.0375	-2.7792	-3.4437	-2.9062	-3.0938	-3.4729	-2.8271	-3.625	-3.3187	-2.8937	422.510	507.125	279.952	455.087	401.255	360.906	454.379	399.254	239.343	487.569	434.755	452.931	463.791	473.299	408.346	411.618	0.00090542	0.00074841	0.00033881	1165.9	8.9707e-06	9.6082e-06	913.19	458.63	6.8147e-06	8.0638e-06	406	165.81	180.61	86.798	7.0727e-06	86.753	0.0010847	0.0011342	0.00031155	1102.8	1.2191e-05	1.2325e-05	868.01	436.98	1.1989e-05	1.2584e-05	386.12	158.64	172.84	83.588	1.2352e-05	83.425	270.471	268.146	274.363	178.483	311.592	296.524	177.275	184.292	365.287	302.899	181.900	186.160	188.646	193.732	340.769	190.504	-8191	255	
46184.914	1	1	0	0	0.071419	0.24445	0.13781	0.19498	0.2694	0.14378	0.032225	0.14825	0.084719	0.38365	0.20604	0.17451	0.15794	0.22769	0.33258	0.1528	-3.1646	-2.8708	-2.7938	-3.725	-2.6312	-3.3646	-3.5104	-2.8646	-3.5	-2.9979	-3.0667	-3.6083	-2.8063	-3.3479	-3.2125	-2.8063	345.243	412.825	222.833	371.030	310.345	393.744	305.200	259.201	276.422	422.152	445.774	208.149	466.979	469.582	497.990	486.160	0.00094471	0.00037373	0.00037845	1163.5	5.6286e-06	3.6802e-06	915.01	459	8.3623e-06	7.6491e-06	399.66	162.21	178.78	86.147	6.6505e-06	85.148	0.0010916	0.0011449	0.0003143	1101.4	1.2151e-05	1.2355e-05	865.05	436.54	1.2051e-05	1.2373e-05	381.75	156.28	171.26	82.721	1.2243e-05	82.002	272.063	255.220	283.894	178.613	375.119	337.142	177.097	184.304	306.970	300.367	181.802	186.409	188.466	193.678	296.246	190.426	-8191	255	
46185.035	1	1	0	0	0.12214	0.0601	0.10748	0.29497	0.18262	0.053178	0.16862	0.17703	0.17419	0.13291	0.14082	0.1672	0.29305	0.023464	0.12563	0.25771	-2.9583	-2.7271	-2.6708	-3.4833	-2.7292	-2.9917	-3.4417	-2.7438	-3.3583	-3.0062	-2.7979	-3.6	-2.8937	-3.2292	-3.3042	-2.8083	476.270	348.859	170.005	511.265	195.840	371.231	477.582	455.111	369.064	177.023	387.457	313.177	482.811	311.675	356.120	490.933	0.00098896	0.00079104	8.4487e-05	1159.6	9.6589e-06	3.7866e-06	901.64	455.14	3.7094e-06	7.444e-06	395.92	160.94	178.85	85.724	7.9457e-06	85.094	0.0010808	0.0011163	0.00031414	1100.2	1.2109e-05	1.248e-05	856.67	432.89	1.2482e-05	1.2617e-05	378.96	154.29	170.78	82.369	1.2552e-05	81.736	268.971	269.823	271.066	178.814	330.880	326.957	177.693	184.036	348.416	309.972	181.874	186.577	188.708	193.684	252.002	190.384	-8191	255	
46185.133	1	1	0	0	0.057997	0.010432	0.1602	0.072058	0.05714	0.25493	0.19985	0.18272	0.1558	0.22495	0.18088	0.21833	0.064103	0.17411	0.089361	0.15093	-2.9979	-3.0146	-2.6729	-3.6333	-2.6583	-2.9896	-3.5	-2.8417	-3.1896	-3.075	-2.6813	-3.5521	-2.9417	-2.8708	-3.4458	-2.8792	281.666	293.104	236.761	495.694	347.002	214.045	480.206	407.483	409.854	371.714	477.331	432.910	475.060	190.722	246.162	446.252	0.00088087	0.00077458	0.00025883	1156.3	1.2283e-05	5.1349e-06	902.5	452.34	1.101e-05	7.6179e-06	395.47	161.13	177.04	85.081	1.0217e-05	84.738	0.0011225	0.0011556	0.00032681	1099.1	1.256e-05	1.2771e-05	856.3	431.99	1.2555e-05	1.2967e-05	378.7	154.23	169.77	81.901	1.2632e-05	81.498	271.017	247.079	235.116	178.764	349.052	261.236	177.400	184.175	311.055	303.588	181.717	186.431	188.861	193.630	310.045	190.591	-8191	255	
46185.227	1	1	0	0	0.033376	0.17043	0.20146	0.27328	0.20956	0.12976	0.20791	0.22959	0.28905	0.17488	0.18793	0.033866	0.23658	0.17162	0.18298	0.1454	-2.8646	-3.1604	-2.5604	-3.5438	-2.8979	-2.8625	-3.5812	-2.6688	-3.1063	-3.2938	-2.6813	-3.5917	-3.1063	-2.9333	-3.4583	-2.9833	407.034	387.528	339.317	513.339	457.480	339.920	438.621	469.129	237.867	222.937	323.340	299.533	173.624	483.277	505.303	241.860	0.0009733	0.00083157	0.00013482	1158.4	1.0211e-05	5.8626e-06	906.23	454.29	8.6864e-06	6.6282e-06	396.85	161.32	177.49	85.009	4.8725e-06	84.272	0.0011376	0.0011754	0.00033206	1097.8	1.271e-05	1.3122e-05	857.79	432.53	1.2778e-05	1.311e-05	378.91	154.64	169.86	81.763	1.2914e-05	81.213	271.080	253.591	273.690	178.640	351.176	316.260	177.456	184.217	327.431	283.519	181.821	186.462	188.661	193.740	288.712	190.244	-8191	255	
46185.348	1	1	0	0	0.20912	0.12129	0.064592	0.14708	0.096162	0.17946	0.079252	0.13783	0.13664	0.21204	0.26543	0.10062	0.18709	0.26427	0.18402	0.242	-2.6833	-3.4333	-2.5812	-3.5854	-3.0604	-2.6354	-3.5083	-2.8583	-2.9688	-3.525	-2.8229	-3.4437	-3.2583	-2.7875	-3.5292	-2.7812	453.428	357.902	193.071	518.586	301.052	263.737	348.679	215.734	459.798	381.178	497.230	404.032	470.910	187.448	489.736	426.711	0.00089287	0.00097997	0.00010691	1157.1	1.2725e-05	1.1641e-05	902.61	454.08	8.2506e-06	5.3257e-06	398.25	160.61	178.28	85.588	5.0324e-06	84.95	0.0011532	0.0011852	0.00033062	1099.8	1.2517e-05	1.3263e-05	857.14	433.49	1.294e-05	1.295e-05	379.84	154.4	170.77	82.4	1.2798e-05	81.685	270.209	262.386	244.553	178.662	358.811	324.555	177.647	184.145	305.164	345.290	181.596	186.684	188.701	193.597	340.956	190.521	-8191	255	
46185.418	1	1	0	0	0.047461	0.17621	0.2295	0.09101	0.16393	0.23053	0.098462	0.33944	0.1155	0.24356	0.030908	0.174	0.21909	0.27597	0.096448	0.031651	-2.6188	-3.3917	-2.3937	-3.4688	-3.1104	-2.7562	-3.6562	-3.1354	-2.8604	-3.525	-2.7167	-3.275	-3.2229	-2.8958	-3.3708	-3.0729	188.134	212.421	243.421	271.465	406.224	473.800	351.174	476.885	169.883	305.261	282.282	168.899	505.571	475.589	460.234	514.026	0.0009329	0.00047429	0.00036468	1160.2	7.5757e-06	8.5062e-06	899.78	452.92	4.3199e-06	6.631e-06	394.92	162.47	178.82	86.674	1.0811e-05	86.147	0.0011174	0.0011685	0.00032959	1097.8	1.242e-05	1.2933e-05	853.68	432.35	1.251e-05	1.2764e-05	377.78	155.04	171.35	83.103	1.2557e-05	82.457	267.906	307.309	252.238	178.584	315.584	317.902	177.516	184.242	336.105	323.350	181.803	186.263	188.415	193.470	321.164	190.421	-8191	255	
46185.516	1	1	0	0	0.041812	0.21779	0.15991	0.1522	0.31383	0.094739	0.081673	0.11585	0.29541	0.094986	0.24138	0.22963	0.19076	0.30298	0.11286	0.15628	-2.3542	-3.4167	-2.6083	-3.2687	-3.2687	-2.7792	-3.4167	-3.0875	-2.725	-3.4062	-2.7583	-3.0854	-3.4229	-2.7188	-3.4125	-3.0438	399.179	465.723	343.817	446.452	207.294	395.222	406.737	250.498	243.878	500.015	168.501	322.424	184.383	444.964	471.881	444.120	0.00091356	0.00086297	0.00027501	1153.2	2.0492e-06	6.5621e-06	897.35	453.12	6.5784e-06	3.0899e-06	393.36	160.75	176.83	85.715	1.4483e-05	84.861	0.0010916	0.001132	0.00031762	1095	1.2057e-05	1.2463e-05	853.28	431.89	1.228e-05	1.2358e-05	377.15	154.55	170.03	82.4	1.2386e-05	81.636	272.945	242.935	265.872	178.867	279.074	309.182	177.142	183.871	312.948	327.397	181.724	186.525	188.663	193.642	291.224	190.414	-8191	255	
46185.637	1	1	0	0	0.078596	0.080541	0.13416	0.062138	0.17704	0.22203	0.050636	0.088648	0.2167	0.23537	0.18432	0.10816	0.42091	0.18249	0.20664	0.079692	-2.3979	-3.5	-2.7687	-3.1042	-3.3979	-2.5896	-3.4625	-3.3167	-2.5896	-3.4688	-2.8583	-3.0563	-3.4708	-2.8688	-3.0896	-3.1312	478.403	253.140	344.191	507.189	472.550	361.866	480.575	195.938	429.465	485.257	438.297	457.366	498.955	417.037	296.487	377.075	0.00087195	0.00095433	8.6534e-05	1155.3	8.1008e-06	2.5705e-06	899.06	451.59	1.0368e-05	4.3789e-06	390.05	158.4	175.95	84.239	5.4448e-06	84.328	0.001097	0.001142	0.00032048	1095.8	1.2148e-05	1.2587e-05	851.31	430.31	1.2525e-05	1.2727e-05	374.13	151.89	168.4	81.202	1.2742e-05	80.903	272.298	315.018	297.993	178.691	314.156	275.051	177.288	183.893	311.058	329.500	181.514	186.497	188.697	194.006	321.334	190.651	-8191	255	
46185.730	1	1	0	0	0.086309	0.12912	0.27211	0.27904	0.16934	0.45045	0.17404	0.35732	0.18414	0.2201	0.061456	0.1442	0.22992	0.32632	0.23692	0.057547	-2.3604	-3.2562	-2.5854	-2.8354	-3.4021	-2.6771	-3.3583	-3.5354	-2.5812	-3.5979	-2.9104	-2.9	-3.6479	-2.6875	-3.0062	-3.3146	213.437	522.738	425.115	497.773	255.711	390.210	187.731	460.981	237.373	267.388	203.964	499.810	428.974	468.835	242.686	496.844	0.00089911	0.00012134	0.00031791	1156.3	8.7259e-06	7.3953e-06	899.68	449.9	8.3405e-06	6.9251e-06	390.72	160.14	177.19	85.445	3.3236e-06	85.207	0.0010982	0.0011557	0.00032715	1097	1.2197e-05	1.2835e-05	850.84	429.9	1.2683e-05	1.277e-05	374.55	153.37	170.21	82.278	1.2756e-05	81.811	267.089	283.945	300.790	178.466	311.088	352.808	177.363	184.228	324.979	305.421	182.061	186.472	188.628	193.595	301.228	190.637	-8191	255	
46185.824	1	1	0	0	0.2472	0.11244	0.041085	0.25008	0.17185	0.26868	0.14914	0.094373	0.097424	0.12753	0.10919	0.097921	0.13231	0.21683	0.095245	0.32471	-2.1708	-3.3854	-2.9562	-2.8563	-3.5021	-2.7125	-3.2208	-3.4229	-2.5375	-3.3375	-3.0062	-2.7229	-3.6583	-2.9479	-3.0667	-3.4292	410.809	413.290	420.539	492.876	289.153	216.910	481.555	282.551	474.495	225.321	510.415	337.082	507.637	496.046	408.171	448.235	0.00085167	0.00082051	0.00027746	1145.7	7.7925e-06	5.4648e-06	897.42	453.32	6.8763e-06	1.0317e-05	393.73	162.72	178.48	85.582	1.1775e-05	85.191	0.00113	0.0011844	0.00032726	1092.8	1.2453e-05	1.3066e-05	851.55	431.17	1.2755e-05	1.2939e-05	375.74	154.85	170.62	82.322	1.3097e-05	81.978	269.989	262.225	277.270	178.725	340.584	324.408	177.328	184.165	349.520	317.859	181.838	186.612	188.610	193.673	300.559	190.546	-8191	255	
46185.945	1	1	0	0	0.11344	0.036573	0.33834	0.35157	0.0060359	0.10767	0.19787	0.18004	0.094849	0.14651	0.13687	0.26504	0.15215	0.23804	0.25338	0.098587	-2.4146	-3.3688	-3.1271	-2.8229	-3.6083	-2.8521	-3.0583	-3.5583	-2.4271	-3.2521	-3.2062	-2.6396	-3.5167	-3.1125	-2.6146	-3.6688	192.255	501.936	332.965	460.902	333.429	234.565	443.632	168.817	406.820	278.943	398.882	221.995	519.324	210.566	172.635	250.380	0.00093221	0.0010212	0.00027671	1150	5.84e-06	1.194e-05	897.45	453.12	5.2899e-06	2.1323e-06	395.3	160.24	177.41	85.233	7.499e-06	85.024	0.0011302	0.0012009	0.0003283	1093	1.2393e-05	1.3091e-05	849.49	430.44	1.2691e-05	1.2862e-05	376.03	153.42	169.5	81.972	1.2725e-05	81.673	270.913	282.218	257.503	178.720	280.039	289.577	177.204	184.058	315.187	334.195	181.545	186.149	188.729	193.661	285.381	190.517	-8191	255	
46186.020	1	1	0	0	0.046026	0.024877	0.18245	0.11933	0.076338	0.03228	0.19776	0.10127	0.15966	0.16932	0.10822	0.20771	0.24651	0.29182	0.34094	0.20972	-2.4458	-3.075	-3.2938	-2.6833	-3.3792	-2.9854	-2.9708	-3.7875	-2.75	-2.9917	-3.4021	-2.7646	-3.4521	-3.2229	-2.7062	-3.4479	313.446	218.273	328.321	385.903	472.760	237.084	509.469	468.456	346.331	492.392	460.210	463.177	468.706	486.277	513.510	179.089	0.00093802	0.00074767	7.186e-05	1154.4	1.0342e-05	7.4466e-06	900.65	451.2	7.4795e-06	4.7205e-06	394.18	161.53	177.18	85.536	4.0034e-06	85.777	0.0011033	0.0011622	0.00031997	1096	1.2515e-05	1.2927e-05	853.59	430.28	1.2741e-05	1.2899e-05	377.53	154.43	170.06	82.423	1.2772e-05	82.538	269.988	245.003	252.926	178.843	349.508	320.177	177.156	184.126	330.472	286.353	181.827	186.508	188.585	193.657	289.032	190.524	-8191	255	
46186.113	1	1	0	0	0.31365	0.12416	0.23487	0.4207	0.18349	0.048625	0.22108	0.25745	0.21468	0.066865	0.099888	0.10809	0.16518	0.44049	0.13404	0.36322	-2.3271	-2.8729	-3.3521	-2.7521	-3.3458	-3.0729	-2.8375	-3.5292	-2.7896	-2.8667	-3.6042	-2.875	-3.4021	-3.45	-2.6792	-3.5854	247.303	376.870	169.294	495.665	491.597	226.878	464.019	443.483	464.579	207.236	416.998	392.511	454.089	482.984	307.025	481.920	0.00092575	0.0006583	0.00037238	1151	4.0319e-06	1.0815e-06	893.56	452.04	8.709e-06	9.1325e-06	392.21	160.17	178.74	85.461	7.8726e-06	85.389	0.001133	0.0011811	0.00033208	1095	1.2536e-05	1.282e-05	849.7	430.13	1.2698e-05	1.3007e-05	375.74	154.33	170.15	82.363	1.2789e-05	82.07	269.317	254.627	238.114	178.867	324.151	408.580	177.665	184.278	333.873	316.094	181.909	186.725	188.967	193.541	308.758	190.546	-8191	255	
46186.211	1	1	0	0	0.17717	0.18141	0.16768	0.47869	0.2918	0.30205	0.17261	0.17719	0.21891	0.32295	0.15183	0.10751	0.20574	0.19148	0.22952	0.24522	-2.3896	-2.9333	-3.3646	-2.8125	-3.2083	-3.35	-2.675	-3.8021	-2.8312	-2.9521	-3.5917	-2.75	-3.3042	-3.3333	-2.5938	-3.5604	313.809	275.753	332.233	517.377	261.991	524.099	359.257	446.825	312.585	416.063	168.668	417.813	521.382	169.799	439.054	502.386	0.00093508	0.00028918	0.00015059	1144.7	6.8193e-06	9.1433e-06	900	450.79	1.2517e-05	8.3501e-06	392.93	160.63	177.3	85.269	7.8062e-06	84.89	0.0011322	0.0011756	0.00032275	1088.3	1.2537e-05	1.2754e-05	849.5	430.36	1.2759e-05	1.2664e-05	375.99	153.77	169.7	81.958	1.2805e-05	81.636	271.612	220.233	276.073	178.635	319.526	316.602	177.418	184.326	314.778	344.496	181.877	186.308	189.172	193.636	306.628	190.293	-8191	255	
46186.332	1	1	0	0	0.057668	0.22589	0.040855	0.28353	0.1037	0.12424	0.07147	0.12834	0.11406	0.039061	0.31892	0.029332	0.30775	0.074189	0.12442	0.17571	-2.6229	-2.7062	-3.4396	-2.875	-3.1646	-3.2583	-2.5771	-3.4417	-3.0125	-2.7917	-3.5396	-2.875	-3.1625	-3.6292	-2.4437	-3.5583	364.228	441.018	180.545	506.301	491.257	468.389	518.686	206.998	493.232	266.470	467.682	261.799	180.949	499.398	477.977	443.532	0.00089374	0.00072162	0.00010723	1148.9	1.0781e-05	8.8486e-06	891.93	450.95	1.1199e-05	8.3418e-06	393.6	159.72	176.73	84.764	7.3853e-06	85.191	0.0011178	0.0011743	0.00032812	1092.4	1.2743e-05	1.2888e-05	846.98	429.93	1.3023e-05	1.3208e-05	376.38	153.59	169.3	81.821	1.2951e-05	81.887	271.578	214.421	238.572	178.717	334.086	336.476	177.358	184.105	309.447	305.367	181.857	186.468	188.683	193.488	294.908	190.619	-8191	255	
46186.430	1	1	0	0	0.17788	0.10228	0.042737	0.12745	0.13864	0.036219	0.14775	0.094349	0.2421	0.20065	0.30162	0.15446	0.11172	0.26931	0.043018	0.18559	-2.6479	-2.5812	-3.3771	-2.75	-2.8771	-3.4458	-2.7625	-3.4333	-3.1833	-2.5396	-3.4	-2.8396	-2.9042	-3.6604	-2.725	-3.4667	382.203	405.409	370.009	206.031	330.409	395.765	317.637	503.996	369.212	214.760	443.501	460.212	170.327	173.478	449.972	285.309	0.0008703	0.0003708	0.00022397	1151.8	1.1881e-05	7.474e-06	899.38	450.81	8.9603e-06	5.0445e-06	393.75	160.65	177.24	85.23	8.796e-06	85.487	0.0011498	0.001213	0.00033285	1091.6	1.2962e-05	1.3525e-05	850.86	430.63	1.2882e-05	1.3239e-05	377.16	154.37	170.03	82.068	1.3502e-05	82.1	274.782	254.090	261.838	178.857	351.254	346.438	177.416	184.277	329.957	339.723	181.865	186.482	188.853	193.596	299.060	190.593	-8191	255	
46186.523	1	1	0	0	0.18293	0.2321	0.19904	0.11691	0.25444	0.10883	0.2454	0.19182	0.11823	0.18322	0.15592	0.22053	0.065761	0.11387	0.10284	0.029197	-2.8833	-2.3854	-3.4354	-3.0458	-2.7	-3.4667	-2.8479	-3.1979	-3.25	-2.6375	-3.5771	-3.0583	-2.8312	-3.5604	-2.7146	-3.2583	392.813	248.797	452.654	403.409	399.343	211.662	516.271	413.527	402.686	176.921	194.492	398.637	202.427	418.929	450.453	398.109	0.00092256	0.00061129	0.0001814	1147.7	1.1488e-05	9.4674e-06	889.47	452.02	8.9805e-06	5.2069e-06	388.26	159.82	176.23	84.645	1.0384e-05	84.386	0.0011623	0.0012315	0.00034813	1091.1	1.3156e-05	1.3399e-05	847.17	430.33	1.3051e-05	1.3503e-05	374.15	153.43	169.42	81.783	1.3352e-05	81.186	268.757	203.309	276.329	178.721	321.020	409.440	177.450	184.590	319.769	292.450	181.917	186.417	188.805	193.703	299.951	190.364	-8191	255	
46186.617	1	1	0	0	0.15705	0.12854	0.09396	0.33145	0.34143	0.13377	0.26183	0.10521	0.051848	0.1178	0.074949	0.15803	0.20227	0.17945	0.033738	0.078062	-2.9833	-2.6104	-3.2667	-3.1979	-2.8187	-3.4104	-2.7271	-2.9875	-3.3667	-2.7	-3.525	-3.1104	-2.8521	-3.575	-2.7771	-2.9458	273.911	473.175	220.248	202.904	428.007	181.475	459.446	178.829	350.580	279.629	486.031	406.658	518.041	499.925	473.707	440.118	0.00093952	0.0010326	0.00034926	1143.4	8.9562e-06	1.0969e-05	886.07	449.26	8.4386e-06	2.0795e-06	388.85	158.12	174.64	83.987	8.7245e-06	83.448	0.0011671	0.0012349	0.00033993	1089.8	1.3065e-05	1.3397e-05	844.41	429.1	1.3346e-05	1.363e-05	372.51	151.86	168.14	81.057	1.3497e-05	80.289	272.070	279.812	296.014	178.839	389.017	321.688	177.118	184.385	313.753	321.013	181.652	186.446	188.677	194.099	302.562	190.582	-8191	255	
46186.715	1	1	0	0	0.23933	0.18893	0.32959	0.34055	0.13422	0.30247	0.041761	0.1088	0.1682	0.16319	0.025826	0.11164	0.37356	0.2304	0.16026	0.38304	-3.0625	-2.5687	-3.2625	-3.3417	-2.6188	-3.3583	-3.0521	-3.05	-3.3229	-2.5458	-3.4833	-3.3937	-2.8896	-3.6208	-2.9188	-2.7687	519.694	507.287	266.672	482.894	183.951	172.791	322.465	223.698	365.119	418.343	420.174	398.693	488.062	190.147	475.929	491.031	0.00088643	0.00061699	0.0001047	1152.3	1.2693e-05	6.9919e-06	889.49	447.19	7.9883e-06	5.2709e-06	390.5	157.53	174.77	83.295	7.2199e-06	83.109	0.0011632	0.0012274	0.00034265	1093.6	1.3135e-05	1.3579e-05	845.59	428.21	1.3183e-05	1.3402e-05	373.04	151.14	168.01	80.556	1.342e-05	80.149	273.098	297.521	241.219	178.960	336.506	374.126	177.382	184.336	322.655	302.940	182.048	186.737	188.506	193.878	332.513	190.930	-8191	255	
46186.812	1	1	0	0	0.298	0.044566	0.1836	0.18434	0.32898	0.068453	0.049112	0.1109	0.097009	0.099084	0.22228	0.23577	0.39581	0.14522	0.10111	0.10294	-3.1021	-2.5	-3.1083	-3.275	-2.6479	-3.4875	-3.2687	-2.9313	-3.3854	-2.6604	-3.0583	-3.5521	-2.7333	-3.6125	-3.2521	-2.9979	254.279	245.470	261.770	499.516	485.248	437.052	197.125	411.806	463.276	456.594	512.776	506.344	488.917	500.515	173.857	524.123	0.00085614	0.00086026	0.00022201	1149.9	4.916e-06	1.0854e-05	888.18	447.44	5.3248e-06	5.7598e-06	390.35	158.18	174.6	83.555	7.5562e-06	82.735	0.0011603	0.0012407	0.00034546	1093.8	1.3043e-05	1.3468e-05	846.23	428.19	1.3199e-05	1.3604e-05	373.19	151.47	167.59	80.466	1.3234e-05	79.576	268.400	247.493	261.403	178.904	291.487	309.479	177.391	184.274	347.466	317.926	182.077	186.621	189.123	193.733	286.053	190.510	-8191	255	
46186.906	1	1	0	0	0.14996	0.11659	0.14713	0.11452	0.061356	0.065032	0.29162	0.064661	0.1633	0.12771	0.11408	0.25779	0.38866	0.082683	0.28516	0.27325	-3.2792	-2.7812	-3.0187	-3.4958	-2.6479	-3.2833	-3.4229	-2.8083	-3.2875	-2.6542	-3.0229	-3.5687	-2.6354	-3.3958	-3.175	-2.6604	203.505	325.817	218.809	439.038	385.374	293.243	446.246	394.595	476.216	278.807	235.137	479.998	434.802	225.936	390.301	170.464	0.00088982	0.001015	0.00018748	1147.2	8.1417e-06	5.8142e-06	892.38	446.54	4.9332e-06	8.9789e-06	388.93	155.78	173.93	82.715	7.1169e-06	81.722	0.001148	0.0012238	0.00033541	1091.4	1.3037e-05	1.3403e-05	846.37	426.48	1.2755e-05	1.3135e-05	371.63	149.57	166.46	79.7	1.2772e-05	78.645	270.596	285.639	259.965	178.815	294.351	322.000	177.417	184.110	307.494	316.612	182.138	186.742	188.767	193.936	259.765	190.719	-8191	255	
46187.027	1	1	0	0	0.053362	0.25343	0.21707	0.18527	0.12465	0.11517	0.21591	0.045761	0.131	0.15215	0.15538	0.12815	0.28181	0.10901	0.13722	0.095237	-3.4021	-2.9396	-2.8688	-3.55	-2.6729	-3.2271	-3.55	-2.7875	-3.3646	-2.9083	-2.9354	-3.5271	-2.7667	-3.2729	-3.4542	-2.6583	272.786	217.020	492.558	485.354	308.691	233.895	481.489	243.621	338.256	391.814	497.032	265.940	523.573	266.562	368.836	433.818	0.00085968	0.0011408	0.00014122	1149.1	4.2419e-06	9.2995e-06	884.09	445.16	7.3022e-06	8.9347e-06	386.5	154.87	171.81	81.926	4.9128e-06	80.921	0.0011201	0.0011948	0.00032572	1090.4	1.2738e-05	1.3021e-05	845.3	424.71	1.2751e-05	1.268e-05	370.44	148.78	165.13	78.957	1.2667e-05	78.117	269.615	238.117	245.576	178.701	321.837	334.793	177.601	184.265	321.471	333.789	181.974	186.526	188.810	194.025	368.524	190.751	-8191	255	
46187.125	1	1	0	0	0.20339	0.17257	0.27982	0.13636	0.12557	0.16122	0.14571	0.23183	0.24003	0.19456	0.24005	0.14621	0.16638	0.19975	0.1811	0.10471	-3.0292	-2.9396	-2.5938	-3.5292	-2.6562	-3.1646	-3.2521	-2.7958	-3.3583	-3.0896	-2.7521	-3.8	-2.8521	-3.1063	-3.2625	-2.9021	443.481	508.129	331.309	521.864	215.624	380.675	181.498	383.669	381.113	278.941	280.254	408.395	476.713	187.822	480.420	458.281	0.00087325	0.00069092	0.00021206	1146.9	1.1071e-05	3.84e-06	895.28	446.03	9.7465e-06	6.8358e-06	390.28	156.77	173.38	82.51	1.3915e-05	82.279	0.0010933	0.0011711	0.00032332	1091.6	1.2272e-05	1.2891e-05	850.89	426.5	1.2679e-05	1.2924e-05	374.18	150.05	166.05	79.564	1.3214e-05	79.255	273.331	235.892	250.483	178.821	324.910	257.719	177.388	184.329	346.749	291.955	181.969	186.603	188.822	193.898	281.438	190.813	-8191	255	
46187.219	1	1	0	0	0.12074	0.17907	0.19193	0.20454	0.13375	0.062345	0.15903	0.12883	0.069549	0.17847	0.11776	0.2503	0.38344	0.1812	0.12107	0.19927	-3.0167	-3.0896	-2.5875	-3.4875	-2.7625	-2.8875	-3.5875	-2.8021	-3.1625	-3.2354	-2.6458	-3.5229	-2.9271	-2.7667	-3.5333	-2.6771	330.245	314.743	321.316	454.687	437.620	219.941	417.830	209.904	381.117	522.066	299.978	496.445	484.943	194.044	444.093	506.691	0.00085242	0.00048619	0.00024632	1154	6.0213e-06	5.792e-06	899.98	449.58	7.1443e-06	8.7673e-06	392.39	158.29	173.43	83.211	8.1118e-06	83.135	0.0011288	0.0012048	0.00033974	1095.7	1.2985e-05	1.3534e-05	856.2	429.03	1.3085e-05	1.3338e-05	375.55	151.98	167.16	80.302	1.3268e-05	79.908	269.766	315.746	272.500	178.750	330.101	279.056	177.373	184.392	303.538	306.536	181.868	186.745	188.930	193.665	326.553	190.843	-8191	255	
46187.316	1	1	0	0	0.097868	0.19135	0.19439	0.40803	0.1699	0.26536	0.26173	0.32901	0.17089	0.071682	0.22818	0.066708	0.23817	0.20822	0.2548	0.21339	-2.8292	-3.2333	-2.6937	-3.4188	-3.0042	-2.8292	-3.5979	-2.9562	-2.9958	-3.25	-2.7083	-3.4104	-3.1646	-2.9562	-3.275	-2.8375	394.163	215.045	448.954	498.486	465.811	307.062	413.450	446.474	316.892	425.620	182.937	220.193	421.747	479.943	415.846	469.176	0.00084463	0.00053196	0.00037504	1146.2	6.9612e-06	4.8372e-06	892.53	447.41	7.5187e-06	4.4139e-06	392.11	157.41	174	82.729	6.2365e-06	82.724	0.0011467	0.0012173	0.00034003	1093.1	1.2751e-05	1.3571e-05	851.02	427.21	1.3016e-05	1.3392e-05	375.85	151.63	167.36	80.08	1.3228e-05	79.817	273.038	279.606	266.509	178.532	290.346	333.436	177.500	184.322	331.041	282.136	181.918	186.379	188.570	194.023	339.115	190.507	-8191	255	
46187.410	1	1	0	0	0.15944	0.067821	0.052345	0.1377	0.13656	0.15347	0.013554	0.043856	0.23388	0.09246	0.29173	0.4248	0.14561	0.22938	0.20517	0.10519	-2.6604	-3.4458	-2.5667	-3.2792	-3.2208	-2.8792	-3.525	-2.9896	-2.9271	-3.45	-2.7292	-3.3646	-3.3354	-2.8312	-3.3229	-3.1375	185.249	451.760	200.753	170.272	367.860	197.586	284.084	392.951	462.935	285.880	481.222	398.968	169.271	447.128	206.393	445.390	0.00087999	0.00033178	0.00015719	1150.9	1.5047e-05	6.2172e-06	894.35	448.31	7.4633e-06	4.9349e-06	390.46	157.8	174.46	83.217	9.3405e-06	82.543	0.0011575	0.0012179	0.00034557	1093.1	1.293e-05	1.3609e-05	852.66	428.48	1.3165e-05	1.3476e-05	375.39	151.66	167.48	80.299	1.321e-05	79.631	269.048	502.749	296.378	178.901	324.140	318.692	177.507	184.323	330.821	247.600	181.914	186.513	188.827	193.942	315.893	190.535	-8191	255	
46187.508	1	1	0	0	0.10306	0.097837	0.17992	0.4181	0.18771	0.13779	0.20832	0.22936	0.1102	0.1352	0.13561	0.29566	0.25708	0.22277	0.10274	0.17723	-2.5729	-3.4875	-2.625	-3.4104	-3.1604	-2.7771	-3.6146	-3.1	-2.9062	-3.5083	-2.7667	-3.2083	-3.4229	-2.7042	-3.3021	-3.0604	453.568	205.883	443.876	469.684	287.259	419.768	389.133	454.971	439.320	269.205	337.426	510.279	466.691	483.385	312.380	514.724	0.0008637	0.00065502	0.00038677	1145.2	7.6459e-06	8.5131e-06	895.3	447.99	8.6983e-06	8.0596e-06	392.86	159.1	174.55	83.056	1.0813e-05	83.086	0.0011525	0.0012249	0.00034531	1093	1.3124e-05	1.3472e-05	854.69	428.07	1.3182e-05	1.3248e-05	376.65	152.57	167.72	80.286	1.3242e-05	80.08	266.420	276.162	252.672	178.776	308.980	296.986	177.558	184.426	334.215	305.929	181.995	186.557	188.815	193.805	304.873	190.710	-8191	255	
46187.629	1	1	0	0	0.13806	0.027278	0.14683	0.29305	0.096705	0.17095	0.14061	0.23183	0.147	0.31355	0.39408	0.17155	0.092069	0.24288	0.033868	0.42371	-2.3812	-3.4917	-2.7375	-3.1896	-3.3271	-2.6271	-3.5896	-3.2729	-2.9375	-3.5625	-2.9146	-3.1292	-3.5104	-2.7271	-3.2979	-3.275	333.762	278.428	350.019	519.099	488.081	192.666	353.046	404.969	506.818	406.813	403.647	508.270	446.445	491.789	227.207	455.849	0.00094288	0.0010748	0.00012729	1151.6	7.1621e-06	6.3503e-06	894.79	446.23	1.0652e-05	5.7933e-06	391.93	157.76	174.27	83.194	7.6298e-06	82.17	0.0011632	0.0012219	0.00034187	1096	1.2671e-05	1.3401e-05	853.79	428.11	1.2838e-05	1.3013e-05	375.63	151.64	167.52	80.241	1.2918e-05	79.25	269.812	235.066	236.527	178.864	348.124	332.272	177.509	184.276	329.630	308.949	181.716	186.434	188.840	193.505	295.178	190.418	-8191	255	
46187.723	1	1	0	0	0.11461	0.23478	0.16845	0.059523	0.12713	0.14048	0.069979	0.25988	0.12534	0.15338	0.29476	0.1708	0.14769	0.16198	0.1779	0.18784	-2.3833	-3.1979	-2.8	-3.2354	-3.325	-2.6562	-3.4354	-3.375	-2.8333	-3.4396	-2.8125	-2.9813	-3.6167	-2.6854	-3.2687	-3.3583	423.784	401.172	514.226	453.626	427.399	406.185	212.378	440.829	309.432	403.320	521.614	211.140	174.981	199.679	349.537	430.522	0.00089734	0.00046675	5.3535e-05	1144.5	1.0303e-05	6.1914e-06	892.53	445.21	8.3241e-06	6.6404e-06	391.21	157.88	174.92	83.297	4.5577e-06	82.483	0.001117	0.0011838	0.00033024	1092.3	1.2553e-05	1.2943e-05	849.03	427.03	1.2754e-05	1.2868e-05	373.03	151.33	167.26	80.146	1.2927e-05	79.079	271.230	241.249	259.269	178.651	342.192	333.206	177.605	184.035	314.600	312.090	181.811	186.363	188.671	193.724	312.379	190.322	-8191	255	
46187.820	1	1	0	0	0.23794	0.20431	0.052729	0.12766	0.12563	0.07037	0.20403	0.17232	0.30503	0.132	0.060154	0.040233	0.071917	0.22271	0.22189	0.16584	-2.2229	-3.5438	-2.8021	-3.1562	-3.6167	-2.6792	-3.5146	-3.4958	-2.7083	-3.3771	-3.1167	-2.9875	-3.5854	-2.9875	-3.1083	-3.6021	336.448	312.757	474.175	447.381	301.497	231.578	468.448	191.454	187.949	265.375	230.339	410.114	461.201	453.732	252.693	230.766	0.00088465	0.00023618	0.00025218	1152.8	5.9673e-06	6.677e-06	900.83	448.26	7.2156e-06	1.0106e-05	390.7	157.97	175.67	83.454	6.4986e-06	82.574	0.0011169	0.0011797	0.00033049	1092.1	1.2577e-05	1.3157e-05	852.21	428.05	1.2757e-05	1.3066e-05	373.88	151.51	167.97	80.222	1.2943e-05	79.452	270.712	319.487	283.647	178.578	350.101	312.840	177.640	184.089	327.271	272.769	181.747	186.427	188.457	193.620	310.555	190.391	-8191	255	
46187.891	1	1	0	0	0.14003	0.048419	0.24734	0.055783	0.19167	0.067314	0.073553	0.044113	0.32222	0.19353	0.058002	0.20967	0.055462	0.049984	0.057449	0.078042	-2.3021	-3.2625	-3.1667	-2.8667	-3.5479	-2.7875	-3.0833	-3.5021	-2.5917	-3.2292	-3.2958	-2.7708	-3.6229	-2.9083	-2.9125	-3.5729	406.040	240.668	293.520	486.678	323.991	203.842	167.686	183.074	455.927	174.685	234.256	168.572	343.915	415.105	435.929	381.936	0.00085572	0.0010627	0.00025418	1153.2	9.4659e-06	1.0364e-05	903.42	448.39	4.5465e-06	4.6515e-06	393.59	158.37	175.95	83.129	5.0376e-06	82.49	0.0011389	0.0012096	0.00032986	1094.1	1.2622e-05	1.3316e-05	851.86	427.89	1.2962e-05	1.3218e-05	374.25	151.69	168	80.111	1.3056e-05	79.412	270.171	280.637	244.463	178.796	343.331	349.798	177.483	184.124	332.852	318.604	181.491	186.633	188.754	193.520	322.353	190.335	-8191	255	
46188.012	1	1	0	0	0.21484	0.34533	0.19865	0.29719	0.20794	0.21632	0.25024	0.16019	0.22764	0.16433	0.095894	0.17528	0.12182	0.22335	0.14423	0.28218	-2.3646	-3.2062	-3.1437	-2.7375	-3.4896	-3.0167	-3.1333	-3.5312	-2.7062	-3.2125	-3.4542	-2.6792	-3.6771	-3.1208	-2.7396	-3.7542	226.343	469.051	229.052	458.452	447.692	203.889	468.173	518.665	180.466	496.232	417.545	398.311	495.911	216.864	174.804	166.232	0.00081126	0.00030103	0.00034635	1154.6	1.0899e-05	5.6217e-06	893.76	449.81	6.902e-06	9.1252e-06	389.63	157.09	174.07	82.741	7.6694e-06	81.306	0.001144	0.0012071	0.0003344	1095.3	1.2957e-05	1.3431e-05	848.96	427.73	1.294e-05	1.3239e-05	371.41	150.32	166.96	79.603	1.3163e-05	78.079	272.267	297.197	284.524	178.538	343.598	305.698	177.312	184.091	326.435	295.492	181.751	186.571	188.848	193.532	306.158	190.433	-8191	255	
46188.109	1	1	0	0	0.13327	0.11548	0.26496	0.20303	0.11617	0.33125	0.13932	0.057487	0.061492	0.15895	0.12017	0.11555	0.23487	0.13056	0.010277	0.27524	-2.3312	-2.9896	-3.1417	-2.6771	-3.4292	-2.9792	-2.9104	-3.725	-2.6771	-3.1146	-3.575	-2.7917	-3.3812	-3.3187	-2.7896	-3.5563	442.196	273.465	216.827	516.576	231.587	398.034	517.470	284.405	317.747	175.440	172.496	514.336	456.597	503.503	341.983	521.804	0.0008344	0.0012808	0.00018034	1150.2	8.7394e-06	5.553e-06	889.17	445.74	5.6327e-06	9.9059e-06	385.72	155.83	173.11	82.318	7.4099e-06	80.714	0.0011349	0.0011967	0.00033668	1093.7	1.2767e-05	1.3032e-05	846	425.86	1.291e-05	1.2879e-05	368.84	149.43	166.08	79.159	1.2955e-05	77.742	275.721	235.050	291.400	178.750	331.351	358.747	177.370	184.121	342.180	308.396	182.043	186.591	188.692	193.488	307.355	190.231	-8191	255	
46188.203	1	1	0	0	0.21164	0.057851	0.28692	0.29531	0.18241	0.23726	0.1034	0.23982	0.15914	0.10842	0.20195	0.34975	0.10824	0.15873	0.08508	0.059526	-2.5167	-2.9083	-3.2188	-2.7625	-3.3688	-3.1771	-2.7812	-3.6083	-2.7708	-2.9167	-3.5979	-2.7604	-3.3625	-3.4417	-2.6521	-3.6854	328.045	227.058	284.531	493.440	406.642	338.998	474.387	471.967	231.779	235.201	478.990	505.160	417.324	224.696	333.700	185.133	0.00080212	0.00068207	0.00023618	1152.3	1.1386e-05	4.0574e-06	889.92	447.44	5.5908e-06	3.6305e-06	387.69	155.6	175.04	82.15	6.4547e-06	80.605	0.0011172	0.0011876	0.00033037	1094	1.243e-05	1.2994e-05	846.29	426.36	1.2884e-05	1.2786e-05	369.28	149.09	166.75	79.1	1.2997e-05	77.703	274.245	251.242	265.877	178.648	339.306	274.910	177.464	184.144	319.136	365.242	181.649	186.276	188.808	193.464	320.965	190.480	-8191	255	
46188.301	1	1	0	0	0.3757	0.11501	0.056735	0.11083	0.17845	0.11342	0.12223	0.38184	0.25126	0.10728	0.15057	0.10556	0.22013	0.34182	0.16465	0.21943	-2.6688	-2.9083	-3.4583	-2.8604	-3.1625	-3.4188	-2.7604	-3.5542	-3.0542	-2.7333	-3.7917	-2.8	-3.0646	-3.5333	-2.6333	-3.3771	452.517	241.292	239.611	418.086	414.018	190.374	220.914	494.241	414.938	249.612	168.916	184.094	247.260	499.362	461.763	455.568	0.00087161	0.00087121	0.00016748	1153.6	8.0141e-06	8.5951e-06	891.85	448.08	6.4231e-06	4.5655e-06	386.57	156.6	173.69	82.046	5.0606e-06	80.943	0.0011173	0.0012004	0.00032971	1095.9	1.2765e-05	1.3136e-05	848.46	427.02	1.2957e-05	1.3001e-05	370.8	149.49	166.26	79.109	1.3087e-05	77.951	271.299	329.416	257.470	178.561	293.000	302.669	177.284	184.302	332.872	278.947	181.458	186.520	188.603	193.599	317.164	190.854	-8191	255	
46188.422	1	1	0	0	0.2874	0.14216	0.16344	0.22562	0.11224	0.20066	0.25201	0.027365	0.19152	0.067846	0.1128	0.12799	0.20689	0.035653	0.24407	0.083131	-2.6896	-2.6562	-3.4708	-2.9917	-2.9792	-3.3229	-2.65	-3.2521	-3.0125	-2.6021	-3.3646	-2.8583	-3.1	-3.4917	-2.6875	-3.4375	297.255	469.549	242.587	493.084	263.682	519.834	435.783	406.375	302.863	282.159	463.244	475.782	232.053	464.894	245.194	247.850	0.00081917	0.0005979	0.00021131	1150.9	1.2592e-05	1.1494e-05	885.71	446.54	5.2315e-06	6.7252e-06	383.79	154.82	173.77	81.689	5.501e-06	80.155	0.0011439	0.0012183	0.00033205	1094.2	1.2737e-05	1.3352e-05	844.37	425.99	1.2893e-05	1.3322e-05	368.59	148.3	165.91	78.695	1.3017e-05	77.151	269.298	237.101	270.286	178.673	343.714	322.281	177.550	184.076	346.096	294.225	181.302	186.631	188.685	193.622	308.398	190.337	-8191	255	
46188.516	1	1	0	0	0.051802	0.26342	0.082453	0.08458	0.1203	0.20431	0.053791	0.086402	0.064202	0.10279	0.24988	0.016396	0.26737	0.39365	0.24223	0.083124	-2.6667	-2.6854	-3.3646	-2.8833	-2.8688	-3.3521	-2.6021	-3.3937	-3.2979	-2.7687	-3.4271	-3.0625	-2.9146	-3.5333	-2.6562	-3.1667	451.200	404.891	285.505	508.059	470.904	355.810	378.409	169.543	179.497	389.050	515.768	384.552	441.515	488.772	290.848	337.805	0.00086737	0.00081839	0.00010288	1148.2	8.2263e-06	3.437e-06	880.46	446.79	6.4917e-06	3.4804e-06	383.48	153.99	172.3	81.355	8.3682e-06	79.999	0.0011372	0.0012094	0.00033055	1090.8	1.3103e-05	1.3242e-05	841.26	424.83	1.2933e-05	1.364e-05	367.77	147.66	165.45	78.503	1.3291e-05	77.04	268.582	205.673	197.344	178.840	348.858	271.454	177.145	184.227	329.445	311.020	181.513	186.487	188.696	193.699	310.161	190.122	-8191	255	
46188.590	1	1	0	0	0.21588	0.080358	0.18096	0.14686	0.035468	0.096402	0.19163	0.25357	0.30908	0.082739	0.12007	0.15931	0.27414	0.32452	0.13362	0.21815	-2.9271	-2.6417	-3.35	-3.0979	-2.7438	-3.3458	-2.7833	-3.1813	-3.2396	-2.6292	-3.4667	-3.1688	-2.7833	-3.5958	-2.7812	-3.1396	367.779	281.765	385.125	454.839	372.911	323.823	454.236	171.866	472.852	282.424	403.946	424.194	210.903	515.322	298.429	406.887	0.00082263	0.0005303	0.0003106	1147.8	4.531e-06	8.3234e-06	887.82	443.24	6.8618e-06	5.8694e-06	380.93	154.34	171.49	81.055	7.3192e-06	79.761	0.0011595	0.001227	0.00034609	1092.1	1.2955e-05	1.3367e-05	842.32	424.3	1.3126e-05	1.3336e-05	366.8	147.63	164.77	78.356	1.3382e-05	76.796	273.712	263.938	223.887	178.685	300.080	352.520	177.294	184.061	309.623	272.859	182.074	186.247	188.975	193.498	320.019	190.321	-8191	255	
46188.711	1	1	0	0	0.16575	0.088449	0.068355	0.18545	0.19068	0.19978	0.23519	0.13347	0.030208	0.033549	0.09421	0.18206	0.31578	0.084264	0.27645	0.031945	-2.9792	-2.4833	-3.1063	-3.3042	-2.6271	-3.4958	-3.0167	-3.0938	-3.3	-2.6875	-3.3812	-3.1771	-2.8521	-3.6688	-2.7229	-3.0708	177.615	412.244	453.171	484.877	261.383	481.059	504.697	487.481	207.576	299.559	482.372	456.576	516.681	214.189	306.922	461.105	0.00069883	0.00032386	0.00021553	1147.1	4.2995e-06	9.9637e-06	890.82	445.25	1.0137e-05	6.0262e-06	383.84	154.52	172.62	81.102	7.7228e-06	80.01	0.0011286	0.0012297	0.00034638	1090.9	1.3058e-05	1.3518e-05	843.73	424.86	1.3109e-05	1.3364e-05	368.91	148.32	165.77	78.584	1.3341e-05	77.167	271.747	299.053	313.056	178.737	268.980	305.339	177.167	184.254	320.087	300.187	181.909	186.492	188.628	193.546	290.274	190.553	-8191	255	
46188.805	1	1	0	0	0.2704	0.19018	0.043071	0.24343	0.29803	0.20905	0.26328	0.2104	0.28078	0.086501	0.43371	0.39604	0.058837	0.046671	0.39867	0.17085	-3.3021	-2.325	-3.25	-3.3042	-2.7	-3.5938	-3.0875	-2.8708	-3.4729	-2.6896	-3.3167	-3.2313	-2.7313	-3.55	-3.1063	-2.8438	424.869	327.557	454.527	496.313	492.621	459.419	460.741	419.848	440.162	461.155	401.499	456.287	512.182	173.003	429.460	253.291	0.00081318	0.00053847	0.0002722	1146.9	6.0685e-06	1.0598e-06	890.38	444.05	5.9719e-06	5.0399e-06	382.98	155.01	172.15	81.746	8.6206e-06	79.722	0.0011583	0.001235	0.00034781	1091.6	1.3236e-05	1.3534e-05	842.64	424.56	1.3356e-05	1.3607e-05	367.65	148.31	165.39	78.701	1.3471e-05	76.841	267.077	286.388	246.404	178.581	354.145	499.497	177.149	184.174	350.930	332.848	181.786	186.396	188.661	193.676	338.835	190.451	-8191	255	
46188.898	1	1	0	0	0.29043	0.2479	0.25483	0.21833	0.10162	0.099227	0.1348	0.21243	0.093085	0.2703	0.046117	0.23375	0.20298	0.28832	0.033449	0.29982	-3.3042	-2.7438	-3.0833	-3.4521	-2.5625	-3.4688	-3.1458	-2.9104	-3.7167	-2.7958	-3.0563	-3.3979	-2.7479	-3.6312	-3.1646	-3.0062	459.432	302.381	383.331	489.462	291.173	279.713	485.137	453.746	388.709	361.924	173.224	453.431	513.931	455.638	422.976	466.262	0.00089662	0.00048439	0.00017497	1146.6	9.739e-06	5.5872e-06	881.36	444.68	9.171e-06	1.3521e-05	384.82	153.58	172.23	81.397	3.9473e-06	79.658	0.0011505	0.0012089	0.0003495	1089	1.32e-05	1.3736e-05	839.21	423.95	1.3133e-05	1.3795e-05	367.96	147.95	165.53	78.516	1.3463e-05	76.871	271.609	317.879	229.815	178.712	333.742	330.348	177.466	184.083	313.514	316.450	182.123	186.396	188.771	194.007	274.602	190.527	-8191	255	
46188.996	1	1	0	0	0.12093	0.12544	0.36282	0.054014	0.093333	0.10137	0.31155	0.22324	0.11125	0.1376	0.20057	0.12721	0.2485	0.2067	0.093731	0.1601	-3.15	-2.9771	-3.025	-3.7542	-2.5312	-3.25	-3.2979	-2.6646	-3.4271	-2.8563	-2.975	-3.3563	-2.9104	-3.2792	-3.1896	-2.8063	186.608	453.190	367.422	191.555	465.984	278.183	507.189	366.391	470.004	200.409	387.939	463.382	513.336	491.713	172.583	427.012	0.00083305	0.0011335	0.00030898	1149.1	4.6422e-06	2.5693e-06	882.57	445.03	8.6678e-06	4.8854e-06	383.33	153.71	172.36	81.104	4.1547e-06	79.486	0.0011752	0.0012301	0.00034382	1089.9	1.3329e-05	1.3566e-05	840.95	424.88	1.3536e-05	1.3582e-05	367.49	147.75	165.19	78.271	1.3593e-05	76.66	272.648	255.381	261.668	178.777	307.908	308.340	177.060	184.377	339.626	322.125	181.979	186.675	188.877	194.028	277.656	190.626	-8191	255	
46189.117	1	1	0	0	0.24175	0.11598	0.27346	0.18794	0.084828	0.22175	0.26618	0.22533	0.047568	0.25907	0.090216	0.15558	0.29327	0.19783	0.11399	0.28439	-3.0333	-2.9271	-2.7792	-3.7958	-2.7542	-3.1104	-3.4833	-2.7271	-3.4625	-2.9146	-2.8563	-3.6458	-2.6917	-3.3396	-3.3896	-2.9625	425.255	275.090	493.569	447.918	173.125	513.513	517.189	456.606	192.907	492.574	250.209	510.041	445.951	477.233	496.099	521.345	0.00081175	0.00065563	0.00024188	1148.8	6.7853e-06	9.237e-06	887.05	443.86	4.9432e-06	2.9297e-06	384.78	154.1	172.34	81.027	1.2014e-05	79.042	0.0011723	0.0012341	0.00034744	1091.4	1.3208e-05	1.3821e-05	843.42	424.73	1.348e-05	1.3874e-05	368.26	147.9	165.17	78.277	1.348e-05	76.417	272.414	255.136	275.123	178.953	321.932	294.902	177.526	184.151	310.417	302.745	181.985	186.650	188.675	193.908	289.227	190.208	-8191	255	
46189.188	1	1	0	0	0.084935	0.10095	0.24326	0.13352	0.25215	0.14507	0.26819	0.17628	0.19943	0.15837	0.076672	0.24557	0.32825	0.17463	0.17008	0.19337	-2.9958	-3.125	-2.8187	-3.6021	-2.8312	-3.1583	-3.5979	-2.8521	-3.2875	-3.1104	-2.6958	-3.4875	-2.9229	-3.0563	-3.3667	-2.7729	223.391	288.720	363.058	167.372	370.579	172.999	445.980	428.487	286.457	335.798	186.564	448.502	466.433	440.837	448.920	468.864	0.00087078	0.00080483	0.000198	1141.7	9.2764e-06	6.5158e-06	874.01	442.05	3.4388e-06	7.9035e-06	381.39	153.1	170.62	80.492	1.24e-05	78.232	0.0011579	0.0012412	0.00034654	1089.5	1.3242e-05	1.4038e-05	838.26	423.71	1.3336e-05	1.3516e-05	364.83	146.61	164.14	77.652	1.3187e-05	75.575	272.516	280.842	251.537	178.629	313.186	306.496	177.432	184.075	341.402	294.654	181.948	186.428	188.756	193.817	306.944	190.672	-8191	255	
46189.309	1	1	0	0	0.10746	0.31313	0.19119	0.11686	0.21917	0.093844	0.080764	0.38184	0.14616	0.053042	0.12158	0.10985	0.25127	0.24344	0.11623	0.20964	-2.8937	-3.0771	-2.4667	-3.5542	-2.8312	-2.8604	-3.6208	-2.7021	-3.1521	-3.3083	-2.8	-3.5438	-3.2771	-2.85	-3.3958	-2.9708	293.759	249.995	487.905	490.256	390.151	275.471	182.865	449.707	300.372	472.315	480.785	365.276	443.119	450.840	493.659	431.143	0.00083174	0.00068094	0.00018419	1146.6	5.7463e-06	4.1713e-06	881.38	441.04	3.084e-06	5.2383e-06	377.18	151.49	170.61	80.37	9.949e-06	78.161	0.0011551	0.0012321	0.0003444	1089.7	1.3393e-05	1.3424e-05	837.6	422.04	1.3258e-05	1.3394e-05	363.43	145.72	164.16	77.607	1.3086e-05	75.423	266.588	267.353	286.878	178.879	290.796	344.456	177.232	184.194	309.424	320.632	181.883	186.170	188.661	193.996	346.539	190.455	-8191	255	
46189.406	1	1	0	0	0.18775	0.24667	0.22264	0.18795	0.26099	0.067216	0.15412	0.17965	0.17468	0.21577	0.03326	0.32876	0.21219	0.088894	0.21789	0.18705	-2.55	-3.2792	-2.625	-3.5958	-3.0938	-2.7938	-3.6396	-2.7771	-3.1354	-3.4708	-2.5896	-3.4354	-3.2812	-2.9896	-3.4729	-3.0542	329.856	325.511	242.040	521.564	440.229	394.108	471.708	483.354	297.880	387.272	210.249	184.166	519.988	265.870	523.288	497.087	0.00083982	0.00065424	0.00036108	1148.1	4.744e-06	7.1683e-06	876.71	442.38	6.5754e-06	7.9964e-06	376.41	151.63	170.56	79.882	7.8849e-06	77.364	0.0011505	0.0012258	0.00034129	1090.7	1.3156e-05	1.3608e-05	838.6	422.06	1.3523e-05	1.3507e-05	361.83	145.69	163.75	77.216	1.3742e-05	74.954	274.487	305.083	247.921	178.685	307.484	332.756	177.372	184.188	291.699	335.929	181.801	186.756	188.639	193.941	340.371	190.391	-8191	255	
46189.500	1	1	0	0	0.047858	0.040753	0.11106	0.16518	0.14758	0.070926	0.16883	0.21312	0.13458	0.1267	0.023091	0.046709	0.16294	0.25363	0.29944	0.081672	-2.8417	-3.475	-2.5625	-3.3417	-3.1958	-2.5875	-3.625	-3.0312	-2.9875	-3.3563	-2.8146	-3.3563	-3.3646	-2.7979	-3.3229	-3.2458	227.559	167.480	174.411	448.295	427.528	407.669	430.203	457.025	337.290	270.548	435.856	313.183	169.445	496.575	425.587	464.622	0.00076069	0.00055928	0.00030525	1146.7	6.1388e-06	1.0023e-05	878.49	440.43	5.5055e-06	5.9946e-06	377.41	149.97	169.31	79.56	3.6968e-06	76.607	0.0011782	0.0012518	0.00035197	1092.7	1.3596e-05	1.3838e-05	838.56	421.43	1.3684e-05	1.402e-05	360.91	144.41	162.59	76.747	1.3899e-05	74.171	266.799	303.635	302.921	178.698	312.707	303.150	177.443	184.038	348.432	306.672	181.720	186.509	188.817	194.031	284.842	190.529	-8191	255	
46189.598	1	1	0	0	0.16162	0.15126	0.17051	0.24246	0.30624	0.063237	0.052718	0.32074	0.17366	0.26296	0.2393	0.18203	0.29577	0.49756	0.14096	0.17077	-2.5625	-3.5042	-2.6875	-3.3063	-3.2458	-2.5958	-3.5208	-3.1042	-2.8854	-3.3854	-2.7479	-3.1104	-3.4646	-2.8979	-3.375	-3.0938	197.590	286.025	421.492	457.010	169.116	497.662	389.363	175.531	428.053	174.698	166.662	507.750	520.661	492.503	313.175	489.710	0.00080299	0.00082592	0.00028427	1151.9	1.0504e-05	1.0813e-05	877.54	439.62	3.1529e-06	5.2219e-06	372.61	148.2	168.9	79.148	6.537e-06	76.368	0.0011895	0.0012946	0.0003637	1098.7	1.407e-05	1.4367e-05	838.35	421.29	1.4173e-05	1.4521e-05	358.4	143.27	162.29	76.429	1.4102e-05	73.797	274.034	225.820	251.159	178.667	332.355	269.229	177.474	184.060	294.070	312.368	181.627	186.594	188.802	193.895	293.717	190.603	-8191	255	
46189.715	1	1	0	0	0.18492	0.30777	0.23288	0.11805	0.13381	0.066169	0.2537	0.24519	0.13265	0.073583	0.072089	0.17547	0.15233	0.25703	0.19475	0.13484	-2.3792	-3.3042	-2.825	-3.1937	-3.4542	-2.6688	-3.6583	-3.4292	-2.7833	-3.5396	-3.0854	-3.0563	-3.7	-2.9521	-3.1708	-3.3542	170.245	206.649	197.062	502.075	330.879	378.279	286.797	439.342	397.138	451.096	351.623	198.124	244.974	213.552	329.389	339.835	0.00081435	0.00070957	0.00015778	1156.3	5.9779e-06	9.9173e-06	878.05	439.96	1.008e-05	2.4735e-06	372.79	148.45	169.64	78.979	3.1237e-06	76.771	0.0012025	0.0012937	0.00036928	1103.1	1.3785e-05	1.4391e-05	838.29	420.8	1.4304e-05	1.4504e-05	358.92	143.43	162.86	76.463	1.4321e-05	73.966	264.916	224.094	312.477	178.760	344.204	318.576	177.314	184.400	331.124	241.246	181.480	186.612	188.722	193.809	308.215	190.395	-8191	255	
46189.812	1	1	0	0	0.17611	0.29419	0.22781	0.15424	0.2209	0.15156	0.15803	0.13703	0.14469	0.16823	0.095327	0.061497	0.067677	0.27614	0.15164	0.1732	-2.1479	-3.55	-2.9625	-3.0187	-3.5479	-2.7562	-3.3375	-3.5083	-2.5687	-3.425	-3.0729	-3.0521	-3.7917	-2.8417	-3.3104	-3.4604	185.161	249.626	192.208	523.348	277.482	184.734	202.152	167.957	504.342	474.080	483.837	431.696	499.320	480.583	254.366	483.753	0.00079706	0.00081094	0.00027477	1159.6	3.9201e-06	7.9072e-06	882.59	440.05	9.5351e-06	9.3211e-06	371.92	148.1	169.28	78.946	6.6145e-06	76.73	0.0012334	0.0013259	0.00036776	1105	1.4167e-05	1.4576e-05	841.28	421.75	1.4292e-05	1.4478e-05	359.66	143.9	162.73	76.641	1.4307e-05	74.271	271.908	273.034	292.878	178.719	346.341	296.344	177.342	184.225	328.057	326.024	181.507	186.136	188.917	193.827	257.465	190.831	-8191	255	
46189.883	1	1	0	0	0.13414	0.27219	0.083512	0.12802	0.16516	0.14504	0.11371	0.20962	0.2864	0.053473	0.3198	0.034439	0.10122	0.21874	0.10817	0.036014	-2.3396	-3.4688	-2.9042	-2.8646	-3.4625	-2.8667	-3.2646	-3.4583	-2.6188	-3.3708	-3.3167	-2.7313	-3.7729	-3.0042	-3.1042	-3.6354	252.527	263.475	466.772	193.113	447.157	344.225	518.332	416.771	171.689	404.561	463.492	190.449	175.568	488.655	412.016	492.207	0.00082909	0.0012309	0.00032302	1158.3	8.9729e-06	1.0085e-05	884.06	440.78	4.6504e-06	1.0905e-05	373.62	149.53	169.44	79.585	8.8542e-06	76.731	0.0012347	0.0013286	0.00037429	1107.8	1.3929e-05	1.4616e-05	842.61	422.57	1.4309e-05	1.4492e-05	359.71	143.99	163.2	76.814	1.4338e-05	74.182	269.637	258.198	276.172	179.047	331.098	330.683	177.687	184.374	286.009	325.062	181.940	186.881	188.979	193.742	304.632	190.296	-8191	255	
46189.980	1	1	0	0	0.036684	0.14552	0.19151	0.40046	0.15899	0.080453	0.43032	0.31363	0.21338	0.1925	0.20661	0.10406	0.24201	0.10979	0.2008	0.26209	-2.3563	-3.2833	-3.1188	-2.7208	-3.4604	-2.7021	-2.9958	-3.5062	-2.4208	-3.2458	-3.2042	-2.7229	-3.7062	-3.1021	-2.9313	-3.6292	175.243	233.861	457.358	480.997	235.639	474.684	458.231	491.067	227.327	292.464	206.705	248.947	506.847	385.004	416.744	523.986	0.00084124	0.0007358	0.00024295	1155.4	7.2508e-06	1.1881e-05	876.13	437.13	6.4736e-06	8.2324e-06	370.27	148.64	168.92	79.256	1.2528e-05	76.525	0.0012208	0.0013356	0.00036643	1104.1	1.3953e-05	1.468e-05	837.15	420.66	1.4192e-05	1.4394e-05	357.5	143.25	162.66	76.637	1.4566e-05	73.746	270.717	251.303	292.994	178.859	324.995	322.133	177.969	184.259	345.514	251.799	181.361	186.516	188.742	193.637	338.576	190.223	-8191	255	
46190.102	1	1	0	0	0.19149	0.046319	0.10681	0.023586	0.21703	0.1481	0.44664	0.18664	0.017659	0.14701	0.11115	0.094945	0.15109	0.28676	0.24192	0.34544	-2.4208	-3.275	-3.2104	-2.7438	-3.55	-3.0479	-2.9562	-3.5646	-2.5917	-3.1375	-3.4437	-2.5146	-3.5083	-3.1688	-2.6333	-3.7021	194.707	502.800	265.818	178.613	266.280	330.013	462.069	479.171	290.615	355.304	315.728	323.707	416.465	493.677	319.250	444.853	0.00076649	0.00034129	0.00014905	1157.9	1.3901e-05	9.19e-06	872.57	440.63	5.5693e-06	5.7741e-06	372.19	147.69	168.74	78.847	3.8685e-06	76.11	0.001236	0.0013282	0.00037258	1107.2	1.4348e-05	1.4798e-05	835.84	421.54	1.4275e-05	1.4458e-05	357.68	143	162.57	76.529	1.4467e-05	73.824	267.473	278.257	296.597	179.040	338.030	304.993	177.347	183.946	298.874	289.278	181.495	186.663	188.860	193.650	320.196	190.269	-8191	255	
46190.195	1	1	0	0	0.22972	0.10243	0.069396	0.38251	0.051954	0.040964	0.13053	0.10761	0.12909	0.26967	0.14481	0.22578	0.084033	0.13597	0.069587	0.13981	-2.3208	-2.9167	-3.3438	-2.7438	-3.3271	-3.2292	-2.8875	-3.6125	-2.6917	-3.0458	-3.6562	-2.6042	-3.5125	-3.4208	-2.6562	-3.5563	498.851	462.679	321.447	468.628	173.776	333.732	520.355	394.004	459.525	385.991	385.964	502.639	516.531	167.788	227.768	179.114	0.00081117	0.00093038	0.00032421	1153.4	7.6866e-06	7.7931e-06	875.22	440.35	1.2336e-05	9.9568e-06	372.77	148.55	168.78	79.119	1.0065e-05	76.698	0.0012409	0.0013607	0.00036821	1103	1.4151e-05	1.4681e-05	836.98	421.64	1.4228e-05	1.4677e-05	358.48	143.14	162.82	76.688	1.4481e-05	74.063	263.751	238.094	264.312	178.798	327.878	288.415	177.613	184.085	325.310	305.423	181.674	186.461	188.890	193.749	295.634	190.605	-8191	255	
46190.293	1	1	0	0	0.027269	0.21572	0.13634	0.29416	0.097694	0.10509	0.12218	0.16904	0.13852	0.38133	0.2325	0.030422	0.033014	0.27378	0.21568	0.15268	-2.6146	-2.8958	-3.4688	-2.7875	-3.2021	-3.2667	-2.7896	-3.5708	-2.9167	-2.7958	-3.5687	-2.9167	-3.4458	-3.6021	-2.6771	-3.6292	341.149	316.706	276.109	422.116	237.872	320.523	338.737	225.547	502.575	220.113	463.237	166.589	484.333	525.824	420.593	436.350	0.00074434	0.001147	0.00019261	1160.8	1.0222e-05	3.7167e-06	873.47	438.92	5.437e-06	6.6474e-06	370.8	146.74	168.65	78.837	8.6176e-06	76.149	0.0012358	0.0013315	0.000377	1108.3	1.3823e-05	1.4509e-05	835.16	421.51	1.424e-05	1.4585e-05	356.13	142.37	162.63	76.568	1.4728e-05	73.492	268.870	269.486	282.917	178.887	321.171	296.818	177.305	184.291	291.892	298.331	181.669	186.420	188.767	193.853	326.573	190.570	-8191	255	
46190.391	1	1	0	0	0.17082	0.16685	0.13492	0.16524	0.091932	0.083359	0.12033	0.043773	0.056476	0.049037	0.36272	0.10879	0.014141	0.26102	0.16992	0.059854	-2.4188	-2.8604	-3.3646	-3.0062	-3.1958	-3.3917	-2.7229	-3.575	-3.1396	-2.8625	-3.7104	-2.8688	-3.1708	-3.4938	-2.7667	-3.5938	168.896	384.496	280.356	422.535	378.968	353.604	514.656	521.241	202.723	355.329	426.135	204.129	188.786	525.069	429.613	458.104	0.0007607	0.0011081	0.00025357	1147.8	1.3177e-05	7.5211e-06	863.34	438.11	5.7163e-06	1.2047e-05	369.55	147.83	168.52	79.228	1.0986e-05	76.036	0.0012273	0.0013648	0.00037271	1099.7	1.4321e-05	1.4891e-05	829.83	420.97	1.4425e-05	1.4876e-05	356.47	142.69	162.79	76.718	1.475e-05	73.642	269.481	273.417	286.031	178.690	305.434	303.689	177.506	184.401	336.614	352.761	181.606	186.416	188.883	193.752	307.007	190.529	-8191	255	
46190.484	1	1	0	0	0.33666	0.21069	0.29208	0.24654	0.12742	0.17993	0.14918	0.2993	0.13859	0.21631	0.39473	0.045294	0.30361	0.22734	0.11475	0.032077	-2.6792	-2.6354	-3.3729	-2.8958	-3.0104	-3.4375	-2.9146	-3.2188	-3.1562	-2.5917	-3.6063	-2.8937	-3.0708	-3.625	-2.5646	-3.3854	191.760	399.308	484.049	175.340	269.813	194.970	347.543	461.149	173.237	255.465	433.439	436.809	185.746	502.382	361.844	340.295	0.0007517	0.00043998	0.00020799	1147.3	7.3329e-06	1.3e-05	868.18	440.52	5.6849e-06	7.1644e-06	370	147.87	168.47	78.999	6.1927e-06	76.213	0.0012268	0.0013563	0.00038036	1097.2	1.4244e-05	1.4747e-05	829.85	421.19	1.4339e-05	1.4629e-05	356.06	142.85	162.96	76.77	1.4686e-05	73.735	265.141	268.993	233.489	178.682	347.154	345.488	177.416	184.367	321.111	362.500	181.749	186.325	189.095	193.893	263.404	190.749	-8191	255	
46190.582	1	1	0	0	0.27231	0.23553	0.17843	0.16852	0.1077	0.14899	0.14669	0.25229	0.13566	0.12821	0.031411	0.35197	0.12999	0.067424	0.088628	0.20571	-2.8229	-2.4688	-3.4792	-3.0417	-2.7104	-3.3771	-2.8146	-3.1333	-3.3292	-2.6646	-3.4562	-2.9313	-2.9313	-3.5563	-2.8625	-3.2396	422.069	418.154	450.364	382.860	294.585	239.314	442.296	481.886	481.057	258.487	214.813	430.421	276.723	180.608	407.873	188.979	0.00080926	0.00076458	0.00010286	1151.4	1.1598e-05	9.0818e-06	865.38	439.09	6.341e-06	3.4512e-06	370.84	148.02	169.31	79.534	8.1912e-06	76.231	0.0012464	0.0013583	0.00038077	1098.7	1.4656e-05	1.4804e-05	831.71	420.67	1.4494e-05	1.514e-05	355.9	142.89	162.98	76.987	1.4969e-05	73.86	268.315	268.048	206.901	178.806	359.511	319.630	177.493	184.409	321.646	380.116	181.884	186.562	189.079	193.787	251.683	190.623	-8191	255	
46190.680	1	1	0	0	0.13465	0.23277	0.076659	0.14152	0.21309	0.20267	0.092909	0.17035	0.028413	0.11724	0.028187	0.17713	0.40383	0.21847	0.21699	0.11122	-3.1188	-2.5438	-3.4104	-3.2333	-2.7604	-3.55	-2.9604	-3.3	-3.4167	-2.7771	-3.4292	-3.225	-2.9458	-3.7875	-2.9417	-3.0604	480.532	419.007	280.168	403.310	469.946	405.856	402.882	403.950	319.562	416.082	372.044	490.923	523.740	405.709	467.242	325.775	0.00081066	0.00067532	0.00026742	1148.1	7.479e-06	3.7418e-06	863.63	438.7	8.6553e-06	4.5457e-06	367.11	146.64	168.14	78.757	8.8853e-06	75.084	0.0012556	0.0013627	0.00037805	1098.9	1.4489e-05	1.482e-05	828.61	419.87	1.4536e-05	1.4933e-05	353.64	141.51	162.44	76.455	1.4787e-05	72.805	267.759	260.160	238.524	178.633	354.959	268.960	177.199	184.290	353.192	328.834	182.175	186.564	189.006	193.755	254.413	190.478	-8191	255	
46190.797	1	1	0	0	0.15835	0.13948	0.17347	0.3512	0.09277	0.1216	0.10888	0.24366	0.17853	0.15377	0.10884	0.11072	0.13843	0.20724	0.049994	0.32332	-3.0208	-2.6937	-3.275	-3.1896	-2.6833	-3.5125	-3.0938	-3.2542	-3.4042	-2.6521	-3.2354	-3.3	-2.825	-3.4583	-2.9042	-3.0292	498.995	350.282	434.866	174.991	500.155	502.452	190.401	487.932	403.566	179.213	430.082	202.856	478.398	450.896	473.349	421.671	0.00081087	0.00076648	0.00010966	1152.9	1.2451e-05	1.0295e-05	860.73	436.66	6.2111e-06	1.2808e-05	366.98	145.96	167.42	78.9	1.3977e-05	75.035	0.0012288	0.0013599	0.00037972	1099.1	1.4321e-05	1.4873e-05	825.12	418.87	1.4154e-05	1.4493e-05	352.77	140.97	161.82	76.446	1.4577e-05	72.943	274.903	235.633	283.944	178.722	332.877	342.378	177.536	184.065	348.476	348.436	181.840	186.434	188.714	193.750	314.530	190.652	-8191	255	
46190.895	1	1	0	0	0.16431	0.33199	0.050958	0.23932	0.12664	0.09637	0.058681	0.15803	0.20568	0.093085	0.079361	0.18593	0.32837	0.035516	0.032679	0.19734	-3.0292	-2.5667	-3.2146	-3.5167	-2.475	-3.4917	-3.0354	-3.0333	-3.3729	-2.6583	-3.1917	-3.3583	-2.7021	-3.425	-3.1937	-2.8271	194.878	241.322	376.787	423.070	333.688	309.358	173.837	260.571	373.360	292.032	208.021	257.965	520.762	508.526	503.514	471.512	0.00079336	0.00077691	0.00012706	1147.7	7.6134e-06	1.2309e-05	863.82	433.85	6.2363e-06	6.4115e-06	369.22	145.64	166.81	78.439	9.7328e-06	75.209	0.0012222	0.0013275	0.00036875	1096.3	1.3924e-05	1.4353e-05	825.66	417.12	1.3782e-05	1.4308e-05	353.85	141	160.99	76.045	1.4e-05	72.819	268.304	224.582	306.031	178.645	322.910	343.949	177.413	184.359	315.629	329.225	182.003	186.331	188.751	194.096	315.051	190.638	-8191	255	
#DATA ENDS
