BOXY.EXE: ISS Imagent and Oximeter Data Acquisition Program Version 0.80
Ascii Record File

#ACQ INFORMATION
2  Detector Channels 
16  External MUX Channels 
1  Auxiliary Channels 
5000  Waveform (CCF) Frequency (Hz)
1  Waveforms Skipped 
30  Waveforms Averaged 
1  Cycles Averaged 
16  Acquisitions per Waveform 
10.0806  Updata Rate (Hz) 

#FILE INFORMATION
TRUE -- External MUX Channel results are PARSED.
FALSE -- AC DC and Phase are NOT grouped.
TRUE -- Companion Program Settings File CREATED.
FALSE -- AC data not excluded
FALSE -- DC data not excluded
FALSE -- Phase data not excluded
FALSE -- Auxillary Chn. data not excluded
Tab delimiters

#CALIBRATION STATE
TRUE -- Waveform Calibration Values APPLIED.


#AUX CALIBRATION VALUES
Val Type	aux-1	

Term	1.0000e+00	
Factor	0.0000e+00	


#WF CALIBRATION VALUES
A = Detector Channel
Val Type	A-AC1	A-AC2	A-AC3	A-AC4	A-AC5	A-AC6	A-AC7	A-AC8	A-AC9	A-AC10	A-AC11	A-AC12	A-AC13	A-AC14	A-AC15	A-AC16	A-DC1	A-DC2	A-DC3	A-DC4	A-DC5	A-DC6	A-DC7	A-DC8	A-DC9	A-DC10	A-DC11	A-DC12	A-DC13	A-DC14	A-DC15	A-DC16	A-Ph1	A-Ph2	A-Ph3	A-Ph4	A-Ph5	A-Ph6	A-Ph7	A-Ph8	A-Ph9	A-Ph10	A-Ph11	A-Ph12	A-Ph13	A-Ph14	A-Ph15	A-Ph16	

Term	0.00000e+00	0.00000e+00	0.00000e+00	0.00000e+00	0.00000e+00	0.00000e+00	0.00000e+00	0.00000e+00	0.00000e+00	0.00000e+00	0.00000e+00	0.00000e+00	0.00000e+00	0.00000e+00	0.00000e+00	0.00000e+00	0.00000e+00	0.00000e+00	0.00000e+00	0.00000e+00	0.00000e+00	0.00000e+00	0.00000e+00	0.00000e+00	0.00000e+00	0.00000e+00	0.00000e+00	0.00000e+00	0.00000e+00	0.00000e+00	0.00000e+00	0.00000e+00	0.00000e+00	0.00000e+00	0.00000e+00	0.00000e+00	0.00000e+00	0.00000e+00	0.00000e+00	0.00000e+00	0.00000e+00	0.00000e+00	0.00000e+00	0.00000e+00	0.00000e+00	0.00000e+00	0.00000e+00	0.00000e+00	
Factor	1.00000e+00	1.00000e+00	1.00000e+00	1.00000e+00	1.00000e+00	1.00000e+00	1.00000e+00	1.00000e+00	1.00000e+00	1.00000e+00	1.00000e+00	1.00000e+00	1.00000e+00	1.00000e+00	1.00000e+00	1.00000e+00	1.00000e+00	1.00000e+00	1.00000e+00	1.00000e+00	1.00000e+00	1.00000e+00	1.00000e+00	1.00000e+00	1.00000e+00	1.00000e+00	1.00000e+00	1.00000e+00	1.00000e+00	1.00000e+00	1.00000e+00	1.00000e+00	X	X	X	X	X	X	X	X	X	X	X	X	X	X	X	X	

B = Detector Channel
Val Type	B-AC1	B-AC2	B-AC3	B-AC4	B-AC5	B-AC6	B-AC7	B-AC8	B-AC9	B-AC10	B-AC11	B-AC12	B-AC13	B-AC14	B-AC15	B-AC16	B-DC1	B-DC2	B-DC3	B-DC4	B-DC5	B-DC6	B-DC7	B-DC8	B-DC9	B-DC10	B-DC11	B-DC12	B-DC13	B-DC14	B-DC15	B-DC16	B-Ph1	B-Ph2	B-Ph3	B-Ph4	B-Ph5	B-Ph6	B-Ph7	B-Ph8	B-Ph9	B-Ph10	B-Ph11	B-Ph12	B-Ph13	B-Ph14	B-Ph15	B-Ph16	

Term	0.00000e+00	0.00000e+00	0.00000e+00	0.00000e+00	0.00000e+00	0.00000e+00	0.00000e+00	0.00000e+00	0.00000e+00	0.00000e+00	0.00000e+00	0.00000e+00	0.00000e+00	0.00000e+00	0.00000e+00	0.00000e+00	0.00000e+00	0.00000e+00	0.00000e+00	0.00000e+00	0.00000e+00	0.00000e+00	0.00000e+00	0.00000e+00	0.00000e+00	0.00000e+00	0.00000e+00	0.00000e+00	0.00000e+00	0.00000e+00	0.00000e+00	0.00000e+00	2.93197e+01	-1.46832e+02	-1.39121e+02	-1.81086e+02	-9.40388e+01	-8.26987e+01	-1.58451e+02	-1.62015e+02	-4.88284e+01	-7.25510e+01	-1.70463e+02	-1.70388e+02	-1.82301e+02	-1.76731e+02	-5.84013e+01	-1.49945e+02	
Factor	5.48794e-05	1.85628e-04	4.36060e-05	1.70858e-01	1.72188e-06	1.61827e-06	1.82640e-01	6.30764e-02	2.27960e-06	1.44727e-06	1.00929e-01	3.45204e-02	2.99637e-02	1.05836e-02	1.66694e-06	1.51637e-02	2.09266e-06	2.19092e-06	6.07507e-07	8.53818e-02	2.38634e-08	2.39635e-08	8.56573e-02	3.13960e-02	2.38440e-08	2.39852e-08	4.84051e-02	1.65146e-02	1.48863e-02	5.27694e-03	2.38470e-08	7.29755e-03	X	X	X	X	X	X	X	X	X	X	X	X	X	X	X	X	



#DISTANCE SETTINGS
A = Detector Channel
A-1	A-2	A-3	A-4	A-5	A-6	A-7	A-8	A-9	A-10	A-11	A-12	A-13	A-14	A-15	A-16	

2.5000e+00	3.0000e+00	2.5000e+00	3.0000e+00	2.0000e+00	3.0000e+00	1.5000e+00	3.0000e+00	3.0000e+00	3.0000e+00	3.0000e+00	3.0000e+00	3.0000e+00	3.0000e+00	1.5000e+00	3.0000e+00	

B = Detector Channel
B-1	B-2	B-3	B-4	B-5	B-6	B-7	B-8	B-9	B-10	B-11	B-12	B-13	B-14	B-15	B-16	

1.0000e+01	1.0000e+01	1.0000e+01	1.4400e+00	1.0000e+01	1.0000e+01	1.5100e+00	1.9400e+00	1.0000e+01	1.0000e+01	1.9900e+00	2.4900e+00	2.4100e+00	2.9000e+00	1.0000e+01	2.9800e+00	




#DATA BEGINS
time	group	step	mark	flag	A-AC1	A-AC2	A-AC3	A-AC4	A-AC5	A-AC6	A-AC7	A-AC8	A-AC9	A-AC10	A-AC11	A-AC12	A-AC13	A-AC14	A-AC15	A-AC16	A-DC1	A-DC2	A-DC3	A-DC4	A-DC5	A-DC6	A-DC7	A-DC8	A-DC9	A-DC10	A-DC11	A-DC12	A-DC13	A-DC14	A-DC15	A-DC16	A-Ph1	A-Ph2	A-Ph3	A-Ph4	A-Ph5	A-Ph6	A-Ph7	A-Ph8	A-Ph9	A-Ph10	A-Ph11	A-Ph12	A-Ph13	A-Ph14	A-Ph15	A-Ph16	B-AC1	B-AC2	B-AC3	B-AC4	B-AC5	B-AC6	B-AC7	B-AC8	B-AC9	B-AC10	B-AC11	B-AC12	B-AC13	B-AC14	B-AC15	B-AC16	B-DC1	B-DC2	B-DC3	B-DC4	B-DC5	B-DC6	B-DC7	B-DC8	B-DC9	B-DC10	B-DC11	B-DC12	B-DC13	B-DC14	B-DC15	B-DC16	B-Ph1	B-Ph2	B-Ph3	B-Ph4	B-Ph5	B-Ph6	B-Ph7	B-Ph8	B-Ph9	B-Ph10	B-Ph11	B-Ph12	B-Ph13	B-Ph14	B-Ph15	B-Ph16	aux-1	digaux	

2592.200	1	1	0	768	0.27852	0.40391	0.29278	0.21086	0.12191	0.077552	0.061567	0.31202	0.26836	0.15669	0.22081	0.14532	0.22141	0.14096	0.044786	0.15464	0.20833	0.0125	-0.57917	-0.18958	-0.3625	-0.32917	-0.095833	-1.025	-0.14375	-0.1625	-0.79167	0.20417	-0.69583	-0.725	-0.041667	-0.82083	19.937	61.726	73.925	260.313	203.731	238.059	-11.287	232.069	160.869	24.393	264.217	135.307	249.259	224.931	83.568	236.592	0.00050994	0.001109	0.00016455	1224.8	4.208e-06	3.1628e-06	951.13	464.19	5.0114e-06	4.3538e-06	366.88	139.37	170.64	72.885	2.3161e-06	60.828	0.00038636	0.00032306	8.5786e-05	1238.5	4.0769e-06	3.5434e-06	958.76	468.68	4.0606e-06	3.4061e-06	369.34	141.44	172.31	74.071	3.1916e-06	61.583	-23.436	10.966	19.739	-64.053	49.861	-26.907	-66.004	-58.777	55.663	86.713	-61.716	-56.638	-53.971	-48.517	132.177	-52.010	-8191	255	
2592.296	1	1	0	0	0.080411	0.089929	0.083292	0.26127	0.15209	0.27041	0.20678	0.28469	0.22841	0.15147	0.29526	0.035247	0.096011	0.11916	0.13929	0.13647	0.15625	-0.11458	-0.77083	0.014583	-0.46667	-0.6625	-0.052083	-0.95208	-0.28542	-0.095833	-0.7125	-0.060417	-0.58542	-0.86458	0.20625	-0.86458	31.558	32.945	204.382	255.394	32.008	-31.513	-67.182	-60.377	126.349	65.810	116.527	246.238	262.452	42.966	-50.298	221.774	0.00050245	0.0009126	0.00014915	1224.8	3.1693e-06	1.0779e-06	943.84	463.7	5.1644e-06	6.63e-06	362.13	138.51	170.29	72.672	5.9681e-06	60.708	0.00036938	0.00031086	8.3808e-05	1237.6	3.8633e-06	3.4834e-06	953.28	467.86	3.8488e-06	3.3149e-06	366.91	140.83	171.56	73.835	3.3538e-06	61.477	-38.899	11.496	14.057	-63.999	-5.922	-29.759	-65.971	-58.752	53.742	66.426	-61.387	-56.551	-53.967	-48.507	116.327	-51.961	-8191	255	
2592.392	1	1	0	0	0.14647	0.16862	0.09868	0.3398	0.21051	0.16723	0.17763	0.066523	0.22439	0.051058	0.024802	0.29659	0.15156	0.34126	0.16221	0.168	0.020833	0.1375	-0.91458	-0.31667	-0.28958	-0.64375	-0.025	-0.8375	-0.37708	-0.14375	-0.84583	-0.16458	-0.28542	-0.70625	0.075	-0.74583	126.489	-59.337	168.469	247.388	17.890	-12.871	171.483	152.787	91.131	-76.665	232.164	211.268	220.484	245.416	116.934	246.389	0.00043321	0.00034924	0.00015078	1226.1	2.8763e-06	4.2195e-06	946.36	463.07	6.8443e-06	4.7832e-06	368.8	140.27	170.54	73.324	2.4369e-06	61.533	0.00035817	0.00030115	8.832e-05	1238.5	3.6417e-06	3.3497e-06	957.16	468.38	3.6756e-06	3.1993e-06	371	142.5	172.17	74.456	3.5723e-06	62.398	-37.793	-1.661	10.753	-63.933	51.412	60.609	-65.967	-58.722	55.703	72.292	-61.655	-56.555	-53.961	-48.619	158.674	-52.408	-8191	255	
2592.488	1	1	0	0	0.11734	0.11474	0.19924	0.37837	0.11052	0.0797	0.25544	0.36993	0.22931	0.13953	0.1931	0.54584	0.20645	0.32303	0.19901	0.076157	-0.22917	0.11458	-0.68958	-0.25	-0.04375	-0.73125	-0.01875	-0.53542	-0.43333	0.01875	-0.81875	-0.31042	-0.39375	-1.0292	0.18958	-0.54167	-57.935	197.689	240.939	93.289	-26.560	228.287	-62.800	261.984	-35.317	-45.194	227.166	221.352	-7.396	258.821	136.432	268.645	0.00049985	0.00036501	9.8726e-05	1220.7	2.5886e-06	5.8274e-06	950.54	461.87	3.4012e-06	4.2484e-06	368.73	139.87	168.85	72.127	4.8987e-06	60.474	0.00034167	0.00029048	9.455e-05	1234.7	3.4461e-06	3.2772e-06	961.62	467.67	3.5774e-06	3.238e-06	372.05	141.86	170.33	73.267	3.9941e-06	61.38	-31.827	23.909	0.938	-64.243	60.973	53.985	-65.886	-58.780	96.720	80.994	-61.497	-56.320	-53.808	-48.509	108.144	-51.950	-8191	255	
2592.583	1	1	0	0	0.18577	0.21136	0.19885	0.15541	0.13172	0.24391	0.11852	0.36815	0.21878	0.27672	0.077995	0.46625	0.47757	0.056608	0.11161	0.2469	-0.42083	-0.0041667	-0.76667	-0.45417	-0.0625	-0.65	-0.125	-0.67917	-0.50417	0.17917	-0.88125	-0.30208	-0.25208	-0.96042	0.095833	-0.43125	103.625	84.051	67.926	-39.040	-62.069	271.704	213.007	214.456	134.090	133.780	230.284	164.821	263.056	-63.292	157.043	230.682	0.00037946	0.00055578	9.1816e-05	1218.5	7.7048e-06	7.9761e-06	954.43	459.93	6.5873e-06	4.5046e-06	363.83	137.08	166.01	70.769	1.0394e-05	58.888	0.00034023	0.0003052	0.00010241	1236	3.4634e-06	3.4629e-06	962.34	464.69	3.5216e-06	3.4342e-06	368.54	139.02	167.97	71.875	4.1989e-06	59.76	-42.020	4.290	1.396	-63.993	50.907	65.138	-65.864	-58.655	-12.928	105.756	-61.453	-56.409	-53.840	-48.303	102.498	-52.022	-8191	255	
2592.681	1	1	0	0	0.11315	0.11263	0.14387	0.20081	0.043004	0.045073	0.19539	0.085439	0.23269	0.20826	0.25693	0.13336	0.12531	0.20497	0.12515	0.24858	-0.55625	0.15	-0.62708	-0.49792	0.17292	-0.67917	-0.027083	-0.65625	-0.77917	0.20417	-0.50417	-0.54167	-0.15625	-0.98333	0.014583	-0.17708	151.657	247.743	114.973	241.402	248.654	30.232	230.152	-61.734	-54.005	48.049	153.487	191.859	-10.362	272.862	269.307	-21.149	0.00048041	0.00028195	9.6731e-05	1220.1	8.0508e-06	2.0424e-06	947.74	457.49	4.6291e-06	4.4061e-06	360.98	136.57	167.45	70.594	2.369e-06	58.802	0.00033183	0.00032955	0.00010601	1235.4	3.3979e-06	3.6583e-06	958.5	463.28	3.4464e-06	3.641e-06	365.74	138.39	168.31	71.793	4.1114e-06	59.39	-28.266	-13.210	0.813	-64.294	49.629	95.686	-65.839	-58.509	120.152	97.994	-61.481	-56.536	-54.113	-48.488	90.370	-52.158	-8191	255	
2592.799	1	1	0	0	0.16657	0.21116	0.22752	0.12767	0.10345	0.053101	0.22295	0.14145	0.36248	0.19425	0.17831	0.4519	0.11444	0.24727	0.24051	0.25764	-0.47917	0.054167	-0.5	-0.81667	0.077083	-0.89167	-0.23333	-0.16458	-0.61458	-0.079167	-0.60417	-0.63125	-0.16875	-0.92917	-0.17083	-0.20417	177.281	244.598	-1.037	248.718	-1.440	-56.234	251.969	262.258	231.641	-42.976	249.362	200.929	36.661	-66.948	151.635	175.003	0.00038526	0.00036113	0.00012004	1224	5.1756e-06	6.4885e-06	941.98	458.79	4.0611e-06	2.4327e-06	363.21	137.64	166.91	71.349	2.7787e-06	59.485	0.00032081	0.0003492	0.00010246	1235.8	3.2981e-06	3.9763e-06	956.58	462.91	3.415e-06	3.9452e-06	365.73	138.71	168.48	72.343	3.8161e-06	60.102	-28.614	-50.246	-9.004	-64.280	87.650	122.917	-65.853	-58.715	77.787	40.634	-61.566	-56.385	-54.005	-48.496	-23.382	-52.066	-8191	255	
2592.896	1	1	0	0	0.15125	0.12999	0.087985	0.57176	0.19275	0.22811	0.3597	0.082604	0.1817	0.053628	0.24456	0.27281	0.22265	0.14567	0.17173	0.19375	-0.50208	0.16458	-0.30417	-0.78958	0.21042	-0.77083	-0.32292	-0.070833	-0.94583	-0.0020833	-0.40625	-0.52708	0.06875	-0.6875	-0.40417	0.11042	-4.677	39.726	58.638	252.042	17.219	107.286	-25.279	-34.185	95.585	190.059	-20.295	205.563	255.519	-9.154	272.029	218.692	0.00046378	0.001006	0.00017621	1221.3	2.7017e-06	3.7286e-06	949.56	459.43	7.2791e-06	5.0348e-06	363.78	138.69	167.78	71.872	4.0018e-06	60.807	0.00032052	0.00036671	9.3346e-05	1232.2	3.3715e-06	3.9866e-06	959.06	464.05	3.4292e-06	3.9661e-06	367.61	140.21	169.19	73.151	3.5764e-06	61.359	-34.860	12.198	1.164	-64.131	-1.220	33.853	-65.960	-58.784	147.204	53.925	-61.299	-56.425	-53.924	-48.282	69.124	-52.243	-8191	255	
2592.992	1	1	0	0	0.091228	0.16424	0.091509	0.39673	0.10984	0.16977	0.27897	0.32067	0.097344	0.091868	0.27488	0.059235	0.072485	0.28323	0.28995	0.22696	-0.56667	-0.13958	-0.052083	-0.89792	-0.052083	-0.4625	-0.36458	0.047917	-0.83542	-0.01875	-0.13333	-0.93958	-0.010417	-0.46042	-0.32917	-0.075	195.066	128.557	4.534	270.960	-58.383	-13.154	-76.592	268.589	280.000	-54.142	-72.116	162.021	-69.148	-20.486	218.310	232.769	0.00050049	0.00071814	4.0864e-05	1219.8	5.4998e-06	9.2811e-06	955.11	461.36	1.6625e-06	1.8399e-06	371.17	142.17	168.98	73.002	5.6695e-06	61.879	0.00034074	0.00036691	8.7647e-05	1228.5	3.5962e-06	3.9578e-06	963.7	464.97	3.8077e-06	4.06e-06	374.17	143.31	171.04	74.352	3.6655e-06	62.575	-39.529	-8.912	24.877	-64.161	67.054	59.062	-65.844	-58.687	-32.626	76.240	-61.242	-55.957	-53.835	-48.465	81.427	-52.011	-8191	255	
2593.088	1	1	0	0	0.21096	0.13202	0.18113	0.13182	0.18528	0.036653	0.23115	0.40638	0.20369	0.0719	0.067025	0.28325	0.093926	0.10515	0.056868	0.31458	-0.55208	-0.29792	0.0083333	-0.90625	0.20833	-0.55	-0.6875	0.25625	-0.68333	-0.1875	-0.19583	-1.0229	-0.1125	-0.325	-0.7125	-0.13333	41.836	185.808	152.787	279.629	68.921	161.602	200.369	269.050	-53.007	116.001	146.181	-74.714	262.790	62.166	52.123	-68.054	0.00050592	0.00079739	0.00014134	1222.5	3.6586e-06	6.76e-06	953.63	461.4	1.8899e-06	5.0657e-06	367.56	141.33	170	73.081	6.6382e-06	61.396	0.00038035	0.00037148	8.9831e-05	1236.2	4.1719e-06	3.9958e-06	966.13	467.12	4.2611e-06	3.9975e-06	372.79	142.85	172.14	74.379	3.658e-06	62.156	-25.922	-8.780	-3.720	-64.367	63.161	61.060	-66.135	-58.959	217.987	94.510	-61.824	-56.651	-54.237	-48.869	90.170	-52.406	-8191	255	
2593.184	1	1	0	0	0.041445	0.26164	0.11612	0.040866	0.19056	0.19402	0.062821	0.20102	0.18819	0.15271	0.24738	0.3599	0.079085	0.16431	0.29754	0.52021	-0.35625	-0.12917	-0.0625	-0.96458	-0.089583	-0.17917	-0.75833	0.041667	-0.60208	-0.41875	0.21042	-0.90417	-0.15208	-0.25208	-0.84792	0.010417	24.704	213.068	49.820	156.047	191.372	125.894	66.414	-76.218	203.782	-58.512	225.120	218.961	251.627	278.411	62.332	238.478	0.0004271	0.00062404	0.0001732	1223.9	6.34e-06	7.5055e-06	951	462	6.1158e-06	2.4463e-06	365.26	138.05	167.82	71.413	4.046e-06	59.677	0.00039476	0.00035121	8.7513e-05	1238.3	4.1932e-06	3.7404e-06	960.37	466.39	4.1994e-06	3.6961e-06	367.74	140.27	170.18	72.54	3.4345e-06	60.52	-24.393	-17.792	15.420	-64.440	45.955	65.573	-66.229	-59.064	112.021	131.620	-61.736	-56.805	-54.391	-48.868	115.848	-52.429	-8191	255	
2593.280	1	1	0	0	0.28693	0.25141	0.029753	0.21273	0.11047	0.13318	0.32719	0.10848	0.20776	0.2038	0.14245	0.12741	0.29443	0.40892	0.16079	0.10665	-0.16875	-0.35	-0.052083	-1.0458	-0.2625	-0.14167	-0.70833	-0.19792	-0.21042	-0.56458	0.079167	-1.0812	-0.33125	0.0041667	-0.7125	-0.035417	135.241	0.533	134.672	-45.763	-3.988	51.600	206.330	187.346	186.058	99.808	266.107	210.013	203.823	251.223	112.267	-36.662	0.00047062	0.00076832	0.00010975	1228.5	3.8396e-06	6.1675e-06	951.67	461.73	8.6781e-06	6.913e-06	365.46	138.69	168.2	71.379	1.5592e-06	60.131	0.00037753	0.00032855	8.1927e-05	1239.9	4.1316e-06	3.4892e-06	960.45	466.43	4.0688e-06	3.5889e-06	367.6	140.54	170.16	72.547	3.3987e-06	60.92	-34.771	7.536	-54.348	-64.322	73.146	56.677	-66.164	-59.072	60.040	48.549	-61.687	-56.631	-54.334	-48.816	116.918	-52.527	-8191	255	
2593.401	1	1	0	0	0.14212	0.23948	0.19	0.36966	0.16046	0.10097	0.38244	0.16884	0.12553	0.078879	0.39117	0.18375	0.32986	0.1307	0.079027	0.19817	0.10417	-0.77083	0.12708	-0.80833	-0.070833	-0.079167	-0.83542	0.089583	-0.52917	-0.71875	0.14375	-0.60833	-0.4875	-0.077083	-0.6625	-0.28125	15.663	103.494	5.508	246.069	210.212	182.926	240.035	253.712	29.646	108.449	108.754	47.442	232.889	209.413	31.885	-71.604	0.00050375	0.00047985	0.00013274	1229.6	8.0621e-06	4.3241e-06	956.01	461.96	6.9097e-06	2.6349e-06	367.7	140.67	169.31	72.476	1.7572e-06	61.612	0.00037095	0.00032542	8.5071e-05	1242.4	3.9088e-06	3.4115e-06	963.66	467.37	3.8202e-06	3.4778e-06	371.55	142.94	171.38	73.596	3.6139e-06	62.451	-23.076	14.674	-14.627	-64.188	28.781	96.002	-66.419	-59.403	53.343	70.519	-61.835	-56.735	-54.565	-48.727	163.128	-52.371	-8191	255	
2593.495	1	1	0	0	0.22529	0.12483	0.16196	0.29199	0.26337	0.11559	0.19941	0.28557	0.13432	0.11258	0.32837	0.50223	0.15784	0.21914	0.074394	0.12322	0.066667	-0.69167	0.16667	-0.7625	-0.22083	0.10833	-1.025	-0.33958	-0.083333	-0.69792	0.17708	-0.44583	-0.525	0.045833	-0.57083	-0.37292	99.023	-7.425	-70.309	218.780	-66.899	179.418	261.723	266.065	36.512	226.099	270.312	262.003	245.653	-75.334	221.689	246.703	0.0004303	0.00066513	7.8651e-05	1223.9	3.7697e-06	3.5742e-06	956.31	465.78	2.6112e-06	4.8558e-06	371.07	142.91	169.97	72.926	1.5158e-06	61.545	0.0003427	0.00031622	9.1888e-05	1240.3	3.7263e-06	3.2944e-06	969.05	469.94	3.6157e-06	3.4018e-06	375.59	144.61	172.15	74.061	3.9428e-06	62.534	-19.946	17.129	-24.485	-64.192	35.798	55.386	-66.129	-59.208	44.898	61.648	-61.805	-56.761	-54.376	-48.800	108.245	-52.529	-8191	255	
2593.591	1	1	0	0	0.11713	0.20258	0.15164	0.33847	0.291	0.074155	0.14818	0.068943	0.030461	0.27494	0.28093	0.16317	0.13251	0.44966	0.16247	0.18743	0.089583	-0.62292	0.32708	-0.70417	-0.55833	0.035417	-0.80833	-0.50417	-0.16875	-0.58333	0.025	-0.72708	-0.71458	0.12917	-0.72708	-0.54792	222.751	11.221	-29.881	-58.581	171.531	-6.372	189.248	194.934	-33.099	-22.003	241.829	230.241	270.001	-48.868	208.475	216.942	0.00044925	0.00072913	0.00010537	1225.5	4.9176e-06	7.7063e-06	953.06	464.61	2.8528e-06	3.2613e-06	369.72	142.18	170.91	73.259	1.3179e-06	61.563	0.00033598	0.00030704	0.00010008	1240.2	3.5651e-06	3.2451e-06	966.08	469.18	3.4857e-06	3.3566e-06	374.42	143.86	172.46	74.276	4.1573e-06	62.537	-26.022	-18.857	8.471	-64.329	67.148	71.331	-66.076	-59.031	71.316	45.392	-61.933	-56.673	-54.354	-48.909	99.455	-52.702	-8191	255	
2593.688	1	1	0	0	0.14154	0.28647	0.035215	0.36772	0.12908	0.19553	0.18473	0.15951	0.12748	0.042071	0.12455	0.22343	0.37991	0.48077	0.091926	0.33936	0.4375	-0.68333	0.09375	-0.52917	-0.47917	-0.022917	-0.67917	-0.3375	0.31042	-0.68125	0.01875	-0.27917	-0.83958	-0.08125	-0.77083	-0.58333	228.440	144.874	24.608	227.053	-8.644	-64.091	-43.010	155.415	-12.132	240.858	260.292	-61.619	270.941	255.916	53.355	209.177	0.00042641	0.00046954	0.00014384	1230.2	1.038e-06	2.5596e-06	958.51	464.97	2.658e-06	4.1578e-06	372.3	142.14	170.85	73.012	2.8772e-06	61.463	0.00032987	0.00032489	0.00010688	1241.6	3.5196e-06	3.4568e-06	969.76	470.47	3.4303e-06	3.5997e-06	375.89	143.99	172.54	74.276	4.1688e-06	62.421	-27.588	5.667	32.726	-64.420	70.297	37.148	-66.088	-59.088	33.885	70.385	-61.958	-56.709	-54.398	-48.675	98.596	-52.571	-8191	255	
2593.761	1	1	0	0	0.24226	0.048786	0.17485	0.16147	0.14101	0.2527	0.18162	0.12265	0.032938	0.14555	0.19809	0.208	0.19103	0.026231	0.19531	0.23056	0.42708	-0.68333	-0.15833	-0.23333	-0.56667	-0.00625	-0.82917	-0.51458	0.058333	-0.73333	0.0125	-0.064583	-1.0125	0.027083	-0.46042	-0.63333	229.446	180.145	-15.923	184.951	-40.434	125.817	-70.816	58.632	102.845	79.093	186.360	264.114	-21.186	255.127	121.412	215.191	0.0004746	0.00047824	0.00020724	1230	4.9219e-06	1.3833e-06	957.3	463.66	4.7733e-06	5.5835e-06	369.53	140.99	169.03	71.98	4.52e-06	60.727	0.00031641	0.00034209	0.00010499	1240.9	3.4478e-06	3.8068e-06	967.45	468.02	3.4029e-06	3.9236e-06	373.07	142.59	170.74	73.191	4.0928e-06	61.386	-18.706	-5.776	-18.902	-64.262	27.052	118.805	-66.037	-59.208	97.356	69.138	-61.768	-56.628	-54.304	-48.815	115.783	-52.422	-8191	255	
2593.880	1	1	0	0	0.08231	0.021303	0.06359	0.17533	0.1112	0.26706	0.021341	0.24196	0.17696	0.1035	0.12673	0.24733	0.34025	0.04135	0.16641	0.39521	0.46042	-0.59583	-0.24792	-0.27917	-0.72708	0.10208	-0.78542	-0.80625	0.091667	-0.72917	-0.45417	-0.12083	-0.81667	-0.25833	-0.21042	-0.93958	105.344	-59.880	144.846	230.871	75.696	99.781	217.027	-74.208	224.532	-21.178	227.173	227.003	267.031	-64.412	-49.423	202.522	0.00039794	0.00096611	0.00012614	1227.2	4.9407e-06	4.1957e-06	956.97	459.48	4.4533e-06	2.8335e-06	364.27	138.66	166.61	70.629	2.1376e-07	59.779	0.00032244	0.00038012	0.00010266	1239.3	3.5459e-06	4.1797e-06	966.31	463.78	3.505e-06	4.2268e-06	369.45	140.27	168.48	71.964	3.8939e-06	60.515	-35.871	-21.712	-12.323	-64.143	44.669	91.515	-66.141	-59.255	82.897	98.304	-61.754	-56.588	-54.164	-48.700	162.807	-52.342	-8191	255	
2593.976	1	1	0	0	0.17606	0.11003	0.09896	0.32376	0.17664	0.16898	0.13082	0.18912	0.12671	0.19728	0.25079	0.15351	0.31966	0.17153	0.077675	0.19144	0.42917	-0.59583	-0.30208	-0.28958	-0.83333	-0.072917	-0.29583	-1.05	0.28333	-0.775	-0.52292	-0.014583	-0.80417	-0.17083	-0.2375	-1.0146	63.362	-72.040	-7.910	242.509	98.766	177.130	261.019	206.362	88.039	1.830	222.035	24.100	160.463	183.769	-44.747	233.185	0.00048295	0.00063968	9.6711e-05	1221.3	2.5935e-06	4.9064e-06	952.7	459.02	4.3294e-06	7.8982e-06	361.87	137.21	166.12	70.236	7.001e-06	59.115	0.00034915	0.00040309	9.9512e-05	1236.6	3.8543e-06	4.3767e-06	963.46	463.82	3.9055e-06	4.3448e-06	366.49	139.11	167.98	71.6	3.7585e-06	59.91	-30.583	-0.191	-20.035	-64.242	6.350	104.034	-66.109	-59.150	92.897	94.583	-61.791	-56.725	-54.142	-48.582	129.772	-52.222	-8191	255	
2594.072	1	1	0	0	0.1747	0.010503	0.30969	0.32886	0.13404	0.10031	0.054268	0.34051	0.21919	0.071093	0.18758	0.35516	0.30377	0.45908	0.14123	0.14446	0.39167	-0.42083	-0.48125	0.089583	-0.76458	-0.16667	-0.19583	-0.92292	0.06875	-0.44375	-0.66667	0.083333	-0.80208	-0.39792	-0.15417	-0.85833	154.849	93.508	113.355	-28.764	250.829	-5.279	164.925	197.309	278.112	-59.733	270.948	230.330	-4.270	176.245	-9.699	103.192	0.0004657	0.0011645	0.00025869	1219.8	1.9515e-06	5.2855e-06	946.25	456.45	1.4014e-06	7.0188e-06	364.03	138.73	165.88	71.111	4.0302e-06	60.329	0.00036992	0.0003845	9.6678e-05	1230	4.0797e-06	4.1668e-06	957.13	460.92	4.1092e-06	4.0622e-06	367.57	139.82	168.74	72.46	3.6893e-06	60.972	-26.647	1.751	-11.067	-64.460	74.886	67.971	-66.065	-59.035	18.689	49.000	-61.641	-56.729	-54.214	-48.714	121.548	-52.146	-8191	255	
2594.193	1	1	0	0	0.19092	0.10058	0.24929	0.27524	0.31163	0.12483	0.21658	0.33833	0.072658	0.027499	0.10832	0.10607	0.16548	0.20112	0.44739	0.10156	0.42708	-0.43125	-0.52083	0.20833	-0.925	-0.11875	0.10417	-0.90625	0.175	-0.18125	-0.80625	0.18125	-0.49375	-0.29167	0.19375	-0.97708	192.337	232.865	-4.848	275.739	103.867	121.957	247.630	244.048	147.304	239.383	242.170	275.729	-10.864	220.861	259.809	-52.304	0.00042372	0.00070318	0.00016247	1221.6	7.2152e-06	6.4373e-06	952.78	458.27	7.7565e-06	8.7193e-06	364.85	139.53	167.29	71.268	9.2978e-06	60.381	0.00040518	0.00036913	9.5205e-05	1234.3	4.4391e-06	4.0671e-06	962.19	463.51	4.4465e-06	3.9228e-06	369.58	140.71	169.33	72.376	3.5673e-06	61.158	-16.090	-34.639	7.168	-64.334	53.806	76.831	-66.273	-58.953	212.870	77.850	-61.714	-56.465	-54.081	-48.762	76.440	-52.360	-8191	255	
2594.289	1	1	0	0	0.2171	0.10752	0.22649	0.11509	0.076668	0.065588	0.22999	0.14338	0.064956	0.13664	0.10545	0.29815	0.21839	0.15471	0.10549	0.15071	0.36042	-0.064583	-0.45208	-0.19375	-0.65	-0.40208	-0.014583	-0.88958	0.085417	-0.23958	-0.97083	0.12292	-0.65833	-0.51875	0.38958	-0.95625	234.683	-20.933	120.326	-55.829	-32.765	233.825	203.607	257.137	127.373	39.398	136.366	146.162	-53.045	186.119	260.035	210.368	0.0005601	0.00085516	0.0001696	1223.2	5.6698e-07	2.0038e-06	953.3	459.56	5.1122e-06	5.7027e-06	366.04	139.28	166.68	70.914	3.2092e-06	59.407	0.00041319	0.00035173	9.2214e-05	1237.4	4.381e-06	3.8593e-06	962.75	464.49	4.3562e-06	3.7284e-06	369.53	141.08	169.05	71.911	3.4918e-06	60.665	-38.632	21.731	-3.746	-64.137	186.386	119.391	-66.038	-59.097	116.027	61.805	-61.569	-56.449	-54.026	-48.776	105.401	-52.189	-8191	255	
2594.361	1	1	0	0	0.02782	0.23192	0.34374	0.28269	0.18069	0.16026	0.13061	0.1596	0.21638	0.13537	0.24943	0.25583	0.21739	0.18613	0.057549	0.40722	0.15208	-0.045833	-0.64583	-0.10833	-0.45417	-0.44792	-0.09375	-0.86667	-0.095833	0.10208	-0.8125	0.12292	-0.48333	-0.70208	0.027083	-0.90625	-64.972	-5.680	-4.410	207.279	182.636	-53.210	182.690	204.519	255.018	100.729	-70.851	188.347	-74.229	-68.370	200.954	227.472	0.00030592	0.00069462	7.2114e-05	1225.5	6.6637e-06	5.4744e-06	956	454.94	7.4447e-06	6.7322e-06	363.05	136.81	164.78	69.222	1.1843e-06	58.547	0.00040092	0.0003345	9.2199e-05	1238	4.1665e-06	3.7607e-06	962.93	461.68	4.1489e-06	3.6221e-06	365.94	138.86	166.84	70.535	3.5997e-06	59.552	-40.850	-17.906	-40.465	-64.221	25.286	65.577	-65.889	-59.089	57.994	91.672	-61.788	-56.863	-54.231	-48.666	92.221	-52.173	-8191	255	
2594.481	1	1	0	0	0.25379	0.18891	0.084575	0.065723	0.16281	0.068487	0.34426	0.28462	0.2772	0.11692	0.044909	0.04133	0.33492	0.26886	0.20304	0.078739	0.17917	0.125	-0.81458	-0.14375	-0.45	-0.60625	0.047917	-0.92917	-0.32917	0.05	-0.92083	0.0375	-0.2625	-0.85208	0.125	-0.675	196.904	126.576	-35.968	92.886	241.432	48.107	102.421	215.202	-67.400	180.371	216.111	148.707	248.844	-52.262	137.254	273.548	0.00037622	0.00094217	0.00011855	1216.7	8.0428e-06	7.1847e-06	941.25	454.51	6.7331e-06	4.6961e-06	358.95	135.74	163.33	69.048	1.5687e-06	58.346	0.00038357	0.00032421	9.4557e-05	1231.6	3.9408e-06	3.6124e-06	954.14	459.24	3.989e-06	3.4701e-06	363.55	137.76	165.24	70.104	3.8768e-06	59.219	-37.668	-16.266	-14.026	-64.278	29.178	24.257	-66.138	-58.956	43.124	41.524	-61.722	-56.647	-54.003	-48.635	-39.889	-52.140	-8191	255	
2594.576	1	1	0	0	0.17553	0.24909	0.37992	0.32059	0.17098	0.068784	0.18434	0.37988	0.15532	0.15774	0.16267	0.076738	0.15582	0.21216	0.13591	0.15186	-0.25625	0.17083	-0.69375	-0.35208	-0.29375	-0.82292	0.08125	-0.825	-0.58333	-0.04375	-0.78542	-0.22083	-0.21667	-0.66875	0.020833	-0.71458	96.467	225.616	-48.866	239.815	-37.343	73.200	281.787	211.578	12.284	-40.012	101.299	215.767	-2.201	256.175	202.828	169.168	0.00050801	0.00030316	5.5944e-05	1211.7	4.645e-06	6.4457e-06	942.31	452.92	7.6029e-06	7.3551e-06	359.18	134.69	161.58	68.27	5.3417e-06	58.011	0.00035821	0.00031358	0.00010207	1227.9	3.7436e-06	3.5683e-06	954.41	456.82	3.8309e-06	3.4074e-06	363.54	136.71	163.8	69.44	4.1903e-06	58.871	-35.666	-13.521	-59.027	-64.212	68.909	37.294	-66.267	-58.983	36.227	55.314	-61.741	-56.294	-54.042	-48.526	80.643	-51.977	-8191	255	
2594.672	1	1	0	0	0.21672	0.29754	0.1284	0.2841	0.11756	0.19575	0.393	0.26104	0.25165	0.29821	0.21825	0.23261	0.14042	0.063031	0.070895	0.18043	-0.2	0.35833	-0.86042	-0.49375	0.16667	-0.875	-0.10417	-0.5	-0.52292	-0.03125	-0.74792	-0.13958	-0.11875	-0.96458	0.19167	-0.72292	-30.972	-46.588	156.236	242.189	59.179	203.471	181.908	224.929	-54.956	158.667	149.352	282.452	24.191	-9.649	40.743	242.161	0.00058425	0.00050058	0.00014496	1208.3	3.6596e-06	4.6923e-06	945.13	448.4	7.3684e-06	2.6622e-06	359.97	134.38	162.12	68.292	9.5421e-06	58.237	0.00035306	0.0003159	0.00010824	1224	3.6192e-06	3.5747e-06	956.3	454.51	3.7015e-06	3.5234e-06	364.78	136.69	163.56	69.42	4.326e-06	58.933	-28.395	42.743	46.486	-64.336	66.948	83.428	-66.201	-58.881	61.494	149.815	-61.542	-56.595	-54.131	-48.265	134.234	-51.897	-8191	255	
2594.792	1	1	0	0	0.094405	0.060538	0.11726	0.16417	0.25067	0.039812	0.17523	0.083976	0.13358	0.16025	0.1116	0.31092	0.19439	0.068751	0.13837	0.32765	-0.275	0.27292	-0.52083	-0.41667	0.2125	-0.81042	0.0375	-0.21875	-0.72917	0.09375	-0.60417	-0.375	0.175	-0.94167	-0.17292	-0.0020833	-36.581	55.273	-47.342	263.543	58.868	222.994	281.704	19.176	256.325	2.507	32.988	251.543	281.302	178.279	234.101	214.828	0.0003408	0.00065349	0.00018448	1216.6	2.8829e-06	4.9447e-06	951.64	450.34	7.6094e-06	1.8831e-06	361.89	135.29	161.95	67.866	3.3028e-06	57.736	0.00033884	0.00034485	0.00011115	1228.3	3.5174e-06	3.9008e-06	963.01	455.85	3.6813e-06	3.9543e-06	366.91	137.41	163.76	69.317	4.4412e-06	58.77	-29.023	-12.518	-13.817	-64.172	58.213	45.904	-65.867	-59.000	41.639	109.798	-61.656	-56.241	-53.981	-48.472	79.204	-52.010	-8191	255	
2594.889	1	1	0	0	0.30874	0.48957	0.24904	0.14694	0.48501	0.27633	0.29348	0.3271	0.17484	0.20596	0.14356	0.28856	0.20421	0.27104	0.11397	0.050314	-0.41667	0.19167	-0.5	-0.85833	0.13542	-0.5625	-0.3625	-0.05625	-0.65625	0.14167	-0.59792	-0.49583	-0.13958	-0.64583	-0.32917	-0.010417	-28.891	211.854	221.841	243.073	38.152	68.540	223.365	277.139	198.155	117.421	203.764	194.074	14.845	-53.046	251.782	167.666	0.00054114	0.0010936	7.9958e-05	1213	7.9111e-06	3.6239e-06	946.65	450.72	4.7248e-06	4.0936e-06	356.6	133.2	160.27	67.067	5.6288e-06	56.668	0.00034484	0.0003802	0.00011068	1228.3	3.5323e-06	4.3167e-06	956.97	454.65	3.7359e-06	4.2897e-06	361.24	134.91	161.98	68.366	4.1737e-06	57.299	-19.915	25.889	-41.870	-64.438	42.208	101.015	-66.034	-59.126	45.488	38.587	-61.618	-56.642	-54.255	-48.472	48.953	-52.040	-8191	255	
2594.985	1	1	0	0	0.11307	0.29886	0.2098	0.14528	0.04756	0.25005	0.38654	0.14331	0.31584	0.0096951	0.2117	0.39812	0.18586	0.17271	0.32078	0.18899	-0.46042	0.24375	-0.31875	-0.85208	0.37708	-0.7375	-0.39792	0.0875	-0.85625	0.00625	-0.36875	-0.66667	0.0625	-0.94375	-0.31875	0.035417	-13.345	-10.808	-51.678	168.099	-49.333	85.473	282.657	-61.350	62.445	136.349	217.005	243.018	232.809	-50.690	-65.570	-32.989	0.00046601	0.00083432	0.00025854	1207.2	4.5429e-06	6.1459e-06	938.39	445.7	5.0217e-06	2.6917e-06	352.7	131.38	158.41	66.002	2.8544e-06	55.633	0.00035384	0.00040408	0.00010285	1222.5	3.6673e-06	4.4594e-06	947.88	449.89	3.842e-06	4.4462e-06	356.62	132.84	160.39	67.323	3.9943e-06	56.362	-26.391	-18.241	-26.676	-64.322	114.441	90.326	-66.144	-58.917	208.274	60.735	-61.537	-56.442	-54.089	-48.597	64.741	-51.876	-8191	255	
2595.056	1	1	0	0	0.2257	0.2221	0.21608	0.31831	0.20973	0.02677	0.095303	0.36619	0.14696	0.13752	0.16107	0.46027	0.18876	0.15126	0.32787	0.078641	-0.275	0.01875	-0.085417	-0.75	0.075	-0.64375	-0.48542	-0.1375	-0.8125	-0.016667	-0.11875	-0.78333	-0.0083333	-0.61458	-0.49583	-0.025	70.097	229.444	195.783	253.360	-69.915	213.352	175.353	-76.769	1.164	82.669	-75.325	263.249	259.426	231.888	110.289	238.816	0.00053997	0.00056525	0.00014693	1204.7	6.7706e-06	5.9187e-06	935.97	443.95	5.7486e-06	2.4166e-06	350.52	129.92	157.82	65.36	8.1588e-06	55.345	0.00037294	0.00040992	9.8757e-05	1217.6	4.0556e-06	4.3948e-06	946	448.36	4.1886e-06	4.3987e-06	355.5	132.07	159.84	66.76	3.887e-06	56.033	-44.253	10.554	-48.460	-64.209	98.177	47.893	-66.181	-58.995	134.467	33.366	-61.525	-56.380	-53.969	-48.393	99.988	-52.079	-8191	255	
2595.177	1	1	0	0	0.24808	0.098853	0.075507	0.21785	0.085526	0.19109	0.13117	0.26342	0.1865	0.30348	0.091995	0.0896	0.10336	0.3542	0.26365	0.12408	-0.24792	-0.10625	-0.064583	-0.84583	0.11875	-0.51458	-0.7875	0	-0.575	-0.17708	-0.13333	-0.89583	-0.06875	-0.48958	-0.71875	0.16875	117.766	6.751	211.868	227.774	11.680	167.629	204.004	127.555	169.523	2.728	170.907	222.368	-32.559	170.895	208.531	176.240	0.00039697	0.00047686	0.00012864	1204.5	3.7496e-06	5.2297e-06	937.32	441.95	3.8748e-06	4.3391e-06	353.03	130.58	157.5	65.545	5.3341e-06	55.627	0.00040277	0.00039141	9.4008e-05	1218.6	4.3489e-06	4.1188e-06	947.99	447.14	4.3896e-06	4.0861e-06	355.81	132.51	159.75	66.684	3.7758e-06	56.387	-49.521	1.039	22.026	-64.209	112.362	55.380	-66.173	-58.964	132.071	48.448	-61.809	-56.325	-54.225	-48.412	96.647	-51.950	-8191	255	
2595.273	1	1	0	0	0.050751	0.011841	0.027384	0.1721	0.2525	0.11146	0.13957	0.096957	0.06482	0.27429	0.10865	0.2663	0.25839	0.20772	0.17118	0.21116	-0.32083	-0.17083	0.075	-1.0167	0.11667	-0.21458	-0.86667	-0.04375	-0.58958	-0.3125	-0.014583	-0.89792	-0.027083	-0.43958	-0.675	0.15	67.368	-22.359	43.113	234.329	-16.760	-39.031	124.537	192.098	155.034	141.145	226.241	-76.382	-20.090	229.180	-46.585	-56.149	0.00041681	0.00089849	5.8661e-05	1206.2	2.2388e-06	6.7422e-06	940.3	443.24	7.9475e-06	4.326e-06	352.7	130.35	157.62	65.098	6.9312e-06	55.044	0.00040677	0.00036722	9.0155e-05	1219.3	4.4598e-06	3.8741e-06	950.08	448.05	4.4746e-06	3.9915e-06	355.9	132.43	159.83	66.413	3.6496e-06	55.963	-18.374	-5.245	10.928	-64.401	39.086	26.938	-66.056	-59.215	138.922	35.263	-61.858	-56.574	-53.816	-48.205	61.008	-52.092	-8191	255	
2595.369	1	1	0	0	0.098692	0.15302	0.1817	0.15244	0.33437	0.16131	0.29159	0.22983	0.26711	0.19579	0.31623	0.12567	0.32082	0.51191	0.24016	0.12302	-0.20833	-0.42292	0.22917	-0.90417	-0.047917	-0.00625	-0.90417	0.020833	-0.45625	-0.22083	-0.11042	-1.0083	-0.23333	-0.15	-0.76042	0.1375	-56.756	175.635	53.448	250.669	110.498	110.592	258.172	237.391	238.626	75.499	72.592	190.993	-39.188	279.245	238.094	-67.211	0.00036076	0.00077236	7.8614e-05	1207.5	4.8355e-06	5.7937e-06	935.83	441.73	1.6321e-06	3.0209e-06	350.13	129.55	157.46	65.262	2.8964e-06	55.168	0.00040439	0.00035532	8.8521e-05	1220	4.3857e-06	3.7872e-06	943.54	447.57	4.2756e-06	3.8407e-06	353.47	131.92	159.86	66.485	3.6415e-06	56.164	-4.314	-11.946	-20.133	-64.341	14.062	-2.065	-65.887	-59.231	112.209	81.180	-61.701	-56.375	-54.112	-48.496	79.452	-52.119	-8191	255	
2595.465	1	1	0	0	0.1405	0.26045	0.30339	0.40326	0.047558	0.21072	0.33038	0.12559	0.088595	0.2796	0.061709	0.11443	0.064361	0.089565	0.30691	0.19383	-0.085417	-0.37083	0.30833	-0.9	-0.10625	0.15417	-0.80208	-0.054167	-0.23333	-0.38333	0.05625	-0.73125	-0.35417	0.00625	-0.72292	-0.0020833	-29.585	90.636	-34.284	228.011	272.293	6.952	-54.041	262.298	-55.100	111.225	-13.094	-74.288	-67.492	178.801	129.354	176.941	0.0004446	0.0006374	8.1791e-05	1207.1	3.2397e-06	3.4745e-06	936.32	443.46	1.2133e-05	4.3602e-06	353.99	130.91	158.61	65.963	2.9241e-06	55.872	0.00038412	0.00034427	8.8535e-05	1220.9	4.083e-06	3.603e-06	947.33	449.02	3.9738e-06	3.6882e-06	356.24	133.35	160.39	67.107	3.8062e-06	56.929	-11.930	-27.888	-30.470	-64.412	13.074	96.271	-65.886	-59.009	115.219	68.160	-61.721	-56.263	-54.258	-48.583	74.708	-52.411	-8191	255	
2595.584	1	1	0	0	0.13215	0.30643	0.10344	0.32316	0.16005	0.14116	0.14035	0.22945	0.071737	0.0080596	0.070051	0.33805	0.24311	0.097931	0.24709	0.22393	0.05	-0.52917	0.22917	-0.85417	-0.32292	0.31458	-1.1854	-0.016667	-0.28333	-0.67083	0.18125	-0.60625	-0.37708	-0.0625	-0.64375	0.035417	171.770	-33.422	88.751	246.726	-38.054	14.587	203.291	245.961	79.034	77.248	207.060	231.114	150.626	275.003	10.166	6.755	0.0003516	0.00093145	7.9904e-05	1208.5	7.5615e-06	3.3802e-06	937.66	445.32	9.7295e-06	7.8123e-06	353.96	132.09	159.47	66.085	2.0432e-06	56.387	0.00036327	0.00033424	9.6334e-05	1222.8	3.9055e-06	3.4864e-06	951.08	450.45	3.7839e-06	3.4975e-06	358.94	134.46	160.96	67.25	4.0735e-06	57.426	-26.795	-21.701	43.340	-64.303	27.350	64.203	-66.338	-59.098	69.382	56.692	-62.080	-56.412	-54.312	-48.429	105.030	-51.956	-8191	255	
2595.656	1	1	0	0	0.12895	0.11365	0.32258	0.13167	0.18565	0.13665	0.28154	0.1195	0.035958	0.10126	0.12	0.18883	0.3897	0.039649	0.43509	0.25114	-0.0083333	-0.79375	0.09375	-0.47708	-0.53125	0.13125	-0.86458	-0.27292	-0.070833	-0.68542	-0.13958	-0.45	-0.4375	-0.033333	-0.4	-0.23958	-60.140	51.750	158.692	-20.464	221.483	-14.088	155.493	112.479	176.392	103.097	251.677	170.211	270.095	59.095	75.899	276.718	0.00043702	0.00048497	0.00017803	1207.8	3.1074e-06	4.8329e-06	946.55	446.23	4.3764e-06	4.4964e-06	355.33	133.13	159.59	65.973	9.176e-06	56.084	0.00035207	0.00032492	0.00010463	1224.2	3.8065e-06	3.4259e-06	956.82	451.17	3.6417e-06	3.5695e-06	360.93	134.74	161.06	67.128	4.3206e-06	57.105	-32.988	-30.236	38.753	-64.336	59.639	51.852	-65.998	-59.131	93.725	54.455	-61.728	-56.423	-54.079	-48.473	42.693	-52.137	-8191	255	
2595.754	1	1	0	0	0.018682	0.1753	0.26012	0.27898	0.11039	0.15608	0.42076	0.34379	0.31509	0.13963	0.032848	0.18424	0.18022	0.23157	0.026187	0.32993	0.2375	-0.75625	0.0625	-0.36875	-0.51458	0.17917	-0.90833	-0.34792	0.13958	-0.92917	0.1625	-0.41458	-0.73125	0.12708	-0.40417	-0.62292	-45.917	49.048	71.919	243.900	120.018	154.214	266.321	241.547	54.430	246.071	240.032	220.291	254.259	-44.455	178.366	148.153	0.00028835	0.00078595	0.00014042	1213.2	3.1929e-06	5.0652e-06	936.81	444.15	8.0157e-06	9.3988e-07	354.06	131.71	158.32	65.975	3.6758e-06	55.66	0.00033598	0.00032963	0.00011031	1224.5	3.6303e-06	3.6146e-06	951.15	449.73	3.5431e-06	3.7313e-06	358.78	133.63	160.48	67.182	4.2812e-06	56.575	-29.003	8.997	15.611	-64.363	14.003	56.163	-66.095	-59.377	69.128	1.034	-61.960	-56.407	-54.069	-48.583	58.392	-52.199	-8191	255	
2595.873	1	1	0	0	0.16163	0.10667	0.12118	0.31	0.2741	0.20156	0.17415	0.093586	0.15072	0.046133	0.31899	0.16976	0.20219	0.20304	0.035554	0.26523	0.43333	-0.81042	0.05625	-0.39792	-0.82292	0.19167	-0.86458	-0.575	0.26042	-0.82917	-0.31458	-0.085417	-1.0271	0.2375	-0.31458	-0.75417	147.277	-33.137	68.728	-55.271	139.383	11.847	277.430	162.042	180.055	47.618	183.035	258.876	159.901	111.963	108.480	208.400	0.00043578	0.00032271	9.8275e-05	1206.9	6.0606e-06	2.3399e-06	933.38	444.07	2.8204e-06	3.1145e-06	355.37	131.77	158.88	66.05	2.9725e-06	56.298	0.00032415	0.0003528	0.00010975	1218.1	3.5238e-06	3.8981e-06	948.13	448.68	3.3997e-06	3.9887e-06	358.69	133.48	160.47	67.368	4.1203e-06	56.997	-26.226	37.755	9.144	-64.589	-4.976	32.308	-66.070	-59.247	19.910	40.000	-61.726	-56.504	-53.840	-48.666	100.386	-52.113	-8191	255	
2595.969	1	1	0	0	0.27636	0.081544	0.062611	0.066719	0.090525	0.16517	0.16704	0.32058	0.16716	0.17139	0.22394	0.14767	0.13605	0.2769	0.28525	0.16751	0.37708	-0.7	-0.23542	0.11875	-0.8125	0.13958	-0.64792	-0.77083	0.1625	-0.54583	-0.49167	-0.0875	-0.73542	-0.11875	-0.23542	-0.52708	245.390	102.579	-24.541	280.762	14.251	33.821	272.157	193.573	167.394	272.302	12.959	-29.863	263.609	225.152	220.324	-62.162	0.00049393	0.00046504	0.00019339	1204.9	1.8262e-06	7.5272e-06	940.13	444.5	1.0434e-06	3.6795e-06	354.75	132.64	159.61	66.473	6.0212e-06	56.498	0.00032437	0.00038045	0.00010329	1216.5	3.5388e-06	4.2178e-06	952.21	449.86	3.5574e-06	4.2432e-06	359.91	134.57	161.42	67.708	3.9271e-06	57.334	-33.006	-2.228	9.517	-64.327	21.607	57.225	-66.177	-59.048	11.346	27.777	-61.634	-56.437	-54.078	-48.327	70.789	-52.166	-8191	255	
2596.065	1	1	0	0	0.16656	0.24953	0.12448	0.25599	0.17784	0.050737	0.12762	0.11757	0.19022	0.12409	0.034636	0.27355	0.27609	0.2911	0.083613	0.15748	0.42083	-0.47083	-0.17083	-0.14583	-0.95	0.09375	-0.575	-0.74375	0.095833	-0.69792	-0.29583	0	-0.74792	0.0125	-0.23958	-0.81458	37.727	157.043	-4.473	276.640	206.805	37.525	267.926	-16.462	-33.023	228.042	212.637	279.619	208.035	271.558	-2.276	245.260	0.00043398	0.00093931	0.00030872	1207.8	9.7395e-07	5.9322e-06	945.12	446.74	6.0542e-06	4.1493e-06	357.58	133.21	159.28	66.512	4.0237e-06	56.978	0.00034165	0.00039752	9.8772e-05	1220.7	3.8184e-06	4.3494e-06	956.06	451.07	3.8491e-06	4.315e-06	361.76	134.95	161.66	67.75	3.7807e-06	57.644	-39.702	6.949	-18.268	-64.290	188.093	52.539	-66.196	-59.097	49.564	53.419	-61.546	-56.169	-54.081	-48.633	74.093	-52.073	-8191	255	
2596.161	1	1	0	0	0.15219	0.10817	0.081043	0.29589	0.26816	0.1131	0.085373	0.36903	0.34486	0.22633	0.069418	0.14647	0.19845	0.31613	0.059441	0.14255	0.32917	-0.25208	-0.36667	0.064583	-0.52708	0.027083	-0.17292	-1.0542	0.10208	-0.36042	-0.72917	-0.041667	-0.89167	-0.36042	0.058333	-0.74167	190.230	268.794	49.075	234.601	154.733	88.274	251.796	-23.938	-14.339	80.847	281.520	256.590	-26.253	244.684	-75.067	-17.156	0.00056251	0.00074431	5.3045e-05	1208.1	3.8181e-06	6.2027e-06	944.7	447.26	4.0874e-06	4.3141e-06	355.8	133	159.41	66.217	4.7394e-06	56.398	0.00038003	0.00039662	9.6463e-05	1222.1	4.1356e-06	4.249e-06	955.22	450.84	4.263e-06	4.1261e-06	359.34	134.52	161.65	67.558	3.6745e-06	57.19	-28.347	4.302	-63.951	-64.302	85.740	64.225	-66.154	-59.145	166.889	21.769	-61.801	-56.585	-54.212	-48.510	10.920	-51.951	-8191	255	
2596.257	1	1	0	0	0.31013	0.32735	0.025707	0.12187	0.13409	0.097377	0.21926	0.36907	0.024715	0.10639	0.041282	0.17572	0.065814	0.39049	0.15932	0.17861	0.30208	-0.24583	-0.51875	-0.24583	-0.60833	-0.083333	-0.27292	-1.0167	0.095833	-0.51875	-0.93542	0.10417	-0.57083	-0.3875	0.04375	-0.65208	115.262	277.676	133.815	-34.266	9.746	-45.865	229.867	-64.871	147.941	110.159	-66.686	182.272	-75.296	260.397	124.396	-14.431	0.00045651	0.00075894	0.00015192	1204.5	2.0078e-06	6.6473e-06	940.4	445.57	5.3036e-06	7.5685e-06	353.48	132.37	158.7	66.34	6.7635e-06	56.603	0.00039816	0.00036956	9.3766e-05	1218.6	4.373e-06	4.0575e-06	950.19	449.25	4.5218e-06	3.9809e-06	357.89	134.08	161.36	67.661	3.5905e-06	57.444	-26.426	-26.491	-6.707	-64.455	47.899	5.631	-66.102	-58.977	125.317	50.992	-61.696	-56.715	-53.967	-48.383	45.756	-52.341	-8191	255	
2596.354	1	1	0	0	0.18924	0.062385	0.032564	0.26311	0.17316	0.10106	0.037882	0.25154	0.38271	0.27221	0.30829	0.087158	0.015065	0.37564	0.38659	0.20529	0.22083	-0.22083	-0.60625	-0.13333	-0.6	-0.44375	0.14583	-0.80833	0.11458	-0.2375	-0.91667	0.27292	-0.42083	-0.56667	0.16875	-0.81042	14.453	234.747	241.560	225.086	-21.260	208.392	143.362	250.523	160.925	129.992	-66.387	215.093	248.615	97.398	130.601	-26.985	0.00044163	0.00062238	0.00018642	1202.5	4.0593e-06	6.8557e-06	942.58	445.43	3.3872e-06	4.865e-06	357	134.52	160.41	67.291	3.3865e-06	57.854	0.00042336	0.00035879	9.3784e-05	1219.8	4.4756e-06	3.8972e-06	950.88	450.48	4.4943e-06	3.7935e-06	361.04	136.38	162.43	68.524	3.5426e-06	58.728	-44.825	20.251	20.526	-64.401	91.738	55.367	-66.087	-58.915	66.506	69.964	-61.538	-56.526	-54.014	-48.532	58.879	-52.054	-8191	255	
2596.474	1	1	0	0	0.23436	0.1896	0.11227	0.5203	0.22435	0.2287	0.34751	0.11579	0.08825	0.28932	0.26862	0.25532	0.34601	0.2061	0.10256	0.20685	0.022917	0.020833	-0.6125	-0.022917	-0.46458	-0.71667	0.14583	-0.78958	-0.1375	-0.10625	-0.79167	-0.17708	-0.30625	-0.79792	0.30625	-0.45833	94.366	278.545	-11.670	275.975	265.789	-49.871	167.591	204.534	143.165	278.444	207.152	264.574	245.582	82.507	56.851	183.833	0.00047308	0.0011105	0.00016697	1209.3	7.1234e-06	3.285e-06	944.98	447.89	5.9752e-06	6.2458e-06	358.87	133.37	160.3	66.69	5.149e-06	56.677	0.00040788	0.00035299	9.287e-05	1221.8	4.3315e-06	3.9087e-06	957.04	453.3	4.3304e-06	3.7655e-06	362.63	136.14	162.14	67.877	3.802e-06	57.972	-24.148	-4.135	-2.470	-64.453	40.797	34.099	-65.969	-59.065	130.180	50.921	-61.593	-56.114	-53.910	-48.565	131.364	-51.992	-8191	255	
2596.570	1	1	0	0	0.39738	0.15657	0.10469	0.14079	0.15908	0.14645	0.074447	0.070442	0.33507	0.15815	0.24164	0.12582	0.17305	0.45604	0.13889	0.10481	0.17292	-0.016667	-0.69792	-0.16667	-0.3875	-0.75625	-0.13125	-0.8	-0.3875	-0.045833	-1.0333	-0.27917	-0.29792	-0.93542	-0.03125	-0.45417	165.128	-39.863	154.475	-59.704	15.082	-40.130	168.265	234.250	-64.619	2.752	245.228	98.369	-67.893	248.014	194.823	201.732	0.00051401	0.00074937	0.0001345	1216.1	7.4972e-06	7.3241e-06	953.05	449.53	4.9562e-06	7.9049e-06	358.12	132.58	159.66	65.377	1.5748e-06	54.88	0.00040072	0.00034453	0.00010057	1231.1	4.1346e-06	3.8394e-06	961.68	454.95	4.2241e-06	3.662e-06	362.19	135.04	161.45	66.474	4.1437e-06	56.138	-26.923	-7.862	5.609	-64.238	39.274	75.674	-66.012	-59.109	64.590	57.309	-61.587	-56.511	-54.123	-48.560	167.989	-52.080	-8191	255	
2596.665	1	1	0	0	0.10646	0.21507	0.057353	0.18347	0.06196	0.17205	0.07993	0.21544	0.12772	0.33507	0.19564	0.1702	0.30108	0.29667	0.44845	0.068848	-0.060417	-0.09375	-0.56042	-0.2125	-0.09375	-0.76875	0.17708	-0.84792	-0.37292	0.20208	-1.0146	-0.15833	-0.28958	-0.7	0.13958	-0.47708	177.232	68.110	151.821	245.574	262.276	70.396	-11.048	146.392	13.654	216.780	-6.498	-36.369	245.647	-45.032	88.431	-28.901	0.00033416	0.00066781	0.00012039	1210.9	7.1826e-06	5.1103e-06	933.59	443.31	4.0883e-06	3.1594e-06	349.35	129.55	157.28	64.297	3.7077e-06	53.944	0.00038157	0.00033545	0.00010832	1227.1	3.9512e-06	3.7012e-06	946.92	448.75	3.9808e-06	3.5725e-06	354.67	131.38	158.83	65.359	4.3362e-06	55.041	-40.647	-10.094	100.893	-64.329	11.222	76.201	-66.347	-58.947	60.571	22.386	-61.901	-56.374	-54.108	-48.607	76.947	-51.823	-8191	255	
2596.761	1	1	0	0	0.13008	0.27489	0.051393	0.1764	0.31022	0.068165	0.20355	0.23334	0.11046	0.071539	0.36811	0.37665	0.12969	0.14418	0.068574	0.20708	-0.10625	0.13958	-0.65625	-0.41042	-0.05	-0.73125	-0.00625	-0.49167	-0.6375	0.35625	-0.75625	-0.45417	0.17292	-0.90208	0.13958	-0.46667	-71.803	-40.012	-18.711	250.975	44.573	37.724	219.174	218.299	58.229	179.402	236.635	135.669	207.107	202.189	158.375	239.220	0.0004564	0.00055925	0.00013696	1211.6	6.2342e-06	6.6393e-06	932.74	443.3	2.1287e-06	2.5661e-06	349.11	129.4	157.23	64.327	1.3267e-06	54.319	0.00035765	0.00032157	0.00011018	1222.6	3.671e-06	3.6544e-06	946.46	448.76	3.7227e-06	3.5864e-06	355.13	131.7	158.91	65.565	4.3714e-06	55.159	-38.676	18.946	37.521	-64.438	35.835	20.307	-66.273	-58.985	86.950	79.539	-61.396	-56.659	-54.140	-48.609	42.128	-52.237	-8191	255	
2596.881	1	1	0	0	0.21918	0.11769	0.33815	0.046515	0.13304	0.13774	0.23006	0.28259	0.082372	0.053958	0.16391	0.2135	0.077935	0.26744	0.28848	0.19096	-0.30625	0.10208	-0.49167	-0.3375	0.13958	-0.725	-0.1125	-0.26667	-0.51042	0.22292	-0.60417	-0.56458	0.23542	-0.90625	-0.070833	-0.16042	-59.124	98.900	156.905	186.712	-29.033	-22.952	176.970	247.559	-18.299	-33.444	-66.424	35.331	194.218	222.506	62.741	235.712	0.00031785	0.00057509	0.00018126	1206.2	2.6209e-06	4.7101e-06	932.2	442.01	8.0247e-07	2.9407e-06	349.17	129.44	156.86	63.998	4.1469e-06	54.472	0.00033891	0.00033465	0.00010845	1217.4	3.4765e-06	3.7962e-06	943.53	445.91	3.5311e-06	3.7588e-06	353.97	131.16	158.59	65.281	4.2091e-06	55.062	-40.983	39.313	-45.732	-64.376	37.605	58.207	-65.905	-58.802	60.059	159.465	-61.361	-56.462	-54.127	-48.664	97.482	-52.087	-8191	255	
2596.953	1	1	0	0	0.28627	0.24107	0.087193	0.11501	0.12005	0.02861	0.28358	0.33131	0.31947	0.22079	0.23081	0.21354	0.31232	0.22379	0.29401	0.1258	-0.16042	0.091667	-0.30833	-0.65	0.28958	-0.74583	-0.17292	0.060417	-0.7625	0.15833	-0.44583	-0.62292	0.035417	-0.99167	-0.1125	-0.14167	219.595	-11.240	204.538	-70.027	-61.663	266.829	237.355	228.104	39.578	235.117	5.635	-67.372	-63.733	-66.511	-49.569	22.029	0.00052461	0.00048123	0.00012249	1209	4.6122e-06	3.1513e-06	938.48	442.58	1.982e-06	1.8738e-06	351.27	130.16	157.43	64.121	7.2387e-06	54.422	0.00032758	0.00036333	0.0001035	1219.4	3.3863e-06	4.0604e-06	946.94	447.05	3.549e-06	4.0838e-06	355.01	131.66	158.72	65.378	4.1207e-06	54.958	-18.460	-23.813	6.547	-64.363	52.202	32.903	-66.257	-59.017	59.158	106.141	-61.496	-56.460	-54.165	-48.323	85.800	-52.227	-8191	255	
2597.049	1	1	0	0	0.25093	0.1324	0.081599	0.38222	0.30948	0.14289	0.22288	0.29772	0.20228	0.20816	0.053736	0.32228	0.17652	0.2488	0.20242	0.099639	-0.5	0.175	-0.50625	-0.62292	0.225	-0.67292	-0.325	0.033333	-0.61667	-0.00625	-0.36667	-0.70833	-0.014583	-0.65833	-0.36875	-0.05	253.305	212.345	142.404	-60.169	-21.687	107.425	231.596	159.919	13.199	30.139	273.571	-49.806	45.191	219.320	61.882	230.153	0.00039901	0.00053449	7.3914e-05	1207.7	6.1185e-06	4.653e-06	936.7	441.91	8.1725e-06	3.3491e-06	348.9	129.73	156.81	63.776	3.9312e-06	53.508	0.00034048	0.00039091	0.00010086	1220.3	3.6131e-06	4.3249e-06	946.83	446.8	3.7475e-06	4.3459e-06	353.48	131.06	158.36	65.091	3.8701e-06	54.391	-41.056	3.260	-47.767	-64.219	61.307	38.762	-66.132	-58.793	-59.444	-3.849	-61.650	-56.521	-54.258	-48.562	49.284	-52.317	-8191	255	
2597.145	1	1	0	0	0.20075	0.30868	0.28493	0.20422	0.093045	0.26936	0.18052	0.092099	0.28742	0.36163	0.25686	0.12562	0.14431	0.11672	0.074618	0.2993	-0.40208	-0.058333	-0.125	-0.66667	0.24792	-0.58125	-0.36875	-0.16875	-0.69375	-0.12917	-0.39583	-0.68542	0.15625	-0.49792	-0.43333	-0.022917	33.485	97.865	32.639	242.762	94.700	-11.215	214.720	224.317	231.397	191.896	263.995	221.868	96.849	154.546	119.069	-5.972	0.00052121	0.00081523	0.00019448	1203.6	5.9171e-06	2.8192e-06	929.57	439.38	1.8561e-06	5.4429e-06	345.04	128.41	155.61	63.705	5.6385e-06	53.276	0.00036165	0.00039743	9.4438e-05	1215.3	3.8734e-06	4.2412e-06	938.35	444.47	4.0378e-06	4.2314e-06	350.05	129.71	157.39	64.753	3.7345e-06	53.953	-37.505	-3.946	-11.507	-64.247	95.693	83.245	-66.263	-58.874	154.703	31.858	-61.591	-56.382	-54.395	-48.505	83.750	-51.896	-8191	255	
2597.266	1	1	0	0	0.27832	0.19365	0.14049	0.08826	0.28189	0.11184	0.11311	0.14557	0.17888	0.23367	0.086031	0.15155	0.090244	0.14292	0.2933	0.2669	-0.175	-0.26042	-0.13125	-0.69583	0.2375	-0.32708	-0.56458	-0.06875	-0.60625	-0.59792	0.01875	-0.7375	-0.24583	-0.35417	-0.73542	0.16667	-35.945	-65.107	9.555	209.468	165.028	258.971	-66.351	268.800	84.767	79.465	176.972	97.881	214.410	-71.513	105.461	119.421	0.00045214	0.00085609	9.5691e-05	1200.3	7.8646e-06	4.0853e-06	925.67	435.61	2.3914e-06	7.0581e-06	344.81	126.82	154.58	62.911	7.0931e-06	53.139	0.00038482	0.00037268	9.0725e-05	1210.6	4.1449e-06	3.9604e-06	934.82	440.32	4.1852e-06	3.9846e-06	348.13	128.64	156.43	64.01	3.5482e-06	53.68	-48.336	-8.763	-26.706	-64.422	56.544	21.626	-65.998	-58.975	6.652	57.137	-61.673	-56.564	-54.314	-48.452	32.439	-52.210	-8191	255	
2597.362	1	1	0	0	0.17138	0.025267	0.24766	0.13379	0.21134	0.012799	0.093861	0.27465	0.16315	0.26972	0.23728	0.092916	0.22305	0.15337	0.088714	0.26225	-0.30833	-0.40208	0.083333	-0.9875	0.16875	-0.38542	-0.725	0.12708	-0.725	-0.33958	0.0875	-1.1271	-0.12708	-0.33333	-0.79583	0.18125	57.431	184.688	126.764	279.918	-32.912	36.398	140.567	214.018	274.449	271.036	83.743	214.357	211.379	89.408	27.957	209.916	0.00045551	0.00063407	0.00019717	1197.5	5.0543e-06	4.9753e-06	926.02	436.73	7.9473e-06	3.4272e-07	347.02	128.09	154.49	63.281	6.1938e-06	53.585	0.00039362	0.00035365	8.6677e-05	1208.6	4.3135e-06	3.7497e-06	935.3	440.97	4.2632e-06	3.7763e-06	349.21	129.77	156.63	64.266	3.5094e-06	54.516	-26.676	-21.875	-13.399	-64.414	35.271	46.498	-66.143	-59.176	129.374	-0.524	-61.657	-56.518	-54.057	-48.547	129.939	-52.084	-8191	255	
2597.457	1	1	0	0	0.1496	0.043388	0.24366	0.10315	0.19545	0.10466	0.17042	0.20627	0.068867	0.09581	0.2214	0.36278	0.25534	0.19889	0.30699	0.062696	-0.29583	-0.50417	-0.064583	-0.78542	-0.0375	-0.25208	-0.94375	0.03125	-0.4375	-0.4875	0.10833	-0.79583	-0.325	-0.13542	-0.78542	0.0020833	179.116	103.182	37.389	246.712	-56.856	-57.804	230.224	211.623	156.191	246.232	-59.494	253.421	258.929	-15.701	40.684	263.429	0.00042406	0.00073223	0.00014495	1197	4.3952e-06	8.4406e-06	930.75	437.51	4.1155e-06	5.8982e-06	346.38	129.08	154.79	63.104	4.5182e-06	53.862	0.00038736	0.00034101	8.4483e-05	1209.8	4.1817e-06	3.5593e-06	940.71	442.08	4.1582e-06	3.6256e-06	351.45	130.92	156.45	64.189	3.545e-06	54.637	-22.391	-8.154	-10.796	-64.371	53.986	53.376	-66.034	-59.141	109.700	40.433	-61.446	-56.389	-53.949	-48.451	110.459	-52.133	-8191	255	
2597.555	1	1	0	0	0.20679	0.10432	0.12908	0.48093	0.30136	0.13297	0.12696	0.29798	0.29091	0.19721	0.076738	0.059908	0.15594	0.16808	0.18636	0.023211	-0.2875	-0.59583	-0.033333	-0.77708	-0.38125	-0.070833	-0.79583	-0.25833	-0.18125	-0.73333	0.010417	-0.9875	-0.20208	0.033333	-0.77917	-0.17917	140.846	170.982	-12.270	202.047	161.180	9.828	199.886	135.056	270.946	153.950	-10.035	136.652	63.032	2.318	66.150	231.842	0.00044465	0.00069678	0.00012993	1198.2	4.6042e-06	6.9713e-06	927.05	435.9	9.0327e-06	3.0309e-06	346.04	127.83	153.85	62.824	2.8854e-06	53.066	0.00037585	0.00033715	8.8634e-05	1211	4.0547e-06	3.5862e-06	940.53	441.5	3.9895e-06	3.6532e-06	350.12	130	155.57	63.718	3.8313e-06	54.068	-35.287	-5.209	10.251	-64.205	35.719	38.383	-66.018	-58.986	97.084	70.787	-61.673	-56.085	-54.117	-48.431	96.552	-52.054	-8191	255	
2597.649	1	1	0	0	0.035094	0.12546	0.20589	0.26853	0.026174	0.29955	0.33833	0.19922	0.29936	0.16766	0.23256	0.04052	0.044084	0.27419	0.22265	0.096637	0.12292	-0.7625	0.27917	-0.81875	-0.16458	-0.0020833	-0.94375	-0.091667	-0.21667	-0.61042	-0.10208	-0.55625	-0.69167	-0.25625	-0.69792	-0.37083	90.743	99.315	201.302	-67.924	43.358	277.186	-64.969	-27.670	132.063	53.018	-31.074	69.899	-15.212	251.655	203.447	209.912	0.00029349	0.00079252	0.00012631	1197.3	2.048e-06	1.9181e-06	923.51	434.67	4.2212e-06	4.3234e-06	344.03	127.91	153.3	62.707	1.4271e-06	53.246	0.00036437	0.00033613	9.7459e-05	1210.2	3.9102e-06	3.4451e-06	937.27	439.98	3.8016e-06	3.5584e-06	350.16	129.68	155.35	63.74	4.1588e-06	54.18	-35.270	-47.337	17.483	-64.275	100.365	7.761	-66.032	-59.186	65.198	63.691	-61.474	-56.027	-54.360	-48.542	272.353	-52.195	-8191	255	
2597.745	1	1	0	0	0.11855	0.17044	0.13495	0.36116	0.25284	0.1325	0.30498	0.20363	0.26245	0.14029	0.32596	0.3138	0.33682	0.22839	0.106	0.21938	0.14375	-0.525	0.12083	-0.63333	-0.42083	0.22917	-0.85417	-0.3	-0.025	-0.66042	-0.041667	-0.3375	-0.66042	-0.08125	-0.54583	-0.31458	137.803	-38.877	207.889	205.910	220.321	96.172	248.617	-13.284	195.545	182.164	230.337	237.047	-53.237	266.601	-37.317	196.123	0.00040294	0.00065915	7.6085e-05	1198.5	5.119e-06	1.2806e-06	929.93	435.95	6.9571e-06	6.0497e-06	349.64	129.09	154.29	63.471	4.4566e-06	54.394	0.00035539	0.00033358	0.0001065	1210.3	3.8352e-06	3.466e-06	943.44	440.67	3.6986e-06	3.6057e-06	353.62	131.02	156.05	64.589	4.3901e-06	55.362	-23.452	-17.647	65.152	-64.126	37.157	92.480	-66.038	-59.068	85.849	53.219	-61.696	-56.058	-54.053	-48.430	99.124	-51.890	-8191	255	
2597.841	1	1	0	0	0.13294	0.22659	0.15467	0.24198	0.23155	0.18689	0.22163	0.14185	0.087069	0.1975	0.15509	0.23345	0.39136	0.099549	0.42122	0.25925	0.33125	-0.71458	-0.072917	-0.52917	-0.68542	-0.010417	-0.67708	-0.55	0.10208	-0.58958	0.10417	-0.30208	-0.71667	-0.060417	-0.53333	-0.59583	281.724	70.516	232.219	232.347	133.153	25.549	255.658	128.621	60.689	80.503	-47.145	223.437	252.702	-24.711	271.214	229.226	0.00042936	0.00086397	0.00015573	1196.2	4.2867e-06	1.8249e-06	938.75	436.85	1.0206e-05	3.9946e-06	350.86	130.2	154.74	63.247	8.1839e-06	53.686	0.0003368	0.00033185	0.00011056	1208.5	3.667e-06	3.5698e-06	950.16	441.76	3.5186e-06	3.7677e-06	356.32	131.64	156.39	64.412	4.4021e-06	54.645	-30.570	2.799	2.977	-64.279	106.383	75.878	-65.828	-59.066	64.705	96.843	-61.668	-56.240	-53.949	-48.505	93.957	-52.000	-8191	255	
2597.962	1	1	0	0	0.10627	0.13987	0.13789	0.12689	0.21247	0.20314	0.20913	0.11146	0.040776	0.13453	0.23224	0.15978	0.24548	0.2035	0.07767	0.39974	0.56667	-0.46042	0.11875	-0.29583	-0.78542	0.25	-0.57292	-0.40833	0.31458	-0.73125	-0.12917	0.014583	-0.71458	-0.1375	-0.22292	-0.52917	190.161	155.753	46.715	-70.458	260.273	161.476	261.690	123.283	175.573	194.063	82.227	215.377	265.591	213.565	-72.948	148.838	0.00041243	0.00055794	0.00014486	1203.6	3.1527e-06	2.5231e-06	945	439.08	4.9655e-06	4.7826e-06	353.5	129.74	155.73	63.007	5.9546e-06	53.297	0.00032904	0.0003688	0.00011253	1215.4	3.6674e-06	4.0762e-06	954.81	443.44	3.5893e-06	4.2603e-06	357.55	131.41	157.25	64.099	4.2078e-06	54.085	-34.624	-12.710	-25.916	-64.349	67.833	117.558	-65.914	-58.939	91.023	53.069	-61.526	-56.202	-54.162	-48.657	54.164	-52.016	-8191	255	
2598.058	1	1	0	0	0.18848	0.065319	0.37099	0.1848	0.081137	0.13684	0.060453	0.26142	0.10056	0.26682	0.12944	0.21061	0.033395	0.01788	0.26301	0.092605	0.39375	-0.71042	-0.016667	-0.24583	-0.73542	-0.1125	-0.625	-0.85	0.26667	-0.68958	-0.5125	-0.041667	-0.9375	0.10417	-0.35	-0.70208	-34.373	-50.274	128.653	212.040	234.254	140.482	-0.021	228.566	-22.574	167.664	157.518	-76.527	-18.683	20.963	189.370	96.164	0.00044042	0.00043372	0.00011903	1206.6	3.9124e-06	5.9685e-06	931.7	436.55	3.2366e-06	1.5184e-06	346.19	127.15	153.03	62.193	2.294e-06	52.536	0.00032857	0.0003876	0.00010583	1217.8	3.6138e-06	4.2894e-06	942.95	439.97	3.5332e-06	4.3083e-06	350.28	128.53	154.8	63.181	3.8895e-06	53.409	-38.944	9.055	4.822	-64.162	14.050	93.989	-65.913	-58.990	28.468	7.825	-61.676	-56.189	-54.011	-48.377	39.212	-51.964	-8191	255	
2598.154	1	1	0	0	0.11197	0.13079	0.16646	0.29237	0.1088	0.10281	0.16715	0.10645	0.1696	0.067764	0.11734	0.28936	0.12571	0.14913	0.19174	0.30655	0.59167	-0.70208	-0.072917	0.14167	-0.88125	0.30417	-0.36667	-0.81042	0.29792	-0.79792	-0.21667	0.095833	-0.62708	0.052083	-0.085417	-0.58125	46.493	223.313	41.971	-75.260	238.319	64.889	253.748	153.433	93.399	38.638	193.592	268.965	260.554	163.589	-4.593	185.306	0.00041052	0.00069144	0.00019143	1193.1	1.3716e-06	3.9118e-06	932.27	437.3	1.541e-06	7.9566e-06	347.56	129.11	154.54	62.747	1.4857e-06	53.483	0.0003411	0.00039549	9.955e-05	1206.4	3.7777e-06	4.2932e-06	941.43	440.92	3.7515e-06	4.263e-06	351.97	130.28	156.27	63.97	3.6572e-06	54.163	-46.245	32.901	-28.573	-64.015	3.706	71.058	-66.111	-59.025	125.709	25.770	-61.543	-56.174	-54.053	-48.364	71.463	-51.850	-8191	255	
2598.250	1	1	0	0	0.1824	0.08575	0.17426	0.34258	0.11179	0.11266	0.12038	0.25154	0.08474	0.053491	0.35504	0.31256	0.18101	0.10079	0.10188	0.10653	0.86458	-0.50417	-0.37708	0.25	-0.44167	-0.035417	-0.064583	-0.70417	0.225	-0.59167	-0.6375	0.091667	-0.97708	-0.19792	0.29792	-0.92708	259.708	85.944	269.025	137.992	49.163	169.421	154.035	280.465	222.959	25.747	275.314	163.482	262.654	-64.614	-21.223	-41.384	0.00044757	0.0006536	0.00020536	1196.9	5.545e-06	6.2021e-06	936.6	438.1	2.6844e-06	5.5222e-06	350.41	129.03	154.9	63.221	3.1726e-06	53.744	0.00036449	0.00038347	9.6075e-05	1210.1	4.1402e-06	4.1935e-06	945.99	442.49	4.1408e-06	4.1621e-06	353.95	130.88	157.2	64.304	3.5816e-06	54.37	-49.067	5.461	-1.055	-64.180	51.716	54.275	-65.912	-59.041	44.361	55.531	-61.265	-56.257	-53.962	-48.576	31.309	-52.106	-8191	255	
2598.346	1	1	0	0	0.12754	0.44281	0.14292	0.093137	0.26335	0.11828	0.22199	0.1869	0.13449	0.33469	0.065536	0.29355	0.34108	0.072726	0.19484	0.13852	0.46667	-0.38958	-0.49167	0.079167	-0.71458	-0.22917	-0.16458	-0.71667	-0.016667	-0.1375	-0.7125	0.24792	-0.59583	-0.6625	0.2625	-0.8375	246.379	99.075	101.204	158.202	-56.689	-68.761	223.324	210.507	172.478	-46.551	-16.903	273.092	-53.864	-65.312	115.650	203.951	0.00021224	0.00063253	0.00023372	1198.7	2.296e-06	4.0354e-06	933.89	438.49	5.6919e-06	7.3257e-06	350.35	129.37	155.32	62.785	5.9733e-06	53.274	0.00039814	0.00036645	9.3488e-05	1211.7	4.3449e-06	4.0528e-06	944.92	443.03	4.3849e-06	3.8748e-06	353.39	130.87	156.95	63.842	3.5425e-06	54.21	-46.845	8.079	-32.812	-64.455	40.536	81.369	-66.098	-59.037	93.283	50.628	-61.677	-56.305	-54.045	-48.623	76.515	-51.990	-8191	255	
2598.443	1	1	0	0	0.23655	0.20125	0.15101	0.21572	0.11096	0.14778	0.089791	0.32844	0.18432	0.19056	0.15489	0.21673	0.23471	0.19675	0.26752	0.20517	0.47708	-0.058333	-0.625	0.064583	-0.63958	-0.2375	-0.125	-0.73958	0.047917	-0.047917	-0.60417	0.1	-0.49167	-0.53333	0.10625	-0.80417	144.420	109.047	258.167	259.441	233.903	214.701	13.509	219.290	65.911	-67.948	226.214	-18.532	-52.594	274.753	118.193	201.771	0.00033766	0.00068626	0.00014688	1200	2.8403e-06	3.3071e-06	931.76	437.35	7.9756e-07	5.0966e-06	349.01	127.97	153.52	62.345	2.9148e-06	53.033	0.00041352	0.00034757	9.1366e-05	1211.2	4.3861e-06	3.8451e-06	944.45	441.61	4.3582e-06	3.6973e-06	352.3	130.18	155.57	63.356	3.4386e-06	53.905	-22.490	-61.311	-1.492	-64.121	-5.578	30.417	-65.948	-59.159	189.409	57.591	-61.629	-56.013	-54.029	-48.556	158.607	-51.967	-8191	255	
2598.561	1	1	0	0	0.16236	0.28847	0.081962	0.13084	0.078124	0.16458	0.13019	0.24279	0.15722	0.078037	0.23221	0.076395	0.086336	0.26065	0.23363	0.16803	0.32083	0.075	-0.7875	0.089583	-0.60208	-0.35833	0.13958	-0.80625	-0.08125	-0.0875	-0.82917	0.20417	-0.37917	-0.7125	0.19375	-0.775	139.174	-24.381	219.068	191.804	-35.531	59.471	277.169	75.318	138.889	102.137	264.211	-0.690	-70.755	237.428	147.489	183.168	0.00032481	0.00059842	0.000147	1191.4	5.9575e-06	5.8472e-06	927.57	433.68	4.7875e-06	3.9393e-06	344.26	126.83	152.69	61.955	1.308e-06	52.88	0.00038837	0.00032966	8.8842e-05	1206.8	4.0484e-06	3.6537e-06	936.41	438.55	4.1372e-06	3.5482e-06	348.62	129.21	154.44	62.919	3.5082e-06	53.653	-32.453	-50.306	60.911	-64.408	19.018	117.595	-66.041	-58.967	77.366	69.943	-61.591	-56.549	-54.047	-48.696	86.790	-51.910	-8191	255	
2598.658	1	1	0	0	0.10988	0.11631	0.1702	0.25499	0.29427	0.19125	0.48995	0.25223	0.085689	0.26631	0.16944	0.023034	0.19005	0.2766	0.16353	0.30141	-0.00625	0.2375	-0.66458	-0.0125	-0.10625	-0.56458	0.28333	-0.76667	-0.11667	0.066667	-0.81875	0.0125	-0.17708	-0.78542	0.17292	-0.63125	84.414	-31.824	-64.304	-55.990	63.120	108.752	232.896	256.231	209.542	280.850	279.267	229.717	226.708	261.890	246.006	-50.038	0.00042946	0.00045408	8.3795e-05	1188.6	4.4575e-06	6.965e-06	926.6	433.08	6.4163e-06	2.028e-06	345.6	128.09	152.68	62.176	5.3095e-06	53.25	0.00036505	0.00031553	9.1647e-05	1203.4	3.8227e-06	3.5473e-06	937.5	437.6	3.8378e-06	3.3676e-06	350.56	129.92	154.43	63.296	3.7809e-06	54.254	-12.547	-30.243	-13.284	-64.291	65.084	39.706	-66.000	-58.872	122.273	84.540	-61.512	-56.213	-54.140	-48.512	105.322	-51.788	-8191	255	
2598.754	1	1	0	0	0.098938	0.050804	0.19346	0.060192	0.052728	0.083724	0.35634	0.33899	0.019935	0.15131	0.13825	0.21525	0.34958	0.17274	0.13445	0.38913	-0.033333	0.38125	-0.53958	-0.23125	-0.12083	-0.87083	0.11458	-0.55417	-0.36042	0.28333	-0.82708	-0.0020833	0.083333	-0.63542	0.27292	-0.525	172.589	198.169	-48.283	266.420	54.381	-21.124	191.775	-53.380	58.063	21.487	197.286	223.677	255.691	-58.747	164.048	253.663	0.00034712	0.0010685	0.00018406	1190.8	5.7288e-06	7.0072e-06	931.47	433.37	6.4361e-06	2.9822e-06	350.02	128.48	153.16	62.461	2.4111e-06	54.025	0.00034996	0.00030956	9.9448e-05	1204.8	3.6855e-06	3.4788e-06	943.74	438.94	3.7406e-06	3.339e-06	353.57	130.83	154.55	63.517	4.0767e-06	54.731	-22.293	8.322	31.267	-64.296	101.929	21.400	-66.017	-58.938	54.964	63.136	-61.697	-56.434	-54.006	-48.572	138.401	-51.700	-8191	255	
2598.825	1	1	0	0	0.21982	0.34415	0.17526	0.14539	0.25453	0.1547	0.33645	0.2521	0.20217	0.085065	0.13282	0.10552	0.23256	0.064611	0.11102	0.2061	-0.25417	0.4125	-0.75417	-0.18333	-0.0375	-0.61458	0.17083	-0.31042	-0.34375	0.15833	-0.45417	-0.20625	0.11042	-0.96667	0.11667	-0.25	18.152	207.106	84.549	231.438	200.924	-18.009	176.101	217.359	172.272	152.078	198.908	144.159	-57.847	157.771	-35.765	-34.821	0.00045486	0.00082246	0.00017636	1195.7	4.5174e-06	5.0042e-06	932.65	434.82	7.0574e-06	2.3437e-06	351.52	129.64	152.94	62.669	3.6448e-06	53.868	0.0003454	0.00030906	0.00010658	1207.2	3.534e-06	3.5464e-06	946.72	439.48	3.6533e-06	3.5093e-06	356.44	131.16	154.65	63.61	4.337e-06	54.748	-32.808	-5.565	-20.718	-64.334	77.279	66.726	-66.062	-58.900	89.581	170.214	-61.374	-56.447	-53.844	-48.349	110.433	-51.689	-8191	255	
2598.946	1	1	0	0	0.18424	0.24973	0.06522	0.18774	0.194	0.017045	0.17765	0.56573	0.18289	0.35609	0.096113	0.077107	0.0773	0.44483	0.26005	0.3043	-0.16667	0.25	-0.70625	-0.37917	0.1625	-0.6875	-0.070833	-0.22917	-0.80417	0.3375	-0.65417	-0.40208	0.1375	-1.0063	0.17917	-0.17917	-73.110	-76.007	-70.267	4.512	204.379	-34.087	177.071	221.808	-0.248	130.912	-17.513	83.364	-17.272	266.416	33.035	169.350	0.00044383	0.0005252	0.00016263	1187.5	3.9368e-06	3.3866e-06	939.97	432.2	5.7461e-06	6.6239e-06	349.85	128.77	152.8	62.635	4.9751e-06	54.109	0.0003377	0.00033491	0.00010951	1203.7	3.4759e-06	3.7813e-06	948.79	437.42	3.5686e-06	3.8528e-06	354.68	130.52	154.3	63.855	4.2974e-06	54.751	-29.696	34.607	47.040	-64.291	83.219	-12.270	-65.966	-58.849	57.368	119.228	-61.359	-56.073	-53.910	-48.388	96.138	-51.788	-8191	255	
2599.042	1	1	0	0	0.12629	0.21997	0.26766	0.20753	0.11334	0.096344	0.15342	0.28674	0.14288	0.18894	0.030798	0.21797	0.12658	0.25735	0.18813	0.10404	-0.34167	0.03125	-0.41042	-0.31667	0.09375	-0.4375	-0.15625	-0.48125	-0.65	-0.0083333	-0.56458	-0.6	0.175	-0.75833	-0.11458	-0.0125	110.308	178.459	132.796	-45.299	65.688	248.066	-61.036	231.649	102.426	27.792	151.977	273.547	-43.941	281.178	73.780	262.290	0.00037232	0.00016168	0.00021312	1188	5.6047e-06	2.834e-06	935.53	432.16	2.7602e-06	5.9127e-06	350.67	129.37	152.67	62.814	2.0614e-06	53.972	0.0003329	0.00036623	0.00010664	1201.9	3.4305e-06	4.1474e-06	947.17	437.37	3.5646e-06	4.2233e-06	355.02	130.91	154.49	64.07	4.1823e-06	54.671	-38.678	9.565	-4.913	-64.214	60.902	-14.811	-66.206	-59.065	56.094	51.171	-61.664	-56.501	-54.107	-48.349	48.659	-51.800	-8191	255	
2599.138	1	1	0	0	0.30221	0.11861	0.082136	0.39292	0.14942	0.085012	0.22464	0.11823	0.049008	0.16534	0.1402	0.17692	0.24773	0.22997	0.19128	0.14824	-0.33125	0.34167	-0.20625	-0.8625	0.17292	-0.64792	-0.43125	-0.010417	-0.55833	0.1125	-0.38125	-0.3625	0.1875	-0.79792	-0.31458	0.21042	-41.764	241.143	-32.506	252.479	248.473	103.646	254.634	234.425	259.301	-35.818	115.464	214.133	-73.303	232.532	143.776	261.939	0.00054718	0.0008993	7.8588e-05	1189.3	1.6108e-06	5.855e-06	937.03	431.89	2.991e-06	4.464e-06	350.68	129.83	152.5	62.79	3.581e-06	54.164	0.00034476	0.00040193	0.00010314	1202.2	3.6298e-06	4.4109e-06	948.5	436.59	3.8192e-06	4.4558e-06	355.19	131.23	154.64	64.107	4.0177e-06	54.922	-23.339	7.855	1.765	-64.399	31.920	73.906	-66.244	-59.143	106.194	33.093	-61.575	-56.354	-53.950	-48.371	61.875	-51.926	-8191	255	
2599.235	1	1	0	0	0.16032	0.20406	0.15523	0.26174	0.16869	0.28397	0.21519	0.19724	0.23325	0.29786	0.29041	0.15284	0.12652	0.14393	0.10405	0.11661	-0.48333	0.029167	0.083333	-0.875	0.42292	-0.39375	-0.77917	0.23958	-0.625	0.039583	0.0083333	-0.93958	0.14167	-0.5	-0.39375	0.25417	253.698	132.940	57.883	-73.051	267.676	-23.383	262.600	203.261	259.423	201.314	192.515	-56.971	-48.386	253.453	253.644	73.409	0.00050488	0.00067812	0.00019934	1192.1	4.092e-06	6.2298e-06	943.67	434.79	2.5247e-06	3.1443e-06	353.31	130.21	153.6	63.234	4.2118e-06	54.508	0.00036971	0.00040727	9.681e-05	1204.2	3.9268e-06	4.3382e-06	953.2	438.27	4.1073e-06	4.3851e-06	357.49	132.1	155.42	64.4	3.8606e-06	55.34	-37.491	-22.897	-52.018	-64.292	91.258	61.518	-66.210	-59.012	216.713	34.143	-61.514	-56.457	-54.038	-48.317	72.657	-51.990	-8191	255	
2599.353	1	1	0	0	0.23039	0.2109	0.2054	0.20536	0.030709	0.20991	0.26092	0.23351	0.13591	0.167	0.16401	0.25828	0.16409	0.34425	0.15993	0.076256	-0.46458	-0.15833	0.175	-0.82083	0.016667	-0.27708	-0.65625	0.11667	-0.61042	-0.22292	0.20417	-0.89375	0.20208	-0.47708	-0.19792	0.1	144.003	217.839	-76.640	-61.609	149.759	72.241	177.370	-60.295	225.407	192.139	-62.334	195.465	-63.238	199.255	-47.438	45.094	0.00045821	0.00055454	0.00015525	1192	1.986e-06	6.6722e-06	942.79	434.6	3.7721e-06	4.2696e-06	352.12	130.73	154.49	63.402	3.282e-06	54.934	0.0003961	0.0003916	9.4581e-05	1205.4	4.2468e-06	4.1137e-06	952.94	438.72	4.3494e-06	4.1895e-06	357.19	132.26	156.07	64.536	3.678e-06	55.543	-36.958	-23.623	13.926	-64.470	45.248	27.134	-66.175	-59.001	143.584	72.138	-61.436	-56.202	-54.072	-48.411	77.409	-51.845	-8191	255	
2599.427	1	1	0	0	0.14026	0.15164	0.19356	0.16729	0.24567	0.27315	0.30518	0.17307	0.08879	0.064445	0.22346	0.15341	0.15802	0.035404	0.085277	0.26249	-0.3	-0.22083	0.16042	-0.80208	0.00625	-0.26875	-0.59167	-0.054167	-0.58542	-0.38125	-0.075	-0.84792	0.00625	-0.42708	-0.62708	0.2875	-35.339	-15.845	-72.799	171.956	111.899	-22.990	184.408	226.850	160.231	253.608	106.680	94.569	238.009	176.026	-54.732	-71.489	0.00033742	0.00062188	9.5074e-05	1197.9	8.2455e-06	6.8456e-06	944.32	434.79	7.0132e-07	2.2284e-06	354.44	130.74	154.09	63.503	5.3787e-06	54.366	0.00040829	0.00036884	9.0679e-05	1207.4	4.4325e-06	3.8821e-06	952.63	439.44	4.4442e-06	3.9572e-06	357.22	132.64	156.19	64.557	3.6263e-06	55.431	-32.790	-76.853	6.372	-64.105	53.389	63.824	-66.064	-59.019	123.998	103.584	-61.367	-56.299	-54.285	-48.223	102.182	-51.802	-8191	255	
2599.523	1	1	0	0	0.14818	0.055446	0.24051	0.33186	0.051333	0.15973	0.18999	0.35102	0.19445	0.20923	0.15773	0.24839	0.11442	0.31629	0.10642	0.23896	-0.2625	-0.14167	0.13125	-0.96875	0.014583	-0.077083	-0.80417	0.19167	-0.48958	-0.19375	0.21667	-0.6625	-0.1125	-0.1125	-0.60208	0.089583	186.872	-15.188	277.418	189.770	90.847	82.579	166.058	235.110	139.166	208.764	263.695	-47.901	272.273	247.728	213.450	-64.802	0.00037688	0.00096377	0.00016987	1192	6.5603e-06	7.3717e-06	944.18	436.41	9.4233e-06	6.6669e-06	353.93	130.84	154.57	63.45	3.6261e-06	55.094	0.00040549	0.00035092	8.7191e-05	1208.4	4.3517e-06	3.6992e-06	953.22	441.68	4.2322e-06	3.7808e-06	357.61	133.05	156.67	64.675	3.6138e-06	55.966	-30.836	-7.675	-38.681	-64.233	14.493	42.309	-66.036	-58.807	53.959	92.517	-61.432	-56.236	-53.993	-48.395	97.987	-51.713	-8191	255	
2599.642	1	1	0	0	0.289	0.33833	0.15087	0.169	0.039825	0.12435	0.061242	0.31717	0.229	0.23149	0.012503	0.17417	0.22962	0.14214	0.34732	0.048309	0.13958	-0.46667	0.28542	-0.7875	-0.041667	-0.17083	-0.83333	0.13333	-0.27708	-0.39583	-0.035417	-0.65417	-0.27292	-0.060417	-0.64583	0.10208	241.021	34.403	112.281	-52.070	178.455	-9.051	196.901	97.755	-65.182	40.430	135.404	79.933	-8.381	145.883	-16.710	-45.394	0.0005138	0.00074429	0.0001095	1196.1	6.111e-06	9.294e-06	949.08	436.76	4.3345e-06	4.0935e-06	357.01	132.02	156.03	64.227	1.5484e-06	55.39	0.00038584	0.00034725	9.0049e-05	1212.1	4.1063e-06	3.5841e-06	958.29	442.95	4.0609e-06	3.7196e-06	360.96	134.56	157.66	65.059	3.827e-06	56.378	-27.216	6.642	22.810	-64.450	48.490	46.239	-66.028	-59.080	67.641	109.989	-61.520	-56.176	-54.064	-48.303	-62.630	-51.817	-8191	255	
2599.738	1	1	0	0	0.067987	0.39745	0.17063	0.29539	0.098204	0.31555	0.20184	0.3697	0.029124	0.017448	0.15728	0.32069	0.21519	0.53118	0.31146	0.077723	0.047917	-0.64583	0.42917	-0.82917	-0.14167	0.072917	-1.0562	-0.075	-0.3375	-0.65625	0.36875	-0.51875	-0.27083	0.072917	-0.8625	-0.15417	163.422	-7.864	238.812	280.450	-64.664	277.378	129.567	230.120	221.326	85.252	249.909	208.632	142.592	262.537	-28.112	239.203	0.00052738	0.00085852	0.00017521	1202	7.0442e-06	4.7222e-06	948.29	438.56	4.5183e-06	7.5086e-06	357.5	131.17	154.95	63.41	4.3907e-06	54.639	0.00036319	0.00033721	9.4671e-05	1215.1	3.9223e-06	3.4455e-06	960.84	443.71	3.8351e-06	3.5904e-06	360.52	133.55	156.71	64.411	4.1457e-06	55.514	-37.692	9.329	1.878	-64.408	66.179	32.378	-66.004	-58.982	49.531	62.515	-61.308	-55.998	-53.982	-48.288	71.666	-51.426	-8191	255	
2599.834	1	1	0	0	0.2296	0.0821	0.21749	0.21326	0.1264	0.17843	0.23064	0.25757	0.097326	0.1431	0.15019	0.28784	0.22481	0.18083	0.14382	0.37374	0.28333	-0.79167	0.45833	-0.66875	-0.35417	0.075	-0.85	-0.25833	0.06875	-0.49375	0.058333	-0.60625	-0.48333	0.0875	-0.62708	-0.19792	-17.261	190.589	262.369	272.491	200.994	44.871	-53.457	255.719	34.467	184.326	199.813	236.590	-66.539	192.320	58.482	246.989	0.00033415	0.00020623	0.00015927	1195.5	5.91e-06	4.7505e-06	945.38	436.38	2.1815e-06	5.0288e-06	353.09	130.61	154.3	63.098	6.28e-06	53.942	0.00034872	0.00032565	0.00010453	1212.3	3.8106e-06	3.4297e-06	956.78	441.6	3.6738e-06	3.526e-06	358.1	132.48	155.95	64.22	4.2922e-06	55.07	-42.028	-43.082	67.194	-64.085	-8.262	34.188	-66.051	-58.877	147.738	73.628	-61.481	-56.172	-54.002	-48.190	49.546	-51.932	-8191	255	
2599.955	1	1	0	0	0.15011	0.10018	0.15269	0.25893	0.12371	0.14849	0.28774	0.23827	0.11303	0.13896	0.14818	0.080235	0.13276	0.16288	0.063146	0.096516	0.30208	-0.51458	0.085417	-0.46667	-0.50208	0.05625	-0.65625	-0.43542	0.30833	-0.89167	0.095833	-0.40833	-0.67917	-0.020833	-0.50625	-0.31458	163.342	187.331	143.330	251.571	94.341	200.071	208.080	258.889	196.050	63.167	164.086	-28.727	236.755	191.601	181.244	63.267	0.0004964	0.00044838	0.0001477	1195.9	5.7473e-06	5.3013e-06	942.02	438.05	6.8536e-06	6.7774e-06	357.17	132.23	154.79	63.903	2.4811e-06	55.092	0.00033195	0.00033341	0.00010989	1210.3	3.6682e-06	3.5341e-06	958.34	442.1	3.5158e-06	3.7042e-06	360.64	133.57	156.43	64.757	4.3282e-06	55.931	-30.363	2.649	22.638	-63.945	42.775	114.393	-65.886	-58.971	109.842	86.241	-61.282	-56.048	-53.904	-48.296	64.500	-51.715	-8191	255	
2600.051	1	1	0	0	0.14279	0.14947	0.19467	0.33435	0.1247	0.19058	0.21283	0.31136	0.14477	0.21588	0.32164	0.25411	0.31953	0.25228	0.053088	0.15365	0.66667	-0.68542	-0.014583	-0.31875	-0.67292	0.27708	-0.74583	-0.27083	0.2625	-0.56458	-0.17708	-0.125	-0.77292	0.027083	-0.49792	-0.43542	139.204	221.720	200.354	228.179	239.074	97.769	-36.520	-22.751	-43.722	24.112	196.010	-16.238	276.065	283.198	20.358	121.321	0.00025599	0.00042415	0.00012805	1197.7	5.6285e-06	4.5437e-06	952.02	438.53	5.9237e-06	2.5647e-06	358.64	132.83	155.44	64.355	4.0401e-06	55.813	0.00032557	0.00035477	0.00010954	1209.1	3.5946e-06	3.9196e-06	961.31	443.12	3.4589e-06	4.0263e-06	363.01	134.51	157.38	65.482	4.1774e-06	56.552	-33.426	-45.016	-13.490	-63.905	29.413	98.869	-65.568	-58.695	126.872	89.771	-61.236	-55.794	-53.593	-48.036	35.745	-51.739	-8191	255	
2600.123	1	1	0	0	0.18008	0.13965	0.12699	0.48374	0.11968	0.23673	0.41225	0.081583	0.31516	0.18575	0.063259	0.28699	0.11716	0.12636	0.090983	0.46237	0.45833	-0.4625	0.041667	-0.072917	-0.74167	0.1625	-0.6	-0.525	0.23542	-0.64583	-0.029167	-0.14167	-0.91042	-0.15	-0.36667	-0.65833	264.622	4.692	20.310	-70.100	-59.422	239.755	241.675	-68.833	113.483	178.026	145.158	134.737	176.509	137.740	44.712	252.061	0.00057155	0.00071	5.0171e-05	1200.4	4.4377e-06	2.5453e-06	959.28	441.45	5.3301e-06	3.9925e-06	362.03	134.28	157.03	64.461	8.8677e-06	55.706	0.00032331	0.00038175	0.00010506	1213.1	3.5684e-06	4.2217e-06	965.83	444.75	3.5018e-06	4.2212e-06	364.98	135.46	158.23	65.657	3.9889e-06	56.498	-29.624	17.601	-30.865	-63.896	64.338	118.460	-65.441	-58.616	121.082	69.790	-61.101	-55.509	-53.619	-48.043	86.541	-51.599	-8191	255	
2600.243	1	1	0	0	0.1767	0.17466	0.15699	0.029323	0.16885	0.19081	0.25623	0.14763	0.20625	0.13346	0.22418	0.19354	0.30307	0.28781	0.21883	0.083809	0.425	-0.41667	-0.225	-0.079167	-0.62292	-0.085417	-0.46667	-0.65417	0.15833	-0.54792	-0.31875	-0.0875	-0.89583	-0.13958	-0.05	-0.71667	-70.959	-47.704	-45.141	214.687	-13.602	260.344	181.408	129.861	159.222	-25.561	207.698	150.442	-49.235	226.439	277.862	241.682	0.00057714	0.00088876	0.00022939	1206.1	6.2451e-06	4.6142e-06	952.08	440.49	3.0604e-06	3.3753e-06	356.8	132.47	156.08	63.931	3.7631e-06	54.54	0.00034274	0.00039786	0.00010161	1214.1	3.8538e-06	4.4213e-06	962.68	443.93	3.8712e-06	4.4134e-06	361.64	133.77	157.58	65.067	3.7742e-06	55.514	-24.132	-2.753	-0.865	-63.737	74.413	77.031	-65.529	-58.737	-70.566	68.593	-60.914	-55.571	-53.522	-47.834	62.722	-51.328	-8191	255	
2600.339	1	1	0	0	0.21487	0.2887	0.34355	0.25921	0.16587	0.21808	0.36003	0.10556	0.13218	0.31053	0.097373	0.029288	0.31212	0.2145	0.089203	0.12464	0.54583	-0.725	-0.40833	0.047917	-0.77083	-0.10208	-0.16458	-0.98125	-0.016667	-0.51458	-0.77083	0.17917	-0.78125	-0.4	-0.052083	-0.9375	43.976	-23.742	97.348	235.398	39.555	23.569	192.521	227.421	82.309	-49.389	-17.406	167.722	-73.490	8.218	152.577	105.698	0.00051393	0.00074953	0.00016612	1201	4.1388e-06	6.1668e-06	949.67	439.08	4.3583e-06	4.9993e-06	357.06	132.19	155.02	63.893	4.8357e-06	54.716	0.00037877	0.0003963	9.9416e-05	1211.6	4.2038e-06	4.3669e-06	959.19	443.36	4.3514e-06	4.3111e-06	360.54	133.49	157.28	64.9	3.763e-06	55.53	-45.476	-5.940	-32.581	-63.871	77.135	51.327	-65.660	-58.300	141.859	22.571	-61.093	-55.633	-53.557	-47.815	104.175	-51.446	-8191	255	
2600.436	1	1	0	0	0.064905	0.07191	0.09817	0.22424	0.41727	0.15696	0.051379	0.18177	0.14552	0.11393	0.15746	0.22099	0.25842	0.19146	0.091616	0.15916	0.38333	-0.4	-0.57292	0.014583	-0.50417	-0.1625	-0.23542	-0.84792	0.1875	-0.18125	-0.46667	0.10625	-0.54375	-0.44375	0.1125	-1.0917	2.564	184.986	-8.952	-64.601	-35.083	30.110	176.278	256.723	198.495	-7.244	256.793	228.136	223.301	-16.234	279.961	-72.180	0.00026379	0.00074869	0.00017349	1196.1	3.4363e-06	6.8329e-06	948.1	437.16	4.7116e-06	5.1639e-06	356.72	131.69	154.54	63.185	4.2101e-06	54.501	0.00040746	0.00038371	9.8245e-05	1211.6	4.5378e-06	4.1858e-06	959.58	441.6	4.5342e-06	4.1023e-06	360.53	133.24	156.89	64.49	3.6976e-06	55.472	-17.066	-30.867	19.197	-63.729	92.959	38.931	-65.217	-58.376	167.171	82.964	-60.921	-55.797	-53.385	-47.728	71.884	-51.380	-8191	255	
2600.530	1	1	0	0	0.2854	0.096039	0.12833	0.14514	0.21161	0.24666	0.25726	0.24833	0.06241	0.37416	0.027966	0.161	0.23374	0.089523	0.18613	0.31071	0.42917	-0.24792	-0.66667	0.17292	-0.50208	-0.19167	0.1375	-0.89375	0.2125	-0.2	-0.64167	0.29167	-0.59375	-0.46875	0.34792	-0.8125	217.881	218.263	279.413	236.153	-16.221	53.622	241.275	211.600	-6.727	151.344	256.614	-12.481	193.081	256.543	-10.941	276.877	0.00027716	0.00051325	0.00020937	1198.6	6.1264e-06	6.4758e-06	954.01	435.93	2.8904e-06	2.7235e-06	359.7	132.04	154.12	63.419	2.6849e-06	55.034	0.00042773	0.00036947	9.6257e-05	1210.6	4.5944e-06	4.0563e-06	961.28	441.66	4.5847e-06	3.9171e-06	361.98	134.06	156.61	64.594	3.6438e-06	56.029	-18.474	-40.361	-20.517	-63.611	65.496	37.241	-65.620	-58.858	210.755	37.437	-61.319	-56.275	-53.834	-48.334	104.968	-51.626	-8191	255	
2600.626	1	1	0	0	0.16914	0.15259	0.079391	0.32729	0.10427	0.23445	0.10712	0.27605	0.079224	0.17739	0.18933	0.16145	0.28449	0.13924	0.17824	0.17445	0.17292	-0.0375	-0.55	0.06875	-0.375	-0.14167	0.039583	-0.85625	-0.029167	-0.21042	-0.61667	0.31875	-0.575	-0.54167	0.23958	-0.66667	103.870	140.689	185.589	278.796	59.800	-26.615	230.939	192.825	123.611	-27.149	228.861	54.491	217.833	125.082	-76.180	73.097	0.00030573	0.00097267	0.00019664	1198	1.7791e-06	3.4313e-06	952.56	438.12	3.5221e-06	3.1842e-06	357.77	132.06	154.68	63.478	1.9181e-06	54.579	0.00041756	0.00035392	9.4494e-05	1211.8	4.4095e-06	3.8959e-06	961.93	443.12	4.4118e-06	3.8053e-06	361.45	134.33	156.79	64.536	3.6955e-06	55.674	-42.076	-14.641	1.405	-64.076	71.387	68.472	-65.808	-58.975	77.343	77.553	-61.409	-56.131	-53.636	-48.439	48.930	-51.650	-8191	255	
2600.722	1	1	0	0	0.092173	0.073972	0.17415	0.096574	0.084392	0.15168	0.075909	0.34659	0.092835	0.1521	0.31563	0.13574	0.1125	0.23215	0.24059	0.24503	0.39167	0.0125	-0.64792	0.31875	-0.27292	-0.53958	0.23333	-0.6875	-0.18333	0.15208	-0.85625	0.20208	-0.16667	-0.63125	0.29792	-0.6625	-63.523	183.276	6.291	201.797	5.420	249.902	168.581	278.239	136.966	162.529	-62.035	190.621	51.999	-55.097	246.180	235.924	0.00037006	0.0010308	0.00014542	1196.2	7.2531e-06	5.2343e-06	951.76	438.14	5.0653e-06	4.1234e-06	357.14	132.58	154.55	63.435	2.9384e-06	54.661	0.00039597	0.00034086	9.7237e-05	1211.4	4.1579e-06	3.8238e-06	960.02	442.96	4.1777e-06	3.6731e-06	361.67	134.39	156.49	64.428	4.0531e-06	55.72	-31.391	-20.442	21.043	-64.040	21.153	50.689	-66.013	-58.646	102.288	78.303	-61.465	-55.890	-53.768	-48.190	16.233	-51.513	-8191	255	
2600.818	1	1	0	0	0.19117	0.18847	0.14087	0.20339	0.19892	0.36234	0.12428	0.3062	0.09272	0.19097	0.1803	0.30082	0.10996	0.2562	0.12791	0.074594	0.14583	0.095833	-0.52708	-0.18542	0.16458	-0.4875	-0.010417	-0.70833	-0.21875	0.13333	-0.65	-0.18958	-0.28125	-0.89375	0.20625	-0.48958	275.356	89.547	281.141	165.880	259.863	-12.843	161.962	-35.233	199.058	258.238	-37.346	262.831	-24.818	85.990	140.949	236.726	0.00028013	0.00062923	0.00016469	1200.1	4.9731e-06	8.8316e-06	950.79	438.57	5.5787e-06	6.2966e-06	356.33	131.39	154.08	63.561	1.3673e-06	54.784	0.00038337	0.00033542	0.00010649	1214.6	3.9961e-06	3.7611e-06	963.89	443.62	4.1102e-06	3.6194e-06	361.93	133.9	156.51	64.539	4.4825e-06	55.681	-26.318	-15.788	26.739	-64.039	34.433	62.938	-65.816	-58.791	132.595	83.753	-61.141	-55.945	-53.552	-48.223	119.133	-51.387	-8191	255	
2600.915	1	1	0	0	0.13614	0.10197	0.13557	0.097866	0.23114	0.10728	0.1463	0.39495	0.1031	0.19467	0.20856	0.18841	0.25156	0.27535	0.057289	0.057066	-0.23125	0.33333	-0.60208	-0.2625	-0.0125	-0.57292	0.21875	-0.54375	-0.32917	0.29167	-0.575	-0.26458	-0.025	-0.86042	0.24792	-0.46042	-30.297	89.203	125.700	-69.695	109.052	73.781	182.529	216.501	169.077	228.594	101.258	-49.436	220.981	282.157	93.440	-32.828	0.00047748	0.00011861	9.8304e-05	1199.2	4.4362e-06	5.7691e-06	953.97	438.31	7.4243e-06	3.7758e-06	359.08	132.3	154.87	63.258	1.4132e-06	54.871	0.00037564	0.00034226	0.0001176	1216.8	3.8826e-06	3.9032e-06	966.81	443.68	3.9918e-06	3.8016e-06	364.02	134.21	156.96	64.47	4.7161e-06	55.704	-23.348	29.926	-28.442	-64.000	64.485	38.769	-65.934	-58.746	113.303	77.371	-61.153	-56.058	-53.697	-48.059	62.026	-51.539	-8191	255	
2601.035	1	1	0	0	0.30357	0.10956	0.099484	0.46778	0.13792	0.015153	0.15033	0.036807	0.039223	0.12548	0.20745	0.35452	0.06077	0.15513	0.31848	0.12059	-0.37292	0.31458	-0.51458	-0.17292	0.34167	-0.71875	0.17917	-0.33542	-0.54167	0.42917	-0.69583	-0.33958	0.09375	-0.71042	0.13125	-0.11875	10.035	249.392	146.366	250.867	-10.707	3.446	169.549	260.513	120.139	3.154	57.123	269.762	142.731	223.770	103.140	-72.023	0.00035166	0.00088238	0.00014265	1204.6	4.0648e-06	6.6975e-06	961.24	437.82	3.6062e-06	3.391e-06	356.47	131.25	154.66	63.212	6.0977e-06	54.721	0.00037061	0.00036573	0.00011831	1216.9	3.7839e-06	4.1534e-06	969.47	442.66	3.9487e-06	4.1949e-06	363.48	133.82	156.52	64.458	4.7558e-06	55.519	-31.836	54.727	-0.510	-64.084	35.868	72.149	-65.823	-58.750	-7.237	129.199	-61.318	-56.013	-53.951	-48.268	35.988	-51.560	-8191	255	
2601.131	1	1	0	0	0.063242	0.19171	0.039043	0.26088	0.09856	0.16025	0.091634	0.20979	0.065162	0.45602	0.35254	0.14432	0.13387	0.12274	0.18978	0.062722	-0.089583	0.27292	-0.3625	-0.425	-0.027083	-0.65	-0.075	-0.23542	-0.63125	0.17708	-0.53125	-0.51042	0.19167	-0.71667	-0.097917	0.1	203.392	-48.758	231.641	165.638	-67.348	32.746	16.667	-52.699	110.347	148.045	-55.414	-18.739	227.207	80.714	-15.745	-66.787	0.00030898	0.00041314	0.0002096	1200.5	2.3217e-06	3.7028e-07	947.94	435.47	6.984e-06	1.3005e-06	358.1	131.81	154.02	63.211	6.7356e-06	54.405	0.00036813	0.00040243	0.00011885	1214.3	3.785e-06	4.556e-06	965.02	441.04	3.9749e-06	4.6065e-06	362.65	133.37	156.19	64.532	4.5766e-06	55.299	-21.063	-1.793	-15.838	-64.084	-38.671	126.183	-65.763	-58.680	73.714	88.586	-61.411	-56.179	-53.703	-48.114	51.009	-51.560	-8191	255	
2601.227	1	1	0	0	0.14502	0.16701	0.22033	0.13519	0.12779	0.22256	0.25137	0.17854	0.2859	0.25715	0.075347	0.16575	0.23842	0.28959	0.23463	0.24531	-0.32292	0.35208	-0.28333	-0.57917	0.26458	-0.67083	-0.2375	-0.045833	-0.50625	-0.1375	-0.5625	-0.77708	0.0875	-0.49583	-0.28125	-0.016667	153.794	-50.774	260.500	242.574	253.740	282.207	223.436	-61.919	134.590	212.478	264.202	123.132	247.443	-64.136	81.800	-42.972	0.00043168	0.00081161	0.00013728	1201.1	4.9931e-06	6.4347e-06	954.65	437.99	3.1809e-06	5.2802e-06	358.68	131.85	154.46	63.54	4.1917e-06	55.064	0.00036855	0.00043356	0.00011324	1214.1	3.9396e-06	4.7798e-06	965.3	442	4.1043e-06	4.8268e-06	363.27	133.89	156.76	65.001	4.261e-06	55.906	-31.136	-24.006	-17.348	-64.130	31.899	86.745	-65.739	-58.836	19.708	37.965	-61.317	-56.320	-53.529	-48.073	63.652	-51.585	-8191	255	
2601.324	1	1	0	0	0.092582	0.13819	0.13806	0.32143	0.22054	0.24925	0.11779	0.30719	0.078074	0.087417	0.085587	0.10242	0.028266	0.18335	0.19666	0.23313	-0.325	0.08125	-0.19375	-0.83125	0.33125	-0.55625	-0.475	0.2	-0.79167	-0.025	-0.40417	-0.72917	0.072917	-0.72292	-0.46458	0.125	121.434	70.300	230.133	238.993	-72.225	262.456	265.475	212.071	131.133	-18.888	-41.513	63.390	247.475	270.307	39.375	227.573	0.00049263	0.00067822	0.00016083	1199	1.9537e-06	6.1564e-06	957.42	439.12	1.4289e-06	7.2923e-06	360.85	133.31	155.68	63.83	4.2042e-06	55.4	0.00038916	0.000436	0.00010408	1212.1	4.1187e-06	4.6237e-06	967.79	442.86	4.3026e-06	4.6654e-06	365.12	135.07	157.9	65.107	4.1354e-06	56.057	-20.577	-9.529	-30.310	-64.033	64.589	40.832	-65.770	-58.596	-57.405	46.594	-61.012	-55.787	-53.574	-47.747	54.391	-51.229	-8191	255	
2601.420	1	1	0	0	0.1742	0.18113	0.24075	0.18071	0.13607	0.18427	0.22223	0.24028	0.11701	0.15925	0.052322	0.19893	0.4121	0.17701	0.13347	0.3079	-0.00625	-0.054167	-0.16667	-0.75625	0.1	-0.39583	-0.64167	0.060417	-0.35625	-0.064583	0.029167	-0.75417	0.064583	-0.49167	-0.50625	0.19792	128.508	118.680	150.283	238.287	65.825	-59.020	-71.880	266.396	216.393	-36.133	-51.819	157.719	259.181	-13.731	198.929	161.161	0.00044164	0.00073062	9.3042e-05	1201.7	1.2235e-06	1.034e-05	957.88	439.52	2.3248e-06	5.6284e-06	362.02	132.99	156.16	63.906	9.0285e-06	55.219	0.00042128	0.0004269	0.00010221	1215.4	4.6034e-06	4.5665e-06	969.8	443.99	4.655e-06	4.5205e-06	365.48	135.02	157.99	65.109	4.0868e-06	56.04	-43.401	-19.474	21.950	-63.722	74.351	41.402	-65.361	-58.554	182.678	65.421	-61.007	-55.835	-53.337	-47.722	76.229	-51.663	-8191	255	
2601.516	1	1	0	0	0.15972	0.16109	0.016768	0.092427	0.25295	0.26415	0.033798	0.26595	0.048169	0.30239	0.20784	0.12933	0.43251	0.038349	0.10741	0.49231	-0.30833	0.054167	-0.00625	-0.7125	0.30833	-0.12917	-0.72917	0.40417	-0.70417	-0.15625	0.18542	-0.96875	0.070833	-0.49375	-0.61458	0.091667	-67.119	113.702	38.201	66.886	-40.074	66.492	200.534	210.394	227.942	169.735	219.554	257.544	270.161	-13.509	90.588	259.033	0.00055242	0.00077017	0.00022738	1204.2	5.9017e-06	8.1774e-06	956.36	438.62	8.7479e-06	9.412e-06	360.74	132.43	155.25	63.538	6.1161e-06	54.956	0.0004445	0.00040114	9.8805e-05	1216.4	4.7606e-06	4.1977e-06	966.84	443.61	4.7521e-06	4.2134e-06	363.25	134.53	157.65	64.731	3.8896e-06	55.816	-29.419	-53.812	-14.178	-63.745	99.442	63.071	-65.572	-58.698	119.485	62.736	-61.123	-55.952	-53.335	-48.083	73.948	-51.211	-8191	255	
2601.635	1	1	0	0	0.1741	0.22376	0.10687	0.30317	0.19721	0.23269	0.40098	0.44607	0.18331	0.098219	0.28359	0.095045	0.051809	0.40477	0.058526	0.05008	-0.27708	-0.15	0.18333	-0.82708	0.24792	-0.072917	-0.96458	0.00625	-0.55208	-0.37292	0.13958	-0.86458	-0.039583	-0.22292	-0.54583	0.20208	44.901	221.402	242.308	253.309	96.941	274.466	204.087	253.720	129.266	-57.810	268.926	199.104	162.766	-50.982	225.558	-33.603	0.00046959	0.00042263	0.00013437	1204.4	5.7391e-06	5.9225e-06	955.12	437.74	6.3425e-06	6.0972e-06	358.32	132.38	154.75	63.369	5.3796e-06	54.641	0.00043721	0.00038382	9.6323e-05	1218.8	4.8052e-06	4.1416e-06	965.77	442.67	4.6872e-06	4.1565e-06	362.15	134.24	156.82	64.515	3.941e-06	55.785	-28.529	-61.127	-5.434	-63.616	46.556	42.195	-65.419	-58.324	61.571	55.022	-60.893	-55.705	-53.322	-47.711	123.448	-51.403	-8191	255	
2601.731	1	1	0	0	0.23596	0.078401	0.084479	0.11886	0.084562	0.11319	0.022385	0.081345	0.13144	0.16079	0.28319	0.18712	0.23796	0.22321	0.27152	0.27454	-0.1625	-0.55833	0.38542	-0.76667	0.027083	0.022917	-0.62083	0.3	-0.3875	-0.375	0.12917	-0.75417	0.060417	-0.12708	-0.61667	0.11667	-57.060	131.750	214.553	-51.054	38.386	-7.075	214.220	160.673	218.667	-47.830	253.175	-69.920	257.151	186.055	-59.222	215.960	0.00034402	0.0008517	0.00016826	1202.2	5.0921e-06	4.0318e-06	958.2	439.58	8.0664e-06	7.268e-06	362.33	133.67	155.16	63.824	4.1171e-06	55.476	0.00042708	0.00037604	9.7123e-05	1220.5	4.5592e-06	4.0089e-06	969.93	445.18	4.4697e-06	4.0812e-06	365.83	135.91	157.52	64.943	4.1835e-06	56.533	-25.496	-34.451	-14.655	-63.573	49.162	72.112	-65.402	-58.408	71.658	52.245	-61.030	-55.112	-52.922	-47.269	78.404	-50.763	-8191	255	
2601.827	1	1	0	0	0.14675	0.23002	0.19703	0.36476	0.24382	0.10927	0.44153	0.29574	0.16098	0.14505	0.19532	0.26203	0.13134	0.15417	0.041655	0.12491	0.18333	-0.57292	0.55208	-0.77708	-0.2125	-0.041667	-0.75833	-0.15417	0.0125	-0.86042	0.12917	-0.66042	-0.42917	0.20833	-0.89583	-0.0041667	238.774	-53.952	102.262	205.775	-10.249	28.480	194.401	135.178	-19.575	82.166	108.457	190.306	-20.787	212.107	-3.375	14.735	0.00035059	0.00061057	0.00012818	1207.3	3.7764e-06	7.8337e-06	958.89	439.49	2.8233e-06	2.0892e-06	363.47	134.21	155.22	63.832	8.5297e-07	55.644	0.00039956	0.00037	0.00010419	1222.9	4.3577e-06	3.8269e-06	972.86	445.83	4.1846e-06	3.9616e-06	367.79	136.74	157.72	65.02	4.4502e-06	56.625	-37.392	-38.974	-6.308	-63.439	54.001	38.318	-65.176	-58.339	26.424	71.795	-60.878	-55.578	-53.521	-47.773	224.859	-51.438	-8191	255	
2601.923	1	1	0	0	0.31491	0.21352	0.080457	0.23312	0.32223	0.11925	0.060225	0.14761	0.19516	0.29789	0.22827	0.28407	0.40441	0.32671	0.11597	0.039421	0.2125	-0.39583	0.14583	-0.81458	-0.35625	0.175	-0.81875	-0.17083	0.016667	-0.58542	-0.11458	-0.25	-0.64583	0.022917	-0.3625	-0.18125	251.368	167.028	109.526	247.488	242.573	67.429	26.517	212.132	4.010	-8.076	166.009	220.944	-74.072	-70.004	137.743	92.759	0.00040266	0.0010531	0.00012098	1209.3	1.9663e-06	6.1095e-06	963.46	438.58	5.162e-06	3.0447e-06	360.81	131.63	153.99	62.857	2.3615e-06	53.511	0.00038685	0.00036029	0.000114	1223.6	4.2144e-06	3.8044e-06	973.93	444.47	4.1279e-06	3.9906e-06	364.97	134.23	156.01	63.828	4.8167e-06	54.735	-23.784	8.518	24.255	-63.653	96.146	68.061	-65.421	-58.424	23.369	36.568	-60.878	-55.491	-53.212	-47.545	117.655	-51.282	-8191	255	
2602.019	1	1	0	0	0.21011	0.2337	0.1473	0.25057	0.24161	0.33879	0.22714	0.13752	0.14346	0.043286	0.20767	0.23903	0.33386	0.25232	0.34617	0.067405	0.46875	-0.66458	-0.05	-0.41667	-0.525	0.25625	-0.75208	-0.33333	0.035417	-0.87292	0.1375	-0.085417	-0.92917	-0.058333	-0.43333	-0.33333	-47.157	-9.870	-0.076	237.351	20.030	-11.969	246.440	185.162	138.536	132.777	212.704	229.619	-19.926	224.391	9.835	-3.174	0.00046456	0.00055023	0.00017572	1209.6	6.0646e-06	3.5404e-06	957.94	438.06	3.0501e-06	2.6644e-06	353.21	130.32	152.38	62.19	5.3869e-06	53.254	0.0003797	0.00037365	0.00012278	1222	4.2801e-06	4.0734e-06	967.99	442.54	4.0569e-06	4.2754e-06	361.36	132.39	154.88	63.339	5.088e-06	54.277	-32.608	5.583	46.438	-63.641	33.946	83.296	-65.100	-58.459	27.340	59.997	-60.837	-55.380	-53.141	-47.374	117.909	-50.782	-8191	255	
#DATA ENDS
