BOXY.EXE: ISS Imagent and Oximeter Data Acquisition Program Version 0.80
Ascii Record File

#ACQ INFORMATION
2  Detector Channels 
16  External MUX Channels 
1  Auxiliary Channels 
5000  Waveform (CCF) Frequency (Hz)
1  Waveforms Skipped 
30  Waveforms Averaged 
1  Cycles Averaged 
16  Acquisitions per Waveform 
10.0806  Updata Rate (Hz) 

#FILE INFORMATION
TRUE -- External MUX Channel results are PARSED.
FALSE -- AC DC and Phase are NOT grouped.
TRUE -- Companion Program Settings File CREATED.
FALSE -- AC data not excluded
FALSE -- DC data not excluded
FALSE -- Phase data not excluded
FALSE -- Auxillary Chn. data not excluded
Tab delimiters

#CALIBRATION STATE
TRUE -- Waveform Calibration Values APPLIED.


#AUX CALIBRATION VALUES
Val Type	aux-1	

Term	1.0000e+00	
Factor	0.0000e+00	


#WF CALIBRATION VALUES
A = Detector Channel
Val Type	A-AC1	A-AC2	A-AC3	A-AC4	A-AC5	A-AC6	A-AC7	A-AC8	A-AC9	A-AC10	A-AC11	A-AC12	A-AC13	A-AC14	A-AC15	A-AC16	A-DC1	A-DC2	A-DC3	A-DC4	A-DC5	A-DC6	A-DC7	A-DC8	A-DC9	A-DC10	A-DC11	A-DC12	A-DC13	A-DC14	A-DC15	A-DC16	A-Ph1	A-Ph2	A-Ph3	A-Ph4	A-Ph5	A-Ph6	A-Ph7	A-Ph8	A-Ph9	A-Ph10	A-Ph11	A-Ph12	A-Ph13	A-Ph14	A-Ph15	A-Ph16	

Term	0.00000e+00	0.00000e+00	0.00000e+00	0.00000e+00	0.00000e+00	0.00000e+00	0.00000e+00	0.00000e+00	0.00000e+00	0.00000e+00	0.00000e+00	0.00000e+00	0.00000e+00	0.00000e+00	0.00000e+00	0.00000e+00	0.00000e+00	0.00000e+00	0.00000e+00	0.00000e+00	0.00000e+00	0.00000e+00	0.00000e+00	0.00000e+00	0.00000e+00	0.00000e+00	0.00000e+00	0.00000e+00	0.00000e+00	0.00000e+00	0.00000e+00	0.00000e+00	0.00000e+00	0.00000e+00	0.00000e+00	0.00000e+00	0.00000e+00	0.00000e+00	0.00000e+00	0.00000e+00	0.00000e+00	0.00000e+00	0.00000e+00	0.00000e+00	0.00000e+00	0.00000e+00	0.00000e+00	0.00000e+00	
Factor	1.00000e+00	1.00000e+00	1.00000e+00	1.00000e+00	1.00000e+00	1.00000e+00	1.00000e+00	1.00000e+00	1.00000e+00	1.00000e+00	1.00000e+00	1.00000e+00	1.00000e+00	1.00000e+00	1.00000e+00	1.00000e+00	1.00000e+00	1.00000e+00	1.00000e+00	1.00000e+00	1.00000e+00	1.00000e+00	1.00000e+00	1.00000e+00	1.00000e+00	1.00000e+00	1.00000e+00	1.00000e+00	1.00000e+00	1.00000e+00	1.00000e+00	1.00000e+00	X	X	X	X	X	X	X	X	X	X	X	X	X	X	X	X	

B = Detector Channel
Val Type	B-AC1	B-AC2	B-AC3	B-AC4	B-AC5	B-AC6	B-AC7	B-AC8	B-AC9	B-AC10	B-AC11	B-AC12	B-AC13	B-AC14	B-AC15	B-AC16	B-DC1	B-DC2	B-DC3	B-DC4	B-DC5	B-DC6	B-DC7	B-DC8	B-DC9	B-DC10	B-DC11	B-DC12	B-DC13	B-DC14	B-DC15	B-DC16	B-Ph1	B-Ph2	B-Ph3	B-Ph4	B-Ph5	B-Ph6	B-Ph7	B-Ph8	B-Ph9	B-Ph10	B-Ph11	B-Ph12	B-Ph13	B-Ph14	B-Ph15	B-Ph16	

Term	0.00000e+00	0.00000e+00	0.00000e+00	0.00000e+00	0.00000e+00	0.00000e+00	0.00000e+00	0.00000e+00	0.00000e+00	0.00000e+00	0.00000e+00	0.00000e+00	0.00000e+00	0.00000e+00	0.00000e+00	0.00000e+00	0.00000e+00	0.00000e+00	0.00000e+00	0.00000e+00	0.00000e+00	0.00000e+00	0.00000e+00	0.00000e+00	0.00000e+00	0.00000e+00	0.00000e+00	0.00000e+00	0.00000e+00	0.00000e+00	0.00000e+00	0.00000e+00	-2.84052e+01	-1.28238e+02	-1.23055e+02	-1.81347e+02	-4.90151e+01	-6.44906e+01	-1.58583e+02	-1.62015e+02	-3.30316e+01	-6.71694e+01	-1.70474e+02	-1.69975e+02	-1.81443e+02	-1.76799e+02	-5.34590e+01	-1.49645e+02	
Factor	2.60320e-05	1.63302e-04	4.34181e-05	1.49363e-01	1.92631e-06	1.64092e-06	1.64229e-01	5.54761e-02	1.53204e-06	1.58752e-06	8.65546e-02	3.10973e-02	2.68888e-02	9.37520e-03	1.83265e-06	1.32400e-02	1.49363e-05	2.69560e-05	7.46987e-06	7.68193e-02	2.59114e-07	3.03878e-07	7.93361e-02	2.86037e-02	2.60344e-07	3.00301e-07	4.33358e-02	1.55925e-02	1.39820e-02	4.88742e-03	2.77576e-07	6.67928e-03	X	X	X	X	X	X	X	X	X	X	X	X	X	X	X	X	



#DISTANCE SETTINGS
A = Detector Channel
A-1	A-2	A-3	A-4	A-5	A-6	A-7	A-8	A-9	A-10	A-11	A-12	A-13	A-14	A-15	A-16	

2.5000e+00	3.0000e+00	2.5000e+00	3.0000e+00	2.0000e+00	3.0000e+00	1.5000e+00	3.0000e+00	3.0000e+00	3.0000e+00	3.0000e+00	3.0000e+00	3.0000e+00	3.0000e+00	1.5000e+00	3.0000e+00	

B = Detector Channel
B-1	B-2	B-3	B-4	B-5	B-6	B-7	B-8	B-9	B-10	B-11	B-12	B-13	B-14	B-15	B-16	

1.0000e+01	1.0000e+01	1.0000e+01	1.4400e+00	1.0000e+01	1.0000e+01	1.5100e+00	1.9400e+00	1.0000e+01	1.0000e+01	1.9900e+00	2.4900e+00	2.4100e+00	2.9000e+00	1.0000e+01	2.9800e+00	




#DATA BEGINS
time	group	step	mark	flag	A-AC1	A-AC2	A-AC3	A-AC4	A-AC5	A-AC6	A-AC7	A-AC8	A-AC9	A-AC10	A-AC11	A-AC12	A-AC13	A-AC14	A-AC15	A-AC16	A-DC1	A-DC2	A-DC3	A-DC4	A-DC5	A-DC6	A-DC7	A-DC8	A-DC9	A-DC10	A-DC11	A-DC12	A-DC13	A-DC14	A-DC15	A-DC16	A-Ph1	A-Ph2	A-Ph3	A-Ph4	A-Ph5	A-Ph6	A-Ph7	A-Ph8	A-Ph9	A-Ph10	A-Ph11	A-Ph12	A-Ph13	A-Ph14	A-Ph15	A-Ph16	B-AC1	B-AC2	B-AC3	B-AC4	B-AC5	B-AC6	B-AC7	B-AC8	B-AC9	B-AC10	B-AC11	B-AC12	B-AC13	B-AC14	B-AC15	B-AC16	B-DC1	B-DC2	B-DC3	B-DC4	B-DC5	B-DC6	B-DC7	B-DC8	B-DC9	B-DC10	B-DC11	B-DC12	B-DC13	B-DC14	B-DC15	B-DC16	B-Ph1	B-Ph2	B-Ph3	B-Ph4	B-Ph5	B-Ph6	B-Ph7	B-Ph8	B-Ph9	B-Ph10	B-Ph11	B-Ph12	B-Ph13	B-Ph14	B-Ph15	B-Ph16	aux-1	digaux	

38952.559	1	1	0	256	0.080895	0.1951	0.24978	0.026632	0.10062	0.17092	0.047278	0.11022	0.20033	0.17639	0.22418	0.17469	0.59504	0.30772	0.13233	0.16172	-2.2875	-2.7083	-2.1375	-3.1771	-2.3563	-2.4458	-3.2021	-2.3792	-2.7792	-2.8812	-2.0875	-3.3604	-2.35	-2.4188	-2.9708	-2.4562	21.984	121.351	-55.386	-72.115	219.614	122.809	-71.558	249.077	-80.101	178.854	254.876	185.824	269.877	255.182	25.646	263.514	0.00029516	0.00088354	0.00014416	869.76	7.1933e-06	7.5124e-06	769.21	378.25	5.8268e-06	4.8431e-06	346.08	145.95	162.27	70.862	8.1475e-06	67.1	0.0028323	0.004674	0.001302	895.18	4.5972e-05	5.3522e-05	791.1	389.89	4.695e-05	5.1884e-05	358.59	151.49	168.86	74.065	4.8176e-05	69.76	-75.099	-22.925	10.259	-71.651	94.293	71.951	-73.026	-66.858	121.321	47.121	-69.609	-65.462	-62.834	-58.377	44.543	-61.849	-8191	255	
38952.656	1	1	0	0	0.1409	0.14203	0.14215	0.32005	0.21561	0.13823	0.048571	0.26239	0.39112	0.25481	0.078518	0.23773	0.27671	0.17654	0.26134	0.15483	-2.3625	-2.9188	-2.0146	-3.0687	-2.4604	-2.3271	-3.15	-2.2021	-2.6479	-2.9813	-2.1813	-2.9625	-2.5375	-2.3021	-3.0479	-2.5729	237.584	45.877	54.064	248.968	149.177	162.899	24.377	248.639	208.796	68.495	131.977	234.132	210.626	233.496	-23.444	-63.366	0.00033781	0.00062936	0.00017137	862.5	3.6577e-06	5.7086e-06	769.37	373.76	2.7265e-06	3.8474e-06	346.61	145.73	162.12	70.934	1.6802e-06	67.164	0.0027787	0.0045543	0.0012624	887.08	4.4023e-05	5.0765e-05	788.16	386.75	4.4302e-05	5.035e-05	359.33	151.51	168.45	74.064	4.7088e-05	69.971	-69.784	-9.018	-10.365	-71.659	74.179	79.911	-73.122	-66.921	120.165	60.024	-69.623	-65.513	-62.763	-58.449	53.904	-61.565	-8191	255	
38952.754	1	1	0	0	0.18495	0.16734	0.19019	0.12844	0.21053	0.085704	0.091442	0.10228	0.11567	0.43611	0.22423	0.21199	0.16532	0.46048	0.067036	0.045583	-2.1458	-2.6667	-2.075	-2.8875	-2.5812	-2.3063	-2.9771	-2.5521	-2.3042	-3.0708	-2.0271	-2.6125	-2.6562	-2.2625	-3.0271	-2.3125	-62.589	25.442	234.499	141.489	-49.386	208.792	121.483	-70.281	179.469	-76.691	141.062	202.568	213.223	187.332	102.859	-65.791	0.00033274	0.00078171	0.00020683	867.45	8.7791e-06	8.7888e-06	768.69	377.48	3.201e-06	5.4503e-06	347.68	147.15	163.01	71.843	4.6571e-06	68.096	0.0027326	0.0046581	0.001278	889.45	4.423e-05	5.1698e-05	790.7	388.55	4.4222e-05	5.0696e-05	360.77	152.97	169.79	75.007	4.8296e-05	70.86	-77.105	1.307	7.806	-71.774	46.995	55.620	-72.980	-66.765	97.871	58.554	-69.358	-65.438	-62.699	-58.465	71.828	-61.729	-8191	255	
38952.848	1	1	0	0	0.10032	0.080648	0.10859	0.22576	0.15944	0.10512	0.18554	0.091426	0.2289	0.36318	0.018387	0.11787	0.14147	0.27055	0.15762	0.097614	-1.8479	-3.0042	-2.1375	-2.7958	-2.6937	-2.0104	-3.0792	-2.4958	-2.3375	-3.0104	-2.3	-2.7271	-3.0021	-2.2333	-2.9542	-2.6437	234.188	-7.072	235.813	-39.567	11.271	221.680	-47.758	190.896	30.227	1.049	179.474	-52.135	-65.730	229.999	3.434	178.900	0.00031791	0.00067939	0.00014655	866.56	3.7825e-06	1.6606e-06	772.69	377.78	4.5833e-06	6.0606e-06	346.81	146.6	164.36	72.229	6.4236e-06	67.899	0.0028257	0.0046538	0.001294	891.11	4.4946e-05	5.2117e-05	794.15	390.17	4.5288e-05	5.1582e-05	360.62	152.66	170.61	75.199	4.7983e-05	70.601	-68.001	5.027	5.703	-71.866	101.691	-33.235	-72.892	-67.013	70.568	80.735	-69.647	-65.384	-62.687	-58.483	44.806	-61.756	-8191	255	
38952.945	1	1	0	0	0.14452	0.16056	0.079798	0.058552	0.14811	0.1696	0.072837	0.48437	0.11236	0.11647	0.20048	0.068477	0.078954	0.28558	0.057203	0.23133	-1.8646	-3.0187	-2.3375	-2.5625	-2.7104	-1.925	-3.0729	-2.7812	-2.0417	-2.9646	-2.2938	-2.6562	-3.0563	-2.2646	-2.7833	-2.7188	159.064	98.694	274.195	187.905	167.370	-64.960	189.592	203.551	181.467	-42.490	185.115	58.136	2.684	204.672	-42.253	231.211	0.0003013	0.0008967	0.0001215	866.8	2.2319e-06	4.5038e-06	773.78	375.79	6.0562e-06	4.3892e-06	345.6	144.92	162.18	71.293	3.7124e-06	66.785	0.0028017	0.004555	0.0012671	891.06	4.3874e-05	5.2309e-05	791.47	388.22	4.554e-05	5.1305e-05	358.63	151.21	168.66	74.264	4.878e-05	69.773	-59.493	-18.643	-6.110	-71.689	83.804	68.470	-73.088	-66.787	89.316	72.861	-69.647	-65.517	-62.655	-58.327	48.622	-61.478	-8191	255	
38953.039	1	1	0	0	0.14691	0.21614	0.063296	0.33597	0.17109	0.039755	0.17697	0.31615	0.21533	0.37376	0.10134	0.33265	0.031243	0.046926	0.31775	0.12138	-1.8708	-2.9396	-2.3354	-2.4562	-3.0354	-2.0187	-2.9271	-2.8958	-2.1917	-3.1562	-2.4958	-2.4396	-3.05	-2.1604	-2.7375	-2.7167	9.584	34.430	100.853	188.487	202.756	200.414	236.365	194.179	129.639	252.375	19.489	248.975	137.211	139.910	205.544	163.372	0.00032209	0.00057588	0.0001991	859.12	8.798e-06	6.5734e-06	765.13	373.97	5.4688e-06	9.7715e-06	343.39	144.73	161.36	70.644	6.8946e-06	66.959	0.0028564	0.0047584	0.001324	886.16	4.5778e-05	5.384e-05	788.82	385.5	4.6672e-05	5.2717e-05	356.82	150.48	168.16	73.938	4.9905e-05	69.648	-65.749	25.799	-33.031	-71.886	88.780	91.770	-73.141	-66.857	158.955	61.803	-69.306	-65.400	-62.549	-58.387	98.642	-61.855	-8191	255	
38953.160	1	1	0	0	0.019642	0.15928	0.064723	0.33096	0.1571	0.086467	0.19768	0.15753	0.24066	0.30325	0.12678	0.33713	0.15083	0.18588	0.067569	0.22468	-1.8937	-2.8812	-2.425	-2.3854	-3.0667	-2.3063	-2.8417	-2.9375	-2.1083	-2.9688	-2.4562	-2.4396	-3.225	-2.3625	-2.6583	-3.0062	228.602	242.987	-14.986	266.204	-6.524	172.379	221.897	203.055	194.974	258.193	189.809	150.615	156.060	233.979	109.772	187.155	0.00026534	0.00059832	0.00017401	867.49	7.4243e-06	9.0409e-06	766.48	376.49	7.4369e-06	7.8496e-06	344.91	145.29	162.86	71.138	4.5122e-06	66.815	0.0028665	0.0048044	0.0013379	892.69	4.64e-05	5.4211e-05	789.45	387.82	4.6962e-05	5.4329e-05	357.76	150.98	169.46	74.16	5.2102e-05	69.603	-70.478	9.505	8.835	-71.655	90.296	56.807	-73.106	-66.833	76.884	95.964	-69.480	-65.442	-62.692	-58.232	133.736	-61.769	-8191	255	
38953.258	1	1	0	0	0.18436	0.017015	0.05975	0.076021	0.31896	0.14292	0.37155	0.33714	0.11749	0.057123	0.20919	0.093094	0.14245	0.29452	0.22167	0.18194	-1.4146	-2.8875	-2.3771	-2.2833	-2.9208	-2.225	-2.6792	-3.1562	-2.1562	-2.7167	-2.7229	-2.0583	-3.0625	-2.4625	-2.6792	-3.0708	76.815	211.626	180.534	-84.254	-46.813	190.027	212.391	239.197	121.749	5.699	-21.589	230.256	226.425	212.596	125.176	254.165	0.00038637	0.00082977	0.00018125	873.41	4.002e-06	9.32e-06	767.96	374.35	6.2267e-06	5.1856e-06	341.08	142.63	161.05	70.052	2.4395e-06	65.479	0.0030502	0.0050528	0.0014134	897.81	4.9278e-05	5.8455e-05	791.88	387.21	5.0515e-05	5.7969e-05	354.62	148.95	168.21	73.225	5.4963e-05	68.405	-74.020	16.410	3.850	-71.465	60.704	53.677	-72.848	-66.781	138.042	23.951	-69.495	-65.371	-62.670	-58.175	88.248	-61.514	-8191	255	
38953.352	1	1	0	0	0.28261	0.19337	0.11596	0.24382	0.050113	0.12128	0.1404	0.13472	0.22283	0.1968	0.085179	0.36748	0.26261	0.18897	0.048693	0.20522	-1.6833	-2.7583	-2.5812	-2.3333	-2.8688	-2.2708	-2.2833	-3.0229	-2.1437	-2.7167	-2.8	-2.3042	-3.2458	-2.3104	-2.2229	-3.2125	-81.970	95.698	44.721	265.932	47.257	193.918	-48.117	236.778	242.669	40.630	152.947	246.018	254.777	-66.540	-75.728	166.296	0.00030469	0.00039634	0.00028574	866.03	5.2825e-06	6.1218e-06	763.91	370.67	5.6286e-06	6.2043e-06	337.09	139.63	158.26	68.767	5.7098e-06	64.61	0.0032447	0.0054215	0.0015137	895.11	5.3353e-05	6.2691e-05	788.02	383.46	5.4386e-05	6.1613e-05	349.83	145.66	165.25	71.78	5.8066e-05	67.544	-77.705	23.662	10.764	-71.480	77.840	95.068	-73.088	-66.775	62.413	96.109	-69.362	-65.250	-62.449	-58.207	44.542	-61.712	-8191	255	
38953.449	1	1	0	0	0.13413	0.14532	0.02279	0.18396	0.094275	0.089801	0.19437	0.16108	0.11476	0.13972	0.18455	0.11427	0.066636	0.53938	0.15812	0.2894	-1.8729	-2.6063	-2.7271	-2.2042	-3.1063	-2.5104	-2.4521	-3.1854	-2.0646	-2.5812	-3.0396	-2.25	-3.0042	-2.6917	-2.1604	-3.2	263.447	251.025	-21.673	222.822	-35.652	239.556	219.899	232.544	-19.182	23.680	121.923	-3.032	201.998	-77.980	107.051	68.350	0.0003213	0.0010402	0.00021864	867.19	1.4358e-06	7.2001e-06	760.99	368.47	2.0225e-06	2.2758e-06	336.89	140.49	159.34	68.996	2.3584e-06	65.799	0.0033397	0.0056654	0.0015449	895.09	5.3836e-05	6.2504e-05	784.93	381.76	5.3662e-05	6.125e-05	349.87	146.23	165.88	72.14	5.515e-05	68.548	-76.739	18.349	10.584	-71.559	95.842	57.261	-72.945	-66.651	18.374	129.957	-69.429	-65.463	-62.260	-58.267	122.235	-61.587	-8191	255	
38953.543	1	1	0	0	0.20679	0.20494	0.024123	0.18515	0.10122	0.19233	0.084488	0.14533	0.14492	0.013517	0.12259	0.20388	0.19272	0.21672	0.29152	0.18338	-1.7583	-2.45	-2.7417	-2.1042	-2.8417	-2.75	-2.2167	-3.2125	-2.1063	-2.4208	-3.0354	-2.1604	-2.9417	-2.9333	-2.0354	-3.125	115.603	-62.903	95.052	-79.641	256.016	108.135	153.381	244.548	-79.797	-69.603	109.991	267.750	267.244	163.763	10.766	151.208	0.00031524	0.00080506	0.00014847	873.06	8.7925e-06	2.6117e-06	767.46	373.98	3.0896e-06	6.0622e-06	341.96	143.26	162.34	70.304	5.7508e-06	66.517	0.0031607	0.0052343	0.0014369	900.11	5.0478e-05	5.7616e-05	791.11	386.63	5.0424e-05	5.6836e-05	355.41	149.23	168.72	73.378	5.3023e-05	69.313	-76.227	-39.013	-8.238	-71.514	91.709	31.595	-72.932	-66.573	101.778	58.196	-69.423	-65.413	-62.503	-58.395	122.733	-61.641	-8191	255	
38953.641	1	1	0	0	0.27597	0.17256	0.076919	0.089179	0.17069	0.20995	0.1871	0.22522	0.062734	0.15358	0.20776	0.20048	0.16931	0.24414	0.20403	0.093282	-2.3396	-2.3542	-2.8146	-2.2292	-2.7958	-2.7042	-2.1	-3.0625	-2.3375	-2.3812	-3.0667	-2.1208	-2.525	-2.975	-2.0542	-3.1063	271.302	176.019	199.179	39.628	16.212	-36.793	197.114	172.314	-2.051	16.365	-81.150	-1.028	69.266	216.388	262.831	53.596	0.00030907	0.00060205	0.00022055	877.25	3.445e-06	6.5869e-06	770.55	375.03	3.0588e-06	6.0728e-06	343.53	143.13	163.42	70.397	2.4505e-06	66.428	0.0030973	0.0051474	0.0014247	901.72	4.9202e-05	5.706e-05	792.92	388.41	4.8623e-05	5.457e-05	355.87	149.36	169.88	73.606	4.9807e-05	69.304	-83.414	-21.821	17.541	-71.520	68.399	36.563	-72.938	-66.862	55.765	63.689	-69.516	-65.350	-62.401	-58.414	144.956	-61.714	-8191	255	
38953.762	1	1	0	0	0.081356	0.057738	0.15998	0.37653	0.14019	0.075279	0.3273	0.33813	0.13847	0.10564	0.18947	0.19212	0.15217	0.091261	0.085456	0.29623	-2.3375	-2.4688	-3.0625	-2.25	-2.6396	-3.0104	-2.1042	-3.2646	-2.6104	-2.2479	-3.1979	-2.3979	-2.6854	-3.2042	-2.1667	-3.0833	257.843	115.022	71.460	247.008	98.137	-75.635	240.977	-48.896	200.989	222.915	266.517	-73.036	236.042	-52.189	125.179	215.182	0.00033961	0.00072279	0.0001425	876.16	5.4558e-06	4.8525e-06	769.93	377.74	3.943e-06	6.474e-06	345.73	144.59	164.11	70.58	6.1201e-06	66.94	0.0028864	0.0047919	0.001297	900.93	4.5469e-05	5.2868e-05	791.79	389.76	4.5212e-05	5.2127e-05	357.77	150.5	170.66	73.719	4.7432e-05	69.866	-77.651	-7.202	56.338	-71.550	63.129	80.169	-73.046	-66.601	82.117	91.626	-69.521	-65.294	-62.694	-58.325	80.763	-61.410	-8191	255	
38953.855	1	1	0	0	0.21338	0.22288	0.27893	0.24014	0.012235	0.1377	0.17913	0.12905	0.16478	0.21733	0.041139	0.41526	0.1825	0.027955	0.2126	0.30734	-2.4729	-2.0812	-3.0812	-2.3583	-2.4333	-3.2625	-2.2458	-3.0708	-2.9396	-2.1542	-3.2062	-2.5125	-2.5292	-3.1667	-2.2583	-2.9333	-73.096	76.742	-40.932	-78.471	247.180	-53.490	156.983	230.972	70.174	180.602	160.018	209.144	241.617	266.761	86.544	-76.970	0.00032125	0.00071067	0.00012421	877.86	7.053e-06	9.1313e-06	770.67	378.93	2.2166e-06	8.1968e-06	346.65	145.67	165.44	70.591	7.8836e-06	67.567	0.0027636	0.0044664	0.0012286	901.06	4.3162e-05	4.9647e-05	793.03	390.64	4.3013e-05	4.9113e-05	358.82	151.16	171.76	73.678	4.6263e-05	70.321	-73.945	-20.263	38.402	-71.674	116.829	73.187	-73.021	-66.663	83.377	79.776	-69.638	-65.564	-62.560	-58.447	82.228	-61.883	-8191	255	
38953.953	1	1	0	0	0.38291	0.19359	0.19792	0.2446	0.23829	0.19379	0.16964	0.12032	0.40534	0.12812	0.13344	0.2951	0.41703	0.452	0.2453	0.46601	-2.4042	-2.2896	-2.9542	-2.7396	-2.5729	-3.0375	-2.2938	-3.0187	-3.0146	-2.2604	-3.0167	-2.8083	-2.425	-3.3167	-2.3937	-2.6646	161.659	265.878	55.432	140.982	-82.328	184.652	238.538	196.020	123.294	239.540	251.979	169.661	218.945	200.961	53.935	256.799	0.00034282	0.00040309	5.302e-05	883.81	8.4413e-06	8.1248e-06	778.42	382.82	7.6879e-06	5.9043e-06	349.23	147.18	166.49	70.785	1.0414e-05	67.954	0.0026691	0.0044538	0.001219	909.12	4.2435e-05	4.9486e-05	799.14	394.39	4.3483e-05	4.9338e-05	362.14	152.5	172.89	73.846	4.7839e-05	70.663	-67.493	-19.475	-9.121	-71.644	84.151	55.735	-73.247	-66.907	76.742	60.100	-69.795	-65.664	-62.711	-58.442	46.222	-61.773	-8191	255	
38954.051	1	1	0	0	0.22684	0.29419	0.19523	0.12578	0.086421	0.29603	0.10404	0.26011	0.092587	0.10558	0.1042	0.059649	0.16443	0.30287	0.25758	0.16387	-2.5458	-1.9396	-3.1312	-2.6688	-2.2	-3.2417	-2.4271	-2.7979	-3.1208	-2.275	-3.0375	-2.8812	-2.4458	-3.3458	-2.2896	-2.6562	6.532	186.524	86.857	-49.773	-4.557	-65.839	-62.959	222.252	146.803	194.038	217.779	29.907	209.422	266.415	29.948	172.898	0.00032028	0.0010895	9.7022e-05	890.06	3.946e-06	5.837e-06	777.44	383.37	3.5257e-06	4.9734e-06	348.39	145.4	166.21	70.33	3.0982e-06	67.811	0.0027249	0.0045012	0.0012694	914.32	4.3065e-05	5.0805e-05	799.3	396.09	4.3216e-05	4.9732e-05	361.77	151.05	172.74	73.383	4.712e-05	70.527	-79.675	-2.795	35.120	-71.842	78.398	88.572	-73.078	-66.627	90.128	47.808	-69.600	-65.548	-62.778	-58.318	82.151	-61.911	-8191	255	
38954.121	1	1	0	0	0.080295	0.070589	0.18648	0.14649	0.096781	0.2962	0.25937	0.034176	0.23877	0.27632	0.20399	0.065758	0.15273	0.057266	0.14472	0.020905	-2.8375	-2.2083	-2.9417	-2.9188	-2.2	-3.2062	-2.6583	-2.6437	-2.975	-2.2208	-2.8438	-2.9646	-2.3979	-3.1458	-2.5021	-2.5229	-46.258	-62.971	153.334	-81.830	64.602	-74.510	165.936	-46.716	219.632	125.977	196.960	226.386	264.148	231.521	-9.422	54.198	0.00035088	0.00065561	0.00018976	891.4	7.4509e-06	3.7739e-06	776.46	382.49	3.6029e-06	6.7286e-06	349.33	145.26	165.25	70.271	9.3068e-06	67.989	0.0027319	0.004521	0.0012411	914.15	4.2676e-05	4.9687e-05	797.85	394	4.2702e-05	4.8589e-05	361.38	150.8	172.42	73.044	4.5259e-05	70.671	-78.004	11.362	-21.947	-71.720	98.483	45.861	-72.977	-66.909	130.640	69.154	-69.325	-65.643	-63.025	-58.635	28.405	-62.004	-8191	255	
38954.242	1	1	0	0	0.10527	0.10818	0.13751	0.18375	0.064882	0.06945	0.13787	0.099784	0.080108	0.14491	0.077218	0.18074	0.28938	0.0559	0.049639	0.071372	-2.7562	-2.2479	-3.0125	-2.9354	-2.1292	-2.9875	-2.5729	-2.3688	-3.1667	-2.3021	-2.6917	-3.1167	-2.1813	-3.0375	-2.6979	-2.3479	88.308	-32.396	14.270	160.336	193.715	86.474	213.557	-42.215	52.155	218.925	-16.724	214.645	270.830	-73.881	140.281	267.980	0.00028522	0.00058378	0.00018874	889	1.2366e-05	3.7879e-06	775.05	381.48	7.6734e-06	6.3307e-06	348.25	144.97	166.5	70.316	3.5545e-06	68.406	0.0026104	0.0043865	0.0012041	912.6	4.2965e-05	4.9319e-05	796.65	393.29	4.3465e-05	4.9678e-05	361.3	150.99	172.68	73.219	4.6643e-05	71.015	-83.386	-17.646	9.512	-71.808	67.518	113.114	-72.885	-66.771	133.641	19.922	-69.477	-65.572	-62.881	-58.315	25.671	-62.139	-8191	255	
38954.340	1	1	0	0	0.19612	0.15942	0.13255	0.16719	0.18501	0.23357	0.049432	0.47996	0.086704	0.40023	0.255	0.13647	0.29773	0.32987	0.081057	0.062798	-2.7458	-2.2271	-2.5604	-3.2062	-2.2542	-2.925	-2.7396	-2.5312	-3.0812	-2.6375	-2.5479	-3.1667	-2.2104	-3.2583	-2.7354	-2.3625	-81.295	63.339	-15.421	-71.933	111.161	53.624	91.262	-58.541	-6.190	88.361	204.497	213.405	157.336	-79.239	84.844	-10.841	0.00036467	0.00076548	0.00012339	890.44	6.7439e-06	7.0038e-06	780.92	383.43	7.9465e-06	5.6654e-06	351.9	146.43	167.71	70.54	2.4477e-06	68.462	0.0026772	0.0044096	0.0012338	916.31	4.2649e-05	5.0077e-05	802.16	396.09	4.3199e-05	4.9518e-05	363.89	151.82	173.94	73.701	4.6699e-05	71.187	-66.076	-13.042	-15.513	-71.765	49.004	74.095	-73.093	-66.759	120.473	116.213	-69.681	-65.705	-62.813	-58.286	67.272	-62.208	-8191	255	
38954.434	1	1	0	0	0.20604	0.36073	0.24731	0.2954	0.1569	0.26088	0.23293	0.22689	0.23818	0.033068	0.10364	0.10811	0.14288	0.25842	0.19495	0.14075	-2.6042	-2.3354	-2.4813	-3.0792	-2.1146	-2.9375	-2.9708	-2.2292	-2.9708	-2.5583	-2.6021	-3.3208	-2.3333	-2.9583	-3.0375	-2.25	64.689	55.969	0.521	171.572	219.778	-82.365	121.208	196.365	9.078	29.996	103.614	113.418	177.371	-33.333	172.697	53.693	0.00034292	0.00052332	8.0057e-05	889.21	3.9247e-06	8.417e-06	776.24	382.35	3.8871e-06	7.3704e-06	348.86	145.16	166.66	70.191	4.8364e-06	67.919	0.0027741	0.0045687	0.0012599	915.32	4.3747e-05	5.0308e-05	797.89	394.91	4.4824e-05	4.9546e-05	361.33	150.74	172.94	73.232	4.6929e-05	70.608	-77.369	-9.764	34.342	-71.612	61.766	44.786	-73.089	-66.797	91.217	78.139	-69.227	-65.663	-62.801	-58.410	65.448	-62.118	-8191	255	
38954.531	1	1	0	0	0.14045	0.088614	0.25029	0.14698	0.28924	0.058144	0.22915	0.33791	0.12854	0.22912	0.27497	0.32065	0.22293	0.19848	0.11726	0.2014	-2.6771	-2.5604	-2.5521	-3.2646	-2.2188	-2.8604	-3.2146	-2.5229	-2.9792	-2.7792	-2.5708	-3.0438	-2.4188	-2.825	-3.0938	-2.425	75.415	-26.814	117.713	144.339	28.641	-13.540	166.991	270.918	234.960	193.327	241.767	223.387	-62.037	220.275	83.492	235.237	0.00030605	0.00081247	0.00012765	885.73	7.1911e-06	5.9159e-06	771.01	380.38	8.9168e-06	7.1495e-06	346.23	144.05	164.86	69.562	2.5177e-06	67.338	0.0027666	0.0045459	0.0012527	910.99	4.4148e-05	5.1268e-05	792.96	391.46	4.4623e-05	5.1061e-05	358.58	149.72	171.54	72.607	4.8542e-05	70.168	-69.121	-12.801	2.588	-71.659	81.560	90.882	-72.908	-66.777	113.511	71.338	-69.569	-65.573	-62.779	-58.335	150.586	-61.903	-8191	255	
38954.648	1	1	0	0	0.24568	0.24793	0.14979	0.1498	0.21615	0.17917	0.17481	0.16569	0.066115	0.18994	0.1195	0.18266	0.32733	0.22875	0.24421	0.18392	-2.6562	-2.725	-2.3417	-3.2167	-2.3375	-2.5792	-3.1521	-2.4542	-2.9313	-2.9271	-2.3229	-3.1646	-2.7958	-2.8521	-3.1521	-2.2	111.175	103.888	-34.004	169.834	15.098	-55.085	230.513	238.781	-24.533	133.937	237.689	220.312	206.283	242.464	-8.897	137.282	0.00035153	0.0010156	0.00019631	886.11	8.1191e-06	5.4931e-06	774.62	379.7	3.1896e-06	5.8285e-06	345.38	143.99	164.82	69.697	4.0058e-07	67.477	0.0028209	0.0045829	0.0012738	912.27	4.4824e-05	5.2558e-05	794.31	391.92	4.5396e-05	5.1766e-05	358.89	150	171.73	72.707	4.9465e-05	70.195	-75.104	11.981	15.588	-71.657	72.502	77.614	-72.706	-66.884	80.363	89.450	-69.314	-65.413	-62.931	-58.151	85.418	-62.063	-8191	255	
38954.723	1	1	0	0	0.13668	0.21425	0.19949	0.079405	0.19779	0.22156	0.27239	0.22887	0.060328	0.20172	0.19956	0.082644	0.42909	0.28382	0.3321	0.1327	-2.5521	-3.0271	-2.2896	-3.2396	-2.6854	-2.5021	-3.2229	-2.375	-2.9458	-2.9167	-2.3896	-3.0396	-2.6688	-2.7021	-3.0771	-2.4104	95.352	171.510	9.225	-74.308	8.716	237.308	216.425	199.328	243.010	2.682	150.282	-17.873	189.175	225.368	155.343	-43.683	0.00031642	0.00064892	0.00012868	885.45	3.8631e-06	1.9343e-06	765.91	378.88	3.5936e-06	4.0918e-06	342.86	141.13	163.49	68.611	5.8667e-06	65.917	0.0029181	0.0048325	0.0013654	912.35	4.8405e-05	5.6517e-05	791.06	390.54	5.044e-05	5.7321e-05	355.96	147.68	170.11	71.772	5.4246e-05	68.821	-76.951	3.355	-31.164	-71.667	168.429	78.965	-73.005	-66.801	68.233	73.149	-69.505	-65.751	-62.847	-58.119	82.551	-61.958	-8191	255	
38954.840	1	1	0	0	0.16213	0.22245	0.048768	0.25913	0.12688	0.015746	0.21157	0.26367	0.16294	0.13551	0.044016	0.24949	0.17894	0.04849	0.10741	0.11128	-2.3521	-2.8688	-2.2292	-3.2417	-2.825	-2.4562	-3.3187	-2.5521	-2.6063	-2.8333	-2.4813	-2.9896	-2.9375	-2.4146	-3.0958	-2.5458	73.076	-1.485	-66.622	231.395	149.248	-47.214	-68.910	208.248	235.646	77.306	47.466	-78.807	257.719	165.151	56.784	87.863	0.0003319	0.00077314	0.00015677	880.67	3.1419e-06	6.1769e-06	759.57	373.87	2.9923e-06	5.5394e-06	338.7	140.33	160.97	67.576	2.6706e-06	65.178	0.0031167	0.0052404	0.0014652	905.66	5.0737e-05	5.7926e-05	782.51	385.96	5.0798e-05	5.7099e-05	351.01	145.95	167.74	70.718	5.3983e-05	67.94	-59.751	-6.959	39.721	-71.462	77.181	54.210	-72.924	-66.805	136.500	81.718	-69.489	-65.665	-63.041	-58.159	74.400	-62.230	-8191	255	
38954.938	1	1	0	0	0.21193	0.18216	0.20723	0.095328	0.18191	0.25047	0.14538	0.25233	0.20719	0.075055	0.12918	0.22525	0.15074	0.26012	0.090237	0.15164	-2.2979	-3.0146	-2.1771	-3.1167	-2.8458	-2.2583	-3.1854	-2.7583	-2.65	-3.025	-2.3083	-3.0021	-3.0792	-2.3771	-3.1708	-2.6083	187.796	181.572	-75.084	89.312	80.508	96.417	196.474	172.087	-78.024	30.239	-21.908	97.804	-55.527	-54.018	-18.518	64.107	0.00025648	0.0004802	0.00028466	877.21	7.6533e-06	8.5216e-06	756.56	371.09	6.5621e-06	6.1147e-06	337.08	138.09	160.32	67.001	2.6393e-06	64.778	0.0030638	0.0051511	0.0014274	901.71	4.8926e-05	5.7346e-05	780.38	383.63	4.9425e-05	5.5902e-05	350.08	144.8	167.11	69.876	5.2309e-05	67.592	-71.462	52.328	14.744	-71.704	66.111	70.765	-73.034	-66.855	148.269	19.679	-69.622	-65.607	-62.703	-58.325	158.324	-61.996	-8191	255	
38955.031	1	1	0	0	0.22959	0.16394	0.19415	0.19694	0.071323	0.35493	0.086948	0.30818	0.12098	0.16424	0.13911	0.48191	0.16724	0.16227	0.33089	0.25288	-1.9917	-3.0583	-2.2333	-2.9833	-3.0479	-2.3229	-3.0771	-2.6083	-2.3667	-3.2062	-2.5292	-2.7542	-3.0479	-2.3417	-3.2208	-2.8812	98.667	132.612	83.281	-65.713	126.898	16.534	170.768	-73.596	252.655	41.975	-80.765	255.284	205.897	223.334	176.072	161.425	0.00032427	0.00036805	0.00018678	876.7	5.3338e-06	4.9194e-06	756.95	372.49	1.3238e-06	7.308e-06	339.21	139.19	160.77	66.772	6.7225e-06	64.443	0.0030786	0.0050051	0.0014004	902.71	4.8026e-05	5.6947e-05	779.29	385.11	4.9625e-05	5.6124e-05	351.12	145.14	167.44	69.941	5.4798e-05	67.27	270.746	-49.896	25.152	-71.673	46.481	50.313	-72.911	-66.951	-51.194	42.341	-69.836	-65.653	-62.631	-58.423	44.232	-62.023	-8191	255	
38955.129	1	1	0	0	0.106	0.11072	0.17339	0.35639	0.18308	0.051372	0.24127	0.12482	0.20329	0.10945	0.41414	0.15028	0.2965	0.29476	0.058173	0.22025	-2.0417	-3.0563	-2.2687	-2.7542	-3.1958	-2.4417	-3.0208	-2.9104	-2.2562	-3.2104	-2.4646	-2.75	-3.175	-2.2583	-2.8896	-2.9875	-17.598	51.621	59.310	228.597	-17.049	101.957	261.015	192.423	100.711	193.711	-70.241	226.419	224.565	242.596	-77.781	185.325	0.00023671	0.00048629	0.00016922	876.13	8.6583e-06	5.5159e-06	749.97	371.05	1.9795e-06	3.5146e-06	331.85	135.8	158.36	65.652	5.4237e-06	62.943	0.0032265	0.0054072	0.0015199	903.9	5.4214e-05	6.3866e-05	775.95	382.79	5.547e-05	6.3733e-05	346.79	142.43	165.27	68.667	6.0067e-05	65.755	-59.412	-44.382	-13.901	-71.524	70.146	70.017	-73.259	-66.577	52.984	72.474	-69.517	-65.261	-62.617	-58.243	85.387	-61.883	-8191	255	
38955.250	1	1	0	0	0.15231	0.12208	0.15838	0.057828	0.1998	0.23854	0.017864	0.10446	0.14573	0.12144	0.19431	0.1536	0.14464	0.32453	0.11886	0.25158	-1.8813	-3.1646	-2.4292	-2.6937	-3.0833	-2.2771	-2.9833	-2.9354	-1.9833	-3.1146	-2.8021	-2.65	-3.3438	-2.5458	-2.7979	-3.0604	152.862	104.801	185.504	-78.278	-37.488	127.252	43.250	237.298	220.682	184.075	156.342	190.968	250.466	271.140	246.535	-56.248	0.00022004	0.00036188	0.00018703	868.52	1.9344e-06	4.4072e-06	746.28	366.88	7.0222e-06	4.9443e-06	333.23	135.68	157.22	65.241	4.5064e-06	63.318	0.0033947	0.0057339	0.0015765	897.31	5.4236e-05	6.3176e-05	769.62	379.61	5.4148e-05	6.1602e-05	345.12	141.54	164.22	68.206	5.6752e-05	65.895	-77.215	-30.089	-1.045	-71.586	109.413	52.511	-73.212	-66.751	82.930	82.227	-69.780	-65.606	-62.903	-58.440	100.338	-62.070	-8191	255	
38955.320	1	1	0	0	0.28518	0.30002	0.18685	0.26565	0.11505	0.158	0.05183	0.18209	0.11245	0.098856	0.17583	0.26942	0.333	0.16132	0.089855	0.15243	-1.7667	-3.1167	-2.5646	-2.4229	-3.1708	-2.6063	-2.8333	-2.9646	-2.1688	-3.2812	-2.6917	-2.5187	-3.0604	-2.4125	-2.7229	-3.0375	-56.040	-50.488	229.764	145.583	92.399	273.901	266.647	200.899	60.485	177.553	110.271	264.918	274.328	223.408	159.040	258.158	0.00028975	0.00058006	0.00028175	871.34	4.9398e-06	6.1562e-06	750.41	368.9	3.3772e-06	6.8728e-06	337.47	137.79	160.64	66.577	4.6079e-06	64.793	0.0032294	0.005421	0.0014915	897.66	5.1554e-05	5.9545e-05	772.96	381.96	5.1772e-05	5.7982e-05	349.22	144.02	167.21	69.649	5.397e-05	67.443	-63.129	-16.840	-7.351	-71.489	33.709	71.065	-72.902	-66.658	106.971	45.604	-69.818	-65.337	-62.816	-58.647	56.334	-62.461	-8191	255	
38955.418	1	1	0	0	0.12448	0.084277	0.16746	0.36718	0.20554	0.15177	0.14717	0.29232	0.28622	0.13895	0.16622	0.17638	0.14311	0.39018	0.032457	0.38068	-1.8333	-3.0229	-2.7896	-2.2646	-3.1167	-2.4688	-2.7625	-3.3375	-2.2396	-2.9562	-2.9667	-2.3417	-3.1521	-2.4521	-2.2875	-3.2604	-78.202	104.823	140.050	-81.355	-32.842	241.351	165.821	229.133	271.114	214.489	-29.938	-84.294	-58.584	263.152	185.986	256.522	0.00030256	0.00069337	0.00023713	872.84	5.5715e-06	4.5613e-06	756.5	372.16	1.11e-06	5.845e-06	340.16	139.81	161.61	67.115	5.3753e-06	65.072	0.0031158	0.0052044	0.0014287	899.89	5.0187e-05	5.9003e-05	777.49	384.02	5.1254e-05	5.8112e-05	352.38	145.63	168.58	70.278	5.5487e-05	67.87	-70.079	27.799	8.605	-71.604	137.620	58.466	-73.050	-66.777	-33.110	89.713	-69.857	-65.395	-62.641	-58.496	111.714	-62.184	-8191	255	
38955.539	1	1	0	0	0.1333	0.22694	0.026735	0.28211	0.13577	0.17966	0.096764	0.13818	0.18727	0.13619	0.20301	0.28034	0.12592	0.35849	0.30055	0.21965	-1.8667	-2.6875	-2.8125	-2.4729	-3.1729	-2.6229	-2.5083	-3.2646	-2.3167	-2.8625	-3.0812	-2.3896	-3.2062	-2.8583	-2.4333	-3.4375	101.833	248.204	-2.007	-75.989	246.885	115.616	-31.707	218.717	111.213	50.330	-14.800	261.296	250.650	-76.336	-41.911	240.000	0.0003024	0.00034156	0.00022215	875.36	5.3154e-06	3.3989e-06	758.38	372.73	6.4383e-06	9.4181e-06	339.38	138.36	162.08	67.29	5.4069e-06	64.647	0.0032462	0.0053792	0.0014918	903.06	5.2799e-05	6.034e-05	778.82	385.16	5.2671e-05	6.0611e-05	352.25	144.95	168.38	70.226	5.6519e-05	67.537	-62.997	-40.944	32.920	-71.655	43.077	85.310	-73.112	-66.692	42.468	94.509	-69.622	-65.561	-62.747	-58.376	90.327	-62.077	-8191	255	
38955.633	1	1	0	0	0.29781	0.1254	0.20826	0.16448	0.11743	0.19691	0.11078	0.17969	0.098761	0.12675	0.142	0.25987	0.36534	0.22163	0.16439	0.12477	-1.9417	-2.7625	-2.925	-2.5521	-3.1458	-2.7896	-2.3667	-3.2583	-2.3146	-2.6312	-3.1521	-2.1562	-3.1667	-2.9333	-2.3833	-3.2708	262.590	-62.215	212.780	234.066	-8.667	35.296	194.407	-50.814	-81.484	272.556	261.187	-59.656	267.714	-21.433	15.369	192.350	0.00040104	0.0002413	0.00016954	874.44	9.9456e-06	8.1152e-06	755.34	371.74	5.3202e-06	6.4598e-06	339.35	139.62	160.85	67.449	2.9672e-06	65.694	0.0032862	0.0053938	0.0014961	901.04	5.1102e-05	5.9595e-05	778.15	384.99	5.1314e-05	5.8013e-05	353.13	145.88	168.47	70.557	5.5337e-05	68.434	-63.825	3.790	26.175	-71.665	91.452	24.828	-72.808	-66.514	102.994	37.439	-69.513	-65.643	-62.601	-58.381	-84.109	-62.177	-8191	255	
38955.730	1	1	0	0	0.14749	0.18068	0.10334	0.21687	0.11871	0.23321	0.14084	0.19156	0.209	0.12733	0.10047	0.14801	0.31612	0.17648	0.10805	0.15124	-2.1562	-2.6521	-3.2375	-2.2708	-2.7812	-2.8	-2.5604	-3.2188	-2.3625	-2.4188	-3.0521	-2.2708	-3.1292	-2.9646	-2.325	-3.2375	40.091	11.419	76.318	273.252	123.126	152.355	146.971	220.339	64.688	266.300	146.598	246.712	-84.109	167.532	107.444	191.605	0.00029195	0.00084761	4.618e-05	871.73	5.9602e-06	7.2565e-06	762.89	372.94	4.9433e-06	3.5276e-06	341.64	140.38	162.42	68.008	3.4236e-06	66.401	0.0031768	0.0052941	0.001473	901.82	5.0345e-05	5.85e-05	782.7	385.52	5.0574e-05	5.794e-05	355.18	146.48	169.32	71.246	5.4082e-05	69.292	-66.296	-20.246	26.602	-71.516	102.695	8.551	-73.192	-66.722	42.854	140.516	-69.953	-65.635	-62.836	-58.239	45.206	-61.994	-8191	255	
38955.824	1	1	0	0	0.06344	0.21836	0.33362	0.51555	0.20468	0.11379	0.081045	0.14832	0.075452	0.075718	0.074281	0.07883	0.080968	0.25489	0.18573	0.19073	-2.25	-2.4437	-3.1333	-2.2042	-2.6271	-3.0729	-2.2958	-3.1562	-2.5563	-2.5333	-3.2396	-2.4646	-2.9417	-3.1188	-2.0833	-3.1458	-68.509	192.273	149.693	241.838	167.540	22.303	205.208	273.635	240.753	19.393	176.543	246.369	-62.411	-77.146	251.534	159.498	0.00025948	0.00090256	0.0002455	885.96	2.2277e-06	9.7606e-06	771.08	379.37	4.5974e-06	4.7649e-06	348.06	142.65	165.66	70.031	6.8678e-06	68.308	0.0031278	0.0051929	0.0014321	910.72	4.9422e-05	5.7612e-05	794.58	391.54	5.0206e-05	5.7498e-05	361.24	149.03	172.33	73.104	5.3607e-05	71.015	-74.592	18.900	-3.297	-71.475	23.257	85.516	-72.780	-66.596	95.089	72.574	-69.629	-65.524	-62.574	-58.310	68.594	-62.182	-8191	255	
38955.945	1	1	0	0	0.19826	0.15052	0.0077869	0.054618	0.057271	0.054025	0.17434	0.19525	0.25885	0.21516	0.085914	0.069544	0.37832	0.29563	0.1106	0.23224	-2.2896	-2.2521	-2.9792	-2.5	-2.7042	-3.0563	-2.3292	-3.2208	-2.7958	-2.2854	-3.3312	-2.4854	-2.625	-3.1604	-2.0875	-2.8958	153.758	253.998	104.781	170.105	198.064	-16.237	249.988	254.495	217.909	212.393	239.462	27.183	225.804	270.574	-51.172	274.945	0.00029339	0.00077102	0.00020608	891.06	7.5047e-06	6.8549e-06	778.2	380.42	5.1032e-06	7.3285e-06	351.28	144.05	166.61	70.433	4.7156e-06	68.562	0.0031148	0.005176	0.0014326	917.05	4.985e-05	5.7622e-05	801.3	394.23	4.9387e-05	5.6745e-05	364.07	150.13	173.49	73.756	5.287e-05	71.444	-81.391	-34.388	9.246	-71.651	76.895	76.867	-72.947	-66.567	130.946	89.427	-69.682	-65.647	-62.509	-58.360	73.461	-61.999	-8191	255	
38956.020	1	1	0	0	0.27133	0.16339	0.069309	0.12543	0.18786	0.23783	0.11106	0.32906	0.052526	0.27801	0.22407	0.23913	0.19945	0.15347	0.34067	0.036501	-2.5438	-2.2333	-3.0042	-2.5354	-2.6083	-3.05	-2.3563	-3.0396	-2.9146	-2.3021	-3.3292	-2.5792	-2.5604	-3.3229	-2.2542	-2.8896	132.264	211.222	166.278	228.817	-8.878	164.171	206.317	213.659	63.422	160.041	233.858	258.802	-50.657	-62.254	226.298	-71.225	0.00028576	0.00094468	0.00018223	883.89	4.9774e-06	4.1433e-06	780.87	379.2	3.7151e-06	8.31e-06	350.09	143.89	164.81	69.818	6.2421e-06	68.367	0.0030698	0.0051502	0.0014277	912.82	4.973e-05	5.8197e-05	801.82	391.65	4.9572e-05	5.7495e-05	362.95	149.17	171.54	73.101	5.343e-05	71.23	-81.231	34.613	47.424	-71.644	82.098	121.433	-73.014	-66.373	109.699	49.644	-69.711	-65.645	-62.752	-58.444	82.584	-62.090	-8191	255	
38956.113	1	1	0	0	0.20972	0.22517	0.23663	0.27411	0.060541	0.13579	0.21103	0.39426	0.14405	0.12602	0.2275	0.23677	0.21022	0.057117	0.18746	0.099936	-2.6479	-2.125	-3.0312	-2.6521	-2.575	-3.1937	-2.5146	-2.7958	-2.9271	-2.2604	-3.2042	-2.7667	-2.6479	-3.1958	-2.275	-2.8583	232.364	100.844	56.452	214.154	71.707	136.280	224.154	240.436	-37.471	-55.517	251.959	-45.965	85.109	194.768	-60.170	-58.428	0.00034768	0.00077731	0.00022488	885.84	6.1395e-06	5.3606e-06	778.08	378.68	2.6035e-06	6.6157e-06	350.59	143.38	164.61	70.423	4.1311e-06	68.801	0.0030644	0.0051277	0.0014182	911.64	4.9966e-05	5.7675e-05	803.13	391.76	5.0967e-05	5.8467e-05	364.26	149.51	171.36	73.495	5.492e-05	71.792	-67.787	-12.804	23.704	-71.585	85.716	84.487	-73.170	-66.528	19.470	15.506	-69.409	-65.611	-62.454	-58.023	119.251	-62.169	-8191	255	
38956.211	1	1	0	0	0.16187	0.26927	0.27703	0.040552	0.28018	0.13815	0.32112	0.2301	0.057499	0.1117	0.25207	0.1525	0.2477	0.26973	0.21026	0.33077	-2.5583	-2.2333	-2.9875	-2.7458	-2.3937	-3.0479	-2.625	-2.7292	-3.0521	-2.2313	-2.875	-3.0146	-2.4958	-3.3958	-2.3375	-2.6354	273.857	-32.713	-74.757	249.457	191.379	8.060	265.960	249.404	143.253	90.275	-83.956	-80.678	255.339	-55.029	160.376	206.073	0.00029601	0.00098204	0.00017708	885.22	1.2757e-05	1.2614e-06	785.84	381.81	6.567e-06	8.1606e-06	354.75	145.39	166.57	71.284	7.0347e-06	70.007	0.0031342	0.0052417	0.0014535	913.02	5.0848e-05	5.8809e-05	810.13	393.86	5.0362e-05	5.7627e-05	368.39	151.65	173.25	74.557	5.4241e-05	73.001	-67.554	15.619	26.689	-71.385	91.662	86.203	-72.958	-66.489	76.682	80.128	-69.478	-65.342	-62.537	-58.012	88.343	-62.031	-8191	255	
38956.332	1	1	0	0	0.056314	0.13208	0.15172	0.035841	0.28731	0.052702	0.10667	0.19155	0.28534	0.067594	0.16315	0.095603	0.070042	0.28357	0.21462	0.28609	-2.9083	-2.3083	-2.8021	-2.9854	-2.2042	-3.0083	-2.5229	-2.625	-3.2083	-2.2438	-2.8833	-2.9062	-2.4479	-3.0833	-2.5438	-2.3792	172.826	93.968	-63.329	11.619	-24.899	200.309	258.895	-73.556	87.570	3.980	228.062	201.164	-8.117	157.712	-37.986	166.192	0.00030104	0.00061486	0.00016329	885.57	5.6821e-06	8.1064e-06	787.8	383.16	6.2949e-07	7.228e-06	356.87	145.58	166.87	71.822	4.2654e-06	70.451	0.0031444	0.0052834	0.0014625	912.64	5.0363e-05	5.8555e-05	812.13	395.6	5.1365e-05	5.8435e-05	370.55	151.71	173.61	75.01	5.3676e-05	73.174	-76.538	-3.181	14.184	-71.413	126.782	23.423	-72.924	-66.470	41.514	70.457	-69.276	-65.415	-62.527	-57.917	53.818	-61.810	-8191	255	
38956.426	1	1	0	0	0.2187	0.09712	0.22293	0.11697	0.1888	0.15089	0.28157	0.1674	0.012319	0.20155	0.095183	0.13009	0.22772	0.051352	0.12227	0.086045	-2.6167	-2.2292	-2.6562	-2.9729	-2.2396	-3.1312	-2.8229	-2.6	-3.0187	-2.4271	-2.6688	-3.1	-2.4458	-3.0604	-2.7292	-2.3854	-60.229	-69.678	12.705	229.185	232.720	135.910	18.356	220.994	222.608	74.765	228.381	171.702	203.364	207.030	95.176	-39.264	0.00029388	0.00031837	0.00021583	885.11	8.8482e-06	8.5524e-06	784.89	379.23	2.8338e-06	4.9381e-06	351.91	143.41	163.76	70.21	6.5813e-06	68.734	0.0030518	0.0051309	0.0014224	911.42	5.0075e-05	5.7667e-05	809.52	392.33	5.119e-05	5.9049e-05	366.3	149.79	170.87	73.417	5.7048e-05	71.688	-72.166	-14.630	-11.150	-71.577	88.136	17.706	-73.091	-66.560	96.695	68.269	-69.813	-65.343	-62.537	-57.998	59.935	-61.795	-8191	255	
38956.523	1	1	0	0	0.28221	0.11528	0.14391	0.15795	0.2433	0.16452	0.33005	0.28793	0.17816	0.094295	0.27365	0.24264	0.31448	0.21032	0.076152	0.29099	-2.8438	-2.3563	-2.5042	-3.1208	-2.1333	-3.0417	-3.0229	-2.3646	-3.0604	-2.4833	-2.5125	-3.1542	-2.275	-3.0542	-2.7583	-2.3458	-55.029	233.684	32.427	245.874	54.263	133.320	204.523	221.944	13.486	-2.378	-17.348	219.541	214.306	196.015	42.258	158.341	0.00037599	0.00046751	0.00018315	882.88	7.5167e-06	7.2809e-06	778.81	377.8	2.0557e-06	8.388e-06	349.46	142.79	163.43	69.448	2.8959e-06	68.033	0.0032917	0.0055941	0.0015316	908.64	5.3496e-05	6.1997e-05	805.22	390.34	5.4657e-05	6.2262e-05	364.06	149.08	170.32	72.823	5.9249e-05	71.075	-67.889	-18.604	32.410	-71.556	114.888	60.686	-72.720	-66.474	-54.538	60.519	-69.323	-65.344	-62.775	-57.934	69.648	-61.907	-8191	255	
38956.617	1	1	0	0	0.14427	0.25008	0.11701	0.18162	0.22852	0.022952	0.32247	0.095381	0.23699	0.12671	0.30004	0.14809	0.38123	0.29999	0.14138	0.17442	-2.7417	-2.4562	-2.4083	-3.15	-2.1354	-2.9271	-3.1292	-2.1625	-3	-2.65	-2.4833	-3.2604	-2.5312	-2.6521	-2.95	-2.325	210.524	-19.901	-34.810	253.161	151.617	169.050	260.210	209.231	-16.749	-17.336	209.139	67.308	259.139	265.779	183.457	88.881	0.00036079	0.0011512	9.6605e-05	882.91	8.9262e-06	9.823e-07	781.07	377.28	1.6312e-06	5.8706e-06	352.37	143.53	164.04	70.026	2.1772e-06	68.342	0.0034677	0.0058568	0.0016185	910.51	5.6748e-05	6.6633e-05	807.26	390.46	5.6855e-05	6.45e-05	365.54	149.86	171.57	73.153	5.9925e-05	71.252	-68.834	20.909	-13.283	-71.662	65.852	13.968	-72.902	-66.623	-43.870	50.574	-69.651	-65.422	-62.691	-57.932	52.099	-61.894	-8191	255	
38956.715	1	1	0	0	0.24232	0.12739	0.089911	0.10815	0.049043	0.22544	0.12605	0.14639	0.30112	0.30815	0.020498	0.17521	0.31607	0.27891	0.11442	0.2771	-2.55	-2.5646	-2.4938	-3.1833	-2.4104	-2.6917	-3.1729	-2.4625	-3.125	-2.7667	-2.2771	-3.2208	-2.5062	-2.7375	-3.0458	-2.3063	62.121	163.378	47.447	240.617	271.600	39.260	148.919	229.045	-18.456	-71.597	238.104	-51.438	268.473	246.695	-65.222	219.791	0.00035191	0.00073728	0.00027516	884.21	4.5185e-06	9.4109e-06	775.01	376.95	6.396e-06	6.1551e-06	349.13	141.35	163.84	69.398	6.8316e-06	66.935	0.0034824	0.0058696	0.0016356	911.23	5.7265e-05	6.6797e-05	802.14	391	5.8477e-05	6.6275e-05	363.27	148.41	171.08	72.694	6.1892e-05	70.114	-63.090	-3.507	2.306	-71.552	48.033	28.908	-73.039	-66.492	108.759	102.002	-69.311	-65.539	-62.423	-57.907	53.832	-61.785	-8191	255	
38956.809	1	1	0	0	0.20936	0.18665	0.067608	0.1572	0.071378	0.047072	0.195	0.22886	0.16949	0.21757	0.17986	0.075084	0.40308	0.36384	0.23656	0.076494	-2.7313	-2.6354	-2.3896	-3.1063	-2.3917	-2.6021	-3.2125	-2.2604	-2.7333	-2.8937	-2.5854	-3.3063	-2.5833	-2.5604	-3.0771	-2.4271	-35.269	166.375	115.145	-16.732	-63.686	12.400	142.851	202.731	162.771	34.129	107.036	269.157	229.872	-83.749	97.299	216.542	0.00032084	0.00035202	0.00010236	878.86	1.0237e-05	9.0442e-06	768.09	373.74	7.8089e-06	6.4857e-06	345.02	140.44	161.83	67.782	4.6737e-06	65.881	0.0036114	0.0060939	0.0016869	908.02	5.8628e-05	6.8629e-05	794.93	387.62	6.0264e-05	6.8138e-05	358.79	146.67	168.7	71.268	6.527e-05	68.891	-63.762	-18.105	40.989	-71.641	121.308	89.866	-73.128	-66.574	101.534	53.529	-69.462	-65.502	-62.464	-58.064	75.303	-61.913	-8191	255	
38956.930	1	1	0	0	0.21421	0.13718	0.20819	0.31068	0.14796	0.068325	0.14921	0.35418	0.18914	0.071714	0.11631	0.20542	0.10731	0.42914	0.22795	0.20664	-2.4062	-3.0958	-2.1271	-3.3042	-2.6604	-2.4	-3.2417	-2.6333	-2.7062	-2.9313	-2.3354	-3.0583	-2.5729	-2.3146	-3.3208	-2.5396	87.990	-26.782	67.260	268.000	120.468	125.349	259.865	158.077	203.389	62.203	-39.817	24.714	265.010	-57.700	115.350	-67.367	0.00030735	0.00045791	0.00024758	874.49	3.7359e-06	7.5071e-06	763.22	370.28	8.0167e-06	4.4643e-06	340.59	138.69	160.45	67.571	2.1066e-06	65.543	0.0037416	0.0062194	0.0017453	903.82	6.0755e-05	7.1142e-05	790.62	384.66	6.262e-05	7.1248e-05	356.49	145.89	168.04	70.896	6.7787e-05	68.74	-71.050	-9.618	4.386	-71.272	69.016	79.996	-72.908	-66.520	106.687	49.562	-69.599	-65.257	-62.498	-58.068	225.250	-61.905	-8191	255	
38957.027	1	1	0	0	0.37154	0.18724	0.10352	0.19933	0.12348	0.088131	0.040657	0.10021	0.23205	0.10646	0.077341	0.18056	0.17865	0.32692	0.2771	0.3187	-2.2229	-3.0083	-2.2125	-2.9896	-2.7625	-2.4688	-3.0917	-2.7188	-2.6208	-3.0667	-2.4292	-3.0062	-2.9396	-2.4833	-3.3375	-2.6021	-15.182	84.751	202.872	179.998	248.006	163.662	-53.196	180.130	-64.562	8.852	104.589	203.987	245.395	222.675	172.708	197.960	0.0003403	0.0013251	0.0001822	869.03	4.1806e-06	5.5585e-06	761.95	369.54	9.1497e-07	7.2576e-06	338.57	138.18	160.1	66.774	2.5832e-06	64.79	0.0038817	0.0065396	0.001858	901.83	6.4737e-05	7.5584e-05	790.24	384.42	6.7016e-05	7.6843e-05	355.25	145.27	167.57	70.332	7.2871e-05	67.857	274.240	-16.980	0.195	-71.495	118.791	69.436	-72.929	-66.572	127.901	78.141	-69.269	-65.387	-62.648	-57.962	54.497	-61.953	-8191	255	
38957.121	1	1	0	0	0.10601	0.32569	0.34898	0.33069	0.096335	0.2477	0.10892	0.26662	0.073871	0.15455	0.082029	0.21469	0.18485	0.31332	0.26002	0.071187	-2.1979	-3.0271	-2.2062	-2.9104	-2.8771	-2.2146	-2.9458	-2.7729	-2.4437	-3.0125	-2.2896	-2.8167	-2.8812	-2.3729	-2.8771	-2.7771	115.758	143.441	29.077	-65.621	117.550	0.608	168.901	213.164	234.628	7.336	89.248	244.336	215.051	249.488	37.950	159.030	0.00034255	0.00058606	0.00022124	874.16	9.4839e-06	7.5109e-06	756.56	367.94	1.3047e-06	7.1806e-06	333.89	135.04	157.34	65.447	4.6127e-06	62.651	0.0041019	0.0070623	0.001949	904.87	6.758e-05	7.9142e-05	785.52	382.77	6.9746e-05	8.041e-05	350.79	142.45	165.61	69.023	7.7962e-05	65.983	-76.042	-5.014	20.779	-71.105	99.341	47.111	-73.223	-66.489	100.290	90.619	-69.304	-65.185	-62.694	-58.075	68.714	-61.840	-8191	255	
38957.242	1	1	0	0	0.28386	0.20136	0.090503	0.4139	0.14388	0.13997	0.079397	0.26542	0.046064	0.095373	0.24871	0.27673	0.21823	0.29287	0.13737	0.25521	-1.9146	-2.9688	-2.2729	-2.7604	-3.0333	-2.1354	-3.1333	-2.6917	-2.3646	-3.1229	-2.5229	-2.7229	-3.1875	-2.4083	-2.9521	-2.7708	-80.679	170.990	271.923	266.517	77.692	-9.867	-56.626	119.854	-35.312	203.704	159.811	274.017	260.668	235.152	-17.037	198.777	0.00028784	0.00033301	5.8674e-05	866.66	3.7127e-06	3.3296e-06	744.69	362.66	4.7541e-06	4.2745e-06	330.56	133.63	156.02	64.656	3.9192e-06	62.469	0.0044032	0.007538	0.0020768	899.25	7.265e-05	8.4529e-05	774.35	377.4	7.2007e-05	8.1698e-05	347.12	140.99	163.91	68.191	7.5204e-05	65.53	-72.998	44.077	6.836	-71.300	47.382	87.556	-73.153	-66.403	37.524	22.036	-69.493	-65.200	-62.543	-57.958	74.872	-61.817	-8191	255	
38957.316	1	1	0	0	0.12931	0.23653	0.034648	0.15937	0.23875	0.36054	0.16846	0.16235	0.022134	0.13501	0.12878	0.34875	0.17429	0.13042	0.076104	0.10659	-2.0312	-3.1896	-2.3354	-2.7104	-2.9583	-2.3917	-3.1562	-2.9771	-2.5396	-3.1708	-2.5896	-2.6688	-3.2521	-2.4938	-2.8708	-2.975	-0.157	142.050	-9.361	-7.610	140.712	22.903	264.739	243.326	139.636	195.837	226.605	265.482	194.576	229.992	-25.128	229.846	0.00030872	0.00092661	0.00018188	859.86	5.6179e-06	7.7422e-06	737.93	361.32	3.3209e-06	3.8997e-06	328.93	133.91	155.58	64.649	6.0846e-06	62.255	0.0042376	0.0073602	0.0020427	890.74	7.1879e-05	8.4213e-05	769.26	375.97	7.2443e-05	8.262e-05	345.95	141.1	163.42	68.016	7.7253e-05	65.561	275.310	-10.013	28.902	-71.339	37.895	74.435	-72.753	-66.540	85.335	51.430	-69.488	-65.194	-62.460	-57.805	175.354	-61.990	-8191	255	
38957.410	1	1	0	0	0.043933	0.12049	0.40328	0.36314	0.13361	0.048107	0.23441	0.096021	0.1767	0.30567	0.38476	0.26492	0.32536	0.25546	0.092046	0.26874	-1.8104	-3.1688	-2.4792	-2.6021	-3.1688	-2.3125	-3.0521	-3.0792	-2.3021	-3.125	-2.7396	-2.45	-3.2083	-2.4354	-2.9	-3.1354	-61.122	-54.851	99.275	198.029	167.127	4.127	142.528	-74.603	-24.168	-41.518	182.299	208.038	242.237	268.510	14.514	232.417	0.00023066	7.7942e-05	0.00017269	859.28	8.2844e-06	8.045e-06	739.62	364.25	3.3711e-06	4.7023e-06	330.9	133.95	156.29	65.049	5.612e-07	61.996	0.0042963	0.0074156	0.0020698	891.64	7.0976e-05	8.3311e-05	769.6	378.21	7.1136e-05	8.082e-05	346.54	141.37	164.29	68.253	7.4085e-05	65.188	274.245	172.700	36.377	-71.285	63.154	87.711	-72.957	-66.370	120.729	60.481	-69.504	-65.460	-62.442	-58.108	6.728	-62.060	-8191	255	
38957.508	1	1	0	0	0.14975	0.096479	0.037449	0.3523	0.13931	0.26612	0.14001	0.24572	0.12805	0.15843	0.071925	0.39069	0.35599	0.080895	0.20364	0.3297	-1.6646	-3.0938	-2.8563	-2.7104	-2.9938	-2.5604	-2.7542	-3.1833	-2.2917	-3	-2.875	-2.2938	-3.1917	-2.4833	-2.7062	-3.2104	41.430	258.813	-76.544	236.120	138.528	154.087	176.859	117.959	243.772	27.698	250.946	-71.665	252.572	222.967	158.872	204.096	0.00026908	0.00072879	0.00027776	857.14	9.3259e-06	6.1736e-06	732.56	360.91	3.8075e-07	9.2848e-07	327.07	132.38	155.04	64.253	4.9422e-06	61.304	0.0042034	0.0072419	0.0020021	890.22	7.0552e-05	8.3307e-05	762.92	375.28	7.3521e-05	8.4099e-05	343.21	139.62	162.7	67.604	7.6551e-05	64.623	-64.130	-8.351	-12.808	-71.636	59.635	84.786	-73.014	-66.365	175.070	-36.241	-69.394	-65.558	-62.747	-58.184	26.081	-61.935	-8191	255	
38957.625	1	1	0	0	0.20966	0.073135	0.15429	0.12415	0.11346	0.011564	0.19196	0.12743	0.33821	0.16164	0.36132	0.30784	0.14313	0.23872	0.054462	0.24412	-1.7917	-2.8229	-2.9604	-2.2646	-3.0833	-2.4104	-2.6917	-3.2354	-2.25	-2.9062	-3.0187	-2.325	-3.0104	-2.6813	-2.4938	-3.1021	243.656	42.896	34.171	-46.391	121.563	175.921	239.584	230.189	105.131	174.913	189.566	217.802	251.522	271.931	217.865	211.351	0.00023516	0.0004665	8.4824e-05	850.38	6.5369e-06	1.1336e-05	732.72	358.44	1.8628e-06	7.8357e-06	326.05	132.6	154.81	64.311	6.7663e-06	61.523	0.0042552	0.0073582	0.0020121	881.34	7.0143e-05	8.1104e-05	758.21	373.06	7.012e-05	7.9171e-05	342.17	139.7	162.39	67.693	7.4631e-05	64.726	-68.219	1.308	28.400	-71.423	121.048	84.926	-72.977	-66.544	-15.945	56.818	-69.317	-65.361	-62.680	-58.039	86.196	-61.983	-8191	255	
38957.723	1	1	0	0	0.33898	0.081023	0.17765	0.22273	0.34899	0.099769	0.076198	0.18869	0.054434	0.11493	0.10867	0.40453	0.17334	0.017021	0.19082	0.28867	-1.9813	-2.9146	-2.95	-2.4021	-3.0125	-2.5938	-2.5	-3.2458	-2.3104	-2.9562	-3.0271	-2.2792	-3.1813	-2.7396	-2.4896	-3.2875	-55.321	14.628	-55.688	252.105	-10.948	64.795	194.158	230.217	273.323	9.422	273.216	-31.752	208.482	7.987	109.647	-84.217	0.00028808	0.00054129	0.00022054	850.66	2.5635e-06	8.4739e-06	732.8	359.28	5.9544e-06	8.7055e-06	328.46	132.9	155.18	64.164	2.2238e-06	61.507	0.0042091	0.0072042	0.0020165	883.12	7.0087e-05	8.1654e-05	761.18	374.82	7.1512e-05	8.3353e-05	343.76	140.07	163.4	67.761	7.9793e-05	64.827	274.560	-13.768	9.998	-71.401	163.278	42.877	-72.967	-66.595	84.418	77.547	-69.550	-65.392	-62.492	-58.111	119.126	-62.105	-8191	255	
38957.816	1	1	0	0	0.028721	0.33517	0.15101	0.17955	0.075451	0.075571	0.30554	0.20058	0.14069	0.037758	0.15174	0.25646	0.2087	0.15036	0.20792	0.15352	-2.0625	-2.6333	-3.0521	-2.2833	-3.0896	-2.7979	-2.5375	-3.3187	-2.3646	-2.6583	-3.2396	-2.5187	-3.1312	-3.0771	-2.3646	-3.2167	253.326	21.238	-56.895	262.690	258.806	212.022	247.941	154.880	-17.498	175.905	107.945	31.237	237.222	30.220	79.139	103.890	0.00025166	0.00054949	0.00018337	852.34	9.4552e-06	3.7766e-06	729.8	360.07	4.7089e-06	2.6923e-06	324.4	132.03	155.41	64.099	6.3243e-06	60.798	0.0044941	0.0078079	0.0021313	886.06	7.4745e-05	8.6218e-05	760.55	375.45	7.5852e-05	8.5783e-05	341.52	139.48	163.22	67.645	8.046e-05	64.083	-65.930	63.332	-53.400	-71.380	104.344	147.784	-72.865	-66.363	150.562	120.497	-69.554	-65.301	-62.615	-58.059	91.586	-62.027	-8191	255	
38957.891	1	1	0	0	0.033771	0.057764	0.18056	0.17145	0.20339	0.26425	0.15733	0.14743	0.15428	0.1521	0.058599	0.32326	0.084559	0.099419	0.25924	0.29821	-2.1542	-2.3042	-3.1146	-2.4646	-3.0438	-2.7667	-2.425	-3.3292	-2.5958	-2.5312	-3.1604	-2.4958	-2.9437	-3.0854	-2.2875	-3.1625	237.751	100.071	75.957	253.378	156.570	-46.450	-74.284	137.231	189.437	-15.087	195.104	190.119	129.916	11.680	185.154	235.878	0.00027994	0.0014193	3.3714e-05	851.82	6.5091e-06	2.9195e-06	722.38	355.44	2.9538e-06	5.9655e-06	318.09	130.31	153.54	63.232	7.3785e-06	59.582	0.0044977	0.0077692	0.0021353	883.53	7.4572e-05	8.7611e-05	753.97	371.82	7.7645e-05	8.9186e-05	337.02	137.4	161.67	66.608	8.246e-05	62.954	-73.945	10.388	33.154	-71.495	83.032	258.841	-72.973	-66.276	185.675	100.403	-69.555	-65.058	-62.372	-58.027	23.224	-61.908	-8191	255	
38958.012	1	1	0	0	0.22513	0.45871	0.14241	0.10654	0.34499	0.0963	0.32124	0.11948	0.066079	0.14621	0.1257	0.29656	0.3413	0.2798	0.10418	0.032379	-2.2687	-2.5042	-3.0563	-2.3937	-3.0062	-2.9854	-2.3708	-3.125	-2.6229	-2.3604	-3.1312	-2.5917	-2.7792	-3.1396	-2.0917	-3.1458	11.677	58.783	61.491	235.206	57.921	-38.230	171.097	168.955	268.832	113.756	207.306	221.816	218.324	236.466	270.673	83.717	0.00028762	0.00089654	0.00018161	851.37	9.4572e-06	3.4827e-06	722.76	356.31	3.6713e-06	4.4904e-06	321.02	129.46	153.43	63.126	5.891e-06	59.511	0.0046104	0.0079386	0.0022228	885.5	7.7463e-05	8.984e-05	755.35	371.63	7.8965e-05	9.1357e-05	338.32	137.31	161.87	66.604	8.7604e-05	63.032	-68.631	31.441	-5.095	-71.240	102.945	244.865	-72.801	-66.386	88.455	-6.939	-69.270	-65.386	-62.281	-58.084	40.708	-61.936	-8191	255	
38958.105	1	1	0	0	0.24653	0.15163	0.22536	0.17178	0.019251	0.070593	0.23115	0.36896	0.09321	0.16475	0.15588	0.17281	0.44218	0.072054	0.13453	0.18444	-2.2562	-2.2333	-3.2521	-2.5604	-2.5708	-3.2604	-2.3458	-3.0583	-3.0771	-2.2896	-3.2604	-2.6042	-2.5021	-3.1542	-2.1188	-3.0687	109.217	-36.208	236.355	157.659	160.801	-82.703	199.584	207.012	135.422	225.618	25.847	219.797	-52.779	145.385	236.996	176.435	0.0003447	0.00062634	0.0001806	850.43	1.0097e-05	6.3668e-06	724.91	356.94	3.2586e-06	3.8835e-06	320.73	130.43	154.77	63.298	1.2243e-06	59.683	0.0049054	0.0085195	0.0023771	886.34	8.332e-05	9.6492e-05	757.7	372.85	8.3398e-05	9.6261e-05	339.69	138.3	163.04	67.02	9.3778e-05	63.223	-72.558	7.482	37.111	-71.447	81.472	67.904	-72.684	-66.240	37.561	49.887	-69.451	-65.577	-62.223	-58.044	19.597	-61.926	-8191	255	
38958.203	1	1	0	0	0.26056	0.15071	0.087524	0.22299	0.097401	0.18557	0.063696	0.073785	0.14404	0.12981	0.14229	0.13045	0.22891	0.27316	0.25729	0.208	-2.5104	-2.2604	-3.0104	-2.6375	-2.3896	-3.0312	-2.3896	-3.0667	-2.8354	-2.2104	-3.2292	-2.7562	-2.4104	-3.1521	-2.2708	-2.8042	88.056	118.076	-29.800	191.589	158.628	213.999	1.655	181.274	-67.478	92.085	228.402	196.389	261.910	-78.839	100.324	149.212	0.00019735	0.0016357	0.00020657	853.46	1.0879e-05	4.239e-06	722.37	356.88	5.6553e-06	3.7188e-06	318.76	129.23	153.54	63.386	5.8662e-06	59.736	0.0052115	0.0089945	0.0024703	888.19	8.4179e-05	9.8485e-05	755.94	372.93	8.3982e-05	9.6768e-05	338.27	137.38	162.33	66.901	8.9364e-05	63.018	-83.459	-9.333	69.221	-71.508	98.219	71.174	-72.927	-66.129	99.762	60.465	-69.306	-65.671	-62.367	-57.934	101.598	-61.826	-8191	255	
38958.324	1	1	0	0	0.078294	0.21385	0.082697	0.096115	0.036641	0.093949	0.18443	0.36375	0.15388	0.12047	0.055591	0.19995	0.35931	0.12649	0.17273	0.088542	-2.5479	-2.2042	-2.9792	-2.9	-2.2708	-3.0938	-2.4313	-2.6063	-2.8583	-2.1937	-2.9708	-2.8125	-2.4208	-3.2062	-2.3833	-2.6479	221.681	3.133	238.932	180.360	190.097	40.822	189.639	192.831	-62.995	267.051	122.436	196.068	225.797	-0.556	143.788	193.699	0.00026662	0.00067179	7.4964e-05	847.91	6.1646e-06	3.4077e-06	721.72	355.03	8.4935e-06	6.1768e-06	320.48	130.38	154.11	63.419	5.5211e-06	60.019	0.0049438	0.0084571	0.0023296	883.66	7.9279e-05	9.2462e-05	752.97	370.96	7.9035e-05	9.2015e-05	338.6	137.51	162.09	66.917	8.2969e-05	63.319	-60.430	-65.536	-32.172	-71.490	69.989	176.141	-72.833	-66.118	110.926	90.321	-69.058	-65.315	-62.318	-57.942	14.885	-61.892	-8191	255	
38958.422	1	1	0	0	0.23833	0.03232	0.23491	0.26593	0.14684	0.053896	0.25464	0.24655	0.19821	0.33096	0.10362	0.13013	0.15863	0.29072	0.1418	0.044769	-2.8083	-2.175	-2.9708	-2.9333	-2.3563	-3.1354	-2.5625	-2.6562	-3.3021	-2.2292	-2.975	-2.7438	-2.3104	-3.1854	-2.4771	-2.7333	36.417	-39.295	167.679	260.392	74.614	108.259	172.017	164.359	-30.631	203.143	189.719	262.420	183.289	238.459	-5.852	225.541	0.00036991	0.00052213	0.00026605	848.47	1.1629e-05	4.3523e-06	727.19	357.74	2.109e-06	6.1262e-06	325.34	131.84	155.65	64.194	5.2673e-06	60.724	0.0046074	0.0079106	0.0021624	883.26	7.5791e-05	8.6206e-05	757.82	372.76	7.4326e-05	8.6171e-05	340.71	139.12	163.4	67.592	7.9549e-05	63.972	-75.331	-22.760	5.912	-71.438	79.464	50.994	-72.932	-66.306	124.003	95.536	-69.207	-65.408	-62.527	-58.043	52.641	-61.937	-8191	255	
38958.492	1	1	0	0	0.14831	0.074011	0.1998	0.3102	0.18913	0.11858	0.082543	0.32475	0.097051	0.10033	0.19405	0.017632	0.42113	0.18191	0.15051	0.13867	-2.9292	-2.1229	-2.6562	-2.9583	-2.35	-3.1667	-2.7354	-2.4813	-3.05	-2.4104	-2.9625	-3.1271	-2.3688	-3.2542	-2.7583	-2.7417	193.232	-27.241	29.009	227.610	4.707	164.965	189.201	274.395	228.234	211.979	230.043	-20.251	237.916	213.237	29.377	205.028	0.00023031	0.00054482	0.00013487	856.39	5.8338e-06	7.0541e-06	736.42	361.11	1.664e-06	5.1805e-06	324.7	132.66	157.26	64.591	3.436e-06	60.489	0.0044428	0.0077607	0.0021376	890.26	7.4613e-05	8.6958e-05	764.29	375.84	7.3981e-05	8.4851e-05	342.26	140.02	164.84	68.076	7.8809e-05	63.815	-82.756	-29.842	45.205	-71.591	79.434	88.541	-73.074	-66.135	124.230	68.617	-69.490	-65.517	-62.333	-58.030	39.603	-61.800	-8191	255	
38958.613	1	1	0	0	0.29519	0.17208	0.05607	0.26166	0.097896	0.26893	0.030201	0.1775	0.22338	0.052841	0.15236	0.25949	0.1936	0.28188	0.10965	0.18513	-2.7625	-2.2854	-2.6	-3.1958	-2.2458	-3.1646	-2.7521	-2.4125	-3.0792	-2.2854	-2.7854	-3.2896	-2.35	-3.0875	-2.7167	-2.4125	-63.345	271.373	254.240	-70.379	40.263	211.753	200.436	184.089	62.686	112.291	-56.701	256.908	193.058	-48.578	265.145	263.900	0.00028862	0.00046853	7.2142e-05	858.19	5.6632e-06	7.7307e-06	731.39	361.21	7.1882e-06	1.1144e-05	321.09	130.75	155.59	64.099	8.0234e-06	60.046	0.0044391	0.0076959	0.0021753	892.55	7.5932e-05	8.8421e-05	761.73	375.4	7.7263e-05	8.8529e-05	338.8	138.27	163.62	67.495	8.1399e-05	63.141	-80.228	22.322	-22.926	-71.437	108.105	44.730	-72.865	-66.440	136.411	76.745	-69.418	-65.306	-62.401	-57.795	41.861	-61.749	-8191	255	
38958.707	1	1	0	0	0.20016	0.18038	0.10464	0.19941	0.060541	0.10699	0.2676	0.16745	0.27483	0.21405	0.031535	0.16212	0.22003	0.0741	0.088803	0.18854	-2.8479	-2.3812	-2.5583	-3.1042	-2.4729	-2.9708	-2.8708	-2.4708	-3.1667	-2.4292	-2.4792	-3.1063	-2.5062	-3.0792	-2.7667	-2.3146	215.564	-68.598	229.675	-80.609	263.636	-55.273	194.325	219.610	189.027	105.479	99.347	-65.006	-30.908	-17.669	249.054	216.990	0.00038323	0.0012169	0.00014194	852.96	6.2766e-06	9.0775e-07	727.99	355.88	2.9053e-06	8.7782e-06	319.1	129.82	153.93	63.426	4.6953e-06	59.145	0.0045848	0.0079306	0.0021944	888.89	7.794e-05	9.024e-05	756.64	371.59	7.7956e-05	8.9415e-05	336.68	137.25	162.12	66.781	8.2235e-05	62.55	-73.864	-10.397	8.066	-71.356	35.851	68.811	-72.825	-66.045	61.519	44.285	-69.222	-65.361	-62.557	-57.985	86.303	-61.567	-8191	255	
38958.801	1	1	0	0	0.24099	0.078823	0.26567	0.052212	0.089098	0.05311	0.30811	0.020174	0.068312	0.12207	0.027756	0.13577	0.081649	0.068462	0.093183	0.18435	-2.6625	-2.4875	-2.3375	-3.2062	-2.3875	-2.7854	-3.0333	-2.375	-3.1354	-2.7479	-2.4062	-3.175	-2.5479	-2.7896	-3.1688	-2.3042	-33.271	225.153	64.329	188.386	-66.108	247.706	248.754	39.932	-23.924	-11.961	-3.068	-65.710	196.203	241.664	97.286	176.261	0.00030823	0.00066289	1.9744e-05	855.95	1.1992e-05	5.5704e-06	726.18	357.04	3.7641e-06	3.2433e-06	320.7	130.92	155.04	63.813	9.9251e-06	59.778	0.0045843	0.0078979	0.0021695	887.94	7.6414e-05	8.7843e-05	758.4	372.44	7.5692e-05	8.6206e-05	338.12	138.18	162.84	67.266	8.0944e-05	63.144	-63.187	-3.596	115.375	-71.408	72.663	66.550	-72.932	-66.312	128.670	-38.740	-69.606	-65.523	-62.395	-57.842	101.559	-61.771	-8191	255	
38958.922	1	1	0	0	0.019404	0.23502	0.31222	0.10265	0.10943	0.18481	0.24178	0.19681	0.23347	0.24465	0.19189	0.1447	0.14137	0.19848	0.10711	0.099824	-2.5417	-2.6729	-2.1188	-3.3104	-2.4021	-2.6125	-3.1583	-2.2812	-2.9729	-2.9604	-2.3979	-3.1667	-2.475	-2.7208	-3.1854	-2.4146	44.586	28.227	44.130	-82.039	3.389	-72.405	162.331	168.475	212.353	204.672	250.818	144.447	218.426	272.533	112.609	81.581	0.00037571	0.00035725	0.00032192	860.02	8.285e-06	5e-06	731.78	359.87	6.6938e-06	4.2725e-06	323.71	130.77	156.64	64.487	4.207e-06	60.013	0.00458	0.0078699	0.0021673	893.43	7.6059e-05	8.8049e-05	762.16	374.89	7.6051e-05	8.6277e-05	340.02	138.95	164.31	67.794	7.924e-05	63.254	-79.948	3.890	-6.053	-71.338	126.271	124.467	-73.114	-66.118	120.664	134.683	-69.436	-65.622	-62.501	-58.028	47.777	-61.883	-8191	255	
38959.020	1	1	0	0	0.24215	0.06349	0.25608	0.3351	0.091426	0.28947	0.19966	0.1685	0.34439	0.20792	0.27915	0.21009	0.10196	0.35796	0.16533	0.24691	-2.5938	-2.7708	-2.1708	-3.0729	-2.4479	-2.6854	-3.1667	-2.3937	-2.8021	-3.05	-2.3937	-3.0896	-2.8521	-2.6021	-3.1708	-2.3354	38.356	208.468	-10.151	167.478	113.377	-52.808	140.959	196.523	56.815	7.983	137.302	247.766	269.702	228.872	12.553	189.094	0.00029666	0.00027458	0.00028922	860.4	4.3423e-06	4.3789e-06	728.24	358.08	2.7309e-06	3.396e-06	320.39	130.98	155.33	63.882	6.9732e-06	59.431	0.0045162	0.0076459	0.0021461	893.07	7.5609e-05	8.7619e-05	758.05	373.17	7.6258e-05	8.697e-05	337.49	138.03	163.12	67.221	8.1178e-05	62.633	272.147	32.407	-18.605	-71.236	11.321	49.394	-73.004	-66.129	158.105	85.305	-69.544	-65.369	-62.508	-57.891	97.753	-61.929	-8191	255	
38959.113	1	1	0	0	0.10705	0.17058	0.050371	0.04349	0.062964	0.44767	0.16873	0.33936	0.14354	0.15917	0.077959	0.26716	0.22922	0.059758	0.12672	0.039158	-2.3604	-2.9333	-2.0875	-3.0687	-2.6125	-2.4604	-3.2583	-2.3563	-2.6813	-3.0708	-2.3583	-2.9938	-2.7687	-2.4938	-3.2333	-2.5687	124.410	207.530	151.566	123.397	55.582	184.682	233.802	222.786	9.095	250.796	161.599	204.616	230.196	19.782	49.688	248.919	0.00020531	0.00056063	0.00017739	858.4	4.3852e-06	4.0655e-06	726.4	355.23	1.3478e-06	4.2385e-07	319.86	130.49	154.85	63.617	1.0108e-05	59.641	0.0045123	0.0077768	0.0021395	890.18	7.3874e-05	8.6384e-05	756.05	370.95	7.4797e-05	8.41e-05	336.96	137.68	162.51	67.07	7.7965e-05	62.818	-80.784	5.338	28.422	-71.301	58.849	-28.921	-72.880	-66.258	60.301	204.991	-69.468	-65.127	-62.292	-57.797	88.644	-61.756	-8191	255	
38959.188	1	1	0	0	0.066177	0.17982	0.14712	0.23849	0.1132	0.17046	0.058647	0.28157	0.074135	0.20197	0.25664	0.42874	0.086049	0.17073	0.16437	0.34105	-2.1688	-3.1208	-2.2646	-3.1854	-2.9729	-2.4021	-3.1583	-2.5062	-2.4771	-3.2479	-2.225	-3.0375	-3.0104	-2.4833	-3.0896	-2.6063	67.768	179.741	93.795	272.155	234.324	220.198	255.009	206.402	193.977	36.360	260.414	239.929	215.274	269.026	241.044	204.497	0.00037073	0.00042407	0.00013552	856.33	2.9362e-06	9.1591e-06	734.02	358.49	3.9911e-06	1.2074e-06	322.88	132.34	156.29	64.579	4.8954e-06	60.886	0.0043361	0.0074388	0.0020656	889.01	7.0889e-05	8.3476e-05	761.17	373.45	7.1181e-05	8.1595e-05	339.54	139.35	164.02	67.948	7.5273e-05	63.851	-68.090	2.355	138.910	-71.549	82.494	49.397	-72.940	-66.249	116.198	21.281	-69.439	-65.332	-62.559	-57.911	-58.962	-61.850	-8191	255	
38959.309	1	1	0	0	0.21684	0.12752	0.13932	0.14913	0.060828	0.029337	0.19591	0.16245	0.19337	0.067419	0.082312	0.021296	0.13631	0.20258	0.25444	0.20717	-2.1354	-3.1021	-2.0438	-2.9646	-3.1104	-2.2833	-3.2062	-2.6917	-2.4917	-3.175	-2.4313	-2.9042	-3.0729	-2.3208	-3.1896	-2.6729	183.220	67.697	175.114	205.502	98.910	-7.453	171.695	-27.670	-19.020	72.595	195.636	54.510	140.059	260.874	-75.447	159.964	0.00035356	0.00042637	9.56e-05	861.1	6.5806e-06	6.8881e-06	737.83	360.73	3.3991e-06	8.7611e-06	323.69	132.82	157.5	65.006	1.2034e-05	60.386	0.0042105	0.007268	0.0020157	894.91	6.9135e-05	8.1056e-05	764.85	375.97	6.9873e-05	8.0189e-05	340.67	139.93	164.95	68.368	7.4605e-05	63.604	-72.126	19.235	13.386	-71.370	50.604	110.341	-72.815	-66.302	54.413	60.111	-69.387	-65.312	-62.639	-57.957	77.469	-61.674	-8191	255	
38959.402	1	1	0	0	0.17223	0.27542	0.15658	0.29364	0.15868	0.17186	0.23087	0.14066	0.11408	0.12115	0.12093	0.21625	0.37145	0.27794	0.074012	0.37294	-1.9417	-2.9979	-2.3625	-2.6937	-3.0875	-2.175	-3.2417	-2.6896	-2.2854	-3.2167	-2.675	-2.5979	-3.0896	-2.4375	-2.9583	-2.8896	178.053	58.353	-47.543	-65.160	152.523	229.251	40.407	170.087	-2.369	262.097	33.531	-8.252	257.390	227.936	104.454	212.299	0.00029718	0.00082529	8.5748e-05	859.3	7.3305e-06	7.6442e-06	731.64	361.93	5.7621e-06	2.9595e-06	321.21	131.86	156.73	64.516	5.0247e-06	60.041	0.0042064	0.00718	0.0019973	893.03	6.7942e-05	7.9988e-05	760.65	374.85	6.8328e-05	7.8235e-05	337.81	138.57	163.96	67.748	7.32e-05	63.189	269.773	13.481	25.439	-71.241	118.093	52.083	-72.849	-66.496	83.951	31.001	-69.439	-65.155	-62.524	-58.114	27.156	-61.920	-8191	255	
38959.500	1	1	0	0	0.12657	0.20125	0.037835	0.070625	0.063606	0.18578	0.092237	0.3405	0.22921	0.16854	0.19276	0.24211	0.28886	0.29382	0.059154	0.10208	-2.05	-2.9417	-2.3937	-2.6896	-3.1833	-2.2542	-2.8792	-2.9271	-2.1729	-3.1396	-2.5208	-2.6354	-3.2854	-2.4	-3.025	-3.0542	27.480	224.107	92.774	238.129	5.856	52.889	86.066	247.243	-28.622	145.048	206.335	160.764	253.266	199.772	77.106	151.138	0.00030041	0.00039619	8.9641e-05	859.88	5.985e-06	8.3192e-06	728.9	357.49	2.396e-06	1.0134e-05	321.52	131.38	155.17	64.194	1.9671e-06	59.947	0.0041306	0.0071136	0.0020006	890.11	6.853e-05	8.1428e-05	758.31	371.88	7.0167e-05	8.0981e-05	337.13	138.46	162.91	67.494	7.6095e-05	63.034	-69.447	10.796	-27.533	-70.958	106.602	39.701	-72.868	-66.362	126.276	84.774	-69.537	-65.415	-62.453	-58.081	229.000	-62.018	-8191	255	
38959.594	1	1	0	0	0.053816	0.10277	0.020776	0.13504	0.081362	0.12019	0.31012	0.35626	0.4173	0.28602	0.1363	0.23338	0.17818	0.15572	0.15097	0.29943	-1.9146	-3.1646	-2.5563	-2.3646	-2.9583	-2.3417	-2.8917	-3.1708	-2.1792	-3.0625	-2.7438	-2.4271	-3.2979	-2.4625	-2.6542	-3.1917	170.854	193.330	254.753	250.283	-38.438	160.298	194.699	194.478	127.943	-31.091	249.762	262.388	-81.207	263.474	-28.323	257.444	0.00026518	0.0004187	3.7543e-05	855.71	3.1159e-06	5.9803e-06	727.57	358.12	4.5828e-06	7.4678e-06	319.91	131.22	155.58	64.02	5.1998e-06	59.563	0.0042757	0.0073748	0.0020517	889.58	7.1817e-05	8.3922e-05	759.95	372.82	7.3005e-05	8.3852e-05	337.57	138.45	163.55	67.449	7.7892e-05	62.794	-54.456	-6.458	53.772	-71.561	-51.649	18.383	-73.011	-66.242	49.897	26.723	-69.642	-65.307	-62.312	-58.063	110.135	-61.908	-8191	255	
38959.691	1	1	0	0	0.28897	0.11928	0.1863	0.19624	0.1519	0.11428	0.22655	0.28599	0.17427	0.27917	0.21089	0.16634	0.064906	0.32056	0.15335	0.18034	-1.7188	-3.0042	-2.6646	-2.5	-3.0521	-2.5021	-2.6896	-3.1292	-2.2396	-2.9146	-2.7208	-2.3354	-3.2875	-2.5417	-2.65	-3.1625	144.370	51.101	263.835	240.293	-49.030	212.929	-75.035	260.643	-56.902	102.933	220.735	247.826	206.777	223.200	40.596	158.441	0.000237	0.00071404	7.4322e-05	859.52	2.4095e-06	7.1759e-06	727.69	358.12	5.7233e-06	8.4346e-06	318.48	129.32	154.43	63.559	8.459e-06	58.153	0.0043956	0.0076191	0.0021105	893.93	7.4335e-05	8.7045e-05	757.07	372.43	7.4802e-05	8.5995e-05	334.62	136.76	162.29	66.887	8.2444e-05	61.592	251.127	39.242	16.294	-71.371	-6.256	76.581	-72.861	-66.305	123.125	93.288	-69.659	-65.407	-62.249	-58.133	32.343	-61.770	-8191	255	
38959.785	1	1	0	0	0.11245	0.062134	0.10809	0.38103	0.06548	0.050254	0.039446	0.1041	0.28994	0.054297	0.20587	0.25516	0.17218	0.17002	0.13046	0.42295	-1.9604	-2.8458	-2.7313	-2.3104	-3.0271	-2.5375	-2.7229	-3.1937	-2.3208	-2.6729	-3.1292	-2.3021	-3.1771	-2.6854	-2.4604	-3.1979	-23.743	139.084	12.299	246.607	127.110	86.468	-46.363	204.709	-33.592	-18.948	228.196	242.366	237.816	272.043	7.821	140.092	0.00022179	0.00028482	0.00014463	849.7	6.1554e-06	8.3354e-06	719.36	351.57	6.9533e-06	5.2821e-06	313.18	127.75	152.07	62.223	1.8085e-06	57.335	0.0046919	0.0081294	0.0022462	884.04	7.846e-05	9.0935e-05	749.18	367.27	7.903e-05	8.9923e-05	329.85	134.93	159.98	65.5	8.4813e-05	60.64	-83.946	-28.698	17.291	-71.258	83.769	104.930	-72.972	-66.331	117.544	41.750	-69.453	-65.504	-62.155	-58.084	28.328	-61.803	-8191	255	
38959.883	1	1	0	0	0.094918	0.18397	0.091205	0.061712	0.14815	0.12476	0.33986	0.23051	0.059376	0.36169	0.14599	0.073037	0.24204	0.11925	0.13345	0.020013	-1.8479	-2.6354	-2.9146	-2.2396	-2.9042	-2.6937	-2.4625	-3.1271	-2.3417	-2.6208	-3.1333	-2.2042	-3.1292	-2.825	-2.5521	-3.1917	173.554	214.127	93.034	-56.444	91.678	105.123	232.599	255.424	123.153	165.201	148.847	80.086	227.294	-53.546	183.241	259.261	0.00028637	9.5623e-05	0.00012563	845.86	4.4438e-06	7.6046e-06	714.15	350.71	4.4297e-06	6.6883e-06	310.13	126.98	151.38	61.83	2.1703e-06	57.253	0.0047763	0.0080709	0.0022627	880.39	7.8743e-05	9.1075e-05	745.11	365.38	7.9739e-05	9.1861e-05	328.09	134.32	159.32	65.307	8.5371e-05	60.477	-67.634	87.570	-11.750	-71.351	3.012	126.639	-73.112	-66.347	75.068	44.462	-69.529	-65.413	-62.399	-58.096	0.117	-61.646	-8191	255	
38960.004	1	1	0	0	0.078541	0.1667	0.28782	0.2009	0.18045	0.20805	0.17404	0.29365	0.29442	0.036813	0.13452	0.047667	0.23474	0.22589	0.087724	0.32711	-2.0521	-2.6167	-2.9833	-2.2667	-2.9521	-2.6063	-2.3812	-3.3875	-2.4417	-2.4354	-3.0979	-2.1417	-3.0375	-2.8417	-2.1875	-3.0646	157.899	50.444	80.917	-67.095	101.866	-75.267	191.689	-79.456	84.832	244.802	92.358	13.301	-65.130	199.448	150.800	268.460	0.00033348	0.00013719	0.0001312	848.36	3.8571e-06	6.0466e-06	715.26	350.16	6.4272e-06	1.5333e-06	313.62	126.94	151.88	61.988	9.3713e-06	56.92	0.0047748	0.008196	0.00225	881.48	7.893e-05	9.1384e-05	745.31	365.67	7.9534e-05	9.0828e-05	329.7	134.79	159.76	65.561	8.5597e-05	60.266	274.289	-13.776	5.162	-71.254	-5.696	49.285	-73.242	-66.357	70.672	11.837	-69.424	-65.406	-62.434	-58.144	31.866	-61.794	-8191	255	
38960.102	1	1	0	0	0.09948	0.12012	0.1255	0.10782	0.17804	0.10613	0.080268	0.16109	0.03256	0.015739	0.10835	0.14902	0.21761	0.1827	0.060712	0.19842	-2.0667	-2.3937	-2.7979	-2.1458	-2.8417	-2.7896	-2.4208	-3.1667	-2.5875	-2.4146	-3.3479	-2.4562	-2.9188	-3.1813	-2.525	-2.9604	93.260	243.360	27.547	262.920	146.428	-40.657	193.322	62.276	268.022	187.648	274.703	-14.726	-79.376	251.419	4.334	209.771	0.00031008	0.00028767	0.00026992	840.48	7.6029e-06	9.0825e-06	709.1	347.9	3.2979e-06	5.6492e-06	308.72	126.03	150.27	61.703	1.0384e-05	56.632	0.0047532	0.0081661	0.0022632	878	7.9151e-05	9.1228e-05	740.48	363.67	8.0428e-05	9.3002e-05	325.96	133.33	158.47	65.043	8.4278e-05	59.837	275.637	-83.370	13.738	-71.360	59.750	49.868	-72.832	-66.259	9.170	85.868	-69.695	-65.638	-62.575	-58.248	97.754	-61.998	-8191	255	
38960.195	1	1	0	0	0.26736	0.19911	0.094018	0.12424	0.12557	0.18783	0.054797	0.040995	0.035543	0.10152	0.033619	0.26786	0.078675	0.14285	0.11525	0.067514	-2.1583	-2.475	-3.1437	-2.375	-2.4375	-3.1521	-2.3417	-3.2062	-2.7333	-2.2542	-3.2292	-2.5125	-2.7812	-3.2646	-2.2396	-3.0146	20.434	102.351	213.871	19.675	57.803	-40.170	224.778	-50.758	160.666	-8.460	-30.682	270.029	252.061	231.235	28.588	236.070	0.0003133	0.00072051	0.00023936	840.28	7.5765e-06	6.7002e-06	703.25	346.04	1.127e-05	2.7533e-06	306.83	125.4	149.91	61.37	1.0258e-05	56.185	0.0047295	0.0080967	0.0022247	872.11	7.7547e-05	9.1085e-05	735.37	361.05	7.9166e-05	9.1083e-05	324.6	133.11	157.73	64.734	8.6812e-05	59.648	-78.729	32.361	21.277	-71.513	95.221	66.050	-73.073	-66.122	79.125	96.815	-69.549	-65.476	-62.321	-58.088	54.856	-61.718	-8191	255	
38960.293	1	1	0	0	0.13648	0.24531	0.27441	0.21476	0.18992	0.15242	0.11442	0.08992	0.24515	0.14968	0.05926	0.17927	0.33414	0.20029	0.135	0.26748	-2.5333	-2.3771	-3.1125	-2.5396	-2.4542	-3.0417	-2.4125	-3.1437	-2.9854	-2.4021	-3.2521	-2.6646	-2.55	-3.15	-2.3021	-3.0062	4.095	184.034	194.127	119.340	-38.910	-49.852	242.334	262.132	44.514	140.629	230.318	179.074	-47.751	195.273	185.980	188.521	0.00034239	0.00047161	0.00012785	837.68	7.4154e-06	5.6925e-06	702.82	345.13	3.5757e-06	9.6756e-06	308.49	125.22	150.05	61.357	7.2583e-06	56.19	0.0048453	0.0084666	0.0023496	870.99	8.2917e-05	9.7516e-05	735.4	361.51	8.582e-05	9.8944e-05	325.95	133.42	158.54	65.007	9.8074e-05	59.921	-64.809	0.471	39.830	-71.156	161.878	34.139	-72.828	-66.061	92.384	59.610	-69.348	-65.286	-62.441	-58.094	49.411	-61.614	-8191	255	
38960.414	1	1	0	0	0.36126	0.35379	0.059594	0.13442	0.20789	0.1119	0.44536	0.048844	0.21315	0.070606	0.27122	0.13389	0.20232	0.14235	0.2141	0.21168	-2.4375	-2.0792	-3.0542	-2.5708	-2.35	-3.2104	-2.4604	-2.85	-3.0625	-2.3458	-2.9896	-2.6729	-2.4333	-3.2646	-2.3896	-2.8958	238.927	-34.430	-49.685	-81.392	-63.094	-0.818	-76.581	-82.490	18.562	-56.787	-59.505	232.685	-59.870	252.144	275.756	171.413	0.00024349	0.00022114	0.00016052	836.34	5.675e-06	4.5587e-06	700.63	346.68	2.9373e-06	8.7953e-06	306.61	124.96	149.95	61.52	7.1311e-06	56.262	0.0055244	0.0096854	0.0026524	874.53	9.2662e-05	0.0001073	738.36	363.56	9.2182e-05	0.00010492	326.11	133.42	158.93	65.309	9.757e-05	59.949	-69.256	-1.794	-30.272	-71.346	66.514	-8.542	-72.872	-65.953	207.519	102.492	-69.265	-65.266	-62.250	-58.147	67.110	-61.651	-8191	255	
38960.484	1	1	0	0	0.16451	0.096927	0.13545	0.089015	0.084121	0.2275	0.25294	0.42716	0.068537	0.18132	0.24208	0.13763	0.093922	0.30153	0.10901	0.13348	-2.7521	-2.1917	-3.1312	-2.7021	-2.2333	-3.1583	-2.5396	-2.7417	-3.0354	-2.3729	-3.1354	-2.8208	-2.3625	-3.2146	-2.5146	-2.6333	257.271	176.165	-59.072	111.148	119.865	-64.555	245.423	268.853	40.341	274.036	167.251	143.641	184.452	272.432	-5.340	220.922	0.00028255	0.00069329	0.00021942	839.08	1.1891e-05	9.938e-06	701.4	346.01	1.8279e-06	6.5182e-06	305.71	124.72	149.27	61.046	9.2644e-06	55.838	0.0053931	0.0094248	0.0026251	875.83	9.167e-05	0.00010715	735.89	362.52	9.1812e-05	0.00010501	324.39	132.73	158.04	64.778	9.8991e-05	59.469	-57.720	-11.333	72.182	-71.113	149.772	116.585	-72.885	-65.946	-68.192	77.235	-69.489	-65.435	-62.505	-58.048	37.364	-61.592	-8191	255	
38960.578	1	1	0	0	0.12919	0.13164	0.061991	0.13554	0.11984	0.08713	0.11323	0.29822	0.25209	0.34044	0.17777	0.18089	0.14883	0.049863	0.10806	0.2646	-2.6104	-2.4375	-2.9938	-2.9104	-2.3333	-3.2833	-2.7146	-2.5667	-2.9938	-2.2292	-2.975	-3.0083	-2.2896	-3.2958	-2.6688	-2.7417	192.018	67.664	209.884	-17.677	222.409	50.984	247.993	171.773	79.547	156.302	238.098	-17.422	249.377	73.558	222.084	271.641	0.00013967	0.00076825	0.00012384	835.28	3.1313e-06	1.8792e-06	697.41	343.14	4.3479e-06	9.238e-06	303.98	123.9	148.8	60.915	6.5561e-06	55.643	0.0055402	0.0096268	0.0026749	870.93	9.3824e-05	0.00010978	732.41	360.62	9.3704e-05	0.00010857	323.69	132.31	157.41	64.549	0.00010182	59.282	269.324	-24.684	-7.834	-71.308	117.802	145.855	-72.942	-65.974	131.479	54.397	-69.011	-65.125	-62.186	-57.625	110.725	-61.754	-8191	255	
38960.699	1	1	0	0	0.0426	0.098927	0.26921	0.04909	0.1277	0.30744	0.25872	0.043729	0.27193	0.047461	0.16578	0.1872	0.2214	0.39735	0.29557	0.15695	-2.9437	-2.2458	-2.6896	-3.0604	-2.2667	-3.0396	-2.7771	-2.6021	-3.15	-2.5542	-2.8375	-3.2188	-2.3146	-3.0646	-2.7833	-2.4333	235.677	-10.243	45.797	240.947	-17.578	-24.499	-10.519	76.426	-46.121	-11.002	221.644	238.848	208.630	237.497	5.732	-80.204	0.00027417	0.00025396	0.00019812	834.12	8.948e-06	5.3828e-06	702.17	345.49	1.7398e-06	5.3391e-06	305.2	124.95	149.38	61.312	1.1698e-05	56.068	0.0056854	0.010043	0.0027636	874.17	9.701e-05	0.00011313	738.32	362.06	9.4902e-05	0.00011047	325.83	133.06	158.32	64.996	0.00010422	59.795	266.169	-46.454	69.636	-71.145	66.585	186.344	-72.636	-66.032	182.619	50.691	-69.143	-65.301	-61.926	-57.733	141.247	-61.510	-8191	255	
38960.797	1	1	0	0	0.16199	0.13844	0.32297	0.12861	0.18119	0.12296	0.060063	0.11795	0.10533	0.42317	0.048909	0.24564	0.056631	0.22843	0.23782	0.084335	-2.7292	-2.4083	-2.5958	-3.1396	-2.1646	-2.9604	-2.8563	-2.4562	-3.2271	-2.4458	-2.6271	-3.1562	-2.3146	-3.1562	-2.8667	-2.5062	122.178	41.809	181.712	268.691	-12.343	211.027	58.353	5.112	-51.341	178.134	272.405	-68.382	-56.875	228.933	15.883	165.557	0.00033812	0.00066365	0.00019038	835.64	4.4208e-06	3.2551e-06	701.69	347.19	6.517e-06	4.2462e-06	305.41	125.17	150.08	61.492	9.5795e-06	55.977	0.0058071	0.010341	0.0028508	877.73	0.00010056	0.00011897	740.01	364.33	0.0001004	0.00011451	326.54	133.43	159.03	65.22	0.00010425	59.866	-80.100	-66.579	15.713	-70.954	122.964	107.922	-72.686	-65.870	-8.136	22.387	-69.143	-65.155	-62.192	-57.672	96.023	-61.485	-8191	255	
38960.891	1	1	0	0	0.24586	0.11137	0.18333	0.26681	0.29769	0.20606	0.16648	0.14927	0.16195	0.067895	0.21358	0.24925	0.24913	0.13679	0.21257	0.01217	-2.7396	-2.5875	-2.6271	-3.2417	-2.4292	-2.9854	-3.0812	-2.4271	-2.925	-2.4458	-2.4792	-3.1979	-2.4938	-3.0417	-3.0833	-2.5208	93.698	213.446	-67.968	244.701	178.939	185.804	163.804	-79.012	-76.060	-9.366	239.456	-57.824	238.853	-72.435	84.960	-40.013	0.00026842	0.00042353	4.8229e-05	837.43	2.9467e-06	2.3327e-06	699.56	344.47	1.4443e-06	8.9974e-06	304.15	124.04	147.9	60.734	9.4856e-07	55.35	0.0059006	0.010362	0.0028982	876.74	0.00010192	0.00011734	736.98	361.85	0.00010194	0.00011772	324.69	132.58	157.42	64.472	0.00010991	59.175	270.184	-57.951	43.594	-71.148	152.970	-48.052	-72.793	-66.214	122.136	85.097	-68.966	-65.296	-62.302	-57.631	61.065	-61.582	-8191	255	
38961.012	1	1	0	0	0.10242	0.22509	0.1377	0.13495	0.3548	0.13703	0.32764	0.42183	0.16364	0.22636	0.36503	0.35122	0.1197	0.37671	0.1595	0.27125	-2.6625	-2.6937	-2.375	-3.1104	-2.3542	-2.6583	-3.0854	-2.4062	-3.0563	-2.6479	-2.3083	-3.0542	-2.5521	-2.7354	-3.1354	-2.3125	119.028	-17.266	165.827	0.314	269.070	10.172	162.342	247.091	220.177	128.108	-78.527	247.041	251.946	227.445	29.992	222.687	0.00034344	0.00057631	0.00022581	830.63	1.1447e-06	9.7382e-06	696.73	341.96	6.7713e-07	4.0673e-06	302.54	123.53	147.81	60.606	5.0433e-06	55.575	0.0061669	0.010828	0.002967	874.26	0.00010438	0.00012198	737.2	360.55	0.00010293	0.00011715	323.68	132.2	157.18	64.449	0.00010587	59.298	-75.917	-25.616	38.534	-71.133	172.038	-20.514	-72.836	-66.097	34.065	149.295	-69.306	-65.062	-62.172	-57.721	104.794	-61.389	-8191	255	
38961.086	1	1	0	0	0.030627	0.10372	0.099628	0.081418	0.1042	0.035363	0.26683	0.19421	0.12268	0.11886	0.22783	0.1608	0.24245	0.19838	0.077948	0.19513	-2.6417	-2.9042	-2.1667	-3.3292	-2.475	-2.7104	-3.1396	-2.2354	-2.8708	-2.8563	-2.3083	-3.3125	-2.575	-2.5396	-3.1771	-2.325	218.581	133.685	200.414	-43.093	76.093	7.447	172.473	236.672	123.011	157.512	230.008	258.191	254.396	-51.207	260.022	244.734	0.000304	0.00078637	0.00011686	838.37	7.5511e-06	3.1185e-06	705.14	345.89	6.7654e-06	7.2045e-06	306.33	125.52	149.85	61.268	5.4428e-06	56.368	0.0058029	0.010191	0.0028364	878.01	9.887e-05	0.00011584	742.04	363.2	0.00010066	0.00011532	326.97	133.98	159.08	65.146	0.00010593	60.148	-69.541	50.793	-62.160	-71.021	63.207	62.705	-72.996	-66.193	80.696	31.451	-69.030	-64.971	-61.975	-57.634	92.881	-61.539	-8191	255	
38961.180	1	1	0	0	0.21602	0.082317	0.18073	0.25836	0.037359	0.12723	0.17535	0.2114	0.19044	0.30821	0.11384	0.078583	0.13899	0.25694	0.02684	0.12773	-2.3375	-2.9479	-2.4021	-3.2521	-2.4542	-2.5229	-3.0854	-2.4354	-2.8417	-3.0146	-2.2	-3.2458	-2.7396	-2.6125	-3.1271	-2.5021	171.606	-34.199	197.561	248.579	-45.326	153.875	170.680	266.903	241.896	83.035	-25.781	164.638	4.895	248.455	-34.558	214.095	0.00021363	0.00041127	6.2135e-05	836.34	2.312e-06	7.0707e-06	704.94	346.47	6.6688e-06	2.5534e-06	306.5	125.54	149.86	61.874	6.5291e-06	56.093	0.0058688	0.010269	0.0028274	879.69	9.8321e-05	0.0001153	741.82	364.26	9.9372e-05	0.00011224	326.41	133.93	158.67	65.363	0.00010476	59.822	-72.263	-16.418	4.375	-71.193	189.164	93.305	-72.817	-65.940	-3.262	76.451	-69.250	-65.157	-62.037	-57.696	104.952	-61.530	-8191	255	
38961.277	1	1	0	0	0.19583	0.2611	0.13826	0.27279	0.28237	0.16808	0.033185	0.13157	0.24706	0.083582	0.077818	0.0033688	0.13291	0.20369	0.26938	0.049662	-2.3812	-2.8021	-2.0917	-2.9917	-2.6292	-2.3042	-3.1292	-2.4	-2.4542	-3.0292	-2.2521	-2.8917	-2.8583	-2.3896	-3.0583	-2.4979	215.707	26.547	147.343	229.416	97.988	1.481	-48.947	199.406	-10.400	248.634	150.031	177.695	-46.769	214.164	5.962	131.445	0.00024183	0.00075088	0.00018164	833.65	1.4147e-05	1.0204e-05	704.36	344.8	2.5357e-07	5.1233e-06	303.71	124.22	148.18	60.695	9.1009e-06	55.414	0.0058798	0.010275	0.002872	876.04	9.9733e-05	0.00011642	740.04	362.34	0.00010216	0.0001151	325.03	132.89	157.26	64.439	0.0001073	59.308	257.873	-52.944	2.639	-71.056	66.849	73.241	-72.758	-65.894	-70.567	63.265	-68.823	-65.076	-62.082	-57.868	70.043	-61.240	-8191	255	
38961.371	1	1	0	0	0.2293	0.15794	0.014961	0.070044	0.17736	0.23757	0.10023	0.25821	0.11708	0.30252	0.19311	0.053132	0.09753	0.26094	0.072463	0.19349	-2.0396	-3.0667	-2.3875	-2.9021	-2.8708	-2.2792	-3.1042	-2.6042	-2.55	-3.1792	-2.3	-2.6875	-3.0083	-2.4521	-3.1542	-2.7021	23.461	145.872	-51.547	235.040	-49.485	232.889	89.827	231.131	-0.840	251.894	227.291	171.370	38.315	250.049	49.162	214.111	0.00024145	0.0006245	0.00014428	834.41	1.3175e-05	5.9523e-06	699.15	342.13	5.1801e-06	7.1549e-06	302.38	123.46	147.34	60.326	8.1712e-06	54.781	0.0059374	0.010437	0.002949	875.76	0.0001021	0.00012006	738.02	359.98	0.00010416	0.00012123	323.61	132.56	156.88	64.093	0.00011447	58.983	-64.554	26.043	-47.590	-71.093	114.921	28.903	-72.659	-65.862	36.891	55.210	-69.346	-65.137	-62.177	-57.643	100.868	-61.787	-8191	255	
38961.492	1	1	0	0	0.16175	0.054261	0.22984	0.48212	0.14572	0.10382	0.12366	0.23235	0.14577	0.031192	0.11137	0.19829	0.28842	0.13934	0.16203	0.088617	-2.0563	-3.0667	-2.0271	-2.8708	-2.9562	-2.2083	-2.9729	-2.525	-2.3771	-3.0958	-2.2792	-2.6937	-3.1292	-2.4917	-2.9417	-2.7708	247.808	213.556	55.091	273.079	84.004	3.428	235.758	120.367	193.530	239.243	209.995	266.359	218.532	251.149	29.208	184.404	0.00016787	0.00058349	0.00015705	833.2	7.5035e-06	5.4813e-06	701.66	343.44	2.3036e-06	7.1708e-06	300.69	123.2	148.08	60.145	5.113e-07	54.803	0.0062973	0.011079	0.0030741	875.92	0.00010576	0.0001252	740.19	361.58	0.00010995	0.00012645	323.84	132.46	157.28	64.058	0.00011496	58.789	-76.727	16.249	39.564	-70.898	30.403	63.341	-72.932	-66.237	258.623	60.674	-69.337	-64.750	-62.277	-57.540	48.140	-61.681	-8191	255	
38961.586	1	1	0	0	0.056434	0.27701	0.10585	0.16496	0.22791	0.1802	0.21505	0.35916	0.13435	0.043152	0.32016	0.070554	0.051869	0.10414	0.11169	0.3857	-1.7917	-3.1188	-2.1542	-2.8917	-2.9667	-2.125	-3.0187	-2.8979	-2.2229	-3.0042	-2.4417	-2.7313	-3.2062	-2.3771	-3.1208	-2.7667	158.015	122.935	23.857	213.870	136.207	165.979	265.750	215.002	-53.532	-25.132	251.405	178.757	274.127	263.528	216.484	249.918	0.00039949	0.00061696	0.00016134	835.81	6.2729e-06	5.0825e-06	697.11	342.19	2.8304e-06	1.0411e-05	299.36	122.22	147.24	59.874	9.9899e-06	54.072	0.0063997	0.011218	0.0031073	877.38	0.00010948	0.00013032	738.68	360.68	0.0001144	0.00013115	322.5	131.88	156.84	63.893	0.00012424	58.421	-77.385	24.663	-12.080	-71.214	149.051	96.839	-72.765	-65.904	-14.153	93.630	-68.838	-65.156	-62.178	-57.866	57.294	-61.530	-8191	255	
38961.684	1	1	0	0	0.18434	0.20135	0.17671	0.13882	0.16719	0.16873	0.15563	0.21368	0.33197	0.28379	0.10108	0.14995	0.17626	0.26638	0.048457	0.036765	-1.7958	-2.975	-2.625	-2.6021	-3.0833	-2.2771	-2.9979	-3.1604	-2.2604	-3.0958	-2.5792	-2.6375	-3.3917	-2.4396	-2.8375	-2.9771	-38.726	157.783	-49.134	226.211	183.390	175.678	203.558	230.824	-47.346	52.488	-29.989	-70.445	230.220	-65.868	231.508	38.580	0.00024134	0.0003711	9.2314e-05	830.57	2.1866e-06	6.7832e-06	692.29	338.45	1.0091e-05	1.0288e-05	297.35	121.43	145.38	59.541	8.5098e-06	53.904	0.006828	0.012107	0.0033669	875.62	0.00011786	0.00013826	736.02	358.29	0.00012126	0.00014025	321.67	131.38	155.93	63.61	0.00013543	58.234	-73.776	38.928	-3.523	-71.103	77.459	14.497	-72.487	-65.836	58.744	53.119	-69.287	-64.938	-61.944	-57.723	46.289	-61.413	-8191	255	
38961.781	1	1	0	0	0.042223	0.089989	0.13132	0.10194	0.10127	0.29973	0.23124	0.27497	0.12517	0.12361	0.262	0.12573	0.38249	0.19278	0.10401	0.19138	-1.7792	-2.9458	-2.6542	-2.5438	-3.1604	-2.1729	-2.7833	-3.0729	-2.2792	-2.9938	-2.5896	-2.4375	-3.2125	-2.6063	-2.5208	-3.2896	47.594	196.350	29.927	185.809	-44.312	179.080	273.035	245.754	109.455	239.707	229.893	190.538	-71.204	273.762	99.201	250.079	0.00026506	0.00062211	0.00013038	830.2	5.4632e-06	8.7258e-06	695.28	339.79	3.9539e-06	5.1964e-06	296.13	121.64	146.13	59.474	8.7011e-06	53.492	0.0075508	0.013391	0.0037166	879.76	0.00013146	0.00015313	743.28	359.37	0.00012897	0.00014825	322.73	131.84	156.89	63.899	0.00013943	58.228	265.328	33.485	20.149	-71.007	23.625	111.121	-72.602	-65.929	108.373	23.001	-69.251	-65.393	-61.949	-57.753	54.085	-61.726	-8191	255	
38961.875	1	1	0	0	0.29466	0.11962	0.20031	0.062704	0.21679	0.092322	0.0064518	0.20979	0.26443	0.08963	0.080683	0.1728	0.17479	0.18133	0.065895	0.27714	-1.7437	-3.1896	-2.6521	-2.5	-3.1708	-2.5958	-2.8438	-3.0729	-2.3	-3.0521	-3.1667	-2.3125	-3.1333	-2.6229	-2.2438	-3.1479	221.812	119.046	100.641	-65.944	-74.687	161.448	195.339	90.214	35.504	-61.995	180.284	53.537	231.787	242.872	230.387	122.884	0.00032322	0.00018839	9.884e-05	837.67	7.1768e-06	1.9667e-06	703.03	340.85	5.5368e-06	1.1737e-05	297.54	121.51	146.99	60.148	5.5734e-06	53.612	0.007796	0.013771	0.0037875	886.94	0.00013051	0.00015126	747.25	362.25	0.00012779	0.00014623	323.48	131.94	157.06	64.452	0.00013719	58.206	-73.647	6.526	-44.143	-70.993	-8.536	95.438	-72.721	-65.866	58.755	59.399	-69.236	-65.266	-61.809	-57.702	67.624	-61.665	-8191	255	
38961.973	1	1	0	0	0.20051	0.41133	0.24157	0.28753	0.10576	0.12911	0.29566	0.23874	0.14518	0.16639	0.31423	0.18733	0.2022	0.34791	0.15889	0.32394	-1.8604	-2.8146	-2.6896	-2.3896	-2.8708	-2.4146	-2.4125	-3.2896	-2.2917	-2.7812	-2.9896	-2.3083	-3.2042	-2.6042	-2.5021	-3.2	128.346	-39.220	-76.459	214.753	227.880	247.215	35.048	240.189	193.108	196.879	275.950	86.313	-25.264	251.670	-24.450	260.793	0.00026769	0.00039886	0.00019379	835.22	2.6842e-06	3.5354e-06	695.78	340.75	4.1371e-06	3.2702e-06	298.89	122	145.99	60.46	1.617e-06	54.158	0.0076739	0.013454	0.0037185	884.14	0.00012781	0.00015023	741.99	361.37	0.00012511	0.00014116	322.99	132.07	156.56	64.544	0.00012632	58.481	254.174	-82.198	9.677	-71.130	-65.936	48.753	-72.416	-65.935	81.369	-63.370	-69.241	-64.945	-61.847	-57.707	17.135	-61.476	-8191	255	
38962.094	1	1	0	0	0.12127	0.44341	0.18208	0.26916	0.10421	0.38563	0.19349	0.263	0.19203	0.077665	0.21929	0.21683	0.33625	0.2976	0.23868	0.2738	-2.0021	-2.7083	-2.9271	-2.3146	-3.0812	-2.8396	-2.2792	-3.1937	-2.4917	-2.6875	-3.2104	-2.2396	-3.1188	-2.8688	-2.2583	-3.3187	155.376	202.244	-47.714	214.097	-30.554	-47.868	-62.105	-49.931	187.821	132.250	243.670	222.301	215.996	142.842	39.681	237.988	0.00022219	0.00079477	0.00010266	834.61	3.4982e-06	4.8096e-06	701.26	340.68	2.5813e-06	7.4262e-06	301.45	123.28	146.92	60.968	1.7299e-06	54.803	0.0069169	0.012161	0.00336	878.42	0.00011794	0.00013662	741.18	360.7	0.00011716	0.00013393	324.63	132.77	156.9	64.834	0.00012154	58.992	-68.733	-21.455	-49.373	-71.069	131.168	-17.756	-72.666	-66.075	123.805	46.590	-69.360	-65.059	-62.176	-57.952	227.523	-61.409	-8191	255	
38962.188	1	1	0	0	0.24089	0.31484	0.27388	0.33329	0.10793	0.098011	0.12026	0.39667	0.15347	0.20804	0.16509	0.19521	0.2077	0.24929	0.33493	0.06123	-2.0146	-2.4479	-2.8354	-2.1375	-2.9437	-2.6437	-2.3417	-3.2687	-2.5312	-2.5083	-3.0875	-2.3042	-2.9313	-2.9521	-2.0812	-3.2729	211.275	193.742	7.855	196.826	247.107	-17.106	218.279	274.607	78.711	32.668	141.144	237.164	269.373	115.107	-54.867	122.677	0.00019877	0.00083093	0.0001536	834.26	1.2537e-05	2.9165e-06	699.6	344.04	2.5888e-06	7.2709e-06	304.63	124.78	148.41	61.678	4.2634e-06	55.523	0.0066752	0.011585	0.0032134	879.72	0.00011246	0.00013016	743.26	363.05	0.00011184	0.00012843	326.99	134.02	158.22	65.553	0.00011742	59.717	-47.942	-19.564	5.541	-71.279	42.155	136.721	-72.423	-65.837	75.813	92.181	-68.981	-65.192	-62.077	-57.597	126.586	-61.570	-8191	255	
38962.285	1	1	0	0	0.14338	0.16984	0.16001	0.14258	0.18685	0.28901	0.090534	0.20072	0.26769	0.24875	0.14231	0.073885	0.26378	0.27993	0.20966	0.11363	-2.2208	-2.3854	-3.0563	-2.2854	-2.6542	-3.0083	-2.1646	-3.2875	-2.5896	-2.3146	-3.1063	-2.3792	-2.7333	-2.9458	-2.2292	-3.1208	206.864	121.637	-66.603	232.869	121.190	236.034	123.928	267.016	41.850	4.247	16.352	98.824	272.034	223.931	197.924	263.370	0.00024014	0.0010814	0.00011889	840.01	2.5613e-06	3.2822e-06	707.75	346.88	2.1457e-06	1.5128e-06	304.16	125.22	149.16	61.605	5.9871e-06	55.438	0.0065026	0.011285	0.0031321	883.08	0.00010889	0.00012574	747.3	365.22	0.00010904	0.00012502	327.03	134.44	158.81	65.668	0.00011828	59.561	-64.336	13.951	3.349	-71.016	220.060	-6.246	-72.686	-65.668	131.004	-79.297	-68.994	-64.978	-62.035	-57.843	166.943	-61.251	-8191	255	
38962.383	1	1	0	0	0.20113	0.18412	0.30009	0.16658	0.19833	0.20137	0.20837	0.10872	0.29185	0.12768	0.23639	0.18961	0.28857	0.36098	0.023776	0.18198	-2.3542	-2.3646	-3.1125	-2.5396	-2.4854	-3.1125	-2.5083	-2.9396	-2.8583	-2.2875	-3.0542	-2.4688	-2.7792	-3.2229	-2.1396	-2.8729	53.640	-14.379	-6.610	169.224	128.598	-47.895	-24.442	118.341	93.930	129.281	192.234	253.711	254.418	210.390	125.839	256.472	0.00022862	0.00087377	0.00020679	836.64	2.9688e-06	7.3319e-06	701.97	342.41	5.162e-06	6.2302e-06	303.21	123.61	147.28	60.846	7.4264e-06	55.026	0.0065964	0.011591	0.0031844	881.47	0.00011087	0.00012974	744.32	362.72	0.00011186	0.00012851	325.12	133.18	157.29	64.901	0.00011913	59.043	260.597	19.414	18.967	-71.026	127.892	40.516	-72.641	-65.827	4.643	51.132	-69.210	-64.688	-62.038	-57.798	134.321	-61.130	-8191	255	
#DATA ENDS
