BOXY.EXE: ISS Imagent and Oximeter Data Acquisition Program Version 0.80
Ascii Record File

#ACQ INFORMATION
2  Detector Channels 
16  External MUX Channels 
1  Auxiliary Channels 
5000  Waveform (CCF) Frequency (Hz)
1  Waveforms Skipped 
30  Waveforms Averaged 
1  Cycles Averaged 
16  Acquisitions per Waveform 
10.0806  Updata Rate (Hz) 

#FILE INFORMATION
TRUE -- External MUX Channel results are PARSED.
FALSE -- AC DC and Phase are NOT grouped.
TRUE -- Companion Program Settings File CREATED.
FALSE -- AC data not excluded
FALSE -- DC data not excluded
FALSE -- Phase data not excluded
FALSE -- Auxillary Chn. data not excluded
Tab delimiters

#CALIBRATION STATE
TRUE -- Waveform Calibration Values APPLIED.


#AUX CALIBRATION VALUES
Val Type	aux-1	

Term	1.0000e+00	
Factor	0.0000e+00	


#WF CALIBRATION VALUES
A = Detector Channel
Val Type	A-AC1	A-AC2	A-AC3	A-AC4	A-AC5	A-AC6	A-AC7	A-AC8	A-AC9	A-AC10	A-AC11	A-AC12	A-AC13	A-AC14	A-AC15	A-AC16	A-DC1	A-DC2	A-DC3	A-DC4	A-DC5	A-DC6	A-DC7	A-DC8	A-DC9	A-DC10	A-DC11	A-DC12	A-DC13	A-DC14	A-DC15	A-DC16	A-Ph1	A-Ph2	A-Ph3	A-Ph4	A-Ph5	A-Ph6	A-Ph7	A-Ph8	A-Ph9	A-Ph10	A-Ph11	A-Ph12	A-Ph13	A-Ph14	A-Ph15	A-Ph16	

Term	0.00000e+00	0.00000e+00	0.00000e+00	0.00000e+00	0.00000e+00	0.00000e+00	0.00000e+00	0.00000e+00	0.00000e+00	0.00000e+00	0.00000e+00	0.00000e+00	0.00000e+00	0.00000e+00	0.00000e+00	0.00000e+00	0.00000e+00	0.00000e+00	0.00000e+00	0.00000e+00	0.00000e+00	0.00000e+00	0.00000e+00	0.00000e+00	0.00000e+00	0.00000e+00	0.00000e+00	0.00000e+00	0.00000e+00	0.00000e+00	0.00000e+00	0.00000e+00	0.00000e+00	0.00000e+00	0.00000e+00	0.00000e+00	0.00000e+00	0.00000e+00	0.00000e+00	0.00000e+00	0.00000e+00	0.00000e+00	0.00000e+00	0.00000e+00	0.00000e+00	0.00000e+00	0.00000e+00	0.00000e+00	
Factor	1.00000e+00	1.00000e+00	1.00000e+00	1.00000e+00	1.00000e+00	1.00000e+00	1.00000e+00	1.00000e+00	1.00000e+00	1.00000e+00	1.00000e+00	1.00000e+00	1.00000e+00	1.00000e+00	1.00000e+00	1.00000e+00	1.00000e+00	1.00000e+00	1.00000e+00	1.00000e+00	1.00000e+00	1.00000e+00	1.00000e+00	1.00000e+00	1.00000e+00	1.00000e+00	1.00000e+00	1.00000e+00	1.00000e+00	1.00000e+00	1.00000e+00	1.00000e+00	X	X	X	X	X	X	X	X	X	X	X	X	X	X	X	X	

B = Detector Channel
Val Type	B-AC1	B-AC2	B-AC3	B-AC4	B-AC5	B-AC6	B-AC7	B-AC8	B-AC9	B-AC10	B-AC11	B-AC12	B-AC13	B-AC14	B-AC15	B-AC16	B-DC1	B-DC2	B-DC3	B-DC4	B-DC5	B-DC6	B-DC7	B-DC8	B-DC9	B-DC10	B-DC11	B-DC12	B-DC13	B-DC14	B-DC15	B-DC16	B-Ph1	B-Ph2	B-Ph3	B-Ph4	B-Ph5	B-Ph6	B-Ph7	B-Ph8	B-Ph9	B-Ph10	B-Ph11	B-Ph12	B-Ph13	B-Ph14	B-Ph15	B-Ph16	

Term	0.00000e+00	0.00000e+00	0.00000e+00	0.00000e+00	0.00000e+00	0.00000e+00	0.00000e+00	0.00000e+00	0.00000e+00	0.00000e+00	0.00000e+00	0.00000e+00	0.00000e+00	0.00000e+00	0.00000e+00	0.00000e+00	0.00000e+00	0.00000e+00	0.00000e+00	0.00000e+00	0.00000e+00	0.00000e+00	0.00000e+00	0.00000e+00	0.00000e+00	0.00000e+00	0.00000e+00	0.00000e+00	0.00000e+00	0.00000e+00	0.00000e+00	0.00000e+00	2.93197e+01	-1.46832e+02	-1.39121e+02	-1.81086e+02	-9.40388e+01	-8.26987e+01	-1.58451e+02	-1.62015e+02	-4.88284e+01	-7.25510e+01	-1.70463e+02	-1.70388e+02	-1.82301e+02	-1.76731e+02	-5.84013e+01	-1.49945e+02	
Factor	5.48794e-05	1.85628e-04	4.36060e-05	1.70858e-01	1.72188e-06	1.61827e-06	1.82640e-01	6.30764e-02	2.27960e-06	1.44727e-06	1.00929e-01	3.45204e-02	2.99637e-02	1.05836e-02	1.66694e-06	1.51637e-02	2.09266e-06	2.19092e-06	6.07507e-07	8.53818e-02	2.38634e-08	2.39635e-08	8.56573e-02	3.13960e-02	2.38440e-08	2.39852e-08	4.84051e-02	1.65146e-02	1.48863e-02	5.27694e-03	2.38470e-08	7.29755e-03	X	X	X	X	X	X	X	X	X	X	X	X	X	X	X	X	



#DISTANCE SETTINGS
A = Detector Channel
A-1	A-2	A-3	A-4	A-5	A-6	A-7	A-8	A-9	A-10	A-11	A-12	A-13	A-14	A-15	A-16	

2.5000e+00	3.0000e+00	2.5000e+00	3.0000e+00	2.0000e+00	3.0000e+00	1.5000e+00	3.0000e+00	3.0000e+00	3.0000e+00	3.0000e+00	3.0000e+00	3.0000e+00	3.0000e+00	1.5000e+00	3.0000e+00	

B = Detector Channel
B-1	B-2	B-3	B-4	B-5	B-6	B-7	B-8	B-9	B-10	B-11	B-12	B-13	B-14	B-15	B-16	

1.0000e+01	1.0000e+01	1.0000e+01	1.4400e+00	1.0000e+01	1.0000e+01	1.5100e+00	1.9400e+00	1.0000e+01	1.0000e+01	1.9900e+00	2.4900e+00	2.4100e+00	2.9000e+00	1.0000e+01	2.9800e+00	




#DATA BEGINS
time	group	step	mark	flag	A-AC1	A-AC2	A-AC3	A-AC4	A-AC5	A-AC6	A-AC7	A-AC8	A-AC9	A-AC10	A-AC11	A-AC12	A-AC13	A-AC14	A-AC15	A-AC16	A-DC1	A-DC2	A-DC3	A-DC4	A-DC5	A-DC6	A-DC7	A-DC8	A-DC9	A-DC10	A-DC11	A-DC12	A-DC13	A-DC14	A-DC15	A-DC16	A-Ph1	A-Ph2	A-Ph3	A-Ph4	A-Ph5	A-Ph6	A-Ph7	A-Ph8	A-Ph9	A-Ph10	A-Ph11	A-Ph12	A-Ph13	A-Ph14	A-Ph15	A-Ph16	B-AC1	B-AC2	B-AC3	B-AC4	B-AC5	B-AC6	B-AC7	B-AC8	B-AC9	B-AC10	B-AC11	B-AC12	B-AC13	B-AC14	B-AC15	B-AC16	B-DC1	B-DC2	B-DC3	B-DC4	B-DC5	B-DC6	B-DC7	B-DC8	B-DC9	B-DC10	B-DC11	B-DC12	B-DC13	B-DC14	B-DC15	B-DC16	B-Ph1	B-Ph2	B-Ph3	B-Ph4	B-Ph5	B-Ph6	B-Ph7	B-Ph8	B-Ph9	B-Ph10	B-Ph11	B-Ph12	B-Ph13	B-Ph14	B-Ph15	B-Ph16	aux-1	digaux	

2673.907	1	1	0	768	0.14199	0.17214	0.17062	0.22484	0.34978	0.075175	0.20366	0.07213	0.2612	0.32424	0.086677	0.17285	0.3394	0.12732	0.0736	0.13472	0.57292	-0.8125	-0.46667	-0.19792	-0.95	-0.225	-0.54167	-0.96667	-0.0083333	-0.68542	-0.70208	-0.035417	-0.95417	-0.34792	-0.21875	-1.2396	154.210	313.450	17.227	67.102	110.019	130.012	316.676	340.790	203.240	86.142	232.801	340.583	331.852	290.186	330.097	290.437	0.0014797	0.0013174	0.0001037	997.49	7.8063e-06	6.5698e-06	890.89	413.07	1.1316e-05	1.5407e-06	409.77	189.44	181.16	104.67	5.1038e-06	112.92	0.0006587	0.00074454	0.00018755	1007.8	6.9864e-06	7.9635e-06	902.69	416.64	6.9732e-06	7.8121e-06	415.62	190.41	183.63	105.85	6.6526e-06	113.06	289.607	42.287	4.745	-7.193	138.195	62.676	-8.775	-0.949	191.020	164.215	-3.701	1.383	3.853	7.899	160.203	4.022	-8191	255	
2674.003	1	1	0	0	0.033621	0.3428	0.2066	0.03442	0.13865	0.24121	0.09165	0.21091	0.15314	0.10877	0.11552	0.25209	0.401	0.1981	0.12216	0.16815	0.20208	-0.60833	-0.72292	0.022917	-0.925	-0.2875	-0.2125	-1.0208	0.035417	-0.59167	-0.6875	0.11458	-0.95417	-0.76667	-0.12292	-1.1583	4.517	198.413	124.479	104.106	295.089	85.290	289.938	37.276	220.072	66.643	94.471	309.118	334.261	324.513	20.128	233.455	0.0014629	0.00091389	0.0002926	993.08	1.4697e-05	3.1248e-06	891.88	413.13	1.1411e-05	8.3618e-06	412.32	192.51	182.43	106.51	7.1129e-06	115.67	0.0006562	0.0006664	0.00016518	996.79	6.9888e-06	7.2309e-06	900.63	416.28	7.0818e-06	7.1404e-06	416.9	192.95	184.66	107.39	6.0732e-06	115.64	296.986	38.788	40.669	-7.137	121.564	126.670	-8.617	-1.065	168.254	74.379	-3.418	1.501	3.970	8.043	165.873	3.995	-8191	255	
2674.099	1	1	0	0	0.14696	0.32221	0.29982	0.13552	0.013572	0.17226	0.34078	0.21059	0.30321	0.080897	0.22846	0.063189	0.12177	0.3424	0.23598	0.14701	0.43542	-0.66458	-0.69792	-0.14167	-0.64792	-0.26875	-0.18542	-0.9375	-0.15	-0.27708	-0.7375	-0.28125	-0.84167	-0.76875	-0.13333	-0.84583	234.960	55.215	138.576	0.412	52.353	203.639	315.045	304.424	81.566	153.113	-1.587	72.639	272.600	326.602	229.152	233.092	0.001323	0.0012571	0.00018238	981.92	6.0569e-06	6.4765e-06	889.49	411.24	3.849e-06	9.4467e-06	413.74	194.19	183.7	107.02	6.4507e-06	116.09	0.00066695	0.00060656	0.00014937	987.94	6.8889e-06	6.4227e-06	897.09	415.44	6.8883e-06	6.2196e-06	417.95	194.89	185.68	107.71	5.6613e-06	115.61	296.392	11.287	50.776	-7.460	81.516	106.659	-8.709	-1.171	155.218	95.440	-4.021	1.328	3.984	7.708	127.448	3.877	-8191	255	
2674.195	1	1	0	0	0.16512	0.15662	0.18036	0.36327	0.20668	0.14175	0.1919	0.23877	0.27439	0.17496	0.26587	0.22092	0.023568	0.31804	0.093833	0.28521	0.12917	-0.18333	-0.61458	-0.10208	-0.77917	-0.475	-0.25208	-1.1146	-0.12917	-0.41042	-0.85417	-0.12708	-0.88958	-0.75208	0.17083	-1.0167	143.745	173.701	283.140	-10.029	238.660	279.717	95.243	322.691	176.098	249.696	273.811	27.964	25.632	284.319	192.202	296.253	0.0014398	0.00069162	0.00010527	979.65	5.26e-06	1.1494e-05	886.95	409.97	7.5356e-06	4.9576e-06	410.77	190.69	182.93	105.34	9.0871e-06	113.07	0.00066463	0.0005703	0.00014748	988.02	7.1696e-06	6.4522e-06	891.74	414.84	7.3641e-06	6.4006e-06	414.72	192.39	184.51	106.38	5.9224e-06	113.39	299.299	20.425	40.693	-7.278	113.611	102.996	-8.659	-0.789	147.286	93.838	-3.480	1.361	3.868	7.910	148.922	4.103	-8191	255	
2674.291	1	1	0	0	0.14845	0.29791	0.068276	0.37934	0.26096	0.34664	0.095722	0.04684	0.24786	0.14116	0.18808	0.25741	0.1517	0.099866	0.24636	0.31661	0.020833	0.0020833	-0.80625	-0.275	-0.33333	-0.66042	-0.2375	-0.83958	-0.27083	-0.0083333	-0.94167	0.072917	-0.58333	-1.0333	0.14583	-0.84583	6.128	198.563	188.614	315.344	318.236	38.867	-8.007	286.218	335.457	321.301	285.007	320.346	57.835	316.163	28.382	224.665	0.0013709	0.0012416	0.00035652	972.51	7.9712e-06	4.6016e-06	883.42	408.73	5.5531e-06	9.0065e-06	410.67	189.89	182.59	104.96	1.0643e-05	112.98	0.00068202	0.00057553	0.00015296	985.46	6.9801e-06	6.339e-06	889.43	414.9	7.0448e-06	6.2378e-06	414.07	191.72	184.11	105.98	6.2869e-06	113.21	294.301	35.150	48.385	-6.996	39.017	123.016	-8.657	-0.640	106.631	108.909	-3.299	1.290	3.898	8.023	173.250	4.120	-8191	255	
2674.387	1	1	0	0	0.051723	0.27723	0.24241	0.18635	0.10182	0.22033	0.15674	0.27943	0.29652	0.25747	0.27077	0.25937	0.27531	0.028114	0.12976	0.28262	-0.10833	-0.1	-0.85208	-0.20625	-0.43333	-0.68542	-0.058333	-0.82708	-0.15208	-0.1125	-0.87708	-0.11458	-0.36458	-0.78542	-0.029167	-0.8625	317.638	329.624	51.225	285.904	3.971	39.967	236.408	293.721	183.975	162.837	224.995	286.782	323.228	4.569	250.901	196.389	0.0012473	0.0005874	0.00021033	980.44	4.3867e-06	5.6507e-06	886.59	413.07	1.3384e-05	5.7678e-06	411.45	189.62	180.75	104.78	4.5701e-06	112.99	0.00066942	0.00057991	0.00016668	998.67	7.0452e-06	6.6287e-06	896.47	417.48	7.3094e-06	6.5704e-06	416.52	191.95	183.45	105.73	7.5247e-06	113.43	288.170	55.712	70.780	-7.174	149.900	100.282	-8.821	-0.780	126.980	125.008	-3.564	1.365	3.959	8.018	198.875	3.913	-8191	255	
2674.508	1	1	0	0	0.27523	0.1265	0.22813	0.38775	0.31714	0.097915	0.23554	0.0761	0.16107	0.13903	0.14178	0.33214	0.37437	0.27222	0.30051	0.30907	-0.05	0.020833	-0.92917	-0.175	-0.21875	-0.80625	-0.039583	-0.48958	-0.44375	0.01875	-0.75833	-0.10417	-0.4125	-0.97917	0.10417	-0.58542	31.746	117.692	322.024	313.639	245.469	113.193	341.028	259.239	154.031	-16.858	272.398	325.356	337.159	285.074	287.258	-14.253	0.0012672	0.00029102	0.00025813	986.7	9.2484e-06	1.0561e-05	888.11	411.79	1.7652e-05	2.7485e-06	410.16	190.43	181.55	105.06	7.4479e-06	113.22	0.0007102	0.00062976	0.00019977	1004.7	7.4764e-06	7.0364e-06	902.7	416.85	7.4812e-06	6.7907e-06	417.14	192.45	183.26	105.89	8.1327e-06	113.88	297.862	100.660	103.071	-7.131	104.663	99.289	-8.739	-0.814	174.979	126.072	-3.499	1.593	4.011	8.012	167.150	4.212	-8191	255	
2674.604	1	1	0	0	0.4035	0.33875	0.17255	0.26563	0.13641	0.50186	0.11049	0.15189	0.21543	0.22004	0.25101	0.15709	0.3111	0.27256	0.080422	0.25293	-0.28542	-0.2125	-0.78125	-0.43958	-0.058333	-1.0125	0.083333	-0.50208	-0.625	0.1875	-0.66667	-0.46042	-0.091667	-1.0792	0.13958	-0.61458	80.911	279.382	98.825	50.892	155.079	-14.085	340.926	231.577	299.355	-2.390	212.471	312.888	-8.948	338.717	48.280	317.200	0.0013392	0.0008395	0.0003093	984.19	2.3538e-06	9.8642e-06	888.53	409.2	1.7798e-05	1.8288e-06	409.1	189.83	181.03	104.23	9.0346e-06	112.02	0.00071233	0.00064582	0.00021736	1003	7.4911e-06	7.4927e-06	904.02	415.52	7.7747e-06	7.5335e-06	418.22	191.76	183.09	105.47	9.3772e-06	112.6	296.463	33.578	74.297	-7.266	95.484	132.606	-8.778	-1.063	169.139	126.865	-3.506	1.164	3.739	7.901	145.972	3.917	-8191	255	
2674.700	1	1	0	0	0.36803	0.12692	0.24894	0.1662	0.13721	0.15222	0.2422	0.33575	0.23844	0.084497	0.2568	0.05205	0.1432	0.071328	0.26839	0.40495	-0.20625	0.23333	-0.75208	-0.53542	0.035417	-0.81458	-0.16042	-0.48333	-0.59167	0.11042	-0.7625	-0.57708	-0.0875	-0.96042	0.13333	-0.31667	322.017	243.191	116.229	260.272	281.246	267.580	326.498	251.453	332.720	-4.748	141.690	317.288	324.070	307.769	63.838	280.786	0.0013013	0.0011914	0.00015402	983.99	6.5173e-06	1.2982e-05	882.79	408.32	1.0614e-05	4.5681e-06	406.67	186.56	179.77	103.27	7.8683e-06	110.18	0.00073685	0.00072859	0.00023655	1002.3	7.6222e-06	8.1991e-06	901.16	414.15	7.8324e-06	8.4508e-06	415.74	188.8	181.9	104.65	9.6564e-06	110.59	304.032	100.082	76.102	-7.636	87.519	136.115	-9.129	-1.304	159.857	130.765	-3.735	0.984	3.603	7.747	99.586	3.863	-8191	255	
2674.796	1	1	0	0	0.2464	0.076065	0.085341	0.094551	0.18902	0.29811	0.18726	0.30975	0.38784	0.058258	0.34677	0.18384	0.18765	0.27095	0.2128	0.20846	-0.48542	0.325	-0.60417	-0.51042	0.13125	-0.77708	-0.38125	-0.31667	-0.62708	0.24375	-0.57917	-0.66042	-0.054167	-0.81667	-0.33125	-0.21875	93.464	189.789	-14.647	221.951	220.282	216.452	150.878	316.641	174.011	49.709	295.525	66.487	-18.195	-8.131	41.846	266.348	0.0011242	0.0019244	0.0003056	978.86	6.31e-06	8.1322e-06	881.43	406.97	1.005e-05	7.2298e-06	403.75	185.84	178.61	103.24	6.1855e-06	110.64	0.0007561	0.00083556	0.0002399	997.82	7.948e-06	9.2924e-06	899.64	413.62	8.2896e-06	9.8515e-06	414.44	188.18	181.22	104.65	8.9158e-06	110.88	302.544	77.604	22.658	-7.503	90.409	107.246	-8.989	-1.204	188.433	170.200	-3.618	1.241	4.044	8.071	116.104	4.232	-8191	255	
2674.891	1	1	0	0	0.069236	0.028996	0.12551	0.11887	0.10818	0.27607	0.34295	0.15004	0.2767	0.091508	0.27446	0.17291	0.19505	0.39047	0.22395	0.19777	-0.54375	0.23125	-0.375	-0.59375	0.12917	-0.81667	-0.32708	-0.21042	-0.49167	-0.064583	-0.45	-0.82083	-0.014583	-0.9	-0.46458	0.0125	77.970	102.029	94.198	282.435	175.542	304.262	244.840	236.006	231.497	155.133	277.357	339.990	299.468	296.546	317.454	292.372	0.001314	0.00088088	0.00017066	983.8	1.3278e-05	7.9098e-06	883.12	409.42	8.1496e-06	7.7888e-06	408.19	188.51	181.58	105.71	6.8322e-06	113.54	0.00070284	0.0007892	0.00020029	996.25	6.8682e-06	8.0547e-06	894.8	412.94	6.7245e-06	7.7685e-06	412.45	190.21	182.93	106.63	6.5445e-06	113.63	301.216	68.859	42.748	-7.199	100.424	126.428	-8.814	-1.120	143.135	91.330	-3.360	1.259	3.922	8.118	92.240	4.282	-8191	255	
2674.987	1	1	0	0	0.1485	0.19699	0.037685	0.18121	0.16454	0.18036	0.32137	0.21866	0.025389	0.038074	0.14147	0.15902	0.22287	0.27916	0.13881	0.49122	-0.54167	0.095833	-0.075	-0.86667	0.34375	-0.67083	-0.47292	0.03125	-0.81458	-0.20208	-0.18125	-1.0562	0.125	-0.81875	-0.5875	0.029167	-4.456	-17.331	222.135	131.870	224.946	296.015	320.237	-6.735	231.528	239.557	279.224	29.050	311.580	299.090	99.332	294.161	0.0016051	0.0017199	0.00014273	983.76	2.9815e-06	8.5439e-06	888.52	410.3	1.2372e-05	7.0492e-06	410.53	191.17	181.99	106.09	7.8493e-06	114.15	0.0006177	0.00067344	0.00016663	993.74	6.7814e-06	7.5451e-06	899.32	413.71	7.3258e-06	7.9769e-06	415.73	192.06	184.12	107.11	7.37e-06	114.52	300.018	29.721	61.554	-7.029	207.981	74.383	-8.688	-1.045	157.764	80.258	-3.473	1.607	3.950	8.063	117.469	4.258	-8191	255	
2675.108	1	1	0	0	0.30884	0.094522	0.17883	0.15278	0.12802	0.20481	0.19471	0.17488	0.092188	0.10116	0.24509	0.33783	0.16483	0.31879	0.15496	0.14501	-0.41667	-0.11458	0.052083	-0.91667	0.00625	-0.46667	-0.6125	-0.0020833	-0.49792	-0.20208	-0.19792	-0.81458	-0.089583	-0.59375	-0.65208	-0.060417	216.776	218.307	167.754	135.094	315.651	247.527	213.856	19.490	232.460	129.126	319.795	337.660	34.791	271.392	126.748	322.659	0.0014349	0.00096831	0.00025772	990.08	9.1544e-06	9.1348e-06	888.27	410.15	1.1098e-05	4.151e-06	408.67	189.15	181.25	104.98	8.3412e-06	111.66	0.00076414	0.00077603	0.00019347	1003.9	8.9962e-06	9.0499e-06	904.03	415.41	9.3224e-06	9.1476e-06	415.59	191.45	184.54	106.4	9.2535e-06	112.56	298.511	79.785	31.234	-7.257	153.331	54.866	-9.066	-1.032	153.051	75.879	-3.530	1.441	3.762	8.091	115.647	3.860	-8191	255	
2675.204	1	1	0	0	0.15212	0.24622	0.18966	0.20949	0.21871	0.13189	0.27387	0.22284	0.17825	0.12661	0.15362	0.38334	0.28326	0.28088	0.1409	0.022866	-0.41042	-0.2375	0.064583	-0.90625	0.24167	-0.36042	-0.70208	-0.21875	-0.47917	-0.31667	0.24583	-0.93542	-0.22083	-0.29167	-0.88542	0.020833	135.624	130.487	229.129	323.315	105.345	256.002	118.992	39.076	174.131	312.910	318.479	321.370	275.834	0.789	15.942	79.668	0.0012503	0.0017868	0.00022779	987.78	7.0648e-06	1.0735e-05	880.23	406.44	1.1843e-05	7.5616e-06	401.04	184.19	178.18	102.5	4.3968e-06	108.21	0.00104	0.00099417	0.00025287	1011.7	1.2416e-05	1.1459e-05	903.34	416.53	1.307e-05	1.2071e-05	413.36	188.8	184.42	104.74	1.227e-05	110.42	300.626	31.074	57.178	-7.255	80.337	59.359	-8.970	-1.095	115.855	100.071	-3.677	1.302	3.956	8.093	145.862	3.947	-8191	255	
2675.300	1	1	0	0	0.14958	0.16826	0.010764	0.30114	0.17513	0.09316	0.22046	0.11687	0.10985	0.19999	0.067286	0.089767	0.24267	0.34652	0.034477	0.096442	-0.26042	-0.36667	0.24792	-0.87292	-0.060417	-0.29375	-0.98333	-0.0083333	-0.5125	-0.73958	0.05625	-1.0438	-0.19375	-0.33125	-0.84375	-0.089583	122.105	10.555	218.015	338.987	196.391	52.901	304.310	230.148	195.191	-3.873	-10.022	-12.346	296.012	293.788	332.531	263.949	0.0013704	0.0012508	0.00018253	983.59	1.286e-05	1.0263e-05	873.12	402.97	5.3525e-06	9.0345e-06	398.82	183.13	178.08	102.4	9.4497e-06	108.73	0.001369	0.0012712	0.00031951	1021	1.5196e-05	1.3137e-05	900.88	417.65	1.4513e-05	1.2908e-05	412.88	188.76	183.41	104.28	1.0899e-05	110.65	302.704	46.318	60.605	-7.262	124.359	72.549	-9.032	-1.231	-6.901	97.916	-3.654	1.186	3.794	7.975	174.262	3.979	-8191	255	
2675.396	1	1	0	0	0.32141	0.2575	0.34609	0.20939	0.20393	0.087257	0.083774	0.088728	0.15649	0.081929	0.092374	0.18773	0.093174	0.30902	0.10386	0.37524	-0.19167	-0.49583	0.12083	-0.85208	-0.175	0.075	-0.90625	-0.11458	-0.23125	-0.54167	0.12708	-0.78125	-0.46042	-0.26458	-0.8875	-0.3625	145.782	122.499	118.272	130.991	58.563	264.336	217.838	145.232	43.368	239.439	299.706	279.859	195.721	-7.439	248.585	249.349	0.0011712	0.0011247	0.00037611	984.31	1.0529e-05	6.2978e-06	876.21	405.17	1.2586e-05	4.6494e-06	399.25	185.36	177.84	103.3	1.1379e-05	110.54	0.0010987	0.00097733	0.00025103	1013.8	1.1154e-05	9.9822e-06	895.98	416.82	1.0975e-05	1.0244e-05	412.01	189.85	182.78	104.83	9.989e-06	112.06	296.790	25.076	63.277	-7.234	83.638	127.604	-8.644	-1.059	76.111	160.083	-3.832	1.367	3.904	8.100	184.290	4.114	-8191	255	
2675.468	1	1	0	0	0.30639	0.26709	0.066047	0.084718	0.17613	0.1899	0.17494	0.30762	0.050474	0.20054	0.11409	0.19017	0.24004	0.3291	0.32269	0.11801	-0.029167	-0.83333	0.11875	-0.77083	-0.39792	0.010417	-0.98958	-0.16875	-0.26458	-0.625	-0.0375	-0.76458	-0.47083	-0.0875	-0.89167	-0.097917	-2.892	123.458	99.508	299.715	11.229	172.472	21.039	284.095	98.421	46.988	18.083	-17.672	340.310	313.012	239.782	298.555	0.0012391	0.00096802	0.00034168	988.06	8.9457e-06	7.7161e-06	882.62	408.17	3.276e-06	8.188e-06	407.06	189.59	180.87	105.39	8.1793e-06	114.65	0.00096613	0.00088453	0.00024927	1014.8	9.6074e-06	8.4942e-06	901.54	417.02	8.1254e-06	7.3852e-06	414.19	191.65	183.06	106.2	6.9008e-06	114.7	293.328	28.880	101.585	-7.281	98.436	82.920	-8.684	-1.304	89.020	145.242	-3.472	1.407	3.909	8.008	174.801	3.965	-8191	255	
2675.588	1	1	0	0	0.10446	0.22784	0.26185	0.050568	0.17018	0.070616	0.35095	0.29395	0.2579	0.23376	0.088916	0.077768	0.1349	0.36607	0.056394	0.22413	0.17708	-0.90208	0.11667	-0.71458	-0.37708	0.13542	-0.87083	-0.42917	-0.045833	-0.83333	0.079167	-0.74792	-0.70208	-0.12708	-0.49583	-0.55833	281.842	286.249	277.693	310.494	108.203	172.707	243.872	210.842	333.942	263.191	220.486	199.692	296.895	-11.514	137.928	282.833	0.0012854	0.00052319	0.00030186	996.44	7.0001e-06	7.332e-06	895.85	412.6	1.232e-05	7.2894e-06	410.09	190.42	181.68	104.81	5.5057e-06	112.39	0.00060846	0.00054872	0.00017241	1007.4	6.322e-06	5.9486e-06	905.73	417.4	6.4561e-06	6.2051e-06	416.12	191.77	183.61	105.7	7.8095e-06	112.81	300.195	23.095	56.412	-7.012	124.113	137.342	-8.676	-1.227	208.884	161.704	-3.840	1.350	3.586	7.940	220.691	3.722	-8191	255	
2675.684	1	1	0	0	0.0068384	0.23546	0.16037	0.36444	0.20296	0.20961	0.022734	0.15014	0.12901	0.17693	0.2242	0.32072	0.16284	0.2563	0.21716	0.13806	0.30208	-0.61875	-0.054167	-0.41875	-0.69167	0.14792	-0.67708	-0.44167	0.022917	-0.81458	-0.19167	-0.41458	-0.84167	-0.2875	-0.5125	-0.38958	107.690	261.429	2.930	-0.529	5.939	136.041	195.943	12.485	263.686	154.829	249.831	250.286	311.284	268.227	121.345	276.428	0.00098362	0.00094511	0.0002547	994.44	1.204e-05	5.1458e-06	885.44	411.2	1.1276e-05	5.7008e-06	404.9	187.89	181.27	104.49	8.1581e-06	111.35	0.00064786	0.00063128	0.00020992	1010.5	7.3003e-06	7.1932e-06	903.32	416.35	7.1e-06	7.3685e-06	414.55	189.27	182.72	105.28	8.3745e-06	111.66	304.313	40.833	75.107	-7.249	123.910	59.597	-8.856	-1.193	132.680	153.170	-3.546	1.476	3.657	8.200	154.219	3.893	-8191	255	
2675.781	1	1	0	0	0.12946	0.15227	0.14714	0.24395	0.11569	0.19767	0.042105	0.099246	0.20589	0.11049	0.40247	0.16507	0.16078	0.48758	0.25872	0.23737	0.46875	-0.59167	-0.0625	-0.45625	-0.55417	0.24792	-0.50833	-0.61458	0.38542	-0.65	-0.052083	-0.2375	-0.95417	-0.24375	-0.51667	-0.78958	56.746	259.769	110.404	330.697	186.959	110.526	277.139	-11.542	150.938	63.836	24.346	233.320	253.674	295.947	157.593	273.686	0.0012409	0.00099489	0.00034928	988.85	6.6309e-06	4.1853e-06	882.01	408.77	1.4592e-05	6.5734e-06	404.13	187.12	180.49	103.87	6.3134e-06	110.98	0.0006493	0.00068609	0.00021647	1002.4	7.1646e-06	7.9335e-06	900.37	415.03	7.5118e-06	8.7874e-06	414.03	189.39	182.67	105.33	9.8311e-06	111.7	301.284	89.138	43.283	-7.451	81.379	128.081	-8.883	-1.179	138.074	160.760	-3.962	1.346	3.647	7.960	141.339	3.818	-8191	255	
2675.899	1	1	0	0	0.18511	0.13227	0.085043	0.083466	0.21964	0.30978	0.30233	0.37954	0.10571	0.15779	0.1853	0.32258	0.33742	0.22591	0.088976	0.29703	0.43125	-0.70625	-0.14375	-0.31042	-0.8625	-0.21667	-0.47292	-0.77292	0.039583	-0.77708	-0.4	0.05625	-0.98333	-0.13542	-0.72708	-0.79792	336.509	153.572	154.831	284.479	113.632	84.410	217.193	295.998	0.262	251.779	323.088	297.129	274.872	301.408	236.566	264.822	0.0013889	0.00081019	0.00028524	986.03	9.6458e-06	4.2704e-06	887.69	409.25	4.2986e-06	2.1319e-06	405.51	187.58	179.6	103.26	8.0179e-06	110.79	0.00077304	0.0008907	0.0002491	1006.7	8.3556e-06	9.8868e-06	906.41	417.21	8.8255e-06	1.0941e-05	418.75	190.77	183.93	105.59	1.2859e-05	112.43	292.796	115.896	33.335	-7.308	107.094	125.816	-8.860	-1.071	29.735	139.452	-3.816	1.516	3.658	7.916	83.850	3.875	-8191	255	
2675.996	1	1	0	0	0.12514	0.13831	0.24109	0.13844	0.075446	0.05704	0.29127	0.27585	0.031722	0.17793	0.053036	0.053966	0.25519	0.15083	0.063523	0.2852	0.525	-0.7	-0.1125	-0.225	-0.70208	0.072917	-0.41875	-0.89583	-0.23542	-0.63333	-0.53542	-0.24583	-0.75208	-0.39792	-0.44167	-0.86667	220.725	324.189	87.930	329.741	319.861	156.013	276.658	266.980	212.227	23.211	339.999	22.848	296.485	18.892	144.474	259.242	0.0013555	0.001341	0.00026096	996.17	1.4073e-05	9.6644e-06	886.85	406.28	2.2341e-05	1.0648e-05	398.95	182.83	177.11	102.11	1.077e-05	108.77	0.0011827	0.0014794	0.00039885	1036.3	1.5948e-05	1.944e-05	935.47	426.3	1.9183e-05	2.3237e-05	434.28	193.87	188.81	107	2.2574e-05	113.54	292.280	50.382	-11.697	-7.386	178.943	196.342	-8.804	-1.037	211.152	103.891	-3.806	1.445	3.924	7.778	133.929	4.300	-8191	255	
2676.069	1	1	0	0	0.050608	0.037841	0.13463	0.21373	0.18388	0.1605	0.089714	0.1903	0.1042	0.17576	0.031106	0.26477	0.35306	0.53023	0.18464	0.17702	0.44375	-0.525	-0.46875	-0.25208	-0.77083	-0.18542	-0.475	-0.87917	0.22292	-0.61875	-0.51042	-0.05625	-0.98542	-0.20208	-0.25833	-0.97708	71.412	259.920	93.112	209.004	300.168	122.017	314.264	222.856	287.035	232.131	50.107	338.342	301.379	309.841	251.337	228.168	0.0015052	0.0012044	0.00021888	974.62	1.9617e-05	2.7009e-06	866.94	403.51	1.7938e-05	7.8197e-06	396.7	181.33	177.78	102.86	6.2348e-06	108.53	0.0020436	0.0022479	0.00054532	1029.9	2.087e-05	2.1187e-05	914.21	420.24	1.6883e-05	1.6321e-05	416.27	187.15	184.26	105.4	1.2022e-05	110.23	301.726	61.640	315.906	-7.273	147.994	165.177	-8.670	-0.966	185.445	62.806	-3.559	1.530	4.049	7.807	229.964	3.914	-8191	255	
2676.188	1	1	0	0	0.10378	0.18757	0.2723	0.14772	0.12099	0.20287	0.098381	0.29248	0.083033	0.21104	0.2015	0.098919	0.22289	0.18475	0.18699	0.16662	0.40625	-0.20208	-0.42708	0.014583	-0.61875	-0.31667	-0.029167	-1.0583	-0.0041667	-0.59167	-0.675	-0.18333	-0.91875	-0.63958	0.15417	-1.0438	288.144	314.552	3.625	251.437	168.903	300.938	238.051	286.660	76.707	212.835	333.318	302.998	310.892	301.370	41.405	275.198	0.0016931	0.0015116	0.00010111	993.67	1.1763e-05	1.3694e-05	880.71	410.65	9.6389e-06	1.0877e-05	398.28	181.19	178.07	102.07	1.077e-05	107.36	0.0012001	0.0011544	0.00028989	1019.4	1.2575e-05	1.1839e-05	902.82	419.25	1.2166e-05	1.1152e-05	411.08	184.7	182.83	103.74	9.9062e-06	108.71	287.727	7.158	109.192	-7.388	153.959	87.997	-8.774	-1.184	176.713	123.584	-3.898	1.415	3.721	7.845	121.773	4.192	-8191	255	
2676.284	1	1	0	0	0.060412	0.21875	0.068649	0.10906	0.15473	0.11216	0.044312	0.34995	0.18938	0.12505	0.29407	0.2029	0.42133	0.12638	0.13262	0.30244	0.19167	-0.066667	-0.775	-0.10417	-0.58125	-0.36875	-0.12292	-1.0125	-0.0083333	-0.2125	-0.775	0.14167	-0.78958	-0.57917	0.1	-1.0979	250.517	145.029	98.281	260.451	61.810	287.815	168.842	278.954	293.073	12.472	301.842	275.859	328.345	-12.155	223.544	306.897	0.0012562	0.00044425	0.00025864	1000.3	9.7007e-06	4.005e-06	886.83	412.19	5.7841e-06	7.1509e-06	401.45	181.4	178.68	102.06	2.9417e-06	107.84	0.0010997	0.00098297	0.00025664	1025.7	1.212e-05	1.0992e-05	907.92	421.95	1.2175e-05	1.0797e-05	412.27	185.45	182.83	103.69	9.4947e-06	109.28	287.969	5.988	60.099	-6.966	84.054	96.388	-8.737	-0.800	54.407	71.254	-3.602	1.682	3.985	8.007	188.038	4.214	-8191	255	
2676.380	1	1	0	0	0.079764	0.079306	0.25174	0.23037	0.13073	0.16523	0.15969	0.070177	0.1249	0.060156	0.28706	0.56296	0.27923	0.38036	0.10287	0.38858	0.2875	-0.23958	-0.83125	0.04375	-0.62708	-0.35208	0.039583	-0.82292	-0.0625	0.04375	-0.89167	-0.01875	-0.59583	-0.83958	0.28333	-0.76458	236.242	254.760	41.585	340.152	231.198	76.584	270.216	86.343	166.551	248.764	229.642	255.544	-9.503	321.936	91.456	294.788	0.0012915	0.00032795	0.00032561	1006.1	1.1873e-05	6.3443e-06	890.64	412.96	1.2692e-05	9.2484e-06	402.64	183.69	178.62	102.95	1.1297e-05	109.68	0.0010369	0.00089951	0.00023635	1032.2	1.0696e-05	9.61e-06	906.36	422.78	1.0375e-05	9.1675e-06	411.38	186.53	182.2	104.37	8.6545e-06	110.91	294.627	20.398	89.853	-7.188	86.802	49.714	-8.867	-1.079	127.792	86.576	-3.445	1.264	3.918	7.925	146.451	3.922	-8191	255	
2676.501	1	1	0	0	0.40407	0.070051	0.046469	0.30126	0.19304	0.038289	0.085683	0.09509	0.21469	0.16352	0.10411	0.1848	0.16211	0.38781	0.12097	0.25564	0.40208	0.045833	-0.7625	-0.13958	-0.25417	-0.475	0.12708	-0.86042	-0.24583	0.0083333	-0.96667	-0.09375	-0.47917	-1.0521	0.27083	-1.0146	145.615	235.965	335.525	230.688	308.554	130.482	30.045	20.173	267.226	20.080	8.265	331.516	305.303	315.199	267.760	291.110	0.0013887	0.00064558	0.00021247	1003.5	6.7955e-06	5.8903e-06	889.67	414.1	8.7437e-06	1.5666e-06	404.33	185.39	178.9	103.64	9.829e-06	111.24	0.00090778	0.0007976	0.00021855	1026.8	9.2858e-06	8.5219e-06	906.55	422.2	9.1641e-06	8.2251e-06	412.65	188.27	182.26	104.78	8.5584e-06	111.93	293.965	43.373	67.637	-7.095	102.854	100.400	-8.921	-1.021	118.458	87.674	-3.662	1.421	3.828	7.983	175.592	4.019	-8191	255	
2676.597	1	1	0	0	0.36427	0.17985	0.14913	0.45275	0.2394	0.30485	0.16167	0.31869	0.32506	0.19148	0.019699	0.36027	0.25526	0.28833	0.078719	0.087064	0.035417	0.13542	-0.73542	-0.35208	-0.075	-0.88333	0.05	-0.9875	-0.53333	0.054167	-0.7625	-0.34583	-0.29375	-1.2062	0.16875	-0.9875	214.021	267.384	287.705	303.977	13.632	246.659	320.074	295.097	313.459	91.486	340.288	68.040	329.811	1.148	278.506	323.763	0.0012038	0.00051531	0.00027422	1006.3	6.8186e-06	8.7069e-06	885.89	414.06	1.1422e-05	6.0383e-06	405.22	184.23	179.55	103.48	6.1876e-06	110.05	0.00081802	0.00072615	0.00022087	1025.9	8.3048e-06	7.7148e-06	905.24	420.75	8.0408e-06	7.3472e-06	412.44	186.65	181.69	104.51	8.1538e-06	110.42	291.189	45.738	62.278	-7.462	104.211	103.215	-8.935	-1.101	114.818	125.300	-3.605	1.114	3.922	8.029	167.087	4.293	-8191	255	
2676.691	1	1	0	0	0.18178	0.17126	0.082246	0.34448	0.18621	0.31746	0.25234	0.29397	0.18691	0.25242	0.28053	0.12528	0.082715	0.088832	0.045811	0.11051	-0.079167	0.1625	-0.63125	-0.28958	0.0041667	-1.0229	-0.0083333	-0.73542	-0.49792	0.016667	-0.79375	-0.32708	-0.17708	-1.2771	0.0125	-0.65208	291.423	333.896	67.813	298.416	254.560	222.319	279.136	290.389	25.054	234.162	305.333	44.882	218.973	42.406	81.518	336.010	0.0010429	0.0009418	0.00033247	1000.5	7.6903e-06	1.1697e-05	889.37	416.81	9.1921e-06	9.9985e-06	404.99	184.27	180.24	104.2	1.0292e-05	110.71	0.00069303	0.00062334	0.00020412	1018.4	7.0373e-06	6.7783e-06	905.29	420.67	6.9896e-06	6.6642e-06	411.88	186.07	181.77	105.1	7.8709e-06	110.75	298.434	62.132	56.701	-7.131	97.664	112.326	-8.944	-1.030	146.178	175.552	-3.492	1.576	3.707	7.900	156.228	4.038	-8191	255	
2676.765	1	1	0	0	0.12681	0.18189	0.11179	0.39914	0.089543	0.30562	0.34671	0.090805	0.078239	0.0578	0.45412	0.33508	0.53478	0.18667	0.17591	0.38384	-0.26458	0.2125	-0.77708	-0.40208	-0.0625	-0.75208	-0.16875	-0.52083	-0.71667	0.17708	-0.57083	-0.60208	0.13333	-1.1583	0.0375	-0.47708	15.217	300.372	7.747	9.315	109.569	87.477	251.526	215.826	191.297	238.759	227.515	315.924	-3.646	336.857	66.198	306.162	0.0013085	0.00086871	0.00015141	1000.7	8.3383e-06	9.3465e-06	891.02	415.94	3.7999e-06	5.6558e-06	406.98	185.82	181.2	105.23	8.9426e-06	112.19	0.00062627	0.00059349	0.00019478	1014.5	6.2897e-06	6.5201e-06	904.29	420.15	6.2339e-06	6.5545e-06	413.82	187.14	182.32	105.8	7.7736e-06	112.07	291.664	55.253	48.916	-7.220	94.239	131.511	-8.829	-0.997	272.958	158.758	-3.594	1.266	3.872	8.140	185.576	4.097	-8191	255	
2676.884	1	1	0	0	0.13331	0.23699	0.21014	0.38153	0.37873	0.27504	0.23775	0.24532	0.18054	0.18012	0.22483	0.27248	0.37179	0.35206	0.09138	0.3399	-0.53542	0.11667	-0.66667	-0.74167	0.22917	-0.78333	-0.41458	-0.33958	-1.0125	-0.054167	-0.75833	-0.65	0.19583	-1.0146	-0.075	-0.33125	178.592	319.583	93.078	283.873	5.325	24.838	130.145	298.496	178.321	104.059	231.998	335.244	-7.859	301.666	88.993	241.479	0.0015443	0.0014744	0.00030671	1010.4	6.4268e-06	9.5745e-06	900.16	417.37	3.642e-06	7.3744e-06	408.21	187.09	181.68	105.21	8.8757e-06	112.45	0.00062516	0.00066207	0.00019841	1021	6.448e-06	7.5238e-06	912.85	422.02	6.7832e-06	7.9164e-06	415.89	188.25	183.05	106.17	8.3171e-06	112.61	303.316	75.447	67.253	-7.320	145.921	137.257	-8.802	-0.976	201.034	124.280	-3.620	1.269	3.964	8.104	138.424	4.106	-8191	255	
2676.980	1	1	0	0	0.22729	0.18679	0.14931	0.29379	0.29686	0.19814	0.40842	0.19322	0.35951	0.012742	0.22048	0.10963	0.1571	0.29224	0.080923	0.41741	-0.34792	-0.17917	-0.1875	-0.76042	0.3625	-0.71667	-0.30208	-0.2	-1	-0.041667	-0.44167	-0.66875	0.03125	-0.89375	-0.24792	-0.091667	53.908	248.305	-16.363	318.586	245.896	178.228	306.801	-18.531	-17.404	224.752	278.196	330.486	22.459	331.205	26.517	276.636	0.0014733	0.00095207	0.00028973	1013.8	7.9303e-06	1.1535e-05	897.8	418.72	8.2053e-06	1.0026e-05	408.03	186.75	180.13	104.75	6.2152e-06	111.73	0.00068412	0.000776	0.00020846	1026.4	7.2214e-06	8.6019e-06	915.21	423.53	7.3697e-06	8.7182e-06	416.39	188.26	182.77	105.92	8.0309e-06	111.91	297.311	58.945	38.790	-7.266	120.235	109.451	-8.850	-1.149	155.163	123.017	-3.616	1.358	3.766	8.070	126.970	4.175	-8191	255	
2677.076	1	1	0	0	0.19273	0.13698	0.15709	0.17854	0.24568	0.23061	0.207	0.24074	0.34035	0.17705	0.020536	0.19631	0.10216	0.28569	0.31327	0.29835	-0.53542	0.091667	-0.4	-0.96875	0.15625	-0.64583	-0.41875	-0.00625	-0.62292	-0.060417	-0.072917	-0.83333	0.054167	-0.72083	-0.27292	-0.060417	184.162	-5.204	261.744	-5.876	178.522	168.347	83.302	281.562	258.623	139.178	294.306	226.116	305.033	299.543	-5.550	310.430	0.0014148	0.0010974	0.00031515	1010.8	8.5712e-06	6.6762e-06	892.56	419.02	1.5259e-05	9.195e-06	408.58	185.43	181.06	104.08	4.8044e-06	110.26	0.0007151	0.00079082	0.00019192	1021.8	7.3564e-06	8.3091e-06	906.32	421.65	7.4464e-06	8.1863e-06	413.8	186.16	182.5	105.12	7.0908e-06	110.28	297.430	72.113	59.224	-7.342	150.570	123.486	-8.991	-1.119	204.605	135.497	-3.778	1.369	3.652	8.055	110.896	4.028	-8191	255	
2677.172	1	1	0	0	0.20733	0.074671	0.21356	0.37972	0.22356	0.11118	0.036564	0.10821	0.2297	0.29068	0.13288	0.37536	0.13023	0.17502	0.33696	0.24076	-0.49375	-0.0083333	-0.095833	-0.67708	0.14167	-0.28125	-0.64375	-0.022917	-0.95417	-0.34375	-0.052083	-1.0562	0.027083	-0.79375	-0.66875	-0.15417	67.829	131.952	116.879	282.510	83.030	163.630	71.839	262.518	46.858	72.431	317.759	239.633	260.586	24.256	177.763	302.233	0.0014451	0.00039292	0.00017614	1004.7	7.6401e-06	1.1306e-05	897.8	417.43	1.0101e-05	5.057e-06	407.59	185.94	180.95	104.52	9.6101e-06	111.59	0.00070931	0.00071614	0.00017639	1017.4	7.5737e-06	7.6233e-06	903.87	419.99	7.5312e-06	7.4499e-06	412.48	186.82	182.95	105.46	6.5032e-06	111.26	306.899	282.705	37.893	-7.282	126.905	74.568	-8.930	-1.071	213.600	107.937	-3.567	1.283	3.791	8.074	145.716	4.315	-8191	255	
2677.293	1	1	0	0	0.22307	0.17853	0.13718	0.26402	0.15215	0.12139	0.046468	0.13493	0.21279	0.22547	0.23913	0.19206	0.2812	0.54027	0.092102	0.14137	-0.32083	-0.35417	0.20625	-1.0167	-0.077083	-0.41042	-0.76667	-0.16875	-0.6625	-0.3125	0.064583	-0.74375	-0.020833	-0.60208	-0.43958	-0.29375	31.470	177.186	310.706	332.290	256.603	73.567	-8.114	296.023	245.731	-11.455	53.454	322.839	338.164	314.938	87.681	257.945	0.0014924	0.0010338	0.0001739	1002.1	1.335e-05	5.9898e-06	896.79	416.3	1.2687e-05	6.4469e-06	407.78	187.57	181.45	104.63	7.3588e-06	111.68	0.00070543	0.00064097	0.0001608	1012.6	7.6322e-06	7.0241e-06	901.6	420.2	7.8538e-06	7.2312e-06	412.76	188.43	183.78	105.65	6.8259e-06	111.91	298.464	-1.279	71.923	-6.792	124.496	113.929	-8.656	-1.126	186.278	67.720	-3.347	1.420	3.716	8.213	150.127	4.057	-8191	255	
2677.364	1	1	0	0	0.30489	0.14783	0.25948	0.15222	0.22431	0.15214	0.031915	0.1637	0.25827	0.14116	0.2871	0.13754	0.034186	0.42006	0.020438	0.16417	-0.31458	-0.23958	0.17917	-0.75417	-0.095833	0.079167	-1.0604	-0.060417	-0.54792	-0.42292	-0.039583	-0.96875	-0.09375	-0.43542	-0.8125	-0.13542	255.737	52.158	-18.616	303.331	175.519	334.681	294.128	207.647	111.938	231.237	293.489	233.772	312.888	317.717	138.570	242.079	0.0011918	0.0017054	0.00014185	1008.4	1.2474e-05	5.9686e-06	893.43	416.98	5.383e-06	8.0415e-06	409.54	185.76	181.13	104.59	5.4144e-06	111.43	0.00077691	0.00068583	0.00017579	1021.5	8.6565e-06	7.6687e-06	906.01	422.56	8.8139e-06	8.0102e-06	414.93	189.1	184.03	105.68	8.2381e-06	112.43	293.003	33.985	55.221	-7.214	120.280	123.812	-8.867	-1.094	190.268	135.300	-3.896	1.324	3.636	7.846	80.222	3.665	-8191	255	
2677.461	1	1	0	0	0.12799	0.26529	0.13455	0.051534	0.12433	0.15667	0.12644	0.16759	0.21777	0.10326	0.10514	0.15404	0.23477	0.10697	0.069651	0.19742	-0.097917	-0.53958	0.21042	-0.75833	-0.029167	-0.27083	-0.73958	-0.10625	-0.40625	-0.52708	-0.079167	-0.69375	-0.44792	-0.4375	-0.66875	-0.41458	64.880	308.078	8.074	200.987	277.409	78.093	160.240	311.764	87.709	304.477	-3.130	19.742	335.395	309.682	202.679	316.307	0.001007	0.0010823	0.00034675	1005.2	8.1986e-06	4.4285e-06	892.56	413.72	1.8488e-05	7.5424e-06	405.83	184.29	179.55	102.65	4.4496e-06	108.56	0.00094087	0.00085184	0.00021934	1031.3	1.0557e-05	9.3315e-06	910.39	423.85	1.0445e-05	9.6687e-06	415.88	188.36	183.51	104.16	9.952e-06	110.23	299.215	2.084	106.287	-7.492	67.438	87.841	-9.237	-1.408	118.429	76.357	-4.098	0.927	3.094	7.499	141.721	3.429	-8191	255	
2677.581	1	1	0	0	0.18571	0.45222	0.30426	0.14221	0.26726	0.21583	0.24412	0.12324	0.052252	0.32816	0.17433	0.20953	0.10467	0.16099	0.37801	0.33746	-0.1625	-0.52917	0.34375	-0.95417	-0.039583	0.0375	-0.93125	-0.14792	-0.2375	-0.80208	0.058333	-0.69375	-0.4875	-0.01875	-0.81042	-0.28333	250.693	-17.877	93.577	314.026	280.450	305.905	-19.058	278.777	244.446	105.391	75.647	52.033	211.463	-13.098	192.009	252.879	0.0010475	0.00026669	0.00032843	1002.3	1.6033e-05	8.6723e-06	888.42	411.62	1.47e-05	7.2255e-06	400.54	181.43	177.56	101.23	6.8637e-06	106.35	0.0010051	0.00093413	0.00026054	1033.2	1.0897e-05	9.8381e-06	909.89	423.27	1.0642e-05	9.9551e-06	414.09	185.95	181.94	102.71	1.1002e-05	108.14	293.980	7.803	75.716	-7.602	57.789	117.601	-9.209	-1.752	138.600	99.823	-4.175	0.961	3.160	7.465	123.727	3.289	-8191	255	
2677.677	1	1	0	0	0.051189	0.17409	0.32026	0.28053	0.27663	0.17436	0.1053	0.21331	0.15898	0.039199	0.13653	0.026632	0.25077	0.25108	0.28585	0.22057	0.25625	-0.81042	0.32292	-0.77708	-0.39792	-0.12917	-0.89792	-0.025	-0.26458	-0.725	0.16875	-0.64375	-0.70833	-0.029167	-0.80833	-0.48125	-11.459	145.763	-0.204	316.234	96.843	214.514	-9.736	217.314	319.799	290.020	251.767	281.695	335.064	-18.884	95.686	225.907	0.0013524	0.0010259	0.00016646	1007.3	1.3781e-05	1.253e-05	888.39	412.66	1.2535e-05	7.4229e-06	401.51	179.46	176.7	100.07	5.814e-06	105.65	0.00099528	0.00094496	0.00029373	1040.3	1.1346e-05	1.0529e-05	918.84	425.72	1.1317e-05	1.0946e-05	417.81	184.93	181.45	101.85	1.2869e-05	107.43	297.377	29.318	64.964	-7.653	103.113	106.078	-9.349	-1.773	163.946	122.097	-4.467	0.881	3.158	7.279	180.726	3.351	-8191	255	
2677.772	1	1	0	0	0.21279	0.10691	0.074735	0.33995	0.0093348	0.21127	0.23725	0.26032	0.20579	0.19801	0.17275	0.12578	0.154	0.28556	0.18751	0.24012	0.34167	-0.7	0.075	-0.56667	-0.54375	0.095833	-0.86667	-0.51875	0.11042	-0.88958	0.045833	-0.49167	-0.88125	0.19375	-0.78333	-0.78125	312.451	332.404	59.195	266.536	294.769	196.099	241.428	250.939	226.635	236.975	34.726	292.156	7.140	304.542	167.964	230.667	0.0013399	0.00084435	0.00034028	1009	8.1578e-06	5.0132e-06	890.78	414	1.0641e-05	6.8028e-06	398.25	179.93	176.54	99.891	3.58e-06	104.84	0.0010597	0.0010331	0.00033955	1044.8	1.1676e-05	1.128e-05	924.58	425.8	1.1469e-05	1.1645e-05	418.91	184.96	180.98	101.89	1.398e-05	107.29	308.008	69.578	76.959	-7.676	94.145	90.060	-9.233	-1.948	153.794	196.177	-4.309	0.660	3.165	7.390	174.159	3.348	-8191	255	
2677.870	1	1	0	0	0.23457	0.32475	0.14058	0.43931	0.039749	0.12406	0.088681	0.39615	0.080928	0.081348	0.086338	0.13648	0.26803	0.29417	0.18526	0.17754	0.44167	-0.7125	-0.00625	-0.325	-0.52083	0.13958	-0.875	-0.51667	-0.060417	-0.78958	-0.19792	-0.44375	-0.82708	0.125	-0.58542	-0.56042	66.903	323.932	285.010	265.982	268.564	-13.933	76.878	309.518	-13.238	199.087	17.182	321.388	316.654	310.066	204.910	322.944	0.0012589	0.0011637	0.00012796	1012.5	7.1968e-06	1.3439e-05	892.79	413.65	6.9196e-06	5.0535e-06	403.32	180.46	177.23	100.42	5.6469e-06	106.42	0.0010638	0.0011192	0.00035542	1042.5	1.1475e-05	1.2091e-05	925.43	425.1	1.0993e-05	1.2083e-05	420.52	185.37	181.22	102.5	1.2663e-05	108.03	298.499	114.730	63.815	-7.999	77.290	182.438	-9.387	-1.843	128.973	189.097	-4.384	0.688	3.105	7.419	152.441	3.407	-8191	255	
2677.964	1	1	0	0	0.051968	0.18561	0.067659	0.19394	0.09901	0.2089	0.37595	0.26519	0.27433	0.22476	0.17864	0.12428	0.24861	0.25212	0.27117	0.056374	0.40625	-0.82917	-0.14167	-0.12917	-0.78542	0.03125	-0.64583	-0.64583	0.2	-0.72917	-0.19583	-0.21667	-0.69792	-0.33958	-0.41667	-0.62083	279.641	283.022	92.256	0.237	-3.930	89.564	253.724	293.537	261.172	128.311	265.994	192.420	272.005	334.508	122.823	255.897	0.0011645	0.00095373	0.00013377	1009.3	4.7544e-06	1.4696e-05	894.21	413.62	9.8815e-06	8.7235e-06	399.01	180.22	176.95	100.73	1.0864e-05	105.37	0.00096468	0.0011281	0.00032544	1035.7	1.0794e-05	1.254e-05	921.67	423.93	1.0699e-05	1.2731e-05	416.63	184.45	180.96	102.72	1.1703e-05	106.87	303.733	336.884	-5.019	-7.847	85.929	141.858	-9.433	-1.730	178.942	170.065	-4.237	0.777	3.218	7.237	100.894	3.320	-8191	255	
2678.060	1	1	0	0	0.023322	0.2202	0.20201	0.31676	0.14076	0.34699	0.27316	0.050205	0.11453	0.15117	0.29762	0.33537	0.094793	0.3183	0.22724	0.39555	0.53333	-0.82708	-0.06875	-0.072917	-0.9125	0.20625	-0.53125	-0.85625	0.11042	-0.68958	-0.49792	-0.12708	-1.1271	-0.23125	-0.225	-0.86042	141.677	90.769	63.660	284.111	211.004	80.662	277.274	71.966	319.782	2.946	190.701	313.328	4.320	314.104	325.957	325.720	0.0012384	0.00073478	0.00016363	1001.8	8.2195e-06	6.3872e-06	887.19	412.72	2.3948e-05	9.2017e-06	399.98	179.98	176.83	100.87	1.2897e-05	106.08	0.00095146	0.001136	0.00029931	1028.7	1.0743e-05	1.2742e-05	912.47	421.48	1.0946e-05	1.3037e-05	413.87	183.74	181.59	103.3	1.2257e-05	107.56	303.603	118.211	26.677	-7.976	147.883	90.872	-9.151	-2.023	198.316	38.331	-4.390	0.609	3.340	7.299	120.306	3.239	-8191	255	
2678.181	1	1	0	0	0.24291	0.068243	0.097147	0.10133	0.082135	0.20261	0.2102	0.12467	0.083922	0.061722	0.25785	0.15718	0.1425	0.30395	0.5605	0.37498	0.61042	-0.53958	-0.27917	0.26042	-0.77917	0.13125	-0.11667	-0.9	0.16458	-0.51042	-0.7	-0.025	-0.7375	-0.4375	-0.047917	-1.0625	250.161	39.142	70.391	296.767	235.566	286.540	290.469	234.502	176.597	95.613	304.130	224.306	47.543	305.239	88.980	302.812	0.0013426	0.00034117	0.0003887	1001.6	1.3799e-05	8.5158e-06	877.37	409.99	1.3044e-05	4.3762e-06	395.6	180.03	176.72	100.88	6.4984e-06	105.76	0.0011265	0.0012802	0.00032104	1031.2	1.2796e-05	1.425e-05	910.58	421.94	1.3112e-05	1.3958e-05	413.13	184.18	182.67	103.21	1.1944e-05	107.37	309.866	267.540	38.383	-7.986	148.673	59.872	-9.508	-1.839	228.102	48.901	-4.528	0.810	2.925	7.293	157.485	3.192	-8191	255	
2678.277	1	1	0	0	0.21912	0.17058	0.11198	0.37888	0.20909	0.051484	0.080323	0.11149	0.1857	0.38409	0.017521	0.20425	0.060036	0.11334	0.12274	0.33015	0.35417	-0.28958	-0.59583	-0.00625	-0.73542	-0.10625	-0.064583	-0.99167	0.20208	-0.56042	-0.67708	0.2	-0.83542	-0.30208	-0.085417	-1.0187	258.934	86.662	34.378	247.161	11.811	113.141	216.956	236.891	12.978	213.148	26.138	280.411	18.191	-3.142	218.408	290.465	0.001509	0.0010385	0.00037783	1004.8	1.2022e-05	4.3586e-06	887.31	414.34	1.4633e-05	3.9987e-06	402.41	180.79	178.17	101.44	4.8455e-06	107.24	0.0011883	0.0011776	0.00029479	1029.8	1.2502e-05	1.2134e-05	909.88	422.26	1.185e-05	1.1226e-05	412.51	184.04	182.75	103.36	9.898e-06	108.6	292.616	35.428	33.676	-7.870	140.331	112.653	-9.163	-1.701	198.398	130.017	-4.475	0.844	3.158	7.184	78.474	3.131	-8191	255	
2678.373	1	1	0	0	0.40654	0.24267	0.1954	0.024772	0.1884	0.078275	0.21166	0.27266	0.36181	0.22179	0.18595	0.12108	0.17842	0.20846	0.040604	0.273	0.19583	-0.44583	-0.6	-0.0125	-0.49792	-0.35208	0.091667	-1.0042	-0.016667	-0.21458	-0.96042	0.0625	-0.73333	-0.69375	0.1875	-0.99375	78.231	226.825	31.966	159.537	139.776	-8.510	242.762	273.082	80.139	255.160	52.760	-4.999	323.219	288.411	234.533	221.367	0.001361	0.0010555	0.00015973	1009.4	7.3111e-06	9.0638e-06	892.64	415.23	8.7736e-06	4.6368e-06	403.47	182.13	177.76	101.8	5.2911e-06	107.3	0.0010871	0.00098927	0.00025703	1033.6	1.1932e-05	1.0857e-05	912.56	424.16	1.2083e-05	1.0811e-05	414.81	185.74	183.17	103.46	1.0101e-05	108.79	300.723	55.505	325.138	-7.705	68.532	84.470	-9.532	-2.040	159.933	102.351	-4.382	0.915	3.131	7.228	88.138	3.336	-8191	255	
2678.469	1	1	0	0	0.053962	0.011281	0.060601	0.20979	0.10909	0.11691	0.12578	0.51298	0.32676	0.3062	0.24406	0.083358	0.10336	0.22192	0.079949	0.27902	0.22083	-0.225	-0.53542	-0.10625	-0.58958	-0.46875	-0.10833	-1.0479	-0.13542	-0.13333	-0.91458	-0.12917	-0.39167	-0.86458	0.18958	-0.85208	151.368	105.059	112.989	57.850	106.388	107.022	167.016	255.799	325.255	301.448	281.886	5.515	46.257	10.409	174.648	332.957	0.001384	0.00080498	0.0001099	1010.6	5.8807e-06	1.1911e-05	888.36	414.06	9.8734e-06	9.3232e-06	400.26	179.31	177.1	101.03	7.02e-06	105.67	0.0011368	0.00098915	0.00025871	1039.2	1.1863e-05	1.0601e-05	906.61	424.26	1.1182e-05	9.8389e-06	410.07	183.93	181.71	102.61	9.2738e-06	107.34	307.124	0.522	311.748	-7.870	25.384	115.238	-9.273	-1.873	200.816	120.638	-4.451	0.733	3.020	7.322	189.047	3.280	-8191	255	
2678.590	1	1	0	0	0.29021	0.11285	0.28598	0.087081	0.37042	0.14804	0.12017	0.063025	0.21282	0.19782	0.19285	0.10097	0.097223	0.091582	0.33003	0.20501	0.18125	0.17708	-0.94792	-0.13333	-0.33542	-0.56667	0.085417	-1.1479	-0.30625	0.125	-0.86042	-0.0020833	-0.52708	-1.0229	0.3375	-0.8125	84.093	255.149	219.784	-11.332	141.509	126.966	309.463	310.784	-9.068	314.846	8.337	32.634	4.570	2.723	31.227	326.051	0.0010597	0.00083613	7.7048e-05	1008.4	8.8763e-06	1.327e-06	886.31	414.83	1.5614e-05	1.2787e-06	400.86	179.03	176.88	100.47	5.7871e-06	105.52	0.0010159	0.00090678	0.00024409	1038.1	1.0711e-05	9.71e-06	906.61	424.56	1.0423e-05	9.3394e-06	410.37	183.22	180.85	102.15	9.7032e-06	107.12	297.825	33.342	79.160	-7.805	52.910	112.849	-9.539	-1.908	170.898	218.402	-4.264	0.714	2.998	7.194	219.747	3.417	-8191	255	
2678.662	1	1	0	0	0.18095	0.049427	0.082293	0.17189	0.19731	0.4023	0.33954	0.29535	0.066015	0.15726	0.199	0.16455	0.10688	0.10431	0.23774	0.48225	0.05625	0.2125	-0.67292	-0.079167	-0.35625	-0.65208	0.18125	-0.75833	-0.4875	-0.0625	-0.78542	-0.16875	-0.39583	-0.84167	-0.014583	-0.84375	76.004	209.570	335.346	247.066	279.693	17.050	210.941	302.515	317.115	102.077	335.641	128.254	296.112	165.815	-3.135	253.078	0.0013262	0.0006043	0.00023899	1013.7	1.1313e-05	8.1046e-06	883.4	413.98	1.178e-05	7.4968e-06	397.94	178.19	176.31	99.937	1.1696e-05	104.91	0.00096924	0.00088133	0.00026455	1041.5	1.0794e-05	1.0242e-05	911.06	425.89	1.1273e-05	1.0415e-05	413.28	183.78	180.92	101.68	1.1967e-05	107.03	299.468	8.358	55.561	-8.007	123.809	71.003	-9.561	-1.860	135.011	110.533	-4.513	0.659	2.910	7.121	179.868	3.234	-8191	255	
2678.756	1	1	0	0	0.076515	0.17109	0.094226	0.42831	0.063562	0.17326	0.20192	0.15219	0.19423	0.33784	0.24573	0.18011	0.21167	0.29227	0.15969	0.10447	-0.10208	0.05625	-0.72917	-0.28958	0.058333	-0.70625	0.03125	-0.52083	-0.63125	0.26042	-0.94167	-0.33958	-0.35208	-1.0438	0.016667	-0.56042	128.227	151.517	-15.561	289.934	285.313	180.802	194.391	337.005	263.964	40.094	241.348	233.645	194.102	291.612	3.539	302.932	0.0012293	0.00032761	0.00020138	1012.8	1.0636e-05	7.669e-06	886.38	413.26	1.1436e-05	1.1082e-05	399.54	178.86	176.59	100.41	4.4728e-06	105.99	0.0010418	0.00095439	0.00030715	1043.1	1.1112e-05	1.0636e-05	917.58	425.21	1.135e-05	1.062e-05	415.24	184.03	180.9	102.25	1.2355e-05	107.77	303.719	38.334	77.156	-7.886	136.358	85.180	-9.577	-1.864	107.762	147.096	-4.296	0.711	3.076	7.231	249.858	3.643	-8191	255	
2678.852	1	1	0	0	0.24195	0.061607	0.22505	0.21815	0.056522	0.057145	0.045279	0.13793	0.22944	0.15117	0.21376	0.22804	0.26774	0.4307	0.16418	0.25985	-0.27292	0.15	-0.73333	-0.070833	0.022917	-0.63125	-0.22292	-0.30417	-0.6125	-0.054167	-0.75	-0.39792	-0.28333	-1.0104	-0.12292	-0.425	115.538	26.756	247.688	290.328	117.822	89.694	36.998	249.805	283.479	164.221	297.677	257.424	51.949	316.950	263.505	-19.340	0.0013849	0.00084989	0.00027195	1008.1	1.155e-05	1.0424e-05	887.61	413.78	1.1152e-05	3.9872e-06	399.83	179.91	177.09	101	3.4417e-06	105.81	0.0010005	0.00095391	0.00031323	1039.5	1.0391e-05	1.0541e-05	920.23	423.95	1.0388e-05	1.0398e-05	415.27	183.68	180.66	102.69	1.1803e-05	107.19	294.742	91.155	96.816	-7.975	73.521	77.045	-9.614	-1.642	124.127	208.842	-4.225	0.544	3.009	7.277	200.684	3.425	-8191	255	
2678.973	1	1	0	0	0.27787	0.23331	0.21756	0.022082	0.12596	0.15784	0.10286	0.16342	0.14587	0.14853	0.064305	0.15295	0.23496	0.15431	0.12498	0.3423	-0.21667	-0.060417	-0.42083	-0.75208	0.11667	-0.79583	-0.22708	-0.22708	-0.81667	-0.022917	-0.57917	-0.60833	-0.064583	-1.0187	-0.12917	-0.26458	263.012	266.370	255.099	90.950	263.423	314.045	-14.503	158.250	259.943	253.140	113.521	300.803	297.791	315.719	104.801	59.576	0.0012392	0.00068772	0.00024804	1013.4	5.319e-06	1.283e-05	890.98	418.54	9.678e-06	8.3919e-06	400.03	177.66	176.84	99.821	4.6191e-06	103.68	0.00089954	0.00094469	0.0002953	1038.8	9.6636e-06	1.101e-05	920.73	426.22	1.0328e-05	1.1771e-05	416.82	182.28	180.99	102.27	1.3485e-05	105.4	290.810	119.922	25.852	-8.038	41.694	138.430	-9.474	-1.799	189.653	112.556	-4.379	0.489	3.117	7.345	53.722	3.383	-8191	255	
2679.069	1	1	0	0	0.30687	0.23387	0.092552	0.22601	0.12959	0.010295	0.20412	0.20003	0.11474	0.072631	0.18082	0.33489	0.29147	0.27202	0.23504	0.31689	-0.46667	0.0125	-0.5625	-0.75	0.085417	-0.82292	-0.53125	-0.17292	-0.91875	0.09375	-0.54375	-0.71875	0.041667	-0.91042	-0.29583	-0.19792	181.520	140.737	156.919	270.856	187.377	308.599	254.451	305.984	215.217	156.521	317.541	313.515	56.122	307.119	218.555	299.910	0.0013198	0.0011615	5.1737e-05	1055	9.016e-06	7.661e-06	922.23	431.69	1.2525e-05	1.0158e-05	407.32	174.96	175.49	96.652	6.0264e-06	99.799	0.0010816	0.0012761	0.00035804	1087.6	1.2253e-05	1.476e-05	955.56	442.79	1.2669e-05	1.482e-05	424.86	179.9	180.56	99.047	1.35e-05	101.85	301.396	82.441	108.952	-8.232	131.333	142.488	-9.633	-2.021	219.094	173.454	-4.621	0.611	2.838	7.519	162.922	3.601	-8191	255	
2679.165	1	1	0	0	0.14675	0.17391	0.092424	0.10686	0.25276	0.076094	0.21084	0.3494	0.28788	0.15995	0.28224	0.19881	0.2763	0.46198	0.22009	0.29925	-0.47083	0.075	-0.45	-0.80208	0.2125	-0.5875	-0.48333	-0.060417	-0.775	0.17708	-0.32292	-0.81875	0.060417	-1.0792	-0.30208	-0.11667	212.606	278.803	3.204	318.470	190.904	114.740	299.106	-19.752	164.091	202.263	339.246	306.141	-4.421	6.136	155.174	335.889	0.0013926	0.0015083	9.6326e-05	1067.5	4.4946e-06	6.2974e-06	923.92	435.03	1.8541e-05	9.011e-06	409.71	174.57	176.05	95.871	1.3668e-05	99.986	0.0011323	0.0013221	0.00033029	1099.7	1.211e-05	1.3937e-05	952.94	444.26	1.1811e-05	1.3313e-05	423.73	178.86	180.51	98.043	1.1079e-05	101.26	307.636	0.410	36.644	-8.130	241.990	54.355	-9.736	-2.263	201.101	78.340	-4.641	0.557	2.777	7.393	181.485	3.744	-8191	255	
2679.261	1	1	0	0	0.30446	0.32965	0.048743	0.25033	0.028948	0.21705	0.30757	0.048942	0.18413	0.099536	0.091812	0.090425	0.17888	0.2462	0.24872	0.27529	-0.45833	-0.275	-0.10417	-1.1	0.31667	-0.64167	-0.45	-0.08125	-1	0.15417	-0.2625	-0.76875	0.17292	-0.55417	-0.6875	0.095833	213.855	85.691	324.073	281.199	187.221	83.946	238.880	337.670	180.330	118.568	250.430	303.124	245.401	-8.687	130.123	10.779	0.0013494	0.0014746	6.327e-05	1071.7	1.4311e-05	6.0174e-06	934.51	438.72	5.6481e-06	6.8359e-06	415.59	178.31	178.31	98.215	7.6805e-06	103.8	0.0010083	0.0010699	0.00025675	1093.3	1.0416e-05	1.0907e-05	951.45	445.11	1.0551e-05	1.0931e-05	425.96	181.66	182.42	99.88	9.8397e-06	104.48	298.066	21.013	13.375	-8.217	169.740	29.141	-9.610	-2.158	207.080	112.608	-4.655	0.584	3.000	7.459	124.529	3.665	-8191	255	
2679.357	1	1	0	0	0.10364	0.27501	0.34167	0.28641	0.2176	0.14116	0.14534	0.11681	0.1836	0.17698	0.20811	0.189	0.23794	0.15906	0.18429	0.18064	-0.33958	-0.19167	-0.0875	-0.77917	0.20833	-0.33125	-0.67708	0.014583	-0.77708	-0.34167	-0.2125	-0.73333	-0.17708	-0.62083	-0.77917	-0.04375	310.000	117.221	215.835	271.509	116.515	168.065	257.311	320.852	326.778	-7.476	318.825	274.194	308.715	212.859	249.652	145.832	0.0011658	0.0015879	6.5695e-05	1074.7	8.0593e-06	1.0085e-05	932.4	436.35	1.1709e-05	6.1169e-06	409.72	178.01	177.28	98.705	1.1585e-05	104	0.001018	0.00099889	0.00024823	1097.8	1.192e-05	1.1695e-05	959.54	445.72	1.4084e-05	1.3995e-05	428.39	184.48	185.87	101.95	1.7187e-05	107.91	310.385	33.885	30.389	-8.055	196.562	104.408	-9.680	-2.145	147.560	101.538	-4.583	0.511	3.072	7.480	146.710	3.380	-8191	255	
2679.454	1	1	0	0	0.11493	0.099401	0.0055384	0.31897	0.17474	0.28612	0.070611	0.33811	0.14496	0.092731	0.1487	0.18541	0.17648	0.23726	0.23901	0.19788	-0.375	-0.40625	-0.041667	-1.1042	0.047917	-0.23125	-0.9125	-0.05625	-0.70417	-0.3375	0.045833	-1.0583	-0.13333	-0.38333	-0.66042	-0.13958	-1.729	241.754	197.844	247.784	315.690	266.103	242.952	303.246	90.774	49.274	309.410	319.370	29.763	284.725	248.702	37.038	0.0011928	0.0008185	0.00036214	1059	1.0073e-05	1.7036e-05	914.9	425.72	1.3342e-05	1.1512e-05	403.77	179.9	178.56	101.13	8.0158e-06	106.51	0.0020262	0.0019589	0.00050598	1122	2.4235e-05	2.1546e-05	973.72	448	2.2399e-05	1.9813e-05	431.62	189.88	189	104.77	1.8441e-05	111.19	279.242	58.111	17.685	-8.051	48.963	132.507	-9.582	-1.989	192.774	61.146	-4.765	0.650	2.777	7.308	133.891	3.448	-8191	255	
2679.550	1	1	0	0	0.12724	0.11402	0.11393	0.055151	0.21958	0.12523	0.38884	0.14753	0.097348	0.19928	0.23316	0.33252	0.14266	0.1725	0.15883	0.26874	-0.32292	-0.51458	0.15625	-0.87708	-0.066667	-0.42083	-0.89167	-0.125	-0.34583	-0.58542	0.020833	-0.79583	-0.39375	-0.125	-0.86042	-0.01875	6.920	113.006	-6.309	294.260	180.829	185.742	284.108	118.060	73.021	42.008	311.007	12.588	244.551	322.450	277.455	285.411	0.00095906	0.00099133	0.0003757	1036.8	9.5778e-06	6.0533e-06	899.55	418.83	1.7694e-05	9.0946e-06	401.38	181.79	179.47	102.9	9.2937e-06	107.71	0.0020264	0.0019192	0.00048995	1107.5	2.4052e-05	2.1803e-05	962.83	446.65	2.6007e-05	2.4386e-05	439.8	197.78	194.94	107.98	2.64e-05	115.53	306.918	37.032	103.875	-7.997	121.532	128.103	-9.781	-1.954	83.533	99.496	-4.514	0.658	2.766	7.339	173.680	3.176	-8191	255	
2679.670	1	1	0	0	0.12916	0.16726	0.10626	0.23266	0.061575	0.087003	0.16038	0.24254	0.043428	0.29706	0.2221	0.50899	0.10327	0.31238	0.15162	0.28243	-0.1375	-0.6875	0.43958	-1.0187	-0.26042	0.016667	-1.0292	-0.10625	-0.40417	-0.625	-0.014583	-0.79375	-0.29583	-0.1875	-0.73333	-0.23125	71.853	153.493	19.263	55.795	206.546	213.784	207.692	332.632	183.938	38.996	325.272	12.486	306.939	265.577	213.243	-9.015	0.00094506	0.00076679	0.00028409	1020.7	1.5948e-05	2.0608e-05	888.66	414.71	2.3871e-05	7.7973e-06	398.85	182.34	179.87	102.55	2.1234e-05	107.17	0.0027519	0.0026784	0.00072956	1137.2	3.3658e-05	3.0971e-05	993.78	460.15	3.5448e-05	3.4203e-05	461.58	207.08	200.98	109.6	3.5486e-05	117.85	299.308	36.907	50.060	-8.041	93.278	116.353	-9.454	-1.809	120.151	242.832	-4.297	0.681	2.787	7.089	223.607	3.080	-8191	255	
2679.765	1	1	0	0	0.38298	0.17384	0.26552	0.21755	0.21502	0.19532	0.1421	0.12557	0.19576	0.28917	0.22932	0.19889	0.23417	0.22367	0.10131	0.056208	0.10208	-0.77917	0.1625	-0.75	-0.41458	0.11458	-0.77708	-0.11458	-0.25208	-0.85625	0.06875	-0.75417	-0.46667	-0.20625	-0.83958	-0.28542	68.492	229.733	46.051	331.559	8.252	309.902	327.927	263.474	107.894	127.626	-17.368	276.785	308.811	314.773	187.879	198.340	0.001081	0.00092513	0.00055398	1012.8	7.0638e-06	1.8186e-05	886.87	414.04	3.8893e-06	9.6173e-06	399.93	183.27	180.3	103.64	2.6996e-05	108.66	0.0030877	0.0029682	0.00086223	1135.4	3.3231e-05	2.9923e-05	993.61	456.22	3.0029e-05	2.8195e-05	454.65	202.17	196.02	108.63	2.8855e-05	115.73	308.645	-7.928	143.458	-7.889	82.423	64.257	-9.554	-1.812	53.645	192.860	-4.643	0.377	3.046	6.997	200.802	2.793	-8191	255	
2679.863	1	1	0	0	0.18758	0.12703	0.14417	0.13972	0.25134	0.25921	0.28768	0.39181	0.12732	0.094001	0.16103	0.45299	0.36208	0.1933	0.17718	0.1819	0.0125	-0.68333	0.08125	-0.60417	-0.825	0.04375	-0.92292	-0.37083	-0.01875	-0.83958	-0.047917	-0.4875	-0.84167	-0.12917	-0.83333	-0.28542	299.941	23.513	230.682	210.255	107.424	82.133	328.937	314.405	325.131	93.468	203.028	264.670	295.815	137.838	8.647	-14.941	0.0014969	0.0013812	0.00051249	1012.6	6.6638e-06	8.1793e-06	886.54	415.12	1.7182e-05	7.5248e-06	398.65	182.37	180.25	103.04	5.799e-06	107.06	0.0022724	0.0022117	0.00070285	1097.8	2.4919e-05	2.3279e-05	976.69	446.26	2.4187e-05	2.4206e-05	448.74	197.41	193.79	107.94	2.9083e-05	113.76	307.478	75.853	104.172	-7.972	63.641	133.673	-9.709	-2.098	91.206	139.528	-4.646	0.428	2.870	7.020	112.690	3.090	-8191	255	
2679.957	1	1	0	0	0.073399	0.092741	0.18418	0.36223	0.092184	0.19841	0.13471	0.22732	0.23539	0.18005	0.28504	0.31528	0.058825	0.12271	0.20614	0.2804	0.26875	-0.51667	0.06875	-0.73542	-0.60625	0.11042	-0.72917	-0.52083	0.070833	-0.71875	-0.064583	-0.125	-0.94375	0.0041667	-0.47917	-0.68125	281.643	63.604	115.215	297.586	166.961	-3.126	225.618	198.950	71.738	-11.996	308.032	255.245	246.222	107.999	199.000	229.024	0.0012584	0.00082146	0.00043994	1014.2	9.449e-06	1.3939e-05	888.84	412.56	8.1239e-06	1.7492e-05	397.28	179.78	179.23	101.93	1.2708e-05	106.06	0.002247	0.0023929	0.00077832	1103	2.6876e-05	2.7472e-05	992.16	448.43	2.7433e-05	2.9848e-05	458.17	197.86	194.78	108.21	3.4151e-05	113.59	292.643	95.556	16.456	-7.951	22.281	120.508	-9.651	-1.745	91.076	147.546	-4.702	0.405	2.783	7.206	102.830	2.940	-8191	255	
2680.053	1	1	0	0	0.041506	0.25268	0.16285	0.15858	0.041446	0.022111	0.25839	0.25936	0.20901	0.072023	0.25204	0.08573	0.10509	0.35165	0.15224	0.25536	0.48958	-0.92917	0.1125	-0.37917	-0.66875	0.08125	-0.57917	-0.6125	0.19375	-0.8125	-0.10833	-0.16875	-1.0125	-0.19583	-0.49583	-0.97708	33.576	205.721	17.747	-10.313	143.654	116.025	309.104	-13.485	74.337	219.904	294.333	155.212	314.514	328.383	331.618	292.311	0.0014057	0.0029951	0.0004337	1012.4	2.0907e-05	1.5074e-05	889.72	410.98	1.4513e-05	1.094e-05	397.6	179.16	178.82	101.58	1.3488e-05	105.44	0.0025572	0.0029898	0.00090711	1117.6	3.0968e-05	3.4933e-05	1010.6	453.07	3.2043e-05	3.7597e-05	466.83	200.21	197.44	109.77	3.8771e-05	114.84	292.161	110.375	321.718	-8.335	57.069	151.450	-9.866	-2.017	252.272	146.086	-4.622	0.452	2.735	7.016	73.469	2.905	-8191	255	
2680.149	1	1	0	0	0.10306	0.40122	0.15357	0.093111	0.076095	0.086271	0.37156	0.056564	0.07253	0.27846	0.14176	0.028233	0.33014	0.20836	0.066495	0.19505	0.52917	-0.9375	-0.13125	-0.091667	-0.74792	-0.10417	-0.37917	-0.80625	0.025	-0.82083	-0.33333	-0.175	-0.94792	-0.19792	-0.38958	-0.91875	64.611	239.592	29.079	123.397	17.450	286.144	250.765	263.306	79.716	235.281	335.043	43.935	290.509	309.764	51.953	-12.481	0.0014228	0.0014973	0.00016256	1009.7	1.1422e-05	1.0664e-05	891.6	409.7	2.1775e-05	7.0897e-06	396.29	179.94	178.66	101.93	1.0021e-05	106.26	0.0029718	0.003664	0.001002	1125.6	3.5072e-05	4.1287e-05	1017.2	455.75	3.5938e-05	4.3063e-05	470.51	202.3	199.87	110.87	3.8013e-05	115.25	291.556	-7.378	-18.360	-8.170	192.229	140.568	-9.626	-2.100	180.331	196.514	-4.489	0.296	3.032	6.869	74.639	3.033	-8191	255	
2680.245	1	1	0	0	0.14728	0.12916	0.17492	0.11614	0.11416	0.25867	0.16972	0.2462	0.13568	0.1269	0.22599	0.16723	0.31274	0.35612	0.21532	0.27109	0.31042	-0.58333	-0.18542	0.054167	-0.81875	0.16875	-0.12708	-0.87083	0.26042	-0.52708	-0.56667	0.12083	-0.94375	-0.18333	-0.041667	-0.65	134.051	-15.825	38.853	238.724	5.062	220.149	165.117	280.927	151.415	338.250	40.233	252.714	314.883	321.717	0.704	305.700	0.0015013	0.00037989	0.00040351	1007.4	2.0289e-05	8.2939e-06	890.24	412.15	2.4351e-05	8.5993e-06	399.19	180.93	179.72	102.06	1.6833e-06	106.22	0.0031486	0.0037419	0.00093059	1114.7	3.5158e-05	3.9465e-05	997.5	449.4	3.3505e-05	3.7252e-05	457	198.23	198.65	109.65	3.1529e-05	113.36	302.589	225.557	312.131	-8.191	186.916	6.537	-9.810	-2.044	248.370	135.052	-4.635	0.508	3.053	6.808	-15.218	2.916	-8191	255	
2680.366	1	1	0	0	0.21993	0.068823	0.19725	0.19849	0.19104	0.16055	0.34236	0.28917	0.12538	0.27763	0.29353	0.43533	0.30886	0.36499	0.32483	0.16238	0.5125	-0.31042	-0.45	0.14375	-0.78542	0.079167	-0.23958	-0.76042	0.0041667	-0.35625	-0.625	-0.16875	-0.78542	-0.43125	-0.022917	-0.68958	25.593	12.882	4.225	323.057	167.926	223.839	247.742	262.085	15.128	16.499	326.550	321.988	270.747	258.910	118.091	-9.166	0.0019641	0.0017891	0.00033334	1007.4	3.1944e-05	1.574e-05	882.49	412.63	7.3388e-06	1.481e-05	397.5	179.39	178.97	102.27	4.9825e-06	105.33	0.0029549	0.0032619	0.00082649	1103.8	3.4987e-05	3.6358e-05	984.23	448.12	3.5364e-05	3.5517e-05	453.17	197.2	199.68	109.38	3.1527e-05	113.31	305.121	300.654	326.680	-8.004	200.560	11.985	-9.539	-1.936	212.438	91.912	-4.531	0.510	2.965	6.848	76.744	2.932	-8191	255	
2680.462	1	1	0	0	0.095469	0.025019	0.090851	0.061506	0.10286	0.045381	0.22233	0.13362	0.1753	0.37144	0.095372	0.2281	0.0416	0.20348	0.10803	0.030477	0.59792	-0.4	-0.53125	0.039583	-0.63333	-0.29583	-0.12292	-0.98958	0.1	-0.30625	-0.83958	0.054167	-0.78958	-0.6375	0.14792	-0.78958	18.000	-5.815	49.232	339.977	270.109	153.381	278.318	116.004	-10.429	310.275	298.415	316.020	258.691	-12.633	40.394	265.549	0.0014875	0.0011611	0.0001743	1010.2	9.8742e-06	1.2339e-05	882.14	409.89	1.723e-05	1.3319e-05	394.78	179.73	180.17	101.82	1.465e-05	105.13	0.0032616	0.0032227	0.00083519	1111	3.7934e-05	3.6351e-05	985.86	450.5	3.923e-05	3.6444e-05	455.66	200.01	202.77	109.52	3.4076e-05	114.79	313.635	49.536	-19.444	-8.152	108.585	96.150	-9.661	-1.692	170.947	69.596	-4.446	0.349	2.859	6.911	101.943	3.037	-8191	255	
2680.534	1	1	0	0	0.14733	0.1566	0.14794	0.20622	0.086809	0.079873	0.16019	0.22491	0.056428	0.21516	0.36639	0.30647	0.16478	0.19068	0.30113	0.34105	0.31875	-0.066667	-0.72917	0.039583	-0.82083	-0.42083	-0.072917	-1.0833	-0.1	-0.4125	-0.81042	0.10625	-0.8125	-0.97917	0.31875	-1.0271	297.083	170.971	288.777	-5.032	75.312	339.293	246.372	310.335	8.903	-16.769	23.513	2.894	275.512	-5.001	140.882	271.927	0.0011967	0.0019097	0.00021988	1011.2	2.5987e-05	1.3861e-05	886.52	412.48	2.5407e-05	1.9108e-05	395.16	179.06	179.22	101.34	1.941e-05	105	0.0037402	0.0034624	0.0009196	1139.5	4.2942e-05	3.9232e-05	1001.5	461.47	4.3326e-05	3.8628e-05	461.32	203.77	203.51	109.31	3.4807e-05	115.94	290.441	-11.388	64.952	-7.953	72.504	59.692	-9.723	-1.865	168.455	107.862	-4.786	0.464	2.964	6.972	201.148	3.214	-8191	255	
2680.630	1	1	0	0	0.078118	0.18515	0.16967	0.26094	0.43759	0.26904	0.16849	0.11608	0.11824	0.085666	0.30195	0.16575	0.062037	0.28369	0.17572	0.30643	0.23542	-0.30833	-0.60208	-0.17292	-0.3875	-0.76458	0.03125	-0.90208	-0.29167	-0.11875	-0.88333	0.052083	-0.49583	-1.0083	0.17292	-0.83125	311.209	178.014	86.226	335.288	66.917	192.756	193.890	27.755	337.355	261.120	313.325	321.028	160.406	2.782	174.544	281.418	0.0010782	0.00053123	0.00027979	1015.1	1.2162e-05	5.4642e-07	890.93	414.78	3.1292e-05	8.9716e-06	398.52	180.51	180.18	101.94	2.166e-05	105.97	0.0036974	0.0033816	0.00090757	1155	4.0532e-05	3.7374e-05	1003	464.75	3.95e-05	3.511e-05	459.94	204.41	200.9	108.92	3.2081e-05	116.03	309.530	303.815	44.019	-8.076	255.926	150.439	-9.654	-1.980	58.475	56.148	-4.382	0.607	2.757	7.037	216.861	3.048	-8191	255	
2680.751	1	1	0	0	0.28414	0.19379	0.10285	0.11144	0.14865	0.12498	0.25353	0.16778	0.31198	0.053104	0.16891	0.20772	0.36831	0.30221	0.033422	0.3928	0.225	0.14167	-0.73958	-0.095833	-0.0375	-0.81458	0.20208	-0.69792	-0.25417	-0.00625	-0.80417	-0.175	-0.30833	-0.77292	0.36458	-0.73125	-17.928	192.019	32.340	108.075	291.764	22.249	314.468	257.742	58.808	251.998	287.186	319.938	304.299	332.028	-12.322	330.799	0.00092841	0.0012758	0.00027683	1016.7	2.335e-05	6.1559e-06	890.15	414.34	7.4635e-06	1.3011e-05	398.02	180.09	180.71	102.1	2.5736e-05	105.55	0.003134	0.0028979	0.00082219	1142	3.3633e-05	3.1642e-05	991.69	458.42	3.3758e-05	3.0856e-05	456.12	202.65	198.71	108.41	3.285e-05	115.03	299.480	306.950	107.248	-7.944	82.909	159.342	-9.496	-1.873	190.326	67.344	-4.478	0.283	2.862	6.998	210.522	2.865	-8191	255	
2680.845	1	1	0	0	0.094406	0.16456	0.31201	0.37767	0.17784	0.12079	0.2197	0.17854	0.16854	0.16923	0.3984	0.28678	0.11504	0.38224	0.088771	0.25599	-0.052083	0.12292	-0.5125	-0.2375	-0.045833	-0.95417	-0.010417	-0.81875	-0.4375	-0.025	-0.86667	-0.19167	-0.24583	-1.1021	0.19375	-0.6125	186.973	131.492	149.248	-6.501	10.204	13.602	287.938	244.679	272.573	179.795	319.150	275.854	332.844	309.202	179.468	281.625	0.0010883	0.00088803	0.00055939	1019.5	2.427e-06	1.4309e-05	888.81	414.17	1.9482e-05	1.6944e-05	398.78	181.38	180.9	102.44	2.0296e-05	106.33	0.0028842	0.0026754	0.00082492	1131	2.9611e-05	2.775e-05	987.11	452.2	2.7901e-05	2.5496e-05	450.63	198.5	195.02	107.52	2.9414e-05	113.4	290.573	50.768	131.391	-8.091	293.952	1.075	-9.633	-1.750	92.303	216.815	-4.300	0.469	2.804	6.943	166.749	3.120	-8191	255	
2680.943	1	1	0	0	0.18428	0.12633	0.02461	0.047378	0.020793	0.15848	0.16574	0.26796	0.35399	0.28815	0.18225	0.1196	0.17393	0.33913	0.24687	0.51471	-0.1625	0.16458	-0.63958	-0.32083	0.016667	-0.7625	0.039583	-0.43958	-0.56458	0.1625	-0.87083	-0.53125	-0.11667	-0.91458	-0.091667	-0.52917	198.582	79.219	324.403	150.430	84.014	287.518	152.185	297.979	30.542	237.845	53.217	295.434	-8.856	338.830	145.477	302.714	0.00095117	0.0010979	8.1678e-05	1021.7	6.8809e-06	1.6872e-05	896.57	414.89	2.6549e-05	7.7244e-06	402.59	182.45	181.39	102.62	1.2035e-05	107.58	0.0024291	0.0023573	0.00078326	1118.7	2.6497e-05	2.6062e-05	991.19	447.84	2.5294e-05	2.4187e-05	449.28	196.69	192.89	107.11	2.5639e-05	112.68	288.381	71.044	75.865	-8.206	-13.986	136.294	-9.617	-1.953	125.932	186.441	-4.395	0.185	3.004	6.920	187.438	3.209	-8191	255	
2681.062	1	1	0	0	0.14039	0.12267	0.19166	0.063904	0.10156	0.20008	0.24156	0.19036	0.2171	0.030308	0.27071	0.27238	0.15539	0.2309	0.12164	0.092435	-0.70417	0.1375	-0.68333	-0.57708	0.095833	-0.87292	0.0041667	-0.53542	-0.83333	0.26458	-0.58333	-0.25417	-0.23958	-0.98333	-0.12708	-0.20208	8.523	246.310	271.564	-13.576	107.766	50.430	-7.726	227.434	333.954	72.560	-6.670	261.512	222.989	334.910	332.887	40.170	0.0012784	0.0019874	0.00043106	1022.6	7.0788e-06	1.5438e-05	906.8	418.71	1.4598e-05	6.3932e-06	406.76	185.54	181.96	104.06	5.1964e-06	109.25	0.0019221	0.0019786	0.00062809	1094.3	2.0199e-05	2.1745e-05	977.85	441.37	2.0008e-05	2.1366e-05	445.07	196.09	191.58	107.98	2.1858e-05	113.25	296.322	104.083	69.331	-7.932	165.259	180.937	-9.688	-1.810	82.248	216.337	-4.285	0.612	2.947	7.216	135.425	3.087	-8191	255	
2681.134	1	1	0	0	0.1349	0.14858	0.14453	0.22471	0.35993	0.25997	0.032389	0.12349	0.065257	0.19779	0.21247	0.4378	0.19657	0.10594	0.19549	0.19937	-0.43958	0.22083	-0.41042	-0.64583	0.16042	-0.69792	-0.59375	-0.1125	-0.77917	0.29792	-0.52917	-0.68125	-0.12708	-0.925	-0.4375	-0.1	314.991	297.339	170.601	326.316	332.153	23.074	238.443	26.272	258.795	250.176	161.631	243.791	54.158	-14.219	155.239	207.587	0.0012939	0.0014639	0.00022287	1024	3.1664e-06	1.1885e-05	910.76	418.46	9.8924e-06	1.2636e-05	405.39	185.04	182.45	103.81	2.7429e-06	108.38	0.0016208	0.0018056	0.00051487	1076.9	1.5822e-05	1.8121e-05	957.66	435.36	1.4551e-05	1.6644e-05	430.19	191.37	188.45	106.63	1.5019e-05	110.4	282.952	73.383	0.728	-7.993	139.027	181.191	-9.804	-1.872	79.704	182.328	-4.421	0.531	2.716	7.112	257.644	2.865	-8191	255	
2681.230	1	1	0	0	0.059395	0.18542	0.325	0.18797	0.10931	0.11496	0.37695	0.30682	0.24723	0.28783	0.27919	0.20494	0.13857	0.14469	0.12627	0.29469	-0.36875	0.1	-0.34167	-0.70833	0.32917	-0.56875	-0.44167	0.097917	-0.81875	0.0020833	-0.58125	-0.75208	-0.0375	-1.0479	-0.28333	-0.029167	82.653	207.127	77.098	9.165	104.544	328.180	208.222	300.539	193.908	55.894	304.808	15.436	-1.373	334.663	331.938	222.480	0.0014009	0.0016104	0.00035637	1033.1	1.2049e-05	8.9003e-06	915.68	420.92	1.8935e-05	3.4522e-06	407.34	183.83	182.77	104.31	2.5047e-06	108.78	0.0011807	0.001353	0.00034646	1068.4	1.1669e-05	1.3484e-05	942.81	430.81	1.0945e-05	1.2585e-05	420.63	187.67	186.71	106.25	1.0825e-05	109.65	294.455	62.619	65.616	-8.036	140.658	157.157	-9.743	-2.009	157.063	52.146	-4.388	0.336	2.706	7.058	287.132	3.039	-8191	255	
2681.350	1	1	0	0	0.14987	0.068025	0.23701	0.046037	0.13984	0.091587	0.20175	0.41684	0.30934	0.12183	0.15235	0.15476	0.18934	0.40572	0.13757	0.27993	-0.34583	-0.085417	-0.21667	-0.7	0.12917	-0.61875	-0.57292	-0.19375	-0.62083	-0.01875	-0.13333	-0.56875	-0.11875	-0.63125	-0.54792	0.083333	157.299	184.526	291.647	200.426	33.861	39.789	225.490	302.936	338.876	298.189	35.940	266.979	293.589	300.963	-7.625	272.287	0.0013851	0.0017874	0.0001596	1047.7	1.1516e-05	8.155e-06	920.68	424.23	2.5447e-05	7.7682e-06	406.45	184.39	183.28	104.47	2.7455e-06	108.17	0.00096179	0.0010642	0.00026175	1070.7	1.0326e-05	1.1331e-05	941.67	431.51	1.0604e-05	1.1453e-05	417.75	186.91	187.21	106.38	1.0483e-05	109.39	285.647	76.035	92.291	-8.159	154.532	96.210	-9.648	-2.081	201.898	93.665	-4.656	0.215	2.975	7.155	46.759	3.181	-8191	255	
2681.446	1	1	0	0	0.14831	0.17814	0.29976	0.60428	0.09041	0.16605	0.12884	0.26388	0.065549	0.10699	0.47327	0.28013	0.25333	0.31579	0.21509	0.22907	-0.28542	-0.0375	0.12083	-0.9875	0.1125	-0.35208	-0.62083	0.15625	-0.70417	-0.25	-0.025	-1.0292	-0.1625	-0.65625	-0.64792	-0.0020833	240.167	271.085	6.160	299.990	7.780	100.993	81.262	305.738	253.200	72.007	309.839	94.033	15.071	286.453	61.412	276.101	0.0011777	0.00088918	0.00010345	1070.7	1.3995e-05	8.6328e-06	932.88	428.14	1.7204e-05	3.6466e-06	405.26	179.29	180.88	101.88	6.8189e-06	105.4	0.0010442	0.0010671	0.0002649	1092.3	1.2261e-05	1.2582e-05	957.92	439.03	1.4398e-05	1.4666e-05	424.76	185.77	188.93	105.01	1.5858e-05	108.36	300.790	37.264	92.396	-8.111	134.119	82.179	-9.594	-2.240	194.725	127.739	-4.547	0.287	2.877	7.205	134.137	3.068	-8191	255	
2681.543	1	1	0	0	0.10427	0.1329	0.12246	0.34872	0.14372	0.1071	0.051834	0.25257	0.21536	0.1309	0.26368	0.20032	0.073417	0.2523	0.18277	0.22285	-0.19375	-0.30833	-0.022917	-0.8625	-0.03125	-0.13333	-1.0083	-0.0125	-0.68958	-0.47917	-0.11042	-0.78958	-0.4625	-0.42083	-0.7875	0.083333	8.821	30.068	134.511	289.361	267.655	-0.217	147.729	282.424	19.632	201.780	270.872	73.665	259.720	303.085	103.255	243.368	0.0013194	0.00090399	0.00028971	1075.8	6.5822e-06	1.0011e-05	929.18	428.96	7.5117e-06	3.1636e-06	402.01	176.86	179.9	101.39	8.2744e-06	104.1	0.0017285	0.0016551	0.00041306	1123.6	1.8823e-05	1.6568e-05	966.52	444.12	1.6749e-05	1.4891e-05	420.09	183.65	186.88	103.71	1.1865e-05	106.17	297.533	-8.868	101.714	-8.221	124.362	77.767	-9.827	-2.106	148.963	76.564	-4.794	0.517	2.729	7.064	145.300	3.082	-8191	255	
2681.663	1	1	0	0	0.07215	0.17288	0.062373	0.064998	0.11496	0.066877	0.18735	0.45153	0.16199	0.27358	0.29447	0.2623	0.5241	0.19256	0.38217	0.023012	-0.29583	-0.40833	0.3125	-0.98958	-0.16042	-0.22083	-0.65417	-0.010417	-0.62917	-0.40417	-0.0083333	-0.88333	0.033333	-0.28333	-0.78333	0.045833	24.656	-18.154	311.171	281.351	273.466	255.771	188.290	278.106	189.586	337.082	328.526	308.799	293.287	-16.674	242.278	284.094	0.00099441	0.00031703	0.00023888	1070.5	6.5773e-06	1.0261e-05	911.24	425.19	6.3094e-06	1.0242e-05	399.93	179.49	181.61	102.86	3.8608e-06	106	0.0012384	0.0011035	0.00027555	1100.4	1.2951e-05	1.1456e-05	935.54	435.84	1.2139e-05	1.0903e-05	409.46	183.44	185.44	104.41	8.8274e-06	106.95	309.206	54.945	53.464	-7.987	68.623	122.990	-9.838	-2.166	196.660	121.087	-4.609	0.344	2.949	6.978	267.979	2.947	-8191	255	
2681.759	1	1	0	0	0.095147	0.26358	0.041964	0.35102	0.086716	0.094327	0.15872	0.16266	0.16835	0.23187	0.2742	0.23592	0.18794	0.096029	0.11765	0.13563	0.020833	-0.50417	0.14792	-0.93333	-0.041667	-0.039583	-0.85	-0.033333	-0.32708	-0.55417	0.10625	-0.89583	-0.25625	-0.2	-0.87292	-0.05625	295.177	50.044	39.760	334.880	248.139	180.032	267.195	120.549	278.364	29.679	251.701	315.019	7.090	298.449	304.149	13.386	0.0011911	0.0007872	0.00032219	1056.7	3.1992e-06	5.5856e-06	913.85	427.15	1.0663e-05	2.21e-06	403.21	180.6	182.1	103.66	1.0623e-05	106.58	0.00089125	0.00079762	0.00020426	1078.5	9.2946e-06	8.239e-06	929.34	434.18	8.9826e-06	8.4079e-06	410.83	183.92	185.03	104.85	8.6854e-06	107.59	302.295	34.239	50.953	-7.946	76.022	118.997	-9.748	-1.901	102.412	91.883	-4.651	0.221	2.833	7.069	188.071	3.016	-8191	255	
2681.831	1	1	0	0	0.17875	0.070119	0.23552	0.41029	0.10652	0.16555	0.1905	0.35988	0.18549	0.12709	0.13477	0.14233	0.2707	0.39377	0.15866	0.27488	0.035417	-0.80833	0.26875	-0.64583	-0.57292	0.064583	-0.91042	-0.18125	-0.29167	-0.69167	0.1625	-0.67292	-0.79375	-0.14167	-0.66667	-0.19375	285.421	301.964	34.160	313.372	213.949	247.683	279.494	282.797	5.056	332.288	203.238	255.480	315.584	301.641	274.436	217.049	0.0010795	0.0015433	0.00018058	1057.9	6.2974e-06	5.6087e-06	917.28	424.88	1.2511e-05	4.2075e-06	402.79	180.69	182.05	103.34	1.0183e-05	106.48	0.00083699	0.00077382	0.00021907	1080.7	9.0997e-06	8.3083e-06	933.8	435.4	9.3255e-06	8.9532e-06	413.07	184.43	185.84	104.72	1.0742e-05	107.9	302.994	31.329	79.690	-8.062	133.454	71.807	-9.757	-2.015	86.368	163.784	-4.575	0.236	2.714	6.842	213.410	2.927	-8191	255	
2681.925	1	1	0	0	0.097426	0.12354	0.18016	0.24355	0.15865	0.089803	0.21978	0.32887	0.16854	0.13834	0.10262	0.24742	0.21496	0.22381	0.1712	0.034305	0.32292	-0.41042	-0.0083333	-0.78125	-0.32917	0.072917	-0.82083	-0.24583	0.010417	-0.7625	0.11458	-0.525	-0.63958	-0.0625	-0.725	-0.25417	271.946	58.379	231.126	25.092	273.973	199.968	261.507	266.553	27.180	146.305	283.511	226.816	254.964	75.299	159.067	336.809	0.0012907	0.00093681	0.00025564	1059.2	1.6998e-05	1.1302e-05	913.68	424.72	8.5869e-06	8.3793e-06	399.45	180.52	181.95	103.62	1.0329e-05	106.55	0.00095289	0.00092328	0.00028945	1088.6	1.1218e-05	1.0326e-05	941.65	436.33	1.1176e-05	1.0877e-05	416.75	185.13	186.15	105.27	1.2049e-05	108.09	299.457	12.082	50.649	-7.867	81.806	142.865	-9.472	-1.997	144.045	71.842	-4.469	0.527	2.652	6.972	196.043	2.928	-8191	255	
2682.046	1	1	0	0	0.19178	0.17992	0.19549	0.22646	0.24799	0.23269	0.13252	0.1395	0.16279	0.14418	0.08456	0.014391	0.41057	0.29131	0.10867	0.14899	0.33125	-0.5375	0.045833	-0.53125	-0.55	0.13125	-0.64375	-0.4375	0.097917	-0.86667	-0.13125	-0.30625	-0.76875	-0.2375	-0.74375	-0.50208	307.801	279.824	296.331	51.928	238.011	78.395	100.158	270.073	44.817	153.437	216.391	86.434	274.913	255.188	13.925	288.727	0.0012635	0.00070641	0.00024656	1047.8	1.0096e-05	1.1239e-05	901.84	423.67	1.6333e-05	9.3158e-06	400.07	180.23	182.36	104.58	1.095e-05	106.66	0.00093275	0.0009187	0.00029491	1074	9.9566e-06	9.6062e-06	928.83	431.8	9.5835e-06	1.0092e-05	413.04	183.76	186.1	106.07	1.1218e-05	107.94	298.034	-17.475	96.340	-8.077	99.117	172.707	-9.544	-1.964	128.194	93.533	-4.696	0.477	3.065	7.190	134.884	3.111	-8191	255	
2682.142	1	1	0	0	0.29411	0.079765	0.1292	0.23678	0.047955	0.26444	0.293	0.11329	0.23414	0.19517	0.14259	0.33007	0.19035	0.23685	0.063597	0.18433	0.39792	-0.71875	0.10833	-0.27292	-0.59792	0.16875	-0.64375	-0.38125	0.0041667	-0.88958	-0.016667	-0.46042	-0.80833	0.13125	-0.575	-0.45625	-14.111	336.660	63.450	0.902	33.550	107.843	277.540	297.166	231.895	32.771	181.913	271.221	314.309	-19.574	185.080	241.041	0.0011408	0.00070519	0.00022731	1050.7	8.2901e-06	8.2808e-06	904.07	425.07	7.007e-06	4.2917e-06	400.25	180.27	182.44	104.87	5.199e-06	107.17	0.00084397	0.00089847	0.00027457	1070.6	8.9041e-06	9.5961e-06	929.22	432.19	8.489e-06	9.7137e-06	412.4	183.58	185.49	106.04	9.7438e-06	108.09	294.553	104.892	21.373	-7.988	125.296	150.099	-9.943	-1.929	158.798	87.438	-4.733	0.385	2.900	7.114	89.672	3.046	-8191	255	
2682.238	1	1	0	0	0.11344	0.31209	0.099702	0.33012	0.34819	0.18188	0.05125	0.18804	0.16297	0.19867	0.14853	0.2362	0.26448	0.33155	0.16581	0.21906	0.375	-0.74167	0.035417	-0.1625	-0.86458	0.13333	-0.68542	-0.5875	-0.033333	-0.75208	-0.20208	-0.43542	-0.80417	0.014583	-0.46875	-0.71042	86.864	126.234	130.356	39.031	242.089	203.195	273.464	266.670	198.308	173.709	132.820	302.124	304.587	322.235	187.840	293.625	0.0012423	0.00019557	0.00020932	1043.3	1.0396e-05	7.1578e-06	906.19	423.83	4.7791e-06	8.5991e-06	404.03	182.41	184.37	104.72	3.5639e-06	108.27	0.00075022	0.00086615	0.00024061	1062.2	8.0974e-06	9.4927e-06	926.41	431.13	8.1947e-06	9.8585e-06	413.74	184.86	186.88	106.34	9.5666e-06	108.69	302.654	102.754	-2.221	-7.998	142.053	126.481	-9.705	-1.939	252.868	158.909	-4.478	0.341	2.878	7.018	42.092	2.912	-8191	255	
2682.335	1	1	0	0	0.17132	0.29462	0.14861	0.045239	0.19645	0.081022	0.12129	0.17347	0.043396	0.15035	0.23849	0.42124	0.34901	0.09916	0.21106	0.36887	0.14583	-0.6625	-0.27917	0.045833	-0.5	0.016667	-0.46042	-0.69792	0.05	-0.69167	-0.4	-0.064583	-1.0021	-0.16458	-0.2125	-0.71667	151.379	98.621	279.521	20.984	100.864	316.522	172.460	218.341	226.641	328.997	-13.642	58.297	224.251	324.820	40.407	234.283	0.0014194	0.001146	0.00030902	1045.2	1.0753e-05	1.2311e-05	908.17	425.22	9.3329e-06	4.5082e-06	405.71	184.28	185.64	105.68	1.264e-05	108.77	0.00081138	0.0009506	0.0002436	1062	9.0339e-06	1.0332e-05	925.4	431.76	9.0909e-06	1.0419e-05	415.65	186.58	188.7	107.59	9.5279e-06	109.41	297.964	27.573	40.654	-7.887	134.602	128.335	-9.636	-1.929	196.360	82.915	-4.349	0.353	2.938	6.809	121.553	2.876	-8191	255	
2682.431	1	1	0	0	0.14395	0.084868	0.17544	0.19812	0.18746	0.23409	0.14598	0.047026	0.18143	0.13314	0.20104	0.25277	0.27109	0.32916	0.11567	0.19377	0.4625	-0.75833	-0.26458	-0.15625	-0.84375	-0.1125	-0.33333	-0.97083	0.1125	-0.55833	-0.56875	0.072917	-1.0271	-0.30208	-0.029167	-1.0104	268.881	328.156	171.008	309.677	59.988	47.592	61.040	-2.589	215.999	190.982	225.424	324.359	325.401	318.066	82.788	313.434	0.001425	0.00024104	0.00020176	1037.8	1.5381e-05	1.0826e-05	901.63	423.74	1.4312e-05	5.988e-06	401.19	183.42	185.17	105.87	1.0003e-05	107.74	0.00091175	0.00098949	0.00024866	1055.9	1.0309e-05	1.088e-05	920.94	430.44	1.0463e-05	1.0792e-05	412.64	185.64	189.59	107.5	1.0021e-05	108.57	306.827	167.521	15.762	-8.023	146.173	104.502	-9.775	-1.879	200.310	81.184	-4.733	0.442	2.901	6.804	144.935	3.097	-8191	255	
2682.527	1	1	0	0	0.42152	0.08743	0.15553	0.057232	0.15236	0.096176	0.24512	0.10417	0.12853	0.16057	0.13832	0.12692	0.12653	0.17963	0.41852	0.040654	0.37083	-0.43125	-0.50625	-0.066667	-0.92917	-0.03125	-0.24375	-0.77917	-0.077083	-0.35	-0.62708	0.22708	-1.0708	-0.38125	0.15	-0.92708	244.999	328.974	226.972	53.016	329.615	310.961	47.712	51.680	47.512	38.187	249.130	43.077	328.671	314.011	178.313	306.308	0.0013875	0.0014303	0.00019849	1026.8	5.4578e-06	1.0968e-05	887.66	421.17	1.0697e-05	2.1173e-06	398	181.55	184.3	104.76	3.3492e-06	105.8	0.0010573	0.0010475	0.00027098	1050.6	1.2417e-05	1.2236e-05	912.88	430.3	1.3409e-05	1.2911e-05	413.39	185.96	190.94	107.02	1.3092e-05	108.17	300.208	15.957	46.330	-8.050	125.525	65.617	-9.604	-2.053	158.891	73.920	-4.694	0.362	2.872	6.781	310.173	2.749	-8191	255	
2682.623	1	1	0	0	0.14344	0.1775	0.35695	0.51005	0.17834	0.27574	0.3718	0.11641	0.21477	0.22845	0.15298	0.088848	0.23983	0.16922	0.12899	0.19864	0.32083	-0.19167	-0.69375	0.11875	-0.63125	-0.24167	-0.0020833	-0.87292	0.21458	-0.1625	-0.93542	0.089583	-0.76667	-0.53958	0.26042	-0.79167	293.717	152.331	-12.795	278.256	332.220	336.803	282.120	43.456	104.271	303.535	246.002	53.583	330.974	270.456	40.446	271.285	0.0012943	0.001105	0.00016307	1015	7.0909e-06	8.5286e-06	876.34	416.13	1.3807e-05	8.8446e-06	395.19	179.71	183.63	103.71	7.2089e-06	104.95	0.00148	0.001381	0.00036697	1055.9	1.782e-05	1.6841e-05	916.22	434.68	1.9543e-05	1.7816e-05	420.75	189.22	193.57	107.02	1.6843e-05	109.04	311.414	-9.439	94.086	-7.852	141.316	96.543	-9.684	-1.908	120.653	49.847	-4.727	0.303	2.804	6.716	115.657	2.938	-8191	255	
2682.744	1	1	0	0	0.12371	0.19026	0.07423	0.45453	0.079874	0.46664	0.1419	0.31275	0.29046	0.39302	0.13496	0.23471	0.23441	0.47171	0.23285	0.036716	0.12292	-0.16667	-0.69167	0.23125	-0.60417	-0.40208	0.12083	-1.1792	-0.3125	-0.29167	-0.73333	-0.11042	-0.54375	-0.86667	0.18333	-0.86458	219.506	12.880	37.643	286.436	326.593	19.069	29.500	301.712	242.347	105.730	97.777	237.359	226.215	297.249	185.731	8.029	0.00090657	0.001105	0.00011718	998.53	5.5762e-06	1.2053e-05	864.71	414.35	8.3097e-06	9.2347e-06	397.48	183.13	185.48	104.95	1.1694e-05	106.42	0.0018412	0.0016534	0.00043924	1056.5	1.9868e-05	1.8155e-05	908.83	435.46	1.9351e-05	1.7032e-05	421.49	192.17	194.21	107.71	1.5303e-05	109.96	277.132	-15.221	30.748	-8.168	74.907	100.405	-9.698	-1.947	155.449	99.728	-4.452	0.232	2.839	6.699	201.611	2.612	-8191	255	
2682.838	1	1	0	0	0.30715	0.038843	0.17037	0.38074	0.18515	0.079018	0.38767	0.21606	0.26762	0.13018	0.057287	0.172	0.070766	0.22812	0.028757	0.28445	0.077083	0.085417	-0.90625	-0.03125	-0.25	-0.63333	0.085417	-0.91458	-0.22917	0.125	-0.87292	0.072917	-0.50625	-0.83125	0.24583	-0.72083	-1.855	77.043	333.907	250.529	56.121	292.108	317.565	214.001	88.015	141.474	36.305	280.531	275.623	9.244	286.378	301.772	0.0012394	0.00092641	0.00024139	977.99	1.4785e-05	3.9441e-06	851.14	415.97	1.4421e-05	8.2751e-06	399.32	183.85	187.11	104.86	1.3704e-05	105.52	0.0015884	0.0014349	0.0003942	1033	1.6889e-05	1.5675e-05	893.71	434.55	1.6723e-05	1.5147e-05	421.1	193.07	194.95	107.63	1.5454e-05	109.17	294.574	59.095	75.177	-7.901	45.357	191.324	-9.556	-1.751	214.208	-9.725	-4.218	0.195	2.801	6.539	200.693	2.775	-8191	255	
2682.934	1	1	0	0	0.2205	0.20591	0.040778	0.059731	0.056645	0.063677	0.17086	0.17059	0.37405	0.061868	0.2425	0.093993	0.05722	0.3342	0.066393	0.45161	0.13125	0.28958	-0.82708	-0.03125	-0.17917	-0.78125	0.072917	-0.78958	-0.53958	0.2625	-0.78125	-0.21458	-0.30417	-1.0667	0.21458	-0.41042	27.127	42.778	55.020	1.764	314.758	295.111	198.697	302.417	35.538	276.709	14.580	125.209	273.609	290.468	37.528	13.822	0.0010921	0.0014715	6.6211e-05	963.41	9.8921e-06	4.6226e-06	843.02	413.18	1.3112e-05	7.1311e-06	398.81	184.18	188.2	104.68	1.7382e-05	105.16	0.0014709	0.0013505	0.00041099	1017	1.609e-05	1.5372e-05	885.78	432.64	1.6137e-05	1.469e-05	423.95	193.47	195.48	107.38	1.7202e-05	108.73	293.642	16.810	50.611	-7.803	82.439	137.349	-9.879	-1.665	101.723	164.078	-4.449	0.205	2.730	6.623	209.481	2.714	-8191	255	
2683.030	1	1	0	0	0.08956	0.11494	0.15963	0.056901	0.16886	0.20607	0.21479	0.22152	0.1556	0.25638	0.52902	0.31324	0.19885	0.41725	0.096683	0.25493	-0.16042	0.225	-0.61667	-0.31458	-0.066667	-0.64167	-0.30208	-0.51667	-0.72083	0.20833	-0.86458	-0.085417	-0.30833	-0.84583	0.14583	-0.5625	91.491	310.403	324.352	237.042	205.754	115.813	231.160	253.797	69.746	69.929	8.386	97.755	320.459	277.203	145.694	268.662	0.0012081	0.002204	0.00029262	954.94	7.1328e-06	7.5006e-06	836.16	414.56	2.2421e-06	8.1303e-06	400.1	184.47	189.07	104.42	3.0043e-06	105.34	0.0014917	0.0013915	0.0004624	1007.4	1.6332e-05	1.5898e-05	886.78	433.42	1.6328e-05	1.5135e-05	427.79	193.16	195.91	107.4	1.7175e-05	108.27	301.750	63.731	89.427	-8.112	27.209	51.977	-9.847	-1.802	-1.726	122.848	-4.577	0.020	2.802	6.585	221.566	2.890	-8191	255	
2683.126	1	1	0	0	0.099287	0.12249	0.13789	0.48449	0.17653	0.1049	0.34129	0.16384	0.21813	0.2323	0.14956	0.099452	0.086446	0.351	0.14676	0.29118	-0.2125	0.14792	-0.48542	-0.56875	0.20417	-0.98958	-0.041667	-0.64167	-0.62917	0.13333	-0.54583	-0.57917	-0.033333	-1.0187	-0.083333	-0.24375	195.538	139.649	323.320	265.655	204.582	297.935	250.757	234.315	306.398	13.409	8.013	275.691	323.431	-11.457	79.246	194.942	0.0011496	0.00093756	0.00030991	951.57	1.4821e-05	9.0771e-06	835.88	418.25	8.6329e-06	6.3353e-06	403.11	187.1	190.71	105.8	1.0999e-05	106.94	0.0013379	0.0013037	0.00042652	992.18	1.3636e-05	1.418e-05	878.64	430.91	1.3163e-05	1.3274e-05	425.25	193.1	195.83	108.25	1.4632e-05	108.87	293.725	70.232	96.424	-7.756	89.705	125.175	-9.650	-1.434	117.482	148.428	-4.551	-0.063	2.646	6.860	148.496	2.622	-8191	255	
2683.223	1	1	0	0	0.036216	0.089392	0.12559	0.076018	0.10128	0.14222	0.083645	0.21463	0.19182	0.1026	0.33642	0.087408	0.040135	0.38338	0.080087	0.11991	-0.49167	0.34792	-0.31667	-0.64375	0.077083	-0.96875	-0.20417	-0.18333	-0.67708	0.035417	-0.62917	-0.63958	-0.10208	-0.92292	-0.1375	-0.17083	28.256	296.458	288.370	74.547	57.354	89.374	215.004	318.275	69.137	192.248	258.418	205.548	306.425	298.519	132.541	279.407	0.00139	0.0012021	0.00030066	952.91	1.7575e-06	1.1726e-05	840.1	417.16	1.4784e-05	6.2505e-06	402.99	186.73	189.74	104.97	1.4085e-05	104.7	0.0011326	0.0012177	0.00037164	987.29	1.214e-05	1.4203e-05	878.91	430.23	1.2741e-05	1.4484e-05	423.9	192.17	194.96	107.79	1.5571e-05	107.13	287.908	109.448	8.460	-7.997	198.732	157.195	-9.849	-1.532	75.762	149.949	-4.564	0.017	2.891	6.704	107.273	2.728	-8191	255	
2683.343	1	1	0	0	0.071285	0.26063	0.055387	0.14056	0.23709	0.20101	0.1949	0.31039	0.04618	0.22343	0.13682	0.23015	0.27957	0.12628	0.18885	0.34951	-0.52708	0.19167	-0.41458	-0.74792	0.21458	-0.72708	-0.45625	0.035417	-0.74375	0.089583	-0.32708	-0.76042	-0.066667	-0.83542	-0.28125	-0.22083	6.549	156.697	332.940	61.750	-15.817	310.439	118.349	260.311	158.989	110.780	29.157	198.097	330.502	314.467	112.811	216.135	0.0012822	0.00053402	0.00011853	963.48	1.0753e-05	1.2543e-05	842.26	412.73	6.6052e-06	1.0833e-05	392.95	180.26	185.44	103.36	5.4784e-06	102.85	0.0012542	0.0014655	0.00040407	1003.6	1.3869e-05	1.6762e-05	885.36	427.28	1.4479e-05	1.7089e-05	416.33	187.73	192.02	106.47	1.6013e-05	105.31	307.660	55.945	0.499	-8.062	172.509	130.892	-9.716	-1.740	126.342	148.538	-4.469	0.079	2.848	6.957	330.752	2.837	-8191	255	
2683.439	1	1	0	0	0.065201	0.3013	0.040071	0.25475	0.20554	0.15828	0.36334	0.25361	0.23317	0.11581	0.16092	0.1422	0.18385	0.13448	0.35109	0.37017	-0.61458	0.03125	-0.25417	-0.89792	0.18333	-0.72917	-0.48542	-0.04375	-0.96458	0.23125	-0.375	-0.67292	-0.064583	-0.68958	-0.42917	-0.039583	111.203	99.524	-5.775	116.871	25.760	127.044	293.543	15.891	236.972	51.317	59.520	266.299	81.603	288.372	273.311	-19.086	0.001123	0.0023495	0.00041962	971.28	6.5339e-06	3.188e-06	846.33	414.44	5.2017e-06	3.5845e-06	391.61	180.6	186.11	104.03	9.4488e-06	103.67	0.0013563	0.0015392	0.00037753	1009.2	1.3724e-05	1.559e-05	879.89	424.07	1.3144e-05	1.424e-05	408.2	185.43	190.88	106.46	1.2463e-05	105.35	295.082	71.685	46.612	-8.038	162.839	139.737	-9.757	-1.838	186.297	14.652	-4.341	0.164	2.887	6.958	117.004	3.019	-8191	255	
2683.536	1	1	0	0	0.29012	0.20671	0.062336	0.046984	0.26261	0.089269	0.49044	0.15734	0.12838	0.23433	0.21056	0.073674	0.14911	0.41735	0.18969	0.21399	-0.51042	-0.24375	-0.14583	-1.0375	0.22292	-0.59167	-0.525	-0.22292	-0.68125	-0.16667	0.014583	-0.8875	0.1625	-0.77708	-0.47083	-0.27708	235.337	310.269	138.148	255.380	269.429	61.033	270.784	299.172	35.487	189.889	24.218	26.854	320.244	-19.009	32.106	316.762	0.0013688	0.00045355	0.0001928	972.61	1.0153e-05	8.5135e-06	850.1	413.08	4.9463e-06	8.0711e-06	393.87	181.47	185.66	103.96	4.8587e-06	104.92	0.0011961	0.0012736	0.00031319	1004.1	1.3372e-05	1.3809e-05	879.18	423.04	1.3861e-05	1.4002e-05	410.36	186	191.85	106.51	1.2347e-05	106.28	301.711	41.201	17.466	-7.827	99.709	119.161	-9.729	-1.772	154.218	111.550	-4.523	0.220	2.855	6.870	119.971	2.794	-8191	255	
2683.632	1	1	0	0	0.13135	0.050207	0.15171	0.34308	0.28707	0.3138	0.16325	0.315	0.3262	0.22703	0.090806	0.21706	0.30524	0.059094	0.069683	0.2595	-0.37083	-0.32708	0.047917	-0.86458	0.19167	-0.47292	-0.675	0.020833	-0.85417	-0.28333	-0.0125	-0.90417	-0.1	-0.62292	-0.82917	-0.04375	-1.574	293.983	118.567	290.270	197.339	173.983	307.753	236.021	-1.364	57.666	98.427	173.507	292.250	221.296	288.474	271.536	0.0012623	0.0005975	0.00036439	975.68	1.4362e-05	1.5796e-06	852.86	412.33	6.5273e-06	1.0444e-05	395.43	182.06	186.18	104.54	2.128e-06	104.8	0.0012586	0.0012145	0.00030168	1003.4	1.3865e-05	1.2945e-05	878.33	423.6	1.381e-05	1.2763e-05	409.08	186.67	192.05	106.64	1.1509e-05	106.39	304.883	340.022	7.173	-7.867	106.075	45.022	-9.423	-1.577	68.740	92.791	-4.262	0.150	2.633	6.941	125.782	2.859	-8191	255	
2683.728	1	1	0	0	0.15608	0.17821	0.045713	0.27061	0.012484	0.21813	0.21131	0.035125	0.20119	0.070646	0.11349	0.29315	0.37879	0.18604	0.15821	0.14621	-0.25625	-0.14583	0.041667	-0.92708	-0.14167	-0.23958	-0.5875	-0.08125	-0.625	-0.32083	-0.027083	-0.83333	-0.24167	-0.31667	-0.65833	-0.15625	262.069	327.033	158.145	79.153	147.610	209.873	304.928	290.754	214.561	38.512	336.155	325.316	231.851	288.132	335.632	2.817	0.0011168	0.00050201	9.9275e-05	969.72	1.0654e-05	1.1113e-05	847.38	412.63	1.88e-05	6.4398e-06	392.91	181.43	186.84	104.75	1.1552e-05	104.51	0.0012087	0.0010928	0.00027207	1002.5	1.2865e-05	1.1358e-05	871.93	423.28	1.251e-05	1.1306e-05	405.33	186.16	191.26	106.56	1.0461e-05	106.28	291.357	31.996	59.355	-7.732	118.089	62.624	-9.312	-1.596	103.307	119.799	-4.502	0.391	2.591	6.760	187.665	2.790	-8191	255	
#DATA ENDS
