BOXY.EXE: ISS Imagent and Oximeter Data Acquisition Program Version 0.80
Ascii Record File

#ACQ INFORMATION
2  Detector Channels 
16  External MUX Channels 
1  Auxiliary Channels 
5000  Waveform (CCF) Frequency (Hz)
1  Waveforms Skipped 
30  Waveforms Averaged 
1  Cycles Averaged 
16  Acquisitions per Waveform 
10.0806  Updata Rate (Hz) 

#FILE INFORMATION
TRUE -- External MUX Channel results are PARSED.
FALSE -- AC DC and Phase are NOT grouped.
TRUE -- Companion Program Settings File CREATED.
FALSE -- AC data not excluded
FALSE -- DC data not excluded
FALSE -- Phase data not excluded
FALSE -- Auxillary Chn. data not excluded
Tab delimiters

#CALIBRATION STATE
TRUE -- Waveform Calibration Values APPLIED.


#AUX CALIBRATION VALUES
Val Type	aux-1	

Term	1.0000e+00	
Factor	0.0000e+00	


#WF CALIBRATION VALUES
A = Detector Channel
Val Type	A-AC1	A-AC2	A-AC3	A-AC4	A-AC5	A-AC6	A-AC7	A-AC8	A-AC9	A-AC10	A-AC11	A-AC12	A-AC13	A-AC14	A-AC15	A-AC16	A-DC1	A-DC2	A-DC3	A-DC4	A-DC5	A-DC6	A-DC7	A-DC8	A-DC9	A-DC10	A-DC11	A-DC12	A-DC13	A-DC14	A-DC15	A-DC16	A-Ph1	A-Ph2	A-Ph3	A-Ph4	A-Ph5	A-Ph6	A-Ph7	A-Ph8	A-Ph9	A-Ph10	A-Ph11	A-Ph12	A-Ph13	A-Ph14	A-Ph15	A-Ph16	

Term	0.00000e+00	0.00000e+00	0.00000e+00	0.00000e+00	0.00000e+00	0.00000e+00	0.00000e+00	0.00000e+00	0.00000e+00	0.00000e+00	0.00000e+00	0.00000e+00	0.00000e+00	0.00000e+00	0.00000e+00	0.00000e+00	0.00000e+00	0.00000e+00	0.00000e+00	0.00000e+00	0.00000e+00	0.00000e+00	0.00000e+00	0.00000e+00	0.00000e+00	0.00000e+00	0.00000e+00	0.00000e+00	0.00000e+00	0.00000e+00	0.00000e+00	0.00000e+00	0.00000e+00	0.00000e+00	0.00000e+00	0.00000e+00	0.00000e+00	0.00000e+00	0.00000e+00	0.00000e+00	0.00000e+00	0.00000e+00	0.00000e+00	0.00000e+00	0.00000e+00	0.00000e+00	0.00000e+00	0.00000e+00	
Factor	1.00000e+00	1.00000e+00	1.00000e+00	1.00000e+00	1.00000e+00	1.00000e+00	1.00000e+00	1.00000e+00	1.00000e+00	1.00000e+00	1.00000e+00	1.00000e+00	1.00000e+00	1.00000e+00	1.00000e+00	1.00000e+00	1.00000e+00	1.00000e+00	1.00000e+00	1.00000e+00	1.00000e+00	1.00000e+00	1.00000e+00	1.00000e+00	1.00000e+00	1.00000e+00	1.00000e+00	1.00000e+00	1.00000e+00	1.00000e+00	1.00000e+00	1.00000e+00	X	X	X	X	X	X	X	X	X	X	X	X	X	X	X	X	

B = Detector Channel
Val Type	B-AC1	B-AC2	B-AC3	B-AC4	B-AC5	B-AC6	B-AC7	B-AC8	B-AC9	B-AC10	B-AC11	B-AC12	B-AC13	B-AC14	B-AC15	B-AC16	B-DC1	B-DC2	B-DC3	B-DC4	B-DC5	B-DC6	B-DC7	B-DC8	B-DC9	B-DC10	B-DC11	B-DC12	B-DC13	B-DC14	B-DC15	B-DC16	B-Ph1	B-Ph2	B-Ph3	B-Ph4	B-Ph5	B-Ph6	B-Ph7	B-Ph8	B-Ph9	B-Ph10	B-Ph11	B-Ph12	B-Ph13	B-Ph14	B-Ph15	B-Ph16	

Term	0.00000e+00	0.00000e+00	0.00000e+00	0.00000e+00	0.00000e+00	0.00000e+00	0.00000e+00	0.00000e+00	0.00000e+00	0.00000e+00	0.00000e+00	0.00000e+00	0.00000e+00	0.00000e+00	0.00000e+00	0.00000e+00	0.00000e+00	0.00000e+00	0.00000e+00	0.00000e+00	0.00000e+00	0.00000e+00	0.00000e+00	0.00000e+00	0.00000e+00	0.00000e+00	0.00000e+00	0.00000e+00	0.00000e+00	0.00000e+00	0.00000e+00	0.00000e+00	-7.31775e+01	-1.39643e+02	-1.29191e+02	-1.81468e+02	-5.28782e+01	-5.94017e+01	-1.58511e+02	-1.62015e+02	-4.34400e+01	-6.62646e+01	-1.70593e+02	-1.70390e+02	-1.81289e+02	-1.76543e+02	-5.19673e+01	-1.49467e+02	
Factor	1.51461e-05	1.38994e-04	3.70494e-05	1.65114e-01	1.30890e-06	1.55113e-06	1.66376e-01	5.64345e-02	1.01830e-06	1.34470e-06	8.78816e-02	2.83681e-02	2.52299e-02	8.59329e-03	1.27316e-06	1.18647e-02	5.15675e-06	6.63635e-06	1.85623e-06	8.53049e-02	7.07640e-08	7.33048e-08	8.10045e-02	2.92832e-02	7.07680e-08	7.32667e-08	4.41605e-02	1.43478e-02	1.32282e-02	4.49219e-03	7.21484e-08	6.00703e-03	X	X	X	X	X	X	X	X	X	X	X	X	X	X	X	X	



#DISTANCE SETTINGS
A = Detector Channel
A-1	A-2	A-3	A-4	A-5	A-6	A-7	A-8	A-9	A-10	A-11	A-12	A-13	A-14	A-15	A-16	

2.5000e+00	3.0000e+00	2.5000e+00	3.0000e+00	2.0000e+00	3.0000e+00	1.5000e+00	3.0000e+00	3.0000e+00	3.0000e+00	3.0000e+00	3.0000e+00	3.0000e+00	3.0000e+00	1.5000e+00	3.0000e+00	

B = Detector Channel
B-1	B-2	B-3	B-4	B-5	B-6	B-7	B-8	B-9	B-10	B-11	B-12	B-13	B-14	B-15	B-16	

1.0000e+01	1.0000e+01	1.0000e+01	1.4400e+00	1.0000e+01	1.0000e+01	1.5100e+00	1.9400e+00	1.0000e+01	1.0000e+01	1.9900e+00	2.4900e+00	2.4100e+00	2.9000e+00	1.0000e+01	2.9800e+00	




#DATA BEGINS
time	group	step	mark	flag	A-AC1	A-AC2	A-AC3	A-AC4	A-AC5	A-AC6	A-AC7	A-AC8	A-AC9	A-AC10	A-AC11	A-AC12	A-AC13	A-AC14	A-AC15	A-AC16	A-DC1	A-DC2	A-DC3	A-DC4	A-DC5	A-DC6	A-DC7	A-DC8	A-DC9	A-DC10	A-DC11	A-DC12	A-DC13	A-DC14	A-DC15	A-DC16	A-Ph1	A-Ph2	A-Ph3	A-Ph4	A-Ph5	A-Ph6	A-Ph7	A-Ph8	A-Ph9	A-Ph10	A-Ph11	A-Ph12	A-Ph13	A-Ph14	A-Ph15	A-Ph16	B-AC1	B-AC2	B-AC3	B-AC4	B-AC5	B-AC6	B-AC7	B-AC8	B-AC9	B-AC10	B-AC11	B-AC12	B-AC13	B-AC14	B-AC15	B-AC16	B-DC1	B-DC2	B-DC3	B-DC4	B-DC5	B-DC6	B-DC7	B-DC8	B-DC9	B-DC10	B-DC11	B-DC12	B-DC13	B-DC14	B-DC15	B-DC16	B-Ph1	B-Ph2	B-Ph3	B-Ph4	B-Ph5	B-Ph6	B-Ph7	B-Ph8	B-Ph9	B-Ph10	B-Ph11	B-Ph12	B-Ph13	B-Ph14	B-Ph15	B-Ph16	aux-1	digaux	

9977.891	1	1	0	256	0.24359	0.12822	0.34803	0.15142	0.22758	0.086496	0.049087	0.18447	0.21096	0.25556	0.090182	0.11689	0.21654	0.14275	0.086627	0.054989	-2.6417	-2.5604	-3.4104	-2.8521	-2.975	-3.4521	-2.4521	-3.2625	-3.2708	-2.8583	-3.5104	-2.9229	-2.8521	-3.7417	-2.6417	-3.1479	-2.878	-10.091	136.069	268.216	107.879	255.930	163.337	267.635	147.644	187.003	215.995	224.948	202.662	237.627	242.347	7.883	6.6151e-05	0.00020407	0.00016747	909.35	4.5046e-06	3.4248e-06	768.87	300.98	5.082e-06	1.4403e-05	285.91	99.444	99.426	46.842	1.1603e-05	49.582	0.010413	0.012906	0.0037031	1131.2	0.00013951	0.00014009	968.08	379.67	0.00013669	0.00013678	387.49	134.87	131.03	58.219	0.0001397	64.648	-63.186	3.506	-64.964	-69.619	-11.074	-22.173	-69.987	-63.248	79.030	95.927	-65.278	-59.839	-57.812	-52.781	161.593	-55.726	-8191	255	
9977.987	1	1	0	0	0.13775	0.22938	0.11625	0.18909	0.069535	0.20286	0.1758	0.10301	0.16308	0.096147	0.10555	0.19353	0.28487	0.11086	0.19689	0.21478	-2.9917	-2.475	-3.35	-3.1646	-2.7938	-3.4208	-2.6312	-3.0687	-3.35	-2.8333	-3.3458	-3.0542	-2.9062	-3.5979	-2.5458	-3.0708	253.642	174.186	51.379	188.460	76.973	169.284	217.567	28.956	245.835	168.956	205.541	207.082	45.114	200.033	143.342	241.485	0.00011959	0.00037195	0.00023345	913.39	5.0641e-06	9.7528e-06	773.56	304.37	6.0723e-06	6.7707e-06	289.97	100.79	99.907	47.059	5.7631e-06	50.365	0.0096884	0.012087	0.0036174	1123.1	0.00013112	0.00013458	969.78	378.45	0.00013101	0.00013398	390.35	134.85	130.98	58.532	0.00013948	64.733	273.501	143.028	194.206	-69.537	-64.330	191.363	-69.833	-63.328	114.193	-68.985	-65.252	-60.078	-57.743	-52.727	-56.112	-55.917	-8191	255	
9978.083	1	1	0	0	0.081975	0.13654	0.13491	0.01241	0.049742	0.23531	0.14806	0.13441	0.11412	0.35076	0.097748	0.088965	0.19964	0.3331	0.25441	0.24976	-3.1229	-2.5354	-3.25	-3.1708	-2.6271	-3.6021	-2.8271	-2.8854	-3.2417	-2.4917	-3.3854	-3.2313	-2.625	-3.4437	-2.8646	-3.1708	252.376	246.619	115.442	-24.382	216.297	-43.036	-48.692	264.631	3.548	4.431	-21.444	253.109	-19.360	264.588	-65.934	258.823	7.8664e-05	0.000465	0.00014492	912.97	7.1306e-06	1.4124e-05	775.89	305.13	3.6236e-06	4.85e-06	291.31	100.6	99.931	46.831	8.5412e-07	50.267	0.0094559	0.011934	0.0035629	1117.2	0.00012601	0.00013325	970.17	376.42	0.00012616	0.00013283	390.05	133.59	130.37	58.506	0.00013741	64.435	241.908	151.862	71.857	-69.474	126.023	82.495	-70.261	-63.637	234.946	-55.327	-65.558	-60.302	-57.951	-53.188	184.892	-56.208	-8191	255	
9978.179	1	1	0	0	0.22518	0.10634	0.12054	0.27827	0.15936	0.10241	0.19469	0.18906	0.11013	0.03154	0.15173	0.036464	0.24132	0.073855	0.054279	0.23411	-3.0521	-2.55	-3.2104	-3.4167	-2.6458	-3.4604	-3.0167	-2.8208	-3.375	-2.7458	-3.1583	-3.3354	-2.5812	-3.6417	-3.0646	-2.8729	122.744	-47.020	197.161	245.395	19.478	-77.287	197.070	263.084	-10.192	107.948	209.359	251.243	-75.234	62.376	260.136	223.572	0.00019556	0.00077951	0.00029665	917.62	1.1874e-05	1.3137e-05	779.67	305.93	6.3319e-06	3.9896e-06	290.22	101.09	100.25	46.99	1.0231e-05	50.278	0.0092563	0.012263	0.0035433	1116.9	0.00012533	0.00013818	973.36	378.1	0.00012822	0.00014071	391.19	134.37	131.18	59.209	0.00014108	64.695	220.589	62.799	-41.438	-69.749	-57.015	187.244	-70.357	-63.689	247.581	94.399	-66.044	-60.122	-57.907	-52.925	37.939	-56.209	-8191	255	
9978.300	1	1	0	0	0.048698	0.17816	0.11671	0.19741	0.24686	0.1673	0.096624	0.15423	0.11361	0.22322	0.14327	0.091102	0.20595	0.14215	0.18871	0.2496	-3.0771	-2.4646	-2.8854	-3.4458	-2.625	-3.4375	-2.9562	-2.6083	-3.5396	-2.8063	-3.0812	-3.4104	-2.6125	-3.4042	-2.9229	-2.7396	2.804	-18.450	191.884	247.469	-40.258	81.697	-22.375	69.029	222.994	111.093	6.015	245.071	177.569	274.649	-37.425	206.384	0.00020204	0.00082908	0.00010733	921.14	9.4702e-06	1.2763e-05	777.03	305.86	5.392e-06	8.9453e-06	288.01	100.43	100.13	46.934	2.1706e-06	50.062	0.0095973	0.013041	0.0036181	1125.7	0.00013093	0.00014504	972.74	378.37	0.00013088	0.00014425	388.42	133.69	131.48	59.172	0.00013714	64.241	252.791	-17.949	51.075	-69.242	135.966	156.309	-70.094	-63.658	237.074	25.533	-65.541	-59.893	-58.059	-53.037	118.495	-55.939	-8191	255	
9978.396	1	1	0	0	0.24713	0.18471	0.13453	0.19992	0.087541	0.23226	0.21103	0.17636	0.25661	0.42963	0.048016	0.13243	0.26558	0.50411	0.12452	0.22674	-3.2125	-2.525	-2.8104	-3.775	-2.6771	-3.1979	-3.2042	-2.5521	-3.4104	-2.8646	-2.9708	-3.4979	-2.7583	-3.3271	-3.1208	-2.7771	210.250	53.751	198.560	172.182	268.536	-23.526	184.588	153.714	-15.851	103.826	10.802	214.295	-78.731	237.463	130.162	214.759	0.00013693	0.0002139	0.00034236	916.86	7.2562e-06	5.2527e-06	779.11	307.55	5.1427e-06	2.8526e-06	289.73	101.28	100.62	47.247	4.0176e-06	50.198	0.0097435	0.013247	0.0035591	1125.3	0.00013551	0.00014832	974.25	380.86	0.00013865	0.00014933	391.61	135.38	134.02	59.788	0.00014151	64.833	222.429	-3.231	-31.855	-69.257	102.762	105.875	-70.115	-63.679	252.149	-73.112	-65.719	-59.917	-58.028	-53.032	119.286	-56.118	-8191	255	
9978.468	1	1	0	0	0.13182	0.24567	0.1605	0.20136	0.11202	0.054904	0.26899	0.35456	0.058856	0.085937	0.34714	0.31577	0.2181	0.16106	0.034545	0.10655	-2.9958	-2.8896	-2.9229	-3.6354	-2.6083	-3.1625	-3.2979	-2.575	-3.4458	-2.9813	-2.6542	-3.6229	-2.6333	-3.2708	-3.3167	-2.4104	206.478	243.448	269.402	258.607	43.325	-74.335	174.110	242.508	-74.806	116.328	-78.361	-75.599	14.102	246.842	252.630	-21.025	0.00020861	0.00035181	0.00016599	922.37	1.3747e-05	1.3868e-05	777.08	306.56	5.5366e-06	1.4814e-05	290.94	101.71	100.61	47.715	1.0004e-05	50.71	0.010416	0.013511	0.0036001	1128.3	0.00014044	0.00014655	970.46	379.7	0.00014028	0.00014468	389.4	135.02	134.09	59.847	0.00013654	65.163	213.910	229.097	-54.850	-69.201	238.415	72.262	-70.068	-63.292	163.311	74.502	-65.233	-59.931	-57.746	-52.558	48.994	-55.651	-8191	255	
9978.564	1	1	0	0	0.11701	0.15158	0.15115	0.21735	0.3196	0.24043	0.21889	0.32498	0.13302	0.30158	0.082861	0.33701	0.05707	0.09544	0.11469	0.10719	-3.1708	-3.1208	-2.6562	-3.5792	-2.725	-2.9729	-3.6771	-2.7979	-3.2208	-3.125	-2.7229	-3.4833	-2.8167	-2.9917	-3.3292	-2.6354	222.848	104.401	17.353	-40.089	52.546	242.401	6.894	250.737	242.015	0.820	13.266	242.473	-56.121	174.379	-55.342	52.577	0.00025403	0.001279	0.00022999	920.83	1.0328e-05	1.3322e-05	778.27	308.84	7.6831e-06	6.2956e-06	292.95	101.52	101.83	47.802	9.4053e-06	50.351	0.010277	0.012917	0.0034608	1127.9	0.00014027	0.00014098	968.94	381.26	0.00014033	0.00014096	389.29	135.66	135.13	59.789	0.00013493	65.282	249.011	-46.586	-20.413	-68.916	-39.601	77.398	-69.652	-63.242	187.084	220.190	-65.275	-59.555	-57.741	-52.963	44.709	-55.849	-8191	255	
9978.685	1	1	0	0	0.34737	0.16015	0.22328	0.20184	0.059362	0.16765	0.28679	0.18673	0.11816	0.067184	0.069486	0.033432	0.13658	0.25396	0.26166	0.20318	-3	-2.9646	-2.5396	-3.4708	-2.8979	-2.7104	-3.5625	-2.6667	-3.1875	-3.0979	-2.6521	-3.5438	-2.95	-3.0479	-3.5938	-2.5708	-37.981	235.333	-73.754	195.653	8.741	155.484	-57.886	214.034	39.501	-45.729	82.452	270.221	205.968	210.921	84.168	209.750	0.00013598	0.0010091	0.00029119	921.46	4.7211e-06	3.7981e-06	778.56	308.67	1.0778e-05	4.465e-06	288.97	101.32	101.56	47.541	3.3009e-06	50.12	0.010401	0.012822	0.0034549	1133.4	0.00014155	0.00013934	967.83	383.5	0.00013954	0.00013852	385.18	135.5	134.26	59.109	0.00013066	64.784	256.539	277.801	-18.196	-69.117	-17.373	127.959	-70.052	-63.326	102.309	-51.581	-65.405	-59.774	-57.669	-52.759	58.206	-55.419	-8191	255	
9978.781	1	1	0	0	0.10684	0.02786	0.1896	0.16478	0.39042	0.17236	0.27394	0.21986	0.085869	0.15875	0.14118	0.31357	0.16927	0.093691	0.26223	0.2619	-2.9583	-3.1604	-2.3458	-3.6708	-2.8146	-2.7458	-3.5375	-2.5417	-3.2896	-3.3438	-2.5646	-3.4521	-3.0646	-2.9646	-3.2625	-2.5833	241.559	104.714	6.138	-53.169	249.020	-14.125	59.653	175.475	-31.263	149.452	202.312	195.342	196.168	13.992	18.028	184.470	2.0956e-05	0.0006994	0.00029784	923.44	1.2174e-05	1.0257e-05	778.39	309.23	7.4921e-06	1.9132e-06	289.36	101.48	101.71	47.621	1.9921e-06	50.084	0.0099986	0.012307	0.0033538	1134.9	0.00013644	0.00013548	964.49	384.04	0.00013604	0.00013631	386.33	136.24	133.87	59.122	0.00013174	64.997	215.206	-65.710	53.888	-69.039	96.662	107.640	-70.472	-64.031	75.858	139.454	-65.791	-60.372	-58.326	-53.361	143.119	-56.469	-8191	255	
9978.877	1	1	0	0	0.22916	0.19621	0.11962	0.25215	0.16655	0.15411	0.06072	0.062263	0.27603	0.2122	0.096047	0.24074	0.37052	0.40479	0.21299	0.07555	-2.7042	-3.1375	-2.4771	-3.5187	-3.0896	-2.7604	-3.4292	-2.6458	-3.0667	-3.4562	-2.675	-3.2229	-3.0875	-2.725	-3.35	-2.8479	6.316	118.696	-3.297	213.393	48.341	255.581	234.010	266.277	127.483	-26.194	65.199	273.104	168.288	201.695	-6.911	161.530	0.00013047	0.00029549	0.00036103	928.02	4.2418e-06	1.3353e-05	779.49	310.75	6.3231e-06	2.7276e-06	292.29	102.48	102.55	48.479	1.4243e-05	51.342	0.0096432	0.011942	0.0033254	1136.4	0.00012957	0.00012816	962.7	383.15	0.00012433	0.00012361	383.12	134.54	131.39	58.774	0.00011597	64.605	-71.285	17.394	203.183	-69.544	54.964	66.116	-70.154	-64.039	-2.705	112.130	-65.759	-60.329	-58.404	-53.369	121.736	-56.449	-8191	255	
9978.996	1	1	0	0	0.11975	0.36053	0.11963	0.3571	0.056928	0.21144	0.12573	0.31803	0.012823	0.27147	0.14753	0.21762	0.31564	0.068979	0.17484	0.18338	-2.5604	-3.3667	-2.4813	-3.2313	-3.2625	-2.4604	-3.6771	-2.9604	-2.6854	-3.4562	-2.7896	-3.2208	-3.1708	-2.7229	-3.3937	-3.0875	-5.896	171.248	264.532	238.905	84.733	137.662	205.207	268.830	-42.343	119.763	234.021	213.026	241.874	-69.659	219.924	22.598	0.00019533	0.00027655	0.00011393	920.82	2.5978e-06	1.2049e-05	775.78	311.25	2.6204e-06	5.672e-06	293.39	103.79	103.93	48.894	5.9188e-06	51.799	0.0081101	0.010013	0.0028847	1103.3	0.0001075	0.00010777	943.59	376.64	0.00010863	0.00011091	380.62	133.9	131.94	59.347	0.00012242	65.254	237.254	-53.317	75.192	-69.630	52.934	88.201	-70.455	-63.800	-43.650	-31.661	-65.869	-60.594	-58.425	-53.418	277.473	-56.557	-8191	255	
9979.092	1	1	0	0	0.15231	0.082886	0.24823	0.35719	0.11868	0.1152	0.36164	0.26656	0.16686	0.13151	0.12498	0.10196	0.17074	0.15071	0.16849	0.040374	-2.2854	-3.3729	-2.7875	-3.1771	-3.3104	-2.5458	-3.4125	-3.0812	-2.8146	-3.5792	-2.6854	-3.1979	-3.4062	-2.7167	-3.35	-3.2021	187.705	263.761	-21.319	234.035	123.826	3.233	183.655	-47.771	243.661	-46.367	-47.121	-70.490	264.688	-50.446	57.804	-39.980	0.00014587	0.00092716	0.0001994	935.2	5.3313e-06	1.912e-05	782.02	314.53	1.1308e-05	2.1954e-06	292.96	102.46	101.59	47.487	6.5776e-06	50.116	0.0086467	0.01098	0.0033002	1132.4	0.00012126	0.00012356	968.75	384.51	0.00011877	0.00012235	385.79	132.85	130.34	58.083	0.00012033	62.915	240.489	38.814	-71.617	-69.604	11.261	111.653	-70.476	-64.112	12.606	6.397	-66.313	-60.215	-58.474	-53.476	-26.568	-56.369	-8191	255	
9979.165	1	1	0	0	0.18155	0.073876	0.16273	0.10124	0.29395	0.16359	0.051945	0.098104	0.20026	0.20696	0.055793	0.17593	0.03773	0.20671	0.12718	0.17212	-2.1729	-3.2667	-2.6188	-3.0125	-3.3771	-2.6917	-3.3063	-3.2083	-2.8042	-3.5438	-2.8354	-2.8979	-3.65	-2.7	-3.0896	-3.0417	157.767	-10.887	-77.586	219.540	216.196	131.093	-1.591	183.151	-10.421	-72.613	221.591	257.600	248.742	223.691	266.283	-1.304	0.00016356	0.00095101	0.0003126	917.28	8.2368e-06	6.9356e-06	776.86	308.03	3.8802e-06	8.9983e-06	292.05	101.68	101.45	47.389	1.0356e-06	50.428	0.0078479	0.01001	0.0028983	1090.6	0.00010048	0.0001054	936.21	369.12	9.7745e-05	0.00010542	372.26	128.71	126.97	57.219	0.00010901	62.351	212.589	42.976	274.829	-69.647	117.005	99.761	-70.191	-64.102	236.361	183.860	-65.999	-60.783	-58.474	-53.491	101.043	-56.592	-8191	255	
9979.284	1	1	0	0	0.22228	0.13467	0.085328	0.1873	0.21513	0.19356	0.22996	0.24731	0.04795	0.16813	0.14738	0.17209	0.31364	0.061344	0.15302	0.25477	-2.0771	-3.3771	-2.8937	-2.7125	-3.4771	-2.6896	-3.4083	-3.4	-2.5229	-3.3063	-2.9958	-2.6917	-3.4813	-2.6813	-3.0167	-3.3667	220.742	235.697	273.514	248.923	210.161	109.789	251.348	131.020	-70.790	236.288	208.998	232.682	219.730	188.383	180.473	-29.561	0.00019963	0.00077786	0.00044476	932.41	2.691e-06	8.183e-06	780.67	312.71	8.1037e-06	2.2704e-06	292.3	101.23	101.34	47.461	9.698e-06	50.022	0.0074364	0.010104	0.0029137	1107.3	0.00010686	0.00011871	955.28	378.23	0.00011397	0.00012842	386.18	132.63	131.67	59.019	0.00013271	64.088	255.545	110.033	-27.488	-69.668	229.354	79.892	-70.242	-64.031	15.764	223.363	-65.636	-60.351	-58.243	-53.406	-6.406	-56.543	-8191	255	
9979.380	1	1	0	0	0.41755	0.14697	0.17225	0.18413	0.18539	0.13589	0.16645	0.14139	0.21039	0.17592	0.28349	0.22311	0.25709	0.1496	0.084673	0.12282	-2.0896	-3.5375	-2.8917	-2.4562	-3.5938	-2.5792	-3.0875	-3.4479	-2.5479	-3.2938	-3.1167	-2.8187	-3.6208	-2.7458	-3.0687	-3.5187	-26.992	2.780	155.225	260.992	215.765	106.958	188.936	222.177	21.791	-50.643	-56.722	-3.572	-36.679	160.215	257.652	268.336	0.00016038	0.0007535	0.00022719	936.77	1.4661e-05	1.0144e-05	783.48	316.19	1.03e-05	1.0739e-05	290.44	101.99	103	47.938	1.2206e-05	50.306	0.0092631	0.012779	0.0035332	1142.3	0.00013143	0.00014654	980.81	389.45	0.00013727	0.00015336	398.72	137.54	138.09	61.442	0.00015925	66.715	221.636	0.198	0.896	-69.532	217.235	202.082	-70.368	-63.998	190.269	106.724	-66.042	-60.345	-58.285	-53.418	-20.399	-56.158	-8191	255	
9979.477	1	1	0	0	0.21597	0.047043	0.12702	0.13143	0.08954	0.12853	0.071448	0.074739	0.11557	0.081929	0.24991	0.1614	0.16349	0.23251	0.24995	0.11588	-2.075	-3.2958	-3	-2.7854	-3.4479	-2.7375	-3.0917	-3.5292	-2.4021	-3.1833	-3.4083	-2.5396	-3.4167	-3.1042	-2.7188	-3.6167	77.435	-77.837	-79.630	0.453	-0.348	126.901	184.259	196.518	40.245	27.562	254.414	266.956	241.816	-60.285	-79.787	-30.438	0.00028938	0.0013619	0.00030671	945.52	1.9627e-05	5.7044e-06	785.95	318.77	4.7985e-06	1.1241e-05	293.4	101.84	103.98	48.415	2.9279e-06	50.576	0.012064	0.016615	0.0045541	1203.5	0.0001816	0.00019895	1041.4	414.19	0.00019215	0.00020579	427.82	146.04	147.63	64.121	0.00018553	68.898	211.755	-37.427	-29.482	-69.764	174.816	119.154	-70.310	-63.829	201.287	-21.394	-65.813	-60.515	-57.843	-53.248	29.280	-56.371	-8191	255	
9979.597	1	1	0	0	0.15674	0.16096	0.099551	0.12959	0.20976	0.18352	0.23465	0.13796	0.11546	0.0078309	0.24867	0.18097	0.04483	0.13492	0.12224	0.119	-2.1167	-3.1104	-3.3792	-2.6667	-3.5771	-2.8854	-2.9333	-3.6854	-2.7438	-3.2396	-3.4042	-2.4958	-3.4708	-3.2479	-2.7146	-3.4104	-67.735	245.674	160.179	113.939	184.661	-52.462	231.846	224.729	125.366	235.309	90.996	157.456	12.175	-3.751	133.749	-76.495	0.00032702	0.0017928	8.9853e-05	943.37	5.9299e-06	9.9599e-06	782.33	316.45	1.0673e-05	9.4754e-06	292.95	101.42	103.53	47.951	4.8664e-06	50.045	0.013547	0.017326	0.0045967	1196.9	0.00017998	0.00018328	1013.2	404.33	0.00017611	0.000179	411.39	141.61	144.01	62.323	0.00016761	67.292	251.457	-30.890	33.908	-69.460	251.179	-4.303	-70.238	-63.571	219.608	9.094	-65.880	-60.682	-58.249	-53.097	95.996	-56.113	-8191	255	
9979.693	1	1	0	0	0.20621	0.18146	0.13913	0.14008	0.12655	0.16873	0.10337	0.298	0.36114	0.064022	0.17815	0.030055	0.33023	0.32128	0.29289	0.12373	-2.3563	-3.1667	-3.3458	-2.6063	-3.1958	-3.1583	-2.6833	-3.5229	-2.6792	-3.0479	-3.5125	-2.8	-3.1167	-3.1896	-2.6521	-3.5375	77.767	-43.088	70.448	131.303	7.006	219.327	267.718	221.406	117.210	-79.118	217.034	113.856	-70.308	-76.133	87.641	226.805	0.00010738	0.0016033	7.0798e-05	942.8	4.9838e-06	2.6308e-05	776.73	315.72	2.3796e-06	4.4765e-06	290.61	100.71	103.16	47.915	5.6406e-06	49.844	0.01277	0.015573	0.0041968	1180.2	0.00016961	0.00016887	996.06	400.54	0.00016817	0.00016589	402.87	140.47	141.78	61.351	0.0001557	66.717	201.624	-14.861	-2.235	-69.332	14.849	70.452	-70.179	-63.557	23.342	79.011	-65.598	-59.873	-57.844	-53.168	-2.464	-55.836	-8191	255	
9979.765	1	1	0	0	0.18351	0.039371	0.39568	0.20897	0.027611	0.042799	0.44574	0.32701	0.36356	0.176	0.17281	0.080514	0.1228	0.19884	0.12793	0.16549	-2.2792	-2.8187	-3.4708	-2.7583	-3.1	-3.2313	-2.8146	-3.3958	-2.8958	-2.9562	-3.5604	-2.6021	-3.2042	-3.5292	-2.5708	-3.3812	88.762	5.267	121.584	232.693	206.910	213.055	-62.842	202.555	171.769	167.543	126.607	44.197	254.218	-37.630	266.136	179.049	0.00040257	0.00085947	0.00021553	928.47	3.6189e-07	9.8249e-06	770.33	313	1.5082e-05	1.3101e-05	290.44	100.74	103.13	48.081	1.2656e-05	50.283	0.012133	0.014669	0.0039731	1169.9	0.00016153	0.00015842	979.48	397.29	0.00015647	0.00015333	394.43	138.79	138.3	60.516	0.00014058	65.868	259.519	197.279	3.938	-69.501	156.978	76.090	-70.054	-63.684	82.279	18.406	-65.827	-60.438	-57.873	-53.187	223.546	-56.392	-8191	255	
9979.861	1	1	0	0	0.14196	0.14059	0.22053	0.32047	0.19907	0.032455	0.12313	0.1928	0.1719	0.087806	0.10771	0.26185	0.27011	0.22747	0.29732	0.23856	-2.5771	-2.9104	-3.45	-2.6437	-2.9396	-3.2771	-2.7167	-3.4042	-2.9375	-2.8042	-3.55	-2.7354	-3.075	-3.6167	-2.4667	-3.4562	214.918	101.753	15.461	198.504	224.869	57.318	187.043	258.182	240.469	-69.812	219.687	8.805	265.764	-51.819	-22.460	138.895	0.00024392	0.00068567	0.00022836	923.34	4.6812e-06	1.6248e-05	765.07	311.25	9.7977e-06	1.3435e-05	287.69	100.61	102.41	47.882	1.3721e-05	50.238	0.010468	0.012662	0.0034834	1139.8	0.00013801	0.00013609	954.15	388.27	0.00013433	0.00013342	384.69	135.66	134.43	59.331	0.00013115	64.967	272.701	-75.563	96.473	-69.429	43.689	83.922	-70.267	-63.418	29.492	22.808	-65.503	-59.992	-58.184	-53.261	70.776	-56.022	-8191	255	
9979.980	1	1	0	0	0.11161	0.074257	0.21158	0.097137	0.31475	0.089288	0.38328	0.13209	0.12618	0.27984	0.27294	0.10668	0.25998	0.14935	0.24685	0.19572	-2.7687	-2.6646	-3.3021	-2.9521	-2.8063	-3.3229	-2.5687	-3.4583	-3.0146	-2.5292	-3.4583	-2.9958	-2.9437	-3.6021	-2.4771	-3.4708	175.782	99.182	207.739	-67.205	101.506	221.637	232.399	235.151	33.044	13.388	244.381	-40.423	-36.950	244.002	163.279	-28.068	0.00016844	0.00056953	2.4852e-05	914.59	6.31e-06	9.8969e-06	767.68	312.5	6.5315e-06	1.2687e-05	289.22	101.25	102.51	47.828	3.3587e-06	50.414	0.0096372	0.011926	0.0034076	1130.8	0.00013064	0.00013223	957.9	387.48	0.00013181	0.0001329	388.75	136.39	134.15	59.417	0.00013758	65.363	249.956	-15.447	-13.780	-69.507	45.977	72.611	-70.262	-63.764	86.833	-27.180	-65.597	-60.155	-57.941	-53.101	160.196	-56.067	-8191	255	
9980.076	1	1	0	0	0.10646	0.081279	0.20749	0.092306	0.061781	0.39	0.24468	0.084997	0.095158	0.12695	0.14792	0.21681	0.22128	0.23733	0.16101	0.1302	-2.8917	-2.3667	-3.4333	-2.8125	-2.6583	-3.3542	-2.6125	-3.1188	-3.1729	-2.4104	-3.3896	-3.125	-2.7146	-3.6208	-2.7146	-3.1292	-53.897	265.595	-50.669	196.937	-66.063	133.877	267.149	119.798	13.408	-0.961	242.638	258.702	-23.105	250.705	78.728	216.104	0.00011234	0.001177	0.00031116	921.56	3.1454e-06	1.7948e-05	770.42	311.67	2.941e-06	1.6093e-06	288.8	101.66	101.94	47.638	5.0763e-06	50.202	0.0097617	0.012132	0.0036159	1134.9	0.00013234	0.00013408	967.65	387.57	0.00013226	0.00013466	391.84	136.05	133.83	59.343	0.00014327	65.015	273.176	20.914	154.077	-69.334	100.303	91.891	-69.893	-63.538	23.859	28.781	-65.654	-60.174	-57.771	-53.221	14.272	-55.755	-8191	255	
9980.172	1	1	0	0	0.2264	0.18334	0.035321	0.10051	0.16219	0.06724	0.034124	0.10028	0.07046	0.18916	0.3033	0.030102	0.20965	0.029913	0.20465	0.10334	-3.0354	-2.7062	-3.2896	-3.1271	-2.6625	-3.6	-2.6833	-2.9958	-3.4813	-2.7083	-3.3229	-3.2125	-2.8125	-3.6542	-2.7729	-2.8771	15.525	-52.911	238.413	218.889	258.633	-49.798	92.725	242.629	116.992	-21.090	252.681	77.021	-45.502	217.734	259.750	111.779	0.00015519	0.0014347	0.00014569	919.68	8.3758e-06	8.8765e-06	770.21	311.94	7.7382e-06	8.0154e-06	289.62	100.48	101.39	47.504	4.9564e-06	50.117	0.009782	0.01242	0.0037259	1132.4	0.00013431	0.00014049	972.61	386.79	0.00013532	0.00014231	395.41	135.93	134.03	59.695	0.00014946	65.167	213.954	54.314	-0.538	-69.199	182.373	266.134	-70.033	-63.363	265.477	93.115	-65.152	-59.910	-57.506	-52.497	169.672	-55.598	-8191	255	
9980.268	1	1	0	0	0.10807	0.10961	0.1699	0.3707	0.27994	0.10159	0.1413	0.29523	0.15055	0.13942	0.20077	0.28215	0.24679	0.11352	0.11042	0.13071	-3.0187	-2.5146	-3.45	-3.3521	-2.4958	-3.325	-2.9708	-3.1	-3.2938	-2.6292	-3.25	-3.2958	-2.8063	-3.5563	-2.7854	-2.8292	124.665	118.416	239.268	-74.700	80.358	-75.763	197.856	249.872	-6.090	42.359	-54.044	-50.065	186.281	197.700	5.663	191.681	0.00012869	0.00055827	4.0279e-05	924.84	1.2724e-05	9.4398e-06	771.7	312.72	4.9085e-06	1.4833e-05	290	100.64	101.9	47.407	8.9966e-06	50.109	0.010206	0.013442	0.0039356	1144.2	0.00013974	0.00015152	982.9	389.87	0.00014045	0.00015285	398.82	136.76	135.44	60.388	0.00015382	65.406	198.874	134.247	161.328	-68.974	129.651	138.333	-69.558	-62.827	136.363	190.173	-64.660	-59.214	-56.827	-52.275	-68.986	-54.849	-8191	255	
9980.365	1	1	0	0	0.15748	0.094517	0.19298	0.12254	0.01449	0.21065	0.099781	0.29817	0.17568	0.12285	0.12264	0.22037	0.1768	0.15113	0.16266	0.34947	-2.9813	-2.7479	-3.2188	-3.5625	-2.5167	-3.6312	-3.1479	-2.6	-3.5229	-2.7646	-3.1063	-3.3396	-2.5292	-3.6542	-2.9625	-2.7958	60.763	-37.509	64.154	211.856	67.788	22.429	196.883	214.500	193.796	-77.287	273.000	125.609	-13.032	194.078	272.276	273.392	0.00016891	0.00091235	0.00026941	925.49	7.8409e-06	5.9771e-06	774.93	312.02	4.0149e-06	1.7036e-06	291.48	101.19	101.72	47.881	1.6879e-05	50.23	0.010473	0.01417	0.0039771	1149	0.00014215	0.00015701	983.05	390.1	0.00014206	0.00015571	397.3	136.28	135.2	60.453	0.00014655	65.165	243.049	136.366	-68.754	-69.109	147.307	103.342	-70.108	-63.450	93.651	96.468	-65.651	-60.248	-57.890	-52.774	-25.197	-55.975	-8191	255	
9980.461	1	1	0	0	0.13452	0.24102	0.099164	0.3552	0.018624	0.31249	0.17602	0.35466	0.1559	0.12185	0.47501	0.2388	0.064343	0.17176	0.28744	0.06411	-3.175	-2.5521	-3.0771	-3.3479	-2.475	-3.3729	-3.3208	-2.8292	-3.4688	-2.65	-2.9083	-3.5958	-2.5812	-3.2958	-3.2562	-2.7042	208.950	263.074	192.075	-69.962	255.316	198.742	188.815	193.921	51.891	72.902	205.799	219.858	260.836	277.608	141.409	115.069	0.0003025	0.0005809	0.0003451	930.13	9.9823e-06	1.1413e-05	775.49	313.03	4.3226e-06	1.1155e-05	290.77	100.85	103.01	47.517	7.1306e-06	50.082	0.010224	0.013887	0.0037552	1143.4	0.00014069	0.00015481	978.12	389.09	0.00014289	0.00015535	395.72	136.11	136.77	60.6	0.00014611	65.076	232.774	133.283	-26.504	-69.535	185.740	56.803	-70.043	-63.516	101.065	65.415	-65.797	-60.362	-58.115	-53.281	72.443	-56.014	-8191	255	
9980.557	1	1	0	0	0.12102	0.25415	0.18286	0.41336	0.13961	0.1744	0.22595	0.17017	0.18523	0.098111	0.26465	0.22229	0.242	0.18018	0.17166	0.1988	-2.9771	-2.7229	-2.7542	-3.6583	-2.575	-3.2458	-3.2208	-2.4167	-3.3917	-3.0958	-2.8937	-3.4875	-2.6729	-3.2896	-3.4729	-2.7188	264.792	-75.619	-7.215	207.161	221.025	154.865	161.058	39.955	-17.371	105.399	60.996	-58.740	269.938	-59.463	169.057	173.790	0.00021346	0.00081715	2.4472e-05	928.5	2.9922e-06	1.1019e-05	769.83	312.4	6.2408e-06	5.3812e-06	289.3	100.67	102.5	47.833	8.0227e-06	50.085	0.010719	0.014156	0.0037758	1143.2	0.00014717	0.0001557	973.41	389.04	0.00014928	0.000156	394.14	136.08	137.63	60.644	0.00014715	65.286	248.639	19.258	-77.991	-69.639	277.534	71.026	-70.292	-63.660	11.016	82.511	-65.766	-60.420	-58.350	-53.153	24.821	-56.157	-8191	255	
9980.678	1	1	0	0	0.13581	0.18535	0.054635	0.21979	0.099735	0.11403	0.11889	0.14117	0.053873	0.12718	0.30945	0.081843	0.33452	0.026895	0.23826	0.16598	-2.9646	-2.7729	-2.6625	-3.6	-3.0708	-3.1042	-3.5833	-2.8688	-3.3104	-3.0333	-2.7458	-3.7021	-2.8542	-3.1688	-3.4083	-2.7542	261.922	-48.347	11.149	250.042	-6.491	186.484	-42.807	123.284	128.758	148.373	248.237	5.240	271.851	-36.704	4.095	254.764	0.00026983	0.00032696	0.00037644	923.08	8.1058e-06	6.3729e-06	771.82	311.19	5.6022e-06	1.3067e-05	289.79	101.66	102.91	48.39	1.383e-05	50.798	0.011068	0.013971	0.0037603	1141.4	0.00014985	0.00015119	968.68	388.01	0.00015027	0.00015079	393.29	137.37	138.22	60.967	0.00014604	66.464	184.598	-17.915	-11.375	-69.427	184.288	-36.424	-70.010	-63.742	37.993	-14.221	-65.254	-60.397	-58.531	-52.971	25.690	-56.240	-8191	255	
9980.774	1	1	0	0	0.11878	0.032029	0.070216	0.30867	0.17564	0.039046	0.042929	0.27104	0.14891	0.2598	0.14056	0.11306	0.16528	0.083381	0.071768	0.12164	-2.9354	-2.9688	-2.7271	-3.4	-2.8792	-2.9208	-3.6042	-2.6771	-3.3146	-3.3458	-2.6958	-3.6167	-2.8583	-2.8604	-3.35	-2.6583	146.337	261.434	202.692	-51.266	206.788	104.241	91.711	272.598	152.446	123.612	-27.343	100.156	177.668	159.437	-67.849	213.819	0.00013779	0.0011399	0.00016282	922.05	1.4408e-05	9.1778e-06	771.74	311.58	1.0001e-05	8.7753e-06	291.06	102.53	103.68	48.584	6.1869e-06	50.811	0.011307	0.01394	0.003826	1150.3	0.00015779	0.00015774	983.17	396.33	0.0001625	0.00016328	403.38	142.46	142.64	62.279	0.00016286	68.619	204.437	15.554	8.845	-69.358	167.139	74.965	-70.384	-63.662	33.779	110.404	-65.738	-60.292	-58.329	-53.376	203.033	-56.336	-8191	255	
9980.868	1	1	0	0	0.15701	0.065883	0.23729	0.2761	0.31964	0.13946	0.21659	0.19052	0.09841	0.30358	0.14627	0.19611	0.24902	0.15464	0.022127	0.40734	-2.8792	-3.0729	-2.4396	-3.5187	-3.0896	-2.8042	-3.4521	-2.7396	-3.2542	-3.3896	-2.5771	-3.6042	-3.0854	-2.6958	-3.5229	-2.8063	52.613	62.582	277.037	230.789	-11.822	265.082	159.506	266.825	-80.557	14.152	-13.908	2.980	208.511	225.793	-16.926	246.081	0.00023985	0.0012448	0.00027261	932.25	2.1107e-06	1.2525e-05	770.54	311.98	1.4569e-05	6.8191e-06	288.74	100.87	102.89	48.001	1.3532e-06	50.331	0.012705	0.015634	0.0042932	1185.4	0.00017515	0.00017442	1000.8	405.08	0.00017704	0.00017694	409.26	144.76	143.27	62.343	0.00017503	69.042	264.477	1.224	-40.174	-69.581	142.774	67.620	-70.208	-63.907	77.690	220.833	-65.798	-60.632	-58.295	-53.430	67.277	-56.556	-8191	255	
9980.966	1	1	0	0	0.093443	0.094345	0.1816	0.32057	0.3153	0.36509	0.21168	0.26933	0.13072	0.14136	0.19145	0.14803	0.19667	0.088066	0.067903	0.17342	-2.7021	-3.1958	-2.425	-3.6229	-3.0521	-2.6083	-3.4437	-2.9021	-3.0625	-3.3375	-2.5583	-3.3125	-3.1833	-2.8021	-3.4208	-2.7938	194.027	-76.586	-44.611	263.265	172.372	136.984	86.032	1.203	181.008	14.854	78.239	262.449	245.790	-68.458	84.519	231.855	0.00017881	0.00103	0.00015863	922.94	5.6607e-06	9.7154e-06	767.95	311.6	1.0679e-05	1.0085e-05	288.1	100.66	102.69	47.939	9.0971e-07	50.324	0.01318	0.01635	0.0045801	1198.1	0.0001815	0.00018203	1012	408.51	0.00018327	0.00018516	416.68	146.76	144.06	62.655	0.00018814	69.849	-65.595	0.144	-30.410	-69.428	97.847	62.293	-70.428	-63.699	22.564	104.537	-66.041	-60.083	-58.115	-53.266	206.986	-56.345	-8191	255	
9981.060	1	1	0	0	0.12413	0.16274	0.097704	0.32631	0.25205	0.1292	0.10742	0.29462	0.12261	0.23578	0.15821	0.19635	0.21218	0.089916	0.11964	0.088628	-2.5708	-3.4542	-2.4792	-3.1312	-3.1604	-2.7687	-3.5958	-3.075	-2.9688	-3.425	-2.7229	-3.2021	-3.325	-2.7396	-3.6063	-3.1833	50.250	254.598	-34.526	226.569	246.970	263.796	-15.802	221.945	78.378	237.798	-61.653	217.891	244.268	206.619	12.085	113.088	2.7565e-05	0.0008348	2.953e-05	919.35	1.1278e-05	2.4362e-05	764.37	311.14	1.0647e-05	1.2587e-05	286.64	101.27	102.2	47.854	1.3049e-05	50.258	0.013594	0.016993	0.0048904	1203.2	0.00018429	0.00018503	1020.8	408.47	0.00018045	0.00018308	418.02	145.81	142.88	62.318	0.00018662	69.244	258.993	120.912	244.126	-69.355	170.452	59.874	-70.243	-63.659	109.497	86.247	-65.971	-60.480	-58.113	-53.076	185.589	-56.243	-8191	255	
9981.157	1	1	0	0	0.18085	0.29216	0.24812	0.23056	0.25638	0.20684	0.19149	0.20986	0.16853	0.056219	0.1049	0.21335	0.27043	0.094516	0.17334	0.33859	-2.5917	-3.3271	-2.5812	-3.2542	-3.325	-2.6875	-3.5312	-2.9146	-2.7229	-3.5396	-2.9271	-3.1312	-3.2396	-2.7333	-3.6229	-3.1083	209.495	125.180	187.631	214.354	109.332	222.293	178.946	168.661	240.479	73.622	118.321	-73.818	260.418	-53.420	108.151	238.771	0.00018715	0.0011498	0.0002108	918.47	7.1988e-06	6.7319e-06	763.99	311.74	1.3307e-05	1.2471e-05	288.86	102.52	103.09	48.821	9.8649e-06	51.705	0.0129	0.016255	0.0048117	1185.8	0.00017317	0.00017613	1011.7	402.17	0.00016778	0.00017141	414.65	143.57	140.56	62.496	0.00017337	69.008	268.961	83.910	43.654	-69.337	59.292	241.173	-70.063	-63.623	118.380	207.370	-65.764	-60.387	-58.099	-53.343	220.961	-56.051	-8191	255	
9981.277	1	1	0	0	0.10561	0.16431	0.16211	0.29609	0.1713	0.21139	0.22727	0.12808	0.18009	0.37641	0.070206	0.17863	0.081497	0.073292	0.11641	0.14662	-2.1229	-3.3563	-2.7875	-3.0792	-3.3021	-2.5687	-3.4125	-3.1729	-2.6167	-3.2583	-2.9313	-3.125	-3.4979	-2.5687	-3.3063	-3.3458	202.281	60.454	-17.954	253.148	-33.707	0.201	223.884	139.387	220.159	-47.108	258.765	77.231	178.203	209.290	112.941	271.338	7.6846e-05	0.00032844	0.00044103	920.07	5.887e-06	8.2776e-06	769.84	311.7	2.457e-06	9.0615e-06	291.21	103.24	103.65	48.932	1.7121e-05	51.842	0.011618	0.014968	0.0044315	1161.8	0.0001589	0.00016693	1003.9	398.22	0.00015952	0.00017072	414.58	143.47	141.27	63.227	0.00017923	69.379	220.265	204.159	-24.622	-69.741	232.265	73.371	-70.116	-63.784	41.120	227.031	-65.833	-59.899	-57.757	-53.100	-29.046	-56.184	-8191	255	
9981.373	1	1	0	0	0.18953	0.076578	0.16202	0.16203	0.12029	0.29531	0.081155	0.22132	0.15442	0.046732	0.27251	0.19392	0.30115	0.049653	0.063695	0.054475	-2.3312	-3.2812	-2.7896	-2.8833	-3.5646	-2.8187	-3.1521	-3.1458	-2.6042	-3.5729	-3.2938	-2.7271	-3.3333	-2.6646	-3.3187	-3.5542	-11.987	90.201	104.381	234.229	184.174	54.579	265.255	158.807	-54.484	-63.289	256.922	224.226	274.474	1.514	-75.821	115.817	0.00011278	0.0012843	0.0003295	924.25	3.3832e-06	1.0469e-05	768.33	313.57	4.8957e-06	1.4975e-05	292.38	102.46	103.69	48.787	3.8205e-06	51.149	0.012241	0.01651	0.0047692	1182.3	0.00017336	0.00019061	1026.1	408.49	0.00018211	0.00020276	431.61	149.17	148.06	65.839	0.00021575	72.069	254.999	176.200	-2.650	-69.604	144.369	17.857	-70.373	-63.816	263.181	109.485	-66.099	-60.551	-58.512	-53.320	164.619	-56.629	-8191	255	
9981.469	1	1	0	0	0.065749	0.24276	0.26428	0.19131	0.12614	0.10199	0.096691	0.078838	0.12893	0.039231	0.1667	0.12858	0.10591	0.17713	0.17257	0.072525	-2.2729	-3.3167	-2.8646	-3.0708	-3.5458	-2.6625	-3.2271	-3.6	-2.425	-3.2917	-3.0542	-2.7417	-3.5479	-2.6958	-2.9917	-3.6	19.161	179.563	110.495	248.710	-17.774	14.521	-52.328	-78.557	-50.530	-58.841	182.553	193.039	263.795	-43.709	98.265	-60.998	0.00033941	0.00094252	0.00042245	930.68	1.4401e-05	4.8043e-06	770.99	314.7	7.2332e-06	1.7128e-05	289.84	101.43	102.98	48.234	2.2988e-06	50.759	0.015152	0.020981	0.0058558	1240.9	0.00021538	0.00023811	1068.9	422.7	0.00021527	0.00023498	441.13	151.06	150.33	66.11	0.0002188	71.625	245.609	203.001	-7.603	-69.513	145.325	256.577	-69.952	-63.739	-49.213	273.181	-65.464	-59.960	-58.547	-53.334	125.493	-56.227	-8191	255	
9981.566	1	1	0	0	0.10635	0.13028	0.17173	0.32848	0.081925	0.2876	0.067969	0.23421	0.15278	0.24627	0.20568	0.14986	0.09658	0.18157	0.067518	0.086056	-2.1104	-3.1625	-3.0854	-2.9646	-3.5375	-2.8979	-3.0167	-3.4729	-2.5583	-3.2521	-3.3229	-2.6833	-3.5062	-2.7938	-2.7979	-3.5062	149.202	59.033	168.928	258.659	131.508	119.063	-16.393	222.291	20.569	-45.137	0.440	195.728	208.358	238.333	17.272	210.611	0.00040902	0.0018479	0.00033361	922.21	6.528e-06	2.3353e-05	768.58	311.73	6.3912e-06	7.829e-06	286.49	100.62	102.16	48.059	2.6385e-06	49.92	0.015379	0.020678	0.005527	1219	0.00020974	0.00022551	1044.4	414.09	0.00020841	0.00022363	431.28	148.06	148.68	64.785	0.00020566	69.891	222.153	8.725	-2.437	-69.561	204.807	111.571	-70.063	-63.879	259.819	29.541	-65.841	-60.152	-58.038	-53.063	71.451	-56.023	-8191	255	
9981.662	1	1	0	0	0.029292	0.30655	0.36251	0.21494	0.37384	0.066168	0.15822	0.044067	0.10595	0.14261	0.19563	0.15607	0.29828	0.11349	0.072745	0.28509	-2.35	-3.1833	-3.2313	-2.6417	-3.4708	-2.8542	-2.7292	-3.5	-2.5938	-2.9729	-3.2375	-2.6396	-3.4896	-2.9688	-2.7917	-3.6312	198.949	242.112	107.732	217.150	88.297	90.473	111.274	262.766	43.246	245.126	240.518	252.620	203.010	-14.109	216.089	3.848	0.00036791	0.0014331	0.00048831	919.84	2.4559e-05	1.8829e-05	760.17	307.41	2.3037e-06	1.0206e-05	284.13	99.126	100.5	46.93	1.5695e-05	49.365	0.015178	0.01958	0.0052532	1199.2	0.00020547	0.00021264	1024.6	405.84	0.00020447	0.00020971	420.15	144.87	146.07	63.094	0.00019668	68.648	216.778	-27.563	13.353	-69.307	232.679	59.914	-69.770	-63.453	204.312	-34.226	-64.848	-59.752	-58.185	-53.545	105.631	-56.325	-8191	255	
9981.758	1	1	0	0	0.14342	0.11798	0.20475	0.31453	0.19435	0.09832	0.13674	0.27655	0.088093	0.097278	0.278	0.22198	0.17505	0.05553	0.10064	0.11151	-2.1354	-2.9083	-3.3833	-2.6458	-3.3979	-3.1063	-2.8792	-3.3812	-2.7313	-3.1979	-3.3458	-2.5812	-3.2625	-3.1979	-2.6583	-3.4396	-35.810	114.578	-12.191	173.547	182.229	-61.082	182.473	244.783	271.783	110.088	117.837	151.455	59.233	188.150	-73.775	-61.738	0.00028608	0.0011602	0.00035039	903.94	1.9441e-05	7.7396e-06	752.62	304.83	3.5126e-06	1.5466e-05	282.51	98.654	100.44	47	9.7378e-06	49.475	0.014847	0.01854	0.0050226	1187.8	0.00020284	0.00020358	1013.1	403.06	0.00020292	0.00020182	415.84	144.65	144.89	62.576	0.00018742	68.822	213.197	-29.332	41.667	-69.435	176.195	0.372	-70.168	-63.777	165.001	114.818	-65.595	-60.120	-58.194	-53.510	-59.081	-56.135	-8191	255	
9981.854	1	1	0	0	0.19981	0.15816	0.15083	0.17438	0.19169	0.16372	0.33282	0.191	0.17118	0.14761	0.10709	0.071215	0.10846	0.29779	0.10487	0.020694	-2.3604	-2.8896	-3.4396	-2.7562	-3.175	-3.2375	-2.8479	-3.7458	-2.875	-2.7938	-3.4062	-2.8167	-3.3625	-3.2146	-2.4562	-3.6312	81.061	-44.666	181.752	254.990	225.974	190.353	-68.873	222.058	-72.600	129.330	187.007	-8.299	192.451	214.215	139.612	231.994	0.00021528	0.001124	0.00041428	903.35	1.3446e-05	1.2303e-05	753.07	305.88	6.9424e-06	5.2676e-06	286.07	100.6	101.73	47.964	5.4192e-06	50.604	0.014131	0.017192	0.0046649	1172	0.00018662	0.00018364	992.34	399.11	0.00018119	0.00017946	407.27	143.71	142.38	62.176	0.00017138	68.94	267.390	-25.251	278.113	-69.129	92.198	9.812	-69.839	-63.746	51.603	45.733	-65.909	-60.380	-58.304	-53.544	-50.996	-56.203	-8191	255	
9981.950	1	1	0	0	0.1045	0.22152	0.25858	0.25279	0.21731	0.27126	0.10505	0.38736	0.33995	0.032282	0.18653	0.27171	0.12448	0.20835	0.13076	0.15022	-2.6729	-2.7521	-3.375	-2.7854	-3.2271	-3.2042	-2.9813	-3.5792	-3.0479	-2.6521	-3.6646	-2.825	-3.1688	-3.3042	-2.5146	-3.4792	161.992	126.065	137.687	222.071	259.177	200.117	261.950	204.740	267.769	39.790	223.407	-50.002	233.997	225.642	253.216	-70.331	1.8392e-05	0.00039873	0.00045864	904.08	4.5963e-06	1.3534e-05	760.72	305.73	3.1746e-06	7.2118e-06	286.73	101.2	102.22	48.053	6.4763e-06	50.568	0.013008	0.016001	0.0044241	1167.1	0.00017595	0.00017783	991.89	399.67	0.0001786	0.00017914	410.18	145.25	142.86	62.619	0.00018068	69.789	127.629	1.723	65.343	-69.546	106.005	17.746	-70.149	-63.624	125.011	159.407	-65.637	-60.425	-57.803	-53.104	115.588	-56.120	-8191	255	
9982.046	1	1	0	0	0.20762	0.17672	0.021769	0.1172	0.11919	0.27221	0.20525	0.13169	0.132	0.12683	0.19604	0.04636	0.21195	0.078109	0.21811	0.27329	-2.7875	-2.6375	-3.4104	-2.7646	-3.125	-3.4396	-2.7521	-3.3771	-3.2375	-2.7875	-3.625	-2.8292	-3.0333	-3.7458	-2.7125	-3.4604	103.990	192.027	48.563	256.789	158.510	106.941	-34.104	69.369	83.149	-7.808	14.239	104.492	245.270	267.883	-40.656	252.658	0.00010918	0.00047544	0.00030338	908.54	5.0967e-06	5.0387e-06	758.18	308.12	2.9546e-06	9.3305e-06	283.59	100.7	102.07	47.574	2.094e-05	49.986	0.01336	0.016631	0.0047528	1187.3	0.00018415	0.00018643	1009.3	406.76	0.00018665	0.00018969	419.1	147.56	144.36	62.944	0.00019619	70.205	267.780	204.243	-50.532	-69.715	148.446	29.103	-70.531	-63.930	198.168	271.910	-65.884	-60.585	-58.463	-53.610	191.094	-56.609	-8191	255	
9982.165	1	1	0	0	0.19604	0.21283	0.1734	0.21908	0.1853	0.12017	0.23388	0.29823	0.11357	0.15345	0.12412	0.12298	0.16262	0.38136	0.063198	0.21028	-2.7146	-2.6292	-3.5354	-2.9771	-2.7021	-3.5271	-2.7625	-3.4062	-3.3083	-2.3458	-3.5604	-2.9938	-2.975	-3.3521	-2.5396	-3.0146	-52.567	160.196	-72.565	183.350	229.555	3.645	189.422	213.717	268.840	175.735	22.930	274.970	165.013	220.491	22.247	205.706	0.000118	0.00041028	0.000208	910.85	1.216e-05	1.9355e-05	760.74	310.26	3.1719e-06	7.7235e-06	285.61	100.87	102.24	47.862	1.3092e-05	50.344	0.013962	0.017475	0.0050904	1197.7	0.0001886	0.00019083	1022.3	408.69	0.00018683	0.00019036	423.15	146.59	144.19	62.988	0.00019665	69.757	-68.737	277.348	118.323	-69.792	200.162	1.644	-70.363	-63.664	118.127	57.678	-66.239	-60.553	-58.636	-53.537	275.619	-56.559	-8191	255	
9982.261	1	1	0	0	0.09795	0.1522	0.27943	0.16887	0.19822	0.21425	0.34556	0.15032	0.35311	0.21468	0.15543	0.10824	0.10743	0.23642	0.15448	0.20361	-3.1208	-2.7313	-3.3563	-3.05	-2.6375	-3.4375	-2.925	-2.9813	-3.2562	-2.6063	-3.5438	-3.3479	-2.6354	-3.6375	-2.6875	-2.9917	143.334	183.019	194.457	256.812	259.997	231.936	180.624	-55.978	159.154	106.158	-47.320	250.891	231.971	243.847	125.920	195.740	0.00019766	0.00075434	0.00017437	918.1	5.1183e-06	1.4918e-06	761.24	310.11	5.0614e-06	1.2869e-05	285.56	100.98	102.56	47.83	1.0474e-05	50.43	0.013557	0.017124	0.0050908	1192.2	0.00018211	0.00018896	1022.4	406.74	0.00018205	0.00018859	423.05	145.56	143.24	63.02	0.00019828	69.413	236.640	146.791	240.713	-69.943	87.341	0.935	-70.625	-63.984	7.038	225.315	-65.918	-60.618	-58.383	-53.811	10.956	-56.152	-8191	255	
9982.358	1	1	0	0	0.033217	0.29119	0.11227	0.157	0.31639	0.12431	0.37934	0.058195	0.17018	0.28771	0.25961	0.16086	0.21705	0.15008	0.020575	0.01666	-3.0062	-2.4021	-3.4333	-3.3375	-2.6104	-3.4458	-2.9354	-3.0729	-3.6667	-2.6271	-3.275	-3.1271	-2.6125	-3.7104	-2.8417	-2.9562	215.808	55.464	30.643	-78.683	252.916	-28.120	-13.621	198.897	83.029	229.302	188.353	193.401	174.831	157.202	209.512	126.583	0.0001443	0.001911	0.0002933	921.35	7.9728e-06	1.8228e-05	762.71	311.32	2.1453e-06	9.7709e-06	288.16	101.43	103.22	48.244	1.6029e-05	50.536	0.013426	0.017613	0.0051949	1199.5	0.00018718	0.00020212	1039.3	411.67	0.00019374	0.00021085	436.38	149.88	148.21	65.432	0.00022404	71.943	-77.883	108.996	1.898	-69.818	264.020	168.591	-70.395	-63.967	177.774	142.234	-65.959	-60.420	-58.639	-53.532	20.156	-56.533	-8191	255	
9982.454	1	1	0	0	0.21332	0.075302	0.15968	0.10031	0.07158	0.06362	0.2013	0.14759	0.41917	0.32022	0.3927	0.16206	0.12607	0.017391	0.072201	0.14382	-3.1104	-2.6708	-3.2979	-3.2396	-2.6375	-3.4437	-3.0208	-3.0687	-3.4646	-2.6542	-3.2146	-3.4542	-2.7708	-3.5938	-2.8979	-2.9625	-8.909	109.210	-70.209	213.877	241.145	142.150	200.832	201.832	-56.202	55.139	227.609	132.016	25.393	-53.773	262.504	216.670	0.00015649	0.00031196	0.00040889	925.3	1.3598e-05	8.3939e-06	764.58	311.89	1.6492e-06	5.8423e-06	286.88	100.97	102.95	48.195	6.6553e-06	50.33	0.015442	0.020939	0.0059029	1235.8	0.00021345	0.00023666	1065.4	422.12	0.00021589	0.00023795	444.84	152.22	150.76	66.486	0.00022983	71.94	225.843	140.228	1.135	-69.860	135.761	116.921	-70.437	-63.949	99.439	214.564	-65.946	-60.701	-58.378	-53.442	51.062	-56.631	-8191	255	
9982.550	1	1	0	0	0.14631	0.27207	0.17897	0.029438	0.14708	0.25014	0.15608	0.1311	0.10357	0.11975	0.063221	0.22974	0.25242	0.040058	0.047001	0.18159	-3.0458	-2.6104	-3.1417	-3.6312	-2.8833	-3.2604	-3.1125	-2.6146	-3.4458	-2.6813	-3.1875	-3.5646	-2.6229	-3.3646	-3.2333	-2.6625	199.060	43.179	2.116	-0.982	198.427	188.598	113.073	-66.056	-63.659	180.066	142.137	263.341	187.460	261.523	152.680	252.552	0.00026739	0.001086	0.00050934	920.63	3.0046e-06	2.2823e-05	760.68	309.26	5.1678e-06	6.4094e-06	285.34	99.65	100.93	47.661	5.6379e-06	49.751	0.015846	0.021425	0.0058206	1226.5	0.00021398	0.00023396	1048.8	415.18	0.00021258	0.00023082	433.84	148.49	148.21	65.106	0.00021474	70.298	239.674	82.743	27.129	-69.721	180.039	0.739	-70.469	-63.890	177.013	115.217	-65.710	-60.776	-58.399	-53.471	-49.019	-56.513	-8191	255	
9982.646	1	1	0	0	0.12076	0.15777	0.10939	0.21659	0.16304	0.15037	0.1976	0.31683	0.19416	0.14655	0.27961	0.24943	0.14072	0.21865	0.22232	0.24968	-3.2812	-2.9208	-2.9313	-3.5104	-2.5833	-3.0917	-3.3896	-2.8292	-3.4917	-2.8625	-2.7021	-3.4458	-2.7583	-3.2958	-3.4042	-2.725	116.404	102.043	246.730	-73.544	70.904	129.629	203.107	249.009	117.841	73.177	242.558	161.948	-64.579	248.401	81.081	240.901	0.00032838	0.00096348	0.00019567	914.38	1.2184e-05	8.7214e-06	755.84	308.59	5.9542e-06	1.4213e-05	285.9	100.15	102.29	47.959	1.2274e-05	50.044	0.015464	0.020536	0.0055076	1211.7	0.00021332	0.00022846	1040.3	413.69	0.00021691	0.00022968	434.25	149.71	150.94	65.725	0.00022107	71.511	248.041	58.257	267.563	-69.656	197.057	27.776	-70.734	-64.032	-8.083	-25.361	-65.650	-60.560	-58.279	-53.652	186.163	-56.849	-8191	255	
9982.767	1	1	0	0	0.23524	0.034145	0.20049	0.15231	0.024663	0.095311	0.098431	0.01805	0.17833	0.077448	0.053678	0.21104	0.11028	0.19372	0.12131	0.2211	-2.9521	-2.7604	-2.6396	-3.6354	-2.5812	-3.1458	-3.5042	-2.5646	-3.5458	-2.9333	-2.7521	-3.7438	-2.7354	-3.1604	-3.3438	-2.6562	96.358	99.793	-73.090	-40.507	204.288	-30.503	241.949	-57.226	-15.022	-45.379	42.133	265.119	227.276	183.029	-36.647	-69.629	0.00041406	0.0013438	0.00028758	919.51	1.136e-05	2.5222e-05	757.32	309.98	3.0101e-06	2.2453e-05	284.16	99.517	102.17	48.037	7.7161e-06	49.681	0.016732	0.021459	0.0058196	1232.7	0.00023402	0.00024335	1060.6	422.73	0.00024386	0.00024931	446.42	155.04	156.68	67.043	0.00024491	73.659	212.012	-12.664	-38.265	-69.579	164.745	-0.018	-70.195	-64.152	-54.144	106.642	-66.029	-60.286	-58.693	-53.543	114.868	-56.739	-8191	255	
9982.861	1	1	0	0	0.057249	0.11108	0.079825	0.028733	0.16602	0.11636	0.27985	0.03204	0.23644	0.083365	0.22188	0.23164	0.13521	0.13692	0.07702	0.20903	-2.9521	-3.2708	-2.75	-3.4979	-2.7292	-2.7521	-3.5146	-2.8542	-3.2438	-3.4354	-2.7708	-3.4479	-2.7875	-3.025	-3.5	-2.775	180.269	193.463	-15.177	220.981	83.193	-37.219	266.248	220.269	-27.902	-12.607	194.187	218.868	190.565	138.562	187.785	258.252	0.00029622	0.0023931	0.00061908	913.33	1.6679e-05	2.1863e-05	757.44	306.51	7.4948e-07	7.4462e-06	284.02	98.481	100.52	47.04	5.2564e-06	48.737	0.01885	0.023476	0.0063404	1263.3	0.00025725	0.0002548	1067.8	426.08	0.00024812	0.00024458	438.65	152.51	152.07	64.559	0.0002199	70.636	192.535	-5.497	-26.664	-69.884	91.009	12.800	-70.305	-63.837	167.857	120.029	-66.122	-60.601	-58.348	-53.559	270.844	-56.356	-8191	255	
9982.959	1	1	0	0	0.18416	0.28655	0.1863	0.20057	0.23299	0.061742	0.049067	0.19957	0.14871	0.16594	0.14744	0.21467	0.2448	0.18309	0.10797	0.10401	-2.8937	-3.1646	-2.4354	-3.4875	-2.9688	-2.8688	-3.4354	-2.7188	-3.35	-3.4313	-2.7354	-3.4188	-3.125	-3.0458	-3.5896	-2.8729	-28.374	54.309	229.315	219.161	122.837	177.292	179.379	-61.853	69.210	0.116	227.148	209.455	48.324	-19.178	-30.325	-47.184	0.00010339	0.0010604	7.8794e-05	910.74	6.2652e-06	2.2558e-05	750.96	304.68	9.5814e-06	3.4254e-06	279.39	97.333	100.32	46.484	1.7143e-05	48.478	0.016393	0.020004	0.0054137	1217.8	0.00021637	0.00021548	1024.6	412.1	0.00021525	0.00021636	423.27	149	148.17	63.345	0.00021349	70.63	213.220	82.736	253.962	-69.330	119.865	-12.366	-70.039	-64.103	49.870	72.253	-65.856	-60.218	-58.520	-53.518	253.227	-56.404	-8191	255	
9983.053	1	1	0	0	0.095552	0.20219	0.28536	0.22371	0.15014	0.15483	0.26135	0.098153	0.19633	0.16855	0.27316	0.26649	0.072917	0.32553	0.13082	0.13113	-2.8292	-3.3208	-2.7208	-3.5021	-2.95	-2.4667	-3.4521	-2.8042	-3.1437	-3.5042	-2.5083	-3.3604	-3.0021	-2.7125	-3.6292	-2.6437	-25.890	131.666	158.388	187.921	271.200	255.699	212.235	71.090	235.967	105.912	-71.699	259.188	-63.440	191.559	90.892	122.796	0.00020101	0.0014946	0.00031276	907.9	1.1983e-05	7.0352e-06	751.53	304.87	8.7736e-06	1.2776e-05	279.8	98.092	100.21	46.659	1.4169e-05	48.437	0.016221	0.020187	0.0056245	1234.3	0.00022219	0.00022317	1039.3	418.83	0.00022167	0.00022229	430.19	151.07	148.41	63.526	0.00021974	70.697	249.951	50.993	228.269	-69.347	45.498	92.948	-70.339	-63.949	21.861	91.560	-66.245	-60.635	-58.589	-53.456	193.573	-56.118	-8191	255	
9983.150	1	1	0	0	0.30874	0.094651	0.099042	0.34558	0.058404	0.1783	0.24972	0.36453	0.23087	0.040797	0.22032	0.19667	0.13532	0.11887	0.082543	0.16488	-2.4875	-3.2479	-2.5333	-3.3333	-2.9792	-2.5646	-3.5646	-3.0604	-2.8083	-3.2562	-2.7104	-3.1937	-3.3667	-2.9562	-3.3833	-2.8729	167.297	-55.192	238.991	219.426	10.868	153.377	257.099	207.304	156.855	38.791	-69.415	212.441	-40.490	250.554	-56.590	-33.749	0.00016152	0.0014393	0.00051332	909.63	1.3583e-05	3.2484e-06	746.75	304.63	4.4508e-06	6.8294e-06	277.32	97.616	99.641	46.227	1.1073e-05	48.265	0.015787	0.01963	0.005626	1228.2	0.00021256	0.00021275	1030.7	412.26	0.0002061	0.00020892	424.06	147.4	144.64	62.283	0.00021245	69.53	218.773	2.627	219.305	-69.628	37.762	-0.374	-70.260	-63.882	143.253	120.883	-65.913	-60.640	-58.383	-53.171	254.439	-56.365	-8191	255	
9983.246	1	1	0	0	0.30513	0.19291	0.22013	0.25909	0.16104	0.063736	0.37707	0.30692	0.26156	0.12505	0.20859	0.31847	0.21292	0.20974	0.2374	0.22342	-2.1875	-3.4062	-2.8021	-3.3125	-3.3792	-2.3875	-3.5458	-3.125	-2.5292	-3.3771	-2.6167	-3.3563	-3.4167	-2.7083	-3.3792	-3.0208	221.430	156.617	6.282	-79.578	147.373	267.345	222.164	254.299	203.490	-47.918	-41.874	196.906	257.018	239.309	96.010	250.095	0.00030472	0.00085671	0.00038428	901.73	2.6462e-06	1.5316e-05	742	303.43	7.1667e-06	3.4417e-06	278.46	98.057	100.68	46.618	1.8014e-05	48.729	0.014982	0.018986	0.0056091	1212.5	0.000209	0.00021441	1038.9	412.43	0.00021179	0.00021852	434.05	149.42	147.06	63.444	0.00022668	70.096	221.578	-0.271	97.783	-69.419	149.494	59.962	-70.474	-63.907	-81.414	55.242	-65.769	-59.889	-58.374	-53.510	224.027	-56.084	-8191	255	
9983.342	1	1	0	0	0.19996	0.15625	0.11042	0.17795	0.11481	0.1738	0.11413	0.3597	0.041037	0.04851	0.193	0.1121	0.15435	0.26462	0.12509	0.28911	-2.2833	-3.5938	-2.5125	-3.1354	-3.2917	-2.4083	-3.4771	-3.2083	-2.7417	-3.4938	-2.8417	-3.0312	-3.5396	-2.7313	-3.2458	-3.2188	0.323	-70.659	47.873	186.822	79.496	-1.420	167.362	183.041	-61.009	93.203	216.130	-59.863	-39.204	-76.479	198.949	214.002	0.00023451	0.00069234	0.00011967	906.25	3.9813e-06	2.2059e-05	746.42	303.67	1.1671e-06	1.1143e-05	278.66	97.968	99.664	46.556	1.496e-05	48.874	0.015272	0.019576	0.0057371	1205.4	0.00020171	0.00020841	1029.3	405.72	0.00019544	0.00020608	424.8	145.05	143.55	62.819	0.00021291	69.022	253.805	77.545	198.984	-69.295	-65.101	237.929	-70.189	-63.689	-61.391	158.892	-65.860	-60.394	-58.318	-53.373	101.590	-56.650	-8191	255	
9983.462	1	1	0	0	0.14809	0.09564	0.069935	0.42129	0.1505	0.094179	0.20161	0.31153	0.15239	0.034867	0.10329	0.080549	0.12376	0.088471	0.16215	0.16801	-2.1208	-3.5521	-2.9354	-2.8042	-3.2896	-2.5417	-3.3729	-3.3646	-2.6	-3.5354	-2.9958	-2.7792	-3.7	-2.8396	-3.2917	-3.3854	222.339	57.430	-25.146	261.549	152.385	-75.461	208.650	137.250	258.907	-58.460	-41.280	-31.732	275.092	231.701	117.398	247.126	0.00030155	0.00087654	0.00019678	908.5	1.1314e-05	2.1372e-05	757.29	306.17	5.1453e-06	2.2026e-05	283.3	99.209	100.73	47.127	5.0827e-06	48.97	0.014321	0.019087	0.0055332	1204.4	0.00020034	0.00021788	1041.2	410.87	0.00020336	0.00022327	434.31	148.45	146.76	64.568	0.00022383	70.366	228.550	71.126	189.173	-69.289	135.832	165.265	-70.051	-63.725	163.886	166.299	-65.763	-60.285	-57.971	-52.999	151.587	-55.992	-8191	255	
9983.534	1	1	0	0	0.051513	0.053403	0.1426	0.13518	0.16993	0.036955	0.12961	0.072184	0.15446	0.21808	0.18944	0.24184	0.25235	0.20076	0.45601	0.21305	-2.0708	-3.225	-2.8083	-2.7771	-3.3667	-2.7979	-3.1583	-3.5604	-2.6646	-3.4729	-3.25	-2.5917	-3.5792	-2.6833	-2.9646	-3.6437	98.562	-26.291	187.867	209.495	8.089	93.400	77.680	238.472	261.191	99.412	5.378	79.834	-9.874	-50.468	232.357	138.309	0.00026835	0.0008394	0.00044331	912.42	9.7493e-06	1.6093e-05	750.84	305.01	3.9707e-06	1.3007e-05	279.96	98.133	100.04	46.581	1.4648e-05	48.422	0.015257	0.020649	0.0057248	1212.9	0.00020662	0.00022596	1036.1	408.56	0.00020292	0.00022098	423.19	145.03	144.33	63.212	0.00020466	68.133	211.448	-4.808	-27.888	-69.269	205.852	276.045	-69.669	-63.669	-20.181	213.794	-65.803	-60.345	-57.797	-53.194	92.896	-56.603	-8191	255	
9983.630	1	1	0	0	0.28471	0.076333	0.053318	0.16805	0.14271	0.20729	0.1706	0.05405	0.10445	0.081699	0.14651	0.23892	0.10133	0.3061	0.15841	0.3311	-2.0604	-3.2792	-2.9146	-2.6688	-3.6229	-2.7292	-3.0542	-3.4979	-2.5042	-3.5208	-3.2396	-2.6375	-3.3187	-2.8104	-2.9771	-3.6437	-52.812	61.807	-1.047	275.479	53.286	79.257	168.835	249.211	-51.800	-45.826	186.696	-67.991	-77.103	232.826	267.921	-74.461	0.00037994	0.00045697	0.00044989	904.64	4.9252e-06	8.3531e-06	750.94	305.59	1.4299e-05	1.3415e-05	279.73	97.923	100.22	47.225	1.1591e-05	49.055	0.014345	0.019304	0.0051993	1183.8	0.00019617	0.00021276	1014.5	403.37	0.00019743	0.00021345	418.46	143.86	144.89	63.482	0.00019862	68.242	222.971	-31.496	-52.716	-69.390	52.088	13.764	-70.152	-63.684	232.939	261.591	-65.787	-60.319	-58.250	-53.238	113.460	-56.228	-8191	255	
9983.726	1	1	0	0	0.11583	0.12649	0.038586	0.46657	0.065021	0.031264	0.16019	0.26073	0.19974	0.029592	0.18297	0.070622	0.2869	0.37739	0.12142	0.12356	-2.2354	-3.1708	-3.1188	-2.7646	-3.4542	-2.7208	-2.75	-3.6104	-2.5667	-3.0125	-3.5167	-2.75	-3.0208	-3.1083	-2.7104	-3.6083	61.034	-44.262	151.449	242.752	23.196	36.835	214.763	-77.888	-53.384	121.513	69.638	141.824	253.262	213.362	82.186	265.865	0.0003298	0.0017159	0.00039427	904.37	5.2274e-06	1.1181e-05	747.03	303.25	8.4536e-06	1.6463e-05	280.64	98.165	100.17	46.98	7.7304e-06	48.875	0.014405	0.018688	0.0050024	1174.5	0.0001947	0.00020237	1001.1	397.74	0.00019202	0.00019911	410.62	142	143.27	62.439	0.00018691	67.704	212.729	58.599	-2.834	-69.292	270.973	92.660	-69.912	-63.504	256.706	41.300	-65.781	-60.150	-57.836	-53.270	194.910	-56.182	-8191	255	
9983.847	1	1	0	0	0.14775	0.20912	0.17161	0.38968	0.10387	0.12524	0.36526	0.18727	0.21027	0.20052	0.13222	0.21153	0.064522	0.11754	0.26904	0.22859	-2.2354	-2.8458	-3.1729	-2.4917	-3.4437	-3.0833	-2.8854	-3.6417	-2.6833	-3.0083	-3.5104	-2.5625	-3.3833	-3.2104	-2.775	-3.6354	-73.014	-50.957	49.794	237.420	147.797	21.000	103.934	171.717	56.714	120.060	217.366	245.527	191.435	210.762	120.032	-16.133	0.00021866	0.00066812	0.00034313	910.77	5.3418e-06	5.7342e-06	753.24	306.96	3.2159e-06	8.2782e-06	283.45	99.772	101.68	47.953	1.0776e-05	49.835	0.014149	0.017817	0.0048359	1175.7	0.00019464	0.00019678	1004.2	402.86	0.00019587	0.00019674	414.49	144.86	145.84	63.48	0.00018814	69.18	245.900	10.887	-2.051	-69.402	120.544	76.869	-69.997	-63.663	128.306	87.896	-66.011	-60.168	-58.215	-53.380	145.647	-56.172	-8191	255	
9983.941	1	1	0	0	0.19914	0.25883	0.094044	0.23558	0.1425	0.020991	0.18356	0.27582	0.1574	0.19764	0.018076	0.092937	0.1671	0.20842	0.25511	0.060532	-2.3375	-2.625	-3.5187	-2.7375	-3.3729	-3.0625	-2.8083	-3.65	-2.9833	-2.6417	-3.35	-2.6229	-3.2875	-3.425	-2.4979	-3.4604	-46.149	158.833	53.115	-40.474	-1.745	-16.664	180.961	184.863	168.733	199.334	92.092	-57.974	163.779	-11.932	264.072	152.686	0.00013068	0.00074068	0.00013311	909.64	1.8797e-05	2.3679e-06	755.77	306.96	1.6683e-06	4.7825e-06	283.74	99.664	102.27	47.844	4.2597e-06	49.606	0.014399	0.017678	0.0048336	1186.2	0.00019521	0.00019395	1000.8	403.65	0.00019048	0.0001888	410.01	144.27	144.31	62.657	0.00017898	68.631	276.250	33.564	32.345	-69.163	157.811	162.794	-69.873	-63.655	62.060	133.431	-65.815	-60.206	-58.070	-53.251	154.553	-56.075	-8191	255	
9984.039	1	1	0	0	0.17281	0.46794	0.056055	0.36329	0.14713	0.11413	0.29035	0.14025	0.10976	0.27797	0.17684	0.17159	0.31227	0.18345	0.23874	0.14529	-2.5271	-2.7771	-3.2229	-2.5104	-3.1396	-3.4854	-2.7542	-3.5312	-2.925	-2.9396	-3.475	-2.7	-3.1146	-3.6875	-2.5396	-3.4854	76.099	41.435	156.416	238.160	-1.758	-81.001	95.763	110.030	255.406	160.514	246.066	118.179	-10.884	217.134	111.717	86.883	0.00016654	0.0025545	4.5117e-05	910.03	9.2818e-06	3.24e-06	752.48	306.66	9.551e-06	1.8191e-05	283.81	99.852	101.21	47.759	8.3877e-06	50.099	0.013698	0.016818	0.0046298	1180.6	0.00018388	0.0001843	992.46	402.25	0.0001816	0.00018103	406.11	143.93	142.14	62.177	0.00017594	68.765	204.028	274.191	126.773	-69.413	165.231	174.140	-69.635	-63.330	68.574	68.973	-65.315	-59.949	-57.918	-53.047	120.916	-55.799	-8191	255	
9984.158	1	1	0	0	0.13081	0.053973	0.053717	0.32914	0.18421	0.12162	0.32095	0.2404	0.11416	0.077506	0.12095	0.19064	0.11316	0.16112	0.20848	0.14537	-2.6	-2.675	-3.3604	-2.7	-2.8875	-3.5312	-2.8375	-3.3979	-2.9188	-2.7667	-3.7208	-2.7	-2.9146	-3.6292	-2.8125	-3.3354	258.072	32.438	-56.453	205.004	-42.226	175.578	259.350	232.119	-61.339	-67.313	256.544	208.323	179.726	-45.317	11.862	164.455	9.5682e-05	0.00092821	0.00012155	910.82	7.9987e-06	1.7256e-05	758.11	309.09	1.163e-05	5.3714e-06	285.3	100.8	102.1	48.267	9.0247e-06	50.449	0.01304	0.016254	0.0045895	1179.2	0.00017751	0.00017976	997.63	403.37	0.00017881	0.00018019	411.97	145.27	142.8	62.647	0.00018339	69.595	160.333	-34.493	171.901	-69.057	110.249	87.497	-70.041	-63.484	33.239	-3.333	-65.743	-60.102	-57.719	-52.965	169.682	-56.078	-8191	255	
9984.230	1	1	0	0	0.13654	0.14274	0.26133	0.12945	0.2748	0.15421	0.057597	0.26458	0.064889	0.17884	0.34656	0.17012	0.14249	0.12986	0.19609	0.12587	-2.5208	-2.4562	-3.5438	-3.075	-2.8063	-3.45	-2.825	-3.4292	-3.1083	-2.5438	-3.4667	-2.8979	-2.8896	-3.8708	-2.7	-3.2542	25.733	-64.385	79.616	274.602	269.637	-61.835	155.612	220.443	23.439	-59.045	231.003	-57.661	275.147	-5.129	165.692	274.224	0.00019983	0.0012285	0.00031185	912.79	2.2075e-05	7.6518e-06	759.28	310.9	7.3373e-06	2.8086e-06	287.27	100.9	103.7	48.544	1.2553e-05	50.569	0.013168	0.016425	0.0048149	1190	0.00018103	0.00018489	1015.9	407.85	0.00018235	0.00018562	420.85	146.74	144.72	63.481	0.00019321	69.876	238.938	-16.467	17.822	-69.075	109.283	74.941	-69.869	-63.423	98.690	18.634	-65.204	-60.443	-57.901	-52.956	183.918	-56.423	-8191	255	
9984.326	1	1	0	0	0.1035	0.27318	0.23937	0.20926	0.10416	0.067382	0.19832	0.14847	0.17978	0.18782	0.15894	0.05806	0.30794	0.21522	0.16808	0.13525	-2.7875	-2.4875	-3.2687	-2.9917	-2.7042	-3.3729	-2.6104	-3.0563	-3.2958	-2.5042	-3.2417	-2.9167	-2.7854	-3.5563	-2.6021	-3.2958	84.045	200.916	122.008	256.531	72.932	36.124	145.915	267.175	122.406	191.989	201.310	46.500	255.621	224.643	72.245	244.011	0.00025273	0.00099284	0.00025288	917.13	3.4029e-06	7.6354e-06	759.22	309.68	7.3764e-06	1.3662e-05	287.29	101.01	103.14	48.432	2.1681e-06	50.704	0.013397	0.01693	0.005038	1192.1	0.00018239	0.00018928	1022.2	408	0.00018375	0.00019027	423.62	146.38	144.66	63.788	0.00019971	69.961	259.377	-26.691	235.399	-69.294	188.102	130.144	-70.221	-63.879	177.224	248.268	-65.813	-60.289	-58.192	-53.249	117.923	-56.158	-8191	255	
9984.447	1	1	0	0	0.27389	0.16231	0.35075	0.27246	0.15401	0.13704	0.18547	0.28904	0.039305	0.23951	0.1529	0.22778	0.20472	0.21033	0.0983	0.23438	-3.3021	-2.5146	-3.2021	-3.0583	-2.5854	-3.6479	-2.8583	-2.8771	-3.4583	-2.6271	-3.2313	-3.2833	-2.7562	-3.6292	-2.7792	-2.9896	166.976	121.283	225.455	-64.426	94.454	207.997	-28.449	231.719	167.063	104.006	104.335	50.333	-34.282	165.476	94.873	189.195	0.00014259	0.0010314	0.0001391	919.21	1.139e-05	1.8209e-05	757.38	311.03	9.7973e-06	5.7868e-06	287.36	100.61	102.82	48.544	1.4219e-05	50.486	0.013575	0.017596	0.0051783	1195.3	0.0001853	0.00019643	1025.4	408.22	0.00018463	0.00019651	424.87	145.77	144.4	64.067	0.00019832	69.569	-28.586	89.717	-68.020	-69.039	191.433	212.755	-69.259	-63.383	-68.218	112.018	-66.072	-60.435	-58.438	-53.545	144.363	-56.627	-8191	255	
9984.543	1	1	0	0	0.19897	0.40611	0.07795	0.28144	0.22949	0.20542	0.27158	0.069691	0.15857	0.29468	0.085044	0.068771	0.039719	0.089775	0.086167	0.046177	-3.0896	-2.5458	-3.1708	-3.3417	-2.7604	-3.7042	-2.8917	-2.8708	-3.6167	-2.6146	-3.0583	-3.4229	-2.6583	-3.5208	-3.0812	-2.7396	123.211	260.632	250.647	213.528	192.301	189.997	267.425	-64.970	176.618	237.922	188.140	172.150	-22.640	-74.846	264.889	150.589	0.00032097	0.0018914	0.00037356	921.18	1.5619e-05	7.0321e-06	761.45	311.81	1.3886e-05	9.437e-06	288.44	101.8	103.94	49.268	6.2762e-06	51.038	0.013418	0.017918	0.0050608	1190.7	0.00018156	0.00019899	1024.2	407.92	0.0001841	0.00020052	424.26	146.92	145.84	65.167	0.00019768	70.382	203.057	39.824	-26.027	-69.810	55.793	-48.901	-70.289	-64.185	243.397	2.067	-65.939	-60.697	-58.551	-53.575	71.717	-56.647	-8191	255	
9984.639	1	1	0	0	0.21258	0.22376	0.18727	0.20285	0.23559	0.041623	0.23117	0.19474	0.10602	0.044576	0.12273	0.094028	0.10295	0.1569	0.21632	0.24849	-2.975	-2.4604	-3.0458	-3.6292	-2.7229	-3.2542	-3.2625	-2.8875	-3.3083	-2.7625	-3.0708	-3.5021	-2.7229	-3.3187	-3.1875	-2.8312	129.279	263.153	115.727	148.639	-2.515	73.077	171.896	239.610	229.893	-20.187	-27.076	269.612	-67.775	-2.202	188.961	171.600	0.00028393	0.001589	0.00045621	921	1.7272e-05	1.3173e-05	766.14	312.63	9.6796e-06	6.1808e-06	287.88	101.73	103.67	49.137	1.9061e-05	50.848	0.01369	0.01852	0.0050777	1196.5	0.00018659	0.00020527	1025.6	408.67	0.00018779	0.0002048	422.18	146.34	146.1	65.047	0.00019208	69.724	197.207	162.054	-13.429	-69.935	198.746	89.030	-70.565	-64.051	232.100	55.333	-66.180	-60.273	-58.547	-53.527	121.908	-56.268	-8191	255	
9984.760	1	1	0	0	0.2521	0.10883	0.12235	0.082439	0.011382	0.1258	0.23741	0.094302	0.076067	0.18596	0.23325	0.12943	0.34136	0.23327	0.26317	0.067625	-3.2521	-2.8271	-2.8333	-3.5312	-2.5646	-3.4188	-3.2229	-2.6604	-3.4708	-2.9104	-3.0646	-3.5917	-2.8042	-3.1125	-3.3	-2.6437	131.204	263.102	57.795	175.296	83.864	248.515	193.072	-74.230	254.859	230.612	84.690	211.323	-77.337	210.210	99.129	116.820	0.00022513	0.00070025	0.00020815	918.1	8.2724e-06	1.2508e-05	761.85	312.94	7.4673e-06	1.2874e-05	288.63	101.2	103.18	48.814	1.2657e-05	50.821	0.01372	0.018322	0.0049011	1187.1	0.00018749	0.00020056	1014	405.66	0.0001887	0.0002005	418.28	144.88	146.28	64.504	0.0001887	69.427	197.675	-68.248	26.408	-69.711	176.100	123.432	-70.194	-64.132	163.907	29.181	-65.919	-60.784	-58.545	-53.527	66.417	-56.513	-8191	255	
9984.831	1	1	0	0	0.15696	0.10174	0.1664	0.25344	0.28136	0.13662	0.13364	0.23824	0.10543	0.11738	0.17116	0.15119	0.08119	0.34816	0.043008	0.12688	-3.1813	-2.7021	-2.8917	-3.5042	-2.8104	-3.1771	-3.3333	-2.6437	-3.4938	-3.1	-2.7562	-3.4375	-2.8417	-3.1208	-3.3542	-2.6229	-42.312	77.673	17.828	269.764	244.851	93.968	226.473	-70.470	208.601	275.625	237.002	224.946	187.626	258.365	141.654	211.135	0.00028614	0.00037856	0.00026639	916.53	1.0865e-05	9.7872e-06	760.65	311.36	1.9004e-05	4.7247e-06	286.74	100.82	103.8	48.947	3.1075e-06	50.814	0.014107	0.018116	0.0048694	1187.1	0.00019404	0.00020104	1015.1	407.48	0.0001972	0.00020147	419.31	146.31	148.3	64.815	0.00019205	70.137	189.215	-63.549	21.432	-69.693	106.980	88.006	-70.551	-63.946	-72.866	139.775	-65.855	-60.643	-58.296	-53.620	129.190	-56.703	-8191	255	
9984.927	1	1	0	0	0.11477	0.14331	0.21008	0.05679	0.10012	0.16849	0.048218	0.46098	0.19138	0.058616	0.018044	0.21176	0.097781	0.44412	0.25705	0.030118	-3.0729	-2.775	-2.4271	-3.6542	-2.6437	-2.9229	-3.5104	-2.6312	-3.1625	-3.2042	-2.6979	-3.3042	-2.7917	-3.1375	-3.3125	-2.6167	94.391	83.326	88.800	205.900	8.468	-69.174	-53.272	228.929	29.512	204.759	-77.935	-37.071	5.204	233.517	25.110	-64.127	0.00027528	0.0012966	0.00022496	917.85	1.0805e-05	1.4534e-05	761.24	311.85	8.7239e-06	2.1434e-05	287.64	101.12	103.73	48.896	5.1875e-06	50.562	0.014602	0.018209	0.0049123	1196.2	0.00019907	0.00019912	1015.7	409.83	0.00019861	0.00019733	418.34	146.95	147.63	64.314	0.00018717	70.019	201.589	-63.731	57.565	-69.457	86.320	41.141	-70.442	-63.937	-20.120	60.201	-66.317	-60.408	-58.623	-53.502	254.688	-56.547	-8191	255	
9985.024	1	1	0	0	0.10132	0.14183	0.27842	0.29343	0.21407	0.23379	0.27238	0.17242	0.21028	0.062056	0.21698	0.17809	0.17879	0.11804	0.13763	0.20088	-2.8583	-3.1188	-2.6583	-3.4813	-3.0229	-3.0479	-3.4771	-2.6771	-3.3292	-3.2333	-2.6896	-3.5521	-3.0438	-2.8083	-3.5083	-2.7771	273.366	211.248	7.599	277.839	75.704	78.162	-15.866	169.930	225.522	83.784	66.486	-28.291	277.290	-23.419	-74.576	272.599	0.00011043	0.00089554	0.00036491	918.82	8.7341e-07	9.2232e-06	757.59	312.35	1.1612e-06	6.2883e-06	287.1	100.94	103.61	48.848	9.1549e-06	50.148	0.014171	0.01735	0.0047346	1194.7	0.00019114	0.00018891	1004.2	408.89	0.0001891	0.00018873	413.04	146.25	146.08	63.676	0.00018087	69.523	211.139	-47.847	4.461	-69.410	-75.856	34.098	-70.182	-63.832	268.767	20.079	-66.040	-60.698	-58.695	-53.586	147.348	-56.668	-8191	255	
9985.142	1	1	0	0	0.19621	0.10994	0.040167	0.11979	0.074204	0.052721	0.10582	0.25669	0.023238	0.1489	0.18985	0.11455	0.2936	0.14939	0.15524	0.10238	-2.6521	-3.2542	-2.5708	-3.5458	-2.975	-2.6146	-3.4833	-2.8083	-3.2521	-3.4083	-2.7062	-3.6104	-3.0083	-2.6875	-3.5979	-2.6562	-70.401	200.623	98.695	262.420	-17.410	43.755	175.985	192.256	134.282	68.901	260.220	126.572	154.879	-27.286	71.010	269.908	0.0002351	0.00029776	0.00022094	910.94	9.3368e-06	1.5826e-05	755.77	310.1	7.4877e-06	1.2285e-05	285.07	100.63	103.11	48.47	1.3971e-05	50.09	0.013623	0.016798	0.0046241	1188.1	0.00018257	0.00018224	996.92	406.7	0.00018128	0.00018098	409.47	145.21	144.02	63.013	0.00017995	69.245	206.788	57.258	-68.418	-69.795	97.411	-29.001	-70.387	-64.086	-66.378	77.724	-66.111	-60.640	-58.409	-53.655	221.542	-56.399	-8191	255	
9985.239	1	1	0	0	0.13273	0.098198	0.10576	0.12019	0.28876	0.29202	0.14224	0.22697	0.16429	0.15313	0.19452	0.15991	0.16115	0.017612	0.14612	0.16127	-2.6125	-3.6729	-2.5271	-3.4625	-3.1146	-2.4125	-3.5896	-3.0271	-2.8854	-3.5021	-2.7333	-3.1979	-3.1854	-2.7396	-3.4167	-2.8625	-14.894	-9.611	177.356	-68.808	130.144	215.205	163.182	217.935	141.935	205.714	-55.133	237.475	-32.986	102.612	98.895	223.983	0.00022396	0.0016923	0.0001088	914.91	1.0345e-05	1.4164e-05	760.65	310.87	4.9517e-06	1.1092e-05	285.97	100.74	103.15	48.4	9.7802e-06	50.668	0.013064	0.016302	0.0046549	1187.6	0.00017697	0.00017816	1001.2	405.83	0.00017633	0.00017872	412.58	144.94	143.23	62.981	0.00018496	69.483	207.852	-20.816	161.196	-69.390	-10.032	44.082	-70.575	-64.020	118.705	52.997	-66.173	-60.293	-58.696	-53.658	191.370	-56.900	-8191	255	
9985.335	1	1	0	0	0.096804	0.10295	0.087229	0.10406	0.17397	0.14106	0.11895	0.29572	0.10357	0.12662	0.16836	0.14548	0.037178	0.21788	0.27893	0.12011	-2.5271	-3.3521	-2.6042	-3.4292	-3.2708	-2.525	-3.6396	-2.9958	-2.7104	-3.6479	-2.725	-3.2062	-3.325	-2.6646	-3.2687	-2.9813	7.162	-51.650	134.004	129.887	225.422	114.933	-52.105	192.405	34.405	219.644	-31.188	6.107	11.631	239.553	29.793	244.068	0.0001319	0.0011696	2.9204e-05	918.61	2.522e-06	1.0194e-05	757.73	311.39	5.356e-06	1.5786e-05	283.91	100.85	103.49	48.412	1.0784e-05	50.398	0.012954	0.01626	0.0047726	1189.7	0.00017753	0.00017963	1012.2	406.81	0.00017653	0.00018159	416.99	145.25	143.82	63.06	0.0001898	69.091	232.305	-1.799	222.589	-69.752	-24.105	50.461	-70.630	-64.243	276.827	48.209	-66.313	-60.706	-58.657	-53.637	238.517	-56.601	-8191	255	
9985.431	1	1	0	0	0.24167	0.11255	0.081917	0.064098	0.19567	0.21111	0.34708	0.18412	0.17966	0.19186	0.088303	0.13168	0.30378	0.13564	0.1902	0.20062	-2.3708	-3.4604	-2.6292	-3.15	-3.2583	-2.4667	-3.3979	-2.9979	-2.6312	-3.5417	-2.8292	-2.9437	-3.4792	-2.4062	-3.175	-3.1958	110.506	135.699	276.388	142.184	13.170	205.655	211.552	-78.766	229.962	69.266	-25.730	271.189	235.825	273.522	257.555	252.124	0.00011076	0.00061665	4.775e-05	918.22	3.2917e-06	1.0286e-05	757.39	311.51	8.523e-06	1.4694e-05	284.06	100.21	102.47	48.51	1.0381e-06	50.15	0.012859	0.016482	0.0048888	1183.5	0.00017482	0.00018066	1009.9	404.45	0.00017375	0.00018219	416.02	143.33	142.48	63.122	0.00018779	68.351	184.894	67.632	208.658	-69.991	208.613	232.063	-70.668	-64.250	161.383	145.219	-66.236	-60.723	-58.634	-53.566	226.193	-56.847	-8191	255	
9985.527	1	1	0	0	0.052244	0.10116	0.38868	0.23634	0.28022	0.034568	0.15787	0.098203	0.22012	0.19321	0.17061	0.076101	0.16967	0.30182	0.15709	0.076156	-2.3333	-3.3875	-2.5938	-3.175	-3.4958	-2.4958	-3.2167	-3.4354	-2.5042	-3.3833	-3.1458	-2.8604	-3.6521	-2.6042	-3.0833	-3.2896	-12.424	-55.645	-34.025	258.196	129.867	-19.610	210.273	-47.649	242.182	-20.369	89.297	191.301	263.604	233.109	-8.207	234.276	0.00017546	0.001602	0.0001477	916.51	1.0845e-05	1.748e-05	753.83	309.47	1.3571e-05	1.3824e-05	284.27	100.57	102.71	48.228	5.4792e-06	50.01	0.012528	0.016559	0.0048119	1175.1	0.00017111	0.00018259	1003.3	400.04	0.00016799	0.00018206	410.76	141.57	140.9	62.695	0.00017774	67.425	197.443	3.224	68.365	-69.802	33.944	225.105	-70.437	-64.096	239.814	265.608	-66.174	-60.787	-58.752	-53.403	-3.384	-56.752	-8191	255	
9985.623	1	1	0	0	0.24953	0.088637	0.15028	0.36626	0.18538	0.28926	0.23077	0.39888	0.25312	0.26618	0.17535	0.17271	0.11609	0.24253	0.22856	0.11558	-2.2854	-3.2333	-2.8187	-2.7375	-3.2167	-2.6708	-3.2229	-3.2938	-2.5875	-3.6375	-2.8021	-2.7062	-3.6813	-2.7479	-2.9271	-3.4771	-63.495	24.388	227.740	265.974	100.690	-33.484	213.486	266.653	-15.168	259.117	255.317	104.302	138.943	219.258	136.394	140.040	0.0002034	0.0010033	0.00049716	909.04	1.9408e-06	4.4971e-06	757.39	308.49	1.3331e-05	3.6594e-06	284.04	100.24	102.85	48.409	7.696e-06	49.987	0.012034	0.01631	0.0045463	1156.2	0.00016447	0.00018025	989.69	395.72	0.00016337	0.00018082	406.38	140.77	140.75	62.882	0.00017296	67.296	202.216	175.016	0.230	-69.796	103.474	144.217	-70.347	-64.181	-55.916	107.234	-66.439	-60.757	-58.678	-53.626	92.071	-56.592	-8191	255	
9985.719	1	1	0	0	0.12493	0.16912	0.055402	0.13325	0.15304	0.11968	0.29121	0.15665	0.18829	0.087032	0.1919	0.2047	0.079395	0.10615	0.27176	0.2636	-2.2208	-3.1813	-3.0125	-2.8063	-3.3896	-2.7313	-3.2125	-3.3167	-2.7646	-3.3125	-3.35	-2.7771	-3.4854	-2.8438	-3.1104	-3.6229	-36.190	247.993	275.596	24.242	276.003	130.075	-76.116	249.938	182.966	-55.709	69.210	-58.860	-72.711	137.076	-53.558	250.025	0.00040355	0.00097812	0.00030567	908.12	7.5591e-06	6.5873e-06	757.11	309.45	5.0452e-06	3.8963e-06	283.96	100.45	102.61	48.522	5.8076e-06	50.157	0.012138	0.01652	0.0044735	1155.1	0.00016713	0.00018204	989.58	395.33	0.00016765	0.00018134	404.82	140.33	141.47	62.828	0.00016934	67.084	245.948	-10.886	47.082	-69.892	89.398	39.481	-70.327	-64.207	201.030	130.335	-65.902	-60.837	-58.581	-53.660	134.403	-56.761	-8191	255	
9985.840	1	1	0	0	0.29531	0.13467	0.19206	0.22697	0.13364	0.09063	0.020211	0.14757	0.16965	0.28768	0.15841	0.057488	0.26943	0.058397	0.14808	0.18016	-2.0938	-3.0354	-3.1312	-2.7333	-3.5354	-3.0312	-2.7917	-3.6333	-2.3958	-3.1125	-3.4062	-2.5604	-3.6354	-2.9521	-2.7583	-3.6167	255.610	9.841	271.337	98.760	-48.340	123.344	270.147	-17.099	214.566	185.499	-56.047	231.613	277.813	22.041	62.923	226.876	0.00024874	0.0012692	0.00042944	905.6	2.6702e-06	4.1836e-06	752.06	308.66	4.7292e-06	1.6204e-05	283.82	100.47	102.18	48.212	1.057e-05	49.63	0.01228	0.016157	0.0043115	1146.6	0.00016678	0.00017471	976.4	392.14	0.00016442	0.00017131	397.92	138.46	140.24	61.901	0.00015868	65.979	230.780	26.555	-56.906	-69.679	128.627	18.391	-70.331	-63.965	244.971	58.092	-66.069	-60.410	-58.700	-53.594	139.219	-56.651	-8191	255	
9985.934	1	1	0	0	0.14274	0.25529	0.09468	0.20554	0.089934	0.15051	0.089454	0.13831	0.11971	0.19284	0.3344	0.21591	0.22682	0.079978	0.025919	0.21622	-2.2708	-2.9771	-3.2729	-2.7938	-3.2979	-2.9646	-2.7062	-3.4917	-2.5708	-3.1583	-3.3417	-2.7417	-3.2667	-3.125	-2.6	-3.5812	183.304	20.474	186.060	220.989	-59.650	23.529	230.063	214.558	-12.043	63.430	205.511	252.460	254.865	253.758	-61.418	198.796	0.00025742	0.0016915	0.0001411	904.05	1.2065e-05	2.2079e-05	757.08	307.34	3.2401e-06	5.7872e-06	283.59	100.18	102.86	48.167	1.1005e-05	49.833	0.011919	0.015051	0.0040441	1138	0.00016149	0.00016411	967.89	389.65	0.00016087	0.00016195	392.7	137.81	139.93	61.474	0.00015275	66.079	215.343	14.057	10.653	-69.756	8.975	93.960	-70.429	-64.123	244.404	40.075	-65.994	-60.877	-58.449	-53.549	120.419	-56.536	-8191	255	
9986.031	1	1	0	0	0.13493	0.28334	0.064284	0.10378	0.078607	0.26801	0.3705	0.053072	0.13215	0.14724	0.1579	0.1634	0.27271	0.2471	0.22442	0.14374	-2.4896	-2.8854	-3.2208	-2.6979	-3.2458	-3.2125	-2.7417	-3.5375	-2.9583	-2.8375	-3.4417	-2.6437	-3.3354	-3.0354	-2.5646	-3.5021	-61.747	229.282	74.884	266.223	48.465	249.817	202.710	60.724	-40.794	80.737	64.460	210.438	238.556	-76.522	99.501	264.221	0.00022455	0.0013075	7.843e-05	911.21	1.8686e-05	2.0327e-05	757.58	309.75	2.0417e-06	1.5689e-05	284.97	100.63	103.05	48.379	9.6865e-06	50.172	0.011791	0.014385	0.0039399	1144	0.00016039	0.00015905	966.1	392.66	0.00015968	0.00015724	392.87	138.73	139.8	61.411	0.00015053	66.58	220.469	-24.081	245.600	-69.541	113.965	32.973	-70.174	-63.662	91.572	31.344	-65.988	-60.556	-58.333	-53.637	231.939	-56.430	-8191	255	
9986.127	1	1	0	0	0.11676	0.07547	0.082195	0.35541	0.13991	0.11996	0.13624	0.17752	0.21113	0.1578	0.23669	0.26168	0.11775	0.16233	0.055366	0.14367	-2.4125	-2.6792	-3.2146	-2.5521	-3.0396	-3.0687	-2.7687	-3.2896	-3.0187	-2.8208	-3.5604	-2.7	-2.9604	-3.4229	-2.5292	-3.4	263.563	233.887	140.137	233.998	89.436	111.934	216.315	162.783	149.399	77.857	-5.949	220.299	269.965	-47.420	-3.337	227.063	0.00019381	0.001761	0.00020699	913.71	1.9706e-05	9.8413e-06	758.31	309.66	1.0533e-05	9.1462e-06	284.27	100.61	102.99	48.323	6.5959e-06	49.957	0.011523	0.014095	0.0038722	1149	0.00015775	0.000157	966.09	393.87	0.00015694	0.00015648	392.83	139.58	139.24	61.348	0.00015153	66.59	241.271	32.040	-71.390	-69.391	35.774	-60.214	-70.268	-63.686	74.267	103.944	-65.799	-60.389	-58.190	-53.370	42.834	-56.620	-8191	255	
9986.223	1	1	0	0	0.06717	0.19581	0.17025	0.0066795	0.12487	0.31431	0.28325	0.10422	0.19245	0.15673	0.10663	0.15494	0.15119	0.30903	0.13496	0.19775	-2.5708	-2.6958	-3.3833	-2.7917	-3.0583	-3.3458	-2.7229	-3.3688	-3.1167	-2.6375	-3.5229	-2.8708	-3.1708	-3.5	-2.5167	-3.2896	171.511	-41.028	-63.539	97.708	-34.734	-41.098	116.381	-45.839	84.594	84.475	239.577	-77.456	22.401	-25.900	265.931	-23.960	0.00029522	0.00077131	0.00022835	911.09	8.7333e-06	1.7514e-05	752.44	310.1	7.9631e-06	1.2516e-05	282.37	99.466	102.42	47.994	3.2529e-06	49.474	0.011384	0.014	0.0039245	1148.8	0.00015245	0.00015383	962.14	392.84	0.00015163	0.00015241	391.04	138.21	137.7	60.729	0.00015393	65.958	251.737	122.632	254.519	-69.430	8.661	8.653	-70.026	-63.904	84.174	117.476	-65.798	-60.473	-58.410	-53.464	15.626	-56.277	-8191	255	
9986.319	1	1	0	0	0.16078	0.15573	0.1095	0.25484	0.033021	0.083981	0.12306	0.19138	0.2923	0.26849	0.10406	0.1482	0.14793	0.28628	0.08982	0.17302	-2.7042	-2.4583	-3.375	-2.9667	-2.7583	-3.5146	-2.7417	-3.1583	-3.1854	-2.6958	-3.7583	-2.825	-2.8521	-3.6854	-2.5583	-3.3583	152.673	210.150	150.766	202.219	-49.218	115.466	75.078	-67.419	64.113	40.990	-68.223	132.660	-53.668	233.686	272.609	224.850	0.00016619	0.0011764	0.00017246	911.96	2.1046e-05	9.1756e-06	751.27	308.91	5.1221e-06	1.2814e-05	282.84	100.14	102.61	47.723	8.585e-06	49.475	0.011146	0.013875	0.0040445	1150.7	0.00015116	0.00015343	968.47	393.29	0.00015109	0.00015279	394.91	138.51	137.51	60.614	0.00015779	65.656	204.649	-34.836	53.391	-69.502	105.000	-12.977	-70.321	-63.573	37.836	154.192	-65.563	-60.335	-57.884	-53.273	199.282	-56.284	-8191	255	
9986.440	1	1	0	0	0.21978	0.135	0.1479	0.14643	0.069307	0.27844	0.080193	0.069621	0.055153	0.22405	0.12238	0.17178	0.28605	0.17865	0.077937	0.13141	-2.9042	-2.575	-3.2875	-3.2	-2.3812	-3.5625	-2.6167	-3.1437	-3.4729	-2.4083	-3.4229	-3.1063	-2.6417	-3.3854	-2.6937	-2.9458	-13.735	10.289	148.445	233.231	224.950	168.326	237.770	202.153	102.797	58.993	-41.429	211.520	198.767	-53.373	63.178	207.171	0.00014266	0.00048118	0.0001844	909.08	5.359e-06	8.7246e-06	753.32	309.59	7.01e-06	1.0939e-05	282.65	99.864	102.81	48.213	6.9814e-06	49.551	0.01096	0.013747	0.0040834	1146.6	0.00014932	0.00015311	973.71	391.79	0.00014991	0.00015375	398	138.17	137.79	60.994	0.00016196	65.834	209.867	108.266	213.910	-69.511	226.706	-66.957	-70.070	-63.456	209.377	69.340	-65.590	-60.183	-58.034	-53.205	135.243	-56.122	-8191	255	
9986.536	1	1	0	0	0.048973	0.050994	0.10212	0.20792	0.23646	0.12954	0.10079	0.01674	0.15155	0.16148	0.13857	0.085599	0.17532	0.22093	0.1712	0.059559	-2.8396	-2.6875	-3.2292	-2.9688	-2.5375	-3.4396	-2.7542	-3.0021	-3.4562	-2.6167	-3.4062	-3.2083	-2.6854	-3.5604	-2.8458	-2.9646	18.477	-57.051	253.170	256.270	174.475	26.027	121.781	-36.676	261.945	105.893	-75.340	-71.467	80.179	247.721	82.110	-60.660	8.8833e-05	0.00039451	0.00031848	912.48	1.6282e-05	1.4038e-05	753.73	309.56	3.9807e-06	6.0888e-06	282.67	99.934	102.57	47.905	2.9635e-06	49.374	0.01097	0.014092	0.0041738	1144.2	0.00014766	0.00015686	975.75	390.76	0.00014868	0.0001575	397.07	137.13	137.37	61.167	0.00016362	65.44	262.338	-57.101	264.131	-69.354	61.410	210.198	-69.610	-63.417	-39.644	41.093	-65.586	-60.120	-58.093	-53.210	230.641	-55.987	-8191	255	
9986.632	1	1	0	0	0.21195	0.34454	0.081615	0.2766	0.11205	0.18722	0.11504	0.20582	0.070332	0.15237	0.040124	0.25842	0.17453	0.22265	0.22875	0.11282	-3.3167	-2.4333	-3.3104	-3.0333	-2.4792	-3.5104	-2.9042	-2.8146	-3.5375	-2.7917	-2.9417	-3.1937	-2.6229	-3.3833	-2.8896	-2.7062	278.174	127.041	176.903	-76.383	58.648	-34.512	-17.632	244.963	107.160	0.830	121.324	265.104	226.150	271.281	93.258	273.144	8.9491e-05	0.0016397	0.00029467	915.52	6.9345e-06	5.9739e-06	757.24	309.14	5.939e-06	1.2301e-05	280.63	99.224	102.75	48.03	3.7339e-06	49.397	0.010993	0.014633	0.0042284	1146	0.00014923	0.00016311	976.02	391.19	0.00015003	0.00016443	396.49	136.92	137.41	61.487	0.00016091	65.273	-80.787	124.150	-68.171	-69.368	80.417	88.550	-69.826	-63.491	259.053	28.593	-65.522	-59.885	-57.919	-52.886	77.228	-55.924	-8191	255	
9986.704	1	1	0	0	0.056143	0.21915	0.16858	0.13494	0.14449	0.13317	0.056676	0.32584	0.21767	0.15088	0.18855	0.11693	0.050426	0.14411	0.24948	0.12472	-3.1646	-2.6896	-3.0354	-3.6646	-2.4083	-3.2854	-3.0958	-2.7833	-3.5792	-2.6292	-3.0896	-3.5667	-2.5354	-3.3771	-3.0687	-2.5292	121.620	256.777	-33.519	247.089	178.126	173.995	198.316	169.235	2.833	117.590	207.137	84.315	-2.816	-0.311	33.947	-48.308	0.00031751	0.00031567	0.00053359	915.1	4.4935e-06	1.9176e-06	754.85	308.54	9.0569e-06	7.5814e-06	282.36	99.595	102.18	47.633	5.3935e-06	49.095	0.011032	0.015012	0.0041252	1143.6	0.00015007	0.00016709	970.99	389.29	0.00015141	0.00016742	394.22	136.88	137.8	61.471	0.00015965	65.19	255.336	-29.483	-39.038	-69.015	-34.350	37.717	-69.802	-63.266	272.797	7.754	-65.244	-59.939	-57.728	-52.811	165.757	-55.844	-8191	255	
9986.824	1	1	0	0	0.082722	0.30457	0.095816	0.25759	0.13707	0.14239	0.12652	0.34483	0.34921	0.22136	0.41077	0.076828	0.25867	0.089982	0.14177	0.0095627	-3.2938	-2.7	-2.9	-3.5042	-2.5687	-3.2833	-3.3021	-2.8063	-3.2562	-2.7667	-2.8688	-3.4625	-2.6667	-3.3458	-3.2313	-2.5792	117.050	-74.612	197.341	260.914	63.438	189.783	121.592	206.833	261.077	255.789	19.876	245.299	-60.625	-37.457	14.356	159.346	0.00029506	0.00042192	0.00040556	908.95	1.3956e-05	1.6697e-05	747.7	306.7	6.4686e-06	4.3586e-06	281.5	98.783	101.6	47.57	6.7689e-06	49.261	0.011405	0.015363	0.0041238	1139.8	0.00015661	0.00016914	969.03	388.51	0.0001577	0.00016929	393.35	136.56	138.2	61.253	0.00015925	65.151	217.194	228.272	-63.325	-69.215	200.564	88.295	-70.103	-63.803	265.450	-50.967	-65.387	-60.211	-57.741	-52.765	99.592	-55.825	-8191	255	
9986.920	1	1	0	0	0.021868	0.10461	0.31565	0.15117	0.089662	0.097756	0.24425	0.2185	0.12755	0.14791	0.13776	0.098545	0.13229	0.16926	0.21585	0.035482	-3.2604	-2.6667	-2.7083	-3.45	-2.3542	-3.2625	-3.4458	-2.725	-3.4583	-2.825	-2.8125	-3.4938	-2.7188	-3.3271	-3.2833	-2.6479	44.262	157.557	70.980	258.766	37.275	125.164	166.101	246.520	120.831	2.520	227.927	-23.227	160.404	236.442	27.576	227.471	0.00020119	0.0011606	0.0003963	911.17	1.0146e-05	1.8385e-05	750.23	306.05	7.8664e-06	1.5677e-05	282.67	98.842	101.25	47.568	1.2019e-05	48.95	0.011824	0.015294	0.0040953	1141.6	0.00016265	0.00016968	967.59	388.51	0.00016432	0.00016988	394.86	137.19	139.56	61.376	0.0001614	65.395	233.993	-36.790	-35.001	-68.684	145.948	57.204	-69.163	-62.973	164.211	30.815	-64.996	-59.278	-56.983	-52.147	39.318	-56.017	-8191	255	
9987.015	1	1	0	0	0.17103	0.11544	0.13435	0.090057	0.08985	0.1342	0.35677	0.065371	0.073469	0.21504	0.056214	0.066803	0.094989	0.30991	0.15254	0.32236	-3.075	-2.8812	-2.4875	-3.6208	-2.8021	-3.0646	-3.5708	-2.6646	-3.3312	-3.1375	-2.5917	-3.6104	-2.6667	-2.9958	-3.5104	-2.5833	243.210	158.702	-65.516	121.298	142.234	248.166	254.996	227.026	-11.623	167.589	222.493	-78.721	142.682	267.034	189.880	187.405	0.00026622	0.00057458	0.00021717	914.49	6.901e-06	1.2203e-05	754.81	307.31	1.2407e-05	1.0152e-05	279.77	99.168	101.79	47.636	4.5466e-06	49.364	0.012351	0.015373	0.0041469	1149.6	0.00016905	0.00016959	970.59	391.5	0.00016953	0.00016812	393.94	138.4	140.32	61.243	0.00016016	66.001	243.609	210.036	42.165	-69.048	201.250	-21.629	-69.923	-63.081	70.482	16.883	-64.931	-59.592	-57.450	-52.000	183.111	-55.546	-8191	255	
9987.111	1	1	0	0	0.092511	0.083925	0.066484	0.21082	0.18256	0.22726	0.026011	0.27226	0.13229	0.16839	0.14406	0.22614	0.077041	0.20726	0.16692	0.0826	-2.9417	-3.0604	-2.5646	-3.7625	-2.6896	-2.9437	-3.5667	-2.6188	-3.3042	-3.3292	-2.5792	-3.55	-2.9917	-2.8229	-3.5042	-2.8396	-24.695	-25.459	25.412	236.922	156.162	9.322	-77.105	147.920	93.529	116.597	-18.443	257.322	217.226	226.254	155.509	179.019	0.00013135	0.0012477	0.00015084	908.9	2.0867e-06	9.949e-06	754.08	306.29	1.1936e-05	2.5222e-05	279.59	98.367	100.92	47.346	7.4106e-06	49.099	0.01237	0.015199	0.0041268	1154.6	0.00016856	0.00016618	970.8	392.71	0.00016836	0.00016597	392.9	138.87	139.17	60.871	0.0001601	66.321	237.901	-7.899	-2.011	-69.057	267.619	103.197	-70.114	-63.266	40.719	43.568	-65.110	-59.731	-57.602	-53.133	134.551	-55.466	-8191	255	
9987.232	1	1	0	0	0.35369	0.015662	0.20264	0.17714	0.11618	0.28689	0.22801	0.096114	0.098795	0.19472	0.04105	0.069402	0.20148	0.17721	0.23225	0.1347	-2.5979	-3.35	-2.6562	-3.3208	-2.9354	-2.7646	-3.6229	-2.7062	-3.05	-3.3583	-2.5563	-3.5396	-3.0687	-2.6979	-3.3542	-2.8875	95.586	180.568	50.875	251.366	125.538	253.562	113.165	18.388	28.576	117.324	216.357	4.551	-54.584	234.237	-70.869	11.876	0.00019876	0.001368	0.00014662	914.02	7.5101e-06	1.0514e-05	753.47	306.11	4.0631e-06	1.754e-05	280.48	98.727	101.05	47.554	1.3873e-05	49.048	0.012258	0.015129	0.004172	1166.3	0.00016951	0.00016922	979.23	396.41	0.0001702	0.00017099	398.16	141.34	140.34	61.388	0.00016942	67.383	257.382	186.256	188.529	-69.310	86.942	3.430	-69.912	-63.693	60.361	18.006	-65.636	-60.084	-58.114	-53.098	142.933	-56.482	-8191	255	
9987.328	1	1	0	0	0.033962	0.068031	0.2158	0.19625	0.22089	0.29705	0.10387	0.039969	0.074751	0.090833	0.23776	0.073403	0.13447	0.17449	0.145	0.24398	-2.55	-3.1896	-2.4479	-3.4083	-3.0729	-2.6521	-3.5208	-2.8271	-2.9375	-3.3896	-2.5729	-3.3312	-3.1396	-2.7604	-3.425	-2.7875	159.997	110.534	112.406	226.824	159.364	142.584	40.623	252.009	9.705	-6.462	228.388	253.317	223.679	257.064	-22.494	-41.857	0.00013826	0.00031367	0.000586	916.85	5.9178e-06	1.7963e-05	748.16	306.14	9.849e-06	1.2443e-05	281.01	98.196	101.13	47.496	1.5123e-05	49.071	0.012543	0.015656	0.0044207	1178.5	0.00017143	0.0001724	987.29	399.69	0.00017057	0.00017301	403.95	141.35	140.09	61.321	0.00017592	67.165	270.186	-7.258	156.121	-69.015	119.676	42.287	-70.302	-63.641	57.189	92.071	-65.335	-60.119	-58.114	-53.024	244.182	-55.948	-8191	255	
9987.399	1	1	0	0	0.14148	0.073599	0.24912	0.16212	0.079064	0.1722	0.052976	0.067895	0.075463	0.1407	0.2758	0.083655	0.20774	0.20974	0.010409	0.19022	-2.5333	-3.5479	-2.5917	-3.2188	-3.2917	-2.7375	-3.5187	-3.2333	-2.7292	-3.3563	-2.7625	-3.1958	-3.2812	-2.75	-3.5833	-3.0542	175.471	-4.526	197.937	219.444	122.256	72.997	272.194	94.561	276.166	-9.167	267.343	77.302	98.916	-77.476	53.269	198.891	0.0001204	0.0031606	0.00041164	915.3	4.4673e-06	5.5374e-06	753.48	307.79	7.4198e-06	2.117e-07	281.96	99.221	101.61	47.411	1.2582e-05	49.077	0.012455	0.015583	0.0045713	1177.5	0.00016989	0.00017156	995.18	398.94	0.00016922	0.00017242	406.88	140.91	140.17	61.412	0.0001816	67.162	244.737	-34.575	243.662	-68.876	-8.287	212.206	-69.792	-63.413	237.199	204.568	-65.001	-59.544	-57.564	-52.445	197.671	-55.246	-8191	255	
9987.520	1	1	0	0	0.082898	0.03815	0.12141	0.38683	0.019811	0.097763	0.14048	0.099517	0.19642	0.075475	0.1295	0.048301	0.071733	0.29006	0.12747	0.23357	-2.2562	-3.55	-2.5187	-3.0125	-3.4313	-2.5917	-3.4313	-3.0771	-2.6542	-3.4125	-2.7083	-3.125	-3.4062	-2.5375	-3.3896	-3.1875	169.880	232.020	141.678	263.475	33.834	272.089	230.694	260.394	123.661	54.388	174.215	200.086	-67.995	262.713	15.596	123.930	0.00018236	0.00085861	0.00028721	914.64	3.2772e-06	1.7327e-06	753.93	306.85	6.1594e-06	1.201e-06	282.33	98.983	100.75	47.444	7.2034e-06	49.258	0.012429	0.01574	0.0047041	1171.9	0.0001688	0.00017309	996.64	396.85	0.00016635	0.00017377	407.79	140.08	139.35	61.506	0.0001824	66.929	245.978	77.313	166.991	-68.722	-33.323	113.412	-70.076	-63.707	38.218	-32.848	-65.695	-59.815	-58.068	-53.051	259.056	-56.418	-8191	255	
9987.616	1	1	0	0	0.27089	0.055545	0.26047	0.23384	0.22548	0.078919	0.013462	0.060913	0.1681	0.33761	0.23228	0.03896	0.093704	0.13095	0.12681	0.1279	-2.2729	-3.5729	-2.8375	-3.0812	-3.4021	-2.5042	-3.2083	-3.3063	-2.7396	-3.4313	-2.9125	-3.0333	-3.425	-2.6521	-3.3063	-3.2167	10.730	223.078	177.790	251.174	177.614	-39.266	-7.660	153.746	107.092	139.846	-70.515	176.055	255.400	-76.464	-29.418	-6.174	0.00014528	0.00060138	9.491e-05	913.33	1.059e-05	1.6205e-05	758.13	308.59	1.323e-05	8.9568e-06	279.24	98.81	101.12	47.464	8.7256e-06	48.963	0.012237	0.016138	0.00477	1171.9	0.00017017	0.00018308	1008.9	399.99	0.00017342	0.00018978	414.35	141.97	141.31	62.79	0.00019412	67.687	236.618	147.986	182.924	-69.391	10.081	149.515	-69.790	-63.637	147.919	137.461	-65.340	-59.615	-58.117	-52.978	18.038	-55.901	-8191	255	
9987.712	1	1	0	0	0.32132	0.13025	0.11479	0.15109	0.14296	0.15732	0.13599	0.31866	0.16633	0.33905	0.19685	0.27514	0.21039	0.12046	0.057399	0.041921	-2.125	-3.5	-3.0396	-2.8688	-3.6125	-2.775	-3.2562	-3.3021	-2.6542	-3.4458	-2.8958	-2.8104	-3.5167	-2.7167	-3.0583	-3.5625	-12.815	172.642	223.480	179.377	157.567	185.083	231.050	249.665	233.270	-48.393	220.746	-8.681	189.337	-62.987	102.782	33.116	0.00018677	0.00065184	0.00026053	919.99	9.7276e-06	6.8014e-06	753.36	306.72	5.2138e-06	5.9201e-06	281.88	98.724	101	47.397	1.5275e-05	48.939	0.013045	0.017735	0.0050029	1184	0.0001786	0.00019655	1010.7	401.8	0.00017829	0.00019781	414.03	141.8	141.66	62.859	0.0001905	67.112	182.675	213.307	-37.960	-67.895	-35.774	-62.756	-69.047	-62.530	224.911	150.633	-65.468	-59.792	-57.914	-52.693	-46.506	-55.742	-8191	255	
#DATA ENDS
