BOXY.EXE: ISS Imagent and Oximeter Data Acquisition Program Version 0.80
Ascii Record File

#ACQ INFORMATION
2  Detector Channels 
16  External MUX Channels 
1  Auxiliary Channels 
5000  Waveform (CCF) Frequency (Hz)
1  Waveforms Skipped 
30  Waveforms Averaged 
1  Cycles Averaged 
16  Acquisitions per Waveform 
10.0806  Updata Rate (Hz) 

#FILE INFORMATION
TRUE -- External MUX Channel results are PARSED.
FALSE -- AC DC and Phase are NOT grouped.
TRUE -- Companion Program Settings File CREATED.
FALSE -- AC data not excluded
FALSE -- DC data not excluded
FALSE -- Phase data not excluded
FALSE -- Auxillary Chn. data not excluded
Tab delimiters

#CALIBRATION STATE
TRUE -- Waveform Calibration Values APPLIED.


#AUX CALIBRATION VALUES
Val Type	aux-1	

Term	1.0000e+00	
Factor	0.0000e+00	


#WF CALIBRATION VALUES
A = Detector Channel
Val Type	A-AC1	A-AC2	A-AC3	A-AC4	A-AC5	A-AC6	A-AC7	A-AC8	A-AC9	A-AC10	A-AC11	A-AC12	A-AC13	A-AC14	A-AC15	A-AC16	A-DC1	A-DC2	A-DC3	A-DC4	A-DC5	A-DC6	A-DC7	A-DC8	A-DC9	A-DC10	A-DC11	A-DC12	A-DC13	A-DC14	A-DC15	A-DC16	A-Ph1	A-Ph2	A-Ph3	A-Ph4	A-Ph5	A-Ph6	A-Ph7	A-Ph8	A-Ph9	A-Ph10	A-Ph11	A-Ph12	A-Ph13	A-Ph14	A-Ph15	A-Ph16	

Term	0.00000e+00	0.00000e+00	0.00000e+00	0.00000e+00	0.00000e+00	0.00000e+00	0.00000e+00	0.00000e+00	0.00000e+00	0.00000e+00	0.00000e+00	0.00000e+00	0.00000e+00	0.00000e+00	0.00000e+00	0.00000e+00	0.00000e+00	0.00000e+00	0.00000e+00	0.00000e+00	0.00000e+00	0.00000e+00	0.00000e+00	0.00000e+00	0.00000e+00	0.00000e+00	0.00000e+00	0.00000e+00	0.00000e+00	0.00000e+00	0.00000e+00	0.00000e+00	0.00000e+00	0.00000e+00	0.00000e+00	0.00000e+00	0.00000e+00	0.00000e+00	0.00000e+00	0.00000e+00	0.00000e+00	0.00000e+00	0.00000e+00	0.00000e+00	0.00000e+00	0.00000e+00	0.00000e+00	0.00000e+00	
Factor	1.00000e+00	1.00000e+00	1.00000e+00	1.00000e+00	1.00000e+00	1.00000e+00	1.00000e+00	1.00000e+00	1.00000e+00	1.00000e+00	1.00000e+00	1.00000e+00	1.00000e+00	1.00000e+00	1.00000e+00	1.00000e+00	1.00000e+00	1.00000e+00	1.00000e+00	1.00000e+00	1.00000e+00	1.00000e+00	1.00000e+00	1.00000e+00	1.00000e+00	1.00000e+00	1.00000e+00	1.00000e+00	1.00000e+00	1.00000e+00	1.00000e+00	1.00000e+00	X	X	X	X	X	X	X	X	X	X	X	X	X	X	X	X	

B = Detector Channel
Val Type	B-AC1	B-AC2	B-AC3	B-AC4	B-AC5	B-AC6	B-AC7	B-AC8	B-AC9	B-AC10	B-AC11	B-AC12	B-AC13	B-AC14	B-AC15	B-AC16	B-DC1	B-DC2	B-DC3	B-DC4	B-DC5	B-DC6	B-DC7	B-DC8	B-DC9	B-DC10	B-DC11	B-DC12	B-DC13	B-DC14	B-DC15	B-DC16	B-Ph1	B-Ph2	B-Ph3	B-Ph4	B-Ph5	B-Ph6	B-Ph7	B-Ph8	B-Ph9	B-Ph10	B-Ph11	B-Ph12	B-Ph13	B-Ph14	B-Ph15	B-Ph16	

Term	0.00000e+00	0.00000e+00	0.00000e+00	0.00000e+00	0.00000e+00	0.00000e+00	0.00000e+00	0.00000e+00	0.00000e+00	0.00000e+00	0.00000e+00	0.00000e+00	0.00000e+00	0.00000e+00	0.00000e+00	0.00000e+00	0.00000e+00	0.00000e+00	0.00000e+00	0.00000e+00	0.00000e+00	0.00000e+00	0.00000e+00	0.00000e+00	0.00000e+00	0.00000e+00	0.00000e+00	0.00000e+00	0.00000e+00	0.00000e+00	0.00000e+00	0.00000e+00	-5.39519e+01	-1.20249e+02	-1.18298e+02	-1.81389e+02	-4.31425e+01	-6.62439e+01	-1.58480e+02	-1.62015e+02	-4.06269e+01	-6.41590e+01	-1.70493e+02	-1.69859e+02	-1.80780e+02	-1.76520e+02	-5.86099e+01	-1.49332e+02	
Factor	1.98062e-05	1.68167e-04	4.94974e-05	1.66526e-01	1.74080e-06	1.74117e-06	1.86734e-01	6.19479e-02	1.34097e-06	1.65747e-06	9.69286e-02	3.24366e-02	2.70990e-02	9.71051e-03	1.63304e-06	1.37319e-02	6.23419e-06	7.90621e-06	2.20416e-06	8.30113e-02	8.34494e-08	8.73136e-08	8.74601e-02	3.09545e-02	8.37774e-08	8.70958e-08	4.68922e-02	1.57875e-02	1.36570e-02	4.89657e-03	8.48302e-08	6.69651e-03	X	X	X	X	X	X	X	X	X	X	X	X	X	X	X	X	



#DISTANCE SETTINGS
A = Detector Channel
A-1	A-2	A-3	A-4	A-5	A-6	A-7	A-8	A-9	A-10	A-11	A-12	A-13	A-14	A-15	A-16	

2.5000e+00	3.0000e+00	2.5000e+00	3.0000e+00	2.0000e+00	3.0000e+00	1.5000e+00	3.0000e+00	3.0000e+00	3.0000e+00	3.0000e+00	3.0000e+00	3.0000e+00	3.0000e+00	1.5000e+00	3.0000e+00	

B = Detector Channel
B-1	B-2	B-3	B-4	B-5	B-6	B-7	B-8	B-9	B-10	B-11	B-12	B-13	B-14	B-15	B-16	

1.0000e+01	1.0000e+01	1.0000e+01	1.4400e+00	1.0000e+01	1.0000e+01	1.5100e+00	1.9400e+00	1.0000e+01	1.0000e+01	1.9900e+00	2.4900e+00	2.4100e+00	2.9000e+00	1.0000e+01	2.9800e+00	




#DATA BEGINS
time	group	step	mark	flag	A-AC1	A-AC2	A-AC3	A-AC4	A-AC5	A-AC6	A-AC7	A-AC8	A-AC9	A-AC10	A-AC11	A-AC12	A-AC13	A-AC14	A-AC15	A-AC16	A-DC1	A-DC2	A-DC3	A-DC4	A-DC5	A-DC6	A-DC7	A-DC8	A-DC9	A-DC10	A-DC11	A-DC12	A-DC13	A-DC14	A-DC15	A-DC16	A-Ph1	A-Ph2	A-Ph3	A-Ph4	A-Ph5	A-Ph6	A-Ph7	A-Ph8	A-Ph9	A-Ph10	A-Ph11	A-Ph12	A-Ph13	A-Ph14	A-Ph15	A-Ph16	B-AC1	B-AC2	B-AC3	B-AC4	B-AC5	B-AC6	B-AC7	B-AC8	B-AC9	B-AC10	B-AC11	B-AC12	B-AC13	B-AC14	B-AC15	B-AC16	B-DC1	B-DC2	B-DC3	B-DC4	B-DC5	B-DC6	B-DC7	B-DC8	B-DC9	B-DC10	B-DC11	B-DC12	B-DC13	B-DC14	B-DC15	B-DC16	B-Ph1	B-Ph2	B-Ph3	B-Ph4	B-Ph5	B-Ph6	B-Ph7	B-Ph8	B-Ph9	B-Ph10	B-Ph11	B-Ph12	B-Ph13	B-Ph14	B-Ph15	B-Ph16	aux-1	digaux	

45989.758	1	1	0	256	0.072259	0.054794	0.27709	0.22189	0.15843	0.10021	0.12629	0.29753	0.10728	0.066598	0.0064631	0.21834	0.20902	0.093696	0.14744	0.085515	-2.1625	-3.1396	-2.3083	-3.2646	-2.9271	-2.25	-3.5021	-2.7958	-2.4896	-3.2625	-2.3875	-3.1	-3.0875	-2.5625	-3.1625	-2.8187	53.640	184.988	18.331	185.291	60.780	147.723	136.379	-125.262	95.048	-91.199	66.179	180.472	150.961	181.998	175.862	89.226	0.00035755	0.00085664	0.00015092	1462.3	5.2521e-06	3.0906e-06	1460.8	394.33	5.438e-06	4.829e-06	451.25	145.63	127.8	43.162	4.7221e-06	53.57	0.00087861	0.00097096	0.00026929	1479.6	1.0566e-05	1.0869e-05	1480.7	403.12	1.0688e-05	1.0895e-05	459.65	150.01	131.59	44.453	1.0673e-05	55.025	-84.167	-36.308	-48.690	-127.754	44.262	-16.888	-127.840	-123.243	5.648	34.694	-123.797	-119.387	-118.764	-114.194	-66.469	-114.957	-8191	255	
45989.879	1	1	0	0	0.0083496	0.16721	0.29428	0.29505	0.063884	0.17315	0.42327	0.24532	0.29058	0.24012	0.065222	0.26569	0.086409	0.12653	0.20391	0.26242	-2.1021	-3.275	-2.2771	-2.875	-3.0917	-2.4813	-3.3771	-2.8208	-2.4188	-3.4167	-2.6979	-2.8458	-3.2146	-2.45	-2.9313	-2.875	-105.453	68.417	-59.847	-127.849	-100.591	-126.008	207.708	205.074	42.985	205.155	0.798	-110.117	-75.748	166.783	-4.358	130.327	0.00039785	0.00036118	0.00023886	1458.2	5.1357e-06	7.8552e-06	1458.8	395.06	5.5901e-06	8.1265e-06	449.79	146.01	128.29	43.192	6.2817e-06	53.259	0.00086712	0.00097045	0.00026988	1478.5	1.0382e-05	1.078e-05	1479.2	403.22	1.0608e-05	1.0759e-05	459.45	150.07	131.6	44.53	1.0807e-05	55.04	-84.083	-4.952	-39.191	-127.752	13.892	21.724	-127.872	-123.361	1.502	19.947	-123.924	-119.383	-118.777	-114.451	-24.909	-114.870	-8191	255	
45989.973	1	1	0	0	0.14729	0.39605	0.36323	0.29885	0.2777	0.39417	0.2254	0.10722	0.11155	0.060769	0.27704	0.28037	0.076764	0.22098	0.062603	0.30283	-1.9604	-3.1292	-2.5292	-2.925	-3.0354	-2.5125	-3.25	-2.9396	-2.3875	-3.125	-2.6583	-2.8021	-3.35	-2.425	-2.95	-3.0375	-94.006	-107.039	28.110	-71.832	29.030	8.093	123.942	211.580	63.229	-39.530	122.980	-131.813	-138.632	180.913	-95.843	176.593	0.00041687	0.00052616	0.00013521	1462.5	3.3355e-06	7.462e-06	1461.6	397.49	2.9239e-06	6.9522e-06	451.52	146.05	127.86	43.317	3.3361e-06	53.384	0.00088354	0.0009907	0.00027666	1480.8	1.0493e-05	1.0974e-05	1479.8	404.37	1.0531e-05	1.0909e-05	459.82	150.14	131.59	44.576	1.0622e-05	54.988	-76.428	-62.907	-59.854	-127.702	26.189	-5.039	-127.822	-123.184	-2.734	4.059	-123.928	-119.360	-118.909	-114.210	21.446	-114.857	-8191	255	
45990.070	1	1	0	0	0.197	0.080994	0.16803	0.16156	0.11722	0.2293	0.13778	0.42464	0.14809	0.17838	0.16127	0.14395	0.15264	0.079117	0.05767	0.084861	-2.0604	-3.3937	-2.4688	-2.9	-3.5187	-2.4458	-3.0333	-3.3271	-2.4042	-3.2125	-2.9062	-2.6312	-3.4229	-2.6208	-2.8167	-3.2125	-61.325	22.973	-21.137	156.717	197.243	-126.902	114.093	130.375	213.586	36.777	147.109	179.913	136.450	86.665	55.677	173.397	0.00038813	0.00076643	0.00020645	1460.1	2.7982e-06	5.4221e-06	1460.2	396.38	3.6848e-06	5.6728e-06	449.92	145.83	128.33	43.197	4.4375e-06	53.655	0.00088275	0.00097507	0.00026935	1480.4	1.0339e-05	1.056e-05	1483	403.62	1.0383e-05	1.0473e-05	459.86	150.24	131.82	44.55	1.0274e-05	55.11	-79.128	-57.823	-64.206	-127.624	-36.251	59.950	-127.877	-123.351	-16.254	10.488	-123.823	-119.283	-118.585	-114.176	27.274	-115.076	-8191	255	
45990.164	1	1	0	0	0.072582	0.09637	0.24372	0.23348	0.29796	0.24749	0.27312	0.094511	0.30194	0.05345	0.098223	0.12445	0.047422	0.19618	0.20689	0.40038	-2.0271	-3.1042	-2.8812	-2.6542	-3.1813	-2.3771	-2.8833	-3.2146	-2.3625	-2.9938	-3.0354	-2.3438	-3.3438	-2.6437	-2.6771	-3.3312	29.890	-94.541	-14.872	211.128	-88.773	114.527	119.575	200.887	-80.036	-71.547	-29.191	186.607	-102.894	152.821	-95.046	110.337	0.00040921	0.00045677	8.0447e-05	1458.9	2.8268e-06	7.1646e-06	1459.9	396.88	4.7877e-06	8.4776e-06	452.33	146.58	128.33	43.182	3.4131e-06	53.37	0.00085236	0.00095196	0.00026573	1478.2	1.0268e-05	1.053e-05	1479.9	403.76	1.0423e-05	1.0538e-05	460.4	150.46	131.7	44.495	1.041e-05	55.056	-82.723	-118.185	-9.333	-127.668	26.053	10.008	-127.901	-123.261	-1.555	9.701	-123.660	-119.312	-118.775	-114.257	-3.228	-114.926	-8191	255	
45990.262	1	1	0	0	0.16656	0.13365	0.12398	0.10975	0.10015	0.23223	0.26185	0.31386	0.024887	0.080442	0.068065	0.24904	0.25953	0.17118	0.069012	0.099128	-1.8438	-3.0833	-2.9021	-2.5542	-3.1521	-2.6875	-2.9042	-3.5021	-2.4271	-2.9479	-3.1271	-2.3667	-3.1813	-2.7083	-2.5917	-3.2479	215.889	82.445	212.965	191.280	29.701	-8.659	172.065	-127.152	184.735	112.241	155.059	96.845	168.364	163.606	-10.130	159.934	0.00037551	0.00032386	0.00015801	1460.2	4.8672e-06	8.4264e-06	1461.2	396.05	3.4728e-06	4.7152e-06	449.16	145.26	128.2	43.353	2.8945e-06	53.465	0.00087183	0.0009655	0.00026823	1477.1	1.0376e-05	1.0826e-05	1479.9	403.72	1.0554e-05	1.0576e-05	459.08	150.03	131.74	44.527	1.0566e-05	55.035	-87.475	-39.222	-32.827	-127.717	11.658	-8.109	-127.796	-123.196	9.530	-7.070	-123.649	-119.149	-118.797	-114.320	-22.074	-114.994	-8191	255	
45990.355	1	1	0	0	0.049549	0.2452	0.079946	0.12198	0.21788	0.16006	0.26799	0.076632	0.14823	0.17044	0.26793	0.2017	0.065786	0.098677	0.26688	0.31264	-2.025	-2.8042	-3.025	-2.4688	-3.2104	-2.7667	-2.6271	-3.3583	-2.4333	-2.8	-3.1	-2.6188	-3.2313	-2.7438	-2.1813	-3.2583	115.643	26.135	-111.987	-134.848	-0.747	-51.395	127.417	185.187	97.922	93.119	153.353	125.190	86.792	-87.019	-54.272	179.509	0.00040054	0.00034715	0.00014515	1456.1	6.6891e-06	2.9426e-06	1458.3	394.58	3.8805e-06	2.6989e-06	449.83	145.45	128.05	43.091	5.2553e-06	53.408	0.00086597	0.0009569	0.00027052	1476.3	1.0238e-05	1.0473e-05	1477.3	402.76	1.0205e-05	1.0343e-05	458.33	149.73	131.43	44.473	1.0153e-05	54.943	-86.640	-62.753	-39.735	-127.672	36.111	-17.179	-127.722	-123.332	-31.205	8.348	-123.720	-119.346	-118.826	-114.240	16.611	-114.881	-8191	255	
45990.477	1	1	0	0	0.27793	0.32057	0.24645	0.1761	0.052567	0.21608	0.26482	0.096059	0.043033	0.25853	0.24364	0.045883	0.055238	0.063164	0.21697	0.31975	-2.1396	-2.7833	-3.3396	-2.5104	-3.0646	-2.9938	-2.5479	-3.3354	-2.3854	-2.7167	-3.4125	-2.4354	-3.2875	-2.8688	-2.4479	-3.1521	190.902	177.598	14.378	215.313	-92.202	-110.002	174.690	93.209	218.870	174.509	28.489	167.217	33.659	-118.851	131.055	52.908	0.00040145	0.00060944	0.00016489	1453.8	6.5441e-06	5.103e-06	1455.8	393.51	2.5993e-06	8.1801e-06	451.11	144.94	127.99	43.097	5.2059e-06	53.429	0.00084159	0.00093087	0.00025969	1472.4	1.0158e-05	1.0242e-05	1474.7	401.85	1.0216e-05	1.0393e-05	458.67	149.37	131.23	44.393	1.0356e-05	54.902	-83.769	-51.022	-10.273	-127.585	-10.025	31.128	-127.708	-123.123	-4.815	12.314	-123.919	-119.465	-118.802	-114.154	-19.290	-114.958	-8191	255	
45990.574	1	1	0	0	0.16947	0.1285	0.11455	0.088087	0.078381	0.13421	0.35621	0.19918	0.10303	0.062664	0.1678	0.081611	0.084564	0.25437	0.25846	0.083988	-2.2812	-2.5458	-3.0958	-2.6833	-3.0333	-3.1063	-2.6792	-3.1833	-2.5938	-2.4729	-3.3979	-2.4208	-2.9146	-3.1875	-2.2583	-3.0938	32.010	-3.884	-125.430	-125.918	-73.360	196.893	141.865	201.694	-104.345	-122.192	140.092	12.586	67.600	-115.202	121.700	200.794	0.00040549	0.00084336	0.00024864	1450.4	2.686e-06	7.3692e-06	1448.1	392.36	5.9414e-06	5.7239e-06	448.08	145.23	127.55	43.055	4.8096e-06	53.187	0.00085463	0.00095612	0.00026516	1469.8	1.0444e-05	1.0607e-05	1471.7	401.13	1.0325e-05	1.0593e-05	457.44	149.26	131.08	44.354	1.0348e-05	54.869	-80.825	-50.928	-61.737	-127.629	-30.292	19.668	-127.876	-123.005	-5.213	-12.127	-123.385	-119.266	-118.793	-114.093	-22.304	-114.879	-8191	255	
45990.668	1	1	0	0	0.057916	0.22977	0.26656	0.17978	0.25978	0.11669	0.35287	0.14505	0.065577	0.22436	0.083498	0.15091	0.064973	0.32614	0.15314	0.096549	-2.3292	-2.2229	-2.9667	-2.6813	-2.6354	-3.1042	-2.5312	-3.1833	-2.7104	-2.3229	-3.4521	-2.5625	-2.6542	-3.1208	-2.1833	-3.1854	-140.596	70.870	-137.843	-136.537	-96.278	160.885	106.252	-127.140	-116.048	157.558	174.423	180.068	111.190	131.993	122.701	-3.062	0.00040072	0.00056397	0.00018826	1447.6	4.4717e-06	4.679e-06	1450.2	393.61	4.4538e-06	3.3628e-06	448.65	144.7	127.28	42.986	6.4229e-07	53.101	0.00086332	0.00096543	0.00026521	1467.1	1.0336e-05	1.0526e-05	1471.5	401.88	1.0389e-05	1.0673e-05	456.97	148.9	130.79	44.312	1.0396e-05	54.829	-82.028	-4.363	-21.036	-127.773	3.285	18.189	-127.931	-123.057	-1.527	4.098	-123.590	-119.086	-118.675	-114.046	127.762	-114.780	-8191	255	
45990.766	1	1	0	0	0.32146	0.065801	0.10936	0.19586	0.15207	0.0070325	0.19137	0.10946	0.20831	0.14186	0.17055	0.094345	0.11846	0.080946	0.055261	0.086264	-2.5104	-2.1354	-3.2792	-2.6854	-2.6437	-3.3	-2.6	-3.0729	-3.0354	-2.3354	-3.3896	-2.7188	-2.7271	-3.2583	-2.4646	-3.0229	-109.520	176.554	-124.048	-131.298	-12.298	20.256	165.556	53.451	14.438	-44.414	182.716	191.198	-125.578	-80.780	195.892	-109.463	0.00042068	0.0006071	0.00024951	1442.3	2.072e-06	3.9841e-06	1446.3	393.77	5.073e-06	4.5018e-06	446.62	144.19	126.93	43.029	4.2141e-06	53.334	0.00086623	0.00097566	0.00026728	1464.7	1.0353e-05	1.0785e-05	1468.5	401.05	1.0565e-05	1.091e-05	456.63	148.96	130.68	44.279	1.0674e-05	54.96	-82.543	-51.017	-59.604	-127.821	80.348	-18.040	-127.877	-123.058	41.646	0.621	-123.653	-119.244	-118.795	-114.357	-0.548	-114.731	-8191	255	
45990.863	1	1	0	0	0.1144	0.13131	0.12274	0.30841	0.41579	0.13318	0.18183	0.21373	0.23939	0.32289	0.15304	0.13201	0.21291	0.22162	0.093582	0.2126	-2.7021	-2.3167	-3.0438	-2.8958	-2.5187	-3.3375	-2.5687	-3.075	-3.0687	-2.2687	-3.2687	-3.0479	-2.4667	-3.275	-2.4854	-2.8708	-46.799	139.759	139.840	198.622	-132.466	102.734	-138.206	173.750	-96.473	78.548	165.949	-83.829	-137.497	179.335	29.666	-134.770	0.00037928	0.00060086	0.00022208	1444.7	5.4516e-06	3.0731e-06	1447	392.98	2.2377e-06	7.4235e-06	446.61	144.3	127.33	42.949	2.3904e-06	52.936	0.00087544	0.00099836	0.00027377	1466.9	1.0571e-05	1.0807e-05	1468	400.49	1.0356e-05	1.0754e-05	456.78	148.85	130.7	44.259	1.0707e-05	54.688	-81.281	-44.454	-46.727	-127.764	-22.144	-2.440	-127.770	-123.044	-7.145	14.400	-123.414	-119.210	-118.613	-114.029	68.863	-114.658	-8191	255	
45990.957	1	1	0	0	0.17657	0.12662	0.13949	0.080928	0.11062	0.14238	0.18131	0.16811	0.1622	0.24444	0.15997	0.1364	0.17132	0.11117	0.27894	0.0321	-2.7521	-2.15	-3.0667	-3.0083	-2.2708	-3.2812	-2.7521	-2.8833	-3.0438	-2.3542	-3.0396	-3.2167	-2.5646	-3.2729	-2.6854	-2.6625	41.560	117.251	-49.564	205.963	91.564	-105.818	89.914	71.613	69.424	89.044	41.702	144.002	-139.227	-38.915	51.806	148.743	0.00039939	0.0008868	0.00011468	1445.1	3.453e-06	6.1612e-06	1444.9	391.65	3.9274e-06	6.2372e-06	446.22	144.99	126.56	42.847	5.5845e-06	53.188	0.00086977	0.00098864	0.00027443	1467.2	1.0658e-05	1.0958e-05	1468.7	400.58	1.0657e-05	1.098e-05	455.88	149.07	130.63	44.259	1.0615e-05	54.786	-79.561	-46.773	-66.911	-127.713	4.588	-0.547	-127.776	-123.130	38.425	-6.829	-123.371	-119.153	-118.518	-114.090	-22.623	-114.779	-8191	255	
45991.055	1	1	0	0	0.081138	0.27968	0.32083	0.16278	0.13644	0.08697	0.05633	0.32085	0.089485	0.063118	0.24123	0.32573	0.10735	0.26674	0.079961	0.24636	-2.6521	-2.2562	-2.8083	-3.2167	-2.3104	-3.1792	-2.8542	-2.6312	-3.1167	-2.2542	-2.8104	-3.1104	-2.5521	-3.2896	-2.6583	-2.5896	-107.615	115.529	192.996	160.410	-132.981	157.751	14.091	120.388	-137.380	37.177	141.213	162.176	-79.292	161.965	-0.398	215.876	0.00039357	0.00061229	0.00010044	1447.1	6.0995e-06	5.6469e-06	1438.3	392.28	7.5827e-06	6.4676e-06	447.31	144.22	127.1	42.788	5.2024e-06	53.076	0.00086588	0.00097437	0.00026708	1465.7	1.0306e-05	1.0542e-05	1464.2	400.02	1.0257e-05	1.0506e-05	455.65	148.49	130.28	44.109	1.0252e-05	54.725	-82.358	-24.701	-48.991	-127.677	15.483	-4.462	-127.808	-122.999	7.448	21.289	-123.679	-119.031	-118.707	-113.956	-25.482	-114.528	-8191	255	
45991.148	1	1	0	0	0.024183	0.13062	0.28266	0.093882	0.29613	0.15581	0.2966	0.06023	0.18709	0.22692	0.12837	0.010678	0.24964	0.20211	0.18461	0.16796	-2.7958	-2.3958	-2.6083	-3.2375	-2.1437	-3.1667	-3.0396	-2.5146	-3.1896	-2.5354	-2.7687	-3.2313	-2.45	-3.0917	-2.9375	-2.55	146.490	201.526	76.399	78.920	3.726	167.246	117.097	210.667	-105.152	80.448	-67.793	148.347	127.840	156.775	131.643	200.298	0.00043156	0.00028733	0.00023257	1436.8	7.3187e-06	3.4602e-06	1441.3	390.56	1.4353e-06	3.6647e-06	446.45	144.15	126.59	42.923	5.0095e-06	53.096	0.00084369	0.00096798	0.00026907	1461.2	1.029e-05	1.0526e-05	1463	399.2	1.0151e-05	1.0436e-05	455.47	148.6	130.29	44.199	1.0402e-05	54.783	-86.009	-98.333	-111.812	-127.796	10.601	75.353	-127.684	-123.005	27.947	-11.327	-123.485	-119.314	-118.648	-113.995	13.275	-114.703	-8191	255	
45991.270	1	1	0	0	0.10149	0.035483	0.1319	0.28724	0.27201	0.1965	0.21122	0.44454	0.093653	0.23152	0.20119	0.037978	0.30997	0.10439	0.25626	0.20612	-2.7708	-2.4417	-2.5479	-3.1604	-2.3688	-2.9625	-3.1813	-2.4167	-3.2146	-2.4646	-2.6604	-3.3375	-2.4896	-2.8854	-2.9542	-2.4813	105.626	-77.160	-73.281	179.881	-11.553	-55.113	160.906	126.503	-63.536	50.993	-120.187	-75.718	213.992	-17.894	90.035	187.154	0.00038195	0.00072867	9.1032e-05	1444.8	4.7117e-06	4.151e-06	1445.1	391.99	4.4209e-06	5.8302e-06	445.31	145.17	127.1	43.063	1.642e-06	53.121	0.00085168	0.00095906	0.00026715	1465	1.0314e-05	1.0557e-05	1466.9	400.02	1.0361e-05	1.0532e-05	455.7	148.98	130.59	44.259	1.0555e-05	54.727	-84.011	-29.578	28.603	-127.658	-12.117	-20.251	-127.819	-122.911	12.233	45.003	-123.612	-119.053	-118.822	-114.053	-52.669	-114.779	-8191	255	
45991.363	1	1	0	0	0.25967	0.0012224	0.25842	0.35699	0.36497	0.093133	0.14798	0.23237	0.040216	0.12803	0.066961	0.096095	0.11099	0.29635	0.039182	0.2537	-2.7	-2.6063	-2.4667	-3.3521	-2.5583	-2.9458	-3.2458	-2.3208	-3.2042	-2.7854	-2.4542	-3.2938	-2.7021	-2.9625	-3.0875	-2.3625	51.439	180.000	96.881	193.848	91.582	29.127	-79.868	161.549	-9.598	120.578	163.345	201.822	88.720	181.059	201.923	180.373	0.00036935	0.00033408	0.00019954	1440.3	2.2658e-06	4.3223e-06	1442.5	392.04	3.9492e-06	6.2159e-06	445.43	144.9	127.17	42.697	4.2639e-06	53.069	0.00086295	0.00097075	0.00026997	1463.4	1.0431e-05	1.0763e-05	1466.3	400.06	1.0621e-05	1.0775e-05	456.06	149.02	130.55	44.207	1.0659e-05	54.784	-80.698	-46.272	-28.703	-127.614	57.831	-10.805	-127.711	-123.171	25.816	6.148	-123.726	-119.101	-118.651	-113.916	17.142	-114.960	-8191	255	
45991.438	1	1	0	0	0.1173	0.2092	0.0949	0.40088	0.042157	0.23095	0.25231	0.14655	0.21607	0.077427	0.17682	0.12371	0.071278	0.036955	0.21287	0.12864	-2.6562	-2.9062	-2.2708	-3.2417	-2.5	-2.5479	-3.4458	-2.4292	-2.9333	-3.0187	-2.5896	-3.3021	-2.7083	-2.7083	-3.1688	-2.4896	-58.500	-4.664	-49.751	144.453	157.557	-97.326	106.885	137.882	175.089	-65.213	210.272	-122.206	12.496	205.430	-31.218	179.308	0.00040891	0.00067747	0.00011889	1441.1	7.0613e-06	3.7115e-06	1445.1	392.24	3.4355e-06	3.3778e-06	447.63	144.76	126.94	42.959	4.8138e-06	53.149	0.00088449	0.00099869	0.00027787	1464.5	1.0766e-05	1.1219e-05	1467.9	400.26	1.0873e-05	1.1224e-05	455.77	149.2	130.71	44.344	1.0932e-05	54.906	-80.812	-24.521	-39.460	-127.590	11.466	6.916	-127.783	-123.133	5.381	-14.726	-123.594	-119.139	-118.746	-114.182	7.434	-115.007	-8191	255	
45991.559	1	1	0	0	0.32351	0.10322	0.12293	0.1791	0.19986	0.15809	0.26395	0.29923	0.19626	0.096402	0.14593	0.179	0.015875	0.34333	0.13054	0.14631	-2.5875	-2.8479	-2.2979	-3.4417	-2.7562	-2.6167	-3.375	-2.6667	-2.8937	-3.1354	-2.4688	-3.2729	-2.675	-2.4688	-3.3146	-2.55	-80.381	163.771	155.655	154.982	35.441	144.413	142.548	207.014	-120.053	65.768	167.247	87.787	143.838	-113.130	-5.302	96.402	0.00041536	0.00053123	0.00018038	1446.2	5.0179e-06	3.0019e-06	1447.1	393	6.6899e-06	5.2687e-06	446.54	144.62	126.78	42.924	5.9468e-06	53.348	0.00090185	0.0010177	0.00028514	1466.2	1.0814e-05	1.1012e-05	1468.2	400.76	1.0747e-05	1.1116e-05	455.88	149.16	130.63	44.371	1.0885e-05	54.851	-80.670	-10.871	-29.786	-127.585	20.048	13.799	-127.715	-122.952	42.619	-36.136	-123.552	-119.097	-118.775	-114.226	-21.535	-114.901	-8191	255	
45991.652	1	1	0	0	0.17442	0.11856	0.36937	0.17882	0.046564	0.15297	0.26565	0.16515	0.17527	0.1936	0.22647	0.056434	0.13431	0.34151	0.10019	0.26865	-2.3125	-2.9521	-2.2958	-3.2812	-2.7313	-2.4021	-3.4375	-2.7042	-2.8208	-3.1937	-2.4833	-3.3187	-2.9188	-2.5375	-3.3458	-2.6604	109.358	163.930	-85.310	174.485	-126.322	-71.117	145.530	185.628	10.210	-6.584	139.902	-136.037	167.842	218.593	-111.326	93.525	0.00037224	0.00055659	0.00014168	1445.2	6.4365e-06	4.7436e-06	1443.1	390.98	3.4211e-06	7.3486e-06	446.43	143.97	126.82	43.156	4.5054e-06	53.041	0.00088606	0.0010078	0.00028059	1466.3	1.0724e-05	1.1012e-05	1467	399.7	1.0631e-05	1.0795e-05	455.53	148.84	130.53	44.444	1.0694e-05	54.893	-85.081	-79.187	-61.309	-127.603	10.201	-8.430	-127.887	-123.007	-26.711	5.245	-123.419	-119.045	-118.857	-113.960	31.091	-114.875	-8191	255	
45991.750	1	1	0	0	0.062607	0.19448	0.22024	0.24649	0.29386	0.1864	0.28733	0.15144	0.13399	0.1122	0.16896	0.14317	0.22395	0.081941	0.089877	0.20261	-2.1625	-3.1813	-2.2521	-3.2667	-2.9375	-2.3583	-3.3521	-2.6646	-2.6417	-3.2271	-2.4583	-2.9958	-3.1188	-2.5312	-3.175	-2.8063	-1.078	68.262	121.866	160.783	-67.587	194.645	70.803	182.764	-78.073	-28.726	-107.189	-113.451	183.779	-133.868	-46.796	49.609	0.00040178	0.00036338	0.00015317	1442.4	8.711e-06	6.4285e-06	1445	390.21	4.4581e-06	6.0638e-06	445.25	145.03	127.04	43.174	3.06e-06	53.273	0.00087062	0.00098686	0.00027822	1463.6	1.0694e-05	1.0919e-05	1466.8	399.48	1.0682e-05	1.0909e-05	455.25	149.23	130.73	44.458	1.0804e-05	54.981	-81.290	-27.444	-58.832	-127.774	16.406	-14.897	-127.620	-123.038	-17.386	22.661	-123.782	-119.186	-118.724	-114.320	-13.333	-114.903	-8191	255	
45991.871	1	1	0	0	0.12891	0.20817	0.13383	0.19307	0.14516	0.13642	0.089687	0.3457	0.14327	0.22077	0.27014	0.15963	0.27866	0.066965	0.084176	0.10265	-2.0271	-3.1542	-2.3646	-3.2062	-3.1813	-2.625	-3.3521	-2.9062	-2.4354	-3.1312	-2.5021	-2.9979	-3.2875	-2.4188	-3.0417	-2.9771	153.675	28.847	82.017	149.876	50.961	-111.528	-83.756	141.280	50.322	57.840	136.944	188.213	-128.341	-0.322	-41.387	157.439	0.00038562	0.00080995	0.00014652	1441.2	2.6706e-06	7.2062e-06	1441.9	391.17	6.4597e-06	5.6574e-06	445.84	144.54	127.19	43.083	2.654e-06	53.233	0.00089994	0.00099416	0.00027886	1463.6	1.0576e-05	1.0804e-05	1465.8	399.37	1.0625e-05	1.0683e-05	455.52	149.33	130.66	44.48	1.0688e-05	55.034	-86.211	-55.219	-53.966	-127.683	14.588	32.647	-127.583	-123.063	8.236	8.614	-123.513	-119.134	-118.799	-114.051	38.174	-114.788	-8191	255	
45991.969	1	1	0	0	0.12085	0.074163	0.061421	0.38572	0.19349	0.12101	0.14811	0.25036	0.094964	0.040389	0.26158	0.20156	0.082779	0.26854	0.14638	0.081314	-1.9333	-3.1562	-2.5	-2.8125	-3.1458	-2.4417	-3.4208	-2.9292	-2.2104	-3.1729	-2.7083	-2.8542	-3.1104	-2.5125	-3.1771	-3.0646	150.912	-53.197	201.871	172.499	134.661	25.639	166.985	138.958	-66.389	89.762	155.353	192.629	61.818	207.533	92.217	145.417	0.00038927	0.00037856	0.00020084	1441.4	5.3955e-06	5.3275e-06	1442.4	390.68	6.1665e-06	5.6391e-06	446.52	144.91	127.11	43.168	5.2238e-06	53.546	0.00089314	0.00098833	0.00027729	1463.1	1.0676e-05	1.0957e-05	1467.5	399.71	1.0866e-05	1.1114e-05	455.81	149.61	131.13	44.609	1.0884e-05	55.127	-83.289	6.599	-34.208	-127.601	15.527	7.656	-127.629	-123.278	-18.653	16.535	-123.601	-119.118	-118.654	-113.954	-16.954	-114.807	-8191	255	
45992.039	1	1	0	0	0.108	0.18068	0.1759	0.23849	0.17545	0.088399	0.45662	0.28538	0.18265	0.17812	0.33724	0.21493	0.30023	0.043863	0.22692	0.14513	-2.0958	-3.3958	-2.675	-2.6542	-3.2271	-2.2583	-2.9875	-3.1875	-2.3563	-3.2708	-2.7417	-2.6625	-3.3854	-2.4104	-2.85	-3.3979	-80.672	28.376	98.002	212.721	106.578	218.500	148.948	142.811	137.458	204.144	199.999	-125.503	218.448	19.117	154.507	44.994	0.00038871	0.00088241	0.00013373	1444.5	4.072e-06	3.4651e-06	1447.8	390.94	4.5539e-06	8.1424e-06	447.57	145.9	127.52	43.312	4.9555e-06	53.781	0.0008981	0.0010082	0.00028094	1465	1.0775e-05	1.1064e-05	1469.4	400.07	1.0789e-05	1.1282e-05	457.21	150.28	131.35	44.727	1.1023e-05	55.269	-82.100	-46.574	-36.976	-127.537	21.364	24.689	-127.517	-122.942	-10.965	-0.000	-123.471	-119.027	-118.566	-114.195	12.708	-114.675	-8191	255	
45992.160	1	1	0	0	0.22582	0.25404	0.28242	0.30245	0.043566	0.23655	0.11575	0.25113	0.2076	0.083536	0.20007	0.10018	0.16306	0.16454	0.25774	0.28805	-1.7812	-3.0896	-2.6958	-2.6125	-3.4771	-2.5479	-3.0646	-3.2792	-2.5521	-3.2375	-3.0312	-2.4146	-3.3333	-2.5438	-2.6375	-3.1729	152.374	-1.161	-46.377	-131.610	15.588	29.791	172.599	169.850	-16.086	98.114	61.668	127.419	-121.922	157.010	187.328	140.679	0.00039218	0.0010144	0.00018618	1442.6	5.6653e-06	6.7057e-06	1444.7	392.43	4.347e-06	6.6194e-06	447.32	145.18	127.97	43.414	4.4836e-06	53.395	0.00090288	0.0010007	0.00028018	1467.7	1.0853e-05	1.1215e-05	1472.1	401	1.0976e-05	1.0975e-05	457.45	150.33	131.8	44.81	1.1003e-05	55.369	-87.880	-28.807	-47.886	-127.462	27.120	24.344	-127.716	-123.057	-21.394	-5.484	-123.470	-119.091	-118.718	-114.301	59.935	-114.894	-8191	255	
45992.254	1	1	0	0	0.18467	0.1163	0.24952	0.10457	0.16102	0.12198	0.15242	0.35851	0.090187	0.13797	0.2828	0.16215	0.18761	0.16255	0.03473	0.2901	-2.0354	-2.8917	-3.0229	-2.6229	-3.1354	-2.7812	-2.9708	-3.4958	-2.2708	-3.1833	-3.1583	-2.3771	-3.2	-2.5958	-2.7188	-3.3979	-115.785	156.124	-95.939	174.152	-122.380	-91.939	-90.060	174.007	-117.017	201.749	118.704	74.853	68.326	-113.839	30.954	-119.709	0.00041014	0.00092026	0.00014888	1442.3	4.8742e-06	3.5799e-06	1441.8	391.82	4.5057e-06	3.4218e-06	446.91	145.5	127.46	43.199	7.7909e-06	53.756	0.00089723	0.0010084	0.00027966	1467.8	1.0619e-05	1.0894e-05	1469.8	401.06	1.0611e-05	1.0827e-05	456.37	150.19	131.43	44.743	1.0471e-05	55.384	-83.493	-32.992	-51.561	-127.639	23.138	22.281	-127.534	-123.200	30.441	20.894	-123.548	-119.168	-118.362	-114.024	32.787	-114.741	-8191	255	
45992.348	1	1	0	0	0.1156	0.070649	0.10129	0.27494	0.074653	0.18061	0.38714	0.34487	0.034266	0.077982	0.15303	0.18983	0.23067	0.16102	0.33827	0.12993	-1.85	-2.8479	-3.1	-2.5167	-3.2792	-2.65	-2.7708	-3.5187	-2.325	-2.7125	-3.2	-2.3604	-3.2083	-2.9208	-2.4021	-3.3771	78.497	-118.616	-80.166	211.204	-62.380	95.457	195.605	141.442	-65.467	157.038	116.164	118.356	97.388	122.922	-92.340	119.386	0.00039485	0.0004557	7.5599e-05	1443.2	6.079e-06	4.8634e-06	1444.4	392.54	3.7143e-06	4.8902e-06	446.03	145.52	127.7	43.513	4.1568e-06	53.542	0.00086338	0.00096321	0.00026686	1465.2	1.0327e-05	1.045e-05	1467.5	400.93	1.0434e-05	1.0385e-05	456.14	150.1	131.72	44.807	1.0273e-05	55.324	-85.027	-32.097	-21.189	-127.626	23.669	-12.369	-127.787	-123.036	-4.163	46.233	-123.546	-119.119	-118.586	-114.206	3.027	-115.004	-8191	255	
45992.445	1	1	0	0	0.019461	0.21648	0.20186	0.17748	0.26106	0.16116	0.14021	0.063901	0.13413	0.25023	0.11523	0.16002	0.11945	0.16925	0.13194	0.17007	-2.1	-2.7167	-2.9813	-2.5792	-3.0667	-2.7	-2.6604	-3.35	-2.6083	-2.65	-3.1729	-2.5021	-2.9292	-2.9729	-2.2375	-3.1479	212.162	141.664	163.939	121.616	-36.835	160.661	201.923	110.357	89.960	214.001	99.881	195.262	132.898	-0.160	74.381	-91.146	0.00035566	0.00089909	0.00019367	1440.9	6.4034e-06	7.7749e-06	1446.1	392.69	2.106e-06	3.1692e-06	448.7	145.83	127.65	43.547	3.8733e-06	53.806	0.00086212	0.00094963	0.00026521	1464.3	1.0426e-05	1.0551e-05	1469.9	401.16	1.0332e-05	1.0463e-05	457.01	150.36	131.7	44.796	1.0176e-05	55.442	-79.422	-55.713	-35.645	-127.585	23.908	18.953	-127.570	-123.091	-21.038	14.051	-123.726	-119.232	-118.570	-114.246	-17.745	-114.848	-8191	255	
45992.566	1	1	0	0	0.25886	0.1721	0.086048	0.31471	0.04666	0.1264	0.14279	0.1347	0.1247	0.26594	0.087967	0.084304	0.23825	0.15523	0.20646	0.01609	-2.075	-2.7062	-3.1958	-2.7229	-3.0563	-2.8563	-2.5563	-3.3083	-2.7	-2.5312	-3.275	-2.4854	-3.1104	-2.9896	-2.3063	-3.3063	14.478	-45.633	-133.194	210.828	101.959	-42.149	63.858	-99.218	129.338	85.909	-63.095	-127.043	-117.593	161.696	-137.721	-104.865	0.00039042	0.0005761	0.00013545	1441.3	6.3406e-06	5.9767e-06	1441.4	391.67	3.5266e-06	5.4781e-06	446.06	145.56	127.65	43.349	6.7011e-06	53.52	0.00084333	0.00092626	0.00025657	1463.4	1.0007e-05	1.0156e-05	1467.8	400.93	9.7803e-06	1.0187e-05	455.9	150.29	131.56	44.726	1.0261e-05	55.252	-84.340	-46.036	-53.950	-127.651	12.660	23.035	-127.652	-122.873	-25.269	37.220	-123.423	-119.245	-118.620	-114.165	8.418	-114.665	-8191	255	
45992.660	1	1	0	0	0.35901	0.2325	0.2799	0.281	0.21613	0.21967	0.071302	0.20966	0.17569	0.15149	0.11068	0.092433	0.16446	0.11188	0.15333	0.15679	-2.3958	-2.4437	-3.3396	-2.5583	-2.6688	-3.0563	-2.2542	-3.1958	-2.775	-2.6125	-3.4146	-2.6833	-2.7708	-3.1771	-2.3563	-3.1896	42.254	38.887	186.452	153.015	-43.527	-117.415	168.780	-84.082	147.491	33.805	130.632	194.003	156.820	192.599	-45.456	-82.697	0.000397	0.0005599	0.00015171	1441.1	4.1327e-06	4.8477e-06	1437.5	390.66	2.9218e-06	6.8841e-06	446.16	144.93	127.55	43.303	2.7312e-06	53.462	0.00085159	0.00095039	0.00026257	1461.9	1.0253e-05	1.0384e-05	1463.4	399.94	1.0248e-05	1.0451e-05	455.65	149.7	131.39	44.682	1.0376e-05	55.194	-81.380	-75.808	-50.458	-127.519	36.944	10.208	-127.521	-122.823	32.033	58.429	-123.425	-119.068	-118.594	-114.130	23.889	-114.755	-8191	255	
45992.734	1	1	0	0	0.25399	0.08758	0.33221	0.17364	0.15907	0.30999	0.17825	0.045769	0.099743	0.28683	0.058882	0.26042	0.23093	0.20391	0.13608	0.040994	-2.5146	-2.1333	-3.05	-2.6854	-2.5792	-3.3271	-2.5646	-2.975	-2.8292	-2.3292	-3.4417	-2.6104	-2.7229	-3.3312	-2.2167	-3.1854	39.504	-31.545	-15.832	194.166	15.712	136.350	201.653	-86.941	-110.716	166.930	153.250	-22.009	123.759	-133.394	-81.160	-96.840	0.00038213	0.00042572	0.00021055	1433.9	4.178e-06	7.8775e-06	1441	391.37	3.7758e-06	6.3995e-06	444.67	145.38	127.15	43.134	5.2368e-06	53.402	0.00085181	0.00094767	0.00026505	1458.2	1.0172e-05	1.0235e-05	1462.4	399.71	9.9651e-06	1.021e-05	455.13	149.68	131.15	44.632	1.0143e-05	55.18	-82.498	-56.493	-49.898	-127.434	15.617	22.965	-127.676	-123.102	-28.598	-12.902	-123.341	-119.271	-118.749	-114.274	0.391	-114.592	-8191	255	
45992.828	1	1	0	0	0.28778	0.28926	0.10316	0.35401	0.10932	0.12684	0.069187	0.33062	0.10865	0.37545	0.053541	0.11438	0.072726	0.18614	0.27045	0.25997	-2.6146	-2.3604	-3.2917	-2.9042	-2.475	-3.3125	-2.5187	-3.0604	-2.9396	-2.1542	-3.4104	-2.7708	-2.5563	-3.2313	-2.4583	-2.9375	-136.439	210.101	-54.016	176.369	51.978	207.401	112.603	141.547	11.841	88.861	105.198	176.468	168.385	-124.421	-68.094	149.996	0.00037694	0.00054027	0.00010023	1432.4	5.8027e-06	7.2963e-06	1439.1	390.45	5.1362e-06	6.5373e-06	445.91	144.75	127.12	43.136	9.7079e-07	53.608	0.00082855	0.00092667	0.00025502	1456.9	1.0013e-05	1.0233e-05	1462.8	399.17	9.8438e-06	1.0142e-05	455.05	149.55	131.13	44.628	1.0035e-05	55.182	-85.015	-29.585	-50.807	-127.500	36.698	6.958	-127.668	-122.832	15.044	8.386	-123.427	-119.003	-118.432	-113.963	-44.763	-114.522	-8191	255	
45992.949	1	1	0	0	0.20035	0.16517	0.28783	0.31043	0.2862	0.2877	0.12322	0.18742	0.065973	0.16658	0.1192	0.17742	0.050189	0.17169	0.047247	0.10246	-2.7438	-2.35	-3.1375	-2.6417	-2.2208	-3.2271	-2.8875	-2.7792	-3.1083	-2.1917	-3.0875	-2.9292	-2.6021	-3.3854	-2.5375	-2.8625	-74.161	-14.969	173.312	140.994	176.393	80.619	-130.697	119.344	69.962	138.559	-39.482	198.024	63.904	-11.949	79.722	147.877	0.00040002	0.00079885	0.00016468	1433.6	4.1243e-06	7.0138e-06	1437.1	390.3	6.1079e-06	5.6056e-06	444.76	145.15	127.31	43.281	5.3019e-06	53.297	0.00083042	0.00094532	0.00026068	1456.6	1.0097e-05	1.0144e-05	1461.5	398.57	1.0129e-05	1.0315e-05	455.01	149.76	131.15	44.596	1.0164e-05	55.143	-81.484	-44.592	-23.241	-127.521	-1.410	-22.165	-127.652	-122.980	26.105	8.361	-123.335	-119.087	-118.815	-113.924	5.613	-114.714	-8191	255	
45993.047	1	1	0	0	0.1259	0.11593	0.14489	0.25264	0.010444	0.054443	0.28235	0.35172	0.29777	0.17461	0.31408	0.26842	0.11953	0.12464	0.044782	0.3718	-2.7	-2.3729	-3.0625	-3.2542	-2.2938	-3.3292	-2.8458	-2.8958	-3.3208	-2.3333	-3.0292	-3.1229	-2.4542	-3.2979	-2.5833	-2.6896	-102.998	-35.214	83.834	147.581	25.333	98.154	124.566	218.923	154.601	117.290	-129.665	132.931	-115.015	0.871	-40.442	208.193	0.00041029	0.00072515	0.00025537	1434.5	4.5373e-06	5.9541e-06	1435.8	389.82	3.1132e-06	3.1232e-06	446.91	144.62	127.15	43.192	3.4197e-06	53.409	0.00084268	0.00094489	0.00026528	1456	1.0045e-05	1.0352e-05	1460.1	398.98	1.0225e-05	1.0304e-05	455.2	149.86	130.99	44.607	1.0028e-05	55.184	-78.511	-63.896	-41.966	-127.581	59.928	19.563	-127.660	-122.868	-11.348	48.955	-123.228	-119.303	-118.416	-113.932	-10.286	-114.604	-8191	255	
45993.145	1	1	0	0	0.022548	0.045245	0.11739	0.31366	0.098899	0.061481	0.26668	0.17325	0.083403	0.26582	0.27474	0.18064	0.073461	0.1849	0.15686	0.23008	-2.9229	-2.5312	-2.8896	-3.3604	-2.4979	-3.3417	-2.9708	-2.7833	-3.3625	-2.3063	-3.0104	-3.3458	-2.4021	-3.3229	-2.9833	-2.5438	152.348	-68.790	170.138	186.958	138.331	206.360	154.326	163.911	-92.083	190.042	-81.389	-2.506	106.690	176.818	74.790	195.638	0.00032773	0.00034786	0.0001185	1430.1	7.7796e-06	8.4411e-06	1432.6	389.45	2.2994e-06	4.899e-06	444.68	145.08	126.48	43.095	5.071e-06	53.356	0.00083945	0.00093649	0.00025614	1456	9.8451e-06	1.0032e-05	1458.4	398.44	9.9723e-06	1.0189e-05	454.59	149.73	130.87	44.579	9.976e-06	55.053	-81.557	-48.654	-76.219	-127.638	24.349	10.185	-127.564	-122.986	7.572	33.524	-123.122	-118.910	-118.563	-113.930	-15.067	-114.817	-8191	255	
45993.238	1	1	0	0	0.14545	0.14398	0.14208	0.22862	0.20705	0.23203	0.12824	0.15714	0.10115	0.095226	0.45708	0.15777	0.066657	0.015103	0.44162	0.039874	-2.8833	-2.375	-2.7917	-3.3854	-2.3542	-3.0917	-3.2042	-2.4458	-3.2938	-2.5958	-2.8271	-3.3917	-2.3833	-3.0687	-3.125	-2.5896	78.381	127.545	-56.542	-139.603	50.229	7.012	194.177	151.227	-86.957	96.871	-120.836	178.840	-49.666	7.556	100.738	-128.821	0.00040781	0.00031925	0.0002025	1431.2	3.0095e-06	7.8164e-06	1429	389.09	4.5382e-06	6.0872e-06	443.52	144.61	127.39	43.074	3.5629e-06	53.221	0.00083959	0.00092677	0.00026116	1455.2	1.0118e-05	1.0343e-05	1457.2	398.69	1.0115e-05	1.0435e-05	454.59	149.51	131.13	44.619	1.0203e-05	55.11	-80.322	-97.150	-64.278	-127.371	-10.349	17.632	-127.709	-123.025	19.955	-11.603	-123.131	-118.768	-118.565	-113.733	19.191	-114.752	-8191	255	
45993.336	1	1	0	0	0.018253	0.034898	0.23682	0.1998	0.13362	0.070492	0.086265	0.40248	0.19684	0.074678	0.13799	0.26223	0.21706	0.35191	0.053748	0.026615	-2.9625	-2.5292	-2.6937	-3.4729	-2.3042	-3.0312	-3.3063	-2.4688	-3.1937	-2.6667	-2.8104	-3.4146	-2.5792	-2.95	-3.0771	-2.4437	-116.286	77.804	-38.534	-138.183	115.635	203.969	-136.688	190.343	-101.472	-115.006	-109.622	194.348	171.745	199.730	119.151	162.348	0.00037915	0.00071189	0.00018774	1428.9	3.3827e-06	4.6198e-06	1437.1	391.19	6.5538e-06	3.4275e-06	442.45	144.86	127.75	43.015	1.3959e-06	53.378	0.0008453	0.00093636	0.00026432	1455.6	1.0289e-05	1.0459e-05	1461.7	399.95	1.0283e-05	1.0513e-05	454.85	149.78	131.26	44.656	1.0421e-05	55.151	-82.719	-90.949	-7.624	-127.498	-10.423	10.689	-127.626	-123.093	-10.470	13.185	-123.488	-118.997	-118.473	-114.115	5.235	-114.659	-8191	255	
45993.434	1	1	0	0	0.1511	0.1028	0.058773	0.37469	0.089429	0.16402	0.23809	0.26213	0.10702	0.15887	0.12284	0.19233	0.11986	0.16254	0.070201	0.33038	-2.7438	-2.8021	-2.5396	-3.1896	-2.5792	-2.9917	-3.3146	-2.5854	-3.1146	-2.7271	-2.4771	-3.3083	-2.5438	-2.9875	-3.275	-2.4833	-82.011	217.272	-4.111	178.808	52.548	31.305	115.320	182.322	-49.639	-49.361	167.627	154.969	-124.304	216.114	2.888	119.256	0.00040193	0.00061347	0.00026032	1433	4.6027e-06	4.8382e-06	1433.4	389.53	6.0755e-06	6.2694e-06	443.76	144.46	127.04	43.093	4.3202e-06	53.225	0.0008624	0.0009551	0.0002708	1457.7	1.0286e-05	1.0594e-05	1460.9	399.04	1.0343e-05	1.0571e-05	454.72	149.6	130.99	44.672	1.0409e-05	55.139	-86.346	-51.920	-64.168	-127.414	43.424	-1.376	-127.486	-122.937	-5.869	4.232	-123.469	-119.050	-118.413	-114.016	57.977	-114.837	-8191	255	
45993.551	1	1	0	0	0.18147	0.20072	0.028074	0.04651	0.37199	0.20492	0.13224	0.20117	0.19453	0.1123	0.28715	0.30953	0.23413	0.062475	0.23584	0.26763	-2.7021	-2.7729	-2.3146	-3.3812	-2.5833	-2.7521	-3.5438	-2.7021	-2.8688	-2.8833	-2.4375	-3.2458	-2.7438	-2.7042	-3.2875	-2.7708	-13.811	68.267	171.084	39.827	58.013	-49.298	-125.200	160.512	123.907	-37.979	210.262	160.165	-96.426	117.131	111.534	-119.109	0.00038309	0.00045569	0.00019441	1427.4	4.5421e-06	4.7812e-06	1435.2	389.8	4.1083e-06	5.58e-06	445.33	144.97	127.07	43.202	5.9023e-06	53.185	0.00087494	0.00095538	0.00026884	1455.4	1.0337e-05	1.0571e-05	1460.4	399.29	1.0325e-05	1.0592e-05	455.18	149.81	131.05	44.651	1.0422e-05	55.183	-84.816	-1.786	-57.496	-127.406	37.252	3.049	-127.680	-122.855	-6.400	-3.266	-123.303	-119.036	-118.843	-114.033	9.201	-114.739	-8191	255	
45993.648	1	1	0	0	0.018962	0.10808	0.13372	0.20643	0.028243	0.10185	0.13556	0.06508	0.20461	0.22332	0.10368	0.10595	0.26606	0.25265	0.1196	0.29636	-2.6312	-2.9917	-2.3604	-3.4688	-2.7458	-2.6417	-3.3979	-2.7021	-2.9688	-3.1937	-2.5542	-3.3042	-2.9083	-2.6188	-3.4375	-2.6833	159.540	127.021	80.765	131.670	-113.487	-16.265	118.539	-128.248	-65.316	130.396	86.075	100.986	-99.282	166.294	138.837	123.003	0.00037414	0.00079223	0.00022868	1433.2	1.6558e-06	4.5514e-06	1437.3	389.24	2.2619e-06	7.1076e-06	444.21	144.69	126.82	43.017	5.3002e-06	53.33	0.00086255	0.00095543	0.00026891	1457.2	1.0375e-05	1.0458e-05	1462	399.07	1.0178e-05	1.0461e-05	454.99	149.56	131.04	44.638	1.0304e-05	55.108	-83.841	-48.133	-27.204	-127.461	-29.688	52.195	-127.510	-123.092	13.046	22.929	-123.176	-119.163	-118.584	-113.833	-22.144	-114.818	-8191	255	
45993.742	1	1	0	0	0.17363	0.050209	0.21078	0.24942	0.14853	0.13946	0.024688	0.54448	0.13884	0.05201	0.16125	0.20798	0.18536	0.14662	0.080673	0.38957	-2.4	-3.1688	-2.3146	-3.3375	-2.9313	-2.4688	-3.5042	-2.6729	-2.7083	-3.1646	-2.3187	-3.0896	-3.0208	-2.4771	-3.3208	-2.6813	74.295	195.404	-73.078	179.882	146.364	77.077	-84.536	190.691	-75.330	117.552	116.757	214.719	137.175	185.576	84.467	-102.899	0.00040687	0.00057456	6.6155e-05	1433.1	3.9225e-06	2.843e-06	1434	389.75	2.9087e-06	4.7591e-06	443.69	145.17	127.06	43.294	5.4594e-06	52.995	0.00084199	0.00094907	0.00026336	1455.6	1.0106e-05	1.0298e-05	1460.1	399.23	1.0036e-05	1.0303e-05	454.62	149.78	130.99	44.66	9.906e-06	55.062	-83.187	-63.615	-17.457	-127.443	51.883	10.165	-127.555	-122.983	34.337	-2.847	-123.386	-118.907	-118.501	-114.032	-6.381	-114.718	-8191	255	
45993.840	1	1	0	0	0.15657	0.098739	0.059599	0.2009	0.14397	0.13168	0.1825	0.27098	0.19571	0.22301	0.069865	0.16259	0.045158	0.28629	0.26759	0.29823	-2.0771	-3.2542	-2.2979	-3.1063	-3.0167	-2.4188	-3.4833	-2.7771	-2.7646	-3.3521	-2.5083	-3.075	-3.2667	-2.4229	-3.2792	-2.875	-127.011	9.936	-125.799	163.604	-26.074	-15.604	217.580	116.552	208.173	93.796	0.087	26.996	202.957	-52.681	178.144	154.599	0.00036227	0.00083305	0.00021337	1426.4	8.1325e-06	8.7986e-06	1429.1	389.87	3.7817e-06	5.3942e-06	443.92	144.99	126.88	42.941	5.3583e-06	53.078	0.00082643	0.00091539	0.00025594	1454.5	9.8093e-06	1.0117e-05	1458.9	397.93	9.7943e-06	9.8861e-06	453.48	149.57	130.77	44.478	9.7959e-06	55.02	-84.532	-64.269	-46.657	-127.457	10.084	15.360	-127.485	-122.890	-26.074	-15.798	-123.297	-119.080	-118.667	-113.929	-37.146	-114.563	-8191	255	
45993.961	1	1	0	0	0.21662	0.084912	0.043301	0.088843	0.203	0.2485	0.10865	0.28328	0.039497	0.13689	0.3216	0.15846	0.069987	0.08699	0.22182	0.11365	-2.1437	-3.1583	-2.3563	-3.0625	-2.9313	-2.4292	-3.2729	-2.9521	-2.4625	-3.1896	-2.6083	-2.925	-3.2771	-2.4083	-2.9813	-2.8521	32.486	44.286	9.825	-119.833	174.827	138.586	111.309	217.515	-119.413	-44.858	-88.660	-45.173	86.031	120.240	101.223	210.334	0.00039443	0.00045054	8.3568e-05	1425.4	1.8771e-06	5.1411e-06	1425.8	387.08	3.325e-06	4.9602e-06	441.65	144.2	126.87	43.09	3.5342e-06	52.927	0.00080843	0.0009048	0.00025297	1451.2	9.8844e-06	1.0022e-05	1454.4	397.22	9.844e-06	1.0037e-05	453.15	149.38	130.67	44.585	1.0056e-05	54.965	-83.798	-54.072	16.762	-127.520	67.724	-2.321	-127.598	-122.820	-41.461	30.520	-123.361	-118.937	-118.431	-114.067	14.761	-114.775	-8191	255	
45994.031	1	1	0	0	0.35744	0.20415	0.14487	0.16164	0.20014	0.069684	0.20521	0.18003	0.30288	0.29047	0.097521	0.29744	0.17028	0.13512	0.13269	0.07076	-2.1813	-3.2062	-2.5229	-2.8438	-3.0812	-2.3292	-3.3167	-3.1437	-2.325	-3.2125	-2.7687	-2.6854	-3.4604	-2.5021	-3.0167	-3.1771	-112.137	-79.883	95.823	106.411	-6.413	11.060	129.504	200.003	38.213	105.751	-125.008	108.132	74.839	-125.101	126.735	31.372	0.00037523	0.00074864	0.00017202	1422.8	4.4351e-06	3.8985e-06	1427.4	388.08	6.2648e-06	3.4478e-06	440.79	144.6	126.65	42.877	7.2402e-06	53.119	0.00083349	0.00092265	0.00025699	1453	9.8545e-06	1.0122e-05	1456.1	397.58	9.9782e-06	1.0005e-05	452.58	149.43	130.83	44.433	9.7544e-06	55.059	-84.865	-45.828	-53.941	-127.552	-12.616	9.391	-127.317	-122.900	10.542	-5.228	-123.273	-118.851	-118.481	-113.843	-12.273	-114.677	-8191	255	
45994.129	1	1	0	0	0.2185	0.23832	0.11691	0.28365	0.18587	0.0869	0.33441	0.065727	0.15451	0.12548	0.14965	0.22846	0.17231	0.16754	0.32465	0.26618	-1.8896	-3.2188	-2.7625	-2.7188	-3.3208	-2.5333	-2.925	-3.1167	-2.2208	-3.2167	-3.0208	-2.5625	-3.5458	-2.4854	-2.7771	-3.2938	-19.418	87.002	-140.691	213.554	97.414	-21.977	166.415	-109.039	-108.734	205.088	163.913	206.898	-129.721	-99.213	22.878	117.992	0.00040811	0.00066123	0.0001351	1424.5	3.6582e-06	4.7641e-06	1429.5	386.97	4.5031e-06	4.3141e-06	440.33	144.39	126.49	43.014	7.2942e-06	53.156	0.00082313	0.00090239	0.00025675	1451.8	9.7752e-06	9.9663e-06	1455.1	397.17	9.8136e-06	1.0103e-05	452.52	149.18	130.72	44.521	9.7989e-06	54.969	-81.089	-42.749	-61.548	-127.415	60.960	47.210	-127.343	-122.881	5.589	5.948	-123.175	-118.713	-118.255	-113.843	7.480	-114.499	-8191	255	
45994.246	1	1	0	0	0.3172	0.076266	0.1812	0.074832	0.24233	0.1874	0.21476	0.090896	0.21978	0.098392	0.20823	0.036027	0.23803	0.14469	0.21048	0.32493	-2.0896	-3.125	-2.9521	-2.6188	-3.2438	-2.4604	-3.0917	-3.2938	-2.4938	-3.1146	-3.0312	-2.5771	-3.3271	-2.575	-2.6229	-3.1104	-90.951	11.100	97.296	131.337	-130.437	14.306	150.280	216.169	-111.789	212.449	-78.999	-14.579	171.252	194.123	-51.900	113.682	0.00037679	0.00063725	0.00016489	1428.3	5.0393e-06	5.58e-06	1429.1	387.17	6.648e-06	5.5458e-06	441.22	144.35	126.23	42.901	4.6007e-06	53.191	0.0008157	0.00091702	0.00025716	1451	9.8253e-06	9.9754e-06	1455.1	396.79	9.8524e-06	9.8144e-06	452.72	149.04	130.5	44.446	9.8889e-06	54.999	-85.881	-37.659	-53.966	-127.282	36.213	-2.589	-127.428	-122.780	13.704	-18.088	-123.556	-118.662	-118.469	-113.922	24.063	-114.629	-8191	255	
45994.344	1	1	0	0	0.22025	0.22041	0.095117	0.11052	0.25349	0.037611	0.54822	0.14364	0.13295	0.18877	0.20979	0.12681	0.052423	0.16948	0.26113	0.24695	-1.8979	-3.0021	-3.0042	-2.7562	-3.3	-2.6833	-2.8167	-3.5667	-2.4062	-2.9021	-3.1312	-2.6521	-3.2375	-2.8021	-2.5458	-3.5021	175.040	181.362	17.619	101.582	-6.959	213.233	131.810	161.745	146.200	115.434	208.397	9.047	152.750	196.342	-23.069	159.352	0.00038053	0.00050178	0.00011422	1415.8	4.7576e-06	3.5697e-06	1428.1	386.5	6.2704e-06	3.6512e-06	440.54	143.71	126.34	42.902	3.6479e-06	53.161	0.00081441	0.00089742	0.00025164	1447.8	9.7102e-06	9.9767e-06	1453	396.6	9.7313e-06	9.9747e-06	452.26	149.1	130.53	44.417	9.9179e-06	54.945	-79.316	-45.863	-44.734	-127.293	28.349	29.735	-127.380	-122.873	-3.802	-11.584	-123.136	-118.861	-118.293	-113.748	19.541	-114.578	-8191	255	
45994.438	1	1	0	0	0.053251	0.14839	0.20753	0.28542	0.065826	0.12532	0.27689	0.30993	0.20626	0.16232	0.16998	0.12416	0.036315	0.19433	0.060657	0.31818	-2.1125	-3.0146	-3.0104	-2.5167	-3.225	-2.8125	-2.6083	-3.4521	-2.4792	-2.6562	-3.2979	-2.5292	-3.2896	-3.1229	-2.4979	-3.3	-47.857	-49.843	88.763	174.589	-71.152	-123.932	101.293	187.862	41.843	212.419	184.461	208.283	90.513	180.911	124.801	152.334	0.00038725	0.00076578	9.2905e-05	1422.9	7.0264e-06	6.1687e-06	1429.2	386.74	4.731e-06	9.2165e-06	441.8	143.7	126.14	43.078	4.3944e-06	52.983	0.00083619	0.00092219	0.00025549	1449	9.8237e-06	9.9594e-06	1454.1	396.96	9.8646e-06	1.015e-05	452.8	149.07	130.53	44.536	9.893e-06	54.932	-85.705	-28.492	-40.480	-127.115	33.869	-16.443	-127.515	-122.792	-10.961	36.070	-123.323	-118.990	-118.137	-113.759	22.778	-114.733	-8191	255	
45994.535	1	1	0	0	0.10432	0.18943	0.15943	0.19258	0.17204	0.11436	0.2838	0.094838	0.067941	0.17974	0.094513	0.1433	0.096362	0.18212	0.22782	0.12242	-2.1542	-2.7062	-2.9938	-2.6083	-3.0187	-2.9	-2.7104	-3.2792	-2.5417	-2.75	-3.4208	-2.4208	-3.1063	-3.0896	-2.4875	-3.3667	-119.706	119.733	4.115	192.651	-138.163	191.152	-139.838	100.233	-112.795	182.522	158.174	134.794	219.199	-35.503	1.933	208.433	0.00038993	0.00053968	0.0002706	1423.7	2.2453e-06	3.7072e-06	1423.5	387.86	5.3674e-06	8.3176e-06	440.87	144.5	126.73	42.879	2.9665e-06	53.095	0.0008229	0.0009158	0.0002556	1449.2	9.8053e-06	9.9758e-06	1454.5	396.82	9.8025e-06	9.8945e-06	452.52	149.16	130.51	44.409	9.9235e-06	55.01	-84.824	-58.461	-57.718	-127.340	24.514	-6.978	-127.420	-122.731	6.574	16.413	-123.025	-119.006	-118.382	-113.891	19.097	-114.250	-8191	255	
45994.633	1	1	0	0	0.1808	0.34358	0.229	0.17164	0.064583	0.15397	0.095317	0.17209	0.06432	0.16414	0.081792	0.1257	0.13659	0.2302	0.21502	0.12851	-2.2667	-2.7292	-3.0104	-2.7875	-3.125	-3.0062	-2.4688	-3.275	-2.6292	-2.5708	-3.2854	-2.5625	-2.9167	-3.1958	-2.4125	-3.2792	47.367	175.955	109.314	171.778	75.294	-112.162	93.883	-109.319	209.768	197.237	-136.616	211.414	138.902	160.554	26.955	142.814	0.00040026	0.00048382	9.1297e-05	1417.3	3.6115e-06	5.0241e-06	1423.6	387.67	4.8922e-06	5.689e-06	442.17	143.88	126.58	42.954	4.3257e-06	52.922	0.00082481	0.00090574	0.00025267	1447.4	9.7815e-06	9.8923e-06	1454	396.88	9.9412e-06	1.0084e-05	452.71	148.88	130.57	44.474	9.9416e-06	54.907	-83.217	-25.204	-52.508	-127.355	15.174	-13.360	-127.412	-122.714	22.532	0.640	-123.394	-118.955	-118.238	-113.726	4.613	-114.383	-8191	255	
45994.727	1	1	0	0	0.067993	0.33896	0.04935	0.068333	0.34192	0.23259	0.35485	0.1901	0.13481	0.13528	0.2581	0.14097	0.33222	0.11815	0.12366	0.11152	-2.3792	-2.5375	-3.2292	-2.7021	-2.6583	-3.0667	-2.5854	-3.1042	-2.7979	-2.4021	-3.1729	-2.6479	-2.7542	-3.1854	-2.4646	-3.0354	190.715	201.285	105.786	-56.929	8.934	-73.083	-137.826	193.501	28.533	-39.465	194.057	-93.530	181.846	151.346	209.935	-68.591	0.00035951	0.00073118	5.5566e-05	1419.1	6.7991e-06	8.1344e-06	1426.1	386.48	5.0629e-06	4.7088e-06	441.58	143.79	126.25	43.107	5.4952e-06	53.141	0.00082839	0.00092293	0.00025439	1448.5	1.0041e-05	1.006e-05	1453.3	396.9	9.9817e-06	1.0204e-05	452.24	148.84	130.71	44.542	1.0015e-05	54.979	-84.823	-33.109	-104.521	-127.345	8.214	10.615	-127.575	-122.830	27.276	28.072	-123.469	-118.755	-118.316	-113.991	-34.553	-114.649	-8191	255	
45994.824	1	1	0	0	0.081858	0.33246	0.0971	0.25017	0.014163	0.14032	0.22231	0.081748	0.15764	0.17727	0.075917	0.16262	0.32243	0.11052	0.086608	0.1677	-2.4688	-2.4167	-3.2333	-2.9708	-2.7396	-3.2792	-2.6729	-3.0958	-3.0729	-2.5812	-3.4667	-2.7687	-2.7333	-3.4042	-2.5479	-3.1833	-8.906	128.964	-83.201	167.882	-114.697	182.049	159.196	-133.812	186.985	30.065	39.397	199.680	-103.839	-31.692	144.490	-122.855	0.00041913	0.00054765	0.00010735	1422.2	4.9921e-06	6.4656e-06	1423.1	386.44	4.1267e-06	4.2733e-06	442.45	144.47	126.55	42.991	6.0819e-06	53.177	0.00082816	0.00091699	0.00025545	1449.4	9.9531e-06	1.0039e-05	1453.5	397.11	9.807e-06	1.0055e-05	453.09	149.26	130.58	44.534	9.9617e-06	55.048	-83.700	-35.169	-72.418	-127.309	29.816	8.373	-127.545	-122.791	-19.129	-40.135	-123.441	-119.074	-118.259	-113.765	3.210	-114.598	-8191	255	
45994.918	1	1	0	0	0.15025	0.17269	0.2154	0.27899	0.024271	0.17855	0.11793	0.22828	0.21779	0.062927	0.17395	0.043491	0.17991	0.31508	0.3009	0.22886	-2.7792	-2.3854	-2.9583	-2.85	-2.4604	-3.3708	-2.8563	-2.9562	-3.1375	-2.4458	-3.3708	-3.0667	-2.8021	-3.6042	-2.525	-2.8729	64.266	18.731	31.060	202.656	173.283	128.381	157.845	-90.662	-46.692	109.006	160.096	-114.968	-135.200	-124.781	68.389	-134.905	0.00037459	0.00029115	0.00018451	1421	7.1223e-06	5.9831e-06	1429.3	387.73	5.8237e-06	5.4943e-06	441.47	144.91	126.85	42.849	8.8705e-06	52.958	0.00083538	0.00091536	0.00025015	1449.4	9.8015e-06	9.8193e-06	1456.3	396.95	9.8156e-06	1.0105e-05	453	149.21	130.64	44.481	9.9697e-06	54.931	-85.926	-61.139	-16.704	-127.393	8.060	17.552	-127.346	-122.685	-24.610	38.706	-123.057	-118.929	-118.221	-113.723	-0.635	-114.484	-8191	255	
45995.039	1	1	0	0	0.12793	0.15781	0.30497	0.34237	0.26533	0.071976	0.24689	0.17875	0.25824	0.17023	0.34047	0.19706	0.18534	0.26562	0.18872	0.070088	-2.8958	-2.4708	-3.3542	-3.025	-2.3625	-3.4542	-2.8708	-2.8542	-3.2167	-2.5333	-3.2417	-3.2229	-2.7146	-3.3917	-2.6125	-2.6562	130.354	211.008	156.255	182.701	150.439	209.331	145.744	195.926	166.652	169.026	-130.124	209.910	216.636	132.155	14.964	191.861	0.00043426	0.00050497	0.00024818	1418.6	7.191e-06	7.0801e-06	1424.9	387.62	3.7733e-06	4.5772e-06	440.34	144.19	126.53	42.969	3.3534e-06	53.169	0.00083286	0.00092165	0.00025696	1448.8	1.0019e-05	1.0168e-05	1454.7	397.67	9.8234e-06	1.008e-05	452.75	149.09	130.69	44.588	9.9783e-06	55.016	-83.300	-62.353	-42.557	-127.315	-2.273	42.045	-127.456	-122.750	-19.718	1.766	-123.365	-118.899	-118.421	-113.921	-35.833	-114.566	-8191	255	
45995.133	1	1	0	0	0.091031	0.1488	0.14744	0.44062	0.11467	0.19065	0.34653	0.35871	0.060953	0.21332	0.18352	0.093598	0.29598	0.34256	0.14639	0.26315	-3.0542	-2.5208	-3.0563	-3.2729	-2.4896	-3.2583	-2.9604	-2.6604	-3.2458	-2.7167	-3.125	-3.2562	-2.4521	-3.2687	-2.9	-2.5187	-61.051	5.028	180.699	145.986	160.820	73.949	155.559	154.142	175.727	106.326	139.825	103.650	-135.608	207.407	188.572	183.947	0.00033701	0.00068965	0.00019656	1425.1	5.812e-06	6.645e-06	1424.6	388.94	4.7416e-06	5.2715e-06	441.98	144.51	126.36	42.951	4.9215e-06	52.903	0.00082464	0.00090954	0.00025065	1450.6	9.9487e-06	9.9503e-06	1453.9	397.79	9.6796e-06	9.9255e-06	453.42	149.41	130.59	44.486	9.8424e-06	54.899	-89.256	-21.012	-45.301	-127.583	31.466	13.457	-127.406	-122.776	-15.031	19.059	-123.232	-118.734	-118.357	-113.927	27.714	-114.322	-8191	255	
45995.230	1	1	0	0	0.22439	0.1173	0.098105	0.17292	0.21672	0.099561	0.050697	0.24721	0.060152	0.11056	0.074512	0.093716	0.2463	0.11633	0.10998	0.13134	-3.0938	-2.6458	-2.8187	-3.2604	-2.3937	-3.1625	-3.1125	-2.6271	-3.3729	-2.5625	-2.7333	-3.2896	-2.5875	-3.1167	-3.0104	-2.6813	112.561	71.286	163.821	-133.813	-61.255	-25.527	-81.431	123.438	-48.551	32.936	194.439	-86.122	215.129	-121.951	41.190	69.905	0.00038389	0.000347	0.00013699	1422.7	2.851e-06	4.293e-06	1415.1	386.45	4.8416e-06	7.0176e-06	440.6	144.08	126.28	42.752	4.9871e-06	53.063	0.00082477	0.00090964	0.00025782	1449.5	1e-05	1.0167e-05	1451.5	396.91	9.9531e-06	9.9795e-06	452.68	148.92	130.44	44.42	1e-05	55.015	-86.109	-50.017	-40.312	-127.378	33.775	54.979	-127.314	-122.695	-7.078	10.012	-123.106	-119.042	-118.513	-113.871	9.983	-114.399	-8191	255	
45995.328	1	1	0	0	0.35198	0.16326	0.040597	0.25764	0.24137	0.082912	0.42668	0.13124	0.12994	0.10313	0.31957	0.36243	0.23318	0.09065	0.096845	0.22547	-3.0625	-2.65	-2.875	-3.525	-2.475	-3.0792	-3.2438	-2.7438	-3.325	-2.6875	-2.9	-3.4146	-2.5521	-3.125	-2.975	-2.5229	22.975	-36.835	114.542	217.043	-104.906	85.312	146.645	180.408	200.373	59.120	201.632	186.374	183.087	209.912	-2.006	-134.988	0.00038302	0.00029692	0.00012107	1419.1	5.7091e-06	4.334e-06	1420	386.43	3.1567e-06	4.6958e-06	440.29	143.8	125.67	43.046	6.9519e-06	53.231	0.00081991	0.00091264	0.00025354	1449	9.8762e-06	9.889e-06	1451.9	396.86	9.7702e-06	9.9993e-06	452.58	148.83	130.25	44.51	9.739e-06	55.03	-81.792	-79.093	-70.042	-127.306	4.051	11.882	-127.448	-122.864	21.173	37.515	-123.111	-118.832	-118.483	-113.621	-6.524	-114.326	-8191	255	
45995.422	1	1	0	0	0.43695	0.25109	0.086335	0.4189	0.11441	0.21917	0.26637	0.31953	0.16548	0.076156	0.28272	0.12056	0.21629	0.18078	0.15927	0.24347	-2.8458	-2.6875	-2.4938	-3.5292	-2.3833	-3.0458	-3.5104	-2.4604	-3.2167	-2.7375	-2.7146	-3.5208	-2.6271	-2.9333	-3.1458	-2.3375	116.125	56.964	209.910	199.947	37.836	-24.132	-136.325	188.269	-106.193	104.122	167.652	49.852	198.615	179.245	-131.117	3.217	0.00037506	0.00083456	8.953e-05	1416.9	4.1724e-06	6.771e-06	1425.6	384.8	4.1155e-06	4.4244e-06	439.88	144.13	125.74	42.815	6.9617e-06	52.827	0.00082278	0.00092277	0.00025807	1446.6	9.8215e-06	9.891e-06	1453.7	396.24	9.9812e-06	9.9229e-06	452.11	149.06	130.26	44.453	9.8306e-06	54.821	-82.607	-58.313	-38.859	-127.354	15.379	2.223	-127.243	-122.686	16.267	23.388	-123.162	-118.947	-118.193	-113.745	21.862	-114.519	-8191	255	
45995.520	1	1	0	0	0.17733	0.28015	0.22709	0.15183	0.20937	0.10511	0.25196	0.074297	0.11196	0.10517	0.17298	0.090263	0.083633	0.21311	0.17037	0.049876	-2.7521	-2.6479	-2.5708	-3.4396	-2.5312	-2.875	-3.4396	-2.5333	-3.1437	-2.9313	-2.6688	-3.4708	-2.6562	-2.8479	-3.2208	-2.6521	-117.434	-109.950	-39.695	57.871	76.201	-66.559	-43.693	73.452	-30.187	184.549	78.212	42.162	91.505	-100.577	-21.191	-133.286	0.00039452	0.00035497	0.00015652	1419.3	3.3498e-06	5.5614e-06	1417.3	386.19	3.633e-06	2.5589e-06	440.94	143.83	125.73	42.77	6.7042e-06	52.828	0.00081082	0.00090029	0.00025337	1447.7	9.7137e-06	1.0045e-05	1451.1	396.4	9.7039e-06	9.8446e-06	451.9	149.01	130.3	44.44	9.8023e-06	54.936	-81.680	-57.158	-38.648	-127.286	23.990	29.247	-127.355	-122.820	31.139	9.008	-123.138	-118.722	-118.423	-113.753	9.590	-114.438	-8191	255	
45995.641	1	1	0	0	0.14634	0.27716	0.056768	0.11225	0.14715	0.20036	0.19149	0.25902	0.10521	0.097351	0.15868	0.28723	0.17564	0.22765	0.33354	0.084277	-2.6854	-3.0625	-2.5625	-3.4313	-2.6854	-2.7208	-3.4354	-2.5292	-3.1417	-3.1292	-2.6479	-3.2479	-2.6917	-2.7896	-3.3292	-2.6167	193.981	-106.231	182.145	161.360	176.869	92.056	137.734	105.423	198.118	-22.644	163.926	168.049	197.042	73.357	187.428	164.036	0.00036376	0.00082426	0.00024772	1418.1	6.2249e-06	5.2215e-06	1424	385.78	4.8285e-06	6.2258e-06	439.65	143.51	126.45	42.746	7.0016e-06	53.059	0.00080664	0.00090407	0.00025374	1447.5	9.7909e-06	1.0035e-05	1452.5	395.66	9.8437e-06	9.7663e-06	452.03	148.92	130.48	44.455	9.712e-06	54.91	-81.937	-12.447	-41.882	-127.271	-49.540	-22.191	-127.548	-122.605	-13.913	5.223	-123.238	-118.767	-118.458	-113.792	-14.828	-114.441	-8191	255	
45995.734	1	1	0	0	0.26607	0.41267	0.2375	0.22828	0.13353	0.17206	0.38053	0.20878	0.05881	0.25835	0.26021	0.08564	0.18281	0.18335	0.21517	0.020004	-2.625	-3.1583	-2.3812	-3.2604	-2.9229	-2.6354	-3.5104	-2.7229	-2.9771	-3.0729	-2.5354	-3.2521	-2.8854	-2.6417	-3.3187	-2.5833	-102.293	16.661	-125.555	192.754	65.356	-104.619	164.560	-140.148	-44.560	116.823	143.150	-62.457	181.541	-124.450	190.740	203.423	0.0003929	0.00072318	0.00020541	1414.1	7.4744e-06	1.2778e-06	1418.7	385.94	4.4682e-06	4.7054e-06	439.86	143.58	125.87	42.968	3.7568e-06	53.151	0.00081412	0.00089749	0.0002529	1445.2	9.6358e-06	9.6372e-06	1449.8	396.11	9.6705e-06	9.7486e-06	451.71	148.83	130.22	44.404	9.7065e-06	54.887	-82.419	-42.418	-38.826	-127.174	-15.632	9.872	-127.407	-122.700	-9.143	61.653	-123.182	-118.867	-118.463	-113.608	30.783	-114.518	-8191	255	
45995.832	1	1	0	0	0.16153	0.079266	0.011862	0.36096	0.21274	0.18863	0.52265	0.15436	0.041906	0.16978	0.11798	0.22159	0.074018	0.099903	0.16513	0.22335	-2.4708	-3.1583	-2.4125	-3.4833	-3.1271	-2.4646	-3.5896	-2.8646	-2.7229	-3.3417	-2.5354	-2.9875	-3.2687	-2.5729	-3.1688	-2.8375	66.390	-87.849	152.097	152.689	2.012	-35.877	160.611	157.208	35.135	-71.328	-88.792	218.021	167.434	149.665	-111.879	145.324	0.00041424	0.00068352	0.00023587	1418.7	4.3797e-06	6.1788e-06	1422.2	385.65	3.4271e-06	5.6373e-06	439.89	143.63	126.43	42.632	7.1745e-06	53.014	0.0008013	0.0008851	0.00024657	1447.1	9.4061e-06	9.798e-06	1451.1	395.74	9.5326e-06	9.6139e-06	451.98	148.95	130.29	44.344	9.5262e-06	54.93	-80.015	-29.007	-22.204	-127.293	-2.639	8.410	-127.234	-122.727	-18.528	25.455	-123.112	-118.820	-118.560	-113.861	19.957	-114.493	-8191	255	
45995.902	1	1	0	0	0.11606	0.15666	0.24626	0.26397	0.15443	0.13724	0.26169	0.30331	0.18448	0.092058	0.10253	0.18744	0.14742	0.29599	0.069639	0.11617	-2.3083	-3.3563	-2.4729	-3.3458	-3.2125	-2.3771	-3.5917	-3.0708	-2.7354	-3.3688	-2.725	-3.1146	-3.4292	-2.5896	-3.3625	-3.0292	-9.497	167.487	57.564	201.877	136.720	170.463	193.929	173.599	-127.730	172.389	-109.570	174.786	169.521	218.368	-122.606	-77.850	0.0003725	0.00070714	0.00023531	1420.7	7.0497e-06	2.3984e-06	1421.1	386	5.8287e-06	5.3382e-06	439.5	144.16	125.32	42.789	4.3368e-06	53.035	0.00079369	0.00086257	0.00024583	1446.8	9.5132e-06	9.6362e-06	1451.2	396.03	9.5977e-06	9.7134e-06	451.03	148.77	130.18	44.423	9.66e-06	54.889	-86.733	-57.518	-42.061	-127.172	46.804	45.112	-127.411	-122.750	-11.427	10.499	-123.402	-118.724	-118.223	-113.840	24.084	-114.648	-8191	255	
45996.023	1	1	0	0	0.037131	0.17132	0.129	0.050565	0.14507	0.098102	0.26074	0.22364	0.20861	0.15122	0.11788	0.39325	0.1232	0.32071	0.16698	0.22675	-2.2792	-3.5396	-2.5729	-3.0125	-3.2917	-2.3771	-3.3833	-2.9542	-2.4875	-3.2292	-2.7979	-3.0042	-3.3333	-2.3937	-3.2646	-3.0708	218.904	-135.227	200.199	-88.706	51.069	85.746	41.613	175.576	90.294	-68.035	185.161	155.246	13.368	151.435	-93.772	-115.224	0.00037995	0.00067782	0.00019598	1415.7	4.675e-06	5.0657e-06	1425.1	385.16	2.1528e-06	5.1176e-06	441.23	144.24	126.09	42.874	5.6635e-06	52.757	0.00081063	0.00089615	0.00025133	1447.6	9.4317e-06	9.6969e-06	1453.6	396.38	9.6164e-06	9.705e-06	452.3	149.06	130.53	44.418	9.5855e-06	54.782	-84.255	-30.902	-48.094	-127.315	4.701	4.771	-127.425	-122.704	2.758	24.548	-123.213	-118.946	-118.283	-113.720	-5.868	-114.297	-8191	255	
45996.121	1	1	0	0	0.031241	0.19085	0.10088	0.14601	0.42212	0.24507	0.029876	0.088707	0.029688	0.14633	0.18658	0.11499	0.12917	0.089678	0.29877	0.0093089	-2.3167	-3.1937	-2.8083	-2.8917	-3.3521	-2.3479	-3.4125	-3.1729	-2.3979	-3.4437	-2.7938	-2.7708	-3.3104	-2.5104	-3.025	-3.2833	31.123	137.873	159.467	-113.199	180.326	39.475	-126.175	197.432	179.935	-37.118	116.864	165.834	-118.666	104.432	45.810	-38.069	0.00038398	0.00053018	0.00014921	1424.3	4.6308e-06	4.4403e-06	1421.5	386.79	8.6164e-06	5.6069e-06	440.15	143.83	126.35	42.922	9.207e-06	53.013	0.00080515	0.00088212	0.00024822	1448.2	9.5868e-06	9.7686e-06	1451.9	396.95	9.6786e-06	9.8957e-06	452.21	148.91	130.51	44.492	9.6979e-06	54.878	-86.155	-26.638	-56.510	-127.266	17.767	10.388	-127.327	-122.503	11.517	3.747	-122.987	-118.693	-118.418	-113.811	-22.654	-114.447	-8191	255	
45996.215	1	1	0	0	0.39229	0.029204	0.161	0.13166	0.18464	0.17546	0.34183	0.18544	0.21604	0.048999	0.061985	0.30386	0.043866	0.23569	0.18515	0.18846	-2.1542	-3.2625	-2.9104	-2.7292	-3.5021	-2.5958	-3.2646	-3.1021	-2.3604	-3.3354	-3.1042	-2.6229	-3.325	-2.7417	-2.7625	-3.3	-109.430	-123.409	156.155	-140.011	54.350	73.530	149.727	28.808	75.488	-10.169	82.179	109.646	158.920	-83.961	11.585	110.019	0.00040163	0.00073493	0.00017198	1417.4	7.5992e-06	5.3061e-06	1420.7	387.09	4.3291e-06	4.0426e-06	439.9	143.92	126.31	42.845	2.045e-06	52.934	0.00080915	0.00089943	0.00024889	1448.4	9.6155e-06	9.9299e-06	1452.5	396.71	9.7067e-06	9.8792e-06	452.68	149.16	130.54	44.437	9.8072e-06	54.987	-80.691	-37.742	-25.006	-127.209	22.930	25.547	-127.403	-122.848	-7.355	51.885	-123.383	-118.912	-118.472	-113.789	84.295	-114.680	-8191	255	
45996.312	1	1	0	0	0.076051	0.074142	0.15822	0.19864	0.26307	0.21494	0.19334	0.085552	0.14109	0.2333	0.37141	0.30905	0.10601	0.24593	0.18308	0.14281	-2.0771	-3.0646	-2.8729	-2.6917	-3.1896	-2.7438	-2.875	-3.4875	-2.4042	-3.3312	-3.1271	-2.725	-3.4313	-2.7938	-2.5583	-3.3104	-63.079	-77.215	52.386	176.897	4.002	28.048	107.353	95.022	119.955	45.650	190.879	209.627	154.140	207.666	199.275	-137.042	0.00039029	0.00062618	0.00016535	1424	4.9131e-06	6.3203e-06	1424.5	385.29	3.4302e-06	4.2759e-06	439.41	144	125.6	42.815	4.4342e-06	52.981	0.00082052	0.00090235	0.00024975	1449.7	9.7387e-06	1.0007e-05	1454.7	396.38	9.7726e-06	9.938e-06	452.33	149.23	130.42	44.485	9.7238e-06	55.053	-80.147	-92.973	-31.702	-127.251	9.901	9.051	-127.307	-122.849	-14.759	30.098	-123.369	-118.860	-118.315	-113.919	1.914	-114.424	-8191	255	
45996.430	1	1	0	0	0.10026	0.28733	0.15392	0.1783	0.17452	0.13345	0.40237	0.34003	0.1153	0.13908	0.21491	0.21195	0.28641	0.12809	0.11378	0.095764	-2.0167	-2.9896	-3.2	-2.7938	-3.4646	-2.7125	-2.9042	-3.4062	-2.4958	-3.0125	-3.3354	-2.5958	-3.3438	-2.8042	-2.65	-3.4333	186.574	-59.349	45.463	-126.223	-53.018	198.862	153.708	168.818	141.195	136.256	196.620	82.849	212.356	196.267	132.037	26.404	0.00039917	0.00055491	0.00013481	1419	5.9207e-06	7.0633e-06	1421.7	386.45	4.0948e-06	4.6284e-06	441.25	143.67	125.88	42.844	4.1493e-06	53.205	0.00082494	0.00090674	0.00024899	1449.5	9.6973e-06	9.8219e-06	1453.3	396.91	9.7704e-06	1.0033e-05	452.87	149.11	130.63	44.464	9.7486e-06	55.024	-87.004	-35.451	-23.372	-127.231	13.580	36.547	-127.461	-122.637	43.084	36.601	-123.192	-118.749	-118.017	-113.851	17.727	-114.516	-8191	255	
45996.504	1	1	0	0	0.1003	0.18481	0.23019	0.23185	0.21604	0.1456	0.1471	0.21561	0.045937	0.1524	0.15605	0.29185	0.14465	0.10847	0.12666	0.19471	-2.0771	-3.0292	-3.0896	-2.5021	-2.9646	-2.8458	-2.7708	-3.5312	-2.6562	-2.9958	-3.4271	-2.4437	-3.1146	-3.0646	-2.5417	-3.5104	86.137	102.563	210.570	208.623	7.037	93.762	22.177	-107.242	-77.425	-112.597	-139.889	158.627	19.257	116.871	89.176	198.945	0.00039562	0.00048352	0.00010011	1420	8.6776e-06	3.2255e-06	1420.6	387.52	5.249e-06	4.1885e-06	438.95	143.91	126.67	42.969	4.7211e-06	52.822	0.00083065	0.00090429	0.00025591	1448.8	9.7283e-06	9.7995e-06	1453.1	397.01	9.8595e-06	9.66e-06	452.43	149.33	130.64	44.535	9.662e-06	54.961	-76.925	-63.395	-23.242	-127.226	21.393	31.922	-127.237	-122.639	7.933	21.241	-123.122	-118.874	-118.435	-113.909	-12.380	-114.286	-8191	255	
45996.598	1	1	0	0	0.33145	0.069693	0.16062	0.2333	0.30394	0.13716	0.28899	0.1754	0.31078	0.29191	0.28801	0.021914	0.074838	0.10845	0.077375	0.096159	-2.3187	-2.6979	-3.3146	-2.4542	-3.1083	-3.1292	-2.6458	-3.5021	-2.7917	-2.7792	-3.3833	-2.5438	-3.1896	-3.225	-2.3	-3.4833	107.665	-119.916	-25.468	143.428	-82.821	-88.720	169.536	216.694	126.033	56.187	147.056	7.071	89.984	50.604	-23.531	129.105	0.00039976	0.00045161	0.00018699	1418	2.4247e-06	7.2728e-06	1420.5	386.11	2.7117e-06	6.115e-06	440.91	144.02	125.9	42.83	7.3385e-06	53.033	0.00080728	0.00088844	0.00024709	1446.7	9.4588e-06	9.768e-06	1452.2	396.91	9.4393e-06	9.7438e-06	451.9	149.18	130.5	44.459	9.5172e-06	54.954	-79.084	-66.363	-21.137	-127.360	41.754	12.946	-127.180	-122.802	14.439	5.860	-123.337	-118.749	-118.397	-113.697	-23.826	-114.427	-8191	255	
45996.719	1	1	0	0	0.20466	0.19028	0.18729	0.31996	0.21838	0.25746	0.1016	0.3536	0.16364	0.11505	0.32317	0.16965	0.095132	0.41204	0.01525	0.062813	-2.3896	-2.7646	-3.3063	-2.5854	-2.9271	-3.3	-2.6937	-3.3896	-2.8146	-2.7062	-3.5042	-2.575	-2.9521	-3.4396	-2.4062	-3.4104	-45.319	215.250	7.982	174.248	-48.054	147.048	135.789	175.935	155.419	180.522	121.799	167.969	52.681	156.896	70.476	102.091	0.00036783	0.00078968	0.00012226	1417.4	2.6933e-06	1.4462e-06	1417.4	385.1	4.2528e-06	3.7328e-06	438.74	143.75	125.6	42.917	4.1552e-06	53.034	0.00080582	0.00087869	0.00024292	1445.7	9.6587e-06	9.4988e-06	1449.9	396.11	9.4958e-06	9.6332e-06	450.58	148.87	130.29	44.428	9.4536e-06	54.882	-78.988	-54.263	-35.744	-127.569	10.089	17.244	-127.232	-122.591	12.290	30.411	-123.136	-118.558	-118.570	-113.653	18.525	-114.348	-8191	255	
45996.816	1	1	0	0	0.049614	0.11159	0.087818	0.28704	0.20605	0.14333	0.057763	0.11573	0.15503	0.35108	0.1748	0.044923	0.11294	0.062457	0.26802	0.059659	-2.6854	-2.5333	-3.3563	-2.8167	-2.9917	-3.2604	-2.5292	-3.5208	-3.0625	-2.4562	-3.5	-2.7854	-2.6979	-3.2917	-2.4208	-3.1063	-47.300	-93.502	168.258	213.487	184.817	-108.632	117.870	192.906	54.750	-112.010	-92.964	150.602	219.301	-59.225	-47.624	74.659	0.00037313	0.00033301	0.00026551	1413.5	4.9019e-06	5.9565e-06	1416.2	386	2.6689e-06	6.0517e-06	439.61	143.63	125.81	42.832	3.5856e-06	52.762	0.00078218	0.00087563	0.00023918	1442.8	9.3745e-06	9.6096e-06	1448	396.33	9.2534e-06	9.6587e-06	451.18	148.76	130.21	44.341	9.3379e-06	54.885	-85.402	-49.446	-44.772	-127.332	27.953	33.167	-127.130	-122.401	-44.869	12.464	-123.285	-118.804	-118.262	-113.759	-18.022	-114.568	-8191	255	
45996.910	1	1	0	0	0.082771	0.24588	0.13552	0.32338	0.17808	0.11638	0.21851	0.099763	0.062865	0.21682	0.18653	0.052612	0.080562	0.35835	0.11388	0.18321	-2.6979	-2.4021	-3.1792	-2.8667	-2.5958	-3.3792	-2.7583	-2.975	-3.0187	-2.6125	-3.1	-2.6771	-2.6083	-3.375	-2.4583	-3.0958	130.657	148.852	-47.059	149.948	162.371	92.166	80.418	-112.949	-2.373	69.709	161.356	67.345	175.093	203.417	-24.619	-139.646	0.0003825	0.00049596	0.00015159	1411.4	4.2986e-06	5.9591e-06	1417.4	384.91	4.7295e-06	5.2158e-06	440.01	143.53	125.54	42.653	4.4812e-06	52.882	0.00077827	0.0008615	0.0002388	1442.9	9.2497e-06	9.3649e-06	1446.9	395.66	9.1998e-06	9.4416e-06	451.37	148.62	130.12	44.332	9.349e-06	54.857	-77.921	-77.375	-33.181	-127.158	16.817	0.292	-127.280	-122.531	-11.185	-8.937	-123.019	-118.811	-118.275	-113.545	51.434	-114.340	-8191	255	
45997.031	1	1	0	0	0.19617	0.12526	0.057466	0.23643	0.055392	0.040959	0.084221	0.30294	0.081197	0.028807	0.25661	0.12816	0.16889	0.301	0.15571	0.16215	-2.7708	-2.2646	-3.1833	-3.1229	-2.5854	-3.4	-2.5271	-2.9146	-3.2583	-2.4771	-3.2979	-2.8937	-2.5375	-3.4062	-2.5104	-2.8271	-99.269	135.652	169.738	99.885	-35.265	133.787	86.225	145.309	176.208	41.428	131.485	-75.600	31.923	-59.339	53.669	61.104	0.00036334	0.00070341	0.00019427	1410.9	5.31e-06	6.0282e-06	1418.1	384.47	4.9692e-06	5.1488e-06	439.44	143.42	125.68	42.841	5.5785e-06	52.916	0.00078618	0.0008753	0.00024046	1441.3	9.3416e-06	9.4253e-06	1446.8	395.32	9.2139e-06	9.5036e-06	450.72	148.62	130.04	44.396	9.3642e-06	54.901	-84.746	-47.801	-22.722	-127.330	38.614	7.031	-127.290	-122.705	-0.367	3.213	-123.048	-118.874	-118.201	-113.623	65.961	-114.347	-8191	255	
45997.129	1	1	0	0	0.080287	0.11697	0.092406	0.26639	0.2132	0.099646	0.23566	0.26737	0.15981	0.11262	0.093695	0.072902	0.16069	0.092736	0.21331	0.18741	-2.8875	-2.4125	-3.125	-3.2542	-2.4042	-3.4562	-2.8833	-2.9958	-3.1188	-2.5333	-3.1729	-3.1813	-2.5208	-3.2458	-2.7521	-2.7292	66.641	-21.073	-62.594	115.866	213.402	171.525	141.813	214.089	209.643	214.253	188.143	-105.437	130.500	-83.058	163.342	154.877	0.0003215	0.00047324	0.00016806	1411.3	1.8924e-06	6.461e-06	1414.6	384.68	3.719e-06	5.9929e-06	438.04	143.21	125.79	42.738	4.0809e-06	52.811	0.00077435	0.00087145	0.00023786	1440.9	9.1631e-06	9.2449e-06	1446.9	395.35	9.204e-06	9.3007e-06	450.13	148.54	130.19	44.345	9.3546e-06	54.875	-81.092	-37.770	-32.301	-127.174	28.717	9.561	-127.209	-122.412	-6.171	-7.129	-123.093	-118.717	-118.291	-113.752	14.497	-114.280	-8191	255	
45997.199	1	1	0	0	0.1386	0.15726	0.17771	0.071894	0.30321	0.013572	0.087733	0.27162	0.12693	0.076034	0.13114	0.21387	0.27101	0.18768	0.15088	0.12138	-2.7875	-2.425	-3.0208	-3.2812	-2.4625	-3.075	-2.7938	-2.7604	-3.1042	-2.6063	-3.025	-3.2583	-2.5187	-3.2896	-2.9292	-2.7542	-115.370	-121.239	68.036	189.925	155.265	-22.932	94.930	194.313	92.134	-140.177	-138.719	-50.244	158.245	209.989	-76.724	10.576	0.00036712	0.0009019	0.00025486	1413.4	4.509e-06	7.2118e-06	1416.8	384.16	2.9556e-07	6.4921e-06	439.05	143.13	125.78	42.813	7.6626e-06	52.748	0.00077707	0.00085063	0.00023793	1442.2	9.2358e-06	9.2634e-06	1448.2	394.94	9.1632e-06	9.435e-06	451.29	148.63	130.12	44.41	9.2021e-06	54.817	-85.829	-49.612	-42.345	-127.301	17.214	2.468	-127.307	-122.630	17.560	-5.695	-123.052	-118.590	-118.056	-113.771	-10.188	-114.598	-8191	255	
45997.320	1	1	0	0	0.11598	0.27093	0.090482	0.10918	0.18213	0.13957	0.082511	0.098837	0.13418	0.096334	0.1986	0.31943	0.17045	0.1598	0.12491	0.24839	-3.1521	-2.3583	-2.8417	-3.3021	-2.5271	-3.2542	-3.0687	-2.6771	-3.4021	-2.6646	-2.8875	-3.4521	-2.4875	-3.1813	-2.9313	-2.6188	160.196	-78.930	116.774	182.646	204.480	168.584	133.685	95.442	96.044	-129.747	-126.700	200.063	130.276	-100.174	-89.277	189.674	0.00040157	0.00060887	0.00019242	1413.9	6.7285e-06	9.5023e-06	1415.5	384.81	4.1434e-06	5.594e-06	439.28	143.53	125.73	42.767	5.2068e-06	52.859	0.00077521	0.00086331	0.00023424	1441.8	9.2107e-06	9.3e-06	1447.5	395.18	9.1687e-06	9.3499e-06	450.78	148.74	129.99	44.428	9.2725e-06	54.887	-83.779	-36.130	-59.205	-127.228	26.653	13.572	-127.247	-122.613	9.665	-8.652	-122.898	-118.811	-118.114	-113.914	23.094	-114.445	-8191	255	
45997.414	1	1	0	0	0.22021	0.12961	0.14328	0.19723	0.062709	0.16078	0.23926	0.20024	0.23923	0.052078	0.10094	0.011975	0.20422	0.33746	0.20213	0.11384	-2.9562	-2.7625	-2.6188	-3.3563	-2.3833	-2.9792	-3.0833	-2.5792	-3.2625	-2.6937	-2.6167	-3.4833	-2.5958	-3.2292	-3.3604	-2.5708	70.211	-1.353	195.532	169.847	75.616	-35.930	183.605	-115.206	153.195	-137.296	-140.460	177.566	197.534	196.255	21.171	119.371	0.00038894	0.00040919	0.00019249	1417.2	4.3616e-06	3.4035e-06	1414.6	384.57	3.3064e-06	3.1449e-06	440.57	143.37	125.61	42.854	6.344e-06	52.622	0.0007696	0.00084962	0.00023693	1445.4	9.182e-06	9.2807e-06	1447.3	395.41	9.2351e-06	9.4985e-06	451.15	148.71	130.21	44.418	9.2956e-06	54.795	-82.387	-32.276	-61.131	-127.192	32.893	46.746	-127.066	-122.544	13.464	-15.392	-123.149	-118.709	-118.406	-113.727	17.415	-114.604	-8191	255	
45997.512	1	1	0	0	0.050851	0.11915	0.20178	0.12147	0.23383	0.061992	0.20114	0.099418	0.21537	0.096876	0.16888	0.18462	0.05892	0.12267	0.099944	0.20024	-2.8063	-2.7625	-2.6583	-3.3417	-2.6042	-3.1167	-3.4833	-2.6083	-3.0979	-2.8229	-2.725	-3.4125	-2.725	-2.8729	-3.2854	-2.4479	200.161	213.375	13.550	191.975	38.581	145.212	-127.349	-37.107	-125.174	111.447	75.319	177.698	-80.583	50.281	29.789	200.316	0.00036525	0.00047597	0.00011633	1408.6	3.007e-06	4.7984e-06	1417.7	384.68	4.7006e-06	6.4694e-06	437.7	142.94	125.37	42.789	5.9789e-06	52.837	0.00077181	0.00085059	0.00023977	1442.3	9.1186e-06	9.4493e-06	1446.6	395.32	9.3382e-06	9.2908e-06	450.83	148.64	130.08	44.465	9.3016e-06	54.823	-84.317	-17.314	-35.789	-127.219	9.680	0.067	-127.398	-122.709	0.422	11.165	-123.061	-118.929	-118.263	-113.963	21.121	-114.658	-8191	255	
45997.609	1	1	0	0	0.1662	0.13881	0.079913	0.16148	0.10797	0.16685	0.26787	0.22368	0.17641	0.041907	0.15775	0.072185	0.18016	0.12455	0.094705	0.066605	-2.6583	-2.8417	-2.4292	-3.3063	-2.7333	-2.8688	-3.5417	-2.6167	-3.2125	-3.0187	-2.5979	-3.3312	-2.7938	-2.7292	-3.3729	-2.7229	-140.715	118.783	64.613	137.495	-131.705	155.920	-116.841	130.835	20.986	-51.110	-132.041	206.140	210.565	182.611	73.014	-120.927	0.00038804	0.00058055	0.00011788	1411.8	3.1117e-06	3.8486e-06	1414.6	384.98	6.5483e-06	5.9369e-06	438.41	142.77	125.73	42.738	5.7877e-06	52.681	0.00077892	0.00086211	0.00024043	1442.9	9.3307e-06	9.4697e-06	1446.8	395.01	9.1473e-06	9.3213e-06	450.51	148.52	130.12	44.31	9.3041e-06	54.819	-80.153	-53.979	-41.524	-127.112	18.348	0.332	-127.436	-122.735	-14.843	37.413	-123.074	-118.800	-118.331	-113.705	30.699	-114.295	-8191	255	
45997.730	1	1	0	0	0.20333	0.12866	0.15181	0.20595	0.26903	0.023209	0.3694	0.14385	0.040264	0.092631	0.17366	0.16591	0.17117	0.24277	0.081993	0.20346	-2.6312	-3.225	-2.3312	-3.3167	-2.5292	-2.8438	-3.5042	-2.7792	-2.9083	-3.1042	-2.6792	-3.2979	-2.975	-2.6813	-3.1729	-2.4833	-36.114	65.742	-66.365	141.650	-2.208	8.125	191.186	114.252	125.320	1.393	207.830	202.833	174.568	-123.172	-98.760	196.132	0.00037353	0.00037278	0.0002135	1409.9	7.9859e-06	3.4295e-06	1410.5	383.54	6.3523e-06	3.9994e-06	437.91	143.11	125.25	42.69	5.854e-06	52.736	0.00076939	0.00085044	0.00023804	1441.2	9.3265e-06	9.4248e-06	1445.2	394.55	9.3042e-06	9.2579e-06	450.91	148.33	129.79	44.386	9.2293e-06	54.822	-79.988	-16.443	-47.920	-127.193	-16.018	-4.787	-127.206	-122.634	-2.259	11.081	-123.104	-118.702	-118.203	-113.695	19.555	-114.212	-8191	255	
45997.801	1	1	0	0	0.15358	0.098128	0.20519	0.018284	0.21794	0.10213	0.30806	0.23715	0.10421	0.26384	0.12074	0.10227	0.13334	0.10465	0.17519	0.16427	-2.6375	-3.1208	-2.3521	-3.4375	-2.8063	-2.5375	-3.5583	-2.5958	-2.7854	-3.2833	-2.5833	-3.2792	-3.0875	-2.6125	-3.4896	-2.55	211.656	-137.470	53.071	-81.564	-18.326	-37.507	152.743	139.935	-77.195	154.729	217.364	202.940	-126.492	195.474	-114.741	137.089	0.00041257	0.00041823	0.00013556	1405.7	7.9086e-06	5.3816e-06	1415.4	383.92	3.4019e-06	4.8408e-06	436.4	143.65	125.26	42.731	3.664e-06	52.691	0.00077607	0.00084563	0.00023972	1439	9.2422e-06	9.2669e-06	1446.9	394.66	9.1251e-06	9.2347e-06	449.92	148.74	129.8	44.33	9.2147e-06	54.751	-83.589	-33.571	-29.388	-127.112	17.809	23.532	-127.260	-122.420	14.845	-24.852	-122.782	-118.521	-118.184	-113.401	-6.879	-114.458	-8191	255	
45997.895	1	1	0	0	0.36892	0.27539	0.1105	0.3363	0.11372	0.13084	0.16357	0.30266	0.13074	0.21307	0.032022	0.14043	0.13119	0.1828	0.046697	0.24156	-2.5229	-3.2646	-2.2771	-3.4708	-3.1375	-2.575	-3.45	-2.8333	-2.6083	-3.2562	-2.4229	-2.9896	-3.1167	-2.4625	-3.2667	-2.6729	-108.855	-23.743	-96.241	170.873	159.663	177.916	210.806	139.424	-4.533	55.331	-66.275	-97.799	-137.893	152.572	79.031	89.053	0.00040823	0.00075749	0.00014781	1409.5	4.1111e-06	5.5999e-06	1409.4	383.09	2.5965e-06	4.9133e-06	434.77	143.13	125.49	42.551	2.0022e-06	52.832	0.00077604	0.00085712	0.00024124	1440.3	9.1622e-06	9.5221e-06	1445.2	394.11	9.2085e-06	9.2008e-06	449.35	148.47	129.73	44.274	9.235e-06	54.835	-78.321	-54.346	-78.330	-127.082	-16.153	18.040	-127.193	-122.478	10.672	-20.315	-123.098	-118.850	-118.352	-113.717	13.341	-114.242	-8191	255	
45997.992	1	1	0	0	0.096369	0.14816	0.2561	0.26877	0.083482	0.11005	0.1958	0.11032	0.15351	0.21179	0.068415	0.14935	0.26125	0.33552	0.16883	0.03546	-2.2333	-3.2667	-2.3417	-3.1958	-3.2604	-2.3271	-3.4437	-3.0458	-2.6333	-3.2958	-2.7417	-2.8688	-3.3729	-2.5062	-3.1937	-2.9188	161.472	141.775	9.428	185.678	-32.023	202.333	153.770	-66.863	-72.180	-61.908	170.781	144.538	192.984	174.299	-1.659	-69.194	0.00038688	0.00047661	7.8433e-05	1406	6.7448e-06	3.6844e-06	1414.6	383.52	3.9111e-06	5.2852e-06	437.01	142.81	124.56	42.507	3.4504e-06	52.763	0.00077825	0.00086557	0.00023884	1438.7	9.2763e-06	9.3953e-06	1444.8	394.09	9.2797e-06	9.3554e-06	449.54	148.4	129.67	44.262	9.2735e-06	54.781	-79.094	-39.185	-116.859	-126.973	34.745	-11.202	-127.384	-122.645	29.176	15.122	-123.046	-118.570	-118.316	-113.683	-14.185	-114.367	-8191	255	
45998.113	1	1	0	0	0.2101	0.16497	0.20987	0.03567	0.056923	0.23754	0.16091	0.21461	0.061343	0.085569	0.14442	0.25909	0.043564	0.095716	0.26788	0.020304	-2.1104	-3.2792	-2.6167	-2.8438	-3.1562	-2.4979	-3.2625	-2.9771	-2.4521	-3.2271	-2.7812	-2.9083	-3.2792	-2.5417	-3.1625	-3.1	-131.587	-138.572	-7.419	208.535	164.696	-68.558	101.828	143.019	-102.595	104.105	92.959	192.574	135.284	46.742	66.519	-121.414	0.00039548	0.00078998	0.00019757	1406	6.7929e-06	7.2971e-06	1413.4	381.94	4.6178e-06	5.7454e-06	435.94	143.12	125.04	42.596	3.8774e-06	52.73	0.0007739	0.00084445	0.0002363	1438.1	9.2458e-06	9.3842e-06	1445	393.65	9.1239e-06	9.3661e-06	449.51	148.56	129.64	44.312	9.1385e-06	54.725	-74.182	-48.686	-36.686	-127.032	19.373	-23.456	-127.096	-122.671	40.491	23.346	-122.894	-118.576	-118.196	-113.667	4.725	-114.229	-8191	255	
45998.207	1	1	0	0	0.23378	0.089634	0.039205	0.18879	0.10152	0.21707	0.10348	0.10997	0.24683	0.047227	0.2031	0.26057	0.070561	0.075553	0.15597	0.12249	-2.0604	-3.2729	-2.6896	-2.9896	-3.2375	-2.3854	-3.3292	-3.1333	-2.4938	-3.1437	-2.975	-2.8187	-3.3896	-2.675	-2.6854	-3.2125	-135.370	72.363	208.911	188.726	-26.968	-95.330	-107.091	180.375	-88.639	107.249	177.324	180.488	41.164	153.054	-100.267	93.519	0.00040235	0.00071429	0.00020955	1407	5.108e-06	6.4838e-06	1410.8	381.76	3.3502e-06	5.9014e-06	437.4	143.09	124.83	42.622	5.2629e-06	52.484	0.00077935	0.00085254	0.00023579	1438.3	9.1704e-06	9.302e-06	1444.4	393.73	9.0785e-06	9.3711e-06	449	148.45	129.68	44.317	9.294e-06	54.729	-79.693	-57.771	-30.532	-126.973	18.357	25.023	-127.248	-122.436	-55.262	11.254	-123.433	-118.527	-118.357	-113.665	-2.713	-114.246	-8191	255	
45998.305	1	1	0	0	0.13782	0.13521	0.23733	0.25681	0.17604	0.045077	0.15913	0.093939	0.16742	0.21397	0.30999	0.046382	0.23842	0.46864	0.06929	0.087548	-2.1437	-3.2729	-3.0021	-2.7146	-3.3083	-2.6208	-3.0875	-3.3625	-2.4354	-3.1458	-2.9875	-2.7917	-3.375	-2.675	-2.8875	-3.3375	146.720	92.128	118.240	202.782	-136.526	11.700	166.674	-92.490	66.783	53.953	202.112	86.297	199.150	116.944	187.316	-62.101	0.00037341	0.00053397	0.00015327	1404.7	6.7243e-06	6.9223e-06	1408.4	383.27	6.0357e-06	4.7781e-06	436.45	142.89	125.54	42.504	4.6789e-06	52.686	0.00076878	0.00084868	0.00023127	1438	9.0623e-06	9.3291e-06	1444	393.78	9.301e-06	9.2469e-06	449.18	148.43	129.93	44.271	9.145e-06	54.785	-84.677	-56.593	-68.299	-126.965	9.546	-4.747	-127.214	-122.627	33.498	53.073	-123.068	-118.445	-118.191	-113.641	0.488	-114.278	-8191	255	
45998.402	1	1	0	0	0.0793	0.083984	0.1321	0.35693	0.19791	0.1676	0.093578	0.21932	0.16432	0.27917	0.15245	0.16516	0.18162	0.083908	0.19287	0.3279	-2.0771	-3.0875	-2.9167	-2.5938	-3.1917	-2.8063	-2.9833	-3.4958	-2.3583	-3.15	-3.1021	-2.5917	-3.2583	-2.8104	-2.6208	-3.3187	85.579	138.843	83.649	145.942	-137.870	190.398	175.083	-129.911	2.781	142.040	150.933	-88.728	156.867	67.604	180.808	161.877	0.00039193	0.00064538	5.2766e-05	1404.2	6.0235e-06	3.6653e-06	1408.2	382.37	4.6047e-06	5.4026e-06	435.94	143.01	125.31	42.653	5.6507e-06	52.67	0.00076448	0.00084674	0.00023507	1438.4	9.0704e-06	9.2092e-06	1445.3	393.75	9.157e-06	9.2332e-06	449.52	148.5	129.99	44.257	9.0151e-06	54.758	-90.789	-54.023	-39.235	-127.085	43.778	12.107	-127.010	-122.676	-15.272	24.841	-123.268	-118.461	-118.096	-113.538	-26.513	-114.348	-8191	255	
45998.496	1	1	0	0	0.26734	0.16418	0.063669	0.15596	0.10228	0.38372	0.16977	0.07778	0.18463	0.19745	0.10504	0.23089	0.092326	0.3844	0.14307	0.21961	-2.2604	-2.9458	-3.0396	-2.7646	-3.3646	-2.8625	-2.8917	-3.4708	-2.525	-3.0687	-3.4625	-2.3375	-3.3625	-3.0229	-2.3792	-3.3729	-49.771	-50.034	20.711	-125.770	59.368	82.609	200.642	-98.629	-60.508	-122.899	94.418	165.810	153.986	-97.837	82.547	-67.680	0.00037004	0.00066847	0.00016532	1400	6.6319e-06	6.7089e-06	1414	383.34	1.9373e-06	4.9946e-06	436.36	142.98	125.09	42.74	3.9003e-06	52.576	0.00076491	0.00083185	0.00023393	1436.2	9.055e-06	9.2771e-06	1445.1	394.51	9.0492e-06	9.1525e-06	449.33	148.51	129.86	44.378	9.0839e-06	54.759	-82.601	-68.969	-31.659	-127.042	25.609	-14.330	-127.156	-122.529	84.962	3.105	-123.030	-118.628	-118.405	-113.861	5.702	-114.265	-8191	255	
45998.594	1	1	0	0	0.19776	0.25544	0.17649	0.31619	0.097817	0.15832	0.18494	0.039004	0.17008	0.17589	0.13521	0.24287	0.035913	0.2002	0.11127	0.15271	-2.2271	-2.6479	-3.3792	-2.6958	-3.1854	-3.0854	-2.6125	-3.5	-2.7396	-2.9104	-3.2875	-2.5458	-3.2708	-3.2167	-2.3542	-3.4083	-137.774	36.309	2.811	191.156	-9.467	16.619	195.932	-58.761	209.952	44.545	-134.972	-82.341	214.686	143.406	-109.186	167.066	0.00041486	0.00037621	0.00015233	1407.5	4.9015e-06	3.0265e-06	1407.1	382.25	2.5214e-06	4.066e-06	437.77	142.96	125.43	42.716	6.1005e-06	52.534	0.00076555	0.00084746	0.00023092	1438.1	9.0337e-06	9.2112e-06	1444.7	393.97	9.0239e-06	9.1177e-06	449.6	148.72	130.04	44.385	8.9563e-06	54.793	-87.183	-21.078	-42.494	-127.154	13.266	22.194	-127.128	-122.565	-75.352	42.720	-123.231	-118.657	-118.082	-113.724	33.476	-114.178	-8191	255	
45998.715	1	1	0	0	0.21355	0.17571	0.13679	0.057381	0.11736	0.15558	0.12734	0.25471	0.12626	0.016651	0.076463	0.08441	0.15244	0.11895	0.089001	0.51945	-2.4167	-2.6729	-3.1229	-2.6688	-3.2729	-3.2708	-2.575	-3.5646	-2.5583	-2.4625	-3.4104	-2.7521	-3.0542	-3.3146	-2.4208	-3.2917	182.699	-49.814	37.879	158.609	20.143	187.849	-12.342	-52.540	22.335	14.678	-50.018	-63.908	171.238	-92.237	-120.765	123.193	0.00038533	0.00053068	9.7258e-05	1404.8	6.1326e-06	6.7385e-06	1408.7	382.25	6.5328e-06	5.0554e-06	437.64	143.03	125.07	42.615	5.092e-06	52.701	0.00074717	0.00081355	0.00022388	1438	8.7636e-06	8.8582e-06	1442.5	393.82	8.7874e-06	8.974e-06	449.16	148.43	129.73	44.288	8.9809e-06	54.748	-82.484	-78.022	-17.551	-127.139	45.580	4.601	-127.145	-122.450	27.789	44.219	-122.958	-118.849	-117.933	-113.580	27.398	-114.255	-8191	255	
45998.809	1	1	0	0	0.14044	0.23864	0.25188	0.12972	0.17264	0.17816	0.18139	0.25159	0.28497	0.19604	0.20114	0.33846	0.15461	0.28796	0.16139	0.17524	-2.3563	-2.4917	-3.3917	-2.5062	-2.8458	-3.1833	-2.6354	-3.3229	-2.8583	-2.5271	-3.4125	-2.5396	-2.7896	-3.2313	-2.5563	-3.3167	58.035	50.219	35.748	90.888	4.023	182.768	191.781	-133.270	162.467	183.743	194.095	204.628	-127.425	153.005	139.251	98.942	0.00038491	0.00070792	0.00022494	1397.7	4.7569e-06	7.9035e-06	1408.1	383.18	1.436e-06	6.1303e-06	436.61	142.3	125.32	42.749	5.05e-06	52.636	0.00074722	0.00082452	0.00022819	1434.5	8.8237e-06	8.7656e-06	1442.1	393.78	8.8814e-06	8.7974e-06	449.41	148.32	129.74	44.408	8.7665e-06	54.695	-80.709	-58.098	-27.213	-126.937	14.654	24.252	-126.970	-122.383	-47.135	15.415	-123.014	-118.703	-118.270	-113.738	12.769	-114.182	-8191	255	
45998.906	1	1	0	0	0.020586	0.065761	0.24256	0.54359	0.11019	0.11986	0.39202	0.32694	0.30557	0.042141	0.089155	0.40649	0.23848	0.07466	0.14423	0.10817	-2.5667	-2.5021	-3.325	-2.6562	-2.9083	-3.3625	-2.7125	-3.1937	-2.95	-2.5417	-3.4667	-2.7708	-2.8542	-3.3	-2.5167	-3.1188	83.266	53.845	105.748	208.445	11.860	13.749	108.868	-104.675	-70.712	120.871	109.853	150.077	-136.238	67.472	-50.335	-123.530	0.00039104	0.00050631	0.00017364	1400.5	6.3652e-06	6.6941e-06	1406.7	381.83	4.2201e-06	6.7938e-06	436.04	143.02	125.06	42.635	2.6958e-06	52.576	0.00073579	0.00080668	0.00022751	1435.4	8.7172e-06	8.8394e-06	1440.9	393.67	8.8136e-06	8.8255e-06	448.39	148.3	129.64	44.291	8.8315e-06	54.685	-73.642	-53.153	-61.347	-127.162	27.793	50.172	-127.068	-122.557	20.216	43.880	-122.961	-118.778	-118.025	-113.503	68.660	-114.287	-8191	255	
45999.000	1	1	0	0	0.23319	0.064353	0.057729	0.29055	0.35119	0.17821	0.11187	0.11666	0.11343	0.10848	0.032462	0.06234	0.063785	0.26476	0.067755	0.22448	-2.7313	-2.4437	-3.2062	-2.9938	-2.5292	-3.2104	-2.5812	-3.0896	-3.2583	-2.4437	-3.3354	-2.9458	-2.4417	-3.4	-2.8833	-3.1875	160.978	149.521	-99.766	118.649	-38.160	108.428	118.623	86.324	-72.730	135.406	190.947	3.839	91.802	167.066	107.499	-123.495	0.00037507	0.00063728	0.00016351	1401.9	4.0389e-06	6.3564e-06	1406.4	379.96	5.5831e-06	2.986e-06	437.68	141.98	124.61	42.699	2.9829e-06	52.289	0.00072718	0.00081681	0.00022371	1432.9	8.7066e-06	8.8158e-06	1439.7	392.61	8.7793e-06	8.8865e-06	449.21	147.99	129.41	44.235	8.8522e-06	54.626	-82.566	-36.763	-77.529	-127.066	23.034	3.862	-127.274	-122.502	-36.716	-25.921	-122.745	-118.462	-118.086	-113.496	4.611	-114.131	-8191	255	
45999.098	1	1	0	0	0.1398	0.060867	0.2233	0.26253	0.16258	0.30927	0.15464	0.29363	0.16781	0.10176	0.25336	0.20842	0.14993	0.084247	0.15388	0.086327	-3.025	-2.3042	-3.1833	-2.975	-2.4146	-3.4313	-2.8375	-3.0729	-3.1625	-2.3688	-3.1958	-3.1562	-2.7271	-3.3854	-2.7208	-2.7979	-118.381	86.260	-139.427	178.280	120.159	99.203	105.004	143.598	80.652	-140.272	139.380	202.416	-116.728	-127.290	59.281	128.303	0.00035898	0.00052377	0.00023866	1402	4.9293e-06	4.4785e-06	1403.8	380.05	6.1217e-06	5.6717e-06	436.88	142.31	124.59	42.464	1.6008e-06	52.551	0.000728	0.00081103	0.00022266	1433	8.7163e-06	8.7834e-06	1436.9	392.53	8.7682e-06	8.827e-06	448.61	147.97	129.43	44.165	8.7029e-06	54.623	-77.506	-55.863	-53.536	-127.090	14.846	20.124	-127.277	-122.369	12.798	28.590	-123.166	-118.433	-118.089	-113.640	-39.072	-113.963	-8191	255	
45999.195	1	1	0	0	0.2652	0.18105	0.022357	0.13372	0.023799	0.1615	0.14139	0.178	0.065786	0.40332	0.31813	0.097137	0.060136	0.08864	0.071841	0.057834	-2.8833	-2.4646	-3.0062	-3.2625	-2.5604	-3.3979	-2.9667	-2.9292	-3.375	-2.7021	-3.2229	-3.1958	-2.5417	-3.4188	-2.6667	-2.6583	94.825	-77.987	156.391	173.692	169.672	33.396	160.322	-112.816	187.596	112.638	163.940	-36.668	-99.934	96.370	119.099	203.314	0.00034916	0.00071737	0.00017562	1401.4	5.8578e-06	8.9508e-06	1399	381	5.6992e-06	5.651e-06	435.4	142.57	125.06	42.43	4.7767e-06	52.467	0.00074153	0.00081105	0.00022191	1431	8.7504e-06	8.7823e-06	1436.4	392.73	8.7162e-06	8.8484e-06	447.75	147.74	129.23	44.104	8.7444e-06	54.474	-85.181	-39.200	-41.348	-127.175	51.180	20.507	-127.115	-122.326	49.980	19.309	-122.839	-118.563	-118.168	-113.411	20.270	-114.307	-8191	255	
45999.289	1	1	0	0	0.07764	0.11654	0.073384	0.12234	0.15231	0.29114	0.22523	0.23997	0.24655	0.42372	0.25398	0.12086	0.20874	0.088121	0.11157	0.06697	-2.9875	-2.5604	-3.1063	-3.4458	-2.3583	-3.25	-3.0271	-2.5667	-3.2562	-2.6312	-2.875	-3.0938	-2.6583	-3.3229	-2.8292	-2.6375	62.739	71.577	217.625	-15.303	16.183	127.440	115.510	162.073	83.357	86.683	102.826	193.485	35.282	109.543	-14.635	191.937	0.00037631	0.00033784	0.00013568	1397.1	2.1302e-06	4.8813e-06	1399.2	381.5	4.0941e-06	5.8135e-06	433.19	141.73	124.53	42.437	6.3663e-06	52.517	0.00073232	0.00079952	0.00022694	1429.9	8.7151e-06	8.9436e-06	1435	392.61	8.7535e-06	8.815e-06	447.49	147.59	129.16	44.046	8.7096e-06	54.527	-77.135	-30.091	-35.538	-127.028	-3.974	-27.756	-127.252	-122.479	19.210	37.559	-122.834	-118.582	-118.181	-113.546	-5.205	-114.186	-8191	255	
45999.410	1	1	0	0	0.11991	0.27979	0.093817	0.075645	0.14278	0.2212	0.20499	0.11347	0.22923	0.24431	0.078154	0.29604	0.20331	0.31068	0.088417	0.18714	-2.9938	-2.6125	-2.7271	-3.4146	-2.5708	-3.1312	-3.2542	-2.5917	-3.5187	-2.6604	-2.8167	-3.4729	-2.4667	-3.0458	-3.0479	-2.5667	211.871	-4.138	169.911	-136.925	216.625	-68.487	93.476	144.636	-27.010	102.140	27.571	214.924	126.789	166.277	55.215	109.647	0.00040676	0.00055425	0.000234	1397.3	4.5301e-06	4.4906e-06	1393.2	378.6	4.4702e-06	5.0259e-06	432.83	141.87	123.78	42.248	5.4039e-06	52.299	0.00073422	0.00080979	0.00022565	1427.5	8.6544e-06	8.7808e-06	1431.4	390.92	8.6561e-06	8.7397e-06	446.65	147.4	128.82	43.998	8.4422e-06	54.476	-83.822	-100.741	-37.758	-127.154	26.112	8.020	-127.221	-122.519	21.684	60.015	-122.996	-118.660	-117.999	-113.400	14.694	-113.922	-8191	255	
45999.504	1	1	0	0	0.076671	0.10014	0.11029	0.25443	0.341	0.18762	0.26322	0.10819	0.014242	0.25564	0.36548	0.19782	0.28614	0.13963	0.28971	0.10299	-3.1479	-2.5667	-2.775	-3.4604	-2.5958	-3.0521	-3.2208	-2.7042	-3.4	-2.6937	-2.7583	-3.5229	-2.7438	-3.1396	-3.1188	-2.4604	161.362	137.070	-29.046	182.765	120.467	-77.290	-136.987	-93.083	-82.628	-2.432	-133.192	219.011	209.461	155.005	180.292	-88.060	0.00035927	0.00057751	0.00018995	1390.6	4.7388e-06	4.4265e-06	1394.7	379	5.2365e-06	3.3898e-06	432.52	141.96	124.08	42.395	6.4541e-06	52.388	0.00071969	0.00079095	0.00021847	1425.5	8.5457e-06	8.5886e-06	1430.9	391.32	8.4713e-06	8.5837e-06	446.61	147.29	128.87	44.065	8.646e-06	54.39	-78.841	-55.419	-45.358	-127.032	19.968	-15.119	-126.955	-122.388	2.930	-9.714	-122.795	-118.439	-117.954	-113.352	19.579	-114.119	-8191	255	
45999.602	1	1	0	0	0.1561	0.2087	0.13048	0.23062	0.19107	0.077599	0.22836	0.22354	0.17516	0.044173	0.14218	0.20824	0.17346	0.12976	0.079258	0.21322	-2.9813	-2.825	-2.5729	-3.5729	-2.575	-2.9021	-3.3396	-2.675	-3.2938	-2.7729	-2.4583	-3.3167	-2.6562	-2.8542	-3.2188	-2.5771	41.477	-62.058	-77.295	-114.670	37.222	83.201	149.592	138.298	172.676	136.690	194.689	-87.154	160.214	139.058	-12.876	-59.665	0.00036222	0.00062244	0.00014171	1392.6	6.5298e-06	4.9948e-06	1397.8	379.47	3.3801e-06	7.0731e-06	431.68	141.68	124.07	42.28	6.9441e-06	52.292	0.00071959	0.0007839	0.00021946	1426.9	8.4865e-06	8.5382e-06	1432.4	391.24	8.4709e-06	8.5035e-06	446.18	147.35	128.75	44.032	8.5677e-06	54.396	-84.907	-75.406	-47.453	-126.956	39.673	2.979	-127.173	-122.305	-11.563	15.065	-122.944	-118.666	-118.007	-113.401	13.363	-114.276	-8191	255	
#DATA ENDS
