BOXY.EXE: ISS Imagent and Oximeter Data Acquisition Program Version 0.80
Ascii Record File

#ACQ INFORMATION
2  Detector Channels 
16  External MUX Channels 
1  Auxiliary Channels 
5000  Waveform (CCF) Frequency (Hz)
1  Waveforms Skipped 
30  Waveforms Averaged 
1  Cycles Averaged 
16  Acquisitions per Waveform 
10.0806  Updata Rate (Hz) 

#FILE INFORMATION
TRUE -- External MUX Channel results are PARSED.
FALSE -- AC DC and Phase are NOT grouped.
TRUE -- Companion Program Settings File CREATED.
FALSE -- AC data not excluded
FALSE -- DC data not excluded
FALSE -- Phase data not excluded
FALSE -- Auxillary Chn. data not excluded
Tab delimiters

#CALIBRATION STATE
TRUE -- Waveform Calibration Values APPLIED.


#AUX CALIBRATION VALUES
Val Type	aux-1	

Term	1.0000e+00	
Factor	0.0000e+00	


#WF CALIBRATION VALUES
A = Detector Channel
Val Type	A-AC1	A-AC2	A-AC3	A-AC4	A-AC5	A-AC6	A-AC7	A-AC8	A-AC9	A-AC10	A-AC11	A-AC12	A-AC13	A-AC14	A-AC15	A-AC16	A-DC1	A-DC2	A-DC3	A-DC4	A-DC5	A-DC6	A-DC7	A-DC8	A-DC9	A-DC10	A-DC11	A-DC12	A-DC13	A-DC14	A-DC15	A-DC16	A-Ph1	A-Ph2	A-Ph3	A-Ph4	A-Ph5	A-Ph6	A-Ph7	A-Ph8	A-Ph9	A-Ph10	A-Ph11	A-Ph12	A-Ph13	A-Ph14	A-Ph15	A-Ph16	

Term	0.00000e+00	0.00000e+00	0.00000e+00	0.00000e+00	0.00000e+00	0.00000e+00	0.00000e+00	0.00000e+00	0.00000e+00	0.00000e+00	0.00000e+00	0.00000e+00	0.00000e+00	0.00000e+00	0.00000e+00	0.00000e+00	0.00000e+00	0.00000e+00	0.00000e+00	0.00000e+00	0.00000e+00	0.00000e+00	0.00000e+00	0.00000e+00	0.00000e+00	0.00000e+00	0.00000e+00	0.00000e+00	0.00000e+00	0.00000e+00	0.00000e+00	0.00000e+00	0.00000e+00	0.00000e+00	0.00000e+00	0.00000e+00	0.00000e+00	0.00000e+00	0.00000e+00	0.00000e+00	0.00000e+00	0.00000e+00	0.00000e+00	0.00000e+00	0.00000e+00	0.00000e+00	0.00000e+00	0.00000e+00	
Factor	1.00000e+00	1.00000e+00	1.00000e+00	1.00000e+00	1.00000e+00	1.00000e+00	1.00000e+00	1.00000e+00	1.00000e+00	1.00000e+00	1.00000e+00	1.00000e+00	1.00000e+00	1.00000e+00	1.00000e+00	1.00000e+00	1.00000e+00	1.00000e+00	1.00000e+00	1.00000e+00	1.00000e+00	1.00000e+00	1.00000e+00	1.00000e+00	1.00000e+00	1.00000e+00	1.00000e+00	1.00000e+00	1.00000e+00	1.00000e+00	1.00000e+00	1.00000e+00	X	X	X	X	X	X	X	X	X	X	X	X	X	X	X	X	

B = Detector Channel
Val Type	B-AC1	B-AC2	B-AC3	B-AC4	B-AC5	B-AC6	B-AC7	B-AC8	B-AC9	B-AC10	B-AC11	B-AC12	B-AC13	B-AC14	B-AC15	B-AC16	B-DC1	B-DC2	B-DC3	B-DC4	B-DC5	B-DC6	B-DC7	B-DC8	B-DC9	B-DC10	B-DC11	B-DC12	B-DC13	B-DC14	B-DC15	B-DC16	B-Ph1	B-Ph2	B-Ph3	B-Ph4	B-Ph5	B-Ph6	B-Ph7	B-Ph8	B-Ph9	B-Ph10	B-Ph11	B-Ph12	B-Ph13	B-Ph14	B-Ph15	B-Ph16	

Term	0.00000e+00	0.00000e+00	0.00000e+00	0.00000e+00	0.00000e+00	0.00000e+00	0.00000e+00	0.00000e+00	0.00000e+00	0.00000e+00	0.00000e+00	0.00000e+00	0.00000e+00	0.00000e+00	0.00000e+00	0.00000e+00	0.00000e+00	0.00000e+00	0.00000e+00	0.00000e+00	0.00000e+00	0.00000e+00	0.00000e+00	0.00000e+00	0.00000e+00	0.00000e+00	0.00000e+00	0.00000e+00	0.00000e+00	0.00000e+00	0.00000e+00	0.00000e+00	2.93197e+01	-1.46832e+02	-1.39121e+02	-1.81086e+02	-9.40388e+01	-8.26987e+01	-1.58451e+02	-1.62015e+02	-4.88284e+01	-7.25510e+01	-1.70463e+02	-1.70388e+02	-1.82301e+02	-1.76731e+02	-5.84013e+01	-1.49945e+02	
Factor	5.48794e-05	1.85628e-04	4.36060e-05	1.70858e-01	1.72188e-06	1.61827e-06	1.82640e-01	6.30764e-02	2.27960e-06	1.44727e-06	1.00929e-01	3.45204e-02	2.99637e-02	1.05836e-02	1.66694e-06	1.51637e-02	2.09266e-06	2.19092e-06	6.07507e-07	8.53818e-02	2.38634e-08	2.39635e-08	8.56573e-02	3.13960e-02	2.38440e-08	2.39852e-08	4.84051e-02	1.65146e-02	1.48863e-02	5.27694e-03	2.38470e-08	7.29755e-03	X	X	X	X	X	X	X	X	X	X	X	X	X	X	X	X	



#DISTANCE SETTINGS
A = Detector Channel
A-1	A-2	A-3	A-4	A-5	A-6	A-7	A-8	A-9	A-10	A-11	A-12	A-13	A-14	A-15	A-16	

2.5000e+00	3.0000e+00	2.5000e+00	3.0000e+00	2.0000e+00	3.0000e+00	1.5000e+00	3.0000e+00	3.0000e+00	3.0000e+00	3.0000e+00	3.0000e+00	3.0000e+00	3.0000e+00	1.5000e+00	3.0000e+00	

B = Detector Channel
B-1	B-2	B-3	B-4	B-5	B-6	B-7	B-8	B-9	B-10	B-11	B-12	B-13	B-14	B-15	B-16	

1.0000e+01	1.0000e+01	1.0000e+01	1.4400e+00	1.0000e+01	1.0000e+01	1.5100e+00	1.9400e+00	1.0000e+01	1.0000e+01	1.9900e+00	2.4900e+00	2.4100e+00	2.9000e+00	1.0000e+01	2.9800e+00	




#DATA BEGINS
time	group	step	mark	flag	A-AC1	A-AC2	A-AC3	A-AC4	A-AC5	A-AC6	A-AC7	A-AC8	A-AC9	A-AC10	A-AC11	A-AC12	A-AC13	A-AC14	A-AC15	A-AC16	A-DC1	A-DC2	A-DC3	A-DC4	A-DC5	A-DC6	A-DC7	A-DC8	A-DC9	A-DC10	A-DC11	A-DC12	A-DC13	A-DC14	A-DC15	A-DC16	A-Ph1	A-Ph2	A-Ph3	A-Ph4	A-Ph5	A-Ph6	A-Ph7	A-Ph8	A-Ph9	A-Ph10	A-Ph11	A-Ph12	A-Ph13	A-Ph14	A-Ph15	A-Ph16	B-AC1	B-AC2	B-AC3	B-AC4	B-AC5	B-AC6	B-AC7	B-AC8	B-AC9	B-AC10	B-AC11	B-AC12	B-AC13	B-AC14	B-AC15	B-AC16	B-DC1	B-DC2	B-DC3	B-DC4	B-DC5	B-DC6	B-DC7	B-DC8	B-DC9	B-DC10	B-DC11	B-DC12	B-DC13	B-DC14	B-DC15	B-DC16	B-Ph1	B-Ph2	B-Ph3	B-Ph4	B-Ph5	B-Ph6	B-Ph7	B-Ph8	B-Ph9	B-Ph10	B-Ph11	B-Ph12	B-Ph13	B-Ph14	B-Ph15	B-Ph16	aux-1	digaux	

2628.711	1	1	0	256	0.14277	0.24314	0.21106	0.17429	0.21293	0.020909	0.19028	0.3427	0.31856	0.18353	0.13849	0.2245	0.11976	0.026768	0.078069	0.28535	-0.45833	0.33125	-0.30625	-0.63333	0.20833	-0.72917	-0.30625	-0.058333	-0.70833	0.19375	-0.39792	-0.66667	0.21458	-0.76458	-0.3125	0.0041667	137.874	83.670	80.022	227.184	-86.239	204.736	222.977	206.143	-71.949	114.864	272.105	-50.685	127.447	-56.141	126.537	200.952	0.00034949	0.00032585	0.0001787	984.34	2.8017e-06	6.3862e-06	962.71	361.42	4.076e-06	2.0326e-06	347.62	118.93	123.74	51.109	4.4878e-06	51.884	0.00054049	0.00062994	0.00017564	1024.4	6.104e-06	7.4559e-06	1002.3	375.47	6.7884e-06	8.202e-06	366.64	125.29	130.15	54.299	8.6767e-06	55.057	-9.899	-54.633	-6.984	-74.872	46.862	17.633	-76.451	-69.655	62.315	154.879	-72.001	-66.609	-64.440	-58.216	32.620	-61.941	-8191	255	
2628.807	1	1	0	0	0.16945	0.077127	0.088215	0.16708	0.26325	0.15968	0.11567	0.12983	0.21808	0.11361	0.34367	0.18777	0.15909	0.039515	0.091252	0.057348	-0.39583	0.027083	-0.2875	-0.75208	0.089583	-0.7875	-0.42917	-0.054167	-0.62292	-0.12708	-0.2625	-0.5875	0.21042	-0.7875	-0.38333	0.11042	108.714	142.211	71.483	222.623	155.170	-75.586	237.203	-61.214	128.118	99.933	-52.765	214.103	265.193	140.658	266.976	69.671	0.00061823	0.00037055	0.00012558	977.26	4.061e-06	2.5287e-06	951.86	358.8	3.944e-06	3.4627e-06	346.91	119.11	123.49	51.318	8.9921e-06	52.401	0.00074639	0.00089576	0.00022477	1021.9	8.535e-06	1.0015e-05	1003.2	374.71	9.223e-06	1.0653e-05	368.61	126.48	131.63	55.099	1.0639e-05	55.837	-11.190	43.455	-6.886	-74.693	67.984	-51.303	-76.235	-69.389	162.013	36.692	-71.606	-66.405	-64.142	-58.221	8.519	-61.571	-8191	255	
2628.927	1	1	0	0	0.13234	0.036199	0.42641	0.17779	0.36807	0.32981	0.23061	0.10641	0.0996	0.20496	0.12496	0.11855	0.077622	0.28362	0.15481	0.13275	-0.41875	0.24375	0.054167	-0.45833	0.3375	-0.4625	-0.51875	0.24583	-0.69375	-0.15625	0.027083	-0.69583	0.1375	-0.46667	-0.52917	0.30208	74.982	-53.491	35.472	261.296	99.452	177.419	186.299	271.420	-76.744	187.471	87.745	-78.588	178.084	256.333	-46.789	208.745	0.00057795	0.00051147	0.00028562	972.15	4.5033e-06	5.4617e-06	946.87	354.44	9.9421e-06	1.0503e-05	346.09	118	123.08	51.624	1.0404e-05	52.055	0.0010363	0.0011618	0.00028712	1023.4	1.2314e-05	1.2999e-05	1002.7	375.05	1.2955e-05	1.3219e-05	370.64	127.22	133.28	55.601	1.2092e-05	56.196	-26.003	-50.111	-24.709	-74.608	168.496	36.221	-76.305	-69.438	156.050	29.375	-72.007	-66.455	-64.014	-58.299	70.622	-61.992	-8191	255	
2629.022	1	1	0	0	0.15232	0.32162	0.05752	0.23644	0.16318	0.093621	0.093378	0.23173	0.099177	0.18115	0.3299	0.199	0.24599	0.24283	0.21086	0.30956	-0.15208	-0.125	-0.035417	-0.73333	0.025	-0.31667	-0.62292	0.05625	-0.36667	-0.225	-0.1	-0.78125	-0.12708	-0.28958	-0.76667	0.20833	226.464	84.021	214.685	206.628	95.127	60.050	126.578	238.619	235.181	205.428	63.437	128.960	-30.109	-51.649	255.641	199.745	0.00065509	0.001498	3.9009e-05	969.45	2.8655e-06	8.2307e-06	949.21	356.37	1.0883e-06	7.3953e-06	345.75	117.22	123.2	51.02	8.338e-06	51.279	0.0012261	0.0012284	0.00030274	1029.7	1.3823e-05	1.2995e-05	1006.6	377.22	1.3973e-05	1.3002e-05	371.39	127.57	133.94	54.946	1.1871e-05	55.813	-16.948	-30.914	-23.820	-74.833	101.319	24.043	-76.309	-69.471	108.267	52.845	-71.884	-66.411	-64.474	-58.119	128.130	-61.641	-8191	255	
2629.118	1	1	0	0	0.20095	0.064659	0.29813	0.2751	0.29351	0.2465	0.30426	0.076762	0.30188	0.11443	0.20665	0.19059	0.086106	0.18636	0.27709	0.32095	-0.4125	-0.34792	0.33125	-0.97917	0.0875	-0.060417	-0.89792	0.0375	-0.37083	-0.56042	-0.15	-0.69375	-0.091667	-0.2	-0.50625	0.275	181.629	241.532	-67.489	265.280	104.432	-76.219	195.929	-34.943	-53.842	46.254	184.929	198.875	263.101	-19.534	-72.161	245.396	0.0003278	0.00074968	0.00034541	972.72	6.4072e-06	5.1027e-06	952.13	356.57	3.9941e-06	5.581e-06	347.36	117.66	122.97	50.881	1.771e-06	51.564	0.0012532	0.0011594	0.00028884	1032.7	1.3559e-05	1.1821e-05	1005.6	378.1	1.2744e-05	1.1398e-05	369.59	127.34	132.9	54.418	1.0358e-05	55.729	-24.573	-56.389	-25.365	-74.417	-22.167	29.332	-76.441	-69.516	-72.940	77.174	-71.967	-66.345	-64.290	-58.161	87.525	-61.769	-8191	255	
2629.214	1	1	0	0	0.044069	0.10407	0.13664	0.28002	0.25572	0.13897	0.30732	0.13105	0.10019	0.084266	0.13609	0.17056	0.26974	0.12539	0.17032	0.36367	-0.29583	-0.49167	0.2	-0.94167	-0.05	-0.025	-0.98125	0.1125	-0.50417	-0.55833	0.11042	-0.80208	-0.3125	-0.054167	-0.70417	-0.06875	127.640	43.427	-40.505	214.592	64.805	261.670	263.102	216.133	-43.252	97.132	244.218	169.049	253.003	196.901	-51.042	-37.671	0.00031114	0.00063351	0.00014035	973.19	5.2308e-06	8.6898e-06	958.31	359.94	1.1523e-05	6.6344e-06	349.02	118.29	123.47	50.431	3.1343e-06	50.749	0.0010966	0.0010181	0.0002617	1033.4	1.2348e-05	1.0909e-05	1010.2	381.23	1.1911e-05	1.0938e-05	372.24	127.92	132.38	53.709	1.0166e-05	55.132	-23.688	12.967	-6.529	-74.580	83.664	2.002	-76.202	-69.455	61.261	85.303	-71.820	-66.558	-64.379	-58.239	100.989	-61.627	-8191	255	
2629.288	1	1	0	0	0.24014	0.12686	0.11341	0.15655	0.11849	0.25213	0.32652	0.18249	0.10167	0.24175	0.063776	0.24439	0.03214	0.19346	0.12562	0.2226	-0.20417	-0.42292	0.23125	-0.92708	-0.066667	0.11667	-1.2479	0.14583	-0.23125	-0.66042	0.37292	-0.7125	-0.37292	0.03125	-1.0292	0.060417	-26.099	-14.656	-1.227	-49.933	264.528	92.506	186.997	-58.534	49.262	252.867	196.668	-71.875	195.113	96.761	35.455	61.557	0.00029938	0.00068876	0.00011116	976.9	9.1105e-06	1.0734e-05	957.86	359.53	7.809e-06	4.1551e-06	346.43	117.63	123.86	50.182	9.054e-06	50.131	0.00099146	0.00093556	0.00025528	1036.9	1.0687e-05	9.4804e-06	1007.3	380.3	9.3903e-06	8.4944e-06	367.33	125.72	130.84	52.82	7.9664e-06	53.369	-23.713	4.934	45.867	-74.643	29.815	92.058	-76.275	-69.516	100.246	92.287	-72.000	-66.432	-64.397	-58.217	162.543	-61.768	-8191	255	
2629.406	1	1	0	0	0.072113	0.080283	0.14133	0.22582	0.3381	0.075418	0.35071	0.20069	0.15598	0.23728	0.16215	0.24931	0.10522	0.40943	0.16301	0.16349	0.24375	-0.63958	0.12917	-0.56875	-0.39167	0.1125	-0.975	-0.31875	-0.04375	-0.7	0.19792	-0.52708	-0.7375	0.079167	-0.6625	-0.06875	59.635	118.958	44.232	225.770	124.844	49.069	223.346	200.658	177.776	58.599	237.264	-51.406	92.737	157.791	107.871	201.365	0.00047892	0.00081843	5.1756e-05	984.77	8.4445e-06	3.4277e-06	961	360.74	1.0359e-05	2.6835e-06	348.04	116.89	123.79	49.476	5.1888e-06	49.645	0.00069351	0.00065685	0.00019765	1028.4	7.5224e-06	6.8242e-06	1003	377.7	7.1944e-06	6.8318e-06	366.52	123.92	129.93	52.076	7.9282e-06	52.425	-12.284	-18.080	152.726	-74.451	21.454	22.545	-76.262	-69.548	71.883	-30.714	-72.184	-66.380	-64.460	-58.433	158.807	-62.000	-8191	255	
2629.503	1	1	0	0	0.16852	0.22828	0.20403	0.19397	0.15423	0.1565	0.33891	0.32038	0.11501	0.26081	0.1538	0.10503	0.10776	0.31418	0.20705	0.32882	0.25208	-0.675	0.2875	-0.47917	-0.50208	0.15833	-0.71042	-0.325	-0.041667	-0.79792	-0.09375	-0.48542	-0.75417	0.014583	-0.70417	-0.45	-18.451	236.845	-44.095	-30.535	173.415	206.206	172.191	260.161	-45.917	96.023	107.234	-85.138	-69.435	254.111	-81.149	239.140	0.00040011	0.00049943	2.2671e-05	985.73	3.9084e-06	1.6156e-06	960.8	362.22	4.989e-06	2.3429e-06	347.57	116.95	122.89	49.737	4.3943e-06	50.318	0.0006148	0.00059738	0.0001921	1026	6.4127e-06	5.9895e-06	1000.6	376.16	6.0512e-06	5.9789e-06	364.31	122.88	128.52	52.244	7.5024e-06	52.942	-16.068	-6.616	22.322	-74.506	-1.534	215.151	-76.220	-69.554	60.886	-27.727	-71.959	-66.553	-64.430	-58.100	205.359	-61.711	-8191	255	
2629.599	1	1	0	0	0.11081	0.2464	0.10678	0.13838	0.166	0.18051	0.14459	0.15633	0.13957	0.16523	0.28024	0.29914	0.10521	0.15157	0.044935	0.14002	0.29167	-0.575	0.16875	-0.45208	-0.5875	0.21875	-0.73125	-0.475	0.016667	-0.52292	-0.097917	-0.225	-0.68333	0.12917	-0.54792	-0.42917	191.782	260.663	-62.340	-15.460	157.203	-65.712	183.998	207.088	229.839	189.290	3.557	206.144	110.915	235.914	-27.313	185.272	0.00045022	6.0038e-05	0.00011083	972.02	3.6375e-06	6.0074e-06	953.21	355.74	1.9569e-06	1.9086e-06	347.05	117.36	123.58	49.964	5.2079e-06	50.849	0.00057914	0.00061502	0.00019866	1011.2	6.3926e-06	6.7429e-06	994.24	371.47	6.1589e-06	6.8569e-06	364.07	123.23	128.57	52.651	7.1525e-06	53.427	-9.885	166.019	-1.605	-74.776	3.343	131.656	-76.459	-69.515	81.676	79.228	-72.136	-66.695	-64.425	-58.518	72.822	-61.773	-8191	255	
2629.719	1	1	0	0	0.13243	0.25219	0.1628	0.15546	0.11865	0.17334	0.18627	0.24179	0.08186	0.33626	0.075503	0.34556	0.10823	0.2588	0.14009	0.10115	0.31458	-0.92292	0.01875	-0.325	-0.69792	-0.054167	-0.61042	-0.55833	0.0020833	-0.81458	-0.19167	-0.08125	-0.6875	0.13542	-0.58125	-0.38958	36.170	-22.601	222.438	230.125	46.124	145.463	200.909	-18.257	233.511	-64.273	256.474	253.770	133.344	216.712	-69.540	54.626	0.00045969	0.00032443	0.00019681	969.59	3.5726e-06	1.4536e-06	951.67	357.33	2.2998e-06	2.6955e-06	346.91	118.02	123.34	50.179	8.7869e-06	50.756	0.00053979	0.00062995	0.00018361	1007.1	6.024e-06	6.9151e-06	990.33	370.63	5.6731e-06	6.7675e-06	362.58	123.4	128.38	52.844	6.2069e-06	53.121	-10.270	18.444	-7.451	-74.317	17.895	-51.449	-76.057	-69.319	29.425	135.774	-71.906	-66.205	-64.180	-58.080	46.414	-61.513	-8191	255	
2629.816	1	1	0	0	0.10867	0.16024	0.12774	0.077997	0.19726	0.33564	0.11957	0.24258	0.15061	0.14975	0.086178	0.08673	0.13077	0.14782	0.13433	0.24935	0.51667	-0.52292	-0.13125	-0.020833	-0.61875	0.175	-0.29583	-0.71042	0.21458	-0.61458	-0.18333	-0.01875	-0.68542	-0.15	-0.33958	-0.62917	194.382	159.488	124.513	-0.008	234.246	82.491	181.546	-71.284	-46.278	222.650	120.287	242.043	12.862	259.655	148.443	144.873	0.00056087	0.00022248	0.00022058	973.55	5.4303e-06	9.9843e-06	959.48	359.83	2.1192e-06	3.1117e-06	349	116.94	123.74	49.089	1.0066e-05	48.835	0.00048857	0.00058122	0.00015261	1008.4	5.359e-06	6.2195e-06	993.03	373.42	5.2423e-06	6.1519e-06	362.5	121.56	128.53	51.386	5.2549e-06	50.965	-17.108	-49.799	-26.464	-74.505	3.661	57.847	-76.101	-69.488	-60.430	41.842	-72.020	-66.624	-64.236	-58.492	64.854	-62.249	-8191	255	
2629.912	1	1	0	0	0.078079	0.084602	0.19124	0.12992	0.052472	0.23393	0.27615	0.018231	0.2391	0.056422	0.23364	0.13362	0.10786	0.29095	0.11449	0.17256	0.28333	-0.3625	-0.42708	-0.0020833	-0.83125	0.064583	-0.36875	-0.75208	0.22083	-0.6	-0.26042	-0.075	-0.66042	-0.15833	-0.12917	-0.70833	61.243	50.896	71.107	231.303	19.125	113.413	146.702	-69.247	6.395	255.522	-76.117	110.354	-83.655	179.277	10.841	105.217	0.00044054	0.00045846	0.00011034	989.89	2.1078e-06	5.8612e-06	970.63	364.82	4.0242e-06	5.0827e-06	350.44	116.28	123.27	48.849	5.3492e-06	48.555	0.00047443	0.00053676	0.00013266	1023.8	5.3179e-06	5.8924e-06	1001.4	376.57	5.5179e-06	5.8832e-06	362.14	120.85	128.37	51.098	4.9643e-06	50.545	-29.678	-56.390	-20.025	-74.745	232.402	15.109	-76.339	-70.006	13.861	39.478	-72.359	-67.070	-64.551	-58.828	97.590	-62.143	-8191	255	
2630.008	1	1	0	0	0.07252	0.068261	0.091072	0.31243	0.1062	0.38675	0.056647	0.36766	0.1845	0.21356	0.12431	0.064733	0.47493	0.21161	0.21505	0.29209	0.55625	-0.34167	-0.40625	-0.1375	-0.54792	-0.20625	-0.40833	-0.79792	0.089583	-0.43125	-0.59375	0.2125	-0.71667	-0.30625	-0.25208	-0.81458	19.150	245.561	140.245	261.849	-0.220	105.621	185.811	220.260	2.546	73.603	-6.554	-21.734	168.511	-22.085	-31.576	61.095	0.00049828	0.00028041	0.00018955	994.56	1.8002e-06	8.1604e-06	972.8	364.54	3.9852e-06	7.2637e-06	352.03	116.46	123.57	48.745	5.198e-06	48.709	0.00048918	0.0004822	0.00012169	1024.2	5.2948e-06	5.1939e-06	1003.1	376.97	5.3606e-06	5.0668e-06	362.74	120.85	128.26	50.785	4.6062e-06	50.64	-25.400	5.351	4.707	-74.829	46.870	63.843	-76.418	-69.745	18.832	52.509	-72.417	-67.037	-64.742	-58.985	44.530	-62.344	-8191	255	
2630.102	1	1	0	0	0.21503	0.20381	0.19872	0.11231	0.17147	0.17615	0.39345	0.073846	0.078662	0.13566	0.18257	0.22122	0.15541	0.097886	0.030071	0.17995	0.46458	-0.37292	-0.58125	0.072917	-0.66458	0.066667	-0.060417	-0.94583	0.035417	-0.27708	-0.79375	-0.17708	-0.48125	-0.40208	0.24375	-0.79167	221.012	270.621	-83.904	47.607	53.831	-60.890	175.987	81.565	37.471	238.462	161.707	130.071	76.617	-12.816	26.605	231.105	0.00041585	0.00063815	0.00016794	994.82	5.8687e-06	5.8027e-06	969.64	363.5	4.5544e-06	3.6845e-06	350.04	116.69	123.54	49.033	3.7964e-06	49.499	0.00050604	0.00046432	0.00011925	1024.5	5.5986e-06	5.0399e-06	999.75	376.25	5.6999e-06	5.02e-06	362.23	121.62	128.42	51.217	5.0141e-06	51.778	1.560	-18.257	-21.888	-74.837	-14.347	54.550	-76.510	-69.809	21.245	-10.500	-72.423	-66.972	-64.757	-58.724	57.170	-62.165	-8191	255	
2630.200	1	1	0	0	0.19231	0.10476	0.30555	0.50507	0.078321	0.12807	0.066661	0.26903	0.11199	0.19184	0.21778	0.25791	0.14761	0.22051	0.057755	0.21233	0.36042	-0.23542	-0.74375	-0.054167	-0.57917	-0.40417	-0.077083	-0.79583	0.0083333	-0.0625	-0.75417	0.079167	-0.51875	-0.72917	0.1125	-0.62708	105.668	76.945	-25.669	209.109	176.007	-37.898	209.940	238.417	43.899	-50.465	-14.750	239.428	99.020	195.031	-14.031	104.509	0.00040462	0.00062608	0.00013936	984.09	8.0445e-06	7.1906e-06	970.79	362.18	3.5137e-06	6.9942e-06	349.49	116.55	122.49	48.726	2.3021e-06	49.285	0.0006012	0.00055375	0.00015032	1025.6	7.5441e-06	6.9432e-06	1005.5	377.72	7.686e-06	6.7058e-06	364.14	122.61	128.62	51.265	5.9009e-06	52.015	-15.598	-57.904	-23.075	-74.880	18.108	46.047	-76.532	-69.698	48.714	66.192	-71.875	-66.847	-64.486	-58.701	107.815	-62.231	-8191	255	
2630.319	1	1	0	0	0.20608	0.20311	0.077656	0.32319	0.10082	0.066273	0.43932	0.1608	0.31395	0.1671	0.12616	0.12137	0.14127	0.19426	0.094513	0.21676	0.022917	0.11458	-0.63125	0.0041667	-0.12083	-0.62917	-0.0875	-0.76667	-0.13125	0.11875	-0.95208	0.1125	-0.45833	-0.53958	0.25625	-0.70625	39.834	83.105	196.550	250.232	50.886	7.709	-46.309	-74.151	168.686	183.946	268.242	242.395	83.526	238.704	251.965	260.546	0.00036205	0.00092122	0.00017711	986.57	9.6256e-06	2.8971e-06	961.93	360.84	6.6445e-06	4.6612e-06	344.37	115.87	121.71	49.196	2.8357e-06	49.669	0.00062022	0.00055362	0.0001535	1025.7	6.7714e-06	6.2583e-06	998.67	375.4	7.0313e-06	6.285e-06	359.99	122.21	127.72	51.698	6.7405e-06	52.562	-21.729	-80.357	44.050	-74.670	14.927	7.911	-76.390	-69.736	74.311	143.359	-72.072	-66.536	-64.312	-58.582	141.775	-61.988	-8191	255	
2630.415	1	1	0	0	0.19139	0.19463	0.16929	0.061531	0.16691	0.11795	0.089359	0.026329	0.084985	0.16137	0.055197	0.11192	0.15798	0.15143	0.27036	0.30349	-0.05625	0.21458	-0.6375	-0.19792	-0.16458	-0.66458	-0.10833	-0.5	-0.47083	0.14583	-0.725	-0.18958	-0.2875	-0.81667	0.13333	-0.68333	20.338	12.406	243.759	-51.776	97.651	-56.068	235.840	153.376	214.254	254.458	260.667	220.337	155.118	-14.620	193.333	-26.416	0.00033935	0.00050414	4.5602e-05	979.27	6.8937e-06	4.4705e-06	958.96	358.97	4.2749e-06	4.1322e-06	346.45	115.23	121.5	48.441	1.3501e-06	48.714	0.00065231	0.00059839	0.00018091	1023.8	7.3327e-06	6.8407e-06	999.85	375.67	7.589e-06	7.041e-06	364.14	122.4	128.14	51.282	8.2892e-06	51.846	-18.871	-22.009	205.809	-74.636	34.977	84.753	-76.482	-69.596	21.757	-10.902	-71.871	-66.736	-64.539	-58.557	266.588	-61.889	-8191	255	
2630.511	1	1	0	0	0.18014	0.23651	0.35424	0.15371	0.0959	0.23504	0.17023	0.2237	0.17715	0.15527	0.43425	0.34544	0.40998	0.14471	0.16399	0.10144	-0.0375	0.26458	-0.67083	-0.28333	0.060417	-0.74375	-0.27292	-0.42083	-0.5875	0.15833	-0.82708	-0.26042	-0.0020833	-0.75208	-0.083333	-0.39167	243.601	43.395	187.631	96.196	23.509	203.035	148.898	216.514	137.292	118.288	223.481	245.784	250.662	242.811	-71.039	214.050	0.00028635	0.0001869	5.8363e-05	986.38	5.9355e-06	5.5376e-06	970.3	361.5	1.2457e-05	4.8051e-06	347.6	115.1	121.91	48.335	6.1844e-06	48.557	0.00070067	0.00064788	0.0002083	1033.6	7.3584e-06	6.8982e-06	1014	377.83	7.1931e-06	6.6961e-06	365.23	121.45	127.39	50.823	7.9716e-06	51.47	-22.314	111.490	-0.074	-74.685	-14.428	90.931	-76.268	-69.721	75.555	17.215	-71.997	-66.819	-64.629	-58.557	-0.433	-61.821	-8191	255	
2630.583	1	1	0	0	0.094055	0.30931	0.15192	0.12324	0.021485	0.17812	0.023625	0.015707	0.28934	0.10008	0.032857	0.16216	0.078668	0.082648	0.1576	0.025633	-0.2375	0.15	-0.67917	-0.12292	0.10833	-0.75625	-0.085417	-0.2625	-0.55	0.095833	-0.99583	-0.47708	-0.25417	-0.62917	0.05	-0.19167	108.994	24.674	-56.797	75.398	80.994	143.012	-26.344	232.994	-84.438	62.043	-34.962	68.070	83.935	-3.712	231.245	159.630	0.00045873	0.00063207	0.00011385	985.12	2.1961e-06	1.1916e-06	965.25	360.03	9.8611e-06	6.5445e-06	346.78	115.68	121.12	48.861	4.6288e-06	49.72	0.00062856	0.00061816	0.00020443	1027.2	6.6351e-06	6.7763e-06	1009.2	374.9	6.5202e-06	6.6263e-06	364.14	121.56	126.72	51.422	7.6449e-06	52.273	-18.467	31.513	235.286	-74.515	-5.853	105.219	-76.335	-69.338	-8.950	89.034	-71.827	-66.505	-64.421	-58.411	41.039	-61.989	-8191	255	
2630.704	1	1	0	0	0.092183	0.20178	0.17671	0.26781	0.24173	0.1851	0.31076	0.32224	0.13267	0.2407	0.27472	0.089576	0.13332	0.12972	0.30597	0.30395	-0.275	0.16875	-0.57083	-0.34375	0.17083	-0.80833	-0.34167	0.0020833	-0.50208	0.25208	-0.68958	-0.36875	0.041667	-0.67292	0.014583	0.064583	104.755	149.296	29.245	192.040	3.385	100.128	-76.072	237.379	-19.432	-29.591	260.792	78.230	-87.420	41.476	217.122	233.560	0.00042075	0.00062872	0.00013912	969.92	8.0847e-06	3.4072e-06	952.89	354.82	8.1789e-07	2.7553e-06	343.96	115.75	120.79	49.494	9.8733e-06	50.36	0.00057818	0.00063043	0.00019124	1009.6	6.1569e-06	7.0793e-06	992.13	369.04	6.2963e-06	7.2532e-06	360.64	121.41	126.06	52.21	7.348e-06	52.886	-10.045	28.969	41.129	-74.865	71.609	-37.438	-76.473	-69.791	143.300	164.631	-71.875	-66.819	-64.541	-58.464	50.919	-61.988	-8191	255	
2630.800	1	1	0	0	0.33594	0.10787	0.049513	0.25817	0.08744	0.23411	0.31665	0.069536	0.15551	0.061967	0.076721	0.21057	0.39049	0.20047	0.24395	0.10069	-0.50833	0.17292	-0.19375	-0.63125	0.22708	-0.58542	-0.16042	-0.035417	-0.52917	0.27917	-0.34792	-0.56667	0.26042	-0.68542	-0.22083	0.05625	174.081	83.470	76.665	229.737	34.846	115.028	259.285	248.445	-37.248	171.007	137.506	204.055	240.050	-26.589	74.456	245.831	0.00037928	0.00033552	0.00015429	961.79	2.2408e-06	4.199e-06	945.95	353.79	1.4272e-06	1.4706e-06	343.16	114.96	120.32	49.255	5.9257e-06	49.786	0.00056621	0.00066803	0.00018062	1000.4	6.1595e-06	7.3838e-06	984.16	367.84	6.3476e-06	7.4645e-06	358.67	120.7	126.01	52.044	6.848e-06	52.26	-44.294	-27.778	-39.492	-74.693	-18.989	47.345	-76.584	-69.637	200.155	241.229	-71.824	-66.781	-64.300	-58.399	62.304	-61.707	-8191	255	
2630.896	1	1	0	0	0.29118	0.17059	0.21648	0.14743	0.29223	0.049983	0.30863	0.076885	0.15904	0.10228	0.29188	0.25468	0.12606	0.20258	0.17211	0.26899	-0.32708	0.11667	-0.19792	-0.69167	0.31458	-0.4625	-0.36458	0.0625	-0.8875	0.091667	-0.225	-0.41458	0.35208	-0.5875	-0.3375	0.066667	-59.128	133.258	168.630	-63.591	208.801	-80.894	163.131	58.183	116.860	-32.108	237.936	226.083	50.144	-42.830	12.840	177.916	0.00044847	0.0007303	0.00012226	961.07	1.3289e-06	5.2823e-06	949.2	353.79	3.8389e-06	7.1738e-06	343.39	114.8	120.39	49.572	3.2284e-06	50.083	0.00058116	0.00068781	0.00016729	997.12	6.2321e-06	7.1715e-06	982.54	366.94	6.2087e-06	7.0213e-06	357.46	120.15	125.9	51.965	5.999e-06	52.5	-35.471	-10.953	1.388	-74.812	46.154	37.236	-76.429	-69.785	247.913	55.656	-71.869	-66.856	-64.458	-58.297	117.185	-61.888	-8191	255	
2631.015	1	1	0	0	0.19765	0.26141	0.14726	0.2447	0.15982	0.3476	0.13584	0.18612	0.15037	0.43108	0.12016	0.017811	0.28287	0.15915	0.067171	0.25974	-0.45833	0.175	0.077083	-0.50417	0.31667	-0.4375	-0.64167	0.13958	-0.675	0.014583	-0.26458	-0.65417	0.19167	-0.43542	-0.45833	-0.14375	109.592	191.962	60.691	180.457	169.030	256.371	215.216	154.582	-70.512	64.611	210.650	159.282	266.031	184.541	90.577	-72.630	0.00056956	0.00055602	8.7488e-05	955.42	5.662e-07	6.7842e-06	936.76	349.81	6.8327e-06	4.6608e-06	340.6	116.15	120.77	50.508	7.8977e-07	51.94	0.00057568	0.00061214	0.00014802	989.84	6.3477e-06	6.5338e-06	971.97	362.97	6.6043e-06	6.5728e-06	354.84	121.35	126.34	52.987	5.7459e-06	54.187	-15.291	-63.787	-46.292	-74.678	197.157	31.594	-76.325	-69.556	155.508	57.245	-71.796	-66.666	-64.531	-58.292	29.352	-62.318	-8191	255	
2631.111	1	1	0	0	0.10154	0.41151	0.2599	0.18798	0.12572	0.23164	0.24433	0.072387	0.20802	0.24977	0.2801	0.3217	0.21006	0.17702	0.11276	0.15985	-0.15833	-0.32917	0.19792	-0.76875	0.34375	-0.54792	-0.70417	0.070833	-0.55208	-0.20833	0.14375	-0.93125	0.052083	-0.42083	-0.79167	0	51.630	56.032	23.247	230.816	118.709	0.036	232.066	-56.648	71.930	257.958	153.276	269.507	190.185	-24.350	-32.175	207.791	0.00038889	0.00080308	0.00017527	944.39	3.8991e-06	6.6064e-06	936.91	348.95	3.6533e-06	5.8924e-06	344.05	117.46	121.36	50.977	2.1376e-06	52.457	0.00059571	0.00057104	0.00013807	979.15	6.4443e-06	5.961e-06	969.01	361.97	6.4901e-06	5.9956e-06	356.53	122.61	126.73	53.372	5.313e-06	54.772	-22.731	-80.180	-28.061	-74.656	-75.720	-6.820	-76.495	-69.715	55.205	25.129	-72.113	-66.550	-64.616	-58.324	99.294	-61.862	-8191	255	
2631.207	1	1	0	0	0.15708	0.14877	0.16031	0.085329	0.234	0.37847	0.15879	0.094655	0.25414	0.077814	0.16003	0.1825	0.30663	0.30024	0.13996	0.052638	-0.57708	-0.19167	0.36458	-0.80208	0.19583	-0.060417	-0.79375	-0.12083	-0.40833	-0.3125	0.089583	-0.69375	-0.079167	-0.19375	-0.81042	0.4125	7.593	149.617	72.605	184.248	199.295	-28.256	198.939	198.691	-6.817	-26.424	193.748	-73.872	169.478	190.136	28.754	-5.142	0.0004067	0.00074734	0.00012612	941.92	2.8639e-06	4.8189e-06	938.59	348.58	7.8548e-06	6.3314e-06	344.04	117.49	120.55	51.109	7.7732e-06	52.276	0.00058431	0.00052264	0.00013012	980.38	6.3195e-06	5.4939e-06	969.22	362.48	6.2041e-06	5.496e-06	355.83	122.63	126.22	53.289	5.0659e-06	54.666	-21.499	-45.152	-19.083	-74.762	-20.356	77.410	-76.506	-69.797	58.381	43.066	-72.031	-66.624	-64.463	-58.572	49.575	-62.047	-8191	255	
2631.281	1	1	0	0	0.10201	0.20671	0.057401	0.26673	0.23389	0.071478	0.19778	0.14642	0.19523	0.29044	0.1552	0.092163	0.18218	0.22444	0.10434	0.18284	-0.21458	-0.42917	0.49583	-0.85417	-0.089583	-0.14167	-0.89792	0.016667	-0.32917	-0.74792	0.11042	-0.78958	-0.077083	-0.12083	-0.78958	0.095833	232.828	269.242	-16.564	245.622	62.366	87.645	180.443	162.135	-87.751	22.585	-41.498	215.651	235.428	172.645	194.214	-15.302	0.00038085	0.00053827	0.00021802	945.34	4.5248e-06	5.0638e-06	936.98	350.12	1.0163e-05	5.5247e-06	344.95	116.29	121.13	50.052	2.0887e-06	50.771	0.00054748	0.0004911	0.00012578	980.53	5.9202e-06	5.1758e-06	967.56	364.27	5.6564e-06	5.1414e-06	356.19	121.76	126.03	52.272	4.9961e-06	53.262	-16.735	-15.477	-4.970	-74.879	-33.119	54.427	-76.605	-69.935	46.000	29.715	-72.393	-67.017	-64.863	-58.877	33.055	-62.447	-8191	255	
2631.399	1	1	0	0	0.11158	0.39159	0.2257	0.15592	0.18302	0.30801	0.077835	0.20492	0.21719	0.10992	0.20157	0.096335	0.24791	0.06785	0.10903	0.29991	0.41875	-0.66042	0.20208	-0.83333	-0.15	0.21458	-0.78958	-0.072917	-0.12292	-0.6	0.30625	-0.68333	-0.2375	0.11667	-0.78125	-0.15417	206.508	-36.066	52.200	-12.602	214.523	-66.635	220.245	205.917	174.326	189.709	242.672	-50.618	212.869	201.211	-3.837	164.503	0.00046858	0.00049127	0.00010182	961.9	8.2401e-06	6.4058e-06	947.9	354.8	7.5897e-06	4.3697e-06	346.83	115.97	121.44	49.307	3.6709e-06	49.716	0.00050353	0.00046072	0.00012752	996.33	5.4514e-06	4.8257e-06	980.69	368.47	5.2386e-06	4.9384e-06	358.91	121.25	125.83	51.307	5.2102e-06	52.148	-19.188	-67.000	92.185	-74.924	-42.999	71.758	-76.774	-70.112	56.286	32.525	-72.483	-67.053	-64.788	-58.762	46.301	-62.337	-8191	255	
2631.496	1	1	0	0	0.085851	0.40338	0.27595	0.26113	0.1632	0.078094	0.13995	0.12345	0.2653	0.067644	0.098795	0.068213	0.091638	0.1176	0.072859	0.23132	0.40625	-0.83333	0.13333	-0.64167	-0.49583	0.33333	-0.82917	-0.18125	-0.24583	-0.54375	0.1875	-0.68125	-0.61042	0.19583	-0.71042	-0.35833	103.024	227.518	189.541	166.271	139.796	155.172	-85.126	93.259	-52.411	176.890	266.311	227.213	45.203	267.477	-7.575	211.526	0.00049245	0.00056258	7.7219e-05	971.27	5.0248e-06	7.1234e-06	959.94	357.6	6.6247e-06	2.0245e-06	348.08	115.92	120.79	49.397	3.4546e-06	50.465	0.00047415	0.0004408	0.00013588	1006.6	5.195e-06	4.7683e-06	993.21	370.85	5.1933e-06	4.9527e-06	361.77	121.27	125.57	51.552	5.8489e-06	53.001	-15.799	-43.952	256.651	-75.096	-7.661	27.614	-76.837	-70.130	79.384	30.181	-72.739	-66.742	-64.632	-58.752	61.758	-62.382	-8191	255	
2631.592	1	1	0	0	0.18042	0.1666	0.079216	0.34754	0.24944	0.083821	0.31151	0.28387	0.18793	0.16381	0.14815	0.16771	0.085599	0.15051	0.16292	0.14124	0.48542	-0.54583	0.2	-0.54375	-0.54792	0.15	-0.85625	-0.40625	0.20833	-0.60417	0.22083	-0.4125	-0.86458	0.20833	-0.45417	-0.29167	245.058	181.646	-72.774	229.986	54.551	-36.626	217.891	174.803	119.755	222.873	-54.082	251.642	169.490	224.651	-76.699	191.833	0.00037759	0.00046619	0.0002094	951.41	2.7473e-06	3.2317e-06	943.71	351.75	6.7372e-06	3.043e-06	345.98	118.13	121.34	50.827	2.7692e-06	52.338	0.00047247	0.00044957	0.00014824	985.4	5.0177e-06	4.7722e-06	977.86	364.43	4.7261e-06	4.7479e-06	360.31	122.86	126.03	53.046	5.7006e-06	54.726	-10.812	-9.325	-9.481	-74.984	56.968	17.781	-76.804	-69.876	47.685	137.959	-72.439	-66.834	-64.641	-58.657	37.795	-61.916	-8191	255	
2631.688	1	1	0	0	0.18516	0.17922	0.13855	0.24062	0.11378	0.092711	0.19814	0.058247	0.13469	0.049137	0.19726	0.16661	0.13985	0.25545	0.19498	0.061233	0.31458	-0.53958	0.18958	-0.26667	-0.8875	0.20417	-0.73333	-0.5	0.17708	-0.72083	-0.14375	-0.13542	-0.74167	0.20208	-0.61458	-0.53125	-19.818	-78.345	144.761	-39.686	36.307	230.706	150.571	252.691	142.275	136.470	188.684	9.788	-10.862	216.254	35.030	209.536	0.00049943	0.00048576	0.00019895	943.25	7.3004e-06	1.4446e-06	940.46	350.3	9.2064e-06	4.0654e-06	347.11	117.99	121.43	51.158	3.586e-06	52.371	0.00044479	0.00046056	0.00014924	977.41	4.9291e-06	5.2333e-06	976.42	363.63	4.9121e-06	5.4363e-06	361.5	123.11	126.19	53.394	6.0181e-06	54.591	-17.630	-32.312	-26.418	-74.946	59.586	134.249	-76.544	-69.917	66.869	133.748	-72.230	-66.916	-64.666	-58.733	109.056	-62.371	-8191	255	
2631.808	1	1	0	0	0.030203	0.052245	0.20791	0.21108	0.23164	0.19115	0.15386	0.053434	0.057247	0.30152	0.10602	0.21191	0.26301	0.0962	0.12303	0.073363	0.5875	-0.72708	-0.12708	-0.035417	-0.5875	0.091667	-0.40208	-0.17083	0.23542	-0.73542	-0.04375	0.16875	-0.61042	0.064583	-0.14583	-0.52083	-49.228	256.157	-15.791	-63.917	6.589	256.401	179.941	212.866	47.648	227.266	185.877	233.019	207.509	270.481	61.353	244.387	0.00050744	0.00042604	0.00012657	944.83	3.8446e-06	1.5734e-06	942	351.71	4.0192e-06	3.0068e-06	346.62	117.14	120.74	50.37	9.2837e-06	51.401	0.00045901	0.00053379	0.00015537	979.53	5.1445e-06	5.9455e-06	975.75	364.66	5.08e-06	6.1107e-06	360.59	122.03	125.96	52.821	5.8661e-06	53.63	-29.464	52.220	-70.819	-74.866	95.247	258.946	-76.619	-69.985	-3.903	106.504	-72.399	-66.824	-64.691	-58.581	66.047	-62.081	-8191	255	
2631.880	1	1	0	0	0.084316	0.21198	0.16408	0.16599	0.4061	0.073455	0.16856	0.20368	0.0533	0.12041	0.14172	0.12285	0.044457	0.23292	0.11958	0.028232	0.5875	-0.75833	0.03125	-0.047917	-0.825	0.010417	-0.38125	-0.46667	0.40625	-0.55625	-0.3	-0.033333	-0.71458	0.08125	-0.0083333	-0.67708	174.051	207.319	166.261	254.690	106.042	180.043	248.306	228.124	225.143	205.463	-76.714	-13.130	170.565	269.291	74.545	118.547	0.00043544	0.0006292	0.00018485	953.4	5.9629e-06	5.7677e-06	949.94	355.78	2.9027e-06	3.9115e-06	348.83	117.04	121.39	49.641	5.847e-06	50.673	0.00048263	0.00057841	0.00014966	987.74	5.305e-06	6.3448e-06	985.06	368.59	5.426e-06	6.3452e-06	362.3	121.57	126.59	52.144	5.6499e-06	52.671	-16.290	-14.234	-38.347	-74.947	45.309	20.028	-76.739	-69.886	-51.242	62.012	-72.607	-67.150	-64.821	-58.906	113.982	-62.581	-8191	255	
2632.001	1	1	0	0	0.18497	0.29047	0.15366	0.24765	0.12325	0.18189	0.25215	0.18937	0.16717	0.18065	0.27722	0.19646	0.27255	0.15103	0.045483	0.11908	0.575	-0.28542	-0.30417	0.16458	-0.80625	-0.010417	-0.29792	-0.69375	0.24167	-0.48333	-0.41667	0.13125	-0.71667	-0.21667	0.0375	-0.625	31.393	75.512	47.637	263.652	177.977	17.186	-63.013	-36.141	29.397	15.431	157.495	-66.268	164.501	-62.515	233.501	-19.344	0.00054848	0.00056638	0.00014557	970.38	4.6757e-06	2.8632e-06	966.19	360.21	6.4207e-06	5.4155e-06	352.9	116.9	121.77	49.189	4.0074e-06	49.91	0.00051723	0.00058332	0.00014475	1003.8	5.8465e-06	6.3207e-06	999.88	373.16	5.9506e-06	6.3217e-06	366.89	121.68	127.59	51.74	5.5868e-06	52.178	-11.870	-4.551	37.940	-75.608	161.105	-29.106	-77.084	-70.605	6.690	77.570	-72.659	-67.299	-65.049	-59.241	59.087	-62.531	-8191	255	
2632.097	1	1	0	0	0.24328	0.26137	0.16337	0.10167	0.16113	0.15135	0.42358	0.4773	0.34408	0.15831	0.093586	0.12522	0.19837	0.12378	0.16732	0.40872	0.46667	-0.44792	-0.46875	0.35	-0.37083	-0.15833	-0.08125	-0.85208	0.21875	-0.35417	-0.74375	0.21458	-0.45625	-0.2625	0.2125	-0.79792	-81.002	77.021	-4.415	246.851	-67.772	159.659	224.909	211.398	31.109	87.495	171.215	264.096	-56.470	-84.587	247.152	192.255	0.00061679	0.00064633	6.8442e-05	981.01	5.3178e-06	1.5955e-06	982.68	365.85	2.2747e-06	3.6612e-06	356.08	117.94	123.07	49.15	6.85e-06	49.926	0.00056822	0.00057078	0.00014075	1015.1	6.1876e-06	6.0491e-06	1013.9	377.9	6.1055e-06	5.6467e-06	368.06	122.26	128.35	51.392	4.6984e-06	51.75	-25.400	-39.703	-67.469	-75.056	131.253	35.687	-76.827	-70.307	-10.350	56.487	-72.621	-67.058	-64.951	-59.169	46.981	-62.584	-8191	255	
2632.191	1	1	0	0	0.076165	0.20419	0.1273	0.43645	0.26067	0.27958	0.28719	0.19309	0.058845	0.16543	0.31779	0.084593	0.1685	0.23955	0.1887	0.1338	0.50833	-0.35	-0.48958	0.089583	-0.77083	-0.33125	0.15417	-0.86667	-0.045833	-0.029167	-0.575	0.13958	-0.60417	-0.6	0.10833	-1.0292	211.395	187.106	158.529	174.233	140.255	153.304	246.645	261.119	99.496	8.897	216.504	267.859	110.456	159.163	125.023	-75.346	0.0004637	0.00057373	0.00024558	981.28	3.389e-06	3.7449e-06	979.37	365.6	3.3038e-06	4.2124e-06	354.85	115.97	122.36	48.03	6.6942e-06	48.039	0.00050074	0.00044599	0.00011291	1013.4	5.2104e-06	4.6457e-06	1007.2	377	4.9486e-06	4.1901e-06	363.83	120.46	126.98	49.83	3.5382e-06	49.627	-11.506	-24.269	-54.358	-75.049	35.963	43.359	-76.927	-70.431	112.273	8.246	-73.001	-67.337	-65.298	-59.399	78.539	-62.653	-8191	255	
2632.287	1	1	0	0	0.024919	0.29866	0.42455	0.23732	0.19342	0.34209	0.15475	0.29167	0.14351	0.16965	0.046184	0.1145	0.40122	0.1955	0.0081937	0.15884	0.25833	-0.072917	-0.62292	0.060417	-0.44167	-0.40833	0.041667	-0.93958	-0.13542	0.22292	-0.69792	-0.11458	-0.73333	-0.5	0.22292	-0.69583	56.848	2.260	192.175	119.568	235.734	215.380	224.983	216.706	81.331	-65.555	-58.912	170.446	218.389	221.419	95.304	198.315	0.00044751	0.00047614	0.00013744	982.72	3.0648e-06	2.3981e-06	968.72	363.68	1.1033e-05	3.6644e-06	348.29	114.98	121.57	48.213	4.5062e-06	48.103	0.00039006	0.00033225	8.5212e-05	1012	3.9709e-06	3.4962e-06	992.12	374.4	3.8118e-06	3.3107e-06	356.51	118.81	125.62	49.83	3.0436e-06	49.702	5.301	-12.162	-30.085	-75.193	-1.296	23.474	-77.039	-70.437	58.013	68.610	-72.756	-67.258	-65.158	-59.295	47.568	-62.585	-8191	255	
2632.408	1	1	0	0	0.32238	0.17039	0.3186	0.17756	0.033323	0.061028	0.079046	0.18396	0.03341	0.02575	0.091535	0.11499	0.24533	0.14426	0.040395	0.22857	0.2875	0.025	-0.47917	-0.095833	-0.26458	-0.51458	0.0020833	-0.77083	-0.375	0.0125	-0.89167	0.0625	-0.33958	-0.88333	0.14375	-0.77292	118.547	81.581	53.929	-86.893	70.389	6.542	269.480	193.106	201.018	7.512	241.453	-15.629	-50.694	14.348	-78.998	192.908	0.00039321	0.00019661	0.00013155	959.58	4.1309e-06	3.9911e-06	942.72	356.96	4.0832e-06	5.2639e-06	343.05	114.89	120.99	48.775	9.8734e-07	49.191	0.00033734	0.00029301	8.0195e-05	989.45	3.5816e-06	3.2026e-06	968.42	367.06	3.5292e-06	3.0877e-06	351.12	118.86	124.63	50.411	3.2242e-06	50.851	-15.206	242.799	-23.036	-75.290	19.305	52.448	-76.859	-70.085	108.451	30.758	-72.717	-67.450	-65.088	-59.341	-47.266	-62.546	-8191	255	
2632.480	1	1	0	0	0.040859	0.1731	0.40935	0.1726	0.093907	0.07697	0.16949	0.062077	0.25079	0.066694	0.15331	0.29609	0.18658	0.24079	0.14176	0.22145	-0.0875	-0.020833	-0.55625	0.15208	-0.11875	-0.51667	0.25208	-0.76042	-0.32292	0.21875	-0.89375	-0.09375	-0.44375	-0.91667	0.18333	-0.67708	258.596	191.460	80.570	-74.177	-28.340	202.730	124.970	-77.495	-65.371	-85.779	61.059	-83.548	203.138	-72.102	198.241	211.800	0.00030986	0.00088286	9.866e-05	949.61	5.027e-06	5.789e-06	934.88	352.71	5.0924e-06	6.2581e-06	339.83	115.75	121.29	49.374	4.8923e-06	49.973	0.00032435	0.00028041	8.5389e-05	976.44	3.4127e-06	3.1779e-06	959.44	363.11	3.5456e-06	3.2e-06	350.43	119.98	124.93	51.024	3.8852e-06	51.761	-14.149	-14.863	1.320	-74.957	38.001	38.672	-76.911	-70.003	68.295	48.687	-72.716	-67.213	-65.106	-59.235	158.926	-62.394	-8191	255	
2632.576	1	1	0	0	0.07888	0.18154	0.20837	0.089853	0.11964	0.073534	0.23471	0.21337	0.18077	0.47726	0.37326	0.20908	0.37303	0.12662	0.29668	0.2173	-0.072917	0.34792	-0.77708	-0.3875	-0.10208	-0.74167	0.16667	-0.50208	-0.53958	0.0875	-0.86875	-0.12917	0.064583	-1.0042	0.22708	-0.22083	-49.493	168.324	115.633	9.667	-41.939	207.920	188.827	203.884	24.287	71.627	203.946	177.745	190.833	-19.487	68.186	83.045	0.0004893	0.00073344	9.1023e-05	946.68	4.1354e-06	2.0008e-06	941.7	354.51	6.4736e-06	1.8552e-06	344.28	115.47	120.76	48.556	3.5576e-06	49.436	0.00034461	0.00031469	0.00010441	979.54	3.7146e-06	3.5439e-06	971.13	365.04	3.8162e-06	3.5074e-06	354.71	119.51	124.45	50.355	4.3358e-06	51.052	-1.353	-12.660	34.888	-74.988	39.815	20.801	-76.680	-70.066	116.363	65.208	-72.477	-67.143	-65.165	-59.033	11.109	-62.649	-8191	255	
2632.672	1	1	0	0	0.16041	0.13477	0.25626	0.17648	0.38709	0.091708	0.23418	0.31624	0.18002	0.28498	0.21275	0.14335	0.23911	0.16149	0.1951	0.26351	-0.0020833	0.3875	-0.56042	-0.15625	0.26667	-0.61875	-0.029167	-0.18958	-0.58333	0.095833	-0.67708	-0.26458	0.089583	-0.89167	0.18125	-0.0875	151.409	146.973	-25.467	-49.279	-54.708	-14.264	244.545	231.781	249.504	185.975	226.962	184.716	253.591	239.457	-41.820	154.134	0.00051661	0.00041894	0.00010283	954.05	3.8954e-06	4.2316e-07	945.46	353.02	6.2671e-06	3.5392e-06	344.35	114.66	120.35	48.397	3.9965e-06	49.222	0.00035223	0.0003341	0.00011183	983.72	3.6898e-06	3.7954e-06	974.27	364.63	3.791e-06	3.8399e-06	355.1	119.11	124.15	50.349	4.5166e-06	50.914	-20.039	10.354	-6.110	-75.106	76.676	133.993	-76.887	-69.909	36.660	75.742	-72.790	-67.297	-65.110	-59.129	81.411	-62.420	-8191	255	
2632.791	1	1	0	0	0.073695	0.082062	0.035133	0.15865	0.11292	0.24145	0.30212	0.22271	0.17284	0.14978	0.39054	0.22908	0.36021	0.13563	0.22877	0.1589	-0.41458	0.020833	-0.49375	-0.2875	0.38958	-0.89792	-0.26458	-0.43125	-0.85833	0.010417	-0.525	-0.16875	0.06875	-0.7	0.14792	-0.075	142.736	137.129	-1.783	140.144	-80.802	35.201	152.509	247.939	184.672	19.310	263.227	194.759	227.453	-51.929	83.216	143.452	0.00044778	0.00014034	0.00017174	947.08	3.9412e-06	7.7899e-07	936.29	350.82	2.9412e-06	4.4443e-06	341.91	114.77	119.81	49.017	3.3882e-06	49.9	0.00034648	0.00036382	0.00011084	976.03	3.5839e-06	4.1493e-06	963.69	361.75	3.6855e-06	4.2718e-06	351.45	118.72	123.59	50.959	4.4695e-06	51.497	-7.570	21.661	-41.598	-74.982	19.145	64.388	-76.744	-70.161	119.759	74.539	-72.516	-67.204	-64.857	-58.916	23.630	-62.406	-8191	255	
2632.887	1	1	0	0	0.27315	0.22483	0.32648	0.075778	0.15326	0.09026	0.15167	0.1148	0.12304	0.27817	0.15941	0.16492	0.21143	0.13969	0.35455	0.20608	-0.49583	0.20208	-0.475	-0.51875	0.060417	-0.86875	-0.27083	0.15833	-0.71667	-0.18542	-0.375	-0.48958	0.097917	-0.8625	-0.10833	-0.060417	70.841	-74.016	76.695	43.924	-2.745	250.474	193.262	203.482	-42.623	233.950	-10.621	-72.875	260.151	163.733	-30.455	227.752	0.00039318	0.00050169	0.00018126	934.75	4.3669e-06	4.384e-06	923.41	347	2.6914e-06	2.8087e-06	339.46	115.34	119.5	49.585	1.4956e-06	50.92	0.00035566	0.00041403	0.00011056	964.19	3.757e-06	4.5203e-06	952.67	357.59	3.9045e-06	4.5603e-06	349.98	119.12	123.61	51.755	4.2339e-06	52.524	-21.643	-30.690	-22.302	-74.906	11.999	42.898	-76.680	-69.822	72.034	53.599	-72.391	-66.912	-64.639	-58.701	95.713	-62.070	-8191	255	
2632.983	1	1	0	0	0.28331	0.16453	0.08215	0.19024	0.081645	0.14047	0.42959	0.45105	0.28187	0.36488	0.25669	0.27851	0.099587	0.074844	0.012043	0.30947	-0.28542	-0.079167	-0.19375	-0.575	0.18542	-0.87708	-0.38958	0.13125	-1.0104	-0.12708	-0.11042	-0.65625	0.21667	-0.40208	-0.46458	-0.070833	265.220	162.973	256.200	245.283	95.201	5.657	193.188	-80.127	3.117	9.292	207.901	-24.659	187.225	82.535	27.713	204.659	0.00039738	0.00026128	0.00016716	924.52	3.7474e-06	6.5505e-06	919.06	345.71	2.6365e-06	5.4041e-06	340.62	116.22	119.97	50.612	6.5167e-06	51.875	0.00037265	0.00042519	0.00010496	954.04	3.9662e-06	4.5676e-06	946.01	355.91	4.1207e-06	4.6424e-06	349.98	120.16	124.42	52.721	4.2114e-06	53.725	-19.466	4.904	-1.547	-75.018	-36.738	41.344	-76.585	-69.856	108.598	39.642	-72.239	-66.853	-64.678	-58.610	42.869	-61.982	-8191	255	
2633.079	1	1	0	0	0.1448	0.36813	0.21578	0.15116	0.18054	0.20828	0.16093	0.2245	0.1223	0.16046	0.072003	0.23421	0.069605	0.30659	0.25162	0.027629	-0.18333	0.04375	0.12292	-0.52292	0.085417	-0.39583	-0.44583	0.19792	-0.42708	-0.095833	-0.075	-1.0042	-0.11458	-0.44583	-0.27917	0.079167	139.374	34.617	114.492	194.678	-37.963	5.717	258.893	199.756	22.278	-24.596	82.466	215.753	254.850	-37.686	-6.102	-39.328	0.00050576	0.00030971	8.907e-05	925.57	4.6813e-06	5.961e-06	924.58	347.01	4.3956e-06	4.5692e-06	342.61	117.32	120.51	50.961	4.9022e-06	52.387	0.00041056	0.00043221	0.00010315	954.84	4.5018e-06	4.6182e-06	951.41	357.95	4.6006e-06	4.6142e-06	352.9	121.63	125.41	52.93	4.1635e-06	54.072	-22.809	-73.952	24.563	-74.809	66.696	63.758	-76.672	-69.603	-34.542	11.991	-71.958	-66.869	-64.705	-58.913	68.606	-62.370	-8191	255	
2633.176	1	1	0	0	0.12086	0.21282	0.36378	0.37044	0.11179	0.20617	0.19968	0.36064	0.22827	0.14274	0.315	0.1368	0.17773	0.23496	0.18471	0.31527	-0.30208	-0.070833	0.38125	-0.55417	0.19375	-0.46667	-0.68542	0.2125	-0.42708	-0.28125	0.014583	-0.63333	0.21667	-0.39375	-0.60417	0.18958	166.290	-6.896	197.981	255.629	97.906	161.045	176.082	238.441	91.621	4.228	-59.763	220.394	205.144	204.585	32.704	257.713	0.00053893	0.00074383	0.00022683	928.56	1.0539e-06	5.4174e-06	927.78	347.07	5.6812e-06	6.6077e-06	343.57	117.68	121.01	51.286	4.4987e-06	52.697	0.00043138	0.00041015	9.9888e-05	961.04	4.736e-06	4.3871e-06	956.48	358.95	4.7645e-06	4.359e-06	353.46	122.06	125.9	53.386	3.9509e-06	54.547	-31.546	-31.494	24.536	-74.708	180.402	51.812	-76.623	-69.844	-75.481	33.663	-72.366	-67.246	-64.863	-58.619	66.410	-62.776	-8191	255	
2633.272	1	1	0	0	0.19054	0.29309	0.21196	0.073494	0.20914	0.19379	0.17162	0.16608	0.45123	0.088428	0.12597	0.22519	0.15032	0.026154	0.36177	0.33988	-0.16667	-0.23542	0.27917	-0.87292	0.0041667	-0.13333	-0.95208	0.097917	-0.275	-0.4375	0.12917	-0.73125	0.072917	-0.045833	-0.72708	0.14583	19.919	81.818	44.494	256.501	251.835	55.824	216.980	213.318	-7.276	-83.808	200.561	183.366	227.272	214.178	221.139	245.895	0.00040876	0.00053718	8.8774e-05	922.8	4.3821e-06	5.8692e-06	918.44	345.89	8.0834e-06	6.8644e-06	340.35	117.32	120.68	51.365	2.9724e-06	52.69	0.00044452	0.00039488	9.8367e-05	954.11	4.776e-06	4.1544e-06	947.4	357.2	4.7734e-06	4.2514e-06	350.35	121.94	125.46	53.417	4.0276e-06	54.69	-26.271	-31.196	7.870	-75.131	43.077	67.672	-76.695	-70.062	55.799	32.116	-72.348	-67.148	-64.860	-58.632	66.685	-62.543	-8191	255	
2633.368	1	1	0	0	0.16063	0.15695	0.071785	0.15436	0.2306	0.21238	0.17033	0.11171	0.23289	0.28007	0.072343	0.089593	0.12112	0.18091	0.033046	0.48819	0.060417	-0.36458	0.43333	-0.89167	0.0041667	0.08125	-0.81458	0.23542	-0.29792	-0.39792	0.175	-0.59792	-0.18542	-0.077083	-0.76458	-0.0020833	256.482	128.584	159.229	239.726	263.096	-81.553	198.806	198.569	11.959	176.433	158.829	170.828	-87.911	255.467	126.605	176.807	0.00044551	0.00097684	0.0001727	922.37	2.3068e-06	2.8544e-06	917.59	345.04	4.2435e-06	2.5087e-06	338.71	117.81	121.71	51.435	3.1782e-06	52.419	0.00043709	0.00039179	0.0001005	953.76	4.8104e-06	4.1948e-06	945.65	357.04	4.7007e-06	4.3177e-06	350.55	122.68	125.89	53.445	4.1713e-06	54.674	-10.638	-44.688	-37.827	-74.816	4.343	80.209	-76.778	-69.990	81.917	134.007	-72.373	-66.843	-64.859	-59.043	81.016	-62.592	-8191	255	
2633.488	1	1	0	0	0.18287	0.25946	0.12977	0.35202	0.15177	0.25153	0.13312	0.1735	0.26629	0.11815	0.29365	0.072614	0.16466	0.21516	0.3393	0.30139	0.0041667	-0.62708	0.50208	-0.60208	-0.010417	-0.014583	-0.95417	0.0125	-0.20833	-0.67292	0.11875	-0.81458	-0.35417	0.054167	-0.58125	-0.1875	0.080	161.917	187.585	183.673	121.832	-80.191	175.250	227.922	196.445	138.347	248.847	256.779	115.002	162.406	68.710	98.739	0.00042193	0.00082324	6.6434e-05	933.25	3.6692e-06	7.4483e-06	930.5	347.91	3.5161e-06	3.8364e-06	343.79	118.1	121.52	51.04	1.8634e-06	52.255	0.00041834	0.00037554	0.00010405	965.96	4.4512e-06	3.9581e-06	959.11	360.4	4.3112e-06	4.0002e-06	354.23	122.58	125.91	52.985	4.4075e-06	54.252	-7.982	0.602	2.883	-74.986	65.059	54.508	-76.977	-70.068	231.654	69.354	-72.407	-67.072	-65.139	-59.133	210.331	-62.757	-8191	255	
2633.583	1	1	0	0	0.50402	0.35328	0.16271	0.19442	0.031612	0.10298	0.020097	0.084406	0.12222	0.2187	0.33538	0.1641	0.26594	0.15678	0.31914	0.249	0.49375	-0.56458	0.375	-0.56667	-0.3125	0.23125	-0.45	-0.010417	-0.17917	-0.79792	0.064583	-0.48333	-0.51875	0.10833	-0.66458	-0.14583	-71.279	251.830	102.637	187.770	260.710	223.731	260.415	155.336	93.595	205.108	256.808	-59.472	37.153	248.134	222.873	12.464	0.000474	0.0011583	0.00013241	941.74	9.276e-06	1.7085e-06	942.74	352.77	5.3297e-07	4.924e-06	347.48	117.74	121.29	50.111	2.4975e-06	51.256	0.00039714	0.00036663	0.00011227	974.54	4.3074e-06	3.8513e-06	972.73	364.79	4.1031e-06	3.8655e-06	358.28	122.05	125.77	51.936	4.5105e-06	53.179	-26.745	-20.194	6.171	-75.270	25.023	109.344	-76.962	-70.409	-43.333	45.780	-72.644	-67.240	-65.186	-59.350	95.223	-62.683	-8191	255	
2633.679	1	1	0	0	0.18994	0.053917	0.2446	0.4001	0.11619	0.20177	0.11581	0.053662	0.24524	0.071217	0.24804	0.055546	0.06998	0.025761	0.16573	0.21511	0.46042	-0.48125	0.14792	-0.51042	-0.44375	0.20417	-0.94583	-0.31042	0.19375	-0.64792	-0.10208	-0.3375	-0.56042	0.32292	-0.6	-0.18958	72.982	23.865	238.710	222.673	-3.782	-44.130	85.091	101.290	93.116	111.370	255.973	-61.020	110.881	-52.424	191.073	166.685	0.00055361	0.0001903	0.00012905	947.32	2.6391e-06	1.8161e-06	942.97	354.36	5.0926e-06	4.6735e-06	346.36	117.19	122.06	50.025	1.9778e-06	51.008	0.00036684	0.00034905	0.00011384	979.48	3.9685e-06	3.7353e-06	974.39	364.82	3.8444e-06	3.812e-06	357.13	121.76	125.84	52.034	4.4569e-06	52.794	-30.673	143.049	25.856	-75.266	38.778	63.822	-76.735	-70.430	54.997	113.686	-72.636	-67.418	-65.334	-59.284	14.485	-62.805	-8191	255	
2633.775	1	1	0	0	0.16766	0.19939	0.23808	0.12106	0.22105	0.092583	0.5296	0.055321	0.18924	0.13151	0.25732	0.34031	0.12121	0.26945	0.25235	0.31569	0.52292	-0.72292	0.14583	-0.2375	-0.8875	0.1625	-0.79167	-0.575	0.26042	-0.55	0.05625	-0.23542	-0.70625	-0.05	-0.64583	-0.62708	170.442	66.911	254.624	262.264	30.252	156.527	229.426	197.635	-11.376	-70.655	203.672	223.814	-81.232	250.380	75.930	-59.528	0.00060537	0.00025837	0.00016752	948.87	3.443e-06	4.6147e-06	947.53	353.34	4.8223e-06	1.447e-06	343.94	116.85	121.61	49.641	4.1914e-06	49.934	0.00034547	0.00035995	0.0001134	977.23	3.7103e-06	3.9311e-06	974.79	364.85	3.5932e-06	3.9769e-06	355.89	120.41	125.2	51.525	4.223e-06	51.843	-18.574	-23.154	-0.247	-75.410	38.006	69.608	-76.918	-70.367	92.422	9.733	-72.687	-67.693	-65.177	-59.355	49.135	-63.032	-8191	255	
2633.871	1	1	0	0	0.10858	0.079605	0.46978	0.093425	0.34904	0.029813	0.29599	0.2366	0.317	0.25862	0.38909	0.033698	0.37787	0.12047	0.21186	0.21893	0.60625	-0.80833	0.125	-0.3125	-0.92292	0.35833	-0.59375	-0.66667	0.0875	-0.43958	-0.21667	0.01875	-0.71042	0.12292	-0.2125	-0.61875	239.674	25.121	39.700	205.488	24.106	41.986	195.541	150.516	77.334	-24.138	229.753	3.737	259.514	-84.484	73.005	244.374	0.00053636	0.00032323	0.00019152	957.67	3.6469e-06	6.0968e-06	947.65	354.62	4.4849e-06	2.588e-06	344.35	116.2	121.7	49.801	1.8217e-06	50.665	0.00032292	0.00036494	0.00010487	983.2	3.4067e-06	3.9347e-06	976.37	365.23	3.3683e-06	4.0124e-06	354.1	120.07	125.27	51.677	3.998e-06	52.324	-18.463	-9.119	-11.493	-75.426	-5.934	-10.760	-77.012	-70.288	54.026	177.817	-73.092	-67.410	-65.241	-59.389	73.221	-62.727	-8191	255	
2633.968	1	1	0	0	0.10445	0.15351	0.17793	0.22068	0.19113	0.21864	0.15684	0.27527	0.22391	0.11317	0.09158	0.15592	0.1582	0.23013	0.10738	0.1384	0.61458	-0.62708	-0.045833	-0.13333	-0.68958	0.40625	-0.46667	-0.6875	0.31875	-0.75	-0.17917	-0.10625	-0.87708	-0.027083	-0.014583	-0.63333	-57.034	106.927	214.429	168.821	226.377	127.845	104.905	245.273	20.661	216.353	165.872	211.917	241.465	254.442	56.147	209.758	0.00040553	0.00064761	0.00017528	931.35	3.6805e-06	3.6119e-06	923.15	347.59	1.2225e-06	5.0801e-06	340.69	118.12	122.12	51.337	2.7014e-06	52.63	0.00033303	0.00039338	0.00010309	959.74	3.6972e-06	4.2994e-06	951.68	357.26	3.5138e-06	4.0527e-06	349.72	121.64	125.79	53.26	3.5074e-06	54.142	-23.482	-33.290	-11.719	-75.197	115.720	-0.855	-76.755	-70.295	-7.360	60.316	-72.640	-67.423	-65.015	-59.113	42.055	-62.789	-8191	255	
2634.088	1	1	0	0	0.037725	0.21297	0.2496	0.23039	0.19269	0.20632	0.19397	0.098271	0.067997	0.17825	0.33029	0.27921	0.25255	0.05891	0.22988	0.054895	0.66042	-0.39792	-0.36875	0.045833	-0.47917	-0.10208	-0.089583	-0.89167	0.2125	-0.40625	-0.57292	0.20417	-0.7625	-0.052083	0.05	-0.8	-9.415	225.887	205.217	227.735	233.197	201.328	245.899	-18.993	7.520	-32.306	151.597	195.741	-36.617	24.678	187.084	266.186	0.00050778	0.00088755	8.1332e-05	931.63	3.9718e-07	4.3047e-06	929.34	348.68	3.7077e-06	5.7974e-06	342.16	119.45	122.05	52.173	1.1659e-06	54.156	0.00032445	0.00035521	8.8052e-05	956.64	3.5439e-06	3.8653e-06	955.31	358.74	3.689e-06	3.8867e-06	351.86	122.86	126.2	54.086	3.5442e-06	55.889	-28.822	-6.889	-62.428	-75.320	-59.415	36.571	-76.801	-70.153	146.259	89.653	-72.651	-67.351	-65.031	-59.017	103.300	-62.814	-8191	255	
2634.184	1	1	0	0	0.12274	0.12388	0.17242	0.24438	0.08393	0.15869	0.16356	0.1827	0.11293	0.26013	0.078308	0.45031	0.024696	0.36349	0.2258	0.021407	0.71667	-0.53333	-0.43333	0.15208	-0.65833	-0.06875	-0.058333	-0.66458	0.18333	-0.34375	-0.625	0.0875	-0.70625	-0.28125	-0.0020833	-0.52917	167.146	268.656	-42.410	-53.109	62.994	244.326	268.998	188.947	101.171	222.032	100.177	256.475	121.958	-78.923	-78.761	142.495	0.00047524	0.00034554	0.00015531	918.21	5.4656e-06	7.4107e-06	919.76	346.34	5.3749e-06	3.4556e-06	343.03	121.11	123.01	53.587	4.7936e-06	55.585	0.00037001	0.00036038	9.2554e-05	944.91	4.0879e-06	4.0207e-06	945.07	356.28	4.198e-06	4.0152e-06	351.68	124.82	127.86	55.771	3.5809e-06	57.333	-20.561	-53.185	-35.463	-75.032	14.323	60.295	-76.517	-70.133	235.888	6.870	-72.264	-67.323	-64.953	-59.054	109.273	-62.650	-8191	255	
2634.280	1	1	0	0	0.074036	0.1907	0.069531	0.31505	0.20739	0.17926	0.22632	0.26111	0.10908	0.24267	0.14296	0.1756	0.1285	0.17682	0.02645	0.18116	0.41042	-0.23542	-0.56458	0.075	-0.58125	-0.31875	-0.15	-0.96042	0.20625	-0.28958	-0.9875	0.20625	-0.56042	-0.57917	0.29583	-0.63958	252.375	214.789	-74.975	242.659	14.163	49.612	230.143	197.262	-22.130	101.338	0.321	203.508	192.277	195.721	29.248	228.008	0.00064067	0.00069799	8.9162e-05	915.66	7.1817e-06	4.5023e-06	917.5	346.64	1.5682e-06	7.3713e-06	340.38	120.51	123.53	53.685	5.1326e-06	55.258	0.00039785	0.00036198	9.2682e-05	942.93	4.2607e-06	3.9099e-06	943.27	357.46	4.3611e-06	3.9268e-06	350.36	124.8	128.02	55.809	3.7504e-06	57.289	-13.002	-11.693	15.768	-75.115	33.911	23.820	-76.656	-69.961	36.620	76.792	-72.669	-67.247	-64.869	-59.235	60.772	-62.748	-8191	255	
2634.377	1	1	0	0	0.33125	0.13264	0.20093	0.36203	0.13035	0.2297	0.18275	0.11278	0.22404	0.22696	0.33458	0.24728	0.35297	0.29655	0.1365	0.15847	0.5	-0.19792	-0.65417	0.15625	-0.26875	-0.58125	0.11667	-0.66458	0.12917	0.15208	-0.725	0.14792	-0.375	-0.35417	0.20833	-0.63125	-0.879	71.644	172.700	266.028	185.656	-33.469	198.853	-71.950	-40.806	-83.399	165.463	-81.066	235.478	199.014	-11.199	149.362	0.00054385	0.0011783	0.00013467	917.16	7.5359e-06	6.0296e-06	916.27	347.89	3.4023e-06	5.6358e-06	341.75	120.07	122.78	52.914	3.2301e-06	54.518	0.00042989	0.00037317	9.8078e-05	948.38	4.4987e-06	4.0819e-06	944.91	359.05	4.453e-06	3.9493e-06	351.87	124.41	127.41	55.026	3.7615e-06	56.609	-29.907	-33.260	-39.981	-75.220	46.114	44.609	-76.822	-69.845	-13.974	41.098	-72.413	-67.060	-64.974	-59.038	60.222	-62.447	-8191	255	
2634.471	1	1	0	0	0.19502	0.28359	0.062117	0.14301	0.23128	0.23086	0.1674	0.10856	0.21055	0.074522	0.21819	0.29061	0.3331	0.36759	0.25379	0.31449	0.23333	0.2625	-0.88333	-0.027083	-0.39375	-0.275	0.14583	-0.86042	-0.22083	0.24583	-0.89375	0.091667	-0.32083	-0.61667	0.11875	-0.675	-22.713	213.726	-38.275	157.551	124.423	250.367	66.008	105.517	181.890	-54.996	259.013	233.968	-59.401	-69.122	-50.803	148.713	0.00036027	0.00076198	0.00010375	919.95	6.2206e-06	7.6044e-06	916.03	345.11	7.1811e-06	3.8198e-06	341.87	119.98	122.71	52.647	1.0157e-06	54.826	0.00041668	0.00036514	9.9602e-05	948.96	4.4671e-06	4.1129e-06	943.74	357.72	4.5704e-06	4.0455e-06	353.29	124.79	127.02	54.893	4.2447e-06	57.086	-15.887	-36.341	-14.026	-75.191	91.530	27.759	-76.831	-69.901	47.847	82.523	-72.249	-66.950	-65.147	-58.943	121.597	-62.419	-8191	255	
2634.567	1	1	0	0	0.058427	0.1721	0.22147	0.15628	0.085969	0.247	0.13836	0.061314	0.27867	0.093846	0.29719	0.22936	0.043711	0.29077	0.032084	0.21827	0.027083	0.31458	-0.5375	-0.20417	-0.075	-0.525	-0.083333	-0.65833	-0.27917	0.047917	-0.75208	0.089583	-0.079167	-0.85625	0.325	-0.41875	72.739	242.422	69.260	257.016	41.601	234.544	33.913	116.267	172.697	45.783	260.193	186.978	264.293	202.695	125.679	220.592	0.00048148	0.00067796	8.8839e-05	912.74	4.5218e-06	4.9891e-06	922.73	346.66	5.0842e-06	5.6324e-06	345.44	121.82	123	53.581	2.0548e-06	56.166	0.00041893	0.00036814	0.00011078	947.6	4.3868e-06	4.1073e-06	950.27	358.8	4.5729e-06	4.1251e-06	357.64	126.68	127.62	55.763	4.7486e-06	58.273	-19.000	-26.845	96.070	-75.052	19.546	40.933	-76.695	-69.941	83.611	72.195	-72.304	-67.038	-64.818	-58.919	45.941	-62.279	-8191	255	
2634.663	1	1	0	0	0.11559	0.34547	0.19863	0.27732	0.2593	0.11741	0.14921	0.18895	0.26452	0.023147	0.17217	0.17782	0.025466	0.14803	0.031873	0.35251	-0.020833	0.24167	-0.43333	-0.125	-0.027083	-0.46667	0.25	-0.53125	-0.28958	0.25208	-0.7	-0.2875	-0.020833	-0.56458	0.175	-0.4625	124.733	263.109	-4.162	114.177	268.593	181.402	103.823	-68.500	77.197	35.813	5.132	168.037	-66.928	-86.872	-16.166	269.837	0.00037699	0.00045914	0.0001378	916.93	8.0513e-06	5.0228e-06	925.67	349.13	6.6009e-06	4.166e-06	346.41	120.99	122.82	53.008	2.2294e-06	54.691	0.00042301	0.00037524	0.00012314	949.24	4.3652e-06	4.1017e-06	957.14	360.54	4.3634e-06	4.0498e-06	358.25	125.62	127.42	55.027	4.8636e-06	56.556	-25.912	-7.832	-0.139	-75.344	28.522	41.217	-76.829	-69.944	86.154	14.819	-72.346	-67.135	-64.812	-59.080	73.133	-62.338	-8191	255	
2634.759	1	1	0	0	0.011051	0.23575	0.14448	0.37519	0.29659	0.14302	0.25749	0.15053	0.13856	0.058098	0.24772	0.20374	0.17722	0.12689	0.08281	0.18315	-0.31458	0.36667	-0.67708	-0.34375	0.08125	-0.81875	-0.24375	-0.34583	-0.73125	0.15	-0.49583	-0.43958	-0.039583	-0.76667	0.0083333	-0.20208	15.442	39.957	119.639	248.392	266.878	-59.113	188.358	227.993	201.721	-14.040	268.416	45.194	-77.699	-46.048	218.193	-5.125	0.00052118	0.00062927	0.00019835	926.63	5.5949e-06	4.1406e-06	925.79	349.45	7.1454e-06	2.7815e-06	343.32	119.09	122.49	51.823	6.2477e-06	52.658	0.00039907	0.00038409	0.00012532	957.66	4.1471e-06	4.2534e-06	957.4	360.82	4.123e-06	4.1369e-06	355.79	123.4	126.73	53.819	4.8801e-06	54.648	-9.622	-63.174	-17.778	-75.208	87.562	83.674	-76.874	-70.037	3.935	-3.342	-72.446	-67.562	-65.198	-59.185	74.425	-62.805	-8191	255	
2634.880	1	1	0	0	0.28127	0.12517	0.18999	0.05773	0.024614	0.11776	0.35743	0.12075	0.18001	0.12397	0.19239	0.12452	0.15049	0.29164	0.08845	0.27823	-0.29792	0.25833	-0.43125	-0.50625	0.28542	-0.73958	-0.30833	-0.28333	-0.54375	-0.0041667	-0.5625	-0.31458	0.31458	-0.75	-0.047917	-0.20208	120.558	23.540	214.103	201.865	110.044	74.837	239.652	-79.732	-59.322	-85.222	-81.757	55.864	222.662	-26.449	146.030	236.378	0.00043143	0.00041948	0.00026171	927.73	3.727e-06	2.5467e-06	929.22	349.57	6.6505e-06	3.6021e-06	342.45	117.93	121.89	51.347	3.8329e-06	52.634	0.00037721	0.00039692	0.00011995	960.91	3.911e-06	4.4024e-06	960.55	361.03	3.9587e-06	4.4749e-06	355.15	122.54	126.13	53.527	4.7767e-06	54.533	-5.151	57.422	-6.803	-75.408	-19.174	67.315	-77.149	-69.928	86.914	16.577	-72.739	-67.609	-65.101	-59.264	60.508	-62.593	-8191	255	
2634.976	1	1	0	0	0.11616	0.16008	0.13153	0.062729	0.12394	0.13717	0.27638	0.231	0.15134	0.31233	0.25753	0.17306	0.21998	0.32531	0.17126	0.063125	-0.31875	0.34583	-0.28958	-0.37917	0.28958	-0.7	-0.23958	-0.1	-0.50833	0.04375	-0.2625	-0.49375	0.11667	-0.66042	-0.31875	0.04375	-52.209	1.244	51.895	85.592	268.994	-17.756	-64.798	-83.836	-36.162	181.117	228.085	-30.670	229.125	226.276	27.059	-6.794	0.00045958	0.00029753	9.8902e-05	926.48	3.3941e-06	4.1866e-06	925.25	347.72	7.1591e-07	8.9379e-07	344.58	119.01	121.65	51.588	3.3122e-06	52.999	0.00036945	0.00042214	0.00011475	956.13	3.8438e-06	4.537e-06	955.35	359.51	3.8499e-06	4.5003e-06	354.06	122.87	125.86	53.649	4.28e-06	54.621	-6.806	45.472	48.114	-75.410	7.967	60.164	-76.891	-70.101	176.682	50.647	-72.366	-67.435	-65.140	-59.254	77.874	-62.770	-8191	255	
2635.048	1	1	0	0	0.29125	0.093477	0.10566	0.25864	0.17728	0.064224	0.26106	0.12621	0.16146	0.31213	0.064163	0.10874	0.23248	0.043879	0.27877	0.030772	-0.37083	0.022917	-0.24792	-0.6625	0.18542	-0.42708	-0.44375	0.020833	-0.74583	-0.12917	-0.14167	-0.52917	0.0083333	-0.35625	-0.27708	-0.091667	-84.315	240.182	17.720	177.091	228.384	262.896	177.078	-74.100	89.484	261.727	135.142	45.035	246.294	-71.143	67.897	164.173	0.00054091	0.00021978	9.5241e-05	928.72	1.8421e-06	5.8488e-06	932.91	350.11	5.4318e-06	3.3787e-06	344.64	118.77	121.62	51.023	3.8373e-06	52.469	0.00036591	0.00041243	0.00010286	959.6	3.9183e-06	4.5109e-06	961.5	360.81	4.0984e-06	4.5868e-06	355.51	122.52	125.73	53.205	4.0585e-06	54.354	-23.824	-21.773	-1.852	-75.375	156.676	26.068	-76.950	-70.123	80.849	70.681	-72.577	-67.309	-64.955	-59.403	88.247	-62.639	-8191	255	
2635.169	1	1	0	0	0.27186	0.2192	0.13199	0.17035	0.079012	0.12482	0.077219	0.18862	0.15651	0.052046	0.14385	0.27427	0.049722	0.25594	0.066969	0.017947	-0.4875	0.14792	0.0083333	-0.83333	0.23125	-0.34583	-0.50208	0.13125	-0.71042	-0.047917	-0.058333	-0.82292	0.079167	-0.36042	-0.5625	0.083333	26.063	200.893	180.915	95.770	175.025	109.076	115.432	76.765	48.099	268.755	27.045	152.304	98.825	-39.062	12.150	61.568	0.00047268	0.0005931	0.00016263	924.12	4.8496e-06	5.6003e-06	924.72	348.47	2.3063e-06	6.6366e-06	343.36	117.9	121.47	51.123	5.0904e-06	52.168	0.00039227	0.00041683	0.00010059	952.78	4.283e-06	4.4281e-06	954.26	358.97	4.3673e-06	4.3226e-06	353.19	122	125.71	53.038	3.917e-06	53.769	-23.159	-11.993	-19.942	-75.250	36.832	51.318	-76.946	-70.042	181.619	58.068	-72.596	-67.084	-65.139	-59.135	79.759	-62.751	-8191	255	
2635.265	1	1	0	0	0.24975	0.15007	0.11143	0.14129	0.089131	0.10197	0.38988	0.41819	0.15423	0.12978	0.28155	0.21721	0.1798	0.14649	0.29061	0.14484	-0.066667	-0.010417	-0.064583	-0.73333	0.06875	-0.25	-0.6625	0.035417	-0.56458	-0.15	-0.19583	-0.99583	0.097917	-0.50833	-0.675	0.21875	108.490	166.660	-9.076	-71.932	219.515	203.124	-83.259	-60.617	132.758	125.717	226.802	-30.019	182.436	250.540	177.631	260.720	0.00053577	0.00090497	0.00011292	932.26	4.4588e-06	8.5848e-06	931.2	351.13	4.5494e-06	5.5565e-06	345.06	116.21	121.07	49.962	2.1331e-06	50.109	0.0004056	0.00038585	9.4045e-05	961.61	4.3562e-06	4.1151e-06	960.1	361.25	4.3833e-06	4.0117e-06	353.62	120.32	125.24	51.722	3.5873e-06	51.925	-16.445	-10.622	4.502	-75.154	73.447	24.484	-77.074	-70.338	122.960	44.716	-72.860	-67.379	-65.322	-59.420	79.831	-62.919	-8191	255	
2635.361	1	1	0	0	0.029939	0.34871	0.24578	0.44222	0.17468	0.22796	0.14858	0.11893	0.094777	0.078322	0.15196	0.10111	0.095363	0.36732	0.50431	0.23355	-0.2625	-0.23125	0.13958	-0.81042	-0.11875	-0.22083	-0.69792	0.11042	-0.6875	-0.33125	0.19375	-0.74583	-0.13958	-0.26667	-0.6625	0.05	170.965	54.331	120.649	-75.086	260.763	204.959	265.498	112.777	166.091	209.823	-64.727	128.287	43.059	233.835	167.635	204.004	0.00044683	0.00079318	0.00017239	947.61	6.7154e-06	5.289e-06	942.83	354.85	1.5792e-06	4.9965e-06	345.43	115.78	120.84	49.065	1.6526e-06	49.525	0.00038984	0.00034345	8.5753e-05	975.87	4.0935e-06	3.5456e-06	969.14	364.7	3.8935e-06	3.4362e-06	353	119.64	124.73	50.894	3.1549e-06	51.273	-14.936	3.799	-23.561	-75.480	-13.744	47.159	-77.221	-70.765	3.569	51.501	-72.847	-67.462	-65.490	-59.680	42.476	-63.111	-8191	255	
2635.480	1	1	0	0	0.13359	0.19827	0.20234	0.082205	0.021083	0.1642	0.14835	0.35391	0.1573	0.11492	0.14027	0.1278	0.26848	0.17903	0.10577	0.1705	-0.035417	-0.3625	0.1625	-0.79792	-0.085417	0.16875	-0.70417	0.13958	-0.50417	-0.60417	0.075	-0.85625	-0.25833	-0.0625	-0.77917	0.075	21.764	7.815	233.656	267.847	-81.211	222.184	253.627	213.267	108.162	210.213	105.561	17.367	256.745	12.569	222.972	210.608	0.00043154	0.0005762	7.3532e-05	942.87	9.3587e-06	6.0454e-06	933.61	351.19	9.0798e-06	4.3826e-06	343.15	116.13	120.74	49.613	2.6332e-06	50.506	0.00034065	0.00029955	7.6057e-05	969.53	3.5641e-06	3.1371e-06	958.95	362.42	3.413e-06	3.0857e-06	350.04	119.68	124.31	51.23	2.95e-06	52.003	-21.194	15.815	39.540	-75.376	39.418	47.820	-76.941	-70.405	67.096	55.508	-73.036	-67.662	-65.563	-59.471	140.113	-62.922	-8191	255	
2635.576	1	1	0	0	0.12936	0.13118	0.075947	0.096678	0.086042	0.069908	0.1385	0.13704	0.1927	0.25049	0.15232	0.28744	0.35876	0.15081	0.28461	0.21074	0.0083333	-0.54792	0.17083	-0.54375	-0.3625	0.11458	-0.58333	-0.08125	-0.1375	-0.63125	-0.18333	-0.77083	-0.42917	0.035417	-0.62292	-0.01875	49.370	21.319	86.047	243.533	127.771	142.047	239.891	227.054	-11.954	214.357	9.549	257.921	250.385	242.120	121.902	256.316	0.0003767	0.00068596	7.6433e-05	925.46	7.9091e-06	2.4699e-06	918.44	348.25	4.5856e-06	5.5568e-06	339.84	117.21	120.58	51.141	2.1349e-06	52.742	0.00029976	0.00027338	7.3305e-05	953.48	3.1741e-06	2.8419e-06	946.65	357.96	3.1059e-06	2.8696e-06	349.13	121.31	124.39	52.741	3.173e-06	54.289	-19.729	-24.748	3.112	-75.267	42.090	47.513	-76.935	-70.368	19.816	77.786	-72.766	-67.349	-65.299	-59.304	102.981	-62.695	-8191	255	
2635.648	1	1	0	0	0.19784	0.23759	0.28017	0.10425	0.095276	0.1144	0.12415	0.10292	0.14314	0.087294	0.22524	0.23785	0.24374	0.0053476	0.314	0.19474	0.16667	-0.72292	0.10208	-0.53542	-0.32083	0.19792	-1.0167	-0.085417	-0.12292	-0.7	0.089583	-0.39375	-0.54167	0.01875	-0.63125	-0.19167	176.462	-67.405	-86.976	162.928	101.368	115.969	202.446	170.682	110.928	46.159	232.970	193.269	226.720	-62.139	-27.141	167.514	0.00046918	0.00079092	7.9554e-05	914.85	4.2744e-06	2.3415e-06	917.69	346.17	8.0121e-06	5.4846e-06	340.22	117.51	120.08	51.066	3.1848e-06	52.408	0.00029236	0.00026232	8.1195e-05	942.47	3.1177e-06	2.7713e-06	942.52	355.74	3.0395e-06	2.8083e-06	348.45	121.02	124.24	52.688	3.2646e-06	53.881	-25.180	-18.429	27.005	-74.904	54.950	43.553	-76.767	-70.098	57.904	59.733	-72.568	-67.443	-65.031	-59.384	47.104	-62.844	-8191	255	
2635.768	1	1	0	0	0.12515	0.18896	0.28356	0.23103	0.055431	0.10793	0.25841	0.28716	0.044008	0.11756	0.024432	0.43989	0.26802	0.10518	0.19999	0.12549	0.4625	-0.54792	0.20625	-0.28542	-0.39375	0.1625	-0.45833	-0.16458	0.054167	-0.66042	0.11042	-0.48958	-0.49375	-0.060417	-0.7125	-0.26042	143.009	267.351	169.587	-70.483	162.422	127.359	191.110	188.852	86.521	77.409	189.826	183.434	233.880	96.118	246.757	12.998	0.00041694	0.00031971	8.1655e-05	917.29	2.7968e-06	9.6972e-07	909.52	343.23	1.5015e-06	3.2341e-06	336.39	117.56	120.13	51.391	5.2605e-06	52.652	0.00027981	0.00026103	8.4178e-05	942.15	2.9911e-06	2.7924e-06	934.54	352.48	2.9635e-06	2.9306e-06	344.68	120.94	124.09	53.205	3.5414e-06	54.277	-21.701	-31.251	-4.963	-75.105	35.750	-52.315	-76.689	-70.265	40.849	67.251	-72.697	-67.186	-65.239	-59.276	74.704	-62.806	-8191	255	
2635.864	1	1	0	0	0.10462	0.14278	0.17204	0.14615	0.16754	0.27238	0.27096	0.1168	0.1554	0.099982	0.10817	0.18943	0.071127	0.2156	0.28888	0.275	0.28542	-0.66667	0.34167	-0.38958	-0.6375	0.05625	-0.47083	-0.42083	0.027083	-0.53125	0.15833	-0.42917	-0.725	0.18125	-0.45417	-0.48542	24.627	-12.084	48.055	161.593	153.804	-72.380	227.104	130.842	76.408	81.411	127.375	157.045	-11.950	172.675	216.533	225.140	0.00042506	0.00057351	0.00011426	909.76	3.8655e-06	6.3986e-06	910.99	342.35	3.962e-06	2.7129e-06	338.69	116.1	120.14	49.925	2.9216e-06	50.683	0.00027547	0.00027822	8.7845e-05	934.68	2.9394e-06	2.9719e-06	933.87	352.35	2.7803e-06	3.0264e-06	346.62	119.55	123.32	51.721	3.3366e-06	52.192	-17.880	-36.726	-13.006	-75.148	101.753	95.196	-76.634	-70.069	74.337	82.200	-72.754	-67.520	-65.069	-59.131	19.642	-62.891	-8191	255	
2635.960	1	1	0	0	0.04319	0.15503	0.08119	0.21263	0.080585	0.21609	0.17741	0.097946	0.29973	0.12229	0.15183	0.042061	0.058392	0.26049	0.21476	0.17134	0.275	-0.51667	0.05625	-0.35833	-0.48542	0.36458	-0.55417	-0.39583	0.25208	-0.7875	-0.1	-0.052083	-0.65417	0.13125	-0.21458	-0.54583	212.819	164.443	166.557	210.684	210.120	143.934	262.641	247.350	230.933	70.000	168.167	152.996	180.825	259.425	45.218	-73.105	0.00051645	0.00045861	0.00017286	925.69	3.0408e-06	4.8406e-06	920.73	346.8	6.5617e-06	3.0439e-06	338.64	115.45	119.76	49.085	4.2903e-06	49.623	0.00026318	0.00029099	8.4909e-05	950.68	2.8446e-06	3.2627e-06	945.68	356.14	2.779e-06	3.2422e-06	347.42	118.76	123.21	50.868	3.2011e-06	51.144	-19.388	-16.424	-4.163	-75.132	74.850	29.654	-76.761	-70.247	102.433	52.975	-72.708	-67.424	-65.283	-59.505	54.244	-62.764	-8191	255	
2636.057	1	1	0	0	0.18693	0.32802	0.17812	0.18426	0.26519	0.037988	0.31909	0.017734	0.20405	0.2728	0.097439	0.10133	0.1403	0.29063	0.081706	0.13049	0.5875	-0.53333	-0.17083	0.039583	-0.36667	-0.054167	-0.30833	-0.63125	0.13958	-0.45	-0.175	0.14583	-0.67292	-0.077083	-0.04375	-0.53333	124.852	127.588	268.336	46.315	114.808	198.223	194.182	22.277	34.008	64.360	33.106	268.951	184.383	263.757	231.472	174.946	0.00045972	0.00064764	9.4863e-05	930.77	3.5209e-06	4.6742e-06	925.69	346.25	4.0946e-06	4.8056e-06	339.44	115.41	119.89	48.918	1.2978e-06	49.675	0.00026673	0.00031225	8.2459e-05	955.22	2.9519e-06	3.4617e-06	951.77	356.76	2.8932e-06	3.355e-06	347.69	118.72	123.26	50.715	2.9029e-06	51.042	-10.260	-25.116	-81.036	-75.344	17.297	67.346	-77.082	-70.451	-26.550	30.528	-72.709	-67.329	-65.314	-59.424	259.426	-62.951	-8191	255	
2636.153	1	1	0	0	0.090476	0.099067	0.19356	0.104	0.24229	0.042078	0.12666	0.095436	0.2707	0.17533	0.18685	0.29313	0.23473	0.11602	0.18011	0.24264	0.58958	-0.37917	-0.085417	0.21042	-0.42708	0.17083	-0.22083	-0.63958	0.34583	-0.5375	-0.3625	0.16042	-0.86875	-0.054167	0.0875	-0.72292	-39.519	142.970	225.002	90.780	202.699	173.508	-82.696	141.697	-22.278	78.890	17.135	253.076	-87.104	134.954	110.999	166.576	0.00055068	0.00063415	0.0001513	929.77	1.6713e-06	4.1373e-06	923.43	347.35	5.1462e-06	4.5553e-06	336.27	114.47	119.4	48.476	3.0188e-06	48.333	0.00026758	0.00028767	7.1726e-05	953.37	2.8189e-06	3.1005e-06	946.92	356.28	2.9204e-06	3.0443e-06	344.63	117.36	122.81	50.026	2.7751e-06	49.787	-28.399	-34.491	5.261	-75.173	53.228	72.591	-76.758	-70.399	189.773	49.044	-72.966	-67.532	-65.287	-59.556	0.646	-62.869	-8191	255	
2636.272	1	1	0	0	0.12354	0.32168	0.20049	0.28582	0.24753	0.064629	0.35474	0.43079	0.21032	0.19941	0.22917	0.051117	0.060191	0.079984	0.13745	0.13448	0.58125	-0.04375	-0.49375	-0.064583	-0.67292	-0.19375	-0.077083	-0.67917	0.25	-0.67708	-0.44167	0.33333	-0.675	-0.12292	0.14375	-0.62083	76.837	185.340	219.233	228.786	225.959	51.602	96.639	241.524	263.400	213.941	-47.008	239.400	-79.527	-47.943	100.384	236.769	0.00050766	0.00081489	0.0001626	929.99	2.4013e-06	8.429e-06	918.9	347.27	2.301e-06	2.9143e-06	334.75	113.35	119.25	47.993	3.9771e-06	48.417	0.00028904	0.00028107	7.0363e-05	954.22	3.1052e-06	3.0705e-06	942.86	355.68	3.1892e-06	3.0032e-06	341.4	116.41	122.53	49.76	2.7295e-06	49.778	-22.182	-27.777	-37.070	-75.219	49.656	47.642	-76.996	-70.370	34.294	80.643	-72.899	-67.547	-65.380	-59.595	79.271	-63.075	-8191	255	
2636.345	1	1	0	0	0.072922	0.02242	0.10552	0.12985	0.11991	0.23115	0.20291	0.10053	0.16344	0.33581	0.13727	0.23677	0.2727	0.1416	0.24268	0.25557	0.56042	-0.175	-0.52083	0.34583	-0.69375	-0.1875	0.070833	-0.72292	0.28958	-0.41458	-0.75417	0.19583	-0.64167	-0.36667	0.15417	-0.84792	173.801	232.595	-86.300	198.077	214.629	-60.850	-54.530	-35.606	-59.649	-73.641	-62.244	248.290	102.512	33.970	190.273	187.200	0.00049245	0.00042992	0.00013024	922.67	4.6328e-06	5.3493e-06	915.31	345.07	2.1178e-06	4.2167e-06	333.47	113.38	118.1	47.885	3.9581e-06	48.457	0.0003034	0.00026707	6.8823e-05	947.56	3.1432e-06	2.8618e-06	935.18	353.19	3.1101e-06	2.7129e-06	340.06	116.45	121.59	49.476	2.4519e-06	49.7	-7.481	-63.155	-14.881	-75.286	31.346	74.557	-77.105	-70.428	4.622	19.290	-73.017	-67.620	-65.166	-59.465	72.385	-62.958	-8191	255	
2636.441	1	1	0	0	0.0086723	0.094279	0.037156	0.18998	0.045725	0.26986	0.14633	0.077005	0.22339	0.12297	0.1537	0.099516	0.46284	0.17313	0.25555	0.24062	0.39167	-0.175	-0.6875	0.0375	-0.29792	-0.48333	0.10208	-0.55	-0.054167	0.17917	-0.5	0.10625	-0.5625	-0.32917	0.14792	-0.90208	-26.908	75.670	254.646	-42.167	25.234	125.191	193.190	16.034	233.930	173.288	211.451	-84.661	-62.102	-82.081	181.647	-52.124	0.00048387	0.00054036	0.00015885	915.28	4.9463e-06	4.8753e-06	907.14	342.44	4.6121e-06	3.4456e-06	332.68	114.09	118.41	48.386	4.5491e-06	49.512	0.00028281	0.00023546	6.0992e-05	941.6	2.8822e-06	2.5612e-06	930.48	351.65	2.854e-06	2.4914e-06	339.7	117.04	121.35	49.988	2.3415e-06	50.932	-33.565	-26.006	-0.267	-75.001	-0.422	30.029	-76.911	-70.313	69.188	83.498	-72.850	-67.476	-65.188	-59.326	83.257	-62.920	-8191	255	
2636.562	1	1	0	0	0.15958	0.36514	0.23359	0.21318	0.14126	0.059574	0.12384	0.29034	0.019071	0.16224	0.21313	0.12035	0.057877	0.14861	0.14884	0.26708	0.35208	0.10833	-0.75	0.097917	-0.1875	-0.69167	0.12292	-0.75625	0.01875	0.04375	-0.65625	0.24167	-0.25208	-0.5125	0.4625	-0.7	243.931	260.254	168.746	203.055	153.555	206.668	210.865	253.732	158.306	-34.216	217.778	-29.560	222.841	23.178	-14.008	-65.228	0.00046581	0.00037696	4.4411e-05	911.75	3.3742e-06	5.1669e-06	909.07	341.71	2.989e-06	5.6468e-06	333.19	114.69	118.4	48.506	1.554e-06	49.503	0.00025949	0.00022011	5.9395e-05	937.15	2.6171e-06	2.3779e-06	930.89	351.4	2.5948e-06	2.2904e-06	340.82	117.74	121.4	50.065	2.3494e-06	50.896	-28.829	8.412	7.255	-75.115	52.324	32.451	-76.856	-70.364	109.411	44.534	-72.824	-67.472	-65.254	-59.362	43.630	-62.583	-8191	255	
2636.656	1	1	0	0	0.04802	0.2266	0.20948	0.40946	0.19579	0.21198	0.1491	0.27286	0.095021	0.051426	0.24386	0.15326	0.10666	0.28076	0.1822	0.12978	-0.19792	0.2375	-0.61458	-0.10833	0.058333	-0.44375	0.095833	-0.64375	-0.13125	0.36875	-0.83125	-0.12083	-0.25833	-0.91042	0.19792	-0.52292	-82.034	-81.328	136.426	210.297	238.121	42.915	118.512	-86.959	210.497	235.297	213.572	152.924	265.754	-32.833	-87.109	226.804	0.00048571	0.00041309	0.0001143	912.5	6.648e-06	3.0661e-06	910.86	342.2	1.7891e-06	4.1473e-06	334.13	112.99	117.93	48.067	3.5099e-06	48.299	0.00023845	0.00020016	5.986e-05	936.82	2.3703e-06	2.1843e-06	930.03	351.2	2.4061e-06	2.161e-06	340.07	116.26	120.85	49.526	2.4438e-06	49.784	-17.405	10.200	6.269	-75.182	30.659	48.734	-76.788	-70.023	8.387	49.876	-72.590	-67.512	-65.347	-59.280	85.311	-62.830	-8191	255	
2636.752	1	1	0	0	0.032777	0.20989	0.22971	0.21387	0.13423	0.19945	0.32052	0.12547	0.21083	0.12595	0.3542	0.11832	0.27298	0.12323	0.10431	0.14449	0.17708	0.16667	-0.59375	-0.16042	0.04375	-0.70833	0.21042	-0.4875	-0.36042	0.25208	-0.82917	-0.0020833	-0.14792	-0.82083	0.13958	-0.34792	48.379	-28.346	205.099	88.042	236.410	123.691	209.280	152.650	115.909	184.722	149.143	259.272	200.480	236.311	231.207	101.977	0.00044323	0.00030131	6.7141e-05	917.33	5.1873e-06	5.8344e-06	909.97	344.5	3.2067e-06	5.3133e-06	331.71	112.78	117.44	47.971	6.1763e-06	48.898	0.00022881	0.00019879	6.4555e-05	941.06	2.3604e-06	2.2267e-06	931.6	351.94	2.4207e-06	2.2295e-06	339.4	115.71	120.65	49.527	2.7621e-06	50.207	-16.069	-18.694	86.264	-75.118	36.166	30.132	-76.941	-70.289	92.052	82.442	-72.748	-67.282	-65.140	-59.335	77.310	-62.646	-8191	255	
2636.849	1	1	0	0	0.26966	0.061597	0.29563	0.15225	0.080754	0.16151	0.347	0.12765	0.10698	0.16798	0.30539	0.018088	0.17858	0.039692	0.14643	0.22884	-0.052083	0.12708	-0.4125	-0.42292	0.16667	-0.79792	0.060417	-0.46458	-0.47708	0.3375	-0.68542	-0.34792	0.21667	-0.94792	0.05625	-0.29167	-29.415	-43.458	93.311	241.493	-69.952	202.535	197.006	127.774	223.054	-63.377	233.251	105.514	241.574	145.707	43.357	-72.337	0.00046769	0.00059822	0.00010508	913.97	2.7603e-06	4.1895e-06	909.43	342.24	3.2605e-06	2.4026e-06	332.32	114.09	118.71	48.504	4.2165e-06	49.05	0.00023894	0.00021641	7.1414e-05	938.42	2.3873e-06	2.3839e-06	929.89	351.5	2.4185e-06	2.3915e-06	340.5	116.88	121.8	50.039	2.7796e-06	50.291	-15.255	-24.354	-1.525	-75.255	4.591	51.538	-76.948	-70.150	-79.654	117.921	-72.719	-67.537	-65.158	-59.448	48.185	-62.694	-8191	255	
2636.945	1	1	0	0	0.21657	0.20442	0.10596	0.26598	0.23664	0.16202	0.23717	0.26851	0.027133	0.091895	0.17454	0.13384	0.16366	0.22768	0.27811	0.20811	-0.047917	0.20833	-0.15625	-0.50208	0.28542	-0.75	-0.19167	0.00625	-0.96458	0.33958	-0.49375	-0.4	0.079167	-0.71042	-0.17708	0.11667	70.218	38.623	-12.331	259.949	90.679	51.892	213.536	257.939	19.662	19.415	241.595	213.728	77.764	-61.707	268.840	-73.814	0.00042563	0.00033766	0.0001312	917.59	6.2085e-06	5.2875e-06	912.43	344.42	3.3979e-06	4.316e-06	334.3	114.87	119.49	48.705	3.9955e-06	49.359	0.00022426	0.00022793	7.0285e-05	941.74	2.3128e-06	2.5683e-06	936.05	353.72	2.3134e-06	2.5681e-06	341.88	117.74	122.6	50.334	2.7057e-06	50.575	-24.386	-55.275	-14.843	-75.305	68.256	47.113	-76.865	-70.202	3.785	45.974	-72.696	-67.532	-65.452	-59.340	52.271	-62.646	-8191	255	
2637.041	1	1	0	0	0.29178	0.17275	0.21155	0.11518	0.34513	0.047583	0.15892	0.13348	0.29629	0.26061	0.27126	0.17789	0.24812	0.28793	0.061477	0.089806	-0.33333	0.11458	-0.35833	-0.43125	0.3875	-0.47083	-0.20208	0.1	-0.69167	0.25	-0.21875	-0.51875	0.13125	-0.65833	-0.19792	0.22083	7.748	48.141	256.578	190.100	33.206	61.995	237.767	139.807	192.462	41.691	265.709	163.235	236.508	205.031	198.586	-44.002	0.00051462	0.00075193	0.00015046	919.51	2.4019e-06	2.1695e-06	916.06	346.19	5.8454e-06	2.5921e-07	335.84	114.53	119.42	48.343	4.4965e-06	48.43	0.00022557	0.00024922	6.8086e-05	944.01	2.3481e-06	2.6914e-06	936.98	354.8	2.3418e-06	2.7532e-06	342.53	117.16	122.28	49.891	2.6303e-06	49.802	-24.841	-16.879	1.707	-75.137	-13.943	55.690	-76.962	-70.086	39.793	-51.050	-72.762	-67.416	-65.448	-59.339	66.922	-62.546	-8191	255	
2637.161	1	1	0	0	0.14296	0.2393	0.17816	0.19835	0.19789	0.099182	0.23281	0.23356	0.18501	0.111	0.035916	0.13564	0.1733	0.21974	0.17687	0.13095	-0.5	0.1625	-0.13542	-0.4375	0.25625	-0.51458	-0.68958	0.014583	-0.61042	0.054167	-0.22292	-0.69583	0.27917	-0.5625	-0.16667	-0.016667	257.550	171.400	116.382	-34.577	121.812	-1.295	143.827	-74.680	210.155	-28.797	9.507	207.526	206.795	262.773	132.966	-53.301	0.00048224	0.00050478	0.00011958	919.59	2.7962e-06	2.4156e-06	908.76	344.63	2.7344e-06	3.2281e-06	331.79	113.52	118.9	48.225	4.6378e-06	48.241	0.00023089	0.00025527	6.4737e-05	943.43	2.4302e-06	2.8006e-06	931.89	354	2.4886e-06	2.7868e-06	339.97	116.17	121.85	49.742	2.4353e-06	49.346	-21.379	-52.876	-13.365	-75.307	-80.053	8.703	-76.898	-69.963	84.836	37.325	-72.818	-67.624	-65.348	-59.523	63.141	-62.918	-8191	255	
2637.258	1	1	0	0	0.298	0.11792	0.12553	0.22117	0.12977	0.27464	0.076017	0.14497	0.2261	0.19774	0.31475	0.072046	0.21015	0.039854	0.23393	0.17816	-0.24375	0.0041667	0.047917	-0.88333	0.15625	-0.54167	-0.45208	-0.025	-0.66875	-0.13958	-0.13958	-0.88958	0.11458	-0.29792	-0.525	0.25625	58.535	97.059	-75.152	232.806	-10.672	203.296	-37.726	259.651	120.324	150.410	221.582	71.672	147.237	-88.131	36.861	179.526	0.00044449	0.00075511	6.2359e-05	921.77	3.0837e-06	4.9349e-06	910.84	347.11	6.1605e-06	4.8674e-06	335.8	113.29	119.05	47.74	5.7103e-06	47.699	0.00024168	0.00024315	6.0076e-05	944.39	2.5531e-06	2.5732e-06	932.85	354.83	2.5813e-06	2.5581e-06	340.98	115.68	121.81	49.299	2.3633e-06	48.886	-24.474	-22.590	27.700	-75.205	49.506	18.624	-76.926	-70.224	62.648	73.253	-72.410	-67.449	-65.585	-59.517	114.657	-63.065	-8191	255	
2637.354	1	1	0	0	0.13556	0.18989	0.15431	0.21049	0.31429	0.293	0.24581	0.19008	0.19421	0.22412	0.10989	0.1801	0.37839	0.05551	0.32205	0.27841	-0.29792	-0.03125	0.09375	-1.0104	0.14167	-0.57708	-0.81667	0.1125	-0.68333	-0.28542	-0.0020833	-0.675	0.09375	-0.40417	-0.48125	0.27292	4.686	201.102	15.745	-55.202	136.566	-85.292	-86.442	40.975	201.693	4.617	223.395	-31.394	253.024	128.030	83.902	260.589	0.00043103	0.00031587	0.00013568	924.25	2.5186e-06	6.2914e-06	915.85	347.28	2.9297e-06	4.21e-06	335.02	113.31	118.76	47.857	6.2914e-06	47.732	0.00025168	0.00023067	5.5645e-05	947.53	2.5969e-06	2.3879e-06	936.28	355.69	2.5762e-06	2.3852e-06	340.99	115.93	121.62	49.343	2.196e-06	49.048	-22.355	-71.047	-26.801	-75.264	53.058	48.289	-76.974	-70.324	68.513	22.990	-72.820	-67.383	-65.408	-59.551	61.274	-63.075	-8191	255	
2637.448	1	1	0	0	0.19252	0.04182	0.11107	0.23004	0.057714	0.4001	0.17845	0.098868	0.21512	0.17666	0.01909	0.27006	0.11879	0.075433	0.043041	0.27653	-0.066667	-0.16875	0.54375	-0.8375	0	-0.24375	-0.81667	-0.0041667	-0.38958	-0.47083	-0.10833	-0.65	-0.2375	0.010417	-0.62708	0.010417	268.061	189.501	212.899	177.937	33.416	128.223	-40.915	-35.138	30.774	206.548	116.141	-30.442	177.782	267.542	-16.265	182.493	0.00044444	0.00029596	0.00015953	924.9	4.4531e-06	6.4293e-06	917.43	348.48	2.1665e-06	5.5645e-06	335.89	113.28	118.89	47.714	5.0172e-06	47.851	0.0002493	0.00021583	5.3836e-05	948.3	2.6125e-06	2.2891e-06	939.16	356.55	2.5472e-06	2.3179e-06	342.11	116.23	121.72	49.195	2.1825e-06	49.11	-13.719	-30.221	-14.655	-75.172	1.939	39.102	-76.855	-70.282	103.721	38.510	-72.819	-67.452	-65.499	-59.406	44.250	-62.900	-8191	255	
2637.569	1	1	0	0	0.17427	0.18769	0.23525	0.1808	0.1016	0.0594	0.13945	0.15919	0.23681	0.18983	0.065224	0.18388	0.20182	0.17287	0.31087	0.29564	-0.077083	-0.20625	0.23958	-0.8375	-0.095833	0.0875	-0.75833	0.11875	-0.32917	-0.45417	-0.14375	-0.69167	-0.33958	-0.016667	-0.72917	0.22708	-28.448	232.376	-18.231	-62.043	-45.094	-38.271	117.393	261.383	203.912	194.610	128.615	-24.709	195.832	-86.307	162.813	187.772	0.00046546	0.00051282	9.5287e-05	924.81	5.9307e-06	3.9639e-06	914.65	345.2	7.6984e-07	1.9352e-06	332.18	112.44	117.97	47.678	2.7496e-06	47.555	0.00025167	0.00022165	5.6287e-05	949.35	2.734e-06	2.417e-06	934.74	353.94	2.7052e-06	2.4408e-06	338.84	115.48	121.09	48.995	2.3588e-06	48.714	-12.590	-19.260	-11.767	-75.165	24.889	75.922	-77.070	-70.259	-53.276	48.311	-72.545	-67.626	-65.462	-59.648	107.285	-62.924	-8191	255	
2637.640	1	1	0	0	0.084107	0.073384	0.25516	0.2403	0.20502	0.21869	0.24388	0.125	0.14376	0.2868	0.079068	0.34727	0.30508	0.22094	0.15916	0.18483	0.033333	-0.54792	0.23125	-0.9125	-0.13958	-0.0375	-0.79583	0.025	-0.22708	-0.51875	0.16458	-0.60417	-0.37292	0.03125	-0.78958	-0.01875	-64.235	-55.570	-0.459	-16.246	40.674	101.675	163.525	131.370	8.385	2.508	-82.808	267.241	126.564	145.745	44.607	167.799	0.00038398	0.00041055	4.8734e-05	919.97	2.6044e-06	5.6594e-06	911.56	346.17	8.0222e-06	5.8343e-06	330.55	110.64	117.05	46.919	1.4682e-06	46.818	0.0002483	0.0002188	6.0099e-05	945.33	2.6603e-06	2.3592e-06	930.68	354.2	2.5419e-06	2.3418e-06	337.76	114.25	120.17	48.404	2.4954e-06	48.158	-13.529	20.262	-5.998	-75.191	30.451	72.870	-76.793	-70.367	25.783	23.585	-72.827	-67.821	-65.251	-59.429	111.224	-63.272	-8191	255	
2637.737	1	1	0	0	0.091417	0.2076	0.379	0.32187	0.44068	0.22911	0.39361	0.18154	0.091002	0.14406	0.1601	0.16557	0.030878	0.11052	0.1682	0.35526	0.31042	-0.47083	0.17708	-0.64167	-0.52083	0.10625	-0.6625	-0.24167	0.079167	-0.60417	0.14167	-0.55833	-0.27083	0.13125	-0.58333	-0.19583	20.318	-5.964	26.274	255.526	77.447	144.570	221.539	184.165	127.353	239.949	245.893	130.596	-30.238	26.038	142.387	237.071	0.0003641	0.00038395	7.9788e-05	919.8	3.5895e-06	6.2757e-06	909.53	343.59	4.428e-06	1.2174e-06	331.05	110.4	116.45	46.402	5.6197e-07	46.328	0.00024547	0.00021656	6.6351e-05	944.6	2.6424e-06	2.3691e-06	930.93	352.84	2.5916e-06	2.4019e-06	337.8	113.67	119.26	47.986	2.7713e-06	47.723	-0.811	-63.091	0.665	-75.078	23.930	50.380	-76.989	-70.383	107.765	94.959	-72.926	-67.547	-65.464	-59.378	151.319	-62.994	-8191	255	
2637.833	1	1	0	0	0.17897	0.42903	0.32191	0.12704	0.23526	0.17016	0.023009	0.191	0.074353	0.16159	0.060042	0.27007	0.17926	0.090798	0.085283	0.24415	0.37708	-0.69792	0.29792	-0.33542	-0.375	0.1625	-0.85625	-0.275	-0.075	-0.81458	0.014583	-0.18125	-0.72917	-0.047917	-0.60208	-0.25833	198.761	201.040	71.561	-63.178	99.632	22.926	207.158	242.351	5.788	90.202	-23.350	193.695	25.737	194.142	254.120	-63.240	0.00036941	0.00075409	5.8996e-05	922.8	4.8725e-06	1.6716e-06	911.41	342.88	5.5772e-06	3.5802e-06	331.65	110.6	116.21	46.836	2.9932e-06	47.126	0.00023421	0.00021466	7.0292e-05	945.45	2.4873e-06	2.3149e-06	934.63	351.71	2.4376e-06	2.3424e-06	339.05	113.88	119.1	48.248	2.8961e-06	48.381	-19.773	-15.021	45.455	-75.301	63.057	-31.939	-76.916	-70.432	62.163	59.165	-72.826	-67.493	-65.657	-59.456	36.592	-63.070	-8191	255	
2637.953	1	1	0	0	0.14777	0.253	0.28282	0.38497	0.2095	0.1689	0.4087	0.023606	0.034181	0.10585	0.14249	0.05607	0.17596	0.067338	0.20628	0.37527	0.48542	-0.71042	-0.0875	-0.23542	-0.61667	0.31667	-0.61458	-0.63125	0.09375	-0.90417	-0.175	-0.38333	-0.75208	0.3	-0.475	-0.37917	86.836	226.250	154.003	241.199	133.475	-68.317	248.697	25.939	16.360	-85.872	-66.067	33.192	266.456	65.473	232.844	203.797	0.00041829	0.00062879	0.00016926	914.85	6.6415e-06	2.3493e-06	912.15	342.99	5.0259e-06	4.1719e-06	332.21	111.83	116.81	47.109	4.0428e-06	47.19	0.00023352	0.00022592	7.3772e-05	941.06	2.4591e-06	2.5216e-06	934.12	351.98	2.4283e-06	2.6225e-06	340.54	114.76	119.92	48.817	3.0312e-06	48.616	-21.273	22.795	-47.536	-75.108	31.613	107.192	-76.853	-70.398	17.621	60.396	-72.611	-67.531	-65.294	-59.677	64.640	-63.073	-8191	255	
2638.050	1	1	0	0	0.25666	0.33867	0.15676	0.16975	0.094229	0.17819	0.33422	0.30634	0.19936	0.13604	0.28288	0.29842	0.056719	0.39627	0.17916	0.031093	0.59167	-0.99583	-0.12708	-0.3	-0.56458	0.24792	-0.50625	-0.46875	0.097917	-0.7125	-0.041667	-0.091667	-0.6125	0.24583	-0.33542	-0.81042	135.798	175.524	-79.714	-59.599	-29.183	115.626	192.650	263.561	70.481	156.097	-39.823	203.233	231.346	258.518	98.971	78.790	0.00038968	0.00042055	0.0001229	915.52	4.6713e-06	5.7879e-06	910.2	343.6	4.1368e-06	2.8253e-06	329.43	110.53	116.37	46.906	4.9808e-06	46.138	0.00023896	0.0002604	7.6567e-05	940.85	2.5646e-06	2.9007e-06	930.81	352.47	2.4811e-06	2.9444e-06	338.89	113.24	119.65	48.402	2.9574e-06	47.655	-14.518	22.487	19.588	-75.066	46.244	104.639	-76.842	-70.315	-9.406	-4.131	-73.135	-67.546	-65.510	-59.728	33.596	-63.221	-8191	255	
2638.146	1	1	0	0	0.24376	0.14792	0.16751	0.30571	0.10627	0.1843	0.20602	0.32364	0.13766	0.16924	0.14648	0.067976	0.28263	0.2323	0.29706	0.10388	0.73125	-0.56458	-0.079167	0.21458	-0.71875	-0.058333	-0.32917	-0.61667	0.30625	-0.4625	-0.20833	0.14167	-0.72708	-0.1	-0.077083	-0.75833	138.837	248.605	61.881	218.334	-40.074	0.875	141.508	236.178	178.381	17.291	179.995	-34.565	250.299	128.425	119.239	-78.768	0.00034623	0.00059339	0.00015291	917.09	4.7531e-06	4.2362e-06	905.34	342.7	3.0885e-06	4.8975e-06	329.93	109.5	116.32	46.33	5.2332e-06	45.955	0.00024634	0.00028366	7.4191e-05	940.29	2.6019e-06	3.016e-06	928.63	352.02	2.5454e-06	2.954e-06	337.49	112.47	119.11	47.875	2.5765e-06	46.965	-28.745	-10.444	-21.123	-75.400	57.858	15.148	-76.977	-70.574	-14.360	53.547	-73.158	-67.777	-65.693	-59.733	64.751	-63.272	-8191	255	
2638.242	1	1	0	0	0.20427	0.20456	0.19506	0.20752	0.30151	0.24852	0.34466	0.37086	0.13388	0.23989	0.1445	0.13438	0.29448	0.20347	0.011515	0.22787	0.56042	-0.50208	-0.18958	0.17083	-0.67292	0.23958	-0.2375	-0.88542	0.37083	-0.40625	-0.61042	0.1625	-0.5625	-0.26667	0.0125	-0.60833	-5.058	81.568	-52.165	196.636	203.498	-66.197	229.478	213.103	52.681	249.494	93.895	110.461	-79.639	-63.716	111.279	260.880	0.00036041	0.00019611	0.00011201	921.71	3.8807e-07	6.1552e-06	912.05	344.15	5.1745e-06	4.2056e-06	331.46	109.62	116.11	45.944	6.342e-06	45.525	0.00023978	0.00025228	6.314e-05	944.88	2.5464e-06	2.7784e-06	934.04	353.35	2.5508e-06	2.6916e-06	338.81	112.3	118.74	47.388	2.3565e-06	46.541	-35.425	-48.193	-17.278	-75.279	-20.640	-3.859	-77.224	-70.797	58.803	28.062	-73.049	-68.035	-65.436	-59.923	65.190	-63.373	-8191	255	
2638.338	1	1	0	0	0.21165	0.065901	0.12365	0.17853	0.15582	0.19174	0.053076	0.13058	0.24303	0.026767	0.18634	0.18901	0.15832	0.15207	0.090673	0.18862	0.63542	-0.2875	-0.51667	0.0625	-0.51875	-0.20417	-0.13333	-0.71042	0.095833	-0.27083	-0.53542	0.21042	-0.67292	-0.27708	0.014583	-0.78542	250.861	-72.234	23.625	184.564	84.577	96.882	170.003	245.670	-63.212	-86.603	266.034	-38.118	200.580	2.112	140.833	196.715	0.00037926	0.00058579	0.00011638	933.36	2.4425e-06	6.6301e-06	926.73	348.4	3.2322e-06	2.3627e-06	337.16	109.65	115.74	45.579	1.4176e-06	45.074	0.00024349	0.00023338	5.7652e-05	955.67	2.5828e-06	2.4693e-06	945.9	356.54	2.5487e-06	2.3719e-06	342.23	112.18	118.67	46.911	2.1465e-06	46.21	-21.680	-49.617	-50.660	-75.406	64.809	42.963	-77.148	-70.779	74.764	12.604	-73.189	-68.184	-65.723	-60.228	87.080	-63.424	-8191	255	
2638.434	1	1	0	0	0.068173	0.2389	0.12937	0.28315	0.12528	0.13614	0.049617	0.23825	0.059254	0.035953	0.30338	0.14643	0.26278	0.28696	0.016321	0.21491	0.4875	-0.17083	-0.27083	0.2	-0.5875	-0.225	-0.039583	-0.85625	0.064583	-0.35417	-0.68333	0.025	-0.45833	-0.20208	0.033333	-0.6625	137.114	-25.297	-20.032	152.624	127.195	22.210	251.171	219.525	79.779	-86.648	222.230	250.242	-50.939	241.715	29.183	46.334	0.00043051	0.00053612	0.00010654	942.53	3.2766e-06	5.1826e-06	932.53	351.11	4.6353e-06	3.3146e-06	338.11	109.27	115.59	45.092	3.1294e-06	44.264	0.00024272	0.00020862	5.3653e-05	964.39	2.4606e-06	2.2103e-06	954.51	359.07	2.4349e-06	2.1371e-06	344.15	111.74	118.29	46.348	1.9934e-06	45.432	-18.437	-13.171	13.346	-75.611	45.805	12.806	-77.512	-70.965	39.547	23.776	-73.411	-68.305	-65.965	-60.145	39.060	-63.463	-8191	255	
2638.530	1	1	0	0	0.40618	0.116	0.10907	0.23426	0.20064	0.10716	0.098753	0.24264	0.074561	0.20388	0.064188	0.17487	0.040869	0.10643	0.2963	0.15292	0.49375	-0.14583	-0.60833	-0.047917	-0.13542	-0.275	0.05	-0.71042	-0.085417	-0.091667	-0.6	0.15208	-0.49167	-0.48958	0.29375	-0.88958	95.333	-49.625	80.138	214.254	184.046	229.299	149.133	265.336	112.378	-17.264	158.334	178.364	62.564	-7.006	148.342	266.911	0.00037601	0.00042653	0.00010794	957.39	4.683e-06	3.1226e-06	949.25	355.36	3.8734e-06	2.8723e-06	340.54	108.75	114.79	44.423	2.4352e-06	44.208	0.00023027	0.00019537	5.0723e-05	979.02	2.4075e-06	2.114e-06	969.68	364.25	2.4236e-06	2.1085e-06	348.01	111.37	117.75	45.805	2.0585e-06	45.396	-9.944	-14.252	-13.362	-75.786	37.510	62.249	-77.408	-70.918	90.997	54.119	-73.643	-68.115	-66.083	-59.981	71.985	-63.256	-8191	255	
#DATA ENDS
