BOXY.EXE: ISS Imagent and Oximeter Data Acquisition Program Version 0.80
Ascii Record File

#ACQ INFORMATION
2  Detector Channels 
16  External MUX Channels 
1  Auxiliary Channels 
5000  Waveform (CCF) Frequency (Hz)
1  Waveforms Skipped 
30  Waveforms Averaged 
1  Cycles Averaged 
16  Acquisitions per Waveform 
10.0806  Updata Rate (Hz) 

#FILE INFORMATION
TRUE -- External MUX Channel results are PARSED.
FALSE -- AC DC and Phase are NOT grouped.
TRUE -- Companion Program Settings File CREATED.
FALSE -- AC data not excluded
FALSE -- DC data not excluded
FALSE -- Phase data not excluded
FALSE -- Auxillary Chn. data not excluded
Tab delimiters

#CALIBRATION STATE
TRUE -- Waveform Calibration Values APPLIED.


#AUX CALIBRATION VALUES
Val Type	aux-1	

Term	1.0000e+00	
Factor	0.0000e+00	


#WF CALIBRATION VALUES
A = Detector Channel
Val Type	A-AC1	A-AC2	A-AC3	A-AC4	A-AC5	A-AC6	A-AC7	A-AC8	A-AC9	A-AC10	A-AC11	A-AC12	A-AC13	A-AC14	A-AC15	A-AC16	A-DC1	A-DC2	A-DC3	A-DC4	A-DC5	A-DC6	A-DC7	A-DC8	A-DC9	A-DC10	A-DC11	A-DC12	A-DC13	A-DC14	A-DC15	A-DC16	A-Ph1	A-Ph2	A-Ph3	A-Ph4	A-Ph5	A-Ph6	A-Ph7	A-Ph8	A-Ph9	A-Ph10	A-Ph11	A-Ph12	A-Ph13	A-Ph14	A-Ph15	A-Ph16	

Term	0.00000e+00	0.00000e+00	0.00000e+00	0.00000e+00	0.00000e+00	0.00000e+00	0.00000e+00	0.00000e+00	0.00000e+00	0.00000e+00	0.00000e+00	0.00000e+00	0.00000e+00	0.00000e+00	0.00000e+00	0.00000e+00	0.00000e+00	0.00000e+00	0.00000e+00	0.00000e+00	0.00000e+00	0.00000e+00	0.00000e+00	0.00000e+00	0.00000e+00	0.00000e+00	0.00000e+00	0.00000e+00	0.00000e+00	0.00000e+00	0.00000e+00	0.00000e+00	0.00000e+00	0.00000e+00	0.00000e+00	0.00000e+00	0.00000e+00	0.00000e+00	0.00000e+00	0.00000e+00	0.00000e+00	0.00000e+00	0.00000e+00	0.00000e+00	0.00000e+00	0.00000e+00	0.00000e+00	0.00000e+00	
Factor	1.00000e+00	1.00000e+00	1.00000e+00	1.00000e+00	1.00000e+00	1.00000e+00	1.00000e+00	1.00000e+00	1.00000e+00	1.00000e+00	1.00000e+00	1.00000e+00	1.00000e+00	1.00000e+00	1.00000e+00	1.00000e+00	1.00000e+00	1.00000e+00	1.00000e+00	1.00000e+00	1.00000e+00	1.00000e+00	1.00000e+00	1.00000e+00	1.00000e+00	1.00000e+00	1.00000e+00	1.00000e+00	1.00000e+00	1.00000e+00	1.00000e+00	1.00000e+00	X	X	X	X	X	X	X	X	X	X	X	X	X	X	X	X	

B = Detector Channel
Val Type	B-AC1	B-AC2	B-AC3	B-AC4	B-AC5	B-AC6	B-AC7	B-AC8	B-AC9	B-AC10	B-AC11	B-AC12	B-AC13	B-AC14	B-AC15	B-AC16	B-DC1	B-DC2	B-DC3	B-DC4	B-DC5	B-DC6	B-DC7	B-DC8	B-DC9	B-DC10	B-DC11	B-DC12	B-DC13	B-DC14	B-DC15	B-DC16	B-Ph1	B-Ph2	B-Ph3	B-Ph4	B-Ph5	B-Ph6	B-Ph7	B-Ph8	B-Ph9	B-Ph10	B-Ph11	B-Ph12	B-Ph13	B-Ph14	B-Ph15	B-Ph16	

Term	0.00000e+00	0.00000e+00	0.00000e+00	0.00000e+00	0.00000e+00	0.00000e+00	0.00000e+00	0.00000e+00	0.00000e+00	0.00000e+00	0.00000e+00	0.00000e+00	0.00000e+00	0.00000e+00	0.00000e+00	0.00000e+00	0.00000e+00	0.00000e+00	0.00000e+00	0.00000e+00	0.00000e+00	0.00000e+00	0.00000e+00	0.00000e+00	0.00000e+00	0.00000e+00	0.00000e+00	0.00000e+00	0.00000e+00	0.00000e+00	0.00000e+00	0.00000e+00	-7.31775e+01	-1.39643e+02	-1.29191e+02	-1.81468e+02	-5.28782e+01	-5.94017e+01	-1.58511e+02	-1.62015e+02	-4.34400e+01	-6.62646e+01	-1.70593e+02	-1.70390e+02	-1.81289e+02	-1.76543e+02	-5.19673e+01	-1.49467e+02	
Factor	1.51461e-05	1.38994e-04	3.70494e-05	1.65114e-01	1.30890e-06	1.55113e-06	1.66376e-01	5.64345e-02	1.01830e-06	1.34470e-06	8.78816e-02	2.83681e-02	2.52299e-02	8.59329e-03	1.27316e-06	1.18647e-02	5.15675e-06	6.63635e-06	1.85623e-06	8.53049e-02	7.07640e-08	7.33048e-08	8.10045e-02	2.92832e-02	7.07680e-08	7.32667e-08	4.41605e-02	1.43478e-02	1.32282e-02	4.49219e-03	7.21484e-08	6.00703e-03	X	X	X	X	X	X	X	X	X	X	X	X	X	X	X	X	



#DISTANCE SETTINGS
A = Detector Channel
A-1	A-2	A-3	A-4	A-5	A-6	A-7	A-8	A-9	A-10	A-11	A-12	A-13	A-14	A-15	A-16	

2.5000e+00	3.0000e+00	2.5000e+00	3.0000e+00	2.0000e+00	3.0000e+00	1.5000e+00	3.0000e+00	3.0000e+00	3.0000e+00	3.0000e+00	3.0000e+00	3.0000e+00	3.0000e+00	1.5000e+00	3.0000e+00	

B = Detector Channel
B-1	B-2	B-3	B-4	B-5	B-6	B-7	B-8	B-9	B-10	B-11	B-12	B-13	B-14	B-15	B-16	

1.0000e+01	1.0000e+01	1.0000e+01	1.4400e+00	1.0000e+01	1.0000e+01	1.5100e+00	1.9400e+00	1.0000e+01	1.0000e+01	1.9900e+00	2.4900e+00	2.4100e+00	2.9000e+00	1.0000e+01	2.9800e+00	




#DATA BEGINS
time	group	step	mark	flag	A-AC1	A-AC2	A-AC3	A-AC4	A-AC5	A-AC6	A-AC7	A-AC8	A-AC9	A-AC10	A-AC11	A-AC12	A-AC13	A-AC14	A-AC15	A-AC16	A-DC1	A-DC2	A-DC3	A-DC4	A-DC5	A-DC6	A-DC7	A-DC8	A-DC9	A-DC10	A-DC11	A-DC12	A-DC13	A-DC14	A-DC15	A-DC16	A-Ph1	A-Ph2	A-Ph3	A-Ph4	A-Ph5	A-Ph6	A-Ph7	A-Ph8	A-Ph9	A-Ph10	A-Ph11	A-Ph12	A-Ph13	A-Ph14	A-Ph15	A-Ph16	B-AC1	B-AC2	B-AC3	B-AC4	B-AC5	B-AC6	B-AC7	B-AC8	B-AC9	B-AC10	B-AC11	B-AC12	B-AC13	B-AC14	B-AC15	B-AC16	B-DC1	B-DC2	B-DC3	B-DC4	B-DC5	B-DC6	B-DC7	B-DC8	B-DC9	B-DC10	B-DC11	B-DC12	B-DC13	B-DC14	B-DC15	B-DC16	B-Ph1	B-Ph2	B-Ph3	B-Ph4	B-Ph5	B-Ph6	B-Ph7	B-Ph8	B-Ph9	B-Ph10	B-Ph11	B-Ph12	B-Ph13	B-Ph14	B-Ph15	B-Ph16	aux-1	digaux	

9868.341	1	1	0	768	0.16155	0.1485	0.096274	0.11544	0.20636	0.20435	0.20921	0.29407	0.11242	0.2786	0.13434	0.09272	0.14414	0.081567	0.11208	0.39089	-2.6771	-3.1646	-2.2562	-3.4729	-2.7687	-2.5667	-3.4	-2.7229	-2.8063	-3.2896	-2.4146	-3.3771	-3.2146	-2.6188	-3.2438	-2.7604	275.531	-61.900	154.626	-17.687	-71.515	-17.400	211.123	203.422	120.057	-22.538	256.075	219.571	80.765	128.698	272.452	249.280	0.00027457	0.0014924	0.00013146	1070.5	4.2514e-06	5.688e-06	928.28	399.02	4.9948e-06	1.1612e-05	397.01	144.59	137.34	55.621	2.4882e-06	65.866	0.013827	0.017393	0.0048473	1360.4	0.00018609	0.00018803	1188.4	500.04	0.0001828	0.00018675	532.65	192.25	180.71	70.979	0.00018423	85.88	254.852	35.682	53.265	-67.354	72.718	134.707	-67.927	-62.178	104.630	120.739	-63.986	-59.359	-57.912	-52.393	259.218	-54.767	-8191	255	
9868.437	1	1	0	0	0.088311	0.21125	0.080956	0.40786	0.1234	0.043372	0.1994	0.12551	0.3172	0.093061	0.23946	0.19224	0.11993	0.091432	0.078248	0.16361	-2.2729	-3.3688	-2.4583	-3.1958	-3.15	-2.6521	-3.4396	-2.9979	-2.6063	-3.5146	-2.5875	-3.2812	-3.3375	-2.4667	-3.4792	-2.8833	84.869	225.904	26.944	275.387	262.361	74.035	201.997	-68.864	-33.612	142.007	229.886	260.296	259.298	-49.603	252.316	12.381	0.00022468	0.00097237	0.00026878	1063.4	8.3607e-06	1.8318e-05	922.21	396.49	5.9451e-06	1.6827e-05	396.85	143.8	136.6	55.569	6.1e-06	65.491	0.013092	0.01662	0.0047351	1345.6	0.00017749	0.00018102	1180.2	495.95	0.00017544	0.00018051	529.81	189.82	178.44	70.249	0.00017965	84.592	194.263	-16.945	-31.211	-67.267	33.449	-10.834	-67.909	-62.157	120.028	113.986	-63.983	-59.104	-57.753	-52.504	155.112	-55.064	-8191	255	
9868.533	1	1	0	0	0.08504	0.10116	0.063496	0.16889	0.13422	0.036777	0.039783	0.23092	0.096438	0.20628	0.26764	0.30503	0.050882	0.060527	0.11614	0.12468	-2.2542	-3.3792	-2.5167	-2.9979	-3.3396	-2.3917	-3.5042	-3.0583	-2.4979	-3.7167	-2.6458	-3.0125	-3.3479	-2.5479	-3.2562	-3.0833	55.280	260.361	274.809	258.509	110.232	60.714	149.869	-56.419	139.104	225.105	274.925	-72.573	166.412	79.744	132.555	266.837	0.00014357	0.0010076	0.00019841	1068.6	4.1549e-06	3.4288e-06	921.21	394.86	5.2818e-06	9.1385e-06	395.62	144.75	136.61	55.368	6.2883e-06	65.883	0.012471	0.01583	0.0045557	1328.3	0.00016536	0.00017003	1165.1	486.35	0.00016235	0.00016769	522.81	187.44	175.97	69.584	0.00017014	83.845	251.350	21.157	271.831	-67.718	131.771	3.198	-68.575	-62.884	43.883	222.627	-64.734	-59.869	-58.264	-52.885	146.265	-55.524	-8191	255	
9868.629	1	1	0	0	0.15095	0.268	0.05837	0.40565	0.27814	0.0657	0.081766	0.077984	0.17681	0.29824	0.23059	0.24363	0.060486	0.074176	0.17457	0.029831	-2.1188	-3.4354	-2.4667	-2.9917	-3.3979	-2.3417	-3.15	-3.1333	-2.5021	-3.4792	-2.8833	-2.8312	-3.5062	-2.7375	-2.9708	-3.1917	219.570	79.029	156.869	204.944	95.763	176.170	-50.980	144.219	56.436	253.079	-78.017	-47.163	62.577	267.351	70.262	-55.176	0.00026081	0.0014552	0.00016332	1059.7	6.4716e-06	1.4626e-05	921.01	394.58	4.2448e-06	4.7355e-06	398.92	145.89	137.16	55.853	1.0511e-05	66.572	0.011677	0.015066	0.0043073	1310.7	0.00015518	0.00016237	1151.9	480.56	0.00014713	0.00015459	514.17	184.84	173.22	69.041	0.00014713	82.407	233.305	-26.646	-17.829	-67.912	170.076	171.619	-68.501	-62.796	-63.867	68.684	-64.971	-59.958	-58.461	-53.262	52.521	-55.714	-8191	255	
9868.725	1	1	0	0	0.18284	0.17179	0.15764	0.23366	0.039399	0.21592	0.22476	0.18906	0.14112	0.11345	0.19692	0.1003	0.15549	0.15133	0.19757	0.067211	-2.0708	-3.3646	-2.5542	-2.8521	-3.2167	-2.5104	-3.15	-3.3917	-2.3917	-3.3521	-2.9	-2.9146	-3.4875	-2.7438	-2.95	-3.3187	-9.695	-55.067	220.007	213.392	272.428	54.376	197.602	133.515	154.757	100.271	260.805	187.232	-63.067	270.605	38.304	166.921	0.00018045	0.00099404	9.1389e-05	1057.1	6.8877e-06	5.4787e-06	916.68	393.17	1.3498e-06	1.3362e-05	394.12	143.51	135.92	54.854	8.2877e-06	64.71	0.0099864	0.013151	0.0036631	1272.1	0.00013118	0.00013961	1119	469.37	0.0001264	0.00013568	496	178.27	167.93	66.878	0.00012781	78.997	201.119	99.196	-38.126	-67.714	143.266	79.459	-68.608	-62.764	-28.751	5.873	-64.743	-59.747	-58.140	-53.251	212.322	-55.573	-8191	255	
9868.822	1	1	0	0	0.085092	0.15769	0.23536	0.2629	0.19326	0.038917	0.14524	0.14084	0.0722	0.20838	0.15519	0.33794	0.25953	0.19776	0.14215	0.13498	-2.1208	-3.25	-2.8688	-2.6646	-3.5354	-2.6958	-3.0771	-3.45	-2.4167	-3.225	-3.1458	-2.6396	-3.4979	-2.7583	-2.8042	-3.3958	-70.962	241.472	126.531	47.234	-37.500	134.372	172.941	-79.221	184.168	211.989	165.754	245.222	-55.013	251.113	80.300	261.829	0.00021237	0.00064539	0.0001608	1059.5	4.4318e-06	5.5604e-06	912.87	391.21	9.9359e-06	5.1806e-06	391	141.23	134.5	54.327	1.193e-05	64.311	0.0087894	0.01169	0.0031777	1255.1	0.00011583	0.00012458	1094.4	459.72	0.00011185	0.00012073	480.4	173.05	164.17	65.312	0.00011079	77.362	245.241	4.497	269.269	-67.812	79.693	99.592	-68.799	-62.898	232.589	43.584	-64.719	-59.963	-58.243	-53.240	173.105	-55.545	-8191	255	
9868.941	1	1	0	0	0.12663	0.23972	0.082834	0.1637	0.13105	0.16542	0.23322	0.17321	0.055091	0.12962	0.15209	0.16003	0.25169	0.1922	0.16653	0.15801	-1.925	-3.1354	-2.8833	-2.7458	-3.1375	-2.8563	-2.875	-3.2333	-2.4042	-3.1167	-3.0083	-2.5375	-3.7417	-2.8979	-2.75	-3.3563	-30.528	227.197	-7.405	218.818	172.132	104.375	259.509	214.975	-6.534	11.931	210.852	219.824	231.683	197.449	-78.825	-0.011	0.00016742	0.00068443	8.1212e-05	1060	4.3545e-06	6.0731e-06	914.02	389.61	6.4047e-06	2.0837e-05	390.57	141.57	134.57	54.835	1.004e-05	65.036	0.0080372	0.010564	0.0028337	1239.5	0.00010888	0.00011546	1083.7	456.45	0.00010943	0.00011521	478.19	172.84	164.82	65.516	0.00010812	78.174	211.669	72.115	185.945	-68.068	233.482	41.996	-68.644	-62.683	205.511	45.191	-64.601	-59.868	-58.422	-53.005	79.592	-55.529	-8191	255	
9869.037	1	1	0	0	0.081165	0.18677	0.18678	0.30624	0.14705	0.19552	0.20956	0.018888	0.20244	0.14501	0.16595	0.073246	0.12691	0.19112	0.043278	0.31908	-2.0833	-3.1667	-3.1312	-2.4562	-3.2104	-2.775	-2.7479	-3.2771	-2.6792	-3.0771	-3.3187	-2.5771	-3.2625	-2.9375	-2.6771	-3.4479	179.020	-55.281	-26.433	198.259	176.902	258.762	186.000	219.441	102.772	213.277	188.912	38.019	-70.627	63.019	94.249	272.558	0.00024602	0.0008287	0.00046421	1054.1	7.6086e-07	1.4014e-05	914.48	391.82	6.7136e-06	1.542e-05	394.75	144.35	137.23	55.798	3.6545e-06	66.215	0.0080685	0.010287	0.0027792	1234.8	0.00011001	0.00011221	1081.3	458.38	0.00010965	0.00011122	481.24	175.49	167.11	66.45	0.00010508	79.401	221.093	25.550	7.797	-67.872	-0.072	62.454	-68.846	-62.823	236.438	50.442	-64.894	-60.341	-58.419	-53.325	41.047	-55.564	-8191	255	
9869.133	1	1	0	0	0.1551	0.16732	0.097783	0.16827	0.15072	0.16961	0.12733	0.38341	0.21732	0.15506	0.067456	0.26564	0.21673	0.1419	0.23079	0.0088572	-2.2812	-2.8604	-3.2042	-2.625	-2.9979	-3.0667	-2.6625	-3.5854	-2.5938	-2.675	-3.5687	-2.5563	-3.3312	-3.2188	-2.3708	-3.6	5.086	171.255	115.280	234.356	0.052	-28.203	236.045	226.524	252.011	-33.042	111.011	273.805	245.015	125.077	120.105	-29.033	0.00025674	0.0013002	0.00016823	1052.5	1.2403e-05	5.7995e-06	910.08	392.29	3.667e-06	1.1285e-05	393.51	144.36	136.56	55.461	1.3295e-06	65.734	0.0080466	0.0098845	0.0026984	1230.8	0.00010871	0.00010848	1073.5	457.74	0.00010757	0.00010699	477.73	175.58	166.38	65.997	0.00010334	78.828	232.753	22.255	253.265	-67.789	-26.709	102.569	-68.317	-62.397	135.737	38.876	-64.807	-59.674	-58.179	-52.949	144.345	-55.295	-8191	255	
9869.229	1	1	0	0	0.28238	0.24121	0.11727	0.26271	0.091688	0.12022	0.13376	0.3217	0.25064	0.25166	0.21769	0.18004	0.38039	0.29134	0.248	0.13711	-1.9854	-2.5563	-3.4208	-2.4729	-3.0125	-3.2104	-2.4854	-3.3458	-2.8271	-2.6271	-3.3708	-2.5938	-3.2708	-3.2479	-2.575	-3.4042	247.812	-74.941	187.603	-77.992	102.005	239.742	-38.793	203.680	116.190	24.700	235.958	-68.016	246.012	-42.672	53.464	-70.509	0.00023408	4.899e-05	3.6413e-05	1055.4	9.133e-06	5.5035e-06	907.99	388.51	3.28e-06	1.1905e-05	388.74	142.08	135.44	54.367	8.2846e-06	64.429	0.0079657	0.0097629	0.0026799	1236.6	0.00010728	0.00010653	1071.6	455.77	0.00010587	0.00010502	472.44	172.94	163.68	64.695	0.00010269	77.595	217.480	-79.347	72.692	-67.901	84.058	38.434	-68.617	-62.744	61.636	111.312	-64.473	-59.865	-57.876	-52.868	80.788	-55.137	-8191	255	
9869.325	1	1	0	0	0.27123	0.10591	0.16952	0.042666	0.37226	0.039962	0.14144	0.24274	0.25423	0.22533	0.044871	0.061959	0.2049	0.32788	0.10263	0.26643	-2.6146	-2.4958	-3.0979	-2.7313	-2.8187	-3.1375	-2.6292	-3.5833	-3.05	-2.7313	-3.4104	-2.7062	-2.7812	-3.5312	-2.3729	-3.5167	-2.803	169.920	-8.193	226.421	60.892	240.103	244.356	263.255	13.348	-20.243	-39.534	6.573	199.200	261.622	260.154	241.551	0.0001725	0.00091556	8.8261e-05	1056.8	1.1988e-05	1.188e-05	912.07	388.63	3.6478e-06	3.3947e-06	383.82	138.79	132.24	53.415	9.3505e-06	62.926	0.0078149	0.0096081	0.0027099	1245.9	0.0001086	0.00010974	1078.1	458.14	0.00011064	0.00011164	472.97	171.4	162.23	63.923	0.00011108	76.667	243.109	-67.313	148.306	-67.882	63.323	19.160	-68.696	-62.730	79.874	-64.298	-64.738	-60.085	-58.585	-53.753	176.164	-56.071	-8191	255	
9869.421	1	1	0	0	0.16368	0.24878	0.12168	0.32025	0.092577	0.39506	0.2458	0.39965	0.05594	0.072282	0.13504	0.10654	0.36333	0.24839	0.25911	0.21328	-2.5896	-2.3333	-3.3646	-2.6792	-2.8812	-3.2854	-2.5042	-3.2292	-2.8625	-2.4917	-3.5021	-2.7812	-2.8375	-3.5187	-2.4437	-3.1479	110.866	15.722	225.911	-29.743	216.310	104.828	234.912	264.216	126.651	260.012	-29.169	-3.803	159.287	232.139	4.319	-68.979	0.00015021	0.00020537	0.00029514	1063.7	8.0118e-06	4.3665e-06	905.79	387.45	6.9595e-06	9.046e-06	382.48	138.54	133.54	53.661	1.9143e-05	62.594	0.0081258	0.010044	0.0029083	1255.6	0.00011011	0.00011289	1082.8	458.58	0.0001114	0.00011207	474.45	171.31	163.29	64.178	0.00011603	76.339	191.211	-24.657	104.612	-68.589	78.348	-60.172	-69.339	-63.310	88.170	88.303	-65.283	-60.504	-58.874	-53.613	177.521	-56.026	-8191	255	
9869.542	1	1	0	0	0.2152	0.13307	0.11581	0.1563	0.11916	0.23068	0.38516	0.26965	0.072307	0.21251	0.17323	0.079311	0.2086	0.14625	0.14491	0.16051	-2.6583	-2.5375	-3.4167	-2.7812	-2.7229	-3.2458	-2.7792	-3.0208	-3.3438	-2.6312	-3.2542	-3.2271	-2.8187	-3.3937	-2.5854	-3.0271	38.618	41.188	-9.438	193.779	44.480	124.451	199.263	262.057	146.700	139.589	239.355	-29.986	14.263	-45.193	240.849	206.971	0.00013611	0.0013156	7.0789e-05	1062.9	1.0007e-05	1.1386e-05	902.92	389	4.2617e-06	5.9991e-06	384.96	138.61	133.19	53.836	3.9716e-06	62.95	0.0082173	0.010215	0.0030274	1256.7	0.00011009	0.0001129	1084.6	458.02	0.00010957	0.00011127	475.77	170.9	162.75	64.42	0.00011651	76.409	235.927	21.532	-51.010	-68.668	39.893	37.034	-69.358	-63.276	273.267	166.693	-65.359	-60.574	-58.862	-53.551	128.507	-55.944	-8191	255	
9869.638	1	1	0	0	0.12135	0.19196	0.10074	0.25425	0.091489	0.085929	0.27232	0.19226	0.1403	0.14016	0.086684	0.13565	0.20676	0.066782	0.11122	0.2614	-2.9292	-2.2687	-3.1562	-2.9708	-2.5375	-3.4396	-2.6437	-2.8396	-3.2646	-2.5375	-3.225	-3.0021	-2.8417	-3.325	-2.8104	-2.9771	83.188	232.730	226.115	249.001	-28.406	274.720	266.825	270.956	248.218	19.660	-2.365	137.790	-53.980	207.373	254.168	272.952	0.00022586	0.00066093	0.00016619	1059.4	7.7446e-06	1.1429e-05	903.09	388.34	8.5091e-06	8.0343e-06	384.9	138.8	133.62	53.882	9.6458e-06	63.324	0.0079403	0.010111	0.0030064	1246.2	0.00010634	0.00011191	1080.5	454.86	0.00010553	0.00011124	476.21	170.56	161.72	64.475	0.00011352	76.566	244.661	85.903	-11.341	-68.611	28.833	134.776	-69.458	-63.165	109.767	124.000	-65.381	-60.546	-58.912	-53.771	132.844	-55.943	-8191	255	
9869.732	1	1	0	0	0.17296	0.2192	0.084541	0.18514	0.088295	0.1865	0.035519	0.10639	0.17624	0.20299	0.1133	0.089398	0.19493	0.30442	0.32505	0.062963	-2.8375	-2.4167	-3.225	-3.2083	-2.4688	-3.5771	-2.7208	-2.9	-3.2271	-2.4354	-3.3083	-3.3833	-2.6271	-3.2979	-2.9146	-2.8312	238.377	172.476	246.038	270.405	0.458	244.150	-28.628	41.427	94.704	246.551	252.670	260.573	187.899	215.180	178.089	167.095	0.00017497	0.00045102	0.00030152	1061	3.9372e-06	4.9755e-07	906.35	387.07	3.6553e-06	2.4202e-06	381.91	137.36	131.57	52.907	2.4997e-06	62.15	0.0077277	0.010078	0.0029041	1242.7	0.00010379	0.00011263	1080.7	453.73	0.00010369	0.00011263	471.72	168.26	160.19	63.706	0.00011095	75.12	199.008	64.462	5.327	-68.653	25.477	243.061	-69.275	-63.422	7.839	190.895	-65.205	-60.519	-58.945	-53.575	146.331	-55.932	-8191	255	
9869.829	1	1	0	0	0.2086	0.10249	0.1083	0.181	0.11976	0.134	0.21743	0.36495	0.088496	0.28195	0.13941	0.060069	0.080647	0.10512	0.26202	0.28586	-2.8042	-2.5646	-2.7771	-3.1813	-2.5104	-3.3292	-2.7333	-2.7375	-3.5271	-2.5083	-2.9292	-3.3187	-2.7229	-3.2854	-3.0104	-2.6458	164.671	3.341	193.932	228.506	-20.990	255.354	122.464	231.759	-2.866	-64.957	182.274	248.913	276.406	165.234	-43.423	215.387	0.00018805	0.00060932	0.00033626	1057.4	3.4918e-06	8.7816e-06	906.51	384.55	6.7445e-06	4.2136e-06	381.44	137.77	131.5	53.061	1.3369e-05	62.205	0.0076445	0.010243	0.0028268	1239.7	0.00010142	0.00011213	1071.3	449.87	0.00010181	0.00011121	465.71	167.2	159.65	63.75	0.0001073	74.716	215.900	52.103	-6.240	-68.611	171.487	149.949	-69.236	-63.328	-42.342	247.219	-65.336	-60.542	-58.975	-53.450	109.230	-55.718	-8191	255	
9869.925	1	1	0	0	0.26709	0.3011	0.075321	0.11669	0.23011	0.20401	0.27537	0.17491	0.15614	0.12486	0.12537	0.17697	0.10986	0.097807	0.12305	0.14667	-3.0438	-2.6417	-2.5792	-3.4521	-2.3	-3.2042	-3.0896	-2.6417	-3.1875	-2.6979	-2.8812	-3.3854	-2.6	-3.2708	-3.0312	-2.5563	-66.742	223.292	246.204	188.237	34.505	63.208	244.151	199.431	230.017	112.358	173.862	-73.367	-52.616	188.582	218.080	237.927	0.00026586	0.00061948	0.0003402	1062.1	1.0177e-05	1.3403e-05	907.14	385.96	4.6144e-06	6.4979e-06	378.72	136.34	131.97	53.167	4.6779e-06	62.212	0.0077253	0.010217	0.0027732	1243.7	0.00010549	0.00011525	1074	452.18	0.00010843	0.00011659	465.97	166.84	161.73	64.02	0.00011075	74.914	236.447	10.720	-6.337	-68.178	18.799	178.440	-69.074	-63.037	259.404	58.761	-65.058	-60.302	-58.954	-53.453	80.310	-56.067	-8191	255	
9870.021	1	1	0	0	0.1451	0.025274	0.12061	0.16055	0.12236	0.1289	0.15779	0.48304	0.19005	0.28295	0.22896	0.17516	0.21903	0.1206	0.24913	0.099178	-3.0438	-2.7979	-2.3688	-3.3187	-2.4729	-3.0854	-3.2646	-2.4	-3.4604	-2.8688	-2.5792	-3.425	-2.5208	-3.0854	-3.0729	-2.5521	-43.350	-35.684	249.606	-54.080	214.360	-25.607	-70.786	208.558	104.747	31.612	189.520	277.147	205.188	138.116	-71.315	196.392	0.00019599	0.0017475	0.00021354	1068.6	3.1296e-06	1.2414e-05	907.14	389	3.5833e-06	1.5754e-05	383.96	139.66	134.35	54.703	1.2728e-05	64.313	0.0082484	0.01056	0.0028181	1252.5	0.00011071	0.00011523	1078.2	455.62	0.00011187	0.00011446	470.72	170.37	164.73	65.456	0.00010925	77.231	207.250	-15.245	-25.735	-68.716	89.392	55.937	-69.141	-63.030	-53.447	106.691	-65.279	-60.458	-59.016	-53.712	92.199	-55.911	-8191	255	
9870.117	1	1	0	0	0.10523	0.17461	0.27048	0.08447	0.11886	0.25541	0.38167	0.16425	0.28209	0.18011	0.30999	0.15641	0.31377	0.14203	0.17589	0.16865	-2.8729	-2.7188	-2.5083	-3.5187	-2.6104	-2.8312	-3.2583	-2.5417	-3.0396	-2.7771	-2.6667	-3.3771	-2.6688	-2.9562	-3.3792	-2.4813	73.751	11.250	1.123	262.444	94.746	192.294	176.979	-57.026	-4.267	179.410	237.726	173.545	204.654	-80.466	8.035	170.426	0.00019935	0.0001204	0.00026415	1061	4.9765e-06	3.3864e-06	908.49	391.49	2.4184e-06	1.523e-05	387.96	141	135.86	55.258	9.8713e-06	64.146	0.0083873	0.01044	0.0028145	1248.7	0.00011414	0.00011505	1082.7	459.82	0.00011469	0.00011376	474.16	172.83	166.32	65.819	0.0001074	77.373	209.656	262.979	50.485	-68.321	-43.478	91.171	-69.156	-63.155	-9.603	74.464	-65.381	-60.466	-58.513	-53.572	90.363	-56.075	-8191	255	
9870.213	1	1	0	0	0.14169	0.10818	0.14196	0.13592	0.12285	0.041346	0.11289	0.4647	0.12804	0.07325	0.18554	0.27244	0.17951	0.26795	0.34656	0.18371	-2.8063	-2.875	-2.6688	-3.55	-2.6271	-2.7729	-3.3042	-2.6854	-3.0479	-3.1208	-2.5167	-3.4938	-2.7542	-2.7729	-3.2125	-2.3563	75.590	220.616	190.282	-20.068	36.155	-78.098	212.097	224.602	104.847	154.046	120.961	276.198	246.489	257.487	-9.745	270.601	0.00033381	0.0010266	0.00015991	1063.7	4.5467e-06	4.2842e-06	907.58	387.06	4.9679e-06	1.6814e-05	382.81	138.64	133.33	54.14	6.7102e-06	63.004	0.00828	0.010088	0.0027175	1249.5	0.00011063	0.00010951	1073.1	455.85	0.00010919	0.00010769	465.34	169.57	162.3	64.26	0.00010161	75.805	228.159	263.480	80.217	-68.394	29.663	57.206	-69.090	-63.241	78.605	62.848	-65.131	-60.380	-58.619	-53.459	94.541	-55.820	-8191	255	
9870.309	1	1	0	0	0.21523	0.19459	0.061739	0.039138	0.082826	0.11942	0.21933	0.062287	0.22634	0.032522	0.33527	0.1085	0.27165	0.14137	0.12235	0.054923	-2.6354	-3.1021	-2.1771	-3.3167	-2.7104	-2.4208	-3.3229	-2.4854	-2.9646	-3.0583	-2.4562	-3.1875	-2.7042	-2.75	-3.2292	-2.6521	0.534	173.045	168.230	248.458	74.450	118.901	275.343	100.462	240.197	13.888	167.719	235.070	-11.178	-30.226	237.066	40.363	0.00027334	0.00057277	0.00018547	1063.2	1.3098e-05	7.6217e-06	906.23	387.48	5.9073e-06	1.6602e-05	377.01	135.28	131.49	52.811	8.3261e-06	60.982	0.007784	0.0095703	0.0025993	1249.8	0.00010602	0.00010604	1069.3	455.23	0.00010702	0.00010783	460.73	166.88	160.32	62.914	0.00010718	74.198	241.758	37.654	273.186	-68.265	55.447	180.978	-69.311	-63.187	89.549	81.336	-65.456	-60.243	-58.589	-53.596	119.367	-55.479	-8191	255	
9870.430	1	1	0	0	0.094008	0.1873	0.23966	0.085466	0.26636	0.15887	0.31548	0.1935	0.20386	0.033849	0.10321	0.40407	0.18981	0.15613	0.11383	0.041408	-2.3521	-3.1729	-2.3625	-3.4125	-2.9271	-2.6458	-3.4646	-2.5875	-2.7708	-3.425	-2.3042	-3.3937	-2.8667	-2.6833	-3.2438	-2.7146	169.070	238.536	-31.876	191.855	259.676	157.519	152.630	185.890	105.652	55.474	-72.647	263.085	230.375	-47.822	253.820	171.756	0.00016863	0.0012522	0.00014871	1070.7	8.2238e-06	3.0419e-06	908.91	386.76	7.2513e-06	6.508e-06	374.84	133.71	130.4	52.169	4.0356e-06	60.22	0.0079299	0.009847	0.0027512	1263	0.00010722	0.00010665	1075.3	454.49	0.000106	0.00010797	460.97	165.55	159.21	62.395	0.00011235	73.798	239.369	24.648	-55.260	-68.291	80.587	90.814	-69.145	-63.057	93.840	53.358	-65.067	-60.113	-58.406	-53.062	61.415	-55.558	-8191	255	
9870.502	1	1	0	0	0.11473	0.13215	0.10378	0.19988	0.12721	0.098496	0.19935	0.22674	0.13604	0.15101	0.068369	0.090004	0.1466	0.28143	0.25744	0.2965	-2.3042	-3.2771	-2.3229	-3.2354	-3.0187	-2.4854	-3.3771	-2.6646	-2.6021	-3.2708	-2.5	-3.1083	-3.1437	-2.4604	-3.3667	-2.5604	265.843	57.780	-63.939	-47.089	106.578	81.586	244.658	-44.542	182.051	6.676	-21.775	185.267	-27.128	229.619	-4.684	171.727	0.00024666	0.0004536	0.00014312	1075.1	1.4485e-05	2.3643e-06	908.97	386.86	1.0022e-05	6.0818e-06	373.94	132.99	130.65	52.241	4.2445e-06	59.875	0.0081184	0.010334	0.0030477	1279.7	0.00012041	0.00012423	1104.5	464.38	0.00012982	0.00013505	479.06	170.05	164.46	64.082	0.0001387	75.085	217.402	-30.049	225.793	-68.070	17.842	74.415	-68.737	-63.130	63.166	-57.808	-64.984	-59.911	-58.502	-52.909	155.019	-55.704	-8191	255	
9870.622	1	1	0	0	0.099127	0.30673	0.13856	0.22861	0.18499	0.16223	0.14268	0.12478	0.064541	0.10481	0.12005	0.22614	0.25764	0.29257	0.30935	0.32655	-2.1042	-3.2833	-2.6458	-3.0854	-3.1042	-2.4854	-3.2021	-2.8625	-2.6208	-3.3312	-2.6917	-2.875	-3.3583	-2.475	-3.1146	-3.1479	221.442	-78.852	45.103	168.956	260.523	264.299	234.491	162.078	275.399	272.115	248.013	266.578	-29.311	-52.067	249.129	240.888	0.00014973	0.0014035	0.00010295	1080.3	1.4372e-05	7.5131e-06	910.68	387.68	9.2506e-06	5.3244e-06	373.84	133.53	131	52.201	5.5436e-06	60.11	0.0093238	0.011799	0.0034217	1288.1	0.00012161	0.00012259	1098.6	460.63	0.00011431	0.00011903	468.27	165.82	160.62	62.745	0.00011672	73.169	235.656	-42.905	-24.153	-68.134	81.033	129.058	-68.722	-62.612	38.087	-75.453	-64.887	-59.939	-58.253	-52.809	144.629	-55.317	-8191	255	
9870.718	1	1	0	0	0.24754	0.042264	0.1855	0.25205	0.089704	0.29344	0.31102	0.2714	0.16533	0.12844	0.20113	0.3672	0.2556	0.19047	0.17359	0.10431	-1.8583	-3.3417	-2.7458	-2.9458	-3.3937	-2.3792	-3.1708	-3.3396	-2.4104	-3.1708	-2.7708	-2.7062	-3.3979	-2.7313	-3.0708	-3.2229	266.362	267.509	-32.612	189.419	174.381	171.099	212.743	214.037	189.651	105.767	177.163	199.553	278.619	206.859	13.911	215.320	0.00024184	0.0010319	0.00050216	1075.4	7.7376e-06	7.4959e-06	906.06	386.58	4.5974e-06	1.2098e-05	372.1	133.32	131.2	51.835	7.9495e-06	59.763	0.0078347	0.010245	0.0029856	1263.6	0.00010832	0.00011473	1083.7	454.96	0.00010706	0.00011556	463.94	164.15	159.49	62.524	0.00011351	72.698	207.078	-19.786	53.887	-67.602	4.555	108.387	-68.350	-62.136	265.977	110.715	-64.605	-60.053	-58.492	-53.153	26.569	-55.604	-8191	255	
9870.813	1	1	0	0	0.15729	0.066926	0.10061	0.21599	0.065982	0.12275	0.12511	0.30379	0.10138	0.24019	0.20509	0.11736	0.14869	0.27723	0.2306	0.13938	-2.0083	-3.1104	-2.7021	-2.7146	-3.3479	-2.2146	-3.3833	-3.1542	-2.4458	-3.3104	-2.8583	-2.7458	-3.2875	-2.8625	-2.7792	-3.4646	236.893	72.196	-51.686	262.632	199.452	194.875	168.015	245.411	174.614	-38.100	131.799	-15.210	242.281	263.351	179.645	12.798	0.00022496	0.001389	0.00030335	1076.6	7.1906e-06	7.3982e-06	902.4	387.4	1.1879e-06	3.7942e-07	373.54	134.03	131.35	52.095	7.6883e-06	59.942	0.0076423	0.01029	0.0028934	1258	0.00010415	0.00011456	1076.9	453.28	0.00010211	0.00011249	460.48	163.74	159.26	62.63	0.00010737	72.639	207.479	29.114	10.560	-68.057	224.779	147.254	-68.837	-62.802	152.240	-80.603	-64.712	-59.944	-58.373	-53.090	105.228	-55.582	-8191	255	
9870.911	1	1	0	0	0.14475	0.25674	0.17907	0.27061	0.085225	0.060591	0.29028	0.089836	0.13125	0.19151	0.22086	0.16822	0.030633	0.26789	0.043028	0.15696	-2.0417	-3.0729	-2.8792	-2.5479	-3.2313	-2.8021	-2.8667	-3.425	-2.7958	-3.2292	-2.9104	-2.6063	-3.2125	-2.7854	-2.675	-3.2104	118.793	-51.097	-69.038	205.842	100.797	-7.260	202.353	45.167	169.861	168.339	-55.461	104.229	-66.288	185.881	183.102	-76.303	0.00023165	0.00019647	0.00011352	1069.9	7.3324e-06	1.1314e-05	903.15	386.67	3.4141e-06	1.3204e-05	374.03	134.13	131.74	52.528	4.6278e-06	60.17	0.0074688	0.010158	0.002769	1248.7	0.00010223	0.00011167	1068.3	450.91	0.00010218	0.00011137	457.99	163.38	159.68	62.784	0.00010301	72.368	194.595	39.403	-51.537	-67.988	122.793	148.134	-68.477	-62.665	53.349	97.610	-64.130	-59.494	-57.863	-52.450	123.289	-55.145	-8191	255	
9871.030	1	1	0	0	0.14225	0.12895	0.11179	0.29166	0.048024	0.10646	0.10721	0.26361	0.02345	0.10437	0.099526	0.095871	0.060083	0.31221	0.049195	0.32445	-2.0938	-3.1896	-2.9729	-2.7354	-3.3146	-2.7042	-2.7896	-3.4375	-2.6542	-2.9729	-3.0812	-2.45	-3.4188	-2.8937	-2.5042	-3.4083	142.755	143.988	-67.715	259.299	-78.523	262.851	-79.925	166.108	118.047	-47.319	11.694	-15.425	152.355	208.545	190.398	238.607	0.00019016	0.0017869	0.00023292	1070.7	2.0599e-06	1.4966e-05	903.52	387.15	4.4184e-06	3.5159e-06	374.91	136.24	133.1	53.265	1.4134e-05	61.156	0.0074309	0.0098143	0.0026237	1241.6	0.00010058	0.00010623	1061.1	449.52	0.00010012	0.00010472	456.48	164.12	161.18	63.434	9.957e-05	73.261	204.753	-40.284	-45.125	-67.147	-46.042	53.027	-68.805	-62.966	270.821	158.943	-65.024	-60.403	-58.487	-53.279	-10.091	-55.813	-8191	255	
9871.126	1	1	0	0	0.17579	0.020305	0.17006	0.36718	0.22133	0.14468	0.26616	0.21465	0.26301	0.2073	0.11315	0.23443	0.085432	0.3261	0.18881	0.16455	-2.0708	-2.8021	-3.2188	-2.4042	-3.2854	-2.7417	-2.7104	-3.4188	-2.3917	-2.8854	-3.0125	-2.4625	-3.4854	-2.7812	-2.375	-3.4875	206.836	246.112	-36.881	216.905	179.598	43.188	197.502	197.265	200.472	258.444	-72.324	-70.151	263.705	-70.693	178.384	198.751	0.0002901	0.0012492	0.00043609	1073.8	4.7401e-06	7.2136e-06	905.32	390.26	4.876e-06	1.3542e-05	378.56	135.92	132.69	53.154	9.3344e-06	61.12	0.0075338	0.0095169	0.0025604	1242.8	0.00010169	0.00010301	1062.3	452.24	0.00010071	0.00010181	456.91	164.14	161.27	63.225	9.6791e-05	73.34	220.092	15.031	-26.683	-67.623	-11.591	63.705	-67.965	-62.126	119.645	6.993	-64.180	-59.612	-58.132	-52.869	57.632	-54.955	-8191	255	
9871.222	1	1	0	0	0.31366	0.12339	0.022933	0.15752	0.27934	0.095618	0.11567	0.083077	0.29767	0.072375	0.30514	0.24328	0.058052	0.12237	0.15317	0.13435	-2.0333	-2.9229	-3.2167	-2.5958	-3.1542	-2.9813	-2.6583	-3.4479	-2.8146	-2.5854	-3.3208	-2.5479	-3.1875	-3.1937	-2.4	-3.4479	151.844	186.915	-28.757	-17.580	157.832	199.271	240.705	117.557	2.523	159.861	226.049	148.477	125.324	223.602	210.283	227.300	0.00010656	0.0019428	0.00015513	1078.3	2.9518e-06	1.1737e-05	905.39	389.87	1.0707e-05	8.3973e-06	377.46	135.58	133.27	53.243	4.9396e-06	60.914	0.007486	0.0092034	0.0024991	1247.9	0.0001018	0.0001016	1061.9	452.91	0.00010135	0.00010031	455.4	164.18	161.09	63.006	9.4497e-05	73.352	249.256	-35.838	62.474	-67.527	226.194	67.003	-68.425	-62.643	122.257	16.476	-64.621	-59.833	-57.937	-52.762	116.147	-55.262	-8191	255	
9871.318	1	1	0	0	0.2758	0.12057	0.30573	0.46585	0.1357	0.10552	0.14671	0.064418	0.27173	0.15783	0.25471	0.20346	0.20125	0.18759	0.20326	0.037664	-2.3563	-2.6771	-3.275	-2.4625	-3.2396	-3.0479	-2.5	-3.3625	-2.9417	-2.5479	-3.5854	-2.8208	-2.9292	-3.3979	-2.3625	-3.3937	46.938	231.555	86.366	252.749	177.650	156.882	215.427	70.648	-16.535	65.038	217.642	262.381	223.707	222.604	49.504	176.046	0.00015472	0.00079404	0.00026702	1074.1	8.6574e-06	9.9918e-06	905.09	389.87	7.2646e-06	9.0066e-06	377.78	136.31	133.77	53.617	3.6553e-06	61.242	0.0073572	0.0089628	0.0024586	1247	9.9791e-05	9.9181e-05	1058	453.61	9.8934e-05	9.7644e-05	455.63	165.36	160.91	63.207	9.3119e-05	73.682	226.416	-50.551	60.583	-67.852	-79.971	116.705	-68.624	-62.504	136.183	21.802	-64.601	-59.782	-57.826	-52.973	77.146	-55.252	-8191	255	
9871.414	1	1	0	0	0.18771	0.062651	0.20545	0.14485	0.16917	0.12115	0.091962	0.33688	0.25587	0.10494	0.24032	0.11755	0.3332	0.078716	0.29128	0.046547	-2.5187	-2.4208	-3.4292	-2.7208	-2.8333	-3.3979	-2.4479	-3.4042	-2.8917	-2.5604	-3.4396	-2.7708	-2.9458	-3.3667	-2.4813	-3.2125	-10.885	223.025	271.038	-31.151	-79.963	219.291	173.888	198.422	-7.024	75.448	266.209	111.481	-14.027	-69.516	-74.306	-1.315	0.00026834	0.00088398	0.00018016	1072.1	1.077e-05	1.2625e-05	903.88	389.51	6.7464e-06	1.3608e-05	374.85	135.79	133.15	52.999	9.6909e-06	60.883	0.0070857	0.008643	0.0024091	1244.3	9.4532e-05	9.5423e-05	1054	452.53	9.4843e-05	9.4142e-05	453.53	164.47	159.73	62.515	9.4659e-05	72.891	230.824	8.106	19.131	-67.614	115.862	96.566	-68.596	-62.418	49.238	31.667	-64.372	-59.711	-58.077	-52.650	206.900	-55.000	-8191	255	
9871.510	1	1	0	0	0.057239	0.24331	0.11322	0.15449	0.14425	0.095661	0.23184	0.3998	0.18529	0.14775	0.1444	0.22414	0.10917	0.11521	0.12496	0.17521	-2.7	-2.4167	-3.2479	-2.9625	-2.5667	-3.4042	-2.5896	-3.2833	-3.0521	-2.4792	-3.5458	-2.9792	-2.6	-3.6646	-2.6417	-3.0167	93.442	34.409	-51.350	245.095	211.182	101.227	177.798	229.104	-10.699	96.702	269.621	137.435	-70.014	128.664	104.778	225.639	0.00015493	0.00078577	0.00027478	1071.4	6.9849e-06	6.4656e-06	900.42	387.19	1.0682e-05	3.2481e-06	375.63	135.78	132.8	53.083	1.0084e-05	60.574	0.0069316	0.0085374	0.0024922	1246.1	9.405e-05	9.4732e-05	1056.5	450.59	9.3882e-05	9.3558e-05	454.71	164.55	159.62	62.418	9.7498e-05	72.836	224.026	-6.051	-75.525	-67.470	144.174	90.189	-68.485	-62.139	37.850	140.117	-64.269	-59.595	-57.622	-52.538	116.785	-55.033	-8191	255	
9871.606	1	1	0	0	0.43866	0.20832	0.22844	0.091373	0.085256	0.069689	0.35363	0.19562	0.25041	0.066347	0.29373	0.077212	0.16816	0.1811	0.1836	0.20982	-2.7146	-2.3708	-3.2854	-2.8583	-2.7938	-3.2979	-2.7188	-3.0938	-3.0604	-2.4583	-3.2417	-2.9437	-2.8646	-3.4688	-2.6375	-2.9771	198.114	-19.151	68.766	220.077	261.637	61.429	196.095	-79.555	49.771	-52.718	232.306	253.353	164.545	275.542	229.283	245.213	6.1653e-05	0.0010778	6.1023e-05	1067.1	9.4263e-06	4.7152e-06	897.69	387.64	1.8519e-06	6.6741e-06	372.17	135.33	132.6	53.015	7.7583e-06	60.306	0.006853	0.0084719	0.0025305	1238.9	9.2088e-05	9.4099e-05	1054.9	449.15	9.1547e-05	9.3368e-05	453.77	163.56	159.11	62.299	9.9756e-05	72.231	234.879	-12.889	14.418	-67.405	20.396	-32.520	-68.451	-62.537	-31.998	31.640	-63.924	-59.456	-57.508	-52.443	58.572	-54.872	-8191	255	
9871.725	1	1	0	0	0.11401	0.1933	0.06197	0.35374	0.23994	0.029319	0.12949	0.26191	0.21765	0.11427	0.075315	0.044878	0.13223	0.19063	0.16349	0.18103	-2.875	-2.1125	-3.1396	-2.8542	-2.2729	-3.4542	-2.6167	-2.9542	-3.1979	-2.6708	-3.2062	-3.1437	-2.4708	-3.5062	-2.7521	-2.8833	24.171	225.709	58.016	244.067	239.918	59.969	220.689	201.835	112.324	251.135	245.526	195.234	-2.891	240.432	45.985	230.651	0.00013728	0.00033113	0.0004005	1071.4	6.1583e-06	5.5448e-06	895.85	385.63	3.8491e-06	1.2509e-05	371.61	134.9	132.71	52.738	4.5894e-06	60.032	0.0067925	0.0087127	0.0025961	1238.8	9.2084e-05	9.685e-05	1056.2	448.19	9.2147e-05	9.7128e-05	453.27	162.67	158.44	62.3	0.00010043	71.772	193.629	162.369	11.899	-67.115	38.533	99.266	-67.680	-61.565	27.997	140.901	-64.340	-58.889	-57.166	-52.359	-13.645	-54.827	-8191	255	
9871.799	1	1	0	0	0.090582	0.26924	0.16326	0.16783	0.24937	0.24083	0.15226	0.17764	0.099935	0.16814	0.17535	0.10532	0.17894	0.25223	0.027292	0.022582	-2.8	-2.2854	-2.9854	-3.1688	-2.5292	-3.2042	-2.9	-2.8979	-3.0771	-2.5521	-2.9958	-3.2396	-2.5604	-3.5917	-2.7167	-2.9437	195.365	114.773	116.407	252.191	74.747	106.260	192.636	177.885	1.409	51.236	166.224	225.897	-29.723	263.805	12.513	30.095	0.00016222	0.0011212	0.00028663	1069.2	5.2778e-06	7.0472e-06	898.54	387.87	5.7528e-06	9.6999e-06	372.72	134.61	132.49	52.661	1.2555e-05	60.149	0.0067666	0.0089289	0.0025836	1237.4	9.1764e-05	0.00010115	1057	449.12	9.3605e-05	0.00010328	454.61	162.98	159.57	63.015	0.00010547	72.413	215.920	155.580	47.174	-67.851	89.530	58.340	-68.799	-62.435	21.285	70.262	-63.596	-59.098	-56.918	-51.827	47.339	-54.307	-8191	255	
9871.893	1	1	0	0	0.086856	0.21483	0.1735	0.23337	0.11634	0.054381	0.10072	0.21228	0.15484	0.14817	0.2714	0.076829	0.27579	0.32777	0.12059	0.18467	-2.7646	-2.5729	-3.0687	-3.3021	-2.5958	-3.2375	-3.0979	-2.5521	-3.3917	-2.3479	-2.9313	-3.3438	-2.575	-3.2042	-2.9208	-2.4583	219.575	235.219	173.882	-56.047	-9.461	149.186	175.840	-46.715	69.054	47.087	231.019	-6.996	230.660	240.013	236.804	60.431	0.00017618	0.00049402	0.00023799	1075.5	3.1823e-06	1.4924e-05	905.16	386.57	2.4765e-06	6.4251e-06	371.41	133.26	132.32	52.77	6.69e-06	60.207	0.0072922	0.0099059	0.0027376	1251.7	9.9474e-05	0.00011149	1069.4	451.91	0.00010188	0.00011226	456.1	163.16	160.53	63.228	0.00010718	72.327	238.457	10.729	25.936	-66.856	235.554	91.293	-67.805	-62.182	90.570	86.216	-63.787	-59.468	-57.585	-52.365	70.472	-54.840	-8191	255	
9871.991	1	1	0	0	0.23518	0.090681	0.1718	0.22893	0.20282	0.12916	0.070553	0.29501	0.22399	0.070242	0.08127	0.19143	0.046518	0.10639	0.092864	0.17892	-3.2167	-2.4083	-2.8042	-3.3521	-2.5583	-2.9667	-3.2604	-2.6437	-3.3792	-2.7333	-2.7708	-3.4	-2.5	-3.3604	-2.9771	-2.6833	168.745	-45.147	-34.601	225.466	-69.609	192.945	144.812	-31.197	-37.774	72.609	178.077	257.160	35.717	197.984	139.095	248.419	0.00025631	0.00084866	0.00028051	1071.3	2.9029e-06	1.1828e-05	895.94	387.1	3.0266e-06	9.0105e-06	372.55	136.36	133.45	53.558	6.97e-06	60.994	0.0076505	0.010216	0.0027452	1248.6	0.00010345	0.00011238	1062.5	450.71	0.00010527	0.00011226	457.17	164.99	162.64	64.104	0.00010621	73.572	187.113	32.325	-12.055	-67.605	250.824	41.160	-68.305	-62.231	225.673	14.138	-64.418	-59.625	-57.919	-52.960	11.395	-54.971	-8191	255	
9872.110	1	1	0	0	0.050866	0.082539	0.039618	0.37932	0.16933	0.079052	0.13405	0.2958	0.19392	0.095065	0.18742	0.35759	0.033307	0.16624	0.17561	0.26787	-3.0896	-2.7438	-2.5896	-3.5667	-2.5354	-3.1063	-3.2687	-2.4833	-3.5333	-2.7313	-2.7729	-3.2188	-2.5812	-3.2729	-3.1583	-2.475	145.392	64.285	214.227	237.681	143.473	220.638	189.680	208.471	-15.605	32.740	278.162	-55.669	217.497	161.349	103.323	208.469	0.0002496	0.001471	0.00017076	1063.7	1.7534e-05	1.6156e-05	897.47	387.77	4.6108e-06	3.4293e-06	375.35	136.41	134.5	53.673	8.8229e-06	61.185	0.0079345	0.010219	0.0027314	1240.6	0.00010819	0.00011254	1061.7	452.45	0.00010849	0.00011138	459.4	166.67	164.11	64.174	0.00010536	73.764	228.476	-25.980	27.172	-67.566	165.861	71.516	-68.482	-62.651	178.521	42.433	-64.502	-59.593	-57.896	-52.822	146.495	-55.298	-8191	255	
9872.206	1	1	0	0	0.31401	0.23977	0.059903	0.12292	0.16434	0.18176	0.3669	0.30858	0.16785	0.080793	0.35043	0.3078	0.094133	0.098659	0.11171	0.13437	-2.9333	-2.85	-2.5062	-3.6937	-2.5792	-2.8542	-3.2875	-2.5979	-3.2667	-2.8729	-2.7458	-3.3458	-2.7313	-2.7854	-3.2479	-2.4417	-17.850	243.003	-40.000	13.531	102.756	257.218	247.186	173.870	-21.344	266.329	274.353	189.765	7.332	114.693	80.433	222.700	0.00019341	0.0011409	0.00028402	1061.9	9.4922e-06	1.0643e-05	896.07	386.26	3.0607e-06	1.1252e-05	372.33	135.08	133.26	52.951	3.6335e-06	60.249	0.008124	0.010118	0.0027217	1243.5	0.00011081	0.0001115	1062.3	452.32	0.00011172	0.00011227	457.53	166.09	163.43	63.555	0.00010897	73.64	211.353	-15.584	-0.371	-67.640	272.973	54.374	-68.171	-62.077	69.654	7.376	-64.217	-59.659	-57.921	-52.744	66.859	-54.954	-8191	255	
9872.302	1	1	0	0	0.16404	0.33947	0.13058	0.21519	0.11337	0.11305	0.21133	0.010212	0.11684	0.11952	0.13518	0.13961	0.32072	0.15293	0.24327	0.16451	-2.8333	-2.9437	-2.6417	-3.3625	-2.7396	-2.7708	-3.5083	-2.7521	-3.0271	-2.9792	-2.6688	-3.3063	-2.8812	-2.7708	-3.3375	-2.7417	30.645	198.457	16.979	270.225	226.832	244.415	267.131	-22.290	119.919	112.772	-19.470	169.450	9.338	-13.885	10.608	-43.516	0.00021617	0.0012683	0.00062075	1067	7.227e-06	7.2695e-06	897.68	388.1	4.282e-06	1.1587e-05	374.34	135.77	133.27	53.123	1.2319e-05	60.575	0.0085078	0.010439	0.0028355	1255.7	0.00011524	0.00011436	1065.9	456.17	0.00011393	0.00011291	460.36	167.56	163.57	63.644	0.00010818	73.862	200.519	-13.968	-42.519	-67.366	127.948	41.684	-68.143	-62.089	0.569	31.326	-64.291	-59.585	-57.837	-52.570	-59.134	-54.972	-8191	255	
9872.398	1	1	0	0	0.32508	0.085849	0.31886	0.46186	0.14863	0.27337	0.31929	0.10327	0.17488	0.17067	0.15592	0.26462	0.077763	0.33592	0.12231	0.14696	-2.6104	-3.1229	-2.3146	-3.4083	-2.8104	-2.7125	-3.3917	-2.5854	-2.975	-3.3792	-2.3583	-3.4396	-2.9417	-2.7104	-3.2708	-2.7729	32.813	-22.188	272.295	250.166	136.604	-47.313	214.236	23.340	-37.516	246.860	195.353	-56.970	-78.130	255.409	252.017	238.596	8.8823e-05	0.00045171	8.0753e-05	1063.2	2.6983e-06	5.5768e-06	896.23	387.1	4.8401e-06	1.83e-06	370.95	134.28	132.89	52.54	3.4523e-06	59.758	0.0082781	0.01019	0.0027871	1254.6	0.00011269	0.00011201	1064.7	456.26	0.00011218	0.00011319	459.71	167.14	162.83	63.098	0.00011093	73.394	175.895	-42.073	89.682	-67.409	86.989	-5.530	-68.335	-62.437	79.503	-23.990	-64.591	-59.684	-57.989	-52.592	278.102	-55.214	-8191	255	
9872.495	1	1	0	0	0.23375	0.1218	0.024475	0.2585	0.12323	0.21608	0.3232	0.099684	0.15905	0.35429	0.22709	0.14414	0.21131	0.34167	0.030322	0.41161	-2.4104	-3.3625	-2.2792	-3.3042	-2.9583	-2.3833	-3.5396	-2.7188	-2.9104	-3.2125	-2.5458	-3.1208	-3.1937	-2.5458	-3.2896	-2.5833	140.668	244.348	194.393	249.480	-56.507	218.505	181.607	216.847	176.339	-49.649	-14.544	-19.230	223.856	235.243	149.438	230.014	0.00025345	0.00052677	0.00025422	1065.6	5.1254e-06	4.0277e-06	893.03	382.52	6.3785e-06	8.8407e-06	368.08	132.87	130.44	51.783	7.7479e-06	58.527	0.0081719	0.01009	0.0028561	1256.6	0.0001098	0.00011026	1063.5	452.46	0.00010882	0.00011015	456.01	164.63	160.03	61.962	0.00011175	71.886	224.083	250.028	92.492	-67.673	153.764	52.048	-68.393	-62.252	85.529	82.501	-64.130	-59.498	-58.326	-53.098	51.589	-54.964	-8191	255	
9872.591	1	1	0	0	0.24047	0.15466	0.28556	0.16382	0.46878	0.073211	0.15064	0.24045	0.12815	0.36019	0.087912	0.24297	0.030149	0.19585	0.099314	0.22156	-2.2896	-3.1729	-2.3729	-3.2729	-3.0896	-2.5042	-3.225	-2.9542	-2.5833	-3.2167	-2.7062	-3.0583	-3.3937	-2.7313	-3.1833	-2.9	259.159	-0.221	227.711	261.697	44.207	-33.623	210.429	127.667	-23.053	212.696	185.574	239.100	65.560	-45.251	21.673	175.612	0.00014146	0.00023115	0.00029825	1066.8	2.6862e-06	2.059e-06	893.31	383.66	2.0386e-06	2.5643e-06	369.64	134.1	131.52	51.904	2.3493e-06	59.386	0.0079079	0.0098388	0.0028538	1254	0.00010549	0.00010575	1061.7	450.71	0.00010312	0.00010508	456.01	164.32	159.68	61.98	0.00011029	72.318	221.880	-71.170	21.578	-67.324	47.077	-20.987	-68.453	-62.363	161.335	120.187	-64.551	-59.616	-58.030	-52.938	-13.863	-55.580	-8191	255	
9872.711	1	1	0	0	0.2456	0.27052	0.12232	0.29174	0.13193	0.2517	0.21333	0.19446	0.15952	0.12596	0.2355	0.18208	0.073214	0.099015	0.17836	0.13741	-2.2396	-3.3979	-2.4833	-3.1104	-3.3542	-2.4708	-3.4688	-2.925	-2.4188	-3.3042	-2.6542	-2.7708	-3.5229	-2.6542	-3.0604	-3.2917	43.423	-16.225	-21.562	-58.279	60.230	-53.397	183.753	242.047	-31.815	88.541	237.232	74.612	86.290	75.559	230.536	170.917	0.00011626	0.00083832	0.0001311	1061.7	5.3307e-06	8.2344e-07	894.49	383.94	9.6625e-06	6.4588e-06	369.04	133.98	131.71	52.238	5.5197e-06	59.715	0.0075982	0.0096053	0.002874	1246.1	0.00010363	0.00010659	1066.4	450.93	0.00010257	0.00010736	458.91	164.26	159.67	62.343	0.00011131	72.293	217.484	13.718	278.406	-67.712	-34.079	187.773	-68.308	-62.542	77.792	139.448	-64.242	-59.238	-57.633	-52.674	75.491	-54.983	-8191	255	
9872.806	1	1	0	0	0.090161	0.0672	0.10783	0.29713	0.13745	0.13236	0.18406	0.25428	0.053222	0.08963	0.24533	0.089413	0.15893	0.20802	0.15143	0.12601	-2.0854	-3.1625	-2.4667	-2.8792	-3.2458	-2.4875	-3.2417	-2.9792	-2.5958	-3.3625	-2.7438	-2.6583	-3.3896	-2.5938	-2.9146	-3.2479	-18.571	144.140	16.279	272.821	31.830	148.187	224.014	203.536	36.573	135.913	226.488	136.030	-14.165	213.455	222.754	221.664	0.00014045	0.00090096	0.00018833	1063	5.1021e-06	6.5175e-06	897.72	383.34	4.1814e-06	2.0332e-06	373.37	134.3	131.32	52.154	2.0015e-06	59.977	0.0074913	0.0098066	0.0028648	1241	0.00010237	0.00010887	1066.1	450.47	0.0001014	0.00011021	460.52	164.18	159.47	62.716	0.00011216	72.57	218.396	127.253	74.447	-67.251	96.378	160.649	-68.206	-62.309	7.717	-21.500	-64.595	-59.447	-57.603	-52.823	17.851	-55.631	-8191	255	
9872.902	1	1	0	0	0.1359	0.12812	0.31751	0.2314	0.10186	0.14602	0.13407	0.16502	0.15592	0.20146	0.11501	0.28041	0.12907	0.2324	0.10712	0.249	-2.0583	-3.1083	-2.6104	-2.8625	-3.2583	-2.7333	-3.3083	-3.2646	-2.4583	-3.2458	-2.7583	-2.5833	-3.3979	-2.5708	-2.8146	-3.1958	241.297	52.283	-33.230	-42.957	106.713	227.652	45.628	269.254	65.675	97.306	170.734	248.683	258.200	236.790	99.738	208.222	0.00023734	0.00093161	0.00028347	1060.2	5.9661e-06	1.4123e-05	895.18	384.87	1.7027e-06	3.2172e-06	371.91	133.27	130.81	51.814	8.9241e-06	59.047	0.0075476	0.010302	0.0029007	1242.9	0.00010466	0.00011552	1069.5	452.15	0.00010524	0.00011671	461	163.74	159.61	62.685	0.00011171	72.127	242.130	50.959	5.490	-67.834	106.845	100.583	-68.795	-62.843	56.070	22.141	-65.067	-60.402	-58.477	-53.306	134.282	-55.577	-8191	255	
9873.023	1	1	0	0	0.19464	0.11571	0.40609	0.1055	0.28832	0.12646	0.184	0.32196	0.12044	0.13823	0.1981	0.10038	0.33569	0.19092	0.32874	0.19039	-2.0708	-3.1333	-2.8333	-2.6562	-3.1958	-2.6271	-2.8521	-3.4396	-2.3187	-3.15	-3.0333	-2.5	-3.2687	-2.8563	-2.8854	-3.4562	87.550	115.696	-11.919	244.742	56.615	105.042	236.596	276.578	-39.712	278.281	270.600	183.621	-67.209	263.918	272.883	250.280	0.00024545	0.00068826	0.0002855	1066.5	6.3014e-06	1.3268e-06	897.69	384.75	3.6757e-06	4.7498e-06	368.67	131.01	129.23	50.787	4.105e-06	57.942	0.0077761	0.010581	0.0028618	1247.2	0.00010639	0.00011705	1068.8	450.63	0.00010741	0.0001173	456.49	161.14	157.88	61.491	0.00010799	70.459	232.841	26.940	-56.117	-68.352	107.710	44.825	-68.908	-63.058	79.682	-44.915	-65.191	-60.106	-58.423	-53.173	-14.254	-55.720	-8191	255	
9873.094	1	1	0	0	0.062798	0.23001	0.11827	0.17621	0.14639	0.20929	0.2602	0.30861	0.04372	0.24782	0.092016	0.37433	0.069306	0.078569	0.24337	0.20156	-1.8438	-3.075	-3.0187	-2.3521	-3.3333	-2.3229	-2.6833	-3.4417	-2.3438	-2.875	-2.9333	-2.4083	-3.1688	-2.8708	-2.5667	-3.2604	203.571	254.144	216.148	225.648	-47.480	63.614	237.553	210.587	185.944	-8.726	74.013	231.051	205.774	-56.007	144.705	255.358	0.00018401	0.00075486	0.00022621	1064.4	4.6601e-06	7.8696e-06	894.05	380.43	2.2835e-06	6.1514e-06	365.7	129.29	127.56	49.948	7.2351e-06	56.868	0.0078033	0.010204	0.0027204	1240.6	0.000104	0.0001092	1052.7	443	0.0001028	0.00010777	446.11	158.13	156.17	60.151	0.00010228	68.946	203.758	-17.164	56.528	-67.864	168.841	19.249	-69.045	-62.877	194.895	60.588	-65.067	-60.064	-58.258	-53.221	138.361	-55.723	-8191	255	
9873.190	1	1	0	0	0.14329	0.10742	0.090374	0.15593	0.25023	0.22387	0.23564	0.31304	0.053062	0.080354	0.12926	0.22091	0.24744	0.087175	0.21179	0.030255	-1.9792	-3.0417	-3.0438	-2.3792	-3.4542	-2.7354	-2.5667	-3.5417	-2.4896	-2.9062	-3.2833	-2.3083	-3.1	-3.0875	-2.4354	-3.4521	-46.820	144.751	233.114	277.401	122.763	-73.656	262.572	221.504	78.630	179.393	180.715	226.064	-58.798	199.798	186.881	148.016	0.00027119	0.00069501	0.00036916	1059.8	1.0602e-05	9.4246e-06	886.23	378.38	2.9884e-06	1.1751e-05	360.29	128.03	126.89	49.776	1.3324e-05	56.538	0.0077944	0.0098498	0.0026601	1236.6	0.00010795	0.00010983	1049	443.3	0.00010941	0.00011104	445.79	157.96	156.6	60.064	0.0001072	69.393	224.644	269.314	39.604	-68.009	-23.238	39.682	-68.760	-62.923	147.986	14.221	-65.086	-59.737	-58.039	-52.962	48.079	-55.236	-8191	255	
9873.287	1	1	0	0	0.2178	0.26013	0.092127	0.19413	0.18529	0.18424	0.17143	0.15979	0.19848	0.17083	0.37569	0.041825	0.16124	0.098998	0.083162	0.16587	-1.9979	-2.6958	-3.2417	-2.1667	-3.0396	-3.0271	-2.5958	-3.4292	-2.5062	-2.6375	-3.425	-2.5354	-2.9979	-2.9542	-2.3125	-3.2958	23.367	250.147	94.293	120.633	188.455	157.362	150.544	254.816	-6.478	53.849	212.145	245.686	277.551	58.211	115.817	-62.032	0.00013097	0.0015497	0.00040024	1067.3	8.7731e-06	7.9766e-06	891.08	380.99	1.2246e-05	1.0523e-05	365.39	129.63	128.02	50.567	7.1494e-06	57.1	0.0084703	0.01047	0.0028861	1258	0.00011931	0.00012045	1066.8	453.24	0.0001237	0.00012295	457.53	162.75	160.66	61.85	0.00012039	71.582	194.571	-26.921	52.396	-67.703	82.894	79.179	-68.400	-62.548	137.528	16.574	-64.473	-59.422	-57.501	-52.688	244.942	-54.793	-8191	255	
9873.407	1	1	0	0	0.30813	0.20967	0.20908	0.44381	0.23577	0.19823	0.14835	0.12609	0.096088	0.15331	0.01025	0.046972	0.17457	0.1529	0.13	0.26655	-2.2438	-2.475	-3.3896	-2.6146	-3.0125	-3.1	-2.5979	-3.4083	-2.7646	-2.5625	-3.3729	-2.6958	-3.0104	-3.4542	-2.2396	-3.3896	231.944	278.221	183.010	-77.065	-49.153	159.908	136.525	-60.276	169.000	-21.249	226.105	141.554	131.198	246.567	161.891	229.231	0.00018874	0.0012539	0.00027533	1065	4.4602e-06	1.3293e-05	893.52	381.81	1.1295e-05	6.5792e-07	365.11	128.78	128.55	50.512	2.6316e-06	57.321	0.0093938	0.011536	0.0031739	1277.8	0.00012986	0.00013049	1081	460.01	0.00013244	0.00013273	464.31	165.16	161.97	62.207	0.00012925	72.503	259.152	19.240	63.793	-67.826	104.945	-76.153	-68.822	-62.152	12.390	95.951	-64.300	-59.100	-57.321	-52.457	276.720	-55.331	-8191	255	
9873.503	1	1	0	0	0.21943	0.18874	0.11032	0.18036	0.085854	0.23891	0.10493	0.16714	0.13399	0.25811	0.10237	0.19607	0.31853	0.059764	0.04951	0.16044	-2.6854	-2.5	-3.1708	-2.6437	-3.0062	-3.2625	-2.3417	-3.4437	-2.7479	-2.4104	-3.4771	-2.65	-2.7333	-3.4771	-2.2667	-3.2792	125.120	99.718	231.978	200.199	111.898	170.548	13.192	-79.492	278.314	187.018	174.607	236.640	232.421	-12.937	42.309	273.459	6.9206e-05	0.00054346	0.00029195	1068.4	4.9384e-06	9.9382e-06	890.84	381.97	9.8734e-06	1.3421e-05	364.49	128.54	128.39	50.067	1.4186e-05	56.658	0.0097334	0.011882	0.0033135	1284.8	0.00012966	0.00013049	1081.2	460.09	0.00012932	0.00012977	463.16	164.92	161.24	61.621	0.00013126	71.665	237.853	-39.599	134.534	-68.151	69.444	57.851	-68.377	-62.036	52.552	50.026	-64.940	-59.758	-57.962	-52.465	187.488	-54.806	-8191	255	
9873.599	1	1	0	0	0.22406	0.14058	0.25535	0.22148	0.14452	0.027614	0.079684	0.35313	0.019146	0.16034	0.15732	0.098905	0.16899	0.18075	0.23893	0.30089	-2.6917	-2.35	-3.2854	-2.6854	-2.4708	-3.3979	-2.4437	-3.1917	-3.0125	-2.4708	-3.1083	-2.7792	-2.6708	-3.3146	-2.5479	-3.2333	173.282	-47.538	46.448	237.131	189.151	172.162	270.698	225.095	67.256	100.702	-78.635	230.488	229.704	219.311	271.528	206.933	7.8223e-05	0.00036345	0.00033005	1066.2	3.5081e-06	1.0921e-05	888.36	379.38	1.8882e-06	5.3201e-06	359.63	127.24	126.34	49.113	2.1555e-06	55.337	0.0094565	0.011673	0.0033772	1281.4	0.0001259	0.00012708	1078.3	456.79	0.00012403	0.00012434	458.46	161.31	157.86	60.057	0.00012662	69.472	-71.640	-13.138	148.140	-68.791	70.676	159.108	-69.855	-63.699	103.833	-75.048	-65.529	-60.796	-58.894	-53.846	-45.146	-56.242	-8191	255	
9873.671	1	1	0	0	0.049954	0.08545	0.07079	0.11996	0.12379	0.16878	0.13316	0.18831	0.20389	0.26541	0.13012	0.035436	0.33086	0.31505	0.060583	0.12513	-2.5812	-2.2854	-3.1417	-2.9625	-2.5375	-3.5479	-2.6167	-2.7896	-3.1375	-2.3792	-3.2083	-2.7958	-2.4813	-3.3937	-2.6271	-2.7042	125.276	222.225	65.039	219.190	-4.854	228.597	276.526	249.947	220.809	229.791	138.387	63.941	240.990	24.437	254.153	191.650	0.00014106	0.0011608	0.0001165	1068.3	7.4702e-06	3.7617e-06	880.75	377.98	5.4909e-06	4.0685e-06	360.52	128.01	127.51	49.608	3.9226e-06	56.322	0.0088304	0.010989	0.0032932	1272.5	0.00011869	0.00012176	1072.3	452.07	0.00011823	0.0001205	457.07	160.77	157.91	60.511	0.00012777	70.243	197.936	206.520	34.295	-68.913	88.289	90.529	-69.586	-63.375	197.330	53.985	-65.555	-60.831	-59.187	-53.926	-27.460	-56.061	-8191	255	
9873.792	1	1	0	0	0.24464	0.35921	0.12078	0.30205	0.073652	0.12745	0.1663	0.30587	0.096273	0.1415	0.15089	0.11377	0.10354	0.019701	0.2656	0.2013	-2.7479	-2.3771	-2.8979	-3.0521	-2.3146	-3.2167	-2.8167	-2.8667	-3.2938	-2.1417	-3.0479	-3.0354	-2.4979	-3.3438	-2.2021	-2.8792	70.185	249.166	256.469	221.217	264.369	264.397	219.189	-60.344	237.201	141.807	226.501	47.525	-63.260	-6.825	264.836	-70.845	0.0002005	0.00083337	0.00030659	1060.3	4.5532e-06	1.0526e-05	881.52	378.85	4.3957e-06	6.2666e-06	364.89	131.61	130.39	50.704	4.5068e-06	57.797	0.0086776	0.011036	0.003235	1256.9	0.00011251	0.00011808	1064.5	448.39	0.00010952	0.00011504	456.73	163.24	158.94	61.264	0.00011474	70.563	268.722	155.209	-40.382	-68.806	-49.394	104.478	-69.599	-63.351	128.084	186.039	-65.362	-60.949	-58.985	-53.883	126.749	-56.283	-8191	255	
9873.886	1	1	0	0	0.13544	0.18513	0.20023	0.23523	0.25377	0.026366	0.1603	0.28832	0.046508	0.024597	0.11953	0.1012	0.074148	0.22772	0.0782	0.29655	-2.8417	-2.2292	-2.9458	-2.9604	-2.3667	-3.1625	-2.7521	-2.4813	-3.1188	-2.6063	-3.0104	-2.9938	-2.4396	-3.3688	-2.6042	-2.6229	77.520	118.998	6.956	-47.269	248.729	-59.275	208.995	188.046	11.355	205.334	242.170	173.299	100.080	-5.784	159.271	168.444	0.0001147	0.00028882	0.00016497	1051.1	4.3769e-06	1.3771e-05	878.52	379.67	4.5476e-06	2.7442e-06	363.63	132.24	130.4	50.858	1.4577e-05	57.51	0.0077443	0.010266	0.0029506	1236.4	0.00010483	0.00011521	1055.3	446.73	0.00010665	0.00011688	454.07	163.2	159.48	61.709	0.00011612	70.675	259.747	-79.353	33.096	-68.774	109.605	164.987	-69.671	-63.153	-1.162	-73.781	-65.164	-60.756	-58.973	-54.023	53.180	-56.250	-8191	255	
9873.984	1	1	0	0	0.18116	0.079877	0.14561	0.29914	0.18156	0.19632	0.23098	0.077103	0.35564	0.082696	0.25032	0.29466	0.15856	0.261	0.019052	0.14848	-2.7958	-2.3542	-2.8521	-3.2021	-2.3812	-3.1958	-2.9729	-2.5208	-3.3229	-2.1854	-3.0292	-3.0833	-2.5604	-3.2396	-2.7854	-2.4354	62.970	-31.915	261.448	258.075	189.466	148.471	131.436	155.066	192.495	121.208	242.984	204.477	159.245	-58.420	89.504	195.016	0.00023683	0.00023482	0.00014765	1056.9	4.2493e-06	1.3852e-05	881.98	380.49	2.6025e-06	6.7223e-06	365.03	131.93	130.39	51.019	1.0042e-05	57.817	0.0079906	0.01083	0.0029881	1245.2	0.00010912	0.00012041	1058.3	447.75	0.00010952	0.00012072	454.79	163	160.28	62.077	0.00011657	71.089	201.706	121.070	-22.728	-68.744	172.583	93.576	-69.484	-63.748	219.347	-45.763	-65.581	-60.912	-59.112	-53.940	91.117	-56.416	-8191	255	
9874.103	1	1	0	0	0.15606	0.21609	0.036029	0.20111	0.057882	0.089982	0.10725	0.24921	0.27577	0.29369	0.39695	0.18496	0.101	0.12792	0.29021	0.33915	-2.8646	-2.6333	-2.675	-3.2042	-2.2833	-2.9958	-2.9729	-2.525	-3.375	-2.6479	-2.8396	-3.2313	-2.5104	-2.9688	-3.1979	-2.3375	-38.751	-9.232	114.682	208.011	-10.565	261.488	-46.592	276.328	190.822	59.119	183.758	158.058	272.888	-55.124	-81.391	226.825	0.00024136	0.00076378	0.00019679	1060.2	5.0418e-06	1.0746e-05	885.5	381.91	8.5745e-06	8.5824e-07	368.24	132.7	131.67	51.894	8.7117e-06	58.848	0.0083725	0.011309	0.0030361	1251.8	0.00011527	0.00012514	1065.9	452.26	0.00011748	0.00012604	460.6	165.3	163.44	63.321	0.00012137	72.561	223.324	21.943	38.339	-68.897	-36.667	72.433	-69.552	-63.538	-47.607	148.032	-65.827	-61.116	-59.162	-54.061	35.422	-56.436	-8191	255	
9874.199	1	1	0	0	0.1357	0.05091	0.12924	0.15528	0.2365	0.23318	0.34577	0.088774	0.10924	0.42104	0.28187	0.16432	0.22852	0.32515	0.1683	0.38482	-2.9521	-2.5896	-2.5938	-3.2833	-2.4104	-3.0083	-3.3042	-2.2896	-3.4375	-2.7583	-2.6312	-3.2958	-2.7021	-3.0687	-3.1333	-2.4917	227.662	-57.745	210.704	-78.636	201.858	-36.211	163.594	267.116	21.872	63.146	217.691	257.455	34.701	272.916	253.154	238.987	0.00024435	0.00089057	0.00017928	1060.7	6.6724e-06	9.616e-06	892.06	385.14	1.6335e-06	1.2827e-05	371.44	133.63	132.34	51.944	1.3655e-05	58.713	0.0090818	0.011835	0.0031939	1260.5	0.00012598	0.00013087	1077.4	457.23	0.00012805	0.00013165	466.58	167.31	165.41	63.723	0.00012431	72.849	216.878	8.045	-10.663	-68.927	195.582	76.044	-69.809	-63.609	188.087	20.324	-65.322	-61.148	-58.993	-53.769	3.739	-56.524	-8191	255	
9874.295	1	1	0	0	0.093498	0.26796	0.10611	0.09129	0.047618	0.17482	0.048559	0.57249	0.10499	0.061238	0.23613	0.13484	0.24821	0.28676	0.079232	0.20495	-2.8812	-2.9437	-2.5292	-3.3604	-2.475	-2.8125	-3.1458	-2.6625	-2.9417	-2.7958	-2.5125	-3.2271	-2.7188	-2.7229	-3.2333	-2.4875	-44.770	-61.177	211.536	-75.716	131.128	79.370	232.277	205.071	123.317	226.679	202.320	210.362	247.942	254.323	225.194	60.672	0.00021597	0.00077832	0.00034579	1064.7	1.7173e-06	1.3446e-05	887.78	383.47	8.7192e-06	8.574e-06	367.77	133.4	131.1	51.291	1.5512e-05	58.295	0.0094783	0.011777	0.0031868	1265.9	0.00012904	0.00012903	1074	457.24	0.00012789	0.00012861	462.75	166.93	164.36	62.939	0.00012113	72.29	217.942	41.400	10.540	-68.829	161.347	88.536	-69.667	-63.456	45.190	9.423	-65.457	-61.003	-59.424	-54.124	20.280	-56.601	-8191	255	
9874.391	1	1	0	0	0.12885	0.0084943	0.10203	0.26691	0.18286	0.064036	0.09082	0.10072	0.048155	0.17988	0.27821	0.048356	0.19836	0.095367	0.17764	0.38226	-2.4729	-2.8917	-2.3563	-3.3583	-2.6667	-2.5542	-3.3917	-2.4521	-3.1063	-3.175	-2.6979	-3.3563	-2.7208	-2.8917	-3.1688	-2.6083	232.262	8.956	115.257	274.378	228.199	-29.006	-81.485	29.128	233.156	-8.976	-68.930	1.096	224.223	-63.101	16.426	271.663	6.0042e-05	0.00062025	7.2474e-05	1060.4	1.8936e-06	1.1127e-05	886.06	382.49	2.9609e-06	5.9213e-06	367.94	132.6	131.72	51.554	5.8821e-06	58.282	0.0093463	0.011437	0.0030816	1266.6	0.00012577	0.00012356	1067.1	456.24	0.00012339	0.00012249	458.27	166.18	163.17	62.497	0.0001155	72.364	252.350	-79.024	131.498	-68.957	-18.832	78.147	-69.650	-63.518	72.280	-30.733	-65.733	-60.706	-59.314	-54.162	-25.318	-56.608	-8191	255	
9874.488	1	1	0	0	0.023949	0.13608	0.18499	0.23647	0.087579	0.22745	0.14346	0.060635	0.0064503	0.065762	0.32801	0.033689	0.20396	0.14492	0.30551	0.15345	-2.7438	-2.9729	-2.2875	-3.6063	-2.8042	-2.3146	-3.3396	-2.5354	-2.7625	-3.1	-2.4875	-3.1813	-2.95	-2.4917	-3.2313	-2.575	75.949	277.763	-6.223	253.379	69.091	-71.927	-26.351	152.844	59.954	-76.682	225.854	-68.434	201.014	-70.768	29.949	229.752	0.00015402	0.00081782	0.00023011	1062.2	1.4987e-05	9.6683e-06	889.4	383.46	6.0571e-06	3.2908e-06	369.5	133.92	132.38	51.91	3.3019e-06	58.944	0.0087447	0.010783	0.0029425	1262.5	0.00011891	0.00011876	1065.7	457.29	0.00011852	0.00011915	459.1	167.73	163.46	62.743	0.00011693	73.095	225.870	-46.879	165.234	-68.744	43.657	99.443	-69.574	-63.477	173.743	-32.250	-65.527	-60.811	-59.124	-54.086	198.588	-56.441	-8191	255	
9874.584	1	1	0	0	0.011432	0.14846	0.19894	0.28196	0.10456	0.13611	0.16502	0.069936	0.088485	0.38447	0.097751	0.17737	0.25397	0.39857	0.12236	0.25326	-2.5542	-3.15	-2.3708	-3.0604	-2.8771	-2.4688	-3.4167	-2.6729	-2.7292	-3.1646	-2.4375	-3.0896	-2.9917	-2.5521	-3.475	-2.7583	114.871	143.871	-74.212	236.758	133.406	238.274	151.702	252.869	244.402	77.180	220.108	5.852	247.281	204.368	155.301	200.680	8.1951e-05	0.0015733	0.0001298	1061.6	8.3484e-06	6.1117e-06	890.7	383.51	1.222e-05	1.183e-05	368.97	133.49	132.63	52.196	1.1578e-05	58.521	0.0086497	0.010669	0.0030151	1266.3	0.000117	0.00011711	1070.5	457.47	0.00011591	0.00011684	460.42	167.24	163.32	62.811	0.00011892	72.607	224.792	-41.055	25.816	-68.558	245.371	212.593	-69.455	-63.667	-16.351	48.844	-65.749	-60.748	-59.090	-54.279	182.536	-56.634	-8191	255	
9874.704	1	1	0	0	0.21111	0.27565	0.23951	0.13635	0.091306	0.23174	0.15203	0.32674	0.14497	0.070763	0.13089	0.11248	0.19244	0.33728	0.19436	0.26908	-2.3875	-3.2062	-2.2875	-3.2333	-2.8583	-2.1958	-3.3833	-2.7646	-2.6	-3.3063	-2.5771	-3.1188	-3.25	-2.4708	-3.2208	-3.0438	133.952	84.708	196.001	272.293	236.900	103.469	-64.843	-80.888	39.328	40.457	222.781	225.401	196.699	-80.255	10.727	-41.911	0.00023773	0.0015807	0.00024209	1068.6	4.6021e-06	6.114e-06	889.56	383.65	4.7387e-06	5.7845e-06	367.52	134.26	132.56	52.378	1.2841e-05	59.39	0.0084363	0.010541	0.0030965	1267.5	0.00011529	0.00011601	1073.9	457.22	0.00011586	0.0001176	462.81	167.4	163.66	63.197	0.00012268	73.139	225.006	48.803	115.540	-68.608	252.216	-9.381	-69.419	-63.551	35.586	59.284	-65.289	-60.742	-59.065	-54.243	65.895	-56.403	-8191	255	
9874.799	1	1	0	0	0.31862	0.12709	0.11657	0.32629	0.10191	0.12709	0.34143	0.29686	0.22024	0.1331	0.42741	0.23514	0.25964	0.16371	0.22063	0.082457	-1.8312	-3.3125	-2.4813	-3.1479	-2.9958	-2.3104	-3.4042	-2.9729	-2.3563	-3.2479	-2.7271	-2.8771	-3.3458	-2.5542	-3.1729	-3.1188	-1.118	203.626	26.978	257.499	102.328	212.532	245.794	181.580	185.575	276.831	254.005	-47.651	273.894	271.377	78.838	125.049	0.00018153	0.00060058	2.3025e-05	1065.4	6.9456e-06	1.3273e-05	892.47	385.46	9.5443e-06	7.8946e-06	370.92	135.63	134.53	53.145	4.4373e-06	60.112	0.0083542	0.010552	0.003131	1261.8	0.00011218	0.0001149	1074.2	456.52	0.00011136	0.0001165	465.54	168.06	164.51	63.988	0.00012209	73.683	238.552	-11.536	32.809	-68.649	71.603	161.986	-69.358	-63.187	108.590	255.702	-65.410	-60.829	-59.039	-53.782	101.759	-56.382	-8191	255	
9874.895	1	1	0	0	0.22119	0.12362	0.10463	0.32358	0.083575	0.26597	0.070343	0.018311	0.26326	0.07029	0.15939	0.12217	0.18554	0.26314	0.1657	0.2091	-2.1125	-3.4146	-2.4875	-2.6125	-3.3458	-2.3021	-3.1667	-3.2521	-2.4417	-3.2958	-2.7271	-2.7458	-3.5146	-2.6396	-3.1437	-3.25	98.038	235.381	222.875	250.796	129.141	34.572	228.273	24.743	190.607	-22.850	191.404	242.009	-30.620	206.175	-12.164	116.591	0.0001214	0.00018029	0.00014108	1068.3	7.9119e-06	5.7752e-06	894.27	385.59	4.2048e-06	1.1216e-05	368.61	134.73	133.22	52.443	6.3908e-06	59.086	0.0082137	0.010783	0.0031589	1262.1	0.00011127	0.00011859	1079.1	456.79	0.00010965	0.00011889	462.36	166.61	163.31	63.481	0.00012004	72.308	234.156	189.243	13.394	-68.505	124.263	219.633	-69.474	-63.287	36.026	95.083	-65.410	-60.581	-59.182	-53.995	79.823	-56.513	-8191	255	
9874.967	1	1	0	0	0.065675	0.22369	0.15883	0.23726	0.17823	0.11507	0.13274	0.24365	0.07382	0.17689	0.22035	0.16851	0.11518	0.13512	0.14132	0.089414	-2.1917	-3.2604	-2.6417	-2.8729	-3.2708	-2.4542	-3.2812	-3.175	-2.2896	-3.2021	-2.8187	-2.7375	-3.25	-2.6604	-3.1604	-2.975	181.605	229.022	-35.678	247.375	226.630	24.208	192.566	192.902	-21.153	143.028	242.849	-48.196	268.997	-64.565	-37.196	162.780	0.00014899	0.00034576	0.00010592	1069.9	6.5242e-06	7.9903e-06	892.75	384.65	3.7371e-06	2.6175e-06	365.35	132.05	133.06	51.726	6.8224e-06	58.292	0.0081116	0.011018	0.0031022	1263.7	0.00011087	0.00012323	1073.9	454.76	0.00011152	0.00012355	457.83	164.05	162.38	63.027	0.00011854	71.627	225.683	115.762	21.903	-68.906	194.557	74.233	-69.618	-63.542	35.680	-74.418	-65.911	-60.860	-59.082	-54.121	171.504	-56.468	-8191	255	
9875.064	1	1	0	0	0.10658	0.26828	0.098165	0.24375	0.062455	0.32535	0.31348	0.2798	0.087225	0.22594	0.1608	0.17453	0.11788	0.1324	0.29702	0.23206	-2.2208	-3.225	-2.6167	-2.7021	-3.1521	-2.4333	-2.9854	-3.2771	-2.2521	-3.2479	-2.8458	-2.5292	-3.4854	-2.6104	-2.7708	-3.5479	29.588	191.717	139.151	252.995	2.493	-68.483	216.233	96.324	-68.668	219.267	214.007	262.593	190.514	274.373	219.400	-64.503	0.00022922	0.00068964	0.00014548	1066.1	6.7693e-06	6.8098e-06	887.68	383.04	7.6083e-06	3.924e-06	364.87	132.91	133.13	51.937	6.4568e-06	58.508	0.0083056	0.011261	0.0030604	1259.3	0.00011414	0.00012486	1067.9	453.43	0.0001135	0.00012345	456.65	164.52	163.44	63.334	0.00011641	71.902	180.792	31.265	32.434	-68.807	203.230	166.337	-69.579	-63.628	120.914	272.606	-65.782	-60.900	-59.119	-54.197	101.136	-56.572	-8191	255	
9875.183	1	1	0	0	0.18327	0.087079	0.15333	0.21186	0.06233	0.064545	0.1192	0.10343	0.088519	0.092856	0.0726	0.17526	0.25411	0.12994	0.15825	0.18885	-1.925	-2.9313	-3.1104	-2.6271	-3.3354	-2.7438	-2.8646	-3.5312	-2.2354	-3.1229	-3.2062	-2.3375	-3.5271	-2.7542	-2.6	-3.3333	210.843	14.197	213.340	170.946	163.355	-28.649	192.572	167.409	-23.574	257.738	0.468	232.479	-35.636	237.954	-77.814	256.493	0.0002731	0.0011574	0.00018841	1065.8	8.8773e-06	1.5236e-05	887.37	383.51	2.8153e-06	1.5888e-05	365.21	132.54	131.91	51.851	7.6298e-06	58.308	0.0084942	0.011214	0.003034	1257.6	0.00011667	0.0001238	1065.9	453.19	0.00011564	0.00012149	454.93	163.57	162.87	62.801	0.00011258	71.272	201.902	-26.983	8.995	-68.821	-68.042	66.081	-69.540	-63.658	184.808	28.610	-65.868	-60.975	-59.203	-54.137	89.144	-56.407	-8191	255	
9875.279	1	1	0	0	0.21311	0.26346	0.21145	0.14043	0.29852	0.053283	0.16275	0.06027	0.1694	0.20715	0.11966	0.24531	0.074149	0.083775	0.16696	0.06284	-1.9333	-2.9042	-3.1562	-2.6312	-3.1583	-2.7729	-2.7625	-3.3667	-2.4833	-3	-3.25	-2.5646	-3.2792	-2.9917	-2.5708	-3.325	-61.791	90.978	95.665	255.683	169.323	123.427	-46.263	71.239	200.259	179.064	97.182	250.752	-49.862	9.717	162.937	143.648	0.0001777	0.00038078	0.00023902	1070	2.9139e-06	1.1671e-05	890.3	384.53	9.9642e-07	1.903e-05	364.03	131.41	131.74	51.336	6.7372e-06	57.818	0.0084708	0.010791	0.0029162	1257.3	0.00011699	0.00011904	1063.3	452.45	0.0001177	0.00011881	453.55	162.95	162.7	62.23	0.00011157	71.131	236.522	-51.998	-52.722	-68.760	-15.082	75.080	-69.510	-63.508	150.000	21.005	-65.508	-60.963	-59.207	-54.281	73.685	-56.399	-8191	255	
9875.376	1	1	0	0	0.19177	0.26422	0.07576	0.16036	0.12924	0.17602	0.22789	0.082187	0.14567	0.19727	0.14348	0.16127	0.20213	0.084511	0.086237	0.21486	-2.1792	-2.7583	-3.0417	-2.5563	-3.1771	-2.8771	-2.525	-3.4062	-2.775	-2.4188	-3.4042	-2.4313	-3.1437	-3.2792	-2.3563	-3.2396	-39.581	38.173	50.346	3.922	-27.795	-12.103	224.917	143.255	163.842	15.493	146.874	226.106	268.434	235.334	58.143	255.868	0.00021934	0.0017134	0.00026941	1063.6	1.2206e-05	1.6782e-05	888.07	383.4	1.3773e-05	9.4557e-06	366.78	133.08	132.84	51.871	9.6348e-06	58.608	0.0086489	0.010521	0.0028559	1254.8	0.00011657	0.00011554	1057.2	452.31	0.00011497	0.00011408	452.1	164.4	162.97	62.578	0.00010873	71.851	271.065	22.424	42.236	-68.685	64.080	66.591	-69.215	-63.469	69.856	-2.580	-65.550	-60.956	-58.929	-54.097	99.463	-56.444	-8191	255	
9875.472	1	1	0	0	0.087983	0.052079	0.18213	0.23095	0.082199	0.15043	0.17748	0.071116	0.27312	0.097142	0.23904	0.15938	0.15815	0.1583	0.16241	0.15072	-2.3375	-2.6417	-3.3354	-2.5812	-3.1104	-3.1042	-2.3833	-3.4604	-2.8833	-2.4375	-3.4646	-2.6292	-3.0687	-3.425	-2.3854	-3.4167	-31.093	251.880	60.944	258.637	99.122	114.217	200.618	163.871	252.604	-15.539	-73.272	142.022	-40.148	80.251	112.923	264.800	7.6666e-05	0.0016761	0.00036852	1067.9	8.4313e-06	1.4303e-05	882.86	382.73	7.8039e-06	1.4588e-05	363.71	133.35	132.94	51.964	1.9721e-06	58.375	0.0084669	0.010355	0.0028332	1258.7	0.00011491	0.00011492	1055.5	454.14	0.00011499	0.00011386	452.43	165.53	162.97	62.498	0.00010978	72.036	256.326	-57.884	-63.682	-68.856	129.254	44.180	-69.450	-63.351	63.231	26.612	-65.560	-60.918	-59.261	-53.907	250.224	-56.550	-8191	255	
9875.568	1	1	0	0	0.17608	0.060295	0.1083	0.21305	0.14758	0.18054	0.087133	0.27639	0.14292	0.33723	0.1787	0.20976	0.31874	0.067896	0.11829	0.089386	-2.6646	-2.5229	-3.2	-2.8167	-2.7438	-3.2062	-2.5604	-3.3125	-2.8104	-2.6063	-3.3833	-2.6063	-2.8438	-3.3854	-2.4729	-3.1396	144.973	75.801	277.216	6.977	264.205	246.466	194.449	201.832	83.993	262.027	-41.404	56.059	240.884	136.236	151.734	198.664	8.4146e-05	0.00076604	8.4791e-05	1065.1	1.6868e-05	1.5264e-05	880.93	382.75	9.8489e-06	9.4322e-06	364.02	132.74	131.85	51.46	2.7518e-06	58.355	0.0083514	0.010235	0.0028514	1259.3	0.00011239	0.00011311	1055.9	453.89	0.00011137	0.0001113	453.68	165.23	161.67	61.955	0.00011098	71.702	157.567	-1.965	134.030	-68.686	60.218	93.399	-69.892	-63.418	52.408	50.165	-65.584	-61.048	-59.134	-54.003	215.324	-56.511	-8191	255	
9875.664	1	1	0	0	0.11682	0.10904	0.12947	0.15223	0.049455	0.14122	0.29786	0.16226	0.24997	0.15223	0.2854	0.12706	0.14586	0.37358	0.16326	0.074964	-2.7479	-2.2958	-3.3667	-2.7604	-2.7958	-3.2125	-2.4646	-3.3417	-3.4104	-2.3167	-3.3958	-2.875	-2.8688	-3.4146	-2.3625	-3.0771	-61.852	257.606	168.111	131.200	185.448	-33.104	194.491	129.560	163.757	72.510	203.904	217.880	-64.519	-81.092	274.044	241.846	0.00013422	0.00062405	0.00026363	1068	3.3925e-06	2.119e-05	885.14	382.57	3.5304e-06	1.332e-05	365.26	132.39	130.88	51.422	1.2758e-05	57.942	0.0081524	0.0101	0.0029266	1259.1	0.00011112	0.00011275	1060.7	454.43	0.00011205	0.00011271	456.43	164.84	161.07	61.842	0.00011742	71.609	229.539	-31.183	112.235	-68.648	134.860	39.943	-69.133	-63.303	-4.555	68.165	-65.407	-60.518	-59.067	-53.551	251.799	-56.077	-8191	255	
9875.785	1	1	0	0	0.18393	0.11948	0.089729	0.33412	0.025235	0.12114	0.23129	0.16606	0.030868	0.21804	0.09934	0.23191	0.082094	0.20256	0.16428	0.33885	-2.7542	-2.4688	-3.1708	-2.875	-2.4729	-3.3958	-2.5292	-2.975	-3.1875	-2.5563	-3.1312	-3.0229	-2.5187	-3.4938	-2.5854	-3.075	162.659	263.505	18.738	-51.365	184.265	-62.684	216.996	163.535	-0.333	178.575	239.019	-39.321	124.350	131.932	96.037	249.527	0.0001523	0.00093907	0.0002779	1065.7	1.6932e-05	6.851e-06	884.49	381.49	4.7108e-06	2.4916e-06	365.12	132.65	131.53	51.568	4.8838e-06	58.247	0.0082461	0.010242	0.0030637	1258.1	0.00011171	0.00011361	1063.9	452.98	0.00011099	0.00011295	457.86	164.58	160.87	62.058	0.00011732	71.515	227.849	-20.447	42.761	-68.729	69.560	108.767	-69.706	-63.368	135.763	-27.930	-65.522	-60.489	-59.024	-53.930	138.294	-56.163	-8191	255	
9875.879	1	1	0	0	0.12108	0.079741	0.21289	0.11018	0.14199	0.1225	0.19267	0.1246	0.32888	0.29935	0.13765	0.16062	0.34114	0.26874	0.066551	0.22757	-2.7021	-2.3854	-3.1312	-3.0687	-2.3021	-3.3646	-2.6396	-2.9458	-3.1417	-2.3104	-3.4042	-2.8146	-2.4396	-3.3083	-2.6688	-2.7438	-26.849	24.124	209.894	-4.934	268.025	0.366	-13.650	145.021	145.718	5.653	64.359	277.022	224.135	252.322	230.272	262.534	0.00016241	0.00040806	0.00017183	1062.2	4.8789e-06	3.3152e-06	885.63	382.49	6.0765e-06	3.8962e-06	365.41	132.17	131.7	51.647	1.3464e-05	58.079	0.0079177	0.010057	0.0029904	1249.1	0.00010534	0.0001105	1058.9	450.04	0.00010405	0.0001096	454.9	162.99	159.83	61.923	0.00011145	70.858	202.694	57.833	-66.408	-68.559	31.491	82.414	-69.318	-62.925	52.936	130.325	-65.100	-60.565	-58.440	-53.651	94.817	-55.962	-8191	255	
9875.975	1	1	0	0	0.14316	0.038613	0.066864	0.098931	0.18478	0.3126	0.10387	0.21323	0.18325	0.12654	0.079329	0.35481	0.21899	0.052224	0.14551	0.37203	-3.0458	-2.5125	-2.9938	-3.1937	-2.6146	-3.3479	-2.7604	-2.5333	-3.3458	-2.2354	-3.1521	-3.125	-2.7083	-3.2875	-2.9021	-2.7583	226.375	56.595	9.525	177.811	60.132	46.899	205.903	-64.548	126.870	173.727	-55.981	247.701	207.758	185.016	18.244	154.602	0.00019348	0.00086872	0.00035665	1060.8	6.4369e-06	1.5505e-05	885.78	381.94	6.5334e-06	4.5161e-07	367.9	133.29	131.46	51.753	1.0861e-05	58.653	0.0074859	0.0099257	0.0028629	1244.1	0.00010005	0.0001093	1054.4	448.24	9.9248e-05	0.00010847	453.46	162.64	159.09	62.131	0.00010648	71.016	-79.701	137.315	7.026	-68.376	-52.151	160.728	-69.363	-63.181	110.424	8.087	-65.259	-60.748	-58.768	-53.682	4.981	-56.281	-8191	255	
9876.071	1	1	0	0	0.11347	0.27769	0.14722	0.34115	0.0651	0.20293	0.32554	0.33912	0.14251	0.15837	0.06193	0.22147	0.26289	0.011984	0.20003	0.18949	-2.9292	-2.4292	-2.9667	-3.2917	-2.4188	-3.1958	-3.0812	-2.4542	-3.3458	-2.3438	-3.0187	-3.2313	-2.3229	-3.3271	-2.7771	-2.6229	247.036	11.945	161.200	278.687	67.549	-58.441	145.532	184.178	233.370	-75.165	150.405	243.295	255.760	63.683	135.290	226.031	0.00024486	0.00061535	9.5678e-05	1063.9	5.9164e-06	1.4519e-06	888.5	383.09	8.3287e-06	1.2397e-05	365.19	132.98	131.79	51.879	1.1394e-05	58.315	0.0073401	0.010009	0.0027654	1243.2	9.9956e-05	0.0001117	1054.6	449.12	0.00010103	0.00011163	451.48	161.97	159.53	62.235	0.00010575	70.624	185.531	47.352	45.594	-68.295	11.654	202.375	-69.339	-63.078	193.797	126.717	-65.268	-60.435	-58.850	-53.587	146.761	-56.060	-8191	255	
9876.192	1	1	0	0	0.065459	0.34646	0.2535	0.46023	0.1441	0.12193	0.10048	0.083914	0.18452	0.141	0.15716	0.12803	0.075097	0.15344	0.27697	0.11473	-2.8792	-2.5729	-2.6958	-3.2479	-2.5229	-3.0458	-3.0375	-2.6354	-3.2687	-2.8271	-2.7917	-3.4167	-2.4292	-3.1271	-3.0187	-2.4792	-77.075	-29.702	184.248	-40.772	154.249	228.660	253.699	169.770	168.409	215.088	132.053	-80.082	-66.950	156.222	112.993	193.828	0.00025764	0.0009128	0.00017479	1070.7	2.6268e-06	9.7712e-06	890.38	384.54	5.4205e-06	5.4571e-06	367.15	132.55	132.1	51.815	7.4154e-06	58.093	0.0074833	0.010016	0.0026855	1243.2	0.00010087	0.00011033	1050.9	448.07	0.00010201	0.00011004	449.85	161.73	160.31	62.235	0.00010381	70.351	239.160	-30.791	30.088	-68.353	172.822	119.280	-69.146	-62.954	179.244	81.063	-64.908	-60.232	-58.339	-53.518	230.186	-55.898	-8191	255	
9876.264	1	1	0	0	0.18526	0.10495	0.17557	0.10589	0.28551	0.20408	0.10518	0.32257	0.12842	0.10145	0.27673	0.2247	0.52206	0.29888	0.062755	0.30604	-3.025	-2.5896	-2.5	-3.45	-2.4521	-3.1125	-3.2562	-2.6562	-3.4667	-2.8187	-2.7208	-3.6	-2.3354	-2.9979	-3.2104	-2.4042	-31.856	57.550	167.043	208.658	52.831	49.765	163.356	243.720	174.179	201.589	266.694	143.117	228.249	-73.398	24.434	114.884	0.00021979	0.0009532	0.00012292	1068.1	8.807e-06	5.042e-06	889.73	383.68	6.2861e-06	1.4883e-05	365.13	132.86	131.7	52.08	1.1317e-05	58.601	0.0077126	0.0099474	0.0026714	1243.3	0.00010528	0.00010967	1052.1	448.7	0.00010746	0.00011082	449.61	162.56	161.64	62.531	0.00010657	71.256	220.771	-21.346	252.400	-68.285	155.057	59.835	-69.564	-63.242	169.870	34.069	-64.935	-60.160	-58.522	-53.625	82.561	-56.004	-8191	255	
9876.384	1	1	0	0	0.1426	0.19851	0.21291	0.16938	0.21515	0.10664	0.24318	0.23497	0.068728	0.095309	0.35139	0.31631	0.3169	0.28684	0.14957	0.39323	-3.0146	-2.6792	-2.5146	-3.4375	-2.5042	-2.7313	-3.3604	-2.5875	-3.2438	-2.9917	-2.5375	-3.3063	-2.8042	-2.6771	-3.2729	-2.45	228.649	-54.310	76.256	236.111	25.205	220.504	40.776	188.133	250.518	25.722	-79.851	208.079	243.809	271.423	-66.931	241.426	0.00026805	0.0016587	8.9487e-05	1064.2	4.6311e-06	1.6951e-05	890.98	383.26	3.1083e-06	8.1009e-06	366.74	132.28	131.55	51.521	1.3116e-05	58.5	0.0082287	0.010292	0.002771	1252.1	0.00011394	0.00011512	1061.6	453.45	0.00011682	0.00011774	455.48	164.6	163.05	62.576	0.00011407	71.892	240.622	-59.571	27.310	-68.169	-2.074	115.927	-69.241	-63.314	102.419	60.853	-65.451	-60.526	-58.950	-53.783	134.520	-56.242	-8191	255	
9876.480	1	1	0	0	0.052732	0.070833	0.15517	0.40077	0.15514	0.34714	0.052553	0.5555	0.071328	0.21371	0.20069	0.12284	0.18485	0.14802	0.11259	0.39363	-2.8063	-3.0479	-2.4625	-3.5479	-2.65	-2.7729	-3.3958	-2.6125	-3.2021	-3.0521	-2.5625	-3.4375	-2.8604	-2.5979	-3.4042	-2.5938	197.651	230.228	79.323	269.981	177.304	106.515	125.316	208.260	196.581	38.323	193.949	160.151	148.792	-13.715	-64.105	152.892	0.00014268	0.00053428	0.00022357	1070.5	5.0423e-06	9.8705e-06	887.41	383.73	6.5242e-06	5.9357e-06	363.85	131.18	130.08	51.132	9.0705e-06	57.491	0.0088423	0.010815	0.0029208	1265.7	0.00011828	0.00011702	1061.1	454.31	0.0001153	0.00011409	450.93	162.65	160.38	61.44	0.00010655	70.518	207.065	4.379	58.765	-68.646	226.154	125.824	-69.231	-63.368	33.072	17.358	-65.243	-60.217	-58.669	-53.428	129.740	-55.983	-8191	255	
9876.577	1	1	0	0	0.1015	0.18808	0.051627	0.086668	0.26222	0.12845	0.22737	0.16667	0.03066	0.16433	0.11025	0.15461	0.16352	0.30107	0.06123	0.067842	-2.5896	-2.8854	-2.3917	-3.3083	-2.8042	-2.5521	-3.4917	-2.6271	-2.9042	-3.1708	-2.6417	-3.5479	-2.9021	-2.5625	-3.4479	-2.5708	256.295	-41.640	113.961	-20.813	237.830	-63.580	61.049	-44.175	133.499	186.595	233.882	212.449	189.673	255.791	222.405	177.466	0.00015832	0.0007506	0.00018457	1068.9	4.8166e-06	1.286e-05	888.72	383.76	1.1086e-05	6.3869e-06	364.11	130.89	130.51	50.923	4.0893e-06	57.755	0.0080989	0.0098926	0.0026985	1259.4	0.00010775	0.0001072	1053.9	452.53	0.00010679	0.00010692	448.42	161.76	158.91	61.085	0.00010308	70.74	242.676	69.783	-17.655	-68.364	174.495	73.593	-69.806	-63.508	123.119	47.930	-65.378	-61.048	-59.048	-54.009	180.319	-56.176	-8191	255	
9876.673	1	1	0	0	0.18219	0.090722	0.3017	0.29301	0.11036	0.06563	0.028651	0.13762	0.099842	0.20355	0.15891	0.29328	0.26927	0.2059	0.070237	0.22937	-2.5021	-3.1292	-2.3	-3.25	-2.9021	-2.5833	-3.4042	-2.7792	-2.7604	-3.2604	-2.4604	-3.2333	-3.0292	-2.5771	-3.325	-2.7875	150.409	15.972	-33.110	230.370	86.707	116.931	54.108	173.125	92.866	116.377	-76.304	224.427	251.290	265.518	-41.232	208.537	0.00027497	0.0013169	3.6028e-05	1075.7	8.1595e-06	5.087e-06	890.98	384.55	9.8067e-06	5.1553e-06	366.12	131.94	130.52	51.48	9.4558e-06	58.138	0.0076742	0.0094587	0.0026669	1260.8	0.00010338	0.00010342	1056.2	453.15	0.00010272	0.00010382	451.08	162.46	159.1	61.439	0.00010508	70.892	253.875	-11.643	-12.217	-68.701	62.394	123.435	-69.343	-63.345	47.574	41.049	-65.640	-60.521	-58.938	-53.546	192.993	-56.283	-8191	255	
9876.767	1	1	0	0	0.041292	0.15269	0.30787	0.057217	0.12709	0.17348	0.20084	0.082667	0.12503	0.091173	0.06755	0.21382	0.28629	0.06923	0.13523	0.12717	-2.3354	-3.3812	-2.4354	-3.1667	-3.0979	-2.4708	-3.5542	-2.8458	-2.5729	-3.3958	-2.6104	-3.1083	-3.2375	-2.6063	-3.2208	-2.9938	-3.557	4.834	138.304	261.156	90.753	191.767	10.786	156.226	-80.697	157.758	70.797	61.903	237.964	184.109	31.356	-69.304	3.4072e-05	0.00048756	0.00026435	1073.8	6.1601e-06	1.4487e-05	893.73	384.41	9.1665e-07	6.4979e-06	365.72	131.4	130.69	50.843	1.0319e-05	57.421	0.0074588	0.0092502	0.0026927	1256.9	0.00010016	0.00010157	1059.6	451.88	0.00010064	0.00010185	452.2	161.55	158.59	60.822	0.00010677	69.968	162.304	135.653	80.214	-68.538	97.966	89.643	-69.026	-63.405	101.612	103.806	-65.066	-60.368	-58.866	-53.689	-72.321	-56.199	-8191	255	
9876.863	1	1	0	0	0.080165	0.11276	0.12033	0.33064	0.17552	0.22774	0.19961	0.39835	0.23011	0.069806	0.23157	0.26994	0.1581	0.2707	0.024494	0.22214	-2.3479	-3.3542	-2.5312	-2.9229	-2.9042	-2.5521	-3.1917	-2.9896	-2.3833	-3.3708	-2.5208	-2.9125	-3.2396	-2.5354	-3.0854	-3.1	198.604	120.696	-59.313	271.544	224.385	239.489	257.846	181.121	231.038	244.993	-25.412	-76.431	216.367	-59.066	258.208	88.432	0.00012474	0.00055736	0.00021636	1066.3	4.2342e-06	8.9259e-06	886.27	380.84	4.1501e-06	3.9013e-06	362.42	130.02	128.77	50.09	9.866e-06	56.505	0.0072984	0.0091357	0.0027303	1246.8	9.7018e-05	9.9273e-05	1049.6	445.61	9.4829e-05	9.8583e-05	445.63	158.59	155.42	59.66	0.00010033	68.35	201.848	4.126	-63.103	-68.651	7.812	253.449	-69.419	-63.693	89.330	276.531	-65.500	-60.467	-59.193	-53.896	110.380	-56.247	-8191	255	
9876.959	1	1	0	0	0.18777	0.25368	0.13582	0.16944	0.1983	0.12134	0.14683	0.26724	0.11776	0.09849	0.32973	0.26815	0.15087	0.24303	0.14621	0.14318	-1.9833	-3.0167	-2.6833	-2.65	-3.325	-2.2583	-3.275	-3.2417	-2.3417	-3.4146	-2.6375	-2.9062	-3.1479	-2.5604	-3.0104	-3.2458	272.928	-70.376	167.211	258.361	-62.754	231.360	120.362	70.319	-74.660	-18.930	213.112	139.188	275.100	197.060	172.083	202.625	0.00021168	6.059e-05	9.7187e-05	1061.2	1.8079e-06	3.0816e-06	874.4	378.35	7.3342e-06	6.8612e-06	362.14	129.95	128.68	50.175	1.1354e-05	56.749	0.0066829	0.0087007	0.0025664	1228.4	9.0491e-05	9.6459e-05	1037	440.55	8.8872e-05	9.5863e-05	442.42	157.5	154.69	59.678	9.674e-05	68.331	227.090	236.432	234.957	-68.454	161.823	180.817	-69.443	-63.315	78.299	149.974	-65.618	-60.709	-59.174	-53.844	65.597	-56.680	-8191	255	
9877.056	1	1	0	0	0.085049	0.18814	0.32407	0.26743	0.18679	0.03098	0.22551	0.18117	0.20029	0.16062	0.22114	0.13581	0.049745	0.085234	0.094426	0.052446	-1.9542	-3.2604	-2.7	-2.6792	-3.3771	-2.5021	-3.0875	-3.0729	-2.4313	-3.3	-2.8521	-2.6688	-3.3917	-2.6021	-3.05	-3.2146	41.212	225.344	105.455	-71.357	11.139	155.646	277.256	-75.666	163.597	212.375	-21.671	249.630	202.806	-15.434	49.888	247.643	0.00012809	0.00032001	0.00015831	1057.2	1.7811e-06	1.9912e-05	877.28	380.49	2.4012e-06	3.2781e-06	363	130.95	130.1	50.27	1.107e-05	56.782	0.0065174	0.0087778	0.0024699	1226.1	8.7959e-05	9.6953e-05	1035	441.6	8.7473e-05	9.6904e-05	440.99	157.71	155.55	60.023	9.366e-05	68.145	256.718	-26.704	47.871	-68.963	248.476	156.947	-69.529	-63.752	126.490	6.411	-65.688	-60.982	-59.287	-54.231	26.435	-56.656	-8191	255	
9877.152	1	1	0	0	0.13603	0.079943	0.20198	0.1854	0.19907	0.24507	0.22992	0.056667	0.070019	0.31726	0.0062613	0.41651	0.069921	0.18033	0.195	0.14943	-1.9292	-3.1729	-2.6646	-2.6396	-3.075	-2.4042	-3.0438	-3.2229	-2.4792	-3.1104	-3.0583	-2.5083	-3.4417	-2.7	-2.6542	-3.275	92.281	-77.776	116.531	239.659	120.033	170.857	-20.066	-41.403	5.664	97.195	245.776	216.190	278.133	-41.887	19.529	167.646	0.00027799	0.00061355	0.00021282	1063.2	1.9408e-06	9.841e-06	883.93	380.85	9.6733e-06	1.0241e-05	363.88	131.98	131.26	51.245	3.002e-06	58.232	0.0064998	0.0088994	0.0024281	1229.1	8.9959e-05	9.8317e-05	1035.4	441.78	8.9816e-05	9.898e-05	440.83	158.93	157.66	60.959	9.2306e-05	69.596	222.271	-18.553	50.360	-68.788	170.820	32.248	-69.499	-63.644	256.619	23.617	-65.851	-60.819	-59.083	-54.319	92.088	-56.666	-8191	255	
9877.272	1	1	0	0	0.25274	0.094663	0.31239	0.15079	0.17224	0.17066	0.053495	0.21811	0.13111	0.13715	0.17269	0.21115	0.17837	0.31442	0.23042	0.29036	-2.05	-3.0542	-2.8896	-2.5042	-3.3167	-2.6375	-2.7875	-3.5354	-2.3063	-2.9667	-3.2	-2.3187	-3.2521	-2.7938	-2.4938	-3.4062	66.501	149.485	-47.137	233.895	254.731	-34.891	104.516	-71.735	268.164	226.484	152.790	158.548	-64.879	196.136	252.171	-23.826	0.00028399	0.0010775	0.00029459	1059.1	3.5934e-06	7.1706e-06	880.14	381.6	7.9419e-06	1.053e-05	367.63	135.05	133.67	52.35	1.1274e-05	60.009	0.0066965	0.0088541	0.0023666	1218.5	9.1979e-05	9.7599e-05	1030.6	442.58	9.2316e-05	9.7492e-05	445.21	162.61	160.73	62.419	9.223e-05	71.605	238.261	14.141	-19.349	-69.307	100.747	33.269	-69.641	-63.691	183.850	20.365	-66.024	-61.038	-59.257	-54.318	31.886	-56.516	-8191	255	
9877.369	1	1	0	0	0.32248	0.11281	0.0549	0.26981	0.10662	0.17066	0.17145	0.34356	0.17855	0.14107	0.2883	0.14308	0.1136	0.26903	0.12451	0.26457	-1.9792	-2.8271	-3.1437	-2.3104	-3.3	-2.7542	-2.4542	-3.2188	-2.3187	-2.8354	-3.225	-2.4542	-3.2313	-2.7812	-2.4979	-3.3438	184.714	57.880	233.053	240.733	203.450	49.385	269.695	250.391	77.343	201.602	-47.509	265.662	52.780	-69.919	248.532	-21.366	0.00019031	0.0011442	0.00020251	1055.2	6.7958e-06	9.3368e-06	880.75	383.01	4.5124e-06	9.6184e-06	370.04	135.22	133.37	52.394	1.0675e-05	59.462	0.0069926	0.0088871	0.0023781	1217.5	9.5018e-05	9.7237e-05	1033.6	444.28	9.4491e-05	9.6128e-05	447.02	163.17	160.97	62.164	9.0376e-05	71.35	239.334	-9.316	24.748	-68.630	273.579	76.473	-69.506	-63.656	109.445	77.700	-65.802	-60.900	-59.322	-54.461	13.185	-56.495	-8191	255	
9877.465	1	1	0	0	0.21164	0.20001	0.1636	0.33506	0.14852	0.23843	0.34316	0.32965	0.13473	0.10089	0.013	0.23382	0.24463	0.090036	0.19492	0.22862	-2.1104	-2.65	-3.1792	-2.4792	-3.0896	-3.0854	-2.5771	-3.4417	-2.5021	-2.8083	-3.2271	-2.2979	-3.1396	-2.8958	-2.6437	-3.3667	229.154	115.067	-25.108	229.359	-39.547	-12.827	234.690	225.992	86.119	-50.875	146.354	270.064	250.122	13.728	126.162	-50.876	0.00017578	0.00075643	0.00036778	1057.3	3.8703e-06	1.1555e-05	882.88	383.56	8.7873e-06	6.7106e-06	368.08	133.5	131.07	51.455	1.6005e-06	58.738	0.0069963	0.0085679	0.002317	1224.1	9.5295e-05	9.4202e-05	1033.8	445.06	9.4335e-05	9.3003e-05	444.08	161.4	158.62	61.021	8.8226e-05	70.531	204.271	-64.706	-9.265	-68.824	-65.957	66.085	-69.448	-63.465	41.183	46.793	-65.333	-60.861	-58.995	-54.168	-18.186	-56.276	-8191	255	
9877.561	1	1	0	0	0.060233	0.062882	0.32385	0.11924	0.23672	0.088976	0.216	0.079722	0.22218	0.064529	0.30402	0.34502	0.11877	0.19367	0.073699	0.36528	-2.5104	-2.5979	-3.2292	-2.4688	-3.0917	-3.0187	-2.6646	-3.2875	-2.775	-2.4958	-3.4354	-2.6646	-3.0146	-3.175	-2.3438	-3.2062	108.509	140.727	266.587	-32.436	116.434	83.491	160.949	196.881	203.061	-20.570	-41.702	216.733	208.785	-14.186	105.031	163.138	0.00018463	0.00099434	8.4002e-05	1061	8.5202e-06	1.0739e-05	887.95	384.72	4.0806e-06	8.999e-06	363.5	131.27	130.13	50.616	5.8801e-06	57.585	0.0069258	0.0083532	0.0022799	1231.5	9.2959e-05	9.1677e-05	1033.9	445.48	9.2067e-05	9.0698e-05	440.12	159.48	156.59	59.919	8.7037e-05	69.241	272.089	-7.030	88.211	-68.818	39.653	50.256	-69.680	-63.572	153.295	97.867	-65.706	-61.020	-59.137	-54.113	111.948	-56.442	-8191	255	
9877.657	1	1	0	0	0.12923	0.033813	0.12845	0.048391	0.096849	0.10195	0.27278	0.43959	0.19845	0.036162	0.055484	0.24156	0.23206	0.24637	0.07347	0.29085	-2.5187	-2.5917	-3.2708	-2.7792	-2.8875	-3.1271	-2.6	-3.2104	-2.9333	-2.5292	-3.3771	-2.4917	-2.8333	-3.2917	-2.3083	-3.2958	-40.297	125.429	-67.980	190.580	181.470	192.270	171.287	183.307	195.046	176.495	176.942	170.425	-21.804	-73.703	83.475	234.078	0.00018975	0.0009425	0.00029809	1061.1	8.6965e-06	5.8431e-06	877.99	381.75	4.2873e-06	9.3842e-06	363.1	130.4	129.81	50.663	1.1842e-05	57.391	0.006631	0.0081123	0.0022532	1232.5	9.0077e-05	9.0176e-05	1030.2	444.19	9.0558e-05	8.9946e-05	438.62	158.64	155.74	59.738	9.0317e-05	69.185	219.490	-21.588	61.654	-69.085	60.195	-1.324	-69.798	-63.943	164.245	27.412	-65.624	-61.042	-59.045	-54.164	147.755	-56.368	-8191	255	
9877.753	1	1	0	0	0.26992	0.20954	0.16213	0.21942	0.11175	0.14503	0.081403	0.40531	0.15599	0.045906	0.28663	0.27207	0.1419	0.044809	0.129	0.11065	-2.5125	-2.3917	-3.2521	-2.7229	-2.7875	-3.125	-2.4229	-3.175	-3.0521	-2.2208	-3.3646	-2.5438	-2.6583	-3.3229	-2.3479	-3.0438	-47.552	12.200	-0.070	244.929	20.922	84.005	104.859	254.385	188.891	13.416	276.828	268.342	259.382	112.851	-69.001	176.563	0.00015939	0.0011837	7.3063e-05	1057.3	3.0508e-06	7.84e-06	880.81	382.25	5.9777e-06	5.489e-06	363.17	131.12	129.41	50.621	9.3089e-07	57.481	0.0066362	0.0081542	0.0023497	1233.4	8.9631e-05	9.0229e-05	1034.7	444.95	9.0002e-05	9.0318e-05	442.25	159.37	156.13	60.053	9.526e-05	69.649	266.451	-8.417	81.662	-68.707	119.487	75.479	-69.828	-63.762	184.003	85.318	-65.836	-61.012	-59.164	-54.142	96.006	-56.603	-8191	255	
9877.872	1	1	0	0	0.19557	0.15747	0.047457	0.22435	0.23729	0.20897	0.060687	0.098046	0.20902	0.43329	0.14489	0.17258	0.14656	0.28328	0.044234	0.11926	-2.7146	-2.2042	-3.2083	-2.8604	-2.5771	-3.025	-2.4917	-3.1542	-3.0417	-2.5479	-3.2708	-2.8583	-2.7438	-3.2458	-2.5896	-2.8771	61.356	210.134	197.810	201.084	169.927	168.402	54.567	-12.398	-66.861	-27.447	230.777	-33.877	182.904	266.656	77.790	-75.652	0.00016105	0.00084306	0.00039913	1061.6	2.0966e-06	1.978e-05	878.02	382.34	9.5009e-06	2.6937e-06	364.79	131.25	130.3	50.86	7.6509e-06	58.089	0.0067352	0.0084329	0.0025152	1237.4	9.2258e-05	9.453e-05	1044.2	446.8	9.384e-05	9.5865e-05	447.91	160.67	157.73	60.746	0.00010369	70.426	212.418	-77.808	-70.208	-68.858	137.199	65.595	-69.696	-63.681	130.466	138.713	-65.793	-60.583	-59.305	-54.090	11.616	-56.317	-8191	255	
9877.968	1	1	0	0	0.13666	0.049507	0.29173	0.15399	0.29742	0.11897	0.37422	0.12039	0.19666	0.34467	0.034365	0.1207	0.34747	0.11531	0.076109	0.33412	-2.8375	-2.4188	-3.1333	-2.9854	-2.2458	-3.4292	-2.7167	-2.7979	-3.1896	-2.3646	-3.2479	-3.0167	-2.35	-3.3833	-2.4583	-2.7021	-43.874	60.470	207.241	27.961	266.370	-17.540	205.373	200.265	34.268	24.586	-67.808	39.817	216.487	237.789	275.583	239.487	0.00019532	0.0013745	9.8536e-05	1059.9	7.1469e-06	4.6055e-06	881.33	381.75	5.2702e-06	1.0422e-05	366.01	132.34	131.65	51.161	5.5843e-06	58.179	0.0071242	0.009033	0.0027164	1243.4	9.6323e-05	0.00010069	1052.1	448.25	9.5385e-05	0.00010001	451.29	161.25	157.99	61.252	0.0001022	70.444	264.812	-46.851	255.521	-68.735	67.559	241.294	-69.649	-63.728	83.098	254.270	-65.603	-60.859	-59.235	-54.051	8.075	-56.809	-8191	255	
9878.064	1	1	0	0	0.0731	0.16946	0.27037	0.28612	0.13431	0.22483	0.24415	0.11453	0.082966	0.036784	0.0034796	0.25543	0.046646	0.12849	0.14607	0.15767	-2.8854	-2.3604	-3.1146	-3.0979	-2.2896	-3.1771	-2.675	-2.8458	-3.3271	-2.5583	-3.2375	-3.2104	-2.4833	-3.2875	-2.6063	-2.7333	253.369	61.145	-53.093	207.418	-20.247	91.253	266.937	248.256	-30.773	17.840	238.015	213.481	-22.869	257.744	12.204	165.096	0.00019116	0.00022913	9.2292e-05	1052.1	9.8052e-06	6.1854e-06	880.5	379.87	1.0126e-05	4.1918e-06	364.1	131.49	130.27	51.156	2.5385e-06	58.46	0.0069111	0.0091128	0.0026517	1235.8	9.3643e-05	0.00010235	1051.5	447.66	9.429e-05	0.00010357	450.79	161.33	158.08	61.699	0.00010374	70.967	229.467	117.720	14.029	-68.816	-43.208	156.577	-69.792	-63.543	96.706	45.905	-65.385	-60.939	-59.030	-53.874	55.010	-56.516	-8191	255	
9878.160	1	1	0	0	0.075721	0.081042	0.081722	0.3415	0.24287	0.12466	0.21491	0.23844	0.20322	0.20657	0.10963	0.033358	0.20244	0.2849	0.25878	0.081835	-2.8792	-2.2979	-2.7687	-3.2208	-2.1771	-3.3354	-2.8667	-2.5083	-3.1937	-2.5646	-2.8604	-3.4313	-2.7042	-3.2271	-2.6979	-2.7542	-72.726	-68.471	200.395	187.467	202.255	7.976	262.164	261.973	70.330	-50.331	271.039	24.560	249.141	272.566	28.294	55.901	0.00019273	0.0010514	0.00011106	1055.5	3.548e-06	7.8984e-06	877.41	383.09	7.1792e-06	4.3911e-06	363.54	132.72	131.63	51.401	8.0679e-06	58.72	0.0071344	0.0097165	0.0027117	1240.4	9.8727e-05	0.00010986	1054	449.53	0.00010079	0.00011085	452.91	163.08	160.31	62.332	0.00010556	71.218	233.145	19.827	207.393	-69.117	-53.577	167.225	-69.581	-63.523	40.465	-43.206	-65.428	-61.008	-59.291	-54.286	52.274	-56.500	-8191	255	
#DATA ENDS
