BOXY.EXE: ISS Imagent and Oximeter Data Acquisition Program Version 0.80
Ascii Record File

#ACQ INFORMATION
2  Detector Channels 
16  External MUX Channels 
1  Auxiliary Channels 
5000  Waveform (CCF) Frequency (Hz)
1  Waveforms Skipped 
30  Waveforms Averaged 
1  Cycles Averaged 
16  Acquisitions per Waveform 
10.0806  Updata Rate (Hz) 

#FILE INFORMATION
TRUE -- External MUX Channel results are PARSED.
FALSE -- AC DC and Phase are NOT grouped.
TRUE -- Companion Program Settings File CREATED.
FALSE -- AC data not excluded
FALSE -- DC data not excluded
FALSE -- Phase data not excluded
FALSE -- Auxillary Chn. data not excluded
Tab delimiters

#CALIBRATION STATE
TRUE -- Waveform Calibration Values APPLIED.


#AUX CALIBRATION VALUES
Val Type	aux-1	

Term	1.0000e+00	
Factor	0.0000e+00	


#WF CALIBRATION VALUES
A = Detector Channel
Val Type	A-AC1	A-AC2	A-AC3	A-AC4	A-AC5	A-AC6	A-AC7	A-AC8	A-AC9	A-AC10	A-AC11	A-AC12	A-AC13	A-AC14	A-AC15	A-AC16	A-DC1	A-DC2	A-DC3	A-DC4	A-DC5	A-DC6	A-DC7	A-DC8	A-DC9	A-DC10	A-DC11	A-DC12	A-DC13	A-DC14	A-DC15	A-DC16	A-Ph1	A-Ph2	A-Ph3	A-Ph4	A-Ph5	A-Ph6	A-Ph7	A-Ph8	A-Ph9	A-Ph10	A-Ph11	A-Ph12	A-Ph13	A-Ph14	A-Ph15	A-Ph16	

Term	0.00000e+00	0.00000e+00	0.00000e+00	0.00000e+00	0.00000e+00	0.00000e+00	0.00000e+00	0.00000e+00	0.00000e+00	0.00000e+00	0.00000e+00	0.00000e+00	0.00000e+00	0.00000e+00	0.00000e+00	0.00000e+00	0.00000e+00	0.00000e+00	0.00000e+00	0.00000e+00	0.00000e+00	0.00000e+00	0.00000e+00	0.00000e+00	0.00000e+00	0.00000e+00	0.00000e+00	0.00000e+00	0.00000e+00	0.00000e+00	0.00000e+00	0.00000e+00	0.00000e+00	0.00000e+00	0.00000e+00	0.00000e+00	0.00000e+00	0.00000e+00	0.00000e+00	0.00000e+00	0.00000e+00	0.00000e+00	0.00000e+00	0.00000e+00	0.00000e+00	0.00000e+00	0.00000e+00	0.00000e+00	
Factor	1.00000e+00	1.00000e+00	1.00000e+00	1.00000e+00	1.00000e+00	1.00000e+00	1.00000e+00	1.00000e+00	1.00000e+00	1.00000e+00	1.00000e+00	1.00000e+00	1.00000e+00	1.00000e+00	1.00000e+00	1.00000e+00	1.00000e+00	1.00000e+00	1.00000e+00	1.00000e+00	1.00000e+00	1.00000e+00	1.00000e+00	1.00000e+00	1.00000e+00	1.00000e+00	1.00000e+00	1.00000e+00	1.00000e+00	1.00000e+00	1.00000e+00	1.00000e+00	X	X	X	X	X	X	X	X	X	X	X	X	X	X	X	X	

B = Detector Channel
Val Type	B-AC1	B-AC2	B-AC3	B-AC4	B-AC5	B-AC6	B-AC7	B-AC8	B-AC9	B-AC10	B-AC11	B-AC12	B-AC13	B-AC14	B-AC15	B-AC16	B-DC1	B-DC2	B-DC3	B-DC4	B-DC5	B-DC6	B-DC7	B-DC8	B-DC9	B-DC10	B-DC11	B-DC12	B-DC13	B-DC14	B-DC15	B-DC16	B-Ph1	B-Ph2	B-Ph3	B-Ph4	B-Ph5	B-Ph6	B-Ph7	B-Ph8	B-Ph9	B-Ph10	B-Ph11	B-Ph12	B-Ph13	B-Ph14	B-Ph15	B-Ph16	

Term	0.00000e+00	0.00000e+00	0.00000e+00	0.00000e+00	0.00000e+00	0.00000e+00	0.00000e+00	0.00000e+00	0.00000e+00	0.00000e+00	0.00000e+00	0.00000e+00	0.00000e+00	0.00000e+00	0.00000e+00	0.00000e+00	0.00000e+00	0.00000e+00	0.00000e+00	0.00000e+00	0.00000e+00	0.00000e+00	0.00000e+00	0.00000e+00	0.00000e+00	0.00000e+00	0.00000e+00	0.00000e+00	0.00000e+00	0.00000e+00	0.00000e+00	0.00000e+00	-5.39519e+01	-1.20249e+02	-1.18298e+02	-1.81389e+02	-4.31425e+01	-6.62439e+01	-1.58480e+02	-1.62015e+02	-4.06269e+01	-6.41590e+01	-1.70493e+02	-1.69859e+02	-1.80780e+02	-1.76520e+02	-5.86099e+01	-1.49332e+02	
Factor	1.98062e-05	1.68167e-04	4.94974e-05	1.66526e-01	1.74080e-06	1.74117e-06	1.86734e-01	6.19479e-02	1.34097e-06	1.65747e-06	9.69286e-02	3.24366e-02	2.70990e-02	9.71051e-03	1.63304e-06	1.37319e-02	6.23419e-06	7.90621e-06	2.20416e-06	8.30113e-02	8.34494e-08	8.73136e-08	8.74601e-02	3.09545e-02	8.37774e-08	8.70958e-08	4.68922e-02	1.57875e-02	1.36570e-02	4.89657e-03	8.48302e-08	6.69651e-03	X	X	X	X	X	X	X	X	X	X	X	X	X	X	X	X	



#DISTANCE SETTINGS
A = Detector Channel
A-1	A-2	A-3	A-4	A-5	A-6	A-7	A-8	A-9	A-10	A-11	A-12	A-13	A-14	A-15	A-16	

2.5000e+00	3.0000e+00	2.5000e+00	3.0000e+00	2.0000e+00	3.0000e+00	1.5000e+00	3.0000e+00	3.0000e+00	3.0000e+00	3.0000e+00	3.0000e+00	3.0000e+00	3.0000e+00	1.5000e+00	3.0000e+00	

B = Detector Channel
B-1	B-2	B-3	B-4	B-5	B-6	B-7	B-8	B-9	B-10	B-11	B-12	B-13	B-14	B-15	B-16	

1.0000e+01	1.0000e+01	1.0000e+01	1.4400e+00	1.0000e+01	1.0000e+01	1.5100e+00	1.9400e+00	1.0000e+01	1.0000e+01	1.9900e+00	2.4900e+00	2.4100e+00	2.9000e+00	1.0000e+01	2.9800e+00	




#DATA BEGINS
time	group	step	mark	flag	A-AC1	A-AC2	A-AC3	A-AC4	A-AC5	A-AC6	A-AC7	A-AC8	A-AC9	A-AC10	A-AC11	A-AC12	A-AC13	A-AC14	A-AC15	A-AC16	A-DC1	A-DC2	A-DC3	A-DC4	A-DC5	A-DC6	A-DC7	A-DC8	A-DC9	A-DC10	A-DC11	A-DC12	A-DC13	A-DC14	A-DC15	A-DC16	A-Ph1	A-Ph2	A-Ph3	A-Ph4	A-Ph5	A-Ph6	A-Ph7	A-Ph8	A-Ph9	A-Ph10	A-Ph11	A-Ph12	A-Ph13	A-Ph14	A-Ph15	A-Ph16	B-AC1	B-AC2	B-AC3	B-AC4	B-AC5	B-AC6	B-AC7	B-AC8	B-AC9	B-AC10	B-AC11	B-AC12	B-AC13	B-AC14	B-AC15	B-AC16	B-DC1	B-DC2	B-DC3	B-DC4	B-DC5	B-DC6	B-DC7	B-DC8	B-DC9	B-DC10	B-DC11	B-DC12	B-DC13	B-DC14	B-DC15	B-DC16	B-Ph1	B-Ph2	B-Ph3	B-Ph4	B-Ph5	B-Ph6	B-Ph7	B-Ph8	B-Ph9	B-Ph10	B-Ph11	B-Ph12	B-Ph13	B-Ph14	B-Ph15	B-Ph16	aux-1	digaux	

46166.957	1	1	0	256	0.2175	0.18065	0.089775	0.23497	0.097101	0.084718	0.22738	0.12961	0.2132	0.23154	0.24781	0.11545	0.17452	0.23704	0.11323	0.26568	-2.4125	-3.2667	-2.4521	-3.4458	-3.0354	-2.6542	-3.3625	-2.8	-2.8646	-3.5125	-2.8021	-3.3979	-3.3542	-2.8583	-3.3	-2.8	422.089	199.150	266.971	486.629	228.432	248.990	182.731	448.536	510.940	297.447	198.747	497.341	505.254	438.745	279.256	443.073	0.0009253	0.00081313	0.00026022	1121.8	8.9598e-06	9.9025e-06	902.42	453.88	1.119e-05	6.9731e-06	406.95	168.51	184.29	89.374	4.6149e-06	88.057	0.0011991	0.0012716	0.00034973	1057	1.2985e-05	1.3942e-05	849.79	430.8	1.3447e-05	1.3824e-05	385.38	159.81	174.56	85.475	1.3887e-05	84.031	268.163	245.366	274.901	178.074	332.952	316.906	176.768	183.532	338.564	311.281	181.002	185.753	187.790	192.596	325.311	189.642	-8191	255	
46167.078	1	1	0	0	0.2306	0.15992	0.20097	0.19248	0.23036	0.24143	0.086678	0.22826	0.11833	0.057077	0.11788	0.073374	0.21611	0.28918	0.20528	0.32873	-2.5312	-3.1646	-2.6688	-3.1479	-3.0833	-2.5812	-3.3896	-2.9021	-2.8063	-3.4062	-2.7292	-3.3083	-3.4646	-2.875	-3.3667	-3.0896	256.916	467.395	215.474	477.366	327.364	499.315	294.387	495.592	419.761	477.925	240.597	170.434	503.042	447.626	453.804	509.719	0.0009304	0.00071302	0.00025953	1121.2	1.3472e-05	7.2904e-06	887.64	454.02	8.4469e-06	6.662e-06	397.77	164.47	181.28	88.599	6.7418e-06	86.196	0.0012165	0.0012868	0.00035245	1056.4	1.3679e-05	1.4061e-05	839.83	427.99	1.3872e-05	1.4315e-05	378.05	156.63	172.61	84.605	1.432e-05	82.237	268.824	270.736	319.148	178.361	315.591	301.357	177.035	183.745	312.439	313.870	181.026	185.654	187.912	192.778	333.046	189.425	-8191	255	
46167.172	1	1	0	0	0.15907	0.20469	0.3019	0.1154	0.044486	0.090823	0.13279	0.19215	0.27054	0.18542	0.18595	0.25557	0.22673	0.28351	0.041421	0.12967	-2.3917	-3.525	-2.5333	-3.2438	-3.275	-2.5604	-3.4188	-3.1688	-2.7042	-3.6042	-2.8937	-3.0333	-3.5208	-2.7938	-3.3563	-3.2	245.928	400.578	454.872	429.919	275.678	330.918	207.279	169.341	517.366	407.850	422.930	506.670	507.697	507.802	231.421	420.650	0.00096647	0.0010543	0.00022472	1115.6	6.8785e-06	4.4941e-06	886.38	450.01	7.0454e-06	6.8608e-06	393.21	161.51	179.21	87.322	9.3929e-06	84.201	0.001226	0.0013174	0.00036681	1053.4	1.4218e-05	1.4749e-05	834.46	425.28	1.3962e-05	1.4184e-05	373.04	153.67	170.57	83.208	1.4255e-05	80.343	271.640	227.098	274.789	178.267	360.800	305.064	176.422	183.421	336.025	293.044	180.806	185.725	187.958	192.752	311.336	189.442	-8191	255	
46167.270	1	1	0	0	0.18656	0.072594	0.099946	0.19851	0.070959	0.072907	0.062686	0.4127	0.18064	0.32595	0.13083	0.11814	0.16558	0.068034	0.1019	0.30068	-2.3125	-3.3937	-2.5729	-2.9729	-3.45	-2.6875	-3.3958	-3.2479	-2.7125	-3.5333	-2.9875	-2.9708	-3.4313	-2.7333	-3.2271	-3.2583	296.926	337.359	431.386	487.506	379.020	245.858	513.141	489.330	443.361	523.359	476.927	200.286	467.313	384.534	216.445	213.939	0.00093957	0.00044488	0.00028506	1116.2	7.9124e-06	7.5851e-06	884.54	447.05	5.8291e-06	6.4801e-06	390.7	159.84	177.73	86.227	1.535e-05	83.686	0.0012178	0.0013214	0.00036636	1052	1.3787e-05	1.4431e-05	831.65	422.62	1.4359e-05	1.4361e-05	369.24	151.91	169.1	82.398	1.423e-05	79.752	265.380	336.804	291.953	178.540	375.088	281.966	176.892	183.129	344.866	308.523	180.831	185.601	187.882	192.818	317.353	189.338	-8191	255	
46167.363	1	1	0	0	0.077727	0.28128	0.28116	0.13717	0.26569	0.038165	0.097734	0.11947	0.1696	0.21149	0.22054	0.30036	0.30323	0.21591	0.19425	0.21044	-2.1583	-3.4458	-2.8187	-2.9271	-3.3792	-2.8521	-3.2812	-3.4604	-2.6396	-3.5083	-3.0938	-2.8688	-3.725	-2.9437	-3.1688	-3.4854	420.316	494.030	463.102	281.033	343.770	481.935	468.810	477.688	476.935	377.925	447.309	203.834	170.277	241.575	315.111	478.015	0.00090274	0.00090011	0.00029356	1114.4	4.557e-06	5.4357e-06	882.07	446.3	8.1028e-06	2.2983e-06	387.85	158.91	177.95	86.139	9.113e-06	83.281	0.0012392	0.0013486	0.00037411	1054.6	1.4433e-05	1.4984e-05	830.99	422.41	1.4451e-05	1.4724e-05	368.16	151.41	169.31	82.307	1.4572e-05	79.313	269.860	312.060	260.634	178.170	339.353	328.218	176.458	183.418	319.905	291.463	180.771	185.591	188.060	192.887	357.462	189.523	-8191	255	
46167.484	1	1	0	0	0.13722	0.074282	0.21095	0.096153	0.12962	0.093397	0.40992	0.3219	0.072138	0.25615	0.20022	0.3183	0.3093	0.27055	0.28687	0.26022	-2.2146	-3.3063	-2.9479	-2.8979	-3.5938	-2.575	-3.1979	-3.5229	-2.6646	-3.4333	-3.1375	-2.8271	-3.6312	-3.0854	-2.9396	-3.6813	230.865	444.409	456.149	247.513	311.358	347.427	518.999	413.650	337.415	353.058	519.872	485.785	519.071	511.458	297.742	440.568	0.00084152	0.00053707	0.00035732	1113.9	1.2697e-05	6.5977e-06	881.18	444.63	3.4137e-06	1.5992e-06	385.05	157.92	176.53	85.547	9.291e-06	82.086	0.0012339	0.0013232	0.00036601	1050.6	1.3887e-05	1.4109e-05	828.91	419.86	1.35e-05	1.3486e-05	365.76	150	167.59	81.338	1.3304e-05	78.342	269.722	244.770	265.175	178.082	337.307	321.889	176.692	183.381	294.627	344.508	180.945	185.682	188.089	192.743	304.221	189.324	-8191	255	
46167.582	1	1	0	0	0.17424	0.11414	0.091822	0.13531	0.18287	0.20566	0.19757	0.13386	0.20419	0.10124	0.25308	0.015052	0.17211	0.18343	0.080735	0.43331	-2.1688	-3.3354	-3.1854	-2.6604	-3.5479	-2.9083	-3.1021	-3.5563	-2.4792	-3.2229	-3.2188	-2.5167	-3.5062	-2.9771	-2.7188	-3.5833	279.142	387.030	430.589	213.780	221.066	484.453	260.230	372.520	509.505	277.117	441.215	494.629	501.390	440.986	405.142	168.083	0.00081152	0.0009761	0.00024255	1112.7	8.7477e-06	8.7467e-06	881.93	442.7	5.7474e-06	7.6949e-06	388.32	158.46	176.02	85.112	9.7953e-06	82.681	0.0011432	0.0012089	0.00033608	1046.5	1.2833e-05	1.3237e-05	830.07	418.95	1.2766e-05	1.3247e-05	368.34	150.2	167.32	81.028	1.3195e-05	78.688	274.176	272.108	244.692	178.152	363.092	296.597	176.588	183.584	302.226	301.445	180.791	185.620	187.977	192.805	322.407	189.700	-8191	255	
46167.652	1	1	0	0	0.11407	0.1261	0.19377	0.13788	0.12731	0.23798	0.17447	0.1459	0.15083	0.1689	0.064984	0.29035	0.17933	0.28553	0.19996	0.044342	-2.3479	-3.175	-3.1917	-2.7083	-3.4146	-2.9667	-2.7979	-3.6937	-2.6792	-3.1437	-3.5	-2.7021	-3.4062	-3.1063	-2.7792	-3.5646	238.695	356.031	245.140	189.120	383.123	306.572	395.041	450.595	472.585	260.506	190.282	486.039	447.642	519.673	359.618	450.903	0.00086969	0.00082806	0.00027249	1115.7	5.4275e-06	6.7492e-06	878.79	445.59	7.1264e-06	5.2291e-06	388.88	159.79	176.74	85.496	5.0984e-06	83.513	0.0011605	0.0012582	0.00034507	1050.2	1.3205e-05	1.3615e-05	833.13	420.32	1.3448e-05	1.3719e-05	369.94	151.98	168.08	81.587	1.3635e-05	79.667	267.754	238.342	282.049	178.095	371.426	324.489	176.440	183.614	311.228	358.870	181.302	185.790	188.001	192.642	305.778	189.705	-8191	255	
46167.746	1	1	0	0	0.2769	0.077961	0.11814	0.22394	0.12713	0.17709	0.094581	0.16447	0.068045	0.0010519	0.38033	0.05439	0.42368	0.11688	0.21421	0.27286	-2.3063	-3.025	-3.2708	-2.7375	-3.4979	-3.1833	-2.7958	-3.725	-2.7146	-2.8979	-3.5396	-2.6188	-3.55	-3.3063	-2.6583	-3.5792	183.913	404.195	502.198	513.482	479.424	394.412	186.882	470.752	238.074	180.000	492.191	419.167	490.803	237.105	263.064	486.931	0.00083483	0.00055338	0.00013186	1116.4	5.4631e-06	7.191e-06	885.8	444	4.4285e-06	9.0723e-06	393.31	160.56	177.05	85.567	1.2502e-05	83.566	0.0011765	0.0012444	0.00034934	1050.8	1.3153e-05	1.3613e-05	836.14	420.61	1.3392e-05	1.3558e-05	372.56	152.41	168.27	81.832	1.3158e-05	79.774	272.695	214.029	296.708	178.158	298.128	335.475	176.568	183.638	309.586	328.105	181.151	185.482	188.255	192.838	285.238	189.613	-8191	255	
46167.867	1	1	0	0	0.11457	0.19304	0.10657	0.46387	0.075041	0.25718	0.024641	0.23118	0.24877	0.18654	0.2302	0.12483	0.13164	0.21698	0.048886	0.25873	-2.4146	-2.7833	-3.425	-2.6354	-3.3146	-3.3875	-2.7375	-3.5667	-2.7583	-2.8438	-3.6542	-2.6833	-3.2021	-3.5771	-2.6063	-3.6437	288.664	281.880	417.008	480.371	281.161	267.926	236.201	407.444	488.219	267.828	431.441	421.184	376.606	498.421	296.907	470.072	0.00086294	0.001102	0.00027844	1113.7	1.6626e-06	8.6834e-06	891.97	445.34	7.9811e-06	7.8547e-06	394.59	162.21	179.21	86.567	9.1309e-06	85.429	0.0011414	0.0012424	0.00033705	1049.7	1.2969e-05	1.3395e-05	839.2	422.5	1.3269e-05	1.346e-05	374.82	154.04	170.24	82.813	1.3592e-05	81.179	268.938	247.682	241.787	177.938	363.779	299.220	176.518	183.449	353.230	319.930	181.329	185.443	187.987	192.689	307.934	189.304	-8191	255	
46167.965	1	1	0	0	0.076363	0.092814	0.13562	0.18484	0.37756	0.058983	0.30722	0.15387	0.16515	0.14995	0.15751	0.14018	0.050315	0.25108	0.12748	0.053921	-2.8875	-2.5979	-3.5542	-2.5625	-3.0896	-3.3542	-2.5396	-3.4479	-3.175	-2.7313	-3.5021	-2.8604	-3.0917	-3.7	-2.5167	-3.3667	412.169	276.742	456.670	507.193	238.171	514.837	484.167	484.366	194.316	280.377	405.441	391.988	338.740	201.627	449.814	380.012	0.00097875	0.00098921	0.00022589	1114.4	6.0013e-06	1.1338e-05	893.09	448.45	5.1754e-06	9.0083e-06	397.53	162.27	179.63	86.799	1.8761e-06	85.438	0.0011871	0.0012569	0.00034464	1051.4	1.3331e-05	1.3714e-05	840.95	424.41	1.3364e-05	1.3816e-05	376.25	154.63	170.78	83.091	1.3822e-05	81.637	271.990	247.468	241.946	178.089	310.512	309.212	176.670	183.583	287.909	301.691	181.031	185.738	188.115	192.633	279.944	189.596	-8191	255	
46168.062	1	1	0	0	0.046887	0.16667	0.10081	0.17116	0.25395	0.07357	0.25674	0.16091	0.13568	0.19167	0.21135	0.16459	0.31707	0.040826	0.10242	0.11925	-2.8375	-2.7	-3.3937	-2.8479	-3.0521	-3.2812	-2.6646	-3.4167	-3.2333	-2.6937	-3.6833	-2.8854	-2.9396	-3.5125	-2.725	-3.2417	341.559	393.548	497.505	518.349	525.446	426.239	174.040	175.996	507.662	486.199	174.919	216.438	524.527	297.942	521.406	343.008	0.00092739	0.00054255	0.00027981	1118.6	5.4264e-06	9.7987e-06	891.79	449.29	7.5205e-06	4.7512e-06	398.08	164.9	180.66	87.433	9.4274e-06	86.464	0.0012024	0.0012896	0.00035982	1054.1	1.3812e-05	1.3881e-05	841.11	425.73	1.3675e-05	1.4028e-05	377.45	156.59	171.7	83.758	1.4079e-05	82.49	270.740	247.855	237.534	178.367	312.837	291.663	176.512	183.431	317.763	323.122	181.245	185.804	188.184	193.125	295.988	189.449	-8191	255	
46168.156	1	1	0	0	0.15274	0.37084	0.10102	0.243	0.25614	0.15934	0.21538	0.31811	0.047088	0.34189	0.23642	0.2425	0.08298	0.1507	0.07978	0.035221	-2.7271	-2.4604	-3.4437	-3.1979	-2.7125	-3.5687	-2.7146	-3.2708	-3.3729	-2.5604	-3.3187	-3.1208	-3.0667	-3.5396	-2.5979	-3.1354	370.218	416.694	404.310	489.199	171.192	396.891	519.305	473.415	393.857	175.110	441.213	501.323	416.460	213.878	347.420	275.973	0.00093433	0.00057716	0.00013372	1114.2	6.2354e-06	8.4775e-06	899.05	448.71	9.1603e-06	7.1141e-06	399.27	165.28	181.36	88.201	7.1819e-06	86.857	0.0012119	0.0012773	0.00035589	1052.4	1.3421e-05	1.388e-05	842.67	425.77	1.3741e-05	1.3963e-05	378.42	156.67	172.39	84.087	1.3807e-05	82.795	269.469	258.062	269.179	177.847	260.257	294.224	176.740	183.623	326.739	322.564	181.055	185.496	188.319	192.781	340.234	189.637	-8191	255	
46168.254	1	1	0	0	0.10644	0.084145	0.33853	0.26423	0.16108	0.21229	0.2726	0.13894	0.10672	0.16643	0.14423	0.23908	0.32319	0.16502	0.15767	0.12622	-3.0375	-2.4833	-3.2667	-3.1229	-2.7083	-3.3937	-2.7458	-3.0583	-3.4813	-2.6104	-3.4542	-3.2208	-2.8708	-3.6771	-2.9021	-3.0021	423.265	522.615	190.125	215.484	237.267	347.523	428.401	463.369	392.162	248.692	231.460	420.153	477.574	458.287	306.077	204.525	0.00095519	0.00062505	0.00022109	1111.7	7.7767e-06	7.0262e-06	896.29	449.28	7.6055e-06	9.9623e-06	399.3	165.74	181.21	88.55	1.3376e-05	87.174	0.0012139	0.0012905	0.00036275	1050.2	1.3767e-05	1.4113e-05	842.2	425.94	1.3465e-05	1.4072e-05	378.87	157.97	172.32	84.495	1.3878e-05	83.248	271.222	268.414	278.500	178.373	350.202	348.630	176.499	183.569	294.878	329.535	181.379	185.377	188.224	192.979	319.781	189.419	-8191	255	
46168.352	1	1	0	0	0.30243	0.067012	0.098011	0.24362	0.123	0.20979	0.12858	0.35996	0.12892	0.054302	0.26384	0.18904	0.13181	0.19188	0.23888	0.085632	-3.0604	-2.8021	-3.2417	-3.2833	-2.5292	-3.3292	-2.8812	-2.9667	-3.5208	-2.6917	-3.2979	-3.3063	-2.5792	-3.7729	-2.9625	-2.9021	361.808	451.185	176.620	476.300	359.352	181.515	252.697	466.986	174.850	260.000	397.097	433.029	466.767	516.169	179.431	466.152	0.00095377	0.0010369	0.0001988	1117.4	1.4994e-05	3.6433e-06	894.76	451.96	4.2225e-06	1.4136e-05	400.85	166.44	182.09	88.708	5.3566e-06	87.604	0.001186	0.0012649	0.0003524	1051.3	1.3517e-05	1.404e-05	841.48	426.26	1.3574e-05	1.3935e-05	380.32	157.96	173.02	84.64	1.3339e-05	83.584	268.651	266.201	258.534	178.082	322.100	352.710	176.703	183.360	285.430	339.772	181.323	185.668	188.085	192.936	337.782	189.665	-8191	255	
46168.469	1	1	0	0	0.066183	0.20226	0.15293	0.15811	0.17541	0.1369	0.30218	0.16205	0.056869	0.18173	0.067613	0.26143	0.33857	0.10349	0.092171	0.23422	-3.1625	-2.4667	-3.0854	-3.2896	-2.4938	-3.2417	-3.1042	-2.8812	-3.5292	-2.625	-3.0625	-3.3458	-2.7792	-3.5354	-3.0375	-2.8604	425.054	516.857	254.006	441.840	310.367	200.041	501.968	424.923	425.938	173.345	187.443	315.748	496.117	496.434	469.487	462.739	0.00089583	0.0005873	0.00026762	1116.6	6.8393e-06	8.9408e-06	896.63	451.37	4.4055e-06	9.2314e-06	402.09	166.49	182.97	88.706	9.3413e-06	88.172	0.001174	0.0012243	0.00034668	1051.4	1.2941e-05	1.3753e-05	843.9	426.88	1.3217e-05	1.3743e-05	380.88	158.14	173.16	84.843	1.3345e-05	83.738	269.530	291.092	257.770	178.048	353.103	325.750	176.493	183.830	321.322	327.726	180.952	185.706	188.066	193.007	299.256	189.549	-8191	255	
46168.566	1	1	0	0	0.031271	0.071253	0.25428	0.31257	0.21475	0.14207	0.26124	0.33219	0.16301	0.35962	0.069818	0.23534	0.22275	0.17083	0.11759	0.16096	-3.2146	-2.7896	-2.9646	-3.4479	-2.4646	-3.2625	-3.2354	-2.9313	-3.3312	-2.6396	-2.9938	-3.5521	-2.7562	-3.3479	-3.1937	-2.725	298.057	493.268	451.483	520.054	306.616	509.580	445.114	478.926	513.344	175.305	213.093	173.172	406.777	445.524	341.111	408.832	0.00088998	0.00052301	0.00026818	1109.8	1.2384e-05	2.4332e-06	896.91	449.24	9.4759e-06	3.886e-06	398.54	166.1	181.78	88.756	6.4931e-06	86.911	0.00118	0.0012367	0.0003405	1050.2	1.3116e-05	1.3496e-05	841.11	425.14	1.3227e-05	1.3653e-05	377.19	157.34	172.44	84.554	1.3479e-05	82.867	264.887	264.370	295.391	178.113	334.080	263.488	176.499	183.566	342.631	301.321	181.221	185.598	188.291	192.782	301.206	189.451	-8191	255	
46168.660	1	1	0	0	0.15143	0.21799	0.327	0.36686	0.14763	0.10149	0.11587	0.27781	0.041598	0.2608	0.23406	0.073861	0.13202	0.18532	0.10801	0.17376	-3.0792	-2.8333	-2.7667	-3.6396	-2.7625	-3.125	-3.2146	-2.7062	-3.4	-2.7729	-2.9688	-3.4188	-2.7146	-3.3312	-3.3187	-2.7083	323.908	356.569	351.437	493.478	255.307	334.467	172.044	453.303	208.026	192.600	455.938	386.602	175.353	172.480	491.768	488.625	0.00092171	0.00058893	0.00027086	1118	5.3713e-06	8.9622e-06	889.49	446.57	7.6184e-06	8.184e-06	398.25	165.69	181.31	89.037	8.3168e-06	87.316	0.0011864	0.0012576	0.00035064	1050.7	1.3743e-05	1.3712e-05	837.86	424.12	1.3475e-05	1.372e-05	377.16	157.48	172.5	84.794	1.3677e-05	83.48	269.796	239.276	259.687	177.987	332.808	319.404	176.705	183.386	323.046	308.788	181.174	185.517	187.903	192.984	305.339	189.533	-8191	255	
46168.758	1	1	0	0	0.065309	0.2062	0.20327	0.08882	0.33378	0.091374	0.29986	0.23257	0.18439	0.33632	0.17072	0.046196	0.12653	0.19861	0.31369	0.18511	-3.1479	-2.9313	-2.6042	-3.7104	-2.6063	-2.9333	-3.3063	-2.7083	-3.1333	-3.175	-2.55	-3.5375	-3.0292	-3.1146	-3.2458	-2.5938	301.806	426.604	462.528	205.253	432.602	443.609	464.317	437.249	525.322	190.843	216.567	523.684	427.393	476.438	192.282	392.866	0.00098149	0.00038	0.00013322	1113	9.0275e-06	5.6909e-06	891.43	450.19	7.5212e-06	8.2037e-06	399.07	165.37	182.24	88.868	7.8268e-06	87.679	0.0012002	0.0012838	0.00035027	1048	1.359e-05	1.3882e-05	840	425.42	1.3628e-05	1.4011e-05	378.92	157.92	172.78	84.971	1.3949e-05	83.74	268.837	296.687	300.660	178.095	326.784	303.495	176.747	183.556	321.246	296.443	181.019	185.576	188.320	192.945	304.148	189.484	-8191	255	
46168.852	1	1	0	0	0.18115	0.069799	0.19442	0.20117	0.23893	0.080641	0.1447	0.2049	0.17093	0.11602	0.30168	0.19232	0.26758	0.0082173	0.030703	0.065974	-3.0271	-3.0021	-2.6937	-3.6083	-2.85	-2.7771	-3.4208	-2.5958	-3.2646	-3.2687	-2.6583	-3.5792	-3.0792	-2.8438	-3.4854	-2.85	321.561	291.332	226.252	468.025	172.710	420.642	409.097	437.739	406.030	327.412	440.563	522.733	503.723	339.003	427.271	517.939	0.00095007	0.00099704	0.00024225	1119.8	7.9234e-06	1.2268e-05	891.53	449.5	9.3138e-06	5.4775e-06	399.06	166.83	182.16	89.436	7.9626e-06	88.322	0.0012121	0.0012713	0.00036296	1052.3	1.3529e-05	1.3953e-05	839.92	425.59	1.3781e-05	1.4062e-05	379.43	158.57	173.56	85.454	1.4117e-05	84.208	271.940	251.583	256.597	178.207	288.299	308.460	176.713	183.553	349.154	309.612	181.254	185.401	188.070	192.860	292.050	189.467	-8191	255	
46168.949	1	1	0	0	0.24174	0.22414	0.21727	0.32811	0.17705	0.094779	0.07759	0.43236	0.20471	0.12661	0.040437	0.47538	0.30097	0.3821	0.12853	0.16292	-2.9708	-3.2458	-2.6083	-3.5583	-3.0021	-2.8271	-3.5771	-2.7417	-2.9354	-3.4917	-2.7896	-3.5167	-3.1	-2.8271	-3.525	-2.6729	324.428	432.034	279.108	170.051	454.361	383.982	363.078	455.539	204.140	346.325	429.845	497.070	521.443	520.796	500.991	325.187	0.00094789	0.00058155	0.00014865	1116.1	9.7674e-06	6.8144e-06	888.82	447.95	9.6269e-06	7.1242e-06	399.07	165.48	181.75	89.077	1.0434e-05	87.963	0.0012135	0.0012891	0.00036289	1050.2	1.3885e-05	1.4304e-05	836.7	424.63	1.3855e-05	1.41e-05	378	157.73	172.9	85.051	1.3848e-05	83.656	267.969	266.569	261.722	178.365	299.110	272.863	177.018	183.544	336.332	336.437	181.225	185.640	188.157	192.918	306.759	189.439	-8191	255	
46169.047	1	1	0	0	0.16858	0.295	0.15471	0.12844	0.052603	0.12642	0.048619	0.33277	0.086546	0.1351	0.28224	0.21214	0.32006	0.15517	0.037146	0.17624	-2.4583	-3.475	-2.3646	-3.5146	-3.0583	-2.6688	-3.4437	-3.0042	-2.6729	-3.2812	-2.5271	-3.3333	-3.3375	-2.9042	-3.45	-2.8354	174.483	493.346	446.987	369.676	271.962	523.938	285.960	424.936	514.421	237.562	483.067	166.675	518.517	447.765	263.252	410.321	0.00098457	0.00019965	0.00016065	1114.5	5.6594e-06	8.4432e-06	889.91	450.15	5.0364e-06	4.038e-06	399.03	166.34	181.09	88.763	6.5291e-06	88.121	0.0012105	0.0012455	0.00034962	1046.5	1.3218e-05	1.3673e-05	837.1	424.32	1.3334e-05	1.3451e-05	377.66	158.11	172.5	84.797	1.3397e-05	83.659	268.626	209.906	286.381	178.003	317.776	354.538	176.947	183.370	328.144	374.672	181.200	185.411	188.048	192.976	265.636	189.568	-8191	255	
46169.164	1	1	0	0	0.22423	0.027137	0.23367	0.11391	0.077644	0.13025	0.11858	0.25303	0.11435	0.033745	0.1346	0.06793	0.16493	0.30772	0.1428	0.37424	-2.4042	-3.2521	-2.3708	-3.2313	-3.1583	-2.5854	-3.6375	-3.0521	-2.7938	-3.4562	-2.6583	-3.25	-3.4021	-2.6292	-3.3104	-3.1979	350.872	334.521	358.585	495.535	472.990	521.906	479.483	463.991	447.538	325.124	330.023	249.499	480.849	450.601	283.492	502.890	0.00087553	0.00041055	0.00017064	1112.2	7.01e-06	7.2709e-06	893.9	448.11	4.1284e-06	5.9661e-06	402	168.17	183.01	89.304	4.8019e-06	88.548	0.0011756	0.0012432	0.00034491	1047.5	1.3223e-05	1.3865e-05	839.81	424.88	1.3464e-05	1.383e-05	380.94	159.42	173.55	85.418	1.3967e-05	84.543	270.402	229.110	278.970	178.330	307.162	314.466	176.832	183.657	307.951	331.079	181.031	185.529	187.987	193.015	295.242	189.493	-8191	255	
46169.262	1	1	0	0	0.26225	0.16794	0.064158	0.18882	0.12744	0.20062	0.075794	0.33809	0.13672	0.13578	0.18965	0.16994	0.21253	0.32128	0.11535	0.17634	-2.5625	-3.3292	-2.9188	-3.1708	-3.4125	-2.55	-3.4708	-3.2083	-2.4313	-3.3688	-2.7812	-2.9188	-3.4437	-2.6729	-3.2604	-3.1167	265.735	248.484	463.978	496.968	226.173	324.309	498.728	483.520	216.288	480.692	506.171	398.765	192.342	454.461	394.140	389.350	0.00088749	0.00093527	0.00023744	1113.6	5.3935e-06	2.896e-06	894.66	451.35	5.993e-06	3.8431e-06	403.08	168.2	183.42	90.057	8.2753e-06	89.066	0.0012282	0.0012958	0.00036475	1051	1.3798e-05	1.438e-05	843.16	426.67	1.3831e-05	1.4376e-05	381.12	160.22	174.29	85.804	1.4294e-05	84.852	266.378	278.018	299.184	178.412	325.026	323.146	176.973	183.516	316.195	339.418	181.012	185.659	188.312	192.900	306.989	189.583	-8191	255	
46169.355	1	1	0	0	0.17829	0.073761	0.19177	0.27456	0.11673	0.22735	0.089695	0.045059	0.13929	0.15924	0.22713	0.068127	0.22741	0.34374	0.19558	0.25938	-2.1792	-3.2896	-2.7562	-2.9958	-3.3458	-2.6458	-3.2083	-3.3438	-2.6854	-3.4229	-3.0062	-3.0583	-3.6104	-2.6854	-3.2792	-3.2875	329.425	342.953	330.615	525.559	378.332	333.701	472.365	190.697	269.873	199.339	431.992	398.908	214.741	492.906	497.048	442.549	0.00096216	0.00055197	0.00024864	1111.8	7.9227e-06	7.4652e-06	890.88	450.31	4.9363e-06	3.2166e-06	398.38	167.2	182.92	89.389	1.2626e-05	88.174	0.0012515	0.0013539	0.00037008	1049.2	1.4438e-05	1.4749e-05	836.23	426.45	1.4719e-05	1.5104e-05	378.18	159.1	173.7	85.539	1.4344e-05	84.165	265.979	222.865	262.348	178.235	351.343	331.109	176.632	183.805	299.173	234.339	181.284	186.017	188.149	192.991	316.978	189.680	-8191	255	
46169.453	1	1	0	0	0.35444	0.09067	0.029255	0.16437	0.25974	0.20001	0.11124	0.33956	0.028446	0.073348	0.19863	0.12043	0.20128	0.50555	0.063624	0.25036	-2.2271	-3.3167	-2.9083	-2.8729	-3.3583	-2.7188	-3.2104	-3.35	-2.5708	-3.2729	-3.0625	-2.6646	-3.6125	-2.8167	-2.9208	-3.5708	399.352	522.410	239.158	413.017	258.416	207.597	426.716	492.084	307.168	470.496	452.624	339.370	513.125	525.597	419.922	484.184	0.00095824	0.00048434	0.000173	1108.1	6.5752e-06	1.0439e-05	890.14	449.13	7.5296e-06	7.9013e-06	397.94	166.1	182.91	89.56	8.7753e-06	89.097	0.0012522	0.0013136	0.00036397	1046.7	1.3901e-05	1.4198e-05	834.26	424.94	1.387e-05	1.4149e-05	378.84	158.67	173.5	85.478	1.3949e-05	84.523	269.586	212.050	280.966	178.386	285.949	292.345	176.765	183.770	352.966	317.306	180.882	185.721	188.069	192.960	293.083	189.535	-8191	255	
46169.551	1	1	0	0	0.12416	0.075835	0.046353	0.29929	0.19254	0.17558	0.23707	0.14872	0.21803	0.20228	0.16625	0.35211	0.25357	0.35466	0.075718	0.16464	-2.1458	-3.1854	-2.8792	-2.65	-3.4229	-2.7646	-3.2208	-3.5292	-2.6229	-3.3896	-3.0708	-2.7208	-3.6333	-2.9125	-2.9375	-3.4979	325.612	279.374	520.734	503.490	412.691	418.596	486.137	334.154	203.300	340.993	334.045	482.735	183.549	515.336	416.330	522.830	0.0009452	0.00043669	0.00033371	1106.8	7.0356e-06	1.0671e-05	886.3	447.11	6.2463e-06	1.1199e-05	394.59	164.33	180.73	88.184	6.765e-06	87.765	0.0012114	0.0012634	0.00035068	1045	1.2973e-05	1.3658e-05	835.15	423.4	1.3094e-05	1.3184e-05	376.12	156.73	171.78	84.223	1.3282e-05	83.575	273.194	283.866	243.887	178.234	338.485	340.250	176.659	183.587	337.427	326.292	181.325	185.686	188.161	192.804	288.595	189.705	-8191	255	
46169.645	1	1	0	0	0.2013	0.24973	0.20144	0.074006	0.11487	0.47883	0.068849	0.12459	0.29727	0.041236	0.39048	0.26632	0.46765	0.28088	0.043423	0.22444	-2.1312	-3.1833	-3.0729	-2.5958	-3.3354	-2.6875	-2.9562	-3.5792	-2.6833	-3.3187	-3.2833	-2.5958	-3.6042	-3.0604	-2.5687	-3.6021	186.330	429.904	185.281	249.005	216.061	307.757	347.375	514.001	207.088	231.147	525.754	452.029	508.768	492.816	479.707	203.887	0.00092179	0.00087367	0.0003174	1110	5.8652e-06	1.0887e-05	891.05	448.63	7.4663e-06	4.3759e-06	396.04	164.99	181.54	88.229	6.6156e-06	86.72	0.0011973	0.0012359	0.00034706	1047.1	1.3664e-05	1.4126e-05	837.55	424.84	1.3883e-05	1.3901e-05	376.39	157.01	172.24	84.283	1.3768e-05	82.896	270.630	282.422	240.520	178.391	358.229	307.653	176.731	183.762	351.173	285.957	181.059	185.850	188.238	192.934	315.315	189.511	-8191	255	
46169.742	1	1	0	0	0.086815	0.10601	0.12739	0.24624	0.058494	0.062451	0.27919	0.25455	0.044398	0.18947	0.11262	0.083102	0.13327	0.0053071	0.15778	0.18397	-2.2354	-3.2979	-3.3458	-2.6333	-3.3708	-2.975	-2.7938	-3.7188	-2.7229	-3.0396	-3.4083	-2.5875	-3.3917	-2.9125	-2.6063	-3.4062	446.989	481.040	238.906	496.666	462.412	517.525	468.818	464.758	405.879	270.750	522.106	508.066	425.837	455.452	336.289	222.341	0.0009128	0.00097665	0.00017974	1107.9	8.8496e-06	8.3066e-06	883.56	446.63	6.3878e-06	8.9989e-06	391.35	163.55	179.98	87.698	7.2815e-06	86.008	0.0011965	0.0012685	0.00035384	1045.4	1.3322e-05	1.3895e-05	832.19	422.92	1.3653e-05	1.3852e-05	372.57	155.33	170.84	83.657	1.4029e-05	82.319	272.404	237.014	258.431	178.258	328.260	322.762	177.147	183.798	334.480	319.346	181.221	185.727	188.110	193.131	314.116	189.413	-8191	255	
46169.840	1	1	0	0	0.13476	0.19191	0.15149	0.1378	0.38058	0.16173	0.10466	0.21668	0.066365	0.063042	0.12908	0.17038	0.20275	0.1984	0.046594	0.19897	-2.3917	-2.9042	-3.2542	-2.5417	-3.2458	-3.2396	-2.6625	-3.4875	-2.7708	-2.8875	-3.4271	-2.6813	-3.2583	-3.2146	-2.6458	-3.5333	280.388	420.990	419.382	514.174	370.253	495.668	349.029	460.989	468.929	466.181	433.449	414.969	170.486	514.499	453.249	464.396	0.00091931	0.00026606	0.0002776	1109	1.2479e-05	3.0703e-06	882.31	448.05	8.0081e-06	3.737e-06	395.16	164.03	180.29	87.656	6.3263e-06	86.83	0.0012281	0.0013023	0.00036483	1045.7	1.43e-05	1.4583e-05	832	423.33	1.4817e-05	1.4834e-05	374.8	155.89	171.19	83.749	1.4572e-05	82.495	268.466	266.045	214.204	178.396	324.322	330.221	177.177	183.852	320.296	331.509	181.375	185.893	188.237	192.870	323.010	189.500	-8191	255	
46169.957	1	1	0	0	0.047441	0.13577	0.13532	0.16529	0.084719	0.16377	0.22741	0.13737	0.1637	0.0834	0.052241	0.059732	0.33096	0.39537	0.039365	0.31763	-2.425	-2.9854	-3.4729	-2.8229	-3.2375	-3.0938	-2.6396	-3.5708	-2.8396	-2.5146	-3.5417	-2.6667	-3.1521	-3.5375	-2.5229	-3.4104	435.379	248.085	496.319	514.224	197.300	455.236	170.677	214.046	469.022	507.946	409.072	213.453	166.751	503.527	520.338	518.121	0.0009096	0.00053782	0.00032111	1112.2	5.1583e-06	7.7921e-06	880.85	445.62	8.5595e-06	5.1341e-06	392.43	162.8	179.04	87.975	6.8239e-06	87.057	0.0012704	0.0013331	0.00037375	1047	1.4186e-05	1.4727e-05	830.74	422.54	1.4381e-05	1.4671e-05	373.29	155.27	170.73	83.954	1.4869e-05	82.892	270.532	276.839	251.762	178.360	283.564	371.218	176.621	183.642	350.903	293.698	181.100	185.784	188.238	193.072	329.748	189.538	-8191	255	
46170.055	1	1	0	0	0.15667	0.21688	0.098798	0.33742	0.13285	0.13566	0.19306	0.14492	0.33568	0.30918	0.17919	0.14808	0.21472	0.15832	0.12732	0.22178	-2.5271	-2.5458	-3.3333	-2.8375	-2.9479	-3.3479	-2.5125	-3.5167	-3.1229	-2.6813	-3.4021	-2.9292	-3.0333	-3.6375	-2.5146	-3.2833	441.600	348.985	261.649	446.961	425.150	259.518	415.246	496.657	464.941	402.899	427.099	510.665	447.381	523.923	351.677	462.911	0.00097635	0.00051639	0.00023179	1113.5	9.8329e-06	1.9606e-06	880.16	446.92	5.5933e-06	8.9029e-06	393.28	163.89	180.63	88.389	9.9862e-06	87.122	0.0013176	0.0014058	0.0003944	1049.6	1.5013e-05	1.5505e-05	830.04	424.38	1.5069e-05	1.545e-05	374.2	156.06	172.17	84.638	1.5221e-05	83.078	267.638	246.933	278.624	178.465	330.676	322.409	176.919	184.179	334.701	317.359	181.423	185.729	188.403	192.978	280.740	189.892	-8191	255	
46170.148	1	1	0	0	0.16737	0.08012	0.14993	0.17903	0.34701	0.13283	0.029687	0.078733	0.23403	0.23492	0.15719	0.40388	0.32319	0.21038	0.15497	0.11677	-2.7271	-2.7	-3.2521	-2.8667	-2.95	-3.3958	-2.5917	-3.4604	-3.0104	-2.7417	-3.4396	-2.8667	-2.7313	-3.4958	-2.6583	-3.2667	375.088	500.527	340.739	441.524	238.533	421.347	285.348	490.513	460.483	184.274	389.210	170.550	208.892	219.571	404.222	370.493	0.001008	0.00082625	0.00042842	1111.4	7.5124e-06	9.9922e-06	877.49	449.28	9.3047e-06	6.7556e-06	391.93	163.26	181.25	88.342	8.8968e-06	86.264	0.0013322	0.0014375	0.0004006	1048.5	1.551e-05	1.6112e-05	825.17	424.68	1.573e-05	1.5783e-05	372.62	155.15	171.91	84.486	1.5523e-05	82.438	268.479	271.829	284.696	178.322	310.998	281.370	176.989	183.842	326.654	325.039	181.334	185.625	188.165	193.237	288.989	189.767	-8191	255	
46170.246	1	1	0	0	0.053921	0.078476	0.14483	0.23785	0.11179	0.18397	0.16395	0.090292	0.069568	0.045771	0.10321	0.26115	0.12861	0.34926	0.24689	0.19249	-2.8833	-2.6167	-3.3854	-3.0125	-2.5687	-3.3187	-2.7	-3.1208	-3.3	-2.5	-3.3854	-3.2146	-2.9271	-3.575	-2.5792	-3.2042	411.458	505.653	465.766	431.433	189.557	283.909	240.279	398.821	187.087	423.767	513.806	252.009	323.972	516.148	463.647	171.338	0.00093313	0.00066798	0.00025119	1106.8	9.5808e-06	8.004e-06	870.85	447.02	1.1368e-05	1.072e-05	390.74	161.65	179.38	87.805	2.7373e-06	86.035	0.001321	0.0014234	0.00040003	1045.7	1.538e-05	1.5748e-05	823.8	423.66	1.522e-05	1.5489e-05	371.01	153.86	170.78	83.889	1.5191e-05	82.147	268.319	247.229	236.034	178.470	288.164	370.449	176.588	183.956	311.991	294.793	181.573	185.819	188.189	192.836	296.575	189.661	-8191	255	
46170.340	1	1	0	0	0.12274	0.14003	0.04903	0.26533	0.07557	0.17999	0.14928	0.13362	0.064181	0.060118	0.035035	0.16126	0.080413	0.33764	0.092895	0.065993	-2.9458	-2.5187	-3.2458	-3.3708	-2.7708	-3.4729	-3.0042	-3.1875	-3.3917	-2.5583	-3.3917	-3.4229	-2.7292	-3.5375	-2.725	-3.0271	471.175	271.016	491.027	500.192	327.129	314.983	469.356	513.046	440.571	268.555	170.297	265.096	254.105	459.569	172.965	422.214	0.0009622	0.0011527	0.00028644	1109.5	1.2628e-05	1.7735e-05	872.94	445.23	5.6028e-06	1.0144e-05	390.39	161.76	179.59	87.684	9.6107e-06	85.898	0.001304	0.0014329	0.00039391	1045.6	1.5266e-05	1.5917e-05	822.77	421.81	1.5066e-05	1.5656e-05	370.65	154.02	170.62	83.897	1.5674e-05	82.053	270.058	265.668	270.429	178.488	301.850	321.715	177.193	183.951	336.520	276.075	181.298	185.922	188.328	193.142	346.886	189.583	-8191	255	
46170.438	1	1	0	0	0.21061	0.097336	0.13332	0.23552	0.2406	0.28559	0.12234	0.077291	0.10217	0.067694	0.22701	0.41496	0.37661	0.21397	0.069403	0.084896	-3.0542	-2.5083	-2.9771	-3.2104	-2.3688	-3.5438	-2.7938	-2.9417	-3.3937	-2.6312	-3.1667	-3.1958	-2.6	-3.5333	-2.8604	-2.7375	243.861	194.590	198.557	496.881	239.374	512.840	442.738	503.012	242.829	364.284	424.123	472.441	481.003	514.822	244.471	312.377	0.00090475	0.00062184	0.00024533	1109	1.0879e-05	4.1682e-06	867.4	446.54	8.6817e-06	4.5801e-06	390.71	160.88	179.48	87.569	1.0429e-05	85.52	0.0013085	0.0014436	0.00039599	1046.1	1.5057e-05	1.5489e-05	820.59	422.28	1.4842e-05	1.5192e-05	368.94	153.34	170.67	83.784	1.512e-05	81.518	270.410	263.668	244.838	178.626	304.580	322.810	176.917	183.842	356.811	342.186	181.266	185.777	188.224	193.090	328.086	189.778	-8191	255	
46170.559	1	1	0	0	0.14549	0.13325	0.056834	0.34566	0.13988	0.095902	0.24831	0.11236	0.08217	0.094539	0.2024	0.1291	0.16759	0.32609	0.1411	0.05325	-3.0833	-2.6125	-3.0625	-3.4313	-2.4646	-3.4229	-3.1063	-2.7188	-3.4792	-2.8167	-3.125	-3.3021	-2.7042	-3.4542	-3	-2.5958	524.935	515.556	330.114	401.170	252.066	214.636	419.182	468.168	417.507	422.584	439.875	305.319	451.637	497.865	378.024	446.895	0.00099406	0.0011623	0.00032136	1105.7	3.8746e-06	5.3401e-06	867.11	443.49	5.6328e-06	7.6833e-06	386.6	160.72	178.91	87.589	6.6537e-06	85.876	0.0012942	0.001405	0.00038441	1043.3	1.4812e-05	1.5348e-05	817.98	420.39	1.4972e-05	1.5288e-05	367.46	152.84	170.2	83.831	1.5141e-05	81.772	270.287	232.121	261.897	178.473	234.858	293.525	177.070	183.895	337.209	301.819	181.399	186.137	188.290	193.174	316.527	189.671	-8191	255	
46170.652	1	1	0	0	0.4304	0.08964	0.030449	0.355	0.10389	0.10384	0.11671	0.27342	0.055314	0.16501	0.28894	0.097401	0.28732	0.29642	0.2411	0.18523	-3.0583	-2.7188	-2.8375	-3.45	-2.5792	-3.1042	-3.1562	-2.7542	-3.3604	-2.9854	-3.0542	-3.5625	-2.8	-3.4167	-3.0417	-2.7938	292.283	251.031	385.274	523.685	520.529	306.586	394.436	179.568	251.330	393.874	480.095	494.635	481.160	517.975	473.585	445.468	0.00095014	0.0010528	0.00013391	1102	2.5612e-06	8.1172e-06	869.4	445.37	1.0914e-05	4.0152e-06	386.4	160.72	178.65	87.296	6.1014e-06	85.361	0.001278	0.0013992	0.00038784	1042	1.4899e-05	1.5053e-05	818.28	421	1.495e-05	1.5032e-05	367.72	153.05	169.93	83.637	1.5096e-05	81.651	271.142	269.294	300.921	178.492	202.325	306.192	176.698	183.931	321.289	362.984	181.449	185.941	188.342	193.254	318.047	189.753	-8191	255	
46170.750	1	1	0	0	0.26249	0.13224	0.13185	0.17734	0.42893	0.31474	0.15716	0.095086	0.22596	0.081428	0.089199	0.2069	0.41939	0.24237	0.17217	0.28342	-2.9771	-2.9042	-2.7354	-3.6229	-2.6021	-3.3042	-3.5583	-2.6667	-3.4125	-3.0333	-2.65	-3.525	-2.7438	-3.2271	-3.3042	-2.6437	474.998	395.030	300.774	442.242	189.903	271.052	439.696	408.820	462.323	282.179	376.780	339.646	167.912	178.893	404.298	459.318	0.00097503	0.000667	0.00015047	1099.5	1.4272e-06	5.123e-06	869.72	445.82	5.0398e-06	8.859e-06	388.09	161.55	178.92	87.403	1.0289e-05	85.524	0.0012805	0.0013901	0.0003836	1041.2	1.4666e-05	1.53e-05	820.27	420.99	1.4908e-05	1.5323e-05	368.09	153.26	170.07	83.655	1.5018e-05	81.769	270.355	282.829	198.134	178.384	468.794	286.924	176.651	184.024	312.878	345.894	181.579	185.903	188.288	193.341	285.853	189.840	-8191	255	
46170.820	1	1	0	0	0.069281	0.20011	0.20141	0.083236	0.073697	0.23578	0.044547	0.08936	0.020517	0.096215	0.39344	0.25404	0.27011	0.17557	0.039471	0.099681	-2.9083	-2.9542	-2.7896	-3.5	-2.6417	-2.8917	-3.3354	-2.725	-3.3979	-3.0229	-2.7104	-3.5333	-2.875	-3.1083	-3.4479	-2.6771	202.151	305.464	388.193	185.967	396.508	397.054	191.423	204.784	252.244	337.264	190.156	444.472	504.068	517.836	444.078	411.916	0.00087451	0.00058816	0.00038512	1107.3	5.9153e-06	1.2415e-05	868.94	446.01	6.6114e-06	6.2665e-06	386.83	160.46	178.55	87.786	7.0931e-06	85.541	0.0012805	0.0013839	0.00037912	1044.1	1.4613e-05	1.5301e-05	818.88	421.36	1.4951e-05	1.507e-05	367.85	153.08	170.47	83.669	1.498e-05	81.585	265.873	248.361	258.248	178.739	315.950	315.689	176.755	183.582	339.803	303.687	181.375	185.986	188.291	193.069	318.014	189.922	-8191	255	
46170.941	1	1	0	0	0.27099	0.33121	0.11897	0.24703	0.30348	0.19333	0.033692	0.26832	0.15186	0.10518	0.21541	0.24267	0.26233	0.38352	0.24872	0.11755	-2.8958	-3.0792	-2.5125	-3.5625	-2.5854	-2.8833	-3.2917	-2.5833	-3.0708	-3.3375	-2.6375	-3.5125	-2.9917	-2.8312	-3.5	-2.6063	179.916	177.909	450.592	510.224	197.137	431.996	369.990	481.658	311.808	412.931	495.430	440.088	500.590	496.293	185.734	416.825	0.00090457	0.00087316	0.00037243	1108	3.2016e-06	7.5203e-06	867.79	446.14	4.7505e-06	5.0493e-06	388.67	161.62	179.09	88.048	7.1697e-06	86.183	0.0013183	0.0013851	0.00038934	1044.7	1.514e-05	1.5543e-05	819.28	422.06	1.5392e-05	1.569e-05	369.67	153.68	170.85	84.192	1.5688e-05	82.205	265.993	228.697	276.591	178.595	303.065	317.395	177.020	183.910	323.575	333.306	181.681	186.208	188.404	193.266	339.221	189.873	-8191	255	
46171.039	1	1	0	0	0.16459	0.1494	0.11345	0.28498	0.41372	0.092646	0.075319	0.27932	0.20784	0.050477	0.21056	0.22295	0.21547	0.24762	0.27824	0.10193	-2.7917	-3.2458	-2.6396	-3.4979	-2.7958	-2.6562	-3.4271	-2.6417	-3.0875	-3.2958	-2.5375	-3.3438	-3.2729	-2.875	-3.4083	-2.7542	406.368	351.130	486.144	470.277	362.599	514.074	394.832	499.196	243.067	471.565	512.827	500.165	215.510	482.081	484.496	486.424	0.00092055	0.00056811	0.00013105	1102.9	1.302e-05	9.4762e-06	871.81	446.26	8.8037e-06	6.4253e-06	389.53	162.4	180.08	88.624	5.0566e-06	87.168	0.0013402	0.0014587	0.00040529	1045.4	1.5415e-05	1.614e-05	821.23	422.93	1.5614e-05	1.5884e-05	370.94	155.1	171.79	84.826	1.5729e-05	83.073	269.928	296.115	234.856	178.786	347.234	305.730	177.055	183.830	347.417	304.785	181.573	186.135	188.415	193.295	351.545	189.863	-8191	255	
46171.137	1	1	0	0	0.11965	0.13213	0.038175	0.32291	0.012084	0.2408	0.17067	0.16332	0.043741	0.078362	0.25934	0.097944	0.28341	0.28047	0.16686	0.20543	-2.4688	-3.2917	-2.5417	-3.3917	-2.8937	-2.7375	-3.625	-2.9271	-2.8583	-3.4146	-2.6833	-3.3063	-3.0958	-2.7667	-3.4125	-3	315.827	332.305	326.687	450.492	184.073	279.177	353.625	423.975	296.765	512.304	239.632	360.156	456.502	510.236	197.755	415.648	0.00092338	0.00043272	0.00015817	1111.8	9.1305e-06	7.3198e-06	871.11	448.71	5.2124e-06	1.0389e-05	393.29	164.12	181.5	88.962	7.6396e-06	87.729	0.0013672	0.0014621	0.000416	1050.8	1.5741e-05	1.6453e-05	827.04	425.68	1.5765e-05	1.6197e-05	373.56	156.32	172.76	85.219	1.6441e-05	83.588	273.707	361.086	210.990	178.667	338.427	332.786	177.300	183.939	343.391	323.272	181.434	186.042	188.336	193.456	300.156	189.814	-8191	255	
46171.230	1	1	0	0	0.1609	0.24316	0.12793	0.043175	0.17987	0.18532	0.087575	0.2013	0.22103	0.066882	0.25904	0.15956	0.29891	0.43117	0.31952	0.25244	-2.4625	-3.3	-2.575	-3.3708	-3.1917	-2.5771	-3.4583	-3.1542	-2.8146	-3.4271	-2.7604	-3.1625	-3.3854	-2.8083	-3.2354	-3.2542	434.894	224.699	486.072	378.563	395.936	439.581	427.591	509.789	470.839	232.199	434.520	183.437	519.847	188.168	356.795	479.227	0.00095211	0.00063776	0.00025951	1116.3	1.281e-05	6.0616e-06	875.42	449.56	6.9097e-06	9.0621e-06	390.66	163.87	181.45	89.266	8.8445e-06	86.869	0.0013814	0.0015102	0.00042389	1053.3	1.6067e-05	1.6603e-05	827.77	425.6	1.6294e-05	1.671e-05	372.25	155.9	172.71	85.326	1.6761e-05	83.252	271.796	239.272	297.166	178.705	345.891	335.752	177.278	184.039	359.567	308.147	181.221	185.835	188.463	193.428	321.736	189.827	-8191	255	
46171.352	1	1	0	0	0.15376	0.16925	0.16189	0.41161	0.10786	0.17248	0.087335	0.2775	0.23425	0.16602	0.24578	0.20788	0.21822	0.23433	0.17444	0.22335	-2.2875	-3.3854	-2.7875	-2.8771	-3.4667	-2.6125	-3.5833	-3.1521	-2.5917	-3.4458	-2.7792	-3.1417	-3.4542	-2.7542	-3.2208	-3.2979	463.154	293.461	344.032	442.766	352.600	206.259	420.631	471.069	185.548	224.423	167.004	168.013	431.591	475.284	480.872	471.426	0.00088379	0.00076454	0.00023889	1114.4	1.2193e-05	8.0212e-06	875.77	449.91	8.7119e-06	8.2378e-06	389.7	164.14	181.34	89.011	1.2259e-05	86.908	0.0014144	0.0015332	0.00043925	1052.6	1.6188e-05	1.6816e-05	826.66	425.77	1.6193e-05	1.6463e-05	372.42	156.22	172.9	85.151	1.612e-05	83.287	272.488	270.742	289.580	178.644	345.877	293.975	177.122	184.042	325.513	336.548	181.206	186.237	188.147	193.344	354.457	189.799	-8191	255	
46171.422	1	1	0	0	0.14789	0.021187	0.20889	0.11613	0.13319	0.057405	0.11151	0.066713	0.18094	0.10453	0.33341	0.096546	0.065489	0.21627	0.14571	0.19342	-2.2396	-3.3354	-2.6292	-2.9229	-3.4021	-2.5958	-3.5646	-3.1437	-2.4938	-3.6063	-2.9562	-2.9396	-3.4979	-2.8125	-3.1042	-3.2771	200.703	328.485	389.835	496.445	351.124	268.204	502.053	340.862	232.942	445.489	452.132	289.711	396.160	516.170	319.741	170.022	0.00091184	0.00094922	0.00015939	1110	5.9154e-06	5.2098e-06	876.46	450.35	6.8719e-07	5.2871e-06	394.25	163.99	181.29	88.585	9.2005e-06	87.47	0.0013854	0.0015001	0.00041652	1052.4	1.5863e-05	1.6635e-05	828.09	426.06	1.5929e-05	1.631e-05	374.44	156.08	172.59	84.827	1.6002e-05	83.371	266.880	273.684	260.690	178.644	306.584	306.802	177.185	183.936	209.352	275.044	181.509	185.932	188.424	193.111	330.015	189.981	-8191	255	
46171.520	1	1	0	0	0.1626	0.21333	0.059904	0.20151	0.02832	0.092302	0.049966	0.46021	0.18975	0.21068	0.20734	0.21142	0.25656	0.12061	0.18484	0.19807	-2.2208	-3.3458	-2.8896	-2.65	-3.475	-2.6896	-3.0104	-3.2833	-2.3812	-3.2833	-3.1333	-2.7771	-3.5312	-2.7458	-2.9625	-3.3458	350.148	177.993	281.749	494.272	468.072	419.699	433.330	480.128	440.021	296.486	439.153	506.357	181.473	204.667	426.249	445.960	0.00094331	0.0013854	0.0002984	1114.3	1.033e-05	8.4248e-06	880.39	448.11	5.4795e-06	5.2108e-06	394.51	164.74	181.97	89.305	1.1955e-05	88.216	0.0013661	0.001465	0.00041187	1052.7	1.5567e-05	1.5986e-05	830.6	426.02	1.5597e-05	1.6217e-05	374.85	156.98	173.27	85.429	1.5699e-05	83.844	273.393	269.419	268.229	178.541	354.320	261.972	177.177	183.837	297.903	356.838	181.473	186.184	188.860	193.323	310.579	189.783	-8191	255	
46171.637	1	1	0	0	0.11155	0.18569	0.20033	0.23912	0.278	0.17107	0.20706	0.19888	0.090347	0.060049	0.31115	0.16444	0.075008	0.15004	0.21189	0.28265	-2.0563	-3.2375	-3.0438	-2.7292	-3.4062	-2.8312	-3.0167	-3.3979	-2.5854	-3.2271	-3.2104	-2.7896	-3.4313	-2.8833	-2.8708	-3.5125	299.509	196.072	172.036	487.433	187.979	462.873	523.620	442.666	454.328	499.613	463.609	483.297	220.162	515.284	413.961	446.960	0.00084067	0.00028299	0.0002408	1114.4	1.2049e-05	5.1943e-06	868.84	447.62	6.3249e-06	7.3713e-06	388.26	162.49	180.98	88.485	5.6236e-06	86.528	0.0013218	0.0014342	0.00040205	1052	1.5105e-05	1.551e-05	824.2	424.73	1.535e-05	1.5559e-05	369.85	154.48	171.87	84.645	1.5275e-05	82.597	272.542	256.090	276.152	178.462	374.112	308.120	177.192	183.743	363.917	275.858	181.748	186.282	188.480	193.283	314.230	189.785	-8191	255	
46171.734	1	1	0	0	0.035459	0.24052	0.043768	0.42734	0.2312	0.30911	0.21092	0.14059	0.20404	0.14181	0.23045	0.15496	0.09182	0.13332	0.10251	0.3469	-2.1625	-3.1813	-3.2042	-2.6542	-3.5458	-3.0375	-2.8792	-3.7021	-2.4917	-3.1104	-3.2812	-2.6396	-3.5583	-3.2	-2.6083	-3.5125	400.234	300.937	511.259	504.379	370.730	183.530	481.658	499.997	521.656	215.965	503.212	465.034	508.532	480.064	486.429	488.846	0.00098428	0.00038646	0.00034184	1113.7	7.3602e-06	7.1274e-06	866.25	448.32	9.7599e-06	8.961e-06	385.6	161.38	181.05	88.777	7.8719e-06	85.984	0.001292	0.0013801	0.00037646	1052.7	1.4623e-05	1.4774e-05	821.42	424.89	1.4803e-05	1.5176e-05	369.31	154.23	171.81	84.547	1.5134e-05	82.396	274.170	297.925	259.580	178.767	289.446	287.646	177.221	184.229	290.670	319.279	181.573	186.238	188.572	193.161	347.943	189.945	-8191	255	
46171.828	1	1	0	0	0.22973	0.08451	0.16033	0.12388	0.13796	0.25145	0.14707	0.052787	0.14059	0.14153	0.16005	0.030675	0.30551	0.16388	0.37197	0.27641	-2.325	-2.9104	-3.325	-2.7083	-3.3021	-2.9875	-2.7333	-3.6625	-2.8563	-3.1104	-3.3646	-2.5708	-3.4625	-3.2417	-2.6875	-3.5979	499.528	187.462	433.416	516.999	298.154	310.214	257.696	186.347	187.431	363.202	519.086	509.173	461.628	455.757	256.475	431.880	0.00095074	0.00057356	0.0003388	1127.5	6.7487e-06	9.7623e-06	871.62	446.72	1.2972e-05	8.7465e-06	382.43	159.15	178.84	87.86	1.245e-05	85.211	0.0013259	0.001416	0.00038761	1064.5	1.472e-05	1.5137e-05	823.02	424.29	1.4883e-05	1.5196e-05	365.15	151.83	170.67	83.989	1.4855e-05	81.517	267.184	301.909	268.861	178.827	350.176	333.635	177.202	184.147	330.565	313.860	181.721	186.245	188.749	193.551	323.784	190.091	-8191	255	
46171.949	1	1	0	0	0.23333	0.11726	0.20675	0.031014	0.15419	0.1795	0.25067	0.13052	0.17308	0.20862	0.23271	0.25144	0.19689	0.33264	0.37335	0.29312	-2.3875	-3.0125	-3.3833	-2.9562	-3.3	-2.9875	-2.7896	-3.5167	-2.8896	-2.8479	-3.5625	-2.6042	-3.3604	-3.4021	-2.5854	-3.4917	499.439	402.583	241.018	338.622	400.373	422.271	465.914	472.420	257.823	295.070	467.254	492.772	427.767	503.010	456.207	461.892	0.00085141	0.00049786	0.00016204	1136.4	6.8861e-06	5.1366e-06	875.8	448.75	4.082e-06	2.8944e-06	386.13	160.21	179.72	88.366	9.0744e-06	85.335	0.0012868	0.0013803	0.00037771	1071.7	1.4587e-05	1.5125e-05	827.33	426.34	1.4784e-05	1.49e-05	367.39	152.48	171.39	84.384	1.4842e-05	81.728	270.107	307.594	249.995	178.763	324.868	301.595	177.069	184.298	261.172	453.243	181.598	186.017	188.381	193.161	334.665	189.924	-8191	255	
46172.023	1	1	0	0	0.23515	0.12239	0.038313	0.21527	0.087447	0.18671	0.029046	0.17562	0.11842	0.095508	0.024504	0.21865	0.20486	0.10648	0.099059	0.075585	-2.6333	-2.9604	-3.5458	-2.9396	-3.0958	-3.3104	-2.7521	-3.6667	-2.9271	-2.7125	-3.6396	-2.7771	-3.1937	-3.5375	-2.4979	-3.4708	450.108	215.278	236.238	455.230	493.207	298.329	373.835	462.272	274.183	389.997	265.206	470.407	398.974	190.584	322.892	514.822	0.00093477	0.00095365	0.00020275	1134	1.1022e-05	3.5171e-06	873.21	448.61	9.7976e-06	7.0344e-06	388.83	159.56	180.1	87.807	5.8126e-06	85.472	0.0012878	0.001385	0.0003823	1069.2	1.4535e-05	1.5036e-05	824.52	425.81	1.4886e-05	1.5058e-05	367.44	152.27	171.21	84.153	1.487e-05	81.485	271.649	267.262	254.347	178.454	334.100	338.022	176.934	183.950	302.625	290.960	181.774	186.266	188.662	193.304	354.182	189.982	-8191	255	
46172.117	1	1	0	0	0.10287	0.18196	0.089537	0.17885	0.11032	0.19986	0.11654	0.12574	0.14357	0.14995	0.21784	0.32032	0.18092	0.2317	0.15719	0.25695	-2.6917	-2.5771	-3.3396	-2.9125	-3.1146	-3.3417	-2.6979	-3.5208	-3.1125	-2.6542	-3.6458	-2.8875	-3.0896	-3.6729	-2.4396	-3.3708	420.623	433.802	186.731	498.900	440.133	501.094	488.073	435.375	401.662	491.795	462.736	478.914	166.959	500.655	224.520	478.432	0.00085878	0.00030394	0.00014333	1128.4	1.488e-05	6.0588e-06	869.82	447.55	9.7922e-06	8.7563e-06	385.3	160.24	179.88	88.4	9.221e-06	85.792	0.0012756	0.0013689	0.00038089	1068.4	1.448e-05	1.5022e-05	823.07	425.48	1.439e-05	1.492e-05	367.64	152.57	171.21	84.438	1.4773e-05	82.089	266.757	512.342	263.860	178.725	334.817	316.706	177.062	184.035	323.166	360.388	181.668	186.067	188.655	193.244	343.542	189.745	-8191	255	
46172.238	1	1	0	0	0.27823	0.081896	0.082232	0.19868	0.276	0.20508	0.32259	0.22044	0.035147	0.059315	0.17844	0.39398	0.2793	0.44161	0.095174	0.080797	-2.9313	-2.5458	-3.4979	-2.9521	-2.575	-3.5125	-2.6937	-3.3167	-3.3583	-2.6271	-3.2604	-2.9938	-2.7521	-3.5583	-2.5917	-3.2854	484.792	371.095	322.374	492.510	478.340	330.739	481.390	492.668	264.928	401.016	460.562	180.033	516.318	467.632	472.105	447.343	0.00088196	8.7827e-05	0.00018011	1125.1	1.0201e-05	8.6363e-06	878.8	452.46	3.0719e-06	8.2003e-06	393.72	163.72	181.93	88.765	5.3894e-06	87.957	0.0012422	0.0013214	0.00037239	1065.4	1.4155e-05	1.434e-05	828.56	427.95	1.3996e-05	1.4438e-05	375.44	155.89	172.73	85.083	1.4149e-05	83.759	274.198	498.962	257.885	178.984	317.106	359.445	177.433	184.084	288.663	333.997	181.360	186.221	188.690	193.406	285.400	190.007	-8191	255	
46172.336	1	1	0	0	0.21966	0.14777	0.15909	0.3165	0.14215	0.11124	0.12785	0.18233	0.2054	0.14399	0.36178	0.28265	0.22378	0.078197	0.084594	0.28	-3.0292	-2.4625	-3.1708	-3.15	-2.7833	-3.4958	-2.8312	-3.3021	-3.2875	-2.6604	-3.5375	-3.0292	-2.6417	-3.7146	-2.7562	-3.0771	297.893	246.747	418.476	206.880	231.715	273.096	515.737	439.546	355.560	292.158	333.913	467.928	172.358	496.067	371.028	483.759	0.00089318	0.0012337	0.00015673	1129.2	4.2255e-06	8.3952e-06	889.96	454.27	1.3167e-05	5.05e-06	397.44	165.05	182.45	89.753	1.0232e-05	87.845	0.0012203	0.0012695	0.00035878	1067.7	1.3605e-05	1.4104e-05	839.51	430.59	1.4043e-05	1.4242e-05	378	157.02	173.73	85.607	1.428e-05	84.039	266.909	282.003	210.052	178.603	266.596	327.661	177.217	183.931	336.581	313.874	181.738	186.058	188.732	193.509	309.574	190.224	-8191	255	
46172.430	1	1	0	0	0.11815	0.27552	0.055802	0.083044	0.19479	0.030884	0.13556	0.17501	0.30069	0.068048	0.11904	0.057156	0.21257	0.19824	0.061265	0.16392	-3.0708	-2.6625	-3.2958	-3.2229	-2.4958	-3.5125	-2.8958	-3.1396	-3.3396	-2.7438	-3.3896	-3.3375	-2.6312	-3.6771	-2.7542	-3.125	361.342	305.492	398.934	467.274	344.423	215.384	415.745	481.233	328.394	319.445	269.891	459.544	500.640	189.413	285.582	240.214	0.00093572	0.0011613	0.00013563	1132.8	6.4161e-06	9.6561e-06	884.11	452.37	7.8096e-06	5.1485e-06	397.8	165.39	182.07	89.624	6.201e-06	88.722	0.0012124	0.0013212	0.00036303	1069	1.3873e-05	1.4316e-05	836.98	430.47	1.3807e-05	1.4386e-05	379.24	157.89	174.14	85.959	1.4105e-05	84.689	269.112	255.033	261.193	178.629	332.559	333.605	177.078	184.084	308.167	304.418	181.486	186.163	188.638	193.426	292.705	190.014	-8191	255	
46172.527	1	1	0	0	0.093208	0.076437	0.18548	0.31057	0.19491	0.12706	0.065742	0.1525	0.10204	0.091467	0.10739	0.15278	0.16743	0.25608	0.18243	0.19717	-3.0792	-2.55	-3.2021	-3.2938	-2.5062	-3.2667	-3.0417	-2.7604	-3.45	-2.7271	-3.0812	-3.4354	-2.6104	-3.5042	-3.0083	-2.8625	260.902	180.847	504.094	168.703	292.112	496.340	422.406	438.684	434.394	430.077	465.626	169.773	429.712	173.517	388.517	436.459	0.00088864	0.00057382	0.00029678	1129.3	6.2775e-06	3.9343e-06	894.34	456.27	9.5022e-06	8.3566e-06	403.73	168.26	184.8	90.289	1.2567e-05	89.657	0.0012343	0.0012885	0.00036724	1069.1	1.3716e-05	1.4237e-05	842.63	433.38	1.3848e-05	1.4262e-05	383.59	159.82	175.73	86.517	1.4093e-05	85.737	268.696	345.387	254.509	178.520	368.998	342.768	177.131	184.217	306.931	316.463	181.328	186.164	188.736	193.350	292.553	189.872	-8191	255	
46172.648	1	1	0	0	0.091162	0.12639	0.16734	0.41681	0.077467	0.21291	0.054434	0.17505	0.23608	0.13019	0.28855	0.20943	0.1572	0.14896	0.068324	0.25626	-3.1375	-2.8542	-2.9854	-3.4	-2.5229	-3.375	-3.1583	-2.7771	-3.4417	-2.7687	-3.0208	-3.4646	-2.55	-3.3896	-3.3	-2.6312	474.684	492.929	386.762	522.750	167.057	476.029	506.209	376.079	301.532	377.147	458.291	424.557	450.150	518.812	349.016	470.705	0.0009554	0.00056459	0.00039079	1141.4	7.0356e-06	6.4138e-06	897.9	459.2	8.5943e-06	7.078e-06	407.18	169.22	185.23	91.497	8.6234e-06	90.653	0.0012488	0.0013431	0.00036929	1076.1	1.4451e-05	1.4632e-05	847.86	435.55	1.4244e-05	1.4587e-05	386.76	161.08	176.38	87.516	1.4228e-05	86.746	267.064	186.011	282.095	178.740	343.746	342.143	177.348	184.160	363.567	316.411	181.788	186.176	188.382	193.357	308.317	190.040	-8191	255	
46172.719	1	1	0	0	0.26057	0.24007	0.23775	0.28391	0.14038	0.088749	0.36459	0.34317	0.077213	0.087172	0.29476	0.026695	0.17428	0.36151	0.25931	0.25034	-3.0729	-2.7458	-2.8375	-3.5333	-2.5771	-3.1625	-3.2833	-2.7104	-3.5375	-2.8958	-2.875	-3.4375	-2.625	-3.4583	-3.3375	-2.6292	298.992	487.521	376.703	469.575	310.215	276.021	421.344	425.500	456.539	427.321	192.826	441.403	428.974	502.698	343.105	521.883	0.0009129	0.0010198	0.00025609	1146.8	6.1201e-06	8.9578e-06	900.11	461.15	1.2594e-05	3.074e-06	407.36	170.18	186.12	91.622	7.6443e-06	90.829	0.0012549	0.0013561	0.00037331	1080.6	1.4179e-05	1.4862e-05	851.62	437.1	1.4155e-05	1.4556e-05	386.74	161.8	177.28	87.618	1.4344e-05	86.553	268.237	246.604	279.015	178.673	317.534	304.656	177.065	184.040	315.679	273.771	181.567	186.056	188.415	193.506	293.657	189.927	-8191	255	
46172.816	1	1	0	0	0.084537	0.070793	0.15047	0.24358	0.068917	0.16421	0.22643	0.16338	0.12724	0.20852	0.081899	0.2241	0.29192	0.31216	0.079774	0.16975	-3.1021	-2.8438	-2.6562	-3.6417	-2.7042	-3.0896	-3.4229	-2.8271	-3.4062	-2.9083	-2.675	-3.5604	-2.8521	-3.0417	-3.4354	-2.6854	431.408	232.308	331.100	455.900	194.553	265.631	490.691	468.218	453.415	516.508	504.701	168.907	204.935	501.563	472.145	447.449	0.00098793	0.00036144	0.00012696	1144.1	6.5046e-06	1.0194e-05	895.35	463.05	1.0625e-05	2.6383e-06	409.45	168.51	186.16	91.501	1.1664e-05	90.608	0.0012409	0.0013289	0.00036621	1078.1	1.3986e-05	1.4673e-05	847.94	437.18	1.4283e-05	1.4648e-05	385.56	160.89	177.16	87.607	1.4187e-05	86.676	270.511	513.125	293.940	178.870	310.700	330.083	177.149	184.239	321.325	295.508	181.547	185.820	188.435	193.382	302.981	190.049	-8191	255	
46172.910	1	1	0	0	0.17665	0.13208	0.13084	0.0092048	0.09996	0.15458	0.092169	0.39969	0.11673	0.19192	0.06403	0.15222	0.14294	0.084129	0.075473	0.059665	-3.0021	-2.9458	-2.6958	-3.4313	-2.6958	-2.9583	-3.4729	-2.7812	-3.2	-3.0271	-2.7396	-3.5333	-2.7625	-3.0708	-3.4062	-2.5729	435.873	454.487	352.674	428.103	268.893	487.389	380.214	480.990	352.230	385.873	517.688	502.752	437.893	474.358	509.918	437.838	0.0009946	0.0010017	0.00027574	1145.2	8.141e-06	1.185e-05	897.5	459.63	6.7573e-06	4.3371e-06	405.27	169.52	185.67	91.654	8.1635e-06	91.144	0.0012461	0.0013171	0.00036004	1079.3	1.3812e-05	1.4076e-05	848.64	436.22	1.376e-05	1.421e-05	385.84	161.53	176.91	87.788	1.4164e-05	86.732	273.124	261.078	242.065	178.773	337.669	300.301	176.989	184.232	335.667	283.052	181.653	186.121	188.395	193.441	265.748	189.899	-8191	255	
46173.031	1	1	0	0	0.15555	0.32849	0.053328	0.14058	0.10085	0.10325	0.067166	0.16702	0.052181	0.023537	0.1294	0.043946	0.1674	0.20732	0.22048	0.20988	-2.9583	-3.2083	-2.3854	-3.5396	-2.8167	-2.8854	-3.5687	-2.5917	-2.9604	-3.1083	-2.4146	-3.4125	-2.9104	-2.8854	-3.4771	-2.9021	396.770	445.514	276.993	498.860	482.618	168.231	242.163	351.618	381.175	480.706	378.719	453.799	476.371	488.239	456.457	174.713	0.00099483	0.00069996	0.00022109	1146.5	1.2791e-05	9.8839e-06	895.84	462.89	8.954e-06	7.1245e-06	409.08	170.11	187.6	92.439	9.5724e-06	92.588	0.0012201	0.0012765	0.00036615	1082.5	1.3944e-05	1.4149e-05	849.48	438.37	1.3507e-05	1.3655e-05	387.44	162.11	177.85	88.506	1.3114e-05	88.36	266.959	227.923	217.608	178.490	353.466	315.174	177.423	183.993	318.431	311.793	181.375	186.201	188.490	193.087	289.971	189.889	-8191	255	
46173.129	1	1	0	0	0.094707	0.13086	0.23488	0.18081	0.097593	0.11758	0.15396	0.37671	0.0265	0.082087	0.10454	0.15098	0.20858	0.15932	0.12876	0.089921	-2.7188	-3.3	-2.6958	-3.4375	-2.9771	-2.625	-3.7229	-2.9875	-2.9521	-3.4437	-2.7208	-3.2896	-3.2542	-2.9292	-3.3125	-2.9771	455.434	267.772	226.426	496.764	503.704	244.146	291.250	505.547	308.359	339.067	454.889	490.982	209.088	198.534	399.281	261.132	0.00094979	0.00074795	6.8728e-05	1150.5	8.3599e-06	4.7478e-06	902.67	463.85	9.9249e-06	3.7773e-06	409.44	171.64	188.45	93.097	7.1197e-06	92.459	0.0011739	0.001216	0.00034261	1083	1.2818e-05	1.337e-05	852.35	439.41	1.303e-05	1.3276e-05	388.94	163.65	179.2	89.221	1.3086e-05	88.442	271.138	282.983	301.514	178.750	298.775	329.582	177.185	183.989	294.662	237.774	181.448	185.987	188.581	193.103	303.995	189.731	-8191	255	
46173.223	1	1	0	0	0.063999	0.098225	0.065764	0.11747	0.14937	0.25544	0.09587	0.17592	0.10712	0.25923	0.061484	0.18378	0.32939	0.31479	0.12223	0.070104	-2.7042	-3.4313	-2.6	-3.4521	-3.125	-2.5396	-3.6083	-2.8979	-2.9271	-3.4979	-2.7125	-3.2229	-3.3271	-2.8708	-3.5021	-2.9583	321.565	363.935	521.871	434.767	333.819	452.328	441.383	195.574	183.022	479.173	356.902	490.649	498.016	524.659	291.556	379.677	0.0010151	0.00061617	0.00023088	1149.4	1.2355e-05	2.7678e-06	908.59	462.6	7.0361e-06	7.8216e-06	412.65	172.96	187.99	93.324	6.5082e-06	93.18	0.0011571	0.0012107	0.00033092	1083.8	1.249e-05	1.3198e-05	855.61	440.07	1.252e-05	1.2724e-05	390.39	164.31	179.12	89.476	1.2775e-05	89.089	271.882	307.070	312.196	178.808	313.001	261.165	177.352	183.963	312.558	293.768	181.642	186.216	188.581	193.187	296.338	190.117	-8191	255	
46173.320	1	1	0	0	0.18873	0.19765	0.15692	0.20057	0.067309	0.27166	0.1274	0.1317	0.20191	0.22128	0.37369	0.038128	0.1782	0.074894	0.237	0.35258	-2.4667	-3.5563	-2.6292	-3.4021	-3.3396	-2.8312	-3.7708	-3.1104	-2.775	-3.5062	-2.8354	-3.1167	-3.5521	-2.8729	-3.5167	-3.3271	386.291	218.833	181.719	445.538	405.394	244.815	505.709	461.743	421.643	474.257	382.823	255.824	483.921	453.384	458.067	174.613	0.00093159	0.00087233	0.00026826	1146.7	6.9994e-06	9.5791e-06	911.4	466.03	6.9002e-06	5.6975e-06	414.53	173.58	188.6	93.66	7.2146e-06	93.474	0.0011369	0.0011916	0.00033096	1082.2	1.2407e-05	1.2975e-05	858.94	440.99	1.2674e-05	1.2797e-05	392.51	165.03	179.36	89.537	1.2738e-05	89.342	270.273	234.198	251.896	178.870	298.170	352.957	177.137	184.015	305.816	366.325	181.217	185.759	188.368	193.295	268.665	189.993	-8191	255	
46173.414	1	1	0	0	0.068505	0.16991	0.30975	0.28487	0.20272	0.043381	0.1125	0.13635	0.037025	0.03725	0.14089	0.05921	0.15033	0.2404	0.10249	0.2394	-2.2667	-3.4208	-2.5417	-3.0854	-3.4625	-2.7396	-3.4396	-3.1708	-2.6292	-3.4042	-2.9208	-2.9458	-3.5917	-2.8271	-3.2375	-3.4479	323.558	354.337	322.289	477.719	218.545	358.762	181.893	443.522	432.330	209.830	318.967	246.541	216.490	491.765	215.786	442.001	0.0010224	0.00083354	0.00023978	1152.4	6.889e-06	9.4457e-06	914.45	465.43	7.3428e-06	1.1025e-05	413.21	173.65	188.93	93.12	8.8952e-06	93.948	0.0011523	0.001186	0.00032648	1085.8	1.2313e-05	1.3006e-05	862.81	441.18	1.2603e-05	1.2781e-05	392.33	165.48	179.86	89.406	1.2656e-05	89.84	266.452	291.086	266.210	178.835	316.035	320.286	177.270	184.237	312.575	351.040	181.435	185.991	188.245	193.396	308.890	189.858	-8191	255	
46173.512	1	1	0	0	0.045656	0.050242	0.3834	0.36401	0.085899	0.23625	0.31935	0.052886	0.17137	0.18004	0.13318	0.20436	0.17202	0.20332	0.062708	0.17389	-2.3292	-3.5042	-2.7938	-3.225	-3.5792	-2.8063	-3.4271	-3.4771	-2.5125	-3.4813	-3.0938	-2.7833	-3.7292	-2.8667	-3.2062	-3.6	293.559	334.717	499.703	432.782	252.241	382.003	442.018	452.099	238.236	409.098	447.317	410.117	224.780	522.435	196.126	431.320	0.0010122	0.000735	0.00020871	1146.7	9.2054e-06	1.8286e-06	911.24	466.7	4.4387e-06	7.5202e-06	414.98	173.52	188.47	92.955	6.5436e-06	93.103	0.0011421	0.0011679	0.00033396	1086.5	1.2587e-05	1.32e-05	861.82	441.2	1.2506e-05	1.2623e-05	392.31	165.2	179.6	89.196	1.2791e-05	89.012	269.209	253.912	249.508	178.720	306.848	332.640	177.685	183.960	322.490	266.790	181.303	186.262	188.589	193.183	298.420	189.975	-8191	255	
46173.633	1	1	0	0	0.079734	0.18634	0.15033	0.30692	0.084983	0.080238	0.065958	0.19712	0.27477	0.18609	0.053877	0.080003	0.40543	0.40474	0.28187	0.19324	-2.4167	-3.4479	-2.9646	-2.6937	-3.4146	-2.8542	-3.0958	-3.4542	-2.6	-3.3958	-3.2604	-2.8354	-3.7438	-2.9792	-2.9167	-3.7167	386.548	327.645	400.530	498.422	365.864	399.331	301.856	466.721	242.395	221.583	469.134	204.514	485.290	468.150	181.767	448.903	0.00095999	0.00060639	0.00024159	1150.6	1.3044e-05	6.3683e-06	915.46	464.54	6.5233e-06	9.8637e-06	413.17	173.27	188.67	93.373	8.7357e-06	93.428	0.0011469	0.0011523	0.00032362	1086.5	1.2392e-05	1.2841e-05	861.41	439.57	1.2574e-05	1.2623e-05	391.79	164.95	179.55	89.386	1.2719e-05	89.255	270.790	244.731	253.371	178.820	299.261	338.126	177.146	183.937	323.118	324.480	181.508	186.129	188.501	193.294	261.951	189.743	-8191	255	
46173.727	1	1	0	0	0.19924	0.29405	0.17712	0.21651	0.14265	0.15832	0.20691	0.25194	0.22816	0.11516	0.13385	0.11	0.22642	0.20494	0.045233	0.19262	-2.2146	-3.2896	-3.1312	-2.7333	-3.4771	-2.8417	-2.9396	-3.5729	-2.5583	-3.2812	-3.2771	-2.6604	-3.7354	-3.1292	-2.825	-3.6833	248.434	257.939	392.636	515.951	268.142	377.079	424.077	478.428	235.180	265.087	284.300	470.747	507.918	474.269	450.221	474.019	0.00096067	0.00041766	0.0003364	1151.7	8.3699e-06	9.2043e-06	911.49	464.57	3.9954e-06	1.0567e-05	414.96	173.63	189.23	93.062	1.0304e-05	93.721	0.0011181	0.0011855	0.00032536	1085.7	1.2366e-05	1.2776e-05	861.85	441.17	1.2441e-05	1.2928e-05	393.27	165.15	179.55	89.191	1.2777e-05	89.534	269.842	287.868	261.842	178.790	320.402	334.713	177.579	183.828	300.350	326.051	181.781	185.987	188.489	193.363	343.193	189.927	-8191	255	
46173.824	1	1	0	0	0.15423	0.12557	0.13094	0.22098	0.082276	0.11455	0.056787	0.35076	0.10844	0.19813	0.19921	0.16792	0.20786	0.22766	0.36535	0.13277	-2.2896	-3.0687	-3.2208	-2.7542	-3.5521	-3.0896	-2.9521	-3.6167	-2.8438	-3.0979	-3.4938	-2.6562	-3.3646	-3.3292	-2.6833	-3.8	218.701	442.256	394.688	464.610	410.222	428.166	472.878	482.406	207.934	190.468	455.198	174.693	446.006	525.143	223.040	421.905	0.001013	0.0010576	0.00040824	1151.8	7.8662e-06	1.1639e-05	916.63	464.17	6.6698e-06	2.2471e-06	415.55	174.18	188.96	93.735	9.2577e-06	93.556	0.0011564	0.0012001	0.00033202	1088.4	1.2696e-05	1.3079e-05	865.19	441.47	1.3103e-05	1.3284e-05	394.92	166.19	179.94	89.667	1.3075e-05	89.914	270.455	255.921	307.085	178.590	331.979	322.668	177.345	183.767	333.339	376.856	181.483	186.026	188.408	193.388	308.365	189.971	-8191	255	
46173.922	1	1	0	0	0.22576	0.26044	0.11103	0.18736	0.1428	0.15361	0.10368	0.24256	0.044717	0.28377	0.22265	0.14924	0.26646	0.2317	0.026739	0.18872	-2.4417	-3.1396	-3.3229	-2.7667	-3.3729	-3.2333	-2.8667	-3.6792	-2.8625	-2.9792	-3.5229	-2.8896	-3.55	-3.3292	-2.6583	-3.5604	364.125	366.743	466.012	514.665	416.810	220.668	193.750	495.711	433.759	365.936	202.548	419.701	496.446	464.283	404.640	467.092	0.00096562	0.0011392	0.00027154	1143.7	4.7737e-06	1.012e-05	910.83	467.04	8.1598e-06	1.041e-05	417.1	174.13	189.23	93.524	7.9998e-06	94.888	0.0011635	0.0012115	0.00033199	1084.5	1.2894e-05	1.3227e-05	863.66	442.23	1.2787e-05	1.2988e-05	394.72	165.85	180.08	89.327	1.2658e-05	89.976	270.104	270.517	258.887	178.728	286.697	309.429	177.167	183.839	324.185	322.223	181.738	186.271	188.507	193.079	325.252	189.870	-8191	255	
46174.016	1	1	0	0	0.049627	0.10771	0.10885	0.21633	0.15904	0.21349	0.021858	0.27911	0.28678	0.10607	0.099182	0.21723	0.28288	0.12259	0.16176	0.10615	-2.6146	-2.9771	-3.5104	-2.8937	-3.2938	-3.2146	-2.575	-3.6042	-2.8229	-2.9771	-3.6917	-2.825	-3.3979	-3.5625	-2.6292	-3.575	274.540	306.739	224.994	172.951	318.470	285.817	312.620	176.591	416.683	365.587	483.104	242.389	169.757	497.716	458.679	518.888	0.00096572	0.00099481	0.00020287	1153.9	1.0313e-05	8.2146e-06	923.25	469.83	7.8644e-06	8.5794e-06	419.28	176.38	191.73	95.426	8.0088e-06	95.796	0.0011262	0.0011528	0.00031893	1085.8	1.2015e-05	1.2501e-05	869.52	444.14	1.2122e-05	1.2242e-05	397.15	167.98	182.19	90.979	1.1929e-05	91.191	270.484	279.931	234.327	178.568	333.237	310.174	177.241	184.054	314.746	320.222	181.454	185.881	188.422	192.860	264.402	189.819	-8191	255	
46174.113	1	1	0	0	0.070197	0.11253	0.095142	0.25674	0.045148	0.10016	0.14407	0.14197	0.26608	0.14739	0.23175	0.22771	0.21384	0.16797	0.10743	0.23718	-2.6521	-2.6562	-3.4896	-2.8563	-3.1417	-3.4771	-2.8	-3.5917	-3.1021	-2.7667	-3.6	-2.8625	-3.15	-3.5438	-2.5687	-3.4896	278.600	484.165	231.380	494.686	249.703	352.401	392.572	458.583	288.323	227.290	198.133	472.654	192.523	444.247	416.340	457.636	0.0010262	0.00075876	0.0001147	1161.1	1.2667e-05	7.8197e-06	927.31	470.22	5.6661e-06	2.9209e-06	422.79	177.79	192.84	96.392	1.0016e-05	96.998	0.0010775	0.0010569	0.00029679	1090.2	1.1356e-05	1.1644e-05	871.03	445.57	1.1519e-05	1.168e-05	399.24	168.81	183.19	91.858	1.1797e-05	92.406	271.970	252.080	256.545	178.852	331.870	322.567	177.148	183.999	336.486	307.599	181.275	186.048	188.365	193.011	347.333	189.676	-8191	255	
46174.207	1	1	0	0	0.10324	0.10553	0.034232	0.13571	0.24674	0.33575	0.33081	0.21325	0.31625	0.12591	0.090325	0.28382	0.26282	0.22875	0.23764	0.060713	-2.8667	-2.7167	-3.5458	-2.9229	-2.8958	-3.5542	-2.9771	-3.3979	-3.1521	-2.6083	-3.4437	-3.0812	-2.9437	-3.825	-2.6	-3.4458	356.459	339.445	352.885	171.594	399.038	367.953	461.428	459.681	501.995	498.930	183.239	193.504	167.008	522.883	483.234	444.462	0.0010014	0.00070844	0.00018545	1167.1	8.8777e-06	7.2118e-06	932.61	475.34	9.5192e-06	8.5928e-06	423.52	179.48	193.81	97.138	5.9344e-06	97.71	0.0010717	0.0010692	0.0002955	1096.6	1.1355e-05	1.1444e-05	875.7	448.86	1.1258e-05	1.155e-05	400.29	170.02	184.36	92.652	1.1704e-05	92.814	270.653	261.173	229.702	178.569	308.403	345.978	177.034	184.190	327.548	327.494	181.265	185.562	188.491	192.709	334.596	189.580	-8191	255	
46174.328	1	1	0	0	0.18364	0.34908	0.077819	0.28513	0.32498	0.11934	0.19797	0.20163	0.12973	0.12583	0.067873	0.26845	0.17053	0.24253	0.2466	0.29313	-2.7146	-2.4792	-3.3396	-3.1625	-2.9562	-3.4917	-3.0667	-3.3229	-3.3479	-2.7104	-3.5208	-3.1063	-2.8646	-3.8187	-2.8583	-3.3271	248.821	460.468	496.352	211.279	391.365	253.375	470.103	353.504	303.315	472.018	491.110	455.228	179.528	470.697	405.317	469.085	0.0009895	0.00095331	0.00016923	1174.8	1.0458e-05	1.2767e-05	930.59	475.47	8.9275e-06	7.6215e-06	419.9	176.41	193.22	96.425	7.8129e-06	95.946	0.0010466	0.0010657	0.00029718	1101.3	1.1172e-05	1.1529e-05	875.06	449.09	1.124e-05	1.1465e-05	396.31	167.35	183.41	92.074	1.1283e-05	91.134	267.690	268.525	290.203	178.667	346.133	305.964	177.000	184.145	331.690	294.699	181.339	186.109	188.309	193.054	302.267	189.876	-8191	255	
46174.422	1	1	0	0	0.24288	0.13232	0.036658	0.017935	0.20378	0.24188	0.19638	0.31463	0.16035	0.18194	0.089588	0.18986	0.19024	0.2279	0.057422	0.12601	-3.1271	-2.6833	-3.3354	-3.3667	-2.7667	-3.4646	-2.9021	-3.0417	-3.5083	-2.5917	-3.4708	-3.3229	-2.8125	-3.7104	-2.8604	-3.1458	232.303	406.592	357.386	233.435	397.856	403.243	487.153	495.927	266.151	306.488	507.337	180.254	516.913	183.868	271.291	454.652	0.0010308	0.00087751	0.00035521	1174.3	4.6968e-06	8.9973e-06	923.8	472.81	5.2816e-06	8.4627e-06	412.08	173.72	190.26	95.288	3.9982e-06	94.485	0.0010308	0.0010507	0.00029131	1102.3	1.1172e-05	1.1257e-05	869.22	445.97	1.1465e-05	1.1926e-05	391.47	164.58	181.02	90.929	1.1753e-05	89.729	269.350	256.436	265.273	178.656	345.538	328.659	177.194	184.104	299.413	331.004	181.507	185.729	188.364	193.186	288.348	189.822	-8191	255	
46174.520	1	1	0	0	0.057793	0.22236	0.14165	0.021804	0.22633	0.14362	0.16273	0.28519	0.34024	0.083672	0.18854	0.20425	0.20153	0.22113	0.1753	0.18701	-3.2167	-2.5542	-3.3271	-3.3792	-2.475	-3.5604	-3.0312	-3.15	-3.4083	-2.6146	-3.2417	-3.3688	-2.6896	-3.7958	-2.875	-2.8563	385.657	494.398	448.187	490.902	445.948	319.231	435.562	523.664	223.427	504.427	453.375	438.878	499.097	507.180	506.440	440.559	0.00095729	0.00053129	0.00029504	1171	8.1216e-06	7.6942e-06	920.24	468.39	6.2809e-06	5.4527e-06	407.85	171.57	188.49	94.137	5.5457e-06	93.171	0.0010347	0.0010469	0.00029521	1101	1.0723e-05	1.1266e-05	864.25	442.46	1.1152e-05	1.137e-05	386.53	162.28	179.22	89.941	1.1734e-05	88.561	270.976	279.180	258.467	178.553	347.599	295.414	177.169	184.165	324.661	350.759	181.457	186.129	188.463	193.372	306.536	190.034	-8191	255	
46174.590	1	1	0	0	0.079608	0.017765	0.081458	0.093653	0.072631	0.11622	0.20589	0.22138	0.074177	0.12694	0.11932	0.16621	0.23811	0.22288	0.21085	0.20319	-3.1292	-2.7354	-3.1958	-3.4854	-2.6375	-3.4437	-3.1833	-3.0875	-3.5208	-2.7875	-3.2479	-3.6354	-2.8271	-3.5729	-3.0938	-2.8	178.208	352.885	270.926	492.858	200.317	390.683	482.471	481.552	435.154	411.916	176.739	435.827	467.421	495.403	205.972	417.836	0.00093448	0.000872	0.00014847	1194.2	1.0072e-05	1.1423e-05	937.96	476.49	7.8767e-06	6.4517e-06	408.06	166.88	187.79	93.624	1.0442e-05	90.854	0.0010808	0.001131	0.0003117	1124.5	1.2184e-05	1.2594e-05	883.15	450.82	1.225e-05	1.243e-05	386.89	159.21	179.11	89.266	1.2153e-05	86.596	271.945	267.433	240.333	178.417	347.094	320.556	177.095	183.845	303.103	320.180	181.269	186.083	188.320	193.384	335.094	189.786	-8191	255	
46174.711	1	1	0	0	0.18722	0.12024	0.1247	0.29198	0.13546	0.11013	0.15231	0.35654	0.17887	0.17873	0.2097	0.26502	0.11883	0.22087	0.096648	0.12065	-3.1396	-2.7854	-3.1125	-3.5521	-2.7771	-3.3958	-3.2979	-2.9958	-3.5563	-2.9271	-3.0563	-3.7396	-2.7812	-3.55	-3.2812	-2.9396	259.596	482.780	244.874	451.357	420.093	514.145	453.855	503.427	254.117	397.996	428.747	169.009	209.757	511.718	274.620	475.821	0.0010614	0.0006758	0.00020122	1210.7	6.4172e-06	8.3144e-06	926.49	478.68	7.3674e-06	6.2704e-06	403.4	166.67	188.55	93.171	1.178e-05	90.78	0.0010868	0.0011072	0.00031095	1138.4	1.2077e-05	1.2532e-05	873.28	452.22	1.2329e-05	1.2506e-05	382.29	158.76	178.67	89.052	1.1815e-05	86.148	274.140	239.983	230.357	178.462	309.856	312.490	177.048	183.894	320.978	306.486	181.518	186.195	188.565	193.302	317.013	189.826	-8191	255	
46174.809	1	1	0	0	0.1404	0.12244	0.13302	0.15182	0.41222	0.20465	0.12708	0.26874	0.11422	0.23008	0.11264	0.16765	0.47888	0.048436	0.068027	0.041838	-3.125	-2.8104	-2.8125	-3.5917	-2.6729	-2.9917	-3.2542	-2.7042	-3.6021	-3.0563	-2.9333	-3.6521	-2.9042	-3.3333	-3.3708	-2.9417	271.753	187.916	423.197	190.711	386.089	282.008	281.784	460.519	300.540	357.001	421.897	440.161	488.748	459.946	378.874	480.706	0.0009633	0.00099123	0.00036384	1211.9	1.0974e-05	4.3148e-06	926.18	475.2	8.7634e-06	5.1601e-06	405.69	167.8	188.07	93.713	1.1846e-05	91.497	0.0010647	0.0010722	0.00030059	1139	1.124e-05	1.1651e-05	872.08	448.63	1.1526e-05	1.1763e-05	382.74	159.05	178.94	89.623	1.1786e-05	87.35	271.150	278.888	267.977	178.259	312.662	331.845	176.857	184.038	315.337	328.976	181.597	185.820	188.518	193.297	313.552	189.811	-8191	255	
46174.902	1	1	0	0	0.13207	0.036941	0.15346	0.3282	0.069676	0.1167	0.31335	0.24401	0.11604	0.065536	0.27367	0.041676	0.30594	0.28064	0.070317	0.2431	-3.05	-3.125	-2.7021	-3.7708	-2.8312	-3.1229	-3.4771	-2.8333	-3.45	-3.0708	-2.9375	-3.6979	-2.8958	-3.2625	-3.4271	-2.8438	477.168	321.630	511.194	498.588	297.046	464.991	458.086	422.157	251.621	421.350	205.534	265.079	481.162	497.283	420.624	462.927	0.0010028	0.00056351	0.00028282	1209.4	3.438e-06	8.2203e-06	929.13	479.3	4.5341e-06	6.2368e-06	408.99	169.66	190.38	94.278	7.2696e-06	93.346	0.0010684	0.001113	0.00030706	1135.3	1.1568e-05	1.2192e-05	874.14	452.09	1.1565e-05	1.1836e-05	387.96	161.5	180.25	90.15	1.1645e-05	88.971	268.980	268.309	297.922	178.345	366.425	322.738	177.114	183.928	322.146	279.533	181.382	185.955	188.187	193.411	353.852	189.802	-8191	255	
46175.000	1	1	0	0	0.017687	0.15983	0.095744	0.27425	0.29608	0.060744	0.21857	0.073916	0.4131	0.13987	0.28667	0.13038	0.21878	0.29753	0.092978	0.27616	-2.9354	-3.1125	-2.3979	-3.6604	-2.7417	-2.7542	-3.4396	-2.9708	-3.4417	-3.35	-2.7417	-3.4917	-3.0958	-3.0708	-3.5354	-2.7896	443.489	239.097	438.389	429.952	508.646	405.651	374.952	477.970	347.085	316.950	428.174	449.314	168.057	211.305	399.821	465.817	0.0010401	0.0010343	0.00019276	1205.1	7.184e-06	8.2016e-06	941.9	482.3	7.6439e-06	1.0089e-05	417.5	173.29	192.83	96.216	7.4139e-06	94.244	0.0010551	0.0010643	0.00029232	1135	1.1411e-05	1.175e-05	883.72	456.04	1.1862e-05	1.169e-05	393.4	164.39	182.68	91.577	1.1467e-05	89.83	272.066	269.775	208.177	178.685	347.796	308.723	177.215	183.870	330.463	289.817	181.312	186.068	188.253	193.167	327.689	189.791	-8191	255	
46175.117	1	1	0	0	0.1824	0.075345	0.10199	0.19466	0.15704	0.10415	0.28452	0.17817	0.30557	0.30654	0.45288	0.062601	0.18807	0.28867	0.24681	0.040286	-2.7896	-3.1063	-2.6271	-3.6354	-3.1437	-2.7687	-3.4396	-3.0438	-3.1229	-3.4167	-2.5979	-3.3354	-3.0458	-2.7938	-3.4562	-3.0438	351.629	455.954	514.436	498.994	294.579	229.328	502.392	448.788	247.378	202.796	408.350	449.542	454.628	515.199	285.161	311.693	0.0010142	0.00093375	0.00027367	1207.7	1.3523e-05	8.4905e-06	940	482.91	8.4323e-06	1.305e-05	414.14	173	192.67	95.85	6.1407e-06	94.016	0.0010509	0.0010392	0.00029367	1137.3	1.0987e-05	1.1406e-05	882.04	455.29	1.1281e-05	1.1143e-05	390.53	163.37	181.84	91.147	1.1125e-05	89.266	268.433	302.530	291.335	178.642	300.554	333.544	177.214	183.777	320.387	310.106	181.552	185.941	188.323	193.197	306.379	189.445	-8191	255	
46175.191	1	1	0	0	0.21423	0.40642	0.21654	0.20168	0.040482	0.063733	0.15778	0.30865	0.084562	0.22246	0.36251	0.077816	0.31774	0.14068	0.032812	0.21977	-2.7021	-3.1667	-2.4188	-3.4188	-3.1979	-2.6958	-3.6	-2.9437	-3.0542	-3.4292	-2.6521	-3.2438	-3.4042	-2.7417	-3.3854	-2.8	301.229	468.765	240.652	194.889	370.263	328.679	206.538	505.693	379.618	180.886	433.984	453.178	508.151	299.342	352.981	485.173	0.00094665	0.00073237	0.00017028	1210.5	1.1155e-05	9.1756e-06	939.61	481.26	6.214e-06	1.2395e-05	412.66	172.09	191.63	95.513	4.5941e-06	94.243	0.0010088	0.00098943	0.00027735	1134.6	1.0749e-05	1.1019e-05	882.16	453.52	1.0856e-05	1.0798e-05	390.88	163.4	181.07	90.931	1.0851e-05	89.515	271.667	270.037	265.137	178.555	324.125	308.568	177.486	183.763	354.841	369.483	181.715	186.025	188.401	193.156	303.315	189.498	-8191	255	
46175.312	1	1	0	0	0.11481	0.19453	0.15317	0.42416	0.082917	0.11795	0.051009	0.13305	0.092661	0.33413	0.13116	0.13865	0.099879	0.072625	0.18854	0.21742	-2.6021	-3.5104	-2.65	-3.4458	-3.3	-2.8021	-3.6063	-3.0292	-2.8042	-3.5687	-2.7979	-3.1125	-3.4833	-2.6896	-3.4604	-3.1854	216.710	227.829	473.955	462.655	398.330	249.692	344.470	443.138	505.362	394.462	448.491	255.511	415.396	173.309	336.502	484.190	0.00097253	0.00067962	0.00017122	1214.8	1.1118e-05	6.9595e-06	933.85	480.62	1.0042e-05	6.6024e-06	412.86	172.68	191.15	95.532	8.1753e-06	94.503	0.0010156	0.00099631	0.00027699	1136.4	1.0788e-05	1.0875e-05	883.51	454.11	1.0856e-05	1.0681e-05	390.35	163.37	181	90.79	1.0684e-05	89.621	269.021	239.501	268.327	178.498	342.969	301.079	177.199	183.786	333.194	331.990	181.340	186.010	188.307	193.066	321.671	189.784	-8191	255	
46175.406	1	1	0	0	0.20277	0.20833	0.22418	0.15767	0.20234	0.12745	0.075437	0.32625	0.27822	0.044335	0.24723	0.018128	0.24117	0.30155	0.025004	0.18221	-2.4083	-3.3729	-2.7958	-3.4062	-3.3479	-2.5917	-3.5521	-3.3479	-2.5812	-3.4208	-2.7938	-3.1646	-3.5312	-2.7875	-3.0333	-3.2646	177.762	379.033	469.042	498.061	233.411	353.186	379.052	469.082	440.759	382.085	480.635	433.175	443.131	181.645	204.021	413.318	0.00094918	0.00078192	8.6207e-05	1211.3	1.2974e-05	4.3362e-06	948.85	479.65	8.1233e-06	8.3801e-07	413.27	171.93	190.71	94.811	5.691e-06	93.911	0.0010039	0.00097853	0.00027211	1134.2	1.0332e-05	1.0721e-05	885.41	452.98	1.0418e-05	1.0757e-05	390.46	162.94	180.73	90.474	1.0639e-05	89.103	269.745	257.305	285.126	178.441	329.481	302.203	177.304	184.043	328.731	502.402	181.248	186.153	188.417	192.903	277.428	189.509	-8191	255	
46175.504	1	1	0	0	0.22827	0.13569	0.031192	0.037156	0.15983	0.22961	0.36713	0.18429	0.072561	0.23194	0.31999	0.31915	0.070738	0.41689	0.13003	0.13957	-2.2167	-3.3937	-2.9146	-3.1	-3.4125	-2.6292	-3.4146	-3.3229	-2.5917	-3.4208	-2.8771	-3.0438	-3.5479	-2.8021	-3.2771	-3.2646	501.649	363.184	282.862	498.239	186.446	235.555	453.876	424.722	367.271	236.689	460.469	511.448	228.222	487.965	392.809	167.671	0.0010006	0.00070624	0.00021065	1202.4	1.1288e-05	1.0351e-05	934.97	480.14	6.5364e-06	7.9203e-06	409.51	170.43	190.76	94.47	7.0399e-06	93.628	0.00097313	0.00097288	0.00027061	1129	1.0278e-05	1.0631e-05	877.31	451.99	1.0481e-05	1.0542e-05	388.57	161.81	180.23	90.179	1.0388e-05	89.027	273.238	313.086	290.484	178.470	320.979	310.890	177.169	183.702	297.264	352.265	181.301	186.384	188.404	192.979	334.063	189.866	-8191	255	
46175.602	1	1	0	0	0.15495	0.12605	0.29201	0.17049	0.25286	0.23011	0.088193	0.071151	0.18725	0.41337	0.071111	0.23521	0.054239	0.2019	0.071265	0.28495	-2.3854	-3.5708	-2.9792	-2.9354	-3.6583	-2.8542	-3.3979	-3.4333	-2.4375	-3.2938	-3.0563	-2.7812	-3.5458	-2.975	-3.1375	-3.4958	239.129	332.725	461.485	465.944	314.329	252.826	503.215	188.141	507.920	412.977	313.825	521.798	468.038	477.167	287.508	458.050	0.00090924	0.001058	0.00013394	1203.3	1.002e-05	8.4272e-06	940.82	479.19	8.4603e-06	7.0253e-06	413.61	171.97	190.61	95.044	7.4995e-06	94.513	0.00097426	0.00098233	0.00027231	1131.2	1.0329e-05	1.0768e-05	881.52	452.14	1.0449e-05	1.0622e-05	390.83	163.05	180.56	90.597	1.0607e-05	89.833	269.226	236.291	260.027	178.492	342.406	270.279	177.074	183.685	286.203	324.238	181.432	186.156	188.458	193.119	318.626	189.885	-8191	255	
46175.719	1	1	0	0	0.087118	0.034078	0.071844	0.27642	0.10374	0.10838	0.12826	0.3126	0.13458	0.42649	0.14251	0.11354	0.048316	0.12141	0.24091	0.21383	-2.3125	-3.3083	-2.9208	-2.8771	-3.2687	-2.9042	-3.2771	-3.6396	-2.6521	-3.2625	-3.0563	-2.9458	-3.7229	-2.8667	-3.0167	-3.65	346.892	200.390	417.020	525.864	435.242	479.851	457.553	477.797	318.688	206.096	430.309	171.919	353.516	209.249	181.424	417.840	0.0010093	0.00088958	0.00014149	1204.3	9.9999e-06	7.686e-06	938.12	480.01	8.0816e-06	7.0607e-06	415.71	172.81	191.32	95.36	6.8516e-06	95.613	0.00099029	0.00097935	0.00027019	1130.7	1.0345e-05	1.0841e-05	881.01	453.54	1.0725e-05	1.0639e-05	392.44	163.93	181.22	90.829	1.0639e-05	90.67	267.773	238.137	234.029	178.410	375.041	278.899	177.614	183.866	338.191	310.200	181.623	185.865	188.466	193.084	335.428	189.761	-8191	255	
46175.816	1	1	0	0	0.38252	0.07882	0.26327	0.21089	0.10901	0.14354	0.086019	0.30512	0.19221	0.21541	0.23406	0.13615	0.31722	0.19482	0.079355	0.039003	-2.2854	-3.3312	-3.1271	-2.6958	-3.5083	-2.8083	-3.0187	-3.6417	-2.6437	-3.3146	-3.2667	-2.7479	-3.5604	-3.0729	-2.8917	-3.6146	498.788	341.062	377.354	481.593	325.205	450.277	459.395	442.869	266.932	177.228	398.904	525.275	179.925	511.078	331.106	490.407	0.0010556	0.00076891	0.00019261	1201	1.3146e-05	4.7395e-06	932.69	480.49	1.1181e-05	7.6086e-06	415.08	174.31	191.76	95.346	8.0116e-06	95.455	0.0010009	0.00099231	0.000273	1131.1	1.0464e-05	1.08e-05	880.13	453.72	1.0834e-05	1.0702e-05	392.81	164.43	181.68	91.096	1.0966e-05	90.532	268.775	294.950	229.895	178.413	338.371	309.319	177.295	183.689	306.359	301.583	181.439	186.063	188.429	193.179	276.675	189.789	-8191	255	
46175.887	1	1	0	0	0.061392	0.062218	0.3091	0.27895	0.094366	0.16917	0.25826	0.04754	0.093654	0.23518	0.2427	0.03996	0.15283	0.24157	0.080258	0.12286	-2.2521	-3.0104	-3.2708	-2.7729	-3.3271	-3.1229	-2.8542	-3.7396	-2.7771	-3.2604	-3.2125	-2.875	-3.4729	-3.3333	-2.6188	-3.6375	477.189	252.182	211.366	515.944	244.953	378.843	402.161	428.429	434.775	460.994	429.072	344.512	193.408	478.064	376.209	489.480	0.00094492	0.00062887	0.00023448	1199.7	9.7791e-06	7.4404e-06	935.84	480.09	4.8241e-06	4.5329e-06	413.84	174.08	191.72	95.292	2.7405e-06	95.482	0.00099166	0.00097969	0.00027108	1128.7	1.0388e-05	1.0673e-05	878.41	453.07	1.0482e-05	1.0886e-05	391.34	164.36	181.63	91.053	1.0808e-05	90.737	269.294	278.991	291.126	178.616	309.345	301.073	177.366	183.859	315.260	288.318	181.486	186.105	188.562	193.121	391.671	189.810	-8191	255	
46176.008	1	1	0	0	0.11371	0.21989	0.16372	0.30263	0.20034	0.13803	0.24935	0.13676	0.14907	0.09496	0.12473	0.11538	0.19464	0.22162	0.090551	0.18492	-2.3729	-2.9604	-3.4229	-2.7208	-3.3208	-3.1521	-2.8604	-3.5896	-2.8292	-2.8583	-3.475	-2.7625	-3.3458	-3.3271	-2.6312	-3.7646	505.009	229.043	474.613	174.436	513.490	507.635	442.311	207.079	268.847	195.956	414.931	438.767	215.596	517.864	421.396	490.649	0.00098863	0.0012692	0.00032141	1198.3	1.072e-05	9.6042e-06	934.62	479.75	3.9628e-06	1.2914e-05	417.08	174.8	191.97	96.505	5.0916e-06	96.401	0.00098509	0.00097078	0.00026838	1126.7	1.0248e-05	1.082e-05	879.17	453.9	1.0715e-05	1.081e-05	393.67	165.26	182.49	91.93	1.0835e-05	91.705	270.022	271.244	256.596	178.657	309.635	314.560	177.067	183.809	343.628	329.370	181.390	185.762	188.278	193.250	316.363	189.750	-8191	255	
46176.102	1	1	0	0	0.2524	0.15647	0.15615	0.14127	0.16931	0.16452	0.23329	0.20296	0.087185	0.19552	0.1469	0.23176	0.25785	0.19201	0.11433	0.32687	-2.4542	-2.7292	-3.5062	-2.9	-3.275	-3.3375	-2.7792	-3.6979	-3.0375	-2.8708	-3.5417	-2.8521	-3.1167	-3.4625	-2.5854	-3.5458	356.208	391.548	519.232	416.928	487.849	298.930	392.015	413.747	402.807	332.454	444.696	219.139	482.287	515.480	473.312	443.018	0.001004	0.00074484	0.00021975	1200.9	6.3719e-06	7.6721e-06	940.36	480.64	6.4473e-06	7.7457e-06	420.12	175.78	193.66	96.76	1.1138e-05	97.328	0.00099874	0.00099663	0.0002747	1128.3	1.0664e-05	1.0712e-05	880.17	454.05	1.0802e-05	1.0822e-05	395.3	165.85	183.18	92.452	1.0888e-05	92.572	273.644	262.250	278.099	178.260	335.216	325.645	177.195	184.053	322.621	325.512	181.531	185.903	188.520	192.898	312.211	189.676	-8191	255	
46176.199	1	1	0	0	0.10293	0.10622	0.068023	0.17501	0.21249	0.11634	0.18606	0.045987	0.10488	0.18829	0.11284	0.20848	0.19083	0.25347	0.12312	0.20598	-2.6646	-2.6562	-3.4562	-3.0667	-3.0792	-3.25	-2.6604	-3.4417	-2.975	-2.7021	-3.6437	-3.0146	-3.0979	-3.6333	-2.6292	-3.6063	359.575	493.899	378.068	465.742	344.068	506.170	467.508	412.696	395.705	309.791	362.995	463.120	472.204	432.759	464.056	350.894	0.001033	0.0005106	0.00022894	1197.1	8.0312e-06	9.7336e-06	935.32	480.57	7.2221e-06	7.5692e-06	415.86	174.97	193.93	97.668	1.0297e-05	97.568	0.0010129	0.00098399	0.00027563	1126.1	1.041e-05	1.0881e-05	878.94	454.64	1.0512e-05	1.0878e-05	394.22	166.05	183.69	92.75	1.0863e-05	92.369	271.430	263.340	279.091	178.435	328.494	333.275	177.333	183.930	361.484	329.656	181.337	186.067	188.469	193.031	306.512	189.682	-8191	255	
46176.297	1	1	0	0	0.18168	0.1535	0.057971	0.29516	0.12916	0.18803	0.21753	0.20258	0.11917	0.35203	0.25741	0.19247	0.32478	0.1252	0.22052	0.18821	-2.8583	-2.7	-3.475	-2.9188	-2.9917	-3.5208	-2.8667	-3.5167	-3.2083	-2.7792	-3.5667	-3.0354	-3.2542	-3.6583	-2.6333	-3.4354	401.436	293.547	238.641	404.660	242.738	490.346	480.129	489.467	290.367	302.016	502.504	508.101	510.399	493.533	342.591	441.253	0.00094023	0.0012174	0.00013899	1194.1	1.0488e-05	8.3339e-06	936.9	483.66	5.6428e-06	1.0322e-05	421.32	176.33	195.01	98.551	1.2473e-05	98.633	0.00098802	0.00097233	0.00027428	1125.6	1.0589e-05	1.0935e-05	878.47	456.59	1.0614e-05	1.0885e-05	396.13	167.56	185.04	93.769	1.0767e-05	93.737	272.748	266.829	267.423	178.659	331.800	301.751	177.135	183.872	324.785	324.397	181.505	185.853	188.441	193.140	321.136	189.715	-8191	255	
46176.414	1	1	0	0	0.046596	0.14307	0.11972	0.23106	0.059304	0.11101	0.10342	0.23464	0.14192	0.23215	0.076501	0.094188	0.079264	0.19971	0.14672	0.28545	-2.9042	-2.7333	-3.5042	-3.2979	-2.9417	-3.6063	-3.0229	-3.2458	-3.575	-2.7104	-3.5896	-3.2104	-2.8729	-3.6333	-2.7542	-3.2146	237.244	314.566	318.826	468.376	270.625	358.566	236.151	179.134	474.904	296.289	194.993	186.305	421.833	475.689	393.388	503.612	0.0010683	0.00054534	0.00030612	1202.5	9.3906e-06	1.1789e-05	939.91	486.24	8.8322e-06	1.0475e-05	421.54	176.85	195.37	98.692	7.6275e-06	98.908	0.00099974	0.00096986	0.00027757	1126.2	1.0431e-05	1.0712e-05	879.79	458.37	1.053e-05	1.085e-05	397.77	167.67	184.79	93.768	1.0822e-05	93.809	268.463	263.133	274.422	178.497	332.143	332.476	177.350	183.821	309.390	285.498	181.713	185.968	188.371	193.160	324.734	189.812	-8191	255	
46176.488	1	1	0	0	0.090671	0.068375	0.21338	0.2552	0.072394	0.067742	0.24573	0.19986	0.069797	0.22764	0.12182	0.091129	0.37874	0.21802	0.20543	0.1028	-3.0979	-2.7104	-3.3417	-3.3042	-2.7083	-3.5208	-2.9	-3.1417	-3.4375	-2.8292	-3.3521	-3.3958	-2.8104	-3.4896	-2.85	-2.9625	397.045	421.667	298.915	498.733	301.372	335.776	177.267	458.917	265.754	177.043	438.228	199.850	517.095	172.577	286.155	487.749	0.0010645	0.00086784	0.00010616	1202.5	9.1587e-06	6.3057e-06	937.61	485.58	4.9305e-06	6.0782e-06	421.35	177.49	194.41	97.853	1.1186e-05	98.025	0.00098657	0.0010036	0.00027503	1127.8	1.065e-05	1.0887e-05	881.67	457.8	1.0488e-05	1.095e-05	397.45	167.81	184.26	93.448	1.0819e-05	93.426	268.880	291.716	295.309	178.410	321.352	301.687	176.892	183.930	347.026	271.711	181.243	185.945	188.303	193.039	317.915	189.804	-8191	255	
46176.586	1	1	0	0	0.097284	0.095213	0.15164	0.059132	0.17962	0.22864	0.19109	0.31924	0.17781	0.30868	0.1094	0.24303	0.27132	0.41521	0.17059	0.23396	-3.0875	-2.7042	-3.3125	-3.3958	-2.6937	-3.4062	-3.2	-3.0729	-3.5708	-2.8271	-3.125	-3.4583	-2.8229	-3.4854	-2.9813	-2.9833	486.697	296.746	487.721	356.559	206.519	299.994	186.161	179.149	358.374	169.604	437.760	510.881	462.305	186.638	279.463	410.584	0.0010479	0.00085191	0.00018428	1200.1	5.7953e-06	5.9496e-06	934.3	482.4	6.5017e-06	6.16e-06	419.51	175.75	194.22	97.746	7.9514e-06	97.912	0.0010184	0.00099869	0.00027428	1127.2	1.0479e-05	1.0885e-05	877.33	455.69	1.0472e-05	1.0917e-05	395.34	166.83	183.82	93.263	1.0835e-05	92.996	270.618	230.672	286.344	178.398	373.994	318.594	176.831	184.044	332.642	348.398	181.670	185.924	188.233	193.057	311.433	189.621	-8191	255	
46176.680	1	1	0	0	0.13007	0.12532	0.32754	0.097221	0.16346	0.22961	0.20628	0.14871	0.32016	0.19306	0.061016	0.15446	0.11138	0.35362	0.25988	0.33336	-3.1	-2.7021	-3.2208	-3.4625	-2.6229	-3.3438	-3.2625	-2.6833	-3.4333	-2.6604	-2.8271	-3.6271	-2.7333	-3.6	-3.0896	-2.925	359.546	203.855	226.319	471.708	499.630	438.222	229.585	407.896	229.881	252.991	395.682	470.159	358.866	511.483	400.489	513.792	0.0010353	0.00073936	0.00040296	1196.7	1.047e-05	6.8855e-06	936.12	483.24	6.2225e-06	6.3457e-06	415.71	176.38	193.93	98.063	7.8565e-06	97.822	0.00098695	0.00099928	0.0002777	1124.8	1.065e-05	1.0985e-05	877.78	456.33	1.0688e-05	1.0923e-05	394.58	166.99	183.91	93.422	1.1052e-05	93.062	268.899	237.346	261.010	178.318	323.603	303.072	177.045	183.832	340.016	335.648	181.446	185.901	188.250	193.214	311.158	189.789	-8191	255	
46176.801	1	1	0	0	0.15083	0.20482	0.15692	0.36794	0.17761	0.11663	0.16877	0.10211	0.15213	0.18326	0.14118	0.17243	0.36727	0.096258	0.26012	0.14153	-3.2125	-2.6646	-2.8854	-3.6958	-2.6271	-3.3271	-3.2708	-2.8208	-3.4417	-2.8833	-2.8792	-3.5583	-2.7104	-3.2229	-3.3625	-2.7438	364.786	278.851	304.022	459.439	240.202	501.791	469.265	500.270	233.813	466.920	349.138	169.433	449.383	512.375	335.253	197.105	0.0010001	0.0010788	0.00025763	1195.9	6.8194e-06	7.5601e-06	936.55	483.34	7.0662e-06	1.0688e-05	418.51	177	194.77	98.148	1.1655e-05	97.983	0.0010056	0.0010052	0.00027945	1124.2	1.0813e-05	1.1223e-05	878.27	455.46	1.1107e-05	1.0911e-05	395.81	167.57	184.32	93.564	1.1207e-05	93.601	269.512	276.838	230.075	178.450	317.980	308.230	177.048	183.910	365.667	301.893	181.491	185.668	188.256	193.154	326.167	189.819	-8191	255	
#DATA ENDS
