BOXY.EXE: ISS Imagent and Oximeter Data Acquisition Program Version 0.80
Ascii Record File

#ACQ INFORMATION
2  Detector Channels 
16  External MUX Channels 
1  Auxiliary Channels 
5000  Waveform (CCF) Frequency (Hz)
1  Waveforms Skipped 
30  Waveforms Averaged 
1  Cycles Averaged 
16  Acquisitions per Waveform 
10.0806  Updata Rate (Hz) 

#FILE INFORMATION
TRUE -- External MUX Channel results are PARSED.
FALSE -- AC DC and Phase are NOT grouped.
TRUE -- Companion Program Settings File CREATED.
FALSE -- AC data not excluded
FALSE -- DC data not excluded
FALSE -- Phase data not excluded
FALSE -- Auxillary Chn. data not excluded
Tab delimiters

#CALIBRATION STATE
TRUE -- Waveform Calibration Values APPLIED.


#AUX CALIBRATION VALUES
Val Type	aux-1	

Term	1.0000e+00	
Factor	0.0000e+00	


#WF CALIBRATION VALUES
A = Detector Channel
Val Type	A-AC1	A-AC2	A-AC3	A-AC4	A-AC5	A-AC6	A-AC7	A-AC8	A-AC9	A-AC10	A-AC11	A-AC12	A-AC13	A-AC14	A-AC15	A-AC16	A-DC1	A-DC2	A-DC3	A-DC4	A-DC5	A-DC6	A-DC7	A-DC8	A-DC9	A-DC10	A-DC11	A-DC12	A-DC13	A-DC14	A-DC15	A-DC16	A-Ph1	A-Ph2	A-Ph3	A-Ph4	A-Ph5	A-Ph6	A-Ph7	A-Ph8	A-Ph9	A-Ph10	A-Ph11	A-Ph12	A-Ph13	A-Ph14	A-Ph15	A-Ph16	

Term	0.00000e+00	0.00000e+00	0.00000e+00	0.00000e+00	0.00000e+00	0.00000e+00	0.00000e+00	0.00000e+00	0.00000e+00	0.00000e+00	0.00000e+00	0.00000e+00	0.00000e+00	0.00000e+00	0.00000e+00	0.00000e+00	0.00000e+00	0.00000e+00	0.00000e+00	0.00000e+00	0.00000e+00	0.00000e+00	0.00000e+00	0.00000e+00	0.00000e+00	0.00000e+00	0.00000e+00	0.00000e+00	0.00000e+00	0.00000e+00	0.00000e+00	0.00000e+00	0.00000e+00	0.00000e+00	0.00000e+00	0.00000e+00	0.00000e+00	0.00000e+00	0.00000e+00	0.00000e+00	0.00000e+00	0.00000e+00	0.00000e+00	0.00000e+00	0.00000e+00	0.00000e+00	0.00000e+00	0.00000e+00	
Factor	1.00000e+00	1.00000e+00	1.00000e+00	1.00000e+00	1.00000e+00	1.00000e+00	1.00000e+00	1.00000e+00	1.00000e+00	1.00000e+00	1.00000e+00	1.00000e+00	1.00000e+00	1.00000e+00	1.00000e+00	1.00000e+00	1.00000e+00	1.00000e+00	1.00000e+00	1.00000e+00	1.00000e+00	1.00000e+00	1.00000e+00	1.00000e+00	1.00000e+00	1.00000e+00	1.00000e+00	1.00000e+00	1.00000e+00	1.00000e+00	1.00000e+00	1.00000e+00	X	X	X	X	X	X	X	X	X	X	X	X	X	X	X	X	

B = Detector Channel
Val Type	B-AC1	B-AC2	B-AC3	B-AC4	B-AC5	B-AC6	B-AC7	B-AC8	B-AC9	B-AC10	B-AC11	B-AC12	B-AC13	B-AC14	B-AC15	B-AC16	B-DC1	B-DC2	B-DC3	B-DC4	B-DC5	B-DC6	B-DC7	B-DC8	B-DC9	B-DC10	B-DC11	B-DC12	B-DC13	B-DC14	B-DC15	B-DC16	B-Ph1	B-Ph2	B-Ph3	B-Ph4	B-Ph5	B-Ph6	B-Ph7	B-Ph8	B-Ph9	B-Ph10	B-Ph11	B-Ph12	B-Ph13	B-Ph14	B-Ph15	B-Ph16	

Term	0.00000e+00	0.00000e+00	0.00000e+00	0.00000e+00	0.00000e+00	0.00000e+00	0.00000e+00	0.00000e+00	0.00000e+00	0.00000e+00	0.00000e+00	0.00000e+00	0.00000e+00	0.00000e+00	0.00000e+00	0.00000e+00	0.00000e+00	0.00000e+00	0.00000e+00	0.00000e+00	0.00000e+00	0.00000e+00	0.00000e+00	0.00000e+00	0.00000e+00	0.00000e+00	0.00000e+00	0.00000e+00	0.00000e+00	0.00000e+00	0.00000e+00	0.00000e+00	2.93197e+01	-1.46832e+02	-1.39121e+02	-1.81086e+02	-9.40388e+01	-8.26987e+01	-1.58451e+02	-1.62015e+02	-4.88284e+01	-7.25510e+01	-1.70463e+02	-1.70388e+02	-1.82301e+02	-1.76731e+02	-5.84013e+01	-1.49945e+02	
Factor	5.48794e-05	1.85628e-04	4.36060e-05	1.70858e-01	1.72188e-06	1.61827e-06	1.82640e-01	6.30764e-02	2.27960e-06	1.44727e-06	1.00929e-01	3.45204e-02	2.99637e-02	1.05836e-02	1.66694e-06	1.51637e-02	2.09266e-06	2.19092e-06	6.07507e-07	8.53818e-02	2.38634e-08	2.39635e-08	8.56573e-02	3.13960e-02	2.38440e-08	2.39852e-08	4.84051e-02	1.65146e-02	1.48863e-02	5.27694e-03	2.38470e-08	7.29755e-03	X	X	X	X	X	X	X	X	X	X	X	X	X	X	X	X	



#DISTANCE SETTINGS
A = Detector Channel
A-1	A-2	A-3	A-4	A-5	A-6	A-7	A-8	A-9	A-10	A-11	A-12	A-13	A-14	A-15	A-16	

2.5000e+00	3.0000e+00	2.5000e+00	3.0000e+00	2.0000e+00	3.0000e+00	1.5000e+00	3.0000e+00	3.0000e+00	3.0000e+00	3.0000e+00	3.0000e+00	3.0000e+00	3.0000e+00	1.5000e+00	3.0000e+00	

B = Detector Channel
B-1	B-2	B-3	B-4	B-5	B-6	B-7	B-8	B-9	B-10	B-11	B-12	B-13	B-14	B-15	B-16	

1.0000e+01	1.0000e+01	1.0000e+01	1.4400e+00	1.0000e+01	1.0000e+01	1.5100e+00	1.9400e+00	1.0000e+01	1.0000e+01	1.9900e+00	2.4900e+00	2.4100e+00	2.9000e+00	1.0000e+01	2.9800e+00	




#DATA BEGINS
time	group	step	mark	flag	A-AC1	A-AC2	A-AC3	A-AC4	A-AC5	A-AC6	A-AC7	A-AC8	A-AC9	A-AC10	A-AC11	A-AC12	A-AC13	A-AC14	A-AC15	A-AC16	A-DC1	A-DC2	A-DC3	A-DC4	A-DC5	A-DC6	A-DC7	A-DC8	A-DC9	A-DC10	A-DC11	A-DC12	A-DC13	A-DC14	A-DC15	A-DC16	A-Ph1	A-Ph2	A-Ph3	A-Ph4	A-Ph5	A-Ph6	A-Ph7	A-Ph8	A-Ph9	A-Ph10	A-Ph11	A-Ph12	A-Ph13	A-Ph14	A-Ph15	A-Ph16	B-AC1	B-AC2	B-AC3	B-AC4	B-AC5	B-AC6	B-AC7	B-AC8	B-AC9	B-AC10	B-AC11	B-AC12	B-AC13	B-AC14	B-AC15	B-AC16	B-DC1	B-DC2	B-DC3	B-DC4	B-DC5	B-DC6	B-DC7	B-DC8	B-DC9	B-DC10	B-DC11	B-DC12	B-DC13	B-DC14	B-DC15	B-DC16	B-Ph1	B-Ph2	B-Ph3	B-Ph4	B-Ph5	B-Ph6	B-Ph7	B-Ph8	B-Ph9	B-Ph10	B-Ph11	B-Ph12	B-Ph13	B-Ph14	B-Ph15	B-Ph16	aux-1	digaux	

2615.722	1	1	0	768	0.075019	0.15734	0.28545	0.15458	0.098927	0.1933	0.068204	0.2209	0.2856	0.27363	0.11503	0.14996	0.017318	0.22946	0.1633	0.24015	0.45	-0.12917	-0.53125	0.04375	-0.44375	-0.41458	-0.10208	-0.67917	-0.091667	0.18542	-0.825	-0.21458	-0.51875	-0.60208	0.0083333	-0.82292	111.565	128.845	218.733	-78.174	190.717	135.540	209.481	123.306	251.042	157.884	-8.057	238.294	48.688	260.864	268.088	216.734	0.00048745	0.00057116	8.4764e-05	946.46	6.7538e-06	4.6725e-06	827.19	355.54	1.2912e-06	2.6769e-06	312.78	114.03	129.96	54.636	1.846e-06	51.822	0.00041466	0.00034874	9.0841e-05	976.76	4.1774e-06	3.7945e-06	850.3	367.17	4.1848e-06	3.6619e-06	322.36	118.68	134.3	56.688	3.5078e-06	53.764	-6.271	-27.867	-27.414	-74.957	87.926	13.883	-76.555	-69.617	3.132	70.656	-72.358	-66.802	-64.875	-59.045	120.084	-62.469	-8191	255	
2615.818	1	1	0	0	0.12741	0.16187	0.11316	0.17703	0.15908	0.18705	0.36571	0.42816	0.068981	0.15092	0.20221	0.10581	0.39573	0.057748	0.15452	0.27414	0.16042	0.14792	-0.86875	-0.26667	-0.34583	-0.475	0.26875	-0.75625	-0.28125	0.19167	-0.92917	0.020833	-0.43958	-0.60208	0.027083	-0.67083	42.343	260.975	104.310	177.787	17.878	139.140	240.418	228.992	38.124	90.355	87.806	157.453	-75.611	-73.629	137.351	-0.648	0.00047743	0.00078012	6.5834e-05	934.55	6.414e-06	8.6452e-06	812.87	352.81	3.1473e-06	7.1638e-06	311.6	114.59	129.73	54.674	1.4023e-06	52.351	0.00037725	0.00032474	8.874e-05	964.08	3.9009e-06	3.5258e-06	840.4	363.57	3.8242e-06	3.3484e-06	321.28	118.44	133.81	56.682	3.6246e-06	54.12	-18.867	-44.421	-17.155	-74.942	41.524	33.393	-76.356	-69.537	10.911	38.962	-72.074	-67.071	-64.838	-59.107	172.559	-62.731	-8191	255	
2615.914	1	1	0	0	0.09005	0.13287	0.34291	0.17382	0.0079048	0.039773	0.17118	0.12535	0.19871	0.10411	0.079901	0.1527	0.27624	0.11849	0.11408	0.1414	0.14167	0.175	-0.62292	-0.18125	-0.070833	-0.87708	0.15625	-0.93333	-0.19167	0.24167	-0.87708	-0.089583	-0.34583	-0.80833	0.16667	-0.4875	-67.599	47.310	-22.585	219.894	37.743	226.685	264.366	-77.932	210.492	-43.901	-65.814	-11.199	261.547	210.764	217.421	-80.735	0.00035696	0.00042692	7.3364e-05	928.13	4.6755e-06	5.0663e-06	818.56	353.51	1.8424e-06	6.2731e-06	314.2	115.64	130.16	55.828	1.6119e-06	53.627	0.00035036	0.00030361	9.3047e-05	961.66	3.5905e-06	3.3377e-06	843.21	364.11	3.5853e-06	3.2343e-06	323.48	119.8	134.32	57.857	4.0293e-06	55.673	-4.670	-19.520	35.421	-74.735	23.187	44.878	-76.522	-69.684	7.606	64.751	-72.362	-67.258	-64.782	-58.965	29.351	-62.352	-8191	255	
2616.010	1	1	0	0	0.11019	0.036221	0.12649	0.08891	0.15776	0.096598	0.24331	0.24585	0.13402	0.061187	0.15799	0.1688	0.36656	0.18214	0.088911	0.08252	-0.097917	0.17917	-0.69583	-0.22708	0.17708	-0.72917	0.0625	-0.47917	-0.38542	0.12292	-0.77708	-0.38958	0.039583	-0.72292	0.11667	-0.27917	-5.401	106.389	-12.774	2.428	40.990	48.951	227.078	232.103	71.916	36.251	242.506	-20.893	237.931	77.550	142.994	123.894	0.00039896	0.00027447	0.00010782	927.25	7.0042e-06	3.4582e-06	818.29	351.18	7.5713e-06	4.1281e-06	316.28	119.13	132.7	58.293	6.3756e-06	57.511	0.00036749	0.00032698	0.00011268	959.39	4.0849e-06	3.9894e-06	849.61	362.69	4.4308e-06	4.2153e-06	330.03	124.34	137.22	60.728	5.559e-06	59.961	-9.129	-24.720	66.394	-74.872	52.303	48.354	-76.400	-69.444	93.400	43.729	-71.941	-66.741	-64.294	-58.687	75.556	-62.410	-8191	255	
2616.105	1	1	0	0	0.016706	0.13932	0.17722	0.29767	0.30766	0.032654	0.25255	0.28898	0.18257	0.14439	0.14726	0.26839	0.3932	0.2827	0.079442	0.12599	-0.29375	0.11458	-0.58542	-0.24167	0.20833	-0.72708	-0.0625	-0.2125	-0.63333	0.18958	-0.56667	-0.32917	0.13542	-0.81042	0.18333	-0.22292	143.941	-14.261	46.537	225.404	242.537	-11.963	47.034	240.813	-26.826	272.568	150.892	179.222	215.825	199.994	103.641	164.584	0.00050643	0.00031825	8.8207e-05	925.08	8.3239e-06	3.3095e-06	823.18	351.47	8.915e-06	3.7967e-06	318.55	120.15	131.51	57.968	4.7017e-06	56.448	0.00044014	0.0004297	0.00014334	957.53	4.5448e-06	4.7549e-06	856.5	364.27	4.3936e-06	4.523e-06	332.25	124.75	136.26	60.434	4.9979e-06	58.262	-16.205	-41.603	-48.857	-74.594	36.800	66.618	-76.237	-69.363	70.526	94.769	-71.830	-66.964	-64.331	-58.701	105.663	-62.310	-8191	255	
2616.201	1	1	0	0	0.055447	0.15009	0.16419	0.080888	0.25984	0.30298	0.10653	0.27768	0.12331	0.28584	0.22456	0.33252	0.33071	0.040492	0.24655	0.093979	0.0125	0.34375	-0.6625	-0.525	0.11042	-0.74583	-0.17083	-0.18125	-0.58958	0.022917	-0.48958	-0.43542	0.14167	-0.84375	-0.14375	-0.022917	98.208	185.498	196.292	17.369	-80.869	254.116	241.413	213.757	70.434	254.653	109.346	178.678	210.844	247.930	57.112	63.614	0.00046782	0.0003638	0.00021922	920.03	9.363e-07	6.8988e-06	815.35	350.5	3.9066e-06	7.9821e-06	315.27	117.84	129.92	56.968	4.5e-06	54.504	0.00038048	0.00040429	0.00012095	952.17	3.7822e-06	4.371e-06	843.76	361.94	3.7773e-06	4.3321e-06	326.09	121.91	134.16	59.268	4.3005e-06	56.648	-20.979	-11.774	-8.245	-74.641	34.048	42.960	-76.557	-69.266	91.648	74.754	-71.726	-66.895	-64.365	-58.547	68.092	-62.525	-8191	255	
2616.321	1	1	0	0	0.094294	0.10519	0.18431	0.21531	0.16643	0.20821	0.16039	0.33256	0.11126	0.10102	0.18387	0.18564	0.20314	0.14531	0.24709	0.24855	-0.54792	0.06875	-0.33958	-0.76458	0.27083	-0.52708	-0.27292	-0.10625	-0.47917	0.26042	-0.33125	-0.64583	0.23333	-0.70417	-0.1125	-0.016667	142.684	194.445	52.180	227.658	-49.084	154.047	268.471	152.531	240.068	50.550	123.328	145.847	81.751	229.321	169.522	97.160	0.00063699	0.00022867	6.9029e-05	928.05	1.2668e-06	5.2773e-06	819.06	351.1	1.8558e-06	4.3222e-06	310.88	115	127.53	54.978	5.0743e-06	52.375	0.00034157	0.00038841	0.00010284	958.38	3.5185e-06	4.2827e-06	844.5	361.47	3.6214e-06	4.2678e-06	322.13	118.83	132.08	57.024	3.9864e-06	54.301	-15.593	14.168	-45.433	-74.449	33.892	5.379	-76.415	-69.362	76.443	56.943	-71.885	-66.944	-64.491	-58.572	34.360	-62.540	-8191	255	
2616.417	1	1	0	0	0.16353	0.13196	0.0414	0.21614	0.093647	0.31726	0.034196	0.097513	0.19547	0.16036	0.092134	0.088434	0.18082	0.20499	0.26273	0.1358	-0.35833	0.060417	-0.14167	-0.45833	0.16667	-0.55833	-0.575	0.079167	-0.73958	-0.0375	-0.20833	-0.70833	0	-0.61042	-0.18333	0.15208	-26.616	211.090	261.776	257.332	-20.823	262.446	-77.060	195.499	70.623	259.631	59.866	97.495	201.341	256.421	167.952	46.618	0.00055634	0.00036055	0.0001586	934.14	8.5739e-07	1.8902e-06	819.19	350.03	1.4017e-06	4.4014e-06	311.71	114.28	127.35	54.535	8.2948e-06	52.906	0.00035308	0.0003963	9.7343e-05	961.61	3.7249e-06	4.2266e-06	846.11	360.33	3.7857e-06	4.1518e-06	321	117.92	131.68	56.793	3.6614e-06	54.542	-18.377	-37.844	2.391	-74.926	92.688	47.176	-76.757	-69.327	70.947	1.619	-71.976	-66.941	-64.497	-58.742	87.688	-62.444	-8191	255	
2616.514	1	1	0	0	0.26156	0.094397	0.10278	0.02571	0.1879	0.14742	0.29254	0.21615	0.24419	0.21435	0.22441	0.10839	0.20169	0.30488	0.020058	0.20206	-0.27083	0.23542	-0.035417	-0.7	0.039583	-0.43958	-0.75417	-0.00625	-0.55	-0.1625	0.0020833	-0.70625	0.064583	-0.48542	-0.375	0.12708	119.080	-31.830	265.979	-36.382	10.013	-60.595	164.489	-45.577	67.133	-47.045	-46.287	-83.836	39.277	259.889	39.549	139.255	0.00062318	0.0004939	0.00019231	926.54	2.969e-06	4.7477e-06	819.96	349.3	4.7206e-06	4.5233e-06	312.69	115.81	127.5	55.514	3.8525e-06	53.845	0.00036256	0.00036682	8.9131e-05	956.97	3.8691e-06	3.9607e-06	844.57	360.05	3.9445e-06	3.9166e-06	322.11	119.4	132.13	57.693	3.4477e-06	55.653	-16.565	-26.117	21.416	-74.671	5.151	46.309	-76.453	-69.259	94.106	66.083	-71.926	-66.917	-64.496	-58.556	73.539	-62.231	-8191	255	
2616.610	1	1	0	0	0.25062	0.14159	0.28315	0.30334	0.14754	0.26934	0.25725	0.24091	0.060472	0.21258	0.15223	0.23981	0.027167	0.27001	0.15914	0.14943	-0.40417	0.05625	0.060417	-0.88542	0.28333	-0.25625	-0.70417	-0.0375	-0.54167	-0.13542	-0.0020833	-0.96667	-0.10833	-0.23125	-0.61042	0.18125	-41.858	257.410	-37.429	246.633	180.280	148.300	125.582	31.645	162.770	183.237	191.257	249.539	180.021	248.347	77.511	226.485	0.0004595	0.00044885	0.00021735	924.44	4.3292e-06	6.9357e-06	813.7	350.16	1.7165e-06	2.6596e-06	312.56	116.77	129.04	56.597	1.3979e-06	54.988	0.00037533	0.00034706	8.5928e-05	950.67	4.1039e-06	3.6789e-06	839.42	360.11	4.1028e-06	3.7339e-06	322.97	120.67	133.37	58.753	3.4133e-06	56.829	-10.599	-11.072	-33.668	-74.528	88.456	13.663	-76.538	-69.320	-61.323	25.565	-71.822	-66.756	-64.379	-58.371	136.669	-62.277	-8191	255	
2616.706	1	1	0	0	0.17542	0.32614	0.16708	0.08338	0.065735	0.10956	0.025662	0.19861	0.14569	0.25528	0.18544	0.26772	0.25683	0.14502	0.042872	0.10179	0.0083333	-0.23333	0.17292	-0.825	0.15208	-0.17083	-0.81458	0.18333	-0.42083	-0.32917	-0.1375	-0.80417	-0.1125	-0.075	-0.63125	0.10833	263.706	56.906	30.554	-1.240	13.246	170.028	83.796	135.001	-4.453	234.852	-68.427	172.353	191.697	232.863	124.034	173.362	0.00050624	0.00057141	0.00016322	920.85	4.3824e-06	5.5043e-06	816.89	349.87	4.4302e-06	3.3964e-06	315.67	117.95	129.83	56.86	2.4059e-06	54.903	0.00038234	0.00032762	8.1896e-05	949.85	4.0277e-06	3.4845e-06	841	361.19	3.9044e-06	3.4426e-06	324.65	121.86	134.11	58.86	3.1653e-06	56.807	-17.666	4.650	-20.544	-74.712	72.361	61.075	-76.241	-69.298	60.155	44.402	-72.061	-66.776	-64.503	-58.331	98.026	-62.242	-8191	255	
2616.802	1	1	0	0	0.28875	0.028048	0.24867	0.14081	0.38235	0.076319	0.36431	0.19481	0.12737	0.089264	0.25002	0.2004	0.20458	0.22804	0.1623	0.26295	0.05	-0.37708	0.18958	-0.76458	-0.15417	0.17292	-0.44375	0.097917	-0.48333	-0.45833	0.17917	-0.63125	-0.14583	-0.2125	-0.60625	-0.0083333	-66.734	50.672	-11.141	218.890	-82.007	202.127	226.248	251.423	176.099	-79.465	169.622	38.430	199.597	208.948	21.098	145.148	0.00047941	0.00085362	7.4688e-05	923.15	8.1289e-07	6.5261e-06	818.59	350.84	8.8695e-06	3.5409e-06	315.6	117.67	129.17	56.28	1.9032e-06	54.956	0.00035001	0.00030478	7.8141e-05	952.77	3.692e-06	3.1788e-06	843.96	361.73	3.5801e-06	3.215e-06	325.13	121.66	133.21	58.332	3.1676e-06	56.792	-32.014	-43.533	-2.432	-74.450	-54.474	58.874	-76.529	-69.488	74.595	54.178	-72.035	-66.537	-64.388	-58.697	104.012	-62.384	-8191	255	
2616.923	1	1	0	0	0.26819	0.2603	0.10198	0.12305	0.086757	0.20274	0.018128	0.34299	0.24399	0.22266	0.044083	0.15632	0.25994	0.086924	0.12701	0.41387	0.15	-0.57083	0.30417	-0.5875	-0.2	0.11458	-0.85833	0.13542	-0.079167	-0.70833	0.50208	-0.87083	-0.20417	0.23958	-0.78542	-0.03125	-67.470	31.516	81.492	223.893	155.065	16.586	47.976	269.492	257.378	-77.019	207.405	232.519	257.426	-70.714	204.095	237.732	0.00051889	0.00070136	4.533e-05	927.4	4.8673e-06	4.5167e-06	823.1	352.65	4.3823e-06	1.6497e-06	318.79	118.54	129.76	56.851	2.2699e-06	55.06	0.000325	0.00028968	8.0526e-05	955.76	3.4195e-06	3.038e-06	848.92	363.1	3.326e-06	3.0475e-06	326.47	122.16	133.82	58.704	3.3557e-06	57.171	-9.378	-28.825	6.531	-74.503	21.893	52.804	-76.563	-69.587	40.790	91.754	-71.873	-66.535	-64.662	-58.670	59.841	-62.346	-8191	255	
2617.017	1	1	0	0	0.17585	0.13348	0.26064	0.17786	0.18205	0.21254	0.11481	0.32447	0.16993	0.070541	0.035768	0.06405	0.19194	0.18364	0.061045	0.13147	0.25417	-0.41875	0.18125	-0.43125	-0.375	0.022917	-0.76875	0.0020833	-0.13958	-0.52917	0.10833	-0.64792	-0.59792	0.0041667	-0.63958	-0.29792	73.198	-49.576	-76.224	213.315	201.548	209.200	-52.961	270.493	55.998	57.710	-72.793	107.339	235.319	201.352	80.010	15.765	0.00051094	0.00057771	0.00010794	927.59	4.211e-06	6.7669e-06	824.09	352.64	2.6543e-06	3.9339e-06	314.93	118.65	130.81	57.128	1.9412e-06	55.129	0.00030229	0.00027224	8.3975e-05	955.78	3.192e-06	2.875e-06	848.41	363.14	3.062e-06	2.8586e-06	325.04	122.12	134.65	59.086	3.3967e-06	56.933	-24.657	-27.794	4.483	-74.586	38.446	29.562	-76.336	-69.545	32.808	31.516	-72.286	-66.755	-64.350	-58.854	130.221	-62.544	-8191	255	
2617.113	1	1	0	0	0.22304	0.12129	0.27095	0.046102	0.24998	0.18284	0.081741	0.19716	0.075255	0.25057	0.088995	0.28932	0.34752	0.271	0.14182	0.052273	0.26667	-0.56875	0.14167	-0.50417	-0.55833	0.10417	-0.59792	-0.40417	0.28333	-0.7375	-0.15417	-0.12083	-0.72083	0.077083	-0.3625	-0.60625	61.670	135.580	127.924	-84.561	241.340	-64.882	-79.525	185.470	-35.667	21.134	144.814	-43.917	-22.235	226.877	25.547	-81.165	0.00044264	0.000352	0.00012186	924.27	6.1617e-06	5.5453e-06	819.15	353.09	5.0927e-06	7.3718e-07	314.11	117.35	129.74	56.517	2.2341e-06	54.247	0.00028298	0.00026045	8.6474e-05	951.27	2.9584e-06	2.7867e-06	841.91	362.56	2.8568e-06	2.8446e-06	323.02	120.42	133.8	58.403	3.3274e-06	55.845	-25.313	-48.397	-41.597	-74.433	0.737	54.867	-76.355	-69.415	76.982	92.866	-72.102	-66.640	-64.642	-58.827	9.383	-62.384	-8191	255	
2617.209	1	1	0	0	0.12781	0.1236	0.22921	0.35299	0.21149	0.18481	0.22417	0.12978	0.081141	0.21596	0.14759	0.3547	0.19007	0.039376	0.039048	0.17707	0.55833	-0.79375	0.083333	0.01875	-0.66667	0.30417	-0.36458	-0.64375	0.29583	-0.59792	-0.091667	-0.20208	-0.71875	0.016667	-0.37708	-0.70833	-6.040	231.281	272.321	224.184	-84.682	262.784	191.843	246.193	110.856	-21.527	-78.260	238.864	143.899	12.280	-62.845	246.722	0.0004871	0.00056903	0.0001812	923.95	1.9928e-06	3.7176e-06	815.32	352.39	5.3211e-06	1.9409e-06	313.44	117.79	130.18	56.828	2.7514e-06	55.021	0.0002638	0.00026726	8.5713e-05	950.06	2.7786e-06	2.9369e-06	840.08	361.39	2.6903e-06	3.0095e-06	323.08	120.95	133.8	58.948	3.2981e-06	56.729	-24.550	15.369	-45.830	-74.784	56.670	69.362	-76.224	-69.482	45.089	123.168	-72.144	-66.777	-64.597	-58.888	78.783	-62.487	-8191	255	
2617.283	1	1	0	0	0.073202	0.2112	0.099809	0.1577	0.17415	0.15575	0.038204	0.19768	0.26522	0.1453	0.13849	0.4387	0.2011	0.076174	0.11922	0.36405	0.58125	-0.7	-0.054167	-0.0625	-0.63125	0.34792	-0.31667	-0.62083	0.22292	-0.43958	-0.29792	-0.020833	-0.75208	0.10417	-0.36667	-0.43542	-43.864	236.226	-74.035	225.929	211.445	8.508	239.493	252.246	194.892	-85.803	217.460	247.393	-8.221	-65.169	-76.335	166.071	0.00048994	0.00031765	0.00012158	921.52	4.2001e-06	4.7611e-06	821	352.64	4.1612e-06	4.4827e-06	318.22	119.19	131.36	57.501	2.8671e-06	56.065	0.00026139	0.00028765	8.2156e-05	946.37	2.706e-06	3.1989e-06	844	362.37	2.7412e-06	3.2716e-06	325.97	122.5	134.99	59.616	3.1511e-06	57.629	-23.942	-4.527	-6.586	-74.702	35.619	53.637	-76.486	-69.585	38.909	62.206	-72.047	-67.050	-64.585	-58.637	30.544	-62.529	-8191	255	
2617.402	1	1	0	0	0.30165	0.17103	0.15408	0.14052	0.23356	0.31528	0.15345	0.22594	0.14424	0.3145	0.10725	0.064046	0.21263	0.037639	0.10703	0.20905	0.58958	-0.39583	-0.0020833	-0.36667	-0.54375	-0.08125	-0.36667	-0.69583	0.34583	-0.56458	-0.35625	0.16042	-0.8625	0.21875	-0.20208	-0.4875	37.619	263.848	168.398	192.287	259.731	-28.534	-43.774	-54.228	89.980	-81.388	9.795	262.992	210.240	212.169	61.313	208.633	0.0005212	0.00043869	0.00017051	922.8	2.0343e-06	4.6539e-06	822.07	353.5	5.0784e-06	3.5168e-06	319.07	119.61	131.59	57.662	3.6275e-06	56.302	0.00026599	0.00030653	7.9825e-05	948.47	2.8679e-06	3.3644e-06	846.53	363.18	2.8854e-06	3.3578e-06	326.46	122.64	135.06	59.774	2.9536e-06	57.683	-9.919	-30.127	-52.910	-74.736	115.807	41.241	-76.120	-69.652	120.116	19.914	-72.205	-66.900	-64.696	-58.848	116.314	-62.591	-8191	255	
2617.498	1	1	0	0	0.20873	0.022961	0.20288	0.11179	0.076507	0.15026	0.44358	0.22733	0.099567	0.040806	0.15592	0.091015	0.085106	0.11786	0.16113	0.082964	0.41875	-0.44375	-0.30625	0.19792	-0.66458	-0.125	-0.18542	-0.89167	0.3125	-0.40417	-0.41458	-0.1375	-0.61042	-0.33958	0.16458	-0.88333	43.234	97.536	207.710	248.670	190.692	255.209	228.280	204.473	-66.760	-28.006	37.382	252.395	41.849	-58.034	112.969	76.516	0.00058187	0.00021022	0.0001171	917.54	4.8911e-06	5.3299e-06	817.24	352.13	4.4388e-06	6.7152e-06	317.32	119.04	131.29	58.356	4.0993e-06	56.863	0.00028648	0.00030297	7.5194e-05	941.55	3.0577e-06	3.2958e-06	838.36	361.73	3.1768e-06	3.2774e-06	325.17	122.51	135.5	60.375	2.9761e-06	58.445	-17.661	-44.929	-12.976	-74.710	86.246	27.414	-76.191	-69.318	61.705	34.278	-72.251	-66.944	-64.612	-58.823	90.408	-62.467	-8191	255	
2617.594	1	1	0	0	0.091242	0.12045	0.19945	0.16566	0.074929	0.055457	0.16747	0.29993	0.073627	0.16734	0.10595	0.18083	0.11795	0.22221	0.17808	0.19813	0.38958	-0.4125	-0.37917	0.34583	-0.6875	0.058333	-0.016667	-0.59792	0.36042	-0.15208	-0.65625	0.10417	-0.73542	-0.29583	0.13333	-0.88333	95.689	-68.299	17.100	198.195	-29.179	154.264	140.470	-61.413	228.213	-57.518	133.630	-17.205	215.966	193.227	-55.904	-71.547	0.00057933	0.00041615	0.00022356	912.33	2.1993e-06	5.7531e-06	818.97	351.27	3.1681e-06	6.0951e-06	322.69	122.03	132.9	60.167	4.5251e-06	59.353	0.0003239	0.00030777	7.617e-05	937.31	3.4725e-06	3.3404e-06	841.05	361.77	3.5774e-06	3.3606e-06	330.32	125.56	137.62	62.224	3.0688e-06	60.93	-22.470	-18.708	-18.426	-74.793	76.239	34.249	-76.293	-69.462	4.977	27.999	-71.988	-66.628	-64.315	-58.546	87.020	-62.379	-8191	255	
2617.715	1	1	0	0	0.10844	0.040817	0.065573	0.20722	0.062591	0.26384	0.1595	0.34806	0.2225	0.25932	0.26184	0.15128	0.13759	0.03023	0.16943	0.065256	0.44583	-0.097917	-0.54583	0.11042	-0.55208	-0.39583	0.22708	-0.85417	0.15833	-0.26458	-0.775	0.16667	-0.50417	-0.5	0.13542	-0.50625	105.891	55.698	-25.341	198.011	169.635	-82.501	152.591	235.210	84.885	-23.551	181.489	123.854	-38.386	217.278	51.383	-56.210	0.00060488	0.00064356	0.00016898	914.68	2.912e-06	2.5305e-06	827.85	355.87	3.3919e-06	4.7645e-06	323.68	121.9	133.24	58.824	4.9887e-06	56.768	0.00035737	0.00030951	7.8462e-05	943.48	3.7352e-06	3.3437e-06	853.19	366.44	3.6872e-06	3.2501e-06	331.99	125.4	137.43	60.889	2.9385e-06	58.531	-13.497	11.019	2.673	-74.598	60.516	-7.579	-76.171	-69.290	49.460	42.648	-72.071	-66.876	-64.460	-58.785	63.761	-62.448	-8191	255	
2617.809	1	1	0	0	0.1286	0.31601	0.084535	0.25202	0.070038	0.12733	0.036164	0.22572	0.16352	0.15329	0.11322	0.26086	0.32607	0.40376	0.067076	0.1555	0.3125	-0.11875	-0.69375	-0.085417	-0.44583	-0.11875	-0.06875	-0.8125	-0.09375	-0.13125	-0.73958	-0.0041667	-0.3125	-0.6375	0.34792	-0.82708	83.104	-31.224	-9.040	193.581	255.348	231.123	253.642	222.934	24.487	-42.087	219.118	129.414	247.914	184.478	138.317	62.978	0.00051297	0.00040941	0.00012243	929.65	7.1741e-06	4.899e-06	831.49	353.96	6.982e-06	5.79e-06	320.18	119.96	131.84	58.053	3.0086e-06	56.445	0.00034364	0.00028769	7.4831e-05	957.57	3.4802e-06	3.1432e-06	853.86	365.65	3.5147e-06	3.0082e-06	328.2	123.69	136.14	60.104	2.8417e-06	58.271	-10.775	-8.157	-12.776	-74.820	31.151	67.934	-76.513	-69.623	24.677	44.834	-72.000	-66.912	-64.561	-58.790	36.310	-62.375	-8191	255	
2617.882	1	1	0	0	0.26833	0.12026	0.18045	0.30646	0.21457	0.17987	0.12161	0.14707	0.028983	0.088625	0.15053	0.010708	0.036299	0.23496	0.16765	0.21783	0.12083	0.16042	-0.85208	-0.027083	-0.31458	-0.45625	0.19583	-0.73125	-0.10833	-0.095833	-0.65208	0.11458	-0.5625	-0.72917	0.42083	-0.57292	20.276	35.395	163.217	204.852	114.764	159.024	144.261	-73.643	59.348	39.294	197.366	231.565	-64.602	238.276	132.733	270.660	0.00045485	0.00041774	0.00012902	925.7	5.3232e-06	3.3042e-06	827.01	354.67	8.2951e-06	5.6269e-06	320.02	119.23	131.82	58.081	2.7989e-06	55.883	0.00031651	0.00027099	7.5278e-05	956.35	3.3396e-06	2.9955e-06	851.11	365.41	3.3268e-06	2.9235e-06	327.91	123.36	135.84	59.933	3.025e-06	57.616	-28.324	17.512	44.152	-74.637	29.875	69.466	-76.421	-69.430	14.723	29.701	-71.833	-67.064	-64.549	-59.046	72.255	-62.279	-8191	255	
2618.003	1	1	0	0	0.16748	0.080638	0.13253	0.16544	0.20835	0.23136	0.25603	0.12316	0.073422	0.076361	0.18855	0.19966	0.12439	0.31293	0.22957	0.35684	-0.15417	0.24167	-0.73958	-0.28125	-0.05	-0.68542	-0.027083	-0.61458	-0.22708	0.12083	-0.77083	0.010417	-0.15208	-0.80417	0.26042	-0.575	67.007	261.706	157.309	9.774	153.429	-69.439	-63.492	114.484	-82.323	39.942	-80.335	215.912	-55.917	-21.446	-22.468	183.253	0.00047214	0.00053854	4.6414e-05	925.34	2.8761e-06	6.3895e-06	820.7	351.31	5.8674e-06	2.9648e-06	313.65	117.29	130.12	56.959	4.5273e-06	54.961	0.00029995	0.0002594	7.8376e-05	952.13	3.1082e-06	2.8682e-06	843.28	362.44	3.1256e-06	2.7733e-06	322.72	120.77	133.79	58.845	3.3251e-06	56.625	-16.092	-19.764	21.932	-74.766	12.186	52.882	-76.449	-69.473	55.560	88.524	-72.025	-67.013	-64.345	-58.849	86.331	-62.345	-8191	255	
2618.097	1	1	0	0	0.30739	0.034177	0.14972	0.17798	0.1269	0.15715	0.13718	0.31152	0.16817	0.095579	0.093562	0.087096	0.11002	0.18838	0.15615	0.32289	-0.12917	0.42292	-0.69167	-0.23958	-0.10625	-0.5625	0.425	-0.67083	-0.50208	0.19167	-0.57917	-0.3875	-0.095833	-0.65625	0.16667	-0.60833	-18.911	247.110	67.070	204.961	-29.311	67.513	215.209	264.552	47.842	38.524	162.300	-84.183	156.692	247.786	238.655	190.619	0.00056392	0.00042277	4.2086e-05	912.95	4.1539e-06	5.7218e-06	814.62	351.69	2.8368e-06	2.1902e-06	317.2	118.56	131.36	58.011	3.1441e-06	56.34	0.00029496	0.00025852	8.6234e-05	941.9	3.0196e-06	2.8772e-06	839.97	361.15	3.1193e-06	2.9387e-06	325.94	122.06	134.9	59.841	3.601e-06	57.98	-21.000	-5.032	95.714	-74.737	27.883	46.615	-76.354	-69.314	26.899	67.286	-72.016	-66.818	-64.419	-58.669	45.067	-62.486	-8191	255	
2618.194	1	1	0	0	0.43873	0.066504	0.41257	0.14276	0.087848	0.10389	0.15096	0.21922	0.28607	0.068576	0.33896	0.17936	0.42725	0.097732	0.070948	0.1486	-0.125	0.2125	-0.58333	-0.38542	0.27083	-0.69792	0.020833	-0.26458	-0.50833	0.029167	-0.51042	-0.42917	0.089583	-0.81667	-0.0125	-0.25417	220.082	47.612	114.454	-67.254	-54.927	120.016	227.414	270.399	41.989	139.148	208.372	208.817	-80.016	267.264	-80.809	185.729	0.00052701	0.00048783	0.00012422	915.17	4.793e-06	4.0727e-06	821.58	352.8	6.3588e-06	3.2483e-06	319.02	118.62	130.63	57.547	3.2984e-06	55.625	0.00029346	0.00027597	9.2826e-05	943.17	2.9939e-06	3.1102e-06	847.03	362.42	3.0503e-06	3.0943e-06	328.22	122.14	134.68	59.488	3.608e-06	57.143	-17.721	-5.296	0.521	-74.591	28.457	44.584	-76.319	-69.412	73.897	41.505	-72.064	-66.888	-64.478	-58.817	94.111	-62.415	-8191	255	
2618.314	1	1	0	0	0.081952	0.21104	0.11192	0.31871	0.15572	0.17012	0.27268	0.3164	0.29497	0.19651	0.28078	0.23072	0.15225	0.072431	0.053022	0.20183	-0.13125	0.28125	-0.31458	-0.35208	0.15625	-0.51667	-0.325	-0.24792	-0.62708	0.14167	-0.35417	-0.65208	-0.15625	-0.56875	-0.064583	-0.10208	-84.871	243.944	37.071	249.877	3.734	121.904	232.779	242.541	270.390	217.787	155.930	-67.846	258.213	250.272	-10.023	146.118	0.00058794	0.00024404	0.00015192	925.53	3.0363e-06	1.9051e-06	828.21	353.84	3.3337e-06	2.2754e-06	318.39	117.97	129.96	56.598	5.9023e-06	54.357	0.00028294	0.00029767	8.9101e-05	951.26	2.8418e-06	3.2986e-06	851.92	363.63	2.9019e-06	3.2705e-06	328.11	121.13	134.07	58.532	3.3922e-06	55.932	-11.968	-55.523	-0.250	-74.706	41.996	-5.027	-76.396	-69.489	14.518	85.878	-72.272	-66.707	-64.477	-58.687	39.986	-62.580	-8191	255	
2618.410	1	1	0	0	0.15113	0.15837	0.12799	0.26043	0.040369	0.25319	0.15762	0.14007	0.088144	0.22477	0.27052	0.087315	0.1979	0.22343	0.078451	0.15963	-0.11458	0.175	-0.38125	-0.6	0.1375	-0.48333	-0.27708	-0.10417	-0.45833	0.13958	-0.26042	-0.7125	0.37083	-0.76667	-0.31042	0.022917	206.516	79.360	-40.996	-44.688	265.399	82.621	207.114	247.691	204.080	53.571	-43.558	250.238	-59.886	267.821	-80.488	157.083	0.00060042	0.00017546	0.00019711	930.06	4.6462e-06	6.3468e-06	825.52	351.48	5.1962e-06	3.2927e-06	316.8	116.63	130.22	56.612	2.8965e-06	54.413	0.00027426	0.00031093	8.3169e-05	954.45	2.8367e-06	3.4127e-06	849.91	362.59	2.9477e-06	3.4728e-06	325.34	120.05	133.74	58.536	3.2354e-06	55.852	-24.849	-34.423	-17.448	-74.696	65.433	70.153	-76.632	-69.559	94.724	60.960	-72.394	-67.267	-64.727	-58.798	-49.261	-62.562	-8191	255	
2618.507	1	1	0	0	0.23572	0.1762	0.13763	0.42675	0.31971	0.3451	0.32366	0.096401	0.074988	0.35463	0.25513	0.1491	0.16294	0.17181	0.15895	0.13527	-0.43125	0.17083	-0.11458	-0.74792	0.42708	-0.54792	-0.39375	0.125	-0.65	-0.072917	-0.34375	-0.69792	0.066667	-0.7	-0.42292	0.039583	-24.719	16.132	13.463	186.606	120.279	0.845	203.719	272.608	202.541	66.960	255.393	-51.644	13.556	-6.685	111.473	-57.095	0.00047784	0.00051683	0.00017246	921.93	2.6398e-06	6.7047e-06	815.53	351.54	3.9389e-06	4.0935e-06	318.3	117.47	130.66	57.05	3.5089e-06	54.481	0.00029075	0.00032661	8.0045e-05	945.53	3.0844e-06	3.5288e-06	842.2	361.39	3.1789e-06	3.5657e-06	325.08	120.99	134.56	59.091	3.1398e-06	56.082	-7.854	25.297	0.334	-74.790	34.954	44.637	-76.424	-69.378	-48.349	38.900	-72.206	-66.748	-64.396	-58.685	54.282	-62.317	-8191	255	
2618.578	1	1	0	0	0.14135	0.098091	0.157	0.21262	0.17543	0.28506	0.16367	0.32644	0.18532	0.14998	0.23807	0.058226	0.19133	0.29001	0.17508	0.16356	-0.11458	-0.19167	0.00625	-0.91667	0.17292	-0.54375	-0.50625	0.15	-0.72292	-0.125	-0.10417	-0.92708	0.091667	-0.39375	-0.65625	0.13542	55.078	131.563	205.720	262.889	222.074	38.991	224.427	242.793	254.260	228.029	-60.723	-24.851	-37.255	-14.123	68.709	264.828	0.00052236	0.00065225	8.0126e-05	919.71	4.6735e-06	6.9116e-06	819.96	351.98	5.9295e-06	4.8947e-06	314.79	116.26	129.83	55.816	3.2954e-06	53.173	0.00031361	0.00031761	7.6815e-05	947.33	3.3717e-06	3.3677e-06	843.73	361.35	3.4097e-06	3.3501e-06	323.01	119.33	133.48	57.72	2.9996e-06	54.699	-8.067	5.130	-14.816	-74.745	75.989	46.431	-76.460	-69.780	145.518	37.619	-72.343	-67.033	-64.570	-58.844	93.791	-62.621	-8191	255	
2618.699	1	1	0	0	0.10651	0.093512	0.2596	0.23996	0.075192	0.21639	0.087802	0.25974	0.10636	0.25063	0.20562	0.10287	0.096523	0.20136	0.073477	0.081009	-0.42917	-0.035417	0.022917	-0.875	0.24375	-0.29167	-1.0604	0.0625	-0.40833	-0.28333	0.083333	-0.69375	-0.14792	-0.3875	-0.40625	-0.039583	111.536	166.223	89.072	204.962	-69.549	259.463	159.129	225.096	-77.329	79.427	-0.674	260.017	9.229	160.155	-14.565	-23.343	0.00046486	0.00074778	0.00014311	928.08	4.709e-06	3.9615e-06	828.07	354.28	1.8456e-06	5.71e-06	316.88	115.36	129.76	54.768	6.6124e-06	52.381	0.00031981	0.00029411	7.2955e-05	954.31	3.4742e-06	3.105e-06	849.68	363.89	3.4468e-06	3.1126e-06	324.01	118.83	133.35	56.697	2.8455e-06	54.08	-15.335	-34.933	-16.243	-74.784	51.478	92.924	-76.456	-69.751	-14.582	47.230	-72.270	-66.989	-64.662	-58.791	73.928	-62.491	-8191	255	
2618.795	1	1	0	0	0.21388	0.24441	0.23788	0.28987	0.21785	0.37378	0.13095	0.089158	0.17639	0.14351	0.14612	0.15923	0.18937	0.023106	0.24349	0.31772	-0.28542	-0.22917	0.22292	-0.6875	0.014583	-0.15417	-0.68958	0.11458	-0.5375	-0.37917	0.18333	-0.78958	-0.15625	-0.095833	-0.87708	0.26042	-61.641	-3.263	-52.857	-87.180	27.558	167.366	214.787	-70.827	158.278	258.590	222.545	-2.075	198.237	-11.839	-32.479	159.972	0.00043467	0.00033822	3.6649e-05	930.39	2.4907e-06	3.6657e-06	833.68	354.29	6.6119e-06	4.5822e-06	317.03	114.72	128.97	54.843	9.0482e-07	52.647	0.0003246	0.00027939	6.9217e-05	958.62	3.4568e-06	2.9306e-06	853.77	364.49	3.4131e-06	2.9814e-06	323.83	118.81	132.9	56.603	2.7527e-06	54.237	-37.724	-11.230	-82.518	-74.763	17.662	7.866	-76.638	-69.748	23.909	50.104	-72.133	-67.172	-64.782	-58.813	5.010	-62.760	-8191	255	
2618.891	1	1	0	0	0.10169	0.37064	0.11278	0.15097	0.31302	0.084884	0.16196	0.22488	0.20947	0.14523	0.12828	0.14749	0.16104	0.15854	0.15228	0.3074	-0.041667	-0.40833	0.27708	-0.75	-0.20417	0.22292	-0.74583	0.1625	-0.22917	-0.45417	0.11042	-0.67708	-0.23125	-0.11042	-0.92083	0.0125	-11.072	0.443	3.939	250.000	-0.290	32.995	174.322	219.229	-71.799	-4.257	114.178	181.639	-71.527	-46.329	141.664	245.035	0.00045015	0.00082179	0.00013955	924.43	4.5365e-06	2.5739e-06	824.23	353.29	3.1735e-06	6.3098e-06	315.28	115.53	129.29	55.631	3.6542e-06	53.159	0.00031464	0.00027487	7.1039e-05	953.09	3.3794e-06	2.9224e-06	846.24	363.17	3.2984e-06	2.9578e-06	323.28	119.36	133.23	57.481	2.9489e-06	54.975	-15.683	-27.862	-11.474	-74.750	1.794	43.062	-76.574	-69.693	84.689	63.229	-72.283	-66.974	-64.739	-58.831	116.018	-62.523	-8191	255	
2618.986	1	1	0	0	0.21833	0.24231	0.42836	0.06999	0.16109	0.35245	0.22422	0.20858	0.24386	0.13502	0.25921	0.20696	0.22844	0.1722	0.18009	0.097064	0.16875	-0.64583	0.44792	-0.7	-0.16458	0.03125	-0.8625	-0.14583	-0.18333	-0.59167	-0.097917	-0.56875	-0.49167	-0.064583	-0.47083	-0.12708	-62.272	-77.851	233.834	89.600	147.805	114.544	138.410	208.238	190.467	-12.346	156.001	221.402	227.092	200.582	84.375	-63.268	0.00044781	0.00027106	0.00011057	921.82	7.4102e-06	4.0382e-06	822.04	351.33	5.7226e-06	4.0117e-06	315.33	116.05	129.43	56.478	3.6511e-06	53.838	0.00030519	0.00027322	7.6433e-05	948.69	3.2744e-06	2.9165e-06	842.93	362.15	3.2205e-06	2.9711e-06	323.59	119.92	133.73	58.26	3.321e-06	55.696	-20.649	-8.821	52.006	-74.521	19.403	67.984	-76.492	-69.619	15.227	60.226	-71.977	-66.750	-64.644	-58.746	64.062	-62.524	-8191	255	
2619.106	1	1	0	0	0.26662	0.1812	0.22197	0.28206	0.34592	0.35254	0.27893	0.25071	0.035633	0.06627	0.12056	0.29619	0.15423	0.048682	0.29263	0.35866	0.21458	-0.42917	0.19792	-0.36042	-0.45833	0.047917	-0.77917	-0.23958	-0.045833	-0.76458	-0.0125	-0.37917	-0.46667	-0.15833	-0.5125	-0.46458	-82.488	191.053	102.048	259.520	126.276	82.022	205.380	120.767	232.541	126.078	-73.117	137.870	-6.555	-16.876	187.251	25.971	0.00044574	0.00016287	2.9344e-05	916.62	1.1944e-06	4.8368e-06	815.96	349.01	3.1021e-06	3.9516e-06	315.12	116.54	129.81	56.508	3.2951e-06	53.959	0.00030326	0.0002755	8.5833e-05	945.54	3.2454e-06	2.9133e-06	842.09	360.64	3.1974e-06	2.9733e-06	324	120.17	133.68	58.416	3.6134e-06	55.725	-21.282	-86.215	19.890	-74.531	13.049	66.230	-76.525	-69.703	28.061	12.037	-72.209	-66.916	-64.441	-58.454	112.655	-62.459	-8191	255	
2619.178	1	1	0	0	0.18595	0.047406	0.20012	0.10041	0.16764	0.12229	0.20302	0.3393	0.21849	0.1727	0.072255	0.23756	0.064198	0.092722	0.10989	0.42636	0.425	-0.59792	0.17292	-0.47917	-0.82917	0.1625	-0.82292	-0.095833	0.025	-0.81667	0.1625	-0.37708	-0.70208	0.14167	-0.6625	-0.2625	231.829	228.551	-24.284	54.923	-66.897	250.094	179.354	173.262	37.885	146.517	21.113	253.244	267.173	169.876	-6.869	160.383	0.00061968	0.00057621	6.9615e-05	915.05	7.0251e-06	3.8443e-06	818.82	351.22	5.2036e-06	4.2919e-06	315.42	116.09	129.87	56.431	2.5733e-06	54.625	0.0002986	0.00027822	9.1568e-05	946.19	3.1515e-06	2.9959e-06	844.42	360.87	3.0313e-06	3.0865e-06	325.45	120.17	133.52	58.404	3.6867e-06	56.144	-20.829	-2.350	-5.888	-74.622	15.641	18.601	-76.396	-69.579	0.897	55.477	-72.132	-66.754	-64.478	-58.540	62.226	-62.305	-8191	255	
2619.274	1	1	0	0	0.055096	0.19298	0.099429	0.11944	0.28288	0.14027	0.19033	0.14989	0.16581	0.11268	0.091207	0.24002	0.1797	0.13781	0.13545	0.19229	0.50833	-0.44792	-0.083333	-0.45417	-0.60417	0.21042	-0.57708	-0.39583	-0.0125	-0.575	0.054167	-0.2625	-0.6375	0.15	-0.28958	-0.41042	-84.084	78.676	190.431	266.325	195.381	-87.185	-55.312	200.685	64.697	47.272	259.058	250.275	251.102	156.078	65.493	179.218	0.00047969	0.00036675	0.00012768	913.29	4.6944e-06	5.2982e-06	824.15	350.3	4.0037e-06	2.6069e-06	317.65	118.62	130.57	56.999	4.6853e-06	54.971	0.00029136	0.00029737	9.573e-05	941.56	3.094e-06	3.3374e-06	849.64	361.03	3.0735e-06	3.417e-06	328.3	121.87	134.6	59.084	3.708e-06	56.729	-10.029	42.649	-14.050	-74.677	32.512	71.869	-76.265	-69.534	41.190	109.666	-72.000	-66.890	-64.453	-58.658	83.643	-62.647	-8191	255	
2619.395	1	1	0	0	0.10187	0.082565	0.10147	0.23834	0.026026	0.18004	0.32854	0.17115	0.11851	0.064769	0.11325	0.089042	0.24141	0.182	0.15023	0.27809	0.4875	-0.53125	0.010417	-0.28125	-0.52708	0.083333	-0.13333	-0.67708	0.1625	-0.64792	-0.045833	-0.041667	-0.73333	0.014583	-0.225	-0.9125	206.264	129.225	-11.104	220.512	241.968	84.792	182.585	170.238	168.678	205.524	2.356	194.287	244.880	-1.647	244.042	68.037	0.00060559	0.00076237	0.00017792	916.34	2.0767e-06	3.9662e-06	817.59	352.15	4.6105e-06	4.2225e-06	316.55	117.37	130.63	56.923	5.3617e-06	54.432	0.00028827	0.00032645	9.2951e-05	942.68	3.0507e-06	3.5634e-06	844.11	361.71	3.0273e-06	3.5906e-06	326.95	120.51	134.46	58.892	3.4206e-06	56.07	-18.922	-20.838	-29.817	-74.560	60.969	86.392	-76.501	-69.462	69.973	85.598	-71.997	-66.734	-64.567	-58.747	72.284	-62.517	-8191	255	
2619.491	1	1	0	0	0.15679	0.24668	0.12341	0.19549	0.2335	0.25992	0.087084	0.36839	0.11565	0.23033	0.23047	0.15435	0.1124	0.20443	0.27227	0.15508	0.65625	-0.38958	-0.16875	-0.077083	-0.64375	0.29375	-0.275	-0.65417	0.32083	-0.62708	-0.45625	0.16875	-0.9625	-0.1125	-0.027083	-0.65625	253.019	113.953	-37.647	-69.227	172.798	120.770	-28.988	190.580	17.288	26.350	-44.900	-77.070	155.339	157.331	141.874	235.979	0.00060464	0.00043554	0.00019172	916.26	1.7205e-06	2.5867e-06	818.54	351.28	2.4631e-06	4.7596e-06	317.4	117.4	130.67	56.809	6.4385e-06	54.535	0.00029497	0.0003412	8.7278e-05	940.82	3.1594e-06	3.6919e-06	842.68	361.33	3.2053e-06	3.7468e-06	326.39	120.72	134.72	59.023	3.3224e-06	56.166	-16.955	15.544	-25.316	-74.708	25.047	69.378	-76.374	-69.502	102.732	53.211	-72.024	-66.693	-64.569	-58.712	75.707	-62.535	-8191	255	
2619.587	1	1	0	0	0.18027	0.033945	0.54381	0.031689	0.29615	0.23642	0.18136	0.21451	0.20844	0.10655	0.161	0.12024	0.32073	0.24738	0.33688	0.32202	0.47708	-0.32917	-0.40417	-0.054167	-0.57917	-0.04375	-0.23958	-0.66042	0.19375	-0.29167	-0.65833	0.16458	-0.59375	-0.24167	0.089583	-0.76458	228.220	196.529	31.382	133.456	-85.075	198.863	23.837	147.492	239.798	170.821	70.738	244.203	198.422	196.520	73.702	-86.922	0.00062105	0.00068753	0.00012417	913.63	3.7883e-06	2.3088e-06	820.69	350.93	4.3351e-06	7.6861e-06	319.26	118.44	131.3	57.307	1.8423e-06	55.289	0.00032154	0.00034481	8.5237e-05	940.71	3.5423e-06	3.8131e-06	844.97	361.51	3.637e-06	3.7517e-06	328.69	122.08	135.96	59.474	3.362e-06	57.058	-18.373	-33.960	-9.582	-74.774	84.750	26.205	-76.482	-69.655	21.067	59.008	-72.254	-66.889	-64.518	-58.853	202.465	-62.255	-8191	255	
2619.683	1	1	0	0	0.1393	0.13133	0.13666	0.088786	0.17135	0.14842	0.21437	0.32861	0.2221	0.15454	0.30624	0.076497	0.20543	0.12096	0.1953	0.22217	0.35417	-0.23333	-0.38542	0.36875	-0.47292	0.045833	-0.1375	-0.75208	0.08125	-0.33958	-0.54792	0.17292	-0.5625	-0.325	0.066667	-0.75	202.426	40.270	62.342	232.567	104.272	152.881	209.437	231.077	1.470	-71.727	256.680	55.875	-83.399	256.234	38.104	116.449	0.00046313	0.00083506	0.00016338	915.53	2.2779e-06	3.6208e-06	824.31	352.22	6.8925e-06	4.8232e-06	320.45	119.03	132.46	57.879	2.9567e-06	56.055	0.00035726	0.00034414	8.5518e-05	941.62	3.9143e-06	3.8028e-06	848.91	362.6	3.9831e-06	3.7008e-06	330.05	123.22	136.72	60.067	3.3007e-06	57.867	-21.224	-12.373	-19.672	-74.419	33.955	8.725	-76.491	-69.382	147.452	60.155	-72.011	-66.898	-64.257	-58.586	46.789	-62.418	-8191	255	
2619.779	1	1	0	0	0.17817	0.2218	0.22886	0.23432	0.082183	0.22181	0.24653	0.054985	0.075018	0.066119	0.09211	0.16581	0.14293	0.33941	0.15361	0.36323	0.37917	-0.0875	-0.62083	-0.0083333	-0.46875	-0.22292	0.016667	-0.89375	0.275	-0.28542	-0.77708	0.095833	-0.66875	-0.36042	0.0875	-0.71042	165.540	30.345	61.501	179.701	38.903	105.264	-28.229	153.322	12.973	174.488	-55.889	252.130	238.668	239.937	11.455	218.092	0.00052211	0.00056528	0.00012325	917.03	3.6428e-06	6.0656e-06	825.63	352.2	4.7641e-06	5.1081e-06	320.15	119.32	132.2	58.398	8.8709e-07	56.447	0.00037559	0.000327	8.3957e-05	944.11	4.0079e-06	3.599e-06	849.99	363.53	4.0453e-06	3.4931e-06	329.73	123.36	136.97	60.542	3.2339e-06	58.371	-16.327	-22.379	-7.006	-74.627	55.592	44.539	-76.131	-69.276	57.141	36.709	-71.902	-66.567	-64.410	-58.647	107.314	-62.092	-8191	255	
2619.875	1	1	0	0	0.1572	0.10199	0.058934	0.088631	0.35139	0.1395	0.17231	0.38324	0.065676	0.15917	0.17726	0.22964	0.30435	0.162	0.1689	0.19075	0.26667	-0.16667	-0.48542	0.17917	-0.46875	-0.39583	0.05625	-0.88542	0.03125	-0.10208	-0.8125	0.12083	-0.42083	-0.41042	0.058333	-0.73333	-55.137	-35.923	-11.584	271.694	269.792	11.966	235.206	231.779	-9.026	37.729	232.509	216.550	265.262	214.337	223.982	-75.457	0.00047123	0.00039103	0.00017626	905.26	6.922e-06	6.4288e-06	819.96	351.49	8.5532e-06	4.6345e-06	318.55	119.77	133.06	59.475	5.9061e-06	57.373	0.00037496	0.00031677	8.2684e-05	937.07	3.9261e-06	3.4455e-06	841.94	362.64	3.9193e-06	3.4062e-06	327.88	123.96	137.31	61.567	3.3199e-06	59.215	-30.725	-1.897	-4.403	-74.579	8.266	58.779	-76.246	-69.207	61.276	49.090	-72.187	-66.991	-64.229	-58.472	34.528	-62.307	-8191	255	
2619.996	1	1	0	0	0.068535	0.10294	0.13518	0.18221	0.08831	0.19977	0.26383	0.29569	0.2461	0.076604	0.21195	0.087825	0.072986	0.2361	0.070195	0.20073	0.17917	0.14792	-0.48125	-0.12292	0.047917	-0.5	0.12708	-0.85417	-0.31875	0.014583	-0.83125	0.09375	-0.52083	-0.61667	0.46667	-0.76667	193.915	-71.653	-19.112	266.257	63.741	66.836	253.072	-13.814	-27.475	117.873	172.138	-52.673	123.314	245.208	-49.693	249.239	0.00064386	0.00084491	0.00018565	909.49	5.8721e-06	6.933e-06	815.88	351.51	4.4497e-06	1.0639e-06	319.28	119.53	132.79	59.092	2.861e-06	56.981	0.00036227	0.00031208	8.5498e-05	938.63	3.7763e-06	3.4236e-06	842.65	362.79	3.7444e-06	3.345e-06	329.4	123.83	136.93	61.082	3.5259e-06	58.727	-14.242	12.847	-11.283	-74.694	31.796	62.402	-76.264	-69.161	85.351	19.520	-71.840	-66.515	-64.027	-58.641	268.750	-62.295	-8191	255	
2620.090	1	1	0	0	0.18978	0.10592	0.19267	0.32034	0.084758	0.3392	0.10465	0.18729	0.37893	0.11662	0.025941	0.33838	0.078987	0.1609	0.18309	0.27166	0.25625	0.12917	-0.78958	0.18125	-0.21667	-0.56458	0.17292	-0.57917	-0.32917	0.072917	-0.59375	-0.15417	-0.09375	-0.59583	0.28125	-0.72708	45.126	183.210	240.391	211.423	-78.711	-42.285	63.063	204.613	19.579	50.246	-41.744	-72.295	200.987	208.829	251.059	253.043	0.00056741	0.00075256	5.0655e-05	910.56	8.1046e-06	9.7954e-07	825.64	352.81	1.114e-05	2.7659e-06	319.54	119.62	132.44	59.362	4.43e-06	57.385	0.00034384	0.00030052	9.1335e-05	940.97	3.5377e-06	3.2512e-06	847.91	363.69	3.6192e-06	3.2496e-06	329.85	123.96	136.75	61.445	3.8825e-06	59.364	-6.052	-21.440	25.390	-74.526	55.537	105.140	-76.490	-69.193	45.572	71.547	-71.726	-66.603	-64.212	-58.444	179.229	-62.179	-8191	255	
2620.187	1	1	0	0	0.27877	0.24341	0.14707	0.16075	0.24192	0.097583	0.15104	0.2814	0.32386	0.18627	0.29319	0.18788	0.11696	0.32626	0.28308	0.24785	0.083333	0.21667	-0.58958	-0.30208	-0.18125	-0.68333	0.060417	-0.43125	-0.48333	0.11042	-0.69792	-0.38958	0.2	-1.0583	0.19167	-0.52083	-21.961	122.925	193.651	126.058	268.664	-14.235	-37.153	250.768	-4.830	229.716	74.222	218.059	145.976	-23.435	71.425	-29.097	0.00045271	0.00036807	3.3843e-05	910.03	2.4576e-06	5.6516e-06	824.66	352.75	7.6452e-06	3.0095e-06	322.4	121.25	133.24	59.785	2.654e-06	58.11	0.00034205	0.0003054	0.0001023	939.48	3.5785e-06	3.411e-06	851.23	364.07	3.6222e-06	3.4512e-06	334.08	125.77	137.71	62.089	4.3148e-06	60.125	-27.708	-11.722	-16.324	-74.595	83.049	34.409	-76.287	-69.148	34.163	78.534	-72.099	-66.753	-63.967	-58.372	77.620	-62.093	-8191	255	
2620.283	1	1	0	0	0.22212	0.10868	0.097421	0.25925	0.10403	0.053999	0.28601	0.12845	0.017436	0.14868	0.32867	0.15304	0.22844	0.14759	0.085571	0.23655	-0.24375	0.39167	-0.64583	-0.17083	0.1875	-0.83958	-0.03125	-0.46875	-0.55208	0.16875	-0.67083	-0.41667	0.045833	-0.76875	-0.15208	-0.15	65.263	-73.645	-50.770	250.218	190.693	93.736	167.642	261.917	51.475	-69.536	201.697	249.067	86.674	220.450	-85.267	253.769	0.0004786	0.00072791	6.8787e-05	912.1	5.6031e-06	2.3651e-06	822.4	352.96	4.743e-06	4.1303e-06	320.64	121.25	133.54	59.886	2.4598e-06	57.892	0.00034636	0.00033161	0.00010999	940.9	3.5806e-06	3.7317e-06	852.73	363.8	3.6771e-06	3.8181e-06	333.61	125.34	137.83	62.196	4.4417e-06	59.879	-15.674	-12.601	-41.787	-74.464	72.486	158.247	-76.211	-69.194	94.938	95.600	-71.558	-66.533	-64.258	-58.389	82.726	-62.243	-8191	255	
2620.403	1	1	0	0	0.13817	0.068786	0.37737	0.41373	0.18879	0.13242	0.43111	0.1664	0.22877	0.10956	0.3696	0.051351	0.14286	0.17541	0.25578	0.22971	-0.42917	0.26458	-0.63333	-0.72708	0.25625	-0.65833	-0.085417	-0.25417	-0.72708	0.24167	-0.47083	-0.58333	0.066667	-0.83958	-0.041667	-0.079167	78.554	228.755	116.995	231.352	177.748	199.095	187.730	-34.252	131.229	114.878	166.569	263.872	174.863	270.586	-3.264	131.715	0.000478	9.3583e-05	0.0001128	915.43	1.249e-06	3.4466e-06	824.83	353.92	2.419e-06	3.4501e-06	322.2	119.83	132.64	58.935	2.4391e-06	56.755	0.00034652	0.00036751	0.00011053	942.93	3.5722e-06	4.1015e-06	853.42	365.01	3.6141e-06	4.2237e-06	333.21	123.97	136.96	61.421	4.2801e-06	58.576	-24.689	136.080	-12.582	-74.598	55.596	73.437	-76.296	-68.987	102.392	87.398	-71.491	-66.709	-64.283	-58.415	78.880	-62.065	-8191	255	
2620.475	1	1	0	0	0.17058	0.22713	0.085182	0.41899	0.057592	0.1358	0.30992	0.2001	0.35907	0.11526	0.23252	0.25618	0.20292	0.19551	0.077623	0.1626	-0.39583	0.13125	-0.1375	-0.75417	0.32917	-0.64375	-0.33333	-0.0083333	-0.57083	0.35417	-0.725	-0.6	0.2	-0.84167	-0.225	-0.05	28.470	217.632	-69.636	211.283	148.797	249.445	223.326	-66.354	-28.463	249.980	270.683	241.860	262.033	231.493	140.204	-80.651	0.00049086	0.0002828	0.00022653	918.95	5.1019e-06	3.6468e-06	830.3	354.04	4.8574e-06	2.6205e-06	322.54	119.09	132.37	58.737	6.0367e-06	56.297	0.00034759	0.0004	0.00010699	948.25	3.6922e-06	4.4252e-06	857.98	365.33	3.807e-06	4.4774e-06	333.2	123.32	136.53	61.08	4.1839e-06	58.166	-6.248	30.696	-25.142	-74.531	84.531	5.199	-76.195	-69.296	76.097	44.964	-71.798	-66.628	-64.351	-58.468	96.647	-61.969	-8191	255	
2620.571	1	1	0	0	0.31588	0.098762	0.076821	0.28789	0.18561	0.28809	0.27445	0.50346	0.12562	0.08216	0.055712	0.057902	0.10672	0.19803	0.1066	0.3209	-0.29375	0.045833	0.029167	-0.75625	-0.0125	-0.59375	-0.57083	0.15625	-0.57083	0.047917	-0.33333	-0.59583	0.21042	-0.56042	-0.50625	0.16042	-36.447	-50.065	255.714	160.252	27.777	144.471	255.958	178.809	-3.219	-33.471	119.200	144.894	-63.824	160.669	211.812	251.024	0.00060585	0.00031517	0.00014961	920.96	3.3864e-07	3.3392e-06	833.49	354.62	4.81e-06	3.2112e-06	325	119.64	132.4	58.353	3.488e-06	56.428	0.0003767	0.00042942	0.00010444	951.43	4.068e-06	4.6371e-06	861.17	365.71	4.2622e-06	4.6601e-06	334.64	123.45	136.75	60.687	4.1682e-06	58.234	-33.625	-6.082	-34.496	-74.662	34.684	41.202	-76.196	-69.002	143.759	12.642	-71.761	-66.691	-64.193	-58.410	60.554	-62.022	-8191	255	
2620.667	1	1	0	0	0.22626	0.18484	0.20945	0.2849	0.4049	0.11829	0.17145	0.10948	0.16278	0.077382	0.18368	0.18532	0.18806	0.24259	0.22017	0.14268	-0.46042	-0.16458	0.01875	-0.725	0.060417	-0.6	-0.68125	-0.072917	-0.58125	0.18958	-0.12292	-0.54792	0.04375	-0.66667	-0.58542	0.060417	237.588	253.041	-82.289	180.748	78.245	188.997	137.036	4.774	226.033	250.039	24.882	7.208	19.298	171.880	267.344	76.409	0.00048792	0.00029856	0.00014668	921.61	1.3298e-06	7.4562e-06	840.59	355.47	1.9499e-06	5.7513e-06	325.31	120.14	131.68	58.352	4.3602e-06	56.893	0.00041934	0.0004334	0.00010407	952.78	4.6781e-06	4.7494e-06	867	366.45	4.8766e-06	4.8468e-06	336.91	124.37	137.28	60.872	4.4239e-06	58.775	-30.914	-15.957	-24.131	-74.441	107.553	0.675	-76.511	-69.455	4.887	43.649	-72.028	-66.692	-64.310	-58.393	91.721	-62.263	-8191	255	
2620.786	1	1	0	0	0.33272	0.11713	0.30158	0.17649	0.17597	0.099417	0.052693	0.22989	0.17375	0.20472	0.39939	0.082927	0.18168	0.43132	0.10232	0.1605	-0.44792	-0.077083	0.33333	-0.87083	0.0625	-0.2125	-0.67708	0.089583	-0.72083	-0.16042	-0.04375	-0.89583	0.089583	-0.35625	-0.53125	0.2	110.659	266.950	117.810	248.547	-22.242	131.432	268.372	253.121	177.784	194.587	-86.849	209.582	-86.216	256.795	188.964	248.234	0.00066774	0.00090521	0.0001162	920.93	1.8803e-06	7.432e-06	839.21	354.59	4.5879e-06	4.176e-06	324.57	118.5	131.45	57.631	5.9105e-06	54.855	0.0004803	0.00044881	0.00010994	953.65	5.2572e-06	4.7542e-06	866.29	367.33	5.3535e-06	4.8726e-06	335.42	123.44	136.6	60.046	4.47e-06	57.251	-8.691	-51.554	-15.817	-74.627	-0.286	23.102	-76.394	-69.480	81.554	28.567	-71.688	-66.754	-64.413	-58.362	50.727	-62.375	-8191	255	
2620.882	1	1	0	0	0.25406	0.12402	0.32	0.4504	0.19375	0.075683	0.12497	0.091326	0.16047	0.045704	0.1517	0.09168	0.24657	0.37048	0.24386	0.14583	-0.13958	-0.56458	0.25625	-0.85417	0.125	0.072917	-0.74583	0.0625	-0.44792	-0.6125	0.010417	-0.66042	-0.12292	-0.18958	-0.48125	-0.14167	76.607	223.053	26.002	234.535	196.056	-11.456	-61.788	-34.625	44.608	39.185	234.743	135.670	265.066	240.355	199.881	200.445	0.00042185	0.0005151	6.4607e-05	928.46	3.8949e-06	7.1027e-06	838.64	355.63	1.9722e-06	3.1298e-06	321.69	117.26	130.41	57.942	1.1095e-06	55.867	0.00049947	0.00043635	0.0001093	963	5.3586e-06	4.6345e-06	868.63	368.1	5.2171e-06	4.5398e-06	333.46	122.38	135.86	60.091	4.195e-06	58.027	-34.993	-47.010	86.840	-74.743	38.140	46.521	-76.503	-69.490	63.066	77.451	-71.968	-66.659	-64.468	-58.434	45.709	-62.362	-8191	255	
2620.978	1	1	0	0	0.11536	0.21915	0.025601	0.12515	0.16808	0.25753	0.36293	0.16012	0.16111	0.20788	0.30645	0.1776	0.35444	0.12193	0.13391	0.31219	0.085417	-0.31042	0.23333	-0.67083	-0.28542	0.06875	-0.82292	0.00625	-0.41042	-0.23125	0.15417	-0.76458	-0.05	-0.0625	-0.50833	-0.1	76.325	265.780	272.169	249.510	-69.129	134.628	197.748	244.236	-34.864	127.065	91.178	-24.274	-81.952	49.266	114.782	201.985	0.00039188	0.00066442	0.0001576	916.72	4.8529e-06	5.6526e-06	833.52	354.39	3.1952e-06	2.9296e-06	325.89	120.75	132.66	60.212	2.1242e-06	58.44	0.00045833	0.0004084	0.00010677	952.32	4.9919e-06	4.4107e-06	860.41	367.76	4.961e-06	4.555e-06	336.09	125.62	138.02	62.524	4.7125e-06	60.856	-29.659	9.655	-1.785	-74.635	67.395	98.904	-76.196	-69.405	48.927	47.288	-71.684	-66.499	-64.366	-58.387	226.479	-62.093	-8191	255	
2621.076	1	1	0	0	0.17041	0.16629	0.087502	0.30501	0.088485	0.12625	0.31789	0.33824	0.11304	0.050235	0.069111	0.22155	0.08268	0.098004	0.17486	0.094936	-0.070833	-0.50417	0.28958	-0.62708	-0.22292	0.15417	-0.66458	0.0083333	-0.18125	-0.53333	0.25	-0.5	-0.59375	0.17708	-0.73125	-0.18958	236.725	105.423	254.900	-49.358	113.028	-19.281	230.907	167.580	92.131	9.602	78.414	-41.477	215.992	54.407	-64.664	202.402	0.00055105	0.00056386	0.00012646	916.57	6.5134e-06	4.2246e-06	839.67	356.21	6.026e-06	7.2196e-06	326.57	121.46	133.13	60.373	2.1e-06	58.543	0.00046936	0.00043281	0.00012282	956.19	5.2394e-06	4.6869e-06	870.7	370.74	5.1584e-06	4.782e-06	339.9	126.69	138.59	62.714	5.3537e-06	61.163	-11.365	-45.325	0.853	-74.509	45.716	27.753	-76.309	-69.335	54.991	59.262	-71.860	-66.653	-64.221	-58.391	219.934	-62.087	-8191	255	
2621.171	1	1	0	0	0.086306	0.15352	0.13203	0.12552	0.29707	0.25803	0.22454	0.19787	0.26717	0.40239	0.098204	0.044953	0.21841	0.40692	0.16713	0.083467	0.19583	-0.52292	0.18125	-0.48542	-0.38125	0.18333	-0.59167	-0.17083	-0.23542	-0.73542	0.10417	-0.57708	-0.55833	0.0083333	-0.88958	-0.275	202.920	16.461	228.531	92.067	242.337	-78.738	266.865	86.188	148.037	79.875	-14.431	259.045	224.748	265.570	155.776	215.551	0.00060735	0.00072854	9.6345e-06	922.27	2.759e-06	3.79e-06	841.09	357.97	8.7459e-06	5.3993e-06	330.4	123.48	135.08	62.138	7.3767e-06	60.096	0.00046756	0.00043661	0.00013783	957.84	5.1255e-06	4.5981e-06	873.63	371.29	4.9956e-06	4.7756e-06	343.85	128.9	140.17	64.554	5.8152e-06	62.582	-16.565	-0.708	257.426	-74.627	24.719	-11.859	-76.393	-69.193	37.595	56.203	-71.703	-66.528	-64.211	-58.319	71.686	-62.227	-8191	255	
2621.267	1	1	0	0	0.17028	0.016844	0.13383	0.11456	0.29728	0.13461	0.29993	0.24474	0.28259	0.10795	0.29857	0.052015	0.24801	0.11167	0.27291	0.10666	0.60833	-0.71042	0.13333	-0.36458	-0.4375	0.15208	-0.74583	-0.13958	0.22083	-0.79375	-0.10833	-0.24375	-0.80417	0.083333	-0.57292	-0.33333	109.620	176.175	107.525	140.357	241.693	232.514	166.852	207.907	232.746	-55.129	212.380	238.908	47.125	-35.699	7.802	-36.326	0.0005551	0.00049227	0.00012541	919.33	9.0805e-06	2.8448e-06	839.44	358.2	7.6429e-06	3.4598e-06	327.96	122.6	134.72	61.514	6.1611e-06	59.255	0.00046949	0.0004561	0.00015216	956.69	5.184e-06	5.0611e-06	874.8	372.21	5.0918e-06	5.2879e-06	343.5	127.79	140.13	64.05	6.1991e-06	61.804	-22.684	-1.517	-8.999	-74.348	36.762	100.110	-75.936	-69.421	12.780	211.784	-71.905	-66.432	-64.206	-58.373	98.669	-62.519	-8191	255	
2621.363	1	1	0	0	0.24243	0.081628	0.30314	0.20991	0.11284	0.14401	0.17037	0.059926	0.048619	0.2413	0.01721	0.19731	0.17897	0.34856	0.1626	0.38318	0.41667	-0.67292	0.12917	-0.46667	-0.55417	0.22917	-0.72708	-0.60417	0.0375	-0.7375	0.097917	-0.3375	-0.60417	0.20417	-0.41667	-0.44583	239.570	120.971	240.829	262.216	130.087	-40.909	179.070	125.582	-38.672	34.153	-86.451	250.739	208.490	243.510	121.794	206.263	0.00056634	0.00047058	0.000117	922.79	4.3517e-06	2.2315e-06	841.42	358.83	3.9883e-06	3.0099e-06	329.96	123.29	135.39	62.113	2.2958e-06	60.536	0.00046796	0.00050697	0.00015827	959.49	5.1279e-06	5.6008e-06	877.56	373.46	4.9237e-06	5.7148e-06	344.98	128.26	140.88	64.808	6.0071e-06	62.696	-25.162	8.753	4.939	-74.547	66.118	146.986	-76.266	-69.210	44.941	170.132	-72.028	-66.810	-64.112	-58.554	39.150	-62.341	-8191	255	
2621.484	1	1	0	0	0.16451	0.063475	0.11624	0.20775	0.029579	0.15183	0.33493	0.3094	0.26905	0.19401	0.036975	0.096502	0.19777	0.13289	0.13934	0.48963	0.35625	-0.65	0.10833	-0.16667	-0.73125	0.2	-0.725	-0.69375	0.2875	-0.6375	-0.47708	-0.14792	-1.0104	-0.10625	-0.20417	-0.76458	243.601	257.197	167.475	241.302	-64.474	5.371	231.515	211.486	224.055	201.529	-33.396	37.548	255.451	219.851	16.780	232.691	0.00056777	0.00049	0.00010612	924.03	6.0585e-06	5.8279e-06	840.74	360.1	5.2284e-06	6.0044e-06	330.76	125.31	136.67	63.057	3.3764e-06	60.998	0.00045766	0.00054246	0.00015137	957.68	5.0763e-06	6.0596e-06	877.02	373.98	5.1076e-06	6.1301e-06	346.35	130.16	142	65.805	5.9042e-06	63.702	-24.400	-86.826	2.961	-74.553	68.301	65.197	-76.280	-69.214	237.736	71.379	-71.912	-66.637	-64.256	-58.423	116.058	-62.384	-8191	255	
2621.580	1	1	0	0	0.32656	0.13532	0.073779	0.27705	0.1485	0.26565	0.11262	0.32498	0.031383	0.19163	0.10509	0.25642	0.15026	0.2439	0.13091	0.2214	0.38125	-0.5125	-0.064583	0.11875	-0.91458	-0.13333	-0.38542	-0.70625	0.11667	-0.57083	-0.56458	0.060417	-0.53333	-0.18958	-0.2875	-0.42083	95.878	134.200	48.348	-85.756	171.300	141.684	236.148	232.166	90.844	-45.858	224.038	230.298	181.999	176.625	263.022	232.891	0.00063296	0.0012766	0.00026628	922.55	8.3498e-06	3.0325e-06	851.45	364.1	2.1811e-06	1.9033e-06	336.35	126.39	137.45	63.024	5.5429e-06	62.18	0.0004963	0.00058991	0.0001508	959.91	5.6398e-06	6.5471e-06	884.18	376.77	5.705e-06	6.5667e-06	351.09	131.63	143.36	66.214	5.9055e-06	64.664	-15.610	20.858	-22.037	-74.424	87.160	58.442	-76.304	-69.235	72.255	69.919	-72.000	-66.744	-64.081	-58.423	80.500	-62.227	-8191	255	
2621.676	1	1	0	0	0.12118	0.13148	0.23418	0.12543	0.070253	0.066857	0.16449	0.1595	0.14499	0.24509	0.23263	0.16548	0.27436	0.11069	0.14131	0.088622	0.47917	-0.44167	-0.27292	-0.16458	-0.66667	-0.022917	-0.31458	-0.82292	0.19167	-0.47917	-0.425	-0.047917	-0.84792	-0.13125	-0.12083	-0.8	-55.715	52.196	265.275	256.018	-21.272	270.064	152.250	-74.339	190.124	172.241	-75.405	207.892	-50.283	136.974	121.412	-25.702	0.00070095	0.00088396	0.00018956	929.68	7.8193e-06	3.9909e-06	858.21	365.42	4.5207e-06	6.3992e-06	338.95	126.95	137.86	63.36	4.0828e-06	62.017	0.00056192	0.00060784	0.00015409	965.29	6.374e-06	6.7708e-06	892.61	378.7	6.4942e-06	6.6207e-06	353.29	132.34	144.18	66.376	5.7431e-06	64.449	-16.173	-62.411	9.426	-74.490	23.947	41.699	-76.289	-69.416	127.342	52.585	-71.713	-66.507	-64.280	-58.338	49.751	-62.252	-8191	255	
2621.772	1	1	0	0	0.15555	0.31439	0.07238	0.39157	0.28038	0.13102	0.35493	0.11293	0.045526	0.15988	0.053368	0.16934	0.055573	0.22552	0.061141	0.050317	0.52708	-0.52917	-0.57292	0.029167	-0.53542	-0.41042	-0.0375	-0.69375	0.01875	-0.38542	-0.72708	0.1125	-0.60208	-0.4875	0.21458	-0.78333	-77.244	-47.524	-58.858	209.544	244.829	190.888	199.224	206.514	179.693	55.860	222.777	182.524	264.349	252.616	163.380	148.445	0.0005981	0.00063839	0.0002151	928.28	1.2579e-06	9.7661e-06	854.88	364.54	7.8342e-06	1.9345e-06	338.58	126.02	138.11	63.812	2.3971e-06	62.315	0.00060312	0.00058819	0.00015021	964.5	6.7792e-06	6.5071e-06	886.12	379	7.0037e-06	6.5142e-06	351.42	132.13	144.8	66.823	5.8964e-06	65.013	-16.658	19.907	-24.609	-74.387	123.296	26.551	-76.106	-69.224	76.999	23.333	-71.813	-66.504	-64.034	-58.419	91.889	-62.322	-8191	255	
2621.868	1	1	0	0	0.22331	0.074333	0.082209	0.12155	0.077974	0.14031	0.034247	0.21565	0.11265	0.13074	0.10783	0.18264	0.085041	0.066955	0.029971	0.24838	0.24167	-0.20208	-0.5375	0.25625	-0.75	-0.1	0.06875	-0.85208	0.14167	-0.24375	-0.70625	0.325	-0.75	-0.31042	0.2625	-0.86458	243.852	96.085	257.026	184.331	-69.176	-28.889	252.804	-85.305	264.927	200.457	183.793	-50.614	220.631	234.361	-26.079	145.607	0.00063017	0.00089687	0.00024556	930.03	4.3503e-06	7.4116e-06	852.39	366.25	1.5412e-05	8.3487e-06	337.78	126.6	138.36	64.173	4.8748e-06	62.13	0.00066931	0.00058587	0.00015393	967.53	7.397e-06	6.6638e-06	886.65	381.37	7.544e-06	6.6368e-06	352.66	133.21	145.38	66.993	6.2423e-06	65.278	-11.700	-18.158	-14.278	-74.632	2.348	47.774	-76.191	-69.112	61.909	12.720	-71.659	-66.187	-63.952	-58.214	69.597	-62.344	-8191	255	
2621.963	1	1	0	0	0.21893	0.068762	0.25233	0.21519	0.0063872	0.22749	0.16867	0.12406	0.18182	0.098842	0.22388	0.1352	0.21755	0.13127	0.080193	0.40484	0.22708	0.16458	-0.67292	0.060417	-0.30625	-0.56458	0.060417	-0.72917	-0.095833	-0.11667	-0.62708	0.1625	-0.29375	-0.4375	0.34792	-0.61875	179.440	271.120	163.053	-57.380	172.049	-23.496	122.540	-83.138	11.606	-44.318	193.232	138.227	187.991	-67.770	-40.676	228.151	0.00057221	0.00053738	0.00018578	933	3.2739e-06	1.8927e-06	855.16	365.29	5.5662e-06	3.5662e-06	339.72	128.27	138.69	64.136	3.5144e-06	62.656	0.00070536	0.000622	0.00016369	973.6	7.6599e-06	6.8706e-06	889.96	382.77	7.6411e-06	6.7218e-06	356.11	134.86	145.89	67.177	6.5213e-06	66.034	-15.335	-4.988	-10.005	-74.513	71.046	5.395	-76.065	-69.147	80.849	91.920	-71.870	-66.505	-63.935	-58.259	84.713	-62.240	-8191	255	
2622.083	1	1	0	0	0.11596	0.15011	0.046549	0.095138	0.082902	0.065194	0.037647	0.17226	0.3181	0.20032	0.022038	0.24751	0.45677	0.09128	0.11921	0.39536	0.085417	0.085417	-0.71667	-0.022917	-0.075	-0.72917	0.14583	-0.9	-0.24167	0.24583	-0.87292	-0.14583	-0.3125	-0.84792	0.3125	-0.61875	151.558	68.831	107.900	179.673	192.783	186.256	-55.290	-18.701	242.433	-40.128	-78.108	223.143	-73.032	55.581	63.986	216.268	0.00046434	0.0005698	0.0001747	929.38	7.7801e-06	7.9889e-06	862.14	368.26	5.0889e-06	6.3893e-06	341.7	127.59	139.32	63.334	2.9313e-06	62.325	0.00069239	0.00060978	0.00017157	977.64	7.3218e-06	6.8122e-06	899.84	385.54	7.3141e-06	6.4935e-06	358.96	135.08	145.48	66.355	6.9067e-06	65.527	-12.065	10.261	2.311	-74.612	-7.291	49.827	-76.241	-69.092	123.701	48.651	-71.702	-66.542	-63.978	-58.355	125.517	-62.444	-8191	255	
2622.179	1	1	0	0	0.07776	0.16509	0.08242	0.077113	0.19592	0.36542	0.29906	0.36946	0.065512	0.068614	0.078166	0.11227	0.18116	0.19592	0.12233	0.079779	-0.075	0.34583	-0.69792	-0.2375	0.064583	-0.61042	0.2125	-0.58542	-0.25833	0.28125	-0.83333	0.016667	-0.26667	-0.69583	0.24792	-0.62708	-29.648	-73.737	195.923	104.153	72.588	-23.274	-84.837	188.235	38.001	73.414	51.163	-47.694	259.857	251.601	117.933	-64.390	0.00039796	0.00029789	0.00015775	936.23	2.5064e-06	4.588e-06	862.88	367.95	5.6611e-06	4.2737e-06	340.22	127.4	138.03	63.527	5.2602e-06	62.272	0.00064441	0.00057749	0.00017928	980.34	6.8322e-06	6.432e-06	901.53	384.65	6.9122e-06	6.3012e-06	358.66	134.47	145.11	66.611	7.4989e-06	65.544	-8.297	-21.668	18.675	-74.632	53.105	67.725	-76.092	-69.198	-23.357	31.807	-71.645	-66.647	-64.010	-58.320	175.205	-62.130	-8191	255	
2622.276	1	1	0	0	0.069309	0.14416	0.40029	0.27808	0.11334	0.33287	0.20842	0.17839	0.19597	0.19516	0.22131	0.20519	0.3438	0.32088	0.1803	0.33155	-0.04375	0.13958	-0.7375	-0.28542	0.1875	-0.72083	0.083333	-0.28542	-0.6375	0.22917	-0.81458	-0.30208	0.1	-0.75	0.11875	-0.3	81.761	-77.226	-50.841	235.714	160.388	61.346	216.333	223.372	188.848	268.192	185.705	200.809	-85.339	246.848	105.693	252.982	0.00049825	0.00046073	0.00021381	931.9	1.2791e-06	7.2805e-06	856.76	366.15	4.0956e-06	2.9692e-06	340.14	128.22	139.13	63.843	3.9772e-06	63.064	0.00063387	0.00057825	0.00019507	974.56	6.6478e-06	6.4991e-06	896.18	383.35	6.8533e-06	6.5023e-06	359.39	134.74	145.41	67.112	8.0844e-06	65.983	-22.068	39.203	10.708	-74.627	67.394	-16.382	-76.392	-69.238	76.709	30.279	-71.574	-66.710	-64.039	-58.197	28.567	-62.123	-8191	255	
2622.347	1	1	0	0	0.20424	0.13918	0.052012	0.17601	0.26417	0.114	0.28426	0.19939	0.22755	0.26624	0.2598	0.013734	0.33052	0.16315	0.30008	0.21813	-0.34375	0.32292	-0.4125	-0.40208	0.05625	-0.57292	-0.00625	-0.30208	-0.41458	0.15208	-0.46667	-0.34167	0.1375	-0.83125	0.10833	-0.13958	-56.176	148.099	-2.040	249.808	17.307	198.027	236.353	100.364	31.591	185.828	253.710	148.474	245.843	164.316	30.727	213.939	0.0005849	0.00072994	0.0002007	932.96	6.6335e-06	3.2206e-06	856.36	367.75	9.9352e-06	2.7882e-06	342.07	127.39	138.45	63.186	2.3443e-06	62.039	0.00063015	0.00063255	0.00020628	972.89	6.6607e-06	7.1447e-06	899.7	383.02	6.8068e-06	7.139e-06	360.67	134.06	144.85	66.383	8.23e-06	65.055	-5.612	244.434	11.101	-74.493	6.839	-5.356	-76.190	-68.903	11.213	167.833	-71.768	-66.598	-64.293	-58.441	190.937	-62.213	-8191	255	
2622.443	1	1	0	0	0.11953	0.074526	0.17152	0.19347	0.11323	0.15195	0.052876	0.27216	0.10215	0.13334	0.30418	0.21937	0.16208	0.17026	0.24231	0.24405	-0.18958	0.23333	-0.53958	-0.52083	0.25625	-0.65	-0.12292	0.11458	-0.53958	0.097917	-0.4375	-0.45625	0.010417	-0.63542	-0.18958	-0.058333	-70.479	73.918	77.780	112.923	-75.111	269.828	271.983	205.445	119.620	-60.152	238.380	-43.664	256.743	138.272	-69.663	120.964	0.0006155	0.00058802	0.00012009	932.37	5.1523e-06	3.235e-06	861.62	365.55	3.5442e-06	3.1551e-06	339.35	125.73	136.04	61.473	3.942e-06	59.824	0.00062138	0.00070277	0.0002073	976.05	6.7874e-06	8.0519e-06	905.78	381.54	7.0321e-06	8.1586e-06	358.68	132.58	142.84	64.753	8.1992e-06	62.896	-17.637	28.518	5.576	-74.682	99.351	92.824	-76.520	-69.354	148.637	159.133	-71.915	-66.775	-64.576	-58.322	25.183	-62.203	-8191	255	
2622.564	1	1	0	0	0.072869	0.18059	0.19345	0.26489	0.15286	0.035866	0.36576	0.13396	0.15879	0.20528	0.14024	0.1039	0.14412	0.28295	0.090357	0.10533	-0.45833	0.33542	-0.225	-0.675	-0.064583	-0.69792	-0.4875	-0.16042	-0.82292	0.077083	-0.32708	-0.81875	0.1625	-0.61042	-0.34167	0.1125	104.777	237.757	-21.195	-54.025	134.633	29.571	164.391	177.139	229.535	67.135	81.615	74.212	258.890	-83.647	251.067	-45.224	0.00067647	0.00019073	0.00017942	940.22	4.0692e-06	4.2584e-06	865.24	361.3	3.4273e-06	4.4916e-06	335.39	121.47	131.9	57.779	5.4064e-06	56.219	0.00065073	0.00076644	0.00020193	980.53	7.0148e-06	8.5147e-06	907.04	377.57	7.2331e-06	8.4843e-06	353.21	127.76	138.48	60.821	7.5277e-06	58.914	-20.616	186.060	-35.414	-74.880	225.055	50.638	-76.337	-69.573	16.332	110.055	-72.110	-67.007	-64.549	-58.580	62.719	-62.492	-8191	255	
2622.660	1	1	0	0	0.26402	0.14457	0.10112	0.34385	0.17141	0.4211	0.22366	0.40965	0.32339	0.094276	0.28609	0.12539	0.34739	0.10421	0.10738	0.107	-0.25	-0.070833	-0.10417	-0.8875	0.2	-0.69792	-0.51875	0.31875	-0.85208	0.066667	-0.14583	-0.575	0.13958	-0.675	-0.42292	0.3125	249.204	-47.706	-44.374	263.468	60.201	218.924	214.193	238.471	-18.348	227.417	251.649	41.731	-59.726	217.940	15.602	188.071	0.00054128	0.00081652	0.00016239	939.31	3.6483e-06	7.4e-06	856.89	358.83	4.4549e-06	6.5209e-06	330.55	119.36	130.6	56.735	5.203e-06	55.336	0.00066346	0.00075565	0.00018366	980.4	7.216e-06	8.1228e-06	898.75	373.66	7.4022e-06	8.0146e-06	346.33	125.14	137.33	59.816	6.9223e-06	57.968	-29.738	-4.236	32.573	-74.849	146.178	36.284	-76.878	-69.726	153.274	75.637	-72.297	-66.882	-64.568	-58.450	81.185	-62.391	-8191	255	
2622.756	1	1	0	0	0.1334	0.052329	0.044209	0.18524	0.17699	0.30526	0.16299	0.43226	0.23533	0.29401	0.05777	0.37411	0.37803	0.1084	0.1726	0.05278	-0.29167	-0.15	-0.275	-0.73958	0.31042	-0.54792	-0.81667	0.15208	-0.55208	-0.25833	-0.064583	-0.67917	0.12083	-0.46042	-0.54167	0.14167	177.425	-10.539	-65.306	-6.833	-57.242	7.990	196.658	207.171	90.713	59.060	156.829	135.949	209.311	263.551	-54.774	-8.932	0.00056503	0.00074828	2.149e-05	932.88	5.5608e-06	5.5682e-06	851.66	356.36	5.094e-06	6.0706e-06	327.31	117.68	129.29	55.729	6.3827e-06	53.87	0.00068067	0.00069782	0.00017019	971.85	7.4143e-06	7.3917e-06	888.81	371.17	7.6159e-06	7.2873e-06	342.65	123.5	135.97	58.642	6.476e-06	56.52	-33.641	-32.784	117.931	-75.029	205.933	10.815	-76.566	-69.676	-61.402	4.550	-72.113	-66.953	-64.585	-58.523	74.671	-62.507	-8191	255	
2622.875	1	1	0	0	0.16798	0.3122	0.16897	0.14585	0.16924	0.21581	0.30109	0.18909	0.26718	0.13184	0.3311	0.20921	0.15669	0.20234	0.13881	0.22609	-0.375	0.039583	0.066667	-0.91667	0.13542	-0.41875	-0.66667	-0.0041667	-0.59375	-0.275	0.11042	-0.75208	0.11875	-0.079167	-0.75208	0.2	-69.772	120.924	150.120	-62.243	45.476	181.736	211.330	165.438	112.634	-21.202	234.565	256.117	205.823	-65.369	245.438	51.536	0.0003905	0.0011398	0.00010334	931.16	2.745e-06	1.0086e-05	854.32	354.95	5.3777e-06	6.3791e-06	324.84	116.89	128.99	55.459	5.151e-06	54.054	0.00068109	0.00062859	0.0001545	970.67	7.3523e-06	6.5356e-06	886.26	369.02	7.2766e-06	6.5778e-06	340.3	122.7	135.34	58.267	6.0438e-06	56.851	-4.144	-19.423	33.282	-74.774	-52.102	34.019	-76.732	-69.714	52.501	56.106	-72.363	-67.134	-64.549	-58.499	83.336	-62.399	-8191	255	
2622.949	1	1	0	0	0.086031	0.095157	0.27353	0.16261	0.24801	0.053455	0.13662	0.21549	0.27989	0.097187	0.20199	0.2344	0.41682	0.23457	0.16255	0.15525	-0.089583	-0.17292	-0.079167	-0.875	-0.035417	-0.05625	-1.0021	-0.052083	-0.48333	-0.43125	0.16458	-0.83333	-0.1125	-0.070833	-0.52292	-0.19792	183.738	-13.336	-17.323	221.426	180.176	236.612	13.825	135.526	-39.211	2.254	210.452	170.385	-57.484	271.772	-73.484	-18.320	0.00054672	0.0011346	0.00011886	926.8	7.5933e-06	4.8539e-06	849.48	355.33	9.5762e-06	1.8806e-06	327.37	117.82	129.37	56.398	3.1009e-06	54.735	0.00065861	0.00059211	0.00014672	967.59	7.1282e-06	6.1755e-06	884.12	369.74	6.8941e-06	6.1682e-06	340.14	123.93	135.54	58.94	5.522e-06	57.658	0.459	-54.784	-9.885	-74.821	74.421	79.379	-76.415	-69.690	72.381	-3.106	-72.144	-66.686	-64.458	-58.551	36.642	-62.346	-8191	255	
2623.045	1	1	0	0	0.043822	0.1501	0.16366	0.2005	0.13626	0.10878	0.09654	0.2149	0.21225	0.066316	0.067412	0.27016	0.33942	0.24999	0.12978	0.16288	-0.10208	-0.325	0.10625	-0.60833	-0.085417	0.077083	-0.89375	-0.11667	-0.17292	-0.68333	0.20833	-0.425	-0.33125	0.05625	-0.81042	-0.097917	-9.558	55.280	130.509	219.369	61.107	194.569	164.713	231.116	225.156	18.691	77.408	238.414	253.279	199.573	94.643	17.309	0.0004716	0.00049852	9.5731e-05	927.38	3.061e-06	8.3326e-06	853.95	356.33	8.8346e-06	2.9833e-06	330.65	118.83	130.25	56.833	3.9847e-06	55.687	0.00056783	0.00051751	0.00013204	968.07	6.1263e-06	5.3178e-06	888.14	370.79	5.9467e-06	5.5153e-06	343.03	124.74	136.08	59.341	5.6847e-06	58.336	-0.914	44.059	4.065	-74.776	-0.974	67.688	-76.359	-69.515	55.683	50.076	-72.254	-66.729	-64.403	-58.521	155.353	-62.361	-8191	255	
2623.164	1	1	0	0	0.17489	0.096303	0.27326	0.064802	0.21957	0.11735	0.12898	0.25807	0.12145	0.20274	0.12947	0.14208	0.34817	0.26026	0.12483	0.33291	0.22917	-0.54583	0.35417	-0.45625	-0.29583	-0.05	-0.6875	-0.16667	-0.13542	-0.6625	0.19792	-0.4375	-0.6	0.08125	-0.77708	-0.052083	74.022	208.375	230.013	235.071	211.770	11.378	222.583	196.904	-12.775	174.428	171.691	264.843	-44.338	-79.234	-42.499	-6.202	0.00042689	0.00081351	0.00013193	928.96	6.8014e-06	6.416e-06	851.29	357.14	5.0494e-06	5.4648e-06	328.14	118.15	129.9	56.982	8.4853e-07	55.424	0.00054185	0.00051284	0.00014503	968.59	5.9911e-06	5.385e-06	886.09	371.43	5.878e-06	5.5702e-06	342.48	124.39	135.98	59.503	6.2582e-06	58.099	-18.636	-14.155	-28.556	-74.896	-13.413	42.480	-76.515	-69.559	51.667	60.842	-71.926	-66.695	-64.226	-58.537	-74.946	-62.588	-8191	255	
2623.260	1	1	0	0	0.24526	0.062651	0.18562	0.27414	0.16314	0.20115	0.38043	0.27698	0.21368	0.34752	0.1089	0.2999	0.24424	0.22863	0.12924	0.19938	0.22292	-0.67708	0.38333	-0.51667	-0.23125	0.10417	-0.79583	-0.25833	0.079167	-0.54375	0.077083	-0.575	-0.56875	0.225	-0.66042	-0.34792	-55.991	-73.456	55.497	222.985	-77.010	2.150	196.975	253.286	256.145	90.632	60.643	266.708	-85.538	244.957	228.151	182.809	0.0005494	0.00041328	0.00015177	929.48	6.121e-06	2.5881e-06	846.45	354.25	5.6579e-06	2.4414e-06	326.46	118.87	130.41	57.536	3.7467e-06	56.055	0.00052636	0.00050048	0.00015921	967.61	5.8218e-06	5.2925e-06	883.01	369.91	5.6109e-06	5.461e-06	342.2	124.42	135.94	60.01	6.4313e-06	58.712	-13.406	-43.475	61.058	-74.708	52.310	97.352	-76.432	-69.532	142.533	83.103	-72.295	-66.889	-64.282	-58.297	33.751	-62.108	-8191	255	
2623.356	1	1	0	0	0.30004	0.1535	0.33516	0.19524	0.2919	0.20164	0.086504	0.017751	0.3789	0.051116	0.21008	0.1368	0.15021	0.054083	0.13723	0.1275	0.45417	-0.7125	0.32708	-0.26458	-0.6375	0.095833	-0.7625	-0.21667	0.14167	-1.0417	-0.25208	-0.24583	-0.55208	0.28958	-0.65833	-0.475	20.898	210.766	-77.065	272.300	172.177	200.091	256.985	241.639	185.221	11.674	247.493	99.809	229.442	-36.236	172.851	250.022	0.00035908	0.00066214	3.4738e-05	923.9	6.0211e-06	4.4784e-06	847.9	355.77	7.1969e-06	3.7277e-06	328.76	118.98	130.6	57.509	5.3762e-06	56.444	0.00049569	0.00049139	0.00016207	960.78	5.4077e-06	5.4056e-06	883.04	368.82	5.2709e-06	5.584e-06	343.52	124.84	136.14	60.296	6.4481e-06	58.968	-6.752	-8.315	-65.343	-74.902	9.557	50.462	-76.521	-69.574	53.424	152.472	-72.413	-66.660	-64.542	-58.414	82.885	-62.411	-8191	255	
2623.477	1	1	0	0	0.16472	0.17167	0.13162	0.25922	0.17244	0.037739	0.063382	0.22042	0.064857	0.35383	0.29747	0.13174	0.18021	0.14193	0.23223	0.22473	0.55	-0.58333	0.12708	-0.40417	-0.64375	0.32917	-0.70208	-0.50208	0.48542	-0.7875	-0.20833	-0.064583	-0.8375	0.095833	-0.15625	-0.74583	262.026	-60.500	196.069	211.965	10.898	177.324	116.689	194.017	219.479	241.808	131.631	205.574	235.659	-78.967	-9.703	261.180	0.00047259	0.00028651	0.00018302	924.86	2.7486e-06	2.7199e-06	851.78	354.29	1.4671e-06	1.1652e-06	331.05	120.37	130.51	57.778	5.2618e-06	56.769	0.00047833	0.00053107	0.00016293	959.9	5.235e-06	5.7652e-06	886.32	369.27	5.1081e-06	5.9922e-06	344.5	125.25	136.15	60.491	6.2591e-06	59.179	-15.436	42.495	-3.513	-74.698	5.732	171.332	-76.460	-69.569	55.205	15.950	-71.902	-66.678	-64.660	-58.604	61.532	-62.207	-8191	255	
2623.573	1	1	0	0	0.15907	0.37333	0.31556	0.31491	0.16671	0.16527	0.23093	0.18192	0.09651	0.13099	0.2896	0.083144	0.16954	0.27173	0.1138	0.33344	0.57292	-0.44167	-0.27083	-0.15208	-0.6	0.03125	-0.55625	-0.72917	0.35208	-0.52083	-0.3	0.058333	-0.76458	0.089583	-0.39792	-0.72917	186.947	-35.441	211.891	254.974	90.631	-84.517	246.810	211.666	-11.627	-16.403	200.876	143.403	226.623	-59.547	222.575	271.838	0.00056553	0.00055194	0.00015458	924.35	2.5355e-06	6.3288e-06	851.25	355.14	3.8084e-06	3.7565e-06	328.67	120	130.7	57.699	4.9311e-06	56.713	0.00047806	0.00057311	0.00015807	961.38	5.3608e-06	6.3301e-06	885.29	368.49	5.2223e-06	6.315e-06	343.83	125.23	136.2	60.49	5.7585e-06	59.098	-13.054	-14.687	-35.731	-74.592	-50.440	37.928	-76.675	-69.717	29.639	83.490	-72.122	-66.652	-64.433	-58.431	18.059	-62.197	-8191	255	
2623.644	1	1	0	0	0.15123	0.39589	0.12588	0.43303	0.35542	0.16354	0.18472	0.23614	0.12033	0.3038	0.27423	0.17032	0.36237	0.11019	0.1033	0.15304	0.4	-0.54583	-0.1625	0.14583	-0.75625	0.027083	-0.39375	-0.73958	0.47708	-0.76875	-0.26667	0.28333	-0.7125	0.175	-0.16458	-0.72083	190.610	115.058	-72.601	-63.003	19.696	40.665	247.769	218.535	-80.255	128.464	99.528	249.148	261.753	139.291	-69.652	140.749	0.00065137	0.00040167	0.00016776	924.5	7.0475e-06	2.365e-06	844.39	354.98	1.7519e-06	7.7676e-06	327.68	119.7	130.98	57.686	5.4651e-06	56.327	0.00049345	0.00058421	0.00014864	959.38	5.6048e-06	6.4487e-06	879.96	368.28	5.625e-06	6.4111e-06	341.07	124.38	136.45	60.413	5.5722e-06	58.565	-30.594	-26.473	-2.623	-74.566	72.483	67.625	-76.476	-69.574	224.739	43.268	-72.200	-66.914	-64.334	-58.480	56.606	-62.189	-8191	255	
2623.765	1	1	0	0	0.25436	0.3562	0.11136	0.35288	0.014649	0.17293	0.087383	0.19099	0.24481	0.18056	0.33546	0.039353	0.097212	0.25283	0.20181	0.17223	0.48333	-0.45417	-0.21042	0.060417	-0.7	-0.0125	-0.05625	-0.7875	0.21875	-0.19792	-0.47708	0.23958	-1.0583	-0.28542	0.17083	-0.90833	114.840	-15.863	-78.671	230.085	252.803	247.976	-62.141	270.211	225.844	157.270	-71.892	37.956	17.376	-54.001	-6.778	-52.001	0.00062512	0.00085859	0.00019341	919.66	3.6168e-06	7.3562e-06	846.35	355.56	7.3156e-06	6.7044e-06	327	118.82	129.95	56.761	5.2881e-06	55.576	0.00053759	0.00057223	0.000141	954.39	5.9009e-06	6.1234e-06	877.26	367.93	5.9047e-06	5.9712e-06	339.91	123.48	136.04	59.478	5.2524e-06	57.808	-10.380	-13.183	-29.163	-74.710	28.004	23.032	-76.495	-69.687	165.845	31.068	-72.325	-66.706	-64.429	-58.606	64.550	-62.360	-8191	255	
2623.861	1	1	0	0	0.48419	0.19213	0.29002	0.15443	0.14446	0.05794	0.17524	0.27381	0.2994	0.021096	0.31835	0.05255	0.13089	0.42036	0.1494	0.11564	0.37292	-0.32292	-0.39375	0.3625	-0.62917	0.039583	0.08125	-0.8125	0.1875	-0.23125	-0.36875	0.022917	-0.61667	-0.3	0.17292	-0.64792	-40.621	-3.929	148.746	10.460	44.723	-53.428	-49.197	261.428	91.073	-62.915	262.160	193.352	-77.538	216.507	129.993	55.763	0.00045701	0.00055211	0.00020017	927.18	4.8351e-06	4.1904e-06	848.46	354.71	2.4707e-06	6.7644e-06	327.48	118.8	129.28	56.799	3.4436e-06	55.453	0.00055816	0.00052948	0.00013441	959.36	6.1519e-06	5.8011e-06	878.22	367.76	6.2228e-06	5.618e-06	340.89	123.65	135.79	59.481	5.0159e-06	57.972	-37.783	-51.856	-22.310	-74.736	31.320	13.204	-76.426	-69.524	122.351	50.412	-72.107	-66.877	-64.525	-58.632	0.161	-62.407	-8191	255	
2623.956	1	1	0	0	0.35496	0.043502	0.24015	0.14005	0.070974	0.11004	0.21974	0.13971	0.076407	0.25699	0.26752	0.11691	0.11131	0.083812	0.17402	0.18982	0.32292	-0.25417	-0.47708	0.23958	-0.49375	-0.6625	0.11875	-0.89792	0.06875	0.077083	-0.8125	0.14167	-0.62708	-0.2375	0.13125	-0.94583	-72.203	135.717	91.012	239.886	-62.529	125.306	240.099	224.339	270.050	-33.300	229.395	-76.625	-11.651	263.239	-45.800	-65.048	0.00051648	0.00043826	0.00022328	926.88	2.9816e-06	4.8657e-06	849.31	354.72	8.1256e-06	3.7802e-06	327.28	118.85	130.23	56.8	2.7362e-06	56.25	0.00056718	0.00050388	0.00012998	963.2	6.1495e-06	5.4875e-06	881.21	368.3	6.1259e-06	5.3432e-06	340.77	124.35	135.74	59.488	4.9318e-06	58.598	-26.238	-25.444	-7.828	-74.822	87.837	90.353	-76.476	-69.790	89.723	41.189	-72.452	-66.933	-64.553	-58.609	88.406	-62.268	-8191	255	
2624.052	1	1	0	0	0.10911	0.11882	0.38041	0.049618	0.11184	0.25291	0.24929	0.12884	0.15306	0.24388	0.055606	0.28022	0.10802	0.14465	0.35247	0.17639	0.41875	0.12708	-0.57083	0.12083	-0.37083	-0.5125	0.041667	-0.83125	0.1	0.033333	-0.66875	0.25833	-0.4	-0.475	0.13958	-0.57292	-62.871	100.172	195.443	139.765	173.896	-66.337	234.726	252.213	141.064	123.311	-74.320	257.746	245.953	-84.946	181.520	239.268	0.00042073	0.00052372	0.00016871	925.47	6.0363e-06	6.095e-06	846.67	353.38	5.5586e-06	6.9817e-06	326	118.51	130.17	57.989	2.8406e-06	56.937	0.00055953	0.0004836	0.00013079	962.04	5.9838e-06	5.4286e-06	877.42	368.1	6.0526e-06	5.3061e-06	339.36	124.62	136.08	60.537	5.0989e-06	59.49	-39.320	13.265	-15.633	-74.893	73.094	52.738	-76.618	-69.685	62.949	57.831	-72.416	-66.932	-64.529	-58.422	116.126	-62.521	-8191	255	
2624.172	1	1	0	0	0.18704	0.39512	0.19093	0.1104	0.12637	0.1455	0.29263	0.11209	0.14853	0.21019	0.24076	0.28649	0.30988	0.12463	0.29211	0.16122	0.16875	0.085417	-0.41875	-0.072917	-0.091667	-0.60417	0.097917	-0.72917	-0.26458	0.15833	-0.70208	0.077083	-0.10417	-0.66667	0.39375	-0.67083	114.513	86.320	-26.994	199.491	-24.608	-71.777	211.466	169.662	-21.896	251.419	-85.287	211.304	260.348	-44.372	270.384	121.888	0.00048258	0.00089953	0.00011883	916.14	9.3767e-06	9.2286e-06	839.84	353.64	6.3161e-06	5.7081e-06	325.75	120.61	132.29	59.774	1.1434e-06	58.96	0.00053245	0.00046703	0.00013389	956.02	5.7038e-06	5.3551e-06	872.01	368.2	5.7916e-06	5.2457e-06	339.96	126.74	137.68	62.402	5.8104e-06	61.628	-12.373	-4.603	38.735	-74.909	17.212	25.731	-76.365	-69.645	61.435	41.982	-72.138	-66.791	-64.310	-58.529	256.137	-62.209	-8191	255	
2624.244	1	1	0	0	0.18026	0.080868	0.20548	0.11455	0.1588	0.095835	0.20721	0.04226	0.12418	0.14428	0.10629	0.20762	0.085783	0.028572	0.058942	0.16135	-0.014583	0.1125	-0.44167	-0.17917	0.11875	-0.71458	0.20208	-0.48542	-0.42083	0.19583	-0.71458	0.060417	-0.11042	-0.89792	0.21458	-0.35208	200.897	46.809	206.141	239.123	264.704	-28.473	269.911	25.794	109.725	-1.733	-8.846	174.948	79.847	234.049	155.897	155.622	0.00050489	0.00060918	0.00010483	914.67	7.7913e-06	1.1228e-06	839.06	353.21	5.3862e-06	4.2026e-06	328.1	122.67	133.04	60.752	5.2181e-06	59.831	0.00053113	0.00047495	0.00015051	952.49	5.5728e-06	5.2401e-06	872.75	368.64	5.678e-06	5.15e-06	344.45	128.62	138.52	63.303	6.2623e-06	62.577	-26.674	-49.341	36.255	-74.648	22.840	163.767	-76.385	-69.317	-1.460	78.992	-72.091	-66.478	-64.316	-58.440	145.156	-62.152	-8191	255	
2624.340	1	1	0	0	0.14831	0.058635	0.27608	0.048087	0.18366	0.08382	0.25182	0.17452	0.11586	0.0597	0.15605	0.3733	0.14119	0.25587	0.46268	0.13306	-0.047917	0.3125	-0.51042	-0.175	0.083333	-0.64167	0.29583	-0.27292	-0.65	0.072917	-0.7375	-0.29375	-0.079167	-0.83125	0.05625	-0.33333	187.044	80.125	163.150	-32.696	51.939	2.227	92.789	255.723	234.431	34.931	225.574	246.471	268.888	-84.895	130.775	199.265	0.00044697	0.00033427	0.00014451	918.23	5.077e-06	3.513e-06	846.65	357.91	6.3187e-06	4.4573e-06	329.99	122.39	132.79	60.198	5.4353e-06	59.381	0.00052856	0.00048419	0.00016392	955.35	5.5812e-06	5.4994e-06	882.8	371.46	5.8153e-06	5.6318e-06	347.51	128.62	138.73	62.971	6.9714e-06	62.115	-9.569	-67.619	-86.863	-74.664	13.303	61.869	-76.268	-69.286	82.620	56.936	-71.705	-66.805	-64.517	-58.480	92.443	-62.013	-8191	255	
2624.436	1	1	0	0	0.19907	0.17579	0.17691	0.36066	0.13907	0.231	0.13251	0.12457	0.17409	0.11977	0.14711	0.15324	0.34498	0.15272	0.083417	0.046058	-0.31042	0.275	-0.40417	-0.46458	0.31875	-0.49167	-0.11875	-0.21458	-0.77708	0.052083	-0.43542	-0.58958	0.091667	-0.8625	-0.075	-0.19167	203.398	135.068	230.289	-63.617	64.951	190.176	67.953	191.193	124.072	-46.642	-70.862	81.182	250.939	238.322	54.418	96.446	0.00039807	0.00058808	0.00012413	929.66	4.4874e-06	5.2035e-06	855.82	359.48	7.0172e-06	4.6281e-06	331.59	122.34	132.74	59.725	4.8189e-06	58.695	0.00054668	0.00055309	0.00017963	966.84	5.7669e-06	6.3421e-06	895.33	373.49	5.9476e-06	6.4605e-06	348.87	128.63	138.38	62.602	7.1688e-06	61.222	-33.861	-9.358	0.536	-74.813	35.694	63.308	-76.396	-69.235	38.804	110.409	-71.948	-66.712	-64.499	-58.518	55.246	-62.400	-8191	255	
2624.557	1	1	0	0	0.077857	0.19993	0.17882	0.19906	0.2241	0.29164	0.19208	0.18268	0.14015	0.15976	0.11951	0.14994	0.042706	0.25079	0.094619	0.29204	-0.24167	0.25208	-0.25	-0.29792	0.32708	-0.62708	-0.23125	0.033333	-0.61875	0.20417	-0.27708	-0.42917	0.25	-0.82917	-0.13542	0.05625	195.965	-14.471	204.834	184.720	141.706	57.118	233.484	34.519	158.495	-19.905	205.477	226.702	234.011	1.232	-65.670	64.630	0.00051306	0.00018741	0.00022618	933.27	4.7361e-06	6.602e-06	852.12	357.54	5.236e-06	2.4583e-06	330.43	120.12	131.02	58.683	5.4184e-06	57.313	0.00054862	0.00061591	0.00017815	970.6	5.7508e-06	6.8629e-06	890.52	372.02	5.8969e-06	6.9914e-06	345.72	126.24	137.08	61.819	6.9192e-06	60.182	-20.781	205.264	-51.187	-74.640	120.248	108.327	-76.410	-69.445	37.949	48.953	-71.970	-66.845	-64.325	-58.511	66.135	-62.180	-8191	255	
2624.653	1	1	0	0	0.21081	0.15073	0.12413	0.041676	0.33457	0.26088	0.074203	0.25617	0.16977	0.10518	0.094894	0.19198	0.25634	0.066093	0.10419	0.10397	-0.1625	0.04375	-0.34375	-0.65625	0.3125	-0.6125	-0.15208	-0.125	-0.61667	-0.05625	-0.175	-0.71875	0.15	-0.6625	-0.20208	-0.0875	189.916	155.207	82.463	26.596	-6.578	218.432	-72.264	-62.205	100.927	28.083	213.443	236.627	-55.532	182.267	135.061	139.652	0.00059412	0.00071353	9.2843e-05	923.87	3.8757e-06	5.5547e-06	845.89	356.2	3.987e-06	3.2543e-06	329.83	121.8	132.05	59.859	7.2956e-06	58.866	0.00056461	0.00066867	0.00017284	963.94	6.1695e-06	7.4781e-06	882.62	370.82	6.5399e-06	7.5373e-06	345.38	127.68	138.39	62.88	6.8346e-06	61.538	-33.371	-35.041	-52.851	-74.705	109.361	78.376	-76.577	-69.183	217.902	82.614	-71.795	-66.450	-64.045	-58.486	48.819	-62.037	-8191	255	
2624.749	1	1	0	0	0.075138	0.089221	0.049057	0.27896	0.090305	0.34342	0.24618	0.28209	0.21756	0.15177	0.094324	0.29185	0.16811	0.3681	0.14793	0.12011	-0.14167	0.05	-0.020833	-0.61667	0.27708	-0.51667	-0.42708	0.05	-0.5875	0.091667	-0.10833	-0.54375	0.27292	-0.40417	-0.26667	0.075	210.128	222.550	81.814	167.586	52.372	70.316	-49.059	247.699	78.808	267.065	202.919	218.613	197.341	266.391	178.044	100.233	0.00075043	0.00042963	0.00011533	917.35	2.8142e-06	6.3183e-06	843.5	355.82	4.4633e-06	4.2502e-06	331.5	123.04	132.89	60.35	4.6077e-06	59.6	0.00062308	0.00069689	0.00016902	956.98	6.8927e-06	7.5027e-06	882.23	370.16	7.0562e-06	7.4671e-06	347.3	128.61	139.4	63.282	6.6299e-06	62.15	-17.596	-11.300	-0.875	-74.694	202.440	30.335	-76.283	-69.353	-35.801	80.931	-71.562	-66.760	-64.280	-58.384	70.544	-62.145	-8191	255	
2624.845	1	1	0	0	0.36202	0.16429	0.16742	0.26786	0.096077	0.098426	0.048872	0.022002	0.20953	0.33475	0.31187	0.18059	0.12185	0.051353	0.12228	0.0040073	-0.38542	0.052083	0.11667	-0.69375	0.39583	-0.37708	-0.57083	0.072917	-0.50625	-0.041667	0.083333	-0.55208	0.083333	-0.41667	-0.36875	-0.064583	-55.284	172.097	-62.682	265.863	106.984	112.367	-63.391	226.333	27.241	32.865	97.028	178.549	-2.727	125.774	-83.689	26.846	0.00052155	0.00090983	0.00015015	924.72	4.9018e-06	7.3428e-06	848.46	357.17	4.7699e-06	7.4888e-06	332.99	123.09	133.37	60.412	4.3569e-06	60.319	0.00066704	0.00067239	0.00016251	960.63	7.3651e-06	7.0901e-06	886.96	371.61	7.4972e-06	7.1802e-06	348.23	129.15	139.83	63.295	6.482e-06	63.029	-26.441	8.373	-50.339	-74.431	95.731	77.074	-76.309	-69.343	20.602	34.902	-71.721	-66.777	-64.105	-58.306	20.912	-62.195	-8191	255	
2624.942	1	1	0	0	0.42085	0.10477	0.23536	0.16758	0.099583	0.105	0.023788	0.1116	0.088727	0.33383	0.23834	0.08311	0.15279	0.075306	0.14836	0.19898	-0.24375	-0.09375	0.24375	-0.66667	0.27292	-0.27292	-0.62292	-0.00625	-0.30833	-0.27708	0.125	-0.5625	-0.1625	-0.24583	-0.54167	0.13542	200.406	233.233	-33.777	101.794	143.030	1.640	31.591	45.736	126.702	-45.830	-86.721	269.385	-82.100	-36.638	28.259	24.486	0.00065449	0.00076255	0.00018518	918.53	7.8358e-06	8.4305e-06	846.9	355.64	9.4327e-06	6.3327e-06	336.82	126.01	135	62.234	5.0079e-06	61.852	0.00068851	0.00064235	0.00015821	957.67	7.8322e-06	6.9857e-06	887.4	372.2	8.0601e-06	7.292e-06	351.1	132.5	142.05	65.047	6.5903e-06	64.827	-17.568	261.781	-8.492	-74.433	-14.996	2.026	-75.988	-69.109	39.378	86.026	-71.687	-66.334	-64.086	-58.104	59.682	-62.135	-8191	255	
2625.038	1	1	0	0	0.12997	0.051604	0.13471	0.31301	0.15726	0.11138	0.05413	0.10599	0.21412	0.11672	0.22493	0.1403	0.27002	0.25902	0.16466	0.17169	-0.045833	-0.36875	0.25417	-0.51458	0.016667	-0.12083	-0.68125	0.097917	-0.40833	-0.21458	0.15417	-0.60833	-0.16042	-0.06875	-0.70625	0.15833	95.611	-64.518	165.972	181.003	34.327	153.306	-12.878	-59.902	118.610	-2.878	202.872	6.131	244.249	-13.221	206.829	163.354	0.00055728	0.00079981	0.00020181	914.25	3.2211e-06	6.7034e-06	844.28	355.06	5.146e-06	5.6967e-06	333	125.19	134.31	61.414	6.2645e-06	61.265	0.00069514	0.00063079	0.0001573	956.11	7.5467e-06	6.5793e-06	879.41	370.43	7.3717e-06	6.6538e-06	346.83	131.49	140.63	64.212	6.2211e-06	64.332	-16.487	6.474	-9.369	-74.648	-49.487	53.974	-76.119	-69.292	62.205	84.118	-71.604	-66.342	-64.267	-58.203	144.590	-61.963	-8191	255	
2625.157	1	1	0	0	0.29684	0.46959	0.30091	0.13239	0.095995	0.06225	0.075906	0.34351	0.31277	0.3441	0.083625	0.3321	0.23855	0.15179	0.20859	0.031692	-0.066667	-0.29792	0.2625	-0.43958	-0.095833	-0.045833	-0.81875	-0.052083	-0.24167	-0.6375	0.14167	-0.80417	-0.28958	0.020833	-0.79583	0.19375	-43.833	-23.729	117.079	264.930	24.915	20.493	252.558	203.136	-30.391	65.724	-2.238	205.390	174.995	230.975	-2.688	-81.737	0.00067547	0.00084522	7.2933e-05	909.68	7.9064e-06	4.745e-06	841.52	352.88	1.0403e-05	5.1629e-06	331.69	124.02	133.45	60.933	7.5345e-07	60.762	0.00064515	0.00059686	0.00015592	952.64	7.0851e-06	6.2908e-06	878.51	370.17	6.9719e-06	6.4474e-06	347.75	131.12	139.92	63.842	6.7979e-06	63.96	-18.745	-35.055	3.976	-74.546	46.980	90.085	-76.043	-69.036	66.007	65.584	-71.689	-66.484	-63.898	-58.169	-1.037	-61.869	-8191	255	
2625.253	1	1	0	0	0.090191	0.25328	0.085921	0.2129	0.48288	0.062387	0.19786	0.23078	0.35292	0.063279	0.048635	0.12815	0.16508	0.27858	0.10066	0.13538	0.079167	-0.3875	0.33125	-0.58125	-0.13542	0.17917	-0.75833	-0.05625	-0.066667	-0.66042	0.12917	-0.39583	-0.47917	0.19375	-0.49167	-0.25833	-12.583	91.627	-8.896	-72.387	-73.724	83.833	207.588	254.017	115.432	-56.975	119.743	167.996	251.321	57.795	171.853	-39.712	0.00063656	0.001122	0.00011304	920.36	3.0206e-06	6.3621e-06	847.31	355.05	4.0367e-06	3.4105e-06	332.75	123.06	132.32	59.623	6.4983e-06	59.074	0.00063768	0.00060374	0.00017474	964.27	7.0838e-06	6.3228e-06	889.93	372.68	6.9212e-06	6.5769e-06	350.55	130.24	139.05	62.326	7.7112e-06	62.221	-18.998	-42.249	65.540	-74.317	10.526	88.758	-76.082	-69.406	-67.168	114.842	-71.666	-66.435	-64.172	-58.144	68.703	-62.037	-8191	255	
2625.349	1	1	0	0	0.15011	0.10477	0.16852	0.24111	0.13751	0.057476	0.26195	0.080102	0.1191	0.19284	0.26882	0.11827	0.066741	0.23454	0.12258	0.26687	0.38958	-0.78125	0.2875	-0.68125	-0.62917	0.27292	-0.81667	-0.047917	-0.054167	-0.72917	0.21042	-0.41875	-0.69375	0.21667	-0.8625	-0.48958	218.658	129.700	99.812	230.324	198.880	-35.785	-33.023	-15.840	246.691	259.466	214.383	-59.495	211.948	263.284	135.634	206.949	0.00044715	0.00071716	0.0001263	930.14	1.1318e-05	2.2488e-06	859.85	357.36	1.1098e-05	3.6869e-06	334.13	121.63	131.37	57.598	5.75e-06	57.079	0.00064344	0.0006214	0.00019996	974.54	7.3467e-06	6.7936e-06	901.97	374.45	7.2442e-06	7.1456e-06	353.41	128.71	137.71	60.501	8.5183e-06	60.182	-7.862	-31.271	-15.883	-74.343	47.786	32.568	-75.926	-69.292	51.027	68.778	-71.818	-66.235	-64.210	-58.239	107.831	-61.910	-8191	255	
2625.445	1	1	0	0	0.18445	0.33688	0.15598	0.19166	0.14652	0.12156	0.17059	0.088625	0.32661	0.18438	0.15337	0.15911	0.013396	0.2319	0.1164	0.075611	0.25208	-0.60833	0.22292	-0.42083	-0.6	0.19167	-0.775	-0.39167	0.36875	-0.57292	-0.30208	-0.23333	-0.86667	0.13333	-0.54583	-0.42083	-18.732	33.810	-23.607	7.321	164.135	77.277	249.629	-42.454	-77.104	135.995	242.144	181.593	248.427	-63.862	117.287	-63.334	0.00059937	0.00047895	8.169e-05	938.39	7.0099e-06	3.9021e-06	864.16	357.98	3.356e-06	3.3419e-06	332.29	118.64	128.34	54.967	1.5221e-06	53.896	0.00065153	0.00066645	0.00021856	980.71	7.2018e-06	7.1929e-06	908.67	374.06	6.9773e-06	7.5117e-06	351.63	124.85	134.51	57.784	8.1718e-06	56.9	-15.131	-8.219	93.688	-74.584	28.742	123.606	-76.170	-69.442	0.248	-61.094	-71.848	-66.509	-64.366	-58.301	-24.373	-61.975	-8191	255	
2625.541	1	1	0	0	0.1913	0.1982	0.30733	0.090317	0.074169	0.04028	0.21335	0.15475	0.13295	0.20903	0.10239	0.11014	0.19629	0.24982	0.074383	0.1884	0.37083	-0.57708	0.1375	-0.28542	-0.70625	0.19167	-0.36042	-0.5125	0.4	-0.65	-0.21875	-0.05	-0.8125	0.0875	-0.26458	-0.61458	59.896	173.570	-78.335	-18.181	10.560	28.162	61.109	77.189	226.741	76.401	178.436	18.645	39.559	149.028	226.490	149.076	0.00042092	0.0005974	8.2719e-05	938.21	3.4708e-06	2.2494e-06	856.2	355.61	6.9754e-06	6.0974e-06	329.71	117.93	128.58	56.023	7.8038e-06	55.085	0.00058862	0.00068308	0.00020409	975.07	6.6711e-06	7.507e-06	896.78	370.55	6.5588e-06	7.7949e-06	347.47	124.53	134.99	59.013	7.923e-06	58.069	-35.550	31.987	31.126	-74.464	-22.219	234.279	-76.071	-69.408	49.295	73.002	-71.728	-66.498	-64.412	-58.306	72.198	-61.998	-8191	255	
#DATA ENDS
