BOXY.EXE: ISS Imagent and Oximeter Data Acquisition Program Version 0.80
Ascii Record File

#ACQ INFORMATION
2  Detector Channels 
16  External MUX Channels 
1  Auxiliary Channels 
5000  Waveform (CCF) Frequency (Hz)
1  Waveforms Skipped 
30  Waveforms Averaged 
1  Cycles Averaged 
16  Acquisitions per Waveform 
10.0806  Updata Rate (Hz) 

#FILE INFORMATION
TRUE -- External MUX Channel results are PARSED.
FALSE -- AC DC and Phase are NOT grouped.
TRUE -- Companion Program Settings File CREATED.
FALSE -- AC data not excluded
FALSE -- DC data not excluded
FALSE -- Phase data not excluded
FALSE -- Auxillary Chn. data not excluded
Tab delimiters

#CALIBRATION STATE
TRUE -- Waveform Calibration Values APPLIED.


#AUX CALIBRATION VALUES
Val Type	aux-1	

Term	1.0000e+00	
Factor	0.0000e+00	


#WF CALIBRATION VALUES
A = Detector Channel
Val Type	A-AC1	A-AC2	A-AC3	A-AC4	A-AC5	A-AC6	A-AC7	A-AC8	A-AC9	A-AC10	A-AC11	A-AC12	A-AC13	A-AC14	A-AC15	A-AC16	A-DC1	A-DC2	A-DC3	A-DC4	A-DC5	A-DC6	A-DC7	A-DC8	A-DC9	A-DC10	A-DC11	A-DC12	A-DC13	A-DC14	A-DC15	A-DC16	A-Ph1	A-Ph2	A-Ph3	A-Ph4	A-Ph5	A-Ph6	A-Ph7	A-Ph8	A-Ph9	A-Ph10	A-Ph11	A-Ph12	A-Ph13	A-Ph14	A-Ph15	A-Ph16	

Term	0.00000e+00	0.00000e+00	0.00000e+00	0.00000e+00	0.00000e+00	0.00000e+00	0.00000e+00	0.00000e+00	0.00000e+00	0.00000e+00	0.00000e+00	0.00000e+00	0.00000e+00	0.00000e+00	0.00000e+00	0.00000e+00	0.00000e+00	0.00000e+00	0.00000e+00	0.00000e+00	0.00000e+00	0.00000e+00	0.00000e+00	0.00000e+00	0.00000e+00	0.00000e+00	0.00000e+00	0.00000e+00	0.00000e+00	0.00000e+00	0.00000e+00	0.00000e+00	0.00000e+00	0.00000e+00	0.00000e+00	0.00000e+00	0.00000e+00	0.00000e+00	0.00000e+00	0.00000e+00	0.00000e+00	0.00000e+00	0.00000e+00	0.00000e+00	0.00000e+00	0.00000e+00	0.00000e+00	0.00000e+00	
Factor	1.00000e+00	1.00000e+00	1.00000e+00	1.00000e+00	1.00000e+00	1.00000e+00	1.00000e+00	1.00000e+00	1.00000e+00	1.00000e+00	1.00000e+00	1.00000e+00	1.00000e+00	1.00000e+00	1.00000e+00	1.00000e+00	1.00000e+00	1.00000e+00	1.00000e+00	1.00000e+00	1.00000e+00	1.00000e+00	1.00000e+00	1.00000e+00	1.00000e+00	1.00000e+00	1.00000e+00	1.00000e+00	1.00000e+00	1.00000e+00	1.00000e+00	1.00000e+00	X	X	X	X	X	X	X	X	X	X	X	X	X	X	X	X	

B = Detector Channel
Val Type	B-AC1	B-AC2	B-AC3	B-AC4	B-AC5	B-AC6	B-AC7	B-AC8	B-AC9	B-AC10	B-AC11	B-AC12	B-AC13	B-AC14	B-AC15	B-AC16	B-DC1	B-DC2	B-DC3	B-DC4	B-DC5	B-DC6	B-DC7	B-DC8	B-DC9	B-DC10	B-DC11	B-DC12	B-DC13	B-DC14	B-DC15	B-DC16	B-Ph1	B-Ph2	B-Ph3	B-Ph4	B-Ph5	B-Ph6	B-Ph7	B-Ph8	B-Ph9	B-Ph10	B-Ph11	B-Ph12	B-Ph13	B-Ph14	B-Ph15	B-Ph16	

Term	0.00000e+00	0.00000e+00	0.00000e+00	0.00000e+00	0.00000e+00	0.00000e+00	0.00000e+00	0.00000e+00	0.00000e+00	0.00000e+00	0.00000e+00	0.00000e+00	0.00000e+00	0.00000e+00	0.00000e+00	0.00000e+00	0.00000e+00	0.00000e+00	0.00000e+00	0.00000e+00	0.00000e+00	0.00000e+00	0.00000e+00	0.00000e+00	0.00000e+00	0.00000e+00	0.00000e+00	0.00000e+00	0.00000e+00	0.00000e+00	0.00000e+00	0.00000e+00	-7.43740e+01	-1.28316e+02	-1.28292e+02	-1.84666e+02	-6.09405e+01	-9.26518e+01	-1.57220e+02	-1.62015e+02	-6.83234e+01	-6.49300e+01	-1.71356e+02	-1.71554e+02	-1.80605e+02	-1.78112e+02	-5.87324e+01	-1.50478e+02	
Factor	1.69462e-05	1.09168e-04	3.22790e-05	1.81303e-01	1.25172e-06	1.14954e-06	1.71467e-01	5.38756e-02	1.13096e-06	1.21214e-06	1.27027e-01	2.77678e-02	2.53669e-02	8.93279e-03	9.87240e-07	1.27691e-02	1.16641e-06	1.21360e-06	3.37925e-07	9.36980e-02	1.32701e-08	1.33200e-08	8.34584e-02	2.80064e-02	1.32587e-08	1.33078e-08	6.16425e-02	1.38762e-02	1.31430e-02	4.61932e-03	1.32892e-08	6.33447e-03	X	X	X	X	X	X	X	X	X	X	X	X	X	X	X	X	



#DISTANCE SETTINGS
A = Detector Channel
A-1	A-2	A-3	A-4	A-5	A-6	A-7	A-8	A-9	A-10	A-11	A-12	A-13	A-14	A-15	A-16	

2.5000e+00	3.0000e+00	2.5000e+00	3.0000e+00	2.0000e+00	3.0000e+00	1.5000e+00	3.0000e+00	3.0000e+00	3.0000e+00	3.0000e+00	3.0000e+00	3.0000e+00	3.0000e+00	1.5000e+00	3.0000e+00	

B = Detector Channel
B-1	B-2	B-3	B-4	B-5	B-6	B-7	B-8	B-9	B-10	B-11	B-12	B-13	B-14	B-15	B-16	

1.0000e+01	1.0000e+01	1.0000e+01	1.4400e+00	1.0000e+01	1.0000e+01	1.5100e+00	1.9400e+00	1.0000e+01	1.0000e+01	1.9900e+00	2.4900e+00	2.4100e+00	2.9000e+00	1.0000e+01	2.9800e+00	




#DATA BEGINS
time	group	step	mark	flag	A-AC1	A-AC2	A-AC3	A-AC4	A-AC5	A-AC6	A-AC7	A-AC8	A-AC9	A-AC10	A-AC11	A-AC12	A-AC13	A-AC14	A-AC15	A-AC16	A-DC1	A-DC2	A-DC3	A-DC4	A-DC5	A-DC6	A-DC7	A-DC8	A-DC9	A-DC10	A-DC11	A-DC12	A-DC13	A-DC14	A-DC15	A-DC16	A-Ph1	A-Ph2	A-Ph3	A-Ph4	A-Ph5	A-Ph6	A-Ph7	A-Ph8	A-Ph9	A-Ph10	A-Ph11	A-Ph12	A-Ph13	A-Ph14	A-Ph15	A-Ph16	B-AC1	B-AC2	B-AC3	B-AC4	B-AC5	B-AC6	B-AC7	B-AC8	B-AC9	B-AC10	B-AC11	B-AC12	B-AC13	B-AC14	B-AC15	B-AC16	B-DC1	B-DC2	B-DC3	B-DC4	B-DC5	B-DC6	B-DC7	B-DC8	B-DC9	B-DC10	B-DC11	B-DC12	B-DC13	B-DC14	B-DC15	B-DC16	B-Ph1	B-Ph2	B-Ph3	B-Ph4	B-Ph5	B-Ph6	B-Ph7	B-Ph8	B-Ph9	B-Ph10	B-Ph11	B-Ph12	B-Ph13	B-Ph14	B-Ph15	B-Ph16	aux-1	digaux	

3094.679	1	1	0	256	0.10401	0.084453	0.072689	0.13749	0.10382	0.13508	0.48222	0.1762	0.08603	0.11282	0.16419	0.42029	0.25218	0.32482	0.18119	0.024064	-3.0938	-2.7479	-3.5208	-2.9771	-2.9458	-3.4813	-2.8812	-3.3604	-3.4396	-2.7396	-3.5083	-3.2354	-2.7542	-3.7062	-2.9437	-3.1042	311.630	59.635	230.078	124.708	285.907	284.229	293.089	351.769	74.160	124.795	38.273	315.933	343.609	6.466	76.210	131.060	0.00052378	0.00090463	9.0515e-05	628.51	1.708e-05	6.3404e-06	1054.9	262.69	1.026e-05	1.8509e-05	466.79	170.78	95.759	41.542	1.5113e-06	74.602	0.0018817	0.0019142	0.00054463	691.39	2.1279e-05	2.1338e-05	1047.2	272.39	2.1127e-05	2.1125e-05	487.09	169.59	102.99	43.124	2.0921e-05	73.47	199.843	28.560	14.450	9.195	125.770	5.992	8.771	14.031	334.354	202.781	12.067	15.939	18.209	21.348	124.630	19.673	-8191	255	
3094.800	1	1	0	0	0.11419	0.31089	0.094483	0.16325	0.030037	0.23137	0.12115	0.14257	0.18555	0.097727	0.20883	0.18045	0.28395	0.10065	0.29912	0.10127	-3.0792	-2.6229	-3.4083	-3.2979	-2.7896	-3.5917	-3.1188	-3.2083	-3.3563	-2.6479	-3.4583	-3.45	-2.8229	-3.5979	-2.9167	-3.2729	30.214	301.586	293.196	183.849	103.374	87.252	304.598	287.911	189.407	271.041	19.545	345.022	343.157	41.224	135.771	302.937	0.00014304	0.00072349	0.00056453	634.13	5.1506e-06	6.071e-06	1058.6	268.45	7.2421e-06	1.9521e-05	472.5	173.27	97.699	42.138	7.4382e-06	75.477	0.0018572	0.0018865	0.00052987	694.03	2.0661e-05	2.081e-05	1050	274.77	2.0566e-05	2.0773e-05	492.45	171.15	104.04	43.599	2.0979e-05	74.027	159.981	136.389	91.429	10.179	77.683	121.019	8.760	14.101	233.769	226.197	12.094	16.210	18.559	21.555	101.032	19.217	-8191	255	
3094.896	1	1	0	0	0.10306	0.16438	0.21008	0.038482	0.17947	0.13954	0.31753	0.27752	0.14525	0.12422	0.25467	0.25061	0.055204	0.17282	0.051228	0.19573	-3.1312	-2.7208	-3.425	-3.4479	-2.6146	-3.3458	-3.1917	-2.8438	-3.4021	-2.6417	-2.9875	-3.4417	-2.7812	-3.5104	-2.8542	-3.0438	-3.968	95.476	306.172	313.802	104.006	141.563	255.343	247.414	354.169	131.383	284.864	326.632	260.802	340.811	124.168	232.745	0.00021029	0.00093778	0.00061212	640.11	2.4461e-05	1.5789e-05	1067.7	270.15	1.9365e-05	1.2731e-05	479.42	175.3	98.351	42.262	1.9772e-05	74.972	0.001857	0.0019153	0.00053443	700.57	2.0902e-05	2.1112e-05	1056.6	277.23	2.0835e-05	2.0882e-05	497.1	172.83	104.85	43.561	2.0856e-05	74.13	186.039	126.243	55.945	9.489	102.056	133.920	8.651	13.998	284.338	260.279	11.998	16.266	18.009	21.703	221.788	19.276	-8191	255	
3094.990	1	1	0	0	0.17886	0.14735	0.071694	0.2012	0.16483	0.28265	0.31762	0.092095	0.019458	0.23409	0.2974	0.21971	0.18183	0.075752	0.32803	0.25555	-3.2146	-2.7083	-3.1813	-3.4958	-2.5563	-3.3667	-3.05	-2.8396	-3.3667	-3.0875	-3.0854	-3.7042	-2.8625	-3.5104	-3.4125	-2.8792	125.232	185.063	195.612	82.056	41.154	251.593	281.458	106.412	319.567	307.616	306.294	19.493	340.434	47.657	302.682	285.276	0.00043454	0.00063504	0.0002631	644.52	3.0456e-06	3.9514e-06	1078.2	270.9	6.0784e-06	1.6772e-05	476.15	174.33	98.878	42.058	1.6181e-05	75.283	0.0018438	0.0018992	0.00053015	701.1	2.0647e-05	2.0766e-05	1060.7	278.44	2.0564e-05	2.0754e-05	494.04	172.2	104.84	43.46	2.0671e-05	73.755	175.022	159.068	97.888	9.515	213.445	138.258	9.109	14.414	152.878	121.603	12.342	16.439	18.483	21.888	179.019	19.452	-8191	255	
3095.087	1	1	0	0	0.2876	0.19732	0.22123	0.11096	0.24096	0.21954	0.052398	0.17156	0.022461	0.081272	0.08836	0.26082	0.2364	0.10466	0.18724	0.17244	-3.2854	-2.75	-2.8937	-3.5625	-2.7125	-3.2042	-3.3604	-2.8	-3.625	-2.7771	-2.9896	-3.7333	-2.8792	-3.4646	-3.3312	-2.75	181.006	339.282	251.837	22.581	171.849	22.778	5.374	293.650	51.654	307.157	200.006	301.931	42.628	5.680	290.345	262.696	0.00043758	0.0016454	0.00016508	638.95	6.0583e-06	5.58e-06	1075	271.51	1.8542e-05	7.1121e-06	478.22	175.87	98.872	42.472	4.6256e-06	75.517	0.0018289	0.0018848	0.00052637	695.85	2.0507e-05	2.0581e-05	1052.7	277.4	2.0144e-05	2.035e-05	494.45	172.23	104.73	43.602	2.0275e-05	73.782	174.313	113.910	235.708	9.600	46.154	198.369	9.196	14.629	278.008	197.442	11.635	16.154	17.804	21.883	285.158	19.659	-8191	255	
3095.183	1	1	0	0	0.18096	0.18563	0.27861	0.17685	0.063425	0.23432	0.20126	0.26593	0.0029544	0.067369	0.39883	0.22775	0.051742	0.19697	0.175	0.3545	-3.0771	-3.1125	-2.8771	-3.5979	-2.9396	-3.3021	-3.375	-2.8646	-3.5542	-3.1542	-2.9396	-3.6542	-2.8646	-3.0708	-3.5542	-3.05	355.045	342.364	53.945	354.148	260.554	278.100	118.687	341.162	150.684	120.869	283.036	274.315	-2.983	339.375	24.688	293.895	0.00054586	0.0017299	5.4446e-05	640.76	3.7812e-06	1.091e-05	1078.5	274.31	6.3599e-06	4.1824e-06	481.19	178.52	99.293	42.959	4.0094e-06	76.154	0.0017911	0.0018632	0.00051784	696.94	2.0367e-05	2.0597e-05	1060.5	279.76	2.0453e-05	2.042e-05	497.38	174.33	105.63	43.85	2.0218e-05	74.414	191.901	80.065	89.423	9.216	176.112	81.079	8.994	14.400	94.214	63.410	12.480	16.532	17.740	21.855	290.041	19.332	-8191	255	
3095.279	1	1	0	0	0.27929	0.045068	0.16074	0.26304	0.17385	0.11775	0.1798	0.24124	0.17346	0.16606	0.073009	0.34255	0.13651	0.10174	0.16944	0.098532	-3.0354	-3.2396	-2.7896	-3.5333	-2.8604	-3.0667	-3.4125	-2.975	-3.3375	-3.1167	-2.9604	-3.7313	-2.9375	-3.0708	-3.2938	-3.0604	160.731	192.604	216.891	19.609	295.831	232.052	325.720	298.363	286.114	236.072	92.820	297.870	335.706	60.378	28.255	319.413	0.00038703	0.00062268	0.00028233	648.58	4.5191e-06	2.0769e-05	1087.1	273.89	2.5038e-05	7.0532e-06	483.26	179.66	99.945	43.045	1.0019e-05	76.539	0.0018104	0.0018622	0.00051776	699.69	2.0144e-05	2.0445e-05	1067	280.45	2.0181e-05	2.0487e-05	500.19	175.83	106.23	44.213	2.0304e-05	75.088	194.971	93.704	122.546	9.857	150.868	233.113	8.907	14.240	193.506	109.737	12.733	16.759	18.191	21.750	313.227	19.431	-8191	255	
3095.375	1	1	0	0	0.1248	0.16464	0.24595	0.22421	0.081028	0.31676	0.20745	0.048151	0.052095	0.16634	0.2464	0.33487	0.25614	0.18964	0.18598	0.12881	-2.8917	-3.3146	-2.6917	-3.5667	-3.0729	-2.9708	-3.6208	-2.7771	-3.0167	-3.2646	-2.7875	-3.4396	-3.1354	-2.7708	-3.4771	-2.8583	71.797	152.118	184.833	10.127	242.317	24.774	239.539	33.135	352.867	240.284	268.999	337.519	252.868	247.611	268.227	296.722	0.00028297	0.0013017	0.00023538	653.18	2.371e-05	3.8391e-06	1086.9	275.34	3.1783e-06	1.0291e-05	488.67	178.87	100.2	43.529	1.1708e-05	76.622	0.0018112	0.0018587	0.00051369	702.01	2.0214e-05	2.0242e-05	1066.3	280.24	2.0139e-05	1.9986e-05	498.99	175.1	106.15	44.298	2.0017e-05	74.924	149.483	16.788	231.694	9.493	63.886	77.959	9.146	14.065	-3.714	336.024	12.436	16.387	17.781	21.870	145.230	19.408	-8191	255	
3095.471	1	1	0	0	0.1414	0.069436	0.30799	0.15377	0.14209	0.1997	0.054671	0.13546	0.022185	0.078927	0.27599	0.22611	0.28671	0.13693	0.26111	0.15314	-2.7667	-3.3187	-2.6771	-3.5042	-3.1146	-2.6458	-3.6396	-2.7271	-3.1229	-3.4479	-2.7792	-3.5896	-3.1854	-2.725	-3.5625	-2.9792	265.950	148.574	110.173	326.841	300.382	198.082	325.395	270.591	175.834	21.899	335.070	21.945	339.595	9.807	20.168	263.484	0.00018133	0.00085408	4.5186e-05	644.67	1.1622e-05	1.2265e-05	1078.2	274.53	4.4011e-06	2.3044e-05	482.86	180.04	100.75	43.322	6.3331e-06	76.814	0.0017775	0.0018269	0.00051049	698.98	2.0006e-05	2.0242e-05	1061.4	279.99	2.0283e-05	2.0141e-05	498.72	175.44	106.02	44.34	2.0044e-05	74.897	189.327	11.914	198.471	9.559	230.397	238.008	8.601	13.908	188.028	222.871	11.943	16.327	18.195	21.729	192.306	19.389	-8191	255	
3095.590	1	1	0	0	0.16332	0.078031	0.17422	0.2172	0.41468	0.10665	0.287	0.19454	0.15972	0.34416	0.12313	0.178	0.19816	0.21594	0.15926	0.36094	-2.4708	-3.4167	-2.6354	-3.3729	-3.2062	-2.9146	-3.6437	-3.0854	-2.7854	-3.4875	-2.9	-3.3708	-3.4375	-2.6958	-3.4708	-3.1146	78.740	283.206	22.878	61.997	308.246	120.215	325.700	270.852	16.727	104.372	75.605	220.047	35.625	354.641	329.049	5.796	0.00043372	0.0011721	0.00054187	642.59	1.2523e-05	1.2496e-05	1081.7	274.85	8.358e-06	1.276e-05	486.37	178.82	100.8	43.415	3.0863e-06	77.127	0.001786	0.0018494	0.00051665	694.39	2.0138e-05	2.033e-05	1062.3	280.16	2.0237e-05	2.0272e-05	499.68	175.68	105.87	44.311	2.0016e-05	75.381	211.987	100.943	35.215	9.619	177.255	123.384	8.860	14.165	23.081	96.120	12.084	16.675	18.184	22.172	33.889	19.478	-8191	255	
3095.686	1	1	0	0	0.24823	0.12225	0.022926	0.12187	0.25942	0.090887	0.1138	0.17916	0.33001	0.052271	0.31416	0.24058	0.31029	0.068238	0.21767	0.12423	-2.4146	-3.5583	-2.8063	-3.4062	-3.3646	-2.7292	-3.4958	-3.1312	-2.8625	-3.7188	-2.8729	-3.1521	-3.4813	-2.6292	-3.4958	-3.1958	98.373	188.512	220.934	194.663	84.428	44.441	2.687	297.317	228.296	204.793	12.148	308.029	284.608	280.010	338.805	-0.537	0.00026626	0.0014516	0.00049572	642.5	1.2091e-05	1.4997e-05	1077.6	275.14	1.1116e-05	8.3015e-06	488.56	180.27	102.13	43.954	1.6802e-05	77.894	0.0017812	0.0018338	0.00051047	695.47	1.9876e-05	1.9818e-05	1062.2	279.6	1.987e-05	2.0077e-05	500.78	176.76	106.7	44.729	2.0027e-05	75.687	172.211	4.782	163.509	9.910	91.924	92.250	8.931	13.898	184.606	125.524	11.759	16.014	17.996	21.539	171.447	19.231	-8191	255	
3095.782	1	1	0	0	0.073706	0.19885	0.14347	0.10079	0.16705	0.068257	0.18162	0.14941	0.14291	0.13707	0.098122	0.22676	0.17316	0.19731	0.14496	0.094711	-2.2438	-3.6542	-2.8667	-3.1458	-3.575	-2.7604	-3.5958	-3.2125	-2.8396	-3.5604	-3.0042	-3.1437	-3.5458	-2.7521	-3.2271	-3.325	194.785	343.922	295.669	28.632	155.669	67.557	298.865	317.640	16.874	208.394	97.100	289.467	314.366	343.869	287.204	336.445	0.00038099	0.0019641	0.00085958	644.72	2.0691e-05	1.307e-05	1084.9	274.48	2.1749e-06	1.0455e-05	485.04	180.62	101.22	44.047	4.5116e-06	77.761	0.0017544	0.0018152	0.00050872	695.18	1.9783e-05	1.9792e-05	1063.6	280.23	1.965e-05	1.9663e-05	498.37	175.76	106.29	44.695	1.9774e-05	75.631	148.176	33.303	64.412	9.722	314.560	202.958	8.857	13.883	115.936	151.979	11.872	16.201	17.670	21.467	44.649	19.361	-8191	255	
3095.878	1	1	0	0	0.17214	0.1503	0.011525	0.019954	0.18856	0.059954	0.28253	0.18496	0.22801	0.085397	0.19239	0.011124	0.16446	0.34619	0.13446	0.2223	-2.3979	-3.4792	-2.9104	-3	-3.3646	-2.8042	-3.4313	-3.3292	-2.7958	-3.4583	-3.0833	-2.9958	-3.5438	-2.9396	-3.1083	-3.3542	350.889	343.358	55.095	292.397	199.812	300.172	79.998	309.042	87.359	318.909	24.238	261.719	350.794	331.740	345.782	328.941	0.00033337	0.0027568	0.00038965	649.17	1.2375e-05	1.1741e-05	1079.4	273.01	1.19e-05	2.2457e-05	485.67	180.86	101.27	43.766	1.2842e-05	77.235	0.0017593	0.0018084	0.00050625	695.18	1.9943e-05	1.9876e-05	1061.2	278.87	1.9794e-05	2.0133e-05	497.29	176.25	106.69	44.698	2.0041e-05	75.634	124.986	147.561	89.975	9.402	83.974	86.949	9.018	13.640	99.314	97.977	12.067	16.164	17.776	21.348	271.973	18.945	-8191	255	
3095.975	1	1	0	0	0.048026	0.23484	0.148	0.050913	0.060845	0.16448	0.20387	0.027866	0.17119	0.014689	0.080456	0.13567	0.054657	0.18234	0.041851	0.20978	-2.2938	-3.3875	-3.1958	-3.0042	-3.4833	-2.7021	-3.275	-3.4229	-2.6521	-3.45	-3.2729	-2.9979	-3.7042	-2.8812	-3.1458	-3.6083	155.326	135.233	45.453	246.755	81.680	301.941	325.463	130.659	228.477	303.521	4.508	186.931	354.510	355.722	30.292	260.922	0.00021324	0.001193	7.8502e-05	646.83	2.1304e-05	9.475e-06	1083.6	276.11	3.0079e-05	1.6203e-05	486.59	181.63	102.14	44.149	1.7175e-05	78.845	0.0017758	0.0018381	0.00051103	695.63	2.0031e-05	2.008e-05	1064.3	280.55	1.9996e-05	2.0105e-05	500.63	177.02	107.2	44.928	1.982e-05	76.235	176.880	77.558	111.429	9.792	199.548	201.287	9.079	13.908	253.460	305.873	11.566	16.286	18.168	21.935	132.898	19.256	-8191	255	
3096.095	1	1	0	0	0.059954	0.15525	0.13212	0.19742	0.12595	0.0084705	0.30148	0.12781	0.19424	0.18189	0.031646	0.22857	0.18643	0.21828	0.13228	0.22691	-2.3729	-3.4771	-3.1583	-2.7833	-3.5521	-2.9896	-3	-3.5667	-2.7021	-3.2729	-3.3208	-2.7812	-3.5792	-3.0167	-2.9833	-3.6937	75.977	282.147	194.762	295.012	298.591	14.591	48.161	121.349	139.413	140.826	342.649	353.832	306.776	240.373	56.392	250.551	0.00036151	0.00019509	0.00012411	652.18	8.7276e-06	5.5123e-06	1090.7	275.48	5.082e-06	2.9098e-06	492.18	182.76	102.09	44.42	1.3923e-05	78.517	0.0017495	0.001815	0.00050381	697.86	1.9775e-05	1.9946e-05	1071.9	281.63	1.9817e-05	2.0048e-05	502.73	178.05	107.51	45.161	1.9688e-05	76.508	198.652	11.998	331.807	9.641	1.235	-1.787	8.773	14.313	119.645	318.724	12.176	16.656	18.424	22.273	81.370	19.348	-8191	255	
3096.191	1	1	0	0	0.13813	0.091384	0.075768	0.097495	0.16991	0.35374	0.068401	0.20037	0.074629	0.1846	0.22158	0.2524	0.2346	0.012059	0.097364	0.33806	-2.2604	-3.0833	-3.2667	-2.575	-3.4729	-2.9667	-3.0521	-3.5792	-2.7167	-3.0708	-3.4896	-2.8187	-3.425	-3.2104	-2.8312	-3.6354	5.996	319.355	345.638	237.133	334.064	105.021	339.616	36.769	181.691	276.472	268.346	326.052	4.368	56.515	249.430	277.680	0.00028506	0.0015272	0.00026047	646.14	2.1834e-05	1.2166e-05	1088.3	279.5	2.03e-05	1.3008e-05	490.74	181.61	102.27	43.967	1.9947e-05	77.584	0.0017609	0.0018117	0.00050443	698.39	1.9935e-05	1.9679e-05	1070.5	282.99	1.9801e-05	1.9882e-05	502.52	177.15	107.55	44.832	1.9877e-05	75.741	181.806	89.934	134.444	9.560	189.304	140.201	9.072	13.976	88.477	111.876	12.333	16.563	17.973	21.803	89.280	19.069	-8191	255	
3096.288	1	1	0	0	0.25481	0.16475	0.18536	0.22293	0.26983	0.11819	0.1945	0.28456	0.27372	0.37004	0.25015	0.12023	0.27953	0.1015	0.10204	0.27828	-2.3625	-3.1625	-3.4479	-2.6437	-3.3083	-3.2167	-2.9479	-3.4771	-2.7917	-3.0938	-3.4917	-2.7313	-3.4583	-3.2521	-2.8208	-3.625	218.173	235.412	224.975	1.339	200.788	352.019	256.362	11.371	156.395	108.494	264.411	290.586	104.414	270.224	-1.331	240.624	0.00033409	0.0010735	0.00022663	650.41	7.7275e-06	1.473e-05	1092.1	278.79	2.7101e-06	2.6382e-06	488.9	181.63	101.31	43.834	1.0284e-05	77.598	0.0017454	0.0018169	0.00050619	700.41	1.9855e-05	1.994e-05	1068.9	282.59	1.9817e-05	1.9928e-05	500.26	176.54	107.15	44.655	1.9796e-05	75.156	170.652	96.227	251.374	9.730	134.481	14.620	8.823	14.595	171.711	328.421	12.403	16.380	18.471	22.110	182.981	19.861	-8191	255	
3096.382	1	1	0	0	0.014308	0.083558	0.03092	0.10496	0.21169	0.10587	0.32234	0.15349	0.1685	0.091566	0.046325	0.29278	0.092193	0.24498	0.18199	0.18628	-2.6021	-2.8479	-3.4958	-2.6937	-3.0958	-3.2583	-2.7042	-3.5812	-2.8208	-2.8438	-3.6083	-3.0146	-3.2812	-3.3	-2.6625	-3.5438	155.149	59.715	341.283	279.276	294.772	6.610	275.245	225.942	337.117	76.558	346.865	291.676	219.565	304.016	276.294	268.604	0.0004508	0.00018782	0.00058511	658.35	2.5599e-06	1.2877e-05	1097.1	278.7	3.8415e-06	1.1679e-05	495.44	180.65	102.34	43.539	3.1142e-06	77.084	0.0017626	0.0018041	0.00050257	701.7	1.9849e-05	1.9723e-05	1071.4	283.05	1.9578e-05	1.9763e-05	502.87	176.77	107.57	44.393	1.9818e-05	75.219	207.844	33.310	160.083	9.384	37.392	177.549	8.888	13.862	309.568	97.340	12.195	16.085	18.149	21.678	232.624	19.294	-8191	255	
3096.478	1	1	0	0	0.20745	0.031404	0.19597	0.25319	0.16245	0.1639	0.045386	0.29956	0.10035	0.15315	0.21171	0.1633	0.092414	0.19789	0.19536	0.3265	-2.6375	-2.6771	-3.3979	-2.8521	-3.0708	-3.4437	-2.7021	-3.45	-3.2229	-2.8875	-3.5729	-3.0042	-3.1396	-3.6021	-2.75	-3.6083	333.356	228.989	206.730	342.782	339.104	36.615	243.501	329.423	348.480	353.919	264.691	314.109	334.703	225.073	89.943	259.269	0.00028548	0.0023065	0.00027158	657	1.0046e-05	5.7245e-06	1096.9	280.37	1.0146e-05	6.5419e-06	492.27	180.31	103.24	43.738	3.7885e-06	76.902	0.001752	0.0018179	0.00050723	705.02	1.9945e-05	1.9855e-05	1076.2	285.06	1.9669e-05	1.9826e-05	505.63	176.87	108.33	44.641	2.0076e-05	75.349	241.831	150.520	264.373	9.357	271.826	29.747	8.789	13.668	238.733	153.690	11.735	16.268	18.252	21.290	40.510	19.226	-8191	255	
3096.574	1	1	0	0	0.082381	0.048755	0.2494	0.26878	0.13911	0.30726	0.13042	0.3099	0.18897	0.24817	0.18308	0.015293	0.037043	0.20237	0.089163	0.20412	-2.8104	-2.7479	-3.5208	-2.8875	-2.8979	-3.5062	-2.7604	-3.3479	-3.0417	-2.7417	-3.6396	-3.05	-2.9625	-3.4208	-2.675	-3.3083	23.341	270.185	81.102	353.487	52.392	218.159	312.846	293.640	343.070	103.997	307.848	250.924	125.991	48.435	305.463	316.959	0.00018379	0.00066524	0.00050007	660.16	7.0896e-06	1.1154e-05	1096.5	279.89	3.843e-06	1.1413e-05	492.55	181.35	101.68	43.323	1.0444e-05	76.448	0.0017758	0.0018289	0.00051238	709.76	2.0144e-05	2.0175e-05	1074.5	284.96	1.9961e-05	1.9963e-05	503.98	176.33	107.47	44.42	2.0219e-05	74.781	242.376	87.346	306.168	9.326	102.973	210.541	8.682	14.172	225.932	43.667	12.231	16.156	18.109	21.902	181.117	19.194	-8191	255	
3096.670	1	1	0	0	0.19566	0.13876	0.1773	0.13994	0.11378	0.26154	0.24044	0.12517	0.31134	0.30569	0.056914	0.2816	0.14094	0.21306	0.25989	0.20116	-2.9188	-2.7542	-3.4625	-3.0812	-2.7667	-3.4188	-3.0104	-3.4583	-3.4875	-2.9375	-3.5792	-3.2313	-2.8187	-3.6146	-2.9854	-3.2333	173.682	37.934	119.829	353.559	186.330	172.754	291.548	331.610	88.893	181.008	248.755	343.468	25.005	13.818	219.156	340.610	0.00029204	0.00068245	0.00039781	654.52	7.8788e-06	1.9303e-05	1094.5	279.63	1.1742e-05	2.5333e-05	487.86	178.94	101.71	42.972	1.929e-06	76.071	0.0017715	0.0018263	0.00051057	707.2	2.0126e-05	2.0088e-05	1072.8	284.97	2.0105e-05	2.0287e-05	501.18	175.36	106.88	44.093	1.9931e-05	74.343	147.623	88.001	61.097	9.643	191.529	38.217	9.193	13.593	216.093	190.361	11.937	15.974	17.854	21.683	303.168	19.339	-8191	255	
3096.767	1	1	0	0	0.26335	0.026998	0.20823	0.14818	0.088681	0.11495	0.35551	0.31124	0.067662	0.047356	0.16435	0.18877	0.16638	0.18941	0.15359	0.17266	-2.9542	-2.7375	-3.4583	-3.2938	-2.5917	-3.4479	-2.9646	-2.9562	-3.3542	-2.4708	-3.3937	-3.4208	-2.8333	-3.3625	-2.8312	-3.2229	308.005	311.306	318.140	266.507	176.269	80.484	288.793	313.428	290.158	267.403	331.682	352.321	292.716	2.650	307.591	346.957	0.00031284	0.0014676	0.00055787	654.11	5.6189e-06	6.2983e-06	1083.5	280.3	1.3446e-05	1.4115e-05	491.19	179.28	100.94	42.9	1.0437e-05	76.31	0.0017649	0.0018239	0.00050576	704.65	1.9772e-05	2.0044e-05	1066.7	284.72	1.9775e-05	1.9932e-05	500.15	175.23	106.78	43.999	1.9951e-05	74.339	203.013	45.087	40.856	9.165	164.205	236.490	8.499	13.998	141.654	151.019	11.747	16.048	18.297	21.641	254.355	19.181	-8191	255	
3096.863	1	1	0	0	0.183	0.52397	0.099638	0.074386	0.069095	0.13917	0.23566	0.15067	0.092779	0.13472	0.052998	0.38639	0.24211	0.056285	0.25076	0.22234	-3.1125	-2.7854	-3.2833	-3.3479	-2.7062	-3.5021	-3.1417	-3.025	-3.3042	-2.5604	-3.3208	-3.3896	-2.725	-3.5354	-3.0604	-2.9667	227.469	226.816	13.124	325.634	344.802	255.438	350.662	248.837	274.135	355.275	341.400	312.903	258.571	183.858	351.133	310.540	0.00028876	5.9938e-05	0.0001903	654.66	1.3581e-05	6.1355e-06	1093	277.07	4.7235e-06	5.9917e-06	490.15	179.43	101.13	42.915	5.2274e-06	76.104	0.0017858	0.0018367	0.00051006	706.36	1.9955e-05	2.0198e-05	1068.4	284.2	1.9961e-05	2.0203e-05	501.97	175.51	106.94	43.996	2.0192e-05	74.354	199.586	280.481	106.586	9.390	178.223	355.237	9.042	14.061	210.105	326.051	11.912	15.975	18.234	21.768	148.951	19.336	-8191	255	
3096.983	1	1	0	0	0.17699	0.17764	0.34417	0.029547	0.10235	0.12874	0.4082	0.12438	0.26756	0.15805	0.12904	0.17986	0.25216	0.26191	0.025783	0.22371	-3.2938	-2.5687	-3.2021	-3.4667	-2.6792	-3.4854	-3.0312	-2.8833	-3.7104	-2.7854	-3.2958	-3.4333	-2.6229	-3.4583	-3.2375	-2.8604	231.398	70.062	63.329	321.945	327.714	222.610	282.290	279.434	142.001	64.565	-0.630	32.222	305.045	353.435	20.947	271.594	0.0004427	0.0013408	0.00020716	651.02	1.7547e-05	7.1881e-06	1090.7	277.01	3.4565e-06	5.9298e-06	483.28	178.16	100.55	42.819	9.8297e-06	74.871	0.0017815	0.0018281	0.00051342	707.68	2.0164e-05	2.0247e-05	1071.2	283.2	2.0282e-05	2.0475e-05	498.75	174.14	106.45	43.79	2.0587e-05	73.687	154.046	242.567	41.883	9.035	34.054	335.283	8.847	13.832	173.627	25.831	11.642	16.156	17.675	21.641	140.130	19.264	-8191	255	
3097.079	1	1	0	0	0.15325	0.14586	0.20471	0.3099	0.19637	0.29055	0.10679	0.21572	0.072326	0.23031	0.12939	0.15814	0.19228	0.26314	0.040597	0.32089	-3.2938	-2.775	-3.0312	-3.6146	-2.7667	-3.2979	-3.2375	-2.7979	-3.4938	-2.9646	-2.9583	-3.5542	-2.8042	-3.2938	-3.2625	-2.95	185.618	14.227	286.418	348.493	268.147	131.311	91.631	39.313	209.076	199.624	129.751	270.412	344.202	332.719	52.782	292.480	0.00022019	3.6275e-05	0.00041606	651.77	1.4614e-05	1.9692e-05	1079	275.08	3.5541e-06	2.1687e-05	475.72	175.92	98.801	42.492	1.9734e-05	73.921	0.0018151	0.0018762	0.00052134	705.69	2.049e-05	2.0752e-05	1060.9	281.73	2.0543e-05	2.0306e-05	495.66	172.73	105.65	43.661	2.0236e-05	73.109	186.623	335.866	105.980	9.451	264.327	271.449	8.826	13.793	181.148	221.187	12.014	15.749	18.243	21.854	218.954	19.217	-8191	255	
3097.176	1	1	0	0	0.2373	0.21059	0.027905	0.10133	0.052319	0.24481	0.088065	0.17393	0.14242	0.13754	0.20835	0.27086	0.23397	0.095801	0.052373	0.18024	-3.0979	-2.9333	-2.9979	-3.6708	-2.7042	-3.1271	-3.5292	-2.8563	-3.5604	-3.1167	-3.0563	-3.7146	-2.8	-3.2125	-3.3521	-2.9708	243.840	42.294	44.743	327.323	319.615	232.780	17.080	250.983	43.888	341.126	274.100	299.918	151.834	106.344	76.427	6.528	0.00060427	0.0009011	0.0003567	649.77	1.1705e-05	1.9255e-05	1075.2	274.75	5.3111e-06	1.8696e-05	482.62	174.82	99.596	42.291	1.5133e-05	74.481	0.0018245	0.0018787	0.00052003	706.78	2.0363e-05	2.0541e-05	1060.8	280.58	2.03e-05	2.0333e-05	496.52	172.53	105.66	43.489	2.0427e-05	73.226	194.682	22.763	40.651	9.507	154.723	171.381	8.523	14.137	46.774	77.898	12.037	16.186	17.877	21.953	147.579	19.305	-8191	255	
3097.272	1	1	0	0	0.21975	0.12738	0.13078	0.17554	0.27935	0.11664	0.27008	0.20653	0.13918	0.23533	0.31167	0.31077	0.23292	0.066138	0.12306	0.06106	-3.0563	-3	-2.9062	-3.5042	-2.8104	-3.0979	-3.5083	-2.8708	-3.4229	-3.3479	-2.925	-3.6792	-2.8271	-3.0896	-3.575	-2.8375	233.569	295.859	97.725	84.173	180.427	281.042	223.847	263.738	238.768	116.583	331.399	275.195	335.734	262.966	242.614	246.060	0.00017374	0.0015933	0.00012349	646.66	1.1832e-05	5.5005e-06	1071.4	275.21	4.1395e-06	3.397e-06	482.41	177.18	100.45	42.482	7.4246e-06	75.229	0.0018171	0.0018623	0.00051595	703.1	2.0536e-05	2.0598e-05	1057.8	280.95	2.0681e-05	2.0625e-05	499.39	174.12	106.34	43.902	2.0569e-05	74.225	173.955	63.499	134.061	9.199	143.394	194.234	9.248	13.665	153.743	295.091	11.892	15.861	18.261	21.703	153.408	19.233	-8191	255	
3097.368	1	1	0	0	0.13509	0.19166	0.26747	0.16592	0.28153	0.039955	0.26695	0.17695	0.18863	0.19649	0.2561	0.19972	0.14499	0.20408	0.12476	0.098019	-2.9771	-3.0729	-2.6708	-3.5396	-2.9521	-2.9042	-3.575	-2.7792	-3.3417	-3.2833	-2.8083	-3.5125	-2.9813	-2.9521	-3.6375	-3.025	282.761	212.495	266.423	297.895	251.973	275.903	267.310	34.432	68.182	143.877	208.888	288.772	340.625	15.162	14.398	228.344	0.00030195	0.00070991	0.0005507	645.96	6.8791e-06	1.3489e-05	1074.8	275.11	1.5975e-05	1.888e-05	483.52	178.18	100.06	42.172	1.8164e-05	75.075	0.001825	0.0018789	0.00052503	705.49	2.0592e-05	2.0635e-05	1062.2	281.87	2.045e-05	2.05e-05	498.8	174.56	106.14	43.731	2.035e-05	73.736	169.476	7.360	216.618	9.721	193.247	168.858	8.722	13.420	146.869	232.157	12.414	16.174	18.215	22.040	200.173	19.251	-8191	255	
3097.464	1	1	0	0	0.29905	0.16334	0.08704	0.25815	0.067766	0.089148	0.080475	0.11645	0.074136	0.092629	0.13937	0.24399	0.30306	0.099384	0.12392	0.27178	-3.0583	-3.4604	-2.6937	-3.5667	-3.0604	-2.7104	-3.7438	-2.9729	-3.1562	-3.5708	-2.7104	-3.6	-3.2167	-2.8688	-3.5	-2.7812	338.501	159.334	180.581	18.512	111.408	353.351	343.285	27.110	277.667	153.682	140.443	329.988	317.822	90.380	296.653	19.225	0.00014787	0.0010915	0.00049112	646.44	2.5648e-05	2.2754e-05	1086.8	274.84	1.5347e-05	3.1522e-06	481.71	176.37	100.66	42.837	7.4601e-06	75.273	0.0017895	0.0018618	0.0005176	703	2.0291e-05	2.0416e-05	1064.8	281.61	2.0351e-05	2.0395e-05	497.48	173.62	106.23	43.783	2.0666e-05	73.632	193.901	133.833	134.394	9.222	215.992	329.239	9.192	14.396	12.158	175.879	12.612	16.141	17.815	21.571	121.810	19.346	-8191	255	
3097.583	1	1	0	0	0.027606	0.27583	0.15495	0.21686	0.096221	0.075761	0.25624	0.39309	0.1272	0.12135	0.20609	0.15217	0.068299	0.14406	0.28399	0.18871	-2.7083	-3.3187	-2.6354	-3.5167	-3.2896	-2.7646	-3.4396	-2.925	-3.0875	-3.4562	-2.6958	-3.575	-3.3708	-2.8729	-3.5375	-2.9896	63.841	284.633	183.717	267.335	324.104	117.314	280.697	10.613	178.331	162.520	324.371	352.125	98.137	337.030	83.462	343.212	0.00048682	0.0015149	7.3293e-05	653.29	4.7214e-06	1.4212e-05	1081.3	276.84	7.3659e-06	1.2548e-05	485.19	176.83	100.95	42.8	1.9705e-05	75.091	0.0018157	0.0018682	0.00052296	705.96	2.0263e-05	2.055e-05	1064	282.17	2.0185e-05	2.0388e-05	498.35	174.13	106.84	43.774	2.0186e-05	73.849	200.528	11.925	263.916	9.927	229.807	233.076	8.952	14.081	62.556	245.624	12.214	16.470	17.775	21.760	28.661	19.378	-8191	255	
3097.679	1	1	0	0	0.29627	0.10496	0.10106	0.25918	0.043328	0.1331	0.10758	0.094874	0.3057	0.10606	0.25594	0.35699	0.1573	0.22607	0.27455	0.13388	-2.6312	-3.4104	-2.5646	-3.2896	-3.3229	-2.6896	-3.6083	-3.0979	-2.8542	-3.5	-2.8354	-3.1958	-3.2833	-2.7833	-3.4708	-3.2438	353.171	78.613	206.370	14.410	247.469	116.299	23.615	203.250	296.112	77.220	216.358	295.027	-3.699	330.813	77.555	266.695	0.00038827	0.0015612	0.00069737	659.01	2.9484e-05	5.7822e-06	1088.5	279.63	1.8267e-05	5.354e-06	487.58	178.51	101.15	42.837	2.537e-05	75.987	0.0017941	0.0018588	0.0005181	708.69	2.0246e-05	2.0495e-05	1072	284.24	2.0214e-05	2.0456e-05	502.25	175.5	106.81	44.066	2.0362e-05	74.525	196.137	191.302	154.207	9.458	86.445	15.042	9.211	14.268	190.127	224.739	12.009	16.349	18.102	21.759	42.411	19.519	-8191	255	
3097.753	1	1	0	0	0.12941	0.22582	0.18462	0.20015	0.10915	0.046931	0.15984	0.18842	0.23059	0.11925	0.1711	0.48179	0.14745	0.38052	0.12624	0.18347	-2.2521	-3.4521	-2.7625	-3.0812	-3.4396	-2.6854	-3.5563	-3.1521	-2.7542	-3.6937	-2.8917	-3.1625	-3.3146	-2.9292	-3.25	-3.2333	153.086	25.893	157.212	320.934	186.621	324.311	251.787	301.455	237.326	109.375	259.738	326.669	245.592	345.317	159.510	209.118	0.00045702	0.0021157	0.00030528	654.01	1.1157e-05	5.2366e-06	1085.9	278.23	1.5893e-05	1.3465e-05	489.97	179.05	101.7	43.227	1.2278e-05	75.521	0.0018185	0.0018663	0.00052041	708.5	2.05e-05	2.0592e-05	1070	284.12	2.0534e-05	2.0658e-05	502.16	175.43	107.49	44.292	2.0829e-05	74.094	179.432	78.468	29.003	9.657	191.452	39.108	8.864	14.383	118.726	100.771	12.651	16.433	17.909	21.933	103.613	19.424	-8191	255	
3097.871	1	1	0	0	0.077824	0.054631	0.1178	0.18709	0.075304	0.1404	0.21281	0.17429	0.20127	0.1518	0.27092	0.15942	0.16983	0.085059	0.11262	0.10675	-2.3375	-3.4771	-2.9021	-3.1063	-3.4271	-2.5333	-3.5187	-3.3208	-2.7125	-3.4917	-3.0312	-3.1188	-3.5917	-2.8729	-3.3208	-3.3438	189.862	124.292	306.770	139.235	249.603	248.698	239.296	261.058	252.109	178.558	1.641	336.970	334.851	2.493	108.036	128.089	0.00031284	0.0012568	0.0003426	653.97	1.5394e-05	1.2824e-05	1083.2	279.19	1.2152e-05	8.5421e-06	482.9	176.58	100.77	42.675	8.1429e-06	75.441	0.0018402	0.0018994	0.0005311	709.62	2.0993e-05	2.1014e-05	1067.8	283.82	2.0723e-05	2.0961e-05	500.35	174.47	107	44.074	2.0764e-05	74.014	212.090	49.337	340.575	9.620	81.328	343.201	9.199	14.095	181.057	346.509	11.654	16.553	18.529	21.901	158.290	19.246	-8191	255	
3097.968	1	1	0	0	0.18462	0.12993	0.11978	0.04447	0.15542	0.089779	0.15561	0.2117	0.13898	0.19429	0.18554	0.39552	0.14819	0.27039	0.3856	0.13085	-2.3229	-3.3417	-2.8125	-2.9333	-3.6208	-2.7562	-3.2625	-3.4667	-2.6792	-3.3083	-3.275	-2.975	-3.5458	-2.6833	-3.0771	-3.65	31.800	63.170	180.392	240.295	215.385	319.643	2.443	354.842	292.035	-0.918	344.529	336.004	258.005	22.310	16.011	343.080	0.00030181	0.00064768	0.00034016	654.55	4.4515e-06	1.0321e-05	1082.1	278.18	9.4272e-06	1.481e-05	487.34	178.25	101.08	43.294	5.3219e-06	75.506	0.0018466	0.0019097	0.0005302	709.37	2.0735e-05	2.0815e-05	1066.6	284.01	2.0805e-05	2.0913e-05	502.61	175.24	107.08	44.16	2.0781e-05	74.128	210.365	111.200	82.116	9.950	175.748	245.196	8.815	13.603	74.621	237.328	12.326	16.379	17.820	22.088	86.645	19.366	-8191	255	
3098.064	1	1	0	0	0.28669	0.24915	0.16304	0.21749	0.26272	0.071135	0.23207	0.049371	0.084054	0.2694	0.20213	0.14605	0.28384	0.23007	0.10688	0.20104	-2.1958	-3.4083	-3.0708	-2.9188	-3.4958	-2.7375	-3.1771	-3.5312	-2.8812	-3.2875	-3.3646	-2.8063	-3.6312	-3.0438	-2.9708	-3.5	353.970	322.312	61.202	262.892	135.921	36.058	242.527	266.496	244.287	159.624	336.848	328.264	12.324	241.384	309.108	349.561	0.00042124	0.00081021	0.00039144	658.2	1.9511e-05	4.5184e-06	1087.9	279.67	1.701e-05	1.247e-05	491.1	179.33	101.42	43.167	4.2035e-06	76.592	0.0018392	0.0018932	0.00052791	713.67	2.0622e-05	2.0811e-05	1071.3	285.33	2.0538e-05	2.0715e-05	504.59	176.25	107.38	44.259	2.063e-05	74.785	187.032	102.570	97.007	9.416	181.788	272.332	8.955	14.015	231.702	352.381	12.153	16.494	18.243	21.753	84.691	19.353	-8191	255	
3098.160	1	1	0	0	0.19281	0.094728	0.045825	0.2886	0.28465	0.29594	0.27913	0.11969	0.17693	0.26107	0.16649	0.040859	0.13855	0.12365	0.23364	0.19005	-2.3375	-3.1396	-3.1729	-2.6917	-3.6104	-2.8771	-2.9604	-3.7146	-2.6854	-3.2146	-3.2646	-2.8646	-3.5438	-3.0854	-2.8479	-3.5604	167.446	222.649	48.281	68.165	231.401	235.588	213.552	257.159	145.829	302.326	39.303	187.596	321.228	47.278	173.049	265.359	0.00035658	0.0011617	0.00022241	656.98	5.2853e-06	6.1881e-06	1093.5	280	1.5685e-05	3.7433e-05	484.26	178.69	100.99	43.001	1.0913e-05	76.289	0.0018095	0.0018683	0.00051938	710.18	2.0564e-05	2.0476e-05	1073.2	285.36	2.0332e-05	2.0527e-05	502.02	175.65	107.57	44.164	2.0706e-05	74.453	204.156	37.870	166.248	10.080	136.071	39.310	9.189	14.129	156.529	174.218	12.689	16.286	17.968	21.586	246.039	19.679	-8191	255	
3098.279	1	1	0	0	0.29117	0.13996	0.13922	0.23033	0.039636	0.062913	0.08698	0.2278	0.18281	0.19146	0.04342	0.26326	0.26463	0.23267	0.13916	0.1715	-2.1875	-3.2354	-3.3833	-2.7979	-3.3958	-3.125	-2.8354	-3.6354	-2.7646	-3.3646	-3.3917	-2.6979	-3.3708	-3.1646	-2.5833	-3.5583	337.736	90.923	289.465	256.188	253.375	75.230	297.131	271.586	184.261	101.975	88.615	45.292	77.022	292.773	278.902	159.727	0.00035791	0.00088834	0.0002113	653.83	1.0442e-05	1.1266e-05	1084.4	279.24	1.3326e-05	2.1508e-06	480.89	178.06	101.26	43.243	8.8105e-06	75.548	0.0018429	0.001896	0.00052676	710.06	2.0755e-05	2.0504e-05	1067.7	285.59	2.0417e-05	2.0731e-05	498.61	174.94	107.23	44.169	2.0589e-05	74.352	206.977	78.224	256.153	10.276	331.035	106.137	8.969	14.227	102.206	281.419	12.208	16.406	18.132	21.873	107.172	19.638	-8191	255	
3098.352	1	1	0	0	0.10282	0.18593	0.17713	0.087835	0.13046	0.073491	0.1913	0.20701	0.25508	0.21581	0.12651	0.16195	0.10596	0.18803	0.34821	0.088131	-2.4729	-2.9625	-3.5667	-2.7542	-3.3792	-3.2188	-2.9062	-3.5792	-2.8104	-2.8729	-3.5667	-2.8458	-3.5062	-3.225	-2.8479	-3.5979	184.949	178.484	52.209	122.532	134.935	118.005	267.740	313.905	138.342	274.216	133.484	12.396	20.882	295.013	38.978	297.418	0.00052021	0.00066256	0.00041651	655.62	7.618e-06	6.4367e-06	1087.3	278.28	1.2468e-05	2.2985e-05	484.45	178.3	101.82	43.163	8.5272e-06	76.075	0.0018385	0.0018924	0.00052465	707.53	2.073e-05	2.072e-05	1071.8	284.84	2.0619e-05	2.073e-05	501.85	175.31	107.53	44.251	2.0532e-05	74.736	201.885	319.605	36.774	9.016	136.706	103.844	9.199	14.181	106.952	106.173	11.559	16.413	18.304	21.802	354.048	19.423	-8191	255	
3098.448	1	1	0	0	0.19279	0.3735	0.11037	0.11986	0.10065	0.29925	0.10678	0.13707	0.10438	0.32323	0.16525	0.07154	0.19623	0.41068	0.20653	0.27371	-2.6688	-2.9271	-3.675	-2.9583	-3.2479	-3.4188	-2.8292	-3.3	-3.2208	-2.8042	-3.7021	-2.8812	-3.3146	-3.2854	-2.6583	-3.5042	83.878	315.400	276.289	4.058	279.542	156.460	286.224	16.816	167.717	85.998	316.003	318.786	312.526	23.964	261.091	287.387	0.00024251	0.0017124	0.00013867	653.26	1.4694e-05	2.6846e-06	1084.8	281.23	8.1546e-06	7.7012e-06	488.3	180.04	102.86	43.391	7.5538e-06	76.874	0.0018285	0.0018792	0.00052672	709.62	2.0796e-05	2.0869e-05	1071.3	286.64	2.074e-05	2.1063e-05	506.77	177.08	108.54	44.616	2.0961e-05	75.229	202.589	92.109	29.376	9.759	196.516	32.801	8.861	14.293	70.435	269.977	12.398	16.142	17.871	21.772	218.216	19.790	-8191	255	
3098.544	1	1	0	0	0.10142	0.068695	0.073187	0.22246	0.12543	0.10991	0.2434	0.21026	0.16966	0.10847	0.13394	0.13129	0.22399	0.28376	0.072456	0.36559	-2.7125	-2.7708	-3.5083	-2.8854	-3.1625	-3.3896	-2.8875	-3.625	-3.3438	-2.9417	-3.7	-3.0917	-3.2042	-3.7687	-2.6792	-3.6458	47.682	169.725	227.009	20.558	333.995	355.431	240.879	347.014	51.004	84.919	287.716	132.525	7.827	296.614	7.645	339.038	0.00047067	0.0010425	0.00027845	660.7	2.5401e-06	5.4515e-06	1092.9	279.96	1.1476e-05	7.8155e-06	487.52	179.77	101.81	43.623	1.3456e-05	77.007	0.0018381	0.0018928	0.00053179	713.98	2.0615e-05	2.0616e-05	1074.1	286.59	2.0398e-05	2.0543e-05	503.87	176.31	107.91	44.493	1.9912e-05	74.982	212.933	117.567	138.299	9.755	347.821	92.022	9.134	14.590	165.113	239.301	12.597	16.194	18.358	21.476	155.078	19.667	-8191	255	
3098.663	1	1	0	0	0.070239	0.1603	0.12898	0.31993	0.068861	0.31077	0.30929	0.1052	0.020444	0.19522	0.12181	0.21783	0.13029	0.13606	0.1157	0.28449	-2.8688	-2.4042	-3.7042	-2.8917	-3.0312	-3.5438	-3.0187	-3.3917	-3.35	-2.75	-3.6875	-3.1771	-3.1042	-3.6771	-2.7313	-3.5271	342.645	244.873	76.277	326.833	89.073	98.218	315.218	255.896	253.812	2.362	29.553	176.978	265.641	5.586	334.606	238.284	0.00039523	0.00038703	0.00028944	654.56	6.8924e-06	6.6294e-06	1085.6	280.63	3.9065e-06	7.8701e-06	490.55	179.94	102.38	44.113	1.358e-05	77.552	0.001754	0.0018279	0.00051272	704.56	2.0003e-05	1.9959e-05	1066.7	284.82	1.9828e-05	1.9962e-05	502.24	175.81	107.83	44.732	1.9817e-05	75.215	196.432	291.276	94.253	10.091	231.370	91.989	9.206	13.883	-0.466	141.187	12.136	16.360	18.409	21.952	33.475	19.288	-8191	255	
3098.759	1	1	0	0	0.019989	0.16746	0.16081	0.1152	0.14727	0.22259	0.073375	0.25964	0.0546	0.08259	0.13035	0.24398	0.14925	0.11892	0.21975	0.16338	-2.8812	-2.725	-3.4417	-3.0687	-3.0396	-3.5646	-3.0958	-3.3542	-3.4396	-2.6396	-3.6	-3.2479	-2.8229	-3.6833	-2.7979	-3.3021	11.796	114.024	159.847	105.614	309.379	162.884	18.166	308.893	27.385	315.166	281.542	354.702	333.654	342.007	15.462	295.221	0.00036241	0.0012523	0.0002101	655	8.5336e-06	1.3908e-05	1082.8	281.46	8.0527e-06	2.417e-05	488.67	180.97	103.76	44.376	1.99e-05	78.328	0.0017591	0.001817	0.00051003	703.49	1.9798e-05	1.9915e-05	1067.1	284.36	1.9698e-05	2.005e-05	501.88	176.66	108.17	45.08	1.9799e-05	75.802	155.111	233.694	95.736	9.676	52.825	177.746	8.972	14.257	266.105	137.193	12.732	16.408	18.667	22.116	147.298	19.636	-8191	255	
3098.856	1	1	0	0	0.31062	0.10418	0.10114	0.43808	0.22924	0.15741	0.21582	0.082118	0.16025	0.060576	0.15824	0.20173	0.1135	0.09901	0.10716	0.10749	-3.1125	-2.6896	-3.3958	-3.1188	-2.775	-3.6354	-3.1229	-3.0375	-3.3917	-2.7854	-3.5146	-3.4896	-2.8063	-3.8792	-3.225	-3.1479	258.497	54.652	72.161	287.152	190.913	79.124	338.943	328.069	73.729	142.210	286.122	318.309	8.179	34.611	135.251	192.928	0.00028418	0.00095572	0.00037018	658.68	1.4785e-05	9.8396e-06	1092.9	282.92	1.2837e-05	1.7661e-06	496.17	182.44	103.08	44.011	1.3388e-05	77.439	0.0017597	0.0018136	0.00050227	703.12	1.9653e-05	1.99e-05	1073.3	285.83	1.9709e-05	1.9738e-05	507.11	178.07	108.55	44.942	2.0164e-05	75.64	203.246	47.971	106.274	10.460	138.253	291.885	8.926	14.071	327.028	188.789	12.661	16.168	18.172	22.112	152.478	19.271	-8191	255	
3098.976	1	1	0	0	0.09183	0.11261	0.10744	0.059126	0.24193	0.203	0.10549	0.36016	0.14504	0.22252	0.27295	0.13745	0.15626	0.084618	0.11572	0.086224	-3.1792	-2.7729	-3.4458	-3.2938	-2.5104	-3.4062	-3.0812	-3.1146	-3.55	-2.7958	-3.2896	-3.4708	-2.7542	-3.7667	-3.1167	-2.8979	266.090	238.104	230.101	32.450	332.644	310.210	39.896	314.270	151.134	174.063	346.937	297.032	240.238	4.406	229.130	312.494	0.00011527	0.0010313	0.00025246	660.41	1.5779e-05	1.3303e-05	1099	279.25	2.1697e-05	7.6242e-06	497.35	182.55	103.39	44.013	1.2618e-06	77.738	0.0017992	0.0018396	0.00050999	708.8	1.9974e-05	2.0006e-05	1073.7	284.4	1.9568e-05	1.943e-05	504.21	177.56	107.86	44.628	1.9171e-05	75.322	183.280	83.419	100.293	9.358	185.168	95.458	8.497	13.689	18.748	354.192	11.910	15.838	17.551	21.371	262.420	18.883	-8191	255	
3099.048	1	1	0	0	0.1151	0.13509	0.19539	0.29033	0.12462	0.18621	0.27456	0.14045	0.050765	0.1484	0.20028	0.15762	0.1513	0.26865	0.2209	0.49992	-3.1188	-2.7604	-3.0667	-3.4021	-2.4396	-3.2958	-3.2208	-2.7833	-3.6854	-2.8854	-3.0979	-3.5938	-2.8729	-3.4417	-3.1167	-2.9437	308.294	333.719	209.947	342.450	11.057	213.050	264.765	346.505	19.449	5.135	237.967	307.596	163.248	351.928	212.955	297.464	0.00021161	0.0015102	0.00028802	655.02	7.1212e-06	9.8958e-06	1082.8	280.59	1.0348e-05	2.2107e-05	495.59	182.21	104.86	44.568	1.033e-05	78.197	0.0017032	0.0017391	0.00048362	697.7	1.907e-05	1.8971e-05	1060.7	283.04	1.889e-05	1.8833e-05	500.89	177.87	108.21	44.957	1.8807e-05	75.638	245.988	43.355	211.628	9.000	323.980	129.528	8.390	13.607	157.032	186.059	11.622	15.705	17.729	21.409	124.777	19.357	-8191	255	
3099.144	1	1	0	0	0.092924	0.19035	0.29219	0.035276	0.22614	0.20793	0.13097	0.3001	0.11762	0.15446	0.19406	0.1468	0.33254	0.17834	0.20583	0.27531	-3.1188	-2.9708	-2.975	-3.5625	-2.7479	-3.2729	-3.3167	-2.7625	-3.4417	-3.0104	-2.9854	-3.6479	-2.7542	-3.2562	-3.4	-2.9708	323.642	41.382	142.983	236.464	336.021	103.876	201.492	-0.779	336.520	229.657	211.782	340.701	345.949	38.723	161.912	324.456	0.00028747	0.00086014	0.00013965	654.1	1.9003e-05	3.6537e-06	1087.3	283.14	1.2135e-05	1.9166e-05	500.67	184.23	104.1	44.824	1.4106e-05	78.575	0.0016651	0.0017068	0.0004769	696.11	1.8834e-05	1.8743e-05	1064.6	283.86	1.8811e-05	1.8908e-05	505.7	178.96	108.59	45.209	1.9182e-05	76.197	190.538	39.582	249.604	8.742	194.012	101.148	8.383	14.076	147.337	152.529	11.774	15.565	18.003	21.438	181.129	19.516	-8191	255	
3099.265	1	1	0	0	0.12912	0.11585	0.026484	0.16995	0.19713	0.11624	0.32249	0.40246	0.20525	0.052335	0.46312	0.29574	0.33438	0.14249	0.1128	0.34807	-3.1792	-3.0625	-2.7854	-3.6104	-2.8187	-3.1562	-3.5833	-2.5833	-3.3521	-3.025	-2.8625	-3.5125	-2.9042	-3.1	-3.4313	-2.6896	216.858	60.720	329.134	263.002	44.622	11.347	283.977	253.449	237.095	90.014	288.757	259.296	278.545	336.513	97.124	259.570	0.00037117	0.00056554	0.0003486	653.16	1.2506e-05	8.4312e-06	1096.3	282.34	1.0703e-05	1.9826e-05	500.16	185.23	105.15	45.028	1.8206e-05	79.057	0.0017121	0.001767	0.00049173	700.53	1.9323e-05	1.9399e-05	1070	285.43	1.9278e-05	1.9301e-05	507.31	180.01	109.35	45.488	1.94e-05	76.539	188.096	251.261	81.812	9.383	169.622	35.761	8.696	13.681	190.006	110.177	11.711	15.591	17.934	21.390	245.680	19.216	-8191	255	
3099.361	1	1	0	0	0.15592	0.16652	0.10002	0.29273	0.17831	0.090824	0.19702	0.23056	0.2739	0.082386	0.1357	0.1084	0.22531	0.054182	0.11214	0.24969	-2.8937	-3.2167	-2.9458	-3.6125	-2.9042	-3.0563	-3.5729	-2.6875	-3.3979	-3.0667	-2.7896	-3.5417	-2.7667	-3.0667	-3.3833	-2.6875	177.290	92.400	293.314	297.581	33.861	263.935	269.047	293.684	18.011	302.516	351.928	316.560	307.662	213.391	219.804	290.222	0.00030768	0.00044071	0.00028818	651.83	1.1211e-05	1.5647e-05	1100.7	283.46	4.9445e-06	1.6991e-05	502.62	183.46	105.71	45.155	1.3509e-05	77.987	0.001718	0.0017573	0.00049158	702.71	1.9408e-05	1.9555e-05	1077	285.97	1.9482e-05	1.969e-05	507.9	179.41	109.59	45.309	1.9746e-05	75.651	153.374	20.153	23.333	9.427	111.831	50.361	8.564	13.981	240.256	329.058	11.958	15.796	17.848	22.009	162.711	18.827	-8191	255	
3099.457	1	1	0	0	0.073193	0.12954	0.018735	0.16453	0.24445	0.10602	0.23797	0.26793	0.21037	0.18875	0.20239	0.1711	0.17845	0.18904	0.08967	0.3734	-2.8417	-3.3792	-2.525	-3.5812	-2.925	-3.0458	-3.7542	-2.6104	-3.2021	-3.3458	-2.7625	-3.6562	-3.3479	-2.9771	-3.6521	-2.7875	93.983	45.143	77.958	308.308	131.815	47.529	11.189	275.814	70.591	266.768	323.034	286.576	297.790	16.467	190.425	308.189	0.00027792	0.00228	0.00010346	653.88	1.0009e-05	1.2193e-05	1087.4	280.53	7.3392e-06	8.6567e-06	491.28	181.2	102.62	44.113	2.0549e-06	76.65	0.0017566	0.0018295	0.00051395	709.41	2.0137e-05	2.0551e-05	1074.2	287.11	2.084e-05	2.1029e-05	507.38	178.17	109.35	45.207	2.1209e-05	75.225	187.421	113.029	223.228	9.668	24.997	125.442	8.229	13.929	161.279	200.971	11.158	16.408	17.864	21.501	283.192	19.325	-8191	255	
3099.576	1	1	0	0	0.12813	0.11185	0.11418	0.10665	0.052098	0.16067	0.14929	0.23671	0.19072	0.054335	0.11212	0.30919	0.16224	0.23117	0.12619	0.15337	-2.9333	-3.3854	-2.5375	-3.5229	-3.2208	-2.8833	-3.6708	-2.9229	-3.0187	-3.3979	-2.6792	-3.5021	-3.3083	-2.6937	-3.7146	-2.9083	273.093	256.976	165.348	278.145	136.121	294.838	269.764	331.245	153.077	180.883	24.639	-0.579	0.396	335.062	224.996	309.470	0.00014992	0.0023965	0.00033352	654.86	2.3659e-05	1.1704e-05	1085.9	281.18	1.1488e-05	1.2031e-05	487.2	179.52	103.14	43.789	8.5659e-06	77.036	0.0018822	0.0019583	0.0005463	713.51	2.1386e-05	2.1469e-05	1075.8	286.63	2.1273e-05	2.1276e-05	505.82	178	109.27	45.043	2.097e-05	75.328	217.438	122.425	187.727	9.158	115.601	64.396	8.820	13.706	324.274	40.848	12.100	15.898	18.320	21.653	240.282	19.295	-8191	255	
3099.648	1	1	0	0	0.13631	0.2425	0.13724	0.055813	0.069168	0.13038	0.15669	0.10937	0.24779	0.16738	0.23593	0.10792	0.22672	0.11709	0.15584	0.098692	-2.6104	-3.4271	-2.6917	-3.4562	-3.1604	-2.75	-3.6708	-2.9667	-2.8688	-3.6875	-2.9208	-3.3458	-3.2729	-2.7542	-3.475	-3.1458	49.167	49.686	233.529	26.678	177.073	85.895	265.862	215.079	343.431	115.865	275.872	232.270	80.755	43.397	89.400	61.971	0.00025667	0.00074354	0.00060211	647.96	1.0114e-05	2.2274e-05	1083.8	281.68	1.7991e-05	3.4577e-06	493.56	182.2	104.27	44.093	1.1323e-05	77.034	0.0018457	0.0019105	0.00052871	706.52	2.0559e-05	2.0586e-05	1071.7	286.79	2.0505e-05	2.088e-05	508.91	179.22	109.69	45.358	2.1393e-05	75.918	187.670	58.742	38.587	9.400	142.121	86.334	8.784	14.006	296.741	188.127	11.913	15.916	18.222	21.541	308.238	19.393	-8191	255	
3099.744	1	1	0	0	0.12044	0.11405	0.044781	0.097218	0.16665	0.28184	0.30388	0.086553	0.2608	0.12071	0.20958	0.22922	0.12522	0.18368	0.13518	0.054824	-2.4167	-3.675	-2.7062	-3.1604	-3.4333	-2.6708	-3.7292	-3.1562	-2.9146	-3.5938	-2.875	-3.4042	-3.3438	-2.7854	-3.4854	-3.2188	24.348	61.177	109.596	192.195	53.337	312.579	299.401	207.267	72.479	5.249	29.729	297.886	11.171	328.648	207.255	3.527	0.00040967	0.00066257	0.00034202	653.19	3.122e-06	9.3786e-06	1088.2	278.81	6.15e-06	6.2569e-06	489.11	182.7	103.92	44.348	9.4227e-06	77.087	0.0019138	0.001969	0.00055171	717.26	2.1533e-05	2.1563e-05	1082.8	287.4	2.1192e-05	2.1467e-05	510.28	179.51	110.09	45.5	2.1517e-05	75.882	192.459	254.859	35.930	9.575	248.769	138.734	9.071	14.093	333.595	74.853	12.327	16.345	17.987	21.761	150.075	19.302	-8191	255	
3099.840	1	1	0	0	0.078059	0.12666	0.28793	0.18903	0.039846	0.15577	0.30338	0.12659	0.16314	0.26559	0.13115	0.16127	0.098072	0.18908	0.20705	0.20513	-2.5083	-3.525	-2.7792	-3.0667	-3.5458	-2.6979	-3.4583	-3.1729	-2.7021	-3.675	-2.9562	-3.1042	-3.6396	-2.7333	-3.1854	-3.4229	37.068	17.971	177.684	286.826	60.296	313.086	249.027	338.746	111.833	334.278	118.949	298.274	239.464	247.350	258.750	281.713	0.00023289	0.0012884	0.00022541	648.89	5.642e-06	2.006e-05	1070.2	273.78	4.108e-06	1.5718e-05	486.48	179.34	101.46	43.048	5.692e-06	74.872	0.0019317	0.0020142	0.00056044	715.61	2.2558e-05	2.2733e-05	1075.3	288.07	2.297e-05	2.3268e-05	513.2	178.79	110.67	45.436	2.377e-05	75.481	272.118	166.779	285.596	9.726	122.744	173.063	9.272	13.968	11.794	351.121	12.471	16.339	18.345	21.685	233.244	19.002	-8191	255	
3099.960	1	1	0	0	0.34978	0.13057	0.15005	0.20034	0.16856	0.11268	0.35493	0.15249	0.18973	0.046632	0.079527	0.20454	0.41631	0.21334	0.30306	0.38566	-2.3	-3.5667	-2.9458	-2.9917	-3.5271	-2.6917	-3.3812	-3.3521	-2.7125	-3.3917	-3.075	-2.8292	-3.6771	-2.8396	-3.3521	-3.425	83.427	14.089	293.301	288.616	21.022	330.685	274.343	251.793	131.478	76.485	68.374	310.247	47.136	315.993	328.620	284.382	0.00037316	0.00020865	0.00080425	650.66	1.1552e-05	2.1611e-05	1068	274.09	1.1426e-05	1.301e-05	483.77	178.97	102.61	43.316	7.4108e-06	76.051	0.0020962	0.0021751	0.00059729	722.86	2.3424e-05	2.3346e-05	1075.3	287.61	2.3167e-05	2.3012e-05	510.91	177.59	110.1	45.103	2.2148e-05	75.314	156.383	295.757	13.360	9.762	286.792	136.453	8.714	14.381	194.797	113.210	11.800	16.222	17.757	21.662	159.370	19.432	-8191	255	
3100.057	1	1	0	0	0.20749	0.22895	0.098138	0.041847	0.10563	0.17369	0.10311	0.027226	0.34847	0.10483	0.24766	0.043686	0.18755	0.18194	0.3528	0.13836	-2.3854	-3.4979	-3.0917	-2.8875	-3.6354	-3.0062	-3.2708	-3.5312	-2.8083	-3.4208	-3.3854	-2.875	-3.6354	-2.85	-3.0896	-3.5833	183.319	285.044	6.850	120.736	355.827	83.301	264.273	49.625	29.415	82.218	49.259	174.019	306.597	325.609	94.003	315.541	0.00038268	0.00035249	0.00021311	643.32	2.2537e-05	2.0774e-05	1072.3	276.48	6.36e-06	1.1069e-05	487.98	181.45	103.35	44.332	9.3965e-06	79.841	0.0019365	0.0020036	0.00055889	708.03	2.1538e-05	2.1676e-05	1066	284.32	2.1138e-05	2.1377e-05	506.83	179.19	109.62	45.845	2.1358e-05	77.463	151.653	339.067	101.811	9.763	162.686	89.448	9.640	14.730	265.492	149.694	11.888	15.910	18.065	21.770	119.854	19.174	-8191	255	
3100.153	1	1	0	0	0.096652	0.26921	0.024888	0.13432	0.18979	0.1509	0.17914	0.21314	0.031871	0.097098	0.096676	0.17341	0.17651	0.16592	0.17818	0.16252	-2.1708	-3.3	-3.0812	-2.9354	-3.4333	-2.9271	-3.1083	-3.4688	-2.9479	-3.5021	-3.4	-2.9646	-3.6583	-3.1917	-2.8979	-3.6833	308.348	40.213	213.074	188.811	48.983	170.365	286.687	348.621	206.938	247.046	288.123	327.001	31.252	26.830	326.581	314.553	0.00055587	0.0014622	0.00036163	637.29	1.4239e-05	1.1568e-05	1075.3	274.87	2.4304e-05	1.9398e-05	488.02	184.02	102.28	44.409	2.573e-05	78.345	0.0018674	0.0019369	0.00053779	696.97	2.0819e-05	2.0811e-05	1060.8	281.73	2.0454e-05	2.0543e-05	505.44	179.65	108.93	45.626	2.0735e-05	76.624	194.266	256.053	270.643	9.046	218.120	182.135	9.476	14.484	41.435	115.651	12.299	16.290	18.105	21.789	330.439	19.539	-8191	255	
3100.249	1	1	0	0	0.096669	0.039753	0.13045	0.14134	0.10068	0.30533	0.13791	0.13473	0.25458	0.074808	0.23954	0.12169	0.10561	0.12578	0.17415	0.17661	-2.4125	-3.375	-3.3646	-2.7292	-3.4938	-2.9188	-3.0979	-3.6458	-2.8625	-3.2062	-3.5708	-2.8438	-3.4771	-3.15	-2.7313	-3.6937	171.259	117.821	102.426	94.291	147.560	257.038	-0.493	326.091	328.821	11.757	289.978	35.965	144.772	50.184	285.480	242.801	1.8747e-05	8.6799e-05	7.1019e-05	628.49	8.7708e-06	7.6873e-06	1069.9	272.58	1.604e-05	5.4914e-06	485.22	181.01	102.46	44.726	2.3339e-05	77.81	0.0018406	0.0019138	0.00053483	690.61	2.0927e-05	2.1056e-05	1057.1	281.12	2.0887e-05	2.1274e-05	504.04	178.72	109.25	45.804	2.1308e-05	76.765	206.634	156.535	305.277	9.727	249.726	342.552	8.804	13.698	124.540	28.689	11.846	15.738	18.153	21.562	103.867	19.496	-8191	255	
3100.345	1	1	0	0	0.1236	0.1512	0.12679	0.13867	0.30537	0.054458	0.37623	0.26165	0.25322	0.20579	0.23789	0.37406	0.17487	0.11498	0.22709	0.065376	-2.5792	-3.0625	-3.4604	-2.8167	-3.4813	-3.1708	-2.8688	-3.6083	-2.9896	-3.15	-3.4833	-2.8937	-3.5687	-3.3854	-2.5792	-3.7542	41.722	251.141	350.310	302.118	288.848	211.032	312.941	311.951	291.862	141.408	311.946	322.629	338.662	99.137	58.218	330.856	0.00014103	0.00071098	0.00030702	627.32	3.9198e-06	1.7133e-05	1065.6	271.5	2.1068e-05	1.1277e-05	483.24	182.1	103.12	44.901	1.5489e-05	78.881	0.0018842	0.0019449	0.00054199	689.27	2.0947e-05	2.113e-05	1052.2	279.77	2.0917e-05	2.1223e-05	504.59	179.05	109.69	45.808	2.0959e-05	77.284	191.339	195.459	202.786	9.713	207.404	160.493	9.189	14.508	176.436	193.137	12.155	16.276	18.434	22.125	168.951	19.745	-8191	255	
3100.441	1	1	0	0	0.055006	0.064479	0.2623	0.22141	0.24741	0.047204	0.25048	0.12441	0.11357	0.061561	0.13729	0.23974	0.046489	0.46734	0.10728	0.095835	-2.3792	-2.9417	-3.3854	-2.7604	-3.4104	-3.2375	-2.8229	-3.6458	-2.8729	-2.8375	-3.5187	-2.7667	-3.2479	-3.4458	-2.5563	-3.6333	144.415	6.124	66.252	267.498	138.752	264.114	7.652	199.509	183.146	158.609	305.504	29.800	313.728	313.232	43.931	337.636	0.00030355	0.00061423	0.00044098	629.13	1.1829e-05	1.438e-05	1065	270.95	9.6446e-06	1.4486e-05	494.45	185.05	104.87	45.313	3.9429e-06	80.058	0.0018589	0.0019158	0.00052845	684.13	2.0723e-05	2.0578e-05	1049.4	278.81	2.0139e-05	2.0164e-05	505.13	180.33	109.6	45.958	2.0007e-05	77.533	178.298	221.275	253.074	9.348	207.345	148.001	9.063	14.474	64.068	208.029	12.224	16.138	18.009	21.469	204.388	19.409	-8191	255	
3100.537	1	1	0	0	0.1204	0.13378	0.092366	0.18225	0.099216	0.15345	0.35022	0.18291	0.096233	0.065453	0.26094	0.13162	0.15156	0.16604	0.1426	0.077726	-2.5687	-2.7042	-3.4875	-2.9646	-3.1229	-3.3979	-2.8542	-3.4688	-3.1958	-2.6312	-3.6229	-2.8833	-3.1	-3.5979	-2.7042	-3.5396	169.140	45.967	239.330	21.353	277.840	31.415	339.053	259.383	111.636	349.257	353.509	268.268	19.126	39.886	209.641	-1.283	0.0005931	0.0010128	0.00048231	632.32	2.8054e-06	1.7276e-05	1074	274.5	2.7761e-07	1.8415e-05	495.63	185.09	105.53	45.207	1.5081e-05	79.73	0.0017676	0.0018113	0.00050606	683.63	1.9775e-05	1.9827e-05	1054.5	280.36	1.9691e-05	1.9825e-05	505.26	180.03	109.88	45.701	1.9741e-05	77.029	205.551	146.906	184.081	9.921	179.433	159.926	9.240	14.165	176.553	344.008	12.505	16.051	18.198	21.368	351.621	19.272	-8191	255	
3100.656	1	1	0	0	0.12538	0.088101	0.25348	0.2195	0.18866	0.21905	0.19585	0.14429	0.12107	0.10851	0.24683	0.27125	0.21494	0.18701	0.1013	0.36909	-2.5854	-2.7375	-3.5438	-2.8833	-3.0146	-3.5833	-2.7938	-3.4042	-3.275	-2.8125	-3.5708	-3.1271	-3.0396	-3.6875	-2.5312	-3.3917	246.699	265.651	272.205	-3.114	95.381	199.015	272.180	34.369	347.792	-2.151	272.077	220.689	7.409	342.529	104.737	257.885	0.00045535	0.0018682	0.00016865	630.61	2.6469e-06	1.8439e-06	1070.4	275.32	5.5841e-06	1.4239e-05	490.55	183.82	104.03	44.993	3.515e-06	79.218	0.0017614	0.0018149	0.00050464	682.36	2.0067e-05	2.0123e-05	1050.8	280.18	1.9783e-05	1.9927e-05	501.88	179.54	108.9	45.69	1.9908e-05	76.869	183.229	225.409	24.283	9.372	0.254	305.361	9.260	14.080	212.815	30.678	12.269	15.921	18.579	21.954	127.178	19.323	-8191	255	
3100.752	1	1	0	0	0.14303	0.11603	0.105	0.052878	0.24273	0.20588	0.39579	0.19494	0.2003	0.11206	0.18701	0.13478	0.10661	0.14221	0.20346	0.20483	-3.0042	-2.6021	-3.375	-2.9396	-2.7708	-3.5458	-2.6854	-3.2792	-3.2812	-2.5833	-3.525	-3.2021	-2.7208	-3.5521	-2.7958	-3.3521	346.150	47.214	97.437	85.187	102.924	276.546	293.489	206.059	73.991	183.070	2.640	109.394	304.663	341.771	66.195	278.233	0.00047663	0.0019085	0.00054917	627.5	5.9851e-06	1.2213e-05	1061.2	275.84	2.9345e-05	1.5246e-05	496.07	185.07	105.47	45.426	1.2677e-05	79.769	0.0017514	0.0018095	0.00049852	683.31	1.995e-05	1.9744e-05	1045.4	279.49	1.9989e-05	2.0037e-05	505.06	179.61	109.76	45.954	1.971e-05	77.201	194.901	119.190	82.931	9.397	347.126	161.709	8.585	13.712	294.039	181.905	11.458	15.357	17.715	21.075	113.366	18.813	-8191	255	
3100.849	1	1	0	0	0.20028	0.14517	0.11483	0.12158	0.12484	0.10289	0.14153	0.26595	0.072948	0.22892	0.2029	0.093815	0.14761	0.10948	0.099499	0.17462	-3.0771	-2.5521	-3.4583	-2.9271	-2.8521	-3.5438	-2.8396	-3.1604	-3.3563	-2.7083	-3.5354	-3.4083	-2.8479	-3.5563	-2.7417	-3.2667	56.952	281.359	170.074	307.064	133.421	89.749	277.570	323.517	105.034	145.443	293.906	286.306	246.051	344.320	59.556	187.824	0.00051988	0.00126	0.00027712	631.55	1.2977e-05	7.629e-06	1071	275.19	2.2944e-05	1.1568e-05	496.09	184.67	104.87	45.722	2.8059e-06	80.256	0.0017595	0.0018038	0.00049986	682.48	1.9618e-05	1.9798e-05	1051.3	280.1	1.9694e-05	1.9771e-05	504.36	180.16	109.78	46.219	1.9688e-05	77.798	216.076	75.710	329.327	9.150	54.560	165.725	8.343	13.623	122.079	9.715	10.986	15.169	16.922	21.284	96.387	18.315	-8191	255	
3100.945	1	1	0	0	0.23329	0.057444	0.068677	0.10323	0.037881	0.086399	0.079098	0.17954	0.075732	0.29823	0.30554	0.17422	0.16964	0.064652	0.13981	0.22099	-3	-2.45	-3.4354	-3.1354	-2.5292	-3.4375	-3.025	-3.0167	-3.5521	-2.6458	-3.2833	-3.3542	-2.8333	-3.5771	-2.9313	-3.1375	250.434	21.489	132.125	37.870	103.902	202.420	10.565	311.165	109.200	231.836	337.400	201.630	327.835	229.985	69.839	44.424	0.0004045	0.0012257	0.00049183	634.38	2.9433e-06	1.0128e-05	1072.6	277.46	5.7981e-06	9.4136e-06	492.95	185.72	104.7	46.198	8.5772e-06	80.584	0.0017526	0.0017926	0.00049813	683.49	1.9598e-05	1.9706e-05	1054	280.51	1.9599e-05	1.9662e-05	504.99	180.77	109.75	46.609	1.9766e-05	78.039	182.439	183.747	63.659	9.151	343.393	351.643	8.230	13.643	123.475	188.034	11.112	14.942	17.732	20.653	110.827	18.914	-8191	255	
3101.041	1	1	0	0	0.11355	0.13318	0.063235	0.11317	0.18619	0.039496	0.16081	0.20824	0.070079	0.083813	0.11534	0.070134	0.066654	0.083566	0.12148	0.32456	-3.1479	-2.6917	-3.1917	-3.5563	-2.5979	-3.4458	-3.0167	-3.1021	-3.475	-2.6917	-3.1333	-3.4	-2.8292	-3.5792	-3.0854	-3	17.209	331.768	344.931	247.607	150.129	1.347	245.637	303.232	344.648	25.952	144.712	303.546	72.610	351.307	291.576	284.268	0.00039762	0.0010554	0.00015118	635.85	1.7477e-05	1.1508e-05	1071.4	276.04	2.1467e-05	1.2064e-05	492.45	185.3	104.14	45.752	1.6892e-05	79.371	0.0017625	0.0018062	0.00050746	688.66	1.9688e-05	1.979e-05	1052	280.8	1.9462e-05	1.9675e-05	503.12	179.91	108.81	46.383	1.9598e-05	77.384	185.755	74.062	120.105	8.908	59.751	111.379	8.134	13.945	162.028	105.382	11.927	14.970	17.552	20.998	197.099	18.650	-8191	255	
3101.137	1	1	0	0	0.11589	0.01253	0.14642	0.27641	0.098616	0.11056	0.27955	0.2122	0.14153	0.23283	0.076299	0.23102	0.15774	0.14767	0.043837	0.29287	-3.1917	-2.8438	-3.0271	-3.4708	-2.6375	-3.5312	-3.2542	-2.8125	-3.5021	-2.9437	-3.0667	-3.5146	-2.8708	-3.3292	-3.1604	-2.8688	297.759	150.018	223.178	313.736	150.688	104.828	309.116	-3.059	34.106	63.723	297.435	110.315	306.005	124.875	341.157	335.328	0.00016756	0.001217	0.00027453	633.93	1.6307e-05	1.6449e-05	1078.2	275.41	8.5117e-06	9.6428e-06	491.55	185.28	105.35	46.221	3.4451e-06	80.094	0.0017385	0.0017822	0.00049446	684.91	1.9081e-05	1.9443e-05	1049.2	279.14	1.9353e-05	1.9219e-05	501.36	180	109.26	46.535	1.8976e-05	77.458	158.174	152.773	157.899	8.897	157.037	161.895	8.163	13.337	29.771	169.047	11.411	15.385	17.167	21.165	308.246	18.346	-8191	255	
3101.258	1	1	0	0	0.062009	0.23291	0.10148	0.14459	0.060581	0.10845	0.231	0.15452	0.075739	0.2254	0.038334	0.30077	0.2802	0.24962	0.18375	0.031238	-3.0208	-3.0271	-2.8958	-3.5125	-2.7396	-3.3208	-3.4729	-2.6354	-3.3917	-3.0687	-2.9354	-3.5917	-2.7583	-3.3292	-3.3771	-2.8104	126.639	265.918	325.237	278.565	58.444	239.008	348.711	323.240	130.054	91.754	17.030	315.286	307.979	307.008	305.820	168.898	0.00025427	0.00096797	0.00041721	637.4	2.7531e-05	7.4439e-06	1079.9	279.51	5.5994e-06	1.1978e-05	496.09	186.54	105.87	46.431	7.6679e-06	80.627	0.0016775	0.0017218	0.00047745	682.36	1.8841e-05	1.8856e-05	1050.9	281.3	1.8874e-05	1.9106e-05	503.98	180.91	109.8	46.672	1.9353e-05	77.898	166.149	56.562	167.692	8.650	139.426	285.526	8.375	13.598	160.372	8.930	11.302	15.388	17.696	20.996	102.844	18.734	-8191	255	
3101.354	1	1	0	0	0.15592	0.20448	0.054964	0.088262	0.30112	0.075608	0.10105	0.17709	0.26204	0.082104	0.16505	0.1449	0.13045	0.25041	0.13295	0.082332	-3.0083	-2.9146	-2.7521	-3.5833	-2.9271	-3.2021	-3.5687	-2.6708	-3.3812	-3.1958	-2.85	-3.6333	-3.0542	-3.2229	-3.3187	-2.8937	6.966	96.871	4.800	91.750	207.252	246.318	123.518	242.680	3.563	195.111	334.321	263.700	258.113	223.367	149.345	264.412	0.00041866	0.00087007	0.00038407	645.86	8.4456e-06	9.1298e-06	1087.7	282.14	9.3284e-06	8.6063e-06	498.34	185.78	105.56	46.252	1.0048e-05	80.339	0.0017338	0.0017853	0.00049789	696.7	1.9234e-05	1.9338e-05	1063.8	283.65	1.8972e-05	1.8935e-05	503.9	180.16	109.28	46.227	1.8649e-05	77.192	162.584	199.971	32.011	8.923	129.348	111.362	8.020	13.517	178.197	241.128	11.518	15.451	17.666	21.100	95.662	18.540	-8191	255	
3101.448	1	1	0	0	0.047731	0.061235	0.068069	0.23294	0.061745	0.2499	0.17629	0.098222	0.06792	0.19414	0.16008	0.26772	0.24254	0.21848	0.088657	0.31334	-2.8729	-3.1813	-2.7042	-3.5792	-2.8708	-2.8917	-3.7146	-2.8021	-3.2417	-3.4292	-2.6479	-3.7229	-3.0563	-3.0333	-3.4062	-2.7146	140.089	31.904	44.732	285.574	86.060	49.648	243.419	299.690	205.762	91.229	338.540	71.859	16.437	197.506	45.969	248.259	0.00034187	0.0014562	0.00029641	640.98	2.1345e-05	1.021e-05	1086	281.35	1.3051e-05	3.2901e-06	494.77	186.63	105.36	46.448	1.3958e-05	80.806	0.0016686	0.0016943	0.00047425	683.97	1.8528e-05	1.8739e-05	1058	281.68	1.8724e-05	1.8707e-05	500.02	180.26	109.2	46.451	1.885e-05	77.685	208.309	9.920	290.076	8.830	332.754	77.128	8.190	13.440	101.609	339.713	11.311	15.854	17.124	21.176	84.437	18.659	-8191	255	
3101.522	1	1	0	0	0.013548	0.15546	0.23331	0.19146	0.046606	0.10748	0.049452	0.1523	0.092041	0.20646	0.25676	0.2986	0.14415	0.07604	0.11168	0.076117	-2.8396	-3.375	-2.7583	-3.6312	-3.0396	-2.7146	-3.7167	-2.8021	-3.1333	-3.3375	-2.7812	-3.5146	-3.2042	-2.7438	-3.5208	-2.9062	56.192	312.512	240.815	301.464	138.800	138.392	12.093	150.607	70.326	338.618	249.691	71.387	329.617	301.583	312.048	37.133	0.00021906	0.0019157	0.00073449	634.93	1.8378e-05	1.3577e-05	1070	277.52	1.6114e-05	1.5181e-05	490.14	183.81	104.72	46.298	5.7651e-06	79.972	0.0016889	0.0017368	0.00047901	684.46	1.9037e-05	1.9347e-05	1047.6	279.88	1.9458e-05	1.9599e-05	500.34	179.66	109.34	46.815	2.0047e-05	77.887	214.353	118.696	22.751	8.852	238.699	80.684	8.156	13.495	126.761	252.631	11.156	15.242	17.564	20.815	136.371	18.662	-8191	255	
3101.640	1	1	0	0	0.28857	0.12567	0.085277	0.14393	0.068637	0.08896	0.25027	0.29486	0.089736	0.21491	0.28531	0.24365	0.30265	0.074137	0.084848	0.35047	-2.6604	-3.6188	-2.8104	-3.4021	-3.1667	-2.7625	-3.9125	-2.9958	-3.0563	-3.675	-2.8042	-3.5062	-3.3063	-2.9146	-3.5125	-2.9917	255.486	281.321	197.311	281.774	246.675	349.394	299.037	15.344	322.454	145.530	155.242	98.719	353.140	54.165	113.128	151.339	0.0004325	0.0016265	0.00017332	635.57	1.0676e-05	7.9785e-06	1062.3	272.48	1.4518e-05	1.0084e-05	490.67	184.81	103.6	46.246	1.0664e-05	81.854	0.0017857	0.0018314	0.00050978	688.18	1.9995e-05	2.0181e-05	1047.2	279	2.0198e-05	1.9992e-05	501.44	180.14	109.31	47.11	2.0049e-05	79.279	179.967	335.762	38.064	8.804	175.048	221.779	8.139	13.094	109.628	78.951	11.549	15.205	17.510	20.910	143.550	18.270	-8191	255	
3101.737	1	1	0	0	0.074529	0.081525	0.14301	0.13424	0.13124	0.15552	0.095155	0.18228	0.20949	0.17772	0.17094	0.14269	0.12049	0.25966	0.13153	0.094641	-2.4771	-3.5146	-2.8333	-3.3479	-3.5021	-2.7438	-3.6813	-3.0146	-2.8771	-3.6896	-2.8771	-3.4208	-3.4583	-2.7854	-3.625	-3.3854	73.505	67.363	241.616	72.208	87.349	267.857	263.568	101.076	149.686	211.845	308.856	55.544	284.099	205.595	139.008	282.191	0.00040207	0.0017911	0.00016405	621.66	1.2551e-05	1.3356e-05	1057.4	270.82	1.6695e-05	3.2329e-06	491.68	185.74	104.05	47.134	1.5059e-05	82.205	0.0017831	0.0018478	0.0005151	678.82	2.0347e-05	2.0426e-05	1046.3	276.84	2.0092e-05	2.0277e-05	504.05	181.47	109.04	47.488	1.9599e-05	79.337	189.791	286.107	354.295	9.023	20.977	122.410	8.502	13.474	81.187	98.132	11.517	15.356	17.011	20.935	340.942	18.545	-8191	255	
3101.833	1	1	0	0	0.17564	0.23374	0.16891	0.23869	0.29803	0.2301	0.23461	0.15086	0.28882	0.21209	0.40151	0.24396	0.11822	0.10762	0.10677	0.1745	-2.3146	-3.4979	-2.8354	-3.2396	-3.3542	-2.7458	-3.4792	-3.0875	-2.75	-3.4625	-2.8167	-3.2062	-3.5208	-2.7542	-3.4437	-3.4146	22.684	240.555	3.120	8.234	57.475	76.328	297.069	39.029	5.604	234.101	138.829	284.174	278.962	273.081	-2.899	284.063	0.0004147	0.0019862	0.00026487	620.54	2.0418e-05	4.5728e-06	1044	269.33	4.6249e-06	9.3685e-06	487.48	185.55	103.85	47.252	9.2774e-06	81.816	0.0017303	0.0017869	0.00049521	671.98	1.9577e-05	1.9643e-05	1034.4	275.76	1.9551e-05	1.9829e-05	499.58	180.35	108.99	47.618	1.9999e-05	79.315	192.980	183.242	171.903	9.266	155.020	196.510	8.049	13.128	278.258	297.685	11.183	15.639	17.184	20.765	79.378	18.500	-8191	255	
3101.929	1	1	0	0	0.2273	0.078058	0.36936	0.21134	0.11835	0.21035	0.1238	0.11209	0.11424	0.1737	0.22575	0.058931	0.25826	0.10644	0.11847	0.23557	-2.3333	-3.3354	-2.7833	-3.0438	-3.4354	-2.5563	-3.4042	-3.1625	-2.7104	-3.5396	-3.0521	-2.9146	-3.6042	-2.8208	-3.2333	-3.2667	114.889	115.479	77.371	301.441	251.874	93.291	249.433	125.717	2.244	144.214	334.263	100.891	310.624	222.324	97.505	277.427	0.00050746	0.0010719	0.00019615	620.1	6.1813e-06	1.0806e-05	1054.3	272.37	1.1258e-05	1.7758e-05	491.16	186.26	105.92	47.349	1.009e-05	82.121	0.001764	0.0018265	0.00050855	676.15	1.9838e-05	1.9766e-05	1037.8	276.04	1.9491e-05	1.9572e-05	501.04	180.79	109.67	47.433	1.9659e-05	79.365	190.084	208.221	74.618	8.912	28.417	117.937	7.848	13.034	142.149	228.309	11.160	15.739	17.027	21.002	115.358	17.964	-8191	255	
3102.050	1	1	0	0	0.053011	0.088953	0.25965	0.201	0.21129	0.082973	0.14502	0.18984	0.2021	0.28024	0.048322	0.13551	0.055952	0.046843	0.052861	0.064657	-2.4125	-3.5125	-2.9938	-2.9813	-3.6437	-2.7771	-3.3542	-3.2708	-2.6021	-3.4	-2.9354	-2.9625	-3.5542	-2.8396	-3.2333	-3.55	134.149	52.845	231.490	310.950	144.633	269.717	301.293	244.667	304.850	202.371	168.989	340.163	355.036	272.584	131.187	333.745	0.00037589	0.00054846	0.00041713	624.6	1.3902e-05	8.9452e-06	1064.1	272.84	5.2764e-06	2.5406e-05	491.25	185.81	104.98	47.37	4.8679e-06	82.2	0.0017371	0.0017949	0.00049591	677.09	1.9514e-05	1.9606e-05	1042.7	277.77	1.9517e-05	1.9873e-05	504	181.46	109.92	47.714	1.9956e-05	79.536	228.256	219.496	100.026	8.936	208.563	249.996	8.535	13.416	162.436	108.276	11.440	15.700	17.335	21.029	19.857	18.776	-8191	255	
3102.146	1	1	0	0	0.093901	0.18834	0.15333	0.12226	0.1311	0.086917	0.20042	0.33972	0.24274	0.13037	0.22705	0.17386	0.19967	0.28163	0.23209	0.11751	-2.3312	-3.5417	-3	-2.8312	-3.6333	-2.9062	-3.3792	-3.5896	-2.6	-3.3875	-3.3708	-2.6833	-3.5542	-2.9104	-3.0042	-3.725	188.001	351.855	185.350	277.891	58.441	109.315	218.810	271.794	79.232	321.433	30.936	333.023	283.671	333.269	225.858	267.135	0.00034382	0.00075502	0.00022168	630.54	1.0869e-05	1.5627e-05	1068.9	274.89	7.7179e-06	1.714e-05	494.52	185.87	105.46	47.379	4.741e-06	82.145	0.0017651	0.0018174	0.00050341	684.43	1.9839e-05	1.9897e-05	1054	279.5	1.9713e-05	1.9795e-05	505.5	181.65	109.98	47.528	1.9582e-05	79.159	186.133	104.195	24.510	9.221	179.270	214.617	8.262	13.582	154.346	78.705	11.290	15.794	17.214	20.883	113.262	18.572	-8191	255	
3102.217	1	1	0	0	0.10888	0.023125	0.29843	0.27126	0.22587	0.2151	0.12104	0.2352	0.21497	0.28076	0.13555	0.15835	0.18	0.23835	0.108	0.17527	-2.2188	-3.2833	-3.2292	-2.6167	-3.5438	-2.8854	-3.0917	-3.5792	-2.65	-3.3146	-3.4313	-2.8937	-3.5958	-3.1208	-3.0687	-3.7417	182.379	158.602	-3.373	316.852	267.484	39.815	260.630	277.524	258.420	221.577	313.122	213.739	338.473	33.616	104.785	265.531	0.00067432	0.0016777	0.00038785	628.28	6.3789e-06	9.9036e-06	1058.6	271.38	8.209e-06	1.2128e-05	489.34	186.31	104.69	47.229	1.4596e-05	82.186	0.0017201	0.001777	0.00049194	676.57	1.9423e-05	1.9354e-05	1040.2	276.51	1.9155e-05	1.9375e-05	498.12	180.27	109.39	47.549	1.9287e-05	79.201	189.860	91.804	60.270	8.794	87.232	205.917	8.442	13.497	288.404	253.502	11.448	15.210	17.707	20.852	234.370	18.422	-8191	255	
3102.338	1	1	0	0	0.29	0.17693	0.1274	0.0728	0.13681	0.15572	0.21691	0.15677	0.16131	0.27526	0.11441	0.1928	0.17889	0.098019	0.21285	0.10899	-2.4604	-3.1479	-3.3292	-2.8979	-3.5833	-3.0625	-3.0583	-3.5854	-3.0104	-3.2104	-3.5312	-2.7917	-3.5646	-3.1896	-2.8604	-3.5896	207.117	103.680	130.383	179.123	144.806	74.504	296.293	307.168	153.359	152.878	66.374	271.106	20.100	122.522	82.808	344.038	0.00045596	0.0011711	6.1857e-05	622.06	2.1314e-05	9.4882e-07	1053.5	270.14	7.4847e-06	2.2732e-05	489.6	187.08	104.69	47.651	3.3909e-06	82.692	0.0016915	0.0017636	0.00048675	671.04	1.9284e-05	1.9187e-05	1031.9	274.18	1.9041e-05	1.9216e-05	496.08	180.69	109.27	47.721	1.8811e-05	79.628	239.664	1.136	280.823	8.875	75.661	115.510	8.256	13.537	145.557	56.607	11.892	15.335	17.352	20.798	260.550	18.340	-8191	255	
3102.434	1	1	0	0	0.19795	0.28408	0.098851	0.16213	0.21168	0.19783	0.18769	0.24062	0.18347	0.16625	0.060756	0.26048	0.17055	0.30023	0.017483	0.1577	-2.3396	-3.1333	-3.4146	-2.9083	-3.3812	-3.2333	-2.9958	-3.5521	-3.1292	-3.1229	-3.5458	-2.7604	-3.4458	-3.5167	-2.7333	-3.7042	116.381	12.854	219.864	345.208	141.643	140.502	66.490	326.781	105.399	228.363	24.225	32.570	333.065	287.926	118.513	266.287	0.00039198	0.000739	0.00020933	622.75	6.5147e-06	2.8875e-06	1048.5	272.39	1.0603e-05	1.8273e-05	492.02	187.85	105.32	47.991	5.6933e-06	84.167	0.0016886	0.001722	0.00047758	668.52	1.8712e-05	1.87e-05	1028.8	274.64	1.8484e-05	1.8775e-05	496.1	181.61	109.27	47.971	1.889e-05	80.524	199.700	295.235	-0.375	9.472	284.687	5.226	8.380	13.270	183.985	231.450	11.424	15.072	17.333	20.784	280.432	18.259	-8191	255	
3102.529	1	1	0	0	0.21828	0.094767	0.26487	0.2532	0.17817	0.15113	0.23448	0.15929	0.14834	0.095855	0.10026	0.049923	0.19067	0.19097	0.21344	0.14046	-2.4396	-3.0146	-3.5604	-2.6729	-3.3104	-3.3792	-2.7313	-3.55	-2.9708	-2.8438	-3.525	-2.8812	-3.3396	-3.4833	-2.7229	-3.5312	329.325	69.182	294.971	286.251	13.177	8.670	348.701	58.313	105.528	271.868	225.359	125.879	1.865	275.098	351.788	294.050	0.0003159	0.00073005	0.00041903	618.46	1.0451e-05	9.3927e-06	1055.6	270.05	4.8971e-06	1.0404e-05	491.61	186.29	106.28	48.472	1.2126e-06	83.757	0.0016664	0.0017168	0.00047877	665.73	1.8847e-05	1.8841e-05	1033	274.17	1.8779e-05	1.8935e-05	499.56	181.18	109.67	48.184	1.8645e-05	80.458	205.832	171.115	246.159	8.436	214.836	156.427	8.319	13.884	124.397	279.801	11.395	15.343	17.449	21.136	171.818	18.272	-8191	255	
3102.626	1	1	0	0	0.19681	0.23394	0.077511	0.16131	0.20253	0.072856	0.09445	0.2181	0.064586	0.10471	0.17363	0.37264	0.015669	0.08677	0.11421	0.20567	-2.8563	-2.7938	-3.4354	-2.9313	-3.1375	-3.4938	-2.8542	-3.5771	-3.4188	-2.7833	-3.6417	-2.9375	-3.0271	-3.6562	-2.6917	-3.4729	120.982	177.338	234.043	318.991	320.158	309.735	-2.071	295.632	29.137	263.159	12.598	327.967	40.674	350.650	179.627	258.337	0.00036219	0.0011243	0.00051381	610.8	9.0083e-06	9.6007e-06	1044.8	269.41	1.0803e-05	1.2153e-05	493.14	186.22	105.98	48.734	6.4601e-06	83.56	0.0016678	0.0017107	0.00047502	662.6	1.8713e-05	1.8896e-05	1028.4	272.57	1.8795e-05	1.851e-05	495.62	180.23	108.58	48.109	1.8154e-05	80.048	171.429	105.065	8.819	8.866	221.634	110.459	8.208	13.466	151.163	159.269	11.238	15.306	17.542	20.622	56.445	18.458	-8191	255	
3102.745	1	1	0	0	0.26312	0.22239	0.099522	0.47592	0.083669	0.091377	0.17283	0.21993	0.17445	0.32014	0.30469	0.19535	0.084165	0.15769	0.30066	0.19886	-2.9583	-2.7104	-3.5521	-3.0042	-2.9458	-3.6417	-2.8604	-3.1708	-3.3271	-2.8229	-3.5021	-3.1521	-2.8292	-3.6583	-2.7875	-3.3396	90.738	123.839	2.814	307.629	0.417	139.544	355.639	270.456	217.100	317.539	349.709	-3.765	296.432	295.720	318.451	267.969	0.00041639	0.0017898	0.00041324	611.61	8.7847e-06	4.5132e-06	1046.3	267.91	1.5533e-05	2.2016e-05	487.74	186.08	105.09	48.383	1.312e-05	83.685	0.0016341	0.0016573	0.00047006	658.09	1.8439e-05	1.8451e-05	1020.5	271.15	1.8404e-05	1.8569e-05	494.42	180.16	108.74	48.193	1.8534e-05	80.434	148.564	135.426	6.164	8.561	229.148	176.285	8.229	13.628	189.179	213.464	11.537	15.420	17.813	20.827	152.587	18.629	-8191	255	
3102.817	1	1	0	0	0.251	0.25213	0.21328	0.22883	0.1398	0.15337	0.090362	0.07232	0.22782	0.057443	0.16742	0.24961	0.15269	0.11254	0.13567	0.39502	-3.0062	-2.6167	-3.5583	-3.2458	-2.7167	-3.4896	-2.8979	-3.3229	-3.4437	-2.725	-3.4688	-3.1479	-2.9938	-3.7125	-2.8854	-3.075	262.145	232.573	112.035	296.414	276.016	140.489	40.653	190.715	15.984	199.072	1.479	348.641	151.066	318.839	97.882	294.564	0.00054198	0.00083511	0.00021929	610.2	1.4693e-05	7.6633e-06	1045.7	267.7	2.5516e-06	5.8882e-06	487.19	187.17	105.13	49.03	1.4052e-05	84.244	0.0016597	0.0016952	0.00048082	658.21	1.8691e-05	1.8648e-05	1020.4	270.03	1.8469e-05	1.8541e-05	493.55	180.67	108.33	48.533	1.8537e-05	81.324	170.398	37.005	238.512	9.106	223.294	54.824	8.035	13.468	180.652	0.591	11.142	15.469	17.902	21.003	6.797	18.615	-8191	255	
3102.938	1	1	0	0	0.39071	0.17833	0.08065	0.17811	0.12962	0.15704	0.081534	0.13834	0.18887	0.18736	0.21945	0.24404	0.14331	0.090179	0.26166	0.23715	-3.1	-2.6417	-3.2687	-3.2188	-2.8146	-3.6188	-2.9583	-3.2062	-3.5833	-2.7812	-3.5708	-3.4292	-2.9042	-3.5958	-2.8937	-2.8521	161.308	69.568	343.146	268.327	296.662	146.568	291.964	232.525	58.250	184.362	16.611	347.714	306.636	296.769	337.589	292.497	0.00047899	0.0012435	0.00029863	600.23	1.4002e-05	2.0752e-05	1035.1	262.58	4.6121e-06	1.9706e-05	487.01	185.86	103.52	49.157	1.5145e-05	85.435	0.0016751	0.0017183	0.00048076	651.9	1.8908e-05	1.9043e-05	1015.9	267.69	1.8744e-05	1.8775e-05	493.82	180.11	108	48.889	1.8638e-05	81.662	198.039	46.054	46.029	8.804	188.474	70.821	8.255	13.749	35.168	246.322	11.580	15.199	17.599	21.133	317.691	18.397	-8191	255	
3103.034	1	1	0	0	0.20411	0.27713	0.11169	0.15471	0.32756	0.1185	0.076526	0.033379	0.16849	0.13323	0.030056	0.27863	0.10431	0.34651	0.26382	0.33401	-3.0375	-2.7125	-3.2896	-3.3583	-2.6083	-3.4771	-2.9667	-2.9188	-3.5729	-2.7917	-3.1208	-3.4625	-2.6625	-3.55	-2.9979	-3.0667	68.629	327.097	8.468	152.949	45.721	6.164	254.650	67.503	143.734	152.332	351.284	27.383	343.066	2.859	66.848	285.541	0.00042486	0.00074046	0.00013731	599.03	1.5942e-05	1.8455e-05	1023.2	260.29	2.0687e-05	1.5415e-05	475.37	184.48	102.15	49.205	7.6891e-06	84.864	0.001655	0.0016981	0.00047386	646.91	1.8574e-05	1.8805e-05	1003.9	264.38	1.841e-05	1.8641e-05	485.2	178.07	106.46	48.602	1.8249e-05	80.798	204.117	160.588	284.014	8.983	213.727	174.307	7.962	13.633	80.647	38.255	11.794	15.499	17.626	21.251	210.249	18.072	-8191	255	
3103.130	1	1	0	0	0.26028	0.11763	0.12323	0.20045	0.091254	0.27037	0.17954	0.24678	0.14398	0.16044	0.10428	0.13569	0.27193	0.39785	0.12847	0.12179	-3.1479	-2.8396	-3.1854	-3.5417	-2.7396	-3.7083	-3.2146	-2.8021	-3.4979	-2.7167	-3.0667	-3.5708	-2.7938	-3.4813	-3.2604	-2.8646	105.065	1.851	212.563	248.453	239.389	311.554	341.976	287.187	288.690	141.661	353.128	341.239	333.438	290.141	329.163	323.267	0.00016422	0.00091758	0.00047508	593.69	1.4264e-05	3.8526e-06	1014.7	257.37	2.6415e-05	1.5429e-05	475.59	182.39	102.35	48.752	1.5065e-05	85.061	0.0016235	0.0016531	0.00046485	638.6	1.8155e-05	1.819e-05	994.05	261.18	1.809e-05	1.8101e-05	482.14	176.78	105.59	48.367	1.8313e-05	80.919	191.436	343.421	83.005	8.846	49.586	339.626	8.452	13.542	145.736	336.275	11.290	15.594	17.669	21.113	89.176	18.310	-8191	255	
3103.226	1	1	0	0	0.13349	0.063224	0.056531	0.23209	0.13905	0.16325	0.070921	0.16708	0.088854	0.04134	0.38817	0.29619	0.33906	0.1882	0.17335	0.079948	-3.2375	-2.9229	-2.9917	-3.525	-2.6875	-3.2708	-3.4146	-2.8583	-3.4771	-2.9375	-2.975	-3.5271	-2.675	-3.2479	-3.3042	-2.8083	99.271	129.606	259.426	243.047	155.660	23.393	250.059	282.241	252.154	269.953	328.225	310.597	278.589	308.478	314.046	219.187	0.00038067	0.00028639	0.00073679	595.27	8.7799e-06	4.1211e-06	1021.3	258.39	5.7942e-06	1.0346e-05	475.36	183.37	102.08	48.737	2.8991e-06	85.226	0.0016314	0.0016675	0.00046539	641.39	1.8354e-05	1.8509e-05	999.39	262.88	1.846e-05	1.8521e-05	483.88	177.93	106.48	48.587	1.8693e-05	81.398	182.924	153.739	310.476	9.454	166.067	255.591	8.239	13.467	205.617	27.374	11.491	15.333	17.618	21.556	228.541	18.061	-8191	255	
3103.347	1	1	0	0	0.092784	0.28923	0.12255	0.2217	0.010511	0.256	0.061438	0.18021	0.072267	0.23549	0.19954	0.10984	0.095148	0.081149	0.13079	0.2684	-3.1562	-3.0583	-2.8688	-3.5875	-2.75	-3.2083	-3.5417	-2.825	-3.5271	-2.9833	-2.9104	-3.6625	-2.9875	-3.1583	-3.4167	-3.0396	339.428	128.074	101.459	305.908	277.024	163.140	197.171	291.913	328.630	237.246	36.813	42.162	319.242	1.491	152.229	189.906	0.0003739	0.0017692	0.0003186	593.57	9.3105e-06	7.3079e-06	1021.4	258.33	4.9668e-06	6.957e-06	480.16	184.53	103.28	48.908	1.2446e-05	85.232	0.0016712	0.0017106	0.00047732	646.97	1.8831e-05	1.8867e-05	1002	263.35	1.8848e-05	1.8642e-05	488.04	179.01	107.39	48.815	1.8655e-05	81.406	196.559	127.370	124.268	8.869	148.640	75.427	8.705	13.405	294.262	176.640	11.539	15.344	17.780	21.075	328.959	18.216	-8191	255	
3103.441	1	1	0	0	0.17138	0.054432	0.1847	0.097044	0.2426	0.10518	0.18126	0.23975	0.21623	0.057675	0.050904	0.19985	0.11438	0.18318	0.16849	0.24192	-2.9875	-3.1104	-2.7458	-3.575	-2.9062	-2.975	-3.6188	-2.8021	-3.4437	-3.0958	-2.9292	-3.4625	-2.95	-2.8271	-3.5438	-2.7958	242.646	295.966	247.952	306.703	21.580	117.040	135.045	298.845	170.703	306.388	289.351	-0.245	312.264	234.311	36.126	287.517	0.00034628	0.0013015	0.00015432	593.36	1.298e-05	1.7094e-05	1026.9	258.48	1.8486e-05	1.5491e-05	479.62	183.9	103.14	48.637	1.5723e-05	84.838	0.0016649	0.0017086	0.00047631	644.18	1.8747e-05	1.8716e-05	1002.9	264.58	1.8691e-05	1.8626e-05	487.1	178.83	107.28	48.559	1.8596e-05	80.958	205.467	156.959	351.096	9.542	73.972	69.549	8.140	12.989	222.791	183.729	11.391	15.223	16.917	20.653	164.126	18.572	-8191	255	
3103.515	1	1	0	0	0.15837	0.089501	0.22498	0.089439	0.35822	0.073839	0.18487	0.19375	0.21816	0.12077	0.025011	0.25442	0.10528	0.22537	0.092557	0.2839	-2.9979	-3.1708	-2.7062	-3.6167	-2.975	-3.0854	-3.6583	-2.8771	-3.1833	-3.3333	-2.7792	-3.5938	-3.1167	-3.075	-3.6146	-2.925	322.942	236.717	307.053	292.654	148.522	114.450	335.840	322.527	252.068	65.367	135.117	17.406	92.932	342.722	60.631	306.616	0.0003257	0.00094556	9.8501e-05	601.95	1.4504e-05	1.0577e-05	1025.6	262.46	1.2127e-05	2.443e-05	481.53	184.68	104.03	48.607	9.3504e-06	83.943	0.0016712	0.0016989	0.00047586	650.61	1.8829e-05	1.8906e-05	1008.5	266.5	1.9029e-05	1.9114e-05	487.67	178.93	108.1	48.663	1.9018e-05	80.73	189.723	6.018	210.867	9.243	265.626	166.001	8.037	13.812	165.956	348.061	11.286	15.895	17.502	20.879	241.357	18.620	-8191	255	
3103.609	1	1	0	0	0.079029	0.14978	0.21484	0.11703	0.093557	0.018531	0.037982	0.3193	0.18435	0.16438	0.2041	0.16945	0.17371	0.2108	0.082869	0.12097	-2.7479	-3.375	-2.7792	-3.5625	-3.0938	-2.8042	-3.5875	-2.9521	-3.0729	-3.3604	-2.7396	-3.5167	-3.1625	-2.7771	-3.4708	-2.9	338.145	110.976	240.539	228.968	18.781	90.427	35.540	315.531	338.297	265.452	-2.369	325.532	298.167	31.333	331.588	192.045	0.00025558	0.00056005	3.0826e-05	607.57	6.8834e-06	1.7889e-05	1022.7	261.93	2.5171e-06	6.1914e-06	479.43	185.56	104.52	48.988	3.0006e-06	85.133	0.0016856	0.0017411	0.00048458	655.1	1.907e-05	1.9111e-05	1007	266.97	1.908e-05	1.9082e-05	490.53	180.17	108.65	48.828	1.9216e-05	81.267	199.007	46.451	205.320	9.019	2.291	99.291	8.305	13.627	144.861	39.921	11.537	15.751	17.408	20.830	320.032	18.719	-8191	255	
3103.730	1	1	0	0	0.23346	0.12895	0.093643	0.26857	0.085879	0.22918	0.16319	0.20372	0.20557	0.14467	0.073011	0.21688	0.14438	0.18424	0.098386	0.22802	-2.6854	-3.4646	-2.5729	-3.3521	-3.1583	-2.8104	-3.7417	-3.1729	-3.1562	-3.6083	-2.8937	-3.5312	-3.3354	-2.8021	-3.5271	-3.1125	223.186	295.263	56.959	38.294	5.464	3.351	245.550	16.729	67.204	137.810	63.025	253.766	344.027	345.114	243.049	16.221	0.00035232	0.00093964	0.00011382	602.16	4.3315e-06	3.0978e-06	1031.3	266.17	1.2745e-05	1.4349e-05	485.4	186.69	104.82	49.077	3.5627e-06	84.492	0.0017001	0.0017536	0.00048777	657.15	1.9075e-05	1.927e-05	1017.1	269.3	1.912e-05	1.9173e-05	494.41	181.24	108.8	49.021	1.934e-05	81.209	161.562	86.075	110.847	9.255	33.514	65.653	8.308	13.214	30.426	154.935	11.803	15.802	17.461	20.974	263.130	18.457	-8191	255	
3103.826	1	1	0	0	0.16566	0.019881	0.26162	0.059683	0.22793	0.20846	0.19341	0.31736	0.26307	0.14953	0.18186	0.10153	0.119	0.12161	0.15587	0.24327	-2.6188	-3.3896	-2.7167	-3.1958	-3.2104	-2.7188	-3.475	-3.1458	-2.8812	-3.5667	-2.6875	-3.3479	-3.4313	-2.5896	-3.5167	-3.2	248.183	137.666	334.817	84.423	181.542	257.332	307.607	309.363	153.411	162.140	306.865	69.229	280.525	281.260	252.599	328.596	0.00024155	0.00031797	9.6149e-05	601.65	7.384e-06	5.5709e-06	1026.7	263.31	2.2658e-05	1.1966e-05	480.05	184.93	104.65	49.157	1.1078e-05	83.941	0.0017116	0.0017696	0.00049182	657.57	1.9393e-05	1.9396e-05	1013.3	269.71	1.9427e-05	1.9424e-05	492.16	180.16	109	48.911	1.9442e-05	80.667	170.802	136.566	176.405	9.213	169.960	129.367	8.759	13.417	123.813	83.796	11.457	16.074	17.441	21.308	205.920	18.217	-8191	255	
3103.922	1	1	0	0	0.21247	0.042074	0.089174	0.18185	0.27039	0.10671	0.1719	0.029062	0.36278	0.18476	0.05376	0.16598	0.11117	0.32366	0.11901	0.1592	-2.5229	-3.7229	-2.7646	-3.2521	-3.5167	-2.7854	-3.5458	-3.1271	-2.7479	-3.5854	-2.9583	-3.0938	-3.4458	-2.7375	-3.2854	-3.4562	82.258	83.256	65.473	268.145	64.941	176.027	228.735	69.242	15.199	216.451	134.786	326.835	150.644	269.652	200.423	327.330	0.00011637	0.00041151	0.00026	602.91	1.994e-05	1.9165e-05	1030.6	264.88	1.0084e-05	2.7759e-06	485.15	184.75	103.99	48.631	9.8604e-06	83.477	0.0017125	0.0017924	0.00049805	660.71	1.9477e-05	1.9496e-05	1015.8	270.36	1.9577e-05	1.9783e-05	495.34	180.07	109.73	48.798	2.0121e-05	80.643	181.381	218.181	129.750	9.751	244.727	130.804	8.380	13.668	154.183	58.305	11.185	15.694	17.887	21.285	86.652	18.659	-8191	255	
3104.018	1	1	0	0	0.18315	0.096735	0.042685	0.047597	0.052739	0.36459	0.32381	0.18741	0.28486	0.025965	0.26718	0.30347	0.10585	0.33038	0.30623	0.45895	-2.3292	-3.5812	-3.05	-2.95	-3.5667	-2.7125	-3.3792	-3.3167	-2.7417	-3.4917	-3.0229	-3.1854	-3.3896	-2.7687	-3.1	-3.5604	227.640	270.731	94.462	239.559	280.988	253.462	305.790	291.074	146.769	230.788	182.260	257.319	347.761	319.129	234.371	276.278	0.00025844	0.0018614	0.00028073	606.38	4.9989e-06	2.0606e-06	1034.3	264.97	1.9032e-05	4.7012e-06	483.27	185.72	104.58	48.654	5.0286e-06	83.349	0.0017709	0.0018297	0.00050923	664.81	1.9904e-05	2.018e-05	1022	273.13	1.9982e-05	2.0415e-05	498.23	181.3	110.19	48.777	2.0448e-05	80.985	161.432	82.238	7.219	9.327	265.028	151.632	8.937	13.504	190.158	125.171	11.144	15.893	17.220	21.060	233.154	18.492	-8191	255	
3104.114	1	1	0	0	0.13298	0.15114	0.020097	0.28739	0.16669	0.044285	0.20223	0.20617	0.14152	0.13951	0.18956	0.23781	0.28513	0.15637	0.14762	0.12922	-2.2729	-3.4958	-3.0104	-2.7833	-3.5021	-2.7417	-3.0563	-3.4437	-2.6125	-3.4583	-3.1417	-2.7479	-3.6437	-3.1312	-3.0687	-3.6167	137.791	180.345	75.162	301.893	276.019	321.728	286.925	304.665	137.359	208.777	265.351	317.736	1.765	19.302	92.694	112.818	0.00040481	0.0011781	0.00060741	613.49	1.6392e-05	7.8508e-06	1044	267.44	1.0073e-05	2.2797e-05	489.18	185.01	105.29	48.149	3.7306e-06	83.212	0.0018305	0.0018847	0.00053081	676.94	2.0669e-05	2.0864e-05	1037.7	276.14	2.0915e-05	2.0909e-05	503.46	181.5	111.21	48.808	2.116e-05	80.676	202.088	117.859	197.948	8.745	155.182	132.809	8.909	13.631	291.635	98.021	11.779	15.922	17.927	21.125	51.326	18.779	-8191	255	
3104.210	1	1	0	0	0.10191	0.25555	0.37435	0.32857	0.05906	0.20302	0.43917	0.11991	0.21465	0.25386	0.1554	0.26404	0.17824	0.10681	0.13915	0.20379	-2.2812	-3.1813	-3.1333	-2.7729	-3.4813	-3.0375	-3.0604	-3.4375	-2.5271	-3.225	-3.4167	-2.7458	-3.5896	-3.2625	-2.8167	-3.675	187.919	77.374	143.202	261.558	225.867	55.508	291.494	74.604	82.243	328.781	85.817	19.564	26.559	256.324	353.968	334.649	0.00019895	0.0014533	0.0005507	620.37	9.7049e-06	1.5345e-05	1041.9	267.09	1.7035e-05	6.7668e-06	477.63	184.36	103.76	47.645	9.0431e-06	82.015	0.0018726	0.001945	0.00053593	681.82	2.1357e-05	2.1436e-05	1036.4	275.46	2.1267e-05	2.1602e-05	500.35	180.34	110.29	48.723	2.1437e-05	80.11	213.877	211.859	105.845	9.547	165.234	93.268	8.763	13.608	81.749	110.085	11.036	15.622	17.521	21.438	49.434	18.323	-8191	255	
3104.306	1	1	0	0	0.092422	0.0026246	0.11591	0.14142	0.13587	0.33626	0.046446	0.17795	0.34826	0.11447	0.14939	0.16367	0.17762	0.2488	0.12927	0.26538	-2.2229	-3.2271	-3.4479	-2.8688	-3.45	-3.0125	-2.9667	-3.625	-2.5625	-3.3438	-3.4125	-2.7729	-3.5187	-3.1771	-2.7583	-3.5646	263.523	196.162	322.809	286.642	233.652	139.927	63.415	323.738	17.170	302.678	172.240	302.448	335.847	232.558	145.606	342.722	0.00058375	0.0016628	0.00037524	609.09	2.0153e-05	1.4031e-05	1026.5	263.21	6.2274e-06	2.6278e-05	475.48	181.63	103	47.978	7.8327e-06	82.157	0.0019046	0.0019595	0.00054328	676.15	2.1507e-05	2.1359e-05	1025	272.85	2.1268e-05	2.1491e-05	495.76	179.16	109.29	48.451	2.1179e-05	80.177	204.447	291.562	49.534	9.101	53.378	138.047	8.475	13.239	155.551	112.241	11.271	15.409	17.431	20.986	146.442	18.779	-8191	255	
3104.427	1	1	0	0	0.22063	0.19279	0.0048599	0.26448	0.14706	0.1389	0.21875	0.42041	0.36313	0.19548	0.19097	0.34499	0.3103	0.29315	0.057365	0.26267	-2.4688	-3.0479	-3.3854	-2.675	-3.3771	-3.1646	-2.7917	-3.6271	-2.6042	-3.1208	-3.4833	-2.8771	-3.4354	-3.4229	-2.6083	-3.6896	206.327	15.005	-4.249	323.959	185.210	5.225	313.927	245.153	162.516	161.315	64.298	228.216	303.528	311.325	269.748	324.165	0.00037667	0.0023605	0.00010524	606.2	7.7963e-06	1.2332e-05	1027.8	262.11	5.8079e-06	3.147e-06	476.73	181.35	102.77	47.648	1.0113e-05	82.776	0.0018604	0.0019337	0.00053572	671.49	2.1024e-05	2.092e-05	1022.8	271.39	2.0894e-05	2.0964e-05	495.64	178.53	108.85	48.313	2.0833e-05	80.574	216.612	7.456	20.584	8.916	272.368	229.189	8.724	13.589	228.772	297.916	11.564	15.559	17.650	21.082	207.704	18.756	-8191	255	
3104.522	1	1	0	0	0.024825	0.24391	0.20844	0.031319	0.032063	0.047727	0.24652	0.1146	0.062692	0.19866	0.22534	0.21062	0.040956	0.19903	0.15105	0.27911	-2.6375	-2.9229	-3.4542	-2.8167	-3.1937	-3.3354	-2.7812	-3.5833	-2.9896	-2.8646	-3.4771	-2.8396	-3.3104	-3.5917	-2.6958	-3.5583	98.082	67.203	183.549	7.453	280.859	64.426	310.607	35.673	300.382	44.055	-4.020	277.305	126.063	351.178	81.318	292.775	0.00046421	0.00036631	0.0002499	602.94	5.5542e-06	1.95e-05	1022.5	262.24	8.5068e-06	1.1258e-05	480.28	183.9	102.83	47.951	7.4552e-06	83.194	0.0018399	0.0018996	0.0005286	667.77	2.0648e-05	2.0779e-05	1021.7	269.84	2.039e-05	2.0405e-05	495.43	179.55	108.98	48.574	2.0654e-05	80.703	165.462	103.529	50.742	9.247	113.813	54.568	8.651	13.698	62.065	336.639	11.395	15.750	17.683	20.916	204.513	18.653	-8191	255	
#DATA ENDS
