BOXY.EXE: ISS Imagent and Oximeter Data Acquisition Program Version 0.80
Ascii Record File

#ACQ INFORMATION
2  Detector Channels 
16  External MUX Channels 
1  Auxiliary Channels 
5000  Waveform (CCF) Frequency (Hz)
1  Waveforms Skipped 
30  Waveforms Averaged 
1  Cycles Averaged 
16  Acquisitions per Waveform 
10.0806  Updata Rate (Hz) 

#FILE INFORMATION
TRUE -- External MUX Channel results are PARSED.
FALSE -- AC DC and Phase are NOT grouped.
TRUE -- Companion Program Settings File CREATED.
FALSE -- AC data not excluded
FALSE -- DC data not excluded
FALSE -- Phase data not excluded
FALSE -- Auxillary Chn. data not excluded
Tab delimiters

#CALIBRATION STATE
TRUE -- Waveform Calibration Values APPLIED.


#AUX CALIBRATION VALUES
Val Type	aux-1	

Term	1.0000e+00	
Factor	0.0000e+00	


#WF CALIBRATION VALUES
A = Detector Channel
Val Type	A-AC1	A-AC2	A-AC3	A-AC4	A-AC5	A-AC6	A-AC7	A-AC8	A-AC9	A-AC10	A-AC11	A-AC12	A-AC13	A-AC14	A-AC15	A-AC16	A-DC1	A-DC2	A-DC3	A-DC4	A-DC5	A-DC6	A-DC7	A-DC8	A-DC9	A-DC10	A-DC11	A-DC12	A-DC13	A-DC14	A-DC15	A-DC16	A-Ph1	A-Ph2	A-Ph3	A-Ph4	A-Ph5	A-Ph6	A-Ph7	A-Ph8	A-Ph9	A-Ph10	A-Ph11	A-Ph12	A-Ph13	A-Ph14	A-Ph15	A-Ph16	

Term	0.00000e+00	0.00000e+00	0.00000e+00	0.00000e+00	0.00000e+00	0.00000e+00	0.00000e+00	0.00000e+00	0.00000e+00	0.00000e+00	0.00000e+00	0.00000e+00	0.00000e+00	0.00000e+00	0.00000e+00	0.00000e+00	0.00000e+00	0.00000e+00	0.00000e+00	0.00000e+00	0.00000e+00	0.00000e+00	0.00000e+00	0.00000e+00	0.00000e+00	0.00000e+00	0.00000e+00	0.00000e+00	0.00000e+00	0.00000e+00	0.00000e+00	0.00000e+00	0.00000e+00	0.00000e+00	0.00000e+00	0.00000e+00	0.00000e+00	0.00000e+00	0.00000e+00	0.00000e+00	0.00000e+00	0.00000e+00	0.00000e+00	0.00000e+00	0.00000e+00	0.00000e+00	0.00000e+00	0.00000e+00	
Factor	1.00000e+00	1.00000e+00	1.00000e+00	1.00000e+00	1.00000e+00	1.00000e+00	1.00000e+00	1.00000e+00	1.00000e+00	1.00000e+00	1.00000e+00	1.00000e+00	1.00000e+00	1.00000e+00	1.00000e+00	1.00000e+00	1.00000e+00	1.00000e+00	1.00000e+00	1.00000e+00	1.00000e+00	1.00000e+00	1.00000e+00	1.00000e+00	1.00000e+00	1.00000e+00	1.00000e+00	1.00000e+00	1.00000e+00	1.00000e+00	1.00000e+00	1.00000e+00	X	X	X	X	X	X	X	X	X	X	X	X	X	X	X	X	

B = Detector Channel
Val Type	B-AC1	B-AC2	B-AC3	B-AC4	B-AC5	B-AC6	B-AC7	B-AC8	B-AC9	B-AC10	B-AC11	B-AC12	B-AC13	B-AC14	B-AC15	B-AC16	B-DC1	B-DC2	B-DC3	B-DC4	B-DC5	B-DC6	B-DC7	B-DC8	B-DC9	B-DC10	B-DC11	B-DC12	B-DC13	B-DC14	B-DC15	B-DC16	B-Ph1	B-Ph2	B-Ph3	B-Ph4	B-Ph5	B-Ph6	B-Ph7	B-Ph8	B-Ph9	B-Ph10	B-Ph11	B-Ph12	B-Ph13	B-Ph14	B-Ph15	B-Ph16	

Term	0.00000e+00	0.00000e+00	0.00000e+00	0.00000e+00	0.00000e+00	0.00000e+00	0.00000e+00	0.00000e+00	0.00000e+00	0.00000e+00	0.00000e+00	0.00000e+00	0.00000e+00	0.00000e+00	0.00000e+00	0.00000e+00	0.00000e+00	0.00000e+00	0.00000e+00	0.00000e+00	0.00000e+00	0.00000e+00	0.00000e+00	0.00000e+00	0.00000e+00	0.00000e+00	0.00000e+00	0.00000e+00	0.00000e+00	0.00000e+00	0.00000e+00	0.00000e+00	-7.43740e+01	-1.28316e+02	-1.28292e+02	-1.84666e+02	-6.09405e+01	-9.26518e+01	-1.57220e+02	-1.62015e+02	-6.83234e+01	-6.49300e+01	-1.71356e+02	-1.71554e+02	-1.80605e+02	-1.78112e+02	-5.87324e+01	-1.50478e+02	
Factor	1.69462e-05	1.09168e-04	3.22790e-05	1.81303e-01	1.25172e-06	1.14954e-06	1.71467e-01	5.38756e-02	1.13096e-06	1.21214e-06	1.27027e-01	2.77678e-02	2.53669e-02	8.93279e-03	9.87240e-07	1.27691e-02	1.16641e-06	1.21360e-06	3.37925e-07	9.36980e-02	1.32701e-08	1.33200e-08	8.34584e-02	2.80064e-02	1.32587e-08	1.33078e-08	6.16425e-02	1.38762e-02	1.31430e-02	4.61932e-03	1.32892e-08	6.33447e-03	X	X	X	X	X	X	X	X	X	X	X	X	X	X	X	X	



#DISTANCE SETTINGS
A = Detector Channel
A-1	A-2	A-3	A-4	A-5	A-6	A-7	A-8	A-9	A-10	A-11	A-12	A-13	A-14	A-15	A-16	

2.5000e+00	3.0000e+00	2.5000e+00	3.0000e+00	2.0000e+00	3.0000e+00	1.5000e+00	3.0000e+00	3.0000e+00	3.0000e+00	3.0000e+00	3.0000e+00	3.0000e+00	3.0000e+00	1.5000e+00	3.0000e+00	

B = Detector Channel
B-1	B-2	B-3	B-4	B-5	B-6	B-7	B-8	B-9	B-10	B-11	B-12	B-13	B-14	B-15	B-16	

1.0000e+01	1.0000e+01	1.0000e+01	1.4400e+00	1.0000e+01	1.0000e+01	1.5100e+00	1.9400e+00	1.0000e+01	1.0000e+01	1.9900e+00	2.4900e+00	2.4100e+00	2.9000e+00	1.0000e+01	2.9800e+00	




#DATA BEGINS
time	group	step	mark	flag	A-AC1	A-AC2	A-AC3	A-AC4	A-AC5	A-AC6	A-AC7	A-AC8	A-AC9	A-AC10	A-AC11	A-AC12	A-AC13	A-AC14	A-AC15	A-AC16	A-DC1	A-DC2	A-DC3	A-DC4	A-DC5	A-DC6	A-DC7	A-DC8	A-DC9	A-DC10	A-DC11	A-DC12	A-DC13	A-DC14	A-DC15	A-DC16	A-Ph1	A-Ph2	A-Ph3	A-Ph4	A-Ph5	A-Ph6	A-Ph7	A-Ph8	A-Ph9	A-Ph10	A-Ph11	A-Ph12	A-Ph13	A-Ph14	A-Ph15	A-Ph16	B-AC1	B-AC2	B-AC3	B-AC4	B-AC5	B-AC6	B-AC7	B-AC8	B-AC9	B-AC10	B-AC11	B-AC12	B-AC13	B-AC14	B-AC15	B-AC16	B-DC1	B-DC2	B-DC3	B-DC4	B-DC5	B-DC6	B-DC7	B-DC8	B-DC9	B-DC10	B-DC11	B-DC12	B-DC13	B-DC14	B-DC15	B-DC16	B-Ph1	B-Ph2	B-Ph3	B-Ph4	B-Ph5	B-Ph6	B-Ph7	B-Ph8	B-Ph9	B-Ph10	B-Ph11	B-Ph12	B-Ph13	B-Ph14	B-Ph15	B-Ph16	aux-1	digaux	

2816.392	1	1	0	768	0.15705	0.10996	0.078426	0.24153	0.29718	0.027459	0.17472	0.12598	0.20195	0.19067	0.25046	0.12217	0.12109	0.3994	0.23208	0.034727	-2.3688	-3.0062	-3.2479	-2.7729	-3.2771	-3.15	-2.9688	-3.7333	-2.7542	-3.0938	-3.5687	-2.8479	-3.5438	-3.2271	-2.5542	-3.3729	423.068	438.297	442.114	483.641	480.217	178.881	449.962	460.743	321.997	205.789	497.741	450.048	504.982	479.808	192.594	307.649	0.00057637	0.00027258	0.00017644	1362.7	6.6302e-06	2.7595e-06	1357.4	366.17	5.635e-06	6.7464e-06	419.96	140.27	122.3	41.772	1.3784e-06	51.94	0.00054134	0.00053524	0.00015031	1380.1	5.8735e-06	5.8757e-06	1377.3	373.18	5.8587e-06	5.8651e-06	427.21	143.21	124.65	42.909	5.8552e-06	53.176	247.678	322.734	265.991	165.668	257.110	321.111	165.417	170.319	281.600	329.339	169.779	174.235	174.662	178.984	344.697	178.349	-8191	255	
2816.489	1	1	0	0	0.20094	0.091236	0.12299	0.048178	0.13559	0.058622	0.33319	0.074001	0.16309	0.091727	0.26036	0.071729	0.16786	0.084661	0.3472	0.16775	-2.6042	-2.8917	-3.5354	-2.9917	-3.1083	-3.2542	-2.9167	-3.6833	-2.9146	-3.0479	-3.4688	-2.7875	-3.3729	-3.3438	-2.7812	-3.6771	260.885	265.398	323.377	418.789	400.812	488.660	419.056	445.656	434.703	424.060	451.701	253.738	390.106	153.598	484.577	434.131	0.00046295	0.0006579	0.00015314	1365.5	6.1573e-06	4.6379e-06	1357.7	367.19	6.0622e-06	7.8791e-06	422.09	140.32	122.76	41.882	1.8333e-06	51.763	0.0005391	0.00053376	0.00014874	1379.9	5.8583e-06	5.8228e-06	1376.6	373.28	5.9071e-06	5.8078e-06	427.08	143.09	124.6	42.987	5.8507e-06	53.114	238.618	208.899	309.235	165.609	306.898	355.249	165.518	170.074	282.891	216.361	169.513	173.824	174.342	178.783	249.896	178.000	-8191	255	
2816.585	1	1	0	0	0.14156	0.1012	0.085456	0.18328	0.13737	0.11623	0.26598	0.34455	0.072918	0.10488	0.14246	0.061013	0.15498	0.14958	0.034545	0.12009	-2.7583	-2.7188	-3.4417	-3.0583	-3.1667	-3.2875	-2.8708	-3.6167	-2.8979	-2.8563	-3.5875	-2.8417	-3.1083	-3.6667	-2.6875	-3.6021	420.249	200.945	396.014	471.018	311.149	437.540	408.937	456.962	191.483	471.646	361.523	228.680	162.777	159.761	308.815	199.591	0.00052739	0.00025012	0.00010046	1363.4	5.159e-06	5.0842e-06	1362	365.43	3.223e-06	3.847e-06	419.9	140.81	122.13	41.696	9.5293e-07	51.541	0.00053549	0.00053506	0.00014773	1377.7	5.8515e-06	5.8198e-06	1378.5	372.82	5.8567e-06	5.8698e-06	427.5	143.23	124.31	42.954	5.9559e-06	53.134	244.452	428.046	324.430	165.464	266.188	398.990	165.349	170.233	441.875	176.053	169.887	174.038	174.651	179.166	386.715	178.132	-8191	255	
2816.681	1	1	0	0	0.16498	0.064943	0.047996	0.30923	0.17611	0.12879	0.14583	0.15345	0.20769	0.085706	0.21125	0.15812	0.19374	0.23405	0.031266	0.14923	-2.5563	-2.6333	-3.6208	-2.9062	-2.9771	-3.4271	-2.8917	-3.2938	-3.0417	-2.7375	-3.4542	-2.9896	-2.975	-3.5438	-2.6583	-3.4396	234.471	302.169	443.673	494.336	496.792	451.985	372.901	456.972	342.210	174.386	335.961	468.573	504.353	495.448	437.581	471.723	0.00059196	0.00054351	0.00019593	1364.8	6.5329e-06	3.6529e-06	1362.9	367.75	6.1119e-06	4.2332e-06	422.16	140.35	122.12	41.721	3.0831e-06	51.891	0.00053797	0.00053603	0.00014997	1380.1	5.8368e-06	5.895e-06	1378.5	373.91	5.8877e-06	5.8916e-06	427.05	143.12	124.57	42.905	5.9027e-06	53.189	248.557	224.438	244.857	165.223	318.449	255.937	165.325	170.120	262.461	383.012	169.618	173.806	174.803	179.125	280.389	178.646	-8191	255	
2816.777	1	1	0	0	0.084693	0.088953	0.13735	0.028573	0.19349	0.088885	0.26103	0.10553	0.038785	0.15958	0.079013	0.043996	0.068237	0.084503	0.19634	0.54239	-2.8521	-2.5979	-3.4437	-3.1479	-2.8521	-3.5292	-2.875	-3.4271	-3.2792	-2.7938	-3.4479	-3.0271	-2.8833	-3.6479	-2.5771	-3.3896	501.781	432.414	243.554	415.458	375.154	243.615	471.669	236.272	471.390	172.253	474.531	197.686	417.416	476.080	365.537	495.086	0.00052894	0.0001866	0.00023806	1361.7	4.4319e-06	5.0898e-06	1361.5	366.99	6.0837e-06	6.4831e-06	418.61	139.79	121.99	41.82	1.6305e-06	51.711	0.00053763	0.00053529	0.00015002	1377.6	5.8997e-06	5.8874e-06	1378.1	373.27	5.8606e-06	5.8698e-06	427.2	143.29	124.43	42.97	5.9202e-06	53.137	240.420	225.169	216.960	165.562	305.621	211.261	165.234	170.165	319.734	313.421	169.388	173.455	174.699	178.931	433.675	178.356	-8191	255	
2816.873	1	1	0	0	0.16695	0.17269	0.077248	0.52376	0.12892	0.16725	0.23637	0.284	0.13314	0.064191	0.093986	0.11853	0.3484	0.10102	0.048818	0.22915	-2.9688	-2.5625	-3.3667	-3.1813	-2.875	-3.5417	-2.8438	-3.2542	-3.6396	-2.5542	-3.6437	-3.2583	-2.9479	-3.5208	-2.6604	-3.2458	219.110	208.060	470.527	504.125	258.451	188.677	368.678	406.017	234.731	346.123	365.676	434.951	484.184	487.411	397.553	485.284	0.00060143	0.00023259	0.00013205	1358.4	8.0269e-06	7.8086e-06	1361.3	367.62	8.6202e-06	4.533e-06	421.04	139.82	122.21	42.064	6.6868e-06	51.729	0.00053847	0.00054359	0.0001509	1376.6	5.9557e-06	5.9506e-06	1376.5	373.95	5.9146e-06	5.935e-06	427.89	143.01	124.47	43.028	5.9501e-06	53.195	245.627	209.018	282.175	165.457	311.714	268.320	165.503	170.380	293.796	481.568	169.707	173.683	174.695	179.046	313.437	178.547	-8191	255	
2816.994	1	1	0	0	0.18528	0.25208	0.14335	0.18997	0.052607	0.15566	0.25578	0.24153	0.1246	0.31726	0.23937	0.14701	0.21308	0.189	0.13946	0.2214	-3.1375	-2.6292	-3.2958	-3.2875	-2.8208	-3.5396	-3.0292	-3.0917	-3.5396	-2.6063	-3.4521	-3.2771	-2.7042	-3.5938	-2.7271	-2.7604	426.653	157.304	401.657	420.734	264.926	451.790	414.621	396.264	398.296	368.060	469.760	169.198	225.115	445.180	263.707	467.753	0.00049564	0.00033094	4.1588e-05	1363.5	2.6418e-06	5.9907e-06	1359	367.48	8.2117e-06	4.2218e-06	418.86	139.94	122.07	41.705	1.91e-06	51.822	0.0005423	0.00054408	0.00015124	1378.1	5.9493e-06	5.9675e-06	1377.1	373.72	5.9511e-06	5.974e-06	427.14	143.07	124.55	42.919	5.9867e-06	53.191	244.145	232.255	226.725	165.503	180.715	297.808	165.559	170.360	260.507	333.079	169.635	173.925	174.938	179.151	307.931	178.385	-8191	255	
2817.090	1	1	0	0	0.23	0.3212	0.20295	0.14039	0.082617	0.069845	0.43271	0.29479	0.11132	0.25398	0.28967	0.24534	0.13873	0.23087	0.089111	0.21452	-3.0958	-2.6688	-3.1604	-3.3667	-2.8312	-3.475	-3.1771	-3.0417	-3.6354	-2.6479	-3.2021	-3.4667	-2.7375	-3.5146	-3.1562	-2.7792	471.834	159.443	241.994	496.332	154.826	253.037	412.037	476.796	330.294	437.521	458.990	465.631	186.806	363.229	384.771	176.759	0.00049274	0.00032773	0.00023824	1359	1.0237e-05	3.2482e-06	1361.6	366.86	6.6606e-06	7.6529e-06	421.89	139.99	122.21	41.769	3.6167e-06	51.615	0.00054801	0.00054547	0.00015231	1378.7	5.9847e-06	5.9953e-06	1377.6	373.61	5.9734e-06	5.9898e-06	427.29	143.08	124.55	42.943	6.0112e-06	53.199	253.853	157.169	263.129	165.699	279.982	283.572	165.464	170.490	233.851	226.417	169.947	173.922	174.841	179.434	293.368	178.377	-8191	255	
2817.186	1	1	0	0	0.23009	0.26374	0.049469	0.069017	0.35304	0.077362	0.27706	0.33478	0.16855	0.14096	0.16879	0.26606	0.067607	0.24686	0.11464	0.15664	-3.35	-2.8438	-3.1771	-3.5021	-2.6688	-3.3229	-3.2833	-2.7167	-3.6333	-2.8354	-3.1521	-3.3771	-2.7	-3.3688	-3.0792	-2.7062	489.256	272.339	261.318	262.476	429.799	494.709	432.937	161.054	327.484	249.442	172.360	443.568	475.665	438.606	321.238	154.487	0.00044854	0.00081957	0.00018945	1363	8.5809e-06	2.4547e-06	1361.4	366.38	7.1338e-06	6.2266e-06	422.63	139.52	121.7	41.795	1.8401e-06	51.588	0.0005502	0.00055154	0.0001526	1377.2	6.0091e-06	6.0414e-06	1376.6	373.18	6.0798e-06	6.0218e-06	427.46	143.08	124.26	42.944	6.0388e-06	53.071	252.762	247.184	244.286	165.609	299.973	256.444	165.602	170.306	247.340	250.522	169.820	174.020	175.055	179.002	298.867	178.564	-8191	255	
2817.282	1	1	0	0	0.13885	0.18852	0.14676	0.17499	0.14721	0.27018	0.36525	0.14801	0.35322	0.030719	0.11365	0.089031	0.11882	0.063046	0.074933	0.10954	-3.1375	-2.7604	-2.9125	-3.6125	-2.7083	-3.4313	-3.3146	-2.725	-3.6125	-2.7854	-2.9792	-3.4833	-2.75	-3.2667	-3.3688	-2.8458	324.046	360.822	175.722	483.449	341.364	459.359	472.616	474.117	505.123	481.568	319.147	328.821	363.875	285.100	343.288	430.803	0.00054747	0.00064875	6.4365e-05	1357.8	9.5007e-06	6.6021e-06	1353	365.6	7.8975e-06	5.0218e-06	418.96	139.4	122.16	41.787	4.3199e-06	51.848	0.00056176	0.0005553	0.00015361	1376.9	6.1015e-06	6.0258e-06	1373.2	373.49	6.1561e-06	6.0661e-06	427.21	143.11	124.53	42.983	6.0698e-06	53.192	248.065	214.793	249.782	165.204	333.808	252.020	165.584	170.299	323.328	182.895	169.396	174.087	174.677	179.083	335.188	178.433	-8191	255	
2817.378	1	1	0	0	0.10376	0.069168	0.14999	0.26989	0.18154	0.085777	0.086088	0.16486	0.10703	0.16826	0.18862	0.11354	0.24833	0.025213	0.057404	0.16533	-3.1437	-2.9604	-2.8708	-3.5479	-2.5208	-3.1312	-3.4896	-2.6854	-3.3042	-3.0438	-2.7625	-3.6042	-2.7833	-3.1583	-3.4083	-2.7917	170.579	357.608	220.929	448.775	347.382	424.662	264.728	441.260	489.899	159.908	495.633	506.300	429.243	307.644	281.071	155.772	0.00042667	0.00075961	0.00022181	1362.2	2.31e-06	3.4711e-06	1353.9	368.12	1.7296e-06	5.531e-06	419.93	139.61	121.67	41.944	7.5464e-06	51.688	0.00055618	0.00056134	0.00015435	1378.6	6.1145e-06	6.0668e-06	1374.8	374.23	6.1135e-06	6.1188e-06	427.09	143.24	124.3	42.959	6.1274e-06	53.163	245.683	260.793	285.147	165.464	189.979	368.615	165.438	170.293	393.294	348.413	169.601	174.227	174.863	179.013	327.117	178.483	-8191	255	
2817.473	1	1	0	0	0.042307	0.11692	0.19623	0.1547	0.12438	0.21443	0.11258	0.3785	0.12137	0.013675	0.19187	0.03445	0.15307	0.11369	0.040716	0.14514	-3.0354	-3.2208	-2.6771	-3.625	-2.7667	-2.9396	-3.6125	-2.6833	-3.2146	-3.2521	-2.75	-3.5708	-2.8854	-3.1	-3.625	-2.8312	169.789	347.068	371.722	166.727	359.476	209.303	443.975	500.976	254.091	173.171	469.157	258.822	193.478	192.948	272.773	378.248	0.00048889	0.0003658	0.00019985	1362.7	6.6235e-06	5.0559e-06	1353	366.18	6.4912e-06	6.6233e-06	419.48	140.05	121.62	41.826	1.4348e-06	51.918	0.00055968	0.00056034	0.00015641	1379.8	6.1705e-06	6.1866e-06	1376.7	373.6	6.2115e-06	6.1283e-06	427.82	143.27	124.46	42.998	6.1953e-06	53.165	254.404	261.092	300.957	165.558	295.582	309.522	165.498	170.354	283.448	350.694	169.929	174.048	174.716	179.309	261.266	178.518	-8191	255	
2817.593	1	1	0	0	0.17327	0.14178	0.34907	0.21848	0.20587	0.098543	0.13119	0.3266	0.37043	0.12111	0.083817	0.18386	0.12282	0.17492	0.1198	0.24331	-2.7979	-3.2562	-2.5812	-3.6	-2.7792	-2.8792	-3.6333	-2.8563	-3.175	-3.4813	-2.8479	-3.5958	-3.0146	-2.9292	-3.4625	-2.8958	175.864	234.679	208.810	419.027	322.515	371.380	215.294	463.180	183.906	289.546	409.254	493.217	262.643	509.438	377.481	153.624	0.00048365	0.00079588	5.5547e-05	1360.5	2.9894e-06	9.8192e-07	1352.3	366.91	6.5926e-06	4.7728e-06	420.45	140.09	121.88	41.661	3.4283e-06	51.642	0.00056169	0.00055667	0.00015663	1378.1	6.1375e-06	6.157e-06	1375.8	373.78	6.152e-06	6.0938e-06	427.57	143.17	124.42	42.979	6.1474e-06	53.154	251.591	255.660	510.374	165.700	368.656	203.587	165.560	170.404	282.002	289.799	169.958	174.146	175.002	179.446	273.773	178.784	-8191	255	
2817.690	1	1	0	0	0.25901	0.10159	0.041957	0.35353	0.22512	0.024787	0.31616	0.09199	0.16574	0.11577	0.25646	0.13139	0.027044	0.055656	0.13116	0.21717	-2.7208	-3.3583	-2.7729	-3.6604	-3.0042	-2.6458	-3.7958	-2.9292	-3.0708	-3.4396	-2.7521	-3.3958	-3.3354	-2.6979	-3.4104	-3.0583	314.617	462.201	325.749	465.626	183.367	199.512	419.911	504.261	165.168	427.312	237.436	166.543	207.844	339.193	392.167	481.548	0.00044909	0.00063468	0.00017289	1362.8	5.2076e-06	4.4904e-06	1350.8	367.15	4.8923e-06	6.0965e-06	421.42	139.52	121.32	41.89	1.1703e-06	51.753	0.00056337	0.0005597	0.00015609	1379	6.0572e-06	6.1274e-06	1376.3	373.75	6.1257e-06	6.0643e-06	427.68	142.76	124.12	42.974	6.0917e-06	52.999	253.070	211.129	246.514	165.966	247.897	253.637	165.889	170.405	278.195	293.485	170.029	174.426	174.876	179.422	305.397	178.653	-8191	255	
2817.786	1	1	0	0	0.35251	0.052181	0.21988	0.10206	0.09245	0.046273	0.18702	0.16049	0.21271	0.085559	0.079146	0.25741	0.058291	0.32266	0.080431	0.12913	-2.5812	-3.3125	-2.6312	-3.475	-3.2792	-2.7417	-3.7667	-2.9354	-2.6583	-3.4062	-2.9083	-3.4	-3.3875	-2.7208	-3.6042	-3.0708	331.072	427.445	225.580	465.875	252.422	165.770	447.211	453.773	481.862	328.125	176.244	185.031	399.604	443.788	179.520	335.288	0.00055614	0.00069706	6.906e-05	1361.7	3.6623e-06	7.3602e-06	1361.5	366.41	1.9817e-06	2.8086e-06	418.35	140.01	121.93	41.93	4.1406e-06	51.513	0.00055755	0.0005526	0.00015656	1377.1	6.0911e-06	6.1157e-06	1377	373.72	6.1178e-06	6.0949e-06	426.7	143.25	124.41	42.948	6.0974e-06	53.112	246.164	282.975	251.012	166.027	283.102	305.664	165.928	170.723	290.269	299.621	169.963	174.535	174.984	179.618	229.453	178.709	-8191	255	
2817.882	1	1	0	0	0.13362	0.12569	0.14905	0.03887	0.12598	0.053603	0.20863	0.26429	0.26312	0.053816	0.29686	0.08105	0.12689	0.20253	0.054478	0.1267	-2.4854	-3.4021	-2.6688	-3.3229	-3.1688	-2.6396	-3.5604	-3.2979	-2.9938	-3.5042	-2.8917	-3.3125	-3.4646	-2.7729	-3.2896	-3.1125	481.962	202.414	215.775	242.361	484.106	245.714	471.831	484.020	217.440	338.270	510.401	294.488	415.462	330.354	238.242	414.407	0.00043555	0.00045808	9.6546e-05	1364.7	1.8983e-06	2.4228e-06	1357.2	365.04	7.9906e-07	5.0166e-06	418.47	139.73	121.98	41.709	3.1243e-06	51.819	0.00055801	0.0005578	0.00015604	1378.3	6.0522e-06	6.0932e-06	1377.9	373.21	6.0623e-06	6.0558e-06	426.11	143.07	124.32	42.919	6.0617e-06	53.165	245.418	182.033	440.354	165.840	240.070	198.228	165.575	170.324	289.860	257.217	169.757	174.356	174.761	179.230	381.277	178.005	-8191	255	
2817.954	1	1	0	0	0.14949	0.16149	0.077884	0.22613	0.11857	0.096974	0.17284	0.1494	0.14807	0.21767	0.21147	0.093259	0.21716	0.097125	0.31287	0.11448	-2.2875	-3.35	-2.7875	-3.1792	-3.4479	-2.7958	-3.3875	-3.1583	-2.7521	-3.4604	-3.0292	-3.0167	-3.5125	-2.7875	-3.2562	-3.375	388.331	197.064	192.741	432.843	481.748	436.163	152.599	370.022	468.917	182.389	477.151	224.411	510.844	404.410	467.559	373.006	0.00059185	0.00019575	7.1279e-05	1360.4	3.538e-06	5.4445e-06	1361.4	367.05	2.4786e-06	4.175e-06	419.24	140.35	121.87	41.88	2.8113e-06	51.773	0.00055566	0.00055616	0.00015435	1378.7	6.1031e-06	6.0772e-06	1378.9	373.77	6.0358e-06	6.0827e-06	426.78	143.23	124.25	42.96	6.0885e-06	53.163	243.664	244.633	190.475	165.779	266.110	320.413	165.381	170.016	260.516	299.517	169.540	173.784	174.300	179.090	324.452	178.179	-8191	255	
2818.074	1	1	0	0	0.1276	0.13735	0.11295	0.087615	0.18836	0.22455	0.12046	0.20352	0.1869	0.27648	0.052479	0.33435	0.27917	0.094233	0.10113	0.17578	-2.1312	-3.5417	-2.8396	-3.0625	-3.4562	-2.6104	-3.4646	-3.4354	-2.4646	-3.5125	-3.1667	-2.9104	-3.5625	-2.8875	-3.2396	-3.425	249.414	171.355	465.539	225.834	417.090	243.385	391.017	176.700	382.105	424.224	205.237	475.080	194.226	504.911	350.214	160.918	0.00049649	0.00054611	0.00013064	1366.2	7.7658e-06	3.6332e-06	1358.1	368.6	9.9604e-06	5.7531e-06	419.26	140.03	122.07	41.814	2.5338e-06	51.566	0.00054861	0.00055149	0.00015287	1383.4	6.0674e-06	6.0325e-06	1377	374.07	5.9955e-06	5.9841e-06	425.92	143.25	124.34	42.901	5.9601e-06	53.075	246.501	227.127	262.461	165.622	248.023	300.026	165.342	170.032	285.240	312.475	169.543	173.943	174.711	179.046	273.417	178.182	-8191	255	
2818.170	1	1	0	0	0.15876	0.21234	0.054383	0.23801	0.24119	0.32215	0.10093	0.1304	0.11163	0.032453	0.17043	0.24507	0.078617	0.31319	0.19653	0.069773	-2.2729	-3.3937	-3.0292	-2.8021	-3.5292	-2.8396	-3.3	-3.4396	-2.6854	-3.3292	-3.1229	-3.0396	-3.5896	-2.9375	-3.1271	-3.5938	303.624	482.973	384.457	503.537	502.110	240.991	422.249	487.332	322.125	271.945	245.002	179.209	368.531	465.828	217.013	174.621	0.00054738	0.00069055	0.00012665	1361.7	6.0133e-06	8.0066e-06	1358.9	367.73	8.856e-06	3.4161e-06	418.16	140.03	121.94	41.999	5.2064e-06	51.868	0.00054304	0.00053732	0.00014991	1378.8	5.8438e-06	5.8562e-06	1376.4	373.52	5.8124e-06	5.7812e-06	425.49	142.94	124.2	42.859	5.754e-06	53.098	249.185	275.824	302.205	165.589	310.481	343.086	165.267	170.082	246.281	180.729	169.282	173.998	174.574	178.927	211.073	178.029	-8191	255	
2818.267	1	1	0	0	0.10274	0.063925	0.26455	0.12126	0.18049	0.078698	0.15485	0.22335	0.33949	0.16838	0.076125	0.14287	0.060158	0.19358	0.14359	0.10987	-2.2729	-3.3729	-3.2042	-2.9833	-3.4104	-2.8917	-3.05	-3.5521	-2.4292	-3.325	-3.4125	-2.7917	-3.5292	-2.9104	-2.8354	-3.5833	504.199	398.147	158.763	468.497	361.330	378.672	467.679	488.609	456.762	356.859	161.246	415.955	509.672	464.007	206.363	474.634	0.00045767	0.00047157	0.0003033	1369.3	7.78e-06	4.3383e-06	1359.5	367.14	3.0032e-06	5.3314e-06	420.91	139.38	122.4	41.992	4.7713e-06	51.616	0.00052948	0.0005185	0.00014445	1379.3	5.7124e-06	5.6525e-06	1378.1	372.65	5.6922e-06	5.6683e-06	425.7	142.8	124.19	42.883	5.6586e-06	52.978	244.916	222.374	252.875	165.540	310.261	246.895	165.814	170.178	233.107	342.336	169.719	173.970	174.707	179.201	309.757	178.033	-8191	255	
2818.363	1	1	0	0	0.16819	0.14942	0.12368	0.23986	0.33954	0.12402	0.35294	0.35262	0.051813	0.26169	0.10816	0.015986	0.14223	0.31196	0.068519	0.21494	-2.4833	-3.1312	-3.1604	-2.8958	-3.3104	-2.8979	-2.9938	-3.6542	-2.6562	-3.2208	-3.3229	-2.8625	-3.6437	-3.0854	-2.7625	-3.55	498.199	482.133	478.444	500.604	452.723	353.024	497.284	461.279	223.810	478.470	492.195	208.745	498.103	503.445	152.801	165.721	0.00049987	0.00049932	0.00015444	1364.8	4.5565e-06	1.4593e-06	1360.5	367.67	9.4757e-06	3.3499e-06	419.61	140.68	122.04	41.825	3.6704e-06	51.572	0.00052308	0.00051805	0.00014472	1378.6	5.6903e-06	5.656e-06	1376.4	373.08	5.7689e-06	5.7385e-06	426.25	142.92	124.33	42.832	5.7691e-06	53.028	249.451	161.946	346.644	165.686	375.122	326.742	165.323	170.230	297.481	261.820	169.419	173.755	174.685	178.698	269.075	178.460	-8191	255	
2818.482	1	1	0	0	0.15162	0.090907	0.10437	0.24416	0.056092	0.19577	0.16726	0.17025	0.20818	0.21898	0.20204	0.30002	0.21391	0.1936	0.27845	0.05171	-2.4625	-3.1104	-3.2812	-2.9458	-3.3979	-3.1312	-2.8229	-3.6208	-2.8167	-3.1396	-3.4375	-2.6958	-3.4354	-3.2542	-2.6354	-3.6771	426.449	190.353	451.507	463.290	345.053	439.122	427.234	335.721	361.662	246.890	413.012	485.987	392.710	365.883	211.821	450.275	0.00052187	0.00067203	0.00016272	1357.4	4.5206e-06	4.6669e-06	1353.2	366.59	8.9907e-06	1.8889e-06	420.15	139.82	121.12	41.709	3.5939e-06	51.885	0.00052937	0.00052386	0.00014506	1376.2	5.7195e-06	5.7304e-06	1372.6	373.28	5.7161e-06	5.7359e-06	426.26	142.86	124.04	42.827	5.7456e-06	53.05	239.800	284.919	222.137	165.408	307.996	232.124	165.486	170.219	279.491	231.689	169.464	173.997	174.641	178.816	253.868	178.436	-8191	255	
2818.555	1	1	0	0	0.071552	0.10366	0.071196	0.16268	0.031074	0.10792	0.26372	0.28674	0.051665	0.30601	0.11741	0.38057	0.11895	0.089212	0.21234	0.15328	-2.4813	-3.1063	-3.2354	-3.0354	-3.2354	-3.2229	-2.8896	-3.5229	-2.8896	-2.9542	-3.65	-2.8625	-3.3354	-3.4667	-2.7604	-3.6208	497.580	328.561	470.933	456.055	305.771	434.873	491.130	507.407	324.966	211.973	169.795	477.169	428.215	413.263	317.428	189.586	0.00049814	0.00064928	0.00020771	1355.9	7.2577e-06	2.4989e-06	1362.2	366.56	1.0328e-05	2.9489e-06	421.26	139.6	121.69	41.83	6.5492e-06	51.61	0.00052135	0.00052026	0.00014389	1372.3	5.7129e-06	5.6803e-06	1372.9	372.46	5.6997e-06	5.684e-06	425.87	142.69	124.23	42.873	5.6636e-06	53.058	247.020	267.308	266.764	165.694	274.882	258.166	165.345	170.205	311.677	225.609	169.722	174.079	174.849	179.082	319.979	178.495	-8191	255	
2818.674	1	1	0	0	0.14553	0.12493	0.21397	0.27369	0.23721	0.15987	0.33991	0.19326	0.21553	0.1499	0.26523	0.19671	0.18551	0.077019	0.25952	0.21825	-2.725	-2.7667	-3.4458	-2.75	-3.0958	-3.4208	-2.65	-3.4521	-3.0625	-2.8208	-3.5438	-2.7938	-3.2	-3.3958	-2.6833	-3.2667	285.910	174.733	194.842	468.777	469.530	433.266	479.287	171.302	257.392	343.526	430.812	205.759	160.440	462.188	393.917	461.095	0.00050882	0.00042901	0.00024125	1361.3	8.5374e-06	9.1758e-07	1357.9	367.3	5.5495e-06	5.9226e-06	417.55	140.24	122.45	41.631	3.8377e-06	51.776	0.00052316	0.00051554	0.00014359	1374.8	5.6864e-06	5.6723e-06	1375.7	372.84	5.6351e-06	5.667e-06	424.79	142.85	124.34	42.797	5.7059e-06	53.039	252.609	197.804	211.553	165.630	357.160	325.627	165.452	170.494	302.061	243.474	169.620	174.192	174.901	179.019	325.750	178.601	-8191	255	
2818.770	1	1	0	0	0.085316	0.12836	0.047018	0.35457	0.2379	0.10671	0.17589	0.23213	0.21277	0.23292	0.19372	0.045015	0.065494	0.087337	0.22397	0.076986	-2.6208	-2.7333	-3.45	-2.8458	-2.9854	-3.4042	-2.8542	-3.4083	-3.0375	-2.7062	-3.6583	-2.8583	-3.1188	-3.5521	-2.6646	-3.3833	510.249	177.809	425.667	443.823	302.347	452.314	475.159	459.702	472.865	473.389	342.072	358.761	429.462	459.340	178.498	405.850	0.0005184	0.0004894	0.00011249	1358.8	5.7899e-06	2.7965e-06	1356.6	367.2	2.2637e-06	4.567e-06	417.39	139.63	121.78	41.815	4.7458e-06	51.851	0.00052033	0.00052125	0.00014416	1373.4	5.7642e-06	5.721e-06	1373.3	372.65	5.723e-06	5.7251e-06	425.5	143	124.11	42.857	5.6535e-06	53.072	249.757	231.348	227.720	165.526	321.384	259.734	165.618	170.451	320.571	214.152	169.566	173.936	174.643	178.811	258.682	178.391	-8191	255	
2818.866	1	1	0	0	0.23008	0.2243	0.087429	0.2415	0.055189	0.10844	0.43664	0.23312	0.10552	0.20066	0.24655	0.026702	0.02818	0.016052	0.095322	0.20118	-2.7792	-2.5583	-3.4583	-3.2104	-2.8625	-3.5625	-2.8312	-3.2375	-3.2687	-2.6521	-3.575	-2.975	-2.9833	-3.525	-2.7208	-3.1937	272.846	396.205	411.369	484.603	361.064	209.309	436.120	448.414	206.358	306.707	442.092	506.965	449.317	243.302	484.185	436.394	0.00061158	0.00032521	0.00014158	1355.9	2.8712e-06	9.5002e-07	1356	367.96	6.8399e-06	4.764e-06	422.37	140.54	122.16	41.703	4.4234e-06	51.829	0.0005239	0.00052081	0.00014575	1373.8	5.7008e-06	5.6783e-06	1372.9	373.28	5.688e-06	5.6841e-06	426.82	142.86	124.4	42.873	5.6749e-06	52.966	242.028	257.909	218.048	165.739	305.978	385.970	165.407	170.375	294.303	206.589	169.525	173.740	174.575	179.066	328.105	178.237	-8191	255	
2818.962	1	1	0	0	0.26956	0.34978	0.12957	0.26119	0.28718	0.29693	0.084616	0.21271	0.04098	0.057241	0.12557	0.27227	0.054219	0.19208	0.26734	0.13887	-2.8604	-2.6188	-3.4146	-3.1354	-2.7854	-3.5312	-2.9229	-3.125	-3.5875	-2.5062	-3.4979	-3.3146	-2.7396	-3.5833	-2.7958	-3.1208	410.514	328.350	233.184	485.341	490.340	371.799	181.565	225.602	158.691	278.497	482.720	443.640	403.089	505.245	475.479	435.859	0.00057259	0.00010144	5.4434e-05	1356.9	6.5732e-06	3.3035e-06	1349	366.98	9.3695e-06	4.7191e-06	421.51	139.94	121.93	41.684	1.1455e-05	51.688	0.00052209	0.00051912	0.0001442	1372.5	5.7066e-06	5.7336e-06	1371.5	373.17	5.6539e-06	5.6632e-06	425.69	142.88	124.17	42.841	5.6973e-06	52.986	243.248	347.201	316.841	165.376	301.130	359.524	165.261	170.179	315.889	358.843	169.508	173.830	174.689	179.043	288.287	178.407	-8191	255	
2819.083	1	1	0	0	0.18177	0.1475	0.25117	0.30648	0.13572	0.19052	0.087576	0.12714	0.14978	0.16114	0.14055	0.15616	0.21666	0.23447	0.0077709	0.3617	-3.1333	-2.7854	-3.2562	-3.4604	-2.5938	-3.3875	-3.1937	-3.1083	-3.4479	-2.8396	-3.3979	-3.2938	-2.7042	-3.6354	-2.8979	-3.0125	194.470	239.017	172.204	446.621	293.800	315.953	412.092	170.350	490.449	213.628	502.028	364.805	494.171	170.040	413.437	202.760	0.00057991	0.00024177	0.00021677	1361.3	5.8498e-06	2.4052e-06	1361.2	366.7	7.9054e-06	8.7054e-07	421.19	140.44	122.08	41.747	3.5556e-06	51.842	0.00051789	0.00051853	0.0001439	1375.3	5.704e-06	5.6969e-06	1377.4	372.74	5.6418e-06	5.6972e-06	426.84	143.02	124.2	42.818	5.6992e-06	53.011	247.340	330.134	232.673	165.611	362.121	327.371	165.424	170.279	261.607	277.743	169.825	174.103	174.870	178.864	273.084	178.554	-8191	255	
2819.179	1	1	0	0	0.18861	0.0020962	0.058703	0.27894	0.13986	0.14423	0.2688	0.30328	0.19959	0.076389	0.10825	0.080386	0.29198	0.09115	0.1017	0.036524	-3.025	-2.6583	-3.0271	-3.4813	-2.5354	-3.5083	-3.1208	-2.8979	-3.3937	-2.6667	-3.1417	-3.5875	-2.8063	-3.4854	-3.0833	-2.9604	311.184	180.000	476.007	478.618	414.519	157.708	446.237	475.436	310.830	223.418	256.115	493.704	483.902	313.221	468.940	501.860	0.0006042	0.00085043	0.00011636	1360.3	3.4661e-06	3.1228e-06	1356.3	367.26	1.92e-06	1.3378e-06	419.97	140.54	121.75	41.758	4.4175e-06	51.993	0.00052409	0.00051896	0.00014533	1375.2	5.7459e-06	5.6568e-06	1373.4	373.26	5.7052e-06	5.6947e-06	426.19	143.16	124.05	42.943	5.7403e-06	53.207	244.675	206.879	313.615	165.667	200.674	228.596	165.604	170.558	317.975	237.582	170.116	173.970	174.920	178.836	214.530	178.429	-8191	255	
2819.251	1	1	0	0	0.20174	0.23617	0.26287	0.087566	0.26637	0.14765	0.31557	0.40078	0.11928	0.05593	0.17871	0.18939	0.28328	0.21635	0.07234	0.28298	-3.0563	-2.9062	-3.1188	-3.4188	-2.7021	-3.3625	-3.3083	-2.8792	-3.7083	-2.7729	-3.0708	-3.5146	-2.8021	-3.3917	-3.3667	-2.8479	450.681	173.970	310.494	326.023	484.142	286.886	417.201	450.280	378.979	320.717	443.149	504.514	155.608	446.840	156.816	154.054	0.00053365	9.0317e-05	0.00019677	1364.5	7.2179e-06	6.1248e-06	1359	367.78	1.006e-05	2.5616e-06	422	139.8	121.86	41.761	7.4235e-06	52.018	0.00052435	0.00052121	0.00014487	1378.1	5.7311e-06	5.7009e-06	1375.5	373.28	5.7183e-06	5.6926e-06	427.24	142.8	124.32	42.922	5.6347e-06	53.08	243.890	403.945	243.252	165.659	339.119	273.322	165.616	170.346	317.089	241.309	170.054	174.238	174.906	179.340	304.144	178.479	-8191	255	
2819.371	1	1	0	0	0.13545	0.14939	0.13406	0.20424	0.087874	0.21008	0.37718	0.096335	0.12403	0.19557	0.12131	0.2158	0.21965	0.036001	0.063444	0.1249	-3.1063	-2.7875	-2.9729	-3.6583	-2.7313	-3.1937	-3.4021	-2.6688	-3.3229	-2.9625	-2.7938	-3.5729	-2.925	-3.3063	-3.4083	-2.6271	461.196	365.879	272.687	403.916	412.195	419.396	401.157	449.829	382.050	267.030	460.421	421.456	168.376	486.751	461.057	505.338	0.00047949	0.00012241	9.3497e-05	1368.8	9.3486e-06	3.7166e-06	1362.5	368.4	5.7697e-06	5.788e-06	418.21	140.29	121.91	41.985	4.8107e-06	51.607	0.00052087	0.00051496	0.00014337	1380.3	5.648e-06	5.6408e-06	1376.8	373.13	5.6468e-06	5.598e-06	425.14	143.01	124.2	42.912	5.6058e-06	53.083	243.925	325.181	321.408	165.685	278.393	281.917	165.541	170.582	319.274	350.687	170.016	174.124	174.725	179.091	304.851	178.608	-8191	255	
2819.466	1	1	0	0	0.060251	0.19748	0.15201	0.26785	0.21324	0.15678	0.29836	0.42387	0.14388	0.13721	0.13197	0.14197	0.16565	0.040769	0.12617	0.34891	-3.15	-2.8729	-2.7083	-3.7188	-2.6562	-3.0354	-3.6271	-2.7792	-3.4896	-2.8875	-2.7958	-3.5667	-2.7542	-3.0542	-3.4979	-2.7917	349.436	438.161	484.088	466.171	199.030	316.017	475.487	468.503	475.115	167.209	422.680	505.973	447.029	189.245	392.917	420.619	0.00046044	0.00028603	8.5129e-05	1365	5.721e-06	4.0281e-06	1359.6	366.16	4.6252e-06	3.9589e-06	420.47	139.9	122.35	41.706	6.9604e-06	51.938	0.00051748	0.00051024	0.00014281	1377.6	5.5693e-06	5.6084e-06	1376.6	372.85	5.6239e-06	5.6594e-06	426.03	142.74	124.3	42.93	5.6463e-06	53.107	240.188	179.779	368.007	165.666	236.096	247.510	165.640	170.546	268.938	386.790	170.061	174.065	175.037	179.235	295.413	178.673	-8191	255	
2819.562	1	1	0	0	0.09304	0.054415	0.18396	0.081858	0.15023	0.25155	0.21649	0.1116	0.066231	0.064178	0.21405	0.36581	0.14747	0.14062	0.22007	0.11783	-3.0479	-3.1854	-2.6917	-3.6833	-2.7542	-2.7542	-3.5542	-2.7771	-3.2333	-3.1646	-2.7667	-3.5687	-3.0292	-2.9167	-3.3917	-2.7958	413.955	353.434	511.255	502.530	160.364	469.021	415.842	443.773	187.797	318.100	152.596	506.645	507.204	218.231	168.901	406.545	0.0004826	0.00060141	0.00021687	1359.2	6.6358e-06	1.3781e-06	1355.4	368.93	3.6537e-06	2.6727e-06	419	140.31	121.01	41.679	2.4349e-06	51.817	0.0005206	0.00051514	0.00014497	1375.9	5.7249e-06	5.6738e-06	1373.7	373.16	5.7287e-06	5.7137e-06	426.12	143.06	123.92	42.84	5.7887e-06	53.078	241.817	212.598	244.904	165.731	339.189	435.675	165.556	170.400	313.271	238.009	170.041	174.325	175.000	179.154	170.809	178.723	-8191	255	
2819.658	1	1	0	0	0.30113	0.0042087	0.17671	0.2381	0.10887	0.15403	0.12669	0.23187	0.077154	0.087775	0.26869	0.078398	0.20126	0.10967	0.13806	0.16274	-2.8438	-3.075	-2.7479	-3.6979	-2.9938	-2.7979	-3.575	-2.8896	-3.2292	-3.1521	-2.6688	-3.4354	-3.0833	-2.825	-3.5	-2.8875	158.067	321.096	437.801	475.109	457.112	186.662	476.556	181.171	497.083	367.691	396.513	473.510	485.351	429.704	369.495	191.879	0.00060179	0.00039792	0.00014465	1359.5	5.3246e-06	7.06e-06	1357.9	367.69	4.5173e-06	5.3713e-06	420.89	140.89	122.22	42.002	3.308e-06	51.672	0.0005311	0.00052717	0.00014736	1376.4	5.7955e-06	5.8197e-06	1374.4	373.67	5.8034e-06	5.7814e-06	426.53	143.23	124.29	42.903	5.828e-06	53.034	245.374	269.899	218.268	165.935	320.132	317.439	165.860	170.573	321.879	320.937	170.251	174.267	174.940	179.429	220.756	178.698	-8191	255	
2819.779	1	1	0	0	0.034293	0.12822	0.1974	0.15526	0.21816	0.12954	0.29218	0.21133	0.23366	0.13107	0.18397	0.38507	0.29982	0.13915	0.27854	0.23955	-2.8979	-3.2687	-2.5792	-3.4437	-3.0917	-2.6604	-3.7771	-2.9792	-3.1333	-3.3688	-2.8146	-3.3042	-3.1958	-2.9354	-3.4021	-3.0479	489.660	363.668	300.252	462.489	446.686	200.561	492.426	309.518	287.319	241.488	430.506	439.430	509.935	509.892	157.030	430.159	0.00046108	0.00052193	0.00016651	1359.3	4.9105e-06	5.3292e-06	1360.9	367.47	4.4452e-06	3.2578e-06	421.51	139.56	121.87	41.954	1.9721e-06	51.743	0.00053381	0.00052823	0.00014798	1374	5.814e-06	5.7776e-06	1375.7	373.33	5.8294e-06	5.7926e-06	426.72	143.04	124.05	42.936	5.8197e-06	53.07	246.566	268.942	272.796	165.825	290.369	302.692	165.788	170.880	258.484	368.212	169.895	174.559	175.218	179.395	262.462	178.890	-8191	255	
2819.850	1	1	0	0	0.076579	0.094009	0.1213	0.17525	0.0973	0.44297	0.074947	0.17821	0.18989	0.30201	0.26866	0.2862	0.17867	0.18038	0.15702	0.12748	-2.6	-3.3396	-2.6021	-3.3854	-3.2792	-2.6646	-3.6917	-2.9625	-2.6896	-3.6208	-2.6229	-3.2708	-3.2521	-2.7812	-3.2188	-3.0187	286.181	235.991	265.869	415.937	461.105	418.682	246.761	458.320	281.030	196.802	477.468	154.815	465.423	390.604	272.945	446.680	0.00045063	0.00055526	9.1112e-05	1356.6	3.8876e-06	4.3755e-06	1355.2	366.02	2.6767e-06	6.191e-06	421.24	140.18	121.98	41.685	1.1388e-06	51.859	0.00053428	0.00053252	0.00014785	1373.6	5.8056e-06	5.8217e-06	1373.8	373.03	5.8524e-06	5.8341e-06	427.31	143.07	124.39	42.807	5.8561e-06	53.032	239.104	249.735	269.410	166.079	319.648	256.167	165.945	170.589	303.332	305.927	170.156	174.612	175.158	179.576	341.111	178.783	-8191	255	
2819.947	1	1	0	0	0.16124	0.15941	0.030459	0.28473	0.43575	0.12975	0.18268	0.39268	0.13909	0.34826	0.082537	0.097371	0.21734	0.18318	0.12124	0.22815	-2.3063	-3.3729	-2.5938	-3.3833	-3.2479	-2.7313	-3.5896	-3.1646	-2.7875	-3.5146	-2.8	-3.225	-3.3187	-2.3812	-3.525	-3.0771	289.387	475.700	392.081	495.119	411.101	317.057	302.363	443.899	473.278	328.724	464.588	274.265	156.356	168.921	210.126	401.155	0.00058931	0.00028468	0.00019108	1359.6	1.2199e-05	4.0676e-06	1358.4	366.41	6.0796e-06	3.732e-06	421.89	140.25	121.4	41.724	1.3125e-06	51.88	0.00053799	0.0005382	0.00015	1375.5	5.855e-06	5.9026e-06	1372.7	373.49	5.8811e-06	5.8683e-06	426.95	142.8	124.08	42.862	5.8941e-06	53.031	248.117	379.548	263.440	166.274	330.609	238.950	166.082	171.171	314.840	263.993	170.368	174.712	175.211	179.963	204.769	179.673	-8191	255	
2820.043	1	1	0	0	0.32257	0.11792	0.2792	0.2343	0.36478	0.23857	0.41824	0.25165	0.22245	0.13024	0.058083	0.12953	0.17328	0.25221	0.3489	0.17372	-2.3833	-3.6042	-2.7708	-3.1646	-3.4292	-2.6104	-3.4708	-3.4875	-2.6896	-3.6333	-3.1188	-3.2333	-3.5271	-2.6333	-3.2438	-3.3958	222.524	365.314	361.529	486.725	410.921	180.338	441.570	395.450	193.620	312.444	461.337	370.393	352.876	331.239	157.596	387.973	0.00056619	0.00028315	6.6402e-05	1359.6	5.8756e-06	6.1017e-06	1355.6	366.69	5.8106e-06	7.1085e-06	419.72	140.25	122.09	41.735	2.3562e-06	51.609	0.000545	0.00053657	0.00014789	1373.4	5.886e-06	5.9021e-06	1373.1	372.93	5.9175e-06	5.9222e-06	426.41	142.79	124.23	42.812	5.8685e-06	53.048	247.767	297.434	158.751	166.459	298.870	394.498	165.515	170.366	248.529	313.939	169.756	174.452	174.832	179.359	328.641	178.534	-8191	255	
2820.163	1	1	0	0	0.23626	0.04958	0.1028	0.10047	0.12013	0.22117	0.15541	0.31842	0.1537	0.26464	0.042091	0.057783	0.21694	0.38291	0.10125	0.079174	-2.2625	-3.4646	-2.8042	-3.1604	-3.5042	-2.7771	-3.5	-3.4021	-2.6729	-3.5042	-3.1188	-2.9688	-3.6667	-2.9062	-3.0479	-3.3937	389.889	492.430	501.157	168.349	354.635	269.037	469.433	467.135	241.859	296.413	461.679	466.153	482.165	170.098	467.712	478.584	0.00052459	0.00067277	0.0001577	1360.7	3.8168e-06	5.4341e-06	1353.6	365.89	6.0185e-06	1.0526e-05	421.8	139.87	122	41.732	1.4998e-06	51.761	0.00054164	0.00054193	0.00015072	1375.1	5.948e-06	5.926e-06	1370.7	372.97	5.8891e-06	5.901e-06	426.42	142.8	124.2	42.819	5.936e-06	53.039	248.297	216.713	217.962	165.984	303.216	305.524	166.030	170.812	238.477	333.960	169.976	174.718	175.395	179.709	194.692	178.812	-8191	255	
2820.259	1	1	0	0	0.17389	0.085432	0.092815	0.23195	0.086111	0.27344	0.29217	0.17918	0.18714	0.09004	0.40259	0.22871	0.11444	0.16612	0.16511	0.27449	-2.125	-3.4333	-3.0125	-3.0354	-3.5646	-2.5979	-3.2146	-3.4292	-2.775	-3.4188	-3.1813	-2.8146	-3.5458	-2.7938	-3.0812	-3.5229	327.885	481.908	501.120	427.032	263.282	263.162	427.668	234.545	372.738	235.986	483.741	501.166	458.863	217.381	298.098	406.290	0.00049918	0.0001437	5.0154e-05	1356.2	2.7089e-06	3.1113e-06	1358	366.1	3.4148e-06	6.8641e-06	420.73	139.82	121.89	41.846	6.7369e-06	51.759	0.00054099	0.00054071	0.00014983	1374.3	5.9126e-06	5.8848e-06	1372.9	373.2	5.9034e-06	5.8946e-06	426.14	142.92	124.23	42.826	5.9069e-06	53.055	251.915	233.340	198.741	166.350	302.627	328.736	166.203	170.882	266.119	238.983	169.907	174.803	175.241	179.796	232.716	178.989	-8191	255	
2820.356	1	1	0	0	0.11876	0.17389	0.31335	0.081776	0.15387	0.26992	0.2178	0.056699	0.21624	0.076304	0.10062	0.091457	0.061976	0.11356	0.089858	0.099367	-2.2562	-3.2771	-3.2104	-2.7812	-3.3083	-2.725	-3.1958	-3.6437	-2.5896	-3.375	-3.4021	-2.7771	-3.5979	-2.9958	-2.9125	-3.575	167.022	414.588	233.288	469.551	153.940	192.759	248.763	458.989	362.776	345.209	275.364	404.514	476.175	327.920	222.482	492.494	0.00048747	0.00046884	0.00015322	1358.7	5.9038e-06	4.0272e-06	1355.7	367.57	4.6699e-06	8.6578e-06	417.84	140.27	121.33	41.748	2.7908e-06	51.689	0.00054664	0.00054239	0.0001502	1372.2	5.9422e-06	5.9655e-06	1371	373.41	5.9204e-06	5.9926e-06	425.44	143.1	124.01	42.813	6.0017e-06	53.035	242.133	293.449	243.572	166.237	324.489	308.523	166.425	170.722	332.895	344.059	169.796	174.218	174.693	178.885	277.131	178.108	-8191	255	
2820.452	1	1	0	0	0.21762	0.19034	0.10969	0.22438	0.14656	0.201	0.22554	0.12086	0.12743	0.11701	0.29688	0.27364	0.18628	0.28451	0.11068	0.17294	-2.3333	-3.0208	-3.1583	-2.6625	-3.4521	-2.9271	-2.9833	-3.6875	-2.6854	-3.0896	-3.4667	-2.8354	-3.4458	-2.9167	-2.7188	-3.3688	266.416	421.391	363.016	486.508	300.316	235.196	426.156	440.571	399.144	432.628	368.301	476.785	496.337	488.618	158.100	476.487	0.00045282	0.00020465	9.0512e-05	1355.1	1.3934e-06	6.7602e-06	1350.3	365.69	3.803e-06	5.6844e-06	418.15	139.87	121.58	41.589	5.1455e-06	51.582	0.00055522	0.00054956	0.00015326	1373.6	6.0907e-06	6.0702e-06	1370.1	372.92	6.0243e-06	6.0798e-06	425.76	142.58	124.01	42.803	6.0267e-06	52.978	251.782	447.082	248.284	165.549	172.385	254.712	165.581	170.285	251.347	343.135	169.507	174.145	174.519	178.984	314.382	178.140	-8191	255	
2820.546	1	1	0	0	0.10007	0.2644	0.12575	0.34351	0.15181	0.041286	0.14155	0.15835	0.059098	0.15605	0.075909	0.10875	0.22842	0.055225	0.16455	0.092108	-2.3875	-2.95	-3.3229	-2.6625	-3.3854	-3.0625	-2.9042	-3.7271	-2.7438	-2.7792	-3.6188	-2.7625	-3.2271	-3.1521	-2.6042	-3.7583	153.176	192.798	419.383	496.099	475.644	418.617	488.763	451.535	304.799	278.766	370.213	219.708	410.694	157.219	286.913	232.073	0.00053887	0.00031564	0.00010063	1351	9.5341e-06	7.5427e-06	1353.5	366.52	1.0085e-05	2.6887e-06	418.61	139.26	121.27	41.595	3.8969e-06	51.806	0.00055304	0.00054729	0.0001529	1372.7	5.9892e-06	5.999e-06	1370	372.97	6.0103e-06	6.0071e-06	425.62	142.58	123.9	42.778	5.9556e-06	53.066	251.083	186.355	326.784	165.582	314.130	326.658	165.151	170.103	278.903	355.724	169.330	174.015	174.510	178.709	358.900	178.075	-8191	255	
2820.644	1	1	0	0	0.18156	0.11727	0.11776	0.45589	0.095115	0.0943	0.061042	0.093499	0.33682	0.13386	0.20851	0.1295	0.39246	0.0982	0.18913	0.076725	-2.5458	-2.8125	-3.1833	-2.8187	-3.1063	-3.175	-2.8917	-3.5292	-2.7417	-2.7958	-3.5312	-2.9	-3.2583	-3.3396	-2.5479	-3.3958	200.706	244.175	374.387	487.135	414.457	471.149	455.690	466.275	345.914	163.842	388.444	213.689	156.755	434.999	325.645	189.151	0.00052713	0.00060355	0.00025666	1354.1	8.0891e-06	9.3701e-06	1349.8	366.99	6.2238e-06	7.3797e-06	417.31	139.36	121.47	41.736	6.4252e-06	51.888	0.00054814	0.0005401	0.00015105	1371.3	5.948e-06	5.8624e-06	1370.8	373.25	5.861e-06	5.8601e-06	425.3	142.37	123.82	42.812	5.791e-06	53.072	245.767	245.337	266.051	165.182	270.517	315.160	165.376	169.988	305.333	304.217	169.337	173.594	174.352	178.777	346.019	178.150	-8191	255	
2820.763	1	1	0	0	0.1021	0.14083	0.089895	0.35176	0.24361	0.19878	0.14481	0.10069	0.069577	0.19004	0.035787	0.15628	0.21357	0.37715	0.19394	0.2747	-2.4917	-2.5938	-3.4313	-2.7188	-3.0854	-3.3792	-2.7583	-3.4771	-3.0375	-2.8312	-3.6	-3.0375	-3.1979	-3.4396	-2.6604	-3.2521	335.293	183.858	275.494	493.615	292.208	166.793	152.695	270.663	506.508	349.460	181.237	508.116	492.803	448.153	308.369	175.754	0.00053683	0.00044732	0.00025675	1355.1	2.9064e-06	2.2769e-06	1353.2	366.95	5.1558e-06	9.5426e-06	419.25	139.46	121.51	41.715	4.4809e-06	51.643	0.00053101	0.00052748	0.00014629	1371.5	5.8608e-06	5.7874e-06	1370.1	373.48	5.8314e-06	5.8181e-06	425.45	142.64	123.98	42.832	5.8482e-06	53.011	248.563	299.260	218.477	165.441	450.149	315.865	165.304	170.123	275.483	244.546	169.701	173.928	174.586	178.598	247.527	178.202	-8191	255	
2820.859	1	1	0	0	0.3084	0.17216	0.050771	0.33792	0.016798	0.14435	0.11283	0.089252	0.097585	0.3103	0.1333	0.073929	0.127	0.21627	0.20735	0.34401	-2.825	-2.5104	-3.5312	-3.125	-2.8875	-3.3312	-2.7729	-3.5125	-3.1437	-2.6063	-3.5833	-3.0583	-3.0563	-3.5521	-2.8937	-3.2792	429.870	186.583	325.826	440.480	236.387	454.701	437.617	468.540	487.507	472.049	322.904	170.263	408.475	384.873	167.525	155.988	0.000557	0.00062	0.00012455	1359.5	4.6381e-06	4.1538e-06	1353.2	365.49	9.0757e-06	7.4562e-06	420.45	139.54	121.94	41.609	8.241e-06	51.799	0.00053521	0.00053847	0.00014832	1371.7	5.8413e-06	5.7759e-06	1371	372.82	5.7428e-06	5.7248e-06	425.85	142.44	123.98	42.767	5.6744e-06	52.964	253.082	286.984	295.965	165.210	315.004	256.430	165.182	170.013	249.750	236.134	169.476	173.809	174.350	178.909	295.178	178.133	-8191	255	
2820.955	1	1	0	0	0.20307	0.12012	0.38796	0.38131	0.18967	0.074014	0.44191	0.28302	0.070492	0.26028	0.094326	0.10679	0.14955	0.22611	0.36386	0.17482	-2.8354	-2.6104	-3.4688	-3.05	-2.9042	-3.4813	-2.8688	-3.4375	-3.3042	-2.4208	-3.5229	-2.9479	-2.8875	-3.6333	-2.7271	-3.1958	424.618	453.161	316.354	470.301	447.770	494.265	464.812	429.951	378.720	391.833	483.012	226.805	482.533	453.738	266.290	470.615	0.00043844	0.00075186	0.00016729	1353.1	7.3022e-06	5.21e-06	1357.2	367.71	1.3854e-06	8.1026e-06	421.58	139.94	121.65	41.791	2.9464e-06	51.702	0.0005149	0.00050916	0.00014144	1369.2	5.5567e-06	5.5355e-06	1371.3	373.07	5.4553e-06	5.4585e-06	425.21	142.44	123.93	42.74	5.4694e-06	52.968	248.735	250.472	194.664	165.359	291.563	274.021	165.163	170.155	227.952	219.726	169.477	173.545	174.410	178.708	333.379	178.458	-8191	255	
2821.076	1	1	0	0	0.079336	0.046104	0.10905	0.22875	0.1138	0.19	0.45469	0.24568	0.11821	0.22773	0.16392	0.38249	0.38614	0.20484	0.30847	0.063971	-3.0729	-2.6083	-3.5542	-3.1729	-2.5771	-3.5375	-2.8979	-3.2313	-3.3792	-2.4958	-3.4896	-3.0563	-2.7333	-3.675	-2.7604	-3.2167	483.360	275.033	176.050	504.183	279.028	510.937	462.141	481.824	155.431	465.668	469.560	475.030	473.254	230.557	231.075	259.528	0.00051258	0.00028294	2.893e-05	1357.8	6.592e-06	2.5309e-06	1353.1	367.39	4.5268e-06	6.4276e-06	417.8	140.55	121.94	41.752	3.2688e-06	51.969	0.00050383	0.00049613	0.00013866	1371.4	5.4447e-06	5.4799e-06	1370.3	372.81	5.4256e-06	5.455e-06	424.14	142.58	123.92	42.798	5.4287e-06	52.932	246.913	201.612	165.060	165.291	282.643	415.936	164.989	170.164	297.316	245.991	169.242	173.586	174.535	178.608	360.488	178.222	-8191	255	
2821.148	1	1	0	0	0.09535	0.25307	0.18037	0.23003	0.21438	0.16316	0.097169	0.14335	0.11621	0.1278	0.093326	0.15487	0.20251	0.34144	0.34306	0.04045	-2.9875	-2.5417	-3.1667	-3.1604	-2.5771	-3.2854	-3.2396	-2.9313	-3.2729	-2.6312	-3.2188	-3.3688	-2.7292	-3.5104	-2.8458	-2.8479	499.497	273.903	448.088	171.961	261.459	331.266	419.315	258.529	223.305	509.952	357.222	470.202	392.424	453.501	317.466	237.115	0.00053583	0.00017308	0.00025482	1356.7	3.8897e-06	1.7606e-06	1356.8	366.74	6.4438e-06	1.7663e-06	418.38	140.13	121.63	41.731	3.9862e-06	51.899	0.00049543	0.00049683	0.00013889	1371.7	5.451e-06	5.432e-06	1371.8	372.3	5.5004e-06	5.5307e-06	424.43	142.63	124.01	42.804	5.5687e-06	53.014	243.186	169.878	228.487	165.241	315.879	408.698	164.983	170.127	311.915	269.409	169.445	173.680	174.325	178.743	225.269	178.170	-8191	255	
2821.244	1	1	0	0	0.12272	0.21356	0.2496	0.1395	0.26523	0.25214	0.20401	0.28928	0.037519	0.20608	0.21205	0.31732	0.34104	0.23536	0.17473	0.33416	-2.9938	-2.6688	-3.1583	-3.375	-2.5	-3.3438	-3.1292	-2.925	-3.3042	-2.6583	-3.1875	-3.5438	-2.8063	-3.4729	-3.1146	-2.7812	157.230	450.414	214.492	366.847	298.545	265.948	422.180	423.699	202.427	206.981	282.588	426.764	175.331	501.261	306.703	484.992	0.00047977	0.00052689	0.00017223	1353.6	8.067e-06	4.5797e-06	1355.8	366.46	4.1877e-06	4.513e-06	417.17	140.14	121.96	41.78	3.4713e-06	51.865	0.00050632	0.00050879	0.0001421	1372.1	5.5484e-06	5.6187e-06	1372.5	373.08	5.5319e-06	5.5781e-06	424.12	142.55	124.09	42.805	5.5471e-06	53.006	250.796	220.733	231.376	165.258	325.761	315.837	165.018	169.998	294.442	340.860	169.197	173.389	174.487	178.874	319.071	178.255	-8191	255	
2821.340	1	1	0	0	0.092499	0.14873	0.040567	0.141	0.10304	0.1228	0.29119	0.17511	0.0775	0.14218	0.030733	0.04922	0.10738	0.1712	0.067966	0.26807	-2.9813	-2.725	-2.8458	-3.4479	-2.5229	-3.3125	-3.2458	-2.8979	-3.5354	-2.7479	-3.0354	-3.5896	-2.8208	-3.2083	-3.1813	-2.5958	451.725	424.335	404.747	496.892	424.067	321.873	383.859	465.374	407.515	368.023	431.915	429.184	489.610	482.545	234.712	442.890	0.00053949	0.00049132	0.00011024	1360.4	1.0279e-05	4.1177e-06	1356.8	366.38	7.108e-06	7.5009e-06	418.61	140.09	121.31	41.795	4.6915e-06	52.006	0.00051296	0.00050173	0.00014191	1373.2	5.4847e-06	5.5354e-06	1372.2	372.35	5.4659e-06	5.4444e-06	423.94	142.61	123.86	42.777	5.4639e-06	53.007	253.065	228.774	278.423	165.156	306.635	373.914	165.045	169.855	327.444	326.666	169.660	173.690	174.311	178.407	311.338	177.846	-8191	255	
2821.459	1	1	0	0	0.12942	0.1932	0.063467	0.10852	0.1033	0.087212	0.4583	0.087951	0.13697	0.22161	0.18687	0.30197	0.19604	0.14724	0.1015	0.31026	-2.9833	-2.8604	-2.825	-3.4813	-2.6104	-3.1854	-3.4396	-2.7625	-3.5	-2.9146	-2.9333	-3.525	-2.7375	-3.0958	-3.4104	-2.6437	159.759	388.465	378.000	427.411	242.005	339.400	485.194	511.178	464.090	482.563	451.508	413.802	180.770	176.969	301.918	491.143	0.00056912	0.0003008	0.00012108	1358.8	4.6987e-06	2.3607e-06	1359.4	367.34	6.0548e-06	1.7751e-06	421.11	140.15	121.88	41.706	2.341e-06	51.854	0.00050186	0.00050471	0.00013897	1374.3	5.5171e-06	5.4796e-06	1371.7	372.1	5.5276e-06	5.5223e-06	425.12	142.61	123.6	42.796	5.5115e-06	52.948	251.493	459.384	305.723	165.103	342.819	199.404	165.055	169.713	312.449	230.634	169.402	173.409	174.299	178.516	311.774	178.000	-8191	255	
2821.555	1	1	0	0	0.34137	0.21875	0.18562	0.21106	0.31409	0.16545	0.1921	0.13235	0.24244	0.11737	0.18619	0.039598	0.1892	0.29782	0.11963	0.16768	-2.8792	-2.9229	-2.8688	-3.5958	-2.6333	-3.0021	-3.5104	-2.85	-3.4813	-2.7979	-2.6104	-3.5729	-2.8729	-2.9479	-3.3521	-2.6292	176.331	485.924	311.554	482.162	441.823	228.708	477.270	439.496	364.792	306.797	442.012	343.076	164.327	487.184	230.985	474.068	0.00052086	0.00036816	0.00014879	1365	1.0224e-05	3.6454e-06	1348.7	365.93	1.0639e-05	5.6006e-06	420.91	139.39	121.7	41.768	4.5385e-06	51.865	0.00050876	0.00050297	0.00013926	1374	5.5304e-06	5.4803e-06	1369.1	372.38	5.5354e-06	5.4949e-06	425.5	142.37	123.76	42.734	5.5218e-06	52.948	238.869	198.407	185.301	165.282	313.509	281.123	165.085	170.172	329.111	292.209	169.418	173.832	174.419	178.558	240.752	177.933	-8191	255	
2821.651	1	1	0	0	0.10239	0.038345	0.068228	0.086386	0.19904	0.087217	0.11693	0.1113	0.066615	0.060072	0.27352	0.13326	0.15935	0.22972	0.22909	0.042533	-2.9604	-3.125	-2.8729	-3.6375	-2.8271	-2.9271	-3.5563	-2.8875	-3.1375	-3.0875	-2.7562	-3.4562	-2.9729	-2.8812	-3.4021	-2.9104	369.521	507.869	477.833	504.608	191.103	352.554	491.514	200.570	291.129	315.575	468.386	470.835	454.140	452.675	420.989	502.762	0.00057195	0.00059663	0.00010299	1361	6.0065e-06	7.2812e-06	1353.8	366.1	4.6021e-06	3.6741e-06	420.16	139.72	121.66	41.672	6.9349e-06	51.658	0.00051493	0.00050587	0.00014138	1373	5.5438e-06	5.5708e-06	1372.1	372.11	5.5931e-06	5.5441e-06	425.13	142.55	123.92	42.675	5.6015e-06	52.885	248.802	274.169	264.199	165.191	398.755	287.331	165.111	169.950	209.620	272.112	169.429	173.569	174.344	178.860	275.697	177.691	-8191	255	
2821.724	1	1	0	0	0.11455	0.025319	0.40415	0.18604	0.18691	0.063947	0.28584	0.19303	0.080239	0.20989	0.0824	0.22039	0.15594	0.16356	0.13461	0.2164	-2.8333	-3.2333	-2.6021	-3.5938	-2.95	-2.8542	-3.6625	-2.8396	-3.2292	-3.2021	-2.5396	-3.4146	-3.1625	-2.7083	-3.5292	-2.8688	157.037	268.700	486.227	158.490	502.447	442.405	501.492	418.843	320.231	305.549	357.615	174.041	165.281	256.166	490.692	466.549	0.00050842	2.257e-05	0.00017642	1359.4	9.769e-06	3.63e-06	1354.6	365.51	4.7508e-06	3.9245e-06	418.03	140.33	121.88	41.938	2.7348e-06	51.689	0.00050957	0.00050745	0.00014133	1372.5	5.5341e-06	5.5087e-06	1371.1	372.19	5.4666e-06	5.4422e-06	423.54	142.74	124.02	42.834	5.4617e-06	52.782	245.785	473.348	237.085	165.104	272.178	193.882	164.906	169.866	280.710	398.791	169.308	173.677	174.190	178.453	291.184	177.901	-8191	255	
2821.843	1	1	0	0	0.25057	0.10276	0.28029	0.45403	0.14222	0.17329	0.14996	0.28422	0.148	0.16457	0.061925	0.32278	0.34058	0.17068	0.12105	0.21473	-2.7979	-3.3604	-2.6312	-3.3583	-3.2979	-2.7292	-3.5792	-2.8271	-3.0417	-3.5896	-2.7854	-3.4021	-3.2875	-2.6542	-3.4396	-3.0417	197.011	308.069	369.826	483.170	363.145	348.440	466.235	462.549	285.480	202.380	492.128	364.066	488.315	509.342	325.053	384.274	0.00053173	0.00072854	0.00029202	1362.2	7.871e-06	5.6847e-06	1357.7	367.03	8.5416e-06	3.8878e-06	417.33	140.27	122.41	41.756	4.8537e-06	51.739	0.00049644	0.00049079	0.00013718	1374.2	5.3796e-06	5.3696e-06	1374.1	372.63	5.2915e-06	5.4003e-06	424.07	142.68	123.9	42.76	5.4569e-06	52.851	249.123	185.103	229.517	165.218	325.772	233.426	165.059	169.881	271.372	286.925	169.261	173.668	174.057	178.443	324.361	178.011	-8191	255	
2821.939	1	1	0	0	0.070772	0.0065292	0.25868	0.20872	0.28802	0.14366	0.36194	0.16383	0.082239	0.1327	0.12043	0.20974	0.24444	0.167	0.27264	0.14123	-2.6125	-3.3333	-2.6542	-3.3438	-3.175	-2.7188	-3.7146	-2.9292	-2.8958	-3.5208	-2.75	-3.3229	-3.1771	-2.6063	-3.5667	-3.0771	402.600	168.599	156.119	476.861	205.754	436.589	452.478	179.970	337.447	369.552	284.289	163.095	492.232	492.016	254.091	474.158	0.00052139	0.00067685	0.00030384	1360.5	3.6323e-06	8.2711e-06	1355.8	367.31	8.0199e-06	4.4645e-06	419.64	140.48	121.74	41.832	4.1884e-06	51.636	0.00049569	0.0004933	0.00013733	1373.4	5.4442e-06	5.446e-06	1371.9	372.38	5.4082e-06	5.439e-06	424.53	142.55	123.87	42.774	5.456e-06	52.823	250.706	203.405	248.493	165.195	325.917	300.311	164.947	169.805	227.642	345.559	169.044	173.552	174.209	178.948	254.397	178.056	-8191	255	
2822.036	1	1	0	0	0.24353	0.13448	0.15575	0.39868	0.29719	0.13911	0.24904	0.071365	0.22496	0.15514	0.1746	0.082943	0.33509	0.15627	0.19299	0.17595	-2.3542	-3.4021	-2.5833	-3.2042	-3.2979	-2.8208	-3.4813	-3.2021	-2.5729	-3.5521	-2.5458	-3.1021	-3.5021	-2.8146	-3.3312	-3.2479	241.604	500.212	440.788	153.217	415.433	347.814	464.538	296.312	461.916	165.178	244.789	189.219	172.237	214.952	291.992	468.401	0.00045768	0.00040594	0.00016046	1356.6	3.3223e-06	7.9259e-06	1360.9	365.94	6.5153e-06	4.0957e-06	420.64	139.95	121.85	41.782	6.6113e-07	51.752	0.00049937	0.00049794	0.00013857	1373.1	5.4333e-06	5.4115e-06	1373.9	371.31	5.4021e-06	5.427e-06	424.96	142.62	123.9	42.711	5.4918e-06	52.902	243.781	234.510	206.210	165.318	297.140	300.513	165.186	169.789	251.067	193.828	169.211	173.599	174.019	178.846	269.489	177.969	-8191	255	
2822.156	1	1	0	0	0.26899	0.12285	0.21426	0.16186	0.19715	0.086784	0.28725	0.10544	0.18337	0.042102	0.23471	0.22194	0.13985	0.35465	0.18685	0.14913	-2.1896	-3.5729	-2.8021	-3.2042	-3.5333	-2.6917	-3.5938	-3.3229	-2.6292	-3.5354	-2.9146	-3.1604	-3.4917	-2.7188	-3.1958	-3.425	352.237	257.205	463.333	491.046	491.767	397.807	469.188	202.744	326.352	159.292	475.604	504.409	226.273	381.180	273.996	488.196	0.00054537	0.00038318	0.00017762	1360.7	4.7711e-06	8.3265e-06	1358.1	366.15	3.2456e-06	6.7231e-06	419.41	140.27	121.89	41.786	3.3557e-06	51.732	0.0004996	0.00049511	0.00013855	1372.3	5.3992e-06	5.4049e-06	1372.4	371.61	5.3708e-06	5.4203e-06	423.59	142.39	123.72	42.74	5.3312e-06	52.851	245.439	260.042	238.577	165.402	302.282	311.848	165.098	169.886	288.592	378.926	169.374	173.663	174.342	178.550	222.974	178.240	-8191	255	
2822.252	1	1	0	0	0.41134	0.058152	0.10732	0.19948	0.27345	0.1123	0.15402	0.23673	0.1085	0.21095	0.26467	0.14649	0.21226	0.18741	0.2842	0.21315	-2.2417	-3.5604	-2.8438	-3.0542	-3.5104	-2.6604	-3.3958	-3.4188	-2.6021	-3.4083	-3.2125	-2.8792	-3.6937	-2.8604	-3.1	-3.4313	461.052	452.311	482.511	444.494	172.176	202.331	380.654	154.120	194.135	230.602	343.062	214.440	206.248	415.872	313.856	410.262	0.00049165	0.0004035	0.00019573	1359.5	3.3065e-06	3.1622e-06	1359.1	366.47	8.6766e-06	4.2983e-06	419.76	139.83	122.05	41.811	4.5272e-06	51.919	0.00049473	0.00049503	0.00013774	1372.1	5.4282e-06	5.4121e-06	1371.8	372.35	5.4479e-06	5.4063e-06	424.45	142.74	124.04	42.8	5.395e-06	52.987	253.618	235.819	275.401	165.270	260.927	374.567	165.269	169.894	294.025	309.885	169.175	173.666	174.220	178.489	280.063	178.072	-8191	255	
2822.347	1	1	0	0	0.023414	0.2019	0.11578	0.16216	0.21326	0.26275	0.25717	0.088077	0.078666	0.18014	0.17357	0.2773	0.11524	0.1006	0.17592	0.09552	-2.1542	-3.2229	-3.1063	-2.9313	-3.5167	-2.6521	-3.2167	-3.5563	-2.7396	-3.3417	-3.1896	-2.7208	-3.6125	-2.8958	-2.9896	-3.5521	272.392	398.237	238.167	166.613	268.377	475.772	430.970	407.632	486.005	422.676	158.267	485.078	414.456	426.132	269.087	372.135	0.00053522	0.00061923	7.1933e-05	1360.3	7.2397e-06	7.4482e-06	1361.7	366.54	1.3236e-05	6.9301e-06	419.66	139.78	121.85	41.79	6.0763e-06	51.726	0.00050249	0.00049408	0.00013824	1374.3	5.3613e-06	5.4081e-06	1374.3	372.73	5.4344e-06	5.4094e-06	423.97	142.4	123.9	42.765	5.447e-06	52.959	252.704	245.442	249.138	165.300	339.754	303.708	165.054	169.822	297.183	309.694	169.420	173.492	174.533	178.280	307.119	178.021	-8191	255	
2822.445	1	1	0	0	0.17099	0.095655	0.011244	0.29494	0.043161	0.15816	0.27665	0.081319	0.28524	0.25672	0.084721	0.26508	0.023548	0.15953	0.018246	0.16624	-2.1771	-3.2938	-2.9938	-2.85	-3.5687	-2.825	-3.2167	-3.575	-2.6354	-3.1937	-3.2875	-2.7812	-3.5438	-2.9979	-2.7333	-3.6104	411.452	302.851	394.265	503.684	168.870	481.572	485.425	502.678	299.458	222.525	506.406	469.630	466.059	402.237	361.600	498.653	0.00047255	0.00011951	0.0001896	1363.8	6.5739e-06	3.2412e-06	1358.1	367.88	4.6324e-06	4.2795e-06	421.82	139.65	122.38	41.883	5.3786e-06	51.92	0.00050345	0.00050173	0.00013937	1376	5.5181e-06	5.4944e-06	1373.1	372.3	5.4644e-06	5.4386e-06	425.33	142.78	124.16	42.8	5.3728e-06	52.916	237.534	320.151	182.176	165.266	313.350	411.524	164.970	169.759	259.397	422.607	169.205	173.885	174.285	178.678	294.974	177.767	-8191	255	
2822.539	1	1	0	0	0.041648	0.093755	0.14486	0.20768	0.13102	0.13015	0.38025	0.16463	0.052635	0.097184	0.21059	0.17523	0.17801	0.20417	0.16087	0.22088	-2.2938	-3.2208	-3.2542	-2.6125	-3.7125	-3.0958	-2.9188	-3.6021	-2.6937	-3.0458	-3.475	-2.775	-3.5354	-2.9875	-2.4062	-3.5938	224.661	437.570	350.230	453.422	447.843	468.108	463.035	456.650	462.898	196.461	455.273	211.343	314.251	272.917	197.460	186.807	0.00054686	0.0004355	0.00018388	1364.2	3.9523e-06	3.0693e-06	1363.4	368.38	1.3797e-06	6.9439e-06	420.45	140.24	122.71	41.981	4.459e-06	52.17	0.00049377	0.00049092	0.00013692	1372.9	5.4008e-06	5.3716e-06	1374.7	372.55	5.3682e-06	5.3473e-06	424.96	142.59	124.29	42.864	5.2936e-06	53.045	246.469	206.565	203.749	165.362	306.782	234.345	165.062	169.788	250.300	307.965	169.308	173.286	174.111	178.560	321.575	178.010	-8191	255	
2822.635	1	1	0	0	0.10143	0.29472	0.070766	0.12592	0.083362	0.14052	0.18206	0.23072	0.090286	0.0087797	0.10385	0.31182	0.17206	0.17923	0.28918	0.19569	-2.4313	-3.0396	-3.2833	-2.8208	-3.2729	-3.2083	-2.8833	-3.6146	-2.7146	-2.8979	-3.3417	-2.7208	-3.175	-3.2479	-2.6792	-3.625	342.682	416.722	327.844	421.841	317.683	475.550	478.618	176.446	472.602	285.857	480.083	476.747	487.807	176.121	220.345	464.453	0.0006128	0.00054997	0.00018419	1359.1	6.5561e-06	5.725e-06	1356.7	368.5	6.7744e-06	9.3734e-06	419.29	140.01	122.7	41.788	4.6091e-06	51.903	0.00048638	0.00048449	0.00013437	1371.6	5.2761e-06	5.2902e-06	1372.8	372.72	5.3317e-06	5.3045e-06	424.58	142.42	124.16	42.747	5.3073e-06	52.924	252.151	244.629	202.487	165.221	300.892	300.009	165.248	169.741	331.986	338.198	169.585	173.754	174.505	178.474	232.406	178.159	-8191	255	
2822.756	1	1	0	0	0.072806	0.26161	0.080134	0.065554	0.30321	0.27653	0.303	0.20578	0.22527	0.090123	0.22515	0.21172	0.080292	0.091744	0.1345	0.171	-2.4042	-2.8063	-3.3312	-2.7208	-3.1271	-3.275	-2.6375	-3.5396	-2.7542	-2.8333	-3.5396	-2.7188	-3.1833	-3.4479	-2.6312	-3.4437	461.852	325.078	510.934	499.655	405.551	412.554	402.980	405.028	254.652	460.368	229.886	462.685	174.283	192.129	503.672	319.742	0.00053307	0.00049143	0.00010569	1366.2	1.1167e-05	3.3228e-06	1358	367.67	7.1609e-06	2.1309e-06	419.65	140.34	122.31	42.1	4.747e-06	51.667	0.00049042	0.00048904	0.00013614	1375.2	5.3073e-06	5.302e-06	1372.9	372.38	5.3103e-06	5.2569e-06	423.78	142.56	124.06	42.855	5.2364e-06	52.863	245.862	224.949	221.216	165.299	297.611	251.664	165.148	169.914	268.359	365.670	169.060	173.380	174.391	178.455	334.505	178.112	-8191	255	
2822.852	1	1	0	0	0.098545	0.063245	0.32994	0.13773	0.13412	0.11641	0.26561	0.21694	0.22474	0.20526	0.1792	0.10865	0.21564	0.04311	0.41992	0.13087	-2.5854	-2.6562	-3.4042	-2.8187	-3.0042	-3.3958	-2.9	-3.5187	-3.1521	-2.8458	-3.575	-2.7479	-3.1083	-3.55	-2.6458	-3.4313	232.165	369.348	223.498	488.583	395.609	194.866	446.231	352.329	255.311	449.551	335.262	385.557	272.606	367.827	335.093	189.708	0.00048629	0.00056858	0.00014132	1359.9	9.4114e-06	7.2388e-07	1357.5	366.44	1.5529e-06	4.9978e-06	420.39	140.41	121.93	41.955	8.3547e-06	52.019	0.00047814	0.00047786	0.00013146	1372	5.2176e-06	5.2162e-06	1373	371.61	5.2122e-06	5.1799e-06	424.63	142.34	123.89	42.812	5.2209e-06	52.937	246.547	235.071	218.099	165.279	301.064	294.798	165.124	169.870	248.968	310.301	169.337	173.626	174.355	178.561	290.320	178.209	-8191	255	
2822.948	1	1	0	0	0.16836	0.23328	0.37007	0.24054	0.12898	0.19866	0.12655	0.11544	0.11409	0.10508	0.19465	0.11411	0.20052	0.090273	0.13527	0.0785	-2.8229	-2.6708	-3.2708	-2.9125	-2.9833	-3.4146	-2.6937	-3.5375	-3.25	-2.6771	-3.45	-2.9083	-2.8563	-3.4437	-2.7083	-3.3042	175.594	312.993	251.391	152.793	346.216	399.467	469.420	397.502	166.631	340.109	439.300	328.433	510.636	366.433	373.798	344.623	0.00049041	0.00052776	9.5078e-05	1358.7	1.1255e-05	4.2414e-06	1364.6	366.94	2.6475e-07	5.5025e-06	419.72	140.64	122.49	41.913	5.3214e-06	51.952	0.00048177	0.00047822	0.00013325	1371.7	5.2188e-06	5.2462e-06	1372.6	371.79	5.1711e-06	5.2011e-06	424.26	142.83	124.09	42.846	5.2402e-06	52.914	246.104	289.667	245.480	165.176	311.651	282.232	165.240	169.837	292.635	271.743	169.318	173.471	174.591	178.637	285.601	177.903	-8191	255	
2823.020	1	1	0	0	0.062109	0.020179	0.062568	0.36283	0.30286	0.12463	0.23579	0.051	0.047409	0.10144	0.16641	0.20635	0.091252	0.070207	0.20672	0.24292	-2.8146	-2.5771	-3.3646	-2.8729	-2.65	-3.3542	-2.825	-3.2375	-3.3479	-2.6521	-3.3708	-3.175	-2.6958	-3.6125	-2.9104	-3.1229	477.123	338.360	186.034	465.954	301.890	419.013	418.185	415.708	220.988	221.554	192.113	447.272	369.793	160.380	175.332	464.357	0.00047189	0.0005287	0.00019551	1363.4	3.6021e-06	8.4774e-06	1357.3	367.99	5.0392e-06	5.9397e-06	420.51	140.45	122	41.86	4.2674e-06	52.201	0.00048081	0.00046994	0.00013069	1373.5	5.1592e-06	5.1233e-06	1371.4	371.99	5.1299e-06	5.1792e-06	424.38	142.47	123.95	42.726	5.2529e-06	52.924	244.102	291.772	188.699	165.363	313.543	292.756	165.128	170.091	256.758	349.362	169.164	173.903	174.396	179.013	338.460	178.102	-8191	255	
2823.116	1	1	0	0	0.12951	0.090625	0.1367	0.38677	0.15081	0.087086	0.28204	0.057578	0.26822	0.20889	0.054696	0.10951	0.43366	0.15897	0.11578	0.025458	-2.6896	-2.7042	-3.5667	-3.2167	-2.6271	-3.5021	-2.9521	-3.0667	-3.4792	-2.7208	-3.4625	-3.3875	-2.8	-3.6813	-2.8458	-3.0417	387.941	198.583	246.671	152.721	171.794	316.105	455.987	272.726	247.427	256.983	279.083	380.136	159.121	418.605	437.889	511.188	0.00053877	0.00072493	9.3712e-05	1360.6	3.6128e-06	3.5214e-06	1356.5	366.95	3.3414e-06	2.9033e-06	421.2	140.29	122.29	41.826	7.6569e-06	51.664	0.0004798	0.00048369	0.00013401	1372.7	5.3296e-06	5.3341e-06	1370.4	372.3	5.4429e-06	5.3844e-06	424.96	142.48	124.19	42.691	5.4165e-06	52.967	246.437	252.764	305.694	165.399	265.014	471.078	165.097	169.875	317.181	350.221	169.388	173.689	174.390	178.823	310.240	177.991	-8191	255	
2823.237	1	1	0	0	0.14779	0.33429	0.26577	0.26033	0.075086	0.23483	0.3318	0.20295	0.15971	0.23497	0.089448	0.086897	0.14819	0.10746	0.030273	0.20294	-2.9833	-2.6458	-3.3833	-3.4958	-2.7188	-3.45	-3.0729	-3.025	-3.3979	-2.7438	-3.3688	-3.3812	-2.65	-3.4958	-2.9021	-2.9	316.998	281.437	270.664	460.974	196.508	362.690	420.181	458.232	232.008	180.916	398.289	352.445	430.888	172.714	414.838	464.588	0.00052862	0.00034122	0.00022951	1362.7	9.6613e-06	5.9349e-06	1357.1	366.34	6.5547e-06	4.9782e-07	420.42	140.22	122.38	41.946	1.3249e-06	51.821	0.00050719	0.00050729	0.0001415	1375.5	5.6674e-06	5.7175e-06	1374.7	373.41	5.8093e-06	5.8767e-06	428.02	143.4	124.87	43.048	5.8923e-06	53.315	251.317	298.883	222.417	165.311	293.551	287.161	164.980	169.875	343.641	336.179	169.279	173.605	174.322	179.054	196.907	178.076	-8191	255	
2823.333	1	1	0	0	0.12749	0.11518	0.14089	0.16871	0.087049	0.11351	0.16471	0.30226	0.062417	0.19129	0.32436	0.26083	0.26405	0.16034	0.096845	0.067164	-3.0854	-2.5771	-3.0875	-3.4917	-2.8958	-3.5396	-3.225	-2.875	-3.45	-2.8458	-3.15	-3.5958	-2.8563	-3.5417	-3.0208	-2.8646	504.226	175.877	311.491	457.771	261.152	488.769	510.486	491.583	301.203	487.460	507.435	490.827	345.277	441.875	238.034	411.911	0.00046497	0.00051987	6.9141e-05	1360.1	8.0505e-06	2.2283e-06	1356.8	367.29	5.3884e-06	7.413e-06	419.99	139.35	121.77	41.642	4.5773e-06	52.04	0.00054503	0.00053826	0.00014934	1381.2	5.8569e-06	5.8532e-06	1377.4	373.93	5.9085e-06	5.8357e-06	427.7	142.84	124.4	42.926	5.9271e-06	53.192	250.244	173.127	302.347	165.277	251.780	502.824	165.182	170.173	279.356	297.243	169.394	173.961	174.198	179.046	284.735	178.210	-8191	255	
2823.429	1	1	0	0	0.12761	0.14229	0.01382	0.3236	0.047218	0.14352	0.057476	0.070852	0.1277	0.1874	0.069058	0.39931	0.032673	0.086712	0.16839	0.19781	-3.1104	-2.6375	-3.0062	-3.5521	-2.5125	-3.2812	-3.4208	-2.7	-3.5	-2.8208	-2.9813	-3.5417	-2.6937	-3.2708	-3.1562	-2.5604	484.560	411.940	314.436	159.426	237.666	321.055	363.837	479.040	197.502	332.248	431.200	182.874	404.878	466.015	350.570	443.763	0.00044927	0.00044009	0.00021001	1360.3	8.3524e-06	2.7898e-06	1353.7	368.05	4.9301e-06	9.1682e-06	419.4	139.95	121.27	41.577	3.3377e-06	51.577	0.00054709	0.00054644	0.00015262	1376.9	6.0704e-06	6.0509e-06	1375.3	374.17	6.1495e-06	6.1586e-06	427.27	143.11	124.32	42.881	6.3014e-06	53.086	252.532	287.418	218.060	165.114	230.154	230.379	165.249	170.062	256.090	297.311	169.336	173.555	174.578	178.914	299.242	178.108	-8191	255	
2823.525	1	1	0	0	0.21328	0.11003	0.20368	0.18294	0.065062	0.22762	0.068626	0.10867	0.21076	0.16603	0.1008	0.25387	0.37054	0.39295	0.096502	0.20682	-3.1458	-2.8875	-2.9313	-3.575	-2.6271	-2.9833	-3.375	-2.7458	-3.4146	-3.0083	-2.8729	-3.6208	-2.7062	-3.1562	-3.3396	-2.6271	411.507	444.733	213.318	457.791	477.839	234.716	453.013	379.263	457.587	391.929	401.063	502.545	487.610	442.822	485.604	458.218	0.00055169	0.00059985	0.00017631	1361	3.0564e-06	3.8875e-06	1355.3	366.51	2.5487e-06	3.746e-06	420.16	139.94	121.34	41.703	2.6779e-06	51.832	0.00057886	0.00057367	0.00015984	1379.3	6.3054e-06	6.2681e-06	1376.4	374.16	6.1804e-06	6.2331e-06	428.38	143.28	124.47	42.913	6.0939e-06	53.101	253.292	200.045	509.191	165.421	503.312	304.177	165.097	170.246	482.980	497.846	169.547	173.944	174.424	178.993	298.510	178.337	-8191	255	
2823.619	1	1	0	0	0.070539	0.1418	0.19106	0.26097	0.072253	0.082822	0.35749	0.23381	0.035206	0.16324	0.1496	0.34441	0.17423	0.22086	0.16179	0.30619	-2.9813	-3.0333	-2.6979	-3.6604	-2.8396	-3.0333	-3.5354	-2.7854	-3.3646	-3.0438	-2.6604	-3.5625	-2.7188	-2.8937	-3.3312	-2.6917	441.863	165.683	304.464	453.645	214.355	174.764	439.442	447.959	263.494	216.078	489.215	438.706	449.493	504.090	284.227	482.988	0.00060022	0.0002812	0.00013408	1361.7	6.3212e-06	1.1436e-06	1359.2	367.37	8.4243e-06	2.9587e-06	419.55	139.76	121.62	41.919	5.1093e-06	51.528	0.00055955	0.00055461	0.00015654	1377.7	6.1335e-06	6.0764e-06	1376.7	374.01	6.1718e-06	6.1018e-06	427.04	142.78	124.2	42.895	6.1087e-06	53.059	246.493	272.131	242.996	165.259	282.506	266.695	165.274	170.012	287.935	316.191	169.506	173.741	174.378	179.018	328.869	177.821	-8191	255	
2823.717	1	1	0	0	0.19149	0.12932	0.053966	0.092522	0.27555	0.058778	0.204	0.40406	0.055426	0.13098	0.13962	0.28903	0.23136	0.082642	0.1144	0.11461	-2.8875	-3.1562	-2.7562	-3.6396	-2.7604	-2.8021	-3.6396	-2.8042	-3.3458	-3.3021	-2.8125	-3.5354	-3.1417	-2.9625	-3.45	-2.9771	276.214	423.806	331.102	193.045	469.648	494.293	471.160	433.746	449.291	491.728	416.529	176.313	391.272	154.352	239.619	413.365	0.00048176	0.00068005	0.00020157	1359.3	7.6452e-06	1.8333e-06	1351.4	368.1	7.7513e-06	8.9099e-06	419.86	139.36	121.53	41.447	1.8509e-06	51.725	0.00056021	0.00056265	0.00015693	1377.4	6.1756e-06	6.1573e-06	1376.1	374.51	6.2081e-06	6.1808e-06	426.94	142.98	124.4	42.848	6.1902e-06	53.132	252.197	208.548	196.584	165.538	262.938	286.285	165.100	170.113	408.383	297.913	169.682	174.119	174.510	178.964	253.462	178.283	-8191	255	
2823.836	1	1	0	0	0.11221	0.38766	0.16247	0.14586	0.033643	0.16111	0.10906	0.36921	0.059508	0.27641	0.18385	0.18652	0.16839	0.19665	0.13237	0.34949	-2.8104	-3.2896	-2.4354	-3.6125	-3.0667	-2.8021	-3.625	-2.9667	-3.2479	-3.4958	-2.9083	-3.4167	-3.1625	-2.8917	-3.5062	-3.0625	166.976	200.039	335.188	407.467	452.661	424.024	441.929	474.881	346.996	207.928	336.036	196.931	151.939	246.102	187.943	497.481	0.00051352	0.0010022	0.00017384	1362.7	3.2349e-06	7.6075e-06	1355.9	367.91	3.6428e-06	3.7135e-06	420.78	139.77	122.31	41.982	4.1853e-06	51.557	0.00056086	0.000556	0.00015459	1378.6	6.0017e-06	6.0093e-06	1375.7	373.93	5.9574e-06	5.9306e-06	426.91	142.95	124.43	42.912	5.9053e-06	52.902	245.825	221.548	215.379	165.267	233.624	287.726	165.319	169.905	277.376	304.458	169.737	173.830	174.308	178.969	308.499	178.224	-8191	255	
2823.932	1	1	0	0	0.10933	0.071539	0.24141	0.164	0.14193	0.28054	0.12659	0.31158	0.45424	0.17479	0.21655	0.22125	0.072868	0.18931	0.13704	0.08899	-2.7729	-3.4	-2.6917	-3.5708	-3.1	-2.7229	-3.5125	-2.7375	-3.0708	-3.5521	-2.6604	-3.3396	-3.0583	-2.6688	-3.4313	-2.7375	280.816	285.806	501.172	192.508	203.527	170.610	203.322	471.135	374.284	234.575	234.144	458.664	500.473	470.314	463.536	339.033	0.00052002	0.00055365	0.00020458	1361.5	5.9038e-06	8.4364e-07	1362	369.01	7.987e-06	8.4128e-06	419.41	140.54	121.9	41.818	4.2249e-06	51.857	0.0005358	0.00053534	0.00014708	1378.2	5.8033e-06	5.8285e-06	1377.3	374.36	5.7084e-06	5.6788e-06	426.43	143.14	124.25	42.836	5.6276e-06	52.969	242.690	239.766	263.380	165.549	273.165	266.541	165.373	170.090	279.842	223.191	169.608	173.804	174.257	179.310	372.728	178.460	-8191	255	
2824.029	1	1	0	0	0.31468	0.14066	0.09116	0.101	0.32605	0.12265	0.047174	0.19688	0.30197	0.079663	0.20029	0.345	0.26378	0.27896	0.18165	0.15043	-2.3896	-3.2375	-2.7021	-3.4146	-3.1354	-2.5458	-3.5042	-3.1417	-2.6771	-3.3479	-2.7167	-3.3479	-3.4146	-2.6625	-3.4083	-3.2979	244.863	416.182	306.898	479.647	204.837	362.694	354.841	417.738	203.419	300.406	423.049	153.958	469.884	466.010	346.912	240.469	0.00060866	0.0010637	0.00017493	1359.6	5.5656e-06	4.9555e-06	1361.1	367.38	4.1472e-06	2.0319e-06	419.84	140.29	121.97	41.715	6.4794e-06	51.927	0.00052149	0.00052056	0.00014452	1374.9	5.7379e-06	5.7411e-06	1376.3	374.25	5.814e-06	5.8469e-06	426.11	143.11	124.31	42.866	5.9396e-06	53.141	245.835	305.642	158.929	165.404	269.877	283.114	165.301	170.054	303.558	282.820	169.166	173.803	174.439	179.028	296.820	178.244	-8191	255	
2824.125	1	1	0	0	0.21752	0.087182	0.088947	0.16093	0.18621	0.034437	0.12719	0.11191	0.091031	0.084297	0.25366	0.31541	0.059116	0.1612	0.13212	0.17098	-2.1833	-3.5187	-2.8625	-3.3125	-3.4688	-2.6979	-3.4646	-3.1417	-2.6708	-3.5083	-2.7292	-3.0479	-3.35	-2.7062	-3.2062	-3.1125	232.157	229.323	310.522	503.027	388.500	490.789	380.868	390.483	325.868	468.543	394.005	358.172	209.644	422.998	449.982	429.664	0.00053879	0.00047814	0.00026355	1357.9	9.5405e-06	6.8285e-06	1364.5	368.19	8.0812e-06	5.6459e-06	422.27	140.67	122.33	41.836	2.2529e-06	51.798	0.00054555	0.00054352	0.00015222	1377.7	5.9729e-06	5.9862e-06	1380.6	374.22	5.9347e-06	5.915e-06	427.49	143.27	124.66	42.947	5.8742e-06	53.077	247.114	208.385	239.566	165.618	287.011	237.127	165.604	170.040	284.577	350.621	169.534	174.028	174.719	178.926	254.019	178.308	-8191	255	
2824.245	1	1	0	0	0.082798	0.31265	0.14513	0.21359	0.072934	0.14484	0.059471	0.30035	0.21128	0.062255	0.2676	0.18983	0.26173	0.15	0.25268	0.13614	-2.2583	-3.3792	-2.6396	-3.0875	-3.3417	-2.6396	-3.4729	-3.1583	-2.8854	-3.4896	-2.9646	-2.9562	-3.5396	-2.8312	-3.1417	-3.2292	279.679	509.681	259.182	508.832	461.159	318.299	396.147	385.580	328.367	427.869	496.210	204.978	484.122	403.839	397.846	410.282	0.0004831	3.345e-05	0.00016719	1366.7	2.5784e-06	1.0476e-05	1359.2	368.69	3.8311e-06	3.9691e-06	418.98	139.9	122.02	41.904	1.5789e-06	51.924	0.00053853	0.00053445	0.00014822	1382.5	5.8164e-06	5.8512e-06	1381.3	374.44	5.8132e-06	5.7915e-06	427.09	143.03	124.59	42.941	5.7964e-06	53.094	247.423	412.531	316.444	165.678	252.722	311.930	165.392	170.141	326.379	238.002	169.524	173.836	174.638	178.919	327.730	178.133	-8191	255	
2824.317	1	1	0	0	0.1302	0.063523	0.1692	0.097436	0.14267	0.24383	0.27328	0.33419	0.15874	0.081092	0.075206	0.2088	0.098697	0.12176	0.1527	0.2964	-2.1146	-3.3146	-2.7833	-3.0708	-3.4375	-2.6688	-3.3792	-3.3	-2.6146	-3.2875	-3.0125	-2.9375	-3.5875	-2.6792	-3.1021	-3.2812	357.359	242.490	428.687	343.985	344.918	330.756	441.917	466.129	304.968	436.513	472.543	421.624	338.709	463.390	364.125	240.826	0.00053716	0.0005337	7.6048e-05	1365	2.898e-06	5.9306e-06	1364	369.2	5.5329e-06	5.5074e-06	423.09	140.74	122.21	41.651	2.54e-06	51.972	0.00052793	0.00053109	0.00014702	1382	5.7731e-06	5.762e-06	1381.1	374.47	5.7623e-06	5.7614e-06	427.51	143.45	124.59	42.911	5.7522e-06	53.255	252.349	206.161	255.108	165.685	356.280	234.851	165.419	170.205	252.718	479.510	169.258	173.964	174.515	178.968	303.993	178.456	-8191	255	
2824.438	1	1	0	0	0.15069	0.21027	0.23402	0.12744	0.098408	0.15771	0.21919	0.32761	0.02571	0.063587	0.076693	0.29332	0.07463	0.24987	0.2658	0.29721	-2.2625	-3.2354	-2.9333	-2.8771	-3.3521	-2.8771	-3.0146	-3.4271	-2.6625	-3.2417	-3.2333	-2.9229	-3.6333	-2.975	-3.0458	-3.4771	318.576	307.314	365.306	425.076	168.887	412.247	449.297	458.549	379.154	324.736	483.218	409.676	213.297	441.668	488.523	458.061	0.00045086	0.00044274	0.00018478	1368.3	5.6376e-06	4.3767e-06	1367.6	367.89	6.7477e-06	4.504e-06	424.44	140.17	122.39	41.898	1.4503e-06	51.912	0.00053662	0.00052809	0.00014573	1383.8	5.7605e-06	5.7455e-06	1382.5	374.47	5.6792e-06	5.6574e-06	428.29	143.2	124.59	42.93	5.6043e-06	53.175	255.019	217.276	295.159	165.649	272.988	239.347	165.281	169.935	301.674	266.203	169.657	174.000	174.475	179.062	277.076	178.350	-8191	255	
2824.532	1	1	0	0	0.041046	0.11435	0.16497	0.2249	0.099005	0.14148	0.21889	0.037605	0.17169	0.053812	0.24075	0.24086	0.24442	0.31814	0.058983	0.1005	-2.4104	-3.25	-3.3354	-2.6854	-3.4146	-2.7562	-3.1292	-3.4688	-2.5396	-3.2021	-3.4313	-2.7083	-3.525	-2.8792	-2.825	-3.5917	359.917	157.469	257.320	449.532	248.366	498.533	399.504	504.334	315.710	380.223	458.952	154.039	368.841	398.091	284.067	453.723	0.0005343	0.00055907	4.8558e-05	1372.2	4.557e-06	3.8758e-06	1368.6	369.92	3.9704e-06	5.0305e-06	421.36	140.96	122.5	41.964	6.0702e-06	51.838	0.00051654	0.00051051	0.00014059	1383.3	5.557e-06	5.5236e-06	1382.2	374.83	5.4795e-06	5.4682e-06	426.56	143.27	124.57	42.906	5.4912e-06	53.024	249.091	241.949	217.323	165.709	320.945	241.366	165.506	170.341	342.498	312.346	169.694	174.306	174.956	178.825	265.553	178.192	-8191	255	
2824.628	1	1	0	0	0.22002	0.079602	0.18643	0.06997	0.23337	0.13356	0.11243	0.12526	0.11587	0.1026	0.2445	0.1511	0.28185	0.2807	0.08142	0.17053	-2.3604	-3.0417	-3.1333	-2.6146	-3.3542	-3.1146	-2.8604	-3.6396	-2.7458	-3.1458	-3.2917	-2.7396	-3.3937	-3.1729	-2.6833	-3.6896	359.699	499.492	358.135	224.823	398.039	457.396	482.317	477.946	418.264	245.818	487.858	439.185	473.498	476.587	201.108	426.786	0.00048098	0.00011812	0.00017272	1367.7	5.2891e-06	1.0175e-05	1361.3	367.27	3.781e-06	4.6778e-06	422.96	140.34	122.42	41.882	6.0336e-06	51.96	0.00050542	0.00049857	0.00013986	1380.9	5.5398e-06	5.5669e-06	1379.6	373.78	5.5577e-06	5.5832e-06	427.59	143.39	124.61	42.949	5.6958e-06	53.173	249.983	212.233	241.468	165.519	408.070	272.135	165.115	170.206	264.618	308.159	169.730	173.982	174.773	178.955	300.209	178.251	-8191	255	
2824.724	1	1	0	0	0.18328	0.1703	0.066906	0.14475	0.085414	0.052679	0.3105	0.12703	0.17026	0.21007	0.18772	0.15652	0.18768	0.1913	0.23152	0.21529	-2.2812	-2.8875	-3.4188	-2.7896	-3.2687	-2.9562	-2.8104	-3.5042	-2.7208	-2.8208	-3.5	-2.7271	-3.4229	-3.3229	-2.6854	-3.5208	264.786	423.519	249.192	247.540	189.413	385.894	470.305	434.267	189.956	250.117	181.336	189.339	157.808	463.300	313.490	438.313	0.00050892	0.00048901	5.8506e-05	1363.6	3.737e-06	7.8869e-06	1363.1	368.43	2.3539e-06	7.1592e-06	421.49	140.73	122.93	41.766	5.098e-06	52.11	0.00052165	0.00051875	0.00014347	1382.1	5.7101e-06	5.6421e-06	1380.3	374.68	5.6476e-06	5.6966e-06	427.59	143.49	124.95	42.951	5.7365e-06	53.284	255.527	172.824	177.600	165.211	268.915	348.953	165.461	170.008	276.237	294.585	169.465	173.947	174.740	178.837	367.936	178.149	-8191	255	
2824.820	1	1	0	0	0.085479	0.28134	0.33473	0.29788	0.08748	0.21349	0.17098	0.22671	0.13659	0.11043	0.055452	0.16422	0.13474	0.27966	0.21629	0.29672	-2.3854	-2.8021	-3.5083	-2.7354	-3.1604	-3.1854	-2.6937	-3.3917	-2.8354	-2.75	-3.6125	-2.775	-3.0438	-3.3583	-2.5958	-3.3333	467.251	218.916	424.560	164.508	253.635	178.377	168.011	425.918	449.830	311.447	313.112	494.162	445.077	421.555	302.283	443.318	0.00051366	0.00018835	0.00015429	1366.7	9.0058e-06	5.3269e-06	1366.5	367.47	4.0515e-06	7.2422e-06	420.8	141.32	122.6	41.892	5.9139e-06	51.904	0.00052356	0.00052355	0.00014585	1381.9	5.7029e-06	5.6831e-06	1382.3	374.69	5.6944e-06	5.6765e-06	428.33	143.55	124.65	42.966	5.711e-06	53.214	240.844	337.059	302.952	165.314	311.495	188.624	165.233	170.180	343.936	303.031	169.329	173.817	174.449	178.604	267.197	178.284	-8191	255	
2824.917	1	1	0	0	0.094647	0.12023	0.007307	0.19488	0.24844	0.42601	0.24076	0.2997	0.092024	0.092804	0.073828	0.15129	0.1627	0.12347	0.3182	0.17973	-2.3917	-2.5646	-3.4062	-2.8875	-3.0708	-3.2646	-2.6271	-3.3625	-3.0021	-2.6521	-3.5667	-2.8396	-3.1979	-3.5812	-2.6271	-3.3146	164.366	393.500	384.279	501.524	245.845	394.347	487.892	429.431	347.966	488.574	328.796	161.163	200.924	487.599	506.200	463.404	0.00050585	0.00044001	0.00015544	1371.1	7.8536e-06	7.4114e-06	1365.5	369.01	3.5117e-06	3.097e-06	420.86	140.85	123.21	42.01	6.9142e-06	51.94	0.00052184	0.00051254	0.00014413	1383	5.6556e-06	5.7061e-06	1381.8	374.79	5.6783e-06	5.6868e-06	427.96	143.39	124.79	42.967	5.7259e-06	53.221	248.778	164.676	248.766	165.451	289.047	288.543	165.290	170.194	214.647	290.559	169.454	173.755	174.678	178.958	286.211	178.113	-8191	255	
2825.013	1	1	0	0	0.16452	0.16569	0.1326	0.28687	0.1523	0.13868	0.18498	0.092109	0.14943	0.13546	0.17403	0.11803	0.042971	0.27234	0.042582	0.10498	-2.7229	-2.5583	-3.4979	-2.9188	-2.9167	-3.3563	-2.7417	-3.3146	-3.2292	-2.5042	-3.5896	-2.9854	-2.925	-3.3542	-2.5667	-3.3667	229.074	228.981	204.416	425.840	342.836	209.695	440.665	502.481	503.965	471.796	363.984	195.031	470.682	397.199	199.029	455.208	0.00060426	0.00063794	0.00021761	1368.5	5.9681e-06	3.5594e-06	1363.5	369.82	3.7598e-06	5.9028e-06	422.89	140.1	122.44	41.888	5.1416e-06	52.164	0.00052804	0.00052597	0.00014668	1384.6	5.7834e-06	5.7097e-06	1381	375.01	5.77e-06	5.7637e-06	428.39	143.32	124.67	43.012	5.8347e-06	53.255	242.300	218.209	288.081	165.285	218.302	355.481	165.281	170.272	195.941	272.827	169.353	173.896	174.546	178.766	305.201	178.430	-8191	255	
2825.109	1	1	0	0	0.17683	0.28675	0.0036095	0.29083	0.27849	0.14859	0.41092	0.5171	0.081421	0.17565	0.10566	0.19863	0.16855	0.32881	0.056202	0.10048	-2.7292	-2.5396	-3.3208	-2.9125	-2.8021	-3.5375	-2.8167	-3.3125	-3.3271	-2.3771	-3.2604	-3.0896	-2.9271	-3.4375	-2.6854	-3.0042	492.609	207.425	481.752	445.760	477.288	284.596	455.098	503.781	209.364	364.372	352.793	442.005	422.286	468.140	488.300	451.850	0.00060463	0.00079215	3.9728e-05	1363.1	7.1079e-06	4.2286e-06	1363.4	368.87	6.1515e-06	8.9281e-06	422.21	140.52	122.31	41.781	5.4054e-06	51.769	0.00053383	0.00052973	0.0001483	1383.3	5.8168e-06	5.8156e-06	1380.9	375.4	5.7821e-06	5.8078e-06	428.53	143.29	124.73	42.969	5.7575e-06	53.053	246.652	274.538	227.745	165.409	309.443	367.138	165.512	170.144	291.304	287.026	169.436	173.683	174.703	178.992	335.381	178.164	-8191	255	
2825.205	1	1	0	0	0.20572	0.19525	0.14376	0.40223	0.16742	0.13017	0.22928	0.081258	0.19208	0.21504	0.24915	0.27557	0.1075	0.26373	0.052479	0.27379	-2.9813	-2.6063	-3.275	-3.1667	-2.5708	-3.4813	-2.8396	-3.1292	-3.3667	-2.7833	-3.3771	-3.2125	-2.8354	-3.3646	-2.6771	-2.8521	493.314	265.890	314.580	426.317	209.496	386.669	481.749	471.339	248.539	447.558	444.314	430.620	243.788	493.261	510.039	221.864	0.00051577	0.00030511	0.00022287	1369.2	5.786e-06	2.4438e-06	1363.2	370.06	4.1393e-06	7.9669e-06	420.92	140.05	122.59	41.852	1.3203e-06	51.975	0.00053367	0.00052834	0.0001477	1381.4	5.7997e-06	5.7884e-06	1379.7	375.63	5.7864e-06	5.7052e-06	427.7	143.26	124.73	43.029	5.7009e-06	53.204	245.161	241.029	221.996	165.494	306.052	270.480	165.311	170.101	264.255	313.564	169.341	173.898	174.607	179.110	408.244	178.475	-8191	255	
2825.326	1	1	0	0	0.18366	0.33521	0.14537	0.12858	0.21696	0.21753	0.10049	0.1465	0.22254	0.074495	0.082746	0.28256	0.085214	0.14524	0.083291	0.069673	-3.1875	-2.6292	-3.3688	-3.2792	-2.5896	-3.5146	-3.0208	-2.8604	-3.3854	-2.8312	-3.2438	-3.2917	-2.5938	-3.3708	-2.9	-2.8542	486.887	169.258	182.963	468.544	278.310	474.310	445.289	434.770	493.629	310.246	164.088	491.840	389.057	188.320	238.391	413.017	0.00053118	0.00027684	3.0943e-05	1364.7	5.6631e-06	4.0206e-08	1367.7	371.71	5.802e-06	6.3817e-06	423.61	140.58	122.07	42.125	1.6686e-06	51.916	0.00052952	0.00052303	0.00014481	1382.2	5.6792e-06	5.7085e-06	1382	375.8	5.7041e-06	5.7057e-06	428.66	143.46	124.7	43.058	5.7468e-06	53.118	249.458	495.011	341.174	165.511	248.647	342.267	165.264	170.339	233.555	322.484	169.715	174.039	174.874	178.877	253.117	178.390	-8191	255	
2825.420	1	1	0	0	0.078589	0.094036	0.30512	0.202	0.20721	0.13161	0.12423	0.12674	0.22291	0.17495	0.34784	0.19746	0.06742	0.15663	0.077149	0.2296	-3.175	-2.7125	-3.1521	-3.5687	-2.7229	-3.5917	-3.2417	-2.8625	-3.7583	-3.1063	-3.0896	-3.4729	-2.8771	-3.5812	-3.0521	-2.8708	418.989	175.159	367.175	492.979	162.685	189.524	451.126	502.569	242.171	247.867	471.796	414.932	179.551	364.263	300.136	492.720	0.00055678	0.00088237	6.1487e-05	1370.7	6.0658e-06	7.2317e-06	1365.7	369.82	1.0339e-05	3.9319e-06	419.64	140.72	122.37	41.9	2.3117e-06	52.007	0.00053152	0.00052015	0.00014554	1384.7	5.7798e-06	5.7313e-06	1380.9	374.86	5.7461e-06	5.7803e-06	428.36	143.46	124.71	43.003	5.7687e-06	53.23	252.739	201.975	247.911	165.525	217.364	262.967	165.433	170.370	271.333	373.852	169.752	173.823	174.422	179.063	404.768	178.324	-8191	255	
2825.518	1	1	0	0	0.22707	0.2316	0.087279	0.25714	0.06335	0.040729	0.23118	0.034974	0.33896	0.14769	0.21158	0.14936	0.17488	0.24057	0.16488	0.25701	-3.375	-3.0687	-3.2438	-3.7542	-2.6958	-3.5271	-3.5563	-3.0771	-3.5187	-2.9417	-3.125	-3.5625	-3.0083	-3.4375	-3.3771	-2.9104	495.887	186.341	246.542	428.450	264.716	213.009	433.862	447.623	510.283	356.853	500.308	465.667	446.047	480.912	365.433	425.557	0.00050011	0.00083136	0.00010424	1370.8	8.3003e-06	7.7794e-06	1364.6	367.57	5.6907e-06	4.0786e-06	422.77	140.75	122.37	41.784	4.8727e-06	51.763	0.00053231	0.00052542	0.00014719	1383.4	5.7867e-06	5.7467e-06	1381.7	374.96	5.7298e-06	5.6977e-06	428.04	143.28	124.71	42.987	5.7571e-06	53.177	248.328	256.685	155.357	165.570	341.401	232.374	165.328	170.083	358.906	209.378	169.593	173.927	174.546	179.028	323.864	178.342	-8191	255	
2825.612	1	1	0	0	0.30372	0.23227	0.1992	0.3118	0.23552	0.039398	0.16623	0.2158	0.061181	0.19536	0.16664	0.17786	0.063416	0.10947	0.20618	0.092076	-3.1708	-2.8917	-3.0292	-3.7354	-2.7979	-3.4375	-3.6979	-2.9062	-3.5	-3.1104	-2.9938	-3.6979	-2.7938	-3.2958	-3.4729	-2.8292	163.754	166.350	409.998	374.508	181.295	508.618	457.420	431.900	399.170	155.949	198.974	476.606	215.089	422.980	324.249	252.305	0.00063317	0.00016997	7.7906e-05	1367.5	2.8501e-06	3.1319e-06	1362	369.18	1.1348e-05	7.6472e-06	421.8	140.55	122.67	41.976	3.0689e-06	51.873	0.00053526	0.00052544	0.00014693	1382.9	5.8431e-06	5.891e-06	1381.2	375.31	5.8843e-06	5.9566e-06	429.44	143.47	124.99	43.07	6.01e-06	53.229	244.192	326.761	230.524	165.534	432.944	291.383	165.426	170.347	294.956	301.511	169.679	173.864	174.947	179.144	336.443	178.470	-8191	255	
2825.709	1	1	0	0	0.18628	0.17036	0.17561	0.16101	0.25333	0.29457	0.38353	0.20786	0.067546	0.094948	0.15971	0.13851	0.048732	0.11778	0.15267	0.13364	-3.0396	-3.3375	-2.825	-3.7229	-2.9813	-3.1667	-3.6708	-2.8563	-3.4437	-3.0729	-2.7854	-3.5812	-3	-3.2125	-3.4958	-2.9188	201.265	186.446	405.103	399.073	450.251	237.706	426.344	475.660	325.513	258.366	292.644	466.958	402.055	199.909	227.650	161.874	0.0004594	0.0004922	0.00018917	1358.9	8.4298e-06	1.7209e-06	1360.4	368.67	2.3115e-06	1.6312e-06	421.41	139.95	122.11	41.923	7.0624e-06	51.466	0.00055243	0.00055032	0.00015339	1381.4	6.0578e-06	5.9826e-06	1379.2	374.94	5.9859e-06	6.002e-06	428.43	143.39	124.75	42.961	6.0607e-06	53.073	245.263	225.741	222.411	165.602	352.678	168.358	165.540	170.205	366.994	395.136	169.812	174.069	174.653	179.187	300.007	178.498	-8191	255	
2825.805	1	1	0	0	0.16446	0.12106	0.31086	0.19443	0.0561	0.026056	0.4184	0.19523	0.11492	0.22196	0.15973	0.21954	0.16309	0.13317	0.21513	0.18858	-3.0062	-3.2146	-2.7417	-3.7812	-2.9125	-3.025	-3.9333	-3.0021	-3.425	-3.3875	-2.8563	-3.5396	-3.1854	-2.925	-3.7271	-2.9604	262.285	412.786	360.759	395.794	305.444	323.115	427.380	427.828	414.119	341.074	204.243	512.157	162.830	376.262	345.104	205.882	0.00044163	0.00072301	9.8649e-05	1362.4	9.402e-06	2.6127e-06	1362.5	369.43	7.8707e-06	8.7251e-07	420.6	140.01	121.93	41.854	3.8032e-06	51.953	0.00055471	0.00055095	0.00015321	1380.9	6.118e-06	6.1016e-06	1379.8	374.83	6.1827e-06	6.1582e-06	428.4	143.38	124.77	43.003	6.1623e-06	53.256	252.411	236.689	161.682	165.790	202.653	292.804	165.546	170.157	285.025	208.704	169.808	174.220	174.716	179.164	224.328	178.379	-8191	255	
2825.925	1	1	0	0	0.028368	0.16553	0.2545	0.10347	0.21512	0.081459	0.12649	0.14196	0.15371	0.30999	0.21255	0.062883	0.19873	0.20267	0.21584	0.19813	-2.8563	-3.3146	-2.7188	-3.7021	-3.05	-3.0958	-3.8125	-3.1146	-3.1479	-3.6542	-2.7854	-3.7208	-3.1792	-2.7438	-3.525	-2.9	248.177	170.654	174.962	192.305	429.194	173.939	448.856	437.226	268.085	479.991	445.779	206.951	211.864	486.440	274.874	480.811	0.00050889	0.00095486	0.00018173	1359.9	4.4231e-06	2.4544e-06	1356.3	368.06	4.4209e-06	4.0506e-06	422.19	139.09	121.7	41.722	2.3876e-06	51.899	0.00056153	0.00055667	0.00015571	1380.6	6.1562e-06	6.1225e-06	1376.8	375.13	6.1595e-06	6.1088e-06	428.38	143.11	124.3	42.906	6.1456e-06	53.194	246.128	271.902	220.036	165.735	334.838	153.288	165.650	170.254	230.833	254.111	169.803	174.162	174.758	179.262	335.307	178.253	-8191	255	
2826.021	1	1	0	0	0.22709	0.12009	0.26935	0.13613	0.12803	0.033178	0.091271	0.20466	0.13886	0.1095	0.27064	0.055024	0.25376	0.15245	0.079903	0.17781	-2.7875	-3.5042	-2.7854	-3.8104	-3.4	-2.9479	-3.85	-3.1333	-3.1312	-3.7458	-2.8146	-3.5208	-3.4625	-2.9667	-3.5896	-3.1771	469.904	216.635	484.620	472.652	506.361	262.919	167.518	460.831	326.526	470.591	448.287	284.902	452.815	203.055	423.007	329.955	0.00051747	0.00058995	0.00015941	1362.7	1.0604e-05	5.9447e-06	1358.5	367.86	7.4323e-06	3.188e-06	420.45	140.26	121.7	41.683	4.7375e-06	51.612	0.00055834	0.0005622	0.00015661	1379.7	6.1727e-06	6.1847e-06	1377.6	374.81	6.2015e-06	6.1996e-06	428.42	143.53	124.44	42.915	6.1604e-06	53.089	250.401	241.222	289.198	165.479	298.045	270.028	165.516	170.088	299.804	242.984	169.659	174.122	174.763	179.097	293.905	178.427	-8191	255	
2826.118	1	1	0	0	0.18852	0.13152	0.15019	0.29748	0.14851	0.15493	0.20264	0.17631	0.05756	0.26856	0.12592	0.17774	0.2885	0.28116	0.159	0.2522	-2.4938	-3.5792	-2.7313	-3.6333	-3.5521	-2.6958	-3.5792	-3.0563	-2.7875	-3.4083	-2.9708	-3.3771	-3.4042	-2.7042	-3.3333	-3.0396	494.202	254.896	365.953	487.009	293.565	503.458	462.909	455.767	471.098	302.316	272.861	203.138	464.317	502.988	503.076	174.028	0.00043854	0.00074239	0.00013648	1358.9	5.9411e-06	9.2474e-06	1360.2	367.61	6.1385e-06	2.3677e-06	420.88	140.04	121.39	41.772	1.0885e-06	51.671	0.00056363	0.0005605	0.00015594	1379.9	6.1026e-06	6.156e-06	1379	374.49	6.0969e-06	6.1037e-06	428.57	143.19	124.23	42.976	6.0828e-06	53.226	243.483	258.107	235.760	165.674	275.111	254.410	165.547	170.263	305.581	406.382	169.634	174.296	174.458	179.136	288.321	178.369	-8191	255	
2826.214	1	1	0	0	0.31104	0.11084	0.019552	0.24384	0.15017	0.14505	0.3066	0.11243	0.32986	0.052231	0.12393	0.11676	0.23086	0.087798	0.24801	0.15777	-2.3375	-3.3458	-2.725	-3.2271	-3.3521	-2.5896	-3.5021	-3.1146	-2.7375	-3.4583	-2.8438	-2.8333	-3.2771	-2.5563	-3.1646	-3.1729	407.383	245.354	346.500	465.537	233.637	312.512	417.730	460.563	277.237	168.594	503.404	493.476	399.151	407.016	256.784	370.647	0.0005063	0.00074189	7.8672e-05	1365.3	6.8342e-06	6.6337e-06	1362.9	367.02	4.6847e-06	2.6694e-06	421.44	139.83	122.39	41.726	4.9805e-06	51.722	0.00055772	0.00055608	0.00015497	1382	6.0924e-06	6.0493e-06	1380.6	374.67	6.0587e-06	6.075e-06	428.15	143.16	124.55	42.922	6.0752e-06	53.152	250.794	246.734	366.962	165.711	284.042	308.914	165.741	170.192	236.311	209.599	169.620	174.322	174.932	179.096	280.093	178.479	-8191	255	
#DATA ENDS
