BOXY.EXE: ISS Imagent and Oximeter Data Acquisition Program Version 0.80
Ascii Record File

#ACQ INFORMATION
2  Detector Channels 
16  External MUX Channels 
1  Auxiliary Channels 
5000  Waveform (CCF) Frequency (Hz)
1  Waveforms Skipped 
30  Waveforms Averaged 
1  Cycles Averaged 
16  Acquisitions per Waveform 
10.0806  Updata Rate (Hz) 

#FILE INFORMATION
TRUE -- External MUX Channel results are PARSED.
FALSE -- AC DC and Phase are NOT grouped.
TRUE -- Companion Program Settings File CREATED.
FALSE -- AC data not excluded
FALSE -- DC data not excluded
FALSE -- Phase data not excluded
FALSE -- Auxillary Chn. data not excluded
Tab delimiters

#CALIBRATION STATE
TRUE -- Waveform Calibration Values APPLIED.


#AUX CALIBRATION VALUES
Val Type	aux-1	

Term	1.0000e+00	
Factor	0.0000e+00	


#WF CALIBRATION VALUES
A = Detector Channel
Val Type	A-AC1	A-AC2	A-AC3	A-AC4	A-AC5	A-AC6	A-AC7	A-AC8	A-AC9	A-AC10	A-AC11	A-AC12	A-AC13	A-AC14	A-AC15	A-AC16	A-DC1	A-DC2	A-DC3	A-DC4	A-DC5	A-DC6	A-DC7	A-DC8	A-DC9	A-DC10	A-DC11	A-DC12	A-DC13	A-DC14	A-DC15	A-DC16	A-Ph1	A-Ph2	A-Ph3	A-Ph4	A-Ph5	A-Ph6	A-Ph7	A-Ph8	A-Ph9	A-Ph10	A-Ph11	A-Ph12	A-Ph13	A-Ph14	A-Ph15	A-Ph16	

Term	0.00000e+00	0.00000e+00	0.00000e+00	0.00000e+00	0.00000e+00	0.00000e+00	0.00000e+00	0.00000e+00	0.00000e+00	0.00000e+00	0.00000e+00	0.00000e+00	0.00000e+00	0.00000e+00	0.00000e+00	0.00000e+00	0.00000e+00	0.00000e+00	0.00000e+00	0.00000e+00	0.00000e+00	0.00000e+00	0.00000e+00	0.00000e+00	0.00000e+00	0.00000e+00	0.00000e+00	0.00000e+00	0.00000e+00	0.00000e+00	0.00000e+00	0.00000e+00	0.00000e+00	0.00000e+00	0.00000e+00	0.00000e+00	0.00000e+00	0.00000e+00	0.00000e+00	0.00000e+00	0.00000e+00	0.00000e+00	0.00000e+00	0.00000e+00	0.00000e+00	0.00000e+00	0.00000e+00	0.00000e+00	
Factor	1.00000e+00	1.00000e+00	1.00000e+00	1.00000e+00	1.00000e+00	1.00000e+00	1.00000e+00	1.00000e+00	1.00000e+00	1.00000e+00	1.00000e+00	1.00000e+00	1.00000e+00	1.00000e+00	1.00000e+00	1.00000e+00	1.00000e+00	1.00000e+00	1.00000e+00	1.00000e+00	1.00000e+00	1.00000e+00	1.00000e+00	1.00000e+00	1.00000e+00	1.00000e+00	1.00000e+00	1.00000e+00	1.00000e+00	1.00000e+00	1.00000e+00	1.00000e+00	X	X	X	X	X	X	X	X	X	X	X	X	X	X	X	X	

B = Detector Channel
Val Type	B-AC1	B-AC2	B-AC3	B-AC4	B-AC5	B-AC6	B-AC7	B-AC8	B-AC9	B-AC10	B-AC11	B-AC12	B-AC13	B-AC14	B-AC15	B-AC16	B-DC1	B-DC2	B-DC3	B-DC4	B-DC5	B-DC6	B-DC7	B-DC8	B-DC9	B-DC10	B-DC11	B-DC12	B-DC13	B-DC14	B-DC15	B-DC16	B-Ph1	B-Ph2	B-Ph3	B-Ph4	B-Ph5	B-Ph6	B-Ph7	B-Ph8	B-Ph9	B-Ph10	B-Ph11	B-Ph12	B-Ph13	B-Ph14	B-Ph15	B-Ph16	

Term	0.00000e+00	0.00000e+00	0.00000e+00	0.00000e+00	0.00000e+00	0.00000e+00	0.00000e+00	0.00000e+00	0.00000e+00	0.00000e+00	0.00000e+00	0.00000e+00	0.00000e+00	0.00000e+00	0.00000e+00	0.00000e+00	0.00000e+00	0.00000e+00	0.00000e+00	0.00000e+00	0.00000e+00	0.00000e+00	0.00000e+00	0.00000e+00	0.00000e+00	0.00000e+00	0.00000e+00	0.00000e+00	0.00000e+00	0.00000e+00	0.00000e+00	0.00000e+00	-7.43740e+01	-1.28316e+02	-1.28292e+02	-1.84666e+02	-6.09405e+01	-9.26518e+01	-1.57220e+02	-1.62015e+02	-6.83234e+01	-6.49300e+01	-1.71356e+02	-1.71554e+02	-1.80605e+02	-1.78112e+02	-5.87324e+01	-1.50478e+02	
Factor	1.69462e-05	1.09168e-04	3.22790e-05	1.81303e-01	1.25172e-06	1.14954e-06	1.71467e-01	5.38756e-02	1.13096e-06	1.21214e-06	1.27027e-01	2.77678e-02	2.53669e-02	8.93279e-03	9.87240e-07	1.27691e-02	1.16641e-06	1.21360e-06	3.37925e-07	9.36980e-02	1.32701e-08	1.33200e-08	8.34584e-02	2.80064e-02	1.32587e-08	1.33078e-08	6.16425e-02	1.38762e-02	1.31430e-02	4.61932e-03	1.32892e-08	6.33447e-03	X	X	X	X	X	X	X	X	X	X	X	X	X	X	X	X	



#DISTANCE SETTINGS
A = Detector Channel
A-1	A-2	A-3	A-4	A-5	A-6	A-7	A-8	A-9	A-10	A-11	A-12	A-13	A-14	A-15	A-16	

2.5000e+00	3.0000e+00	2.5000e+00	3.0000e+00	2.0000e+00	3.0000e+00	1.5000e+00	3.0000e+00	3.0000e+00	3.0000e+00	3.0000e+00	3.0000e+00	3.0000e+00	3.0000e+00	1.5000e+00	3.0000e+00	

B = Detector Channel
B-1	B-2	B-3	B-4	B-5	B-6	B-7	B-8	B-9	B-10	B-11	B-12	B-13	B-14	B-15	B-16	

1.0000e+01	1.0000e+01	1.0000e+01	1.4400e+00	1.0000e+01	1.0000e+01	1.5100e+00	1.9400e+00	1.0000e+01	1.0000e+01	1.9900e+00	2.4900e+00	2.4100e+00	2.9000e+00	1.0000e+01	2.9800e+00	




#DATA BEGINS
time	group	step	mark	flag	A-AC1	A-AC2	A-AC3	A-AC4	A-AC5	A-AC6	A-AC7	A-AC8	A-AC9	A-AC10	A-AC11	A-AC12	A-AC13	A-AC14	A-AC15	A-AC16	A-DC1	A-DC2	A-DC3	A-DC4	A-DC5	A-DC6	A-DC7	A-DC8	A-DC9	A-DC10	A-DC11	A-DC12	A-DC13	A-DC14	A-DC15	A-DC16	A-Ph1	A-Ph2	A-Ph3	A-Ph4	A-Ph5	A-Ph6	A-Ph7	A-Ph8	A-Ph9	A-Ph10	A-Ph11	A-Ph12	A-Ph13	A-Ph14	A-Ph15	A-Ph16	B-AC1	B-AC2	B-AC3	B-AC4	B-AC5	B-AC6	B-AC7	B-AC8	B-AC9	B-AC10	B-AC11	B-AC12	B-AC13	B-AC14	B-AC15	B-AC16	B-DC1	B-DC2	B-DC3	B-DC4	B-DC5	B-DC6	B-DC7	B-DC8	B-DC9	B-DC10	B-DC11	B-DC12	B-DC13	B-DC14	B-DC15	B-DC16	B-Ph1	B-Ph2	B-Ph3	B-Ph4	B-Ph5	B-Ph6	B-Ph7	B-Ph8	B-Ph9	B-Ph10	B-Ph11	B-Ph12	B-Ph13	B-Ph14	B-Ph15	B-Ph16	aux-1	digaux	

2915.429	1	1	0	256	0.15263	0.11137	0.09613	0.29518	0.086332	0.19057	0.1004	0.029586	0.16022	0.10831	0.13798	0.2531	0.30648	0.0846	0.10285	0.10756	-3.1229	-3.0062	-2.8646	-3.6083	-2.6104	-3.0396	-3.5125	-2.7229	-3.4062	-2.9667	-2.8229	-3.4979	-2.8312	-3.0875	-3.2646	-2.6688	188.715	412.077	248.686	489.035	258.752	176.490	515.062	481.534	369.538	395.664	242.139	483.912	303.750	488.746	168.198	354.834	0.00026693	0.00030742	9.4441e-05	1072.5	4.3842e-06	3.0201e-06	1161	225.7	3.1314e-06	1.8216e-06	288.14	81.224	63.93	18.554	1.7689e-06	25.774	0.0001007	9.0535e-05	2.6136e-05	1031.6	1.0284e-06	1.0005e-06	1127.1	220.02	1.0353e-06	9.9695e-07	271.89	78.975	61.971	18.233	1.0103e-06	25.295	248.846	229.253	264.120	167.676	305.657	287.969	168.086	175.337	300.743	287.124	175.193	182.027	182.381	189.557	186.952	189.414	-8191	255	
2915.525	1	1	0	0	0.15858	0.16835	0.28849	0.26502	0.062995	0.10399	0.13385	0.22777	0.083664	0.17687	0.083654	0.080922	0.11579	0.1603	0.12301	0.14299	-2.9729	-3.1771	-2.5812	-3.6958	-2.8146	-2.8187	-3.5458	-2.8729	-3.3771	-3.1583	-2.7104	-3.5604	-2.8812	-2.9521	-3.4792	-2.5583	442.402	322.976	172.213	470.984	446.518	208.293	440.500	435.265	220.203	273.990	250.535	291.682	372.472	506.438	472.911	401.896	0.00025345	0.00016662	6.6462e-05	1067.1	2.2795e-06	2.0896e-06	1168.4	226.59	2.1995e-06	2.0896e-06	285.74	80.895	63.607	18.543	2.7323e-06	25.704	0.00010293	9.1207e-05	2.557e-05	1029.9	1.0203e-06	1.0124e-06	1127	220.17	1.0211e-06	9.998e-07	271.81	78.939	61.704	18.263	1.0097e-06	25.268	251.266	267.623	270.107	167.869	312.897	227.694	167.760	175.219	232.737	352.690	175.371	182.390	182.247	189.791	402.600	188.927	-8191	255	
2915.646	1	1	0	0	0.15689	0.16334	0.20505	0.21243	0.18379	0.20328	0.21133	0.18677	0.30652	0.090172	0.2142	0.15216	0.19871	0.27678	0.16896	0.036566	-2.9333	-3.2271	-2.5167	-3.4479	-2.825	-2.7625	-3.4708	-2.6646	-2.9979	-3.2333	-2.6021	-3.4	-3.0458	-2.7583	-3.5083	-2.9292	188.711	396.978	513.659	498.605	357.335	220.610	449.761	430.159	496.368	344.908	473.979	236.767	510.784	352.391	353.107	228.742	0.00025715	0.00040274	4.6475e-05	1069.9	3.1557e-06	3.1716e-06	1167.5	226.2	5.5e-06	4.5933e-06	286.51	80.839	63.487	18.656	3.182e-06	25.793	0.0001026	9.0082e-05	2.5653e-05	1032.3	1.0398e-06	1.0233e-06	1127.6	220.1	1.0346e-06	1.0223e-06	271.21	78.913	61.715	18.272	1.0286e-06	25.304	264.146	196.555	345.656	168.165	258.564	282.553	168.235	175.194	293.295	311.319	175.575	181.813	182.540	189.607	253.052	188.761	-8191	255	
2915.717	1	1	0	0	0.14261	0.10931	0.17139	0.38527	0.0088087	0.28816	0.02259	0.24933	0.13211	0.11803	0.17909	0.10709	0.16475	0.16364	0.068519	0.2524	-2.4688	-3.3104	-2.6625	-3.4854	-2.9688	-2.7812	-3.4313	-2.6188	-3.1667	-3.2625	-2.6646	-3.3021	-3.0396	-2.3958	-3.4667	-2.9292	486.291	392.086	279.951	468.578	515.813	412.368	507.372	478.874	331.786	457.805	370.110	462.080	477.892	364.952	446.980	470.409	0.00026121	0.00049571	2.3163e-05	1076.8	5.2883e-06	3.401e-06	1163.8	227.01	2.7752e-06	2.8757e-06	283.91	80.952	63.758	18.61	2.7322e-06	25.909	9.9857e-05	9.3258e-05	2.5438e-05	1033.2	1.0254e-06	1.0191e-06	1127.6	220.14	1.019e-06	1.0061e-06	270.7	78.833	61.674	18.242	1.0164e-06	25.287	247.388	205.834	374.254	167.996	277.688	286.152	168.203	175.237	323.156	305.293	174.738	181.583	182.132	189.217	315.372	188.566	-8191	255	
2915.814	1	1	0	0	0.091035	0.059894	0.094272	0.26524	0.10898	0.028339	0.31613	0.20914	0.087184	0.23514	0.21408	0.091257	0.16709	0.15482	0.12103	0.12443	-2.45	-3.3563	-2.6417	-3.2188	-3.0521	-2.6875	-3.5062	-2.9542	-2.7896	-3.5479	-2.6875	-3.1479	-3.1667	-2.5563	-3.35	-2.9792	321.679	481.551	162.966	465.200	174.033	476.841	393.875	221.757	435.310	246.947	190.946	468.601	300.923	501.526	276.067	185.060	0.00026025	0.00032411	9.513e-05	1069.3	3.0196e-06	3.9074e-06	1160.4	227.15	4.4561e-06	1.5899e-06	286.38	81.136	63.696	18.519	1.1472e-06	26.107	9.9461e-05	9.192e-05	2.6076e-05	1029.3	1.0046e-06	9.9048e-07	1126.2	220.27	1.032e-06	9.8927e-07	271.18	79.014	61.64	18.168	1.018e-06	25.322	252.685	261.849	239.192	167.781	326.002	265.240	167.930	175.420	278.478	316.983	174.953	181.521	182.514	189.545	355.122	188.718	-8191	255	
2915.910	1	1	0	0	0.33491	0.21869	0.22477	0.070897	0.1582	0.0744	0.25923	0.28757	0.029138	0.17771	0.20679	0.14852	0.076018	0.18959	0.11528	0.18686	-2.2146	-3.2938	-2.5896	-3.1708	-3.1875	-2.7438	-3.3792	-3.0604	-2.6333	-3.3187	-2.6625	-2.9625	-3.3146	-2.5271	-3.2729	-2.9313	409.441	490.513	416.046	249.561	336.680	346.961	482.700	499.453	432.701	371.521	381.081	183.200	376.331	198.411	310.855	503.823	0.0002541	0.00021563	8.9397e-05	1070.5	3.226e-06	2.4266e-06	1171.2	227.04	3.0088e-06	1.714e-06	284.89	80.844	63.819	18.482	2.3861e-06	25.779	0.00010133	9.3561e-05	2.5782e-05	1030.7	1.0236e-06	1.0363e-06	1128.6	219.96	1.0336e-06	1.0248e-06	270.48	78.964	61.823	18.183	1.0326e-06	25.244	254.136	268.951	295.426	168.062	305.525	290.036	168.170	175.566	284.945	289.883	174.951	181.785	182.431	189.608	297.911	188.945	-8191	255	
2916.029	1	1	0	0	0.11688	0.090298	0.34565	0.028742	0.31114	0.10191	0.28982	0.10126	0.11865	0.12944	0.22006	0.1736	0.1382	0.27321	0.1976	0.12557	-2.3187	-3.3875	-2.8667	-3.0062	-3.3792	-2.5708	-3.3563	-3.1208	-2.5563	-3.4646	-2.8396	-2.9375	-3.4292	-2.6479	-3.225	-3.3688	288.545	488.089	489.697	360.527	493.120	305.303	515.216	205.313	271.344	516.259	479.738	469.292	167.828	468.105	432.460	460.983	0.00026896	6.6325e-05	3.3825e-05	1073.2	3.3372e-06	3.7454e-06	1159.1	227.94	1.9199e-06	3.9984e-06	287.2	80.99	63.652	18.548	1.6903e-06	25.619	0.00010223	9.0408e-05	2.6094e-05	1032.4	1.0267e-06	1.043e-06	1124.3	220.41	1.0252e-06	1.025e-06	271.99	78.82	61.667	18.146	1.0068e-06	25.191	258.977	227.310	417.252	168.243	283.440	310.765	168.382	175.260	241.341	260.637	175.071	181.840	182.317	189.541	287.947	188.877	-8191	255	
2916.125	1	1	0	0	0.063832	0.21677	0.092209	0.19003	0.23699	0.062754	0.22282	0.16761	0.11814	0.29461	0.085067	0.25122	0.23389	0.25342	0.21264	0.27664	-2.0625	-3.5042	-2.9813	-2.9458	-3.3583	-2.7083	-3.5583	-3.2938	-2.6312	-3.275	-2.8667	-2.9271	-3.5104	-2.7125	-3.0354	-3.2583	251.473	447.176	366.713	487.300	226.147	481.094	183.036	406.524	500.804	260.387	472.595	467.644	489.709	407.332	392.343	409.786	0.00022341	0.00011196	3.4621e-05	1071.1	1.0801e-06	2.6845e-06	1165.8	226.82	2.5939e-06	3.4699e-06	284.82	80.613	63.377	18.526	8.6894e-07	25.943	0.00010006	9.3771e-05	2.6131e-05	1030.6	1.0364e-06	1.0133e-06	1127	220.19	1.048e-06	1.0177e-06	271.24	78.765	61.666	18.195	1.024e-06	25.286	248.137	264.193	311.295	167.993	240.940	287.511	168.076	175.687	219.352	314.173	174.691	182.077	182.249	189.917	370.212	189.382	-8191	255	
2916.221	1	1	0	0	0.11567	0.18875	0.11581	0.3388	0.28773	0.033823	0.14723	0.076174	0.016554	0.23777	0.17812	0.097025	0.09003	0.33377	0.1981	0.096834	-2.2854	-3.1667	-3.0438	-2.7313	-3.4313	-2.7146	-3.1542	-3.2271	-2.6063	-3.2917	-3.0958	-2.7542	-3.3042	-2.8333	-2.8271	-3.3583	205.507	428.896	235.089	468.606	171.007	425.961	480.273	391.539	394.787	368.721	241.394	233.355	508.334	507.457	294.568	225.314	0.00025401	0.00024982	8.9231e-05	1067.9	2.6732e-06	1.2697e-06	1164	227.57	3.7655e-06	1.2616e-06	285.73	80.561	63.652	18.317	1.9563e-06	25.645	0.0001034	9.3864e-05	2.6118e-05	1029.5	1.0408e-06	1.0604e-06	1127.1	220.22	1.0411e-06	1.0179e-06	271.32	78.607	61.753	18.153	1.0271e-06	25.205	255.657	305.067	270.616	168.377	240.994	290.676	168.115	175.138	299.498	369.363	174.712	181.762	182.214	189.422	253.931	189.113	-8191	255	
2916.317	1	1	0	0	0.068171	0.22325	0.17957	0.092219	0.052409	0.21904	0.15897	0.018103	0.32926	0.29103	0.12394	0.14591	0.1635	0.27466	0.15817	0.10611	-2.0104	-3.2	-3.1146	-3.0542	-3.3333	-2.7333	-2.9458	-3.4313	-2.5375	-3.0708	-3.2375	-2.6125	-3.3979	-2.8917	-2.8396	-3.3604	313.336	279.351	252.647	460.657	179.043	252.069	398.001	271.377	252.439	442.969	491.453	505.888	498.560	493.332	205.439	159.528	0.00027808	0.00031634	6.2408e-05	1072.5	3.3898e-06	1.2169e-06	1162.8	227.11	1.5277e-06	4.0941e-06	286.74	80.377	63.04	18.349	2.0615e-07	25.948	0.00010274	9.4775e-05	2.5776e-05	1031	1.0215e-06	1.0025e-06	1125.3	220.69	1.0579e-06	1.017e-06	271.13	78.654	61.443	18.134	1.0299e-06	25.331	257.832	255.919	208.549	167.964	328.926	316.555	168.232	175.527	232.080	385.956	174.745	181.786	182.725	189.852	194.040	188.565	-8191	255	
2916.413	1	1	0	0	0.095315	0.14444	0.1709	0.19205	0.10173	0.28397	0.21191	0.15212	0.10683	0.10174	0.11114	0.14549	0.16493	0.016043	0.08798	0.30576	-2.3229	-3.1708	-3.0417	-2.525	-3.3125	-2.8104	-2.8312	-3.5375	-2.625	-3.0292	-3.3688	-2.5667	-3.3667	-2.95	-2.7958	-3.3688	354.427	423.388	515.994	448.054	473.969	493.192	434.448	421.904	198.562	297.522	464.589	375.269	210.453	181.875	383.693	509.709	0.0002764	0.00041141	3.6465e-05	1070	3.0417e-06	3.1362e-06	1165.9	226.53	3.4794e-06	2.9209e-06	283.5	80.788	63.947	18.368	1.9277e-06	25.974	0.00010251	9.2176e-05	2.5531e-05	1029.2	1.0336e-06	1.0238e-06	1126.7	220.61	1.0249e-06	1.0347e-06	270.01	78.812	61.658	18.137	1.0346e-06	25.262	250.005	273.151	296.929	168.201	285.229	300.469	168.310	175.246	302.310	274.540	175.194	181.766	182.812	190.197	314.829	189.322	-8191	255	
2916.509	1	1	0	0	0.038786	0.18606	0.16116	0.13658	0.28042	0.084945	0.23448	0.26821	0.12578	0.14807	0.29923	0.052485	0.18333	0.097774	0.055903	0.20617	-2.2604	-3.0833	-3.3438	-2.7333	-3.4771	-3.0729	-2.6417	-3.6896	-2.7542	-2.9271	-3.3583	-2.4604	-3.3354	-3.1562	-2.4958	-3.3333	184.034	344.948	516.323	506.905	277.938	362.657	376.131	377.438	249.243	370.141	162.900	326.964	478.360	262.898	371.402	236.042	0.00026794	0.00016464	6.0576e-05	1067.7	3.7892e-06	2.4081e-06	1164.8	226.98	3.8833e-06	1.5619e-06	285.15	81.144	63.974	18.458	7.8921e-07	25.675	0.0001011	9.4064e-05	2.6146e-05	1029.1	1.0606e-06	1.0427e-06	1124.9	220.01	1.0366e-06	1.0111e-06	270.67	78.883	61.836	18.221	1.0349e-06	25.301	246.838	245.905	224.266	168.175	306.747	304.764	168.405	175.505	332.622	337.853	174.852	181.709	182.193	189.339	321.809	189.207	-8191	255	
2916.605	1	1	0	0	0.15933	0.43013	0.1031	0.27918	0.1758	0.19445	0.12039	0.16541	0.35556	0.29531	0.014582	0.26951	0.25899	0.18989	0.23364	0.048377	-2.4208	-2.5792	-3.4542	-2.7146	-3.2125	-2.9792	-2.6667	-3.4938	-2.8125	-2.7333	-3.3354	-2.6937	-3.0917	-3.3854	-2.6	-3.4625	468.243	491.699	264.009	433.353	409.015	432.418	175.144	372.244	198.158	504.954	239.376	512.020	234.909	180.046	419.794	350.354	0.0002467	1.9561e-05	6.525e-05	1070	4.4507e-06	1.2533e-06	1159.3	226.38	1.3907e-06	4.5028e-06	284.23	80.975	63.9	18.505	2.4291e-06	25.636	0.00010109	9.3933e-05	2.5483e-05	1030.4	1.0319e-06	1.0062e-06	1124.9	220.28	1.0107e-06	1.0292e-06	271.02	78.761	61.828	18.153	1.0454e-06	25.229	252.406	294.485	340.974	168.211	301.783	303.922	167.854	175.506	284.247	235.593	175.190	182.131	182.492	189.753	282.740	189.378	-8191	255	
2916.726	1	1	0	0	0.23227	0.07246	0.15193	0.22003	0.030416	0.1597	0.29308	0.22962	0.14552	0.25084	0.11373	0.11616	0.088835	0.12828	0.11567	0.37652	-2.525	-2.7625	-3.3979	-2.9021	-3.0833	-3.1104	-2.7208	-3.3771	-2.9625	-2.5563	-3.4979	-2.8125	-3.1396	-3.3208	-2.45	-3.4625	435.782	435.144	439.318	487.584	320.996	402.167	428.383	473.621	448.896	332.163	490.682	190.467	476.230	484.698	429.481	436.063	0.00022015	0.00034019	6.7893e-05	1068.4	5.3093e-06	2.5707e-06	1162.8	228.33	3.3968e-06	3.847e-06	287.37	81.11	63.851	18.482	2.2102e-06	25.747	0.0001023	9.2122e-05	2.5299e-05	1030.1	1.0504e-06	1.0115e-06	1124	220.52	1.0575e-06	1.0083e-06	271.8	78.776	61.959	18.18	1.0505e-06	25.236	255.201	216.352	246.998	168.179	285.052	274.746	168.186	175.766	294.713	346.516	175.569	181.806	182.435	189.298	283.977	189.357	-8191	255	
2916.822	1	1	0	0	0.19958	0.23929	0.16794	0.12656	0.23605	0.041985	0.12762	0.065162	0.20736	0.18038	0.3509	0.10077	0.090191	0.030444	0.29948	0.16261	-2.7792	-2.6271	-3.5167	-2.8438	-3.0604	-3.4021	-2.6688	-3.4021	-3.2646	-2.425	-3.4375	-2.8979	-2.8125	-3.3833	-2.6354	-3.2542	505.363	355.816	359.203	512.881	204.043	334.312	479.351	341.842	445.114	251.099	460.253	459.753	449.970	401.463	264.760	434.317	0.00022987	0.000264	5.5728e-05	1073.7	2.6316e-06	5.4984e-07	1165.8	226.57	1.6403e-06	1.3271e-06	286.35	80.187	63.09	18.524	1.3577e-06	25.783	0.00010137	9.2416e-05	2.6011e-05	1031	1.0349e-06	1.0107e-06	1127	220.29	1.031e-06	1.0444e-06	271.46	78.63	61.58	18.196	1.0159e-06	25.218	250.787	212.483	235.917	168.109	285.235	315.800	168.344	175.690	242.376	237.212	174.869	181.724	182.631	189.507	244.963	188.704	-8191	255	
2916.918	1	1	0	0	0.22449	0.03565	0.057306	0.17032	0.14442	0.093465	0.12294	0.080126	0.11106	0.3631	0.10524	0.11788	0.10777	0.056574	0.27891	0.12055	-2.8	-2.4292	-3.3354	-2.9917	-2.7271	-3.5854	-2.6646	-3.2062	-3.3417	-2.5521	-3.2625	-3.0479	-2.7792	-3.4458	-2.6417	-3.2396	166.963	448.441	317.638	487.786	165.818	247.782	372.619	360.044	330.569	418.853	444.405	478.195	432.486	214.598	254.657	182.801	0.00026807	0.00024699	0.00013652	1070.4	7.7488e-07	1.842e-06	1167.6	227.48	3.2715e-06	4.2839e-06	285.2	80.792	64.083	18.535	3.3742e-06	25.856	0.00010056	9.3478e-05	2.6208e-05	1030.3	1.0397e-06	1.0368e-06	1125.5	220.39	1.0395e-06	1.0007e-06	270.94	78.829	61.929	18.243	1.0276e-06	25.256	239.717	327.257	239.937	167.576	287.894	266.925	168.217	175.734	291.721	284.920	175.091	181.633	182.614	189.506	351.821	189.074	-8191	255	
2917.015	1	1	0	0	0.026243	0.18578	0.0064026	0.13679	0.23065	0.1325	0.15157	0.052314	0.19726	0.054291	0.1692	0.10892	0.16014	0.11894	0.073717	0.25369	-2.9875	-2.4667	-3.3708	-3.1708	-2.8063	-3.4771	-2.7583	-3.125	-3.5667	-2.525	-3.5563	-3.0875	-2.725	-3.5583	-2.8521	-2.9313	211.527	380.268	312.637	439.629	459.981	338.082	478.754	468.327	430.159	226.130	254.824	188.383	238.903	302.894	358.050	444.227	0.00026887	0.00036578	1.5152e-05	1070.7	2.8758e-06	2.8783e-06	1163.8	228.32	3.7842e-06	3.4667e-06	285.69	80.759	64.028	18.532	1.6696e-06	25.895	0.00010086	9.4742e-05	2.5603e-05	1029	1.0518e-06	1.0035e-06	1125.7	220.93	1.0366e-06	1.0238e-06	271.27	78.897	61.809	18.197	1.0395e-06	25.344	245.964	274.428	341.795	168.249	287.730	290.021	168.092	175.812	294.297	284.846	175.092	181.844	182.238	189.312	274.491	188.607	-8191	255	
2917.109	1	1	0	0	0.15975	0.12966	0.14141	0.022664	0.076861	0.055032	0.25608	0.10598	0.071856	0.19553	0.048281	0.2474	0.24062	0.21705	0.25215	0.11097	-3.125	-2.6063	-3.325	-3.1417	-2.6396	-3.4458	-2.9938	-3.1021	-3.4	-2.6437	-3.2833	-3.3021	-2.3417	-3.35	-2.9938	-2.9313	302.523	356.750	491.419	455.671	318.757	501.236	396.385	259.327	271.471	260.585	426.579	512.031	377.345	425.858	465.993	450.694	0.00023168	0.000155	7.2128e-05	1071.7	3.8712e-06	3.9853e-07	1165.9	228.04	5.1064e-06	2.4062e-06	285.39	80.914	63.901	18.501	3.6587e-06	25.887	0.0001034	9.1999e-05	2.636e-05	1030.9	1.0435e-06	1.0442e-06	1126.5	220.65	1.0281e-06	1.0382e-06	270.98	78.802	61.792	18.203	1.0284e-06	25.312	254.672	206.890	257.243	168.129	281.883	205.852	168.055	175.493	297.405	268.990	174.915	181.880	182.402	188.729	333.960	189.308	-8191	255	
2917.207	1	1	0	0	0.083717	0.069091	0.12679	0.21218	0.13827	0.049012	0.2771	0.19231	0.1515	0.021411	0.18999	0.092601	0.22263	0.16482	0.21634	0.068227	-3.0938	-2.5563	-3.0438	-3.3979	-2.8	-3.375	-3.0229	-2.8479	-3.4375	-2.6333	-3.0979	-3.3917	-2.6979	-3.2812	-3.0708	-2.7271	235.221	281.235	183.813	363.458	221.025	395.802	167.076	463.778	218.287	444.237	352.303	233.260	291.205	259.500	421.272	278.795	0.0002488	0.00024167	7.9099e-05	1068.1	3.6495e-06	3.5057e-06	1164.8	226.22	4.0618e-06	2.1957e-06	285.64	80.857	64.031	18.493	3.5483e-06	25.966	0.0001027	9.7179e-05	2.5785e-05	1030.2	1.0736e-06	1.0145e-06	1127	220.12	1.0477e-06	1.0213e-06	271.36	78.778	61.901	18.2	1.0319e-06	25.277	252.070	245.852	213.673	167.899	363.759	292.820	167.722	175.132	289.694	303.203	175.462	181.847	182.254	189.104	291.702	188.774	-8191	255	
2917.326	1	1	0	0	0.086334	0.28451	0.15112	0.059251	0.17144	0.18484	0.21844	0.11137	0.082785	0.11982	0.1624	0.27923	0.045701	0.063147	0.24532	0.21071	-2.9604	-2.625	-2.8167	-3.4313	-2.6667	-3.3396	-3.3417	-2.7021	-3.4042	-2.9167	-3.0083	-3.5646	-2.7021	-3.3667	-3.1458	-2.6854	490.904	273.306	226.441	211.236	510.585	201.934	499.070	488.436	458.221	279.171	414.484	412.903	173.129	400.417	377.828	475.316	0.00024544	0.00016954	5.831e-05	1068.8	5.251e-06	2.2019e-06	1159.7	226.49	1.3631e-06	4.0735e-06	288.87	81.441	63.822	18.547	7.4523e-07	25.882	0.00010274	9.389e-05	2.5965e-05	1030.2	1.0503e-06	1.0008e-06	1127.5	220.3	1.0496e-06	1.0195e-06	271.8	78.898	61.924	18.232	1.0212e-06	25.335	263.250	191.639	266.827	168.123	286.135	291.672	168.125	175.625	276.491	307.864	175.215	181.752	182.741	189.712	273.464	188.918	-8191	255	
2917.422	1	1	0	0	0.18553	0.14854	0.12682	0.15718	0.17851	0.24879	0.24667	0.33523	0.052565	0.13662	0.21938	0.18897	0.15504	0.11197	0.17498	0.11342	-2.8583	-2.9188	-2.7875	-3.35	-2.5938	-3.2354	-3.2479	-2.6188	-3.425	-2.9	-2.8646	-3.5938	-2.7438	-3.2375	-3.2792	-2.7313	475.617	234.971	399.054	291.464	299.589	308.416	489.280	476.821	352.528	280.483	442.215	511.398	429.846	208.140	158.893	370.853	0.00022209	0.00036022	2.6521e-05	1071.8	1.8778e-06	1.4634e-06	1163.8	227.5	1.759e-06	3.1942e-06	288.45	80.828	63.447	18.464	1.3334e-06	25.656	0.00010154	9.2588e-05	2.6062e-05	1030.7	1.078e-06	1.0371e-06	1125.7	220.55	1.0504e-06	1.0361e-06	272.58	78.858	61.782	18.167	1.0622e-06	25.263	254.318	217.199	228.917	168.070	276.743	280.270	168.272	175.727	291.655	356.403	175.246	181.660	182.751	189.502	299.501	189.413	-8191	255	
2917.518	1	1	0	0	0.19097	0.2469	0.17973	0.1497	0.087274	0.0646	0.36559	0.14272	0.10024	0.060559	0.34714	0.097231	0.077275	0.14774	0.16031	0.06979	-2.9792	-2.925	-2.7479	-3.4896	-2.7167	-3.1229	-3.3458	-2.75	-3.3979	-3.0146	-2.9396	-3.5479	-2.6417	-3.0646	-3.3271	-2.6437	490.461	326.953	214.583	451.073	441.281	164.781	451.418	511.099	225.469	328.711	430.965	195.670	199.761	219.061	395.472	479.113	0.00024982	0.00015915	8.0995e-05	1066	2.496e-06	9.4715e-07	1160.6	227.85	3.5297e-06	1.3336e-06	286.52	80.851	63.645	18.621	1.8458e-06	25.919	0.00010319	9.4787e-05	2.6231e-05	1027.6	1.0672e-06	1.0166e-06	1126.2	220.62	1.0622e-06	1.0376e-06	271.89	78.79	61.811	18.252	1.0929e-06	25.293	258.086	214.137	283.833	167.513	341.737	240.759	167.989	174.964	316.371	233.315	175.429	181.519	181.812	189.093	304.371	188.818	-8191	255	
2917.614	1	1	0	0	0.17729	0.1437	0.12078	0.045587	0.032462	0.063508	0.22995	0.20203	0.35584	0.023311	0.1428	0.090297	0.098703	0.06637	0.051354	0.19618	-2.9375	-3.0667	-2.5771	-3.5708	-2.8	-2.9792	-3.5979	-2.7396	-3.2125	-3.3312	-2.8708	-3.5792	-2.9938	-2.7417	-3.3917	-2.6625	420.178	195.144	388.656	176.410	226.756	244.287	384.547	516.275	383.811	178.725	457.899	225.074	330.027	305.847	506.325	193.031	0.00025593	0.00023094	8.3047e-05	1070.3	1.6128e-06	1.5307e-06	1164.4	227.42	2.8614e-06	3.682e-06	286.07	81.12	64.195	18.504	1.1983e-06	26.036	0.00010149	9.327e-05	2.6247e-05	1029.8	1.0582e-06	1.0365e-06	1127.7	220.95	1.0448e-06	1.0162e-06	271.95	78.851	62.014	18.207	1.0041e-06	25.346	250.807	223.954	194.749	167.660	312.057	367.504	167.698	174.926	329.030	302.985	175.128	181.112	181.879	189.016	308.292	188.763	-8191	255	
2917.686	1	1	0	0	0.095297	0.12661	0.10665	0.094983	0.27816	0.089595	0.10914	0.33281	0.088074	0.20165	0.22868	0.19081	0.19886	0.1317	0.053698	0.16311	-2.7625	-3.1229	-2.5771	-3.5896	-2.9688	-2.7521	-3.4667	-2.7417	-3.1312	-3.4021	-2.7313	-3.2896	-2.8646	-2.6292	-3.3146	-2.8167	447.808	266.966	403.075	427.437	436.728	435.065	410.166	446.527	466.053	420.116	339.270	392.896	363.129	184.871	396.451	310.896	0.00027374	0.00014722	9.345e-05	1073.9	1.5278e-06	2.0898e-06	1161	226.55	6.5659e-07	1.8426e-06	287.03	80.57	63.69	18.499	3.5156e-06	25.885	0.00010078	9.5225e-05	2.6477e-05	1033.6	1.059e-06	1.0389e-06	1127.7	220.74	1.0647e-06	1.0353e-06	272.49	78.92	61.89	18.232	1.0393e-06	25.379	249.160	292.343	277.647	167.674	192.059	273.929	167.662	175.137	287.039	291.887	174.903	181.783	182.078	189.410	365.350	188.879	-8191	255	
2917.806	1	1	0	0	0.2605	0.14918	0.17855	0.25859	0.13141	0.10701	0.068936	0.16506	0.092147	0.10396	0.13365	0.17106	0.058783	0.025206	0.08664	0.15462	-2.65	-3.2313	-2.4479	-3.3	-2.7542	-2.6604	-3.3833	-2.7875	-3.0521	-3.1854	-2.6	-3.35	-3.1125	-2.6688	-3.4313	-2.8271	263.094	410.599	506.520	397.773	402.339	400.109	336.955	450.863	239.162	400.035	301.249	479.659	457.742	353.467	510.878	198.500	0.00026159	0.00019075	9.6095e-05	1074.4	1.4154e-06	2.9575e-06	1166.8	227.47	1.9724e-06	2.5858e-06	288.41	80.871	64.184	18.641	3.1226e-06	25.739	0.00010197	9.4545e-05	2.6715e-05	1034.2	1.0666e-06	1.0298e-06	1131.1	221.35	1.0606e-06	1.0173e-06	273.52	79.032	61.963	18.279	1.0388e-06	25.309	246.509	238.351	204.006	167.957	354.017	348.997	167.652	175.147	349.849	367.041	174.546	181.626	181.906	189.093	317.866	188.753	-8191	255	
2917.903	1	1	0	0	0.11744	0.11344	0.027059	0.36298	0.2507	0.12758	0.050296	0.22872	0.10122	0.28288	0.14325	0.17233	0.14791	0.23743	0.19007	0.34643	-2.6229	-3.225	-2.4625	-3.3937	-3.1979	-2.8375	-3.5187	-3.0563	-2.7729	-3.4208	-2.5167	-3.1312	-3.3187	-2.6625	-3.4854	-2.9896	328.844	194.404	300.186	494.080	214.259	479.344	285.909	335.472	169.768	182.425	505.697	312.981	462.404	397.879	445.197	475.529	0.00025324	0.00026433	0.00012	1075.5	3.6873e-06	1.8683e-06	1173.7	228.26	1.9618e-06	1.2313e-06	286.2	81.548	64.159	18.71	3.5796e-06	25.862	0.00010375	9.4069e-05	2.6551e-05	1036.3	1.071e-06	1.0552e-06	1134	221.46	1.0473e-06	1.0375e-06	272.48	79.096	62.053	18.315	1.0196e-06	25.304	237.354	170.006	250.070	167.536	330.425	254.507	167.632	174.920	267.902	387.477	175.194	181.705	182.077	189.269	303.977	188.892	-8191	255	
2917.999	1	1	0	0	0.17813	0.054167	0.27723	0.34544	0.19684	0.18709	0.10921	0.25132	0.10918	0.087156	0.34819	0.30236	0.067427	0.094012	0.28416	0.2055	-2.2271	-3.3812	-2.6354	-3.3646	-3.2896	-2.6562	-3.4188	-2.9437	-2.8208	-3.5083	-2.8583	-3.0854	-3.3167	-2.5146	-3.1521	-3.3542	342.928	356.404	157.120	487.643	394.277	396.567	419.472	408.646	405.755	187.912	447.709	479.454	190.093	501.305	315.214	288.678	0.00022817	0.00049545	6.621e-05	1076.6	3.307e-06	2.5351e-06	1169.1	227.03	4.1353e-06	2.6914e-06	286.04	81.852	63.936	18.649	2.6527e-06	25.845	0.00010645	9.414e-05	2.6384e-05	1036.6	1.0473e-06	1.0437e-06	1130.9	220.97	1.0322e-06	1.0164e-06	272.48	79.284	62.093	18.308	1.0437e-06	25.369	251.957	284.900	191.733	167.780	300.358	306.936	167.867	175.009	318.024	312.246	174.711	181.717	181.970	189.773	298.394	188.477	-8191	255	
2918.095	1	1	0	0	0.2337	0.16843	0.16678	0.37706	0.27732	0.065034	0.085728	0.50577	0.12102	0.15816	0.091163	0.10864	0.08218	0.14453	0.44918	0.19066	-2.1896	-3.3417	-2.5854	-3.0646	-3.3438	-2.5833	-3.4146	-3.1646	-2.6104	-3.3875	-2.6479	-2.8792	-3.2833	-2.5917	-3.2604	-3.0396	340.578	158.451	421.598	508.392	508.941	393.822	292.866	474.014	459.648	304.374	451.411	455.409	480.561	158.513	289.737	412.029	0.00021274	7.5182e-05	0.00010178	1073	4.1891e-06	9.6623e-07	1162.7	228.31	2.738e-06	5.0221e-06	285.53	80.815	64.3	18.613	2.1843e-06	26.008	0.00010243	9.1948e-05	2.6474e-05	1037	1.0436e-06	1.0443e-06	1129.5	221.26	1.0532e-06	1.032e-06	272.65	79.053	62.11	18.29	1.0469e-06	25.432	238.831	514.327	238.778	167.390	337.960	356.970	167.857	175.005	337.651	314.484	174.943	182.009	181.711	189.494	273.237	189.094	-8191	255	
2918.214	1	1	0	0	0.079125	0.11005	0.051077	0.18851	0.31743	0.072197	0.18781	0.20983	0.043625	0.037631	0.1767	0.051675	0.22964	0.12004	0.024291	0.11851	-2.1875	-3.4188	-2.7792	-2.9833	-3.35	-2.6562	-3.2167	-3.1958	-2.6604	-3.5604	-2.8104	-2.9771	-3.4	-2.7521	-3.2521	-3.2375	480.888	310.603	347.469	175.560	311.130	509.520	464.476	249.576	266.182	504.415	157.752	191.503	496.546	508.576	278.353	472.434	0.00024776	0.00019936	0.0001215	1076.8	1.5523e-06	1.3663e-06	1170.1	229.37	1.4297e-06	1.4204e-06	286.15	81.31	63.846	18.671	2.747e-06	25.853	0.00010548	9.3574e-05	2.6777e-05	1035.6	1.0498e-06	1.0454e-06	1132	221.97	1.0531e-06	1.0553e-06	271.65	79.258	61.965	18.311	1.0396e-06	25.345	244.872	301.215	210.603	167.750	329.438	335.256	168.128	175.196	349.669	329.325	174.634	181.837	182.196	189.415	360.378	188.370	-8191	255	
2918.287	1	1	0	0	0.038136	0.122	0.093642	0.22861	0.27988	0.22244	0.30499	0.056125	0.23163	0.044114	0.25981	0.057361	0.14598	0.062005	0.14264	0.1223	-2.2604	-3.3625	-2.9646	-2.9625	-3.4146	-2.6708	-3.2	-3.3417	-2.6688	-3.4313	-2.9604	-2.6562	-3.4708	-2.9229	-2.9208	-3.2917	162.708	330.945	344.661	436.321	167.416	454.891	441.470	412.190	198.313	483.988	425.761	396.407	191.314	242.226	261.453	352.455	0.00018723	0.00019713	0.00010178	1074.2	3.3893e-06	9.5459e-07	1167	228.59	2.6922e-06	1.733e-06	287.41	81.381	63.996	18.46	3.9015e-07	25.993	0.00010231	9.3953e-05	2.6333e-05	1035.4	1.0641e-06	1.0303e-06	1132.5	221.74	1.0771e-06	1.0214e-06	272.62	79.051	62.139	18.242	1.0499e-06	25.377	249.796	227.441	211.918	167.965	293.790	213.800	167.933	175.281	326.613	324.752	175.084	181.335	182.443	189.512	350.126	188.591	-8191	255	
2918.406	1	1	0	0	0.20027	0.33116	0.1611	0.087653	0.28292	0.13859	0.42812	0.14229	0.15331	0.16176	0.13341	0.20019	0.067986	0.12462	0.1055	0.061412	-2.1458	-3.3479	-3.2021	-2.6292	-3.3083	-2.5583	-2.9667	-3.4354	-2.7417	-3.1188	-3.2583	-2.5	-3.3833	-2.7958	-2.8646	-3.5146	428.653	222.381	298.963	503.046	396.720	238.482	457.430	506.394	315.157	257.265	483.886	429.546	333.115	271.873	342.596	476.785	0.00029263	3.6509e-05	0.00012624	1070.7	3.4804e-06	6.5139e-06	1170.8	228.28	2.8301e-06	2.0798e-06	285.34	81.263	64.097	18.565	3.109e-06	25.976	0.00010352	9.346e-05	2.7159e-05	1035.7	1.0668e-06	1.0137e-06	1135	221.64	1.0601e-06	1.0292e-06	272.77	79.132	62.066	18.324	1.0533e-06	25.384	255.044	462.324	269.191	167.786	284.101	269.875	168.018	175.551	287.715	247.276	175.157	181.665	182.162	189.143	293.496	188.936	-8191	255	
2918.502	1	1	0	0	0.30772	0.14362	0.2487	0.17178	0.099423	0.077837	0.1897	0.23362	0.07892	0.14365	0.069099	0.1079	0.10087	0.14443	0.20798	0.10834	-2.0458	-3.0875	-3.1542	-2.8917	-3.3625	-2.8833	-2.7771	-3.3896	-2.5396	-2.8812	-3.3396	-2.5083	-3.375	-2.975	-2.7771	-3.4979	317.119	356.901	187.000	470.779	353.957	186.345	447.733	168.516	288.966	299.712	413.212	467.538	423.596	257.904	404.703	426.974	0.00026115	0.00022962	6.9707e-05	1082	2.0842e-06	2.4879e-06	1168	228.42	2.7816e-06	1.4145e-06	284.67	81.529	64	18.435	2.364e-06	25.909	0.00010361	9.4363e-05	2.5775e-05	1039.5	1.0426e-06	1.0092e-06	1131.6	221.38	1.0368e-06	1.0314e-06	272.71	79.166	62.049	18.287	1.054e-06	25.347	254.040	272.051	215.404	168.007	334.452	275.394	168.008	175.401	263.965	357.059	175.083	181.837	182.213	189.699	277.199	188.782	-8191	255	
2918.598	1	1	0	0	0.12977	0.22855	0.16336	0.2977	0.1434	0.096775	0.21171	0.23178	0.14822	0.20113	0.17691	0.10131	0.25335	0.10046	0.20977	0.22401	-2.3771	-2.9042	-3.3167	-2.6896	-3.4125	-2.8479	-2.9521	-3.4125	-2.7979	-2.9313	-3.3979	-2.5833	-3.3479	-3.0542	-2.6417	-3.4208	301.994	488.126	225.347	507.287	482.390	391.808	456.006	445.583	380.553	336.613	447.415	266.696	287.340	498.337	203.612	485.257	0.00026806	0.00030063	0.00010925	1073	3.9959e-06	2.8753e-06	1172.4	227.35	1.1503e-06	2.4796e-06	289.25	81.446	64.191	18.487	2.6302e-06	25.96	0.00010171	9.3447e-05	2.6697e-05	1037.6	1.0594e-06	1.0196e-06	1134.5	221.51	1.0715e-06	1.0156e-06	273.29	79.381	62.075	18.287	1.0425e-06	25.418	252.722	194.923	252.232	167.823	294.195	324.033	167.924	175.430	277.868	316.001	174.836	181.908	182.192	189.623	364.434	188.999	-8191	255	
2918.695	1	1	0	0	0.04217	0.24528	0.08977	0.22236	0.03924	0.15998	0.016814	0.1486	0.23064	0.23109	0.31898	0.053443	0.13729	0.058332	0.16108	0.20368	-2.4792	-2.9	-3.4146	-2.7167	-3.2042	-3.1625	-2.8438	-3.5125	-2.7104	-2.7167	-3.425	-2.6208	-3.1521	-3.2542	-2.5812	-3.2979	226.296	447.061	462.479	473.053	214.925	162.673	452.583	379.411	360.699	191.805	432.514	417.567	240.154	296.882	434.142	165.059	0.000265	0.00030162	7.2656e-05	1076.6	6.4134e-06	5.3913e-06	1177.4	227.63	2.4057e-06	1.4319e-06	286.82	81.216	64.323	18.522	1.153e-06	26.033	0.00010296	9.4436e-05	2.5613e-05	1037.6	1.0614e-06	1.0026e-06	1134.2	221.59	1.0256e-06	1.0406e-06	272.09	79.278	62.151	18.285	1.0277e-06	25.494	249.310	274.185	231.075	168.029	299.944	264.089	167.970	175.219	283.172	314.549	175.321	181.518	182.267	189.541	298.254	188.769	-8191	255	
2918.815	1	1	0	0	0.18272	0.26043	0.083575	0.17577	0.1074	0.26189	0.16055	0.049599	0.12882	0.20623	0.21649	0.13959	0.029191	0.10285	0.2283	0.29328	-2.6021	-2.6792	-3.55	-2.7021	-3.0146	-3.2687	-2.7062	-3.3125	-2.8708	-2.75	-3.5542	-2.7542	-3.0625	-3.4042	-2.6521	-3.2667	189.315	292.116	200.714	169.220	412.371	376.336	324.563	423.428	336.264	369.466	445.888	234.340	339.013	212.863	377.260	262.747	0.00025015	0.00017741	6.0801e-05	1081.6	5.5666e-06	3.6068e-06	1169.2	228.64	3.7562e-06	6.8184e-07	288.18	81.649	64.202	18.558	2.5434e-06	25.894	0.00010218	9.2977e-05	2.6234e-05	1039.1	1.0363e-06	1.0092e-06	1133.9	221.73	1.0729e-06	1.0006e-06	272.65	79.253	62.318	18.275	1.0175e-06	25.438	248.703	250.688	504.621	167.794	291.868	258.006	167.988	175.626	316.672	305.484	175.319	181.289	182.177	189.685	297.052	188.645	-8191	255	
2918.887	1	1	0	0	0.19658	0.32827	0.13152	0.10837	0.24261	0.15605	0.21483	0.12338	0.20726	0.086493	0.084109	0.35798	0.11898	0.16683	0.21075	0.12155	-2.6	-2.6437	-3.3833	-2.9313	-3.0375	-3.4271	-2.6188	-3.4	-3.1375	-2.6	-3.5646	-2.9021	-3.0271	-3.3167	-2.5812	-3.3125	513.934	349.285	243.691	374.010	263.405	506.310	446.177	510.003	489.369	160.056	261.749	232.676	501.179	503.829	172.303	240.419	0.00025865	0.00033496	8.5564e-05	1081.6	2.5813e-06	1.1074e-06	1171.1	228.96	2.5588e-06	2.2914e-06	286.48	81.107	64.038	18.757	1.6641e-06	25.888	0.00010314	9.261e-05	2.5562e-05	1040.1	1.0669e-06	1.0024e-06	1133.9	222.08	1.0348e-06	1.0244e-06	272.9	79.178	62.106	18.336	1.0511e-06	25.426	255.698	272.736	224.207	167.625	252.302	299.393	168.032	175.594	280.945	300.488	175.078	181.907	182.361	189.351	273.791	188.744	-8191	255	
2918.983	1	1	0	0	0.23391	0.051032	0.055666	0.17021	0.058693	0.24391	0.204	0.23041	0.17502	0.17325	0.13522	0.15953	0.17801	0.15176	0.14952	0.17537	-3	-2.5042	-3.4792	-2.9208	-2.9562	-3.5146	-2.7292	-3.2083	-3.2042	-2.5917	-3.5521	-2.8875	-2.8833	-3.4375	-2.6833	-3.1042	301.019	377.134	379.967	479.446	234.849	246.787	172.501	218.836	422.297	191.111	161.754	516.531	194.124	410.123	431.211	315.365	0.00026708	0.00031235	8.8396e-05	1078.9	3.7528e-06	1.4273e-06	1171.8	228.79	1.5821e-06	3.4579e-06	287.7	81.45	64.061	18.62	1.466e-07	25.964	9.9597e-05	9.4623e-05	2.5481e-05	1038.9	1.0506e-06	1.0007e-06	1134.4	221.29	1.0241e-06	1.0188e-06	272.33	79.287	62.182	18.334	1.0515e-06	25.406	249.328	217.475	229.452	167.711	317.134	353.964	167.925	175.457	235.924	274.797	174.952	181.682	182.479	188.843	326.949	188.710	-8191	255	
2919.104	1	1	0	0	0.19825	0.079404	0.12632	0.15631	0.31992	0.083933	0.233	0.2308	0.13522	0.11353	0.26799	0.24396	0.31389	0.069923	0.13573	0.21105	-2.9583	-2.6229	-3.3583	-2.9958	-2.7542	-3.4562	-2.9167	-3.0438	-3.3146	-2.4875	-3.2125	-2.9521	-2.7917	-3.5062	-2.8854	-3.0583	165.231	217.511	275.073	180.521	408.525	446.618	494.730	461.773	182.047	164.257	472.755	467.269	198.265	422.306	426.063	306.683	0.00023607	0.00011005	0.00012007	1074.9	2.1646e-06	1.574e-06	1173.6	228.66	3.5299e-06	2.0943e-06	286.89	81.432	63.59	18.629	3.8705e-06	26.128	0.00010021	9.304e-05	2.5801e-05	1038.6	1.0252e-06	1.0159e-06	1135.4	221.87	1.0251e-06	1.0279e-06	272.91	79.244	62.052	18.32	1.0263e-06	25.472	253.740	412.383	265.430	167.566	268.546	334.723	167.664	175.414	277.820	340.203	174.808	181.596	182.304	188.885	292.439	188.811	-8191	255	
2919.198	1	1	0	0	0.038102	0.13271	0.31392	0.15533	0.27635	0.1389	0.04678	0.19323	0.15667	0.35058	0.12433	0.073205	0.046275	0.18876	0.078202	0.20001	-2.9229	-2.5417	-3.2917	-3.2146	-2.5687	-3.3896	-2.9771	-3.0292	-3.2958	-2.5771	-3.2896	-3.2604	-2.6562	-3.3438	-2.7542	-2.7542	439.474	317.074	230.983	403.483	410.882	427.717	243.868	452.156	465.049	371.664	296.885	403.886	172.750	239.318	294.847	417.762	0.00022615	0.00042199	1.6792e-05	1082.3	2.5509e-06	2.4322e-06	1164.9	229.32	3.1509e-06	2.047e-06	286.43	81.264	63.906	18.595	1.7255e-06	25.961	0.0001026	9.2532e-05	2.5762e-05	1038.9	1.0417e-06	9.9734e-07	1134.6	222.54	1.0187e-06	1.0089e-06	272.38	79.124	62.001	18.285	1.0315e-06	25.427	238.086	206.982	186.500	167.537	317.663	198.091	167.631	175.374	325.305	317.867	175.311	181.569	182.162	189.649	259.282	188.451	-8191	255	
2919.294	1	1	0	0	0.26702	0.13178	0.31822	0.17889	0.11564	0.24542	0.23826	0.091517	0.067683	0.25147	0.18437	0.13905	0.085547	0.039406	0.291	0.10937	-3.0104	-2.625	-3.0542	-3.3521	-2.7	-3.375	-3.1521	-2.8479	-3.4188	-2.6667	-3.2125	-3.2271	-2.5125	-3.3937	-2.8458	-2.7729	249.551	377.597	259.544	489.534	179.722	397.426	432.519	341.062	427.412	313.047	187.347	210.777	440.356	388.553	440.567	467.355	0.0002555	0.00014852	5.1194e-05	1077.8	2.4387e-06	4.5063e-06	1171.5	228.68	2.4711e-06	2.9099e-06	289.38	81.338	64.273	18.623	2.4802e-06	26.126	0.0001005	9.4168e-05	2.5249e-05	1037.6	1.0357e-06	1.0138e-06	1135	221.73	1.0288e-06	1.0159e-06	272.63	79.293	62.225	18.336	1e-06	25.484	251.235	172.784	269.111	167.844	308.483	294.869	167.842	175.385	260.048	321.653	175.353	181.295	182.131	189.432	339.147	189.442	-8191	255	
2919.390	1	1	0	0	0.027996	0.13028	0.14647	0.2786	0.15709	0.071382	0.15329	0.053611	0.10264	0.063793	0.32461	0.13328	0.19633	0.1811	0.16087	0.076954	-2.8563	-2.6708	-3.0542	-3.4188	-2.6042	-3.1667	-3.0229	-2.95	-3.3167	-2.7479	-3.0104	-3.4271	-2.3563	-3.2188	-3.0854	-2.5062	277.805	188.619	385.270	509.783	466.096	483.121	501.301	302.412	445.660	178.281	267.365	442.119	175.731	451.756	396.031	240.830	0.00026399	0.00020084	9.4035e-05	1076.1	2.9417e-06	9.3415e-07	1172.5	228.49	1.1004e-06	2.8827e-06	286.66	81.547	64.372	18.606	1.9965e-06	25.964	0.00010068	9.2206e-05	2.632e-05	1038.3	1.0467e-06	1.0125e-06	1132.5	222.03	1.028e-06	1.0299e-06	272.33	79.184	62.1	18.296	1.0194e-06	25.452	250.168	223.864	273.943	167.689	279.466	180.722	167.785	175.471	320.298	317.543	175.369	181.837	181.979	189.444	440.836	188.764	-8191	255	
2919.511	1	1	0	0	0.17536	0.17393	0.030419	0.12521	0.090245	0.1111	0.13525	0.24104	0.037932	0.23175	0.04453	0.041951	0.21607	0.044741	0.11624	0.22658	-2.9896	-2.6562	-2.9313	-3.3833	-2.3458	-3.2375	-3.1792	-2.7729	-3.2792	-2.7958	-2.8333	-3.4854	-2.7104	-3.1646	-3.3708	-2.5542	481.466	176.515	413.086	457.725	290.840	346.633	288.248	387.806	255.865	191.681	374.458	229.148	382.589	241.297	196.280	325.260	0.00027156	0.00014073	4.4e-05	1072.2	4.9089e-06	2.4884e-06	1168.2	227.91	3.5474e-06	5.2623e-06	286.83	81.206	63.956	18.505	2.4548e-06	26.044	0.00010203	9.3761e-05	2.5521e-05	1035.8	1.0474e-06	1.0354e-06	1133.1	221.7	1.0523e-06	1.0075e-06	272.84	79.226	62.092	18.29	1.0262e-06	25.395	248.170	298.755	265.958	167.889	331.004	290.550	167.981	175.068	273.858	297.575	175.204	181.528	182.265	189.361	341.581	188.984	-8191	255	
2919.583	1	1	0	0	0.13617	0.083545	0.17078	0.023859	0.14808	0.1357	0.065044	0.22224	0.12169	0.17939	0.068105	0.22367	0.20268	0.30013	0.076441	0.07171	-3.0104	-2.9229	-2.8229	-3.3917	-2.5417	-3.0583	-3.2604	-2.7208	-3.0729	-2.9021	-2.9521	-3.3521	-2.7896	-2.9792	-3.1854	-2.7146	472.886	386.384	193.736	423.991	172.244	227.904	468.209	481.381	440.298	271.416	466.387	504.717	490.558	338.594	214.974	434.949	0.00025919	0.00022992	4.4474e-05	1079.9	5.8152e-06	2.748e-06	1163.9	228.74	2.1578e-06	3.5489e-06	285.63	81.565	63.541	18.46	1.3172e-06	26.104	0.00010113	9.4004e-05	2.5795e-05	1040	1.0475e-06	1.0324e-06	1131.1	221.72	1.0204e-06	1.0296e-06	272.4	79.326	61.984	18.257	1.0379e-06	25.465	254.717	296.566	232.794	167.668	306.387	260.219	167.291	175.007	341.729	335.860	174.665	181.196	181.828	189.248	164.411	188.582	-8191	255	
2919.679	1	1	0	0	0.38688	0.035889	0.092605	0.022337	0.30786	0.2351	0.23532	0.12153	0.12378	0.15087	0.13153	0.021056	0.13237	0.098229	0.20373	0.20624	-2.6813	-2.8937	-2.625	-3.4375	-2.725	-3.0062	-3.3792	-2.7687	-3.175	-2.9646	-2.7396	-3.4188	-2.8063	-2.9313	-3.4437	-2.825	310.546	169.370	177.670	482.396	200.247	398.704	466.744	427.629	420.643	289.313	379.316	181.995	399.094	348.682	411.262	184.624	0.00025389	0.00032576	8.7069e-05	1077.7	1.7632e-06	3.4319e-06	1176.5	228.65	3.8609e-06	3.1986e-06	288.07	81.183	64.205	18.544	2.8547e-06	25.734	0.00010421	9.2383e-05	2.6212e-05	1037.5	1.0295e-06	1.0385e-06	1134.2	221.64	1.0417e-06	1.0285e-06	273.25	79.151	62.098	18.294	1.0426e-06	25.327	250.457	229.805	259.297	167.167	301.055	283.651	167.315	174.843	262.234	397.008	174.698	181.456	181.655	188.726	303.240	188.677	-8191	255	
2919.775	1	1	0	0	0.043001	0.10218	0.35999	0.20642	0.20871	0.19799	0.16296	0.11118	0.163	0.031515	0.09336	0.17933	0.12871	0.18676	0.13433	0.25562	-2.8042	-3.2229	-2.5938	-3.5	-2.8479	-2.6375	-3.55	-2.6	-3.1146	-3.4792	-2.7812	-3.5292	-2.8	-2.8563	-3.5333	-2.7125	410.858	211.313	235.672	455.956	421.163	302.320	484.353	493.143	164.131	473.816	302.166	475.430	387.424	441.293	402.785	445.969	0.00025892	0.00011565	7.3455e-05	1077.4	3.2616e-06	1.0036e-06	1165.7	228.2	1.699e-06	7.2998e-07	287.93	81.105	63.575	18.492	1.7757e-06	25.8	0.00010256	9.2661e-05	2.6059e-05	1038.5	1.0695e-06	1.0201e-06	1132.6	221.65	1.0454e-06	1.0141e-06	273.01	79.266	61.973	18.257	1.0265e-06	25.37	245.721	170.031	231.584	167.585	284.947	297.693	167.752	174.834	289.504	376.674	174.451	181.310	182.156	189.116	310.581	188.564	-8191	255	
2919.896	1	1	0	0	0.088588	0.2196	0.092107	0.21945	0.30827	0.11042	0.18296	0.21567	0.033681	0.14124	0.1652	0.05913	0.22081	0.088578	0.08324	0.040613	-2.6063	-3.1833	-2.5729	-3.5167	-2.8937	-2.7833	-3.5292	-2.5854	-3.0479	-3.4125	-2.5729	-3.3667	-2.9604	-2.7833	-3.3854	-2.6396	319.481	232.841	287.786	449.587	224.492	237.633	441.357	327.493	413.176	281.839	479.980	162.141	161.468	234.710	509.343	203.272	0.00027567	0.00018647	3.1613e-05	1080.8	5.7685e-06	2.5618e-06	1166.1	228.04	2.3411e-06	2.4413e-06	285.63	81.424	63.588	18.596	4.8731e-07	26.05	0.00010049	9.0906e-05	2.6564e-05	1037.7	1.0619e-06	1.0264e-06	1132	221.68	1.0349e-06	1.013e-06	273.02	79.142	61.882	18.27	1.0421e-06	25.32	245.447	285.215	195.501	167.683	298.623	293.896	167.661	175.039	238.557	292.292	174.937	181.671	181.816	189.128	188.763	188.470	-8191	255	
2919.992	1	1	0	0	0.14985	0.11779	0.12769	0.27815	0.28814	0.26422	0.10305	0.22271	0.076582	0.049876	0.21298	0.13978	0.095122	0.079886	0.12028	0.085894	-2.5167	-3.275	-2.4958	-3.3438	-3.075	-2.6208	-3.5312	-2.9021	-2.7854	-3.375	-2.8333	-3.1979	-3.1604	-2.5687	-3.3167	-2.9938	312.435	303.328	349.096	439.221	272.961	404.591	405.692	410.235	196.171	425.740	468.753	416.526	363.547	392.041	195.070	306.629	0.00023883	0.00041339	7.1957e-05	1074.2	2.2193e-06	2.0307e-06	1175	227.91	9.4976e-07	3.4923e-06	285.77	81.443	63.454	18.529	3.3952e-06	25.811	0.00010227	9.4666e-05	2.6422e-05	1036.6	1.05e-06	1.029e-06	1133.2	221.34	1.0601e-06	1.0342e-06	271.98	79.286	62.045	18.277	1.0251e-06	25.382	246.280	255.741	228.465	167.657	330.633	312.780	167.454	174.989	382.234	325.660	175.084	181.830	181.980	189.449	325.647	188.672	-8191	255	
2920.088	1	1	0	0	0.086206	0.26052	0.13574	0.29361	0.11271	0.1735	0.17191	0.20734	0.10876	0.19467	0.21606	0.11408	0.27187	0.18786	0.21128	0.25362	-2.4042	-3.4354	-2.5687	-3.2583	-3.3042	-2.5729	-3.5125	-2.9333	-2.5417	-3.5375	-2.8	-3.2083	-3.2979	-2.6333	-3.4396	-2.975	505.291	228.001	297.040	459.865	174.626	267.686	161.498	165.853	362.183	358.825	403.284	482.753	493.723	436.701	258.103	409.302	0.0002689	0.00026743	4.2393e-05	1077.1	4.5808e-06	2.8655e-06	1169.1	227.42	4.0372e-06	4.2465e-06	288.65	80.732	64.325	18.627	2.4129e-06	26.075	0.00010315	9.4256e-05	2.6596e-05	1036.1	1.0442e-06	1.029e-06	1132.3	221.53	1.0455e-06	1.0244e-06	273.56	79.083	62.148	18.303	1.0395e-06	25.38	251.508	233.335	245.673	167.889	347.049	183.992	167.670	174.857	291.035	252.541	174.428	181.425	181.858	189.003	307.756	188.648	-8191	255	
2920.184	1	1	0	0	0.13209	0.09126	0.11694	0.17283	0.073939	0.17458	0.26321	0.18612	0.071727	0.10701	0.25193	0.083854	0.20478	0.098308	0.35626	0.063629	-2.4021	-3.4375	-2.575	-3.0146	-3.4	-2.5479	-3.5333	-2.9896	-2.6937	-3.4521	-2.8375	-3.1354	-3.4083	-2.4958	-3.475	-3.0687	432.315	252.089	381.326	253.099	501.315	378.728	444.154	204.434	325.849	369.165	417.801	343.339	185.053	216.859	273.552	159.431	0.00024283	0.00014656	0.00012916	1075.5	4.8921e-06	6.0396e-07	1171.7	230.21	8.0597e-07	2.0606e-06	287.49	80.794	63.95	18.635	8.3877e-07	25.636	0.00010397	9.436e-05	2.6127e-05	1037.1	1.069e-06	1.0067e-06	1132.6	222.19	1.0213e-06	1.0368e-06	272.93	79.074	62.064	18.275	1.0438e-06	25.283	258.616	249.237	265.891	167.516	290.374	262.796	167.787	174.752	316.698	250.160	175.040	181.610	182.065	189.001	296.895	188.592	-8191	255	
2920.278	1	1	0	0	0.19704	0.2442	0.089116	0.047758	0.38412	0.26555	0.18523	0.017802	0.040904	0.12795	0.024764	0.23663	0.2936	0.2786	0.1629	0.19201	-2.1688	-3.5125	-2.775	-2.9375	-3.4375	-2.6937	-3.3146	-3.1896	-2.6854	-3.3625	-2.8812	-2.7792	-3.5083	-2.6021	-3.1729	-3.3688	240.484	162.369	478.051	424.951	516.198	322.787	483.299	307.308	516.657	421.984	417.766	457.827	509.631	166.991	468.487	399.398	0.00026362	0.00011101	0.00010994	1073.1	2.2449e-06	1.7672e-06	1170	228.47	6.3794e-06	2.6379e-06	288.53	81.16	64.094	18.529	2.927e-06	25.932	0.00010409	9.3905e-05	2.6331e-05	1036.1	1.0533e-06	1.0323e-06	1132.1	221.66	1.0666e-06	1.016e-06	272.74	79.272	62.066	18.243	1.0568e-06	25.344	252.059	271.306	267.412	167.815	335.670	312.707	167.711	175.162	304.360	296.542	174.444	181.320	181.594	189.129	362.388	188.588	-8191	255	
2920.375	1	1	0	0	0.37286	0.21067	0.10133	0.10993	0.13335	0.33317	0.11787	0.23602	0.009347	0.19705	0.19035	0.23337	0.013435	0.043297	0.18216	0.071671	-2.1667	-3.1458	-2.7521	-2.8063	-3.4354	-2.4604	-3.2208	-3.3292	-2.45	-3.375	-3.0229	-2.7938	-3.4229	-2.5104	-2.8729	-3.3375	414.255	440.392	197.425	500.880	429.834	458.391	403.789	478.324	230.651	266.157	448.211	441.679	403.145	216.689	307.750	159.671	0.00021688	0.00019337	7.0039e-05	1076.6	3.3754e-06	1.2026e-06	1170.7	228.22	3.9328e-06	2.9537e-06	287.66	81.12	63.913	18.598	3.8573e-06	25.848	0.00010173	9.2396e-05	2.5713e-05	1036.9	1.0537e-06	1.0156e-06	1132.3	221.59	1.06e-06	1.0429e-06	272.84	79.174	62.011	18.305	1.051e-06	25.321	239.851	379.549	350.072	168.003	360.908	238.487	167.779	174.987	296.440	288.642	174.959	181.502	182.619	189.242	326.500	188.492	-8191	255	
2920.495	1	1	0	0	0.16294	0.22878	0.1647	0.20345	0.18203	0.23236	0.14106	0.084377	0.048175	0.21435	0.22524	0.20012	0.21763	0.19206	0.15244	0.25626	-2.1521	-3.1896	-3	-2.8229	-3.5104	-2.7354	-3.1042	-3.6104	-2.7542	-3.1396	-3.1521	-2.6	-3.3479	-2.7833	-2.7979	-3.3333	358.707	322.752	235.417	491.601	270.454	207.693	392.525	490.341	266.323	285.203	406.652	202.385	171.280	170.150	390.362	203.416	0.00020858	0.00037944	7.5174e-05	1074.2	3.4815e-06	1.1717e-06	1171.4	228.05	3.7413e-06	2.2266e-06	288.97	81.626	64.358	18.54	2.1634e-06	25.952	0.00010131	9.3882e-05	2.5551e-05	1035.9	1.0314e-06	1.008e-06	1134.2	221.6	1.0459e-06	1.0095e-06	273.1	79.276	62.099	18.288	1.0223e-06	25.359	235.720	255.905	270.967	167.593	299.384	181.538	167.748	175.017	278.745	358.758	174.524	181.596	181.856	189.351	387.891	188.788	-8191	255	
2920.591	1	1	0	0	0.080514	0.19117	0.024178	0.10297	0.1447	0.13111	0.3141	0.054535	0.10434	0.074429	0.0596	0.089827	0.19746	0.11911	0.1796	0.19709	-2.0521	-3.1479	-3.0729	-2.7854	-3.4833	-2.8979	-3.0625	-3.5292	-2.525	-3.2208	-3.1937	-2.5042	-3.5083	-2.7687	-2.6417	-3.5062	263.340	209.895	414.474	208.802	244.058	217.791	484.780	350.082	389.564	182.311	289.162	250.451	488.784	428.668	189.754	236.990	0.00025019	0.00031463	2.5286e-05	1077.2	3.5392e-06	3.1308e-06	1172.4	227.93	3.9516e-06	2.8036e-06	287.23	80.731	64.027	18.56	2.3838e-06	25.892	0.00010285	9.1726e-05	2.5637e-05	1037.5	1.0473e-06	1.0164e-06	1134.4	221.94	1.039e-06	1.0205e-06	272.27	78.973	61.974	18.259	1.006e-06	25.376	252.781	257.525	191.824	167.558	314.015	258.133	167.680	174.972	305.463	305.150	174.650	181.464	181.867	189.271	329.602	188.435	-8191	255	
2920.688	1	1	0	0	0.15508	0.21231	0.15994	0.2368	0.041553	0.18357	0.074002	0.081815	0.16214	0.018967	0.17879	0.038475	0.15697	0.26438	0.055699	0.25591	-2.3063	-3.0625	-3.25	-2.625	-3.2938	-2.8812	-2.6479	-3.3729	-2.5021	-3.0375	-3.2958	-2.6896	-3.3292	-3.2188	-2.5604	-3.5354	183.652	479.144	280.582	512.763	186.424	415.675	470.085	455.447	460.770	515.917	466.127	445.418	254.183	171.822	254.553	488.428	0.00026126	0.00015491	9.2703e-05	1070.7	5.7874e-07	9.5362e-07	1172.4	228.36	3.3125e-06	3.3597e-06	287.36	80.886	64.142	18.664	2.3009e-06	26.094	0.0001034	9.3076e-05	2.5705e-05	1036	1.0329e-06	1.0141e-06	1134.1	221.7	1.0216e-06	1.0025e-06	273.03	79.095	62.173	18.295	1.0453e-06	25.435	254.531	197.161	225.136	167.729	278.557	203.836	168.180	175.114	289.983	321.319	174.406	181.693	182.416	189.157	396.178	189.011	-8191	255	
2920.808	1	1	0	0	0.027854	0.19825	0.14338	0.16568	0.25551	0.2231	0.20115	0.14585	0.092777	0.12988	0.090926	0.23376	0.20757	0.0098305	0.099967	0.043731	-2.2104	-2.7021	-3.3792	-2.7917	-3.3146	-3.175	-2.8937	-3.4188	-2.7375	-2.9146	-3.4396	-2.7021	-3.0229	-3.2687	-2.4271	-3.4583	206.681	175.196	478.399	178.350	271.932	159.979	431.954	192.753	508.928	242.969	268.983	407.796	451.033	306.070	481.150	449.272	0.00027018	0.00016545	0.00012303	1077	3.0614e-06	1.0054e-06	1168.7	228.98	2.1363e-06	9.6161e-07	289.38	81.42	63.55	18.592	7.6e-07	25.739	0.00010114	9.1971e-05	2.5622e-05	1036.3	1.0479e-06	1.0136e-06	1131.5	221.74	1.0333e-06	1.024e-06	273.11	79.296	62.043	18.278	1.0366e-06	25.376	258.291	192.145	230.218	167.827	297.593	503.599	167.849	175.369	330.420	356.943	175.105	181.886	182.004	189.313	201.581	188.586	-8191	255	
2920.880	1	1	0	0	0.12145	0.15311	0.073611	0.16053	0.086461	0.10395	0.1511	0.17693	0.037266	0.1091	0.060933	0.18883	0.12631	0.028713	0.23694	0.089812	-2.5812	-2.7562	-3.3229	-2.8479	-3.2271	-3.2042	-2.9167	-3.4042	-2.8854	-2.8833	-3.5625	-2.7771	-3.1021	-3.2333	-2.4313	-3.4271	381.279	348.418	397.776	438.107	236.643	425.022	393.940	377.730	424.001	306.197	305.652	516.363	438.117	490.053	177.562	397.795	0.00024696	0.00018474	2.5781e-05	1077	1.4942e-06	2.7755e-06	1169.1	228.56	2.2643e-06	4.658e-06	286.8	81.771	64.088	18.705	2.3279e-06	25.58	0.00010029	9.4183e-05	2.5539e-05	1036.8	1.0344e-06	9.8133e-07	1132.9	221.83	1.0358e-06	1.0264e-06	272.32	79.484	62.194	18.341	1.0458e-06	25.321	255.604	253.952	504.192	167.862	280.899	316.006	167.906	175.435	299.227	328.190	175.069	181.671	182.294	189.106	317.977	188.622	-8191	255	
2920.974	1	1	0	0	0.25351	0.19377	0.091545	0.091554	0.21626	0.096233	0.24845	0.1013	0.23955	0.17375	0.18136	0.17874	0.15515	0.14152	0.13248	0.14325	-2.5979	-2.6688	-3.3979	-2.7521	-2.9646	-3.3292	-2.8729	-3.3708	-2.9875	-2.4938	-3.5229	-2.6354	-2.9104	-3.3542	-2.6437	-3.1813	362.291	293.747	188.539	237.573	421.333	416.028	468.555	237.209	449.123	251.334	235.975	494.312	397.578	160.621	452.577	425.197	0.00025602	0.00022013	0.0001025	1075	2.2653e-06	1.0323e-06	1171	228.28	4.755e-06	3.5034e-06	286.01	80.966	64.657	18.648	3.314e-06	25.927	0.00010231	9.5005e-05	2.5691e-05	1036.5	1.0615e-06	1.0065e-06	1133	221.75	1.0222e-06	1.0168e-06	272.61	79.052	62.309	18.294	1.0479e-06	25.372	255.966	276.866	257.716	167.675	247.725	291.056	168.161	175.344	275.323	301.015	175.094	181.756	182.689	189.916	340.236	188.939	-8191	255	
2921.070	1	1	0	0	0.14165	0.31485	0.1806	0.16846	0.21134	0.1002	0.32461	0.16456	0.19925	0.063565	0.0921	0.14052	0.14413	0.088949	0.063758	0.18152	-2.7021	-2.6021	-3.3208	-2.8208	-3.0938	-3.3937	-2.8625	-3.2833	-3.3083	-2.6292	-3.4437	-3.0292	-2.875	-3.5479	-2.5458	-3.2687	506.809	287.260	298.201	428.787	237.920	364.179	429.566	382.279	341.249	350.053	376.369	258.413	306.202	424.945	215.725	445.038	0.00026359	5.9188e-05	0.00012458	1074.7	1.9545e-06	1.1046e-06	1170.6	228.98	3.0672e-06	2.6777e-06	286.77	80.802	63.967	18.534	1.2123e-06	25.936	0.00010148	9.3604e-05	2.6463e-05	1037.2	1.0431e-06	1.0025e-06	1132.8	221.72	1.0252e-06	1.0315e-06	272.78	79.044	61.944	18.273	1.0337e-06	25.359	249.242	349.066	215.926	168.042	287.403	231.679	167.887	175.341	310.190	316.062	174.912	181.939	182.490	189.291	261.507	188.929	-8191	255	
2921.191	1	1	0	0	0.12034	0.2579	0.015926	0.16181	0.11524	0.09029	0.061553	0.095565	0.10025	0.11847	0.066447	0.20869	0.18873	0.35048	0.11231	0.19122	-2.8104	-2.5375	-3.475	-3.1042	-2.7146	-3.4021	-2.8104	-2.9437	-3.0583	-2.325	-3.3333	-3.0479	-2.7854	-3.4417	-2.7	-2.8729	395.782	416.188	161.339	440.441	249.834	512.165	181.659	281.743	473.499	289.345	410.949	429.909	418.796	367.486	342.219	305.309	0.00025332	0.00018857	5.9741e-05	1073.1	3.8709e-06	2.5967e-06	1173	228.85	1.63e-06	1.5132e-06	289.45	81.021	64.156	18.603	2.9481e-06	25.799	0.00010171	9.3296e-05	2.5649e-05	1036.5	1.0713e-06	1.0372e-06	1133.4	221.88	1.0358e-06	1.035e-06	273.99	79.04	62.196	18.304	1.0304e-06	25.432	244.734	261.389	265.548	167.827	267.609	278.179	167.887	175.165	220.713	274.141	175.049	181.583	182.336	189.156	377.267	188.910	-8191	255	
2921.287	1	1	0	0	0.26643	0.059551	0.067031	0.15494	0.064597	0.19605	0.095631	0.24307	0.068194	0.12202	0.25668	0.31814	0.12568	0.12185	0.10123	0.13182	-2.9958	-2.3771	-3.2979	-3.0646	-2.5271	-3.4375	-3.0042	-3.0812	-3.2729	-2.6104	-3.2625	-3.3	-2.725	-3.4375	-2.9125	-3.0729	454.615	491.877	302.336	175.556	481.288	263.880	351.104	369.276	242.680	509.746	513.881	319.337	448.609	332.845	281.299	324.286	0.0002237	0.00013861	4.4151e-05	1081.2	4.1849e-06	3.1441e-06	1174.4	228.43	2.8056e-06	1.3999e-06	286.44	81.006	63.997	18.567	2.0326e-06	25.922	0.00010296	9.4777e-05	2.6212e-05	1039.7	1.0606e-06	1.0297e-06	1134.1	221.74	1.0515e-06	1.0301e-06	272.6	79.07	62.14	18.289	1.0477e-06	25.399	249.186	182.499	240.662	167.975	306.331	277.071	168.253	175.840	316.826	351.269	175.570	181.681	182.733	189.635	334.683	188.824	-8191	255	
2921.383	1	1	0	0	0.077214	0.19124	0.053552	0.18085	0.3117	0.026584	0.22425	0.23759	0.069237	0.29154	0.084896	0.1057	0.20509	0.094896	0.077425	0.34611	-2.8333	-2.5854	-3.1583	-3.2479	-2.7396	-3.4625	-3.0896	-3.0083	-3.3312	-2.5375	-3.0396	-3.2354	-2.6688	-3.5083	-2.8271	-2.8271	459.619	201.834	212.861	493.554	199.694	321.740	446.530	493.513	216.174	517.191	445.245	517.187	501.864	480.495	423.574	249.130	0.00023739	0.00020449	6.0566e-05	1082.7	4.5716e-06	4.0085e-06	1170.6	227.46	4.0705e-06	1.0779e-06	287.14	81.319	64.149	18.62	2.5381e-06	26.159	0.00010088	9.3948e-05	2.5727e-05	1040.6	1.0442e-06	1.0369e-06	1133.3	221.48	1.0588e-06	1.0416e-06	272.49	79.272	62.213	18.325	1.0457e-06	25.406	248.202	209.820	275.608	167.882	289.044	274.198	168.136	175.782	301.585	352.770	174.929	181.517	182.590	189.610	237.121	188.810	-8191	255	
2921.455	1	1	0	0	0.11779	0.15601	0.11685	0.19083	0.10333	0.18516	0.19955	0.11561	0.15628	0.092924	0.066352	0.24379	0.074511	0.25956	0.061462	0.076207	-3.1479	-2.6562	-3.1708	-3.4833	-2.6583	-3.4542	-3.0708	-2.7896	-3.3792	-2.6375	-3.0646	-3.3688	-2.6375	-3.4062	-3.0875	-2.7917	516.690	395.815	307.978	487.450	469.473	472.427	443.045	360.763	259.768	415.579	479.194	401.513	485.170	451.889	170.794	399.614	0.00025655	0.00017685	0.0001003	1076.2	6.561e-07	2.8406e-06	1174.3	227.8	2.0672e-06	2.6012e-06	287.75	80.993	64.402	18.638	7.6757e-07	26.036	0.00010256	9.525e-05	2.6437e-05	1038.8	1.0635e-06	1.0398e-06	1133.3	221.72	1.0639e-06	1.0508e-06	273.18	79.11	62.169	18.272	1.0608e-06	25.336	253.549	223.185	277.173	168.083	441.427	302.544	167.938	175.642	293.329	315.766	175.753	182.092	182.105	189.435	268.648	188.988	-8191	255	
2921.574	1	1	0	0	0.14655	0.060916	0.069363	0.07994	0.10213	0.014221	0.12096	0.319	0.27936	0.11649	0.18643	0.11136	0.19073	0.1438	0.082127	0.3811	-2.9083	-2.7833	-2.9458	-3.6667	-2.55	-3.3229	-3.3958	-2.7333	-3.3312	-2.7625	-2.9875	-3.3958	-2.6271	-3.1021	-3.1333	-2.6021	249.677	470.101	430.811	417.469	195.726	332.328	244.221	201.505	509.261	400.562	310.246	494.633	185.768	194.134	280.697	241.760	0.00026036	1.9341e-05	3.6681e-05	1075.2	1.3133e-06	1.4647e-06	1171.9	229.33	3.2356e-06	2.1361e-06	287.67	81.535	64.091	18.608	1.7111e-06	25.805	0.00010258	9.4845e-05	2.6103e-05	1038	1.0718e-06	1.01e-06	1133.8	221.83	1.0396e-06	1.0186e-06	272.75	79.183	62.149	18.292	1.0427e-06	25.373	252.583	179.551	175.707	168.174	283.458	203.416	167.897	175.518	299.434	327.330	175.509	181.931	182.615	190.575	357.179	188.818	-8191	255	
2921.670	1	1	0	0	0.18551	0.17151	0.25153	0.010154	0.056324	0.22751	0.1921	0.34483	0.16737	0.10211	0.12875	0.23214	0.28682	0.067831	0.20182	0.010873	-2.9188	-2.6375	-2.7896	-3.4542	-2.75	-3.05	-3.4917	-2.7146	-3.2208	-2.9271	-2.7958	-3.5438	-2.6125	-3.1583	-3.2708	-2.7042	475.917	293.099	359.993	463.287	483.971	476.160	446.772	382.355	324.656	491.948	227.597	497.299	438.921	363.924	477.408	314.965	0.00027385	0.00030487	2.5453e-05	1080.5	3.1457e-06	2.9225e-06	1171.1	228.43	3.0743e-06	2.4146e-06	286.45	81.957	63.844	18.593	1.0403e-06	25.93	0.00010016	9.2881e-05	2.652e-05	1040.2	1.0293e-06	1.0251e-06	1133.3	221.92	1.0444e-06	1.0037e-06	272.49	79.352	62.056	18.265	1.0015e-06	25.411	256.900	219.389	227.363	168.036	259.302	187.870	167.793	175.320	244.601	262.818	175.205	181.708	182.275	189.857	311.224	189.239	-8191	255	
2921.768	1	1	0	0	0.047933	0.17963	0.29571	0.23321	0.12361	0.13405	0.058756	0.036728	0.026133	0.060836	0.12098	0.15977	0.1584	0.099617	0.098118	0.14733	-2.8542	-3.0042	-2.7646	-3.5417	-2.5958	-2.8458	-3.3187	-2.6	-3.3729	-3.0896	-2.7146	-3.5312	-2.7146	-2.9167	-3.3271	-2.7062	324.764	464.764	265.337	164.952	299.698	380.146	472.747	397.659	190.770	284.853	319.430	486.235	266.962	389.812	213.662	503.999	0.00023767	5.0696e-05	6.8813e-05	1082	2.0011e-06	3.2642e-06	1172.8	227.3	2.0441e-06	1.969e-06	287.8	81.261	64.308	18.571	3.2295e-06	25.768	0.00010208	9.1683e-05	2.5655e-05	1040.3	1.0305e-06	1.0224e-06	1135.6	221.46	1.0435e-06	1.0037e-06	272.89	79.338	62.174	18.331	1.02e-06	25.368	258.722	239.042	218.088	168.119	234.647	329.405	168.015	175.519	302.596	315.534	175.168	182.240	182.540	189.642	303.505	189.343	-8191	255	
2921.887	1	1	0	0	0.070305	0.075503	0.26564	0.49474	0.035408	0.11283	0.087157	0.10272	0.22524	0.22701	0.19993	0.11764	0.081124	0.14387	0.22146	0.13178	-2.8271	-2.9854	-2.6729	-3.5792	-2.8646	-3.0083	-3.4708	-2.8583	-3.1771	-3.375	-2.6125	-3.3479	-2.8146	-2.8333	-3.3688	-2.6708	322.388	353.611	517.119	469.060	183.431	413.867	453.013	296.258	500.624	429.056	471.557	499.602	451.907	422.693	415.369	358.949	0.00024645	0.00031209	6.9105e-05	1076.7	8.9931e-07	2.3531e-06	1172.8	229.15	3.0473e-06	2.0751e-06	288.05	81.259	64.049	18.589	2.0468e-06	25.905	0.00010141	9.3427e-05	2.6e-05	1037.3	1.0393e-06	1.0306e-06	1135	221.73	1.0137e-06	9.8918e-07	272.78	79.265	62.183	18.276	1.0175e-06	25.406	248.469	223.613	358.768	168.164	339.496	167.490	168.225	175.542	242.842	313.338	175.080	181.992	182.297	189.978	258.567	188.753	-8191	255	
2921.983	1	1	0	0	0.23159	0.15023	0.076117	0.31227	0.1725	0.25802	0.22438	0.11075	0.40339	0.16378	0.19205	0.097843	0.28891	0.071045	0.1343	0.26564	-2.7313	-3.2333	-2.4917	-3.2896	-2.9188	-2.9188	-3.5333	-2.6854	-3.0146	-3.3208	-2.7021	-3.4062	-3.1958	-2.6542	-3.5104	-2.7667	296.273	164.446	418.017	486.219	241.486	306.080	474.305	213.643	334.504	201.686	431.322	448.185	441.231	356.054	169.184	408.686	0.00023886	0.00034933	0.00012261	1081.6	3.8839e-06	1.682e-06	1176.2	229.32	1.5335e-06	2.1498e-06	289.2	81.87	63.99	18.722	3.2192e-06	26.082	0.00010296	9.3629e-05	2.5392e-05	1038.9	1.0296e-06	1.0019e-06	1136.9	221.91	1.0109e-06	1.0113e-06	272.75	79.374	62.21	18.302	9.8974e-07	25.413	261.474	259.056	235.308	167.853	325.907	299.860	168.215	175.177	251.469	374.925	175.021	182.085	182.035	189.808	306.157	189.291	-8191	255	
2922.055	1	1	0	0	0.178	0.09967	0.17052	0.083618	0.15726	0.071347	0.10291	0.093734	0.13286	0.26695	0.0189	0.047476	0.030008	0.29314	0.1587	0.15575	-2.7313	-3.4167	-2.5812	-3.2562	-3.0729	-2.7458	-3.5458	-2.9208	-3.0375	-3.4917	-2.6083	-3.1875	-3.2667	-2.7167	-3.3417	-3.15	160.471	499.329	281.438	469.146	193.074	270.838	325.727	163.309	367.842	378.441	170.583	436.101	247.859	426.718	497.368	376.383	0.00025805	5.4413e-06	0.00014622	1075.2	3.9883e-06	3.2808e-06	1174.3	228.96	4.2516e-06	2.6664e-06	287.88	81.601	63.65	18.643	7.392e-07	26.006	0.00010189	9.146e-05	2.6212e-05	1038.7	1.0401e-06	1.0351e-06	1136.7	221.8	1.0244e-06	9.8957e-07	272.8	79.42	62.096	18.278	1.0024e-06	25.37	250.247	511.095	230.602	168.087	322.026	338.621	168.210	175.151	312.716	329.699	175.760	181.558	181.822	189.378	244.930	188.976	-8191	255	
2922.175	1	1	0	0	0.054795	0.029277	0.2146	0.10477	0.19572	0.13656	0.26022	0.2102	0.14028	0.291	0.16498	0.062735	0.33529	0.05996	0.13986	0.091039	-2.4125	-3.4396	-2.5771	-3.2062	-3.2562	-2.6042	-3.6	-2.9729	-2.7729	-3.4813	-2.7062	-3.2292	-3.2375	-2.4437	-3.3771	-2.9979	215.661	319.315	220.494	372.228	195.569	214.149	397.406	482.485	436.477	400.017	397.852	494.164	180.240	289.157	361.014	432.829	0.00026324	0.00048768	6.2959e-05	1078.4	2.1906e-06	1.1419e-07	1176	228.19	3.377e-06	2.039e-06	287.32	81.021	64.153	18.676	2.7969e-06	25.834	0.00010065	9.1308e-05	2.5562e-05	1039.5	1.0272e-06	1.0338e-06	1136	221.42	1.0291e-06	1.0073e-06	272.17	79.121	62.232	18.306	1.014e-06	25.278	256.536	221.216	274.283	167.890	202.238	324.194	168.120	175.280	260.460	256.415	174.554	181.370	182.253	189.214	272.783	188.846	-8191	255	
2922.271	1	1	0	0	0.20875	0.10315	0.25726	0.14177	0.16301	0.15484	0.052699	0.082321	0.13422	0.15583	0.083695	0.19624	0.20506	0.26359	0.2777	0.061574	-2.4437	-3.4229	-2.6417	-3.1854	-3.125	-2.6208	-3.5979	-2.9167	-2.6042	-3.4146	-2.875	-2.9354	-3.5917	-2.5792	-3.3021	-3.2771	486.704	411.552	344.508	469.218	453.022	403.912	479.012	330.029	298.712	297.035	436.253	322.371	399.316	362.251	211.154	190.879	0.0002717	0.00020122	0.0001229	1074.9	3.9354e-06	1.7575e-06	1177.4	229.78	6.7467e-07	1.1227e-06	285.37	81.517	64.077	18.6	1.3821e-06	25.92	0.00010115	9.276e-05	2.5991e-05	1037.8	1.0548e-06	1.0134e-06	1137.7	222.3	1.0357e-06	1.0135e-06	272.28	79.145	62.217	18.286	1.0219e-06	25.317	254.763	223.414	291.031	167.633	259.596	349.533	167.769	175.298	348.798	318.844	175.045	181.657	182.328	189.804	333.686	188.979	-8191	255	
2922.368	1	1	0	0	0.17448	0.18049	0.06861	0.22947	0.12006	0.20003	0.201	0.30264	0.2404	0.2846	0.24812	0.09554	0.16793	0.13463	0.24788	0.149	-2.1667	-3.4062	-2.8417	-2.9667	-3.4396	-2.5833	-3.4771	-3.2896	-2.6229	-3.4771	-2.9729	-2.8063	-3.4896	-2.6188	-3.1125	-3.2875	304.548	307.479	428.291	179.577	476.340	321.487	431.655	503.922	396.467	417.212	342.080	486.943	456.386	256.454	272.587	258.295	0.00026842	0.00011161	0.00013877	1075.7	3.6527e-06	2.463e-06	1175.8	227.45	2.7585e-06	1.5433e-06	288.98	81.354	63.612	18.603	2.441e-06	25.786	0.00010158	9.3399e-05	2.5042e-05	1037.4	1.033e-06	1.0347e-06	1136.2	221.46	1.0269e-06	1.0061e-06	272.73	79.059	61.963	18.313	1.0434e-06	25.342	260.343	332.412	270.163	167.988	320.209	290.893	167.979	175.269	311.804	232.893	175.303	181.564	182.244	189.193	309.725	188.864	-8191	255	
2922.488	1	1	0	0	0.14995	0.126	0.23715	0.097452	0.12423	0.2492	0.14782	0.18153	0.24971	0.36833	0.10679	0.093395	0.21757	0.3439	0.064005	0.15017	-2.2708	-3.3292	-2.925	-2.6646	-3.35	-2.5833	-3.3063	-3.3937	-2.5687	-3.4042	-3.1604	-2.7542	-3.475	-2.6021	-3.0417	-3.2687	163.940	186.113	278.494	507.674	212.593	326.154	171.768	433.580	384.667	273.400	379.598	243.804	414.920	482.289	185.726	410.956	0.00027975	0.00025908	9.5535e-05	1079	5.8922e-06	1.687e-06	1172.3	228.04	1.2739e-06	4.257e-06	287.14	81.586	64.301	18.504	2.2306e-06	26.051	0.00010209	8.9458e-05	2.5242e-05	1040.1	1.0121e-06	1.0192e-06	1135.4	221.86	1.0414e-06	9.794e-07	272.47	79.33	62.279	18.275	1.0297e-06	25.436	247.642	254.260	246.654	168.127	276.241	318.587	168.142	175.365	417.383	356.501	174.901	181.922	182.585	189.699	330.810	188.878	-8191	255	
2922.583	1	1	0	0	0.1034	0.045968	0.082558	0.032218	0.22217	0.16445	0.1036	0.083484	0.10937	0.057948	0.049685	0.012886	0.23126	0.10242	0.23691	0.21486	-2.0396	-3.2229	-3.0312	-2.7833	-3.4208	-2.7146	-3.1271	-3.4208	-2.5375	-3.4792	-3.2021	-3.0396	-3.3438	-2.8521	-2.7938	-3.45	230.178	428.335	290.103	408.982	231.297	276.044	465.425	250.586	253.422	390.973	214.416	481.220	473.236	162.168	191.721	448.524	0.00024543	0.00016146	7.2223e-05	1078.9	5.0304e-06	1.6182e-06	1183.1	228.64	2.9597e-06	2.2722e-06	288.33	81.374	63.908	18.567	2.0575e-06	25.897	0.00010198	9.2358e-05	2.5168e-05	1039.3	1.0255e-06	1.0059e-06	1137.7	221.58	1.0529e-06	1.0141e-06	273.47	79.243	62.034	18.276	1.0325e-06	25.369	253.868	263.732	221.718	167.838	306.768	346.306	168.138	175.479	325.890	330.497	175.125	182.157	182.007	189.288	369.371	188.984	-8191	255	
2922.679	1	1	0	0	0.23606	0.11274	0.13021	0.10311	0.23298	0.184	0.052095	0.31144	0.35396	0.17945	0.03683	0.12804	0.038474	0.11498	0.14639	0.17635	-2.0542	-3.1417	-3.1562	-2.7083	-3.3792	-2.8417	-3.0312	-3.5417	-2.6208	-3.3292	-3.2167	-2.6083	-3.5854	-2.9896	-2.9396	-3.4771	457.786	425.833	239.614	219.515	198.491	396.201	191.956	512.015	357.393	385.220	394.221	289.372	219.316	351.331	260.473	343.010	0.00028786	0.00034154	0.00010841	1080.4	4.2646e-06	4.1583e-06	1172.5	228.35	2.564e-06	2.4294e-06	287.55	81.773	63.957	18.572	2.5314e-06	25.894	0.00010104	9.1536e-05	2.5806e-05	1039.8	1.0323e-06	1.0123e-06	1137.8	221.7	1.0461e-06	1.0144e-06	273.14	79.394	62.167	18.3	1.0191e-06	25.43	248.080	284.349	307.844	167.925	307.769	264.310	167.887	175.252	290.624	345.149	175.475	181.723	182.761	189.547	361.526	188.791	-8191	255	
2922.750	1	1	0	0	0.095253	0.047044	0.045188	0.184	0.19262	0.10965	0.071157	0.073955	0.06198	0.14939	0.13812	0.039229	0.091081	0.19316	0.10759	0.12744	-2.2375	-3.1792	-3.2229	-2.6771	-3.2875	-2.9417	-2.7375	-3.5583	-2.6813	-3.0812	-3.2979	-2.7042	-3.3208	-2.9292	-2.6167	-3.3917	335.089	346.572	446.460	390.895	503.106	345.270	450.848	404.849	463.999	391.889	377.187	474.532	347.268	167.431	479.827	300.374	0.00026607	0.00038	0.00010972	1079.8	2.9574e-06	1.9434e-06	1170.2	228.02	2.6308e-06	9.1945e-07	286.65	81.705	64.356	18.713	2.9364e-06	25.77	0.00010203	9.1887e-05	2.5437e-05	1040.2	1.0094e-06	9.9939e-07	1135.5	221.9	1.0325e-06	1.0151e-06	272.22	79.484	62.218	18.332	9.7792e-07	25.383	251.330	262.470	236.051	167.793	301.251	299.245	167.710	175.153	300.440	241.507	174.945	181.911	181.730	189.461	313.647	189.054	-8191	255	
2922.848	1	1	0	0	0.23074	0.076434	0.084635	0.22143	0.047673	0.095517	0.094683	0.16842	0.22311	0.15975	0.10401	0.19848	0.085095	0.068581	0.36775	0.03745	-2.325	-2.8583	-3.2604	-2.6312	-3.2458	-3.1083	-2.6917	-3.5146	-2.8438	-2.9104	-3.5667	-2.6854	-3.1646	-3.1521	-2.6437	-3.4625	352.583	341.395	321.222	514.405	288.067	439.589	299.239	350.955	205.392	506.936	347.707	303.867	180.588	481.625	434.565	208.360	0.00020994	0.00024421	2.0489e-05	1079.8	2.4504e-07	8.9876e-07	1171.7	228.85	2.9671e-06	2.4085e-06	289.07	81.24	64.099	18.597	1.4842e-06	25.986	9.8596e-05	8.9652e-05	2.5196e-05	1042.4	1.0045e-06	1.0112e-06	1137.9	222.14	1.0114e-06	1.0172e-06	272.84	79.338	62.165	18.367	1.0349e-06	25.463	245.983	314.315	254.874	167.687	379.773	301.685	167.907	175.150	252.287	293.043	174.688	181.483	182.122	189.347	323.553	188.623	-8191	255	
2922.967	1	1	0	0	0.045532	0.085631	0.14841	0.31949	0.15237	0.29039	0.07469	0.22373	0.053371	0.13214	0.15632	0.28068	0.26237	0.2833	0.18633	0.19068	-2.4958	-2.8604	-3.4729	-2.7812	-3.2812	-3.1646	-2.8312	-3.5542	-2.9167	-2.7396	-3.4938	-2.6208	-3.1146	-3.4125	-2.5625	-3.3146	341.691	275.421	484.816	409.762	505.350	189.636	342.812	447.109	237.251	198.168	424.903	482.136	466.226	500.836	412.006	302.589	0.00025315	9.8271e-05	0.00010607	1078.3	1.3692e-06	3.3896e-06	1177.7	228.59	3.2437e-06	3.3246e-06	288.23	81.316	63.905	18.643	2.07e-06	25.961	0.00010034	9.3081e-05	2.5083e-05	1041.3	1.0394e-06	1.0104e-06	1139.3	221.76	1.0182e-06	1.0103e-06	273.06	79.206	62.064	18.315	1.0188e-06	25.435	254.770	160.112	270.077	167.716	310.401	297.475	167.839	175.226	293.196	320.749	174.942	181.505	182.125	189.388	292.462	188.822	-8191	255	
2923.063	1	1	0	0	0.27464	0.088844	0.27346	0.26431	0.15046	0.048173	0.21815	0.045965	0.16652	0.16481	0.052194	0.23449	0.072722	0.077854	0.014737	0.067005	-2.5646	-2.8312	-3.6021	-2.8438	-3.0563	-3.3208	-2.9479	-3.2667	-2.85	-2.7	-3.5187	-2.8625	-2.8604	-3.4562	-2.7208	-3.2687	219.123	392.926	248.480	478.781	315.759	268.309	429.309	251.023	327.672	275.443	389.698	207.138	334.516	233.587	509.658	394.218	0.00025331	7.658e-05	8.8493e-05	1079	1.3278e-06	2.1101e-06	1176.2	228.5	1.9574e-06	2.0062e-06	287.47	81.153	63.854	18.611	2.8951e-06	26.146	0.00010067	9.2843e-05	2.5482e-05	1040.4	1.0405e-06	9.9745e-07	1135.6	221.98	1.0317e-06	1.0227e-06	272.86	79.274	62.215	18.351	1.0188e-06	25.496	244.886	300.849	260.979	167.857	277.388	316.752	168.165	175.272	268.311	368.589	175.132	181.698	182.587	189.291	254.614	188.873	-8191	255	
2923.159	1	1	0	0	0.26366	0.1405	0.094948	0.15099	0.26667	0.089868	0.20731	0.20427	0.21693	0.15531	0.20502	0.11804	0.033962	0.21675	0.25806	0.093306	-2.6458	-2.5104	-3.4	-2.7812	-3.0354	-3.3563	-2.7958	-3.2917	-3.25	-2.5604	-3.3708	-2.9271	-2.9062	-3.3125	-2.65	-3.2292	516.634	323.955	516.948	455.005	185.431	243.092	489.566	401.595	263.783	186.414	271.175	177.153	377.045	498.480	191.550	498.788	0.00026449	0.00035135	5.9245e-05	1080.9	2.8267e-06	4.151e-06	1176.7	228.75	3.7019e-06	5.4818e-07	287.24	82.032	64.253	18.562	2.8525e-06	26.069	0.00010254	9.3103e-05	2.4911e-05	1042.8	1.0082e-06	1.0027e-06	1137.6	222.13	1.0046e-06	1.0221e-06	273.08	79.531	62.379	18.287	1.0183e-06	25.499	251.739	268.145	169.294	167.874	318.481	283.239	167.910	175.308	299.732	487.833	175.093	181.649	182.575	189.154	285.823	189.049	-8191	255	
2923.256	1	1	0	0	0.15564	0.095582	0.092808	0.18505	0.16889	0.1803	0.012044	0.069349	0.013627	0.18289	0.30749	0.022726	0.24213	0.13482	0.14708	0.15928	-2.9125	-2.5062	-3.4354	-2.9458	-2.8771	-3.4917	-2.8812	-3.2021	-3.0354	-2.7292	-3.3792	-2.9437	-2.7333	-3.4396	-2.7458	-3.0521	268.113	390.330	435.487	159.445	404.859	458.512	177.081	291.521	425.817	298.954	183.043	308.116	512.707	183.662	274.601	171.745	0.00023912	2.9315e-05	7.9449e-05	1082.4	1.5255e-07	2.2978e-06	1174.9	229.11	3.3067e-06	2.0939e-06	290.08	81.082	63.909	18.528	2.7878e-06	25.792	0.00010043	9.0977e-05	2.5389e-05	1040.6	1.0259e-06	1.0086e-06	1137.1	222.06	9.9741e-07	9.7956e-07	273.43	79.256	62.084	18.3	1.0082e-06	25.394	247.722	234.550	281.735	167.988	357.231	274.688	167.957	175.681	321.439	314.906	174.567	181.357	181.953	189.022	315.616	188.511	-8191	255	
2923.352	1	1	0	0	0.21501	0.18888	0.091417	0.26822	0.19465	0.16547	0.20799	0.19747	0.11273	0.13496	0.11441	0.30976	0.056422	0.16066	0.14835	0.088748	-2.8042	-2.4729	-3.3667	-3.1354	-2.5354	-3.4354	-2.7479	-3.0125	-3.5312	-2.4896	-3.3354	-3.2417	-2.7479	-3.4333	-2.9875	-2.9167	195.548	253.110	263.946	170.722	160.339	410.086	398.557	485.700	347.931	262.655	421.040	458.594	425.532	249.959	420.082	182.355	0.0002163	5.3081e-05	3.8055e-05	1074.6	5.1201e-07	2.4777e-06	1178	228.57	2.9628e-06	1.6264e-06	287.26	81.591	64.158	18.677	1.3624e-06	25.961	0.00010206	9.4218e-05	2.5254e-05	1038.8	1.0161e-06	9.9878e-07	1138	222.15	1.0002e-06	1.0076e-06	273.24	79.297	62.121	18.327	1.0246e-06	25.486	250.271	502.834	508.290	167.684	401.726	304.199	167.803	175.326	255.844	320.148	175.043	181.538	182.148	189.380	322.891	189.003	-8191	255	
2923.448	1	1	0	0	0.033995	0.047223	0.12307	0.18884	0.16148	0.21458	0.20033	0.32276	0.24933	0.12699	0.041761	0.22197	0.1225	0.15463	0.038256	0.13871	-2.9792	-2.5604	-3.2062	-3.2438	-2.6937	-3.4042	-2.9375	-2.8792	-3.2708	-2.7271	-3.3854	-3.2521	-2.7771	-3.3688	-2.8	-2.7833	516.081	324.831	223.357	157.298	388.550	161.895	456.320	491.941	488.528	168.934	305.478	505.774	365.168	428.829	388.111	436.865	0.00023794	9.1959e-05	6.1778e-05	1081	1.6273e-06	3.0978e-06	1172.2	227.75	2.7023e-06	1.0689e-06	289.03	81.409	64.072	18.633	4.903e-06	25.987	9.9718e-05	9.3202e-05	2.5051e-05	1041.8	1.0368e-06	9.9706e-07	1135.6	221.47	1.011e-06	9.9642e-07	273.1	79.325	62.187	18.373	1.0198e-06	25.407	253.460	198.654	263.957	167.682	240.123	345.686	167.484	175.079	259.907	344.495	174.495	181.210	182.228	189.073	330.541	188.673	-8191	255	
2923.569	1	1	0	0	0.15723	0.37343	0.1306	0.16906	0.17688	0.1386	0.057562	0.11406	0.080454	0.18735	0.2163	0.064109	0.10536	0.21751	0.078753	0.28956	-3.0375	-2.7229	-3.2583	-3.4833	-2.4562	-3.3208	-3.1375	-2.8396	-3.3896	-2.9042	-3.0208	-3.3833	-2.5812	-3.5271	-2.8417	-2.6417	478.050	465.730	477.160	506.097	327.875	233.527	494.006	219.246	459.979	395.284	237.874	449.511	200.600	435.736	470.445	466.751	0.00023701	0.00037521	4.5141e-05	1081.2	1.8835e-06	1.6256e-06	1176.1	228.76	3.334e-06	3.3898e-06	289.35	81.457	64.165	18.641	1.1491e-06	25.853	0.00010035	9.0648e-05	2.5054e-05	1041.9	1.04e-06	9.9423e-07	1137.2	222.19	9.9443e-07	1.0275e-06	273.57	79.157	62.118	18.339	1.0061e-06	25.417	248.557	244.195	217.089	167.552	356.707	298.898	167.589	174.868	365.132	265.838	175.123	181.229	182.197	189.097	304.877	188.580	-8191	255	
2923.663	1	1	0	0	0.29053	0.27433	0.2168	0.14156	0.084511	0.033039	0.35211	0.11627	0.068663	0.10616	0.17761	0.15412	0.11502	0.10985	0.3129	0.028966	-3.0167	-2.5042	-2.9062	-3.325	-2.5333	-3.1854	-3.2292	-2.7021	-3.4417	-2.8458	-2.9688	-3.5083	-2.5	-3.1667	-3.1979	-2.6104	460.983	211.017	268.163	303.358	233.857	215.206	428.691	499.792	315.845	459.936	238.977	214.184	495.763	432.690	191.884	474.960	0.00029154	0.00016352	9.2952e-05	1083	3.9723e-06	1.1407e-06	1173.5	228.24	3.2388e-06	4.3198e-07	288.15	81.417	64.237	18.667	1.7706e-06	25.905	9.9769e-05	9.0325e-05	2.4647e-05	1042.2	1.0156e-06	9.8846e-07	1136.6	222.09	1.0012e-06	9.6759e-07	273.26	79.286	62.234	18.33	9.8381e-07	25.459	251.054	351.944	203.098	167.778	277.942	298.997	167.765	175.393	254.760	463.620	175.269	181.489	181.685	189.460	348.833	189.354	-8191	255	
2923.759	1	1	0	0	0.11139	0.21144	0.080434	0.33161	0.11763	0.15434	0.27622	0.052802	0.11026	0.19365	0.23552	0.057199	0.10452	0.095308	0.12533	0.1136	-3.1312	-2.8521	-2.7208	-3.4354	-2.6792	-3.2479	-3.3917	-2.6521	-3.4208	-3.0187	-2.8438	-3.4667	-2.7083	-3.0354	-3.2125	-2.5583	263.608	496.659	461.911	389.150	383.880	515.108	423.656	461.072	478.110	453.375	481.992	251.212	453.527	467.616	457.622	430.802	0.00024294	0.0003759	7.0547e-05	1080	1.1405e-06	3.8241e-06	1175.4	228.49	5.6384e-06	3.0438e-06	288.74	80.752	63.758	18.666	3.1832e-06	25.869	0.00010074	9.1048e-05	2.5575e-05	1040.6	1.0138e-06	9.813e-07	1140	222.2	1.0186e-06	1.0069e-06	273.3	79.169	62.123	18.356	1.0003e-06	25.401	245.106	264.118	226.267	167.994	351.603	250.773	167.653	175.117	280.277	289.734	175.106	181.423	182.070	189.298	325.963	189.042	-8191	255	
2923.855	1	1	0	0	0.08228	0.18009	0.21863	0.2447	0.010222	0.026807	0.44109	0.17167	0.023179	0.13456	0.11484	0.099506	0.15025	0.1498	0.22237	0.13596	-3.2313	-2.8	-2.7687	-3.5083	-2.6688	-3.0167	-3.6604	-2.625	-3.2167	-2.8896	-2.8042	-3.6146	-2.6979	-2.9729	-3.2667	-2.6792	514.309	379.707	404.230	483.231	433.562	487.788	469.541	390.606	304.543	406.655	298.251	513.946	381.535	437.619	162.082	403.126	0.00023376	0.00020532	0.00010468	1079.6	4.5476e-06	2.3353e-06	1178.7	228.9	3.2109e-06	6.6788e-07	288.42	81.269	64.312	18.546	2.9053e-06	25.899	9.9983e-05	9.0724e-05	2.5482e-05	1040.6	1.0204e-06	1.0017e-06	1138.9	222.11	1.0259e-06	9.9556e-07	273.54	79.326	62.264	18.329	1.031e-06	25.444	258.246	195.501	230.816	167.926	327.458	275.062	167.881	175.106	329.628	475.152	174.872	181.794	182.368	189.155	289.077	188.718	-8191	255	
2923.976	1	1	0	0	0.14309	0.16579	0.25643	0.12016	0.10905	0.26428	0.44407	0.18253	0.19384	0.26984	0.10216	0.1902	0.12864	0.1799	0.072283	0.23684	-2.8625	-3.1083	-2.8271	-3.5271	-2.8312	-2.9437	-3.4938	-2.8646	-3.2542	-2.9979	-2.7062	-3.5646	-2.8667	-2.8479	-3.5208	-2.6875	235.587	348.903	505.979	455.341	447.608	472.684	462.640	488.941	445.855	161.032	293.297	465.202	418.683	296.691	503.949	264.930	0.00024887	0.00021225	6.9088e-05	1085	2.2141e-06	1.1509e-06	1172.1	229.99	1.1642e-06	1.9282e-06	288.48	81.372	63.946	18.621	8.8837e-07	26.174	0.00010026	9.0537e-05	2.6357e-05	1043	1.036e-06	9.98e-07	1138.2	222.37	1.0006e-06	9.9794e-07	272.72	79.507	62.192	18.308	1.0245e-06	25.513	242.946	192.262	263.344	167.966	265.792	411.866	168.016	175.170	269.963	269.156	175.039	182.052	182.276	189.641	285.062	189.295	-8191	255	
2924.048	1	1	0	0	0.1039	0.03108	0.088675	0.05498	0.15267	0.24138	0.029373	0.10452	0.12775	0.15259	0.13217	0.19544	0.094887	0.22688	0.15551	0.053407	-2.7938	-3.3167	-2.6854	-3.5042	-2.95	-2.7646	-3.5375	-2.6271	-2.8792	-3.1854	-2.5563	-3.3854	-2.9562	-2.8375	-3.2854	-2.75	443.191	487.496	513.011	193.777	444.556	276.499	383.469	212.724	436.666	288.847	209.199	197.587	206.566	493.014	269.970	441.411	0.00024514	0.00016064	7.0388e-05	1087.2	4.6055e-06	1.7066e-06	1179.3	228.79	2.9921e-06	2.0491e-06	287.87	81.847	63.99	18.63	4.4056e-06	25.892	0.00010081	9.2757e-05	2.5438e-05	1043.8	1.0044e-06	1.012e-06	1139.1	222.28	1.0498e-06	1.0113e-06	273.17	79.521	62.097	18.386	1.0116e-06	25.442	248.576	258.854	194.632	167.793	374.036	264.329	168.334	175.444	288.863	288.173	175.337	181.863	182.467	189.456	285.442	188.635	-8191	255	
2924.168	1	1	0	0	0.066404	0.17665	0.14037	0.1179	0.089168	0.068886	0.11878	0.18575	0.1425	0.12554	0.081937	0.15078	0.088627	0.22601	0.14147	0.2351	-2.6396	-3.3208	-2.5667	-3.2458	-2.9833	-2.6854	-3.4292	-2.8063	-3.0312	-3.25	-2.4583	-3.4146	-3.0938	-2.5083	-3.3937	-3.0729	182.582	244.652	437.275	235.804	222.778	357.993	425.371	486.705	332.913	477.373	321.652	471.095	509.357	206.881	169.626	401.074	0.00027109	0.00023152	0.00010226	1086.1	1.1467e-06	2.6189e-06	1180.4	230.71	3.38e-06	1.7197e-06	287.08	81.669	64.104	18.72	1.3753e-06	26.074	0.0001016	9.1756e-05	2.6056e-05	1042.9	1.0491e-06	1.0286e-06	1140.1	222.74	1.0443e-06	1.0191e-06	273.87	79.459	62.119	18.353	9.9896e-07	25.454	249.047	258.305	269.683	168.180	442.949	343.059	168.101	175.298	238.219	225.767	175.226	181.542	182.520	189.656	276.212	188.744	-8191	255	
2924.264	1	1	0	0	0.10636	0.11512	0.14543	0.24511	0.063935	0.36126	0.081486	0.2187	0.13729	0.1382	0.2676	0.17745	0.16235	0.11552	0.2129	0.23933	-2.5979	-3.4979	-2.5542	-3.2875	-3.3958	-2.4896	-3.5479	-3.1937	-2.8479	-3.4167	-2.7208	-3.3104	-3.2708	-2.5187	-3.3688	-2.9229	299.595	386.945	393.734	324.546	226.351	177.370	425.872	443.764	257.440	350.679	452.909	404.203	468.766	167.637	213.681	352.097	0.00024259	0.00020203	0.00012982	1086	4.3081e-06	1.9035e-06	1174.6	229.16	1.1034e-06	4.7598e-06	288.73	81.83	64.306	18.686	2.3065e-06	26.036	0.00010388	9.2272e-05	2.6169e-05	1044.9	1.0623e-06	1.0425e-06	1136.6	222.15	1.0504e-06	1.0103e-06	273.07	79.498	62.275	18.315	1.0323e-06	25.451	258.351	214.025	237.659	168.117	321.174	229.237	168.008	175.617	354.516	258.509	174.852	182.053	182.290	189.442	271.161	189.065	-8191	255	
2924.360	1	1	0	0	0.17632	0.13772	0.10711	0.11569	0.1561	0.28404	0.11903	0.38696	0.22967	0.11692	0.038326	0.17128	0.12483	0.091577	0.0092893	0.05281	-2.3937	-3.5125	-2.7167	-3.2708	-3.2583	-2.8042	-3.6688	-2.8667	-2.6312	-3.4854	-2.7479	-3.1333	-3.3125	-2.625	-3.3583	-3.0208	415.955	262.831	509.803	399.712	294.432	315.819	364.650	463.632	164.502	213.632	493.890	306.005	361.809	443.721	371.730	386.702	0.00020211	0.00016648	1.5836e-05	1081.8	2.9183e-06	3.111e-06	1174.8	229.29	3.4701e-06	2.4223e-06	289.41	81.457	64.188	18.642	2.4928e-06	25.934	0.00010069	9.4588e-05	2.5958e-05	1041.7	1.0301e-06	1.0374e-06	1137.6	222.07	1.0489e-06	9.934e-07	273.99	79.321	62.289	18.353	1.0229e-06	25.451	252.749	234.306	482.699	167.963	290.588	308.461	168.248	175.392	306.947	369.850	175.056	182.263	182.098	189.608	289.396	188.972	-8191	255	
2924.457	1	1	0	0	0.29544	0.32612	0.19768	0.32837	0.12844	0.16781	0.13348	0.055139	0.10176	0.053601	0.16034	0.068848	0.29382	0.12949	0.26556	0.13508	-2.3208	-3.5292	-2.7979	-3.0167	-3.2	-2.6354	-3.7062	-3.2271	-2.5625	-3.3125	-2.9396	-2.8083	-3.2646	-2.6792	-3.2333	-3.3312	199.271	442.482	346.090	511.492	442.565	249.706	275.960	407.596	375.377	325.516	276.147	507.400	482.932	226.868	315.682	365.485	0.00027368	0.00017032	6.888e-05	1082.4	2.6259e-06	2.3987e-06	1176.7	229.64	2.0124e-06	1.2497e-06	289.61	81.624	63.843	18.622	4.2191e-06	25.687	0.00010439	9.3875e-05	2.6331e-05	1042.2	1.0308e-06	1.022e-06	1138	222.35	1.0383e-06	1.0113e-06	273.84	79.394	62.222	18.285	1.0215e-06	25.335	246.102	408.815	253.639	168.212	312.032	317.945	168.377	175.361	318.482	379.359	175.239	182.108	182.343	189.438	300.687	188.596	-8191	255	
2924.575	1	1	0	0	0.03701	0.18246	0.13295	0.1465	0.17058	0.29724	0.3694	0.12069	0.20539	0.14643	0.09943	0.24124	0.16607	0.16061	0.19122	0.16884	-2.3438	-3.4479	-2.8479	-2.9583	-3.3854	-2.7167	-3.3104	-3.1562	-2.7333	-3.3333	-3.0958	-2.8958	-3.4938	-2.7104	-3.1104	-3.2896	334.732	354.924	314.990	164.314	417.494	435.210	482.032	398.578	405.228	434.617	248.856	454.151	194.851	195.989	491.136	479.147	0.00026084	0.00014513	6.0594e-05	1079.9	2.6801e-06	3.1087e-06	1169.4	228.98	1.8697e-06	2.7593e-06	288.39	81.302	64.223	18.629	3.1245e-06	26.238	0.00010316	9.3976e-05	2.5767e-05	1041	1.0387e-06	1.02e-06	1136.6	221.83	1.0413e-06	1.0125e-06	274.18	79.193	62.171	18.328	1.0098e-06	25.53	244.684	257.701	207.321	168.189	322.440	322.270	167.785	175.346	308.625	310.194	174.837	182.010	182.310	189.110	300.774	188.762	-8191	255	
2924.647	1	1	0	0	0.27359	0.047509	0.073629	0.21791	0.26998	0.22806	0.31834	0.17206	0.2162	0.064675	0.16553	0.2573	0.14071	0.24968	0.096747	0.26371	-1.9312	-3.5292	-3.0292	-2.8	-3.4479	-2.8417	-3.225	-3.4	-2.6042	-3.3312	-3.1625	-2.6937	-3.4688	-2.6521	-3.1958	-3.275	470.457	173.703	310.389	470.781	315.482	367.954	475.326	479.985	221.234	347.734	395.670	335.348	510.517	238.199	447.268	473.484	0.00022774	0.0004064	4.0001e-05	1086.1	1.4936e-06	1.2796e-06	1174.4	227.76	3.7918e-06	3.5756e-06	288.45	81	63.826	18.582	1.5429e-06	26.017	0.00010151	9.1518e-05	2.5562e-05	1041.6	1.0441e-06	9.8574e-07	1137.4	221.8	1.0424e-06	9.9248e-07	273.58	79.182	62.235	18.308	1.0201e-06	25.356	259.362	226.246	216.829	167.960	298.898	246.281	167.943	175.218	306.854	302.589	174.299	181.578	182.007	189.366	371.206	188.295	-8191	255	
2924.743	1	1	0	0	0.40221	0.027634	0.13647	0.19023	0.083923	0.14428	0.32947	0.12234	0.11688	0.10601	0.25279	0.37548	0.05594	0.17434	0.078833	0.13113	-2.1771	-2.9188	-3.0375	-2.7396	-3.3812	-2.8708	-3.0062	-3.5146	-2.6979	-3.3833	-3.3667	-2.4083	-3.4813	-2.8604	-2.9688	-3.6104	385.067	497.149	337.140	481.697	393.179	198.507	451.785	384.876	313.182	366.415	434.869	189.218	462.148	160.623	394.311	468.637	0.00024782	0.00028708	2.3243e-05	1079.4	2.5033e-06	7.9e-07	1176.3	228.47	5.4743e-06	1.1566e-06	289.41	81.874	64.015	18.608	2.7039e-06	25.919	0.00010209	9.1779e-05	2.5864e-05	1041.5	1.0235e-06	1.0048e-06	1137.8	222.23	1.0182e-06	1.0034e-06	273.28	79.469	62.258	18.319	9.9082e-07	25.358	247.789	241.010	242.861	167.564	306.769	364.070	168.045	174.981	270.149	361.863	174.214	181.421	181.899	189.464	355.466	188.304	-8191	255	
2924.839	1	1	0	0	0.29219	0.15438	0.057163	0.36736	0.28059	0.086244	0.16336	0.099454	0.20237	0.068624	0.12248	0.05214	0.065937	0.10825	0.23315	0.1915	-2.2604	-3.1	-3.1437	-2.7458	-3.5083	-3.0458	-2.9667	-3.4729	-2.5729	-3.175	-3.3708	-2.5917	-3.4708	-3.175	-2.7438	-3.3312	193.194	299.751	188.504	173.533	398.575	185.011	444.722	241.787	208.606	389.348	351.857	454.523	280.267	389.751	427.677	376.087	0.00024035	0.00028399	8.0501e-05	1080.3	2.6927e-06	5.606e-06	1170.6	228.02	3.2473e-06	2.5619e-06	286.98	81.353	64.03	18.669	3.1182e-06	25.886	0.00010179	9.2787e-05	2.5766e-05	1041.2	1.0435e-06	9.9462e-07	1136.4	222.16	1.0616e-06	1.0353e-06	272.84	79.315	62.193	18.307	1.0522e-06	25.475	247.517	243.000	248.997	167.496	253.247	296.370	167.697	175.232	299.788	301.306	175.093	181.462	182.045	189.300	323.881	188.377	-8191	255	
2924.936	1	1	0	0	0.19768	0.10513	0.17502	0.3005	0.1924	0.097837	0.10786	0.10291	0.026435	0.10849	0.070336	0.19665	0.073486	0.19653	0.17946	0.10567	-2.2625	-2.9833	-3.1771	-2.6479	-3.2667	-3.0125	-2.7625	-3.475	-2.9771	-2.9354	-3.4021	-2.6708	-3.2438	-3.1333	-2.6437	-3.5333	484.422	415.124	294.483	438.354	462.849	211.095	381.039	336.003	363.210	324.280	381.709	513.887	181.683	484.360	510.900	388.083	0.00027802	0.00012836	2.1556e-05	1081.4	3.4125e-06	1.1928e-06	1175.3	229.47	3.1406e-06	8.0306e-07	289.35	81.236	63.859	18.669	1.7048e-06	26.046	0.00010212	9.1586e-05	2.5456e-05	1042.6	1.02e-06	9.9784e-07	1138.1	222.41	1.0442e-06	1.0118e-06	274	79.348	62.321	18.322	1.0179e-06	25.418	251.605	253.367	240.212	167.736	341.891	202.546	167.565	175.178	303.699	281.688	175.068	181.244	181.883	189.055	242.947	188.598	-8191	255	
2925.056	1	1	0	0	0.11004	0.25448	0.10543	0.21656	0.10795	0.12832	0.1105	0.17592	0.18399	0.27322	0.10868	0.24289	0.14666	0.36257	0.11289	0.25995	-2.3104	-2.8688	-3.4437	-2.7417	-3.1271	-3.1354	-2.6479	-3.4458	-2.8979	-2.9208	-3.3417	-2.7646	-3.1292	-3.2208	-2.6042	-3.4146	186.819	286.999	451.730	395.137	431.509	368.728	181.723	407.972	272.429	455.172	383.002	463.194	318.819	310.340	285.210	160.607	0.00024447	8.3471e-05	0.00011002	1082.4	3.689e-06	2.304e-06	1172.5	229.17	5.1402e-06	1.2913e-06	288.85	81.454	64.42	18.638	4.4207e-06	25.807	0.00010151	9.0598e-05	2.5537e-05	1043.2	1.024e-06	9.8621e-07	1138.6	221.91	1.0305e-06	1.0182e-06	273.43	79.274	62.374	18.355	1.0393e-06	25.392	255.804	266.114	296.645	167.639	279.132	267.263	167.664	174.973	273.928	163.247	174.936	181.695	182.236	189.034	312.774	188.572	-8191	255	
2925.152	1	1	0	0	0.24875	0.12217	0.18994	0.31136	0.23562	0.22327	0.2255	0.11441	0.1652	0.19344	0.11223	0.29152	0.13768	0.14246	0.1443	0.06855	-2.4958	-2.6292	-3.3896	-2.6479	-3.1562	-3.1792	-2.6646	-3.4604	-2.9354	-2.8812	-3.3229	-2.7208	-2.8063	-3.4313	-2.4604	-3.3354	205.480	415.208	242.816	455.323	429.388	391.661	488.690	392.952	402.681	409.599	204.625	275.253	314.744	452.436	461.506	284.779	0.0002211	0.00036079	5.382e-05	1084	2.4182e-06	4.7006e-06	1169.4	227.73	2.9582e-06	2.2857e-06	286.32	81.158	63.926	18.638	1.5244e-06	26.101	0.00010134	9.2755e-05	2.6027e-05	1043.4	1.0395e-06	9.947e-07	1136.5	222.39	1.0263e-06	1.0505e-06	272.79	79.168	62.294	18.318	1.0322e-06	25.493	253.372	269.305	178.406	167.617	286.243	272.326	168.007	175.510	284.449	378.716	174.740	181.746	182.267	188.732	399.785	189.048	-8191	255	
2925.249	1	1	0	0	0.32316	0.060811	0.22691	0.20908	0.14549	0.26202	0.12964	0.13332	0.067981	0.13824	0.12416	0.15377	0.05139	0.31411	0.037486	0.052775	-2.5396	-2.55	-3.3146	-2.7771	-2.7125	-3.1562	-2.7646	-3.1729	-3.0729	-2.4917	-3.4	-2.7417	-2.7979	-3.3063	-2.475	-3.1667	477.819	234.705	215.693	488.417	478.433	361.905	501.227	345.007	372.182	415.080	205.691	413.350	173.218	239.347	343.581	460.887	0.00025897	0.00011742	7.6208e-05	1088.9	2.5746e-06	1.2842e-06	1168.7	228.89	6.2512e-06	2.9674e-06	288.11	81.42	64.185	18.5	4.8215e-07	25.985	0.0001028	9.3154e-05	2.5775e-05	1043.3	1.0546e-06	1.0085e-06	1135.2	222.26	1.0607e-06	1.049e-06	273.67	79.301	62.195	18.27	1.0153e-06	25.415	254.550	277.363	273.688	167.581	301.238	339.002	167.922	175.099	271.833	264.350	175.486	181.492	182.560	189.322	227.159	188.516	-8191	255	
#DATA ENDS
