BOXY.EXE: ISS Imagent and Oximeter Data Acquisition Program Version 0.80
Ascii Record File

#ACQ INFORMATION
2  Detector Channels 
16  External MUX Channels 
1  Auxiliary Channels 
5000  Waveform (CCF) Frequency (Hz)
1  Waveforms Skipped 
30  Waveforms Averaged 
1  Cycles Averaged 
16  Acquisitions per Waveform 
10.0806  Updata Rate (Hz) 

#FILE INFORMATION
TRUE -- External MUX Channel results are PARSED.
FALSE -- AC DC and Phase are NOT grouped.
TRUE -- Companion Program Settings File CREATED.
FALSE -- AC data not excluded
FALSE -- DC data not excluded
FALSE -- Phase data not excluded
FALSE -- Auxillary Chn. data not excluded
Tab delimiters

#CALIBRATION STATE
TRUE -- Waveform Calibration Values APPLIED.


#AUX CALIBRATION VALUES
Val Type	aux-1	

Term	1.0000e+00	
Factor	0.0000e+00	


#WF CALIBRATION VALUES
A = Detector Channel
Val Type	A-AC1	A-AC2	A-AC3	A-AC4	A-AC5	A-AC6	A-AC7	A-AC8	A-AC9	A-AC10	A-AC11	A-AC12	A-AC13	A-AC14	A-AC15	A-AC16	A-DC1	A-DC2	A-DC3	A-DC4	A-DC5	A-DC6	A-DC7	A-DC8	A-DC9	A-DC10	A-DC11	A-DC12	A-DC13	A-DC14	A-DC15	A-DC16	A-Ph1	A-Ph2	A-Ph3	A-Ph4	A-Ph5	A-Ph6	A-Ph7	A-Ph8	A-Ph9	A-Ph10	A-Ph11	A-Ph12	A-Ph13	A-Ph14	A-Ph15	A-Ph16	

Term	0.00000e+00	0.00000e+00	0.00000e+00	0.00000e+00	0.00000e+00	0.00000e+00	0.00000e+00	0.00000e+00	0.00000e+00	0.00000e+00	0.00000e+00	0.00000e+00	0.00000e+00	0.00000e+00	0.00000e+00	0.00000e+00	0.00000e+00	0.00000e+00	0.00000e+00	0.00000e+00	0.00000e+00	0.00000e+00	0.00000e+00	0.00000e+00	0.00000e+00	0.00000e+00	0.00000e+00	0.00000e+00	0.00000e+00	0.00000e+00	0.00000e+00	0.00000e+00	0.00000e+00	0.00000e+00	0.00000e+00	0.00000e+00	0.00000e+00	0.00000e+00	0.00000e+00	0.00000e+00	0.00000e+00	0.00000e+00	0.00000e+00	0.00000e+00	0.00000e+00	0.00000e+00	0.00000e+00	0.00000e+00	
Factor	1.00000e+00	1.00000e+00	1.00000e+00	1.00000e+00	1.00000e+00	1.00000e+00	1.00000e+00	1.00000e+00	1.00000e+00	1.00000e+00	1.00000e+00	1.00000e+00	1.00000e+00	1.00000e+00	1.00000e+00	1.00000e+00	1.00000e+00	1.00000e+00	1.00000e+00	1.00000e+00	1.00000e+00	1.00000e+00	1.00000e+00	1.00000e+00	1.00000e+00	1.00000e+00	1.00000e+00	1.00000e+00	1.00000e+00	1.00000e+00	1.00000e+00	1.00000e+00	X	X	X	X	X	X	X	X	X	X	X	X	X	X	X	X	

B = Detector Channel
Val Type	B-AC1	B-AC2	B-AC3	B-AC4	B-AC5	B-AC6	B-AC7	B-AC8	B-AC9	B-AC10	B-AC11	B-AC12	B-AC13	B-AC14	B-AC15	B-AC16	B-DC1	B-DC2	B-DC3	B-DC4	B-DC5	B-DC6	B-DC7	B-DC8	B-DC9	B-DC10	B-DC11	B-DC12	B-DC13	B-DC14	B-DC15	B-DC16	B-Ph1	B-Ph2	B-Ph3	B-Ph4	B-Ph5	B-Ph6	B-Ph7	B-Ph8	B-Ph9	B-Ph10	B-Ph11	B-Ph12	B-Ph13	B-Ph14	B-Ph15	B-Ph16	

Term	0.00000e+00	0.00000e+00	0.00000e+00	0.00000e+00	0.00000e+00	0.00000e+00	0.00000e+00	0.00000e+00	0.00000e+00	0.00000e+00	0.00000e+00	0.00000e+00	0.00000e+00	0.00000e+00	0.00000e+00	0.00000e+00	0.00000e+00	0.00000e+00	0.00000e+00	0.00000e+00	0.00000e+00	0.00000e+00	0.00000e+00	0.00000e+00	0.00000e+00	0.00000e+00	0.00000e+00	0.00000e+00	0.00000e+00	0.00000e+00	0.00000e+00	0.00000e+00	-7.43740e+01	-1.28316e+02	-1.28292e+02	-1.84666e+02	-6.09405e+01	-9.26518e+01	-1.57220e+02	-1.62015e+02	-6.83234e+01	-6.49300e+01	-1.71356e+02	-1.71554e+02	-1.80605e+02	-1.78112e+02	-5.87324e+01	-1.50478e+02	
Factor	1.69462e-05	1.09168e-04	3.22790e-05	1.81303e-01	1.25172e-06	1.14954e-06	1.71467e-01	5.38756e-02	1.13096e-06	1.21214e-06	1.27027e-01	2.77678e-02	2.53669e-02	8.93279e-03	9.87240e-07	1.27691e-02	1.16641e-06	1.21360e-06	3.37925e-07	9.36980e-02	1.32701e-08	1.33200e-08	8.34584e-02	2.80064e-02	1.32587e-08	1.33078e-08	6.16425e-02	1.38762e-02	1.31430e-02	4.61932e-03	1.32892e-08	6.33447e-03	X	X	X	X	X	X	X	X	X	X	X	X	X	X	X	X	



#DISTANCE SETTINGS
A = Detector Channel
A-1	A-2	A-3	A-4	A-5	A-6	A-7	A-8	A-9	A-10	A-11	A-12	A-13	A-14	A-15	A-16	

2.5000e+00	3.0000e+00	2.5000e+00	3.0000e+00	2.0000e+00	3.0000e+00	1.5000e+00	3.0000e+00	3.0000e+00	3.0000e+00	3.0000e+00	3.0000e+00	3.0000e+00	3.0000e+00	1.5000e+00	3.0000e+00	

B = Detector Channel
B-1	B-2	B-3	B-4	B-5	B-6	B-7	B-8	B-9	B-10	B-11	B-12	B-13	B-14	B-15	B-16	

1.0000e+01	1.0000e+01	1.0000e+01	1.4400e+00	1.0000e+01	1.0000e+01	1.5100e+00	1.9400e+00	1.0000e+01	1.0000e+01	1.9900e+00	2.4900e+00	2.4100e+00	2.9000e+00	1.0000e+01	2.9800e+00	




#DATA BEGINS
time	group	step	mark	flag	A-AC1	A-AC2	A-AC3	A-AC4	A-AC5	A-AC6	A-AC7	A-AC8	A-AC9	A-AC10	A-AC11	A-AC12	A-AC13	A-AC14	A-AC15	A-AC16	A-DC1	A-DC2	A-DC3	A-DC4	A-DC5	A-DC6	A-DC7	A-DC8	A-DC9	A-DC10	A-DC11	A-DC12	A-DC13	A-DC14	A-DC15	A-DC16	A-Ph1	A-Ph2	A-Ph3	A-Ph4	A-Ph5	A-Ph6	A-Ph7	A-Ph8	A-Ph9	A-Ph10	A-Ph11	A-Ph12	A-Ph13	A-Ph14	A-Ph15	A-Ph16	B-AC1	B-AC2	B-AC3	B-AC4	B-AC5	B-AC6	B-AC7	B-AC8	B-AC9	B-AC10	B-AC11	B-AC12	B-AC13	B-AC14	B-AC15	B-AC16	B-DC1	B-DC2	B-DC3	B-DC4	B-DC5	B-DC6	B-DC7	B-DC8	B-DC9	B-DC10	B-DC11	B-DC12	B-DC13	B-DC14	B-DC15	B-DC16	B-Ph1	B-Ph2	B-Ph3	B-Ph4	B-Ph5	B-Ph6	B-Ph7	B-Ph8	B-Ph9	B-Ph10	B-Ph11	B-Ph12	B-Ph13	B-Ph14	B-Ph15	B-Ph16	aux-1	digaux	

3176.444	1	1	0	256	0.19935	0.22104	0.10258	0.17948	0.070221	0.089626	0.070594	0.095638	0.30726	0.23797	0.22133	0.18205	0.29318	0.21981	0.089837	0.11406	-3.0187	-2.4542	-3.4146	-3	-2.6958	-3.4062	-2.7875	-3.0729	-3.3958	-2.7354	-3.5333	-3.0146	-2.9021	-3.3958	-2.7542	-3.0354	189.166	375.619	423.422	482.837	529.386	268.806	180.178	433.530	484.619	281.823	360.121	220.036	301.560	284.143	242.622	255.913	0.00021581	5.2946e-05	4.3384e-05	216.37	1.4577e-07	1.8276e-06	371.22	79.165	2.4405e-06	5.135e-06	156.68	61.771	29.812	12.447	1.3232e-06	28.149	6.1919e-05	5.3543e-05	1.4934e-05	203.29	5.9232e-07	5.8686e-07	345.99	74.021	5.8775e-07	5.9397e-07	142.63	57.086	27.785	11.687	5.9117e-07	25.92	249.831	271.982	242.542	186.957	376.079	345.281	186.227	192.255	370.947	286.456	191.138	193.553	195.768	200.591	278.845	197.694	-8191	255	
3176.538	1	1	0	0	0.16195	0.34879	0.11897	0.1858	0.033451	0.14613	0.086655	0.27784	0.22545	0.16123	0.089927	0.18736	0.093183	0.095053	0.1185	0.15895	-2.9979	-2.5604	-3.1396	-3.1229	-2.5938	-3.6063	-2.9771	-3.0625	-3.2646	-2.6646	-3.1958	-3.3146	-2.7438	-3.3187	-2.8333	-2.9917	405.735	531.421	273.712	393.778	308.123	248.862	308.966	183.347	455.789	187.084	516.686	514.942	524.399	404.114	256.325	199.393	0.00027674	2.7559e-05	0.0001034	217.99	3.4463e-06	2.4759e-06	368.61	79.346	1.9059e-07	2.2603e-06	157.73	61.117	29.91	12.52	1.7958e-06	28.187	6.4515e-05	5.3644e-05	1.5033e-05	202.96	6.0382e-07	5.7579e-07	343.59	73.934	6.1125e-07	6.014e-07	142.6	56.794	27.75	11.697	5.778e-07	25.86	257.909	370.403	309.221	186.683	330.207	247.217	186.494	192.102	509.596	393.280	189.982	194.339	195.714	199.933	361.701	198.167	-8191	255	
3176.634	1	1	0	0	0.10971	0.19812	0.10713	0.12908	0.041471	0.54145	0.29625	0.1484	0.24292	0.13063	0.11621	0.15527	0.0398	0.17185	0.19412	0.27795	-3.1458	-2.7188	-3.3021	-3.2771	-2.5312	-3.55	-2.9646	-2.8	-3.4771	-2.6208	-3.2604	-3.3271	-2.4917	-3.3771	-3.0438	-2.8167	182.143	306.586	328.879	262.076	289.145	426.220	387.496	363.351	339.754	388.216	524.723	420.435	211.399	512.766	389.996	343.824	0.00026037	0.00032463	4.3532e-05	217.58	2.1833e-06	3.2973e-06	373.75	78.647	2.7065e-06	1.9579e-06	157.4	61.276	29.669	12.493	1.0973e-06	28.09	6.2758e-05	5.3393e-05	1.3911e-05	202.66	5.8438e-07	5.8328e-07	345.92	73.916	5.78e-07	5.7229e-07	142.44	56.786	27.541	11.649	5.7957e-07	25.816	250.594	230.338	279.505	187.504	292.207	320.862	187.022	192.125	329.326	186.205	191.333	194.213	195.233	200.213	227.066	197.975	-8191	255	
3176.730	1	1	0	0	0.012626	0.31061	0.29189	0.042401	0.062136	0.17075	0.17759	0.16061	0.27638	0.046874	0.19073	0.16249	0.075585	0.090859	0.31066	0.19077	-2.9625	-2.5917	-3.0438	-3.2313	-2.6125	-3.3312	-2.9354	-2.8417	-3.3854	-2.6312	-3.0062	-3.2375	-2.6042	-3.4437	-2.9354	-2.7083	361.880	398.596	326.941	508.041	442.511	292.980	418.248	306.869	248.207	301.054	402.397	463.596	214.620	361.127	428.001	207.814	0.00022272	7.0864e-05	8.2162e-05	216.43	4.1954e-06	7.7996e-07	370.26	78.201	1.2772e-06	2.3371e-06	156.88	61.287	30.059	12.439	2.4481e-06	28.132	6.3703e-05	5.2334e-05	1.4957e-05	202.76	5.728e-07	5.6116e-07	344.21	73.911	5.7476e-07	5.7404e-07	142.37	56.699	27.804	11.654	5.6543e-07	25.894	245.890	347.504	253.893	187.472	351.317	229.943	186.560	193.035	350.325	363.622	191.383	193.968	195.834	200.723	324.769	198.687	-8191	255	
3176.826	1	1	0	0	0.10519	0.32258	0.14866	0.09672	0.15176	0.04411	0.13133	0.1681	0.21652	0.26269	0.30087	0.13443	0.23745	0.066085	0.16304	0.21751	-3.1229	-2.5979	-2.9417	-3.3417	-2.4729	-3.1917	-3.1375	-2.4792	-3.5167	-2.7479	-2.9437	-3.5292	-2.5729	-3.3937	-3.1708	-2.7438	383.221	190.717	328.565	409.731	464.234	404.883	482.298	351.817	286.181	212.530	213.843	365.156	209.733	386.458	514.267	491.376	0.00023971	0.00024136	6.3497e-05	218.14	3.6316e-06	2.1273e-06	372.45	79.044	2.7417e-06	1.0265e-06	155.67	61.317	29.865	12.478	2.4587e-06	27.808	6.2636e-05	5.3699e-05	1.4651e-05	202.77	5.7363e-07	5.5547e-07	344.94	73.587	5.6388e-07	5.6744e-07	141.83	56.871	27.664	11.618	5.67e-07	25.713	249.889	305.036	210.041	186.846	271.914	231.890	187.017	193.428	269.315	403.885	191.018	194.557	195.616	200.152	327.993	197.519	-8191	255	
3176.923	1	1	0	0	0.12767	0.097916	0.14361	0.20627	0.13636	0.099655	0.18196	0.086618	0.096879	0.10193	0.18132	0.32879	0.087255	0.16878	0.19593	0.13185	-3.0938	-2.7292	-2.8812	-3.3563	-2.5479	-3.125	-3.2208	-2.6354	-3.2958	-2.9708	-2.6833	-3.525	-2.6937	-2.9792	-3.2771	-2.6188	347.072	341.923	283.688	438.629	531.077	529.771	518.333	475.707	491.933	403.077	209.706	497.346	247.491	197.309	395.197	307.367	0.00026133	0.00023245	8.1252e-05	215.96	2.121e-06	1.849e-06	364.72	79.054	1.8297e-06	3.8393e-06	154.14	60.351	29.531	12.496	2.3642e-06	27.677	6.313e-05	5.1168e-05	1.4616e-05	201.68	5.9268e-07	5.8583e-07	342.53	73.603	5.6711e-07	5.7905e-07	140.79	56.361	27.486	11.601	5.6529e-07	25.553	246.728	275.050	277.793	186.700	279.342	335.116	186.887	192.106	321.917	360.208	191.022	194.248	195.084	200.545	360.446	198.047	-8191	255	
3177.019	1	1	0	0	0.15848	0.12347	0.13955	0.1718	0.083667	0.22838	0.17392	0.084674	0.28617	0.13284	0.29284	0.26049	0.24526	0.13575	0.14574	0.078409	-3.0854	-3.0708	-2.6937	-3.4417	-2.7062	-3.1604	-3.2292	-2.5479	-3.3479	-3.1354	-2.6271	-3.4229	-2.8229	-2.8625	-3.375	-2.5604	456.423	311.466	459.795	197.483	260.599	432.916	381.361	480.487	342.213	266.667	412.168	523.514	190.302	285.155	464.020	425.313	0.00025239	0.00016773	5.9091e-05	214.5	1.9328e-06	2.1967e-06	365.09	78.116	4.0664e-07	2.2547e-06	153.51	60.707	29.506	12.363	2.177e-06	27.82	6.356e-05	5.2051e-05	1.5233e-05	201.03	5.8101e-07	5.8611e-07	342.27	73.15	5.8288e-07	5.7038e-07	140.71	56.246	27.531	11.555	5.6158e-07	25.466	260.357	259.428	273.932	187.044	349.361	235.019	186.412	192.776	364.416	331.605	190.373	194.741	195.210	200.611	349.493	198.582	-8191	255	
3177.115	1	1	0	0	0.052122	0.072314	0.25708	0.23039	0.10502	0.13391	0.22373	0.19075	0.096109	0.39596	0.12342	0.11673	0.041993	0.24606	0.19494	0.091639	-2.7354	-3.1083	-2.6729	-3.5333	-2.8333	-2.9833	-3.5271	-2.6708	-3.3729	-3.1688	-2.6854	-3.4792	-2.8729	-2.8292	-3.4813	-2.5812	340.501	453.586	513.867	384.778	289.142	429.790	180.833	462.656	301.137	432.745	442.643	514.659	451.033	305.582	288.984	446.700	0.00022592	0.00030227	1.3704e-05	215.88	1.7088e-06	1.5303e-06	368.41	78.645	7.6254e-07	1.4128e-06	156.37	60.955	29.711	12.352	1.6694e-06	28.028	6.3166e-05	5.2673e-05	1.4824e-05	201.59	5.8046e-07	5.6427e-07	343.81	73.586	5.7808e-07	5.7614e-07	141.6	56.512	27.572	11.594	5.8755e-07	25.685	246.248	274.625	265.046	187.158	344.292	285.349	186.395	192.378	312.980	428.762	191.283	195.056	195.419	200.326	232.560	198.379	-8191	255	
3177.236	1	1	0	0	0.13765	0.17543	0.25815	0.12406	0.13275	0.16314	0.21865	0.19171	0.17764	0.056653	0.14638	0.15654	0.21782	0.17477	0.10171	0.064212	-2.8917	-3.1875	-2.6583	-3.4375	-2.8917	-2.9208	-3.4146	-2.6604	-3.1375	-3.4396	-2.6146	-3.4229	-2.9604	-2.7438	-3.3333	-2.6625	429.059	215.865	192.665	405.660	472.192	397.803	490.758	459.606	257.982	476.096	423.884	450.570	238.630	459.935	216.949	465.535	0.00025809	9.6661e-05	6.5846e-05	216.78	2.2499e-06	2.359e-06	367.79	78.765	3.5888e-06	4.4944e-07	156.56	60.883	29.37	12.369	5.5388e-07	27.911	6.2976e-05	5.2147e-05	1.4647e-05	201.79	5.8856e-07	5.8564e-07	344.27	73.584	5.9493e-07	5.7027e-07	141.93	56.426	27.437	11.573	5.6396e-07	25.58	256.495	324.843	255.463	186.898	306.588	240.437	186.669	192.538	277.895	410.186	189.866	194.045	194.608	200.311	304.156	197.597	-8191	255	
3177.332	1	1	0	0	0.18748	0.19857	0.15263	0.023694	0.093876	0.13972	0.17061	0.22954	0.084077	0.23606	0.24126	0.26143	0.070431	0.068819	0.22198	0.074884	-2.7083	-3.3812	-2.6854	-3.4479	-3.0438	-2.6042	-3.6042	-2.7188	-2.9375	-3.4542	-2.5417	-3.1542	-3.1688	-2.4521	-3.3688	-2.85	400.187	427.999	294.382	317.404	175.070	369.992	183.918	184.741	215.372	363.735	437.794	220.078	290.645	513.106	224.458	286.560	0.0002582	0.00023929	8.9149e-05	217	2.0454e-06	1.6271e-06	365.29	77.63	4.3401e-07	2.6719e-06	155.61	60.686	29.499	12.347	2.0684e-06	27.354	6.3139e-05	5.2243e-05	1.5061e-05	201.79	5.8137e-07	5.784e-07	341.53	73.121	5.6681e-07	5.599e-07	141.08	56.139	27.365	11.497	5.613e-07	25.305	246.380	268.687	288.270	187.045	374.766	445.974	186.523	191.927	273.393	344.023	191.033	193.921	195.279	199.363	298.512	197.517	-8191	255	
3177.403	1	1	0	0	0.064702	0.1066	0.11813	0.085965	0.1034	0.06783	0.09085	0.10449	0.18646	0.18358	0.13583	0.11597	0.12673	0.026792	0.11754	0.15404	-2.5667	-3.4813	-2.4729	-3.2313	-3.1229	-2.5979	-3.4333	-2.8312	-2.8729	-3.5771	-2.6333	-3.0292	-3.1437	-2.575	-3.3167	-3.0875	257.120	183.649	273.965	230.113	465.530	343.478	385.314	487.464	361.545	491.254	294.865	363.132	341.339	261.203	449.276	514.263	0.00027667	0.00015106	6.513e-05	213.84	2.1906e-06	1.9375e-06	362.89	77.505	8.8707e-07	5.3017e-06	156.02	59.999	29.144	12.438	1.0383e-06	27.294	6.2036e-05	5.1793e-05	1.4522e-05	200.45	5.6807e-07	5.7187e-07	340.79	72.832	5.9556e-07	5.6744e-07	140.66	55.938	27.181	11.575	5.956e-07	25.327	248.164	239.280	268.176	186.916	360.299	341.358	186.076	191.506	400.140	289.076	190.539	193.921	194.370	200.261	390.322	197.427	-8191	255	
3177.524	1	1	0	0	0.15517	0.24895	0.031605	0.22603	0.020901	0.093491	0.091291	0.16126	0.18376	0.17308	0.22615	0.11233	0.061532	0.22084	0.093046	0.14688	-2.3042	-3.2479	-2.525	-3.1104	-3.1083	-2.5479	-3.3063	-2.9396	-2.5458	-3.3292	-2.7562	-3.0312	-3.3167	-2.4917	-3.4104	-3.075	392.792	448.374	448.376	363.403	184.735	383.120	184.511	185.224	205.404	471.990	183.940	356.161	362.679	460.599	253.401	437.607	0.00026006	0.00033302	2.7218e-05	215.22	1.9718e-06	1.6854e-06	366.75	78.044	3.948e-06	2.0536e-06	156.27	60.78	29.267	12.318	2.5514e-06	27.471	6.415e-05	5.2215e-05	1.4572e-05	201.23	5.712e-07	5.916e-07	342.13	73.117	5.8534e-07	5.7634e-07	141.04	56.174	27.331	11.497	5.7575e-07	25.457	256.463	288.872	284.407	187.020	376.420	268.605	186.057	192.069	290.869	365.949	189.970	193.604	194.845	198.957	321.924	197.107	-8191	255	
3177.620	1	1	0	0	0.075196	0.24423	0.12754	0.13008	0.2802	0.1123	0.043499	0.11704	0.23554	0.18282	0.05172	0.37087	0.15476	0.19262	0.13987	0.066152	-2.15	-3.4583	-2.6375	-2.8396	-3.3042	-2.6021	-3.2479	-3.0563	-2.3333	-3.4688	-2.8521	-2.7313	-3.4354	-2.6146	-3.1333	-3.2104	396.164	189.370	381.673	422.464	437.570	284.989	377.020	382.578	449.990	229.887	270.888	232.039	272.251	389.031	381.249	511.040	0.00023632	0.00031727	4.8538e-05	215.83	7.3551e-07	1.9043e-06	366.21	78.22	2.2465e-06	2.5657e-06	154.34	60.318	29.692	12.442	1.2661e-06	27.531	6.1788e-05	5.242e-05	1.4435e-05	200.98	5.9257e-07	5.8794e-07	342.67	72.96	5.5946e-07	5.5663e-07	140.86	55.87	27.373	11.534	5.829e-07	25.334	253.576	263.782	267.712	186.966	319.545	263.069	186.146	191.806	308.065	410.374	189.878	193.301	194.722	199.511	378.043	196.893	-8191	255	
3177.716	1	1	0	0	0.16079	0.087394	0.19512	0.1101	0.054124	0.047417	0.12712	0.056537	0.17668	0.013259	0.28933	0.22892	0.1917	0.060056	0.14665	0.12135	-1.9396	-3.4042	-2.8604	-2.7229	-3.3521	-2.5146	-3.1625	-3.2729	-2.4729	-3.3542	-2.9688	-2.6937	-3.3604	-2.5042	-3.0833	-3.1375	208.347	248.481	404.448	448.976	445.127	442.163	441.065	512.665	328.662	464.947	466.859	527.152	188.546	190.311	285.280	277.786	0.00022828	0.00012254	4.0023e-05	212.51	2.8759e-06	1.5986e-06	363.29	77.312	2.9002e-06	2.9205e-06	154.04	59.574	28.518	12.293	9.5497e-07	27.284	6.1361e-05	5.327e-05	1.4496e-05	199.92	5.7756e-07	5.7376e-07	338.97	72.776	5.949e-07	5.9014e-07	140.05	55.587	26.983	11.46	5.6468e-07	25.226	258.020	237.404	213.440	186.160	453.741	360.755	186.131	191.654	359.683	352.314	189.828	193.954	194.152	199.209	390.007	197.401	-8191	255	
3177.835	1	1	0	0	0.14434	0.11019	0.081031	0.13693	0.057335	0.11834	0.1731	0.072645	0.23241	0.15717	0.15389	0.043762	0.15807	0.090596	0.046247	0.05601	-1.9792	-3.4729	-2.9	-2.7771	-3.2729	-2.6833	-3.1208	-3.3458	-2.5167	-3.1417	-3.0042	-2.5417	-3.4875	-2.7083	-2.9271	-3.3292	474.795	400.148	398.428	227.070	473.811	510.927	389.482	330.825	418.584	389.217	231.439	337.711	205.049	191.268	452.496	299.774	0.00023651	0.00031971	3.1127e-05	212.14	1.3422e-06	1.0679e-06	365.99	77.401	2.3441e-06	1.4087e-06	154.2	59.906	29.28	12.183	2.3655e-06	27.271	6.2527e-05	4.9783e-05	1.4541e-05	199.18	5.6954e-07	5.6005e-07	340.13	72.536	5.8844e-07	5.566e-07	140.07	55.572	27.235	11.437	5.6568e-07	25.221	247.859	259.549	230.670	186.263	174.368	272.370	186.184	191.678	325.137	437.889	190.040	193.840	194.500	199.287	284.632	196.787	-8191	255	
3177.931	1	1	0	0	0.26844	0.24588	0.052539	0.19901	0.15587	0.21636	0.099728	0.17395	0.29539	0.22932	0.37001	0.070201	0.24016	0.16789	0.28383	0.1011	-2.0729	-3.0062	-3.0167	-2.6375	-3.3521	-2.6104	-2.9167	-3.3167	-2.7271	-3.2542	-3.0833	-2.4375	-3.5083	-2.8208	-2.7396	-3.3417	462.107	439.225	332.098	334.770	260.349	358.879	467.326	359.903	473.088	293.872	401.669	519.707	475.206	482.147	496.910	177.931	0.00023285	8.2947e-05	3.8768e-05	213.54	6.6791e-07	1.8984e-06	368.92	77.691	1.372e-06	2.3539e-06	153.91	60.613	29.318	12.314	2.5491e-06	27.806	6.1854e-05	5.1616e-05	1.4567e-05	200.44	5.7117e-07	5.5714e-07	343.14	72.95	5.8098e-07	5.8563e-07	140.28	56.076	27.379	11.505	5.7445e-07	25.494	249.451	527.297	193.619	185.970	177.729	284.591	185.966	191.525	308.114	435.790	189.638	193.523	195.320	199.290	282.199	196.837	-8191	255	
3178.003	1	1	0	0	0.19701	0.22842	0.11543	0.26022	0.12892	0.14668	0.41447	0.16025	0.13232	0.18154	0.065391	0.043491	0.11539	0.043686	0.10195	0.071916	-2.2354	-3.0687	-3.0708	-2.5812	-3.3479	-3	-2.775	-3.3083	-2.6125	-3.1521	-3.1042	-2.6021	-3.3312	-2.9437	-2.6708	-3.3208	232.286	500.603	197.078	482.776	401.822	374.434	451.617	489.931	321.272	414.777	358.228	226.342	462.815	254.248	460.443	301.863	0.00023383	0.00019807	6.219e-05	216.31	2.4723e-06	1.9128e-06	370.74	77.793	8.375e-07	1.935e-06	154.8	60.886	29.289	12.469	2.5218e-06	27.6	6.225e-05	5.0969e-05	1.4667e-05	201.94	5.7366e-07	5.7312e-07	345.84	73.193	5.9471e-07	5.7276e-07	140.54	56.223	27.337	11.595	6.1357e-07	25.397	247.852	179.153	285.721	186.425	297.687	280.297	186.247	191.536	343.041	360.094	189.240	193.146	194.554	198.993	372.423	196.901	-8191	255	
3178.124	1	1	0	0	0.17782	0.033683	0.11034	0.14628	0.30422	0.26165	0.099923	0.052361	0.13481	0.32449	0.031713	0.23327	0.037222	0.21717	0.092813	0.076684	-2.2729	-2.9271	-3.2771	-2.5396	-3.3125	-3.0917	-2.7167	-3.3771	-2.6729	-2.8667	-3.4167	-2.6521	-3.2687	-3.0583	-2.7292	-3.4875	263.368	373.970	489.988	462.396	426.516	436.676	524.427	378.873	312.213	381.315	466.166	245.802	476.563	501.659	227.916	388.640	0.00024216	0.00012407	0.00013019	215.18	1.3133e-06	2.741e-06	365.16	77.459	3.2719e-06	2.5975e-06	154.93	60.368	29.067	12.282	7.1569e-07	27.508	6.0845e-05	5.2511e-05	1.4267e-05	200.75	5.4665e-07	5.5747e-07	340.95	72.875	5.838e-07	5.6821e-07	140.3	55.896	27.312	11.489	5.9151e-07	25.2	245.667	531.355	316.534	185.758	321.443	276.830	185.984	191.404	365.922	247.777	189.704	193.567	194.650	199.381	305.746	197.140	-8191	255	
3178.220	1	1	0	0	0.071264	0.094638	0.18799	0.18229	0.26226	0.20726	0.091527	0.12395	0.13016	0.11636	0.22899	0.1346	0.12398	0.17544	0.066631	0.073293	-2.2771	-2.6833	-3.3417	-2.5854	-3.1437	-3.1792	-2.5896	-3.4833	-2.7667	-2.7896	-3.4583	-2.6875	-3.1042	-3.2333	-2.65	-3.4604	526.334	365.811	260.232	518.150	198.795	301.581	177.633	247.477	517.816	256.055	219.506	228.708	456.031	393.950	184.967	522.658	0.00025772	0.00013454	4.5549e-05	210.98	1.6872e-06	1.7644e-06	367.4	76.902	1.4569e-06	5.6414e-07	156.49	60.039	29.145	12.314	2.6012e-06	27.35	6.3404e-05	5.2137e-05	1.4743e-05	199.72	5.8571e-07	5.9027e-07	341.66	72.717	5.7631e-07	5.6808e-07	140.53	55.739	27.22	11.505	5.6955e-07	25.204	254.134	243.409	507.467	186.488	378.203	236.264	185.764	191.598	399.896	391.134	190.184	193.254	194.597	199.788	303.808	197.049	-8191	255	
3178.316	1	1	0	0	0.15024	0.18322	0.12811	0.10057	0.019587	0.085025	0.14527	0.073919	0.10619	0.21273	0.311	0.058922	0.070158	0.1974	0.15451	0.16582	-2.6521	-2.7854	-3.5625	-2.6854	-3.1	-3.3104	-2.5854	-3.3896	-2.7917	-2.6875	-3.4375	-2.7146	-3.0271	-3.3896	-2.6667	-3.2229	313.005	406.004	447.015	511.281	379.825	284.654	430.371	294.276	334.389	251.249	194.879	429.636	304.051	196.693	513.923	206.484	0.00026122	3.3538e-05	8.7089e-05	213.63	2.5042e-06	3.7968e-06	364.28	78.251	2.9978e-06	1.1886e-06	155.93	60.011	29.332	12.254	1.3606e-06	27.389	6.1183e-05	5.2625e-05	1.4405e-05	200.15	5.7424e-07	5.6755e-07	341.1	73.249	5.6692e-07	5.8574e-07	140.98	55.771	27.353	11.468	6.0225e-07	25.303	249.945	330.937	221.439	186.051	294.674	271.338	185.849	191.234	404.187	320.620	189.824	193.392	194.335	199.847	370.644	197.002	-8191	255	
3178.412	1	1	0	0	0.19377	0.24006	0.15733	0.15333	0.082823	0.04893	0.19708	0.3359	0.15297	0.25731	0.030457	0.12877	0.09408	0.1078	0.16825	0.17799	-2.5708	-2.5729	-3.3521	-2.6771	-3.0062	-3.4	-2.5563	-3.2062	-2.9917	-2.6854	-3.4708	-2.8146	-2.8521	-3.2417	-2.3958	-3.2542	517.229	286.061	275.163	313.294	287.696	489.464	324.438	487.584	194.286	298.435	291.550	512.732	191.956	419.823	483.092	439.802	0.00025213	0.00017588	9.658e-05	212.61	2.7187e-06	1.9193e-06	367.05	78.663	2.8607e-06	1.2813e-06	154.66	60.362	29.495	12.256	9.989e-07	27.683	6.1774e-05	5.1801e-05	1.4477e-05	199.38	5.7957e-07	5.7559e-07	341.64	73.329	5.6711e-07	5.7736e-07	140.78	55.978	27.319	11.456	5.7977e-07	25.297	250.526	208.363	211.321	186.632	348.758	239.038	185.651	191.959	325.388	266.090	190.038	193.236	194.872	199.137	289.456	197.178	-8191	255	
3178.508	1	1	0	0	0.32231	0.23609	0.13787	0.14735	0.15962	0.29071	0.14351	0.1364	0.11386	0.12507	0.24036	0.12204	0.11859	0.12973	0.13896	0.044602	-2.7229	-2.6146	-3.2062	-2.7021	-2.8812	-3.4062	-2.6292	-3.0792	-3.2208	-2.5042	-3.3625	-2.8688	-2.6583	-3.3958	-2.6	-3.1167	363.022	182.638	440.548	470.822	520.373	363.475	259.265	273.653	339.056	392.192	415.018	412.867	231.285	533.034	411.275	240.899	0.00023049	0.00022803	2.4288e-05	210.47	1.6597e-06	3.0403e-06	364.76	77.408	2.8161e-06	3.0148e-06	155.5	59.563	28.967	12.287	1.0237e-06	27.19	6.1594e-05	5.3457e-05	1.416e-05	198.85	5.7955e-07	5.7537e-07	340.28	72.621	5.6985e-07	5.7135e-07	140.11	55.633	27.097	11.456	5.7808e-07	25.147	254.919	265.132	183.458	186.021	347.136	219.027	186.150	191.616	310.964	337.174	190.317	193.134	195.245	198.800	351.786	197.397	-8191	255	
3178.627	1	1	0	0	0.064466	0.16252	0.11334	0.11574	0.28502	0.14596	0.16594	0.1631	0.37551	0.13245	0.074732	0.1206	0.1318	0.22334	0.18409	0.12934	-2.8333	-2.5375	-3.2833	-2.8833	-2.4708	-3.3208	-2.6625	-2.7646	-3.1708	-2.3917	-3.3417	-2.9917	-2.5812	-3.5167	-2.6437	-2.7333	381.748	354.311	447.977	500.913	291.968	294.344	508.069	229.694	200.963	511.952	257.671	188.810	519.350	203.337	214.484	512.007	0.0002412	0.0002348	3.4024e-05	211.92	1.1281e-06	1.1133e-06	364.39	76.873	1.7732e-06	1.8421e-06	154.5	59.747	28.877	12.29	3.6837e-06	27.302	6.2172e-05	5.2038e-05	1.4692e-05	199.17	5.7709e-07	5.6524e-07	339.9	72.599	5.72e-07	5.6638e-07	139.94	55.562	27.074	11.474	5.8159e-07	25.238	256.102	274.476	226.462	185.795	303.732	396.821	185.767	192.034	338.194	296.321	189.589	193.659	195.296	199.448	314.983	197.360	-8191	255	
3178.701	1	1	0	0	0.032249	0.20581	0.17358	0.059071	0.15786	0.29404	0.076779	0.014272	0.1674	0.16786	0.038305	0.2769	0.14619	0.21565	0.28517	0.26025	-2.9479	-2.6063	-3.1125	-3.1083	-2.5312	-3.3479	-2.8479	-3.025	-3.3146	-2.5625	-3.1979	-2.975	-2.6125	-3.3333	-2.8187	-2.7562	333.807	437.390	527.667	444.969	510.480	510.052	511.943	466.891	347.445	222.769	314.475	482.653	502.802	316.004	289.804	211.753	0.0002301	0.00025188	6.3225e-05	212.26	1.1318e-06	5.0059e-07	363.35	77.612	1.5686e-06	2.4115e-06	154.06	60.054	29.127	12.22	1.3803e-06	27.315	6.0026e-05	5.3361e-05	1.4755e-05	200.24	5.749e-07	5.9543e-07	340.32	72.931	5.7523e-07	5.7381e-07	139.51	55.664	27.169	11.423	5.7168e-07	25.187	255.559	291.182	249.179	186.342	295.342	176.299	185.176	191.596	291.212	485.463	189.853	193.523	194.483	198.871	246.022	196.756	-8191	255	
3178.797	1	1	0	0	0.11685	0.038633	0.068672	0.24736	0.35091	0.23067	0.16566	0.21005	0.1231	0.0394	0.094405	0.18984	0.19376	0.17045	0.16339	0.25197	-3.2521	-2.7771	-3.1437	-3.2604	-2.6854	-3.4583	-3.0938	-2.7229	-3.5187	-2.5438	-3.0583	-3.2458	-2.5646	-3.2979	-2.9479	-2.6312	486.420	409.157	184.081	490.255	264.829	298.619	470.110	218.960	266.141	319.619	527.240	495.313	405.048	318.063	241.600	433.297	0.0002371	0.00017789	5.715e-05	213.6	7.6503e-07	1.1832e-06	366.66	77.161	2.0547e-06	1.9989e-06	154.48	60.023	29.071	12.134	5.2127e-07	27.143	6.1616e-05	5.133e-05	1.4872e-05	199.6	5.9124e-07	5.6302e-07	341.49	73.059	5.5311e-07	5.8014e-07	140.01	55.797	27.299	11.42	5.7653e-07	25.093	258.598	234.067	261.563	186.222	391.836	424.064	186.494	191.865	204.233	355.541	189.690	193.118	194.444	199.186	415.438	197.003	-8191	255	
3178.916	1	1	0	0	0.20072	0.29543	0.083614	0.089314	0.14502	0.12919	0.010012	0.12187	0.051038	0.01174	0.26322	0.10608	0.068421	0.089282	0.24168	0.22604	-2.9375	-2.7417	-3.0125	-3.1833	-2.6104	-3.1792	-3.1271	-2.5458	-3.4875	-2.6667	-3.1875	-3.2208	-2.5354	-3.1229	-2.9688	-2.7542	415.943	201.288	286.638	319.401	320.103	190.629	314.107	516.333	175.765	256.805	407.687	270.352	395.332	268.062	380.169	508.565	0.00022896	0.00020913	1.3997e-05	211.63	3.2166e-06	1.3102e-06	366.6	78.199	7.443e-07	1.01e-06	153.96	59.862	29.457	12.244	1.0563e-06	27.462	6.3431e-05	5.2433e-05	1.459e-05	199.58	5.7131e-07	5.8547e-07	340.34	72.953	5.5894e-07	5.594e-07	140.2	55.636	27.381	11.458	5.7437e-07	25.21	243.074	306.149	203.842	185.404	313.190	369.427	185.677	191.700	260.016	377.670	190.258	193.180	194.026	199.661	323.992	196.943	-8191	255	
3179.012	1	1	0	0	0.12048	0.20675	0.091775	0.19702	0.17344	0.16539	0.25206	0.16527	0.12528	0.042861	0.1062	0.083468	0.22995	0.10079	0.043832	0.10937	-3.1562	-2.8271	-2.875	-3.5687	-2.4792	-3.3021	-3.3604	-2.6167	-3.2979	-2.7583	-2.7292	-3.2208	-2.6896	-3.1833	-3.1521	-2.5062	242.166	504.234	303.474	304.709	434.040	477.457	518.914	269.649	353.483	393.994	226.505	302.193	205.690	343.506	212.812	408.371	0.00023686	9.1709e-05	6.4098e-05	211.41	1.1247e-06	6.16e-07	361.47	77.983	1.6613e-06	2.3754e-06	156.84	59.85	29.549	12.343	2.1534e-06	27.453	6.1484e-05	5.0615e-05	1.4567e-05	199.08	5.9276e-07	5.7434e-07	339.53	73.006	5.6866e-07	5.6375e-07	140.81	55.871	27.46	11.521	5.6717e-07	25.267	253.054	296.077	256.351	186.816	340.453	174.847	185.821	192.011	303.740	269.069	189.630	193.332	194.573	199.883	301.544	196.686	-8191	255	
3179.108	1	1	0	0	0.031661	0.11146	0.19351	0.12599	0.055379	0.30856	0.063615	0.16411	0.24883	0.11845	0.24332	0.33144	0.15826	0.25421	0.13533	0.18291	-2.9313	-2.9313	-2.7854	-3.3896	-2.5479	-3.0729	-3.4771	-2.6854	-3.275	-2.9729	-2.7333	-3.4208	-2.7562	-3.1125	-3.3417	-2.8479	337.089	370.529	257.904	387.484	288.553	188.210	472.238	336.059	512.212	289.891	386.356	417.738	361.851	424.659	380.391	422.372	0.00027228	7.379e-05	5.8244e-05	214.24	2.6985e-06	2.0748e-06	366.15	78.122	3.3937e-06	1.7274e-06	156.66	60.49	29.457	12.388	1.6579e-07	27.553	6.3096e-05	5.1442e-05	1.4936e-05	201.05	5.9948e-07	5.7168e-07	341.89	73.446	5.867e-07	5.7473e-07	141.66	56.322	27.439	11.583	5.7453e-07	25.353	246.922	206.293	505.094	186.316	365.027	325.581	186.000	192.197	289.738	246.516	189.418	193.331	194.854	199.390	192.629	197.250	-8191	255	
3179.204	1	1	0	0	0.16371	0.057515	0.15589	0.26881	0.13021	0.29493	0.11182	0.12184	0.10984	0.17796	0.24766	0.17291	0.3178	0.21725	0.10371	0.10634	-2.7979	-2.9	-2.7146	-3.625	-2.6542	-3.0062	-3.4813	-2.6333	-3.1542	-3.0938	-2.6	-3.4375	-2.7958	-2.75	-3.3063	-2.6125	272.046	243.949	389.406	526.724	390.791	214.826	442.392	511.718	378.889	373.271	214.216	493.705	261.695	247.578	493.245	456.002	0.00025485	0.00029661	7.9545e-05	212.91	1.848e-06	2.4248e-06	367.26	77.747	1.5077e-06	3.7756e-07	154.74	61.058	29.521	12.334	5.1199e-07	27.489	6.1676e-05	5.2718e-05	1.4534e-05	200.53	5.94e-07	5.9385e-07	343.19	73.536	5.7623e-07	5.8859e-07	140.91	56.355	27.5	11.563	5.7196e-07	25.321	251.837	295.929	245.267	186.037	291.847	312.388	186.204	192.227	531.913	443.197	189.744	193.731	194.874	198.992	220.597	197.269	-8191	255	
3179.300	1	1	0	0	0.093396	0.23911	0.077462	0.070118	0.03735	0.0059258	0.20235	0.011131	0.26646	0.087794	0.10472	0.2481	0.17457	0.19253	0.14953	0.1927	-2.5625	-3.1979	-2.6583	-3.275	-2.8417	-2.6875	-3.2458	-2.7125	-2.9854	-3.2604	-2.5042	-3.2708	-2.8292	-2.7021	-3.3937	-2.7292	421.205	242.018	231.576	478.439	419.285	499.866	208.930	390.677	255.606	517.760	302.919	228.979	450.618	386.092	336.892	356.349	0.00023389	0.00010495	0.00014123	213.44	2.0347e-06	1.9095e-06	366.41	77.696	2.7119e-06	3.9579e-06	155.49	60.034	29.431	12.295	6.8818e-07	27.113	6.2738e-05	5.264e-05	1.4883e-05	199.57	5.8082e-07	5.7074e-07	340.74	73.407	5.8625e-07	5.6494e-07	140.6	55.805	27.391	11.514	6.0053e-07	25.144	242.401	211.156	288.520	185.866	354.833	233.940	185.908	191.741	295.880	357.298	189.874	193.417	194.724	199.382	262.296	196.500	-8191	255	
3179.396	1	1	0	0	0.27957	0.23751	0.067069	0.22159	0.023337	0.070019	0.069061	0.24957	0.17245	0.2407	0.21817	0.073143	0.052792	0.11988	0.042658	0.11745	-2.8	-3.1813	-2.5875	-3.3458	-2.9896	-2.6604	-3.4062	-2.7812	-3.0521	-3.3875	-2.5708	-3.1333	-2.9542	-2.6333	-3.3896	-2.875	393.439	220.169	214.320	482.788	294.951	339.154	347.402	520.759	280.959	260.453	179.664	371.759	532.253	250.012	411.983	312.046	0.0002627	0.00015955	9.0251e-05	214.15	2.3509e-06	1.5886e-06	364.54	77.262	2.061e-06	2.6387e-06	154.11	60.318	29.112	12.42	1.9198e-06	27.53	6.2374e-05	5.1485e-05	1.479e-05	199.99	5.8281e-07	5.6247e-07	341.17	72.682	5.6523e-07	5.536e-07	140.31	55.901	27.226	11.534	5.6941e-07	25.265	251.769	258.438	207.689	186.717	300.585	239.091	185.756	191.700	281.668	262.778	189.719	193.665	195.245	199.345	315.862	196.680	-8191	255	
3179.517	1	1	0	0	0.11723	0.097426	0.14847	0.22615	0.17051	0.041846	0.13252	0.070774	0.095193	0.085213	0.056226	0.14922	0.060675	0.085608	0.13788	0.27111	-2.5438	-3.4062	-2.6437	-3.2458	-3.0729	-2.5771	-3.5938	-2.8271	-2.8125	-3.2917	-2.6604	-3.3833	-3.2104	-2.5708	-3.4875	-2.7542	256.295	339.257	463.250	204.404	297.145	496.931	489.706	434.260	319.464	316.043	472.071	499.710	421.807	474.723	491.889	260.086	0.00027725	0.00017541	7.0639e-06	210.62	1.9045e-06	1.5247e-06	364.06	78.519	3.2521e-06	8.5274e-07	154.07	60.34	29.679	12.367	2.3066e-07	27.392	6.241e-05	5.044e-05	1.4476e-05	199.18	5.665e-07	5.8453e-07	339.81	73.406	5.873e-07	5.6356e-07	140.19	55.981	27.498	11.525	5.6612e-07	25.225	244.511	410.414	200.324	186.472	424.890	338.916	186.215	191.428	256.748	519.131	189.682	193.632	194.682	199.736	247.266	196.989	-8191	255	
3179.611	1	1	0	0	0.11374	0.34335	0.16424	0.11448	0.10402	0.095068	0.14051	0.16734	0.16512	0.1803	0.094848	0.057199	0.23332	0.15263	0.1924	0.18782	-2.5896	-3.3583	-2.6229	-3.0938	-3.2396	-2.5625	-3.3542	-2.6979	-2.6	-3.3312	-2.7083	-3.0958	-3.2396	-2.5479	-3.2583	-2.9542	365.893	526.852	490.788	452.856	404.743	317.729	523.414	476.287	468.516	264.188	198.143	435.343	421.876	474.958	236.758	376.474	0.00025899	0.00023686	3.5333e-05	213.87	1.4083e-06	1.2501e-06	365.79	78.777	9.0972e-07	2.0095e-06	154.39	60.469	29.312	12.241	1.4591e-06	27.232	6.2515e-05	5.1568e-05	1.4398e-05	199.94	5.8303e-07	5.6488e-07	340.54	73.453	5.6963e-07	5.5505e-07	140.55	56.101	27.238	11.495	5.613e-07	25.046	251.081	212.261	227.084	186.449	280.808	492.024	185.968	191.643	321.397	328.882	189.824	193.689	194.704	199.494	202.035	197.132	-8191	255	
3179.707	1	1	0	0	0.09184	0.2975	0.13219	0.26091	0.15145	0.058213	0.25423	0.17222	0.079616	0.093123	0.24084	0.11046	0.10861	0.35489	0.055351	0.073412	-2.2625	-3.3729	-2.5	-3.1104	-3.5625	-2.5438	-3.2479	-2.9313	-2.6021	-3.5458	-2.7542	-2.9729	-3.4354	-2.6375	-3.225	-3.1167	325.259	307.650	341.509	304.968	392.145	219.754	476.785	217.439	444.366	214.205	368.659	193.481	350.954	528.744	335.825	466.199	0.00024558	0.00026271	7.5907e-05	213.4	2.2602e-06	2.3777e-06	362.81	77.706	1.8851e-06	2.932e-06	155.13	59.834	28.939	12.244	1.2602e-06	27.098	6.1465e-05	5.0751e-05	1.4413e-05	199.54	5.778e-07	5.6266e-07	338.95	72.821	5.9236e-07	5.5438e-07	140.62	55.412	27.126	11.391	5.7415e-07	25.033	249.885	250.776	235.667	186.184	336.945	327.322	186.022	191.460	175.810	289.376	189.234	193.386	194.213	199.439	308.500	197.410	-8191	255	
3179.804	1	1	0	0	0.24414	0.32761	0.19978	0.070849	0.051314	0.24672	0.20768	0.012405	0.14556	0.16329	0.084497	0.095015	0.23476	0.13405	0.21514	0.12912	-2.2917	-3.4083	-2.7979	-2.7458	-3.325	-2.5875	-3.1125	-3.1771	-2.5771	-3.4313	-2.6771	-2.7521	-3.4062	-2.7458	-3.1896	-3.0854	409.406	443.970	225.209	331.522	526.645	316.696	195.352	365.257	519.583	299.839	519.312	525.758	503.789	477.430	272.629	528.660	0.00022199	0.00029032	4.7596e-05	211.73	2.4028e-06	2.3803e-06	362.06	77.726	1.5843e-06	1.0012e-06	155.4	60.336	29.139	12.173	1.7523e-06	27.06	6.2517e-05	5.3358e-05	1.4566e-05	199.04	5.6556e-07	5.9172e-07	337.85	72.904	5.7642e-07	5.6525e-07	140.41	55.773	27.174	11.387	5.9411e-07	24.96	253.719	264.017	201.671	186.137	412.993	333.809	185.933	191.550	258.583	232.197	189.380	193.448	194.374	199.033	321.936	197.022	-8191	255	
3179.924	1	1	0	0	0.22616	0.15449	0.1309	0.14975	0.15516	0.28273	0.23556	0.29779	0.15139	0.090099	0.096587	0.051201	0.12018	0.023294	0.23168	0.21549	-2.0958	-3.1854	-2.8854	-2.9833	-3.3312	-2.7417	-3.1479	-3.3271	-2.6542	-3.35	-2.925	-2.6437	-3.3792	-2.6708	-2.9813	-3.4479	411.957	469.019	407.195	484.112	307.381	457.454	206.578	434.015	472.047	385.425	245.564	211.375	399.549	339.807	293.288	384.489	0.00025234	0.00026175	5.4921e-05	211.75	4.8097e-07	1.8697e-06	365.79	77.481	1.9733e-06	1.5672e-06	156.58	60.385	29.68	12.24	1.3384e-06	27.067	6.3295e-05	5.1414e-05	1.4448e-05	199.04	5.7286e-07	5.5267e-07	339.32	72.934	5.7324e-07	5.6796e-07	140.98	55.967	27.317	11.393	5.8924e-07	25.001	255.983	256.211	242.588	186.573	358.365	232.780	185.595	191.864	310.686	263.871	189.807	193.474	195.188	199.720	281.296	196.792	-8191	255	
3179.996	1	1	0	0	0.21036	0.20521	0.077667	0.3544	0.26427	0.1838	0.10559	0.33059	0.070284	0.14863	0.15132	0.15167	0.19799	0.073657	0.027177	0.13473	-2.0729	-3.2	-2.9667	-2.5375	-3.35	-2.6729	-2.9729	-3.4292	-2.6104	-3.3354	-3.1479	-2.5563	-3.3792	-2.7438	-2.8563	-3.5042	389.844	185.935	212.734	458.854	487.719	444.560	480.269	188.467	405.264	334.060	316.049	360.103	344.587	203.997	424.001	509.865	0.0002517	0.00015147	7.2084e-05	212.28	3.4504e-06	8.6619e-07	360.26	78.089	4.8121e-07	3.558e-06	153.9	60.034	29.015	12.032	2.9764e-06	26.856	6.1382e-05	5.1072e-05	1.4524e-05	198.9	5.6957e-07	5.8922e-07	338.48	72.809	5.7722e-07	5.6724e-07	139.67	55.602	27.166	11.312	6.1066e-07	24.838	259.167	208.074	324.087	186.478	379.804	383.393	185.573	191.702	293.325	344.764	189.170	193.678	194.698	199.353	279.948	196.951	-8191	255	
3180.092	1	1	0	0	0.27299	0.2508	0.069728	0.19207	0.16072	0.15249	0.078727	0.081293	0.044808	0.1195	0.095826	0.074806	0.18634	0.37424	0.18899	0.033216	-2.3063	-3.1958	-3.1937	-2.4562	-3.4542	-2.775	-2.8146	-3.5292	-2.5396	-3.0625	-3.2292	-2.5375	-3.1833	-2.6875	-2.7021	-3.3833	235.544	518.871	428.405	254.284	374.935	241.953	484.346	422.819	199.148	529.562	429.465	392.802	362.758	485.749	515.599	247.895	0.0002253	0.00017875	8.7377e-05	209.66	2.8907e-06	1.9694e-06	362.37	76.786	7.8484e-07	1.7788e-06	152.94	59.924	28.99	12.056	1.073e-06	26.852	6.1927e-05	5.3532e-05	1.441e-05	197.94	5.8004e-07	5.6155e-07	338.85	72.304	5.6546e-07	5.5388e-07	139.34	55.436	26.972	11.238	5.8118e-07	24.705	251.864	259.519	252.710	186.249	264.435	295.842	186.681	191.723	289.736	329.607	189.809	193.671	194.723	199.375	194.948	197.050	-8191	255	
3180.188	1	1	0	0	0.13411	0.13646	0.098234	0.15254	0.09606	0.022587	0.17524	0.16945	0.1295	0.29895	0.058431	0.20379	0.12044	0.11486	0.11459	0.23839	-2.0354	-3.0271	-3.1937	-2.5563	-3.2542	-3.0604	-2.6042	-3.3229	-2.55	-2.9833	-3.2583	-2.4542	-3.2583	-3.0042	-2.5104	-3.3354	482.856	311.500	438.245	454.821	179.538	465.806	501.425	362.188	289.787	291.503	242.858	343.616	442.642	493.848	375.223	479.673	0.00027488	1.8122e-05	1.0557e-05	212.09	2.8792e-06	1.6348e-06	359.76	76.806	1.8922e-06	8.9921e-07	152.53	59.198	29.316	12.022	1.1007e-06	26.906	6.1667e-05	5.2412e-05	1.4477e-05	198.59	5.6459e-07	5.6768e-07	337.57	72.212	5.6081e-07	5.6419e-07	139.17	55.268	27.093	11.264	5.8863e-07	24.796	250.585	376.137	458.082	186.037	337.209	283.345	186.302	191.449	278.213	318.133	189.776	193.387	194.192	200.068	362.292	196.984	-8191	255	
3180.309	1	1	0	0	0.11413	0.12138	0.091488	0.19344	0.18297	0.12385	0.13257	0.10425	0.10196	0.04693	0.28378	0.10244	0.17063	0.33383	0.20841	0.098665	-2.1083	-2.8521	-3.4062	-2.6021	-3.2062	-3.0792	-2.7146	-3.4646	-2.7604	-3.0667	-3.4667	-2.6479	-3.2104	-3.1417	-2.5271	-3.3312	468.836	355.684	184.617	174.689	447.924	180.285	418.285	419.908	265.403	457.464	447.703	479.942	531.726	444.001	438.358	473.723	0.00023464	0.00015695	5.3438e-05	213.06	3.1376e-06	5.3686e-07	364.29	77.434	1.6812e-06	1.0827e-06	154.04	59.478	28.989	12.012	1.5303e-06	27.164	6.364e-05	5.2754e-05	1.4e-05	199.11	5.7507e-07	5.8633e-07	339.61	72.889	5.5236e-07	5.9428e-07	140.32	55.363	27.021	11.239	5.9272e-07	24.939	247.329	255.932	224.192	185.906	362.015	313.914	185.675	191.593	226.770	346.990	189.678	193.641	194.802	198.803	529.111	197.229	-8191	255	
3180.405	1	1	0	0	0.21005	0.2495	0.082439	0.36695	0.037839	0.059599	0.36405	0.036888	0.17373	0.21223	0.11017	0.11203	0.054079	0.25186	0.12259	0.062403	-2.4021	-2.7521	-3.3583	-2.4875	-3.1437	-2.9479	-2.7229	-3.2708	-2.8812	-2.85	-3.4542	-2.5187	-2.9	-3.05	-2.4938	-3.3458	261.686	384.262	518.380	246.958	356.582	220.668	492.218	336.815	277.273	254.680	478.733	223.353	243.028	455.406	261.873	292.932	0.00024737	0.00019468	7.5475e-05	212.83	2.2495e-06	1.9717e-06	360.35	77.829	1.9232e-06	9.3893e-07	154.41	60.077	29.111	12.006	7.305e-07	26.633	6.3105e-05	5.2964e-05	1.445e-05	198.42	5.7092e-07	5.5533e-07	338.35	72.661	5.6648e-07	5.9012e-07	140.27	55.367	27.061	11.204	5.6811e-07	24.7	254.095	324.847	288.136	186.171	350.178	377.888	185.960	191.761	336.162	315.223	189.804	193.242	195.014	199.828	301.476	197.035	-8191	255	
3180.501	1	1	0	0	0.44773	0.17668	0.16462	0.10556	0.17057	0.21269	0.099868	0.029317	0.038619	0.15544	0.1189	0.032383	0.15858	0.15497	0.32941	0.12055	-2.6312	-2.575	-3.4375	-2.7396	-2.9062	-3.2938	-2.5833	-3.2333	-2.9875	-2.6979	-3.3937	-2.7625	-2.9104	-3.3312	-2.4708	-3.2479	516.074	399.847	322.177	523.777	215.132	356.123	407.997	405.501	365.437	275.416	305.623	469.831	359.238	208.056	459.101	514.368	0.00023983	0.00033658	1.5989e-05	211.03	1.2984e-06	1.2146e-06	359.46	77.268	3.0911e-07	2.1989e-06	153.9	59.561	28.999	11.895	3.8345e-07	26.791	6.1465e-05	5.2774e-05	1.4291e-05	197.04	5.5809e-07	5.7218e-07	336.41	72.41	5.6233e-07	5.7573e-07	139.69	55.065	26.936	11.158	5.8813e-07	24.671	253.757	279.546	243.515	186.482	417.058	332.730	185.768	191.709	375.945	323.816	189.457	193.266	194.657	199.288	331.806	196.878	-8191	255	
3180.597	1	1	0	0	0.18512	0.17872	0.15233	0.26203	0.11386	0.12083	0.219	0.12822	0.14567	0.19099	0.24582	0.24538	0.23005	0.056527	0.18542	0.088621	-2.6271	-2.5833	-3.2125	-2.6437	-2.8771	-3.2917	-2.6896	-3.1146	-3.1083	-2.5021	-3.3417	-2.7354	-2.8583	-3.5	-2.4417	-3.0854	374.220	436.709	223.378	403.252	401.924	301.535	363.662	519.411	476.586	232.284	300.831	480.950	406.197	337.881	393.838	207.886	0.00022593	7.8731e-05	7.215e-05	210.47	2.1437e-06	2.9518e-06	360.39	76.387	1.7925e-06	2.6822e-06	152.9	59.783	28.845	12.017	1.9913e-06	26.924	6.3676e-05	5.1381e-05	1.4607e-05	197.51	5.9284e-07	5.6746e-07	336.58	72.478	5.7054e-07	5.6738e-07	139.64	55.262	26.932	11.236	5.7224e-07	24.764	249.388	313.362	249.968	186.199	374.908	346.837	186.064	191.551	301.801	371.395	189.689	193.091	194.064	199.660	367.296	196.969	-8191	255	
3180.692	1	1	0	0	0.091863	0.12164	0.071004	0.045835	0.30588	0.14126	0.25499	0.064792	0.19464	0.10585	0.059283	0.12662	0.17772	0.24369	0.18567	0.11965	-2.7812	-2.4333	-3.2812	-2.8458	-2.6437	-3.4792	-2.5667	-3.0604	-3.2167	-2.4979	-3.3937	-2.8417	-2.6833	-3.5646	-2.5604	-3.0104	482.946	497.642	424.026	405.784	388.239	318.922	440.835	236.308	521.292	505.048	280.855	491.728	220.841	491.802	283.632	186.446	0.00024088	0.00027622	9.531e-06	213.89	4.4293e-06	1.0844e-06	362.59	76.82	2.0415e-06	3.662e-06	153.25	59.458	29.114	11.93	1.6029e-06	27.154	6.0299e-05	5.1115e-05	1.482e-05	198.17	5.9182e-07	5.8073e-07	338.14	72.386	5.7498e-07	5.7756e-07	139.79	55.393	27.052	11.231	5.8409e-07	24.983	249.112	287.942	284.664	186.247	289.479	209.224	185.773	191.538	282.385	308.286	190.518	193.452	194.535	199.315	325.055	197.021	-8191	255	
3180.788	1	1	0	0	0.14503	0.13953	0.12594	0.062309	0.27713	0.2839	0.31812	0.27083	0.051154	0.16215	0.12116	0.13153	0.058142	0.10561	0.089864	0.095468	-2.8208	-2.6125	-3.1146	-2.825	-2.4437	-3.4333	-2.7812	-2.875	-3.4	-2.4833	-3.175	-3.0354	-2.5708	-3.4771	-2.8833	-3.0229	245.986	408.596	486.838	346.463	332.548	361.345	497.841	521.719	474.833	181.401	241.969	391.556	246.005	515.249	446.276	214.974	0.00026677	4.1441e-05	5.4005e-05	210.18	3.1746e-06	2.3913e-06	363.41	77.295	7.601e-07	4.1151e-06	152.53	59.158	28.684	11.912	2.1653e-06	26.961	6.2464e-05	5.286e-05	1.4471e-05	198.21	5.7769e-07	5.638e-07	338.14	72.364	5.5126e-07	5.6616e-07	139.37	55.122	26.869	11.219	5.9403e-07	24.681	253.160	266.638	237.571	186.338	281.473	219.595	185.887	191.855	419.316	329.610	190.055	193.226	194.344	199.320	344.927	197.364	-8191	255	
3180.886	1	1	0	0	0.15084	0.32326	0.11966	0.16005	0.10819	0.45715	0.014874	0.30565	0.05354	0.10388	0.13097	0.0757	0.10892	0.090262	0.057795	0.1212	-2.8333	-2.6583	-3.2229	-3.0438	-2.6	-3.4437	-2.9688	-2.7042	-3.3	-2.6437	-3.2146	-3.1312	-2.6	-3.2375	-2.7833	-2.7542	334.312	389.754	514.947	330.845	428.229	428.591	393.219	202.886	382.860	183.316	450.734	213.534	290.974	389.169	284.790	454.661	0.00026047	0.00032554	6.2259e-05	210.03	1.4856e-06	1.6261e-06	359.96	76.572	2.1412e-06	1.1057e-06	152.2	58.869	28.463	11.89	2.3838e-06	26.619	6.319e-05	5.3639e-05	1.4693e-05	196.89	5.7338e-07	5.8622e-07	336.36	71.757	5.6717e-07	5.737e-07	138.7	54.765	26.628	11.157	5.8218e-07	24.523	248.901	254.097	228.384	186.940	277.842	345.603	185.875	191.591	345.680	381.633	190.386	193.672	194.791	199.653	315.600	197.128	-8191	255	
3181.005	1	1	0	0	0.070888	0.31654	0.16775	0.20617	0.089325	0.17065	0.097643	0.25109	0.067753	0.17975	0.28478	0.11125	0.1775	0.27174	0.2067	0.16071	-2.8771	-2.4542	-2.9521	-3.2667	-2.5563	-3.1667	-3.1063	-2.6688	-3.3625	-2.5667	-3.1292	-3.3542	-2.5375	-3.3375	-2.9875	-2.5167	192.203	483.052	276.847	204.518	320.645	530.031	508.133	459.990	297.828	282.617	236.691	496.750	433.877	448.589	248.316	267.763	0.00023693	9.1542e-05	3.1009e-05	210.51	1.9811e-06	3.1643e-06	356.06	76.506	1.2128e-06	2.0972e-06	152.55	59.418	28.678	11.938	2.7197e-06	26.788	6.0133e-05	5.2137e-05	1.4552e-05	196.98	5.7252e-07	5.7448e-07	334.38	71.828	5.8288e-07	5.8685e-07	138.7	54.953	26.732	11.118	5.7932e-07	24.695	253.511	205.230	251.441	186.225	375.300	323.656	185.607	192.238	372.968	233.355	189.722	193.282	194.870	199.110	287.789	197.175	-8191	255	
3181.101	1	1	0	0	0.16542	0.24815	0.069152	0.056935	0.251	0.023665	0.034618	0.099564	0.11837	0.16592	0.063454	0.077972	0.26243	0.085568	0.14328	0.070638	-2.9708	-2.575	-2.8937	-3.3812	-2.6312	-3.2667	-2.9292	-2.5271	-3.3563	-2.8063	-2.7958	-3.2562	-2.4583	-3.1729	-3.0021	-2.5583	248.360	429.179	348.307	477.797	369.995	188.648	395.733	427.584	393.003	225.956	527.169	413.436	194.002	193.749	526.528	424.612	0.0002205	5.5543e-05	9.8061e-05	209.36	1.2703e-06	3.8911e-06	359.54	76.958	5.9753e-07	3.4889e-06	153.74	60.082	28.651	11.98	1.6052e-06	26.991	6.2624e-05	5.2028e-05	1.506e-05	197.08	5.793e-07	5.6016e-07	337.02	71.995	5.946e-07	5.5654e-07	139.83	55.384	26.84	11.19	5.7459e-07	24.851	250.081	318.006	246.255	186.763	357.208	302.354	185.650	191.772	463.124	330.017	190.094	193.268	194.708	199.762	323.912	196.701	-8191	255	
3181.197	1	1	0	0	0.20034	0.091012	0.34252	0.22264	0.30249	0.16661	0.0666	0.12246	0.10135	0.2133	0.04882	0.18122	0.071045	0.1106	0.2091	0.24615	-2.9854	-2.7708	-2.6771	-3.3104	-2.7292	-3.0333	-3.2083	-2.6208	-3.3896	-2.8146	-2.8396	-3.3542	-2.5396	-3.0667	-3.0271	-2.5542	233.003	463.793	336.733	313.889	182.232	388.979	177.533	400.690	456.580	239.458	355.588	400.275	399.737	487.504	487.720	499.520	0.0002653	0.00026201	6.6687e-05	213.07	2.4502e-06	1.6245e-06	362.76	77.241	3.3728e-06	2.1251e-07	152.65	59.241	28.94	12.014	6.6091e-07	27.048	6.242e-05	5.2916e-05	1.4522e-05	198.47	5.8137e-07	5.6885e-07	337.83	72.483	5.7963e-07	5.8565e-07	139.33	55.067	26.885	11.242	5.6664e-07	24.88	253.730	223.684	270.034	185.891	351.987	278.374	185.793	191.609	314.817	413.142	189.669	193.751	195.151	199.954	344.182	196.798	-8191	255	
3181.293	1	1	0	0	0.06481	0.19069	0.14103	0.077171	0.13373	0.056194	0.15087	0.10518	0.10453	0.21167	0.22422	0.3055	0.10153	0.31706	0.061474	0.21985	-2.9062	-2.8583	-2.7396	-3.3208	-2.5812	-2.8042	-3.3479	-2.5229	-3.1958	-2.9333	-2.5292	-3.3667	-2.7438	-2.8354	-3.3	-2.5042	401.891	230.451	276.957	404.611	174.680	388.890	527.091	356.145	442.267	471.322	508.878	341.982	240.554	518.002	176.400	514.011	0.00026457	0.00018962	5.5449e-05	211.57	2.4422e-06	3.4812e-06	358.18	76.127	2.637e-06	1.7351e-06	153.68	59.624	28.559	11.97	1.5122e-06	26.851	6.121e-05	5.2941e-05	1.5032e-05	197.25	5.8021e-07	5.7989e-07	335.18	71.961	5.7943e-07	5.6292e-07	139.49	55.051	26.711	11.177	5.7058e-07	24.726	252.961	181.797	303.753	186.286	307.670	266.550	186.462	191.607	265.660	480.470	190.333	194.006	194.594	199.310	191.667	197.348	-8191	255	
3181.389	1	1	0	0	0.066537	0.11176	0.17818	0.12402	0.11445	0.10215	0.080903	0.41838	0.10561	0.10974	0.12091	0.04423	0.18398	0.14482	0.10965	0.1691	-2.6667	-2.8854	-2.4375	-3.5312	-2.6583	-2.8583	-3.3854	-2.5979	-3.1875	-3.2667	-2.4521	-3.4021	-2.8292	-2.7896	-3.4562	-2.5583	306.632	349.918	341.583	450.884	488.435	310.431	331.318	189.975	217.854	474.395	254.439	239.227	320.934	191.033	517.253	393.073	0.00020212	0.0003654	4.7438e-05	211.22	3.7341e-06	1.7543e-06	357.97	76.873	4.4641e-06	9.9812e-07	153.55	59.63	28.783	12.006	2.0294e-06	26.94	6.0301e-05	5.1715e-05	1.4922e-05	197.23	5.8311e-07	5.7737e-07	335.39	72.25	5.7731e-07	5.7304e-07	139.78	55.232	26.718	11.231	5.7979e-07	24.886	245.291	298.767	289.318	186.248	323.903	242.503	185.959	191.304	257.040	297.061	189.680	193.524	194.224	199.651	266.004	197.685	-8191	255	
3181.485	1	1	0	0	0.2593	0.12077	0.13779	0.20843	0.32791	0.14192	0.042982	0.2333	0.21598	0.19579	0.20506	0.019814	0.036918	0.27025	0.13114	0.15628	-2.7521	-3.0667	-2.6521	-3.4917	-2.6312	-2.8771	-3.3688	-2.5604	-2.8854	-3.1917	-2.6479	-3.2687	-2.8396	-2.6312	-3.2896	-2.7229	242.033	367.628	280.432	515.320	191.785	333.513	372.865	421.483	384.806	224.852	514.480	336.832	259.899	443.909	218.314	506.171	0.00026284	0.00019688	3.2752e-05	209.78	7.579e-07	1.1995e-06	359.65	77.026	2.9051e-06	2.3539e-06	154.77	59.886	28.701	12.094	6.4169e-07	27.024	6.2452e-05	5.1429e-05	1.4509e-05	197.06	5.78e-07	5.6122e-07	337.45	72.048	5.72e-07	5.7198e-07	139.78	55.338	26.825	11.315	5.6316e-07	24.892	257.900	238.109	246.978	186.430	280.837	296.535	186.136	191.820	264.676	345.480	189.921	193.683	194.529	199.537	509.322	196.873	-8191	255	
3181.606	1	1	0	0	0.062505	0.10927	0.24942	0.26186	0.11407	0.090019	0.18438	0.28493	0.19204	0.22005	0.081073	0.058865	0.13486	0.15208	0.054435	0.31396	-2.5292	-3.3229	-2.3958	-3.1708	-2.9146	-2.6271	-3.2583	-2.6875	-3	-3.2146	-2.4667	-3.1979	-2.8771	-2.5875	-3.3063	-2.7854	323.620	339.419	468.971	243.716	417.295	198.623	370.510	391.194	265.411	178.367	220.290	414.225	445.956	310.859	254.440	492.730	0.00022592	2.5702e-05	8.1665e-05	209.8	1.4357e-06	3.3145e-06	358.18	76.322	2.2674e-06	1.8804e-06	151.13	59.524	28.388	11.963	1.002e-06	26.61	6.242e-05	5.0258e-05	1.4704e-05	196.89	5.7512e-07	5.7271e-07	334.6	71.747	5.7302e-07	5.5674e-07	138.88	55.056	26.612	11.156	5.5427e-07	24.624	258.589	436.683	254.456	186.098	304.596	332.517	185.794	191.718	368.451	329.975	190.438	193.467	194.785	199.631	447.390	197.172	-8191	255	
3181.700	1	1	0	0	0.10189	0.078068	0.27014	0.19454	0.23329	0.038249	0.13543	0.082724	0.09632	0.20793	0.23287	0.030722	0.14119	0.041201	0.19921	0.019275	-2.3792	-3.3438	-2.6479	-3.0917	-3.0812	-2.5333	-3.3375	-2.6792	-2.7208	-3.4	-2.6396	-3.1104	-3.0333	-2.5354	-3.2562	-2.9062	322.853	287.864	458.966	408.723	321.382	239.157	367.111	313.475	437.009	344.607	262.857	493.674	503.440	517.361	278.691	221.942	0.00024562	9.464e-05	1.3267e-05	207.18	2.1115e-06	4.6391e-07	358.61	77.38	3.232e-06	2.0534e-06	154.19	59.528	28.317	11.929	2.3627e-06	26.641	6.2063e-05	5.0377e-05	1.4408e-05	195.27	5.741e-07	5.6394e-07	334.68	71.912	5.6742e-07	5.5227e-07	138.78	54.889	26.494	11.115	5.6988e-07	24.542	248.847	530.368	362.120	186.335	263.086	416.730	186.171	191.129	262.280	331.222	190.100	193.768	194.759	199.453	332.594	197.262	-8191	255	
3181.797	1	1	0	0	0.13044	0.12017	0.037054	0.16351	0.058435	0.20868	0.12251	0.13151	0.092844	0.19804	0.29768	0.12396	0.04488	0.21001	0.19092	0.14686	-2.3521	-3.1667	-2.3438	-2.9083	-3.1958	-2.4875	-3.2396	-2.8292	-2.6479	-3.4437	-2.7188	-3.1021	-3.2833	-2.6146	-3.1396	-3.0708	397.062	507.159	359.630	371.461	269.768	241.796	229.102	495.387	234.602	305.259	417.411	455.854	396.323	436.896	239.586	508.281	0.00024471	0.00015955	5.6078e-05	208.93	2.1628e-06	1.6039e-06	355.67	75.679	3.3926e-06	3.5114e-07	151.59	59.686	28.6	11.908	1.9329e-06	27.122	6.1859e-05	5.2139e-05	1.4457e-05	195.72	5.6133e-07	5.6735e-07	333.46	71.408	5.8595e-07	5.6744e-07	138.14	54.824	26.626	11.12	5.8229e-07	24.779	249.498	205.699	292.619	185.913	333.997	267.521	185.738	191.678	325.817	360.308	189.922	193.555	194.084	199.423	366.956	197.066	-8191	255	
3181.868	1	1	0	0	0.40225	0.15896	0.15993	0.090746	0.03463	0.1675	0.2734	0.2227	0.19265	0.1824	0.082822	0.059095	0.18235	0.032256	0.12335	0.20671	-2.1479	-3.3875	-2.7667	-3.0625	-3.3042	-2.3563	-3.2729	-3.0042	-2.5333	-3.3812	-2.7687	-2.8417	-3.2625	-2.5563	-3.2229	-3.0854	398.319	425.950	182.004	471.378	457.058	469.200	192.064	529.009	522.741	435.574	198.036	302.149	208.418	515.328	289.748	437.007	0.00023324	0.00026109	4.9084e-06	208.7	2.1938e-06	6.3375e-07	357.11	76.17	1.2024e-06	1.4277e-06	152.81	59.187	28.663	11.9	1.9715e-06	26.732	6.0867e-05	5.0625e-05	1.4094e-05	195.89	5.697e-07	5.9252e-07	334.36	71.742	5.6601e-07	5.5574e-07	139.41	55.064	26.753	11.161	5.6365e-07	24.791	253.474	245.525	274.689	186.616	225.536	348.448	185.602	191.872	356.075	362.557	189.727	193.850	194.687	199.737	356.038	197.293	-8191	255	
3181.989	1	1	0	0	0.19199	0.19238	0.29974	0.18601	0.44859	0.28535	0.17554	0.19943	0.01256	0.0092715	0.10635	0.18235	0.23438	0.15492	0.24585	0.17	-2.1063	-3.3479	-2.7542	-2.7583	-3.3542	-2.6458	-3.1229	-2.9333	-2.5146	-3.5646	-2.7708	-2.8479	-3.3521	-2.7458	-3.0333	-3.2729	394.598	441.612	185.937	412.288	218.216	499.169	244.417	507.824	239.556	520.938	263.192	286.781	370.082	468.249	339.174	391.156	0.00027928	5.5819e-05	2.6446e-05	208.3	2.2161e-06	5.1199e-07	355.75	76.732	3.5823e-06	1.4125e-06	152.56	59.538	28.991	11.821	1.4054e-06	27.021	6.3113e-05	5.0549e-05	1.4481e-05	195.5	5.5643e-07	5.6413e-07	333.04	71.966	5.7579e-07	5.5851e-07	139.27	55.084	26.796	11.126	5.541e-07	24.737	255.800	306.474	260.177	185.969	360.530	521.899	186.238	191.747	303.939	371.767	190.457	193.788	195.373	199.813	349.711	197.531	-8191	255	
3182.085	1	1	0	0	0.038513	0.09471	0.091306	0.091752	0.094553	0.092634	0.29746	0.17331	0.057851	0.14809	0.032482	0.31385	0.17728	0.065217	0.15119	0.21418	-1.9937	-3.1854	-2.9583	-2.6188	-3.1917	-2.7458	-3.1396	-3.2313	-2.4833	-3.3208	-2.9917	-2.5104	-3.425	-2.7083	-2.9583	-3.4083	199.269	187.437	414.246	215.973	424.266	204.644	351.056	427.247	191.457	309.085	376.770	503.385	520.789	528.254	514.780	474.224	0.00023341	0.00028816	6.4056e-05	209.57	5.2681e-06	1.435e-06	359.27	76.505	9.57e-07	2.3856e-06	152.22	59.251	28.562	11.983	2.0771e-06	27.228	6.1975e-05	5.1899e-05	1.3811e-05	196.23	5.6335e-07	5.5672e-07	334.53	71.418	5.6932e-07	5.6816e-07	139.22	54.963	26.737	11.157	5.6407e-07	24.899	254.945	194.353	254.978	186.719	356.612	234.496	186.268	191.876	318.882	338.270	190.128	193.542	195.194	199.360	318.578	197.082	-8191	255	
3182.181	1	1	0	0	0.16954	0.030836	0.29164	0.2098	0.15366	0.10906	0.37464	0.095314	0.12118	0.18253	0.060843	0.076836	0.15612	0.06809	0.18335	0.17701	-2.1417	-3.1229	-3.1083	-2.6729	-3.3979	-2.8104	-2.8167	-3.3833	-2.5812	-3.0687	-3.2354	-2.3875	-3.2542	-2.7917	-2.9083	-3.3229	200.798	514.047	505.247	350.709	400.166	460.205	394.297	350.421	338.576	284.363	255.598	229.056	247.800	367.478	389.925	413.978	0.00023308	7.689e-05	3.0372e-05	209.06	1.9344e-06	1.5702e-06	360.76	77.108	2.6406e-06	2.1736e-06	153.89	59.256	28.555	11.971	9.2849e-07	27.065	6.0415e-05	5.1176e-05	1.4235e-05	195.89	5.6954e-07	5.4493e-07	335.1	72.207	5.5233e-07	5.6938e-07	139.32	55.311	26.743	11.192	5.8367e-07	24.946	253.814	372.130	255.331	186.456	369.592	269.033	186.203	191.648	281.514	372.776	189.590	193.472	194.554	199.524	302.154	197.674	-8191	255	
3182.277	1	1	0	0	0.14812	0.11471	0.12719	0.26982	0.17864	0.057543	0.30918	0.16821	0.064286	0.23972	0.10334	0.21321	0.17106	0.21706	0.28873	0.087142	-2.2021	-3.0646	-3.2875	-2.7271	-3.1562	-2.9229	-2.7875	-3.4896	-2.7	-3.0771	-3.2167	-2.4021	-3.3521	-2.8688	-2.7208	-3.4854	446.566	342.213	317.724	358.411	203.541	368.169	507.596	475.571	216.385	268.918	423.162	279.793	175.125	301.063	277.012	378.833	0.00025629	0.0001404	5.7965e-05	209.78	1.1439e-06	2.5318e-06	357.24	76.795	3.8295e-06	3.1252e-06	152.87	59.615	28.799	11.963	1.8031e-06	26.935	6.2583e-05	5.2415e-05	1.4389e-05	195.88	5.6926e-07	5.474e-07	334.73	71.955	5.7703e-07	5.747e-07	138.65	55.311	26.756	11.221	5.6988e-07	24.971	254.306	192.554	220.052	186.282	245.941	301.414	186.257	191.232	335.909	311.141	189.871	193.558	195.090	199.906	319.003	196.917	-8191	255	
3182.398	1	1	0	0	0.20946	0.13696	0.30254	0.17987	0.12761	0.19932	0.058179	0.26995	0.11441	0.19895	0.15658	0.15247	0.01855	0.16102	0.11582	0.16908	-2.2687	-2.9896	-3.2458	-2.5104	-3.3333	-2.9042	-2.7188	-3.3979	-2.6896	-2.7938	-3.2938	-2.6542	-3.1104	-3.1792	-2.5542	-3.3271	508.578	285.645	401.537	464.869	500.664	351.408	183.026	198.089	264.525	335.526	446.341	205.959	293.182	228.516	399.556	428.317	0.00025066	0.00043132	5.0583e-05	208.85	1.0162e-06	1.6428e-06	353.2	76.912	1.3255e-06	1.204e-06	153.98	59.736	28.974	12.072	1.0406e-06	27.173	6.3139e-05	5.3194e-05	1.3852e-05	195.26	5.7758e-07	5.4784e-07	332.44	72.059	5.7051e-07	5.7223e-07	139.59	55.152	26.834	11.238	5.7052e-07	24.988	256.911	233.075	231.380	186.854	303.093	280.171	185.803	191.793	314.868	338.043	190.049	193.349	194.569	199.155	240.108	197.252	-8191	255	
3182.470	1	1	0	0	0.12388	0.12186	0.038866	0.11332	0.25611	0.2165	0.073469	0.11942	0.16211	0.084328	0.14536	0.1146	0.097113	0.096714	0.13567	0.33387	-2.1292	-2.8937	-3.3104	-2.6417	-3.0104	-3.0083	-2.5646	-3.4167	-2.9313	-2.7292	-3.3271	-2.5625	-3.1146	-3.1458	-2.4271	-3.5042	473.927	473.387	175.179	376.012	379.389	276.829	397.053	528.227	316.350	185.884	197.928	345.413	420.609	327.140	437.013	251.765	0.00020291	6.6956e-05	1.7695e-05	208.13	3.0364e-06	1.6798e-06	356.07	76.744	1.1012e-06	1.9685e-06	152.84	58.944	28.132	11.978	1.8187e-06	26.941	5.9523e-05	5.1955e-05	1.4255e-05	194.41	5.6006e-07	5.4967e-07	332.39	71.898	5.5151e-07	5.589e-07	138.7	54.958	26.515	11.16	5.6814e-07	24.835	249.550	296.147	257.674	185.936	320.826	329.031	185.644	191.959	298.912	243.309	190.614	193.455	195.023	199.261	517.192	197.128	-8191	255	
3182.566	1	1	0	0	0.18488	0.043381	0.17083	0.33612	0.19172	0.24878	0.21839	0.053644	0.094592	0.16826	0.17645	0.1924	0.13143	0.18784	0.12679	0.15095	-2.5896	-2.5979	-3.5125	-2.5687	-3.0417	-3.2083	-2.6521	-3.3333	-2.8875	-2.5687	-3.4146	-2.5792	-3.0708	-3.2583	-2.5896	-3.3688	472.373	350.851	316.294	491.886	518.351	248.301	518.658	181.620	514.808	266.989	230.531	188.984	483.149	229.100	197.413	451.466	0.00021516	0.00023088	4.2149e-05	209.2	1.7094e-06	2.9633e-06	355.95	77.217	9.624e-07	1.4566e-06	153.23	59.83	28.536	11.973	1.4803e-06	27.084	6.0525e-05	5.3176e-05	1.3977e-05	194.85	5.6652e-07	5.5009e-07	332.78	72.006	5.5551e-07	5.6123e-07	139.71	55.329	26.583	11.205	5.5754e-07	24.969	248.490	203.700	266.167	186.533	251.747	253.991	185.897	191.442	253.067	255.413	190.269	193.474	194.895	199.403	270.864	197.329	-8191	255	
3182.686	1	1	0	0	0.15236	0.088207	0.083647	0.28163	0.19598	0.056789	0.076028	0.06972	0.1472	0.04953	0.19928	0.19753	0.11878	0.22791	0.094326	0.068253	-2.6042	-2.5958	-3.2458	-2.6521	-2.8375	-3.3917	-2.7354	-3.1292	-3.025	-2.4042	-3.4896	-2.7604	-2.7833	-3.4125	-2.5	-3.2375	343.119	369.351	282.533	529.195	180.812	349.005	353.456	300.931	337.467	183.156	347.365	445.064	244.705	385.398	185.652	460.388	0.00025555	0.00027867	9.1151e-05	207.91	9.2066e-07	1.2095e-06	357.95	76.462	1.2371e-06	9.7182e-07	152.52	59.722	28.451	11.983	1.2761e-06	27.052	6.0554e-05	5.1755e-05	1.3896e-05	193.91	5.5121e-07	5.6829e-07	334.83	71.854	5.5725e-07	5.6819e-07	139.32	55.487	26.64	11.227	5.7786e-07	25.007	245.092	261.478	210.981	186.704	438.714	271.758	186.035	192.859	222.333	240.380	190.454	193.498	195.221	199.370	312.523	197.416	-8191	255	
3182.781	1	1	0	0	0.18616	0.14127	0.18182	0.096531	0.27315	0.12277	0.1354	0.12643	0.13509	0.040174	0.1158	0.15384	0.34831	0.28854	0.18351	0.36889	-2.8146	-2.5146	-3.4375	-2.7396	-2.8396	-3.3354	-2.5146	-3.3479	-3.2938	-2.6188	-3.3042	-2.9375	-2.7708	-3.4604	-2.6604	-3.1937	522.343	264.045	478.622	420.049	380.657	309.246	426.978	198.531	243.501	223.418	416.823	339.043	472.720	227.586	271.849	482.040	0.00027422	0.00026356	8.2083e-05	207.2	3.332e-06	9.25e-07	356.33	77.124	1.537e-06	9.4773e-07	153.64	59.155	28.715	11.925	9.1253e-07	27.15	5.9788e-05	5.3955e-05	1.4639e-05	194.4	5.5295e-07	5.5478e-07	333.42	72.052	5.6242e-07	5.5529e-07	139.41	55.285	26.712	11.177	5.5601e-07	24.999	257.709	365.456	323.122	185.887	343.999	226.601	186.049	191.964	233.983	406.674	190.112	193.286	195.240	199.249	523.446	197.440	-8191	255	
3182.877	1	1	0	0	0.15793	0.13795	0.14888	0.25213	0.090844	0.058216	0.14759	0.094562	0.071678	0.18802	0.32116	0.20687	0.31493	0.23053	0.047668	0.099886	-3.0646	-2.4479	-3.1458	-2.9188	-2.5604	-3.3729	-2.6583	-2.9417	-3.1021	-2.6833	-3.1813	-2.975	-2.6458	-3.2854	-2.6646	-2.9562	337.223	323.273	313.468	302.325	470.057	226.361	529.551	175.902	300.379	198.327	448.362	480.137	477.569	259.257	303.930	475.954	0.00024517	0.00013058	4.6111e-05	208.26	2.269e-06	3.2665e-07	356.81	76.682	5.0321e-07	4.744e-07	155.11	59.2	28.83	11.847	5.9671e-07	27.006	6.2318e-05	5.2582e-05	1.4329e-05	194.64	5.7451e-07	5.7429e-07	333.1	71.818	5.7225e-07	5.6142e-07	139.63	54.961	26.694	11.131	5.6069e-07	24.937	253.220	436.959	292.775	186.454	315.548	257.438	185.649	192.001	396.098	186.008	190.321	193.850	195.118	199.554	351.246	197.761	-8191	255	
3182.998	1	1	0	0	0.11701	0.18398	0.12055	0.10962	0.045511	0.1529	0.1633	0.11	0.065453	0.27895	0.20179	0.23373	0.28675	0.23346	0.20016	0.2264	-2.8396	-2.4688	-3.2958	-3.0333	-2.5417	-3.1813	-2.75	-2.9021	-3.4062	-2.5167	-3.1875	-3.0917	-2.5854	-3.425	-2.6437	-2.6521	233.704	455.298	513.173	422.476	462.003	182.316	197.734	265.032	315.216	531.363	258.978	509.609	431.005	276.736	499.363	274.694	0.00021635	0.00016316	2.9798e-05	205.93	2.8805e-06	4.1085e-07	356.51	76.459	7.4873e-07	1.5161e-06	156.16	59.573	28.598	12.061	6.4045e-07	27.32	5.8321e-05	5.175e-05	1.3992e-05	194.64	5.6138e-07	5.5284e-07	333.24	71.821	5.6327e-07	5.7365e-07	140.52	55.299	26.735	11.202	5.4992e-07	25.106	253.619	252.307	402.586	186.320	280.216	184.959	185.615	191.857	442.758	272.607	189.824	193.171	194.859	199.460	306.805	197.377	-8191	255	
3183.094	1	1	0	0	0.15738	0.078079	0.080468	0.21102	0.13107	0.031123	0.17046	0.20039	0.052484	0.26319	0.021627	0.22576	0.17237	0.16996	0.27133	0.053851	-2.9104	-2.4771	-2.9771	-3.125	-2.6167	-3.3312	-2.9167	-2.5646	-3.2667	-2.45	-3.0208	-3.1437	-2.4313	-3.2854	-2.925	-2.6562	322.726	439.237	446.339	516.948	189.536	264.644	466.593	490.270	259.789	380.996	261.466	416.952	204.222	345.281	507.286	247.332	0.00022024	0.00018508	4.1183e-05	207.61	2.9297e-06	4.4161e-07	359.17	77.864	2.1367e-06	2.5432e-06	155.58	60.071	28.763	12.001	9.9491e-07	27.168	6.0734e-05	5.2574e-05	1.4289e-05	195.43	5.6216e-07	5.7174e-07	336.14	72.263	5.657e-07	5.9378e-07	140.33	55.577	26.716	11.164	5.6011e-07	24.993	251.945	244.432	212.581	186.753	293.912	371.958	186.127	191.723	251.393	366.144	189.955	193.449	195.165	199.713	286.118	197.670	-8191	255	
3183.165	1	1	0	0	0.12659	0.12693	0.070325	0.28658	0.31407	0.04153	0.15023	0.13121	0.084889	0.057722	0.11135	0.30943	0.18799	0.19859	0.13115	0.090042	-2.8375	-2.4604	-2.9229	-3.2812	-2.5875	-3.3042	-2.9062	-2.55	-3.3417	-2.6396	-3.0187	-3.425	-2.3021	-3.2104	-2.9771	-2.6875	313.300	467.829	398.607	267.422	417.353	223.609	430.991	431.139	188.508	252.172	422.102	468.175	481.355	207.553	306.324	243.231	0.00025247	0.00034104	1.7672e-05	208.56	3.5251e-06	2.1237e-07	357.08	77.318	1.7686e-06	3.9514e-06	153.58	59.898	28.669	12	3.5028e-07	27.184	5.9932e-05	5.087e-05	1.426e-05	194.96	5.8203e-07	5.7049e-07	332.97	72.286	5.7018e-07	5.6877e-07	140.1	55.515	26.697	11.189	5.4956e-07	24.954	257.290	268.104	309.008	186.180	324.009	225.076	186.227	192.029	306.277	334.561	190.724	193.826	194.469	200.060	181.939	197.362	-8191	255	
3183.286	1	1	0	0	0.22691	0.16644	0.18846	0.20505	0.108	0.11566	0.037009	0.05111	0.14878	0.097557	0.18876	0.17088	0.23564	0.16674	0.25351	0.16111	-2.8979	-2.9292	-2.7313	-3.3479	-2.5333	-3.0896	-2.8604	-2.4562	-3.3833	-2.9167	-2.8646	-3.3542	-2.6792	-2.9062	-3.2104	-2.5833	192.046	274.019	242.926	425.587	377.425	343.043	500.606	241.040	191.768	495.606	430.691	449.391	418.772	253.131	319.312	442.768	0.00028517	0.00016584	7.1751e-05	208.66	1.3503e-06	8.7684e-07	356.95	77.163	2.5523e-06	1.6377e-06	155.32	59.621	29.097	11.934	6.187e-07	26.906	6.2075e-05	5.1234e-05	1.3754e-05	194.75	5.7863e-07	5.5961e-07	334.12	72.13	5.593e-07	5.6153e-07	140.82	55.354	26.803	11.116	5.5502e-07	24.838	251.708	269.357	316.690	186.102	429.513	319.901	186.424	192.091	302.375	274.029	190.787	193.771	195.150	199.874	185.238	197.811	-8191	255	
3183.382	1	1	0	0	0.051484	0.16591	0.09935	0.14765	0.40693	0.12473	0.067708	0.11594	0.18025	0.11013	0.23813	0.2142	0.15735	0.019559	0.24121	0.21919	-3.0271	-2.7354	-2.7583	-3.1771	-2.5771	-2.9083	-3.2729	-2.3438	-3.4167	-2.9188	-2.7625	-3.3979	-2.55	-3.0812	-3.2562	-2.45	482.371	483.574	209.043	281.779	520.439	488.262	420.258	236.578	252.791	427.819	210.718	461.435	470.587	515.070	372.027	496.497	0.00024576	0.00012179	0.00011103	207.68	2.7897e-06	1.0651e-06	361.17	76.419	1.8118e-06	3.1421e-06	155.4	59.748	28.423	12.092	9.0288e-07	26.891	6.1268e-05	4.9869e-05	1.4172e-05	194.91	5.5923e-07	5.4496e-07	335.38	71.903	5.5905e-07	5.6236e-07	140.93	55.562	26.692	11.169	5.5322e-07	24.968	246.799	260.989	347.932	186.622	280.069	219.471	186.447	191.891	260.440	276.677	190.024	193.477	195.511	199.639	399.446	197.623	-8191	255	
3183.478	1	1	0	0	0.10145	0.040019	0.18776	0.052597	0.13906	0.22142	0.12329	0.1662	0.19183	0.10221	0.16119	0.076568	0.050679	0.25126	0.13576	0.08012	-2.8708	-2.9313	-2.5604	-3.3521	-2.9625	-2.8917	-3.1604	-2.5792	-3.3125	-3.0833	-2.4896	-3.3875	-2.7313	-2.9146	-3.1708	-2.6792	398.194	501.548	385.334	300.238	476.681	472.196	276.725	487.121	442.094	209.858	304.958	223.053	336.549	448.300	344.985	247.141	0.00024924	9.636e-05	9.2394e-05	208.3	2.6726e-06	1.6846e-07	360.43	77.141	9.164e-07	1.9267e-06	154.57	59.873	28.771	11.91	1.619e-06	27.106	6.1083e-05	5.1333e-05	1.3996e-05	196.55	5.4236e-07	5.4138e-07	336.6	72.038	5.591e-07	5.4218e-07	140.57	55.749	26.718	11.12	5.5335e-07	24.898	248.721	190.120	216.285	186.698	356.917	309.569	186.251	192.111	530.693	308.968	189.805	194.315	195.598	200.354	343.635	197.802	-8191	255	
3183.574	1	1	0	0	0.14427	0.065113	0.096241	0.24193	0.35471	0.17654	0.18253	0.039229	0.1446	0.19927	0.19666	0.076701	0.079286	0.35052	0.14777	0.1443	-2.7104	-3.0104	-2.4396	-3.3917	-2.6479	-2.7792	-3.4042	-2.7438	-3.15	-3.1771	-2.4354	-3.4479	-2.9979	-2.8875	-3.5104	-2.5333	505.464	504.024	209.148	278.142	307.776	355.068	184.441	177.085	222.706	218.878	236.559	464.056	445.020	295.166	332.757	402.664	0.00022941	0.00037868	0.00013189	208.32	1.7255e-06	9.7691e-07	357.13	76.315	2.3846e-06	2.793e-06	153.99	59.417	28.602	11.8	1.2491e-06	26.823	6.0121e-05	5.023e-05	1.4272e-05	195.2	5.4731e-07	5.5725e-07	333.55	71.27	5.6065e-07	5.3439e-07	138.94	55.099	26.433	11.031	5.5335e-07	24.673	256.029	250.063	281.631	186.344	466.761	256.473	186.247	192.052	290.099	417.331	190.414	193.560	195.188	199.909	418.642	197.610	-8191	255	
3183.693	1	1	0	0	0.091746	0.2105	0.26526	0.12996	0.14751	0.24757	0.063747	0.13987	0.19438	0.10019	0.093649	0.27851	0.25468	0.23949	0.092546	0.20374	-2.7938	-3.2708	-2.6021	-3.325	-2.9813	-2.7583	-3.2458	-2.575	-2.9604	-3.1562	-2.5458	-3.1021	-2.8729	-2.6875	-3.4271	-2.6833	237.367	373.546	358.102	251.644	492.498	523.138	288.136	413.685	192.275	447.924	493.542	429.237	198.574	521.880	361.072	284.244	0.00023532	0.00034224	4.9838e-05	207.67	4.1081e-06	3.6823e-06	355.86	76.091	1.0237e-06	2.6781e-06	152.9	59.646	28.401	11.741	1.7835e-06	26.944	6.0437e-05	4.9841e-05	1.3878e-05	193.61	5.4352e-07	5.5403e-07	332.62	71.125	5.6686e-07	5.2804e-07	139.22	55.126	26.396	10.97	5.4729e-07	24.691	256.021	268.153	265.763	186.897	359.021	321.540	186.006	192.102	293.324	308.038	189.687	193.874	194.412	199.770	286.462	197.421	-8191	255	
3183.765	1	1	0	0	0.20411	0.18948	0.067422	0.10423	0.28091	0.10893	0.14156	0.46801	0.1333	0.066188	0.096826	0.18281	0.18945	0.14682	0.13213	0.25457	-2.3417	-3.3021	-2.5417	-3.2896	-2.9229	-2.5229	-3.3646	-2.7833	-2.8187	-3.3917	-2.6271	-3.2938	-3.1896	-2.5812	-3.2833	-2.8	439.973	360.729	251.936	458.165	180.526	462.662	268.901	482.686	353.318	526.339	475.382	257.199	326.775	388.742	245.747	499.011	0.00021784	0.00028632	7.6502e-05	207.25	1.3656e-06	3.2094e-06	358.25	76.106	2.5285e-06	3.4088e-06	154.16	59.309	28.251	11.954	1.0338e-06	27.074	5.8816e-05	5.0759e-05	1.4138e-05	194.24	5.5447e-07	5.6055e-07	334.54	71.311	5.641e-07	5.312e-07	139.77	55.117	26.364	11.084	5.5147e-07	24.84	256.897	319.792	301.142	186.265	306.493	297.659	186.296	191.850	318.238	371.922	189.795	193.917	194.904	199.913	304.232	197.349	-8191	255	
3183.861	1	1	0	0	0.082859	0.15354	0.070524	0.10116	0.042818	0.25918	0.17769	0.29083	0.16979	0.19281	0.086188	0.24918	0.17828	0.30845	0.04652	0.10635	-2.4521	-3.3146	-2.5667	-3.2	-3.1479	-2.45	-3.3021	-2.8083	-2.7229	-3.2438	-2.7479	-3.1917	-3.3271	-2.5396	-3.1125	-2.9042	277.754	245.089	452.454	205.769	308.625	205.152	228.257	370.214	247.919	505.022	231.767	525.591	438.001	464.310	509.281	231.125	0.00020519	2.4589e-05	6.3806e-05	209.01	2.5839e-06	1.8642e-06	356.35	75.857	8.5632e-07	2.726e-06	155.34	60.1	28.326	11.919	2.4199e-06	26.651	6.0758e-05	4.9662e-05	1.3733e-05	195.15	5.4889e-07	5.5009e-07	334.7	71.327	5.7656e-07	5.6206e-07	139.79	55.423	26.469	11.062	5.7813e-07	24.722	252.187	225.772	236.276	187.129	276.370	312.571	185.908	191.591	301.988	353.102	190.512	193.829	194.610	199.081	335.971	197.509	-8191	255	
3183.959	1	1	0	0	0.011948	0.18254	0.28159	0.064589	0.22222	0.038623	0.26896	0.48462	0.19113	0.0466	0.21571	0.041829	0.30283	0.02113	0.16802	0.24265	-2.2875	-3.3375	-2.5292	-2.7625	-3.4146	-2.5812	-3.3875	-2.8458	-2.6542	-3.2979	-2.7333	-2.9396	-3.2854	-2.425	-3.2313	-3.1021	456.517	484.309	396.099	382.929	196.316	180.406	203.457	459.856	266.770	277.678	525.837	215.804	190.317	287.852	490.989	492.370	0.00021749	0.00011665	5.0045e-05	208.67	2.147e-06	1.8457e-06	357.21	76.489	2.7548e-06	1.28e-06	151.15	59.25	28.437	11.673	2.3855e-06	26.699	6.1314e-05	4.8554e-05	1.3983e-05	194.64	5.509e-07	5.4887e-07	334.56	71.075	5.7402e-07	5.3822e-07	138.3	55.072	26.414	10.981	5.6426e-07	24.704	251.709	212.861	271.732	186.498	407.391	233.950	186.368	192.060	282.032	269.058	190.013	193.912	194.987	199.514	300.987	197.379	-8191	255	
3184.078	1	1	0	0	0.14294	0.22921	0.18368	0.34401	0.13861	0.11981	0.18789	0.1749	0.060791	0.088701	0.17213	0.17679	0.16634	0.14573	0.21203	0.27547	-2.1063	-3.3833	-2.8354	-2.8792	-3.2625	-2.5146	-3.1562	-3.0271	-2.5146	-3.5104	-2.8521	-2.7479	-3.3125	-2.4917	-3.0687	-3.3583	197.956	527.890	261.055	185.327	305.881	473.399	517.056	470.985	393.902	440.091	296.918	514.440	440.275	399.057	449.530	521.826	0.00026201	0.00023852	5.7276e-05	207	5.9981e-07	8.5619e-07	356.2	75.529	1.4267e-06	8.8092e-07	152.4	59.71	28.155	11.739	1.4341e-06	26.71	6.183e-05	4.8683e-05	1.4264e-05	194.56	5.4457e-07	5.3042e-07	333.14	70.913	5.6029e-07	5.4906e-07	138.79	55.218	26.306	10.974	5.5491e-07	24.624	248.051	302.882	281.497	186.275	282.967	292.278	186.008	191.498	305.826	334.826	190.057	193.667	194.763	200.058	326.885	197.124	-8191	255	
3184.174	1	1	0	0	0.17809	0.053857	0.16318	0.091082	0.06583	0.1048	0.22976	0.086647	0.099718	0.11104	0.19269	0.081405	0.051862	0.10298	0.08895	0.12984	-2.0938	-3.3271	-2.7104	-2.7562	-3.4583	-2.4583	-2.9875	-3.1208	-2.4417	-3.3208	-2.8708	-2.775	-3.3292	-2.7167	-3.1146	-3.3958	405.963	362.301	508.825	374.608	528.305	204.030	392.402	224.686	351.075	270.707	487.491	402.102	292.275	413.202	463.506	460.270	0.00023135	0.00020774	1.9617e-05	206.66	7.6485e-07	3.0104e-06	356.91	76.236	2.4626e-06	3.9533e-06	153.5	59.317	28.187	11.723	7.872e-07	26.663	6.1309e-05	4.9856e-05	1.3623e-05	194.46	5.3993e-07	5.3141e-07	334.61	71.201	5.6247e-07	5.5649e-07	139.68	55.218	26.419	10.951	5.6412e-07	24.68	250.134	252.495	280.791	186.261	342.773	240.145	186.149	191.565	348.806	336.060	190.102	193.953	195.333	199.606	242.277	197.265	-8191	255	
3184.270	1	1	0	0	0.18855	0.10094	0.2323	0.13474	0.088237	0.12515	0.12676	0.13375	0.18836	0.048784	0.13514	0.27425	0.15836	0.12616	0.18052	0.087987	-2.0167	-3.3812	-2.9958	-2.6354	-3.3688	-2.625	-2.9771	-3.2521	-2.525	-3.2396	-3.2125	-2.6417	-3.4938	-2.7479	-2.8458	-3.3167	518.853	447.324	406.771	182.159	298.450	443.267	214.368	195.230	450.277	338.260	411.431	509.019	300.650	247.883	301.674	488.935	0.00025725	0.00026499	3.8939e-05	205.92	2.8733e-06	2.3086e-06	360.19	76.465	4.5183e-07	3.2047e-06	152.47	60.264	28.417	11.826	4.7442e-07	26.892	6.1358e-05	5.2124e-05	1.3925e-05	195.07	5.6083e-07	5.492e-07	336.46	71.706	5.7264e-07	5.7099e-07	139.4	55.505	26.413	11.017	5.6562e-07	24.773	254.131	201.915	205.757	186.968	283.204	353.069	185.858	191.545	277.219	266.052	190.136	193.905	194.725	199.107	463.603	197.304	-8191	255	
3184.366	1	1	0	0	0.063727	0.2915	0.26519	0.44368	0.182	0.12756	0.032529	0.1998	0.10599	0.16504	0.17333	0.13581	0.39393	0.11972	0.056432	0.1992	-2.0646	-3.1771	-3.2208	-2.4604	-3.4021	-2.8646	-2.7167	-3.3146	-2.5792	-3.1188	-3.1646	-2.7271	-3.3271	-2.8583	-2.6	-3.4104	477.651	337.359	438.599	473.419	483.836	471.785	511.877	492.299	338.548	355.471	487.780	509.094	420.185	216.894	255.332	423.117	0.00022555	0.00032772	8.5114e-05	207.88	8.0741e-07	1.8027e-06	360.36	75.614	7.4875e-07	9.0856e-07	153.3	59.771	28.416	11.681	6.7267e-07	26.874	6.0974e-05	5.0582e-05	1.403e-05	193.96	5.7988e-07	5.5583e-07	334.73	71.159	5.6883e-07	5.3334e-07	139.47	55.166	26.352	10.906	5.6745e-07	24.645	253.501	279.039	241.807	186.328	393.293	246.757	186.105	191.453	484.035	272.545	190.170	193.904	194.651	199.695	290.354	197.519	-8191	255	
3184.463	1	1	0	0	0.2377	0.16673	0.21076	0.23548	0.04759	0.12633	0.090723	0.07525	0.15548	0.11723	0.23054	0.28432	0.082153	0.16322	0.096756	0.0849	-2.2125	-3.0479	-3.3854	-2.3958	-3.4521	-2.8896	-2.6333	-3.5	-2.7479	-3.0042	-3.2354	-2.7479	-3.3958	-3.0146	-2.6375	-3.3458	217.117	362.443	379.196	222.108	437.452	374.034	362.361	255.864	297.592	332.023	368.431	226.137	220.536	220.307	179.927	459.765	0.0002367	8.315e-05	3.9596e-05	206.92	3.5488e-06	1.0157e-06	358.15	75.805	3.3802e-06	8.853e-07	154.19	59.087	28.521	11.831	2.6567e-06	26.749	6.0933e-05	5.1742e-05	1.4462e-05	193.21	5.5453e-07	5.4843e-07	333.48	71.086	5.5952e-07	5.592e-07	139.29	55.124	26.313	10.967	5.5981e-07	24.561	249.793	293.885	266.178	186.277	360.084	377.490	185.974	191.904	286.987	261.966	190.381	194.052	195.239	200.146	331.590	197.441	-8191	255	
3184.559	1	1	0	0	0.22696	0.18806	0.29225	0.1432	0.23394	0.1632	0.26046	0.16984	0.18175	0.13097	0.19832	0.1532	0.28283	0.22873	0.29473	0.076688	-2.225	-2.9167	-3.35	-2.5542	-3.2896	-3.1688	-2.6479	-3.3521	-2.9062	-2.7854	-3.35	-2.5125	-3.2354	-3.125	-2.5896	-3.45	525.688	331.620	416.045	330.776	399.469	532.100	504.019	447.074	527.825	196.068	398.710	513.985	530.621	261.582	311.320	267.437	0.00022593	0.00015464	1.7252e-05	205.56	7.669e-07	1.4029e-06	354.79	75.787	3.0317e-06	5.5697e-07	153.14	59.47	28.67	11.678	2.3405e-06	26.625	6.0396e-05	5.1199e-05	1.4248e-05	193.35	5.7092e-07	5.4307e-07	333.1	71.112	5.5537e-07	5.3941e-07	139.18	55.208	26.392	10.918	5.7152e-07	24.69	251.022	250.905	322.683	186.587	497.772	283.104	186.443	192.322	278.851	376.233	189.865	193.457	195.732	199.640	452.252	197.668	-8191	255	
3184.679	1	1	0	0	0.24977	0.12241	0.11115	0.08374	0.28132	0.2072	0.35507	0.15018	0.11309	0.18405	0.080228	0.36172	0.05493	0.062417	0.16569	0.25752	-2.2854	-2.7083	-3.3042	-2.6479	-3.0167	-3.1896	-2.6917	-3.3292	-2.6917	-2.6917	-3.4938	-2.8312	-3.1688	-3.1188	-2.4813	-3.3438	260.260	282.395	234.176	438.588	509.640	393.766	532.864	527.406	241.436	344.761	186.844	450.735	455.134	460.619	389.841	412.534	0.00026735	0.00014652	7.9869e-05	205.72	3.6828e-07	2.191e-06	358.3	76.856	2.9798e-06	5.4323e-07	153.79	59.679	28.166	11.61	3.2291e-06	26.669	6.2787e-05	5.2511e-05	1.3895e-05	194.1	5.7639e-07	5.5706e-07	334.02	71.163	5.712e-07	5.4457e-07	139.76	55.101	26.322	10.892	5.5975e-07	24.633	249.464	316.072	325.279	186.689	481.711	274.192	186.141	192.420	381.982	528.571	189.431	193.939	194.529	199.742	329.608	197.857	-8191	255	
3184.774	1	1	0	0	0.22223	0.17556	0.35004	0.1717	0.044893	0.017259	0.13893	0.15395	0.27717	0.11251	0.20493	0.019457	0.26017	0.1733	0.19918	0.26585	-2.4208	-2.7021	-3.35	-2.5479	-2.9396	-3.1521	-2.625	-3.2375	-2.8104	-2.7375	-3.3833	-2.6437	-2.7625	-3.3833	-2.6375	-3.1917	295.791	505.985	328.415	495.596	256.989	330.843	186.103	514.977	380.747	520.513	404.055	341.412	462.500	431.464	205.697	444.563	0.00024756	0.00021412	4.7207e-05	206.64	4.2533e-06	4.5488e-07	356.28	76.216	1.8879e-06	2.9355e-06	151.43	59.036	28.288	11.543	1.7918e-06	26.764	6.1229e-05	5.2728e-05	1.4146e-05	193.45	5.5925e-07	5.5772e-07	332.84	71.084	5.6079e-07	5.8213e-07	138.69	54.751	26.262	10.815	5.5441e-07	24.543	251.906	293.982	296.272	186.489	274.917	498.187	186.574	191.794	341.132	243.681	189.987	193.715	195.784	199.918	335.271	198.390	-8191	255	
3184.870	1	1	0	0	0.10681	0.13429	0.19269	0.18937	0.20605	0.17806	0.055298	0.15379	0.1886	0.18937	0.35677	0.1339	0.068147	0.20793	0.036452	0.07175	-2.6667	-2.6542	-3.4354	-2.8688	-2.8417	-3.2396	-2.6271	-3.2458	-3.1042	-2.5771	-3.525	-2.8208	-2.5229	-3.4333	-2.7292	-3.1125	399.389	390.729	363.454	227.444	361.803	309.520	201.516	182.909	419.376	337.496	384.200	456.978	361.123	495.785	361.427	488.591	0.00022862	0.00014119	7.2241e-05	204.99	2.9271e-06	6.5868e-07	358.32	76.051	2.6581e-06	2.4794e-06	152.78	59.389	28.238	11.673	2.6152e-06	26.646	6.1283e-05	5.1136e-05	1.398e-05	193.6	5.6578e-07	5.4812e-07	332.55	71.083	5.6648e-07	5.4542e-07	139.01	55.05	26.256	10.896	5.3854e-07	24.606	244.970	278.211	237.295	186.612	347.172	329.191	185.953	192.282	343.552	273.124	190.065	193.671	195.235	199.438	332.714	197.397	-8191	255	
3184.966	1	1	0	0	0.11814	0.21379	0.090702	0.18869	0.077974	0.033373	0.11898	0.10805	0.11931	0.11028	0.026628	0.28337	0.057694	0.14853	0.011663	0.21507	-2.8125	-2.5187	-3.3563	-2.7833	-2.6396	-3.5292	-2.7229	-3.0812	-3.3271	-2.475	-3.2583	-2.9437	-2.6333	-3.2208	-2.7104	-2.9833	510.094	194.685	445.368	512.600	256.764	467.111	260.719	228.523	439.257	282.300	517.280	477.568	307.028	488.320	317.231	174.060	0.00022873	8.6707e-05	0.00011522	205.07	1.9387e-06	4.6065e-07	356.92	76.602	3.7692e-06	1.3237e-06	154.48	59.798	28.182	11.573	1.3583e-06	26.862	6.0131e-05	5.222e-05	1.3853e-05	193.18	5.4029e-07	5.6927e-07	332.28	71.408	5.5454e-07	5.452e-07	139.72	55.307	26.296	10.899	5.6321e-07	24.764	256.025	341.897	294.092	186.233	335.374	428.617	186.301	191.909	311.220	401.080	191.041	194.184	195.378	199.591	368.947	197.365	-8191	255	
3185.062	1	1	0	0	0.098446	0.1034	0.15801	0.092259	0.089567	0.094226	0.075455	0.12861	0.01562	0.16073	0.082693	0.069001	0.23502	0.18594	0.18062	0.14058	-2.9229	-2.5917	-3.1958	-3.0312	-2.6542	-3.2479	-2.5854	-3.05	-3.2146	-2.5125	-3.3229	-3.1437	-2.7188	-3.4708	-2.9042	-3.1104	368.149	467.488	375.082	371.348	291.060	473.368	508.395	258.997	312.301	246.295	251.642	370.829	357.033	412.448	514.976	513.206	0.00027497	8.937e-05	6.5735e-05	205.41	2.6831e-06	3.1428e-07	357.3	76.163	2.0663e-06	1.5788e-06	151.55	58.995	28.228	11.802	9.2519e-07	26.696	6.1412e-05	5.1565e-05	1.4058e-05	192.66	5.8206e-07	5.6749e-07	333.9	71.388	5.4051e-07	5.3447e-07	138.97	54.982	26.235	10.947	5.5427e-07	24.582	252.149	220.778	313.513	187.247	281.620	207.076	186.483	191.796	283.557	340.310	189.601	193.985	195.643	199.811	326.954	197.896	-8191	255	
3185.158	1	1	0	0	0.1494	0.030801	0.21053	0.035735	0.12567	0.077917	0.34209	0.25228	0.18624	0.32948	0.36287	0.1803	0.064373	0.09179	0.091247	0.11536	-2.7583	-2.6	-3.0625	-3.0479	-2.5312	-3.375	-2.9313	-2.7812	-3.4542	-2.7083	-3.0375	-3.1604	-2.5062	-3.4375	-2.8229	-2.7979	509.167	285.429	362.025	355.541	408.242	408.130	502.331	329.889	188.448	487.842	409.965	489.834	362.696	402.863	514.619	201.362	0.00022988	0.00041023	6.3288e-06	205.86	1.9934e-06	3.1548e-06	354.98	75.649	1.2469e-06	3.7914e-06	152.04	59.471	27.965	11.657	2.9713e-06	26.39	5.8121e-05	5.1088e-05	1.3978e-05	192.88	5.4911e-07	5.5334e-07	331.15	70.951	5.3236e-07	5.5859e-07	138.75	54.806	26.053	10.797	5.4643e-07	24.431	247.036	296.632	438.052	186.280	379.878	275.331	186.375	192.240	309.051	306.924	190.935	194.177	195.376	200.380	304.097	197.596	-8191	255	
3185.254	1	1	0	0	0.024934	0.092326	0.19994	0.19807	0.19333	0.11347	0.295	0.085141	0.16862	0.053489	0.16751	0.24773	0.21228	0.23013	0.26136	0.052045	-3.1417	-2.6063	-2.9729	-3.3333	-2.4625	-3.2833	-2.9875	-2.6208	-3.3146	-2.7271	-2.9354	-3.3354	-2.3229	-3.2229	-2.7875	-2.6604	259.560	441.113	429.679	238.893	245.118	259.277	226.104	485.596	298.434	333.474	501.139	460.484	243.690	386.154	387.501	475.141	0.00025727	0.00021395	5.7504e-05	203.66	3.253e-06	2.7683e-06	350.71	75.618	1.0521e-06	2.2361e-06	152.5	58.834	28.067	11.48	7.2201e-07	26.432	6.016e-05	5.0809e-05	1.412e-05	191.05	5.7794e-07	5.6538e-07	330.13	70.289	5.6352e-07	5.4656e-07	138.74	54.582	26.147	10.776	5.5338e-07	24.405	256.976	275.703	256.375	186.763	344.082	262.717	186.347	191.763	243.721	289.866	190.262	193.578	195.048	199.816	369.473	197.660	-8191	255	
3185.375	1	1	0	0	0.043538	0.2486	0.096862	0.24711	0.23016	0.20063	0.1402	0.12886	0.089954	0.063339	0.2127	0.13393	0.16171	0.17055	0.17782	0.11334	-2.9417	-2.7521	-3.0208	-3.2771	-2.4188	-3.3583	-2.9979	-2.6042	-3.4729	-2.8896	-2.9562	-3.2021	-2.7104	-3.3021	-3.2396	-2.75	337.968	467.893	298.433	271.882	513.294	285.272	407.262	311.417	283.414	306.411	208.485	516.468	204.227	477.058	326.220	318.445	0.00023848	9.38e-05	2.9484e-05	205.91	5.5405e-07	1.9489e-06	353.76	75.163	1.8258e-06	1.4638e-06	153.43	58.969	27.965	11.658	2.2319e-06	26.646	6.06e-05	5.0074e-05	1.4032e-05	192.28	5.6149e-07	5.5062e-07	330.2	70.537	5.6192e-07	5.4958e-07	139.14	54.803	26.115	10.86	5.6725e-07	24.588	254.766	365.241	511.473	186.506	506.960	318.149	186.702	191.735	292.037	307.058	190.716	193.865	194.797	199.861	221.518	197.570	-8191	255	
3185.471	1	1	0	0	0.069336	0.16808	0.10607	0.13381	0.28501	0.053501	0.37006	0.143	0.23707	0.31029	0.14924	0.18709	0.17843	0.27566	0.065903	0.13401	-2.9313	-2.7625	-2.8479	-3.2583	-2.675	-3.3042	-3.3792	-2.5833	-3.2417	-2.85	-2.6729	-3.475	-2.625	-3.125	-3.2125	-2.5958	269.408	528.448	492.227	360.356	251.701	383.742	390.446	480.799	418.188	347.059	496.747	528.534	404.090	500.783	428.535	503.093	0.00025093	0.00032928	3.5158e-05	204.48	1.4326e-06	2.8419e-06	354.65	75.145	1.465e-06	9.0237e-07	153.74	59.372	28.095	11.54	2.4194e-06	26.681	6.0216e-05	5.1131e-05	1.4265e-05	192.18	5.6097e-07	5.6055e-07	330.59	70.357	5.6164e-07	5.5965e-07	138.82	54.899	26.014	10.786	5.5576e-07	24.588	256.073	226.261	337.836	186.579	381.026	261.125	186.639	191.840	277.594	382.627	190.480	193.916	194.805	200.077	324.784	197.551	-8191	255	
3185.566	1	1	0	0	0.11092	0.052873	0.25246	0.11534	0.11794	0.11488	0.093916	0.15752	0.11523	0.13035	0.04999	0.057676	0.059052	0.1634	0.17422	0.25882	-2.9729	-2.8479	-2.75	-3.4	-2.4708	-3.0167	-3.5438	-2.5104	-3.1437	-3.0021	-2.7375	-3.3854	-2.5938	-2.9604	-3.3875	-2.5333	274.787	348.864	288.645	407.622	442.471	334.981	503.618	413.400	443.044	295.850	491.489	179.687	454.447	292.215	308.233	200.179	0.00021911	0.00011578	3.1493e-05	204.61	1.5232e-06	1.6176e-06	352.09	75.215	2.3428e-06	4.0362e-06	153.59	58.233	27.99	11.544	1.9569e-06	26.48	6.1035e-05	5.241e-05	1.4467e-05	191.97	5.634e-07	5.3427e-07	330.25	70.432	5.6836e-07	5.6874e-07	138.72	54.317	25.936	10.788	5.5635e-07	24.374	248.272	250.224	268.339	186.217	287.885	255.566	186.407	191.935	275.404	278.181	190.318	193.580	195.174	200.566	402.061	197.654	-8191	255	
3185.639	1	1	0	0	0.17825	0.29787	0.24768	0.17424	0.19052	0.13328	0.066	0.12856	0.20289	0.032416	0.076977	0.24873	0.1396	0.34323	0.22608	0.33393	-2.9938	-3.0146	-2.5021	-3.4229	-2.8542	-2.8125	-3.3333	-2.5938	-3.0771	-3.0646	-2.6	-3.3979	-2.5167	-2.825	-3.2062	-2.5604	260.333	240.794	178.866	436.880	179.813	177.469	342.570	292.339	224.240	356.106	264.928	174.668	340.722	226.340	373.225	278.601	0.00025604	5.4033e-06	1.8944e-05	202.65	2.5e-06	1.9407e-07	350.97	75.054	4.5304e-06	1.9771e-06	151.42	58.825	27.858	11.398	2.3957e-06	26.414	5.8996e-05	5.2036e-05	1.3901e-05	190.85	5.6456e-07	5.6613e-07	329.32	70.251	5.4631e-07	5.3763e-07	137.54	54.514	25.855	10.713	5.4001e-07	24.454	255.927	308.211	492.154	186.447	350.840	443.759	186.238	192.240	341.224	369.440	191.039	194.099	194.449	199.935	368.126	197.910	-8191	255	
3185.760	1	1	0	0	0.090707	0.12278	0.0075547	0.08392	0.17263	0.17805	0.14571	0.035919	0.12011	0.22628	0.16695	0.18341	0.10882	0.045624	0.12619	0.15668	-2.4792	-3.15	-2.5375	-3.3125	-2.8021	-2.7229	-3.5187	-2.6896	-3.0062	-3.1854	-2.6458	-3.1688	-2.8979	-2.4813	-3.4271	-2.5792	188.790	373.100	464.446	265.072	446.210	205.600	487.991	296.962	474.684	404.361	415.273	388.522	371.415	359.139	411.203	512.848	0.00022027	9.4064e-05	7.7689e-05	204.31	2.8825e-06	1.3601e-06	353.89	74.501	1.3464e-06	2.2401e-06	153.23	58.516	27.944	11.523	1.1615e-06	26.758	6.0214e-05	5.0018e-05	1.416e-05	191.82	5.6379e-07	5.4748e-07	331.38	70.168	5.5982e-07	5.7118e-07	138.61	54.573	25.925	10.766	5.5355e-07	24.549	250.981	297.144	285.871	186.846	368.234	339.967	186.609	192.115	281.703	286.467	190.327	194.592	195.070	200.153	206.325	198.092	-8191	255	
3185.854	1	1	0	0	0.20396	0.14607	0.049499	0.065046	0.13983	0.30245	0.14025	0.27132	0.033504	0.21489	0.26441	0.23275	0.22018	0.20722	0.13083	0.13919	-2.6271	-3.3646	-2.475	-3.3104	-3.0896	-2.6354	-3.2562	-2.6104	-2.9688	-3.2792	-2.5604	-3.1875	-2.9667	-2.6083	-3.3271	-2.7625	326.806	443.181	387.184	233.464	494.998	478.053	526.678	483.489	392.156	247.710	533.594	502.835	507.518	357.507	296.159	270.001	0.00020942	0.00028414	5.4739e-05	204.64	2.5586e-06	1.2345e-06	356.31	75.238	1.9679e-06	6.7628e-07	154.01	58.835	27.81	11.541	8.9397e-07	26.419	6.1905e-05	4.9262e-05	1.4211e-05	191.93	5.5549e-07	5.5089e-07	332.66	70.592	5.6615e-07	5.3855e-07	139.31	54.618	25.895	10.781	5.5623e-07	24.425	248.576	255.665	216.772	187.081	374.511	315.602	186.158	192.399	271.186	389.792	191.146	194.057	195.300	200.206	361.694	197.876	-8191	255	
3185.950	1	1	0	0	0.04783	0.12051	0.11871	0.13744	0.24381	0.058055	0.08181	0.10785	0.088619	0.089536	0.037748	0.06151	0.1177	0.04919	0.044828	0.22588	-2.4646	-3.4542	-2.4646	-3.225	-3.1896	-2.6479	-3.4146	-2.8042	-2.7854	-3.3542	-2.7521	-3.0333	-3.1875	-2.5333	-3.2521	-2.8167	224.950	219.948	419.394	191.158	445.591	400.156	520.653	191.223	456.271	316.237	474.191	501.035	328.547	457.269	497.533	311.129	0.0002522	0.00013712	5.9214e-05	203.38	1.729e-06	1.2297e-06	351.19	74.167	1.4072e-06	1.8532e-06	152.91	58.516	27.687	11.371	1.7072e-06	26.37	6.1766e-05	4.9702e-05	1.4179e-05	191.14	5.5771e-07	5.6163e-07	329.16	70.177	5.7308e-07	5.398e-07	138.35	54.438	25.815	10.675	5.314e-07	24.334	256.281	242.905	266.970	186.450	364.691	299.047	186.253	192.329	284.329	349.393	190.183	193.847	195.221	199.998	473.950	197.594	-8191	255	
3186.046	1	1	0	0	0.1292	0.17363	0.19359	0.30251	0.12043	0.13054	0.18445	0.10394	0.21181	0.13151	0.22562	0.19361	0.18951	0.18107	0.22998	0.13287	-2.2625	-3.4333	-2.4271	-3.0708	-3.2521	-2.7104	-3.3729	-2.9375	-2.6	-3.2562	-2.6146	-2.9125	-3.3083	-2.4	-3.2604	-2.9271	343.976	422.894	316.607	526.252	335.026	314.836	439.168	458.644	301.730	253.084	188.534	516.228	175.633	464.974	223.780	192.122	0.00020877	0.00012514	6.2588e-05	202.17	3.3384e-06	1.8328e-07	355.75	74.703	2.0577e-06	1.0878e-06	153.79	58.831	28.036	11.413	1.635e-06	26.217	5.9348e-05	4.9161e-05	1.3784e-05	190.85	5.5978e-07	5.2553e-07	330.05	69.945	5.688e-07	5.3996e-07	138.89	54.424	25.963	10.687	5.507e-07	24.248	250.283	277.103	330.521	186.956	279.875	253.358	187.057	192.673	300.785	260.909	190.240	194.365	195.287	200.431	390.689	197.376	-8191	255	
3186.167	1	1	0	0	0.34775	0.10408	0.14903	0.24196	0.23762	0.15383	0.16329	0.13716	0.13893	0.22742	0.079194	0.21447	0.16407	0.21789	0.12038	0.091455	-2.3354	-3.3438	-2.5604	-2.8354	-3.2417	-2.6917	-3.2792	-3.075	-2.6708	-3.3604	-2.7542	-2.8896	-3.5021	-2.5333	-3.1979	-3.0625	322.169	299.370	221.964	215.780	448.729	235.580	230.500	196.151	419.019	235.093	285.402	494.967	413.397	298.985	205.069	498.584	0.00025135	9.3415e-05	4.6088e-05	204.29	1.2034e-06	1.0304e-06	355.61	74.498	2.1587e-06	2.5025e-06	150.47	59.142	27.686	11.517	2.2231e-06	26.8	6.1596e-05	4.8544e-05	1.3812e-05	191.5	5.5489e-07	5.6868e-07	331.39	70.201	5.6918e-07	5.4401e-07	138.36	54.851	25.877	10.748	5.6601e-07	24.594	255.686	329.635	244.696	186.901	328.140	490.540	186.584	192.056	351.054	325.675	190.620	193.935	195.113	200.007	281.435	197.747	-8191	255	
3186.263	1	1	0	0	0.1798	0.21368	0.21172	0.030061	0.18513	0.15473	0.054327	0.20911	0.08109	0.2352	0.11891	0.12189	0.13533	0.27484	0.12001	0.14607	-2.125	-3.3146	-2.7104	-2.6583	-3.2729	-2.3521	-3.0938	-3.1042	-2.3125	-3.4917	-2.6042	-2.7208	-3.4313	-2.675	-3.1354	-3.3563	174.761	442.035	515.128	475.935	393.596	182.129	224.988	491.312	474.105	492.043	508.053	478.200	290.985	212.322	197.647	362.077	0.00026332	0.00024481	4.5046e-05	204.57	1.4541e-06	1.4463e-06	356.11	75.833	1.3458e-06	7.8276e-07	152.43	59.728	27.956	11.496	2.3867e-06	26.715	6.2554e-05	4.9821e-05	1.4379e-05	192.82	5.4891e-07	5.6166e-07	332.3	70.732	5.7106e-07	5.5272e-07	138.71	55.166	26.071	10.771	5.7531e-07	24.531	251.034	309.877	228.329	186.804	379.604	318.234	186.653	192.335	306.682	342.487	190.092	194.134	195.136	199.388	326.359	197.758	-8191	255	
#DATA ENDS
