BOXY.EXE: ISS Imagent and Oximeter Data Acquisition Program Version 0.80
Ascii Record File

#ACQ INFORMATION
2  Detector Channels 
16  External MUX Channels 
1  Auxiliary Channels 
5000  Waveform (CCF) Frequency (Hz)
1  Waveforms Skipped 
30  Waveforms Averaged 
1  Cycles Averaged 
16  Acquisitions per Waveform 
10.0806  Updata Rate (Hz) 

#FILE INFORMATION
TRUE -- External MUX Channel results are PARSED.
FALSE -- AC DC and Phase are NOT grouped.
TRUE -- Companion Program Settings File CREATED.
FALSE -- AC data not excluded
FALSE -- DC data not excluded
FALSE -- Phase data not excluded
FALSE -- Auxillary Chn. data not excluded
Tab delimiters

#CALIBRATION STATE
TRUE -- Waveform Calibration Values APPLIED.


#AUX CALIBRATION VALUES
Val Type	aux-1	

Term	1.0000e+00	
Factor	0.0000e+00	


#WF CALIBRATION VALUES
A = Detector Channel
Val Type	A-AC1	A-AC2	A-AC3	A-AC4	A-AC5	A-AC6	A-AC7	A-AC8	A-AC9	A-AC10	A-AC11	A-AC12	A-AC13	A-AC14	A-AC15	A-AC16	A-DC1	A-DC2	A-DC3	A-DC4	A-DC5	A-DC6	A-DC7	A-DC8	A-DC9	A-DC10	A-DC11	A-DC12	A-DC13	A-DC14	A-DC15	A-DC16	A-Ph1	A-Ph2	A-Ph3	A-Ph4	A-Ph5	A-Ph6	A-Ph7	A-Ph8	A-Ph9	A-Ph10	A-Ph11	A-Ph12	A-Ph13	A-Ph14	A-Ph15	A-Ph16	

Term	0.00000e+00	0.00000e+00	0.00000e+00	0.00000e+00	0.00000e+00	0.00000e+00	0.00000e+00	0.00000e+00	0.00000e+00	0.00000e+00	0.00000e+00	0.00000e+00	0.00000e+00	0.00000e+00	0.00000e+00	0.00000e+00	0.00000e+00	0.00000e+00	0.00000e+00	0.00000e+00	0.00000e+00	0.00000e+00	0.00000e+00	0.00000e+00	0.00000e+00	0.00000e+00	0.00000e+00	0.00000e+00	0.00000e+00	0.00000e+00	0.00000e+00	0.00000e+00	0.00000e+00	0.00000e+00	0.00000e+00	0.00000e+00	0.00000e+00	0.00000e+00	0.00000e+00	0.00000e+00	0.00000e+00	0.00000e+00	0.00000e+00	0.00000e+00	0.00000e+00	0.00000e+00	0.00000e+00	0.00000e+00	
Factor	1.00000e+00	1.00000e+00	1.00000e+00	1.00000e+00	1.00000e+00	1.00000e+00	1.00000e+00	1.00000e+00	1.00000e+00	1.00000e+00	1.00000e+00	1.00000e+00	1.00000e+00	1.00000e+00	1.00000e+00	1.00000e+00	1.00000e+00	1.00000e+00	1.00000e+00	1.00000e+00	1.00000e+00	1.00000e+00	1.00000e+00	1.00000e+00	1.00000e+00	1.00000e+00	1.00000e+00	1.00000e+00	1.00000e+00	1.00000e+00	1.00000e+00	1.00000e+00	X	X	X	X	X	X	X	X	X	X	X	X	X	X	X	X	

B = Detector Channel
Val Type	B-AC1	B-AC2	B-AC3	B-AC4	B-AC5	B-AC6	B-AC7	B-AC8	B-AC9	B-AC10	B-AC11	B-AC12	B-AC13	B-AC14	B-AC15	B-AC16	B-DC1	B-DC2	B-DC3	B-DC4	B-DC5	B-DC6	B-DC7	B-DC8	B-DC9	B-DC10	B-DC11	B-DC12	B-DC13	B-DC14	B-DC15	B-DC16	B-Ph1	B-Ph2	B-Ph3	B-Ph4	B-Ph5	B-Ph6	B-Ph7	B-Ph8	B-Ph9	B-Ph10	B-Ph11	B-Ph12	B-Ph13	B-Ph14	B-Ph15	B-Ph16	

Term	0.00000e+00	0.00000e+00	0.00000e+00	0.00000e+00	0.00000e+00	0.00000e+00	0.00000e+00	0.00000e+00	0.00000e+00	0.00000e+00	0.00000e+00	0.00000e+00	0.00000e+00	0.00000e+00	0.00000e+00	0.00000e+00	0.00000e+00	0.00000e+00	0.00000e+00	0.00000e+00	0.00000e+00	0.00000e+00	0.00000e+00	0.00000e+00	0.00000e+00	0.00000e+00	0.00000e+00	0.00000e+00	0.00000e+00	0.00000e+00	0.00000e+00	0.00000e+00	-7.43740e+01	-1.28316e+02	-1.28292e+02	-1.84666e+02	-6.09405e+01	-9.26518e+01	-1.57220e+02	-1.62015e+02	-6.83234e+01	-6.49300e+01	-1.71356e+02	-1.71554e+02	-1.80605e+02	-1.78112e+02	-5.87324e+01	-1.50478e+02	
Factor	1.69462e-05	1.09168e-04	3.22790e-05	1.81303e-01	1.25172e-06	1.14954e-06	1.71467e-01	5.38756e-02	1.13096e-06	1.21214e-06	1.27027e-01	2.77678e-02	2.53669e-02	8.93279e-03	9.87240e-07	1.27691e-02	1.16641e-06	1.21360e-06	3.37925e-07	9.36980e-02	1.32701e-08	1.33200e-08	8.34584e-02	2.80064e-02	1.32587e-08	1.33078e-08	6.16425e-02	1.38762e-02	1.31430e-02	4.61932e-03	1.32892e-08	6.33447e-03	X	X	X	X	X	X	X	X	X	X	X	X	X	X	X	X	



#DISTANCE SETTINGS
A = Detector Channel
A-1	A-2	A-3	A-4	A-5	A-6	A-7	A-8	A-9	A-10	A-11	A-12	A-13	A-14	A-15	A-16	

2.5000e+00	3.0000e+00	2.5000e+00	3.0000e+00	2.0000e+00	3.0000e+00	1.5000e+00	3.0000e+00	3.0000e+00	3.0000e+00	3.0000e+00	3.0000e+00	3.0000e+00	3.0000e+00	1.5000e+00	3.0000e+00	

B = Detector Channel
B-1	B-2	B-3	B-4	B-5	B-6	B-7	B-8	B-9	B-10	B-11	B-12	B-13	B-14	B-15	B-16	

1.0000e+01	1.0000e+01	1.0000e+01	1.4400e+00	1.0000e+01	1.0000e+01	1.5100e+00	1.9400e+00	1.0000e+01	1.0000e+01	1.9900e+00	2.4900e+00	2.4100e+00	2.9000e+00	1.0000e+01	2.9800e+00	




#DATA BEGINS
time	group	step	mark	flag	A-AC1	A-AC2	A-AC3	A-AC4	A-AC5	A-AC6	A-AC7	A-AC8	A-AC9	A-AC10	A-AC11	A-AC12	A-AC13	A-AC14	A-AC15	A-AC16	A-DC1	A-DC2	A-DC3	A-DC4	A-DC5	A-DC6	A-DC7	A-DC8	A-DC9	A-DC10	A-DC11	A-DC12	A-DC13	A-DC14	A-DC15	A-DC16	A-Ph1	A-Ph2	A-Ph3	A-Ph4	A-Ph5	A-Ph6	A-Ph7	A-Ph8	A-Ph9	A-Ph10	A-Ph11	A-Ph12	A-Ph13	A-Ph14	A-Ph15	A-Ph16	B-AC1	B-AC2	B-AC3	B-AC4	B-AC5	B-AC6	B-AC7	B-AC8	B-AC9	B-AC10	B-AC11	B-AC12	B-AC13	B-AC14	B-AC15	B-AC16	B-DC1	B-DC2	B-DC3	B-DC4	B-DC5	B-DC6	B-DC7	B-DC8	B-DC9	B-DC10	B-DC11	B-DC12	B-DC13	B-DC14	B-DC15	B-DC16	B-Ph1	B-Ph2	B-Ph3	B-Ph4	B-Ph5	B-Ph6	B-Ph7	B-Ph8	B-Ph9	B-Ph10	B-Ph11	B-Ph12	B-Ph13	B-Ph14	B-Ph15	B-Ph16	aux-1	digaux	

3192.913	1	1	0	256	0.2037	0.20961	0.23202	0.051396	0.1341	0.11307	0.03697	0.26254	0.21859	0.0098805	0.064159	0.072437	0.17465	0.11111	0.20128	0.19809	-2.1875	-3.0125	-3.2625	-2.6708	-3.4354	-2.8333	-2.7104	-3.4875	-2.4458	-3.0854	-3.1937	-2.4958	-3.4146	-2.8271	-2.65	-3.3896	300.127	200.697	291.703	399.885	227.121	481.847	516.266	396.376	287.147	289.692	194.533	233.055	465.096	461.712	364.083	491.249	0.00027477	0.00026039	6.5333e-05	185.92	4.4223e-06	3.5829e-06	343.94	74.74	1.9075e-06	2.8825e-06	158.91	64.295	30.584	12.549	1.9724e-06	29.407	8.7704e-05	8.0679e-05	2.2124e-05	176.63	8.6687e-07	8.68e-07	322.62	70.743	8.7833e-07	8.8236e-07	146.13	59.576	28.557	11.895	9.0532e-07	27.149	254.813	189.932	233.308	187.668	332.507	272.522	186.419	192.915	306.291	252.824	189.767	194.426	195.714	200.123	394.007	198.318	-8191	255	
3193.009	1	1	0	0	0.16546	0.1557	0.04683	0.17046	0.12301	0.25273	0.22224	0.092219	0.21182	0.17081	0.13183	0.075327	0.051049	0.26535	0.27576	0.091345	-2.2604	-2.9313	-3.0812	-2.65	-3.2354	-3.0646	-2.6979	-3.375	-2.7938	-2.7812	-3.2792	-2.7188	-3.15	-3.2125	-2.6354	-3.6	335.168	204.500	483.620	501.919	481.289	473.823	471.120	426.837	321.794	367.902	208.354	434.386	424.106	519.100	521.401	492.506	0.00022665	0.00047002	8.2654e-05	186.74	1.0772e-06	3.3913e-06	342.33	75.358	2.757e-06	3.1645e-06	159.77	63.578	30.352	12.773	2.1379e-06	29.413	8.8973e-05	7.9916e-05	2.1412e-05	177.37	8.9709e-07	8.9802e-07	321.07	70.844	8.9822e-07	8.6778e-07	146.58	59.62	28.504	11.958	8.8888e-07	27.17	260.672	518.560	242.426	187.605	477.553	288.230	186.871	192.488	363.421	338.056	190.135	194.326	195.516	200.388	280.346	198.703	-8191	255	
3193.104	1	1	0	0	0.22435	0.24147	0.066425	0.29531	0.29627	0.067197	0.23512	0.16918	0.077402	0.32398	0.29624	0.14139	0.096514	0.098395	0.16362	0.13487	-2.3146	-2.7521	-3.3	-2.6375	-2.9771	-3.0458	-2.625	-3.3021	-2.9521	-2.8	-3.1958	-2.5333	-3.0396	-3.1625	-2.5833	-3.4396	432.060	292.741	208.470	389.688	410.988	414.517	231.674	409.251	400.349	335.248	321.503	454.313	520.771	218.121	488.800	532.222	0.00022202	0.00021019	2.4581e-05	186.78	2.8556e-06	2.3869e-06	340.66	73.973	4.0893e-06	2.9899e-06	157.59	63.807	30.323	12.622	2.0418e-06	29.371	8.8992e-05	7.8378e-05	2.1735e-05	176.63	8.5902e-07	8.5329e-07	321.08	70.106	8.6775e-07	8.5372e-07	145.43	59.275	28.465	11.919	8.566e-07	27.059	251.655	346.213	272.995	186.910	278.203	342.413	186.598	191.976	318.684	225.629	190.409	194.219	195.768	200.054	332.577	197.601	-8191	255	
3193.202	1	1	0	0	0.18919	0.21015	0.087462	0.19697	0.23885	0.23709	0.30928	0.083598	0.24061	0.10354	0.25819	0.23827	0.12463	0.093892	0.17693	0.23306	-2.5125	-2.6125	-3.2812	-2.6188	-3.2354	-3.2562	-2.6146	-3.35	-2.7979	-2.6625	-3.4521	-2.7771	-3.0333	-3.2875	-2.65	-3.3167	511.792	190.762	286.833	185.947	500.097	511.879	490.828	397.474	250.200	248.094	402.259	180.865	246.468	451.966	328.837	521.796	0.00027511	0.00024047	8.0172e-05	187.02	7.2694e-07	1.6226e-06	340.11	74.429	1.2389e-06	1.341e-06	159.97	64.258	30.641	12.885	2.9087e-06	29.841	8.8003e-05	7.9091e-05	2.1522e-05	176.39	8.5139e-07	8.5259e-07	319.54	70.264	9.0156e-07	8.599e-07	145.17	59.857	28.719	12.054	8.6925e-07	27.405	246.866	195.145	267.828	187.350	268.158	227.961	186.217	192.754	361.778	340.675	189.863	193.703	195.537	200.188	334.375	197.484	-8191	255	
3193.296	1	1	0	0	0.22674	0.061404	0.18732	0.068834	0.069705	0.20038	0.080759	0.084086	0.15494	0.24449	0.2092	0.19216	0.22728	0.10383	0.20195	0.06154	-2.7167	-2.6063	-3.3312	-2.8146	-2.9021	-3.4521	-2.6042	-3.1375	-3.0146	-2.6167	-3.4333	-2.7188	-2.9479	-3.2458	-2.5479	-3.3354	214.507	353.751	324.060	261.494	502.049	247.058	198.456	476.671	431.927	452.929	211.041	527.533	283.482	468.662	390.972	243.410	0.00026186	0.00018306	7.1995e-05	184.37	8.3921e-07	2.2437e-06	341.68	74.759	8.5604e-07	1.4404e-06	161.27	65.042	30.824	13.045	1.5343e-06	29.538	8.8528e-05	7.7519e-05	2.1252e-05	175.89	8.3245e-07	8.1799e-07	319.74	70.994	8.4502e-07	8.4025e-07	146.78	60.245	28.952	12.217	8.3658e-07	27.546	251.697	267.810	301.537	186.341	319.467	238.260	186.667	192.388	262.296	251.318	190.525	194.252	195.722	200.128	267.799	197.839	-8191	255	
3193.392	1	1	0	0	0.035275	0.15658	0.20397	0.10698	0.13829	0.08978	0.18569	0.045919	0.22788	0.25686	0.2832	0.20979	0.056008	0.085067	0.11952	0.14548	-2.7333	-2.6167	-3.4479	-2.7458	-2.6958	-3.4521	-2.5	-3.2521	-3.2667	-2.5646	-3.5146	-2.8667	-2.7583	-3.3604	-2.6208	-3.2354	471.893	456.895	470.583	247.709	242.748	430.068	519.585	334.364	389.598	194.464	480.469	459.207	329.590	290.589	486.094	182.350	0.00028335	3.975e-05	4.1811e-05	183.27	9.352e-07	1.5184e-06	338.62	75.17	1.534e-06	2.9399e-06	161.04	64.14	30.905	12.992	5.686e-07	29.74	8.4747e-05	7.7607e-05	2.1386e-05	175.98	8.3494e-07	8.1444e-07	319.44	71.026	8.248e-07	8.1427e-07	145.94	59.961	28.771	12.156	8.3827e-07	27.422	252.612	446.406	227.148	187.320	356.690	301.411	186.073	192.836	272.758	256.108	190.578	194.074	195.380	200.078	258.912	197.883	-8191	255	
3193.513	1	1	0	0	0.19956	0.083536	0.014204	0.057453	0.15799	0.24422	0.085877	0.16512	0.12896	0.086576	0.21638	0.053262	0.067022	0.075599	0.16472	0.23803	-2.7	-2.5125	-3.3896	-2.9938	-2.6813	-3.2792	-2.6458	-2.9271	-3.3708	-2.4646	-3.2583	-3.1521	-2.6667	-3.4771	-2.8667	-3.1479	482.732	420.369	189.910	420.303	403.896	189.460	174.598	335.027	254.089	380.183	402.313	356.060	501.723	370.958	502.661	468.324	0.0002482	0.00024373	3.6117e-05	187.71	2.7718e-06	1.5899e-06	337.43	74.506	2.077e-06	1.5593e-06	156.73	62.878	30.221	13.01	2.3356e-06	29.225	8.6302e-05	7.5951e-05	2.1267e-05	176.14	8.5908e-07	8.3386e-07	318.5	70.355	8.1245e-07	8.3102e-07	144.47	59.016	28.503	12.076	8.3425e-07	27.087	248.669	300.010	298.485	186.783	341.199	276.487	186.426	192.515	389.798	439.039	190.544	193.788	196.008	200.340	207.732	197.909	-8191	255	
3193.609	1	1	0	0	0.16764	0.16892	0.13629	0.23332	0.163	0.13365	0.15188	0.11739	0.29652	0.10884	0.088463	0.19083	0.23553	0.11378	0.31649	0.18443	-3.1729	-2.6729	-3.3104	-2.9542	-2.6292	-3.3833	-2.8854	-2.9417	-3.2396	-2.5438	-3.1667	-3.2729	-2.5833	-3.3208	-2.6146	-2.8375	299.982	465.976	426.782	208.955	380.435	174.203	463.634	235.939	340.496	387.581	195.441	189.496	246.260	424.766	237.556	422.884	0.00021516	0.00013825	7.1478e-05	182.17	4.1347e-06	5.4173e-07	336.31	73.621	2.3578e-06	3.287e-06	158.36	63.106	30.237	12.625	2.0931e-06	28.876	8.4643e-05	7.4121e-05	2.0435e-05	173.99	8.2969e-07	8.5456e-07	315.92	69.897	8.2828e-07	8.291e-07	143.98	58.855	28.366	11.919	8.2169e-07	26.925	250.996	302.505	191.169	187.028	182.820	434.631	186.711	192.135	285.897	289.458	190.241	194.127	195.745	200.042	317.866	198.425	-8191	255	
3193.705	1	1	0	0	0.2737	0.16825	0.14859	0.24957	0.17575	0.27259	0.19862	0.11455	0.072141	0.13796	0.055584	0.11423	0.05343	0.10163	0.057023	0.1104	-3.0542	-2.5271	-3.1813	-3.2042	-2.375	-3.4938	-2.7021	-2.8125	-3.2792	-2.5229	-3.1729	-3.4104	-2.5375	-3.2771	-3.0708	-2.5958	247.178	529.900	487.058	492.108	206.927	285.866	390.490	496.872	327.799	410.333	276.183	447.054	397.336	366.142	352.655	341.600	0.00028527	0.0001338	2.8732e-05	186.23	1.9609e-06	1.151e-06	335.27	74.158	1.7693e-06	2.2459e-06	159.13	64.161	30.555	12.777	1.0655e-06	29.81	8.3447e-05	7.6614e-05	2.1353e-05	175.91	8.1067e-07	8.1982e-07	316.71	69.971	8.1588e-07	7.9919e-07	144.65	59.503	28.655	12.068	7.8553e-07	27.409	254.151	227.946	280.741	187.101	233.316	291.938	186.276	192.260	251.123	265.422	189.667	193.876	195.522	199.839	390.935	198.000	-8191	255	
3193.801	1	1	0	0	0.083249	0.32418	0.27078	0.17327	0.16442	0.17921	0.11121	0.22896	0.20333	0.094984	0.1758	0.11778	0.19846	0.10853	0.075771	0.094073	-2.9542	-2.6104	-3.0187	-3.2812	-2.5167	-3.3917	-3.0125	-2.7375	-3.5396	-2.8146	-2.9625	-3.4958	-2.7938	-3.2438	-3.1542	-2.8	362.266	301.539	489.646	417.854	296.821	462.315	377.810	393.637	244.623	526.302	489.067	405.291	179.960	326.036	419.789	232.248	0.00027067	0.00024942	5.4081e-05	185.6	3.1895e-06	2.3017e-06	341.94	75.683	2.5842e-06	2.8414e-06	158.4	64.417	30.804	13.271	1.2547e-06	30.041	8.2922e-05	7.2391e-05	2.0084e-05	175.95	7.9314e-07	7.9854e-07	319.62	70.872	7.9273e-07	7.9348e-07	145.38	60.074	28.925	12.344	7.8431e-07	27.779	251.197	218.644	204.416	187.344	341.666	344.048	186.603	192.614	311.846	317.386	190.550	194.373	195.611	200.687	347.234	197.994	-8191	255	
3193.873	1	1	0	0	0.086524	0.19578	0.072928	0.18466	0.24266	0.10994	0.073817	0.30709	0.095017	0.075344	0.1494	0.24852	0.21686	0.32154	0.25672	0.32075	-3.0854	-2.8042	-2.8729	-3.4667	-2.4771	-3.2729	-3.2313	-2.6792	-3.25	-2.7521	-2.7687	-3.4667	-2.7708	-3.1292	-3.0771	-2.6792	514.211	283.181	176.190	406.070	187.416	390.694	436.123	401.527	504.581	324.187	523.947	231.032	513.384	450.930	374.166	389.900	0.00029384	0.00029845	3.7137e-05	184.14	1.2737e-06	3.9943e-06	337.32	74.272	1.1108e-06	2.2856e-06	158.01	64.37	30.951	13.113	1.7405e-06	30.073	8.0315e-05	7.0043e-05	1.9737e-05	175.63	7.8034e-07	7.7667e-07	317.27	70.449	7.6353e-07	7.5469e-07	144.12	59.877	28.934	12.312	7.5543e-07	27.655	254.089	216.577	426.671	187.101	350.380	324.639	186.407	192.208	294.414	354.861	190.484	194.176	194.907	200.071	289.507	197.837	-8191	255	
3193.994	1	1	0	0	0.23267	0.22644	0.028325	0.05322	0.11466	0.20496	0.20685	0.098126	0.079867	0.1419	0.19887	0.23572	0.12082	0.27091	0.085466	0.29166	-3.1646	-2.7313	-2.6708	-3.4125	-2.7458	-3.0979	-3.3333	-2.5312	-3.3042	-3.0062	-2.6688	-3.2792	-2.6437	-2.9229	-3.2729	-2.5	333.599	211.497	340.275	365.455	346.229	335.039	482.547	239.175	470.699	458.188	296.237	512.141	372.525	508.084	377.592	474.352	0.00027013	0.00021938	8.7611e-05	185.77	3.3499e-07	8.2572e-07	338.94	75.034	4.3489e-06	2.5688e-06	157.33	64.885	30.779	13.195	1.2564e-06	30.17	7.8956e-05	6.874e-05	1.8816e-05	176.29	7.4368e-07	7.5877e-07	317	70.708	7.0887e-07	7.4571e-07	143.68	59.97	28.827	12.299	7.4079e-07	27.563	253.667	239.937	345.566	187.594	414.192	381.270	186.566	192.234	318.915	348.353	189.664	193.793	195.998	199.885	309.957	198.049	-8191	255	
3194.090	1	1	0	0	0.1234	0.097035	0.046739	0.26149	0.15358	0.098645	0.050757	0.16175	0.19144	0.13254	0.13742	0.23957	0.049012	0.27129	0.0068542	0.32753	-2.8125	-2.9229	-2.4479	-3.375	-2.725	-2.9688	-3.4042	-2.6562	-3.1083	-3.1479	-2.5979	-3.3479	-2.7292	-2.8292	-3.3167	-2.7375	527.692	365.571	184.711	181.484	342.413	197.892	328.223	372.861	520.593	421.671	291.215	503.972	454.053	243.029	471.522	465.663	0.00029377	0.00015623	9.276e-05	187.93	2.6872e-06	1.2616e-06	342.07	74.861	3.6958e-06	2.1634e-06	160.78	64.521	31.211	13.083	7.1747e-07	30.115	7.7e-05	6.5218e-05	1.8644e-05	176.68	7.3279e-07	7.5677e-07	319.89	70.852	7.4218e-07	7.6159e-07	145.23	60.263	29.078	12.386	7.4259e-07	27.864	254.936	249.780	248.119	186.264	292.408	256.477	185.793	192.412	315.958	308.782	190.581	194.466	195.266	200.582	294.722	198.233	-8191	255	
3194.184	1	1	0	0	0.28293	0.2657	0.078098	0.1961	0.056996	0.035654	0.29369	0.23122	0.18484	0.10772	0.19945	0.21153	0.097635	0.25485	0.093473	0.14003	-2.8625	-3.0896	-2.4875	-3.4042	-2.925	-2.7313	-3.4667	-2.6937	-3.1917	-3.2354	-2.6458	-3.3833	-3.0667	-2.7625	-3.4667	-2.6542	301.913	343.206	420.398	403.356	320.923	499.504	406.748	308.848	445.359	397.679	427.485	362.495	507.213	231.678	340.350	489.626	0.00026725	0.00012947	5.3734e-05	187.67	3.0492e-06	2.4346e-06	345.94	75.86	2.9347e-06	1.1539e-06	158.61	65.219	31.461	13.403	1.5638e-06	30.295	7.6123e-05	6.6708e-05	1.9174e-05	177.49	7.3478e-07	7.3577e-07	323.06	71.394	7.4997e-07	7.253e-07	145.37	60.553	29.292	12.479	7.383e-07	27.976	256.361	464.004	282.890	186.968	419.931	262.980	186.874	192.328	317.053	280.951	190.750	194.290	195.390	200.071	339.953	197.638	-8191	255	
3194.282	1	1	0	0	0.061812	0.22804	0.094751	0.17526	0.056583	0.05469	0.09683	0.17413	0.11967	0.1414	0.10899	0.17641	0.050032	0.065111	0.093025	0.11968	-2.5438	-3.4125	-2.6833	-3.2958	-3.0312	-2.6896	-3.2625	-2.6917	-3.0229	-3.1813	-2.4375	-3.2854	-3.0167	-2.7438	-3.375	-2.7958	184.972	292.768	231.274	315.326	421.560	419.752	186.004	343.985	387.744	519.760	333.629	205.873	243.159	204.569	407.853	525.199	0.00027014	0.00014707	0.00010549	187.56	2.2612e-06	1.2094e-06	345.23	76.077	1.5367e-06	1.1198e-06	157.89	65.287	31.43	13.417	3.8107e-06	30.487	7.7061e-05	6.5823e-05	1.8326e-05	178.12	7.2651e-07	7.1187e-07	320.71	71.48	7.339e-07	6.9322e-07	144.89	60.61	29.344	12.492	7.2833e-07	28.017	257.337	261.394	253.662	187.984	200.984	188.460	187.350	192.628	354.998	353.166	190.334	194.569	195.853	200.356	355.308	197.943	-8191	255	
3194.401	1	1	0	0	0.45511	0.072666	0.13875	0.18669	0.12096	0.25628	0.20766	0.15902	0.11028	0.11226	0.14557	0.050929	0.17787	0.083522	0.23327	0.16309	-2.5229	-3.325	-2.6396	-3.1208	-3.1375	-2.7604	-3.4354	-2.8292	-2.9667	-3.45	-2.6021	-3.1104	-3.1292	-2.5208	-3.375	-2.8375	426.437	427.254	198.010	438.264	223.006	388.528	203.172	175.014	221.357	338.524	357.217	480.752	467.846	185.550	293.764	496.425	0.00029784	9.9275e-05	4.2808e-05	187.89	3.1766e-06	1.8554e-06	343.35	76.368	1.1599e-06	3.9155e-06	162.01	65.378	31.657	13.361	2.0896e-06	30.547	7.7515e-05	6.6526e-05	1.9056e-05	178.02	7.2944e-07	7.2974e-07	323.36	71.717	7.4191e-07	7.1518e-07	146.28	60.673	29.31	12.557	7.1712e-07	28.169	251.096	364.443	328.621	187.538	376.150	207.737	186.856	191.985	490.957	359.170	190.750	194.463	195.498	200.467	245.922	198.009	-8191	255	
3194.497	1	1	0	0	0.09183	0.15634	0.12627	0.096053	0.068914	0.15129	0.26632	0.076842	0.11656	0.070468	0.19178	0.028045	0.22804	0.17331	0.1953	0.15562	-2.4083	-3.4062	-2.675	-2.9417	-3.3042	-2.3979	-3.5354	-2.7125	-2.85	-3.3667	-2.6917	-2.9958	-3.2833	-2.6167	-3.425	-3.1396	421.322	396.908	531.055	415.487	320.835	388.419	387.653	247.923	420.645	523.109	245.545	445.795	281.960	221.885	235.852	504.833	0.00031312	0.00036815	3.02e-05	190.3	1.007e-06	1.5591e-06	347.1	76.289	1.7277e-06	1.7939e-06	160.85	66.178	31.979	13.483	3.1708e-06	30.655	7.6682e-05	6.6498e-05	1.8425e-05	180.01	7.2693e-07	7.4345e-07	323.3	72.192	7.1898e-07	7.3437e-07	146.94	61.211	29.563	12.581	7.5488e-07	28.314	247.463	222.156	262.806	187.363	413.651	298.873	186.869	192.495	274.359	515.703	190.272	194.307	195.444	200.790	312.001	197.526	-8191	255	
3194.593	1	1	0	0	0.29084	0.28303	0.060722	0.11314	0.10429	0.14353	0.11847	0.11732	0.17847	0.097431	0.24047	0.039592	0.075154	0.074415	0.10925	0.16883	-2.2812	-3.3312	-2.5062	-2.9875	-3.3271	-2.5875	-3.3646	-2.9938	-2.5396	-3.4938	-2.7021	-2.8167	-3.2604	-2.825	-3.2542	-3.2438	272.754	467.769	272.906	186.137	184.122	512.622	287.034	335.145	386.986	513.875	373.699	449.139	448.133	333.115	306.321	446.467	0.00025038	0.00013517	5.4399e-05	189.37	6.4973e-07	3.1998e-06	347.13	77.136	2.3113e-06	3.4945e-06	160.84	65.14	31.758	13.518	1.652e-06	30.532	7.9902e-05	6.712e-05	1.9807e-05	179.08	7.4009e-07	7.4404e-07	323.92	72.327	7.6185e-07	7.4493e-07	146.99	61.063	29.528	12.649	7.5768e-07	28.197	256.095	321.752	280.985	187.183	336.468	254.859	187.162	192.567	288.471	334.453	190.256	194.285	195.853	200.565	332.598	198.456	-8191	255	
3194.689	1	1	0	0	0.087224	0.20516	0.20526	0.18273	0.010512	0.098198	0.30968	0.15988	0.26333	0.066631	0.33377	0.17441	0.073398	0.19111	0.061258	0.16847	-2.2438	-3.4167	-2.7083	-2.9583	-3.5104	-2.7604	-3.1208	-3.1375	-2.7	-3.3146	-2.8187	-2.75	-3.3729	-2.7396	-3.0938	-3.1708	212.685	482.418	447.713	227.612	332.389	286.601	374.552	439.030	410.302	340.815	520.040	362.447	439.221	453.432	267.671	461.529	0.00031116	0.00013127	2.6479e-05	191.95	3.2872e-06	2.0945e-06	345.19	76.825	8.6881e-07	2.8748e-06	159.11	65.273	30.987	13.463	2.5381e-06	30.539	7.8478e-05	6.5408e-05	1.8519e-05	179.6	7.454e-07	7.4087e-07	322.49	71.847	7.3185e-07	7.2272e-07	145.27	60.74	29.244	12.622	7.2794e-07	28.222	249.476	379.081	490.262	187.424	379.022	256.530	186.889	192.863	307.173	338.251	191.084	194.649	196.007	200.927	318.809	198.077	-8191	255	
3194.786	1	1	0	0	0.080344	0.11694	0.034155	0.10749	0.1776	0.18067	0.20849	0.24266	0.37686	0.090572	0.18272	0.12531	0.25935	0.34326	0.16146	0.10579	-2.0854	-3.3396	-2.8708	-2.7188	-3.4604	-2.5708	-3.3	-3.3979	-2.5	-3.3458	-2.9583	-2.6833	-3.3812	-2.6521	-3.0292	-3.275	532.239	203.383	522.848	226.186	490.973	201.935	462.016	470.360	259.470	263.110	347.645	439.826	216.638	506.068	191.920	348.150	0.0002794	8.3166e-05	0.00011088	187.15	2.0186e-06	1.3739e-06	345.42	77.097	1.8922e-06	2.8271e-06	160.73	64.751	31.557	13.517	5.0466e-07	30.579	7.6973e-05	6.8811e-05	1.8342e-05	178.28	7.3293e-07	7.4298e-07	323.19	72.102	7.4685e-07	7.3792e-07	145.84	60.74	29.537	12.667	7.5643e-07	28.242	240.486	437.171	276.998	187.689	338.907	363.443	186.581	192.263	350.815	260.141	190.788	194.114	195.318	200.148	318.407	198.425	-8191	255	
3194.882	1	1	0	0	0.1365	0.20521	0.085947	0.2518	0.10574	0.12465	0.18705	0.1318	0.10108	0.09275	0.094345	0.089142	0.01351	0.23266	0.053564	0.16022	-2.0083	-3.2604	-3.0292	-2.6688	-3.4083	-2.7313	-2.9062	-3.2792	-2.6229	-3.2417	-3.2479	-2.5167	-3.2938	-2.8354	-2.8354	-3.3542	496.286	191.720	517.370	510.674	350.704	524.159	381.000	218.287	497.118	227.876	296.914	214.687	324.393	461.437	220.449	259.897	0.00028832	0.00024723	1.9986e-05	190.01	6.3357e-07	3.1942e-06	346.85	77.586	2.483e-06	2.8167e-06	160.89	65.383	31.812	13.52	1.9986e-06	30.743	7.8463e-05	6.5481e-05	1.8922e-05	179.89	7.3378e-07	7.3982e-07	325.16	72.687	7.7102e-07	7.2935e-07	147.26	61.181	29.538	12.687	7.4583e-07	28.388	259.676	279.581	331.170	187.740	274.623	250.540	187.482	192.779	316.049	298.739	190.342	194.422	195.667	200.674	296.661	198.128	-8191	255	
3195.002	1	1	0	0	0.11804	0.10487	0.032116	0.080762	0.1325	0.11295	0.1608	0.086238	0.14055	0.11808	0.047789	0.11498	0.15953	0.15753	0.31605	0.27337	-2.3479	-3.1833	-3.0917	-2.6979	-3.0583	-2.95	-2.7667	-3.4583	-2.6042	-3.1479	-3.2542	-2.6375	-3.4667	-2.9042	-2.8312	-3.5625	263.756	316.030	333.937	303.149	248.129	415.245	416.039	217.059	259.831	515.124	400.665	477.056	305.089	505.768	376.457	468.168	0.00027981	0.00010777	7.1966e-05	191.48	2.5385e-06	8.3267e-07	344.96	77.666	3.2372e-06	1.4841e-06	161.04	65.813	31.921	13.681	1.9077e-06	30.726	7.9974e-05	6.8351e-05	1.9352e-05	180.21	7.4421e-07	7.2555e-07	325.05	72.803	7.4787e-07	7.4244e-07	147.39	61.205	29.751	12.742	7.3077e-07	28.325	251.851	489.123	267.855	187.951	316.043	259.816	186.763	193.024	272.856	264.075	190.438	194.278	196.406	200.837	363.243	198.416	-8191	255	
3195.097	1	1	0	0	0.26474	0.11243	0.19911	0.10169	0.22767	0.099934	0.19057	0.080216	0.084819	0.17202	0.072144	0.03223	0.33984	0.13501	0.21272	0.22162	-2.1104	-3.0333	-3.3104	-2.6021	-3.3375	-2.9854	-2.7625	-3.3125	-2.6188	-3.0542	-3.2479	-2.6583	-3.1833	-2.9375	-2.6146	-3.5854	245.703	201.699	413.046	525.064	285.775	235.712	368.460	191.826	401.666	393.025	262.201	422.098	458.472	315.793	458.285	297.553	0.00023753	0.00014067	8.5221e-05	192.32	9.7852e-07	2.8861e-06	350.54	76.714	1.6405e-06	2.4396e-06	160.81	65.419	31.504	13.524	2.1252e-06	30.802	7.5739e-05	6.8086e-05	1.8663e-05	180.81	7.2801e-07	7.2944e-07	326.68	72.491	7.5354e-07	7.1502e-07	146.6	60.825	29.422	12.645	7.5601e-07	28.246	250.563	345.686	255.225	187.758	328.481	405.802	186.706	192.485	290.093	257.558	190.423	194.092	195.990	200.200	247.116	197.733	-8191	255	
3195.170	1	1	0	0	0.1195	0.055206	0.10597	0.090776	0.13963	0.19219	0.12421	0.21456	0.10143	0.035201	0.070167	0.22534	0.21923	0.15061	0.26086	0.29268	-2.3937	-2.8875	-3.2708	-2.5396	-3.3354	-2.9042	-2.4354	-3.3958	-2.6646	-2.7917	-3.3688	-2.7167	-3.175	-3.0687	-2.5062	-3.375	208.024	319.120	278.345	420.435	512.815	324.727	420.532	487.168	201.293	519.642	208.094	384.089	242.841	220.663	463.819	253.270	0.00024431	0.00018176	1.9723e-05	190.2	2.0195e-06	1.2081e-06	345.83	77.105	4.0533e-06	1.048e-06	160.64	65.205	31.646	13.382	1.0666e-06	30.662	7.7297e-05	6.6381e-05	1.8574e-05	179.98	7.2253e-07	7.0882e-07	324.36	72.265	7.2903e-07	7.2622e-07	146.45	60.561	29.52	12.56	7.5023e-07	28.129	261.095	202.612	185.415	187.460	303.560	203.296	186.802	192.694	333.390	327.489	191.321	194.433	196.044	200.451	290.362	198.284	-8191	255	
3195.289	1	1	0	0	0.20169	0.088624	0.094468	0.25512	0.20199	0.3098	0.067555	0.12164	0.27342	0.12606	0.11191	0.1943	0.10403	0.15591	0.27494	0.077322	-2.4208	-2.5771	-3.2104	-2.4833	-3.1417	-3.175	-2.4729	-3.1937	-2.7146	-2.7604	-3.3563	-2.6396	-2.9729	-3.3042	-2.5625	-3.3104	222.368	295.800	468.388	453.596	301.961	182.865	360.133	498.709	185.128	175.389	410.306	366.069	213.366	289.959	496.439	384.587	0.00027649	0.0001831	6.3677e-05	190.76	1.4192e-06	2.5623e-06	349.38	76.517	3.2845e-06	3.4323e-06	160.73	65.269	31.699	13.571	2.903e-06	30.904	7.8801e-05	6.7979e-05	1.8955e-05	180.67	7.3489e-07	7.0774e-07	326.01	72.464	7.4693e-07	7.2774e-07	147.48	60.899	29.609	12.66	7.4718e-07	28.287	255.894	293.713	270.728	187.461	306.455	293.175	186.752	192.396	321.518	280.557	190.590	193.755	195.956	200.754	349.958	198.143	-8191	255	
3195.385	1	1	0	0	0.23033	0.15536	0.086273	0.27791	0.17328	0.24778	0.21673	0.23853	0.10922	0.20452	0.055149	0.099887	0.25834	0.124	0.24359	0.030716	-2.4688	-2.5979	-3.2854	-2.4875	-2.9083	-3.2979	-2.4938	-3.1729	-3.0312	-2.7	-3.3917	-2.6937	-2.8896	-3.3854	-2.6104	-3.4688	464.932	239.047	328.757	295.423	429.318	434.879	515.076	494.225	235.775	353.729	466.566	459.958	336.068	344.699	234.614	460.723	0.00026241	4.5869e-05	0.00011286	193.29	1.0581e-06	2.6068e-06	349.97	76.793	2.8697e-06	2.5822e-06	162.34	65.81	31.558	13.623	2.0721e-06	30.633	7.8363e-05	6.6379e-05	1.8637e-05	181.41	7.138e-07	7.1384e-07	327.94	72.582	7.2854e-07	7.421e-07	147.32	60.907	29.227	12.624	7.4533e-07	28.142	257.433	360.516	275.215	187.335	320.462	336.424	186.987	192.834	315.532	286.799	189.728	194.567	195.625	200.333	327.097	198.201	-8191	255	
3195.481	1	1	0	0	0.1226	0.16134	0.13949	0.32575	0.074824	0.14663	0.2388	0.25072	0.1959	0.19383	0.17625	0.025305	0.27097	0.16645	0.16825	0.095849	-2.6562	-2.6333	-3.3625	-2.6208	-2.7292	-3.3479	-2.4896	-3.1583	-3.1	-2.6312	-3.4167	-2.8125	-2.5292	-3.2542	-2.7771	-3.2542	446.394	323.659	362.777	497.289	470.190	433.567	336.232	480.298	347.467	323.125	324.276	277.711	525.702	178.326	377.759	267.391	0.00027973	0.00012111	9.0282e-05	192	8.8824e-07	9.8045e-07	350.17	76.475	2.0798e-06	2.2422e-06	161.86	65.191	31.252	13.324	2.4623e-06	30.09	7.6055e-05	6.6576e-05	1.8456e-05	181.11	7.2369e-07	7.2752e-07	327.19	72.184	7.2274e-07	7.1199e-07	146.46	60.413	29.256	12.465	7.1532e-07	27.823	244.541	210.425	281.499	188.089	311.627	392.705	186.740	192.956	335.766	348.262	190.946	194.829	195.544	201.023	360.172	198.795	-8191	255	
3195.578	1	1	0	0	0.161	0.043467	0.15045	0.16749	0.14497	0.25274	0.15672	0.16694	0.21629	0.13846	0.15401	0.13894	0.10898	0.30349	0.29169	0.041643	-2.8521	-2.425	-3.2771	-2.8438	-2.6458	-3.2562	-2.7333	-2.8917	-3.3292	-2.575	-3.3354	-2.8542	-2.6646	-3.5354	-2.6437	-2.9729	178.633	523.246	476.302	405.196	274.499	517.174	430.355	254.656	176.909	250.653	340.941	338.623	266.587	232.858	295.426	464.057	0.00025185	0.00010034	6.7158e-05	192.29	3.3666e-06	3.629e-06	351.33	77.5	1.8193e-06	1.1281e-06	160.49	64.113	31.218	13.488	1.9068e-06	29.973	7.58e-05	6.5878e-05	1.801e-05	181.35	7.1236e-07	7.0288e-07	328.34	72.3	7.2158e-07	7.1119e-07	146.6	59.867	29.093	12.502	7.0535e-07	27.76	240.223	222.365	271.239	187.110	371.715	235.445	186.941	192.505	230.786	297.333	190.714	194.315	195.794	200.907	378.009	198.246	-8191	255	
3195.698	1	1	0	0	0.2497	0.019895	0.13061	0.11387	0.2491	0.069068	0.056293	0.42659	0.16336	0.030283	0.095633	0.11131	0.09628	0.1787	0.10273	0.2791	-2.7687	-2.475	-3.1271	-3.0333	-2.7396	-3.3354	-2.9396	-3.0021	-3.4167	-2.6229	-3.2021	-3.2542	-2.5812	-3.3688	-2.8812	-2.9417	495.620	479.874	525.845	238.706	235.842	390.759	322.076	259.408	496.709	187.177	280.788	496.632	436.989	408.987	492.767	349.454	0.00028295	0.00022059	3.969e-05	191.75	2.9677e-06	2.3909e-06	353.42	77.569	1.5114e-07	9.3511e-07	160.81	64.854	31.256	13.42	1.1797e-06	30.172	7.5182e-05	6.4738e-05	1.7988e-05	181.54	7.1258e-07	6.8917e-07	329.59	72.963	7.1763e-07	7.3653e-07	147.13	60.057	29.126	12.505	7.2412e-07	27.887	243.004	292.595	283.983	187.081	374.189	298.257	186.935	192.784	310.870	459.867	189.855	194.250	195.663	200.789	306.941	198.480	-8191	255	
3195.794	1	1	0	0	0.28825	0.062957	0.30302	0.09909	0.16037	0.0075481	0.2015	0.098562	0.058221	0.19341	0.22786	0.14177	0.27164	0.12247	0.14076	0.029814	-2.9917	-2.7042	-3.1833	-3.2188	-2.5792	-3.4313	-2.7854	-2.775	-3.5146	-2.7583	-3.1937	-3.2313	-2.6937	-3.3917	-2.8792	-2.7729	524.331	481.470	321.062	371.477	346.761	192.513	378.049	224.340	266.665	248.116	280.014	244.077	489.251	408.922	380.901	465.005	0.00027028	0.00048297	3.6625e-05	191.97	2.9067e-06	1.3435e-07	354.6	77.265	2.7716e-06	2.8355e-06	160.97	64.646	31.189	13.228	1.0112e-06	30.081	7.7301e-05	6.4665e-05	1.8462e-05	183.73	7.2419e-07	7.0238e-07	331.14	72.696	7.1525e-07	7.0686e-07	147.83	59.977	29.14	12.454	7.0048e-07	27.81	246.811	244.175	285.287	187.497	340.501	370.570	186.757	192.556	270.852	324.862	190.097	193.867	195.257	200.352	462.784	197.562	-8191	255	
3195.866	1	1	0	0	0.04269	0.16635	0.14824	0.37237	0.36919	0.097487	0.082807	0.19102	0.040204	0.22327	0.087676	0.11094	0.29956	0.234	0.23753	0.1078	-3.1729	-2.5292	-3.0792	-3.2729	-2.6354	-3.3688	-3.1521	-2.6771	-3.6125	-2.7229	-3.0354	-3.3771	-2.5875	-3.3563	-3.1188	-2.6896	340.004	301.269	344.934	512.860	378.837	405.198	247.604	508.825	217.753	395.288	176.073	206.433	226.875	324.065	195.398	442.302	0.00027056	0.00026671	7.4727e-05	193.75	3.605e-06	1.8529e-06	354.33	77.816	3.5052e-06	7.8711e-07	161.23	64.354	31.153	13.174	2.6965e-06	29.821	7.6393e-05	6.584e-05	1.7624e-05	183.28	7.1219e-07	7.0641e-07	329.71	72.762	7.1044e-07	7.118e-07	146.85	59.681	29.037	12.347	7.0765e-07	27.486	262.028	248.989	202.943	187.435	433.537	258.378	186.271	192.480	350.721	397.721	189.732	193.707	195.154	200.503	317.114	198.199	-8191	255	
3195.962	1	1	0	0	0.28088	0.086045	0.091763	0.064448	0.092588	0.12135	0.12114	0.0053959	0.28862	0.080425	0.09172	0.32392	0.12703	0.044277	0.11206	0.13158	-3.2792	-2.8917	-3.0062	-3.3854	-2.6813	-3.2812	-3.2667	-2.6437	-3.375	-2.8604	-2.8167	-3.4938	-2.7354	-3.2354	-3.1063	-2.5812	202.565	423.837	263.211	534.212	415.277	296.361	508.771	409.072	410.848	307.719	308.131	492.312	421.246	205.613	492.658	304.857	0.00024282	0.00041785	3.6244e-05	189.79	3.0624e-06	7.5431e-07	354.57	76.178	3.3448e-06	1.4686e-06	163.75	64.525	31.181	13.133	2.6452e-06	29.916	7.3311e-05	6.3337e-05	1.7573e-05	182.71	7.2397e-07	6.9359e-07	329.63	72.089	7.2525e-07	6.8851e-07	147.5	59.713	29.022	12.293	6.8857e-07	27.522	253.907	260.798	221.813	187.722	329.783	459.797	186.972	192.441	328.088	343.570	190.848	193.768	194.772	200.779	361.127	197.710	-8191	255	
3196.083	1	1	0	0	0.15101	0.13175	0.075893	0.064696	0.2262	0.24877	0.22649	0.14145	0.10156	0.18875	0.14619	0.070038	0.10546	0.34738	0.059816	0.23241	-2.9896	-2.7292	-2.7125	-3.2729	-2.575	-3.0958	-3.4125	-2.5167	-3.425	-2.8958	-2.7979	-3.3958	-2.625	-3.1521	-3.4938	-2.7167	187.281	279.547	406.058	211.786	265.185	260.570	508.414	508.547	185.648	232.093	442.558	375.399	452.767	504.300	320.827	251.144	0.00026794	7.8606e-05	5.3294e-05	193.68	1.3017e-06	3.5368e-06	355.13	76.998	9.3706e-07	2.3202e-06	164.34	64.465	31.231	13.212	6.0065e-07	29.645	7.3912e-05	6.4913e-05	1.8126e-05	183.61	7.1015e-07	7.0899e-07	331.75	72.647	7.071e-07	6.9966e-07	148.05	59.865	28.965	12.353	7.0266e-07	27.565	255.724	323.150	296.274	186.921	304.463	284.736	186.670	192.176	292.639	348.675	190.402	194.503	195.292	200.864	457.746	197.695	-8191	255	
3196.177	1	1	0	0	0.29155	0.18469	0.14992	0.1573	0.31806	0.27862	0.22494	0.039948	0.10516	0.070869	0.12315	0.13712	0.19316	0.15691	0.070887	0.20524	-2.9292	-3.1771	-2.8229	-3.5375	-2.7729	-3.1083	-3.5875	-2.7708	-3.2271	-3.0979	-2.6875	-3.4125	-2.8063	-2.9771	-3.5604	-2.4292	423.179	319.533	411.086	306.145	367.491	230.969	526.922	237.113	419.658	467.924	488.744	215.540	266.392	251.061	512.775	424.300	0.00025791	0.0001054	3.0163e-05	192.84	1.9212e-06	1.9363e-06	352.81	76.85	3.1309e-06	4.2951e-06	161.44	64.491	31.057	13.186	3.5787e-06	29.976	7.3163e-05	6.3732e-05	1.7839e-05	182.95	7.0055e-07	6.9125e-07	332.32	72.447	7.0992e-07	6.9952e-07	147.29	59.982	29.051	12.359	7.2999e-07	27.592	256.273	223.253	181.337	187.402	297.624	334.270	186.857	192.742	328.917	392.191	189.672	194.469	195.368	200.418	307.253	198.290	-8191	255	
3196.275	1	1	0	0	0.16455	0.32027	0.24072	0.14137	0.16476	0.14256	0.23726	0.18725	0.24226	0.20514	0.35253	0.19568	0.10682	0.25391	0.05106	0.12747	-2.8083	-3.1771	-2.6958	-3.4938	-2.6333	-2.9083	-3.3104	-2.5896	-3.2812	-3.2125	-2.7167	-3.5271	-2.75	-2.8479	-3.4771	-2.6437	507.239	352.845	188.748	460.707	213.207	523.170	202.225	202.434	213.040	375.197	425.871	272.338	221.204	504.406	453.175	376.008	0.00026002	0.00021982	4.7163e-05	193.45	1.4859e-06	2.4841e-06	353.04	76.729	2.4475e-06	3.1087e-06	160.39	64.102	30.803	13.161	2.3562e-06	29.769	7.3282e-05	6.4996e-05	1.8004e-05	182.87	6.864e-07	7.1026e-07	330.64	72.206	6.9716e-07	6.937e-07	146.43	59.243	28.764	12.304	7.1454e-07	27.434	245.859	262.594	497.885	187.118	335.527	319.634	186.616	192.292	284.515	329.287	190.062	194.619	195.386	200.070	361.375	197.561	-8191	255	
3196.394	1	1	0	0	0.20834	0.03549	0.11978	0.18083	0.055971	0.1012	0.15349	0.05389	0.20979	0.086658	0.24705	0.089778	0.29007	0.14013	0.070159	0.3259	-2.8187	-3.3312	-2.3979	-3.4313	-2.9208	-2.6771	-3.6	-2.8438	-3.175	-3.5021	-2.6146	-3.5583	-3.0479	-2.6979	-3.4167	-2.7854	419.993	445.724	182.568	416.797	354.788	527.481	478.118	439.290	242.396	223.274	398.335	420.130	274.792	397.008	192.207	336.930	0.0002753	0.00024305	6.1228e-05	192.94	1.8867e-06	3.9279e-06	357.01	76.789	1.0779e-06	2.1307e-06	159.9	63.881	31.171	12.979	1.3579e-06	29.848	7.3384e-05	6.5378e-05	1.7924e-05	183.15	6.7932e-07	6.8115e-07	332.22	72.184	7.1497e-07	6.7823e-07	145.67	59.205	28.818	12.207	7.0363e-07	27.403	244.333	200.415	239.392	186.952	359.769	295.443	186.511	192.581	311.913	242.191	190.345	194.413	195.924	200.593	376.147	197.884	-8191	255	
3196.466	1	1	0	0	0.10239	0.12548	0.22881	0.09612	0.22869	0.085619	0.23649	0.39422	0.23226	0.037002	0.3366	0.035589	0.13615	0.066663	0.078403	0.058421	-2.7479	-3.3604	-2.5042	-3.4792	-3.0375	-2.7333	-3.3646	-2.7687	-2.9146	-3.4437	-2.7188	-3.425	-3.2083	-2.6375	-3.5333	-2.8667	196.259	505.752	471.271	352.614	303.043	191.817	318.600	457.155	497.474	408.921	490.086	466.863	526.843	409.352	444.030	360.070	0.00026665	0.00033942	3.6074e-05	193.5	2.5023e-06	7.6245e-07	353.29	77.153	3.6314e-06	1.799e-06	162.1	64.835	31.009	13.243	2.7842e-06	29.665	7.441e-05	6.1479e-05	1.7462e-05	183.09	7.0357e-07	7.0213e-07	331.03	72.423	6.9448e-07	6.8014e-07	147.55	59.932	28.936	12.33	7.0125e-07	27.448	250.688	231.460	193.073	187.786	421.277	261.876	186.930	191.846	275.451	391.454	189.813	193.985	195.542	200.458	298.150	197.885	-8191	255	
3196.562	1	1	0	0	0.13876	0.16877	0.030204	0.1251	0.13271	0.045397	0.23999	0.23838	0.092711	0.057052	0.084155	0.14898	0.065706	0.14437	0.29278	0.15379	-2.5833	-3.2958	-2.5396	-3.1021	-3.2292	-2.6458	-3.3271	-2.9167	-2.8812	-3.4188	-2.5708	-3.1271	-3.3208	-2.625	-3.4583	-2.9375	379.597	312.389	297.050	208.400	183.026	404.993	430.924	389.029	430.688	508.356	467.034	235.763	430.763	512.119	359.154	504.935	0.00028242	0.00022649	1.5293e-05	197.3	3.2575e-06	6.7373e-07	356.3	77.299	1.9432e-06	2.3628e-06	162.08	64.879	30.818	13.118	9.8076e-07	29.919	7.5625e-05	6.1906e-05	1.7017e-05	184.93	6.9137e-07	6.9769e-07	333.87	73.008	6.9572e-07	6.7337e-07	147.39	60.03	28.891	12.334	6.7357e-07	27.563	251.105	254.327	254.902	187.216	317.286	318.910	186.782	192.202	302.630	279.158	190.200	193.789	195.230	200.375	256.837	197.602	-8191	255	
3196.682	1	1	0	0	0.13967	0.041095	0.095165	0.2389	0.11301	0.024261	0.058016	0.12586	0.28326	0.11488	0.16673	0.1603	0.25596	0.20515	0.097905	0.15752	-2.2396	-3.4167	-2.6646	-3.0833	-3.4688	-2.6417	-3.4458	-3.1479	-2.6021	-3.6229	-2.6521	-3.1479	-3.2896	-2.6917	-3.3812	-3.3438	289.110	449.963	175.264	239.735	177.335	194.760	245.644	303.556	377.628	273.450	518.883	246.870	466.121	499.234	233.795	468.574	0.00025374	0.00016091	8.3201e-05	194.57	3.1228e-06	3.8169e-06	353.72	78.026	2.7265e-06	1.9278e-06	161.96	64.554	30.867	13.115	1.3161e-06	29.772	7.4704e-05	6.2526e-05	1.7352e-05	184.17	7.0398e-07	6.8337e-07	332.73	72.694	6.9857e-07	6.9625e-07	147.17	59.829	28.815	12.254	6.7916e-07	27.36	253.393	244.902	283.925	187.261	269.673	346.571	186.296	191.724	285.616	529.018	189.969	194.036	195.452	200.474	290.348	197.554	-8191	255	
3196.779	1	1	0	0	0.14721	0.24478	0.092419	0.18093	0.057036	0.02812	0.03247	0.047851	0.18517	0.15803	0.21428	0.027994	0.28383	0.16361	0.16071	0.22309	-2.2833	-3.5062	-2.9292	-2.9521	-3.3625	-2.8042	-3.3063	-3.1813	-2.5938	-3.5646	-3.0458	-2.7354	-3.45	-2.6437	-3.1813	-3.3708	262.858	224.889	291.722	487.450	396.301	411.886	428.776	484.720	241.305	518.030	236.605	404.573	399.601	386.733	267.584	498.802	0.00025764	0.00020182	5.2641e-05	194.87	3.8537e-06	2.5852e-06	355.47	76.619	1.1491e-06	1.4882e-06	160.69	64.148	30.937	13.029	1.8504e-06	29.368	7.3693e-05	6.2627e-05	1.7359e-05	184.41	6.6622e-07	6.7047e-07	332.85	72.324	6.9525e-07	6.6958e-07	146.99	59.378	28.807	12.218	6.827e-07	27.271	252.914	268.698	242.129	187.276	274.923	330.121	186.960	192.384	377.207	192.183	189.779	194.043	195.708	200.747	376.230	197.638	-8191	255	
3196.875	1	1	0	0	0.18021	0.13171	0.066228	0.20115	0.059033	0.37338	0.18404	0.1702	0.07561	0.10661	0.33243	0.33375	0.14284	0.21034	0.058288	0.10125	-2.6083	-3.4583	-2.8521	-2.8417	-3.2271	-2.6083	-3.225	-3.2271	-2.7562	-3.375	-3.0167	-2.7125	-3.5354	-2.7229	-3.0354	-3.5083	362.855	391.500	321.099	532.540	280.959	344.083	198.687	234.415	341.649	288.774	179.590	494.281	453.616	354.441	206.948	354.014	0.00023969	6.8887e-05	7.1541e-05	193.49	3.3634e-06	2.9533e-06	358.42	76.783	3.4635e-06	2.1042e-06	162.36	63.985	31.186	13.079	9.7488e-07	30.001	7.284e-05	6.1919e-05	1.7276e-05	184.38	6.8117e-07	6.7791e-07	332.9	72.684	6.7338e-07	6.6239e-07	147.58	59.409	28.885	12.26	6.8364e-07	27.602	257.296	361.540	283.583	187.200	318.147	309.833	186.610	192.219	395.846	239.921	189.984	194.016	194.882	200.991	294.045	197.736	-8191	255	
3196.995	1	1	0	0	0.089049	0.13822	0.20826	0.26213	0.27908	0.11589	0.08843	0.044277	0.18522	0.20802	0.1084	0.20045	0.20208	0.15509	0.072446	0.20208	-2.3312	-3.4125	-3.2104	-2.5667	-3.4062	-2.8271	-3.0104	-3.3542	-2.8854	-3.3438	-3.1479	-2.5479	-3.4833	-2.7417	-2.9333	-3.4479	442.180	528.831	195.036	175.239	342.887	383.201	495.560	469.035	274.019	373.915	180.114	182.676	341.198	365.231	322.077	348.327	0.0002448	0.00020173	7.8136e-05	196.61	3.0057e-06	2.1e-06	356.02	77.696	5.1196e-06	4.4683e-07	162.92	64.649	31.228	13.257	1.462e-06	30.044	7.206e-05	6.091e-05	1.6962e-05	186	6.7833e-07	6.5768e-07	334.21	73.409	6.8191e-07	6.5735e-07	148.22	60.167	29.049	12.385	6.7049e-07	27.713	254.478	220.119	234.580	187.139	341.015	347.420	186.901	192.442	284.361	341.585	190.168	194.096	195.192	200.541	261.037	197.642	-8191	255	
3197.067	1	1	0	0	0.42554	0.06332	0.059961	0.28954	0.15102	0.1019	0.11006	0.2159	0.11753	0.29562	0.050926	0.20052	0.175	0.19331	0.050853	0.24875	-2.3021	-3.3	-3.0812	-2.7458	-3.3354	-2.8708	-2.9396	-3.6021	-2.6771	-3.3	-3.3146	-2.5854	-3.35	-2.8063	-2.7	-3.5229	326.457	511.375	349.767	475.793	197.431	367.993	277.974	357.848	508.094	519.477	175.834	420.479	522.363	331.461	386.648	307.281	0.00023945	0.00020188	9.8765e-05	196.68	1.7047e-06	3.2594e-06	357.6	76.668	3.7692e-06	1.6187e-06	163.69	64.709	31.234	13.136	2.5938e-06	29.949	7.2106e-05	6.221e-05	1.7266e-05	185.34	6.6677e-07	6.5535e-07	334.32	72.797	6.8125e-07	6.5447e-07	147.73	59.789	28.934	12.353	6.7982e-07	27.582	253.817	297.367	258.548	187.054	408.973	334.576	186.855	192.399	228.929	354.791	190.097	194.269	195.884	200.094	301.763	197.842	-8191	255	
3197.163	1	1	0	0	0.23295	0.088393	0.18664	0.25957	0.14384	0.077924	0.46845	0.15056	0.08738	0.17486	0.14863	0.34389	0.20008	0.16082	0.036682	0.034402	-2.4333	-3.0271	-3.3458	-2.5812	-3.45	-2.9333	-2.6021	-3.4896	-2.5125	-2.9292	-3.2938	-2.5479	-3.3	-3.1562	-2.8667	-3.2917	285.721	415.700	390.273	366.931	298.867	492.011	462.045	356.015	434.345	214.863	505.363	505.560	518.483	295.198	459.081	399.538	0.00029347	0.0004033	6.8286e-05	196.8	2.0127e-06	2.5245e-06	360.64	77.696	1.5277e-06	3.8668e-06	161.09	64.451	31.125	13.08	8.0771e-07	29.941	7.1618e-05	5.9795e-05	1.7088e-05	184.98	6.4852e-07	6.7974e-07	335.89	73.134	6.6885e-07	6.7986e-07	147.68	59.671	28.939	12.296	6.8387e-07	27.543	248.871	295.520	295.541	187.177	308.845	275.610	186.367	192.491	256.953	374.826	190.241	194.640	196.234	200.544	207.341	197.720	-8191	255	
3197.258	1	1	0	0	0.21618	0.12736	0.21577	0.022116	0.23108	0.16415	0.27953	0.15535	0.14985	0.13722	0.2366	0.12039	0.18777	0.11392	0.11372	0.20054	-2.4104	-2.9958	-3.4396	-2.625	-3.1854	-3.0979	-2.6271	-3.5458	-2.7979	-2.85	-3.5625	-2.4521	-3.2521	-3.1437	-2.5625	-3.5021	297.104	474.311	255.133	455.982	282.907	522.312	220.932	444.819	399.828	297.628	248.056	439.480	297.139	500.549	374.390	524.078	0.00029017	0.00012072	3.9757e-05	196.12	3.3413e-06	2.1018e-06	356.4	77.951	4.3955e-06	1.1047e-06	162.92	64.964	31.197	13.171	1.4485e-06	29.978	7.2485e-05	6.0445e-05	1.7136e-05	185.2	6.5237e-07	6.6398e-07	334.88	73.342	6.5208e-07	6.7376e-07	147.79	60.028	29.128	12.3	7.0006e-07	27.532	257.368	268.784	238.383	187.517	364.195	325.076	186.838	192.393	353.741	218.236	190.723	193.909	195.687	200.766	378.120	198.215	-8191	255	
3197.355	1	1	0	0	0.15409	0.076703	0.022206	0.13406	0.17808	0.024538	0.16902	0.13533	0.033855	0.086009	0.12655	0.16156	0.20574	0.22154	0.2214	0.046072	-2.5958	-2.8875	-3.5271	-2.6833	-3.3063	-3.2896	-2.6437	-3.1292	-2.8875	-2.6625	-3.3729	-2.75	-3.2313	-3.2083	-2.65	-3.3854	261.058	415.720	402.560	505.747	472.352	368.164	470.990	194.217	220.623	282.951	236.186	447.084	465.736	483.409	247.711	376.535	0.00023216	0.00011177	2.3668e-05	197.49	2.922e-06	2.0546e-06	354.7	78.353	6.193e-07	1.5597e-06	163.59	64.214	30.95	13.277	2.0132e-06	29.606	7.2927e-05	6.2412e-05	1.7405e-05	185.27	6.7758e-07	6.6578e-07	333.89	73.116	6.9591e-07	6.808e-07	148.35	59.684	28.925	12.371	6.981e-07	27.413	258.090	369.909	468.653	187.713	333.176	292.634	186.612	193.125	264.010	323.788	190.160	193.899	195.886	200.676	407.749	198.195	-8191	255	
3197.474	1	1	0	0	0.2657	0.29524	0.36993	0.18857	0.096946	0.18766	0.30432	0.091005	0.13704	0.18791	0.17503	0.19386	0.018725	0.23938	0.069468	0.16542	-2.5375	-2.7125	-3.2854	-2.6937	-3.1104	-3.4188	-2.5354	-3.1813	-2.9208	-2.6979	-3.5729	-2.7938	-3.1375	-3.6917	-2.5312	-3.3542	495.029	381.018	185.512	239.942	454.716	329.425	468.577	190.151	313.025	497.590	406.910	419.192	283.294	510.707	203.964	456.555	0.00030221	0.0003014	5.655e-05	195.4	4.6803e-07	7.208e-07	353.49	77.635	1.5328e-06	2.6711e-06	161.51	63.877	30.617	12.761	1.6695e-06	29.732	7.0252e-05	6.4071e-05	1.6717e-05	184.27	6.5098e-07	6.5018e-07	333.38	72.502	6.473e-07	6.8466e-07	146.26	59.28	28.707	12.075	6.6424e-07	27.294	251.407	295.303	260.415	186.809	385.735	291.329	186.827	192.469	260.911	342.634	189.807	194.092	195.682	200.220	320.865	198.062	-8191	255	
3197.570	1	1	0	0	0.12657	0.046762	0.10739	0.34978	0.22996	0.18175	0.17092	0.29779	0.20467	0.036453	0.27626	0.23019	0.2519	0.11376	0.249	0.143	-2.6354	-2.5792	-3.4958	-2.875	-2.9146	-3.55	-2.7083	-3.0542	-3.1729	-2.6792	-3.625	-2.8417	-2.9542	-3.3583	-2.6021	-3.25	511.588	178.869	453.139	208.856	269.706	425.977	418.705	534.301	491.014	395.703	208.193	390.073	433.914	309.531	280.268	524.515	0.00026753	0.00021097	4.1028e-05	195.59	6.4422e-07	6.0359e-07	353.64	78.121	1.8619e-06	2.2015e-07	162.77	63.718	30.931	13.038	2.2877e-06	29.494	7.1377e-05	6.1509e-05	1.7291e-05	184.38	6.5447e-07	6.6803e-07	331.16	72.654	6.7476e-07	6.5699e-07	146.65	59.233	28.763	12.201	6.8406e-07	27.196	252.965	253.450	458.311	187.469	300.339	333.746	186.636	192.316	280.982	268.854	189.922	194.043	195.830	200.546	355.021	198.173	-8191	255	
3197.667	1	1	0	0	0.10072	0.089507	0.17132	0.085005	0.072144	0.25873	0.070203	0.11911	0.094378	0.11309	0.11667	0.074072	0.067836	0.058493	0.098096	0.1414	-2.7646	-2.6708	-3.2646	-2.9271	-2.6229	-3.3708	-2.8417	-3.0938	-3.3375	-2.6854	-3.4792	-2.8979	-2.8438	-3.45	-2.6813	-3.2062	505.322	471.446	533.013	403.428	332.142	394.398	228.425	196.065	294.626	465.084	509.024	243.963	282.164	191.581	250.817	345.719	0.00030572	6.7608e-05	2.9767e-05	195.96	4.2159e-06	1.0138e-06	354.65	77.66	2.8848e-06	2.3161e-06	159.97	64.486	30.792	13.025	2.3535e-06	29.63	7.1263e-05	6.2268e-05	1.7128e-05	183.37	7.0108e-07	6.7907e-07	331.95	72.543	6.7782e-07	6.9403e-07	146.33	59.691	28.705	12.245	6.7191e-07	27.346	253.570	247.967	227.183	187.619	310.576	263.300	186.953	193.026	279.772	396.481	190.095	194.500	195.637	200.985	368.918	197.897	-8191	255	
3197.763	1	1	0	0	0.051625	0.18465	0.24732	0.13862	0.18454	0.11229	0.33388	0.11532	0.060424	0.30373	0.11974	0.39415	0.14401	0.16031	0.17096	0.084693	-2.9708	-2.6521	-3.3396	-3.05	-2.85	-3.5479	-2.7792	-3.0479	-3.3333	-2.6917	-3.3229	-3.0875	-2.7812	-3.4542	-2.7938	-3.0021	241.895	460.350	305.439	504.814	198.702	413.283	383.129	394.178	250.859	191.933	404.443	266.974	496.164	448.206	186.220	317.923	0.00026392	2.6615e-05	0.00010306	195.32	2.7653e-06	7.0308e-07	356.9	77.037	3.3802e-06	3.8498e-06	161.5	64.008	31.063	13.071	2.2152e-06	29.862	7.2106e-05	6.1896e-05	1.7233e-05	184.14	6.9892e-07	6.7449e-07	333.1	72.721	6.8158e-07	6.696e-07	147.14	59.429	28.822	12.24	7.1316e-07	27.462	260.974	320.429	218.248	187.015	357.689	351.500	186.675	191.981	314.312	323.885	190.176	194.105	195.375	200.436	299.023	197.963	-8191	255	
3197.859	1	1	0	0	0.10483	0.17119	0.090711	0.19221	0.12574	0.1278	0.080664	0.21369	0.15441	0.32837	0.12603	0.21251	0.33378	0.067216	0.32036	0.10226	-2.9437	-2.6854	-3.2812	-3.2979	-2.6688	-3.4979	-2.9813	-3.0521	-3.3417	-2.5667	-3.0979	-3.2771	-2.5708	-3.5542	-2.9167	-2.7417	264.222	322.354	431.571	529.962	327.533	507.181	213.072	507.989	240.947	187.397	177.141	431.472	287.808	409.163	365.132	376.900	0.00026603	0.00012704	9.9084e-05	196.14	7.9668e-07	1.5214e-06	353.51	77.581	2.3915e-07	1.9155e-06	161.5	64.055	31.163	13.079	1.802e-06	29.735	7.3669e-05	6.3396e-05	1.7239e-05	185.15	6.7396e-07	6.9267e-07	332.37	72.392	6.7738e-07	6.4709e-07	146.84	59.289	28.852	12.254	6.9729e-07	27.315	247.456	247.339	263.319	187.008	221.013	314.919	186.689	192.413	413.262	378.447	190.524	194.209	195.533	200.577	382.886	197.894	-8191	255	
3197.955	1	1	0	0	0.073285	0.287	0.24646	0.21536	0.16385	0.087115	0.034605	0.13329	0.18662	0.2016	0.22559	0.17956	0.09326	0.24581	0.25953	0.098144	-3.1604	-2.6625	-3.2021	-3.2479	-2.5021	-3.3729	-3.0667	-2.7125	-3.5771	-2.875	-2.9083	-3.3771	-2.5312	-3.3854	-2.775	-2.5875	413.997	345.507	516.311	511.014	317.064	453.342	519.763	194.220	219.163	397.908	513.067	442.230	489.721	354.092	526.044	262.990	0.00025792	0.00017329	6.1136e-05	195.08	2.063e-06	2.5569e-06	356.51	76.665	2.0777e-06	1.5982e-06	161.15	63.537	30.505	13.092	2.0888e-06	29.472	7.1963e-05	6.4614e-05	1.7657e-05	183.58	6.838e-07	6.6278e-07	332.98	72.047	6.6332e-07	7.1521e-07	146.31	58.951	28.532	12.187	6.7531e-07	27.19	248.128	255.741	271.940	186.933	305.611	411.920	186.500	192.831	306.832	316.199	189.836	193.934	195.555	200.840	329.290	197.672	-8191	255	
3198.076	1	1	0	0	0.090381	0.20845	0.28415	0.098003	0.11698	0.17716	0.17315	0.36592	0.040409	0.056334	0.33365	0.13547	0.27923	0.19316	0.10042	0.050001	-3.1646	-2.6354	-2.9854	-3.2062	-2.6271	-3.3	-3.2917	-2.6875	-3.3958	-2.9125	-3.1229	-3.4646	-2.6833	-3.3042	-3.3063	-2.7979	360.695	470.060	385.987	355.304	183.894	224.517	426.405	454.570	235.419	447.899	235.178	462.940	246.696	421.166	182.998	427.851	0.00023965	8.5225e-05	9.8836e-05	195.02	1.2602e-06	1.9439e-06	357.78	77.048	5.6945e-06	2.0839e-06	161.18	63.922	30.782	13.057	1.8325e-06	29.57	7.397e-05	6.2311e-05	1.8146e-05	183.82	6.9184e-07	6.8135e-07	331.82	72.47	6.7255e-07	6.8186e-07	146.63	59.373	28.627	12.241	7.0798e-07	27.336	243.789	289.529	340.311	187.029	271.269	273.209	186.480	193.019	275.645	341.126	190.008	194.232	196.060	200.728	218.206	197.954	-8191	255	
3198.170	1	1	0	0	0.12038	0.12119	0.10637	0.076818	0.16306	0.12823	0.13345	0.12395	0.10433	0.11289	0.17066	0.14742	0.22502	0.35237	0.23622	0.15263	-2.8958	-2.8167	-2.8271	-3.4729	-2.8021	-3.1271	-3.4146	-2.6958	-3.3396	-2.9792	-2.6729	-3.5958	-2.6896	-3.0979	-3.375	-2.8937	218.137	363.626	449.733	307.590	329.264	423.828	382.508	414.827	307.058	450.209	176.607	206.632	201.655	404.338	203.773	191.951	0.00027297	0.00025564	8.2419e-05	195.04	1.1018e-06	2.5774e-06	355.63	77.146	5.0789e-07	8.0528e-07	162.05	64.025	30.999	13.083	4.4624e-07	29.596	7.4983e-05	6.4629e-05	1.7921e-05	184.06	7.0865e-07	6.9569e-07	332.38	72.658	6.9636e-07	7.0717e-07	147.57	59.632	28.954	12.284	7.0086e-07	27.399	241.712	375.553	272.126	186.971	317.958	337.149	186.434	192.388	319.002	212.318	190.516	193.970	195.449	200.622	420.209	197.520	-8191	255	
3198.266	1	1	0	0	0.14659	0.26222	0.16248	0.14717	0.057783	0.21439	0.19513	0.18891	0.059767	0.10882	0.093106	0.048858	0.0092572	0.19225	0.052457	0.22552	-2.8854	-2.9604	-2.7292	-3.4458	-2.7646	-3.1021	-3.3604	-2.7812	-3.25	-2.9688	-2.7729	-3.3333	-2.9125	-2.8563	-3.3771	-2.6542	457.317	476.522	175.180	332.986	382.379	262.659	499.281	295.974	217.775	232.118	376.409	200.531	239.411	446.425	290.269	182.962	0.00023512	0.00042585	0.00010406	193.3	1.1982e-06	1.9418e-06	354.66	78.844	2.8256e-06	4.1342e-07	161.97	64.322	30.604	13.049	8.3496e-07	29.811	7.5326e-05	6.3279e-05	1.7456e-05	183.74	6.9513e-07	7.0563e-07	332.09	73.131	7.1973e-07	6.9633e-07	147.2	59.663	28.741	12.252	6.9848e-07	27.498	247.375	261.011	283.598	186.809	374.323	352.367	186.487	192.666	303.183	238.094	189.744	194.137	195.887	200.584	317.893	197.619	-8191	255	
3198.362	1	1	0	0	0.16968	0.14373	0.21489	0.14725	0.10421	0.097497	0.27308	0.14949	0.30282	0.32178	0.039512	0.18406	0.22886	0.068694	0.18232	0.11894	-3.0438	-3.1625	-2.5792	-3.4313	-2.6917	-2.9	-3.4188	-2.6208	-3.2167	-3.325	-2.6896	-3.3563	-2.8146	-2.6063	-3.525	-2.7708	367.523	325.531	222.003	420.219	219.268	495.873	390.247	174.361	336.592	383.160	290.592	514.061	517.780	219.765	376.740	456.542	0.00028363	6.6448e-05	0.00010877	197.32	3.4426e-06	1.1287e-06	354.8	78.113	1.0827e-06	5.1249e-07	161.53	64.245	30.964	13.189	1.5682e-06	29.514	7.4777e-05	6.2124e-05	1.7909e-05	185.55	6.7614e-07	6.9661e-07	333.59	73.056	6.8862e-07	6.8197e-07	147.44	59.675	28.856	12.293	7.0831e-07	27.306	250.052	317.036	305.931	187.100	385.675	374.145	186.525	192.080	256.430	242.287	190.113	194.365	195.345	200.714	281.289	197.866	-8191	255	
3198.459	1	1	0	0	0.10439	0.071467	0.25552	0.10559	0.11145	0.061807	0.094218	0.068333	0.042901	0.30893	0.17767	0.044047	0.090044	0.19259	0.20396	0.13437	-2.7417	-3.1792	-2.65	-3.5062	-3.0396	-2.8125	-3.6521	-2.7021	-3.0917	-3.3583	-2.8	-3.2354	-3.0438	-2.6	-3.5417	-2.6979	444.139	434.414	310.590	491.313	331.089	178.596	491.086	236.484	415.716	414.663	262.405	354.321	441.562	179.004	269.067	284.093	0.00027641	0.00015161	7.2294e-05	195.53	5.4807e-06	1.6819e-07	355.24	77.075	2.1222e-06	1.3831e-06	160.12	64.452	30.644	12.967	2.024e-06	29.24	7.395e-05	6.2556e-05	1.7245e-05	184.26	7.0981e-07	6.7516e-07	331.54	72.552	7.2525e-07	7.034e-07	146.64	59.265	28.705	12.17	6.9469e-07	27.074	247.881	193.075	298.801	186.736	273.306	454.852	186.857	191.996	328.993	325.693	190.082	194.100	195.402	200.680	306.204	198.320	-8191	255	
3198.555	1	1	0	0	0.14953	0.15157	0.21583	0.12891	0.15054	0.17054	0.20536	0.34096	0.094359	0.10302	0.22385	0.2901	0.071355	0.14734	0.12611	0.22419	-2.675	-3.3167	-2.6604	-3.3229	-2.9417	-2.6146	-3.5625	-2.7562	-3.0604	-3.35	-2.8083	-3.3896	-3.1229	-2.8708	-3.6229	-2.9083	191.548	286.258	415.867	271.348	493.058	397.295	523.983	510.175	338.526	497.041	358.856	204.147	286.372	458.335	481.482	197.094	0.00019304	0.00028885	8.2721e-05	195.76	2.0149e-06	2.5042e-06	352.98	76.348	4.6099e-07	3.6389e-06	158.7	63.381	30.307	12.828	1.284e-06	29.114	7.2014e-05	6.337e-05	1.7676e-05	183.42	6.9754e-07	7.0069e-07	330.18	72.34	6.8873e-07	7.0002e-07	145.69	58.994	28.342	12	7.0939e-07	26.833	264.723	339.723	235.894	187.555	315.279	223.113	186.265	191.884	361.322	296.830	189.933	194.179	195.591	200.392	311.400	198.096	-8191	255	
3198.675	1	1	0	0	0.088446	0.10997	0.088651	0.26161	0.05111	0.20345	0.070498	0.17163	0.12471	0.19257	0.21673	0.24732	0.12903	0.18067	0.123	0.12031	-2.3521	-3.3604	-2.5438	-3.2396	-3.3375	-2.7458	-3.4188	-3.125	-2.7333	-3.4354	-2.7229	-3.2021	-3.3021	-2.6708	-3.4938	-3.0479	406.233	487.295	298.804	443.827	241.640	195.254	362.316	477.895	335.298	347.553	258.452	242.513	476.897	223.806	432.864	358.502	0.00026941	0.00010881	3.9515e-05	195.73	2.3675e-06	1.4815e-06	348.09	76.071	6.2001e-08	1.2829e-06	158.3	62.803	30.092	12.533	5.2693e-07	28.502	7.5248e-05	6.3039e-05	1.8051e-05	183.33	6.8463e-07	6.8515e-07	327.5	71.127	7.0285e-07	6.8405e-07	144.28	58.148	28.006	11.821	6.783e-07	26.476	248.424	314.582	255.041	186.779	457.849	372.655	186.294	192.342	196.559	518.391	190.604	194.446	195.357	200.820	411.493	197.975	-8191	255	
3198.771	1	1	0	0	0.25941	0.12044	0.057594	0.23387	0.15597	0.23896	0.2321	0.059136	0.089064	0.15361	0.1879	0.17522	0.36065	0.20742	0.14788	0.25363	-2.3	-3.3521	-2.6937	-3.1104	-3.2979	-2.5354	-3.2938	-3.0438	-2.8521	-3.4833	-2.8604	-3.0646	-3.1771	-2.5625	-3.4688	-3.0979	272.046	409.619	273.854	211.458	256.082	413.262	442.787	398.127	424.176	209.484	513.714	314.113	323.564	264.447	212.842	411.143	0.00021616	0.0003081	4.4602e-05	188.9	1.7189e-06	2.5606e-06	347.9	75.659	2.2174e-06	1.7733e-06	157.11	62.272	29.887	12.612	1.5608e-06	28.313	7.5199e-05	6.4028e-05	1.7452e-05	180.4	6.8175e-07	6.7702e-07	326.85	71.115	6.8625e-07	6.7473e-07	143.17	57.94	27.913	11.743	7.0532e-07	26.231	259.682	278.933	227.955	187.443	269.339	310.077	186.914	192.626	294.041	358.912	190.832	194.243	195.648	200.625	263.326	197.535	-8191	255	
3198.868	1	1	0	0	0.15529	0.11772	0.24739	0.069609	0.23772	0.09589	0.152	0.16054	0.088843	0.13208	0.13466	0.13583	0.13992	0.16941	0.024936	0.096665	-2.2979	-3.4125	-2.8333	-2.8646	-3.4688	-2.6417	-3.2208	-3.2062	-2.4271	-3.3771	-3.1188	-3.0062	-3.3271	-2.8	-3.4458	-3.225	432.330	186.764	494.818	343.588	202.373	515.673	263.539	331.132	295.193	198.729	207.522	435.458	444.901	397.174	275.065	189.793	0.00025704	0.00038974	6.2849e-05	190.54	1.1549e-06	2.639e-06	349.87	74.763	2.1962e-07	2.0384e-06	156.01	62.308	29.557	12.494	2.3848e-06	28.689	7.3977e-05	6.4523e-05	1.7374e-05	180.18	6.877e-07	6.6509e-07	325.28	70.789	7.0417e-07	6.9026e-07	142.74	57.871	27.865	11.728	6.8777e-07	26.379	259.864	253.907	187.167	187.331	227.748	315.739	186.535	192.804	323.856	361.592	190.048	194.127	195.791	200.448	313.850	198.242	-8191	255	
3198.964	1	1	0	0	0.13602	0.0079587	0.28675	0.22046	0.016016	0.2633	0.28462	0.090543	0.21372	0.13257	0.28205	0.11546	0.15581	0.10323	0.25434	0.14263	-2.3063	-3.3292	-2.9667	-2.85	-3.55	-2.7479	-3.2521	-3.1625	-2.5938	-3.5875	-2.9896	-2.8396	-3.4979	-2.9375	-3.1604	-3.5417	345.558	526.061	245.226	276.709	246.862	393.524	461.122	435.750	458.061	481.743	493.142	369.409	481.350	517.136	457.131	357.156	0.00024595	0.00016083	4.5809e-05	192.49	2.5568e-06	1.5054e-06	351.55	75.322	1.5909e-06	7.647e-07	158.53	63.024	29.925	12.534	1.5248e-06	28.86	7.146e-05	6.3995e-05	1.7222e-05	181.36	6.9353e-07	6.8668e-07	326.71	71.2	6.6871e-07	6.7393e-07	144.18	58.12	27.985	11.788	7.1559e-07	26.586	256.489	308.237	178.246	187.011	241.332	473.309	187.210	192.627	325.831	510.894	190.591	194.146	194.986	201.474	328.400	197.900	-8191	255	
3199.035	1	1	0	0	0.14884	0.13368	0.1371	0.084844	0.16868	0.056298	0.081307	0.12749	0.061684	0.085354	0.11928	0.2257	0.16499	0.15869	0.017434	0.036688	-2.2417	-3.3396	-2.9917	-2.8167	-3.5646	-2.6771	-2.9042	-3.2667	-2.7146	-3.3458	-3.1771	-2.7792	-3.4146	-2.7375	-2.85	-3.3396	303.450	374.298	510.402	234.611	192.500	240.685	480.171	444.143	428.948	200.989	187.129	464.781	485.193	410.195	468.603	233.630	0.00025854	0.00014178	1.4182e-05	190.97	4.4234e-06	2.2997e-06	346.38	74.916	1.8967e-06	2.3696e-06	157.48	62.169	29.537	12.52	2.4156e-06	28.6	7.1469e-05	6.1621e-05	1.7135e-05	180.55	6.8137e-07	6.8632e-07	326.67	70.573	7.1009e-07	6.7687e-07	143.16	57.984	27.855	11.746	6.9275e-07	26.452	245.075	220.544	246.202	187.608	302.127	221.922	186.547	192.693	357.825	340.406	190.356	194.167	195.969	200.762	362.442	197.833	-8191	255	
3199.154	1	1	0	0	0.41806	0.070613	0.11775	0.11436	0.20724	0.18277	0.11853	0.15333	0.19919	0.079067	0.029163	0.066658	0.0394	0.020873	0.050791	0.097048	-2.3312	-3.25	-3.1312	-2.5979	-3.5229	-2.65	-3.0375	-3.3208	-2.7938	-3.1312	-3.1792	-2.6979	-3.2667	-2.9313	-2.6854	-3.5375	492.837	526.189	472.060	427.777	448.806	501.243	245.018	291.490	440.840	467.896	476.132	367.683	462.442	508.960	515.467	452.848	0.00027784	0.00016197	8.5696e-05	189.78	5.8185e-07	1.8554e-06	348.2	74.759	2.7431e-06	1.9894e-06	156.62	61.833	29.839	12.626	1.9153e-06	28.877	7.2818e-05	6.3026e-05	1.7574e-05	179.53	6.9397e-07	6.9422e-07	326.28	70.501	6.9346e-07	6.7817e-07	142.99	57.76	27.843	11.826	6.9508e-07	26.487	245.032	296.850	307.829	187.616	348.934	390.781	186.875	192.241	298.253	364.234	189.903	194.359	195.710	200.449	283.604	197.894	-8191	255	
3199.250	1	1	0	0	0.023429	0.082618	0.14109	0.21681	0.029437	0.287	0.068232	0.16736	0.19011	0.054106	0.079802	0.10673	0.11391	0.095574	0.073827	0.1117	-2.2917	-3.1083	-3.2833	-2.475	-3.3354	-3.0146	-2.7042	-3.5833	-2.5312	-3.0187	-3.3208	-2.5729	-3.3646	-3	-2.6958	-3.5667	273.149	495.537	416.013	502.036	416.757	238.949	310.422	230.347	331.837	500.348	426.446	177.871	221.335	264.342	419.539	531.914	0.00023496	8.9255e-05	5.9747e-05	191.37	2.4045e-06	2.4532e-06	347.59	74.982	1.6834e-06	3.3466e-06	157.61	62.299	29.926	12.633	1.9452e-06	28.866	7.361e-05	6.2627e-05	1.7667e-05	181.43	7.0575e-07	6.6295e-07	325.34	70.745	7.1014e-07	6.9314e-07	143.3	58.038	27.934	11.873	7.0892e-07	26.631	252.981	297.903	273.347	187.227	298.847	289.813	186.673	192.522	420.776	330.205	190.443	194.465	195.738	200.197	316.086	197.677	-8191	255	
3199.347	1	1	0	0	0.17072	0.075761	0.071753	0.010559	0.12063	0.027947	0.21048	0.22885	0.13897	0.12899	0.10345	0.19754	0.11903	0.28406	0.21043	0.17157	-2.2646	-2.9521	-3.3875	-2.6208	-3.3646	-2.8375	-2.8833	-3.4833	-2.7812	-2.8771	-3.325	-2.4417	-3.1167	-2.9917	-2.6813	-3.3917	268.126	262.689	507.331	245.975	505.809	232.691	180.575	498.935	521.464	333.564	477.614	259.933	346.743	447.390	480.865	360.489	0.00028457	0.00013949	1.6141e-05	194.32	2.1918e-06	1.0812e-06	350.08	75.543	2.6507e-06	8.7523e-07	159.82	62.927	30.003	12.893	1.2503e-06	29.345	7.51e-05	6.1643e-05	1.7475e-05	181.95	7.0669e-07	6.9012e-07	327.21	71.03	7.0553e-07	7.08e-07	144.53	58.274	28.227	11.985	6.78e-07	26.93	248.313	229.666	450.618	187.606	370.794	256.947	186.694	192.664	367.453	286.480	190.793	194.326	195.660	200.731	350.964	197.791	-8191	255	
3199.445	1	1	0	0	0.12567	0.24241	0.16228	0.093883	0.18739	0.15903	0.14637	0.24078	0.20589	0.16975	0.19662	0.32239	0.20843	0.19585	0.13938	0.01939	-2.5271	-2.8729	-3.4583	-2.5104	-3.3042	-3.1833	-2.6479	-3.3	-2.9813	-2.7313	-3.2208	-2.7292	-3.0875	-3.1958	-2.6562	-3.3729	404.503	367.240	476.338	348.300	307.123	444.492	239.952	474.937	385.109	225.184	514.205	526.191	189.340	449.389	460.243	296.079	0.00025761	0.00025425	5.1433e-05	192.27	1.6351e-06	1.4953e-06	350.26	76	2.4465e-06	3.1047e-06	155.31	62.554	29.807	12.718	9.5157e-07	28.673	7.2636e-05	6.4076e-05	1.7372e-05	182.02	7.1554e-07	6.7732e-07	327.31	70.977	6.8442e-07	6.9525e-07	142.96	58.061	28.025	11.887	7.0336e-07	26.562	250.769	240.446	257.621	187.411	289.115	524.494	186.518	192.796	350.517	298.274	190.349	194.514	196.050	201.029	251.236	198.391	-8191	255	
3199.563	1	1	0	0	0.10181	0.084808	0.084539	0.049102	0.14814	0.27193	0.03444	0.22344	0.28903	0.22895	0.18429	0.15942	0.04129	0.3875	0.31606	0.13769	-2.5625	-2.5563	-3.4167	-2.8083	-3.0187	-3.2562	-2.7729	-3.3292	-2.9375	-2.7021	-3.3979	-2.7458	-3.1521	-3.2729	-2.6063	-3.3104	375.054	493.542	312.525	220.199	246.537	295.890	401.291	451.727	292.204	219.809	300.023	473.561	230.642	508.278	509.563	323.743	0.00026687	0.0001822	3.1079e-05	195.11	2.0312e-06	4.265e-06	347.83	75.602	4.004e-06	2.9005e-07	158.6	62.299	29.807	12.92	1.9544e-06	28.655	7.3562e-05	6.3196e-05	1.7849e-05	182.07	6.9082e-07	6.8862e-07	326.84	70.736	7.0826e-07	6.9949e-07	144.07	57.949	27.975	11.943	6.9643e-07	26.549	249.643	344.415	207.460	187.286	328.447	250.871	187.034	193.124	354.186	409.163	190.425	194.463	195.954	200.973	325.505	198.195	-8191	255	
3199.635	1	1	0	0	0.21427	0.11794	0.071816	0.18208	0.15166	0.021255	0.32237	0.18938	0.044376	0.070681	0.43559	0.40658	0.1363	0.21494	0.17271	0.067633	-2.6271	-2.525	-3.4771	-2.7125	-2.8708	-3.3667	-2.6271	-3.1958	-3.0667	-2.7104	-3.6167	-2.9646	-2.825	-3.4333	-2.4562	-3.3333	533.464	384.114	429.061	522.715	271.803	454.952	461.653	255.549	380.798	270.075	252.171	433.279	336.651	498.254	430.890	202.476	0.00023246	0.00022317	7.4555e-05	190.88	2.0178e-06	6.7026e-07	351.06	75.587	1.1115e-06	8.6654e-07	157.52	62.806	30.113	12.537	2.203e-06	28.838	7.572e-05	6.3686e-05	1.7167e-05	181.16	6.9494e-07	6.743e-07	326.58	71.016	6.9614e-07	7.1202e-07	143.87	58.175	28.074	11.822	6.8467e-07	26.639	252.811	269.693	289.182	187.580	343.857	300.904	186.571	192.180	249.735	401.496	190.674	194.372	195.517	201.027	304.070	198.437	-8191	255	
3199.756	1	1	0	0	0.054361	0.029202	0.11576	0.085805	0.10573	0.10343	0.1536	0.17908	0.26331	0.11058	0.15024	0.087441	0.23706	0.15095	0.13866	0.073411	-2.8	-2.6312	-3.2958	-2.8812	-2.6979	-3.45	-2.8771	-3.0938	-3.1562	-2.6292	-3.3667	-2.8625	-2.8042	-3.5583	-2.5062	-3.2354	422.323	344.514	228.679	177.377	215.384	438.090	363.598	285.025	396.857	305.644	440.374	310.835	515.713	368.734	486.125	391.480	0.00026517	7.1612e-05	0.00012124	192.32	3.1024e-06	1.7983e-06	351.89	76.68	1.9604e-06	1.8891e-06	158.92	62.955	29.981	12.844	3.5333e-06	29.066	7.328e-05	6.3595e-05	1.7499e-05	181.01	7.0025e-07	6.9811e-07	327.27	71.431	6.9854e-07	6.9941e-07	144.8	58.399	28.092	11.948	6.9632e-07	26.812	253.652	305.300	286.892	186.928	331.019	308.605	186.405	193.175	308.995	349.080	190.457	194.486	196.429	200.683	346.879	198.305	-8191	255	
3199.852	1	1	0	0	0.14152	0.093503	0.056225	0.39488	0.11349	0.09512	0.17898	0.23908	0.28668	0.12354	0.17377	0.27214	0.15198	0.12042	0.054329	0.18195	-2.8333	-2.5687	-3.4208	-3.1271	-2.7542	-3.5375	-2.5687	-2.8792	-3.4146	-2.75	-3.4375	-3.275	-2.7958	-3.4958	-2.6312	-3.0646	205.012	504.797	203.223	510.079	327.274	270.814	410.278	210.510	387.924	514.800	248.112	485.512	201.380	237.812	307.728	325.509	0.00028662	0.00020382	3.698e-05	193.14	2.1269e-06	2.4223e-06	350.99	77.046	1.7128e-06	2.825e-06	160.17	62.989	30.67	12.864	1.6246e-06	29.215	7.4415e-05	6.4291e-05	1.7543e-05	181.59	6.8538e-07	6.9533e-07	328.8	71.822	6.7125e-07	6.869e-07	145.28	58.579	28.365	12.037	6.9383e-07	26.912	246.785	260.551	480.460	187.773	332.602	347.420	186.541	193.062	391.759	346.845	190.415	193.759	195.852	200.964	218.290	198.230	-8191	255	
3199.948	1	1	0	0	0.16299	0.060408	0.36171	0.033551	0.22643	0.039578	0.19399	0.12853	0.14242	0.1431	0.19332	0.081516	0.11327	0.077102	0.19643	0.21258	-3.0375	-2.6833	-3.4146	-3.2125	-2.6854	-3.4354	-2.8812	-3.1042	-3.5438	-2.7375	-3.2812	-3.3104	-2.5771	-3.5542	-2.9167	-2.7687	306.454	250.520	201.268	305.985	527.204	530.771	343.575	342.573	464.714	407.227	483.889	475.825	371.510	194.727	294.518	473.429	0.00023252	0.00024396	1.2752e-05	191.02	2.4918e-06	3.3894e-06	350.78	76.244	1.8924e-06	3.1521e-06	158.51	62.626	30.237	12.758	7.0967e-07	29.135	7.1635e-05	6.5671e-05	1.7662e-05	180.95	6.9245e-07	6.9153e-07	327.41	71.523	7.0879e-07	6.8801e-07	144.18	58.21	28.256	11.943	6.6936e-07	26.725	254.961	304.521	458.755	187.282	362.124	260.980	187.214	193.054	325.089	331.329	190.335	194.884	195.735	200.227	266.295	198.142	-8191	255	
3200.044	1	1	0	0	0.11654	0.078933	0.056026	0.22126	0.18108	0.081056	0.27103	0.097773	0.0424	0.17341	0.12496	0.08247	0.13366	0.38593	0.10745	0.24792	-3.0563	-2.8583	-3.075	-3.2354	-2.7646	-3.3438	-2.9479	-2.7333	-3.4042	-2.7875	-3.0521	-3.3688	-2.7875	-3.5146	-3.1937	-2.7687	240.743	486.816	254.881	460.068	176.344	252.451	502.477	182.535	524.120	303.317	303.434	255.533	212.380	272.266	233.727	459.295	0.00026253	8.5196e-05	2.6397e-05	190.78	2.2795e-06	1.2344e-06	350.25	75.147	2.6597e-06	1.9698e-06	157.84	62.473	29.99	12.634	1.1498e-06	28.945	7.0655e-05	6.1977e-05	1.6947e-05	181.25	6.8432e-07	6.6675e-07	326.54	70.951	6.6012e-07	6.7626e-07	143.79	58.072	27.968	11.851	6.6529e-07	26.694	252.903	251.862	240.107	187.414	398.093	281.540	186.668	192.944	335.053	401.774	190.166	194.127	196.370	201.006	332.970	198.390	-8191	255	
3200.165	1	1	0	0	0.1011	0.16634	0.064514	0.17052	0.20214	0.05933	0.18928	0.14132	0.19942	0.18518	0.11047	0.030253	0.21588	0.080325	0.041063	0.30229	-3.1167	-2.5958	-2.9583	-3.4521	-2.5875	-3.3167	-3.1312	-2.7146	-3.4104	-2.8771	-3.1104	-3.3542	-2.7354	-3.3104	-3.2208	-2.8479	306.479	187.050	487.008	388.655	217.024	421.023	510.896	451.849	224.878	274.511	479.813	308.457	405.770	418.443	370.435	482.164	0.00025889	0.0001211	7.6128e-05	190.88	3.104e-06	4.6909e-07	349.33	75.818	3.1323e-06	1.9747e-06	158.8	62.598	29.712	12.738	6.4422e-07	29.062	7.1171e-05	5.9651e-05	1.6691e-05	180.41	6.7365e-07	6.7244e-07	327.51	71.249	6.739e-07	6.6819e-07	144.31	58.034	28.017	11.919	6.6966e-07	26.755	250.812	305.604	249.555	187.403	297.039	274.250	186.711	192.682	255.318	438.932	190.625	193.757	195.874	201.375	433.528	198.605	-8191	255	
3200.236	1	1	0	0	0.11656	0.14785	0.29699	0.1984	0.087172	0.032696	0.20411	0.12165	0.28003	0.18752	0.31595	0.1637	0.086634	0.1426	0.25105	0.058881	-2.9375	-2.8438	-2.8333	-3.4083	-2.6292	-3.2687	-3.2667	-2.5875	-3.3646	-3.0667	-2.7979	-3.5417	-2.85	-3.0375	-3.5021	-2.7292	217.526	455.335	188.398	468.958	268.126	324.513	526.312	328.039	245.943	406.691	274.074	513.085	492.687	282.572	365.363	414.430	0.00024224	0.00028197	5.0838e-05	191.35	3.3225e-06	7.5019e-07	347.81	75.257	1.794e-06	1.6546e-06	157.73	62.424	29.976	12.71	2.185e-06	28.865	7.1537e-05	6.3476e-05	1.6487e-05	181.02	6.8609e-07	6.5995e-07	326.43	71.078	6.5061e-07	6.5857e-07	143.71	58.041	27.989	11.931	6.6772e-07	26.632	254.193	315.187	289.390	187.603	345.239	434.795	186.752	192.583	351.839	256.645	190.172	194.692	196.014	200.727	387.922	198.361	-8191	255	
3200.331	1	1	0	0	0.05614	0.04436	0.083746	0.29053	0.16453	0.041991	0.0057899	0.042553	0.076478	0.15889	0.20103	0.11411	0.11422	0.22548	0.058459	0.18089	-2.9813	-2.9104	-2.8958	-3.5833	-2.7354	-3.1833	-3.3167	-2.7854	-3.5438	-3.1792	-2.9938	-3.5062	-2.7625	-2.9479	-3.4604	-2.7917	489.283	207.707	306.599	395.771	321.016	342.977	516.189	378.968	411.297	348.806	475.804	416.813	365.895	384.877	477.936	463.732	0.00024104	0.00017324	6.9065e-05	191.11	1.4433e-06	4.3964e-07	349.11	75.136	2.1189e-06	1.7642e-06	158.34	62.366	29.62	12.574	1.1552e-06	29.036	7.155e-05	6.1932e-05	1.6933e-05	181.35	6.7346e-07	6.5809e-07	326.6	70.654	6.8953e-07	6.6156e-07	143.35	57.839	27.801	11.814	6.6626e-07	26.651	250.429	237.289	244.864	188.055	348.618	257.817	186.749	192.902	334.795	374.352	190.786	193.935	195.670	201.016	458.803	198.293	-8191	255	
3200.451	1	1	0	0	0.19653	0.26631	0.27684	0.18699	0.34094	0.075838	0.1438	0.094128	0.15281	0.19446	0.15076	0.21944	0.041776	0.14909	0.18736	0.11215	-3.0438	-3.2	-2.6917	-3.3583	-2.6229	-2.9292	-3.4938	-2.4896	-3.1688	-3.2562	-2.7687	-3.4333	-2.9604	-2.875	-3.5042	-2.575	400.907	533.212	473.103	225.524	387.481	525.418	395.586	246.102	363.285	510.332	427.684	309.920	497.406	262.494	255.083	526.325	0.00028091	0.00021359	7.1201e-05	193.58	2.2831e-06	3.0184e-06	351.9	75.013	3.4484e-06	3.9748e-06	157.91	62.703	29.742	12.662	3.2877e-06	28.913	7.1829e-05	5.9616e-05	1.7318e-05	181.49	6.7719e-07	6.7333e-07	326.31	70.893	6.7884e-07	6.7925e-07	143.77	58.031	27.809	11.835	6.6039e-07	26.641	245.406	183.573	235.899	187.423	360.857	294.852	186.894	192.581	326.588	322.353	190.860	194.637	196.644	201.419	357.189	198.647	-8191	255	
3200.548	1	1	0	0	0.045722	0.21608	0.14897	0.18697	0.30442	0.22069	0.12192	0.21452	0.060053	0.28189	0.22137	0.16413	0.15043	0.068159	0.18989	0.37313	-3.0062	-3.2417	-2.6646	-3.4437	-3.0229	-2.8271	-3.625	-2.5354	-3.1604	-3.2687	-2.6104	-3.4417	-3.1375	-2.8167	-3.3688	-2.9708	387.693	340.487	244.528	214.785	286.938	309.817	388.982	176.896	461.237	432.111	396.226	427.288	207.619	469.079	354.141	492.160	0.00024178	9.699e-05	5.3416e-05	192.92	2.9322e-07	1.8234e-06	352.82	76.131	1.3652e-06	1.3213e-06	160.25	62.954	30.35	12.784	1.3054e-06	29.194	7.0753e-05	6.0324e-05	1.6999e-05	181.83	6.8283e-07	6.9056e-07	329.09	71.002	7.0301e-07	6.7412e-07	145.2	58.313	28.157	11.96	7.015e-07	26.804	250.910	262.623	306.329	187.998	204.944	211.059	187.182	192.579	294.210	365.122	191.013	194.031	196.010	200.903	352.230	198.180	-8191	255	
3200.644	1	1	0	0	0.032835	0.20681	0.099075	0.064945	0.15147	0.075685	0.17192	0.010962	0.25767	0.069306	0.13783	0.044991	0.22331	0.29272	0.047223	0.083701	-2.6646	-3.2292	-2.4458	-3.3979	-3.0292	-2.6333	-3.5625	-2.8375	-3.0896	-3.4417	-2.5729	-3.1667	-3.1	-2.7208	-3.6292	-2.8625	243.901	290.038	443.643	245.295	310.269	388.558	490.108	404.556	453.496	186.829	322.499	510.471	242.874	193.518	206.985	494.847	0.00027183	0.00025927	1.8312e-05	194.25	5.6671e-07	3.9344e-06	349.63	75.813	1.306e-06	2.4358e-06	159.77	63.375	29.842	12.724	1.7515e-06	29.11	7.3739e-05	6.2394e-05	1.7233e-05	182.88	6.9759e-07	6.9184e-07	329.41	71.556	6.7641e-07	6.9134e-07	145.79	58.649	28.031	11.94	6.9646e-07	26.834	251.093	278.049	314.482	187.691	461.587	307.314	187.076	192.907	321.303	362.503	191.014	194.327	194.851	200.761	294.227	197.684	-8191	255	
3200.740	1	1	0	0	0.24314	0.33022	0.1741	0.078626	0.18373	0.19263	0.12914	0.14545	0.23132	0.14209	0.19696	0.13987	0.063145	0.057634	0.12306	0.11833	-2.3292	-3.3937	-2.6521	-3.2604	-3.1521	-2.6042	-3.5563	-2.9083	-2.7812	-3.5146	-2.6542	-3.2583	-3.3333	-2.5792	-3.3333	-3.0729	394.098	279.638	527.777	334.320	391.243	461.723	499.756	177.374	452.678	243.867	266.100	184.534	349.838	507.542	287.492	364.411	0.00025184	0.00030037	6.0322e-05	193.28	2.2431e-06	2.1013e-06	353.21	76.807	2.3224e-06	1.3704e-06	160.4	63.184	30.271	12.777	1.7741e-06	28.912	7.4648e-05	6.2422e-05	1.7379e-05	182.99	6.7481e-07	6.8609e-07	330.87	71.634	7.037e-07	6.6913e-07	145.34	58.423	28.116	11.901	6.7717e-07	26.692	251.513	292.201	224.805	187.199	346.290	413.383	186.334	192.304	360.906	357.244	190.060	194.144	195.961	200.781	352.402	197.930	-8191	255	
3200.861	1	1	0	0	0.28676	0.25049	0.065276	0.11231	0.1494	0.24142	0.13062	0.1048	0.19963	0.14357	0.3141	0.11251	0.21051	0.087083	0.26728	0.31212	-2.3812	-3.4833	-2.8917	-3.1354	-3.4042	-2.6354	-3.5104	-2.9479	-2.6104	-3.4521	-2.725	-2.9583	-3.2667	-2.6063	-3.5021	-3.0292	455.346	287.420	232.058	435.884	212.755	377.251	395.568	370.924	507.854	475.212	471.728	516.466	181.320	344.057	310.961	506.262	0.00020978	5.1661e-05	2.3694e-05	193.89	2.6306e-06	1.2297e-06	350.58	75.868	6.7552e-07	2.0676e-06	159.22	62.163	30.36	12.811	1.0087e-06	29.105	7.1144e-05	6.2104e-05	1.736e-05	182.36	6.8081e-07	6.6811e-07	329.16	71.419	6.8666e-07	6.7196e-07	144.83	58.041	28.095	11.902	6.5538e-07	26.714	247.794	453.976	178.269	187.069	367.036	216.967	186.551	192.181	230.944	320.981	190.328	194.669	195.698	200.330	230.992	198.565	-8191	255	
3200.932	1	1	0	0	0.23137	0.072996	0.14532	0.34405	0.15066	0.13685	0.10516	0.11538	0.26598	0.23967	0.20526	0.049355	0.34973	0.21489	0.16862	0.17763	-2.2	-3.5312	-2.7	-2.9167	-3.4021	-2.5167	-3.3333	-3.2	-2.5729	-3.4354	-2.9188	-2.8542	-3.5187	-2.4917	-3.0687	-3.2271	251.609	451.971	475.363	457.396	272.458	415.803	209.529	382.697	340.520	392.475	417.403	175.012	277.238	501.934	355.357	198.012	0.00024173	0.00030568	2.6701e-05	192.79	9.3663e-07	2.3603e-06	352.97	76.154	2.2459e-06	1.8134e-06	160.68	63.086	30.02	12.67	2.3709e-06	28.861	7.266e-05	6.1545e-05	1.7552e-05	182.89	6.9392e-07	6.8523e-07	329.97	71.636	6.9986e-07	6.6891e-07	145.6	58.655	28.094	11.831	6.8218e-07	26.619	244.486	254.502	266.704	187.320	530.912	262.340	186.727	192.252	356.984	363.083	190.014	194.489	195.840	201.231	336.310	197.784	-8191	255	
3201.028	1	1	0	0	0.18904	0.19434	0.067912	0.31219	0.1148	0.037091	0.053767	0.12559	0.32296	0.064471	0.12838	0.42086	0.17964	0.24334	0.069169	0.10112	-2.2	-3.5	-2.7417	-2.6063	-3.3729	-2.6229	-3.0354	-3.2125	-2.4271	-3.2625	-2.9542	-2.9542	-3.4771	-2.6854	-3.1542	-3.4562	440.381	427.600	514.187	424.736	431.449	469.418	402.659	490.769	291.333	518.522	391.817	465.430	190.271	361.820	249.904	439.544	0.00026637	0.00014393	7.1891e-05	194.22	1.5893e-06	1.0692e-06	354.5	75.739	1.2069e-06	1.5559e-06	159.95	62.672	30.061	12.686	1.9512e-06	28.683	7.2235e-05	6.0394e-05	1.6943e-05	183.13	6.7385e-07	7.0868e-07	330.93	71.373	6.8503e-07	6.7518e-07	144.8	58.019	28.001	11.771	6.9286e-07	26.465	256.598	242.268	214.075	187.650	343.122	208.795	187.129	192.953	330.143	298.550	191.040	194.387	196.221	200.357	296.933	198.104	-8191	255	
3201.125	1	1	0	0	0.073934	0.16404	0.22212	0.16891	0.30504	0.14434	0.31237	0.070471	0.24592	0.075263	0.20472	0.097913	0.1376	0.14436	0.027718	0.16006	-2.3375	-3.3688	-2.9	-2.7625	-3.4562	-2.8146	-3.1604	-3.3083	-2.65	-3.4104	-3.1042	-2.5125	-3.4313	-2.8458	-2.9854	-3.2979	227.131	278.694	448.295	402.240	347.467	355.751	462.402	318.455	330.097	477.540	343.197	376.268	409.281	264.331	270.418	408.631	0.00028807	0.00029561	8.8475e-05	192.63	2.3925e-06	3.4401e-06	351.67	75.607	2.4092e-06	3.721e-06	158.73	62.052	29.967	12.529	2.9328e-06	28.375	7.2551e-05	6.1921e-05	1.7393e-05	182.27	6.9306e-07	7.0621e-07	329.85	70.796	6.8257e-07	6.7931e-07	144	57.793	27.929	11.715	6.9411e-07	26.326	253.544	257.632	216.863	187.682	286.958	296.821	187.333	192.943	375.408	332.478	191.021	194.440	195.578	200.666	304.161	197.939	-8191	255	
3201.243	1	1	0	0	0.092552	0.015659	0.22208	0.29157	0.065675	0.20312	0.15077	0.06316	0.24847	0.16862	0.15523	0.086507	0.17732	0.3023	0.11621	0.040291	-2.0958	-3.1104	-2.9313	-2.6917	-3.5854	-2.7417	-2.9896	-3.4188	-2.5875	-3.2583	-3.2625	-2.6875	-3.5042	-2.9271	-2.9396	-3.5083	354.288	334.370	418.670	414.200	255.589	447.956	485.082	316.711	279.439	309.292	455.074	374.703	314.831	533.986	437.593	478.303	0.0002766	0.0002583	5.1846e-05	194.49	2.4691e-06	1.4012e-06	348.56	75.834	2.5258e-06	1.0287e-06	157.13	62.227	29.95	12.487	1.3589e-06	28.526	7.5892e-05	6.093e-05	1.7573e-05	181.89	6.927e-07	6.9228e-07	327.49	71.135	7.0326e-07	6.8094e-07	143.88	57.762	27.855	11.685	6.5972e-07	26.345	251.703	245.303	300.750	187.039	415.950	295.194	186.891	192.892	299.585	404.614	190.194	194.646	195.771	200.574	278.011	198.433	-8191	255	
3201.340	1	1	0	0	0.054197	0.1275	0.16548	0.098656	0.20876	0.16484	0.01545	0.16223	0.04976	0.31166	0.1486	0.29938	0.27674	0.15984	0.2341	0.017477	-2.2896	-3.125	-3.1979	-2.6958	-3.3729	-2.8604	-2.8375	-3.6292	-2.6896	-3.0646	-3.3104	-2.6396	-3.375	-2.9396	-2.8042	-3.4333	231.238	440.681	258.067	232.131	478.188	523.537	491.000	528.322	336.943	410.728	436.298	470.021	296.815	236.238	393.723	292.379	0.00025545	0.00030506	4.2147e-05	193.2	2.6499e-06	6.2612e-07	351.53	75.761	2.6478e-06	2.8168e-06	159.46	62.368	30.05	12.423	1.2452e-06	28.634	7.1635e-05	6.4106e-05	1.7244e-05	181.79	6.9419e-07	6.9961e-07	328.89	71.038	7.1967e-07	6.9589e-07	144.99	57.898	27.929	11.683	7.1839e-07	26.425	253.260	240.796	239.958	187.217	274.722	264.696	187.377	193.142	352.099	342.765	190.745	194.275	196.179	200.997	340.718	198.212	-8191	255	
3201.436	1	1	0	0	0.075212	0.064701	0.18218	0.076585	0.11941	0.15532	0.21017	0.051453	0.053378	0.18721	0.14814	0.10842	0.045902	0.23442	0.15844	0.23064	-2.3417	-2.9146	-3.3396	-2.6875	-3.3729	-3.1208	-2.7167	-3.3771	-2.8354	-3.0708	-3.3958	-2.4688	-3.1854	-3.1104	-2.6646	-3.3792	382.924	218.841	235.239	374.598	257.768	392.959	469.843	272.992	311.967	345.419	190.503	392.155	451.185	369.011	327.840	263.476	0.00021714	0.00012552	4.8183e-06	195.45	1.7531e-06	2.0178e-06	354.29	76.387	1.0081e-06	5.3236e-07	156.39	62.044	29.328	12.148	2.9835e-06	27.974	7.6512e-05	6.6331e-05	1.8223e-05	182.3	7.2292e-07	7.2761e-07	329.42	71.37	7.1381e-07	7.1909e-07	143.51	57.583	27.568	11.471	7.3672e-07	25.852	255.033	192.391	455.653	187.475	380.375	279.757	186.690	192.758	271.447	339.018	190.612	194.443	195.883	200.848	285.175	198.500	-8191	255	
3201.532	1	1	0	0	0.10522	0.031839	0.19383	0.25599	0.083826	0.074714	0.14421	0.27028	0.20632	0.20029	0.023138	0.13664	0.092297	0.25744	0.055369	0.1818	-2.5687	-2.8229	-3.4021	-2.6979	-3.1917	-3.0938	-2.5917	-3.3979	-2.8958	-2.7646	-3.6021	-2.725	-3.0812	-3.1896	-2.7333	-3.4313	278.660	514.334	530.645	483.437	291.102	429.332	449.727	289.899	448.397	532.284	497.245	396.366	465.674	358.314	243.123	182.477	0.00024266	0.000196	3.5514e-05	191.86	3.8044e-06	1.6681e-06	349.24	75.81	2.6746e-06	1.1435e-06	156.4	61.198	29.518	12.046	4.1793e-06	27.794	7.6298e-05	6.6354e-05	1.7776e-05	181.66	7.1789e-07	7.1376e-07	327.26	71.02	7.2368e-07	7.2638e-07	142.96	56.727	27.449	11.254	7.3641e-07	25.46	251.695	315.557	358.746	188.012	323.808	304.069	187.266	192.516	301.509	261.983	190.271	194.282	196.299	200.921	357.366	198.861	-8191	255	
3201.628	1	1	0	0	0.24775	0.022482	0.12224	0.18169	0.13542	0.032636	0.20702	0.14028	0.031695	0.11698	0.14811	0.10653	0.054575	0.4381	0.20303	0.25023	-2.4333	-2.825	-3.4479	-2.7292	-3.0104	-3.2562	-2.7375	-3.4042	-2.9938	-2.7292	-3.375	-2.9	-3.0167	-3.3146	-2.6479	-3.2708	388.033	377.571	180.465	238.885	242.997	526.599	244.570	437.365	501.281	459.984	448.091	431.179	404.092	487.249	435.619	407.997	0.00023486	0.00011484	6.2725e-05	192.21	1.8641e-06	1.6757e-06	347.62	74.717	1.408e-06	2.9481e-06	156.95	59.629	28.566	11.576	2.0851e-06	26.703	7.4871e-05	6.6806e-05	1.8185e-05	180.97	7.4296e-07	7.0857e-07	326.49	70.403	7.3108e-07	7.1502e-07	143.27	55.784	26.806	10.869	7.577e-07	24.666	250.774	316.808	311.251	187.569	362.135	250.287	186.672	193.533	304.428	242.640	191.246	194.684	196.265	201.015	240.952	198.458	-8191	255	
3201.724	1	1	0	0	0.15405	0.062887	0.13344	0.077631	0.31301	0.18334	0.22964	0.018591	0.0066543	0.1724	0.067261	0.25983	0.10107	0.15601	0.16861	0.15471	-2.6417	-2.7542	-3.3958	-2.7521	-2.9938	-3.325	-2.5938	-3.2687	-3.2812	-2.8063	-3.4396	-2.925	-2.8729	-3.5146	-2.6354	-3.3667	246.249	420.687	322.040	396.340	389.069	329.300	502.974	183.774	478.618	341.747	488.410	393.652	174.773	338.791	282.337	504.610	0.00027265	0.00019179	7.314e-05	191.71	1.5749e-06	1.8724e-06	342.55	74.542	3.0966e-06	4.8377e-06	155.8	59.542	28.032	11.207	1.0508e-06	26.136	7.8281e-05	6.9302e-05	1.8656e-05	180.32	7.5482e-07	7.3191e-07	324.49	70.5	7.4008e-07	7.4659e-07	142.21	55.251	26.45	10.561	7.6748e-07	23.987	252.404	230.141	278.075	187.363	434.185	426.572	187.294	192.546	251.811	329.154	190.155	194.672	196.072	200.861	303.135	198.719	-8191	255	
3201.845	1	1	0	0	0.085288	0.13352	0.14646	0.046756	0.23772	0.22702	0.19551	0.1101	0.1572	0.025008	0.083989	0.15764	0.035686	0.070624	0.20651	0.23585	-2.8104	-2.5354	-3.3854	-2.8208	-2.8625	-3.4604	-2.5854	-3.2062	-3.3583	-2.4292	-3.4167	-2.9688	-2.6937	-3.5604	-2.7542	-3.2146	519.412	208.763	201.598	207.600	416.327	513.424	427.147	473.575	215.484	359.487	378.785	393.148	202.566	402.005	431.735	522.036	0.00019102	7.8054e-05	7.6008e-05	187.02	3.2008e-06	2.2666e-07	339.59	71.081	2.7225e-06	1.2839e-06	149.95	57.027	27.23	10.658	3.532e-06	24.852	7.7156e-05	7.0948e-05	1.9632e-05	176.8	7.8435e-07	7.6002e-07	318.77	67.601	7.8513e-07	7.8688e-07	137.43	53.186	25.465	10.13	8.0109e-07	23.038	246.985	513.454	273.897	188.050	313.835	506.879	187.070	193.221	329.261	310.676	190.912	195.227	195.868	200.663	408.023	198.185	-8191	255	
3201.941	1	1	0	0	0.089401	0.3572	0.16699	0.053764	0.27189	0.12733	0.26491	0.11534	0.10057	0.092307	0.12639	0.16295	0.10553	0.045744	0.18079	0.18514	-3.0167	-2.5104	-3.2583	-2.9729	-2.7313	-3.5521	-2.9	-3.0958	-3.2562	-2.4479	-3.2458	-2.8979	-2.7792	-3.4625	-2.7083	-2.9521	257.850	226.264	379.146	311.035	242.133	420.498	422.100	408.255	478.596	519.171	448.020	356.887	411.514	370.814	499.216	496.172	0.00021411	8.6893e-05	5.0742e-05	182	2.8413e-06	3.7961e-06	329.32	69.809	1.2433e-06	1.125e-06	144.27	55.567	26.351	10.28	1.8652e-06	24.177	7.9751e-05	7.2821e-05	2.0042e-05	172.57	8.0948e-07	8.022e-07	311.23	65.868	8.3892e-07	8.497e-07	133.62	51.588	24.81	9.7298	8.6947e-07	22.41	248.562	346.121	280.209	187.037	289.057	387.063	186.828	193.032	516.208	453.747	190.470	193.854	195.859	201.391	320.336	198.088	-8191	255	
3202.037	1	1	0	0	0.047825	0.15492	0.22657	0.15867	0.06198	0.23397	0.17698	0.29449	0.32214	0.12329	0.21258	0.27176	0.22892	0.1469	0.11413	0.031562	-3.1479	-2.5292	-3.3688	-3.1354	-2.7146	-3.3771	-2.6917	-2.6937	-3.2729	-2.45	-3.2313	-3.3667	-2.5979	-3.2917	-2.8771	-2.9104	487.080	233.730	503.503	458.591	242.035	359.139	375.860	318.905	528.324	218.246	343.450	381.567	225.118	286.760	217.728	263.699	0.00021337	0.00028299	3.6954e-05	179.19	4.8373e-06	1.7784e-06	327.33	66.473	1.8382e-06	2.0668e-06	141.86	53.686	25.35	9.8448	2.2839e-06	23.622	8.8446e-05	7.99e-05	2.2995e-05	170.93	9.4044e-07	9.3887e-07	309.05	63.183	9.5222e-07	9.881e-07	130.31	50.035	24.053	9.4099	9.9799e-07	21.75	259.841	330.500	232.152	187.096	309.538	217.157	186.477	192.588	297.561	417.279	189.824	194.091	195.872	200.977	391.639	198.388	-8191	255	
3202.156	1	1	0	0	0.081686	0.11427	0.23385	0.09044	0.066818	0.13718	0.13139	0.17653	0.14029	0.094181	0.28291	0.17988	0.090901	0.12005	0.10459	0.28601	-2.9521	-2.6437	-3.075	-3.2687	-2.375	-3.3729	-3.0062	-2.8292	-3.4729	-2.5687	-3.2979	-3.3708	-2.5812	-3.2062	-3.0333	-2.6646	477.330	412.523	258.753	274.700	258.009	464.705	214.855	529.072	401.553	388.722	485.793	208.444	445.176	392.832	227.512	515.578	0.00019089	0.00011589	4.7294e-05	176.65	3.6278e-06	2.144e-06	326.85	65.759	1.2213e-06	2.8472e-06	138.03	53.125	24.717	9.6268	1.1304e-06	23.003	9.5485e-05	9.1832e-05	2.5221e-05	169.31	1.0362e-06	1.0404e-06	309.43	62.364	1.0551e-06	1.0755e-06	128.68	49.681	23.635	9.2216	1.0946e-06	21.402	253.632	354.570	202.687	186.615	290.017	295.200	186.093	193.500	206.360	289.702	190.264	193.999	195.527	200.702	198.850	197.636	-8191	255	
3202.228	1	1	0	0	0.16145	0.13762	0.14995	0.067382	0.20285	0.087745	0.079413	0.17053	0.12556	0.1394	0.17151	0.11563	0.2587	0.2831	0.2647	0.15842	-3.1021	-2.625	-3.0875	-3.3854	-2.7062	-3.4625	-3.1188	-2.6937	-3.3646	-2.6104	-3.0333	-3.3187	-2.5896	-2.9771	-3.075	-2.4938	341.614	442.290	403.596	468.048	520.223	177.337	290.672	431.475	174.999	255.029	224.119	336.231	218.099	337.184	241.350	473.600	0.0002057	6.5066e-05	2.6068e-05	177.86	5.3201e-07	9.7134e-07	333.64	64.693	9.0008e-07	3.3614e-06	135.9	51.59	24.169	9.3978	1.9867e-06	22.454	0.00010752	0.00010252	2.8723e-05	171.6	1.1597e-06	1.1325e-06	313.42	61.629	1.194e-06	1.1903e-06	126.35	48.855	23.403	9.1111	1.2116e-06	20.998	255.010	472.212	312.760	186.440	489.699	348.847	186.363	192.038	349.245	348.566	190.209	194.255	195.846	201.188	180.722	198.721	-8191	255	
3202.324	1	1	0	0	0.15505	0.3416	0.37062	0.0517	0.11302	0.061794	0.25641	0.094519	0.1475	0.23121	0.36511	0.14669	0.21945	0.23742	0.076743	0.16046	-2.9146	-2.6229	-2.7479	-3.2396	-2.6896	-3.1708	-3.0563	-2.5396	-3.4	-2.8771	-2.725	-3.3875	-2.6854	-3.2208	-3.2042	-2.6667	249.271	523.803	183.220	340.227	384.966	276.461	369.996	401.078	403.946	472.915	365.954	264.028	461.507	378.597	249.139	225.584	0.00023262	0.00014866	1.2018e-05	180.19	3.9737e-06	2.8595e-06	339.33	62.779	3.0563e-06	2.4376e-06	134.49	50.877	23.583	9.2198	2.3378e-06	21.94	0.00011958	0.00012014	3.1545e-05	175.28	1.3079e-06	1.3054e-06	322.46	60.145	1.3503e-06	1.3376e-06	124.78	48.046	23.004	8.9215	1.3931e-06	20.668	246.477	520.080	522.611	186.616	278.061	371.513	185.720	192.415	259.309	352.693	190.669	194.719	195.673	200.779	253.164	197.848	-8191	255	
3202.420	1	1	0	0	0.21791	0.2138	0.14291	0.071335	0.249	0.13034	0.068339	0.1361	0.2492	0.20973	0.18978	0.041306	0.14083	0.14281	0.24238	0.0576	-3.175	-3.0167	-2.7333	-3.3563	-2.6354	-3.1604	-3.35	-2.5729	-3.0875	-3.025	-2.475	-3.4292	-2.7521	-3.0125	-3.3792	-2.7604	213.980	392.382	346.778	480.629	428.330	514.433	254.436	292.835	220.001	276.711	363.710	177.227	199.280	246.670	176.568	317.736	0.00021881	0.00033647	6.3971e-05	189.23	4.6671e-06	1.4573e-06	352.88	61.69	1.7562e-06	3.2326e-06	128.81	49.846	23.404	9.0959	2.1604e-06	21.676	0.00013522	0.00012937	3.6561e-05	182.41	1.4682e-06	1.503e-06	334.75	59.505	1.5276e-06	1.5286e-06	122.65	47.526	22.708	8.8698	1.6556e-06	20.459	243.879	342.593	424.465	185.601	354.336	444.607	185.460	192.117	258.213	303.874	190.424	194.167	196.149	201.055	312.792	198.176	-8191	255	
3202.541	1	1	0	0	0.24839	0.13963	0.1619	0.17754	0.15834	0.13941	0.17208	0.089775	0.15319	0.15444	0.24092	0.21237	0.16707	0.2388	0.023794	0.19624	-2.8667	-3.075	-2.7188	-3.2083	-2.6312	-2.8417	-3.5875	-2.6167	-3.2375	-3.1958	-2.4104	-3.4646	-2.7146	-2.8604	-3.4729	-2.5354	489.500	370.118	197.046	317.285	508.888	428.373	479.317	262.131	475.056	178.321	369.319	507.772	287.633	185.246	410.465	478.635	0.0002079	7.5493e-05	0.00010208	192.94	7.716e-07	1.0715e-06	361.43	60.119	6.0058e-06	6.1529e-06	130.35	50.117	22.917	8.88	2.4129e-07	21.548	0.00015466	0.00015223	4.259e-05	188.81	1.6935e-06	1.7225e-06	345.01	58.592	1.7596e-06	1.7248e-06	122.75	47.312	22.699	8.7899	1.7381e-06	20.442	249.818	270.463	330.580	186.180	235.585	431.305	185.417	193.232	294.597	332.433	189.636	194.535	195.838	201.114	310.506	198.039	-8191	255	
3202.637	1	1	0	0	0.17843	0.1324	0.31021	0.32192	0.037062	0.11402	0.097808	0.27987	0.064122	0.15276	0.15184	0.0096502	0.19517	0.041554	0.37408	0.14162	-2.8042	-3.3521	-2.5896	-3.4333	-2.9542	-2.7979	-3.4208	-2.6021	-3.0708	-3.2938	-2.7396	-3.2333	-2.8333	-2.8688	-3.3458	-2.65	448.721	362.890	287.221	195.987	338.647	354.969	445.702	285.590	255.799	527.720	332.907	472.457	217.723	517.563	233.712	374.780	0.00026637	0.00021951	9.1575e-05	191.49	2.0433e-06	1.0994e-06	357.56	57.909	4.1653e-06	3.7591e-06	125.89	49.746	23.049	9.165	5.0899e-07	22.368	0.00015769	0.00014913	4.2062e-05	186.15	1.5808e-06	1.5712e-06	339.59	57.01	1.538e-06	1.5122e-06	118.46	47.381	22.531	8.962	1.3583e-06	20.881	250.571	384.931	326.730	186.175	389.162	453.585	185.790	192.017	270.154	442.998	190.089	194.016	195.380	200.590	373.887	197.968	-8191	255	
3202.733	1	1	0	0	0.14333	0.015385	0.13518	0.24665	0.19963	0.021035	0.2213	0.057986	0.27799	0.20031	0.098587	0.25904	0.24619	0.067888	0.1656	0.07928	-2.7542	-3.275	-2.5771	-3.325	-3.1417	-2.6188	-3.4042	-2.5812	-2.9083	-3.2521	-2.7271	-3.2917	-3.0875	-2.5542	-3.3146	-2.6875	423.921	286.821	516.487	247.969	423.859	337.294	456.673	283.516	418.702	461.057	353.348	419.290	492.164	479.495	430.139	303.524	0.00015646	0.00022915	0.00010145	183.62	5.1952e-07	1.2799e-06	340.34	58.917	3.2503e-06	3.3241e-06	125.1	51.278	23.992	9.6965	5.122e-07	23.187	0.0001218	0.00011634	3.2337e-05	177.94	1.1988e-06	1.1825e-06	322.91	56.443	1.1189e-06	1.0899e-06	117.64	48.206	22.891	9.2339	1.0156e-06	21.592	254.314	250.131	300.634	186.709	217.589	305.943	186.034	192.367	176.509	230.380	190.124	194.293	195.811	200.557	509.789	197.870	-8191	255	
#DATA ENDS
