BOXY.EXE: ISS Imagent and Oximeter Data Acquisition Program Version 0.80
Ascii Record File

#ACQ INFORMATION
2  Detector Channels 
16  External MUX Channels 
1  Auxiliary Channels 
5000  Waveform (CCF) Frequency (Hz)
1  Waveforms Skipped 
30  Waveforms Averaged 
1  Cycles Averaged 
16  Acquisitions per Waveform 
10.0806  Updata Rate (Hz) 

#FILE INFORMATION
TRUE -- External MUX Channel results are PARSED.
FALSE -- AC DC and Phase are NOT grouped.
TRUE -- Companion Program Settings File CREATED.
FALSE -- AC data not excluded
FALSE -- DC data not excluded
FALSE -- Phase data not excluded
FALSE -- Auxillary Chn. data not excluded
Tab delimiters

#CALIBRATION STATE
TRUE -- Waveform Calibration Values APPLIED.


#AUX CALIBRATION VALUES
Val Type	aux-1	

Term	1.0000e+00	
Factor	0.0000e+00	


#WF CALIBRATION VALUES
A = Detector Channel
Val Type	A-AC1	A-AC2	A-AC3	A-AC4	A-AC5	A-AC6	A-AC7	A-AC8	A-AC9	A-AC10	A-AC11	A-AC12	A-AC13	A-AC14	A-AC15	A-AC16	A-DC1	A-DC2	A-DC3	A-DC4	A-DC5	A-DC6	A-DC7	A-DC8	A-DC9	A-DC10	A-DC11	A-DC12	A-DC13	A-DC14	A-DC15	A-DC16	A-Ph1	A-Ph2	A-Ph3	A-Ph4	A-Ph5	A-Ph6	A-Ph7	A-Ph8	A-Ph9	A-Ph10	A-Ph11	A-Ph12	A-Ph13	A-Ph14	A-Ph15	A-Ph16	

Term	0.00000e+00	0.00000e+00	0.00000e+00	0.00000e+00	0.00000e+00	0.00000e+00	0.00000e+00	0.00000e+00	0.00000e+00	0.00000e+00	0.00000e+00	0.00000e+00	0.00000e+00	0.00000e+00	0.00000e+00	0.00000e+00	0.00000e+00	0.00000e+00	0.00000e+00	0.00000e+00	0.00000e+00	0.00000e+00	0.00000e+00	0.00000e+00	0.00000e+00	0.00000e+00	0.00000e+00	0.00000e+00	0.00000e+00	0.00000e+00	0.00000e+00	0.00000e+00	0.00000e+00	0.00000e+00	0.00000e+00	0.00000e+00	0.00000e+00	0.00000e+00	0.00000e+00	0.00000e+00	0.00000e+00	0.00000e+00	0.00000e+00	0.00000e+00	0.00000e+00	0.00000e+00	0.00000e+00	0.00000e+00	
Factor	1.00000e+00	1.00000e+00	1.00000e+00	1.00000e+00	1.00000e+00	1.00000e+00	1.00000e+00	1.00000e+00	1.00000e+00	1.00000e+00	1.00000e+00	1.00000e+00	1.00000e+00	1.00000e+00	1.00000e+00	1.00000e+00	1.00000e+00	1.00000e+00	1.00000e+00	1.00000e+00	1.00000e+00	1.00000e+00	1.00000e+00	1.00000e+00	1.00000e+00	1.00000e+00	1.00000e+00	1.00000e+00	1.00000e+00	1.00000e+00	1.00000e+00	1.00000e+00	X	X	X	X	X	X	X	X	X	X	X	X	X	X	X	X	

B = Detector Channel
Val Type	B-AC1	B-AC2	B-AC3	B-AC4	B-AC5	B-AC6	B-AC7	B-AC8	B-AC9	B-AC10	B-AC11	B-AC12	B-AC13	B-AC14	B-AC15	B-AC16	B-DC1	B-DC2	B-DC3	B-DC4	B-DC5	B-DC6	B-DC7	B-DC8	B-DC9	B-DC10	B-DC11	B-DC12	B-DC13	B-DC14	B-DC15	B-DC16	B-Ph1	B-Ph2	B-Ph3	B-Ph4	B-Ph5	B-Ph6	B-Ph7	B-Ph8	B-Ph9	B-Ph10	B-Ph11	B-Ph12	B-Ph13	B-Ph14	B-Ph15	B-Ph16	

Term	0.00000e+00	0.00000e+00	0.00000e+00	0.00000e+00	0.00000e+00	0.00000e+00	0.00000e+00	0.00000e+00	0.00000e+00	0.00000e+00	0.00000e+00	0.00000e+00	0.00000e+00	0.00000e+00	0.00000e+00	0.00000e+00	0.00000e+00	0.00000e+00	0.00000e+00	0.00000e+00	0.00000e+00	0.00000e+00	0.00000e+00	0.00000e+00	0.00000e+00	0.00000e+00	0.00000e+00	0.00000e+00	0.00000e+00	0.00000e+00	0.00000e+00	0.00000e+00	-7.43740e+01	-1.28316e+02	-1.28292e+02	-1.84666e+02	-6.09405e+01	-9.26518e+01	-1.57220e+02	-1.62015e+02	-6.83234e+01	-6.49300e+01	-1.71356e+02	-1.71554e+02	-1.80605e+02	-1.78112e+02	-5.87324e+01	-1.50478e+02	
Factor	1.69462e-05	1.09168e-04	3.22790e-05	1.81303e-01	1.25172e-06	1.14954e-06	1.71467e-01	5.38756e-02	1.13096e-06	1.21214e-06	1.27027e-01	2.77678e-02	2.53669e-02	8.93279e-03	9.87240e-07	1.27691e-02	1.16641e-06	1.21360e-06	3.37925e-07	9.36980e-02	1.32701e-08	1.33200e-08	8.34584e-02	2.80064e-02	1.32587e-08	1.33078e-08	6.16425e-02	1.38762e-02	1.31430e-02	4.61932e-03	1.32892e-08	6.33447e-03	X	X	X	X	X	X	X	X	X	X	X	X	X	X	X	X	



#DISTANCE SETTINGS
A = Detector Channel
A-1	A-2	A-3	A-4	A-5	A-6	A-7	A-8	A-9	A-10	A-11	A-12	A-13	A-14	A-15	A-16	

2.5000e+00	3.0000e+00	2.5000e+00	3.0000e+00	2.0000e+00	3.0000e+00	1.5000e+00	3.0000e+00	3.0000e+00	3.0000e+00	3.0000e+00	3.0000e+00	3.0000e+00	3.0000e+00	1.5000e+00	3.0000e+00	

B = Detector Channel
B-1	B-2	B-3	B-4	B-5	B-6	B-7	B-8	B-9	B-10	B-11	B-12	B-13	B-14	B-15	B-16	

1.0000e+01	1.0000e+01	1.0000e+01	1.4400e+00	1.0000e+01	1.0000e+01	1.5100e+00	1.9400e+00	1.0000e+01	1.0000e+01	1.9900e+00	2.4900e+00	2.4100e+00	2.9000e+00	1.0000e+01	2.9800e+00	




#DATA BEGINS
time	group	step	mark	flag	A-AC1	A-AC2	A-AC3	A-AC4	A-AC5	A-AC6	A-AC7	A-AC8	A-AC9	A-AC10	A-AC11	A-AC12	A-AC13	A-AC14	A-AC15	A-AC16	A-DC1	A-DC2	A-DC3	A-DC4	A-DC5	A-DC6	A-DC7	A-DC8	A-DC9	A-DC10	A-DC11	A-DC12	A-DC13	A-DC14	A-DC15	A-DC16	A-Ph1	A-Ph2	A-Ph3	A-Ph4	A-Ph5	A-Ph6	A-Ph7	A-Ph8	A-Ph9	A-Ph10	A-Ph11	A-Ph12	A-Ph13	A-Ph14	A-Ph15	A-Ph16	B-AC1	B-AC2	B-AC3	B-AC4	B-AC5	B-AC6	B-AC7	B-AC8	B-AC9	B-AC10	B-AC11	B-AC12	B-AC13	B-AC14	B-AC15	B-AC16	B-DC1	B-DC2	B-DC3	B-DC4	B-DC5	B-DC6	B-DC7	B-DC8	B-DC9	B-DC10	B-DC11	B-DC12	B-DC13	B-DC14	B-DC15	B-DC16	B-Ph1	B-Ph2	B-Ph3	B-Ph4	B-Ph5	B-Ph6	B-Ph7	B-Ph8	B-Ph9	B-Ph10	B-Ph11	B-Ph12	B-Ph13	B-Ph14	B-Ph15	B-Ph16	aux-1	digaux	

3210.463	1	1	0	256	0.28121	0.16536	0.29166	0.21532	0.04885	0.072288	0.16779	0.11644	0.15421	0.22329	0.21776	0.13695	0.095777	0.36584	0.11354	0.25235	-3.25	-2.8729	-3.0563	-3.375	-2.7354	-3.3333	-2.9479	-2.6354	-3.5146	-2.6688	-3.1	-3.3542	-2.475	-3.175	-3.0833	-2.7687	307.135	345.690	192.999	394.286	472.979	480.176	424.716	401.865	339.969	384.957	251.960	508.217	435.058	528.026	399.458	359.842	0.00029161	0.00047167	8.6739e-05	212.81	1.2766e-06	1.3924e-06	376.94	85.315	8.8789e-07	3.6797e-06	153.09	57.709	29.574	12.953	3.4238e-06	26.648	0.00011253	0.00010248	2.758e-05	202.23	1.0762e-06	1.066e-06	354.53	80.792	1.0322e-06	1.0314e-06	141.41	54.123	27.907	12.252	9.6629e-07	24.682	250.142	258.912	205.830	187.299	190.422	459.074	186.162	191.656	238.326	332.792	189.193	194.076	196.002	200.401	344.328	198.016	-8191	255	
3210.559	1	1	0	0	0.072927	0.11144	0.17784	0.25329	0.35688	0.2296	0.31077	0.31183	0.15478	0.38165	0.25381	0.18264	0.17629	0.095028	0.2064	0.25389	-3.1271	-2.8458	-2.9167	-3.3688	-2.4875	-3.1813	-3.125	-2.6437	-3.4667	-2.675	-2.7562	-3.325	-2.6354	-3.2583	-3.15	-2.6583	336.919	241.616	204.578	378.942	315.735	242.346	508.983	346.574	341.958	185.522	451.218	305.474	432.642	181.932	501.040	430.187	0.00023375	0.00029779	3.8738e-05	206.79	2.0147e-06	2.0075e-06	375.11	83.822	2.304e-06	3.0636e-06	155.18	57.985	29.42	12.905	3.3056e-07	26.577	9.697e-05	8.4775e-05	2.4126e-05	195.79	9.57e-07	9.6154e-07	350.64	79.242	9.2523e-07	9.4555e-07	142.49	54.101	27.635	12.17	9.337e-07	24.695	251.845	270.625	246.287	187.259	326.532	302.523	186.106	192.398	222.328	401.085	189.612	193.898	196.168	200.234	199.706	197.961	-8191	255	
3210.680	1	1	0	0	0.15437	0.13043	0.2188	0.1208	0.094568	0.076861	0.11004	0.1555	0.1436	0.028661	0.26187	0.060505	0.25063	0.12961	0.2389	0.08383	-3.0083	-2.7833	-2.8063	-3.4208	-2.6417	-3.15	-3.1792	-2.575	-3.3646	-3.0604	-2.7125	-3.4646	-2.5167	-3.0354	-3.1729	-2.3958	495.485	457.214	337.985	493.901	360.098	427.136	404.565	340.619	215.533	349.131	309.180	243.722	461.476	228.274	179.972	176.230	0.00023226	0.00014397	3.1294e-05	207.89	4.41e-06	1.8201e-06	377.65	83.192	3.1765e-06	1.345e-06	157.39	58.285	29.259	12.88	3.7817e-06	26.783	9.3434e-05	8.5852e-05	2.3717e-05	197.06	9.1885e-07	9.1714e-07	353.36	79.173	9.3766e-07	9.4713e-07	144.41	54.072	27.691	12.126	9.6263e-07	24.692	258.357	259.330	521.444	187.657	347.522	214.894	186.450	192.436	390.801	412.696	190.537	194.534	196.819	200.909	347.302	197.914	-8191	255	
3210.775	1	1	0	0	0.053272	0.08895	0.20871	0.19198	0.16348	0.22825	0.15993	0.06495	0.10887	0.19579	0.27002	0.029644	0.083617	0.13676	0.11059	0.25926	-2.9646	-2.85	-2.45	-3.3063	-2.6688	-2.9292	-3.1604	-2.6458	-3.3958	-3.0354	-2.5792	-3.5687	-2.75	-2.9562	-3.4188	-2.7354	404.615	480.946	379.795	481.389	305.017	461.618	484.111	447.410	416.980	381.065	227.259	228.344	505.387	410.035	361.596	193.463	0.00027627	0.00045997	5.5167e-05	208.95	2.3304e-06	2.1767e-06	378.01	84.496	6.9295e-07	3.4152e-06	156.81	57.505	28.9	12.707	7.4537e-07	25.923	9.4443e-05	8.7298e-05	2.3711e-05	199.4	9.4168e-07	9.4764e-07	355.08	79.411	9.3534e-07	9.2672e-07	144.16	53.597	27.302	11.956	9.337e-07	24.297	252.957	216.053	218.335	187.227	335.884	325.718	186.266	192.268	252.377	299.641	190.615	194.435	196.146	200.935	324.829	198.493	-8191	255	
3210.871	1	1	0	0	0.1721	0.28114	0.17961	0.43851	0.21737	0.1769	0.091285	0.089013	0.20539	0.16232	0.10404	0.20834	0.17732	0.15505	0.22154	0.11417	-2.8438	-3.1312	-2.5333	-3.3042	-2.8354	-2.8083	-3.4417	-2.5354	-3.3042	-3.2812	-2.6708	-3.3146	-2.7083	-2.8854	-3.3583	-2.7375	459.449	234.429	506.232	375.721	508.818	238.814	439.577	373.498	494.489	410.510	254.343	366.766	370.660	344.039	218.090	324.693	0.00020987	7.3923e-05	3.6875e-05	208.57	1.1607e-06	1.9101e-06	373.58	82.042	5.4445e-07	2.47e-06	155.92	55.637	28.339	12.37	1.5076e-06	25.924	9.2314e-05	8.3857e-05	2.3468e-05	198.15	9.2814e-07	8.8761e-07	351.44	77.85	8.9825e-07	9.1153e-07	142.55	52.305	26.654	11.625	8.8246e-07	23.819	261.809	500.591	424.696	187.707	285.105	222.663	186.397	192.289	290.557	328.828	190.348	194.542	196.558	201.405	290.762	198.178	-8191	255	
3210.967	1	1	0	0	0.18324	0.20574	0.15019	0.24826	0.11164	0.15919	0.088468	0.21288	0.088347	0.3153	0.25548	0.049863	0.31202	0.22337	0.099077	0.21073	-2.6937	-3.1	-2.4271	-3.4854	-2.9479	-2.8917	-3.5375	-2.6208	-3.0062	-3.2438	-2.625	-3.2646	-3.1729	-2.8333	-3.4062	-2.7729	412.862	354.910	333.811	265.356	225.409	210.584	250.427	414.701	317.320	274.939	412.469	428.964	234.552	433.120	261.415	492.074	0.00024221	0.00022843	6.6899e-05	206.94	2.3592e-06	4.7654e-06	367.84	82.573	7.7232e-08	8.9905e-07	156.18	55.78	27.831	12.352	2.0583e-06	25.886	8.6985e-05	8.0765e-05	2.2528e-05	195.36	8.7105e-07	8.5451e-07	348.04	77.291	8.8317e-07	8.4987e-07	142.64	52.155	26.35	11.596	8.4948e-07	23.914	258.684	198.879	224.087	188.130	343.337	304.672	186.372	192.374	433.479	220.072	190.460	194.567	196.663	201.183	353.727	198.254	-8191	255	
3211.063	1	1	0	0	0.095791	0.37212	0.089769	0.071179	0.21389	0.25436	0.13556	0.10033	0.053613	0.024334	0.071405	0.1955	0.14643	0.25287	0.016111	0.27517	-2.6521	-3.2687	-2.7062	-3.3146	-3.15	-2.65	-3.5354	-2.8792	-2.9625	-3.4583	-2.6396	-3.2708	-3.1542	-2.6896	-3.3667	-2.8125	271.725	369.143	486.284	330.059	461.749	514.788	474.230	269.419	436.962	200.620	516.741	269.220	174.948	185.005	409.074	516.159	0.0002315	0.00011803	9.7057e-05	204.08	3.3166e-06	3.0128e-06	377.67	81.649	2.307e-06	1.2081e-06	155.37	56.205	28.115	12.283	1.2104e-06	25.687	8.7503e-05	7.5653e-05	2.08e-05	195.07	8.5482e-07	8.4646e-07	352.03	77.396	8.5648e-07	8.3709e-07	143.48	52.497	26.346	11.56	8.5028e-07	23.893	250.318	373.300	190.004	187.760	298.257	279.642	186.997	192.793	411.761	280.078	189.848	194.978	196.406	201.422	395.959	198.394	-8191	255	
3211.159	1	1	0	0	0.1062	0.2233	0.083188	0.23445	0.22684	0.11015	0.097639	0.25681	0.23168	0.18042	0.26954	0.055208	0.067365	0.21641	0.15337	0.26127	-2.3833	-3.4333	-2.6146	-3.3063	-3.0417	-2.5021	-3.55	-2.7604	-2.8125	-3.3875	-2.8271	-3.0938	-3.2292	-2.4792	-3.2646	-3.075	174.423	192.481	518.575	197.940	386.593	290.522	377.399	473.751	298.661	397.325	367.479	498.488	281.952	296.457	436.006	369.322	0.0002254	0.00024158	7.3045e-05	207.58	3.4171e-06	3.1962e-06	372.11	81.413	1.6703e-06	8.7031e-07	157.35	55.738	27.737	12.415	2.4377e-06	25.953	8.3695e-05	7.7e-05	2.0824e-05	196.53	8.1996e-07	8.4421e-07	350.16	76.945	8.3126e-07	8.3221e-07	143.6	52.276	26.178	11.58	8.0903e-07	23.969	255.710	276.644	228.039	187.800	247.464	304.333	187.272	192.067	366.288	349.436	189.791	194.625	196.604	201.006	344.457	198.055	-8191	255	
3211.255	1	1	0	0	0.17053	0.12163	0.099342	0.10831	0.1814	0.24586	0.11652	0.24971	0.10213	0.12452	0.045906	0.16967	0.28722	0.14276	0.22009	0.22176	-2.2958	-3.3375	-2.7375	-3.1063	-3.2438	-2.6021	-3.3875	-2.9708	-2.6604	-3.5125	-2.8333	-3.0625	-3.3333	-2.5438	-3.2875	-3.0271	343.402	234.469	367.099	412.078	314.029	471.978	502.969	463.410	328.533	346.615	325.514	278.375	472.012	458.206	332.175	484.822	0.00019365	0.00013459	3.1304e-05	205.37	7.7903e-07	2.7515e-06	368.56	80.475	6.1913e-07	2.2546e-06	155.24	56.382	27.387	12.413	1.3681e-06	25.993	8.2147e-05	7.2356e-05	2.1158e-05	194.37	7.6997e-07	8.0617e-07	346.53	76.549	8.0364e-07	7.8499e-07	141.87	52.211	26.176	11.603	7.698e-07	23.992	250.746	268.576	257.581	187.533	394.309	350.317	186.755	192.481	314.410	255.221	189.872	194.837	195.525	201.054	382.911	198.195	-8191	255	
3211.351	1	1	0	0	0.1993	0.24905	0.13658	0.041177	0.24111	0.2237	0.21307	0.11528	0.24684	0.25579	0.09282	0.116	0.21958	0.1754	0.24618	0.33775	-2.225	-3.4542	-2.8396	-2.9417	-3.1979	-2.5917	-3.1458	-2.9938	-2.6542	-3.4479	-2.8083	-2.6958	-3.35	-2.6979	-3.2542	-3.1021	403.121	292.608	393.250	294.552	394.941	464.756	221.875	471.633	397.684	363.384	282.479	416.223	486.395	295.082	352.037	511.956	0.00027033	0.00021324	5.8756e-05	205.17	2.1553e-06	5.4936e-06	368.35	81.282	2.3193e-06	1.6031e-06	156.28	56.596	28.213	12.591	6.0384e-07	26.053	8.0514e-05	7.1393e-05	1.9641e-05	193.49	7.7962e-07	7.596e-07	345.49	76.341	7.9105e-07	7.8427e-07	142.99	52.599	26.444	11.752	7.8688e-07	24.293	254.777	300.181	290.940	187.458	280.213	349.901	186.724	192.551	227.732	323.652	190.326	194.691	196.819	201.125	236.550	198.540	-8191	255	
3211.448	1	1	0	0	0.14979	0.063744	0.1509	0.14976	0.17506	0.11977	0.11786	0.21425	0.048086	0.09875	0.049282	0.1316	0.1824	0.15419	0.26311	0.075272	-2.3104	-3.3333	-2.7917	-2.8396	-3.375	-2.7104	-3.0792	-3.1208	-2.7417	-3.4333	-2.8812	-2.7292	-3.4833	-2.7083	-3.1542	-3.3208	466.683	349.037	488.139	482.818	423.226	184.323	311.061	504.507	464.921	445.398	527.345	486.266	306.877	178.757	508.967	455.581	0.00026136	0.00012872	4.385e-05	207.2	1.2535e-06	1.3631e-06	372.73	82.077	1.2288e-06	2.9158e-06	156.49	56.485	28.262	12.549	1.3871e-06	26.382	8.0925e-05	6.8973e-05	1.9433e-05	194.08	7.977e-07	7.911e-07	348.85	77.027	7.8649e-07	7.688e-07	144.46	52.873	26.602	11.821	7.739e-07	24.471	250.591	176.929	302.659	188.068	407.014	213.975	187.167	192.879	297.455	312.011	190.709	195.009	196.439	201.107	227.683	197.919	-8191	255	
3211.568	1	1	0	0	0.030407	0.20213	0.14376	0.34364	0.21655	0.17005	0.071267	0.15531	0.16492	0.12064	0.14541	0.074134	0.13154	0.12719	0.25872	0.017953	-2.2562	-3.2396	-2.9542	-2.5625	-3.2333	-2.5542	-3.0333	-3.3604	-2.7521	-3.1917	-3.1979	-2.7146	-3.3312	-2.7687	-3.0854	-3.4813	287.002	431.233	275.560	389.687	244.903	468.722	492.711	456.663	310.180	190.961	182.825	502.854	469.961	210.424	235.107	318.322	0.00024437	0.00014117	4.3551e-05	208.09	2.8729e-06	2.8222e-06	374.42	81.11	3.1796e-06	3.4634e-06	155.79	56.533	27.89	12.334	2.1949e-06	26.437	7.9729e-05	6.9307e-05	1.9503e-05	195.25	7.8028e-07	7.8574e-07	349.16	76.723	7.6237e-07	7.7288e-07	143.19	52.565	26.293	11.684	7.8126e-07	24.26	269.063	303.833	387.190	187.909	237.723	409.358	186.939	192.588	251.513	408.570	190.687	194.959	196.978	201.037	331.197	198.374	-8191	255	
3211.663	1	1	0	0	0.099814	0.023971	0.22991	0.051747	0.19819	0.185	0.30965	0.21831	0.089175	0.085261	0.11707	0.048731	0.19833	0.081554	0.17292	0.089404	-2.2417	-3.25	-3.0438	-2.475	-3.3604	-2.8479	-2.7083	-3.5125	-2.55	-3.3021	-3.2854	-2.6083	-3.4562	-2.9833	-2.7854	-3.5167	519.665	184.196	530.113	353.865	340.349	465.492	357.947	492.131	385.877	456.699	427.795	205.636	496.787	271.423	388.147	442.742	0.00021414	0.00020932	1.2132e-05	204.63	9.9638e-07	1.9893e-06	372.79	81.046	2.1518e-06	1.0908e-06	156.37	55.852	27.612	12.446	1.8239e-06	25.701	8.0541e-05	6.7239e-05	2.0295e-05	193.53	7.4921e-07	7.5391e-07	348.04	76.223	7.5682e-07	7.5688e-07	142.65	52.061	26.054	11.601	7.69e-07	23.869	261.210	306.530	529.783	187.936	308.037	276.468	187.344	192.793	316.514	509.722	189.649	195.127	197.153	200.715	223.752	198.537	-8191	255	
3211.760	1	1	0	0	0.16479	0.072539	0.28145	0.074109	0.048988	0.32345	0.15218	0.22211	0.29341	0.079357	0.11013	0.04412	0.15909	0.1791	0.10272	0.1908	-2.1479	-2.9458	-3.2	-2.5021	-3.325	-3.025	-2.5479	-3.3646	-2.8563	-3	-3.325	-2.5542	-3.4313	-3.0271	-2.9	-3.5125	351.246	223.500	281.104	488.455	487.300	502.240	412.366	383.605	245.148	376.975	346.855	178.303	194.666	361.149	502.721	465.025	0.00022904	0.00021188	5.2723e-05	205.49	3.0285e-06	9.3249e-07	368.48	80.502	4.4998e-06	3.8118e-06	156.76	55.991	27.676	12.373	1.5199e-06	25.998	7.9972e-05	6.8801e-05	1.955e-05	193.51	7.6403e-07	7.7611e-07	346.08	75.737	7.8298e-07	7.9661e-07	142.3	52.025	25.941	11.543	7.7836e-07	23.867	259.645	305.351	441.875	188.152	321.795	303.725	187.072	192.919	321.559	259.473	189.930	194.449	196.805	201.523	270.145	198.745	-8191	255	
3211.855	1	1	0	0	0.05712	0.11264	0.19619	0.153	0.24035	0.0083458	0.20836	0.076611	0.096993	0.10916	0.16555	0.025561	0.067175	0.14741	0.12293	0.21095	-2.3646	-2.9646	-3.2646	-2.5521	-3.1958	-2.8917	-2.5833	-3.3937	-2.8667	-2.9333	-3.5187	-2.5375	-3.1333	-3.1104	-2.6833	-3.3667	524.879	217.486	447.307	448.331	316.156	401.084	390.637	450.176	224.664	238.343	218.995	481.383	510.982	316.527	189.398	379.074	0.00027577	0.00020307	8.8125e-05	207	2.5499e-06	1.9721e-06	370.33	80.549	2.1969e-06	6.2354e-07	156.23	56.145	27.519	12.136	3.52e-07	25.809	8.0742e-05	7.024e-05	1.9267e-05	194.98	8.0105e-07	7.6923e-07	347.56	75.812	7.616e-07	7.6556e-07	142.18	52.218	26.092	11.439	7.6011e-07	23.832	258.144	280.976	264.612	188.834	405.678	259.531	186.901	192.445	269.077	352.033	189.740	194.588	196.658	200.434	374.811	198.579	-8191	255	
3211.951	1	1	0	0	0.33452	0.034067	0.06584	0.24621	0.21673	0.25969	0.17551	0.20138	0.098504	0.12743	0.14741	0.075463	0.078391	0.12711	0.08388	0.079177	-2.5333	-2.7458	-3.2958	-2.5229	-3.1833	-3.2271	-2.7583	-3.4542	-2.8896	-2.7375	-3.55	-2.55	-2.95	-3.2167	-2.6688	-3.3542	314.961	218.478	463.187	209.892	495.202	188.835	427.521	461.792	459.057	450.840	191.992	413.784	195.039	426.117	268.933	377.354	0.00021314	0.00018975	3.9041e-05	204.08	2.812e-06	1.2873e-06	368.85	80.351	2.5419e-06	8.6364e-08	156.12	55.562	27.28	12.04	1.4964e-06	25.474	7.6898e-05	6.978e-05	1.9177e-05	193.68	7.7771e-07	7.5566e-07	347.55	76.061	7.8751e-07	7.7071e-07	142.26	51.7	25.846	11.434	7.5931e-07	23.642	257.795	518.170	322.367	187.924	311.853	409.657	187.190	192.400	337.269	461.633	190.804	194.321	197.130	201.246	387.323	198.736	-8191	255	
3212.047	1	1	0	0	0.26626	0.22419	0.20963	0.11297	0.18527	0.065355	0.2875	0.15593	0.065461	0.10142	0.19868	0.15765	0.051179	0.089908	0.23167	0.09446	-2.5729	-2.8958	-3.5375	-2.75	-3.0125	-3.3021	-2.6208	-3.3063	-3.1771	-2.4875	-3.4854	-2.8229	-3.1979	-3.2792	-2.5563	-3.3583	202.855	418.353	287.769	492.394	219.473	256.704	455.263	427.464	292.689	435.688	367.942	213.278	465.257	297.653	425.257	492.693	0.00023596	0.00023645	2.3665e-05	203.23	1.0645e-06	1.1388e-06	370.27	80.365	6.0305e-07	2.4333e-06	153.72	55.74	27.79	12.068	3.2814e-06	25.732	7.9646e-05	6.9375e-05	1.9179e-05	193.46	7.5377e-07	7.4467e-07	345.78	75.483	7.6199e-07	7.6331e-07	141.1	51.725	25.944	11.376	7.8348e-07	23.752	248.280	295.578	421.803	188.340	246.422	424.127	186.894	192.762	376.352	378.049	190.558	194.745	196.927	202.117	335.090	198.713	-8191	255	
3212.168	1	1	0	0	0.12484	0.052	0.15807	0.15861	0.14812	0.22303	0.30579	0.3344	0.11436	0.2509	0.24351	0.095364	0.145	0.20538	0.065795	0.29691	-2.6521	-2.625	-3.3917	-2.8187	-2.8187	-3.5292	-2.4729	-3.1646	-3.2083	-2.85	-3.3917	-2.8417	-2.8271	-3.3625	-2.6479	-3.3688	388.548	530.206	269.851	427.432	305.885	188.160	429.836	397.927	384.209	505.898	444.871	247.384	272.884	380.877	495.351	175.210	0.00021363	0.00019519	0.000107	203.44	3.4493e-06	2.5424e-06	371.99	80.775	1.9758e-06	1.1623e-06	156.7	55.845	27.942	12.393	1.7066e-06	26.02	7.709e-05	6.9823e-05	1.9836e-05	192.74	7.8805e-07	7.5483e-07	346.96	76.111	7.7511e-07	7.4415e-07	142.3	52.104	26.1	11.553	7.5278e-07	24.029	244.074	274.839	211.556	187.203	299.551	379.706	187.102	192.793	364.520	364.789	190.716	194.514	196.617	201.080	345.826	198.206	-8191	255	
3212.264	1	1	0	0	0.06981	0.12779	0.21315	0.17074	0.26812	0.16726	0.095388	0.15118	0.14442	0.24958	0.1647	0.24714	0.047986	0.21052	0.1974	0.10108	-2.9188	-2.6979	-3.4146	-2.8729	-2.7104	-3.3771	-2.8187	-3.2271	-3.2188	-2.5229	-3.4021	-2.8	-2.6854	-3.2771	-2.7062	-3.1396	197.089	192.200	393.572	186.926	489.751	451.114	482.894	206.140	282.605	480.016	520.399	480.562	350.901	207.840	277.005	300.373	0.00020547	3.0856e-05	7.7148e-05	205.98	4.411e-06	3.3775e-06	371.7	81.587	2.1508e-06	1.265e-06	158.09	56.487	27.513	12.439	3.931e-06	26.335	7.5146e-05	7.0452e-05	1.9754e-05	194.74	7.7304e-07	7.5139e-07	349.04	76.466	7.621e-07	7.5774e-07	143.84	52.661	26.27	11.679	7.6856e-07	24.366	252.905	196.250	291.394	188.015	320.506	341.440	187.341	192.638	327.849	215.183	190.332	194.853	197.110	201.441	349.929	198.754	-8191	255	
3212.336	1	1	0	0	0.25858	0.17859	0.16854	0.12493	0.096001	0.062661	0.16839	0.12772	0.16026	0.22428	0.14976	0.13837	0.15336	0.19093	0.1698	0.17671	-2.9229	-2.5521	-3.3354	-3.1396	-2.7562	-3.4188	-2.9938	-3.1125	-3.4813	-2.5333	-3.4125	-3.3271	-2.6458	-3.4146	-2.7896	-2.9958	534.785	243.450	290.303	232.379	356.225	342.071	179.013	470.521	194.112	473.882	194.094	448.636	394.199	487.349	251.826	369.484	0.00024199	0.00020939	7.1497e-05	207.85	2.0231e-06	3.6166e-07	373.59	80.979	2.8737e-06	1.7521e-06	158.63	56.381	27.994	12.488	1.8692e-06	26.394	7.9676e-05	7.0131e-05	1.9201e-05	196.38	7.7581e-07	7.3441e-07	350.17	76.908	7.6356e-07	7.3229e-07	143.72	52.634	26.318	11.73	7.7617e-07	24.29	254.466	293.189	277.722	188.428	367.346	428.261	186.636	192.880	177.674	270.002	190.493	194.048	196.932	201.058	323.000	198.015	-8191	255	
3212.456	1	1	0	0	0.39955	0.073233	0.086993	0.28359	0.10452	0.04843	0.097246	0.13541	0.13698	0.10958	0.10645	0.43053	0.12672	0.26974	0.23729	0.18282	-3.1958	-2.5125	-3.3708	-3.1125	-2.475	-3.4688	-2.9542	-2.9625	-3.3646	-2.725	-3.0396	-3.3083	-2.4771	-3.3063	-2.8375	-2.6833	292.207	523.193	353.015	512.770	396.489	470.845	225.184	464.365	418.829	323.706	381.534	493.393	448.629	456.485	462.802	327.027	0.00025474	0.00017497	3.3003e-05	205.66	1.9786e-06	2.1782e-06	369.35	82.006	2.9445e-06	5.1079e-07	157.69	55.997	27.835	12.468	1.416e-06	26.317	7.7219e-05	6.8859e-05	1.9384e-05	195.64	7.8789e-07	7.5081e-07	347.73	76.822	7.7121e-07	7.4804e-07	143.4	52.283	26.208	11.716	7.4176e-07	24.225	255.011	302.127	243.882	188.377	211.988	308.641	186.918	192.809	335.626	365.212	190.390	194.713	197.017	200.989	338.084	198.906	-8191	255	
3212.552	1	1	0	0	0.11023	0.20359	0.19446	0.071705	0.1649	0.036847	0.20512	0.22127	0.048299	0.010417	0.071812	0.19347	0.18036	0.1727	0.29463	0.038678	-3.1146	-2.8292	-3.2542	-3.2667	-2.6688	-3.3646	-2.9333	-2.8667	-3.55	-2.7833	-3.1688	-3.4708	-2.5125	-3.2271	-3.1042	-2.6167	497.793	402.869	455.155	418.503	195.586	248.249	494.283	309.714	401.880	326.749	286.475	472.770	394.434	278.935	357.424	433.976	0.00021345	0.00022625	1.7457e-05	207.13	1.2303e-06	2.9671e-06	374.74	82.278	1.5872e-06	4.9573e-06	157.6	56.905	27.877	12.489	2.7015e-06	26.178	7.7987e-05	7.1446e-05	1.92e-05	196.28	7.6787e-07	7.5611e-07	350.92	77.149	7.9113e-07	7.6015e-07	144.16	52.885	26.277	11.697	7.7379e-07	24.369	256.160	194.375	269.539	187.671	339.364	376.720	186.815	192.636	276.695	318.819	190.614	194.730	196.689	201.419	339.472	198.228	-8191	255	
3212.649	1	1	0	0	0.22924	0.24073	0.16012	0.26324	0.086962	0.14212	0.14918	0.26249	0.049294	0.16597	0.094216	0.049234	0.10692	0.24676	0.27953	0.31881	-3.0062	-2.5646	-3.0979	-3.2396	-2.6667	-3.1625	-3.1208	-2.7	-3.3229	-2.9313	-2.7625	-3.4271	-2.6042	-3.1875	-3.3083	-2.5604	424.336	332.455	254.412	420.133	259.180	205.613	413.033	381.712	471.753	196.398	467.760	456.361	200.019	351.739	459.285	193.664	0.00024876	0.00024842	3.0546e-05	207.05	3.4779e-06	2.971e-06	375.51	81.744	2.0475e-06	1.8276e-06	158.12	56.902	27.936	12.624	3.2019e-06	26.331	7.8917e-05	6.8225e-05	1.9838e-05	195.39	7.6243e-07	7.6257e-07	351.3	76.782	7.8513e-07	7.4892e-07	144.05	52.963	26.268	11.782	7.6648e-07	24.394	244.392	294.315	259.132	187.685	255.752	343.344	186.882	192.801	238.632	293.997	190.791	194.886	196.933	201.302	271.901	198.670	-8191	255	
3212.767	1	1	0	0	0.10908	0.11048	0.049495	0.15267	0.19751	0.17845	0.25978	0.13294	0.13057	0.14784	0.14042	0.084569	0.13176	0.13759	0.07907	0.13611	-2.9458	-2.8771	-2.7958	-3.5312	-2.7625	-3.2146	-3.175	-2.4854	-3.35	-2.8229	-2.7375	-3.3146	-2.7479	-3.0146	-3.2687	-2.6562	517.118	485.235	517.692	414.037	340.444	454.048	533.933	222.613	287.106	402.205	316.597	379.967	392.799	183.396	457.343	499.683	0.00025496	0.00011801	2.1725e-05	205.55	5.6147e-07	3.495e-06	372.91	81.381	1.5671e-06	2.43e-06	158.16	56.08	27.932	12.505	2.0904e-06	25.978	7.8735e-05	7.0829e-05	1.9233e-05	196.23	7.7216e-07	7.8255e-07	349.83	76.737	7.9085e-07	7.5414e-07	143.72	52.334	26.097	11.696	7.6717e-07	24.058	251.753	470.442	259.172	188.305	384.303	323.976	187.054	192.291	344.857	292.100	190.509	194.348	196.518	201.464	338.196	198.609	-8191	255	
3212.864	1	1	0	0	0.28031	0.058028	0.10626	0.15083	0.13632	0.1533	0.099532	0.22748	0.16642	0.070112	0.13101	0.1596	0.2345	0.090442	0.11717	0.19163	-3	-3.0458	-2.8146	-3.4208	-2.6875	-3.0812	-3.2542	-2.7479	-3.3458	-3.0229	-2.8667	-3.3146	-2.925	-3.0479	-3.425	-2.5979	436.529	245.313	449.641	439.723	223.407	351.610	512.816	465.077	179.011	460.052	460.058	457.782	217.770	448.918	530.450	222.424	0.00025798	0.00018344	8.7996e-05	204.36	3.0028e-06	1.5321e-06	372.66	80.256	3.4734e-06	2.1213e-06	156.51	55.97	27.759	12.267	1.0656e-06	26.121	7.8691e-05	6.8197e-05	1.9228e-05	194.43	7.5753e-07	7.5156e-07	347.76	75.785	7.8638e-07	7.5491e-07	142.94	51.981	26.001	11.546	7.5538e-07	24	252.072	272.709	202.314	187.722	460.933	336.542	187.096	193.035	320.919	427.647	189.943	194.515	196.850	201.340	468.015	198.754	-8191	255	
3212.935	1	1	0	0	0.21018	0.29971	0.18218	0.29988	0.15776	0.1135	0.12208	0.22684	0.0097773	0.20804	0.013176	0.13505	0.060756	0.10154	0.10517	0.15983	-2.7125	-3.0687	-2.6458	-3.5354	-2.7667	-2.8937	-3.5333	-2.5375	-3.275	-3.2542	-2.6771	-3.2687	-2.7333	-2.7542	-3.5604	-2.6271	241.032	500.435	431.386	342.991	320.778	509.642	433.868	382.961	270.010	442.917	185.163	507.219	273.737	280.043	463.124	343.900	0.00023055	7.7185e-05	0.00011167	203.7	2.0506e-06	2.519e-06	369.69	81.075	1.6694e-06	2.7257e-06	156.34	55.471	27.57	12.317	9.1305e-07	26.028	7.9557e-05	6.9461e-05	1.8922e-05	193.96	7.7495e-07	7.6682e-07	345.71	75.953	7.4033e-07	7.5255e-07	143.17	51.93	25.923	11.517	7.6125e-07	24.013	251.599	481.380	270.723	187.825	361.479	200.710	186.712	192.488	202.499	370.916	190.629	194.833	196.627	201.261	524.216	198.189	-8191	255	
3213.031	1	1	0	0	0.19763	0.21399	0.11334	0.13367	0.20571	0.24795	0.073159	0.20965	0.087138	0.16017	0.32348	0.045774	0.0942	0.19031	0.11036	0.10176	-2.8708	-3.3396	-2.5604	-3.2938	-2.9021	-2.8854	-3.4354	-2.8417	-2.9958	-3.4188	-2.6917	-3.4521	-2.875	-2.7771	-3.4854	-2.6958	481.261	426.012	180.769	235.154	424.320	309.880	307.719	188.379	185.028	499.668	438.449	296.506	194.726	479.806	444.277	299.862	0.00021633	0.00029731	7.9881e-05	205.07	2.7952e-06	2.6199e-06	372.12	81.079	1.4054e-06	1.853e-07	157.61	56.361	27.283	12.172	3.0928e-06	25.924	7.8393e-05	6.7802e-05	1.9494e-05	194.43	7.7348e-07	7.5106e-07	348.26	75.891	7.9041e-07	7.5297e-07	143.13	52.39	25.997	11.528	7.5541e-07	24	252.859	258.505	208.202	188.509	323.848	308.093	186.681	192.668	326.028	402.573	190.368	194.273	196.535	201.435	321.967	198.439	-8191	255	
3213.128	1	1	0	0	0.17933	0.26274	0.15165	0.12021	0.2204	0.12288	0.10904	0.065512	0.0075046	0.3296	0.27227	0.096473	0.027498	0.093473	0.33421	0.093813	-2.5833	-3.3812	-2.6437	-3.2083	-3.1063	-2.7417	-3.5062	-2.8833	-2.8021	-3.3667	-2.6979	-3.3396	-3.1625	-2.5208	-3.5896	-2.9396	401.352	372.452	491.660	217.210	320.876	310.075	447.019	239.354	237.159	501.663	446.272	227.165	297.905	485.946	492.890	230.522	0.00023968	0.00015373	4.3761e-05	203.73	2.2798e-06	2.6815e-06	366.98	80.006	1.5179e-06	2.7736e-06	156.24	55.375	27.339	12.117	2.1753e-06	25.63	7.9722e-05	6.9292e-05	1.9467e-05	193.93	7.5408e-07	7.6879e-07	344.67	75.247	7.8091e-07	7.3783e-07	142.47	51.695	25.748	11.392	7.4951e-07	23.754	257.097	399.495	340.575	187.837	354.994	371.148	186.988	192.671	471.266	326.415	190.565	195.091	196.592	201.220	305.038	198.770	-8191	255	
3213.248	1	1	0	0	0.1619	0.039815	0.24369	0.076333	0.18079	0.091051	0.20348	0.13956	0.09262	0.18641	0.15607	0.06152	0.10456	0.16651	0.16965	0.17384	-2.5667	-3.425	-2.6125	-3.2396	-3.0646	-2.6188	-3.4208	-2.6708	-2.8229	-3.5438	-2.5604	-3.0375	-3.4146	-2.4875	-3.4875	-3.0354	277.574	385.600	524.265	275.911	409.940	258.068	422.798	425.973	310.725	476.275	341.233	251.369	277.940	256.559	396.691	435.539	0.00024309	9.995e-05	0.00011108	203.22	3.2575e-06	2.591e-06	365.77	79.667	1.7721e-06	3.4546e-06	153.76	55.488	26.892	12.08	7.6182e-07	25.739	7.7887e-05	6.8169e-05	1.9279e-05	192.36	7.5665e-07	7.5491e-07	343.57	75.048	7.5956e-07	7.5865e-07	140.57	51.439	25.459	11.326	7.7188e-07	23.797	240.900	261.365	330.462	187.674	337.674	341.044	186.870	192.684	359.942	340.614	190.051	194.882	197.138	201.198	290.064	197.984	-8191	255	
3213.344	1	1	0	0	0.34056	0.22162	0.1944	0.15339	0.066426	0.19725	0.10856	0.23772	0.049059	0.096501	0.29436	0.20564	0.13053	0.112	0.21404	0.1838	-2.3625	-3.4062	-2.4938	-3.1063	-3.4938	-2.6021	-3.4896	-3.0958	-2.6104	-3.3688	-2.6188	-2.8979	-3.5417	-2.5708	-3.2188	-3.0542	512.410	263.129	348.920	468.180	526.170	508.405	307.955	433.888	519.758	457.045	466.715	200.970	502.790	336.654	524.136	176.795	0.00020743	0.00017562	2.2073e-05	202.39	2.4469e-06	2.6695e-06	366.6	79.788	3.0828e-06	1.5262e-06	156.14	56.057	27.295	12.035	2.1332e-06	25.888	7.7117e-05	6.7438e-05	1.9385e-05	191.68	7.5162e-07	7.5264e-07	342.97	75.16	7.6434e-07	7.3819e-07	141.68	51.868	25.795	11.357	8.079e-07	23.924	258.671	335.609	317.459	187.856	321.128	356.724	186.873	192.590	226.840	339.422	190.384	194.476	196.938	201.398	419.796	198.498	-8191	255	
3213.440	1	1	0	0	0.2061	0.17891	0.15718	0.11024	0.071538	0.069288	0.26647	0.1046	0.16701	0.045689	0.12532	0.37848	0.12135	0.15484	0.037793	0.14828	-2.1562	-3.4792	-2.7083	-2.6792	-3.4271	-2.6688	-3.325	-3.1354	-2.4896	-3.4562	-2.7875	-2.8312	-3.5042	-2.5583	-3.1396	-3.3896	193.076	492.298	480.945	370.497	439.003	496.070	519.533	523.346	469.212	521.024	352.190	411.045	467.782	256.006	359.166	315.870	0.00018664	0.0001154	5.7777e-05	204.92	9.3643e-07	3.2709e-06	368.12	79.003	8.7724e-07	2.776e-06	155.51	55.222	27.481	12.009	1.4842e-06	25.516	7.8412e-05	6.9565e-05	1.9633e-05	194.17	7.7238e-07	7.6596e-07	345.86	74.959	7.9873e-07	7.4019e-07	142	51.736	25.704	11.334	7.7351e-07	23.728	258.090	235.156	322.503	187.199	270.657	269.256	187.323	192.871	233.559	226.898	190.164	195.015	197.471	200.917	332.612	198.131	-8191	255	
3213.561	1	1	0	0	0.16161	0.32303	0.12265	0.18095	0.2394	0.26434	0.29081	0.12886	0.13054	0.13985	0.062065	0.21521	0.14053	0.062049	0.1681	0.034454	-2.1771	-3.5167	-2.9167	-2.9271	-3.4958	-2.6333	-3.0979	-3.1875	-2.5708	-3.4771	-3.0292	-2.7188	-3.5583	-2.5771	-2.975	-3.2542	456.855	519.904	187.384	413.267	411.607	228.462	335.563	222.802	501.678	514.883	267.358	326.671	331.238	249.076	427.685	478.867	0.00022494	0.00029311	6.2926e-05	206.19	6.0561e-07	2.7668e-06	365.36	78.75	1.826e-06	4.5703e-07	152.8	55.171	27.022	11.916	2.2028e-06	25.167	7.9557e-05	6.8081e-05	1.9154e-05	193.32	7.5615e-07	7.674e-07	343.54	74.422	7.6268e-07	7.472e-07	140.3	51.251	25.353	11.209	7.5366e-07	23.4	249.731	258.875	251.380	187.298	311.921	328.108	187.424	193.270	397.676	512.910	189.975	194.584	196.793	201.889	348.270	198.842	-8191	255	
3213.633	1	1	0	0	0.065351	0.37101	0.2168	0.25138	0.15127	0.20703	0.26908	0.099776	0.074303	0.052723	0.21953	0.16321	0.11266	0.22237	0.057417	0.20161	-2.1833	-3.3021	-2.9542	-2.4979	-3.3646	-2.7729	-3.1396	-3.0667	-2.5375	-3.2333	-3.1458	-2.5771	-3.2229	-2.8083	-2.8458	-3.4375	296.909	380.355	196.126	510.419	375.888	275.529	351.776	534.644	423.496	460.337	511.676	421.778	333.954	525.883	330.470	435.388	0.00017273	0.00023934	7.032e-05	201.94	2.3975e-06	2.556e-06	362.36	78.354	3.0826e-06	2.6687e-06	151.9	55.083	27	11.871	7.329e-07	25.317	7.7984e-05	6.9585e-05	1.8615e-05	191.61	7.6204e-07	7.3713e-07	341.06	74.019	7.5743e-07	7.6309e-07	139.78	51.044	25.497	11.185	7.6355e-07	23.397	247.214	263.778	294.348	187.902	232.414	337.027	187.121	192.787	377.649	334.118	190.313	195.033	196.958	201.142	288.941	198.943	-8191	255	
3213.729	1	1	0	0	0.091097	0.11273	0.14071	0.32822	0.19801	0.11735	0.028375	0.082969	0.15573	0.24295	0.24783	0.11576	0.12546	0.14547	0.0977	0.18663	-2.1146	-3.2771	-3	-2.7375	-3.3937	-2.9688	-2.8458	-3.4083	-2.5667	-3.0729	-3.2229	-2.6458	-3.4062	-2.8937	-2.7021	-3.5417	234.578	264.825	470.486	452.002	532.414	177.879	466.575	456.429	527.094	416.758	342.355	384.793	510.600	449.678	194.458	180.565	0.00020938	0.00025468	5.16e-05	203.63	1.6768e-06	2.5407e-06	366.84	79.837	2.1037e-06	1.6112e-06	152.91	54.818	26.837	11.887	2.5563e-06	25.48	7.9151e-05	6.8786e-05	1.9304e-05	192.22	7.3171e-07	7.5761e-07	342.69	74.54	7.6688e-07	7.5139e-07	140.19	51.212	25.358	11.184	7.5568e-07	23.601	266.541	335.084	329.093	187.767	298.416	394.314	187.055	192.757	388.997	371.139	190.584	194.698	196.672	201.625	415.221	199.195	-8191	255	
3213.848	1	1	0	0	0.15976	0.14995	0.050064	0.044676	0.084267	0.17497	0.079657	0.070721	0.16376	0.076626	0.29619	0.08704	0.025608	0.15422	0.12428	0.11984	-2.375	-3.2438	-3.3896	-2.3563	-3.4125	-2.8625	-2.8396	-3.4313	-2.5125	-2.9542	-3.2625	-2.6792	-3.3771	-3.1271	-2.5542	-3.5604	216.412	510.005	477.512	345.344	402.024	452.086	294.599	427.404	344.165	239.624	485.533	373.964	318.559	446.656	445.129	289.099	0.00025727	0.00014303	4.6686e-05	202.14	3.6946e-06	6.4294e-07	362.72	79.466	2.392e-06	1.642e-06	153.85	54.969	27.014	11.937	1.3839e-06	25.235	8.0434e-05	7.1314e-05	1.9455e-05	192.33	7.6538e-07	7.6021e-07	340.96	74.466	7.6359e-07	7.5494e-07	140.36	51.156	25.43	11.182	7.6662e-07	23.486	254.673	478.382	283.088	188.355	377.243	402.074	187.265	193.152	271.544	252.945	190.608	194.884	197.069	200.994	251.610	198.469	-8191	255	
3213.944	1	1	0	0	0.11455	0.1327	0.072813	0.31293	0.22978	0.13713	0.12547	0.18087	0.11476	0.17527	0.060371	0.059357	0.31346	0.26366	0.017998	0.15192	-2.25	-3.0312	-3.4042	-2.5271	-3.1042	-3.175	-2.7479	-3.4813	-2.8167	-2.8688	-3.5	-2.7521	-3.225	-3.0792	-2.5479	-3.3271	384.281	261.332	457.696	463.854	518.127	191.159	243.456	236.750	496.443	322.406	465.201	441.866	324.263	224.063	218.714	229.811	0.00018167	6.0225e-05	7.5334e-05	202.88	6.5727e-07	2.9949e-06	363.55	78.649	4.7307e-06	1.3811e-06	150.87	54.069	26.798	11.682	8.6765e-07	24.872	7.5875e-05	6.8834e-05	1.9593e-05	190.96	7.5244e-07	7.3957e-07	340.05	73.728	7.5591e-07	7.2938e-07	139.17	50.685	25.111	11.008	7.6072e-07	23.168	251.404	256.909	252.339	187.802	404.326	285.364	187.286	193.529	334.279	397.416	191.092	194.972	196.714	201.512	259.631	199.198	-8191	255	
3214.040	1	1	0	0	0.48181	0.16573	0.10064	0.019819	0.13919	0.2284	0.40542	0.27465	0.15044	0.094982	0.087995	0.31513	0.11622	0.13202	0.23342	0.07851	-2.4146	-2.7792	-3.3646	-2.5771	-2.9688	-3.1854	-2.6604	-3.2	-2.7979	-2.6792	-3.575	-2.7375	-2.9938	-3.2458	-2.6146	-3.4729	307.890	177.236	296.217	398.854	402.868	490.641	476.022	423.552	355.240	372.806	405.667	532.037	184.047	469.440	389.887	497.080	0.00022061	0.00017666	2.5721e-05	199.93	5.2259e-07	1.0987e-06	360.59	76.943	2.5336e-06	2.6367e-06	151.66	53.63	26.188	11.57	5.8132e-07	25.101	7.7292e-05	6.7087e-05	1.8324e-05	189.31	7.603e-07	7.4015e-07	336.42	73.019	7.4889e-07	7.2843e-07	138.48	50.118	24.897	10.949	7.5444e-07	23.145	261.956	290.403	364.700	188.211	467.085	311.639	186.717	192.813	305.633	190.564	191.322	194.787	197.422	200.839	356.854	198.789	-8191	255	
3214.161	1	1	0	0	0.22216	0.11825	0.070193	0.064494	0.28193	0.070994	0.12847	0.047639	0.22199	0.14044	0.084302	0.11757	0.23327	0.094608	0.067639	0.17008	-2.6271	-2.6521	-3.4292	-2.8271	-3.1042	-3.3021	-2.6208	-3.2708	-2.8708	-2.5583	-3.4333	-2.775	-2.9354	-3.2979	-2.7812	-3.2417	462.825	484.395	515.190	301.431	255.828	520.364	361.214	276.782	380.712	431.693	259.938	333.355	297.313	425.785	340.766	488.076	0.00020039	0.00023265	4.2994e-05	200.32	1.3608e-07	2.2954e-06	359.9	77.339	8.6601e-07	1.7065e-06	151	54.256	26.196	11.744	2.8388e-06	24.896	7.6738e-05	6.9175e-05	1.8708e-05	189.24	7.4105e-07	7.3399e-07	337.01	72.642	7.497e-07	7.3836e-07	138.45	50.331	24.878	11.03	7.4389e-07	23.154	254.692	343.714	256.309	188.406	310.412	338.181	186.532	192.581	402.549	457.159	190.319	195.002	196.730	201.339	193.169	198.328	-8191	255	
3214.232	1	1	0	0	0.021142	0.19913	0.16648	0.16644	0.15836	0.14952	0.15297	0.12694	0.2785	0.25179	0.21179	0.21174	0.10867	0.14951	0.15507	0.18955	-2.5833	-2.7812	-3.1958	-2.8812	-2.9208	-3.4146	-2.7146	-3.2229	-3.2104	-2.5312	-3.4708	-2.8792	-2.8979	-3.3333	-2.525	-3.0854	337.057	412.035	206.257	531.578	427.191	288.054	516.617	224.688	205.314	529.480	234.440	365.529	428.899	367.430	180.451	500.983	0.00022988	7.7836e-05	2.8435e-05	199.95	2.3969e-06	3.3119e-06	360.01	77.831	6.0169e-07	3.401e-06	153.46	54.32	26.755	11.711	3.548e-06	25.137	7.5389e-05	6.5871e-05	1.913e-05	188.54	7.4258e-07	7.381e-07	336.86	73.161	7.3337e-07	7.5228e-07	139.06	50.505	25.054	11.028	7.4356e-07	23.259	255.398	433.147	341.715	188.003	299.901	307.342	186.907	193.301	309.880	341.906	190.706	195.124	197.477	201.415	349.879	198.613	-8191	255	
3214.329	1	1	0	0	0.038295	0.11074	0.15812	0.27962	0.18873	0.07212	0.038316	0.1354	0.077783	0.14371	0.10053	0.32284	0.044538	0.20538	0.11306	0.11796	-2.875	-2.7396	-3.475	-2.95	-2.6437	-3.5354	-2.8729	-2.8688	-3.2417	-2.6667	-3.4042	-2.9792	-2.7	-3.3229	-2.6333	-3.0479	507.329	189.097	293.698	450.208	196.583	432.377	410.142	382.986	529.134	245.829	395.399	480.734	444.153	333.772	442.100	379.156	0.000201	0.00031974	4.5906e-05	198.57	1.5936e-06	1.0006e-06	361.62	77.708	1.6058e-06	1.3816e-06	150.67	53.485	26.631	11.631	1.6053e-06	24.834	7.5008e-05	6.7282e-05	1.8968e-05	188.54	7.4987e-07	7.2e-07	336.08	72.824	7.3597e-07	7.192e-07	137.9	50.135	24.948	10.957	7.5917e-07	23.029	249.511	211.839	296.446	188.332	407.217	291.883	186.990	193.192	318.189	316.946	190.461	194.724	197.037	200.979	348.959	199.259	-8191	255	
3214.425	1	1	0	0	0.12363	0.37191	0.21078	0.13955	0.11876	0.22198	0.30873	0.041038	0.10955	0.11779	0.098295	0.29856	0.11071	0.11268	0.29733	0.26257	-3.1083	-2.5167	-3.2812	-2.9979	-2.7021	-3.4437	-2.8563	-2.8937	-3.2938	-2.5104	-3.2125	-3.2604	-2.7354	-3.3479	-2.6833	-2.7271	348.244	517.928	256.297	253.924	486.366	290.376	454.381	351.875	189.647	370.767	516.602	471.929	370.239	282.352	244.256	513.668	0.00021979	6.824e-05	5.052e-05	199.61	9.5933e-07	3.5242e-06	360.55	76.629	1.4479e-06	4.4599e-06	150.75	53.706	25.987	11.535	1.6867e-06	24.863	7.4155e-05	6.7006e-05	1.8388e-05	188.31	7.4164e-07	7.1201e-07	334.11	72.203	7.1696e-07	7.1787e-07	137.67	50.09	24.61	10.902	7.4198e-07	22.998	249.460	499.048	233.122	187.975	316.672	318.669	187.373	193.281	316.265	318.727	191.186	194.927	197.134	201.462	274.106	198.924	-8191	255	
3214.545	1	1	0	0	0.17432	0.17535	0.092838	0.16685	0.25798	0.046416	0.26396	0.18017	0.10455	0.053204	0.040537	0.052134	0.021668	0.086857	0.11089	0.16894	-2.9938	-2.4917	-3.0146	-3.2562	-2.4729	-3.5187	-2.9437	-2.7521	-3.5563	-2.7417	-3.2396	-3.3563	-2.5812	-3.3708	-3.175	-2.6813	307.084	464.470	464.616	261.204	402.103	315.804	403.004	306.596	399.946	337.342	339.344	187.113	423.038	279.265	359.080	471.404	0.00019628	0.00041362	6.1333e-05	196.19	1.4163e-06	5.1073e-06	357.99	76.369	1.0238e-06	1.5457e-06	149.43	53.801	26.436	11.59	3.703e-06	25.025	7.7741e-05	6.7191e-05	1.8816e-05	187.09	7.6298e-07	7.4548e-07	334.35	72.467	7.4917e-07	7.4582e-07	137.69	50.182	24.825	10.902	7.4068e-07	23.14	252.230	258.884	344.616	187.941	394.454	243.537	186.824	192.236	204.857	201.051	191.081	194.142	196.901	202.215	376.291	198.773	-8191	255	
3214.640	1	1	0	0	0.28799	0.20965	0.084582	0.055361	0.36679	0.201	0.18032	0.30177	0.10377	0.15443	0.19535	0.037415	0.28589	0.19198	0.081102	0.04459	-3.0187	-2.6479	-2.9021	-3.3667	-2.6333	-3.4437	-3.0292	-2.5958	-3.4167	-2.7313	-2.8125	-3.2833	-2.7167	-3.3312	-3.4	-2.6458	250.793	355.789	458.704	447.965	249.615	518.386	356.175	201.839	192.911	424.456	186.998	516.464	523.459	409.340	179.990	199.323	0.00020937	0.00036457	5.2507e-05	200.02	4.5186e-06	1.7964e-06	360.62	77.839	3.7959e-06	2.3262e-06	150.24	53.844	26.209	11.637	1.8996e-06	25.093	7.7481e-05	6.8172e-05	1.9767e-05	188.44	7.6038e-07	7.4168e-07	336.62	72.958	7.3635e-07	7.2245e-07	137.67	50.279	24.788	10.884	7.3877e-07	23.082	251.230	221.810	279.378	187.199	335.507	292.338	186.494	192.761	281.304	248.687	191.189	194.694	196.710	201.611	181.620	198.299	-8191	255	
3214.736	1	1	0	0	0.13332	0.1611	0.11282	0.10742	0.042039	0.22112	0.14732	0.096216	0.15713	0.22003	0.20187	0.1097	0.021414	0.1214	0.11699	0.21179	-3.1083	-2.7271	-2.8271	-3.3896	-2.5229	-3.1104	-3.1437	-2.6375	-3.4125	-2.9021	-2.9333	-3.4833	-2.3958	-3.2	-3.2938	-2.5417	468.596	395.168	402.023	511.066	440.950	316.270	361.462	198.243	366.479	477.969	329.643	383.701	462.089	356.837	179.963	512.714	0.00019584	0.00029558	2.8782e-05	199.94	4.7778e-06	6.0899e-07	354.98	76.296	1.7621e-06	3.9994e-06	148.49	53.034	25.844	11.384	2.4198e-06	24.491	7.5812e-05	6.7699e-05	1.9334e-05	188.71	7.543e-07	7.5522e-07	333.53	71.866	7.3453e-07	7.492e-07	136.42	49.665	24.398	10.74	7.1695e-07	22.71	250.395	345.202	397.250	187.531	274.924	194.832	186.483	192.947	241.036	321.043	190.800	194.472	197.167	201.400	346.633	198.947	-8191	255	
3214.832	1	1	0	0	0.27083	0.1512	0.08563	0.22398	0.072414	0.20173	0.034637	0.095377	0.2827	0.092213	0.12978	0.10171	0.16647	0.05766	0.095178	0.17001	-3.1333	-2.8396	-2.7021	-3.4062	-2.6208	-3.1229	-3.55	-2.4917	-3.4771	-2.9292	-2.7271	-3.5438	-2.7146	-3.0167	-3.3625	-2.5667	299.788	460.585	469.355	424.374	300.139	268.612	257.784	423.540	485.713	284.029	383.924	507.577	304.650	404.468	346.061	179.080	0.00025168	0.00024791	8.4671e-05	196.99	7.1152e-07	2.8536e-06	355.32	75.43	3.8022e-07	3.6795e-09	149.2	53.154	25.866	11.5	9.13e-07	24.615	7.5972e-05	6.7264e-05	1.9724e-05	186.63	7.6591e-07	7.4712e-07	331.75	71.384	7.4285e-07	7.3423e-07	136.31	49.561	24.398	10.72	7.5787e-07	22.637	252.009	258.321	240.482	187.325	331.709	341.506	186.357	192.996	361.114	401.712	190.638	194.962	197.049	201.376	356.005	198.413	-8191	255	
3214.928	1	1	0	0	0.227	0.27972	0.11717	0.12854	0.13478	0.06961	0.058379	0.11552	0.13675	0.11179	0.022972	0.10078	0.11329	0.18321	0.14196	0.1051	-2.9125	-3.1208	-2.7333	-3.4479	-2.6958	-2.9375	-3.4396	-2.475	-3.1479	-3.0292	-2.6937	-3.3896	-2.9125	-2.9083	-3.3688	-2.6875	408.610	323.376	375.388	186.018	419.879	524.800	349.839	389.856	489.028	246.918	423.665	369.124	347.299	492.557	299.198	299.782	0.00018791	0.00018951	7.1049e-05	199.07	3.1698e-06	2.2277e-06	350.51	75.692	3.1504e-06	2.0039e-06	149.1	52.902	26.191	11.327	3.1392e-06	24.714	7.6388e-05	6.7777e-05	1.9065e-05	187.77	7.4877e-07	7.3918e-07	332.7	71.565	7.5362e-07	7.474e-07	135.83	49.486	24.306	10.605	7.4057e-07	22.73	250.135	297.008	198.156	187.305	287.490	344.820	186.663	193.144	295.781	351.393	190.932	194.674	196.391	201.031	347.396	198.505	-8191	255	
3215.024	1	1	0	0	0.091705	0.18063	0.11853	0.14025	0.11841	0.24382	0.11042	0.23809	0.27285	0.12391	0.080932	0.25058	0.11014	0.063788	0.083809	0.20629	-2.9229	-3.0896	-2.5667	-3.3125	-2.6292	-2.8604	-3.3708	-2.625	-2.9833	-3.2125	-2.6312	-3.2833	-3.0208	-2.6458	-3.3937	-2.9062	335.106	284.739	364.044	468.258	514.401	312.189	412.840	180.137	386.850	436.844	461.161	456.264	469.866	527.502	416.404	264.347	0.00020579	0.00019398	6.2323e-05	199	1.4662e-06	2.0957e-06	352.44	75.895	6.4644e-07	2.8598e-06	149.85	53.087	25.763	11.286	1.6082e-06	24.209	7.4531e-05	6.6662e-05	1.8943e-05	188.12	7.8576e-07	7.3849e-07	332.4	71.354	7.5337e-07	7.4654e-07	136.75	49.528	24.24	10.598	7.3511e-07	22.52	249.964	300.782	319.501	187.011	387.277	279.590	187.042	192.755	283.218	258.469	190.510	194.752	196.303	200.873	312.200	198.555	-8191	255	
3215.120	1	1	0	0	0.068942	0.02032	0.11121	0.12764	0.092857	0.19287	0.17807	0.37768	0.1003	0.078185	0.14418	0.17066	0.10944	0.15017	0.10898	0.31357	-2.6896	-3.375	-2.4688	-3.2896	-2.9375	-2.7333	-3.5771	-2.8167	-3.0333	-3.4479	-2.5938	-3.2583	-2.9437	-2.4917	-3.4333	-2.8208	270.922	472.059	514.755	445.288	350.399	303.962	385.612	435.308	241.544	461.706	224.089	226.602	326.364	220.735	502.247	525.226	0.00023779	0.00017826	9.7202e-05	198.81	2.8317e-06	1.4644e-06	354.94	75.088	2.3432e-06	1.3156e-06	147.47	52.153	25.448	11.125	1.864e-06	23.923	7.7161e-05	6.911e-05	1.9479e-05	187.13	7.3926e-07	7.3516e-07	331.46	70.695	7.5243e-07	7.4743e-07	135.06	48.797	23.976	10.465	7.5153e-07	22.192	248.166	497.004	274.081	187.762	307.768	235.467	186.242	192.780	293.316	214.673	190.092	195.129	196.497	201.458	270.375	198.572	-8191	255	
3215.241	1	1	0	0	0.15229	0.089513	0.062229	0.11431	0.24008	0.27876	0.1192	0.34897	0.22842	0.12762	0.25322	0.085577	0.10078	0.072318	0.27419	0.084473	-2.5938	-3.3688	-2.5771	-3.1896	-3.1708	-2.6188	-3.4729	-2.8458	-2.8688	-3.5104	-2.7458	-3.2062	-3.25	-2.5167	-3.4479	-2.9625	307.435	272.457	300.221	401.517	238.201	183.897	520.603	488.307	455.136	482.404	425.763	222.064	333.493	402.559	374.096	381.686	0.00019027	0.0002204	4.0501e-05	196.16	2.5236e-06	1.5632e-06	349.58	74.84	1.5003e-06	1.8655e-06	147.46	51.763	25.193	11.076	2.4976e-06	23.565	7.5438e-05	6.7345e-05	1.8801e-05	185.68	7.637e-07	7.3915e-07	328.49	70.363	7.3086e-07	7.423e-07	134.46	48.409	23.867	10.421	7.4118e-07	22.002	263.746	221.871	517.049	188.364	298.510	299.235	187.220	192.799	227.014	430.906	190.345	195.067	197.328	201.618	185.423	198.416	-8191	255	
3215.337	1	1	0	0	0.056277	0.2829	0.090944	0.25766	0.062678	0.25571	0.18709	0.12563	0.21713	0.076105	0.18969	0.080476	0.1693	0.24517	0.066445	0.05729	-2.4042	-3.3396	-2.6437	-3.0687	-3.3563	-2.7292	-3.4417	-3.0604	-2.8021	-3.5479	-2.7375	-3.0312	-3.3917	-2.5021	-3.4542	-3.1958	361.322	410.143	279.958	323.997	527.180	488.287	505.970	214.427	177.106	462.867	437.496	451.333	522.360	445.190	194.197	464.262	0.00024768	0.00017295	4.3527e-05	197.02	3.1783e-06	1.4095e-06	351.27	74.757	1.7983e-06	1.3961e-06	146.8	52.226	25.396	11.009	1.4784e-06	23.846	7.7766e-05	6.9158e-05	1.9404e-05	186.24	7.6751e-07	7.581e-07	328.17	70.133	7.8e-07	7.507e-07	134.42	48.438	23.813	10.354	7.6991e-07	22.016	252.518	179.898	291.574	188.604	365.805	221.262	187.856	193.344	355.236	468.114	189.890	194.641	197.449	201.426	329.332	198.237	-8191	255	
3215.433	1	1	0	0	0.055095	0.25859	0.16075	0.098628	0.14145	0.16612	0.14037	0.17187	0.18038	0.12863	0.20266	0.067247	0.14426	0.057031	0.13563	0.19063	-2.275	-3.3875	-2.6437	-3.0646	-3.3187	-2.7292	-3.3417	-2.9104	-2.5667	-3.3958	-2.8396	-2.7938	-3.4417	-2.5792	-3.1042	-3.0771	189.400	321.330	300.099	236.103	320.179	278.521	462.034	359.681	201.674	356.658	350.591	433.042	236.042	297.378	419.390	498.487	0.00022046	0.00029989	3.7462e-05	194.39	2.2785e-06	1.3358e-06	349.14	74.365	8.0131e-07	1.8499e-06	145.81	52.089	24.999	11.029	1.5225e-06	23.687	7.796e-05	6.5906e-05	1.9124e-05	184.22	7.5864e-07	7.8236e-07	329.09	70.124	7.6707e-07	7.4776e-07	133.93	48.572	23.674	10.317	7.5369e-07	22.008	248.219	355.004	237.949	188.212	255.982	208.669	187.012	193.014	411.990	288.769	190.968	194.960	197.169	201.839	349.608	198.381	-8191	255	
3215.530	1	1	0	0	0.24313	0.061454	0.12788	0.05264	0.24378	0.097227	0.11623	0.080009	0.20189	0.20493	0.21866	0.12763	0.056644	0.012605	0.10364	0.052228	-2.1896	-3.5833	-2.6667	-2.7562	-3.3063	-2.5375	-3.25	-3.1729	-2.6792	-3.5458	-2.8396	-2.7896	-3.4417	-2.6542	-3.0083	-3.2646	462.835	512.197	320.585	417.070	315.586	266.640	177.648	331.307	302.181	412.373	192.921	313.301	191.394	368.199	434.418	494.354	0.00020155	0.00010531	9.2771e-05	197.88	3.817e-06	1.6988e-06	346.86	74.769	2.1699e-06	2.5148e-07	145.16	51.332	25.075	10.84	2.1595e-06	23.468	7.737e-05	6.8943e-05	1.9148e-05	184.16	7.6419e-07	7.7084e-07	326.65	70.232	7.7403e-07	7.6766e-07	133	47.888	23.451	10.18	7.5397e-07	21.742	247.248	187.480	533.177	187.647	437.878	214.458	187.086	193.542	322.564	492.447	190.625	195.457	197.378	202.394	400.951	199.049	-8191	255	
3215.626	1	1	0	0	0.1535	0.14227	0.016657	0.14581	0.1456	0.18202	0.16748	0.3477	0.25166	0.1726	0.26698	0.23485	0.17263	0.1538	0.080382	0.1217	-2.0729	-3.3417	-2.7125	-2.6083	-3.4938	-2.4854	-3.0979	-3.4708	-2.6125	-3.4	-2.9333	-2.6125	-3.3812	-2.7396	-3.0646	-3.3292	487.255	408.528	197.830	392.807	178.952	281.817	519.698	508.422	379.249	237.055	436.543	322.334	339.929	265.227	530.401	497.548	0.00021332	0.00019378	6.0438e-05	194.26	2.8437e-06	2.4067e-06	344.86	72.814	2.4993e-06	2.2204e-06	144.07	50.426	24.593	10.689	4.0439e-06	23.366	7.596e-05	7.0227e-05	1.9027e-05	183.11	7.611e-07	7.6132e-07	323.42	68.685	7.8279e-07	7.6306e-07	132.05	47.227	23.218	10.077	7.922e-07	21.521	264.054	262.311	367.362	188.397	426.785	292.155	187.800	193.366	220.062	244.520	191.442	195.858	197.061	201.969	304.971	199.481	-8191	255	
3215.722	1	1	0	0	0.12191	0.094907	0.14415	0.16401	0.10648	0.11033	0.11076	0.11435	0.080047	0.20918	0.19447	0.056379	0.26067	0.18938	0.19755	0.27248	-2.0438	-3.2417	-3.0417	-2.6875	-3.4417	-2.7583	-3.0667	-3.4146	-2.5479	-3.2167	-3.2125	-2.3333	-3.4042	-2.7146	-3.0833	-3.5125	260.737	240.858	494.523	310.125	304.299	193.396	201.531	462.509	429.556	494.107	523.392	246.492	182.175	371.240	300.753	496.051	0.0001618	0.00013306	5.7017e-05	193.34	3.9592e-06	2.0202e-06	343.07	72.521	2.6484e-07	2.1057e-06	140.21	50.854	24.557	10.565	6.7503e-07	23.178	7.9804e-05	7.053e-05	1.9593e-05	181.59	7.7077e-07	7.8741e-07	321.21	68.342	7.7033e-07	7.7199e-07	129.99	47.061	23.047	9.9227	7.9533e-07	21.303	262.745	225.454	211.559	188.488	401.563	305.315	187.971	193.617	334.384	278.045	190.635	195.626	197.988	201.234	382.261	199.030	-8191	255	
3215.841	1	1	0	0	0.08535	0.24767	0.17409	0.12351	0.067972	0.13352	0.051575	0.12262	0.088743	0.20375	0.15594	0.22864	0.22449	0.13828	0.026222	0.23816	-2.3125	-3.1083	-3.2125	-2.6396	-3.375	-2.8042	-2.8333	-3.4313	-2.5708	-3.2021	-3.1312	-2.5896	-3.4354	-2.9833	-2.6375	-3.55	379.617	353.488	363.018	357.006	310.853	251.149	249.325	364.281	371.518	423.714	374.774	378.431	505.435	443.117	414.536	303.925	0.00020348	8.7521e-05	6.9584e-05	188.85	2.0029e-06	3.5016e-06	341.76	71.553	6.0484e-07	2.5128e-06	143.21	50.191	23.941	10.462	1.9412e-07	22.975	7.8879e-05	6.9982e-05	1.9561e-05	179.8	7.7152e-07	7.7958e-07	319.22	67.602	7.7442e-07	7.8194e-07	130.54	46.868	22.788	9.9062	7.9668e-07	21.25	250.734	267.562	484.142	187.957	295.210	313.253	188.272	193.628	535.575	284.005	190.636	195.463	197.652	202.023	465.252	199.228	-8191	255	
3215.937	1	1	0	0	0.083602	0.076611	0.097416	0.07378	0.13464	0.14384	0.035171	0.14726	0.02633	0.19807	0.24115	0.11376	0.11833	0.055931	0.12977	0.19846	-2.525	-3.0563	-3.2167	-2.5563	-3.3333	-3.1083	-2.6625	-3.4458	-2.7562	-2.8104	-3.3583	-2.6229	-3.2104	-3.0792	-2.4625	-3.4437	249.509	322.863	407.897	371.907	482.639	348.524	285.972	326.043	303.565	275.052	478.743	518.546	363.751	394.993	318.557	362.170	0.00023996	0.00018821	3.6753e-05	191.44	2.7814e-06	1.8972e-06	337.41	71.671	1.5256e-06	1.9072e-06	138.53	49.324	23.863	10.301	2.4292e-06	22.571	7.9425e-05	7.0558e-05	1.9582e-05	179.35	7.8106e-07	7.8477e-07	316.78	67.501	7.6939e-07	7.7435e-07	128.22	46.152	22.577	9.7406	7.8722e-07	20.942	254.348	333.181	399.560	188.589	337.503	324.858	187.214	192.881	261.561	341.093	190.088	195.035	196.879	201.889	221.375	198.706	-8191	255	
3216.033	1	1	0	0	0.12278	0.12895	0.12275	0.28138	0.091461	0.12952	0.10891	0.26685	0.084609	0.28151	0.12506	0.20568	0.28836	0.11218	0.13178	0.2288	-2.5229	-2.8438	-3.3083	-2.4896	-3.15	-3.2479	-2.7458	-3.4667	-2.9292	-2.8104	-3.5187	-2.475	-3.0187	-3.1458	-2.4896	-3.3417	286.854	332.936	333.060	419.745	342.455	495.179	375.385	416.422	327.339	295.634	471.904	198.447	458.938	409.227	491.923	450.561	0.00015917	0.00014873	5.5289e-05	188.58	4.9874e-06	1.8561e-06	332.14	70.171	2.9333e-06	2.0235e-06	137.14	49.158	23.869	10.267	6.9286e-07	22.494	7.7109e-05	7.0305e-05	1.9489e-05	177.49	7.6547e-07	7.6291e-07	312.74	66.328	7.7359e-07	7.7302e-07	126.1	45.924	22.406	9.6544	7.9159e-07	20.801	253.029	183.158	222.856	187.860	375.725	315.624	187.286	192.470	252.904	277.227	189.930	195.113	197.217	200.912	301.723	198.397	-8191	255	
3216.105	1	1	0	0	0.21629	0.09904	0.088486	0.074847	0.18643	0.3179	0.13264	0.29581	0.31071	0.095048	0.18987	0.075821	0.195	0.060841	0.13572	0.31782	-2.4958	-2.6958	-3.2917	-2.5812	-3.0917	-3.2021	-2.6354	-3.2729	-2.9792	-2.7062	-3.5208	-2.8042	-2.9938	-3.2521	-2.6354	-3.2646	358.624	273.300	407.007	425.404	235.388	323.972	496.326	437.586	492.572	275.777	217.239	181.726	256.285	524.365	466.398	335.678	0.00017536	0.00010787	0.00010077	185.5	3.264e-06	1.579e-06	334.06	70.325	2.816e-06	6.699e-07	138.99	48.968	23.577	10.123	1.5924e-06	22.334	7.8407e-05	7.0599e-05	1.993e-05	176.46	7.7006e-07	7.6771e-07	313.89	66.486	8.0897e-07	7.8275e-07	127.6	45.744	22.325	9.6354	7.9522e-07	20.803	241.792	311.130	217.396	187.437	310.638	346.748	186.146	192.769	283.114	365.544	189.628	194.611	196.694	201.643	311.700	198.754	-8191	255	
3216.201	1	1	0	0	0.16722	0.033194	0.072375	0.16175	0.15042	0.028506	0.14971	0.15632	0.068942	0.275	0.14336	0.16206	0.080789	0.083525	0.27568	0.23384	-2.6229	-2.5479	-3.4458	-2.7729	-2.9104	-3.4313	-2.6104	-3.3167	-2.9708	-2.7042	-3.4688	-2.9062	-2.8229	-3.4188	-2.6354	-3.2417	325.489	195.042	530.564	475.532	213.780	350.893	330.407	357.744	374.357	358.755	187.436	398.755	395.321	279.336	287.586	251.279	0.00019102	7.0943e-05	2.9852e-05	188.12	4.4032e-07	1.0945e-06	334.92	70.839	5.4322e-06	2.7312e-06	139.23	49.513	23.537	10.147	7.3816e-07	22.578	7.8281e-05	7.335e-05	1.9564e-05	177.34	7.956e-07	7.5852e-07	314.5	67.016	7.6776e-07	7.7496e-07	128.47	46.166	22.346	9.6929	7.6914e-07	20.913	254.476	480.408	202.744	186.952	219.480	360.435	186.770	192.523	308.995	266.556	190.049	194.783	196.328	201.389	400.427	198.549	-8191	255	
3216.322	1	1	0	0	0.18342	0.16125	0.07366	0.32973	0.20726	0.0070147	0.070848	0.20178	0.22998	0.027002	0.10117	0.14471	0.24684	0.060846	0.26962	0.071523	-2.6417	-2.55	-3.2479	-2.7896	-2.7125	-3.3542	-2.5896	-3.0875	-3.0979	-2.6063	-3.3667	-2.7521	-2.7333	-3.3417	-2.5646	-3.0771	233.347	322.544	478.765	186.196	200.307	322.869	265.384	267.849	210.838	330.805	526.281	257.771	496.230	417.870	401.031	306.005	0.00019138	0.00013194	6.7147e-05	189.05	3.1286e-06	4.8111e-07	333.18	71.455	2.2012e-06	3.0559e-07	140.02	49.512	24.166	10.212	1.0849e-06	22.467	7.7146e-05	7.1087e-05	1.9567e-05	178.05	7.878e-07	7.4451e-07	313.74	66.981	7.8218e-07	7.7751e-07	128.06	45.881	22.467	9.7099	7.7047e-07	20.861	253.643	189.961	290.907	187.099	287.554	310.865	186.825	193.058	204.777	333.674	190.855	194.574	197.151	200.900	192.146	198.937	-8191	255	
3216.418	1	1	0	0	0.085802	0.21216	0.14748	0.074642	0.089383	0.053294	0.15125	0.082045	0.045543	0.21755	0.21058	0.074555	0.28929	0.23274	0.18591	0.075944	-2.9	-2.5396	-3.3583	-2.9958	-2.775	-3.4771	-2.7417	-2.9625	-3.2771	-2.5083	-3.2646	-3.0167	-2.6042	-3.2792	-2.6792	-2.8542	241.094	432.426	510.586	234.503	215.981	527.042	359.250	436.054	300.286	426.352	182.563	352.461	182.295	503.715	276.775	228.368	0.00021238	3.0461e-05	6.3769e-05	186.81	1.3101e-06	5.9231e-07	331.55	70.611	3.5758e-06	2.3186e-06	137.43	49.357	23.859	10.33	1.9077e-07	22.527	7.4514e-05	7.0058e-05	1.977e-05	176.84	7.7644e-07	7.6851e-07	311.62	66.638	7.5845e-07	7.2464e-07	127.03	45.895	22.471	9.7184	7.6601e-07	20.875	239.429	228.651	219.749	187.088	508.411	205.855	187.033	193.046	299.019	296.099	190.382	194.614	197.127	200.747	383.838	198.912	-8191	255	
3216.514	1	1	0	0	0.033357	0.056269	0.18594	0.081227	0.038034	0.047171	0.052545	0.26788	0.15828	0.12483	0.08684	0.18631	0.041586	0.13341	0.30524	0.15758	-2.9062	-2.6	-3.2667	-2.9708	-2.5458	-3.5583	-2.5979	-2.9354	-3.4833	-2.4354	-3.2562	-3.1583	-2.6792	-3.5438	-2.65	-2.7417	238.264	311.992	307.208	390.232	421.135	355.208	486.451	343.395	450.436	268.474	351.219	285.989	360.884	527.980	301.778	315.913	0.00021714	0.00027869	8.7309e-05	187.74	1.2264e-06	8.2718e-07	332.39	70.672	4.9425e-07	3.7961e-06	138.09	48.998	23.749	10.327	1.7974e-06	22.651	7.4728e-05	6.8973e-05	1.9353e-05	176.84	7.6135e-07	7.4198e-07	311.85	66.432	7.4685e-07	7.4842e-07	127.36	45.792	22.371	9.6713	7.5242e-07	20.88	254.298	258.927	210.556	188.565	333.930	327.505	186.565	193.383	300.469	307.968	190.504	194.472	196.698	200.885	275.012	198.368	-8191	255	
3216.610	1	1	0	0	0.042387	0.12636	0.17389	0.26251	0.15736	0.21676	0.14902	0.10089	0.072236	0.1741	0.12635	0.18428	0.13465	0.18862	0.12353	0.10275	-3.0062	-2.5104	-3.0771	-3.3021	-2.4875	-3.4042	-2.7958	-2.6271	-3.3563	-2.6354	-2.9688	-3.1667	-2.4854	-3.3937	-2.9021	-2.5917	438.795	382.494	516.959	474.260	315.867	394.457	529.659	293.382	482.714	180.489	522.164	244.190	519.412	213.618	212.979	514.172	0.00018814	0.00019268	5.6134e-05	184.81	1.814e-06	2.2752e-06	326.82	70.266	1.6372e-06	3.2439e-06	138.39	49.048	23.127	10.181	2.4209e-06	22.602	7.5554e-05	6.6996e-05	1.9105e-05	176.14	7.321e-07	7.3027e-07	309.06	66.067	7.8105e-07	7.5064e-07	126.83	45.795	22.183	9.6388	7.1584e-07	20.83	249.193	263.099	287.096	187.008	225.224	324.306	186.579	191.862	399.027	216.776	189.833	195.279	196.660	201.755	327.453	198.680	-8191	255	
3216.729	1	1	0	0	0.028093	0.074815	0.047636	0.12264	0.12119	0.25094	0.064656	0.26143	0.0073532	0.27495	0.17332	0.27473	0.064656	0.17157	0.064907	0.14916	-2.95	-2.6896	-2.8896	-3.3667	-2.6813	-3.3583	-3.1146	-2.4792	-3.3937	-2.7479	-3.0187	-3.3542	-2.5396	-3.3438	-3.1979	-2.8312	432.270	394.424	215.553	392.182	528.076	401.875	293.541	328.154	202.272	282.271	438.173	225.410	386.846	234.622	288.648	353.687	0.00017122	0.00022045	9.0046e-05	185.46	1.6585e-06	6.144e-07	332.55	69.824	4.193e-06	5.2852e-07	138.18	48.858	23.576	10.087	1.5424e-06	22.204	7.5277e-05	6.9056e-05	1.8639e-05	175.01	7.5576e-07	7.3238e-07	310.96	65.826	7.4481e-07	7.4707e-07	126.89	45.534	22.153	9.5891	7.2199e-07	20.563	262.008	215.903	250.230	186.991	399.666	176.717	186.651	192.333	272.247	451.957	190.409	194.649	196.758	200.766	279.979	198.389	-8191	255	
3216.802	1	1	0	0	0.15484	0.13576	0.0056081	0.049873	0.19593	0.13818	0.076793	0.22546	0.015193	0.17266	0.14329	0.055167	0.21576	0.11525	0.063557	0.26892	-2.9437	-2.6875	-2.6229	-3.4437	-2.6042	-3.2125	-3.1479	-2.5833	-3.3771	-2.9813	-2.4938	-3.4979	-2.7167	-3.1583	-3.2062	-2.5812	305.158	267.595	511.570	470.625	329.257	434.774	457.628	517.287	272.146	252.961	276.952	489.120	373.816	220.623	428.103	413.024	0.00022127	0.00015368	6.5969e-06	181.12	2.0989e-06	2.7719e-06	328	69.468	9.0234e-07	2.2338e-06	137.07	48.093	23.11	9.967	8.1599e-07	22.125	7.4485e-05	6.6098e-05	1.9067e-05	172.51	7.3461e-07	7.359e-07	306.66	64.933	7.2439e-07	7.4881e-07	125.53	45.09	21.826	9.3993	7.2149e-07	20.432	258.475	216.819	414.250	186.494	299.196	293.862	186.492	192.939	331.479	367.600	190.822	195.306	196.614	201.118	328.509	198.157	-8191	255	
3216.921	1	1	0	0	0.095224	0.17023	0.083754	0.19164	0.096419	0.10366	0.12911	0.032019	0.24804	0.16192	0.32626	0.088783	0.031152	0.14579	0.15523	0.0495	-2.8771	-2.8167	-2.7417	-3.5104	-2.8021	-2.9979	-3.4396	-2.7167	-3.45	-3.0938	-2.8375	-3.3375	-2.5958	-2.9542	-3.2479	-2.5125	352.696	217.835	418.674	316.024	209.627	513.528	187.402	376.255	263.398	312.057	463.193	515.503	298.367	329.870	532.535	343.776	0.00016459	0.00035796	2.5049e-05	181.01	1.8961e-06	2.8945e-06	324.23	69.11	2.0918e-06	4.1325e-06	137.88	48.059	23.347	10.136	1.5319e-06	22.364	7.1489e-05	6.6103e-05	1.9213e-05	172.03	7.3439e-07	7.3285e-07	306.25	64.703	7.4373e-07	7.2089e-07	125.62	45.233	21.959	9.522	7.4749e-07	20.641	255.919	288.013	302.273	187.281	403.154	281.908	186.524	193.096	301.299	428.087	190.222	194.408	196.301	201.633	461.577	198.126	-8191	255	
3217.017	1	1	0	0	0.058351	0.025588	0.13927	0.26135	0.026038	0.086621	0.13376	0.21134	0.1902	0.10249	0.095819	0.18613	0.10918	0.081886	0.033689	0.16159	-2.8833	-2.975	-2.6854	-3.4542	-2.6521	-2.8833	-3.3208	-2.5271	-3.1583	-2.9437	-2.4208	-3.4604	-2.7542	-2.825	-3.3521	-2.6229	202.140	429.544	306.985	488.093	342.434	316.929	354.039	233.617	365.452	281.654	532.905	497.010	191.421	269.314	350.178	443.987	0.00020488	0.00020677	4.1686e-05	184.37	3.0339e-06	3.4506e-06	328.13	68.546	1.6841e-06	8.3621e-07	138.85	49.096	23.35	10.191	1.3893e-06	22.388	7.3647e-05	6.6925e-05	1.9221e-05	173.13	7.298e-07	7.2875e-07	308	65.158	7.4541e-07	7.2952e-07	126.44	45.707	22.094	9.5875	7.2971e-07	20.872	247.159	260.984	504.406	187.058	336.264	234.253	186.434	192.700	390.165	360.225	189.699	194.429	197.140	200.277	408.322	198.339	-8191	255	
3217.113	1	1	0	0	0.35999	0.15048	0.23727	0.13582	0.29984	0.151	0.10913	0.2439	0.12202	0.24494	0.21486	0.12243	0.13478	0.17801	0.24137	0.30296	-2.7646	-3.1292	-2.5958	-3.1896	-2.9542	-2.7583	-3.3917	-2.5	-3.0625	-3.2583	-2.5833	-3.5458	-2.8542	-2.5792	-3.375	-2.7396	407.086	238.404	316.865	257.003	207.029	199.470	416.588	427.350	203.069	350.511	266.439	195.843	477.939	484.535	220.857	378.338	0.0002341	0.00020309	5.3776e-05	182.57	3.723e-06	1.3648e-06	329.24	69.05	1.3167e-06	1.3568e-06	138.46	48.818	23.399	10.055	6.3926e-07	22.275	7.2842e-05	6.5929e-05	1.8908e-05	173.14	7.3182e-07	7.2417e-07	308.13	64.908	7.3511e-07	7.2702e-07	125.71	45.433	21.914	9.533	7.3389e-07	20.63	263.890	305.550	227.056	187.472	310.776	328.385	186.163	192.686	347.720	289.994	190.245	194.612	196.372	200.910	286.669	198.084	-8191	255	
3217.210	1	1	0	0	0.062345	0.016712	0.22108	0.15004	0.15896	0.15652	0.28696	0.19529	0.082379	0.085517	0.10609	0.16488	0.076848	0.27875	0.27217	0.20298	-2.625	-3.3854	-2.5187	-3.1625	-3.0542	-2.7833	-3.3312	-2.6646	-2.9354	-3.3812	-2.6271	-3.2313	-3.1292	-2.7	-3.2917	-2.8458	483.067	477.145	197.175	316.176	201.122	440.457	415.446	433.890	445.739	263.939	455.435	450.229	400.873	380.244	179.957	374.218	0.00027417	0.00042601	4.1141e-05	183.92	2.8171e-06	4.6814e-07	324.24	68.693	1.9412e-06	1.1526e-06	136.3	48.932	23.238	9.96	2.4498e-06	22.071	7.3664e-05	6.6159e-05	1.8105e-05	172.71	7.0686e-07	7.0519e-07	305.02	64.606	7.2489e-07	7.4216e-07	124.96	45.373	21.692	9.4007	7.115e-07	20.526	261.960	238.094	255.091	187.344	271.818	221.800	186.000	192.543	367.830	284.666	190.753	194.293	196.232	201.151	368.647	197.949	-8191	255	
3217.330	1	1	0	0	0.21154	0.092955	0.10708	0.2144	0.1341	0.14455	0.13382	0.080967	0.27239	0.084839	0.221	0.16162	0.15533	0.31368	0.33507	0.10776	-2.2917	-3.4625	-2.5604	-3.2292	-3.1396	-2.7396	-3.5667	-2.9125	-2.9417	-3.5479	-2.6667	-3.05	-3.3187	-2.7208	-3.4729	-2.9542	224.689	290.964	450.205	480.255	433.336	434.873	253.730	500.808	257.064	198.385	517.232	449.183	184.951	421.581	362.347	471.838	0.00019774	4.7821e-05	4.9722e-05	181.85	2.7786e-06	5.3383e-07	323.68	67.646	1.2791e-06	1.6992e-06	136.13	48.518	23.432	9.9722	1.8849e-06	22.178	7.5163e-05	6.4503e-05	1.8415e-05	172.31	7.2599e-07	7.2539e-07	304.32	64.293	7.5204e-07	7.1834e-07	124.78	45.211	21.845	9.3874	7.1593e-07	20.528	253.512	247.283	290.323	187.830	348.732	246.920	186.552	192.407	294.709	298.789	190.622	194.103	196.652	200.694	411.195	198.381	-8191	255	
3217.402	1	1	0	0	0.15057	0.061085	0.22453	0.10881	0.14288	0.1021	0.045811	0.17744	0.15123	0.38151	0.064052	0.10272	0.042362	0.24572	0.095415	0.1574	-2.1583	-3.3958	-2.6104	-3.0396	-3.2333	-2.6708	-3.5354	-2.9792	-2.7104	-3.4062	-2.7125	-2.9354	-3.4437	-2.5062	-3.2521	-3.1208	381.344	212.520	448.807	458.175	241.807	407.076	174.462	265.025	339.920	443.856	499.846	420.971	354.077	280.578	337.548	493.013	0.00020638	0.00010483	0.00016323	182.04	4.1812e-06	2.4714e-06	327.59	67.948	2.2629e-06	2.6056e-06	136.81	48.839	22.938	9.9756	2.2404e-06	22.402	7.3226e-05	6.5843e-05	1.8506e-05	172.23	7.4407e-07	7.3982e-07	307.15	64.395	7.4177e-07	7.3789e-07	125.39	45.402	21.774	9.4253	7.2431e-07	20.74	254.468	295.844	292.708	187.538	298.582	426.421	186.870	192.400	257.531	346.682	189.536	194.759	196.590	200.995	252.734	198.644	-8191	255	
3217.523	1	1	0	0	0.14336	0.098033	0.036564	0.20406	0.23319	0.073296	0.153	0.19003	0.30894	0.12719	0.2282	0.14671	0.076739	0.11641	0.23454	0.10298	-2.3083	-3.4562	-2.5	-2.7771	-3.4396	-2.5958	-3.2229	-3.1437	-2.6188	-3.4833	-2.8375	-2.9542	-3.3625	-2.7042	-3.2167	-3.1875	240.399	487.547	323.260	254.940	396.236	484.109	481.330	402.858	226.200	425.211	198.943	456.936	437.605	275.778	456.844	199.830	0.00018391	0.00027637	4.169e-05	184.48	7.9467e-07	1.8483e-06	325.52	68.075	2.1873e-06	2.2652e-06	138.48	48.311	22.931	9.9758	1.5187e-06	22.309	7.5391e-05	6.4576e-05	1.7907e-05	173.63	7.3564e-07	7.2647e-07	307.16	64.535	7.3193e-07	7.3243e-07	125.66	45.386	21.838	9.4199	7.0435e-07	20.682	248.888	319.550	423.076	187.547	217.844	415.543	186.844	192.505	309.283	413.737	189.815	194.757	196.636	200.496	432.129	198.531	-8191	255	
3217.619	1	1	0	0	0.13782	0.15851	0.17005	0.25614	0.016675	0.1284	0.097569	0.088528	0.1916	0.24784	0.22617	0.27748	0.20768	0.08783	0.21534	0.47881	-2.1479	-3.4625	-2.9562	-2.8521	-3.3812	-2.6667	-3.0729	-3.2	-2.5396	-3.4188	-3.0521	-2.6937	-3.2438	-2.7354	-3.05	-3.3208	227.702	379.565	176.492	487.786	236.697	409.665	511.340	458.009	344.758	405.387	382.861	496.087	479.536	234.592	407.282	418.949	0.00017442	0.00018764	1.421e-05	183.58	8.4803e-07	3.2402e-06	327.28	68.781	2.4486e-06	2.7293e-06	137.47	48.61	22.921	10.065	2.8877e-06	22.316	7.3598e-05	6.5016e-05	1.8465e-05	172.98	7.2328e-07	7.1645e-07	307.25	64.725	7.2094e-07	7.1183e-07	125.36	45.479	21.856	9.4453	7.0759e-07	20.637	245.277	329.415	355.033	187.318	451.964	315.222	187.069	193.120	248.186	291.480	190.076	194.623	196.302	201.020	310.405	198.722	-8191	255	
3217.713	1	1	0	0	0.068924	0.18609	0.046734	0.12064	0.18742	0.20753	0.22725	0.1131	0.20138	0.0058222	0.20272	0.26094	0.26581	0.29934	0.31348	0.13895	-2.2021	-3.375	-2.8354	-2.6562	-3.425	-2.7583	-2.9896	-3.4458	-2.5438	-3.3042	-3.1646	-2.5521	-3.4458	-2.6646	-2.8167	-3.4667	346.416	440.885	428.891	241.925	349.745	343.795	527.762	407.556	343.512	528.281	192.468	494.653	324.757	297.295	246.700	232.587	0.0001933	0.00037725	9.4613e-05	183.22	2.8189e-06	4.1882e-07	329.07	68.672	1.6707e-06	1.9162e-06	138.6	48.746	23.462	9.8864	2.1414e-06	22.306	7.4043e-05	6.7271e-05	1.7909e-05	173.13	7.1283e-07	7.041e-07	307.36	65.005	7.3787e-07	7.1302e-07	125.74	45.656	22.041	9.4753	7.1316e-07	20.73	252.703	313.149	272.324	187.602	341.318	269.593	186.336	192.912	437.481	202.242	191.130	194.687	196.588	200.983	357.593	198.323	-8191	255	
3217.809	1	1	0	0	0.26965	0.059156	0.20851	0.13066	0.071983	0.082021	0.083627	0.23048	0.18014	0.16044	0.1127	0.14601	0.18269	0.16477	0.17628	0.11247	-2.275	-3.2417	-3.0354	-2.4542	-3.4354	-2.7	-2.9146	-3.35	-2.6521	-3.2396	-3.0458	-2.5917	-3.2812	-2.8146	-2.7021	-3.3208	347.026	199.158	266.029	376.521	191.607	250.664	254.008	330.666	361.036	459.887	261.039	398.691	186.417	465.488	314.638	354.067	0.00022772	0.00010995	3.2368e-05	182.68	1.0916e-06	4.005e-06	329.81	68.354	9.2031e-07	1.237e-06	138.85	49.725	23.495	10.092	1.6282e-06	22.646	7.4458e-05	6.7057e-05	1.8316e-05	173.13	6.9986e-07	7.2836e-07	309.45	65.103	7.2972e-07	7.3137e-07	126.68	46.107	22.234	9.5263	7.3622e-07	20.963	249.950	445.739	452.631	187.399	398.557	276.679	186.963	193.103	300.206	286.122	190.378	194.569	196.460	201.065	388.920	198.750	-8191	255	
3217.930	1	1	0	0	0.050616	0.1961	0.10916	0.16145	0.16007	0.10539	0.069507	0.19564	0.11284	0.071859	0.039927	0.16309	0.26207	0.12404	0.097266	0.14069	-2.3646	-3.0083	-3.1646	-2.5667	-3.3021	-2.8979	-2.6521	-3.4479	-2.6063	-3.0896	-3.1979	-2.5729	-3.1604	-3.0583	-2.6146	-3.5458	361.068	307.617	372.780	177.120	204.154	262.552	324.399	399.598	317.662	238.991	180.974	450.212	524.587	386.777	378.874	374.170	0.00020832	2.0813e-05	4.0541e-05	185.58	2.6147e-06	2.5733e-06	329.33	69.375	8.8534e-07	2.5528e-06	137.32	49.346	23.448	10.228	1.2069e-06	22.46	7.2908e-05	6.6609e-05	1.8347e-05	174.94	7.3434e-07	6.9298e-07	309.56	65.266	7.382e-07	7.3817e-07	126.09	46.09	22.138	9.5956	7.1424e-07	20.931	245.734	397.415	369.328	186.513	396.103	263.060	186.926	192.720	357.655	281.604	190.463	194.899	196.661	200.644	402.630	198.183	-8191	255	
3218.026	1	1	0	0	0.2774	0.058261	0.15727	0.18439	0.21818	0.03077	0.10529	0.17926	0.10955	0.19817	0.1135	0.17608	0.17688	0.21921	0.21196	0.0292	-2.4042	-2.725	-3.2479	-2.5667	-3.1667	-2.9646	-2.6188	-3.4458	-2.7	-2.9229	-3.4833	-2.6542	-3.1562	-3.2146	-2.6292	-3.5687	209.259	431.335	292.209	446.245	521.916	232.425	195.752	511.436	194.617	255.015	311.839	351.672	193.507	207.131	282.822	231.751	0.00020763	0.00020354	6.1102e-05	183.43	8.6179e-07	1.6489e-06	330.57	68.659	2.1802e-06	1.1451e-06	138.42	49.744	23.545	10.189	1.2096e-06	23.086	7.2551e-05	6.4923e-05	1.8247e-05	173.69	7.0918e-07	7.0835e-07	309.29	65.315	7.1423e-07	7.1626e-07	126.92	46.171	22.279	9.6167	7.1537e-07	21.12	257.180	267.789	521.017	187.482	201.228	263.363	186.879	192.391	306.705	276.422	190.012	194.770	197.058	200.768	347.333	198.348	-8191	255	
3218.098	1	1	0	0	0.25484	0.031566	0.058686	0.29158	0.15801	0.27049	0.11013	0.089844	0.15687	0.13356	0.10178	0.23425	0.16067	0.29766	0.28151	0.058105	-2.45	-2.6813	-3.2396	-2.7792	-3.0687	-3.2021	-2.6125	-3.2958	-2.9708	-2.6	-3.4958	-2.6083	-3.2729	-3.1875	-2.4396	-3.25	514.079	195.021	480.291	189.949	178.643	271.636	404.999	236.034	312.718	255.940	427.646	446.527	207.786	427.747	195.825	206.065	0.00019889	0.00011678	6.1786e-05	183.42	6.1272e-07	1.7458e-06	331.06	69.203	5.8248e-07	7.558e-07	139.18	50.153	23.933	10.302	4.8801e-07	22.984	7.3703e-05	6.3871e-05	1.7872e-05	173.28	7.0727e-07	6.9148e-07	308.88	65.344	7.108e-07	7.0983e-07	126.98	46.531	22.42	9.7014	7.1521e-07	21.308	244.424	317.288	175.285	187.830	446.290	249.608	186.660	192.671	482.592	229.286	190.022	194.595	197.255	200.818	220.283	198.506	-8191	255	
3218.194	1	1	0	0	0.075275	0.13052	0.10606	0.054241	0.2774	0.17093	0.11227	0.10171	0.073643	0.040722	0.23481	0.10652	0.35594	0.18328	0.032812	0.031134	-2.6188	-2.8083	-3.3438	-2.6625	-3.0312	-3.4313	-2.5583	-3.3771	-2.9521	-2.5417	-3.2812	-2.55	-2.9292	-3.4042	-2.7667	-3.2833	286.872	403.721	412.320	330.587	526.756	399.540	337.452	484.256	248.614	494.873	473.976	462.103	222.935	447.277	403.382	517.384	0.00023176	0.00025246	2.7758e-05	182.87	1.6326e-06	4.5397e-07	328.47	69.096	2.483e-06	1.0556e-06	140.67	50.258	23.782	10.371	1.5366e-06	23.204	7.1644e-05	6.3962e-05	1.7695e-05	173.3	7.0006e-07	6.9187e-07	308.75	65.387	7.0299e-07	6.9672e-07	128.31	46.811	22.456	9.7931	7.0003e-07	21.543	248.161	287.226	248.790	187.669	334.477	387.349	186.584	192.942	337.220	349.134	190.764	195.313	196.787	200.621	316.969	198.710	-8191	255	
3218.290	1	1	0	0	0.094888	0.020549	0.038551	0.063161	0.14736	0.096973	0.025774	0.12247	0.067802	0.12236	0.065055	0.23182	0.037186	0.31983	0.10942	0.18336	-2.5333	-2.6042	-3.4667	-2.7854	-2.7562	-3.3438	-2.5812	-3.0354	-3.35	-2.6542	-3.4188	-2.8208	-2.7333	-3.3563	-2.5042	-3.0979	185.504	227.081	383.020	209.463	287.641	275.071	326.563	532.449	434.896	360.622	355.649	526.900	503.789	455.312	511.711	422.176	0.00017673	0.00039571	6.7845e-05	181.17	1.5391e-06	1.5366e-06	331.24	69.225	2.4415e-06	1.1305e-06	139.16	50.073	23.833	10.351	2.1854e-06	23.224	6.8874e-05	6.3143e-05	1.7417e-05	173.06	6.7399e-07	6.8185e-07	309.56	65.252	6.6083e-07	6.8114e-07	127.68	46.908	22.371	9.7618	7.0197e-07	21.548	246.230	534.260	274.744	187.918	226.225	324.871	186.514	193.206	310.705	404.227	190.171	194.541	196.790	200.463	312.963	198.564	-8191	255	
3218.411	1	1	0	0	0.11043	0.14459	0.18077	0.045273	0.14384	0.15234	0.089389	0.1447	0.049683	0.34088	0.090876	0.12572	0.088549	0.11104	0.20455	0.19248	-2.7313	-2.5687	-3.325	-2.9208	-2.6188	-3.4729	-2.6125	-3.0458	-3.3625	-2.6396	-3.2833	-2.7979	-2.8042	-3.5312	-2.6354	-3.1375	491.369	321.390	533.820	366.072	253.418	329.384	376.359	380.206	489.885	359.328	284.605	184.926	388.342	389.592	327.253	267.138	0.00021036	0.00016934	3.1765e-05	182.16	4.0817e-07	1.2498e-06	330.9	69.77	1.1136e-06	1.8974e-06	138.95	50.457	23.749	10.359	1.6026e-06	23.171	6.9229e-05	6.2733e-05	1.7012e-05	173.71	6.8687e-07	6.5113e-07	309.48	65.49	6.8465e-07	6.8272e-07	127.54	46.988	22.419	9.8002	6.7509e-07	21.502	254.039	218.781	515.078	187.861	284.354	350.909	186.718	192.922	356.643	319.957	190.980	194.602	196.521	201.108	290.487	198.743	-8191	255	
3218.507	1	1	0	0	0.12106	0.11909	0.2287	0.10744	0.36777	0.21024	0.11634	0.14492	0.17319	0.034285	0.24514	0.28419	0.0099278	0.050267	0.23927	0.080021	-2.9708	-2.5875	-3.4208	-2.8583	-2.5542	-3.4417	-2.7125	-2.9667	-3.3083	-2.7062	-3.3542	-3.2125	-2.6896	-3.4479	-3.1437	-2.9604	308.783	345.442	403.552	299.390	357.608	312.519	203.996	227.323	233.898	412.878	471.916	256.030	246.954	184.201	334.890	208.989	0.00020063	0.0002301	2.9782e-05	183.26	2.542e-06	3.9087e-06	333.92	68.475	1.5858e-06	9.5297e-07	140.5	50.721	23.909	10.425	1.1347e-06	23.395	6.911e-05	6.2164e-05	1.7169e-05	173.87	6.8878e-07	6.6836e-07	309.65	65.355	6.8061e-07	6.9564e-07	128.47	47.347	22.6	9.8057	6.8567e-07	21.675	258.595	353.397	264.337	187.357	258.463	232.142	186.942	193.422	440.036	386.603	190.531	194.731	196.379	201.512	408.387	198.585	-8191	255	
3218.603	1	1	0	0	0.16907	0.18904	0.062234	0.14033	0.05479	0.073664	0.15789	0.39064	0.24575	0.12076	0.1408	0.13433	0.33171	0.17469	0.12296	0.060077	-3.1021	-2.5875	-3.2625	-3.2167	-2.4771	-3.5563	-2.8083	-2.8708	-3.6354	-2.6917	-3.3083	-3.3875	-2.475	-3.4417	-3.0396	-2.8688	516.609	271.159	181.113	522.571	407.972	489.493	352.389	250.702	254.208	337.772	239.530	308.988	199.017	499.269	221.782	365.143	0.00022208	0.00027581	3.8023e-05	184.62	2.4516e-06	1.6115e-06	332.28	69.437	3.3206e-07	8.9088e-07	139.26	50.743	23.975	10.454	8.9748e-07	23.633	6.756e-05	6.3262e-05	1.7421e-05	174.15	6.7559e-07	6.6545e-07	310.17	65.57	6.6327e-07	6.5269e-07	128.42	47.307	22.49	9.8834	6.9871e-07	21.774	263.074	249.838	441.297	188.248	307.423	366.510	186.936	192.795	435.246	178.280	191.025	194.991	196.975	200.864	318.789	198.313	-8191	255	
3218.699	1	1	0	0	0.035465	0.11964	0.10363	0.15155	0.08311	0.082502	0.3087	0.28443	0.08555	0.17067	0.15017	0.14322	0.33446	0.29584	0.25389	0.21957	-3.1	-2.6625	-3.1021	-3.2583	-2.625	-3.3458	-2.8833	-2.6521	-3.5042	-2.7146	-2.9854	-3.4479	-2.5563	-3.1958	-3.0417	-2.6854	214.924	264.881	324.030	266.983	255.075	424.549	249.686	510.980	351.418	279.217	283.233	187.474	498.512	254.714	373.792	449.522	0.00019739	0.00017906	0.00010409	184.85	1.0882e-07	1.4699e-06	327.66	68.801	1.1061e-06	2.6764e-06	138.88	50.748	23.694	10.39	1.5373e-06	23.377	6.8896e-05	6.1396e-05	1.6911e-05	173.93	6.598e-07	6.5127e-07	307.6	64.939	6.5697e-07	6.5025e-07	127.94	47.079	22.421	9.81	6.6462e-07	21.511	252.184	451.743	307.556	187.366	394.176	307.841	187.109	193.199	367.100	320.024	190.659	194.686	196.407	200.945	376.248	198.599	-8191	255	
3218.793	1	1	0	0	0.085512	0.1853	0.17201	0.08703	0.068707	0.19786	0.14011	0.2032	0.081764	0.15042	0.032515	0.0053654	0.20507	0.11843	0.20426	0.17998	-2.9188	-2.7146	-2.9354	-3.375	-2.6688	-3.1375	-3.2938	-2.5833	-3.5021	-2.6833	-2.8312	-3.3604	-2.6979	-3.2958	-3.1917	-2.55	489.700	310.531	303.807	330.137	200.396	330.961	448.762	450.541	373.048	182.645	218.187	362.946	434.643	423.313	174.867	293.754	0.00021324	8.4286e-05	7.0097e-05	183.67	1.2548e-06	1.939e-06	328.87	68.821	6.2529e-07	2.3321e-06	137.79	50.588	23.656	10.391	5.8847e-07	23.287	6.7907e-05	5.9429e-05	1.6353e-05	172.61	6.4449e-07	6.2993e-07	307.95	64.69	6.3774e-07	6.4759e-07	126.55	47.01	22.324	9.7656	6.4569e-07	21.528	248.945	281.168	244.080	187.639	336.695	402.544	187.441	192.844	235.611	300.942	190.020	194.806	196.573	201.783	231.473	198.608	-8191	255	
3218.891	1	1	0	0	0.24209	0.15201	0.11025	0.22414	0.059817	0.085714	0.2928	0.18056	0.1013	0.16798	0.15302	0.25214	0.13841	0.088671	0.16702	0.15109	-2.9708	-2.7979	-2.6604	-3.4521	-2.6646	-3.2771	-3.3063	-2.5542	-3.425	-2.9437	-2.7896	-3.5833	-2.5854	-3.0812	-3.2417	-2.7792	415.080	270.838	370.002	533.891	479.246	475.200	399.732	447.676	370.994	423.752	184.527	519.889	494.965	514.642	280.800	350.590	0.00020685	0.00022168	6.4911e-05	180.9	2.9288e-07	2.0669e-06	329.92	68.924	3.3213e-06	2.2817e-06	138.25	50.831	23.651	10.336	1.8046e-06	23.302	6.6913e-05	5.9254e-05	1.5886e-05	172.47	6.3373e-07	6.4069e-07	308.63	64.665	6.4354e-07	6.3875e-07	127.17	47.049	22.247	9.7262	6.3589e-07	21.433	249.653	175.450	237.219	187.287	371.984	261.727	186.767	193.025	265.505	263.063	190.414	194.801	196.466	200.950	428.774	198.832	-8191	255	
3219.010	1	1	0	0	0.024675	0.18318	0.15506	0.1281	0.13957	0.082199	0.17603	0.17409	0.080805	0.25567	0.44773	0.077061	0.30926	0.070337	0.08651	0.11721	-3.0438	-3.0875	-2.7396	-3.425	-2.6646	-3.0625	-3.5021	-2.5771	-3.3646	-3.2333	-2.6271	-3.4583	-2.9208	-2.7833	-3.3729	-2.6646	315.781	367.598	187.652	406.143	227.141	226.002	387.653	371.011	377.031	204.176	352.576	452.945	508.476	281.806	264.377	241.772	0.00022564	0.00012246	8.1243e-05	182.43	2.5725e-06	1.1333e-06	329.85	68.76	8.82e-07	1.3982e-06	140.3	50.283	23.858	10.229	1.8878e-06	23.308	6.6566e-05	6.0468e-05	1.6436e-05	172.71	6.3904e-07	6.3428e-07	307.99	64.6	6.4004e-07	6.2951e-07	127.49	47.1	22.209	9.6653	6.3569e-07	21.521	252.269	507.274	299.164	187.632	274.398	491.537	187.163	193.072	313.989	333.325	190.758	194.869	196.745	201.380	324.829	198.594	-8191	255	
3219.106	1	1	0	0	0.08254	0.11805	0.068054	0.17882	0.17881	0.17157	0.092176	0.22086	0.052401	0.31304	0.133	0.14286	0.088583	0.1785	0.11003	0.20816	-2.8896	-3.1271	-2.6	-3.4771	-2.8792	-2.8771	-3.3125	-2.7146	-3.2438	-3.1312	-2.6396	-3.3729	-2.7562	-2.6896	-3.2938	-2.7438	287.855	375.389	281.941	198.486	188.094	506.992	272.653	192.451	401.082	477.805	227.099	352.836	280.289	469.959	202.634	459.280	0.00018957	0.00012863	4.3507e-05	184.02	1.4073e-06	1.4841e-06	329.93	68.267	2.9875e-06	2.0305e-06	140.62	50.437	23.74	10.39	1.6045e-06	23.258	6.6575e-05	5.7393e-05	1.5881e-05	172.82	6.229e-07	6.3908e-07	309.06	64.431	6.4553e-07	6.2633e-07	127.69	47.061	22.306	9.7185	6.2501e-07	21.469	247.201	236.698	441.579	187.032	272.002	289.146	186.545	193.127	237.159	305.841	190.526	194.947	196.832	201.648	283.745	198.139	-8191	255	
3219.203	1	1	0	0	0.3336	0.052514	0.13909	0.2329	0.13884	0.27134	0.16943	0.065659	0.16235	0.041633	0.13657	0.21556	0.1192	0.28047	0.15489	0.2472	-2.825	-3.3604	-2.6333	-3.3438	-2.9083	-2.8604	-3.4479	-2.6917	-2.925	-3.3875	-2.8104	-3.3979	-2.8729	-2.7896	-3.4688	-2.7875	489.619	241.176	523.756	225.375	183.479	388.803	446.784	396.692	336.897	264.346	411.935	491.832	263.090	533.286	413.659	437.588	0.00025242	0.00039498	2.4306e-05	183.66	1.3634e-06	1.9867e-06	328.96	68.313	1.4318e-06	2.5134e-06	140.13	50.419	23.309	10.21	2.4671e-06	22.991	6.6109e-05	5.7446e-05	1.618e-05	173.17	6.3365e-07	6.3215e-07	307.42	64.23	6.0918e-07	6.156e-07	127.02	46.702	21.99	9.6027	6.203e-07	21.299	237.783	257.151	180.314	187.667	378.252	289.945	186.330	192.319	237.300	430.655	190.685	195.009	197.339	201.938	332.877	198.742	-8191	255	
3219.299	1	1	0	0	0.14945	0.16959	0.15717	0.22645	0.19704	0.095602	0.24311	0.11056	0.17843	0.30915	0.065103	0.1337	0.17239	0.078291	0.26292	0.044622	-2.5229	-3.2854	-2.6083	-3.2854	-2.9958	-2.6188	-3.3833	-2.7271	-2.8187	-3.4562	-2.4062	-3.4208	-3.2812	-2.5396	-3.5563	-2.9542	198.793	461.132	327.299	363.211	373.788	294.011	495.309	336.017	520.336	201.791	433.884	266.921	294.064	182.572	312.233	297.600	0.00019186	0.000141	8.8644e-05	184.01	1.19e-06	3.6449e-07	328.64	68.305	1.976e-06	1.9436e-06	139.73	49.832	23.551	10.219	1.7786e-06	23.135	6.495e-05	5.8364e-05	1.5825e-05	172.3	6.274e-07	6.2427e-07	308.01	63.964	6.1457e-07	6.235e-07	126.92	46.508	21.989	9.5681	6.4178e-07	21.2	252.954	438.349	199.308	187.850	225.573	206.859	187.245	193.399	272.462	253.565	190.119	195.310	197.441	201.315	279.069	198.165	-8191	255	
3219.395	1	1	0	0	0.1065	0.16078	0.23423	0.28795	0.11872	0.16441	0.16477	0.12292	0.19036	0.12103	0.10359	0.10509	0.17487	0.17466	0.22023	0.11712	-2.3688	-3.4458	-2.7292	-3.2542	-3.3625	-2.6021	-3.4667	-2.7146	-2.8396	-3.3979	-2.4271	-3.1125	-3.1521	-2.5458	-3.1646	-2.9	459.992	340.505	223.404	324.875	363.233	335.381	274.502	388.262	238.430	462.195	481.534	370.992	226.980	273.730	501.426	496.280	0.0001855	0.00014547	4.6723e-05	183.6	4.1601e-06	1.0327e-06	329.71	67.194	2.4912e-06	1.8451e-06	139.96	49.579	23.673	10.137	4.0442e-06	23.173	6.5319e-05	5.826e-05	1.6125e-05	173.12	6.2712e-07	6.2937e-07	307.76	63.731	6.4526e-07	6.1975e-07	126.53	46.608	22.118	9.55	6.572e-07	21.269	252.470	315.282	282.364	187.280	306.913	214.545	186.527	192.689	364.190	295.971	189.749	194.839	196.633	201.164	384.891	198.565	-8191	255	
3219.491	1	1	0	0	0.17581	0.31478	0.21087	0.086909	0.091108	0.064553	0.14937	0.23678	0.21425	0.25295	0.063704	0.26575	0.071527	0.18068	0.35407	0.28242	-2.3979	-3.3104	-2.4729	-3.0792	-3.4521	-2.6437	-3.4542	-3.0167	-2.8104	-3.3542	-2.6625	-3.0417	-3.4604	-2.5396	-3.4437	-3.0062	408.850	186.921	506.616	441.376	405.322	333.914	530.555	192.225	205.227	202.954	347.698	411.629	360.120	411.208	246.796	469.410	0.00022814	9.1904e-05	5.2068e-05	182.32	2.6673e-06	4.1513e-07	328.35	67.451	3.136e-06	7.9721e-07	138.86	50.043	23.273	10.067	2.1359e-06	22.854	6.588e-05	5.7285e-05	1.5873e-05	171.98	6.2237e-07	6.3223e-07	307.05	63.42	6.3705e-07	6.1512e-07	126.52	46.587	21.961	9.4776	6.4959e-07	21.139	255.203	237.768	190.033	187.940	357.421	233.306	186.684	192.751	307.076	304.977	190.626	195.266	196.782	201.471	392.810	198.418	-8191	255	
3219.612	1	1	0	0	0.094062	0.061134	0.074089	0.21565	0.032152	0.15036	0.21454	0.071002	0.10456	0.059489	0.18865	0.091649	0.10523	0.10015	0.27127	0.11678	-2.1479	-3.4188	-2.7646	-2.9417	-3.2438	-2.5646	-3.4167	-3.1125	-2.6292	-3.5708	-2.7458	-2.8854	-3.5396	-2.4688	-3.0417	-3.2562	226.036	271.761	302.765	454.175	233.518	250.531	488.278	490.863	395.834	290.318	520.130	220.484	273.717	353.230	524.351	522.955	0.00018951	0.00012981	1.3579e-05	184.04	1.9687e-06	3.8638e-06	327.09	67.35	2.5327e-06	1.1447e-06	137.07	50.209	23.42	10.137	1.3759e-06	23.051	6.4444e-05	5.753e-05	1.6246e-05	171.75	6.2826e-07	6.3184e-07	306.7	63.514	6.0924e-07	6.0933e-07	125.94	46.488	22.01	9.5171	6.3511e-07	21.193	256.239	430.662	348.237	188.174	307.697	308.973	186.892	192.703	317.440	258.407	191.121	194.448	197.041	200.743	330.360	198.268	-8191	255	
3219.706	1	1	0	0	0.25671	0.048841	0.26876	0.11863	0.28249	0.19653	0.31296	0.15783	0.21997	0.18927	0.1844	0.25853	0.22238	0.18709	0.075879	0.24935	-2.2583	-3.4938	-2.7792	-2.8375	-3.4604	-2.7458	-3.2333	-3.2583	-2.4979	-3.3771	-2.9729	-2.6688	-3.4646	-2.7062	-2.9229	-3.1917	388.938	437.382	417.969	382.304	309.893	434.504	500.478	317.905	292.226	285.220	178.594	461.503	198.765	477.200	358.079	445.443	0.00018885	8.5602e-05	3.8244e-05	181.06	2.5404e-06	2.1645e-06	329.03	67.912	6.4246e-07	9.6023e-07	138.33	50.342	23.17	10.254	1.0677e-06	22.89	6.4758e-05	5.7583e-05	1.6419e-05	171.78	6.0598e-07	6.2421e-07	308.83	64.171	6.339e-07	6.2228e-07	127.3	46.903	21.983	9.6125	6.3179e-07	21.284	255.264	401.195	236.531	187.737	347.425	261.588	186.728	193.005	367.882	379.813	190.978	194.885	196.761	201.228	304.955	198.708	-8191	255	
3219.802	1	1	0	0	0.20313	0.097437	0.049263	0.22254	0.17134	0.27389	0.20043	0.2477	0.12233	0.12365	0.17196	0.34	0.16674	0.12849	0.053215	0.23933	-2.0542	-3.3417	-3.1292	-2.6604	-3.4104	-2.8667	-2.9854	-3.35	-2.5375	-3.2854	-3.1417	-2.7396	-3.4354	-2.9667	-3.0021	-3.4	472.751	329.403	306.682	276.252	478.931	417.069	443.218	443.380	529.095	522.343	377.121	517.535	502.307	470.135	462.670	201.879	0.0002215	0.00027534	6.2427e-05	184.28	2.8716e-06	2.1338e-06	334.32	68.899	2.5883e-06	3.4121e-06	140.25	50.776	23.483	10.172	3.1e-06	23.261	6.5307e-05	5.8126e-05	1.6129e-05	173.62	6.3276e-07	6.2579e-07	311.46	64.814	6.3741e-07	6.4612e-07	128.1	47.107	22.163	9.5869	6.337e-07	21.465	243.398	258.717	267.521	187.792	363.156	387.036	186.725	192.833	285.014	387.263	190.044	194.808	196.502	201.183	343.805	198.967	-8191	255	
3219.898	1	1	0	0	0.12627	0.28299	0.10734	0.22047	0.10111	0.062971	0.26169	0.25152	0.20249	0.13657	0.070496	0.1176	0.054857	0.30955	0.24932	0.096213	-2.1979	-3.0917	-3.2	-2.525	-3.3292	-2.9062	-2.8667	-3.1792	-2.4188	-3.1958	-3.2896	-2.6146	-3.2958	-2.9396	-2.8292	-3.4771	310.939	250.891	368.799	193.216	427.164	514.473	529.876	455.430	179.847	440.325	384.861	463.082	329.686	531.765	430.340	221.835	0.00020964	0.0001765	6.0996e-05	183.87	1.5968e-06	3.7018e-06	333.09	69.055	2.4462e-06	2.6135e-06	139.22	50.459	23.864	10.208	2.6807e-06	23.132	6.3212e-05	5.6723e-05	1.577e-05	174.53	6.2826e-07	6.2882e-07	312.33	64.884	6.4327e-07	6.2244e-07	128.25	47.138	22.328	9.604	6.3602e-07	21.437	258.428	243.716	272.892	187.135	405.457	324.480	186.901	193.231	288.054	382.812	189.786	194.541	196.590	200.683	408.946	198.443	-8191	255	
3219.972	1	1	0	0	0.1429	0.13541	0.2148	0.13104	0.18299	0.31272	0.15627	0.095273	0.22515	0.14284	0.11469	0.29519	0.11771	0.15623	0.1387	0.23663	-2.3625	-2.9917	-3.3479	-2.6312	-3.2771	-3.0917	-2.8896	-3.3354	-2.6917	-2.9562	-3.3688	-2.4458	-3.3104	-3.0938	-2.5583	-3.2875	434.608	422.122	504.033	334.888	182.861	308.098	354.209	390.288	441.568	528.895	531.135	221.587	200.234	301.606	503.383	233.632	0.0002333	4.435e-05	1.4426e-05	183.74	3.7271e-06	2.3111e-06	334.29	68.153	1.0736e-06	1.7439e-06	141.54	50.687	23.816	10.328	1.5457e-06	23.13	6.5978e-05	5.9209e-05	1.6047e-05	173.93	6.3799e-07	6.1355e-07	311.69	64.444	6.4258e-07	6.2483e-07	127.82	47.002	22.225	9.6406	6.5488e-07	21.398	254.269	275.966	399.245	187.569	319.646	368.101	186.923	192.686	249.944	435.591	190.698	194.457	195.891	200.490	380.375	197.888	-8191	255	
3220.091	1	1	0	0	0.43364	0.21979	0.056981	0.14809	0.44676	0.21177	0.12991	0.13992	0.11927	0.10911	0.075146	0.083389	0.034604	0.19786	0.1068	0.31577	-2.4479	-2.6813	-3.2833	-2.6625	-3.1708	-3.0958	-2.5833	-3.425	-2.8458	-2.775	-3.4333	-2.7438	-3.1396	-3.2396	-2.5667	-3.3229	468.704	447.882	449.826	530.735	398.094	505.527	179.007	274.324	319.516	246.854	353.812	274.105	415.085	183.890	414.485	342.363	0.000187	9.2354e-05	7.5964e-05	185.72	1.6976e-06	4.3188e-06	332.96	68.876	1.2671e-06	1.8638e-06	140.68	50.531	23.538	10.252	1.1565e-06	23.051	6.425e-05	5.8205e-05	1.5875e-05	174.87	6.3589e-07	6.5099e-07	311.86	64.845	6.4584e-07	6.3156e-07	128.55	47.107	22.216	9.6052	6.2916e-07	21.433	236.190	482.524	247.342	187.600	178.429	315.425	186.929	192.799	301.751	262.557	190.142	194.334	196.646	201.192	459.532	198.662	-8191	255	
3220.187	1	1	0	0	0.16226	0.14122	0.14024	0.22858	0.18598	0.15525	0.14081	0.14228	0.15938	0.20846	0.18127	0.17332	0.15046	0.22297	0.39668	0.12415	-2.4479	-2.6271	-3.3708	-2.5521	-3.1063	-3.2958	-2.5354	-3.2542	-2.9604	-2.7396	-3.4167	-2.5271	-3.0563	-3.2854	-2.4708	-3.275	480.519	200.561	417.450	523.660	243.598	356.098	354.121	443.916	268.436	286.088	447.318	236.324	382.416	457.671	303.541	310.724	0.00016146	0.00021704	6.7752e-05	186.12	1.9171e-06	1.2127e-06	336.01	68.66	1.8951e-06	1.3663e-06	141.83	50.517	23.708	10.302	1.3267e-06	23.52	6.4466e-05	5.8561e-05	1.6106e-05	174.92	6.4216e-07	6.3223e-07	313.34	65.052	6.3249e-07	6.4726e-07	129.12	47.271	22.287	9.6484	6.2683e-07	21.639	245.661	315.555	219.807	187.330	346.981	299.979	186.395	192.678	271.362	351.239	190.903	194.300	196.909	201.060	288.583	198.746	-8191	255	
3220.283	1	1	0	0	0.074803	0.053295	0.14484	0.19447	0.22338	0.054539	0.16878	0.12658	0.12418	0.096103	0.38287	0.22263	0.072457	0.21958	0.015564	0.098987	-2.6729	-2.6125	-3.5062	-2.5417	-2.8854	-3.3187	-2.4542	-3.2188	-2.9625	-2.6833	-3.2792	-2.7646	-2.8646	-3.3854	-2.6792	-3.3521	491.251	504.172	470.443	456.609	496.884	355.555	363.225	416.489	487.805	315.075	464.965	482.918	330.592	465.616	254.955	473.876	0.00019724	0.00012844	5.147e-05	186.33	1.84e-06	1.1002e-06	334.76	69.08	1.2562e-06	1.3538e-06	140.13	50.753	23.944	10.293	2.3879e-06	23.342	6.3941e-05	5.8647e-05	1.6109e-05	175.41	6.4084e-07	6.2185e-07	314.2	65.418	6.3926e-07	6.1718e-07	128.59	47.27	22.333	9.6698	6.3334e-07	21.577	259.335	290.541	296.129	187.902	291.529	404.185	186.800	192.812	424.071	286.486	190.581	194.578	197.195	201.054	293.128	198.171	-8191	255	
#DATA ENDS
