BOXY.EXE: ISS Imagent and Oximeter Data Acquisition Program Version 0.80
Ascii Record File

#ACQ INFORMATION
2  Detector Channels 
16  External MUX Channels 
1  Auxiliary Channels 
5000  Waveform (CCF) Frequency (Hz)
1  Waveforms Skipped 
30  Waveforms Averaged 
1  Cycles Averaged 
16  Acquisitions per Waveform 
10.0806  Updata Rate (Hz) 

#FILE INFORMATION
TRUE -- External MUX Channel results are PARSED.
FALSE -- AC DC and Phase are NOT grouped.
TRUE -- Companion Program Settings File CREATED.
FALSE -- AC data not excluded
FALSE -- DC data not excluded
FALSE -- Phase data not excluded
FALSE -- Auxillary Chn. data not excluded
Tab delimiters

#CALIBRATION STATE
TRUE -- Waveform Calibration Values APPLIED.


#AUX CALIBRATION VALUES
Val Type	aux-1	

Term	1.0000e+00	
Factor	0.0000e+00	


#WF CALIBRATION VALUES
A = Detector Channel
Val Type	A-AC1	A-AC2	A-AC3	A-AC4	A-AC5	A-AC6	A-AC7	A-AC8	A-AC9	A-AC10	A-AC11	A-AC12	A-AC13	A-AC14	A-AC15	A-AC16	A-DC1	A-DC2	A-DC3	A-DC4	A-DC5	A-DC6	A-DC7	A-DC8	A-DC9	A-DC10	A-DC11	A-DC12	A-DC13	A-DC14	A-DC15	A-DC16	A-Ph1	A-Ph2	A-Ph3	A-Ph4	A-Ph5	A-Ph6	A-Ph7	A-Ph8	A-Ph9	A-Ph10	A-Ph11	A-Ph12	A-Ph13	A-Ph14	A-Ph15	A-Ph16	

Term	0.00000e+00	0.00000e+00	0.00000e+00	0.00000e+00	0.00000e+00	0.00000e+00	0.00000e+00	0.00000e+00	0.00000e+00	0.00000e+00	0.00000e+00	0.00000e+00	0.00000e+00	0.00000e+00	0.00000e+00	0.00000e+00	0.00000e+00	0.00000e+00	0.00000e+00	0.00000e+00	0.00000e+00	0.00000e+00	0.00000e+00	0.00000e+00	0.00000e+00	0.00000e+00	0.00000e+00	0.00000e+00	0.00000e+00	0.00000e+00	0.00000e+00	0.00000e+00	0.00000e+00	0.00000e+00	0.00000e+00	0.00000e+00	0.00000e+00	0.00000e+00	0.00000e+00	0.00000e+00	0.00000e+00	0.00000e+00	0.00000e+00	0.00000e+00	0.00000e+00	0.00000e+00	0.00000e+00	0.00000e+00	
Factor	1.00000e+00	1.00000e+00	1.00000e+00	1.00000e+00	1.00000e+00	1.00000e+00	1.00000e+00	1.00000e+00	1.00000e+00	1.00000e+00	1.00000e+00	1.00000e+00	1.00000e+00	1.00000e+00	1.00000e+00	1.00000e+00	1.00000e+00	1.00000e+00	1.00000e+00	1.00000e+00	1.00000e+00	1.00000e+00	1.00000e+00	1.00000e+00	1.00000e+00	1.00000e+00	1.00000e+00	1.00000e+00	1.00000e+00	1.00000e+00	1.00000e+00	1.00000e+00	X	X	X	X	X	X	X	X	X	X	X	X	X	X	X	X	

B = Detector Channel
Val Type	B-AC1	B-AC2	B-AC3	B-AC4	B-AC5	B-AC6	B-AC7	B-AC8	B-AC9	B-AC10	B-AC11	B-AC12	B-AC13	B-AC14	B-AC15	B-AC16	B-DC1	B-DC2	B-DC3	B-DC4	B-DC5	B-DC6	B-DC7	B-DC8	B-DC9	B-DC10	B-DC11	B-DC12	B-DC13	B-DC14	B-DC15	B-DC16	B-Ph1	B-Ph2	B-Ph3	B-Ph4	B-Ph5	B-Ph6	B-Ph7	B-Ph8	B-Ph9	B-Ph10	B-Ph11	B-Ph12	B-Ph13	B-Ph14	B-Ph15	B-Ph16	

Term	0.00000e+00	0.00000e+00	0.00000e+00	0.00000e+00	0.00000e+00	0.00000e+00	0.00000e+00	0.00000e+00	0.00000e+00	0.00000e+00	0.00000e+00	0.00000e+00	0.00000e+00	0.00000e+00	0.00000e+00	0.00000e+00	0.00000e+00	0.00000e+00	0.00000e+00	0.00000e+00	0.00000e+00	0.00000e+00	0.00000e+00	0.00000e+00	0.00000e+00	0.00000e+00	0.00000e+00	0.00000e+00	0.00000e+00	0.00000e+00	0.00000e+00	0.00000e+00	-7.43740e+01	-1.28316e+02	-1.28292e+02	-1.84666e+02	-6.09405e+01	-9.26518e+01	-1.57220e+02	-1.62015e+02	-6.83234e+01	-6.49300e+01	-1.71356e+02	-1.71554e+02	-1.80605e+02	-1.78112e+02	-5.87324e+01	-1.50478e+02	
Factor	1.69462e-05	1.09168e-04	3.22790e-05	1.81303e-01	1.25172e-06	1.14954e-06	1.71467e-01	5.38756e-02	1.13096e-06	1.21214e-06	1.27027e-01	2.77678e-02	2.53669e-02	8.93279e-03	9.87240e-07	1.27691e-02	1.16641e-06	1.21360e-06	3.37925e-07	9.36980e-02	1.32701e-08	1.33200e-08	8.34584e-02	2.80064e-02	1.32587e-08	1.33078e-08	6.16425e-02	1.38762e-02	1.31430e-02	4.61932e-03	1.32892e-08	6.33447e-03	X	X	X	X	X	X	X	X	X	X	X	X	X	X	X	X	



#DISTANCE SETTINGS
A = Detector Channel
A-1	A-2	A-3	A-4	A-5	A-6	A-7	A-8	A-9	A-10	A-11	A-12	A-13	A-14	A-15	A-16	

2.5000e+00	3.0000e+00	2.5000e+00	3.0000e+00	2.0000e+00	3.0000e+00	1.5000e+00	3.0000e+00	3.0000e+00	3.0000e+00	3.0000e+00	3.0000e+00	3.0000e+00	3.0000e+00	1.5000e+00	3.0000e+00	

B = Detector Channel
B-1	B-2	B-3	B-4	B-5	B-6	B-7	B-8	B-9	B-10	B-11	B-12	B-13	B-14	B-15	B-16	

1.0000e+01	1.0000e+01	1.0000e+01	1.4400e+00	1.0000e+01	1.0000e+01	1.5100e+00	1.9400e+00	1.0000e+01	1.0000e+01	1.9900e+00	2.4900e+00	2.4100e+00	2.9000e+00	1.0000e+01	2.9800e+00	




#DATA BEGINS
time	group	step	mark	flag	A-AC1	A-AC2	A-AC3	A-AC4	A-AC5	A-AC6	A-AC7	A-AC8	A-AC9	A-AC10	A-AC11	A-AC12	A-AC13	A-AC14	A-AC15	A-AC16	A-DC1	A-DC2	A-DC3	A-DC4	A-DC5	A-DC6	A-DC7	A-DC8	A-DC9	A-DC10	A-DC11	A-DC12	A-DC13	A-DC14	A-DC15	A-DC16	A-Ph1	A-Ph2	A-Ph3	A-Ph4	A-Ph5	A-Ph6	A-Ph7	A-Ph8	A-Ph9	A-Ph10	A-Ph11	A-Ph12	A-Ph13	A-Ph14	A-Ph15	A-Ph16	B-AC1	B-AC2	B-AC3	B-AC4	B-AC5	B-AC6	B-AC7	B-AC8	B-AC9	B-AC10	B-AC11	B-AC12	B-AC13	B-AC14	B-AC15	B-AC16	B-DC1	B-DC2	B-DC3	B-DC4	B-DC5	B-DC6	B-DC7	B-DC8	B-DC9	B-DC10	B-DC11	B-DC12	B-DC13	B-DC14	B-DC15	B-DC16	B-Ph1	B-Ph2	B-Ph3	B-Ph4	B-Ph5	B-Ph6	B-Ph7	B-Ph8	B-Ph9	B-Ph10	B-Ph11	B-Ph12	B-Ph13	B-Ph14	B-Ph15	B-Ph16	aux-1	digaux	

2898.167	1	1	0	256	0.11825	0.16306	0.20156	0.40166	0.030356	0.26603	0.15068	0.14745	0.27369	0.32971	0.059789	0.089577	0.10125	0.27934	0.23726	0.088311	-2.9083	-2.5979	-3.0812	-3.1479	-2.625	-3.2229	-2.9188	-2.8646	-3.2583	-2.3396	-3.2083	-3.3104	-2.7354	-3.3958	-2.8625	-2.7562	284.266	391.252	295.340	160.567	164.258	429.566	470.869	483.119	446.198	246.733	299.733	326.405	392.210	477.907	308.757	398.048	0.00055801	0.0002123	0.00014348	1458.9	8.097e-06	3.9703e-06	1446.3	398.37	4.9815e-06	2.5464e-06	452.29	149.4	131.77	44.327	1.7459e-06	54.419	0.00025524	0.0002409	6.625e-05	1449.7	2.6505e-06	2.6427e-06	1443.7	396.79	2.6571e-06	2.6586e-06	442.56	148.73	130.27	44.278	2.6881e-06	54.091	249.216	223.297	242.896	164.792	272.216	324.923	164.395	169.272	311.345	225.387	168.671	173.173	173.821	177.848	359.848	177.540	-8191	255	
2898.264	1	1	0	0	0.22218	0.15278	0.085377	0.18659	0.18166	0.21622	0.17836	0.2327	0.15439	0.10263	0.074053	0.30693	0.15108	0.21258	0.28509	0.11568	-3.0062	-2.6125	-3.0875	-3.3563	-2.6333	-3.2708	-3.2542	-2.9062	-3.3104	-2.6167	-3.0354	-3.3729	-2.4854	-3.4021	-2.6833	-2.6958	400.428	350.686	286.148	429.856	393.233	227.660	369.491	469.227	161.611	485.911	331.953	163.529	240.100	163.305	293.601	232.308	0.0004902	0.00016242	0.00011059	1450.8	3.6528e-06	3.825e-06	1448.6	397.34	6.1437e-06	5.8937e-06	452.74	149.39	130.83	44.199	3.3944e-06	54.198	0.00025917	0.00024532	6.9528e-05	1448.1	2.7239e-06	2.6847e-06	1443.5	396.22	2.7376e-06	2.7143e-06	443.14	148.77	130	44.247	2.7298e-06	54.031	249.148	222.689	208.191	164.733	276.000	268.076	164.749	169.428	295.310	290.409	168.810	172.944	173.686	178.067	275.853	177.618	-8191	255	
2898.360	1	1	0	0	0.20198	0.18222	0.10837	0.31149	0.11958	0.16713	0.21807	0.31266	0.11824	0.29035	0.32091	0.27124	0.18165	0.23146	0.10903	0.19456	-2.9917	-2.3812	-2.9167	-3.4771	-2.4792	-3.1104	-3.2292	-2.7146	-3.3625	-2.6479	-2.95	-3.5917	-2.6	-3.1917	-3.1688	-2.6229	306.914	261.500	189.266	498.467	323.159	413.015	473.046	154.962	227.707	510.460	425.296	437.577	173.529	493.443	217.937	372.146	0.00054004	0.00053616	9.6541e-05	1455.5	7.98e-06	2.9085e-06	1451.8	397.93	1.8185e-06	2.3316e-06	453.06	149.48	131.23	44.344	1.7436e-06	54.329	0.00026357	0.00024933	6.8997e-05	1451.5	2.7654e-06	2.7147e-06	1446.2	396.44	2.7266e-06	2.7529e-06	442.75	148.68	130.05	44.303	2.7238e-06	54.051	251.246	217.915	244.710	164.709	307.813	252.195	164.653	169.437	311.882	330.294	168.804	172.844	173.870	178.215	278.702	177.538	-8191	255	
2898.456	1	1	0	0	0.32728	0.24129	0.054538	0.074683	0.25262	0.10628	0.14653	0.22328	0.13079	0.16333	0.21445	0.096179	0.12898	0.060092	0.41016	0.3405	-2.8771	-2.8625	-2.675	-3.5229	-2.5833	-3.1708	-3.4375	-2.7917	-3.3375	-2.8646	-2.7687	-3.6	-2.5917	-3.2104	-3.2375	-2.6583	332.779	375.813	384.476	453.571	347.841	311.553	416.538	448.484	430.784	487.346	406.319	258.263	241.456	287.219	266.244	174.378	0.00055865	0.000628	0.00017126	1457.5	5.3589e-06	5.4796e-06	1450.8	397.13	4.3205e-06	3.5469e-06	449.3	149.21	131.54	44.286	6.0228e-06	54.111	0.00026512	0.00025047	6.9282e-05	1452	2.7455e-06	2.7453e-06	1445.7	396.72	2.7456e-06	2.7363e-06	442.25	148.88	130.31	44.252	2.749e-06	54.067	247.800	261.152	261.648	164.590	248.095	268.359	164.596	169.362	301.931	245.140	168.878	172.902	173.776	178.217	293.280	177.389	-8191	255	
2898.575	1	1	0	0	0.25649	0.098239	0.07282	0.24901	0.3238	0.18979	0.079918	0.11098	0.22011	0.042422	0.23903	0.26317	0.27937	0.19521	0.2377	0.12523	-3.0062	-2.7917	-2.7833	-3.5542	-2.8229	-3.0563	-3.4437	-2.6188	-3.2292	-2.9333	-2.7958	-3.5146	-2.75	-3.0938	-3.2792	-2.6021	175.089	166.390	152.785	166.831	268.795	262.007	384.301	456.812	436.004	510.446	175.769	470.162	285.722	492.428	365.641	483.825	0.00055372	0.00063039	0.00016249	1459	8.0999e-06	5.0276e-06	1449.7	396.95	4.0019e-06	4.1638e-07	454.57	149.15	130.92	44.448	2.7892e-06	54.376	0.0002683	0.00025237	6.9527e-05	1452.6	2.7672e-06	2.7086e-06	1446.7	396.31	2.7671e-06	2.7432e-06	443.88	148.94	130.07	44.316	2.7636e-06	54.107	245.419	248.134	219.541	164.660	331.463	303.993	164.568	169.235	322.680	247.209	168.692	173.090	173.586	178.144	281.761	177.326	-8191	255	
2898.646	1	1	0	0	0.12807	0.0363	0.21482	0.21227	0.21084	0.28899	0.28242	0.15501	0.17993	0.20406	0.077237	0.098109	0.36628	0.24583	0.16482	0.34935	-2.6646	-3.0438	-2.6688	-3.4771	-2.5438	-2.7979	-3.4917	-2.7208	-3.2542	-3.0458	-2.7146	-3.5687	-2.9208	-2.8812	-3.3354	-2.6437	265.456	378.733	429.739	379.162	431.867	179.361	497.663	450.146	171.256	341.825	490.833	361.388	165.654	214.256	451.642	456.894	0.00056485	0.00037703	5.8594e-05	1461.2	5.0874e-06	2.3447e-06	1452.2	398.13	3.3811e-06	4.389e-06	451.41	149.05	131.43	44.262	5.1849e-06	54.138	0.00026657	0.00025147	6.976e-05	1453.4	2.748e-06	2.7268e-06	1448.9	396.81	2.7726e-06	2.7218e-06	442.81	148.62	130.33	44.267	2.7149e-06	54.033	249.868	262.103	246.576	164.910	281.138	266.965	164.476	169.205	257.044	240.762	168.838	172.859	173.534	178.181	293.804	177.328	-8191	255	
2898.743	1	1	0	0	0.28952	0.17611	0.06419	0.2776	0.36068	0.087482	0.20975	0.20219	0.1449	0.20239	0.28309	0.32704	0.33649	0.17619	0.19983	0.17886	-2.5958	-3.1417	-2.6542	-3.4437	-2.9271	-2.5875	-3.5167	-2.9604	-3.2167	-3.1792	-2.7313	-3.4688	-3.0438	-2.7229	-3.4021	-2.525	369.075	369.708	462.791	385.354	163.160	409.138	481.759	503.555	156.708	327.137	187.500	489.245	506.033	214.257	170.207	459.993	0.00053673	0.00054261	0.00010946	1458	6.3521e-06	2.3087e-06	1451.6	397.36	3.5207e-06	3.631e-06	451.17	148.86	131.08	44.332	4.4863e-06	54.275	0.0002636	0.00024738	6.9351e-05	1453.9	2.7598e-06	2.7066e-06	1448.8	396.23	2.7201e-06	2.7002e-06	442.97	148.75	130.19	44.288	2.7035e-06	53.989	254.348	267.750	244.718	164.764	310.562	278.161	164.345	169.371	213.962	295.201	168.575	173.214	173.689	178.119	280.657	177.442	-8191	255	
2898.839	1	1	0	0	0.096811	0.20184	0.16755	0.080858	0.22403	0.12195	0.27264	0.2044	0.16624	0.033155	0.39383	0.13697	0.21884	0.24337	0.068901	0.10497	-2.7062	-3.1896	-2.35	-3.5542	-2.8187	-2.6771	-3.4813	-2.8021	-2.8125	-3.3458	-2.6167	-3.3833	-3.1312	-2.6937	-3.3958	-3.1396	178.916	333.510	416.824	447.386	505.911	314.582	450.257	431.362	473.417	306.369	451.642	440.775	464.003	437.595	159.510	434.846	0.00056547	0.00078331	0.00010806	1463.7	6.2979e-06	5.6958e-06	1449.1	397.06	6.7169e-06	5.8765e-06	451.77	149.5	131.49	44.263	6.8001e-06	54.408	0.00026234	0.00025011	6.9378e-05	1455.7	2.7201e-06	2.6747e-06	1446	395.98	2.715e-06	2.6962e-06	441.91	148.97	130.35	44.3	2.7203e-06	54.132	244.150	219.355	255.904	164.646	253.325	329.823	164.605	169.142	292.956	327.740	168.548	172.976	173.700	178.214	303.901	177.534	-8191	255	
2898.959	1	1	0	0	0.17453	0.23596	0.2121	0.29477	0.057773	0.13284	0.1206	0.16709	0.28301	0.18897	0.13653	0.3558	0.28627	0.33469	0.11449	0.20617	-2.4625	-3.3708	-2.4208	-3.3771	-2.9958	-2.475	-3.6854	-2.975	-2.6854	-3.2583	-2.8271	-3.2875	-3.2854	-2.4792	-3.4188	-3.0104	491.041	325.862	388.216	477.160	219.637	421.620	501.904	475.333	442.972	211.583	473.496	447.919	393.282	482.719	176.914	456.787	0.00051373	0.00032379	0.00016072	1461	6.2473e-06	5.7342e-06	1451.3	396.56	5.9388e-06	1.0319e-06	454.13	149.66	131.42	44.11	1.9949e-06	54.443	0.00025991	0.00024697	6.9278e-05	1455	2.7002e-06	2.6967e-06	1447.6	395.9	2.7367e-06	2.6887e-06	442.51	148.76	130.18	44.186	2.7028e-06	54.089	245.247	239.851	222.734	164.807	297.743	282.801	164.618	169.188	296.765	469.417	168.613	173.386	173.769	177.950	285.911	177.430	-8191	255	
2899.055	1	1	0	0	0.058081	0.12964	0.1655	0.25136	0.1569	0.097349	0.26792	0.26144	0.18288	0.10511	0.13181	0.30472	0.37158	0.093144	0.14826	0.15237	-2.2687	-3.325	-2.5729	-3.2625	-3.4021	-2.7917	-3.5021	-3.1417	-2.6146	-3.4229	-2.7938	-3.1375	-3.4938	-2.875	-3.35	-3.0104	335.318	232.603	433.272	469.545	457.074	320.074	458.216	436.340	307.044	274.171	490.792	419.417	439.005	183.905	319.163	236.058	0.00061955	0.00047991	0.00024014	1459	8.8279e-06	8.1651e-06	1452.3	398.23	5.3131e-06	5.1048e-06	451.93	149.34	130.9	44.374	4.0851e-06	54.407	0.00026351	0.00024475	6.9153e-05	1452.7	2.6807e-06	2.6905e-06	1447.8	396.66	2.6881e-06	2.6714e-06	441.95	148.68	130.23	44.249	2.7007e-06	54.019	247.198	247.966	232.588	164.844	291.614	269.077	164.519	169.140	264.080	359.642	168.927	172.960	173.645	178.076	326.376	177.552	-8191	255	
2899.152	1	1	0	0	0.11566	0.15859	0.032097	0.23816	0.18545	0.0030934	0.31021	0.21945	0.26032	0.060505	0.085665	0.077819	0.065841	0.29516	0.1981	0.30946	-2.3208	-3.4188	-2.6604	-3.1146	-3.2896	-2.6813	-3.4458	-3.1708	-2.6312	-3.4667	-2.9958	-2.9479	-3.3792	-2.7083	-3.1917	-3.2062	323.031	406.059	252.636	500.588	184.595	329.306	461.837	458.980	253.597	254.286	184.755	447.297	238.947	389.534	223.511	488.847	0.00050907	0.00040958	0.00025153	1463.1	4.1719e-06	2.3568e-07	1453.4	397.27	4.2865e-06	3.2126e-06	450.29	149.29	131.01	44.131	3.7848e-06	54.216	0.00026067	0.0002445	6.8147e-05	1454.1	2.682e-06	2.6785e-06	1447.7	395.59	2.7247e-06	2.6837e-06	441.97	148.74	130.02	44.145	2.6663e-06	53.987	247.452	300.440	239.365	164.727	309.425	501.328	164.734	169.336	298.906	317.533	168.591	173.207	173.553	177.980	306.898	177.413	-8191	255	
2899.248	1	1	0	0	0.055896	0.1146	0.07912	0.5186	0.057584	0.10284	0.28232	0.24149	0.13648	0.13022	0.39476	0.20606	0.1218	0.23317	0.33354	0.077192	-2.0333	-3.4479	-2.7938	-2.9479	-3.2125	-2.6521	-3.4104	-3.3854	-2.5167	-3.4062	-2.7938	-2.8417	-3.6104	-2.7896	-3.0812	-3.4292	217.854	378.061	432.263	156.412	329.895	285.512	429.829	448.430	263.905	228.312	487.960	377.591	341.847	451.318	222.056	389.338	0.00050383	0.00067246	0.00019759	1459.2	2.8336e-06	4.3375e-06	1452	396.22	2.6954e-06	4.703e-06	451.32	149.32	130.85	44.142	1.2916e-06	54.357	0.00026444	0.00024599	6.7546e-05	1452.7	2.7005e-06	2.7452e-06	1447.8	395.72	2.7236e-06	2.7011e-06	442.6	148.52	130.02	44.18	2.7054e-06	54	246.441	245.908	228.536	164.770	309.996	244.007	164.786	169.392	273.262	292.732	168.706	173.485	173.737	178.180	352.876	177.385	-8191	255	
2899.344	1	1	0	0	0.11346	0.08076	0.18889	0.32017	0.13835	0.13173	0.27191	0.38077	0.12822	0.16107	0.072304	0.24131	0.040049	0.17806	0.042731	0.04418	-2.2146	-3.3583	-2.9	-2.8812	-3.2667	-2.6688	-3.2771	-3.4	-2.4917	-3.1896	-3.0833	-2.5896	-3.4854	-2.7562	-2.9167	-3.2896	389.900	409.523	423.119	163.450	165.057	337.625	418.091	407.863	508.748	510.069	478.851	465.406	246.754	411.372	413.892	458.924	0.00052001	0.00043276	6.2707e-05	1461.2	9.4544e-06	3.7089e-06	1452.2	398.2	6.1823e-06	8.1687e-07	451.04	149.24	130.8	44.225	7.2304e-06	54.011	0.00026174	0.00024624	6.8347e-05	1452	2.7216e-06	2.6621e-06	1445.9	396.49	2.682e-06	2.6632e-06	441.44	148.69	130.28	44.206	2.6815e-06	53.973	248.232	208.428	198.093	165.052	299.656	224.642	164.664	169.310	258.643	327.658	168.526	173.138	173.818	177.951	300.192	177.513	-8191	255	
2899.440	1	1	0	0	0.17828	0.28855	0.30877	0.29821	0.13069	0.047305	0.25822	0.19207	0.16955	0.23299	0.33206	0.095118	0.21911	0.21529	0.026775	0.077658	-2.0521	-3.0104	-2.9979	-2.5917	-3.2542	-2.7	-3.1479	-3.4646	-2.6208	-3.2604	-3.2229	-2.6771	-3.4771	-2.9813	-2.7333	-3.5	294.050	495.796	176.864	440.597	287.204	409.918	475.330	480.300	185.974	247.770	466.344	162.447	234.463	157.811	402.708	281.820	0.00053361	0.00055066	2.6315e-05	1464.2	7.5073e-06	4.1792e-06	1449.7	396.38	4.3754e-06	2.8388e-06	451.09	148.75	131	44.186	3.7014e-06	54.14	0.00026034	0.00024417	6.737e-05	1453.5	2.6992e-06	2.6551e-06	1448.2	395.72	2.6998e-06	2.6545e-06	442.05	148.55	130.11	44.136	2.6332e-06	53.96	251.166	226.308	438.160	164.875	252.830	293.542	164.477	169.451	304.412	361.009	168.764	173.298	173.807	178.173	245.907	177.424	-8191	255	
2899.536	1	1	0	0	0.16652	0.12203	0.23155	0.16675	0.17194	0.20175	0.16734	0.32435	0.051383	0.43416	0.21606	0.37302	0.12065	0.3574	0.15755	0.1577	-1.9604	-3.1	-3.1708	-2.6896	-3.4708	-2.9229	-2.9854	-3.6458	-2.4688	-3.175	-3.3521	-2.6833	-3.2083	-2.8937	-2.5812	-3.5	487.612	198.583	312.039	466.161	287.431	443.079	411.978	423.960	152.263	297.169	508.131	448.920	503.911	431.668	484.091	452.739	0.00051041	0.00044444	0.00014552	1460.6	6.2545e-06	1.1622e-06	1445.1	396.04	6.2876e-06	4.883e-06	452.43	149.1	131.29	44.2	3.6374e-06	54.238	0.00025461	0.00024285	6.6577e-05	1453.2	2.6663e-06	2.5997e-06	1443.5	395.2	2.6483e-06	2.6561e-06	441.35	148.39	129.98	44.101	2.6736e-06	53.994	252.381	255.106	292.623	164.694	337.014	289.385	164.747	169.328	299.643	289.740	168.907	173.175	173.823	177.925	328.205	177.618	-8191	255	
2899.655	1	1	0	0	0.36188	0.11651	0.14164	0.35088	0.16495	0.11593	0.46332	0.11609	0.12339	0.22915	0.12041	0.13021	0.1018	0.22841	0.24898	0.25755	-2.2729	-3.2	-3.2479	-2.9583	-3.1937	-3.1063	-2.9104	-3.4854	-2.6583	-2.95	-3.5542	-2.6875	-3.3854	-3.0875	-2.6042	-3.5458	207.643	495.928	392.582	511.437	276.348	468.457	476.247	442.848	363.792	394.065	153.861	502.567	432.005	432.629	343.267	434.958	0.00056217	0.00023356	0.00010645	1462.4	2.3423e-06	6.8967e-06	1446	396.72	5.6101e-06	7.3513e-06	453.36	149.03	131.66	44.314	6.2844e-06	54.166	0.00025833	0.00024125	6.663e-05	1452.5	2.6751e-06	2.6218e-06	1443.9	396.09	2.6778e-06	2.6531e-06	441.85	148.24	130.33	44.11	2.6381e-06	53.927	245.701	261.126	222.180	164.877	389.407	262.512	164.766	169.468	265.146	234.617	168.844	173.467	173.891	178.208	254.641	177.396	-8191	255	
2899.751	1	1	0	0	0.063071	0.083285	0.15436	0.27064	0.36134	0.093392	0.24415	0.51716	0.30108	0.09565	0.22887	0.11004	0.1825	0.13906	0.25506	0.2911	-2.3896	-2.775	-3.3896	-2.7417	-3.3063	-3.0521	-2.5938	-3.5292	-2.9625	-2.7167	-3.4125	-2.6708	-3.2667	-3.2792	-2.55	-3.4375	321.912	371.077	201.865	447.482	182.553	269.320	450.009	449.007	350.276	293.982	490.880	475.280	438.912	176.332	162.082	155.008	0.00057957	0.00024488	0.00013386	1457.3	5.5909e-06	3.6711e-06	1445.3	396.14	9.2552e-06	1.9583e-06	448.08	148.96	130.59	44.279	3.4907e-06	53.969	0.00025804	0.00023791	6.6496e-05	1447.1	2.6751e-06	2.6216e-06	1443.2	395.17	2.6642e-06	2.6649e-06	440.85	148.28	129.74	44.136	2.652e-06	53.843	248.381	223.402	237.809	164.932	279.989	332.712	164.770	169.427	291.613	286.188	168.648	173.164	174.002	178.177	262.158	177.521	-8191	255	
2899.847	1	1	0	0	0.24532	0.17174	0.19434	0.37246	0.059919	0.083061	0.11241	0.20813	0.27478	0.1053	0.093331	0.40457	0.15284	0.05145	0.23052	0.13022	-2.5354	-2.6188	-3.3	-2.8125	-3.1146	-3.2583	-2.8542	-3.5021	-2.8521	-2.7167	-3.4479	-2.7854	-3.0687	-3.4	-2.55	-3.2667	198.586	245.157	385.830	449.372	332.319	493.016	503.689	463.847	461.117	458.884	487.608	481.172	196.564	176.776	470.409	175.198	0.00056796	0.00037489	6.2641e-05	1452.4	4.6934e-06	5.281e-06	1448.3	396.54	4.7458e-06	2.2534e-06	449.58	148.86	131.06	44.109	2.3955e-06	54.336	0.00025743	0.0002408	6.6623e-05	1446.6	2.6595e-06	2.6333e-06	1442.1	395.34	2.6644e-06	2.6262e-06	440.88	148.23	129.82	44.005	2.6449e-06	53.86	244.529	193.956	463.157	164.683	315.638	286.779	164.837	169.440	255.313	324.668	169.154	173.281	174.040	178.230	255.567	177.717	-8191	255	
2899.944	1	1	0	0	0.053504	0.12654	0.14713	0.19484	0.19126	0.3941	0.32263	0.34823	0.17025	0.21186	0.32906	0.24345	0.1885	0.28538	0.15712	0.041736	-2.6312	-2.5958	-3.4833	-2.9833	-2.85	-3.3396	-2.7042	-3.3042	-3.0958	-2.6667	-3.4646	-2.8063	-3.0542	-3.4167	-2.6542	-3.1896	224.344	448.508	493.314	416.630	191.269	489.813	439.234	411.375	428.179	210.126	425.500	431.678	510.886	508.975	308.967	266.333	0.00051252	0.00062815	1.0482e-05	1454.3	8.8857e-06	5.9675e-06	1446	395.25	5.7897e-06	5.0782e-06	450.02	148.17	130.53	43.9	3.6346e-06	54.138	0.00025612	0.00024354	6.7454e-05	1445.9	2.6662e-06	2.6498e-06	1440.9	394.66	2.6585e-06	2.6532e-06	440.67	148.09	129.52	43.971	2.6494e-06	53.8	249.179	225.328	361.107	164.893	291.787	318.591	164.684	169.474	309.279	326.181	168.919	173.312	173.786	178.384	344.700	177.571	-8191	255	
2900.040	1	1	0	0	0.1346	0.11179	0.17998	0.43258	0.11174	0.14359	0.26568	0.16713	0.1241	0.15732	0.23454	0.13197	0.2265	0.32453	0.17191	0.26167	-2.8958	-2.5896	-3.4188	-2.9958	-2.7438	-3.4333	-2.8812	-3.4792	-3.2958	-2.4521	-3.6188	-3.0771	-2.8917	-3.4604	-2.5958	-3.0583	364.552	449.316	336.519	425.410	478.831	289.437	471.016	467.337	317.334	314.477	432.844	422.952	361.304	424.358	499.045	417.512	0.00053273	0.00022686	8.2905e-05	1457.3	3.4708e-06	4.4525e-06	1446.8	395.06	5.2797e-06	4.2524e-06	448.81	148.41	130.67	44.207	5.1866e-06	54.401	0.00025919	0.00024152	6.7036e-05	1448.1	2.6743e-06	2.6494e-06	1441.5	395.12	2.6386e-06	2.6227e-06	440.36	148.12	129.61	44.06	2.6816e-06	53.927	244.970	185.418	226.189	164.985	282.963	277.472	164.761	169.373	257.363	279.176	168.970	173.314	174.084	178.364	312.291	177.555	-8191	255	
2900.136	1	1	0	0	0.23301	0.39009	0.2414	0.23947	0.13318	0.078524	0.21328	0.20289	0.12336	0.2261	0.13776	0.14871	0.12949	0.17397	0.14302	0.12784	-2.8917	-2.5167	-3.4146	-3.2208	-2.7708	-3.3063	-3.0062	-3.0812	-3.4396	-2.6604	-3.3146	-3.2083	-2.8542	-3.4354	-2.7417	-3.0687	511.065	345.595	217.204	458.867	431.855	250.684	485.112	483.012	306.941	155.363	495.998	409.878	432.290	502.349	301.224	353.257	0.00056714	0.00027183	7.5544e-05	1454.5	4.866e-06	3.7835e-06	1442.8	394.24	1.8761e-06	3.5029e-06	450.69	148.06	130.66	43.965	4.4205e-06	53.969	0.0002589	0.00024548	6.791e-05	1446.6	2.6996e-06	2.6388e-06	1440.7	394.04	2.6767e-06	2.6687e-06	440.97	147.84	129.7	44.014	2.6842e-06	53.755	253.608	203.328	286.614	164.902	319.711	245.959	164.727	169.596	329.666	325.074	169.032	173.450	173.893	178.399	359.793	177.904	-8191	255	
2900.256	1	1	0	0	0.090677	0.15952	0.094447	0.139	0.080577	0.065	0.18054	0.22841	0.093013	0.046278	0.20278	0.12174	0.31248	0.20378	0.24704	0.16797	-2.9729	-2.4792	-3.3438	-3.2125	-2.6396	-3.5125	-2.8375	-2.9813	-3.3646	-2.5917	-3.25	-3.4313	-2.6083	-3.3937	-2.9188	-2.8375	488.669	233.461	393.870	469.857	492.645	454.352	438.548	496.924	218.926	410.152	494.265	193.767	510.377	454.283	224.344	405.139	0.00055885	0.00022353	0.00010466	1450.9	5.4613e-06	7.0344e-07	1447.1	396.6	4.4172e-06	6.5551e-06	451.04	148.49	130.73	43.941	7.4469e-06	54.169	0.00026169	0.00024586	6.7527e-05	1445.7	2.6896e-06	2.6634e-06	1441.2	395.21	2.6922e-06	2.6811e-06	440.65	148.24	129.76	44	2.6817e-06	53.865	244.339	278.666	263.733	165.051	301.450	203.097	164.706	169.702	290.678	315.952	168.847	173.333	174.209	178.368	326.666	177.980	-8191	255	
2900.353	1	1	0	0	0.1599	0.13556	0.25995	0.26897	0.22235	0.17363	0.15442	0.26389	0.16674	0.16073	0.069347	0.18978	0.2227	0.17226	0.041174	0.29716	-2.9875	-2.4271	-3.0958	-3.3771	-2.6667	-3.4562	-3.1646	-2.9437	-3.4437	-2.6688	-3.2208	-3.3417	-2.6312	-3.4938	-2.9542	-2.5979	487.252	281.629	247.237	452.703	163.228	310.795	495.529	433.632	337.358	204.818	472.866	454.796	463.563	159.694	181.671	397.857	0.00048451	0.00038377	0.0001151	1456.9	7.3296e-06	5.456e-06	1445.3	396.65	6.2919e-06	1.4638e-06	452.98	148.38	130.54	44.063	3.8831e-06	53.705	0.00025973	0.00024184	6.7221e-05	1445	2.6533e-06	2.6861e-06	1440	395.89	2.6836e-06	2.6868e-06	441.59	148.07	129.54	44.09	2.6906e-06	53.762	243.184	290.692	265.068	164.919	321.049	287.609	164.774	169.612	300.625	311.523	168.936	173.296	174.149	178.625	257.478	177.702	-8191	255	
2900.447	1	1	0	0	0.23399	0.10546	0.27209	0.18087	0.098861	0.063478	0.14392	0.22228	0.041726	0.22595	0.053832	0.15507	0.14371	0.084682	0.21415	0.21836	-3.1188	-2.6771	-2.9271	-3.6167	-2.6396	-3.3438	-3.1437	-2.7667	-3.2479	-2.8604	-3.2438	-3.4917	-2.6937	-3.325	-3.0187	-2.6521	444.816	460.042	272.284	502.539	383.473	241.747	401.577	476.205	416.906	153.820	502.909	168.173	156.950	510.991	319.392	485.322	0.0005904	0.00072458	0.00019006	1450.9	6.2181e-06	3.9276e-06	1444.7	396.17	6.1563e-06	1.2968e-06	449.09	148.28	130.71	44.141	1.8162e-06	54.007	0.00025847	0.00024378	6.7708e-05	1447.1	2.6818e-06	2.6486e-06	1441.8	395.1	2.6995e-06	2.6763e-06	440.35	148.09	129.53	44.013	2.6996e-06	53.824	245.971	255.633	262.905	164.757	269.662	269.054	164.789	169.793	296.605	231.157	169.059	173.392	174.002	178.535	245.688	177.772	-8191	255	
2900.520	1	1	0	0	0.15193	0.1689	0.14916	0.26885	0.048954	0.090833	0.27804	0.10181	0.059714	0.21897	0.1998	0.075794	0.13671	0.161	0.14594	0.16907	-3.1583	-2.7896	-2.8917	-3.4437	-2.5062	-3.2417	-3.2	-2.8438	-3.3937	-2.9021	-2.9792	-3.6292	-2.8208	-3.2188	-3.1771	-2.8896	238.604	477.651	277.584	194.698	204.882	436.624	434.802	366.164	190.877	171.337	408.468	457.313	419.127	176.217	481.318	408.034	0.00048852	0.00047987	0.00014599	1459.8	6.102e-06	5.3031e-06	1443.1	394.69	8.9652e-06	5.9097e-06	450.82	148.68	130.81	44.014	4.9426e-06	53.906	0.00026326	0.00024519	6.7714e-05	1447.6	2.718e-06	2.6655e-06	1440.1	394.09	2.6823e-06	2.6622e-06	440.82	148.07	129.81	43.965	2.6883e-06	53.74	245.937	238.423	261.268	164.823	302.565	279.792	164.594	169.686	295.911	321.746	168.996	173.478	174.150	178.480	271.412	177.718	-8191	255	
2900.639	1	1	0	0	0.15524	0.21248	0.14125	0.19053	0.24744	0.24912	0.22831	0.31558	0.23114	0.13507	0.11258	0.061107	0.047348	0.045275	0.1704	0.17157	-2.8396	-2.8479	-2.85	-3.5229	-2.7	-3.1354	-3.4729	-2.6229	-3.4604	-3.0812	-2.7687	-3.725	-2.6229	-3.0271	-3.45	-2.6937	276.129	222.132	327.333	500.726	488.960	211.210	488.967	432.332	240.164	301.367	417.377	163.361	327.766	399.488	185.611	461.926	0.00055979	0.00044856	9.4702e-05	1456.4	6.0853e-06	8.1431e-06	1441.3	395.67	6.3321e-06	1.7782e-06	451.94	148.71	130.53	44.075	3.9669e-06	54.013	0.00026131	0.00024348	6.7694e-05	1446.8	2.6816e-06	2.6495e-06	1439.4	394.91	2.6792e-06	2.6172e-06	441.21	148	129.45	44.037	2.6227e-06	53.828	247.418	234.900	311.449	164.937	288.258	299.497	164.991	169.722	305.299	286.307	168.841	173.711	174.037	178.163	286.903	177.831	-8191	255	
2900.735	1	1	0	0	0.17627	0.10065	0.23646	0.24682	0.20669	0.094316	0.20511	0.11856	0.14252	0.086931	0.10087	0.065653	0.13813	0.05924	0.19657	0.12513	-2.7208	-3.0125	-2.6813	-3.4479	-2.6708	-3.05	-3.6167	-2.7396	-3.2021	-3.1021	-2.7583	-3.4792	-2.8521	-2.8729	-3.4313	-2.7708	312.378	234.038	184.332	510.841	174.943	182.936	451.514	425.883	190.348	174.535	180.658	170.164	487.866	239.561	451.311	332.607	0.00053306	0.00070182	6.2418e-05	1457	5.6071e-06	8.4673e-07	1443.4	396.53	4.8166e-06	5.5213e-06	452.61	149.33	129.99	43.811	3.1759e-06	54.077	0.00025575	0.00023886	6.6228e-05	1446.3	2.6045e-06	2.6153e-06	1440	394.67	2.6057e-06	2.6077e-06	441.62	147.85	129.32	43.966	2.6017e-06	53.787	242.139	229.536	215.429	165.019	270.398	480.595	164.913	169.604	263.486	290.299	168.717	173.256	174.037	178.455	286.958	177.536	-8191	255	
2900.832	1	1	0	0	0.10454	0.16789	0.15589	0.27887	0.1152	0.20625	0.25687	0.32528	0.12884	0.22854	0.17932	0.21969	0.21234	0.065009	0.056577	0.31567	-2.6604	-3.1792	-2.5812	-3.5104	-2.7229	-2.9708	-3.5687	-2.7146	-3.1042	-3.1	-2.6396	-3.3979	-3.0812	-2.6813	-3.4104	-2.8063	384.263	404.783	437.520	481.125	387.680	266.092	452.912	187.619	428.446	232.397	443.864	168.709	501.292	417.682	441.339	507.771	0.00051941	0.00032185	0.00015316	1459.1	5.7362e-06	4.489e-06	1444.1	394.91	3.4398e-06	2.7636e-06	448.8	148.77	130.54	44.025	6.7411e-06	53.95	0.00025193	0.00023617	6.6822e-05	1446.6	2.6182e-06	2.5932e-06	1440.1	394.52	2.6394e-06	2.5254e-06	440.4	147.95	129.39	43.952	2.5858e-06	53.713	242.765	198.716	256.005	165.056	325.742	269.927	164.994	169.429	311.678	218.916	169.153	173.718	174.137	178.417	277.414	177.716	-8191	255	
2900.928	1	1	0	0	0.058076	0.10093	0.080704	0.3086	0.29323	0.11861	0.31352	0.22805	0.19828	0.15125	0.1792	0.13259	0.1503	0.1742	0.16253	0.34245	-2.6292	-3.2062	-2.4771	-3.4292	-2.9792	-2.625	-3.5958	-2.6917	-3.0667	-3.3729	-2.7083	-3.275	-3.0125	-2.7938	-3.3354	-2.8063	265.653	306.047	169.372	162.854	364.294	367.346	453.806	419.273	496.837	359.164	362.395	153.669	417.978	468.833	488.518	364.540	0.00054809	0.00068484	7.5917e-05	1448.9	1.6794e-06	7.7446e-06	1444.3	395.53	4.3736e-06	5.4648e-06	449.49	148.88	129.89	44.015	2.2912e-06	54.033	0.00025074	0.00023372	6.5464e-05	1444.1	2.6001e-06	2.57e-06	1439.5	394.3	2.5575e-06	2.5141e-06	439.44	148.14	129.31	43.918	2.5002e-06	53.809	246.536	205.813	233.186	165.208	311.248	275.071	164.987	169.683	284.325	322.503	169.215	173.566	174.011	178.489	346.709	177.759	-8191	255	
2901.048	1	1	0	0	0.12947	0.10962	0.18542	0.10863	0.10324	0.20199	0.19091	0.10666	0.077173	0.19882	0.14349	0.041823	0.16191	0.10462	0.12175	0.01826	-2.5896	-3.2188	-2.5875	-3.4083	-3.1729	-2.5229	-3.5417	-2.8729	-2.8021	-3.4771	-2.6104	-3.1042	-3.3854	-2.8563	-3.325	-2.7875	390.807	452.560	324.225	181.628	428.363	167.253	400.090	465.443	266.778	170.890	490.822	413.099	485.230	496.355	241.103	394.644	0.00047267	0.000295	0.00016249	1455.9	5.2667e-06	5.9062e-06	1441.7	394.91	5.802e-06	5.3217e-06	450.74	148.92	130.45	44.031	3.0841e-06	54.025	0.00024294	0.00022774	6.3199e-05	1446.4	2.5115e-06	2.4699e-06	1438.7	394.36	2.4975e-06	2.4812e-06	440.24	147.78	129.31	43.922	2.5049e-06	53.591	245.525	229.270	218.737	164.983	308.183	259.568	164.695	169.370	266.271	308.589	168.953	173.343	173.955	178.563	314.898	177.585	-8191	255	
2901.120	1	1	0	0	0.22935	0.15978	0.21019	0.17632	0.10357	0.1065	0.3402	0.28925	0.074837	0.060863	0.24549	0.054437	0.39318	0.080856	0.10376	0.070513	-2.4292	-3.4292	-2.6792	-3.4479	-3.1292	-2.5854	-3.5167	-2.8458	-2.7083	-3.4333	-2.7313	-3.2	-3.2958	-2.5354	-3.1979	-2.9646	491.508	386.253	159.131	459.631	495.331	483.071	174.827	473.185	276.998	199.308	288.430	366.716	499.420	172.310	235.187	478.208	0.00053335	0.00042143	7.1261e-05	1454	2.8924e-06	1.9748e-06	1438.9	395.07	5.0017e-06	8.7774e-06	450.6	148.96	129.94	44.041	4.9389e-06	54.261	0.000245	0.00022664	6.2994e-05	1444.9	2.4853e-06	2.479e-06	1437.3	394.07	2.4969e-06	2.4575e-06	439.8	147.86	129.07	43.941	2.491e-06	53.803	244.656	222.334	247.397	165.133	247.637	328.115	164.855	169.496	283.259	285.743	168.941	173.410	173.869	178.298	307.401	177.401	-8191	255	
2901.216	1	1	0	0	0.12706	0.19343	0.1838	0.2039	0.12448	0.15428	0.23279	0.1345	0.10961	0.16019	0.061489	0.10957	0.25787	0.16844	0.06067	0.30004	-2.1167	-3.4562	-2.6667	-3.2167	-3.3917	-2.5104	-3.5229	-3.0771	-2.75	-3.4625	-2.7125	-3.1271	-3.3729	-2.7167	-3.4188	-3.1375	281.747	230.793	428.449	507.779	435.663	222.876	432.155	471.084	330.331	195.381	404.348	254.525	491.374	488.947	399.352	455.469	0.00049778	0.0005323	0.00011474	1451.4	5.4763e-06	4.1547e-06	1441.6	395.86	5.0328e-06	5.101e-06	449.9	148.58	130.19	43.829	3.6175e-06	54.22	0.00024079	0.00022535	6.2829e-05	1443.9	2.4856e-06	2.4331e-06	1438.9	393.89	2.4942e-06	2.4412e-06	439.97	147.84	129.29	43.831	2.4441e-06	53.726	249.907	269.916	251.909	165.085	280.048	289.227	165.024	169.499	300.432	308.604	168.911	173.044	174.072	178.427	287.783	177.412	-8191	255	
2901.337	1	1	0	0	0.046886	0.15566	0.067646	0.1832	0.23171	0.12745	0.38357	0.24859	0.23406	0.13878	0.29118	0.079086	0.091622	0.27128	0.29576	0.27233	-2.1417	-3.2854	-2.8521	-2.9375	-3.375	-2.7375	-3.4021	-3.3771	-2.5083	-3.425	-2.8937	-2.8271	-3.6479	-2.7313	-3.2	-3.3125	468.782	459.224	240.718	222.765	376.492	279.206	417.372	498.489	152.842	253.020	419.939	242.762	210.675	477.388	176.129	452.322	0.00060946	0.00026556	5.482e-05	1452.3	4.8229e-06	1.5341e-06	1442.9	394.63	2.0909e-06	4.7896e-06	449.61	148.82	130.58	44.224	2.953e-06	54.261	0.00023751	0.00022395	6.0886e-05	1442.7	2.4434e-06	2.4361e-06	1439.3	394.01	2.4408e-06	2.4201e-06	439.83	147.73	129.35	43.946	2.44e-06	53.721	251.761	504.437	263.160	164.982	307.042	297.573	165.043	169.421	381.725	287.678	169.036	173.073	173.754	178.078	304.260	177.676	-8191	255	
2901.433	1	1	0	0	0.25405	0.20822	0.15985	0.21692	0.15682	0.23887	0.15792	0.32676	0.15195	0.23559	0.12202	0.353	0.11547	0.29794	0.1725	0.11942	-2.2604	-3.2583	-2.7562	-2.7854	-3.4313	-2.6583	-3.1667	-3.4021	-2.6208	-3.3292	-2.9792	-2.7625	-3.4813	-2.7521	-2.9188	-3.3792	229.104	167.208	392.694	165.284	439.075	464.906	429.338	481.850	171.851	156.200	226.231	156.774	426.994	363.441	234.985	172.429	0.00053566	0.00066932	8.5594e-05	1458.7	6.0959e-06	1.5625e-06	1444.4	395.51	5.1955e-06	1.9204e-06	450.61	148.08	130.83	44.11	2.3697e-06	54.214	0.0002355	0.00022343	6.1185e-05	1444.8	2.401e-06	2.4458e-06	1438.6	393.73	2.4016e-06	2.4208e-06	439.38	147.64	129.31	43.94	2.3965e-06	53.645	246.930	259.579	246.956	165.042	256.746	426.107	164.833	169.470	265.830	232.093	169.079	173.165	174.137	178.290	252.884	177.329	-8191	255	
2901.529	1	1	0	0	0.090637	0.058002	0.17912	0.34963	0.12947	0.34856	0.27432	0.15406	0.16219	0.14624	0.13569	0.12441	0.19632	0.27274	0.20676	0.13696	-2.0812	-3.2687	-2.9062	-2.6417	-3.4396	-2.7667	-2.9625	-3.5854	-2.5354	-3.1417	-3.1396	-2.75	-3.5646	-2.8354	-2.6729	-3.4104	256.212	335.829	466.181	461.986	410.376	394.984	449.329	464.864	403.770	509.474	160.796	166.363	507.875	439.848	319.190	389.454	0.00050424	0.00062333	0.00017602	1454.1	4.8677e-06	5.1937e-06	1442.9	394.84	1.9445e-06	1.2808e-06	450.36	148.53	130.6	43.899	4.4075e-06	53.739	0.000236	0.00022138	6.0933e-05	1441.9	2.4182e-06	2.4116e-06	1436.3	393.54	2.4705e-06	2.392e-06	438.87	147.66	129.2	43.849	2.3909e-06	53.597	248.110	219.858	214.882	165.121	328.956	264.790	165.093	169.492	313.356	299.220	169.160	173.188	173.925	178.565	318.940	177.588	-8191	255	
2901.648	1	1	0	0	0.12004	0.032894	0.15089	0.016071	0.11409	0.14159	0.32137	0.22936	0.12213	0.29371	0.20327	0.27358	0.18382	0.17021	0.13207	0.036169	-2.1333	-3.1292	-3.0583	-2.8333	-3.5	-2.7625	-2.8167	-3.5667	-2.6396	-3.2271	-3.2938	-2.6937	-3.2771	-3.1042	-2.6875	-3.6021	262.135	198.434	194.117	481.247	184.165	321.460	437.636	461.046	358.211	337.201	459.438	468.074	434.094	424.616	198.604	295.824	0.00047943	0.00048498	9.6222e-05	1453.4	4.3623e-06	2.7201e-06	1445.6	394.8	5.479e-06	2.359e-06	448.77	148.03	130.27	44.104	4.8568e-06	54.068	0.00023309	0.00021653	6.0929e-05	1441.2	2.4328e-06	2.4226e-06	1438.2	393.44	2.4241e-06	2.3826e-06	438.85	147.6	129.03	43.943	2.431e-06	53.646	248.257	261.880	274.829	165.029	304.002	290.265	165.143	169.658	294.009	279.057	169.026	173.396	174.000	178.322	302.713	177.687	-8191	255	
2901.744	1	1	0	0	0.17022	0.14269	0.15886	0.19331	0.18329	0.14379	0.22935	0.1635	0.28506	0.28045	0.095495	0.35094	0.32106	0.22173	0.25189	0.14343	-2.3	-3.0854	-3.2396	-2.7333	-3.4333	-2.8208	-2.85	-3.6063	-2.6188	-2.8854	-3.4875	-2.6458	-3.2375	-3.0187	-2.7708	-3.3729	485.265	504.419	488.061	478.010	295.047	337.821	488.990	391.509	424.556	495.971	469.150	405.608	436.410	339.182	245.657	416.507	0.00052634	0.00034394	0.00012712	1448.9	6.0752e-06	1.5551e-06	1441.1	396.93	7.1265e-06	3.7301e-06	449.12	148.84	130.53	44.005	1.9529e-06	53.998	0.00023855	0.00021887	6.0824e-05	1440.4	2.4353e-06	2.3904e-06	1436.5	393.75	2.4372e-06	2.3766e-06	438.91	147.77	129.27	43.834	2.4203e-06	53.629	252.433	232.316	236.219	165.077	297.992	265.465	165.015	169.643	297.335	335.140	168.953	173.535	174.122	178.419	338.260	177.853	-8191	255	
2901.816	1	1	0	0	0.12382	0.14066	0.11327	0.42056	0.17056	0.28855	0.21844	0.11834	0.19128	0.14316	0.13856	0.30737	0.2651	0.088091	0.06626	0.15311	-2.25	-2.8625	-3.3187	-2.7792	-3.3625	-3.1917	-2.8354	-3.4479	-2.7917	-2.8792	-3.4667	-2.6708	-3.1562	-3.1583	-2.6604	-3.5104	276.973	351.284	447.124	441.178	241.841	459.518	457.622	179.062	432.076	198.374	459.177	465.230	487.943	218.471	344.632	219.358	0.00055934	0.00013625	0.00014988	1451	4.4944e-06	6.0937e-06	1443.3	395.89	5.5139e-06	4.7454e-06	448.82	148.65	130.66	44.183	4.5278e-06	54.279	0.00023711	0.00021977	6.0795e-05	1441.5	2.417e-06	2.3931e-06	1436.2	394.01	2.4342e-06	2.4362e-06	438.64	147.61	129.36	43.904	2.4712e-06	53.678	249.848	237.961	274.699	165.081	254.316	290.740	165.071	169.459	296.854	304.914	168.989	173.425	174.012	178.541	286.798	178.021	-8191	255	
2901.936	1	1	0	0	0.28877	0.14397	0.15736	0.23603	0.072933	0.034079	0.24138	0.035876	0.036548	0.21776	0.12697	0.21881	0.095996	0.21819	0.11694	0.051592	-2.375	-2.7896	-3.4625	-2.7917	-3.1063	-3.2438	-2.8479	-3.4021	-2.7333	-2.5583	-3.6646	-2.9354	-3.1312	-3.3375	-2.6188	-3.4188	472.723	315.813	324.745	417.030	415.067	456.254	465.425	191.403	371.979	354.773	177.279	464.516	409.221	445.600	393.344	243.229	0.00056431	0.00033515	9.8539e-05	1448.6	2.3901e-06	3.382e-06	1441	394.03	7.3383e-06	2.1638e-06	448.34	148.51	130.15	43.945	3.7765e-06	53.918	0.0002372	0.00021955	6.1481e-05	1440.6	2.4596e-06	2.4125e-06	1435	392.99	2.4216e-06	2.4136e-06	438.38	147.49	129.18	43.815	2.4207e-06	53.555	244.073	227.251	270.185	165.179	248.623	256.144	165.001	169.762	275.051	245.747	169.383	173.556	174.254	178.434	345.398	178.000	-8191	255	
2902.033	1	1	0	0	0.025371	0.15864	0.18721	0.089308	0.22285	0.16407	0.17648	0.18698	0.11544	0.17458	0.1939	0.19232	0.16372	0.39202	0.13968	0.22301	-2.7292	-2.6104	-3.3875	-2.8792	-2.8896	-3.3729	-2.6771	-3.4396	-3.1375	-2.4146	-3.3979	-2.8854	-2.9604	-3.4938	-2.6604	-3.3208	408.711	282.265	337.850	194.817	434.960	198.919	333.781	404.875	436.026	508.185	456.176	469.368	488.786	473.767	389.782	493.474	0.00054176	0.00034563	7.6088e-05	1450.2	1.6189e-06	2.3887e-06	1443	395.18	3.1289e-06	7.8184e-06	449.06	148.24	130.49	44.003	5.3052e-06	54.158	0.0002366	0.00021815	6.1042e-05	1439.8	2.4641e-06	2.4349e-06	1434.5	393.54	2.4704e-06	2.4302e-06	437.85	147.37	129.01	43.827	2.4553e-06	53.662	244.144	241.652	283.118	165.170	303.494	275.882	164.759	169.764	317.210	308.954	168.979	173.215	174.177	178.547	275.339	177.891	-8191	255	
2902.129	1	1	0	0	0.16989	0.10382	0.12812	0.22117	0.28421	0.074405	0.11437	0.10954	0.15447	0.2634	0.09737	0.22637	0.23406	0.16276	0.14196	0.15277	-2.7521	-2.5146	-3.4354	-3.0833	-2.8875	-3.3812	-2.7396	-3.3937	-3.0812	-2.4417	-3.2083	-2.9958	-2.8833	-3.4604	-2.5854	-3.1646	270.219	452.902	158.392	477.379	245.602	330.220	467.581	494.109	291.947	258.516	414.295	383.458	493.381	396.355	437.253	393.719	0.00050462	0.00015491	0.00014719	1444.5	3.1581e-06	7.716e-06	1441.4	394.65	5.2663e-06	4.0703e-06	449.33	148.55	129.97	44.116	5.3026e-06	53.93	0.00023893	0.00022578	6.1683e-05	1437.7	2.4928e-06	2.4237e-06	1433.3	393.18	2.4616e-06	2.4549e-06	438.26	147.54	129.01	43.841	2.4643e-06	53.567	247.382	249.549	227.044	165.121	305.946	283.362	165.029	169.708	292.693	313.472	169.268	173.615	174.205	178.566	295.148	178.033	-8191	255	
2902.225	1	1	0	0	0.21078	0.13095	0.16007	0.15385	0.037869	0.092256	0.2952	0.12134	0.13434	0.20301	0.091627	0.088724	0.24397	0.12537	0.21331	0.21114	-2.8396	-2.6667	-3.3667	-3.1208	-2.7854	-3.4104	-2.7833	-3.3458	-3.3312	-2.5938	-3.1958	-3.2042	-2.6833	-3.4979	-2.6604	-3.0792	351.451	503.223	188.401	482.705	169.837	261.926	463.772	405.025	418.498	318.617	338.335	453.465	502.623	481.312	246.442	232.914	0.00050877	0.0004145	0.00014248	1444.2	5.604e-06	3.4543e-06	1436.7	393.83	3.7529e-06	3.3992e-06	446.9	149.05	129.74	44.004	3.3794e-06	53.983	0.00024178	0.0002224	6.1404e-05	1435.3	2.4823e-06	2.4128e-06	1433.3	392.53	2.4564e-06	2.4444e-06	437.24	147.63	128.97	43.835	2.441e-06	53.609	247.750	229.028	226.528	164.994	327.484	331.579	164.752	169.585	314.800	312.188	169.117	173.342	174.359	178.242	293.071	177.978	-8191	255	
2902.321	1	1	0	0	0.29123	0.05272	0.27281	0.36951	0.11473	0.23363	0.20937	0.30369	0.17697	0.10022	0.16306	0.23423	0.165	0.19147	0.33127	0.18002	-2.8771	-2.4813	-3.2375	-3.1042	-2.4562	-3.4479	-3.0729	-2.8646	-3.375	-2.5438	-3.3583	-3.2458	-2.5396	-3.3896	-2.7042	-2.8854	424.778	189.500	348.825	444.470	173.673	286.427	462.151	448.780	464.701	188.962	184.486	452.364	476.323	499.365	408.383	158.410	0.00055186	0.00047106	6.1327e-05	1451.9	3.7816e-06	4.7976e-06	1436.4	395.32	6.8481e-06	4.7228e-06	448.32	147.73	130.03	43.871	1.7341e-06	54.203	0.00024282	0.0002236	6.2249e-05	1438.7	2.4996e-06	2.4333e-06	1431.7	393.12	2.441e-06	2.3939e-06	437.56	147.3	128.92	43.777	2.4188e-06	53.634	243.948	243.862	251.794	164.885	311.035	251.037	164.811	169.716	275.885	340.510	169.195	173.199	174.062	178.368	291.856	177.652	-8191	255	
2902.417	1	1	0	0	0.21283	0.094061	0.16771	0.13524	0.11009	0.075346	0.26125	0.10619	0.10564	0.23593	0.095186	0.31041	0.22135	0.06357	0.19721	0.21037	-3.0729	-2.6042	-3.2604	-3.35	-2.5833	-3.4375	-3.0833	-2.9	-3.3396	-2.7729	-3.2229	-3.3021	-2.7042	-3.475	-2.9417	-2.7354	414.396	239.360	470.902	468.894	509.605	414.654	455.478	377.328	254.446	156.013	469.904	506.378	476.110	409.344	420.495	415.508	0.00053668	0.00045363	0.00010696	1443.7	4.1664e-07	3.2524e-06	1438.7	393.86	5.4003e-06	2.6793e-06	451.77	148.19	129.7	43.88	2.3738e-06	53.871	0.00023211	0.00021705	5.9441e-05	1436.1	2.3648e-06	2.3711e-06	1433.4	392.57	2.3648e-06	2.3085e-06	438.35	147.26	128.56	43.734	2.3142e-06	53.538	250.063	257.812	225.782	164.877	361.364	267.985	165.044	169.583	278.036	344.741	169.035	173.481	174.367	178.212	316.699	177.858	-8191	255	
2902.513	1	1	0	0	0.23491	0.075972	0.11247	0.38692	0.23933	0.101	0.23598	0.40382	0.11323	0.17329	0.25785	0.028607	0.21458	0.19571	0.16683	0.41122	-2.9854	-2.625	-2.9417	-3.5833	-2.5146	-3.0667	-3.1979	-2.9938	-3.4167	-2.7958	-2.9458	-3.4	-2.6583	-3.2771	-2.9188	-2.4583	343.267	426.393	292.992	498.064	440.454	266.378	425.527	456.830	245.893	425.198	467.442	274.246	359.898	497.459	357.488	441.056	0.00053866	0.00016301	8.3132e-05	1442.7	2.9731e-06	5.584e-06	1441.2	395.88	6.2449e-06	5.5229e-06	451.07	148.11	130.35	43.926	4.4934e-06	53.687	0.00022669	0.00020858	5.7829e-05	1438	2.3189e-06	2.2871e-06	1433.3	392.9	2.3202e-06	2.2854e-06	437.64	147.21	128.71	43.762	2.3077e-06	53.472	245.928	313.737	233.893	164.981	281.951	260.020	164.772	169.705	327.027	299.057	169.248	173.602	174.275	178.624	313.986	178.062	-8191	255	
2902.610	1	1	0	0	0.12852	0.16765	0.27293	0.26237	0.14109	0.17057	0.22077	0.13904	0.017293	0.31073	0.2755	0.21468	0.28235	0.17241	0.18038	0.37365	-3.0292	-2.5542	-2.875	-3.3458	-2.5354	-3.2583	-3.2979	-2.6729	-3.3979	-2.7188	-2.7896	-3.4042	-2.7854	-3.2396	-3.1625	-2.6021	216.454	168.380	419.923	182.598	354.159	232.086	426.467	233.987	253.428	317.155	473.747	170.060	471.899	502.024	222.078	437.190	0.000531	0.00042475	0.00017527	1446.9	4.4995e-06	2.9438e-06	1437.7	393.01	5.1208e-06	2.8963e-06	450.11	147.89	129.4	44.051	5.2354e-06	53.89	0.00022601	0.00020892	5.7813e-05	1437.2	2.306e-06	2.2686e-06	1433.1	392.25	2.3113e-06	2.2772e-06	437.9	147.08	128.52	43.822	2.2613e-06	53.463	252.003	297.459	249.818	165.081	255.523	278.888	165.056	169.642	261.595	343.921	169.021	173.292	174.223	178.438	310.950	177.867	-8191	255	
2902.728	1	1	0	0	0.12034	0.15129	0.12325	0.29638	0.10953	0.1294	0.31871	0.11701	0.16948	0.26253	0.35568	0.074385	0.046005	0.26969	0.21729	0.29878	-3.0208	-2.75	-2.7583	-3.4771	-2.7646	-3.2062	-3.5375	-2.6917	-3.3396	-2.9333	-2.6208	-3.6937	-2.6792	-3.1458	-3.2375	-2.8458	385.734	428.779	367.596	481.047	222.066	249.519	454.250	482.457	497.990	186.244	438.351	475.847	187.445	350.861	176.382	438.255	0.00050896	0.00036293	8.5422e-05	1447.2	3.581e-06	2.9308e-06	1438.4	395.91	4.295e-06	3.388e-06	449.03	148.61	130.49	44.126	3.4618e-06	54.004	0.00022296	0.0002022	5.6757e-05	1438	2.2624e-06	2.2541e-06	1432.4	393.04	2.2358e-06	2.1973e-06	437.48	147.44	128.79	43.776	2.2071e-06	53.433	247.992	216.736	245.575	165.240	309.148	258.692	165.010	169.779	298.960	314.278	169.239	173.440	174.027	178.573	276.377	178.009	-8191	255	
2902.825	1	1	0	0	0.022025	0.011942	0.033908	0.32809	0.14409	0.11346	0.2016	0.12458	0.16263	0.06674	0.19116	0.017052	0.11401	0.24467	0.1426	0.32893	-3	-3.1479	-2.5146	-3.6708	-2.7562	-3.0125	-3.5479	-2.5458	-3.1896	-3.05	-2.5938	-3.5479	-2.8688	-3.0062	-3.3229	-2.6125	196.406	201.475	494.762	469.099	395.234	295.045	478.894	383.201	455.186	382.001	443.930	441.852	455.209	424.406	182.712	360.385	0.00053586	0.0005316	0.00012499	1446.3	4.3027e-06	5.718e-06	1433.7	393.68	2.8344e-06	5.3487e-06	448.9	148.53	130.13	44.039	2.8062e-06	53.954	0.00021615	0.00020415	5.6353e-05	1436.1	2.2175e-06	2.2054e-06	1429.6	392.35	2.2067e-06	2.2e-06	436.8	147.39	128.8	43.741	2.2472e-06	53.498	248.666	244.074	285.182	165.014	283.566	231.531	164.829	169.736	264.638	320.919	169.189	173.452	174.103	178.349	321.315	177.835	-8191	255	
2902.921	1	1	0	0	0.13888	0.10697	0.070352	0.013796	0.083361	0.089053	0.26558	0.33229	0.057036	0.010875	0.29566	0.14681	0.19906	0.14842	0.12774	0.16724	-2.7042	-3.15	-2.5417	-3.6188	-2.8542	-2.7562	-3.4396	-2.6042	-3.1667	-3.0812	-2.7188	-3.4604	-2.9688	-3.0438	-3.3104	-2.6458	255.633	414.842	470.214	205.146	354.169	333.320	436.974	465.900	267.210	402.541	468.419	177.850	461.351	456.665	162.324	421.283	0.00056146	0.00025427	0.00012127	1451.1	4.3646e-06	3.0289e-06	1437.4	393.99	5.144e-06	4.4325e-06	449.71	147.95	130.52	43.89	4.9232e-06	53.799	0.00022174	0.00020373	5.7209e-05	1437.7	2.2983e-06	2.2398e-06	1431	392.99	2.348e-06	2.2674e-06	437.83	147.25	128.88	43.767	2.3375e-06	53.432	247.436	231.578	290.158	164.999	323.727	262.038	165.133	169.509	259.627	265.233	169.274	173.758	174.275	178.666	289.417	177.764	-8191	255	
2903.017	1	1	0	0	0.17298	0.12053	0.23971	0.15612	0.20017	0.35427	0.25593	0.31943	0.13531	0.17323	0.072988	0.19691	0.25672	0.2058	0.11032	0.22201	-2.4854	-3.1562	-2.4854	-3.5229	-2.9813	-2.6083	-3.6542	-2.7083	-2.9396	-3.2396	-2.7271	-3.4146	-3.0104	-2.6479	-3.4792	-2.8417	408.124	272.012	292.054	237.521	256.706	386.097	476.314	481.046	390.393	260.455	475.687	187.461	186.038	445.873	511.087	503.134	0.00055771	0.00026974	0.00010725	1444.3	3.3619e-06	3.663e-06	1438.6	393.09	6.0625e-06	3.5685e-06	448.08	148.37	129.68	43.829	2.3936e-06	54.101	0.00022743	0.0002134	5.8652e-05	1438.6	2.3224e-06	2.3033e-06	1430.9	392.41	2.3131e-06	2.2872e-06	437.37	147.3	128.63	43.726	2.3021e-06	53.552	247.650	244.484	227.280	165.092	261.838	242.499	164.894	169.615	253.098	270.929	169.014	173.462	174.105	178.428	303.668	178.096	-8191	255	
2903.113	1	1	0	0	0.15563	0.26969	0.1054	0.10907	0.14353	0.14832	0.1239	0.38864	0.1997	0.17164	0.10493	0.39511	0.15765	0.11106	0.19283	0.18892	-2.4917	-3.3917	-2.5333	-3.4333	-3.2687	-2.7292	-3.7271	-2.8625	-3.0812	-3.4604	-2.475	-3.3604	-3.3604	-2.6042	-3.4813	-2.9875	346.400	296.422	425.313	279.904	492.524	356.428	453.658	480.207	393.575	498.174	495.117	444.124	484.813	506.065	397.432	508.244	0.00055242	0.00038799	0.00010876	1452.6	2.8018e-06	4.7153e-06	1436.5	391.93	5.0094e-06	1.0119e-06	450.27	148.24	130.17	43.866	3.9649e-06	54.13	0.0002251	0.00020797	5.7533e-05	1437.2	2.3072e-06	2.2695e-06	1430.6	392.08	2.3273e-06	2.2569e-06	438.06	147.44	128.88	43.742	2.3131e-06	53.522	254.425	199.161	246.599	165.014	290.447	271.400	164.946	169.642	271.895	504.068	168.994	173.448	174.138	178.576	309.643	177.705	-8191	255	
2903.209	1	1	0	0	0.17417	0.083776	0.094103	0.34439	0.11756	0.063678	0.13598	0.20736	0.19596	0.11697	0.36974	0.10546	0.30466	0.22198	0.20686	0.30831	-2.6271	-3.3083	-2.4833	-3.2625	-3.2625	-2.6146	-3.4646	-2.9688	-2.5771	-3.2812	-2.725	-3.0958	-3.2479	-2.75	-3.2021	-3.0042	463.276	251.010	271.175	501.501	154.865	403.754	416.421	481.525	185.826	280.778	466.837	179.595	488.904	424.955	372.430	416.198	0.00053618	0.00018075	0.00013547	1448.8	4.4925e-06	5.5969e-06	1432.3	395.35	4.4052e-06	2.2324e-06	450.79	148.89	130.06	43.79	3.5034e-06	53.998	0.00022806	0.00020839	5.8079e-05	1437.7	2.3126e-06	2.2758e-06	1431.9	393.18	2.2942e-06	2.2941e-06	437.63	147.66	128.83	43.737	2.2869e-06	53.402	249.820	288.834	213.060	165.442	279.432	288.830	165.263	169.496	281.313	299.902	169.159	173.465	174.111	178.476	288.419	177.693	-8191	255	
2903.330	1	1	0	0	0.084059	0.10559	0.12536	0.13955	0.10236	0.35185	0.13858	0.22307	0.21532	0.38872	0.21805	0.069682	0.31012	0.15075	0.064168	0.14142	-2.2771	-3.4729	-2.7083	-3.1458	-3.2542	-2.5187	-3.4562	-3.0187	-2.6583	-3.2438	-2.8312	-3.0292	-3.4604	-2.6188	-3.2104	-3.1667	380.694	259.787	194.776	370.051	473.701	390.802	450.935	425.141	171.094	237.600	418.521	209.288	391.610	496.440	353.591	403.323	0.0005238	0.0001933	0.00017414	1445.9	3.7521e-06	5.3088e-06	1439.1	393.28	5.0447e-06	8.9055e-07	450.8	148.62	130.77	43.766	3.1451e-06	53.761	0.0002216	0.00020724	5.6844e-05	1436.4	2.2652e-06	2.2344e-06	1430.4	392.17	2.2425e-06	2.2312e-06	437.33	147.22	129.01	43.749	2.2478e-06	53.416	246.418	270.944	233.130	165.176	246.873	284.050	164.975	169.431	325.044	257.452	169.157	173.491	173.873	178.703	251.808	177.934	-8191	255	
2903.424	1	1	0	0	0.14229	0.10812	0.075876	0.37337	0.17167	0.18023	0.14186	0.12803	0.10087	0.25757	0.19188	0.28208	0.20742	0.055862	0.17328	0.1505	-2.1167	-3.3396	-2.65	-2.9333	-3.3042	-2.6521	-3.3292	-3.2125	-2.5854	-3.3896	-2.9125	-2.9062	-3.4646	-2.7208	-3.2687	-3.1708	299.432	313.287	364.380	433.607	283.351	296.041	203.237	371.837	301.603	400.814	503.566	496.426	396.216	179.487	188.673	494.845	0.00054176	0.00058942	6.0375e-05	1447.5	2.7158e-06	2.5763e-06	1434.3	395.48	4.9779e-06	5.0691e-06	448.98	148.09	130.82	44.06	4.7318e-06	54.074	0.00022226	0.00020556	5.6042e-05	1437.6	2.2295e-06	2.2513e-06	1429.3	392.42	2.2484e-06	2.2173e-06	437.59	147.27	128.94	43.788	2.2455e-06	53.507	247.817	266.314	510.089	165.129	300.495	230.149	165.046	169.688	336.625	317.920	169.082	173.604	174.204	178.461	262.165	177.817	-8191	255	
2903.520	1	1	0	0	0.11981	0.14528	0.099395	0.18844	0.074372	0.084082	0.10883	0.0083857	0.13081	0.18026	0.13885	0.16952	0.22841	0.094595	0.17023	0.11966	-2.2354	-3.3333	-2.7417	-2.9938	-3.3583	-2.5667	-3.3167	-3.4958	-2.4667	-3.3104	-2.9729	-2.8021	-3.3417	-2.8042	-2.9396	-3.5187	346.676	234.932	207.050	473.561	357.407	355.973	466.486	228.410	429.991	275.566	402.561	494.177	439.052	407.377	330.318	199.485	0.00054654	0.00022477	9.6603e-05	1447.4	6.4368e-06	3.7141e-06	1437.6	395.26	4.586e-06	4.4852e-06	449.1	147.59	130.22	44.06	3.8447e-07	53.725	0.00022078	0.00020268	5.5977e-05	1436.2	2.2473e-06	2.2317e-06	1431.2	393.05	2.2545e-06	2.2464e-06	436.8	147.01	128.79	43.74	2.2514e-06	53.475	253.308	268.576	159.497	164.933	335.407	232.413	164.822	169.668	260.531	278.813	168.942	173.533	174.001	178.531	152.276	177.879	-8191	255	
2903.641	1	1	0	0	0.10029	0.07824	0.0563	0.25237	0.11665	0.17047	0.18827	0.11014	0.080993	0.10603	0.29494	0.1721	0.11038	0.16011	0.055932	0.27115	-2.3021	-3.1896	-2.9333	-2.7687	-3.4146	-2.7792	-3.1229	-3.4958	-2.4542	-3.3083	-3.1875	-2.7062	-3.7	-2.8542	-2.9625	-3.525	302.183	277.523	251.949	486.155	193.470	497.795	243.085	177.796	385.082	503.023	431.941	384.725	156.838	489.240	328.394	186.739	0.00053305	0.00056668	0.00015968	1449	5.5889e-06	1.4144e-06	1434.8	395.02	8.8356e-06	4.4094e-06	447.21	148.41	130.61	43.744	3.1772e-06	54.022	0.00022096	0.00020531	5.7173e-05	1435.8	2.2646e-06	2.2685e-06	1431.3	392.53	2.2879e-06	2.2159e-06	436.86	146.98	129.14	43.724	2.2531e-06	53.48	244.588	213.002	269.949	165.029	277.442	282.709	164.911	169.687	267.226	319.617	169.051	173.569	174.195	178.419	358.260	177.512	-8191	255	
2903.713	1	1	0	0	0.14091	0.14362	0.15188	0.1315	0.12303	0.11401	0.24822	0.12216	0.12379	0.046703	0.2495	0.29845	0.35218	0.34485	0.29216	0.30897	-2.2021	-3.2708	-3.2979	-2.7562	-3.3354	-2.8292	-3.0979	-3.6396	-2.6604	-3.2438	-3.3729	-2.6896	-3.6688	-2.9521	-2.8542	-3.5208	172.421	308.417	398.762	319.626	473.560	192.455	456.288	434.339	251.101	323.601	193.120	411.923	480.262	459.521	439.756	413.980	0.00054248	0.00050569	0.0001964	1444.2	6.7251e-06	6.1688e-06	1435.7	394.39	3.7066e-06	1.3278e-06	447.01	148.19	130.01	43.936	3.3955e-06	54.009	0.00022276	0.00020737	5.7282e-05	1434	2.2788e-06	2.2694e-06	1431.5	392.52	2.2868e-06	2.2625e-06	436.92	147.34	128.82	43.757	2.2681e-06	53.519	248.017	193.289	259.579	165.063	271.451	278.247	164.996	169.374	285.197	264.046	168.887	173.575	174.417	178.488	306.892	177.841	-8191	255	
2903.809	1	1	0	0	0.073691	0.068073	0.21472	0.1961	0.038185	0.25319	0.2435	0.25998	0.1919	0.12481	0.21573	0.20107	0.27072	0.17333	0.1885	0.33043	-2.3271	-3.1417	-3.4188	-2.7417	-3.5458	-2.9813	-3.0979	-3.5938	-2.7562	-2.8917	-3.4354	-2.7417	-3.3792	-3.1083	-2.5563	-3.5062	392.324	203.585	220.065	447.094	249.857	466.664	427.505	419.109	388.942	404.619	207.515	349.592	160.152	172.189	243.537	422.753	0.00051158	0.00029458	0.00017913	1449.1	6.706e-06	2.1576e-06	1434.6	394.17	4.5066e-06	7.958e-06	449.88	148.91	130.76	44.148	1.2746e-06	53.833	0.00022394	0.00020234	5.6901e-05	1437.6	2.2616e-06	2.2183e-06	1430.3	392.71	2.2443e-06	2.2439e-06	437.38	147.39	129.02	43.776	2.2781e-06	53.52	247.878	248.201	223.046	165.150	295.228	282.821	165.134	169.757	257.334	303.941	169.029	173.546	174.315	178.470	357.372	177.649	-8191	255	
2903.905	1	1	0	0	0.33933	0.20929	0.17588	0.21251	0.14018	0.049995	0.20156	0.0396	0.053086	0.070447	0.026386	0.20509	0.29655	0.084094	0.078661	0.04812	-2.2458	-3.0167	-3.2667	-2.8625	-3.3292	-3.0417	-2.7104	-3.4938	-2.8458	-2.8021	-3.5312	-2.6375	-3.2396	-3.4333	-2.6417	-3.5646	462.901	355.074	319.769	432.497	446.007	173.520	474.932	448.181	344.711	423.068	319.529	437.021	497.856	354.920	483.791	383.574	0.00054397	0.00059157	0.00010409	1442.1	6.3537e-06	5.5934e-06	1433.9	394.09	5.4912e-06	3.7322e-06	450.41	148.15	130.54	43.932	1.5768e-06	54.235	0.00022522	0.00020384	5.6621e-05	1433.2	2.2582e-06	2.2314e-06	1430.4	392.31	2.2429e-06	2.2765e-06	437.85	147.3	128.96	43.812	2.2582e-06	53.599	250.003	266.646	192.939	165.032	310.181	285.093	165.067	169.799	309.569	346.111	168.880	173.540	174.253	178.408	298.103	177.770	-8191	255	
2904.001	1	1	0	0	0.18279	0.039713	0.026608	0.17953	0.095938	0.10331	0.28396	0.18847	0.19014	0.14674	0.1202	0.079214	0.23562	0.15336	0.23736	0.22584	-2.2896	-2.5875	-3.2313	-2.775	-3.2896	-3.1771	-2.8542	-3.5	-2.9	-2.6208	-3.425	-2.9	-3.2812	-3.4188	-2.7042	-3.3771	497.511	409.200	204.332	420.781	378.223	266.632	423.184	464.221	370.958	448.895	182.108	501.540	498.161	268.199	441.966	396.555	0.00053768	0.00058999	0.00014006	1445.2	6.5879e-06	4.6748e-06	1440.4	393.61	5.5912e-06	4.4052e-06	449.67	148.44	131.24	44.093	2.9639e-06	53.957	0.00021837	0.00020444	5.6469e-05	1434.9	2.259e-06	2.1875e-06	1431.2	392.24	2.2549e-06	2.2179e-06	437.48	147.32	129.17	43.855	2.2681e-06	53.495	247.064	233.972	228.212	165.215	301.782	289.135	165.287	169.694	316.765	307.854	169.366	173.500	174.322	178.642	336.611	177.863	-8191	255	
2904.120	1	1	0	0	0.15201	0.18282	0.17974	0.11088	0.33297	0.15064	0.29645	0.1869	0.23459	0.13714	0.098943	0.068267	0.25032	0.21743	0.025296	0.20838	-2.5187	-2.7625	-3.4104	-2.9167	-2.8229	-3.2812	-2.7333	-3.525	-2.9	-2.7833	-3.6354	-2.7646	-3.0667	-3.3375	-2.7188	-3.4188	214.462	269.094	161.426	337.739	223.301	174.220	458.819	445.301	410.440	437.566	232.532	475.542	508.754	489.746	240.501	169.043	0.0004812	0.00072966	0.00016925	1448.4	4.5523e-06	3.6332e-06	1439.1	393.63	6.0338e-06	5.2244e-06	447.81	147.63	130.45	43.968	4.0848e-06	54.006	0.00021794	0.00020037	5.6567e-05	1436	2.2307e-06	2.2023e-06	1431.4	392.78	2.2184e-06	2.1811e-06	436.79	147.09	128.78	43.793	2.2112e-06	53.47	248.148	226.735	238.793	165.159	333.159	256.654	164.918	170.115	284.334	286.875	169.145	173.405	174.335	178.735	308.928	177.998	-8191	255	
2904.216	1	1	0	0	0.15189	0.2583	0.33771	0.24663	0.16188	0.080188	0.14529	0.092089	0.19107	0.12912	0.22789	0.29886	0.25747	0.26852	0.13253	0.17168	-2.6583	-2.7125	-3.3688	-3.0771	-2.7854	-3.3333	-2.6979	-3.2417	-3.1521	-2.6229	-3.5167	-2.725	-2.8333	-3.6167	-2.4417	-3.2917	294.200	391.155	350.113	463.444	217.365	170.890	505.783	430.972	225.977	213.533	494.337	477.084	506.740	478.078	438.634	194.870	0.00053252	0.00028651	6.8674e-05	1448.2	4.4108e-06	4.7399e-06	1444.5	395.08	8.4211e-06	2.4405e-06	448.02	148.37	130.6	44.074	2.7965e-06	54.138	0.00021418	0.00020014	5.5715e-05	1436	2.1963e-06	2.2008e-06	1432.4	392.9	2.2383e-06	2.1478e-06	437.47	147.16	128.93	43.775	2.2018e-06	53.539	252.951	256.721	252.749	165.188	271.160	280.843	165.202	170.049	288.058	323.431	169.455	173.293	174.298	178.648	285.048	177.885	-8191	255	
2904.290	1	1	0	0	0.20262	0.13893	0.164	0.2263	0.096843	0.14126	0.53777	0.12162	0.15538	0.19124	0.16767	0.29626	0.1708	0.088294	0.23656	0.052888	-2.7521	-2.5208	-3.2438	-3.0083	-2.7021	-3.2313	-2.8333	-3.1063	-3.3729	-2.4	-3.4688	-3.1271	-2.6542	-3.5687	-2.6229	-3.1125	301.968	337.144	235.623	441.490	172.423	183.198	444.240	448.572	482.373	399.156	160.062	163.076	269.303	500.956	432.172	250.729	0.00056081	0.0003809	0.00016404	1442.9	4.7935e-06	5.8679e-06	1437.4	394.34	5.8048e-06	3.9925e-06	447.89	148.06	129.96	43.983	3.0734e-06	54.064	0.00021543	0.00020255	5.5388e-05	1434.9	2.2286e-06	2.1784e-06	1431.4	392.76	2.2133e-06	2.2242e-06	436.58	147.1	128.94	43.749	2.2018e-06	53.413	246.245	239.365	270.629	165.276	337.797	261.862	165.106	169.969	287.151	308.146	169.603	173.620	174.434	178.605	273.555	177.724	-8191	255	
2904.408	1	1	0	0	0.13313	0.11177	0.061053	0.29507	0.22419	0.066252	0.27038	0.12367	0.047721	0.19428	0.05951	0.1835	0.22856	0.24934	0.24014	0.12578	-2.8667	-2.6188	-3.2333	-3.1917	-2.6542	-3.4729	-2.9521	-3.1667	-3.1	-2.5521	-3.1646	-3.1792	-2.5979	-3.4208	-2.6792	-2.9271	467.615	387.943	388.468	168.594	290.368	495.745	430.903	495.796	255.339	431.580	193.847	403.013	426.253	447.893	286.927	176.400	0.00051843	0.00032521	0.00010988	1442.8	2.8184e-06	5.842e-06	1435.6	393.45	5.6921e-06	6.5942e-06	449.34	148.71	130.2	43.96	4.6135e-06	53.936	0.00021703	0.00020261	5.6036e-05	1434.1	2.1914e-06	2.1671e-06	1429.4	392.21	2.1778e-06	2.1784e-06	437.39	147.01	128.71	43.803	2.1755e-06	53.478	248.396	222.095	267.755	165.159	346.646	278.297	165.000	170.043	285.708	346.185	169.389	173.767	174.225	178.710	303.438	178.136	-8191	255	
2904.505	1	1	0	0	0.13071	0.18774	0.24697	0.28619	0.066507	0.055432	0.17132	0.073188	0.086927	0.21815	0.094475	0.2686	0.1955	0.17272	0.1863	0.15727	-2.9208	-2.5979	-3.0187	-3.3	-2.4583	-3.3896	-2.9688	-3.025	-3.3896	-2.5812	-3.1208	-3.2083	-2.7542	-3.2958	-2.9792	-2.8854	242.811	350.757	344.013	476.891	453.003	251.880	396.403	486.198	400.626	195.238	353.703	441.372	494.827	167.932	415.719	411.163	0.00057052	0.0005025	3.3749e-05	1441.3	3.5242e-06	3.3762e-06	1442.6	392.34	5.8792e-06	6.2194e-06	450.13	148.06	130.5	44.004	4.6542e-06	54.101	0.00021852	0.00020097	5.549e-05	1434.3	2.2216e-06	2.2161e-06	1432.4	392.14	2.2181e-06	2.1842e-06	438.05	147.09	129.04	43.74	2.207e-06	53.607	252.460	237.944	233.536	165.255	270.880	302.851	165.061	169.924	274.194	313.831	169.448	173.691	174.312	178.814	284.399	178.119	-8191	255	
2904.601	1	1	0	0	0.19072	0.21283	0.11209	0.29197	0.11892	0.12122	0.2547	0.16722	0.088241	0.14052	0.2172	0.075086	0.25208	0.12439	0.19288	0.15632	-3.1	-2.5125	-3.0104	-3.5229	-2.6479	-3.2917	-3.1354	-2.8063	-3.4354	-2.8625	-3.1083	-3.4583	-2.6167	-3.6125	-2.9083	-2.8479	325.591	157.488	503.475	152.055	487.452	464.953	446.704	467.767	273.812	215.145	450.875	489.383	163.176	493.717	229.466	458.246	0.00053035	0.00066709	0.00012425	1447.8	4.9185e-06	3.2822e-06	1436.4	395.08	4.8872e-06	6.8672e-06	450.02	148.7	129.92	44.099	2.8403e-06	53.99	0.00021824	0.0002019	5.5668e-05	1436.6	2.2313e-06	2.2027e-06	1431	392.9	2.2111e-06	2.1722e-06	438.09	147.36	128.82	43.84	2.1644e-06	53.482	242.543	229.608	236.771	165.084	312.959	273.372	165.231	169.979	265.670	302.368	169.438	173.754	174.597	178.756	277.943	178.128	-8191	255	
2904.721	1	1	0	0	0.30405	0.15499	0.18563	0.15109	0.062671	0.25099	0.36199	0.25102	0.16472	0.14652	0.16066	0.13793	0.11105	0.14032	0.061013	0.041495	-2.9917	-2.7104	-2.8	-3.6042	-2.4854	-3.3104	-3.3438	-2.6896	-3.3354	-3.0521	-2.9167	-3.55	-2.5563	-3.2687	-3.0563	-2.8083	186.684	448.115	510.607	180.796	432.672	376.798	419.590	400.397	242.712	483.006	334.591	423.474	255.808	396.899	508.171	302.294	0.00053936	0.00061131	8.0966e-05	1449.2	2.6547e-06	3.3933e-06	1436.3	395.21	6.6167e-06	1.7936e-06	450.83	148.58	130.6	44.03	5.1541e-06	54.02	0.00021712	0.00019864	5.5142e-05	1435.7	2.1882e-06	2.153e-06	1430.5	392.6	2.1947e-06	2.1734e-06	437.94	147.42	128.79	43.759	2.1672e-06	53.48	248.510	243.817	233.716	165.280	285.433	275.781	165.181	169.998	306.234	386.478	169.325	173.536	174.282	178.953	289.811	177.938	-8191	255	
2904.817	1	1	0	0	0.074231	0.19177	0.2415	0.12437	0.11851	0.019834	0.38686	0.21783	0.10308	0.15069	0.073259	0.28909	0.29675	0.042522	0.09812	0.15499	-3.0458	-2.9188	-2.6708	-3.6646	-2.4958	-2.9833	-3.3479	-2.7542	-3.4458	-2.7562	-2.8875	-3.5	-2.9104	-3.2083	-3.1875	-2.7	206.632	461.362	229.578	450.269	152.248	374.638	477.765	229.550	455.245	298.692	330.721	492.356	485.004	457.275	449.940	429.725	0.00049409	0.00032903	9.6091e-05	1449.7	5.2145e-06	2.9402e-06	1438.2	393.12	2.956e-06	3.2842e-06	449.55	148.24	130.36	43.969	3.7962e-06	54.102	0.00021694	0.00019768	5.5765e-05	1436	2.1891e-06	2.1903e-06	1432.4	391.78	2.2174e-06	2.194e-06	437.48	147.24	128.97	43.76	2.19e-06	53.506	248.487	201.147	226.426	165.336	275.648	242.296	165.080	169.846	319.904	258.943	169.411	173.721	174.390	178.867	312.190	178.084	-8191	255	
2904.914	1	1	0	0	0.15027	0.12983	0.27602	0.27589	0.22755	0.16132	0.034223	0.30584	0.16975	0.21279	0.28047	0.10678	0.24915	0.19628	0.23496	0.15492	-3.0979	-2.7667	-2.7812	-3.575	-2.6333	-2.9604	-3.5125	-2.7208	-3.3	-3.0625	-2.8521	-3.5896	-2.7792	-3.0062	-3.3625	-2.4729	272.730	187.411	214.238	443.759	171.235	360.224	459.297	450.239	190.703	363.759	459.885	207.052	472.827	432.187	324.851	445.490	0.00053272	0.00039604	9.7511e-05	1450.2	6.3584e-06	4.8406e-06	1435.5	393.78	1.7845e-06	2.2727e-06	450.3	148.72	130.62	43.967	4.5537e-06	53.735	0.00022002	0.00019923	5.5808e-05	1436.7	2.2223e-06	2.173e-06	1429.6	392.38	2.2356e-06	2.1666e-06	437.14	147.33	128.75	43.757	2.2082e-06	53.449	246.091	246.417	264.793	165.291	260.098	273.959	165.318	170.128	320.231	260.123	169.390	173.720	174.390	178.937	327.205	178.164	-8191	255	
2905.010	1	1	0	0	0.29068	0.10041	0.24051	0.28863	0.13665	0.14998	0.31733	0.39358	0.053396	0.27199	0.2963	0.091946	0.068562	0.1874	0.094944	0.26471	-2.7062	-2.9854	-2.6583	-3.5187	-2.7188	-2.8229	-3.5083	-2.8083	-2.9437	-3.2167	-2.5375	-3.4313	-2.85	-2.7562	-3.325	-2.7979	163.177	176.444	324.321	488.966	190.224	446.904	397.133	496.595	199.479	363.153	454.799	243.820	203.479	258.935	272.031	506.984	0.00053477	0.00022904	6.9739e-05	1448.6	3.1951e-06	3.8684e-06	1439.5	393.85	4.4817e-06	8.3298e-07	450.09	149.21	130.16	44.213	3.9591e-06	53.988	0.00022001	0.00020123	5.6399e-05	1436.3	2.2193e-06	2.2148e-06	1432	392.18	2.2374e-06	2.186e-06	438.13	147.62	128.69	43.822	2.2324e-06	53.413	251.128	278.832	253.760	165.290	289.855	291.693	165.095	170.007	296.030	247.169	169.613	173.729	174.556	178.918	283.612	178.105	-8191	255	
2905.104	1	1	0	0	0.22228	0.042783	0.18553	0.25392	0.37073	0.16664	0.17202	0.36249	0.085054	0.059035	0.099297	0.091381	0.2062	0.10493	0.1343	0.20715	-2.55	-3.3083	-2.625	-3.5917	-3.0104	-2.4396	-3.6208	-2.7667	-3.0396	-3.2667	-2.7562	-3.4021	-3.0208	-2.8458	-3.3833	-2.8042	265.173	264.608	229.236	174.041	489.760	425.197	386.728	416.952	178.916	153.090	504.700	260.269	502.118	212.347	391.031	503.443	0.00058669	0.00048185	7.1117e-05	1446.8	3.973e-06	6.8443e-07	1438.2	393.91	7.8222e-06	5.0937e-06	451.15	148.94	130.06	44.082	5.7542e-06	53.782	0.00022009	0.00020142	5.6695e-05	1436.1	2.2399e-06	2.2213e-06	1430.4	392.04	2.2465e-06	2.1987e-06	437.88	147.61	128.68	43.781	2.2358e-06	53.495	252.892	233.289	273.481	165.385	324.650	483.644	165.279	170.062	283.153	310.864	169.452	173.663	174.371	178.739	376.101	178.215	-8191	255	
2905.200	1	1	0	0	0.14649	0.072798	0.30666	0.12757	0.15523	0.12456	0.3189	0.15838	0.19277	0.20004	0.21454	0.075686	0.095512	0.06649	0.15503	0.14742	-2.7188	-3.2854	-2.6437	-3.4062	-2.95	-2.5896	-3.5896	-2.9375	-2.9104	-3.3917	-2.7667	-3.3292	-3.25	-2.6188	-3.3792	-2.8208	177.335	389.515	438.528	390.493	238.604	194.507	445.175	479.510	257.420	359.423	234.037	304.601	166.867	487.159	326.315	203.944	0.00054273	0.00038359	0.00018478	1444.9	3.8831e-06	3.2724e-06	1438.6	394.11	5.7063e-06	6.3402e-06	449.45	148.14	130.57	43.962	4.3557e-06	54.151	0.00022194	0.00019941	5.7361e-05	1434.2	2.2468e-06	2.2191e-06	1430	392.12	2.2188e-06	2.2183e-06	437.08	147.28	128.95	43.773	2.2571e-06	53.518	247.277	209.492	248.427	165.172	299.185	317.301	164.939	169.599	287.994	326.022	169.423	173.735	174.262	178.539	299.283	178.083	-8191	255	
2905.321	1	1	0	0	0.11956	0.16816	0.28927	0.18342	0.055402	0.10465	0.22503	0.21683	0.15432	0.13264	0.39319	0.12526	0.1593	0.057992	0.070054	0.26586	-2.2271	-3.2812	-2.5687	-3.4292	-3.1958	-2.6208	-3.4729	-2.9229	-2.7229	-3.4396	-2.7938	-3.2479	-3.5042	-2.7604	-3.2583	-2.9792	480.498	456.599	488.166	511.475	510.254	231.993	410.876	507.729	259.754	291.622	432.040	241.350	429.707	489.405	286.671	428.071	0.00050922	0.00020159	0.00019895	1447	6.7907e-06	3.2639e-06	1437.5	393.34	4.8181e-06	6.2174e-06	448.78	148.33	129.71	44.071	2.6721e-06	53.779	0.00022197	0.00020299	5.7336e-05	1435.8	2.2613e-06	2.2464e-06	1431.3	391.97	2.2969e-06	2.2445e-06	437.49	147.27	128.65	43.811	2.3005e-06	53.42	247.384	236.282	247.061	165.175	276.806	310.275	165.205	169.774	289.451	333.034	169.206	173.363	174.426	178.288	295.357	177.730	-8191	255	
2905.417	1	1	0	0	0.25383	0.1011	0.072928	0.14027	0.14253	0.10353	0.35615	0.19605	0.12251	0.19563	0.33063	0.056609	0.12796	0.18123	0.22379	0.17246	-2.3604	-3.4313	-2.7542	-3.2667	-3.3354	-2.6792	-3.5458	-3.275	-2.6729	-3.4417	-2.7958	-3.0042	-3.5771	-2.7229	-3.4437	-3.1521	358.576	210.321	491.584	480.105	395.354	344.693	434.846	500.723	456.637	371.566	441.534	204.890	175.044	474.131	278.012	156.604	0.00048811	0.00051684	0.00013883	1449.2	6.269e-06	4.8734e-06	1438.6	393.55	5.2794e-06	4.785e-06	447.09	147.53	130.18	43.897	2.8576e-06	53.852	0.00022272	0.00020837	5.8636e-05	1434.9	2.2916e-06	2.2992e-06	1431.5	391.96	2.3219e-06	2.274e-06	436.55	147.1	128.74	43.741	2.2675e-06	53.465	249.224	232.879	267.418	165.395	332.424	251.606	164.851	169.513	273.823	310.279	168.689	173.451	174.165	178.345	313.005	177.601	-8191	255	
2905.513	1	1	0	0	0.095221	0.21989	0.073729	0.24226	0.18062	0.12001	0.32823	0.14377	0.23693	0.23035	0.29322	0.34937	0.026939	0.30614	0.092272	0.11645	-2.2083	-3.4979	-2.7354	-3.1562	-3.2979	-2.6917	-3.4896	-3.3708	-2.6208	-3.4688	-2.9979	-2.9708	-3.4771	-2.7958	-3.4	-3.2438	248.565	183.777	194.773	466.400	497.907	215.915	442.499	438.210	397.145	305.383	445.649	456.992	308.512	449.788	317.631	386.165	0.00052475	0.000467	0.00012206	1448	5.9442e-06	6.0372e-06	1442.4	394.13	3.986e-06	3.9417e-06	448.6	147.82	130.71	43.819	3.2336e-06	53.899	0.00022796	0.00021008	5.8162e-05	1435.1	2.3197e-06	2.2865e-06	1431.9	391.94	2.3324e-06	2.266e-06	436.87	147.14	128.75	43.708	2.2948e-06	53.386	249.181	222.537	243.872	164.973	329.728	266.271	164.940	169.365	290.383	292.741	169.139	173.343	173.740	178.230	307.426	177.506	-8191	255	
2905.585	1	1	0	0	0.14524	0.10736	0.14544	0.099058	0.17048	0.22142	0.17878	0.028534	0.25762	0.13217	0.31217	0.090967	0.1149	0.35194	0.084988	0.10222	-2.2521	-3.4562	-2.8146	-2.9771	-3.4271	-2.7146	-3.1708	-3.2625	-2.2854	-3.2854	-3.1354	-2.925	-3.4146	-2.7667	-3.0187	-3.3375	328.449	318.332	198.155	196.055	393.869	171.042	469.897	158.066	309.607	434.100	160.590	508.986	511.065	194.678	407.463	497.458	0.00053152	0.00023202	9.7163e-05	1441.4	4.9209e-06	9.6443e-07	1436.9	392.8	3.3861e-06	4.4463e-06	447.04	148.55	130.32	43.853	2.5172e-06	53.863	0.00022876	0.00020956	5.8579e-05	1433.6	2.3306e-06	2.2739e-06	1431.2	391.12	2.3164e-06	2.3237e-06	437.02	147.27	128.78	43.765	2.2844e-06	53.446	246.819	216.071	235.829	165.080	324.397	209.846	164.934	169.535	326.232	319.746	168.970	173.099	174.147	178.473	306.688	177.515	-8191	255	
2905.681	1	1	0	0	0.29435	0.10171	0.13788	0.15572	0.15082	0.15224	0.16654	0.27008	0.086915	0.23057	0.090516	0.24165	0.14713	0.18858	0.29007	0.06129	-1.9917	-3.2625	-2.9458	-2.9188	-3.3479	-2.6917	-3.2271	-3.4021	-2.4208	-3.2438	-3.2083	-2.7208	-3.6104	-2.85	-2.8292	-3.4313	330.710	293.471	491.524	423.166	400.599	366.157	435.364	486.153	240.644	464.619	157.498	159.144	497.734	462.896	214.171	331.250	0.00051985	0.00022676	0.00016211	1443.7	3.4924e-06	2.6806e-06	1438.2	392.9	2.5026e-06	4.6603e-06	447.5	147.98	129.78	44.052	6.8114e-06	53.642	0.00022688	0.0002083	5.7856e-05	1434.1	2.314e-06	2.2876e-06	1429.8	391.68	2.3324e-06	2.2883e-06	436.99	147.24	128.51	43.729	2.2947e-06	53.377	248.464	259.163	261.915	164.899	282.483	249.703	164.760	169.434	291.409	302.226	168.822	173.103	173.807	178.060	285.593	177.343	-8191	255	
2905.802	1	1	0	0	0.11684	0.064434	0.23234	0.15594	0.094252	0.056047	0.21661	0.12964	0.062449	0.088336	0.21566	0.14111	0.21254	0.35877	0.23749	0.30412	-2.1729	-3.1667	-3.1437	-2.6333	-3.4188	-2.8083	-2.9146	-3.4	-2.4813	-3.2354	-3.2542	-2.7146	-3.4583	-3.0333	-2.7375	-3.4417	233.111	194.840	463.968	504.907	288.453	424.779	468.094	454.514	171.852	332.729	458.233	436.358	503.509	416.764	322.826	444.040	0.00054361	0.00018484	4.9501e-05	1445.6	7.3088e-06	3.172e-06	1435.6	392.3	4.2907e-06	6.4968e-06	448.86	148.93	130.4	43.814	5.4829e-06	53.907	0.0002274	0.00020814	5.8222e-05	1434	2.2872e-06	2.3094e-06	1432	391.13	2.3203e-06	2.2845e-06	436.76	147.39	128.73	43.689	2.3075e-06	53.434	245.241	200.723	277.134	164.758	304.654	281.189	164.787	169.029	293.722	296.628	168.724	172.977	173.922	178.214	303.270	177.081	-8191	255	
2905.898	1	1	0	0	0.061188	0.13462	0.11972	0.14568	0.069359	0.1951	0.021147	0.22226	0.14598	0.062761	0.13228	0.25204	0.19138	0.15281	0.15127	0.13769	-2.2771	-3.1583	-3.3146	-2.9021	-3.4333	-2.9896	-3.0729	-3.4771	-2.4542	-2.8312	-3.4896	-2.6271	-3.4062	-2.9625	-2.6875	-3.5896	396.851	305.033	370.576	428.921	439.561	358.979	265.055	410.120	308.909	436.408	210.768	438.745	453.355	466.342	260.540	422.932	0.0004989	0.00050238	0.00011433	1441.7	9.103e-06	4.6796e-06	1432.1	393.41	3.2791e-06	3.4628e-06	448.13	148	130.03	43.788	2.3805e-06	54.258	0.00022552	0.00020826	5.8113e-05	1434	2.3355e-06	2.2664e-06	1429.6	391.94	2.312e-06	2.2705e-06	437.65	147.13	128.93	43.736	2.2969e-06	53.568	247.448	259.090	254.278	164.977	296.265	257.567	164.594	169.177	248.398	301.149	168.652	173.149	173.709	177.944	315.631	177.114	-8191	255	
2905.994	1	1	0	0	0.12023	0.07348	0.030958	0.33172	0.24919	0.35907	0.35643	0.21686	0.10179	0.20835	0.12174	0.092078	0.17623	0.13309	0.18657	0.1458	-2.4167	-2.9521	-3.2687	-2.65	-2.9854	-3.0312	-2.9708	-3.6125	-2.7542	-2.8958	-3.5875	-2.6875	-3.275	-3.3833	-2.5667	-3.3646	364.063	170.866	240.240	479.300	465.729	183.357	379.299	160.897	160.370	427.751	153.713	258.893	475.608	484.549	424.579	444.142	0.00050704	0.00018653	0.00014001	1445.2	3.166e-06	6.8773e-07	1432.6	395.03	7.3235e-06	3.7384e-06	447.6	147.64	130.41	43.908	4.2514e-06	54.006	0.00022678	0.00021161	5.8197e-05	1436.7	2.3149e-06	2.2918e-06	1429.6	392.44	2.3309e-06	2.2878e-06	437.41	147.13	129.09	43.779	2.3335e-06	53.576	242.717	265.988	252.563	164.621	247.112	193.725	164.525	169.164	336.099	254.505	168.287	172.853	173.587	177.804	353.390	177.467	-8191	255	
2906.090	1	1	0	0	0.35111	0.11028	0.043513	0.36457	0.1655	0.1327	0.15014	0.20505	0.17009	0.088428	0.22928	0.36446	0.22406	0.21611	0.097032	0.022431	-2.4708	-2.7104	-3.4479	-2.7667	-3.3104	-3.1583	-2.8375	-3.4562	-2.6937	-2.7167	-3.5208	-2.5	-3.275	-3.4021	-2.5833	-3.4688	241.278	332.795	325.166	472.584	197.613	239.078	455.796	178.266	450.205	319.046	412.154	437.350	472.578	478.504	224.935	352.959	0.00053709	0.00066562	0.00014129	1446.7	7.0567e-06	2.3313e-06	1433.2	393.22	7.3658e-06	5.7047e-06	448.89	147.76	130.13	43.977	6.858e-06	53.835	0.00022716	0.00021128	5.8496e-05	1436.2	2.332e-06	2.3505e-06	1428	392.08	2.343e-06	2.3205e-06	437.29	147.12	128.79	43.772	2.3177e-06	53.517	242.519	233.317	220.056	164.714	274.775	257.463	164.647	169.165	293.207	274.352	168.423	172.876	173.749	177.974	275.678	177.409	-8191	255	
2906.185	1	1	0	0	0.068204	0.12581	0.19386	0.14298	0.10014	0.029634	0.39552	0.12167	0.35703	0.16778	0.14294	0.20786	0.35988	0.14909	0.25367	0.19866	-2.5979	-2.6458	-3.4208	-2.9208	-3.0896	-3.2062	-2.5625	-3.4875	-2.9667	-2.5	-3.4354	-2.775	-3.0375	-3.3958	-2.6021	-3.3167	313.015	167.043	250.938	463.167	303.866	237.713	449.564	327.372	321.668	444.878	432.723	388.999	174.695	472.491	444.341	434.256	0.00048416	0.00018844	0.000115	1442.6	6.1398e-06	5.0226e-06	1433.9	393.32	6.1456e-06	5.1449e-06	447.72	148.1	130.62	43.876	5.6541e-06	54.115	0.00022615	0.00020744	5.7597e-05	1432.2	2.3129e-06	2.2741e-06	1430.2	392	2.2796e-06	2.2496e-06	436.76	147.1	128.93	43.732	2.2868e-06	53.527	243.640	261.017	254.662	164.549	270.309	256.072	164.313	169.223	303.601	322.167	168.805	172.959	173.594	178.333	315.593	177.245	-8191	255	
2906.282	1	1	0	0	0.028905	0.37024	0.043768	0.44126	0.25268	0.25193	0.17796	0.23685	0.12241	0.32199	0.12727	0.24121	0.044723	0.24051	0.12559	0.062442	-2.7917	-2.6542	-3.3187	-2.8229	-2.7917	-3.3125	-2.7021	-3.2625	-3.0146	-2.5979	-3.5	-2.7812	-2.8187	-3.3604	-2.7458	-3.3063	165.628	449.063	181.046	508.131	196.630	335.025	418.548	380.332	199.644	418.099	175.675	496.327	384.608	510.225	486.466	247.904	0.00054842	0.00030716	9.3552e-05	1444.8	3.4301e-06	6.7643e-06	1431	393.11	5.3567e-06	4.8901e-06	447.09	147.71	130.28	43.819	5.7625e-06	54.003	0.00022153	0.00020677	5.7394e-05	1436	2.2834e-06	2.2399e-06	1428.4	391.49	2.2824e-06	2.2556e-06	436.6	147.17	128.72	43.756	2.2702e-06	53.549	248.860	229.518	236.384	164.374	346.892	256.079	164.523	169.155	286.649	277.663	168.877	172.855	173.445	177.897	304.561	177.619	-8191	255	
2906.401	1	1	0	0	0.054482	0.16595	0.14642	0.30392	0.1358	0.18231	0.16421	0.44169	0.080171	0.17064	0.18881	0.31317	0.15657	0.24138	0.11176	0.27093	-2.7562	-2.6125	-3.3708	-3.0708	-2.7125	-3.3708	-2.8521	-3.2333	-3.0417	-2.5625	-3.4521	-2.9521	-2.7958	-3.6562	-2.6813	-3.2854	380.682	248.030	453.203	483.733	473.447	396.769	420.035	482.647	380.481	208.882	162.456	500.196	502.881	421.175	233.696	509.597	0.00054555	0.00053135	5.7926e-05	1446.8	6.0454e-06	2.8815e-06	1428.6	392.68	4.1127e-06	5.2493e-06	448.42	147.93	130.61	44.12	4.6706e-06	53.843	0.00022312	0.00020751	5.7842e-05	1433.5	2.2578e-06	2.2339e-06	1427.6	392.09	2.2749e-06	2.2237e-06	437.17	147.16	128.99	43.782	2.2695e-06	53.419	251.335	250.536	313.679	164.537	279.921	292.358	164.419	169.135	298.430	291.930	168.898	173.123	173.742	177.919	314.382	177.149	-8191	255	
2906.497	1	1	0	0	0.3839	0.25135	0.22942	0.28024	0.023993	0.081475	0.15316	0.20014	0.15769	0.10094	0.044358	0.19357	0.24732	0.074052	0.31522	0.19988	-2.75	-2.5521	-3.2604	-3.3458	-2.6542	-3.35	-2.8417	-3.1937	-3.2958	-2.675	-3.325	-3.0438	-2.6042	-3.3583	-2.8812	-3.0042	418.167	219.636	429.349	479.183	236.125	348.582	478.141	419.189	314.441	391.118	161.170	168.708	155.941	396.455	258.053	455.393	0.00050378	0.00042554	6.6491e-05	1443.1	2.3615e-06	4.4476e-06	1431.2	393.52	4.8418e-06	6.1123e-06	447.79	148.62	130.2	44.075	1.3006e-06	54.037	0.00022134	0.00020679	5.6809e-05	1432.7	2.2686e-06	2.2509e-06	1425.6	391.89	2.2496e-06	2.25e-06	436.37	147.5	128.74	43.797	2.2565e-06	53.451	246.645	237.297	270.283	164.480	244.342	310.608	164.262	169.349	286.411	318.841	168.626	172.857	173.709	177.907	293.965	177.512	-8191	255	
2906.594	1	1	0	0	0.14205	0.31604	0.16041	0.26786	0.18465	0.039865	0.11756	0.12972	0.24796	0.196	0.089446	0.21752	0.24306	0.1781	0.086216	0.26392	-3.1312	-2.5458	-3.2042	-3.3833	-2.7	-3.3271	-3.1125	-3.15	-3.3396	-2.65	-3.0854	-3.1021	-2.7896	-3.425	-2.8917	-2.8146	449.583	348.129	230.878	415.839	360.154	444.675	183.631	186.616	262.617	220.231	477.229	468.773	462.558	434.417	470.209	464.067	0.00053762	0.0006062	0.0001717	1435.4	1.3869e-06	1.9212e-06	1437.6	394.75	3.5999e-06	2.7773e-06	446.7	149.2	129.84	43.828	3.0817e-06	53.977	0.00022076	0.00020529	5.5772e-05	1430	2.2047e-06	2.2362e-06	1429.1	392.14	2.2393e-06	2.2167e-06	436.51	147.41	128.67	43.693	2.2312e-06	53.448	246.521	218.733	225.828	164.579	281.673	279.658	164.512	169.308	235.975	350.140	168.465	173.028	173.644	178.026	263.189	177.294	-8191	255	
2906.690	1	1	0	0	0.18565	0.27653	0.24037	0.1735	0.13451	0.094469	0.19134	0.15476	0.28802	0.25789	0.028314	0.18924	0.13788	0.33256	0.15451	0.18794	-3.0771	-2.5875	-3.05	-3.4458	-2.6396	-3.3458	-3.2146	-2.9167	-3.3479	-2.7687	-3.1937	-3.5354	-2.6312	-3.5083	-2.9458	-2.7875	229.609	420.306	502.825	478.745	248.473	273.688	421.883	451.352	319.835	272.642	179.168	469.092	161.095	169.301	496.434	483.334	0.00059038	0.0003953	0.00012763	1440.8	5.5426e-06	4.5415e-06	1434.7	394.22	4.8366e-06	5.6144e-06	446.92	148.39	130.03	44.025	5.4514e-06	54.154	0.00021477	0.00020193	5.526e-05	1432.3	2.2342e-06	2.1862e-06	1428.1	391.56	2.2031e-06	2.175e-06	436.32	147.28	128.74	43.795	2.1552e-06	53.506	247.842	209.397	232.643	164.602	294.557	261.991	164.644	169.339	257.661	322.068	168.762	173.220	173.633	178.121	285.258	177.225	-8191	255	
2906.810	1	1	0	0	0.30253	0.09099	0.25142	0.085044	0.11517	0.16993	0.2512	0.36273	0.097756	0.15816	0.17063	0.096348	0.43921	0.25291	0.12359	0.062769	-2.9479	-2.6604	-2.8792	-3.45	-2.4083	-3.4125	-3.3771	-2.7687	-3.3458	-2.9479	-3.0479	-3.4271	-2.7938	-3.3563	-3.1688	-2.7958	343.830	160.192	423.078	489.161	234.035	499.869	461.817	447.272	375.887	247.495	172.918	151.388	385.809	474.058	332.492	387.991	0.00053168	0.00024875	0.00016625	1441.4	2.9008e-06	2.4255e-06	1434	394.02	8.616e-06	2.2971e-06	447.52	148.78	130.26	44.072	2.4274e-06	54.107	0.0002117	0.00019976	5.5394e-05	1431.7	2.1964e-06	2.1517e-06	1427.7	391.6	2.1821e-06	2.1391e-06	436.55	147.32	128.67	43.765	2.1485e-06	53.474	247.655	196.673	233.967	164.618	258.294	244.890	164.394	169.292	287.442	328.848	168.833	173.003	173.619	177.869	231.642	177.335	-8191	255	
2906.882	1	1	0	0	0.061374	0.22499	0.20312	0.21384	0.22137	0.28041	0.23149	0.20625	0.17318	0.03324	0.13721	0.20436	0.23459	0.18756	0.32889	0.24123	-3.0104	-2.7625	-2.9479	-3.6083	-2.75	-3.1896	-3.3792	-2.7417	-3.3375	-2.9917	-2.9417	-3.6792	-2.7958	-3.3396	-3.1	-2.7542	410.047	459.069	433.788	448.595	257.413	368.216	232.740	410.980	184.611	291.564	422.272	437.149	257.642	250.619	488.363	167.363	0.00050502	0.00020751	0.00010707	1445.7	3.7617e-06	3.2173e-06	1436.1	393.47	3.5798e-06	3.1821e-06	450.25	148.28	130.43	43.843	4.1135e-06	53.951	0.00021412	0.00019744	5.3958e-05	1433.5	2.1645e-06	2.1318e-06	1427.9	391.51	2.1971e-06	2.1508e-06	437.65	147.31	128.74	43.713	2.1742e-06	53.458	244.317	167.822	255.823	164.550	318.364	290.053	164.397	169.174	293.699	298.285	168.676	172.970	173.672	178.059	320.933	177.274	-8191	255	
2906.978	1	1	0	0	0.15328	0.30207	0.10912	0.041105	0.08819	0.31305	0.44661	0.015032	0.041009	0.1869	0.12208	0.11024	0.23522	0.072364	0.019747	0.18232	-2.9417	-2.9688	-2.7313	-3.575	-2.6396	-3.1375	-3.4667	-2.8083	-3.2687	-2.8729	-2.9562	-3.4771	-2.9813	-3.0146	-3.2875	-2.6875	488.811	465.752	369.308	293.985	162.770	361.109	501.243	207.606	161.311	241.896	322.194	447.683	188.708	410.609	328.246	399.445	0.00050298	0.00057019	0.00010745	1446.5	4.3214e-06	6.3717e-06	1433.1	394.25	4.7875e-06	4.4798e-06	448.19	148.38	130.18	44.14	3.9292e-06	54.09	0.00021564	0.00019809	5.523e-05	1433.6	2.2087e-06	2.1802e-06	1428.8	392.25	2.1866e-06	2.1215e-06	437.26	147.32	128.65	43.828	2.1524e-06	53.475	245.193	238.271	259.052	164.639	305.013	276.259	164.441	168.946	300.403	269.546	168.803	172.830	173.598	177.907	250.092	177.243	-8191	255	
2907.099	1	1	0	0	0.052977	0.30541	0.079961	0.16864	0.15242	0.1014	0.11555	0.31026	0.0553	0.13575	0.27136	0.14349	0.21676	0.25737	0.14667	0.20561	-2.8312	-3.1042	-2.6083	-3.7229	-2.8542	-2.9437	-3.6625	-2.7021	-3.3854	-3.15	-2.7438	-3.3792	-2.9354	-3.0917	-3.4104	-2.7875	262.820	454.411	243.807	502.902	354.123	433.238	344.711	458.550	254.596	297.100	402.795	170.195	450.110	449.588	505.029	501.190	0.00052435	0.00024261	0.00015389	1446.1	5.794e-06	2.772e-06	1432	392.37	3.6206e-06	3.9365e-06	450.23	148.73	130.16	44.034	4.8328e-06	53.906	0.00021437	0.00019733	5.5106e-05	1433.1	2.1949e-06	2.1779e-06	1428	390.93	2.2165e-06	2.1696e-06	436.99	147.43	128.71	43.714	2.2199e-06	53.447	243.668	256.756	221.188	164.541	297.548	299.932	164.473	169.112	298.750	292.456	169.178	172.896	173.531	178.280	278.338	177.345	-8191	255	
2907.193	1	1	0	0	0.098929	0.067774	0.17518	0.21621	0.050094	0.13888	0.085414	0.38271	0.087204	0.15025	0.17349	0.27951	0.27143	0.35793	0.037676	0.42439	-2.8438	-3.0896	-2.6437	-3.4292	-2.8771	-2.6979	-3.6125	-2.7896	-2.9396	-3.3417	-2.7917	-3.4646	-3.0208	-2.8833	-3.3667	-2.8333	342.458	406.384	370.724	480.269	470.266	493.620	236.141	444.009	425.613	352.077	348.342	449.751	494.541	500.694	254.520	477.916	0.00056801	0.00055458	0.00014444	1443.7	6.3938e-06	5.7496e-06	1432.2	394.22	6.2797e-06	6.7519e-06	447.19	147.53	129.87	43.919	3.9562e-06	53.875	0.00021736	0.00020176	5.6098e-05	1432.8	2.2525e-06	2.1929e-06	1427.3	391.86	2.2331e-06	2.2152e-06	436.72	147.04	128.46	43.756	2.2445e-06	53.391	246.548	246.476	238.861	164.522	330.723	294.365	164.350	169.027	340.742	249.428	168.495	173.016	173.606	178.208	266.574	177.259	-8191	255	
2907.289	1	1	0	0	0.23672	0.089932	0.062257	0.11896	0.12997	0.10244	0.33855	0.27443	0.15631	0.1197	0.082662	0.31854	0.27794	0.098136	0.084265	0.1311	-2.7333	-3.2917	-2.4292	-3.4521	-2.9938	-2.7021	-3.6417	-2.7625	-2.7729	-3.4333	-2.5917	-3.425	-3.2104	-2.6354	-3.4083	-2.8271	438.457	480.146	317.855	446.603	481.423	247.644	453.899	441.303	484.235	324.244	319.297	475.116	407.408	191.529	198.408	174.219	0.00056488	0.00045536	7.2019e-05	1443.4	1.7208e-06	3.4939e-06	1434.9	393.49	4.0566e-07	2.2884e-06	450.84	147.78	129.81	43.761	3.3272e-06	53.773	0.00022219	0.0002017	5.7373e-05	1433.6	2.2673e-06	2.2695e-06	1429.5	391.07	2.2694e-06	2.2482e-06	437.03	147.17	128.64	43.708	2.2552e-06	53.43	246.836	252.743	246.819	164.554	331.780	259.419	164.420	169.164	191.935	290.947	168.440	173.021	173.423	177.668	254.565	177.332	-8191	255	
2907.386	1	1	0	0	0.22934	0.073583	0.24812	0.1388	0.17796	0.30643	0.29022	0.30599	0.1832	0.08842	0.14251	0.26629	0.35998	0.47144	0.15722	0.21468	-2.4625	-3.2583	-2.5708	-3.3833	-3.2479	-2.6604	-3.6562	-2.9667	-2.7625	-3.2604	-2.6813	-3.2167	-3.1375	-2.6396	-3.3917	-2.9771	336.454	259.649	385.583	389.648	181.075	333.387	493.670	449.664	311.165	193.610	436.944	411.380	453.052	478.069	474.767	379.108	0.00055665	0.00067965	0.00017171	1448.6	3.4819e-06	1.4023e-06	1428.8	392.82	6.1435e-06	3.8591e-06	449.63	148.97	129.96	43.886	2.7594e-06	53.856	0.00022283	0.00020434	5.7228e-05	1435.4	2.287e-06	2.2645e-06	1427.2	391.71	2.2684e-06	2.2641e-06	436.66	147.55	128.61	43.807	2.2786e-06	53.445	250.482	269.696	243.566	164.576	290.239	307.366	164.523	169.120	269.419	331.950	168.528	173.203	173.504	177.929	323.848	177.450	-8191	255	
2907.482	1	1	0	0	0.14948	0.061403	0.18188	0.32475	0.11099	0.25794	0.21311	0.1105	0.068366	0.36688	0.23227	0.30431	0.15572	0.23158	0.21243	0.19954	-2.3458	-3.3771	-2.5687	-3.2313	-3.2542	-2.5625	-3.5292	-3.1125	-2.7229	-3.4271	-2.7708	-3.0604	-3.4208	-2.6312	-3.1583	-3.0646	492.012	188.626	395.519	159.533	397.137	303.814	446.363	405.168	299.301	238.388	460.282	499.097	477.904	210.791	219.241	364.492	0.00052033	0.00033461	8.0768e-05	1441.5	4.9278e-06	3.0568e-06	1437.7	392.47	3.486e-06	4.9741e-06	448.19	148.04	130.24	43.872	3.0874e-06	54.032	0.00022607	0.00020713	5.7708e-05	1433.4	2.2929e-06	2.287e-06	1431.1	391.2	2.3228e-06	2.2775e-06	437.32	147.35	128.81	43.759	2.2727e-06	53.552	246.100	283.113	189.245	164.677	327.493	270.532	164.430	169.174	317.109	329.416	168.638	173.270	173.564	178.061	288.462	177.284	-8191	255	
2907.578	1	1	0	0	0.21233	0.14245	0.075092	0.21508	0.14253	0.14664	0.16921	0.3714	0.12034	0.11675	0.24337	0.047499	0.13244	0.22866	0.16175	0.10904	-2.2062	-3.5583	-2.7458	-3.2146	-3.3187	-2.7625	-3.3167	-3.1417	-2.6104	-3.3625	-2.8667	-2.8875	-3.5208	-2.7188	-3.2333	-3.2938	337.428	404.800	154.799	504.450	381.459	431.553	160.817	427.764	380.269	195.452	411.471	497.488	471.432	494.343	402.803	474.750	0.00053553	0.00062133	5.9807e-05	1441	3.7089e-06	3.5392e-06	1433.4	393.74	4.241e-06	3.3787e-06	448.21	147.87	130.15	44.094	6.0318e-06	53.86	0.00022545	0.00020542	5.7159e-05	1433	2.3347e-06	2.2587e-06	1428.4	392.22	2.2834e-06	2.2605e-06	436.65	147.3	128.85	43.778	2.286e-06	53.562	247.535	239.913	260.233	164.525	341.254	235.345	164.379	169.169	315.079	326.307	168.353	173.146	173.594	177.896	328.314	177.123	-8191	255	
2907.674	1	1	0	0	0.088499	0.21759	0.17554	0.34615	0.22233	0.04191	0.28514	0.15992	0.28928	0.2686	0.0089832	0.24218	0.34145	0.027893	0.061214	0.151	-2.1688	-3.1208	-2.8146	-2.9354	-3.3958	-2.5104	-3.3812	-3.2562	-2.4875	-3.5583	-3.1292	-2.8312	-3.5354	-2.6854	-3.0167	-3.2479	452.213	218.632	430.891	453.510	302.994	250.120	433.774	324.094	415.715	301.055	474.076	460.351	490.077	246.996	303.927	412.153	0.00056073	0.00029303	0.00017713	1445.4	6.1809e-06	2.3119e-06	1435.8	391.7	4.851e-06	4.3678e-06	449.39	148.63	130.11	43.984	5.154e-06	53.883	0.00022449	0.0002075	5.7566e-05	1434.8	2.29e-06	2.2514e-06	1429.3	391.09	2.2804e-06	2.2436e-06	437.52	147.42	128.78	43.785	2.2373e-06	53.501	247.505	260.506	236.936	164.735	287.614	272.755	164.641	169.178	278.270	337.987	168.830	173.070	173.514	178.001	328.187	177.319	-8191	255	
2907.770	1	1	0	0	0.050439	0.16535	0.14719	0.21323	0.13338	0.23507	0.051395	0.14978	0.25738	0.25348	0.16642	0.35875	0.4989	0.14704	0.20928	0.13882	-2.1229	-3.2667	-2.8833	-2.6854	-3.4437	-2.7938	-3.1813	-3.4042	-2.5438	-3.2687	-3.2146	-2.9437	-3.4104	-2.7708	-2.8896	-3.1875	234.361	331.305	250.056	446.640	297.022	188.043	468.396	469.243	446.803	282.230	413.865	495.724	490.619	177.243	248.426	284.895	0.00055504	0.00032888	0.00014265	1447.6	3.1316e-06	4.2464e-06	1437.8	392.93	4.386e-06	5.6916e-06	445.78	149.34	130.71	44.05	5.4671e-06	53.957	0.00022002	0.00020139	5.6476e-05	1435.1	2.2593e-06	2.227e-06	1431.6	391.81	2.2598e-06	2.2204e-06	435.83	147.61	128.97	43.787	2.2386e-06	53.468	250.088	256.020	259.832	164.648	321.913	284.010	164.535	168.997	287.767	316.819	168.310	172.984	173.732	178.090	321.309	177.116	-8191	255	
2907.891	1	1	0	0	0.074613	0.18174	0.18429	0.23693	0.15343	0.18995	0.27989	0.051238	0.18549	0.21454	0.029466	0.26495	0.19826	0.095586	0.20673	0.15432	-1.9521	-3.1521	-3.0312	-2.7854	-3.5312	-2.7021	-3.0521	-3.4542	-2.4313	-3.1479	-3.1083	-2.7188	-3.5208	-2.9771	-2.8896	-3.5542	300.232	423.209	241.711	400.421	221.668	403.755	476.800	496.394	376.430	354.556	172.090	165.636	454.162	331.282	213.044	439.171	0.0004754	0.00056443	0.00011884	1447	7.7593e-06	4.5076e-06	1440.4	392.4	2.7547e-06	5.9351e-06	447.82	147.81	130.05	43.986	5.9962e-06	53.904	0.00022079	0.00020222	5.5694e-05	1433.8	2.2571e-06	2.2001e-06	1431.3	391.18	2.2447e-06	2.2279e-06	436.77	147.25	128.82	43.758	2.1969e-06	53.548	251.919	173.782	264.612	164.510	299.885	307.343	164.637	169.197	290.718	271.844	168.557	172.948	173.818	177.832	253.691	177.316	-8191	255	
2907.985	1	1	0	0	0.19371	0.37189	0.18934	0.37306	0.10552	0.083144	0.34668	0.15245	0.069964	0.18441	0.10614	0.11039	0.28556	0.20499	0.25045	0.29783	-2.0375	-3.0979	-3.2146	-2.7979	-3.2271	-2.9292	-2.8375	-3.5396	-2.7604	-3.0312	-3.3	-2.7042	-3.2708	-3.0021	-2.6	-3.4854	209.185	306.632	432.271	474.221	212.771	392.978	451.713	436.469	328.104	245.069	218.069	449.994	404.784	437.041	490.045	477.731	0.00058918	0.00043519	0.00015041	1441.8	3.3404e-06	4.1446e-06	1439	391.64	7.5977e-06	2.5561e-06	448.75	149.05	130.49	44.129	5.8744e-06	54.143	0.00021918	0.00020071	5.5037e-05	1434.1	2.2005e-06	2.1945e-06	1431.5	391.03	2.1911e-06	2.1872e-06	436.55	147.43	128.96	43.789	2.1822e-06	53.6	248.431	319.403	240.521	164.646	377.716	257.040	164.634	169.037	275.473	335.430	168.603	172.973	173.895	177.883	319.360	177.417	-8191	255	
#DATA ENDS
